SAO LUIS EMBRACE-03 <279> 1 Min. Reported data

 DD MM YYYY  HH MM   D(Deg)  H(nT)   Z(nT)   I(Deg)   F(nT)

 06 10 2013  00 00  -21.0150 26022.9 -03492.3 -07.6435 26256.2
 06 10 2013  00 01  -21.0148 26023.2 -03492.5 -07.6438 26256.5
 06 10 2013  00 02  -21.0149 26022.7 -03492.3 -07.6435 26256.0
 06 10 2013  00 03  -21.0149 26022.8 -03492.3 -07.6434 26256.1
 06 10 2013  00 04  -21.0149 26022.8 -03492.3 -07.6435 26256.1
 06 10 2013  00 05  -21.0148 26022.8 -03492.3 -07.6435 26256.1
 06 10 2013  00 06  -21.0148 26022.8 -03492.3 -07.6435 26256.1
 06 10 2013  00 07  -21.0147 26022.7 -03492.3 -07.6434 26256.0
 06 10 2013  00 08  -21.0146 26022.7 -03492.2 -07.6434 26255.9
 06 10 2013  00 09  -21.0145 26022.7 -03492.2 -07.6434 26256.0
 06 10 2013  00 10  -21.0144 26022.7 -03492.3 -07.6434 26256.0
 06 10 2013  00 11  -21.0143 26022.7 -03492.3 -07.6435 26256.0
 06 10 2013  00 12  -21.0142 26022.7 -03492.3 -07.6435 26256.0
 06 10 2013  00 13  -21.0141 26022.7 -03492.3 -07.6435 26256.0
 06 10 2013  00 14  -21.0141 26022.8 -03492.4 -07.6436 26256.1
 06 10 2013  00 15  -21.0140 26022.8 -03492.3 -07.6436 26256.1
 06 10 2013  00 16  -21.0139 26022.8 -03492.3 -07.6436 26256.1
 06 10 2013  00 17  -21.0139 26022.8 -03492.4 -07.6436 26256.1
 06 10 2013  00 18  -21.0139 26022.8 -03492.4 -07.6437 26256.1
 06 10 2013  00 19  -21.0138 26022.7 -03492.4 -07.6437 26256.0
 06 10 2013  00 20  -21.0138 26022.7 -03492.4 -07.6437 26256.0
 06 10 2013  00 21  -21.0138 26022.8 -03492.4 -07.6438 26256.1
 06 10 2013  00 22  -21.0137 26022.8 -03492.5 -07.6439 26256.1
 06 10 2013  00 23  -21.0136 26022.8 -03492.5 -07.6439 26256.1
 06 10 2013  00 24  -21.0136 26022.8 -03492.5 -07.6439 26256.1
 06 10 2013  00 25  -21.0135 26022.8 -03492.5 -07.6440 26256.1
 06 10 2013  00 26  -21.0134 26022.8 -03492.5 -07.6440 26256.1
 06 10 2013  00 27  -21.0134 26022.8 -03492.5 -07.6440 26256.1
 06 10 2013  00 28  -21.0134 26022.8 -03492.6 -07.6441 26256.1
 06 10 2013  00 29  -21.0134 26022.8 -03492.6 -07.6441 26256.1
 06 10 2013  00 30  -21.0133 26022.8 -03492.6 -07.6441 26256.1
 06 10 2013  00 31  -21.0133 26022.8 -03492.6 -07.6441 26256.1
 06 10 2013  00 32  -21.0133 26022.7 -03492.6 -07.6441 26256.0
 06 10 2013  00 33  -21.0132 26022.7 -03492.6 -07.6441 26256.0
 06 10 2013  00 34  -21.0131 26022.8 -03492.6 -07.6442 26256.1
 06 10 2013  00 35  -21.0131 26022.8 -03492.7 -07.6443 26256.2
 06 10 2013  00 36  -21.0130 26022.8 -03492.7 -07.6444 26256.1
 06 10 2013  00 37  -21.0129 26022.8 -03492.7 -07.6444 26256.1
 06 10 2013  00 38  -21.0129 26022.8 -03492.7 -07.6444 26256.1
 06 10 2013  00 39  -21.0128 26022.8 -03492.7 -07.6444 26256.1
 06 10 2013  00 40  -21.0127 26022.7 -03492.7 -07.6444 26256.1
 06 10 2013  00 41  -21.0127 26022.7 -03492.7 -07.6445 26256.1
 06 10 2013  00 42  -21.0127 26022.7 -03492.7 -07.6445 26256.1
 06 10 2013  00 43  -21.0127 26022.7 -03492.8 -07.6446 26256.1
 06 10 2013  00 44  -21.0127 26022.7 -03492.8 -07.6446 26256.1
 06 10 2013  00 45  -21.0126 26022.8 -03492.8 -07.6446 26256.1
 06 10 2013  00 46  -21.0126 26022.8 -03492.9 -07.6447 26256.1
 06 10 2013  00 47  -21.0125 26022.8 -03492.9 -07.6447 26256.1
 06 10 2013  00 48  -21.0125 26022.8 -03492.9 -07.6448 26256.2
 06 10 2013  00 49  -21.0124 26022.8 -03493.0 -07.6449 26256.2
 06 10 2013  00 50  -21.0124 26022.8 -03492.9 -07.6449 26256.1
 06 10 2013  00 51  -21.0123 26022.7 -03492.9 -07.6449 26256.1
 06 10 2013  00 52  -21.0123 26022.7 -03493.0 -07.6450 26256.1
 06 10 2013  00 53  -21.0121 26022.7 -03492.9 -07.6449 26256.0
 06 10 2013  00 54  -21.0121 26022.6 -03492.9 -07.6449 26256.0
 06 10 2013  00 55  -21.0120 26022.6 -03492.9 -07.6449 26255.9
 06 10 2013  00 56  -21.0120 26022.5 -03492.9 -07.6449 26255.9
 06 10 2013  00 57  -21.0119 26022.5 -03492.9 -07.6450 26255.9
 06 10 2013  00 58  -21.0118 26022.6 -03493.0 -07.6450 26255.9
 06 10 2013  00 59  -21.0118 26022.6 -03493.0 -07.6450 26255.9
 06 10 2013  01 00  -21.0117 26022.5 -03493.0 -07.6451 26255.9
 06 10 2013  01 01  -21.0116 26022.6 -03493.0 -07.6452 26256.0
 06 10 2013  01 02  -21.0115 26022.6 -03493.1 -07.6452 26256.0
 06 10 2013  01 03  -21.0114 26022.6 -03493.1 -07.6452 26256.0
 06 10 2013  01 04  -21.0115 26022.6 -03493.1 -07.6453 26256.0
 06 10 2013  01 05  -21.0115 26022.6 -03493.1 -07.6454 26256.0
 06 10 2013  01 06  -21.0115 26022.7 -03493.1 -07.6454 26256.1
 06 10 2013  01 07  -21.0115 26022.6 -03493.1 -07.6453 26256.0
 06 10 2013  01 08  -21.0115 26022.6 -03493.1 -07.6454 26256.0
 06 10 2013  01 09  -21.0115 26022.6 -03493.2 -07.6454 26256.0
 06 10 2013  01 10  -21.0114 26022.6 -03493.1 -07.6454 26256.0
 06 10 2013  01 11  -21.0114 26022.6 -03493.2 -07.6454 26256.0
 06 10 2013  01 12  -21.0114 26022.6 -03493.2 -07.6454 26256.0
 06 10 2013  01 13  -21.0114 26022.5 -03493.2 -07.6454 26255.9
 06 10 2013  01 14  -21.0114 26022.5 -03493.2 -07.6454 26255.9
 06 10 2013  01 15  -21.0114 26022.5 -03493.1 -07.6454 26255.9
 06 10 2013  01 16  -21.0114 26022.5 -03493.2 -07.6454 26255.9
 06 10 2013  01 17  -21.0114 26022.5 -03493.2 -07.6454 26255.9
 06 10 2013  01 18  -21.0114 26022.5 -03493.2 -07.6455 26255.9
 06 10 2013  01 19  -21.0114 26022.5 -03493.2 -07.6455 26255.9
 06 10 2013  01 20  -21.0114 26022.5 -03493.2 -07.6455 26255.9
 06 10 2013  01 21  -21.0114 26022.5 -03493.2 -07.6455 26255.9
 06 10 2013  01 22  -21.0114 26022.5 -03493.2 -07.6455 26255.9
 06 10 2013  01 23  -21.0114 26022.5 -03493.2 -07.6456 26255.9
 06 10 2013  01 24  -21.0114 26022.4 -03493.2 -07.6456 26255.9
 06 10 2013  01 25  -21.0114 26022.4 -03493.2 -07.6456 26255.8
 06 10 2013  01 26  -21.0115 26022.4 -03493.2 -07.6456 26255.8
 06 10 2013  01 27  -21.0115 26022.4 -03493.3 -07.6457 26255.8
 06 10 2013  01 28  -21.0116 26022.4 -03493.2 -07.6456 26255.8
 06 10 2013  01 29  -21.0117 26022.4 -03493.2 -07.6456 26255.8
 06 10 2013  01 30  -21.0117 26022.4 -03493.2 -07.6457 26255.8
 06 10 2013  01 31  -21.0118 26022.3 -03493.2 -07.6456 26255.8
 06 10 2013  01 32  -21.0119 26022.3 -03493.2 -07.6456 26255.7
 06 10 2013  01 33  -21.0119 26022.3 -03493.3 -07.6457 26255.7
 06 10 2013  01 34  -21.0120 26022.3 -03493.2 -07.6457 26255.8
 06 10 2013  01 35  -21.0121 26022.4 -03493.2 -07.6457 26255.8
 06 10 2013  01 36  -21.0121 26022.4 -03493.3 -07.6457 26255.8
 06 10 2013  01 37  -21.0122 26022.4 -03493.3 -07.6457 26255.8
 06 10 2013  01 38  -21.0122 26022.4 -03493.3 -07.6458 26255.8
 06 10 2013  01 39  -21.0123 26022.5 -03493.3 -07.6458 26255.9
 06 10 2013  01 40  -21.0123 26022.5 -03493.3 -07.6457 26255.9
 06 10 2013  01 41  -21.0123 26022.5 -03493.3 -07.6458 26256.0
 06 10 2013  01 42  -21.0123 26022.6 -03493.3 -07.6458 26256.0
 06 10 2013  01 43  -21.0122 26022.5 -03493.3 -07.6457 26256.0
 06 10 2013  01 44  -21.0122 26022.5 -03493.3 -07.6458 26256.0
 06 10 2013  01 45  -21.0123 26022.6 -03493.3 -07.6458 26256.0
 06 10 2013  01 46  -21.0123 26022.6 -03493.3 -07.6458 26256.0
 06 10 2013  01 47  -21.0123 26022.6 -03493.3 -07.6458 26256.1
 06 10 2013  01 48  -21.0124 26022.7 -03493.4 -07.6458 26256.1
 06 10 2013  01 49  -21.0126 26022.7 -03493.4 -07.6458 26256.1
 06 10 2013  01 50  -21.0127 26022.6 -03493.3 -07.6458 26256.1
 06 10 2013  01 51  -21.0126 26022.7 -03493.3 -07.6457 26256.1
 06 10 2013  01 52  -21.0126 26022.6 -03493.3 -07.6458 26256.1
 06 10 2013  01 53  -21.0126 26022.6 -03493.3 -07.6457 26256.0
 06 10 2013  01 54  -21.0126 26022.4 -03493.2 -07.6456 26255.9
 06 10 2013  01 55  -21.0127 26022.4 -03493.2 -07.6455 26255.8
 06 10 2013  01 56  -21.0128 26022.3 -03493.2 -07.6455 26255.7
 06 10 2013  01 57  -21.0128 26022.2 -03493.1 -07.6454 26255.6
 06 10 2013  01 58  -21.0128 26022.2 -03493.1 -07.6454 26255.6
 06 10 2013  01 59  -21.0129 26022.2 -03493.1 -07.6454 26255.6
 06 10 2013  02 00  -21.0129 26022.2 -03493.1 -07.6454 26255.6
 06 10 2013  02 01  -21.0130 26022.2 -03493.1 -07.6454 26255.6
 06 10 2013  02 02  -21.0131 26022.2 -03493.1 -07.6454 26255.6
 06 10 2013  02 03  -21.0131 26022.1 -03493.1 -07.6454 26255.5
 06 10 2013  02 04  -21.0132 26022.1 -03493.1 -07.6454 26255.5
 06 10 2013  02 05  -21.0132 26022.1 -03493.1 -07.6454 26255.5
 06 10 2013  02 06  -21.0132 26022.1 -03493.1 -07.6454 26255.5
 06 10 2013  02 07  -21.0133 26022.2 -03493.1 -07.6455 26255.6
 06 10 2013  02 08  -21.0134 26022.2 -03493.2 -07.6455 26255.6
 06 10 2013  02 09  -21.0135 26022.2 -03493.2 -07.6455 26255.6
 06 10 2013  02 10  -21.0134 26022.2 -03493.2 -07.6455 26255.6
 06 10 2013  02 11  -21.0135 26022.2 -03493.2 -07.6456 26255.6
 06 10 2013  02 12  -21.0134 26022.1 -03493.1 -07.6455 26255.5
 06 10 2013  02 13  -21.0135 26022.1 -03493.1 -07.6455 26255.5
 06 10 2013  02 14  -21.0135 26022.1 -03493.1 -07.6455 26255.5
 06 10 2013  02 15  -21.0135 26022.0 -03493.2 -07.6456 26255.4
 06 10 2013  02 16  -21.0135 26022.0 -03493.1 -07.6455 26255.4
 06 10 2013  02 17  -21.0135 26022.0 -03493.1 -07.6456 26255.4
 06 10 2013  02 18  -21.0135 26022.0 -03493.2 -07.6456 26255.4
 06 10 2013  02 19  -21.0135 26021.9 -03493.2 -07.6457 26255.4
 06 10 2013  02 20  -21.0135 26021.9 -03493.2 -07.6457 26255.3
 06 10 2013  02 21  -21.0136 26021.9 -03493.2 -07.6458 26255.3
 06 10 2013  02 22  -21.0136 26021.8 -03493.2 -07.6457 26255.2
 06 10 2013  02 23  -21.0136 26021.7 -03493.2 -07.6457 26255.1
 06 10 2013  02 24  -21.0136 26021.6 -03493.2 -07.6457 26255.0
 06 10 2013  02 25  -21.0137 26021.5 -03493.2 -07.6459 26255.0
 06 10 2013  02 26  -21.0137 26021.5 -03493.2 -07.6459 26254.9
 06 10 2013  02 27  -21.0136 26021.6 -03493.3 -07.6460 26255.0
 06 10 2013  02 28  -21.0137 26021.5 -03493.3 -07.6461 26255.0
 06 10 2013  02 29  -21.0140 26021.4 -03493.3 -07.6460 26254.8
 06 10 2013  02 30  -21.0140 26021.5 -03493.3 -07.6462 26254.9
 06 10 2013  02 31  -21.0139 26021.6 -03493.5 -07.6464 26255.1
 06 10 2013  02 32  -21.0139 26021.6 -03493.5 -07.6465 26255.1
 06 10 2013  02 33  -21.0138 26021.7 -03493.6 -07.6466 26255.1
 06 10 2013  02 34  -21.0138 26021.7 -03493.6 -07.6466 26255.2
 06 10 2013  02 35  -21.0140 26021.6 -03493.6 -07.6466 26255.1
 06 10 2013  02 36  -21.0140 26021.8 -03493.7 -07.6468 26255.2
 06 10 2013  02 37  -21.0140 26021.7 -03493.7 -07.6468 26255.2
 06 10 2013  02 38  -21.0141 26021.6 -03493.7 -07.6468 26255.1
 06 10 2013  02 39  -21.0141 26021.6 -03493.7 -07.6468 26255.1
 06 10 2013  02 40  -21.0141 26021.5 -03493.6 -07.6467 26255.0
 06 10 2013  02 41  -21.0140 26021.5 -03493.6 -07.6467 26255.0
 06 10 2013  02 42  -21.0140 26021.5 -03493.6 -07.6468 26255.0
 06 10 2013  02 43  -21.0140 26021.4 -03493.6 -07.6467 26254.9
 06 10 2013  02 44  -21.0140 26021.4 -03493.6 -07.6467 26254.9
 06 10 2013  02 45  -21.0140 26021.4 -03493.6 -07.6467 26254.9
 06 10 2013  02 46  -21.0140 26021.4 -03493.6 -07.6467 26254.9
 06 10 2013  02 47  -21.0140 26021.4 -03493.6 -07.6467 26254.8
 06 10 2013  02 48  -21.0140 26021.3 -03493.6 -07.6467 26254.8
 06 10 2013  02 49  -21.0139 26021.2 -03493.5 -07.6466 26254.7
 06 10 2013  02 50  -21.0139 26021.1 -03493.5 -07.6466 26254.6
 06 10 2013  02 51  -21.0139 26021.0 -03493.5 -07.6465 26254.5
 06 10 2013  02 52  -21.0140 26021.0 -03493.5 -07.6465 26254.4
 06 10 2013  02 53  -21.0140 26020.9 -03493.5 -07.6466 26254.4
 06 10 2013  02 54  -21.0141 26020.9 -03493.5 -07.6466 26254.4
 06 10 2013  02 55  -21.0141 26020.8 -03493.5 -07.6467 26254.3
 06 10 2013  02 56  -21.0140 26020.8 -03493.5 -07.6468 26254.3
 06 10 2013  02 57  -21.0140 26020.8 -03493.6 -07.6468 26254.3
 06 10 2013  02 58  -21.0140 26020.8 -03493.6 -07.6470 26254.3
 06 10 2013  02 59  -21.0139 26020.9 -03493.7 -07.6471 26254.4
 06 10 2013  03 00  -21.0139 26021.0 -03493.8 -07.6473 26254.5
 06 10 2013  03 01  -21.0137 26021.0 -03493.9 -07.6474 26254.5
 06 10 2013  03 02  -21.0137 26021.0 -03493.9 -07.6476 26254.5
 06 10 2013  03 03  -21.0139 26020.9 -03493.9 -07.6476 26254.4
 06 10 2013  03 04  -21.0140 26021.0 -03494.0 -07.6477 26254.5
 06 10 2013  03 05  -21.0140 26021.0 -03494.1 -07.6479 26254.5
 06 10 2013  03 06  -21.0139 26020.9 -03494.1 -07.6479 26254.5
 06 10 2013  03 07  -21.0138 26020.9 -03494.2 -07.6480 26254.5
 06 10 2013  03 08  -21.0137 26020.9 -03494.2 -07.6481 26254.4
 06 10 2013  03 09  -21.0138 26020.9 -03494.3 -07.6483 26254.4
 06 10 2013  03 10  -21.0139 26020.9 -03494.3 -07.6484 26254.4
 06 10 2013  03 11  -21.0139 26020.9 -03494.4 -07.6486 26254.5
 06 10 2013  03 12  -21.0141 26020.9 -03494.5 -07.6488 26254.5
 06 10 2013  03 13  -21.0141 26021.0 -03494.6 -07.6490 26254.6
 06 10 2013  03 14  -21.0141 26021.1 -03494.7 -07.6492 26254.7
 06 10 2013  03 15  -21.0142 26021.1 -03494.7 -07.6493 26254.7
 06 10 2013  03 16  -21.0144 26021.0 -03494.8 -07.6494 26254.7
 06 10 2013  03 17  -21.0145 26021.0 -03494.8 -07.6495 26254.7
 06 10 2013  03 18  -21.0146 26021.1 -03494.9 -07.6497 26254.7
 06 10 2013  03 19  -21.0147 26021.1 -03495.0 -07.6499 26254.8
 06 10 2013  03 20  -21.0148 26021.2 -03495.1 -07.6500 26254.9
 06 10 2013  03 21  -21.0149 26021.3 -03495.2 -07.6501 26255.0
 06 10 2013  03 22  -21.0150 26021.3 -03495.2 -07.6502 26255.0
 06 10 2013  03 23  -21.0151 26021.4 -03495.3 -07.6504 26255.1
 06 10 2013  03 24  -21.0152 26021.4 -03495.3 -07.6504 26255.1
 06 10 2013  03 25  -21.0154 26021.4 -03495.4 -07.6506 26255.1
 06 10 2013  03 26  -21.0156 26021.5 -03495.4 -07.6506 26255.2
 06 10 2013  03 27  -21.0157 26021.5 -03495.4 -07.6507 26255.2
 06 10 2013  03 28  -21.0158 26021.5 -03495.5 -07.6507 26255.2
 06 10 2013  03 29  -21.0161 26021.5 -03495.5 -07.6508 26255.2
 06 10 2013  03 30  -21.0163 26021.5 -03495.5 -07.6508 26255.2
 06 10 2013  03 31  -21.0163 26021.5 -03495.5 -07.6507 26255.2
 06 10 2013  03 32  -21.0164 26021.5 -03495.5 -07.6508 26255.3
 06 10 2013  03 33  -21.0165 26021.6 -03495.5 -07.6508 26255.3
 06 10 2013  03 34  -21.0165 26021.6 -03495.5 -07.6508 26255.4
 06 10 2013  03 35  -21.0166 26021.6 -03495.5 -07.6508 26255.4
 06 10 2013  03 36  -21.0167 26021.7 -03495.6 -07.6509 26255.4
 06 10 2013  03 37  -21.0167 26021.7 -03495.6 -07.6509 26255.5
 06 10 2013  03 38  -21.0168 26021.8 -03495.6 -07.6509 26255.5
 06 10 2013  03 39  -21.0169 26021.8 -03495.5 -07.6508 26255.5
 06 10 2013  03 40  -21.0170 26021.7 -03495.5 -07.6508 26255.5
 06 10 2013  03 41  -21.0171 26021.7 -03495.5 -07.6507 26255.4
 06 10 2013  03 42  -21.0172 26021.7 -03495.5 -07.6507 26255.4
 06 10 2013  03 43  -21.0172 26021.6 -03495.5 -07.6507 26255.4
 06 10 2013  03 44  -21.0173 26021.7 -03495.5 -07.6507 26255.4
 06 10 2013  03 45  -21.0173 26021.7 -03495.5 -07.6507 26255.5
 06 10 2013  03 46  -21.0174 26021.7 -03495.5 -07.6507 26255.5
 06 10 2013  03 47  -21.0175 26021.8 -03495.5 -07.6507 26255.5
 06 10 2013  03 48  -21.0174 26021.8 -03495.5 -07.6507 26255.5
 06 10 2013  03 49  -21.0175 26021.8 -03495.5 -07.6507 26255.6
 06 10 2013  03 50  -21.0175 26021.9 -03495.5 -07.6507 26255.6
 06 10 2013  03 51  -21.0176 26021.9 -03495.5 -07.6507 26255.6
 06 10 2013  03 52  -21.0176 26021.9 -03495.5 -07.6507 26255.6
 06 10 2013  03 53  -21.0175 26022.0 -03495.5 -07.6507 26255.7
 06 10 2013  03 54  -21.0175 26022.0 -03495.5 -07.6507 26255.7
 06 10 2013  03 55  -21.0176 26022.0 -03495.5 -07.6507 26255.8
 06 10 2013  03 56  -21.0176 26022.1 -03495.5 -07.6507 26255.8
 06 10 2013  03 57  -21.0177 26022.1 -03495.6 -07.6507 26255.8
 06 10 2013  03 58  -21.0177 26022.2 -03495.6 -07.6508 26255.9
 06 10 2013  03 59  -21.0176 26022.3 -03495.6 -07.6508 26256.0
 06 10 2013  04 00  -21.0175 26022.3 -03495.6 -07.6507 26256.1
 06 10 2013  04 01  -21.0175 26022.3 -03495.6 -07.6508 26256.1
 06 10 2013  04 02  -21.0174 26022.3 -03495.6 -07.6508 26256.1
 06 10 2013  04 03  -21.0175 26022.4 -03495.6 -07.6508 26256.1
 06 10 2013  04 04  -21.0174 26022.5 -03495.6 -07.6507 26256.2
 06 10 2013  04 05  -21.0174 26022.5 -03495.6 -07.6508 26256.2
 06 10 2013  04 06  -21.0173 26022.5 -03495.6 -07.6507 26256.2
 06 10 2013  04 07  -21.0172 26022.5 -03495.6 -07.6507 26256.3
 06 10 2013  04 08  -21.0171 26022.6 -03495.6 -07.6507 26256.3
 06 10 2013  04 09  -21.0171 26022.6 -03495.6 -07.6507 26256.4
 06 10 2013  04 10  -21.0171 26022.7 -03495.6 -07.6507 26256.4
 06 10 2013  04 11  -21.0171 26022.7 -03495.6 -07.6507 26256.5
 06 10 2013  04 12  -21.0171 26022.8 -03495.6 -07.6507 26256.5
 06 10 2013  04 13  -21.0171 26022.8 -03495.7 -07.6507 26256.6
 06 10 2013  04 14  -21.0170 26022.9 -03495.6 -07.6507 26256.6
 06 10 2013  04 15  -21.0170 26022.9 -03495.6 -07.6507 26256.6
 06 10 2013  04 16  -21.0170 26023.0 -03495.6 -07.6507 26256.7
 06 10 2013  04 17  -21.0170 26023.0 -03495.7 -07.6508 26256.8
 06 10 2013  04 18  -21.0169 26023.1 -03495.7 -07.6507 26256.8
 06 10 2013  04 19  -21.0171 26023.1 -03495.7 -07.6508 26256.9
 06 10 2013  04 20  -21.0171 26023.3 -03495.7 -07.6508 26257.0
 06 10 2013  04 21  -21.0170 26023.3 -03495.7 -07.6507 26257.1
 06 10 2013  04 22  -21.0168 26023.4 -03495.7 -07.6506 26257.1
 06 10 2013  04 23  -21.0168 26023.4 -03495.7 -07.6506 26257.1
 06 10 2013  04 24  -21.0168 26023.4 -03495.7 -07.6506 26257.2
 06 10 2013  04 25  -21.0167 26023.5 -03495.6 -07.6505 26257.2
 06 10 2013  04 26  -21.0165 26023.5 -03495.6 -07.6505 26257.2
 06 10 2013  04 27  -21.0164 26023.5 -03495.6 -07.6505 26257.2
 06 10 2013  04 28  -21.0164 26023.5 -03495.6 -07.6504 26257.2
 06 10 2013  04 29  -21.0164 26023.5 -03495.6 -07.6503 26257.2
 06 10 2013  04 30  -21.0163 26023.6 -03495.6 -07.6503 26257.3
 06 10 2013  04 31  -21.0161 26023.6 -03495.5 -07.6503 26257.3
 06 10 2013  04 32  -21.0161 26023.6 -03495.5 -07.6502 26257.3
 06 10 2013  04 33  -21.0160 26023.6 -03495.5 -07.6503 26257.3
 06 10 2013  04 34  -21.0159 26023.7 -03495.5 -07.6502 26257.4
 06 10 2013  04 35  -21.0157 26023.8 -03495.5 -07.6502 26257.5
 06 10 2013  04 36  -21.0156 26023.8 -03495.5 -07.6502 26257.5
 06 10 2013  04 37  -21.0158 26023.8 -03495.6 -07.6503 26257.5
 06 10 2013  04 38  -21.0159 26023.8 -03495.5 -07.6502 26257.5
 06 10 2013  04 39  -21.0157 26023.9 -03495.5 -07.6502 26257.6
 06 10 2013  04 40  -21.0155 26024.0 -03495.6 -07.6502 26257.7
 06 10 2013  04 41  -21.0155 26023.9 -03495.5 -07.6502 26257.7
 06 10 2013  04 42  -21.0156 26023.9 -03495.5 -07.6501 26257.6
 06 10 2013  04 43  -21.0155 26023.9 -03495.5 -07.6501 26257.6
 06 10 2013  04 44  -21.0155 26023.9 -03495.4 -07.6500 26257.6
 06 10 2013  04 45  -21.0153 26023.9 -03495.5 -07.6500 26257.6
 06 10 2013  04 46  -21.0152 26023.9 -03495.4 -07.6500 26257.6
 06 10 2013  04 47  -21.0153 26023.9 -03495.4 -07.6499 26257.6
 06 10 2013  04 48  -21.0153 26023.8 -03495.4 -07.6498 26257.5
 06 10 2013  04 49  -21.0154 26023.9 -03495.4 -07.6499 26257.6
 06 10 2013  04 50  -21.0152 26024.0 -03495.4 -07.6499 26257.7
 06 10 2013  04 51  -21.0151 26024.1 -03495.5 -07.6500 26257.8
 06 10 2013  04 52  -21.0151 26024.0 -03495.4 -07.6499 26257.7
 06 10 2013  04 53  -21.0153 26024.0 -03495.4 -07.6499 26257.7
 06 10 2013  04 54  -21.0153 26024.1 -03495.4 -07.6499 26257.8
 06 10 2013  04 55  -21.0151 26024.1 -03495.4 -07.6498 26257.8
 06 10 2013  04 56  -21.0150 26024.2 -03495.4 -07.6499 26257.9
 06 10 2013  04 57  -21.0150 26024.2 -03495.4 -07.6499 26257.8
 06 10 2013  04 58  -21.0150 26024.2 -03495.4 -07.6498 26257.9
 06 10 2013  04 59  -21.0150 26024.2 -03495.4 -07.6498 26257.9
 06 10 2013  05 00  -21.0150 26024.3 -03495.5 -07.6499 26258.0
 06 10 2013  05 01  -21.0148 26024.4 -03495.5 -07.6499 26258.1
 06 10 2013  05 02  -21.0147 26024.5 -03495.5 -07.6500 26258.2
 06 10 2013  05 03  -21.0147 26024.5 -03495.5 -07.6500 26258.2
 06 10 2013  05 04  -21.0147 26024.6 -03495.5 -07.6500 26258.3
 06 10 2013  05 05  -21.0146 26024.6 -03495.5 -07.6500 26258.3
 06 10 2013  05 06  -21.0145 26024.6 -03495.5 -07.6500 26258.4
 06 10 2013  05 07  -21.0144 26024.7 -03495.5 -07.6499 26258.4
 06 10 2013  05 08  -21.0142 26024.7 -03495.5 -07.6499 26258.4
 06 10 2013  05 09  -21.0142 26024.7 -03495.5 -07.6499 26258.4
 06 10 2013  05 10  -21.0141 26024.7 -03495.5 -07.6499 26258.4
 06 10 2013  05 11  -21.0141 26024.7 -03495.5 -07.6499 26258.4
 06 10 2013  05 12  -21.0139 26024.6 -03495.5 -07.6498 26258.3
 06 10 2013  05 13  -21.0139 26024.6 -03495.5 -07.6498 26258.3
 06 10 2013  05 14  -21.0138 26024.6 -03495.5 -07.6498 26258.3
 06 10 2013  05 15  -21.0138 26024.6 -03495.5 -07.6498 26258.3
 06 10 2013  05 16  -21.0137 26024.6 -03495.5 -07.6498 26258.3
 06 10 2013  05 17  -21.0136 26024.6 -03495.5 -07.6498 26258.3
 06 10 2013  05 18  -21.0135 26024.6 -03495.4 -07.6498 26258.3
 06 10 2013  05 19  -21.0135 26024.7 -03495.5 -07.6499 26258.4
 06 10 2013  05 20  -21.0134 26024.7 -03495.5 -07.6499 26258.4
 06 10 2013  05 21  -21.0134 26024.6 -03495.5 -07.6499 26258.3
 06 10 2013  05 22  -21.0133 26024.7 -03495.5 -07.6499 26258.4
 06 10 2013  05 23  -21.0133 26024.8 -03495.6 -07.6500 26258.5
 06 10 2013  05 24  -21.0132 26024.8 -03495.6 -07.6500 26258.5
 06 10 2013  05 25  -21.0131 26024.9 -03495.6 -07.6500 26258.6
 06 10 2013  05 26  -21.0131 26024.9 -03495.6 -07.6500 26258.6
 06 10 2013  05 27  -21.0130 26024.9 -03495.6 -07.6500 26258.6
 06 10 2013  05 28  -21.0129 26025.0 -03495.6 -07.6500 26258.7
 06 10 2013  05 29  -21.0127 26025.1 -03495.6 -07.6500 26258.8
 06 10 2013  05 30  -21.0129 26025.0 -03495.6 -07.6500 26258.7
 06 10 2013  05 31  -21.0129 26025.0 -03495.6 -07.6500 26258.7
 06 10 2013  05 32  -21.0127 26025.1 -03495.6 -07.6499 26258.8
 06 10 2013  05 33  -21.0127 26025.0 -03495.5 -07.6499 26258.7
 06 10 2013  05 34  -21.0125 26025.1 -03495.6 -07.6499 26258.8
 06 10 2013  05 35  -21.0123 26025.1 -03495.6 -07.6499 26258.8
 06 10 2013  05 36  -21.0122 26025.1 -03495.5 -07.6498 26258.8
 06 10 2013  05 37  -21.0124 26025.2 -03495.5 -07.6498 26258.9
 06 10 2013  05 38  -21.0124 26025.2 -03495.5 -07.6498 26258.9
 06 10 2013  05 39  -21.0124 26025.2 -03495.5 -07.6497 26258.9
 06 10 2013  05 40  -21.0121 26025.3 -03495.6 -07.6498 26259.0
 06 10 2013  05 41  -21.0120 26025.4 -03495.6 -07.6498 26259.1
 06 10 2013  05 42  -21.0121 26025.4 -03495.6 -07.6499 26259.1
 06 10 2013  05 43  -21.0123 26025.5 -03495.6 -07.6499 26259.2
 06 10 2013  05 44  -21.0124 26025.7 -03495.7 -07.6500 26259.4
 06 10 2013  05 45  -21.0122 26025.9 -03495.8 -07.6501 26259.6
 06 10 2013  05 46  -21.0119 26026.0 -03495.8 -07.6502 26259.7
 06 10 2013  05 47  -21.0118 26026.0 -03495.8 -07.6501 26259.7
 06 10 2013  05 48  -21.0116 26025.9 -03495.7 -07.6499 26259.6
 06 10 2013  05 49  -21.0112 26025.8 -03495.6 -07.6498 26259.5
 06 10 2013  05 50  -21.0111 26025.9 -03495.7 -07.6499 26259.6
 06 10 2013  05 51  -21.0111 26025.9 -03495.7 -07.6499 26259.6
 06 10 2013  05 52  -21.0112 26025.8 -03495.7 -07.6499 26259.5
 06 10 2013  05 53  -21.0115 26025.9 -03495.7 -07.6500 26259.6
 06 10 2013  05 54  -21.0117 26025.9 -03495.7 -07.6500 26259.6
 06 10 2013  05 55  -21.0117 26026.0 -03495.7 -07.6500 26259.7
 06 10 2013  05 56  -21.0117 26026.1 -03495.8 -07.6501 26259.8
 06 10 2013  05 57  -21.0118 26026.2 -03495.9 -07.6503 26260.0
 06 10 2013  05 58  -21.0118 26026.3 -03495.9 -07.6503 26260.0
 06 10 2013  05 59  -21.0119 26026.4 -03496.0 -07.6504 26260.1
 06 10 2013  06 00  -21.0119 26026.3 -03495.9 -07.6503 26260.0
 06 10 2013  06 01  -21.0119 26026.2 -03495.9 -07.6502 26260.0
 06 10 2013  06 02  -21.0118 26026.2 -03495.9 -07.6502 26260.0
 06 10 2013  06 03  -21.0118 26026.2 -03495.8 -07.6502 26259.9
 06 10 2013  06 04  -21.0120 26026.2 -03495.8 -07.6501 26259.9
 06 10 2013  06 05  -21.0123 26026.2 -03495.9 -07.6502 26260.0
 06 10 2013  06 06  -21.0124 26026.1 -03495.8 -07.6502 26259.9
 06 10 2013  06 07  -21.0124 26026.1 -03495.8 -07.6501 26259.9
 06 10 2013  06 08  -21.0125 26026.2 -03495.8 -07.6501 26259.9
 06 10 2013  06 09  -21.0126 26026.2 -03495.8 -07.6502 26259.9
 06 10 2013  06 10  -21.0127 26026.2 -03495.8 -07.6502 26259.9
 06 10 2013  06 11  -21.0129 26026.2 -03495.9 -07.6502 26260.0
 06 10 2013  06 12  -21.0130 26026.2 -03495.9 -07.6502 26260.0
 06 10 2013  06 13  -21.0130 26026.3 -03495.9 -07.6503 26260.0
 06 10 2013  06 14  -21.0130 26026.3 -03495.9 -07.6503 26260.0
 06 10 2013  06 15  -21.0131 26026.3 -03495.9 -07.6503 26260.1
 06 10 2013  06 16  -21.0131 26026.3 -03495.9 -07.6502 26260.0
 06 10 2013  06 17  -21.0132 26026.3 -03495.9 -07.6502 26260.0
 06 10 2013  06 18  -21.0131 26026.3 -03495.9 -07.6503 26260.0
 06 10 2013  06 19  -21.0130 26026.3 -03495.9 -07.6502 26260.0
 06 10 2013  06 20  -21.0130 26026.3 -03495.9 -07.6503 26260.1
 06 10 2013  06 21  -21.0132 26026.4 -03496.0 -07.6504 26260.1
 06 10 2013  06 22  -21.0134 26026.3 -03496.0 -07.6504 26260.1
 06 10 2013  06 23  -21.0134 26026.2 -03495.9 -07.6503 26260.0
 06 10 2013  06 24  -21.0132 26026.3 -03495.9 -07.6503 26260.0
 06 10 2013  06 25  -21.0132 26026.4 -03495.9 -07.6503 26260.1
 06 10 2013  06 26  -21.0130 26026.3 -03495.9 -07.6503 26260.0
 06 10 2013  06 27  -21.0130 26026.3 -03495.9 -07.6503 26260.1
 06 10 2013  06 28  -21.0128 26026.4 -03496.0 -07.6504 26260.1
 06 10 2013  06 29  -21.0128 26026.4 -03496.0 -07.6504 26260.2
 06 10 2013  06 30  -21.0126 26026.4 -03495.9 -07.6503 26260.1
 06 10 2013  06 31  -21.0127 26026.3 -03495.9 -07.6502 26260.0
 06 10 2013  06 32  -21.0125 26026.3 -03495.8 -07.6501 26260.1
 06 10 2013  06 33  -21.0125 26026.4 -03495.8 -07.6501 26260.1
 06 10 2013  06 34  -21.0125 26026.4 -03495.8 -07.6501 26260.1
 06 10 2013  06 35  -21.0126 26026.3 -03495.8 -07.6500 26260.0
 06 10 2013  06 36  -21.0126 26026.4 -03495.7 -07.6499 26260.1
 06 10 2013  06 37  -21.0126 26026.4 -03495.8 -07.6500 26260.1
 06 10 2013  06 38  -21.0127 26026.4 -03495.8 -07.6499 26260.2
 06 10 2013  06 39  -21.0129 26026.5 -03495.8 -07.6499 26260.2
 06 10 2013  06 40  -21.0131 26026.5 -03495.8 -07.6500 26260.2
 06 10 2013  06 41  -21.0131 26026.5 -03495.8 -07.6499 26260.2
 06 10 2013  06 42  -21.0132 26026.5 -03495.8 -07.6499 26260.2
 06 10 2013  06 43  -21.0133 26026.6 -03495.8 -07.6499 26260.3
 06 10 2013  06 44  -21.0135 26026.6 -03495.8 -07.6499 26260.3
 06 10 2013  06 45  -21.0135 26026.6 -03495.8 -07.6499 26260.3
 06 10 2013  06 46  -21.0136 26026.6 -03495.8 -07.6499 26260.4
 06 10 2013  06 47  -21.0136 26026.7 -03495.8 -07.6499 26260.4
 06 10 2013  06 48  -21.0137 26026.7 -03495.8 -07.6499 26260.4
 06 10 2013  06 49  -21.0137 26026.7 -03495.8 -07.6500 26260.4
 06 10 2013  06 50  -21.0138 26026.7 -03495.9 -07.6500 26260.5
 06 10 2013  06 51  -21.0139 26026.8 -03495.9 -07.6501 26260.5
 06 10 2013  06 52  -21.0139 26026.8 -03495.9 -07.6501 26260.5
 06 10 2013  06 53  -21.0139 26026.9 -03495.9 -07.6501 26260.6
 06 10 2013  06 54  -21.0138 26026.9 -03495.9 -07.6502 26260.6
 06 10 2013  06 55  -21.0137 26026.9 -03495.9 -07.6501 26260.6
 06 10 2013  06 56  -21.0139 26026.9 -03495.9 -07.6501 26260.6
 06 10 2013  06 57  -21.0140 26026.9 -03496.0 -07.6502 26260.6
 06 10 2013  06 58  -21.0140 26026.9 -03496.0 -07.6503 26260.7
 06 10 2013  06 59  -21.0138 26027.0 -03496.0 -07.6502 26260.7
 06 10 2013  07 00  -21.0137 26027.0 -03496.0 -07.6503 26260.8
 06 10 2013  07 01  -21.0137 26027.0 -03496.0 -07.6503 26260.8
 06 10 2013  07 02  -21.0137 26027.0 -03496.0 -07.6503 26260.8
 06 10 2013  07 03  -21.0139 26027.0 -03496.0 -07.6504 26260.8
 06 10 2013  07 04  -21.0140 26027.1 -03496.1 -07.6504 26260.8
 06 10 2013  07 05  -21.0138 26027.2 -03496.1 -07.6505 26260.9
 06 10 2013  07 06  -21.0138 26027.2 -03496.1 -07.6505 26261.0
 06 10 2013  07 07  -21.0138 26027.2 -03496.1 -07.6505 26261.0
 06 10 2013  07 08  -21.0137 26027.2 -03496.2 -07.6506 26261.0
 06 10 2013  07 09  -21.0139 26027.2 -03496.1 -07.6505 26261.0
 06 10 2013  07 10  -21.0139 26027.3 -03496.2 -07.6506 26261.1
 06 10 2013  07 11  -21.0138 26027.3 -03496.2 -07.6506 26261.1
 06 10 2013  07 12  -21.0137 26027.3 -03496.2 -07.6507 26261.1
 06 10 2013  07 13  -21.0137 26027.2 -03496.2 -07.6506 26261.0
 06 10 2013  07 14  -21.0138 26027.2 -03496.1 -07.6504 26260.9
 06 10 2013  07 15  -21.0138 26027.2 -03496.1 -07.6504 26260.9
 06 10 2013  07 16  -21.0137 26027.2 -03496.1 -07.6504 26260.9
 06 10 2013  07 17  -21.0137 26027.2 -03496.1 -07.6505 26261.0
 06 10 2013  07 18  -21.0138 26027.2 -03496.1 -07.6505 26261.0
 06 10 2013  07 19  -21.0138 26027.2 -03496.1 -07.6504 26261.0
 06 10 2013  07 20  -21.0139 26027.3 -03496.2 -07.6505 26261.1
 06 10 2013  07 21  -21.0138 26027.5 -03496.2 -07.6507 26261.2
 06 10 2013  07 22  -21.0137 26027.6 -03496.3 -07.6507 26261.4
 06 10 2013  07 23  -21.0137 26027.7 -03496.3 -07.6508 26261.5
 06 10 2013  07 24  -21.0138 26027.8 -03496.4 -07.6509 26261.6
 06 10 2013  07 25  -21.0136 26027.8 -03496.4 -07.6508 26261.6
 06 10 2013  07 26  -21.0135 26027.8 -03496.4 -07.6508 26261.6
 06 10 2013  07 27  -21.0134 26027.8 -03496.4 -07.6508 26261.6
 06 10 2013  07 28  -21.0133 26027.8 -03496.3 -07.6507 26261.6
 06 10 2013  07 29  -21.0132 26027.8 -03496.3 -07.6507 26261.5
 06 10 2013  07 30  -21.0131 26027.8 -03496.3 -07.6507 26261.6
 06 10 2013  07 31  -21.0128 26027.8 -03496.3 -07.6506 26261.6
 06 10 2013  07 32  -21.0129 26027.7 -03496.2 -07.6506 26261.5
 06 10 2013  07 33  -21.0132 26027.6 -03496.2 -07.6505 26261.3
 06 10 2013  07 34  -21.0130 26027.6 -03496.2 -07.6505 26261.4
 06 10 2013  07 35  -21.0128 26027.7 -03496.2 -07.6505 26261.4
 06 10 2013  07 36  -21.0129 26027.5 -03496.2 -07.6505 26261.2
 06 10 2013  07 37  -21.0130 26027.3 -03496.1 -07.6503 26261.0
 06 10 2013  07 38  -21.0130 26027.1 -03496.0 -07.6502 26260.9
 06 10 2013  07 39  -21.0130 26027.2 -03496.0 -07.6503 26260.9
 06 10 2013  07 40  -21.0133 26027.1 -03496.0 -07.6503 26260.9
 06 10 2013  07 41  -21.0134 26027.2 -03496.0 -07.6503 26261.0
 06 10 2013  07 42  -21.0136 26027.3 -03496.1 -07.6504 26261.1
 06 10 2013  07 43  -21.0136 26027.6 -03496.2 -07.6506 26261.3
 06 10 2013  07 44  -21.0133 26027.8 -03496.4 -07.6508 26261.6
 06 10 2013  07 45  -21.0134 26027.8 -03496.4 -07.6510 26261.6
 06 10 2013  07 46  -21.0134 26027.7 -03496.4 -07.6510 26261.5
 06 10 2013  07 47  -21.0131 26027.7 -03496.4 -07.6509 26261.4
 06 10 2013  07 48  -21.0129 26027.7 -03496.3 -07.6508 26261.5
 06 10 2013  07 49  -21.0125 26027.7 -03496.3 -07.6507 26261.4
 06 10 2013  07 50  -21.0126 26027.6 -03496.2 -07.6506 26261.4
 06 10 2013  07 51  -21.0128 26027.5 -03496.2 -07.6506 26261.3
 06 10 2013  07 52  -21.0130 26027.4 -03496.1 -07.6505 26261.1
 06 10 2013  07 53  -21.0132 26027.3 -03496.1 -07.6504 26261.1
 06 10 2013  07 54  -21.0133 26027.3 -03496.1 -07.6504 26261.1
 06 10 2013  07 55  -21.0133 26027.4 -03496.1 -07.6504 26261.2
 06 10 2013  07 56  -21.0136 26027.3 -03496.1 -07.6504 26261.1
 06 10 2013  07 57  -21.0137 26027.4 -03496.1 -07.6504 26261.1
 06 10 2013  07 58  -21.0137 26027.5 -03496.1 -07.6504 26261.3
 06 10 2013  07 59  -21.0137 26027.6 -03496.2 -07.6505 26261.3
 06 10 2013  08 00  -21.0140 26027.4 -03496.1 -07.6504 26261.2
 06 10 2013  08 01  -21.0137 26027.5 -03496.1 -07.6504 26261.3
 06 10 2013  08 02  -21.0137 26027.5 -03496.1 -07.6503 26261.3
 06 10 2013  08 03  -21.0137 26027.6 -03496.1 -07.6503 26261.4
 06 10 2013  08 04  -21.0136 26027.6 -03496.1 -07.6503 26261.3
 06 10 2013  08 05  -21.0136 26027.5 -03496.0 -07.6502 26261.3
 06 10 2013  08 06  -21.0134 26027.5 -03496.0 -07.6502 26261.3
 06 10 2013  08 07  -21.0136 26027.4 -03496.0 -07.6501 26261.2
 06 10 2013  08 08  -21.0135 26027.4 -03495.9 -07.6500 26261.2
 06 10 2013  08 09  -21.0133 26027.5 -03495.9 -07.6500 26261.3
 06 10 2013  08 10  -21.0134 26027.4 -03495.9 -07.6499 26261.1
 06 10 2013  08 11  -21.0134 26027.3 -03495.9 -07.6499 26261.1
 06 10 2013  08 12  -21.0133 26027.3 -03495.8 -07.6498 26261.0
 06 10 2013  08 13  -21.0135 26027.2 -03495.8 -07.6498 26260.9
 06 10 2013  08 14  -21.0135 26027.2 -03495.8 -07.6498 26260.9
 06 10 2013  08 15  -21.0133 26027.2 -03495.8 -07.6498 26260.9
 06 10 2013  08 16  -21.0133 26027.2 -03495.8 -07.6498 26261.0
 06 10 2013  08 17  -21.0133 26027.3 -03495.8 -07.6498 26261.0
 06 10 2013  08 18  -21.0133 26027.4 -03495.9 -07.6499 26261.1
 06 10 2013  08 19  -21.0133 26027.4 -03495.9 -07.6499 26261.1
 06 10 2013  08 20  -21.0132 26027.4 -03495.9 -07.6499 26261.1
 06 10 2013  08 21  -21.0132 26027.5 -03496.0 -07.6501 26261.3
 06 10 2013  08 22  -21.0130 26027.6 -03496.0 -07.6501 26261.4
 06 10 2013  08 23  -21.0127 26027.7 -03496.0 -07.6501 26261.5
 06 10 2013  08 24  -21.0128 26027.7 -03496.1 -07.6502 26261.4
 06 10 2013  08 25  -21.0127 26027.7 -03496.0 -07.6502 26261.4
 06 10 2013  08 26  -21.0125 26027.8 -03496.1 -07.6502 26261.6
 06 10 2013  08 27  -21.0125 26027.9 -03496.1 -07.6503 26261.7
 06 10 2013  08 28  -21.0126 26027.9 -03496.2 -07.6504 26261.7
 06 10 2013  08 29  -21.0126 26028.0 -03496.2 -07.6504 26261.7
 06 10 2013  08 30  -21.0126 26028.0 -03496.2 -07.6504 26261.7
 06 10 2013  08 31  -21.0127 26028.0 -03496.2 -07.6505 26261.7
 06 10 2013  08 32  -21.0126 26028.0 -03496.2 -07.6505 26261.8
 06 10 2013  08 33  -21.0127 26028.1 -03496.3 -07.6506 26261.9
 06 10 2013  08 34  -21.0129 26028.1 -03496.3 -07.6507 26261.8
 06 10 2013  08 35  -21.0132 26028.1 -03496.4 -07.6508 26261.9
 06 10 2013  08 36  -21.0134 26028.3 -03496.4 -07.6509 26262.1
 06 10 2013  08 37  -21.0133 26028.4 -03496.5 -07.6509 26262.2
 06 10 2013  08 38  -21.0135 26028.4 -03496.5 -07.6510 26262.2
 06 10 2013  08 39  -21.0136 26028.5 -03496.6 -07.6512 26262.3
 06 10 2013  08 40  -21.0137 26028.4 -03496.6 -07.6512 26262.3
 06 10 2013  08 41  -21.0139 26028.5 -03496.6 -07.6512 26262.3
 06 10 2013  08 42  -21.0141 26028.6 -03496.7 -07.6513 26262.4
 06 10 2013  08 43  -21.0143 26028.7 -03496.7 -07.6514 26262.5
 06 10 2013  08 44  -21.0146 26028.8 -03496.8 -07.6514 26262.6
 06 10 2013  08 45  -21.0148 26028.9 -03496.8 -07.6514 26262.7
 06 10 2013  08 46  -21.0150 26029.1 -03496.7 -07.6512 26262.9
 06 10 2013  08 47  -21.0151 26029.1 -03496.7 -07.6511 26262.9
 06 10 2013  08 48  -21.0151 26029.0 -03496.6 -07.6511 26262.8
 06 10 2013  08 49  -21.0152 26029.1 -03496.6 -07.6510 26262.9
 06 10 2013  08 50  -21.0154 26029.2 -03496.7 -07.6512 26263.0
 06 10 2013  08 51  -21.0155 26029.2 -03496.8 -07.6513 26263.1
 06 10 2013  08 52  -21.0156 26029.4 -03496.8 -07.6512 26263.2
 06 10 2013  08 53  -21.0156 26029.6 -03496.8 -07.6512 26263.4
 06 10 2013  08 54  -21.0156 26029.7 -03496.9 -07.6513 26263.6
 06 10 2013  08 55  -21.0156 26029.9 -03496.9 -07.6514 26263.7
 06 10 2013  08 56  -21.0157 26030.1 -03496.9 -07.6514 26263.9
 06 10 2013  08 57  -21.0158 26030.2 -03497.0 -07.6514 26264.1
 06 10 2013  08 58  -21.0160 26030.4 -03497.0 -07.6514 26264.2
 06 10 2013  08 59  -21.0162 26030.6 -03497.1 -07.6515 26264.4
 06 10 2013  09 00  -21.0164 26030.8 -03497.1 -07.6516 26264.6
 06 10 2013  09 01  -21.0166 26030.9 -03497.1 -07.6515 26264.7
 06 10 2013  09 02  -21.0169 26031.0 -03497.1 -07.6515 26264.8
 06 10 2013  09 03  -21.0171 26031.1 -03497.1 -07.6516 26264.9
 06 10 2013  09 04  -21.0174 26031.2 -03497.2 -07.6516 26265.1
 06 10 2013  09 05  -21.0176 26031.3 -03497.2 -07.6515 26265.2
 06 10 2013  09 06  -21.0178 26031.5 -03497.2 -07.6515 26265.3
 06 10 2013  09 07  -21.0181 26031.6 -03497.2 -07.6515 26265.5
 06 10 2013  09 08  -21.0183 26031.6 -03497.1 -07.6513 26265.5
 06 10 2013  09 09  -21.0184 26031.7 -03497.1 -07.6513 26265.5
 06 10 2013  09 10  -21.0186 26031.8 -03497.1 -07.6512 26265.7
 06 10 2013  09 11  -21.0192 26031.7 -03497.1 -07.6512 26265.6
 06 10 2013  09 12  -21.0194 26031.7 -03497.0 -07.6510 26265.5
 06 10 2013  09 13  -21.0195 26031.9 -03497.0 -07.6510 26265.7
 06 10 2013  09 14  -21.0197 26032.0 -03497.0 -07.6510 26265.9
 06 10 2013  09 15  -21.0197 26032.1 -03497.0 -07.6510 26265.9
 06 10 2013  09 16  -21.0198 26032.1 -03497.0 -07.6510 26265.9
 06 10 2013  09 17  -21.0194 26032.0 -03496.9 -07.6508 26265.8
 06 10 2013  09 18  -21.0191 26032.1 -03496.9 -07.6508 26265.9
 06 10 2013  09 19  -21.0191 26032.1 -03496.9 -07.6508 26265.9
 06 10 2013  09 20  -21.0195 26032.4 -03497.1 -07.6510 26266.2
 06 10 2013  09 21  -21.0199 26032.6 -03497.2 -07.6512 26266.5
 06 10 2013  09 22  -21.0206 26032.8 -03497.2 -07.6512 26266.6
 06 10 2013  09 23  -21.0209 26032.9 -03497.2 -07.6511 26266.8
 06 10 2013  09 24  -21.0208 26033.1 -03497.1 -07.6510 26266.9
 06 10 2013  09 25  -21.0210 26033.1 -03497.1 -07.6509 26266.9
 06 10 2013  09 26  -21.0211 26033.0 -03497.0 -07.6507 26266.8
 06 10 2013  09 27  -21.0210 26033.2 -03497.0 -07.6507 26267.0
 06 10 2013  09 28  -21.0209 26033.1 -03497.0 -07.6507 26266.9
 06 10 2013  09 29  -21.0207 26032.9 -03496.9 -07.6505 26266.7
 06 10 2013  09 30  -21.0207 26033.0 -03497.0 -07.6507 26266.8
 06 10 2013  09 31  -21.0203 26033.0 -03497.0 -07.6507 26266.8
 06 10 2013  09 32  -21.0205 26033.1 -03497.1 -07.6509 26266.9
 06 10 2013  09 33  -21.0202 26032.9 -03497.1 -07.6509 26266.8
 06 10 2013  09 34  -21.0198 26033.0 -03497.1 -07.6510 26266.9
 06 10 2013  09 35  -21.0200 26033.1 -03497.2 -07.6512 26267.0
 06 10 2013  09 36  -21.0199 26033.2 -03497.3 -07.6513 26267.1
 06 10 2013  09 37  -21.0198 26033.3 -03497.3 -07.6513 26267.1
 06 10 2013  09 38  -21.0195 26033.4 -03497.4 -07.6514 26267.3
 06 10 2013  09 39  -21.0196 26033.5 -03497.4 -07.6514 26267.4
 06 10 2013  09 40  -21.0194 26033.7 -03497.4 -07.6514 26267.6
 06 10 2013  09 41  -21.0192 26033.8 -03497.4 -07.6514 26267.7
 06 10 2013  09 42  -21.0187 26034.0 -03497.5 -07.6514 26267.9
 06 10 2013  09 43  -21.0185 26034.1 -03497.5 -07.6515 26268.0
 06 10 2013  09 44  -21.0184 26034.1 -03497.6 -07.6516 26268.0
 06 10 2013  09 45  -21.0185 26034.1 -03497.6 -07.6516 26267.9
 06 10 2013  09 46  -21.0186 26034.0 -03497.6 -07.6516 26267.9
 06 10 2013  09 47  -21.0185 26034.3 -03497.7 -07.6518 26268.2
 06 10 2013  09 48  -21.0183 26034.5 -03497.8 -07.6520 26268.5
 06 10 2013  09 49  -21.0179 26034.7 -03497.8 -07.6520 26268.6
 06 10 2013  09 50  -21.0177 26034.8 -03497.9 -07.6521 26268.7
 06 10 2013  09 51  -21.0173 26035.0 -03497.9 -07.6521 26268.9
 06 10 2013  09 52  -21.0174 26035.3 -03498.1 -07.6524 26269.2
 06 10 2013  09 53  -21.0174 26035.6 -03498.2 -07.6525 26269.5
 06 10 2013  09 54  -21.0172 26035.9 -03498.2 -07.6525 26269.8
 06 10 2013  09 55  -21.0173 26035.9 -03498.2 -07.6525 26269.9
 06 10 2013  09 56  -21.0170 26035.8 -03498.1 -07.6523 26269.8
 06 10 2013  09 57  -21.0166 26036.0 -03498.1 -07.6523 26269.9
 06 10 2013  09 58  -21.0161 26036.2 -03498.2 -07.6524 26270.1
 06 10 2013  09 59  -21.0160 26036.3 -03498.3 -07.6525 26270.3
 06 10 2013  10 00  -21.0155 26036.3 -03498.3 -07.6525 26270.3
 06 10 2013  10 01  -21.0150 26036.3 -03498.3 -07.6525 26270.2
 06 10 2013  10 02  -21.0147 26036.5 -03498.4 -07.6526 26270.5
 06 10 2013  10 03  -21.0143 26036.8 -03498.5 -07.6528 26270.8
 06 10 2013  10 04  -21.0143 26037.1 -03498.6 -07.6530 26271.1
 06 10 2013  10 05  -21.0141 26037.7 -03498.8 -07.6532 26271.8
 06 10 2013  10 06  -21.0140 26038.2 -03498.9 -07.6534 26272.2
 06 10 2013  10 07  -21.0138 26038.3 -03498.9 -07.6533 26272.3
 06 10 2013  10 08  -21.0139 26038.5 -03498.9 -07.6532 26272.5
 06 10 2013  10 09  -21.0136 26038.6 -03498.9 -07.6532 26272.7
 06 10 2013  10 10  -21.0133 26038.7 -03498.9 -07.6531 26272.7
 06 10 2013  10 11  -21.0129 26038.9 -03498.9 -07.6532 26272.9
 06 10 2013  10 12  -21.0125 26039.1 -03498.9 -07.6531 26273.1
 06 10 2013  10 13  -21.0126 26039.2 -03499.0 -07.6532 26273.2
 06 10 2013  10 14  -21.0121 26039.4 -03499.0 -07.6532 26273.4
 06 10 2013  10 15  -21.0116 26039.4 -03499.0 -07.6532 26273.5
 06 10 2013  10 16  -21.0111 26039.6 -03499.1 -07.6532 26273.6
 06 10 2013  10 17  -21.0109 26039.9 -03499.2 -07.6533 26274.0
 06 10 2013  10 18  -21.0107 26040.2 -03499.2 -07.6534 26274.3
 06 10 2013  10 19  -21.0106 26040.4 -03499.2 -07.6533 26274.4
 06 10 2013  10 20  -21.0101 26040.6 -03499.2 -07.6533 26274.6
 06 10 2013  10 21  -21.0094 26040.7 -03499.2 -07.6533 26274.8
 06 10 2013  10 22  -21.0088 26040.8 -03499.2 -07.6532 26274.8
 06 10 2013  10 23  -21.0083 26041.1 -03499.3 -07.6533 26275.1
 06 10 2013  10 24  -21.0077 26041.3 -03499.4 -07.6534 26275.4
 06 10 2013  10 25  -21.0074 26041.5 -03499.4 -07.6534 26275.5
 06 10 2013  10 26  -21.0070 26041.7 -03499.4 -07.6534 26275.8
 06 10 2013  10 27  -21.0066 26042.0 -03499.5 -07.6535 26276.1
 06 10 2013  10 28  -21.0064 26042.3 -03499.6 -07.6535 26276.4
 06 10 2013  10 29  -21.0059 26042.7 -03499.6 -07.6536 26276.8
 06 10 2013  10 30  -21.0058 26043.0 -03499.7 -07.6536 26277.1
 06 10 2013  10 31  -21.0054 26043.4 -03499.8 -07.6537 26277.5
 06 10 2013  10 32  -21.0052 26043.7 -03499.7 -07.6535 26277.8
 06 10 2013  10 33  -21.0048 26044.0 -03499.8 -07.6535 26278.1
 06 10 2013  10 34  -21.0044 26044.3 -03499.7 -07.6533 26278.4
 06 10 2013  10 35  -21.0036 26044.5 -03499.7 -07.6532 26278.6
 06 10 2013  10 36  -21.0034 26044.8 -03499.7 -07.6532 26278.9
 06 10 2013  10 37  -21.0031 26045.2 -03499.8 -07.6532 26279.3
 06 10 2013  10 38  -21.0029 26045.7 -03499.9 -07.6532 26279.8
 06 10 2013  10 39  -21.0027 26046.1 -03499.9 -07.6532 26280.2
 06 10 2013  10 40  -21.0024 26046.6 -03499.9 -07.6531 26280.7
 06 10 2013  10 41  -21.0024 26046.9 -03499.9 -07.6529 26281.0
 06 10 2013  10 42  -21.0022 26047.2 -03499.9 -07.6527 26281.3
 06 10 2013  10 43  -21.0020 26047.5 -03499.8 -07.6525 26281.6
 06 10 2013  10 44  -21.0018 26047.8 -03499.8 -07.6524 26281.8
 06 10 2013  10 45  -21.0016 26048.1 -03499.7 -07.6522 26282.2
 06 10 2013  10 46  -21.0014 26048.3 -03499.7 -07.6520 26282.4
 06 10 2013  10 47  -21.0012 26048.7 -03499.6 -07.6518 26282.7
 06 10 2013  10 48  -21.0009 26049.0 -03499.6 -07.6516 26283.0
 06 10 2013  10 49  -21.0008 26049.2 -03499.5 -07.6514 26283.2
 06 10 2013  10 50  -21.0007 26049.4 -03499.4 -07.6512 26283.4
 06 10 2013  10 51  -21.0005 26049.8 -03499.5 -07.6512 26283.9
 06 10 2013  10 52  -21.0002 26050.3 -03499.5 -07.6511 26284.3
 06 10 2013  10 53  -21.0000 26050.8 -03499.4 -07.6508 26284.8
 06 10 2013  10 54  -20.9998 26051.2 -03499.4 -07.6506 26285.1
 06 10 2013  10 55  -20.9997 26051.5 -03499.3 -07.6504 26285.5
 06 10 2013  10 56  -20.9995 26051.9 -03499.3 -07.6501 26285.8
 06 10 2013  10 57  -20.9993 26052.4 -03499.3 -07.6500 26286.4
 06 10 2013  10 58  -20.9991 26052.8 -03499.2 -07.6497 26286.7
 06 10 2013  10 59  -20.9989 26053.1 -03499.1 -07.6494 26287.0
 06 10 2013  11 00  -20.9987 26053.4 -03499.0 -07.6491 26287.3
 06 10 2013  11 01  -20.9985 26053.8 -03499.0 -07.6490 26287.7
 06 10 2013  11 02  -20.9982 26054.2 -03499.0 -07.6489 26288.1
 06 10 2013  11 03  -20.9983 26054.4 -03498.9 -07.6486 26288.3
 06 10 2013  11 04  -20.9981 26054.9 -03498.9 -07.6484 26288.7
 06 10 2013  11 05  -20.9979 26055.2 -03498.8 -07.6482 26289.1
 06 10 2013  11 06  -20.9977 26055.6 -03498.8 -07.6480 26289.5
 06 10 2013  11 07  -20.9974 26056.1 -03498.8 -07.6478 26290.0
 06 10 2013  11 08  -20.9972 26056.7 -03498.7 -07.6476 26290.5
 06 10 2013  11 09  -20.9969 26057.1 -03498.6 -07.6473 26291.0
 06 10 2013  11 10  -20.9969 26057.5 -03498.6 -07.6470 26291.3
 06 10 2013  11 11  -20.9968 26057.9 -03498.6 -07.6468 26291.7
 06 10 2013  11 12  -20.9965 26058.4 -03498.5 -07.6466 26292.2
 06 10 2013  11 13  -20.9965 26058.9 -03498.5 -07.6465 26292.7
 06 10 2013  11 14  -20.9963 26059.3 -03498.5 -07.6463 26293.1
 06 10 2013  11 15  -20.9961 26059.7 -03498.5 -07.6461 26293.5
 06 10 2013  11 16  -20.9960 26060.1 -03498.4 -07.6459 26293.9
 06 10 2013  11 17  -20.9961 26060.5 -03498.4 -07.6458 26294.3
 06 10 2013  11 18  -20.9961 26061.0 -03498.4 -07.6457 26294.7
 06 10 2013  11 19  -20.9960 26061.5 -03498.5 -07.6456 26295.3
 06 10 2013  11 20  -20.9960 26062.0 -03498.4 -07.6454 26295.7
 06 10 2013  11 21  -20.9960 26062.5 -03498.4 -07.6453 26296.2
 06 10 2013  11 22  -20.9961 26062.9 -03498.4 -07.6451 26296.7
 06 10 2013  11 23  -20.9963 26063.3 -03498.4 -07.6448 26297.0
 06 10 2013  11 24  -20.9964 26063.9 -03498.4 -07.6448 26297.6
 06 10 2013  11 25  -20.9966 26064.5 -03498.5 -07.6448 26298.2
 06 10 2013  11 26  -20.9968 26065.2 -03498.5 -07.6447 26298.9
 06 10 2013  11 27  -20.9973 26065.6 -03498.5 -07.6445 26299.3
 06 10 2013  11 28  -20.9977 26066.0 -03498.3 -07.6440 26299.7
 06 10 2013  11 29  -20.9978 26066.3 -03498.2 -07.6436 26300.0
 06 10 2013  11 30  -20.9980 26066.7 -03498.0 -07.6432 26300.4
 06 10 2013  11 31  -20.9983 26067.2 -03498.0 -07.6428 26300.9
 06 10 2013  11 32  -20.9982 26067.7 -03497.8 -07.6424 26301.3
 06 10 2013  11 33  -20.9984 26068.2 -03497.7 -07.6420 26301.8
 06 10 2013  11 34  -20.9985 26068.6 -03497.6 -07.6416 26302.2
 06 10 2013  11 35  -20.9986 26069.1 -03497.5 -07.6412 26302.7
 06 10 2013  11 36  -20.9987 26069.6 -03497.3 -07.6407 26303.1
 06 10 2013  11 37  -20.9990 26070.0 -03497.1 -07.6403 26303.6
 06 10 2013  11 38  -20.9990 26070.6 -03497.0 -07.6398 26304.1
 06 10 2013  11 39  -20.9993 26071.0 -03496.8 -07.6393 26304.5
 06 10 2013  11 40  -20.9995 26071.5 -03496.6 -07.6388 26305.0
 06 10 2013  11 41  -20.9998 26071.9 -03496.5 -07.6383 26305.4
 06 10 2013  11 42  -21.0001 26072.4 -03496.3 -07.6377 26305.8
 06 10 2013  11 43  -21.0003 26072.9 -03496.1 -07.6372 26306.3
 06 10 2013  11 44  -21.0005 26073.2 -03495.9 -07.6366 26306.5
 06 10 2013  11 45  -21.0005 26073.6 -03495.6 -07.6359 26306.9
 06 10 2013  11 46  -21.0005 26074.2 -03495.5 -07.6355 26307.5
 06 10 2013  11 47  -21.0008 26074.8 -03495.3 -07.6350 26308.0
 06 10 2013  11 48  -21.0010 26075.3 -03495.1 -07.6344 26308.5
 06 10 2013  11 49  -21.0013 26075.7 -03494.9 -07.6338 26308.9
 06 10 2013  11 50  -21.0014 26076.1 -03494.7 -07.6332 26309.3
 06 10 2013  11 51  -21.0017 26076.7 -03494.5 -07.6326 26309.8
 06 10 2013  11 52  -21.0021 26077.3 -03494.3 -07.6321 26310.4
 06 10 2013  11 53  -21.0023 26077.7 -03494.1 -07.6315 26310.8
 06 10 2013  11 54  -21.0026 26078.0 -03493.8 -07.6308 26311.0
 06 10 2013  11 55  -21.0029 26078.4 -03493.6 -07.6301 26311.3
 06 10 2013  11 56  -21.0032 26078.8 -03493.3 -07.6295 26311.7
 06 10 2013  11 57  -21.0036 26079.3 -03493.1 -07.6288 26312.1
 06 10 2013  11 58  -21.0038 26079.6 -03492.8 -07.6281 26312.5
 06 10 2013  11 59  -21.0039 26080.1 -03492.5 -07.6273 26312.9
 06 10 2013  12 00  -21.0041 26080.6 -03492.2 -07.6267 26313.4
 06 10 2013  12 01  -21.0044 26081.1 -03492.0 -07.6260 26313.8
 06 10 2013  12 02  -21.0046 26081.4 -03491.7 -07.6253 26314.1
 06 10 2013  12 03  -21.0048 26081.9 -03491.5 -07.6247 26314.5
 06 10 2013  12 04  -21.0048 26082.3 -03491.3 -07.6241 26314.9
 06 10 2013  12 05  -21.0049 26082.8 -03491.1 -07.6235 26315.4
 06 10 2013  12 06  -21.0049 26083.2 -03490.8 -07.6228 26315.8
 06 10 2013  12 07  -21.0050 26083.8 -03490.6 -07.6222 26316.3
 06 10 2013  12 08  -21.0050 26084.4 -03490.4 -07.6216 26316.9
 06 10 2013  12 09  -21.0051 26085.2 -03490.3 -07.6211 26317.7
 06 10 2013  12 10  -21.0051 26085.9 -03490.1 -07.6204 26318.4
 06 10 2013  12 11  -21.0052 26086.6 -03489.8 -07.6197 26319.0
 06 10 2013  12 12  -21.0053 26087.0 -03489.5 -07.6189 26319.4
 06 10 2013  12 13  -21.0052 26087.7 -03489.3 -07.6182 26320.0
 06 10 2013  12 14  -21.0051 26088.3 -03489.0 -07.6175 26320.6
 06 10 2013  12 15  -21.0050 26088.7 -03488.7 -07.6166 26321.0
 06 10 2013  12 16  -21.0050 26089.2 -03488.4 -07.6158 26321.4
 06 10 2013  12 17  -21.0049 26089.7 -03488.1 -07.6151 26321.9
 06 10 2013  12 18  -21.0046 26090.4 -03487.9 -07.6144 26322.5
 06 10 2013  12 19  -21.0045 26091.2 -03487.7 -07.6138 26323.2
 06 10 2013  12 20  -21.0046 26091.7 -03487.4 -07.6130 26323.7
 06 10 2013  12 21  -21.0048 26092.2 -03487.2 -07.6124 26324.2
 06 10 2013  12 22  -21.0048 26092.4 -03486.7 -07.6114 26324.3
 06 10 2013  12 23  -21.0049 26092.5 -03486.4 -07.6105 26324.4
 06 10 2013  12 24  -21.0049 26093.0 -03486.2 -07.6100 26324.9
 06 10 2013  12 25  -21.0048 26093.4 -03486.0 -07.6095 26325.2
 06 10 2013  12 26  -21.0048 26093.8 -03485.8 -07.6090 26325.6
 06 10 2013  12 27  -21.0051 26094.5 -03485.7 -07.6086 26326.3
 06 10 2013  12 28  -21.0054 26094.9 -03485.5 -07.6080 26326.7
 06 10 2013  12 29  -21.0057 26095.0 -03485.2 -07.6073 26326.7
 06 10 2013  12 30  -21.0060 26095.3 -03485.0 -07.6068 26327.0
 06 10 2013  12 31  -21.0063 26095.9 -03484.9 -07.6064 26327.6
 06 10 2013  12 32  -21.0065 26096.3 -03484.7 -07.6058 26328.0
 06 10 2013  12 33  -21.0065 26096.7 -03484.5 -07.6053 26328.3
 06 10 2013  12 34  -21.0065 26096.9 -03484.2 -07.6047 26328.4
 06 10 2013  12 35  -21.0065 26097.0 -03484.0 -07.6041 26328.6
 06 10 2013  12 36  -21.0068 26097.1 -03483.8 -07.6036 26328.6
 06 10 2013  12 37  -21.0070 26097.1 -03483.6 -07.6032 26328.6
 06 10 2013  12 38  -21.0073 26097.1 -03483.4 -07.6028 26328.6
 06 10 2013  12 39  -21.0075 26097.2 -03483.3 -07.6025 26328.7
 06 10 2013  12 40  -21.0079 26097.5 -03483.2 -07.6023 26328.9
 06 10 2013  12 41  -21.0082 26097.6 -03483.2 -07.6021 26329.0
 06 10 2013  12 42  -21.0086 26097.8 -03483.1 -07.6019 26329.2
 06 10 2013  12 43  -21.0091 26098.0 -03483.0 -07.6016 26329.3
 06 10 2013  12 44  -21.0096 26098.0 -03482.9 -07.6013 26329.4
 06 10 2013  12 45  -21.0101 26098.2 -03482.8 -07.6011 26329.6
 06 10 2013  12 46  -21.0106 26098.5 -03482.7 -07.6009 26329.8
 06 10 2013  12 47  -21.0113 26098.8 -03482.7 -07.6008 26330.1
 06 10 2013  12 48  -21.0118 26098.9 -03482.6 -07.6005 26330.3
 06 10 2013  12 49  -21.0123 26099.3 -03482.5 -07.6003 26330.6
 06 10 2013  12 50  -21.0130 26099.7 -03482.5 -07.6000 26331.0
 06 10 2013  12 51  -21.0134 26100.0 -03482.3 -07.5996 26331.3
 06 10 2013  12 52  -21.0138 26100.3 -03482.2 -07.5992 26331.6
 06 10 2013  12 53  -21.0141 26100.6 -03482.0 -07.5988 26331.8
 06 10 2013  12 54  -21.0145 26100.8 -03481.8 -07.5984 26332.0
 06 10 2013  12 55  -21.0148 26101.1 -03481.7 -07.5980 26332.3
 06 10 2013  12 56  -21.0149 26101.5 -03481.6 -07.5976 26332.7
 06 10 2013  12 57  -21.0151 26101.9 -03481.4 -07.5971 26333.0
 06 10 2013  12 58  -21.0151 26102.5 -03481.3 -07.5967 26333.6
 06 10 2013  12 59  -21.0153 26103.0 -03481.1 -07.5962 26334.1
 06 10 2013  13 00  -21.0155 26103.2 -03480.8 -07.5955 26334.2
 06 10 2013  13 01  -21.0157 26103.9 -03480.7 -07.5950 26335.0
 06 10 2013  13 02  -21.0157 26104.2 -03480.4 -07.5944 26335.2
 06 10 2013  13 03  -21.0156 26104.6 -03480.2 -07.5938 26335.5
 06 10 2013  13 04  -21.0157 26105.3 -03480.1 -07.5933 26336.2
 06 10 2013  13 05  -21.0161 26105.1 -03479.6 -07.5923 26335.9
 06 10 2013  13 06  -21.0158 26106.1 -03479.6 -07.5919 26336.9
 06 10 2013  13 07  -21.0160 26106.6 -03479.4 -07.5914 26337.4
 06 10 2013  13 08  -21.0161 26106.3 -03478.8 -07.5902 26337.1
 06 10 2013  13 09  -21.0159 26107.2 -03478.8 -07.5899 26338.0
 06 10 2013  13 10  -21.0157 26107.8 -03478.6 -07.5893 26338.5
 06 10 2013  13 11  -21.0153 26108.3 -03478.3 -07.5886 26338.9
 06 10 2013  13 12  -21.0153 26108.0 -03477.8 -07.5876 26338.6
 06 10 2013  13 13  -21.0150 26108.4 -03477.6 -07.5872 26338.9
 06 10 2013  13 14  -21.0148 26109.4 -03477.8 -07.5871 26340.0
 06 10 2013  13 15  -21.0146 26109.6 -03477.5 -07.5864 26340.2
 06 10 2013  13 16  -21.0142 26110.2 -03477.3 -07.5858 26340.7
 06 10 2013  13 17  -21.0141 26111.0 -03477.2 -07.5855 26341.5
 06 10 2013  13 18  -21.0139 26110.3 -03476.6 -07.5844 26340.8
 06 10 2013  13 19  -21.0135 26111.2 -03476.6 -07.5841 26341.6
 06 10 2013  13 20  -21.0135 26112.2 -03476.7 -07.5840 26342.6
 06 10 2013  13 21  -21.0135 26112.3 -03476.3 -07.5832 26342.7
 06 10 2013  13 22  -21.0133 26113.2 -03476.2 -07.5827 26343.5
 06 10 2013  13 23  -21.0132 26113.4 -03475.9 -07.5819 26343.7
 06 10 2013  13 24  -21.0128 26113.3 -03475.4 -07.5810 26343.5
 06 10 2013  13 25  -21.0125 26114.3 -03475.4 -07.5807 26344.5
 06 10 2013  13 26  -21.0126 26114.7 -03475.2 -07.5801 26344.9
 06 10 2013  13 27  -21.0124 26114.7 -03474.7 -07.5791 26344.8
 06 10 2013  13 28  -21.0122 26115.0 -03474.5 -07.5784 26345.1
 06 10 2013  13 29  -21.0120 26114.6 -03474.0 -07.5775 26344.7
 06 10 2013  13 30  -21.0118 26115.1 -03473.9 -07.5771 26345.1
 06 10 2013  13 31  -21.0118 26115.3 -03473.7 -07.5767 26345.3
 06 10 2013  13 32  -21.0118 26115.4 -03473.5 -07.5761 26345.4
 06 10 2013  13 33  -21.0117 26115.5 -03473.2 -07.5756 26345.5
 06 10 2013  13 34  -21.0116 26115.7 -03473.0 -07.5751 26345.6
 06 10 2013  13 35  -21.0115 26115.5 -03472.7 -07.5745 26345.3
 06 10 2013  13 36  -21.0115 26115.7 -03472.6 -07.5743 26345.6
 06 10 2013  13 37  -21.0117 26116.2 -03472.6 -07.5741 26346.1
 06 10 2013  13 38  -21.0119 26116.6 -03472.5 -07.5736 26346.4
 06 10 2013  13 39  -21.0117 26116.6 -03472.2 -07.5730 26346.4
 06 10 2013  13 40  -21.0117 26116.8 -03472.0 -07.5725 26346.5
 06 10 2013  13 41  -21.0118 26116.7 -03471.7 -07.5719 26346.4
 06 10 2013  13 42  -21.0117 26116.8 -03471.5 -07.5714 26346.5
 06 10 2013  13 43  -21.0115 26117.1 -03471.3 -07.5711 26346.8
 06 10 2013  13 44  -21.0115 26117.4 -03471.2 -07.5706 26347.0
 06 10 2013  13 45  -21.0114 26117.8 -03471.0 -07.5702 26347.4
 06 10 2013  13 46  -21.0112 26117.7 -03470.7 -07.5695 26347.3
 06 10 2013  13 47  -21.0107 26117.0 -03470.2 -07.5685 26346.6
 06 10 2013  13 48  -21.0105 26117.0 -03469.9 -07.5681 26346.5
 06 10 2013  13 49  -21.0103 26117.2 -03469.9 -07.5679 26346.6
 06 10 2013  13 50  -21.0100 26117.1 -03469.7 -07.5674 26346.6
 06 10 2013  13 51  -21.0098 26117.3 -03469.5 -07.5671 26346.7
 06 10 2013  13 52  -21.0097 26117.4 -03469.4 -07.5667 26346.8
 06 10 2013  13 53  -21.0093 26117.0 -03469.1 -07.5661 26346.4
 06 10 2013  13 54  -21.0093 26117.1 -03469.0 -07.5660 26346.5
 06 10 2013  13 55  -21.0093 26117.2 -03468.9 -07.5658 26346.6
 06 10 2013  13 56  -21.0092 26117.2 -03468.8 -07.5656 26346.5
 06 10 2013  13 57  -21.0094 26117.4 -03468.8 -07.5655 26346.8
 06 10 2013  13 58  -21.0096 26117.8 -03468.9 -07.5655 26347.1
 06 10 2013  13 59  -21.0097 26117.9 -03468.8 -07.5653 26347.3
 06 10 2013  14 00  -21.0096 26118.0 -03468.7 -07.5651 26347.4
 06 10 2013  14 01  -21.0095 26118.1 -03468.6 -07.5649 26347.4
 06 10 2013  14 02  -21.0094 26118.3 -03468.6 -07.5647 26347.6
 06 10 2013  14 03  -21.0094 26118.1 -03468.4 -07.5645 26347.4
 06 10 2013  14 04  -21.0092 26117.9 -03468.3 -07.5642 26347.1
 06 10 2013  14 05  -21.0091 26117.8 -03468.3 -07.5642 26347.0
 06 10 2013  14 06  -21.0090 26117.9 -03468.3 -07.5642 26347.1
 06 10 2013  14 07  -21.0091 26118.1 -03468.3 -07.5643 26347.4
 06 10 2013  14 08  -21.0092 26118.1 -03468.3 -07.5643 26347.4
 06 10 2013  14 09  -21.0093 26118.0 -03468.3 -07.5641 26347.3
 06 10 2013  14 10  -21.0095 26118.0 -03468.2 -07.5640 26347.3
 06 10 2013  14 11  -21.0097 26118.2 -03468.2 -07.5640 26347.5
 06 10 2013  14 12  -21.0100 26118.2 -03468.2 -07.5639 26347.4
 06 10 2013  14 13  -21.0101 26118.1 -03468.0 -07.5636 26347.3
 06 10 2013  14 14  -21.0104 26118.2 -03468.0 -07.5635 26347.4
 06 10 2013  14 15  -21.0107 26118.2 -03467.9 -07.5633 26347.4
 06 10 2013  14 16  -21.0110 26118.3 -03467.9 -07.5632 26347.5
 06 10 2013  14 17  -21.0112 26118.4 -03467.8 -07.5630 26347.6
 06 10 2013  14 18  -21.0113 26118.3 -03467.7 -07.5628 26347.5
 06 10 2013  14 19  -21.0114 26118.1 -03467.5 -07.5624 26347.3
 06 10 2013  14 20  -21.0115 26118.3 -03467.5 -07.5624 26347.4
 06 10 2013  14 21  -21.0116 26118.3 -03467.5 -07.5623 26347.5
 06 10 2013  14 22  -21.0117 26118.2 -03467.3 -07.5621 26347.3
 06 10 2013  14 23  -21.0118 26118.2 -03467.3 -07.5620 26347.4
 06 10 2013  14 24  -21.0119 26118.2 -03467.3 -07.5619 26347.4
 06 10 2013  14 25  -21.0119 26118.2 -03467.2 -07.5618 26347.3
 06 10 2013  14 26  -21.0120 26118.2 -03467.2 -07.5618 26347.4
 06 10 2013  14 27  -21.0121 26118.4 -03467.2 -07.5618 26347.6
 06 10 2013  14 28  -21.0121 26118.4 -03467.2 -07.5616 26347.5
 06 10 2013  14 29  -21.0121 26118.2 -03467.0 -07.5615 26347.4
 06 10 2013  14 30  -21.0122 26118.2 -03467.0 -07.5615 26347.3
 06 10 2013  14 31  -21.0122 26118.1 -03467.0 -07.5614 26347.2
 06 10 2013  14 32  -21.0123 26118.2 -03467.0 -07.5614 26347.3
 06 10 2013  14 33  -21.0124 26118.4 -03467.1 -07.5615 26347.5
 06 10 2013  14 34  -21.0124 26118.6 -03467.0 -07.5614 26347.7
 06 10 2013  14 35  -21.0125 26118.4 -03466.9 -07.5612 26347.5
 06 10 2013  14 36  -21.0124 26118.3 -03466.9 -07.5611 26347.3
 06 10 2013  14 37  -21.0125 26118.1 -03466.8 -07.5611 26347.2
 06 10 2013  14 38  -21.0126 26118.0 -03466.8 -07.5611 26347.0
 06 10 2013  14 39  -21.0126 26117.9 -03466.8 -07.5611 26347.0
 06 10 2013  14 40  -21.0129 26117.9 -03466.9 -07.5612 26347.0
 06 10 2013  14 41  -21.0130 26118.1 -03467.0 -07.5614 26347.2
 06 10 2013  14 42  -21.0129 26118.0 -03466.9 -07.5613 26347.1
 06 10 2013  14 43  -21.0127 26117.7 -03466.8 -07.5610 26346.8
 06 10 2013  14 44  -21.0130 26117.4 -03466.7 -07.5610 26346.5
 06 10 2013  14 45  -21.0132 26117.1 -03466.6 -07.5609 26346.2
 06 10 2013  14 46  -21.0136 26117.0 -03466.7 -07.5610 26346.1
 06 10 2013  14 47  -21.0138 26116.7 -03466.6 -07.5608 26345.8
 06 10 2013  14 48  -21.0138 26116.2 -03466.4 -07.5607 26345.2
 06 10 2013  14 49  -21.0133 26115.7 -03466.3 -07.5605 26344.7
 06 10 2013  14 50  -21.0129 26115.1 -03466.2 -07.5604 26344.2
 06 10 2013  14 51  -21.0126 26114.5 -03466.1 -07.5604 26343.5
 06 10 2013  14 52  -21.0123 26114.2 -03466.1 -07.5607 26343.2
 06 10 2013  14 53  -21.0120 26113.7 -03466.1 -07.5608 26342.7
 06 10 2013  14 54  -21.0116 26113.1 -03466.1 -07.5609 26342.1
 06 10 2013  14 55  -21.0111 26112.7 -03466.2 -07.5612 26341.7
 06 10 2013  14 56  -21.0109 26112.4 -03466.3 -07.5616 26341.5
 06 10 2013  14 57  -21.0105 26111.8 -03466.3 -07.5618 26340.9
 06 10 2013  14 58  -21.0100 26111.3 -03466.4 -07.5620 26340.4
 06 10 2013  14 59  -21.0095 26110.6 -03466.5 -07.5624 26339.7
 06 10 2013  15 00  -21.0092 26110.1 -03466.6 -07.5629 26339.2
 06 10 2013  15 01  -21.0089 26109.6 -03466.8 -07.5634 26338.8
 06 10 2013  15 02  -21.0085 26109.2 -03466.9 -07.5638 26338.3
 06 10 2013  15 03  -21.0079 26108.4 -03467.0 -07.5641 26337.6
 06 10 2013  15 04  -21.0074 26107.8 -03467.1 -07.5645 26337.0
 06 10 2013  15 05  -21.0069 26107.2 -03467.2 -07.5649 26336.4
 06 10 2013  15 06  -21.0065 26106.8 -03467.4 -07.5655 26336.1
 06 10 2013  15 07  -21.0061 26106.1 -03467.4 -07.5658 26335.3
 06 10 2013  15 08  -21.0055 26105.5 -03467.6 -07.5662 26334.8
 06 10 2013  15 09  -21.0054 26105.4 -03467.9 -07.5670 26334.7
 06 10 2013  15 10  -21.0052 26104.9 -03468.1 -07.5675 26334.3
 06 10 2013  15 11  -21.0049 26104.2 -03468.1 -07.5677 26333.6
 06 10 2013  15 12  -21.0043 26103.7 -03468.2 -07.5681 26333.0
 06 10 2013  15 13  -21.0039 26103.4 -03468.5 -07.5687 26332.8
 06 10 2013  15 14  -21.0035 26102.8 -03468.6 -07.5692 26332.3
 06 10 2013  15 15  -21.0031 26102.2 -03468.7 -07.5696 26331.6
 06 10 2013  15 16  -21.0024 26101.6 -03468.8 -07.5701 26331.1
 06 10 2013  15 17  -21.0018 26101.1 -03469.0 -07.5706 26330.6
 06 10 2013  15 18  -21.0013 26100.5 -03469.2 -07.5712 26330.0
 06 10 2013  15 19  -21.0009 26099.9 -03469.4 -07.5717 26329.5
 06 10 2013  15 20  -21.0004 26099.4 -03469.6 -07.5724 26329.0
 06 10 2013  15 21  -20.9999 26098.9 -03469.8 -07.5730 26328.6
 06 10 2013  15 22  -20.9998 26098.5 -03470.1 -07.5738 26328.2
 06 10 2013  15 23  -20.9993 26098.0 -03470.3 -07.5743 26327.7
 06 10 2013  15 24  -20.9990 26097.6 -03470.6 -07.5751 26327.3
 06 10 2013  15 25  -20.9988 26097.1 -03470.9 -07.5758 26326.9
 06 10 2013  15 26  -20.9985 26096.6 -03471.2 -07.5765 26326.4
 06 10 2013  15 27  -20.9981 26096.0 -03471.4 -07.5772 26325.9
 06 10 2013  15 28  -20.9978 26095.4 -03471.6 -07.5779 26325.3
 06 10 2013  15 29  -20.9975 26094.8 -03471.9 -07.5787 26324.7
 06 10 2013  15 30  -20.9975 26094.2 -03472.2 -07.5795 26324.2
 06 10 2013  15 31  -20.9974 26093.7 -03472.5 -07.5803 26323.8
 06 10 2013  15 32  -20.9974 26093.2 -03472.9 -07.5812 26323.3
 06 10 2013  15 33  -20.9974 26092.7 -03473.2 -07.5820 26322.8
 06 10 2013  15 34  -20.9974 26092.2 -03473.4 -07.5827 26322.4
 06 10 2013  15 35  -20.9976 26091.8 -03473.8 -07.5836 26322.0
 06 10 2013  15 36  -20.9976 26091.1 -03474.0 -07.5842 26321.4
 06 10 2013  15 37  -20.9977 26090.9 -03474.4 -07.5851 26321.2
 06 10 2013  15 38  -20.9981 26090.5 -03474.7 -07.5859 26320.9
 06 10 2013  15 39  -20.9981 26089.9 -03474.8 -07.5863 26320.3
 06 10 2013  15 40  -20.9980 26089.4 -03475.0 -07.5869 26319.9
 06 10 2013  15 41  -20.9983 26089.0 -03475.3 -07.5876 26319.5
 06 10 2013  15 42  -20.9982 26088.5 -03475.5 -07.5882 26319.0
 06 10 2013  15 43  -20.9985 26088.1 -03475.7 -07.5889 26318.7
 06 10 2013  15 44  -20.9986 26087.7 -03476.0 -07.5894 26318.2
 06 10 2013  15 45  -20.9985 26087.2 -03476.1 -07.5900 26317.7
 06 10 2013  15 46  -20.9988 26086.8 -03476.4 -07.5907 26317.5
 06 10 2013  15 47  -20.9988 26086.3 -03476.6 -07.5911 26317.0
 06 10 2013  15 48  -20.9990 26085.8 -03476.8 -07.5917 26316.5
 06 10 2013  15 49  -20.9989 26085.1 -03476.8 -07.5921 26315.8
 06 10 2013  15 50  -20.9991 26084.8 -03477.2 -07.5929 26315.5
 06 10 2013  15 51  -20.9995 26084.3 -03477.4 -07.5936 26315.1
 06 10 2013  15 52  -20.9998 26083.9 -03477.7 -07.5943 26314.7
 06 10 2013  15 53  -21.0000 26083.5 -03478.0 -07.5950 26314.4
 06 10 2013  15 54  -21.0004 26083.1 -03478.3 -07.5958 26314.0
 06 10 2013  15 55  -21.0007 26082.7 -03478.5 -07.5964 26313.7
 06 10 2013  15 56  -21.0009 26082.2 -03478.7 -07.5970 26313.2
 06 10 2013  15 57  -21.0012 26081.8 -03479.0 -07.5978 26312.8
 06 10 2013  15 58  -21.0014 26081.2 -03479.2 -07.5983 26312.3
 06 10 2013  15 59  -21.0018 26080.8 -03479.5 -07.5990 26311.8
 06 10 2013  16 00  -21.0021 26080.2 -03479.7 -07.5997 26311.3
 06 10 2013  16 01  -21.0027 26079.8 -03480.0 -07.6004 26311.0
 06 10 2013  16 02  -21.0033 26079.4 -03480.3 -07.6011 26310.6
 06 10 2013  16 03  -21.0034 26078.6 -03480.4 -07.6016 26309.8
 06 10 2013  16 04  -21.0040 26078.3 -03480.8 -07.6026 26309.6
 06 10 2013  16 05  -21.0047 26078.0 -03481.1 -07.6034 26309.4
 06 10 2013  16 06  -21.0052 26077.6 -03481.3 -07.6040 26308.9
 06 10 2013  16 07  -21.0054 26077.1 -03481.6 -07.6047 26308.5
 06 10 2013  16 08  -21.0060 26076.8 -03482.0 -07.6056 26308.3
 06 10 2013  16 09  -21.0065 26076.5 -03482.3 -07.6063 26308.0
 06 10 2013  16 10  -21.0066 26075.9 -03482.5 -07.6070 26307.4
 06 10 2013  16 11  -21.0074 26075.8 -03483.0 -07.6080 26307.4
 06 10 2013  16 12  -21.0080 26075.5 -03483.3 -07.6087 26307.1
 06 10 2013  16 13  -21.0086 26075.4 -03483.6 -07.6095 26307.1
 06 10 2013  16 14  -21.0094 26075.0 -03483.8 -07.6100 26306.7
 06 10 2013  16 15  -21.0098 26074.4 -03483.9 -07.6105 26306.1
 06 10 2013  16 16  -21.0105 26074.4 -03484.4 -07.6115 26306.1
 06 10 2013  16 17  -21.0111 26074.0 -03484.6 -07.6121 26305.9
 06 10 2013  16 18  -21.0116 26073.5 -03484.8 -07.6127 26305.3
 06 10 2013  16 19  -21.0119 26072.9 -03485.0 -07.6131 26304.8
 06 10 2013  16 20  -21.0125 26072.5 -03485.2 -07.6138 26304.4
 06 10 2013  16 21  -21.0130 26071.9 -03485.4 -07.6144 26303.9
 06 10 2013  16 22  -21.0135 26071.4 -03485.6 -07.6150 26303.3
 06 10 2013  16 23  -21.0142 26070.8 -03485.8 -07.6155 26302.8
 06 10 2013  16 24  -21.0146 26070.3 -03486.0 -07.6161 26302.4
 06 10 2013  16 25  -21.0154 26070.0 -03486.3 -07.6168 26302.1
 06 10 2013  16 26  -21.0161 26069.6 -03486.4 -07.6173 26301.7
 06 10 2013  16 27  -21.0167 26069.2 -03486.7 -07.6179 26301.3
 06 10 2013  16 28  -21.0174 26069.0 -03486.9 -07.6184 26301.2
 06 10 2013  16 29  -21.0180 26068.6 -03487.0 -07.6187 26300.7
 06 10 2013  16 30  -21.0186 26068.1 -03487.1 -07.6191 26300.3
 06 10 2013  16 31  -21.0192 26067.7 -03487.2 -07.6195 26299.9
 06 10 2013  16 32  -21.0197 26067.2 -03487.2 -07.6197 26299.5
 06 10 2013  16 33  -21.0201 26066.7 -03487.3 -07.6199 26298.9
 06 10 2013  16 34  -21.0208 26066.3 -03487.4 -07.6203 26298.5
 06 10 2013  16 35  -21.0213 26065.8 -03487.5 -07.6206 26298.1
 06 10 2013  16 36  -21.0215 26065.4 -03487.6 -07.6210 26297.7
 06 10 2013  16 37  -21.0219 26064.9 -03487.7 -07.6213 26297.2
 06 10 2013  16 38  -21.0223 26064.5 -03487.8 -07.6217 26296.8
 06 10 2013  16 39  -21.0226 26064.1 -03487.9 -07.6220 26296.5
 06 10 2013  16 40  -21.0234 26063.8 -03488.1 -07.6225 26296.2
 06 10 2013  16 41  -21.0238 26063.2 -03488.1 -07.6227 26295.6
 06 10 2013  16 42  -21.0242 26062.9 -03488.3 -07.6232 26295.3
 06 10 2013  16 43  -21.0247 26062.7 -03488.5 -07.6236 26295.1
 06 10 2013  16 44  -21.0254 26062.5 -03488.6 -07.6240 26294.9
 06 10 2013  16 45  -21.0259 26062.0 -03488.7 -07.6243 26294.5
 06 10 2013  16 46  -21.0262 26061.6 -03488.8 -07.6246 26294.1
 06 10 2013  16 47  -21.0263 26061.2 -03488.8 -07.6249 26293.6
 06 10 2013  16 48  -21.0265 26060.8 -03489.0 -07.6253 26293.3
 06 10 2013  16 49  -21.0267 26060.5 -03489.1 -07.6257 26293.0
 06 10 2013  16 50  -21.0274 26060.5 -03489.4 -07.6263 26293.1
 06 10 2013  16 51  -21.0281 26060.3 -03489.5 -07.6266 26292.9
 06 10 2013  16 52  -21.0282 26059.9 -03489.5 -07.6267 26292.5
 06 10 2013  16 53  -21.0284 26059.4 -03489.6 -07.6270 26292.0
 06 10 2013  16 54  -21.0287 26059.1 -03489.7 -07.6273 26291.7
 06 10 2013  16 55  -21.0289 26058.7 -03489.8 -07.6277 26291.4
 06 10 2013  16 56  -21.0290 26058.5 -03490.0 -07.6282 26291.2
 06 10 2013  16 57  -21.0293 26058.6 -03490.3 -07.6288 26291.3
 06 10 2013  16 58  -21.0295 26058.5 -03490.5 -07.6292 26291.3
 06 10 2013  16 59  -21.0297 26058.5 -03490.6 -07.6295 26291.3
 06 10 2013  17 00  -21.0300 26058.4 -03490.7 -07.6296 26291.2
 06 10 2013  17 01  -21.0299 26058.4 -03490.8 -07.6299 26291.2
 06 10 2013  17 02  -21.0301 26058.6 -03491.0 -07.6302 26291.4
 06 10 2013  17 03  -21.0304 26058.6 -03491.0 -07.6302 26291.4
 06 10 2013  17 04  -21.0306 26058.4 -03490.9 -07.6302 26291.2
 06 10 2013  17 05  -21.0307 26058.1 -03490.8 -07.6301 26290.9
 06 10 2013  17 06  -21.0309 26057.8 -03490.8 -07.6301 26290.6
 06 10 2013  17 07  -21.0311 26057.5 -03490.8 -07.6301 26290.2
 06 10 2013  17 08  -21.0312 26057.1 -03490.7 -07.6302 26289.9
 06 10 2013  17 09  -21.0314 26056.9 -03490.7 -07.6303 26289.6
 06 10 2013  17 10  -21.0316 26056.4 -03490.7 -07.6303 26289.2
 06 10 2013  17 11  -21.0319 26056.1 -03490.7 -07.6304 26288.9
 06 10 2013  17 12  -21.0320 26055.8 -03490.7 -07.6304 26288.6
 06 10 2013  17 13  -21.0322 26055.4 -03490.6 -07.6304 26288.2
 06 10 2013  17 14  -21.0323 26055.0 -03490.5 -07.6304 26287.8
 06 10 2013  17 15  -21.0322 26054.7 -03490.5 -07.6304 26287.4
 06 10 2013  17 16  -21.0323 26054.3 -03490.5 -07.6305 26287.0
 06 10 2013  17 17  -21.0321 26053.9 -03490.5 -07.6306 26286.7
 06 10 2013  17 18  -21.0319 26053.6 -03490.5 -07.6307 26286.4
 06 10 2013  17 19  -21.0319 26053.4 -03490.6 -07.6309 26286.2
 06 10 2013  17 20  -21.0318 26053.1 -03490.6 -07.6311 26285.9
 06 10 2013  17 21  -21.0318 26052.8 -03490.6 -07.6312 26285.6
 06 10 2013  17 22  -21.0317 26052.6 -03490.7 -07.6313 26285.5
 06 10 2013  17 23  -21.0314 26052.4 -03490.7 -07.6314 26285.2
 06 10 2013  17 24  -21.0313 26052.1 -03490.7 -07.6315 26285.0
 06 10 2013  17 25  -21.0311 26051.9 -03490.7 -07.6316 26284.7
 06 10 2013  17 26  -21.0310 26051.6 -03490.7 -07.6317 26284.4
 06 10 2013  17 27  -21.0308 26051.4 -03490.8 -07.6319 26284.2
 06 10 2013  17 28  -21.0307 26051.1 -03490.8 -07.6321 26284.0
 06 10 2013  17 29  -21.0306 26050.9 -03490.8 -07.6322 26283.7
 06 10 2013  17 30  -21.0305 26050.6 -03490.8 -07.6322 26283.4
 06 10 2013  17 31  -21.0304 26050.3 -03490.8 -07.6323 26283.1
 06 10 2013  17 32  -21.0303 26050.0 -03490.8 -07.6324 26282.8
 06 10 2013  17 33  -21.0304 26049.7 -03490.8 -07.6326 26282.5
 06 10 2013  17 34  -21.0302 26049.5 -03490.9 -07.6327 26282.4
 06 10 2013  17 35  -21.0303 26049.4 -03490.9 -07.6328 26282.3
 06 10 2013  17 36  -21.0303 26049.2 -03490.9 -07.6329 26282.1
 06 10 2013  17 37  -21.0303 26048.9 -03490.9 -07.6329 26281.7
 06 10 2013  17 38  -21.0302 26048.6 -03490.9 -07.6330 26281.5
 06 10 2013  17 39  -21.0302 26048.3 -03490.9 -07.6330 26281.2
 06 10 2013  17 40  -21.0302 26048.1 -03490.9 -07.6331 26280.9
 06 10 2013  17 41  -21.0301 26047.8 -03490.9 -07.6332 26280.7
 06 10 2013  17 42  -21.0301 26047.6 -03490.9 -07.6333 26280.5
 06 10 2013  17 43  -21.0301 26047.4 -03490.9 -07.6334 26280.3
 06 10 2013  17 44  -21.0303 26047.2 -03491.0 -07.6335 26280.1
 06 10 2013  17 45  -21.0307 26047.1 -03491.0 -07.6337 26280.1
 06 10 2013  17 46  -21.0311 26047.0 -03491.0 -07.6336 26279.9
 06 10 2013  17 47  -21.0314 26046.9 -03491.0 -07.6336 26279.8
 06 10 2013  17 48  -21.0316 26046.8 -03490.9 -07.6335 26279.6
 06 10 2013  17 49  -21.0314 26046.5 -03490.8 -07.6334 26279.3
 06 10 2013  17 50  -21.0314 26046.0 -03490.7 -07.6333 26278.8
 06 10 2013  17 51  -21.0313 26045.4 -03490.5 -07.6331 26278.3
 06 10 2013  17 52  -21.0315 26045.0 -03490.4 -07.6331 26277.8
 06 10 2013  17 53  -21.0316 26044.5 -03490.4 -07.6330 26277.3
 06 10 2013  17 54  -21.0316 26044.2 -03490.4 -07.6333 26277.1
 06 10 2013  17 55  -21.0315 26044.2 -03490.5 -07.6334 26277.1
 06 10 2013  17 56  -21.0316 26043.9 -03490.5 -07.6335 26276.8
 06 10 2013  17 57  -21.0316 26043.7 -03490.4 -07.6334 26276.6
 06 10 2013  17 58  -21.0316 26043.6 -03490.5 -07.6335 26276.4
 06 10 2013  17 59  -21.0319 26043.3 -03490.4 -07.6334 26276.2
 06 10 2013  18 00  -21.0318 26042.8 -03490.2 -07.6332 26275.7
 06 10 2013  18 01  -21.0318 26042.5 -03490.2 -07.6333 26275.3
 06 10 2013  18 02  -21.0319 26042.2 -03490.2 -07.6333 26275.0
 06 10 2013  18 03  -21.0323 26041.9 -03490.1 -07.6333 26274.8
 06 10 2013  18 04  -21.0324 26041.6 -03490.0 -07.6331 26274.4
 06 10 2013  18 05  -21.0323 26041.3 -03489.9 -07.6330 26274.1
 06 10 2013  18 06  -21.0323 26040.8 -03489.8 -07.6329 26273.6
 06 10 2013  18 07  -21.0324 26040.4 -03489.7 -07.6328 26273.2
 06 10 2013  18 08  -21.0325 26040.2 -03489.6 -07.6326 26273.0
 06 10 2013  18 09  -21.0323 26039.8 -03489.5 -07.6325 26272.6
 06 10 2013  18 10  -21.0319 26039.6 -03489.4 -07.6324 26272.3
 06 10 2013  18 11  -21.0317 26039.5 -03489.4 -07.6325 26272.2
 06 10 2013  18 12  -21.0316 26039.4 -03489.5 -07.6326 26272.2
 06 10 2013  18 13  -21.0315 26039.3 -03489.5 -07.6326 26272.0
 06 10 2013  18 14  -21.0313 26039.2 -03489.5 -07.6327 26272.0
 06 10 2013  18 15  -21.0311 26039.2 -03489.5 -07.6327 26272.0
 06 10 2013  18 16  -21.0306 26039.2 -03489.6 -07.6328 26272.0
 06 10 2013  18 17  -21.0302 26039.1 -03489.6 -07.6330 26271.9
 06 10 2013  18 18  -21.0298 26039.1 -03489.6 -07.6330 26271.9
 06 10 2013  18 19  -21.0295 26039.1 -03489.6 -07.6330 26271.9
 06 10 2013  18 20  -21.0292 26039.1 -03489.7 -07.6331 26271.8
 06 10 2013  18 21  -21.0288 26038.9 -03489.6 -07.6331 26271.7
 06 10 2013  18 22  -21.0285 26038.8 -03489.7 -07.6332 26271.6
 06 10 2013  18 23  -21.0283 26038.6 -03489.7 -07.6332 26271.4
 06 10 2013  18 24  -21.0280 26038.4 -03489.6 -07.6332 26271.2
 06 10 2013  18 25  -21.0277 26038.2 -03489.6 -07.6332 26271.0
 06 10 2013  18 26  -21.0273 26038.0 -03489.6 -07.6332 26270.8
 06 10 2013  18 27  -21.0270 26037.7 -03489.6 -07.6332 26270.5
 06 10 2013  18 28  -21.0266 26037.5 -03489.5 -07.6333 26270.2
 06 10 2013  18 29  -21.0265 26037.3 -03489.6 -07.6334 26270.1
 06 10 2013  18 30  -21.0261 26037.1 -03489.5 -07.6334 26269.9
 06 10 2013  18 31  -21.0258 26036.9 -03489.6 -07.6335 26269.7
 06 10 2013  18 32  -21.0257 26036.8 -03489.6 -07.6336 26269.6
 06 10 2013  18 33  -21.0254 26036.6 -03489.6 -07.6337 26269.4
 06 10 2013  18 34  -21.0253 26036.5 -03489.7 -07.6338 26269.3
 06 10 2013  18 35  -21.0252 26036.4 -03489.7 -07.6340 26269.2
 06 10 2013  18 36  -21.0249 26036.3 -03489.7 -07.6341 26269.1
 06 10 2013  18 37  -21.0248 26035.9 -03489.7 -07.6340 26268.7
 06 10 2013  18 38  -21.0246 26035.8 -03489.7 -07.6341 26268.7
 06 10 2013  18 39  -21.0246 26035.9 -03489.8 -07.6343 26268.7
 06 10 2013  18 40  -21.0246 26035.5 -03489.7 -07.6342 26268.4
 06 10 2013  18 41  -21.0246 26035.4 -03489.8 -07.6343 26268.3
 06 10 2013  18 42  -21.0246 26035.4 -03489.8 -07.6344 26268.2
 06 10 2013  18 43  -21.0247 26035.2 -03489.7 -07.6343 26268.0
 06 10 2013  18 44  -21.0248 26035.1 -03489.7 -07.6343 26267.9
 06 10 2013  18 45  -21.0249 26035.1 -03489.7 -07.6344 26268.0
 06 10 2013  18 46  -21.0251 26035.0 -03489.7 -07.6344 26267.9
 06 10 2013  18 47  -21.0254 26034.8 -03489.6 -07.6342 26267.7
 06 10 2013  18 48  -21.0255 26034.9 -03489.6 -07.6341 26267.7
 06 10 2013  18 49  -21.0256 26034.5 -03489.4 -07.6337 26267.3
 06 10 2013  18 50  -21.0258 26034.2 -03489.2 -07.6335 26267.0
 06 10 2013  18 51  -21.0259 26034.2 -03489.2 -07.6335 26267.0
 06 10 2013  18 52  -21.0261 26034.1 -03489.1 -07.6334 26266.8
 06 10 2013  18 53  -21.0262 26033.9 -03489.1 -07.6333 26266.7
 06 10 2013  18 54  -21.0263 26033.9 -03489.0 -07.6332 26266.7
 06 10 2013  18 55  -21.0262 26033.9 -03489.0 -07.6331 26266.6
 06 10 2013  18 56  -21.0263 26033.6 -03488.9 -07.6330 26266.4
 06 10 2013  18 57  -21.0263 26033.4 -03488.8 -07.6328 26266.1
 06 10 2013  18 58  -21.0263 26033.3 -03488.7 -07.6327 26266.0
 06 10 2013  18 59  -21.0263 26033.2 -03488.6 -07.6326 26265.9
 06 10 2013  19 00  -21.0261 26033.1 -03488.6 -07.6325 26265.8
 06 10 2013  19 01  -21.0259 26032.9 -03488.5 -07.6324 26265.6
 06 10 2013  19 02  -21.0258 26033.0 -03488.5 -07.6324 26265.7
 06 10 2013  19 03  -21.0259 26033.0 -03488.6 -07.6324 26265.7
 06 10 2013  19 04  -21.0257 26033.0 -03488.5 -07.6324 26265.7
 06 10 2013  19 05  -21.0255 26032.8 -03488.4 -07.6322 26265.5
 06 10 2013  19 06  -21.0253 26032.7 -03488.4 -07.6321 26265.4
 06 10 2013  19 07  -21.0249 26032.8 -03488.4 -07.6321 26265.5
 06 10 2013  19 08  -21.0247 26032.9 -03488.4 -07.6322 26265.6
 06 10 2013  19 09  -21.0244 26033.2 -03488.6 -07.6324 26265.9
 06 10 2013  19 10  -21.0243 26033.5 -03488.7 -07.6326 26266.2
 06 10 2013  19 11  -21.0242 26033.5 -03488.7 -07.6326 26266.2
 06 10 2013  19 12  -21.0239 26033.3 -03488.6 -07.6324 26266.0
 06 10 2013  19 13  -21.0237 26033.4 -03488.6 -07.6323 26266.1
 06 10 2013  19 14  -21.0236 26033.6 -03488.6 -07.6323 26266.3
 06 10 2013  19 15  -21.0234 26033.3 -03488.5 -07.6322 26266.0
 06 10 2013  19 16  -21.0232 26032.9 -03488.3 -07.6319 26265.6
 06 10 2013  19 17  -21.0230 26032.6 -03488.2 -07.6317 26265.2
 06 10 2013  19 18  -21.0228 26032.3 -03488.0 -07.6315 26264.9
 06 10 2013  19 19  -21.0228 26032.2 -03488.0 -07.6315 26264.8
 06 10 2013  19 20  -21.0228 26032.2 -03488.0 -07.6315 26264.8
 06 10 2013  19 21  -21.0226 26032.0 -03488.0 -07.6315 26264.6
 06 10 2013  19 22  -21.0226 26032.0 -03488.0 -07.6315 26264.6
 06 10 2013  19 23  -21.0224 26032.0 -03488.0 -07.6315 26264.6
 06 10 2013  19 24  -21.0223 26031.7 -03487.9 -07.6314 26264.3
 06 10 2013  19 25  -21.0220 26031.6 -03487.9 -07.6315 26264.3
 06 10 2013  19 26  -21.0218 26031.8 -03488.0 -07.6317 26264.4
 06 10 2013  19 27  -21.0216 26031.9 -03488.1 -07.6319 26264.5
 06 10 2013  19 28  -21.0214 26031.9 -03488.2 -07.6321 26264.6
 06 10 2013  19 29  -21.0212 26032.2 -03488.4 -07.6324 26264.9
 06 10 2013  19 30  -21.0214 26032.3 -03488.5 -07.6325 26265.0
 06 10 2013  19 31  -21.0215 26032.1 -03488.4 -07.6324 26264.8
 06 10 2013  19 32  -21.0215 26031.9 -03488.4 -07.6323 26264.6
 06 10 2013  19 33  -21.0213 26031.6 -03488.2 -07.6321 26264.3
 06 10 2013  19 34  -21.0212 26031.3 -03488.1 -07.6320 26263.9
 06 10 2013  19 35  -21.0210 26031.0 -03488.1 -07.6320 26263.7
 06 10 2013  19 36  -21.0210 26030.9 -03488.1 -07.6320 26263.5
 06 10 2013  19 37  -21.0209 26030.7 -03488.1 -07.6321 26263.3
 06 10 2013  19 38  -21.0209 26030.6 -03488.1 -07.6322 26263.3
 06 10 2013  19 39  -21.0207 26030.7 -03488.2 -07.6324 26263.4
 06 10 2013  19 40  -21.0205 26030.8 -03488.4 -07.6327 26263.5
 06 10 2013  19 41  -21.0203 26031.1 -03488.6 -07.6330 26263.8
 06 10 2013  19 42  -21.0203 26031.2 -03488.7 -07.6333 26264.0
 06 10 2013  19 43  -21.0202 26031.4 -03488.8 -07.6334 26264.1
 06 10 2013  19 44  -21.0202 26031.6 -03488.9 -07.6337 26264.3
 06 10 2013  19 45  -21.0201 26031.6 -03488.9 -07.6337 26264.4
 06 10 2013  19 46  -21.0200 26031.6 -03489.0 -07.6337 26264.4
 06 10 2013  19 47  -21.0197 26031.7 -03489.0 -07.6338 26264.5
 06 10 2013  19 48  -21.0195 26031.8 -03489.1 -07.6340 26264.6
 06 10 2013  19 49  -21.0193 26031.8 -03489.1 -07.6340 26264.6
 06 10 2013  19 50  -21.0191 26031.9 -03489.2 -07.6341 26264.7
 06 10 2013  19 51  -21.0189 26031.9 -03489.2 -07.6342 26264.7
 06 10 2013  19 52  -21.0186 26032.0 -03489.2 -07.6341 26264.8
 06 10 2013  19 53  -21.0185 26032.0 -03489.2 -07.6342 26264.8
 06 10 2013  19 54  -21.0184 26031.9 -03489.2 -07.6341 26264.6
 06 10 2013  19 55  -21.0182 26031.7 -03489.1 -07.6341 26264.5
 06 10 2013  19 56  -21.0180 26031.6 -03489.1 -07.6341 26264.4
 06 10 2013  19 57  -21.0178 26031.5 -03489.1 -07.6340 26264.2
 06 10 2013  19 58  -21.0176 26031.4 -03489.1 -07.6340 26264.2
 06 10 2013  19 59  -21.0175 26031.3 -03489.1 -07.6340 26264.0
 06 10 2013  20 00  -21.0175 26031.2 -03489.1 -07.6341 26264.0
 06 10 2013  20 01  -21.0175 26031.2 -03489.1 -07.6342 26264.0
 06 10 2013  20 02  -21.0176 26031.3 -03489.1 -07.6342 26264.0
 06 10 2013  20 03  -21.0176 26031.2 -03489.1 -07.6342 26264.0
 06 10 2013  20 04  -21.0177 26031.2 -03489.1 -07.6342 26264.0
 06 10 2013  20 05  -21.0179 26031.3 -03489.2 -07.6342 26264.1
 06 10 2013  20 06  -21.0179 26031.3 -03489.2 -07.6343 26264.1
 06 10 2013  20 07  -21.0179 26031.3 -03489.2 -07.6343 26264.1
 06 10 2013  20 08  -21.0181 26031.3 -03489.3 -07.6344 26264.2
 06 10 2013  20 09  -21.0181 26031.5 -03489.3 -07.6345 26264.3
 06 10 2013  20 10  -21.0183 26031.5 -03489.4 -07.6346 26264.4
 06 10 2013  20 11  -21.0184 26031.5 -03489.3 -07.6346 26264.3
 06 10 2013  20 12  -21.0187 26031.6 -03489.4 -07.6346 26264.4
 06 10 2013  20 13  -21.0189 26031.6 -03489.4 -07.6347 26264.4
 06 10 2013  20 14  -21.0189 26031.6 -03489.4 -07.6347 26264.4
 06 10 2013  20 15  -21.0191 26031.5 -03489.4 -07.6346 26264.4
 06 10 2013  20 16  -21.0193 26031.3 -03489.3 -07.6344 26264.1
 06 10 2013  20 17  -21.0194 26031.1 -03489.1 -07.6342 26263.9
 06 10 2013  20 18  -21.0196 26030.9 -03489.0 -07.6340 26263.7
 06 10 2013  20 19  -21.0197 26030.6 -03488.9 -07.6339 26263.4
 06 10 2013  20 20  -21.0198 26030.4 -03488.8 -07.6338 26263.2
 06 10 2013  20 21  -21.0198 26030.1 -03488.7 -07.6336 26262.9
 06 10 2013  20 22  -21.0196 26029.9 -03488.6 -07.6335 26262.6
 06 10 2013  20 23  -21.0195 26029.8 -03488.6 -07.6336 26262.5
 06 10 2013  20 24  -21.0194 26029.8 -03488.7 -07.6337 26262.6
 06 10 2013  20 25  -21.0193 26029.9 -03488.8 -07.6339 26262.6
 06 10 2013  20 26  -21.0191 26029.9 -03488.9 -07.6341 26262.7
 06 10 2013  20 27  -21.0191 26029.9 -03488.9 -07.6342 26262.7
 06 10 2013  20 28  -21.0192 26029.8 -03488.9 -07.6341 26262.6
 06 10 2013  20 29  -21.0193 26029.7 -03488.9 -07.6340 26262.5
 06 10 2013  20 30  -21.0195 26029.5 -03488.8 -07.6339 26262.2
 06 10 2013  20 31  -21.0196 26029.3 -03488.7 -07.6338 26262.1
 06 10 2013  20 32  -21.0198 26029.2 -03488.7 -07.6339 26262.0
 06 10 2013  20 33  -21.0198 26029.1 -03488.7 -07.6339 26261.8
 06 10 2013  20 34  -21.0198 26029.1 -03488.7 -07.6339 26261.8
 06 10 2013  20 35  -21.0198 26029.2 -03488.8 -07.6341 26262.0
 06 10 2013  20 36  -21.0197 26029.4 -03489.0 -07.6344 26262.2
 06 10 2013  20 37  -21.0195 26029.6 -03489.1 -07.6345 26262.4
 06 10 2013  20 38  -21.0193 26029.8 -03489.2 -07.6348 26262.6
 06 10 2013  20 39  -21.0190 26030.1 -03489.4 -07.6351 26262.9
 06 10 2013  20 40  -21.0188 26030.5 -03489.6 -07.6354 26263.4
 06 10 2013  20 41  -21.0187 26030.8 -03489.7 -07.6357 26263.6
 06 10 2013  20 42  -21.0186 26030.8 -03489.8 -07.6357 26263.7
 06 10 2013  20 43  -21.0186 26030.8 -03489.7 -07.6356 26263.7
 06 10 2013  20 44  -21.0186 26030.5 -03489.6 -07.6354 26263.4
 06 10 2013  20 45  -21.0184 26030.0 -03489.3 -07.6350 26262.8
 06 10 2013  20 46  -21.0183 26029.5 -03489.0 -07.6345 26262.2
 06 10 2013  20 47  -21.0181 26029.0 -03488.8 -07.6341 26261.7
 06 10 2013  20 48  -21.0179 26028.9 -03488.8 -07.6341 26261.7
 06 10 2013  20 49  -21.0178 26028.8 -03488.8 -07.6342 26261.5
 06 10 2013  20 50  -21.0178 26028.7 -03488.9 -07.6344 26261.5
 06 10 2013  20 51  -21.0175 26028.7 -03489.0 -07.6346 26261.5
 06 10 2013  20 52  -21.0175 26028.6 -03489.0 -07.6348 26261.4
 06 10 2013  20 53  -21.0173 26028.6 -03489.1 -07.6349 26261.4
 06 10 2013  20 54  -21.0171 26028.6 -03489.2 -07.6350 26261.5
 06 10 2013  20 55  -21.0170 26028.6 -03489.2 -07.6352 26261.4
 06 10 2013  20 56  -21.0169 26028.4 -03489.3 -07.6353 26261.3
 06 10 2013  20 57  -21.0167 26028.3 -03489.3 -07.6353 26261.2
 06 10 2013  20 58  -21.0166 26028.4 -03489.4 -07.6355 26261.3
 06 10 2013  20 59  -21.0167 26028.4 -03489.5 -07.6359 26261.3
 06 10 2013  21 00  -21.0168 26028.2 -03489.5 -07.6360 26261.1
 06 10 2013  21 01  -21.0168 26028.1 -03489.5 -07.6360 26261.0
 06 10 2013  21 02  -21.0169 26027.9 -03489.5 -07.6361 26260.8
 06 10 2013  21 03  -21.0171 26027.5 -03489.5 -07.6360 26260.4
 06 10 2013  21 04  -21.0172 26027.2 -03489.4 -07.6359 26260.1
 06 10 2013  21 05  -21.0171 26027.1 -03489.4 -07.6359 26259.9
 06 10 2013  21 06  -21.0173 26027.0 -03489.5 -07.6361 26259.9
 06 10 2013  21 07  -21.0174 26027.0 -03489.6 -07.6364 26259.9
 06 10 2013  21 08  -21.0175 26027.1 -03489.7 -07.6367 26260.0
 06 10 2013  21 09  -21.0176 26027.0 -03489.8 -07.6368 26259.9
 06 10 2013  21 10  -21.0176 26027.0 -03489.8 -07.6368 26259.9
 06 10 2013  21 11  -21.0177 26027.1 -03489.9 -07.6372 26260.0
 06 10 2013  21 12  -21.0177 26027.3 -03490.1 -07.6374 26260.2
 06 10 2013  21 13  -21.0177 26027.5 -03490.3 -07.6377 26260.5
 06 10 2013  21 14  -21.0176 26027.5 -03490.3 -07.6379 26260.5
 06 10 2013  21 15  -21.0177 26027.3 -03490.3 -07.6379 26260.3
 06 10 2013  21 16  -21.0178 26027.0 -03490.2 -07.6378 26260.0
 06 10 2013  21 17  -21.0178 26026.8 -03490.2 -07.6377 26259.8
 06 10 2013  21 18  -21.0179 26026.7 -03490.2 -07.6377 26259.6
 06 10 2013  21 19  -21.0178 26026.6 -03490.2 -07.6378 26259.6
 06 10 2013  21 20  -21.0178 26026.6 -03490.3 -07.6380 26259.6
 06 10 2013  21 21  -21.0177 26026.5 -03490.3 -07.6381 26259.5
 06 10 2013  21 22  -21.0175 26026.5 -03490.4 -07.6382 26259.5
 06 10 2013  21 23  -21.0176 26026.5 -03490.4 -07.6384 26259.5
 06 10 2013  21 24  -21.0176 26026.3 -03490.5 -07.6385 26259.3
 06 10 2013  21 25  -21.0175 26026.2 -03490.5 -07.6386 26259.2
 06 10 2013  21 26  -21.0176 26026.0 -03490.4 -07.6386 26259.0
 06 10 2013  21 27  -21.0178 26025.8 -03490.4 -07.6386 26258.8
 06 10 2013  21 28  -21.0178 26025.6 -03490.4 -07.6386 26258.6
 06 10 2013  21 29  -21.0179 26025.5 -03490.4 -07.6386 26258.5
 06 10 2013  21 30  -21.0179 26025.4 -03490.4 -07.6387 26258.4
 06 10 2013  21 31  -21.0179 26025.3 -03490.4 -07.6387 26258.3
 06 10 2013  21 32  -21.0180 26025.2 -03490.5 -07.6388 26258.2
 06 10 2013  21 33  -21.0181 26025.1 -03490.5 -07.6390 26258.2
 06 10 2013  21 34  -21.0181 26025.1 -03490.6 -07.6391 26258.2
 06 10 2013  21 35  -21.0181 26025.2 -03490.7 -07.6393 26258.2
 06 10 2013  21 36  -21.0182 26025.1 -03490.7 -07.6394 26258.2
 06 10 2013  21 37  -21.0184 26025.0 -03490.7 -07.6394 26258.0
 06 10 2013  21 38  -21.0185 26024.9 -03490.7 -07.6395 26257.9
 06 10 2013  21 39  -21.0186 26024.8 -03490.7 -07.6395 26257.8
 06 10 2013  21 40  -21.0186 26024.6 -03490.7 -07.6394 26257.6
 06 10 2013  21 41  -21.0186 26024.7 -03490.7 -07.6396 26257.7
 06 10 2013  21 42  -21.0185 26025.1 -03491.0 -07.6401 26258.2
 06 10 2013  21 43  -21.0182 26025.3 -03491.1 -07.6403 26258.4
 06 10 2013  21 44  -21.0181 26025.7 -03491.4 -07.6407 26258.8
 06 10 2013  21 45  -21.0179 26026.0 -03491.6 -07.6410 26259.1
 06 10 2013  21 46  -21.0176 26026.4 -03491.9 -07.6415 26259.6
 06 10 2013  21 47  -21.0176 26026.5 -03491.9 -07.6415 26259.7
 06 10 2013  21 48  -21.0173 26027.3 -03492.3 -07.6421 26260.5
 06 10 2013  21 49  -21.0173 26027.1 -03492.3 -07.6422 26260.3
 06 10 2013  21 50  -21.0171 26026.8 -03492.1 -07.6419 26260.1
 06 10 2013  21 51  -21.0172 26026.5 -03491.9 -07.6417 26259.7
 06 10 2013  21 52  -21.0175 26025.9 -03491.7 -07.6413 26259.1
 06 10 2013  21 53  -21.0176 26025.7 -03491.5 -07.6410 26258.9
 06 10 2013  21 54  -21.0176 26025.8 -03491.6 -07.6411 26258.9
 06 10 2013  21 55  -21.0176 26025.7 -03491.6 -07.6411 26258.9
 06 10 2013  21 56  -21.0176 26025.3 -03491.4 -07.6408 26258.4
 06 10 2013  21 57  -21.0175 26025.3 -03491.4 -07.6409 26258.4
 06 10 2013  21 58  -21.0176 26025.0 -03491.3 -07.6408 26258.1
 06 10 2013  21 59  -21.0177 26024.8 -03491.3 -07.6408 26258.0
 06 10 2013  22 00  -21.0178 26024.8 -03491.3 -07.6408 26257.9
 06 10 2013  22 01  -21.0179 26024.5 -03491.2 -07.6407 26257.6
 06 10 2013  22 02  -21.0180 26024.4 -03491.2 -07.6406 26257.5
 06 10 2013  22 03  -21.0180 26024.5 -03491.3 -07.6408 26257.6
 06 10 2013  22 04  -21.0181 26024.5 -03491.4 -07.6410 26257.7
 06 10 2013  22 05  -21.0184 26024.2 -03491.3 -07.6408 26257.3
 06 10 2013  22 06  -21.0185 26024.5 -03491.4 -07.6411 26257.6
 06 10 2013  22 07  -21.0185 26024.7 -03491.6 -07.6414 26257.8
 06 10 2013  22 08  -21.0185 26024.5 -03491.6 -07.6414 26257.7
 06 10 2013  22 09  -21.0186 26024.5 -03491.5 -07.6414 26257.7
 06 10 2013  22 10  -21.0188 26024.4 -03491.6 -07.6414 26257.6
 06 10 2013  22 11  -21.0187 26024.4 -03491.5 -07.6414 26257.6
 06 10 2013  22 12  -21.0184 26024.7 -03491.7 -07.6416 26257.9
 06 10 2013  22 13  -21.0185 26024.4 -03491.6 -07.6415 26257.5
 06 10 2013  22 14  -21.0183 26024.3 -03491.5 -07.6413 26257.5
 06 10 2013  22 15  -21.0182 26024.4 -03491.6 -07.6415 26257.6
 06 10 2013  22 16  -21.0182 26024.1 -03491.5 -07.6414 26257.2
 06 10 2013  22 17  -21.0179 26024.4 -03491.6 -07.6415 26257.5
 06 10 2013  22 18  -21.0178 26024.4 -03491.7 -07.6417 26257.5
 06 10 2013  22 19  -21.0179 26023.9 -03491.5 -07.6414 26257.1
 06 10 2013  22 20  -21.0176 26024.3 -03491.7 -07.6417 26257.5
 06 10 2013  22 21  -21.0175 26024.3 -03491.7 -07.6418 26257.5
 06 10 2013  22 22  -21.0175 26024.3 -03491.7 -07.6418 26257.5
 06 10 2013  22 23  -21.0175 26024.7 -03491.9 -07.6422 26257.9
 06 10 2013  22 24  -21.0176 26024.6 -03491.9 -07.6422 26257.8
 06 10 2013  22 25  -21.0178 26024.6 -03491.9 -07.6422 26257.8
 06 10 2013  22 26  -21.0179 26024.7 -03492.0 -07.6423 26257.9
 06 10 2013  22 27  -21.0179 26024.7 -03492.0 -07.6423 26257.9
 06 10 2013  22 28  -21.0175 26025.4 -03492.3 -07.6427 26258.7
 06 10 2013  22 29  -21.0174 26025.6 -03492.5 -07.6431 26258.9
 06 10 2013  22 30  -21.0175 26025.1 -03492.2 -07.6426 26258.4
 06 10 2013  22 31  -21.0174 26025.5 -03492.3 -07.6428 26258.8
 06 10 2013  22 32  -21.0174 26025.5 -03492.4 -07.6429 26258.8
 06 10 2013  22 33  -21.0172 26025.4 -03492.3 -07.6427 26258.7
 06 10 2013  22 34  -21.0171 26025.5 -03492.3 -07.6428 26258.8
 06 10 2013  22 35  -21.0172 26025.3 -03492.2 -07.6426 26258.6
 06 10 2013  22 36  -21.0172 26025.5 -03492.3 -07.6428 26258.8
 06 10 2013  22 37  -21.0172 26025.4 -03492.3 -07.6427 26258.7
 06 10 2013  22 38  -21.0174 26025.2 -03492.2 -07.6427 26258.5
 06 10 2013  22 39  -21.0172 26025.4 -03492.3 -07.6427 26258.7
 06 10 2013  22 40  -21.0172 26025.4 -03492.3 -07.6428 26258.7
 06 10 2013  22 41  -21.0170 26025.7 -03492.4 -07.6429 26259.0
 06 10 2013  22 42  -21.0168 26025.8 -03492.5 -07.6431 26259.1
 06 10 2013  22 43  -21.0168 26025.7 -03492.5 -07.6430 26259.0
 06 10 2013  22 44  -21.0167 26025.8 -03492.5 -07.6430 26259.1
 06 10 2013  22 45  -21.0167 26026.0 -03492.6 -07.6431 26259.3
 06 10 2013  22 46  -21.0166 26026.1 -03492.6 -07.6432 26259.4
 06 10 2013  22 47  -21.0165 26026.1 -03492.6 -07.6433 26259.4
 06 10 2013  22 48  -21.0165 26026.0 -03492.6 -07.6432 26259.3
 06 10 2013  22 49  -21.0166 26026.0 -03492.6 -07.6431 26259.2
 06 10 2013  22 50  -21.0165 26025.9 -03492.5 -07.6431 26259.2
 06 10 2013  22 51  -21.0163 26025.9 -03492.5 -07.6430 26259.2
 06 10 2013  22 52  -21.0162 26025.9 -03492.5 -07.6429 26259.2
 06 10 2013  22 53  -21.0162 26025.9 -03492.4 -07.6429 26259.1
 06 10 2013  22 54  -21.0161 26025.8 -03492.4 -07.6429 26259.1
 06 10 2013  22 55  -21.0161 26025.7 -03492.4 -07.6428 26259.0
 06 10 2013  22 56  -21.0160 26025.7 -03492.4 -07.6428 26258.9
 06 10 2013  22 57  -21.0160 26025.7 -03492.4 -07.6429 26259.0
 06 10 2013  22 58  -21.0159 26025.7 -03492.4 -07.6429 26259.0
 06 10 2013  22 59  -21.0159 26025.7 -03492.4 -07.6429 26259.0
 06 10 2013  23 00  -21.0158 26025.7 -03492.4 -07.6429 26259.0
 06 10 2013  23 01  -21.0156 26025.7 -03492.4 -07.6429 26259.0
 06 10 2013  23 02  -21.0154 26025.7 -03492.4 -07.6429 26259.0
 06 10 2013  23 03  -21.0152 26025.7 -03492.4 -07.6429 26258.9
 06 10 2013  23 04  -21.0152 26025.7 -03492.4 -07.6429 26258.9
 06 10 2013  23 05  -21.0151 26025.7 -03492.4 -07.6430 26259.0
 06 10 2013  23 06  -21.0150 26025.8 -03492.5 -07.6430 26259.1
 06 10 2013  23 07  -21.0149 26025.8 -03492.5 -07.6432 26259.1
 06 10 2013  23 08  -21.0148 26025.8 -03492.5 -07.6431 26259.1
 06 10 2013  23 09  -21.0148 26025.9 -03492.6 -07.6432 26259.2
 06 10 2013  23 10  -21.0147 26026.0 -03492.6 -07.6433 26259.3
 06 10 2013  23 11  -21.0147 26026.1 -03492.7 -07.6434 26259.4
 06 10 2013  23 12  -21.0146 26026.3 -03492.8 -07.6435 26259.6
 06 10 2013  23 13  -21.0145 26026.4 -03492.8 -07.6436 26259.7
 06 10 2013  23 14  -21.0144 26026.4 -03492.8 -07.6435 26259.7
 06 10 2013  23 15  -21.0145 26026.4 -03492.8 -07.6436 26259.7
 06 10 2013  23 16  -21.0144 26026.5 -03492.8 -07.6435 26259.8
 06 10 2013  23 17  -21.0143 26026.6 -03492.9 -07.6436 26259.9
 06 10 2013  23 18  -21.0141 26026.6 -03492.9 -07.6436 26260.0
 06 10 2013  23 19  -21.0140 26026.5 -03492.8 -07.6435 26259.9
 06 10 2013  23 20  -21.0139 26026.6 -03492.8 -07.6435 26259.9
 06 10 2013  23 21  -21.0138 26026.6 -03492.8 -07.6435 26259.9
 06 10 2013  23 22  -21.0137 26026.5 -03492.8 -07.6435 26259.9
 06 10 2013  23 23  -21.0136 26026.6 -03492.8 -07.6434 26259.9
 06 10 2013  23 24  -21.0136 26026.6 -03492.8 -07.6435 26259.9
 06 10 2013  23 25  -21.0135 26026.6 -03492.8 -07.6436 26260.0
 06 10 2013  23 26  -21.0134 26026.6 -03492.8 -07.6435 26259.9
 06 10 2013  23 27  -21.0134 26026.6 -03492.8 -07.6435 26259.9
 06 10 2013  23 28  -21.0135 26026.7 -03492.9 -07.6436 26260.1
 06 10 2013  23 29  -21.0134 26026.8 -03492.9 -07.6437 26260.1
 06 10 2013  23 30  -21.0132 26026.8 -03492.9 -07.6436 26260.1
 06 10 2013  23 31  -21.0132 26026.8 -03492.9 -07.6436 26260.1
 06 10 2013  23 32  -21.0130 26026.8 -03492.9 -07.6437 26260.1
 06 10 2013  23 33  -21.0131 26026.8 -03492.9 -07.6436 26260.1
 06 10 2013  23 34  -21.0130 26026.8 -03492.9 -07.6436 26260.1
 06 10 2013  23 35  -21.0129 26026.8 -03492.9 -07.6437 26260.1
 06 10 2013  23 36  -21.0127 26026.7 -03492.9 -07.6436 26260.0
 06 10 2013  23 37  -21.0126 26026.7 -03492.9 -07.6436 26260.0
 06 10 2013  23 38  -21.0125 26026.7 -03492.9 -07.6436 26260.0
 06 10 2013  23 39  -21.0124 26026.6 -03492.8 -07.6435 26260.0
 06 10 2013  23 40  -21.0123 26026.6 -03492.8 -07.6436 26260.0
 06 10 2013  23 41  -21.0123 26026.5 -03492.8 -07.6436 26259.9
 06 10 2013  23 42  -21.0122 26026.5 -03492.8 -07.6436 26259.9
 06 10 2013  23 43  -21.0123 26026.5 -03492.8 -07.6436 26259.8
 06 10 2013  23 44  -21.0124 26026.5 -03492.8 -07.6436 26259.8
 06 10 2013  23 45  -21.0124 26026.5 -03492.9 -07.6436 26259.8
 06 10 2013  23 46  -21.0125 26026.5 -03492.9 -07.6437 26259.8
 06 10 2013  23 47  -21.0123 26026.5 -03492.9 -07.6437 26259.8
 06 10 2013  23 48  -21.0123 26026.6 -03492.9 -07.6438 26259.9
 06 10 2013  23 49  -21.0121 26026.7 -03493.0 -07.6438 26260.0
 06 10 2013  23 50  -21.0120 26026.8 -03493.0 -07.6439 26260.2
 06 10 2013  23 51  -21.0119 26026.9 -03493.1 -07.6440 26260.2
 06 10 2013  23 52  -21.0118 26026.9 -03493.1 -07.6440 26260.3
 06 10 2013  23 53  -21.0118 26027.0 -03493.2 -07.6442 26260.4
 06 10 2013  23 54  -21.0118 26027.0 -03493.2 -07.6442 26260.4
 06 10 2013  23 55  -21.0116 26027.1 -03493.2 -07.6442 26260.4
 06 10 2013  23 56  -21.0116 26027.1 -03493.2 -07.6442 26260.5
 06 10 2013  23 57  -21.0117 26027.1 -03493.2 -07.6443 26260.5
