SAO LUIS EMBRACE-03 <125> 1 Min. Reported data

 DD MM YYYY  HH MM   D(Deg)  H(nT)   Z(nT)   I(Deg)   F(nT)

 05 05 2013  00 00  -21.0558 26020.6 -03436.8 -07.5240 26246.6
 05 05 2013  00 01  -21.0559 26020.8 -03436.8 -07.5241 26246.8
 05 05 2013  00 02  -21.0560 26020.9 -03436.9 -07.5242 26246.9
 05 05 2013  00 03  -21.0561 26020.9 -03436.9 -07.5242 26246.9
 05 05 2013  00 04  -21.0562 26021.0 -03437.0 -07.5243 26247.0
 05 05 2013  00 05  -21.0564 26021.0 -03437.0 -07.5243 26247.0
 05 05 2013  00 06  -21.0566 26021.1 -03437.0 -07.5244 26247.1
 05 05 2013  00 07  -21.0569 26021.3 -03437.1 -07.5244 26247.3
 05 05 2013  00 08  -21.0571 26021.4 -03437.1 -07.5245 26247.5
 05 05 2013  00 09  -21.0571 26021.6 -03437.2 -07.5246 26247.6
 05 05 2013  00 10  -21.0570 26021.6 -03437.2 -07.5247 26247.7
 05 05 2013  00 11  -21.0571 26021.7 -03437.2 -07.5247 26247.7
 05 05 2013  00 12  -21.0571 26021.7 -03437.2 -07.5246 26247.8
 05 05 2013  00 13  -21.0570 26021.8 -03437.2 -07.5246 26247.8
 05 05 2013  00 14  -21.0571 26021.8 -03437.2 -07.5246 26247.8
 05 05 2013  00 15  -21.0573 26021.8 -03437.2 -07.5246 26247.8
 05 05 2013  00 16  -21.0575 26021.8 -03437.2 -07.5246 26247.9
 05 05 2013  00 17  -21.0579 26021.9 -03437.2 -07.5246 26247.9
 05 05 2013  00 18  -21.0582 26021.9 -03437.2 -07.5246 26247.9
 05 05 2013  00 19  -21.0584 26022.0 -03437.2 -07.5246 26248.0
 05 05 2013  00 20  -21.0585 26022.1 -03437.3 -07.5247 26248.2
 05 05 2013  00 21  -21.0587 26022.1 -03437.3 -07.5246 26248.1
 05 05 2013  00 22  -21.0586 26022.2 -03437.3 -07.5246 26248.2
 05 05 2013  00 23  -21.0587 26022.2 -03437.2 -07.5246 26248.2
 05 05 2013  00 24  -21.0586 26022.2 -03437.2 -07.5245 26248.2
 05 05 2013  00 25  -21.0584 26022.2 -03437.2 -07.5245 26248.2
 05 05 2013  00 26  -21.0583 26022.3 -03437.2 -07.5245 26248.4
 05 05 2013  00 27  -21.0582 26022.4 -03437.2 -07.5245 26248.4
 05 05 2013  00 28  -21.0580 26022.4 -03437.2 -07.5245 26248.4
 05 05 2013  00 29  -21.0580 26022.3 -03437.2 -07.5244 26248.3
 05 05 2013  00 30  -21.0579 26022.3 -03437.1 -07.5243 26248.3
 05 05 2013  00 31  -21.0580 26022.3 -03437.1 -07.5243 26248.3
 05 05 2013  00 32  -21.0582 26022.2 -03437.1 -07.5242 26248.2
 05 05 2013  00 33  -21.0583 26022.2 -03437.1 -07.5243 26248.2
 05 05 2013  00 34  -21.0585 26022.0 -03437.0 -07.5241 26248.0
 05 05 2013  00 35  -21.0585 26021.9 -03437.0 -07.5240 26247.9
 05 05 2013  00 36  -21.0583 26021.9 -03436.9 -07.5239 26247.8
 05 05 2013  00 37  -21.0582 26021.7 -03436.8 -07.5238 26247.7
 05 05 2013  00 38  -21.0581 26021.7 -03436.8 -07.5237 26247.6
 05 05 2013  00 39  -21.0580 26021.5 -03436.7 -07.5237 26247.5
 05 05 2013  00 40  -21.0578 26021.2 -03436.6 -07.5236 26247.2
 05 05 2013  00 41  -21.0577 26021.0 -03436.5 -07.5234 26246.9
 05 05 2013  00 42  -21.0576 26020.8 -03436.5 -07.5233 26246.7
 05 05 2013  00 43  -21.0575 26020.6 -03436.4 -07.5232 26246.6
 05 05 2013  00 44  -21.0575 26020.5 -03436.4 -07.5232 26246.4
 05 05 2013  00 45  -21.0576 26020.3 -03436.4 -07.5232 26246.2
 05 05 2013  00 46  -21.0577 26020.1 -03436.3 -07.5232 26246.1
 05 05 2013  00 47  -21.0579 26020.0 -03436.4 -07.5232 26246.0
 05 05 2013  00 48  -21.0581 26019.9 -03436.3 -07.5232 26245.8
 05 05 2013  00 49  -21.0583 26019.8 -03436.3 -07.5233 26245.8
 05 05 2013  00 50  -21.0585 26019.9 -03436.4 -07.5234 26245.8
 05 05 2013  00 51  -21.0587 26019.9 -03436.5 -07.5236 26245.9
 05 05 2013  00 52  -21.0589 26020.0 -03436.5 -07.5236 26245.9
 05 05 2013  00 53  -21.0591 26020.1 -03436.6 -07.5238 26246.1
 05 05 2013  00 54  -21.0593 26020.3 -03436.7 -07.5240 26246.2
 05 05 2013  00 55  -21.0596 26020.4 -03436.8 -07.5241 26246.4
 05 05 2013  00 56  -21.0597 26020.4 -03436.8 -07.5241 26246.4
 05 05 2013  00 57  -21.0597 26020.4 -03436.7 -07.5240 26246.4
 05 05 2013  00 58  -21.0596 26020.3 -03436.7 -07.5239 26246.3
 05 05 2013  00 59  -21.0596 26020.3 -03436.7 -07.5238 26246.2
 05 05 2013  01 00  -21.0597 26020.2 -03436.6 -07.5238 26246.1
 05 05 2013  01 01  -21.0597 26020.1 -03436.5 -07.5236 26246.0
 05 05 2013  01 02  -21.0596 26019.9 -03436.4 -07.5235 26245.8
 05 05 2013  01 03  -21.0595 26019.7 -03436.3 -07.5233 26245.6
 05 05 2013  01 04  -21.0593 26019.5 -03436.2 -07.5232 26245.4
 05 05 2013  01 05  -21.0592 26019.3 -03436.2 -07.5231 26245.3
 05 05 2013  01 06  -21.0590 26019.2 -03436.1 -07.5230 26245.1
 05 05 2013  01 07  -21.0588 26019.2 -03436.1 -07.5230 26245.1
 05 05 2013  01 08  -21.0587 26019.1 -03436.1 -07.5230 26245.0
 05 05 2013  01 09  -21.0586 26019.0 -03436.1 -07.5230 26245.0
 05 05 2013  01 10  -21.0584 26019.0 -03436.1 -07.5230 26245.0
 05 05 2013  01 11  -21.0582 26019.0 -03436.1 -07.5231 26244.9
 05 05 2013  01 12  -21.0582 26018.9 -03436.1 -07.5230 26244.8
 05 05 2013  01 13  -21.0581 26018.8 -03436.1 -07.5230 26244.7
 05 05 2013  01 14  -21.0581 26018.7 -03436.1 -07.5230 26244.6
 05 05 2013  01 15  -21.0581 26018.5 -03436.0 -07.5229 26244.4
 05 05 2013  01 16  -21.0580 26018.4 -03435.9 -07.5228 26244.3
 05 05 2013  01 17  -21.0579 26018.3 -03435.9 -07.5228 26244.2
 05 05 2013  01 18  -21.0578 26018.1 -03435.9 -07.5228 26244.0
 05 05 2013  01 19  -21.0577 26018.0 -03435.9 -07.5228 26243.9
 05 05 2013  01 20  -21.0575 26017.9 -03435.9 -07.5228 26243.7
 05 05 2013  01 21  -21.0572 26017.6 -03435.8 -07.5227 26243.5
 05 05 2013  01 22  -21.0570 26017.3 -03435.6 -07.5225 26243.1
 05 05 2013  01 23  -21.0570 26017.0 -03435.5 -07.5223 26242.9
 05 05 2013  01 24  -21.0571 26016.9 -03435.6 -07.5224 26242.7
 05 05 2013  01 25  -21.0571 26016.8 -03435.6 -07.5225 26242.7
 05 05 2013  01 26  -21.0569 26016.6 -03435.5 -07.5225 26242.4
 05 05 2013  01 27  -21.0567 26016.3 -03435.5 -07.5224 26242.1
 05 05 2013  01 28  -21.0566 26016.1 -03435.4 -07.5223 26241.9
 05 05 2013  01 29  -21.0564 26015.9 -03435.4 -07.5223 26241.7
 05 05 2013  01 30  -21.0564 26015.8 -03435.4 -07.5224 26241.6
 05 05 2013  01 31  -21.0564 26015.7 -03435.4 -07.5225 26241.5
 05 05 2013  01 32  -21.0564 26015.6 -03435.4 -07.5225 26241.4
 05 05 2013  01 33  -21.0564 26015.4 -03435.4 -07.5226 26241.3
 05 05 2013  01 34  -21.0563 26015.4 -03435.5 -07.5227 26241.3
 05 05 2013  01 35  -21.0564 26015.4 -03435.5 -07.5228 26241.2
 05 05 2013  01 36  -21.0565 26015.3 -03435.5 -07.5228 26241.2
 05 05 2013  01 37  -21.0565 26015.3 -03435.6 -07.5229 26241.2
 05 05 2013  01 38  -21.0565 26015.3 -03435.6 -07.5230 26241.2
 05 05 2013  01 39  -21.0565 26015.3 -03435.7 -07.5231 26241.1
 05 05 2013  01 40  -21.0565 26015.2 -03435.7 -07.5232 26241.1
 05 05 2013  01 41  -21.0565 26015.2 -03435.7 -07.5233 26241.1
 05 05 2013  01 42  -21.0565 26015.3 -03435.8 -07.5234 26241.1
 05 05 2013  01 43  -21.0564 26015.2 -03435.8 -07.5234 26241.1
 05 05 2013  01 44  -21.0565 26015.3 -03435.8 -07.5235 26241.2
 05 05 2013  01 45  -21.0565 26015.3 -03435.8 -07.5235 26241.2
 05 05 2013  01 46  -21.0564 26015.3 -03435.9 -07.5237 26241.2
 05 05 2013  01 47  -21.0563 26015.4 -03436.0 -07.5238 26241.3
 05 05 2013  01 48  -21.0563 26015.4 -03436.0 -07.5238 26241.3
 05 05 2013  01 49  -21.0562 26015.4 -03436.0 -07.5238 26241.4
 05 05 2013  01 50  -21.0563 26015.5 -03436.0 -07.5239 26241.4
 05 05 2013  01 51  -21.0562 26015.5 -03436.1 -07.5239 26241.5
 05 05 2013  01 52  -21.0561 26015.6 -03436.1 -07.5240 26241.6
 05 05 2013  01 53  -21.0558 26015.8 -03436.2 -07.5241 26241.7
 05 05 2013  01 54  -21.0556 26015.9 -03436.2 -07.5242 26241.8
 05 05 2013  01 55  -21.0555 26016.0 -03436.3 -07.5242 26241.9
 05 05 2013  01 56  -21.0555 26016.1 -03436.3 -07.5244 26242.1
 05 05 2013  01 57  -21.0555 26016.2 -03436.4 -07.5245 26242.2
 05 05 2013  01 58  -21.0555 26016.3 -03436.5 -07.5245 26242.3
 05 05 2013  01 59  -21.0555 26016.3 -03436.5 -07.5246 26242.3
 05 05 2013  02 00  -21.0554 26016.4 -03436.5 -07.5246 26242.4
 05 05 2013  02 01  -21.0554 26016.5 -03436.5 -07.5246 26242.5
 05 05 2013  02 02  -21.0553 26016.5 -03436.5 -07.5247 26242.5
 05 05 2013  02 03  -21.0552 26016.6 -03436.6 -07.5247 26242.6
 05 05 2013  02 04  -21.0552 26016.6 -03436.6 -07.5247 26242.6
 05 05 2013  02 05  -21.0551 26016.7 -03436.6 -07.5247 26242.7
 05 05 2013  02 06  -21.0551 26016.8 -03436.7 -07.5248 26242.8
 05 05 2013  02 07  -21.0551 26016.8 -03436.7 -07.5249 26242.8
 05 05 2013  02 08  -21.0550 26016.8 -03436.7 -07.5248 26242.8
 05 05 2013  02 09  -21.0549 26016.9 -03436.7 -07.5248 26242.9
 05 05 2013  02 10  -21.0548 26017.0 -03436.7 -07.5250 26243.0
 05 05 2013  02 11  -21.0545 26017.1 -03436.8 -07.5250 26243.1
 05 05 2013  02 12  -21.0541 26017.3 -03436.9 -07.5251 26243.3
 05 05 2013  02 13  -21.0541 26017.3 -03436.9 -07.5253 26243.4
 05 05 2013  02 14  -21.0542 26017.4 -03437.0 -07.5254 26243.5
 05 05 2013  02 15  -21.0544 26017.6 -03437.1 -07.5255 26243.6
 05 05 2013  02 16  -21.0543 26017.7 -03437.2 -07.5257 26243.8
 05 05 2013  02 17  -21.0543 26017.9 -03437.3 -07.5258 26244.0
 05 05 2013  02 18  -21.0542 26018.2 -03437.4 -07.5260 26244.2
 05 05 2013  02 19  -21.0543 26018.4 -03437.5 -07.5262 26244.5
 05 05 2013  02 20  -21.0544 26018.6 -03437.6 -07.5263 26244.7
 05 05 2013  02 21  -21.0546 26018.7 -03437.6 -07.5264 26244.9
 05 05 2013  02 22  -21.0548 26018.8 -03437.7 -07.5265 26244.9
 05 05 2013  02 23  -21.0550 26018.9 -03437.7 -07.5265 26245.0
 05 05 2013  02 24  -21.0553 26018.9 -03437.7 -07.5265 26245.0
 05 05 2013  02 25  -21.0556 26019.0 -03437.7 -07.5265 26245.1
 05 05 2013  02 26  -21.0557 26019.0 -03437.7 -07.5265 26245.2
 05 05 2013  02 27  -21.0560 26019.0 -03437.7 -07.5264 26245.1
 05 05 2013  02 28  -21.0565 26018.8 -03437.6 -07.5263 26245.0
 05 05 2013  02 29  -21.0568 26018.7 -03437.5 -07.5261 26244.8
 05 05 2013  02 30  -21.0569 26018.4 -03437.3 -07.5258 26244.5
 05 05 2013  02 31  -21.0569 26018.2 -03437.2 -07.5256 26244.3
 05 05 2013  02 32  -21.0568 26018.1 -03437.1 -07.5254 26244.1
 05 05 2013  02 33  -21.0568 26018.0 -03437.0 -07.5253 26244.0
 05 05 2013  02 34  -21.0570 26017.9 -03437.0 -07.5253 26244.0
 05 05 2013  02 35  -21.0575 26018.0 -03437.1 -07.5255 26244.0
 05 05 2013  02 36  -21.0578 26018.1 -03437.1 -07.5255 26244.1
 05 05 2013  02 37  -21.0579 26018.2 -03437.2 -07.5256 26244.2
 05 05 2013  02 38  -21.0580 26018.3 -03437.3 -07.5257 26244.3
 05 05 2013  02 39  -21.0580 26018.5 -03437.4 -07.5259 26244.6
 05 05 2013  02 40  -21.0580 26018.7 -03437.4 -07.5260 26244.8
 05 05 2013  02 41  -21.0580 26018.9 -03437.5 -07.5261 26245.0
 05 05 2013  02 42  -21.0580 26019.1 -03437.6 -07.5262 26245.2
 05 05 2013  02 43  -21.0580 26019.2 -03437.6 -07.5262 26245.4
 05 05 2013  02 44  -21.0579 26019.3 -03437.6 -07.5262 26245.4
 05 05 2013  02 45  -21.0577 26019.3 -03437.6 -07.5262 26245.4
 05 05 2013  02 46  -21.0575 26019.2 -03437.5 -07.5260 26245.3
 05 05 2013  02 47  -21.0572 26019.1 -03437.4 -07.5258 26245.2
 05 05 2013  02 48  -21.0569 26019.0 -03437.3 -07.5256 26245.0
 05 05 2013  02 49  -21.0566 26018.8 -03437.3 -07.5256 26244.9
 05 05 2013  02 50  -21.0563 26018.7 -03437.2 -07.5255 26244.8
 05 05 2013  02 51  -21.0562 26018.6 -03437.2 -07.5254 26244.7
 05 05 2013  02 52  -21.0562 26018.6 -03437.2 -07.5254 26244.6
 05 05 2013  02 53  -21.0561 26018.5 -03437.2 -07.5255 26244.6
 05 05 2013  02 54  -21.0561 26018.5 -03437.2 -07.5255 26244.6
 05 05 2013  02 55  -21.0562 26018.6 -03437.3 -07.5256 26244.7
 05 05 2013  02 56  -21.0563 26018.6 -03437.3 -07.5257 26244.7
 05 05 2013  02 57  -21.0562 26018.5 -03437.3 -07.5257 26244.6
 05 05 2013  02 58  -21.0560 26018.4 -03437.2 -07.5256 26244.4
 05 05 2013  02 59  -21.0560 26018.3 -03437.2 -07.5256 26244.4
 05 05 2013  03 00  -21.0560 26018.2 -03437.2 -07.5255 26244.3
 05 05 2013  03 01  -21.0559 26018.1 -03437.2 -07.5255 26244.2
 05 05 2013  03 02  -21.0558 26018.1 -03437.1 -07.5255 26244.1
 05 05 2013  03 03  -21.0559 26018.0 -03437.1 -07.5255 26244.0
 05 05 2013  03 04  -21.0560 26017.9 -03437.1 -07.5255 26243.9
 05 05 2013  03 05  -21.0563 26017.7 -03437.1 -07.5255 26243.8
 05 05 2013  03 06  -21.0568 26017.7 -03437.1 -07.5255 26243.7
 05 05 2013  03 07  -21.0570 26017.7 -03437.1 -07.5255 26243.8
 05 05 2013  03 08  -21.0572 26017.9 -03437.2 -07.5257 26244.0
 05 05 2013  03 09  -21.0575 26018.1 -03437.3 -07.5259 26244.2
 05 05 2013  03 10  -21.0578 26018.2 -03437.4 -07.5260 26244.3
 05 05 2013  03 11  -21.0579 26018.4 -03437.5 -07.5261 26244.5
 05 05 2013  03 12  -21.0582 26018.4 -03437.5 -07.5261 26244.5
 05 05 2013  03 13  -21.0584 26018.4 -03437.4 -07.5261 26244.5
 05 05 2013  03 14  -21.0584 26018.5 -03437.5 -07.5261 26244.5
 05 05 2013  03 15  -21.0583 26018.5 -03437.5 -07.5261 26244.6
 05 05 2013  03 16  -21.0580 26018.4 -03437.4 -07.5260 26244.5
 05 05 2013  03 17  -21.0577 26018.4 -03437.4 -07.5260 26244.5
 05 05 2013  03 18  -21.0575 26018.5 -03437.4 -07.5260 26244.5
 05 05 2013  03 19  -21.0573 26018.5 -03437.5 -07.5261 26244.6
 05 05 2013  03 20  -21.0571 26018.5 -03437.4 -07.5260 26244.5
 05 05 2013  03 21  -21.0568 26018.4 -03437.4 -07.5259 26244.4
 05 05 2013  03 22  -21.0566 26018.2 -03437.3 -07.5258 26244.3
 05 05 2013  03 23  -21.0563 26018.1 -03437.2 -07.5257 26244.1
 05 05 2013  03 24  -21.0559 26017.9 -03437.1 -07.5256 26243.9
 05 05 2013  03 25  -21.0557 26017.7 -03437.1 -07.5256 26243.8
 05 05 2013  03 26  -21.0559 26017.5 -03437.1 -07.5256 26243.6
 05 05 2013  03 27  -21.0561 26017.3 -03437.1 -07.5256 26243.4
 05 05 2013  03 28  -21.0563 26017.2 -03437.1 -07.5256 26243.3
 05 05 2013  03 29  -21.0561 26017.0 -03437.0 -07.5254 26243.1
 05 05 2013  03 30  -21.0560 26017.0 -03437.0 -07.5255 26243.0
 05 05 2013  03 31  -21.0561 26016.9 -03437.0 -07.5255 26242.9
 05 05 2013  03 32  -21.0564 26016.9 -03437.0 -07.5256 26242.9
 05 05 2013  03 33  -21.0564 26016.8 -03437.0 -07.5256 26242.8
 05 05 2013  03 34  -21.0563 26016.7 -03437.0 -07.5257 26242.7
 05 05 2013  03 35  -21.0563 26016.6 -03437.0 -07.5257 26242.7
 05 05 2013  03 36  -21.0564 26016.6 -03437.0 -07.5257 26242.6
 05 05 2013  03 37  -21.0566 26016.5 -03437.0 -07.5257 26242.5
 05 05 2013  03 38  -21.0568 26016.4 -03437.0 -07.5258 26242.4
 05 05 2013  03 39  -21.0570 26016.2 -03437.0 -07.5257 26242.2
 05 05 2013  03 40  -21.0571 26016.0 -03436.9 -07.5256 26242.0
 05 05 2013  03 41  -21.0572 26015.7 -03436.8 -07.5255 26241.8
 05 05 2013  03 42  -21.0571 26015.5 -03436.7 -07.5253 26241.6
 05 05 2013  03 43  -21.0571 26015.5 -03436.7 -07.5254 26241.5
 05 05 2013  03 44  -21.0569 26015.3 -03436.7 -07.5254 26241.3
 05 05 2013  03 45  -21.0567 26015.2 -03436.7 -07.5254 26241.2
 05 05 2013  03 46  -21.0565 26015.2 -03436.7 -07.5254 26241.2
 05 05 2013  03 47  -21.0562 26015.1 -03436.7 -07.5255 26241.1
 05 05 2013  03 48  -21.0558 26015.1 -03436.8 -07.5256 26241.1
 05 05 2013  03 49  -21.0556 26015.2 -03436.9 -07.5258 26241.3
 05 05 2013  03 50  -21.0555 26015.3 -03437.0 -07.5260 26241.4
 05 05 2013  03 51  -21.0554 26015.4 -03437.1 -07.5262 26241.4
 05 05 2013  03 52  -21.0554 26015.4 -03437.2 -07.5264 26241.5
 05 05 2013  03 53  -21.0554 26015.4 -03437.2 -07.5264 26241.5
 05 05 2013  03 54  -21.0553 26015.4 -03437.2 -07.5265 26241.5
 05 05 2013  03 55  -21.0552 26015.5 -03437.3 -07.5266 26241.6
 05 05 2013  03 56  -21.0553 26015.5 -03437.4 -07.5267 26241.6
 05 05 2013  03 57  -21.0554 26015.5 -03437.4 -07.5268 26241.7
 05 05 2013  03 58  -21.0552 26015.5 -03437.4 -07.5268 26241.6
 05 05 2013  03 59  -21.0552 26015.5 -03437.4 -07.5269 26241.6
 05 05 2013  04 00  -21.0551 26015.6 -03437.5 -07.5270 26241.7
 05 05 2013  04 01  -21.0550 26015.7 -03437.5 -07.5271 26241.8
 05 05 2013  04 02  -21.0551 26015.7 -03437.6 -07.5272 26241.9
 05 05 2013  04 03  -21.0553 26015.7 -03437.6 -07.5272 26241.9
 05 05 2013  04 04  -21.0555 26015.7 -03437.6 -07.5273 26241.9
 05 05 2013  04 05  -21.0556 26015.7 -03437.6 -07.5272 26241.8
 05 05 2013  04 06  -21.0555 26015.6 -03437.6 -07.5272 26241.7
 05 05 2013  04 07  -21.0556 26015.4 -03437.5 -07.5271 26241.6
 05 05 2013  04 08  -21.0557 26015.3 -03437.4 -07.5270 26241.4
 05 05 2013  04 09  -21.0557 26015.2 -03437.4 -07.5269 26241.3
 05 05 2013  04 10  -21.0558 26015.1 -03437.4 -07.5268 26241.2
 05 05 2013  04 11  -21.0556 26015.0 -03437.3 -07.5268 26241.1
 05 05 2013  04 12  -21.0555 26015.0 -03437.4 -07.5268 26241.2
 05 05 2013  04 13  -21.0556 26015.1 -03437.4 -07.5270 26241.2
 05 05 2013  04 14  -21.0556 26015.3 -03437.5 -07.5272 26241.4
 05 05 2013  04 15  -21.0555 26015.4 -03437.6 -07.5273 26241.6
 05 05 2013  04 16  -21.0555 26015.5 -03437.7 -07.5274 26241.6
 05 05 2013  04 17  -21.0556 26015.7 -03437.7 -07.5275 26241.8
 05 05 2013  04 18  -21.0554 26015.7 -03437.8 -07.5275 26241.9
 05 05 2013  04 19  -21.0552 26015.7 -03437.7 -07.5275 26241.9
 05 05 2013  04 20  -21.0552 26015.7 -03437.7 -07.5274 26241.9
 05 05 2013  04 21  -21.0552 26015.7 -03437.7 -07.5274 26241.8
 05 05 2013  04 22  -21.0553 26015.6 -03437.7 -07.5274 26241.8
 05 05 2013  04 23  -21.0552 26015.6 -03437.6 -07.5273 26241.7
 05 05 2013  04 24  -21.0552 26015.5 -03437.6 -07.5273 26241.7
 05 05 2013  04 25  -21.0550 26015.4 -03437.6 -07.5272 26241.6
 05 05 2013  04 26  -21.0547 26015.3 -03437.5 -07.5270 26241.4
 05 05 2013  04 27  -21.0546 26015.1 -03437.4 -07.5269 26241.2
 05 05 2013  04 28  -21.0546 26014.9 -03437.3 -07.5268 26241.0
 05 05 2013  04 29  -21.0547 26014.8 -03437.3 -07.5268 26240.9
 05 05 2013  04 30  -21.0551 26014.9 -03437.4 -07.5270 26241.0
 05 05 2013  04 31  -21.0554 26014.8 -03437.4 -07.5271 26241.0
 05 05 2013  04 32  -21.0558 26014.8 -03437.4 -07.5271 26241.0
 05 05 2013  04 33  -21.0559 26014.8 -03437.4 -07.5271 26240.9
 05 05 2013  04 34  -21.0558 26014.8 -03437.4 -07.5271 26240.9
 05 05 2013  04 35  -21.0557 26014.8 -03437.4 -07.5270 26240.9
 05 05 2013  04 36  -21.0554 26014.8 -03437.4 -07.5270 26240.9
 05 05 2013  04 37  -21.0553 26014.8 -03437.4 -07.5271 26240.9
 05 05 2013  04 38  -21.0554 26014.8 -03437.4 -07.5271 26240.9
 05 05 2013  04 39  -21.0555 26014.7 -03437.4 -07.5271 26240.9
 05 05 2013  04 40  -21.0558 26014.7 -03437.4 -07.5270 26240.8
 05 05 2013  04 41  -21.0561 26014.8 -03437.4 -07.5271 26240.9
 05 05 2013  04 42  -21.0561 26014.8 -03437.5 -07.5271 26241.0
 05 05 2013  04 43  -21.0561 26014.8 -03437.4 -07.5271 26241.0
 05 05 2013  04 44  -21.0563 26014.9 -03437.5 -07.5271 26241.0
 05 05 2013  04 45  -21.0564 26014.9 -03437.5 -07.5271 26241.1
 05 05 2013  04 46  -21.0566 26015.1 -03437.6 -07.5273 26241.2
 05 05 2013  04 47  -21.0571 26015.2 -03437.6 -07.5273 26241.3
 05 05 2013  04 48  -21.0574 26015.3 -03437.6 -07.5274 26241.4
 05 05 2013  04 49  -21.0579 26015.4 -03437.6 -07.5273 26241.5
 05 05 2013  04 50  -21.0582 26015.5 -03437.6 -07.5273 26241.6
 05 05 2013  04 51  -21.0584 26015.5 -03437.6 -07.5272 26241.6
 05 05 2013  04 52  -21.0587 26015.6 -03437.6 -07.5272 26241.7
 05 05 2013  04 53  -21.0590 26015.7 -03437.6 -07.5272 26241.8
 05 05 2013  04 54  -21.0592 26015.9 -03437.6 -07.5272 26242.0
 05 05 2013  04 55  -21.0594 26016.0 -03437.6 -07.5271 26242.2
 05 05 2013  04 56  -21.0597 26016.2 -03437.7 -07.5272 26242.3
 05 05 2013  04 57  -21.0599 26016.3 -03437.6 -07.5271 26242.4
 05 05 2013  04 58  -21.0599 26016.4 -03437.6 -07.5270 26242.5
 05 05 2013  04 59  -21.0600 26016.5 -03437.6 -07.5271 26242.6
 05 05 2013  05 00  -21.0602 26016.6 -03437.6 -07.5270 26242.7
 05 05 2013  05 01  -21.0606 26016.7 -03437.6 -07.5270 26242.9
 05 05 2013  05 02  -21.0610 26016.9 -03437.6 -07.5269 26243.0
 05 05 2013  05 03  -21.0613 26016.9 -03437.6 -07.5268 26243.0
 05 05 2013  05 04  -21.0616 26017.1 -03437.6 -07.5268 26243.2
 05 05 2013  05 05  -21.0619 26017.2 -03437.6 -07.5267 26243.3
 05 05 2013  05 06  -21.0619 26017.3 -03437.6 -07.5267 26243.4
 05 05 2013  05 07  -21.0618 26017.2 -03437.5 -07.5265 26243.4
 05 05 2013  05 08  -21.0618 26017.2 -03437.4 -07.5264 26243.3
 05 05 2013  05 09  -21.0619 26017.3 -03437.4 -07.5263 26243.4
 05 05 2013  05 10  -21.0622 26017.3 -03437.4 -07.5262 26243.4
 05 05 2013  05 11  -21.0624 26017.3 -03437.3 -07.5261 26243.3
 05 05 2013  05 12  -21.0625 26017.2 -03437.2 -07.5259 26243.3
 05 05 2013  05 13  -21.0624 26017.1 -03437.1 -07.5257 26243.2
 05 05 2013  05 14  -21.0624 26017.1 -03437.0 -07.5255 26243.1
 05 05 2013  05 15  -21.0625 26017.0 -03437.0 -07.5254 26243.1
 05 05 2013  05 16  -21.0627 26017.0 -03436.9 -07.5253 26243.0
 05 05 2013  05 17  -21.0628 26016.9 -03436.9 -07.5252 26243.0
 05 05 2013  05 18  -21.0626 26016.9 -03436.8 -07.5250 26242.9
 05 05 2013  05 19  -21.0625 26017.0 -03436.7 -07.5250 26243.0
 05 05 2013  05 20  -21.0623 26017.0 -03436.8 -07.5250 26243.0
 05 05 2013  05 21  -21.0622 26017.1 -03436.8 -07.5250 26243.1
 05 05 2013  05 22  -21.0620 26017.1 -03436.7 -07.5249 26243.1
 05 05 2013  05 23  -21.0617 26017.1 -03436.8 -07.5249 26243.1
 05 05 2013  05 24  -21.0614 26017.1 -03436.7 -07.5249 26243.1
 05 05 2013  05 25  -21.0609 26017.0 -03436.6 -07.5247 26243.0
 05 05 2013  05 26  -21.0603 26016.8 -03436.5 -07.5245 26242.7
 05 05 2013  05 27  -21.0596 26016.5 -03436.3 -07.5243 26242.5
 05 05 2013  05 28  -21.0590 26016.3 -03436.3 -07.5241 26242.3
 05 05 2013  05 29  -21.0587 26016.3 -03436.3 -07.5241 26242.2
 05 05 2013  05 30  -21.0585 26016.2 -03436.3 -07.5242 26242.2
 05 05 2013  05 31  -21.0583 26016.1 -03436.3 -07.5242 26242.1
 05 05 2013  05 32  -21.0579 26016.1 -03436.3 -07.5242 26242.0
 05 05 2013  05 33  -21.0576 26016.1 -03436.3 -07.5243 26242.1
 05 05 2013  05 34  -21.0573 26016.1 -03436.4 -07.5245 26242.1
 05 05 2013  05 35  -21.0569 26016.2 -03436.4 -07.5245 26242.2
 05 05 2013  05 36  -21.0566 26016.3 -03436.5 -07.5247 26242.3
 05 05 2013  05 37  -21.0563 26016.5 -03436.6 -07.5248 26242.5
 05 05 2013  05 38  -21.0560 26016.6 -03436.7 -07.5250 26242.6
 05 05 2013  05 39  -21.0558 26016.7 -03436.8 -07.5251 26242.7
 05 05 2013  05 40  -21.0557 26016.9 -03436.9 -07.5253 26242.9
 05 05 2013  05 41  -21.0556 26017.1 -03437.0 -07.5255 26243.1
 05 05 2013  05 42  -21.0552 26017.2 -03437.1 -07.5256 26243.3
 05 05 2013  05 43  -21.0548 26017.4 -03437.1 -07.5257 26243.5
 05 05 2013  05 44  -21.0546 26017.6 -03437.2 -07.5259 26243.6
 05 05 2013  05 45  -21.0545 26017.7 -03437.3 -07.5260 26243.8
 05 05 2013  05 46  -21.0544 26017.8 -03437.4 -07.5261 26243.9
 05 05 2013  05 47  -21.0545 26017.9 -03437.4 -07.5261 26244.0
 05 05 2013  05 48  -21.0545 26018.1 -03437.5 -07.5262 26244.2
 05 05 2013  05 49  -21.0544 26018.2 -03437.5 -07.5263 26244.4
 05 05 2013  05 50  -21.0545 26018.4 -03437.6 -07.5264 26244.5
 05 05 2013  05 51  -21.0546 26018.5 -03437.7 -07.5266 26244.7
 05 05 2013  05 52  -21.0549 26018.7 -03437.8 -07.5267 26244.9
 05 05 2013  05 53  -21.0552 26019.0 -03437.9 -07.5269 26245.1
 05 05 2013  05 54  -21.0555 26019.2 -03438.0 -07.5270 26245.4
 05 05 2013  05 55  -21.0556 26019.2 -03438.0 -07.5269 26245.4
 05 05 2013  05 56  -21.0556 26019.3 -03437.9 -07.5268 26245.5
 05 05 2013  05 57  -21.0555 26019.5 -03438.0 -07.5269 26245.6
 05 05 2013  05 58  -21.0557 26019.6 -03438.0 -07.5269 26245.8
 05 05 2013  05 59  -21.0559 26019.8 -03438.1 -07.5270 26246.0
 05 05 2013  06 00  -21.0559 26019.9 -03438.1 -07.5270 26246.1
 05 05 2013  06 01  -21.0556 26020.0 -03438.0 -07.5268 26246.2
 05 05 2013  06 02  -21.0551 26020.1 -03438.0 -07.5268 26246.2
 05 05 2013  06 03  -21.0546 26020.3 -03438.0 -07.5268 26246.4
 05 05 2013  06 04  -21.0542 26020.4 -03438.1 -07.5269 26246.6
 05 05 2013  06 05  -21.0539 26020.6 -03438.2 -07.5271 26246.8
 05 05 2013  06 06  -21.0536 26020.7 -03438.2 -07.5271 26246.9
 05 05 2013  06 07  -21.0533 26020.7 -03438.2 -07.5271 26246.9
 05 05 2013  06 08  -21.0530 26020.8 -03438.3 -07.5272 26247.0
 05 05 2013  06 09  -21.0527 26020.8 -03438.2 -07.5271 26246.9
 05 05 2013  06 10  -21.0523 26020.8 -03438.1 -07.5269 26246.9
 05 05 2013  06 11  -21.0520 26020.7 -03438.1 -07.5269 26246.8
 05 05 2013  06 12  -21.0518 26020.6 -03438.1 -07.5269 26246.8
 05 05 2013  06 13  -21.0517 26020.6 -03438.1 -07.5268 26246.7
 05 05 2013  06 14  -21.0515 26020.5 -03438.1 -07.5269 26246.7
 05 05 2013  06 15  -21.0516 26020.5 -03438.1 -07.5269 26246.6
 05 05 2013  06 16  -21.0518 26020.5 -03438.1 -07.5270 26246.7
 05 05 2013  06 17  -21.0522 26020.6 -03438.2 -07.5271 26246.8
 05 05 2013  06 18  -21.0526 26020.8 -03438.3 -07.5273 26246.9
 05 05 2013  06 19  -21.0527 26020.8 -03438.3 -07.5273 26247.0
 05 05 2013  06 20  -21.0526 26021.0 -03438.3 -07.5273 26247.1
 05 05 2013  06 21  -21.0525 26021.1 -03438.4 -07.5273 26247.3
 05 05 2013  06 22  -21.0525 26021.1 -03438.4 -07.5273 26247.3
 05 05 2013  06 23  -21.0524 26021.1 -03438.4 -07.5273 26247.3
 05 05 2013  06 24  -21.0524 26021.1 -03438.3 -07.5272 26247.3
 05 05 2013  06 25  -21.0523 26021.1 -03438.3 -07.5271 26247.2
 05 05 2013  06 26  -21.0524 26021.0 -03438.2 -07.5270 26247.2
 05 05 2013  06 27  -21.0524 26021.0 -03438.2 -07.5270 26247.2
 05 05 2013  06 28  -21.0525 26021.0 -03438.2 -07.5270 26247.2
 05 05 2013  06 29  -21.0527 26021.0 -03438.2 -07.5270 26247.1
 05 05 2013  06 30  -21.0528 26021.0 -03438.2 -07.5270 26247.2
 05 05 2013  06 31  -21.0529 26021.1 -03438.2 -07.5270 26247.2
 05 05 2013  06 32  -21.0530 26021.1 -03438.2 -07.5270 26247.3
 05 05 2013  06 33  -21.0531 26021.1 -03438.2 -07.5269 26247.2
 05 05 2013  06 34  -21.0533 26020.9 -03438.1 -07.5268 26247.1
 05 05 2013  06 35  -21.0534 26020.8 -03438.0 -07.5267 26247.0
 05 05 2013  06 36  -21.0536 26020.8 -03438.0 -07.5265 26246.9
 05 05 2013  06 37  -21.0537 26020.8 -03437.9 -07.5265 26246.9
 05 05 2013  06 38  -21.0539 26020.8 -03438.0 -07.5265 26246.9
 05 05 2013  06 39  -21.0540 26020.8 -03438.0 -07.5265 26247.0
 05 05 2013  06 40  -21.0538 26020.8 -03437.9 -07.5264 26246.9
 05 05 2013  06 41  -21.0538 26020.8 -03437.9 -07.5263 26246.9
 05 05 2013  06 42  -21.0538 26020.7 -03437.9 -07.5263 26246.8
 05 05 2013  06 43  -21.0539 26020.7 -03437.9 -07.5264 26246.9
 05 05 2013  06 44  -21.0540 26020.8 -03437.9 -07.5263 26246.9
 05 05 2013  06 45  -21.0539 26020.7 -03437.8 -07.5263 26246.8
 05 05 2013  06 46  -21.0539 26020.7 -03437.8 -07.5261 26246.8
 05 05 2013  06 47  -21.0538 26020.6 -03437.7 -07.5261 26246.7
 05 05 2013  06 48  -21.0536 26020.6 -03437.7 -07.5260 26246.7
 05 05 2013  06 49  -21.0534 26020.5 -03437.7 -07.5260 26246.6
 05 05 2013  06 50  -21.0533 26020.4 -03437.6 -07.5259 26246.5
 05 05 2013  06 51  -21.0533 26020.4 -03437.6 -07.5258 26246.5
 05 05 2013  06 52  -21.0534 26020.3 -03437.6 -07.5259 26246.4
 05 05 2013  06 53  -21.0535 26020.3 -03437.6 -07.5259 26246.4
 05 05 2013  06 54  -21.0536 26020.3 -03437.6 -07.5259 26246.3
 05 05 2013  06 55  -21.0536 26020.3 -03437.6 -07.5259 26246.4
 05 05 2013  06 56  -21.0534 26020.3 -03437.6 -07.5259 26246.4
 05 05 2013  06 57  -21.0532 26020.3 -03437.6 -07.5259 26246.4
 05 05 2013  06 58  -21.0530 26020.4 -03437.6 -07.5259 26246.5
 05 05 2013  06 59  -21.0525 26020.4 -03437.6 -07.5259 26246.5
 05 05 2013  07 00  -21.0522 26020.4 -03437.6 -07.5259 26246.5
 05 05 2013  07 01  -21.0520 26020.5 -03437.7 -07.5260 26246.6
 05 05 2013  07 02  -21.0517 26020.6 -03437.7 -07.5261 26246.7
 05 05 2013  07 03  -21.0514 26020.6 -03437.7 -07.5261 26246.7
 05 05 2013  07 04  -21.0511 26020.5 -03437.7 -07.5260 26246.6
 05 05 2013  07 05  -21.0508 26020.4 -03437.6 -07.5259 26246.5
 05 05 2013  07 06  -21.0507 26020.2 -03437.6 -07.5258 26246.3
 05 05 2013  07 07  -21.0507 26020.1 -03437.5 -07.5258 26246.2
 05 05 2013  07 08  -21.0505 26020.1 -03437.5 -07.5258 26246.1
 05 05 2013  07 09  -21.0503 26020.0 -03437.5 -07.5257 26246.1
 05 05 2013  07 10  -21.0502 26019.8 -03437.5 -07.5257 26245.9
 05 05 2013  07 11  -21.0498 26019.8 -03437.4 -07.5257 26245.8
 05 05 2013  07 12  -21.0498 26019.7 -03437.4 -07.5257 26245.8
 05 05 2013  07 13  -21.0498 26019.7 -03437.5 -07.5258 26245.8
 05 05 2013  07 14  -21.0499 26019.7 -03437.5 -07.5259 26245.8
 05 05 2013  07 15  -21.0500 26019.8 -03437.6 -07.5260 26245.9
 05 05 2013  07 16  -21.0500 26019.9 -03437.7 -07.5261 26246.0
 05 05 2013  07 17  -21.0500 26020.2 -03437.8 -07.5263 26246.3
 05 05 2013  07 18  -21.0501 26020.4 -03437.9 -07.5265 26246.5
 05 05 2013  07 19  -21.0502 26020.5 -03438.0 -07.5266 26246.7
 05 05 2013  07 20  -21.0501 26020.7 -03438.0 -07.5266 26246.8
 05 05 2013  07 21  -21.0500 26020.9 -03438.0 -07.5267 26247.0
 05 05 2013  07 22  -21.0498 26021.0 -03438.1 -07.5268 26247.2
 05 05 2013  07 23  -21.0497 26021.1 -03438.2 -07.5268 26247.3
 05 05 2013  07 24  -21.0497 26021.2 -03438.2 -07.5269 26247.4
 05 05 2013  07 25  -21.0499 26021.3 -03438.2 -07.5269 26247.5
 05 05 2013  07 26  -21.0499 26021.5 -03438.3 -07.5270 26247.6
 05 05 2013  07 27  -21.0500 26021.5 -03438.3 -07.5269 26247.7
 05 05 2013  07 28  -21.0497 26021.6 -03438.2 -07.5269 26247.7
 05 05 2013  07 29  -21.0495 26021.7 -03438.2 -07.5268 26247.9
 05 05 2013  07 30  -21.0494 26021.9 -03438.3 -07.5269 26248.0
 05 05 2013  07 31  -21.0491 26022.0 -03438.3 -07.5269 26248.2
 05 05 2013  07 32  -21.0492 26022.1 -03438.3 -07.5270 26248.3
 05 05 2013  07 33  -21.0490 26022.2 -03438.4 -07.5270 26248.4
 05 05 2013  07 34  -21.0489 26022.3 -03438.4 -07.5270 26248.5
 05 05 2013  07 35  -21.0492 26022.4 -03438.4 -07.5270 26248.6
 05 05 2013  07 36  -21.0494 26022.7 -03438.5 -07.5271 26248.8
 05 05 2013  07 37  -21.0493 26022.8 -03438.5 -07.5272 26249.0
 05 05 2013  07 38  -21.0494 26022.9 -03438.5 -07.5271 26249.1
 05 05 2013  07 39  -21.0492 26023.0 -03438.5 -07.5271 26249.2
 05 05 2013  07 40  -21.0488 26023.2 -03438.6 -07.5271 26249.4
 05 05 2013  07 41  -21.0485 26023.3 -03438.6 -07.5271 26249.5
 05 05 2013  07 42  -21.0483 26023.3 -03438.5 -07.5270 26249.5
 05 05 2013  07 43  -21.0482 26023.2 -03438.5 -07.5269 26249.4
 05 05 2013  07 44  -21.0482 26023.1 -03438.3 -07.5267 26249.2
 05 05 2013  07 45  -21.0484 26022.9 -03438.3 -07.5266 26249.1
 05 05 2013  07 46  -21.0487 26022.8 -03438.2 -07.5264 26249.0
 05 05 2013  07 47  -21.0490 26022.8 -03438.2 -07.5264 26248.9
 05 05 2013  07 48  -21.0492 26022.6 -03438.1 -07.5262 26248.8
 05 05 2013  07 49  -21.0492 26022.6 -03438.0 -07.5261 26248.7
 05 05 2013  07 50  -21.0492 26022.4 -03437.9 -07.5260 26248.6
 05 05 2013  07 51  -21.0493 26022.3 -03437.8 -07.5258 26248.4
 05 05 2013  07 52  -21.0493 26022.2 -03437.8 -07.5257 26248.3
 05 05 2013  07 53  -21.0492 26022.0 -03437.7 -07.5256 26248.1
 05 05 2013  07 54  -21.0490 26022.0 -03437.7 -07.5255 26248.1
 05 05 2013  07 55  -21.0489 26021.9 -03437.6 -07.5254 26248.0
 05 05 2013  07 56  -21.0487 26021.8 -03437.6 -07.5254 26247.9
 05 05 2013  07 57  -21.0487 26021.8 -03437.6 -07.5255 26247.9
 05 05 2013  07 58  -21.0488 26022.0 -03437.7 -07.5257 26248.1
 05 05 2013  07 59  -21.0490 26022.2 -03437.8 -07.5258 26248.3
 05 05 2013  08 00  -21.0490 26022.4 -03437.9 -07.5260 26248.5
 05 05 2013  08 01  -21.0488 26022.5 -03438.0 -07.5261 26248.7
 05 05 2013  08 02  -21.0484 26022.9 -03438.1 -07.5263 26249.0
 05 05 2013  08 03  -21.0480 26022.9 -03438.1 -07.5262 26249.0
 05 05 2013  08 04  -21.0476 26022.9 -03438.1 -07.5261 26249.0
 05 05 2013  08 05  -21.0473 26022.8 -03438.0 -07.5260 26248.9
 05 05 2013  08 06  -21.0468 26022.6 -03437.9 -07.5258 26248.8
 05 05 2013  08 07  -21.0464 26022.5 -03437.8 -07.5256 26248.6
 05 05 2013  08 08  -21.0461 26022.6 -03437.8 -07.5256 26248.7
 05 05 2013  08 09  -21.0460 26022.6 -03437.8 -07.5256 26248.7
 05 05 2013  08 10  -21.0460 26022.7 -03437.8 -07.5257 26248.8
 05 05 2013  08 11  -21.0460 26022.8 -03438.0 -07.5259 26249.0
 05 05 2013  08 12  -21.0458 26022.9 -03438.0 -07.5260 26249.0
 05 05 2013  08 13  -21.0456 26023.0 -03438.0 -07.5259 26249.1
 05 05 2013  08 14  -21.0452 26022.8 -03437.9 -07.5258 26248.9
 05 05 2013  08 15  -21.0449 26022.7 -03437.8 -07.5255 26248.8
 05 05 2013  08 16  -21.0447 26022.7 -03437.7 -07.5255 26248.7
 05 05 2013  08 17  -21.0446 26022.6 -03437.7 -07.5255 26248.7
 05 05 2013  08 18  -21.0444 26022.4 -03437.6 -07.5253 26248.5
 05 05 2013  08 19  -21.0442 26022.4 -03437.6 -07.5252 26248.5
 05 05 2013  08 20  -21.0441 26022.5 -03437.6 -07.5253 26248.6
 05 05 2013  08 21  -21.0440 26022.5 -03437.7 -07.5254 26248.6
 05 05 2013  08 22  -21.0438 26022.5 -03437.7 -07.5254 26248.6
 05 05 2013  08 23  -21.0434 26022.6 -03437.7 -07.5253 26248.7
 05 05 2013  08 24  -21.0430 26022.7 -03437.7 -07.5253 26248.7
 05 05 2013  08 25  -21.0427 26022.7 -03437.7 -07.5254 26248.8
 05 05 2013  08 26  -21.0423 26022.7 -03437.7 -07.5254 26248.8
 05 05 2013  08 27  -21.0418 26022.7 -03437.7 -07.5253 26248.8
 05 05 2013  08 28  -21.0415 26022.7 -03437.6 -07.5253 26248.8
 05 05 2013  08 29  -21.0411 26022.7 -03437.7 -07.5254 26248.8
 05 05 2013  08 30  -21.0409 26022.7 -03437.7 -07.5254 26248.8
 05 05 2013  08 31  -21.0404 26022.8 -03437.7 -07.5253 26248.8
 05 05 2013  08 32  -21.0400 26022.8 -03437.7 -07.5255 26248.9
 05 05 2013  08 33  -21.0397 26022.9 -03437.7 -07.5255 26249.0
 05 05 2013  08 34  -21.0393 26022.9 -03437.8 -07.5255 26249.0
 05 05 2013  08 35  -21.0387 26022.8 -03437.7 -07.5255 26248.9
 05 05 2013  08 36  -21.0380 26022.7 -03437.7 -07.5253 26248.8
 05 05 2013  08 37  -21.0370 26022.7 -03437.6 -07.5252 26248.8
 05 05 2013  08 38  -21.0361 26022.7 -03437.6 -07.5252 26248.8
 05 05 2013  08 39  -21.0353 26022.8 -03437.7 -07.5253 26248.8
 05 05 2013  08 40  -21.0349 26022.7 -03437.7 -07.5254 26248.8
 05 05 2013  08 41  -21.0348 26022.7 -03437.7 -07.5255 26248.8
 05 05 2013  08 42  -21.0347 26022.7 -03437.7 -07.5255 26248.8
 05 05 2013  08 43  -21.0340 26022.8 -03437.8 -07.5256 26248.9
 05 05 2013  08 44  -21.0334 26023.0 -03437.9 -07.5257 26249.1
 05 05 2013  08 45  -21.0329 26023.2 -03438.0 -07.5260 26249.4
 05 05 2013  08 46  -21.0324 26023.5 -03438.2 -07.5263 26249.7
 05 05 2013  08 47  -21.0320 26023.7 -03438.4 -07.5266 26249.8
 05 05 2013  08 48  -21.0317 26023.8 -03438.4 -07.5267 26249.9
 05 05 2013  08 49  -21.0313 26023.8 -03438.5 -07.5269 26250.0
 05 05 2013  08 50  -21.0308 26023.8 -03438.5 -07.5269 26249.9
 05 05 2013  08 51  -21.0305 26023.9 -03438.6 -07.5270 26250.1
 05 05 2013  08 52  -21.0300 26023.9 -03438.6 -07.5271 26250.1
 05 05 2013  08 53  -21.0296 26023.9 -03438.7 -07.5272 26250.1
 05 05 2013  08 54  -21.0297 26024.1 -03438.8 -07.5275 26250.4
 05 05 2013  08 55  -21.0300 26024.4 -03439.1 -07.5279 26250.7
 05 05 2013  08 56  -21.0299 26024.5 -03439.2 -07.5281 26250.7
 05 05 2013  08 57  -21.0298 26024.5 -03439.3 -07.5282 26250.8
 05 05 2013  08 58  -21.0299 26024.5 -03439.3 -07.5284 26250.8
 05 05 2013  08 59  -21.0300 26024.5 -03439.3 -07.5283 26250.7
 05 05 2013  09 00  -21.0302 26024.4 -03439.2 -07.5282 26250.6
 05 05 2013  09 01  -21.0302 26024.3 -03439.1 -07.5281 26250.5
 05 05 2013  09 02  -21.0305 26024.2 -03439.1 -07.5280 26250.5
 05 05 2013  09 03  -21.0307 26024.3 -03439.1 -07.5280 26250.5
 05 05 2013  09 04  -21.0308 26024.3 -03439.1 -07.5280 26250.5
 05 05 2013  09 05  -21.0310 26024.2 -03439.1 -07.5279 26250.5
 05 05 2013  09 06  -21.0310 26024.2 -03439.1 -07.5279 26250.5
 05 05 2013  09 07  -21.0309 26024.2 -03439.0 -07.5279 26250.4
 05 05 2013  09 08  -21.0309 26024.1 -03439.0 -07.5277 26250.4
 05 05 2013  09 09  -21.0311 26024.1 -03439.0 -07.5278 26250.4
 05 05 2013  09 10  -21.0315 26024.1 -03439.0 -07.5278 26250.4
 05 05 2013  09 11  -21.0316 26024.2 -03439.0 -07.5278 26250.4
 05 05 2013  09 12  -21.0315 26024.3 -03439.0 -07.5278 26250.5
 05 05 2013  09 13  -21.0312 26024.3 -03438.9 -07.5277 26250.5
 05 05 2013  09 14  -21.0310 26024.4 -03438.9 -07.5276 26250.6
 05 05 2013  09 15  -21.0310 26024.4 -03438.8 -07.5274 26250.6
 05 05 2013  09 16  -21.0306 26024.4 -03438.7 -07.5272 26250.6
 05 05 2013  09 17  -21.0304 26024.4 -03438.7 -07.5270 26250.6
 05 05 2013  09 18  -21.0303 26024.4 -03438.6 -07.5269 26250.6
 05 05 2013  09 19  -21.0299 26024.5 -03438.6 -07.5268 26250.6
 05 05 2013  09 20  -21.0294 26024.5 -03438.5 -07.5267 26250.7
 05 05 2013  09 21  -21.0293 26024.7 -03438.5 -07.5267 26250.9
 05 05 2013  09 22  -21.0294 26024.8 -03438.6 -07.5267 26251.0
 05 05 2013  09 23  -21.0297 26024.9 -03438.6 -07.5267 26251.1
 05 05 2013  09 24  -21.0296 26024.9 -03438.6 -07.5266 26251.1
 05 05 2013  09 25  -21.0295 26025.0 -03438.5 -07.5266 26251.2
 05 05 2013  09 26  -21.0293 26025.0 -03438.4 -07.5264 26251.2
 05 05 2013  09 27  -21.0289 26025.1 -03438.3 -07.5261 26251.2
 05 05 2013  09 28  -21.0287 26025.2 -03438.3 -07.5259 26251.3
 05 05 2013  09 29  -21.0285 26025.3 -03438.2 -07.5258 26251.4
 05 05 2013  09 30  -21.0284 26025.3 -03438.2 -07.5257 26251.4
 05 05 2013  09 31  -21.0280 26025.3 -03438.1 -07.5254 26251.4
 05 05 2013  09 32  -21.0278 26025.3 -03437.9 -07.5252 26251.4
 05 05 2013  09 33  -21.0276 26025.4 -03437.8 -07.5249 26251.5
 05 05 2013  09 34  -21.0277 26025.4 -03437.7 -07.5247 26251.5
 05 05 2013  09 35  -21.0276 26025.5 -03437.7 -07.5245 26251.6
 05 05 2013  09 36  -21.0277 26025.6 -03437.6 -07.5244 26251.7
 05 05 2013  09 37  -21.0276 26025.7 -03437.5 -07.5242 26251.8
 05 05 2013  09 38  -21.0274 26025.8 -03437.5 -07.5240 26251.9
 05 05 2013  09 39  -21.0273 26025.9 -03437.4 -07.5238 26251.9
 05 05 2013  09 40  -21.0273 26026.0 -03437.3 -07.5236 26252.0
 05 05 2013  09 41  -21.0275 26026.1 -03437.3 -07.5235 26252.1
 05 05 2013  09 42  -21.0274 26026.2 -03437.2 -07.5233 26252.2
 05 05 2013  09 43  -21.0270 26026.2 -03437.0 -07.5229 26252.2
 05 05 2013  09 44  -21.0270 26026.2 -03436.9 -07.5227 26252.1
 05 05 2013  09 45  -21.0267 26026.2 -03436.8 -07.5224 26252.2
 05 05 2013  09 46  -21.0265 26026.3 -03436.7 -07.5222 26252.3
 05 05 2013  09 47  -21.0264 26026.4 -03436.6 -07.5220 26252.3
 05 05 2013  09 48  -21.0263 26026.4 -03436.5 -07.5218 26252.3
 05 05 2013  09 49  -21.0263 26026.4 -03436.4 -07.5216 26252.3
 05 05 2013  09 50  -21.0264 26026.5 -03436.4 -07.5215 26252.4
 05 05 2013  09 51  -21.0263 26026.5 -03436.3 -07.5213 26252.4
 05 05 2013  09 52  -21.0262 26026.6 -03436.2 -07.5210 26252.5
 05 05 2013  09 53  -21.0262 26026.8 -03436.2 -07.5209 26252.7
 05 05 2013  09 54  -21.0261 26026.9 -03436.1 -07.5207 26252.7
 05 05 2013  09 55  -21.0259 26027.0 -03436.0 -07.5205 26252.9
 05 05 2013  09 56  -21.0258 26027.2 -03436.0 -07.5203 26253.0
 05 05 2013  09 57  -21.0257 26027.3 -03435.9 -07.5202 26253.1
 05 05 2013  09 58  -21.0259 26027.4 -03435.8 -07.5199 26253.2
 05 05 2013  09 59  -21.0258 26027.3 -03435.6 -07.5196 26253.1
 05 05 2013  10 00  -21.0260 26027.4 -03435.5 -07.5194 26253.1
 05 05 2013  10 01  -21.0264 26027.4 -03435.4 -07.5191 26253.1
 05 05 2013  10 02  -21.0266 26027.4 -03435.3 -07.5190 26253.1
 05 05 2013  10 03  -21.0263 26027.4 -03435.2 -07.5187 26253.1
 05 05 2013  10 04  -21.0262 26027.4 -03435.1 -07.5183 26253.1
 05 05 2013  10 05  -21.0262 26027.5 -03435.0 -07.5181 26253.1
 05 05 2013  10 06  -21.0262 26027.5 -03434.9 -07.5179 26253.1
 05 05 2013  10 07  -21.0263 26027.6 -03434.8 -07.5176 26253.2
 05 05 2013  10 08  -21.0263 26027.8 -03434.7 -07.5175 26253.4
 05 05 2013  10 09  -21.0264 26028.0 -03434.6 -07.5173 26253.6
 05 05 2013  10 10  -21.0264 26028.1 -03434.6 -07.5172 26253.8
 05 05 2013  10 11  -21.0261 26028.3 -03434.5 -07.5169 26253.9
 05 05 2013  10 12  -21.0259 26028.5 -03434.4 -07.5167 26254.1
 05 05 2013  10 13  -21.0254 26028.7 -03434.4 -07.5165 26254.3
 05 05 2013  10 14  -21.0251 26029.0 -03434.3 -07.5163 26254.5
 05 05 2013  10 15  -21.0246 26029.3 -03434.3 -07.5162 26254.8
 05 05 2013  10 16  -21.0241 26029.6 -03434.3 -07.5161 26255.2
 05 05 2013  10 17  -21.0234 26029.9 -03434.3 -07.5159 26255.5
 05 05 2013  10 18  -21.0225 26030.2 -03434.2 -07.5158 26255.7
 05 05 2013  10 19  -21.0217 26030.4 -03434.2 -07.5155 26255.9
 05 05 2013  10 20  -21.0213 26030.6 -03434.1 -07.5154 26256.1
 05 05 2013  10 21  -21.0210 26030.7 -03434.1 -07.5153 26256.3
 05 05 2013  10 22  -21.0205 26030.9 -03434.0 -07.5151 26256.5
 05 05 2013  10 23  -21.0198 26031.2 -03434.0 -07.5149 26256.7
 05 05 2013  10 24  -21.0195 26031.5 -03434.0 -07.5148 26257.0
 05 05 2013  10 25  -21.0195 26031.9 -03434.0 -07.5148 26257.5
 05 05 2013  10 26  -21.0195 26032.5 -03434.1 -07.5148 26258.1
 05 05 2013  10 27  -21.0190 26033.2 -03434.1 -07.5147 26258.7
 05 05 2013  10 28  -21.0185 26033.5 -03434.0 -07.5143 26259.0
 05 05 2013  10 29  -21.0181 26033.7 -03433.8 -07.5138 26259.2
 05 05 2013  10 30  -21.0179 26034.2 -03433.7 -07.5136 26259.6
 05 05 2013  10 31  -21.0175 26034.6 -03433.7 -07.5133 26260.0
 05 05 2013  10 32  -21.0169 26034.9 -03433.5 -07.5129 26260.4
 05 05 2013  10 33  -21.0169 26035.4 -03433.5 -07.5127 26260.8
 05 05 2013  10 34  -21.0169 26035.8 -03433.5 -07.5125 26261.2
 05 05 2013  10 35  -21.0169 26035.9 -03433.3 -07.5122 26261.3
 05 05 2013  10 36  -21.0167 26036.0 -03433.2 -07.5118 26261.4
 05 05 2013  10 37  -21.0171 26036.4 -03433.2 -07.5117 26261.7
 05 05 2013  10 38  -21.0174 26036.8 -03433.2 -07.5116 26262.2
 05 05 2013  10 39  -21.0176 26037.3 -03433.2 -07.5114 26262.7
 05 05 2013  10 40  -21.0181 26037.6 -03433.1 -07.5111 26263.0
 05 05 2013  10 41  -21.0189 26037.9 -03432.9 -07.5107 26263.2
 05 05 2013  10 42  -21.0197 26037.9 -03432.7 -07.5102 26263.2
 05 05 2013  10 43  -21.0202 26038.0 -03432.4 -07.5096 26263.2
 05 05 2013  10 44  -21.0210 26038.0 -03432.3 -07.5093 26263.2
 05 05 2013  10 45  -21.0222 26038.0 -03432.2 -07.5090 26263.3
 05 05 2013  10 46  -21.0228 26038.1 -03432.0 -07.5086 26263.3
 05 05 2013  10 47  -21.0226 26037.9 -03431.7 -07.5080 26263.1
 05 05 2013  10 48  -21.0221 26037.8 -03431.4 -07.5074 26262.9
 05 05 2013  10 49  -21.0220 26037.8 -03431.1 -07.5069 26262.9
 05 05 2013  10 50  -21.0225 26037.7 -03430.9 -07.5065 26262.8
 05 05 2013  10 51  -21.0231 26037.7 -03430.8 -07.5061 26262.8
 05 05 2013  10 52  -21.0240 26037.7 -03430.6 -07.5059 26262.7
 05 05 2013  10 53  -21.0251 26037.5 -03430.5 -07.5055 26262.5
 05 05 2013  10 54  -21.0256 26037.3 -03430.2 -07.5051 26262.2
 05 05 2013  10 55  -21.0259 26037.4 -03430.1 -07.5049 26262.3
 05 05 2013  10 56  -21.0262 26037.6 -03430.1 -07.5046 26262.6
 05 05 2013  10 57  -21.0261 26038.0 -03430.0 -07.5044 26262.9
 05 05 2013  10 58  -21.0262 26038.2 -03429.8 -07.5040 26263.1
 05 05 2013  10 59  -21.0264 26038.1 -03429.5 -07.5033 26263.0
 05 05 2013  11 00  -21.0267 26038.2 -03429.3 -07.5028 26263.0
 05 05 2013  11 01  -21.0273 26038.3 -03429.1 -07.5023 26263.1
 05 05 2013  11 02  -21.0280 26038.4 -03428.9 -07.5018 26263.2
 05 05 2013  11 03  -21.0283 26038.6 -03428.6 -07.5013 26263.4
 05 05 2013  11 04  -21.0285 26038.9 -03428.4 -07.5006 26263.6
 05 05 2013  11 05  -21.0288 26039.0 -03428.1 -07.4999 26263.7
 05 05 2013  11 06  -21.0289 26039.1 -03427.7 -07.4992 26263.8
 05 05 2013  11 07  -21.0285 26039.2 -03427.4 -07.4984 26263.8
 05 05 2013  11 08  -21.0281 26039.3 -03427.0 -07.4976 26263.8
 05 05 2013  11 09  -21.0281 26039.3 -03426.7 -07.4969 26263.8
 05 05 2013  11 10  -21.0279 26039.4 -03426.4 -07.4962 26263.9
 05 05 2013  11 11  -21.0272 26039.4 -03426.0 -07.4954 26263.8
 05 05 2013  11 12  -21.0263 26039.3 -03425.7 -07.4948 26263.7
 05 05 2013  11 13  -21.0252 26039.3 -03425.4 -07.4941 26263.6
 05 05 2013  11 14  -21.0243 26039.2 -03425.2 -07.4936 26263.5
 05 05 2013  11 15  -21.0238 26039.2 -03425.0 -07.4933 26263.5
 05 05 2013  11 16  -21.0234 26039.2 -03424.9 -07.4929 26263.5
 05 05 2013  11 17  -21.0234 26039.2 -03424.7 -07.4926 26263.5
 05 05 2013  11 18  -21.0237 26039.5 -03424.7 -07.4925 26263.8
 05 05 2013  11 19  -21.0238 26039.9 -03424.7 -07.4923 26264.1
 05 05 2013  11 20  -21.0236 26040.1 -03424.5 -07.4919 26264.3
 05 05 2013  11 21  -21.0230 26040.1 -03424.3 -07.4914 26264.2
 05 05 2013  11 22  -21.0222 26040.0 -03424.0 -07.4908 26264.1
 05 05 2013  11 23  -21.0213 26040.0 -03423.8 -07.4904 26264.1
 05 05 2013  11 24  -21.0202 26040.0 -03423.6 -07.4900 26264.1
 05 05 2013  11 25  -21.0191 26040.1 -03423.6 -07.4898 26264.2
 05 05 2013  11 26  -21.0181 26040.2 -03423.5 -07.4897 26264.3
 05 05 2013  11 27  -21.0172 26040.4 -03423.5 -07.4896 26264.4
 05 05 2013  11 28  -21.0165 26040.4 -03423.5 -07.4896 26264.5
 05 05 2013  11 29  -21.0158 26040.4 -03423.5 -07.4896 26264.5
 05 05 2013  11 30  -21.0150 26040.4 -03423.5 -07.4896 26264.5
 05 05 2013  11 31  -21.0142 26040.6 -03423.6 -07.4898 26264.7
 05 05 2013  11 32  -21.0134 26040.9 -03423.7 -07.4899 26265.0
 05 05 2013  11 33  -21.0124 26041.3 -03423.9 -07.4901 26265.5
 05 05 2013  11 34  -21.0110 26041.8 -03424.0 -07.4903 26265.9
 05 05 2013  11 35  -21.0097 26042.1 -03424.0 -07.4903 26266.3
 05 05 2013  11 36  -21.0085 26042.5 -03424.1 -07.4904 26266.7
 05 05 2013  11 37  -21.0077 26042.8 -03424.2 -07.4905 26267.0
 05 05 2013  11 38  -21.0071 26043.3 -03424.4 -07.4908 26267.4
 05 05 2013  11 39  -21.0063 26043.8 -03424.6 -07.4911 26268.0
 05 05 2013  11 40  -21.0057 26044.4 -03424.9 -07.4914 26268.6
 05 05 2013  11 41  -21.0051 26044.9 -03425.0 -07.4917 26269.2
 05 05 2013  11 42  -21.0047 26045.3 -03425.2 -07.4918 26269.6
 05 05 2013  11 43  -21.0044 26045.8 -03425.3 -07.4920 26270.1
 05 05 2013  11 44  -21.0042 26046.3 -03425.5 -07.4923 26270.6
 05 05 2013  11 45  -21.0041 26046.8 -03425.6 -07.4924 26271.1
 05 05 2013  11 46  -21.0040 26047.4 -03425.7 -07.4925 26271.7
 05 05 2013  11 47  -21.0043 26047.9 -03425.7 -07.4923 26272.2
 05 05 2013  11 48  -21.0046 26048.2 -03425.8 -07.4923 26272.5
 05 05 2013  11 49  -21.0049 26048.5 -03425.9 -07.4925 26272.8
 05 05 2013  11 50  -21.0051 26048.6 -03425.9 -07.4926 26273.0
 05 05 2013  11 51  -21.0051 26048.7 -03426.0 -07.4926 26273.0
 05 05 2013  11 52  -21.0052 26048.7 -03426.0 -07.4927 26273.0
 05 05 2013  11 53  -21.0051 26048.5 -03426.0 -07.4928 26272.9
 05 05 2013  11 54  -21.0051 26048.5 -03426.1 -07.4930 26272.9
 05 05 2013  11 55  -21.0050 26048.6 -03426.2 -07.4933 26272.9
 05 05 2013  11 56  -21.0050 26048.5 -03426.4 -07.4936 26272.9
 05 05 2013  11 57  -21.0051 26048.4 -03426.5 -07.4938 26272.8
 05 05 2013  11 58  -21.0053 26048.5 -03426.7 -07.4941 26273.0
 05 05 2013  11 59  -21.0055 26048.8 -03426.9 -07.4945 26273.3
 05 05 2013  12 00  -21.0055 26049.4 -03427.1 -07.4948 26273.9
 05 05 2013  12 01  -21.0054 26050.3 -03427.4 -07.4952 26274.8
 05 05 2013  12 02  -21.0052 26051.2 -03427.6 -07.4954 26275.8
 05 05 2013  12 03  -21.0052 26052.1 -03427.7 -07.4955 26276.6
 05 05 2013  12 04  -21.0051 26053.0 -03427.8 -07.4955 26277.5
 05 05 2013  12 05  -21.0050 26053.7 -03427.9 -07.4953 26278.2
 05 05 2013  12 06  -21.0048 26054.3 -03427.8 -07.4951 26278.8
 05 05 2013  12 07  -21.0047 26054.7 -03427.8 -07.4948 26279.2
 05 05 2013  12 08  -21.0048 26055.1 -03427.7 -07.4946 26279.6
 05 05 2013  12 09  -21.0051 26055.5 -03427.7 -07.4945 26280.0
 05 05 2013  12 10  -21.0055 26056.1 -03427.8 -07.4944 26280.6
 05 05 2013  12 11  -21.0061 26056.7 -03427.8 -07.4944 26281.2
 05 05 2013  12 12  -21.0064 26057.4 -03427.9 -07.4943 26281.9
 05 05 2013  12 13  -21.0067 26057.6 -03427.7 -07.4939 26282.1
 05 05 2013  12 14  -21.0070 26057.7 -03427.6 -07.4936 26282.2
 05 05 2013  12 15  -21.0075 26057.6 -03427.4 -07.4932 26282.0
 05 05 2013  12 16  -21.0080 26057.4 -03427.3 -07.4930 26281.8
 05 05 2013  12 17  -21.0086 26057.4 -03427.2 -07.4928 26281.8
 05 05 2013  12 18  -21.0091 26057.1 -03427.0 -07.4925 26281.5
 05 05 2013  12 19  -21.0096 26057.0 -03427.0 -07.4924 26281.4
 05 05 2013  12 20  -21.0098 26056.4 -03426.7 -07.4920 26280.7
 05 05 2013  12 21  -21.0099 26056.0 -03426.6 -07.4919 26280.3
 05 05 2013  12 22  -21.0100 26055.7 -03426.5 -07.4918 26280.0
 05 05 2013  12 23  -21.0106 26055.4 -03426.5 -07.4918 26279.7
 05 05 2013  12 24  -21.0109 26055.0 -03426.4 -07.4918 26279.4
 05 05 2013  12 25  -21.0112 26055.1 -03426.5 -07.4920 26279.5
 05 05 2013  12 26  -21.0118 26055.0 -03426.6 -07.4921 26279.4
 05 05 2013  12 27  -21.0124 26055.3 -03426.7 -07.4923 26279.7
 05 05 2013  12 28  -21.0127 26055.8 -03426.9 -07.4926 26280.2
 05 05 2013  12 29  -21.0131 26056.1 -03426.9 -07.4926 26280.5
 05 05 2013  12 30  -21.0138 26056.5 -03427.0 -07.4926 26280.9
 05 05 2013  12 31  -21.0147 26056.9 -03427.1 -07.4927 26281.3
 05 05 2013  12 32  -21.0154 26057.3 -03427.1 -07.4926 26281.7
 05 05 2013  12 33  -21.0161 26057.9 -03427.1 -07.4925 26282.3
 05 05 2013  12 34  -21.0169 26058.3 -03427.0 -07.4921 26282.7
 05 05 2013  12 35  -21.0177 26058.5 -03426.8 -07.4917 26282.8
 05 05 2013  12 36  -21.0182 26059.0 -03426.7 -07.4914 26283.4
 05 05 2013  12 37  -21.0184 26059.7 -03426.8 -07.4912 26284.1
 05 05 2013  12 38  -21.0184 26060.5 -03426.7 -07.4909 26284.8
 05 05 2013  12 39  -21.0179 26060.9 -03426.6 -07.4904 26285.2
 05 05 2013  12 40  -21.0175 26060.9 -03426.2 -07.4897 26285.2
 05 05 2013  12 41  -21.0173 26061.2 -03426.1 -07.4894 26285.4
 05 05 2013  12 42  -21.0172 26061.5 -03426.1 -07.4893 26285.7
 05 05 2013  12 43  -21.0169 26061.9 -03426.1 -07.4892 26286.1
 05 05 2013  12 44  -21.0164 26062.1 -03426.1 -07.4890 26286.3
 05 05 2013  12 45  -21.0160 26062.0 -03426.0 -07.4888 26286.3
 05 05 2013  12 46  -21.0156 26062.4 -03426.0 -07.4889 26286.6
 05 05 2013  12 47  -21.0153 26063.0 -03426.2 -07.4891 26287.3
 05 05 2013  12 48  -21.0150 26063.5 -03426.3 -07.4891 26287.8
 05 05 2013  12 49  -21.0147 26064.4 -03426.5 -07.4894 26288.7
 05 05 2013  12 50  -21.0146 26065.1 -03426.7 -07.4894 26289.4
 05 05 2013  12 51  -21.0146 26065.6 -03426.7 -07.4893 26289.9
 05 05 2013  12 52  -21.0149 26066.1 -03426.7 -07.4892 26290.3
 05 05 2013  12 53  -21.0151 26066.4 -03426.7 -07.4892 26290.7
 05 05 2013  12 54  -21.0152 26066.5 -03426.7 -07.4892 26290.7
 05 05 2013  12 55  -21.0155 26066.7 -03426.8 -07.4892 26291.0
 05 05 2013  12 56  -21.0160 26067.2 -03427.0 -07.4895 26291.5
 05 05 2013  12 57  -21.0163 26067.5 -03427.1 -07.4897 26291.8
 05 05 2013  12 58  -21.0166 26068.1 -03427.3 -07.4900 26292.5
 05 05 2013  12 59  -21.0171 26068.5 -03427.4 -07.4901 26292.8
 05 05 2013  13 00  -21.0178 26068.9 -03427.5 -07.4902 26293.2
 05 05 2013  13 01  -21.0186 26069.0 -03427.5 -07.4902 26293.4
 05 05 2013  13 02  -21.0194 26069.6 -03427.6 -07.4903 26293.9
 05 05 2013  13 03  -21.0202 26069.9 -03427.7 -07.4902 26294.3
 05 05 2013  13 04  -21.0210 26070.2 -03427.7 -07.4902 26294.6
 05 05 2013  13 05  -21.0219 26070.2 -03427.6 -07.4901 26294.6
 05 05 2013  13 06  -21.0227 26070.3 -03427.6 -07.4900 26294.6
 05 05 2013  13 07  -21.0234 26070.6 -03427.7 -07.4901 26295.0
 05 05 2013  13 08  -21.0241 26070.9 -03427.7 -07.4900 26295.3
 05 05 2013  13 09  -21.0247 26071.1 -03427.6 -07.4899 26295.4
 05 05 2013  13 10  -21.0255 26071.4 -03427.7 -07.4898 26295.8
 05 05 2013  13 11  -21.0263 26071.6 -03427.6 -07.4897 26296.0
 05 05 2013  13 12  -21.0266 26072.1 -03427.7 -07.4896 26296.4
 05 05 2013  13 13  -21.0268 26072.4 -03427.7 -07.4896 26296.8
 05 05 2013  13 14  -21.0275 26073.1 -03427.8 -07.4897 26297.5
 05 05 2013  13 15  -21.0283 26074.4 -03428.1 -07.4900 26298.8
 05 05 2013  13 16  -21.0288 26075.5 -03428.2 -07.4898 26299.8
 05 05 2013  13 17  -21.0291 26076.7 -03428.2 -07.4895 26301.1
 05 05 2013  13 18  -21.0297 26077.1 -03427.8 -07.4886 26301.5
 05 05 2013  13 19  -21.0302 26076.6 -03427.2 -07.4873 26300.8
 05 05 2013  13 20  -21.0311 26076.0 -03426.7 -07.4864 26300.2
 05 05 2013  13 21  -21.0313 26074.9 -03426.0 -07.4853 26299.0
 05 05 2013  13 22  -21.0315 26073.7 -03425.6 -07.4847 26297.8
 05 05 2013  13 23  -21.0322 26072.8 -03425.3 -07.4844 26296.8
 05 05 2013  13 24  -21.0327 26071.3 -03424.9 -07.4839 26295.3
 05 05 2013  13 25  -21.0331 26069.6 -03424.5 -07.4835 26293.6
 05 05 2013  13 26  -21.0337 26069.1 -03424.6 -07.4839 26293.1
 05 05 2013  13 27  -21.0342 26068.5 -03424.7 -07.4841 26292.5
 05 05 2013  13 28  -21.0344 26067.5 -03424.5 -07.4841 26291.5
 05 05 2013  13 29  -21.0351 26066.9 -03424.5 -07.4844 26290.8
 05 05 2013  13 30  -21.0366 26067.4 -03425.1 -07.4853 26291.4
 05 05 2013  13 31  -21.0376 26067.3 -03425.3 -07.4858 26291.4
 05 05 2013  13 32  -21.0381 26066.4 -03425.0 -07.4855 26290.5
 05 05 2013  13 33  -21.0389 26066.6 -03425.3 -07.4860 26290.7
 05 05 2013  13 34  -21.0394 26066.4 -03425.3 -07.4861 26290.5
 05 05 2013  13 35  -21.0396 26066.6 -03425.4 -07.4863 26290.7
 05 05 2013  13 36  -21.0402 26067.1 -03425.6 -07.4867 26291.3
 05 05 2013  13 37  -21.0405 26066.8 -03425.4 -07.4863 26290.9
 05 05 2013  13 38  -21.0407 26067.0 -03425.4 -07.4862 26291.1
 05 05 2013  13 39  -21.0412 26067.8 -03425.7 -07.4866 26291.9
 05 05 2013  13 40  -21.0414 26067.5 -03425.4 -07.4860 26291.6
 05 05 2013  13 41  -21.0422 26067.5 -03425.3 -07.4857 26291.6
 05 05 2013  13 42  -21.0430 26067.2 -03425.0 -07.4852 26291.3
 05 05 2013  13 43  -21.0432 26067.5 -03424.9 -07.4850 26291.5
 05 05 2013  13 44  -21.0435 26068.1 -03424.9 -07.4848 26292.1
 05 05 2013  13 45  -21.0439 26069.3 -03425.0 -07.4847 26293.3
 05 05 2013  13 46  -21.0444 26070.0 -03424.9 -07.4842 26294.0
 05 05 2013  13 47  -21.0447 26070.4 -03424.6 -07.4834 26294.4
 05 05 2013  13 48  -21.0449 26070.5 -03424.2 -07.4826 26294.5
 05 05 2013  13 49  -21.0449 26070.2 -03423.7 -07.4817 26294.0
 05 05 2013  13 50  -21.0445 26069.4 -03423.1 -07.4806 26293.1
 05 05 2013  13 51  -21.0445 26069.1 -03422.9 -07.4801 26292.8
 05 05 2013  13 52  -21.0449 26069.1 -03422.8 -07.4800 26292.8
 05 05 2013  13 53  -21.0451 26069.1 -03422.7 -07.4798 26292.8
 05 05 2013  13 54  -21.0449 26068.9 -03422.5 -07.4795 26292.6
 05 05 2013  13 55  -21.0446 26068.4 -03422.3 -07.4792 26292.0
 05 05 2013  13 56  -21.0445 26068.0 -03422.2 -07.4790 26291.6
 05 05 2013  13 57  -21.0446 26067.9 -03422.3 -07.4792 26291.6
 05 05 2013  13 58  -21.0445 26067.7 -03422.3 -07.4793 26291.3
 05 05 2013  13 59  -21.0444 26067.4 -03422.3 -07.4794 26291.1
 05 05 2013  14 00  -21.0445 26067.1 -03422.3 -07.4795 26290.8
 05 05 2013  14 01  -21.0448 26066.8 -03422.2 -07.4794 26290.5
 05 05 2013  14 02  -21.0448 26066.8 -03422.3 -07.4796 26290.5
 05 05 2013  14 03  -21.0446 26066.5 -03422.4 -07.4798 26290.2
 05 05 2013  14 04  -21.0447 26065.5 -03422.3 -07.4799 26289.2
 05 05 2013  14 05  -21.0449 26064.6 -03422.2 -07.4800 26288.3
 05 05 2013  14 06  -21.0452 26064.0 -03422.3 -07.4804 26287.7
 05 05 2013  14 07  -21.0456 26063.9 -03422.6 -07.4810 26287.7
 05 05 2013  14 08  -21.0458 26063.8 -03422.8 -07.4814 26287.5
 05 05 2013  14 09  -21.0459 26063.5 -03422.9 -07.4819 26287.3
 05 05 2013  14 10  -21.0460 26063.6 -03423.1 -07.4823 26287.4
 05 05 2013  14 11  -21.0464 26063.7 -03423.4 -07.4828 26287.6
 05 05 2013  14 12  -21.0468 26063.8 -03423.5 -07.4831 26287.6
 05 05 2013  14 13  -21.0472 26063.6 -03423.5 -07.4831 26287.5
 05 05 2013  14 14  -21.0474 26063.3 -03423.5 -07.4831 26287.2
 05 05 2013  14 15  -21.0477 26063.2 -03423.5 -07.4832 26287.1
 05 05 2013  14 16  -21.0479 26063.2 -03423.6 -07.4833 26287.1
 05 05 2013  14 17  -21.0480 26063.2 -03423.6 -07.4835 26287.1
 05 05 2013  14 18  -21.0482 26063.3 -03423.8 -07.4837 26287.2
 05 05 2013  14 19  -21.0483 26063.4 -03423.8 -07.4838 26287.3
 05 05 2013  14 20  -21.0483 26063.5 -03423.8 -07.4838 26287.4
 05 05 2013  14 21  -21.0485 26063.9 -03423.9 -07.4839 26287.8
 05 05 2013  14 22  -21.0487 26064.0 -03424.0 -07.4840 26287.9
 05 05 2013  14 23  -21.0488 26063.8 -03423.8 -07.4837 26287.7
 05 05 2013  14 24  -21.0489 26063.8 -03423.7 -07.4835 26287.7
 05 05 2013  14 25  -21.0491 26064.1 -03423.7 -07.4834 26288.0
 05 05 2013  14 26  -21.0491 26064.2 -03423.6 -07.4831 26288.1
 05 05 2013  14 27  -21.0490 26064.1 -03423.4 -07.4827 26288.0
 05 05 2013  14 28  -21.0489 26064.0 -03423.2 -07.4823 26287.9
 05 05 2013  14 29  -21.0486 26064.0 -03423.1 -07.4820 26287.9
 05 05 2013  14 30  -21.0480 26063.9 -03422.9 -07.4817 26287.7
 05 05 2013  14 31  -21.0476 26063.8 -03422.8 -07.4814 26287.6
 05 05 2013  14 32  -21.0474 26063.7 -03422.7 -07.4813 26287.4
 05 05 2013  14 33  -21.0473 26063.4 -03422.6 -07.4811 26287.1
 05 05 2013  14 34  -21.0472 26062.9 -03422.4 -07.4808 26286.7
 05 05 2013  14 35  -21.0473 26062.7 -03422.3 -07.4808 26286.5
 05 05 2013  14 36  -21.0473 26062.7 -03422.4 -07.4809 26286.4
 05 05 2013  14 37  -21.0475 26062.9 -03422.5 -07.4810 26286.7
 05 05 2013  14 38  -21.0480 26063.2 -03422.5 -07.4811 26287.0
 05 05 2013  14 39  -21.0484 26063.4 -03422.5 -07.4810 26287.2
 05 05 2013  14 40  -21.0484 26063.3 -03422.3 -07.4806 26287.0
 05 05 2013  14 41  -21.0485 26063.7 -03422.3 -07.4805 26287.4
 05 05 2013  14 42  -21.0488 26064.1 -03422.3 -07.4804 26287.8
 05 05 2013  14 43  -21.0491 26064.6 -03422.3 -07.4802 26288.3
 05 05 2013  14 44  -21.0492 26064.8 -03422.1 -07.4798 26288.5
 05 05 2013  14 45  -21.0492 26065.0 -03422.0 -07.4793 26288.6
 05 05 2013  14 46  -21.0493 26065.2 -03421.8 -07.4789 26288.8
 05 05 2013  14 47  -21.0491 26065.3 -03421.6 -07.4785 26288.9
 05 05 2013  14 48  -21.0488 26065.3 -03421.4 -07.4780 26288.9
 05 05 2013  14 49  -21.0486 26065.5 -03421.3 -07.4778 26289.0
 05 05 2013  14 50  -21.0486 26065.5 -03421.1 -07.4774 26289.0
 05 05 2013  14 51  -21.0485 26065.5 -03421.0 -07.4770 26289.0
 05 05 2013  14 52  -21.0484 26065.6 -03420.8 -07.4766 26289.1
 05 05 2013  14 53  -21.0480 26065.4 -03420.5 -07.4761 26288.9
 05 05 2013  14 54  -21.0475 26065.3 -03420.3 -07.4756 26288.8
 05 05 2013  14 55  -21.0469 26065.2 -03420.1 -07.4752 26288.6
 05 05 2013  14 56  -21.0461 26065.0 -03419.9 -07.4748 26288.4
 05 05 2013  14 57  -21.0451 26064.7 -03419.7 -07.4746 26288.1
 05 05 2013  14 58  -21.0443 26064.5 -03419.6 -07.4744 26287.9
 05 05 2013  14 59  -21.0435 26064.1 -03419.5 -07.4743 26287.4
 05 05 2013  15 00  -21.0425 26063.6 -03419.4 -07.4742 26286.9
 05 05 2013  15 01  -21.0418 26063.1 -03419.4 -07.4744 26286.5
 05 05 2013  15 02  -21.0411 26062.7 -03419.5 -07.4747 26286.1
 05 05 2013  15 03  -21.0407 26062.4 -03419.6 -07.4750 26285.7
 05 05 2013  15 04  -21.0402 26062.1 -03419.7 -07.4754 26285.5
 05 05 2013  15 05  -21.0399 26061.7 -03419.8 -07.4756 26285.2
 05 05 2013  15 06  -21.0395 26061.4 -03419.9 -07.4759 26284.8
 05 05 2013  15 07  -21.0391 26061.0 -03420.0 -07.4762 26284.4
 05 05 2013  15 08  -21.0388 26060.8 -03420.1 -07.4764 26284.2
 05 05 2013  15 09  -21.0390 26061.0 -03420.3 -07.4769 26284.5
 05 05 2013  15 10  -21.0392 26061.7 -03420.6 -07.4774 26285.2
 05 05 2013  15 11  -21.0391 26062.0 -03420.8 -07.4776 26285.6
 05 05 2013  15 12  -21.0388 26062.5 -03420.9 -07.4777 26286.0
 05 05 2013  15 13  -21.0384 26062.6 -03420.8 -07.4776 26286.1
 05 05 2013  15 14  -21.0378 26062.8 -03420.8 -07.4775 26286.3
 05 05 2013  15 15  -21.0374 26063.1 -03420.9 -07.4776 26286.7
 05 05 2013  15 16  -21.0370 26063.4 -03420.9 -07.4775 26286.9
 05 05 2013  15 17  -21.0363 26063.3 -03420.7 -07.4771 26286.8
 05 05 2013  15 18  -21.0354 26063.1 -03420.5 -07.4768 26286.6
 05 05 2013  15 19  -21.0345 26063.0 -03420.4 -07.4766 26286.5
 05 05 2013  15 20  -21.0334 26062.6 -03420.2 -07.4763 26286.0
 05 05 2013  15 21  -21.0322 26062.3 -03420.2 -07.4762 26285.7
 05 05 2013  15 22  -21.0311 26061.9 -03420.1 -07.4762 26285.4
 05 05 2013  15 23  -21.0305 26061.9 -03420.3 -07.4766 26285.4
 05 05 2013  15 24  -21.0299 26061.9 -03420.4 -07.4768 26285.4
 05 05 2013  15 25  -21.0290 26061.8 -03420.4 -07.4769 26285.3
 05 05 2013  15 26  -21.0279 26061.5 -03420.4 -07.4769 26285.0
 05 05 2013  15 27  -21.0272 26061.4 -03420.5 -07.4772 26285.0
 05 05 2013  15 28  -21.0266 26061.5 -03420.7 -07.4776 26285.0
 05 05 2013  15 29  -21.0264 26061.6 -03420.8 -07.4779 26285.2
 05 05 2013  15 30  -21.0262 26061.7 -03420.9 -07.4780 26285.3
 05 05 2013  15 31  -21.0261 26061.8 -03421.0 -07.4782 26285.4
 05 05 2013  15 32  -21.0258 26061.5 -03420.9 -07.4780 26285.0
 05 05 2013  15 33  -21.0254 26061.1 -03420.8 -07.4779 26284.6
 05 05 2013  15 34  -21.0254 26060.9 -03420.8 -07.4781 26284.5
 05 05 2013  15 35  -21.0256 26060.9 -03420.9 -07.4782 26284.4
 05 05 2013  15 36  -21.0257 26060.8 -03420.9 -07.4783 26284.4
 05 05 2013  15 37  -21.0255 26060.7 -03420.9 -07.4783 26284.3
 05 05 2013  15 38  -21.0252 26060.6 -03420.8 -07.4781 26284.2
 05 05 2013  15 39  -21.0252 26060.6 -03420.8 -07.4780 26284.1
 05 05 2013  15 40  -21.0250 26060.2 -03420.6 -07.4777 26283.7
 05 05 2013  15 41  -21.0247 26059.7 -03420.3 -07.4773 26283.2
 05 05 2013  15 42  -21.0242 26059.2 -03420.1 -07.4770 26282.6
 05 05 2013  15 43  -21.0241 26059.0 -03420.1 -07.4771 26282.4
 05 05 2013  15 44  -21.0242 26059.2 -03420.3 -07.4774 26282.7
 05 05 2013  15 45  -21.0246 26059.5 -03420.5 -07.4777 26283.0
 05 05 2013  15 46  -21.0247 26060.0 -03420.6 -07.4778 26283.6
 05 05 2013  15 47  -21.0244 26060.3 -03420.6 -07.4777 26283.8
 05 05 2013  15 48  -21.0241 26060.5 -03420.6 -07.4776 26284.1
 05 05 2013  15 49  -21.0237 26060.7 -03420.5 -07.4773 26284.3
 05 05 2013  15 50  -21.0234 26061.0 -03420.4 -07.4771 26284.5
 05 05 2013  15 51  -21.0230 26060.9 -03420.2 -07.4766 26284.4
 05 05 2013  15 52  -21.0224 26060.6 -03419.9 -07.4760 26284.0
 05 05 2013  15 53  -21.0216 26060.2 -03419.6 -07.4755 26283.6
 05 05 2013  15 54  -21.0211 26059.9 -03419.4 -07.4752 26283.3
 05 05 2013  15 55  -21.0207 26059.6 -03419.2 -07.4749 26283.0
 05 05 2013  15 56  -21.0202 26059.3 -03419.1 -07.4747 26282.7
 05 05 2013  15 57  -21.0197 26058.8 -03418.9 -07.4745 26282.2
 05 05 2013  15 58  -21.0190 26058.2 -03418.8 -07.4744 26281.5
 05 05 2013  15 59  -21.0181 26057.7 -03418.7 -07.4745 26281.0
 05 05 2013  16 00  -21.0173 26057.4 -03418.8 -07.4747 26280.7
 05 05 2013  16 01  -21.0169 26057.7 -03419.2 -07.4755 26281.0
 05 05 2013  16 02  -21.0170 26058.5 -03419.7 -07.4763 26281.9
 05 05 2013  16 03  -21.0170 26059.3 -03420.1 -07.4770 26282.8
 05 05 2013  16 04  -21.0166 26059.9 -03420.4 -07.4774 26283.4
 05 05 2013  16 05  -21.0162 26060.5 -03420.7 -07.4778 26284.0
 05 05 2013  16 06  -21.0161 26061.1 -03420.9 -07.4782 26284.7
 05 05 2013  16 07  -21.0159 26061.3 -03421.0 -07.4783 26284.9
 05 05 2013  16 08  -21.0155 26061.2 -03421.0 -07.4782 26284.8
 05 05 2013  16 09  -21.0148 26060.3 -03420.7 -07.4779 26283.9
 05 05 2013  16 10  -21.0125 26059.9 -03420.6 -07.4779 26283.4
 05 05 2013  16 11  -21.0117 26060.3 -03421.2 -07.4789 26283.9
 05 05 2013  16 12  -21.0130 26063.2 -03422.5 -07.4811 26286.9
 05 05 2013  16 13  -21.0143 26067.1 -03424.1 -07.4833 26291.1
 05 05 2013  16 14  -21.0137 26070.8 -03425.2 -07.4847 26294.8
 05 05 2013  16 15  -21.0138 26074.9 -03426.6 -07.4866 26299.1
 05 05 2013  16 16  -21.0147 26079.6 -03428.0 -07.4882 26303.9
 05 05 2013  16 17  -21.0154 26082.7 -03428.5 -07.4884 26307.1
 05 05 2013  16 18  -21.0140 26083.8 -03428.0 -07.4871 26308.1
 05 05 2013  16 19  -21.0115 26081.7 -03426.5 -07.4843 26305.8
 05 05 2013  16 20  -21.0079 26077.7 -03424.5 -07.4813 26301.6
 05 05 2013  16 21  -21.0046 26073.9 -03423.3 -07.4796 26297.7
 05 05 2013  16 22  -21.0022 26071.3 -03422.8 -07.4793 26295.0
 05 05 2013  16 23  -21.0006 26069.5 -03422.9 -07.4800 26293.2
 05 05 2013  16 24  -21.0004 26069.3 -03423.7 -07.4818 26293.2
 05 05 2013  16 25  -21.0017 26069.2 -03424.4 -07.4834 26293.1
 05 05 2013  16 26  -21.0028 26069.3 -03425.1 -07.4848 26293.4
 05 05 2013  16 27  -21.0023 26069.1 -03425.5 -07.4859 26293.2
 05 05 2013  16 28  -21.0002 26067.4 -03425.6 -07.4864 26291.5
 05 05 2013  16 29  -20.9981 26067.0 -03426.1 -07.4877 26291.2
 05 05 2013  16 30  -20.9968 26064.7 -03426.0 -07.4880 26288.9
 05 05 2013  16 31  -20.9957 26063.5 -03426.3 -07.4892 26287.7
 05 05 2013  16 32  -20.9961 26062.8 -03427.1 -07.4911 26287.2
 05 05 2013  16 33  -20.9970 26062.4 -03427.8 -07.4926 26286.8
 05 05 2013  16 34  -20.9987 26062.7 -03428.6 -07.4944 26287.2
 05 05 2013  16 35  -20.9999 26062.6 -03429.1 -07.4955 26287.2
 05 05 2013  16 36  -20.9999 26061.7 -03429.2 -07.4958 26286.3
 05 05 2013  16 37  -20.9990 26060.0 -03429.0 -07.4959 26284.7
 05 05 2013  16 38  -20.9984 26058.7 -03429.2 -07.4966 26283.4
 05 05 2013  16 39  -20.9984 26058.0 -03429.7 -07.4981 26282.7
 05 05 2013  16 40  -20.9986 26057.4 -03430.3 -07.4994 26282.2
 05 05 2013  16 41  -20.9987 26057.2 -03430.9 -07.5009 26282.1
 05 05 2013  16 42  -20.9990 26057.4 -03431.7 -07.5025 26282.4
 05 05 2013  16 43  -20.9995 26057.6 -03432.4 -07.5039 26282.7
 05 05 2013  16 44  -20.9998 26057.9 -03432.9 -07.5051 26283.1
 05 05 2013  16 45  -20.9998 26058.1 -03433.4 -07.5061 26283.3
 05 05 2013  16 46  -20.9997 26058.5 -03434.0 -07.5072 26283.8
 05 05 2013  16 47  -20.9994 26058.8 -03434.4 -07.5081 26284.1
 05 05 2013  16 48  -20.9996 26059.0 -03434.9 -07.5090 26284.4
 05 05 2013  16 49  -20.9997 26058.6 -03434.9 -07.5091 26284.0
 05 05 2013  16 50  -20.9999 26058.3 -03435.1 -07.5096 26283.7
 05 05 2013  16 51  -21.0005 26058.2 -03435.3 -07.5102 26283.7
 05 05 2013  16 52  -21.0007 26058.0 -03435.5 -07.5105 26283.4
 05 05 2013  16 53  -21.0008 26057.5 -03435.4 -07.5106 26283.0
 05 05 2013  16 54  -21.0011 26056.7 -03435.3 -07.5105 26282.2
 05 05 2013  16 55  -21.0012 26056.1 -03435.3 -07.5107 26281.6
 05 05 2013  16 56  -21.0013 26055.8 -03435.6 -07.5114 26281.3
 05 05 2013  16 57  -21.0021 26055.9 -03436.0 -07.5123 26281.5
 05 05 2013  16 58  -21.0030 26056.2 -03436.4 -07.5131 26281.8
 05 05 2013  16 59  -21.0033 26056.1 -03436.6 -07.5135 26281.8
 05 05 2013  17 00  -21.0037 26056.2 -03436.8 -07.5140 26281.9
 05 05 2013  17 01  -21.0042 26056.4 -03437.1 -07.5145 26282.1
 05 05 2013  17 02  -21.0046 26056.6 -03437.3 -07.5149 26282.3
 05 05 2013  17 03  -21.0052 26057.0 -03437.6 -07.5154 26282.7
 05 05 2013  17 04  -21.0060 26057.1 -03437.7 -07.5157 26282.9
 05 05 2013  17 05  -21.0068 26056.8 -03437.6 -07.5155 26282.6
 05 05 2013  17 06  -21.0074 26055.9 -03437.3 -07.5150 26281.7
 05 05 2013  17 07  -21.0071 26054.9 -03436.8 -07.5143 26280.5
 05 05 2013  17 08  -21.0072 26054.1 -03436.6 -07.5141 26279.8
 05 05 2013  17 09  -21.0073 26053.6 -03436.5 -07.5141 26279.3
 05 05 2013  17 10  -21.0073 26053.4 -03436.6 -07.5142 26279.1
 05 05 2013  17 11  -21.0079 26053.5 -03436.8 -07.5146 26279.2
 05 05 2013  17 12  -21.0082 26053.6 -03436.9 -07.5149 26279.3
 05 05 2013  17 13  -21.0085 26054.0 -03437.1 -07.5152 26279.7
 05 05 2013  17 14  -21.0093 26054.4 -03437.3 -07.5154 26280.1
 05 05 2013  17 15  -21.0101 26054.6 -03437.2 -07.5153 26280.4
 05 05 2013  17 16  -21.0106 26054.5 -03436.9 -07.5146 26280.2
 05 05 2013  17 17  -21.0103 26053.8 -03436.4 -07.5137 26279.4
 05 05 2013  17 18  -21.0099 26053.0 -03435.9 -07.5129 26278.6
 05 05 2013  17 19  -21.0093 26052.3 -03435.6 -07.5124 26277.9
 05 05 2013  17 20  -21.0087 26051.9 -03435.5 -07.5123 26277.4
 05 05 2013  17 21  -21.0085 26051.8 -03435.6 -07.5125 26277.3
 05 05 2013  17 22  -21.0079 26051.8 -03435.6 -07.5127 26277.3
 05 05 2013  17 23  -21.0081 26051.7 -03435.6 -07.5127 26277.3
 05 05 2013  17 24  -21.0081 26051.1 -03435.3 -07.5121 26276.6
 05 05 2013  17 25  -21.0086 26050.6 -03435.1 -07.5119 26276.1
 05 05 2013  17 26  -21.0086 26049.8 -03434.8 -07.5114 26275.3
 05 05 2013  17 27  -21.0083 26048.9 -03434.4 -07.5109 26274.3
 05 05 2013  17 28  -21.0077 26048.3 -03434.3 -07.5107 26273.7
 05 05 2013  17 29  -21.0074 26048.2 -03434.5 -07.5112 26273.6
 05 05 2013  17 30  -21.0065 26049.1 -03435.1 -07.5123 26274.6
 05 05 2013  17 31  -21.0068 26051.1 -03436.2 -07.5141 26276.7
 05 05 2013  17 32  -21.0080 26053.6 -03437.3 -07.5158 26279.3
 05 05 2013  17 33  -21.0089 26055.8 -03438.0 -07.5167 26281.6
 05 05 2013  17 34  -21.0091 26057.6 -03438.5 -07.5171 26283.5
 05 05 2013  17 35  -21.0101 26058.9 -03438.6 -07.5170 26284.7
 05 05 2013  17 36  -21.0113 26059.2 -03438.3 -07.5163 26285.1
 05 05 2013  17 37  -21.0120 26058.6 -03437.6 -07.5150 26284.3
 05 05 2013  17 38  -21.0119 26057.0 -03436.6 -07.5133 26282.7
 05 05 2013  17 39  -21.0119 26055.1 -03435.7 -07.5118 26280.7
 05 05 2013  17 40  -21.0118 26053.1 -03434.9 -07.5106 26278.6
 05 05 2013  17 41  -21.0110 26051.0 -03434.2 -07.5097 26276.4
 05 05 2013  17 42  -21.0105 26049.7 -03433.9 -07.5096 26275.0
 05 05 2013  17 43  -21.0106 26048.6 -03433.9 -07.5098 26274.0
 05 05 2013  17 44  -21.0107 26048.3 -03434.2 -07.5105 26273.7
 05 05 2013  17 45  -21.0104 26048.3 -03434.5 -07.5112 26273.7
 05 05 2013  17 46  -21.0113 26048.5 -03435.0 -07.5122 26274.0
 05 05 2013  17 47  -21.0119 26047.9 -03434.9 -07.5121 26273.4
 05 05 2013  17 48  -21.0129 26047.7 -03434.8 -07.5120 26273.2
 05 05 2013  17 49  -21.0131 26047.0 -03434.5 -07.5115 26272.5
 05 05 2013  17 50  -21.0133 26046.6 -03434.4 -07.5114 26272.0
 05 05 2013  17 51  -21.0136 26046.1 -03434.2 -07.5112 26271.6
 05 05 2013  17 52  -21.0136 26045.8 -03434.2 -07.5113 26271.2
 05 05 2013  17 53  -21.0137 26045.6 -03434.3 -07.5115 26271.0
 05 05 2013  17 54  -21.0136 26045.6 -03434.4 -07.5117 26271.1
 05 05 2013  17 55  -21.0131 26045.2 -03434.3 -07.5116 26270.7
 05 05 2013  17 56  -21.0124 26044.9 -03434.0 -07.5110 26270.3
 05 05 2013  17 57  -21.0133 26045.4 -03434.0 -07.5109 26270.8
 05 05 2013  17 58  -21.0143 26046.1 -03434.3 -07.5113 26271.5
 05 05 2013  17 59  -21.0150 26046.6 -03434.6 -07.5119 26272.1
 05 05 2013  18 00  -21.0156 26047.1 -03434.9 -07.5124 26272.6
 05 05 2013  18 01  -21.0159 26047.3 -03435.1 -07.5128 26272.9
 05 05 2013  18 02  -21.0162 26047.3 -03435.2 -07.5129 26272.9
 05 05 2013  18 03  -21.0161 26046.8 -03435.0 -07.5127 26272.4
 05 05 2013  18 04  -21.0160 26046.0 -03434.8 -07.5124 26271.5
 05 05 2013  18 05  -21.0157 26045.5 -03434.6 -07.5122 26271.0
 05 05 2013  18 06  -21.0156 26044.9 -03434.6 -07.5124 26270.4
 05 05 2013  18 07  -21.0155 26044.7 -03434.7 -07.5126 26270.2
 05 05 2013  18 08  -21.0158 26044.6 -03434.8 -07.5130 26270.1
 05 05 2013  18 09  -21.0160 26044.5 -03435.0 -07.5133 26270.0
 05 05 2013  18 10  -21.0161 26044.5 -03435.1 -07.5135 26270.1
 05 05 2013  18 11  -21.0163 26044.5 -03435.2 -07.5137 26270.1
 05 05 2013  18 12  -21.0165 26044.6 -03435.3 -07.5139 26270.2
 05 05 2013  18 13  -21.0164 26044.6 -03435.3 -07.5140 26270.2
 05 05 2013  18 14  -21.0164 26044.5 -03435.3 -07.5141 26270.1
 05 05 2013  18 15  -21.0164 26044.4 -03435.4 -07.5141 26270.0
 05 05 2013  18 16  -21.0165 26044.4 -03435.4 -07.5143 26270.0
 05 05 2013  18 17  -21.0165 26044.2 -03435.4 -07.5143 26269.8
 05 05 2013  18 18  -21.0166 26044.2 -03435.5 -07.5144 26269.8
 05 05 2013  18 19  -21.0166 26044.0 -03435.4 -07.5144 26269.6
 05 05 2013  18 20  -21.0166 26043.8 -03435.4 -07.5144 26269.4
 05 05 2013  18 21  -21.0167 26043.7 -03435.4 -07.5145 26269.3
 05 05 2013  18 22  -21.0169 26043.8 -03435.5 -07.5147 26269.5
 05 05 2013  18 23  -21.0171 26043.9 -03435.6 -07.5148 26269.5
 05 05 2013  18 24  -21.0174 26044.0 -03435.6 -07.5148 26269.6
 05 05 2013  18 25  -21.0177 26044.2 -03435.7 -07.5149 26269.8
 05 05 2013  18 26  -21.0180 26044.3 -03435.7 -07.5149 26269.9
 05 05 2013  18 27  -21.0182 26044.4 -03435.7 -07.5148 26270.0
 05 05 2013  18 28  -21.0184 26044.4 -03435.6 -07.5147 26270.0
 05 05 2013  18 29  -21.0185 26044.3 -03435.5 -07.5145 26269.9
 05 05 2013  18 30  -21.0187 26044.3 -03435.5 -07.5145 26269.9
 05 05 2013  18 31  -21.0189 26044.3 -03435.5 -07.5145 26270.0
 05 05 2013  18 32  -21.0192 26044.5 -03435.6 -07.5145 26270.1
 05 05 2013  18 33  -21.0193 26044.5 -03435.5 -07.5145 26270.1
 05 05 2013  18 34  -21.0197 26044.6 -03435.5 -07.5144 26270.2
 05 05 2013  18 35  -21.0200 26044.9 -03435.6 -07.5146 26270.5
 05 05 2013  18 36  -21.0207 26045.9 -03436.0 -07.5151 26271.6
 05 05 2013  18 37  -21.0216 26047.1 -03436.5 -07.5158 26272.8
 05 05 2013  18 38  -21.0223 26047.9 -03436.7 -07.5160 26273.6
 05 05 2013  18 39  -21.0229 26048.9 -03436.9 -07.5162 26274.7
 05 05 2013  18 40  -21.0231 26049.8 -03437.1 -07.5163 26275.6
 05 05 2013  18 41  -21.0232 26050.4 -03437.1 -07.5162 26276.1
 05 05 2013  18 42  -21.0235 26051.1 -03437.2 -07.5162 26276.8
 05 05 2013  18 43  -21.0236 26051.9 -03437.4 -07.5164 26277.7
 05 05 2013  18 44  -21.0239 26052.4 -03437.4 -07.5163 26278.2
 05 05 2013  18 45  -21.0244 26052.5 -03437.3 -07.5160 26278.2
 05 05 2013  18 46  -21.0248 26052.5 -03437.1 -07.5155 26278.2
 05 05 2013  18 47  -21.0252 26052.3 -03436.8 -07.5150 26278.0
 05 05 2013  18 48  -21.0253 26051.8 -03436.4 -07.5144 26277.5
 05 05 2013  18 49  -21.0252 26051.4 -03436.2 -07.5139 26277.1
 05 05 2013  18 50  -21.0248 26050.6 -03435.8 -07.5133 26276.2
 05 05 2013  18 51  -21.0246 26049.1 -03435.1 -07.5122 26274.6
 05 05 2013  18 52  -21.0251 26048.1 -03434.6 -07.5115 26273.6
 05 05 2013  18 53  -21.0254 26047.6 -03434.4 -07.5111 26273.0
 05 05 2013  18 54  -21.0254 26046.5 -03434.0 -07.5106 26271.9
 05 05 2013  18 55  -21.0253 26045.5 -03433.5 -07.5099 26270.8
 05 05 2013  18 56  -21.0249 26044.4 -03433.1 -07.5092 26269.7
 05 05 2013  18 57  -21.0246 26043.5 -03432.8 -07.5088 26268.8
 05 05 2013  18 58  -21.0246 26043.2 -03432.8 -07.5089 26268.5
 05 05 2013  18 59  -21.0249 26043.3 -03432.9 -07.5091 26268.6
 05 05 2013  19 00  -21.0252 26043.4 -03433.0 -07.5093 26268.7
 05 05 2013  19 01  -21.0256 26043.7 -03433.2 -07.5096 26269.0
 05 05 2013  19 02  -21.0258 26044.0 -03433.3 -07.5098 26269.4
 05 05 2013  19 03  -21.0259 26044.5 -03433.5 -07.5100 26269.8
 05 05 2013  19 04  -21.0261 26044.9 -03433.5 -07.5101 26270.2
 05 05 2013  19 05  -21.0263 26045.2 -03433.6 -07.5101 26270.5
 05 05 2013  19 06  -21.0264 26045.3 -03433.6 -07.5100 26270.6
 05 05 2013  19 07  -21.0262 26045.2 -03433.5 -07.5098 26270.6
 05 05 2013  19 08  -21.0260 26045.1 -03433.4 -07.5097 26270.4
 05 05 2013  19 09  -21.0255 26044.9 -03433.3 -07.5095 26270.2
 05 05 2013  19 10  -21.0252 26044.7 -03433.2 -07.5094 26270.0
 05 05 2013  19 11  -21.0247 26044.3 -03433.1 -07.5093 26269.6
 05 05 2013  19 12  -21.0242 26043.8 -03433.0 -07.5092 26269.1
 05 05 2013  19 13  -21.0238 26043.2 -03432.8 -07.5090 26268.5
 05 05 2013  19 14  -21.0234 26042.9 -03432.8 -07.5090 26268.1
 05 05 2013  19 15  -21.0230 26042.6 -03432.8 -07.5091 26267.8
 05 05 2013  19 16  -21.0227 26042.2 -03432.8 -07.5093 26267.5
 05 05 2013  19 17  -21.0224 26042.0 -03433.0 -07.5096 26267.3
 05 05 2013  19 18  -21.0222 26042.0 -03433.1 -07.5100 26267.3
 05 05 2013  19 19  -21.0223 26042.0 -03433.3 -07.5104 26267.4
 05 05 2013  19 20  -21.0223 26042.2 -03433.5 -07.5108 26267.6
 05 05 2013  19 21  -21.0223 26042.6 -03433.8 -07.5114 26268.1
 05 05 2013  19 22  -21.0225 26043.1 -03434.1 -07.5118 26268.5
 05 05 2013  19 23  -21.0228 26043.4 -03434.3 -07.5122 26268.8
 05 05 2013  19 24  -21.0231 26043.5 -03434.4 -07.5123 26269.0
 05 05 2013  19 25  -21.0232 26043.5 -03434.4 -07.5124 26269.0
 05 05 2013  19 26  -21.0234 26043.4 -03434.4 -07.5124 26268.9
 05 05 2013  19 27  -21.0233 26043.1 -03434.3 -07.5123 26268.5
 05 05 2013  19 28  -21.0235 26042.6 -03434.2 -07.5122 26268.1
 05 05 2013  19 29  -21.0234 26042.1 -03434.0 -07.5120 26267.6
 05 05 2013  19 30  -21.0233 26041.8 -03434.0 -07.5119 26267.2
 05 05 2013  19 31  -21.0235 26041.6 -03434.0 -07.5120 26267.0
 05 05 2013  19 32  -21.0236 26041.4 -03434.0 -07.5121 26266.9
 05 05 2013  19 33  -21.0238 26041.3 -03434.1 -07.5123 26266.7
 05 05 2013  19 34  -21.0240 26041.3 -03434.2 -07.5125 26266.7
 05 05 2013  19 35  -21.0241 26041.4 -03434.3 -07.5128 26266.9
 05 05 2013  19 36  -21.0243 26041.7 -03434.5 -07.5132 26267.2
 05 05 2013  19 37  -21.0245 26042.0 -03434.7 -07.5135 26267.5
 05 05 2013  19 38  -21.0250 26042.2 -03434.9 -07.5137 26267.8
 05 05 2013  19 39  -21.0253 26042.2 -03434.9 -07.5138 26267.7
 05 05 2013  19 40  -21.0257 26042.1 -03434.9 -07.5138 26267.7
 05 05 2013  19 41  -21.0261 26042.0 -03434.8 -07.5137 26267.5
 05 05 2013  19 42  -21.0264 26041.7 -03434.8 -07.5136 26267.3
 05 05 2013  19 43  -21.0266 26041.7 -03434.7 -07.5136 26267.2
 05 05 2013  19 44  -21.0270 26041.7 -03434.8 -07.5137 26267.3
 05 05 2013  19 45  -21.0273 26041.7 -03434.9 -07.5139 26267.3
 05 05 2013  19 46  -21.0277 26041.7 -03434.9 -07.5139 26267.2
 05 05 2013  19 47  -21.0280 26041.7 -03434.9 -07.5139 26267.3
 05 05 2013  19 48  -21.0283 26041.7 -03435.0 -07.5140 26267.3
 05 05 2013  19 49  -21.0287 26041.9 -03435.0 -07.5142 26267.4
 05 05 2013  19 50  -21.0291 26042.0 -03435.1 -07.5144 26267.6
 05 05 2013  19 51  -21.0295 26042.1 -03435.2 -07.5145 26267.7
 05 05 2013  19 52  -21.0299 26042.0 -03435.2 -07.5144 26267.6
 05 05 2013  19 53  -21.0304 26042.1 -03435.2 -07.5145 26267.7
 05 05 2013  19 54  -21.0308 26042.1 -03435.2 -07.5145 26267.7
 05 05 2013  19 55  -21.0312 26042.0 -03435.2 -07.5145 26267.6
 05 05 2013  19 56  -21.0316 26042.0 -03435.2 -07.5144 26267.6
 05 05 2013  19 57  -21.0318 26042.0 -03435.2 -07.5145 26267.6
 05 05 2013  19 58  -21.0320 26042.0 -03435.2 -07.5146 26267.6
 05 05 2013  19 59  -21.0323 26042.0 -03435.2 -07.5146 26267.6
 05 05 2013  20 00  -21.0326 26042.0 -03435.3 -07.5146 26267.6
 05 05 2013  20 01  -21.0322 26041.7 -03435.1 -07.5145 26267.3
 05 05 2013  20 02  -21.0316 26041.3 -03434.9 -07.5141 26266.9
 05 05 2013  20 03  -21.0321 26041.4 -03435.0 -07.5142 26266.9
 05 05 2013  20 04  -21.0329 26041.5 -03435.1 -07.5144 26267.1
 05 05 2013  20 05  -21.0337 26041.7 -03435.2 -07.5147 26267.3
 05 05 2013  20 06  -21.0344 26041.8 -03435.3 -07.5148 26267.4
 05 05 2013  20 07  -21.0349 26041.8 -03435.3 -07.5147 26267.4
 05 05 2013  20 08  -21.0353 26041.8 -03435.3 -07.5147 26267.4
 05 05 2013  20 09  -21.0357 26041.8 -03435.3 -07.5147 26267.4
 05 05 2013  20 10  -21.0360 26041.7 -03435.2 -07.5146 26267.3
 05 05 2013  20 11  -21.0362 26041.7 -03435.2 -07.5146 26267.3
 05 05 2013  20 12  -21.0365 26041.7 -03435.2 -07.5146 26267.3
 05 05 2013  20 13  -21.0367 26041.7 -03435.2 -07.5147 26267.3
 05 05 2013  20 14  -21.0371 26041.6 -03435.2 -07.5146 26267.2
 05 05 2013  20 15  -21.0373 26041.5 -03435.2 -07.5146 26267.1
 05 05 2013  20 16  -21.0377 26041.5 -03435.2 -07.5146 26267.1
 05 05 2013  20 17  -21.0379 26041.4 -03435.1 -07.5145 26267.0
 05 05 2013  20 18  -21.0382 26041.4 -03435.1 -07.5145 26267.0
 05 05 2013  20 19  -21.0386 26041.4 -03435.1 -07.5145 26267.0
 05 05 2013  20 20  -21.0389 26041.4 -03435.1 -07.5145 26267.0
 05 05 2013  20 21  -21.0391 26041.3 -03435.1 -07.5145 26266.9
 05 05 2013  20 22  -21.0394 26041.2 -03435.1 -07.5144 26266.8
 05 05 2013  20 23  -21.0397 26041.2 -03435.0 -07.5144 26266.7
 05 05 2013  20 24  -21.0400 26041.1 -03435.0 -07.5143 26266.7
 05 05 2013  20 25  -21.0403 26040.9 -03434.9 -07.5142 26266.5
 05 05 2013  20 26  -21.0406 26040.6 -03434.8 -07.5139 26266.1
 05 05 2013  20 27  -21.0409 26040.3 -03434.6 -07.5138 26265.8
 05 05 2013  20 28  -21.0411 26040.1 -03434.6 -07.5138 26265.7
 05 05 2013  20 29  -21.0414 26040.1 -03434.6 -07.5138 26265.6
 05 05 2013  20 30  -21.0416 26040.0 -03434.6 -07.5138 26265.5
 05 05 2013  20 31  -21.0418 26040.0 -03434.6 -07.5138 26265.5
 05 05 2013  20 32  -21.0420 26040.0 -03434.6 -07.5138 26265.5
 05 05 2013  20 33  -21.0422 26040.0 -03434.6 -07.5138 26265.5
 05 05 2013  20 34  -21.0424 26039.9 -03434.6 -07.5138 26265.5
 05 05 2013  20 35  -21.0427 26039.9 -03434.6 -07.5137 26265.4
 05 05 2013  20 36  -21.0429 26039.8 -03434.5 -07.5137 26265.3
 05 05 2013  20 37  -21.0431 26039.9 -03434.5 -07.5136 26265.4
 05 05 2013  20 38  -21.0433 26039.8 -03434.5 -07.5137 26265.3
 05 05 2013  20 39  -21.0434 26039.8 -03434.5 -07.5136 26265.3
 05 05 2013  20 40  -21.0436 26039.8 -03434.5 -07.5136 26265.3
 05 05 2013  20 41  -21.0437 26039.8 -03434.5 -07.5136 26265.3
 05 05 2013  20 42  -21.0439 26039.9 -03434.5 -07.5136 26265.4
 05 05 2013  20 43  -21.0440 26039.9 -03434.5 -07.5136 26265.5
 05 05 2013  20 44  -21.0442 26040.0 -03434.5 -07.5136 26265.5
 05 05 2013  20 45  -21.0445 26040.1 -03434.5 -07.5136 26265.6
 05 05 2013  20 46  -21.0446 26040.1 -03434.6 -07.5136 26265.6
 05 05 2013  20 47  -21.0447 26040.1 -03434.5 -07.5136 26265.6
 05 05 2013  20 48  -21.0449 26040.1 -03434.5 -07.5134 26265.6
 05 05 2013  20 49  -21.0450 26040.1 -03434.4 -07.5133 26265.6
 05 05 2013  20 50  -21.0452 26040.0 -03434.4 -07.5133 26265.5
 05 05 2013  20 51  -21.0453 26040.0 -03434.3 -07.5132 26265.5
 05 05 2013  20 52  -21.0455 26040.0 -03434.3 -07.5131 26265.5
 05 05 2013  20 53  -21.0456 26040.1 -03434.3 -07.5131 26265.6
 05 05 2013  20 54  -21.0456 26040.1 -03434.3 -07.5130 26265.5
 05 05 2013  20 55  -21.0456 26040.0 -03434.2 -07.5130 26265.5
 05 05 2013  20 56  -21.0455 26040.0 -03434.2 -07.5129 26265.5
 05 05 2013  20 57  -21.0453 26040.1 -03434.2 -07.5129 26265.6
 05 05 2013  20 58  -21.0451 26040.2 -03434.3 -07.5130 26265.7
 05 05 2013  20 59  -21.0449 26040.4 -03434.3 -07.5130 26265.9
 05 05 2013  21 00  -21.0448 26040.5 -03434.4 -07.5131 26266.0
 05 05 2013  21 01  -21.0448 26040.7 -03434.4 -07.5132 26266.2
 05 05 2013  21 02  -21.0448 26040.9 -03434.5 -07.5133 26266.5
 05 05 2013  21 03  -21.0448 26041.1 -03434.6 -07.5133 26266.6
 05 05 2013  21 04  -21.0448 26041.1 -03434.5 -07.5133 26266.6
 05 05 2013  21 05  -21.0448 26041.0 -03434.5 -07.5132 26266.5
 05 05 2013  21 06  -21.0448 26041.0 -03434.4 -07.5131 26266.5
 05 05 2013  21 07  -21.0448 26041.1 -03434.4 -07.5131 26266.6
 05 05 2013  21 08  -21.0447 26041.1 -03434.4 -07.5131 26266.6
 05 05 2013  21 09  -21.0446 26040.9 -03434.3 -07.5129 26266.4
 05 05 2013  21 10  -21.0444 26040.7 -03434.2 -07.5128 26266.2
 05 05 2013  21 11  -21.0443 26040.5 -03434.2 -07.5126 26266.0
 05 05 2013  21 12  -21.0442 26040.5 -03434.1 -07.5126 26265.9
 05 05 2013  21 13  -21.0440 26040.4 -03434.1 -07.5126 26265.9
 05 05 2013  21 14  -21.0438 26040.4 -03434.1 -07.5127 26265.9
 05 05 2013  21 15  -21.0436 26040.4 -03434.1 -07.5127 26265.8
 05 05 2013  21 16  -21.0436 26040.3 -03434.2 -07.5127 26265.8
 05 05 2013  21 17  -21.0436 26040.2 -03434.2 -07.5128 26265.7
 05 05 2013  21 18  -21.0436 26040.2 -03434.2 -07.5128 26265.7
 05 05 2013  21 19  -21.0436 26040.2 -03434.3 -07.5130 26265.7
 05 05 2013  21 20  -21.0436 26040.2 -03434.3 -07.5130 26265.7
 05 05 2013  21 21  -21.0438 26040.3 -03434.4 -07.5132 26265.8
 05 05 2013  21 22  -21.0437 26040.4 -03434.4 -07.5133 26265.9
 05 05 2013  21 23  -21.0438 26040.4 -03434.5 -07.5134 26265.9
 05 05 2013  21 24  -21.0439 26040.4 -03434.5 -07.5135 26265.9
 05 05 2013  21 25  -21.0439 26040.5 -03434.6 -07.5135 26266.0
 05 05 2013  21 26  -21.0440 26040.5 -03434.6 -07.5136 26266.0
 05 05 2013  21 27  -21.0439 26040.6 -03434.6 -07.5137 26266.1
 05 05 2013  21 28  -21.0439 26040.6 -03434.7 -07.5138 26266.2
 05 05 2013  21 29  -21.0440 26040.7 -03434.8 -07.5139 26266.2
 05 05 2013  21 30  -21.0441 26040.8 -03434.8 -07.5140 26266.3
 05 05 2013  21 31  -21.0442 26040.8 -03434.8 -07.5141 26266.4
 05 05 2013  21 32  -21.0443 26041.1 -03435.0 -07.5142 26266.6
 05 05 2013  21 33  -21.0445 26041.5 -03435.2 -07.5146 26267.1
 05 05 2013  21 34  -21.0445 26041.8 -03435.3 -07.5149 26267.4
 05 05 2013  21 35  -21.0447 26041.9 -03435.4 -07.5150 26267.6
 05 05 2013  21 36  -21.0448 26042.1 -03435.5 -07.5151 26267.8
 05 05 2013  21 37  -21.0451 26042.4 -03435.6 -07.5153 26268.1
 05 05 2013  21 38  -21.0453 26042.8 -03435.8 -07.5155 26268.4
 05 05 2013  21 39  -21.0454 26043.0 -03435.8 -07.5156 26268.6
 05 05 2013  21 40  -21.0456 26043.0 -03435.8 -07.5155 26268.7
 05 05 2013  21 41  -21.0458 26042.8 -03435.7 -07.5154 26268.5
 05 05 2013  21 42  -21.0462 26042.5 -03435.5 -07.5150 26268.2
 05 05 2013  21 43  -21.0465 26042.6 -03435.5 -07.5149 26268.2
 05 05 2013  21 44  -21.0465 26042.7 -03435.5 -07.5150 26268.4
 05 05 2013  21 45  -21.0465 26042.7 -03435.5 -07.5150 26268.3
 05 05 2013  21 46  -21.0467 26042.6 -03435.4 -07.5149 26268.2
 05 05 2013  21 47  -21.0469 26042.6 -03435.4 -07.5148 26268.2
 05 05 2013  21 48  -21.0470 26042.7 -03435.5 -07.5149 26268.4
 05 05 2013  21 49  -21.0471 26042.7 -03435.5 -07.5149 26268.4
 05 05 2013  21 50  -21.0474 26042.7 -03435.5 -07.5149 26268.3
 05 05 2013  21 51  -21.0476 26042.4 -03435.4 -07.5147 26268.0
 05 05 2013  21 52  -21.0480 26042.1 -03435.2 -07.5145 26267.7
 05 05 2013  21 53  -21.0483 26042.0 -03435.1 -07.5143 26267.6
 05 05 2013  21 54  -21.0483 26042.1 -03435.2 -07.5144 26267.7
 05 05 2013  21 55  -21.0483 26042.2 -03435.3 -07.5146 26267.8
 05 05 2013  21 56  -21.0486 26042.3 -03435.3 -07.5147 26267.9
 05 05 2013  21 57  -21.0488 26042.2 -03435.3 -07.5147 26267.8
 05 05 2013  21 58  -21.0491 26042.1 -03435.3 -07.5146 26267.7
 05 05 2013  21 59  -21.0494 26042.1 -03435.3 -07.5146 26267.7
 05 05 2013  22 00  -21.0497 26042.1 -03435.3 -07.5146 26267.7
 05 05 2013  22 01  -21.0500 26042.0 -03435.3 -07.5146 26267.6
 05 05 2013  22 02  -21.0503 26042.0 -03435.3 -07.5146 26267.6
 05 05 2013  22 03  -21.0504 26042.2 -03435.4 -07.5148 26267.8
 05 05 2013  22 04  -21.0504 26042.3 -03435.4 -07.5148 26267.9
 05 05 2013  22 05  -21.0506 26042.3 -03435.4 -07.5148 26267.9
 05 05 2013  22 06  -21.0508 26042.3 -03435.4 -07.5148 26267.9
 05 05 2013  22 07  -21.0510 26042.3 -03435.4 -07.5148 26267.9
 05 05 2013  22 08  -21.0511 26042.3 -03435.4 -07.5148 26267.9
 05 05 2013  22 09  -21.0511 26042.2 -03435.3 -07.5147 26267.8
 05 05 2013  22 10  -21.0511 26042.1 -03435.3 -07.5147 26267.7
 05 05 2013  22 11  -21.0511 26042.2 -03435.3 -07.5147 26267.8
 05 05 2013  22 12  -21.0511 26042.2 -03435.4 -07.5148 26267.9
 05 05 2013  22 13  -21.0511 26042.3 -03435.4 -07.5149 26267.9
 05 05 2013  22 14  -21.0511 26042.2 -03435.4 -07.5149 26267.8
 05 05 2013  22 15  -21.0512 26042.1 -03435.4 -07.5150 26267.8
 05 05 2013  22 16  -21.0513 26042.1 -03435.4 -07.5149 26267.7
 05 05 2013  22 17  -21.0515 26042.1 -03435.4 -07.5150 26267.7
 05 05 2013  22 18  -21.0516 26042.0 -03435.4 -07.5150 26267.7
 05 05 2013  22 19  -21.0517 26042.1 -03435.5 -07.5151 26267.7
 05 05 2013  22 20  -21.0517 26042.2 -03435.6 -07.5152 26267.8
 05 05 2013  22 21  -21.0517 26042.1 -03435.6 -07.5153 26267.7
 05 05 2013  22 22  -21.0518 26042.1 -03435.6 -07.5153 26267.7
 05 05 2013  22 23  -21.0518 26042.0 -03435.6 -07.5153 26267.6
 05 05 2013  22 24  -21.0519 26042.0 -03435.6 -07.5153 26267.6
 05 05 2013  22 25  -21.0518 26041.9 -03435.6 -07.5153 26267.6
 05 05 2013  22 26  -21.0518 26041.9 -03435.6 -07.5153 26267.5
 05 05 2013  22 27  -21.0518 26041.8 -03435.6 -07.5154 26267.5
 05 05 2013  22 28  -21.0518 26041.8 -03435.6 -07.5154 26267.4
 05 05 2013  22 29  -21.0519 26041.7 -03435.6 -07.5154 26267.3
 05 05 2013  22 30  -21.0520 26041.6 -03435.6 -07.5154 26267.2
 05 05 2013  22 31  -21.0521 26041.6 -03435.6 -07.5155 26267.2
 05 05 2013  22 32  -21.0521 26041.6 -03435.6 -07.5155 26267.3
 05 05 2013  22 33  -21.0522 26041.6 -03435.6 -07.5156 26267.2
 05 05 2013  22 34  -21.0524 26041.5 -03435.6 -07.5156 26267.2
 05 05 2013  22 35  -21.0527 26041.5 -03435.7 -07.5156 26267.1
 05 05 2013  22 36  -21.0529 26041.4 -03435.6 -07.5156 26267.0
 05 05 2013  22 37  -21.0530 26041.3 -03435.6 -07.5155 26267.0
 05 05 2013  22 38  -21.0531 26041.3 -03435.6 -07.5156 26267.0
 05 05 2013  22 39  -21.0531 26041.5 -03435.7 -07.5158 26267.2
 05 05 2013  22 40  -21.0529 26041.7 -03435.8 -07.5159 26267.3
 05 05 2013  22 41  -21.0528 26041.7 -03435.9 -07.5160 26267.4
 05 05 2013  22 42  -21.0527 26041.7 -03435.9 -07.5161 26267.4
 05 05 2013  22 43  -21.0525 26041.8 -03436.0 -07.5162 26267.5
 05 05 2013  22 44  -21.0525 26041.9 -03436.0 -07.5163 26267.6
 05 05 2013  22 45  -21.0525 26041.9 -03436.0 -07.5163 26267.6
 05 05 2013  22 46  -21.0526 26041.8 -03436.0 -07.5164 26267.5
 05 05 2013  22 47  -21.0526 26041.7 -03436.0 -07.5163 26267.4
 05 05 2013  22 48  -21.0527 26041.6 -03436.0 -07.5164 26267.3
 05 05 2013  22 49  -21.0528 26041.6 -03436.0 -07.5163 26267.3
 05 05 2013  22 50  -21.0528 26041.6 -03436.0 -07.5164 26267.3
 05 05 2013  22 51  -21.0529 26041.5 -03436.0 -07.5164 26267.2
 05 05 2013  22 52  -21.0529 26041.5 -03436.0 -07.5164 26267.2
 05 05 2013  22 53  -21.0529 26041.5 -03436.1 -07.5165 26267.2
 05 05 2013  22 54  -21.0530 26041.5 -03436.1 -07.5165 26267.2
 05 05 2013  22 55  -21.0529 26041.5 -03436.1 -07.5166 26267.2
 05 05 2013  22 56  -21.0528 26041.6 -03436.2 -07.5167 26267.3
 05 05 2013  22 57  -21.0527 26041.6 -03436.2 -07.5168 26267.4
 05 05 2013  22 58  -21.0527 26041.6 -03436.2 -07.5168 26267.3
 05 05 2013  22 59  -21.0527 26041.6 -03436.2 -07.5167 26267.3
 05 05 2013  23 00  -21.0527 26041.5 -03436.2 -07.5168 26267.2
 05 05 2013  23 01  -21.0527 26041.3 -03436.1 -07.5167 26267.0
 05 05 2013  23 02  -21.0527 26041.2 -03436.1 -07.5166 26266.9
 05 05 2013  23 03  -21.0526 26041.1 -03436.0 -07.5166 26266.8
 05 05 2013  23 04  -21.0525 26041.1 -03436.1 -07.5166 26266.8
 05 05 2013  23 05  -21.0523 26041.2 -03436.1 -07.5167 26267.0
 05 05 2013  23 06  -21.0522 26041.4 -03436.3 -07.5169 26267.1
 05 05 2013  23 07  -21.0522 26041.4 -03436.3 -07.5171 26267.2
 05 05 2013  23 08  -21.0522 26041.5 -03436.4 -07.5172 26267.3
 05 05 2013  23 09  -21.0522 26041.6 -03436.5 -07.5174 26267.4
 05 05 2013  23 10  -21.0522 26041.6 -03436.5 -07.5174 26267.4
 05 05 2013  23 11  -21.0522 26041.7 -03436.5 -07.5175 26267.4
 05 05 2013  23 12  -21.0523 26041.6 -03436.6 -07.5175 26267.4
 05 05 2013  23 13  -21.0524 26041.6 -03436.5 -07.5175 26267.3
 05 05 2013  23 14  -21.0525 26041.5 -03436.5 -07.5174 26267.3
 05 05 2013  23 15  -21.0526 26041.4 -03436.4 -07.5173 26267.2
 05 05 2013  23 16  -21.0527 26041.3 -03436.4 -07.5173 26267.1
 05 05 2013  23 17  -21.0528 26041.3 -03436.4 -07.5173 26267.0
 05 05 2013  23 18  -21.0528 26041.1 -03436.3 -07.5172 26266.8
 05 05 2013  23 19  -21.0530 26040.8 -03436.2 -07.5171 26266.6
 05 05 2013  23 20  -21.0531 26040.7 -03436.2 -07.5169 26266.4
 05 05 2013  23 21  -21.0532 26040.4 -03436.1 -07.5168 26266.2
 05 05 2013  23 22  -21.0533 26040.3 -03436.0 -07.5167 26266.0
 05 05 2013  23 23  -21.0534 26040.1 -03436.0 -07.5167 26265.8
 05 05 2013  23 24  -21.0532 26040.0 -03435.9 -07.5166 26265.7
 05 05 2013  23 25  -21.0531 26040.0 -03436.0 -07.5167 26265.7
 05 05 2013  23 26  -21.0528 26039.9 -03436.0 -07.5168 26265.6
 05 05 2013  23 27  -21.0528 26039.9 -03436.0 -07.5168 26265.6
 05 05 2013  23 28  -21.0528 26039.9 -03436.1 -07.5169 26265.6
 05 05 2013  23 29  -21.0527 26039.8 -03436.1 -07.5170 26265.5
 05 05 2013  23 30  -21.0527 26039.7 -03436.0 -07.5170 26265.4
 05 05 2013  23 31  -21.0528 26039.6 -03436.0 -07.5170 26265.3
 05 05 2013  23 32  -21.0529 26039.4 -03436.0 -07.5170 26265.2
 05 05 2013  23 33  -21.0529 26039.3 -03436.0 -07.5169 26265.0
 05 05 2013  23 34  -21.0529 26039.2 -03435.9 -07.5169 26264.9
 05 05 2013  23 35  -21.0529 26039.1 -03435.9 -07.5169 26264.8
 05 05 2013  23 36  -21.0528 26039.0 -03435.9 -07.5169 26264.7
 05 05 2013  23 37  -21.0528 26038.8 -03435.9 -07.5169 26264.5
 05 05 2013  23 38  -21.0527 26038.7 -03435.9 -07.5168 26264.4
 05 05 2013  23 39  -21.0526 26038.7 -03435.9 -07.5169 26264.4
 05 05 2013  23 40  -21.0524 26038.7 -03435.9 -07.5170 26264.4
 05 05 2013  23 41  -21.0523 26038.6 -03436.0 -07.5172 26264.4
 05 05 2013  23 42  -21.0522 26038.6 -03436.0 -07.5172 26264.4
 05 05 2013  23 43  -21.0520 26038.6 -03436.1 -07.5173 26264.4
 05 05 2013  23 44  -21.0519 26038.6 -03436.1 -07.5174 26264.3
 05 05 2013  23 45  -21.0519 26038.5 -03436.1 -07.5175 26264.3
 05 05 2013  23 46  -21.0518 26038.5 -03436.2 -07.5176 26264.2
 05 05 2013  23 47  -21.0517 26038.4 -03436.2 -07.5177 26264.2
 05 05 2013  23 48  -21.0517 26038.5 -03436.3 -07.5178 26264.2
 05 05 2013  23 49  -21.0516 26038.5 -03436.3 -07.5179 26264.2
 05 05 2013  23 50  -21.0517 26038.4 -03436.3 -07.5179 26264.2
 05 05 2013  23 51  -21.0517 26038.3 -03436.3 -07.5179 26264.1
 05 05 2013  23 52  -21.0517 26038.3 -03436.3 -07.5180 26264.1
 05 05 2013  23 53  -21.0518 26038.5 -03436.5 -07.5182 26264.2
 05 05 2013  23 54  -21.0517 26038.4 -03436.5 -07.5183 26264.2
 05 05 2013  23 55  -21.0518 26038.2 -03436.4 -07.5182 26264.0
 05 05 2013  23 56  -21.0520 26038.1 -03436.4 -07.5182 26263.9
 05 05 2013  23 57  -21.0522 26038.0 -03436.4 -07.5181 26263.8
 05 05 2013  23 58  -21.0522 26037.9 -03436.4 -07.5182 26263.7
