SAO LUIS EMBRACE-03 <129> 1 Min. Reported data

 DD MM YYYY  HH MM   D(Deg)  H(nT)   Z(nT)   I(Deg)   F(nT)

 09 05 2013  00 00  -21.0433 26029.0 -03436.4 -07.5209 26254.8
 09 05 2013  00 01  -21.0432 26029.1 -03436.5 -07.5210 26255.0
 09 05 2013  00 02  -21.0431 26029.2 -03436.6 -07.5211 26255.1
 09 05 2013  00 03  -21.0432 26029.2 -03436.6 -07.5212 26255.1
 09 05 2013  00 04  -21.0433 26029.2 -03436.6 -07.5213 26255.1
 09 05 2013  00 05  -21.0433 26029.3 -03436.7 -07.5214 26255.2
 09 05 2013  00 06  -21.0434 26029.4 -03436.8 -07.5215 26255.3
 09 05 2013  00 07  -21.0435 26029.4 -03436.8 -07.5215 26255.3
 09 05 2013  00 08  -21.0436 26029.5 -03436.8 -07.5215 26255.4
 09 05 2013  00 09  -21.0436 26029.6 -03436.8 -07.5216 26255.5
 09 05 2013  00 10  -21.0434 26029.6 -03436.9 -07.5216 26255.5
 09 05 2013  00 11  -21.0433 26029.6 -03436.9 -07.5216 26255.5
 09 05 2013  00 12  -21.0433 26029.6 -03436.8 -07.5215 26255.5
 09 05 2013  00 13  -21.0432 26029.6 -03436.8 -07.5215 26255.5
 09 05 2013  00 14  -21.0431 26029.5 -03436.8 -07.5215 26255.4
 09 05 2013  00 15  -21.0431 26029.5 -03436.8 -07.5215 26255.4
 09 05 2013  00 16  -21.0432 26029.6 -03436.8 -07.5215 26255.5
 09 05 2013  00 17  -21.0432 26029.6 -03436.8 -07.5216 26255.5
 09 05 2013  00 18  -21.0433 26029.6 -03436.8 -07.5216 26255.5
 09 05 2013  00 19  -21.0433 26029.6 -03436.8 -07.5216 26255.5
 09 05 2013  00 20  -21.0433 26029.5 -03436.8 -07.5215 26255.4
 09 05 2013  00 21  -21.0434 26029.5 -03436.8 -07.5215 26255.4
 09 05 2013  00 22  -21.0435 26029.5 -03436.8 -07.5215 26255.4
 09 05 2013  00 23  -21.0435 26029.4 -03436.8 -07.5215 26255.3
 09 05 2013  00 24  -21.0435 26029.3 -03436.7 -07.5214 26255.2
 09 05 2013  00 25  -21.0437 26029.3 -03436.7 -07.5214 26255.2
 09 05 2013  00 26  -21.0438 26029.3 -03436.7 -07.5214 26255.2
 09 05 2013  00 27  -21.0439 26029.2 -03436.7 -07.5214 26255.1
 09 05 2013  00 28  -21.0441 26029.0 -03436.6 -07.5213 26254.9
 09 05 2013  00 29  -21.0441 26028.9 -03436.6 -07.5212 26254.7
 09 05 2013  00 30  -21.0444 26028.8 -03436.6 -07.5212 26254.7
 09 05 2013  00 31  -21.0443 26028.9 -03436.6 -07.5213 26254.8
 09 05 2013  00 32  -21.0441 26029.1 -03436.7 -07.5214 26255.0
 09 05 2013  00 33  -21.0438 26029.4 -03436.9 -07.5217 26255.3
 09 05 2013  00 34  -21.0436 26029.7 -03437.0 -07.5220 26255.6
 09 05 2013  00 35  -21.0435 26030.0 -03437.2 -07.5222 26256.0
 09 05 2013  00 36  -21.0434 26030.2 -03437.3 -07.5224 26256.2
 09 05 2013  00 37  -21.0435 26030.3 -03437.4 -07.5225 26256.3
 09 05 2013  00 38  -21.0437 26030.3 -03437.4 -07.5225 26256.3
 09 05 2013  00 39  -21.0437 26030.3 -03437.3 -07.5224 26256.3
 09 05 2013  00 40  -21.0437 26030.5 -03437.4 -07.5225 26256.4
 09 05 2013  00 41  -21.0439 26030.4 -03437.4 -07.5225 26256.4
 09 05 2013  00 42  -21.0440 26030.2 -03437.3 -07.5223 26256.2
 09 05 2013  00 43  -21.0440 26030.2 -03437.2 -07.5222 26256.1
 09 05 2013  00 44  -21.0440 26030.1 -03437.1 -07.5220 26256.0
 09 05 2013  00 45  -21.0439 26029.9 -03437.0 -07.5219 26255.8
 09 05 2013  00 46  -21.0439 26029.8 -03436.9 -07.5217 26255.7
 09 05 2013  00 47  -21.0437 26029.6 -03436.9 -07.5216 26255.5
 09 05 2013  00 48  -21.0437 26029.4 -03436.8 -07.5214 26255.3
 09 05 2013  00 49  -21.0436 26029.3 -03436.7 -07.5213 26255.2
 09 05 2013  00 50  -21.0437 26029.1 -03436.6 -07.5213 26255.0
 09 05 2013  00 51  -21.0438 26029.0 -03436.6 -07.5212 26254.8
 09 05 2013  00 52  -21.0439 26028.8 -03436.5 -07.5211 26254.7
 09 05 2013  00 53  -21.0442 26028.6 -03436.5 -07.5210 26254.5
 09 05 2013  00 54  -21.0444 26028.4 -03436.4 -07.5209 26254.3
 09 05 2013  00 55  -21.0444 26028.2 -03436.3 -07.5209 26254.0
 09 05 2013  00 56  -21.0443 26028.0 -03436.3 -07.5208 26253.8
 09 05 2013  00 57  -21.0440 26027.9 -03436.2 -07.5208 26253.7
 09 05 2013  00 58  -21.0437 26027.7 -03436.2 -07.5207 26253.6
 09 05 2013  00 59  -21.0434 26027.7 -03436.2 -07.5207 26253.6
 09 05 2013  01 00  -21.0433 26027.8 -03436.3 -07.5209 26253.6
 09 05 2013  01 01  -21.0433 26028.0 -03436.4 -07.5212 26253.8
 09 05 2013  01 02  -21.0434 26028.5 -03436.7 -07.5216 26254.4
 09 05 2013  01 03  -21.0436 26029.1 -03437.1 -07.5223 26255.1
 09 05 2013  01 04  -21.0437 26029.3 -03437.2 -07.5225 26255.3
 09 05 2013  01 05  -21.0438 26029.5 -03437.3 -07.5226 26255.5
 09 05 2013  01 06  -21.0439 26029.8 -03437.4 -07.5227 26255.8
 09 05 2013  01 07  -21.0440 26030.2 -03437.6 -07.5230 26256.2
 09 05 2013  01 08  -21.0443 26030.3 -03437.6 -07.5230 26256.3
 09 05 2013  01 09  -21.0439 26030.8 -03437.8 -07.5233 26256.8
 09 05 2013  01 10  -21.0438 26030.4 -03437.6 -07.5230 26256.4
 09 05 2013  01 11  -21.0437 26030.2 -03437.4 -07.5226 26256.2
 09 05 2013  01 12  -21.0434 26030.0 -03437.3 -07.5224 26256.0
 09 05 2013  01 13  -21.0433 26029.8 -03437.2 -07.5223 26255.8
 09 05 2013  01 14  -21.0431 26029.8 -03437.2 -07.5222 26255.7
 09 05 2013  01 15  -21.0429 26029.8 -03437.2 -07.5222 26255.7
 09 05 2013  01 16  -21.0430 26029.6 -03437.1 -07.5222 26255.6
 09 05 2013  01 17  -21.0430 26029.6 -03437.1 -07.5221 26255.5
 09 05 2013  01 18  -21.0429 26029.5 -03437.1 -07.5221 26255.5
 09 05 2013  01 19  -21.0429 26029.5 -03437.1 -07.5221 26255.4
 09 05 2013  01 20  -21.0430 26029.4 -03437.0 -07.5221 26255.4
 09 05 2013  01 21  -21.0431 26029.5 -03437.1 -07.5221 26255.4
 09 05 2013  01 22  -21.0432 26029.6 -03437.1 -07.5222 26255.5
 09 05 2013  01 23  -21.0431 26029.6 -03437.2 -07.5223 26255.6
 09 05 2013  01 24  -21.0428 26029.7 -03437.2 -07.5223 26255.6
 09 05 2013  01 25  -21.0427 26029.6 -03437.2 -07.5223 26255.6
 09 05 2013  01 26  -21.0426 26029.5 -03437.1 -07.5222 26255.5
 09 05 2013  01 27  -21.0425 26029.5 -03437.1 -07.5223 26255.5
 09 05 2013  01 28  -21.0426 26029.4 -03437.1 -07.5222 26255.4
 09 05 2013  01 29  -21.0427 26029.3 -03437.1 -07.5222 26255.2
 09 05 2013  01 30  -21.0427 26029.2 -03437.0 -07.5221 26255.2
 09 05 2013  01 31  -21.0426 26029.2 -03437.1 -07.5221 26255.1
 09 05 2013  01 32  -21.0423 26029.2 -03437.1 -07.5222 26255.2
 09 05 2013  01 33  -21.0421 26029.1 -03437.0 -07.5221 26255.1
 09 05 2013  01 34  -21.0417 26029.0 -03437.0 -07.5221 26255.0
 09 05 2013  01 35  -21.0414 26028.9 -03436.9 -07.5220 26254.8
 09 05 2013  01 36  -21.0411 26028.7 -03436.9 -07.5220 26254.6
 09 05 2013  01 37  -21.0407 26028.7 -03436.9 -07.5220 26254.6
 09 05 2013  01 38  -21.0407 26028.8 -03437.0 -07.5222 26254.8
 09 05 2013  01 39  -21.0407 26028.9 -03437.1 -07.5224 26254.8
 09 05 2013  01 40  -21.0407 26029.0 -03437.2 -07.5225 26254.9
 09 05 2013  01 41  -21.0407 26028.8 -03437.1 -07.5224 26254.7
 09 05 2013  01 42  -21.0406 26028.5 -03437.0 -07.5223 26254.5
 09 05 2013  01 43  -21.0408 26028.3 -03436.9 -07.5221 26254.2
 09 05 2013  01 44  -21.0408 26028.1 -03436.8 -07.5220 26254.0
 09 05 2013  01 45  -21.0408 26028.0 -03436.8 -07.5220 26253.9
 09 05 2013  01 46  -21.0408 26028.1 -03436.9 -07.5221 26254.1
 09 05 2013  01 47  -21.0408 26028.1 -03436.9 -07.5222 26254.0
 09 05 2013  01 48  -21.0407 26028.0 -03436.9 -07.5222 26254.0
 09 05 2013  01 49  -21.0403 26027.9 -03436.8 -07.5221 26253.8
 09 05 2013  01 50  -21.0401 26027.8 -03436.8 -07.5220 26253.7
 09 05 2013  01 51  -21.0400 26027.7 -03436.8 -07.5221 26253.6
 09 05 2013  01 52  -21.0400 26027.8 -03436.9 -07.5222 26253.7
 09 05 2013  01 53  -21.0400 26027.8 -03437.0 -07.5223 26253.8
 09 05 2013  01 54  -21.0402 26027.8 -03437.0 -07.5224 26253.8
 09 05 2013  01 55  -21.0403 26027.7 -03437.0 -07.5224 26253.7
 09 05 2013  01 56  -21.0405 26027.7 -03437.0 -07.5224 26253.7
 09 05 2013  01 57  -21.0405 26027.9 -03437.1 -07.5226 26253.9
 09 05 2013  01 58  -21.0406 26028.1 -03437.2 -07.5228 26254.1
 09 05 2013  01 59  -21.0405 26028.3 -03437.3 -07.5230 26254.3
 09 05 2013  02 00  -21.0405 26028.4 -03437.4 -07.5231 26254.4
 09 05 2013  02 01  -21.0408 26028.3 -03437.3 -07.5230 26254.3
 09 05 2013  02 02  -21.0410 26028.1 -03437.2 -07.5229 26254.1
 09 05 2013  02 03  -21.0412 26028.2 -03437.3 -07.5229 26254.2
 09 05 2013  02 04  -21.0415 26028.2 -03437.3 -07.5229 26254.2
 09 05 2013  02 05  -21.0420 26028.4 -03437.4 -07.5231 26254.4
 09 05 2013  02 06  -21.0426 26028.4 -03437.4 -07.5232 26254.4
 09 05 2013  02 07  -21.0427 26028.5 -03437.4 -07.5232 26254.5
 09 05 2013  02 08  -21.0426 26028.5 -03437.4 -07.5231 26254.5
 09 05 2013  02 09  -21.0425 26028.4 -03437.3 -07.5229 26254.4
 09 05 2013  02 10  -21.0425 26028.4 -03437.3 -07.5229 26254.3
 09 05 2013  02 11  -21.0423 26028.3 -03437.2 -07.5227 26254.2
 09 05 2013  02 12  -21.0421 26028.3 -03437.2 -07.5227 26254.3
 09 05 2013  02 13  -21.0421 26028.3 -03437.2 -07.5228 26254.3
 09 05 2013  02 14  -21.0422 26028.4 -03437.3 -07.5228 26254.3
 09 05 2013  02 15  -21.0423 26028.5 -03437.4 -07.5230 26254.5
 09 05 2013  02 16  -21.0425 26028.4 -03437.4 -07.5230 26254.4
 09 05 2013  02 17  -21.0423 26028.8 -03437.5 -07.5233 26254.8
 09 05 2013  02 18  -21.0425 26028.6 -03437.4 -07.5231 26254.6
 09 05 2013  02 19  -21.0423 26028.9 -03437.6 -07.5233 26254.9
 09 05 2013  02 20  -21.0421 26029.1 -03437.7 -07.5235 26255.1
 09 05 2013  02 21  -21.0416 26029.7 -03437.9 -07.5238 26255.8
 09 05 2013  02 22  -21.0411 26030.2 -03438.2 -07.5243 26256.3
 09 05 2013  02 23  -21.0410 26030.7 -03438.4 -07.5246 26256.8
 09 05 2013  02 24  -21.0407 26031.3 -03438.7 -07.5251 26257.5
 09 05 2013  02 25  -21.0405 26031.8 -03438.9 -07.5255 26258.0
 09 05 2013  02 26  -21.0404 26032.0 -03439.0 -07.5256 26258.2
 09 05 2013  02 27  -21.0406 26031.8 -03438.9 -07.5254 26258.0
 09 05 2013  02 28  -21.0413 26031.4 -03438.6 -07.5249 26257.5
 09 05 2013  02 29  -21.0419 26031.0 -03438.4 -07.5245 26257.1
 09 05 2013  02 30  -21.0421 26030.8 -03438.2 -07.5242 26256.9
 09 05 2013  02 31  -21.0420 26030.6 -03438.1 -07.5239 26256.7
 09 05 2013  02 32  -21.0419 26030.5 -03438.0 -07.5238 26256.6
 09 05 2013  02 33  -21.0419 26030.2 -03437.9 -07.5236 26256.2
 09 05 2013  02 34  -21.0418 26030.1 -03437.8 -07.5235 26256.1
 09 05 2013  02 35  -21.0417 26029.8 -03437.6 -07.5232 26255.8
 09 05 2013  02 36  -21.0415 26029.5 -03437.5 -07.5231 26255.5
 09 05 2013  02 37  -21.0412 26029.4 -03437.5 -07.5230 26255.4
 09 05 2013  02 38  -21.0408 26029.4 -03437.5 -07.5231 26255.4
 09 05 2013  02 39  -21.0406 26029.3 -03437.5 -07.5231 26255.3
 09 05 2013  02 40  -21.0404 26029.2 -03437.5 -07.5231 26255.2
 09 05 2013  02 41  -21.0403 26029.0 -03437.5 -07.5231 26255.0
 09 05 2013  02 42  -21.0403 26029.0 -03437.5 -07.5232 26255.0
 09 05 2013  02 43  -21.0403 26029.1 -03437.6 -07.5234 26255.1
 09 05 2013  02 44  -21.0403 26029.1 -03437.7 -07.5235 26255.2
 09 05 2013  02 45  -21.0404 26029.1 -03437.7 -07.5237 26255.1
 09 05 2013  02 46  -21.0405 26029.1 -03437.8 -07.5238 26255.1
 09 05 2013  02 47  -21.0406 26029.0 -03437.8 -07.5238 26255.1
 09 05 2013  02 48  -21.0406 26029.0 -03437.8 -07.5239 26255.1
 09 05 2013  02 49  -21.0407 26029.0 -03437.8 -07.5239 26255.0
 09 05 2013  02 50  -21.0407 26029.0 -03437.8 -07.5239 26255.0
 09 05 2013  02 51  -21.0407 26029.0 -03437.9 -07.5240 26255.0
 09 05 2013  02 52  -21.0406 26029.0 -03437.9 -07.5241 26255.0
 09 05 2013  02 53  -21.0406 26029.0 -03437.9 -07.5241 26255.1
 09 05 2013  02 54  -21.0404 26029.1 -03438.0 -07.5242 26255.2
 09 05 2013  02 55  -21.0404 26029.2 -03438.1 -07.5243 26255.3
 09 05 2013  02 56  -21.0404 26029.2 -03438.1 -07.5244 26255.3
 09 05 2013  02 57  -21.0405 26029.2 -03438.1 -07.5245 26255.2
 09 05 2013  02 58  -21.0406 26029.1 -03438.1 -07.5245 26255.2
 09 05 2013  02 59  -21.0406 26029.2 -03438.2 -07.5246 26255.3
 09 05 2013  03 00  -21.0405 26029.3 -03438.3 -07.5248 26255.4
 09 05 2013  03 01  -21.0403 26029.6 -03438.4 -07.5250 26255.7
 09 05 2013  03 02  -21.0401 26029.6 -03438.5 -07.5251 26255.8
 09 05 2013  03 03  -21.0401 26029.6 -03438.5 -07.5252 26255.8
 09 05 2013  03 04  -21.0402 26029.5 -03438.5 -07.5252 26255.7
 09 05 2013  03 05  -21.0405 26029.5 -03438.5 -07.5252 26255.6
 09 05 2013  03 06  -21.0406 26029.5 -03438.5 -07.5253 26255.6
 09 05 2013  03 07  -21.0407 26029.4 -03438.6 -07.5254 26255.6
 09 05 2013  03 08  -21.0409 26029.4 -03438.6 -07.5254 26255.5
 09 05 2013  03 09  -21.0410 26029.4 -03438.6 -07.5254 26255.5
 09 05 2013  03 10  -21.0410 26029.4 -03438.6 -07.5255 26255.5
 09 05 2013  03 11  -21.0410 26029.4 -03438.7 -07.5256 26255.6
 09 05 2013  03 12  -21.0409 26029.5 -03438.7 -07.5256 26255.6
 09 05 2013  03 13  -21.0408 26029.5 -03438.7 -07.5257 26255.7
 09 05 2013  03 14  -21.0407 26029.5 -03438.7 -07.5257 26255.7
 09 05 2013  03 15  -21.0407 26029.4 -03438.7 -07.5257 26255.5
 09 05 2013  03 16  -21.0409 26029.1 -03438.6 -07.5255 26255.2
 09 05 2013  03 17  -21.0412 26028.9 -03438.5 -07.5254 26255.0
 09 05 2013  03 18  -21.0414 26028.7 -03438.5 -07.5254 26254.9
 09 05 2013  03 19  -21.0414 26028.6 -03438.4 -07.5253 26254.8
 09 05 2013  03 20  -21.0414 26028.6 -03438.4 -07.5253 26254.7
 09 05 2013  03 21  -21.0414 26028.5 -03438.5 -07.5254 26254.7
 09 05 2013  03 22  -21.0413 26028.6 -03438.5 -07.5255 26254.7
 09 05 2013  03 23  -21.0412 26028.6 -03438.6 -07.5257 26254.8
 09 05 2013  03 24  -21.0411 26028.7 -03438.7 -07.5258 26254.9
 09 05 2013  03 25  -21.0411 26028.8 -03438.7 -07.5259 26254.9
 09 05 2013  03 26  -21.0411 26028.8 -03438.8 -07.5260 26254.9
 09 05 2013  03 27  -21.0411 26028.7 -03438.8 -07.5260 26254.9
 09 05 2013  03 28  -21.0411 26028.7 -03438.7 -07.5260 26254.8
 09 05 2013  03 29  -21.0412 26028.7 -03438.8 -07.5260 26254.9
 09 05 2013  03 30  -21.0412 26028.8 -03438.8 -07.5261 26255.0
 09 05 2013  03 31  -21.0413 26028.9 -03438.9 -07.5262 26255.1
 09 05 2013  03 32  -21.0415 26028.8 -03438.9 -07.5262 26255.0
 09 05 2013  03 33  -21.0417 26028.7 -03438.8 -07.5261 26254.9
 09 05 2013  03 34  -21.0419 26028.7 -03438.8 -07.5260 26254.9
 09 05 2013  03 35  -21.0420 26028.7 -03438.7 -07.5259 26254.9
 09 05 2013  03 36  -21.0421 26028.6 -03438.7 -07.5258 26254.8
 09 05 2013  03 37  -21.0422 26028.6 -03438.6 -07.5258 26254.7
 09 05 2013  03 38  -21.0422 26028.5 -03438.6 -07.5257 26254.7
 09 05 2013  03 39  -21.0422 26028.5 -03438.6 -07.5256 26254.6
 09 05 2013  03 40  -21.0421 26028.5 -03438.5 -07.5256 26254.7
 09 05 2013  03 41  -21.0420 26028.5 -03438.5 -07.5255 26254.6
 09 05 2013  03 42  -21.0419 26028.5 -03438.5 -07.5256 26254.7
 09 05 2013  03 43  -21.0418 26028.5 -03438.6 -07.5256 26254.7
 09 05 2013  03 44  -21.0418 26028.5 -03438.5 -07.5255 26254.6
 09 05 2013  03 45  -21.0418 26028.5 -03438.5 -07.5255 26254.6
 09 05 2013  03 46  -21.0417 26028.5 -03438.5 -07.5256 26254.6
 09 05 2013  03 47  -21.0416 26028.5 -03438.6 -07.5256 26254.7
 09 05 2013  03 48  -21.0415 26028.5 -03438.6 -07.5257 26254.7
 09 05 2013  03 49  -21.0413 26028.6 -03438.7 -07.5258 26254.7
 09 05 2013  03 50  -21.0413 26028.6 -03438.7 -07.5258 26254.8
 09 05 2013  03 51  -21.0411 26028.6 -03438.7 -07.5258 26254.7
 09 05 2013  03 52  -21.0411 26028.5 -03438.6 -07.5258 26254.7
 09 05 2013  03 53  -21.0412 26028.4 -03438.6 -07.5257 26254.6
 09 05 2013  03 54  -21.0412 26028.4 -03438.6 -07.5256 26254.5
 09 05 2013  03 55  -21.0412 26028.4 -03438.6 -07.5257 26254.5
 09 05 2013  03 56  -21.0413 26028.4 -03438.6 -07.5256 26254.5
 09 05 2013  03 57  -21.0412 26028.4 -03438.5 -07.5256 26254.5
 09 05 2013  03 58  -21.0413 26028.4 -03438.5 -07.5255 26254.5
 09 05 2013  03 59  -21.0413 26028.3 -03438.5 -07.5255 26254.5
 09 05 2013  04 00  -21.0413 26028.3 -03438.5 -07.5254 26254.5
 09 05 2013  04 01  -21.0413 26028.3 -03438.4 -07.5253 26254.4
 09 05 2013  04 02  -21.0412 26028.2 -03438.4 -07.5253 26254.3
 09 05 2013  04 03  -21.0412 26028.2 -03438.3 -07.5252 26254.3
 09 05 2013  04 04  -21.0413 26028.1 -03438.3 -07.5251 26254.2
 09 05 2013  04 05  -21.0412 26028.1 -03438.3 -07.5251 26254.2
 09 05 2013  04 06  -21.0411 26028.0 -03438.3 -07.5251 26254.2
 09 05 2013  04 07  -21.0409 26028.1 -03438.3 -07.5251 26254.2
 09 05 2013  04 08  -21.0408 26028.0 -03438.2 -07.5251 26254.1
 09 05 2013  04 09  -21.0408 26027.9 -03438.2 -07.5250 26254.0
 09 05 2013  04 10  -21.0407 26027.9 -03438.2 -07.5251 26254.0
 09 05 2013  04 11  -21.0407 26027.9 -03438.2 -07.5251 26254.0
 09 05 2013  04 12  -21.0407 26027.8 -03438.2 -07.5250 26253.9
 09 05 2013  04 13  -21.0408 26027.7 -03438.2 -07.5250 26253.8
 09 05 2013  04 14  -21.0407 26027.6 -03438.1 -07.5249 26253.7
 09 05 2013  04 15  -21.0408 26027.4 -03438.1 -07.5248 26253.5
 09 05 2013  04 16  -21.0408 26027.4 -03438.1 -07.5249 26253.5
 09 05 2013  04 17  -21.0410 26027.3 -03438.1 -07.5249 26253.4
 09 05 2013  04 18  -21.0413 26027.3 -03438.1 -07.5249 26253.4
 09 05 2013  04 19  -21.0415 26027.3 -03438.1 -07.5250 26253.4
 09 05 2013  04 20  -21.0416 26027.4 -03438.2 -07.5251 26253.5
 09 05 2013  04 21  -21.0416 26027.5 -03438.2 -07.5252 26253.6
 09 05 2013  04 22  -21.0416 26027.7 -03438.4 -07.5254 26253.9
 09 05 2013  04 23  -21.0417 26027.9 -03438.5 -07.5256 26254.0
 09 05 2013  04 24  -21.0417 26028.0 -03438.5 -07.5257 26254.2
 09 05 2013  04 25  -21.0418 26028.1 -03438.6 -07.5258 26254.2
 09 05 2013  04 26  -21.0417 26028.1 -03438.6 -07.5257 26254.3
 09 05 2013  04 27  -21.0417 26028.0 -03438.5 -07.5256 26254.2
 09 05 2013  04 28  -21.0416 26028.1 -03438.5 -07.5256 26254.2
 09 05 2013  04 29  -21.0414 26028.3 -03438.6 -07.5258 26254.5
 09 05 2013  04 30  -21.0412 26028.5 -03438.7 -07.5260 26254.7
 09 05 2013  04 31  -21.0412 26028.7 -03438.8 -07.5262 26254.8
 09 05 2013  04 32  -21.0414 26028.7 -03438.9 -07.5262 26254.9
 09 05 2013  04 33  -21.0414 26028.9 -03438.9 -07.5263 26255.1
 09 05 2013  04 34  -21.0413 26029.1 -03439.0 -07.5264 26255.3
 09 05 2013  04 35  -21.0415 26029.2 -03439.0 -07.5264 26255.4
 09 05 2013  04 36  -21.0418 26029.1 -03439.0 -07.5263 26255.3
 09 05 2013  04 37  -21.0422 26029.1 -03438.9 -07.5263 26255.3
 09 05 2013  04 38  -21.0426 26029.0 -03438.8 -07.5261 26255.2
 09 05 2013  04 39  -21.0431 26028.8 -03438.7 -07.5258 26254.9
 09 05 2013  04 40  -21.0433 26028.9 -03438.7 -07.5257 26255.0
 09 05 2013  04 41  -21.0435 26029.0 -03438.7 -07.5257 26255.1
 09 05 2013  04 42  -21.0437 26028.9 -03438.6 -07.5255 26255.0
 09 05 2013  04 43  -21.0439 26028.8 -03438.5 -07.5255 26255.0
 09 05 2013  04 44  -21.0442 26028.6 -03438.4 -07.5252 26254.7
 09 05 2013  04 45  -21.0443 26028.5 -03438.3 -07.5250 26254.7
 09 05 2013  04 46  -21.0442 26028.5 -03438.2 -07.5248 26254.6
 09 05 2013  04 47  -21.0442 26028.4 -03438.1 -07.5247 26254.5
 09 05 2013  04 48  -21.0443 26028.2 -03438.0 -07.5246 26254.2
 09 05 2013  04 49  -21.0445 26028.2 -03438.0 -07.5246 26254.3
 09 05 2013  04 50  -21.0445 26028.4 -03438.1 -07.5247 26254.5
 09 05 2013  04 51  -21.0446 26028.6 -03438.2 -07.5248 26254.7
 09 05 2013  04 52  -21.0445 26028.7 -03438.3 -07.5249 26254.8
 09 05 2013  04 53  -21.0443 26029.0 -03438.4 -07.5251 26255.1
 09 05 2013  04 54  -21.0442 26029.1 -03438.4 -07.5251 26255.3
 09 05 2013  04 55  -21.0442 26029.2 -03438.5 -07.5252 26255.3
 09 05 2013  04 56  -21.0444 26029.1 -03438.3 -07.5250 26255.3
 09 05 2013  04 57  -21.0442 26029.2 -03438.2 -07.5246 26255.3
 09 05 2013  04 58  -21.0439 26028.8 -03437.9 -07.5242 26254.9
 09 05 2013  04 59  -21.0438 26028.3 -03437.7 -07.5237 26254.4
 09 05 2013  05 00  -21.0436 26028.3 -03437.6 -07.5236 26254.3
 09 05 2013  05 01  -21.0435 26028.2 -03437.6 -07.5235 26254.2
 09 05 2013  05 02  -21.0436 26028.0 -03437.5 -07.5235 26254.1
 09 05 2013  05 03  -21.0436 26027.9 -03437.4 -07.5234 26253.9
 09 05 2013  05 04  -21.0436 26027.7 -03437.4 -07.5233 26253.7
 09 05 2013  05 05  -21.0435 26027.9 -03437.5 -07.5234 26253.9
 09 05 2013  05 06  -21.0438 26027.8 -03437.5 -07.5234 26253.8
 09 05 2013  05 07  -21.0439 26028.0 -03437.6 -07.5236 26254.0
 09 05 2013  05 08  -21.0438 26028.2 -03437.7 -07.5238 26254.2
 09 05 2013  05 09  -21.0440 26028.1 -03437.7 -07.5238 26254.1
 09 05 2013  05 10  -21.0442 26028.2 -03437.7 -07.5239 26254.3
 09 05 2013  05 11  -21.0444 26028.3 -03437.8 -07.5240 26254.4
 09 05 2013  05 12  -21.0446 26028.4 -03437.8 -07.5240 26254.4
 09 05 2013  05 13  -21.0449 26028.2 -03437.7 -07.5238 26254.2
 09 05 2013  05 14  -21.0452 26028.1 -03437.6 -07.5236 26254.1
 09 05 2013  05 15  -21.0454 26028.1 -03437.6 -07.5236 26254.1
 09 05 2013  05 16  -21.0456 26028.2 -03437.6 -07.5236 26254.2
 09 05 2013  05 17  -21.0455 26028.4 -03437.6 -07.5236 26254.4
 09 05 2013  05 18  -21.0454 26028.5 -03437.7 -07.5237 26254.5
 09 05 2013  05 19  -21.0453 26028.3 -03437.5 -07.5234 26254.3
 09 05 2013  05 20  -21.0448 26028.7 -03437.6 -07.5236 26254.7
 09 05 2013  05 21  -21.0444 26028.6 -03437.7 -07.5237 26254.7
 09 05 2013  05 22  -21.0440 26028.8 -03437.7 -07.5237 26254.8
 09 05 2013  05 23  -21.0438 26028.9 -03437.8 -07.5239 26255.0
 09 05 2013  05 24  -21.0435 26028.9 -03437.8 -07.5238 26254.9
 09 05 2013  05 25  -21.0431 26029.0 -03437.8 -07.5239 26255.0
 09 05 2013  05 26  -21.0428 26029.2 -03437.9 -07.5240 26255.2
 09 05 2013  05 27  -21.0427 26029.0 -03437.9 -07.5241 26255.1
 09 05 2013  05 28  -21.0425 26029.2 -03438.0 -07.5241 26255.3
 09 05 2013  05 29  -21.0422 26029.5 -03438.1 -07.5244 26255.5
 09 05 2013  05 30  -21.0420 26029.3 -03438.1 -07.5243 26255.4
 09 05 2013  05 31  -21.0417 26029.5 -03438.1 -07.5244 26255.6
 09 05 2013  05 32  -21.0417 26029.3 -03438.1 -07.5244 26255.4
 09 05 2013  05 33  -21.0412 26029.3 -03438.0 -07.5242 26255.4
 09 05 2013  05 34  -21.0407 26029.9 -03438.3 -07.5247 26256.0
 09 05 2013  05 35  -21.0401 26029.8 -03438.3 -07.5247 26255.9
 09 05 2013  05 36  -21.0393 26030.0 -03438.4 -07.5248 26256.1
 09 05 2013  05 37  -21.0387 26030.0 -03438.4 -07.5249 26256.1
 09 05 2013  05 38  -21.0381 26030.2 -03438.5 -07.5250 26256.3
 09 05 2013  05 39  -21.0377 26030.3 -03438.6 -07.5252 26256.5
 09 05 2013  05 40  -21.0372 26030.4 -03438.7 -07.5253 26256.5
 09 05 2013  05 41  -21.0368 26030.4 -03438.7 -07.5254 26256.5
 09 05 2013  05 42  -21.0367 26030.4 -03438.8 -07.5256 26256.6
 09 05 2013  05 43  -21.0365 26030.3 -03438.7 -07.5255 26256.5
 09 05 2013  05 44  -21.0363 26030.2 -03438.7 -07.5255 26256.4
 09 05 2013  05 45  -21.0361 26030.1 -03438.7 -07.5254 26256.3
 09 05 2013  05 46  -21.0360 26030.1 -03438.7 -07.5255 26256.2
 09 05 2013  05 47  -21.0358 26030.0 -03438.7 -07.5255 26256.2
 09 05 2013  05 48  -21.0357 26029.9 -03438.7 -07.5255 26256.1
 09 05 2013  05 49  -21.0356 26029.9 -03438.8 -07.5257 26256.1
 09 05 2013  05 50  -21.0357 26029.8 -03438.8 -07.5258 26256.0
 09 05 2013  05 51  -21.0355 26029.8 -03438.8 -07.5258 26256.0
 09 05 2013  05 52  -21.0356 26029.9 -03438.9 -07.5259 26256.0
 09 05 2013  05 53  -21.0355 26029.8 -03438.9 -07.5259 26256.0
 09 05 2013  05 54  -21.0356 26029.7 -03438.9 -07.5259 26255.9
 09 05 2013  05 55  -21.0356 26029.6 -03438.8 -07.5259 26255.7
 09 05 2013  05 56  -21.0353 26029.4 -03438.7 -07.5257 26255.5
 09 05 2013  05 57  -21.0353 26029.2 -03438.7 -07.5257 26255.4
 09 05 2013  05 58  -21.0353 26029.1 -03438.7 -07.5257 26255.3
 09 05 2013  05 59  -21.0349 26029.3 -03438.8 -07.5258 26255.4
 09 05 2013  06 00  -21.0346 26029.1 -03438.8 -07.5259 26255.3
 09 05 2013  06 01  -21.0339 26029.2 -03438.9 -07.5260 26255.4
 09 05 2013  06 02  -21.0334 26029.2 -03438.9 -07.5261 26255.4
 09 05 2013  06 03  -21.0330 26029.4 -03439.0 -07.5264 26255.6
 09 05 2013  06 04  -21.0326 26029.6 -03439.2 -07.5267 26255.8
 09 05 2013  06 05  -21.0323 26029.7 -03439.3 -07.5269 26255.9
 09 05 2013  06 06  -21.0321 26029.7 -03439.3 -07.5270 26255.9
 09 05 2013  06 07  -21.0319 26029.6 -03439.3 -07.5269 26255.8
 09 05 2013  06 08  -21.0319 26029.5 -03439.4 -07.5270 26255.7
 09 05 2013  06 09  -21.0320 26029.5 -03439.4 -07.5272 26255.7
 09 05 2013  06 10  -21.0320 26029.5 -03439.5 -07.5273 26255.7
 09 05 2013  06 11  -21.0317 26029.7 -03439.6 -07.5275 26255.9
 09 05 2013  06 12  -21.0316 26029.8 -03439.7 -07.5276 26256.1
 09 05 2013  06 13  -21.0313 26029.9 -03439.8 -07.5279 26256.2
 09 05 2013  06 14  -21.0311 26029.9 -03439.8 -07.5279 26256.2
 09 05 2013  06 15  -21.0306 26029.9 -03439.8 -07.5279 26256.2
 09 05 2013  06 16  -21.0300 26029.9 -03439.8 -07.5279 26256.2
 09 05 2013  06 17  -21.0297 26029.9 -03439.9 -07.5281 26256.2
 09 05 2013  06 18  -21.0293 26029.9 -03439.9 -07.5281 26256.2
 09 05 2013  06 19  -21.0289 26029.8 -03439.9 -07.5281 26256.1
 09 05 2013  06 20  -21.0285 26029.9 -03440.0 -07.5283 26256.2
 09 05 2013  06 21  -21.0285 26029.9 -03440.1 -07.5285 26256.2
 09 05 2013  06 22  -21.0286 26029.8 -03440.1 -07.5286 26256.1
 09 05 2013  06 23  -21.0287 26029.6 -03440.0 -07.5285 26256.0
 09 05 2013  06 24  -21.0287 26029.4 -03439.9 -07.5283 26255.7
 09 05 2013  06 25  -21.0285 26029.1 -03439.8 -07.5282 26255.4
 09 05 2013  06 26  -21.0286 26028.8 -03439.7 -07.5280 26255.1
 09 05 2013  06 27  -21.0288 26028.8 -03439.7 -07.5280 26255.1
 09 05 2013  06 28  -21.0292 26028.6 -03439.7 -07.5280 26254.9
 09 05 2013  06 29  -21.0294 26028.5 -03439.7 -07.5280 26254.8
 09 05 2013  06 30  -21.0294 26028.3 -03439.6 -07.5278 26254.6
 09 05 2013  06 31  -21.0292 26028.2 -03439.5 -07.5278 26254.5
 09 05 2013  06 32  -21.0291 26028.0 -03439.5 -07.5277 26254.3
 09 05 2013  06 33  -21.0291 26027.9 -03439.4 -07.5277 26254.2
 09 05 2013  06 34  -21.0290 26027.8 -03439.4 -07.5277 26254.1
 09 05 2013  06 35  -21.0290 26027.8 -03439.4 -07.5277 26254.1
 09 05 2013  06 36  -21.0291 26027.8 -03439.5 -07.5278 26254.1
 09 05 2013  06 37  -21.0291 26027.9 -03439.6 -07.5279 26254.2
 09 05 2013  06 38  -21.0291 26028.0 -03439.6 -07.5281 26254.3
 09 05 2013  06 39  -21.0291 26028.2 -03439.8 -07.5283 26254.6
 09 05 2013  06 40  -21.0291 26028.2 -03439.8 -07.5283 26254.6
 09 05 2013  06 41  -21.0290 26028.2 -03439.8 -07.5283 26254.5
 09 05 2013  06 42  -21.0290 26028.1 -03439.8 -07.5283 26254.4
 09 05 2013  06 43  -21.0288 26028.1 -03439.8 -07.5283 26254.4
 09 05 2013  06 44  -21.0288 26028.1 -03439.8 -07.5284 26254.4
 09 05 2013  06 45  -21.0286 26028.1 -03439.8 -07.5285 26254.5
 09 05 2013  06 46  -21.0285 26028.1 -03439.9 -07.5286 26254.4
 09 05 2013  06 47  -21.0286 26028.0 -03439.9 -07.5286 26254.4
 09 05 2013  06 48  -21.0285 26028.0 -03439.9 -07.5286 26254.3
 09 05 2013  06 49  -21.0284 26027.9 -03439.9 -07.5287 26254.2
 09 05 2013  06 50  -21.0282 26027.9 -03439.9 -07.5287 26254.2
 09 05 2013  06 51  -21.0283 26027.8 -03439.9 -07.5287 26254.2
 09 05 2013  06 52  -21.0283 26027.8 -03439.9 -07.5288 26254.1
 09 05 2013  06 53  -21.0283 26027.8 -03439.9 -07.5288 26254.1
 09 05 2013  06 54  -21.0282 26027.9 -03440.0 -07.5289 26254.3
 09 05 2013  06 55  -21.0281 26027.8 -03440.0 -07.5289 26254.2
 09 05 2013  06 56  -21.0280 26028.1 -03440.1 -07.5290 26254.4
 09 05 2013  06 57  -21.0279 26028.1 -03440.1 -07.5291 26254.4
 09 05 2013  06 58  -21.0278 26028.1 -03440.2 -07.5292 26254.5
 09 05 2013  06 59  -21.0275 26028.3 -03440.2 -07.5293 26254.7
 09 05 2013  07 00  -21.0271 26028.2 -03440.2 -07.5292 26254.6
 09 05 2013  07 01  -21.0268 26028.3 -03440.2 -07.5293 26254.6
 09 05 2013  07 02  -21.0267 26028.2 -03440.2 -07.5293 26254.6
 09 05 2013  07 03  -21.0267 26028.3 -03440.3 -07.5293 26254.6
 09 05 2013  07 04  -21.0266 26028.3 -03440.3 -07.5295 26254.7
 09 05 2013  07 05  -21.0264 26028.2 -03440.3 -07.5295 26254.6
 09 05 2013  07 06  -21.0261 26028.3 -03440.3 -07.5295 26254.6
 09 05 2013  07 07  -21.0259 26028.2 -03440.3 -07.5295 26254.6
 09 05 2013  07 08  -21.0256 26028.2 -03440.3 -07.5294 26254.6
 09 05 2013  07 09  -21.0254 26028.3 -03440.3 -07.5295 26254.6
 09 05 2013  07 10  -21.0256 26028.3 -03440.4 -07.5296 26254.7
 09 05 2013  07 11  -21.0259 26028.3 -03440.4 -07.5297 26254.7
 09 05 2013  07 12  -21.0263 26028.3 -03440.4 -07.5297 26254.7
 09 05 2013  07 13  -21.0265 26028.3 -03440.5 -07.5298 26254.7
 09 05 2013  07 14  -21.0266 26028.1 -03440.4 -07.5297 26254.5
 09 05 2013  07 15  -21.0267 26028.2 -03440.4 -07.5298 26254.6
 09 05 2013  07 16  -21.0271 26028.2 -03440.5 -07.5298 26254.6
 09 05 2013  07 17  -21.0275 26028.2 -03440.5 -07.5299 26254.6
 09 05 2013  07 18  -21.0278 26028.3 -03440.5 -07.5299 26254.7
 09 05 2013  07 19  -21.0280 26028.3 -03440.5 -07.5299 26254.7
 09 05 2013  07 20  -21.0278 26028.3 -03440.4 -07.5297 26254.7
 09 05 2013  07 21  -21.0276 26028.1 -03440.3 -07.5295 26254.5
 09 05 2013  07 22  -21.0273 26028.0 -03440.2 -07.5293 26254.4
 09 05 2013  07 23  -21.0270 26027.8 -03440.1 -07.5292 26254.2
 09 05 2013  07 24  -21.0268 26027.7 -03440.0 -07.5290 26254.0
 09 05 2013  07 25  -21.0265 26027.5 -03440.0 -07.5289 26253.9
 09 05 2013  07 26  -21.0263 26027.5 -03440.0 -07.5290 26253.9
 09 05 2013  07 27  -21.0261 26027.4 -03439.9 -07.5289 26253.7
 09 05 2013  07 28  -21.0261 26027.4 -03440.0 -07.5290 26253.8
 09 05 2013  07 29  -21.0259 26027.2 -03439.9 -07.5289 26253.5
 09 05 2013  07 30  -21.0260 26027.4 -03440.0 -07.5291 26253.7
 09 05 2013  07 31  -21.0263 26027.3 -03440.1 -07.5292 26253.6
 09 05 2013  07 32  -21.0263 26027.3 -03440.1 -07.5292 26253.6
 09 05 2013  07 33  -21.0264 26027.2 -03440.0 -07.5292 26253.5
 09 05 2013  07 34  -21.0264 26027.3 -03440.1 -07.5293 26253.7
 09 05 2013  07 35  -21.0265 26027.1 -03440.0 -07.5292 26253.4
 09 05 2013  07 36  -21.0266 26027.3 -03440.2 -07.5294 26253.7
 09 05 2013  07 37  -21.0267 26027.1 -03440.1 -07.5294 26253.5
 09 05 2013  07 38  -21.0268 26027.2 -03440.2 -07.5295 26253.6
 09 05 2013  07 39  -21.0267 26027.0 -03440.0 -07.5292 26253.3
 09 05 2013  07 40  -21.0266 26027.1 -03440.1 -07.5293 26253.4
 09 05 2013  07 41  -21.0265 26027.3 -03440.1 -07.5294 26253.6
 09 05 2013  07 42  -21.0268 26027.5 -03440.3 -07.5297 26253.9
 09 05 2013  07 43  -21.0268 26027.9 -03440.5 -07.5300 26254.3
 09 05 2013  07 44  -21.0271 26028.3 -03440.8 -07.5305 26254.7
 09 05 2013  07 45  -21.0276 26028.4 -03440.9 -07.5307 26254.9
 09 05 2013  07 46  -21.0281 26028.3 -03440.8 -07.5305 26254.7
 09 05 2013  07 47  -21.0284 26028.6 -03440.9 -07.5307 26255.0
 09 05 2013  07 48  -21.0288 26029.1 -03441.2 -07.5310 26255.6
 09 05 2013  07 49  -21.0285 26029.0 -03441.1 -07.5310 26255.5
 09 05 2013  07 50  -21.0275 26028.8 -03440.9 -07.5305 26255.3
 09 05 2013  07 51  -21.0263 26028.8 -03440.7 -07.5302 26255.2
 09 05 2013  07 52  -21.0249 26028.8 -03440.7 -07.5301 26255.2
 09 05 2013  07 53  -21.0241 26028.9 -03440.7 -07.5301 26255.3
 09 05 2013  07 54  -21.0232 26028.8 -03440.7 -07.5301 26255.2
 09 05 2013  07 55  -21.0222 26028.8 -03440.7 -07.5301 26255.2
 09 05 2013  07 56  -21.0215 26028.8 -03440.7 -07.5302 26255.2
 09 05 2013  07 57  -21.0209 26028.4 -03440.6 -07.5301 26254.9
 09 05 2013  07 58  -21.0204 26028.7 -03440.7 -07.5302 26255.1
 09 05 2013  07 59  -21.0199 26028.6 -03440.8 -07.5303 26255.1
 09 05 2013  08 00  -21.0196 26028.8 -03440.8 -07.5304 26255.3
 09 05 2013  08 01  -21.0194 26028.9 -03441.0 -07.5308 26255.4
 09 05 2013  08 02  -21.0192 26029.1 -03441.1 -07.5309 26255.5
 09 05 2013  08 03  -21.0191 26029.0 -03441.1 -07.5310 26255.5
 09 05 2013  08 04  -21.0186 26029.0 -03441.1 -07.5310 26255.5
 09 05 2013  08 05  -21.0186 26029.1 -03441.1 -07.5310 26255.5
 09 05 2013  08 06  -21.0183 26029.0 -03441.1 -07.5310 26255.5
 09 05 2013  08 07  -21.0182 26029.0 -03441.1 -07.5310 26255.5
 09 05 2013  08 08  -21.0179 26029.1 -03441.2 -07.5312 26255.5
 09 05 2013  08 09  -21.0177 26029.0 -03441.1 -07.5310 26255.5
 09 05 2013  08 10  -21.0178 26029.3 -03441.3 -07.5313 26255.8
 09 05 2013  08 11  -21.0179 26029.4 -03441.3 -07.5313 26255.9
 09 05 2013  08 12  -21.0183 26029.7 -03441.6 -07.5318 26256.3
 09 05 2013  08 13  -21.0179 26029.8 -03441.5 -07.5317 26256.3
 09 05 2013  08 14  -21.0177 26029.8 -03441.6 -07.5317 26256.4
 09 05 2013  08 15  -21.0176 26029.8 -03441.6 -07.5318 26256.4
 09 05 2013  08 16  -21.0180 26030.1 -03441.8 -07.5321 26256.6
 09 05 2013  08 17  -21.0182 26030.2 -03441.9 -07.5324 26256.8
 09 05 2013  08 18  -21.0180 26030.0 -03441.8 -07.5322 26256.6
 09 05 2013  08 19  -21.0177 26029.8 -03441.6 -07.5317 26256.3
 09 05 2013  08 20  -21.0175 26029.9 -03441.5 -07.5316 26256.4
 09 05 2013  08 21  -21.0176 26030.0 -03441.6 -07.5317 26256.6
 09 05 2013  08 22  -21.0175 26030.1 -03441.6 -07.5318 26256.6
 09 05 2013  08 23  -21.0175 26030.0 -03441.6 -07.5317 26256.6
 09 05 2013  08 24  -21.0174 26029.9 -03441.5 -07.5315 26256.4
 09 05 2013  08 25  -21.0172 26029.7 -03441.3 -07.5313 26256.2
 09 05 2013  08 26  -21.0172 26029.7 -03441.3 -07.5313 26256.2
 09 05 2013  08 27  -21.0172 26029.6 -03441.3 -07.5311 26256.1
 09 05 2013  08 28  -21.0174 26029.8 -03441.4 -07.5313 26256.3
 09 05 2013  08 29  -21.0176 26030.0 -03441.5 -07.5316 26256.6
 09 05 2013  08 30  -21.0178 26030.2 -03441.7 -07.5318 26256.8
 09 05 2013  08 31  -21.0175 26030.2 -03441.6 -07.5317 26256.7
 09 05 2013  08 32  -21.0171 26030.2 -03441.5 -07.5315 26256.7
 09 05 2013  08 33  -21.0167 26030.3 -03441.5 -07.5314 26256.8
 09 05 2013  08 34  -21.0162 26030.4 -03441.5 -07.5314 26256.9
 09 05 2013  08 35  -21.0159 26030.4 -03441.4 -07.5313 26256.9
 09 05 2013  08 36  -21.0154 26030.4 -03441.5 -07.5314 26256.9
 09 05 2013  08 37  -21.0148 26030.4 -03441.5 -07.5314 26257.0
 09 05 2013  08 38  -21.0142 26030.5 -03441.5 -07.5314 26257.0
 09 05 2013  08 39  -21.0139 26030.4 -03441.5 -07.5315 26256.9
 09 05 2013  08 40  -21.0136 26030.5 -03441.6 -07.5316 26257.0
 09 05 2013  08 41  -21.0132 26030.5 -03441.6 -07.5316 26257.1
 09 05 2013  08 42  -21.0127 26030.3 -03441.5 -07.5315 26256.8
 09 05 2013  08 43  -21.0125 26030.2 -03441.5 -07.5315 26256.7
 09 05 2013  08 44  -21.0125 26030.1 -03441.6 -07.5317 26256.7
 09 05 2013  08 45  -21.0128 26030.2 -03441.7 -07.5318 26256.8
 09 05 2013  08 46  -21.0131 26030.4 -03441.9 -07.5322 26257.0
 09 05 2013  08 47  -21.0135 26030.6 -03442.0 -07.5324 26257.2
 09 05 2013  08 48  -21.0138 26030.8 -03442.2 -07.5328 26257.4
 09 05 2013  08 49  -21.0141 26031.2 -03442.3 -07.5330 26257.8
 09 05 2013  08 50  -21.0142 26031.2 -03442.4 -07.5331 26257.9
 09 05 2013  08 51  -21.0144 26031.3 -03442.4 -07.5331 26257.9
 09 05 2013  08 52  -21.0146 26031.3 -03442.4 -07.5331 26257.9
 09 05 2013  08 53  -21.0144 26031.4 -03442.3 -07.5329 26258.0
 09 05 2013  08 54  -21.0143 26031.3 -03442.3 -07.5329 26257.9
 09 05 2013  08 55  -21.0144 26031.3 -03442.3 -07.5328 26257.9
 09 05 2013  08 56  -21.0143 26031.5 -03442.2 -07.5327 26258.1
 09 05 2013  08 57  -21.0139 26031.3 -03442.2 -07.5326 26257.9
 09 05 2013  08 58  -21.0136 26031.3 -03442.2 -07.5327 26257.9
 09 05 2013  08 59  -21.0135 26031.3 -03442.2 -07.5326 26257.8
 09 05 2013  09 00  -21.0132 26031.2 -03442.1 -07.5325 26257.8
 09 05 2013  09 01  -21.0134 26031.1 -03442.2 -07.5326 26257.7
 09 05 2013  09 02  -21.0129 26031.2 -03442.2 -07.5328 26257.8
 09 05 2013  09 03  -21.0128 26031.2 -03442.3 -07.5329 26257.8
 09 05 2013  09 04  -21.0125 26031.3 -03442.3 -07.5330 26257.9
 09 05 2013  09 05  -21.0125 26031.3 -03442.5 -07.5332 26258.0
 09 05 2013  09 06  -21.0119 26031.4 -03442.6 -07.5334 26258.1
 09 05 2013  09 07  -21.0117 26031.6 -03442.7 -07.5336 26258.2
 09 05 2013  09 08  -21.0118 26031.7 -03442.8 -07.5339 26258.4
 09 05 2013  09 09  -21.0115 26031.9 -03443.0 -07.5342 26258.6
 09 05 2013  09 10  -21.0113 26032.1 -03443.1 -07.5344 26258.8
 09 05 2013  09 11  -21.0113 26032.2 -03443.3 -07.5347 26258.9
 09 05 2013  09 12  -21.0116 26032.4 -03443.5 -07.5351 26259.2
 09 05 2013  09 13  -21.0117 26032.3 -03443.5 -07.5353 26259.1
 09 05 2013  09 14  -21.0115 26032.5 -03443.7 -07.5355 26259.3
 09 05 2013  09 15  -21.0114 26032.6 -03443.7 -07.5356 26259.4
 09 05 2013  09 16  -21.0118 26032.5 -03443.7 -07.5357 26259.3
 09 05 2013  09 17  -21.0118 26032.7 -03443.9 -07.5359 26259.5
 09 05 2013  09 18  -21.0117 26032.6 -03443.9 -07.5359 26259.5
 09 05 2013  09 19  -21.0116 26032.9 -03444.1 -07.5363 26259.7
 09 05 2013  09 20  -21.0113 26033.1 -03444.2 -07.5365 26259.9
 09 05 2013  09 21  -21.0114 26033.3 -03444.4 -07.5369 26260.2
 09 05 2013  09 22  -21.0111 26033.5 -03444.6 -07.5371 26260.4
 09 05 2013  09 23  -21.0113 26033.6 -03444.7 -07.5373 26260.5
 09 05 2013  09 24  -21.0115 26033.7 -03444.8 -07.5376 26260.7
 09 05 2013  09 25  -21.0116 26033.9 -03444.9 -07.5378 26260.8
 09 05 2013  09 26  -21.0118 26033.9 -03445.0 -07.5380 26260.9
 09 05 2013  09 27  -21.0119 26034.0 -03445.1 -07.5382 26261.0
 09 05 2013  09 28  -21.0120 26034.1 -03445.2 -07.5384 26261.0
 09 05 2013  09 29  -21.0121 26034.1 -03445.3 -07.5385 26261.0
 09 05 2013  09 30  -21.0121 26034.2 -03445.4 -07.5387 26261.2
 09 05 2013  09 31  -21.0124 26034.2 -03445.4 -07.5389 26261.2
 09 05 2013  09 32  -21.0128 26034.0 -03445.4 -07.5389 26261.0
 09 05 2013  09 33  -21.0132 26034.1 -03445.5 -07.5390 26261.1
 09 05 2013  09 34  -21.0139 26034.1 -03445.5 -07.5390 26261.1
 09 05 2013  09 35  -21.0147 26034.1 -03445.6 -07.5392 26261.1
 09 05 2013  09 36  -21.0149 26034.0 -03445.6 -07.5393 26261.1
 09 05 2013  09 37  -21.0148 26034.0 -03445.6 -07.5393 26261.0
 09 05 2013  09 38  -21.0149 26033.9 -03445.7 -07.5394 26261.0
 09 05 2013  09 39  -21.0153 26033.9 -03445.7 -07.5395 26260.9
 09 05 2013  09 40  -21.0157 26033.8 -03445.8 -07.5397 26260.9
 09 05 2013  09 41  -21.0159 26033.8 -03445.8 -07.5398 26260.9
 09 05 2013  09 42  -21.0161 26034.0 -03445.9 -07.5400 26261.0
 09 05 2013  09 43  -21.0165 26034.1 -03446.1 -07.5402 26261.2
 09 05 2013  09 44  -21.0171 26034.3 -03446.2 -07.5405 26261.4
 09 05 2013  09 45  -21.0179 26034.3 -03446.3 -07.5407 26261.4
 09 05 2013  09 46  -21.0183 26034.6 -03446.4 -07.5409 26261.7
 09 05 2013  09 47  -21.0185 26034.6 -03446.4 -07.5409 26261.8
 09 05 2013  09 48  -21.0187 26034.7 -03446.5 -07.5409 26261.9
 09 05 2013  09 49  -21.0193 26034.8 -03446.4 -07.5409 26261.9
 09 05 2013  09 50  -21.0200 26035.1 -03446.6 -07.5410 26262.2
 09 05 2013  09 51  -21.0202 26035.1 -03446.5 -07.5410 26262.3
 09 05 2013  09 52  -21.0206 26035.2 -03446.5 -07.5409 26262.3
 09 05 2013  09 53  -21.0211 26035.1 -03446.4 -07.5407 26262.2
 09 05 2013  09 54  -21.0219 26035.0 -03446.3 -07.5405 26262.1
 09 05 2013  09 55  -21.0228 26035.2 -03446.3 -07.5405 26262.3
 09 05 2013  09 56  -21.0234 26035.3 -03446.3 -07.5405 26262.4
 09 05 2013  09 57  -21.0241 26035.5 -03446.4 -07.5406 26262.6
 09 05 2013  09 58  -21.0249 26035.6 -03446.5 -07.5407 26262.7
 09 05 2013  09 59  -21.0254 26035.8 -03446.5 -07.5407 26262.9
 09 05 2013  10 00  -21.0265 26035.9 -03446.5 -07.5408 26263.0
 09 05 2013  10 01  -21.0272 26036.3 -03446.6 -07.5409 26263.4
 09 05 2013  10 02  -21.0282 26036.5 -03446.7 -07.5408 26263.6
 09 05 2013  10 03  -21.0292 26036.5 -03446.5 -07.5406 26263.6
 09 05 2013  10 04  -21.0298 26036.7 -03446.4 -07.5403 26263.8
 09 05 2013  10 05  -21.0306 26037.0 -03446.4 -07.5401 26264.1
 09 05 2013  10 06  -21.0314 26037.2 -03446.3 -07.5399 26264.3
 09 05 2013  10 07  -21.0322 26037.4 -03446.3 -07.5397 26264.5
 09 05 2013  10 08  -21.0320 26037.9 -03446.2 -07.5395 26265.0
 09 05 2013  10 09  -21.0327 26038.0 -03446.1 -07.5392 26265.1
 09 05 2013  10 10  -21.0336 26038.0 -03445.9 -07.5388 26265.0
 09 05 2013  10 11  -21.0345 26038.1 -03445.8 -07.5385 26265.1
 09 05 2013  10 12  -21.0349 26038.5 -03445.7 -07.5383 26265.5
 09 05 2013  10 13  -21.0360 26038.8 -03445.7 -07.5381 26265.8
 09 05 2013  10 14  -21.0365 26039.2 -03445.6 -07.5379 26266.2
 09 05 2013  10 15  -21.0373 26039.3 -03445.5 -07.5375 26266.3
 09 05 2013  10 16  -21.0374 26039.8 -03445.4 -07.5372 26266.7
 09 05 2013  10 17  -21.0384 26040.2 -03445.4 -07.5370 26267.1
 09 05 2013  10 18  -21.0391 26040.7 -03445.4 -07.5368 26267.6
 09 05 2013  10 19  -21.0394 26041.2 -03445.3 -07.5366 26268.1
 09 05 2013  10 20  -21.0397 26041.6 -03445.2 -07.5362 26268.5
 09 05 2013  10 21  -21.0400 26042.0 -03445.1 -07.5358 26268.9
 09 05 2013  10 22  -21.0407 26042.3 -03444.9 -07.5354 26269.1
 09 05 2013  10 23  -21.0415 26042.4 -03444.7 -07.5348 26269.2
 09 05 2013  10 24  -21.0417 26042.6 -03444.4 -07.5343 26269.4
 09 05 2013  10 25  -21.0422 26042.8 -03444.3 -07.5339 26269.5
 09 05 2013  10 26  -21.0429 26043.1 -03444.2 -07.5337 26269.8
 09 05 2013  10 27  -21.0430 26043.4 -03444.1 -07.5333 26270.2
 09 05 2013  10 28  -21.0437 26043.8 -03444.0 -07.5329 26270.5
 09 05 2013  10 29  -21.0444 26044.0 -03443.8 -07.5325 26270.7
 09 05 2013  10 30  -21.0449 26044.4 -03443.7 -07.5322 26271.1
 09 05 2013  10 31  -21.0450 26044.9 -03443.6 -07.5318 26271.6
 09 05 2013  10 32  -21.0448 26045.3 -03443.4 -07.5314 26272.0
 09 05 2013  10 33  -21.0450 26045.6 -03443.2 -07.5308 26272.2
 09 05 2013  10 34  -21.0461 26045.9 -03443.1 -07.5304 26272.5
 09 05 2013  10 35  -21.0476 26046.0 -03442.8 -07.5298 26272.6
 09 05 2013  10 36  -21.0482 26046.0 -03442.5 -07.5291 26272.5
 09 05 2013  10 37  -21.0491 26046.0 -03442.2 -07.5284 26272.5
 09 05 2013  10 38  -21.0498 26046.2 -03442.0 -07.5280 26272.6
 09 05 2013  10 39  -21.0500 26046.7 -03442.0 -07.5278 26273.2
 09 05 2013  10 40  -21.0506 26047.4 -03442.1 -07.5278 26273.8
 09 05 2013  10 41  -21.0518 26048.0 -03442.2 -07.5279 26274.5
 09 05 2013  10 42  -21.0521 26048.6 -03442.2 -07.5277 26275.1
 09 05 2013  10 43  -21.0518 26049.4 -03442.1 -07.5273 26275.8
 09 05 2013  10 44  -21.0515 26049.4 -03441.7 -07.5264 26275.8
 09 05 2013  10 45  -21.0536 26048.6 -03441.0 -07.5251 26274.9
 09 05 2013  10 46  -21.0562 26048.3 -03440.6 -07.5244 26274.5
 09 05 2013  10 47  -21.0577 26048.9 -03440.7 -07.5243 26275.2
 09 05 2013  10 48  -21.0581 26049.6 -03440.7 -07.5241 26275.8
 09 05 2013  10 49  -21.0585 26049.9 -03440.5 -07.5236 26276.1
 09 05 2013  10 50  -21.0590 26050.0 -03440.2 -07.5230 26276.1
 09 05 2013  10 51  -21.0597 26050.2 -03440.0 -07.5225 26276.3
 09 05 2013  10 52  -21.0607 26050.5 -03439.9 -07.5221 26276.6
 09 05 2013  10 53  -21.0617 26050.5 -03439.6 -07.5215 26276.6
 09 05 2013  10 54  -21.0629 26050.4 -03439.3 -07.5209 26276.5
 09 05 2013  10 55  -21.0637 26050.6 -03439.1 -07.5204 26276.6
 09 05 2013  10 56  -21.0642 26051.2 -03439.0 -07.5201 26277.2
 09 05 2013  10 57  -21.0648 26051.6 -03438.9 -07.5198 26277.6
 09 05 2013  10 58  -21.0653 26051.8 -03438.8 -07.5194 26277.8
 09 05 2013  10 59  -21.0654 26052.1 -03438.6 -07.5189 26278.1
 09 05 2013  11 00  -21.0655 26052.4 -03438.4 -07.5185 26278.3
 09 05 2013  11 01  -21.0658 26052.8 -03438.3 -07.5180 26278.7
 09 05 2013  11 02  -21.0664 26053.2 -03438.1 -07.5176 26279.1
 09 05 2013  11 03  -21.0671 26053.5 -03438.0 -07.5172 26279.4
 09 05 2013  11 04  -21.0677 26053.6 -03437.7 -07.5165 26279.4
 09 05 2013  11 05  -21.0681 26053.7 -03437.4 -07.5158 26279.5
 09 05 2013  11 06  -21.0686 26054.2 -03437.3 -07.5155 26280.0
 09 05 2013  11 07  -21.0687 26055.0 -03437.3 -07.5152 26280.7
 09 05 2013  11 08  -21.0686 26055.8 -03437.2 -07.5148 26281.5
 09 05 2013  11 09  -21.0688 26056.3 -03437.0 -07.5144 26282.0
 09 05 2013  11 10  -21.0690 26056.9 -03436.9 -07.5138 26282.6
 09 05 2013  11 11  -21.0692 26057.5 -03436.7 -07.5134 26283.1
 09 05 2013  11 12  -21.0694 26057.9 -03436.5 -07.5128 26283.5
 09 05 2013  11 13  -21.0701 26058.3 -03436.3 -07.5122 26283.9
 09 05 2013  11 14  -21.0709 26058.7 -03436.1 -07.5116 26284.3
 09 05 2013  11 15  -21.0714 26059.4 -03435.9 -07.5111 26284.9
 09 05 2013  11 16  -21.0716 26059.7 -03435.6 -07.5103 26285.2
 09 05 2013  11 17  -21.0718 26059.7 -03435.2 -07.5094 26285.2
 09 05 2013  11 18  -21.0724 26059.8 -03434.8 -07.5086 26285.2
 09 05 2013  11 19  -21.0723 26060.4 -03434.6 -07.5080 26285.7
 09 05 2013  11 20  -21.0720 26061.1 -03434.5 -07.5076 26286.5
 09 05 2013  11 21  -21.0717 26061.8 -03434.4 -07.5071 26287.1
 09 05 2013  11 22  -21.0717 26062.2 -03434.1 -07.5064 26287.5
 09 05 2013  11 23  -21.0717 26062.8 -03434.0 -07.5059 26288.0
 09 05 2013  11 24  -21.0718 26063.1 -03433.7 -07.5053 26288.3
 09 05 2013  11 25  -21.0716 26063.7 -03433.6 -07.5048 26288.9
 09 05 2013  11 26  -21.0719 26064.4 -03433.5 -07.5044 26289.6
 09 05 2013  11 27  -21.0719 26065.1 -03433.4 -07.5040 26290.2
 09 05 2013  11 28  -21.0723 26065.7 -03433.2 -07.5035 26290.9
 09 05 2013  11 29  -21.0727 26066.1 -03433.0 -07.5029 26291.2
 09 05 2013  11 30  -21.0735 26066.2 -03432.7 -07.5021 26291.2
 09 05 2013  11 31  -21.0737 26066.3 -03432.3 -07.5014 26291.3
 09 05 2013  11 32  -21.0739 26066.4 -03432.1 -07.5008 26291.4
 09 05 2013  11 33  -21.0740 26067.1 -03432.1 -07.5005 26292.1
 09 05 2013  11 34  -21.0737 26068.0 -03432.1 -07.5004 26293.0
 09 05 2013  11 35  -21.0736 26068.6 -03432.1 -07.5001 26293.6
 09 05 2013  11 36  -21.0739 26069.1 -03431.9 -07.4997 26294.1
 09 05 2013  11 37  -21.0748 26069.4 -03431.8 -07.4993 26294.4
 09 05 2013  11 38  -21.0756 26069.7 -03431.6 -07.4988 26294.5
 09 05 2013  11 39  -21.0761 26069.9 -03431.4 -07.4984 26294.8
 09 05 2013  11 40  -21.0761 26070.0 -03431.2 -07.4977 26294.9
 09 05 2013  11 41  -21.0755 26070.3 -03431.0 -07.4973 26295.1
 09 05 2013  11 42  -21.0750 26070.9 -03430.9 -07.4970 26295.6
 09 05 2013  11 43  -21.0745 26071.2 -03430.8 -07.4967 26296.0
 09 05 2013  11 44  -21.0739 26071.5 -03430.7 -07.4963 26296.3
 09 05 2013  11 45  -21.0736 26072.1 -03430.7 -07.4963 26296.8
 09 05 2013  11 46  -21.0737 26072.5 -03430.7 -07.4961 26297.3
 09 05 2013  11 47  -21.0743 26072.6 -03430.6 -07.4958 26297.4
 09 05 2013  11 48  -21.0749 26072.4 -03430.3 -07.4953 26297.1
 09 05 2013  11 49  -21.0752 26072.4 -03430.2 -07.4950 26297.1
 09 05 2013  11 50  -21.0754 26072.9 -03430.3 -07.4950 26297.6
 09 05 2013  11 51  -21.0754 26073.0 -03430.1 -07.4947 26297.7
 09 05 2013  11 52  -21.0752 26073.3 -03430.1 -07.4945 26297.9
 09 05 2013  11 53  -21.0757 26073.7 -03430.2 -07.4946 26298.4
 09 05 2013  11 54  -21.0762 26074.0 -03430.1 -07.4944 26298.7
 09 05 2013  11 55  -21.0769 26074.4 -03430.1 -07.4943 26299.0
 09 05 2013  11 56  -21.0776 26074.5 -03430.1 -07.4941 26299.1
 09 05 2013  11 57  -21.0782 26074.4 -03429.9 -07.4937 26299.0
 09 05 2013  11 58  -21.0787 26074.8 -03429.9 -07.4937 26299.4
 09 05 2013  11 59  -21.0794 26075.2 -03430.0 -07.4939 26299.9
 09 05 2013  12 00  -21.0800 26075.9 -03430.1 -07.4939 26300.6
 09 05 2013  12 01  -21.0804 26076.6 -03430.1 -07.4937 26301.2
 09 05 2013  12 02  -21.0807 26076.7 -03429.9 -07.4932 26301.3
 09 05 2013  12 03  -21.0812 26076.6 -03429.6 -07.4924 26301.2
 09 05 2013  12 04  -21.0850 26076.4 -03429.0 -07.4913 26300.9
 09 05 2013  12 05  -21.0861 26076.7 -03429.0 -07.4911 26301.2
 09 05 2013  12 06  -21.0877 26077.1 -03428.9 -07.4910 26301.6
 09 05 2013  12 07  -21.0874 26077.5 -03428.9 -07.4907 26302.0
 09 05 2013  12 08  -21.0875 26077.6 -03428.7 -07.4903 26302.0
 09 05 2013  12 09  -21.0879 26077.7 -03428.5 -07.4898 26302.1
 09 05 2013  12 10  -21.0885 26078.0 -03428.4 -07.4895 26302.4
 09 05 2013  12 11  -21.0893 26078.4 -03428.3 -07.4892 26302.8
 09 05 2013  12 12  -21.0901 26078.8 -03428.2 -07.4888 26303.2
 09 05 2013  12 13  -21.0907 26079.3 -03428.1 -07.4885 26303.7
 09 05 2013  12 14  -21.0912 26079.4 -03427.9 -07.4881 26303.7
 09 05 2013  12 15  -21.0918 26079.2 -03427.6 -07.4874 26303.4
 09 05 2013  12 16  -21.0920 26079.1 -03427.2 -07.4867 26303.3
 09 05 2013  12 17  -21.0919 26079.2 -03427.0 -07.4862 26303.4
 09 05 2013  12 18  -21.0919 26079.3 -03426.8 -07.4857 26303.4
 09 05 2013  12 19  -21.0919 26079.2 -03426.6 -07.4853 26303.3
 09 05 2013  12 20  -21.0921 26079.1 -03426.4 -07.4849 26303.2
 09 05 2013  12 21  -21.0923 26079.1 -03426.2 -07.4845 26303.2
 09 05 2013  12 22  -21.0924 26079.4 -03426.2 -07.4843 26303.5
 09 05 2013  12 23  -21.0928 26079.6 -03426.1 -07.4841 26303.7
 09 05 2013  12 24  -21.0930 26080.0 -03426.0 -07.4839 26304.0
 09 05 2013  12 25  -21.0931 26080.4 -03426.0 -07.4836 26304.5
 09 05 2013  12 26  -21.0929 26080.9 -03425.9 -07.4832 26304.9
 09 05 2013  12 27  -21.0926 26081.6 -03425.8 -07.4830 26305.6
 09 05 2013  12 28  -21.0920 26082.2 -03425.7 -07.4824 26306.2
 09 05 2013  12 29  -21.0914 26082.4 -03425.4 -07.4819 26306.4
 09 05 2013  12 30  -21.0909 26082.3 -03425.1 -07.4813 26306.2
 09 05 2013  12 31  -21.0903 26082.3 -03424.9 -07.4808 26306.2
 09 05 2013  12 32  -21.0895 26082.8 -03425.0 -07.4809 26306.7
 09 05 2013  12 33  -21.0884 26084.0 -03425.3 -07.4811 26307.9
 09 05 2013  12 34  -21.0886 26084.7 -03425.4 -07.4812 26308.6
 09 05 2013  12 35  -21.0890 26085.4 -03425.5 -07.4811 26309.3
 09 05 2013  12 36  -21.0895 26085.8 -03425.3 -07.4807 26309.7
 09 05 2013  12 37  -21.0898 26086.1 -03425.2 -07.4803 26310.0
 09 05 2013  12 38  -21.0903 26086.4 -03425.0 -07.4797 26310.2
 09 05 2013  12 39  -21.0903 26086.3 -03424.6 -07.4790 26310.1
 09 05 2013  12 40  -21.0903 26086.1 -03424.3 -07.4783 26309.9
 09 05 2013  12 41  -21.0904 26086.3 -03424.2 -07.4781 26310.1
 09 05 2013  12 42  -21.0908 26086.6 -03424.1 -07.4779 26310.4
 09 05 2013  12 43  -21.0910 26087.0 -03424.1 -07.4776 26310.7
 09 05 2013  12 44  -21.0900 26087.5 -03424.0 -07.4773 26311.2
 09 05 2013  12 45  -21.0874 26087.8 -03424.1 -07.4775 26311.6
 09 05 2013  12 46  -21.0874 26088.1 -03424.0 -07.4771 26311.8
 09 05 2013  12 47  -21.0873 26088.4 -03423.8 -07.4768 26312.1
 09 05 2013  12 48  -21.0870 26088.5 -03423.6 -07.4762 26312.2
 09 05 2013  12 49  -21.0868 26088.7 -03423.4 -07.4757 26312.4
 09 05 2013  12 50  -21.0865 26089.3 -03423.3 -07.4754 26312.9
 09 05 2013  12 51  -21.0862 26089.8 -03423.3 -07.4752 26313.4
 09 05 2013  12 52  -21.0858 26090.2 -03423.2 -07.4748 26313.8
 09 05 2013  12 53  -21.0858 26090.5 -03423.0 -07.4743 26314.0
 09 05 2013  12 54  -21.0858 26090.7 -03422.8 -07.4739 26314.2
 09 05 2013  12 55  -21.0860 26090.9 -03422.7 -07.4736 26314.4
 09 05 2013  12 56  -21.0864 26091.0 -03422.5 -07.4732 26314.5
 09 05 2013  12 57  -21.0869 26091.2 -03422.4 -07.4728 26314.7
 09 05 2013  12 58  -21.0868 26091.5 -03422.3 -07.4725 26315.0
 09 05 2013  12 59  -21.0867 26092.0 -03422.3 -07.4723 26315.5
 09 05 2013  13 00  -21.0867 26092.5 -03422.3 -07.4722 26316.0
 09 05 2013  13 01  -21.0865 26092.9 -03422.2 -07.4719 26316.3
 09 05 2013  13 02  -21.0863 26093.0 -03421.9 -07.4714 26316.4
 09 05 2013  13 03  -21.0861 26093.0 -03421.8 -07.4710 26316.5
 09 05 2013  13 04  -21.0860 26093.1 -03421.6 -07.4706 26316.5
 09 05 2013  13 05  -21.0857 26093.1 -03421.4 -07.4703 26316.4
 09 05 2013  13 06  -21.0856 26093.4 -03421.5 -07.4703 26316.8
 09 05 2013  13 07  -21.0857 26093.8 -03421.6 -07.4703 26317.2
 09 05 2013  13 08  -21.0861 26094.1 -03421.5 -07.4702 26317.4
 09 05 2013  13 09  -21.0867 26094.2 -03421.5 -07.4700 26317.6
 09 05 2013  13 10  -21.0874 26094.6 -03421.4 -07.4698 26317.9
 09 05 2013  13 11  -21.0880 26094.9 -03421.4 -07.4697 26318.2
 09 05 2013  13 12  -21.0883 26095.1 -03421.4 -07.4696 26318.4
 09 05 2013  13 13  -21.0892 26095.0 -03421.2 -07.4693 26318.3
 09 05 2013  13 14  -21.0902 26095.2 -03421.2 -07.4690 26318.5
 09 05 2013  13 15  -21.0910 26095.2 -03421.0 -07.4687 26318.5
 09 05 2013  13 16  -21.0916 26095.1 -03420.7 -07.4681 26318.4
 09 05 2013  13 17  -21.0919 26095.3 -03420.5 -07.4677 26318.5
 09 05 2013  13 18  -21.0920 26095.0 -03420.3 -07.4672 26318.2
 09 05 2013  13 19  -21.0922 26094.9 -03420.1 -07.4668 26318.1
 09 05 2013  13 20  -21.0923 26094.9 -03419.9 -07.4664 26318.0
 09 05 2013  13 21  -21.0922 26095.1 -03419.8 -07.4661 26318.2
 09 05 2013  13 22  -21.0922 26095.4 -03419.8 -07.4660 26318.5
 09 05 2013  13 23  -21.0925 26095.4 -03419.6 -07.4657 26318.5
 09 05 2013  13 24  -21.0927 26095.4 -03419.5 -07.4653 26318.5
 09 05 2013  13 25  -21.0930 26095.5 -03419.4 -07.4651 26318.6
 09 05 2013  13 26  -21.0934 26095.3 -03419.2 -07.4647 26318.4
 09 05 2013  13 27  -21.0934 26094.9 -03418.9 -07.4642 26317.9
 09 05 2013  13 28  -21.0932 26094.6 -03418.7 -07.4639 26317.6
 09 05 2013  13 29  -21.0933 26094.7 -03418.7 -07.4638 26317.7
 09 05 2013  13 30  -21.0935 26094.8 -03418.7 -07.4639 26317.8
 09 05 2013  13 31  -21.0937 26094.9 -03418.7 -07.4638 26317.9
 09 05 2013  13 32  -21.0941 26095.0 -03418.7 -07.4639 26318.0
 09 05 2013  13 33  -21.0946 26094.8 -03418.6 -07.4637 26317.8
 09 05 2013  13 34  -21.0946 26094.8 -03418.6 -07.4636 26317.8
 09 05 2013  13 35  -21.0947 26095.2 -03418.7 -07.4637 26318.1
 09 05 2013  13 36  -21.0948 26095.6 -03418.8 -07.4639 26318.6
 09 05 2013  13 37  -21.0949 26096.2 -03419.0 -07.4642 26319.2
 09 05 2013  13 38  -21.0952 26096.5 -03419.1 -07.4643 26319.6
 09 05 2013  13 39  -21.0955 26096.6 -03419.0 -07.4641 26319.6
 09 05 2013  13 40  -21.0954 26096.4 -03418.9 -07.4638 26319.4
 09 05 2013  13 41  -21.0956 26096.6 -03419.0 -07.4640 26319.6
 09 05 2013  13 42  -21.0959 26096.4 -03418.9 -07.4639 26319.4
 09 05 2013  13 43  -21.0959 26096.6 -03419.0 -07.4641 26319.6
 09 05 2013  13 44  -21.0964 26097.1 -03419.3 -07.4645 26320.1
 09 05 2013  13 45  -21.0967 26097.1 -03419.4 -07.4647 26320.2
 09 05 2013  13 46  -21.0969 26097.2 -03419.5 -07.4649 26320.3
 09 05 2013  13 47  -21.0975 26097.0 -03419.5 -07.4648 26320.1
 09 05 2013  13 48  -21.0977 26096.8 -03419.4 -07.4648 26319.8
 09 05 2013  13 49  -21.0983 26096.5 -03419.4 -07.4649 26319.6
 09 05 2013  13 50  -21.0988 26096.1 -03419.3 -07.4649 26319.1
 09 05 2013  13 51  -21.0995 26095.8 -03419.4 -07.4650 26318.8
 09 05 2013  13 52  -21.1002 26095.4 -03419.4 -07.4651 26318.5
 09 05 2013  13 53  -21.1006 26095.4 -03419.6 -07.4655 26318.5
 09 05 2013  13 54  -21.1011 26095.6 -03419.8 -07.4660 26318.7
 09 05 2013  13 55  -21.1016 26095.5 -03419.9 -07.4661 26318.6
 09 05 2013  13 56  -21.1019 26095.4 -03419.9 -07.4663 26318.5
 09 05 2013  13 57  -21.1020 26095.5 -03420.1 -07.4667 26318.7
 09 05 2013  13 58  -21.1028 26095.4 -03420.2 -07.4669 26318.6
 09 05 2013  13 59  -21.1035 26095.5 -03420.3 -07.4670 26318.7
 09 05 2013  14 00  -21.1039 26095.4 -03420.3 -07.4670 26318.6
 09 05 2013  14 01  -21.1043 26095.2 -03420.2 -07.4670 26318.4
 09 05 2013  14 02  -21.1044 26094.6 -03420.0 -07.4668 26317.8
 09 05 2013  14 03  -21.1044 26094.2 -03420.0 -07.4667 26317.3
 09 05 2013  14 04  -21.1046 26094.0 -03420.0 -07.4669 26317.1
 09 05 2013  14 05  -21.1047 26094.0 -03420.2 -07.4672 26317.2
 09 05 2013  14 06  -21.1049 26094.1 -03420.3 -07.4675 26317.3
 09 05 2013  14 07  -21.1052 26094.0 -03420.4 -07.4676 26317.2
 09 05 2013  14 08  -21.1050 26094.1 -03420.5 -07.4678 26317.3
 09 05 2013  14 09  -21.1054 26094.2 -03420.6 -07.4681 26317.5
 09 05 2013  14 10  -21.1057 26094.0 -03420.5 -07.4680 26317.3
 09 05 2013  14 11  -21.1058 26093.7 -03420.4 -07.4679 26316.9
 09 05 2013  14 12  -21.1055 26093.3 -03420.3 -07.4678 26316.5
 09 05 2013  14 13  -21.1054 26092.8 -03420.3 -07.4678 26316.0
 09 05 2013  14 14  -21.1055 26092.5 -03420.3 -07.4680 26315.7
 09 05 2013  14 15  -21.1054 26092.5 -03420.5 -07.4683 26315.7
 09 05 2013  14 16  -21.1053 26092.3 -03420.6 -07.4686 26315.6
 09 05 2013  14 17  -21.1053 26092.3 -03420.7 -07.4689 26315.5
 09 05 2013  14 18  -21.1054 26092.0 -03420.8 -07.4691 26315.3
 09 05 2013  14 19  -21.1053 26092.0 -03420.9 -07.4694 26315.3
 09 05 2013  14 20  -21.1052 26091.7 -03421.0 -07.4696 26315.0
 09 05 2013  14 21  -21.1048 26091.4 -03421.1 -07.4699 26314.7
 09 05 2013  14 22  -21.1046 26091.5 -03421.3 -07.4705 26314.8
 09 05 2013  14 23  -21.1047 26091.6 -03421.6 -07.4711 26315.0
 09 05 2013  14 24  -21.1046 26091.7 -03421.8 -07.4715 26315.1
 09 05 2013  14 25  -21.1044 26091.8 -03422.1 -07.4720 26315.3
 09 05 2013  14 26  -21.1044 26091.9 -03422.3 -07.4725 26315.4
 09 05 2013  14 27  -21.1047 26092.0 -03422.5 -07.4729 26315.5
 09 05 2013  14 28  -21.1050 26092.1 -03422.7 -07.4732 26315.6
 09 05 2013  14 29  -21.1051 26091.9 -03422.7 -07.4732 26315.4
 09 05 2013  14 30  -21.1052 26091.6 -03422.6 -07.4732 26315.2
 09 05 2013  14 31  -21.1051 26091.4 -03422.6 -07.4731 26314.9
 09 05 2013  14 32  -21.1051 26091.0 -03422.5 -07.4730 26314.5
 09 05 2013  14 33  -21.1052 26090.7 -03422.5 -07.4732 26314.3
 09 05 2013  14 34  -21.1055 26090.5 -03422.5 -07.4733 26314.1
 09 05 2013  14 35  -21.1056 26090.3 -03422.5 -07.4734 26313.8
 09 05 2013  14 36  -21.1059 26090.1 -03422.6 -07.4735 26313.6
 09 05 2013  14 37  -21.1063 26090.0 -03422.6 -07.4737 26313.5
 09 05 2013  14 38  -21.1067 26089.9 -03422.7 -07.4737 26313.5
 09 05 2013  14 39  -21.1069 26090.0 -03422.7 -07.4738 26313.6
 09 05 2013  14 40  -21.1071 26090.1 -03422.8 -07.4740 26313.7
 09 05 2013  14 41  -21.1070 26090.6 -03423.0 -07.4743 26314.1
 09 05 2013  14 42  -21.1074 26091.1 -03423.2 -07.4747 26314.7
 09 05 2013  14 43  -21.1077 26091.4 -03423.2 -07.4745 26315.0
 09 05 2013  14 44  -21.1081 26092.0 -03423.3 -07.4746 26315.7
 09 05 2013  14 45  -21.1078 26092.1 -03423.1 -07.4741 26315.7
 09 05 2013  14 46  -21.1075 26091.9 -03422.8 -07.4735 26315.5
 09 05 2013  14 47  -21.1072 26091.7 -03422.6 -07.4731 26315.3
 09 05 2013  14 48  -21.1067 26091.7 -03422.4 -07.4728 26315.2
 09 05 2013  14 49  -21.1064 26091.7 -03422.4 -07.4727 26315.2
 09 05 2013  14 50  -21.1066 26091.6 -03422.3 -07.4726 26315.1
 09 05 2013  14 51  -21.1072 26091.7 -03422.4 -07.4728 26315.2
 09 05 2013  14 52  -21.1079 26091.8 -03422.4 -07.4727 26315.3
 09 05 2013  14 53  -21.1082 26091.6 -03422.2 -07.4724 26315.0
 09 05 2013  14 54  -21.1087 26091.3 -03422.0 -07.4720 26314.7
 09 05 2013  14 55  -21.1092 26091.1 -03421.9 -07.4717 26314.6
 09 05 2013  14 56  -21.1088 26089.5 -03421.1 -07.4705 26312.9
 09 05 2013  14 57  -21.1087 26088.4 -03420.7 -07.4699 26311.7
 09 05 2013  14 58  -21.1091 26087.4 -03420.4 -07.4696 26310.6
 09 05 2013  14 59  -21.1093 26087.7 -03420.7 -07.4701 26311.0
 09 05 2013  15 00  -21.1098 26087.8 -03420.8 -07.4704 26311.2
 09 05 2013  15 01  -21.1104 26086.8 -03420.3 -07.4696 26310.1
 09 05 2013  15 02  -21.1104 26086.2 -03420.0 -07.4691 26309.4
 09 05 2013  15 03  -21.1101 26086.0 -03419.9 -07.4689 26309.2
 09 05 2013  15 04  -21.1095 26085.8 -03419.8 -07.4688 26309.0
 09 05 2013  15 05  -21.1096 26086.1 -03420.0 -07.4692 26309.3
 09 05 2013  15 06  -21.1099 26086.0 -03420.0 -07.4692 26309.2
 09 05 2013  15 07  -21.1102 26085.9 -03419.9 -07.4690 26309.1
 09 05 2013  15 08  -21.1109 26086.3 -03420.0 -07.4690 26309.5
 09 05 2013  15 09  -21.1106 26085.7 -03419.6 -07.4683 26308.9
 09 05 2013  15 10  -21.1097 26085.1 -03419.2 -07.4676 26308.2
 09 05 2013  15 11  -21.1086 26084.7 -03419.0 -07.4672 26307.8
 09 05 2013  15 12  -21.1079 26084.9 -03419.1 -07.4675 26308.1
 09 05 2013  15 13  -21.1077 26085.2 -03419.2 -07.4676 26308.3
 09 05 2013  15 14  -21.1073 26085.3 -03419.2 -07.4676 26308.4
 09 05 2013  15 15  -21.1066 26085.4 -03419.2 -07.4675 26308.5
 09 05 2013  15 16  -21.1059 26085.7 -03419.2 -07.4674 26308.8
 09 05 2013  15 17  -21.1052 26085.9 -03419.2 -07.4673 26309.0
 09 05 2013  15 18  -21.1044 26086.2 -03419.2 -07.4673 26309.3
 09 05 2013  15 19  -21.1038 26086.1 -03419.0 -07.4670 26309.2
 09 05 2013  15 20  -21.1029 26085.7 -03418.8 -07.4665 26308.7
 09 05 2013  15 21  -21.1021 26085.3 -03418.6 -07.4663 26308.4
 09 05 2013  15 22  -21.1013 26085.5 -03418.7 -07.4664 26308.5
 09 05 2013  15 23  -21.1008 26085.5 -03418.7 -07.4664 26308.5
 09 05 2013  15 24  -21.1003 26085.3 -03418.6 -07.4663 26308.4
 09 05 2013  15 25  -21.0997 26085.0 -03418.4 -07.4660 26308.0
 09 05 2013  15 26  -21.0995 26084.9 -03418.4 -07.4660 26308.0
 09 05 2013  15 27  -21.0995 26084.8 -03418.3 -07.4659 26307.8
 09 05 2013  15 28  -21.0992 26084.7 -03418.2 -07.4657 26307.7
 09 05 2013  15 29  -21.0986 26084.5 -03418.2 -07.4656 26307.5
 09 05 2013  15 30  -21.0983 26084.7 -03418.3 -07.4659 26307.8
 09 05 2013  15 31  -21.0982 26084.7 -03418.4 -07.4660 26307.8
 09 05 2013  15 32  -21.0986 26084.2 -03418.1 -07.4656 26307.2
 09 05 2013  15 33  -21.0985 26083.2 -03417.6 -07.4648 26306.1
 09 05 2013  15 34  -21.0981 26082.5 -03417.4 -07.4645 26305.5
 09 05 2013  15 35  -21.0980 26082.1 -03417.4 -07.4646 26305.0
 09 05 2013  15 36  -21.0980 26081.6 -03417.4 -07.4647 26304.6
 09 05 2013  15 37  -21.0980 26081.1 -03417.3 -07.4647 26304.0
 09 05 2013  15 38  -21.0983 26080.5 -03417.2 -07.4646 26303.4
 09 05 2013  15 39  -21.0983 26079.8 -03417.0 -07.4644 26302.7
 09 05 2013  15 40  -21.0982 26079.5 -03417.0 -07.4645 26302.4
 09 05 2013  15 41  -21.0979 26080.2 -03417.5 -07.4653 26303.1
 09 05 2013  15 42  -21.0982 26081.0 -03418.0 -07.4663 26304.0
 09 05 2013  15 43  -21.0985 26081.0 -03418.1 -07.4664 26304.1
 09 05 2013  15 44  -21.0986 26080.6 -03417.8 -07.4660 26303.6
 09 05 2013  15 45  -21.0986 26080.1 -03417.6 -07.4657 26303.0
 09 05 2013  15 46  -21.0985 26079.2 -03417.3 -07.4653 26302.1
 09 05 2013  15 47  -21.0984 26078.4 -03417.1 -07.4650 26301.4
 09 05 2013  15 48  -21.0983 26077.9 -03417.0 -07.4650 26300.8
 09 05 2013  15 49  -21.0979 26077.3 -03416.9 -07.4650 26300.2
 09 05 2013  15 50  -21.0978 26077.1 -03417.1 -07.4653 26300.0
 09 05 2013  15 51  -21.0980 26076.9 -03417.2 -07.4657 26299.8
 09 05 2013  15 52  -21.0979 26076.4 -03417.1 -07.4657 26299.3
 09 05 2013  15 53  -21.0979 26076.1 -03417.3 -07.4660 26299.1
 09 05 2013  15 54  -21.0980 26076.0 -03417.4 -07.4663 26299.0
 09 05 2013  15 55  -21.0975 26075.6 -03417.3 -07.4663 26298.6
 09 05 2013  15 56  -21.0969 26075.3 -03417.3 -07.4664 26298.3
 09 05 2013  15 57  -21.0968 26075.2 -03417.5 -07.4668 26298.2
 09 05 2013  15 58  -21.0970 26075.3 -03417.7 -07.4672 26298.3
 09 05 2013  15 59  -21.0965 26074.7 -03417.5 -07.4670 26297.7
 09 05 2013  16 00  -21.0961 26073.9 -03417.4 -07.4669 26296.9
 09 05 2013  16 01  -21.0959 26073.8 -03417.6 -07.4674 26296.9
 09 05 2013  16 02  -21.0961 26074.2 -03418.0 -07.4681 26297.3
 09 05 2013  16 03  -21.0962 26074.0 -03418.0 -07.4683 26297.1
 09 05 2013  16 04  -21.0963 26073.7 -03418.0 -07.4683 26296.7
 09 05 2013  16 05  -21.0963 26073.4 -03418.0 -07.4684 26296.5
 09 05 2013  16 06  -21.0960 26073.1 -03418.0 -07.4684 26296.2
 09 05 2013  16 07  -21.0959 26072.7 -03418.0 -07.4685 26295.8
 09 05 2013  16 08  -21.0960 26072.3 -03417.9 -07.4685 26295.4
 09 05 2013  16 09  -21.0960 26071.8 -03417.7 -07.4682 26294.8
 09 05 2013  16 10  -21.0961 26071.3 -03417.6 -07.4681 26294.3
 09 05 2013  16 11  -21.0957 26070.4 -03417.3 -07.4678 26293.4
 09 05 2013  16 12  -21.0955 26070.0 -03417.4 -07.4680 26293.0
 09 05 2013  16 13  -21.0957 26069.9 -03417.5 -07.4683 26293.0
 09 05 2013  16 14  -21.0959 26069.9 -03417.6 -07.4684 26292.9
 09 05 2013  16 15  -21.0963 26070.0 -03417.7 -07.4687 26293.1
 09 05 2013  16 16  -21.0966 26070.2 -03417.7 -07.4687 26293.3
 09 05 2013  16 17  -21.0969 26070.5 -03417.7 -07.4686 26293.6
 09 05 2013  16 18  -21.0967 26070.3 -03417.5 -07.4682 26293.3
 09 05 2013  16 19  -21.0963 26070.0 -03417.3 -07.4678 26293.0
 09 05 2013  16 20  -21.0959 26069.9 -03417.2 -07.4677 26292.9
 09 05 2013  16 21  -21.0955 26069.7 -03417.1 -07.4675 26292.7
 09 05 2013  16 22  -21.0952 26069.5 -03417.1 -07.4675 26292.4
 09 05 2013  16 23  -21.0951 26069.2 -03417.0 -07.4674 26292.2
 09 05 2013  16 24  -21.0947 26069.0 -03417.0 -07.4674 26291.9
 09 05 2013  16 25  -21.0941 26068.3 -03416.7 -07.4671 26291.3
 09 05 2013  16 26  -21.0933 26067.3 -03416.4 -07.4666 26290.2
 09 05 2013  16 27  -21.0925 26066.5 -03416.3 -07.4666 26289.4
 09 05 2013  16 28  -21.0925 26066.3 -03416.4 -07.4669 26289.2
 09 05 2013  16 29  -21.0921 26065.4 -03416.2 -07.4667 26288.3
 09 05 2013  16 30  -21.0918 26065.0 -03416.1 -07.4668 26287.9
 09 05 2013  16 31  -21.0912 26064.1 -03416.0 -07.4667 26287.0
 09 05 2013  16 32  -21.0909 26063.8 -03416.1 -07.4671 26286.7
 09 05 2013  16 33  -21.0907 26063.5 -03416.3 -07.4675 26286.4
 09 05 2013  16 34  -21.0904 26063.7 -03416.7 -07.4684 26286.7
 09 05 2013  16 35  -21.0904 26064.3 -03417.3 -07.4694 26287.3
 09 05 2013  16 36  -21.0908 26064.5 -03417.6 -07.4700 26287.6
 09 05 2013  16 37  -21.0911 26064.2 -03417.6 -07.4700 26287.3
 09 05 2013  16 38  -21.0912 26063.8 -03417.5 -07.4701 26286.9
 09 05 2013  16 39  -21.0910 26063.1 -03417.4 -07.4701 26286.2
 09 05 2013  16 40  -21.0906 26062.4 -03417.4 -07.4703 26285.5
 09 05 2013  16 41  -21.0903 26062.1 -03417.7 -07.4710 26285.3
 09 05 2013  16 42  -21.0908 26062.5 -03418.3 -07.4721 26285.7
 09 05 2013  16 43  -21.0914 26062.2 -03418.5 -07.4726 26285.5
 09 05 2013  16 44  -21.0916 26061.8 -03418.5 -07.4728 26285.0
 09 05 2013  16 45  -21.0919 26061.2 -03418.5 -07.4730 26284.5
 09 05 2013  16 46  -21.0918 26061.0 -03418.7 -07.4735 26284.3
 09 05 2013  16 47  -21.0920 26060.7 -03419.0 -07.4742 26284.0
 09 05 2013  16 48  -21.0924 26060.7 -03419.4 -07.4749 26284.1
 09 05 2013  16 49  -21.0931 26060.6 -03419.6 -07.4754 26284.0
 09 05 2013  16 50  -21.0936 26060.5 -03419.7 -07.4758 26283.9
 09 05 2013  16 51  -21.0938 26060.4 -03419.8 -07.4761 26283.8
 09 05 2013  16 52  -21.0942 26060.5 -03420.1 -07.4765 26283.9
 09 05 2013  16 53  -21.0944 26059.7 -03419.9 -07.4764 26283.1
 09 05 2013  16 54  -21.0944 26058.8 -03419.7 -07.4762 26282.2
 09 05 2013  16 55  -21.0941 26058.1 -03419.6 -07.4762 26281.5
 09 05 2013  16 56  -21.0939 26057.7 -03419.8 -07.4767 26281.1
 09 05 2013  16 57  -21.0939 26057.5 -03420.0 -07.4773 26281.0
 09 05 2013  16 58  -21.0943 26057.6 -03420.3 -07.4779 26281.1
 09 05 2013  16 59  -21.0946 26057.6 -03420.5 -07.4783 26281.1
 09 05 2013  17 00  -21.0947 26057.4 -03420.6 -07.4785 26281.0
 09 05 2013  17 01  -21.0947 26057.3 -03420.7 -07.4788 26280.8
 09 05 2013  17 02  -21.0945 26057.2 -03420.8 -07.4790 26280.7
 09 05 2013  17 03  -21.0944 26057.1 -03421.0 -07.4794 26280.7
 09 05 2013  17 04  -21.0940 26056.7 -03421.0 -07.4795 26280.3
 09 05 2013  17 05  -21.0938 26056.5 -03421.1 -07.4798 26280.1
 09 05 2013  17 06  -21.0937 26056.5 -03421.3 -07.4802 26280.1
 09 05 2013  17 07  -21.0936 26056.2 -03421.3 -07.4804 26279.8
 09 05 2013  17 08  -21.0934 26055.6 -03421.2 -07.4804 26279.2
 09 05 2013  17 09  -21.0932 26055.0 -03421.2 -07.4804 26278.7
 09 05 2013  17 10  -21.0931 26054.5 -03421.2 -07.4806 26278.2
 09 05 2013  17 11  -21.0931 26054.3 -03421.4 -07.4810 26278.0
 09 05 2013  17 12  -21.0933 26054.3 -03421.5 -07.4814 26278.0
 09 05 2013  17 13  -21.0936 26054.1 -03421.6 -07.4817 26277.9
 09 05 2013  17 14  -21.0939 26054.1 -03421.7 -07.4819 26277.8
 09 05 2013  17 15  -21.0943 26054.0 -03421.8 -07.4821 26277.8
 09 05 2013  17 16  -21.0948 26053.8 -03421.7 -07.4820 26277.5
 09 05 2013  17 17  -21.0952 26053.5 -03421.7 -07.4820 26277.2
 09 05 2013  17 18  -21.0952 26053.1 -03421.6 -07.4819 26276.8
 09 05 2013  17 19  -21.0953 26052.8 -03421.5 -07.4818 26276.5
 09 05 2013  17 20  -21.0953 26052.5 -03421.5 -07.4818 26276.2
 09 05 2013  17 21  -21.0954 26052.3 -03421.5 -07.4819 26276.0
 09 05 2013  17 22  -21.0957 26052.3 -03421.6 -07.4821 26276.1
 09 05 2013  17 23  -21.0960 26052.2 -03421.5 -07.4820 26275.9
 09 05 2013  17 24  -21.0959 26051.7 -03421.3 -07.4816 26275.4
 09 05 2013  17 25  -21.0958 26051.2 -03421.1 -07.4814 26274.9
 09 05 2013  17 26  -21.0958 26050.9 -03421.0 -07.4813 26274.6
 09 05 2013  17 27  -21.0957 26050.6 -03420.9 -07.4812 26274.2
 09 05 2013  17 28  -21.0954 26050.2 -03420.8 -07.4811 26273.8
 09 05 2013  17 29  -21.0953 26049.9 -03420.8 -07.4811 26273.6
 09 05 2013  17 30  -21.0952 26049.6 -03420.8 -07.4811 26273.3
 09 05 2013  17 31  -21.0952 26049.1 -03420.6 -07.4809 26272.7
 09 05 2013  17 32  -21.0949 26048.5 -03420.4 -07.4807 26272.1
 09 05 2013  17 33  -21.0946 26047.7 -03420.2 -07.4805 26271.3
 09 05 2013  17 34  -21.0942 26047.2 -03420.2 -07.4805 26270.8
 09 05 2013  17 35  -21.0942 26046.9 -03420.2 -07.4807 26270.5
 09 05 2013  17 36  -21.0941 26046.6 -03420.2 -07.4808 26270.2
 09 05 2013  17 37  -21.0939 26046.4 -03420.3 -07.4810 26270.0
 09 05 2013  17 38  -21.0937 26046.4 -03420.5 -07.4814 26270.0
 09 05 2013  17 39  -21.0938 26046.3 -03420.5 -07.4815 26269.9
 09 05 2013  17 40  -21.0937 26046.1 -03420.5 -07.4815 26269.7
 09 05 2013  17 41  -21.0938 26046.1 -03420.6 -07.4816 26269.7
 09 05 2013  17 42  -21.0937 26045.8 -03420.5 -07.4816 26269.4
 09 05 2013  17 43  -21.0936 26045.7 -03420.5 -07.4817 26269.3
 09 05 2013  17 44  -21.0934 26045.4 -03420.5 -07.4818 26269.1
 09 05 2013  17 45  -21.0932 26045.1 -03420.5 -07.4818 26268.8
 09 05 2013  17 46  -21.0928 26044.4 -03420.3 -07.4817 26268.0
 09 05 2013  17 47  -21.0926 26044.0 -03420.3 -07.4817 26267.6
 09 05 2013  17 48  -21.0924 26043.6 -03420.3 -07.4818 26267.2
 09 05 2013  17 49  -21.0924 26043.3 -03420.3 -07.4819 26266.9
 09 05 2013  17 50  -21.0923 26043.2 -03420.4 -07.4821 26266.8
 09 05 2013  17 51  -21.0920 26042.6 -03420.3 -07.4820 26266.2
 09 05 2013  17 52  -21.0917 26042.5 -03420.4 -07.4822 26266.2
 09 05 2013  17 53  -21.0917 26042.3 -03420.4 -07.4824 26265.9
 09 05 2013  17 54  -21.0916 26042.1 -03420.4 -07.4825 26265.7
 09 05 2013  17 55  -21.0915 26042.0 -03420.5 -07.4826 26265.6
 09 05 2013  17 56  -21.0914 26041.6 -03420.4 -07.4825 26265.3
 09 05 2013  17 57  -21.0912 26041.3 -03420.3 -07.4825 26264.9
 09 05 2013  17 58  -21.0911 26040.9 -03420.2 -07.4824 26264.6
 09 05 2013  17 59  -21.0910 26040.5 -03420.1 -07.4822 26264.1
 09 05 2013  18 00  -21.0908 26040.0 -03420.0 -07.4822 26263.7
 09 05 2013  18 01  -21.0904 26039.7 -03419.9 -07.4820 26263.3
 09 05 2013  18 02  -21.0901 26039.5 -03419.9 -07.4821 26263.1
 09 05 2013  18 03  -21.0899 26039.3 -03419.9 -07.4821 26262.9
 09 05 2013  18 04  -21.0893 26038.9 -03419.7 -07.4819 26262.5
 09 05 2013  18 05  -21.0886 26038.4 -03419.6 -07.4817 26261.9
 09 05 2013  18 06  -21.0882 26038.0 -03419.5 -07.4817 26261.6
 09 05 2013  18 07  -21.0877 26037.6 -03419.5 -07.4818 26261.2
 09 05 2013  18 08  -21.0870 26037.2 -03419.4 -07.4817 26260.7
 09 05 2013  18 09  -21.0863 26036.7 -03419.3 -07.4817 26260.3
 09 05 2013  18 10  -21.0856 26036.1 -03419.3 -07.4817 26259.7
 09 05 2013  18 11  -21.0846 26035.5 -03419.2 -07.4818 26259.0
 09 05 2013  18 12  -21.0836 26035.0 -03419.3 -07.4820 26258.6
 09 05 2013  18 13  -21.0829 26034.9 -03419.5 -07.4826 26258.5
 09 05 2013  18 14  -21.0822 26034.8 -03419.7 -07.4831 26258.4
 09 05 2013  18 15  -21.0814 26034.4 -03419.9 -07.4834 26258.1
 09 05 2013  18 16  -21.0804 26033.9 -03419.9 -07.4837 26257.6
 09 05 2013  18 17  -21.0796 26033.5 -03420.0 -07.4841 26257.1
 09 05 2013  18 18  -21.0787 26033.2 -03420.2 -07.4847 26256.9
 09 05 2013  18 19  -21.0779 26032.9 -03420.5 -07.4852 26256.7
 09 05 2013  18 20  -21.0771 26032.4 -03420.6 -07.4857 26256.2
 09 05 2013  18 21  -21.0763 26032.1 -03420.8 -07.4861 26255.9
 09 05 2013  18 22  -21.0756 26031.7 -03420.9 -07.4866 26255.5
 09 05 2013  18 23  -21.0748 26031.3 -03421.1 -07.4870 26255.1
 09 05 2013  18 24  -21.0740 26030.9 -03421.3 -07.4875 26254.8
 09 05 2013  18 25  -21.0731 26030.4 -03421.4 -07.4880 26254.3
 09 05 2013  18 26  -21.0721 26029.9 -03421.6 -07.4885 26253.8
 09 05 2013  18 27  -21.0711 26029.5 -03421.9 -07.4892 26253.5
 09 05 2013  18 28  -21.0705 26029.3 -03422.2 -07.4899 26253.3
 09 05 2013  18 29  -21.0699 26029.1 -03422.5 -07.4906 26253.2
 09 05 2013  18 30  -21.0695 26029.0 -03422.8 -07.4913 26253.1
 09 05 2013  18 31  -21.0688 26028.7 -03423.0 -07.4918 26252.8
 09 05 2013  18 32  -21.0681 26028.3 -03423.1 -07.4922 26252.4
 09 05 2013  18 33  -21.0675 26027.8 -03423.2 -07.4925 26251.9
 09 05 2013  18 34  -21.0668 26027.4 -03423.4 -07.4931 26251.6
 09 05 2013  18 35  -21.0661 26027.1 -03423.6 -07.4936 26251.3
 09 05 2013  18 36  -21.0652 26026.7 -03423.7 -07.4941 26250.9
 09 05 2013  18 37  -21.0643 26026.1 -03423.9 -07.4945 26250.3
 09 05 2013  18 38  -21.0636 26025.8 -03424.2 -07.4952 26250.1
 09 05 2013  18 39  -21.0632 26025.8 -03424.5 -07.4960 26250.1
 09 05 2013  18 40  -21.0629 26025.9 -03424.9 -07.4967 26250.3
 09 05 2013  18 41  -21.0624 26025.8 -03425.1 -07.4973 26250.3
 09 05 2013  18 42  -21.0616 26025.5 -03425.2 -07.4976 26249.9
 09 05 2013  18 43  -21.0614 26025.3 -03425.4 -07.4981 26249.7
 09 05 2013  18 44  -21.0608 26024.9 -03425.5 -07.4984 26249.4
 09 05 2013  18 45  -21.0603 26024.8 -03425.7 -07.4989 26249.3
 09 05 2013  18 46  -21.0595 26024.5 -03425.9 -07.4994 26249.0
 09 05 2013  18 47  -21.0587 26024.5 -03426.2 -07.5000 26249.1
 09 05 2013  18 48  -21.0586 26024.7 -03426.6 -07.5007 26249.3
 09 05 2013  18 49  -21.0577 26024.4 -03426.6 -07.5010 26249.0
 09 05 2013  18 50  -21.0568 26023.8 -03426.7 -07.5013 26248.5
 09 05 2013  18 51  -21.0559 26023.3 -03426.8 -07.5016 26248.0
 09 05 2013  18 52  -21.0550 26022.8 -03426.8 -07.5019 26247.5
 09 05 2013  18 53  -21.0544 26022.8 -03427.1 -07.5025 26247.5
 09 05 2013  18 54  -21.0538 26022.6 -03427.4 -07.5032 26247.4
 09 05 2013  18 55  -21.0529 26022.3 -03427.6 -07.5036 26247.0
 09 05 2013  18 56  -21.0523 26022.4 -03427.9 -07.5044 26247.2
 09 05 2013  18 57  -21.0517 26022.4 -03428.2 -07.5050 26247.3
 09 05 2013  18 58  -21.0513 26022.5 -03428.6 -07.5057 26247.4
 09 05 2013  18 59  -21.0509 26022.6 -03428.8 -07.5062 26247.5
 09 05 2013  19 00  -21.0506 26022.5 -03429.0 -07.5066 26247.5
 09 05 2013  19 01  -21.0501 26022.2 -03429.1 -07.5069 26247.2
 09 05 2013  19 02  -21.0495 26021.7 -03429.1 -07.5071 26246.7
 09 05 2013  19 03  -21.0492 26021.5 -03429.3 -07.5075 26246.5
 09 05 2013  19 04  -21.0488 26021.3 -03429.5 -07.5081 26246.3
 09 05 2013  19 05  -21.0486 26021.4 -03429.8 -07.5087 26246.4
 09 05 2013  19 06  -21.0484 26021.4 -03430.1 -07.5092 26246.5
 09 05 2013  19 07  -21.0481 26021.0 -03430.1 -07.5095 26246.2
 09 05 2013  19 08  -21.0478 26020.9 -03430.2 -07.5098 26246.0
 09 05 2013  19 09  -21.0476 26020.8 -03430.4 -07.5102 26245.9
 09 05 2013  19 10  -21.0472 26020.6 -03430.6 -07.5106 26245.8
 09 05 2013  19 11  -21.0469 26020.4 -03430.7 -07.5110 26245.6
 09 05 2013  19 12  -21.0465 26020.4 -03431.0 -07.5116 26245.6
 09 05 2013  19 13  -21.0463 26020.5 -03431.3 -07.5122 26245.8
 09 05 2013  19 14  -21.0462 26020.5 -03431.5 -07.5126 26245.8
 09 05 2013  19 15  -21.0459 26020.4 -03431.7 -07.5131 26245.7
 09 05 2013  19 16  -21.0461 26020.3 -03431.9 -07.5135 26245.7
 09 05 2013  19 17  -21.0457 26019.8 -03431.9 -07.5136 26245.2
 09 05 2013  19 18  -21.0452 26019.4 -03431.9 -07.5138 26244.7
 09 05 2013  19 19  -21.0449 26019.1 -03432.0 -07.5142 26244.5
 09 05 2013  19 20  -21.0447 26019.0 -03432.2 -07.5146 26244.4
 09 05 2013  19 21  -21.0447 26019.0 -03432.5 -07.5151 26244.4
 09 05 2013  19 22  -21.0446 26019.1 -03432.6 -07.5155 26244.5
 09 05 2013  19 23  -21.0444 26019.2 -03432.9 -07.5160 26244.7
 09 05 2013  19 24  -21.0443 26019.2 -03433.0 -07.5163 26244.7
 09 05 2013  19 25  -21.0441 26019.3 -03433.2 -07.5167 26244.8
 09 05 2013  19 26  -21.0440 26019.3 -03433.4 -07.5170 26244.8
 09 05 2013  19 27  -21.0437 26019.2 -03433.5 -07.5173 26244.7
 09 05 2013  19 28  -21.0435 26019.1 -03433.6 -07.5176 26244.7
 09 05 2013  19 29  -21.0458 26019.0 -03433.6 -07.5175 26244.6
 09 05 2013  19 30  -21.0480 26018.7 -03433.6 -07.5178 26244.2
 09 05 2013  19 31  -21.0478 26018.5 -03433.7 -07.5180 26244.1
 09 05 2013  19 32  -21.0474 26018.4 -03433.8 -07.5182 26244.0
 09 05 2013  19 33  -21.0472 26018.7 -03434.0 -07.5186 26244.3
 09 05 2013  19 34  -21.0468 26019.0 -03434.3 -07.5190 26244.6
 09 05 2013  19 35  -21.0464 26019.2 -03434.4 -07.5193 26244.9
 09 05 2013  19 36  -21.0461 26019.4 -03434.6 -07.5196 26245.1
 09 05 2013  19 37  -21.0459 26019.9 -03434.9 -07.5201 26245.6
 09 05 2013  19 38  -21.0447 26020.5 -03435.1 -07.5204 26246.2
 09 05 2013  19 39  -21.0411 26021.0 -03435.5 -07.5211 26246.8
 09 05 2013  19 40  -21.0410 26021.1 -03435.6 -07.5213 26246.9
 09 05 2013  19 41  -21.0410 26021.0 -03435.6 -07.5213 26246.8
 09 05 2013  19 42  -21.0406 26020.7 -03435.5 -07.5213 26246.5
 09 05 2013  19 43  -21.0402 26020.6 -03435.6 -07.5214 26246.4
 09 05 2013  19 44  -21.0399 26020.5 -03435.6 -07.5216 26246.3
 09 05 2013  19 45  -21.0397 26020.5 -03435.7 -07.5218 26246.3
 09 05 2013  19 46  -21.0394 26020.5 -03435.8 -07.5219 26246.4
 09 05 2013  19 47  -21.0393 26020.7 -03436.0 -07.5222 26246.6
 09 05 2013  19 48  -21.0392 26021.0 -03436.1 -07.5224 26246.9
 09 05 2013  19 49  -21.0389 26021.1 -03436.2 -07.5226 26247.0
 09 05 2013  19 50  -21.0387 26021.4 -03436.4 -07.5229 26247.3
 09 05 2013  19 51  -21.0384 26021.5 -03436.5 -07.5231 26247.4
 09 05 2013  19 52  -21.0382 26021.6 -03436.5 -07.5232 26247.5
 09 05 2013  19 53  -21.0381 26021.7 -03436.6 -07.5234 26247.7
 09 05 2013  19 54  -21.0378 26021.9 -03436.7 -07.5235 26247.9
 09 05 2013  19 55  -21.0378 26022.3 -03436.8 -07.5236 26248.2
 09 05 2013  19 56  -21.0376 26022.6 -03436.9 -07.5238 26248.5
 09 05 2013  19 57  -21.0375 26022.8 -03437.0 -07.5238 26248.8
 09 05 2013  19 58  -21.0374 26022.9 -03436.9 -07.5237 26248.8
 09 05 2013  19 59  -21.0370 26022.8 -03436.8 -07.5235 26248.7
 09 05 2013  20 00  -21.0367 26022.7 -03436.8 -07.5235 26248.7
 09 05 2013  20 01  -21.0364 26022.7 -03436.8 -07.5235 26248.7
 09 05 2013  20 02  -21.0362 26022.8 -03436.9 -07.5236 26248.8
 09 05 2013  20 03  -21.0360 26022.9 -03436.9 -07.5236 26248.8
 09 05 2013  20 04  -21.0359 26022.8 -03436.9 -07.5236 26248.8
 09 05 2013  20 05  -21.0357 26022.8 -03436.8 -07.5235 26248.8
 09 05 2013  20 06  -21.0354 26022.9 -03436.9 -07.5237 26248.9
 09 05 2013  20 07  -21.0351 26023.2 -03437.0 -07.5239 26249.2
 09 05 2013  20 08  -21.0348 26023.4 -03437.2 -07.5240 26249.4
 09 05 2013  20 09  -21.0347 26023.6 -03437.2 -07.5242 26249.6
 09 05 2013  20 10  -21.0345 26023.7 -03437.2 -07.5241 26249.7
 09 05 2013  20 11  -21.0343 26023.6 -03437.2 -07.5240 26249.6
 09 05 2013  20 12  -21.0341 26023.6 -03437.1 -07.5239 26249.6
 09 05 2013  20 13  -21.0338 26023.5 -03437.1 -07.5238 26249.5
 09 05 2013  20 14  -21.0334 26023.5 -03437.0 -07.5237 26249.5
 09 05 2013  20 15  -21.0333 26024.0 -03437.3 -07.5241 26250.1
 09 05 2013  20 16  -21.0332 26024.7 -03437.5 -07.5245 26250.7
 09 05 2013  20 17  -21.0331 26025.2 -03437.7 -07.5247 26251.2
 09 05 2013  20 18  -21.0328 26025.4 -03437.8 -07.5247 26251.5
 09 05 2013  20 19  -21.0325 26025.5 -03437.7 -07.5247 26251.6
 09 05 2013  20 20  -21.0324 26025.6 -03437.7 -07.5246 26251.6
 09 05 2013  20 21  -21.0323 26025.7 -03437.7 -07.5246 26251.8
 09 05 2013  20 22  -21.0322 26025.9 -03437.7 -07.5246 26251.9
 09 05 2013  20 23  -21.0320 26025.9 -03437.7 -07.5245 26252.0
 09 05 2013  20 24  -21.0320 26026.0 -03437.7 -07.5245 26252.1
 09 05 2013  20 25  -21.0318 26026.0 -03437.7 -07.5244 26252.1
 09 05 2013  20 26  -21.0315 26026.0 -03437.6 -07.5243 26252.0
 09 05 2013  20 27  -21.0313 26025.9 -03437.6 -07.5243 26252.0
 09 05 2013  20 28  -21.0310 26026.0 -03437.7 -07.5244 26252.0
 09 05 2013  20 29  -21.0307 26026.2 -03437.8 -07.5246 26252.3
 09 05 2013  20 30  -21.0305 26026.4 -03437.9 -07.5247 26252.5
 09 05 2013  20 31  -21.0304 26026.5 -03437.9 -07.5248 26252.6
 09 05 2013  20 32  -21.0301 26026.5 -03437.9 -07.5247 26252.6
 09 05 2013  20 33  -21.0299 26026.7 -03438.0 -07.5249 26252.7
 09 05 2013  20 34  -21.0297 26027.0 -03438.2 -07.5252 26253.1
 09 05 2013  20 35  -21.0296 26027.4 -03438.3 -07.5254 26253.5
 09 05 2013  20 36  -21.0295 26027.5 -03438.3 -07.5254 26253.6
 09 05 2013  20 37  -21.0294 26027.5 -03438.3 -07.5253 26253.6
 09 05 2013  20 38  -21.0293 26027.3 -03438.1 -07.5250 26253.4
 09 05 2013  20 39  -21.0291 26027.2 -03438.0 -07.5249 26253.3
 09 05 2013  20 40  -21.0289 26027.3 -03438.1 -07.5249 26253.4
 09 05 2013  20 41  -21.0287 26027.4 -03438.1 -07.5250 26253.5
 09 05 2013  20 42  -21.0286 26027.4 -03438.1 -07.5250 26253.5
 09 05 2013  20 43  -21.0285 26027.5 -03438.2 -07.5250 26253.6
 09 05 2013  20 44  -21.0285 26027.6 -03438.2 -07.5251 26253.7
 09 05 2013  20 45  -21.0283 26027.9 -03438.4 -07.5253 26254.1
 09 05 2013  20 46  -21.0281 26028.4 -03438.6 -07.5256 26254.6
 09 05 2013  20 47  -21.0281 26029.1 -03438.8 -07.5260 26255.2
 09 05 2013  20 48  -21.0279 26029.5 -03439.0 -07.5262 26255.7
 09 05 2013  20 49  -21.0278 26029.7 -03439.0 -07.5263 26255.9
 09 05 2013  20 50  -21.0278 26029.9 -03439.1 -07.5263 26256.1
 09 05 2013  20 51  -21.0277 26030.2 -03439.1 -07.5262 26256.4
 09 05 2013  20 52  -21.0277 26030.5 -03439.2 -07.5263 26256.8
 09 05 2013  20 53  -21.0276 26030.8 -03439.2 -07.5263 26257.0
 09 05 2013  20 54  -21.0276 26031.0 -03439.2 -07.5262 26257.2
 09 05 2013  20 55  -21.0275 26031.1 -03439.1 -07.5260 26257.3
 09 05 2013  20 56  -21.0275 26031.2 -03439.0 -07.5259 26257.4
 09 05 2013  20 57  -21.0276 26031.5 -03439.1 -07.5259 26257.7
 09 05 2013  20 58  -21.0275 26031.8 -03439.2 -07.5260 26258.0
 09 05 2013  20 59  -21.0275 26032.1 -03439.2 -07.5260 26258.3
 09 05 2013  21 00  -21.0274 26032.2 -03439.1 -07.5258 26258.4
 09 05 2013  21 01  -21.0273 26032.2 -03439.0 -07.5255 26258.4
 09 05 2013  21 02  -21.0273 26032.2 -03438.9 -07.5254 26258.4
 09 05 2013  21 03  -21.0272 26032.3 -03438.8 -07.5251 26258.4
 09 05 2013  21 04  -21.0271 26032.4 -03438.8 -07.5250 26258.6
 09 05 2013  21 05  -21.0270 26032.7 -03438.8 -07.5249 26258.8
 09 05 2013  21 06  -21.0269 26032.9 -03438.8 -07.5249 26259.1
 09 05 2013  21 07  -21.0268 26033.1 -03438.8 -07.5248 26259.3
 09 05 2013  21 08  -21.0268 26033.2 -03438.7 -07.5247 26259.3
 09 05 2013  21 09  -21.0268 26033.1 -03438.6 -07.5243 26259.2
 09 05 2013  21 10  -21.0268 26032.8 -03438.4 -07.5240 26258.9
 09 05 2013  21 11  -21.0268 26032.7 -03438.2 -07.5236 26258.8
 09 05 2013  21 12  -21.0266 26032.7 -03438.1 -07.5233 26258.7
 09 05 2013  21 13  -21.0264 26032.6 -03437.9 -07.5231 26258.6
 09 05 2013  21 14  -21.0261 26032.5 -03437.8 -07.5229 26258.5
 09 05 2013  21 15  -21.0259 26032.5 -03437.8 -07.5227 26258.5
 09 05 2013  21 16  -21.0258 26032.5 -03437.7 -07.5227 26258.5
 09 05 2013  21 17  -21.0258 26032.6 -03437.8 -07.5227 26258.6
 09 05 2013  21 18  -21.0257 26032.7 -03437.8 -07.5227 26258.7
 09 05 2013  21 19  -21.0256 26032.9 -03437.8 -07.5228 26258.9
 09 05 2013  21 20  -21.0256 26033.1 -03437.9 -07.5228 26259.1
 09 05 2013  21 21  -21.0257 26033.2 -03437.9 -07.5229 26259.2
 09 05 2013  21 22  -21.0257 26033.3 -03437.9 -07.5229 26259.3
 09 05 2013  21 23  -21.0258 26033.5 -03438.0 -07.5230 26259.5
 09 05 2013  21 24  -21.0258 26033.6 -03438.0 -07.5230 26259.7
 09 05 2013  21 25  -21.0260 26033.7 -03438.0 -07.5229 26259.7
 09 05 2013  21 26  -21.0262 26033.8 -03438.0 -07.5230 26259.9
 09 05 2013  21 27  -21.0263 26034.0 -03438.1 -07.5229 26260.1
 09 05 2013  21 28  -21.0263 26034.3 -03438.1 -07.5229 26260.3
 09 05 2013  21 29  -21.0263 26034.5 -03438.2 -07.5231 26260.5
 09 05 2013  21 30  -21.0265 26034.7 -03438.2 -07.5232 26260.7
 09 05 2013  21 31  -21.0266 26035.1 -03438.4 -07.5233 26261.1
 09 05 2013  21 32  -21.0267 26035.5 -03438.5 -07.5236 26261.6
 09 05 2013  21 33  -21.0267 26036.1 -03438.7 -07.5238 26262.2
 09 05 2013  21 34  -21.0267 26036.4 -03438.9 -07.5240 26262.6
 09 05 2013  21 35  -21.0269 26036.6 -03438.9 -07.5240 26262.7
 09 05 2013  21 36  -21.0270 26036.7 -03438.8 -07.5239 26262.8
 09 05 2013  21 37  -21.0271 26036.8 -03438.8 -07.5238 26262.9
 09 05 2013  21 38  -21.0274 26036.8 -03438.7 -07.5236 26262.9
 09 05 2013  21 39  -21.0275 26036.7 -03438.6 -07.5234 26262.8
 09 05 2013  21 40  -21.0276 26036.7 -03438.5 -07.5231 26262.8
 09 05 2013  21 41  -21.0276 26036.8 -03438.5 -07.5231 26262.8
 09 05 2013  21 42  -21.0278 26036.8 -03438.5 -07.5230 26262.9
 09 05 2013  21 43  -21.0279 26036.8 -03438.4 -07.5230 26262.8
 09 05 2013  21 44  -21.0280 26036.7 -03438.3 -07.5228 26262.7
 09 05 2013  21 45  -21.0281 26036.6 -03438.3 -07.5226 26262.7
 09 05 2013  21 46  -21.0282 26036.5 -03438.2 -07.5225 26262.6
 09 05 2013  21 47  -21.0283 26036.4 -03438.1 -07.5224 26262.5
 09 05 2013  21 48  -21.0284 26036.3 -03438.0 -07.5222 26262.3
 09 05 2013  21 49  -21.0288 26036.2 -03437.9 -07.5220 26262.2
 09 05 2013  21 50  -21.0289 26036.1 -03437.9 -07.5219 26262.1
 09 05 2013  21 51  -21.0290 26036.3 -03438.0 -07.5221 26262.3
 09 05 2013  21 52  -21.0291 26036.3 -03438.0 -07.5221 26262.3
 09 05 2013  21 53  -21.0292 26036.3 -03437.9 -07.5221 26262.3
 09 05 2013  21 54  -21.0293 26036.4 -03438.0 -07.5221 26262.4
 09 05 2013  21 55  -21.0294 26036.5 -03438.0 -07.5222 26262.5
 09 05 2013  21 56  -21.0295 26036.7 -03438.1 -07.5223 26262.7
 09 05 2013  21 57  -21.0295 26036.8 -03438.2 -07.5223 26262.9
 09 05 2013  21 58  -21.0295 26036.9 -03438.2 -07.5223 26262.9
 09 05 2013  21 59  -21.0295 26036.9 -03438.1 -07.5223 26262.9
 09 05 2013  22 00  -21.0295 26036.9 -03438.1 -07.5222 26262.9
 09 05 2013  22 01  -21.0297 26036.8 -03438.0 -07.5221 26262.8
 09 05 2013  22 02  -21.0299 26036.7 -03437.9 -07.5219 26262.7
 09 05 2013  22 03  -21.0298 26036.6 -03437.9 -07.5218 26262.5
 09 05 2013  22 04  -21.0299 26036.5 -03437.8 -07.5216 26262.4
 09 05 2013  22 05  -21.0300 26036.4 -03437.7 -07.5216 26262.4
 09 05 2013  22 06  -21.0301 26036.5 -03437.8 -07.5216 26262.5
 09 05 2013  22 07  -21.0301 26036.5 -03437.8 -07.5216 26262.5
 09 05 2013  22 08  -21.0299 26036.6 -03437.8 -07.5216 26262.6
 09 05 2013  22 09  -21.0299 26036.6 -03437.8 -07.5215 26262.6
 09 05 2013  22 10  -21.0298 26036.7 -03437.8 -07.5215 26262.6
 09 05 2013  22 11  -21.0298 26036.8 -03437.8 -07.5216 26262.7
 09 05 2013  22 12  -21.0298 26036.9 -03437.8 -07.5217 26262.8
 09 05 2013  22 13  -21.0297 26037.0 -03437.9 -07.5218 26263.0
 09 05 2013  22 14  -21.0296 26037.2 -03438.0 -07.5219 26263.2
 09 05 2013  22 15  -21.0297 26037.2 -03438.0 -07.5219 26263.2
 09 05 2013  22 16  -21.0298 26037.3 -03438.0 -07.5219 26263.3
 09 05 2013  22 17  -21.0298 26037.4 -03438.0 -07.5219 26263.4
 09 05 2013  22 18  -21.0300 26037.4 -03438.0 -07.5219 26263.4
 09 05 2013  22 19  -21.0301 26037.3 -03438.0 -07.5218 26263.3
 09 05 2013  22 20  -21.0302 26037.2 -03437.9 -07.5216 26263.2
 09 05 2013  22 21  -21.0303 26037.1 -03437.8 -07.5215 26263.1
 09 05 2013  22 22  -21.0304 26037.1 -03437.8 -07.5214 26263.1
 09 05 2013  22 23  -21.0305 26037.2 -03437.8 -07.5214 26263.1
 09 05 2013  22 24  -21.0306 26037.2 -03437.8 -07.5214 26263.1
 09 05 2013  22 25  -21.0307 26037.1 -03437.8 -07.5214 26263.1
 09 05 2013  22 26  -21.0308 26037.1 -03437.7 -07.5214 26263.0
 09 05 2013  22 27  -21.0309 26037.1 -03437.7 -07.5213 26263.1
 09 05 2013  22 28  -21.0309 26037.1 -03437.7 -07.5213 26263.1
 09 05 2013  22 29  -21.0309 26037.1 -03437.7 -07.5213 26263.1
 09 05 2013  22 30  -21.0310 26037.1 -03437.7 -07.5212 26263.0
 09 05 2013  22 31  -21.0311 26037.1 -03437.7 -07.5212 26263.0
 09 05 2013  22 32  -21.0310 26037.1 -03437.7 -07.5212 26263.0
 09 05 2013  22 33  -21.0309 26037.0 -03437.6 -07.5212 26263.0
 09 05 2013  22 34  -21.0309 26036.9 -03437.5 -07.5210 26262.8
 09 05 2013  22 35  -21.0309 26036.7 -03437.5 -07.5209 26262.6
 09 05 2013  22 36  -21.0309 26036.7 -03437.5 -07.5209 26262.6
 09 05 2013  22 37  -21.0308 26036.7 -03437.5 -07.5210 26262.6
 09 05 2013  22 38  -21.0309 26036.7 -03437.5 -07.5210 26262.6
 09 05 2013  22 39  -21.0305 26036.7 -03437.5 -07.5210 26262.6
 09 05 2013  22 40  -21.0304 26036.6 -03437.5 -07.5210 26262.5
 09 05 2013  22 41  -21.0305 26036.4 -03437.4 -07.5209 26262.3
 09 05 2013  22 42  -21.0307 26036.2 -03437.3 -07.5208 26262.1
 09 05 2013  22 43  -21.0311 26036.1 -03437.3 -07.5208 26262.0
 09 05 2013  22 44  -21.0312 26036.0 -03437.3 -07.5208 26261.9
 09 05 2013  22 45  -21.0313 26036.1 -03437.4 -07.5209 26262.0
 09 05 2013  22 46  -21.0313 26036.1 -03437.4 -07.5209 26262.0
 09 05 2013  22 47  -21.0313 26036.0 -03437.4 -07.5209 26261.9
 09 05 2013  22 48  -21.0314 26035.9 -03437.4 -07.5209 26261.9
 09 05 2013  22 49  -21.0314 26035.9 -03437.4 -07.5209 26261.9
 09 05 2013  22 50  -21.0315 26035.9 -03437.3 -07.5208 26261.8
 09 05 2013  22 51  -21.0316 26035.7 -03437.3 -07.5209 26261.7
 09 05 2013  22 52  -21.0317 26035.7 -03437.3 -07.5209 26261.6
 09 05 2013  22 53  -21.0316 26035.7 -03437.4 -07.5209 26261.6
 09 05 2013  22 54  -21.0315 26035.7 -03437.4 -07.5210 26261.7
 09 05 2013  22 55  -21.0315 26035.7 -03437.4 -07.5210 26261.6
 09 05 2013  22 56  -21.0316 26035.6 -03437.4 -07.5210 26261.5
 09 05 2013  22 57  -21.0318 26035.5 -03437.4 -07.5210 26261.4
 09 05 2013  22 58  -21.0321 26035.4 -03437.3 -07.5210 26261.3
 09 05 2013  22 59  -21.0322 26035.2 -03437.3 -07.5210 26261.2
 09 05 2013  23 00  -21.0324 26035.2 -03437.3 -07.5209 26261.1
 09 05 2013  23 01  -21.0324 26035.1 -03437.2 -07.5209 26261.0
 09 05 2013  23 02  -21.0323 26035.1 -03437.2 -07.5209 26261.0
 09 05 2013  23 03  -21.0322 26035.0 -03437.2 -07.5209 26260.9
 09 05 2013  23 04  -21.0322 26035.0 -03437.2 -07.5209 26260.9
 09 05 2013  23 05  -21.0323 26034.9 -03437.2 -07.5209 26260.8
 09 05 2013  23 06  -21.0324 26034.9 -03437.2 -07.5209 26260.8
 09 05 2013  23 07  -21.0323 26034.9 -03437.3 -07.5210 26260.8
 09 05 2013  23 08  -21.0322 26034.9 -03437.3 -07.5211 26260.9
 09 05 2013  23 09  -21.0322 26035.0 -03437.4 -07.5211 26260.9
 09 05 2013  23 10  -21.0323 26035.0 -03437.4 -07.5212 26260.9
 09 05 2013  23 11  -21.0324 26034.9 -03437.4 -07.5212 26260.8
 09 05 2013  23 12  -21.0326 26034.8 -03437.3 -07.5212 26260.8
 09 05 2013  23 13  -21.0327 26034.8 -03437.3 -07.5212 26260.7
 09 05 2013  23 14  -21.0327 26034.8 -03437.3 -07.5212 26260.7
 09 05 2013  23 15  -21.0328 26034.7 -03437.3 -07.5212 26260.6
 09 05 2013  23 16  -21.0327 26034.6 -03437.3 -07.5211 26260.6
 09 05 2013  23 17  -21.0327 26034.6 -03437.3 -07.5212 26260.5
 09 05 2013  23 18  -21.0327 26034.5 -03437.3 -07.5211 26260.4
 09 05 2013  23 19  -21.0329 26034.5 -03437.3 -07.5212 26260.4
 09 05 2013  23 20  -21.0330 26034.6 -03437.4 -07.5213 26260.5
 09 05 2013  23 21  -21.0330 26034.7 -03437.4 -07.5214 26260.6
 09 05 2013  23 22  -21.0330 26034.7 -03437.4 -07.5214 26260.6
 09 05 2013  23 23  -21.0329 26034.7 -03437.5 -07.5215 26260.7
 09 05 2013  23 24  -21.0329 26034.7 -03437.5 -07.5215 26260.7
 09 05 2013  23 25  -21.0329 26034.7 -03437.5 -07.5215 26260.7
 09 05 2013  23 26  -21.0332 26034.8 -03437.5 -07.5216 26260.7
 09 05 2013  23 27  -21.0331 26034.8 -03437.6 -07.5216 26260.8
 09 05 2013  23 28  -21.0331 26034.8 -03437.5 -07.5216 26260.7
 09 05 2013  23 29  -21.0332 26034.8 -03437.5 -07.5216 26260.7
 09 05 2013  23 30  -21.0332 26034.8 -03437.6 -07.5216 26260.8
 09 05 2013  23 31  -21.0334 26034.8 -03437.5 -07.5216 26260.7
 09 05 2013  23 32  -21.0335 26034.8 -03437.5 -07.5216 26260.7
 09 05 2013  23 33  -21.0337 26034.8 -03437.6 -07.5217 26260.8
 09 05 2013  23 34  -21.0337 26034.9 -03437.6 -07.5217 26260.8
 09 05 2013  23 35  -21.0338 26034.9 -03437.6 -07.5217 26260.8
 09 05 2013  23 36  -21.0339 26034.9 -03437.6 -07.5217 26260.8
 09 05 2013  23 37  -21.0341 26034.8 -03437.6 -07.5217 26260.8
 09 05 2013  23 38  -21.0344 26034.8 -03437.5 -07.5216 26260.7
 09 05 2013  23 39  -21.0346 26034.7 -03437.5 -07.5215 26260.6
 09 05 2013  23 40  -21.0348 26034.5 -03437.4 -07.5214 26260.5
 09 05 2013  23 41  -21.0350 26034.4 -03437.4 -07.5213 26260.4
 09 05 2013  23 42  -21.0351 26034.4 -03437.3 -07.5213 26260.4
 09 05 2013  23 43  -21.0351 26034.5 -03437.3 -07.5213 26260.4
 09 05 2013  23 44  -21.0351 26034.5 -03437.3 -07.5213 26260.4
 09 05 2013  23 45  -21.0350 26034.5 -03437.4 -07.5213 26260.4
 09 05 2013  23 46  -21.0350 26034.5 -03437.4 -07.5213 26260.4
 09 05 2013  23 47  -21.0350 26034.5 -03437.4 -07.5213 26260.4
 09 05 2013  23 48  -21.0350 26034.5 -03437.4 -07.5213 26260.4
 09 05 2013  23 49  -21.0350 26034.5 -03437.3 -07.5213 26260.4
 09 05 2013  23 50  -21.0349 26034.5 -03437.4 -07.5213 26260.4
 09 05 2013  23 51  -21.0348 26034.5 -03437.4 -07.5213 26260.5
 09 05 2013  23 52  -21.0348 26034.5 -03437.4 -07.5213 26260.5
 09 05 2013  23 53  -21.0349 26034.5 -03437.4 -07.5213 26260.4
 09 05 2013  23 54  -21.0349 26034.5 -03437.4 -07.5213 26260.4
 09 05 2013  23 55  -21.0350 26034.5 -03437.4 -07.5214 26260.4
 09 05 2013  23 56  -21.0350 26034.6 -03437.4 -07.5214 26260.5
 09 05 2013  23 57  -21.0349 26034.7 -03437.5 -07.5215 26260.6
 09 05 2013  23 58  -21.0348 26034.7 -03437.5 -07.5215 26260.6
