SAO LUIS EMBRACE-03 <157> 1 Min. Reported data

 DD MM YYYY  HH MM   D(Deg)  H(nT)   Z(nT)   I(Deg)   F(nT)

 06 06 2013  00 00  -21.0461 26018.9 -03447.1 -07.5468 26246.3
 06 06 2013  00 01  -21.0460 26019.0 -03447.2 -07.5469 26246.4
 06 06 2013  00 02  -21.0459 26019.1 -03447.2 -07.5469 26246.4
 06 06 2013  00 03  -21.0460 26019.1 -03447.2 -07.5470 26246.4
 06 06 2013  00 04  -21.0461 26019.2 -03447.2 -07.5470 26246.6
 06 06 2013  00 05  -21.0461 26019.3 -03447.3 -07.5471 26246.7
 06 06 2013  00 06  -21.0463 26019.4 -03447.3 -07.5472 26246.8
 06 06 2013  00 07  -21.0466 26019.4 -03447.4 -07.5472 26246.8
 06 06 2013  00 08  -21.0466 26019.5 -03447.4 -07.5472 26246.9
 06 06 2013  00 09  -21.0465 26019.4 -03447.4 -07.5473 26246.8
 06 06 2013  00 10  -21.0463 26019.4 -03447.3 -07.5471 26246.7
 06 06 2013  00 11  -21.0463 26019.3 -03447.2 -07.5469 26246.7
 06 06 2013  00 12  -21.0461 26019.2 -03447.2 -07.5469 26246.6
 06 06 2013  00 13  -21.0459 26019.1 -03447.1 -07.5468 26246.5
 06 06 2013  00 14  -21.0458 26019.0 -03447.1 -07.5467 26246.4
 06 06 2013  00 15  -21.0458 26019.0 -03447.1 -07.5467 26246.4
 06 06 2013  00 16  -21.0457 26019.0 -03447.1 -07.5467 26246.3
 06 06 2013  00 17  -21.0457 26019.0 -03447.1 -07.5468 26246.3
 06 06 2013  00 18  -21.0456 26019.0 -03447.1 -07.5468 26246.3
 06 06 2013  00 19  -21.0454 26019.1 -03447.2 -07.5469 26246.5
 06 06 2013  00 20  -21.0453 26019.2 -03447.2 -07.5470 26246.6
 06 06 2013  00 21  -21.0453 26019.3 -03447.3 -07.5471 26246.7
 06 06 2013  00 22  -21.0453 26019.3 -03447.3 -07.5472 26246.7
 06 06 2013  00 23  -21.0452 26019.3 -03447.3 -07.5471 26246.7
 06 06 2013  00 24  -21.0450 26019.5 -03447.4 -07.5472 26246.8
 06 06 2013  00 25  -21.0448 26019.5 -03447.3 -07.5472 26246.8
 06 06 2013  00 26  -21.0446 26019.5 -03447.3 -07.5471 26246.9
 06 06 2013  00 27  -21.0447 26019.4 -03447.3 -07.5471 26246.8
 06 06 2013  00 28  -21.0448 26019.4 -03447.3 -07.5471 26246.8
 06 06 2013  00 29  -21.0449 26019.4 -03447.3 -07.5472 26246.8
 06 06 2013  00 30  -21.0448 26019.4 -03447.3 -07.5472 26246.8
 06 06 2013  00 31  -21.0446 26019.4 -03447.3 -07.5471 26246.8
 06 06 2013  00 32  -21.0443 26019.5 -03447.3 -07.5471 26246.8
 06 06 2013  00 33  -21.0442 26019.5 -03447.3 -07.5471 26246.9
 06 06 2013  00 34  -21.0440 26019.4 -03447.3 -07.5471 26246.8
 06 06 2013  00 35  -21.0439 26019.3 -03447.3 -07.5471 26246.6
 06 06 2013  00 36  -21.0439 26019.2 -03447.2 -07.5470 26246.6
 06 06 2013  00 37  -21.0440 26019.2 -03447.2 -07.5470 26246.6
 06 06 2013  00 38  -21.0439 26019.2 -03447.2 -07.5470 26246.5
 06 06 2013  00 39  -21.0437 26019.1 -03447.2 -07.5470 26246.5
 06 06 2013  00 40  -21.0435 26019.0 -03447.1 -07.5469 26246.4
 06 06 2013  00 41  -21.0431 26019.0 -03447.1 -07.5469 26246.3
 06 06 2013  00 42  -21.0427 26018.9 -03447.1 -07.5468 26246.3
 06 06 2013  00 43  -21.0426 26018.9 -03447.1 -07.5468 26246.2
 06 06 2013  00 44  -21.0423 26018.9 -03447.1 -07.5469 26246.2
 06 06 2013  00 45  -21.0424 26018.9 -03447.2 -07.5470 26246.2
 06 06 2013  00 46  -21.0424 26018.9 -03447.2 -07.5471 26246.2
 06 06 2013  00 47  -21.0424 26019.0 -03447.3 -07.5472 26246.4
 06 06 2013  00 48  -21.0425 26019.1 -03447.4 -07.5474 26246.5
 06 06 2013  00 49  -21.0425 26019.2 -03447.5 -07.5476 26246.6
 06 06 2013  00 50  -21.0425 26019.4 -03447.6 -07.5477 26246.8
 06 06 2013  00 51  -21.0424 26019.6 -03447.7 -07.5479 26247.0
 06 06 2013  00 52  -21.0425 26019.7 -03447.8 -07.5480 26247.2
 06 06 2013  00 53  -21.0428 26019.8 -03447.8 -07.5481 26247.3
 06 06 2013  00 54  -21.0431 26019.9 -03447.8 -07.5481 26247.3
 06 06 2013  00 55  -21.0434 26019.8 -03447.8 -07.5481 26247.3
 06 06 2013  00 56  -21.0435 26019.8 -03447.7 -07.5480 26247.2
 06 06 2013  00 57  -21.0436 26019.8 -03447.7 -07.5478 26247.2
 06 06 2013  00 58  -21.0437 26019.7 -03447.6 -07.5477 26247.1
 06 06 2013  00 59  -21.0439 26019.7 -03447.6 -07.5477 26247.1
 06 06 2013  01 00  -21.0440 26019.7 -03447.6 -07.5477 26247.1
 06 06 2013  01 01  -21.0440 26019.7 -03447.6 -07.5478 26247.1
 06 06 2013  01 02  -21.0440 26019.8 -03447.7 -07.5478 26247.2
 06 06 2013  01 03  -21.0440 26019.8 -03447.7 -07.5478 26247.3
 06 06 2013  01 04  -21.0438 26020.0 -03447.7 -07.5478 26247.4
 06 06 2013  01 05  -21.0437 26020.0 -03447.7 -07.5479 26247.5
 06 06 2013  01 06  -21.0435 26020.1 -03447.8 -07.5479 26247.5
 06 06 2013  01 07  -21.0434 26020.1 -03447.8 -07.5479 26247.6
 06 06 2013  01 08  -21.0433 26020.1 -03447.7 -07.5479 26247.5
 06 06 2013  01 09  -21.0433 26020.1 -03447.7 -07.5479 26247.5
 06 06 2013  01 10  -21.0433 26020.2 -03447.7 -07.5478 26247.6
 06 06 2013  01 11  -21.0433 26020.3 -03447.8 -07.5480 26247.8
 06 06 2013  01 12  -21.0434 26020.4 -03447.8 -07.5480 26247.9
 06 06 2013  01 13  -21.0434 26020.5 -03447.8 -07.5480 26247.9
 06 06 2013  01 14  -21.0432 26020.6 -03447.9 -07.5480 26248.0
 06 06 2013  01 15  -21.0431 26020.6 -03447.9 -07.5480 26248.1
 06 06 2013  01 16  -21.0430 26020.7 -03447.9 -07.5481 26248.2
 06 06 2013  01 17  -21.0429 26020.7 -03448.0 -07.5481 26248.2
 06 06 2013  01 18  -21.0429 26020.8 -03448.0 -07.5481 26248.3
 06 06 2013  01 19  -21.0430 26020.8 -03448.0 -07.5482 26248.3
 06 06 2013  01 20  -21.0430 26020.7 -03447.9 -07.5481 26248.2
 06 06 2013  01 21  -21.0431 26020.6 -03447.9 -07.5480 26248.1
 06 06 2013  01 22  -21.0431 26020.6 -03447.8 -07.5479 26248.0
 06 06 2013  01 23  -21.0430 26020.6 -03447.8 -07.5479 26248.0
 06 06 2013  01 24  -21.0429 26020.6 -03447.8 -07.5479 26248.1
 06 06 2013  01 25  -21.0429 26020.6 -03447.8 -07.5480 26248.1
 06 06 2013  01 26  -21.0430 26020.8 -03447.9 -07.5480 26248.2
 06 06 2013  01 27  -21.0430 26020.9 -03448.0 -07.5482 26248.3
 06 06 2013  01 28  -21.0431 26020.9 -03448.0 -07.5482 26248.4
 06 06 2013  01 29  -21.0432 26021.0 -03448.0 -07.5482 26248.4
 06 06 2013  01 30  -21.0433 26021.0 -03448.0 -07.5482 26248.4
 06 06 2013  01 31  -21.0433 26020.9 -03447.9 -07.5481 26248.3
 06 06 2013  01 32  -21.0434 26020.8 -03447.9 -07.5480 26248.2
 06 06 2013  01 33  -21.0433 26020.8 -03447.8 -07.5478 26248.2
 06 06 2013  01 34  -21.0432 26020.7 -03447.8 -07.5479 26248.1
 06 06 2013  01 35  -21.0430 26020.6 -03447.8 -07.5478 26248.1
 06 06 2013  01 36  -21.0429 26020.5 -03447.7 -07.5476 26247.9
 06 06 2013  01 37  -21.0426 26020.4 -03447.6 -07.5476 26247.9
 06 06 2013  01 38  -21.0425 26020.4 -03447.6 -07.5476 26247.8
 06 06 2013  01 39  -21.0424 26020.3 -03447.6 -07.5476 26247.8
 06 06 2013  01 40  -21.0424 26020.4 -03447.7 -07.5476 26247.8
 06 06 2013  01 41  -21.0424 26020.4 -03447.7 -07.5477 26247.8
 06 06 2013  01 42  -21.0425 26020.4 -03447.7 -07.5477 26247.8
 06 06 2013  01 43  -21.0427 26020.4 -03447.7 -07.5478 26247.9
 06 06 2013  01 44  -21.0428 26020.5 -03447.8 -07.5478 26247.9
 06 06 2013  01 45  -21.0429 26020.6 -03447.8 -07.5479 26248.1
 06 06 2013  01 46  -21.0431 26020.8 -03447.9 -07.5480 26248.2
 06 06 2013  01 47  -21.0432 26020.8 -03447.9 -07.5480 26248.3
 06 06 2013  01 48  -21.0434 26020.9 -03447.9 -07.5480 26248.3
 06 06 2013  01 49  -21.0436 26020.9 -03447.9 -07.5480 26248.4
 06 06 2013  01 50  -21.0438 26021.0 -03447.9 -07.5480 26248.4
 06 06 2013  01 51  -21.0438 26021.1 -03447.9 -07.5480 26248.5
 06 06 2013  01 52  -21.0438 26021.1 -03447.9 -07.5479 26248.5
 06 06 2013  01 53  -21.0437 26021.0 -03447.8 -07.5478 26248.5
 06 06 2013  01 54  -21.0436 26021.0 -03447.8 -07.5477 26248.5
 06 06 2013  01 55  -21.0435 26021.1 -03447.8 -07.5477 26248.5
 06 06 2013  01 56  -21.0434 26021.2 -03447.8 -07.5478 26248.6
 06 06 2013  01 57  -21.0434 26021.1 -03447.8 -07.5477 26248.6
 06 06 2013  01 58  -21.0432 26021.3 -03447.8 -07.5478 26248.7
 06 06 2013  01 59  -21.0431 26021.3 -03447.9 -07.5478 26248.7
 06 06 2013  02 00  -21.0429 26021.5 -03447.9 -07.5479 26248.9
 06 06 2013  02 01  -21.0429 26021.5 -03448.0 -07.5480 26248.9
 06 06 2013  02 02  -21.0429 26021.6 -03448.0 -07.5479 26249.0
 06 06 2013  02 03  -21.0431 26021.5 -03448.0 -07.5479 26249.0
 06 06 2013  02 04  -21.0432 26021.6 -03448.0 -07.5480 26249.1
 06 06 2013  02 05  -21.0433 26021.6 -03448.0 -07.5479 26249.0
 06 06 2013  02 06  -21.0432 26021.5 -03447.9 -07.5478 26248.9
 06 06 2013  02 07  -21.0433 26021.4 -03447.8 -07.5477 26248.8
 06 06 2013  02 08  -21.0433 26021.2 -03447.7 -07.5475 26248.6
 06 06 2013  02 09  -21.0432 26021.1 -03447.7 -07.5474 26248.5
 06 06 2013  02 10  -21.0432 26021.1 -03447.7 -07.5474 26248.5
 06 06 2013  02 11  -21.0432 26021.1 -03447.7 -07.5474 26248.5
 06 06 2013  02 12  -21.0432 26020.9 -03447.6 -07.5473 26248.3
 06 06 2013  02 13  -21.0431 26020.9 -03447.6 -07.5473 26248.3
 06 06 2013  02 14  -21.0430 26020.8 -03447.6 -07.5473 26248.2
 06 06 2013  02 15  -21.0429 26020.7 -03447.5 -07.5472 26248.1
 06 06 2013  02 16  -21.0427 26020.5 -03447.4 -07.5470 26247.9
 06 06 2013  02 17  -21.0425 26020.3 -03447.3 -07.5469 26247.7
 06 06 2013  02 18  -21.0421 26020.2 -03447.2 -07.5468 26247.5
 06 06 2013  02 19  -21.0418 26020.1 -03447.2 -07.5468 26247.5
 06 06 2013  02 20  -21.0416 26020.0 -03447.2 -07.5468 26247.4
 06 06 2013  02 21  -21.0414 26020.0 -03447.3 -07.5469 26247.4
 06 06 2013  02 22  -21.0414 26020.0 -03447.3 -07.5469 26247.3
 06 06 2013  02 23  -21.0413 26020.0 -03447.3 -07.5470 26247.3
 06 06 2013  02 24  -21.0410 26020.0 -03447.4 -07.5472 26247.4
 06 06 2013  02 25  -21.0408 26020.0 -03447.5 -07.5473 26247.4
 06 06 2013  02 26  -21.0407 26020.1 -03447.5 -07.5474 26247.5
 06 06 2013  02 27  -21.0406 26020.1 -03447.6 -07.5475 26247.5
 06 06 2013  02 28  -21.0405 26020.1 -03447.6 -07.5476 26247.5
 06 06 2013  02 29  -21.0404 26020.0 -03447.6 -07.5476 26247.4
 06 06 2013  02 30  -21.0404 26019.9 -03447.6 -07.5476 26247.3
 06 06 2013  02 31  -21.0404 26019.9 -03447.6 -07.5476 26247.3
 06 06 2013  02 32  -21.0404 26019.8 -03447.6 -07.5477 26247.2
 06 06 2013  02 33  -21.0403 26019.9 -03447.7 -07.5478 26247.3
 06 06 2013  02 34  -21.0401 26019.8 -03447.7 -07.5478 26247.2
 06 06 2013  02 35  -21.0398 26019.8 -03447.7 -07.5479 26247.2
 06 06 2013  02 36  -21.0397 26019.8 -03447.7 -07.5480 26247.2
 06 06 2013  02 37  -21.0395 26019.9 -03447.8 -07.5481 26247.3
 06 06 2013  02 38  -21.0394 26019.9 -03447.9 -07.5482 26247.4
 06 06 2013  02 39  -21.0394 26020.0 -03448.0 -07.5484 26247.5
 06 06 2013  02 40  -21.0394 26020.0 -03448.0 -07.5485 26247.5
 06 06 2013  02 41  -21.0395 26020.1 -03448.1 -07.5486 26247.5
 06 06 2013  02 42  -21.0396 26020.0 -03448.1 -07.5486 26247.4
 06 06 2013  02 43  -21.0397 26019.9 -03448.1 -07.5486 26247.4
 06 06 2013  02 44  -21.0398 26020.0 -03448.1 -07.5487 26247.4
 06 06 2013  02 45  -21.0400 26020.0 -03448.1 -07.5487 26247.5
 06 06 2013  02 46  -21.0401 26020.0 -03448.1 -07.5488 26247.5
 06 06 2013  02 47  -21.0401 26020.1 -03448.2 -07.5489 26247.6
 06 06 2013  02 48  -21.0400 26020.1 -03448.2 -07.5489 26247.6
 06 06 2013  02 49  -21.0399 26020.2 -03448.3 -07.5490 26247.6
 06 06 2013  02 50  -21.0398 26020.2 -03448.3 -07.5491 26247.7
 06 06 2013  02 51  -21.0397 26020.3 -03448.4 -07.5492 26247.8
 06 06 2013  02 52  -21.0396 26020.4 -03448.4 -07.5493 26248.0
 06 06 2013  02 53  -21.0395 26020.5 -03448.5 -07.5495 26248.1
 06 06 2013  02 54  -21.0395 26021.0 -03448.8 -07.5498 26248.6
 06 06 2013  02 55  -21.0383 26021.8 -03449.1 -07.5503 26249.3
 06 06 2013  02 56  -21.0374 26022.9 -03449.7 -07.5512 26250.5
 06 06 2013  02 57  -21.0373 26023.6 -03450.1 -07.5520 26251.3
 06 06 2013  02 58  -21.0376 26023.9 -03450.3 -07.5524 26251.7
 06 06 2013  02 59  -21.0381 26024.2 -03450.5 -07.5526 26252.0
 06 06 2013  03 00  -21.0386 26024.2 -03450.4 -07.5524 26251.9
 06 06 2013  03 01  -21.0388 26024.1 -03450.3 -07.5522 26251.8
 06 06 2013  03 02  -21.0390 26024.1 -03450.2 -07.5520 26251.8
 06 06 2013  03 03  -21.0391 26024.2 -03450.1 -07.5519 26251.9
 06 06 2013  03 04  -21.0386 26024.8 -03450.3 -07.5521 26252.5
 06 06 2013  03 05  -21.0376 26026.0 -03450.9 -07.5530 26253.8
 06 06 2013  03 06  -21.0376 26026.7 -03451.2 -07.5536 26254.5
 06 06 2013  03 07  -21.0378 26027.0 -03451.4 -07.5539 26254.8
 06 06 2013  03 08  -21.0381 26026.9 -03451.4 -07.5538 26254.8
 06 06 2013  03 09  -21.0391 26026.5 -03451.1 -07.5534 26254.4
 06 06 2013  03 10  -21.0399 26025.9 -03450.7 -07.5527 26253.7
 06 06 2013  03 11  -21.0403 26025.3 -03450.3 -07.5520 26253.0
 06 06 2013  03 12  -21.0398 26025.0 -03450.0 -07.5513 26252.7
 06 06 2013  03 13  -21.0391 26024.9 -03449.8 -07.5510 26252.5
 06 06 2013  03 14  -21.0386 26024.8 -03449.7 -07.5508 26252.5
 06 06 2013  03 15  -21.0378 26025.2 -03449.9 -07.5510 26252.8
 06 06 2013  03 16  -21.0371 26025.3 -03449.9 -07.5511 26252.9
 06 06 2013  03 17  -21.0366 26025.5 -03450.0 -07.5513 26253.2
 06 06 2013  03 18  -21.0367 26025.2 -03449.9 -07.5512 26252.9
 06 06 2013  03 19  -21.0367 26025.1 -03449.9 -07.5511 26252.8
 06 06 2013  03 20  -21.0367 26025.3 -03450.0 -07.5513 26253.0
 06 06 2013  03 21  -21.0368 26025.7 -03450.2 -07.5515 26253.4
 06 06 2013  03 22  -21.0368 26026.0 -03450.4 -07.5519 26253.7
 06 06 2013  03 23  -21.0379 26026.1 -03450.5 -07.5521 26253.8
 06 06 2013  03 24  -21.0388 26025.7 -03450.3 -07.5518 26253.4
 06 06 2013  03 25  -21.0396 26025.6 -03450.2 -07.5516 26253.3
 06 06 2013  03 26  -21.0401 26025.2 -03449.9 -07.5512 26252.9
 06 06 2013  03 27  -21.0406 26025.2 -03449.9 -07.5510 26252.9
 06 06 2013  03 28  -21.0410 26025.8 -03450.1 -07.5513 26253.4
 06 06 2013  03 29  -21.0408 26026.0 -03450.2 -07.5514 26253.7
 06 06 2013  03 30  -21.0410 26026.5 -03450.4 -07.5518 26254.2
 06 06 2013  03 31  -21.0412 26026.5 -03450.4 -07.5517 26254.3
 06 06 2013  03 32  -21.0414 26026.5 -03450.3 -07.5515 26254.2
 06 06 2013  03 33  -21.0417 26026.6 -03450.3 -07.5515 26254.3
 06 06 2013  03 34  -21.0415 26026.9 -03450.3 -07.5515 26254.6
 06 06 2013  03 35  -21.0418 26027.5 -03450.6 -07.5520 26255.3
 06 06 2013  03 36  -21.0422 26028.4 -03451.0 -07.5525 26256.2
 06 06 2013  03 37  -21.0424 26028.8 -03451.1 -07.5527 26256.6
 06 06 2013  03 38  -21.0426 26029.5 -03451.4 -07.5531 26257.3
 06 06 2013  03 39  -21.0432 26029.8 -03451.5 -07.5532 26257.6
 06 06 2013  03 40  -21.0441 26030.1 -03451.5 -07.5532 26257.9
 06 06 2013  03 41  -21.0447 26030.1 -03451.4 -07.5528 26257.9
 06 06 2013  03 42  -21.0450 26030.3 -03451.2 -07.5525 26258.1
 06 06 2013  03 43  -21.0451 26030.7 -03451.3 -07.5525 26258.5
 06 06 2013  03 44  -21.0452 26030.8 -03451.2 -07.5522 26258.6
 06 06 2013  03 45  -21.0451 26031.1 -03451.1 -07.5521 26258.9
 06 06 2013  03 46  -21.0448 26031.5 -03451.2 -07.5521 26259.2
 06 06 2013  03 47  -21.0446 26031.5 -03451.1 -07.5519 26259.3
 06 06 2013  03 48  -21.0445 26031.9 -03451.2 -07.5519 26259.7
 06 06 2013  03 49  -21.0438 26031.9 -03451.0 -07.5516 26259.7
 06 06 2013  03 50  -21.0432 26032.0 -03451.0 -07.5515 26259.8
 06 06 2013  03 51  -21.0426 26032.3 -03451.0 -07.5514 26260.0
 06 06 2013  03 52  -21.0424 26032.0 -03450.8 -07.5511 26259.7
 06 06 2013  03 53  -21.0422 26031.9 -03450.7 -07.5508 26259.6
 06 06 2013  03 54  -21.0423 26031.6 -03450.5 -07.5505 26259.3
 06 06 2013  03 55  -21.0425 26031.8 -03450.5 -07.5506 26259.5
 06 06 2013  03 56  -21.0424 26032.1 -03450.6 -07.5507 26259.8
 06 06 2013  03 57  -21.0419 26032.7 -03450.9 -07.5510 26260.4
 06 06 2013  03 58  -21.0414 26033.3 -03451.1 -07.5514 26261.1
 06 06 2013  03 59  -21.0413 26033.7 -03451.2 -07.5516 26261.4
 06 06 2013  04 00  -21.0411 26033.7 -03451.2 -07.5515 26261.5
 06 06 2013  04 01  -21.0413 26033.6 -03451.1 -07.5513 26261.3
 06 06 2013  04 02  -21.0412 26033.6 -03451.1 -07.5512 26261.3
 06 06 2013  04 03  -21.0413 26033.9 -03451.1 -07.5513 26261.6
 06 06 2013  04 04  -21.0415 26034.1 -03451.2 -07.5514 26261.9
 06 06 2013  04 05  -21.0415 26034.1 -03451.1 -07.5512 26261.8
 06 06 2013  04 06  -21.0415 26034.0 -03451.1 -07.5511 26261.7
 06 06 2013  04 07  -21.0413 26033.8 -03450.9 -07.5508 26261.5
 06 06 2013  04 08  -21.0410 26033.5 -03450.7 -07.5504 26261.2
 06 06 2013  04 09  -21.0408 26033.3 -03450.5 -07.5501 26261.0
 06 06 2013  04 10  -21.0407 26033.1 -03450.3 -07.5498 26260.7
 06 06 2013  04 11  -21.0406 26032.9 -03450.2 -07.5495 26260.6
 06 06 2013  04 12  -21.0407 26032.7 -03450.1 -07.5494 26260.3
 06 06 2013  04 13  -21.0407 26032.4 -03449.9 -07.5491 26260.0
 06 06 2013  04 14  -21.0406 26032.1 -03449.8 -07.5488 26259.7
 06 06 2013  04 15  -21.0400 26032.1 -03449.7 -07.5487 26259.6
 06 06 2013  04 16  -21.0391 26032.0 -03449.7 -07.5487 26259.6
 06 06 2013  04 17  -21.0389 26031.6 -03449.6 -07.5485 26259.2
 06 06 2013  04 18  -21.0387 26030.9 -03449.3 -07.5481 26258.4
 06 06 2013  04 19  -21.0386 26030.5 -03449.1 -07.5478 26258.0
 06 06 2013  04 20  -21.0385 26030.3 -03449.0 -07.5477 26257.8
 06 06 2013  04 21  -21.0385 26030.2 -03449.1 -07.5478 26257.7
 06 06 2013  04 22  -21.0388 26030.3 -03449.2 -07.5481 26257.8
 06 06 2013  04 23  -21.0392 26030.5 -03449.3 -07.5484 26258.0
 06 06 2013  04 24  -21.0396 26030.6 -03449.5 -07.5487 26258.1
 06 06 2013  04 25  -21.0398 26030.5 -03449.6 -07.5488 26258.1
 06 06 2013  04 26  -21.0401 26030.3 -03449.4 -07.5486 26257.9
 06 06 2013  04 27  -21.0404 26030.1 -03449.4 -07.5486 26257.6
 06 06 2013  04 28  -21.0409 26029.9 -03449.3 -07.5485 26257.4
 06 06 2013  04 29  -21.0412 26029.8 -03449.3 -07.5484 26257.3
 06 06 2013  04 30  -21.0415 26029.7 -03449.2 -07.5483 26257.2
 06 06 2013  04 31  -21.0414 26029.6 -03449.1 -07.5482 26257.1
 06 06 2013  04 32  -21.0414 26029.3 -03449.0 -07.5480 26256.9
 06 06 2013  04 33  -21.0415 26029.3 -03448.9 -07.5479 26256.8
 06 06 2013  04 34  -21.0418 26029.1 -03448.9 -07.5479 26256.6
 06 06 2013  04 35  -21.0422 26029.1 -03449.0 -07.5480 26256.6
 06 06 2013  04 36  -21.0424 26029.4 -03449.1 -07.5482 26257.0
 06 06 2013  04 37  -21.0430 26029.7 -03449.3 -07.5485 26257.2
 06 06 2013  04 38  -21.0435 26029.7 -03449.3 -07.5486 26257.3
 06 06 2013  04 39  -21.0442 26029.9 -03449.4 -07.5487 26257.4
 06 06 2013  04 40  -21.0450 26029.9 -03449.5 -07.5488 26257.5
 06 06 2013  04 41  -21.0457 26030.1 -03449.5 -07.5489 26257.7
 06 06 2013  04 42  -21.0461 26030.5 -03449.7 -07.5490 26258.1
 06 06 2013  04 43  -21.0465 26030.9 -03449.8 -07.5493 26258.5
 06 06 2013  04 44  -21.0473 26031.2 -03450.0 -07.5495 26258.8
 06 06 2013  04 45  -21.0478 26031.5 -03450.1 -07.5497 26259.2
 06 06 2013  04 46  -21.0485 26031.5 -03450.0 -07.5496 26259.2
 06 06 2013  04 47  -21.0487 26031.3 -03449.8 -07.5491 26258.9
 06 06 2013  04 48  -21.0485 26031.1 -03449.6 -07.5486 26258.7
 06 06 2013  04 49  -21.0481 26030.9 -03449.3 -07.5481 26258.4
 06 06 2013  04 50  -21.0475 26030.6 -03449.0 -07.5476 26258.1
 06 06 2013  04 51  -21.0468 26030.3 -03448.8 -07.5472 26257.8
 06 06 2013  04 52  -21.0456 26029.9 -03448.5 -07.5467 26257.4
 06 06 2013  04 53  -21.0446 26029.5 -03448.2 -07.5462 26256.9
 06 06 2013  04 54  -21.0433 26029.1 -03448.0 -07.5458 26256.4
 06 06 2013  04 55  -21.0420 26028.7 -03447.8 -07.5455 26256.1
 06 06 2013  04 56  -21.0410 26028.4 -03447.7 -07.5454 26255.8
 06 06 2013  04 57  -21.0401 26028.3 -03447.7 -07.5455 26255.6
 06 06 2013  04 58  -21.0393 26028.1 -03447.7 -07.5455 26255.5
 06 06 2013  04 59  -21.0385 26028.0 -03447.7 -07.5455 26255.3
 06 06 2013  05 00  -21.0378 26027.7 -03447.7 -07.5456 26255.1
 06 06 2013  05 01  -21.0371 26027.5 -03447.7 -07.5456 26254.9
 06 06 2013  05 02  -21.0362 26027.5 -03447.7 -07.5456 26254.8
 06 06 2013  05 03  -21.0354 26027.3 -03447.8 -07.5458 26254.7
 06 06 2013  05 04  -21.0346 26027.1 -03447.7 -07.5459 26254.5
 06 06 2013  05 05  -21.0339 26027.0 -03447.8 -07.5460 26254.4
 06 06 2013  05 06  -21.0333 26027.0 -03447.8 -07.5461 26254.4
 06 06 2013  05 07  -21.0328 26027.0 -03447.9 -07.5462 26254.4
 06 06 2013  05 08  -21.0324 26027.0 -03448.0 -07.5465 26254.4
 06 06 2013  05 09  -21.0319 26027.1 -03448.1 -07.5467 26254.5
 06 06 2013  05 10  -21.0315 26027.2 -03448.2 -07.5469 26254.6
 06 06 2013  05 11  -21.0312 26027.2 -03448.3 -07.5470 26254.7
 06 06 2013  05 12  -21.0310 26027.2 -03448.4 -07.5472 26254.6
 06 06 2013  05 13  -21.0306 26027.0 -03448.3 -07.5472 26254.5
 06 06 2013  05 14  -21.0305 26026.8 -03448.2 -07.5470 26254.2
 06 06 2013  05 15  -21.0306 26026.3 -03448.1 -07.5468 26253.8
 06 06 2013  05 16  -21.0306 26026.2 -03448.0 -07.5467 26253.6
 06 06 2013  05 17  -21.0307 26026.0 -03448.0 -07.5467 26253.4
 06 06 2013  05 18  -21.0307 26025.5 -03447.8 -07.5464 26252.9
 06 06 2013  05 19  -21.0307 26025.3 -03447.7 -07.5463 26252.7
 06 06 2013  05 20  -21.0304 26025.4 -03447.7 -07.5463 26252.8
 06 06 2013  05 21  -21.0301 26025.7 -03447.9 -07.5467 26253.1
 06 06 2013  05 22  -21.0297 26026.1 -03448.2 -07.5471 26253.5
 06 06 2013  05 23  -21.0290 26026.7 -03448.5 -07.5476 26254.1
 06 06 2013  05 24  -21.0283 26027.0 -03448.7 -07.5480 26254.5
 06 06 2013  05 25  -21.0275 26027.1 -03448.8 -07.5481 26254.6
 06 06 2013  05 26  -21.0268 26027.0 -03448.7 -07.5481 26254.5
 06 06 2013  05 27  -21.0263 26026.8 -03448.6 -07.5479 26254.3
 06 06 2013  05 28  -21.0261 26026.5 -03448.6 -07.5478 26253.9
 06 06 2013  05 29  -21.0262 26026.2 -03448.4 -07.5476 26253.6
 06 06 2013  05 30  -21.0266 26025.8 -03448.3 -07.5474 26253.2
 06 06 2013  05 31  -21.0271 26025.4 -03448.1 -07.5472 26252.8
 06 06 2013  05 32  -21.0275 26025.0 -03448.0 -07.5470 26252.4
 06 06 2013  05 33  -21.0280 26024.7 -03447.8 -07.5468 26252.1
 06 06 2013  05 34  -21.0284 26024.6 -03447.8 -07.5467 26252.0
 06 06 2013  05 35  -21.0287 26024.9 -03448.0 -07.5470 26252.4
 06 06 2013  05 36  -21.0287 26025.9 -03448.5 -07.5479 26253.4
 06 06 2013  05 37  -21.0288 26026.9 -03449.1 -07.5489 26254.4
 06 06 2013  05 38  -21.0291 26027.3 -03449.4 -07.5493 26254.9
 06 06 2013  05 39  -21.0296 26027.4 -03449.5 -07.5495 26255.0
 06 06 2013  05 40  -21.0302 26027.4 -03449.4 -07.5494 26255.0
 06 06 2013  05 41  -21.0308 26027.4 -03449.4 -07.5493 26255.0
 06 06 2013  05 42  -21.0313 26027.3 -03449.3 -07.5491 26254.9
 06 06 2013  05 43  -21.0317 26027.2 -03449.2 -07.5489 26254.8
 06 06 2013  05 44  -21.0321 26027.4 -03449.2 -07.5489 26255.0
 06 06 2013  05 45  -21.0325 26027.6 -03449.3 -07.5491 26255.2
 06 06 2013  05 46  -21.0331 26027.8 -03449.4 -07.5492 26255.3
 06 06 2013  05 47  -21.0337 26027.6 -03449.3 -07.5491 26255.2
 06 06 2013  05 48  -21.0343 26027.5 -03449.2 -07.5489 26255.0
 06 06 2013  05 49  -21.0346 26027.5 -03449.1 -07.5488 26255.0
 06 06 2013  05 50  -21.0350 26027.6 -03449.2 -07.5488 26255.2
 06 06 2013  05 51  -21.0357 26027.6 -03449.2 -07.5488 26255.2
 06 06 2013  05 52  -21.0363 26027.7 -03449.2 -07.5488 26255.3
 06 06 2013  05 53  -21.0368 26027.9 -03449.2 -07.5489 26255.4
 06 06 2013  05 54  -21.0375 26028.0 -03449.3 -07.5490 26255.5
 06 06 2013  05 55  -21.0381 26028.0 -03449.3 -07.5489 26255.5
 06 06 2013  05 56  -21.0391 26027.6 -03449.1 -07.5486 26255.2
 06 06 2013  05 57  -21.0397 26027.3 -03448.8 -07.5481 26254.8
 06 06 2013  05 58  -21.0401 26027.0 -03448.6 -07.5477 26254.5
 06 06 2013  05 59  -21.0405 26027.0 -03448.5 -07.5475 26254.4
 06 06 2013  06 00  -21.0407 26027.0 -03448.4 -07.5474 26254.5
 06 06 2013  06 01  -21.0409 26027.2 -03448.5 -07.5475 26254.6
 06 06 2013  06 02  -21.0410 26027.4 -03448.6 -07.5476 26254.8
 06 06 2013  06 03  -21.0409 26027.7 -03448.7 -07.5477 26255.1
 06 06 2013  06 04  -21.0408 26027.8 -03448.7 -07.5478 26255.3
 06 06 2013  06 05  -21.0408 26028.1 -03448.8 -07.5478 26255.6
 06 06 2013  06 06  -21.0409 26028.3 -03448.9 -07.5479 26255.8
 06 06 2013  06 07  -21.0408 26028.3 -03448.8 -07.5479 26255.8
 06 06 2013  06 08  -21.0408 26028.0 -03448.6 -07.5475 26255.5
 06 06 2013  06 09  -21.0407 26027.8 -03448.4 -07.5471 26255.3
 06 06 2013  06 10  -21.0406 26027.5 -03448.2 -07.5468 26254.9
 06 06 2013  06 11  -21.0406 26027.1 -03448.0 -07.5464 26254.5
 06 06 2013  06 12  -21.0404 26026.7 -03447.8 -07.5460 26254.1
 06 06 2013  06 13  -21.0402 26026.5 -03447.7 -07.5459 26253.9
 06 06 2013  06 14  -21.0400 26026.3 -03447.6 -07.5457 26253.6
 06 06 2013  06 15  -21.0398 26025.9 -03447.4 -07.5456 26253.2
 06 06 2013  06 16  -21.0395 26025.7 -03447.4 -07.5455 26253.0
 06 06 2013  06 17  -21.0394 26025.5 -03447.4 -07.5455 26252.9
 06 06 2013  06 18  -21.0393 26025.3 -03447.3 -07.5454 26252.6
 06 06 2013  06 19  -21.0391 26025.2 -03447.3 -07.5455 26252.5
 06 06 2013  06 20  -21.0390 26025.0 -03447.3 -07.5454 26252.4
 06 06 2013  06 21  -21.0390 26024.9 -03447.2 -07.5454 26252.2
 06 06 2013  06 22  -21.0391 26024.7 -03447.2 -07.5454 26252.0
 06 06 2013  06 23  -21.0388 26024.4 -03447.1 -07.5453 26251.7
 06 06 2013  06 24  -21.0383 26024.3 -03447.1 -07.5453 26251.6
 06 06 2013  06 25  -21.0381 26023.9 -03447.0 -07.5452 26251.2
 06 06 2013  06 26  -21.0380 26023.5 -03446.9 -07.5451 26250.8
 06 06 2013  06 27  -21.0378 26023.6 -03447.0 -07.5453 26250.9
 06 06 2013  06 28  -21.0377 26023.6 -03447.1 -07.5456 26250.9
 06 06 2013  06 29  -21.0377 26023.9 -03447.3 -07.5459 26251.2
 06 06 2013  06 30  -21.0380 26024.1 -03447.6 -07.5463 26251.5
 06 06 2013  06 31  -21.0387 26024.6 -03447.9 -07.5469 26252.1
 06 06 2013  06 32  -21.0394 26025.1 -03448.2 -07.5474 26252.5
 06 06 2013  06 33  -21.0400 26025.8 -03448.5 -07.5479 26253.2
 06 06 2013  06 34  -21.0403 26026.4 -03448.8 -07.5483 26253.9
 06 06 2013  06 35  -21.0403 26026.9 -03448.9 -07.5485 26254.4
 06 06 2013  06 36  -21.0395 26026.8 -03448.8 -07.5483 26254.3
 06 06 2013  06 37  -21.0387 26026.2 -03448.4 -07.5475 26253.6
 06 06 2013  06 38  -21.0384 26025.2 -03447.8 -07.5464 26252.6
 06 06 2013  06 39  -21.0384 26024.3 -03447.2 -07.5456 26251.6
 06 06 2013  06 40  -21.0379 26023.9 -03446.9 -07.5451 26251.2
 06 06 2013  06 41  -21.0371 26023.8 -03447.0 -07.5451 26251.1
 06 06 2013  06 42  -21.0364 26023.8 -03447.0 -07.5453 26251.1
 06 06 2013  06 43  -21.0356 26024.0 -03447.2 -07.5457 26251.4
 06 06 2013  06 44  -21.0350 26024.3 -03447.5 -07.5462 26251.7
 06 06 2013  06 45  -21.0342 26025.0 -03447.9 -07.5468 26252.5
 06 06 2013  06 46  -21.0333 26025.7 -03448.3 -07.5475 26253.2
 06 06 2013  06 47  -21.0329 26026.2 -03448.7 -07.5481 26253.7
 06 06 2013  06 48  -21.0330 26026.4 -03448.8 -07.5484 26253.9
 06 06 2013  06 49  -21.0334 26026.6 -03449.0 -07.5486 26254.1
 06 06 2013  06 50  -21.0341 26026.7 -03449.1 -07.5488 26254.3
 06 06 2013  06 51  -21.0348 26026.8 -03449.1 -07.5489 26254.4
 06 06 2013  06 52  -21.0354 26026.8 -03449.0 -07.5487 26254.3
 06 06 2013  06 53  -21.0361 26026.7 -03449.0 -07.5486 26254.2
 06 06 2013  06 54  -21.0366 26026.5 -03448.8 -07.5484 26254.0
 06 06 2013  06 55  -21.0369 26026.6 -03448.8 -07.5483 26254.1
 06 06 2013  06 56  -21.0371 26026.5 -03448.7 -07.5482 26254.0
 06 06 2013  06 57  -21.0373 26026.4 -03448.6 -07.5480 26253.9
 06 06 2013  06 58  -21.0374 26026.4 -03448.6 -07.5479 26253.9
 06 06 2013  06 59  -21.0376 26026.4 -03448.6 -07.5479 26253.9
 06 06 2013  07 00  -21.0380 26026.4 -03448.5 -07.5478 26253.9
 06 06 2013  07 01  -21.0383 26026.4 -03448.5 -07.5478 26253.9
 06 06 2013  07 02  -21.0382 26026.5 -03448.5 -07.5477 26253.9
 06 06 2013  07 03  -21.0383 26026.5 -03448.5 -07.5477 26253.9
 06 06 2013  07 04  -21.0387 26026.2 -03448.4 -07.5475 26253.6
 06 06 2013  07 05  -21.0393 26025.8 -03448.2 -07.5472 26253.3
 06 06 2013  07 06  -21.0396 26025.6 -03448.0 -07.5469 26253.0
 06 06 2013  07 07  -21.0397 26025.6 -03448.0 -07.5468 26253.0
 06 06 2013  07 08  -21.0397 26025.6 -03447.9 -07.5467 26253.0
 06 06 2013  07 09  -21.0395 26025.4 -03447.8 -07.5465 26252.8
 06 06 2013  07 10  -21.0396 26025.3 -03447.7 -07.5464 26252.7
 06 06 2013  07 11  -21.0397 26025.2 -03447.7 -07.5462 26252.5
 06 06 2013  07 12  -21.0399 26025.1 -03447.6 -07.5461 26252.4
 06 06 2013  07 13  -21.0402 26024.9 -03447.5 -07.5461 26252.3
 06 06 2013  07 14  -21.0404 26024.6 -03447.4 -07.5458 26252.0
 06 06 2013  07 15  -21.0405 26024.3 -03447.2 -07.5455 26251.6
 06 06 2013  07 16  -21.0405 26024.0 -03447.1 -07.5453 26251.3
 06 06 2013  07 17  -21.0406 26023.8 -03446.9 -07.5451 26251.1
 06 06 2013  07 18  -21.0406 26023.6 -03446.8 -07.5449 26250.9
 06 06 2013  07 19  -21.0405 26023.2 -03446.6 -07.5446 26250.4
 06 06 2013  07 20  -21.0403 26023.2 -03446.6 -07.5446 26250.4
 06 06 2013  07 21  -21.0400 26022.9 -03446.5 -07.5444 26250.1
 06 06 2013  07 22  -21.0397 26022.8 -03446.5 -07.5444 26250.0
 06 06 2013  07 23  -21.0393 26022.8 -03446.5 -07.5443 26250.0
 06 06 2013  07 24  -21.0390 26022.5 -03446.4 -07.5443 26249.7
 06 06 2013  07 25  -21.0392 26022.1 -03446.3 -07.5441 26249.3
 06 06 2013  07 26  -21.0396 26021.8 -03446.2 -07.5441 26249.0
 06 06 2013  07 27  -21.0396 26021.6 -03446.1 -07.5440 26248.8
 06 06 2013  07 28  -21.0395 26021.4 -03446.0 -07.5438 26248.6
 06 06 2013  07 29  -21.0396 26021.2 -03446.0 -07.5438 26248.4
 06 06 2013  07 30  -21.0398 26021.0 -03445.9 -07.5437 26248.2
 06 06 2013  07 31  -21.0401 26020.8 -03445.9 -07.5437 26247.9
 06 06 2013  07 32  -21.0402 26020.5 -03445.8 -07.5435 26247.7
 06 06 2013  07 33  -21.0403 26020.0 -03445.6 -07.5432 26247.2
 06 06 2013  07 34  -21.0401 26019.7 -03445.4 -07.5429 26246.8
 06 06 2013  07 35  -21.0401 26019.5 -03445.3 -07.5428 26246.6
 06 06 2013  07 36  -21.0404 26019.2 -03445.2 -07.5427 26246.3
 06 06 2013  07 37  -21.0403 26018.8 -03445.1 -07.5425 26245.9
 06 06 2013  07 38  -21.0403 26018.5 -03445.0 -07.5424 26245.6
 06 06 2013  07 39  -21.0404 26018.2 -03444.9 -07.5423 26245.2
 06 06 2013  07 40  -21.0406 26017.9 -03444.9 -07.5423 26245.0
 06 06 2013  07 41  -21.0408 26017.8 -03444.9 -07.5423 26244.8
 06 06 2013  07 42  -21.0407 26018.1 -03445.1 -07.5427 26245.2
 06 06 2013  07 43  -21.0403 26018.5 -03445.3 -07.5431 26245.6
 06 06 2013  07 44  -21.0404 26018.7 -03445.5 -07.5435 26245.8
 06 06 2013  07 45  -21.0409 26018.8 -03445.6 -07.5437 26246.0
 06 06 2013  07 46  -21.0414 26018.9 -03445.7 -07.5438 26246.0
 06 06 2013  07 47  -21.0418 26018.9 -03445.8 -07.5440 26246.1
 06 06 2013  07 48  -21.0419 26018.8 -03445.7 -07.5438 26245.9
 06 06 2013  07 49  -21.0423 26018.9 -03445.7 -07.5439 26246.0
 06 06 2013  07 50  -21.0427 26018.9 -03445.7 -07.5439 26246.1
 06 06 2013  07 51  -21.0431 26018.9 -03445.8 -07.5439 26246.1
 06 06 2013  07 52  -21.0434 26018.8 -03445.7 -07.5439 26246.0
 06 06 2013  07 53  -21.0434 26018.7 -03445.6 -07.5437 26245.9
 06 06 2013  07 54  -21.0434 26018.6 -03445.6 -07.5436 26245.8
 06 06 2013  07 55  -21.0434 26018.8 -03445.7 -07.5438 26245.9
 06 06 2013  07 56  -21.0433 26018.8 -03445.7 -07.5438 26246.0
 06 06 2013  07 57  -21.0434 26019.0 -03445.8 -07.5440 26246.2
 06 06 2013  07 58  -21.0433 26019.1 -03445.8 -07.5440 26246.3
 06 06 2013  07 59  -21.0427 26019.5 -03446.0 -07.5444 26246.7
 06 06 2013  08 00  -21.0423 26020.0 -03446.3 -07.5448 26247.3
 06 06 2013  08 01  -21.0430 26020.1 -03446.4 -07.5451 26247.3
 06 06 2013  08 02  -21.0437 26020.2 -03446.5 -07.5453 26247.4
 06 06 2013  08 03  -21.0443 26020.0 -03446.5 -07.5453 26247.3
 06 06 2013  08 04  -21.0448 26019.9 -03446.5 -07.5452 26247.2
 06 06 2013  08 05  -21.0451 26020.0 -03446.4 -07.5451 26247.3
 06 06 2013  08 06  -21.0453 26019.5 -03446.2 -07.5447 26246.7
 06 06 2013  08 07  -21.0447 26019.5 -03446.1 -07.5445 26246.7
 06 06 2013  08 08  -21.0447 26019.5 -03446.2 -07.5447 26246.8
 06 06 2013  08 09  -21.0450 26019.1 -03446.0 -07.5444 26246.3
 06 06 2013  08 10  -21.0451 26018.5 -03445.8 -07.5440 26245.7
 06 06 2013  08 11  -21.0452 26018.2 -03445.6 -07.5438 26245.4
 06 06 2013  08 12  -21.0452 26018.4 -03445.8 -07.5440 26245.6
 06 06 2013  08 13  -21.0443 26018.7 -03445.9 -07.5444 26245.9
 06 06 2013  08 14  -21.0432 26018.8 -03446.1 -07.5447 26246.0
 06 06 2013  08 15  -21.0428 26018.9 -03446.2 -07.5450 26246.2
 06 06 2013  08 16  -21.0425 26019.0 -03446.3 -07.5452 26246.2
 06 06 2013  08 17  -21.0423 26018.7 -03446.3 -07.5452 26245.9
 06 06 2013  08 18  -21.0425 26018.2 -03446.2 -07.5450 26245.5
 06 06 2013  08 19  -21.0424 26018.3 -03446.3 -07.5452 26245.6
 06 06 2013  08 20  -21.0422 26018.4 -03446.4 -07.5454 26245.7
 06 06 2013  08 21  -21.0417 26018.7 -03446.6 -07.5457 26246.0
 06 06 2013  08 22  -21.0413 26019.2 -03446.8 -07.5462 26246.5
 06 06 2013  08 23  -21.0413 26019.7 -03447.2 -07.5469 26247.0
 06 06 2013  08 24  -21.0414 26019.9 -03447.5 -07.5474 26247.3
 06 06 2013  08 25  -21.0411 26020.1 -03447.6 -07.5476 26247.5
 06 06 2013  08 26  -21.0406 26020.5 -03447.8 -07.5480 26247.9
 06 06 2013  08 27  -21.0404 26020.7 -03448.0 -07.5482 26248.1
 06 06 2013  08 28  -21.0402 26020.8 -03448.1 -07.5485 26248.3
 06 06 2013  08 29  -21.0401 26021.0 -03448.2 -07.5485 26248.5
 06 06 2013  08 30  -21.0402 26021.2 -03448.3 -07.5488 26248.7
 06 06 2013  08 31  -21.0402 26021.6 -03448.4 -07.5490 26249.1
 06 06 2013  08 32  -21.0402 26022.0 -03448.7 -07.5494 26249.5
 06 06 2013  08 33  -21.0395 26021.7 -03448.5 -07.5491 26249.3
 06 06 2013  08 34  -21.0393 26021.6 -03448.4 -07.5490 26249.1
 06 06 2013  08 35  -21.0394 26021.9 -03448.6 -07.5492 26249.4
 06 06 2013  08 36  -21.0392 26022.2 -03448.7 -07.5493 26249.7
 06 06 2013  08 37  -21.0385 26022.3 -03448.7 -07.5493 26249.9
 06 06 2013  08 38  -21.0371 26022.4 -03448.6 -07.5492 26249.9
 06 06 2013  08 39  -21.0363 26022.3 -03448.6 -07.5491 26249.8
 06 06 2013  08 40  -21.0352 26022.0 -03448.4 -07.5488 26249.5
 06 06 2013  08 41  -21.0347 26022.1 -03448.5 -07.5489 26249.6
 06 06 2013  08 42  -21.0341 26022.4 -03448.7 -07.5493 26249.9
 06 06 2013  08 43  -21.0330 26022.3 -03448.7 -07.5494 26249.9
 06 06 2013  08 44  -21.0315 26022.5 -03448.8 -07.5495 26250.0
 06 06 2013  08 45  -21.0306 26022.6 -03448.9 -07.5498 26250.2
 06 06 2013  08 46  -21.0297 26022.7 -03449.1 -07.5501 26250.2
 06 06 2013  08 47  -21.0292 26022.6 -03449.2 -07.5503 26250.2
 06 06 2013  08 48  -21.0294 26022.7 -03449.5 -07.5508 26250.3
 06 06 2013  08 49  -21.0297 26023.1 -03449.9 -07.5516 26250.8
 06 06 2013  08 50  -21.0295 26023.3 -03450.1 -07.5520 26251.0
 06 06 2013  08 51  -21.0292 26023.5 -03450.2 -07.5522 26251.2
 06 06 2013  08 52  -21.0285 26023.8 -03450.4 -07.5526 26251.5
 06 06 2013  08 53  -21.0287 26023.9 -03450.6 -07.5529 26251.7
 06 06 2013  08 54  -21.0283 26024.1 -03450.8 -07.5533 26251.9
 06 06 2013  08 55  -21.0272 26024.5 -03450.9 -07.5535 26252.3
 06 06 2013  08 56  -21.0267 26024.6 -03451.1 -07.5538 26252.5
 06 06 2013  08 57  -21.0262 26024.7 -03451.2 -07.5540 26252.5
 06 06 2013  08 58  -21.0255 26024.8 -03451.2 -07.5541 26252.7
 06 06 2013  08 59  -21.0247 26024.9 -03451.3 -07.5541 26252.8
 06 06 2013  09 00  -21.0237 26025.0 -03451.3 -07.5543 26252.8
 06 06 2013  09 01  -21.0228 26025.0 -03451.4 -07.5543 26252.9
 06 06 2013  09 02  -21.0223 26024.9 -03451.4 -07.5543 26252.8
 06 06 2013  09 03  -21.0214 26024.5 -03451.2 -07.5541 26252.4
 06 06 2013  09 04  -21.0206 26024.1 -03450.9 -07.5537 26251.9
 06 06 2013  09 05  -21.0204 26023.7 -03450.7 -07.5532 26251.5
 06 06 2013  09 06  -21.0194 26023.9 -03450.6 -07.5531 26251.7
 06 06 2013  09 07  -21.0187 26024.2 -03450.7 -07.5531 26252.0
 06 06 2013  09 08  -21.0172 26024.4 -03450.8 -07.5532 26252.2
 06 06 2013  09 09  -21.0155 26024.6 -03450.8 -07.5533 26252.4
 06 06 2013  09 10  -21.0130 26024.5 -03450.8 -07.5532 26252.3
 06 06 2013  09 11  -21.0112 26024.7 -03450.9 -07.5534 26252.5
 06 06 2013  09 12  -21.0100 26025.2 -03451.3 -07.5541 26253.0
 06 06 2013  09 13  -21.0083 26025.4 -03451.5 -07.5545 26253.3
 06 06 2013  09 14  -21.0067 26025.6 -03451.6 -07.5547 26253.5
 06 06 2013  09 15  -21.0055 26025.8 -03451.9 -07.5551 26253.7
 06 06 2013  09 16  -21.0044 26026.1 -03452.1 -07.5555 26254.1
 06 06 2013  09 17  -21.0039 26026.8 -03452.5 -07.5562 26254.8
 06 06 2013  09 18  -21.0033 26027.1 -03452.7 -07.5567 26255.1
 06 06 2013  09 19  -21.0037 26027.4 -03453.0 -07.5571 26255.5
 06 06 2013  09 20  -21.0035 26028.0 -03453.4 -07.5578 26256.1
 06 06 2013  09 21  -21.0040 26028.3 -03453.6 -07.5582 26256.4
 06 06 2013  09 22  -21.0043 26028.6 -03453.8 -07.5586 26256.7
 06 06 2013  09 23  -21.0038 26028.7 -03453.9 -07.5587 26256.9
 06 06 2013  09 24  -21.0042 26028.7 -03453.9 -07.5588 26256.9
 06 06 2013  09 25  -21.0043 26028.8 -03453.9 -07.5588 26256.9
 06 06 2013  09 26  -21.0049 26029.0 -03454.1 -07.5590 26257.2
 06 06 2013  09 27  -21.0052 26029.3 -03454.2 -07.5592 26257.5
 06 06 2013  09 28  -21.0058 26029.6 -03454.4 -07.5595 26257.8
 06 06 2013  09 29  -21.0059 26029.9 -03454.5 -07.5597 26258.1
 06 06 2013  09 30  -21.0058 26030.2 -03454.6 -07.5598 26258.4
 06 06 2013  09 31  -21.0057 26030.0 -03454.5 -07.5596 26258.2
 06 06 2013  09 32  -21.0060 26029.8 -03454.4 -07.5594 26258.0
 06 06 2013  09 33  -21.0051 26029.4 -03454.1 -07.5589 26257.5
 06 06 2013  09 34  -21.0059 26029.0 -03453.9 -07.5586 26257.2
 06 06 2013  09 35  -21.0057 26029.3 -03454.0 -07.5588 26257.5
 06 06 2013  09 36  -21.0047 26029.6 -03454.1 -07.5589 26257.8
 06 06 2013  09 37  -21.0043 26029.8 -03454.1 -07.5589 26258.0
 06 06 2013  09 38  -21.0033 26030.1 -03454.2 -07.5591 26258.3
 06 06 2013  09 39  -21.0023 26030.3 -03454.4 -07.5593 26258.5
 06 06 2013  09 40  -21.0022 26030.3 -03454.4 -07.5595 26258.5
 06 06 2013  09 41  -21.0019 26030.6 -03454.6 -07.5598 26258.8
 06 06 2013  09 42  -21.0015 26030.6 -03454.8 -07.5600 26258.9
 06 06 2013  09 43  -21.0008 26030.7 -03454.8 -07.5602 26259.0
 06 06 2013  09 44  -21.0001 26031.3 -03455.1 -07.5606 26259.6
 06 06 2013  09 45  -21.0003 26031.8 -03455.4 -07.5610 26260.2
 06 06 2013  09 46  -21.0010 26031.8 -03455.4 -07.5610 26260.2
 06 06 2013  09 47  -21.0017 26032.1 -03455.5 -07.5613 26260.5
 06 06 2013  09 48  -21.0020 26032.2 -03455.6 -07.5613 26260.6
 06 06 2013  09 49  -21.0026 26032.2 -03455.6 -07.5614 26260.6
 06 06 2013  09 50  -21.0026 26032.2 -03455.6 -07.5614 26260.6
 06 06 2013  09 51  -21.0028 26032.0 -03455.5 -07.5612 26260.3
 06 06 2013  09 52  -21.0029 26032.2 -03455.6 -07.5614 26260.6
 06 06 2013  09 53  -21.0033 26032.6 -03455.8 -07.5617 26260.9
 06 06 2013  09 54  -21.0041 26032.3 -03455.7 -07.5615 26260.6
 06 06 2013  09 55  -21.0050 26031.8 -03455.5 -07.5612 26260.2
 06 06 2013  09 56  -21.0052 26032.4 -03455.7 -07.5615 26260.8
 06 06 2013  09 57  -21.0047 26033.1 -03456.0 -07.5620 26261.5
 06 06 2013  09 58  -21.0045 26033.4 -03456.2 -07.5623 26261.8
 06 06 2013  09 59  -21.0032 26033.9 -03456.4 -07.5627 26262.3
 06 06 2013  10 00  -21.0013 26034.3 -03456.5 -07.5627 26262.7
 06 06 2013  10 01  -20.9999 26034.6 -03456.5 -07.5627 26263.0
 06 06 2013  10 02  -20.9988 26035.3 -03456.8 -07.5631 26263.8
 06 06 2013  10 03  -20.9974 26036.3 -03457.1 -07.5634 26264.8
 06 06 2013  10 04  -20.9963 26036.5 -03457.0 -07.5631 26265.0
 06 06 2013  10 05  -20.9971 26035.9 -03456.5 -07.5623 26264.3
 06 06 2013  10 06  -20.9999 26035.5 -03456.1 -07.5616 26263.9
 06 06 2013  10 07  -21.0017 26035.0 -03455.8 -07.5611 26263.4
 06 06 2013  10 08  -21.0021 26034.5 -03455.5 -07.5605 26262.8
 06 06 2013  10 09  -21.0017 26034.3 -03455.4 -07.5603 26262.6
 06 06 2013  10 10  -21.0002 26034.5 -03455.4 -07.5603 26262.8
 06 06 2013  10 11  -20.9982 26034.5 -03455.4 -07.5603 26262.8
 06 06 2013  10 12  -20.9953 26034.0 -03455.1 -07.5599 26262.3
 06 06 2013  10 13  -20.9949 26033.4 -03455.0 -07.5598 26261.6
 06 06 2013  10 14  -20.9931 26034.1 -03455.4 -07.5605 26262.4
 06 06 2013  10 15  -20.9921 26034.3 -03455.7 -07.5611 26262.7
 06 06 2013  10 16  -20.9920 26034.7 -03456.1 -07.5617 26263.1
 06 06 2013  10 17  -20.9913 26035.6 -03456.5 -07.5624 26264.0
 06 06 2013  10 18  -20.9915 26036.3 -03456.9 -07.5630 26264.8
 06 06 2013  10 19  -20.9923 26036.7 -03457.2 -07.5636 26265.3
 06 06 2013  10 20  -20.9935 26037.1 -03457.4 -07.5638 26265.6
 06 06 2013  10 21  -20.9942 26037.6 -03457.5 -07.5640 26266.2
 06 06 2013  10 22  -20.9958 26038.3 -03457.8 -07.5644 26266.9
 06 06 2013  10 23  -20.9961 26038.4 -03457.8 -07.5643 26267.0
 06 06 2013  10 24  -20.9966 26037.8 -03457.3 -07.5635 26266.3
 06 06 2013  10 25  -20.9968 26037.8 -03457.1 -07.5631 26266.3
 06 06 2013  10 26  -20.9966 26038.0 -03457.1 -07.5630 26266.5
 06 06 2013  10 27  -20.9954 26037.9 -03456.9 -07.5626 26266.4
 06 06 2013  10 28  -20.9933 26038.3 -03457.0 -07.5626 26266.8
 06 06 2013  10 29  -20.9931 26038.6 -03457.0 -07.5627 26267.1
 06 06 2013  10 30  -20.9950 26038.7 -03457.0 -07.5626 26267.2
 06 06 2013  10 31  -20.9951 26039.8 -03457.5 -07.5633 26268.4
 06 06 2013  10 32  -20.9939 26039.9 -03457.3 -07.5629 26268.4
 06 06 2013  10 33  -20.9936 26039.8 -03457.1 -07.5625 26268.3
 06 06 2013  10 34  -20.9949 26040.0 -03457.1 -07.5625 26268.5
 06 06 2013  10 35  -20.9954 26040.2 -03457.1 -07.5623 26268.7
 06 06 2013  10 36  -20.9948 26040.8 -03457.2 -07.5623 26269.3
 06 06 2013  10 37  -20.9943 26041.2 -03457.2 -07.5623 26269.7
 06 06 2013  10 38  -20.9944 26041.4 -03457.2 -07.5621 26269.8
 06 06 2013  10 39  -20.9951 26041.3 -03457.0 -07.5618 26269.8
 06 06 2013  10 40  -20.9958 26041.5 -03457.0 -07.5617 26270.0
 06 06 2013  10 41  -20.9960 26041.6 -03456.9 -07.5614 26270.1
 06 06 2013  10 42  -20.9964 26041.8 -03456.8 -07.5612 26270.2
 06 06 2013  10 43  -20.9970 26042.1 -03456.7 -07.5610 26270.5
 06 06 2013  10 44  -20.9981 26042.1 -03456.5 -07.5604 26270.5
 06 06 2013  10 45  -20.9988 26042.2 -03456.3 -07.5600 26270.5
 06 06 2013  10 46  -20.9987 26042.4 -03456.1 -07.5596 26270.7
 06 06 2013  10 47  -20.9984 26042.4 -03456.0 -07.5593 26270.7
 06 06 2013  10 48  -20.9976 26042.2 -03455.8 -07.5590 26270.5
 06 06 2013  10 49  -20.9971 26042.1 -03455.7 -07.5588 26270.4
 06 06 2013  10 50  -20.9972 26042.4 -03455.8 -07.5588 26270.7
 06 06 2013  10 51  -20.9977 26042.5 -03455.8 -07.5588 26270.8
 06 06 2013  10 52  -20.9988 26042.8 -03455.8 -07.5588 26271.0
 06 06 2013  10 53  -20.9993 26043.1 -03455.8 -07.5588 26271.4
 06 06 2013  10 54  -20.9996 26042.7 -03455.6 -07.5585 26271.0
 06 06 2013  10 55  -20.9998 26042.5 -03455.5 -07.5582 26270.7
 06 06 2013  10 56  -21.0001 26042.7 -03455.5 -07.5582 26270.9
 06 06 2013  10 57  -21.0004 26042.8 -03455.5 -07.5582 26271.0
 06 06 2013  10 58  -21.0003 26042.9 -03455.5 -07.5581 26271.1
 06 06 2013  10 59  -21.0009 26042.6 -03455.3 -07.5578 26270.9
 06 06 2013  11 00  -21.0012 26042.3 -03455.0 -07.5572 26270.5
 06 06 2013  11 01  -21.0009 26042.1 -03454.8 -07.5568 26270.3
 06 06 2013  11 02  -21.0004 26042.1 -03454.7 -07.5566 26270.3
 06 06 2013  11 03  -20.9998 26042.3 -03454.6 -07.5563 26270.4
 06 06 2013  11 04  -20.9999 26042.2 -03454.4 -07.5560 26270.3
 06 06 2013  11 05  -21.0004 26041.8 -03454.2 -07.5556 26269.9
 06 06 2013  11 06  -21.0004 26042.1 -03454.2 -07.5556 26270.2
 06 06 2013  11 07  -20.9998 26042.6 -03454.4 -07.5558 26270.7
 06 06 2013  11 08  -20.9993 26042.9 -03454.3 -07.5556 26271.0
 06 06 2013  11 09  -20.9994 26042.7 -03454.0 -07.5550 26270.8
 06 06 2013  11 10  -20.9993 26042.4 -03453.7 -07.5543 26270.5
 06 06 2013  11 11  -20.9988 26041.9 -03453.3 -07.5537 26269.8
 06 06 2013  11 12  -20.9988 26041.2 -03453.0 -07.5531 26269.1
 06 06 2013  11 13  -20.9982 26041.2 -03452.9 -07.5530 26269.1
 06 06 2013  11 14  -20.9987 26041.6 -03453.1 -07.5533 26269.5
 06 06 2013  11 15  -20.9994 26041.7 -03453.1 -07.5532 26269.7
 06 06 2013  11 16  -21.0002 26042.0 -03453.1 -07.5532 26269.9
 06 06 2013  11 17  -21.0003 26042.0 -03453.0 -07.5529 26269.9
 06 06 2013  11 18  -21.0001 26042.1 -03452.9 -07.5528 26270.0
 06 06 2013  11 19  -20.9996 26042.5 -03453.0 -07.5527 26270.4
 06 06 2013  11 20  -20.9980 26042.8 -03452.9 -07.5526 26270.7
 06 06 2013  11 21  -20.9971 26043.1 -03452.9 -07.5525 26271.0
 06 06 2013  11 22  -20.9968 26043.7 -03453.0 -07.5526 26271.6
 06 06 2013  11 23  -20.9966 26044.0 -03453.1 -07.5527 26272.0
 06 06 2013  11 24  -20.9973 26044.1 -03453.2 -07.5528 26272.0
 06 06 2013  11 25  -20.9982 26044.1 -03453.2 -07.5529 26272.0
 06 06 2013  11 26  -20.9987 26044.2 -03453.3 -07.5530 26272.2
 06 06 2013  11 27  -20.9984 26044.6 -03453.4 -07.5531 26272.6
 06 06 2013  11 28  -20.9984 26045.3 -03453.7 -07.5535 26273.3
 06 06 2013  11 29  -20.9990 26045.8 -03453.9 -07.5538 26273.8
 06 06 2013  11 30  -20.9992 26045.9 -03453.9 -07.5538 26273.9
 06 06 2013  11 31  -21.0000 26045.8 -03453.8 -07.5537 26273.8
 06 06 2013  11 32  -21.0008 26045.7 -03453.8 -07.5536 26273.7
 06 06 2013  11 33  -21.0018 26045.6 -03453.7 -07.5535 26273.5
 06 06 2013  11 34  -21.0026 26045.5 -03453.7 -07.5534 26273.5
 06 06 2013  11 35  -21.0036 26045.6 -03453.7 -07.5535 26273.6
 06 06 2013  11 36  -21.0042 26045.0 -03453.5 -07.5531 26272.9
 06 06 2013  11 37  -21.0047 26044.4 -03453.3 -07.5528 26272.3
 06 06 2013  11 38  -21.0049 26043.9 -03453.1 -07.5527 26271.8
 06 06 2013  11 39  -21.0049 26044.5 -03453.6 -07.5535 26272.5
 06 06 2013  11 40  -21.0040 26045.2 -03454.0 -07.5543 26273.2
 06 06 2013  11 41  -21.0037 26045.3 -03454.1 -07.5544 26273.3
 06 06 2013  11 42  -21.0037 26045.7 -03454.2 -07.5544 26273.7
 06 06 2013  11 43  -21.0029 26046.1 -03454.2 -07.5543 26274.1
 06 06 2013  11 44  -21.0028 26046.1 -03454.0 -07.5540 26274.1
 06 06 2013  11 45  -21.0027 26046.1 -03454.0 -07.5539 26274.1
 06 06 2013  11 46  -21.0018 26046.4 -03454.0 -07.5538 26274.4
 06 06 2013  11 47  -21.0006 26046.6 -03454.0 -07.5537 26274.7
 06 06 2013  11 48  -21.0001 26046.8 -03453.9 -07.5536 26274.8
 06 06 2013  11 49  -20.9993 26046.7 -03453.8 -07.5533 26274.7
 06 06 2013  11 50  -20.9991 26046.6 -03453.6 -07.5530 26274.5
 06 06 2013  11 51  -20.9982 26046.9 -03453.7 -07.5530 26274.9
 06 06 2013  11 52  -20.9979 26047.2 -03453.7 -07.5530 26275.2
 06 06 2013  11 53  -20.9986 26047.0 -03453.6 -07.5529 26275.0
 06 06 2013  11 54  -20.9989 26047.2 -03453.6 -07.5528 26275.1
 06 06 2013  11 55  -20.9989 26047.9 -03453.9 -07.5532 26275.9
 06 06 2013  11 56  -20.9990 26048.6 -03454.1 -07.5534 26276.6
 06 06 2013  11 57  -20.9996 26049.4 -03454.3 -07.5537 26277.5
 06 06 2013  11 58  -21.0003 26050.2 -03454.5 -07.5539 26278.2
 06 06 2013  11 59  -21.0012 26050.1 -03454.3 -07.5534 26278.2
 06 06 2013  12 00  -21.0025 26049.7 -03454.0 -07.5528 26277.7
 06 06 2013  12 01  -21.0036 26049.4 -03453.7 -07.5524 26277.4
 06 06 2013  12 02  -21.0039 26049.3 -03453.5 -07.5521 26277.2
 06 06 2013  12 03  -21.0046 26049.1 -03453.4 -07.5518 26277.0
 06 06 2013  12 04  -21.0054 26048.8 -03453.2 -07.5515 26276.7
 06 06 2013  12 05  -21.0056 26049.0 -03453.2 -07.5514 26276.9
 06 06 2013  12 06  -21.0061 26049.0 -03453.1 -07.5512 26276.9
 06 06 2013  12 07  -21.0061 26048.7 -03452.9 -07.5508 26276.5
 06 06 2013  12 08  -21.0063 26049.0 -03452.9 -07.5506 26276.9
 06 06 2013  12 09  -21.0063 26049.9 -03453.1 -07.5509 26277.8
 06 06 2013  12 10  -21.0062 26050.8 -03453.3 -07.5510 26278.7
 06 06 2013  12 11  -21.0057 26051.8 -03453.3 -07.5509 26279.7
 06 06 2013  12 12  -21.0050 26052.8 -03453.4 -07.5507 26280.7
 06 06 2013  12 13  -21.0045 26053.6 -03453.3 -07.5503 26281.5
 06 06 2013  12 14  -21.0043 26054.6 -03453.3 -07.5500 26282.4
 06 06 2013  12 15  -21.0045 26055.4 -03453.3 -07.5497 26283.3
 06 06 2013  12 16  -21.0045 26056.7 -03453.3 -07.5495 26284.5
 06 06 2013  12 17  -21.0050 26058.1 -03453.5 -07.5494 26285.9
 06 06 2013  12 18  -21.0063 26058.8 -03453.3 -07.5488 26286.6
 06 06 2013  12 19  -21.0071 26059.8 -03453.2 -07.5482 26287.6
 06 06 2013  12 20  -21.0077 26060.6 -03453.0 -07.5476 26288.4
 06 06 2013  12 21  -21.0078 26061.6 -03452.9 -07.5472 26289.4
 06 06 2013  12 22  -21.0072 26062.2 -03452.8 -07.5467 26290.0
 06 06 2013  12 23  -21.0065 26062.8 -03452.7 -07.5463 26290.5
 06 06 2013  12 24  -21.0068 26063.3 -03452.6 -07.5460 26291.0
 06 06 2013  12 25  -21.0079 26063.8 -03452.5 -07.5456 26291.4
 06 06 2013  12 26  -21.0088 26064.3 -03452.4 -07.5453 26292.0
 06 06 2013  12 27  -21.0095 26064.7 -03452.3 -07.5449 26292.3
 06 06 2013  12 28  -21.0106 26064.4 -03452.0 -07.5443 26292.0
 06 06 2013  12 29  -21.0113 26064.8 -03452.0 -07.5444 26292.4
 06 06 2013  12 30  -21.0123 26063.8 -03451.6 -07.5437 26291.4
 06 06 2013  12 31  -21.0138 26062.6 -03451.1 -07.5430 26290.1
 06 06 2013  12 32  -21.0156 26062.3 -03451.2 -07.5433 26289.9
 06 06 2013  12 33  -21.0173 26062.3 -03451.4 -07.5437 26289.9
 06 06 2013  12 34  -21.0186 26062.5 -03451.6 -07.5440 26290.1
 06 06 2013  12 35  -21.0196 26062.5 -03451.6 -07.5441 26290.1
 06 06 2013  12 36  -21.0204 26062.0 -03451.4 -07.5439 26289.5
 06 06 2013  12 37  -21.0201 26061.9 -03451.5 -07.5440 26289.5
 06 06 2013  12 38  -21.0195 26062.4 -03451.7 -07.5444 26290.0
 06 06 2013  12 39  -21.0197 26062.9 -03452.0 -07.5448 26290.5
 06 06 2013  12 40  -21.0200 26063.5 -03452.3 -07.5453 26291.2
 06 06 2013  12 41  -21.0199 26064.1 -03452.6 -07.5458 26291.8
 06 06 2013  12 42  -21.0196 26065.2 -03453.0 -07.5464 26292.9
 06 06 2013  12 43  -21.0192 26065.7 -03453.2 -07.5465 26293.4
 06 06 2013  12 44  -21.0192 26065.4 -03453.0 -07.5463 26293.1
 06 06 2013  12 45  -21.0203 26065.4 -03453.1 -07.5465 26293.2
 06 06 2013  12 46  -21.0206 26064.8 -03452.9 -07.5462 26292.5
 06 06 2013  12 47  -21.0216 26064.8 -03453.0 -07.5464 26292.6
 06 06 2013  12 48  -21.0232 26064.6 -03453.1 -07.5466 26292.4
 06 06 2013  12 49  -21.0242 26063.9 -03452.9 -07.5464 26291.6
 06 06 2013  12 50  -21.0253 26062.8 -03452.6 -07.5461 26290.5
 06 06 2013  12 51  -21.0267 26062.2 -03452.6 -07.5464 26289.9
 06 06 2013  12 52  -21.0279 26061.5 -03452.6 -07.5465 26289.2
 06 06 2013  12 53  -21.0289 26061.1 -03452.6 -07.5467 26288.8
 06 06 2013  12 54  -21.0294 26060.9 -03452.8 -07.5471 26288.6
 06 06 2013  12 55  -21.0303 26061.2 -03453.1 -07.5477 26288.9
 06 06 2013  12 56  -21.0308 26061.1 -03453.3 -07.5482 26288.9
 06 06 2013  12 57  -21.0307 26060.9 -03453.6 -07.5488 26288.8
 06 06 2013  12 58  -21.0307 26060.8 -03453.8 -07.5493 26288.6
 06 06 2013  12 59  -21.0306 26060.6 -03454.0 -07.5498 26288.5
 06 06 2013  13 00  -21.0314 26060.7 -03454.4 -07.5506 26288.6
 06 06 2013  13 01  -21.0325 26060.6 -03454.6 -07.5511 26288.6
 06 06 2013  13 02  -21.0334 26060.6 -03454.7 -07.5514 26288.6
 06 06 2013  13 03  -21.0339 26059.9 -03454.6 -07.5513 26287.9
 06 06 2013  13 04  -21.0346 26059.2 -03454.5 -07.5512 26287.2
 06 06 2013  13 05  -21.0360 26059.0 -03454.6 -07.5516 26287.0
 06 06 2013  13 06  -21.0378 26059.0 -03454.9 -07.5521 26287.0
 06 06 2013  13 07  -21.0395 26058.6 -03454.8 -07.5521 26286.6
 06 06 2013  13 08  -21.0420 26057.9 -03454.7 -07.5520 26286.0
 06 06 2013  13 09  -21.0443 26057.4 -03454.5 -07.5518 26285.4
 06 06 2013  13 10  -21.0453 26057.1 -03454.4 -07.5517 26285.1
 06 06 2013  13 11  -21.0464 26057.5 -03454.6 -07.5520 26285.5
 06 06 2013  13 12  -21.0472 26058.3 -03455.0 -07.5526 26286.3
 06 06 2013  13 13  -21.0474 26059.2 -03455.3 -07.5530 26287.3
 06 06 2013  13 14  -21.0475 26059.9 -03455.4 -07.5531 26288.0
 06 06 2013  13 15  -21.0480 26059.9 -03455.3 -07.5527 26287.9
 06 06 2013  13 16  -21.0489 26059.4 -03454.8 -07.5519 26287.4
 06 06 2013  13 17  -21.0493 26058.9 -03454.4 -07.5512 26286.9
 06 06 2013  13 18  -21.0492 26059.0 -03454.4 -07.5511 26287.0
 06 06 2013  13 19  -21.0489 26059.9 -03454.7 -07.5515 26287.9
 06 06 2013  13 20  -21.0497 26060.9 -03455.1 -07.5520 26288.9
 06 06 2013  13 21  -21.0508 26060.6 -03454.7 -07.5513 26288.6
 06 06 2013  13 22  -21.0509 26060.5 -03454.4 -07.5506 26288.4
 06 06 2013  13 23  -21.0508 26060.8 -03454.3 -07.5503 26288.7
 06 06 2013  13 24  -21.0511 26061.8 -03454.7 -07.5509 26289.8
 06 06 2013  13 25  -21.0511 26062.7 -03454.9 -07.5512 26290.7
 06 06 2013  13 26  -21.0513 26064.0 -03455.3 -07.5516 26292.0
 06 06 2013  13 27  -21.0520 26065.3 -03455.5 -07.5516 26293.3
 06 06 2013  13 28  -21.0527 26065.9 -03455.3 -07.5511 26294.0
 06 06 2013  13 29  -21.0530 26066.2 -03455.1 -07.5505 26294.1
 06 06 2013  13 30  -21.0538 26066.8 -03454.9 -07.5501 26294.8
 06 06 2013  13 31  -21.0544 26067.1 -03454.8 -07.5497 26295.0
 06 06 2013  13 32  -21.0545 26067.2 -03454.6 -07.5492 26295.1
 06 06 2013  13 33  -21.0554 26067.8 -03454.5 -07.5489 26295.7
 06 06 2013  13 34  -21.0564 26068.2 -03454.4 -07.5485 26296.0
 06 06 2013  13 35  -21.0572 26068.3 -03454.0 -07.5476 26296.1
 06 06 2013  13 36  -21.0578 26068.3 -03453.6 -07.5468 26296.1
 06 06 2013  13 37  -21.0581 26068.5 -03453.4 -07.5462 26296.2
 06 06 2013  13 38  -21.0586 26068.5 -03453.1 -07.5457 26296.2
 06 06 2013  13 39  -21.0592 26068.4 -03452.8 -07.5450 26296.1
 06 06 2013  13 40  -21.0600 26068.2 -03452.4 -07.5441 26295.9
 06 06 2013  13 41  -21.0608 26068.0 -03451.9 -07.5432 26295.6
 06 06 2013  13 42  -21.0610 26068.1 -03451.6 -07.5425 26295.6
 06 06 2013  13 43  -21.0613 26068.5 -03451.4 -07.5420 26296.0
 06 06 2013  13 44  -21.0623 26068.7 -03451.2 -07.5413 26296.1
 06 06 2013  13 45  -21.0632 26068.4 -03450.6 -07.5402 26295.8
 06 06 2013  13 46  -21.0638 26068.0 -03450.0 -07.5391 26295.4
 06 06 2013  13 47  -21.0639 26067.6 -03449.6 -07.5382 26294.9
 06 06 2013  13 48  -21.0644 26067.4 -03449.2 -07.5376 26294.6
 06 06 2013  13 49  -21.0656 26067.1 -03448.9 -07.5369 26294.3
 06 06 2013  13 50  -21.0664 26067.2 -03448.6 -07.5363 26294.4
 06 06 2013  13 51  -21.0666 26067.7 -03448.5 -07.5359 26294.8
 06 06 2013  13 52  -21.0666 26068.0 -03448.4 -07.5355 26295.1
 06 06 2013  13 53  -21.0672 26068.2 -03448.1 -07.5349 26295.3
 06 06 2013  13 54  -21.0674 26068.3 -03447.8 -07.5342 26295.3
 06 06 2013  13 55  -21.0674 26068.3 -03447.3 -07.5332 26295.2
 06 06 2013  13 56  -21.0674 26068.0 -03446.8 -07.5321 26294.8
 06 06 2013  13 57  -21.0669 26067.7 -03446.3 -07.5312 26294.5
 06 06 2013  13 58  -21.0659 26067.7 -03446.1 -07.5307 26294.5
 06 06 2013  13 59  -21.0655 26068.1 -03446.0 -07.5305 26294.9
 06 06 2013  14 00  -21.0655 26068.9 -03446.1 -07.5303 26295.7
 06 06 2013  14 01  -21.0657 26069.3 -03446.0 -07.5299 26296.1
 06 06 2013  14 02  -21.0656 26069.4 -03445.6 -07.5292 26296.1
 06 06 2013  14 03  -21.0661 26069.8 -03445.5 -07.5288 26296.5
 06 06 2013  14 04  -21.0665 26070.1 -03445.4 -07.5284 26296.8
 06 06 2013  14 05  -21.0668 26070.4 -03445.1 -07.5278 26297.1
 06 06 2013  14 06  -21.0667 26070.6 -03444.8 -07.5271 26297.2
 06 06 2013  14 07  -21.0664 26070.3 -03444.4 -07.5262 26296.8
 06 06 2013  14 08  -21.0667 26070.4 -03444.1 -07.5257 26296.9
 06 06 2013  14 09  -21.0673 26070.1 -03443.7 -07.5249 26296.5
 06 06 2013  14 10  -21.0666 26069.8 -03443.4 -07.5244 26296.3
 06 06 2013  14 11  -21.0666 26070.1 -03443.5 -07.5243 26296.5
 06 06 2013  14 12  -21.0675 26070.5 -03443.5 -07.5243 26297.0
 06 06 2013  14 13  -21.0686 26070.9 -03443.4 -07.5240 26297.3
 06 06 2013  14 14  -21.0691 26071.6 -03443.5 -07.5239 26298.1
 06 06 2013  14 15  -21.0697 26071.9 -03443.3 -07.5236 26298.3
 06 06 2013  14 16  -21.0706 26071.0 -03442.7 -07.5224 26297.3
 06 06 2013  14 17  -21.0710 26070.2 -03442.1 -07.5213 26296.5
 06 06 2013  14 18  -21.0707 26070.2 -03441.9 -07.5208 26296.5
 06 06 2013  14 19  -21.0702 26069.9 -03441.5 -07.5202 26296.1
 06 06 2013  14 20  -21.0690 26069.5 -03441.3 -07.5197 26295.7
 06 06 2013  14 21  -21.0678 26069.9 -03441.3 -07.5197 26296.1
 06 06 2013  14 22  -21.0670 26070.7 -03441.5 -07.5200 26296.8
 06 06 2013  14 23  -21.0661 26071.9 -03441.9 -07.5204 26298.2
 06 06 2013  14 24  -21.0648 26072.7 -03441.9 -07.5202 26298.9
 06 06 2013  14 25  -21.0640 26073.3 -03441.8 -07.5199 26299.5
 06 06 2013  14 26  -21.0625 26072.9 -03441.4 -07.5192 26299.0
 06 06 2013  14 27  -21.0612 26073.8 -03441.8 -07.5197 26300.0
 06 06 2013  14 28  -21.0615 26075.2 -03442.4 -07.5206 26301.5
 06 06 2013  14 29  -21.0616 26075.8 -03442.5 -07.5206 26302.1
 06 06 2013  14 30  -21.0621 26076.2 -03442.4 -07.5202 26302.4
 06 06 2013  14 31  -21.0617 26077.1 -03442.4 -07.5199 26303.3
 06 06 2013  14 32  -21.0613 26077.2 -03442.1 -07.5194 26303.4
 06 06 2013  14 33  -21.0603 26077.1 -03441.7 -07.5186 26303.2
 06 06 2013  14 34  -21.0598 26076.7 -03441.5 -07.5181 26302.8
 06 06 2013  14 35  -21.0591 26076.2 -03441.2 -07.5177 26302.3
 06 06 2013  14 36  -21.0583 26076.0 -03441.1 -07.5176 26302.1
 06 06 2013  14 37  -21.0584 26076.7 -03441.5 -07.5182 26302.9
 06 06 2013  14 38  -21.0594 26077.7 -03441.9 -07.5188 26303.8
 06 06 2013  14 39  -21.0598 26077.5 -03441.7 -07.5184 26303.7
 06 06 2013  14 40  -21.0601 26076.8 -03441.3 -07.5177 26302.9
 06 06 2013  14 41  -21.0596 26076.1 -03441.0 -07.5172 26302.2
 06 06 2013  14 42  -21.0602 26076.0 -03441.0 -07.5174 26302.1
 06 06 2013  14 43  -21.0612 26075.3 -03440.8 -07.5170 26301.3
 06 06 2013  14 44  -21.0607 26073.6 -03440.1 -07.5160 26299.5
 06 06 2013  14 45  -21.0601 26072.4 -03439.7 -07.5156 26298.3
 06 06 2013  14 46  -21.0607 26072.4 -03440.1 -07.5164 26298.4
 06 06 2013  14 47  -21.0622 26071.9 -03440.2 -07.5167 26297.9
 06 06 2013  14 48  -21.0621 26070.0 -03439.5 -07.5157 26295.9
 06 06 2013  14 49  -21.0618 26069.6 -03439.5 -07.5159 26295.6
 06 06 2013  14 50  -21.0632 26070.8 -03440.4 -07.5175 26296.9
 06 06 2013  14 51  -21.0641 26071.3 -03440.7 -07.5179 26297.3
 06 06 2013  14 52  -21.0644 26071.0 -03440.4 -07.5176 26297.0
 06 06 2013  14 53  -21.0651 26071.2 -03440.4 -07.5175 26297.2
 06 06 2013  14 54  -21.0655 26071.7 -03440.5 -07.5175 26297.7
 06 06 2013  14 55  -21.0659 26071.6 -03440.3 -07.5170 26297.6
 06 06 2013  14 56  -21.0658 26071.5 -03440.1 -07.5166 26297.5
 06 06 2013  14 57  -21.0658 26071.2 -03439.8 -07.5162 26297.1
 06 06 2013  14 58  -21.0659 26071.1 -03439.8 -07.5160 26297.1
 06 06 2013  14 59  -21.0667 26072.0 -03440.0 -07.5164 26297.9
 06 06 2013  15 00  -21.0664 26071.8 -03439.7 -07.5158 26297.7
 06 06 2013  15 01  -21.0659 26071.9 -03439.7 -07.5156 26297.8
 06 06 2013  15 02  -21.0674 26073.4 -03440.3 -07.5165 26299.3
 06 06 2013  15 03  -21.0675 26074.4 -03440.5 -07.5166 26300.4
 06 06 2013  15 04  -21.0682 26075.1 -03440.5 -07.5164 26301.1
 06 06 2013  15 05  -21.0686 26075.6 -03440.3 -07.5159 26301.6
 06 06 2013  15 06  -21.0687 26075.5 -03439.9 -07.5150 26301.4
 06 06 2013  15 07  -21.0684 26075.1 -03439.4 -07.5142 26301.0
 06 06 2013  15 08  -21.0684 26074.4 -03438.9 -07.5132 26300.2
 06 06 2013  15 09  -21.0684 26074.1 -03438.6 -07.5127 26299.9
 06 06 2013  15 10  -21.0693 26073.2 -03438.2 -07.5120 26298.9
 06 06 2013  15 11  -21.0680 26071.4 -03437.3 -07.5107 26297.0
 06 06 2013  15 12  -21.0695 26070.5 -03437.3 -07.5109 26296.1
 06 06 2013  15 13  -21.0692 26068.9 -03436.9 -07.5105 26294.5
 06 06 2013  15 14  -21.0695 26069.3 -03437.5 -07.5117 26295.0
 06 06 2013  15 15  -21.0704 26071.0 -03438.6 -07.5136 26296.8
 06 06 2013  15 16  -21.0683 26074.4 -03440.0 -07.5157 26300.4
 06 06 2013  15 17  -21.0702 26084.5 -03444.5 -07.5224 26310.9
 06 06 2013  15 18  -21.0716 26093.2 -03447.5 -07.5265 26320.0
 06 06 2013  15 19  -21.0733 26101.2 -03449.4 -07.5282 26328.1
 06 06 2013  15 20  -21.0741 26105.9 -03449.4 -07.5269 26332.8
 06 06 2013  15 21  -21.0720 26107.7 -03448.0 -07.5234 26334.4
 06 06 2013  15 22  -21.0692 26106.6 -03445.6 -07.5186 26333.0
 06 06 2013  15 23  -21.0678 26101.9 -03442.3 -07.5127 26327.9
 06 06 2013  15 24  -21.0654 26095.0 -03438.6 -07.5067 26320.6
 06 06 2013  15 25  -21.0648 26089.2 -03436.3 -07.5034 26314.6
 06 06 2013  15 26  -21.0647 26086.6 -03436.0 -07.5036 26311.9
 06 06 2013  15 27  -21.0656 26086.6 -03437.2 -07.5060 26312.1
 06 06 2013  15 28  -21.0655 26092.3 -03440.3 -07.5113 26318.1
 06 06 2013  15 29  -21.0693 26098.4 -03443.6 -07.5165 26324.6
 06 06 2013  15 30  -21.0720 26102.6 -03444.9 -07.5182 26329.0
 06 06 2013  15 31  -21.0734 26104.4 -03444.9 -07.5177 26330.8
 06 06 2013  15 32  -21.0728 26101.1 -03442.5 -07.5134 26327.1
 06 06 2013  15 33  -21.0727 26097.4 -03440.3 -07.5097 26323.1
 06 06 2013  15 34  -21.0726 26088.6 -03436.3 -07.5036 26313.9
 06 06 2013  15 35  -21.0693 26077.8 -03431.8 -07.4969 26302.7
 06 06 2013  15 36  -21.0673 26069.7 -03429.4 -07.4942 26294.3
 06 06 2013  15 37  -21.0677 26066.1 -03429.9 -07.4961 26290.8
 06 06 2013  15 38  -21.0707 26061.7 -03430.0 -07.4976 26286.4
 06 06 2013  15 39  -21.0703 26057.8 -03429.7 -07.4981 26282.5
 06 06 2013  15 40  -21.0702 26057.4 -03431.2 -07.5015 26282.3
 06 06 2013  15 41  -21.0732 26059.3 -03433.7 -07.5064 26284.6
 06 06 2013  15 42  -21.0769 26062.1 -03436.1 -07.5107 26287.7
 06 06 2013  15 43  -21.0776 26062.1 -03436.7 -07.5120 26287.7
 06 06 2013  15 44  -21.0768 26061.5 -03436.9 -07.5127 26287.1
 06 06 2013  15 45  -21.0776 26061.4 -03437.6 -07.5141 26287.2
 06 06 2013  15 46  -21.0803 26061.2 -03438.1 -07.5152 26287.0
 06 06 2013  15 47  -21.0830 26059.2 -03437.5 -07.5145 26284.9
 06 06 2013  15 48  -21.0823 26054.2 -03435.4 -07.5115 26279.7
 06 06 2013  15 49  -21.0804 26049.6 -03434.0 -07.5098 26275.0
 06 06 2013  15 50  -21.0800 26046.5 -03433.9 -07.5103 26271.9
 06 06 2013  15 51  -21.0801 26043.6 -03433.9 -07.5112 26269.0
 06 06 2013  15 52  -21.0803 26041.1 -03434.0 -07.5122 26266.6
 06 06 2013  15 53  -21.0810 26039.4 -03434.5 -07.5137 26264.9
 06 06 2013  15 54  -21.0818 26039.5 -03435.6 -07.5161 26265.2
 06 06 2013  15 55  -21.0831 26040.7 -03437.0 -07.5187 26266.6
 06 06 2013  15 56  -21.0835 26041.4 -03437.8 -07.5203 26267.3
 06 06 2013  15 57  -21.0836 26041.5 -03438.2 -07.5212 26267.5
 06 06 2013  15 58  -21.0844 26041.6 -03438.6 -07.5220 26267.6
 06 06 2013  15 59  -21.0848 26041.0 -03438.6 -07.5222 26267.0
 06 06 2013  16 00  -21.0846 26040.3 -03438.5 -07.5222 26266.3
 06 06 2013  16 01  -21.0853 26040.8 -03439.1 -07.5232 26266.9
 06 06 2013  16 02  -21.0859 26041.0 -03439.5 -07.5241 26267.2
 06 06 2013  16 03  -21.0870 26041.4 -03440.0 -07.5250 26267.6
 06 06 2013  16 04  -21.0876 26041.4 -03440.1 -07.5253 26267.7
 06 06 2013  16 05  -21.0872 26040.8 -03439.9 -07.5250 26267.0
 06 06 2013  16 06  -21.0865 26040.7 -03440.1 -07.5254 26267.0
 06 06 2013  16 07  -21.0873 26040.9 -03440.5 -07.5262 26267.2
 06 06 2013  16 08  -21.0886 26041.6 -03440.9 -07.5269 26267.9
 06 06 2013  16 09  -21.0891 26042.0 -03441.1 -07.5272 26268.4
 06 06 2013  16 10  -21.0890 26041.7 -03440.8 -07.5267 26268.0
 06 06 2013  16 11  -21.0885 26041.0 -03440.5 -07.5262 26267.3
 06 06 2013  16 12  -21.0882 26040.5 -03440.4 -07.5262 26266.8
 06 06 2013  16 13  -21.0882 26040.4 -03440.5 -07.5264 26266.7
 06 06 2013  16 14  -21.0880 26040.2 -03440.6 -07.5266 26266.5
 06 06 2013  16 15  -21.0881 26040.2 -03440.6 -07.5268 26266.5
 06 06 2013  16 16  -21.0882 26040.4 -03440.8 -07.5270 26266.7
 06 06 2013  16 17  -21.0881 26040.7 -03440.9 -07.5272 26267.0
 06 06 2013  16 18  -21.0885 26041.3 -03441.2 -07.5277 26267.7
 06 06 2013  16 19  -21.0887 26042.2 -03441.5 -07.5280 26268.6
 06 06 2013  16 20  -21.0892 26043.2 -03441.8 -07.5284 26269.7
 06 06 2013  16 21  -21.0894 26043.9 -03441.9 -07.5285 26270.3
 06 06 2013  16 22  -21.0898 26044.5 -03441.9 -07.5283 26271.0
 06 06 2013  16 23  -21.0898 26045.1 -03441.9 -07.5281 26271.5
 06 06 2013  16 24  -21.0899 26045.6 -03441.9 -07.5279 26272.0
 06 06 2013  16 25  -21.0899 26045.9 -03441.8 -07.5277 26272.3
 06 06 2013  16 26  -21.0900 26046.1 -03441.8 -07.5275 26272.5
 06 06 2013  16 27  -21.0901 26046.4 -03441.7 -07.5274 26272.8
 06 06 2013  16 28  -21.0903 26046.8 -03441.8 -07.5274 26273.2
 06 06 2013  16 29  -21.0907 26047.4 -03441.9 -07.5273 26273.8
 06 06 2013  16 30  -21.0909 26047.8 -03441.9 -07.5272 26274.2
 06 06 2013  16 31  -21.0910 26048.2 -03441.8 -07.5271 26274.6
 06 06 2013  16 32  -21.0912 26048.5 -03441.8 -07.5269 26274.9
 06 06 2013  16 33  -21.0910 26048.9 -03441.8 -07.5267 26275.3
 06 06 2013  16 34  -21.0918 26050.2 -03442.2 -07.5273 26276.7
 06 06 2013  16 35  -21.0930 26051.9 -03442.7 -07.5279 26278.4
 06 06 2013  16 36  -21.0938 26052.8 -03442.7 -07.5276 26279.3
 06 06 2013  16 37  -21.0939 26052.9 -03442.3 -07.5267 26279.4
 06 06 2013  16 38  -21.0936 26053.0 -03441.9 -07.5259 26279.4
 06 06 2013  16 39  -21.0933 26053.3 -03441.8 -07.5256 26279.7
 06 06 2013  16 40  -21.0935 26053.9 -03441.9 -07.5256 26280.3
 06 06 2013  16 41  -21.0934 26054.0 -03441.7 -07.5251 26280.4
 06 06 2013  16 42  -21.0934 26054.1 -03441.5 -07.5247 26280.5
 06 06 2013  16 43  -21.0941 26054.5 -03441.5 -07.5245 26280.8
 06 06 2013  16 44  -21.0942 26054.8 -03441.4 -07.5243 26281.1
 06 06 2013  16 45  -21.0943 26055.6 -03441.5 -07.5242 26281.9
 06 06 2013  16 46  -21.0945 26056.0 -03441.5 -07.5241 26282.3
 06 06 2013  16 47  -21.0953 26056.3 -03441.5 -07.5239 26282.5
 06 06 2013  16 48  -21.0960 26056.6 -03441.3 -07.5236 26282.8
 06 06 2013  16 49  -21.0965 26057.0 -03441.2 -07.5232 26283.2
 06 06 2013  16 50  -21.0967 26057.1 -03441.1 -07.5229 26283.3
 06 06 2013  16 51  -21.0966 26057.4 -03441.0 -07.5226 26283.6
 06 06 2013  16 52  -21.0971 26058.0 -03441.1 -07.5227 26284.2
 06 06 2013  16 53  -21.0973 26058.4 -03441.1 -07.5225 26284.6
 06 06 2013  16 54  -21.0970 26058.1 -03440.8 -07.5219 26284.3
 06 06 2013  16 55  -21.0967 26057.5 -03440.4 -07.5213 26283.7
 06 06 2013  16 56  -21.0970 26057.3 -03440.3 -07.5212 26283.4
 06 06 2013  16 57  -21.0972 26057.4 -03440.4 -07.5213 26283.5
 06 06 2013  16 58  -21.0973 26057.7 -03440.5 -07.5214 26283.8
 06 06 2013  16 59  -21.0973 26057.3 -03440.3 -07.5211 26283.4
 06 06 2013  17 00  -21.0969 26055.9 -03439.7 -07.5202 26282.0
 06 06 2013  17 01  -21.0960 26054.1 -03439.1 -07.5194 26280.1
 06 06 2013  17 02  -21.0956 26052.6 -03438.6 -07.5189 26278.5
 06 06 2013  17 03  -21.0960 26051.9 -03438.7 -07.5192 26277.9
 06 06 2013  17 04  -21.0963 26051.4 -03438.8 -07.5196 26277.4
 06 06 2013  17 05  -21.0962 26050.7 -03438.9 -07.5199 26276.7
 06 06 2013  17 06  -21.0963 26050.4 -03439.1 -07.5204 26276.4
 06 06 2013  17 07  -21.0968 26050.4 -03439.4 -07.5212 26276.5
 06 06 2013  17 08  -21.0976 26050.7 -03439.8 -07.5219 26276.8
 06 06 2013  17 09  -21.0980 26050.7 -03440.0 -07.5224 26276.9
 06 06 2013  17 10  -21.0983 26050.5 -03440.0 -07.5224 26276.6
 06 06 2013  17 11  -21.0983 26049.9 -03439.8 -07.5221 26276.0
 06 06 2013  17 12  -21.0972 26049.7 -03439.9 -07.5224 26275.8
 06 06 2013  17 13  -21.0999 26052.7 -03441.6 -07.5253 26279.0
 06 06 2013  17 14  -21.1022 26055.0 -03442.8 -07.5271 26281.5
 06 06 2013  17 15  -21.1041 26055.2 -03442.4 -07.5263 26281.7
 06 06 2013  17 16  -21.1037 26053.5 -03440.9 -07.5236 26279.7
 06 06 2013  17 17  -21.1029 26050.8 -03439.4 -07.5211 26276.9
 06 06 2013  17 18  -21.1021 26048.1 -03438.4 -07.5196 26274.1
 06 06 2013  17 19  -21.1022 26046.7 -03438.1 -07.5194 26272.6
 06 06 2013  17 20  -21.1032 26046.7 -03438.6 -07.5205 26272.7
 06 06 2013  17 21  -21.1045 26048.0 -03439.4 -07.5220 26274.0
 06 06 2013  17 22  -21.1057 26049.3 -03440.1 -07.5230 26275.5
 06 06 2013  17 23  -21.1063 26049.9 -03440.3 -07.5232 26276.1
 06 06 2013  17 24  -21.1066 26049.8 -03440.1 -07.5230 26276.0
 06 06 2013  17 25  -21.1069 26049.7 -03440.1 -07.5229 26275.9
 06 06 2013  17 26  -21.1075 26049.7 -03440.1 -07.5229 26275.9
 06 06 2013  17 27  -21.1085 26049.8 -03440.2 -07.5231 26276.0
 06 06 2013  17 28  -21.1092 26049.9 -03440.2 -07.5230 26276.0
 06 06 2013  17 29  -21.1092 26049.5 -03439.9 -07.5225 26275.7
 06 06 2013  17 30  -21.1090 26048.8 -03439.5 -07.5219 26274.9
 06 06 2013  17 31  -21.1096 26048.3 -03439.3 -07.5216 26274.3
 06 06 2013  17 32  -21.1100 26047.4 -03438.9 -07.5210 26273.4
 06 06 2013  17 33  -21.1105 26046.6 -03438.6 -07.5205 26272.6
 06 06 2013  17 34  -21.1107 26046.0 -03438.3 -07.5201 26271.9
 06 06 2013  17 35  -21.1109 26045.9 -03438.3 -07.5201 26271.9
 06 06 2013  17 36  -21.1110 26046.0 -03438.4 -07.5202 26272.0
 06 06 2013  17 37  -21.1115 26045.8 -03438.3 -07.5201 26271.8
 06 06 2013  17 38  -21.1121 26046.0 -03438.4 -07.5202 26271.9
 06 06 2013  17 39  -21.1133 26046.5 -03438.6 -07.5204 26272.5
 06 06 2013  17 40  -21.1143 26047.0 -03438.7 -07.5206 26273.0
 06 06 2013  17 41  -21.1146 26046.5 -03438.3 -07.5198 26272.4
 06 06 2013  17 42  -21.1146 26045.5 -03437.7 -07.5189 26271.4
 06 06 2013  17 43  -21.1154 26045.1 -03437.6 -07.5187 26271.0
 06 06 2013  17 44  -21.1166 26045.7 -03437.8 -07.5190 26271.6
 06 06 2013  17 45  -21.1173 26045.6 -03437.6 -07.5187 26271.5
 06 06 2013  17 46  -21.1166 26043.9 -03436.7 -07.5172 26269.7
 06 06 2013  17 47  -21.1160 26043.2 -03436.5 -07.5169 26268.9
 06 06 2013  17 48  -21.1171 26044.7 -03437.4 -07.5184 26270.6
 06 06 2013  17 49  -21.1190 26047.4 -03438.5 -07.5200 26273.3
 06 06 2013  17 50  -21.1195 26048.6 -03438.5 -07.5198 26274.6
 06 06 2013  17 51  -21.1194 26048.5 -03437.9 -07.5186 26274.4
 06 06 2013  17 52  -21.1187 26046.9 -03436.8 -07.5165 26272.6
 06 06 2013  17 53  -21.1178 26045.1 -03435.8 -07.5148 26270.8
 06 06 2013  17 54  -21.1175 26043.8 -03435.2 -07.5140 26269.4
 06 06 2013  17 55  -21.1176 26042.8 -03434.9 -07.5136 26268.3
 06 06 2013  17 56  -21.1178 26042.2 -03434.7 -07.5134 26267.7
 06 06 2013  17 57  -21.1176 26041.5 -03434.6 -07.5133 26267.0
 06 06 2013  17 58  -21.1170 26040.8 -03434.4 -07.5132 26266.3
 06 06 2013  17 59  -21.1168 26041.1 -03434.8 -07.5138 26266.6
 06 06 2013  18 00  -21.1172 26042.1 -03435.3 -07.5147 26267.7
 06 06 2013  18 01  -21.1183 26043.5 -03436.0 -07.5157 26269.1
 06 06 2013  18 02  -21.1189 26044.2 -03436.1 -07.5159 26269.9
 06 06 2013  18 03  -21.1198 26044.6 -03436.1 -07.5157 26270.3
 06 06 2013  18 04  -21.1203 26044.8 -03436.0 -07.5155 26270.5
 06 06 2013  18 05  -21.1207 26044.8 -03435.8 -07.5149 26270.4
 06 06 2013  18 06  -21.1206 26044.7 -03435.4 -07.5142 26270.3
 06 06 2013  18 07  -21.1208 26044.8 -03435.2 -07.5137 26270.3
 06 06 2013  18 08  -21.1210 26044.8 -03435.0 -07.5133 26270.4
 06 06 2013  18 09  -21.1205 26043.9 -03434.4 -07.5122 26269.3
 06 06 2013  18 10  -21.1196 26042.6 -03433.7 -07.5110 26268.0
 06 06 2013  18 11  -21.1200 26042.0 -03433.5 -07.5107 26267.4
 06 06 2013  18 12  -21.1207 26041.8 -03433.5 -07.5108 26267.2
 06 06 2013  18 13  -21.1211 26041.3 -03433.3 -07.5106 26266.6
 06 06 2013  18 14  -21.1216 26041.2 -03433.3 -07.5107 26266.6
 06 06 2013  18 15  -21.1218 26041.1 -03433.3 -07.5107 26266.5
 06 06 2013  18 16  -21.1220 26041.1 -03433.4 -07.5108 26266.5
 06 06 2013  18 17  -21.1218 26040.9 -03433.3 -07.5107 26266.3
 06 06 2013  18 18  -21.1228 26041.1 -03433.5 -07.5110 26266.5
 06 06 2013  18 19  -21.1235 26041.0 -03433.5 -07.5110 26266.4
 06 06 2013  18 20  -21.1237 26040.4 -03433.1 -07.5104 26265.7
 06 06 2013  18 21  -21.1223 26038.0 -03431.9 -07.5084 26263.2
 06 06 2013  18 22  -21.1214 26035.6 -03430.9 -07.5070 26260.7
 06 06 2013  18 23  -21.1222 26034.8 -03430.9 -07.5071 26259.9
 06 06 2013  18 24  -21.1228 26034.2 -03430.8 -07.5073 26259.2
 06 06 2013  18 25  -21.1218 26033.8 -03430.9 -07.5075 26258.9
 06 06 2013  18 26  -21.1217 26033.9 -03431.2 -07.5082 26259.1
 06 06 2013  18 27  -21.1234 26035.9 -03432.5 -07.5103 26261.2
 06 06 2013  18 28  -21.1244 26036.9 -03433.0 -07.5112 26262.3
 06 06 2013  18 29  -21.1245 26037.3 -03433.1 -07.5113 26262.6
 06 06 2013  18 30  -21.1257 26038.4 -03433.5 -07.5119 26263.8
 06 06 2013  18 31  -21.1267 26039.2 -03433.7 -07.5120 26264.6
 06 06 2013  18 32  -21.1271 26039.4 -03433.4 -07.5114 26264.8
 06 06 2013  18 33  -21.1268 26038.0 -03432.6 -07.5099 26263.3
 06 06 2013  18 34  -21.1264 26036.8 -03431.9 -07.5088 26262.0
 06 06 2013  18 35  -21.1256 26035.6 -03431.4 -07.5080 26260.8
 06 06 2013  18 36  -21.1252 26034.7 -03431.1 -07.5076 26259.8
 06 06 2013  18 37  -21.1262 26033.6 -03430.7 -07.5072 26258.7
 06 06 2013  18 38  -21.1263 26031.2 -03429.7 -07.5056 26256.2
 06 06 2013  18 39  -21.1261 26029.1 -03429.0 -07.5047 26254.0
 06 06 2013  18 40  -21.1254 26027.1 -03428.5 -07.5043 26252.0
 06 06 2013  18 41  -21.1245 26025.4 -03428.3 -07.5043 26250.2
 06 06 2013  18 42  -21.1238 26024.1 -03428.3 -07.5047 26248.9
 06 06 2013  18 43  -21.1234 26022.9 -03428.4 -07.5053 26247.8
 06 06 2013  18 44  -21.1231 26022.5 -03428.8 -07.5061 26247.4
 06 06 2013  18 45  -21.1232 26022.4 -03429.2 -07.5071 26247.4
 06 06 2013  18 46  -21.1233 26022.1 -03429.5 -07.5077 26247.1
 06 06 2013  18 47  -21.1225 26020.9 -03429.2 -07.5076 26245.9
 06 06 2013  18 48  -21.1210 26019.0 -03428.6 -07.5068 26244.0
 06 06 2013  18 49  -21.1200 26017.3 -03428.1 -07.5061 26242.2
 06 06 2013  18 50  -21.1182 26015.0 -03427.2 -07.5050 26239.8
 06 06 2013  18 51  -21.1168 26013.1 -03426.8 -07.5046 26237.8
 06 06 2013  18 52  -21.1158 26012.1 -03427.0 -07.5052 26236.8
 06 06 2013  18 53  -21.1148 26011.6 -03427.4 -07.5062 26236.4
 06 06 2013  18 54  -21.1138 26011.3 -03427.8 -07.5073 26236.2
 06 06 2013  18 55  -21.1135 26011.4 -03428.4 -07.5085 26236.4
 06 06 2013  18 56  -21.1129 26011.6 -03428.9 -07.5095 26236.7
 06 06 2013  18 57  -21.1137 26013.4 -03430.0 -07.5114 26238.6
 06 06 2013  18 58  -21.1149 26016.4 -03431.6 -07.5140 26241.7
 06 06 2013  18 59  -21.1147 26017.9 -03432.4 -07.5153 26243.3
 06 06 2013  19 00  -21.1147 26018.2 -03432.5 -07.5154 26243.6
 06 06 2013  19 01  -21.1142 26018.0 -03432.2 -07.5148 26243.4
 06 06 2013  19 02  -21.1147 26018.1 -03432.1 -07.5146 26243.5
 06 06 2013  19 03  -21.1154 26018.5 -03432.2 -07.5146 26243.9
 06 06 2013  19 04  -21.1153 26018.2 -03431.8 -07.5139 26243.5
 06 06 2013  19 05  -21.1152 26018.0 -03431.5 -07.5133 26243.3
 06 06 2013  19 06  -21.1144 26017.3 -03431.0 -07.5125 26242.5
 06 06 2013  19 07  -21.1139 26016.8 -03430.8 -07.5121 26242.0
 06 06 2013  19 08  -21.1135 26016.9 -03430.8 -07.5122 26242.1
 06 06 2013  19 09  -21.1133 26017.1 -03430.9 -07.5123 26242.4
 06 06 2013  19 10  -21.1130 26016.5 -03430.5 -07.5117 26241.7
 06 06 2013  19 11  -21.1124 26016.0 -03430.2 -07.5111 26241.1
 06 06 2013  19 12  -21.1115 26015.6 -03430.0 -07.5107 26240.8
 06 06 2013  19 13  -21.1106 26015.2 -03429.8 -07.5104 26240.3
 06 06 2013  19 14  -21.1098 26014.6 -03429.5 -07.5100 26239.6
 06 06 2013  19 15  -21.1088 26013.8 -03429.2 -07.5096 26238.9
 06 06 2013  19 16  -21.1072 26012.9 -03428.9 -07.5091 26237.9
 06 06 2013  19 17  -21.1063 26011.9 -03428.6 -07.5088 26236.9
 06 06 2013  19 18  -21.1056 26010.6 -03428.3 -07.5084 26235.6
 06 06 2013  19 19  -21.1046 26009.3 -03427.9 -07.5080 26234.2
 06 06 2013  19 20  -21.1034 26008.0 -03427.6 -07.5077 26232.9
 06 06 2013  19 21  -21.1024 26006.8 -03427.4 -07.5077 26231.6
 06 06 2013  19 22  -21.1020 26005.9 -03427.4 -07.5080 26230.8
 06 06 2013  19 23  -21.1014 26005.3 -03427.6 -07.5085 26230.2
 06 06 2013  19 24  -21.1007 26005.3 -03428.1 -07.5095 26230.3
 06 06 2013  19 25  -21.0999 26005.3 -03428.5 -07.5105 26230.3
 06 06 2013  19 26  -21.0992 26004.8 -03428.8 -07.5113 26229.9
 06 06 2013  19 27  -21.0989 26004.4 -03429.1 -07.5120 26229.5
 06 06 2013  19 28  -21.0990 26004.0 -03429.3 -07.5126 26229.1
 06 06 2013  19 29  -21.0984 26003.7 -03429.5 -07.5131 26228.9
 06 06 2013  19 30  -21.0979 26003.3 -03429.6 -07.5133 26228.5
 06 06 2013  19 31  -21.0975 26003.3 -03429.7 -07.5137 26228.5
 06 06 2013  19 32  -21.0968 26003.5 -03430.0 -07.5142 26228.8
 06 06 2013  19 33  -21.0964 26003.9 -03430.4 -07.5149 26229.2
 06 06 2013  19 34  -21.0960 26004.2 -03430.7 -07.5155 26229.6
 06 06 2013  19 35  -21.0957 26004.5 -03431.0 -07.5161 26229.9
 06 06 2013  19 36  -21.0949 26004.3 -03431.1 -07.5163 26229.7
 06 06 2013  19 37  -21.0936 26003.5 -03430.8 -07.5160 26228.8
 06 06 2013  19 38  -21.0926 26002.7 -03430.7 -07.5159 26228.0
 06 06 2013  19 39  -21.0916 26001.9 -03430.5 -07.5158 26227.2
 06 06 2013  19 40  -21.0909 26001.4 -03430.6 -07.5160 26226.7
 06 06 2013  19 41  -21.0900 26001.0 -03430.6 -07.5163 26226.3
 06 06 2013  19 42  -21.0895 26000.6 -03430.8 -07.5168 26226.0
 06 06 2013  19 43  -21.0890 26000.3 -03431.0 -07.5173 26225.7
 06 06 2013  19 44  -21.0886 25999.8 -03431.2 -07.5178 26225.3
 06 06 2013  19 45  -21.0881 25999.1 -03431.2 -07.5181 26224.6
 06 06 2013  19 46  -21.0876 25998.5 -03431.3 -07.5184 26224.0
 06 06 2013  19 47  -21.0870 25997.7 -03431.2 -07.5186 26223.1
 06 06 2013  19 48  -21.0866 25996.9 -03431.3 -07.5190 26222.4
 06 06 2013  19 49  -21.0869 25996.6 -03431.6 -07.5197 26222.1
 06 06 2013  19 50  -21.0869 25996.4 -03431.9 -07.5203 26221.9
 06 06 2013  19 51  -21.0868 25995.9 -03432.0 -07.5207 26221.5
 06 06 2013  19 52  -21.0866 25995.5 -03432.1 -07.5211 26221.1
 06 06 2013  19 53  -21.0865 25995.4 -03432.4 -07.5217 26221.0
 06 06 2013  19 54  -21.0861 25995.1 -03432.5 -07.5220 26220.8
 06 06 2013  19 55  -21.0865 25995.8 -03432.9 -07.5228 26221.5
 06 06 2013  19 56  -21.0871 25997.0 -03433.7 -07.5242 26222.8
 06 06 2013  19 57  -21.0874 25997.2 -03433.9 -07.5244 26223.0
 06 06 2013  19 58  -21.0871 25996.7 -03433.6 -07.5241 26222.5
 06 06 2013  19 59  -21.0870 25996.5 -03433.6 -07.5240 26222.3
 06 06 2013  20 00  -21.0870 25996.7 -03433.7 -07.5243 26222.5
 06 06 2013  20 01  -21.0866 25996.3 -03433.6 -07.5242 26222.1
 06 06 2013  20 02  -21.0859 25996.0 -03433.5 -07.5240 26221.8
 06 06 2013  20 03  -21.0856 25996.0 -03433.6 -07.5241 26221.8
 06 06 2013  20 04  -21.0857 25995.9 -03433.6 -07.5242 26221.7
 06 06 2013  20 05  -21.0856 25995.5 -03433.5 -07.5240 26221.3
 06 06 2013  20 06  -21.0851 25995.1 -03433.3 -07.5238 26220.9
 06 06 2013  20 07  -21.0846 25994.5 -03433.2 -07.5237 26220.2
 06 06 2013  20 08  -21.0841 25994.0 -03433.0 -07.5236 26219.7
 06 06 2013  20 09  -21.0839 25993.5 -03433.0 -07.5235 26219.2
 06 06 2013  20 10  -21.0834 25992.7 -03432.8 -07.5233 26218.4
 06 06 2013  20 11  -21.0832 25992.5 -03432.9 -07.5236 26218.2
 06 06 2013  20 12  -21.0840 25993.0 -03433.4 -07.5245 26218.8
 06 06 2013  20 13  -21.0845 25993.6 -03433.7 -07.5251 26219.4
 06 06 2013  20 14  -21.0852 25994.0 -03434.0 -07.5257 26219.8
 06 06 2013  20 15  -21.0850 25994.2 -03434.2 -07.5260 26220.1
 06 06 2013  20 16  -21.0843 25994.3 -03434.3 -07.5261 26220.2
 06 06 2013  20 17  -21.0831 25994.4 -03434.4 -07.5263 26220.3
 06 06 2013  20 18  -21.0822 25994.3 -03434.3 -07.5262 26220.2
 06 06 2013  20 19  -21.0810 25994.0 -03434.2 -07.5260 26219.8
 06 06 2013  20 20  -21.0797 25993.6 -03434.0 -07.5258 26219.5
 06 06 2013  20 21  -21.0782 25993.3 -03433.9 -07.5256 26219.1
 06 06 2013  20 22  -21.0772 25992.8 -03433.8 -07.5255 26218.7
 06 06 2013  20 23  -21.0763 25992.4 -03433.8 -07.5255 26218.2
 06 06 2013  20 24  -21.0754 25992.5 -03434.0 -07.5260 26218.4
 06 06 2013  20 25  -21.0747 25993.7 -03434.8 -07.5274 26219.7
 06 06 2013  20 26  -21.0748 25993.2 -03435.0 -07.5279 26219.2
 06 06 2013  20 27  -21.0744 25993.1 -03435.2 -07.5284 26219.1
 06 06 2013  20 28  -21.0741 25992.3 -03435.0 -07.5282 26218.3
 06 06 2013  20 29  -21.0741 25992.8 -03435.3 -07.5287 26218.8
 06 06 2013  20 30  -21.0738 25992.8 -03435.4 -07.5291 26218.8
 06 06 2013  20 31  -21.0735 25992.6 -03435.5 -07.5292 26218.7
 06 06 2013  20 32  -21.0730 25992.6 -03435.6 -07.5294 26218.6
 06 06 2013  20 33  -21.0727 25991.9 -03435.4 -07.5292 26217.9
 06 06 2013  20 34  -21.0727 25991.7 -03435.5 -07.5296 26217.8
 06 06 2013  20 35  -21.0727 25991.4 -03435.6 -07.5298 26217.5
 06 06 2013  20 36  -21.0728 25991.4 -03435.8 -07.5302 26217.5
 06 06 2013  20 37  -21.0730 25991.1 -03435.8 -07.5303 26217.2
 06 06 2013  20 38  -21.0733 25990.8 -03435.8 -07.5305 26216.9
 06 06 2013  20 39  -21.0739 25990.4 -03435.8 -07.5306 26216.5
 06 06 2013  20 40  -21.0745 25990.2 -03435.9 -07.5309 26216.3
 06 06 2013  20 41  -21.0750 25990.0 -03436.0 -07.5311 26216.2
 06 06 2013  20 42  -21.0758 25989.7 -03436.1 -07.5313 26215.9
 06 06 2013  20 43  -21.0761 25989.0 -03436.0 -07.5313 26215.1
 06 06 2013  20 44  -21.0763 25988.3 -03435.8 -07.5312 26214.4
 06 06 2013  20 45  -21.0763 25987.4 -03435.6 -07.5310 26213.5
 06 06 2013  20 46  -21.0765 25986.3 -03435.3 -07.5307 26212.3
 06 06 2013  20 47  -21.0767 25985.7 -03435.3 -07.5307 26211.7
 06 06 2013  20 48  -21.0768 25985.2 -03435.2 -07.5308 26211.3
 06 06 2013  20 49  -21.0769 25984.4 -03435.1 -07.5307 26210.5
 06 06 2013  20 50  -21.0772 25984.1 -03435.1 -07.5309 26210.2
 06 06 2013  20 51  -21.0775 25984.2 -03435.4 -07.5314 26210.3
 06 06 2013  20 52  -21.0784 25984.1 -03435.6 -07.5318 26210.3
 06 06 2013  20 53  -21.0787 25984.1 -03435.7 -07.5320 26210.2
 06 06 2013  20 54  -21.0793 25984.4 -03436.0 -07.5326 26210.6
 06 06 2013  20 55  -21.0797 25984.5 -03436.0 -07.5327 26210.7
 06 06 2013  20 56  -21.0802 25984.5 -03436.1 -07.5329 26210.7
 06 06 2013  20 57  -21.0803 25984.1 -03435.9 -07.5326 26210.3
 06 06 2013  20 58  -21.0802 25984.0 -03435.8 -07.5324 26210.1
 06 06 2013  20 59  -21.0796 25984.0 -03435.9 -07.5325 26210.2
 06 06 2013  21 00  -21.0790 25983.8 -03435.8 -07.5324 26209.9
 06 06 2013  21 01  -21.0787 25983.1 -03435.6 -07.5322 26209.3
 06 06 2013  21 02  -21.0784 25982.7 -03435.5 -07.5321 26208.8
 06 06 2013  21 03  -21.0782 25982.2 -03435.4 -07.5321 26208.3
 06 06 2013  21 04  -21.0782 25982.1 -03435.5 -07.5324 26208.3
 06 06 2013  21 05  -21.0783 25982.3 -03435.8 -07.5328 26208.5
 06 06 2013  21 06  -21.0776 25982.7 -03435.9 -07.5331 26208.9
 06 06 2013  21 07  -21.0770 25983.1 -03436.1 -07.5333 26209.3
 06 06 2013  21 08  -21.0763 25983.5 -03436.3 -07.5335 26209.7
 06 06 2013  21 09  -21.0759 25983.5 -03436.3 -07.5336 26209.7
 06 06 2013  21 10  -21.0763 25983.3 -03436.2 -07.5334 26209.5
 06 06 2013  21 11  -21.0772 25983.1 -03436.2 -07.5334 26209.4
 06 06 2013  21 12  -21.0783 25983.1 -03436.2 -07.5335 26209.3
 06 06 2013  21 13  -21.0790 25982.9 -03436.2 -07.5335 26209.1
 06 06 2013  21 14  -21.0791 25983.1 -03436.2 -07.5335 26209.3
 06 06 2013  21 15  -21.0788 25983.3 -03436.3 -07.5337 26209.5
 06 06 2013  21 16  -21.0782 25983.3 -03436.3 -07.5336 26209.5
 06 06 2013  21 17  -21.0783 25983.0 -03436.1 -07.5333 26209.2
 06 06 2013  21 18  -21.0785 25982.9 -03436.2 -07.5334 26209.1
 06 06 2013  21 19  -21.0790 25982.4 -03436.0 -07.5333 26208.6
 06 06 2013  21 20  -21.0796 25982.2 -03436.0 -07.5332 26208.4
 06 06 2013  21 21  -21.0799 25982.1 -03436.0 -07.5333 26208.3
 06 06 2013  21 22  -21.0806 25982.1 -03436.0 -07.5333 26208.3
 06 06 2013  21 23  -21.0809 25982.0 -03436.0 -07.5333 26208.2
 06 06 2013  21 24  -21.0812 25982.1 -03436.0 -07.5334 26208.3
 06 06 2013  21 25  -21.0813 25982.4 -03436.2 -07.5336 26208.6
 06 06 2013  21 26  -21.0822 25982.6 -03436.3 -07.5339 26208.9
 06 06 2013  21 27  -21.0829 25982.8 -03436.5 -07.5342 26209.1
 06 06 2013  21 28  -21.0828 25983.0 -03436.5 -07.5342 26209.2
 06 06 2013  21 29  -21.0823 25982.6 -03436.3 -07.5339 26208.9
 06 06 2013  21 30  -21.0820 25982.4 -03436.1 -07.5335 26208.6
 06 06 2013  21 31  -21.0818 25982.3 -03436.0 -07.5333 26208.5
 06 06 2013  21 32  -21.0809 25982.5 -03436.1 -07.5334 26208.7
 06 06 2013  21 33  -21.0804 25982.5 -03436.2 -07.5337 26208.7
 06 06 2013  21 34  -21.0801 25982.4 -03436.2 -07.5337 26208.7
 06 06 2013  21 35  -21.0798 25982.5 -03436.3 -07.5339 26208.8
 06 06 2013  21 36  -21.0798 25982.4 -03436.3 -07.5340 26208.6
 06 06 2013  21 37  -21.0796 25982.1 -03436.2 -07.5338 26208.4
 06 06 2013  21 38  -21.0799 25981.7 -03436.2 -07.5338 26207.9
 06 06 2013  21 39  -21.0805 25981.4 -03436.1 -07.5337 26207.6
 06 06 2013  21 40  -21.0809 25980.8 -03435.9 -07.5336 26207.1
 06 06 2013  21 41  -21.0813 25980.6 -03435.9 -07.5335 26206.8
 06 06 2013  21 42  -21.0814 25980.4 -03435.9 -07.5336 26206.6
 06 06 2013  21 43  -21.0815 25980.1 -03435.9 -07.5337 26206.3
 06 06 2013  21 44  -21.0815 25979.9 -03435.9 -07.5338 26206.1
 06 06 2013  21 45  -21.0817 25979.9 -03436.0 -07.5340 26206.1
 06 06 2013  21 46  -21.0817 25980.0 -03436.2 -07.5344 26206.2
 06 06 2013  21 47  -21.0812 25980.3 -03436.4 -07.5347 26206.5
 06 06 2013  21 48  -21.0803 25980.5 -03436.6 -07.5350 26206.8
 06 06 2013  21 49  -21.0795 25980.3 -03436.5 -07.5350 26206.6
 06 06 2013  21 50  -21.0786 25980.4 -03436.7 -07.5352 26206.7
 06 06 2013  21 51  -21.0783 25980.2 -03436.7 -07.5353 26206.5
 06 06 2013  21 52  -21.0783 25980.2 -03436.8 -07.5356 26206.5
 06 06 2013  21 53  -21.0782 25980.1 -03436.9 -07.5359 26206.5
 06 06 2013  21 54  -21.0781 25980.1 -03437.0 -07.5361 26206.4
 06 06 2013  21 55  -21.0783 25980.0 -03437.1 -07.5363 26206.3
 06 06 2013  21 56  -21.0782 25979.8 -03437.1 -07.5364 26206.2
 06 06 2013  21 57  -21.0786 25979.7 -03437.2 -07.5366 26206.1
 06 06 2013  21 58  -21.0791 25979.6 -03437.2 -07.5368 26206.0
 06 06 2013  21 59  -21.0791 25979.4 -03437.2 -07.5368 26205.8
 06 06 2013  22 00  -21.0791 25979.2 -03437.2 -07.5368 26205.6
 06 06 2013  22 01  -21.0790 25979.0 -03437.2 -07.5368 26205.4
 06 06 2013  22 02  -21.0791 25979.0 -03437.3 -07.5370 26205.4
 06 06 2013  22 03  -21.0792 25978.9 -03437.3 -07.5372 26205.3
 06 06 2013  22 04  -21.0796 25978.7 -03437.4 -07.5373 26205.1
 06 06 2013  22 05  -21.0802 25978.4 -03437.4 -07.5374 26204.9
 06 06 2013  22 06  -21.0815 25978.1 -03437.4 -07.5375 26204.5
 06 06 2013  22 07  -21.0823 25978.0 -03437.5 -07.5377 26204.5
 06 06 2013  22 08  -21.0833 25977.9 -03437.4 -07.5376 26204.3
 06 06 2013  22 09  -21.0840 25978.2 -03437.6 -07.5379 26204.6
 06 06 2013  22 10  -21.0842 25978.4 -03437.8 -07.5382 26204.9
 06 06 2013  22 11  -21.0840 25978.4 -03437.7 -07.5382 26204.9
 06 06 2013  22 12  -21.0839 25978.5 -03437.8 -07.5382 26205.0
 06 06 2013  22 13  -21.0841 25978.4 -03437.8 -07.5383 26204.8
 06 06 2013  22 14  -21.0835 25978.7 -03437.9 -07.5385 26205.2
 06 06 2013  22 15  -21.0829 25978.5 -03437.8 -07.5384 26205.0
 06 06 2013  22 16  -21.0821 25978.4 -03437.8 -07.5383 26204.9
 06 06 2013  22 17  -21.0817 25978.2 -03437.8 -07.5383 26204.7
 06 06 2013  22 18  -21.0816 25977.7 -03437.6 -07.5381 26204.2
 06 06 2013  22 19  -21.0813 25977.2 -03437.4 -07.5378 26203.6
 06 06 2013  22 20  -21.0813 25976.7 -03437.3 -07.5377 26203.1
 06 06 2013  22 21  -21.0811 25976.2 -03437.1 -07.5375 26202.6
 06 06 2013  22 22  -21.0810 25975.8 -03437.0 -07.5374 26202.2
 06 06 2013  22 23  -21.0808 25975.5 -03437.0 -07.5374 26201.9
 06 06 2013  22 24  -21.0807 25974.9 -03436.8 -07.5371 26201.3
 06 06 2013  22 25  -21.0808 25974.6 -03436.8 -07.5372 26201.0
 06 06 2013  22 26  -21.0803 25974.3 -03436.8 -07.5373 26200.7
 06 06 2013  22 27  -21.0795 25974.2 -03436.8 -07.5373 26200.6
 06 06 2013  22 28  -21.0796 25973.9 -03436.8 -07.5375 26200.3
 06 06 2013  22 29  -21.0795 25973.7 -03436.9 -07.5377 26200.1
 06 06 2013  22 30  -21.0794 25973.4 -03436.9 -07.5378 26199.8
 06 06 2013  22 31  -21.0794 25973.2 -03437.0 -07.5380 26199.6
 06 06 2013  22 32  -21.0798 25973.0 -03437.0 -07.5382 26199.5
 06 06 2013  22 33  -21.0798 25972.8 -03437.1 -07.5385 26199.3
 06 06 2013  22 34  -21.0794 25972.6 -03437.2 -07.5386 26199.1
 06 06 2013  22 35  -21.0786 25972.5 -03437.2 -07.5387 26199.0
 06 06 2013  22 36  -21.0776 25972.2 -03437.2 -07.5387 26198.7
 06 06 2013  22 37  -21.0764 25972.2 -03437.2 -07.5389 26198.7
 06 06 2013  22 38  -21.0756 25972.0 -03437.3 -07.5391 26198.5
 06 06 2013  22 39  -21.0754 25971.9 -03437.5 -07.5395 26198.4
 06 06 2013  22 40  -21.0750 25971.9 -03437.6 -07.5398 26198.4
 06 06 2013  22 41  -21.0744 25971.8 -03437.7 -07.5401 26198.3
 06 06 2013  22 42  -21.0734 25971.7 -03437.9 -07.5404 26198.3
 06 06 2013  22 43  -21.0729 25971.4 -03437.9 -07.5405 26198.0
 06 06 2013  22 44  -21.0727 25971.7 -03438.2 -07.5411 26198.2
 06 06 2013  22 45  -21.0726 25972.0 -03438.5 -07.5417 26198.6
 06 06 2013  22 46  -21.0728 25972.1 -03438.8 -07.5423 26198.8
 06 06 2013  22 47  -21.0729 25972.3 -03439.1 -07.5428 26199.0
 06 06 2013  22 48  -21.0729 25972.4 -03439.3 -07.5433 26199.1
 06 06 2013  22 49  -21.0728 25972.2 -03439.3 -07.5434 26199.0
 06 06 2013  22 50  -21.0725 25972.0 -03439.3 -07.5433 26198.7
 06 06 2013  22 51  -21.0724 25971.7 -03439.2 -07.5432 26198.4
 06 06 2013  22 52  -21.0722 25971.6 -03439.3 -07.5434 26198.4
 06 06 2013  22 53  -21.0715 25971.4 -03439.2 -07.5433 26198.1
 06 06 2013  22 54  -21.0709 25971.3 -03439.2 -07.5434 26198.0
 06 06 2013  22 55  -21.0700 25971.2 -03439.2 -07.5435 26197.9
 06 06 2013  22 56  -21.0692 25971.2 -03439.4 -07.5439 26198.0
 06 06 2013  22 57  -21.0683 25971.2 -03439.6 -07.5442 26198.0
 06 06 2013  22 58  -21.0679 25971.0 -03439.7 -07.5445 26197.8
 06 06 2013  22 59  -21.0676 25970.6 -03439.6 -07.5445 26197.4
 06 06 2013  23 00  -21.0677 25970.8 -03439.9 -07.5451 26197.6
 06 06 2013  23 01  -21.0686 25970.1 -03439.9 -07.5451 26197.0
 06 06 2013  23 02  -21.0698 25970.1 -03440.0 -07.5454 26196.9
 06 06 2013  23 03  -21.0712 25969.8 -03440.0 -07.5456 26196.6
 06 06 2013  23 04  -21.0724 25969.7 -03440.1 -07.5457 26196.5
 06 06 2013  23 05  -21.0733 25969.9 -03440.2 -07.5460 26196.7
 06 06 2013  23 06  -21.0740 25970.2 -03440.4 -07.5464 26197.1
 06 06 2013  23 07  -21.0740 25970.7 -03440.7 -07.5467 26197.6
 06 06 2013  23 08  -21.0735 25971.1 -03440.8 -07.5470 26198.0
 06 06 2013  23 09  -21.0732 25971.6 -03441.1 -07.5474 26198.5
 06 06 2013  23 10  -21.0734 25972.2 -03441.5 -07.5480 26199.3
 06 06 2013  23 11  -21.0737 25973.1 -03441.9 -07.5487 26200.1
 06 06 2013  23 12  -21.0737 25973.9 -03442.3 -07.5494 26201.0
 06 06 2013  23 13  -21.0735 25974.5 -03442.6 -07.5499 26201.7
 06 06 2013  23 14  -21.0731 25975.1 -03442.8 -07.5501 26202.3
 06 06 2013  23 15  -21.0724 25975.7 -03443.1 -07.5505 26202.9
 06 06 2013  23 16  -21.0720 25976.2 -03443.2 -07.5506 26203.4
 06 06 2013  23 17  -21.0724 25977.0 -03443.4 -07.5509 26204.2
 06 06 2013  23 18  -21.0731 25977.8 -03443.9 -07.5517 26205.1
 06 06 2013  23 19  -21.0739 25978.3 -03444.1 -07.5519 26205.6
 06 06 2013  23 20  -21.0745 25979.0 -03444.3 -07.5522 26206.4
 06 06 2013  23 21  -21.0754 25979.5 -03444.4 -07.5523 26206.9
 06 06 2013  23 22  -21.0764 25980.1 -03444.6 -07.5525 26207.5
 06 06 2013  23 23  -21.0769 25980.5 -03444.6 -07.5524 26207.9
 06 06 2013  23 24  -21.0775 25980.9 -03444.6 -07.5523 26208.2
 06 06 2013  23 25  -21.0777 25981.3 -03444.6 -07.5522 26208.6
 06 06 2013  23 26  -21.0777 25981.4 -03444.5 -07.5519 26208.7
 06 06 2013  23 27  -21.0775 25981.6 -03444.3 -07.5516 26208.9
 06 06 2013  23 28  -21.0773 25981.8 -03444.2 -07.5513 26209.1
 06 06 2013  23 29  -21.0771 25982.0 -03444.2 -07.5511 26209.3
 06 06 2013  23 30  -21.0766 25982.2 -03444.2 -07.5511 26209.5
 06 06 2013  23 31  -21.0762 25982.3 -03444.2 -07.5510 26209.6
 06 06 2013  23 32  -21.0758 25982.3 -03444.1 -07.5507 26209.5
 06 06 2013  23 33  -21.0756 25982.3 -03444.0 -07.5506 26209.6
 06 06 2013  23 34  -21.0756 25982.5 -03444.1 -07.5507 26209.8
 06 06 2013  23 35  -21.0756 25982.6 -03444.1 -07.5507 26209.9
 06 06 2013  23 36  -21.0752 25982.7 -03444.0 -07.5506 26210.0
 06 06 2013  23 37  -21.0750 25982.8 -03444.0 -07.5505 26210.0
 06 06 2013  23 38  -21.0753 25982.8 -03444.0 -07.5504 26210.0
 06 06 2013  23 39  -21.0761 25982.6 -03443.9 -07.5504 26209.9
 06 06 2013  23 40  -21.0771 25982.3 -03443.8 -07.5502 26209.6
 06 06 2013  23 41  -21.0778 25982.2 -03443.7 -07.5500 26209.4
 06 06 2013  23 42  -21.0783 25982.1 -03443.6 -07.5498 26209.3
 06 06 2013  23 43  -21.0790 25981.9 -03443.4 -07.5495 26209.1
 06 06 2013  23 44  -21.0799 25981.8 -03443.4 -07.5494 26209.0
 06 06 2013  23 45  -21.0806 25981.7 -03443.3 -07.5493 26208.9
 06 06 2013  23 46  -21.0810 25981.5 -03443.1 -07.5490 26208.6
 06 06 2013  23 47  -21.0816 25981.3 -03443.0 -07.5487 26208.4
 06 06 2013  23 48  -21.0821 25981.2 -03442.9 -07.5486 26208.3
 06 06 2013  23 49  -21.0825 25981.1 -03442.8 -07.5485 26208.3
 06 06 2013  23 50  -21.0826 25981.0 -03442.7 -07.5482 26208.1
 06 06 2013  23 51  -21.0828 25980.9 -03442.6 -07.5481 26208.0
 06 06 2013  23 52  -21.0834 25980.7 -03442.5 -07.5479 26207.7
 06 06 2013  23 53  -21.0838 25980.5 -03442.5 -07.5479 26207.6
 06 06 2013  23 54  -21.0842 25980.3 -03442.4 -07.5477 26207.3
 06 06 2013  23 55  -21.0844 25980.1 -03442.3 -07.5475 26207.1
 06 06 2013  23 56  -21.0844 25980.0 -03442.2 -07.5474 26207.0
 06 06 2013  23 57  -21.0842 25979.8 -03442.1 -07.5473 26206.8
 06 06 2013  23 58  -21.0842 25979.7 -03442.1 -07.5472 26206.7
