SAO LUIS EMBRACE-03 <096> 1 Min. Reported data

 DD MM YYYY  HH MM   D(Deg)  H(nT)   Z(nT)   I(Deg)   F(nT)

 06 04 2013  00 00  -21.0445 26041.5 -03424.8 -07.4922 26265.8
 06 04 2013  00 01  -21.0445 26041.4 -03424.7 -07.4920 26265.7
 06 04 2013  00 02  -21.0444 26041.5 -03424.8 -07.4921 26265.7
 06 04 2013  00 03  -21.0442 26041.3 -03424.7 -07.4920 26265.5
 06 04 2013  00 04  -21.0440 26041.4 -03424.7 -07.4920 26265.6
 06 04 2013  00 05  -21.0440 26041.3 -03424.7 -07.4920 26265.5
 06 04 2013  00 06  -21.0440 26041.3 -03424.7 -07.4920 26265.5
 06 04 2013  00 07  -21.0439 26041.0 -03424.6 -07.4919 26265.2
 06 04 2013  00 08  -21.0437 26041.2 -03424.8 -07.4922 26265.5
 06 04 2013  00 09  -21.0436 26041.4 -03424.9 -07.4924 26265.7
 06 04 2013  00 10  -21.0436 26041.5 -03425.0 -07.4926 26265.8
 06 04 2013  00 11  -21.0436 26041.6 -03425.1 -07.4927 26265.9
 06 04 2013  00 12  -21.0437 26041.6 -03425.0 -07.4926 26265.9
 06 04 2013  00 13  -21.0436 26041.6 -03425.0 -07.4926 26265.8
 06 04 2013  00 14  -21.0436 26041.5 -03425.0 -07.4926 26265.8
 06 04 2013  00 15  -21.0436 26041.4 -03425.0 -07.4926 26265.6
 06 04 2013  00 16  -21.0437 26041.3 -03425.0 -07.4926 26265.6
 06 04 2013  00 17  -21.0440 26041.0 -03424.9 -07.4925 26265.3
 06 04 2013  00 18  -21.0441 26040.6 -03424.7 -07.4922 26264.9
 06 04 2013  00 19  -21.0441 26040.7 -03424.7 -07.4922 26264.9
 06 04 2013  00 20  -21.0441 26040.7 -03424.8 -07.4923 26264.9
 06 04 2013  00 21  -21.0442 26040.5 -03424.7 -07.4923 26264.7
 06 04 2013  00 22  -21.0442 26040.5 -03424.7 -07.4923 26264.7
 06 04 2013  00 23  -21.0442 26040.3 -03424.7 -07.4923 26264.6
 06 04 2013  00 24  -21.0442 26040.3 -03424.7 -07.4923 26264.5
 06 04 2013  00 25  -21.0441 26040.3 -03424.7 -07.4924 26264.5
 06 04 2013  00 26  -21.0441 26040.4 -03424.9 -07.4926 26264.7
 06 04 2013  00 27  -21.0441 26040.2 -03424.8 -07.4926 26264.5
 06 04 2013  00 28  -21.0442 26040.1 -03424.8 -07.4926 26264.4
 06 04 2013  00 29  -21.0444 26039.9 -03424.8 -07.4925 26264.2
 06 04 2013  00 30  -21.0444 26039.8 -03424.7 -07.4925 26264.1
 06 04 2013  00 31  -21.0445 26039.7 -03424.7 -07.4925 26264.0
 06 04 2013  00 32  -21.0445 26039.7 -03424.7 -07.4925 26263.9
 06 04 2013  00 33  -21.0444 26039.5 -03424.7 -07.4925 26263.8
 06 04 2013  00 34  -21.0445 26039.4 -03424.7 -07.4925 26263.7
 06 04 2013  00 35  -21.0444 26039.4 -03424.7 -07.4926 26263.7
 06 04 2013  00 36  -21.0443 26039.4 -03424.8 -07.4926 26263.6
 06 04 2013  00 37  -21.0444 26039.4 -03424.8 -07.4927 26263.6
 06 04 2013  00 38  -21.0445 26039.4 -03424.9 -07.4929 26263.7
 06 04 2013  00 39  -21.0446 26039.3 -03424.9 -07.4929 26263.5
 06 04 2013  00 40  -21.0447 26039.2 -03424.9 -07.4929 26263.4
 06 04 2013  00 41  -21.0448 26038.9 -03424.8 -07.4928 26263.2
 06 04 2013  00 42  -21.0446 26039.1 -03424.8 -07.4929 26263.3
 06 04 2013  00 43  -21.0445 26038.9 -03424.8 -07.4928 26263.1
 06 04 2013  00 44  -21.0443 26038.9 -03424.8 -07.4929 26263.2
 06 04 2013  00 45  -21.0444 26038.9 -03424.9 -07.4930 26263.2
 06 04 2013  00 46  -21.0444 26039.1 -03425.0 -07.4932 26263.4
 06 04 2013  00 47  -21.0444 26039.1 -03425.0 -07.4933 26263.4
 06 04 2013  00 48  -21.0442 26039.3 -03425.1 -07.4935 26263.6
 06 04 2013  00 49  -21.0438 26039.3 -03425.2 -07.4936 26263.6
 06 04 2013  00 50  -21.0437 26039.1 -03425.1 -07.4934 26263.4
 06 04 2013  00 51  -21.0438 26039.3 -03425.2 -07.4936 26263.6
 06 04 2013  00 52  -21.0441 26039.3 -03425.2 -07.4937 26263.6
 06 04 2013  00 53  -21.0440 26039.4 -03425.3 -07.4938 26263.7
 06 04 2013  00 54  -21.0439 26039.4 -03425.3 -07.4939 26263.7
 06 04 2013  00 55  -21.0439 26039.5 -03425.4 -07.4940 26263.8
 06 04 2013  00 56  -21.0438 26039.7 -03425.5 -07.4941 26264.0
 06 04 2013  00 57  -21.0436 26040.0 -03425.7 -07.4945 26264.4
 06 04 2013  00 58  -21.0434 26040.2 -03425.8 -07.4946 26264.6
 06 04 2013  00 59  -21.0434 26040.4 -03425.9 -07.4948 26264.8
 06 04 2013  01 00  -21.0433 26040.4 -03425.9 -07.4948 26264.8
 06 04 2013  01 01  -21.0431 26040.5 -03425.9 -07.4948 26264.9
 06 04 2013  01 02  -21.0431 26040.5 -03425.9 -07.4949 26264.9
 06 04 2013  01 03  -21.0430 26040.5 -03426.0 -07.4949 26264.9
 06 04 2013  01 04  -21.0429 26040.5 -03425.9 -07.4949 26264.9
 06 04 2013  01 05  -21.0428 26040.5 -03425.9 -07.4948 26264.9
 06 04 2013  01 06  -21.0426 26040.8 -03426.1 -07.4950 26265.2
 06 04 2013  01 07  -21.0426 26041.0 -03426.2 -07.4952 26265.4
 06 04 2013  01 08  -21.0427 26041.0 -03426.2 -07.4953 26265.4
 06 04 2013  01 09  -21.0427 26040.8 -03426.1 -07.4952 26265.2
 06 04 2013  01 10  -21.0425 26040.6 -03426.0 -07.4950 26265.0
 06 04 2013  01 11  -21.0424 26040.4 -03425.9 -07.4948 26264.8
 06 04 2013  01 12  -21.0423 26040.4 -03425.9 -07.4948 26264.8
 06 04 2013  01 13  -21.0422 26040.4 -03425.9 -07.4949 26264.8
 06 04 2013  01 14  -21.0421 26040.7 -03426.0 -07.4950 26265.1
 06 04 2013  01 15  -21.0421 26041.1 -03426.3 -07.4954 26265.5
 06 04 2013  01 16  -21.0418 26041.7 -03426.6 -07.4959 26266.1
 06 04 2013  01 17  -21.0416 26042.4 -03426.9 -07.4965 26266.9
 06 04 2013  01 18  -21.0415 26042.8 -03427.2 -07.4969 26267.4
 06 04 2013  01 19  -21.0414 26043.1 -03427.3 -07.4971 26267.7
 06 04 2013  01 20  -21.0413 26043.4 -03427.4 -07.4972 26267.9
 06 04 2013  01 21  -21.0413 26043.1 -03427.3 -07.4970 26267.7
 06 04 2013  01 22  -21.0413 26042.6 -03426.9 -07.4965 26267.1
 06 04 2013  01 23  -21.0413 26042.0 -03426.6 -07.4959 26266.5
 06 04 2013  01 24  -21.0413 26041.4 -03426.3 -07.4955 26265.9
 06 04 2013  01 25  -21.0415 26040.7 -03426.0 -07.4949 26265.1
 06 04 2013  01 26  -21.0416 26040.0 -03425.7 -07.4945 26264.4
 06 04 2013  01 27  -21.0417 26039.4 -03425.4 -07.4941 26263.7
 06 04 2013  01 28  -21.0417 26038.9 -03425.2 -07.4938 26263.2
 06 04 2013  01 29  -21.0418 26038.6 -03425.1 -07.4937 26262.9
 06 04 2013  01 30  -21.0419 26038.4 -03425.1 -07.4937 26262.7
 06 04 2013  01 31  -21.0422 26038.3 -03425.2 -07.4939 26262.7
 06 04 2013  01 32  -21.0423 26038.4 -03425.3 -07.4941 26262.7
 06 04 2013  01 33  -21.0424 26038.5 -03425.4 -07.4944 26262.9
 06 04 2013  01 34  -21.0424 26038.7 -03425.6 -07.4947 26263.1
 06 04 2013  01 35  -21.0425 26038.9 -03425.8 -07.4949 26263.3
 06 04 2013  01 36  -21.0424 26039.0 -03425.9 -07.4951 26263.4
 06 04 2013  01 37  -21.0423 26039.3 -03426.0 -07.4954 26263.7
 06 04 2013  01 38  -21.0421 26039.6 -03426.2 -07.4957 26264.1
 06 04 2013  01 39  -21.0421 26039.8 -03426.3 -07.4959 26264.3
 06 04 2013  01 40  -21.0419 26039.8 -03426.3 -07.4959 26264.2
 06 04 2013  01 41  -21.0419 26039.5 -03426.2 -07.4956 26263.9
 06 04 2013  01 42  -21.0418 26039.3 -03426.1 -07.4956 26263.7
 06 04 2013  01 43  -21.0417 26039.2 -03426.0 -07.4955 26263.6
 06 04 2013  01 44  -21.0416 26039.0 -03426.0 -07.4954 26263.4
 06 04 2013  01 45  -21.0415 26038.9 -03425.9 -07.4953 26263.3
 06 04 2013  01 46  -21.0414 26038.8 -03425.9 -07.4954 26263.3
 06 04 2013  01 47  -21.0411 26038.7 -03425.9 -07.4954 26263.1
 06 04 2013  01 48  -21.0409 26038.7 -03425.9 -07.4954 26263.1
 06 04 2013  01 49  -21.0407 26038.7 -03425.9 -07.4954 26263.1
 06 04 2013  01 50  -21.0406 26038.9 -03426.0 -07.4955 26263.3
 06 04 2013  01 51  -21.0404 26039.0 -03426.1 -07.4957 26263.5
 06 04 2013  01 52  -21.0402 26039.3 -03426.3 -07.4960 26263.8
 06 04 2013  01 53  -21.0400 26039.5 -03426.4 -07.4961 26264.0
 06 04 2013  01 54  -21.0397 26039.5 -03426.3 -07.4960 26264.0
 06 04 2013  01 55  -21.0394 26039.5 -03426.3 -07.4959 26263.9
 06 04 2013  01 56  -21.0391 26039.2 -03426.2 -07.4957 26263.6
 06 04 2013  01 57  -21.0388 26039.1 -03426.1 -07.4956 26263.6
 06 04 2013  01 58  -21.0385 26039.1 -03426.1 -07.4955 26263.5
 06 04 2013  01 59  -21.0384 26039.1 -03426.1 -07.4956 26263.6
 06 04 2013  02 00  -21.0384 26039.0 -03426.0 -07.4955 26263.4
 06 04 2013  02 01  -21.0382 26038.8 -03425.9 -07.4953 26263.2
 06 04 2013  02 02  -21.0380 26038.5 -03425.8 -07.4952 26262.9
 06 04 2013  02 03  -21.0379 26038.3 -03425.7 -07.4950 26262.7
 06 04 2013  02 04  -21.0377 26038.2 -03425.7 -07.4950 26262.5
 06 04 2013  02 05  -21.0378 26038.0 -03425.6 -07.4949 26262.4
 06 04 2013  02 06  -21.0379 26037.8 -03425.5 -07.4948 26262.1
 06 04 2013  02 07  -21.0378 26037.5 -03425.5 -07.4948 26261.9
 06 04 2013  02 08  -21.0379 26037.3 -03425.4 -07.4946 26261.6
 06 04 2013  02 09  -21.0378 26037.2 -03425.4 -07.4946 26261.5
 06 04 2013  02 10  -21.0376 26037.2 -03425.4 -07.4947 26261.5
 06 04 2013  02 11  -21.0376 26037.2 -03425.4 -07.4947 26261.6
 06 04 2013  02 12  -21.0375 26037.2 -03425.5 -07.4949 26261.6
 06 04 2013  02 13  -21.0374 26037.2 -03425.5 -07.4950 26261.6
 06 04 2013  02 14  -21.0374 26037.2 -03425.5 -07.4950 26261.6
 06 04 2013  02 15  -21.0374 26037.1 -03425.5 -07.4949 26261.4
 06 04 2013  02 16  -21.0373 26037.0 -03425.5 -07.4949 26261.3
 06 04 2013  02 17  -21.0372 26036.8 -03425.5 -07.4949 26261.2
 06 04 2013  02 18  -21.0371 26036.8 -03425.4 -07.4949 26261.1
 06 04 2013  02 19  -21.0370 26036.8 -03425.4 -07.4949 26261.1
 06 04 2013  02 20  -21.0369 26036.7 -03425.4 -07.4948 26261.1
 06 04 2013  02 21  -21.0369 26036.6 -03425.4 -07.4949 26261.0
 06 04 2013  02 22  -21.0369 26036.5 -03425.4 -07.4949 26260.9
 06 04 2013  02 23  -21.0367 26036.5 -03425.4 -07.4949 26260.8
 06 04 2013  02 24  -21.0366 26036.3 -03425.3 -07.4947 26260.6
 06 04 2013  02 25  -21.0367 26036.1 -03425.3 -07.4947 26260.4
 06 04 2013  02 26  -21.0370 26035.8 -03425.2 -07.4947 26260.1
 06 04 2013  02 27  -21.0371 26035.6 -03425.1 -07.4946 26259.9
 06 04 2013  02 28  -21.0372 26035.4 -03425.1 -07.4945 26259.8
 06 04 2013  02 29  -21.0372 26035.3 -03425.1 -07.4945 26259.6
 06 04 2013  02 30  -21.0371 26035.2 -03425.0 -07.4945 26259.5
 06 04 2013  02 31  -21.0369 26035.1 -03425.1 -07.4945 26259.5
 06 04 2013  02 32  -21.0367 26035.2 -03425.1 -07.4947 26259.5
 06 04 2013  02 33  -21.0366 26035.3 -03425.2 -07.4948 26259.6
 06 04 2013  02 34  -21.0366 26035.4 -03425.3 -07.4950 26259.7
 06 04 2013  02 35  -21.0365 26035.5 -03425.4 -07.4951 26259.8
 06 04 2013  02 36  -21.0363 26035.4 -03425.4 -07.4952 26259.8
 06 04 2013  02 37  -21.0361 26035.4 -03425.4 -07.4952 26259.8
 06 04 2013  02 38  -21.0360 26035.4 -03425.5 -07.4953 26259.8
 06 04 2013  02 39  -21.0359 26035.4 -03425.5 -07.4954 26259.8
 06 04 2013  02 40  -21.0360 26035.4 -03425.5 -07.4955 26259.8
 06 04 2013  02 41  -21.0360 26035.5 -03425.6 -07.4955 26259.9
 06 04 2013  02 42  -21.0360 26035.7 -03425.8 -07.4959 26260.2
 06 04 2013  02 43  -21.0360 26035.5 -03425.7 -07.4959 26260.0
 06 04 2013  02 44  -21.0359 26035.8 -03425.9 -07.4961 26260.2
 06 04 2013  02 45  -21.0356 26036.0 -03425.9 -07.4961 26260.4
 06 04 2013  02 46  -21.0356 26036.3 -03426.1 -07.4965 26260.8
 06 04 2013  02 47  -21.0355 26036.7 -03426.3 -07.4968 26261.2
 06 04 2013  02 48  -21.0352 26037.1 -03426.5 -07.4972 26261.6
 06 04 2013  02 49  -21.0351 26037.4 -03426.7 -07.4974 26262.0
 06 04 2013  02 50  -21.0352 26037.5 -03426.7 -07.4974 26262.0
 06 04 2013  02 51  -21.0347 26037.9 -03426.9 -07.4976 26262.5
 06 04 2013  02 52  -21.0348 26037.6 -03426.8 -07.4975 26262.1
 06 04 2013  02 53  -21.0344 26038.4 -03427.1 -07.4980 26263.0
 06 04 2013  02 54  -21.0348 26037.6 -03426.8 -07.4976 26262.1
 06 04 2013  02 55  -21.0348 26037.8 -03426.9 -07.4977 26262.4
 06 04 2013  02 56  -21.0347 26037.9 -03426.9 -07.4977 26262.5
 06 04 2013  02 57  -21.0352 26037.8 -03426.9 -07.4977 26262.3
 06 04 2013  02 58  -21.0353 26037.9 -03426.9 -07.4978 26262.4
 06 04 2013  02 59  -21.0354 26037.8 -03426.9 -07.4977 26262.4
 06 04 2013  03 00  -21.0356 26037.8 -03426.9 -07.4978 26262.3
 06 04 2013  03 01  -21.0354 26038.1 -03427.0 -07.4979 26262.6
 06 04 2013  03 02  -21.0357 26038.1 -03427.1 -07.4981 26262.7
 06 04 2013  03 03  -21.0361 26038.1 -03427.1 -07.4982 26262.6
 06 04 2013  03 04  -21.0362 26038.3 -03427.2 -07.4983 26262.9
 06 04 2013  03 05  -21.0363 26038.6 -03427.4 -07.4985 26263.2
 06 04 2013  03 06  -21.0361 26039.0 -03427.5 -07.4987 26263.6
 06 04 2013  03 07  -21.0359 26039.2 -03427.5 -07.4987 26263.8
 06 04 2013  03 08  -21.0357 26039.3 -03427.6 -07.4987 26264.0
 06 04 2013  03 09  -21.0356 26039.4 -03427.5 -07.4987 26264.0
 06 04 2013  03 10  -21.0358 26039.3 -03427.5 -07.4986 26263.9
 06 04 2013  03 11  -21.0361 26039.0 -03427.3 -07.4983 26263.6
 06 04 2013  03 12  -21.0364 26039.3 -03427.4 -07.4984 26263.9
 06 04 2013  03 13  -21.0369 26038.9 -03427.3 -07.4983 26263.5
 06 04 2013  03 14  -21.0368 26039.0 -03427.2 -07.4981 26263.6
 06 04 2013  03 15  -21.0370 26038.7 -03427.0 -07.4978 26263.2
 06 04 2013  03 16  -21.0369 26038.9 -03427.1 -07.4978 26263.4
 06 04 2013  03 17  -21.0370 26038.7 -03427.0 -07.4977 26263.2
 06 04 2013  03 18  -21.0374 26038.4 -03426.8 -07.4974 26262.9
 06 04 2013  03 19  -21.0377 26038.3 -03426.8 -07.4973 26262.8
 06 04 2013  03 20  -21.0378 26038.1 -03426.7 -07.4972 26262.6
 06 04 2013  03 21  -21.0380 26038.0 -03426.6 -07.4971 26262.5
 06 04 2013  03 22  -21.0381 26037.8 -03426.5 -07.4970 26262.3
 06 04 2013  03 23  -21.0383 26037.8 -03426.5 -07.4969 26262.2
 06 04 2013  03 24  -21.0384 26037.7 -03426.5 -07.4970 26262.2
 06 04 2013  03 25  -21.0385 26037.7 -03426.6 -07.4971 26262.2
 06 04 2013  03 26  -21.0385 26037.8 -03426.6 -07.4971 26262.3
 06 04 2013  03 27  -21.0385 26037.9 -03426.7 -07.4972 26262.4
 06 04 2013  03 28  -21.0386 26037.9 -03426.7 -07.4973 26262.4
 06 04 2013  03 29  -21.0385 26038.0 -03426.8 -07.4974 26262.5
 06 04 2013  03 30  -21.0386 26038.0 -03426.8 -07.4974 26262.5
 06 04 2013  03 31  -21.0387 26038.0 -03426.8 -07.4975 26262.5
 06 04 2013  03 32  -21.0388 26038.0 -03426.8 -07.4975 26262.6
 06 04 2013  03 33  -21.0390 26037.9 -03426.8 -07.4975 26262.4
 06 04 2013  03 34  -21.0391 26038.1 -03426.9 -07.4976 26262.6
 06 04 2013  03 35  -21.0393 26038.1 -03426.9 -07.4976 26262.6
 06 04 2013  03 36  -21.0397 26038.0 -03426.9 -07.4976 26262.6
 06 04 2013  03 37  -21.0399 26038.0 -03426.8 -07.4975 26262.5
 06 04 2013  03 38  -21.0402 26038.0 -03426.8 -07.4975 26262.5
 06 04 2013  03 39  -21.0404 26037.8 -03426.7 -07.4973 26262.3
 06 04 2013  03 40  -21.0405 26037.6 -03426.6 -07.4972 26262.1
 06 04 2013  03 41  -21.0406 26037.5 -03426.5 -07.4971 26262.0
 06 04 2013  03 42  -21.0407 26037.2 -03426.4 -07.4968 26261.7
 06 04 2013  03 43  -21.0407 26036.9 -03426.2 -07.4965 26261.3
 06 04 2013  03 44  -21.0412 26036.4 -03426.0 -07.4962 26260.9
 06 04 2013  03 45  -21.0420 26036.3 -03426.0 -07.4962 26260.7
 06 04 2013  03 46  -21.0424 26036.0 -03425.9 -07.4962 26260.4
 06 04 2013  03 47  -21.0424 26036.0 -03425.9 -07.4962 26260.4
 06 04 2013  03 48  -21.0421 26035.9 -03425.9 -07.4962 26260.3
 06 04 2013  03 49  -21.0421 26036.1 -03426.0 -07.4963 26260.5
 06 04 2013  03 50  -21.0422 26036.3 -03426.2 -07.4966 26260.8
 06 04 2013  03 51  -21.0423 26036.5 -03426.3 -07.4968 26261.0
 06 04 2013  03 52  -21.0422 26036.6 -03426.4 -07.4969 26261.1
 06 04 2013  03 53  -21.0419 26036.7 -03426.4 -07.4970 26261.2
 06 04 2013  03 54  -21.0419 26037.0 -03426.5 -07.4971 26261.5
 06 04 2013  03 55  -21.0421 26037.1 -03426.6 -07.4973 26261.6
 06 04 2013  03 56  -21.0421 26037.3 -03426.6 -07.4973 26261.8
 06 04 2013  03 57  -21.0421 26037.4 -03426.7 -07.4973 26261.9
 06 04 2013  03 58  -21.0421 26037.4 -03426.6 -07.4973 26261.9
 06 04 2013  03 59  -21.0422 26037.6 -03426.7 -07.4973 26262.1
 06 04 2013  04 00  -21.0422 26037.6 -03426.6 -07.4972 26262.1
 06 04 2013  04 01  -21.0423 26037.6 -03426.6 -07.4972 26262.1
 06 04 2013  04 02  -21.0423 26037.7 -03426.6 -07.4972 26262.2
 06 04 2013  04 03  -21.0421 26037.8 -03426.6 -07.4972 26262.3
 06 04 2013  04 04  -21.0418 26037.8 -03426.6 -07.4972 26262.3
 06 04 2013  04 05  -21.0417 26037.9 -03426.7 -07.4972 26262.4
 06 04 2013  04 06  -21.0416 26038.0 -03426.7 -07.4972 26262.5
 06 04 2013  04 07  -21.0414 26038.0 -03426.6 -07.4971 26262.5
 06 04 2013  04 08  -21.0413 26038.0 -03426.6 -07.4971 26262.5
 06 04 2013  04 09  -21.0412 26038.0 -03426.6 -07.4970 26262.5
 06 04 2013  04 10  -21.0412 26038.1 -03426.6 -07.4971 26262.6
 06 04 2013  04 11  -21.0413 26038.2 -03426.7 -07.4972 26262.7
 06 04 2013  04 12  -21.0413 26038.3 -03426.8 -07.4973 26262.9
 06 04 2013  04 13  -21.0411 26038.5 -03426.8 -07.4974 26263.0
 06 04 2013  04 14  -21.0411 26038.6 -03426.9 -07.4974 26263.2
 06 04 2013  04 15  -21.0411 26038.8 -03426.9 -07.4974 26263.4
 06 04 2013  04 16  -21.0410 26038.6 -03426.8 -07.4972 26263.1
 06 04 2013  04 17  -21.0411 26038.1 -03426.5 -07.4967 26262.5
 06 04 2013  04 18  -21.0417 26037.5 -03426.2 -07.4963 26262.0
 06 04 2013  04 19  -21.0424 26036.9 -03425.9 -07.4958 26261.3
 06 04 2013  04 20  -21.0431 26036.6 -03425.8 -07.4957 26261.0
 06 04 2013  04 21  -21.0437 26036.2 -03425.7 -07.4956 26260.6
 06 04 2013  04 22  -21.0441 26036.3 -03425.7 -07.4957 26260.7
 06 04 2013  04 23  -21.0443 26036.3 -03425.8 -07.4957 26260.7
 06 04 2013  04 24  -21.0443 26036.5 -03425.8 -07.4958 26260.9
 06 04 2013  04 25  -21.0442 26036.9 -03426.0 -07.4961 26261.3
 06 04 2013  04 26  -21.0437 26037.4 -03426.2 -07.4964 26261.8
 06 04 2013  04 27  -21.0428 26037.9 -03426.4 -07.4966 26262.4
 06 04 2013  04 28  -21.0420 26038.5 -03426.6 -07.4970 26263.0
 06 04 2013  04 29  -21.0413 26039.0 -03426.8 -07.4972 26263.5
 06 04 2013  04 30  -21.0408 26039.4 -03427.0 -07.4974 26263.9
 06 04 2013  04 31  -21.0403 26039.4 -03426.9 -07.4973 26264.0
 06 04 2013  04 32  -21.0399 26039.6 -03426.9 -07.4972 26264.2
 06 04 2013  04 33  -21.0399 26039.5 -03426.8 -07.4970 26264.0
 06 04 2013  04 34  -21.0400 26039.3 -03426.7 -07.4968 26263.8
 06 04 2013  04 35  -21.0401 26038.9 -03426.4 -07.4964 26263.4
 06 04 2013  04 36  -21.0402 26038.7 -03426.2 -07.4961 26263.1
 06 04 2013  04 37  -21.0402 26038.3 -03426.1 -07.4958 26262.7
 06 04 2013  04 38  -21.0403 26038.2 -03426.0 -07.4957 26262.6
 06 04 2013  04 39  -21.0403 26038.2 -03426.0 -07.4957 26262.6
 06 04 2013  04 40  -21.0402 26038.4 -03426.1 -07.4958 26262.9
 06 04 2013  04 41  -21.0400 26038.6 -03426.2 -07.4960 26263.0
 06 04 2013  04 42  -21.0397 26038.9 -03426.3 -07.4961 26263.4
 06 04 2013  04 43  -21.0393 26039.0 -03426.3 -07.4961 26263.4
 06 04 2013  04 44  -21.0390 26039.0 -03426.3 -07.4960 26263.5
 06 04 2013  04 45  -21.0387 26039.1 -03426.3 -07.4961 26263.5
 06 04 2013  04 46  -21.0386 26039.1 -03426.3 -07.4961 26263.5
 06 04 2013  04 47  -21.0385 26039.3 -03426.4 -07.4962 26263.7
 06 04 2013  04 48  -21.0383 26039.3 -03426.4 -07.4963 26263.8
 06 04 2013  04 49  -21.0379 26039.4 -03426.5 -07.4963 26263.9
 06 04 2013  04 50  -21.0375 26039.5 -03426.5 -07.4963 26264.0
 06 04 2013  04 51  -21.0373 26039.6 -03426.5 -07.4964 26264.1
 06 04 2013  04 52  -21.0372 26039.7 -03426.6 -07.4965 26264.1
 06 04 2013  04 53  -21.0369 26039.9 -03426.7 -07.4967 26264.4
 06 04 2013  04 54  -21.0366 26040.1 -03426.8 -07.4969 26264.7
 06 04 2013  04 55  -21.0361 26040.3 -03426.9 -07.4969 26264.8
 06 04 2013  04 56  -21.0358 26040.4 -03426.9 -07.4970 26264.9
 06 04 2013  04 57  -21.0354 26040.2 -03426.8 -07.4969 26264.8
 06 04 2013  04 58  -21.0353 26040.2 -03426.8 -07.4968 26264.7
 06 04 2013  04 59  -21.0352 26040.0 -03426.7 -07.4968 26264.5
 06 04 2013  05 00  -21.0350 26040.0 -03426.7 -07.4967 26264.5
 06 04 2013  05 01  -21.0349 26039.8 -03426.7 -07.4967 26264.3
 06 04 2013  05 02  -21.0347 26039.7 -03426.7 -07.4967 26264.2
 06 04 2013  05 03  -21.0347 26039.7 -03426.7 -07.4967 26264.2
 06 04 2013  05 04  -21.0346 26039.6 -03426.7 -07.4968 26264.1
 06 04 2013  05 05  -21.0346 26039.6 -03426.8 -07.4969 26264.1
 06 04 2013  05 06  -21.0344 26039.5 -03426.8 -07.4970 26264.1
 06 04 2013  05 07  -21.0343 26039.4 -03426.8 -07.4970 26264.0
 06 04 2013  05 08  -21.0343 26039.4 -03426.8 -07.4970 26263.9
 06 04 2013  05 09  -21.0345 26039.4 -03426.8 -07.4971 26263.9
 06 04 2013  05 10  -21.0346 26039.4 -03426.9 -07.4972 26263.9
 06 04 2013  05 11  -21.0347 26039.2 -03426.8 -07.4971 26263.7
 06 04 2013  05 12  -21.0350 26039.0 -03426.7 -07.4970 26263.5
 06 04 2013  05 13  -21.0356 26038.9 -03426.7 -07.4970 26263.4
 06 04 2013  05 14  -21.0359 26038.9 -03426.8 -07.4971 26263.4
 06 04 2013  05 15  -21.0359 26038.8 -03426.7 -07.4971 26263.3
 06 04 2013  05 16  -21.0359 26038.6 -03426.7 -07.4970 26263.1
 06 04 2013  05 17  -21.0358 26038.5 -03426.6 -07.4969 26263.0
 06 04 2013  05 18  -21.0355 26038.2 -03426.5 -07.4967 26262.7
 06 04 2013  05 19  -21.0353 26038.1 -03426.4 -07.4966 26262.6
 06 04 2013  05 20  -21.0349 26038.0 -03426.4 -07.4966 26262.5
 06 04 2013  05 21  -21.0346 26037.9 -03426.4 -07.4966 26262.4
 06 04 2013  05 22  -21.0343 26037.8 -03426.4 -07.4965 26262.3
 06 04 2013  05 23  -21.0345 26037.7 -03426.4 -07.4967 26262.2
 06 04 2013  05 24  -21.0347 26037.7 -03426.5 -07.4968 26262.2
 06 04 2013  05 25  -21.0344 26037.6 -03426.5 -07.4969 26262.1
 06 04 2013  05 26  -21.0340 26037.4 -03426.4 -07.4968 26261.9
 06 04 2013  05 27  -21.0337 26037.3 -03426.4 -07.4968 26261.8
 06 04 2013  05 28  -21.0335 26037.2 -03426.4 -07.4969 26261.7
 06 04 2013  05 29  -21.0331 26037.1 -03426.5 -07.4970 26261.6
 06 04 2013  05 30  -21.0330 26037.0 -03426.5 -07.4971 26261.5
 06 04 2013  05 31  -21.0330 26036.8 -03426.5 -07.4971 26261.3
 06 04 2013  05 32  -21.0329 26036.6 -03426.5 -07.4972 26261.1
 06 04 2013  05 33  -21.0330 26036.5 -03426.5 -07.4973 26261.0
 06 04 2013  05 34  -21.0332 26036.3 -03426.5 -07.4974 26260.8
 06 04 2013  05 35  -21.0334 26036.3 -03426.6 -07.4975 26260.8
 06 04 2013  05 36  -21.0336 26036.2 -03426.6 -07.4976 26260.7
 06 04 2013  05 37  -21.0339 26036.2 -03426.7 -07.4977 26260.7
 06 04 2013  05 38  -21.0342 26036.0 -03426.7 -07.4977 26260.6
 06 04 2013  05 39  -21.0345 26036.0 -03426.7 -07.4977 26260.5
 06 04 2013  05 40  -21.0346 26035.9 -03426.7 -07.4978 26260.4
 06 04 2013  05 41  -21.0345 26035.7 -03426.6 -07.4976 26260.2
 06 04 2013  05 42  -21.0342 26035.7 -03426.6 -07.4976 26260.2
 06 04 2013  05 43  -21.0340 26035.7 -03426.6 -07.4977 26260.2
 06 04 2013  05 44  -21.0337 26035.7 -03426.6 -07.4978 26260.2
 06 04 2013  05 45  -21.0334 26035.4 -03426.6 -07.4978 26259.9
 06 04 2013  05 46  -21.0329 26035.2 -03426.6 -07.4977 26259.8
 06 04 2013  05 47  -21.0324 26035.1 -03426.6 -07.4978 26259.6
 06 04 2013  05 48  -21.0322 26035.0 -03426.6 -07.4978 26259.5
 06 04 2013  05 49  -21.0321 26035.0 -03426.6 -07.4980 26259.5
 06 04 2013  05 50  -21.0320 26034.9 -03426.7 -07.4980 26259.4
 06 04 2013  05 51  -21.0319 26034.8 -03426.7 -07.4982 26259.4
 06 04 2013  05 52  -21.0321 26034.8 -03426.8 -07.4984 26259.4
 06 04 2013  05 53  -21.0323 26034.8 -03426.9 -07.4986 26259.4
 06 04 2013  05 54  -21.0325 26034.9 -03427.0 -07.4987 26259.4
 06 04 2013  05 55  -21.0328 26034.9 -03427.0 -07.4988 26259.5
 06 04 2013  05 56  -21.0330 26034.9 -03427.1 -07.4989 26259.5
 06 04 2013  05 57  -21.0328 26034.9 -03427.1 -07.4989 26259.4
 06 04 2013  05 58  -21.0327 26034.7 -03427.0 -07.4988 26259.3
 06 04 2013  05 59  -21.0329 26034.6 -03427.0 -07.4990 26259.2
 06 04 2013  06 00  -21.0333 26034.6 -03427.1 -07.4991 26259.2
 06 04 2013  06 01  -21.0335 26034.8 -03427.2 -07.4993 26259.4
 06 04 2013  06 02  -21.0336 26034.9 -03427.3 -07.4994 26259.5
 06 04 2013  06 03  -21.0335 26035.0 -03427.3 -07.4994 26259.6
 06 04 2013  06 04  -21.0332 26035.1 -03427.3 -07.4995 26259.7
 06 04 2013  06 05  -21.0327 26035.1 -03427.4 -07.4995 26259.7
 06 04 2013  06 06  -21.0323 26035.1 -03427.4 -07.4996 26259.8
 06 04 2013  06 07  -21.0320 26035.1 -03427.4 -07.4996 26259.7
 06 04 2013  06 08  -21.0317 26034.9 -03427.4 -07.4996 26259.6
 06 04 2013  06 09  -21.0314 26034.9 -03427.4 -07.4996 26259.6
 06 04 2013  06 10  -21.0313 26035.0 -03427.4 -07.4997 26259.6
 06 04 2013  06 11  -21.0311 26034.9 -03427.4 -07.4997 26259.5
 06 04 2013  06 12  -21.0308 26034.9 -03427.5 -07.4998 26259.6
 06 04 2013  06 13  -21.0309 26034.9 -03427.5 -07.4999 26259.6
 06 04 2013  06 14  -21.0310 26035.0 -03427.6 -07.5001 26259.7
 06 04 2013  06 15  -21.0311 26035.1 -03427.7 -07.5003 26259.7
 06 04 2013  06 16  -21.0309 26034.9 -03427.6 -07.5001 26259.6
 06 04 2013  06 17  -21.0308 26035.1 -03427.8 -07.5004 26259.7
 06 04 2013  06 18  -21.0310 26035.1 -03427.8 -07.5005 26259.8
 06 04 2013  06 19  -21.0312 26035.0 -03427.8 -07.5005 26259.7
 06 04 2013  06 20  -21.0313 26035.0 -03427.8 -07.5006 26259.7
 06 04 2013  06 21  -21.0312 26035.1 -03427.9 -07.5006 26259.7
 06 04 2013  06 22  -21.0311 26035.1 -03427.9 -07.5007 26259.8
 06 04 2013  06 23  -21.0307 26035.0 -03427.9 -07.5006 26259.7
 06 04 2013  06 24  -21.0305 26035.2 -03428.0 -07.5008 26259.9
 06 04 2013  06 25  -21.0303 26035.0 -03427.9 -07.5007 26259.7
 06 04 2013  06 26  -21.0301 26035.0 -03428.0 -07.5008 26259.7
 06 04 2013  06 27  -21.0299 26034.9 -03427.9 -07.5008 26259.6
 06 04 2013  06 28  -21.0298 26034.8 -03428.0 -07.5009 26259.5
 06 04 2013  06 29  -21.0295 26034.9 -03428.1 -07.5011 26259.6
 06 04 2013  06 30  -21.0299 26034.7 -03428.0 -07.5011 26259.5
 06 04 2013  06 31  -21.0296 26034.9 -03428.2 -07.5013 26259.6
 06 04 2013  06 32  -21.0297 26034.9 -03428.2 -07.5014 26259.6
 06 04 2013  06 33  -21.0292 26035.0 -03428.3 -07.5015 26259.7
 06 04 2013  06 34  -21.0293 26035.0 -03428.3 -07.5016 26259.8
 06 04 2013  06 35  -21.0291 26035.2 -03428.4 -07.5018 26259.9
 06 04 2013  06 36  -21.0291 26035.1 -03428.4 -07.5018 26259.9
 06 04 2013  06 37  -21.0291 26035.2 -03428.5 -07.5019 26259.9
 06 04 2013  06 38  -21.0290 26035.3 -03428.6 -07.5021 26260.1
 06 04 2013  06 39  -21.0285 26035.0 -03428.5 -07.5019 26259.7
 06 04 2013  06 40  -21.0288 26034.5 -03428.3 -07.5016 26259.3
 06 04 2013  06 41  -21.0293 26034.5 -03428.3 -07.5017 26259.2
 06 04 2013  06 42  -21.0299 26034.3 -03428.2 -07.5016 26259.0
 06 04 2013  06 43  -21.0301 26034.3 -03428.3 -07.5018 26259.0
 06 04 2013  06 44  -21.0306 26034.1 -03428.3 -07.5018 26258.8
 06 04 2013  06 45  -21.0309 26033.9 -03428.3 -07.5018 26258.6
 06 04 2013  06 46  -21.0310 26033.7 -03428.2 -07.5018 26258.5
 06 04 2013  06 47  -21.0310 26033.9 -03428.3 -07.5020 26258.7
 06 04 2013  06 48  -21.0310 26033.7 -03428.3 -07.5020 26258.5
 06 04 2013  06 49  -21.0311 26034.0 -03428.4 -07.5021 26258.7
 06 04 2013  06 50  -21.0316 26033.9 -03428.4 -07.5021 26258.7
 06 04 2013  06 51  -21.0317 26033.9 -03428.4 -07.5021 26258.7
 06 04 2013  06 52  -21.0322 26034.1 -03428.5 -07.5022 26258.9
 06 04 2013  06 53  -21.0323 26033.9 -03428.4 -07.5022 26258.7
 06 04 2013  06 54  -21.0325 26034.0 -03428.5 -07.5022 26258.8
 06 04 2013  06 55  -21.0327 26034.0 -03428.4 -07.5022 26258.8
 06 04 2013  06 56  -21.0329 26034.0 -03428.5 -07.5022 26258.8
 06 04 2013  06 57  -21.0332 26033.8 -03428.3 -07.5020 26258.6
 06 04 2013  06 58  -21.0333 26033.7 -03428.3 -07.5019 26258.5
 06 04 2013  06 59  -21.0334 26033.7 -03428.2 -07.5017 26258.4
 06 04 2013  07 00  -21.0337 26033.6 -03428.2 -07.5017 26258.4
 06 04 2013  07 01  -21.0336 26033.7 -03428.2 -07.5017 26258.5
 06 04 2013  07 02  -21.0337 26033.8 -03428.2 -07.5016 26258.5
 06 04 2013  07 03  -21.0341 26034.0 -03428.3 -07.5018 26258.7
 06 04 2013  07 04  -21.0341 26034.1 -03428.3 -07.5018 26258.9
 06 04 2013  07 05  -21.0345 26034.0 -03428.3 -07.5018 26258.8
 06 04 2013  07 06  -21.0347 26034.0 -03428.2 -07.5016 26258.7
 06 04 2013  07 07  -21.0347 26034.1 -03428.2 -07.5015 26258.8
 06 04 2013  07 08  -21.0346 26034.2 -03428.2 -07.5015 26258.9
 06 04 2013  07 09  -21.0347 26034.2 -03428.1 -07.5014 26258.9
 06 04 2013  07 10  -21.0344 26034.5 -03428.2 -07.5015 26259.3
 06 04 2013  07 11  -21.0342 26034.7 -03428.2 -07.5015 26259.4
 06 04 2013  07 12  -21.0338 26035.0 -03428.4 -07.5017 26259.8
 06 04 2013  07 13  -21.0333 26035.2 -03428.4 -07.5018 26259.9
 06 04 2013  07 14  -21.0334 26035.1 -03428.4 -07.5017 26259.9
 06 04 2013  07 15  -21.0330 26035.6 -03428.5 -07.5019 26260.4
 06 04 2013  07 16  -21.0330 26036.1 -03428.8 -07.5023 26260.9
 06 04 2013  07 17  -21.0326 26036.4 -03428.8 -07.5023 26261.2
 06 04 2013  07 18  -21.0320 26036.9 -03429.0 -07.5026 26261.7
 06 04 2013  07 19  -21.0318 26036.8 -03429.0 -07.5025 26261.7
 06 04 2013  07 20  -21.0314 26037.1 -03429.0 -07.5025 26261.9
 06 04 2013  07 21  -21.0310 26037.4 -03429.1 -07.5027 26262.2
 06 04 2013  07 22  -21.0305 26037.5 -03429.1 -07.5026 26262.4
 06 04 2013  07 23  -21.0301 26037.7 -03429.2 -07.5026 26262.6
 06 04 2013  07 24  -21.0295 26038.0 -03429.3 -07.5028 26262.9
 06 04 2013  07 25  -21.0292 26038.3 -03429.3 -07.5028 26263.2
 06 04 2013  07 26  -21.0290 26038.4 -03429.3 -07.5028 26263.3
 06 04 2013  07 27  -21.0289 26038.5 -03429.3 -07.5028 26263.3
 06 04 2013  07 28  -21.0285 26038.5 -03429.3 -07.5027 26263.4
 06 04 2013  07 29  -21.0280 26038.7 -03429.3 -07.5028 26263.5
 06 04 2013  07 30  -21.0275 26038.7 -03429.3 -07.5028 26263.5
 06 04 2013  07 31  -21.0270 26038.7 -03429.3 -07.5027 26263.6
 06 04 2013  07 32  -21.0266 26038.8 -03429.4 -07.5028 26263.7
 06 04 2013  07 33  -21.0265 26038.9 -03429.4 -07.5028 26263.7
 06 04 2013  07 34  -21.0262 26039.0 -03429.5 -07.5029 26263.9
 06 04 2013  07 35  -21.0260 26039.1 -03429.5 -07.5031 26264.0
 06 04 2013  07 36  -21.0257 26039.3 -03429.6 -07.5032 26264.2
 06 04 2013  07 37  -21.0255 26039.4 -03429.7 -07.5033 26264.3
 06 04 2013  07 38  -21.0251 26039.5 -03429.7 -07.5033 26264.4
 06 04 2013  07 39  -21.0248 26039.5 -03429.7 -07.5033 26264.4
 06 04 2013  07 40  -21.0246 26039.7 -03429.8 -07.5034 26264.6
 06 04 2013  07 41  -21.0244 26039.8 -03429.8 -07.5035 26264.7
 06 04 2013  07 42  -21.0241 26039.7 -03429.8 -07.5035 26264.6
 06 04 2013  07 43  -21.0238 26039.8 -03429.8 -07.5035 26264.7
 06 04 2013  07 44  -21.0239 26039.8 -03429.9 -07.5035 26264.7
 06 04 2013  07 45  -21.0240 26039.9 -03429.9 -07.5036 26264.8
 06 04 2013  07 46  -21.0241 26039.9 -03429.9 -07.5036 26264.8
 06 04 2013  07 47  -21.0245 26039.9 -03429.9 -07.5036 26264.8
 06 04 2013  07 48  -21.0249 26039.9 -03429.9 -07.5036 26264.9
 06 04 2013  07 49  -21.0253 26039.8 -03429.8 -07.5034 26264.7
 06 04 2013  07 50  -21.0256 26039.9 -03429.8 -07.5034 26264.8
 06 04 2013  07 51  -21.0260 26039.6 -03429.6 -07.5031 26264.5
 06 04 2013  07 52  -21.0263 26039.5 -03429.6 -07.5030 26264.4
 06 04 2013  07 53  -21.0265 26039.5 -03429.5 -07.5028 26264.3
 06 04 2013  07 54  -21.0266 26039.4 -03429.5 -07.5028 26264.3
 06 04 2013  07 55  -21.0268 26039.4 -03429.4 -07.5026 26264.3
 06 04 2013  07 56  -21.0273 26039.4 -03429.4 -07.5026 26264.3
 06 04 2013  07 57  -21.0274 26039.4 -03429.3 -07.5025 26264.2
 06 04 2013  07 58  -21.0275 26039.2 -03429.2 -07.5022 26264.1
 06 04 2013  07 59  -21.0277 26039.1 -03429.1 -07.5021 26263.9
 06 04 2013  08 00  -21.0279 26038.9 -03429.0 -07.5019 26263.7
 06 04 2013  08 01  -21.0282 26038.7 -03428.9 -07.5017 26263.5
 06 04 2013  08 02  -21.0287 26038.7 -03428.8 -07.5017 26263.5
 06 04 2013  08 03  -21.0291 26038.7 -03428.8 -07.5016 26263.5
 06 04 2013  08 04  -21.0294 26038.7 -03428.8 -07.5016 26263.5
 06 04 2013  08 05  -21.0296 26038.7 -03428.7 -07.5014 26263.5
 06 04 2013  08 06  -21.0299 26038.6 -03428.6 -07.5013 26263.3
 06 04 2013  08 07  -21.0298 26038.5 -03428.5 -07.5011 26263.2
 06 04 2013  08 08  -21.0297 26038.3 -03428.4 -07.5008 26263.0
 06 04 2013  08 09  -21.0296 26038.2 -03428.3 -07.5006 26262.9
 06 04 2013  08 10  -21.0298 26037.9 -03428.2 -07.5004 26262.6
 06 04 2013  08 11  -21.0299 26037.8 -03428.1 -07.5003 26262.5
 06 04 2013  08 12  -21.0300 26037.7 -03428.1 -07.5003 26262.4
 06 04 2013  08 13  -21.0300 26037.8 -03428.1 -07.5004 26262.5
 06 04 2013  08 14  -21.0298 26037.6 -03428.1 -07.5003 26262.3
 06 04 2013  08 15  -21.0299 26037.6 -03428.1 -07.5004 26262.3
 06 04 2013  08 16  -21.0298 26037.6 -03428.1 -07.5004 26262.3
 06 04 2013  08 17  -21.0297 26037.7 -03428.1 -07.5004 26262.4
 06 04 2013  08 18  -21.0295 26037.7 -03428.1 -07.5004 26262.4
 06 04 2013  08 19  -21.0293 26037.5 -03428.1 -07.5003 26262.2
 06 04 2013  08 20  -21.0292 26037.4 -03428.0 -07.5003 26262.1
 06 04 2013  08 21  -21.0290 26037.5 -03428.1 -07.5003 26262.1
 06 04 2013  08 22  -21.0287 26037.5 -03428.1 -07.5003 26262.2
 06 04 2013  08 23  -21.0284 26037.4 -03428.0 -07.5003 26262.1
 06 04 2013  08 24  -21.0282 26037.2 -03428.0 -07.5003 26261.9
 06 04 2013  08 25  -21.0282 26037.1 -03428.0 -07.5003 26261.8
 06 04 2013  08 26  -21.0280 26037.2 -03428.1 -07.5006 26261.9
 06 04 2013  08 27  -21.0276 26037.3 -03428.2 -07.5007 26262.1
 06 04 2013  08 28  -21.0273 26037.4 -03428.3 -07.5008 26262.1
 06 04 2013  08 29  -21.0271 26037.2 -03428.3 -07.5008 26261.9
 06 04 2013  08 30  -21.0270 26037.0 -03428.2 -07.5007 26261.7
 06 04 2013  08 31  -21.0268 26036.9 -03428.2 -07.5008 26261.6
 06 04 2013  08 32  -21.0267 26036.9 -03428.3 -07.5009 26261.6
 06 04 2013  08 33  -21.0267 26036.9 -03428.3 -07.5011 26261.7
 06 04 2013  08 34  -21.0268 26036.9 -03428.4 -07.5012 26261.7
 06 04 2013  08 35  -21.0269 26037.0 -03428.5 -07.5014 26261.8
 06 04 2013  08 36  -21.0269 26037.0 -03428.6 -07.5015 26261.8
 06 04 2013  08 37  -21.0268 26037.0 -03428.6 -07.5016 26261.8
 06 04 2013  08 38  -21.0270 26037.0 -03428.6 -07.5017 26261.8
 06 04 2013  08 39  -21.0270 26037.1 -03428.7 -07.5017 26261.8
 06 04 2013  08 40  -21.0270 26037.1 -03428.6 -07.5017 26261.9
 06 04 2013  08 41  -21.0268 26037.0 -03428.6 -07.5017 26261.8
 06 04 2013  08 42  -21.0266 26037.0 -03428.6 -07.5016 26261.7
 06 04 2013  08 43  -21.0265 26036.9 -03428.5 -07.5015 26261.7
 06 04 2013  08 44  -21.0265 26036.9 -03428.5 -07.5015 26261.6
 06 04 2013  08 45  -21.0263 26036.8 -03428.5 -07.5015 26261.6
 06 04 2013  08 46  -21.0261 26036.8 -03428.5 -07.5015 26261.5
 06 04 2013  08 47  -21.0261 26036.8 -03428.5 -07.5016 26261.5
 06 04 2013  08 48  -21.0261 26036.7 -03428.6 -07.5016 26261.5
 06 04 2013  08 49  -21.0260 26036.7 -03428.6 -07.5017 26261.5
 06 04 2013  08 50  -21.0260 26036.5 -03428.6 -07.5017 26261.3
 06 04 2013  08 51  -21.0260 26036.4 -03428.6 -07.5017 26261.2
 06 04 2013  08 52  -21.0259 26036.5 -03428.6 -07.5018 26261.3
 06 04 2013  08 53  -21.0258 26036.5 -03428.7 -07.5019 26261.2
 06 04 2013  08 54  -21.0258 26036.4 -03428.6 -07.5019 26261.2
 06 04 2013  08 55  -21.0257 26036.4 -03428.7 -07.5019 26261.1
 06 04 2013  08 56  -21.0255 26036.2 -03428.7 -07.5020 26261.0
 06 04 2013  08 57  -21.0251 26036.1 -03428.7 -07.5021 26260.9
 06 04 2013  08 58  -21.0247 26035.9 -03428.7 -07.5021 26260.7
 06 04 2013  08 59  -21.0246 26036.0 -03428.8 -07.5023 26260.8
 06 04 2013  09 00  -21.0245 26036.0 -03428.9 -07.5026 26260.8
 06 04 2013  09 01  -21.0243 26035.9 -03429.1 -07.5029 26260.8
 06 04 2013  09 02  -21.0243 26035.9 -03429.2 -07.5032 26260.7
 06 04 2013  09 03  -21.0241 26035.9 -03429.3 -07.5035 26260.8
 06 04 2013  09 04  -21.0239 26036.0 -03429.5 -07.5038 26260.9
 06 04 2013  09 05  -21.0239 26035.9 -03429.5 -07.5039 26260.9
 06 04 2013  09 06  -21.0240 26035.9 -03429.6 -07.5041 26260.8
 06 04 2013  09 07  -21.0243 26036.0 -03429.7 -07.5044 26260.9
 06 04 2013  09 08  -21.0245 26035.9 -03429.8 -07.5046 26260.9
 06 04 2013  09 09  -21.0244 26035.9 -03429.8 -07.5046 26260.8
 06 04 2013  09 10  -21.0245 26035.8 -03429.9 -07.5047 26260.8
 06 04 2013  09 11  -21.0244 26035.8 -03429.9 -07.5049 26260.7
 06 04 2013  09 12  -21.0246 26035.7 -03430.0 -07.5049 26260.7
 06 04 2013  09 13  -21.0248 26035.6 -03430.0 -07.5050 26260.6
 06 04 2013  09 14  -21.0251 26035.6 -03430.0 -07.5051 26260.6
 06 04 2013  09 15  -21.0255 26035.5 -03430.1 -07.5052 26260.5
 06 04 2013  09 16  -21.0259 26035.5 -03430.1 -07.5053 26260.5
 06 04 2013  09 17  -21.0261 26035.4 -03430.1 -07.5054 26260.4
 06 04 2013  09 18  -21.0265 26035.4 -03430.2 -07.5055 26260.4
 06 04 2013  09 19  -21.0270 26035.3 -03430.2 -07.5056 26260.3
 06 04 2013  09 20  -21.0274 26035.3 -03430.3 -07.5058 26260.3
 06 04 2013  09 21  -21.0279 26035.5 -03430.4 -07.5060 26260.5
 06 04 2013  09 22  -21.0276 26035.7 -03430.5 -07.5062 26260.7
 06 04 2013  09 23  -21.0270 26035.6 -03430.5 -07.5061 26260.6
 06 04 2013  09 24  -21.0266 26035.6 -03430.5 -07.5061 26260.6
 06 04 2013  09 25  -21.0269 26035.6 -03430.6 -07.5064 26260.6
 06 04 2013  09 26  -21.0272 26035.7 -03430.7 -07.5066 26260.8
 06 04 2013  09 27  -21.0274 26035.9 -03430.8 -07.5068 26260.9
 06 04 2013  09 28  -21.0272 26036.0 -03430.9 -07.5068 26261.0
 06 04 2013  09 29  -21.0273 26036.0 -03430.9 -07.5068 26261.1
 06 04 2013  09 30  -21.0277 26036.3 -03431.0 -07.5070 26261.4
 06 04 2013  09 31  -21.0283 26036.5 -03431.1 -07.5071 26261.6
 06 04 2013  09 32  -21.0287 26036.6 -03431.1 -07.5071 26261.7
 06 04 2013  09 33  -21.0295 26036.8 -03431.2 -07.5072 26261.9
 06 04 2013  09 34  -21.0305 26037.0 -03431.3 -07.5074 26262.2
 06 04 2013  09 35  -21.0310 26037.2 -03431.3 -07.5073 26262.4
 06 04 2013  09 36  -21.0312 26037.3 -03431.2 -07.5072 26262.4
 06 04 2013  09 37  -21.0317 26037.4 -03431.2 -07.5071 26262.5
 06 04 2013  09 38  -21.0323 26037.5 -03431.1 -07.5070 26262.6
 06 04 2013  09 39  -21.0333 26037.6 -03431.2 -07.5070 26262.7
 06 04 2013  09 40  -21.0341 26037.8 -03431.2 -07.5070 26262.9
 06 04 2013  09 41  -21.0344 26037.9 -03431.2 -07.5069 26263.0
 06 04 2013  09 42  -21.0345 26037.9 -03431.1 -07.5067 26263.0
 06 04 2013  09 43  -21.0351 26037.9 -03431.0 -07.5065 26263.0
 06 04 2013  09 44  -21.0354 26038.0 -03430.9 -07.5064 26263.0
 06 04 2013  09 45  -21.0357 26038.0 -03430.9 -07.5063 26263.1
 06 04 2013  09 46  -21.0367 26038.0 -03430.9 -07.5063 26263.1
 06 04 2013  09 47  -21.0374 26038.2 -03430.9 -07.5063 26263.3
 06 04 2013  09 48  -21.0382 26038.3 -03431.0 -07.5064 26263.4
 06 04 2013  09 49  -21.0388 26038.4 -03430.9 -07.5062 26263.4
 06 04 2013  09 50  -21.0392 26038.5 -03430.9 -07.5061 26263.6
 06 04 2013  09 51  -21.0396 26038.5 -03430.8 -07.5060 26263.5
 06 04 2013  09 52  -21.0399 26038.6 -03430.7 -07.5058 26263.6
 06 04 2013  09 53  -21.0400 26038.7 -03430.7 -07.5056 26263.7
 06 04 2013  09 54  -21.0403 26038.7 -03430.6 -07.5055 26263.7
 06 04 2013  09 55  -21.0408 26038.8 -03430.6 -07.5054 26263.8
 06 04 2013  09 56  -21.0415 26039.0 -03430.6 -07.5053 26264.0
 06 04 2013  09 57  -21.0423 26039.3 -03430.6 -07.5053 26264.3
 06 04 2013  09 58  -21.0431 26039.5 -03430.6 -07.5052 26264.5
 06 04 2013  09 59  -21.0435 26039.7 -03430.6 -07.5051 26264.8
 06 04 2013  10 00  -21.0434 26039.9 -03430.5 -07.5048 26264.9
 06 04 2013  10 01  -21.0433 26040.1 -03430.4 -07.5046 26265.0
 06 04 2013  10 02  -21.0432 26040.2 -03430.3 -07.5043 26265.2
 06 04 2013  10 03  -21.0435 26040.4 -03430.2 -07.5042 26265.3
 06 04 2013  10 04  -21.0439 26040.7 -03430.3 -07.5042 26265.7
 06 04 2013  10 05  -21.0441 26041.0 -03430.3 -07.5041 26265.9
 06 04 2013  10 06  -21.0443 26041.2 -03430.2 -07.5040 26266.1
 06 04 2013  10 07  -21.0444 26041.4 -03430.2 -07.5038 26266.4
 06 04 2013  10 08  -21.0444 26041.6 -03430.1 -07.5036 26266.5
 06 04 2013  10 09  -21.0445 26041.8 -03430.1 -07.5035 26266.8
 06 04 2013  10 10  -21.0449 26042.1 -03430.0 -07.5033 26267.0
 06 04 2013  10 11  -21.0455 26042.3 -03430.0 -07.5031 26267.2
 06 04 2013  10 12  -21.0461 26042.4 -03429.9 -07.5028 26267.3
 06 04 2013  10 13  -21.0467 26042.5 -03429.8 -07.5026 26267.4
 06 04 2013  10 14  -21.0472 26042.8 -03429.7 -07.5024 26267.6
 06 04 2013  10 15  -21.0472 26043.1 -03429.6 -07.5022 26267.9
 06 04 2013  10 16  -21.0472 26043.3 -03429.6 -07.5019 26268.2
 06 04 2013  10 17  -21.0475 26043.5 -03429.5 -07.5016 26268.3
 06 04 2013  10 18  -21.0486 26043.6 -03429.3 -07.5013 26268.4
 06 04 2013  10 19  -21.0495 26043.9 -03429.2 -07.5011 26268.7
 06 04 2013  10 20  -21.0501 26044.1 -03429.1 -07.5008 26268.9
 06 04 2013  10 21  -21.0500 26044.2 -03429.0 -07.5005 26269.0
 06 04 2013  10 22  -21.0502 26044.2 -03428.8 -07.5001 26268.9
 06 04 2013  10 23  -21.0506 26044.4 -03428.7 -07.4998 26269.1
 06 04 2013  10 24  -21.0507 26044.6 -03428.6 -07.4996 26269.3
 06 04 2013  10 25  -21.0510 26044.8 -03428.6 -07.4994 26269.5
 06 04 2013  10 26  -21.0517 26045.1 -03428.6 -07.4993 26269.8
 06 04 2013  10 27  -21.0523 26045.4 -03428.5 -07.4990 26270.1
 06 04 2013  10 28  -21.0527 26045.5 -03428.2 -07.4985 26270.1
 06 04 2013  10 29  -21.0533 26045.5 -03428.0 -07.4979 26270.1
 06 04 2013  10 30  -21.0543 26045.6 -03427.8 -07.4975 26270.2
 06 04 2013  10 31  -21.0548 26045.9 -03427.7 -07.4971 26270.5
 06 04 2013  10 32  -21.0551 26046.2 -03427.5 -07.4967 26270.7
 06 04 2013  10 33  -21.0555 26046.3 -03427.3 -07.4963 26270.9
 06 04 2013  10 34  -21.0561 26046.5 -03427.2 -07.4959 26271.0
 06 04 2013  10 35  -21.0563 26046.8 -03427.1 -07.4957 26271.3
 06 04 2013  10 36  -21.0564 26047.2 -03427.0 -07.4953 26271.6
 06 04 2013  10 37  -21.0563 26047.7 -03426.9 -07.4950 26272.2
 06 04 2013  10 38  -21.0567 26048.1 -03426.9 -07.4947 26272.6
 06 04 2013  10 39  -21.0568 26048.6 -03426.8 -07.4944 26273.0
 06 04 2013  10 40  -21.0573 26049.0 -03426.7 -07.4941 26273.4
 06 04 2013  10 41  -21.0576 26049.5 -03426.6 -07.4937 26273.9
 06 04 2013  10 42  -21.0572 26050.0 -03426.5 -07.4933 26274.4
 06 04 2013  10 43  -21.0569 26050.4 -03426.3 -07.4929 26274.7
 06 04 2013  10 44  -21.0571 26051.0 -03426.3 -07.4927 26275.4
 06 04 2013  10 45  -21.0573 26051.7 -03426.3 -07.4925 26276.1
 06 04 2013  10 46  -21.0575 26052.4 -03426.3 -07.4923 26276.8
 06 04 2013  10 47  -21.0576 26053.3 -03426.3 -07.4921 26277.6
 06 04 2013  10 48  -21.0577 26054.0 -03426.3 -07.4919 26278.3
 06 04 2013  10 49  -21.0583 26054.6 -03426.3 -07.4916 26278.9
 06 04 2013  10 50  -21.0591 26055.2 -03426.2 -07.4912 26279.5
 06 04 2013  10 51  -21.0597 26056.1 -03426.2 -07.4909 26280.4
 06 04 2013  10 52  -21.0601 26057.0 -03426.1 -07.4906 26281.3
 06 04 2013  10 53  -21.0600 26057.7 -03425.9 -07.4900 26281.9
 06 04 2013  10 54  -21.0600 26058.4 -03425.8 -07.4895 26282.6
 06 04 2013  10 55  -21.0607 26058.3 -03425.4 -07.4887 26282.5
 06 04 2013  10 56  -21.0615 26059.0 -03425.3 -07.4882 26283.2
 06 04 2013  10 57  -21.0622 26059.4 -03425.1 -07.4878 26283.5
 06 04 2013  10 58  -21.0631 26059.5 -03424.8 -07.4870 26283.6
 06 04 2013  10 59  -21.0639 26059.6 -03424.5 -07.4864 26283.6
 06 04 2013  11 00  -21.0646 26059.7 -03424.3 -07.4858 26283.7
 06 04 2013  11 01  -21.0651 26059.9 -03424.1 -07.4853 26283.9
 06 04 2013  11 02  -21.0658 26060.0 -03423.8 -07.4848 26283.9
 06 04 2013  11 03  -21.0666 26060.1 -03423.6 -07.4843 26284.0
 06 04 2013  11 04  -21.0672 26060.2 -03423.4 -07.4837 26284.1
 06 04 2013  11 05  -21.0677 26060.1 -03423.1 -07.4832 26283.9
 06 04 2013  11 06  -21.0680 26060.2 -03422.9 -07.4828 26284.0
 06 04 2013  11 07  -21.0682 26060.4 -03422.8 -07.4825 26284.2
 06 04 2013  11 08  -21.0687 26060.5 -03422.7 -07.4822 26284.3
 06 04 2013  11 09  -21.0695 26060.9 -03422.7 -07.4820 26284.7
 06 04 2013  11 10  -21.0699 26061.3 -03422.6 -07.4818 26285.0
 06 04 2013  11 11  -21.0702 26061.7 -03422.5 -07.4815 26285.5
 06 04 2013  11 12  -21.0706 26062.2 -03422.4 -07.4811 26285.9
 06 04 2013  11 13  -21.0704 26062.5 -03422.2 -07.4806 26286.2
 06 04 2013  11 14  -21.0701 26063.2 -03422.1 -07.4802 26286.9
 06 04 2013  11 15  -21.0696 26064.0 -03422.1 -07.4800 26287.7
 06 04 2013  11 16  -21.0693 26064.6 -03422.0 -07.4795 26288.2
 06 04 2013  11 17  -21.0692 26065.2 -03421.9 -07.4791 26288.8
 06 04 2013  11 18  -21.0690 26065.2 -03421.5 -07.4783 26288.8
 06 04 2013  11 19  -21.0685 26065.9 -03421.4 -07.4780 26289.5
 06 04 2013  11 20  -21.0686 26066.2 -03421.2 -07.4774 26289.7
 06 04 2013  11 21  -21.0687 26066.7 -03421.1 -07.4769 26290.3
 06 04 2013  11 22  -21.0693 26067.3 -03420.9 -07.4764 26290.8
 06 04 2013  11 23  -21.0696 26068.0 -03420.8 -07.4760 26291.5
 06 04 2013  11 24  -21.0699 26068.8 -03420.7 -07.4755 26292.3
 06 04 2013  11 25  -21.0703 26068.9 -03420.3 -07.4746 26292.3
 06 04 2013  11 26  -21.0709 26069.3 -03420.1 -07.4740 26292.7
 06 04 2013  11 27  -21.0714 26069.8 -03419.9 -07.4735 26293.1
 06 04 2013  11 28  -21.0718 26070.2 -03419.7 -07.4729 26293.5
 06 04 2013  11 29  -21.0720 26070.8 -03419.5 -07.4724 26294.1
 06 04 2013  11 30  -21.0721 26070.9 -03419.1 -07.4716 26294.1
 06 04 2013  11 31  -21.0720 26071.2 -03418.9 -07.4710 26294.4
 06 04 2013  11 32  -21.0722 26071.3 -03418.7 -07.4704 26294.5
 06 04 2013  11 33  -21.0722 26071.5 -03418.4 -07.4699 26294.6
 06 04 2013  11 34  -21.0726 26072.0 -03418.4 -07.4695 26295.2
 06 04 2013  11 35  -21.0731 26072.4 -03418.2 -07.4691 26295.5
 06 04 2013  11 36  -21.0734 26072.8 -03418.1 -07.4687 26295.9
 06 04 2013  11 37  -21.0737 26073.0 -03417.8 -07.4681 26296.0
 06 04 2013  11 38  -21.0738 26073.3 -03417.7 -07.4677 26296.3
 06 04 2013  11 39  -21.0741 26074.0 -03417.7 -07.4675 26297.0
 06 04 2013  11 40  -21.0743 26074.3 -03417.5 -07.4670 26297.3
 06 04 2013  11 41  -21.0745 26074.8 -03417.4 -07.4667 26297.8
 06 04 2013  11 42  -21.0745 26075.1 -03417.3 -07.4663 26298.1
 06 04 2013  11 43  -21.0746 26075.2 -03417.1 -07.4658 26298.1
 06 04 2013  11 44  -21.0748 26075.2 -03416.9 -07.4654 26298.2
 06 04 2013  11 45  -21.0750 26075.9 -03416.9 -07.4653 26298.8
 06 04 2013  11 46  -21.0751 26076.8 -03417.0 -07.4653 26299.7
 06 04 2013  11 47  -21.0754 26077.4 -03416.9 -07.4649 26300.3
 06 04 2013  11 48  -21.0763 26077.7 -03416.7 -07.4644 26300.5
 06 04 2013  11 49  -21.0769 26077.8 -03416.5 -07.4638 26300.7
 06 04 2013  11 50  -21.0775 26078.1 -03416.3 -07.4633 26301.0
 06 04 2013  11 51  -21.0780 26078.3 -03416.1 -07.4628 26301.0
 06 04 2013  11 52  -21.0785 26078.4 -03415.9 -07.4623 26301.2
 06 04 2013  11 53  -21.0788 26078.8 -03415.7 -07.4620 26301.5
 06 04 2013  11 54  -21.0792 26079.1 -03415.6 -07.4615 26301.8
 06 04 2013  11 55  -21.0796 26079.7 -03415.6 -07.4614 26302.4
 06 04 2013  11 56  -21.0800 26079.8 -03415.4 -07.4609 26302.5
 06 04 2013  11 57  -21.0801 26079.8 -03415.2 -07.4604 26302.5
 06 04 2013  11 58  -21.0805 26079.8 -03415.0 -07.4600 26302.4
 06 04 2013  11 59  -21.0808 26079.7 -03414.8 -07.4596 26302.3
 06 04 2013  12 00  -21.0808 26080.0 -03414.7 -07.4593 26302.6
 06 04 2013  12 01  -21.0806 26080.4 -03414.7 -07.4592 26303.0
 06 04 2013  12 02  -21.0809 26080.6 -03414.6 -07.4589 26303.2
 06 04 2013  12 03  -21.0809 26081.0 -03414.5 -07.4588 26303.6
 06 04 2013  12 04  -21.0810 26081.3 -03414.4 -07.4585 26303.8
 06 04 2013  12 05  -21.0809 26081.7 -03414.4 -07.4582 26304.2
 06 04 2013  12 06  -21.0810 26082.0 -03414.3 -07.4579 26304.5
 06 04 2013  12 07  -21.0812 26081.9 -03414.0 -07.4574 26304.4
 06 04 2013  12 08  -21.0814 26082.1 -03413.9 -07.4571 26304.6
 06 04 2013  12 09  -21.0815 26082.5 -03413.9 -07.4569 26305.0
 06 04 2013  12 10  -21.0816 26082.8 -03413.8 -07.4567 26305.3
 06 04 2013  12 11  -21.0820 26083.3 -03413.8 -07.4565 26305.8
 06 04 2013  12 12  -21.0824 26084.0 -03413.8 -07.4563 26306.4
 06 04 2013  12 13  -21.0825 26084.7 -03413.8 -07.4561 26307.2
 06 04 2013  12 14  -21.0823 26085.5 -03413.8 -07.4559 26307.9
 06 04 2013  12 15  -21.0823 26086.1 -03413.7 -07.4555 26308.5
 06 04 2013  12 16  -21.0822 26086.6 -03413.5 -07.4550 26309.0
 06 04 2013  12 17  -21.0822 26087.0 -03413.3 -07.4544 26309.3
 06 04 2013  12 18  -21.0825 26087.3 -03413.1 -07.4539 26309.7
 06 04 2013  12 19  -21.0828 26087.7 -03412.9 -07.4534 26310.0
 06 04 2013  12 20  -21.0834 26088.0 -03412.7 -07.4528 26310.3
 06 04 2013  12 21  -21.0837 26088.0 -03412.4 -07.4521 26310.3
 06 04 2013  12 22  -21.0839 26088.2 -03412.1 -07.4516 26310.4
 06 04 2013  12 23  -21.0838 26088.4 -03412.0 -07.4511 26310.6
 06 04 2013  12 24  -21.0838 26088.7 -03411.8 -07.4508 26310.8
 06 04 2013  12 25  -21.0840 26089.2 -03411.8 -07.4505 26311.4
 06 04 2013  12 26  -21.0844 26089.8 -03411.7 -07.4502 26311.9
 06 04 2013  12 27  -21.0847 26090.4 -03411.6 -07.4498 26312.5
 06 04 2013  12 28  -21.0850 26091.2 -03411.6 -07.4495 26313.3
 06 04 2013  12 29  -21.0851 26091.9 -03411.5 -07.4490 26314.0
 06 04 2013  12 30  -21.0850 26092.6 -03411.3 -07.4485 26314.6
 06 04 2013  12 31  -21.0849 26093.1 -03411.2 -07.4480 26315.1
 06 04 2013  12 32  -21.0848 26093.8 -03411.1 -07.4477 26315.8
 06 04 2013  12 33  -21.0845 26094.4 -03411.0 -07.4472 26316.4
 06 04 2013  12 34  -21.0842 26094.9 -03410.8 -07.4468 26316.9
 06 04 2013  12 35  -21.0841 26095.2 -03410.6 -07.4463 26317.1
 06 04 2013  12 36  -21.0839 26095.7 -03410.5 -07.4460 26317.6
 06 04 2013  12 37  -21.0839 26096.2 -03410.5 -07.4457 26318.1
 06 04 2013  12 38  -21.0841 26096.4 -03410.3 -07.4453 26318.3
 06 04 2013  12 39  -21.0841 26096.4 -03410.2 -07.4450 26318.3
 06 04 2013  12 40  -21.0845 26096.6 -03410.1 -07.4448 26318.5
 06 04 2013  12 41  -21.0848 26096.7 -03410.0 -07.4445 26318.5
 06 04 2013  12 42  -21.0853 26096.8 -03409.9 -07.4443 26318.7
 06 04 2013  12 43  -21.0854 26097.4 -03410.0 -07.4444 26319.2
 06 04 2013  12 44  -21.0855 26098.0 -03410.1 -07.4444 26319.9
 06 04 2013  12 45  -21.0854 26098.4 -03410.1 -07.4442 26320.2
 06 04 2013  12 46  -21.0854 26098.6 -03410.0 -07.4439 26320.5
 06 04 2013  12 47  -21.0854 26098.8 -03409.8 -07.4436 26320.6
 06 04 2013  12 48  -21.0855 26098.9 -03409.8 -07.4434 26320.7
 06 04 2013  12 49  -21.0854 26098.9 -03409.6 -07.4431 26320.6
 06 04 2013  12 50  -21.0853 26098.9 -03409.6 -07.4430 26320.7
 06 04 2013  12 51  -21.0855 26099.2 -03409.7 -07.4431 26321.0
 06 04 2013  12 52  -21.0856 26099.5 -03409.7 -07.4431 26321.3
 06 04 2013  12 53  -21.0859 26099.8 -03409.7 -07.4431 26321.6
 06 04 2013  12 54  -21.0861 26099.9 -03409.7 -07.4429 26321.7
 06 04 2013  12 55  -21.0863 26100.2 -03409.7 -07.4428 26321.9
 06 04 2013  12 56  -21.0867 26100.5 -03409.7 -07.4428 26322.3
 06 04 2013  12 57  -21.0868 26100.8 -03409.7 -07.4427 26322.6
 06 04 2013  12 58  -21.0868 26101.2 -03409.7 -07.4426 26322.9
 06 04 2013  12 59  -21.0867 26101.5 -03409.7 -07.4425 26323.3
 06 04 2013  13 00  -21.0866 26102.1 -03409.8 -07.4426 26323.8
 06 04 2013  13 01  -21.0867 26102.7 -03409.9 -07.4426 26324.4
 06 04 2013  13 02  -21.0870 26103.0 -03409.9 -07.4425 26324.8
 06 04 2013  13 03  -21.0872 26103.1 -03409.7 -07.4421 26324.9
 06 04 2013  13 04  -21.0876 26102.8 -03409.4 -07.4415 26324.5
 06 04 2013  13 05  -21.0877 26102.2 -03409.0 -07.4409 26323.9
 06 04 2013  13 06  -21.0877 26102.0 -03408.9 -07.4406 26323.6
 06 04 2013  13 07  -21.0878 26102.2 -03408.9 -07.4407 26323.9
 06 04 2013  13 08  -21.0881 26102.4 -03409.0 -07.4407 26324.1
 06 04 2013  13 09  -21.0882 26102.2 -03408.9 -07.4406 26323.9
 06 04 2013  13 10  -21.0883 26102.1 -03408.8 -07.4405 26323.8
 06 04 2013  13 11  -21.0884 26102.0 -03408.8 -07.4405 26323.7
 06 04 2013  13 12  -21.0886 26101.8 -03408.8 -07.4404 26323.5
 06 04 2013  13 13  -21.0888 26101.7 -03408.8 -07.4406 26323.3
 06 04 2013  13 14  -21.0891 26101.5 -03408.8 -07.4407 26323.1
 06 04 2013  13 15  -21.0894 26101.2 -03408.8 -07.4407 26322.9
 06 04 2013  13 16  -21.0896 26101.1 -03408.9 -07.4409 26322.8
 06 04 2013  13 17  -21.0900 26101.0 -03408.9 -07.4410 26322.7
 06 04 2013  13 18  -21.0906 26100.8 -03408.9 -07.4410 26322.5
 06 04 2013  13 19  -21.0909 26100.7 -03408.9 -07.4410 26322.4
 06 04 2013  13 20  -21.0912 26100.7 -03408.9 -07.4411 26322.3
 06 04 2013  13 21  -21.0915 26100.5 -03408.9 -07.4411 26322.2
 06 04 2013  13 22  -21.0919 26100.5 -03408.9 -07.4411 26322.2
 06 04 2013  13 23  -21.0923 26100.6 -03409.0 -07.4412 26322.3
 06 04 2013  13 24  -21.0927 26100.8 -03409.0 -07.4412 26322.5
 06 04 2013  13 25  -21.0930 26101.2 -03409.1 -07.4413 26322.9
 06 04 2013  13 26  -21.0933 26101.7 -03409.2 -07.4413 26323.4
 06 04 2013  13 27  -21.0933 26101.9 -03409.1 -07.4411 26323.6
 06 04 2013  13 28  -21.0936 26102.0 -03409.0 -07.4408 26323.7
 06 04 2013  13 29  -21.0937 26101.9 -03408.8 -07.4405 26323.6
 06 04 2013  13 30  -21.0938 26102.1 -03408.8 -07.4404 26323.8
 06 04 2013  13 31  -21.0940 26102.4 -03408.8 -07.4403 26324.0
 06 04 2013  13 32  -21.0941 26102.5 -03408.7 -07.4402 26324.1
 06 04 2013  13 33  -21.0944 26102.7 -03408.8 -07.4401 26324.3
 06 04 2013  13 34  -21.0944 26102.9 -03408.7 -07.4400 26324.6
 06 04 2013  13 35  -21.0946 26103.2 -03408.7 -07.4399 26324.8
 06 04 2013  13 36  -21.0949 26103.3 -03408.7 -07.4398 26324.9
 06 04 2013  13 37  -21.0949 26102.9 -03408.4 -07.4393 26324.5
 06 04 2013  13 38  -21.0950 26102.7 -03408.2 -07.4390 26324.3
 06 04 2013  13 39  -21.0950 26102.8 -03408.2 -07.4390 26324.4
 06 04 2013  13 40  -21.0948 26102.8 -03408.2 -07.4390 26324.4
 06 04 2013  13 41  -21.0947 26102.8 -03408.2 -07.4389 26324.3
 06 04 2013  13 42  -21.0946 26102.7 -03408.1 -07.4388 26324.2
 06 04 2013  13 43  -21.0947 26102.5 -03408.0 -07.4386 26324.0
 06 04 2013  13 44  -21.0950 26102.4 -03408.0 -07.4386 26324.0
 06 04 2013  13 45  -21.0952 26102.7 -03408.1 -07.4387 26324.2
 06 04 2013  13 46  -21.0955 26102.9 -03408.1 -07.4387 26324.4
 06 04 2013  13 47  -21.0957 26102.7 -03408.0 -07.4384 26324.3
 06 04 2013  13 48  -21.0960 26102.7 -03407.9 -07.4383 26324.2
 06 04 2013  13 49  -21.0966 26103.0 -03407.9 -07.4381 26324.5
 06 04 2013  13 50  -21.0969 26102.7 -03407.7 -07.4378 26324.2
 06 04 2013  13 51  -21.0969 26102.3 -03407.5 -07.4374 26323.7
 06 04 2013  13 52  -21.0967 26101.8 -03407.2 -07.4371 26323.2
 06 04 2013  13 53  -21.0965 26101.1 -03407.1 -07.4370 26322.5
 06 04 2013  13 54  -21.0965 26100.9 -03407.1 -07.4371 26322.3
 06 04 2013  13 55  -21.0966 26101.0 -03407.3 -07.4376 26322.5
 06 04 2013  13 56  -21.0969 26101.1 -03407.5 -07.4379 26322.6
 06 04 2013  13 57  -21.0970 26101.0 -03407.5 -07.4380 26322.5
 06 04 2013  13 58  -21.0971 26101.2 -03407.7 -07.4383 26322.7
 06 04 2013  13 59  -21.0974 26101.5 -03407.9 -07.4386 26323.0
 06 04 2013  14 00  -21.0976 26101.6 -03407.9 -07.4387 26323.1
 06 04 2013  14 01  -21.0976 26101.7 -03408.0 -07.4389 26323.2
 06 04 2013  14 02  -21.0977 26101.6 -03408.0 -07.4389 26323.1
 06 04 2013  14 03  -21.0979 26101.9 -03408.2 -07.4391 26323.4
 06 04 2013  14 04  -21.0984 26102.2 -03408.3 -07.4394 26323.8
 06 04 2013  14 05  -21.0987 26102.3 -03408.3 -07.4394 26323.9
 06 04 2013  14 06  -21.0989 26102.0 -03408.2 -07.4391 26323.6
 06 04 2013  14 07  -21.0990 26101.8 -03408.1 -07.4390 26323.3
 06 04 2013  14 08  -21.0992 26101.4 -03407.9 -07.4388 26323.0
 06 04 2013  14 09  -21.0993 26101.5 -03407.9 -07.4387 26323.0
 06 04 2013  14 10  -21.0993 26101.7 -03408.0 -07.4388 26323.2
 06 04 2013  14 11  -21.0994 26101.9 -03408.0 -07.4388 26323.4
 06 04 2013  14 12  -21.0992 26102.0 -03408.1 -07.4388 26323.6
 06 04 2013  14 13  -21.0991 26102.0 -03408.0 -07.4387 26323.5
 06 04 2013  14 14  -21.0988 26101.4 -03407.7 -07.4383 26322.9
 06 04 2013  14 15  -21.0986 26101.4 -03407.8 -07.4384 26322.9
 06 04 2013  14 16  -21.0984 26101.5 -03407.8 -07.4385 26323.0
 06 04 2013  14 17  -21.0984 26101.7 -03408.0 -07.4388 26323.3
 06 04 2013  14 18  -21.0984 26101.5 -03407.9 -07.4387 26323.0
 06 04 2013  14 19  -21.0981 26101.2 -03407.8 -07.4386 26322.7
 06 04 2013  14 20  -21.0979 26101.1 -03407.9 -07.4388 26322.7
 06 04 2013  14 21  -21.0977 26100.8 -03407.8 -07.4387 26322.3
 06 04 2013  14 22  -21.0975 26100.5 -03407.9 -07.4388 26322.1
 06 04 2013  14 23  -21.0976 26100.7 -03408.1 -07.4392 26322.2
 06 04 2013  14 24  -21.0976 26100.4 -03408.1 -07.4393 26322.0
 06 04 2013  14 25  -21.0976 26100.5 -03408.2 -07.4397 26322.1
 06 04 2013  14 26  -21.0976 26100.5 -03408.3 -07.4398 26322.1
 06 04 2013  14 27  -21.0976 26100.7 -03408.5 -07.4401 26322.3
 06 04 2013  14 28  -21.0975 26100.6 -03408.6 -07.4403 26322.2
 06 04 2013  14 29  -21.0975 26100.6 -03408.7 -07.4406 26322.2
 06 04 2013  14 30  -21.0975 26100.5 -03408.8 -07.4409 26322.1
 06 04 2013  14 31  -21.0976 26100.4 -03408.9 -07.4411 26322.1
 06 04 2013  14 32  -21.0977 26100.5 -03409.0 -07.4414 26322.1
 06 04 2013  14 33  -21.0978 26100.4 -03409.1 -07.4416 26322.1
 06 04 2013  14 34  -21.0979 26100.2 -03409.1 -07.4417 26321.9
 06 04 2013  14 35  -21.0978 26100.2 -03409.2 -07.4418 26321.9
 06 04 2013  14 36  -21.0979 26100.4 -03409.4 -07.4422 26322.1
 06 04 2013  14 37  -21.0979 26100.5 -03409.5 -07.4424 26322.2
 06 04 2013  14 38  -21.0976 26100.2 -03409.5 -07.4424 26322.0
 06 04 2013  14 39  -21.0974 26099.9 -03409.5 -07.4425 26321.7
 06 04 2013  14 40  -21.0970 26099.7 -03409.6 -07.4428 26321.4
 06 04 2013  14 41  -21.0967 26099.4 -03409.7 -07.4431 26321.2
 06 04 2013  14 42  -21.0967 26099.4 -03409.9 -07.4435 26321.2
 06 04 2013  14 43  -21.0971 26099.6 -03410.2 -07.4441 26321.4
 06 04 2013  14 44  -21.0971 26099.5 -03410.3 -07.4444 26321.3
 06 04 2013  14 45  -21.0971 26099.4 -03410.4 -07.4447 26321.3
 06 04 2013  14 46  -21.0971 26099.1 -03410.5 -07.4450 26321.0
 06 04 2013  14 47  -21.0971 26098.8 -03410.6 -07.4452 26320.7
 06 04 2013  14 48  -21.0973 26098.8 -03410.8 -07.4457 26320.7
 06 04 2013  14 49  -21.0976 26098.7 -03411.0 -07.4461 26320.7
 06 04 2013  14 50  -21.0976 26098.4 -03411.1 -07.4463 26320.3
 06 04 2013  14 51  -21.0976 26098.0 -03411.1 -07.4466 26320.0
 06 04 2013  14 52  -21.0976 26097.6 -03411.2 -07.4469 26319.6
 06 04 2013  14 53  -21.0975 26097.2 -03411.3 -07.4472 26319.2
 06 04 2013  14 54  -21.0972 26096.7 -03411.5 -07.4477 26318.8
 06 04 2013  14 55  -21.0973 26096.7 -03411.8 -07.4483 26318.7
 06 04 2013  14 56  -21.0976 26096.5 -03412.0 -07.4489 26318.6
 06 04 2013  14 57  -21.0979 26096.5 -03412.2 -07.4494 26318.6
 06 04 2013  14 58  -21.0984 26096.5 -03412.5 -07.4499 26318.6
 06 04 2013  14 59  -21.0987 26096.7 -03412.7 -07.4503 26318.9
 06 04 2013  15 00  -21.0981 26096.7 -03412.8 -07.4505 26318.9
 06 04 2013  15 01  -21.0977 26096.4 -03412.8 -07.4507 26318.6
 06 04 2013  15 02  -21.0975 26095.9 -03412.8 -07.4508 26318.1
 06 04 2013  15 03  -21.0976 26095.4 -03412.9 -07.4511 26317.7
 06 04 2013  15 04  -21.0977 26095.0 -03413.0 -07.4515 26317.3
 06 04 2013  15 05  -21.0979 26094.7 -03413.2 -07.4519 26317.0
 06 04 2013  15 06  -21.0979 26094.4 -03413.3 -07.4523 26316.6
 06 04 2013  15 07  -21.0981 26094.2 -03413.5 -07.4528 26316.6
 06 04 2013  15 08  -21.0984 26094.3 -03413.8 -07.4533 26316.7
 06 04 2013  15 09  -21.0986 26094.1 -03413.8 -07.4535 26316.5
 06 04 2013  15 10  -21.0983 26093.9 -03413.9 -07.4537 26316.2
 06 04 2013  15 11  -21.0981 26093.4 -03413.9 -07.4538 26315.8
 06 04 2013  15 12  -21.0977 26093.2 -03414.0 -07.4540 26315.6
 06 04 2013  15 13  -21.0975 26093.0 -03414.1 -07.4545 26315.4
 06 04 2013  15 14  -21.0974 26092.6 -03414.2 -07.4548 26315.1
 06 04 2013  15 15  -21.0972 26092.4 -03414.4 -07.4552 26314.9
 06 04 2013  15 16  -21.0971 26092.2 -03414.5 -07.4556 26314.7
 06 04 2013  15 17  -21.0972 26092.2 -03414.7 -07.4559 26314.7
 06 04 2013  15 18  -21.0973 26092.2 -03414.8 -07.4562 26314.7
 06 04 2013  15 19  -21.0976 26092.0 -03415.0 -07.4566 26314.5
 06 04 2013  15 20  -21.0977 26091.9 -03415.1 -07.4569 26314.5
 06 04 2013  15 21  -21.0977 26091.7 -03415.1 -07.4570 26314.3
 06 04 2013  15 22  -21.0977 26091.6 -03415.2 -07.4573 26314.2
 06 04 2013  15 23  -21.0975 26091.1 -03415.1 -07.4572 26313.6
 06 04 2013  15 24  -21.0970 26090.3 -03415.0 -07.4571 26312.8
 06 04 2013  15 25  -21.0966 26089.3 -03414.8 -07.4570 26311.8
 06 04 2013  15 26  -21.0960 26088.5 -03414.9 -07.4573 26311.0
 06 04 2013  15 27  -21.0959 26088.0 -03415.0 -07.4578 26310.6
 06 04 2013  15 28  -21.0960 26087.9 -03415.4 -07.4587 26310.5
 06 04 2013  15 29  -21.0962 26087.5 -03415.5 -07.4591 26310.2
 06 04 2013  15 30  -21.0964 26087.1 -03415.7 -07.4595 26309.8
 06 04 2013  15 31  -21.0965 26086.8 -03415.8 -07.4598 26309.5
 06 04 2013  15 32  -21.0967 26086.4 -03415.9 -07.4601 26309.1
 06 04 2013  15 33  -21.0969 26086.1 -03416.0 -07.4605 26308.9
 06 04 2013  15 34  -21.0968 26085.8 -03416.1 -07.4609 26308.5
 06 04 2013  15 35  -21.0967 26085.6 -03416.3 -07.4613 26308.4
 06 04 2013  15 36  -21.0967 26085.2 -03416.4 -07.4615 26307.9
 06 04 2013  15 37  -21.0964 26084.9 -03416.5 -07.4618 26307.7
 06 04 2013  15 38  -21.0968 26084.6 -03416.6 -07.4621 26307.4
 06 04 2013  15 39  -21.0973 26084.7 -03416.8 -07.4627 26307.5
 06 04 2013  15 40  -21.0983 26084.9 -03417.0 -07.4631 26307.8
 06 04 2013  15 41  -21.0991 26084.9 -03417.1 -07.4631 26307.8
 06 04 2013  15 42  -21.1002 26085.0 -03417.1 -07.4632 26307.8
 06 04 2013  15 43  -21.1009 26084.6 -03416.9 -07.4628 26307.5
 06 04 2013  15 44  -21.1010 26084.5 -03416.8 -07.4626 26307.3
 06 04 2013  15 45  -21.1010 26084.0 -03416.5 -07.4622 26306.8
 06 04 2013  15 46  -21.1010 26083.5 -03416.3 -07.4619 26306.2
 06 04 2013  15 47  -21.1010 26082.9 -03416.1 -07.4616 26305.6
 06 04 2013  15 48  -21.1011 26082.5 -03416.0 -07.4615 26305.3
 06 04 2013  15 49  -21.1016 26082.4 -03416.1 -07.4617 26305.1
 06 04 2013  15 50  -21.1025 26082.4 -03416.2 -07.4620 26305.2
 06 04 2013  15 51  -21.1034 26082.3 -03416.3 -07.4621 26305.1
 06 04 2013  15 52  -21.1042 26082.3 -03416.2 -07.4621 26305.1
 06 04 2013  15 53  -21.1051 26082.3 -03416.2 -07.4620 26305.1
 06 04 2013  15 54  -21.1058 26082.4 -03416.3 -07.4621 26305.2
 06 04 2013  15 55  -21.1065 26082.4 -03416.2 -07.4619 26305.2
 06 04 2013  15 56  -21.1069 26082.1 -03416.0 -07.4616 26304.8
 06 04 2013  15 57  -21.1074 26081.8 -03415.9 -07.4614 26304.5
 06 04 2013  15 58  -21.1076 26081.3 -03415.7 -07.4611 26304.0
 06 04 2013  15 59  -21.1079 26081.1 -03415.7 -07.4612 26303.8
 06 04 2013  16 00  -21.1082 26081.1 -03415.8 -07.4614 26303.8
 06 04 2013  16 01  -21.1085 26080.8 -03415.7 -07.4614 26303.6
 06 04 2013  16 02  -21.1089 26080.4 -03415.6 -07.4613 26303.1
 06 04 2013  16 03  -21.1091 26079.9 -03415.5 -07.4612 26302.6
 06 04 2013  16 04  -21.1094 26079.6 -03415.5 -07.4612 26302.3
 06 04 2013  16 05  -21.1095 26079.2 -03415.5 -07.4613 26301.9
 06 04 2013  16 06  -21.1098 26079.0 -03415.5 -07.4615 26301.7
 06 04 2013  16 07  -21.1101 26078.8 -03415.6 -07.4616 26301.5
 06 04 2013  16 08  -21.1103 26078.2 -03415.5 -07.4615 26300.9
 06 04 2013  16 09  -21.1102 26077.8 -03415.4 -07.4616 26300.5
 06 04 2013  16 10  -21.1105 26077.7 -03415.6 -07.4620 26300.4
 06 04 2013  16 11  -21.1115 26078.0 -03415.9 -07.4626 26300.8
 06 04 2013  16 12  -21.1121 26078.2 -03416.1 -07.4629 26300.9
 06 04 2013  16 13  -21.1127 26078.2 -03416.2 -07.4631 26301.0
 06 04 2013  16 14  -21.1135 26078.3 -03416.3 -07.4632 26301.1
 06 04 2013  16 15  -21.1146 26078.7 -03416.4 -07.4634 26301.5
 06 04 2013  16 16  -21.1162 26079.2 -03416.5 -07.4636 26302.0
 06 04 2013  16 17  -21.1176 26079.5 -03416.5 -07.4634 26302.3
 06 04 2013  16 18  -21.1181 26079.1 -03416.1 -07.4626 26301.9
 06 04 2013  16 19  -21.1183 26078.4 -03415.6 -07.4618 26301.1
 06 04 2013  16 20  -21.1189 26077.9 -03415.3 -07.4612 26300.6
 06 04 2013  16 21  -21.1194 26077.7 -03415.0 -07.4607 26300.3
 06 04 2013  16 22  -21.1196 26077.6 -03414.9 -07.4605 26300.3
 06 04 2013  16 23  -21.1194 26077.1 -03414.6 -07.4600 26299.7
 06 04 2013  16 24  -21.1193 26076.7 -03414.5 -07.4598 26299.3
 06 04 2013  16 25  -21.1193 26076.2 -03414.3 -07.4595 26298.8
 06 04 2013  16 26  -21.1195 26075.9 -03414.2 -07.4595 26298.5
 06 04 2013  16 27  -21.1199 26075.8 -03414.3 -07.4596 26298.4
 06 04 2013  16 28  -21.1203 26075.8 -03414.3 -07.4596 26298.4
 06 04 2013  16 29  -21.1205 26075.6 -03414.1 -07.4594 26298.1
 06 04 2013  16 30  -21.1208 26075.6 -03414.1 -07.4594 26298.2
 06 04 2013  16 31  -21.1215 26075.9 -03414.1 -07.4593 26298.4
 06 04 2013  16 32  -21.1222 26076.0 -03414.1 -07.4592 26298.5
 06 04 2013  16 33  -21.1223 26075.7 -03413.9 -07.4588 26298.2
 06 04 2013  16 34  -21.1225 26075.6 -03413.8 -07.4586 26298.1
 06 04 2013  16 35  -21.1227 26075.4 -03413.6 -07.4584 26297.9
 06 04 2013  16 36  -21.1230 26075.4 -03413.6 -07.4584 26297.9
 06 04 2013  16 37  -21.1231 26075.3 -03413.5 -07.4581 26297.7
 06 04 2013  16 38  -21.1233 26075.1 -03413.4 -07.4579 26297.6
 06 04 2013  16 39  -21.1236 26075.1 -03413.3 -07.4578 26297.5
 06 04 2013  16 40  -21.1241 26074.9 -03413.2 -07.4575 26297.4
 06 04 2013  16 41  -21.1242 26074.7 -03412.9 -07.4571 26297.1
 06 04 2013  16 42  -21.1241 26074.6 -03412.8 -07.4568 26297.0
 06 04 2013  16 43  -21.1235 26074.2 -03412.5 -07.4562 26296.5
 06 04 2013  16 44  -21.1231 26073.9 -03412.2 -07.4558 26296.2
 06 04 2013  16 45  -21.1227 26073.5 -03412.1 -07.4555 26295.8
 06 04 2013  16 46  -21.1226 26073.2 -03411.9 -07.4553 26295.5
 06 04 2013  16 47  -21.1226 26072.9 -03411.8 -07.4551 26295.1
 06 04 2013  16 48  -21.1226 26072.7 -03411.7 -07.4549 26294.9
 06 04 2013  16 49  -21.1230 26072.6 -03411.6 -07.4549 26294.8
 06 04 2013  16 50  -21.1230 26072.2 -03411.4 -07.4545 26294.4
 06 04 2013  16 51  -21.1235 26072.3 -03411.4 -07.4545 26294.5
 06 04 2013  16 52  -21.1241 26072.4 -03411.4 -07.4544 26294.6
 06 04 2013  16 53  -21.1244 26072.2 -03411.2 -07.4541 26294.4
 06 04 2013  16 54  -21.1247 26071.8 -03411.0 -07.4537 26294.0
 06 04 2013  16 55  -21.1248 26071.5 -03410.8 -07.4533 26293.7
 06 04 2013  16 56  -21.1250 26071.5 -03410.7 -07.4531 26293.6
 06 04 2013  16 57  -21.1256 26071.2 -03410.5 -07.4528 26293.4
 06 04 2013  16 58  -21.1259 26070.8 -03410.2 -07.4523 26292.9
 06 04 2013  16 59  -21.1260 26070.5 -03410.0 -07.4519 26292.6
 06 04 2013  17 00  -21.1261 26070.1 -03409.7 -07.4514 26292.2
 06 04 2013  17 01  -21.1262 26069.8 -03409.6 -07.4511 26291.9
 06 04 2013  17 02  -21.1262 26069.5 -03409.4 -07.4508 26291.5
 06 04 2013  17 03  -21.1259 26069.1 -03409.1 -07.4505 26291.0
 06 04 2013  17 04  -21.1259 26068.7 -03409.0 -07.4502 26290.7
 06 04 2013  17 05  -21.1260 26068.4 -03408.8 -07.4499 26290.3
 06 04 2013  17 06  -21.1259 26068.0 -03408.6 -07.4496 26289.9
 06 04 2013  17 07  -21.1258 26067.7 -03408.5 -07.4494 26289.6
 06 04 2013  17 08  -21.1255 26067.5 -03408.4 -07.4492 26289.4
 06 04 2013  17 09  -21.1253 26067.0 -03408.1 -07.4488 26288.9
 06 04 2013  17 10  -21.1249 26066.5 -03407.9 -07.4485 26288.3
 06 04 2013  17 11  -21.1246 26066.0 -03407.8 -07.4484 26287.8
 06 04 2013  17 12  -21.1243 26065.6 -03407.6 -07.4482 26287.4
 06 04 2013  17 13  -21.1239 26065.6 -03407.7 -07.4484 26287.4
 06 04 2013  17 14  -21.1239 26065.6 -03407.7 -07.4483 26287.4
 06 04 2013  17 15  -21.1235 26065.1 -03407.5 -07.4479 26286.8
 06 04 2013  17 16  -21.1231 26064.8 -03407.4 -07.4478 26286.6
 06 04 2013  17 17  -21.1228 26064.7 -03407.3 -07.4478 26286.5
 06 04 2013  17 18  -21.1225 26064.6 -03407.2 -07.4475 26286.3
 06 04 2013  17 19  -21.1221 26064.4 -03407.1 -07.4473 26286.1
 06 04 2013  17 20  -21.1219 26064.1 -03406.9 -07.4470 26285.8
 06 04 2013  17 21  -21.1217 26064.0 -03406.8 -07.4468 26285.7
 06 04 2013  17 22  -21.1212 26063.8 -03406.6 -07.4465 26285.5
 06 04 2013  17 23  -21.1204 26063.7 -03406.5 -07.4462 26285.4
 06 04 2013  17 24  -21.1197 26063.4 -03406.2 -07.4458 26285.1
 06 04 2013  17 25  -21.1188 26063.2 -03406.1 -07.4455 26284.8
 06 04 2013  17 26  -21.1186 26063.3 -03406.0 -07.4454 26284.9
 06 04 2013  17 27  -21.1182 26063.3 -03405.9 -07.4451 26284.9
 06 04 2013  17 28  -21.1177 26063.1 -03405.7 -07.4447 26284.7
 06 04 2013  17 29  -21.1170 26063.0 -03405.6 -07.4444 26284.6
 06 04 2013  17 30  -21.1163 26063.0 -03405.4 -07.4441 26284.5
 06 04 2013  17 31  -21.1155 26062.7 -03405.2 -07.4436 26284.2
 06 04 2013  17 32  -21.1150 26062.6 -03405.0 -07.4433 26284.1
 06 04 2013  17 33  -21.1144 26062.5 -03404.8 -07.4430 26284.0
 06 04 2013  17 34  -21.1135 26062.3 -03404.6 -07.4426 26283.7
 06 04 2013  17 35  -21.1127 26062.0 -03404.4 -07.4422 26283.4
 06 04 2013  17 36  -21.1121 26061.9 -03404.3 -07.4420 26283.3
 06 04 2013  17 37  -21.1116 26061.8 -03404.1 -07.4417 26283.1
 06 04 2013  17 38  -21.1107 26061.6 -03404.0 -07.4414 26282.9
 06 04 2013  17 39  -21.1097 26061.4 -03403.9 -07.4412 26282.8
 06 04 2013  17 40  -21.1089 26061.3 -03403.8 -07.4410 26282.7
 06 04 2013  17 41  -21.1084 26061.3 -03403.7 -07.4409 26282.6
 06 04 2013  17 42  -21.1076 26061.0 -03403.6 -07.4407 26282.3
 06 04 2013  17 43  -21.1066 26060.8 -03403.5 -07.4407 26282.1
 06 04 2013  17 44  -21.1059 26060.8 -03403.6 -07.4407 26282.2
 06 04 2013  17 45  -21.1054 26060.9 -03403.6 -07.4409 26282.2
 06 04 2013  17 46  -21.1047 26060.7 -03403.6 -07.4408 26282.1
 06 04 2013  17 47  -21.1040 26060.5 -03403.5 -07.4408 26281.8
 06 04 2013  17 48  -21.1034 26060.3 -03403.5 -07.4408 26281.7
 06 04 2013  17 49  -21.1025 26060.0 -03403.4 -07.4406 26281.3
 06 04 2013  17 50  -21.1016 26059.7 -03403.4 -07.4406 26281.0
 06 04 2013  17 51  -21.1009 26059.5 -03403.4 -07.4408 26280.8
 06 04 2013  17 52  -21.1001 26059.4 -03403.5 -07.4411 26280.7
 06 04 2013  17 53  -21.0994 26059.4 -03403.6 -07.4413 26280.7
 06 04 2013  17 54  -21.0988 26059.3 -03403.7 -07.4415 26280.7
 06 04 2013  17 55  -21.0980 26059.0 -03403.7 -07.4415 26280.3
 06 04 2013  17 56  -21.0973 26058.8 -03403.8 -07.4417 26280.2
 06 04 2013  17 57  -21.0967 26058.7 -03403.8 -07.4419 26280.0
 06 04 2013  17 58  -21.0962 26058.4 -03403.8 -07.4420 26279.7
 06 04 2013  17 59  -21.0956 26058.1 -03403.9 -07.4422 26279.4
 06 04 2013  18 00  -21.0951 26058.0 -03404.0 -07.4426 26279.4
 06 04 2013  18 01  -21.0947 26057.8 -03404.1 -07.4427 26279.3
 06 04 2013  18 02  -21.0942 26057.6 -03404.2 -07.4429 26279.0
 06 04 2013  18 03  -21.0939 26057.5 -03404.3 -07.4432 26278.9
 06 04 2013  18 04  -21.0935 26057.4 -03404.4 -07.4434 26278.8
 06 04 2013  18 05  -21.0931 26057.4 -03404.4 -07.4436 26278.8
 06 04 2013  18 06  -21.0929 26057.2 -03404.5 -07.4438 26278.7
 06 04 2013  18 07  -21.0924 26056.9 -03404.5 -07.4438 26278.3
 06 04 2013  18 08  -21.0916 26056.7 -03404.5 -07.4440 26278.2
 06 04 2013  18 09  -21.0909 26056.6 -03404.7 -07.4443 26278.1
 06 04 2013  18 10  -21.0903 26056.6 -03404.8 -07.4445 26278.1
 06 04 2013  18 11  -21.0897 26056.5 -03404.8 -07.4447 26278.0
 06 04 2013  18 12  -21.0889 26056.3 -03404.8 -07.4448 26277.8
 06 04 2013  18 13  -21.0879 26056.0 -03404.9 -07.4449 26277.5
 06 04 2013  18 14  -21.0872 26055.9 -03405.0 -07.4453 26277.4
 06 04 2013  18 15  -21.0864 26055.7 -03405.1 -07.4455 26277.3
 06 04 2013  18 16  -21.0857 26055.4 -03405.2 -07.4458 26277.0
 06 04 2013  18 17  -21.0850 26055.3 -03405.3 -07.4461 26276.8
 06 04 2013  18 18  -21.0845 26055.3 -03405.6 -07.4466 26276.9
 06 04 2013  18 19  -21.0837 26055.0 -03405.6 -07.4467 26276.6
 06 04 2013  18 20  -21.0831 26055.0 -03405.8 -07.4472 26276.7
 06 04 2013  18 21  -21.0826 26054.8 -03405.9 -07.4475 26276.5
 06 04 2013  18 22  -21.0820 26054.6 -03406.0 -07.4477 26276.3
 06 04 2013  18 23  -21.0815 26054.6 -03406.1 -07.4480 26276.3
 06 04 2013  18 24  -21.0812 26054.8 -03406.4 -07.4485 26276.5
 06 04 2013  18 25  -21.0807 26054.4 -03406.3 -07.4485 26276.1
 06 04 2013  18 26  -21.0797 26054.4 -03406.4 -07.4488 26276.1
 06 04 2013  18 27  -21.0790 26054.3 -03406.6 -07.4491 26276.0
 06 04 2013  18 28  -21.0782 26053.9 -03406.6 -07.4492 26275.6
 06 04 2013  18 29  -21.0774 26053.8 -03406.7 -07.4494 26275.6
 06 04 2013  18 30  -21.0766 26053.4 -03406.7 -07.4496 26275.1
 06 04 2013  18 31  -21.0761 26053.2 -03406.8 -07.4499 26275.0
 06 04 2013  18 32  -21.0761 26053.4 -03407.1 -07.4505 26275.2
 06 04 2013  18 33  -21.0756 26053.2 -03407.1 -07.4505 26275.0
 06 04 2013  18 34  -21.0749 26053.0 -03407.1 -07.4506 26274.9
 06 04 2013  18 35  -21.0746 26052.8 -03407.2 -07.4510 26274.7
 06 04 2013  18 36  -21.0740 26052.5 -03407.2 -07.4510 26274.3
 06 04 2013  18 37  -21.0737 26052.5 -03407.4 -07.4514 26274.4
 06 04 2013  18 38  -21.0732 26052.1 -03407.3 -07.4513 26274.0
 06 04 2013  18 39  -21.0729 26052.2 -03407.6 -07.4518 26274.1
 06 04 2013  18 40  -21.0725 26051.6 -03407.5 -07.4518 26273.5
 06 04 2013  18 41  -21.0718 26051.6 -03407.6 -07.4520 26273.5
 06 04 2013  18 42  -21.0714 26051.5 -03407.7 -07.4524 26273.4
 06 04 2013  18 43  -21.0708 26051.2 -03407.8 -07.4526 26273.2
 06 04 2013  18 44  -21.0705 26051.1 -03407.9 -07.4529 26273.1
 06 04 2013  18 45  -21.0701 26050.5 -03407.9 -07.4530 26272.4
 06 04 2013  18 46  -21.0698 26050.3 -03408.1 -07.4534 26272.3
 06 04 2013  18 47  -21.0699 26050.3 -03408.3 -07.4540 26272.3
 06 04 2013  18 48  -21.0697 26050.5 -03408.6 -07.4545 26272.6
 06 04 2013  18 49  -21.0696 26050.6 -03408.8 -07.4549 26272.7
 06 04 2013  18 50  -21.0695 26050.4 -03408.9 -07.4552 26272.5
 06 04 2013  18 51  -21.0693 26050.2 -03408.9 -07.4554 26272.3
 06 04 2013  18 52  -21.0694 26050.3 -03409.2 -07.4558 26272.4
 06 04 2013  18 53  -21.0696 26050.3 -03409.3 -07.4561 26272.5
 06 04 2013  18 54  -21.0694 26050.3 -03409.4 -07.4564 26272.5
 06 04 2013  18 55  -21.0694 26049.8 -03409.4 -07.4565 26272.0
 06 04 2013  18 56  -21.0694 26049.6 -03409.5 -07.4567 26271.8
 06 04 2013  18 57  -21.0695 26049.1 -03409.4 -07.4568 26271.3
 06 04 2013  18 58  -21.0693 26049.3 -03409.7 -07.4573 26271.5
 06 04 2013  18 59  -21.0690 26049.0 -03409.8 -07.4575 26271.2
 06 04 2013  19 00  -21.0687 26048.8 -03409.9 -07.4578 26271.1
 06 04 2013  19 01  -21.0688 26048.4 -03409.8 -07.4579 26270.6
 06 04 2013  19 02  -21.0685 26048.6 -03410.1 -07.4583 26270.8
 06 04 2013  19 03  -21.0683 26048.4 -03410.2 -07.4587 26270.7
 06 04 2013  19 04  -21.0681 26048.5 -03410.4 -07.4591 26270.8
 06 04 2013  19 05  -21.0680 26048.4 -03410.5 -07.4593 26270.7
 06 04 2013  19 06  -21.0676 26048.2 -03410.6 -07.4595 26270.5
 06 04 2013  19 07  -21.0677 26048.2 -03410.7 -07.4598 26270.5
 06 04 2013  19 08  -21.0673 26048.3 -03410.9 -07.4602 26270.6
 06 04 2013  19 09  -21.0669 26048.1 -03411.0 -07.4604 26270.5
 06 04 2013  19 10  -21.0665 26048.1 -03411.1 -07.4606 26270.5
 06 04 2013  19 11  -21.0667 26048.1 -03411.3 -07.4611 26270.5
 06 04 2013  19 12  -21.0663 26047.9 -03411.3 -07.4612 26270.4
 06 04 2013  19 13  -21.0663 26047.9 -03411.4 -07.4614 26270.3
 06 04 2013  19 14  -21.0660 26047.9 -03411.6 -07.4617 26270.4
 06 04 2013  19 15  -21.0658 26048.0 -03411.8 -07.4621 26270.5
 06 04 2013  19 16  -21.0655 26047.8 -03411.8 -07.4623 26270.3
 06 04 2013  19 17  -21.0651 26047.8 -03412.0 -07.4628 26270.3
 06 04 2013  19 18  -21.0652 26047.7 -03412.2 -07.4631 26270.2
 06 04 2013  19 19  -21.0647 26047.7 -03412.3 -07.4634 26270.2
 06 04 2013  19 20  -21.0643 26047.6 -03412.5 -07.4638 26270.2
 06 04 2013  19 21  -21.0642 26047.6 -03412.7 -07.4642 26270.2
 06 04 2013  19 22  -21.0637 26047.6 -03412.9 -07.4646 26270.3
 06 04 2013  19 23  -21.0634 26047.6 -03413.0 -07.4650 26270.2
 06 04 2013  19 24  -21.0634 26047.8 -03413.3 -07.4655 26270.5
 06 04 2013  19 25  -21.0634 26047.9 -03413.5 -07.4658 26270.6
 06 04 2013  19 26  -21.0632 26047.9 -03413.6 -07.4660 26270.6
 06 04 2013  19 27  -21.0626 26047.7 -03413.6 -07.4662 26270.4
 06 04 2013  19 28  -21.0623 26047.7 -03413.8 -07.4665 26270.4
 06 04 2013  19 29  -21.0618 26047.6 -03413.9 -07.4669 26270.3
 06 04 2013  19 30  -21.0614 26047.5 -03414.0 -07.4671 26270.2
 06 04 2013  19 31  -21.0610 26047.4 -03414.2 -07.4675 26270.2
 06 04 2013  19 32  -21.0608 26047.4 -03414.3 -07.4678 26270.2
 06 04 2013  19 33  -21.0607 26047.5 -03414.5 -07.4682 26270.3
 06 04 2013  19 34  -21.0602 26047.5 -03414.7 -07.4686 26270.4
 06 04 2013  19 35  -21.0596 26047.5 -03414.9 -07.4689 26270.4
 06 04 2013  19 36  -21.0590 26047.6 -03415.1 -07.4694 26270.6
 06 04 2013  19 37  -21.0588 26047.7 -03415.2 -07.4697 26270.6
 06 04 2013  19 38  -21.0583 26047.9 -03415.4 -07.4699 26270.8
 06 04 2013  19 39  -21.0579 26047.8 -03415.5 -07.4701 26270.8
 06 04 2013  19 40  -21.0578 26047.8 -03415.6 -07.4704 26270.8
 06 04 2013  19 41  -21.0574 26047.8 -03415.7 -07.4706 26270.8
 06 04 2013  19 42  -21.0573 26047.8 -03415.8 -07.4708 26270.8
 06 04 2013  19 43  -21.0569 26047.6 -03415.8 -07.4709 26270.6
 06 04 2013  19 44  -21.0564 26047.3 -03415.8 -07.4711 26270.3
 06 04 2013  19 45  -21.0562 26047.2 -03415.9 -07.4713 26270.2
 06 04 2013  19 46  -21.0553 26047.1 -03416.0 -07.4715 26270.1
 06 04 2013  19 47  -21.0550 26047.5 -03416.3 -07.4721 26270.5
 06 04 2013  19 48  -21.0547 26047.6 -03416.5 -07.4724 26270.7
 06 04 2013  19 49  -21.0540 26047.6 -03416.6 -07.4726 26270.7
 06 04 2013  19 50  -21.0535 26047.3 -03416.5 -07.4726 26270.4
 06 04 2013  19 51  -21.0532 26047.3 -03416.6 -07.4727 26270.4
 06 04 2013  19 52  -21.0529 26047.3 -03416.7 -07.4729 26270.5
 06 04 2013  19 53  -21.0525 26047.3 -03416.8 -07.4731 26270.4
 06 04 2013  19 54  -21.0522 26047.3 -03416.9 -07.4733 26270.4
 06 04 2013  19 55  -21.0517 26047.2 -03416.9 -07.4735 26270.4
 06 04 2013  19 56  -21.0515 26047.2 -03417.1 -07.4738 26270.4
 06 04 2013  19 57  -21.0512 26047.4 -03417.2 -07.4741 26270.6
 06 04 2013  19 58  -21.0509 26047.4 -03417.3 -07.4743 26270.6
 06 04 2013  19 59  -21.0507 26047.4 -03417.5 -07.4746 26270.6
 06 04 2013  20 00  -21.0500 26047.3 -03417.5 -07.4747 26270.5
 06 04 2013  20 01  -21.0499 26047.4 -03417.7 -07.4750 26270.6
 06 04 2013  20 02  -21.0496 26047.3 -03417.7 -07.4752 26270.6
 06 04 2013  20 03  -21.0491 26047.3 -03417.8 -07.4754 26270.6
 06 04 2013  20 04  -21.0489 26047.3 -03418.0 -07.4757 26270.6
 06 04 2013  20 05  -21.0485 26047.4 -03418.1 -07.4759 26270.7
 06 04 2013  20 06  -21.0482 26047.3 -03418.2 -07.4762 26270.7
 06 04 2013  20 07  -21.0479 26047.3 -03418.3 -07.4765 26270.6
 06 04 2013  20 08  -21.0475 26047.3 -03418.4 -07.4767 26270.6
 06 04 2013  20 09  -21.0472 26047.3 -03418.5 -07.4769 26270.7
 06 04 2013  20 10  -21.0470 26047.4 -03418.7 -07.4772 26270.8
 06 04 2013  20 11  -21.0467 26047.4 -03418.8 -07.4775 26270.8
 06 04 2013  20 12  -21.0462 26047.3 -03418.9 -07.4777 26270.7
 06 04 2013  20 13  -21.0458 26047.4 -03419.1 -07.4781 26270.8
 06 04 2013  20 14  -21.0456 26047.4 -03419.2 -07.4784 26270.9
 06 04 2013  20 15  -21.0452 26047.4 -03419.3 -07.4786 26270.9
 06 04 2013  20 16  -21.0449 26047.5 -03419.5 -07.4789 26271.0
 06 04 2013  20 17  -21.0444 26047.5 -03419.6 -07.4792 26271.0
 06 04 2013  20 18  -21.0441 26047.6 -03419.8 -07.4797 26271.2
 06 04 2013  20 19  -21.0439 26047.7 -03420.0 -07.4800 26271.2
 06 04 2013  20 20  -21.0435 26047.8 -03420.2 -07.4804 26271.4
 06 04 2013  20 21  -21.0433 26048.0 -03420.3 -07.4807 26271.6
 06 04 2013  20 22  -21.0428 26048.0 -03420.5 -07.4809 26271.6
 06 04 2013  20 23  -21.0426 26048.1 -03420.6 -07.4812 26271.7
 06 04 2013  20 24  -21.0422 26048.1 -03420.7 -07.4814 26271.7
 06 04 2013  20 25  -21.0418 26048.2 -03420.8 -07.4817 26271.9
 06 04 2013  20 26  -21.0415 26048.2 -03420.9 -07.4819 26271.9
 06 04 2013  20 27  -21.0413 26048.2 -03421.0 -07.4821 26271.9
 06 04 2013  20 28  -21.0411 26048.2 -03421.1 -07.4822 26271.9
 06 04 2013  20 29  -21.0408 26048.3 -03421.2 -07.4825 26272.0
 06 04 2013  20 30  -21.0407 26048.3 -03421.4 -07.4828 26272.1
 06 04 2013  20 31  -21.0405 26048.3 -03421.5 -07.4830 26272.1
 06 04 2013  20 32  -21.0406 26048.3 -03421.6 -07.4832 26272.1
 06 04 2013  20 33  -21.0405 26048.3 -03421.6 -07.4833 26272.1
 06 04 2013  20 34  -21.0404 26048.3 -03421.7 -07.4835 26272.0
 06 04 2013  20 35  -21.0404 26048.3 -03421.8 -07.4836 26272.1
 06 04 2013  20 36  -21.0402 26048.2 -03421.8 -07.4838 26272.0
 06 04 2013  20 37  -21.0401 26048.2 -03421.8 -07.4838 26272.0
 06 04 2013  20 38  -21.0399 26048.2 -03421.9 -07.4840 26272.0
 06 04 2013  20 39  -21.0397 26048.1 -03422.0 -07.4841 26272.0
 06 04 2013  20 40  -21.0394 26048.1 -03422.0 -07.4843 26271.9
 06 04 2013  20 41  -21.0392 26048.1 -03422.1 -07.4844 26271.9
 06 04 2013  20 42  -21.0389 26048.0 -03422.1 -07.4845 26271.8
 06 04 2013  20 43  -21.0385 26047.8 -03422.1 -07.4846 26271.7
 06 04 2013  20 44  -21.0385 26047.8 -03422.1 -07.4846 26271.6
 06 04 2013  20 45  -21.0382 26047.7 -03422.2 -07.4847 26271.5
 06 04 2013  20 46  -21.0380 26047.4 -03422.1 -07.4847 26271.3
 06 04 2013  20 47  -21.0377 26047.2 -03422.1 -07.4846 26271.1
 06 04 2013  20 48  -21.0374 26047.0 -03422.1 -07.4847 26270.9
 06 04 2013  20 49  -21.0371 26046.9 -03422.1 -07.4848 26270.7
 06 04 2013  20 50  -21.0368 26046.6 -03422.0 -07.4847 26270.4
 06 04 2013  20 51  -21.0364 26046.3 -03422.0 -07.4847 26270.2
 06 04 2013  20 52  -21.0361 26046.0 -03421.9 -07.4846 26269.8
 06 04 2013  20 53  -21.0356 26045.8 -03421.9 -07.4846 26269.7
 06 04 2013  20 54  -21.0353 26045.6 -03421.9 -07.4847 26269.4
 06 04 2013  20 55  -21.0349 26045.4 -03421.9 -07.4847 26269.2
 06 04 2013  20 56  -21.0346 26045.1 -03421.9 -07.4847 26269.0
 06 04 2013  20 57  -21.0343 26044.9 -03421.8 -07.4847 26268.7
 06 04 2013  20 58  -21.0341 26044.6 -03421.8 -07.4848 26268.4
 06 04 2013  20 59  -21.0339 26044.4 -03421.9 -07.4850 26268.3
 06 04 2013  21 00  -21.0337 26044.3 -03421.9 -07.4851 26268.1
 06 04 2013  21 01  -21.0335 26044.0 -03421.9 -07.4852 26267.9
 06 04 2013  21 02  -21.0331 26043.8 -03421.9 -07.4853 26267.6
 06 04 2013  21 03  -21.0328 26043.6 -03421.9 -07.4853 26267.4
 06 04 2013  21 04  -21.0325 26043.3 -03421.9 -07.4854 26267.2
 06 04 2013  21 05  -21.0318 26043.0 -03421.9 -07.4854 26266.8
 06 04 2013  21 06  -21.0313 26042.7 -03421.9 -07.4854 26266.5
 06 04 2013  21 07  -21.0307 26042.3 -03421.8 -07.4855 26266.1
 06 04 2013  21 08  -21.0303 26042.0 -03421.9 -07.4857 26265.9
 06 04 2013  21 09  -21.0300 26041.9 -03422.1 -07.4861 26265.8
 06 04 2013  21 10  -21.0299 26041.8 -03422.2 -07.4865 26265.7
 06 04 2013  21 11  -21.0298 26041.9 -03422.5 -07.4870 26265.8
 06 04 2013  21 12  -21.0298 26041.9 -03422.7 -07.4874 26265.8
 06 04 2013  21 13  -21.0297 26041.9 -03422.9 -07.4879 26265.9
 06 04 2013  21 14  -21.0297 26041.9 -03423.1 -07.4883 26265.9
 06 04 2013  21 15  -21.0298 26041.9 -03423.2 -07.4886 26265.9
 06 04 2013  21 16  -21.0299 26041.9 -03423.4 -07.4891 26266.0
 06 04 2013  21 17  -21.0300 26041.8 -03423.6 -07.4894 26265.9
 06 04 2013  21 18  -21.0301 26041.8 -03423.7 -07.4897 26265.9
 06 04 2013  21 19  -21.0303 26041.8 -03423.8 -07.4900 26265.9
 06 04 2013  21 20  -21.0305 26041.9 -03424.0 -07.4903 26266.0
 06 04 2013  21 21  -21.0306 26041.9 -03424.2 -07.4906 26266.1
 06 04 2013  21 22  -21.0309 26042.1 -03424.3 -07.4909 26266.2
 06 04 2013  21 23  -21.0312 26042.1 -03424.4 -07.4912 26266.3
 06 04 2013  21 24  -21.0315 26042.2 -03424.6 -07.4915 26266.4
 06 04 2013  21 25  -21.0317 26042.2 -03424.7 -07.4916 26266.5
 06 04 2013  21 26  -21.0319 26042.3 -03424.8 -07.4918 26266.5
 06 04 2013  21 27  -21.0320 26042.3 -03424.8 -07.4919 26266.5
 06 04 2013  21 28  -21.0322 26042.3 -03424.8 -07.4920 26266.5
 06 04 2013  21 29  -21.0323 26042.2 -03424.9 -07.4921 26266.5
 06 04 2013  21 30  -21.0324 26042.2 -03424.9 -07.4921 26266.4
 06 04 2013  21 31  -21.0325 26042.1 -03425.0 -07.4923 26266.4
 06 04 2013  21 32  -21.0327 26042.1 -03425.0 -07.4925 26266.4
 06 04 2013  21 33  -21.0328 26042.2 -03425.1 -07.4926 26266.4
 06 04 2013  21 34  -21.0329 26042.1 -03425.2 -07.4928 26266.4
 06 04 2013  21 35  -21.0331 26042.0 -03425.2 -07.4929 26266.3
 06 04 2013  21 36  -21.0332 26042.0 -03425.3 -07.4930 26266.3
 06 04 2013  21 37  -21.0335 26042.0 -03425.4 -07.4932 26266.3
 06 04 2013  21 38  -21.0337 26042.0 -03425.4 -07.4934 26266.3
 06 04 2013  21 39  -21.0337 26042.0 -03425.5 -07.4935 26266.3
 06 04 2013  21 40  -21.0339 26042.0 -03425.5 -07.4936 26266.3
 06 04 2013  21 41  -21.0339 26041.9 -03425.6 -07.4937 26266.3
 06 04 2013  21 42  -21.0341 26041.9 -03425.6 -07.4938 26266.3
 06 04 2013  21 43  -21.0341 26042.0 -03425.7 -07.4940 26266.3
 06 04 2013  21 44  -21.0342 26041.9 -03425.8 -07.4941 26266.2
 06 04 2013  21 45  -21.0343 26041.8 -03425.8 -07.4942 26266.2
 06 04 2013  21 46  -21.0344 26041.7 -03425.8 -07.4943 26266.1
 06 04 2013  21 47  -21.0344 26041.6 -03425.9 -07.4944 26266.0
 06 04 2013  21 48  -21.0345 26041.5 -03425.9 -07.4945 26265.9
 06 04 2013  21 49  -21.0345 26041.4 -03425.9 -07.4945 26265.7
 06 04 2013  21 50  -21.0345 26041.3 -03425.9 -07.4946 26265.6
 06 04 2013  21 51  -21.0345 26041.2 -03425.9 -07.4947 26265.6
 06 04 2013  21 52  -21.0346 26041.0 -03426.0 -07.4948 26265.4
 06 04 2013  21 53  -21.0347 26041.0 -03426.0 -07.4948 26265.4
 06 04 2013  21 54  -21.0347 26040.8 -03426.0 -07.4949 26265.2
 06 04 2013  21 55  -21.0349 26040.7 -03426.0 -07.4950 26265.1
 06 04 2013  21 56  -21.0349 26040.6 -03426.0 -07.4950 26265.0
 06 04 2013  21 57  -21.0349 26040.5 -03426.0 -07.4950 26264.9
 06 04 2013  21 58  -21.0350 26040.3 -03426.0 -07.4950 26264.7
 06 04 2013  21 59  -21.0350 26040.2 -03426.0 -07.4951 26264.6
 06 04 2013  22 00  -21.0351 26040.1 -03426.0 -07.4951 26264.5
 06 04 2013  22 01  -21.0352 26039.9 -03426.0 -07.4952 26264.3
 06 04 2013  22 02  -21.0353 26039.8 -03426.0 -07.4952 26264.2
 06 04 2013  22 03  -21.0354 26039.6 -03426.0 -07.4952 26264.0
 06 04 2013  22 04  -21.0354 26039.5 -03426.0 -07.4952 26263.9
 06 04 2013  22 05  -21.0353 26039.4 -03426.0 -07.4952 26263.8
 06 04 2013  22 06  -21.0352 26039.3 -03426.0 -07.4953 26263.8
 06 04 2013  22 07  -21.0352 26039.4 -03426.1 -07.4956 26263.8
 06 04 2013  22 08  -21.0354 26039.1 -03426.1 -07.4956 26263.6
 06 04 2013  22 09  -21.0352 26039.1 -03426.1 -07.4956 26263.5
 06 04 2013  22 10  -21.0353 26038.9 -03426.1 -07.4956 26263.3
 06 04 2013  22 11  -21.0352 26038.8 -03426.1 -07.4956 26263.2
 06 04 2013  22 12  -21.0353 26038.7 -03426.1 -07.4956 26263.1
 06 04 2013  22 13  -21.0353 26038.4 -03426.0 -07.4956 26262.9
 06 04 2013  22 14  -21.0352 26038.3 -03426.0 -07.4956 26262.7
 06 04 2013  22 15  -21.0353 26038.1 -03425.9 -07.4955 26262.6
 06 04 2013  22 16  -21.0351 26037.9 -03425.9 -07.4955 26262.3
 06 04 2013  22 17  -21.0352 26037.7 -03425.8 -07.4955 26262.1
 06 04 2013  22 18  -21.0351 26037.5 -03425.8 -07.4955 26261.9
 06 04 2013  22 19  -21.0348 26037.4 -03425.8 -07.4954 26261.8
 06 04 2013  22 20  -21.0346 26037.6 -03425.9 -07.4957 26262.0
 06 04 2013  22 21  -21.0346 26037.3 -03425.9 -07.4957 26261.7
 06 04 2013  22 22  -21.0347 26037.6 -03426.1 -07.4961 26262.1
 06 04 2013  22 23  -21.0348 26038.0 -03426.3 -07.4964 26262.4
 06 04 2013  22 24  -21.0353 26037.8 -03426.3 -07.4965 26262.3
 06 04 2013  22 25  -21.0352 26038.2 -03426.5 -07.4968 26262.7
 06 04 2013  22 26  -21.0354 26038.3 -03426.6 -07.4969 26262.8
 06 04 2013  22 27  -21.0357 26038.5 -03426.7 -07.4971 26263.0
 06 04 2013  22 28  -21.0359 26038.6 -03426.7 -07.4972 26263.1
 06 04 2013  22 29  -21.0361 26038.6 -03426.7 -07.4972 26263.1
 06 04 2013  22 30  -21.0366 26038.5 -03426.7 -07.4970 26263.0
 06 04 2013  22 31  -21.0367 26038.6 -03426.7 -07.4970 26263.1
 06 04 2013  22 32  -21.0369 26038.5 -03426.6 -07.4969 26263.0
 06 04 2013  22 33  -21.0371 26038.3 -03426.5 -07.4968 26262.8
 06 04 2013  22 34  -21.0372 26038.5 -03426.6 -07.4968 26263.0
 06 04 2013  22 35  -21.0373 26038.5 -03426.6 -07.4968 26263.0
 06 04 2013  22 36  -21.0376 26038.5 -03426.6 -07.4968 26263.0
 06 04 2013  22 37  -21.0377 26038.4 -03426.5 -07.4968 26262.9
 06 04 2013  22 38  -21.0380 26038.5 -03426.5 -07.4968 26263.0
 06 04 2013  22 39  -21.0381 26038.5 -03426.6 -07.4968 26263.0
 06 04 2013  22 40  -21.0382 26038.5 -03426.5 -07.4967 26262.9
 06 04 2013  22 41  -21.0383 26038.4 -03426.5 -07.4967 26262.9
 06 04 2013  22 42  -21.0383 26038.3 -03426.4 -07.4965 26262.7
 06 04 2013  22 43  -21.0383 26038.1 -03426.3 -07.4964 26262.6
 06 04 2013  22 44  -21.0382 26038.1 -03426.3 -07.4963 26262.5
 06 04 2013  22 45  -21.0381 26038.0 -03426.3 -07.4963 26262.4
 06 04 2013  22 46  -21.0382 26037.9 -03426.2 -07.4962 26262.4
 06 04 2013  22 47  -21.0381 26038.0 -03426.3 -07.4963 26262.5
 06 04 2013  22 48  -21.0378 26038.6 -03426.6 -07.4968 26263.1
 06 04 2013  22 49  -21.0379 26038.5 -03426.6 -07.4968 26263.0
 06 04 2013  22 50  -21.0379 26038.3 -03426.5 -07.4967 26262.8
 06 04 2013  22 51  -21.0376 26038.5 -03426.6 -07.4968 26263.0
 06 04 2013  22 52  -21.0376 26038.8 -03426.7 -07.4970 26263.3
 06 04 2013  22 53  -21.0378 26038.8 -03426.7 -07.4971 26263.3
 06 04 2013  22 54  -21.0378 26038.8 -03426.7 -07.4970 26263.3
 06 04 2013  22 55  -21.0377 26039.1 -03426.8 -07.4972 26263.6
 06 04 2013  22 56  -21.0378 26039.2 -03426.9 -07.4973 26263.7
 06 04 2013  22 57  -21.0378 26039.3 -03426.9 -07.4973 26263.8
 06 04 2013  22 58  -21.0379 26039.4 -03426.9 -07.4973 26263.9
 06 04 2013  22 59  -21.0379 26039.3 -03426.9 -07.4973 26263.8
 06 04 2013  23 00  -21.0378 26039.4 -03426.9 -07.4973 26264.0
 06 04 2013  23 01  -21.0378 26039.4 -03426.9 -07.4973 26263.9
 06 04 2013  23 02  -21.0378 26039.4 -03426.8 -07.4971 26263.9
 06 04 2013  23 03  -21.0377 26039.4 -03426.8 -07.4971 26263.9
 06 04 2013  23 04  -21.0377 26039.4 -03426.8 -07.4971 26263.9
 06 04 2013  23 05  -21.0377 26039.4 -03426.8 -07.4970 26263.9
 06 04 2013  23 06  -21.0378 26039.4 -03426.8 -07.4970 26263.9
 06 04 2013  23 07  -21.0379 26039.4 -03426.8 -07.4970 26263.9
 06 04 2013  23 08  -21.0381 26039.4 -03426.8 -07.4970 26263.9
 06 04 2013  23 09  -21.0383 26039.3 -03426.7 -07.4970 26263.8
 06 04 2013  23 10  -21.0383 26039.3 -03426.7 -07.4969 26263.9
 06 04 2013  23 11  -21.0380 26039.5 -03426.8 -07.4970 26264.0
 06 04 2013  23 12  -21.0381 26039.3 -03426.7 -07.4969 26263.8
 06 04 2013  23 13  -21.0378 26039.7 -03426.8 -07.4971 26264.2
 06 04 2013  23 14  -21.0376 26039.5 -03426.8 -07.4970 26264.0
 06 04 2013  23 15  -21.0374 26039.6 -03426.8 -07.4971 26264.1
 06 04 2013  23 16  -21.0373 26039.5 -03426.8 -07.4970 26264.0
 06 04 2013  23 17  -21.0373 26039.4 -03426.8 -07.4969 26264.0
 06 04 2013  23 18  -21.0372 26039.3 -03426.7 -07.4968 26263.8
 06 04 2013  23 19  -21.0372 26039.2 -03426.6 -07.4968 26263.7
 06 04 2013  23 20  -21.0371 26039.2 -03426.6 -07.4968 26263.7
 06 04 2013  23 21  -21.0371 26039.2 -03426.6 -07.4968 26263.7
 06 04 2013  23 22  -21.0371 26039.1 -03426.6 -07.4967 26263.6
 06 04 2013  23 23  -21.0370 26039.0 -03426.6 -07.4967 26263.5
 06 04 2013  23 24  -21.0371 26038.9 -03426.6 -07.4967 26263.4
 06 04 2013  23 25  -21.0372 26038.9 -03426.6 -07.4967 26263.4
 06 04 2013  23 26  -21.0372 26038.9 -03426.6 -07.4967 26263.4
 06 04 2013  23 27  -21.0373 26038.8 -03426.5 -07.4967 26263.3
 06 04 2013  23 28  -21.0374 26038.7 -03426.5 -07.4966 26263.2
 06 04 2013  23 29  -21.0375 26038.5 -03426.4 -07.4965 26263.0
 06 04 2013  23 30  -21.0375 26038.5 -03426.4 -07.4965 26263.0
 06 04 2013  23 31  -21.0375 26038.4 -03426.4 -07.4964 26262.8
 06 04 2013  23 32  -21.0375 26038.3 -03426.3 -07.4964 26262.7
 06 04 2013  23 33  -21.0375 26038.1 -03426.3 -07.4963 26262.6
 06 04 2013  23 34  -21.0375 26037.9 -03426.2 -07.4962 26262.4
 06 04 2013  23 35  -21.0377 26037.8 -03426.2 -07.4962 26262.2
 06 04 2013  23 36  -21.0377 26037.7 -03426.2 -07.4962 26262.2
 06 04 2013  23 37  -21.0378 26037.6 -03426.1 -07.4961 26262.0
 06 04 2013  23 38  -21.0380 26037.4 -03426.0 -07.4960 26261.8
 06 04 2013  23 39  -21.0381 26037.3 -03426.0 -07.4960 26261.7
 06 04 2013  23 40  -21.0381 26037.1 -03426.0 -07.4959 26261.5
 06 04 2013  23 41  -21.0381 26037.0 -03425.9 -07.4959 26261.4
 06 04 2013  23 42  -21.0381 26037.0 -03425.9 -07.4959 26261.4
 06 04 2013  23 43  -21.0381 26036.9 -03425.9 -07.4959 26261.3
 06 04 2013  23 44  -21.0381 26036.7 -03425.9 -07.4959 26261.1
 06 04 2013  23 45  -21.0381 26036.6 -03425.8 -07.4958 26261.0
 06 04 2013  23 46  -21.0382 26036.4 -03425.8 -07.4957 26260.8
 06 04 2013  23 47  -21.0383 26036.2 -03425.8 -07.4957 26260.6
 06 04 2013  23 48  -21.0386 26036.2 -03425.8 -07.4958 26260.6
 06 04 2013  23 49  -21.0388 26036.1 -03425.8 -07.4958 26260.6
 06 04 2013  23 50  -21.0389 26036.2 -03425.8 -07.4959 26260.6
 06 04 2013  23 51  -21.0390 26036.2 -03425.9 -07.4959 26260.6
 06 04 2013  23 52  -21.0391 26036.2 -03425.9 -07.4960 26260.6
 06 04 2013  23 53  -21.0393 26036.3 -03426.0 -07.4962 26260.7
 06 04 2013  23 54  -21.0394 26036.3 -03426.0 -07.4963 26260.8
 06 04 2013  23 55  -21.0395 26036.5 -03426.1 -07.4964 26260.9
 06 04 2013  23 56  -21.0397 26036.5 -03426.1 -07.4964 26261.0
 06 04 2013  23 57  -21.0397 26036.5 -03426.1 -07.4964 26260.9
