SAO LUIS EMBRACE-03 <154> 1 Min. Reported data

 DD MM YYYY  HH MM   D(Deg)  H(nT)   Z(nT)   I(Deg)   F(nT)

 03 06 2013  00 00  -21.0544 26011.1 -03446.5 -07.5478 26238.5
 03 06 2013  00 01  -21.0542 26011.0 -03446.5 -07.5478 26238.3
 03 06 2013  00 02  -21.0545 26011.1 -03446.6 -07.5480 26238.5
 03 06 2013  00 03  -21.0539 26011.0 -03446.7 -07.5481 26238.4
 03 06 2013  00 04  -21.0534 26011.1 -03446.7 -07.5482 26238.5
 03 06 2013  00 05  -21.0531 26011.6 -03447.0 -07.5487 26239.0
 03 06 2013  00 06  -21.0532 26012.1 -03447.3 -07.5493 26239.6
 03 06 2013  00 07  -21.0532 26012.3 -03447.5 -07.5496 26239.8
 03 06 2013  00 08  -21.0530 26012.8 -03447.7 -07.5499 26240.3
 03 06 2013  00 09  -21.0533 26013.1 -03447.9 -07.5502 26240.6
 03 06 2013  00 10  -21.0545 26013.3 -03448.1 -07.5505 26240.9
 03 06 2013  00 11  -21.0546 26013.3 -03448.0 -07.5504 26240.9
 03 06 2013  00 12  -21.0543 26013.4 -03447.9 -07.5502 26240.9
 03 06 2013  00 13  -21.0538 26013.6 -03447.9 -07.5501 26241.1
 03 06 2013  00 14  -21.0535 26013.4 -03447.8 -07.5499 26240.9
 03 06 2013  00 15  -21.0535 26013.1 -03447.6 -07.5496 26240.5
 03 06 2013  00 16  -21.0533 26012.6 -03447.4 -07.5492 26240.0
 03 06 2013  00 17  -21.0529 26012.4 -03447.2 -07.5490 26239.8
 03 06 2013  00 18  -21.0524 26012.3 -03447.2 -07.5489 26239.7
 03 06 2013  00 19  -21.0520 26011.9 -03447.0 -07.5486 26239.2
 03 06 2013  00 20  -21.0519 26011.7 -03446.9 -07.5485 26239.0
 03 06 2013  00 21  -21.0518 26011.7 -03447.0 -07.5487 26239.1
 03 06 2013  00 22  -21.0515 26011.3 -03446.9 -07.5485 26238.7
 03 06 2013  00 23  -21.0512 26010.7 -03446.6 -07.5481 26238.0
 03 06 2013  00 24  -21.0508 26010.5 -03446.5 -07.5479 26237.8
 03 06 2013  00 25  -21.0506 26010.7 -03446.6 -07.5482 26238.0
 03 06 2013  00 26  -21.0506 26010.9 -03446.9 -07.5486 26238.2
 03 06 2013  00 27  -21.0504 26012.5 -03447.6 -07.5499 26239.9
 03 06 2013  00 28  -21.0503 26014.4 -03448.6 -07.5515 26242.0
 03 06 2013  00 29  -21.0504 26015.8 -03449.4 -07.5528 26243.5
 03 06 2013  00 30  -21.0505 26016.8 -03449.9 -07.5536 26244.6
 03 06 2013  00 31  -21.0507 26017.8 -03450.3 -07.5541 26245.6
 03 06 2013  00 32  -21.0503 26018.9 -03450.7 -07.5546 26246.7
 03 06 2013  00 33  -21.0498 26019.6 -03450.9 -07.5548 26247.5
 03 06 2013  00 34  -21.0490 26020.8 -03451.2 -07.5551 26248.6
 03 06 2013  00 35  -21.0483 26021.7 -03451.5 -07.5555 26249.6
 03 06 2013  00 36  -21.0478 26022.3 -03451.6 -07.5556 26250.2
 03 06 2013  00 37  -21.0475 26022.7 -03451.7 -07.5556 26250.6
 03 06 2013  00 38  -21.0477 26023.1 -03451.7 -07.5556 26251.0
 03 06 2013  00 39  -21.0481 26023.3 -03451.7 -07.5555 26251.2
 03 06 2013  00 40  -21.0487 26023.6 -03451.8 -07.5556 26251.5
 03 06 2013  00 41  -21.0494 26023.4 -03451.7 -07.5554 26251.4
 03 06 2013  00 42  -21.0496 26023.6 -03451.5 -07.5551 26251.5
 03 06 2013  00 43  -21.0495 26023.7 -03451.4 -07.5548 26251.6
 03 06 2013  00 44  -21.0497 26023.7 -03451.3 -07.5545 26251.5
 03 06 2013  00 45  -21.0497 26023.3 -03451.0 -07.5540 26251.1
 03 06 2013  00 46  -21.0497 26022.9 -03450.7 -07.5534 26250.7
 03 06 2013  00 47  -21.0495 26022.8 -03450.5 -07.5531 26250.5
 03 06 2013  00 48  -21.0490 26022.5 -03450.3 -07.5527 26250.2
 03 06 2013  00 49  -21.0485 26022.2 -03450.1 -07.5523 26249.9
 03 06 2013  00 50  -21.0479 26022.5 -03450.2 -07.5524 26250.2
 03 06 2013  00 51  -21.0476 26022.8 -03450.3 -07.5527 26250.5
 03 06 2013  00 52  -21.0477 26023.5 -03450.7 -07.5533 26251.3
 03 06 2013  00 53  -21.0485 26023.9 -03451.0 -07.5539 26251.7
 03 06 2013  00 54  -21.0492 26024.5 -03451.3 -07.5543 26252.4
 03 06 2013  00 55  -21.0491 26025.2 -03451.5 -07.5546 26253.1
 03 06 2013  00 56  -21.0483 26026.1 -03451.8 -07.5549 26254.0
 03 06 2013  00 57  -21.0477 26026.7 -03451.9 -07.5551 26254.6
 03 06 2013  00 58  -21.0476 26027.0 -03452.0 -07.5551 26254.9
 03 06 2013  00 59  -21.0475 26027.7 -03452.2 -07.5554 26255.6
 03 06 2013  01 00  -21.0472 26027.8 -03452.2 -07.5553 26255.8
 03 06 2013  01 01  -21.0468 26027.3 -03451.8 -07.5545 26255.2
 03 06 2013  01 02  -21.0464 26026.9 -03451.4 -07.5539 26254.7
 03 06 2013  01 03  -21.0459 26026.4 -03451.1 -07.5534 26254.3
 03 06 2013  01 04  -21.0449 26026.4 -03450.9 -07.5530 26254.2
 03 06 2013  01 05  -21.0440 26026.5 -03451.0 -07.5530 26254.3
 03 06 2013  01 06  -21.0434 26026.7 -03451.1 -07.5532 26254.6
 03 06 2013  01 07  -21.0432 26026.7 -03451.1 -07.5532 26254.5
 03 06 2013  01 08  -21.0429 26026.5 -03450.9 -07.5530 26254.3
 03 06 2013  01 09  -21.0428 26026.6 -03451.0 -07.5530 26254.4
 03 06 2013  01 10  -21.0433 26026.8 -03451.1 -07.5532 26254.6
 03 06 2013  01 11  -21.0438 26027.1 -03451.3 -07.5535 26255.0
 03 06 2013  01 12  -21.0444 26027.5 -03451.4 -07.5537 26255.3
 03 06 2013  01 13  -21.0450 26027.9 -03451.6 -07.5540 26255.8
 03 06 2013  01 14  -21.0458 26028.0 -03451.6 -07.5540 26255.9
 03 06 2013  01 15  -21.0467 26028.3 -03451.7 -07.5540 26256.1
 03 06 2013  01 16  -21.0474 26028.5 -03451.7 -07.5540 26256.3
 03 06 2013  01 17  -21.0478 26028.4 -03451.5 -07.5536 26256.2
 03 06 2013  01 18  -21.0483 26028.3 -03451.3 -07.5533 26256.1
 03 06 2013  01 19  -21.0489 26028.1 -03451.1 -07.5529 26255.9
 03 06 2013  01 20  -21.0495 26027.7 -03450.8 -07.5524 26255.5
 03 06 2013  01 21  -21.0500 26027.3 -03450.5 -07.5519 26255.0
 03 06 2013  01 22  -21.0501 26027.0 -03450.3 -07.5514 26254.7
 03 06 2013  01 23  -21.0505 26026.5 -03450.0 -07.5509 26254.1
 03 06 2013  01 24  -21.0508 26026.1 -03449.7 -07.5505 26253.7
 03 06 2013  01 25  -21.0514 26025.7 -03449.6 -07.5502 26253.3
 03 06 2013  01 26  -21.0520 26025.4 -03449.4 -07.5500 26253.0
 03 06 2013  01 27  -21.0521 26024.8 -03449.1 -07.5495 26252.3
 03 06 2013  01 28  -21.0522 26024.2 -03448.8 -07.5489 26251.7
 03 06 2013  01 29  -21.0523 26023.6 -03448.4 -07.5484 26251.1
 03 06 2013  01 30  -21.0520 26023.1 -03448.1 -07.5477 26250.5
 03 06 2013  01 31  -21.0518 26022.8 -03447.9 -07.5474 26250.2
 03 06 2013  01 32  -21.0514 26022.2 -03447.6 -07.5470 26249.6
 03 06 2013  01 33  -21.0505 26021.6 -03447.3 -07.5465 26248.9
 03 06 2013  01 34  -21.0500 26021.5 -03447.3 -07.5465 26248.8
 03 06 2013  01 35  -21.0496 26021.6 -03447.4 -07.5467 26249.0
 03 06 2013  01 36  -21.0489 26021.6 -03447.5 -07.5469 26249.0
 03 06 2013  01 37  -21.0491 26021.2 -03447.5 -07.5469 26248.6
 03 06 2013  01 38  -21.0501 26021.3 -03447.7 -07.5475 26248.7
 03 06 2013  01 39  -21.0512 26021.3 -03447.9 -07.5479 26248.7
 03 06 2013  01 40  -21.0511 26020.9 -03447.7 -07.5476 26248.3
 03 06 2013  01 41  -21.0503 26020.9 -03447.6 -07.5474 26248.4
 03 06 2013  01 42  -21.0486 26020.8 -03447.5 -07.5471 26248.2
 03 06 2013  01 43  -21.0479 26020.2 -03447.2 -07.5467 26247.5
 03 06 2013  01 44  -21.0490 26019.1 -03447.0 -07.5465 26246.5
 03 06 2013  01 45  -21.0499 26018.8 -03446.9 -07.5465 26246.1
 03 06 2013  01 46  -21.0500 26019.2 -03447.2 -07.5471 26246.6
 03 06 2013  01 47  -21.0490 26019.2 -03447.3 -07.5471 26246.5
 03 06 2013  01 48  -21.0483 26019.1 -03447.3 -07.5471 26246.5
 03 06 2013  01 49  -21.0480 26018.9 -03447.3 -07.5472 26246.2
 03 06 2013  01 50  -21.0484 26018.6 -03447.2 -07.5472 26246.0
 03 06 2013  01 51  -21.0495 26018.5 -03447.4 -07.5476 26245.9
 03 06 2013  01 52  -21.0499 26018.3 -03447.4 -07.5476 26245.7
 03 06 2013  01 53  -21.0497 26017.8 -03447.1 -07.5472 26245.2
 03 06 2013  01 54  -21.0498 26017.3 -03447.0 -07.5470 26244.7
 03 06 2013  01 55  -21.0499 26017.1 -03446.9 -07.5469 26244.4
 03 06 2013  01 56  -21.0504 26017.0 -03447.0 -07.5471 26244.4
 03 06 2013  01 57  -21.0506 26017.0 -03447.1 -07.5473 26244.3
 03 06 2013  01 58  -21.0506 26016.9 -03447.1 -07.5473 26244.3
 03 06 2013  01 59  -21.0504 26016.9 -03447.1 -07.5474 26244.3
 03 06 2013  02 00  -21.0503 26017.4 -03447.5 -07.5481 26244.8
 03 06 2013  02 01  -21.0497 26017.8 -03447.7 -07.5484 26245.2
 03 06 2013  02 02  -21.0495 26018.1 -03447.9 -07.5488 26245.6
 03 06 2013  02 03  -21.0497 26018.3 -03448.1 -07.5492 26245.8
 03 06 2013  02 04  -21.0500 26017.9 -03447.9 -07.5489 26245.3
 03 06 2013  02 05  -21.0504 26016.9 -03447.4 -07.5481 26244.4
 03 06 2013  02 06  -21.0507 26016.2 -03447.1 -07.5475 26243.6
 03 06 2013  02 07  -21.0512 26015.8 -03446.9 -07.5473 26243.2
 03 06 2013  02 08  -21.0520 26015.7 -03446.9 -07.5474 26243.0
 03 06 2013  02 09  -21.0524 26015.7 -03447.0 -07.5475 26243.1
 03 06 2013  02 10  -21.0519 26016.0 -03447.1 -07.5477 26243.4
 03 06 2013  02 11  -21.0516 26016.3 -03447.3 -07.5479 26243.7
 03 06 2013  02 12  -21.0516 26016.5 -03447.4 -07.5481 26243.9
 03 06 2013  02 13  -21.0518 26016.7 -03447.5 -07.5484 26244.1
 03 06 2013  02 14  -21.0521 26016.8 -03447.6 -07.5486 26244.2
 03 06 2013  02 15  -21.0522 26016.8 -03447.7 -07.5487 26244.2
 03 06 2013  02 16  -21.0522 26016.7 -03447.7 -07.5487 26244.1
 03 06 2013  02 17  -21.0522 26016.5 -03447.5 -07.5485 26244.0
 03 06 2013  02 18  -21.0523 26016.3 -03447.4 -07.5483 26243.8
 03 06 2013  02 19  -21.0522 26016.4 -03447.4 -07.5483 26243.8
 03 06 2013  02 20  -21.0521 26016.4 -03447.5 -07.5484 26243.8
 03 06 2013  02 21  -21.0521 26016.3 -03447.4 -07.5483 26243.8
 03 06 2013  02 22  -21.0519 26016.4 -03447.5 -07.5484 26243.8
 03 06 2013  02 23  -21.0520 26016.3 -03447.5 -07.5484 26243.7
 03 06 2013  02 24  -21.0522 26016.0 -03447.4 -07.5483 26243.4
 03 06 2013  02 25  -21.0522 26015.8 -03447.3 -07.5482 26243.2
 03 06 2013  02 26  -21.0526 26015.5 -03447.2 -07.5481 26242.9
 03 06 2013  02 27  -21.0530 26015.3 -03447.2 -07.5480 26242.7
 03 06 2013  02 28  -21.0532 26015.2 -03447.1 -07.5480 26242.6
 03 06 2013  02 29  -21.0535 26015.0 -03447.1 -07.5479 26242.4
 03 06 2013  02 30  -21.0538 26015.0 -03447.1 -07.5480 26242.4
 03 06 2013  02 31  -21.0541 26015.1 -03447.2 -07.5481 26242.5
 03 06 2013  02 32  -21.0542 26015.3 -03447.3 -07.5482 26242.7
 03 06 2013  02 33  -21.0542 26015.4 -03447.3 -07.5483 26242.9
 03 06 2013  02 34  -21.0541 26015.6 -03447.4 -07.5485 26243.0
 03 06 2013  02 35  -21.0540 26015.7 -03447.5 -07.5486 26243.1
 03 06 2013  02 36  -21.0537 26015.8 -03447.5 -07.5487 26243.3
 03 06 2013  02 37  -21.0533 26016.0 -03447.6 -07.5487 26243.4
 03 06 2013  02 38  -21.0530 26016.2 -03447.7 -07.5488 26243.6
 03 06 2013  02 39  -21.0527 26016.3 -03447.7 -07.5489 26243.7
 03 06 2013  02 40  -21.0527 26016.4 -03447.8 -07.5490 26243.8
 03 06 2013  02 41  -21.0528 26016.4 -03447.8 -07.5490 26243.9
 03 06 2013  02 42  -21.0527 26016.5 -03447.8 -07.5491 26244.0
 03 06 2013  02 43  -21.0526 26016.9 -03448.0 -07.5493 26244.3
 03 06 2013  02 44  -21.0525 26017.3 -03448.2 -07.5497 26244.9
 03 06 2013  02 45  -21.0524 26017.8 -03448.5 -07.5501 26245.4
 03 06 2013  02 46  -21.0522 26018.3 -03448.7 -07.5504 26245.8
 03 06 2013  02 47  -21.0522 26018.5 -03448.8 -07.5506 26246.1
 03 06 2013  02 48  -21.0525 26018.5 -03448.7 -07.5505 26246.1
 03 06 2013  02 49  -21.0524 26018.6 -03448.7 -07.5504 26246.2
 03 06 2013  02 50  -21.0522 26018.7 -03448.7 -07.5503 26246.3
 03 06 2013  02 51  -21.0520 26018.9 -03448.7 -07.5502 26246.5
 03 06 2013  02 52  -21.0520 26019.0 -03448.7 -07.5503 26246.5
 03 06 2013  02 53  -21.0521 26018.8 -03448.6 -07.5501 26246.3
 03 06 2013  02 54  -21.0521 26018.4 -03448.3 -07.5497 26246.0
 03 06 2013  02 55  -21.0519 26018.2 -03448.1 -07.5493 26245.6
 03 06 2013  02 56  -21.0519 26017.8 -03447.9 -07.5490 26245.3
 03 06 2013  02 57  -21.0516 26017.7 -03447.8 -07.5487 26245.1
 03 06 2013  02 58  -21.0511 26017.6 -03447.7 -07.5486 26245.0
 03 06 2013  02 59  -21.0506 26017.6 -03447.7 -07.5486 26245.0
 03 06 2013  03 00  -21.0502 26017.6 -03447.8 -07.5486 26245.1
 03 06 2013  03 01  -21.0499 26017.7 -03447.8 -07.5488 26245.1
 03 06 2013  03 02  -21.0494 26017.8 -03447.9 -07.5488 26245.2
 03 06 2013  03 03  -21.0490 26017.9 -03448.0 -07.5490 26245.4
 03 06 2013  03 04  -21.0486 26017.9 -03448.0 -07.5491 26245.4
 03 06 2013  03 05  -21.0484 26017.9 -03448.0 -07.5491 26245.4
 03 06 2013  03 06  -21.0481 26017.8 -03448.0 -07.5490 26245.3
 03 06 2013  03 07  -21.0480 26017.7 -03447.9 -07.5490 26245.1
 03 06 2013  03 08  -21.0480 26017.7 -03447.9 -07.5490 26245.1
 03 06 2013  03 09  -21.0479 26017.7 -03448.0 -07.5491 26245.1
 03 06 2013  03 10  -21.0481 26017.6 -03448.0 -07.5491 26245.1
 03 06 2013  03 11  -21.0483 26017.5 -03447.9 -07.5491 26245.0
 03 06 2013  03 12  -21.0486 26017.5 -03448.0 -07.5491 26245.0
 03 06 2013  03 13  -21.0488 26017.6 -03448.0 -07.5492 26245.1
 03 06 2013  03 14  -21.0489 26017.8 -03448.1 -07.5494 26245.3
 03 06 2013  03 15  -21.0491 26018.0 -03448.3 -07.5496 26245.6
 03 06 2013  03 16  -21.0494 26018.2 -03448.4 -07.5498 26245.8
 03 06 2013  03 17  -21.0499 26018.4 -03448.4 -07.5499 26245.9
 03 06 2013  03 18  -21.0506 26018.3 -03448.4 -07.5499 26245.9
 03 06 2013  03 19  -21.0511 26018.4 -03448.4 -07.5498 26246.0
 03 06 2013  03 20  -21.0514 26018.6 -03448.5 -07.5499 26246.1
 03 06 2013  03 21  -21.0516 26018.7 -03448.5 -07.5499 26246.3
 03 06 2013  03 22  -21.0520 26018.8 -03448.5 -07.5498 26246.3
 03 06 2013  03 23  -21.0523 26018.7 -03448.4 -07.5497 26246.2
 03 06 2013  03 24  -21.0524 26018.6 -03448.3 -07.5495 26246.1
 03 06 2013  03 25  -21.0525 26018.7 -03448.3 -07.5494 26246.2
 03 06 2013  03 26  -21.0527 26018.8 -03448.3 -07.5494 26246.3
 03 06 2013  03 27  -21.0530 26018.8 -03448.3 -07.5494 26246.3
 03 06 2013  03 28  -21.0533 26018.9 -03448.3 -07.5494 26246.4
 03 06 2013  03 29  -21.0536 26019.0 -03448.3 -07.5494 26246.5
 03 06 2013  03 30  -21.0537 26019.2 -03448.4 -07.5495 26246.7
 03 06 2013  03 31  -21.0538 26019.4 -03448.4 -07.5496 26246.9
 03 06 2013  03 32  -21.0542 26019.4 -03448.4 -07.5495 26246.9
 03 06 2013  03 33  -21.0545 26019.2 -03448.3 -07.5493 26246.7
 03 06 2013  03 34  -21.0549 26019.0 -03448.1 -07.5489 26246.4
 03 06 2013  03 35  -21.0553 26018.4 -03447.8 -07.5485 26245.8
 03 06 2013  03 36  -21.0557 26017.7 -03447.4 -07.5478 26245.1
 03 06 2013  03 37  -21.0557 26017.4 -03447.2 -07.5474 26244.8
 03 06 2013  03 38  -21.0551 26017.5 -03447.2 -07.5473 26244.9
 03 06 2013  03 39  -21.0546 26017.9 -03447.3 -07.5476 26245.2
 03 06 2013  03 40  -21.0542 26018.1 -03447.5 -07.5479 26245.5
 03 06 2013  03 41  -21.0543 26018.0 -03447.5 -07.5480 26245.4
 03 06 2013  03 42  -21.0545 26017.9 -03447.5 -07.5479 26245.3
 03 06 2013  03 43  -21.0545 26017.7 -03447.4 -07.5478 26245.1
 03 06 2013  03 44  -21.0544 26017.6 -03447.4 -07.5478 26245.0
 03 06 2013  03 45  -21.0543 26017.8 -03447.4 -07.5479 26245.2
 03 06 2013  03 46  -21.0543 26017.9 -03447.6 -07.5481 26245.3
 03 06 2013  03 47  -21.0542 26017.9 -03447.6 -07.5481 26245.3
 03 06 2013  03 48  -21.0540 26018.1 -03447.7 -07.5483 26245.5
 03 06 2013  03 49  -21.0539 26018.3 -03447.8 -07.5485 26245.7
 03 06 2013  03 50  -21.0537 26018.4 -03447.9 -07.5487 26245.9
 03 06 2013  03 51  -21.0536 26018.5 -03447.9 -07.5487 26246.0
 03 06 2013  03 52  -21.0538 26018.7 -03448.0 -07.5489 26246.2
 03 06 2013  03 53  -21.0540 26018.9 -03448.2 -07.5491 26246.4
 03 06 2013  03 54  -21.0545 26019.3 -03448.4 -07.5495 26246.8
 03 06 2013  03 55  -21.0547 26019.6 -03448.5 -07.5497 26247.1
 03 06 2013  03 56  -21.0547 26019.7 -03448.5 -07.5496 26247.2
 03 06 2013  03 57  -21.0544 26019.9 -03448.5 -07.5496 26247.5
 03 06 2013  03 58  -21.0542 26020.1 -03448.6 -07.5497 26247.6
 03 06 2013  03 59  -21.0541 26020.2 -03448.6 -07.5497 26247.7
 03 06 2013  04 00  -21.0540 26020.0 -03448.5 -07.5495 26247.5
 03 06 2013  04 01  -21.0537 26019.9 -03448.4 -07.5493 26247.4
 03 06 2013  04 02  -21.0534 26019.8 -03448.3 -07.5492 26247.3
 03 06 2013  04 03  -21.0525 26020.2 -03448.4 -07.5492 26247.7
 03 06 2013  04 04  -21.0516 26020.5 -03448.5 -07.5495 26248.0
 03 06 2013  04 05  -21.0509 26020.7 -03448.7 -07.5497 26248.3
 03 06 2013  04 06  -21.0505 26020.9 -03448.8 -07.5499 26248.5
 03 06 2013  04 07  -21.0504 26020.8 -03448.8 -07.5499 26248.4
 03 06 2013  04 08  -21.0504 26021.0 -03448.9 -07.5501 26248.5
 03 06 2013  04 09  -21.0502 26021.0 -03448.9 -07.5501 26248.6
 03 06 2013  04 10  -21.0501 26021.2 -03449.0 -07.5502 26248.7
 03 06 2013  04 11  -21.0499 26021.4 -03449.1 -07.5504 26249.0
 03 06 2013  04 12  -21.0499 26021.7 -03449.2 -07.5506 26249.3
 03 06 2013  04 13  -21.0500 26022.0 -03449.4 -07.5509 26249.6
 03 06 2013  04 14  -21.0500 26022.3 -03449.5 -07.5511 26249.9
 03 06 2013  04 15  -21.0502 26022.6 -03449.6 -07.5512 26250.2
 03 06 2013  04 16  -21.0503 26022.7 -03449.7 -07.5513 26250.4
 03 06 2013  04 17  -21.0503 26022.8 -03449.7 -07.5513 26250.4
 03 06 2013  04 18  -21.0505 26022.9 -03449.7 -07.5512 26250.5
 03 06 2013  04 19  -21.0505 26022.7 -03449.6 -07.5511 26250.4
 03 06 2013  04 20  -21.0505 26022.6 -03449.4 -07.5508 26250.2
 03 06 2013  04 21  -21.0503 26022.4 -03449.3 -07.5505 26250.0
 03 06 2013  04 22  -21.0499 26022.3 -03449.2 -07.5503 26249.9
 03 06 2013  04 23  -21.0496 26022.1 -03449.1 -07.5502 26249.7
 03 06 2013  04 24  -21.0492 26021.8 -03448.9 -07.5498 26249.4
 03 06 2013  04 25  -21.0485 26021.5 -03448.7 -07.5496 26249.1
 03 06 2013  04 26  -21.0477 26021.6 -03448.7 -07.5495 26249.1
 03 06 2013  04 27  -21.0471 26021.8 -03448.9 -07.5498 26249.4
 03 06 2013  04 28  -21.0464 26022.1 -03449.0 -07.5501 26249.7
 03 06 2013  04 29  -21.0459 26022.3 -03449.2 -07.5504 26249.9
 03 06 2013  04 30  -21.0454 26022.5 -03449.4 -07.5507 26250.2
 03 06 2013  04 31  -21.0451 26022.5 -03449.4 -07.5507 26250.1
 03 06 2013  04 32  -21.0447 26022.4 -03449.3 -07.5506 26250.0
 03 06 2013  04 33  -21.0446 26022.3 -03449.3 -07.5506 26249.9
 03 06 2013  04 34  -21.0445 26022.4 -03449.4 -07.5507 26250.0
 03 06 2013  04 35  -21.0443 26022.5 -03449.4 -07.5508 26250.1
 03 06 2013  04 36  -21.0440 26022.5 -03449.4 -07.5509 26250.1
 03 06 2013  04 37  -21.0438 26022.4 -03449.4 -07.5509 26250.1
 03 06 2013  04 38  -21.0435 26022.6 -03449.5 -07.5510 26250.2
 03 06 2013  04 39  -21.0436 26022.5 -03449.5 -07.5510 26250.2
 03 06 2013  04 40  -21.0435 26022.4 -03449.5 -07.5510 26250.1
 03 06 2013  04 41  -21.0435 26022.3 -03449.4 -07.5508 26249.9
 03 06 2013  04 42  -21.0435 26022.1 -03449.3 -07.5507 26249.7
 03 06 2013  04 43  -21.0433 26022.0 -03449.2 -07.5506 26249.6
 03 06 2013  04 44  -21.0436 26022.0 -03449.3 -07.5508 26249.6
 03 06 2013  04 45  -21.0438 26022.0 -03449.4 -07.5509 26249.6
 03 06 2013  04 46  -21.0440 26022.1 -03449.4 -07.5509 26249.7
 03 06 2013  04 47  -21.0442 26022.3 -03449.5 -07.5511 26249.9
 03 06 2013  04 48  -21.0444 26022.5 -03449.6 -07.5512 26250.1
 03 06 2013  04 49  -21.0446 26022.5 -03449.7 -07.5513 26250.2
 03 06 2013  04 50  -21.0449 26022.8 -03449.7 -07.5515 26250.4
 03 06 2013  04 51  -21.0454 26022.9 -03449.8 -07.5515 26250.6
 03 06 2013  04 52  -21.0458 26022.9 -03449.8 -07.5515 26250.5
 03 06 2013  04 53  -21.0459 26022.7 -03449.6 -07.5512 26250.3
 03 06 2013  04 54  -21.0459 26022.8 -03449.6 -07.5511 26250.5
 03 06 2013  04 55  -21.0459 26023.2 -03449.7 -07.5513 26250.8
 03 06 2013  04 56  -21.0462 26023.1 -03449.7 -07.5514 26250.8
 03 06 2013  04 57  -21.0464 26023.1 -03449.7 -07.5512 26250.8
 03 06 2013  04 58  -21.0465 26023.2 -03449.6 -07.5511 26250.8
 03 06 2013  04 59  -21.0467 26023.2 -03449.6 -07.5511 26250.8
 03 06 2013  05 00  -21.0469 26023.1 -03449.5 -07.5509 26250.7
 03 06 2013  05 01  -21.0469 26023.0 -03449.5 -07.5508 26250.6
 03 06 2013  05 02  -21.0471 26023.0 -03449.4 -07.5507 26250.6
 03 06 2013  05 03  -21.0472 26023.1 -03449.4 -07.5507 26250.7
 03 06 2013  05 04  -21.0472 26023.1 -03449.4 -07.5507 26250.7
 03 06 2013  05 05  -21.0472 26023.0 -03449.4 -07.5505 26250.6
 03 06 2013  05 06  -21.0473 26022.8 -03449.2 -07.5503 26250.4
 03 06 2013  05 07  -21.0476 26022.8 -03449.2 -07.5502 26250.4
 03 06 2013  05 08  -21.0481 26022.7 -03449.1 -07.5502 26250.3
 03 06 2013  05 09  -21.0485 26022.6 -03449.1 -07.5501 26250.2
 03 06 2013  05 10  -21.0488 26022.4 -03449.0 -07.5499 26250.0
 03 06 2013  05 11  -21.0487 26022.3 -03448.9 -07.5497 26249.9
 03 06 2013  05 12  -21.0485 26022.6 -03449.0 -07.5498 26250.1
 03 06 2013  05 13  -21.0484 26022.9 -03449.1 -07.5500 26250.4
 03 06 2013  05 14  -21.0483 26023.0 -03449.1 -07.5501 26250.5
 03 06 2013  05 15  -21.0480 26023.0 -03449.1 -07.5501 26250.6
 03 06 2013  05 16  -21.0478 26022.9 -03449.1 -07.5500 26250.5
 03 06 2013  05 17  -21.0479 26022.8 -03449.0 -07.5498 26250.4
 03 06 2013  05 18  -21.0482 26022.8 -03449.0 -07.5498 26250.4
 03 06 2013  05 19  -21.0485 26023.0 -03449.1 -07.5499 26250.5
 03 06 2013  05 20  -21.0486 26023.1 -03449.1 -07.5501 26250.7
 03 06 2013  05 21  -21.0486 26023.3 -03449.2 -07.5501 26250.9
 03 06 2013  05 22  -21.0488 26023.3 -03449.2 -07.5500 26250.9
 03 06 2013  05 23  -21.0489 26023.5 -03449.2 -07.5501 26251.0
 03 06 2013  05 24  -21.0489 26023.5 -03449.2 -07.5500 26251.1
 03 06 2013  05 25  -21.0487 26023.7 -03449.3 -07.5501 26251.3
 03 06 2013  05 26  -21.0488 26024.0 -03449.3 -07.5502 26251.6
 03 06 2013  05 27  -21.0486 26024.2 -03449.4 -07.5504 26251.8
 03 06 2013  05 28  -21.0484 26024.0 -03449.3 -07.5502 26251.6
 03 06 2013  05 29  -21.0481 26023.5 -03449.0 -07.5496 26251.1
 03 06 2013  05 30  -21.0475 26023.0 -03448.7 -07.5490 26250.5
 03 06 2013  05 31  -21.0469 26022.5 -03448.3 -07.5485 26250.0
 03 06 2013  05 32  -21.0465 26022.2 -03448.2 -07.5482 26249.6
 03 06 2013  05 33  -21.0457 26021.8 -03448.0 -07.5479 26249.2
 03 06 2013  05 34  -21.0445 26021.6 -03447.9 -07.5478 26249.0
 03 06 2013  05 35  -21.0433 26021.5 -03447.9 -07.5478 26249.0
 03 06 2013  05 36  -21.0424 26021.6 -03448.0 -07.5480 26249.0
 03 06 2013  05 37  -21.0417 26021.8 -03448.2 -07.5484 26249.2
 03 06 2013  05 38  -21.0412 26021.8 -03448.3 -07.5486 26249.2
 03 06 2013  05 39  -21.0410 26021.7 -03448.4 -07.5488 26249.2
 03 06 2013  05 40  -21.0410 26021.5 -03448.4 -07.5489 26249.0
 03 06 2013  05 41  -21.0407 26021.3 -03448.4 -07.5489 26248.8
 03 06 2013  05 42  -21.0407 26020.9 -03448.3 -07.5488 26248.4
 03 06 2013  05 43  -21.0408 26020.3 -03448.0 -07.5484 26247.8
 03 06 2013  05 44  -21.0407 26019.7 -03447.8 -07.5480 26247.2
 03 06 2013  05 45  -21.0407 26019.3 -03447.6 -07.5479 26246.7
 03 06 2013  05 46  -21.0407 26019.1 -03447.6 -07.5478 26246.5
 03 06 2013  05 47  -21.0406 26018.7 -03447.5 -07.5478 26246.1
 03 06 2013  05 48  -21.0405 26018.3 -03447.4 -07.5476 26245.7
 03 06 2013  05 49  -21.0401 26018.3 -03447.5 -07.5478 26245.7
 03 06 2013  05 50  -21.0399 26018.5 -03447.7 -07.5482 26246.0
 03 06 2013  05 51  -21.0395 26019.0 -03448.0 -07.5487 26246.4
 03 06 2013  05 52  -21.0392 26019.3 -03448.2 -07.5491 26246.8
 03 06 2013  05 53  -21.0391 26019.3 -03448.3 -07.5494 26246.8
 03 06 2013  05 54  -21.0390 26019.2 -03448.3 -07.5494 26246.7
 03 06 2013  05 55  -21.0390 26018.7 -03448.1 -07.5491 26246.2
 03 06 2013  05 56  -21.0391 26018.4 -03448.0 -07.5489 26245.9
 03 06 2013  05 57  -21.0391 26018.4 -03448.0 -07.5490 26245.9
 03 06 2013  05 58  -21.0395 26018.5 -03448.1 -07.5492 26246.0
 03 06 2013  05 59  -21.0396 26018.6 -03448.3 -07.5494 26246.2
 03 06 2013  06 00  -21.0397 26018.9 -03448.4 -07.5497 26246.4
 03 06 2013  06 01  -21.0400 26019.1 -03448.6 -07.5500 26246.7
 03 06 2013  06 02  -21.0406 26019.4 -03448.8 -07.5503 26246.9
 03 06 2013  06 03  -21.0413 26019.5 -03448.8 -07.5504 26247.1
 03 06 2013  06 04  -21.0418 26019.6 -03448.9 -07.5504 26247.1
 03 06 2013  06 05  -21.0422 26019.5 -03448.8 -07.5504 26247.1
 03 06 2013  06 06  -21.0427 26019.3 -03448.7 -07.5501 26246.9
 03 06 2013  06 07  -21.0430 26019.3 -03448.6 -07.5500 26246.8
 03 06 2013  06 08  -21.0431 26019.4 -03448.6 -07.5499 26246.9
 03 06 2013  06 09  -21.0429 26019.3 -03448.5 -07.5498 26246.9
 03 06 2013  06 10  -21.0428 26018.9 -03448.4 -07.5496 26246.5
 03 06 2013  06 11  -21.0427 26018.7 -03448.2 -07.5493 26246.2
 03 06 2013  06 12  -21.0424 26018.6 -03448.1 -07.5491 26246.1
 03 06 2013  06 13  -21.0420 26018.6 -03448.1 -07.5491 26246.1
 03 06 2013  06 14  -21.0417 26018.7 -03448.2 -07.5493 26246.2
 03 06 2013  06 15  -21.0414 26018.8 -03448.3 -07.5495 26246.3
 03 06 2013  06 16  -21.0413 26019.1 -03448.5 -07.5497 26246.6
 03 06 2013  06 17  -21.0409 26019.5 -03448.7 -07.5501 26247.1
 03 06 2013  06 18  -21.0408 26019.8 -03448.9 -07.5504 26247.4
 03 06 2013  06 19  -21.0408 26019.9 -03449.0 -07.5506 26247.5
 03 06 2013  06 20  -21.0410 26019.6 -03448.9 -07.5505 26247.2
 03 06 2013  06 21  -21.0413 26019.1 -03448.6 -07.5500 26246.7
 03 06 2013  06 22  -21.0411 26018.6 -03448.3 -07.5496 26246.1
 03 06 2013  06 23  -21.0408 26018.6 -03448.3 -07.5495 26246.2
 03 06 2013  06 24  -21.0407 26018.5 -03448.3 -07.5495 26246.0
 03 06 2013  06 25  -21.0406 26018.3 -03448.2 -07.5494 26245.8
 03 06 2013  06 26  -21.0406 26018.1 -03448.2 -07.5494 26245.6
 03 06 2013  06 27  -21.0403 26017.8 -03448.1 -07.5494 26245.3
 03 06 2013  06 28  -21.0399 26017.5 -03448.0 -07.5491 26244.9
 03 06 2013  06 29  -21.0398 26017.4 -03447.9 -07.5491 26244.8
 03 06 2013  06 30  -21.0395 26017.5 -03448.1 -07.5493 26245.0
 03 06 2013  06 31  -21.0391 26017.7 -03448.3 -07.5497 26245.2
 03 06 2013  06 32  -21.0386 26018.0 -03448.4 -07.5500 26245.5
 03 06 2013  06 33  -21.0383 26018.5 -03448.8 -07.5505 26246.1
 03 06 2013  06 34  -21.0378 26019.1 -03449.1 -07.5511 26246.7
 03 06 2013  06 35  -21.0376 26019.4 -03449.3 -07.5515 26247.0
 03 06 2013  06 36  -21.0377 26019.6 -03449.5 -07.5518 26247.3
 03 06 2013  06 37  -21.0378 26019.4 -03449.4 -07.5517 26247.0
 03 06 2013  06 38  -21.0379 26019.1 -03449.3 -07.5515 26246.8
 03 06 2013  06 39  -21.0386 26018.9 -03449.2 -07.5513 26246.5
 03 06 2013  06 40  -21.0388 26018.8 -03449.1 -07.5511 26246.4
 03 06 2013  06 41  -21.0383 26019.3 -03449.2 -07.5513 26246.9
 03 06 2013  06 42  -21.0375 26020.0 -03449.6 -07.5519 26247.7
 03 06 2013  06 43  -21.0374 26020.0 -03449.7 -07.5522 26247.7
 03 06 2013  06 44  -21.0381 26019.0 -03449.2 -07.5515 26246.6
 03 06 2013  06 45  -21.0385 26018.0 -03448.7 -07.5506 26245.6
 03 06 2013  06 46  -21.0386 26017.6 -03448.5 -07.5502 26245.2
 03 06 2013  06 47  -21.0387 26017.7 -03448.5 -07.5503 26245.3
 03 06 2013  06 48  -21.0387 26017.9 -03448.7 -07.5506 26245.5
 03 06 2013  06 49  -21.0383 26018.3 -03448.9 -07.5510 26245.9
 03 06 2013  06 50  -21.0377 26018.6 -03449.1 -07.5513 26246.2
 03 06 2013  06 51  -21.0375 26018.5 -03449.2 -07.5514 26246.2
 03 06 2013  06 52  -21.0376 26018.4 -03449.1 -07.5514 26246.0
 03 06 2013  06 53  -21.0382 26018.2 -03449.1 -07.5514 26245.8
 03 06 2013  06 54  -21.0389 26018.1 -03449.1 -07.5513 26245.8
 03 06 2013  06 55  -21.0396 26018.3 -03449.1 -07.5514 26245.9
 03 06 2013  06 56  -21.0403 26018.3 -03449.1 -07.5514 26245.9
 03 06 2013  06 57  -21.0405 26018.4 -03449.2 -07.5515 26246.0
 03 06 2013  06 58  -21.0404 26018.5 -03449.2 -07.5515 26246.2
 03 06 2013  06 59  -21.0404 26018.7 -03449.3 -07.5517 26246.3
 03 06 2013  07 00  -21.0404 26018.9 -03449.4 -07.5518 26246.5
 03 06 2013  07 01  -21.0407 26019.2 -03449.6 -07.5521 26246.9
 03 06 2013  07 02  -21.0411 26019.4 -03449.7 -07.5523 26247.1
 03 06 2013  07 03  -21.0412 26019.4 -03449.7 -07.5523 26247.1
 03 06 2013  07 04  -21.0414 26019.3 -03449.6 -07.5521 26247.0
 03 06 2013  07 05  -21.0416 26019.5 -03449.6 -07.5521 26247.2
 03 06 2013  07 06  -21.0419 26020.0 -03449.8 -07.5524 26247.7
 03 06 2013  07 07  -21.0421 26020.1 -03449.9 -07.5524 26247.8
 03 06 2013  07 08  -21.0422 26020.0 -03449.7 -07.5522 26247.7
 03 06 2013  07 09  -21.0419 26020.2 -03449.7 -07.5522 26247.9
 03 06 2013  07 10  -21.0415 26020.3 -03449.7 -07.5521 26248.0
 03 06 2013  07 11  -21.0412 26020.1 -03449.6 -07.5519 26247.8
 03 06 2013  07 12  -21.0410 26020.0 -03449.4 -07.5516 26247.6
 03 06 2013  07 13  -21.0405 26020.4 -03449.6 -07.5519 26248.1
 03 06 2013  07 14  -21.0400 26020.2 -03449.5 -07.5517 26247.8
 03 06 2013  07 15  -21.0398 26019.7 -03449.2 -07.5513 26247.3
 03 06 2013  07 16  -21.0394 26019.7 -03449.2 -07.5511 26247.4
 03 06 2013  07 17  -21.0391 26019.9 -03449.3 -07.5513 26247.5
 03 06 2013  07 18  -21.0388 26019.8 -03449.3 -07.5513 26247.4
 03 06 2013  07 19  -21.0385 26019.7 -03449.2 -07.5512 26247.3
 03 06 2013  07 20  -21.0381 26019.6 -03449.2 -07.5512 26247.2
 03 06 2013  07 21  -21.0373 26019.7 -03449.2 -07.5512 26247.3
 03 06 2013  07 22  -21.0367 26019.6 -03449.2 -07.5512 26247.3
 03 06 2013  07 23  -21.0362 26019.6 -03449.2 -07.5512 26247.2
 03 06 2013  07 24  -21.0357 26019.5 -03449.3 -07.5514 26247.2
 03 06 2013  07 25  -21.0353 26019.7 -03449.4 -07.5516 26247.4
 03 06 2013  07 26  -21.0350 26019.5 -03449.4 -07.5516 26247.2
 03 06 2013  07 27  -21.0349 26019.5 -03449.4 -07.5517 26247.1
 03 06 2013  07 28  -21.0348 26019.5 -03449.5 -07.5518 26247.2
 03 06 2013  07 29  -21.0348 26019.5 -03449.6 -07.5520 26247.2
 03 06 2013  07 30  -21.0348 26019.4 -03449.6 -07.5521 26247.1
 03 06 2013  07 31  -21.0348 26019.3 -03449.5 -07.5520 26247.0
 03 06 2013  07 32  -21.0350 26019.4 -03449.6 -07.5521 26247.1
 03 06 2013  07 33  -21.0350 26019.4 -03449.6 -07.5521 26247.1
 03 06 2013  07 34  -21.0349 26019.4 -03449.6 -07.5522 26247.1
 03 06 2013  07 35  -21.0352 26019.5 -03449.7 -07.5523 26247.2
 03 06 2013  07 36  -21.0354 26019.5 -03449.7 -07.5523 26247.2
 03 06 2013  07 37  -21.0353 26019.6 -03449.7 -07.5523 26247.3
 03 06 2013  07 38  -21.0353 26019.5 -03449.7 -07.5522 26247.2
 03 06 2013  07 39  -21.0353 26019.5 -03449.6 -07.5522 26247.2
 03 06 2013  07 40  -21.0353 26019.6 -03449.6 -07.5521 26247.2
 03 06 2013  07 41  -21.0352 26019.6 -03449.7 -07.5522 26247.3
 03 06 2013  07 42  -21.0350 26019.5 -03449.6 -07.5520 26247.1
 03 06 2013  07 43  -21.0349 26019.5 -03449.6 -07.5520 26247.2
 03 06 2013  07 44  -21.0348 26019.7 -03449.7 -07.5521 26247.4
 03 06 2013  07 45  -21.0347 26019.7 -03449.7 -07.5522 26247.4
 03 06 2013  07 46  -21.0345 26019.6 -03449.6 -07.5521 26247.3
 03 06 2013  07 47  -21.0346 26019.7 -03449.7 -07.5522 26247.4
 03 06 2013  07 48  -21.0347 26019.8 -03449.7 -07.5523 26247.4
 03 06 2013  07 49  -21.0348 26019.9 -03449.8 -07.5523 26247.6
 03 06 2013  07 50  -21.0348 26020.0 -03449.8 -07.5524 26247.7
 03 06 2013  07 51  -21.0346 26019.8 -03449.8 -07.5523 26247.5
 03 06 2013  07 52  -21.0344 26019.8 -03449.7 -07.5522 26247.5
 03 06 2013  07 53  -21.0344 26019.8 -03449.7 -07.5522 26247.5
 03 06 2013  07 54  -21.0344 26019.9 -03449.8 -07.5523 26247.6
 03 06 2013  07 55  -21.0345 26019.6 -03449.7 -07.5522 26247.3
 03 06 2013  07 56  -21.0346 26019.5 -03449.6 -07.5521 26247.2
 03 06 2013  07 57  -21.0346 26019.4 -03449.6 -07.5521 26247.1
 03 06 2013  07 58  -21.0345 26019.5 -03449.6 -07.5521 26247.2
 03 06 2013  07 59  -21.0345 26019.3 -03449.5 -07.5520 26247.0
 03 06 2013  08 00  -21.0347 26019.3 -03449.5 -07.5520 26246.9
 03 06 2013  08 01  -21.0346 26019.3 -03449.5 -07.5520 26246.9
 03 06 2013  08 02  -21.0345 26019.4 -03449.6 -07.5521 26247.0
 03 06 2013  08 03  -21.0345 26019.3 -03449.6 -07.5521 26247.0
 03 06 2013  08 04  -21.0346 26019.4 -03449.6 -07.5521 26247.1
 03 06 2013  08 05  -21.0351 26019.4 -03449.6 -07.5522 26247.0
 03 06 2013  08 06  -21.0355 26019.4 -03449.6 -07.5522 26247.1
 03 06 2013  08 07  -21.0359 26019.8 -03449.8 -07.5525 26247.5
 03 06 2013  08 08  -21.0357 26020.0 -03450.0 -07.5528 26247.7
 03 06 2013  08 09  -21.0346 26019.6 -03449.8 -07.5524 26247.3
 03 06 2013  08 10  -21.0339 26018.9 -03449.4 -07.5517 26246.6
 03 06 2013  08 11  -21.0334 26018.7 -03449.2 -07.5514 26246.3
 03 06 2013  08 12  -21.0332 26019.1 -03449.4 -07.5516 26246.7
 03 06 2013  08 13  -21.0331 26019.2 -03449.5 -07.5519 26246.9
 03 06 2013  08 14  -21.0324 26019.6 -03449.8 -07.5524 26247.3
 03 06 2013  08 15  -21.0324 26019.8 -03450.0 -07.5529 26247.5
 03 06 2013  08 16  -21.0324 26020.0 -03450.2 -07.5532 26247.7
 03 06 2013  08 17  -21.0327 26020.0 -03450.2 -07.5532 26247.8
 03 06 2013  08 18  -21.0326 26020.0 -03450.1 -07.5531 26247.7
 03 06 2013  08 19  -21.0319 26019.4 -03449.8 -07.5525 26247.1
 03 06 2013  08 20  -21.0322 26019.7 -03449.9 -07.5526 26247.4
 03 06 2013  08 21  -21.0326 26019.9 -03450.1 -07.5530 26247.6
 03 06 2013  08 22  -21.0320 26019.7 -03450.0 -07.5528 26247.4
 03 06 2013  08 23  -21.0318 26019.5 -03449.9 -07.5526 26247.2
 03 06 2013  08 24  -21.0315 26019.9 -03450.1 -07.5530 26247.6
 03 06 2013  08 25  -21.0320 26020.3 -03450.4 -07.5536 26248.1
 03 06 2013  08 26  -21.0316 26020.0 -03450.3 -07.5535 26247.8
 03 06 2013  08 27  -21.0312 26020.0 -03450.3 -07.5533 26247.7
 03 06 2013  08 28  -21.0308 26020.1 -03450.2 -07.5533 26247.8
 03 06 2013  08 29  -21.0307 26019.7 -03450.0 -07.5529 26247.4
 03 06 2013  08 30  -21.0306 26019.8 -03450.0 -07.5529 26247.5
 03 06 2013  08 31  -21.0301 26019.6 -03449.9 -07.5527 26247.3
 03 06 2013  08 32  -21.0297 26019.4 -03449.8 -07.5526 26247.1
 03 06 2013  08 33  -21.0298 26019.6 -03450.0 -07.5529 26247.4
 03 06 2013  08 34  -21.0297 26019.9 -03450.4 -07.5537 26247.7
 03 06 2013  08 35  -21.0296 26020.0 -03450.6 -07.5541 26247.8
 03 06 2013  08 36  -21.0298 26020.7 -03451.2 -07.5551 26248.6
 03 06 2013  08 37  -21.0288 26021.2 -03451.3 -07.5553 26249.1
 03 06 2013  08 38  -21.0274 26021.1 -03451.0 -07.5546 26248.9
 03 06 2013  08 39  -21.0256 26020.5 -03450.1 -07.5530 26248.3
 03 06 2013  08 40  -21.0245 26020.6 -03449.8 -07.5522 26248.3
 03 06 2013  08 41  -21.0239 26020.5 -03449.8 -07.5522 26248.2
 03 06 2013  08 42  -21.0243 26020.3 -03450.0 -07.5527 26248.0
 03 06 2013  08 43  -21.0243 26020.7 -03450.3 -07.5533 26248.4
 03 06 2013  08 44  -21.0238 26021.1 -03450.5 -07.5537 26248.9
 03 06 2013  08 45  -21.0233 26021.1 -03450.6 -07.5538 26248.9
 03 06 2013  08 46  -21.0231 26020.7 -03450.6 -07.5539 26248.5
 03 06 2013  08 47  -21.0238 26020.9 -03450.8 -07.5544 26248.7
 03 06 2013  08 48  -21.0241 26021.3 -03451.1 -07.5548 26249.1
 03 06 2013  08 49  -21.0236 26021.3 -03451.1 -07.5549 26249.2
 03 06 2013  08 50  -21.0232 26021.3 -03451.3 -07.5552 26249.2
 03 06 2013  08 51  -21.0232 26021.5 -03451.5 -07.5556 26249.4
 03 06 2013  08 52  -21.0232 26021.6 -03451.5 -07.5557 26249.5
 03 06 2013  08 53  -21.0231 26021.6 -03451.4 -07.5554 26249.5
 03 06 2013  08 54  -21.0227 26021.7 -03451.4 -07.5554 26249.6
 03 06 2013  08 55  -21.0227 26021.9 -03451.5 -07.5554 26249.8
 03 06 2013  08 56  -21.0229 26022.3 -03451.8 -07.5561 26250.3
 03 06 2013  08 57  -21.0231 26022.3 -03452.1 -07.5566 26250.3
 03 06 2013  08 58  -21.0228 26022.4 -03452.2 -07.5569 26250.4
 03 06 2013  08 59  -21.0219 26022.6 -03452.2 -07.5568 26250.6
 03 06 2013  09 00  -21.0212 26022.6 -03452.1 -07.5567 26250.6
 03 06 2013  09 01  -21.0210 26022.4 -03452.0 -07.5564 26250.4
 03 06 2013  09 02  -21.0206 26022.6 -03452.0 -07.5564 26250.6
 03 06 2013  09 03  -21.0204 26022.7 -03452.0 -07.5564 26250.7
 03 06 2013  09 04  -21.0202 26022.6 -03452.0 -07.5564 26250.6
 03 06 2013  09 05  -21.0201 26022.5 -03452.0 -07.5564 26250.5
 03 06 2013  09 06  -21.0198 26022.8 -03452.1 -07.5565 26250.7
 03 06 2013  09 07  -21.0195 26022.7 -03452.0 -07.5564 26250.7
 03 06 2013  09 08  -21.0191 26022.6 -03452.0 -07.5563 26250.5
 03 06 2013  09 09  -21.0198 26022.3 -03451.9 -07.5563 26250.3
 03 06 2013  09 10  -21.0201 26021.8 -03451.8 -07.5561 26249.7
 03 06 2013  09 11  -21.0200 26021.1 -03451.4 -07.5556 26249.0
 03 06 2013  09 12  -21.0194 26021.1 -03451.4 -07.5554 26249.0
 03 06 2013  09 13  -21.0195 26021.9 -03451.9 -07.5563 26249.9
 03 06 2013  09 14  -21.0189 26022.5 -03452.3 -07.5570 26250.5
 03 06 2013  09 15  -21.0179 26022.6 -03452.3 -07.5571 26250.6
 03 06 2013  09 16  -21.0166 26022.5 -03452.3 -07.5570 26250.5
 03 06 2013  09 17  -21.0157 26022.4 -03452.2 -07.5568 26250.3
 03 06 2013  09 18  -21.0152 26022.3 -03452.1 -07.5566 26250.3
 03 06 2013  09 19  -21.0151 26022.4 -03452.1 -07.5566 26250.3
 03 06 2013  09 20  -21.0151 26022.4 -03452.1 -07.5568 26250.3
 03 06 2013  09 21  -21.0151 26022.5 -03452.3 -07.5571 26250.5
 03 06 2013  09 22  -21.0148 26022.6 -03452.4 -07.5574 26250.6
 03 06 2013  09 23  -21.0144 26022.8 -03452.6 -07.5576 26250.9
 03 06 2013  09 24  -21.0140 26023.0 -03452.8 -07.5579 26251.0
 03 06 2013  09 25  -21.0141 26023.0 -03452.8 -07.5580 26251.1
 03 06 2013  09 26  -21.0142 26023.1 -03452.9 -07.5582 26251.2
 03 06 2013  09 27  -21.0147 26023.5 -03453.1 -07.5584 26251.5
 03 06 2013  09 28  -21.0148 26023.6 -03453.2 -07.5587 26251.7
 03 06 2013  09 29  -21.0147 26023.7 -03453.3 -07.5589 26251.8
 03 06 2013  09 30  -21.0147 26023.7 -03453.3 -07.5589 26251.8
 03 06 2013  09 31  -21.0149 26023.9 -03453.4 -07.5590 26252.0
 03 06 2013  09 32  -21.0147 26023.9 -03453.4 -07.5590 26252.1
 03 06 2013  09 33  -21.0149 26024.1 -03453.5 -07.5591 26252.2
 03 06 2013  09 34  -21.0150 26024.0 -03453.4 -07.5591 26252.1
 03 06 2013  09 35  -21.0150 26024.0 -03453.5 -07.5592 26252.2
 03 06 2013  09 36  -21.0153 26024.0 -03453.5 -07.5593 26252.2
 03 06 2013  09 37  -21.0154 26024.1 -03453.6 -07.5594 26252.2
 03 06 2013  09 38  -21.0151 26024.2 -03453.6 -07.5594 26252.4
 03 06 2013  09 39  -21.0145 26024.4 -03453.7 -07.5595 26252.5
 03 06 2013  09 40  -21.0145 26024.4 -03453.6 -07.5594 26252.5
 03 06 2013  09 41  -21.0147 26024.5 -03453.7 -07.5595 26252.6
 03 06 2013  09 42  -21.0144 26024.7 -03453.8 -07.5597 26252.9
 03 06 2013  09 43  -21.0137 26024.8 -03453.8 -07.5597 26253.0
 03 06 2013  09 44  -21.0139 26024.8 -03453.9 -07.5598 26253.0
 03 06 2013  09 45  -21.0138 26024.9 -03454.0 -07.5599 26253.1
 03 06 2013  09 46  -21.0130 26025.1 -03454.0 -07.5599 26253.3
 03 06 2013  09 47  -21.0129 26025.2 -03453.9 -07.5597 26253.4
 03 06 2013  09 48  -21.0132 26025.4 -03453.9 -07.5596 26253.6
 03 06 2013  09 49  -21.0137 26025.2 -03453.8 -07.5595 26253.4
 03 06 2013  09 50  -21.0134 26025.3 -03453.7 -07.5593 26253.5
 03 06 2013  09 51  -21.0126 26025.1 -03453.5 -07.5589 26253.2
 03 06 2013  09 52  -21.0138 26024.8 -03453.4 -07.5588 26253.0
 03 06 2013  09 53  -21.0156 26024.6 -03453.6 -07.5592 26252.8
 03 06 2013  09 54  -21.0173 26024.1 -03453.6 -07.5595 26252.2
 03 06 2013  09 55  -21.0185 26024.4 -03454.0 -07.5602 26252.7
 03 06 2013  09 56  -21.0178 26024.8 -03454.2 -07.5606 26253.1
 03 06 2013  09 57  -21.0181 26025.2 -03454.4 -07.5608 26253.5
 03 06 2013  09 58  -21.0177 26025.6 -03454.6 -07.5611 26253.8
 03 06 2013  09 59  -21.0146 26026.0 -03454.5 -07.5609 26254.3
 03 06 2013  10 00  -21.0125 26026.7 -03454.6 -07.5608 26254.9
 03 06 2013  10 01  -21.0109 26027.4 -03454.8 -07.5611 26255.7
 03 06 2013  10 02  -21.0104 26027.6 -03454.9 -07.5613 26255.9
 03 06 2013  10 03  -21.0102 26027.9 -03455.0 -07.5613 26256.2
 03 06 2013  10 04  -21.0101 26028.4 -03455.1 -07.5614 26256.7
 03 06 2013  10 05  -21.0100 26028.6 -03455.1 -07.5613 26256.9
 03 06 2013  10 06  -21.0113 26028.3 -03454.9 -07.5611 26256.6
 03 06 2013  10 07  -21.0128 26028.0 -03454.9 -07.5612 26256.3
 03 06 2013  10 08  -21.0136 26028.1 -03455.1 -07.5614 26256.4
 03 06 2013  10 09  -21.0147 26028.2 -03455.2 -07.5617 26256.5
 03 06 2013  10 10  -21.0158 26028.1 -03455.3 -07.5619 26256.5
 03 06 2013  10 11  -21.0152 26028.1 -03455.2 -07.5617 26256.4
 03 06 2013  10 12  -21.0168 26027.8 -03455.1 -07.5616 26256.1
 03 06 2013  10 13  -21.0171 26028.6 -03455.5 -07.5622 26257.0
 03 06 2013  10 14  -21.0164 26029.5 -03455.8 -07.5626 26257.9
 03 06 2013  10 15  -21.0150 26029.4 -03455.6 -07.5623 26257.8
 03 06 2013  10 16  -21.0146 26029.2 -03455.4 -07.5619 26257.5
 03 06 2013  10 17  -21.0140 26029.1 -03455.2 -07.5615 26257.5
 03 06 2013  10 18  -21.0146 26028.9 -03455.1 -07.5612 26257.2
 03 06 2013  10 19  -21.0147 26029.0 -03455.2 -07.5615 26257.3
 03 06 2013  10 20  -21.0155 26028.7 -03455.2 -07.5615 26257.0
 03 06 2013  10 21  -21.0166 26028.7 -03455.3 -07.5618 26257.0
 03 06 2013  10 22  -21.0171 26028.4 -03455.3 -07.5619 26256.8
 03 06 2013  10 23  -21.0160 26028.8 -03455.4 -07.5620 26257.2
 03 06 2013  10 24  -21.0154 26028.9 -03455.3 -07.5617 26257.2
 03 06 2013  10 25  -21.0170 26028.7 -03455.2 -07.5615 26257.1
 03 06 2013  10 26  -21.0183 26028.2 -03455.0 -07.5613 26256.5
 03 06 2013  10 27  -21.0193 26027.8 -03454.8 -07.5610 26256.1
 03 06 2013  10 28  -21.0206 26027.9 -03455.0 -07.5614 26256.2
 03 06 2013  10 29  -21.0209 26028.9 -03455.5 -07.5621 26257.2
 03 06 2013  10 30  -21.0215 26029.4 -03455.8 -07.5627 26257.8
 03 06 2013  10 31  -21.0226 26029.7 -03456.0 -07.5630 26258.1
 03 06 2013  10 32  -21.0211 26030.5 -03456.1 -07.5630 26258.9
 03 06 2013  10 33  -21.0183 26031.6 -03456.2 -07.5628 26260.0
 03 06 2013  10 34  -21.0155 26033.3 -03456.4 -07.5627 26261.8
 03 06 2013  10 35  -21.0148 26034.0 -03456.3 -07.5625 26262.4
 03 06 2013  10 36  -21.0168 26033.3 -03456.0 -07.5619 26261.7
 03 06 2013  10 37  -21.0193 26033.0 -03455.8 -07.5616 26261.4
 03 06 2013  10 38  -21.0208 26033.2 -03455.9 -07.5617 26261.6
 03 06 2013  10 39  -21.0213 26033.7 -03456.0 -07.5619 26262.1
 03 06 2013  10 40  -21.0217 26034.0 -03456.0 -07.5618 26262.4
 03 06 2013  10 41  -21.0220 26034.0 -03455.8 -07.5614 26262.3
 03 06 2013  10 42  -21.0223 26033.9 -03455.6 -07.5610 26262.2
 03 06 2013  10 43  -21.0223 26033.9 -03455.5 -07.5608 26262.3
 03 06 2013  10 44  -21.0219 26034.1 -03455.5 -07.5607 26262.4
 03 06 2013  10 45  -21.0219 26034.1 -03455.5 -07.5605 26262.4
 03 06 2013  10 46  -21.0218 26034.0 -03455.4 -07.5604 26262.3
 03 06 2013  10 47  -21.0222 26034.0 -03455.3 -07.5603 26262.3
 03 06 2013  10 48  -21.0229 26034.0 -03455.4 -07.5604 26262.3
 03 06 2013  10 49  -21.0234 26034.2 -03455.5 -07.5607 26262.5
 03 06 2013  10 50  -21.0243 26034.5 -03455.8 -07.5612 26262.9
 03 06 2013  10 51  -21.0246 26034.9 -03456.1 -07.5618 26263.3
 03 06 2013  10 52  -21.0240 26035.5 -03456.3 -07.5621 26263.9
 03 06 2013  10 53  -21.0233 26036.5 -03456.6 -07.5623 26265.0
 03 06 2013  10 54  -21.0231 26037.1 -03456.5 -07.5620 26265.5
 03 06 2013  10 55  -21.0227 26037.1 -03456.2 -07.5614 26265.5
 03 06 2013  10 56  -21.0224 26036.7 -03455.9 -07.5607 26265.1
 03 06 2013  10 57  -21.0227 26036.1 -03455.6 -07.5603 26264.5
 03 06 2013  10 58  -21.0232 26036.5 -03455.8 -07.5605 26264.8
 03 06 2013  10 59  -21.0239 26037.4 -03456.1 -07.5610 26265.8
 03 06 2013  11 00  -21.0241 26037.6 -03456.2 -07.5611 26266.0
 03 06 2013  11 01  -21.0247 26037.5 -03456.1 -07.5609 26265.9
 03 06 2013  11 02  -21.0256 26037.6 -03456.1 -07.5610 26266.0
 03 06 2013  11 03  -21.0257 26037.9 -03456.2 -07.5610 26266.3
 03 06 2013  11 04  -21.0257 26038.3 -03456.3 -07.5612 26266.7
 03 06 2013  11 05  -21.0258 26038.6 -03456.3 -07.5611 26267.0
 03 06 2013  11 06  -21.0260 26038.7 -03456.3 -07.5610 26267.1
 03 06 2013  11 07  -21.0262 26038.9 -03456.2 -07.5609 26267.2
 03 06 2013  11 08  -21.0266 26038.8 -03456.2 -07.5607 26267.2
 03 06 2013  11 09  -21.0269 26038.5 -03456.0 -07.5605 26266.9
 03 06 2013  11 10  -21.0271 26038.6 -03456.0 -07.5604 26266.9
 03 06 2013  11 11  -21.0272 26039.0 -03456.2 -07.5607 26267.4
 03 06 2013  11 12  -21.0275 26039.6 -03456.3 -07.5609 26268.0
 03 06 2013  11 13  -21.0278 26040.0 -03456.5 -07.5610 26268.4
 03 06 2013  11 14  -21.0278 26040.2 -03456.5 -07.5611 26268.6
 03 06 2013  11 15  -21.0280 26040.2 -03456.5 -07.5610 26268.6
 03 06 2013  11 16  -21.0282 26040.7 -03456.5 -07.5609 26269.1
 03 06 2013  11 17  -21.0282 26041.5 -03456.6 -07.5609 26269.9
 03 06 2013  11 18  -21.0282 26041.9 -03456.5 -07.5607 26270.2
 03 06 2013  11 19  -21.0286 26041.6 -03456.3 -07.5602 26270.0
 03 06 2013  11 20  -21.0290 26041.6 -03456.2 -07.5600 26270.0
 03 06 2013  11 21  -21.0287 26041.9 -03456.2 -07.5599 26270.3
 03 06 2013  11 22  -21.0284 26042.4 -03456.3 -07.5600 26270.8
 03 06 2013  11 23  -21.0283 26042.8 -03456.4 -07.5601 26271.2
 03 06 2013  11 24  -21.0286 26043.3 -03456.5 -07.5603 26271.6
 03 06 2013  11 25  -21.0292 26043.9 -03456.7 -07.5604 26272.3
 03 06 2013  11 26  -21.0294 26044.4 -03456.7 -07.5604 26272.8
 03 06 2013  11 27  -21.0299 26044.5 -03456.6 -07.5601 26272.9
 03 06 2013  11 28  -21.0301 26044.6 -03456.5 -07.5597 26273.0
 03 06 2013  11 29  -21.0291 26045.1 -03456.4 -07.5593 26273.5
 03 06 2013  11 30  -21.0285 26045.4 -03456.1 -07.5588 26273.7
 03 06 2013  11 31  -21.0286 26045.5 -03456.0 -07.5584 26273.8
 03 06 2013  11 32  -21.0288 26045.6 -03455.8 -07.5581 26273.9
 03 06 2013  11 33  -21.0292 26045.9 -03455.8 -07.5579 26274.2
 03 06 2013  11 34  -21.0294 26046.6 -03455.9 -07.5579 26274.9
 03 06 2013  11 35  -21.0304 26046.8 -03455.8 -07.5577 26275.1
 03 06 2013  11 36  -21.0309 26047.0 -03455.7 -07.5574 26275.2
 03 06 2013  11 37  -21.0318 26047.0 -03455.5 -07.5570 26275.2
 03 06 2013  11 38  -21.0327 26046.2 -03455.1 -07.5563 26274.4
 03 06 2013  11 39  -21.0319 26045.7 -03454.7 -07.5556 26273.8
 03 06 2013  11 40  -21.0303 26046.6 -03454.9 -07.5558 26274.7
 03 06 2013  11 41  -21.0298 26047.8 -03455.3 -07.5563 26276.0
 03 06 2013  11 42  -21.0307 26048.2 -03455.3 -07.5562 26276.4
 03 06 2013  11 43  -21.0317 26047.9 -03455.0 -07.5556 26276.0
 03 06 2013  11 44  -21.0322 26046.9 -03454.5 -07.5548 26275.0
 03 06 2013  11 45  -21.0315 26046.5 -03454.3 -07.5546 26274.6
 03 06 2013  11 46  -21.0310 26047.1 -03454.6 -07.5550 26275.2
 03 06 2013  11 47  -21.0312 26047.8 -03454.9 -07.5553 26275.9
 03 06 2013  11 48  -21.0312 26047.8 -03454.7 -07.5551 26275.9
 03 06 2013  11 49  -21.0310 26047.6 -03454.6 -07.5548 26275.7
 03 06 2013  11 50  -21.0313 26048.1 -03454.7 -07.5548 26276.2
 03 06 2013  11 51  -21.0320 26048.7 -03454.8 -07.5549 26276.8
 03 06 2013  11 52  -21.0329 26049.1 -03454.8 -07.5548 26277.2
 03 06 2013  11 53  -21.0333 26048.9 -03454.6 -07.5545 26277.0
 03 06 2013  11 54  -21.0336 26049.4 -03454.7 -07.5545 26277.4
 03 06 2013  11 55  -21.0345 26050.2 -03454.9 -07.5547 26278.3
 03 06 2013  11 56  -21.0347 26050.7 -03454.8 -07.5544 26278.8
 03 06 2013  11 57  -21.0345 26050.7 -03454.6 -07.5539 26278.8
 03 06 2013  11 58  -21.0351 26050.9 -03454.5 -07.5536 26279.0
 03 06 2013  11 59  -21.0371 26051.4 -03454.5 -07.5535 26279.4
 03 06 2013  12 00  -21.0376 26051.6 -03454.2 -07.5529 26279.6
 03 06 2013  12 01  -21.0374 26051.6 -03454.0 -07.5523 26279.5
 03 06 2013  12 02  -21.0376 26051.7 -03453.9 -07.5521 26279.6
 03 06 2013  12 03  -21.0381 26051.3 -03453.7 -07.5518 26279.2
 03 06 2013  12 04  -21.0388 26051.1 -03453.6 -07.5516 26279.0
 03 06 2013  12 05  -21.0389 26051.4 -03453.6 -07.5517 26279.3
 03 06 2013  12 06  -21.0391 26051.5 -03453.6 -07.5515 26279.4
 03 06 2013  12 07  -21.0398 26051.3 -03453.5 -07.5514 26279.2
 03 06 2013  12 08  -21.0404 26051.2 -03453.4 -07.5513 26279.1
 03 06 2013  12 09  -21.0401 26051.5 -03453.5 -07.5513 26279.4
 03 06 2013  12 10  -21.0394 26051.8 -03453.4 -07.5511 26279.7
 03 06 2013  12 11  -21.0391 26052.2 -03453.5 -07.5512 26280.1
 03 06 2013  12 12  -21.0388 26052.5 -03453.5 -07.5511 26280.5
 03 06 2013  12 13  -21.0396 26052.6 -03453.5 -07.5509 26280.5
 03 06 2013  12 14  -21.0410 26052.5 -03453.3 -07.5507 26280.3
 03 06 2013  12 15  -21.0417 26052.4 -03453.3 -07.5506 26280.3
 03 06 2013  12 16  -21.0420 26052.4 -03453.3 -07.5505 26280.3
 03 06 2013  12 17  -21.0422 26052.4 -03453.3 -07.5506 26280.2
 03 06 2013  12 18  -21.0419 26052.4 -03453.2 -07.5505 26280.2
 03 06 2013  12 19  -21.0414 26052.6 -03453.3 -07.5505 26280.5
 03 06 2013  12 20  -21.0413 26053.1 -03453.4 -07.5507 26281.0
 03 06 2013  12 21  -21.0409 26053.3 -03453.4 -07.5506 26281.2
 03 06 2013  12 22  -21.0404 26054.1 -03453.6 -07.5509 26282.0
 03 06 2013  12 23  -21.0398 26055.0 -03453.8 -07.5510 26282.9
 03 06 2013  12 24  -21.0392 26055.8 -03454.1 -07.5514 26283.7
 03 06 2013  12 25  -21.0393 26056.1 -03454.1 -07.5512 26284.0
 03 06 2013  12 26  -21.0388 26057.0 -03454.3 -07.5515 26284.9
 03 06 2013  12 27  -21.0386 26057.7 -03454.5 -07.5517 26285.7
 03 06 2013  12 28  -21.0392 26058.5 -03454.7 -07.5518 26286.5
 03 06 2013  12 29  -21.0393 26058.5 -03454.5 -07.5514 26286.5
 03 06 2013  12 30  -21.0385 26058.6 -03454.1 -07.5506 26286.6
 03 06 2013  12 31  -21.0377 26058.8 -03453.8 -07.5499 26286.7
 03 06 2013  12 32  -21.0375 26058.9 -03453.6 -07.5494 26286.7
 03 06 2013  12 33  -21.0376 26058.7 -03453.3 -07.5488 26286.5
 03 06 2013  12 34  -21.0383 26058.2 -03453.0 -07.5483 26286.0
 03 06 2013  12 35  -21.0384 26058.6 -03453.1 -07.5484 26286.4
 03 06 2013  12 36  -21.0383 26059.1 -03453.2 -07.5486 26286.9
 03 06 2013  12 37  -21.0385 26058.8 -03453.1 -07.5484 26286.6
 03 06 2013  12 38  -21.0385 26058.7 -03453.2 -07.5485 26286.5
 03 06 2013  12 39  -21.0383 26058.8 -03453.3 -07.5487 26286.6
 03 06 2013  12 40  -21.0373 26059.2 -03453.5 -07.5491 26287.1
 03 06 2013  12 41  -21.0368 26060.3 -03454.0 -07.5498 26288.2
 03 06 2013  12 42  -21.0371 26061.9 -03454.5 -07.5506 26289.9
 03 06 2013  12 43  -21.0373 26063.4 -03454.9 -07.5510 26291.4
 03 06 2013  12 44  -21.0367 26063.5 -03454.6 -07.5503 26291.4
 03 06 2013  12 45  -21.0359 26062.8 -03454.1 -07.5493 26290.7
 03 06 2013  12 46  -21.0360 26063.0 -03454.1 -07.5492 26290.9
 03 06 2013  12 47  -21.0361 26064.2 -03454.5 -07.5499 26292.1
 03 06 2013  12 48  -21.0372 26064.9 -03454.8 -07.5502 26292.9
 03 06 2013  12 49  -21.0367 26062.0 -03453.2 -07.5476 26289.8
 03 06 2013  12 50  -21.0382 26060.8 -03452.8 -07.5472 26288.5
 03 06 2013  12 51  -21.0383 26061.2 -03453.2 -07.5480 26289.0
 03 06 2013  12 52  -21.0388 26062.5 -03454.0 -07.5493 26290.4
 03 06 2013  12 53  -21.0391 26062.9 -03454.2 -07.5495 26290.8
 03 06 2013  12 54  -21.0393 26062.9 -03454.1 -07.5493 26290.8
 03 06 2013  12 55  -21.0398 26062.3 -03453.8 -07.5489 26290.2
 03 06 2013  12 56  -21.0398 26062.3 -03453.8 -07.5488 26290.2
 03 06 2013  12 57  -21.0396 26062.4 -03453.8 -07.5488 26290.3
 03 06 2013  12 58  -21.0392 26062.4 -03453.7 -07.5487 26290.3
 03 06 2013  12 59  -21.0388 26063.0 -03453.9 -07.5489 26290.9
 03 06 2013  13 00  -21.0386 26064.1 -03454.3 -07.5495 26292.1
 03 06 2013  13 01  -21.0382 26064.7 -03454.4 -07.5496 26292.6
 03 06 2013  13 02  -21.0381 26064.1 -03454.1 -07.5490 26292.0
 03 06 2013  13 03  -21.0384 26063.7 -03453.8 -07.5484 26291.5
 03 06 2013  13 04  -21.0388 26063.6 -03453.8 -07.5484 26291.5
 03 06 2013  13 05  -21.0389 26063.8 -03453.8 -07.5485 26291.6
 03 06 2013  13 06  -21.0386 26064.4 -03454.0 -07.5488 26292.2
 03 06 2013  13 07  -21.0385 26064.7 -03454.1 -07.5489 26292.6
 03 06 2013  13 08  -21.0388 26064.7 -03454.0 -07.5487 26292.5
 03 06 2013  13 09  -21.0392 26064.4 -03453.8 -07.5484 26292.2
 03 06 2013  13 10  -21.0389 26064.3 -03453.7 -07.5482 26292.2
 03 06 2013  13 11  -21.0386 26064.5 -03453.8 -07.5482 26292.3
 03 06 2013  13 12  -21.0389 26064.6 -03453.9 -07.5484 26292.5
 03 06 2013  13 13  -21.0401 26064.6 -03454.0 -07.5486 26292.5
 03 06 2013  13 14  -21.0406 26064.9 -03454.0 -07.5487 26292.7
 03 06 2013  13 15  -21.0407 26065.4 -03454.2 -07.5489 26293.3
 03 06 2013  13 16  -21.0408 26065.6 -03454.2 -07.5489 26293.5
 03 06 2013  13 17  -21.0410 26065.4 -03454.1 -07.5486 26293.2
 03 06 2013  13 18  -21.0412 26065.4 -03454.0 -07.5485 26293.3
 03 06 2013  13 19  -21.0416 26065.3 -03453.9 -07.5483 26293.1
 03 06 2013  13 20  -21.0417 26065.3 -03453.9 -07.5482 26293.1
 03 06 2013  13 21  -21.0418 26065.8 -03454.1 -07.5485 26293.6
 03 06 2013  13 22  -21.0418 26065.8 -03454.0 -07.5484 26293.7
 03 06 2013  13 23  -21.0421 26065.5 -03453.8 -07.5480 26293.3
 03 06 2013  13 24  -21.0425 26065.3 -03453.7 -07.5478 26293.1
 03 06 2013  13 25  -21.0424 26065.2 -03453.6 -07.5476 26293.0
 03 06 2013  13 26  -21.0424 26065.2 -03453.6 -07.5477 26293.0
 03 06 2013  13 27  -21.0423 26065.0 -03453.6 -07.5476 26292.8
 03 06 2013  13 28  -21.0421 26065.4 -03453.8 -07.5480 26293.2
 03 06 2013  13 29  -21.0420 26065.8 -03453.9 -07.5480 26293.7
 03 06 2013  13 30  -21.0423 26065.7 -03453.8 -07.5480 26293.5
 03 06 2013  13 31  -21.0419 26065.5 -03453.6 -07.5475 26293.3
 03 06 2013  13 32  -21.0419 26065.2 -03453.4 -07.5472 26293.0
 03 06 2013  13 33  -21.0419 26065.0 -03453.3 -07.5471 26292.8
 03 06 2013  13 34  -21.0420 26065.2 -03453.4 -07.5472 26293.0
 03 06 2013  13 35  -21.0423 26065.5 -03453.5 -07.5473 26293.3
 03 06 2013  13 36  -21.0425 26065.4 -03453.5 -07.5473 26293.2
 03 06 2013  13 37  -21.0426 26065.2 -03453.4 -07.5471 26292.9
 03 06 2013  13 38  -21.0425 26065.0 -03453.3 -07.5471 26292.8
 03 06 2013  13 39  -21.0426 26065.2 -03453.4 -07.5473 26293.0
 03 06 2013  13 40  -21.0428 26065.4 -03453.6 -07.5475 26293.2
 03 06 2013  13 41  -21.0430 26065.2 -03453.4 -07.5472 26293.0
 03 06 2013  13 42  -21.0430 26065.0 -03453.3 -07.5470 26292.7
 03 06 2013  13 43  -21.0435 26064.6 -03453.2 -07.5469 26292.4
 03 06 2013  13 44  -21.0436 26064.3 -03453.1 -07.5467 26292.1
 03 06 2013  13 45  -21.0435 26064.2 -03453.0 -07.5467 26291.9
 03 06 2013  13 46  -21.0435 26064.3 -03453.1 -07.5468 26292.0
 03 06 2013  13 47  -21.0434 26064.3 -03453.1 -07.5468 26292.1
 03 06 2013  13 48  -21.0433 26064.3 -03453.1 -07.5467 26292.1
 03 06 2013  13 49  -21.0431 26064.3 -03453.0 -07.5466 26292.0
 03 06 2013  13 50  -21.0429 26064.4 -03453.0 -07.5466 26292.2
 03 06 2013  13 51  -21.0427 26064.9 -03453.2 -07.5469 26292.7
 03 06 2013  13 52  -21.0426 26065.0 -03453.2 -07.5469 26292.7
 03 06 2013  13 53  -21.0426 26064.6 -03453.0 -07.5465 26292.3
 03 06 2013  13 54  -21.0425 26064.3 -03452.8 -07.5462 26292.0
 03 06 2013  13 55  -21.0422 26064.3 -03452.8 -07.5461 26292.0
 03 06 2013  13 56  -21.0421 26063.9 -03452.7 -07.5461 26291.6
 03 06 2013  13 57  -21.0420 26063.8 -03452.7 -07.5461 26291.5
 03 06 2013  13 58  -21.0423 26063.9 -03452.8 -07.5463 26291.6
 03 06 2013  13 59  -21.0427 26063.9 -03452.9 -07.5464 26291.6
 03 06 2013  14 00  -21.0431 26063.8 -03452.8 -07.5462 26291.5
 03 06 2013  14 01  -21.0434 26063.6 -03452.7 -07.5460 26291.3
 03 06 2013  14 02  -21.0442 26063.4 -03452.6 -07.5460 26291.1
 03 06 2013  14 03  -21.0437 26062.4 -03452.1 -07.5453 26290.0
 03 06 2013  14 04  -21.0439 26062.3 -03452.2 -07.5454 26289.9
 03 06 2013  14 05  -21.0442 26062.7 -03452.5 -07.5459 26290.3
 03 06 2013  14 06  -21.0447 26062.9 -03452.6 -07.5462 26290.6
 03 06 2013  14 07  -21.0454 26062.8 -03452.5 -07.5460 26290.5
 03 06 2013  14 08  -21.0462 26063.1 -03452.5 -07.5459 26290.8
 03 06 2013  14 09  -21.0469 26063.2 -03452.5 -07.5457 26290.9
 03 06 2013  14 10  -21.0475 26062.6 -03452.1 -07.5451 26290.3
 03 06 2013  14 11  -21.0481 26062.1 -03451.7 -07.5445 26289.7
 03 06 2013  14 12  -21.0480 26061.5 -03451.4 -07.5439 26289.0
 03 06 2013  14 13  -21.0471 26060.8 -03451.0 -07.5434 26288.3
 03 06 2013  14 14  -21.0467 26061.1 -03451.3 -07.5439 26288.7
 03 06 2013  14 15  -21.0473 26061.5 -03451.8 -07.5447 26289.1
 03 06 2013  14 16  -21.0481 26061.9 -03452.0 -07.5451 26289.5
 03 06 2013  14 17  -21.0499 26062.7 -03452.4 -07.5458 26290.4
 03 06 2013  14 18  -21.0513 26063.1 -03452.4 -07.5457 26290.8
 03 06 2013  14 19  -21.0520 26063.0 -03452.1 -07.5450 26290.6
 03 06 2013  14 20  -21.0525 26063.3 -03452.0 -07.5447 26290.9
 03 06 2013  14 21  -21.0522 26063.2 -03451.7 -07.5441 26290.8
 03 06 2013  14 22  -21.0511 26063.7 -03451.9 -07.5444 26291.3
 03 06 2013  14 23  -21.0510 26064.2 -03452.3 -07.5451 26291.9
 03 06 2013  14 24  -21.0513 26065.0 -03452.8 -07.5460 26292.7
 03 06 2013  14 25  -21.0532 26066.1 -03453.1 -07.5463 26293.9
 03 06 2013  14 26  -21.0555 26066.0 -03452.7 -07.5454 26293.7
 03 06 2013  14 27  -21.0552 26065.2 -03451.6 -07.5434 26292.7
 03 06 2013  14 28  -21.0544 26064.4 -03450.9 -07.5420 26291.9
 03 06 2013  14 29  -21.0539 26063.8 -03450.6 -07.5416 26291.3
 03 06 2013  14 30  -21.0539 26063.3 -03450.4 -07.5413 26290.7
 03 06 2013  14 31  -21.0535 26063.1 -03450.4 -07.5414 26290.5
 03 06 2013  14 32  -21.0542 26063.6 -03450.7 -07.5418 26291.0
 03 06 2013  14 33  -21.0552 26064.4 -03451.0 -07.5423 26291.9
 03 06 2013  14 34  -21.0560 26064.4 -03450.9 -07.5420 26291.8
 03 06 2013  14 35  -21.0564 26064.0 -03450.6 -07.5415 26291.4
 03 06 2013  14 36  -21.0567 26063.4 -03450.3 -07.5410 26290.8
 03 06 2013  14 37  -21.0568 26062.8 -03450.0 -07.5405 26290.1
 03 06 2013  14 38  -21.0567 26062.6 -03449.9 -07.5405 26289.9
 03 06 2013  14 39  -21.0569 26062.8 -03450.1 -07.5408 26290.1
 03 06 2013  14 40  -21.0576 26062.8 -03450.2 -07.5410 26290.1
 03 06 2013  14 41  -21.0581 26062.7 -03450.2 -07.5411 26290.1
 03 06 2013  14 42  -21.0585 26062.6 -03450.2 -07.5411 26290.0
 03 06 2013  14 43  -21.0586 26062.4 -03450.2 -07.5410 26289.7
 03 06 2013  14 44  -21.0589 26062.2 -03450.1 -07.5409 26289.6
 03 06 2013  14 45  -21.0590 26062.2 -03450.2 -07.5410 26289.5
 03 06 2013  14 46  -21.0595 26062.3 -03450.3 -07.5413 26289.7
 03 06 2013  14 47  -21.0598 26061.9 -03450.1 -07.5411 26289.2
 03 06 2013  14 48  -21.0597 26061.0 -03449.8 -07.5407 26288.4
 03 06 2013  14 49  -21.0595 26060.3 -03449.6 -07.5403 26287.6
 03 06 2013  14 50  -21.0603 26060.3 -03449.7 -07.5406 26287.6
 03 06 2013  14 51  -21.0598 26060.1 -03449.6 -07.5406 26287.4
 03 06 2013  14 52  -21.0601 26060.0 -03449.8 -07.5408 26287.3
 03 06 2013  14 53  -21.0605 26059.8 -03449.7 -07.5407 26287.1
 03 06 2013  14 54  -21.0605 26059.7 -03449.6 -07.5405 26287.0
 03 06 2013  14 55  -21.0606 26059.8 -03449.6 -07.5405 26287.1
 03 06 2013  14 56  -21.0607 26060.4 -03449.8 -07.5409 26287.7
 03 06 2013  14 57  -21.0611 26060.8 -03449.9 -07.5410 26288.2
 03 06 2013  14 58  -21.0618 26061.7 -03450.2 -07.5412 26289.0
 03 06 2013  14 59  -21.0624 26062.5 -03450.2 -07.5412 26289.8
 03 06 2013  15 00  -21.0630 26063.3 -03450.3 -07.5411 26290.7
 03 06 2013  15 01  -21.0631 26063.4 -03450.1 -07.5405 26290.8
 03 06 2013  15 02  -21.0627 26063.4 -03449.8 -07.5398 26290.7
 03 06 2013  15 03  -21.0628 26063.5 -03449.7 -07.5396 26290.8
 03 06 2013  15 04  -21.0631 26063.4 -03449.5 -07.5392 26290.7
 03 06 2013  15 05  -21.0635 26063.4 -03449.3 -07.5389 26290.6
 03 06 2013  15 06  -21.0637 26062.8 -03449.0 -07.5384 26290.1
 03 06 2013  15 07  -21.0642 26062.4 -03448.7 -07.5379 26289.6
 03 06 2013  15 08  -21.0637 26062.0 -03448.5 -07.5375 26289.2
 03 06 2013  15 09  -21.0646 26061.7 -03448.5 -07.5376 26288.8
 03 06 2013  15 10  -21.0652 26061.5 -03448.5 -07.5377 26288.7
 03 06 2013  15 11  -21.0655 26061.2 -03448.5 -07.5377 26288.4
 03 06 2013  15 12  -21.0659 26060.9 -03448.4 -07.5376 26288.0
 03 06 2013  15 13  -21.0661 26060.6 -03448.3 -07.5376 26287.7
 03 06 2013  15 14  -21.0665 26060.5 -03448.4 -07.5377 26287.6
 03 06 2013  15 15  -21.0672 26060.5 -03448.5 -07.5379 26287.7
 03 06 2013  15 16  -21.0675 26060.4 -03448.4 -07.5379 26287.5
 03 06 2013  15 17  -21.0680 26060.5 -03448.6 -07.5381 26287.6
 03 06 2013  15 18  -21.0685 26060.7 -03448.7 -07.5383 26287.9
 03 06 2013  15 19  -21.0693 26060.8 -03448.7 -07.5383 26288.0
 03 06 2013  15 20  -21.0695 26059.8 -03448.1 -07.5373 26286.9
 03 06 2013  15 21  -21.0687 26059.1 -03447.8 -07.5368 26286.2
 03 06 2013  15 22  -21.0691 26058.9 -03447.8 -07.5369 26286.0
 03 06 2013  15 23  -21.0696 26058.9 -03448.0 -07.5372 26286.0
 03 06 2013  15 24  -21.0699 26059.0 -03448.0 -07.5373 26286.1
 03 06 2013  15 25  -21.0700 26058.9 -03448.0 -07.5372 26286.0
 03 06 2013  15 26  -21.0699 26058.8 -03447.9 -07.5371 26285.9
 03 06 2013  15 27  -21.0700 26058.6 -03447.8 -07.5369 26285.7
 03 06 2013  15 28  -21.0700 26058.6 -03447.8 -07.5369 26285.7
 03 06 2013  15 29  -21.0698 26058.8 -03447.8 -07.5370 26285.9
 03 06 2013  15 30  -21.0695 26058.6 -03447.8 -07.5369 26285.7
 03 06 2013  15 31  -21.0690 26058.8 -03447.8 -07.5370 26285.9
 03 06 2013  15 32  -21.0694 26059.2 -03448.1 -07.5374 26286.3
 03 06 2013  15 33  -21.0697 26059.3 -03448.1 -07.5373 26286.4
 03 06 2013  15 34  -21.0695 26059.2 -03447.9 -07.5371 26286.3
 03 06 2013  15 35  -21.0692 26059.0 -03447.8 -07.5368 26286.1
 03 06 2013  15 36  -21.0693 26059.0 -03447.8 -07.5368 26286.1
 03 06 2013  15 37  -21.0694 26059.0 -03447.9 -07.5370 26286.1
 03 06 2013  15 38  -21.0695 26059.1 -03447.9 -07.5371 26286.2
 03 06 2013  15 39  -21.0695 26059.1 -03447.9 -07.5371 26286.2
 03 06 2013  15 40  -21.0694 26058.8 -03447.8 -07.5369 26285.9
 03 06 2013  15 41  -21.0692 26058.4 -03447.7 -07.5368 26285.5
 03 06 2013  15 42  -21.0691 26058.0 -03447.6 -07.5366 26285.1
 03 06 2013  15 43  -21.0689 26057.4 -03447.4 -07.5365 26284.5
 03 06 2013  15 44  -21.0689 26057.1 -03447.4 -07.5365 26284.1
 03 06 2013  15 45  -21.0694 26057.0 -03447.5 -07.5367 26284.1
 03 06 2013  15 46  -21.0697 26057.1 -03447.5 -07.5369 26284.2
 03 06 2013  15 47  -21.0702 26057.2 -03447.6 -07.5369 26284.3
 03 06 2013  15 48  -21.0706 26057.2 -03447.5 -07.5367 26284.2
 03 06 2013  15 49  -21.0709 26056.7 -03447.3 -07.5364 26283.8
 03 06 2013  15 50  -21.0709 26056.2 -03447.0 -07.5359 26283.2
 03 06 2013  15 51  -21.0710 26055.7 -03446.8 -07.5356 26282.7
 03 06 2013  15 52  -21.0712 26055.6 -03446.8 -07.5356 26282.6
 03 06 2013  15 53  -21.0713 26055.5 -03446.7 -07.5356 26282.5
 03 06 2013  15 54  -21.0715 26055.5 -03446.7 -07.5356 26282.5
 03 06 2013  15 55  -21.0717 26055.3 -03446.6 -07.5353 26282.3
 03 06 2013  15 56  -21.0714 26055.0 -03446.3 -07.5349 26281.9
 03 06 2013  15 57  -21.0713 26055.0 -03446.3 -07.5349 26281.9
 03 06 2013  15 58  -21.0719 26055.6 -03446.6 -07.5352 26282.6
 03 06 2013  15 59  -21.0721 26055.7 -03446.5 -07.5349 26282.6
 03 06 2013  16 00  -21.0719 26055.0 -03445.9 -07.5340 26281.9
 03 06 2013  16 01  -21.0714 26054.4 -03445.5 -07.5332 26281.2
 03 06 2013  16 02  -21.0711 26054.0 -03445.3 -07.5328 26280.8
 03 06 2013  16 03  -21.0711 26054.1 -03445.2 -07.5327 26280.9
 03 06 2013  16 04  -21.0718 26054.2 -03445.2 -07.5325 26281.0
 03 06 2013  16 05  -21.0714 26053.8 -03444.7 -07.5316 26280.5
 03 06 2013  16 06  -21.0710 26053.1 -03444.2 -07.5307 26279.8
 03 06 2013  16 07  -21.0705 26052.8 -03443.9 -07.5302 26279.5
 03 06 2013  16 08  -21.0699 26052.7 -03443.7 -07.5298 26279.3
 03 06 2013  16 09  -21.0696 26052.9 -03443.7 -07.5297 26279.5
 03 06 2013  16 10  -21.0691 26053.1 -03443.6 -07.5294 26279.7
 03 06 2013  16 11  -21.0682 26053.0 -03443.2 -07.5287 26279.5
 03 06 2013  16 12  -21.0673 26053.2 -03443.0 -07.5282 26279.7
 03 06 2013  16 13  -21.0666 26053.4 -03442.8 -07.5276 26279.9
 03 06 2013  16 14  -21.0657 26053.5 -03442.5 -07.5271 26280.0
 03 06 2013  16 15  -21.0647 26053.7 -03442.3 -07.5265 26280.1
 03 06 2013  16 16  -21.0644 26054.2 -03442.3 -07.5263 26280.7
 03 06 2013  16 17  -21.0638 26054.6 -03442.1 -07.5258 26281.0
 03 06 2013  16 18  -21.0631 26054.6 -03441.8 -07.5252 26281.0
 03 06 2013  16 19  -21.0628 26054.5 -03441.6 -07.5247 26280.8
 03 06 2013  16 20  -21.0623 26054.1 -03441.2 -07.5240 26280.3
 03 06 2013  16 21  -21.0619 26053.6 -03440.9 -07.5235 26279.8
 03 06 2013  16 22  -21.0616 26053.2 -03440.7 -07.5232 26279.4
 03 06 2013  16 23  -21.0614 26052.6 -03440.5 -07.5228 26278.8
 03 06 2013  16 24  -21.0613 26051.8 -03440.2 -07.5225 26277.9
 03 06 2013  16 25  -21.0610 26050.9 -03439.9 -07.5222 26277.1
 03 06 2013  16 26  -21.0607 26050.3 -03439.9 -07.5222 26276.5
 03 06 2013  16 27  -21.0605 26049.9 -03439.8 -07.5223 26276.0
 03 06 2013  16 28  -21.0603 26049.7 -03440.0 -07.5226 26275.9
 03 06 2013  16 29  -21.0606 26049.9 -03440.2 -07.5230 26276.1
 03 06 2013  16 30  -21.0607 26050.1 -03440.3 -07.5232 26276.3
 03 06 2013  16 31  -21.0609 26050.1 -03440.2 -07.5230 26276.3
 03 06 2013  16 32  -21.0606 26049.9 -03440.0 -07.5226 26276.1
 03 06 2013  16 33  -21.0605 26049.9 -03439.9 -07.5223 26276.0
 03 06 2013  16 34  -21.0604 26050.3 -03439.9 -07.5222 26276.4
 03 06 2013  16 35  -21.0601 26050.8 -03439.9 -07.5222 26276.9
 03 06 2013  16 36  -21.0596 26050.9 -03439.8 -07.5218 26277.0
 03 06 2013  16 37  -21.0589 26050.9 -03439.6 -07.5214 26277.0
 03 06 2013  16 38  -21.0583 26050.6 -03439.3 -07.5208 26276.6
 03 06 2013  16 39  -21.0574 26049.9 -03438.9 -07.5202 26275.9
 03 06 2013  16 40  -21.0570 26049.4 -03438.6 -07.5198 26275.4
 03 06 2013  16 41  -21.0564 26048.8 -03438.4 -07.5196 26274.8
 03 06 2013  16 42  -21.0559 26048.4 -03438.4 -07.5195 26274.3
 03 06 2013  16 43  -21.0559 26048.2 -03438.5 -07.5199 26274.1
 03 06 2013  16 44  -21.0556 26047.8 -03438.6 -07.5201 26273.8
 03 06 2013  16 45  -21.0555 26047.4 -03438.6 -07.5203 26273.4
 03 06 2013  16 46  -21.0553 26046.8 -03438.5 -07.5204 26272.8
 03 06 2013  16 47  -21.0552 26046.3 -03438.6 -07.5205 26272.3
 03 06 2013  16 48  -21.0552 26045.7 -03438.6 -07.5209 26271.7
 03 06 2013  16 49  -21.0549 26045.0 -03438.7 -07.5212 26271.0
 03 06 2013  16 50  -21.0549 26044.6 -03438.9 -07.5217 26270.7
 03 06 2013  16 51  -21.0549 26044.6 -03439.2 -07.5225 26270.7
 03 06 2013  16 52  -21.0547 26044.6 -03439.5 -07.5231 26270.7
 03 06 2013  16 53  -21.0546 26044.3 -03439.7 -07.5235 26270.4
 03 06 2013  16 54  -21.0550 26044.1 -03439.7 -07.5237 26270.3
 03 06 2013  16 55  -21.0549 26043.8 -03439.8 -07.5240 26270.0
 03 06 2013  16 56  -21.0549 26043.4 -03439.8 -07.5241 26269.6
 03 06 2013  16 57  -21.0552 26043.1 -03439.8 -07.5242 26269.3
 03 06 2013  16 58  -21.0551 26042.7 -03439.8 -07.5242 26268.9
 03 06 2013  16 59  -21.0556 26042.8 -03439.9 -07.5245 26269.0
 03 06 2013  17 00  -21.0555 26043.1 -03440.1 -07.5248 26269.3
 03 06 2013  17 01  -21.0553 26043.5 -03440.3 -07.5250 26269.7
 03 06 2013  17 02  -21.0543 26042.6 -03439.8 -07.5243 26268.8
 03 06 2013  17 03  -21.0531 26043.0 -03440.2 -07.5251 26269.2
 03 06 2013  17 04  -21.0538 26043.2 -03440.5 -07.5257 26269.5
 03 06 2013  17 05  -21.0532 26043.5 -03440.6 -07.5258 26269.8
 03 06 2013  17 06  -21.0532 26044.0 -03440.9 -07.5262 26270.3
 03 06 2013  17 07  -21.0535 26044.4 -03441.1 -07.5265 26270.7
 03 06 2013  17 08  -21.0531 26044.5 -03441.0 -07.5264 26270.8
 03 06 2013  17 09  -21.0534 26044.7 -03441.0 -07.5262 26271.0
 03 06 2013  17 10  -21.0535 26044.7 -03440.9 -07.5260 26271.0
 03 06 2013  17 11  -21.0528 26044.3 -03440.6 -07.5255 26270.6
 03 06 2013  17 12  -21.0528 26044.5 -03440.7 -07.5255 26270.8
 03 06 2013  17 13  -21.0526 26045.0 -03440.9 -07.5259 26271.3
 03 06 2013  17 14  -21.0528 26045.4 -03440.9 -07.5259 26271.7
 03 06 2013  17 15  -21.0529 26045.2 -03440.7 -07.5255 26271.5
 03 06 2013  17 16  -21.0520 26045.3 -03440.7 -07.5254 26271.6
 03 06 2013  17 17  -21.0535 26046.1 -03441.0 -07.5259 26272.4
 03 06 2013  17 18  -21.0527 26045.7 -03440.6 -07.5251 26272.0
 03 06 2013  17 19  -21.0521 26045.2 -03440.3 -07.5246 26271.4
 03 06 2013  17 20  -21.0514 26044.9 -03440.2 -07.5244 26271.2
 03 06 2013  17 21  -21.0514 26044.8 -03440.2 -07.5245 26271.1
 03 06 2013  17 22  -21.0520 26045.1 -03440.4 -07.5248 26271.3
 03 06 2013  17 23  -21.0526 26045.4 -03440.5 -07.5249 26271.6
 03 06 2013  17 24  -21.0529 26045.5 -03440.4 -07.5247 26271.7
 03 06 2013  17 25  -21.0531 26045.6 -03440.3 -07.5246 26271.8
 03 06 2013  17 26  -21.0535 26045.3 -03440.1 -07.5242 26271.5
 03 06 2013  17 27  -21.0534 26045.1 -03439.9 -07.5237 26271.3
 03 06 2013  17 28  -21.0535 26045.0 -03439.7 -07.5234 26271.1
 03 06 2013  17 29  -21.0532 26044.6 -03439.5 -07.5231 26270.8
 03 06 2013  17 30  -21.0537 26044.7 -03439.5 -07.5231 26270.9
 03 06 2013  17 31  -21.0539 26044.4 -03439.3 -07.5227 26270.5
 03 06 2013  17 32  -21.0537 26043.8 -03439.0 -07.5222 26269.9
 03 06 2013  17 33  -21.0538 26043.1 -03438.8 -07.5220 26269.2
 03 06 2013  17 34  -21.0536 26042.6 -03438.7 -07.5219 26268.6
 03 06 2013  17 35  -21.0538 26042.3 -03438.8 -07.5221 26268.3
 03 06 2013  17 36  -21.0534 26041.6 -03438.6 -07.5220 26267.7
 03 06 2013  17 37  -21.0528 26040.8 -03438.4 -07.5218 26266.8
 03 06 2013  17 38  -21.0528 26040.4 -03438.5 -07.5221 26266.4
 03 06 2013  17 39  -21.0529 26040.0 -03438.6 -07.5224 26266.1
 03 06 2013  17 40  -21.0525 26039.3 -03438.5 -07.5223 26265.4
 03 06 2013  17 41  -21.0519 26038.6 -03438.4 -07.5223 26264.6
 03 06 2013  17 42  -21.0517 26038.4 -03438.6 -07.5229 26264.4
 03 06 2013  17 43  -21.0521 26038.5 -03439.0 -07.5236 26264.6
 03 06 2013  17 44  -21.0521 26038.0 -03438.9 -07.5237 26264.1
 03 06 2013  17 45  -21.0518 26037.2 -03438.8 -07.5236 26263.3
 03 06 2013  17 46  -21.0514 26036.6 -03438.8 -07.5238 26262.7
 03 06 2013  17 47  -21.0508 26036.1 -03438.9 -07.5241 26262.2
 03 06 2013  17 48  -21.0507 26036.2 -03439.3 -07.5250 26262.4
 03 06 2013  17 49  -21.0513 26036.8 -03439.8 -07.5260 26263.0
 03 06 2013  17 50  -21.0509 26037.2 -03440.1 -07.5265 26263.4
 03 06 2013  17 51  -21.0509 26037.7 -03440.5 -07.5273 26264.0
 03 06 2013  17 52  -21.0502 26036.8 -03440.3 -07.5271 26263.1
 03 06 2013  17 53  -21.0497 26036.4 -03440.3 -07.5272 26262.7
 03 06 2013  17 54  -21.0495 26035.8 -03440.4 -07.5276 26262.1
 03 06 2013  17 55  -21.0481 26034.7 -03440.3 -07.5275 26261.0
 03 06 2013  17 56  -21.0478 26034.0 -03440.5 -07.5283 26260.4
 03 06 2013  17 57  -21.0479 26033.9 -03440.9 -07.5291 26260.3
 03 06 2013  17 58  -21.0478 26033.8 -03441.2 -07.5298 26260.2
 03 06 2013  17 59  -21.0472 26032.8 -03441.1 -07.5299 26259.2
 03 06 2013  18 00  -21.0469 26031.8 -03441.1 -07.5301 26258.3
 03 06 2013  18 01  -21.0469 26031.3 -03441.2 -07.5306 26257.8
 03 06 2013  18 02  -21.0473 26030.7 -03441.3 -07.5310 26257.2
 03 06 2013  18 03  -21.0469 26030.0 -03441.3 -07.5312 26256.5
 03 06 2013  18 04  -21.0469 26029.7 -03441.5 -07.5316 26256.2
 03 06 2013  18 05  -21.0480 26030.5 -03442.2 -07.5329 26257.1
 03 06 2013  18 06  -21.0484 26030.9 -03442.6 -07.5336 26257.6
 03 06 2013  18 07  -21.0480 26031.0 -03442.6 -07.5337 26257.6
 03 06 2013  18 08  -21.0486 26031.0 -03442.7 -07.5338 26257.7
 03 06 2013  18 09  -21.0473 26030.3 -03442.5 -07.5336 26256.9
 03 06 2013  18 10  -21.0471 26029.7 -03442.4 -07.5335 26256.3
 03 06 2013  18 11  -21.0486 26029.8 -03442.5 -07.5339 26256.4
 03 06 2013  18 12  -21.0479 26029.0 -03442.3 -07.5335 26255.7
 03 06 2013  18 13  -21.0479 26028.2 -03442.0 -07.5332 26254.8
 03 06 2013  18 14  -21.0473 26028.2 -03442.2 -07.5335 26254.8
 03 06 2013  18 15  -21.0463 26027.9 -03442.2 -07.5337 26254.5
 03 06 2013  18 16  -21.0466 26027.9 -03442.5 -07.5343 26254.6
 03 06 2013  18 17  -21.0464 26027.9 -03442.6 -07.5346 26254.6
 03 06 2013  18 18  -21.0456 26028.0 -03442.8 -07.5350 26254.7
 03 06 2013  18 19  -21.0449 26028.5 -03443.2 -07.5356 26255.2
 03 06 2013  18 20  -21.0448 26029.2 -03443.6 -07.5363 26256.0
 03 06 2013  18 21  -21.0452 26029.9 -03443.9 -07.5368 26256.7
 03 06 2013  18 22  -21.0458 26030.6 -03444.2 -07.5372 26257.4
 03 06 2013  18 23  -21.0457 26031.0 -03444.3 -07.5374 26257.9
 03 06 2013  18 24  -21.0475 26030.5 -03444.0 -07.5368 26257.3
 03 06 2013  18 25  -21.0459 26029.3 -03443.2 -07.5354 26256.0
 03 06 2013  18 26  -21.0444 26028.3 -03442.9 -07.5351 26255.0
 03 06 2013  18 27  -21.0439 26027.6 -03442.9 -07.5352 26254.3
 03 06 2013  18 28  -21.0439 26027.7 -03443.2 -07.5359 26254.5
 03 06 2013  18 29  -21.0440 26028.0 -03443.5 -07.5364 26254.8
 03 06 2013  18 30  -21.0439 26028.1 -03443.6 -07.5366 26254.9
 03 06 2013  18 31  -21.0444 26028.1 -03443.7 -07.5367 26255.0
 03 06 2013  18 32  -21.0448 26027.8 -03443.5 -07.5365 26254.6
 03 06 2013  18 33  -21.0448 26027.1 -03443.1 -07.5359 26253.9
 03 06 2013  18 34  -21.0445 26026.4 -03442.8 -07.5355 26253.2
 03 06 2013  18 35  -21.0437 26026.0 -03442.7 -07.5354 26252.7
 03 06 2013  18 36  -21.0437 26026.4 -03443.0 -07.5358 26253.2
 03 06 2013  18 37  -21.0448 26027.1 -03443.4 -07.5365 26253.9
 03 06 2013  18 38  -21.0457 26027.5 -03443.5 -07.5365 26254.3
 03 06 2013  18 39  -21.0455 26027.3 -03443.2 -07.5360 26254.0
 03 06 2013  18 40  -21.0450 26026.7 -03442.9 -07.5355 26253.4
 03 06 2013  18 41  -21.0444 26026.0 -03442.6 -07.5350 26252.7
 03 06 2013  18 42  -21.0441 26025.8 -03442.6 -07.5350 26252.5
 03 06 2013  18 43  -21.0462 26026.5 -03443.1 -07.5360 26253.2
 03 06 2013  18 44  -21.0469 26026.4 -03443.1 -07.5360 26253.1
 03 06 2013  18 45  -21.0475 26026.3 -03443.1 -07.5360 26253.0
 03 06 2013  18 46  -21.0482 26026.3 -03443.0 -07.5358 26253.0
 03 06 2013  18 47  -21.0482 26025.9 -03442.7 -07.5354 26252.6
 03 06 2013  18 48  -21.0486 26025.5 -03442.6 -07.5351 26252.2
 03 06 2013  18 49  -21.0473 26025.3 -03442.4 -07.5348 26251.9
 03 06 2013  18 50  -21.0469 26024.8 -03442.3 -07.5347 26251.4
 03 06 2013  18 51  -21.0465 26024.4 -03442.3 -07.5348 26251.1
 03 06 2013  18 52  -21.0468 26024.3 -03442.5 -07.5353 26251.0
 03 06 2013  18 53  -21.0474 26024.3 -03442.6 -07.5356 26251.0
 03 06 2013  18 54  -21.0481 26024.0 -03442.5 -07.5355 26250.7
 03 06 2013  18 55  -21.0482 26023.5 -03442.3 -07.5352 26250.2
 03 06 2013  18 56  -21.0486 26022.9 -03442.2 -07.5350 26249.6
 03 06 2013  18 57  -21.0482 26022.4 -03442.0 -07.5349 26249.0
 03 06 2013  18 58  -21.0483 26021.9 -03442.0 -07.5350 26248.6
 03 06 2013  18 59  -21.0481 26021.7 -03442.1 -07.5352 26248.3
 03 06 2013  19 00  -21.0477 26021.3 -03442.1 -07.5353 26248.0
 03 06 2013  19 01  -21.0480 26021.1 -03442.2 -07.5356 26247.8
 03 06 2013  19 02  -21.0483 26020.8 -03442.2 -07.5356 26247.5
 03 06 2013  19 03  -21.0488 26020.6 -03442.2 -07.5357 26247.3
 03 06 2013  19 04  -21.0494 26020.3 -03442.1 -07.5357 26247.0
 03 06 2013  19 05  -21.0496 26019.9 -03442.0 -07.5354 26246.6
 03 06 2013  19 06  -21.0502 26019.9 -03442.0 -07.5356 26246.5
 03 06 2013  19 07  -21.0505 26019.9 -03442.2 -07.5359 26246.6
 03 06 2013  19 08  -21.0511 26020.1 -03442.3 -07.5361 26246.9
 03 06 2013  19 09  -21.0517 26020.1 -03442.3 -07.5361 26246.8
 03 06 2013  19 10  -21.0530 26020.3 -03442.3 -07.5362 26247.0
 03 06 2013  19 11  -21.0534 26020.2 -03442.2 -07.5358 26246.9
 03 06 2013  19 12  -21.0545 26020.1 -03442.1 -07.5357 26246.8
 03 06 2013  19 13  -21.0541 26019.8 -03441.8 -07.5351 26246.4
 03 06 2013  19 14  -21.0544 26019.9 -03441.9 -07.5353 26246.6
 03 06 2013  19 15  -21.0541 26019.6 -03441.7 -07.5350 26246.2
 03 06 2013  19 16  -21.0536 26019.3 -03441.7 -07.5350 26245.9
 03 06 2013  19 17  -21.0528 26019.0 -03441.6 -07.5348 26245.7
 03 06 2013  19 18  -21.0524 26019.6 -03442.0 -07.5355 26246.3
 03 06 2013  19 19  -21.0527 26020.5 -03442.5 -07.5363 26247.2
 03 06 2013  19 20  -21.0528 26020.7 -03442.5 -07.5363 26247.4
 03 06 2013  19 21  -21.0532 26020.7 -03442.3 -07.5359 26247.4
 03 06 2013  19 22  -21.0540 26020.7 -03442.2 -07.5356 26247.4
 03 06 2013  19 23  -21.0542 26021.2 -03442.1 -07.5354 26247.9
 03 06 2013  19 24  -21.0549 26021.8 -03442.1 -07.5353 26248.4
 03 06 2013  19 25  -21.0549 26021.6 -03441.8 -07.5346 26248.2
 03 06 2013  19 26  -21.0543 26020.6 -03441.2 -07.5335 26247.1
 03 06 2013  19 27  -21.0537 26019.8 -03440.8 -07.5330 26246.4
 03 06 2013  19 28  -21.0534 26019.9 -03440.8 -07.5330 26246.4
 03 06 2013  19 29  -21.0535 26020.4 -03441.0 -07.5333 26247.0
 03 06 2013  19 30  -21.0541 26021.2 -03441.3 -07.5337 26247.7
 03 06 2013  19 31  -21.0543 26021.4 -03441.3 -07.5335 26247.9
 03 06 2013  19 32  -21.0549 26021.5 -03441.1 -07.5331 26248.0
 03 06 2013  19 33  -21.0555 26021.5 -03440.9 -07.5327 26248.0
 03 06 2013  19 34  -21.0555 26021.1 -03440.5 -07.5320 26247.5
 03 06 2013  19 35  -21.0555 26020.9 -03440.3 -07.5315 26247.3
 03 06 2013  19 36  -21.0558 26021.1 -03440.3 -07.5315 26247.6
 03 06 2013  19 37  -21.0557 26021.4 -03440.4 -07.5315 26247.9
 03 06 2013  19 38  -21.0559 26021.6 -03440.4 -07.5315 26248.1
 03 06 2013  19 39  -21.0560 26021.6 -03440.3 -07.5313 26248.1
 03 06 2013  19 40  -21.0560 26021.5 -03440.1 -07.5309 26247.9
 03 06 2013  19 41  -21.0554 26021.1 -03439.8 -07.5303 26247.4
 03 06 2013  19 42  -21.0550 26020.6 -03439.6 -07.5300 26247.0
 03 06 2013  19 43  -21.0546 26020.3 -03439.4 -07.5298 26246.6
 03 06 2013  19 44  -21.0543 26019.9 -03439.3 -07.5296 26246.2
 03 06 2013  19 45  -21.0542 26019.8 -03439.3 -07.5296 26246.1
 03 06 2013  19 46  -21.0544 26019.7 -03439.2 -07.5296 26246.0
 03 06 2013  19 47  -21.0543 26019.7 -03439.3 -07.5296 26246.1
 03 06 2013  19 48  -21.0543 26019.9 -03439.3 -07.5297 26246.2
 03 06 2013  19 49  -21.0543 26019.9 -03439.3 -07.5296 26246.2
 03 06 2013  19 50  -21.0543 26020.0 -03439.3 -07.5296 26246.3
 03 06 2013  19 51  -21.0539 26019.5 -03439.1 -07.5293 26245.8
 03 06 2013  19 52  -21.0537 26019.6 -03439.1 -07.5293 26245.9
 03 06 2013  19 53  -21.0537 26019.4 -03439.0 -07.5292 26245.7
 03 06 2013  19 54  -21.0533 26018.8 -03438.8 -07.5288 26245.0
 03 06 2013  19 55  -21.0527 26018.2 -03438.7 -07.5288 26244.5
 03 06 2013  19 56  -21.0521 26017.7 -03438.6 -07.5288 26244.0
 03 06 2013  19 57  -21.0515 26017.1 -03438.5 -07.5287 26243.3
 03 06 2013  19 58  -21.0509 26016.6 -03438.5 -07.5288 26242.9
 03 06 2013  19 59  -21.0502 26016.2 -03438.6 -07.5291 26242.5
 03 06 2013  20 00  -21.0499 26015.9 -03438.7 -07.5294 26242.2
 03 06 2013  20 01  -21.0495 26015.5 -03438.7 -07.5297 26241.8
 03 06 2013  20 02  -21.0496 26015.2 -03438.8 -07.5299 26241.5
 03 06 2013  20 03  -21.0495 26015.1 -03439.0 -07.5303 26241.4
 03 06 2013  20 04  -21.0493 26014.9 -03439.1 -07.5306 26241.2
 03 06 2013  20 05  -21.0491 26014.8 -03439.3 -07.5310 26241.2
 03 06 2013  20 06  -21.0490 26014.7 -03439.4 -07.5315 26241.1
 03 06 2013  20 07  -21.0490 26014.5 -03439.5 -07.5317 26240.9
 03 06 2013  20 08  -21.0486 26014.3 -03439.6 -07.5319 26240.8
 03 06 2013  20 09  -21.0486 26014.0 -03439.7 -07.5321 26240.4
 03 06 2013  20 10  -21.0486 26013.7 -03439.7 -07.5323 26240.1
 03 06 2013  20 11  -21.0487 26013.7 -03439.9 -07.5327 26240.1
 03 06 2013  20 12  -21.0489 26014.0 -03440.2 -07.5332 26240.5
 03 06 2013  20 13  -21.0490 26014.2 -03440.4 -07.5337 26240.7
 03 06 2013  20 14  -21.0491 26014.2 -03440.5 -07.5339 26240.8
 03 06 2013  20 15  -21.0493 26014.3 -03440.6 -07.5341 26240.9
 03 06 2013  20 16  -21.0493 26014.1 -03440.5 -07.5340 26240.7
 03 06 2013  20 17  -21.0494 26013.9 -03440.5 -07.5339 26240.4
 03 06 2013  20 18  -21.0495 26013.6 -03440.4 -07.5339 26240.1
 03 06 2013  20 19  -21.0495 26013.5 -03440.4 -07.5339 26240.0
 03 06 2013  20 20  -21.0492 26013.3 -03440.3 -07.5338 26239.8
 03 06 2013  20 21  -21.0491 26013.0 -03440.2 -07.5337 26239.5
 03 06 2013  20 22  -21.0491 26012.8 -03440.2 -07.5336 26239.3
 03 06 2013  20 23  -21.0493 26012.6 -03440.1 -07.5336 26239.1
 03 06 2013  20 24  -21.0493 26012.2 -03440.1 -07.5336 26238.7
 03 06 2013  20 25  -21.0491 26012.3 -03440.2 -07.5337 26238.8
 03 06 2013  20 26  -21.0490 26012.2 -03440.2 -07.5339 26238.8
 03 06 2013  20 27  -21.0490 26012.2 -03440.3 -07.5341 26238.7
 03 06 2013  20 28  -21.0493 26012.3 -03440.4 -07.5343 26238.8
 03 06 2013  20 29  -21.0495 26012.3 -03440.6 -07.5346 26238.9
 03 06 2013  20 30  -21.0496 26012.4 -03440.7 -07.5348 26238.9
 03 06 2013  20 31  -21.0496 26012.4 -03440.8 -07.5350 26239.0
 03 06 2013  20 32  -21.0496 26012.2 -03440.8 -07.5351 26238.8
 03 06 2013  20 33  -21.0496 26012.0 -03440.8 -07.5351 26238.6
 03 06 2013  20 34  -21.0497 26012.0 -03440.7 -07.5351 26238.6
 03 06 2013  20 35  -21.0498 26011.8 -03440.7 -07.5351 26238.4
 03 06 2013  20 36  -21.0499 26011.7 -03440.6 -07.5349 26238.3
 03 06 2013  20 37  -21.0498 26011.5 -03440.6 -07.5348 26238.0
 03 06 2013  20 38  -21.0498 26011.3 -03440.5 -07.5347 26237.8
 03 06 2013  20 39  -21.0499 26011.1 -03440.4 -07.5346 26237.6
 03 06 2013  20 40  -21.0501 26010.9 -03440.3 -07.5345 26237.4
 03 06 2013  20 41  -21.0500 26010.9 -03440.3 -07.5345 26237.4
 03 06 2013  20 42  -21.0499 26010.6 -03440.2 -07.5343 26237.1
 03 06 2013  20 43  -21.0498 26010.2 -03440.1 -07.5341 26236.7
 03 06 2013  20 44  -21.0496 26009.9 -03440.0 -07.5340 26236.4
 03 06 2013  20 45  -21.0494 26009.6 -03439.9 -07.5339 26236.1
 03 06 2013  20 46  -21.0491 26009.5 -03439.9 -07.5339 26235.9
 03 06 2013  20 47  -21.0489 26009.7 -03440.0 -07.5341 26236.2
 03 06 2013  20 48  -21.0488 26010.2 -03440.3 -07.5346 26236.7
 03 06 2013  20 49  -21.0489 26010.3 -03440.4 -07.5348 26236.8
 03 06 2013  20 50  -21.0491 26010.3 -03440.5 -07.5351 26236.8
 03 06 2013  20 51  -21.0493 26009.8 -03440.4 -07.5350 26236.3
 03 06 2013  20 52  -21.0494 26009.4 -03440.3 -07.5349 26236.0
 03 06 2013  20 53  -21.0494 26009.3 -03440.4 -07.5351 26235.8
 03 06 2013  20 54  -21.0493 26009.1 -03440.4 -07.5351 26235.6
 03 06 2013  20 55  -21.0491 26008.9 -03440.4 -07.5351 26235.5
 03 06 2013  20 56  -21.0489 26008.9 -03440.4 -07.5352 26235.5
 03 06 2013  20 57  -21.0487 26009.2 -03440.6 -07.5354 26235.8
 03 06 2013  20 58  -21.0486 26009.3 -03440.6 -07.5355 26235.8
 03 06 2013  20 59  -21.0483 26009.0 -03440.5 -07.5353 26235.6
 03 06 2013  21 00  -21.0479 26008.9 -03440.4 -07.5353 26235.5
 03 06 2013  21 01  -21.0475 26008.7 -03440.3 -07.5351 26235.3
 03 06 2013  21 02  -21.0474 26008.3 -03440.2 -07.5349 26234.9
 03 06 2013  21 03  -21.0475 26007.6 -03439.9 -07.5345 26234.1
 03 06 2013  21 04  -21.0473 26006.9 -03439.6 -07.5341 26233.3
 03 06 2013  21 05  -21.0474 26006.3 -03439.4 -07.5338 26232.8
 03 06 2013  21 06  -21.0474 26006.3 -03439.4 -07.5339 26232.7
 03 06 2013  21 07  -21.0473 26006.0 -03439.4 -07.5339 26232.4
 03 06 2013  21 08  -21.0467 26006.1 -03439.5 -07.5341 26232.6
 03 06 2013  21 09  -21.0463 26006.4 -03439.7 -07.5345 26232.9
 03 06 2013  21 10  -21.0463 26006.6 -03439.9 -07.5347 26233.1
 03 06 2013  21 11  -21.0460 26006.7 -03440.1 -07.5351 26233.3
 03 06 2013  21 12  -21.0455 26006.6 -03440.0 -07.5351 26233.2
 03 06 2013  21 13  -21.0453 26006.4 -03440.1 -07.5352 26232.9
 03 06 2013  21 14  -21.0449 26006.7 -03440.3 -07.5355 26233.3
 03 06 2013  21 15  -21.0444 26006.6 -03440.4 -07.5358 26233.2
 03 06 2013  21 16  -21.0443 26006.5 -03440.4 -07.5358 26233.0
 03 06 2013  21 17  -21.0441 26005.9 -03440.2 -07.5357 26232.5
 03 06 2013  21 18  -21.0439 26005.8 -03440.3 -07.5358 26232.4
 03 06 2013  21 19  -21.0435 26005.8 -03440.3 -07.5360 26232.3
 03 06 2013  21 20  -21.0432 26005.7 -03440.4 -07.5362 26232.3
 03 06 2013  21 21  -21.0430 26005.4 -03440.5 -07.5363 26232.0
 03 06 2013  21 22  -21.0426 26005.5 -03440.5 -07.5364 26232.1
 03 06 2013  21 23  -21.0421 26005.4 -03440.6 -07.5367 26232.0
 03 06 2013  21 24  -21.0418 26005.3 -03440.7 -07.5369 26232.0
 03 06 2013  21 25  -21.0415 26005.1 -03440.8 -07.5371 26231.8
 03 06 2013  21 26  -21.0415 26005.0 -03440.8 -07.5372 26231.6
 03 06 2013  21 27  -21.0414 26004.8 -03440.9 -07.5374 26231.5
 03 06 2013  21 28  -21.0422 26004.6 -03441.0 -07.5376 26231.2
 03 06 2013  21 29  -21.0431 26004.4 -03441.0 -07.5379 26231.0
 03 06 2013  21 30  -21.0435 26004.4 -03441.1 -07.5380 26231.0
 03 06 2013  21 31  -21.0439 26004.4 -03441.2 -07.5382 26231.1
 03 06 2013  21 32  -21.0444 26004.5 -03441.3 -07.5385 26231.2
 03 06 2013  21 33  -21.0444 26004.7 -03441.4 -07.5387 26231.4
 03 06 2013  21 34  -21.0443 26004.8 -03441.6 -07.5389 26231.5
 03 06 2013  21 35  -21.0440 26005.1 -03441.7 -07.5392 26231.8
 03 06 2013  21 36  -21.0442 26005.4 -03441.9 -07.5395 26232.2
 03 06 2013  21 37  -21.0443 26005.5 -03442.0 -07.5397 26232.3
 03 06 2013  21 38  -21.0447 26005.4 -03442.1 -07.5399 26232.3
 03 06 2013  21 39  -21.0448 26005.8 -03442.3 -07.5402 26232.6
 03 06 2013  21 40  -21.0450 26006.3 -03442.5 -07.5405 26233.1
 03 06 2013  21 41  -21.0450 26006.6 -03442.7 -07.5409 26233.5
 03 06 2013  21 42  -21.0451 26007.1 -03442.9 -07.5412 26234.0
 03 06 2013  21 43  -21.0450 26007.7 -03443.2 -07.5416 26234.6
 03 06 2013  21 44  -21.0448 26008.4 -03443.5 -07.5421 26235.4
 03 06 2013  21 45  -21.0445 26009.2 -03443.8 -07.5426 26236.2
 03 06 2013  21 46  -21.0440 26009.9 -03444.2 -07.5430 26237.0
 03 06 2013  21 47  -21.0434 26010.6 -03444.4 -07.5434 26237.7
 03 06 2013  21 48  -21.0432 26011.2 -03444.6 -07.5437 26238.3
 03 06 2013  21 49  -21.0430 26011.6 -03444.8 -07.5439 26238.7
 03 06 2013  21 50  -21.0429 26011.8 -03444.8 -07.5440 26239.0
 03 06 2013  21 51  -21.0427 26012.2 -03444.9 -07.5440 26239.3
 03 06 2013  21 52  -21.0422 26012.4 -03444.9 -07.5440 26239.6
 03 06 2013  21 53  -21.0416 26012.9 -03445.1 -07.5442 26240.1
 03 06 2013  21 54  -21.0414 26013.5 -03445.3 -07.5445 26240.7
 03 06 2013  21 55  -21.0413 26014.0 -03445.5 -07.5448 26241.2
 03 06 2013  21 56  -21.0411 26014.6 -03445.7 -07.5451 26241.8
 03 06 2013  21 57  -21.0409 26015.1 -03445.9 -07.5454 26242.3
 03 06 2013  21 58  -21.0409 26015.6 -03446.1 -07.5456 26242.8
 03 06 2013  21 59  -21.0410 26016.0 -03446.2 -07.5458 26243.3
 03 06 2013  22 00  -21.0410 26016.6 -03446.4 -07.5460 26243.9
 03 06 2013  22 01  -21.0410 26017.1 -03446.6 -07.5463 26244.4
 03 06 2013  22 02  -21.0408 26017.6 -03446.7 -07.5464 26244.9
 03 06 2013  22 03  -21.0407 26018.1 -03446.8 -07.5465 26245.4
 03 06 2013  22 04  -21.0406 26018.5 -03447.0 -07.5466 26245.9
 03 06 2013  22 05  -21.0408 26018.5 -03446.9 -07.5465 26245.9
 03 06 2013  22 06  -21.0411 26018.4 -03446.7 -07.5461 26245.7
 03 06 2013  22 07  -21.0412 26018.2 -03446.5 -07.5457 26245.5
 03 06 2013  22 08  -21.0411 26018.2 -03446.4 -07.5455 26245.5
 03 06 2013  22 09  -21.0408 26018.4 -03446.3 -07.5453 26245.6
 03 06 2013  22 10  -21.0405 26018.5 -03446.3 -07.5453 26245.7
 03 06 2013  22 11  -21.0403 26018.4 -03446.3 -07.5452 26245.7
 03 06 2013  22 12  -21.0403 26018.3 -03446.2 -07.5450 26245.5
 03 06 2013  22 13  -21.0404 26018.1 -03446.0 -07.5447 26245.3
 03 06 2013  22 14  -21.0405 26017.9 -03445.9 -07.5446 26245.2
 03 06 2013  22 15  -21.0404 26017.9 -03445.9 -07.5444 26245.1
 03 06 2013  22 16  -21.0403 26017.8 -03445.8 -07.5443 26245.0
 03 06 2013  22 17  -21.0402 26017.9 -03445.8 -07.5443 26245.1
 03 06 2013  22 18  -21.0401 26017.9 -03445.8 -07.5444 26245.0
 03 06 2013  22 19  -21.0401 26017.9 -03445.8 -07.5444 26245.1
 03 06 2013  22 20  -21.0400 26017.7 -03445.8 -07.5443 26244.9
 03 06 2013  22 21  -21.0399 26017.5 -03445.6 -07.5441 26244.7
 03 06 2013  22 22  -21.0398 26017.4 -03445.6 -07.5439 26244.6
 03 06 2013  22 23  -21.0398 26017.2 -03445.5 -07.5439 26244.4
 03 06 2013  22 24  -21.0399 26017.1 -03445.4 -07.5437 26244.2
 03 06 2013  22 25  -21.0399 26017.0 -03445.4 -07.5437 26244.1
 03 06 2013  22 26  -21.0402 26016.6 -03445.2 -07.5434 26243.7
 03 06 2013  22 27  -21.0405 26016.4 -03445.2 -07.5434 26243.5
 03 06 2013  22 28  -21.0407 26016.1 -03445.0 -07.5432 26243.2
 03 06 2013  22 29  -21.0408 26015.9 -03445.0 -07.5431 26243.0
 03 06 2013  22 30  -21.0408 26015.6 -03444.8 -07.5429 26242.7
 03 06 2013  22 31  -21.0408 26015.4 -03444.7 -07.5427 26242.4
 03 06 2013  22 32  -21.0409 26015.0 -03444.6 -07.5425 26242.1
 03 06 2013  22 33  -21.0409 26014.6 -03444.4 -07.5423 26241.6
 03 06 2013  22 34  -21.0409 26014.5 -03444.4 -07.5422 26241.5
 03 06 2013  22 35  -21.0405 26014.7 -03444.5 -07.5425 26241.8
 03 06 2013  22 36  -21.0402 26015.1 -03444.8 -07.5429 26242.2
 03 06 2013  22 37  -21.0400 26015.0 -03444.8 -07.5429 26242.1
 03 06 2013  22 38  -21.0398 26015.0 -03444.8 -07.5430 26242.1
 03 06 2013  22 39  -21.0396 26014.9 -03444.8 -07.5430 26242.0
 03 06 2013  22 40  -21.0398 26014.7 -03444.7 -07.5429 26241.7
 03 06 2013  22 41  -21.0399 26014.5 -03444.7 -07.5428 26241.6
 03 06 2013  22 42  -21.0396 26014.6 -03444.7 -07.5429 26241.7
 03 06 2013  22 43  -21.0392 26014.3 -03444.6 -07.5428 26241.4
 03 06 2013  22 44  -21.0392 26013.9 -03444.5 -07.5426 26241.0
 03 06 2013  22 45  -21.0394 26014.1 -03444.5 -07.5427 26241.1
 03 06 2013  22 46  -21.0396 26014.0 -03444.6 -07.5428 26241.1
 03 06 2013  22 47  -21.0398 26013.9 -03444.6 -07.5428 26240.9
 03 06 2013  22 48  -21.0400 26013.7 -03444.6 -07.5428 26240.8
 03 06 2013  22 49  -21.0403 26013.8 -03444.6 -07.5430 26240.8
 03 06 2013  22 50  -21.0406 26013.6 -03444.6 -07.5430 26240.7
 03 06 2013  22 51  -21.0409 26013.8 -03444.7 -07.5432 26240.9
 03 06 2013  22 52  -21.0412 26013.9 -03444.8 -07.5433 26241.0
 03 06 2013  22 53  -21.0417 26014.0 -03444.9 -07.5434 26241.1
 03 06 2013  22 54  -21.0420 26014.0 -03444.9 -07.5434 26241.0
 03 06 2013  22 55  -21.0422 26013.8 -03444.8 -07.5433 26240.9
 03 06 2013  22 56  -21.0423 26013.7 -03444.7 -07.5431 26240.8
 03 06 2013  22 57  -21.0424 26013.5 -03444.6 -07.5429 26240.6
 03 06 2013  22 58  -21.0425 26013.2 -03444.5 -07.5428 26240.2
 03 06 2013  22 59  -21.0427 26012.8 -03444.3 -07.5425 26239.8
 03 06 2013  23 00  -21.0429 26012.3 -03444.1 -07.5422 26239.4
 03 06 2013  23 01  -21.0429 26012.0 -03443.9 -07.5420 26239.0
 03 06 2013  23 02  -21.0426 26011.7 -03443.8 -07.5418 26238.7
 03 06 2013  23 03  -21.0425 26011.7 -03443.9 -07.5419 26238.7
 03 06 2013  23 04  -21.0424 26011.4 -03443.8 -07.5418 26238.4
 03 06 2013  23 05  -21.0428 26011.0 -03443.7 -07.5417 26238.0
 03 06 2013  23 06  -21.0429 26010.9 -03443.7 -07.5417 26237.9
 03 06 2013  23 07  -21.0430 26010.7 -03443.6 -07.5417 26237.7
 03 06 2013  23 08  -21.0433 26010.5 -03443.6 -07.5416 26237.5
 03 06 2013  23 09  -21.0432 26010.3 -03443.6 -07.5417 26237.2
 03 06 2013  23 10  -21.0434 26010.2 -03443.6 -07.5417 26237.1
 03 06 2013  23 11  -21.0442 26010.2 -03443.7 -07.5419 26237.1
 03 06 2013  23 12  -21.0446 26010.1 -03443.7 -07.5420 26237.0
 03 06 2013  23 13  -21.0449 26009.9 -03443.6 -07.5419 26236.8
 03 06 2013  23 14  -21.0452 26009.7 -03443.6 -07.5419 26236.7
 03 06 2013  23 15  -21.0455 26009.5 -03443.5 -07.5418 26236.5
 03 06 2013  23 16  -21.0458 26009.6 -03443.6 -07.5419 26236.6
 03 06 2013  23 17  -21.0460 26009.8 -03443.7 -07.5421 26236.8
 03 06 2013  23 18  -21.0462 26009.9 -03443.8 -07.5423 26236.9
 03 06 2013  23 19  -21.0467 26010.0 -03443.9 -07.5425 26237.0
 03 06 2013  23 20  -21.0471 26010.1 -03444.0 -07.5427 26237.1
 03 06 2013  23 21  -21.0473 26009.8 -03443.9 -07.5425 26236.8
 03 06 2013  23 22  -21.0475 26009.4 -03443.7 -07.5422 26236.4
 03 06 2013  23 23  -21.0478 26009.2 -03443.6 -07.5420 26236.2
 03 06 2013  23 24  -21.0485 26009.1 -03443.6 -07.5420 26236.1
 03 06 2013  23 25  -21.0491 26009.3 -03443.7 -07.5422 26236.2
 03 06 2013  23 26  -21.0497 26009.1 -03443.7 -07.5422 26236.1
 03 06 2013  23 27  -21.0500 26009.1 -03443.7 -07.5422 26236.1
 03 06 2013  23 28  -21.0505 26009.0 -03443.6 -07.5422 26236.0
 03 06 2013  23 29  -21.0507 26009.5 -03443.8 -07.5424 26236.5
 03 06 2013  23 30  -21.0507 26009.8 -03444.0 -07.5427 26236.8
 03 06 2013  23 31  -21.0508 26010.0 -03444.0 -07.5427 26237.0
 03 06 2013  23 32  -21.0511 26010.0 -03444.1 -07.5428 26237.0
 03 06 2013  23 33  -21.0512 26010.2 -03444.1 -07.5428 26237.2
 03 06 2013  23 34  -21.0515 26010.5 -03444.3 -07.5431 26237.6
 03 06 2013  23 35  -21.0518 26011.0 -03444.5 -07.5434 26238.0
 03 06 2013  23 36  -21.0516 26011.1 -03444.5 -07.5435 26238.2
 03 06 2013  23 37  -21.0509 26012.0 -03444.9 -07.5440 26239.2
 03 06 2013  23 38  -21.0505 26012.2 -03445.0 -07.5441 26239.3
 03 06 2013  23 39  -21.0506 26011.8 -03444.8 -07.5439 26238.9
 03 06 2013  23 40  -21.0504 26011.3 -03444.5 -07.5434 26238.4
 03 06 2013  23 41  -21.0503 26011.0 -03444.3 -07.5431 26238.1
 03 06 2013  23 42  -21.0505 26011.1 -03444.3 -07.5431 26238.2
 03 06 2013  23 43  -21.0508 26011.8 -03444.7 -07.5436 26238.9
 03 06 2013  23 44  -21.0509 26012.1 -03444.9 -07.5440 26239.2
 03 06 2013  23 45  -21.0509 26012.3 -03444.9 -07.5440 26239.4
 03 06 2013  23 46  -21.0510 26012.4 -03445.0 -07.5441 26239.5
 03 06 2013  23 47  -21.0511 26012.5 -03445.0 -07.5442 26239.7
 03 06 2013  23 48  -21.0509 26012.9 -03445.1 -07.5443 26240.0
 03 06 2013  23 49  -21.0508 26013.0 -03445.2 -07.5444 26240.1
 03 06 2013  23 50  -21.0510 26013.1 -03445.2 -07.5444 26240.3
 03 06 2013  23 51  -21.0514 26012.9 -03445.1 -07.5442 26240.0
 03 06 2013  23 52  -21.0521 26012.6 -03445.0 -07.5440 26239.7
 03 06 2013  23 53  -21.0527 26012.6 -03444.9 -07.5439 26239.7
 03 06 2013  23 54  -21.0528 26012.3 -03444.8 -07.5437 26239.4
 03 06 2013  23 55  -21.0530 26012.2 -03444.7 -07.5435 26239.3
 03 06 2013  23 56  -21.0530 26012.2 -03444.6 -07.5434 26239.3
 03 06 2013  23 57  -21.0532 26012.1 -03444.6 -07.5434 26239.1
 03 06 2013  23 58  -21.0533 26011.8 -03444.4 -07.5431 26238.8
