SAO LUIS EMBRACE-03 <159> 1 Min. Reported data

 DD MM YYYY  HH MM   D(Deg)  H(nT)   Z(nT)   I(Deg)   F(nT)

 08 06 2013  00 00  -21.0412 26019.6 -03448.4 -07.5494 26247.1
 08 06 2013  00 01  -21.0412 26019.4 -03448.3 -07.5492 26246.9
 08 06 2013  00 02  -21.0413 26019.3 -03448.2 -07.5492 26246.8
 08 06 2013  00 03  -21.0411 26019.2 -03448.2 -07.5490 26246.6
 08 06 2013  00 04  -21.0407 26019.3 -03448.2 -07.5491 26246.8
 08 06 2013  00 05  -21.0404 26019.4 -03448.3 -07.5493 26246.9
 08 06 2013  00 06  -21.0402 26019.7 -03448.5 -07.5496 26247.2
 08 06 2013  00 07  -21.0400 26019.9 -03448.7 -07.5499 26247.5
 08 06 2013  00 08  -21.0399 26020.1 -03448.8 -07.5502 26247.7
 08 06 2013  00 09  -21.0400 26020.1 -03448.8 -07.5502 26247.6
 08 06 2013  00 10  -21.0398 26020.4 -03449.0 -07.5504 26248.0
 08 06 2013  00 11  -21.0392 26021.1 -03449.3 -07.5510 26248.7
 08 06 2013  00 12  -21.0394 26021.0 -03449.3 -07.5511 26248.6
 08 06 2013  00 13  -21.0399 26020.5 -03449.1 -07.5507 26248.1
 08 06 2013  00 14  -21.0405 26019.7 -03448.7 -07.5502 26247.3
 08 06 2013  00 15  -21.0409 26019.1 -03448.4 -07.5496 26246.6
 08 06 2013  00 16  -21.0408 26018.6 -03448.2 -07.5492 26246.1
 08 06 2013  00 17  -21.0403 26018.4 -03448.0 -07.5488 26245.8
 08 06 2013  00 18  -21.0399 26018.4 -03448.0 -07.5489 26245.9
 08 06 2013  00 19  -21.0395 26018.5 -03448.1 -07.5490 26246.0
 08 06 2013  00 20  -21.0394 26018.4 -03448.1 -07.5492 26245.9
 08 06 2013  00 21  -21.0395 26018.2 -03448.1 -07.5492 26245.7
 08 06 2013  00 22  -21.0395 26018.1 -03448.1 -07.5492 26245.6
 08 06 2013  00 23  -21.0392 26018.3 -03448.2 -07.5493 26245.8
 08 06 2013  00 24  -21.0386 26018.5 -03448.3 -07.5496 26246.1
 08 06 2013  00 25  -21.0379 26018.9 -03448.5 -07.5499 26246.5
 08 06 2013  00 26  -21.0374 26019.6 -03448.9 -07.5505 26247.2
 08 06 2013  00 27  -21.0369 26020.1 -03449.2 -07.5510 26247.7
 08 06 2013  00 28  -21.0368 26020.3 -03449.3 -07.5512 26248.0
 08 06 2013  00 29  -21.0369 26020.4 -03449.4 -07.5513 26248.0
 08 06 2013  00 30  -21.0369 26020.4 -03449.3 -07.5512 26248.0
 08 06 2013  00 31  -21.0369 26020.4 -03449.3 -07.5511 26248.0
 08 06 2013  00 32  -21.0369 26020.2 -03449.1 -07.5509 26247.8
 08 06 2013  00 33  -21.0368 26020.0 -03449.0 -07.5507 26247.6
 08 06 2013  00 34  -21.0367 26019.9 -03448.9 -07.5505 26247.5
 08 06 2013  00 35  -21.0365 26020.0 -03448.9 -07.5504 26247.5
 08 06 2013  00 36  -21.0363 26020.0 -03448.9 -07.5504 26247.6
 08 06 2013  00 37  -21.0362 26019.9 -03448.8 -07.5503 26247.5
 08 06 2013  00 38  -21.0362 26019.8 -03448.8 -07.5502 26247.4
 08 06 2013  00 39  -21.0363 26019.6 -03448.7 -07.5501 26247.2
 08 06 2013  00 40  -21.0364 26019.2 -03448.5 -07.5498 26246.8
 08 06 2013  00 41  -21.0367 26018.9 -03448.4 -07.5496 26246.4
 08 06 2013  00 42  -21.0369 26018.6 -03448.2 -07.5494 26246.1
 08 06 2013  00 43  -21.0373 26018.2 -03448.1 -07.5492 26245.7
 08 06 2013  00 44  -21.0377 26017.7 -03447.9 -07.5489 26245.2
 08 06 2013  00 45  -21.0381 26017.1 -03447.7 -07.5486 26244.6
 08 06 2013  00 46  -21.0384 26016.7 -03447.5 -07.5483 26244.1
 08 06 2013  00 47  -21.0381 26016.7 -03447.5 -07.5483 26244.1
 08 06 2013  00 48  -21.0378 26017.0 -03447.7 -07.5487 26244.5
 08 06 2013  00 49  -21.0375 26017.3 -03447.9 -07.5490 26244.8
 08 06 2013  00 50  -21.0375 26017.5 -03448.1 -07.5493 26245.0
 08 06 2013  00 51  -21.0374 26017.8 -03448.2 -07.5496 26245.3
 08 06 2013  00 52  -21.0372 26018.0 -03448.4 -07.5499 26245.5
 08 06 2013  00 53  -21.0371 26017.7 -03448.3 -07.5498 26245.2
 08 06 2013  00 54  -21.0373 26017.2 -03448.1 -07.5494 26244.6
 08 06 2013  00 55  -21.0377 26016.7 -03447.9 -07.5491 26244.2
 08 06 2013  00 56  -21.0378 26016.4 -03447.8 -07.5490 26243.9
 08 06 2013  00 57  -21.0379 26016.2 -03447.7 -07.5489 26243.7
 08 06 2013  00 58  -21.0379 26016.1 -03447.7 -07.5489 26243.6
 08 06 2013  00 59  -21.0378 26016.1 -03447.7 -07.5490 26243.6
 08 06 2013  01 00  -21.0376 26016.3 -03447.8 -07.5492 26243.7
 08 06 2013  01 01  -21.0374 26016.7 -03448.1 -07.5496 26244.2
 08 06 2013  01 02  -21.0369 26017.3 -03448.4 -07.5502 26244.9
 08 06 2013  01 03  -21.0366 26017.9 -03448.7 -07.5507 26245.4
 08 06 2013  01 04  -21.0366 26018.1 -03448.9 -07.5510 26245.7
 08 06 2013  01 05  -21.0367 26018.0 -03448.9 -07.5510 26245.6
 08 06 2013  01 06  -21.0371 26017.8 -03448.9 -07.5510 26245.4
 08 06 2013  01 07  -21.0375 26017.6 -03448.8 -07.5508 26245.2
 08 06 2013  01 08  -21.0379 26017.5 -03448.7 -07.5508 26245.1
 08 06 2013  01 09  -21.0381 26017.3 -03448.6 -07.5506 26244.8
 08 06 2013  01 10  -21.0384 26017.0 -03448.5 -07.5503 26244.5
 08 06 2013  01 11  -21.0384 26017.0 -03448.4 -07.5503 26244.5
 08 06 2013  01 12  -21.0384 26017.1 -03448.5 -07.5504 26244.7
 08 06 2013  01 13  -21.0383 26017.3 -03448.7 -07.5507 26244.9
 08 06 2013  01 14  -21.0383 26017.5 -03448.8 -07.5509 26245.1
 08 06 2013  01 15  -21.0384 26017.7 -03448.9 -07.5510 26245.3
 08 06 2013  01 16  -21.0385 26017.8 -03449.0 -07.5512 26245.4
 08 06 2013  01 17  -21.0385 26017.9 -03449.0 -07.5512 26245.5
 08 06 2013  01 18  -21.0386 26017.9 -03449.0 -07.5513 26245.5
 08 06 2013  01 19  -21.0389 26017.8 -03449.0 -07.5512 26245.4
 08 06 2013  01 20  -21.0392 26017.6 -03448.9 -07.5511 26245.2
 08 06 2013  01 21  -21.0395 26017.3 -03448.7 -07.5509 26244.9
 08 06 2013  01 22  -21.0396 26017.1 -03448.6 -07.5507 26244.7
 08 06 2013  01 23  -21.0395 26017.2 -03448.7 -07.5507 26244.7
 08 06 2013  01 24  -21.0394 26017.0 -03448.6 -07.5506 26244.6
 08 06 2013  01 25  -21.0394 26016.7 -03448.5 -07.5505 26244.3
 08 06 2013  01 26  -21.0395 26016.4 -03448.4 -07.5503 26244.0
 08 06 2013  01 27  -21.0397 26016.1 -03448.3 -07.5502 26243.6
 08 06 2013  01 28  -21.0400 26015.8 -03448.1 -07.5500 26243.3
 08 06 2013  01 29  -21.0402 26015.6 -03448.1 -07.5499 26243.1
 08 06 2013  01 30  -21.0405 26015.5 -03448.1 -07.5499 26243.0
 08 06 2013  01 31  -21.0406 26015.5 -03448.2 -07.5501 26243.0
 08 06 2013  01 32  -21.0408 26015.6 -03448.3 -07.5503 26243.2
 08 06 2013  01 33  -21.0410 26015.6 -03448.3 -07.5504 26243.1
 08 06 2013  01 34  -21.0414 26015.4 -03448.3 -07.5504 26243.0
 08 06 2013  01 35  -21.0416 26015.3 -03448.3 -07.5504 26242.8
 08 06 2013  01 36  -21.0418 26015.2 -03448.2 -07.5503 26242.7
 08 06 2013  01 37  -21.0419 26015.2 -03448.3 -07.5505 26242.8
 08 06 2013  01 38  -21.0421 26015.4 -03448.4 -07.5507 26242.9
 08 06 2013  01 39  -21.0422 26015.6 -03448.5 -07.5509 26243.1
 08 06 2013  01 40  -21.0423 26015.7 -03448.6 -07.5511 26243.2
 08 06 2013  01 41  -21.0424 26015.8 -03448.7 -07.5512 26243.4
 08 06 2013  01 42  -21.0425 26016.0 -03448.8 -07.5513 26243.5
 08 06 2013  01 43  -21.0426 26016.1 -03448.9 -07.5515 26243.7
 08 06 2013  01 44  -21.0427 26016.1 -03448.9 -07.5515 26243.7
 08 06 2013  01 45  -21.0429 26016.0 -03448.9 -07.5515 26243.7
 08 06 2013  01 46  -21.0431 26016.0 -03448.9 -07.5515 26243.6
 08 06 2013  01 47  -21.0434 26015.9 -03448.8 -07.5514 26243.5
 08 06 2013  01 48  -21.0436 26015.9 -03448.8 -07.5513 26243.5
 08 06 2013  01 49  -21.0437 26015.9 -03448.8 -07.5513 26243.5
 08 06 2013  01 50  -21.0437 26015.9 -03448.8 -07.5514 26243.5
 08 06 2013  01 51  -21.0436 26016.0 -03448.8 -07.5514 26243.6
 08 06 2013  01 52  -21.0436 26016.0 -03448.8 -07.5514 26243.6
 08 06 2013  01 53  -21.0437 26016.0 -03448.8 -07.5514 26243.6
 08 06 2013  01 54  -21.0437 26016.1 -03448.9 -07.5515 26243.7
 08 06 2013  01 55  -21.0438 26016.1 -03448.9 -07.5514 26243.7
 08 06 2013  01 56  -21.0439 26016.1 -03448.9 -07.5515 26243.7
 08 06 2013  01 57  -21.0439 26016.1 -03448.9 -07.5515 26243.7
 08 06 2013  01 58  -21.0439 26016.1 -03448.9 -07.5515 26243.7
 08 06 2013  01 59  -21.0438 26016.1 -03448.9 -07.5515 26243.7
 08 06 2013  02 00  -21.0437 26016.2 -03448.9 -07.5515 26243.8
 08 06 2013  02 01  -21.0435 26016.6 -03449.1 -07.5518 26244.2
 08 06 2013  02 02  -21.0433 26017.2 -03449.4 -07.5523 26244.9
 08 06 2013  02 03  -21.0431 26017.8 -03449.7 -07.5528 26245.5
 08 06 2013  02 04  -21.0432 26018.0 -03449.8 -07.5530 26245.7
 08 06 2013  02 05  -21.0435 26018.0 -03449.8 -07.5529 26245.7
 08 06 2013  02 06  -21.0440 26017.8 -03449.7 -07.5528 26245.5
 08 06 2013  02 07  -21.0444 26017.6 -03449.6 -07.5526 26245.3
 08 06 2013  02 08  -21.0448 26017.3 -03449.4 -07.5522 26245.0
 08 06 2013  02 09  -21.0450 26017.1 -03449.2 -07.5520 26244.7
 08 06 2013  02 10  -21.0454 26016.8 -03449.1 -07.5518 26244.4
 08 06 2013  02 11  -21.0458 26016.6 -03449.0 -07.5515 26244.2
 08 06 2013  02 12  -21.0461 26016.4 -03448.9 -07.5514 26244.0
 08 06 2013  02 13  -21.0463 26016.2 -03448.8 -07.5513 26243.8
 08 06 2013  02 14  -21.0464 26016.1 -03448.7 -07.5511 26243.7
 08 06 2013  02 15  -21.0463 26016.2 -03448.7 -07.5511 26243.8
 08 06 2013  02 16  -21.0461 26016.5 -03448.9 -07.5514 26244.1
 08 06 2013  02 17  -21.0457 26017.0 -03449.1 -07.5518 26244.6
 08 06 2013  02 18  -21.0454 26017.6 -03449.5 -07.5523 26245.3
 08 06 2013  02 19  -21.0452 26018.4 -03449.9 -07.5529 26246.1
 08 06 2013  02 20  -21.0447 26019.3 -03450.3 -07.5537 26247.1
 08 06 2013  02 21  -21.0446 26020.3 -03450.9 -07.5545 26248.1
 08 06 2013  02 22  -21.0448 26021.0 -03451.2 -07.5551 26248.8
 08 06 2013  02 23  -21.0455 26021.2 -03451.3 -07.5553 26249.1
 08 06 2013  02 24  -21.0466 26020.9 -03451.1 -07.5550 26248.8
 08 06 2013  02 25  -21.0478 26020.0 -03450.7 -07.5542 26247.8
 08 06 2013  02 26  -21.0487 26018.8 -03450.0 -07.5531 26246.6
 08 06 2013  02 27  -21.0488 26017.7 -03449.2 -07.5518 26245.3
 08 06 2013  02 28  -21.0481 26016.8 -03448.6 -07.5506 26244.4
 08 06 2013  02 29  -21.0474 26016.3 -03448.2 -07.5500 26243.8
 08 06 2013  02 30  -21.0467 26016.2 -03448.1 -07.5499 26243.7
 08 06 2013  02 31  -21.0461 26016.1 -03448.1 -07.5498 26243.6
 08 06 2013  02 32  -21.0456 26016.2 -03448.2 -07.5501 26243.7
 08 06 2013  02 33  -21.0454 26016.8 -03448.7 -07.5508 26244.4
 08 06 2013  02 34  -21.0454 26017.3 -03449.1 -07.5516 26245.0
 08 06 2013  02 35  -21.0457 26017.5 -03449.3 -07.5520 26245.2
 08 06 2013  02 36  -21.0460 26017.6 -03449.4 -07.5522 26245.3
 08 06 2013  02 37  -21.0464 26017.7 -03449.5 -07.5524 26245.4
 08 06 2013  02 38  -21.0469 26017.7 -03449.5 -07.5524 26245.4
 08 06 2013  02 39  -21.0475 26017.2 -03449.3 -07.5521 26244.8
 08 06 2013  02 40  -21.0484 26016.4 -03449.0 -07.5516 26244.0
 08 06 2013  02 41  -21.0493 26015.6 -03448.5 -07.5509 26243.2
 08 06 2013  02 42  -21.0496 26015.2 -03448.3 -07.5505 26242.7
 08 06 2013  02 43  -21.0495 26014.7 -03448.1 -07.5501 26242.3
 08 06 2013  02 44  -21.0494 26014.3 -03447.9 -07.5499 26241.8
 08 06 2013  02 45  -21.0495 26013.7 -03447.7 -07.5495 26241.2
 08 06 2013  02 46  -21.0496 26013.0 -03447.3 -07.5490 26240.4
 08 06 2013  02 47  -21.0494 26012.4 -03447.0 -07.5485 26239.8
 08 06 2013  02 48  -21.0487 26012.3 -03446.9 -07.5484 26239.6
 08 06 2013  02 49  -21.0481 26012.7 -03447.2 -07.5489 26240.1
 08 06 2013  02 50  -21.0479 26013.3 -03447.7 -07.5498 26240.8
 08 06 2013  02 51  -21.0479 26014.0 -03448.2 -07.5507 26241.5
 08 06 2013  02 52  -21.0480 26014.2 -03448.5 -07.5512 26241.8
 08 06 2013  02 53  -21.0486 26013.8 -03448.4 -07.5511 26241.4
 08 06 2013  02 54  -21.0493 26013.1 -03448.1 -07.5506 26240.6
 08 06 2013  02 55  -21.0499 26012.3 -03447.7 -07.5500 26239.8
 08 06 2013  02 56  -21.0502 26011.8 -03447.4 -07.5495 26239.2
 08 06 2013  02 57  -21.0503 26011.6 -03447.3 -07.5493 26239.0
 08 06 2013  02 58  -21.0503 26011.4 -03447.2 -07.5493 26238.9
 08 06 2013  02 59  -21.0502 26011.4 -03447.3 -07.5494 26238.9
 08 06 2013  03 00  -21.0503 26011.4 -03447.4 -07.5496 26238.8
 08 06 2013  03 01  -21.0508 26011.4 -03447.5 -07.5498 26238.8
 08 06 2013  03 02  -21.0512 26011.3 -03447.6 -07.5500 26238.8
 08 06 2013  03 03  -21.0511 26011.2 -03447.5 -07.5500 26238.7
 08 06 2013  03 04  -21.0508 26011.1 -03447.5 -07.5500 26238.6
 08 06 2013  03 05  -21.0503 26011.1 -03447.6 -07.5500 26238.6
 08 06 2013  03 06  -21.0497 26010.8 -03447.4 -07.5499 26238.3
 08 06 2013  03 07  -21.0495 26010.6 -03447.4 -07.5498 26238.0
 08 06 2013  03 08  -21.0493 26010.4 -03447.3 -07.5497 26237.8
 08 06 2013  03 09  -21.0490 26010.2 -03447.3 -07.5497 26237.6
 08 06 2013  03 10  -21.0487 26010.1 -03447.3 -07.5498 26237.6
 08 06 2013  03 11  -21.0488 26009.9 -03447.3 -07.5499 26237.4
 08 06 2013  03 12  -21.0487 26009.8 -03447.3 -07.5500 26237.3
 08 06 2013  03 13  -21.0484 26009.7 -03447.4 -07.5501 26237.2
 08 06 2013  03 14  -21.0480 26009.7 -03447.4 -07.5501 26237.2
 08 06 2013  03 15  -21.0476 26010.0 -03447.6 -07.5504 26237.5
 08 06 2013  03 16  -21.0472 26010.4 -03447.9 -07.5509 26237.9
 08 06 2013  03 17  -21.0468 26010.7 -03448.1 -07.5514 26238.2
 08 06 2013  03 18  -21.0465 26010.9 -03448.3 -07.5517 26238.4
 08 06 2013  03 19  -21.0466 26010.7 -03448.3 -07.5518 26238.3
 08 06 2013  03 20  -21.0465 26010.8 -03448.3 -07.5518 26238.3
 08 06 2013  03 21  -21.0465 26010.5 -03448.3 -07.5517 26238.1
 08 06 2013  03 22  -21.0458 26010.6 -03448.2 -07.5516 26238.1
 08 06 2013  03 23  -21.0450 26010.9 -03448.4 -07.5519 26238.4
 08 06 2013  03 24  -21.0444 26010.7 -03448.3 -07.5517 26238.3
 08 06 2013  03 25  -21.0433 26011.3 -03448.5 -07.5520 26238.9
 08 06 2013  03 26  -21.0414 26013.6 -03449.6 -07.5537 26241.3
 08 06 2013  03 27  -21.0408 26014.8 -03450.3 -07.5550 26242.6
 08 06 2013  03 28  -21.0387 26018.1 -03451.9 -07.5575 26246.1
 08 06 2013  03 29  -21.0379 26020.4 -03453.1 -07.5594 26248.6
 08 06 2013  03 30  -21.0373 26023.2 -03454.5 -07.5616 26251.5
 08 06 2013  03 31  -21.0373 26025.0 -03455.4 -07.5629 26253.4
 08 06 2013  03 32  -21.0369 26026.7 -03456.0 -07.5638 26255.2
 08 06 2013  03 33  -21.0371 26027.4 -03456.1 -07.5638 26255.9
 08 06 2013  03 34  -21.0376 26027.9 -03456.1 -07.5636 26256.4
 08 06 2013  03 35  -21.0381 26027.5 -03455.6 -07.5627 26255.9
 08 06 2013  03 36  -21.0383 26027.2 -03455.1 -07.5617 26255.5
 08 06 2013  03 37  -21.0379 26026.8 -03454.5 -07.5606 26255.0
 08 06 2013  03 38  -21.0372 26027.0 -03454.3 -07.5601 26255.2
 08 06 2013  03 39  -21.0376 26026.7 -03454.0 -07.5595 26254.9
 08 06 2013  03 40  -21.0376 26027.0 -03454.0 -07.5595 26255.2
 08 06 2013  03 41  -21.0379 26026.5 -03453.7 -07.5589 26254.6
 08 06 2013  03 42  -21.0386 26025.4 -03453.0 -07.5578 26253.5
 08 06 2013  03 43  -21.0394 26024.1 -03452.3 -07.5565 26252.1
 08 06 2013  03 44  -21.0396 26023.2 -03451.6 -07.5554 26251.1
 08 06 2013  03 45  -21.0395 26022.5 -03451.2 -07.5547 26250.4
 08 06 2013  03 46  -21.0396 26021.7 -03450.8 -07.5540 26249.5
 08 06 2013  03 47  -21.0395 26021.4 -03450.6 -07.5537 26249.2
 08 06 2013  03 48  -21.0398 26020.6 -03450.3 -07.5533 26248.3
 08 06 2013  03 49  -21.0394 26020.6 -03450.3 -07.5532 26248.3
 08 06 2013  03 50  -21.0389 26020.7 -03450.3 -07.5533 26248.4
 08 06 2013  03 51  -21.0385 26020.6 -03450.4 -07.5534 26248.4
 08 06 2013  03 52  -21.0383 26020.7 -03450.4 -07.5535 26248.5
 08 06 2013  03 53  -21.0382 26020.9 -03450.6 -07.5539 26248.7
 08 06 2013  03 54  -21.0379 26021.2 -03450.8 -07.5541 26249.0
 08 06 2013  03 55  -21.0382 26021.0 -03450.7 -07.5541 26248.8
 08 06 2013  03 56  -21.0386 26021.0 -03450.7 -07.5541 26248.8
 08 06 2013  03 57  -21.0390 26021.4 -03450.9 -07.5543 26249.2
 08 06 2013  03 58  -21.0387 26022.5 -03451.5 -07.5553 26250.4
 08 06 2013  03 59  -21.0385 26023.0 -03451.6 -07.5554 26250.9
 08 06 2013  04 00  -21.0383 26023.5 -03451.9 -07.5558 26251.4
 08 06 2013  04 01  -21.0378 26024.5 -03452.2 -07.5563 26252.5
 08 06 2013  04 02  -21.0375 26025.5 -03452.7 -07.5570 26253.6
 08 06 2013  04 03  -21.0374 26026.0 -03452.9 -07.5573 26254.1
 08 06 2013  04 04  -21.0372 26026.5 -03453.0 -07.5574 26254.5
 08 06 2013  04 05  -21.0370 26027.0 -03453.1 -07.5575 26255.0
 08 06 2013  04 06  -21.0369 26027.4 -03453.2 -07.5577 26255.5
 08 06 2013  04 07  -21.0369 26027.6 -03453.2 -07.5575 26255.7
 08 06 2013  04 08  -21.0370 26027.6 -03453.1 -07.5574 26255.7
 08 06 2013  04 09  -21.0372 26027.6 -03453.0 -07.5571 26255.6
 08 06 2013  04 10  -21.0373 26027.5 -03452.8 -07.5567 26255.5
 08 06 2013  04 11  -21.0372 26027.2 -03452.6 -07.5563 26255.2
 08 06 2013  04 12  -21.0372 26026.9 -03452.3 -07.5558 26254.9
 08 06 2013  04 13  -21.0369 26026.8 -03452.2 -07.5555 26254.8
 08 06 2013  04 14  -21.0367 26026.5 -03451.9 -07.5551 26254.4
 08 06 2013  04 15  -21.0364 26026.5 -03451.8 -07.5549 26254.4
 08 06 2013  04 16  -21.0365 26026.3 -03451.7 -07.5547 26254.2
 08 06 2013  04 17  -21.0368 26026.3 -03451.7 -07.5546 26254.1
 08 06 2013  04 18  -21.0370 26026.2 -03451.6 -07.5545 26254.1
 08 06 2013  04 19  -21.0371 26025.9 -03451.5 -07.5543 26253.8
 08 06 2013  04 20  -21.0372 26025.8 -03451.4 -07.5541 26253.7
 08 06 2013  04 21  -21.0373 26025.6 -03451.2 -07.5539 26253.5
 08 06 2013  04 22  -21.0370 26025.7 -03451.2 -07.5538 26253.5
 08 06 2013  04 23  -21.0370 26025.2 -03451.0 -07.5535 26253.0
 08 06 2013  04 24  -21.0370 26025.0 -03450.9 -07.5533 26252.8
 08 06 2013  04 25  -21.0368 26024.8 -03450.8 -07.5532 26252.6
 08 06 2013  04 26  -21.0366 26024.6 -03450.7 -07.5530 26252.4
 08 06 2013  04 27  -21.0364 26024.4 -03450.6 -07.5528 26252.2
 08 06 2013  04 28  -21.0359 26024.4 -03450.6 -07.5528 26252.1
 08 06 2013  04 29  -21.0356 26024.1 -03450.5 -07.5527 26251.9
 08 06 2013  04 30  -21.0355 26023.9 -03450.4 -07.5525 26251.7
 08 06 2013  04 31  -21.0355 26023.8 -03450.4 -07.5526 26251.6
 08 06 2013  04 32  -21.0355 26023.5 -03450.3 -07.5524 26251.3
 08 06 2013  04 33  -21.0353 26023.3 -03450.2 -07.5522 26251.0
 08 06 2013  04 34  -21.0351 26023.2 -03450.1 -07.5522 26250.9
 08 06 2013  04 35  -21.0351 26023.0 -03450.1 -07.5522 26250.7
 08 06 2013  04 36  -21.0351 26023.0 -03450.1 -07.5522 26250.7
 08 06 2013  04 37  -21.0350 26022.9 -03450.1 -07.5522 26250.6
 08 06 2013  04 38  -21.0351 26022.7 -03450.1 -07.5522 26250.4
 08 06 2013  04 39  -21.0352 26022.6 -03450.0 -07.5521 26250.3
 08 06 2013  04 40  -21.0355 26022.5 -03450.0 -07.5521 26250.2
 08 06 2013  04 41  -21.0355 26022.4 -03449.9 -07.5520 26250.1
 08 06 2013  04 42  -21.0355 26022.2 -03449.9 -07.5519 26249.8
 08 06 2013  04 43  -21.0355 26022.0 -03449.8 -07.5517 26249.6
 08 06 2013  04 44  -21.0358 26021.7 -03449.7 -07.5516 26249.3
 08 06 2013  04 45  -21.0362 26021.3 -03449.5 -07.5513 26248.9
 08 06 2013  04 46  -21.0362 26020.9 -03449.3 -07.5510 26248.5
 08 06 2013  04 47  -21.0360 26020.5 -03449.1 -07.5508 26248.1
 08 06 2013  04 48  -21.0360 26020.1 -03449.0 -07.5505 26247.7
 08 06 2013  04 49  -21.0362 26019.6 -03448.8 -07.5503 26247.2
 08 06 2013  04 50  -21.0363 26019.2 -03448.6 -07.5501 26246.8
 08 06 2013  04 51  -21.0365 26018.9 -03448.6 -07.5500 26246.5
 08 06 2013  04 52  -21.0370 26018.7 -03448.6 -07.5500 26246.3
 08 06 2013  04 53  -21.0375 26018.5 -03448.5 -07.5500 26246.0
 08 06 2013  04 54  -21.0377 26018.3 -03448.5 -07.5500 26245.9
 08 06 2013  04 55  -21.0375 26018.2 -03448.4 -07.5499 26245.7
 08 06 2013  04 56  -21.0374 26018.0 -03448.4 -07.5500 26245.5
 08 06 2013  04 57  -21.0372 26017.8 -03448.4 -07.5499 26245.3
 08 06 2013  04 58  -21.0368 26017.5 -03448.3 -07.5498 26245.0
 08 06 2013  04 59  -21.0365 26017.2 -03448.2 -07.5496 26244.7
 08 06 2013  05 00  -21.0363 26017.1 -03448.2 -07.5497 26244.6
 08 06 2013  05 01  -21.0366 26017.2 -03448.4 -07.5501 26244.7
 08 06 2013  05 02  -21.0369 26017.3 -03448.5 -07.5504 26244.9
 08 06 2013  05 03  -21.0374 26017.3 -03448.6 -07.5506 26244.9
 08 06 2013  05 04  -21.0378 26017.3 -03448.6 -07.5506 26244.8
 08 06 2013  05 05  -21.0377 26017.2 -03448.6 -07.5506 26244.8
 08 06 2013  05 06  -21.0374 26017.1 -03448.6 -07.5505 26244.7
 08 06 2013  05 07  -21.0368 26017.0 -03448.5 -07.5504 26244.6
 08 06 2013  05 08  -21.0359 26017.0 -03448.5 -07.5503 26244.6
 08 06 2013  05 09  -21.0349 26017.4 -03448.5 -07.5504 26244.9
 08 06 2013  05 10  -21.0338 26017.7 -03448.8 -07.5508 26245.3
 08 06 2013  05 11  -21.0334 26017.8 -03449.0 -07.5512 26245.5
 08 06 2013  05 12  -21.0330 26017.9 -03449.1 -07.5514 26245.5
 08 06 2013  05 13  -21.0329 26018.1 -03449.2 -07.5517 26245.7
 08 06 2013  05 14  -21.0331 26018.3 -03449.4 -07.5519 26246.0
 08 06 2013  05 15  -21.0333 26018.7 -03449.6 -07.5523 26246.4
 08 06 2013  05 16  -21.0336 26019.1 -03449.9 -07.5527 26246.9
 08 06 2013  05 17  -21.0342 26019.3 -03450.0 -07.5529 26247.0
 08 06 2013  05 18  -21.0345 26019.2 -03449.9 -07.5527 26246.9
 08 06 2013  05 19  -21.0345 26019.1 -03449.8 -07.5525 26246.8
 08 06 2013  05 20  -21.0346 26019.2 -03449.8 -07.5525 26246.9
 08 06 2013  05 21  -21.0350 26019.4 -03449.8 -07.5525 26247.1
 08 06 2013  05 22  -21.0353 26019.9 -03450.1 -07.5530 26247.7
 08 06 2013  05 23  -21.0356 26020.7 -03450.5 -07.5536 26248.4
 08 06 2013  05 24  -21.0361 26021.2 -03450.7 -07.5540 26249.0
 08 06 2013  05 25  -21.0369 26021.2 -03450.7 -07.5540 26249.0
 08 06 2013  05 26  -21.0383 26020.7 -03450.5 -07.5536 26248.5
 08 06 2013  05 27  -21.0400 26019.9 -03450.0 -07.5529 26247.7
 08 06 2013  05 28  -21.0422 26019.1 -03449.6 -07.5521 26246.8
 08 06 2013  05 29  -21.0442 26018.2 -03449.1 -07.5513 26245.8
 08 06 2013  05 30  -21.0460 26017.6 -03448.7 -07.5507 26245.1
 08 06 2013  05 31  -21.0475 26017.2 -03448.5 -07.5503 26244.8
 08 06 2013  05 32  -21.0483 26017.2 -03448.4 -07.5501 26244.7
 08 06 2013  05 33  -21.0484 26017.2 -03448.4 -07.5500 26244.8
 08 06 2013  05 34  -21.0481 26017.3 -03448.3 -07.5500 26244.8
 08 06 2013  05 35  -21.0474 26017.2 -03448.2 -07.5498 26244.8
 08 06 2013  05 36  -21.0468 26017.2 -03448.2 -07.5497 26244.7
 08 06 2013  05 37  -21.0461 26017.2 -03448.2 -07.5496 26244.7
 08 06 2013  05 38  -21.0454 26017.2 -03448.2 -07.5496 26244.7
 08 06 2013  05 39  -21.0449 26017.2 -03448.2 -07.5497 26244.7
 08 06 2013  05 40  -21.0443 26017.3 -03448.2 -07.5497 26244.8
 08 06 2013  05 41  -21.0435 26017.3 -03448.3 -07.5498 26244.8
 08 06 2013  05 42  -21.0429 26017.2 -03448.3 -07.5498 26244.8
 08 06 2013  05 43  -21.0423 26017.1 -03448.2 -07.5498 26244.7
 08 06 2013  05 44  -21.0417 26017.1 -03448.3 -07.5499 26244.6
 08 06 2013  05 45  -21.0411 26017.0 -03448.3 -07.5499 26244.5
 08 06 2013  05 46  -21.0407 26017.1 -03448.4 -07.5501 26244.7
 08 06 2013  05 47  -21.0401 26017.4 -03448.6 -07.5505 26245.0
 08 06 2013  05 48  -21.0398 26017.8 -03448.8 -07.5508 26245.3
 08 06 2013  05 49  -21.0396 26018.0 -03449.0 -07.5512 26245.6
 08 06 2013  05 50  -21.0395 26018.2 -03449.2 -07.5515 26245.8
 08 06 2013  05 51  -21.0394 26018.3 -03449.2 -07.5516 26246.0
 08 06 2013  05 52  -21.0393 26018.5 -03449.3 -07.5518 26246.1
 08 06 2013  05 53  -21.0392 26018.4 -03449.3 -07.5518 26246.0
 08 06 2013  05 54  -21.0392 26018.2 -03449.2 -07.5516 26245.8
 08 06 2013  05 55  -21.0392 26018.0 -03449.1 -07.5514 26245.7
 08 06 2013  05 56  -21.0393 26018.1 -03449.1 -07.5515 26245.7
 08 06 2013  05 57  -21.0394 26018.2 -03449.2 -07.5516 26245.8
 08 06 2013  05 58  -21.0393 26018.2 -03449.3 -07.5517 26245.9
 08 06 2013  05 59  -21.0394 26018.4 -03449.3 -07.5519 26246.0
 08 06 2013  06 00  -21.0395 26018.5 -03449.4 -07.5520 26246.2
 08 06 2013  06 01  -21.0397 26018.6 -03449.5 -07.5521 26246.3
 08 06 2013  06 02  -21.0399 26018.8 -03449.6 -07.5523 26246.4
 08 06 2013  06 03  -21.0402 26019.0 -03449.7 -07.5524 26246.7
 08 06 2013  06 04  -21.0403 26019.4 -03449.8 -07.5526 26247.1
 08 06 2013  06 05  -21.0404 26019.7 -03450.0 -07.5528 26247.4
 08 06 2013  06 06  -21.0402 26020.0 -03450.0 -07.5529 26247.7
 08 06 2013  06 07  -21.0399 26020.2 -03450.1 -07.5530 26247.9
 08 06 2013  06 08  -21.0398 26019.9 -03450.0 -07.5527 26247.6
 08 06 2013  06 09  -21.0400 26019.5 -03449.7 -07.5523 26247.2
 08 06 2013  06 10  -21.0404 26019.2 -03449.5 -07.5520 26246.9
 08 06 2013  06 11  -21.0407 26019.3 -03449.6 -07.5520 26246.9
 08 06 2013  06 12  -21.0411 26019.4 -03449.7 -07.5522 26247.1
 08 06 2013  06 13  -21.0418 26019.4 -03449.6 -07.5522 26247.1
 08 06 2013  06 14  -21.0422 26019.4 -03449.6 -07.5522 26247.1
 08 06 2013  06 15  -21.0422 26020.0 -03449.8 -07.5524 26247.7
 08 06 2013  06 16  -21.0409 26021.4 -03450.5 -07.5534 26249.1
 08 06 2013  06 17  -21.0399 26022.6 -03451.1 -07.5543 26250.5
 08 06 2013  06 18  -21.0397 26023.5 -03451.5 -07.5550 26251.4
 08 06 2013  06 19  -21.0400 26023.9 -03451.7 -07.5553 26251.8
 08 06 2013  06 20  -21.0405 26024.1 -03451.7 -07.5552 26252.0
 08 06 2013  06 21  -21.0406 26023.8 -03451.4 -07.5547 26251.7
 08 06 2013  06 22  -21.0401 26023.2 -03450.9 -07.5538 26251.0
 08 06 2013  06 23  -21.0392 26022.5 -03450.3 -07.5527 26250.3
 08 06 2013  06 24  -21.0376 26022.3 -03449.9 -07.5520 26250.0
 08 06 2013  06 25  -21.0365 26021.9 -03449.7 -07.5517 26249.6
 08 06 2013  06 26  -21.0356 26021.4 -03449.5 -07.5513 26249.0
 08 06 2013  06 27  -21.0351 26021.8 -03449.7 -07.5516 26249.5
 08 06 2013  06 28  -21.0341 26022.8 -03450.2 -07.5525 26250.5
 08 06 2013  06 29  -21.0330 26023.8 -03450.8 -07.5533 26251.6
 08 06 2013  06 30  -21.0317 26024.6 -03451.2 -07.5541 26252.5
 08 06 2013  06 31  -21.0308 26025.2 -03451.5 -07.5545 26253.1
 08 06 2013  06 32  -21.0300 26026.0 -03451.8 -07.5551 26253.9
 08 06 2013  06 33  -21.0294 26025.9 -03451.8 -07.5550 26253.8
 08 06 2013  06 34  -21.0289 26025.5 -03451.6 -07.5546 26253.4
 08 06 2013  06 35  -21.0286 26025.5 -03451.5 -07.5544 26253.3
 08 06 2013  06 36  -21.0282 26025.5 -03451.5 -07.5544 26253.4
 08 06 2013  06 37  -21.0281 26025.7 -03451.6 -07.5545 26253.5
 08 06 2013  06 38  -21.0279 26025.8 -03451.6 -07.5547 26253.7
 08 06 2013  06 39  -21.0275 26025.9 -03451.6 -07.5547 26253.7
 08 06 2013  06 40  -21.0273 26025.8 -03451.6 -07.5546 26253.6
 08 06 2013  06 41  -21.0270 26025.7 -03451.5 -07.5545 26253.5
 08 06 2013  06 42  -21.0266 26025.7 -03451.5 -07.5545 26253.6
 08 06 2013  06 43  -21.0262 26025.8 -03451.6 -07.5545 26253.7
 08 06 2013  06 44  -21.0257 26025.8 -03451.6 -07.5546 26253.7
 08 06 2013  06 45  -21.0252 26026.0 -03451.7 -07.5548 26253.9
 08 06 2013  06 46  -21.0248 26026.1 -03451.8 -07.5550 26254.0
 08 06 2013  06 47  -21.0246 26026.3 -03451.9 -07.5551 26254.2
 08 06 2013  06 48  -21.0244 26026.2 -03452.0 -07.5552 26254.2
 08 06 2013  06 49  -21.0242 26026.4 -03452.0 -07.5553 26254.3
 08 06 2013  06 50  -21.0236 26026.6 -03452.1 -07.5555 26254.6
 08 06 2013  06 51  -21.0227 26026.5 -03452.1 -07.5555 26254.5
 08 06 2013  06 52  -21.0220 26026.3 -03452.0 -07.5553 26254.3
 08 06 2013  06 53  -21.0214 26026.2 -03451.9 -07.5552 26254.1
 08 06 2013  06 54  -21.0210 26026.3 -03452.0 -07.5553 26254.2
 08 06 2013  06 55  -21.0207 26026.2 -03452.0 -07.5554 26254.2
 08 06 2013  06 56  -21.0204 26026.4 -03452.1 -07.5556 26254.3
 08 06 2013  06 57  -21.0201 26026.4 -03452.2 -07.5558 26254.4
 08 06 2013  06 58  -21.0202 26026.4 -03452.2 -07.5557 26254.4
 08 06 2013  06 59  -21.0197 26027.0 -03452.6 -07.5563 26255.0
 08 06 2013  07 00  -21.0188 26026.9 -03452.5 -07.5563 26254.9
 08 06 2013  07 01  -21.0182 26027.5 -03452.7 -07.5566 26255.5
 08 06 2013  07 02  -21.0174 26028.1 -03453.1 -07.5572 26256.2
 08 06 2013  07 03  -21.0160 26028.1 -03453.1 -07.5572 26256.2
 08 06 2013  07 04  -21.0150 26027.3 -03452.7 -07.5566 26255.3
 08 06 2013  07 05  -21.0149 26026.8 -03452.4 -07.5560 26254.7
 08 06 2013  07 06  -21.0156 26026.4 -03452.4 -07.5560 26254.4
 08 06 2013  07 07  -21.0165 26026.0 -03452.2 -07.5558 26253.9
 08 06 2013  07 08  -21.0175 26024.6 -03451.6 -07.5549 26252.5
 08 06 2013  07 09  -21.0186 26023.2 -03450.9 -07.5539 26251.1
 08 06 2013  07 10  -21.0197 26021.7 -03450.2 -07.5528 26249.5
 08 06 2013  07 11  -21.0213 26020.2 -03449.6 -07.5519 26247.9
 08 06 2013  07 12  -21.0232 26019.1 -03449.2 -07.5512 26246.8
 08 06 2013  07 13  -21.0255 26018.7 -03449.1 -07.5512 26246.3
 08 06 2013  07 14  -21.0279 26018.5 -03449.1 -07.5514 26246.1
 08 06 2013  07 15  -21.0298 26018.3 -03449.2 -07.5516 26246.0
 08 06 2013  07 16  -21.0308 26018.3 -03449.2 -07.5517 26245.9
 08 06 2013  07 17  -21.0314 26018.3 -03449.3 -07.5517 26245.9
 08 06 2013  07 18  -21.0316 26018.2 -03449.2 -07.5517 26245.9
 08 06 2013  07 19  -21.0315 26018.3 -03449.3 -07.5517 26246.0
 08 06 2013  07 20  -21.0310 26018.5 -03449.3 -07.5518 26246.1
 08 06 2013  07 21  -21.0304 26018.6 -03449.4 -07.5518 26246.2
 08 06 2013  07 22  -21.0299 26018.6 -03449.4 -07.5519 26246.3
 08 06 2013  07 23  -21.0297 26018.6 -03449.5 -07.5521 26246.3
 08 06 2013  07 24  -21.0296 26018.8 -03449.6 -07.5524 26246.5
 08 06 2013  07 25  -21.0295 26019.0 -03449.8 -07.5526 26246.7
 08 06 2013  07 26  -21.0292 26019.1 -03449.9 -07.5528 26246.8
 08 06 2013  07 27  -21.0289 26019.4 -03450.1 -07.5531 26247.2
 08 06 2013  07 28  -21.0290 26019.9 -03450.3 -07.5536 26247.7
 08 06 2013  07 29  -21.0288 26020.2 -03450.5 -07.5538 26248.0
 08 06 2013  07 30  -21.0283 26021.0 -03450.9 -07.5544 26248.9
 08 06 2013  07 31  -21.0270 26021.4 -03451.1 -07.5547 26249.3
 08 06 2013  07 32  -21.0250 26021.8 -03451.2 -07.5548 26249.7
 08 06 2013  07 33  -21.0233 26022.0 -03451.3 -07.5550 26249.9
 08 06 2013  07 34  -21.0220 26022.0 -03451.3 -07.5551 26249.9
 08 06 2013  07 35  -21.0212 26022.8 -03451.8 -07.5558 26250.7
 08 06 2013  07 36  -21.0211 26023.2 -03452.1 -07.5563 26251.2
 08 06 2013  07 37  -21.0210 26023.7 -03452.4 -07.5569 26251.7
 08 06 2013  07 38  -21.0204 26024.0 -03452.5 -07.5571 26252.0
 08 06 2013  07 39  -21.0197 26022.7 -03451.8 -07.5560 26250.7
 08 06 2013  07 40  -21.0195 26022.3 -03451.6 -07.5556 26250.2
 08 06 2013  07 41  -21.0199 26021.8 -03451.5 -07.5554 26249.7
 08 06 2013  07 42  -21.0209 26021.4 -03451.4 -07.5554 26249.3
 08 06 2013  07 43  -21.0224 26021.2 -03451.4 -07.5554 26249.1
 08 06 2013  07 44  -21.0240 26021.3 -03451.5 -07.5557 26249.2
 08 06 2013  07 45  -21.0255 26021.5 -03451.6 -07.5559 26249.4
 08 06 2013  07 46  -21.0266 26021.5 -03451.6 -07.5559 26249.4
 08 06 2013  07 47  -21.0269 26021.2 -03451.4 -07.5556 26249.1
 08 06 2013  07 48  -21.0269 26020.7 -03451.1 -07.5550 26248.6
 08 06 2013  07 49  -21.0269 26020.3 -03450.8 -07.5545 26248.1
 08 06 2013  07 50  -21.0274 26020.2 -03450.8 -07.5545 26248.1
 08 06 2013  07 51  -21.0280 26020.5 -03451.0 -07.5548 26248.4
 08 06 2013  07 52  -21.0281 26020.9 -03451.1 -07.5550 26248.7
 08 06 2013  07 53  -21.0276 26021.3 -03451.3 -07.5553 26249.1
 08 06 2013  07 54  -21.0268 26021.3 -03451.3 -07.5553 26249.2
 08 06 2013  07 55  -21.0266 26021.2 -03451.2 -07.5551 26249.1
 08 06 2013  07 56  -21.0269 26021.0 -03451.1 -07.5550 26248.9
 08 06 2013  07 57  -21.0273 26021.2 -03451.2 -07.5551 26249.1
 08 06 2013  07 58  -21.0274 26021.3 -03451.3 -07.5552 26249.2
 08 06 2013  07 59  -21.0274 26021.6 -03451.4 -07.5553 26249.5
 08 06 2013  08 00  -21.0271 26021.7 -03451.4 -07.5553 26249.6
 08 06 2013  08 01  -21.0267 26021.8 -03451.4 -07.5554 26249.7
 08 06 2013  08 02  -21.0263 26021.8 -03451.4 -07.5554 26249.7
 08 06 2013  08 03  -21.0260 26021.7 -03451.4 -07.5553 26249.5
 08 06 2013  08 04  -21.0261 26021.7 -03451.4 -07.5553 26249.5
 08 06 2013  08 05  -21.0262 26021.8 -03451.5 -07.5554 26249.7
 08 06 2013  08 06  -21.0264 26021.9 -03451.6 -07.5556 26249.8
 08 06 2013  08 07  -21.0264 26021.9 -03451.6 -07.5557 26249.9
 08 06 2013  08 08  -21.0262 26022.2 -03451.7 -07.5559 26250.1
 08 06 2013  08 09  -21.0259 26022.2 -03451.8 -07.5560 26250.1
 08 06 2013  08 10  -21.0260 26022.0 -03451.7 -07.5559 26249.9
 08 06 2013  08 11  -21.0261 26021.9 -03451.7 -07.5559 26249.8
 08 06 2013  08 12  -21.0263 26021.8 -03451.7 -07.5560 26249.8
 08 06 2013  08 13  -21.0263 26021.8 -03451.7 -07.5560 26249.7
 08 06 2013  08 14  -21.0258 26021.6 -03451.7 -07.5559 26249.5
 08 06 2013  08 15  -21.0250 26021.5 -03451.6 -07.5559 26249.4
 08 06 2013  08 16  -21.0244 26021.5 -03451.7 -07.5560 26249.4
 08 06 2013  08 17  -21.0237 26021.5 -03451.7 -07.5562 26249.4
 08 06 2013  08 18  -21.0232 26021.6 -03451.9 -07.5564 26249.5
 08 06 2013  08 19  -21.0218 26021.7 -03452.0 -07.5566 26249.7
 08 06 2013  08 20  -21.0186 26023.0 -03452.6 -07.5576 26251.0
 08 06 2013  08 21  -21.0162 26024.2 -03453.4 -07.5589 26252.3
 08 06 2013  08 22  -21.0146 26024.6 -03453.7 -07.5596 26252.8
 08 06 2013  08 23  -21.0134 26024.4 -03453.8 -07.5598 26252.6
 08 06 2013  08 24  -21.0105 26024.5 -03453.9 -07.5599 26252.7
 08 06 2013  08 25  -21.0074 26025.8 -03454.4 -07.5607 26254.1
 08 06 2013  08 26  -21.0052 26027.6 -03455.3 -07.5622 26255.9
 08 06 2013  08 27  -21.0029 26029.9 -03456.5 -07.5640 26258.4
 08 06 2013  08 28  -20.9998 26032.2 -03457.7 -07.5660 26260.9
 08 06 2013  08 29  -20.9963 26033.5 -03458.3 -07.5669 26262.2
 08 06 2013  08 30  -20.9940 26033.8 -03458.4 -07.5669 26262.5
 08 06 2013  08 31  -20.9931 26032.7 -03457.7 -07.5658 26261.3
 08 06 2013  08 32  -20.9951 26032.9 -03457.6 -07.5655 26261.5
 08 06 2013  08 33  -20.9964 26033.5 -03457.7 -07.5656 26262.1
 08 06 2013  08 34  -20.9969 26033.7 -03457.7 -07.5654 26262.4
 08 06 2013  08 35  -20.9982 26033.9 -03457.7 -07.5654 26262.5
 08 06 2013  08 36  -20.9996 26033.9 -03457.6 -07.5653 26262.5
 08 06 2013  08 37  -21.0001 26034.1 -03457.5 -07.5650 26262.7
 08 06 2013  08 38  -21.0007 26034.2 -03457.4 -07.5648 26262.8
 08 06 2013  08 39  -21.0015 26034.0 -03457.2 -07.5644 26262.5
 08 06 2013  08 40  -21.0023 26034.0 -03457.1 -07.5640 26262.5
 08 06 2013  08 41  -21.0030 26034.2 -03457.0 -07.5638 26262.7
 08 06 2013  08 42  -21.0031 26034.3 -03456.9 -07.5636 26262.8
 08 06 2013  08 43  -21.0029 26034.4 -03456.8 -07.5634 26262.9
 08 06 2013  08 44  -21.0027 26034.5 -03456.7 -07.5632 26263.0
 08 06 2013  08 45  -21.0027 26034.6 -03456.7 -07.5631 26263.1
 08 06 2013  08 46  -21.0016 26035.0 -03456.6 -07.5629 26263.5
 08 06 2013  08 47  -21.0010 26035.6 -03456.8 -07.5631 26264.1
 08 06 2013  08 48  -21.0004 26036.0 -03456.9 -07.5630 26264.5
 08 06 2013  08 49  -21.0004 26036.1 -03456.8 -07.5630 26264.6
 08 06 2013  08 50  -21.0003 26036.3 -03456.8 -07.5629 26264.8
 08 06 2013  08 51  -21.0000 26036.6 -03456.9 -07.5629 26265.1
 08 06 2013  08 52  -20.9999 26036.7 -03456.8 -07.5628 26265.1
 08 06 2013  08 53  -20.9999 26036.5 -03456.6 -07.5624 26265.0
 08 06 2013  08 54  -21.0001 26036.0 -03456.3 -07.5619 26264.4
 08 06 2013  08 55  -21.0002 26035.5 -03455.9 -07.5611 26263.9
 08 06 2013  08 56  -21.0001 26035.7 -03455.9 -07.5610 26264.1
 08 06 2013  08 57  -20.9994 26036.2 -03456.1 -07.5612 26264.6
 08 06 2013  08 58  -20.9985 26036.9 -03456.4 -07.5617 26265.3
 08 06 2013  08 59  -20.9971 26037.2 -03456.5 -07.5619 26265.6
 08 06 2013  09 00  -20.9963 26037.2 -03456.5 -07.5620 26265.6
 08 06 2013  09 01  -20.9954 26036.9 -03456.4 -07.5619 26265.4
 08 06 2013  09 02  -20.9944 26036.7 -03456.3 -07.5616 26265.1
 08 06 2013  09 03  -20.9940 26036.8 -03456.3 -07.5616 26265.2
 08 06 2013  09 04  -20.9932 26036.9 -03456.4 -07.5618 26265.3
 08 06 2013  09 05  -20.9927 26036.8 -03456.4 -07.5618 26265.2
 08 06 2013  09 06  -20.9926 26036.6 -03456.4 -07.5620 26265.0
 08 06 2013  09 07  -20.9920 26036.3 -03456.3 -07.5618 26264.7
 08 06 2013  09 08  -20.9915 26036.0 -03456.2 -07.5616 26264.4
 08 06 2013  09 09  -20.9911 26035.8 -03456.1 -07.5615 26264.2
 08 06 2013  09 10  -20.9899 26035.6 -03456.0 -07.5614 26264.0
 08 06 2013  09 11  -20.9891 26035.4 -03456.0 -07.5613 26263.8
 08 06 2013  09 12  -20.9883 26034.9 -03455.8 -07.5611 26263.3
 08 06 2013  09 13  -20.9882 26034.7 -03455.8 -07.5612 26263.1
 08 06 2013  09 14  -20.9882 26034.8 -03456.1 -07.5617 26263.2
 08 06 2013  09 15  -20.9882 26034.9 -03456.4 -07.5623 26263.3
 08 06 2013  09 16  -20.9866 26034.7 -03456.4 -07.5624 26263.2
 08 06 2013  09 17  -20.9846 26034.6 -03456.5 -07.5626 26263.1
 08 06 2013  09 18  -20.9833 26034.7 -03456.7 -07.5631 26263.2
 08 06 2013  09 19  -20.9839 26035.1 -03457.2 -07.5641 26263.6
 08 06 2013  09 20  -20.9842 26035.5 -03457.7 -07.5651 26264.1
 08 06 2013  09 21  -20.9837 26036.0 -03458.1 -07.5658 26264.7
 08 06 2013  09 22  -20.9820 26036.3 -03458.3 -07.5661 26264.9
 08 06 2013  09 23  -20.9810 26036.1 -03458.3 -07.5662 26264.8
 08 06 2013  09 24  -20.9805 26036.3 -03458.5 -07.5665 26265.0
 08 06 2013  09 25  -20.9795 26036.2 -03458.6 -07.5666 26264.9
 08 06 2013  09 26  -20.9791 26035.9 -03458.4 -07.5665 26264.6
 08 06 2013  09 27  -20.9795 26036.2 -03458.7 -07.5670 26264.9
 08 06 2013  09 28  -20.9792 26036.4 -03458.9 -07.5674 26265.1
 08 06 2013  09 29  -20.9784 26036.5 -03459.1 -07.5677 26265.2
 08 06 2013  09 30  -20.9774 26036.6 -03459.2 -07.5680 26265.4
 08 06 2013  09 31  -20.9765 26036.1 -03459.1 -07.5679 26264.9
 08 06 2013  09 32  -20.9762 26036.3 -03459.2 -07.5681 26265.0
 08 06 2013  09 33  -20.9760 26036.4 -03459.4 -07.5685 26265.2
 08 06 2013  09 34  -20.9765 26036.4 -03459.6 -07.5688 26265.2
 08 06 2013  09 35  -20.9771 26036.6 -03459.9 -07.5694 26265.5
 08 06 2013  09 36  -20.9765 26036.7 -03460.0 -07.5697 26265.6
 08 06 2013  09 37  -20.9755 26036.6 -03460.2 -07.5700 26265.5
 08 06 2013  09 38  -20.9746 26036.5 -03460.2 -07.5702 26265.5
 08 06 2013  09 39  -20.9749 26036.6 -03460.6 -07.5708 26265.6
 08 06 2013  09 40  -20.9752 26037.0 -03460.9 -07.5716 26266.0
 08 06 2013  09 41  -20.9745 26036.9 -03461.1 -07.5720 26266.0
 08 06 2013  09 42  -20.9735 26036.8 -03461.0 -07.5718 26265.8
 08 06 2013  09 43  -20.9727 26036.6 -03461.0 -07.5718 26265.7
 08 06 2013  09 44  -20.9736 26036.4 -03461.0 -07.5719 26265.5
 08 06 2013  09 45  -20.9741 26036.3 -03461.1 -07.5721 26265.3
 08 06 2013  09 46  -20.9748 26036.2 -03461.2 -07.5723 26265.2
 08 06 2013  09 47  -20.9752 26036.2 -03461.3 -07.5727 26265.3
 08 06 2013  09 48  -20.9758 26036.0 -03461.4 -07.5729 26265.1
 08 06 2013  09 49  -20.9754 26035.8 -03461.5 -07.5732 26264.9
 08 06 2013  09 50  -20.9746 26035.9 -03461.7 -07.5735 26265.0
 08 06 2013  09 51  -20.9743 26035.8 -03461.7 -07.5735 26264.9
 08 06 2013  09 52  -20.9746 26035.5 -03461.7 -07.5736 26264.7
 08 06 2013  09 53  -20.9758 26035.5 -03461.9 -07.5740 26264.7
 08 06 2013  09 54  -20.9760 26036.0 -03462.3 -07.5747 26265.2
 08 06 2013  09 55  -20.9743 26036.8 -03462.6 -07.5753 26266.0
 08 06 2013  09 56  -20.9740 26037.0 -03462.8 -07.5757 26266.3
 08 06 2013  09 57  -20.9752 26037.5 -03463.3 -07.5765 26266.9
 08 06 2013  09 58  -20.9749 26038.4 -03463.9 -07.5775 26267.8
 08 06 2013  09 59  -20.9739 26038.6 -03464.0 -07.5777 26268.0
 08 06 2013  10 00  -20.9735 26037.9 -03463.4 -07.5767 26267.2
 08 06 2013  10 01  -20.9729 26037.1 -03462.8 -07.5755 26266.3
 08 06 2013  10 02  -20.9717 26037.7 -03462.8 -07.5754 26266.9
 08 06 2013  10 03  -20.9698 26038.5 -03462.9 -07.5755 26267.8
 08 06 2013  10 04  -20.9687 26038.9 -03463.0 -07.5755 26268.1
 08 06 2013  10 05  -20.9689 26038.7 -03463.0 -07.5756 26268.0
 08 06 2013  10 06  -20.9694 26038.3 -03463.1 -07.5759 26267.6
 08 06 2013  10 07  -20.9698 26038.3 -03463.3 -07.5762 26267.6
 08 06 2013  10 08  -20.9703 26038.5 -03463.6 -07.5768 26267.9
 08 06 2013  10 09  -20.9708 26038.2 -03463.8 -07.5774 26267.6
 08 06 2013  10 10  -20.9706 26038.4 -03464.1 -07.5780 26267.8
 08 06 2013  10 11  -20.9698 26039.0 -03464.5 -07.5787 26268.5
 08 06 2013  10 12  -20.9700 26038.6 -03464.4 -07.5787 26268.1
 08 06 2013  10 13  -20.9684 26038.7 -03464.4 -07.5785 26268.2
 08 06 2013  10 14  -20.9673 26038.3 -03464.1 -07.5781 26267.7
 08 06 2013  10 15  -20.9688 26037.9 -03464.1 -07.5782 26267.3
 08 06 2013  10 16  -20.9696 26037.8 -03464.2 -07.5785 26267.2
 08 06 2013  10 17  -20.9710 26038.0 -03464.7 -07.5793 26267.5
 08 06 2013  10 18  -20.9730 26038.2 -03465.0 -07.5800 26267.7
 08 06 2013  10 19  -20.9727 26038.5 -03465.3 -07.5805 26268.0
 08 06 2013  10 20  -20.9719 26038.6 -03465.4 -07.5807 26268.2
 08 06 2013  10 21  -20.9709 26038.7 -03465.4 -07.5807 26268.3
 08 06 2013  10 22  -20.9706 26038.9 -03465.5 -07.5808 26268.5
 08 06 2013  10 23  -20.9720 26039.3 -03465.8 -07.5815 26268.9
 08 06 2013  10 24  -20.9731 26039.5 -03466.0 -07.5818 26269.2
 08 06 2013  10 25  -20.9726 26040.1 -03466.2 -07.5820 26269.8
 08 06 2013  10 26  -20.9715 26040.2 -03466.1 -07.5819 26269.8
 08 06 2013  10 27  -20.9730 26039.7 -03465.9 -07.5815 26269.4
 08 06 2013  10 28  -20.9739 26039.3 -03465.7 -07.5813 26268.9
 08 06 2013  10 29  -20.9743 26040.0 -03466.0 -07.5816 26269.7
 08 06 2013  10 30  -20.9753 26039.8 -03466.0 -07.5817 26269.5
 08 06 2013  10 31  -20.9762 26039.6 -03466.0 -07.5818 26269.2
 08 06 2013  10 32  -20.9754 26039.9 -03466.2 -07.5822 26269.6
 08 06 2013  10 33  -20.9739 26041.2 -03466.7 -07.5828 26270.9
 08 06 2013  10 34  -20.9738 26041.7 -03466.8 -07.5828 26271.4
 08 06 2013  10 35  -20.9743 26040.9 -03466.3 -07.5820 26270.6
 08 06 2013  10 36  -20.9747 26040.3 -03466.0 -07.5815 26269.9
 08 06 2013  10 37  -20.9742 26041.1 -03466.3 -07.5819 26270.7
 08 06 2013  10 38  -20.9759 26041.3 -03466.5 -07.5823 26271.0
 08 06 2013  10 39  -20.9764 26041.2 -03466.5 -07.5825 26270.9
 08 06 2013  10 40  -20.9770 26041.0 -03466.5 -07.5825 26270.7
 08 06 2013  10 41  -20.9770 26040.8 -03466.4 -07.5822 26270.5
 08 06 2013  10 42  -20.9757 26041.2 -03466.3 -07.5819 26270.9
 08 06 2013  10 43  -20.9751 26041.7 -03466.5 -07.5822 26271.4
 08 06 2013  10 44  -20.9738 26042.3 -03466.7 -07.5825 26272.1
 08 06 2013  10 45  -20.9736 26042.9 -03466.9 -07.5827 26272.6
 08 06 2013  10 46  -20.9746 26042.8 -03466.8 -07.5825 26272.5
 08 06 2013  10 47  -20.9754 26042.5 -03466.6 -07.5823 26272.2
 08 06 2013  10 48  -20.9754 26042.3 -03466.6 -07.5823 26272.1
 08 06 2013  10 49  -20.9753 26042.6 -03466.7 -07.5824 26272.3
 08 06 2013  10 50  -20.9768 26041.6 -03466.1 -07.5815 26271.2
 08 06 2013  10 51  -20.9778 26041.4 -03465.9 -07.5810 26271.1
 08 06 2013  10 52  -20.9795 26041.0 -03465.7 -07.5807 26270.7
 08 06 2013  10 53  -20.9827 26039.3 -03465.1 -07.5799 26268.8
 08 06 2013  10 54  -20.9878 26036.4 -03463.9 -07.5782 26265.8
 08 06 2013  10 55  -20.9880 26036.1 -03463.7 -07.5777 26265.5
 08 06 2013  10 56  -20.9888 26036.0 -03463.6 -07.5776 26265.4
 08 06 2013  10 57  -20.9887 26036.2 -03463.7 -07.5777 26265.6
 08 06 2013  10 58  -20.9885 26036.4 -03463.7 -07.5778 26265.8
 08 06 2013  10 59  -20.9908 26035.6 -03463.4 -07.5774 26265.0
 08 06 2013  11 00  -20.9901 26036.3 -03463.8 -07.5780 26265.7
 08 06 2013  11 01  -20.9902 26036.0 -03463.7 -07.5779 26265.3
 08 06 2013  11 02  -20.9906 26035.8 -03463.6 -07.5776 26265.1
 08 06 2013  11 03  -20.9914 26036.1 -03463.8 -07.5779 26265.5
 08 06 2013  11 04  -20.9914 26036.7 -03464.1 -07.5786 26266.1
 08 06 2013  11 05  -20.9932 26036.6 -03464.1 -07.5786 26266.0
 08 06 2013  11 06  -20.9922 26037.2 -03464.2 -07.5786 26266.6
 08 06 2013  11 07  -20.9920 26037.3 -03464.1 -07.5784 26266.7
 08 06 2013  11 08  -20.9904 26038.3 -03464.4 -07.5788 26267.8
 08 06 2013  11 09  -20.9906 26038.9 -03464.6 -07.5790 26268.4
 08 06 2013  11 10  -20.9910 26039.8 -03464.8 -07.5791 26269.3
 08 06 2013  11 11  -20.9926 26039.6 -03464.4 -07.5784 26269.1
 08 06 2013  11 12  -20.9933 26039.5 -03464.0 -07.5774 26268.9
 08 06 2013  11 13  -20.9952 26039.4 -03463.8 -07.5770 26268.8
 08 06 2013  11 14  -20.9957 26039.9 -03463.9 -07.5772 26269.3
 08 06 2013  11 15  -20.9963 26040.0 -03463.9 -07.5770 26269.4
 08 06 2013  11 16  -20.9974 26040.2 -03463.9 -07.5770 26269.6
 08 06 2013  11 17  -20.9979 26040.6 -03463.8 -07.5767 26269.9
 08 06 2013  11 18  -20.9982 26041.2 -03463.8 -07.5765 26270.5
 08 06 2013  11 19  -20.9994 26041.7 -03463.9 -07.5765 26271.1
 08 06 2013  11 20  -21.0010 26041.7 -03463.7 -07.5762 26271.1
 08 06 2013  11 21  -21.0007 26042.2 -03463.7 -07.5761 26271.6
 08 06 2013  11 22  -21.0014 26041.9 -03463.4 -07.5756 26271.2
 08 06 2013  11 23  -21.0007 26042.6 -03463.5 -07.5755 26271.9
 08 06 2013  11 24  -21.0014 26043.4 -03463.7 -07.5757 26272.7
 08 06 2013  11 25  -21.0032 26043.1 -03463.4 -07.5751 26272.4
 08 06 2013  11 26  -21.0033 26043.8 -03463.3 -07.5747 26273.0
 08 06 2013  11 27  -21.0039 26044.3 -03463.4 -07.5747 26273.6
 08 06 2013  11 28  -21.0058 26043.4 -03462.7 -07.5736 26272.6
 08 06 2013  11 29  -21.0056 26043.7 -03462.6 -07.5733 26272.9
 08 06 2013  11 30  -21.0057 26044.0 -03462.7 -07.5734 26273.2
 08 06 2013  11 31  -21.0054 26045.6 -03463.1 -07.5738 26274.8
 08 06 2013  11 32  -21.0058 26046.0 -03462.9 -07.5733 26275.2
 08 06 2013  11 33  -21.0062 26046.6 -03462.9 -07.5730 26275.8
 08 06 2013  11 34  -21.0068 26046.5 -03462.5 -07.5723 26275.6
 08 06 2013  11 35  -21.0073 26047.0 -03462.5 -07.5721 26276.1
 08 06 2013  11 36  -21.0076 26048.0 -03462.7 -07.5722 26277.1
 08 06 2013  11 37  -21.0091 26047.5 -03462.4 -07.5716 26276.6
 08 06 2013  11 38  -21.0094 26048.0 -03462.2 -07.5712 26277.1
 08 06 2013  11 39  -21.0101 26048.4 -03462.1 -07.5708 26277.5
 08 06 2013  11 40  -21.0112 26048.7 -03462.0 -07.5705 26277.7
 08 06 2013  11 41  -21.0122 26049.6 -03462.1 -07.5704 26278.6
 08 06 2013  11 42  -21.0130 26049.7 -03461.8 -07.5698 26278.7
 08 06 2013  11 43  -21.0143 26048.9 -03461.1 -07.5684 26277.8
 08 06 2013  11 44  -21.0156 26048.2 -03460.7 -07.5678 26277.1
 08 06 2013  11 45  -21.0164 26047.9 -03460.4 -07.5674 26276.8
 08 06 2013  11 46  -21.0163 26049.5 -03461.1 -07.5683 26278.5
 08 06 2013  11 47  -21.0165 26050.7 -03461.3 -07.5685 26279.6
 08 06 2013  11 48  -21.0173 26050.4 -03460.9 -07.5677 26279.3
 08 06 2013  11 49  -21.0186 26051.1 -03461.1 -07.5679 26280.1
 08 06 2013  11 50  -21.0180 26052.3 -03461.3 -07.5679 26281.2
 08 06 2013  11 51  -21.0176 26053.3 -03461.2 -07.5675 26282.2
 08 06 2013  11 52  -21.0183 26053.4 -03460.7 -07.5664 26282.2
 08 06 2013  11 53  -21.0192 26053.0 -03460.2 -07.5653 26281.8
 08 06 2013  11 54  -21.0212 26052.6 -03459.8 -07.5645 26281.3
 08 06 2013  11 55  -21.0218 26052.8 -03459.4 -07.5638 26281.5
 08 06 2013  11 56  -21.0221 26053.6 -03459.4 -07.5636 26282.3
 08 06 2013  11 57  -21.0227 26053.9 -03459.2 -07.5630 26282.6
 08 06 2013  11 58  -21.0245 26054.5 -03459.3 -07.5630 26283.1
 08 06 2013  11 59  -21.0258 26054.4 -03458.9 -07.5622 26283.0
 08 06 2013  12 00  -21.0263 26054.2 -03458.5 -07.5613 26282.8
 08 06 2013  12 01  -21.0262 26054.4 -03458.3 -07.5608 26283.0
 08 06 2013  12 02  -21.0266 26054.8 -03458.1 -07.5603 26283.3
 08 06 2013  12 03  -21.0264 26056.2 -03458.5 -07.5607 26284.7
 08 06 2013  12 04  -21.0274 26056.1 -03458.1 -07.5600 26284.5
 08 06 2013  12 05  -21.0277 26056.3 -03457.7 -07.5590 26284.7
 08 06 2013  12 06  -21.0270 26056.3 -03457.2 -07.5580 26284.6
 08 06 2013  12 07  -21.0275 26057.1 -03457.2 -07.5578 26285.5
 08 06 2013  12 08  -21.0279 26057.4 -03456.9 -07.5570 26285.7
 08 06 2013  12 09  -21.0291 26057.2 -03456.6 -07.5564 26285.5
 08 06 2013  12 10  -21.0296 26057.8 -03456.6 -07.5563 26286.1
 08 06 2013  12 11  -21.0300 26057.9 -03456.3 -07.5556 26286.1
 08 06 2013  12 12  -21.0300 26058.7 -03456.2 -07.5552 26286.9
 08 06 2013  12 13  -21.0300 26059.1 -03456.1 -07.5548 26287.2
 08 06 2013  12 14  -21.0303 26059.6 -03456.1 -07.5546 26287.8
 08 06 2013  12 15  -21.0311 26059.9 -03455.9 -07.5541 26288.0
 08 06 2013  12 16  -21.0321 26060.4 -03455.8 -07.5538 26288.6
 08 06 2013  12 17  -21.0330 26060.5 -03455.5 -07.5532 26288.6
 08 06 2013  12 18  -21.0329 26061.2 -03455.4 -07.5528 26289.2
 08 06 2013  12 19  -21.0338 26062.0 -03455.6 -07.5528 26290.1
 08 06 2013  12 20  -21.0350 26062.7 -03455.5 -07.5525 26290.8
 08 06 2013  12 21  -21.0354 26062.8 -03455.1 -07.5516 26290.8
 08 06 2013  12 22  -21.0348 26064.1 -03455.2 -07.5514 26292.1
 08 06 2013  12 23  -21.0346 26066.2 -03455.5 -07.5514 26294.3
 08 06 2013  12 24  -21.0345 26066.8 -03455.1 -07.5503 26294.7
 08 06 2013  12 25  -21.0345 26067.5 -03454.7 -07.5494 26295.4
 08 06 2013  12 26  -21.0349 26067.9 -03454.3 -07.5483 26295.7
 08 06 2013  12 27  -21.0357 26067.6 -03453.5 -07.5468 26295.3
 08 06 2013  12 28  -21.0357 26067.8 -03453.1 -07.5458 26295.5
 08 06 2013  12 29  -21.0365 26067.5 -03452.6 -07.5449 26295.2
 08 06 2013  12 30  -21.0368 26067.6 -03452.4 -07.5443 26295.2
 08 06 2013  12 31  -21.0376 26067.8 -03452.3 -07.5441 26295.4
 08 06 2013  12 32  -21.0382 26067.8 -03452.2 -07.5438 26295.4
 08 06 2013  12 33  -21.0394 26068.2 -03452.2 -07.5438 26295.8
 08 06 2013  12 34  -21.0397 26068.1 -03452.0 -07.5433 26295.7
 08 06 2013  12 35  -21.0405 26068.7 -03452.1 -07.5433 26296.2
 08 06 2013  12 36  -21.0415 26069.7 -03452.4 -07.5437 26297.3
 08 06 2013  12 37  -21.0425 26070.4 -03452.4 -07.5436 26298.0
 08 06 2013  12 38  -21.0433 26071.6 -03452.6 -07.5437 26299.2
 08 06 2013  12 39  -21.0444 26071.5 -03452.2 -07.5428 26299.1
 08 06 2013  12 40  -21.0457 26071.7 -03452.0 -07.5423 26299.2
 08 06 2013  12 41  -21.0459 26071.7 -03451.7 -07.5417 26299.2
 08 06 2013  12 42  -21.0458 26072.1 -03451.7 -07.5416 26299.6
 08 06 2013  12 43  -21.0463 26072.7 -03451.8 -07.5417 26300.3
 08 06 2013  12 44  -21.0464 26073.2 -03451.9 -07.5416 26300.7
 08 06 2013  12 45  -21.0473 26073.8 -03451.8 -07.5413 26301.3
 08 06 2013  12 46  -21.0484 26073.7 -03451.5 -07.5408 26301.2
 08 06 2013  12 47  -21.0492 26073.9 -03451.3 -07.5403 26301.4
 08 06 2013  12 48  -21.0494 26074.2 -03451.2 -07.5399 26301.6
 08 06 2013  12 49  -21.0494 26074.8 -03451.2 -07.5396 26302.2
 08 06 2013  12 50  -21.0498 26075.6 -03451.4 -07.5398 26303.0
 08 06 2013  12 51  -21.0517 26075.9 -03451.3 -07.5396 26303.3
 08 06 2013  12 52  -21.0533 26075.4 -03450.8 -07.5387 26302.8
 08 06 2013  12 53  -21.0541 26075.6 -03450.7 -07.5384 26303.0
 08 06 2013  12 54  -21.0549 26075.7 -03450.6 -07.5382 26303.0
 08 06 2013  12 55  -21.0564 26075.8 -03450.5 -07.5380 26303.1
 08 06 2013  12 56  -21.0578 26075.7 -03450.4 -07.5376 26303.0
 08 06 2013  12 57  -21.0587 26075.0 -03450.0 -07.5370 26302.3
 08 06 2013  12 58  -21.0588 26075.0 -03449.8 -07.5367 26302.2
 08 06 2013  12 59  -21.0587 26075.4 -03449.9 -07.5367 26302.6
 08 06 2013  13 00  -21.0583 26075.5 -03449.9 -07.5366 26302.8
 08 06 2013  13 01  -21.0589 26075.4 -03449.8 -07.5364 26302.6
 08 06 2013  13 02  -21.0588 26075.5 -03449.7 -07.5363 26302.7
 08 06 2013  13 03  -21.0607 26075.8 -03449.9 -07.5365 26303.0
 08 06 2013  13 04  -21.0613 26076.5 -03450.0 -07.5366 26303.8
 08 06 2013  13 05  -21.0624 26076.2 -03449.6 -07.5358 26303.4
 08 06 2013  13 06  -21.0637 26076.6 -03449.5 -07.5354 26303.7
 08 06 2013  13 07  -21.0653 26077.1 -03449.5 -07.5353 26304.3
 08 06 2013  13 08  -21.0656 26077.5 -03449.3 -07.5347 26304.6
 08 06 2013  13 09  -21.0662 26077.6 -03449.0 -07.5342 26304.7
 08 06 2013  13 10  -21.0679 26077.8 -03448.8 -07.5338 26304.8
 08 06 2013  13 11  -21.0695 26077.6 -03448.6 -07.5333 26304.6
 08 06 2013  13 12  -21.0707 26078.0 -03448.6 -07.5331 26305.1
 08 06 2013  13 13  -21.0727 26079.0 -03448.7 -07.5330 26306.0
 08 06 2013  13 14  -21.0745 26079.9 -03448.7 -07.5329 26306.9
 08 06 2013  13 15  -21.0750 26079.7 -03448.2 -07.5318 26306.7
 08 06 2013  13 16  -21.0744 26079.1 -03447.5 -07.5306 26306.0
 08 06 2013  13 17  -21.0740 26078.8 -03447.2 -07.5298 26305.6
 08 06 2013  13 18  -21.0752 26078.9 -03447.0 -07.5296 26305.7
 08 06 2013  13 19  -21.0761 26079.6 -03447.1 -07.5296 26306.4
 08 06 2013  13 20  -21.0776 26080.4 -03447.2 -07.5295 26307.2
 08 06 2013  13 21  -21.0790 26080.9 -03447.1 -07.5291 26307.7
 08 06 2013  13 22  -21.0797 26080.9 -03446.7 -07.5282 26307.6
 08 06 2013  13 23  -21.0801 26080.9 -03446.4 -07.5275 26307.6
 08 06 2013  13 24  -21.0805 26081.2 -03446.2 -07.5270 26307.9
 08 06 2013  13 25  -21.0815 26081.3 -03445.9 -07.5264 26307.9
 08 06 2013  13 26  -21.0821 26081.3 -03445.5 -07.5256 26307.9
 08 06 2013  13 27  -21.0822 26081.5 -03445.3 -07.5250 26308.1
 08 06 2013  13 28  -21.0822 26081.6 -03445.0 -07.5243 26308.1
 08 06 2013  13 29  -21.0822 26082.1 -03444.8 -07.5239 26308.6
 08 06 2013  13 30  -21.0825 26082.7 -03444.8 -07.5236 26309.2
 08 06 2013  13 31  -21.0827 26083.0 -03444.5 -07.5229 26309.5
 08 06 2013  13 32  -21.0828 26083.1 -03444.0 -07.5219 26309.5
 08 06 2013  13 33  -21.0832 26082.9 -03443.6 -07.5211 26309.2
 08 06 2013  13 34  -21.0838 26082.7 -03443.3 -07.5204 26309.0
 08 06 2013  13 35  -21.0842 26083.1 -03443.2 -07.5200 26309.4
 08 06 2013  13 36  -21.0847 26084.0 -03443.3 -07.5200 26310.3
 08 06 2013  13 37  -21.0855 26085.1 -03443.4 -07.5199 26311.4
 08 06 2013  13 38  -21.0860 26085.3 -03443.1 -07.5191 26311.6
 08 06 2013  13 39  -21.0865 26084.8 -03442.4 -07.5178 26310.9
 08 06 2013  13 40  -21.0864 26084.6 -03442.0 -07.5170 26310.7
 08 06 2013  13 41  -21.0859 26084.7 -03441.7 -07.5164 26310.8
 08 06 2013  13 42  -21.0851 26084.9 -03441.5 -07.5159 26311.0
 08 06 2013  13 43  -21.0853 26085.5 -03441.5 -07.5156 26311.6
 08 06 2013  13 44  -21.0858 26086.0 -03441.4 -07.5153 26312.0
 08 06 2013  13 45  -21.0861 26086.1 -03441.1 -07.5146 26312.1
 08 06 2013  13 46  -21.0861 26085.7 -03440.6 -07.5138 26311.7
 08 06 2013  13 47  -21.0860 26086.3 -03440.6 -07.5136 26312.3
 08 06 2013  13 48  -21.0862 26087.2 -03440.8 -07.5136 26313.2
 08 06 2013  13 49  -21.0866 26087.9 -03440.7 -07.5134 26313.9
 08 06 2013  13 50  -21.0863 26088.3 -03440.5 -07.5127 26314.2
 08 06 2013  13 51  -21.0860 26089.1 -03440.4 -07.5123 26314.9
 08 06 2013  13 52  -21.0860 26089.9 -03440.3 -07.5118 26315.8
 08 06 2013  13 53  -21.0859 26090.7 -03440.1 -07.5112 26316.5
 08 06 2013  13 54  -21.0862 26091.2 -03439.8 -07.5105 26316.9
 08 06 2013  13 55  -21.0871 26091.4 -03439.5 -07.5096 26317.2
 08 06 2013  13 56  -21.0881 26091.7 -03439.0 -07.5086 26317.4
 08 06 2013  13 57  -21.0890 26092.1 -03438.7 -07.5077 26317.7
 08 06 2013  13 58  -21.0898 26091.8 -03438.1 -07.5066 26317.4
 08 06 2013  13 59  -21.0899 26091.8 -03437.7 -07.5056 26317.3
 08 06 2013  14 00  -21.0899 26091.6 -03437.2 -07.5047 26317.1
 08 06 2013  14 01  -21.0896 26091.5 -03436.8 -07.5038 26316.8
 08 06 2013  14 02  -21.0895 26091.2 -03436.4 -07.5030 26316.5
 08 06 2013  14 03  -21.0896 26091.1 -03436.0 -07.5022 26316.3
 08 06 2013  14 04  -21.0891 26091.0 -03435.7 -07.5015 26316.2
 08 06 2013  14 05  -21.0888 26091.1 -03435.4 -07.5010 26316.3
 08 06 2013  14 06  -21.0890 26091.7 -03435.4 -07.5008 26316.9
 08 06 2013  14 07  -21.0889 26092.2 -03435.2 -07.5001 26317.3
 08 06 2013  14 08  -21.0893 26092.1 -03434.7 -07.4992 26317.2
 08 06 2013  14 09  -21.0898 26092.1 -03434.3 -07.4982 26317.2
 08 06 2013  14 10  -21.0893 26091.9 -03433.7 -07.4970 26316.8
 08 06 2013  14 11  -21.0886 26091.3 -03433.0 -07.4958 26316.2
 08 06 2013  14 12  -21.0882 26090.6 -03432.5 -07.4947 26315.5
 08 06 2013  14 13  -21.0879 26090.2 -03432.1 -07.4942 26315.0
 08 06 2013  14 14  -21.0877 26090.2 -03432.0 -07.4939 26314.9
 08 06 2013  14 15  -21.0872 26090.4 -03431.9 -07.4936 26315.2
 08 06 2013  14 16  -21.0862 26090.3 -03431.6 -07.4930 26315.0
 08 06 2013  14 17  -21.0854 26090.1 -03431.3 -07.4924 26314.7
 08 06 2013  14 18  -21.0848 26090.2 -03431.2 -07.4921 26314.8
 08 06 2013  14 19  -21.0840 26089.9 -03431.0 -07.4917 26314.6
 08 06 2013  14 20  -21.0830 26089.5 -03430.6 -07.4911 26314.0
 08 06 2013  14 21  -21.0819 26089.1 -03430.4 -07.4907 26313.7
 08 06 2013  14 22  -21.0810 26088.9 -03430.3 -07.4906 26313.5
 08 06 2013  14 23  -21.0797 26088.9 -03430.2 -07.4904 26313.4
 08 06 2013  14 24  -21.0784 26089.1 -03430.2 -07.4904 26313.6
 08 06 2013  14 25  -21.0776 26089.6 -03430.4 -07.4906 26314.2
 08 06 2013  14 26  -21.0770 26089.9 -03430.5 -07.4907 26314.5
 08 06 2013  14 27  -21.0761 26090.0 -03430.5 -07.4907 26314.5
 08 06 2013  14 28  -21.0751 26090.1 -03430.5 -07.4906 26314.7
 08 06 2013  14 29  -21.0740 26089.8 -03430.3 -07.4903 26314.3
 08 06 2013  14 30  -21.0728 26089.5 -03430.3 -07.4903 26314.1
 08 06 2013  14 31  -21.0715 26089.3 -03430.3 -07.4904 26313.9
 08 06 2013  14 32  -21.0704 26089.3 -03430.4 -07.4907 26313.9
 08 06 2013  14 33  -21.0693 26089.2 -03430.5 -07.4909 26313.8
 08 06 2013  14 34  -21.0682 26089.1 -03430.6 -07.4911 26313.7
 08 06 2013  14 35  -21.0676 26089.3 -03430.9 -07.4917 26313.9
 08 06 2013  14 36  -21.0672 26089.1 -03431.0 -07.4919 26313.8
 08 06 2013  14 37  -21.0662 26088.8 -03430.9 -07.4919 26313.5
 08 06 2013  14 38  -21.0652 26088.5 -03431.0 -07.4921 26313.1
 08 06 2013  14 39  -21.0645 26088.2 -03431.1 -07.4924 26312.8
 08 06 2013  14 40  -21.0639 26088.0 -03431.2 -07.4928 26312.7
 08 06 2013  14 41  -21.0637 26087.8 -03431.4 -07.4933 26312.5
 08 06 2013  14 42  -21.0635 26087.8 -03431.7 -07.4938 26312.5
 08 06 2013  14 43  -21.0636 26087.8 -03431.9 -07.4943 26312.5
 08 06 2013  14 44  -21.0634 26087.4 -03432.0 -07.4945 26312.2
 08 06 2013  14 45  -21.0631 26086.8 -03431.9 -07.4946 26311.6
 08 06 2013  14 46  -21.0626 26086.3 -03432.0 -07.4949 26311.1
 08 06 2013  14 47  -21.0625 26086.1 -03432.2 -07.4955 26310.9
 08 06 2013  14 48  -21.0624 26086.0 -03432.5 -07.4960 26310.9
 08 06 2013  14 49  -21.0623 26085.9 -03432.7 -07.4965 26310.8
 08 06 2013  14 50  -21.0619 26085.5 -03432.7 -07.4967 26310.4
 08 06 2013  14 51  -21.0618 26085.1 -03432.8 -07.4971 26310.0
 08 06 2013  14 52  -21.0615 26084.9 -03433.0 -07.4974 26309.9
 08 06 2013  14 53  -21.0612 26085.0 -03433.2 -07.4980 26310.0
 08 06 2013  14 54  -21.0612 26085.2 -03433.5 -07.4985 26310.2
 08 06 2013  14 55  -21.0616 26085.4 -03433.7 -07.4990 26310.4
 08 06 2013  14 56  -21.0616 26085.4 -03433.8 -07.4992 26310.4
 08 06 2013  14 57  -21.0614 26084.9 -03433.7 -07.4991 26310.0
 08 06 2013  14 58  -21.0608 26084.4 -03433.6 -07.4989 26309.4
 08 06 2013  14 59  -21.0598 26083.8 -03433.6 -07.4990 26308.8
 08 06 2013  15 00  -21.0591 26083.8 -03433.8 -07.4996 26308.8
 08 06 2013  15 01  -21.0584 26083.7 -03434.1 -07.5002 26308.8
 08 06 2013  15 02  -21.0575 26083.6 -03434.2 -07.5006 26308.7
 08 06 2013  15 03  -21.0567 26083.6 -03434.5 -07.5011 26308.8
 08 06 2013  15 04  -21.0558 26083.5 -03434.7 -07.5015 26308.6
 08 06 2013  15 05  -21.0552 26083.3 -03434.8 -07.5019 26308.5
 08 06 2013  15 06  -21.0543 26083.2 -03435.1 -07.5025 26308.4
 08 06 2013  15 07  -21.0537 26082.9 -03435.2 -07.5029 26308.2
 08 06 2013  15 08  -21.0529 26082.7 -03435.4 -07.5034 26308.0
 08 06 2013  15 09  -21.0523 26082.5 -03435.7 -07.5040 26307.8
 08 06 2013  15 10  -21.0517 26082.4 -03436.0 -07.5047 26307.8
 08 06 2013  15 11  -21.0513 26082.5 -03436.4 -07.5055 26307.9
 08 06 2013  15 12  -21.0509 26082.4 -03436.6 -07.5061 26307.8
 08 06 2013  15 13  -21.0501 26082.0 -03436.8 -07.5065 26307.5
 08 06 2013  15 14  -21.0498 26081.7 -03437.0 -07.5070 26307.2
 08 06 2013  15 15  -21.0490 26081.6 -03437.3 -07.5077 26307.2
 08 06 2013  15 16  -21.0485 26081.5 -03437.6 -07.5083 26307.1
 08 06 2013  15 17  -21.0476 26081.3 -03437.7 -07.5088 26306.9
 08 06 2013  15 18  -21.0462 26080.8 -03437.9 -07.5092 26306.4
 08 06 2013  15 19  -21.0452 26080.5 -03438.1 -07.5098 26306.1
 08 06 2013  15 20  -21.0442 26080.0 -03438.3 -07.5104 26305.7
 08 06 2013  15 21  -21.0432 26079.5 -03438.6 -07.5111 26305.2
 08 06 2013  15 22  -21.0422 26079.4 -03439.0 -07.5119 26305.1
 08 06 2013  15 23  -21.0414 26079.4 -03439.4 -07.5129 26305.2
 08 06 2013  15 24  -21.0406 26079.5 -03439.9 -07.5139 26305.4
 08 06 2013  15 25  -21.0400 26079.5 -03440.2 -07.5146 26305.4
 08 06 2013  15 26  -21.0393 26079.2 -03440.5 -07.5153 26305.1
 08 06 2013  15 27  -21.0385 26078.8 -03440.7 -07.5158 26304.8
 08 06 2013  15 28  -21.0375 26078.4 -03440.9 -07.5164 26304.4
 08 06 2013  15 29  -21.0364 26078.0 -03441.1 -07.5169 26304.0
 08 06 2013  15 30  -21.0355 26077.8 -03441.5 -07.5178 26303.9
 08 06 2013  15 31  -21.0348 26077.7 -03441.9 -07.5188 26303.9
 08 06 2013  15 32  -21.0340 26077.5 -03442.2 -07.5195 26303.7
 08 06 2013  15 33  -21.0331 26077.4 -03442.6 -07.5203 26303.7
 08 06 2013  15 34  -21.0321 26077.1 -03442.8 -07.5210 26303.4
 08 06 2013  15 35  -21.0311 26076.8 -03443.1 -07.5217 26303.2
 08 06 2013  15 36  -21.0301 26076.8 -03443.5 -07.5226 26303.1
 08 06 2013  15 37  -21.0292 26076.8 -03444.0 -07.5236 26303.2
 08 06 2013  15 38  -21.0286 26076.9 -03444.4 -07.5245 26303.4
 08 06 2013  15 39  -21.0278 26076.6 -03444.7 -07.5252 26303.2
 08 06 2013  15 40  -21.0267 26076.2 -03444.9 -07.5257 26302.7
 08 06 2013  15 41  -21.0258 26075.7 -03445.1 -07.5262 26302.3
 08 06 2013  15 42  -21.0245 26075.1 -03445.3 -07.5268 26301.8
 08 06 2013  15 43  -21.0235 26074.6 -03445.6 -07.5275 26301.3
 08 06 2013  15 44  -21.0226 26074.5 -03446.0 -07.5286 26301.3
 08 06 2013  15 45  -21.0218 26074.5 -03446.5 -07.5296 26301.3
 08 06 2013  15 46  -21.0206 26074.6 -03446.9 -07.5305 26301.5
 08 06 2013  15 47  -21.0201 26074.7 -03447.3 -07.5314 26301.6
 08 06 2013  15 48  -21.0192 26074.6 -03447.6 -07.5320 26301.6
 08 06 2013  15 49  -21.0181 26074.2 -03447.7 -07.5324 26301.2
 08 06 2013  15 50  -21.0175 26073.9 -03448.0 -07.5331 26300.9
 08 06 2013  15 51  -21.0167 26073.8 -03448.3 -07.5337 26300.8
 08 06 2013  15 52  -21.0157 26073.5 -03448.5 -07.5343 26300.6
 08 06 2013  15 53  -21.0155 26073.4 -03448.9 -07.5351 26300.5
 08 06 2013  15 54  -21.0150 26073.1 -03449.1 -07.5356 26300.2
 08 06 2013  15 55  -21.0145 26072.6 -03449.2 -07.5361 26299.8
 08 06 2013  15 56  -21.0143 26072.2 -03449.4 -07.5366 26299.4
 08 06 2013  15 57  -21.0139 26071.8 -03449.6 -07.5371 26299.0
 08 06 2013  15 58  -21.0131 26071.2 -03449.7 -07.5374 26298.5
 08 06 2013  15 59  -21.0128 26071.0 -03450.0 -07.5381 26298.2
 08 06 2013  16 00  -21.0127 26070.9 -03450.3 -07.5390 26298.2
 08 06 2013  16 01  -21.0127 26070.4 -03450.5 -07.5394 26297.8
 08 06 2013  16 02  -21.0122 26070.3 -03450.7 -07.5400 26297.7
 08 06 2013  16 03  -21.0121 26070.0 -03451.0 -07.5406 26297.4
 08 06 2013  16 04  -21.0124 26070.2 -03451.4 -07.5414 26297.7
 08 06 2013  16 05  -21.0121 26069.9 -03451.5 -07.5418 26297.4
 08 06 2013  16 06  -21.0123 26069.7 -03451.6 -07.5421 26297.2
 08 06 2013  16 07  -21.0125 26069.3 -03451.7 -07.5423 26296.8
 08 06 2013  16 08  -21.0120 26068.8 -03451.7 -07.5425 26296.3
 08 06 2013  16 09  -21.0117 26068.9 -03452.0 -07.5432 26296.5
 08 06 2013  16 10  -21.0119 26069.0 -03452.3 -07.5438 26296.6
 08 06 2013  16 11  -21.0118 26068.9 -03452.5 -07.5441 26296.6
 08 06 2013  16 12  -21.0115 26068.6 -03452.6 -07.5444 26296.2
 08 06 2013  16 13  -21.0118 26068.6 -03452.8 -07.5449 26296.3
 08 06 2013  16 14  -21.0121 26068.6 -03453.0 -07.5454 26296.3
 08 06 2013  16 15  -21.0122 26068.5 -03453.1 -07.5456 26296.2
 08 06 2013  16 16  -21.0123 26068.3 -03453.2 -07.5458 26296.0
 08 06 2013  16 17  -21.0119 26068.2 -03453.3 -07.5461 26295.9
 08 06 2013  16 18  -21.0120 26068.0 -03453.4 -07.5464 26295.8
 08 06 2013  16 19  -21.0121 26068.1 -03453.6 -07.5468 26295.8
 08 06 2013  16 20  -21.0124 26068.0 -03453.7 -07.5470 26295.8
 08 06 2013  16 21  -21.0124 26067.5 -03453.6 -07.5469 26295.2
 08 06 2013  16 22  -21.0124 26067.2 -03453.6 -07.5472 26295.0
 08 06 2013  16 23  -21.0120 26066.8 -03453.6 -07.5471 26294.6
 08 06 2013  16 24  -21.0121 26067.0 -03453.8 -07.5477 26294.8
 08 06 2013  16 25  -21.0120 26066.8 -03453.9 -07.5478 26294.6
 08 06 2013  16 26  -21.0123 26066.9 -03454.0 -07.5481 26294.7
 08 06 2013  16 27  -21.0124 26066.8 -03454.1 -07.5483 26294.6
 08 06 2013  16 28  -21.0131 26066.9 -03454.3 -07.5486 26294.8
 08 06 2013  16 29  -21.0131 26066.5 -03454.1 -07.5483 26294.4
 08 06 2013  16 30  -21.0128 26066.3 -03454.0 -07.5483 26294.1
 08 06 2013  16 31  -21.0131 26066.4 -03454.2 -07.5486 26294.3
 08 06 2013  16 32  -21.0127 26066.2 -03454.2 -07.5487 26294.1
 08 06 2013  16 33  -21.0132 26066.1 -03454.3 -07.5488 26294.0
 08 06 2013  16 34  -21.0133 26066.0 -03454.3 -07.5488 26293.9
 08 06 2013  16 35  -21.0133 26065.8 -03454.3 -07.5489 26293.7
 08 06 2013  16 36  -21.0134 26065.5 -03454.2 -07.5488 26293.4
 08 06 2013  16 37  -21.0136 26065.5 -03454.3 -07.5492 26293.4
 08 06 2013  16 38  -21.0141 26065.6 -03454.6 -07.5496 26293.6
 08 06 2013  16 39  -21.0146 26065.8 -03454.8 -07.5500 26293.8
 08 06 2013  16 40  -21.0148 26065.6 -03454.7 -07.5498 26293.5
 08 06 2013  16 41  -21.0149 26065.1 -03454.5 -07.5497 26293.0
 08 06 2013  16 42  -21.0158 26064.9 -03454.6 -07.5499 26292.8
 08 06 2013  16 43  -21.0161 26064.9 -03454.7 -07.5501 26292.8
 08 06 2013  16 44  -21.0169 26064.7 -03454.7 -07.5502 26292.7
 08 06 2013  16 45  -21.0176 26064.5 -03454.7 -07.5502 26292.4
 08 06 2013  16 46  -21.0182 26064.4 -03454.7 -07.5502 26292.4
 08 06 2013  16 47  -21.0194 26064.3 -03454.7 -07.5503 26292.3
 08 06 2013  16 48  -21.0198 26063.9 -03454.6 -07.5500 26291.9
 08 06 2013  16 49  -21.0209 26063.9 -03454.6 -07.5502 26291.9
 08 06 2013  16 50  -21.0224 26064.0 -03454.7 -07.5503 26292.0
 08 06 2013  16 51  -21.0231 26063.9 -03454.6 -07.5501 26291.8
 08 06 2013  16 52  -21.0240 26063.5 -03454.4 -07.5499 26291.5
 08 06 2013  16 53  -21.0243 26063.2 -03454.3 -07.5497 26291.2
 08 06 2013  16 54  -21.0248 26063.0 -03454.3 -07.5497 26290.9
 08 06 2013  16 55  -21.0261 26063.5 -03454.6 -07.5503 26291.4
 08 06 2013  16 56  -21.0270 26063.6 -03454.6 -07.5503 26291.6
 08 06 2013  16 57  -21.0277 26063.6 -03454.5 -07.5501 26291.5
 08 06 2013  16 58  -21.0284 26063.4 -03454.4 -07.5499 26291.4
 08 06 2013  16 59  -21.0288 26063.1 -03454.3 -07.5497 26291.0
 08 06 2013  17 00  -21.0292 26062.9 -03454.3 -07.5497 26290.8
 08 06 2013  17 01  -21.0296 26062.7 -03454.2 -07.5496 26290.6
 08 06 2013  17 02  -21.0298 26062.4 -03454.0 -07.5493 26290.2
 08 06 2013  17 03  -21.0300 26062.2 -03454.0 -07.5493 26290.1
 08 06 2013  17 04  -21.0304 26062.0 -03453.9 -07.5492 26289.8
 08 06 2013  17 05  -21.0305 26061.6 -03453.7 -07.5489 26289.4
 08 06 2013  17 06  -21.0307 26061.5 -03453.6 -07.5488 26289.3
 08 06 2013  17 07  -21.0308 26061.2 -03453.6 -07.5487 26289.0
 08 06 2013  17 08  -21.0308 26060.9 -03453.4 -07.5484 26288.7
 08 06 2013  17 09  -21.0309 26060.8 -03453.3 -07.5483 26288.6
 08 06 2013  17 10  -21.0305 26060.1 -03453.0 -07.5477 26287.9
 08 06 2013  17 11  -21.0304 26059.5 -03452.8 -07.5475 26287.3
 08 06 2013  17 12  -21.0305 26059.1 -03452.7 -07.5474 26286.9
 08 06 2013  17 13  -21.0306 26059.0 -03452.8 -07.5477 26286.8
 08 06 2013  17 14  -21.0304 26058.9 -03452.8 -07.5477 26286.6
 08 06 2013  17 15  -21.0300 26058.5 -03452.7 -07.5477 26286.3
 08 06 2013  17 16  -21.0297 26058.0 -03452.6 -07.5474 26285.8
 08 06 2013  17 17  -21.0295 26057.5 -03452.4 -07.5473 26285.3
 08 06 2013  17 18  -21.0297 26057.4 -03452.5 -07.5475 26285.1
 08 06 2013  17 19  -21.0299 26057.4 -03452.5 -07.5476 26285.1
 08 06 2013  17 20  -21.0300 26057.3 -03452.5 -07.5475 26285.0
 08 06 2013  17 21  -21.0303 26057.2 -03452.4 -07.5474 26284.9
 08 06 2013  17 22  -21.0304 26056.8 -03452.2 -07.5470 26284.5
 08 06 2013  17 23  -21.0309 26056.5 -03452.1 -07.5469 26284.2
 08 06 2013  17 24  -21.0313 26056.2 -03451.9 -07.5466 26283.9
 08 06 2013  17 25  -21.0314 26055.8 -03451.7 -07.5461 26283.4
 08 06 2013  17 26  -21.0315 26055.6 -03451.5 -07.5459 26283.3
 08 06 2013  17 27  -21.0316 26055.3 -03451.4 -07.5456 26282.9
 08 06 2013  17 28  -21.0316 26055.0 -03451.2 -07.5453 26282.6
 08 06 2013  17 29  -21.0321 26054.8 -03451.1 -07.5452 26282.4
 08 06 2013  17 30  -21.0326 26054.7 -03451.0 -07.5450 26282.3
 08 06 2013  17 31  -21.0329 26054.5 -03450.8 -07.5447 26282.0
 08 06 2013  17 32  -21.0333 26054.4 -03450.7 -07.5445 26281.9
 08 06 2013  17 33  -21.0337 26054.3 -03450.6 -07.5444 26281.8
 08 06 2013  17 34  -21.0338 26054.1 -03450.5 -07.5442 26281.6
 08 06 2013  17 35  -21.0341 26053.9 -03450.4 -07.5440 26281.4
 08 06 2013  17 36  -21.0346 26053.7 -03450.4 -07.5439 26281.2
 08 06 2013  17 37  -21.0351 26053.6 -03450.3 -07.5439 26281.0
 08 06 2013  17 38  -21.0357 26053.4 -03450.3 -07.5439 26280.9
 08 06 2013  17 39  -21.0363 26053.4 -03450.3 -07.5439 26280.8
 08 06 2013  17 40  -21.0366 26053.2 -03450.2 -07.5438 26280.7
 08 06 2013  17 41  -21.0371 26053.0 -03450.2 -07.5438 26280.5
 08 06 2013  17 42  -21.0376 26053.0 -03450.2 -07.5439 26280.4
 08 06 2013  17 43  -21.0383 26053.1 -03450.3 -07.5441 26280.5
 08 06 2013  17 44  -21.0388 26053.1 -03450.3 -07.5441 26280.5
 08 06 2013  17 45  -21.0395 26053.0 -03450.4 -07.5441 26280.4
 08 06 2013  17 46  -21.0400 26053.0 -03450.4 -07.5442 26280.5
 08 06 2013  17 47  -21.0406 26052.9 -03450.4 -07.5442 26280.4
 08 06 2013  17 48  -21.0410 26052.8 -03450.4 -07.5442 26280.3
 08 06 2013  17 49  -21.0415 26052.9 -03450.4 -07.5443 26280.4
 08 06 2013  17 50  -21.0422 26053.0 -03450.5 -07.5444 26280.5
 08 06 2013  17 51  -21.0425 26052.9 -03450.5 -07.5444 26280.4
 08 06 2013  17 52  -21.0428 26052.8 -03450.4 -07.5443 26280.3
 08 06 2013  17 53  -21.0430 26052.7 -03450.4 -07.5442 26280.2
 08 06 2013  17 54  -21.0431 26052.7 -03450.4 -07.5442 26280.2
 08 06 2013  17 55  -21.0434 26052.8 -03450.4 -07.5443 26280.3
 08 06 2013  17 56  -21.0434 26052.7 -03450.4 -07.5442 26280.2
 08 06 2013  17 57  -21.0435 26052.6 -03450.3 -07.5441 26280.1
 08 06 2013  17 58  -21.0436 26052.5 -03450.3 -07.5441 26280.0
 08 06 2013  17 59  -21.0434 26052.3 -03450.1 -07.5438 26279.7
 08 06 2013  18 00  -21.0432 26052.0 -03450.0 -07.5437 26279.4
 08 06 2013  18 01  -21.0431 26051.8 -03450.0 -07.5436 26279.2
 08 06 2013  18 02  -21.0429 26051.6 -03449.9 -07.5435 26279.1
 08 06 2013  18 03  -21.0427 26051.5 -03449.9 -07.5435 26278.9
 08 06 2013  18 04  -21.0427 26051.4 -03449.9 -07.5435 26278.8
 08 06 2013  18 05  -21.0426 26051.2 -03449.8 -07.5434 26278.6
 08 06 2013  18 06  -21.0425 26051.1 -03449.7 -07.5433 26278.5
 08 06 2013  18 07  -21.0426 26051.0 -03449.7 -07.5433 26278.4
 08 06 2013  18 08  -21.0424 26050.9 -03449.7 -07.5432 26278.3
 08 06 2013  18 09  -21.0424 26050.8 -03449.7 -07.5433 26278.2
 08 06 2013  18 10  -21.0425 26050.8 -03449.7 -07.5433 26278.2
 08 06 2013  18 11  -21.0428 26050.7 -03449.7 -07.5433 26278.1
 08 06 2013  18 12  -21.0427 26050.5 -03449.6 -07.5432 26277.9
 08 06 2013  18 13  -21.0428 26050.3 -03449.5 -07.5430 26277.6
 08 06 2013  18 14  -21.0429 26050.1 -03449.4 -07.5429 26277.4
 08 06 2013  18 15  -21.0431 26049.9 -03449.3 -07.5428 26277.3
 08 06 2013  18 16  -21.0432 26049.7 -03449.3 -07.5427 26277.1
 08 06 2013  18 17  -21.0434 26049.6 -03449.2 -07.5426 26277.0
 08 06 2013  18 18  -21.0437 26049.6 -03449.2 -07.5426 26276.9
 08 06 2013  18 19  -21.0438 26049.4 -03449.0 -07.5423 26276.7
 08 06 2013  18 20  -21.0438 26049.0 -03448.9 -07.5421 26276.4
 08 06 2013  18 21  -21.0440 26048.9 -03448.8 -07.5420 26276.2
 08 06 2013  18 22  -21.0441 26048.7 -03448.8 -07.5419 26276.1
 08 06 2013  18 23  -21.0441 26048.7 -03448.8 -07.5420 26276.0
 08 06 2013  18 24  -21.0444 26048.7 -03448.8 -07.5420 26276.0
 08 06 2013  18 25  -21.0448 26048.8 -03448.8 -07.5420 26276.1
 08 06 2013  18 26  -21.0451 26048.8 -03448.8 -07.5420 26276.1
 08 06 2013  18 27  -21.0454 26048.6 -03448.7 -07.5417 26275.9
 08 06 2013  18 28  -21.0455 26048.3 -03448.5 -07.5414 26275.6
 08 06 2013  18 29  -21.0456 26048.0 -03448.3 -07.5412 26275.3
 08 06 2013  18 30  -21.0457 26047.8 -03448.2 -07.5410 26275.0
 08 06 2013  18 31  -21.0459 26047.5 -03448.1 -07.5409 26274.7
 08 06 2013  18 32  -21.0460 26047.2 -03448.1 -07.5408 26274.5
 08 06 2013  18 33  -21.0461 26046.9 -03448.0 -07.5407 26274.1
 08 06 2013  18 34  -21.0464 26046.4 -03447.8 -07.5405 26273.6
 08 06 2013  18 35  -21.0466 26046.1 -03447.7 -07.5404 26273.3
 08 06 2013  18 36  -21.0469 26045.7 -03447.6 -07.5402 26272.9
 08 06 2013  18 37  -21.0472 26045.4 -03447.6 -07.5403 26272.6
 08 06 2013  18 38  -21.0476 26045.0 -03447.5 -07.5402 26272.2
 08 06 2013  18 39  -21.0480 26044.8 -03447.5 -07.5402 26271.9
 08 06 2013  18 40  -21.0484 26044.5 -03447.5 -07.5403 26271.7
 08 06 2013  18 41  -21.0489 26044.3 -03447.4 -07.5403 26271.5
 08 06 2013  18 42  -21.0493 26044.0 -03447.4 -07.5403 26271.2
 08 06 2013  18 43  -21.0495 26043.6 -03447.2 -07.5401 26270.7
 08 06 2013  18 44  -21.0499 26043.4 -03447.2 -07.5401 26270.5
 08 06 2013  18 45  -21.0504 26043.2 -03447.2 -07.5401 26270.3
 08 06 2013  18 46  -21.0509 26043.0 -03447.2 -07.5401 26270.2
 08 06 2013  18 47  -21.0514 26042.8 -03447.1 -07.5400 26270.0
 08 06 2013  18 48  -21.0517 26042.6 -03447.0 -07.5398 26269.7
 08 06 2013  18 49  -21.0525 26042.4 -03446.9 -07.5396 26269.5
 08 06 2013  18 50  -21.0531 26042.2 -03446.8 -07.5395 26269.3
 08 06 2013  18 51  -21.0536 26042.0 -03446.7 -07.5394 26269.1
 08 06 2013  18 52  -21.0544 26041.7 -03446.6 -07.5392 26268.8
 08 06 2013  18 53  -21.0549 26041.5 -03446.5 -07.5390 26268.5
 08 06 2013  18 54  -21.0555 26041.2 -03446.3 -07.5388 26268.3
 08 06 2013  18 55  -21.0562 26040.9 -03446.2 -07.5386 26268.0
 08 06 2013  18 56  -21.0568 26040.7 -03446.1 -07.5384 26267.8
 08 06 2013  18 57  -21.0576 26040.6 -03446.1 -07.5384 26267.6
 08 06 2013  18 58  -21.0581 26040.4 -03446.0 -07.5382 26267.4
 08 06 2013  18 59  -21.0587 26040.3 -03445.9 -07.5382 26267.3
 08 06 2013  19 00  -21.0592 26040.2 -03445.9 -07.5382 26267.2
 08 06 2013  19 01  -21.0596 26039.9 -03445.8 -07.5380 26266.9
 08 06 2013  19 02  -21.0599 26039.6 -03445.7 -07.5379 26266.6
 08 06 2013  19 03  -21.0604 26039.4 -03445.7 -07.5379 26266.4
 08 06 2013  19 04  -21.0610 26039.4 -03445.7 -07.5380 26266.4
 08 06 2013  19 05  -21.0615 26039.2 -03445.7 -07.5380 26266.2
 08 06 2013  19 06  -21.0620 26038.9 -03445.6 -07.5379 26265.9
 08 06 2013  19 07  -21.0625 26038.7 -03445.6 -07.5378 26265.7
 08 06 2013  19 08  -21.0629 26038.5 -03445.5 -07.5378 26265.5
 08 06 2013  19 09  -21.0633 26038.2 -03445.4 -07.5377 26265.2
 08 06 2013  19 10  -21.0635 26037.8 -03445.4 -07.5376 26264.8
 08 06 2013  19 11  -21.0639 26037.6 -03445.3 -07.5377 26264.6
 08 06 2013  19 12  -21.0642 26037.4 -03445.3 -07.5377 26264.4
 08 06 2013  19 13  -21.0645 26037.2 -03445.3 -07.5377 26264.1
 08 06 2013  19 14  -21.0647 26037.0 -03445.3 -07.5377 26264.0
 08 06 2013  19 15  -21.0650 26036.8 -03445.3 -07.5377 26263.7
 08 06 2013  19 16  -21.0653 26036.7 -03445.3 -07.5377 26263.6
 08 06 2013  19 17  -21.0654 26036.6 -03445.3 -07.5378 26263.5
 08 06 2013  19 18  -21.0657 26036.5 -03445.3 -07.5379 26263.5
 08 06 2013  19 19  -21.0661 26036.5 -03445.3 -07.5380 26263.5
 08 06 2013  19 20  -21.0664 26036.5 -03445.3 -07.5380 26263.4
 08 06 2013  19 21  -21.0667 26036.4 -03445.3 -07.5380 26263.4
 08 06 2013  19 22  -21.0670 26036.3 -03445.3 -07.5380 26263.2
 08 06 2013  19 23  -21.0671 26035.9 -03445.2 -07.5378 26262.9
 08 06 2013  19 24  -21.0671 26035.5 -03445.0 -07.5376 26262.5
 08 06 2013  19 25  -21.0670 26035.2 -03444.9 -07.5375 26262.1
 08 06 2013  19 26  -21.0671 26035.0 -03445.0 -07.5377 26262.0
 08 06 2013  19 27  -21.0671 26034.9 -03445.1 -07.5378 26261.9
 08 06 2013  19 28  -21.0671 26034.9 -03445.1 -07.5380 26261.9
 08 06 2013  19 29  -21.0671 26034.9 -03445.2 -07.5381 26261.9
 08 06 2013  19 30  -21.0672 26034.9 -03445.2 -07.5383 26261.8
 08 06 2013  19 31  -21.0673 26034.8 -03445.2 -07.5382 26261.8
 08 06 2013  19 32  -21.0675 26034.8 -03445.2 -07.5383 26261.8
 08 06 2013  19 33  -21.0675 26034.7 -03445.2 -07.5381 26261.6
 08 06 2013  19 34  -21.0675 26034.4 -03445.1 -07.5380 26261.3
 08 06 2013  19 35  -21.0674 26034.1 -03445.0 -07.5379 26261.0
 08 06 2013  19 36  -21.0675 26034.0 -03445.0 -07.5379 26260.9
 08 06 2013  19 37  -21.0675 26033.7 -03444.9 -07.5379 26260.6
 08 06 2013  19 38  -21.0674 26033.5 -03444.9 -07.5380 26260.4
 08 06 2013  19 39  -21.0674 26033.2 -03444.9 -07.5380 26260.1
 08 06 2013  19 40  -21.0672 26032.9 -03444.8 -07.5379 26259.8
 08 06 2013  19 41  -21.0672 26032.7 -03444.9 -07.5381 26259.7
 08 06 2013  19 42  -21.0671 26032.6 -03444.9 -07.5382 26259.6
 08 06 2013  19 43  -21.0670 26032.6 -03445.0 -07.5384 26259.5
 08 06 2013  19 44  -21.0667 26032.4 -03445.0 -07.5384 26259.3
 08 06 2013  19 45  -21.0667 26032.3 -03445.0 -07.5385 26259.3
 08 06 2013  19 46  -21.0668 26032.3 -03445.1 -07.5386 26259.3
 08 06 2013  19 47  -21.0670 26032.1 -03445.0 -07.5384 26259.1
 08 06 2013  19 48  -21.0670 26031.7 -03444.7 -07.5381 26258.6
 08 06 2013  19 49  -21.0668 26031.2 -03444.5 -07.5377 26258.1
 08 06 2013  19 50  -21.0663 26030.6 -03444.3 -07.5375 26257.5
 08 06 2013  19 51  -21.0660 26030.3 -03444.2 -07.5374 26257.1
 08 06 2013  19 52  -21.0657 26030.1 -03444.3 -07.5375 26257.0
 08 06 2013  19 53  -21.0657 26030.2 -03444.4 -07.5378 26257.1
 08 06 2013  19 54  -21.0655 26030.0 -03444.4 -07.5378 26256.9
 08 06 2013  19 55  -21.0651 26029.8 -03444.3 -07.5376 26256.6
 08 06 2013  19 56  -21.0649 26029.6 -03444.3 -07.5376 26256.5
 08 06 2013  19 57  -21.0643 26029.3 -03444.2 -07.5376 26256.2
 08 06 2013  19 58  -21.0637 26028.9 -03444.1 -07.5374 26255.8
 08 06 2013  19 59  -21.0633 26028.8 -03444.2 -07.5377 26255.7
 08 06 2013  20 00  -21.0631 26029.0 -03444.4 -07.5381 26255.9
 08 06 2013  20 01  -21.0630 26029.2 -03444.5 -07.5383 26256.2
 08 06 2013  20 02  -21.0629 26029.3 -03444.6 -07.5384 26256.2
 08 06 2013  20 03  -21.0626 26029.1 -03444.4 -07.5381 26256.0
 08 06 2013  20 04  -21.0623 26028.8 -03444.2 -07.5378 26255.6
 08 06 2013  20 05  -21.0621 26028.4 -03444.1 -07.5376 26255.3
 08 06 2013  20 06  -21.0618 26028.0 -03443.9 -07.5374 26254.9
 08 06 2013  20 07  -21.0617 26027.8 -03443.9 -07.5374 26254.6
 08 06 2013  20 08  -21.0616 26027.6 -03443.9 -07.5374 26254.5
 08 06 2013  20 09  -21.0615 26027.4 -03443.9 -07.5375 26254.3
 08 06 2013  20 10  -21.0615 26027.4 -03443.9 -07.5375 26254.2
 08 06 2013  20 11  -21.0613 26027.3 -03443.9 -07.5375 26254.1
 08 06 2013  20 12  -21.0612 26027.2 -03443.9 -07.5376 26254.1
 08 06 2013  20 13  -21.0611 26027.1 -03444.0 -07.5377 26254.0
 08 06 2013  20 14  -21.0609 26027.1 -03444.0 -07.5378 26254.0
 08 06 2013  20 15  -21.0608 26026.9 -03444.0 -07.5378 26253.8
 08 06 2013  20 16  -21.0606 26026.7 -03444.0 -07.5379 26253.6
 08 06 2013  20 17  -21.0603 26026.7 -03444.1 -07.5380 26253.6
 08 06 2013  20 18  -21.0599 26026.7 -03444.2 -07.5383 26253.6
 08 06 2013  20 19  -21.0596 26026.9 -03444.4 -07.5386 26253.8
 08 06 2013  20 20  -21.0593 26026.9 -03444.5 -07.5389 26253.9
 08 06 2013  20 21  -21.0591 26026.8 -03444.5 -07.5388 26253.8
 08 06 2013  20 22  -21.0590 26026.9 -03444.5 -07.5390 26253.9
 08 06 2013  20 23  -21.0591 26026.9 -03444.6 -07.5391 26253.8
 08 06 2013  20 24  -21.0589 26026.6 -03444.5 -07.5390 26253.6
 08 06 2013  20 25  -21.0587 26026.4 -03444.4 -07.5389 26253.4
 08 06 2013  20 26  -21.0586 26026.4 -03444.4 -07.5389 26253.3
 08 06 2013  20 27  -21.0582 26026.4 -03444.5 -07.5391 26253.4
 08 06 2013  20 28  -21.0579 26026.4 -03444.6 -07.5393 26253.4
 08 06 2013  20 29  -21.0576 26026.7 -03444.8 -07.5396 26253.7
 08 06 2013  20 30  -21.0574 26026.9 -03444.9 -07.5397 26253.9
 08 06 2013  20 31  -21.0573 26027.0 -03444.9 -07.5398 26254.0
 08 06 2013  20 32  -21.0572 26027.1 -03444.9 -07.5397 26254.0
 08 06 2013  20 33  -21.0570 26026.8 -03444.7 -07.5395 26253.7
 08 06 2013  20 34  -21.0567 26026.6 -03444.7 -07.5394 26253.6
 08 06 2013  20 35  -21.0560 26026.6 -03444.6 -07.5393 26253.6
 08 06 2013  20 36  -21.0552 26026.3 -03444.5 -07.5391 26253.3
 08 06 2013  20 37  -21.0544 26026.1 -03444.4 -07.5389 26253.0
 08 06 2013  20 38  -21.0537 26025.9 -03444.4 -07.5389 26252.8
 08 06 2013  20 39  -21.0531 26025.8 -03444.4 -07.5390 26252.7
 08 06 2013  20 40  -21.0524 26025.9 -03444.5 -07.5392 26252.9
 08 06 2013  20 41  -21.0519 26026.0 -03444.6 -07.5394 26253.0
 08 06 2013  20 42  -21.0515 26026.2 -03444.8 -07.5397 26253.2
 08 06 2013  20 43  -21.0512 26026.1 -03444.8 -07.5398 26253.1
 08 06 2013  20 44  -21.0510 26026.1 -03444.9 -07.5399 26253.1
 08 06 2013  20 45  -21.0507 26026.0 -03444.9 -07.5400 26253.0
 08 06 2013  20 46  -21.0502 26025.8 -03444.8 -07.5399 26252.8
 08 06 2013  20 47  -21.0498 26025.5 -03444.8 -07.5399 26252.5
 08 06 2013  20 48  -21.0495 26025.7 -03444.9 -07.5401 26252.7
 08 06 2013  20 49  -21.0490 26025.7 -03445.0 -07.5403 26252.7
 08 06 2013  20 50  -21.0487 26025.8 -03445.1 -07.5405 26252.8
 08 06 2013  20 51  -21.0482 26026.1 -03445.3 -07.5409 26253.1
 08 06 2013  20 52  -21.0478 26026.0 -03445.3 -07.5410 26253.0
 08 06 2013  20 53  -21.0474 26026.1 -03445.4 -07.5410 26253.2
 08 06 2013  20 54  -21.0473 26025.9 -03445.4 -07.5411 26253.0
 08 06 2013  20 55  -21.0471 26026.1 -03445.5 -07.5413 26253.2
 08 06 2013  20 56  -21.0472 26025.9 -03445.5 -07.5414 26253.0
 08 06 2013  20 57  -21.0469 26026.0 -03445.6 -07.5415 26253.1
 08 06 2013  20 58  -21.0468 26025.8 -03445.5 -07.5415 26252.9
 08 06 2013  20 59  -21.0464 26025.7 -03445.5 -07.5415 26252.8
 08 06 2013  21 00  -21.0463 26025.5 -03445.5 -07.5415 26252.6
 08 06 2013  21 01  -21.0461 26025.4 -03445.5 -07.5415 26252.5
 08 06 2013  21 02  -21.0457 26025.8 -03445.7 -07.5418 26252.9
 08 06 2013  21 03  -21.0454 26025.5 -03445.6 -07.5418 26252.6
 08 06 2013  21 04  -21.0449 26025.8 -03445.8 -07.5420 26253.0
 08 06 2013  21 05  -21.0449 26025.7 -03445.8 -07.5421 26252.8
 08 06 2013  21 06  -21.0449 26025.6 -03445.8 -07.5421 26252.7
 08 06 2013  21 07  -21.0448 26025.9 -03446.0 -07.5424 26253.0
 08 06 2013  21 08  -21.0442 26025.9 -03446.0 -07.5424 26253.0
 08 06 2013  21 09  -21.0439 26025.9 -03446.0 -07.5425 26253.1
 08 06 2013  21 10  -21.0432 26025.6 -03445.9 -07.5422 26252.7
 08 06 2013  21 11  -21.0431 26025.7 -03445.9 -07.5423 26252.8
 08 06 2013  21 12  -21.0432 26025.7 -03446.0 -07.5425 26252.8
 08 06 2013  21 13  -21.0430 26025.8 -03446.1 -07.5427 26253.0
 08 06 2013  21 14  -21.0428 26025.8 -03446.1 -07.5428 26252.9
 08 06 2013  21 15  -21.0426 26025.6 -03446.0 -07.5426 26252.7
 08 06 2013  21 16  -21.0420 26025.4 -03445.9 -07.5424 26252.5
 08 06 2013  21 17  -21.0418 26025.1 -03445.8 -07.5423 26252.2
 08 06 2013  21 18  -21.0415 26025.1 -03445.9 -07.5424 26252.2
 08 06 2013  21 19  -21.0411 26025.0 -03445.9 -07.5424 26252.1
 08 06 2013  21 20  -21.0407 26024.9 -03445.9 -07.5425 26252.1
 08 06 2013  21 21  -21.0404 26025.2 -03446.1 -07.5428 26252.3
 08 06 2013  21 22  -21.0402 26025.3 -03446.2 -07.5430 26252.5
 08 06 2013  21 23  -21.0398 26025.7 -03446.5 -07.5435 26252.9
 08 06 2013  21 24  -21.0398 26025.6 -03446.5 -07.5436 26252.9
 08 06 2013  21 25  -21.0394 26025.8 -03446.6 -07.5438 26253.1
 08 06 2013  21 26  -21.0393 26026.0 -03446.7 -07.5440 26253.2
 08 06 2013  21 27  -21.0390 26026.2 -03446.8 -07.5441 26253.5
 08 06 2013  21 28  -21.0389 26026.4 -03446.9 -07.5443 26253.7
 08 06 2013  21 29  -21.0391 26026.3 -03446.9 -07.5444 26253.6
 08 06 2013  21 30  -21.0386 26026.5 -03447.0 -07.5445 26253.8
 08 06 2013  21 31  -21.0386 26026.7 -03447.1 -07.5446 26254.0
 08 06 2013  21 32  -21.0384 26026.7 -03447.2 -07.5448 26254.0
 08 06 2013  21 33  -21.0382 26026.9 -03447.2 -07.5447 26254.1
 08 06 2013  21 34  -21.0382 26027.1 -03447.3 -07.5450 26254.4
 08 06 2013  21 35  -21.0381 26027.3 -03447.4 -07.5451 26254.6
 08 06 2013  21 36  -21.0380 26027.2 -03447.4 -07.5451 26254.5
 08 06 2013  21 37  -21.0379 26027.1 -03447.3 -07.5450 26254.4
 08 06 2013  21 38  -21.0379 26027.1 -03447.3 -07.5450 26254.4
 08 06 2013  21 39  -21.0378 26026.9 -03447.3 -07.5449 26254.2
 08 06 2013  21 40  -21.0376 26027.0 -03447.2 -07.5448 26254.3
 08 06 2013  21 41  -21.0376 26027.2 -03447.4 -07.5451 26254.6
 08 06 2013  21 42  -21.0376 26027.4 -03447.5 -07.5453 26254.7
 08 06 2013  21 43  -21.0375 26027.5 -03447.6 -07.5454 26254.8
 08 06 2013  21 44  -21.0372 26027.6 -03447.6 -07.5455 26255.0
 08 06 2013  21 45  -21.0373 26027.8 -03447.7 -07.5456 26255.2
 08 06 2013  21 46  -21.0373 26027.9 -03447.8 -07.5457 26255.3
 08 06 2013  21 47  -21.0374 26028.0 -03447.8 -07.5457 26255.4
 08 06 2013  21 48  -21.0374 26028.1 -03447.8 -07.5458 26255.5
 08 06 2013  21 49  -21.0374 26028.3 -03447.9 -07.5459 26255.7
 08 06 2013  21 50  -21.0376 26028.4 -03448.0 -07.5461 26255.8
 08 06 2013  21 51  -21.0378 26028.5 -03448.1 -07.5461 26255.9
 08 06 2013  21 52  -21.0380 26028.7 -03448.1 -07.5462 26256.0
 08 06 2013  21 53  -21.0383 26028.8 -03448.1 -07.5462 26256.2
 08 06 2013  21 54  -21.0385 26028.7 -03448.1 -07.5462 26256.1
 08 06 2013  21 55  -21.0386 26028.5 -03448.0 -07.5460 26255.9
 08 06 2013  21 56  -21.0387 26028.4 -03447.9 -07.5458 26255.8
 08 06 2013  21 57  -21.0385 26028.4 -03447.8 -07.5457 26255.7
 08 06 2013  21 58  -21.0384 26028.3 -03447.8 -07.5456 26255.7
 08 06 2013  21 59  -21.0386 26028.3 -03447.8 -07.5456 26255.7
 08 06 2013  22 00  -21.0389 26028.5 -03447.9 -07.5458 26255.8
 08 06 2013  22 01  -21.0390 26028.5 -03447.9 -07.5458 26255.9
 08 06 2013  22 02  -21.0390 26028.6 -03447.9 -07.5458 26256.0
 08 06 2013  22 03  -21.0390 26028.6 -03447.9 -07.5458 26256.0
 08 06 2013  22 04  -21.0393 26028.7 -03447.9 -07.5458 26256.1
 08 06 2013  22 05  -21.0395 26028.7 -03447.9 -07.5457 26256.0
 08 06 2013  22 06  -21.0395 26028.7 -03447.9 -07.5458 26256.1
 08 06 2013  22 07  -21.0393 26028.8 -03447.9 -07.5457 26256.2
 08 06 2013  22 08  -21.0392 26028.8 -03447.9 -07.5457 26256.2
 08 06 2013  22 09  -21.0392 26028.7 -03447.8 -07.5455 26256.0
 08 06 2013  22 10  -21.0393 26028.5 -03447.7 -07.5453 26255.8
 08 06 2013  22 11  -21.0392 26028.4 -03447.7 -07.5453 26255.8
 08 06 2013  22 12  -21.0391 26028.5 -03447.6 -07.5452 26255.8
 08 06 2013  22 13  -21.0388 26028.6 -03447.7 -07.5454 26256.0
 08 06 2013  22 14  -21.0388 26028.6 -03447.7 -07.5454 26255.9
 08 06 2013  22 15  -21.0387 26028.8 -03447.8 -07.5454 26256.1
 08 06 2013  22 16  -21.0389 26029.1 -03447.9 -07.5457 26256.5
 08 06 2013  22 17  -21.0393 26029.1 -03448.0 -07.5459 26256.4
 08 06 2013  22 18  -21.0392 26029.3 -03448.1 -07.5459 26256.7
 08 06 2013  22 19  -21.0395 26029.3 -03448.1 -07.5460 26256.6
 08 06 2013  22 20  -21.0393 26029.5 -03448.1 -07.5461 26256.9
 08 06 2013  22 21  -21.0397 26029.5 -03448.1 -07.5460 26256.8
 08 06 2013  22 22  -21.0397 26029.6 -03448.2 -07.5461 26257.0
 08 06 2013  22 23  -21.0396 26029.4 -03448.1 -07.5459 26256.8
 08 06 2013  22 24  -21.0393 26029.4 -03448.0 -07.5459 26256.8
 08 06 2013  22 25  -21.0393 26029.3 -03448.0 -07.5457 26256.6
 08 06 2013  22 26  -21.0393 26029.1 -03447.9 -07.5456 26256.5
 08 06 2013  22 27  -21.0392 26029.1 -03447.9 -07.5456 26256.5
 08 06 2013  22 28  -21.0394 26029.1 -03447.8 -07.5455 26256.4
 08 06 2013  22 29  -21.0398 26029.2 -03447.9 -07.5457 26256.6
 08 06 2013  22 30  -21.0399 26029.3 -03448.0 -07.5458 26256.7
 08 06 2013  22 31  -21.0397 26029.5 -03448.1 -07.5460 26256.9
 08 06 2013  22 32  -21.0392 26029.5 -03448.0 -07.5458 26256.8
 08 06 2013  22 33  -21.0391 26029.3 -03447.9 -07.5456 26256.6
 08 06 2013  22 34  -21.0389 26029.2 -03447.8 -07.5455 26256.5
 08 06 2013  22 35  -21.0391 26028.9 -03447.7 -07.5453 26256.3
 08 06 2013  22 36  -21.0390 26029.1 -03447.8 -07.5455 26256.4
 08 06 2013  22 37  -21.0390 26029.2 -03447.9 -07.5456 26256.6
 08 06 2013  22 38  -21.0387 26029.4 -03448.0 -07.5458 26256.8
 08 06 2013  22 39  -21.0385 26029.4 -03448.0 -07.5458 26256.7
 08 06 2013  22 40  -21.0384 26029.5 -03448.1 -07.5459 26256.8
 08 06 2013  22 41  -21.0383 26029.0 -03447.9 -07.5456 26256.4
 08 06 2013  22 42  -21.0393 26028.8 -03447.8 -07.5455 26256.1
 08 06 2013  22 43  -21.0393 26028.8 -03447.8 -07.5455 26256.2
 08 06 2013  22 44  -21.0394 26029.0 -03447.9 -07.5457 26256.4
 08 06 2013  22 45  -21.0389 26028.8 -03447.8 -07.5456 26256.2
 08 06 2013  22 46  -21.0388 26028.8 -03447.8 -07.5455 26256.1
 08 06 2013  22 47  -21.0388 26028.8 -03447.8 -07.5455 26256.1
 08 06 2013  22 48  -21.0385 26029.0 -03447.9 -07.5457 26256.4
 08 06 2013  22 49  -21.0383 26029.2 -03448.0 -07.5458 26256.6
 08 06 2013  22 50  -21.0381 26029.4 -03448.1 -07.5460 26256.7
 08 06 2013  22 51  -21.0381 26029.5 -03448.2 -07.5462 26256.9
 08 06 2013  22 52  -21.0382 26029.3 -03448.1 -07.5461 26256.7
 08 06 2013  22 53  -21.0384 26029.3 -03448.1 -07.5461 26256.7
 08 06 2013  22 54  -21.0384 26029.0 -03448.0 -07.5459 26256.4
 08 06 2013  22 55  -21.0384 26028.8 -03447.8 -07.5456 26256.1
 08 06 2013  22 56  -21.0383 26028.6 -03447.8 -07.5455 26256.0
 08 06 2013  22 57  -21.0384 26028.5 -03447.7 -07.5454 26255.9
 08 06 2013  22 58  -21.0385 26028.6 -03447.8 -07.5456 26255.9
 08 06 2013  22 59  -21.0388 26028.4 -03447.8 -07.5456 26255.8
 08 06 2013  23 00  -21.0391 26028.4 -03447.8 -07.5456 26255.8
 08 06 2013  23 01  -21.0393 26028.6 -03447.9 -07.5459 26256.0
 08 06 2013  23 02  -21.0395 26028.7 -03448.0 -07.5460 26256.1
 08 06 2013  23 03  -21.0394 26028.8 -03448.1 -07.5461 26256.2
 08 06 2013  23 04  -21.0390 26029.1 -03448.2 -07.5463 26256.6
 08 06 2013  23 05  -21.0389 26029.2 -03448.2 -07.5464 26256.6
 08 06 2013  23 06  -21.0388 26029.1 -03448.2 -07.5463 26256.5
 08 06 2013  23 07  -21.0391 26028.7 -03448.0 -07.5460 26256.1
 08 06 2013  23 08  -21.0394 26028.6 -03448.0 -07.5459 26256.0
 08 06 2013  23 09  -21.0395 26028.4 -03447.9 -07.5458 26255.7
 08 06 2013  23 10  -21.0393 26028.4 -03447.9 -07.5457 26255.8
 08 06 2013  23 11  -21.0391 26028.5 -03447.9 -07.5457 26255.8
 08 06 2013  23 12  -21.0392 26028.7 -03448.1 -07.5461 26256.1
 08 06 2013  23 13  -21.0389 26028.8 -03448.1 -07.5461 26256.2
 08 06 2013  23 14  -21.0390 26028.8 -03448.1 -07.5462 26256.2
 08 06 2013  23 15  -21.0389 26029.1 -03448.2 -07.5464 26256.5
 08 06 2013  23 16  -21.0387 26028.8 -03448.1 -07.5462 26256.2
 08 06 2013  23 17  -21.0385 26028.7 -03448.1 -07.5461 26256.1
 08 06 2013  23 18  -21.0389 26028.4 -03447.9 -07.5459 26255.8
 08 06 2013  23 19  -21.0399 26028.4 -03448.0 -07.5461 26255.8
 08 06 2013  23 20  -21.0401 26028.5 -03448.0 -07.5461 26255.9
 08 06 2013  23 21  -21.0397 26028.7 -03448.1 -07.5462 26256.1
 08 06 2013  23 22  -21.0394 26028.7 -03448.0 -07.5461 26256.1
 08 06 2013  23 23  -21.0389 26028.4 -03447.9 -07.5457 26255.8
 08 06 2013  23 24  -21.0391 26028.3 -03447.8 -07.5457 26255.6
 08 06 2013  23 25  -21.0391 26028.1 -03447.8 -07.5456 26255.5
 08 06 2013  23 26  -21.0395 26028.1 -03447.8 -07.5457 26255.5
 08 06 2013  23 27  -21.0398 26028.6 -03448.1 -07.5462 26256.0
 08 06 2013  23 28  -21.0403 26028.5 -03448.1 -07.5463 26255.9
 08 06 2013  23 29  -21.0409 26028.7 -03448.2 -07.5464 26256.1
 08 06 2013  23 30  -21.0405 26028.8 -03448.2 -07.5464 26256.2
 08 06 2013  23 31  -21.0399 26029.1 -03448.3 -07.5465 26256.5
 08 06 2013  23 32  -21.0393 26028.9 -03448.2 -07.5463 26256.3
 08 06 2013  23 33  -21.0399 26028.7 -03448.1 -07.5462 26256.1
 08 06 2013  23 34  -21.0407 26028.4 -03448.0 -07.5461 26255.7
 08 06 2013  23 35  -21.0408 26028.2 -03447.9 -07.5460 26255.6
 08 06 2013  23 36  -21.0403 26027.9 -03447.7 -07.5456 26255.3
 08 06 2013  23 37  -21.0401 26027.9 -03447.7 -07.5455 26255.2
 08 06 2013  23 38  -21.0399 26027.6 -03447.6 -07.5454 26255.0
 08 06 2013  23 39  -21.0401 26027.7 -03447.7 -07.5456 26255.0
 08 06 2013  23 40  -21.0400 26027.7 -03447.7 -07.5457 26255.0
 08 06 2013  23 41  -21.0403 26027.7 -03447.8 -07.5459 26255.1
 08 06 2013  23 42  -21.0405 26028.0 -03448.0 -07.5462 26255.4
 08 06 2013  23 43  -21.0405 26028.2 -03448.2 -07.5465 26255.6
 08 06 2013  23 44  -21.0405 26028.2 -03448.1 -07.5464 26255.6
 08 06 2013  23 45  -21.0407 26027.9 -03448.0 -07.5462 26255.3
 08 06 2013  23 46  -21.0414 26027.7 -03448.0 -07.5462 26255.1
 08 06 2013  23 47  -21.0417 26027.6 -03447.9 -07.5461 26255.0
 08 06 2013  23 48  -21.0411 26027.3 -03447.7 -07.5458 26254.6
 08 06 2013  23 49  -21.0410 26027.0 -03447.6 -07.5456 26254.4
 08 06 2013  23 50  -21.0401 26027.1 -03447.6 -07.5456 26254.5
 08 06 2013  23 51  -21.0402 26027.5 -03447.8 -07.5460 26254.9
 08 06 2013  23 52  -21.0403 26028.0 -03448.2 -07.5466 26255.4
 08 06 2013  23 53  -21.0401 26028.6 -03448.6 -07.5472 26256.1
 08 06 2013  23 54  -21.0396 26028.8 -03448.6 -07.5473 26256.2
 08 06 2013  23 55  -21.0402 26029.2 -03448.9 -07.5478 26256.7
 08 06 2013  23 56  -21.0406 26029.1 -03448.9 -07.5478 26256.6
 08 06 2013  23 57  -21.0410 26028.9 -03448.8 -07.5476 26256.4
 08 06 2013  23 58  -21.0412 26028.3 -03448.4 -07.5470 26255.7
