SAO LUIS EMBRACE-03 <002> 1 Min. Reported data

 DD MM YYYY  HH MM   D(Deg)  H(nT)   Z(nT)   I(Deg)   F(nT)

 02 01 2013  00 00  -20.9997 26058.7 -03385.9 -07.4032 26277.7
 02 01 2013  00 01  -20.9997 26058.6 -03385.9 -07.4032 26277.7
 02 01 2013  00 02  -20.9996 26058.7 -03385.9 -07.4031 26277.7
 02 01 2013  00 03  -20.9997 26058.6 -03385.9 -07.4031 26277.7
 02 01 2013  00 04  -20.9998 26058.6 -03385.9 -07.4032 26277.7
 02 01 2013  00 05  -20.9998 26058.7 -03385.9 -07.4032 26277.7
 02 01 2013  00 06  -20.9999 26058.7 -03385.9 -07.4032 26277.7
 02 01 2013  00 07  -20.9999 26058.8 -03386.0 -07.4033 26277.8
 02 01 2013  00 08  -20.9998 26058.8 -03386.0 -07.4033 26277.9
 02 01 2013  00 09  -20.9999 26058.8 -03386.0 -07.4034 26277.9
 02 01 2013  00 10  -20.9998 26058.9 -03386.0 -07.4034 26277.9
 02 01 2013  00 11  -20.9998 26058.9 -03386.0 -07.4034 26277.9
 02 01 2013  00 12  -21.0000 26058.9 -03386.1 -07.4034 26278.0
 02 01 2013  00 13  -21.0001 26058.9 -03386.1 -07.4034 26278.0
 02 01 2013  00 14  -21.0003 26058.9 -03386.0 -07.4034 26278.0
 02 01 2013  00 15  -21.0005 26058.9 -03386.0 -07.4034 26278.0
 02 01 2013  00 16  -21.0006 26058.9 -03386.0 -07.4034 26278.0
 02 01 2013  00 17  -21.0006 26058.9 -03386.0 -07.4033 26277.9
 02 01 2013  00 18  -21.0007 26058.8 -03385.9 -07.4032 26277.9
 02 01 2013  00 19  -21.0007 26058.8 -03385.9 -07.4031 26277.8
 02 01 2013  00 20  -21.0007 26058.8 -03385.9 -07.4031 26277.9
 02 01 2013  00 21  -21.0008 26058.9 -03385.9 -07.4031 26277.9
 02 01 2013  00 22  -21.0010 26058.9 -03385.9 -07.4030 26277.9
 02 01 2013  00 23  -21.0011 26058.9 -03385.9 -07.4030 26277.9
 02 01 2013  00 24  -21.0013 26058.9 -03385.8 -07.4030 26277.9
 02 01 2013  00 25  -21.0013 26058.8 -03385.8 -07.4029 26277.8
 02 01 2013  00 26  -21.0013 26058.8 -03385.7 -07.4028 26277.8
 02 01 2013  00 27  -21.0014 26058.8 -03385.7 -07.4027 26277.8
 02 01 2013  00 28  -21.0016 26058.8 -03385.7 -07.4027 26277.8
 02 01 2013  00 29  -21.0018 26058.8 -03385.7 -07.4027 26277.8
 02 01 2013  00 30  -21.0020 26058.8 -03385.7 -07.4026 26277.8
 02 01 2013  00 31  -21.0022 26058.7 -03385.6 -07.4026 26277.8
 02 01 2013  00 32  -21.0025 26058.7 -03385.6 -07.4026 26277.7
 02 01 2013  00 33  -21.0025 26058.7 -03385.6 -07.4025 26277.7
 02 01 2013  00 34  -21.0025 26058.7 -03385.6 -07.4025 26277.7
 02 01 2013  00 35  -21.0026 26058.8 -03385.6 -07.4025 26277.8
 02 01 2013  00 36  -21.0029 26058.8 -03385.7 -07.4026 26277.8
 02 01 2013  00 37  -21.0030 26058.8 -03385.7 -07.4026 26277.8
 02 01 2013  00 38  -21.0032 26058.8 -03385.7 -07.4027 26277.8
 02 01 2013  00 39  -21.0034 26058.8 -03385.7 -07.4027 26277.8
 02 01 2013  00 40  -21.0035 26058.8 -03385.7 -07.4028 26277.8
 02 01 2013  00 41  -21.0038 26058.8 -03385.8 -07.4028 26277.8
 02 01 2013  00 42  -21.0039 26058.8 -03385.8 -07.4029 26277.9
 02 01 2013  00 43  -21.0040 26058.9 -03385.8 -07.4029 26277.9
 02 01 2013  00 44  -21.0041 26058.8 -03385.8 -07.4030 26277.9
 02 01 2013  00 45  -21.0041 26058.8 -03385.8 -07.4030 26277.8
 02 01 2013  00 46  -21.0042 26058.8 -03385.8 -07.4030 26277.8
 02 01 2013  00 47  -21.0043 26058.8 -03385.9 -07.4030 26277.9
 02 01 2013  00 48  -21.0045 26058.8 -03385.9 -07.4031 26277.9
 02 01 2013  00 49  -21.0047 26058.8 -03385.9 -07.4032 26277.9
 02 01 2013  00 50  -21.0048 26058.8 -03385.9 -07.4032 26277.8
 02 01 2013  00 51  -21.0049 26058.7 -03385.9 -07.4032 26277.8
 02 01 2013  00 52  -21.0048 26058.7 -03385.9 -07.4031 26277.8
 02 01 2013  00 53  -21.0048 26058.7 -03385.9 -07.4032 26277.8
 02 01 2013  00 54  -21.0049 26058.7 -03386.0 -07.4033 26277.8
 02 01 2013  00 55  -21.0049 26058.7 -03386.0 -07.4033 26277.8
 02 01 2013  00 56  -21.0050 26058.7 -03386.0 -07.4033 26277.8
 02 01 2013  00 57  -21.0052 26058.7 -03386.0 -07.4033 26277.8
 02 01 2013  00 58  -21.0052 26058.7 -03386.0 -07.4033 26277.7
 02 01 2013  00 59  -21.0055 26058.7 -03386.0 -07.4033 26277.7
 02 01 2013  01 00  -21.0055 26058.7 -03386.0 -07.4033 26277.7
 02 01 2013  01 01  -21.0056 26058.6 -03385.9 -07.4032 26277.7
 02 01 2013  01 02  -21.0056 26058.6 -03385.9 -07.4031 26277.6
 02 01 2013  01 03  -21.0056 26058.6 -03385.9 -07.4031 26277.6
 02 01 2013  01 04  -21.0057 26058.6 -03385.8 -07.4031 26277.6
 02 01 2013  01 05  -21.0057 26058.6 -03385.8 -07.4030 26277.6
 02 01 2013  01 06  -21.0057 26058.7 -03385.9 -07.4031 26277.7
 02 01 2013  01 07  -21.0058 26058.7 -03385.9 -07.4031 26277.8
 02 01 2013  01 08  -21.0059 26058.7 -03385.9 -07.4031 26277.8
 02 01 2013  01 09  -21.0058 26058.7 -03385.9 -07.4031 26277.8
 02 01 2013  01 10  -21.0058 26058.7 -03385.8 -07.4030 26277.7
 02 01 2013  01 11  -21.0058 26058.6 -03385.8 -07.4030 26277.7
 02 01 2013  01 12  -21.0058 26058.6 -03385.8 -07.4029 26277.6
 02 01 2013  01 13  -21.0058 26058.6 -03385.8 -07.4029 26277.6
 02 01 2013  01 14  -21.0058 26058.6 -03385.8 -07.4029 26277.6
 02 01 2013  01 15  -21.0058 26058.6 -03385.8 -07.4029 26277.7
 02 01 2013  01 16  -21.0058 26058.6 -03385.8 -07.4029 26277.7
 02 01 2013  01 17  -21.0058 26058.7 -03385.8 -07.4029 26277.7
 02 01 2013  01 18  -21.0057 26058.7 -03385.8 -07.4029 26277.8
 02 01 2013  01 19  -21.0057 26058.8 -03385.8 -07.4030 26277.9
 02 01 2013  01 20  -21.0057 26058.8 -03385.9 -07.4030 26277.9
 02 01 2013  01 21  -21.0057 26058.9 -03385.9 -07.4030 26278.0
 02 01 2013  01 22  -21.0056 26059.0 -03385.9 -07.4030 26278.0
 02 01 2013  01 23  -21.0056 26059.0 -03385.9 -07.4031 26278.1
 02 01 2013  01 24  -21.0054 26059.1 -03385.9 -07.4030 26278.1
 02 01 2013  01 25  -21.0054 26059.2 -03385.9 -07.4030 26278.2
 02 01 2013  01 26  -21.0054 26059.2 -03385.9 -07.4030 26278.2
 02 01 2013  01 27  -21.0053 26059.2 -03385.9 -07.4030 26278.2
 02 01 2013  01 28  -21.0053 26059.3 -03385.9 -07.4029 26278.3
 02 01 2013  01 29  -21.0051 26059.2 -03385.8 -07.4029 26278.3
 02 01 2013  01 30  -21.0051 26059.2 -03385.8 -07.4028 26278.2
 02 01 2013  01 31  -21.0051 26059.3 -03385.8 -07.4028 26278.3
 02 01 2013  01 32  -21.0051 26059.3 -03385.8 -07.4028 26278.3
 02 01 2013  01 33  -21.0051 26059.3 -03385.8 -07.4028 26278.3
 02 01 2013  01 34  -21.0051 26059.3 -03385.8 -07.4027 26278.4
 02 01 2013  01 35  -21.0051 26059.4 -03385.8 -07.4027 26278.4
 02 01 2013  01 36  -21.0051 26059.4 -03385.8 -07.4027 26278.4
 02 01 2013  01 37  -21.0050 26059.4 -03385.7 -07.4026 26278.5
 02 01 2013  01 38  -21.0050 26059.4 -03385.7 -07.4026 26278.5
 02 01 2013  01 39  -21.0050 26059.4 -03385.7 -07.4025 26278.4
 02 01 2013  01 40  -21.0051 26059.4 -03385.7 -07.4025 26278.4
 02 01 2013  01 41  -21.0051 26059.4 -03385.7 -07.4025 26278.4
 02 01 2013  01 42  -21.0052 26059.4 -03385.7 -07.4024 26278.4
 02 01 2013  01 43  -21.0051 26059.4 -03385.6 -07.4024 26278.4
 02 01 2013  01 44  -21.0050 26059.5 -03385.6 -07.4024 26278.5
 02 01 2013  01 45  -21.0050 26059.5 -03385.6 -07.4024 26278.5
 02 01 2013  01 46  -21.0049 26059.5 -03385.6 -07.4024 26278.5
 02 01 2013  01 47  -21.0049 26059.4 -03385.6 -07.4024 26278.5
 02 01 2013  01 48  -21.0047 26059.4 -03385.6 -07.4023 26278.4
 02 01 2013  01 49  -21.0047 26059.5 -03385.6 -07.4023 26278.5
 02 01 2013  01 50  -21.0048 26059.5 -03385.6 -07.4023 26278.5
 02 01 2013  01 51  -21.0048 26059.5 -03385.6 -07.4023 26278.5
 02 01 2013  01 52  -21.0047 26059.5 -03385.6 -07.4023 26278.5
 02 01 2013  01 53  -21.0046 26059.5 -03385.6 -07.4023 26278.5
 02 01 2013  01 54  -21.0045 26059.5 -03385.6 -07.4023 26278.5
 02 01 2013  01 55  -21.0045 26059.4 -03385.6 -07.4022 26278.5
 02 01 2013  01 56  -21.0044 26059.5 -03385.6 -07.4022 26278.5
 02 01 2013  01 57  -21.0043 26059.5 -03385.6 -07.4023 26278.5
 02 01 2013  01 58  -21.0043 26059.5 -03385.6 -07.4023 26278.5
 02 01 2013  01 59  -21.0043 26059.5 -03385.6 -07.4023 26278.5
 02 01 2013  02 00  -21.0042 26059.5 -03385.6 -07.4023 26278.5
 02 01 2013  02 01  -21.0042 26059.5 -03385.6 -07.4023 26278.5
 02 01 2013  02 02  -21.0042 26059.6 -03385.6 -07.4023 26278.6
 02 01 2013  02 03  -21.0040 26059.6 -03385.6 -07.4023 26278.6
 02 01 2013  02 04  -21.0040 26059.6 -03385.7 -07.4024 26278.6
 02 01 2013  02 05  -21.0041 26059.7 -03385.7 -07.4024 26278.7
 02 01 2013  02 06  -21.0041 26059.7 -03385.7 -07.4025 26278.7
 02 01 2013  02 07  -21.0041 26059.8 -03385.7 -07.4025 26278.8
 02 01 2013  02 08  -21.0041 26059.8 -03385.7 -07.4025 26278.8
 02 01 2013  02 09  -21.0042 26059.8 -03385.7 -07.4025 26278.8
 02 01 2013  02 10  -21.0042 26059.7 -03385.7 -07.4024 26278.8
 02 01 2013  02 11  -21.0043 26059.7 -03385.7 -07.4024 26278.7
 02 01 2013  02 12  -21.0043 26059.7 -03385.7 -07.4024 26278.7
 02 01 2013  02 13  -21.0043 26059.7 -03385.7 -07.4024 26278.7
 02 01 2013  02 14  -21.0043 26059.7 -03385.7 -07.4024 26278.7
 02 01 2013  02 15  -21.0042 26059.7 -03385.7 -07.4024 26278.7
 02 01 2013  02 16  -21.0042 26059.8 -03385.7 -07.4024 26278.8
 02 01 2013  02 17  -21.0043 26059.8 -03385.7 -07.4024 26278.8
 02 01 2013  02 18  -21.0042 26059.7 -03385.6 -07.4023 26278.7
 02 01 2013  02 19  -21.0042 26059.7 -03385.6 -07.4023 26278.7
 02 01 2013  02 20  -21.0042 26059.7 -03385.6 -07.4023 26278.7
 02 01 2013  02 21  -21.0042 26059.7 -03385.7 -07.4024 26278.7
 02 01 2013  02 22  -21.0041 26059.7 -03385.6 -07.4023 26278.7
 02 01 2013  02 23  -21.0041 26059.7 -03385.6 -07.4023 26278.7
 02 01 2013  02 24  -21.0042 26059.7 -03385.7 -07.4024 26278.7
 02 01 2013  02 25  -21.0043 26059.8 -03385.7 -07.4025 26278.8
 02 01 2013  02 26  -21.0043 26059.9 -03385.7 -07.4025 26278.9
 02 01 2013  02 27  -21.0042 26059.9 -03385.8 -07.4025 26278.9
 02 01 2013  02 28  -21.0043 26060.0 -03385.8 -07.4026 26279.0
 02 01 2013  02 29  -21.0043 26059.9 -03385.8 -07.4026 26279.0
 02 01 2013  02 30  -21.0044 26060.0 -03385.8 -07.4026 26279.0
 02 01 2013  02 31  -21.0044 26060.0 -03385.8 -07.4026 26279.0
 02 01 2013  02 32  -21.0043 26060.1 -03385.8 -07.4026 26279.1
 02 01 2013  02 33  -21.0041 26060.1 -03385.8 -07.4026 26279.2
 02 01 2013  02 34  -21.0040 26060.2 -03385.8 -07.4026 26279.2
 02 01 2013  02 35  -21.0040 26060.2 -03385.9 -07.4027 26279.3
 02 01 2013  02 36  -21.0040 26060.3 -03385.9 -07.4027 26279.3
 02 01 2013  02 37  -21.0041 26060.3 -03385.9 -07.4027 26279.3
 02 01 2013  02 38  -21.0041 26060.3 -03385.9 -07.4027 26279.3
 02 01 2013  02 39  -21.0040 26060.3 -03385.9 -07.4027 26279.3
 02 01 2013  02 40  -21.0040 26060.3 -03385.9 -07.4027 26279.3
 02 01 2013  02 41  -21.0039 26060.2 -03385.8 -07.4026 26279.3
 02 01 2013  02 42  -21.0039 26060.2 -03385.8 -07.4025 26279.2
 02 01 2013  02 43  -21.0040 26060.2 -03385.8 -07.4025 26279.2
 02 01 2013  02 44  -21.0038 26060.1 -03385.7 -07.4024 26279.1
 02 01 2013  02 45  -21.0036 26059.9 -03385.6 -07.4022 26278.9
 02 01 2013  02 46  -21.0036 26059.8 -03385.6 -07.4022 26278.8
 02 01 2013  02 47  -21.0036 26059.8 -03385.6 -07.4022 26278.8
 02 01 2013  02 48  -21.0037 26059.7 -03385.6 -07.4022 26278.7
 02 01 2013  02 49  -21.0038 26059.7 -03385.6 -07.4022 26278.7
 02 01 2013  02 50  -21.0039 26059.6 -03385.6 -07.4022 26278.6
 02 01 2013  02 51  -21.0038 26059.6 -03385.6 -07.4022 26278.6
 02 01 2013  02 52  -21.0038 26059.6 -03385.6 -07.4022 26278.6
 02 01 2013  02 53  -21.0038 26059.6 -03385.6 -07.4023 26278.6
 02 01 2013  02 54  -21.0038 26059.6 -03385.6 -07.4023 26278.6
 02 01 2013  02 55  -21.0039 26059.6 -03385.6 -07.4023 26278.6
 02 01 2013  02 56  -21.0040 26059.6 -03385.7 -07.4024 26278.6
 02 01 2013  02 57  -21.0041 26059.6 -03385.7 -07.4024 26278.6
 02 01 2013  02 58  -21.0042 26059.6 -03385.7 -07.4024 26278.6
 02 01 2013  02 59  -21.0043 26059.7 -03385.7 -07.4025 26278.7
 02 01 2013  03 00  -21.0044 26059.8 -03385.8 -07.4026 26278.8
 02 01 2013  03 01  -21.0044 26059.9 -03385.9 -07.4027 26279.0
 02 01 2013  03 02  -21.0044 26060.0 -03385.9 -07.4028 26279.1
 02 01 2013  03 03  -21.0046 26060.2 -03386.0 -07.4030 26279.2
 02 01 2013  03 04  -21.0048 26060.3 -03386.1 -07.4031 26279.4
 02 01 2013  03 05  -21.0049 26060.4 -03386.1 -07.4031 26279.5
 02 01 2013  03 06  -21.0049 26060.5 -03386.1 -07.4032 26279.5
 02 01 2013  03 07  -21.0050 26060.5 -03386.2 -07.4032 26279.6
 02 01 2013  03 08  -21.0050 26060.6 -03386.2 -07.4032 26279.6
 02 01 2013  03 09  -21.0050 26060.6 -03386.2 -07.4032 26279.7
 02 01 2013  03 10  -21.0051 26060.7 -03386.2 -07.4032 26279.7
 02 01 2013  03 11  -21.0051 26060.7 -03386.2 -07.4033 26279.8
 02 01 2013  03 12  -21.0052 26060.7 -03386.2 -07.4033 26279.8
 02 01 2013  03 13  -21.0053 26060.8 -03386.2 -07.4033 26279.8
 02 01 2013  03 14  -21.0054 26060.8 -03386.2 -07.4033 26279.8
 02 01 2013  03 15  -21.0054 26060.7 -03386.2 -07.4032 26279.8
 02 01 2013  03 16  -21.0055 26060.7 -03386.2 -07.4032 26279.8
 02 01 2013  03 17  -21.0055 26060.7 -03386.2 -07.4032 26279.8
 02 01 2013  03 18  -21.0056 26060.7 -03386.2 -07.4032 26279.8
 02 01 2013  03 19  -21.0057 26060.8 -03386.2 -07.4032 26279.8
 02 01 2013  03 20  -21.0057 26060.8 -03386.2 -07.4032 26279.9
 02 01 2013  03 21  -21.0058 26060.8 -03386.2 -07.4032 26279.9
 02 01 2013  03 22  -21.0059 26060.9 -03386.2 -07.4033 26279.9
 02 01 2013  03 23  -21.0061 26060.9 -03386.3 -07.4033 26280.0
 02 01 2013  03 24  -21.0061 26060.9 -03386.3 -07.4033 26280.0
 02 01 2013  03 25  -21.0061 26060.9 -03386.2 -07.4032 26279.9
 02 01 2013  03 26  -21.0061 26060.9 -03386.2 -07.4032 26279.9
 02 01 2013  03 27  -21.0061 26060.8 -03386.2 -07.4032 26279.9
 02 01 2013  03 28  -21.0061 26060.9 -03386.2 -07.4032 26279.9
 02 01 2013  03 29  -21.0062 26060.9 -03386.3 -07.4033 26280.0
 02 01 2013  03 30  -21.0063 26061.0 -03386.3 -07.4034 26280.1
 02 01 2013  03 31  -21.0063 26061.1 -03386.3 -07.4034 26280.1
 02 01 2013  03 32  -21.0063 26061.1 -03386.3 -07.4034 26280.2
 02 01 2013  03 33  -21.0063 26061.1 -03386.3 -07.4034 26280.2
 02 01 2013  03 34  -21.0063 26061.2 -03386.4 -07.4035 26280.3
 02 01 2013  03 35  -21.0063 26061.3 -03386.4 -07.4035 26280.4
 02 01 2013  03 36  -21.0063 26061.4 -03386.4 -07.4036 26280.5
 02 01 2013  03 37  -21.0065 26061.5 -03386.5 -07.4036 26280.6
 02 01 2013  03 38  -21.0065 26061.5 -03386.5 -07.4036 26280.6
 02 01 2013  03 39  -21.0065 26061.5 -03386.5 -07.4037 26280.6
 02 01 2013  03 40  -21.0065 26061.5 -03386.5 -07.4036 26280.5
 02 01 2013  03 41  -21.0066 26061.4 -03386.4 -07.4035 26280.5
 02 01 2013  03 42  -21.0067 26061.4 -03386.4 -07.4035 26280.5
 02 01 2013  03 43  -21.0066 26061.4 -03386.4 -07.4034 26280.5
 02 01 2013  03 44  -21.0065 26061.3 -03386.3 -07.4033 26280.4
 02 01 2013  03 45  -21.0065 26061.4 -03386.3 -07.4034 26280.5
 02 01 2013  03 46  -21.0065 26061.5 -03386.4 -07.4034 26280.5
 02 01 2013  03 47  -21.0066 26061.5 -03386.4 -07.4035 26280.6
 02 01 2013  03 48  -21.0067 26061.7 -03386.5 -07.4036 26280.8
 02 01 2013  03 49  -21.0067 26061.8 -03386.5 -07.4036 26280.9
 02 01 2013  03 50  -21.0066 26061.8 -03386.5 -07.4037 26280.9
 02 01 2013  03 51  -21.0065 26061.8 -03386.5 -07.4037 26280.9
 02 01 2013  03 52  -21.0064 26061.9 -03386.5 -07.4037 26281.0
 02 01 2013  03 53  -21.0064 26061.9 -03386.5 -07.4036 26281.0
 02 01 2013  03 54  -21.0065 26062.0 -03386.6 -07.4037 26281.1
 02 01 2013  03 55  -21.0063 26062.0 -03386.6 -07.4037 26281.1
 02 01 2013  03 56  -21.0062 26061.9 -03386.5 -07.4036 26281.0
 02 01 2013  03 57  -21.0061 26062.0 -03386.6 -07.4036 26281.1
 02 01 2013  03 58  -21.0059 26062.2 -03386.6 -07.4038 26281.3
 02 01 2013  03 59  -21.0059 26062.2 -03386.7 -07.4038 26281.4
 02 01 2013  04 00  -21.0061 26062.2 -03386.6 -07.4038 26281.3
 02 01 2013  04 01  -21.0063 26062.0 -03386.6 -07.4036 26281.2
 02 01 2013  04 02  -21.0063 26062.1 -03386.5 -07.4036 26281.2
 02 01 2013  04 03  -21.0062 26062.1 -03386.5 -07.4035 26281.2
 02 01 2013  04 04  -21.0061 26062.0 -03386.5 -07.4034 26281.1
 02 01 2013  04 05  -21.0061 26061.8 -03386.4 -07.4033 26280.9
 02 01 2013  04 06  -21.0061 26061.8 -03386.3 -07.4032 26280.9
 02 01 2013  04 07  -21.0061 26061.9 -03386.4 -07.4033 26281.0
 02 01 2013  04 08  -21.0062 26061.9 -03386.4 -07.4033 26281.0
 02 01 2013  04 09  -21.0062 26061.7 -03386.3 -07.4032 26280.8
 02 01 2013  04 10  -21.0063 26061.8 -03386.3 -07.4032 26280.8
 02 01 2013  04 11  -21.0064 26061.8 -03386.3 -07.4031 26280.9
 02 01 2013  04 12  -21.0064 26061.8 -03386.3 -07.4032 26280.9
 02 01 2013  04 13  -21.0064 26061.8 -03386.3 -07.4032 26280.9
 02 01 2013  04 14  -21.0063 26061.8 -03386.3 -07.4031 26280.9
 02 01 2013  04 15  -21.0063 26061.7 -03386.2 -07.4031 26280.8
 02 01 2013  04 16  -21.0062 26061.8 -03386.3 -07.4030 26280.9
 02 01 2013  04 17  -21.0062 26061.9 -03386.3 -07.4032 26281.0
 02 01 2013  04 18  -21.0062 26062.0 -03386.4 -07.4032 26281.0
 02 01 2013  04 19  -21.0061 26062.0 -03386.3 -07.4032 26281.0
 02 01 2013  04 20  -21.0061 26062.0 -03386.3 -07.4031 26281.1
 02 01 2013  04 21  -21.0061 26062.0 -03386.2 -07.4030 26281.1
 02 01 2013  04 22  -21.0061 26062.1 -03386.3 -07.4030 26281.2
 02 01 2013  04 23  -21.0061 26062.1 -03386.3 -07.4030 26281.1
 02 01 2013  04 24  -21.0062 26062.1 -03386.3 -07.4030 26281.2
 02 01 2013  04 25  -21.0061 26062.3 -03386.3 -07.4031 26281.3
 02 01 2013  04 26  -21.0060 26062.2 -03386.4 -07.4032 26281.3
 02 01 2013  04 27  -21.0060 26062.2 -03386.3 -07.4031 26281.2
 02 01 2013  04 28  -21.0060 26062.2 -03386.4 -07.4032 26281.3
 02 01 2013  04 29  -21.0061 26062.3 -03386.4 -07.4032 26281.4
 02 01 2013  04 30  -21.0060 26062.3 -03386.4 -07.4032 26281.4
 02 01 2013  04 31  -21.0061 26062.2 -03386.3 -07.4031 26281.3
 02 01 2013  04 32  -21.0061 26062.3 -03386.3 -07.4031 26281.3
 02 01 2013  04 33  -21.0061 26062.3 -03386.4 -07.4031 26281.4
 02 01 2013  04 34  -21.0060 26062.3 -03386.3 -07.4031 26281.4
 02 01 2013  04 35  -21.0061 26062.3 -03386.3 -07.4031 26281.4
 02 01 2013  04 36  -21.0061 26062.4 -03386.4 -07.4031 26281.5
 02 01 2013  04 37  -21.0060 26062.4 -03386.4 -07.4031 26281.5
 02 01 2013  04 38  -21.0061 26062.4 -03386.4 -07.4031 26281.5
 02 01 2013  04 39  -21.0061 26062.5 -03386.4 -07.4031 26281.6
 02 01 2013  04 40  -21.0061 26062.5 -03386.4 -07.4031 26281.6
 02 01 2013  04 41  -21.0059 26062.5 -03386.3 -07.4030 26281.5
 02 01 2013  04 42  -21.0059 26062.5 -03386.3 -07.4029 26281.5
 02 01 2013  04 43  -21.0058 26062.5 -03386.3 -07.4029 26281.6
 02 01 2013  04 44  -21.0058 26062.6 -03386.3 -07.4030 26281.7
 02 01 2013  04 45  -21.0059 26062.7 -03386.3 -07.4030 26281.8
 02 01 2013  04 46  -21.0059 26062.7 -03386.3 -07.4030 26281.8
 02 01 2013  04 47  -21.0059 26062.8 -03386.4 -07.4030 26281.9
 02 01 2013  04 48  -21.0059 26062.8 -03386.4 -07.4030 26281.9
 02 01 2013  04 49  -21.0058 26062.8 -03386.4 -07.4030 26281.9
 02 01 2013  04 50  -21.0057 26062.8 -03386.4 -07.4030 26281.9
 02 01 2013  04 51  -21.0058 26062.9 -03386.4 -07.4030 26281.9
 02 01 2013  04 52  -21.0057 26062.8 -03386.3 -07.4030 26281.9
 02 01 2013  04 53  -21.0058 26062.7 -03386.3 -07.4029 26281.8
 02 01 2013  04 54  -21.0057 26062.7 -03386.3 -07.4029 26281.8
 02 01 2013  04 55  -21.0057 26062.6 -03386.2 -07.4028 26281.7
 02 01 2013  04 56  -21.0057 26062.7 -03386.3 -07.4028 26281.7
 02 01 2013  04 57  -21.0058 26062.8 -03386.3 -07.4029 26281.8
 02 01 2013  04 58  -21.0058 26062.8 -03386.4 -07.4030 26281.9
 02 01 2013  04 59  -21.0058 26062.9 -03386.4 -07.4030 26282.0
 02 01 2013  05 00  -21.0058 26063.0 -03386.4 -07.4031 26282.1
 02 01 2013  05 01  -21.0058 26063.0 -03386.4 -07.4031 26282.1
 02 01 2013  05 02  -21.0058 26063.0 -03386.4 -07.4031 26282.0
 02 01 2013  05 03  -21.0058 26063.0 -03386.5 -07.4032 26282.1
 02 01 2013  05 04  -21.0057 26063.0 -03386.4 -07.4031 26282.1
 02 01 2013  05 05  -21.0056 26063.1 -03386.5 -07.4032 26282.2
 02 01 2013  05 06  -21.0054 26063.1 -03386.5 -07.4031 26282.2
 02 01 2013  05 07  -21.0054 26063.1 -03386.5 -07.4032 26282.2
 02 01 2013  05 08  -21.0054 26063.2 -03386.5 -07.4032 26282.3
 02 01 2013  05 09  -21.0053 26063.3 -03386.6 -07.4033 26282.4
 02 01 2013  05 10  -21.0053 26063.3 -03386.6 -07.4034 26282.4
 02 01 2013  05 11  -21.0054 26063.4 -03386.6 -07.4034 26282.5
 02 01 2013  05 12  -21.0054 26063.4 -03386.6 -07.4034 26282.5
 02 01 2013  05 13  -21.0053 26063.3 -03386.6 -07.4034 26282.4
 02 01 2013  05 14  -21.0054 26063.4 -03386.6 -07.4034 26282.5
 02 01 2013  05 15  -21.0053 26063.3 -03386.6 -07.4034 26282.4
 02 01 2013  05 16  -21.0053 26063.3 -03386.6 -07.4034 26282.4
 02 01 2013  05 17  -21.0052 26063.3 -03386.6 -07.4034 26282.4
 02 01 2013  05 18  -21.0052 26063.3 -03386.6 -07.4034 26282.5
 02 01 2013  05 19  -21.0052 26063.3 -03386.6 -07.4034 26282.4
 02 01 2013  05 20  -21.0052 26063.4 -03386.6 -07.4034 26282.5
 02 01 2013  05 21  -21.0052 26063.4 -03386.6 -07.4033 26282.5
 02 01 2013  05 22  -21.0053 26063.4 -03386.6 -07.4033 26282.5
 02 01 2013  05 23  -21.0053 26063.4 -03386.6 -07.4033 26282.5
 02 01 2013  05 24  -21.0052 26063.3 -03386.6 -07.4033 26282.4
 02 01 2013  05 25  -21.0052 26063.3 -03386.5 -07.4032 26282.4
 02 01 2013  05 26  -21.0052 26063.3 -03386.5 -07.4032 26282.4
 02 01 2013  05 27  -21.0052 26063.3 -03386.5 -07.4032 26282.3
 02 01 2013  05 28  -21.0052 26063.3 -03386.5 -07.4031 26282.4
 02 01 2013  05 29  -21.0052 26063.3 -03386.5 -07.4032 26282.4
 02 01 2013  05 30  -21.0052 26063.3 -03386.5 -07.4031 26282.4
 02 01 2013  05 31  -21.0052 26063.3 -03386.5 -07.4031 26282.4
 02 01 2013  05 32  -21.0052 26063.4 -03386.5 -07.4031 26282.5
 02 01 2013  05 33  -21.0052 26063.4 -03386.5 -07.4031 26282.5
 02 01 2013  05 34  -21.0053 26063.4 -03386.5 -07.4032 26282.5
 02 01 2013  05 35  -21.0053 26063.5 -03386.5 -07.4032 26282.5
 02 01 2013  05 36  -21.0053 26063.5 -03386.6 -07.4032 26282.6
 02 01 2013  05 37  -21.0053 26063.5 -03386.6 -07.4032 26282.6
 02 01 2013  05 38  -21.0053 26063.5 -03386.5 -07.4032 26282.6
 02 01 2013  05 39  -21.0053 26063.5 -03386.5 -07.4031 26282.6
 02 01 2013  05 40  -21.0053 26063.5 -03386.5 -07.4031 26282.5
 02 01 2013  05 41  -21.0053 26063.5 -03386.5 -07.4030 26282.5
 02 01 2013  05 42  -21.0053 26063.5 -03386.5 -07.4030 26282.6
 02 01 2013  05 43  -21.0052 26063.4 -03386.4 -07.4030 26282.5
 02 01 2013  05 44  -21.0055 26063.7 -03386.6 -07.4032 26282.8
 02 01 2013  05 45  -21.0055 26064.1 -03386.7 -07.4034 26283.2
 02 01 2013  05 46  -21.0054 26064.5 -03386.9 -07.4038 26283.7
 02 01 2013  05 47  -21.0052 26065.0 -03387.1 -07.4041 26284.1
 02 01 2013  05 48  -21.0049 26065.3 -03387.3 -07.4043 26284.5
 02 01 2013  05 49  -21.0048 26065.5 -03387.4 -07.4044 26284.7
 02 01 2013  05 50  -21.0046 26065.7 -03387.4 -07.4044 26284.9
 02 01 2013  05 51  -21.0045 26065.9 -03387.4 -07.4044 26285.0
 02 01 2013  05 52  -21.0043 26065.9 -03387.4 -07.4044 26285.1
 02 01 2013  05 53  -21.0041 26066.0 -03387.4 -07.4043 26285.1
 02 01 2013  05 54  -21.0040 26065.9 -03387.3 -07.4042 26285.1
 02 01 2013  05 55  -21.0040 26066.0 -03387.3 -07.4042 26285.1
 02 01 2013  05 56  -21.0037 26065.9 -03387.3 -07.4041 26285.1
 02 01 2013  05 57  -21.0036 26065.9 -03387.2 -07.4040 26285.1
 02 01 2013  05 58  -21.0032 26065.8 -03387.2 -07.4039 26285.0
 02 01 2013  05 59  -21.0032 26065.9 -03387.1 -07.4038 26285.0
 02 01 2013  06 00  -21.0029 26065.7 -03387.1 -07.4037 26284.9
 02 01 2013  06 01  -21.0029 26065.6 -03387.0 -07.4035 26284.7
 02 01 2013  06 02  -21.0029 26065.4 -03386.9 -07.4034 26284.6
 02 01 2013  06 03  -21.0030 26065.4 -03386.9 -07.4034 26284.5
 02 01 2013  06 04  -21.0031 26065.4 -03386.9 -07.4034 26284.5
 02 01 2013  06 05  -21.0030 26065.3 -03386.8 -07.4033 26284.4
 02 01 2013  06 06  -21.0033 26065.2 -03386.8 -07.4032 26284.3
 02 01 2013  06 07  -21.0033 26065.0 -03386.7 -07.4031 26284.1
 02 01 2013  06 08  -21.0033 26064.7 -03386.5 -07.4028 26283.8
 02 01 2013  06 09  -21.0034 26064.5 -03386.4 -07.4027 26283.6
 02 01 2013  06 10  -21.0036 26064.4 -03386.4 -07.4026 26283.5
 02 01 2013  06 11  -21.0042 26064.2 -03386.3 -07.4025 26283.3
 02 01 2013  06 12  -21.0043 26064.2 -03386.3 -07.4025 26283.3
 02 01 2013  06 13  -21.0042 26064.2 -03386.3 -07.4025 26283.2
 02 01 2013  06 14  -21.0041 26064.1 -03386.2 -07.4023 26283.1
 02 01 2013  06 15  -21.0044 26063.7 -03386.1 -07.4021 26282.8
 02 01 2013  06 16  -21.0044 26063.6 -03386.0 -07.4020 26282.6
 02 01 2013  06 17  -21.0046 26063.6 -03386.0 -07.4020 26282.6
 02 01 2013  06 18  -21.0050 26063.5 -03386.0 -07.4020 26282.5
 02 01 2013  06 19  -21.0055 26063.5 -03386.1 -07.4021 26282.6
 02 01 2013  06 20  -21.0052 26063.6 -03386.1 -07.4021 26282.6
 02 01 2013  06 21  -21.0051 26063.5 -03386.0 -07.4021 26282.5
 02 01 2013  06 22  -21.0047 26063.6 -03386.1 -07.4021 26282.7
 02 01 2013  06 23  -21.0049 26064.1 -03386.3 -07.4025 26283.1
 02 01 2013  06 24  -21.0047 26064.6 -03386.6 -07.4031 26283.7
 02 01 2013  06 25  -21.0043 26064.4 -03386.6 -07.4030 26283.5
 02 01 2013  06 26  -21.0037 26064.3 -03386.5 -07.4028 26283.4
 02 01 2013  06 27  -21.0032 26064.3 -03386.5 -07.4028 26283.4
 02 01 2013  06 28  -21.0029 26063.8 -03386.2 -07.4025 26282.9
 02 01 2013  06 29  -21.0027 26063.0 -03385.9 -07.4019 26282.0
 02 01 2013  06 30  -21.0030 26062.4 -03385.6 -07.4015 26281.4
 02 01 2013  06 31  -21.0031 26062.2 -03385.5 -07.4014 26281.2
 02 01 2013  06 32  -21.0035 26062.3 -03385.6 -07.4016 26281.3
 02 01 2013  06 33  -21.0040 26062.4 -03385.8 -07.4018 26281.4
 02 01 2013  06 34  -21.0047 26062.4 -03385.9 -07.4020 26281.4
 02 01 2013  06 35  -21.0052 26062.4 -03385.9 -07.4021 26281.4
 02 01 2013  06 36  -21.0049 26062.7 -03386.0 -07.4023 26281.8
 02 01 2013  06 37  -21.0046 26063.0 -03386.2 -07.4026 26282.1
 02 01 2013  06 38  -21.0044 26063.1 -03386.2 -07.4027 26282.1
 02 01 2013  06 39  -21.0043 26062.9 -03386.2 -07.4026 26281.9
 02 01 2013  06 40  -21.0041 26062.6 -03386.1 -07.4024 26281.7
 02 01 2013  06 41  -21.0042 26062.5 -03386.0 -07.4023 26281.5
 02 01 2013  06 42  -21.0045 26062.4 -03386.0 -07.4022 26281.4
 02 01 2013  06 43  -21.0046 26062.3 -03385.9 -07.4022 26281.3
 02 01 2013  06 44  -21.0045 26062.3 -03386.0 -07.4023 26281.4
 02 01 2013  06 45  -21.0044 26062.3 -03386.0 -07.4023 26281.3
 02 01 2013  06 46  -21.0044 26062.1 -03386.0 -07.4023 26281.2
 02 01 2013  06 47  -21.0044 26062.2 -03386.0 -07.4024 26281.2
 02 01 2013  06 48  -21.0046 26062.1 -03386.0 -07.4024 26281.2
 02 01 2013  06 49  -21.0046 26062.0 -03385.9 -07.4023 26281.0
 02 01 2013  06 50  -21.0047 26061.8 -03385.9 -07.4023 26280.8
 02 01 2013  06 51  -21.0050 26061.9 -03386.0 -07.4024 26280.9
 02 01 2013  06 52  -21.0052 26062.0 -03386.0 -07.4025 26281.0
 02 01 2013  06 53  -21.0055 26061.9 -03386.1 -07.4026 26281.0
 02 01 2013  06 54  -21.0055 26062.0 -03386.1 -07.4026 26281.0
 02 01 2013  06 55  -21.0053 26062.0 -03386.1 -07.4027 26281.1
 02 01 2013  06 56  -21.0054 26062.1 -03386.2 -07.4028 26281.2
 02 01 2013  06 57  -21.0062 26062.6 -03386.4 -07.4032 26281.6
 02 01 2013  06 58  -21.0066 26063.1 -03386.7 -07.4037 26282.2
 02 01 2013  06 59  -21.0059 26063.3 -03386.8 -07.4038 26282.4
 02 01 2013  07 00  -21.0051 26063.4 -03386.8 -07.4038 26282.5
 02 01 2013  07 01  -21.0045 26063.1 -03386.7 -07.4036 26282.2
 02 01 2013  07 02  -21.0044 26062.4 -03386.3 -07.4030 26281.5
 02 01 2013  07 03  -21.0048 26062.0 -03386.1 -07.4026 26281.0
 02 01 2013  07 04  -21.0052 26061.7 -03386.0 -07.4024 26280.8
 02 01 2013  07 05  -21.0054 26061.7 -03386.0 -07.4024 26280.8
 02 01 2013  07 06  -21.0059 26062.0 -03386.1 -07.4027 26281.0
 02 01 2013  07 07  -21.0057 26061.7 -03386.0 -07.4026 26280.7
 02 01 2013  07 08  -21.0050 26060.5 -03385.4 -07.4016 26279.5
 02 01 2013  07 09  -21.0061 26059.9 -03385.1 -07.4011 26278.9
 02 01 2013  07 10  -21.0072 26060.1 -03385.3 -07.4014 26279.1
 02 01 2013  07 11  -21.0080 26060.2 -03385.4 -07.4017 26279.2
 02 01 2013  07 12  -21.0085 26060.1 -03385.4 -07.4016 26279.0
 02 01 2013  07 13  -21.0088 26059.9 -03385.3 -07.4015 26278.9
 02 01 2013  07 14  -21.0087 26059.7 -03385.2 -07.4013 26278.7
 02 01 2013  07 15  -21.0091 26059.8 -03385.2 -07.4014 26278.7
 02 01 2013  07 16  -21.0106 26059.7 -03385.3 -07.4015 26278.7
 02 01 2013  07 17  -21.0106 26059.8 -03385.3 -07.4016 26278.8
 02 01 2013  07 18  -21.0098 26060.1 -03385.4 -07.4017 26279.1
 02 01 2013  07 19  -21.0105 26059.7 -03385.3 -07.4016 26278.7
 02 01 2013  07 20  -21.0105 26059.3 -03385.0 -07.4011 26278.2
 02 01 2013  07 21  -21.0099 26059.1 -03384.9 -07.4009 26278.1
 02 01 2013  07 22  -21.0099 26059.2 -03385.0 -07.4010 26278.1
 02 01 2013  07 23  -21.0100 26059.3 -03385.1 -07.4012 26278.2
 02 01 2013  07 24  -21.0101 26059.0 -03385.0 -07.4011 26278.0
 02 01 2013  07 25  -21.0099 26059.1 -03385.0 -07.4011 26278.0
 02 01 2013  07 26  -21.0097 26058.9 -03385.0 -07.4011 26277.8
 02 01 2013  07 27  -21.0095 26058.6 -03384.8 -07.4009 26277.5
 02 01 2013  07 28  -21.0088 26058.5 -03384.8 -07.4009 26277.4
 02 01 2013  07 29  -21.0082 26058.2 -03384.7 -07.4008 26277.1
 02 01 2013  07 30  -21.0083 26057.8 -03384.6 -07.4006 26276.7
 02 01 2013  07 31  -21.0084 26057.7 -03384.6 -07.4006 26276.6
 02 01 2013  07 32  -21.0081 26057.8 -03384.7 -07.4009 26276.8
 02 01 2013  07 33  -21.0076 26057.8 -03384.8 -07.4011 26276.7
 02 01 2013  07 34  -21.0076 26057.6 -03384.8 -07.4011 26276.5
 02 01 2013  07 35  -21.0076 26057.5 -03384.9 -07.4012 26276.5
 02 01 2013  07 36  -21.0073 26057.5 -03384.9 -07.4013 26276.4
 02 01 2013  07 37  -21.0071 26057.4 -03384.9 -07.4014 26276.3
 02 01 2013  07 38  -21.0073 26057.3 -03384.9 -07.4015 26276.2
 02 01 2013  07 39  -21.0074 26057.4 -03385.0 -07.4016 26276.3
 02 01 2013  07 40  -21.0072 26057.3 -03385.1 -07.4017 26276.3
 02 01 2013  07 41  -21.0069 26057.2 -03385.0 -07.4017 26276.1
 02 01 2013  07 42  -21.0069 26057.0 -03385.0 -07.4017 26276.0
 02 01 2013  07 43  -21.0068 26056.8 -03385.0 -07.4016 26275.8
 02 01 2013  07 44  -21.0068 26056.7 -03384.9 -07.4016 26275.6
 02 01 2013  07 45  -21.0068 26056.5 -03384.9 -07.4016 26275.5
 02 01 2013  07 46  -21.0070 26056.5 -03384.9 -07.4017 26275.4
 02 01 2013  07 47  -21.0071 26056.3 -03384.9 -07.4017 26275.3
 02 01 2013  07 48  -21.0074 26056.3 -03384.9 -07.4018 26275.2
 02 01 2013  07 49  -21.0075 26056.3 -03385.0 -07.4019 26275.2
 02 01 2013  07 50  -21.0078 26056.3 -03385.0 -07.4020 26275.2
 02 01 2013  07 51  -21.0080 26056.3 -03385.1 -07.4021 26275.3
 02 01 2013  07 52  -21.0080 26056.3 -03385.1 -07.4021 26275.2
 02 01 2013  07 53  -21.0080 26056.2 -03385.1 -07.4022 26275.2
 02 01 2013  07 54  -21.0079 26056.2 -03385.1 -07.4022 26275.1
 02 01 2013  07 55  -21.0076 26056.2 -03385.1 -07.4022 26275.2
 02 01 2013  07 56  -21.0079 26056.0 -03385.1 -07.4021 26274.9
 02 01 2013  07 57  -21.0087 26055.7 -03385.0 -07.4020 26274.6
 02 01 2013  07 58  -21.0084 26055.8 -03385.1 -07.4021 26274.8
 02 01 2013  07 59  -21.0081 26055.7 -03385.0 -07.4021 26274.7
 02 01 2013  08 00  -21.0085 26055.4 -03384.9 -07.4020 26274.3
 02 01 2013  08 01  -21.0087 26055.5 -03385.0 -07.4021 26274.5
 02 01 2013  08 02  -21.0088 26055.9 -03385.2 -07.4025 26274.9
 02 01 2013  08 03  -21.0087 26055.7 -03385.2 -07.4025 26274.7
 02 01 2013  08 04  -21.0095 26055.4 -03385.1 -07.4023 26274.4
 02 01 2013  08 05  -21.0096 26055.7 -03385.2 -07.4025 26274.7
 02 01 2013  08 06  -21.0091 26055.9 -03385.3 -07.4027 26274.9
 02 01 2013  08 07  -21.0095 26055.5 -03385.1 -07.4024 26274.5
 02 01 2013  08 08  -21.0100 26055.4 -03385.1 -07.4023 26274.3
 02 01 2013  08 09  -21.0099 26055.5 -03385.1 -07.4024 26274.5
 02 01 2013  08 10  -21.0099 26055.3 -03385.1 -07.4023 26274.3
 02 01 2013  08 11  -21.0101 26055.0 -03384.9 -07.4020 26273.9
 02 01 2013  08 12  -21.0102 26055.0 -03384.9 -07.4020 26273.9
 02 01 2013  08 13  -21.0099 26055.1 -03384.9 -07.4021 26274.0
 02 01 2013  08 14  -21.0102 26054.8 -03384.8 -07.4020 26273.8
 02 01 2013  08 15  -21.0104 26054.8 -03384.9 -07.4020 26273.8
 02 01 2013  08 16  -21.0111 26054.8 -03384.9 -07.4021 26273.8
 02 01 2013  08 17  -21.0112 26054.8 -03384.9 -07.4021 26273.8
 02 01 2013  08 18  -21.0114 26054.8 -03384.9 -07.4021 26273.7
 02 01 2013  08 19  -21.0117 26054.7 -03384.9 -07.4021 26273.7
 02 01 2013  08 20  -21.0119 26054.7 -03384.9 -07.4021 26273.7
 02 01 2013  08 21  -21.0120 26054.9 -03384.9 -07.4021 26273.8
 02 01 2013  08 22  -21.0121 26054.8 -03384.9 -07.4021 26273.7
 02 01 2013  08 23  -21.0124 26054.7 -03384.9 -07.4020 26273.7
 02 01 2013  08 24  -21.0127 26054.8 -03384.9 -07.4020 26273.7
 02 01 2013  08 25  -21.0129 26054.9 -03384.9 -07.4021 26273.8
 02 01 2013  08 26  -21.0133 26054.8 -03384.9 -07.4020 26273.7
 02 01 2013  08 27  -21.0137 26054.7 -03384.8 -07.4019 26273.7
 02 01 2013  08 28  -21.0139 26054.8 -03384.9 -07.4020 26273.8
 02 01 2013  08 29  -21.0140 26054.9 -03384.8 -07.4019 26273.8
 02 01 2013  08 30  -21.0145 26054.8 -03384.8 -07.4019 26273.7
 02 01 2013  08 31  -21.0149 26054.8 -03384.8 -07.4018 26273.7
 02 01 2013  08 32  -21.0155 26054.9 -03384.8 -07.4018 26273.8
 02 01 2013  08 33  -21.0157 26054.8 -03384.7 -07.4016 26273.8
 02 01 2013  08 34  -21.0155 26054.8 -03384.6 -07.4014 26273.7
 02 01 2013  08 35  -21.0154 26054.8 -03384.5 -07.4012 26273.7
 02 01 2013  08 36  -21.0157 26054.8 -03384.5 -07.4012 26273.7
 02 01 2013  08 37  -21.0159 26054.6 -03384.4 -07.4010 26273.5
 02 01 2013  08 38  -21.0157 26054.5 -03384.2 -07.4008 26273.3
 02 01 2013  08 39  -21.0154 26054.2 -03384.1 -07.4005 26273.1
 02 01 2013  08 40  -21.0154 26054.0 -03384.0 -07.4003 26272.9
 02 01 2013  08 41  -21.0152 26054.0 -03384.0 -07.4003 26272.8
 02 01 2013  08 42  -21.0146 26053.9 -03383.9 -07.4002 26272.7
 02 01 2013  08 43  -21.0139 26053.7 -03383.8 -07.4000 26272.5
 02 01 2013  08 44  -21.0135 26053.8 -03383.8 -07.3999 26272.6
 02 01 2013  08 45  -21.0132 26054.0 -03384.0 -07.4003 26272.9
 02 01 2013  08 46  -21.0125 26054.1 -03384.1 -07.4006 26272.9
 02 01 2013  08 47  -21.0117 26053.9 -03384.1 -07.4005 26272.7
 02 01 2013  08 48  -21.0117 26053.9 -03384.1 -07.4007 26272.7
 02 01 2013  08 49  -21.0114 26054.0 -03384.3 -07.4011 26272.9
 02 01 2013  08 50  -21.0110 26053.9 -03384.4 -07.4012 26272.8
 02 01 2013  08 51  -21.0105 26053.9 -03384.4 -07.4013 26272.8
 02 01 2013  08 52  -21.0101 26054.1 -03384.6 -07.4016 26273.0
 02 01 2013  08 53  -21.0097 26054.1 -03384.7 -07.4019 26273.0
 02 01 2013  08 54  -21.0093 26054.1 -03384.8 -07.4020 26273.0
 02 01 2013  08 55  -21.0090 26054.4 -03385.0 -07.4025 26273.4
 02 01 2013  08 56  -21.0083 26054.7 -03385.3 -07.4029 26273.7
 02 01 2013  08 57  -21.0081 26054.6 -03385.4 -07.4032 26273.6
 02 01 2013  08 58  -21.0076 26054.8 -03385.6 -07.4035 26273.9
 02 01 2013  08 59  -21.0074 26055.0 -03385.8 -07.4039 26274.1
 02 01 2013  09 00  -21.0075 26054.9 -03385.9 -07.4041 26274.0
 02 01 2013  09 01  -21.0075 26054.6 -03385.8 -07.4041 26273.7
 02 01 2013  09 02  -21.0075 26054.6 -03385.9 -07.4042 26273.7
 02 01 2013  09 03  -21.0080 26054.5 -03385.9 -07.4043 26273.6
 02 01 2013  09 04  -21.0082 26054.2 -03385.8 -07.4043 26273.3
 02 01 2013  09 05  -21.0077 26053.9 -03385.7 -07.4040 26272.9
 02 01 2013  09 06  -21.0069 26053.6 -03385.6 -07.4039 26272.6
 02 01 2013  09 07  -21.0065 26053.4 -03385.6 -07.4040 26272.5
 02 01 2013  09 08  -21.0061 26053.3 -03385.7 -07.4042 26272.4
 02 01 2013  09 09  -21.0062 26053.3 -03385.8 -07.4045 26272.4
 02 01 2013  09 10  -21.0063 26053.4 -03386.0 -07.4048 26272.5
 02 01 2013  09 11  -21.0067 26053.4 -03386.1 -07.4051 26272.5
 02 01 2013  09 12  -21.0071 26053.4 -03386.2 -07.4053 26272.5
 02 01 2013  09 13  -21.0073 26053.5 -03386.3 -07.4055 26272.6
 02 01 2013  09 14  -21.0075 26053.8 -03386.5 -07.4057 26272.9
 02 01 2013  09 15  -21.0077 26053.9 -03386.5 -07.4059 26273.1
 02 01 2013  09 16  -21.0079 26053.9 -03386.6 -07.4059 26273.1
 02 01 2013  09 17  -21.0080 26053.8 -03386.5 -07.4058 26273.0
 02 01 2013  09 18  -21.0079 26053.6 -03386.3 -07.4055 26272.8
 02 01 2013  09 19  -21.0077 26053.5 -03386.2 -07.4053 26272.6
 02 01 2013  09 20  -21.0077 26053.6 -03386.3 -07.4055 26272.7
 02 01 2013  09 21  -21.0075 26053.6 -03386.4 -07.4057 26272.7
 02 01 2013  09 22  -21.0077 26053.5 -03386.4 -07.4057 26272.6
 02 01 2013  09 23  -21.0078 26053.4 -03386.3 -07.4056 26272.6
 02 01 2013  09 24  -21.0080 26053.4 -03386.4 -07.4057 26272.6
 02 01 2013  09 25  -21.0085 26053.3 -03386.3 -07.4056 26272.4
 02 01 2013  09 26  -21.0091 26053.1 -03386.3 -07.4055 26272.3
 02 01 2013  09 27  -21.0093 26053.1 -03386.2 -07.4054 26272.2
 02 01 2013  09 28  -21.0095 26052.9 -03386.1 -07.4053 26272.0
 02 01 2013  09 29  -21.0096 26052.7 -03386.0 -07.4051 26271.8
 02 01 2013  09 30  -21.0094 26052.5 -03385.9 -07.4050 26271.6
 02 01 2013  09 31  -21.0099 26052.4 -03386.0 -07.4051 26271.5
 02 01 2013  09 32  -21.0104 26052.2 -03386.0 -07.4051 26271.4
 02 01 2013  09 33  -21.0111 26052.2 -03386.0 -07.4051 26271.3
 02 01 2013  09 34  -21.0117 26052.0 -03385.9 -07.4051 26271.1
 02 01 2013  09 35  -21.0118 26051.8 -03385.9 -07.4050 26270.9
 02 01 2013  09 36  -21.0116 26051.6 -03385.8 -07.4049 26270.7
 02 01 2013  09 37  -21.0123 26051.5 -03385.8 -07.4049 26270.6
 02 01 2013  09 38  -21.0129 26051.4 -03385.8 -07.4050 26270.5
 02 01 2013  09 39  -21.0133 26051.5 -03385.8 -07.4050 26270.6
 02 01 2013  09 40  -21.0141 26051.5 -03385.8 -07.4050 26270.6
 02 01 2013  09 41  -21.0146 26051.5 -03385.8 -07.4049 26270.6
 02 01 2013  09 42  -21.0148 26051.4 -03385.7 -07.4047 26270.4
 02 01 2013  09 43  -21.0151 26051.2 -03385.6 -07.4046 26270.2
 02 01 2013  09 44  -21.0152 26050.8 -03385.5 -07.4044 26269.9
 02 01 2013  09 45  -21.0150 26050.6 -03385.4 -07.4043 26269.7
 02 01 2013  09 46  -21.0153 26050.5 -03385.4 -07.4044 26269.6
 02 01 2013  09 47  -21.0160 26050.8 -03385.6 -07.4047 26269.9
 02 01 2013  09 48  -21.0169 26051.1 -03385.8 -07.4051 26270.2
 02 01 2013  09 49  -21.0179 26051.3 -03385.9 -07.4052 26270.4
 02 01 2013  09 50  -21.0186 26051.1 -03385.7 -07.4049 26270.2
 02 01 2013  09 51  -21.0194 26051.0 -03385.6 -07.4046 26270.0
 02 01 2013  09 52  -21.0195 26050.7 -03385.3 -07.4042 26269.8
 02 01 2013  09 53  -21.0196 26050.5 -03385.2 -07.4039 26269.6
 02 01 2013  09 54  -21.0198 26050.6 -03385.2 -07.4039 26269.6
 02 01 2013  09 55  -21.0200 26050.7 -03385.2 -07.4039 26269.7
 02 01 2013  09 56  -21.0206 26050.9 -03385.3 -07.4040 26270.0
 02 01 2013  09 57  -21.0213 26051.1 -03385.4 -07.4042 26270.2
 02 01 2013  09 58  -21.0210 26050.9 -03385.3 -07.4040 26270.0
 02 01 2013  09 59  -21.0215 26051.0 -03385.3 -07.4041 26270.0
 02 01 2013  10 00  -21.0224 26051.5 -03385.5 -07.4044 26270.5
 02 01 2013  10 01  -21.0232 26051.9 -03385.7 -07.4045 26271.0
 02 01 2013  10 02  -21.0238 26051.9 -03385.6 -07.4043 26270.9
 02 01 2013  10 03  -21.0239 26051.8 -03385.4 -07.4040 26270.8
 02 01 2013  10 04  -21.0241 26051.9 -03385.3 -07.4037 26270.9
 02 01 2013  10 05  -21.0246 26051.9 -03385.2 -07.4036 26270.9
 02 01 2013  10 06  -21.0247 26051.7 -03385.0 -07.4032 26270.7
 02 01 2013  10 07  -21.0249 26051.6 -03384.9 -07.4029 26270.6
 02 01 2013  10 08  -21.0247 26051.5 -03384.8 -07.4027 26270.5
 02 01 2013  10 09  -21.0249 26051.6 -03384.8 -07.4027 26270.6
 02 01 2013  10 10  -21.0251 26051.6 -03384.8 -07.4028 26270.6
 02 01 2013  10 11  -21.0258 26051.4 -03384.7 -07.4026 26270.4
 02 01 2013  10 12  -21.0264 26051.4 -03384.6 -07.4024 26270.3
 02 01 2013  10 13  -21.0267 26051.4 -03384.5 -07.4023 26270.3
 02 01 2013  10 14  -21.0270 26051.5 -03384.5 -07.4022 26270.4
 02 01 2013  10 15  -21.0274 26051.8 -03384.6 -07.4024 26270.8
 02 01 2013  10 16  -21.0280 26052.2 -03384.8 -07.4026 26271.2
 02 01 2013  10 17  -21.0287 26052.7 -03385.0 -07.4028 26271.7
 02 01 2013  10 18  -21.0289 26052.9 -03385.0 -07.4028 26271.9
 02 01 2013  10 19  -21.0293 26053.0 -03384.9 -07.4027 26272.0
 02 01 2013  10 20  -21.0295 26053.1 -03384.9 -07.4026 26272.1
 02 01 2013  10 21  -21.0305 26053.5 -03385.0 -07.4027 26272.5
 02 01 2013  10 22  -21.0316 26054.1 -03385.1 -07.4026 26273.1
 02 01 2013  10 23  -21.0322 26054.4 -03384.9 -07.4022 26273.3
 02 01 2013  10 24  -21.0324 26054.4 -03384.6 -07.4016 26273.3
 02 01 2013  10 25  -21.0322 26054.0 -03384.2 -07.4007 26272.8
 02 01 2013  10 26  -21.0321 26053.7 -03383.8 -07.4001 26272.6
 02 01 2013  10 27  -21.0319 26053.6 -03383.6 -07.3997 26272.4
 02 01 2013  10 28  -21.0325 26053.8 -03383.7 -07.3998 26272.6
 02 01 2013  10 29  -21.0321 26053.6 -03383.5 -07.3995 26272.4
 02 01 2013  10 30  -21.0327 26053.7 -03383.6 -07.3995 26272.5
 02 01 2013  10 31  -21.0331 26053.8 -03383.5 -07.3994 26272.5
 02 01 2013  10 32  -21.0336 26053.8 -03383.4 -07.3991 26272.5
 02 01 2013  10 33  -21.0337 26053.7 -03383.3 -07.3989 26272.5
 02 01 2013  10 34  -21.0343 26053.7 -03383.2 -07.3987 26272.4
 02 01 2013  10 35  -21.0344 26053.2 -03382.8 -07.3979 26271.9
 02 01 2013  10 36  -21.0332 26053.9 -03383.1 -07.3984 26272.6
 02 01 2013  10 37  -21.0326 26052.9 -03382.7 -07.3979 26271.6
 02 01 2013  10 38  -21.0332 26053.1 -03382.8 -07.3981 26271.8
 02 01 2013  10 39  -21.0334 26053.5 -03383.1 -07.3985 26272.2
 02 01 2013  10 40  -21.0341 26053.7 -03383.1 -07.3984 26272.4
 02 01 2013  10 41  -21.0341 26053.9 -03382.9 -07.3981 26272.6
 02 01 2013  10 42  -21.0348 26053.7 -03382.7 -07.3977 26272.4
 02 01 2013  10 43  -21.0352 26053.6 -03382.5 -07.3972 26272.3
 02 01 2013  10 44  -21.0347 26053.1 -03382.0 -07.3964 26271.7
 02 01 2013  10 45  -21.0347 26052.7 -03381.8 -07.3959 26271.3
 02 01 2013  10 46  -21.0344 26052.7 -03381.8 -07.3959 26271.2
 02 01 2013  10 47  -21.0344 26052.6 -03381.8 -07.3959 26271.2
 02 01 2013  10 48  -21.0351 26052.8 -03381.9 -07.3962 26271.4
 02 01 2013  10 49  -21.0355 26053.0 -03382.0 -07.3962 26271.6
 02 01 2013  10 50  -21.0354 26052.9 -03381.9 -07.3960 26271.5
 02 01 2013  10 51  -21.0353 26053.0 -03381.8 -07.3958 26271.6
 02 01 2013  10 52  -21.0356 26053.4 -03381.8 -07.3959 26271.9
 02 01 2013  10 53  -21.0361 26053.6 -03381.8 -07.3958 26272.2
 02 01 2013  10 54  -21.0360 26053.9 -03381.8 -07.3956 26272.4
 02 01 2013  10 55  -21.0354 26054.4 -03381.8 -07.3955 26273.0
 02 01 2013  10 56  -21.0349 26055.0 -03381.9 -07.3956 26273.6
 02 01 2013  10 57  -21.0345 26055.2 -03381.9 -07.3954 26273.7
 02 01 2013  10 58  -21.0349 26055.0 -03381.7 -07.3950 26273.5
 02 01 2013  10 59  -21.0351 26054.3 -03381.2 -07.3942 26272.8
 02 01 2013  11 00  -21.0346 26053.7 -03380.6 -07.3931 26272.1
 02 01 2013  11 01  -21.0343 26053.6 -03380.4 -07.3927 26272.0
 02 01 2013  11 02  -21.0345 26054.2 -03380.4 -07.3926 26272.6
 02 01 2013  11 03  -21.0346 26054.8 -03380.5 -07.3925 26273.2
 02 01 2013  11 04  -21.0343 26055.2 -03380.4 -07.3923 26273.6
 02 01 2013  11 05  -21.0335 26055.9 -03380.5 -07.3923 26274.3
 02 01 2013  11 06  -21.0327 26056.8 -03380.7 -07.3924 26275.2
 02 01 2013  11 07  -21.0321 26057.8 -03380.8 -07.3924 26276.2
 02 01 2013  11 08  -21.0318 26058.6 -03380.8 -07.3921 26277.0
 02 01 2013  11 09  -21.0315 26059.2 -03380.6 -07.3915 26277.5
 02 01 2013  11 10  -21.0308 26059.6 -03380.3 -07.3909 26277.9
 02 01 2013  11 11  -21.0304 26060.3 -03380.3 -07.3906 26278.6
 02 01 2013  11 12  -21.0300 26061.0 -03380.2 -07.3903 26279.3
 02 01 2013  11 13  -21.0293 26061.7 -03380.2 -07.3899 26279.9
 02 01 2013  11 14  -21.0288 26062.2 -03380.1 -07.3896 26280.4
 02 01 2013  11 15  -21.0280 26062.6 -03380.0 -07.3894 26280.9
 02 01 2013  11 16  -21.0273 26063.4 -03380.1 -07.3893 26281.6
 02 01 2013  11 17  -21.0269 26063.3 -03379.7 -07.3885 26281.5
 02 01 2013  11 18  -21.0262 26062.7 -03379.1 -07.3874 26280.8
 02 01 2013  11 19  -21.0264 26062.1 -03378.9 -07.3870 26280.3
 02 01 2013  11 20  -21.0265 26062.0 -03378.8 -07.3870 26280.1
 02 01 2013  11 21  -21.0266 26062.2 -03379.0 -07.3873 26280.4
 02 01 2013  11 22  -21.0271 26062.8 -03379.3 -07.3877 26281.0
 02 01 2013  11 23  -21.0267 26063.1 -03379.3 -07.3876 26281.3
 02 01 2013  11 24  -21.0264 26062.9 -03379.1 -07.3872 26281.0
 02 01 2013  11 25  -21.0266 26062.6 -03378.9 -07.3869 26280.7
 02 01 2013  11 26  -21.0265 26062.5 -03378.7 -07.3865 26280.5
 02 01 2013  11 27  -21.0261 26062.5 -03378.5 -07.3862 26280.5
 02 01 2013  11 28  -21.0263 26062.8 -03378.6 -07.3861 26280.9
 02 01 2013  11 29  -21.0264 26063.2 -03378.6 -07.3861 26281.3
 02 01 2013  11 30  -21.0266 26063.8 -03378.8 -07.3863 26281.9
 02 01 2013  11 31  -21.0268 26064.0 -03378.7 -07.3862 26282.1
 02 01 2013  11 32  -21.0265 26064.2 -03378.6 -07.3859 26282.3
 02 01 2013  11 33  -21.0265 26064.6 -03378.7 -07.3859 26282.7
 02 01 2013  11 34  -21.0262 26065.1 -03378.7 -07.3858 26283.2
 02 01 2013  11 35  -21.0259 26065.5 -03378.6 -07.3855 26283.5
 02 01 2013  11 36  -21.0256 26066.0 -03378.6 -07.3853 26284.0
 02 01 2013  11 37  -21.0251 26066.3 -03378.4 -07.3849 26284.3
 02 01 2013  11 38  -21.0248 26066.6 -03378.3 -07.3846 26284.6
 02 01 2013  11 39  -21.0248 26067.2 -03378.3 -07.3844 26285.2
 02 01 2013  11 40  -21.0246 26067.8 -03378.3 -07.3841 26285.8
 02 01 2013  11 41  -21.0241 26068.2 -03378.2 -07.3838 26286.2
 02 01 2013  11 42  -21.0235 26068.8 -03378.2 -07.3836 26286.7
 02 01 2013  11 43  -21.0231 26069.2 -03378.1 -07.3834 26287.2
 02 01 2013  11 44  -21.0227 26069.7 -03378.1 -07.3832 26287.6
 02 01 2013  11 45  -21.0222 26070.0 -03378.0 -07.3830 26288.0
 02 01 2013  11 46  -21.0215 26070.4 -03378.0 -07.3827 26288.3
 02 01 2013  11 47  -21.0209 26070.6 -03377.8 -07.3824 26288.5
 02 01 2013  11 48  -21.0205 26070.7 -03377.7 -07.3820 26288.6
 02 01 2013  11 49  -21.0201 26070.8 -03377.5 -07.3817 26288.7
 02 01 2013  11 50  -21.0198 26071.3 -03377.6 -07.3816 26289.2
 02 01 2013  11 51  -21.0192 26071.7 -03377.6 -07.3815 26289.5
 02 01 2013  11 52  -21.0204 26072.0 -03377.5 -07.3812 26289.9
 02 01 2013  11 53  -21.0220 26072.3 -03377.3 -07.3808 26290.1
 02 01 2013  11 54  -21.0215 26072.8 -03377.3 -07.3807 26290.6
 02 01 2013  11 55  -21.0189 26073.5 -03377.4 -07.3807 26291.3
 02 01 2013  11 56  -21.0173 26074.2 -03377.6 -07.3808 26292.1
 02 01 2013  11 57  -21.0170 26074.6 -03377.5 -07.3805 26292.4
 02 01 2013  11 58  -21.0166 26075.0 -03377.5 -07.3804 26292.9
 02 01 2013  11 59  -21.0160 26075.9 -03377.6 -07.3805 26293.7
 02 01 2013  12 00  -21.0157 26076.4 -03377.6 -07.3803 26294.2
 02 01 2013  12 01  -21.0150 26076.6 -03377.4 -07.3798 26294.4
 02 01 2013  12 02  -21.0146 26077.0 -03377.3 -07.3795 26294.8
 02 01 2013  12 03  -21.0146 26077.3 -03377.3 -07.3792 26295.1
 02 01 2013  12 04  -21.0142 26077.4 -03377.1 -07.3788 26295.2
 02 01 2013  12 05  -21.0137 26077.7 -03377.0 -07.3786 26295.4
 02 01 2013  12 06  -21.0137 26077.9 -03376.9 -07.3784 26295.6
 02 01 2013  12 07  -21.0138 26077.9 -03376.8 -07.3780 26295.6
 02 01 2013  12 08  -21.0135 26078.1 -03376.8 -07.3780 26295.9
 02 01 2013  12 09  -21.0131 26078.3 -03376.7 -07.3778 26296.1
 02 01 2013  12 10  -21.0130 26078.4 -03376.6 -07.3775 26296.1
 02 01 2013  12 11  -21.0129 26078.2 -03376.3 -07.3770 26295.8
 02 01 2013  12 12  -21.0129 26078.0 -03376.2 -07.3767 26295.6
 02 01 2013  12 13  -21.0130 26078.0 -03376.1 -07.3766 26295.6
 02 01 2013  12 14  -21.0132 26077.8 -03376.0 -07.3765 26295.4
 02 01 2013  12 15  -21.0134 26077.6 -03375.9 -07.3762 26295.2
 02 01 2013  12 16  -21.0132 26077.8 -03375.9 -07.3762 26295.4
 02 01 2013  12 17  -21.0132 26078.0 -03376.0 -07.3763 26295.7
 02 01 2013  12 18  -21.0135 26078.2 -03376.0 -07.3762 26295.9
 02 01 2013  12 19  -21.0135 26078.7 -03376.0 -07.3762 26296.3
 02 01 2013  12 20  -21.0135 26079.1 -03376.1 -07.3762 26296.8
 02 01 2013  12 21  -21.0136 26079.2 -03375.9 -07.3759 26296.8
 02 01 2013  12 22  -21.0141 26079.1 -03375.7 -07.3755 26296.7
 02 01 2013  12 23  -21.0147 26079.3 -03375.7 -07.3753 26296.8
 02 01 2013  12 24  -21.0148 26079.8 -03375.7 -07.3753 26297.4
 02 01 2013  12 25  -21.0147 26080.2 -03375.8 -07.3752 26297.8
 02 01 2013  12 26  -21.0143 26080.2 -03375.6 -07.3749 26297.8
 02 01 2013  12 27  -21.0141 26080.7 -03375.7 -07.3748 26298.3
 02 01 2013  12 28  -21.0138 26081.4 -03375.8 -07.3749 26298.9
 02 01 2013  12 29  -21.0138 26082.2 -03375.9 -07.3749 26299.8
 02 01 2013  12 30  -21.0135 26082.5 -03375.7 -07.3745 26300.0
 02 01 2013  12 31  -21.0132 26082.7 -03375.6 -07.3742 26300.2
 02 01 2013  12 32  -21.0129 26083.2 -03375.6 -07.3741 26300.7
 02 01 2013  12 33  -21.0128 26084.4 -03376.0 -07.3745 26302.0
 02 01 2013  12 34  -21.0128 26085.9 -03376.3 -07.3748 26303.5
 02 01 2013  12 35  -21.0128 26086.8 -03376.3 -07.3746 26304.4
 02 01 2013  12 36  -21.0130 26087.5 -03376.3 -07.3743 26305.1
 02 01 2013  12 37  -21.0133 26088.2 -03376.2 -07.3740 26305.8
 02 01 2013  12 38  -21.0136 26088.8 -03376.1 -07.3735 26306.3
 02 01 2013  12 39  -21.0143 26089.5 -03375.9 -07.3730 26307.0
 02 01 2013  12 40  -21.0153 26090.3 -03376.0 -07.3728 26307.8
 02 01 2013  12 41  -21.0157 26090.6 -03375.7 -07.3721 26308.1
 02 01 2013  12 42  -21.0157 26090.4 -03375.2 -07.3712 26307.8
 02 01 2013  12 43  -21.0160 26089.9 -03374.8 -07.3704 26307.3
 02 01 2013  12 44  -21.0159 26089.5 -03374.5 -07.3698 26306.8
 02 01 2013  12 45  -21.0157 26089.3 -03374.3 -07.3695 26306.6
 02 01 2013  12 46  -21.0161 26089.3 -03374.2 -07.3693 26306.6
 02 01 2013  12 47  -21.0164 26089.7 -03374.3 -07.3694 26307.1
 02 01 2013  12 48  -21.0162 26089.9 -03374.2 -07.3692 26307.1
 02 01 2013  12 49  -21.0160 26090.3 -03374.2 -07.3691 26307.6
 02 01 2013  12 50  -21.0160 26090.3 -03374.0 -07.3687 26307.6
 02 01 2013  12 51  -21.0158 26090.1 -03373.8 -07.3682 26307.4
 02 01 2013  12 52  -21.0162 26090.7 -03373.9 -07.3683 26308.0
 02 01 2013  12 53  -21.0172 26091.4 -03374.1 -07.3684 26308.6
 02 01 2013  12 54  -21.0175 26091.9 -03374.1 -07.3683 26309.2
 02 01 2013  12 55  -21.0179 26092.6 -03374.1 -07.3682 26309.9
 02 01 2013  12 56  -21.0180 26093.3 -03374.2 -07.3681 26310.5
 02 01 2013  12 57  -21.0180 26093.9 -03374.1 -07.3679 26311.2
 02 01 2013  12 58  -21.0181 26094.3 -03374.0 -07.3674 26311.5
 02 01 2013  12 59  -21.0180 26094.6 -03373.8 -07.3670 26311.8
 02 01 2013  13 00  -21.0181 26095.4 -03373.9 -07.3669 26312.6
 02 01 2013  13 01  -21.0185 26096.2 -03373.9 -07.3668 26313.4
 02 01 2013  13 02  -21.0188 26096.7 -03373.8 -07.3665 26313.9
 02 01 2013  13 03  -21.0192 26096.7 -03373.6 -07.3658 26313.8
 02 01 2013  13 04  -21.0199 26096.9 -03373.4 -07.3655 26314.0
 02 01 2013  13 05  -21.0208 26097.6 -03373.5 -07.3655 26314.7
 02 01 2013  13 06  -21.0214 26097.8 -03373.4 -07.3651 26314.9
 02 01 2013  13 07  -21.0220 26098.2 -03373.3 -07.3648 26315.3
 02 01 2013  13 08  -21.0228 26098.6 -03373.2 -07.3646 26315.7
 02 01 2013  13 09  -21.0236 26099.1 -03373.1 -07.3642 26316.2
 02 01 2013  13 10  -21.0241 26099.5 -03373.0 -07.3638 26316.6
 02 01 2013  13 11  -21.0247 26099.9 -03372.9 -07.3634 26316.9
 02 01 2013  13 12  -21.0250 26100.1 -03372.7 -07.3629 26317.2
 02 01 2013  13 13  -21.0251 26100.3 -03372.4 -07.3624 26317.2
 02 01 2013  13 14  -21.0259 26100.3 -03372.2 -07.3619 26317.2
 02 01 2013  13 15  -21.0264 26100.2 -03371.9 -07.3613 26317.2
 02 01 2013  13 16  -21.0274 26100.4 -03371.8 -07.3609 26317.3
 02 01 2013  13 17  -21.0282 26100.6 -03371.6 -07.3605 26317.5
 02 01 2013  13 18  -21.0289 26100.8 -03371.4 -07.3601 26317.6
 02 01 2013  13 19  -21.0298 26101.4 -03371.4 -07.3600 26318.2
 02 01 2013  13 20  -21.0305 26101.6 -03371.3 -07.3596 26318.4
 02 01 2013  13 21  -21.0308 26101.8 -03371.1 -07.3590 26318.6
 02 01 2013  13 22  -21.0309 26101.9 -03370.8 -07.3585 26318.7
 02 01 2013  13 23  -21.0309 26102.1 -03370.6 -07.3579 26318.8
 02 01 2013  13 24  -21.0312 26102.4 -03370.4 -07.3574 26319.1
 02 01 2013  13 25  -21.0321 26102.5 -03370.1 -07.3568 26319.2
 02 01 2013  13 26  -21.0328 26102.9 -03369.9 -07.3563 26319.5
 02 01 2013  13 27  -21.0333 26103.5 -03369.9 -07.3560 26320.1
 02 01 2013  13 28  -21.0339 26104.0 -03369.8 -07.3556 26320.6
 02 01 2013  13 29  -21.0347 26104.4 -03369.6 -07.3552 26321.0
 02 01 2013  13 30  -21.0351 26104.7 -03369.4 -07.3545 26321.2
 02 01 2013  13 31  -21.0355 26105.1 -03369.1 -07.3540 26321.6
 02 01 2013  13 32  -21.0355 26105.7 -03369.0 -07.3534 26322.2
 02 01 2013  13 33  -21.0357 26106.3 -03368.8 -07.3529 26322.8
 02 01 2013  13 34  -21.0359 26106.8 -03368.6 -07.3523 26323.2
 02 01 2013  13 35  -21.0363 26106.8 -03368.2 -07.3514 26323.2
 02 01 2013  13 36  -21.0370 26107.4 -03368.0 -07.3509 26323.7
 02 01 2013  13 37  -21.0375 26107.8 -03367.8 -07.3504 26324.1
 02 01 2013  13 38  -21.0379 26108.1 -03367.6 -07.3497 26324.4
 02 01 2013  13 39  -21.0379 26108.1 -03367.2 -07.3490 26324.4
 02 01 2013  13 40  -21.0383 26108.5 -03367.1 -07.3485 26324.7
 02 01 2013  13 41  -21.0386 26109.0 -03367.0 -07.3482 26325.2
 02 01 2013  13 42  -21.0388 26109.3 -03366.8 -07.3477 26325.5
 02 01 2013  13 43  -21.0391 26109.8 -03366.7 -07.3474 26326.0
 02 01 2013  13 44  -21.0396 26110.5 -03366.7 -07.3472 26326.7
 02 01 2013  13 45  -21.0397 26110.8 -03366.5 -07.3466 26327.0
 02 01 2013  13 46  -21.0402 26111.1 -03366.3 -07.3461 26327.2
 02 01 2013  13 47  -21.0407 26111.7 -03366.2 -07.3457 26327.8
 02 01 2013  13 48  -21.0414 26112.3 -03366.1 -07.3453 26328.3
 02 01 2013  13 49  -21.0421 26113.0 -03366.0 -07.3450 26329.0
 02 01 2013  13 50  -21.0431 26113.9 -03366.0 -07.3448 26329.9
 02 01 2013  13 51  -21.0439 26114.6 -03365.9 -07.3443 26330.6
 02 01 2013  13 52  -21.0443 26115.4 -03365.8 -07.3439 26331.4
 02 01 2013  13 53  -21.0450 26116.0 -03365.6 -07.3432 26332.0
 02 01 2013  13 54  -21.0457 26116.6 -03365.4 -07.3426 26332.5
 02 01 2013  13 55  -21.0458 26116.4 -03364.8 -07.3415 26332.3
 02 01 2013  13 56  -21.0456 26116.4 -03364.4 -07.3405 26332.3
 02 01 2013  13 57  -21.0455 26117.2 -03364.3 -07.3401 26333.0
 02 01 2013  13 58  -21.0459 26118.2 -03364.3 -07.3398 26334.0
 02 01 2013  13 59  -21.0463 26118.5 -03364.0 -07.3391 26334.3
 02 01 2013  14 00  -21.0462 26118.0 -03363.3 -07.3377 26333.7
 02 01 2013  14 01  -21.0460 26117.7 -03362.8 -07.3367 26333.3
 02 01 2013  14 02  -21.0470 26118.5 -03362.8 -07.3366 26334.1
 02 01 2013  14 03  -21.0481 26119.2 -03362.8 -07.3363 26334.8
 02 01 2013  14 04  -21.0489 26119.6 -03362.5 -07.3355 26335.2
 02 01 2013  14 05  -21.0491 26119.7 -03362.0 -07.3346 26335.2
 02 01 2013  14 06  -21.0494 26119.7 -03361.6 -07.3336 26335.1
 02 01 2013  14 07  -21.0494 26119.6 -03361.1 -07.3326 26334.9
 02 01 2013  14 08  -21.0497 26119.8 -03360.8 -07.3319 26335.1
 02 01 2013  14 09  -21.0500 26120.3 -03360.6 -07.3314 26335.6
 02 01 2013  14 10  -21.0502 26120.8 -03360.4 -07.3308 26336.1
 02 01 2013  14 11  -21.0502 26121.2 -03360.2 -07.3301 26336.5
 02 01 2013  14 12  -21.0502 26121.4 -03359.8 -07.3292 26336.6
 02 01 2013  14 13  -21.0502 26121.6 -03359.4 -07.3284 26336.8
 02 01 2013  14 14  -21.0501 26121.5 -03358.9 -07.3273 26336.6
 02 01 2013  14 15  -21.0498 26121.4 -03358.4 -07.3263 26336.5
 02 01 2013  14 16  -21.0495 26121.7 -03358.1 -07.3256 26336.6
 02 01 2013  14 17  -21.0490 26121.8 -03357.8 -07.3248 26336.7
 02 01 2013  14 18  -21.0485 26121.9 -03357.5 -07.3241 26336.8
 02 01 2013  14 19  -21.0483 26122.4 -03357.3 -07.3236 26337.3
 02 01 2013  14 20  -21.0482 26122.9 -03357.1 -07.3230 26337.7
 02 01 2013  14 21  -21.0476 26123.1 -03356.8 -07.3223 26337.9
 02 01 2013  14 22  -21.0472 26123.3 -03356.5 -07.3215 26338.1
 02 01 2013  14 23  -21.0469 26123.8 -03356.2 -07.3209 26338.5
 02 01 2013  14 24  -21.0466 26124.3 -03356.0 -07.3202 26339.0
 02 01 2013  14 25  -21.0461 26124.8 -03355.7 -07.3194 26339.5
 02 01 2013  14 26  -21.0458 26125.2 -03355.3 -07.3186 26339.8
 02 01 2013  14 27  -21.0455 26125.0 -03354.8 -07.3174 26339.5
 02 01 2013  14 28  -21.0445 26124.9 -03354.2 -07.3163 26339.4
 02 01 2013  14 29  -21.0437 26124.9 -03353.8 -07.3153 26339.3
 02 01 2013  14 30  -21.0440 26124.9 -03353.4 -07.3145 26339.2
 02 01 2013  14 31  -21.0443 26124.9 -03352.9 -07.3134 26339.2
 02 01 2013  14 32  -21.0445 26124.7 -03352.3 -07.3123 26338.9
 02 01 2013  14 33  -21.0436 26124.4 -03351.7 -07.3110 26338.5
 02 01 2013  14 34  -21.0424 26124.2 -03351.2 -07.3100 26338.3
 02 01 2013  14 35  -21.0422 26124.5 -03351.1 -07.3096 26338.6
 02 01 2013  14 36  -21.0424 26125.0 -03350.9 -07.3092 26339.0
 02 01 2013  14 37  -21.0419 26125.0 -03350.5 -07.3083 26339.0
 02 01 2013  14 38  -21.0411 26125.0 -03350.1 -07.3074 26338.9
 02 01 2013  14 39  -21.0405 26125.0 -03349.8 -07.3066 26338.9
 02 01 2013  14 40  -21.0404 26125.4 -03349.6 -07.3062 26339.3
 02 01 2013  14 41  -21.0400 26125.8 -03349.4 -07.3056 26339.6
 02 01 2013  14 42  -21.0400 26126.1 -03349.1 -07.3049 26339.9
 02 01 2013  14 43  -21.0397 26126.2 -03348.7 -07.3040 26339.9
 02 01 2013  14 44  -21.0387 26125.8 -03348.1 -07.3027 26339.4
 02 01 2013  14 45  -21.0380 26125.5 -03347.6 -07.3017 26339.1
 02 01 2013  14 46  -21.0376 26125.4 -03347.2 -07.3010 26339.0
 02 01 2013  14 47  -21.0373 26125.5 -03346.9 -07.3004 26339.0
 02 01 2013  14 48  -21.0369 26125.8 -03346.8 -07.3000 26339.3
 02 01 2013  14 49  -21.0364 26126.2 -03346.6 -07.2995 26339.6
 02 01 2013  14 50  -21.0359 26126.4 -03346.4 -07.2989 26339.9
 02 01 2013  14 51  -21.0354 26126.5 -03346.1 -07.2982 26339.9
 02 01 2013  14 52  -21.0347 26126.8 -03345.8 -07.2976 26340.2
 02 01 2013  14 53  -21.0339 26126.9 -03345.5 -07.2969 26340.2
 02 01 2013  14 54  -21.0332 26127.0 -03345.2 -07.2962 26340.3
 02 01 2013  14 55  -21.0325 26127.4 -03345.0 -07.2957 26340.6
 02 01 2013  14 56  -21.0320 26127.9 -03344.9 -07.2952 26341.2
 02 01 2013  14 57  -21.0316 26128.3 -03344.7 -07.2947 26341.5
 02 01 2013  14 58  -21.0309 26128.7 -03344.4 -07.2941 26341.8
 02 01 2013  14 59  -21.0305 26128.9 -03344.2 -07.2935 26342.0
 02 01 2013  15 00  -21.0302 26128.8 -03343.8 -07.2927 26341.9
 02 01 2013  15 01  -21.0294 26128.8 -03343.5 -07.2920 26341.9
 02 01 2013  15 02  -21.0287 26128.9 -03343.2 -07.2914 26342.0
 02 01 2013  15 03  -21.0282 26129.0 -03343.0 -07.2909 26342.0
 02 01 2013  15 04  -21.0272 26128.8 -03342.7 -07.2903 26341.8
 02 01 2013  15 05  -21.0262 26128.7 -03342.4 -07.2898 26341.6
 02 01 2013  15 06  -21.0252 26128.5 -03342.2 -07.2892 26341.4
 02 01 2013  15 07  -21.0244 26128.5 -03342.0 -07.2890 26341.4
 02 01 2013  15 08  -21.0237 26128.7 -03342.0 -07.2888 26341.5
 02 01 2013  15 09  -21.0230 26128.9 -03342.0 -07.2887 26341.7
 02 01 2013  15 10  -21.0219 26128.9 -03341.8 -07.2884 26341.8
 02 01 2013  15 11  -21.0208 26128.6 -03341.5 -07.2878 26341.4
 02 01 2013  15 12  -21.0196 26128.6 -03341.4 -07.2876 26341.4
 02 01 2013  15 13  -21.0186 26128.7 -03341.4 -07.2875 26341.5
 02 01 2013  15 14  -21.0177 26128.8 -03341.3 -07.2872 26341.5
 02 01 2013  15 15  -21.0168 26128.6 -03341.1 -07.2870 26341.3
 02 01 2013  15 16  -21.0158 26128.4 -03341.0 -07.2868 26341.1
 02 01 2013  15 17  -21.0148 26128.4 -03341.0 -07.2869 26341.2
 02 01 2013  15 18  -21.0139 26128.6 -03341.1 -07.2869 26341.3
 02 01 2013  15 19  -21.0131 26128.4 -03340.9 -07.2866 26341.1
 02 01 2013  15 20  -21.0120 26128.0 -03340.7 -07.2863 26340.7
 02 01 2013  15 21  -21.0109 26127.7 -03340.6 -07.2862 26340.4
 02 01 2013  15 22  -21.0103 26127.7 -03340.7 -07.2862 26340.4
 02 01 2013  15 23  -21.0094 26127.5 -03340.7 -07.2863 26340.2
 02 01 2013  15 24  -21.0087 26127.2 -03340.6 -07.2861 26339.9
 02 01 2013  15 25  -21.0078 26127.0 -03340.5 -07.2861 26339.7
 02 01 2013  15 26  -21.0070 26126.8 -03340.5 -07.2861 26339.5
 02 01 2013  15 27  -21.0060 26126.7 -03340.5 -07.2861 26339.4
 02 01 2013  15 28  -21.0050 26126.5 -03340.4 -07.2861 26339.2
 02 01 2013  15 29  -21.0037 26126.2 -03340.3 -07.2859 26338.8
 02 01 2013  15 30  -21.0026 26125.9 -03340.3 -07.2859 26338.6
 02 01 2013  15 31  -21.0017 26125.9 -03340.4 -07.2861 26338.6
 02 01 2013  15 32  -21.0008 26125.9 -03340.4 -07.2862 26338.6
 02 01 2013  15 33  -20.9999 26125.9 -03340.5 -07.2863 26338.5
 02 01 2013  15 34  -20.9991 26125.9 -03340.5 -07.2865 26338.6
 02 01 2013  15 35  -20.9983 26125.8 -03340.6 -07.2865 26338.5
 02 01 2013  15 36  -20.9972 26125.4 -03340.4 -07.2864 26338.1
 02 01 2013  15 37  -20.9963 26124.9 -03340.3 -07.2863 26337.6
 02 01 2013  15 38  -20.9952 26124.5 -03340.2 -07.2862 26337.2
 02 01 2013  15 39  -20.9942 26124.0 -03340.2 -07.2862 26336.7
 02 01 2013  15 40  -20.9931 26123.4 -03340.1 -07.2862 26336.1
 02 01 2013  15 41  -20.9921 26122.8 -03340.0 -07.2862 26335.5
 02 01 2013  15 42  -20.9911 26122.5 -03340.1 -07.2864 26335.1
 02 01 2013  15 43  -20.9902 26122.1 -03340.2 -07.2867 26334.8
 02 01 2013  15 44  -20.9894 26122.1 -03340.3 -07.2871 26334.8
 02 01 2013  15 45  -20.9887 26121.9 -03340.4 -07.2873 26334.6
 02 01 2013  15 46  -20.9875 26121.4 -03340.4 -07.2874 26334.2
 02 01 2013  15 47  -20.9862 26121.0 -03340.4 -07.2875 26333.7
 02 01 2013  15 48  -20.9851 26120.7 -03340.4 -07.2877 26333.4
 02 01 2013  15 49  -20.9840 26120.4 -03340.5 -07.2880 26333.2
 02 01 2013  15 50  -20.9830 26120.0 -03340.6 -07.2882 26332.7
 02 01 2013  15 51  -20.9819 26119.5 -03340.6 -07.2883 26332.3
 02 01 2013  15 52  -20.9808 26119.3 -03340.6 -07.2885 26332.0
 02 01 2013  15 53  -20.9796 26118.9 -03340.7 -07.2887 26331.7
 02 01 2013  15 54  -20.9784 26118.6 -03340.8 -07.2890 26331.4
 02 01 2013  15 55  -20.9774 26118.3 -03340.9 -07.2894 26331.2
 02 01 2013  15 56  -20.9765 26118.1 -03341.1 -07.2898 26330.9
 02 01 2013  15 57  -20.9751 26117.8 -03341.2 -07.2901 26330.6
 02 01 2013  15 58  -20.9737 26117.3 -03341.2 -07.2903 26330.2
 02 01 2013  15 59  -20.9723 26116.8 -03341.3 -07.2906 26329.7
 02 01 2013  16 00  -20.9706 26116.2 -03341.4 -07.2910 26329.1
 02 01 2013  16 01  -20.9688 26115.7 -03341.5 -07.2914 26328.6
 02 01 2013  16 02  -20.9670 26115.0 -03341.7 -07.2919 26328.0
 02 01 2013  16 03  -20.9655 26114.5 -03341.9 -07.2926 26327.5
 02 01 2013  16 04  -20.9645 26114.3 -03342.3 -07.2935 26327.3
 02 01 2013  16 05  -20.9634 26114.1 -03342.7 -07.2944 26327.2
 02 01 2013  16 06  -20.9622 26113.7 -03343.0 -07.2951 26326.8
 02 01 2013  16 07  -20.9610 26113.3 -03343.3 -07.2959 26326.5
 02 01 2013  16 08  -20.9599 26113.0 -03343.6 -07.2967 26326.2
 02 01 2013  16 09  -20.9591 26112.9 -03344.0 -07.2976 26326.2
 02 01 2013  16 10  -20.9579 26112.7 -03344.3 -07.2983 26326.0
 02 01 2013  16 11  -20.9571 26112.5 -03344.7 -07.2991 26325.8
 02 01 2013  16 12  -20.9562 26112.3 -03345.0 -07.2999 26325.6
 02 01 2013  16 13  -20.9553 26112.0 -03345.4 -07.3008 26325.4
 02 01 2013  16 14  -20.9546 26111.8 -03345.8 -07.3016 26325.3
 02 01 2013  16 15  -20.9535 26111.3 -03345.9 -07.3022 26324.8
 02 01 2013  16 16  -20.9523 26110.7 -03346.2 -07.3028 26324.3
 02 01 2013  16 17  -20.9514 26110.3 -03346.5 -07.3036 26323.9
 02 01 2013  16 18  -20.9509 26109.9 -03346.9 -07.3045 26323.5
 02 01 2013  16 19  -20.9504 26109.4 -03347.2 -07.3053 26323.0
 02 01 2013  16 20  -20.9498 26108.9 -03347.5 -07.3061 26322.6
 02 01 2013  16 21  -20.9490 26108.5 -03347.8 -07.3070 26322.2
 02 01 2013  16 22  -20.9481 26108.0 -03348.2 -07.3079 26321.8
 02 01 2013  16 23  -20.9471 26107.7 -03348.7 -07.3090 26321.5
 02 01 2013  16 24  -20.9463 26107.7 -03349.3 -07.3103 26321.6
 02 01 2013  16 25  -20.9457 26107.5 -03349.8 -07.3115 26321.5
 02 01 2013  16 26  -20.9452 26107.0 -03350.2 -07.3124 26321.1
 02 01 2013  16 27  -20.9447 26106.6 -03350.6 -07.3134 26320.7
 02 01 2013  16 28  -20.9443 26106.2 -03351.1 -07.3146 26320.4
 02 01 2013  16 29  -20.9441 26105.9 -03351.6 -07.3158 26320.2
 02 01 2013  16 30  -20.9439 26105.5 -03352.1 -07.3170 26319.8
 02 01 2013  16 31  -20.9439 26105.1 -03352.6 -07.3182 26319.5
 02 01 2013  16 32  -20.9439 26104.6 -03353.0 -07.3192 26319.0
 02 01 2013  16 33  -20.9439 26104.0 -03353.4 -07.3203 26318.5
 02 01 2013  16 34  -20.9433 26103.5 -03353.9 -07.3215 26318.1
 02 01 2013  16 35  -20.9426 26103.0 -03354.4 -07.3228 26317.7
 02 01 2013  16 36  -20.9429 26102.8 -03355.1 -07.3243 26317.5
 02 01 2013  16 37  -20.9436 26102.4 -03355.6 -07.3256 26317.2
 02 01 2013  16 38  -20.9443 26102.2 -03356.2 -07.3269 26317.1
 02 01 2013  16 39  -20.9450 26102.0 -03356.8 -07.3282 26316.9
 02 01 2013  16 40  -20.9458 26101.5 -03357.2 -07.3292 26316.5
 02 01 2013  16 41  -20.9463 26100.7 -03357.5 -07.3301 26315.7
 02 01 2013  16 42  -20.9466 26099.8 -03357.8 -07.3310 26314.9
 02 01 2013  16 43  -20.9473 26099.2 -03358.3 -07.3322 26314.4
 02 01 2013  16 44  -20.9478 26098.6 -03358.8 -07.3334 26313.8
 02 01 2013  16 45  -20.9482 26098.0 -03359.2 -07.3346 26313.3
 02 01 2013  16 46  -20.9490 26097.7 -03359.9 -07.3360 26313.0
 02 01 2013  16 47  -20.9500 26097.5 -03360.5 -07.3374 26313.0
 02 01 2013  16 48  -20.9511 26097.0 -03361.0 -07.3387 26312.6
 02 01 2013  16 49  -20.9517 26096.3 -03361.3 -07.3396 26311.9
 02 01 2013  16 50  -20.9521 26095.6 -03361.7 -07.3406 26311.3
 02 01 2013  16 51  -20.9531 26095.1 -03362.3 -07.3419 26310.8
 02 01 2013  16 52  -20.9538 26094.5 -03362.7 -07.3431 26310.3
 02 01 2013  16 53  -20.9547 26094.1 -03363.3 -07.3444 26309.9
 02 01 2013  16 54  -20.9561 26093.7 -03363.9 -07.3458 26309.7
 02 01 2013  16 55  -20.9572 26093.4 -03364.4 -07.3471 26309.4
 02 01 2013  16 56  -20.9584 26093.0 -03364.9 -07.3482 26309.0
 02 01 2013  16 57  -20.9596 26092.6 -03365.4 -07.3494 26308.8
 02 01 2013  16 58  -20.9612 26092.5 -03365.9 -07.3506 26308.7
 02 01 2013  16 59  -20.9624 26092.0 -03366.3 -07.3515 26308.3
 02 01 2013  17 00  -20.9637 26091.7 -03366.7 -07.3523 26308.0
 02 01 2013  17 01  -20.9651 26091.3 -03367.0 -07.3532 26307.7
 02 01 2013  17 02  -20.9659 26090.9 -03367.3 -07.3540 26307.3
 02 01 2013  17 03  -20.9664 26091.0 -03367.9 -07.3552 26307.5
 02 01 2013  17 04  -20.9683 26091.5 -03368.7 -07.3567 26308.0
 02 01 2013  17 05  -20.9701 26091.5 -03369.1 -07.3576 26308.2
 02 01 2013  17 06  -20.9714 26091.1 -03369.1 -07.3579 26307.7
 02 01 2013  17 07  -20.9725 26090.7 -03369.3 -07.3583 26307.4
 02 01 2013  17 08  -20.9740 26090.9 -03369.7 -07.3592 26307.6
 02 01 2013  17 09  -20.9758 26091.1 -03370.2 -07.3601 26307.9
 02 01 2013  17 10  -20.9775 26091.1 -03370.5 -07.3607 26307.9
 02 01 2013  17 11  -20.9793 26090.7 -03370.5 -07.3609 26307.5
 02 01 2013  17 12  -20.9804 26090.3 -03370.5 -07.3610 26307.1
 02 01 2013  17 13  -20.9816 26089.8 -03370.5 -07.3611 26306.6
 02 01 2013  17 14  -20.9826 26089.2 -03370.4 -07.3612 26306.0
 02 01 2013  17 15  -20.9839 26088.8 -03370.5 -07.3615 26305.6
 02 01 2013  17 16  -20.9853 26088.4 -03370.6 -07.3618 26305.2
 02 01 2013  17 17  -20.9870 26088.2 -03370.8 -07.3623 26305.0
 02 01 2013  17 18  -20.9886 26088.0 -03370.9 -07.3625 26304.9
 02 01 2013  17 19  -20.9899 26087.5 -03370.9 -07.3626 26304.4
 02 01 2013  17 20  -20.9912 26087.1 -03370.9 -07.3627 26304.0
 02 01 2013  17 21  -20.9926 26086.7 -03370.9 -07.3629 26303.6
 02 01 2013  17 22  -20.9938 26086.5 -03371.0 -07.3631 26303.4
 02 01 2013  17 23  -20.9952 26086.4 -03371.1 -07.3633 26303.3
 02 01 2013  17 24  -20.9966 26086.2 -03371.1 -07.3634 26303.1
 02 01 2013  17 25  -20.9979 26085.9 -03371.0 -07.3633 26302.8
 02 01 2013  17 26  -20.9992 26085.5 -03370.9 -07.3632 26302.4
 02 01 2013  17 27  -21.0004 26085.2 -03370.8 -07.3632 26302.0
 02 01 2013  17 28  -21.0017 26085.0 -03370.9 -07.3633 26301.9
 02 01 2013  17 29  -21.0030 26085.0 -03370.9 -07.3635 26301.9
 02 01 2013  17 30  -21.0044 26085.0 -03371.0 -07.3636 26301.9
 02 01 2013  17 31  -21.0058 26084.9 -03371.0 -07.3636 26301.9
 02 01 2013  17 32  -21.0073 26084.9 -03371.0 -07.3635 26301.8
 02 01 2013  17 33  -21.0085 26084.8 -03370.9 -07.3634 26301.7
 02 01 2013  17 34  -21.0096 26084.8 -03370.8 -07.3633 26301.7
 02 01 2013  17 35  -21.0106 26085.1 -03370.9 -07.3633 26302.0
 02 01 2013  17 36  -21.0118 26085.2 -03370.9 -07.3633 26302.1
 02 01 2013  17 37  -21.0127 26085.2 -03370.7 -07.3630 26302.0
 02 01 2013  17 38  -21.0135 26085.0 -03370.5 -07.3625 26301.8
 02 01 2013  17 39  -21.0143 26084.9 -03370.3 -07.3622 26301.7
 02 01 2013  17 40  -21.0150 26084.9 -03370.2 -07.3620 26301.7
 02 01 2013  17 41  -21.0160 26084.8 -03370.1 -07.3617 26301.6
 02 01 2013  17 42  -21.0168 26084.7 -03370.0 -07.3615 26301.5
 02 01 2013  17 43  -21.0174 26084.6 -03369.9 -07.3613 26301.4
 02 01 2013  17 44  -21.0181 26084.4 -03369.7 -07.3610 26301.2
 02 01 2013  17 45  -21.0187 26084.4 -03369.6 -07.3607 26301.1
 02 01 2013  17 46  -21.0194 26084.3 -03369.4 -07.3604 26301.0
 02 01 2013  17 47  -21.0203 26084.1 -03369.2 -07.3600 26300.8
 02 01 2013  17 48  -21.0210 26084.2 -03369.1 -07.3598 26300.8
 02 01 2013  17 49  -21.0217 26084.2 -03369.1 -07.3596 26300.9
 02 01 2013  17 50  -21.0223 26084.2 -03369.0 -07.3594 26300.8
 02 01 2013  17 51  -21.0228 26083.9 -03368.7 -07.3590 26300.5
 02 01 2013  17 52  -21.0233 26083.6 -03368.5 -07.3585 26300.2
 02 01 2013  17 53  -21.0239 26083.5 -03368.3 -07.3582 26300.0
 02 01 2013  17 54  -21.0246 26083.5 -03368.2 -07.3580 26300.1
 02 01 2013  17 55  -21.0251 26083.5 -03368.1 -07.3578 26300.1
 02 01 2013  17 56  -21.0255 26083.4 -03368.0 -07.3575 26299.9
 02 01 2013  17 57  -21.0259 26083.4 -03367.9 -07.3573 26299.9
 02 01 2013  17 58  -21.0263 26083.3 -03367.8 -07.3571 26299.8
 02 01 2013  17 59  -21.0264 26083.1 -03367.6 -07.3567 26299.6
 02 01 2013  18 00  -21.0266 26083.0 -03367.4 -07.3564 26299.5
 02 01 2013  18 01  -21.0268 26082.8 -03367.3 -07.3561 26299.3
 02 01 2013  18 02  -21.0269 26082.5 -03367.0 -07.3556 26298.9
 02 01 2013  18 03  -21.0270 26082.0 -03366.7 -07.3551 26298.4
 02 01 2013  18 04  -21.0272 26081.8 -03366.5 -07.3549 26298.1
 02 01 2013  18 05  -21.0275 26081.6 -03366.5 -07.3547 26298.0
 02 01 2013  18 06  -21.0278 26081.5 -03366.4 -07.3546 26297.8
 02 01 2013  18 07  -21.0282 26081.4 -03366.3 -07.3545 26297.7
 02 01 2013  18 08  -21.0285 26081.2 -03366.1 -07.3542 26297.5
 02 01 2013  18 09  -21.0285 26080.9 -03366.0 -07.3539 26297.2
 02 01 2013  18 10  -21.0286 26080.8 -03365.9 -07.3538 26297.1
 02 01 2013  18 11  -21.0288 26080.8 -03365.9 -07.3538 26297.1
 02 01 2013  18 12  -21.0288 26080.8 -03365.9 -07.3537 26297.1
 02 01 2013  18 13  -21.0289 26080.7 -03365.8 -07.3537 26297.0
 02 01 2013  18 14  -21.0289 26080.6 -03365.8 -07.3536 26296.9
 02 01 2013  18 15  -21.0287 26080.6 -03365.8 -07.3536 26296.9
 02 01 2013  18 16  -21.0281 26081.0 -03366.0 -07.3538 26297.3
 02 01 2013  18 17  -21.0279 26081.3 -03366.1 -07.3541 26297.7
 02 01 2013  18 18  -21.0277 26081.4 -03366.2 -07.3542 26297.7
 02 01 2013  18 19  -21.0274 26081.3 -03366.1 -07.3540 26297.6
 02 01 2013  18 20  -21.0272 26081.1 -03366.0 -07.3539 26297.4
 02 01 2013  18 21  -21.0270 26080.8 -03365.9 -07.3537 26297.1
 02 01 2013  18 22  -21.0270 26080.4 -03365.7 -07.3534 26296.7
 02 01 2013  18 23  -21.0270 26080.0 -03365.6 -07.3533 26296.3
 02 01 2013  18 24  -21.0273 26079.8 -03365.6 -07.3534 26296.0
 02 01 2013  18 25  -21.0262 26080.1 -03365.8 -07.3537 26296.4
 02 01 2013  18 26  -21.0257 26081.0 -03366.3 -07.3546 26297.3
 02 01 2013  18 27  -21.0256 26081.7 -03366.7 -07.3552 26298.1
 02 01 2013  18 28  -21.0250 26081.7 -03366.7 -07.3551 26298.1
 02 01 2013  18 29  -21.0245 26081.5 -03366.6 -07.3550 26297.9
 02 01 2013  18 30  -21.0243 26081.6 -03366.7 -07.3552 26298.0
 02 01 2013  18 31  -21.0243 26081.6 -03366.8 -07.3554 26298.0
 02 01 2013  18 32  -21.0243 26081.5 -03366.8 -07.3555 26297.9
 02 01 2013  18 33  -21.0243 26081.3 -03366.8 -07.3556 26297.7
 02 01 2013  18 34  -21.0243 26081.1 -03366.8 -07.3556 26297.5
 02 01 2013  18 35  -21.0241 26080.8 -03366.8 -07.3556 26297.2
 02 01 2013  18 36  -21.0241 26080.5 -03366.8 -07.3557 26296.9
 02 01 2013  18 37  -21.0242 26080.1 -03366.7 -07.3557 26296.5
 02 01 2013  18 38  -21.0241 26079.9 -03366.7 -07.3557 26296.3
 02 01 2013  18 39  -21.0241 26079.7 -03366.8 -07.3560 26296.2
 02 01 2013  18 40  -21.0243 26079.4 -03366.8 -07.3560 26295.8
 02 01 2013  18 41  -21.0246 26078.8 -03366.6 -07.3558 26295.2
 02 01 2013  18 42  -21.0251 26078.1 -03366.4 -07.3555 26294.5
 02 01 2013  18 43  -21.0256 26077.3 -03366.1 -07.3551 26293.6
 02 01 2013  18 44  -21.0257 26076.6 -03365.9 -07.3549 26292.9
 02 01 2013  18 45  -21.0257 26076.3 -03365.9 -07.3551 26292.6
 02 01 2013  18 46  -21.0259 26076.1 -03366.1 -07.3554 26292.5
 02 01 2013  18 47  -21.0259 26075.8 -03366.1 -07.3556 26292.2
 02 01 2013  18 48  -21.0258 26075.5 -03366.2 -07.3558 26291.9
 02 01 2013  18 49  -21.0256 26075.2 -03366.2 -07.3559 26291.6
 02 01 2013  18 50  -21.0254 26074.9 -03366.2 -07.3561 26291.2
 02 01 2013  18 51  -21.0253 26074.5 -03366.2 -07.3562 26290.8
 02 01 2013  18 52  -21.0251 26074.2 -03366.3 -07.3564 26290.6
 02 01 2013  18 53  -21.0251 26074.1 -03366.4 -07.3568 26290.5
 02 01 2013  18 54  -21.0249 26074.0 -03366.6 -07.3571 26290.5
 02 01 2013  18 55  -21.0245 26074.1 -03366.8 -07.3575 26290.6
 02 01 2013  18 56  -21.0242 26074.1 -03367.0 -07.3579 26290.6
 02 01 2013  18 57  -21.0241 26074.1 -03367.1 -07.3583 26290.6
 02 01 2013  18 58  -21.0238 26074.0 -03367.2 -07.3585 26290.5
 02 01 2013  18 59  -21.0236 26074.1 -03367.4 -07.3589 26290.6
 02 01 2013  19 00  -21.0235 26074.1 -03367.6 -07.3593 26290.7
 02 01 2013  19 01  -21.0234 26074.2 -03367.8 -07.3596 26290.8
 02 01 2013  19 02  -21.0233 26074.2 -03367.9 -07.3599 26290.8
 02 01 2013  19 03  -21.0232 26074.1 -03368.0 -07.3601 26290.8
 02 01 2013  19 04  -21.0231 26074.0 -03368.0 -07.3602 26290.6
 02 01 2013  19 05  -21.0229 26073.9 -03368.1 -07.3604 26290.5
 02 01 2013  19 06  -21.0228 26073.8 -03368.2 -07.3606 26290.5
 02 01 2013  19 07  -21.0223 26073.8 -03368.3 -07.3609 26290.5
 02 01 2013  19 08  -21.0221 26073.8 -03368.5 -07.3613 26290.5
 02 01 2013  19 09  -21.0218 26073.8 -03368.7 -07.3617 26290.5
 02 01 2013  19 10  -21.0214 26073.9 -03368.9 -07.3621 26290.6
 02 01 2013  19 11  -21.0207 26074.1 -03369.1 -07.3625 26290.8
 02 01 2013  19 12  -21.0200 26074.5 -03369.5 -07.3633 26291.3
 02 01 2013  19 13  -21.0195 26074.8 -03369.8 -07.3639 26291.7
 02 01 2013  19 14  -21.0189 26075.0 -03370.1 -07.3644 26291.8
 02 01 2013  19 15  -21.0184 26075.0 -03370.3 -07.3648 26291.9
 02 01 2013  19 16  -21.0183 26074.8 -03370.4 -07.3650 26291.7
 02 01 2013  19 17  -21.0184 26074.2 -03370.3 -07.3650 26291.1
 02 01 2013  19 18  -21.0185 26073.4 -03370.0 -07.3647 26290.3
 02 01 2013  19 19  -21.0187 26072.9 -03370.0 -07.3647 26289.7
 02 01 2013  19 20  -21.0192 26072.4 -03370.0 -07.3649 26289.3
 02 01 2013  19 21  -21.0196 26071.8 -03369.9 -07.3649 26288.7
 02 01 2013  19 22  -21.0198 26071.2 -03369.8 -07.3649 26288.1
 02 01 2013  19 23  -21.0199 26070.9 -03369.9 -07.3651 26287.8
 02 01 2013  19 24  -21.0198 26070.8 -03370.1 -07.3655 26287.7
 02 01 2013  19 25  -21.0195 26070.9 -03370.4 -07.3662 26287.8
 02 01 2013  19 26  -21.0191 26071.0 -03370.7 -07.3669 26288.0
 02 01 2013  19 27  -21.0184 26071.3 -03371.0 -07.3675 26288.3
 02 01 2013  19 28  -21.0179 26071.7 -03371.5 -07.3683 26288.8
 02 01 2013  19 29  -21.0173 26072.0 -03371.9 -07.3690 26289.2
 02 01 2013  19 30  -21.0169 26072.5 -03372.2 -07.3698 26289.6
 02 01 2013  19 31  -21.0165 26072.6 -03372.5 -07.3703 26289.9
 02 01 2013  19 32  -21.0163 26072.7 -03372.7 -07.3706 26289.9
 02 01 2013  19 33  -21.0161 26072.6 -03372.8 -07.3708 26289.9
 02 01 2013  19 34  -21.0160 26072.4 -03372.8 -07.3709 26289.6
 02 01 2013  19 35  -21.0162 26071.9 -03372.7 -07.3708 26289.2
 02 01 2013  19 36  -21.0163 26071.4 -03372.5 -07.3706 26288.6
 02 01 2013  19 37  -21.0165 26070.8 -03372.4 -07.3705 26288.1
 02 01 2013  19 38  -21.0167 26070.4 -03372.3 -07.3705 26287.7
 02 01 2013  19 39  -21.0168 26070.0 -03372.3 -07.3705 26287.2
 02 01 2013  19 40  -21.0169 26069.6 -03372.2 -07.3706 26286.8
 02 01 2013  19 41  -21.0169 26069.1 -03372.2 -07.3706 26286.3
 02 01 2013  19 42  -21.0169 26068.7 -03372.1 -07.3706 26285.9
 02 01 2013  19 43  -21.0187 26068.2 -03372.0 -07.3704 26285.4
 02 01 2013  19 44  -21.0199 26068.0 -03372.0 -07.3705 26285.2
 02 01 2013  19 45  -21.0193 26068.3 -03372.4 -07.3712 26285.5
 02 01 2013  19 46  -21.0188 26068.8 -03372.8 -07.3720 26286.1
 02 01 2013  19 47  -21.0183 26069.4 -03373.3 -07.3728 26286.7
 02 01 2013  19 48  -21.0178 26069.8 -03373.6 -07.3735 26287.1
 02 01 2013  19 49  -21.0172 26069.9 -03373.8 -07.3739 26287.3
 02 01 2013  19 50  -21.0169 26069.8 -03373.9 -07.3742 26287.2
 02 01 2013  19 51  -21.0166 26069.6 -03374.0 -07.3743 26287.0
 02 01 2013  19 52  -21.0166 26069.4 -03374.0 -07.3744 26286.8
 02 01 2013  19 53  -21.0166 26069.1 -03373.9 -07.3744 26286.6
 02 01 2013  19 54  -21.0164 26068.9 -03374.0 -07.3745 26286.3
 02 01 2013  19 55  -21.0163 26068.6 -03374.0 -07.3747 26286.0
 02 01 2013  19 56  -21.0161 26068.3 -03374.0 -07.3748 26285.8
 02 01 2013  19 57  -21.0161 26068.0 -03374.0 -07.3749 26285.4
 02 01 2013  19 58  -21.0160 26067.6 -03374.0 -07.3749 26285.0
 02 01 2013  19 59  -21.0160 26067.3 -03374.0 -07.3750 26284.7
 02 01 2013  20 00  -21.0160 26066.9 -03374.0 -07.3751 26284.4
 02 01 2013  20 01  -21.0159 26066.6 -03374.0 -07.3752 26284.1
 02 01 2013  20 02  -21.0159 26066.3 -03374.0 -07.3754 26283.8
 02 01 2013  20 03  -21.0145 26066.2 -03374.2 -07.3757 26283.7
 02 01 2013  20 04  -21.0122 26066.3 -03374.5 -07.3764 26283.8
 02 01 2013  20 05  -21.0120 26066.2 -03374.6 -07.3766 26283.7
 02 01 2013  20 06  -21.0119 26066.1 -03374.7 -07.3769 26283.6
 02 01 2013  20 07  -21.0119 26065.9 -03374.9 -07.3772 26283.5
 02 01 2013  20 08  -21.0118 26065.8 -03375.0 -07.3775 26283.4
 02 01 2013  20 09  -21.0115 26065.7 -03375.1 -07.3778 26283.3
 02 01 2013  20 10  -21.0114 26065.6 -03375.2 -07.3781 26283.2
 02 01 2013  20 11  -21.0112 26065.5 -03375.3 -07.3784 26283.1
 02 01 2013  20 12  -21.0110 26065.3 -03375.4 -07.3787 26283.0
 02 01 2013  20 13  -21.0109 26065.0 -03375.5 -07.3788 26282.7
 02 01 2013  20 14  -21.0108 26064.6 -03375.4 -07.3789 26282.3
 02 01 2013  20 15  -21.0107 26064.3 -03375.5 -07.3791 26282.0
 02 01 2013  20 16  -21.0107 26064.1 -03375.5 -07.3792 26281.8
 02 01 2013  20 17  -21.0107 26063.7 -03375.6 -07.3794 26281.4
 02 01 2013  20 18  -21.0106 26063.5 -03375.6 -07.3796 26281.2
 02 01 2013  20 19  -21.0106 26063.3 -03375.7 -07.3799 26281.1
 02 01 2013  20 20  -21.0105 26063.3 -03375.9 -07.3802 26281.0
 02 01 2013  20 21  -21.0104 26063.2 -03376.0 -07.3806 26281.0
 02 01 2013  20 22  -21.0103 26063.1 -03376.1 -07.3808 26280.8
 02 01 2013  20 23  -21.0103 26062.7 -03376.1 -07.3809 26280.5
 02 01 2013  20 24  -21.0104 26062.4 -03376.1 -07.3810 26280.1
 02 01 2013  20 25  -21.0103 26062.1 -03376.1 -07.3811 26279.8
 02 01 2013  20 26  -21.0102 26061.9 -03376.2 -07.3813 26279.7
 02 01 2013  20 27  -21.0100 26061.9 -03376.4 -07.3817 26279.7
 02 01 2013  20 28  -21.0098 26061.8 -03376.5 -07.3820 26279.7
 02 01 2013  20 29  -21.0096 26061.8 -03376.7 -07.3823 26279.7
 02 01 2013  20 30  -21.0093 26061.8 -03376.8 -07.3827 26279.7
 02 01 2013  20 31  -21.0091 26061.8 -03377.0 -07.3830 26279.7
 02 01 2013  20 32  -21.0088 26061.7 -03377.1 -07.3832 26279.6
 02 01 2013  20 33  -21.0086 26061.6 -03377.1 -07.3834 26279.5
 02 01 2013  20 34  -21.0086 26061.3 -03377.2 -07.3835 26279.2
 02 01 2013  20 35  -21.0085 26061.0 -03377.2 -07.3836 26279.0
 02 01 2013  20 36  -21.0083 26060.9 -03377.2 -07.3838 26278.9
 02 01 2013  20 37  -21.0082 26060.9 -03377.4 -07.3841 26278.8
 02 01 2013  20 38  -21.0078 26060.7 -03377.5 -07.3844 26278.7
 02 01 2013  20 39  -21.0073 26060.7 -03377.6 -07.3846 26278.7
 02 01 2013  20 40  -21.0076 26060.6 -03377.6 -07.3848 26278.5
 02 01 2013  20 41  -21.0077 26060.2 -03377.6 -07.3848 26278.1
 02 01 2013  20 42  -21.0075 26059.9 -03377.6 -07.3850 26277.9
 02 01 2013  20 43  -21.0074 26059.9 -03377.8 -07.3853 26277.9
 02 01 2013  20 44  -21.0072 26059.9 -03377.9 -07.3856 26277.9
 02 01 2013  20 45  -21.0070 26060.0 -03378.1 -07.3860 26278.0
 02 01 2013  20 46  -21.0069 26060.0 -03378.3 -07.3863 26278.1
 02 01 2013  20 47  -21.0066 26060.0 -03378.4 -07.3866 26278.1
 02 01 2013  20 48  -21.0065 26060.0 -03378.6 -07.3869 26278.1
 02 01 2013  20 49  -21.0066 26059.9 -03378.7 -07.3872 26278.0
 02 01 2013  20 50  -21.0065 26059.8 -03378.7 -07.3873 26277.9
 02 01 2013  20 51  -21.0064 26059.6 -03378.8 -07.3876 26277.8
 02 01 2013  20 52  -21.0064 26059.6 -03378.9 -07.3878 26277.7
 02 01 2013  20 53  -21.0062 26059.5 -03379.0 -07.3880 26277.7
 02 01 2013  20 54  -21.0060 26059.5 -03379.2 -07.3884 26277.7
 02 01 2013  20 55  -21.0060 26059.4 -03379.3 -07.3888 26277.6
 02 01 2013  20 56  -21.0060 26059.4 -03379.4 -07.3890 26277.6
 02 01 2013  20 57  -21.0060 26059.4 -03379.6 -07.3893 26277.6
 02 01 2013  20 58  -21.0060 26059.3 -03379.6 -07.3894 26277.5
 02 01 2013  20 59  -21.0060 26059.3 -03379.8 -07.3897 26277.5
 02 01 2013  21 00  -21.0059 26059.2 -03379.9 -07.3899 26277.5
 02 01 2013  21 01  -21.0059 26059.1 -03379.9 -07.3901 26277.4
 02 01 2013  21 02  -21.0059 26059.1 -03380.0 -07.3903 26277.4
 02 01 2013  21 03  -21.0058 26059.1 -03380.1 -07.3905 26277.4
 02 01 2013  21 04  -21.0058 26059.0 -03380.1 -07.3905 26277.3
 02 01 2013  21 05  -21.0057 26058.9 -03380.1 -07.3907 26277.2
 02 01 2013  21 06  -21.0056 26058.8 -03380.2 -07.3908 26277.1
 02 01 2013  21 07  -21.0055 26058.7 -03380.3 -07.3909 26277.0
 02 01 2013  21 08  -21.0054 26058.7 -03380.3 -07.3911 26277.0
 02 01 2013  21 09  -21.0051 26058.6 -03380.4 -07.3912 26277.0
 02 01 2013  21 10  -21.0049 26058.6 -03380.4 -07.3913 26277.0
 02 01 2013  21 11  -21.0047 26058.7 -03380.5 -07.3916 26277.0
 02 01 2013  21 12  -21.0044 26058.8 -03380.7 -07.3919 26277.2
 02 01 2013  21 13  -21.0042 26058.9 -03380.9 -07.3922 26277.4
 02 01 2013  21 14  -21.0038 26059.0 -03380.9 -07.3923 26277.4
 02 01 2013  21 15  -21.0036 26059.0 -03381.1 -07.3927 26277.4
 02 01 2013  21 16  -21.0034 26059.0 -03381.2 -07.3930 26277.5
 02 01 2013  21 17  -21.0032 26058.8 -03381.2 -07.3931 26277.3
 02 01 2013  21 18  -21.0031 26058.8 -03381.3 -07.3932 26277.2
 02 01 2013  21 19  -21.0028 26059.0 -03381.5 -07.3936 26277.5
 02 01 2013  21 20  -21.0021 26059.5 -03381.9 -07.3943 26278.1
 02 01 2013  21 21  -21.0016 26060.0 -03382.3 -07.3950 26278.6
 02 01 2013  21 22  -21.0014 26060.2 -03382.5 -07.3954 26278.8
 02 01 2013  21 23  -21.0012 26060.2 -03382.7 -07.3958 26278.8
 02 01 2013  21 24  -21.0012 26060.0 -03382.7 -07.3958 26278.7
 02 01 2013  21 25  -21.0012 26059.9 -03382.7 -07.3960 26278.6
 02 01 2013  21 26  -21.0013 26059.8 -03382.7 -07.3960 26278.4
 02 01 2013  21 27  -21.0016 26059.5 -03382.7 -07.3961 26278.1
 02 01 2013  21 28  -21.0022 26059.2 -03382.7 -07.3960 26277.8
 02 01 2013  21 29  -21.0028 26058.9 -03382.6 -07.3960 26277.5
 02 01 2013  21 30  -21.0032 26058.7 -03382.6 -07.3960 26277.4
 02 01 2013  21 31  -21.0034 26058.6 -03382.6 -07.3961 26277.3
 02 01 2013  21 32  -21.0035 26058.6 -03382.6 -07.3961 26277.2
 02 01 2013  21 33  -21.0035 26058.6 -03382.7 -07.3963 26277.2
 02 01 2013  21 34  -21.0027 26058.7 -03382.8 -07.3965 26277.4
 02 01 2013  21 35  -21.0030 26058.8 -03382.9 -07.3967 26277.5
 02 01 2013  21 36  -21.0030 26058.8 -03383.0 -07.3969 26277.4
 02 01 2013  21 37  -21.0027 26058.8 -03383.1 -07.3970 26277.4
 02 01 2013  21 38  -21.0025 26058.8 -03383.2 -07.3972 26277.5
 02 01 2013  21 39  -21.0026 26058.7 -03383.2 -07.3973 26277.4
 02 01 2013  21 40  -21.0028 26058.4 -03383.1 -07.3973 26277.1
 02 01 2013  21 41  -21.0029 26058.3 -03383.2 -07.3973 26277.0
 02 01 2013  21 42  -21.0029 26058.4 -03383.2 -07.3975 26277.1
 02 01 2013  21 43  -21.0026 26058.4 -03383.4 -07.3977 26277.2
 02 01 2013  21 44  -21.0024 26058.5 -03383.5 -07.3980 26277.3
 02 01 2013  21 45  -21.0023 26058.6 -03383.6 -07.3982 26277.4
 02 01 2013  21 46  -21.0021 26058.5 -03383.6 -07.3983 26277.3
 02 01 2013  21 47  -21.0021 26058.5 -03383.7 -07.3985 26277.3
 02 01 2013  21 48  -21.0023 26058.4 -03383.7 -07.3986 26277.2
 02 01 2013  21 49  -21.0024 26058.3 -03383.7 -07.3986 26277.1
 02 01 2013  21 50  -21.0024 26058.2 -03383.8 -07.3987 26277.0
 02 01 2013  21 51  -21.0027 26058.2 -03383.8 -07.3988 26277.0
 02 01 2013  21 52  -21.0029 26058.0 -03383.8 -07.3988 26276.8
 02 01 2013  21 53  -21.0033 26057.8 -03383.8 -07.3988 26276.6
 02 01 2013  21 54  -21.0037 26057.6 -03383.8 -07.3989 26276.4
 02 01 2013  21 55  -21.0041 26057.5 -03383.7 -07.3988 26276.3
 02 01 2013  21 56  -21.0043 26057.3 -03383.7 -07.3988 26276.1
 02 01 2013  21 57  -21.0045 26057.2 -03383.7 -07.3988 26276.0
 02 01 2013  21 58  -21.0048 26057.1 -03383.7 -07.3989 26275.9
 02 01 2013  21 59  -21.0048 26057.1 -03383.8 -07.3990 26275.9
 02 01 2013  22 00  -21.0048 26057.3 -03383.9 -07.3993 26276.1
 02 01 2013  22 01  -21.0044 26057.5 -03384.1 -07.3995 26276.3
 02 01 2013  22 02  -21.0041 26057.7 -03384.2 -07.3998 26276.5
 02 01 2013  22 03  -20.9865 26057.7 -03373.7 -07.3771 26275.2
 02 01 2013  22 04  -21.0037 26057.7 -03384.3 -07.4000 26276.6
 02 01 2013  22 05  -21.0038 26057.6 -03384.3 -07.4000 26276.4
 02 01 2013  22 06  -21.0040 26057.3 -03384.3 -07.4000 26276.2
 02 01 2013  22 07  -21.0041 26057.1 -03384.2 -07.3999 26276.0
 02 01 2013  22 08  -21.0044 26056.9 -03384.1 -07.3998 26275.7
 02 01 2013  22 09  -21.0045 26056.7 -03384.0 -07.3997 26275.5
 02 01 2013  22 10  -21.0043 26056.7 -03384.1 -07.3998 26275.6
 02 01 2013  22 11  -21.0039 26056.9 -03384.2 -07.4000 26275.7
 02 01 2013  22 12  -21.0034 26057.0 -03384.3 -07.4002 26275.9
 02 01 2013  22 13  -21.0033 26057.4 -03384.5 -07.4005 26276.3
 02 01 2013  22 14  -21.0031 26057.3 -03384.6 -07.4007 26276.2
 02 01 2013  22 15  -21.0031 26056.9 -03384.4 -07.4005 26275.8
 02 01 2013  22 16  -21.0034 26056.7 -03384.4 -07.4005 26275.6
 02 01 2013  22 17  -21.0037 26056.7 -03384.4 -07.4005 26275.6
 02 01 2013  22 18  -21.0039 26056.7 -03384.5 -07.4006 26275.5
 02 01 2013  22 19  -21.0041 26056.2 -03384.3 -07.4003 26275.1
 02 01 2013  22 20  -21.0043 26056.0 -03384.2 -07.4002 26274.9
 02 01 2013  22 21  -21.0045 26056.0 -03384.2 -07.4002 26274.9
 02 01 2013  22 22  -21.0045 26055.9 -03384.2 -07.4002 26274.8
 02 01 2013  22 23  -21.0044 26055.8 -03384.1 -07.4002 26274.6
 02 01 2013  22 24  -21.0042 26055.8 -03384.2 -07.4002 26274.6
 02 01 2013  22 25  -21.0040 26055.8 -03384.2 -07.4003 26274.7
 02 01 2013  22 26  -21.0038 26055.7 -03384.2 -07.4003 26274.6
 02 01 2013  22 27  -21.0038 26055.6 -03384.2 -07.4003 26274.4
 02 01 2013  22 28  -21.0039 26055.2 -03384.0 -07.4001 26274.0
 02 01 2013  22 29  -21.0041 26054.9 -03383.9 -07.4000 26273.8
 02 01 2013  22 30  -21.0041 26054.8 -03383.9 -07.3999 26273.6
 02 01 2013  22 31  -21.0039 26054.5 -03383.8 -07.3998 26273.3
 02 01 2013  22 32  -21.0040 26054.3 -03383.7 -07.3997 26273.1
 02 01 2013  22 33  -21.0039 26054.1 -03383.7 -07.3996 26272.9
 02 01 2013  22 34  -21.0037 26054.1 -03383.7 -07.3997 26273.0
 02 01 2013  22 35  -21.0032 26054.2 -03383.7 -07.3998 26273.0
 02 01 2013  22 36  -21.0027 26054.4 -03383.9 -07.4000 26273.2
 02 01 2013  22 37  -21.0023 26054.6 -03384.0 -07.4003 26273.4
 02 01 2013  22 38  -21.0018 26054.6 -03384.1 -07.4003 26273.4
 02 01 2013  22 39  -21.0013 26054.7 -03384.2 -07.4005 26273.5
 02 01 2013  22 40  -21.0010 26054.6 -03384.2 -07.4006 26273.5
 02 01 2013  22 41  -21.0008 26054.6 -03384.2 -07.4007 26273.5
 02 01 2013  22 42  -21.0008 26054.5 -03384.2 -07.4007 26273.3
 02 01 2013  22 43  -21.0010 26054.4 -03384.3 -07.4008 26273.3
 02 01 2013  22 44  -21.0011 26054.2 -03384.2 -07.4008 26273.1
 02 01 2013  22 45  -21.0011 26054.3 -03384.2 -07.4008 26273.2
 02 01 2013  22 46  -21.0009 26054.6 -03384.4 -07.4011 26273.5
 02 01 2013  22 47  -21.0010 26054.3 -03384.3 -07.4010 26273.2
 02 01 2013  22 48  -21.0012 26053.9 -03384.2 -07.4008 26272.8
 02 01 2013  22 49  -21.0017 26053.6 -03384.0 -07.4006 26272.4
 02 01 2013  22 50  -21.0022 26053.7 -03384.1 -07.4007 26272.5
 02 01 2013  22 51  -21.0024 26053.5 -03384.1 -07.4006 26272.3
 02 01 2013  22 52  -21.0027 26053.4 -03384.1 -07.4007 26272.3
 02 01 2013  22 53  -21.0027 26053.5 -03384.1 -07.4007 26272.4
 02 01 2013  22 54  -21.0020 26053.7 -03384.2 -07.4009 26272.6
 02 01 2013  22 55  -21.0010 26054.0 -03384.4 -07.4011 26272.9
 02 01 2013  22 56  -21.0001 26054.3 -03384.5 -07.4013 26273.2
 02 01 2013  22 57  -20.9995 26054.6 -03384.7 -07.4016 26273.5
 02 01 2013  22 58  -20.9992 26054.8 -03384.8 -07.4019 26273.8
 02 01 2013  22 59  -20.9989 26054.9 -03384.9 -07.4021 26273.8
 02 01 2013  23 00  -20.9988 26054.7 -03384.9 -07.4020 26273.7
 02 01 2013  23 01  -20.9988 26054.7 -03384.9 -07.4021 26273.7
 02 01 2013  23 02  -20.9986 26054.9 -03385.0 -07.4023 26273.9
 02 01 2013  23 03  -20.9984 26054.8 -03385.0 -07.4023 26273.7
 02 01 2013  23 04  -20.9983 26054.9 -03385.1 -07.4025 26273.9
 02 01 2013  23 05  -20.9983 26054.7 -03385.0 -07.4024 26273.7
 02 01 2013  23 06  -20.9983 26054.5 -03384.9 -07.4022 26273.5
 02 01 2013  23 07  -20.9982 26054.9 -03385.1 -07.4025 26273.8
 02 01 2013  23 08  -20.9981 26054.5 -03385.0 -07.4024 26273.5
 02 01 2013  23 09  -20.9983 26054.4 -03384.9 -07.4023 26273.4
 02 01 2013  23 10  -20.9981 26054.5 -03385.0 -07.4024 26273.5
 02 01 2013  23 11  -20.9978 26054.5 -03385.0 -07.4024 26273.5
 02 01 2013  23 12  -20.9976 26054.4 -03385.1 -07.4026 26273.4
 02 01 2013  23 13  -20.9976 26054.3 -03385.0 -07.4024 26273.2
 02 01 2013  23 14  -20.9973 26054.6 -03385.2 -07.4027 26273.6
 02 01 2013  23 15  -20.9969 26054.6 -03385.2 -07.4028 26273.6
 02 01 2013  23 16  -20.9968 26054.2 -03385.1 -07.4026 26273.2
 02 01 2013  23 17  -20.9968 26054.4 -03385.2 -07.4028 26273.4
 02 01 2013  23 18  -20.9966 26054.5 -03385.3 -07.4030 26273.5
 02 01 2013  23 19  -20.9965 26054.6 -03385.3 -07.4031 26273.6
 02 01 2013  23 20  -20.9964 26054.6 -03385.4 -07.4032 26273.6
 02 01 2013  23 21  -20.9964 26054.7 -03385.5 -07.4033 26273.8
 02 01 2013  23 22  -20.9965 26054.7 -03385.5 -07.4034 26273.8
 02 01 2013  23 23  -20.9965 26054.8 -03385.6 -07.4035 26273.8
 02 01 2013  23 24  -20.9964 26054.8 -03385.6 -07.4036 26273.9
 02 01 2013  23 25  -20.9964 26054.8 -03385.6 -07.4036 26273.9
 02 01 2013  23 26  -20.9964 26054.9 -03385.7 -07.4037 26274.0
 02 01 2013  23 27  -20.9963 26055.0 -03385.7 -07.4038 26274.0
 02 01 2013  23 28  -20.9964 26055.0 -03385.7 -07.4038 26274.1
 02 01 2013  23 29  -20.9965 26055.1 -03385.8 -07.4039 26274.2
 02 01 2013  23 30  -20.9965 26055.3 -03385.8 -07.4039 26274.3
 02 01 2013  23 31  -20.9960 26055.2 -03385.8 -07.4039 26274.3
 02 01 2013  23 32  -20.9961 26055.3 -03385.9 -07.4040 26274.4
 02 01 2013  23 33  -20.9962 26055.4 -03385.9 -07.4041 26274.5
 02 01 2013  23 34  -20.9963 26055.4 -03385.9 -07.4042 26274.5
 02 01 2013  23 35  -20.9963 26055.4 -03385.9 -07.4041 26274.5
 02 01 2013  23 36  -20.9964 26055.4 -03385.9 -07.4041 26274.5
 02 01 2013  23 37  -20.9966 26055.4 -03385.9 -07.4041 26274.5
 02 01 2013  23 38  -20.9967 26055.4 -03385.9 -07.4041 26274.5
 02 01 2013  23 39  -20.9967 26055.5 -03386.0 -07.4042 26274.6
 02 01 2013  23 40  -20.9969 26055.6 -03386.0 -07.4042 26274.7
 02 01 2013  23 41  -20.9969 26055.7 -03386.0 -07.4043 26274.8
 02 01 2013  23 42  -20.9969 26055.6 -03386.0 -07.4042 26274.7
 02 01 2013  23 43  -20.9970 26055.8 -03386.1 -07.4043 26274.9
 02 01 2013  23 44  -20.9972 26056.0 -03386.1 -07.4044 26275.1
 02 01 2013  23 45  -20.9974 26056.1 -03386.2 -07.4045 26275.2
 02 01 2013  23 46  -20.9975 26056.2 -03386.2 -07.4045 26275.3
 02 01 2013  23 47  -20.9975 26056.3 -03386.3 -07.4046 26275.4
 02 01 2013  23 48  -20.9977 26056.5 -03386.3 -07.4046 26275.6
 02 01 2013  23 49  -20.9979 26056.5 -03386.3 -07.4047 26275.7
 02 01 2013  23 50  -20.9980 26056.5 -03386.3 -07.4046 26275.6
 02 01 2013  23 51  -20.9982 26056.5 -03386.2 -07.4045 26275.6
 02 01 2013  23 52  -20.9984 26056.5 -03386.2 -07.4044 26275.7
 02 01 2013  23 53  -20.9987 26056.6 -03386.2 -07.4044 26275.7
 02 01 2013  23 54  -20.9989 26056.6 -03386.2 -07.4044 26275.7
 02 01 2013  23 55  -20.9992 26056.5 -03386.1 -07.4043 26275.6
 02 01 2013  23 56  -20.9993 26056.5 -03386.1 -07.4042 26275.6
 02 01 2013  23 57  -20.9994 26056.5 -03386.0 -07.4041 26275.6
 02 01 2013  23 58  -20.9991 26056.6 -03386.0 -07.4040 26275.7
