SAO LUIS EMBRACE-03 <123> 1 Min. Reported data

 DD MM YYYY  HH MM   D(Deg)  H(nT)   Z(nT)   I(Deg)   F(nT)

 03 05 2013  00 00  -21.0579 26013.7 -03435.3 -07.5227 26239.5
 03 05 2013  00 01  -21.0578 26013.8 -03435.3 -07.5228 26239.6
 03 05 2013  00 02  -21.0578 26013.8 -03435.3 -07.5228 26239.6
 03 05 2013  00 03  -21.0579 26013.7 -03435.3 -07.5228 26239.5
 03 05 2013  00 04  -21.0579 26013.6 -03435.3 -07.5227 26239.4
 03 05 2013  00 05  -21.0579 26013.4 -03435.2 -07.5226 26239.3
 03 05 2013  00 06  -21.0578 26013.3 -03435.1 -07.5225 26239.1
 03 05 2013  00 07  -21.0577 26013.1 -03435.0 -07.5223 26238.9
 03 05 2013  00 08  -21.0576 26013.0 -03435.0 -07.5223 26238.8
 03 05 2013  00 09  -21.0576 26013.1 -03435.0 -07.5223 26238.9
 03 05 2013  00 10  -21.0576 26013.1 -03435.0 -07.5224 26238.9
 03 05 2013  00 11  -21.0576 26013.0 -03435.1 -07.5224 26238.8
 03 05 2013  00 12  -21.0575 26012.9 -03435.0 -07.5224 26238.7
 03 05 2013  00 13  -21.0574 26013.0 -03435.0 -07.5224 26238.8
 03 05 2013  00 14  -21.0572 26013.0 -03435.1 -07.5225 26238.9
 03 05 2013  00 15  -21.0569 26013.3 -03435.2 -07.5226 26239.1
 03 05 2013  00 16  -21.0565 26013.8 -03435.5 -07.5231 26239.7
 03 05 2013  00 17  -21.0561 26014.4 -03435.8 -07.5236 26240.3
 03 05 2013  00 18  -21.0560 26014.8 -03436.0 -07.5239 26240.7
 03 05 2013  00 19  -21.0560 26014.9 -03436.0 -07.5240 26240.9
 03 05 2013  00 20  -21.0561 26015.0 -03436.1 -07.5241 26240.9
 03 05 2013  00 21  -21.0562 26015.0 -03436.0 -07.5240 26241.0
 03 05 2013  00 22  -21.0563 26015.0 -03436.0 -07.5240 26240.9
 03 05 2013  00 23  -21.0563 26015.0 -03436.0 -07.5239 26240.9
 03 05 2013  00 24  -21.0564 26015.0 -03435.9 -07.5238 26240.9
 03 05 2013  00 25  -21.0565 26014.9 -03435.9 -07.5237 26240.8
 03 05 2013  00 26  -21.0568 26014.7 -03435.8 -07.5236 26240.7
 03 05 2013  00 27  -21.0572 26014.7 -03435.7 -07.5234 26240.5
 03 05 2013  00 28  -21.0574 26014.7 -03435.7 -07.5234 26240.5
 03 05 2013  00 29  -21.0575 26014.6 -03435.6 -07.5233 26240.5
 03 05 2013  00 30  -21.0576 26014.4 -03435.5 -07.5231 26240.3
 03 05 2013  00 31  -21.0577 26014.3 -03435.4 -07.5229 26240.2
 03 05 2013  00 32  -21.0579 26014.3 -03435.4 -07.5229 26240.1
 03 05 2013  00 33  -21.0578 26014.3 -03435.4 -07.5229 26240.1
 03 05 2013  00 34  -21.0577 26014.3 -03435.4 -07.5229 26240.2
 03 05 2013  00 35  -21.0575 26014.4 -03435.4 -07.5229 26240.2
 03 05 2013  00 36  -21.0573 26014.5 -03435.5 -07.5230 26240.4
 03 05 2013  00 37  -21.0571 26014.6 -03435.5 -07.5230 26240.5
 03 05 2013  00 38  -21.0569 26014.7 -03435.6 -07.5231 26240.6
 03 05 2013  00 39  -21.0568 26014.9 -03435.6 -07.5232 26240.8
 03 05 2013  00 40  -21.0567 26015.0 -03435.7 -07.5233 26240.9
 03 05 2013  00 41  -21.0566 26015.0 -03435.7 -07.5233 26240.9
 03 05 2013  00 42  -21.0566 26015.1 -03435.7 -07.5233 26241.0
 03 05 2013  00 43  -21.0566 26015.1 -03435.7 -07.5232 26241.0
 03 05 2013  00 44  -21.0566 26015.0 -03435.6 -07.5231 26240.9
 03 05 2013  00 45  -21.0567 26015.0 -03435.6 -07.5230 26240.9
 03 05 2013  00 46  -21.0566 26014.9 -03435.5 -07.5229 26240.8
 03 05 2013  00 47  -21.0566 26014.8 -03435.5 -07.5228 26240.7
 03 05 2013  00 48  -21.0565 26014.7 -03435.4 -07.5228 26240.6
 03 05 2013  00 49  -21.0564 26014.7 -03435.4 -07.5226 26240.5
 03 05 2013  00 50  -21.0562 26014.6 -03435.3 -07.5226 26240.5
 03 05 2013  00 51  -21.0561 26014.5 -03435.3 -07.5226 26240.4
 03 05 2013  00 52  -21.0559 26014.4 -03435.3 -07.5225 26240.3
 03 05 2013  00 53  -21.0557 26014.4 -03435.3 -07.5225 26240.3
 03 05 2013  00 54  -21.0554 26014.5 -03435.3 -07.5226 26240.4
 03 05 2013  00 55  -21.0552 26014.6 -03435.4 -07.5227 26240.5
 03 05 2013  00 56  -21.0551 26014.8 -03435.5 -07.5228 26240.6
 03 05 2013  00 57  -21.0550 26014.9 -03435.5 -07.5230 26240.7
 03 05 2013  00 58  -21.0549 26015.0 -03435.6 -07.5230 26240.9
 03 05 2013  00 59  -21.0549 26015.0 -03435.6 -07.5231 26240.9
 03 05 2013  01 00  -21.0548 26015.0 -03435.6 -07.5230 26240.9
 03 05 2013  01 01  -21.0549 26014.9 -03435.6 -07.5230 26240.8
 03 05 2013  01 02  -21.0550 26014.7 -03435.5 -07.5229 26240.6
 03 05 2013  01 03  -21.0551 26014.5 -03435.4 -07.5227 26240.4
 03 05 2013  01 04  -21.0550 26014.4 -03435.3 -07.5226 26240.2
 03 05 2013  01 05  -21.0549 26014.1 -03435.2 -07.5225 26240.0
 03 05 2013  01 06  -21.0549 26013.9 -03435.1 -07.5223 26239.7
 03 05 2013  01 07  -21.0548 26013.8 -03435.0 -07.5222 26239.6
 03 05 2013  01 08  -21.0548 26013.6 -03435.0 -07.5222 26239.5
 03 05 2013  01 09  -21.0548 26013.5 -03435.0 -07.5221 26239.3
 03 05 2013  01 10  -21.0547 26013.4 -03435.0 -07.5221 26239.2
 03 05 2013  01 11  -21.0548 26013.3 -03434.9 -07.5221 26239.1
 03 05 2013  01 12  -21.0549 26013.1 -03434.9 -07.5221 26238.9
 03 05 2013  01 13  -21.0548 26013.0 -03434.9 -07.5221 26238.9
 03 05 2013  01 14  -21.0548 26013.0 -03434.9 -07.5221 26238.8
 03 05 2013  01 15  -21.0548 26013.0 -03434.9 -07.5222 26238.8
 03 05 2013  01 16  -21.0549 26012.9 -03434.9 -07.5222 26238.7
 03 05 2013  01 17  -21.0549 26012.9 -03434.9 -07.5222 26238.7
 03 05 2013  01 18  -21.0549 26012.8 -03434.9 -07.5223 26238.6
 03 05 2013  01 19  -21.0550 26012.7 -03434.9 -07.5222 26238.5
 03 05 2013  01 20  -21.0550 26012.6 -03434.9 -07.5221 26238.5
 03 05 2013  01 21  -21.0548 26012.5 -03434.8 -07.5221 26238.3
 03 05 2013  01 22  -21.0547 26012.4 -03434.8 -07.5221 26238.2
 03 05 2013  01 23  -21.0545 26012.4 -03434.8 -07.5222 26238.2
 03 05 2013  01 24  -21.0543 26012.5 -03434.9 -07.5223 26238.3
 03 05 2013  01 25  -21.0541 26012.6 -03435.0 -07.5224 26238.4
 03 05 2013  01 26  -21.0540 26012.8 -03435.1 -07.5226 26238.6
 03 05 2013  01 27  -21.0538 26012.9 -03435.2 -07.5228 26238.8
 03 05 2013  01 28  -21.0536 26013.0 -03435.3 -07.5230 26238.9
 03 05 2013  01 29  -21.0535 26013.0 -03435.3 -07.5230 26238.9
 03 05 2013  01 30  -21.0535 26013.1 -03435.3 -07.5231 26238.9
 03 05 2013  01 31  -21.0535 26013.2 -03435.4 -07.5231 26239.0
 03 05 2013  01 32  -21.0536 26013.3 -03435.5 -07.5233 26239.2
 03 05 2013  01 33  -21.0536 26013.4 -03435.6 -07.5235 26239.3
 03 05 2013  01 34  -21.0535 26013.5 -03435.6 -07.5235 26239.4
 03 05 2013  01 35  -21.0534 26013.5 -03435.6 -07.5235 26239.4
 03 05 2013  01 36  -21.0534 26013.6 -03435.6 -07.5235 26239.4
 03 05 2013  01 37  -21.0533 26013.5 -03435.6 -07.5235 26239.4
 03 05 2013  01 38  -21.0531 26013.6 -03435.6 -07.5235 26239.5
 03 05 2013  01 39  -21.0530 26013.5 -03435.6 -07.5235 26239.4
 03 05 2013  01 40  -21.0529 26013.7 -03435.7 -07.5236 26239.6
 03 05 2013  01 41  -21.0529 26013.7 -03435.7 -07.5237 26239.6
 03 05 2013  01 42  -21.0529 26013.6 -03435.7 -07.5237 26239.5
 03 05 2013  01 43  -21.0530 26013.6 -03435.7 -07.5236 26239.5
 03 05 2013  01 44  -21.0529 26013.5 -03435.6 -07.5236 26239.4
 03 05 2013  01 45  -21.0531 26013.5 -03435.6 -07.5235 26239.4
 03 05 2013  01 46  -21.0532 26013.6 -03435.6 -07.5236 26239.5
 03 05 2013  01 47  -21.0533 26013.6 -03435.7 -07.5236 26239.5
 03 05 2013  01 48  -21.0533 26013.8 -03435.8 -07.5237 26239.7
 03 05 2013  01 49  -21.0533 26013.8 -03435.8 -07.5238 26239.7
 03 05 2013  01 50  -21.0533 26013.8 -03435.8 -07.5238 26239.7
 03 05 2013  01 51  -21.0532 26014.0 -03435.9 -07.5239 26239.9
 03 05 2013  01 52  -21.0533 26013.9 -03435.8 -07.5239 26239.8
 03 05 2013  01 53  -21.0536 26013.8 -03435.8 -07.5238 26239.7
 03 05 2013  01 54  -21.0537 26013.8 -03435.7 -07.5237 26239.7
 03 05 2013  01 55  -21.0537 26013.7 -03435.7 -07.5236 26239.6
 03 05 2013  01 56  -21.0538 26013.6 -03435.6 -07.5235 26239.5
 03 05 2013  01 57  -21.0537 26013.6 -03435.6 -07.5235 26239.5
 03 05 2013  01 58  -21.0535 26013.7 -03435.6 -07.5235 26239.6
 03 05 2013  01 59  -21.0534 26013.7 -03435.6 -07.5235 26239.5
 03 05 2013  02 00  -21.0533 26013.6 -03435.6 -07.5235 26239.5
 03 05 2013  02 01  -21.0532 26013.6 -03435.6 -07.5235 26239.5
 03 05 2013  02 02  -21.0531 26013.7 -03435.6 -07.5235 26239.6
 03 05 2013  02 03  -21.0530 26013.7 -03435.7 -07.5235 26239.6
 03 05 2013  02 04  -21.0532 26013.7 -03435.7 -07.5236 26239.6
 03 05 2013  02 05  -21.0532 26013.8 -03435.7 -07.5237 26239.7
 03 05 2013  02 06  -21.0535 26013.6 -03435.7 -07.5236 26239.5
 03 05 2013  02 07  -21.0537 26013.6 -03435.6 -07.5235 26239.5
 03 05 2013  02 08  -21.0539 26013.5 -03435.6 -07.5234 26239.4
 03 05 2013  02 09  -21.0540 26013.5 -03435.5 -07.5233 26239.3
 03 05 2013  02 10  -21.0541 26013.4 -03435.5 -07.5233 26239.3
 03 05 2013  02 11  -21.0542 26013.4 -03435.5 -07.5233 26239.3
 03 05 2013  02 12  -21.0542 26013.5 -03435.5 -07.5232 26239.3
 03 05 2013  02 13  -21.0543 26013.5 -03435.5 -07.5233 26239.4
 03 05 2013  02 14  -21.0543 26013.7 -03435.6 -07.5234 26239.5
 03 05 2013  02 15  -21.0542 26013.8 -03435.6 -07.5234 26239.7
 03 05 2013  02 16  -21.0542 26013.9 -03435.6 -07.5235 26239.7
 03 05 2013  02 17  -21.0541 26013.8 -03435.6 -07.5235 26239.7
 03 05 2013  02 18  -21.0542 26013.8 -03435.6 -07.5233 26239.7
 03 05 2013  02 19  -21.0538 26014.2 -03435.7 -07.5235 26240.1
 03 05 2013  02 20  -21.0541 26014.0 -03435.7 -07.5235 26239.9
 03 05 2013  02 21  -21.0539 26014.5 -03435.9 -07.5238 26240.4
 03 05 2013  02 22  -21.0539 26014.7 -03436.0 -07.5240 26240.6
 03 05 2013  02 23  -21.0539 26015.0 -03436.1 -07.5242 26240.9
 03 05 2013  02 24  -21.0538 26015.4 -03436.3 -07.5245 26241.4
 03 05 2013  02 25  -21.0536 26015.6 -03436.4 -07.5245 26241.6
 03 05 2013  02 26  -21.0535 26015.8 -03436.5 -07.5247 26241.8
 03 05 2013  02 27  -21.0533 26016.2 -03436.6 -07.5249 26242.2
 03 05 2013  02 28  -21.0534 26016.5 -03436.7 -07.5250 26242.5
 03 05 2013  02 29  -21.0532 26016.7 -03436.7 -07.5250 26242.7
 03 05 2013  02 30  -21.0530 26017.0 -03436.8 -07.5251 26243.0
 03 05 2013  02 31  -21.0532 26017.0 -03436.8 -07.5251 26243.0
 03 05 2013  02 32  -21.0530 26017.3 -03436.8 -07.5251 26243.3
 03 05 2013  02 33  -21.0531 26017.2 -03436.8 -07.5250 26243.2
 03 05 2013  02 34  -21.0530 26017.2 -03436.7 -07.5248 26243.2
 03 05 2013  02 35  -21.0529 26017.1 -03436.6 -07.5245 26243.1
 03 05 2013  02 36  -21.0526 26017.0 -03436.4 -07.5242 26243.0
 03 05 2013  02 37  -21.0524 26016.9 -03436.3 -07.5241 26242.9
 03 05 2013  02 38  -21.0523 26017.2 -03436.4 -07.5242 26243.1
 03 05 2013  02 39  -21.0522 26017.4 -03436.6 -07.5244 26243.4
 03 05 2013  02 40  -21.0522 26017.3 -03436.4 -07.5242 26243.2
 03 05 2013  02 41  -21.0519 26017.4 -03436.4 -07.5242 26243.3
 03 05 2013  02 42  -21.0517 26017.4 -03436.4 -07.5242 26243.3
 03 05 2013  02 43  -21.0516 26017.5 -03436.5 -07.5242 26243.4
 03 05 2013  02 44  -21.0516 26017.5 -03436.5 -07.5243 26243.5
 03 05 2013  02 45  -21.0516 26017.6 -03436.5 -07.5243 26243.5
 03 05 2013  02 46  -21.0516 26017.5 -03436.4 -07.5241 26243.4
 03 05 2013  02 47  -21.0516 26017.5 -03436.4 -07.5242 26243.5
 03 05 2013  02 48  -21.0517 26017.3 -03436.3 -07.5239 26243.3
 03 05 2013  02 49  -21.0518 26017.4 -03436.3 -07.5240 26243.4
 03 05 2013  02 50  -21.0519 26017.3 -03436.3 -07.5239 26243.2
 03 05 2013  02 51  -21.0516 26017.7 -03436.4 -07.5241 26243.7
 03 05 2013  02 52  -21.0512 26018.3 -03436.7 -07.5245 26244.3
 03 05 2013  02 53  -21.0512 26018.6 -03437.0 -07.5250 26244.7
 03 05 2013  02 54  -21.0509 26019.5 -03437.3 -07.5255 26245.6
 03 05 2013  02 55  -21.0514 26019.4 -03437.3 -07.5255 26245.5
 03 05 2013  02 56  -21.0511 26020.2 -03437.6 -07.5258 26246.3
 03 05 2013  02 57  -21.0515 26019.9 -03437.5 -07.5257 26246.0
 03 05 2013  02 58  -21.0515 26020.4 -03437.6 -07.5258 26246.5
 03 05 2013  02 59  -21.0519 26020.5 -03437.5 -07.5257 26246.6
 03 05 2013  03 00  -21.0518 26020.7 -03437.6 -07.5258 26246.8
 03 05 2013  03 01  -21.0517 26020.7 -03437.5 -07.5256 26246.8
 03 05 2013  03 02  -21.0517 26020.8 -03437.5 -07.5255 26246.9
 03 05 2013  03 03  -21.0517 26020.7 -03437.4 -07.5252 26246.8
 03 05 2013  03 04  -21.0515 26020.8 -03437.4 -07.5252 26246.9
 03 05 2013  03 05  -21.0513 26020.8 -03437.3 -07.5251 26246.8
 03 05 2013  03 06  -21.0512 26020.9 -03437.3 -07.5251 26246.9
 03 05 2013  03 07  -21.0513 26020.7 -03437.2 -07.5249 26246.8
 03 05 2013  03 08  -21.0512 26020.9 -03437.2 -07.5249 26246.9
 03 05 2013  03 09  -21.0513 26020.5 -03437.1 -07.5246 26246.5
 03 05 2013  03 10  -21.0513 26020.6 -03437.0 -07.5245 26246.6
 03 05 2013  03 11  -21.0514 26020.4 -03436.9 -07.5244 26246.4
 03 05 2013  03 12  -21.0513 26020.3 -03436.9 -07.5243 26246.3
 03 05 2013  03 13  -21.0511 26020.4 -03436.9 -07.5243 26246.4
 03 05 2013  03 14  -21.0510 26020.2 -03436.8 -07.5242 26246.1
 03 05 2013  03 15  -21.0511 26020.0 -03436.7 -07.5240 26245.9
 03 05 2013  03 16  -21.0512 26019.9 -03436.7 -07.5239 26245.9
 03 05 2013  03 17  -21.0514 26019.8 -03436.6 -07.5238 26245.7
 03 05 2013  03 18  -21.0516 26019.6 -03436.5 -07.5237 26245.5
 03 05 2013  03 19  -21.0518 26019.3 -03436.4 -07.5236 26245.3
 03 05 2013  03 20  -21.0518 26019.3 -03436.4 -07.5236 26245.3
 03 05 2013  03 21  -21.0519 26019.2 -03436.4 -07.5236 26245.1
 03 05 2013  03 22  -21.0522 26018.8 -03436.2 -07.5233 26244.8
 03 05 2013  03 23  -21.0526 26018.8 -03436.2 -07.5233 26244.7
 03 05 2013  03 24  -21.0527 26018.8 -03436.2 -07.5233 26244.7
 03 05 2013  03 25  -21.0529 26018.5 -03436.1 -07.5231 26244.4
 03 05 2013  03 26  -21.0530 26018.3 -03436.0 -07.5229 26244.2
 03 05 2013  03 27  -21.0532 26018.2 -03436.0 -07.5229 26244.1
 03 05 2013  03 28  -21.0531 26018.1 -03435.9 -07.5229 26244.0
 03 05 2013  03 29  -21.0530 26018.1 -03435.9 -07.5228 26244.0
 03 05 2013  03 30  -21.0531 26018.0 -03435.9 -07.5228 26243.9
 03 05 2013  03 31  -21.0532 26017.9 -03435.9 -07.5228 26243.8
 03 05 2013  03 32  -21.0534 26017.9 -03435.8 -07.5227 26243.7
 03 05 2013  03 33  -21.0534 26017.8 -03435.9 -07.5228 26243.7
 03 05 2013  03 34  -21.0534 26017.6 -03435.8 -07.5228 26243.5
 03 05 2013  03 35  -21.0534 26017.5 -03435.7 -07.5227 26243.4
 03 05 2013  03 36  -21.0533 26017.4 -03435.7 -07.5226 26243.3
 03 05 2013  03 37  -21.0533 26017.3 -03435.7 -07.5227 26243.2
 03 05 2013  03 38  -21.0534 26017.2 -03435.7 -07.5227 26243.1
 03 05 2013  03 39  -21.0534 26017.1 -03435.7 -07.5227 26243.0
 03 05 2013  03 40  -21.0534 26017.0 -03435.6 -07.5226 26242.8
 03 05 2013  03 41  -21.0534 26016.8 -03435.6 -07.5226 26242.7
 03 05 2013  03 42  -21.0535 26016.6 -03435.5 -07.5225 26242.5
 03 05 2013  03 43  -21.0536 26016.5 -03435.5 -07.5224 26242.4
 03 05 2013  03 44  -21.0538 26016.4 -03435.5 -07.5224 26242.2
 03 05 2013  03 45  -21.0538 26016.2 -03435.4 -07.5224 26242.1
 03 05 2013  03 46  -21.0538 26016.0 -03435.4 -07.5223 26241.9
 03 05 2013  03 47  -21.0538 26015.9 -03435.3 -07.5222 26241.7
 03 05 2013  03 48  -21.0537 26015.8 -03435.3 -07.5222 26241.6
 03 05 2013  03 49  -21.0538 26015.7 -03435.3 -07.5223 26241.6
 03 05 2013  03 50  -21.0540 26015.7 -03435.3 -07.5223 26241.5
 03 05 2013  03 51  -21.0540 26015.6 -03435.3 -07.5223 26241.4
 03 05 2013  03 52  -21.0541 26015.5 -03435.3 -07.5224 26241.4
 03 05 2013  03 53  -21.0542 26015.4 -03435.3 -07.5223 26241.3
 03 05 2013  03 54  -21.0541 26015.4 -03435.3 -07.5223 26241.2
 03 05 2013  03 55  -21.0542 26015.4 -03435.3 -07.5223 26241.3
 03 05 2013  03 56  -21.0544 26015.5 -03435.4 -07.5225 26241.3
 03 05 2013  03 57  -21.0545 26015.5 -03435.4 -07.5226 26241.4
 03 05 2013  03 58  -21.0546 26015.6 -03435.5 -07.5227 26241.5
 03 05 2013  03 59  -21.0549 26015.6 -03435.5 -07.5227 26241.5
 03 05 2013  04 00  -21.0552 26015.6 -03435.5 -07.5227 26241.5
 03 05 2013  04 01  -21.0554 26015.7 -03435.6 -07.5228 26241.5
 03 05 2013  04 02  -21.0555 26015.6 -03435.5 -07.5227 26241.5
 03 05 2013  04 03  -21.0555 26015.6 -03435.4 -07.5226 26241.4
 03 05 2013  04 04  -21.0554 26015.5 -03435.4 -07.5225 26241.3
 03 05 2013  04 05  -21.0552 26015.5 -03435.4 -07.5224 26241.3
 03 05 2013  04 06  -21.0551 26015.5 -03435.4 -07.5224 26241.3
 03 05 2013  04 07  -21.0551 26015.5 -03435.4 -07.5225 26241.4
 03 05 2013  04 08  -21.0550 26015.6 -03435.4 -07.5224 26241.4
 03 05 2013  04 09  -21.0549 26015.5 -03435.4 -07.5225 26241.4
 03 05 2013  04 10  -21.0549 26015.5 -03435.4 -07.5225 26241.4
 03 05 2013  04 11  -21.0549 26015.5 -03435.4 -07.5225 26241.3
 03 05 2013  04 12  -21.0549 26015.4 -03435.4 -07.5225 26241.3
 03 05 2013  04 13  -21.0547 26015.3 -03435.3 -07.5224 26241.2
 03 05 2013  04 14  -21.0545 26015.3 -03435.3 -07.5224 26241.1
 03 05 2013  04 15  -21.0543 26015.2 -03435.3 -07.5223 26241.1
 03 05 2013  04 16  -21.0541 26015.2 -03435.3 -07.5223 26241.0
 03 05 2013  04 17  -21.0539 26015.1 -03435.3 -07.5224 26241.0
 03 05 2013  04 18  -21.0538 26015.1 -03435.3 -07.5223 26240.9
 03 05 2013  04 19  -21.0537 26015.2 -03435.3 -07.5225 26241.0
 03 05 2013  04 20  -21.0536 26015.2 -03435.4 -07.5225 26241.0
 03 05 2013  04 21  -21.0535 26015.2 -03435.4 -07.5226 26241.0
 03 05 2013  04 22  -21.0533 26015.2 -03435.4 -07.5226 26241.1
 03 05 2013  04 23  -21.0532 26015.3 -03435.5 -07.5227 26241.1
 03 05 2013  04 24  -21.0530 26015.2 -03435.5 -07.5227 26241.1
 03 05 2013  04 25  -21.0527 26015.2 -03435.5 -07.5227 26241.1
 03 05 2013  04 26  -21.0525 26015.2 -03435.5 -07.5228 26241.1
 03 05 2013  04 27  -21.0523 26015.3 -03435.6 -07.5229 26241.2
 03 05 2013  04 28  -21.0522 26015.3 -03435.6 -07.5230 26241.2
 03 05 2013  04 29  -21.0521 26015.4 -03435.7 -07.5232 26241.3
 03 05 2013  04 30  -21.0521 26015.5 -03435.8 -07.5233 26241.4
 03 05 2013  04 31  -21.0521 26015.6 -03435.8 -07.5234 26241.5
 03 05 2013  04 32  -21.0521 26015.7 -03436.0 -07.5236 26241.6
 03 05 2013  04 33  -21.0522 26015.8 -03436.0 -07.5237 26241.7
 03 05 2013  04 34  -21.0523 26015.8 -03436.0 -07.5237 26241.7
 03 05 2013  04 35  -21.0524 26015.8 -03436.0 -07.5237 26241.7
 03 05 2013  04 36  -21.0524 26015.9 -03436.0 -07.5238 26241.8
 03 05 2013  04 37  -21.0525 26016.0 -03436.1 -07.5239 26241.9
 03 05 2013  04 38  -21.0525 26016.1 -03436.2 -07.5240 26242.0
 03 05 2013  04 39  -21.0526 26016.1 -03436.2 -07.5240 26242.1
 03 05 2013  04 40  -21.0527 26016.2 -03436.2 -07.5240 26242.1
 03 05 2013  04 41  -21.0528 26016.1 -03436.1 -07.5239 26242.0
 03 05 2013  04 42  -21.0530 26015.9 -03436.0 -07.5237 26241.8
 03 05 2013  04 43  -21.0531 26016.0 -03436.0 -07.5237 26241.9
 03 05 2013  04 44  -21.0531 26016.2 -03436.2 -07.5240 26242.2
 03 05 2013  04 45  -21.0532 26016.4 -03436.3 -07.5241 26242.4
 03 05 2013  04 46  -21.0532 26016.4 -03436.3 -07.5241 26242.3
 03 05 2013  04 47  -21.0533 26016.2 -03436.1 -07.5239 26242.1
 03 05 2013  04 48  -21.0536 26015.9 -03436.0 -07.5237 26241.8
 03 05 2013  04 49  -21.0537 26015.6 -03435.9 -07.5235 26241.5
 03 05 2013  04 50  -21.0538 26015.5 -03435.8 -07.5233 26241.3
 03 05 2013  04 51  -21.0537 26015.4 -03435.7 -07.5232 26241.3
 03 05 2013  04 52  -21.0536 26015.4 -03435.7 -07.5231 26241.3
 03 05 2013  04 53  -21.0535 26015.4 -03435.7 -07.5231 26241.3
 03 05 2013  04 54  -21.0534 26015.4 -03435.7 -07.5232 26241.3
 03 05 2013  04 55  -21.0532 26015.5 -03435.7 -07.5232 26241.4
 03 05 2013  04 56  -21.0531 26015.5 -03435.8 -07.5233 26241.3
 03 05 2013  04 57  -21.0529 26015.4 -03435.8 -07.5233 26241.3
 03 05 2013  04 58  -21.0529 26015.2 -03435.7 -07.5232 26241.1
 03 05 2013  04 59  -21.0529 26015.1 -03435.7 -07.5232 26241.0
 03 05 2013  05 00  -21.0528 26015.2 -03435.7 -07.5232 26241.1
 03 05 2013  05 01  -21.0527 26015.1 -03435.7 -07.5232 26241.0
 03 05 2013  05 02  -21.0526 26015.1 -03435.7 -07.5232 26241.0
 03 05 2013  05 03  -21.0526 26015.1 -03435.7 -07.5232 26241.0
 03 05 2013  05 04  -21.0526 26015.0 -03435.7 -07.5232 26240.9
 03 05 2013  05 05  -21.0527 26015.0 -03435.7 -07.5232 26240.9
 03 05 2013  05 06  -21.0527 26015.0 -03435.7 -07.5233 26240.9
 03 05 2013  05 07  -21.0526 26015.0 -03435.7 -07.5232 26240.9
 03 05 2013  05 08  -21.0525 26015.0 -03435.7 -07.5233 26240.9
 03 05 2013  05 09  -21.0523 26015.0 -03435.7 -07.5233 26240.9
 03 05 2013  05 10  -21.0522 26015.0 -03435.7 -07.5233 26240.9
 03 05 2013  05 11  -21.0520 26015.1 -03435.8 -07.5235 26241.0
 03 05 2013  05 12  -21.0519 26015.2 -03435.9 -07.5236 26241.1
 03 05 2013  05 13  -21.0518 26015.2 -03435.9 -07.5237 26241.1
 03 05 2013  05 14  -21.0518 26015.3 -03436.0 -07.5238 26241.2
 03 05 2013  05 15  -21.0517 26015.3 -03435.9 -07.5237 26241.2
 03 05 2013  05 16  -21.0515 26015.2 -03435.9 -07.5237 26241.1
 03 05 2013  05 17  -21.0512 26015.1 -03435.9 -07.5236 26241.0
 03 05 2013  05 18  -21.0509 26015.1 -03435.8 -07.5236 26241.0
 03 05 2013  05 19  -21.0506 26015.2 -03435.9 -07.5236 26241.1
 03 05 2013  05 20  -21.0504 26015.3 -03436.0 -07.5238 26241.2
 03 05 2013  05 21  -21.0503 26015.5 -03436.1 -07.5239 26241.4
 03 05 2013  05 22  -21.0502 26015.6 -03436.2 -07.5241 26241.6
 03 05 2013  05 23  -21.0500 26015.7 -03436.2 -07.5242 26241.7
 03 05 2013  05 24  -21.0499 26015.8 -03436.2 -07.5242 26241.7
 03 05 2013  05 25  -21.0496 26015.7 -03436.2 -07.5242 26241.7
 03 05 2013  05 26  -21.0493 26015.6 -03436.2 -07.5241 26241.6
 03 05 2013  05 27  -21.0492 26015.6 -03436.1 -07.5240 26241.6
 03 05 2013  05 28  -21.0493 26015.5 -03436.1 -07.5241 26241.5
 03 05 2013  05 29  -21.0492 26015.4 -03436.1 -07.5240 26241.4
 03 05 2013  05 30  -21.0492 26015.5 -03436.1 -07.5241 26241.4
 03 05 2013  05 31  -21.0492 26015.6 -03436.2 -07.5242 26241.6
 03 05 2013  05 32  -21.0491 26015.8 -03436.3 -07.5243 26241.7
 03 05 2013  05 33  -21.0489 26015.9 -03436.4 -07.5245 26241.8
 03 05 2013  05 34  -21.0487 26015.9 -03436.4 -07.5245 26241.9
 03 05 2013  05 35  -21.0484 26016.0 -03436.4 -07.5245 26242.0
 03 05 2013  05 36  -21.0482 26016.0 -03436.5 -07.5246 26242.0
 03 05 2013  05 37  -21.0480 26016.0 -03436.4 -07.5246 26242.0
 03 05 2013  05 38  -21.0479 26016.0 -03436.5 -07.5246 26242.0
 03 05 2013  05 39  -21.0479 26016.0 -03436.4 -07.5246 26241.9
 03 05 2013  05 40  -21.0479 26016.0 -03436.4 -07.5246 26241.9
 03 05 2013  05 41  -21.0480 26015.9 -03436.4 -07.5246 26241.9
 03 05 2013  05 42  -21.0481 26015.9 -03436.4 -07.5246 26241.9
 03 05 2013  05 43  -21.0481 26015.8 -03436.4 -07.5245 26241.8
 03 05 2013  05 44  -21.0481 26015.7 -03436.3 -07.5244 26241.7
 03 05 2013  05 45  -21.0480 26015.7 -03436.3 -07.5244 26241.7
 03 05 2013  05 46  -21.0480 26015.6 -03436.3 -07.5244 26241.6
 03 05 2013  05 47  -21.0478 26015.5 -03436.3 -07.5243 26241.5
 03 05 2013  05 48  -21.0475 26015.5 -03436.2 -07.5243 26241.5
 03 05 2013  05 49  -21.0472 26015.4 -03436.2 -07.5243 26241.4
 03 05 2013  05 50  -21.0469 26015.4 -03436.2 -07.5243 26241.4
 03 05 2013  05 51  -21.0469 26015.4 -03436.2 -07.5243 26241.3
 03 05 2013  05 52  -21.0468 26015.3 -03436.2 -07.5244 26241.3
 03 05 2013  05 53  -21.0470 26015.3 -03436.3 -07.5244 26241.2
 03 05 2013  05 54  -21.0469 26015.2 -03436.3 -07.5244 26241.2
 03 05 2013  05 55  -21.0468 26015.1 -03436.2 -07.5244 26241.1
 03 05 2013  05 56  -21.0467 26015.1 -03436.2 -07.5244 26241.0
 03 05 2013  05 57  -21.0466 26015.0 -03436.3 -07.5245 26241.0
 03 05 2013  05 58  -21.0465 26014.9 -03436.2 -07.5244 26240.9
 03 05 2013  05 59  -21.0464 26014.9 -03436.2 -07.5245 26240.8
 03 05 2013  06 00  -21.0465 26014.8 -03436.2 -07.5245 26240.8
 03 05 2013  06 01  -21.0464 26014.8 -03436.2 -07.5245 26240.8
 03 05 2013  06 02  -21.0463 26014.7 -03436.2 -07.5245 26240.7
 03 05 2013  06 03  -21.0464 26014.7 -03436.3 -07.5246 26240.7
 03 05 2013  06 04  -21.0465 26014.6 -03436.2 -07.5246 26240.5
 03 05 2013  06 05  -21.0464 26014.5 -03436.2 -07.5245 26240.5
 03 05 2013  06 06  -21.0461 26014.3 -03436.1 -07.5244 26240.3
 03 05 2013  06 07  -21.0460 26014.2 -03436.1 -07.5244 26240.2
 03 05 2013  06 08  -21.0461 26014.3 -03436.2 -07.5245 26240.2
 03 05 2013  06 09  -21.0462 26014.2 -03436.2 -07.5246 26240.2
 03 05 2013  06 10  -21.0465 26014.2 -03436.2 -07.5247 26240.2
 03 05 2013  06 11  -21.0470 26014.2 -03436.2 -07.5247 26240.2
 03 05 2013  06 12  -21.0472 26014.1 -03436.2 -07.5246 26240.0
 03 05 2013  06 13  -21.0474 26014.2 -03436.3 -07.5248 26240.2
 03 05 2013  06 14  -21.0478 26014.2 -03436.3 -07.5248 26240.2
 03 05 2013  06 15  -21.0481 26014.3 -03436.4 -07.5250 26240.3
 03 05 2013  06 16  -21.0483 26014.5 -03436.5 -07.5251 26240.5
 03 05 2013  06 17  -21.0482 26014.6 -03436.5 -07.5251 26240.6
 03 05 2013  06 18  -21.0481 26014.8 -03436.5 -07.5251 26240.8
 03 05 2013  06 19  -21.0482 26014.9 -03436.6 -07.5252 26240.9
 03 05 2013  06 20  -21.0483 26015.0 -03436.6 -07.5253 26241.1
 03 05 2013  06 21  -21.0485 26015.2 -03436.7 -07.5255 26241.3
 03 05 2013  06 22  -21.0488 26015.4 -03436.8 -07.5256 26241.5
 03 05 2013  06 23  -21.0488 26015.5 -03436.8 -07.5255 26241.5
 03 05 2013  06 24  -21.0488 26015.5 -03436.8 -07.5255 26241.5
 03 05 2013  06 25  -21.0488 26015.6 -03436.8 -07.5255 26241.6
 03 05 2013  06 26  -21.0490 26015.6 -03436.8 -07.5255 26241.6
 03 05 2013  06 27  -21.0492 26015.8 -03436.8 -07.5255 26241.8
 03 05 2013  06 28  -21.0494 26015.8 -03436.8 -07.5255 26241.8
 03 05 2013  06 29  -21.0495 26015.9 -03436.9 -07.5255 26241.9
 03 05 2013  06 30  -21.0496 26016.1 -03436.9 -07.5256 26242.1
 03 05 2013  06 31  -21.0496 26016.2 -03436.9 -07.5255 26242.2
 03 05 2013  06 32  -21.0496 26016.2 -03436.9 -07.5255 26242.2
 03 05 2013  06 33  -21.0495 26016.2 -03436.8 -07.5254 26242.2
 03 05 2013  06 34  -21.0495 26016.2 -03436.8 -07.5253 26242.2
 03 05 2013  06 35  -21.0496 26016.3 -03436.8 -07.5253 26242.3
 03 05 2013  06 36  -21.0497 26016.4 -03436.8 -07.5253 26242.4
 03 05 2013  06 37  -21.0496 26016.3 -03436.7 -07.5251 26242.3
 03 05 2013  06 38  -21.0495 26016.3 -03436.7 -07.5251 26242.3
 03 05 2013  06 39  -21.0493 26016.3 -03436.7 -07.5250 26242.3
 03 05 2013  06 40  -21.0493 26016.4 -03436.7 -07.5250 26242.4
 03 05 2013  06 41  -21.0494 26016.5 -03436.7 -07.5251 26242.5
 03 05 2013  06 42  -21.0493 26016.7 -03436.8 -07.5252 26242.7
 03 05 2013  06 43  -21.0493 26016.8 -03436.8 -07.5252 26242.8
 03 05 2013  06 44  -21.0491 26017.0 -03436.9 -07.5253 26243.0
 03 05 2013  06 45  -21.0490 26016.9 -03436.9 -07.5253 26243.0
 03 05 2013  06 46  -21.0489 26017.0 -03436.9 -07.5252 26243.0
 03 05 2013  06 47  -21.0488 26017.0 -03436.9 -07.5252 26243.0
 03 05 2013  06 48  -21.0486 26017.1 -03436.9 -07.5252 26243.1
 03 05 2013  06 49  -21.0484 26017.1 -03436.9 -07.5252 26243.1
 03 05 2013  06 50  -21.0483 26017.1 -03436.9 -07.5252 26243.1
 03 05 2013  06 51  -21.0481 26017.2 -03436.9 -07.5252 26243.2
 03 05 2013  06 52  -21.0480 26017.2 -03436.9 -07.5252 26243.3
 03 05 2013  06 53  -21.0479 26017.3 -03436.9 -07.5252 26243.3
 03 05 2013  06 54  -21.0478 26017.2 -03436.8 -07.5251 26243.2
 03 05 2013  06 55  -21.0477 26017.3 -03436.9 -07.5252 26243.3
 03 05 2013  06 56  -21.0475 26017.4 -03436.9 -07.5252 26243.4
 03 05 2013  06 57  -21.0475 26017.4 -03436.9 -07.5252 26243.5
 03 05 2013  06 58  -21.0474 26017.4 -03436.9 -07.5252 26243.5
 03 05 2013  06 59  -21.0471 26017.5 -03437.0 -07.5253 26243.6
 03 05 2013  07 00  -21.0470 26017.6 -03437.0 -07.5253 26243.6
 03 05 2013  07 01  -21.0467 26017.6 -03437.0 -07.5253 26243.6
 03 05 2013  07 02  -21.0464 26017.6 -03437.0 -07.5253 26243.7
 03 05 2013  07 03  -21.0461 26017.7 -03437.0 -07.5253 26243.7
 03 05 2013  07 04  -21.0459 26017.7 -03437.0 -07.5254 26243.8
 03 05 2013  07 05  -21.0457 26017.9 -03437.1 -07.5255 26243.9
 03 05 2013  07 06  -21.0457 26018.0 -03437.2 -07.5257 26244.1
 03 05 2013  07 07  -21.0457 26018.1 -03437.2 -07.5257 26244.2
 03 05 2013  07 08  -21.0457 26018.3 -03437.4 -07.5259 26244.4
 03 05 2013  07 09  -21.0457 26018.4 -03437.4 -07.5260 26244.5
 03 05 2013  07 10  -21.0458 26018.5 -03437.5 -07.5261 26244.6
 03 05 2013  07 11  -21.0459 26018.6 -03437.5 -07.5262 26244.7
 03 05 2013  07 12  -21.0460 26018.7 -03437.6 -07.5263 26244.8
 03 05 2013  07 13  -21.0462 26018.8 -03437.6 -07.5263 26244.9
 03 05 2013  07 14  -21.0463 26018.8 -03437.6 -07.5263 26244.9
 03 05 2013  07 15  -21.0465 26018.8 -03437.6 -07.5263 26245.0
 03 05 2013  07 16  -21.0466 26018.8 -03437.6 -07.5262 26244.9
 03 05 2013  07 17  -21.0467 26018.8 -03437.5 -07.5261 26244.9
 03 05 2013  07 18  -21.0467 26018.7 -03437.4 -07.5260 26244.8
 03 05 2013  07 19  -21.0467 26018.7 -03437.4 -07.5259 26244.8
 03 05 2013  07 20  -21.0465 26018.7 -03437.4 -07.5259 26244.7
 03 05 2013  07 21  -21.0463 26018.6 -03437.3 -07.5258 26244.6
 03 05 2013  07 22  -21.0460 26018.4 -03437.3 -07.5257 26244.5
 03 05 2013  07 23  -21.0457 26018.3 -03437.2 -07.5255 26244.3
 03 05 2013  07 24  -21.0455 26018.2 -03437.2 -07.5255 26244.3
 03 05 2013  07 25  -21.0454 26018.2 -03437.2 -07.5256 26244.3
 03 05 2013  07 26  -21.0453 26018.2 -03437.2 -07.5257 26244.3
 03 05 2013  07 27  -21.0452 26018.2 -03437.3 -07.5257 26244.3
 03 05 2013  07 28  -21.0450 26018.2 -03437.3 -07.5258 26244.3
 03 05 2013  07 29  -21.0448 26018.1 -03437.2 -07.5257 26244.2
 03 05 2013  07 30  -21.0446 26018.1 -03437.2 -07.5257 26244.2
 03 05 2013  07 31  -21.0443 26018.2 -03437.3 -07.5258 26244.2
 03 05 2013  07 32  -21.0442 26018.2 -03437.4 -07.5259 26244.3
 03 05 2013  07 33  -21.0442 26018.3 -03437.5 -07.5261 26244.4
 03 05 2013  07 34  -21.0445 26018.2 -03437.5 -07.5262 26244.3
 03 05 2013  07 35  -21.0446 26018.2 -03437.5 -07.5262 26244.3
 03 05 2013  07 36  -21.0443 26018.1 -03437.5 -07.5262 26244.2
 03 05 2013  07 37  -21.0438 26018.0 -03437.4 -07.5261 26244.1
 03 05 2013  07 38  -21.0433 26018.0 -03437.4 -07.5261 26244.1
 03 05 2013  07 39  -21.0430 26018.0 -03437.4 -07.5262 26244.1
 03 05 2013  07 40  -21.0426 26018.0 -03437.5 -07.5263 26244.1
 03 05 2013  07 41  -21.0424 26018.0 -03437.5 -07.5264 26244.2
 03 05 2013  07 42  -21.0424 26018.1 -03437.6 -07.5265 26244.2
 03 05 2013  07 43  -21.0424 26018.1 -03437.6 -07.5266 26244.2
 03 05 2013  07 44  -21.0421 26018.2 -03437.7 -07.5267 26244.3
 03 05 2013  07 45  -21.0416 26018.2 -03437.7 -07.5267 26244.3
 03 05 2013  07 46  -21.0412 26018.1 -03437.7 -07.5268 26244.2
 03 05 2013  07 47  -21.0410 26018.0 -03437.7 -07.5267 26244.1
 03 05 2013  07 48  -21.0408 26017.9 -03437.6 -07.5266 26244.1
 03 05 2013  07 49  -21.0407 26017.9 -03437.6 -07.5266 26244.0
 03 05 2013  07 50  -21.0406 26017.8 -03437.6 -07.5266 26244.0
 03 05 2013  07 51  -21.0405 26017.9 -03437.7 -07.5267 26244.0
 03 05 2013  07 52  -21.0403 26017.8 -03437.7 -07.5267 26243.9
 03 05 2013  07 53  -21.0398 26017.5 -03437.6 -07.5267 26243.7
 03 05 2013  07 54  -21.0390 26017.4 -03437.6 -07.5266 26243.5
 03 05 2013  07 55  -21.0382 26017.1 -03437.5 -07.5265 26243.2
 03 05 2013  07 56  -21.0377 26017.1 -03437.5 -07.5266 26243.2
 03 05 2013  07 57  -21.0375 26017.2 -03437.6 -07.5268 26243.3
 03 05 2013  07 58  -21.0377 26017.3 -03437.8 -07.5271 26243.5
 03 05 2013  07 59  -21.0381 26017.4 -03437.9 -07.5273 26243.6
 03 05 2013  08 00  -21.0382 26017.6 -03438.0 -07.5275 26243.7
 03 05 2013  08 01  -21.0381 26017.7 -03438.1 -07.5277 26243.9
 03 05 2013  08 02  -21.0380 26017.8 -03438.2 -07.5278 26244.0
 03 05 2013  08 03  -21.0378 26017.9 -03438.2 -07.5279 26244.1
 03 05 2013  08 04  -21.0373 26017.9 -03438.2 -07.5279 26244.0
 03 05 2013  08 05  -21.0367 26017.9 -03438.3 -07.5280 26244.1
 03 05 2013  08 06  -21.0362 26017.7 -03438.2 -07.5279 26243.9
 03 05 2013  08 07  -21.0357 26017.5 -03438.2 -07.5279 26243.7
 03 05 2013  08 08  -21.0355 26017.4 -03438.1 -07.5279 26243.6
 03 05 2013  08 09  -21.0352 26017.2 -03438.1 -07.5279 26243.4
 03 05 2013  08 10  -21.0351 26017.1 -03438.1 -07.5279 26243.3
 03 05 2013  08 11  -21.0352 26017.0 -03438.1 -07.5280 26243.2
 03 05 2013  08 12  -21.0355 26017.0 -03438.2 -07.5281 26243.2
 03 05 2013  08 13  -21.0358 26016.9 -03438.2 -07.5281 26243.1
 03 05 2013  08 14  -21.0359 26016.9 -03438.2 -07.5281 26243.0
 03 05 2013  08 15  -21.0359 26016.7 -03438.2 -07.5282 26242.9
 03 05 2013  08 16  -21.0359 26016.6 -03438.1 -07.5281 26242.8
 03 05 2013  08 17  -21.0357 26016.4 -03438.1 -07.5280 26242.6
 03 05 2013  08 18  -21.0359 26016.3 -03438.1 -07.5281 26242.5
 03 05 2013  08 19  -21.0358 26016.3 -03438.1 -07.5280 26242.5
 03 05 2013  08 20  -21.0358 26016.3 -03438.2 -07.5282 26242.5
 03 05 2013  08 21  -21.0359 26016.2 -03438.2 -07.5283 26242.4
 03 05 2013  08 22  -21.0357 26016.1 -03438.2 -07.5284 26242.3
 03 05 2013  08 23  -21.0354 26016.1 -03438.2 -07.5285 26242.3
 03 05 2013  08 24  -21.0351 26015.9 -03438.2 -07.5284 26242.1
 03 05 2013  08 25  -21.0349 26016.0 -03438.3 -07.5287 26242.2
 03 05 2013  08 26  -21.0349 26016.1 -03438.5 -07.5289 26242.3
 03 05 2013  08 27  -21.0350 26016.1 -03438.6 -07.5292 26242.4
 03 05 2013  08 28  -21.0348 26016.1 -03438.6 -07.5293 26242.4
 03 05 2013  08 29  -21.0347 26016.1 -03438.6 -07.5293 26242.3
 03 05 2013  08 30  -21.0350 26016.2 -03438.8 -07.5296 26242.5
 03 05 2013  08 31  -21.0352 26016.3 -03438.9 -07.5299 26242.6
 03 05 2013  08 32  -21.0354 26016.4 -03439.1 -07.5302 26242.7
 03 05 2013  08 33  -21.0357 26016.6 -03439.2 -07.5304 26242.9
 03 05 2013  08 34  -21.0358 26016.6 -03439.2 -07.5305 26242.9
 03 05 2013  08 35  -21.0359 26016.6 -03439.3 -07.5307 26243.0
 03 05 2013  08 36  -21.0359 26016.7 -03439.4 -07.5308 26243.1
 03 05 2013  08 37  -21.0361 26016.6 -03439.4 -07.5309 26243.0
 03 05 2013  08 38  -21.0362 26016.8 -03439.5 -07.5311 26243.2
 03 05 2013  08 39  -21.0365 26016.9 -03439.7 -07.5313 26243.3
 03 05 2013  08 40  -21.0369 26016.8 -03439.7 -07.5314 26243.2
 03 05 2013  08 41  -21.0375 26016.9 -03439.8 -07.5316 26243.3
 03 05 2013  08 42  -21.0378 26016.8 -03439.7 -07.5314 26243.2
 03 05 2013  08 43  -21.0376 26016.7 -03439.6 -07.5312 26243.0
 03 05 2013  08 44  -21.0376 26016.5 -03439.5 -07.5311 26242.9
 03 05 2013  08 45  -21.0378 26016.4 -03439.5 -07.5310 26242.8
 03 05 2013  08 46  -21.0378 26016.5 -03439.5 -07.5311 26242.9
 03 05 2013  08 47  -21.0375 26016.4 -03439.5 -07.5311 26242.8
 03 05 2013  08 48  -21.0374 26016.2 -03439.4 -07.5309 26242.6
 03 05 2013  08 49  -21.0375 26016.1 -03439.4 -07.5309 26242.5
 03 05 2013  08 50  -21.0381 26016.0 -03439.5 -07.5312 26242.4
 03 05 2013  08 51  -21.0390 26016.1 -03439.7 -07.5316 26242.5
 03 05 2013  08 52  -21.0398 26016.4 -03439.9 -07.5320 26242.8
 03 05 2013  08 53  -21.0406 26016.7 -03440.1 -07.5323 26243.1
 03 05 2013  08 54  -21.0410 26016.9 -03440.1 -07.5323 26243.3
 03 05 2013  08 55  -21.0411 26017.1 -03440.1 -07.5322 26243.5
 03 05 2013  08 56  -21.0409 26017.0 -03440.1 -07.5322 26243.5
 03 05 2013  08 57  -21.0407 26017.1 -03440.0 -07.5321 26243.6
 03 05 2013  08 58  -21.0402 26017.1 -03440.0 -07.5320 26243.5
 03 05 2013  08 59  -21.0400 26017.1 -03440.0 -07.5320 26243.5
 03 05 2013  09 00  -21.0404 26017.2 -03440.2 -07.5323 26243.6
 03 05 2013  09 01  -21.0407 26017.1 -03440.3 -07.5326 26243.6
 03 05 2013  09 02  -21.0411 26017.3 -03440.4 -07.5328 26243.7
 03 05 2013  09 03  -21.0415 26017.1 -03440.5 -07.5331 26243.6
 03 05 2013  09 04  -21.0425 26017.0 -03440.6 -07.5333 26243.6
 03 05 2013  09 05  -21.0435 26017.0 -03440.7 -07.5336 26243.6
 03 05 2013  09 06  -21.0439 26017.0 -03440.8 -07.5337 26243.6
 03 05 2013  09 07  -21.0438 26016.9 -03440.7 -07.5336 26243.4
 03 05 2013  09 08  -21.0442 26016.9 -03440.7 -07.5335 26243.4
 03 05 2013  09 09  -21.0440 26016.8 -03440.5 -07.5332 26243.3
 03 05 2013  09 10  -21.0440 26016.7 -03440.5 -07.5331 26243.2
 03 05 2013  09 11  -21.0440 26016.7 -03440.5 -07.5331 26243.2
 03 05 2013  09 12  -21.0446 26016.6 -03440.5 -07.5332 26243.1
 03 05 2013  09 13  -21.0452 26016.6 -03440.6 -07.5334 26243.1
 03 05 2013  09 14  -21.0457 26016.4 -03440.5 -07.5333 26242.9
 03 05 2013  09 15  -21.0458 26016.3 -03440.5 -07.5333 26242.8
 03 05 2013  09 16  -21.0459 26016.4 -03440.5 -07.5333 26243.0
 03 05 2013  09 17  -21.0463 26016.4 -03440.6 -07.5334 26242.9
 03 05 2013  09 18  -21.0465 26016.3 -03440.5 -07.5334 26242.8
 03 05 2013  09 19  -21.0471 26016.4 -03440.6 -07.5334 26243.0
 03 05 2013  09 20  -21.0474 26016.6 -03440.7 -07.5336 26243.1
 03 05 2013  09 21  -21.0477 26016.5 -03440.6 -07.5334 26243.1
 03 05 2013  09 22  -21.0479 26016.7 -03440.6 -07.5335 26243.2
 03 05 2013  09 23  -21.0483 26016.8 -03440.7 -07.5335 26243.3
 03 05 2013  09 24  -21.0489 26016.9 -03440.7 -07.5336 26243.4
 03 05 2013  09 25  -21.0493 26017.0 -03440.7 -07.5336 26243.5
 03 05 2013  09 26  -21.0501 26017.1 -03440.8 -07.5336 26243.7
 03 05 2013  09 27  -21.0513 26017.0 -03440.8 -07.5336 26243.6
 03 05 2013  09 28  -21.0521 26017.3 -03440.8 -07.5338 26243.8
 03 05 2013  09 29  -21.0533 26017.2 -03440.8 -07.5336 26243.7
 03 05 2013  09 30  -21.0538 26017.5 -03440.8 -07.5337 26244.0
 03 05 2013  09 31  -21.0535 26017.6 -03440.8 -07.5335 26244.1
 03 05 2013  09 32  -21.0535 26017.7 -03440.7 -07.5333 26244.2
 03 05 2013  09 33  -21.0539 26017.9 -03440.7 -07.5332 26244.4
 03 05 2013  09 34  -21.0543 26018.0 -03440.6 -07.5330 26244.5
 03 05 2013  09 35  -21.0545 26017.9 -03440.5 -07.5328 26244.4
 03 05 2013  09 36  -21.0553 26017.9 -03440.4 -07.5326 26244.4
 03 05 2013  09 37  -21.0557 26017.9 -03440.3 -07.5324 26244.4
 03 05 2013  09 38  -21.0566 26017.9 -03440.2 -07.5322 26244.4
 03 05 2013  09 39  -21.0575 26018.0 -03440.2 -07.5322 26244.5
 03 05 2013  09 40  -21.0585 26018.1 -03440.2 -07.5321 26244.6
 03 05 2013  09 41  -21.0598 26018.3 -03440.2 -07.5321 26244.7
 03 05 2013  09 42  -21.0601 26018.4 -03440.2 -07.5321 26244.9
 03 05 2013  09 43  -21.0602 26018.4 -03440.1 -07.5318 26244.9
 03 05 2013  09 44  -21.0603 26018.3 -03439.9 -07.5315 26244.7
 03 05 2013  09 45  -21.0605 26018.2 -03439.8 -07.5312 26244.5
 03 05 2013  09 46  -21.0609 26018.2 -03439.7 -07.5311 26244.6
 03 05 2013  09 47  -21.0601 26018.3 -03439.6 -07.5309 26244.7
 03 05 2013  09 48  -21.0601 26018.5 -03439.6 -07.5308 26244.9
 03 05 2013  09 49  -21.0598 26018.7 -03439.6 -07.5306 26245.0
 03 05 2013  09 50  -21.0597 26019.0 -03439.6 -07.5305 26245.3
 03 05 2013  09 51  -21.0601 26019.1 -03439.6 -07.5305 26245.5
 03 05 2013  09 52  -21.0603 26019.5 -03439.6 -07.5304 26245.8
 03 05 2013  09 53  -21.0605 26019.7 -03439.6 -07.5303 26246.1
 03 05 2013  09 54  -21.0606 26019.7 -03439.5 -07.5300 26246.1
 03 05 2013  09 55  -21.0610 26020.0 -03439.4 -07.5299 26246.3
 03 05 2013  09 56  -21.0614 26019.9 -03439.2 -07.5295 26246.2
 03 05 2013  09 57  -21.0624 26020.2 -03439.2 -07.5293 26246.5
 03 05 2013  09 58  -21.0638 26020.4 -03439.1 -07.5292 26246.7
 03 05 2013  09 59  -21.0648 26020.6 -03439.1 -07.5289 26246.9
 03 05 2013  10 00  -21.0662 26020.8 -03439.1 -07.5289 26247.1
 03 05 2013  10 01  -21.0669 26020.8 -03439.0 -07.5287 26247.1
 03 05 2013  10 02  -21.0675 26020.8 -03438.8 -07.5283 26247.1
 03 05 2013  10 03  -21.0680 26020.9 -03438.7 -07.5281 26247.1
 03 05 2013  10 04  -21.0684 26020.8 -03438.6 -07.5279 26247.1
 03 05 2013  10 05  -21.0690 26020.9 -03438.5 -07.5277 26247.1
 03 05 2013  10 06  -21.0697 26021.1 -03438.5 -07.5275 26247.3
 03 05 2013  10 07  -21.0703 26021.4 -03438.5 -07.5275 26247.6
 03 05 2013  10 08  -21.0712 26021.6 -03438.4 -07.5273 26247.8
 03 05 2013  10 09  -21.0724 26021.8 -03438.4 -07.5272 26248.0
 03 05 2013  10 10  -21.0735 26021.9 -03438.3 -07.5269 26248.0
 03 05 2013  10 11  -21.0746 26022.0 -03438.2 -07.5267 26248.1
 03 05 2013  10 12  -21.0749 26022.2 -03438.1 -07.5265 26248.3
 03 05 2013  10 13  -21.0751 26022.2 -03438.0 -07.5261 26248.3
 03 05 2013  10 14  -21.0765 26022.0 -03437.7 -07.5256 26248.1
 03 05 2013  10 15  -21.0783 26022.1 -03437.6 -07.5253 26248.1
 03 05 2013  10 16  -21.0796 26022.4 -03437.5 -07.5252 26248.4
 03 05 2013  10 17  -21.0803 26022.5 -03437.4 -07.5247 26248.6
 03 05 2013  10 18  -21.0800 26022.7 -03437.1 -07.5242 26248.7
 03 05 2013  10 19  -21.0799 26022.7 -03436.8 -07.5235 26248.7
 03 05 2013  10 20  -21.0797 26022.9 -03436.6 -07.5231 26248.8
 03 05 2013  10 21  -21.0795 26023.2 -03436.5 -07.5227 26249.1
 03 05 2013  10 22  -21.0795 26023.6 -03436.5 -07.5225 26249.5
 03 05 2013  10 23  -21.0797 26023.6 -03436.3 -07.5221 26249.5
 03 05 2013  10 24  -21.0806 26023.8 -03436.2 -07.5219 26249.7
 03 05 2013  10 25  -21.0819 26024.0 -03436.2 -07.5217 26249.9
 03 05 2013  10 26  -21.0830 26024.3 -03436.1 -07.5216 26250.1
 03 05 2013  10 27  -21.0836 26024.8 -03436.2 -07.5215 26250.7
 03 05 2013  10 28  -21.0844 26025.0 -03436.0 -07.5211 26250.8
 03 05 2013  10 29  -21.0847 26025.4 -03435.9 -07.5208 26251.2
 03 05 2013  10 30  -21.0851 26025.9 -03435.9 -07.5205 26251.7
 03 05 2013  10 31  -21.0862 26026.0 -03435.7 -07.5200 26251.8
 03 05 2013  10 32  -21.0873 26026.0 -03435.5 -07.5197 26251.8
 03 05 2013  10 33  -21.0875 26026.5 -03435.4 -07.5194 26252.2
 03 05 2013  10 34  -21.0870 26027.2 -03435.4 -07.5192 26253.0
 03 05 2013  10 35  -21.0868 26027.8 -03435.3 -07.5188 26253.6
 03 05 2013  10 36  -21.0871 26028.3 -03435.2 -07.5184 26254.0
 03 05 2013  10 37  -21.0879 26028.4 -03434.9 -07.5178 26254.1
 03 05 2013  10 38  -21.0888 26028.6 -03434.7 -07.5173 26254.2
 03 05 2013  10 39  -21.0899 26028.9 -03434.6 -07.5169 26254.5
 03 05 2013  10 40  -21.0904 26029.2 -03434.4 -07.5164 26254.8
 03 05 2013  10 41  -21.0911 26029.3 -03434.2 -07.5159 26254.8
 03 05 2013  10 42  -21.0922 26029.6 -03434.0 -07.5155 26255.1
 03 05 2013  10 43  -21.0930 26029.9 -03433.8 -07.5150 26255.4
 03 05 2013  10 44  -21.0937 26030.0 -03433.6 -07.5144 26255.5
 03 05 2013  10 45  -21.0944 26030.1 -03433.4 -07.5139 26255.6
 03 05 2013  10 46  -21.0951 26030.0 -03433.0 -07.5132 26255.5
 03 05 2013  10 47  -21.0957 26030.0 -03432.8 -07.5126 26255.4
 03 05 2013  10 48  -21.0964 26030.2 -03432.6 -07.5122 26255.6
 03 05 2013  10 49  -21.0968 26030.5 -03432.4 -07.5118 26255.8
 03 05 2013  10 50  -21.0973 26030.8 -03432.3 -07.5114 26256.1
 03 05 2013  10 51  -21.0976 26031.2 -03432.2 -07.5110 26256.5
 03 05 2013  10 52  -21.0981 26031.5 -03431.9 -07.5104 26256.8
 03 05 2013  10 53  -21.0984 26031.7 -03431.7 -07.5099 26257.0
 03 05 2013  10 54  -21.0987 26032.1 -03431.5 -07.5094 26257.3
 03 05 2013  10 55  -21.0993 26032.4 -03431.4 -07.5089 26257.6
 03 05 2013  10 56  -21.0997 26032.7 -03431.2 -07.5084 26257.9
 03 05 2013  10 57  -21.1002 26033.1 -03431.0 -07.5079 26258.2
 03 05 2013  10 58  -21.1006 26033.4 -03430.8 -07.5074 26258.5
 03 05 2013  10 59  -21.1011 26033.8 -03430.6 -07.5069 26258.8
 03 05 2013  11 00  -21.1016 26034.1 -03430.4 -07.5064 26259.2
 03 05 2013  11 01  -21.1020 26034.6 -03430.3 -07.5059 26259.6
 03 05 2013  11 02  -21.1023 26035.1 -03430.1 -07.5054 26260.1
 03 05 2013  11 03  -21.1026 26035.6 -03429.9 -07.5049 26260.5
 03 05 2013  11 04  -21.1029 26036.0 -03429.7 -07.5044 26260.9
 03 05 2013  11 05  -21.1033 26036.4 -03429.6 -07.5039 26261.3
 03 05 2013  11 06  -21.1039 26036.8 -03429.3 -07.5033 26261.7
 03 05 2013  11 07  -21.1043 26037.2 -03429.1 -07.5027 26262.1
 03 05 2013  11 08  -21.1048 26037.6 -03428.9 -07.5022 26262.4
 03 05 2013  11 09  -21.1054 26037.8 -03428.7 -07.5016 26262.6
 03 05 2013  11 10  -21.1059 26038.0 -03428.4 -07.5009 26262.8
 03 05 2013  11 11  -21.1066 26038.1 -03428.1 -07.5002 26262.8
 03 05 2013  11 12  -21.1073 26038.2 -03427.8 -07.4996 26262.9
 03 05 2013  11 13  -21.1081 26038.2 -03427.5 -07.4990 26262.8
 03 05 2013  11 14  -21.1089 26038.3 -03427.3 -07.4984 26262.9
 03 05 2013  11 15  -21.1096 26038.4 -03427.0 -07.4979 26262.9
 03 05 2013  11 16  -21.1104 26038.5 -03426.9 -07.4974 26263.1
 03 05 2013  11 17  -21.1110 26038.8 -03426.7 -07.4971 26263.3
 03 05 2013  11 18  -21.1114 26039.1 -03426.6 -07.4967 26263.6
 03 05 2013  11 19  -21.1119 26039.4 -03426.4 -07.4962 26263.8
 03 05 2013  11 20  -21.1123 26039.6 -03426.3 -07.4958 26264.1
 03 05 2013  11 21  -21.1129 26039.9 -03426.1 -07.4954 26264.3
 03 05 2013  11 22  -21.1133 26040.2 -03425.9 -07.4950 26264.6
 03 05 2013  11 23  -21.1136 26040.5 -03425.8 -07.4945 26264.9
 03 05 2013  11 24  -21.1139 26040.9 -03425.6 -07.4941 26265.2
 03 05 2013  11 25  -21.1143 26041.2 -03425.5 -07.4937 26265.5
 03 05 2013  11 26  -21.1146 26041.5 -03425.3 -07.4932 26265.8
 03 05 2013  11 27  -21.1149 26041.9 -03425.2 -07.4928 26266.2
 03 05 2013  11 28  -21.1152 26042.2 -03425.0 -07.4924 26266.5
 03 05 2013  11 29  -21.1155 26042.5 -03424.8 -07.4918 26266.8
 03 05 2013  11 30  -21.1157 26042.8 -03424.6 -07.4913 26267.0
 03 05 2013  11 31  -21.1160 26043.1 -03424.4 -07.4909 26267.3
 03 05 2013  11 32  -21.1161 26043.4 -03424.3 -07.4904 26267.6
 03 05 2013  11 33  -21.1163 26043.6 -03424.1 -07.4899 26267.8
 03 05 2013  11 34  -21.1166 26043.9 -03423.9 -07.4895 26268.0
 03 05 2013  11 35  -21.1169 26044.1 -03423.7 -07.4890 26268.2
 03 05 2013  11 36  -21.1171 26044.4 -03423.5 -07.4886 26268.4
 03 05 2013  11 37  -21.1174 26044.7 -03423.3 -07.4881 26268.7
 03 05 2013  11 38  -21.1175 26045.0 -03423.2 -07.4877 26269.0
 03 05 2013  11 39  -21.1175 26045.3 -03423.0 -07.4872 26269.3
 03 05 2013  11 40  -21.1177 26045.4 -03422.8 -07.4866 26269.4
 03 05 2013  11 41  -21.1178 26045.7 -03422.6 -07.4862 26269.6
 03 05 2013  11 42  -21.1180 26045.9 -03422.4 -07.4857 26269.8
 03 05 2013  11 43  -21.1180 26046.2 -03422.3 -07.4853 26270.1
 03 05 2013  11 44  -21.1180 26046.5 -03422.1 -07.4849 26270.4
 03 05 2013  11 45  -21.1180 26046.8 -03421.9 -07.4844 26270.6
 03 05 2013  11 46  -21.1182 26047.1 -03421.7 -07.4839 26270.9
 03 05 2013  11 47  -21.1182 26047.2 -03421.5 -07.4834 26271.0
 03 05 2013  11 48  -21.1183 26047.7 -03421.4 -07.4830 26271.4
 03 05 2013  11 49  -21.1184 26048.0 -03421.2 -07.4825 26271.7
 03 05 2013  11 50  -21.1182 26048.4 -03421.0 -07.4820 26272.1
 03 05 2013  11 51  -21.1185 26048.9 -03420.9 -07.4816 26272.6
 03 05 2013  11 52  -21.1187 26049.1 -03420.7 -07.4811 26272.7
 03 05 2013  11 53  -21.1189 26049.4 -03420.5 -07.4806 26273.0
 03 05 2013  11 54  -21.1189 26049.7 -03420.3 -07.4801 26273.3
 03 05 2013  11 55  -21.1186 26050.1 -03420.2 -07.4797 26273.7
 03 05 2013  11 56  -21.1182 26050.5 -03420.0 -07.4791 26274.0
 03 05 2013  11 57  -21.1177 26050.9 -03419.8 -07.4786 26274.4
 03 05 2013  11 58  -21.1174 26051.2 -03419.6 -07.4781 26274.7
 03 05 2013  11 59  -21.1172 26051.5 -03419.4 -07.4776 26274.9
 03 05 2013  12 00  -21.1169 26051.7 -03419.2 -07.4771 26275.2
 03 05 2013  12 01  -21.1166 26052.0 -03419.0 -07.4766 26275.4
 03 05 2013  12 02  -21.1163 26052.2 -03418.8 -07.4761 26275.6
 03 05 2013  12 03  -21.1163 26052.3 -03418.5 -07.4755 26275.7
 03 05 2013  12 04  -21.1162 26052.5 -03418.4 -07.4751 26275.8
 03 05 2013  12 05  -21.1163 26053.0 -03418.3 -07.4748 26276.3
 03 05 2013  12 06  -21.1163 26053.5 -03418.2 -07.4744 26276.7
 03 05 2013  12 07  -21.1164 26053.9 -03418.0 -07.4739 26277.2
 03 05 2013  12 08  -21.1165 26054.2 -03417.7 -07.4733 26277.5
 03 05 2013  12 09  -21.1165 26054.6 -03417.6 -07.4727 26277.8
 03 05 2013  12 10  -21.1164 26054.9 -03417.3 -07.4722 26278.1
 03 05 2013  12 11  -21.1160 26055.4 -03417.2 -07.4718 26278.5
 03 05 2013  12 12  -21.1156 26055.7 -03417.1 -07.4714 26278.8
 03 05 2013  12 13  -21.1148 26056.1 -03416.9 -07.4710 26279.2
 03 05 2013  12 14  -21.1141 26056.8 -03416.9 -07.4707 26279.8
 03 05 2013  12 15  -21.1133 26057.2 -03416.8 -07.4703 26280.3
 03 05 2013  12 16  -21.1127 26057.5 -03416.6 -07.4698 26280.5
 03 05 2013  12 17  -21.1122 26057.6 -03416.4 -07.4695 26280.6
 03 05 2013  12 18  -21.1116 26057.8 -03416.2 -07.4690 26280.8
 03 05 2013  12 19  -21.1113 26058.1 -03416.2 -07.4688 26281.1
 03 05 2013  12 20  -21.1110 26058.3 -03416.1 -07.4685 26281.3
 03 05 2013  12 21  -21.1108 26058.5 -03415.9 -07.4681 26281.5
 03 05 2013  12 22  -21.1105 26058.5 -03415.8 -07.4677 26281.4
 03 05 2013  12 23  -21.1102 26058.7 -03415.6 -07.4675 26281.6
 03 05 2013  12 24  -21.1099 26058.9 -03415.5 -07.4672 26281.8
 03 05 2013  12 25  -21.1093 26059.1 -03415.4 -07.4669 26281.9
 03 05 2013  12 26  -21.1087 26059.2 -03415.3 -07.4666 26282.1
 03 05 2013  12 27  -21.1083 26059.5 -03415.3 -07.4665 26282.3
 03 05 2013  12 28  -21.1080 26059.3 -03415.1 -07.4661 26282.2
 03 05 2013  12 29  -21.1077 26059.5 -03415.0 -07.4659 26282.4
 03 05 2013  12 30  -21.1074 26059.8 -03415.0 -07.4658 26282.6
 03 05 2013  12 31  -21.1070 26060.0 -03414.9 -07.4655 26282.8
 03 05 2013  12 32  -21.1065 26060.1 -03414.8 -07.4652 26282.8
 03 05 2013  12 33  -21.1061 26060.4 -03414.8 -07.4651 26283.1
 03 05 2013  12 34  -21.1056 26060.5 -03414.7 -07.4650 26283.3
 03 05 2013  12 35  -21.1049 26060.8 -03414.7 -07.4647 26283.6
 03 05 2013  12 36  -21.1042 26061.2 -03414.6 -07.4646 26283.9
 03 05 2013  12 37  -21.1034 26061.3 -03414.5 -07.4643 26284.1
 03 05 2013  12 38  -21.1028 26061.7 -03414.5 -07.4641 26284.4
 03 05 2013  12 39  -21.1020 26062.0 -03414.4 -07.4639 26284.7
 03 05 2013  12 40  -21.1014 26062.1 -03414.3 -07.4636 26284.8
 03 05 2013  12 41  -21.1007 26062.3 -03414.2 -07.4633 26285.0
 03 05 2013  12 42  -21.0998 26062.4 -03414.1 -07.4631 26285.1
 03 05 2013  12 43  -21.0991 26062.5 -03414.1 -07.4629 26285.2
 03 05 2013  12 44  -21.0985 26062.9 -03414.1 -07.4629 26285.5
 03 05 2013  12 45  -21.0975 26063.2 -03414.1 -07.4629 26285.8
 03 05 2013  12 46  -21.0968 26063.4 -03414.1 -07.4628 26286.1
 03 05 2013  12 47  -21.0959 26063.6 -03414.1 -07.4628 26286.3
 03 05 2013  12 48  -21.0951 26063.7 -03414.1 -07.4627 26286.4
 03 05 2013  12 49  -21.0942 26064.1 -03414.2 -07.4628 26286.7
 03 05 2013  12 50  -21.0932 26064.5 -03414.4 -07.4631 26287.2
 03 05 2013  12 51  -21.0924 26064.7 -03414.5 -07.4632 26287.4
 03 05 2013  12 52  -21.0914 26065.0 -03414.5 -07.4633 26287.7
 03 05 2013  12 53  -21.0907 26065.2 -03414.6 -07.4634 26287.9
 03 05 2013  12 54  -21.0898 26065.5 -03414.8 -07.4637 26288.2
 03 05 2013  12 55  -21.0890 26065.7 -03414.9 -07.4639 26288.4
 03 05 2013  12 56  -21.0884 26066.0 -03415.1 -07.4641 26288.8
 03 05 2013  12 57  -21.0879 26066.4 -03415.3 -07.4645 26289.2
 03 05 2013  12 58  -21.0875 26066.8 -03415.5 -07.4648 26289.6
 03 05 2013  12 59  -21.0872 26067.3 -03415.7 -07.4651 26290.1
 03 05 2013  13 00  -21.0869 26067.7 -03415.9 -07.4655 26290.6
 03 05 2013  13 01  -21.0868 26068.3 -03416.1 -07.4657 26291.2
 03 05 2013  13 02  -21.0868 26068.9 -03416.3 -07.4660 26291.8
 03 05 2013  13 03  -21.0869 26069.6 -03416.5 -07.4662 26292.5
 03 05 2013  13 04  -21.0869 26070.2 -03416.6 -07.4663 26293.2
 03 05 2013  13 05  -21.0868 26070.9 -03416.8 -07.4664 26293.8
 03 05 2013  13 06  -21.0867 26071.2 -03416.8 -07.4664 26294.2
 03 05 2013  13 07  -21.0865 26071.5 -03416.8 -07.4663 26294.5
 03 05 2013  13 08  -21.0864 26071.8 -03416.8 -07.4663 26294.8
 03 05 2013  13 09  -21.0866 26072.1 -03416.9 -07.4663 26295.1
 03 05 2013  13 10  -21.0867 26072.5 -03417.0 -07.4664 26295.4
 03 05 2013  13 11  -21.0867 26072.8 -03417.0 -07.4664 26295.8
 03 05 2013  13 12  -21.0869 26073.1 -03417.0 -07.4664 26296.1
 03 05 2013  13 13  -21.0870 26073.4 -03417.1 -07.4664 26296.4
 03 05 2013  13 14  -21.0872 26073.7 -03417.1 -07.4664 26296.7
 03 05 2013  13 15  -21.0872 26074.0 -03417.1 -07.4664 26297.0
 03 05 2013  13 16  -21.0872 26074.4 -03417.2 -07.4664 26297.4
 03 05 2013  13 17  -21.0872 26074.8 -03417.3 -07.4665 26297.8
 03 05 2013  13 18  -21.0874 26075.1 -03417.3 -07.4665 26298.0
 03 05 2013  13 19  -21.0875 26075.3 -03417.3 -07.4664 26298.2
 03 05 2013  13 20  -21.0876 26075.4 -03417.3 -07.4663 26298.4
 03 05 2013  13 21  -21.0875 26075.8 -03417.3 -07.4663 26298.8
 03 05 2013  13 22  -21.0876 26076.2 -03417.4 -07.4664 26299.1
 03 05 2013  13 23  -21.0876 26076.4 -03417.4 -07.4663 26299.4
 03 05 2013  13 24  -21.0878 26076.7 -03417.5 -07.4663 26299.6
 03 05 2013  13 25  -21.0880 26076.9 -03417.5 -07.4662 26299.8
 03 05 2013  13 26  -21.0881 26077.1 -03417.4 -07.4661 26300.0
 03 05 2013  13 27  -21.0883 26077.3 -03417.4 -07.4661 26300.2
 03 05 2013  13 28  -21.0883 26077.5 -03417.4 -07.4660 26300.4
 03 05 2013  13 29  -21.0884 26077.6 -03417.4 -07.4660 26300.6
 03 05 2013  13 30  -21.0884 26077.9 -03417.5 -07.4660 26300.9
 03 05 2013  13 31  -21.0886 26078.1 -03417.5 -07.4660 26301.1
 03 05 2013  13 32  -21.0886 26078.4 -03417.6 -07.4660 26301.4
 03 05 2013  13 33  -21.0885 26078.6 -03417.6 -07.4660 26301.6
 03 05 2013  13 34  -21.0884 26078.9 -03417.6 -07.4659 26301.9
 03 05 2013  13 35  -21.0885 26079.2 -03417.6 -07.4659 26302.2
 03 05 2013  13 36  -21.0890 26079.8 -03417.8 -07.4661 26302.8
 03 05 2013  13 37  -21.0895 26080.4 -03417.9 -07.4662 26303.4
 03 05 2013  13 38  -21.0896 26080.5 -03417.8 -07.4660 26303.5
 03 05 2013  13 39  -21.0894 26080.4 -03417.6 -07.4656 26303.4
 03 05 2013  13 40  -21.0892 26080.4 -03417.5 -07.4654 26303.4
 03 05 2013  13 41  -21.0891 26080.3 -03417.4 -07.4651 26303.2
 03 05 2013  13 42  -21.0891 26080.0 -03417.2 -07.4649 26302.9
 03 05 2013  13 43  -21.0893 26079.8 -03417.2 -07.4648 26302.7
 03 05 2013  13 44  -21.0894 26080.1 -03417.4 -07.4652 26303.0
 03 05 2013  13 45  -21.0896 26080.5 -03417.6 -07.4654 26303.5
 03 05 2013  13 46  -21.0898 26080.8 -03417.6 -07.4654 26303.8
 03 05 2013  13 47  -21.0903 26081.0 -03417.7 -07.4655 26304.0
 03 05 2013  13 48  -21.0909 26080.7 -03417.4 -07.4651 26303.6
 03 05 2013  13 49  -21.0917 26080.6 -03417.4 -07.4650 26303.6
 03 05 2013  13 50  -21.0922 26080.2 -03417.1 -07.4646 26303.1
 03 05 2013  13 51  -21.0928 26080.0 -03417.0 -07.4644 26302.9
 03 05 2013  13 52  -21.0930 26079.8 -03416.9 -07.4642 26302.7
 03 05 2013  13 53  -21.0940 26080.0 -03417.0 -07.4644 26302.9
 03 05 2013  13 54  -21.0946 26079.6 -03416.8 -07.4641 26302.5
 03 05 2013  13 55  -21.0952 26079.2 -03416.6 -07.4638 26302.0
 03 05 2013  13 56  -21.0955 26078.7 -03416.5 -07.4636 26301.6
 03 05 2013  13 57  -21.0956 26078.2 -03416.3 -07.4634 26301.0
 03 05 2013  13 58  -21.0959 26078.0 -03416.4 -07.4635 26300.8
 03 05 2013  13 59  -21.0964 26077.8 -03416.5 -07.4638 26300.7
 03 05 2013  14 00  -21.0970 26077.9 -03416.6 -07.4642 26300.8
 03 05 2013  14 01  -21.0974 26077.5 -03416.5 -07.4640 26300.4
 03 05 2013  14 02  -21.0979 26077.1 -03416.4 -07.4638 26299.9
 03 05 2013  14 03  -21.0983 26076.6 -03416.3 -07.4637 26299.4
 03 05 2013  14 04  -21.0986 26075.9 -03416.1 -07.4635 26298.7
 03 05 2013  14 05  -21.0988 26075.6 -03416.1 -07.4637 26298.5
 03 05 2013  14 06  -21.0991 26075.4 -03416.2 -07.4639 26298.2
 03 05 2013  14 07  -21.0996 26075.6 -03416.4 -07.4643 26298.4
 03 05 2013  14 08  -21.1001 26075.3 -03416.4 -07.4644 26298.2
 03 05 2013  14 09  -21.1005 26074.9 -03416.4 -07.4644 26297.8
 03 05 2013  14 10  -21.1008 26074.2 -03416.2 -07.4642 26297.1
 03 05 2013  14 11  -21.1010 26073.6 -03416.0 -07.4641 26296.4
 03 05 2013  14 12  -21.1013 26073.2 -03416.0 -07.4641 26296.0
 03 05 2013  14 13  -21.1015 26072.6 -03415.9 -07.4641 26295.4
 03 05 2013  14 14  -21.1018 26072.5 -03416.1 -07.4644 26295.3
 03 05 2013  14 15  -21.1022 26072.2 -03416.1 -07.4646 26295.0
 03 05 2013  14 16  -21.1028 26072.1 -03416.2 -07.4648 26294.9
 03 05 2013  14 17  -21.1035 26072.2 -03416.3 -07.4651 26295.1
 03 05 2013  14 18  -21.1042 26072.5 -03416.5 -07.4655 26295.4
 03 05 2013  14 19  -21.1046 26072.6 -03416.6 -07.4656 26295.5
 03 05 2013  14 20  -21.1048 26072.8 -03416.7 -07.4657 26295.7
 03 05 2013  14 21  -21.1049 26072.6 -03416.6 -07.4655 26295.5
 03 05 2013  14 22  -21.1047 26072.3 -03416.4 -07.4652 26295.1
 03 05 2013  14 23  -21.1045 26071.9 -03416.3 -07.4650 26294.8
 03 05 2013  14 24  -21.1044 26071.8 -03416.2 -07.4650 26294.6
 03 05 2013  14 25  -21.1045 26071.7 -03416.3 -07.4651 26294.6
 03 05 2013  14 26  -21.1042 26071.4 -03416.1 -07.4649 26294.2
 03 05 2013  14 27  -21.1040 26071.0 -03416.1 -07.4649 26293.8
 03 05 2013  14 28  -21.1038 26070.7 -03416.1 -07.4650 26293.5
 03 05 2013  14 29  -21.1038 26070.7 -03416.2 -07.4653 26293.6
 03 05 2013  14 30  -21.1038 26070.5 -03416.3 -07.4655 26293.4
 03 05 2013  14 31  -21.1037 26070.5 -03416.4 -07.4657 26293.4
 03 05 2013  14 32  -21.1036 26070.4 -03416.4 -07.4658 26293.3
 03 05 2013  14 33  -21.1035 26070.1 -03416.5 -07.4660 26293.0
 03 05 2013  14 34  -21.1034 26070.2 -03416.7 -07.4664 26293.1
 03 05 2013  14 35  -21.1034 26070.2 -03416.8 -07.4667 26293.1
 03 05 2013  14 36  -21.1035 26070.2 -03417.0 -07.4671 26293.2
 03 05 2013  14 37  -21.1034 26070.4 -03417.1 -07.4674 26293.3
 03 05 2013  14 38  -21.1032 26070.3 -03417.2 -07.4676 26293.3
 03 05 2013  14 39  -21.1034 26070.1 -03417.3 -07.4677 26293.1
 03 05 2013  14 40  -21.1032 26070.1 -03417.4 -07.4679 26293.2
 03 05 2013  14 41  -21.1033 26070.4 -03417.6 -07.4684 26293.5
 03 05 2013  14 42  -21.1035 26070.4 -03417.7 -07.4686 26293.4
 03 05 2013  14 43  -21.1033 26070.0 -03417.6 -07.4686 26293.0
 03 05 2013  14 44  -21.1031 26070.0 -03417.8 -07.4689 26293.1
 03 05 2013  14 45  -21.1029 26069.5 -03417.7 -07.4688 26292.6
 03 05 2013  14 46  -21.1026 26069.2 -03417.7 -07.4690 26292.3
 03 05 2013  14 47  -21.1024 26069.2 -03417.9 -07.4695 26292.3
 03 05 2013  14 48  -21.1024 26069.1 -03418.1 -07.4697 26292.3
 03 05 2013  14 49  -21.1024 26069.4 -03418.4 -07.4703 26292.6
 03 05 2013  14 50  -21.1022 26069.6 -03418.6 -07.4706 26292.8
 03 05 2013  14 51  -21.1022 26070.0 -03418.8 -07.4711 26293.2
 03 05 2013  14 52  -21.1020 26070.2 -03418.9 -07.4713 26293.4
 03 05 2013  14 53  -21.1022 26070.6 -03419.1 -07.4716 26293.8
 03 05 2013  14 54  -21.1022 26070.8 -03419.2 -07.4717 26294.1
 03 05 2013  14 55  -21.1024 26071.2 -03419.3 -07.4718 26294.4
 03 05 2013  14 56  -21.1025 26071.4 -03419.2 -07.4716 26294.7
 03 05 2013  14 57  -21.1026 26071.5 -03419.2 -07.4715 26294.8
 03 05 2013  14 58  -21.1027 26071.2 -03418.9 -07.4710 26294.4
 03 05 2013  14 59  -21.1026 26070.7 -03418.6 -07.4705 26293.9
 03 05 2013  15 00  -21.1027 26070.5 -03418.5 -07.4703 26293.7
 03 05 2013  15 01  -21.1029 26070.2 -03418.4 -07.4701 26293.3
 03 05 2013  15 02  -21.1030 26070.2 -03418.4 -07.4701 26293.4
 03 05 2013  15 03  -21.1029 26069.9 -03418.2 -07.4698 26293.1
 03 05 2013  15 04  -21.1029 26070.0 -03418.2 -07.4698 26293.2
 03 05 2013  15 05  -21.1027 26069.8 -03418.1 -07.4696 26292.9
 03 05 2013  15 06  -21.1025 26069.8 -03418.1 -07.4696 26292.9
 03 05 2013  15 07  -21.1024 26069.6 -03418.1 -07.4696 26292.7
 03 05 2013  15 08  -21.1025 26069.7 -03418.2 -07.4698 26292.8
 03 05 2013  15 09  -21.1026 26070.0 -03418.3 -07.4700 26293.1
 03 05 2013  15 10  -21.1026 26069.9 -03418.3 -07.4700 26293.1
 03 05 2013  15 11  -21.1025 26070.0 -03418.3 -07.4700 26293.1
 03 05 2013  15 12  -21.1024 26069.9 -03418.3 -07.4700 26293.0
 03 05 2013  15 13  -21.1023 26069.9 -03418.3 -07.4700 26293.1
 03 05 2013  15 14  -21.1024 26070.0 -03418.4 -07.4702 26293.2
 03 05 2013  15 15  -21.1021 26069.9 -03418.3 -07.4701 26293.0
 03 05 2013  15 16  -21.1025 26069.9 -03418.4 -07.4702 26293.0
 03 05 2013  15 17  -21.1027 26070.4 -03418.6 -07.4706 26293.6
 03 05 2013  15 18  -21.1031 26070.6 -03418.7 -07.4706 26293.8
 03 05 2013  15 19  -21.1036 26071.3 -03418.9 -07.4708 26294.5
 03 05 2013  15 20  -21.1039 26071.5 -03418.8 -07.4706 26294.7
 03 05 2013  15 21  -21.1040 26070.9 -03418.3 -07.4697 26294.0
 03 05 2013  15 22  -21.1045 26071.3 -03418.4 -07.4698 26294.4
 03 05 2013  15 23  -21.1051 26071.4 -03418.3 -07.4696 26294.5
 03 05 2013  15 24  -21.1050 26071.2 -03418.1 -07.4692 26294.3
 03 05 2013  15 25  -21.1048 26071.0 -03417.9 -07.4689 26294.1
 03 05 2013  15 26  -21.1045 26070.7 -03417.8 -07.4687 26293.8
 03 05 2013  15 27  -21.1043 26070.3 -03417.7 -07.4685 26293.4
 03 05 2013  15 28  -21.1043 26070.4 -03417.7 -07.4686 26293.5
 03 05 2013  15 29  -21.1041 26070.5 -03417.8 -07.4688 26293.6
 03 05 2013  15 30  -21.1040 26070.6 -03417.9 -07.4689 26293.7
 03 05 2013  15 31  -21.1041 26070.9 -03418.0 -07.4691 26294.0
 03 05 2013  15 32  -21.1041 26071.1 -03418.0 -07.4691 26294.2
 03 05 2013  15 33  -21.1039 26071.0 -03418.0 -07.4690 26294.1
 03 05 2013  15 34  -21.1037 26071.1 -03418.0 -07.4690 26294.2
 03 05 2013  15 35  -21.1032 26070.9 -03417.9 -07.4689 26294.0
 03 05 2013  15 36  -21.1027 26070.7 -03417.8 -07.4687 26293.8
 03 05 2013  15 37  -21.1029 26071.1 -03418.0 -07.4691 26294.2
 03 05 2013  15 38  -21.1035 26072.1 -03418.4 -07.4696 26295.2
 03 05 2013  15 39  -21.1039 26072.7 -03418.5 -07.4697 26295.9
 03 05 2013  15 40  -21.1042 26073.0 -03418.4 -07.4693 26296.2
 03 05 2013  15 41  -21.1046 26073.1 -03418.2 -07.4688 26296.2
 03 05 2013  15 42  -21.1049 26073.2 -03417.9 -07.4683 26296.3
 03 05 2013  15 43  -21.1051 26073.1 -03417.7 -07.4678 26296.2
 03 05 2013  15 44  -21.1051 26072.8 -03417.4 -07.4673 26295.8
 03 05 2013  15 45  -21.1050 26072.4 -03417.1 -07.4667 26295.4
 03 05 2013  15 46  -21.1049 26072.0 -03416.9 -07.4664 26294.9
 03 05 2013  15 47  -21.1053 26071.8 -03416.9 -07.4664 26294.7
 03 05 2013  15 48  -21.1055 26071.7 -03416.9 -07.4664 26294.7
 03 05 2013  15 49  -21.1057 26071.4 -03416.8 -07.4664 26294.3
 03 05 2013  15 50  -21.1058 26071.2 -03416.8 -07.4664 26294.2
 03 05 2013  15 51  -21.1060 26071.1 -03416.8 -07.4665 26294.0
 03 05 2013  15 52  -21.1064 26071.1 -03416.9 -07.4667 26294.0
 03 05 2013  15 53  -21.1067 26071.0 -03417.0 -07.4669 26294.0
 03 05 2013  15 54  -21.1073 26071.1 -03417.1 -07.4671 26294.1
 03 05 2013  15 55  -21.1075 26071.1 -03417.1 -07.4672 26294.1
 03 05 2013  15 56  -21.1077 26071.2 -03417.2 -07.4673 26294.2
 03 05 2013  15 57  -21.1081 26071.2 -03417.2 -07.4673 26294.2
 03 05 2013  15 58  -21.1082 26070.9 -03417.1 -07.4672 26293.9
 03 05 2013  15 59  -21.1080 26070.6 -03417.0 -07.4671 26293.5
 03 05 2013  16 00  -21.1079 26070.1 -03416.9 -07.4670 26293.1
 03 05 2013  16 01  -21.1077 26069.7 -03416.9 -07.4670 26292.7
 03 05 2013  16 02  -21.1074 26069.4 -03416.9 -07.4671 26292.4
 03 05 2013  16 03  -21.1070 26069.1 -03416.9 -07.4672 26292.0
 03 05 2013  16 04  -21.1065 26068.6 -03416.9 -07.4674 26291.6
 03 05 2013  16 05  -21.1061 26068.2 -03416.9 -07.4676 26291.2
 03 05 2013  16 06  -21.1060 26067.9 -03417.0 -07.4679 26290.9
 03 05 2013  16 07  -21.1058 26067.7 -03417.2 -07.4682 26290.7
 03 05 2013  16 08  -21.1056 26067.4 -03417.2 -07.4684 26290.4
 03 05 2013  16 09  -21.1055 26067.1 -03417.3 -07.4687 26290.2
 03 05 2013  16 10  -21.1054 26067.1 -03417.4 -07.4690 26290.1
 03 05 2013  16 11  -21.1053 26067.1 -03417.6 -07.4693 26290.1
 03 05 2013  16 12  -21.1050 26066.9 -03417.5 -07.4692 26290.0
 03 05 2013  16 13  -21.1042 26066.6 -03417.5 -07.4692 26289.7
 03 05 2013  16 14  -21.1035 26066.2 -03417.5 -07.4693 26289.3
 03 05 2013  16 15  -21.1027 26066.1 -03417.5 -07.4695 26289.2
 03 05 2013  16 16  -21.1022 26066.1 -03417.7 -07.4697 26289.2
 03 05 2013  16 17  -21.1016 26065.9 -03417.7 -07.4699 26289.0
 03 05 2013  16 18  -21.1008 26065.7 -03417.7 -07.4700 26288.8
 03 05 2013  16 19  -21.1001 26065.7 -03417.8 -07.4702 26288.8
 03 05 2013  16 20  -21.0994 26065.6 -03417.9 -07.4704 26288.8
 03 05 2013  16 21  -21.0992 26065.7 -03418.0 -07.4706 26288.8
 03 05 2013  16 22  -21.0991 26065.9 -03418.2 -07.4709 26289.0
 03 05 2013  16 23  -21.0986 26065.9 -03418.2 -07.4709 26289.0
 03 05 2013  16 24  -21.0977 26065.6 -03418.0 -07.4707 26288.7
 03 05 2013  16 25  -21.0967 26065.4 -03418.0 -07.4706 26288.5
 03 05 2013  16 26  -21.0958 26065.0 -03418.0 -07.4707 26288.2
 03 05 2013  16 27  -21.0946 26064.6 -03418.0 -07.4708 26287.8
 03 05 2013  16 28  -21.0935 26064.4 -03418.2 -07.4713 26287.6
 03 05 2013  16 29  -21.0929 26064.6 -03418.5 -07.4719 26287.8
 03 05 2013  16 30  -21.0923 26064.7 -03418.8 -07.4725 26288.0
 03 05 2013  16 31  -21.0920 26065.2 -03419.2 -07.4733 26288.6
 03 05 2013  16 32  -21.0918 26065.5 -03419.5 -07.4738 26288.9
 03 05 2013  16 33  -21.0913 26065.5 -03419.5 -07.4739 26288.9
 03 05 2013  16 34  -21.0907 26065.6 -03419.6 -07.4741 26288.9
 03 05 2013  16 35  -21.0901 26065.5 -03419.6 -07.4740 26288.9
 03 05 2013  16 36  -21.0891 26065.4 -03419.4 -07.4737 26288.7
 03 05 2013  16 37  -21.0883 26065.0 -03419.3 -07.4735 26288.3
 03 05 2013  16 38  -21.0876 26064.7 -03419.2 -07.4734 26288.0
 03 05 2013  16 39  -21.0871 26064.5 -03419.2 -07.4735 26287.8
 03 05 2013  16 40  -21.0864 26064.2 -03419.2 -07.4736 26287.5
 03 05 2013  16 41  -21.0861 26064.0 -03419.2 -07.4737 26287.3
 03 05 2013  16 42  -21.0860 26064.0 -03419.3 -07.4740 26287.4
 03 05 2013  16 43  -21.0859 26064.2 -03419.5 -07.4742 26287.5
 03 05 2013  16 44  -21.0860 26064.2 -03419.5 -07.4742 26287.5
 03 05 2013  16 45  -21.0861 26064.5 -03419.6 -07.4744 26287.8
 03 05 2013  16 46  -21.0859 26065.2 -03419.8 -07.4747 26288.6
 03 05 2013  16 47  -21.0865 26065.9 -03419.9 -07.4747 26289.3
 03 05 2013  16 48  -21.0869 26066.6 -03420.0 -07.4746 26290.0
 03 05 2013  16 49  -21.0870 26066.7 -03419.7 -07.4740 26290.1
 03 05 2013  16 50  -21.0873 26067.1 -03419.6 -07.4735 26290.4
 03 05 2013  16 51  -21.0871 26066.8 -03419.1 -07.4727 26290.1
 03 05 2013  16 52  -21.0867 26066.7 -03418.9 -07.4722 26289.9
 03 05 2013  16 53  -21.0864 26066.4 -03418.6 -07.4717 26289.7
 03 05 2013  16 54  -21.0858 26066.3 -03418.4 -07.4713 26289.5
 03 05 2013  16 55  -21.0851 26066.0 -03418.2 -07.4710 26289.2
 03 05 2013  16 56  -21.0845 26066.0 -03418.3 -07.4710 26289.2
 03 05 2013  16 57  -21.0841 26066.0 -03418.2 -07.4710 26289.2
 03 05 2013  16 58  -21.0837 26065.8 -03418.1 -07.4708 26288.9
 03 05 2013  16 59  -21.0833 26065.5 -03418.0 -07.4707 26288.6
 03 05 2013  17 00  -21.0828 26065.0 -03417.9 -07.4706 26288.1
 03 05 2013  17 01  -21.0827 26064.9 -03418.0 -07.4709 26288.0
 03 05 2013  17 02  -21.0825 26064.6 -03418.1 -07.4711 26287.8
 03 05 2013  17 03  -21.0823 26064.4 -03418.1 -07.4713 26287.5
 03 05 2013  17 04  -21.0820 26064.1 -03418.3 -07.4716 26287.3
 03 05 2013  17 05  -21.0814 26064.0 -03418.3 -07.4717 26287.2
 03 05 2013  17 06  -21.0808 26064.0 -03418.4 -07.4720 26287.3
 03 05 2013  17 07  -21.0802 26064.0 -03418.5 -07.4721 26287.2
 03 05 2013  17 08  -21.0793 26063.4 -03418.3 -07.4719 26286.6
 03 05 2013  17 09  -21.0784 26062.7 -03418.2 -07.4719 26285.9
 03 05 2013  17 10  -21.0778 26062.2 -03418.3 -07.4722 26285.4
 03 05 2013  17 11  -21.0775 26061.8 -03418.5 -07.4727 26285.0
 03 05 2013  17 12  -21.0773 26061.5 -03418.7 -07.4733 26284.7
 03 05 2013  17 13  -21.0774 26061.3 -03419.0 -07.4739 26284.6
 03 05 2013  17 14  -21.0776 26060.9 -03419.1 -07.4742 26284.2
 03 05 2013  17 15  -21.0772 26060.2 -03419.1 -07.4745 26283.6
 03 05 2013  17 16  -21.0767 26059.8 -03419.2 -07.4749 26283.1
 03 05 2013  17 17  -21.0762 26059.2 -03419.3 -07.4753 26282.6
 03 05 2013  17 18  -21.0758 26058.6 -03419.4 -07.4757 26282.0
 03 05 2013  17 19  -21.0755 26058.1 -03419.6 -07.4762 26281.5
 03 05 2013  17 20  -21.0752 26057.6 -03419.8 -07.4768 26281.1
 03 05 2013  17 21  -21.0751 26057.4 -03420.1 -07.4775 26280.9
 03 05 2013  17 22  -21.0754 26057.3 -03420.5 -07.4782 26280.8
 03 05 2013  17 23  -21.0754 26057.0 -03420.7 -07.4788 26280.6
 03 05 2013  17 24  -21.0756 26056.6 -03420.8 -07.4792 26280.2
 03 05 2013  17 25  -21.0753 26056.1 -03420.9 -07.4795 26279.7
 03 05 2013  17 26  -21.0753 26056.0 -03421.1 -07.4799 26279.7
 03 05 2013  17 27  -21.0759 26056.5 -03421.3 -07.4803 26280.1
 03 05 2013  17 28  -21.0764 26056.9 -03421.4 -07.4804 26280.5
 03 05 2013  17 29  -21.0766 26057.3 -03421.3 -07.4801 26281.0
 03 05 2013  17 30  -21.0766 26057.5 -03421.1 -07.4796 26281.1
 03 05 2013  17 31  -21.0766 26057.1 -03420.8 -07.4791 26280.7
 03 05 2013  17 32  -21.0767 26056.7 -03420.6 -07.4786 26280.3
 03 05 2013  17 33  -21.0766 26056.2 -03420.3 -07.4783 26279.7
 03 05 2013  17 34  -21.0766 26055.6 -03420.1 -07.4779 26279.1
 03 05 2013  17 35  -21.0767 26055.1 -03420.0 -07.4778 26278.6
 03 05 2013  17 36  -21.0767 26054.6 -03419.8 -07.4777 26278.1
 03 05 2013  17 37  -21.0766 26054.2 -03419.8 -07.4777 26277.6
 03 05 2013  17 38  -21.0766 26053.7 -03419.7 -07.4776 26277.1
 03 05 2013  17 39  -21.0766 26053.1 -03419.6 -07.4776 26276.6
 03 05 2013  17 40  -21.0767 26052.5 -03419.5 -07.4776 26276.0
 03 05 2013  17 41  -21.0765 26052.1 -03419.5 -07.4778 26275.5
 03 05 2013  17 42  -21.0765 26051.9 -03419.7 -07.4782 26275.4
 03 05 2013  17 43  -21.0760 26051.5 -03419.7 -07.4783 26275.0
 03 05 2013  17 44  -21.0756 26051.0 -03419.8 -07.4786 26274.5
 03 05 2013  17 45  -21.0746 26050.1 -03419.6 -07.4785 26273.6
 03 05 2013  17 46  -21.0735 26049.0 -03419.5 -07.4785 26272.5
 03 05 2013  17 47  -21.0729 26048.3 -03419.6 -07.4790 26271.8
 03 05 2013  17 48  -21.0728 26047.6 -03419.7 -07.4794 26271.1
 03 05 2013  17 49  -21.0728 26047.1 -03419.9 -07.4800 26270.7
 03 05 2013  17 50  -21.0727 26046.7 -03420.1 -07.4805 26270.3
 03 05 2013  17 51  -21.0723 26046.3 -03420.2 -07.4808 26269.9
 03 05 2013  17 52  -21.0719 26045.6 -03420.2 -07.4810 26269.2
 03 05 2013  17 53  -21.0714 26045.0 -03420.3 -07.4814 26268.6
 03 05 2013  17 54  -21.0706 26044.4 -03420.4 -07.4817 26268.0
 03 05 2013  17 55  -21.0702 26044.1 -03420.6 -07.4823 26267.8
 03 05 2013  17 56  -21.0696 26043.9 -03420.8 -07.4828 26267.6
 03 05 2013  17 57  -21.0689 26043.3 -03420.9 -07.4831 26267.0
 03 05 2013  17 58  -21.0680 26042.5 -03420.9 -07.4834 26266.2
 03 05 2013  17 59  -21.0676 26041.8 -03421.0 -07.4839 26265.5
 03 05 2013  18 00  -21.0677 26041.7 -03421.4 -07.4846 26265.5
 03 05 2013  18 01  -21.0679 26041.9 -03421.8 -07.4854 26265.8
 03 05 2013  18 02  -21.0678 26041.5 -03421.9 -07.4858 26265.4
 03 05 2013  18 03  -21.0677 26041.2 -03422.0 -07.4861 26265.1
 03 05 2013  18 04  -21.0680 26041.5 -03422.3 -07.4868 26265.4
 03 05 2013  18 05  -21.0683 26041.4 -03422.6 -07.4874 26265.4
 03 05 2013  18 06  -21.0679 26040.8 -03422.5 -07.4874 26264.8
 03 05 2013  18 07  -21.0680 26040.2 -03422.4 -07.4873 26264.1
 03 05 2013  18 08  -21.0687 26040.3 -03422.6 -07.4878 26264.3
 03 05 2013  18 09  -21.0689 26040.4 -03422.9 -07.4884 26264.4
 03 05 2013  18 10  -21.0686 26040.4 -03423.1 -07.4888 26264.4
 03 05 2013  18 11  -21.0682 26040.1 -03423.2 -07.4890 26264.1
 03 05 2013  18 12  -21.0678 26039.7 -03423.3 -07.4893 26263.7
 03 05 2013  18 13  -21.0672 26039.2 -03423.3 -07.4896 26263.3
 03 05 2013  18 14  -21.0667 26038.8 -03423.5 -07.4900 26262.9
 03 05 2013  18 15  -21.0670 26039.1 -03423.9 -07.4909 26263.2
 03 05 2013  18 16  -21.0677 26039.7 -03424.4 -07.4918 26263.9
 03 05 2013  18 17  -21.0681 26040.0 -03424.7 -07.4923 26264.3
 03 05 2013  18 18  -21.0682 26039.9 -03424.7 -07.4923 26264.1
 03 05 2013  18 19  -21.0680 26039.5 -03424.5 -07.4922 26263.7
 03 05 2013  18 20  -21.0676 26038.9 -03424.4 -07.4920 26263.1
 03 05 2013  18 21  -21.0673 26038.5 -03424.4 -07.4921 26262.7
 03 05 2013  18 22  -21.0672 26038.3 -03424.5 -07.4924 26262.5
 03 05 2013  18 23  -21.0669 26037.8 -03424.5 -07.4926 26262.1
 03 05 2013  18 24  -21.0666 26037.5 -03424.6 -07.4927 26261.7
 03 05 2013  18 25  -21.0664 26037.0 -03424.6 -07.4929 26261.3
 03 05 2013  18 26  -21.0666 26036.6 -03424.6 -07.4931 26260.9
 03 05 2013  18 27  -21.0666 26036.2 -03424.6 -07.4933 26260.5
 03 05 2013  18 28  -21.0666 26036.0 -03424.8 -07.4936 26260.3
 03 05 2013  18 29  -21.0669 26036.0 -03424.9 -07.4940 26260.3
 03 05 2013  18 30  -21.0670 26035.9 -03425.1 -07.4943 26260.2
 03 05 2013  18 31  -21.0670 26035.8 -03425.2 -07.4945 26260.2
 03 05 2013  18 32  -21.0671 26035.7 -03425.3 -07.4948 26260.1
 03 05 2013  18 33  -21.0670 26035.7 -03425.3 -07.4950 26260.1
 03 05 2013  18 34  -21.0671 26035.8 -03425.5 -07.4952 26260.2
 03 05 2013  18 35  -21.0671 26035.9 -03425.6 -07.4954 26260.2
 03 05 2013  18 36  -21.0668 26035.7 -03425.6 -07.4954 26260.0
 03 05 2013  18 37  -21.0664 26035.4 -03425.5 -07.4954 26259.8
 03 05 2013  18 38  -21.0660 26035.2 -03425.5 -07.4955 26259.5
 03 05 2013  18 39  -21.0658 26035.0 -03425.6 -07.4956 26259.3
 03 05 2013  18 40  -21.0657 26034.9 -03425.6 -07.4958 26259.3
 03 05 2013  18 41  -21.0657 26034.9 -03425.8 -07.4961 26259.3
 03 05 2013  18 42  -21.0656 26035.0 -03425.9 -07.4963 26259.4
 03 05 2013  18 43  -21.0656 26035.0 -03425.9 -07.4964 26259.4
 03 05 2013  18 44  -21.0655 26035.2 -03426.1 -07.4967 26259.7
 03 05 2013  18 45  -21.0653 26035.3 -03426.2 -07.4970 26259.8
 03 05 2013  18 46  -21.0654 26035.3 -03426.3 -07.4971 26259.8
 03 05 2013  18 47  -21.0652 26035.1 -03426.2 -07.4970 26259.6
 03 05 2013  18 48  -21.0649 26034.9 -03426.2 -07.4970 26259.3
 03 05 2013  18 49  -21.0646 26034.8 -03426.2 -07.4972 26259.2
 03 05 2013  18 50  -21.0644 26034.6 -03426.2 -07.4972 26259.1
 03 05 2013  18 51  -21.0640 26034.5 -03426.3 -07.4973 26259.0
 03 05 2013  18 52  -21.0638 26034.5 -03426.4 -07.4976 26259.0
 03 05 2013  18 53  -21.0636 26034.5 -03426.5 -07.4978 26259.0
 03 05 2013  18 54  -21.0633 26034.2 -03426.4 -07.4978 26258.7
 03 05 2013  18 55  -21.0628 26033.8 -03426.4 -07.4978 26258.3
 03 05 2013  18 56  -21.0621 26033.2 -03426.3 -07.4977 26257.7
 03 05 2013  18 57  -21.0613 26032.9 -03426.3 -07.4978 26257.4
 03 05 2013  18 58  -21.0613 26032.9 -03426.5 -07.4982 26257.5
 03 05 2013  18 59  -21.0614 26033.2 -03426.8 -07.4987 26257.7
 03 05 2013  19 00  -21.0612 26033.1 -03426.8 -07.4989 26257.7
 03 05 2013  19 01  -21.0610 26033.1 -03426.9 -07.4991 26257.7
 03 05 2013  19 02  -21.0609 26033.1 -03427.0 -07.4993 26257.7
 03 05 2013  19 03  -21.0606 26032.9 -03427.0 -07.4994 26257.4
 03 05 2013  19 04  -21.0604 26032.7 -03427.0 -07.4995 26257.3
 03 05 2013  19 05  -21.0605 26032.6 -03427.1 -07.4996 26257.2
 03 05 2013  19 06  -21.0594 26031.7 -03426.8 -07.4992 26256.3
 03 05 2013  19 07  -21.0597 26031.9 -03427.0 -07.4996 26256.5
 03 05 2013  19 08  -21.0601 26032.1 -03427.2 -07.5000 26256.8
 03 05 2013  19 09  -21.0597 26031.9 -03427.2 -07.5000 26256.6
 03 05 2013  19 10  -21.0594 26031.9 -03427.2 -07.5001 26256.5
 03 05 2013  19 11  -21.0592 26031.9 -03427.3 -07.5004 26256.5
 03 05 2013  19 12  -21.0591 26031.9 -03427.4 -07.5006 26256.6
 03 05 2013  19 13  -21.0590 26031.9 -03427.5 -07.5008 26256.6
 03 05 2013  19 14  -21.0593 26032.2 -03427.8 -07.5012 26256.9
 03 05 2013  19 15  -21.0595 26032.3 -03427.9 -07.5014 26257.0
 03 05 2013  19 16  -21.0597 26032.3 -03427.9 -07.5014 26257.0
 03 05 2013  19 17  -21.0598 26032.2 -03427.9 -07.5014 26256.9
 03 05 2013  19 18  -21.0597 26032.0 -03427.7 -07.5012 26256.7
 03 05 2013  19 19  -21.0590 26031.5 -03427.5 -07.5008 26256.2
 03 05 2013  19 20  -21.0584 26030.9 -03427.3 -07.5005 26255.6
 03 05 2013  19 21  -21.0579 26030.5 -03427.2 -07.5005 26255.2
 03 05 2013  19 22  -21.0578 26030.2 -03427.2 -07.5006 26254.8
 03 05 2013  19 23  -21.0579 26029.8 -03427.3 -07.5008 26254.4
 03 05 2013  19 24  -21.0578 26029.7 -03427.3 -07.5010 26254.3
 03 05 2013  19 25  -21.0577 26029.7 -03427.5 -07.5013 26254.4
 03 05 2013  19 26  -21.0569 26029.7 -03427.5 -07.5014 26254.4
 03 05 2013  19 27  -21.0568 26029.7 -03427.6 -07.5016 26254.4
 03 05 2013  19 28  -21.0568 26029.6 -03427.7 -07.5018 26254.3
 03 05 2013  19 29  -21.0568 26029.6 -03427.8 -07.5021 26254.3
 03 05 2013  19 30  -21.0568 26029.6 -03427.9 -07.5022 26254.3
 03 05 2013  19 31  -21.0568 26029.6 -03428.0 -07.5024 26254.4
 03 05 2013  19 32  -21.0567 26029.4 -03428.0 -07.5024 26254.2
 03 05 2013  19 33  -21.0565 26029.3 -03427.9 -07.5024 26254.0
 03 05 2013  19 34  -21.0564 26029.3 -03428.0 -07.5025 26254.1
 03 05 2013  19 35  -21.0563 26029.3 -03428.1 -07.5026 26254.1
 03 05 2013  19 36  -21.0561 26029.3 -03428.1 -07.5027 26254.0
 03 05 2013  19 37  -21.0559 26029.1 -03428.1 -07.5027 26253.8
 03 05 2013  19 38  -21.0556 26029.0 -03428.1 -07.5029 26253.8
 03 05 2013  19 39  -21.0554 26029.0 -03428.2 -07.5030 26253.8
 03 05 2013  19 40  -21.0552 26028.9 -03428.2 -07.5031 26253.6
 03 05 2013  19 41  -21.0550 26028.7 -03428.2 -07.5032 26253.5
 03 05 2013  19 42  -21.0549 26028.4 -03428.2 -07.5033 26253.2
 03 05 2013  19 43  -21.0549 26028.4 -03428.3 -07.5035 26253.2
 03 05 2013  19 44  -21.0551 26028.5 -03428.5 -07.5038 26253.3
 03 05 2013  19 45  -21.0551 26028.5 -03428.5 -07.5039 26253.3
 03 05 2013  19 46  -21.0552 26028.4 -03428.5 -07.5039 26253.2
 03 05 2013  19 47  -21.0551 26028.3 -03428.4 -07.5038 26253.1
 03 05 2013  19 48  -21.0549 26027.9 -03428.3 -07.5036 26252.7
 03 05 2013  19 49  -21.0545 26027.4 -03428.1 -07.5032 26252.2
 03 05 2013  19 50  -21.0540 26027.0 -03428.0 -07.5031 26251.8
 03 05 2013  19 51  -21.0535 26026.7 -03427.9 -07.5031 26251.4
 03 05 2013  19 52  -21.0530 26026.4 -03427.9 -07.5032 26251.2
 03 05 2013  19 53  -21.0527 26026.3 -03428.0 -07.5034 26251.0
 03 05 2013  19 54  -21.0522 26026.2 -03428.1 -07.5037 26251.0
 03 05 2013  19 55  -21.0520 26026.3 -03428.3 -07.5041 26251.1
 03 05 2013  19 56  -21.0517 26026.3 -03428.5 -07.5044 26251.2
 03 05 2013  19 57  -21.0514 26026.4 -03428.7 -07.5048 26251.3
 03 05 2013  19 58  -21.0512 26026.4 -03428.8 -07.5051 26251.3
 03 05 2013  19 59  -21.0512 26026.5 -03429.0 -07.5054 26251.4
 03 05 2013  20 00  -21.0512 26026.5 -03429.1 -07.5056 26251.4
 03 05 2013  20 01  -21.0512 26026.4 -03429.1 -07.5057 26251.3
 03 05 2013  20 02  -21.0508 26026.2 -03429.1 -07.5057 26251.1
 03 05 2013  20 03  -21.0506 26025.9 -03429.0 -07.5057 26250.8
 03 05 2013  20 04  -21.0504 26025.8 -03429.1 -07.5059 26250.8
 03 05 2013  20 05  -21.0502 26025.8 -03429.2 -07.5061 26250.8
 03 05 2013  20 06  -21.0500 26025.6 -03429.2 -07.5061 26250.6
 03 05 2013  20 07  -21.0498 26025.6 -03429.3 -07.5064 26250.6
 03 05 2013  20 08  -21.0498 26025.7 -03429.4 -07.5066 26250.6
 03 05 2013  20 09  -21.0497 26025.6 -03429.4 -07.5067 26250.6
 03 05 2013  20 10  -21.0496 26025.7 -03429.5 -07.5068 26250.7
 03 05 2013  20 11  -21.0497 26025.9 -03429.7 -07.5071 26250.9
 03 05 2013  20 12  -21.0499 26025.9 -03429.7 -07.5072 26250.9
 03 05 2013  20 13  -21.0499 26026.0 -03429.7 -07.5072 26251.0
 03 05 2013  20 14  -21.0499 26025.9 -03429.7 -07.5071 26250.9
 03 05 2013  20 15  -21.0500 26026.0 -03429.7 -07.5072 26251.0
 03 05 2013  20 16  -21.0501 26025.9 -03429.7 -07.5071 26250.9
 03 05 2013  20 17  -21.0500 26025.8 -03429.6 -07.5070 26250.8
 03 05 2013  20 18  -21.0500 26025.6 -03429.5 -07.5068 26250.6
 03 05 2013  20 19  -21.0499 26025.4 -03429.4 -07.5067 26250.4
 03 05 2013  20 20  -21.0497 26025.4 -03429.4 -07.5067 26250.4
 03 05 2013  20 21  -21.0496 26025.4 -03429.5 -07.5068 26250.4
 03 05 2013  20 22  -21.0494 26025.5 -03429.5 -07.5068 26250.4
 03 05 2013  20 23  -21.0493 26025.6 -03429.6 -07.5070 26250.6
 03 05 2013  20 24  -21.0492 26025.9 -03429.7 -07.5072 26250.9
 03 05 2013  20 25  -21.0491 26026.0 -03429.7 -07.5072 26251.0
 03 05 2013  20 26  -21.0491 26026.0 -03429.7 -07.5072 26251.0
 03 05 2013  20 27  -21.0489 26025.9 -03429.7 -07.5071 26250.9
 03 05 2013  20 28  -21.0486 26025.8 -03429.6 -07.5070 26250.8
 03 05 2013  20 29  -21.0484 26025.7 -03429.6 -07.5070 26250.7
 03 05 2013  20 30  -21.0484 26025.7 -03429.6 -07.5071 26250.7
 03 05 2013  20 31  -21.0484 26026.0 -03429.8 -07.5073 26251.0
 03 05 2013  20 32  -21.0483 26026.2 -03429.9 -07.5075 26251.2
 03 05 2013  20 33  -21.0483 26026.6 -03430.1 -07.5078 26251.7
 03 05 2013  20 34  -21.0484 26027.2 -03430.3 -07.5082 26252.2
 03 05 2013  20 35  -21.0486 26027.9 -03430.6 -07.5086 26253.0
 03 05 2013  20 36  -21.0488 26028.2 -03430.7 -07.5086 26253.3
 03 05 2013  20 37  -21.0490 26027.9 -03430.4 -07.5082 26253.0
 03 05 2013  20 38  -21.0492 26027.6 -03430.1 -07.5076 26252.7
 03 05 2013  20 39  -21.0494 26027.3 -03429.9 -07.5073 26252.3
 03 05 2013  20 40  -21.0493 26026.9 -03429.7 -07.5068 26251.8
 03 05 2013  20 41  -21.0492 26026.4 -03429.4 -07.5064 26251.3
 03 05 2013  20 42  -21.0490 26025.8 -03429.2 -07.5061 26250.8
 03 05 2013  20 43  -21.0487 26025.7 -03429.2 -07.5061 26250.6
 03 05 2013  20 44  -21.0487 26025.7 -03429.3 -07.5063 26250.7
 03 05 2013  20 45  -21.0488 26025.9 -03429.5 -07.5068 26250.9
 03 05 2013  20 46  -21.0486 26026.2 -03429.8 -07.5072 26251.3
 03 05 2013  20 47  -21.0484 26026.6 -03429.9 -07.5075 26251.6
 03 05 2013  20 48  -21.0479 26026.7 -03429.9 -07.5074 26251.7
 03 05 2013  20 49  -21.0473 26026.3 -03429.7 -07.5072 26251.3
 03 05 2013  20 50  -21.0467 26025.7 -03429.5 -07.5067 26250.7
 03 05 2013  20 51  -21.0465 26025.6 -03429.4 -07.5067 26250.6
 03 05 2013  20 52  -21.0465 26025.5 -03429.5 -07.5068 26250.5
 03 05 2013  20 53  -21.0464 26025.5 -03429.6 -07.5071 26250.5
 03 05 2013  20 54  -21.0462 26025.7 -03429.7 -07.5073 26250.7
 03 05 2013  20 55  -21.0459 26025.6 -03429.7 -07.5073 26250.6
 03 05 2013  20 56  -21.0456 26025.5 -03429.7 -07.5074 26250.5
 03 05 2013  20 57  -21.0454 26025.6 -03429.8 -07.5074 26250.6
 03 05 2013  20 58  -21.0454 26025.7 -03430.0 -07.5078 26250.8
 03 05 2013  20 59  -21.0453 26025.9 -03430.1 -07.5081 26251.0
 03 05 2013  21 00  -21.0451 26026.0 -03430.2 -07.5083 26251.1
 03 05 2013  21 01  -21.0449 26026.0 -03430.3 -07.5084 26251.1
 03 05 2013  21 02  -21.0447 26025.9 -03430.3 -07.5084 26251.0
 03 05 2013  21 03  -21.0444 26025.9 -03430.3 -07.5084 26250.9
 03 05 2013  21 04  -21.0440 26025.8 -03430.3 -07.5085 26250.9
 03 05 2013  21 05  -21.0437 26025.6 -03430.2 -07.5084 26250.7
 03 05 2013  21 06  -21.0435 26025.6 -03430.3 -07.5085 26250.7
 03 05 2013  21 07  -21.0434 26025.5 -03430.3 -07.5086 26250.6
 03 05 2013  21 08  -21.0431 26025.7 -03430.5 -07.5089 26250.8
 03 05 2013  21 09  -21.0427 26026.0 -03430.7 -07.5093 26251.1
 03 05 2013  21 10  -21.0424 26026.3 -03430.9 -07.5097 26251.5
 03 05 2013  21 11  -21.0420 26026.6 -03431.1 -07.5101 26251.8
 03 05 2013  21 12  -21.0420 26026.7 -03431.3 -07.5104 26251.9
 03 05 2013  21 13  -21.0417 26026.7 -03431.3 -07.5105 26251.9
 03 05 2013  21 14  -21.0416 26026.9 -03431.5 -07.5108 26252.1
 03 05 2013  21 15  -21.0412 26027.1 -03431.7 -07.5111 26252.4
 03 05 2013  21 16  -21.0410 26027.2 -03431.8 -07.5112 26252.5
 03 05 2013  21 17  -21.0412 26027.3 -03431.9 -07.5115 26252.6
 03 05 2013  21 18  -21.0414 26027.5 -03432.0 -07.5118 26252.8
 03 05 2013  21 19  -21.0415 26027.5 -03432.1 -07.5119 26252.8
 03 05 2013  21 20  -21.0419 26027.4 -03432.1 -07.5120 26252.7
 03 05 2013  21 21  -21.0423 26027.3 -03432.1 -07.5120 26252.6
 03 05 2013  21 22  -21.0424 26027.1 -03432.1 -07.5120 26252.4
 03 05 2013  21 23  -21.0424 26027.0 -03432.0 -07.5119 26252.3
 03 05 2013  21 24  -21.0425 26026.9 -03432.1 -07.5120 26252.2
 03 05 2013  21 25  -21.0425 26026.9 -03432.1 -07.5121 26252.2
 03 05 2013  21 26  -21.0425 26026.8 -03432.1 -07.5122 26252.1
 03 05 2013  21 27  -21.0424 26026.8 -03432.2 -07.5124 26252.1
 03 05 2013  21 28  -21.0425 26026.8 -03432.3 -07.5126 26252.1
 03 05 2013  21 29  -21.0425 26026.9 -03432.5 -07.5129 26252.2
 03 05 2013  21 30  -21.0426 26027.0 -03432.6 -07.5132 26252.4
 03 05 2013  21 31  -21.0427 26027.0 -03432.8 -07.5135 26252.4
 03 05 2013  21 32  -21.0429 26027.1 -03432.9 -07.5137 26252.5
 03 05 2013  21 33  -21.0432 26027.0 -03432.9 -07.5139 26252.4
 03 05 2013  21 34  -21.0434 26027.1 -03433.0 -07.5141 26252.5
 03 05 2013  21 35  -21.0437 26027.2 -03433.2 -07.5143 26252.6
 03 05 2013  21 36  -21.0439 26027.2 -03433.3 -07.5146 26252.7
 03 05 2013  21 37  -21.0442 26027.3 -03433.4 -07.5147 26252.8
 03 05 2013  21 38  -21.0445 26027.3 -03433.4 -07.5148 26252.8
 03 05 2013  21 39  -21.0447 26027.3 -03433.5 -07.5150 26252.8
 03 05 2013  21 40  -21.0450 26027.4 -03433.7 -07.5153 26252.9
 03 05 2013  21 41  -21.0451 26027.5 -03433.8 -07.5155 26253.0
 03 05 2013  21 42  -21.0452 26027.7 -03433.9 -07.5158 26253.3
 03 05 2013  21 43  -21.0453 26028.0 -03434.1 -07.5161 26253.6
 03 05 2013  21 44  -21.0454 26028.3 -03434.3 -07.5165 26253.9
 03 05 2013  21 45  -21.0457 26028.7 -03434.6 -07.5169 26254.3
 03 05 2013  21 46  -21.0460 26028.9 -03434.8 -07.5173 26254.6
 03 05 2013  21 47  -21.0462 26029.0 -03434.8 -07.5174 26254.6
 03 05 2013  21 48  -21.0467 26029.1 -03434.9 -07.5176 26254.8
 03 05 2013  21 49  -21.0471 26028.9 -03434.8 -07.5174 26254.5
 03 05 2013  21 50  -21.0476 26028.6 -03434.7 -07.5172 26254.2
 03 05 2013  21 51  -21.0481 26028.7 -03434.7 -07.5173 26254.3
 03 05 2013  21 52  -21.0483 26028.6 -03434.7 -07.5173 26254.3
 03 05 2013  21 53  -21.0484 26028.4 -03434.7 -07.5172 26254.1
 03 05 2013  21 54  -21.0487 26028.4 -03434.6 -07.5171 26254.0
 03 05 2013  21 55  -21.0489 26028.4 -03434.6 -07.5172 26254.0
 03 05 2013  21 56  -21.0490 26028.3 -03434.6 -07.5172 26253.9
 03 05 2013  21 57  -21.0490 26028.2 -03434.7 -07.5172 26253.9
 03 05 2013  21 58  -21.0490 26028.2 -03434.6 -07.5172 26253.8
 03 05 2013  21 59  -21.0489 26028.2 -03434.7 -07.5172 26253.8
 03 05 2013  22 00  -21.0490 26028.2 -03434.7 -07.5173 26253.8
 03 05 2013  22 01  -21.0491 26028.2 -03434.7 -07.5173 26253.8
 03 05 2013  22 02  -21.0492 26028.2 -03434.8 -07.5175 26253.8
 03 05 2013  22 03  -21.0493 26028.2 -03434.8 -07.5175 26253.8
 03 05 2013  22 04  -21.0495 26028.2 -03434.8 -07.5176 26253.8
 03 05 2013  22 05  -21.0496 26028.2 -03434.9 -07.5177 26253.9
 03 05 2013  22 06  -21.0497 26028.2 -03434.9 -07.5177 26253.8
 03 05 2013  22 07  -21.0500 26028.2 -03434.9 -07.5178 26253.9
 03 05 2013  22 08  -21.0501 26028.3 -03434.9 -07.5178 26253.9
 03 05 2013  22 09  -21.0501 26028.2 -03434.9 -07.5178 26253.8
 03 05 2013  22 10  -21.0504 26028.2 -03434.9 -07.5178 26253.9
 03 05 2013  22 11  -21.0509 26028.3 -03435.0 -07.5179 26253.9
 03 05 2013  22 12  -21.0514 26028.3 -03435.0 -07.5180 26254.0
 03 05 2013  22 13  -21.0518 26028.5 -03435.1 -07.5182 26254.2
 03 05 2013  22 14  -21.0522 26028.7 -03435.2 -07.5183 26254.4
 03 05 2013  22 15  -21.0526 26028.9 -03435.3 -07.5184 26254.6
 03 05 2013  22 16  -21.0530 26029.0 -03435.4 -07.5185 26254.7
 03 05 2013  22 17  -21.0532 26028.9 -03435.3 -07.5184 26254.6
 03 05 2013  22 18  -21.0533 26028.5 -03435.0 -07.5180 26254.2
 03 05 2013  22 19  -21.0534 26028.1 -03434.8 -07.5176 26253.7
 03 05 2013  22 20  -21.0537 26027.7 -03434.6 -07.5173 26253.3
 03 05 2013  22 21  -21.0539 26027.4 -03434.5 -07.5171 26253.0
 03 05 2013  22 22  -21.0541 26027.3 -03434.5 -07.5171 26252.9
 03 05 2013  22 23  -21.0542 26027.3 -03434.5 -07.5171 26253.0
 03 05 2013  22 24  -21.0543 26027.3 -03434.6 -07.5173 26253.0
 03 05 2013  22 25  -21.0543 26027.2 -03434.5 -07.5172 26252.8
 03 05 2013  22 26  -21.0543 26027.2 -03434.5 -07.5172 26252.8
 03 05 2013  22 27  -21.0543 26027.2 -03434.5 -07.5173 26252.8
 03 05 2013  22 28  -21.0542 26027.2 -03434.6 -07.5174 26252.9
 03 05 2013  22 29  -21.0542 26027.3 -03434.7 -07.5176 26252.9
 03 05 2013  22 30  -21.0540 26027.2 -03434.7 -07.5176 26252.8
 03 05 2013  22 31  -21.0539 26027.0 -03434.6 -07.5175 26252.6
 03 05 2013  22 32  -21.0540 26026.8 -03434.6 -07.5175 26252.5
 03 05 2013  22 33  -21.0538 26026.7 -03434.6 -07.5175 26252.4
 03 05 2013  22 34  -21.0538 26026.5 -03434.5 -07.5175 26252.2
 03 05 2013  22 35  -21.0538 26026.4 -03434.5 -07.5174 26252.0
 03 05 2013  22 36  -21.0537 26026.3 -03434.5 -07.5175 26251.9
 03 05 2013  22 37  -21.0538 26026.3 -03434.5 -07.5175 26251.9
 03 05 2013  22 38  -21.0538 26026.3 -03434.6 -07.5177 26251.9
 03 05 2013  22 39  -21.0539 26026.3 -03434.7 -07.5178 26252.0
 03 05 2013  22 40  -21.0540 26026.4 -03434.8 -07.5180 26252.1
 03 05 2013  22 41  -21.0542 26026.5 -03434.9 -07.5182 26252.2
 03 05 2013  22 42  -21.0545 26026.7 -03435.0 -07.5184 26252.4
 03 05 2013  22 43  -21.0546 26026.7 -03435.0 -07.5185 26252.4
 03 05 2013  22 44  -21.0547 26026.8 -03435.1 -07.5185 26252.5
 03 05 2013  22 45  -21.0548 26026.9 -03435.1 -07.5186 26252.6
 03 05 2013  22 46  -21.0550 26026.9 -03435.2 -07.5187 26252.6
 03 05 2013  22 47  -21.0551 26027.1 -03435.2 -07.5188 26252.8
 03 05 2013  22 48  -21.0553 26027.2 -03435.3 -07.5189 26252.9
 03 05 2013  22 49  -21.0556 26027.3 -03435.4 -07.5190 26253.0
 03 05 2013  22 50  -21.0558 26027.3 -03435.3 -07.5190 26253.0
 03 05 2013  22 51  -21.0560 26027.2 -03435.3 -07.5189 26252.9
 03 05 2013  22 52  -21.0562 26027.2 -03435.3 -07.5189 26252.9
 03 05 2013  22 53  -21.0563 26027.2 -03435.2 -07.5188 26252.9
 03 05 2013  22 54  -21.0564 26027.3 -03435.3 -07.5189 26253.0
 03 05 2013  22 55  -21.0566 26027.4 -03435.3 -07.5190 26253.1
 03 05 2013  22 56  -21.0567 26027.4 -03435.4 -07.5190 26253.1
 03 05 2013  22 57  -21.0567 26027.3 -03435.4 -07.5190 26253.1
 03 05 2013  22 58  -21.0568 26027.3 -03435.3 -07.5190 26253.0
 03 05 2013  22 59  -21.0568 26027.2 -03435.3 -07.5189 26252.9
 03 05 2013  23 00  -21.0567 26027.0 -03435.2 -07.5188 26252.7
 03 05 2013  23 01  -21.0567 26026.8 -03435.1 -07.5187 26252.6
 03 05 2013  23 02  -21.0568 26026.7 -03435.1 -07.5186 26252.4
 03 05 2013  23 03  -21.0569 26026.7 -03435.1 -07.5186 26252.4
 03 05 2013  23 04  -21.0571 26026.7 -03435.2 -07.5187 26252.5
 03 05 2013  23 05  -21.0572 26026.9 -03435.2 -07.5189 26252.6
 03 05 2013  23 06  -21.0572 26026.9 -03435.3 -07.5190 26252.7
 03 05 2013  23 07  -21.0572 26026.9 -03435.3 -07.5190 26252.7
 03 05 2013  23 08  -21.0572 26027.0 -03435.4 -07.5191 26252.7
 03 05 2013  23 09  -21.0573 26026.9 -03435.4 -07.5191 26252.7
 03 05 2013  23 10  -21.0575 26026.8 -03435.3 -07.5190 26252.5
 03 05 2013  23 11  -21.0575 26026.7 -03435.3 -07.5190 26252.4
 03 05 2013  23 12  -21.0576 26026.7 -03435.3 -07.5190 26252.5
 03 05 2013  23 13  -21.0576 26026.7 -03435.3 -07.5191 26252.4
 03 05 2013  23 14  -21.0576 26026.6 -03435.3 -07.5190 26252.3
 03 05 2013  23 15  -21.0575 26026.5 -03435.2 -07.5190 26252.2
 03 05 2013  23 16  -21.0575 26026.4 -03435.2 -07.5189 26252.1
 03 05 2013  23 17  -21.0575 26026.2 -03435.1 -07.5188 26251.9
 03 05 2013  23 18  -21.0576 26026.0 -03435.1 -07.5188 26251.7
 03 05 2013  23 19  -21.0577 26025.9 -03435.1 -07.5189 26251.6
 03 05 2013  23 20  -21.0577 26025.9 -03435.1 -07.5189 26251.6
 03 05 2013  23 21  -21.0576 26025.9 -03435.1 -07.5189 26251.6
 03 05 2013  23 22  -21.0576 26025.8 -03435.1 -07.5190 26251.5
 03 05 2013  23 23  -21.0576 26025.7 -03435.1 -07.5190 26251.4
 03 05 2013  23 24  -21.0577 26025.6 -03435.1 -07.5190 26251.3
 03 05 2013  23 25  -21.0579 26025.7 -03435.2 -07.5191 26251.4
 03 05 2013  23 26  -21.0581 26025.6 -03435.2 -07.5191 26251.3
 03 05 2013  23 27  -21.0580 26025.7 -03435.2 -07.5191 26251.4
 03 05 2013  23 28  -21.0581 26025.7 -03435.3 -07.5193 26251.4
 03 05 2013  23 29  -21.0580 26025.8 -03435.3 -07.5194 26251.5
 03 05 2013  23 30  -21.0579 26025.9 -03435.4 -07.5194 26251.6
 03 05 2013  23 31  -21.0579 26025.9 -03435.4 -07.5195 26251.7
 03 05 2013  23 32  -21.0580 26025.9 -03435.5 -07.5196 26251.7
 03 05 2013  23 33  -21.0580 26026.1 -03435.5 -07.5198 26251.9
 03 05 2013  23 34  -21.0580 26026.2 -03435.6 -07.5198 26252.0
 03 05 2013  23 35  -21.0580 26026.1 -03435.6 -07.5199 26251.9
 03 05 2013  23 36  -21.0577 26026.2 -03435.6 -07.5199 26252.0
 03 05 2013  23 37  -21.0576 26026.2 -03435.6 -07.5198 26251.9
 03 05 2013  23 38  -21.0575 26025.9 -03435.5 -07.5197 26251.7
 03 05 2013  23 39  -21.0574 26025.8 -03435.5 -07.5197 26251.6
 03 05 2013  23 40  -21.0573 26025.7 -03435.4 -07.5196 26251.5
 03 05 2013  23 41  -21.0569 26025.7 -03435.4 -07.5196 26251.5
 03 05 2013  23 42  -21.0568 26025.5 -03435.3 -07.5195 26251.2
 03 05 2013  23 43  -21.0567 26025.4 -03435.3 -07.5195 26251.1
 03 05 2013  23 44  -21.0565 26025.4 -03435.3 -07.5194 26251.1
 03 05 2013  23 45  -21.0566 26025.3 -03435.3 -07.5195 26251.0
 03 05 2013  23 46  -21.0566 26025.1 -03435.3 -07.5195 26250.9
 03 05 2013  23 47  -21.0568 26025.0 -03435.3 -07.5195 26250.8
 03 05 2013  23 48  -21.0567 26025.1 -03435.4 -07.5197 26250.8
 03 05 2013  23 49  -21.0567 26025.1 -03435.4 -07.5197 26250.9
 03 05 2013  23 50  -21.0569 26024.8 -03435.3 -07.5196 26250.6
 03 05 2013  23 51  -21.0568 26024.6 -03435.2 -07.5195 26250.4
 03 05 2013  23 52  -21.0569 26024.5 -03435.2 -07.5195 26250.3
 03 05 2013  23 53  -21.0569 26024.5 -03435.2 -07.5195 26250.2
 03 05 2013  23 54  -21.0568 26024.3 -03435.2 -07.5195 26250.1
 03 05 2013  23 55  -21.0567 26024.2 -03435.1 -07.5194 26249.9
 03 05 2013  23 56  -21.0566 26024.0 -03435.1 -07.5194 26249.8
 03 05 2013  23 57  -21.0565 26024.0 -03435.1 -07.5194 26249.7
 03 05 2013  23 58  -21.0564 26023.9 -03435.1 -07.5195 26249.7
