SAO LUIS EMBRACE-03 <063> 1 Min. Reported data

 DD MM YYYY  HH MM   D(Deg)  H(nT)   Z(nT)   I(Deg)   F(nT)

 04 03 2013  00 00  -21.0574 26030.9 -03414.5 -07.4729 26253.8
 04 03 2013  00 01  -21.0574 26030.9 -03414.6 -07.4730 26253.9
 04 03 2013  00 02  -21.0574 26030.9 -03414.6 -07.4730 26253.9
 04 03 2013  00 03  -21.0572 26031.1 -03414.6 -07.4731 26254.1
 04 03 2013  00 04  -21.0571 26031.2 -03414.7 -07.4733 26254.2
 04 03 2013  00 05  -21.0571 26031.4 -03414.8 -07.4735 26254.4
 04 03 2013  00 06  -21.0570 26031.6 -03414.9 -07.4736 26254.6
 04 03 2013  00 07  -21.0569 26031.6 -03415.0 -07.4737 26254.7
 04 03 2013  00 08  -21.0567 26031.6 -03414.9 -07.4735 26254.6
 04 03 2013  00 09  -21.0566 26031.5 -03414.9 -07.4735 26254.6
 04 03 2013  00 10  -21.0567 26031.4 -03414.9 -07.4735 26254.4
 04 03 2013  00 11  -21.0570 26031.3 -03414.8 -07.4734 26254.3
 04 03 2013  00 12  -21.0573 26031.2 -03414.7 -07.4733 26254.2
 04 03 2013  00 13  -21.0576 26031.0 -03414.7 -07.4732 26254.1
 04 03 2013  00 14  -21.0579 26031.0 -03414.7 -07.4733 26254.0
 04 03 2013  00 15  -21.0582 26031.0 -03414.7 -07.4732 26254.0
 04 03 2013  00 16  -21.0584 26030.9 -03414.7 -07.4732 26253.9
 04 03 2013  00 17  -21.0585 26030.8 -03414.6 -07.4731 26253.8
 04 03 2013  00 18  -21.0587 26030.6 -03414.5 -07.4729 26253.6
 04 03 2013  00 19  -21.0587 26030.6 -03414.4 -07.4728 26253.5
 04 03 2013  00 20  -21.0589 26030.4 -03414.4 -07.4727 26253.4
 04 03 2013  00 21  -21.0591 26030.2 -03414.3 -07.4726 26253.1
 04 03 2013  00 22  -21.0592 26030.1 -03414.2 -07.4725 26253.0
 04 03 2013  00 23  -21.0590 26029.9 -03414.1 -07.4724 26252.8
 04 03 2013  00 24  -21.0592 26029.7 -03414.1 -07.4724 26252.7
 04 03 2013  00 25  -21.0592 26029.7 -03414.1 -07.4724 26252.7
 04 03 2013  00 26  -21.0596 26029.8 -03414.2 -07.4726 26252.7
 04 03 2013  00 27  -21.0597 26029.7 -03414.3 -07.4727 26252.6
 04 03 2013  00 28  -21.0598 26029.6 -03414.3 -07.4727 26252.6
 04 03 2013  00 29  -21.0600 26029.6 -03414.3 -07.4727 26252.6
 04 03 2013  00 30  -21.0601 26029.6 -03414.3 -07.4728 26252.6
 04 03 2013  00 31  -21.0602 26029.9 -03414.5 -07.4731 26252.9
 04 03 2013  00 32  -21.0605 26030.0 -03414.6 -07.4733 26253.0
 04 03 2013  00 33  -21.0609 26030.3 -03414.8 -07.4737 26253.4
 04 03 2013  00 34  -21.0616 26030.4 -03414.9 -07.4738 26253.4
 04 03 2013  00 35  -21.0618 26030.3 -03414.8 -07.4738 26253.3
 04 03 2013  00 36  -21.0618 26030.2 -03414.7 -07.4736 26253.2
 04 03 2013  00 37  -21.0621 26030.0 -03414.6 -07.4734 26253.0
 04 03 2013  00 38  -21.0625 26030.0 -03414.6 -07.4734 26253.0
 04 03 2013  00 39  -21.0629 26029.9 -03414.6 -07.4733 26252.9
 04 03 2013  00 40  -21.0633 26029.7 -03414.5 -07.4732 26252.7
 04 03 2013  00 41  -21.0636 26029.6 -03414.4 -07.4731 26252.6
 04 03 2013  00 42  -21.0639 26029.4 -03414.4 -07.4730 26252.4
 04 03 2013  00 43  -21.0641 26029.4 -03414.3 -07.4729 26252.4
 04 03 2013  00 44  -21.0643 26029.3 -03414.3 -07.4728 26252.2
 04 03 2013  00 45  -21.0643 26029.1 -03414.1 -07.4726 26252.0
 04 03 2013  00 46  -21.0640 26029.0 -03414.1 -07.4725 26252.0
 04 03 2013  00 47  -21.0639 26028.9 -03414.0 -07.4724 26251.8
 04 03 2013  00 48  -21.0638 26028.9 -03414.0 -07.4724 26251.8
 04 03 2013  00 49  -21.0634 26028.8 -03414.1 -07.4725 26251.8
 04 03 2013  00 50  -21.0630 26028.9 -03414.1 -07.4726 26251.9
 04 03 2013  00 51  -21.0625 26028.9 -03414.1 -07.4726 26251.9
 04 03 2013  00 52  -21.0617 26028.9 -03414.1 -07.4726 26251.9
 04 03 2013  00 53  -21.0609 26028.9 -03414.2 -07.4727 26251.9
 04 03 2013  00 54  -21.0605 26028.8 -03414.1 -07.4727 26251.8
 04 03 2013  00 55  -21.0603 26028.7 -03414.1 -07.4727 26251.7
 04 03 2013  00 56  -21.0601 26028.5 -03414.1 -07.4726 26251.5
 04 03 2013  00 57  -21.0601 26028.5 -03414.1 -07.4727 26251.5
 04 03 2013  00 58  -21.0598 26028.6 -03414.2 -07.4729 26251.5
 04 03 2013  00 59  -21.0593 26028.5 -03414.2 -07.4730 26251.5
 04 03 2013  01 00  -21.0588 26028.4 -03414.2 -07.4729 26251.4
 04 03 2013  01 01  -21.0584 26028.4 -03414.2 -07.4729 26251.4
 04 03 2013  01 02  -21.0581 26028.3 -03414.2 -07.4729 26251.2
 04 03 2013  01 03  -21.0577 26028.0 -03414.1 -07.4727 26251.0
 04 03 2013  01 04  -21.0573 26027.9 -03414.0 -07.4727 26250.8
 04 03 2013  01 05  -21.0571 26027.7 -03414.0 -07.4726 26250.6
 04 03 2013  01 06  -21.0567 26027.6 -03413.9 -07.4726 26250.5
 04 03 2013  01 07  -21.0566 26027.4 -03413.9 -07.4726 26250.3
 04 03 2013  01 08  -21.0563 26027.3 -03413.9 -07.4726 26250.2
 04 03 2013  01 09  -21.0562 26027.4 -03414.0 -07.4729 26250.3
 04 03 2013  01 10  -21.0560 26027.5 -03414.2 -07.4731 26250.5
 04 03 2013  01 11  -21.0557 26027.6 -03414.3 -07.4733 26250.6
 04 03 2013  01 12  -21.0554 26027.7 -03414.3 -07.4734 26250.7
 04 03 2013  01 13  -21.0554 26027.6 -03414.3 -07.4735 26250.6
 04 03 2013  01 14  -21.0549 26027.6 -03414.3 -07.4734 26250.6
 04 03 2013  01 15  -21.0546 26027.6 -03414.4 -07.4736 26250.6
 04 03 2013  01 16  -21.0546 26027.6 -03414.5 -07.4737 26250.6
 04 03 2013  01 17  -21.0546 26027.7 -03414.5 -07.4738 26250.8
 04 03 2013  01 18  -21.0549 26027.7 -03414.6 -07.4740 26250.8
 04 03 2013  01 19  -21.0548 26027.5 -03414.5 -07.4738 26250.5
 04 03 2013  01 20  -21.0549 26027.3 -03414.4 -07.4736 26250.3
 04 03 2013  01 21  -21.0549 26027.2 -03414.3 -07.4736 26250.2
 04 03 2013  01 22  -21.0551 26027.2 -03414.3 -07.4735 26250.2
 04 03 2013  01 23  -21.0556 26026.9 -03414.2 -07.4734 26249.9
 04 03 2013  01 24  -21.0558 26026.7 -03414.1 -07.4732 26249.7
 04 03 2013  01 25  -21.0556 26026.5 -03413.9 -07.4729 26249.4
 04 03 2013  01 26  -21.0555 26026.2 -03413.8 -07.4728 26249.2
 04 03 2013  01 27  -21.0554 26026.0 -03413.7 -07.4726 26248.9
 04 03 2013  01 28  -21.0553 26025.7 -03413.7 -07.4725 26248.6
 04 03 2013  01 29  -21.0553 26025.6 -03413.6 -07.4725 26248.5
 04 03 2013  01 30  -21.0553 26025.4 -03413.6 -07.4725 26248.3
 04 03 2013  01 31  -21.0552 26025.1 -03413.5 -07.4724 26248.0
 04 03 2013  01 32  -21.0547 26025.0 -03413.4 -07.4723 26247.9
 04 03 2013  01 33  -21.0541 26024.9 -03413.5 -07.4724 26247.8
 04 03 2013  01 34  -21.0537 26025.0 -03413.5 -07.4725 26247.9
 04 03 2013  01 35  -21.0537 26025.0 -03413.6 -07.4727 26247.9
 04 03 2013  01 36  -21.0536 26025.2 -03413.8 -07.4730 26248.1
 04 03 2013  01 37  -21.0535 26025.2 -03413.9 -07.4731 26248.1
 04 03 2013  01 38  -21.0531 26025.1 -03413.9 -07.4732 26248.1
 04 03 2013  01 39  -21.0523 26025.3 -03414.0 -07.4733 26248.2
 04 03 2013  01 40  -21.0519 26025.2 -03414.0 -07.4734 26248.2
 04 03 2013  01 41  -21.0518 26025.2 -03414.1 -07.4735 26248.2
 04 03 2013  01 42  -21.0521 26025.2 -03414.2 -07.4737 26248.2
 04 03 2013  01 43  -21.0523 26025.3 -03414.3 -07.4739 26248.3
 04 03 2013  01 44  -21.0522 26025.4 -03414.3 -07.4740 26248.4
 04 03 2013  01 45  -21.0523 26025.6 -03414.4 -07.4742 26248.6
 04 03 2013  01 46  -21.0522 26025.8 -03414.5 -07.4743 26248.8
 04 03 2013  01 47  -21.0520 26025.9 -03414.6 -07.4744 26249.0
 04 03 2013  01 48  -21.0521 26026.1 -03414.7 -07.4746 26249.1
 04 03 2013  01 49  -21.0522 26026.3 -03414.8 -07.4747 26249.4
 04 03 2013  01 50  -21.0523 26026.6 -03414.9 -07.4750 26249.7
 04 03 2013  01 51  -21.0525 26026.8 -03415.0 -07.4752 26249.9
 04 03 2013  01 52  -21.0523 26027.1 -03415.1 -07.4753 26250.3
 04 03 2013  01 53  -21.0522 26027.3 -03415.2 -07.4754 26250.4
 04 03 2013  01 54  -21.0518 26027.6 -03415.3 -07.4755 26250.8
 04 03 2013  01 55  -21.0516 26027.6 -03415.3 -07.4755 26250.7
 04 03 2013  01 56  -21.0514 26027.7 -03415.3 -07.4755 26250.8
 04 03 2013  01 57  -21.0512 26028.0 -03415.4 -07.4755 26251.1
 04 03 2013  01 58  -21.0513 26028.1 -03415.4 -07.4756 26251.3
 04 03 2013  01 59  -21.0510 26028.6 -03415.6 -07.4758 26251.7
 04 03 2013  02 00  -21.0509 26028.9 -03415.7 -07.4760 26252.1
 04 03 2013  02 01  -21.0509 26029.3 -03415.9 -07.4763 26252.5
 04 03 2013  02 02  -21.0508 26029.5 -03416.0 -07.4764 26252.7
 04 03 2013  02 03  -21.0507 26029.8 -03416.1 -07.4766 26253.0
 04 03 2013  02 04  -21.0505 26030.2 -03416.1 -07.4766 26253.4
 04 03 2013  02 05  -21.0508 26030.1 -03416.1 -07.4765 26253.3
 04 03 2013  02 06  -21.0508 26030.2 -03416.0 -07.4764 26253.4
 04 03 2013  02 07  -21.0510 26030.3 -03416.0 -07.4764 26253.5
 04 03 2013  02 08  -21.0513 26030.2 -03415.9 -07.4761 26253.4
 04 03 2013  02 09  -21.0514 26030.1 -03415.8 -07.4759 26253.3
 04 03 2013  02 10  -21.0516 26029.9 -03415.6 -07.4755 26253.0
 04 03 2013  02 11  -21.0516 26029.7 -03415.5 -07.4753 26252.9
 04 03 2013  02 12  -21.0513 26029.7 -03415.3 -07.4751 26252.8
 04 03 2013  02 13  -21.0510 26029.5 -03415.2 -07.4749 26252.6
 04 03 2013  02 14  -21.0511 26029.1 -03415.0 -07.4745 26252.2
 04 03 2013  02 15  -21.0514 26029.3 -03415.1 -07.4745 26252.4
 04 03 2013  02 16  -21.0516 26029.2 -03415.0 -07.4745 26252.2
 04 03 2013  02 17  -21.0518 26028.9 -03414.9 -07.4743 26252.0
 04 03 2013  02 18  -21.0518 26028.9 -03414.9 -07.4742 26251.9
 04 03 2013  02 19  -21.0516 26028.7 -03414.8 -07.4741 26251.7
 04 03 2013  02 20  -21.0512 26028.4 -03414.6 -07.4737 26251.4
 04 03 2013  02 21  -21.0511 26028.1 -03414.5 -07.4736 26251.1
 04 03 2013  02 22  -21.0511 26027.9 -03414.4 -07.4734 26250.9
 04 03 2013  02 23  -21.0513 26027.6 -03414.3 -07.4734 26250.6
 04 03 2013  02 24  -21.0514 26027.4 -03414.2 -07.4733 26250.3
 04 03 2013  02 25  -21.0514 26027.1 -03414.2 -07.4732 26250.1
 04 03 2013  02 26  -21.0512 26026.9 -03414.1 -07.4731 26249.9
 04 03 2013  02 27  -21.0513 26026.8 -03414.1 -07.4731 26249.8
 04 03 2013  02 28  -21.0513 26026.7 -03414.1 -07.4732 26249.7
 04 03 2013  02 29  -21.0516 26026.8 -03414.2 -07.4733 26249.8
 04 03 2013  02 30  -21.0519 26026.9 -03414.3 -07.4735 26249.9
 04 03 2013  02 31  -21.0522 26027.1 -03414.4 -07.4738 26250.1
 04 03 2013  02 32  -21.0523 26027.1 -03414.5 -07.4738 26250.1
 04 03 2013  02 33  -21.0519 26027.1 -03414.4 -07.4738 26250.1
 04 03 2013  02 34  -21.0512 26027.0 -03414.4 -07.4737 26250.0
 04 03 2013  02 35  -21.0506 26027.0 -03414.3 -07.4737 26250.0
 04 03 2013  02 36  -21.0503 26026.9 -03414.3 -07.4736 26249.9
 04 03 2013  02 37  -21.0500 26026.8 -03414.3 -07.4737 26249.8
 04 03 2013  02 38  -21.0498 26026.9 -03414.4 -07.4739 26249.9
 04 03 2013  02 39  -21.0497 26027.1 -03414.6 -07.4741 26250.1
 04 03 2013  02 40  -21.0496 26027.2 -03414.7 -07.4743 26250.3
 04 03 2013  02 41  -21.0494 26027.3 -03414.8 -07.4745 26250.4
 04 03 2013  02 42  -21.0492 26027.5 -03414.9 -07.4746 26250.6
 04 03 2013  02 43  -21.0490 26027.6 -03414.9 -07.4747 26250.7
 04 03 2013  02 44  -21.0488 26027.7 -03415.0 -07.4749 26250.8
 04 03 2013  02 45  -21.0486 26027.7 -03415.0 -07.4749 26250.8
 04 03 2013  02 46  -21.0485 26027.6 -03415.0 -07.4748 26250.6
 04 03 2013  02 47  -21.0484 26027.8 -03415.0 -07.4749 26250.8
 04 03 2013  02 48  -21.0485 26027.9 -03415.2 -07.4751 26251.0
 04 03 2013  02 49  -21.0486 26028.2 -03415.3 -07.4754 26251.4
 04 03 2013  02 50  -21.0485 26028.5 -03415.5 -07.4756 26251.6
 04 03 2013  02 51  -21.0481 26028.7 -03415.6 -07.4758 26251.8
 04 03 2013  02 52  -21.0480 26028.8 -03415.6 -07.4759 26252.0
 04 03 2013  02 53  -21.0480 26029.0 -03415.7 -07.4760 26252.1
 04 03 2013  02 54  -21.0479 26029.0 -03415.7 -07.4759 26252.1
 04 03 2013  02 55  -21.0479 26028.8 -03415.6 -07.4758 26251.9
 04 03 2013  02 56  -21.0480 26028.8 -03415.5 -07.4757 26251.9
 04 03 2013  02 57  -21.0485 26028.8 -03415.6 -07.4758 26252.0
 04 03 2013  02 58  -21.0489 26028.8 -03415.6 -07.4759 26252.0
 04 03 2013  02 59  -21.0494 26028.8 -03415.6 -07.4759 26252.0
 04 03 2013  03 00  -21.0499 26028.8 -03415.6 -07.4759 26251.9
 04 03 2013  03 01  -21.0504 26028.7 -03415.6 -07.4759 26251.9
 04 03 2013  03 02  -21.0509 26028.7 -03415.6 -07.4758 26251.9
 04 03 2013  03 03  -21.0512 26028.6 -03415.5 -07.4757 26251.8
 04 03 2013  03 04  -21.0512 26028.5 -03415.4 -07.4755 26251.6
 04 03 2013  03 05  -21.0514 26028.4 -03415.3 -07.4753 26251.5
 04 03 2013  03 06  -21.0515 26028.2 -03415.2 -07.4752 26251.4
 04 03 2013  03 07  -21.0513 26028.2 -03415.2 -07.4751 26251.3
 04 03 2013  03 08  -21.0510 26028.2 -03415.2 -07.4751 26251.3
 04 03 2013  03 09  -21.0508 26028.1 -03415.2 -07.4751 26251.2
 04 03 2013  03 10  -21.0503 26028.1 -03415.1 -07.4750 26251.2
 04 03 2013  03 11  -21.0498 26028.2 -03415.2 -07.4751 26251.3
 04 03 2013  03 12  -21.0493 26028.2 -03415.2 -07.4751 26251.3
 04 03 2013  03 13  -21.0491 26028.2 -03415.2 -07.4753 26251.3
 04 03 2013  03 14  -21.0490 26028.2 -03415.3 -07.4754 26251.3
 04 03 2013  03 15  -21.0488 26028.2 -03415.4 -07.4755 26251.4
 04 03 2013  03 16  -21.0487 26028.2 -03415.4 -07.4755 26251.3
 04 03 2013  03 17  -21.0488 26028.2 -03415.4 -07.4755 26251.3
 04 03 2013  03 18  -21.0489 26028.1 -03415.4 -07.4756 26251.2
 04 03 2013  03 19  -21.0488 26028.1 -03415.4 -07.4756 26251.2
 04 03 2013  03 20  -21.0485 26028.2 -03415.4 -07.4756 26251.3
 04 03 2013  03 21  -21.0483 26028.2 -03415.4 -07.4757 26251.4
 04 03 2013  03 22  -21.0482 26028.3 -03415.5 -07.4758 26251.5
 04 03 2013  03 23  -21.0480 26028.5 -03415.6 -07.4759 26251.6
 04 03 2013  03 24  -21.0478 26028.5 -03415.6 -07.4760 26251.6
 04 03 2013  03 25  -21.0476 26028.4 -03415.6 -07.4759 26251.6
 04 03 2013  03 26  -21.0474 26028.4 -03415.6 -07.4759 26251.5
 04 03 2013  03 27  -21.0475 26028.3 -03415.6 -07.4760 26251.5
 04 03 2013  03 28  -21.0476 26028.3 -03415.6 -07.4760 26251.5
 04 03 2013  03 29  -21.0476 26028.4 -03415.6 -07.4760 26251.5
 04 03 2013  03 30  -21.0476 26028.4 -03415.7 -07.4761 26251.6
 04 03 2013  03 31  -21.0473 26028.5 -03415.7 -07.4761 26251.6
 04 03 2013  03 32  -21.0468 26028.6 -03415.7 -07.4761 26251.7
 04 03 2013  03 33  -21.0464 26028.7 -03415.8 -07.4762 26251.9
 04 03 2013  03 34  -21.0462 26028.8 -03415.8 -07.4763 26252.0
 04 03 2013  03 35  -21.0463 26028.9 -03415.9 -07.4765 26252.1
 04 03 2013  03 36  -21.0465 26028.9 -03416.0 -07.4766 26252.1
 04 03 2013  03 37  -21.0466 26029.1 -03416.0 -07.4767 26252.3
 04 03 2013  03 38  -21.0467 26029.3 -03416.1 -07.4769 26252.5
 04 03 2013  03 39  -21.0466 26029.5 -03416.2 -07.4770 26252.7
 04 03 2013  03 40  -21.0466 26029.6 -03416.3 -07.4771 26252.9
 04 03 2013  03 41  -21.0466 26029.8 -03416.4 -07.4772 26253.1
 04 03 2013  03 42  -21.0465 26029.8 -03416.4 -07.4772 26253.1
 04 03 2013  03 43  -21.0463 26029.9 -03416.4 -07.4772 26253.1
 04 03 2013  03 44  -21.0464 26029.9 -03416.4 -07.4771 26253.2
 04 03 2013  03 45  -21.0465 26030.0 -03416.4 -07.4772 26253.2
 04 03 2013  03 46  -21.0466 26030.0 -03416.4 -07.4772 26253.2
 04 03 2013  03 47  -21.0467 26030.0 -03416.4 -07.4772 26253.2
 04 03 2013  03 48  -21.0466 26030.1 -03416.4 -07.4772 26253.3
 04 03 2013  03 49  -21.0465 26030.2 -03416.4 -07.4772 26253.4
 04 03 2013  03 50  -21.0462 26030.2 -03416.4 -07.4771 26253.4
 04 03 2013  03 51  -21.0461 26030.3 -03416.4 -07.4771 26253.5
 04 03 2013  03 52  -21.0462 26030.3 -03416.4 -07.4772 26253.6
 04 03 2013  03 53  -21.0462 26030.3 -03416.4 -07.4771 26253.5
 04 03 2013  03 54  -21.0459 26030.2 -03416.3 -07.4770 26253.4
 04 03 2013  03 55  -21.0457 26030.0 -03416.2 -07.4769 26253.3
 04 03 2013  03 56  -21.0456 26030.0 -03416.2 -07.4768 26253.2
 04 03 2013  03 57  -21.0456 26029.9 -03416.2 -07.4768 26253.1
 04 03 2013  03 58  -21.0456 26029.8 -03416.1 -07.4767 26253.0
 04 03 2013  03 59  -21.0453 26029.6 -03416.0 -07.4765 26252.8
 04 03 2013  04 00  -21.0449 26029.5 -03415.9 -07.4764 26252.6
 04 03 2013  04 01  -21.0446 26029.5 -03415.9 -07.4764 26252.6
 04 03 2013  04 02  -21.0444 26029.5 -03416.0 -07.4765 26252.7
 04 03 2013  04 03  -21.0443 26029.5 -03416.0 -07.4766 26252.7
 04 03 2013  04 04  -21.0442 26029.6 -03416.1 -07.4767 26252.8
 04 03 2013  04 05  -21.0438 26029.6 -03416.1 -07.4767 26252.8
 04 03 2013  04 06  -21.0431 26029.6 -03416.1 -07.4767 26252.8
 04 03 2013  04 07  -21.0427 26029.6 -03416.1 -07.4768 26252.8
 04 03 2013  04 08  -21.0425 26029.7 -03416.2 -07.4770 26252.9
 04 03 2013  04 09  -21.0423 26029.9 -03416.4 -07.4772 26253.1
 04 03 2013  04 10  -21.0421 26029.9 -03416.4 -07.4773 26253.2
 04 03 2013  04 11  -21.0418 26029.9 -03416.4 -07.4773 26253.1
 04 03 2013  04 12  -21.0414 26029.8 -03416.4 -07.4773 26253.1
 04 03 2013  04 13  -21.0410 26029.7 -03416.4 -07.4772 26253.0
 04 03 2013  04 14  -21.0408 26029.8 -03416.4 -07.4773 26253.1
 04 03 2013  04 15  -21.0408 26029.8 -03416.5 -07.4775 26253.1
 04 03 2013  04 16  -21.0409 26030.0 -03416.6 -07.4777 26253.2
 04 03 2013  04 17  -21.0410 26030.0 -03416.7 -07.4778 26253.3
 04 03 2013  04 18  -21.0411 26030.1 -03416.7 -07.4779 26253.4
 04 03 2013  04 19  -21.0410 26030.1 -03416.7 -07.4779 26253.3
 04 03 2013  04 20  -21.0410 26030.0 -03416.7 -07.4778 26253.3
 04 03 2013  04 21  -21.0410 26029.9 -03416.7 -07.4778 26253.2
 04 03 2013  04 22  -21.0410 26029.9 -03416.6 -07.4777 26253.1
 04 03 2013  04 23  -21.0409 26029.8 -03416.6 -07.4777 26253.1
 04 03 2013  04 24  -21.0407 26029.8 -03416.6 -07.4777 26253.1
 04 03 2013  04 25  -21.0404 26029.9 -03416.6 -07.4777 26253.2
 04 03 2013  04 26  -21.0402 26030.1 -03416.7 -07.4779 26253.4
 04 03 2013  04 27  -21.0400 26030.2 -03416.8 -07.4781 26253.5
 04 03 2013  04 28  -21.0399 26030.3 -03416.9 -07.4782 26253.6
 04 03 2013  04 29  -21.0400 26030.3 -03416.8 -07.4781 26253.6
 04 03 2013  04 30  -21.0400 26030.1 -03416.8 -07.4780 26253.4
 04 03 2013  04 31  -21.0399 26030.0 -03416.7 -07.4779 26253.2
 04 03 2013  04 32  -21.0398 26029.9 -03416.7 -07.4778 26253.2
 04 03 2013  04 33  -21.0397 26029.8 -03416.6 -07.4778 26253.1
 04 03 2013  04 34  -21.0398 26029.8 -03416.6 -07.4778 26253.0
 04 03 2013  04 35  -21.0399 26029.8 -03416.6 -07.4778 26253.0
 04 03 2013  04 36  -21.0401 26029.8 -03416.6 -07.4778 26253.1
 04 03 2013  04 37  -21.0401 26029.8 -03416.7 -07.4779 26253.1
 04 03 2013  04 38  -21.0401 26029.9 -03416.7 -07.4780 26253.2
 04 03 2013  04 39  -21.0402 26030.0 -03416.8 -07.4781 26253.3
 04 03 2013  04 40  -21.0402 26030.1 -03416.8 -07.4781 26253.4
 04 03 2013  04 41  -21.0402 26030.1 -03416.8 -07.4781 26253.4
 04 03 2013  04 42  -21.0401 26030.0 -03416.8 -07.4781 26253.3
 04 03 2013  04 43  -21.0402 26029.9 -03416.7 -07.4780 26253.2
 04 03 2013  04 44  -21.0402 26029.8 -03416.7 -07.4779 26253.1
 04 03 2013  04 45  -21.0402 26029.7 -03416.7 -07.4779 26253.0
 04 03 2013  04 46  -21.0403 26029.7 -03416.6 -07.4778 26253.0
 04 03 2013  04 47  -21.0404 26029.7 -03416.7 -07.4779 26253.0
 04 03 2013  04 48  -21.0404 26029.8 -03416.7 -07.4779 26253.1
 04 03 2013  04 49  -21.0404 26029.9 -03416.8 -07.4780 26253.2
 04 03 2013  04 50  -21.0404 26030.1 -03416.9 -07.4783 26253.4
 04 03 2013  04 51  -21.0405 26030.3 -03417.0 -07.4784 26253.7
 04 03 2013  04 52  -21.0406 26030.5 -03417.1 -07.4786 26253.8
 04 03 2013  04 53  -21.0407 26030.4 -03417.0 -07.4785 26253.7
 04 03 2013  04 54  -21.0406 26030.2 -03416.9 -07.4783 26253.6
 04 03 2013  04 55  -21.0405 26030.0 -03416.8 -07.4781 26253.3
 04 03 2013  04 56  -21.0403 26029.9 -03416.7 -07.4780 26253.2
 04 03 2013  04 57  -21.0402 26029.9 -03416.7 -07.4780 26253.2
 04 03 2013  04 58  -21.0402 26030.1 -03416.8 -07.4781 26253.4
 04 03 2013  04 59  -21.0402 26030.3 -03417.0 -07.4784 26253.6
 04 03 2013  05 00  -21.0403 26030.5 -03417.1 -07.4785 26253.9
 04 03 2013  05 01  -21.0402 26030.7 -03417.2 -07.4787 26254.0
 04 03 2013  05 02  -21.0401 26030.8 -03417.2 -07.4788 26254.1
 04 03 2013  05 03  -21.0399 26031.0 -03417.2 -07.4788 26254.3
 04 03 2013  05 04  -21.0399 26031.1 -03417.3 -07.4788 26254.5
 04 03 2013  05 05  -21.0399 26031.3 -03417.3 -07.4789 26254.6
 04 03 2013  05 06  -21.0399 26031.4 -03417.3 -07.4789 26254.7
 04 03 2013  05 07  -21.0399 26031.4 -03417.3 -07.4789 26254.8
 04 03 2013  05 08  -21.0397 26031.3 -03417.3 -07.4787 26254.7
 04 03 2013  05 09  -21.0396 26031.2 -03417.2 -07.4786 26254.6
 04 03 2013  05 10  -21.0394 26031.3 -03417.2 -07.4786 26254.6
 04 03 2013  05 11  -21.0393 26031.3 -03417.2 -07.4786 26254.7
 04 03 2013  05 12  -21.0391 26031.3 -03417.1 -07.4784 26254.6
 04 03 2013  05 13  -21.0389 26031.3 -03417.1 -07.4785 26254.6
 04 03 2013  05 14  -21.0387 26031.2 -03417.1 -07.4784 26254.5
 04 03 2013  05 15  -21.0386 26031.2 -03417.1 -07.4783 26254.5
 04 03 2013  05 16  -21.0384 26031.1 -03417.0 -07.4783 26254.4
 04 03 2013  05 17  -21.0382 26031.1 -03417.1 -07.4783 26254.5
 04 03 2013  05 18  -21.0380 26031.2 -03417.1 -07.4784 26254.5
 04 03 2013  05 19  -21.0380 26031.2 -03417.1 -07.4784 26254.5
 04 03 2013  05 20  -21.0380 26031.1 -03417.1 -07.4784 26254.4
 04 03 2013  05 21  -21.0381 26031.1 -03417.1 -07.4785 26254.5
 04 03 2013  05 22  -21.0384 26031.1 -03417.1 -07.4785 26254.4
 04 03 2013  05 23  -21.0387 26031.2 -03417.2 -07.4786 26254.6
 04 03 2013  05 24  -21.0391 26031.3 -03417.2 -07.4787 26254.7
 04 03 2013  05 25  -21.0394 26031.3 -03417.3 -07.4787 26254.7
 04 03 2013  05 26  -21.0396 26031.4 -03417.2 -07.4787 26254.8
 04 03 2013  05 27  -21.0399 26031.4 -03417.2 -07.4786 26254.8
 04 03 2013  05 28  -21.0400 26031.6 -03417.3 -07.4787 26255.0
 04 03 2013  05 29  -21.0402 26031.7 -03417.3 -07.4787 26255.1
 04 03 2013  05 30  -21.0404 26031.9 -03417.4 -07.4788 26255.2
 04 03 2013  05 31  -21.0406 26032.0 -03417.4 -07.4788 26255.3
 04 03 2013  05 32  -21.0407 26032.0 -03417.4 -07.4788 26255.4
 04 03 2013  05 33  -21.0409 26032.0 -03417.4 -07.4788 26255.4
 04 03 2013  05 34  -21.0411 26032.1 -03417.4 -07.4787 26255.5
 04 03 2013  05 35  -21.0412 26032.1 -03417.3 -07.4786 26255.5
 04 03 2013  05 36  -21.0414 26032.2 -03417.3 -07.4786 26255.5
 04 03 2013  05 37  -21.0414 26032.3 -03417.4 -07.4787 26255.6
 04 03 2013  05 38  -21.0414 26032.4 -03417.4 -07.4787 26255.7
 04 03 2013  05 39  -21.0414 26032.5 -03417.4 -07.4787 26255.9
 04 03 2013  05 40  -21.0413 26032.6 -03417.4 -07.4787 26256.0
 04 03 2013  05 41  -21.0412 26032.7 -03417.4 -07.4787 26256.0
 04 03 2013  05 42  -21.0412 26032.7 -03417.4 -07.4787 26256.0
 04 03 2013  05 43  -21.0411 26032.6 -03417.4 -07.4786 26255.9
 04 03 2013  05 44  -21.0411 26032.6 -03417.3 -07.4785 26255.9
 04 03 2013  05 45  -21.0411 26032.5 -03417.3 -07.4784 26255.8
 04 03 2013  05 46  -21.0411 26032.5 -03417.2 -07.4784 26255.8
 04 03 2013  05 47  -21.0410 26032.5 -03417.2 -07.4783 26255.8
 04 03 2013  05 48  -21.0410 26032.5 -03417.3 -07.4784 26255.9
 04 03 2013  05 49  -21.0408 26032.6 -03417.3 -07.4784 26255.9
 04 03 2013  05 50  -21.0406 26032.7 -03417.3 -07.4785 26256.0
 04 03 2013  05 51  -21.0405 26032.7 -03417.4 -07.4785 26256.1
 04 03 2013  05 52  -21.0404 26032.8 -03417.4 -07.4786 26256.1
 04 03 2013  05 53  -21.0404 26032.9 -03417.5 -07.4787 26256.3
 04 03 2013  05 54  -21.0404 26032.9 -03417.5 -07.4787 26256.3
 04 03 2013  05 55  -21.0404 26033.0 -03417.5 -07.4788 26256.4
 04 03 2013  05 56  -21.0404 26033.1 -03417.6 -07.4789 26256.5
 04 03 2013  05 57  -21.0405 26033.1 -03417.5 -07.4788 26256.5
 04 03 2013  05 58  -21.0404 26033.1 -03417.5 -07.4788 26256.4
 04 03 2013  05 59  -21.0405 26033.0 -03417.5 -07.4787 26256.4
 04 03 2013  06 00  -21.0406 26033.1 -03417.5 -07.4787 26256.5
 04 03 2013  06 01  -21.0406 26033.1 -03417.5 -07.4787 26256.5
 04 03 2013  06 02  -21.0406 26033.1 -03417.4 -07.4786 26256.4
 04 03 2013  06 03  -21.0405 26033.2 -03417.4 -07.4786 26256.5
 04 03 2013  06 04  -21.0406 26033.2 -03417.5 -07.4786 26256.6
 04 03 2013  06 05  -21.0406 26033.2 -03417.4 -07.4786 26256.6
 04 03 2013  06 06  -21.0406 26033.3 -03417.4 -07.4785 26256.6
 04 03 2013  06 07  -21.0406 26033.4 -03417.4 -07.4785 26256.7
 04 03 2013  06 08  -21.0407 26033.5 -03417.5 -07.4787 26256.9
 04 03 2013  06 09  -21.0407 26033.7 -03417.5 -07.4786 26257.0
 04 03 2013  06 10  -21.0407 26033.7 -03417.5 -07.4786 26257.1
 04 03 2013  06 11  -21.0407 26033.8 -03417.6 -07.4787 26257.1
 04 03 2013  06 12  -21.0406 26033.8 -03417.5 -07.4786 26257.2
 04 03 2013  06 13  -21.0405 26033.9 -03417.5 -07.4786 26257.2
 04 03 2013  06 14  -21.0403 26034.0 -03417.5 -07.4785 26257.3
 04 03 2013  06 15  -21.0402 26034.0 -03417.5 -07.4785 26257.4
 04 03 2013  06 16  -21.0400 26034.1 -03417.5 -07.4785 26257.5
 04 03 2013  06 17  -21.0398 26034.1 -03417.5 -07.4784 26257.5
 04 03 2013  06 18  -21.0396 26034.1 -03417.5 -07.4784 26257.5
 04 03 2013  06 19  -21.0395 26034.2 -03417.5 -07.4784 26257.5
 04 03 2013  06 20  -21.0394 26034.2 -03417.5 -07.4785 26257.5
 04 03 2013  06 21  -21.0393 26034.2 -03417.5 -07.4784 26257.6
 04 03 2013  06 22  -21.0393 26034.2 -03417.5 -07.4784 26257.6
 04 03 2013  06 23  -21.0393 26034.3 -03417.5 -07.4784 26257.6
 04 03 2013  06 24  -21.0392 26034.5 -03417.6 -07.4785 26257.9
 04 03 2013  06 25  -21.0392 26034.4 -03417.5 -07.4784 26257.7
 04 03 2013  06 26  -21.0392 26034.6 -03417.6 -07.4784 26257.9
 04 03 2013  06 27  -21.0390 26034.6 -03417.6 -07.4785 26258.0
 04 03 2013  06 28  -21.0392 26035.0 -03417.7 -07.4787 26258.3
 04 03 2013  06 29  -21.0393 26035.1 -03417.8 -07.4788 26258.5
 04 03 2013  06 30  -21.0394 26035.4 -03417.9 -07.4789 26258.7
 04 03 2013  06 31  -21.0393 26035.6 -03417.9 -07.4789 26259.0
 04 03 2013  06 32  -21.0392 26035.8 -03418.0 -07.4791 26259.2
 04 03 2013  06 33  -21.0392 26036.0 -03418.1 -07.4791 26259.4
 04 03 2013  06 34  -21.0393 26036.0 -03418.1 -07.4791 26259.5
 04 03 2013  06 35  -21.0392 26036.3 -03418.1 -07.4792 26259.7
 04 03 2013  06 36  -21.0392 26036.5 -03418.2 -07.4792 26259.9
 04 03 2013  06 37  -21.0391 26036.6 -03418.2 -07.4793 26260.0
 04 03 2013  06 38  -21.0389 26036.7 -03418.2 -07.4792 26260.1
 04 03 2013  06 39  -21.0388 26036.7 -03418.1 -07.4791 26260.1
 04 03 2013  06 40  -21.0386 26036.7 -03418.1 -07.4790 26260.1
 04 03 2013  06 41  -21.0383 26036.7 -03418.0 -07.4789 26260.1
 04 03 2013  06 42  -21.0381 26036.7 -03418.0 -07.4788 26260.0
 04 03 2013  06 43  -21.0379 26036.7 -03418.0 -07.4788 26260.1
 04 03 2013  06 44  -21.0380 26036.9 -03418.1 -07.4789 26260.3
 04 03 2013  06 45  -21.0379 26036.9 -03418.1 -07.4790 26260.3
 04 03 2013  06 46  -21.0378 26037.0 -03418.1 -07.4789 26260.4
 04 03 2013  06 47  -21.0377 26036.9 -03418.0 -07.4788 26260.3
 04 03 2013  06 48  -21.0375 26036.8 -03418.0 -07.4787 26260.2
 04 03 2013  06 49  -21.0372 26036.8 -03417.9 -07.4786 26260.1
 04 03 2013  06 50  -21.0372 26036.7 -03417.9 -07.4785 26260.1
 04 03 2013  06 51  -21.0372 26036.7 -03417.9 -07.4785 26260.0
 04 03 2013  06 52  -21.0372 26036.7 -03417.9 -07.4785 26260.0
 04 03 2013  06 53  -21.0372 26036.5 -03417.8 -07.4784 26259.9
 04 03 2013  06 54  -21.0373 26036.4 -03417.7 -07.4782 26259.7
 04 03 2013  06 55  -21.0374 26036.3 -03417.6 -07.4781 26259.7
 04 03 2013  06 56  -21.0374 26036.2 -03417.6 -07.4781 26259.6
 04 03 2013  06 57  -21.0374 26036.2 -03417.6 -07.4780 26259.5
 04 03 2013  06 58  -21.0375 26036.2 -03417.6 -07.4781 26259.5
 04 03 2013  06 59  -21.0376 26036.2 -03417.6 -07.4780 26259.5
 04 03 2013  07 00  -21.0376 26036.1 -03417.5 -07.4780 26259.5
 04 03 2013  07 01  -21.0374 26036.1 -03417.5 -07.4779 26259.4
 04 03 2013  07 02  -21.0373 26036.0 -03417.5 -07.4778 26259.4
 04 03 2013  07 03  -21.0372 26036.0 -03417.4 -07.4778 26259.4
 04 03 2013  07 04  -21.0371 26036.2 -03417.5 -07.4779 26259.5
 04 03 2013  07 05  -21.0371 26036.1 -03417.5 -07.4779 26259.5
 04 03 2013  07 06  -21.0369 26036.1 -03417.5 -07.4779 26259.4
 04 03 2013  07 07  -21.0369 26036.1 -03417.5 -07.4778 26259.4
 04 03 2013  07 08  -21.0368 26036.1 -03417.5 -07.4779 26259.5
 04 03 2013  07 09  -21.0367 26036.1 -03417.5 -07.4779 26259.5
 04 03 2013  07 10  -21.0366 26036.1 -03417.5 -07.4779 26259.4
 04 03 2013  07 11  -21.0366 26036.1 -03417.5 -07.4780 26259.5
 04 03 2013  07 12  -21.0366 26036.1 -03417.6 -07.4780 26259.5
 04 03 2013  07 13  -21.0367 26036.2 -03417.6 -07.4780 26259.5
 04 03 2013  07 14  -21.0367 26036.3 -03417.7 -07.4782 26259.7
 04 03 2013  07 15  -21.0367 26036.4 -03417.7 -07.4783 26259.8
 04 03 2013  07 16  -21.0369 26036.4 -03417.7 -07.4782 26259.7
 04 03 2013  07 17  -21.0371 26036.4 -03417.7 -07.4782 26259.7
 04 03 2013  07 18  -21.0372 26036.4 -03417.7 -07.4783 26259.8
 04 03 2013  07 19  -21.0374 26036.4 -03417.7 -07.4783 26259.7
 04 03 2013  07 20  -21.0374 26036.3 -03417.7 -07.4782 26259.7
 04 03 2013  07 21  -21.0374 26036.3 -03417.6 -07.4781 26259.6
 04 03 2013  07 22  -21.0373 26036.2 -03417.6 -07.4780 26259.5
 04 03 2013  07 23  -21.0374 26036.1 -03417.6 -07.4780 26259.5
 04 03 2013  07 24  -21.0373 26036.0 -03417.5 -07.4779 26259.4
 04 03 2013  07 25  -21.0372 26036.0 -03417.5 -07.4779 26259.3
 04 03 2013  07 26  -21.0370 26035.8 -03417.4 -07.4778 26259.2
 04 03 2013  07 27  -21.0369 26035.8 -03417.4 -07.4778 26259.1
 04 03 2013  07 28  -21.0371 26035.7 -03417.4 -07.4778 26259.0
 04 03 2013  07 29  -21.0372 26035.7 -03417.4 -07.4779 26259.0
 04 03 2013  07 30  -21.0374 26035.7 -03417.5 -07.4780 26259.0
 04 03 2013  07 31  -21.0376 26035.7 -03417.5 -07.4780 26259.0
 04 03 2013  07 32  -21.0378 26035.6 -03417.5 -07.4780 26259.0
 04 03 2013  07 33  -21.0380 26035.7 -03417.5 -07.4781 26259.0
 04 03 2013  07 34  -21.0384 26035.7 -03417.6 -07.4782 26259.1
 04 03 2013  07 35  -21.0388 26035.8 -03417.7 -07.4783 26259.1
 04 03 2013  07 36  -21.0392 26035.8 -03417.7 -07.4783 26259.2
 04 03 2013  07 37  -21.0395 26035.7 -03417.6 -07.4782 26259.1
 04 03 2013  07 38  -21.0396 26035.6 -03417.5 -07.4781 26259.0
 04 03 2013  07 39  -21.0396 26035.5 -03417.5 -07.4780 26258.9
 04 03 2013  07 40  -21.0395 26035.5 -03417.5 -07.4780 26258.9
 04 03 2013  07 41  -21.0395 26035.5 -03417.5 -07.4780 26258.8
 04 03 2013  07 42  -21.0393 26035.4 -03417.5 -07.4780 26258.7
 04 03 2013  07 43  -21.0392 26035.3 -03417.4 -07.4780 26258.6
 04 03 2013  07 44  -21.0390 26035.2 -03417.4 -07.4779 26258.5
 04 03 2013  07 45  -21.0388 26035.2 -03417.4 -07.4779 26258.5
 04 03 2013  07 46  -21.0386 26035.1 -03417.4 -07.4779 26258.4
 04 03 2013  07 47  -21.0386 26035.1 -03417.5 -07.4781 26258.5
 04 03 2013  07 48  -21.0386 26035.0 -03417.5 -07.4781 26258.4
 04 03 2013  07 49  -21.0384 26035.1 -03417.5 -07.4782 26258.4
 04 03 2013  07 50  -21.0383 26035.1 -03417.5 -07.4782 26258.4
 04 03 2013  07 51  -21.0380 26034.9 -03417.5 -07.4782 26258.2
 04 03 2013  07 52  -21.0377 26034.7 -03417.4 -07.4781 26258.1
 04 03 2013  07 53  -21.0376 26034.6 -03417.4 -07.4781 26258.0
 04 03 2013  07 54  -21.0375 26034.6 -03417.4 -07.4782 26257.9
 04 03 2013  07 55  -21.0375 26034.7 -03417.5 -07.4784 26258.0
 04 03 2013  07 56  -21.0375 26034.7 -03417.6 -07.4785 26258.1
 04 03 2013  07 57  -21.0375 26034.8 -03417.7 -07.4786 26258.2
 04 03 2013  07 58  -21.0375 26035.0 -03417.8 -07.4789 26258.4
 04 03 2013  07 59  -21.0376 26035.3 -03418.0 -07.4791 26258.7
 04 03 2013  08 00  -21.0377 26035.5 -03418.1 -07.4793 26258.9
 04 03 2013  08 01  -21.0378 26035.6 -03418.2 -07.4795 26259.0
 04 03 2013  08 02  -21.0377 26035.7 -03418.2 -07.4795 26259.1
 04 03 2013  08 03  -21.0376 26035.7 -03418.2 -07.4795 26259.1
 04 03 2013  08 04  -21.0374 26035.5 -03418.1 -07.4793 26259.0
 04 03 2013  08 05  -21.0371 26035.4 -03418.0 -07.4792 26258.8
 04 03 2013  08 06  -21.0369 26035.3 -03418.0 -07.4792 26258.7
 04 03 2013  08 07  -21.0369 26035.4 -03418.0 -07.4792 26258.8
 04 03 2013  08 08  -21.0371 26035.5 -03418.1 -07.4793 26258.9
 04 03 2013  08 09  -21.0373 26035.7 -03418.2 -07.4795 26259.1
 04 03 2013  08 10  -21.0377 26035.9 -03418.3 -07.4797 26259.3
 04 03 2013  08 11  -21.0379 26036.0 -03418.4 -07.4798 26259.5
 04 03 2013  08 12  -21.0380 26036.2 -03418.4 -07.4798 26259.6
 04 03 2013  08 13  -21.0380 26036.2 -03418.4 -07.4798 26259.7
 04 03 2013  08 14  -21.0379 26036.2 -03418.4 -07.4797 26259.6
 04 03 2013  08 15  -21.0378 26036.2 -03418.3 -07.4796 26259.6
 04 03 2013  08 16  -21.0379 26036.0 -03418.2 -07.4794 26259.4
 04 03 2013  08 17  -21.0380 26035.9 -03418.1 -07.4793 26259.3
 04 03 2013  08 18  -21.0379 26035.8 -03418.0 -07.4791 26259.2
 04 03 2013  08 19  -21.0378 26035.7 -03418.0 -07.4791 26259.1
 04 03 2013  08 20  -21.0379 26035.7 -03418.0 -07.4792 26259.1
 04 03 2013  08 21  -21.0379 26035.8 -03418.1 -07.4793 26259.2
 04 03 2013  08 22  -21.0379 26035.9 -03418.2 -07.4793 26259.3
 04 03 2013  08 23  -21.0381 26036.0 -03418.2 -07.4794 26259.5
 04 03 2013  08 24  -21.0382 26036.1 -03418.2 -07.4795 26259.5
 04 03 2013  08 25  -21.0384 26036.1 -03418.3 -07.4795 26259.5
 04 03 2013  08 26  -21.0387 26036.0 -03418.2 -07.4795 26259.5
 04 03 2013  08 27  -21.0389 26036.0 -03418.2 -07.4794 26259.4
 04 03 2013  08 28  -21.0391 26036.0 -03418.1 -07.4793 26259.4
 04 03 2013  08 29  -21.0393 26036.0 -03418.1 -07.4792 26259.4
 04 03 2013  08 30  -21.0394 26036.1 -03418.1 -07.4792 26259.5
 04 03 2013  08 31  -21.0394 26036.2 -03418.2 -07.4793 26259.6
 04 03 2013  08 32  -21.0395 26036.2 -03418.2 -07.4793 26259.6
 04 03 2013  08 33  -21.0398 26036.2 -03418.2 -07.4794 26259.7
 04 03 2013  08 34  -21.0402 26036.2 -03418.2 -07.4793 26259.6
 04 03 2013  08 35  -21.0403 26036.1 -03418.1 -07.4793 26259.6
 04 03 2013  08 36  -21.0405 26036.1 -03418.1 -07.4792 26259.5
 04 03 2013  08 37  -21.0404 26036.2 -03418.1 -07.4791 26259.6
 04 03 2013  08 38  -21.0402 26036.3 -03418.1 -07.4791 26259.7
 04 03 2013  08 39  -21.0400 26036.4 -03418.1 -07.4792 26259.8
 04 03 2013  08 40  -21.0398 26036.5 -03418.2 -07.4792 26259.9
 04 03 2013  08 41  -21.0397 26036.5 -03418.2 -07.4792 26260.0
 04 03 2013  08 42  -21.0396 26036.6 -03418.2 -07.4793 26260.0
 04 03 2013  08 43  -21.0396 26036.6 -03418.2 -07.4792 26260.0
 04 03 2013  08 44  -21.0394 26036.5 -03418.1 -07.4791 26259.9
 04 03 2013  08 45  -21.0392 26036.5 -03418.0 -07.4789 26259.9
 04 03 2013  08 46  -21.0388 26036.5 -03418.0 -07.4789 26259.9
 04 03 2013  08 47  -21.0385 26036.6 -03418.0 -07.4789 26260.0
 04 03 2013  08 48  -21.0383 26036.6 -03418.0 -07.4789 26260.0
 04 03 2013  08 49  -21.0382 26036.5 -03418.0 -07.4788 26259.9
 04 03 2013  08 50  -21.0381 26036.5 -03417.9 -07.4787 26259.8
 04 03 2013  08 51  -21.0380 26036.4 -03417.9 -07.4786 26259.7
 04 03 2013  08 52  -21.0379 26036.3 -03417.7 -07.4784 26259.6
 04 03 2013  08 53  -21.0375 26036.2 -03417.8 -07.4784 26259.6
 04 03 2013  08 54  -21.0370 26036.3 -03417.8 -07.4784 26259.6
 04 03 2013  08 55  -21.0366 26036.2 -03417.8 -07.4784 26259.6
 04 03 2013  08 56  -21.0363 26036.1 -03417.8 -07.4785 26259.5
 04 03 2013  08 57  -21.0360 26036.1 -03417.8 -07.4785 26259.5
 04 03 2013  08 58  -21.0357 26036.0 -03417.9 -07.4787 26259.4
 04 03 2013  08 59  -21.0355 26036.0 -03418.0 -07.4789 26259.4
 04 03 2013  09 00  -21.0351 26035.9 -03418.1 -07.4791 26259.3
 04 03 2013  09 01  -21.0349 26035.9 -03418.2 -07.4794 26259.3
 04 03 2013  09 02  -21.0348 26035.8 -03418.3 -07.4797 26259.3
 04 03 2013  09 03  -21.0346 26035.9 -03418.4 -07.4799 26259.3
 04 03 2013  09 04  -21.0344 26035.8 -03418.5 -07.4802 26259.3
 04 03 2013  09 05  -21.0340 26035.8 -03418.6 -07.4804 26259.3
 04 03 2013  09 06  -21.0338 26035.7 -03418.8 -07.4808 26259.2
 04 03 2013  09 07  -21.0338 26035.6 -03418.9 -07.4811 26259.1
 04 03 2013  09 08  -21.0340 26035.7 -03419.1 -07.4815 26259.2
 04 03 2013  09 09  -21.0343 26035.7 -03419.3 -07.4818 26259.3
 04 03 2013  09 10  -21.0346 26035.8 -03419.4 -07.4821 26259.3
 04 03 2013  09 11  -21.0350 26035.8 -03419.5 -07.4823 26259.4
 04 03 2013  09 12  -21.0354 26035.9 -03419.7 -07.4826 26259.5
 04 03 2013  09 13  -21.0358 26035.9 -03419.8 -07.4829 26259.6
 04 03 2013  09 14  -21.0359 26035.8 -03419.8 -07.4829 26259.4
 04 03 2013  09 15  -21.0361 26035.6 -03419.8 -07.4830 26259.3
 04 03 2013  09 16  -21.0364 26035.5 -03419.8 -07.4831 26259.1
 04 03 2013  09 17  -21.0365 26035.4 -03419.9 -07.4832 26259.0
 04 03 2013  09 18  -21.0369 26035.3 -03419.9 -07.4833 26258.9
 04 03 2013  09 19  -21.0374 26035.3 -03420.0 -07.4835 26258.9
 04 03 2013  09 20  -21.0379 26035.3 -03420.1 -07.4838 26259.0
 04 03 2013  09 21  -21.0377 26035.2 -03420.2 -07.4840 26258.9
 04 03 2013  09 22  -21.0377 26034.9 -03420.1 -07.4839 26258.6
 04 03 2013  09 23  -21.0375 26034.7 -03420.1 -07.4838 26258.3
 04 03 2013  09 24  -21.0376 26034.5 -03420.2 -07.4841 26258.2
 04 03 2013  09 25  -21.0379 26034.5 -03420.3 -07.4844 26258.2
 04 03 2013  09 26  -21.0385 26034.4 -03420.4 -07.4846 26258.1
 04 03 2013  09 27  -21.0390 26034.6 -03420.6 -07.4849 26258.3
 04 03 2013  09 28  -21.0396 26034.7 -03420.7 -07.4852 26258.5
 04 03 2013  09 29  -21.0399 26034.9 -03420.9 -07.4855 26258.7
 04 03 2013  09 30  -21.0404 26035.1 -03420.9 -07.4856 26258.9
 04 03 2013  09 31  -21.0407 26035.2 -03421.0 -07.4857 26259.0
 04 03 2013  09 32  -21.0411 26035.2 -03421.1 -07.4858 26259.0
 04 03 2013  09 33  -21.0418 26035.4 -03421.1 -07.4860 26259.2
 04 03 2013  09 34  -21.0426 26035.6 -03421.3 -07.4862 26259.4
 04 03 2013  09 35  -21.0436 26035.7 -03421.3 -07.4862 26259.5
 04 03 2013  09 36  -21.0447 26036.0 -03421.4 -07.4864 26259.8
 04 03 2013  09 37  -21.0461 26036.2 -03421.5 -07.4864 26260.0
 04 03 2013  09 38  -21.0475 26036.4 -03421.5 -07.4864 26260.2
 04 03 2013  09 39  -21.0484 26036.6 -03421.5 -07.4864 26260.4
 04 03 2013  09 40  -21.0489 26036.4 -03421.3 -07.4861 26260.2
 04 03 2013  09 41  -21.0489 26036.1 -03421.1 -07.4857 26259.9
 04 03 2013  09 42  -21.0490 26035.6 -03420.9 -07.4853 26259.4
 04 03 2013  09 43  -21.0495 26035.4 -03420.8 -07.4853 26259.2
 04 03 2013  09 44  -21.0501 26035.4 -03420.9 -07.4854 26259.2
 04 03 2013  09 45  -21.0503 26035.2 -03420.8 -07.4853 26259.0
 04 03 2013  09 46  -21.0503 26035.2 -03420.8 -07.4853 26259.0
 04 03 2013  09 47  -21.0505 26035.1 -03420.8 -07.4852 26258.8
 04 03 2013  09 48  -21.0509 26035.1 -03420.8 -07.4853 26258.8
 04 03 2013  09 49  -21.0512 26035.1 -03420.9 -07.4854 26258.9
 04 03 2013  09 50  -21.0512 26035.0 -03420.8 -07.4854 26258.8
 04 03 2013  09 51  -21.0512 26034.8 -03420.8 -07.4854 26258.6
 04 03 2013  09 52  -21.0513 26034.7 -03420.8 -07.4855 26258.5
 04 03 2013  09 53  -21.0514 26034.6 -03420.9 -07.4856 26258.4
 04 03 2013  09 54  -21.0516 26034.6 -03421.0 -07.4858 26258.4
 04 03 2013  09 55  -21.0517 26034.5 -03421.0 -07.4859 26258.3
 04 03 2013  09 56  -21.0521 26034.6 -03421.1 -07.4860 26258.4
 04 03 2013  09 57  -21.0526 26034.8 -03421.2 -07.4863 26258.6
 04 03 2013  09 58  -21.0529 26034.9 -03421.3 -07.4864 26258.7
 04 03 2013  09 59  -21.0535 26034.9 -03421.3 -07.4865 26258.8
 04 03 2013  10 00  -21.0538 26034.8 -03421.3 -07.4865 26258.6
 04 03 2013  10 01  -21.0537 26034.6 -03421.2 -07.4864 26258.4
 04 03 2013  10 02  -21.0538 26034.4 -03421.2 -07.4863 26258.2
 04 03 2013  10 03  -21.0544 26034.4 -03421.3 -07.4865 26258.3
 04 03 2013  10 04  -21.0548 26034.4 -03421.3 -07.4867 26258.3
 04 03 2013  10 05  -21.0553 26034.4 -03421.4 -07.4868 26258.3
 04 03 2013  10 06  -21.0555 26034.4 -03421.4 -07.4868 26258.2
 04 03 2013  10 07  -21.0559 26034.4 -03421.4 -07.4869 26258.2
 04 03 2013  10 08  -21.0561 26034.3 -03421.4 -07.4869 26258.2
 04 03 2013  10 09  -21.0561 26034.1 -03421.4 -07.4869 26258.0
 04 03 2013  10 10  -21.0562 26034.0 -03421.4 -07.4870 26257.8
 04 03 2013  10 11  -21.0566 26033.9 -03421.5 -07.4871 26257.8
 04 03 2013  10 12  -21.0570 26033.9 -03421.5 -07.4872 26257.7
 04 03 2013  10 13  -21.0577 26033.9 -03421.5 -07.4872 26257.8
 04 03 2013  10 14  -21.0584 26034.1 -03421.7 -07.4874 26258.0
 04 03 2013  10 15  -21.0588 26034.2 -03421.7 -07.4875 26258.1
 04 03 2013  10 16  -21.0593 26034.2 -03421.7 -07.4875 26258.1
 04 03 2013  10 17  -21.0594 26034.3 -03421.7 -07.4875 26258.2
 04 03 2013  10 18  -21.0599 26034.3 -03421.6 -07.4874 26258.1
 04 03 2013  10 19  -21.0601 26034.4 -03421.7 -07.4874 26258.3
 04 03 2013  10 20  -21.0608 26034.6 -03421.7 -07.4874 26258.5
 04 03 2013  10 21  -21.0612 26034.7 -03421.7 -07.4874 26258.6
 04 03 2013  10 22  -21.0613 26034.5 -03421.6 -07.4873 26258.3
 04 03 2013  10 23  -21.0614 26033.9 -03421.5 -07.4871 26257.8
 04 03 2013  10 24  -21.0615 26033.5 -03421.3 -07.4869 26257.4
 04 03 2013  10 25  -21.0622 26033.4 -03421.3 -07.4869 26257.2
 04 03 2013  10 26  -21.0633 26033.5 -03421.4 -07.4871 26257.4
 04 03 2013  10 27  -21.0644 26033.9 -03421.5 -07.4872 26257.8
 04 03 2013  10 28  -21.0653 26034.2 -03421.5 -07.4872 26258.1
 04 03 2013  10 29  -21.0650 26033.7 -03421.2 -07.4867 26257.6
 04 03 2013  10 30  -21.0646 26033.2 -03421.0 -07.4863 26257.0
 04 03 2013  10 31  -21.0640 26032.4 -03420.7 -07.4860 26256.2
 04 03 2013  10 32  -21.0632 26031.6 -03420.6 -07.4858 26255.4
 04 03 2013  10 33  -21.0631 26031.4 -03420.7 -07.4861 26255.1
 04 03 2013  10 34  -21.0632 26031.7 -03421.0 -07.4867 26255.5
 04 03 2013  10 35  -21.0636 26032.2 -03421.3 -07.4872 26256.0
 04 03 2013  10 36  -21.0634 26032.5 -03421.5 -07.4875 26256.4
 04 03 2013  10 37  -21.0635 26032.9 -03421.6 -07.4877 26256.7
 04 03 2013  10 38  -21.0634 26033.0 -03421.7 -07.4878 26257.0
 04 03 2013  10 39  -21.0631 26033.2 -03421.7 -07.4879 26257.1
 04 03 2013  10 40  -21.0631 26033.3 -03421.7 -07.4879 26257.2
 04 03 2013  10 41  -21.0630 26033.5 -03421.8 -07.4880 26257.4
 04 03 2013  10 42  -21.0629 26033.5 -03421.9 -07.4881 26257.5
 04 03 2013  10 43  -21.0631 26033.8 -03422.0 -07.4883 26257.8
 04 03 2013  10 44  -21.0632 26034.2 -03422.2 -07.4885 26258.2
 04 03 2013  10 45  -21.0632 26034.5 -03422.3 -07.4886 26258.5
 04 03 2013  10 46  -21.0634 26034.6 -03422.2 -07.4885 26258.6
 04 03 2013  10 47  -21.0637 26034.8 -03422.3 -07.4886 26258.8
 04 03 2013  10 48  -21.0633 26035.0 -03422.3 -07.4886 26259.0
 04 03 2013  10 49  -21.0635 26035.2 -03422.3 -07.4886 26259.1
 04 03 2013  10 50  -21.0638 26035.4 -03422.4 -07.4887 26259.4
 04 03 2013  10 51  -21.0641 26035.5 -03422.4 -07.4886 26259.4
 04 03 2013  10 52  -21.0640 26035.6 -03422.4 -07.4886 26259.6
 04 03 2013  10 53  -21.0646 26035.9 -03422.5 -07.4889 26259.9
 04 03 2013  10 54  -21.0649 26036.2 -03422.6 -07.4890 26260.2
 04 03 2013  10 55  -21.0649 26036.3 -03422.6 -07.4889 26260.3
 04 03 2013  10 56  -21.0651 26036.3 -03422.6 -07.4889 26260.3
 04 03 2013  10 57  -21.0652 26036.3 -03422.7 -07.4890 26260.3
 04 03 2013  10 58  -21.0654 26036.4 -03422.8 -07.4892 26260.5
 04 03 2013  10 59  -21.0660 26036.5 -03422.8 -07.4893 26260.5
 04 03 2013  11 00  -21.0665 26036.7 -03423.0 -07.4895 26260.7
 04 03 2013  11 01  -21.0667 26036.7 -03423.0 -07.4896 26260.8
 04 03 2013  11 02  -21.0667 26036.8 -03423.0 -07.4896 26260.8
 04 03 2013  11 03  -21.0668 26036.7 -03423.0 -07.4897 26260.7
 04 03 2013  11 04  -21.0665 26036.6 -03423.1 -07.4897 26260.7
 04 03 2013  11 05  -21.0663 26036.4 -03423.1 -07.4898 26260.5
 04 03 2013  11 06  -21.0661 26036.2 -03423.1 -07.4899 26260.2
 04 03 2013  11 07  -21.0663 26036.3 -03423.2 -07.4903 26260.4
 04 03 2013  11 08  -21.0676 26037.0 -03423.6 -07.4909 26261.1
 04 03 2013  11 09  -21.0688 26038.3 -03424.1 -07.4916 26262.4
 04 03 2013  11 10  -21.0694 26039.0 -03424.2 -07.4916 26263.2
 04 03 2013  11 11  -21.0693 26039.0 -03424.0 -07.4910 26263.2
 04 03 2013  11 12  -21.0690 26038.7 -03423.7 -07.4905 26262.8
 04 03 2013  11 13  -21.0687 26038.6 -03423.6 -07.4904 26262.7
 04 03 2013  11 14  -21.0687 26038.0 -03423.4 -07.4901 26262.0
 04 03 2013  11 15  -21.0682 26037.9 -03423.5 -07.4903 26262.0
 04 03 2013  11 16  -21.0685 26036.7 -03423.1 -07.4899 26260.7
 04 03 2013  11 17  -21.0684 26037.0 -03423.5 -07.4906 26261.1
 04 03 2013  11 18  -21.0682 26036.5 -03423.4 -07.4906 26260.6
 04 03 2013  11 19  -21.0688 26037.1 -03423.9 -07.4915 26261.3
 04 03 2013  11 20  -21.0685 26037.6 -03424.2 -07.4919 26261.8
 04 03 2013  11 21  -21.0691 26037.9 -03424.4 -07.4923 26262.1
 04 03 2013  11 22  -21.0693 26038.1 -03424.5 -07.4924 26262.3
 04 03 2013  11 23  -21.0699 26038.0 -03424.5 -07.4925 26262.2
 04 03 2013  11 24  -21.0700 26037.9 -03424.5 -07.4925 26262.2
 04 03 2013  11 25  -21.0700 26038.3 -03424.7 -07.4928 26262.5
 04 03 2013  11 26  -21.0699 26038.6 -03424.9 -07.4931 26262.9
 04 03 2013  11 27  -21.0706 26039.0 -03425.1 -07.4934 26263.3
 04 03 2013  11 28  -21.0712 26039.4 -03425.2 -07.4936 26263.7
 04 03 2013  11 29  -21.0718 26039.9 -03425.4 -07.4938 26264.2
 04 03 2013  11 30  -21.0721 26040.2 -03425.4 -07.4937 26264.6
 04 03 2013  11 31  -21.0723 26040.4 -03425.3 -07.4936 26264.7
 04 03 2013  11 32  -21.0724 26040.7 -03425.4 -07.4936 26265.0
 04 03 2013  11 33  -21.0725 26040.8 -03425.4 -07.4937 26265.2
 04 03 2013  11 34  -21.0726 26041.1 -03425.5 -07.4938 26265.4
 04 03 2013  11 35  -21.0726 26041.4 -03425.6 -07.4939 26265.7
 04 03 2013  11 36  -21.0731 26041.6 -03425.6 -07.4940 26265.9
 04 03 2013  11 37  -21.0734 26041.6 -03425.6 -07.4939 26265.9
 04 03 2013  11 38  -21.0735 26041.8 -03425.7 -07.4940 26266.2
 04 03 2013  11 39  -21.0742 26041.8 -03425.8 -07.4941 26266.2
 04 03 2013  11 40  -21.0745 26042.1 -03425.9 -07.4943 26266.5
 04 03 2013  11 41  -21.0748 26042.6 -03426.1 -07.4947 26267.0
 04 03 2013  11 42  -21.0753 26042.7 -03426.2 -07.4948 26267.1
 04 03 2013  11 43  -21.0757 26042.8 -03426.3 -07.4949 26267.2
 04 03 2013  11 44  -21.0757 26043.3 -03426.4 -07.4952 26267.7
 04 03 2013  11 45  -21.0757 26043.7 -03426.6 -07.4953 26268.2
 04 03 2013  11 46  -21.0761 26043.9 -03426.6 -07.4954 26268.4
 04 03 2013  11 47  -21.0764 26044.2 -03426.6 -07.4954 26268.6
 04 03 2013  11 48  -21.0771 26044.4 -03426.7 -07.4954 26268.9
 04 03 2013  11 49  -21.0775 26044.4 -03426.6 -07.4952 26268.9
 04 03 2013  11 50  -21.0776 26044.4 -03426.5 -07.4949 26268.9
 04 03 2013  11 51  -21.0778 26044.3 -03426.4 -07.4948 26268.8
 04 03 2013  11 52  -21.0779 26044.4 -03426.4 -07.4947 26268.8
 04 03 2013  11 53  -21.0779 26044.3 -03426.4 -07.4948 26268.7
 04 03 2013  11 54  -21.0778 26044.3 -03426.4 -07.4948 26268.7
 04 03 2013  11 55  -21.0775 26044.6 -03426.5 -07.4949 26269.0
 04 03 2013  11 56  -21.0775 26044.9 -03426.7 -07.4952 26269.4
 04 03 2013  11 57  -21.0778 26045.3 -03426.8 -07.4955 26269.8
 04 03 2013  11 58  -21.0781 26045.6 -03427.0 -07.4957 26270.1
 04 03 2013  11 59  -21.0779 26046.0 -03427.1 -07.4959 26270.5
 04 03 2013  12 00  -21.0780 26046.3 -03427.2 -07.4960 26270.8
 04 03 2013  12 01  -21.0784 26046.9 -03427.4 -07.4962 26271.4
 04 03 2013  12 02  -21.0789 26047.5 -03427.5 -07.4964 26272.0
 04 03 2013  12 03  -21.0793 26048.1 -03427.6 -07.4964 26272.6
 04 03 2013  12 04  -21.0796 26048.2 -03427.5 -07.4961 26272.8
 04 03 2013  12 05  -21.0796 26048.6 -03427.5 -07.4959 26273.1
 04 03 2013  12 06  -21.0800 26048.9 -03427.5 -07.4958 26273.4
 04 03 2013  12 07  -21.0800 26048.5 -03427.2 -07.4953 26273.0
 04 03 2013  12 08  -21.0794 26048.6 -03427.1 -07.4952 26273.0
 04 03 2013  12 09  -21.0797 26048.2 -03427.0 -07.4950 26272.6
 04 03 2013  12 10  -21.0794 26047.8 -03427.0 -07.4950 26272.3
 04 03 2013  12 11  -21.0791 26048.1 -03427.2 -07.4953 26272.6
 04 03 2013  12 12  -21.0793 26048.1 -03427.2 -07.4955 26272.6
 04 03 2013  12 13  -21.0793 26048.3 -03427.4 -07.4957 26272.9
 04 03 2013  12 14  -21.0793 26048.6 -03427.5 -07.4960 26273.1
 04 03 2013  12 15  -21.0792 26049.0 -03427.7 -07.4963 26273.5
 04 03 2013  12 16  -21.0791 26049.8 -03428.0 -07.4967 26274.4
 04 03 2013  12 17  -21.0789 26051.0 -03428.4 -07.4972 26275.6
 04 03 2013  12 18  -21.0789 26051.9 -03428.6 -07.4974 26276.5
 04 03 2013  12 19  -21.0787 26052.3 -03428.6 -07.4974 26277.0
 04 03 2013  12 20  -21.0782 26052.7 -03428.7 -07.4973 26277.4
 04 03 2013  12 21  -21.0775 26053.2 -03428.8 -07.4973 26277.9
 04 03 2013  12 22  -21.0773 26054.3 -03429.1 -07.4977 26279.0
 04 03 2013  12 23  -21.0771 26056.2 -03429.6 -07.4983 26280.9
 04 03 2013  12 24  -21.0769 26058.1 -03430.0 -07.4986 26282.9
 04 03 2013  12 25  -21.0765 26059.3 -03429.9 -07.4980 26284.0
 04 03 2013  12 26  -21.0759 26059.5 -03429.4 -07.4970 26284.2
 04 03 2013  12 27  -21.0756 26059.2 -03428.9 -07.4961 26283.8
 04 03 2013  12 28  -21.0754 26058.8 -03428.6 -07.4955 26283.4
 04 03 2013  12 29  -21.0753 26058.5 -03428.5 -07.4953 26283.1
 04 03 2013  12 30  -21.0753 26058.2 -03428.4 -07.4953 26282.7
 04 03 2013  12 31  -21.0755 26057.9 -03428.5 -07.4955 26282.5
 04 03 2013  12 32  -21.0758 26058.0 -03428.7 -07.4959 26282.6
 04 03 2013  12 33  -21.0760 26057.9 -03428.9 -07.4964 26282.5
 04 03 2013  12 34  -21.0764 26057.8 -03429.0 -07.4967 26282.5
 04 03 2013  12 35  -21.0765 26058.1 -03429.3 -07.4971 26282.8
 04 03 2013  12 36  -21.0770 26058.4 -03429.5 -07.4975 26283.1
 04 03 2013  12 37  -21.0774 26058.5 -03429.6 -07.4977 26283.2
 04 03 2013  12 38  -21.0776 26058.6 -03429.6 -07.4977 26283.3
 04 03 2013  12 39  -21.0780 26058.4 -03429.6 -07.4978 26283.1
 04 03 2013  12 40  -21.0783 26058.2 -03429.6 -07.4978 26282.9
 04 03 2013  12 41  -21.0784 26058.0 -03429.6 -07.4979 26282.7
 04 03 2013  12 42  -21.0787 26057.9 -03429.7 -07.4982 26282.7
 04 03 2013  12 43  -21.0791 26058.2 -03430.0 -07.4986 26283.0
 04 03 2013  12 44  -21.0797 26058.5 -03430.2 -07.4990 26283.3
 04 03 2013  12 45  -21.0799 26058.7 -03430.3 -07.4992 26283.5
 04 03 2013  12 46  -21.0801 26059.0 -03430.5 -07.4995 26283.8
 04 03 2013  12 47  -21.0804 26059.4 -03430.7 -07.4998 26284.3
 04 03 2013  12 48  -21.0808 26059.9 -03430.8 -07.4999 26284.8
 04 03 2013  12 49  -21.0811 26059.8 -03430.7 -07.4996 26284.7
 04 03 2013  12 50  -21.0813 26059.0 -03430.4 -07.4994 26283.8
 04 03 2013  12 51  -21.0806 26059.4 -03430.3 -07.4989 26284.2
 04 03 2013  12 52  -21.0818 26059.2 -03430.4 -07.4992 26284.0
 04 03 2013  12 53  -21.0816 26059.3 -03430.5 -07.4994 26284.1
 04 03 2013  12 54  -21.0818 26059.5 -03430.6 -07.4996 26284.3
 04 03 2013  12 55  -21.0821 26060.0 -03430.8 -07.4999 26284.8
 04 03 2013  12 56  -21.0825 26060.3 -03430.9 -07.4999 26285.2
 04 03 2013  12 57  -21.0828 26060.5 -03430.9 -07.4998 26285.4
 04 03 2013  12 58  -21.0832 26060.8 -03430.8 -07.4997 26285.7
 04 03 2013  12 59  -21.0836 26061.2 -03430.9 -07.4996 26286.1
 04 03 2013  13 00  -21.0844 26061.6 -03430.8 -07.4995 26286.5
 04 03 2013  13 01  -21.0851 26062.1 -03430.8 -07.4993 26286.9
 04 03 2013  13 02  -21.0858 26062.4 -03430.7 -07.4989 26287.2
 04 03 2013  13 03  -21.0864 26062.8 -03430.5 -07.4985 26287.6
 04 03 2013  13 04  -21.0869 26063.4 -03430.4 -07.4981 26288.2
 04 03 2013  13 05  -21.0872 26063.8 -03430.2 -07.4975 26288.5
 04 03 2013  13 06  -21.0872 26063.9 -03430.0 -07.4969 26288.7
 04 03 2013  13 07  -21.0873 26063.8 -03429.6 -07.4962 26288.5
 04 03 2013  13 08  -21.0875 26063.7 -03429.3 -07.4956 26288.3
 04 03 2013  13 09  -21.0874 26063.9 -03429.2 -07.4952 26288.5
 04 03 2013  13 10  -21.0873 26064.1 -03429.0 -07.4948 26288.7
 04 03 2013  13 11  -21.0870 26064.7 -03429.0 -07.4946 26289.2
 04 03 2013  13 12  -21.0868 26065.0 -03428.8 -07.4941 26289.6
 04 03 2013  13 13  -21.0868 26065.3 -03428.6 -07.4936 26289.8
 04 03 2013  13 14  -21.0869 26065.5 -03428.4 -07.4930 26290.0
 04 03 2013  13 15  -21.0870 26065.5 -03428.1 -07.4924 26290.0
 04 03 2013  13 16  -21.0871 26065.7 -03427.9 -07.4920 26290.1
 04 03 2013  13 17  -21.0873 26066.0 -03427.8 -07.4917 26290.4
 04 03 2013  13 18  -21.0874 26066.2 -03427.7 -07.4914 26290.6
 04 03 2013  13 19  -21.0874 26066.4 -03427.6 -07.4910 26290.8
 04 03 2013  13 20  -21.0870 26066.6 -03427.4 -07.4906 26291.0
 04 03 2013  13 21  -21.0866 26067.0 -03427.3 -07.4904 26291.4
 04 03 2013  13 22  -21.0862 26067.5 -03427.3 -07.4901 26291.9
 04 03 2013  13 23  -21.0860 26068.0 -03427.2 -07.4898 26292.3
 04 03 2013  13 24  -21.0856 26068.3 -03427.0 -07.4893 26292.6
 04 03 2013  13 25  -21.0853 26068.6 -03426.8 -07.4889 26292.9
 04 03 2013  13 26  -21.0851 26068.9 -03426.7 -07.4885 26293.2
 04 03 2013  13 27  -21.0849 26069.0 -03426.5 -07.4880 26293.2
 04 03 2013  13 28  -21.0847 26069.1 -03426.3 -07.4875 26293.3
 04 03 2013  13 29  -21.0846 26069.2 -03426.2 -07.4872 26293.4
 04 03 2013  13 30  -21.0846 26069.4 -03426.1 -07.4870 26293.6
 04 03 2013  13 31  -21.0847 26069.7 -03426.0 -07.4868 26293.9
 04 03 2013  13 32  -21.0849 26070.1 -03426.0 -07.4865 26294.2
 04 03 2013  13 33  -21.0852 26070.5 -03425.9 -07.4863 26294.6
 04 03 2013  13 34  -21.0854 26070.9 -03425.8 -07.4860 26295.0
 04 03 2013  13 35  -21.0858 26071.2 -03425.7 -07.4856 26295.3
 04 03 2013  13 36  -21.0860 26071.5 -03425.5 -07.4852 26295.6
 04 03 2013  13 37  -21.0863 26071.8 -03425.3 -07.4846 26295.8
 04 03 2013  13 38  -21.0864 26072.0 -03425.0 -07.4840 26296.0
 04 03 2013  13 39  -21.0865 26072.1 -03424.8 -07.4835 26296.1
 04 03 2013  13 40  -21.0866 26072.3 -03424.5 -07.4828 26296.2
 04 03 2013  13 41  -21.0866 26072.3 -03424.2 -07.4821 26296.2
 04 03 2013  13 42  -21.0866 26072.4 -03423.9 -07.4814 26296.2
 04 03 2013  13 43  -21.0866 26072.2 -03423.5 -07.4807 26296.0
 04 03 2013  13 44  -21.0865 26071.8 -03423.1 -07.4799 26295.6
 04 03 2013  13 45  -21.0863 26071.6 -03422.8 -07.4793 26295.4
 04 03 2013  13 46  -21.0860 26071.6 -03422.6 -07.4789 26295.3
 04 03 2013  13 47  -21.0856 26071.8 -03422.5 -07.4786 26295.5
 04 03 2013  13 48  -21.0851 26072.0 -03422.4 -07.4783 26295.6
 04 03 2013  13 49  -21.0846 26072.0 -03422.2 -07.4779 26295.7
 04 03 2013  13 50  -21.0841 26072.3 -03422.1 -07.4776 26295.9
 04 03 2013  13 51  -21.0838 26072.6 -03422.0 -07.4773 26296.2
 04 03 2013  13 52  -21.0835 26072.8 -03421.9 -07.4770 26296.4
 04 03 2013  13 53  -21.0833 26072.9 -03421.7 -07.4766 26296.5
 04 03 2013  13 54  -21.0826 26072.9 -03421.5 -07.4761 26296.4
 04 03 2013  13 55  -21.0818 26073.1 -03421.4 -07.4758 26296.6
 04 03 2013  13 56  -21.0813 26073.7 -03421.5 -07.4758 26297.2
 04 03 2013  13 57  -21.0812 26074.6 -03421.6 -07.4758 26298.1
 04 03 2013  13 58  -21.0812 26075.6 -03421.6 -07.4756 26299.1
 04 03 2013  13 59  -21.0804 26075.5 -03421.2 -07.4747 26299.0
 04 03 2013  14 00  -21.0794 26075.8 -03421.0 -07.4742 26299.2
 04 03 2013  14 01  -21.0787 26075.7 -03420.7 -07.4736 26299.1
 04 03 2013  14 02  -21.0782 26075.9 -03420.6 -07.4733 26299.3
 04 03 2013  14 03  -21.0778 26076.4 -03420.6 -07.4732 26299.8
 04 03 2013  14 04  -21.0773 26077.0 -03420.6 -07.4730 26300.3
 04 03 2013  14 05  -21.0770 26077.4 -03420.5 -07.4727 26300.8
 04 03 2013  14 06  -21.0766 26077.5 -03420.3 -07.4722 26300.9
 04 03 2013  14 07  -21.0761 26077.3 -03419.9 -07.4714 26300.6
 04 03 2013  14 08  -21.0753 26076.5 -03419.5 -07.4707 26299.8
 04 03 2013  14 09  -21.0744 26075.8 -03419.1 -07.4702 26299.1
 04 03 2013  14 10  -21.0740 26075.7 -03419.1 -07.4701 26299.0
 04 03 2013  14 11  -21.0739 26076.2 -03419.4 -07.4706 26299.4
 04 03 2013  14 12  -21.0732 26076.2 -03419.3 -07.4705 26299.5
 04 03 2013  14 13  -21.0725 26075.7 -03419.1 -07.4702 26298.9
 04 03 2013  14 14  -21.0720 26075.2 -03419.0 -07.4699 26298.4
 04 03 2013  14 15  -21.0714 26074.6 -03418.8 -07.4699 26297.8
 04 03 2013  14 16  -21.0709 26074.2 -03418.9 -07.4700 26297.4
 04 03 2013  14 17  -21.0704 26073.8 -03418.9 -07.4702 26297.0
 04 03 2013  14 18  -21.0699 26073.1 -03418.8 -07.4702 26296.2
 04 03 2013  14 19  -21.0693 26072.6 -03418.8 -07.4704 26295.8
 04 03 2013  14 20  -21.0688 26072.6 -03419.0 -07.4708 26295.8
 04 03 2013  14 21  -21.0685 26072.4 -03419.1 -07.4710 26295.7
 04 03 2013  14 22  -21.0681 26072.2 -03419.2 -07.4712 26295.5
 04 03 2013  14 23  -21.0677 26072.1 -03419.3 -07.4715 26295.3
 04 03 2013  14 24  -21.0677 26072.2 -03419.5 -07.4720 26295.5
 04 03 2013  14 25  -21.0676 26072.8 -03419.9 -07.4727 26296.2
 04 03 2013  14 26  -21.0676 26073.1 -03420.1 -07.4730 26296.5
 04 03 2013  14 27  -21.0671 26073.5 -03420.2 -07.4731 26296.8
 04 03 2013  14 28  -21.0665 26073.9 -03420.2 -07.4731 26297.2
 04 03 2013  14 29  -21.0656 26073.9 -03420.2 -07.4729 26297.3
 04 03 2013  14 30  -21.0645 26073.8 -03420.0 -07.4726 26297.2
 04 03 2013  14 31  -21.0640 26073.8 -03420.0 -07.4726 26297.2
 04 03 2013  14 32  -21.0633 26073.7 -03420.0 -07.4726 26297.0
 04 03 2013  14 33  -21.0632 26073.6 -03420.0 -07.4727 26296.9
 04 03 2013  14 34  -21.0632 26073.8 -03420.2 -07.4730 26297.2
 04 03 2013  14 35  -21.0629 26074.1 -03420.3 -07.4732 26297.4
 04 03 2013  14 36  -21.0628 26074.3 -03420.4 -07.4733 26297.6
 04 03 2013  14 37  -21.0624 26074.3 -03420.4 -07.4733 26297.7
 04 03 2013  14 38  -21.0622 26074.1 -03420.3 -07.4732 26297.5
 04 03 2013  14 39  -21.0623 26074.2 -03420.4 -07.4733 26297.6
 04 03 2013  14 40  -21.0622 26074.3 -03420.4 -07.4733 26297.6
 04 03 2013  14 41  -21.0621 26074.4 -03420.5 -07.4735 26297.8
 04 03 2013  14 42  -21.0622 26074.7 -03420.6 -07.4737 26298.1
 04 03 2013  14 43  -21.0621 26074.8 -03420.7 -07.4737 26298.2
 04 03 2013  14 44  -21.0621 26075.0 -03420.7 -07.4738 26298.4
 04 03 2013  14 45  -21.0625 26075.0 -03420.7 -07.4738 26298.4
 04 03 2013  14 46  -21.0625 26075.0 -03420.6 -07.4736 26298.4
 04 03 2013  14 47  -21.0626 26074.9 -03420.6 -07.4735 26298.4
 04 03 2013  14 48  -21.0626 26074.9 -03420.6 -07.4735 26298.3
 04 03 2013  14 49  -21.0626 26074.7 -03420.4 -07.4733 26298.1
 04 03 2013  14 50  -21.0627 26074.7 -03420.4 -07.4732 26298.1
 04 03 2013  14 51  -21.0630 26074.8 -03420.4 -07.4732 26298.2
 04 03 2013  14 52  -21.0634 26074.9 -03420.4 -07.4731 26298.3
 04 03 2013  14 53  -21.0634 26074.6 -03420.2 -07.4728 26298.0
 04 03 2013  14 54  -21.0633 26074.4 -03420.0 -07.4725 26297.7
 04 03 2013  14 55  -21.0634 26073.9 -03419.8 -07.4722 26297.2
 04 03 2013  14 56  -21.0635 26073.9 -03419.9 -07.4723 26297.2
 04 03 2013  14 57  -21.0637 26074.1 -03419.9 -07.4723 26297.4
 04 03 2013  14 58  -21.0634 26074.2 -03419.9 -07.4723 26297.5
 04 03 2013  14 59  -21.0635 26074.4 -03419.9 -07.4723 26297.7
 04 03 2013  15 00  -21.0634 26074.2 -03419.8 -07.4720 26297.5
 04 03 2013  15 01  -21.0633 26073.9 -03419.7 -07.4718 26297.2
 04 03 2013  15 02  -21.0633 26073.7 -03419.6 -07.4718 26297.0
 04 03 2013  15 03  -21.0631 26073.5 -03419.6 -07.4718 26296.8
 04 03 2013  15 04  -21.0629 26073.5 -03419.7 -07.4720 26296.8
 04 03 2013  15 05  -21.0633 26073.5 -03419.8 -07.4723 26296.8
 04 03 2013  15 06  -21.0634 26073.4 -03419.9 -07.4724 26296.7
 04 03 2013  15 07  -21.0635 26073.5 -03420.0 -07.4726 26296.9
 04 03 2013  15 08  -21.0638 26073.5 -03420.0 -07.4727 26296.9
 04 03 2013  15 09  -21.0640 26073.6 -03420.1 -07.4728 26297.0
 04 03 2013  15 10  -21.0643 26073.7 -03420.1 -07.4729 26297.0
 04 03 2013  15 11  -21.0644 26073.2 -03419.9 -07.4726 26296.5
 04 03 2013  15 12  -21.0650 26073.4 -03420.0 -07.4727 26296.7
 04 03 2013  15 13  -21.0652 26073.1 -03419.9 -07.4725 26296.4
 04 03 2013  15 14  -21.0654 26072.9 -03419.8 -07.4725 26296.2
 04 03 2013  15 15  -21.0655 26072.9 -03419.9 -07.4726 26296.2
 04 03 2013  15 16  -21.0659 26073.0 -03420.0 -07.4728 26296.4
 04 03 2013  15 17  -21.0662 26072.9 -03420.0 -07.4728 26296.3
 04 03 2013  15 18  -21.0663 26072.9 -03420.0 -07.4728 26296.2
 04 03 2013  15 19  -21.0662 26072.7 -03419.9 -07.4727 26296.0
 04 03 2013  15 20  -21.0662 26073.0 -03420.0 -07.4728 26296.3
 04 03 2013  15 21  -21.0664 26073.2 -03420.1 -07.4729 26296.6
 04 03 2013  15 22  -21.0665 26073.4 -03420.1 -07.4729 26296.8
 04 03 2013  15 23  -21.0670 26073.9 -03420.2 -07.4731 26297.2
 04 03 2013  15 24  -21.0671 26073.9 -03420.1 -07.4728 26297.2
 04 03 2013  15 25  -21.0673 26073.8 -03419.9 -07.4725 26297.2
 04 03 2013  15 26  -21.0673 26073.7 -03419.8 -07.4722 26297.0
 04 03 2013  15 27  -21.0674 26073.6 -03419.7 -07.4719 26296.9
 04 03 2013  15 28  -21.0675 26073.5 -03419.6 -07.4717 26296.8
 04 03 2013  15 29  -21.0678 26073.4 -03419.4 -07.4715 26296.7
 04 03 2013  15 30  -21.0680 26073.5 -03419.4 -07.4714 26296.7
 04 03 2013  15 31  -21.0681 26073.3 -03419.2 -07.4710 26296.5
 04 03 2013  15 32  -21.0680 26073.1 -03419.0 -07.4707 26296.3
 04 03 2013  15 33  -21.0679 26072.8 -03418.8 -07.4703 26296.0
 04 03 2013  15 34  -21.0677 26072.4 -03418.6 -07.4699 26295.6
 04 03 2013  15 35  -21.0679 26072.4 -03418.6 -07.4699 26295.5
 04 03 2013  15 36  -21.0679 26072.6 -03418.6 -07.4698 26295.8
 04 03 2013  15 37  -21.0678 26072.7 -03418.5 -07.4696 26295.9
 04 03 2013  15 38  -21.0675 26072.5 -03418.3 -07.4692 26295.7
 04 03 2013  15 39  -21.0671 26072.6 -03418.1 -07.4689 26295.7
 04 03 2013  15 40  -21.0666 26072.6 -03418.0 -07.4687 26295.7
 04 03 2013  15 41  -21.0664 26072.7 -03418.0 -07.4685 26295.8
 04 03 2013  15 42  -21.0660 26073.2 -03418.1 -07.4686 26296.3
 04 03 2013  15 43  -21.0658 26073.6 -03418.1 -07.4686 26296.7
 04 03 2013  15 44  -21.0655 26074.1 -03418.1 -07.4684 26297.2
 04 03 2013  15 45  -21.0653 26074.5 -03418.1 -07.4684 26297.6
 04 03 2013  15 46  -21.0656 26075.0 -03418.1 -07.4682 26298.0
 04 03 2013  15 47  -21.0649 26074.9 -03417.9 -07.4677 26297.9
 04 03 2013  15 48  -21.0643 26074.5 -03417.6 -07.4671 26297.5
 04 03 2013  15 49  -21.0638 26074.3 -03417.4 -07.4668 26297.3
 04 03 2013  15 50  -21.0635 26074.1 -03417.2 -07.4664 26297.0
 04 03 2013  15 51  -21.0636 26074.0 -03417.1 -07.4663 26297.0
 04 03 2013  15 52  -21.0637 26074.0 -03417.0 -07.4661 26297.0
 04 03 2013  15 53  -21.0642 26074.5 -03417.2 -07.4663 26297.5
 04 03 2013  15 54  -21.0646 26074.8 -03417.1 -07.4661 26297.7
 04 03 2013  15 55  -21.0645 26075.1 -03417.0 -07.4657 26298.0
 04 03 2013  15 56  -21.0643 26075.1 -03416.8 -07.4653 26298.1
 04 03 2013  15 57  -21.0645 26075.5 -03416.8 -07.4651 26298.4
 04 03 2013  15 58  -21.0646 26075.8 -03416.7 -07.4649 26298.7
 04 03 2013  15 59  -21.0647 26076.1 -03416.6 -07.4647 26299.0
 04 03 2013  16 00  -21.0646 26076.3 -03416.5 -07.4643 26299.1
 04 03 2013  16 01  -21.0645 26076.4 -03416.3 -07.4640 26299.2
 04 03 2013  16 02  -21.0643 26076.2 -03416.1 -07.4634 26299.0
 04 03 2013  16 03  -21.0640 26076.0 -03415.8 -07.4630 26298.8
 04 03 2013  16 04  -21.0636 26075.5 -03415.5 -07.4625 26298.3
 04 03 2013  16 05  -21.0638 26075.0 -03415.3 -07.4621 26297.7
 04 03 2013  16 06  -21.0639 26074.7 -03415.2 -07.4619 26297.4
 04 03 2013  16 07  -21.0638 26074.2 -03414.9 -07.4615 26296.9
 04 03 2013  16 08  -21.0636 26073.9 -03414.8 -07.4613 26296.6
 04 03 2013  16 09  -21.0635 26073.8 -03414.7 -07.4611 26296.5
 04 03 2013  16 10  -21.0635 26074.0 -03414.7 -07.4610 26296.6
 04 03 2013  16 11  -21.0634 26074.2 -03414.6 -07.4608 26296.8
 04 03 2013  16 12  -21.0633 26074.4 -03414.5 -07.4605 26297.1
 04 03 2013  16 13  -21.0629 26074.3 -03414.2 -07.4600 26296.9
 04 03 2013  16 14  -21.0624 26074.2 -03414.0 -07.4595 26296.7
 04 03 2013  16 15  -21.0619 26074.3 -03413.9 -07.4593 26296.9
 04 03 2013  16 16  -21.0617 26074.4 -03413.8 -07.4591 26296.9
 04 03 2013  16 17  -21.0613 26074.3 -03413.6 -07.4587 26296.8
 04 03 2013  16 18  -21.0609 26074.5 -03413.6 -07.4585 26296.9
 04 03 2013  16 19  -21.0605 26074.3 -03413.4 -07.4581 26296.8
 04 03 2013  16 20  -21.0603 26074.3 -03413.2 -07.4577 26296.8
 04 03 2013  16 21  -21.0596 26074.3 -03412.9 -07.4571 26296.7
 04 03 2013  16 22  -21.0587 26073.9 -03412.7 -07.4568 26296.2
 04 03 2013  16 23  -21.0582 26073.8 -03412.6 -07.4566 26296.2
 04 03 2013  16 24  -21.0577 26073.5 -03412.4 -07.4562 26295.9
 04 03 2013  16 25  -21.0569 26073.1 -03412.1 -07.4558 26295.4
 04 03 2013  16 26  -21.0565 26072.8 -03412.0 -07.4556 26295.1
 04 03 2013  16 27  -21.0561 26072.8 -03411.9 -07.4555 26295.1
 04 03 2013  16 28  -21.0555 26072.5 -03411.8 -07.4552 26294.8
 04 03 2013  16 29  -21.0550 26072.2 -03411.6 -07.4548 26294.4
 04 03 2013  16 30  -21.0545 26071.7 -03411.3 -07.4545 26294.0
 04 03 2013  16 31  -21.0538 26071.2 -03411.1 -07.4541 26293.4
 04 03 2013  16 32  -21.0535 26070.7 -03410.9 -07.4539 26292.9
 04 03 2013  16 33  -21.0529 26070.3 -03410.7 -07.4535 26292.4
 04 03 2013  16 34  -21.0525 26070.1 -03410.6 -07.4534 26292.3
 04 03 2013  16 35  -21.0519 26069.9 -03410.5 -07.4532 26292.1
 04 03 2013  16 36  -21.0513 26069.7 -03410.4 -07.4530 26291.8
 04 03 2013  16 37  -21.0506 26069.5 -03410.2 -07.4527 26291.6
 04 03 2013  16 38  -21.0500 26069.4 -03410.1 -07.4525 26291.5
 04 03 2013  16 39  -21.0495 26069.3 -03410.0 -07.4523 26291.4
 04 03 2013  16 40  -21.0487 26069.0 -03409.9 -07.4521 26291.1
 04 03 2013  16 41  -21.0482 26069.0 -03409.8 -07.4520 26291.1
 04 03 2013  16 42  -21.0475 26069.0 -03409.8 -07.4518 26291.0
 04 03 2013  16 43  -21.0472 26069.3 -03409.8 -07.4518 26291.3
 04 03 2013  16 44  -21.0470 26069.5 -03409.8 -07.4518 26291.6
 04 03 2013  16 45  -21.0462 26069.6 -03409.7 -07.4516 26291.7
 04 03 2013  16 46  -21.0459 26069.8 -03409.7 -07.4515 26291.9
 04 03 2013  16 47  -21.0460 26070.1 -03409.7 -07.4514 26292.1
 04 03 2013  16 48  -21.0462 26070.1 -03409.6 -07.4511 26292.1
 04 03 2013  16 49  -21.0459 26070.1 -03409.4 -07.4507 26292.1
 04 03 2013  16 50  -21.0456 26070.1 -03409.2 -07.4503 26292.1
 04 03 2013  16 51  -21.0457 26070.2 -03409.1 -07.4501 26292.2
 04 03 2013  16 52  -21.0457 26070.4 -03409.0 -07.4498 26292.3
 04 03 2013  16 53  -21.0455 26070.3 -03408.8 -07.4495 26292.2
 04 03 2013  16 54  -21.0451 26070.2 -03408.7 -07.4491 26292.1
 04 03 2013  16 55  -21.0448 26070.1 -03408.5 -07.4489 26292.0
 04 03 2013  16 56  -21.0444 26070.1 -03408.4 -07.4486 26291.9
 04 03 2013  16 57  -21.0442 26070.1 -03408.4 -07.4485 26292.0
 04 03 2013  16 58  -21.0439 26070.0 -03408.2 -07.4483 26291.9
 04 03 2013  16 59  -21.0437 26070.1 -03408.2 -07.4481 26291.9
 04 03 2013  17 00  -21.0436 26070.1 -03408.1 -07.4480 26291.9
 04 03 2013  17 01  -21.0435 26070.0 -03408.0 -07.4478 26291.8
 04 03 2013  17 02  -21.0432 26069.8 -03407.8 -07.4475 26291.6
 04 03 2013  17 03  -21.0432 26069.8 -03407.9 -07.4475 26291.6
 04 03 2013  17 04  -21.0434 26069.9 -03407.9 -07.4475 26291.7
 04 03 2013  17 05  -21.0435 26069.8 -03407.7 -07.4472 26291.6
 04 03 2013  17 06  -21.0436 26069.7 -03407.6 -07.4469 26291.5
 04 03 2013  17 07  -21.0436 26069.5 -03407.3 -07.4465 26291.2
 04 03 2013  17 08  -21.0439 26069.3 -03407.2 -07.4462 26291.0
 04 03 2013  17 09  -21.0441 26069.3 -03407.1 -07.4461 26291.0
 04 03 2013  17 10  -21.0443 26069.3 -03407.1 -07.4460 26291.0
 04 03 2013  17 11  -21.0445 26069.3 -03407.0 -07.4458 26291.0
 04 03 2013  17 12  -21.0447 26069.5 -03407.0 -07.4457 26291.2
 04 03 2013  17 13  -21.0448 26069.4 -03406.8 -07.4453 26291.0
 04 03 2013  17 14  -21.0448 26069.6 -03406.7 -07.4452 26291.2
 04 03 2013  17 15  -21.0451 26069.6 -03406.6 -07.4449 26291.2
 04 03 2013  17 16  -21.0451 26069.4 -03406.4 -07.4445 26291.0
 04 03 2013  17 17  -21.0450 26069.1 -03406.2 -07.4441 26290.7
 04 03 2013  17 18  -21.0447 26068.8 -03406.0 -07.4438 26290.3
 04 03 2013  17 19  -21.0442 26068.3 -03405.8 -07.4435 26289.8
 04 03 2013  17 20  -21.0435 26068.0 -03405.8 -07.4435 26289.6
 04 03 2013  17 21  -21.0434 26068.1 -03405.9 -07.4438 26289.6
 04 03 2013  17 22  -21.0430 26068.0 -03406.0 -07.4439 26289.6
 04 03 2013  17 23  -21.0425 26067.8 -03406.0 -07.4440 26289.4
 04 03 2013  17 24  -21.0420 26067.4 -03406.0 -07.4441 26288.9
 04 03 2013  17 25  -21.0416 26067.0 -03406.0 -07.4443 26288.6
 04 03 2013  17 26  -21.0416 26066.8 -03406.2 -07.4447 26288.4
 04 03 2013  17 27  -21.0416 26066.5 -03406.3 -07.4451 26288.1
 04 03 2013  17 28  -21.0415 26066.4 -03406.5 -07.4455 26288.0
 04 03 2013  17 29  -21.0414 26066.2 -03406.6 -07.4459 26287.9
 04 03 2013  17 30  -21.0415 26066.1 -03406.8 -07.4462 26287.8
 04 03 2013  17 31  -21.0415 26066.0 -03407.0 -07.4466 26287.8
 04 03 2013  17 32  -21.0416 26065.7 -03407.0 -07.4468 26287.5
 04 03 2013  17 33  -21.0415 26065.5 -03407.1 -07.4471 26287.3
 04 03 2013  17 34  -21.0415 26065.3 -03407.2 -07.4473 26287.1
 04 03 2013  17 35  -21.0416 26065.2 -03407.3 -07.4476 26287.0
 04 03 2013  17 36  -21.0419 26065.3 -03407.5 -07.4481 26287.1
 04 03 2013  17 37  -21.0421 26065.2 -03407.6 -07.4483 26287.0
 04 03 2013  17 38  -21.0423 26065.2 -03407.7 -07.4484 26287.0
 04 03 2013  17 39  -21.0425 26065.1 -03407.7 -07.4485 26286.9
 04 03 2013  17 40  -21.0427 26065.1 -03407.8 -07.4487 26286.9
 04 03 2013  17 41  -21.0430 26065.1 -03407.9 -07.4488 26287.0
 04 03 2013  17 42  -21.0434 26065.2 -03407.9 -07.4490 26287.0
 04 03 2013  17 43  -21.0435 26065.1 -03407.9 -07.4488 26286.9
 04 03 2013  17 44  -21.0435 26064.9 -03407.8 -07.4487 26286.7
 04 03 2013  17 45  -21.0434 26064.7 -03407.7 -07.4486 26286.5
 04 03 2013  17 46  -21.0436 26064.5 -03407.6 -07.4485 26286.3
 04 03 2013  17 47  -21.0436 26064.4 -03407.6 -07.4485 26286.2
 04 03 2013  17 48  -21.0436 26064.3 -03407.6 -07.4484 26286.2
 04 03 2013  17 49  -21.0436 26064.4 -03407.6 -07.4484 26286.2
 04 03 2013  17 50  -21.0436 26064.3 -03407.5 -07.4483 26286.1
 04 03 2013  17 51  -21.0433 26064.2 -03407.5 -07.4482 26286.0
 04 03 2013  17 52  -21.0435 26064.2 -03407.5 -07.4483 26286.0
 04 03 2013  17 53  -21.0434 26064.1 -03407.5 -07.4483 26285.9
 04 03 2013  17 54  -21.0432 26064.0 -03407.4 -07.4481 26285.8
 04 03 2013  17 55  -21.0427 26063.8 -03407.3 -07.4480 26285.5
 04 03 2013  17 56  -21.0425 26063.7 -03407.3 -07.4479 26285.4
 04 03 2013  17 57  -21.0422 26063.5 -03407.3 -07.4481 26285.3
 04 03 2013  17 58  -21.0419 26063.4 -03407.3 -07.4481 26285.2
 04 03 2013  17 59  -21.0417 26063.3 -03407.3 -07.4481 26285.1
 04 03 2013  18 00  -21.0417 26063.4 -03407.4 -07.4483 26285.2
 04 03 2013  18 01  -21.0415 26063.3 -03407.4 -07.4484 26285.1
 04 03 2013  18 02  -21.0414 26063.4 -03407.5 -07.4485 26285.2
 04 03 2013  18 03  -21.0411 26063.3 -03407.5 -07.4485 26285.1
 04 03 2013  18 04  -21.0408 26063.3 -03407.5 -07.4486 26285.1
 04 03 2013  18 05  -21.0408 26063.2 -03407.5 -07.4485 26285.0
 04 03 2013  18 06  -21.0406 26063.2 -03407.4 -07.4485 26285.0
 04 03 2013  18 07  -21.0402 26063.1 -03407.4 -07.4484 26284.9
 04 03 2013  18 08  -21.0397 26063.0 -03407.4 -07.4484 26284.7
 04 03 2013  18 09  -21.0395 26063.0 -03407.5 -07.4485 26284.8
 04 03 2013  18 10  -21.0392 26063.0 -03407.5 -07.4486 26284.8
 04 03 2013  18 11  -21.0390 26063.0 -03407.5 -07.4487 26284.8
 04 03 2013  18 12  -21.0388 26062.9 -03407.5 -07.4486 26284.7
 04 03 2013  18 13  -21.0385 26062.9 -03407.5 -07.4487 26284.7
 04 03 2013  18 14  -21.0381 26062.8 -03407.5 -07.4486 26284.6
 04 03 2013  18 15  -21.0381 26062.9 -03407.5 -07.4487 26284.7
 04 03 2013  18 16  -21.0379 26062.9 -03407.5 -07.4487 26284.7
 04 03 2013  18 17  -21.0378 26062.9 -03407.5 -07.4486 26284.7
 04 03 2013  18 18  -21.0376 26062.8 -03407.4 -07.4485 26284.6
 04 03 2013  18 19  -21.0375 26062.8 -03407.4 -07.4485 26284.6
 04 03 2013  18 20  -21.0374 26062.6 -03407.3 -07.4482 26284.3
 04 03 2013  18 21  -21.0374 26062.5 -03407.2 -07.4482 26284.3
 04 03 2013  18 22  -21.0374 26062.4 -03407.2 -07.4482 26284.2
 04 03 2013  18 23  -21.0374 26062.3 -03407.2 -07.4481 26284.1
 04 03 2013  18 24  -21.0374 26062.2 -03407.1 -07.4480 26283.9
 04 03 2013  18 25  -21.0375 26062.2 -03407.1 -07.4480 26284.0
 04 03 2013  18 26  -21.0377 26062.3 -03407.1 -07.4481 26284.0
 04 03 2013  18 27  -21.0380 26062.4 -03407.2 -07.4481 26284.1
 04 03 2013  18 28  -21.0382 26062.3 -03407.1 -07.4480 26284.1
 04 03 2013  18 29  -21.0384 26062.3 -03407.1 -07.4479 26284.0
 04 03 2013  18 30  -21.0386 26062.4 -03407.1 -07.4479 26284.1
 04 03 2013  18 31  -21.0388 26062.3 -03407.0 -07.4478 26284.1
 04 03 2013  18 32  -21.0390 26062.3 -03407.0 -07.4477 26284.0
 04 03 2013  18 33  -21.0393 26062.2 -03406.9 -07.4475 26283.9
 04 03 2013  18 34  -21.0394 26062.2 -03406.9 -07.4476 26284.0
 04 03 2013  18 35  -21.0396 26062.3 -03406.9 -07.4476 26284.0
 04 03 2013  18 36  -21.0398 26062.3 -03406.9 -07.4476 26284.1
 04 03 2013  18 37  -21.0400 26062.3 -03406.9 -07.4475 26284.1
 04 03 2013  18 38  -21.0400 26062.4 -03406.9 -07.4474 26284.1
 04 03 2013  18 39  -21.0402 26062.4 -03406.8 -07.4474 26284.2
 04 03 2013  18 40  -21.0402 26062.3 -03406.8 -07.4472 26284.0
 04 03 2013  18 41  -21.0403 26062.2 -03406.7 -07.4471 26283.9
 04 03 2013  18 42  -21.0403 26062.1 -03406.5 -07.4468 26283.8
 04 03 2013  18 43  -21.0406 26062.0 -03406.5 -07.4467 26283.7
 04 03 2013  18 44  -21.0407 26061.9 -03406.4 -07.4466 26283.5
 04 03 2013  18 45  -21.0407 26061.8 -03406.3 -07.4465 26283.5
 04 03 2013  18 46  -21.0407 26061.7 -03406.3 -07.4463 26283.4
 04 03 2013  18 47  -21.0407 26061.7 -03406.2 -07.4462 26283.3
 04 03 2013  18 48  -21.0408 26061.6 -03406.1 -07.4461 26283.3
 04 03 2013  18 49  -21.0408 26061.5 -03406.0 -07.4459 26283.1
 04 03 2013  18 50  -21.0407 26061.4 -03405.9 -07.4456 26283.0
 04 03 2013  18 51  -21.0407 26061.4 -03405.8 -07.4455 26283.0
 04 03 2013  18 52  -21.0405 26061.3 -03405.8 -07.4454 26282.9
 04 03 2013  18 53  -21.0404 26061.4 -03405.7 -07.4453 26283.0
 04 03 2013  18 54  -21.0402 26061.3 -03405.7 -07.4451 26282.9
 04 03 2013  18 55  -21.0400 26061.3 -03405.6 -07.4450 26282.8
 04 03 2013  18 56  -21.0398 26061.2 -03405.5 -07.4448 26282.7
 04 03 2013  18 57  -21.0399 26061.1 -03405.4 -07.4447 26282.7
 04 03 2013  18 58  -21.0398 26061.1 -03405.4 -07.4446 26282.7
 04 03 2013  18 59  -21.0397 26061.1 -03405.3 -07.4445 26282.6
 04 03 2013  19 00  -21.0396 26060.8 -03405.2 -07.4442 26282.4
 04 03 2013  19 01  -21.0398 26060.7 -03405.1 -07.4440 26282.2
 04 03 2013  19 02  -21.0399 26060.5 -03404.9 -07.4438 26282.0
 04 03 2013  19 03  -21.0399 26060.2 -03404.8 -07.4436 26281.7
 04 03 2013  19 04  -21.0402 26060.1 -03404.7 -07.4434 26281.6
 04 03 2013  19 05  -21.0405 26060.1 -03404.7 -07.4434 26281.6
 04 03 2013  19 06  -21.0406 26060.3 -03404.7 -07.4434 26281.8
 04 03 2013  19 07  -21.0408 26060.3 -03404.6 -07.4432 26281.7
 04 03 2013  19 08  -21.0408 26060.1 -03404.5 -07.4430 26281.6
 04 03 2013  19 09  -21.0409 26060.0 -03404.4 -07.4427 26281.5
 04 03 2013  19 10  -21.0410 26060.0 -03404.3 -07.4426 26281.4
 04 03 2013  19 11  -21.0412 26059.8 -03404.2 -07.4424 26281.2
 04 03 2013  19 12  -21.0413 26059.8 -03404.1 -07.4423 26281.2
 04 03 2013  19 13  -21.0413 26059.6 -03404.0 -07.4420 26281.0
 04 03 2013  19 14  -21.0413 26059.4 -03403.9 -07.4419 26280.8
 04 03 2013  19 15  -21.0415 26059.4 -03403.8 -07.4417 26280.7
 04 03 2013  19 16  -21.0416 26059.2 -03403.7 -07.4415 26280.5
 04 03 2013  19 17  -21.0416 26059.0 -03403.6 -07.4414 26280.4
 04 03 2013  19 18  -21.0416 26058.9 -03403.5 -07.4411 26280.2
 04 03 2013  19 19  -21.0416 26058.8 -03403.4 -07.4411 26280.1
 04 03 2013  19 20  -21.0417 26058.6 -03403.4 -07.4409 26279.9
 04 03 2013  19 21  -21.0418 26058.4 -03403.3 -07.4408 26279.7
 04 03 2013  19 22  -21.0418 26058.2 -03403.1 -07.4406 26279.4
 04 03 2013  19 23  -21.0418 26057.9 -03403.0 -07.4404 26279.2
 04 03 2013  19 24  -21.0419 26057.6 -03402.9 -07.4402 26278.9
 04 03 2013  19 25  -21.0418 26057.4 -03402.8 -07.4401 26278.6
 04 03 2013  19 26  -21.0419 26057.2 -03402.7 -07.4400 26278.4
 04 03 2013  19 27  -21.0419 26057.0 -03402.6 -07.4398 26278.2
 04 03 2013  19 28  -21.0420 26056.8 -03402.5 -07.4397 26278.0
 04 03 2013  19 29  -21.0420 26056.6 -03402.5 -07.4396 26277.8
 04 03 2013  19 30  -21.0422 26056.5 -03402.4 -07.4395 26277.7
 04 03 2013  19 31  -21.0421 26056.3 -03402.3 -07.4394 26277.4
 04 03 2013  19 32  -21.0422 26056.0 -03402.2 -07.4392 26277.2
 04 03 2013  19 33  -21.0420 26055.9 -03402.2 -07.4392 26277.1
 04 03 2013  19 34  -21.0419 26055.8 -03402.2 -07.4392 26277.0
 04 03 2013  19 35  -21.0420 26055.9 -03402.2 -07.4393 26277.1
 04 03 2013  19 36  -21.0422 26055.8 -03402.2 -07.4393 26277.0
 04 03 2013  19 37  -21.0422 26055.7 -03402.1 -07.4391 26276.8
 04 03 2013  19 38  -21.0421 26055.5 -03402.1 -07.4391 26276.7
 04 03 2013  19 39  -21.0422 26055.3 -03402.0 -07.4390 26276.4
 04 03 2013  19 40  -21.0423 26055.1 -03402.0 -07.4390 26276.3
 04 03 2013  19 41  -21.0423 26055.0 -03402.0 -07.4389 26276.1
 04 03 2013  19 42  -21.0423 26054.9 -03401.9 -07.4389 26276.0
 04 03 2013  19 43  -21.0423 26054.7 -03401.9 -07.4389 26275.9
 04 03 2013  19 44  -21.0421 26054.6 -03401.8 -07.4387 26275.7
 04 03 2013  19 45  -21.0418 26054.4 -03401.8 -07.4387 26275.5
 04 03 2013  19 46  -21.0418 26054.3 -03401.8 -07.4388 26275.5
 04 03 2013  19 47  -21.0417 26054.2 -03401.8 -07.4389 26275.4
 04 03 2013  19 48  -21.0415 26054.1 -03401.8 -07.4389 26275.3
 04 03 2013  19 49  -21.0413 26054.0 -03401.8 -07.4389 26275.1
 04 03 2013  19 50  -21.0411 26053.8 -03401.8 -07.4390 26275.0
 04 03 2013  19 51  -21.0409 26053.6 -03401.8 -07.4389 26274.8
 04 03 2013  19 52  -21.0408 26053.5 -03401.8 -07.4390 26274.6
 04 03 2013  19 53  -21.0407 26053.4 -03401.8 -07.4390 26274.5
 04 03 2013  19 54  -21.0405 26053.3 -03401.8 -07.4391 26274.5
 04 03 2013  19 55  -21.0404 26053.1 -03401.8 -07.4392 26274.3
 04 03 2013  19 56  -21.0401 26053.0 -03401.8 -07.4392 26274.2
 04 03 2013  19 57  -21.0399 26053.0 -03401.9 -07.4393 26274.2
 04 03 2013  19 58  -21.0399 26053.0 -03401.9 -07.4395 26274.1
 04 03 2013  19 59  -21.0399 26052.9 -03402.0 -07.4396 26274.1
 04 03 2013  20 00  -21.0398 26052.8 -03402.0 -07.4396 26273.9
 04 03 2013  20 01  -21.0396 26052.6 -03402.0 -07.4396 26273.8
 04 03 2013  20 02  -21.0395 26052.5 -03402.0 -07.4397 26273.7
 04 03 2013  20 03  -21.0394 26052.4 -03402.1 -07.4399 26273.6
 04 03 2013  20 04  -21.0394 26052.4 -03402.1 -07.4401 26273.6
 04 03 2013  20 05  -21.0394 26052.4 -03402.2 -07.4403 26273.6
 04 03 2013  20 06  -21.0395 26052.4 -03402.3 -07.4404 26273.6
 04 03 2013  20 07  -21.0395 26052.3 -03402.4 -07.4406 26273.5
 04 03 2013  20 08  -21.0395 26052.3 -03402.4 -07.4407 26273.5
 04 03 2013  20 09  -21.0396 26052.2 -03402.5 -07.4409 26273.5
 04 03 2013  20 10  -21.0396 26052.2 -03402.6 -07.4411 26273.5
 04 03 2013  20 11  -21.0398 26052.2 -03402.7 -07.4413 26273.5
 04 03 2013  20 12  -21.0398 26052.1 -03402.7 -07.4414 26273.4
 04 03 2013  20 13  -21.0398 26051.9 -03402.8 -07.4415 26273.2
 04 03 2013  20 14  -21.0399 26051.8 -03402.8 -07.4417 26273.1
 04 03 2013  20 15  -21.0398 26051.8 -03402.9 -07.4418 26273.1
 04 03 2013  20 16  -21.0397 26051.8 -03403.0 -07.4421 26273.2
 04 03 2013  20 17  -21.0396 26051.7 -03403.1 -07.4423 26273.0
 04 03 2013  20 18  -21.0392 26051.5 -03403.1 -07.4425 26272.9
 04 03 2013  20 19  -21.0391 26051.4 -03403.2 -07.4427 26272.7
 04 03 2013  20 20  -21.0389 26051.3 -03403.4 -07.4430 26272.7
 04 03 2013  20 21  -21.0386 26051.1 -03403.5 -07.4433 26272.5
 04 03 2013  20 22  -21.0386 26050.9 -03403.6 -07.4436 26272.3
 04 03 2013  20 23  -21.0386 26050.8 -03403.7 -07.4439 26272.2
 04 03 2013  20 24  -21.0386 26050.6 -03403.8 -07.4442 26272.1
 04 03 2013  20 25  -21.0388 26050.6 -03404.0 -07.4445 26272.0
 04 03 2013  20 26  -21.0388 26050.5 -03404.1 -07.4449 26272.0
 04 03 2013  20 27  -21.0389 26050.5 -03404.3 -07.4452 26272.0
 04 03 2013  20 28  -21.0390 26050.4 -03404.4 -07.4455 26271.9
 04 03 2013  20 29  -21.0392 26050.3 -03404.5 -07.4458 26271.8
 04 03 2013  20 30  -21.0394 26050.4 -03404.7 -07.4462 26271.9
 04 03 2013  20 31  -21.0397 26050.3 -03404.8 -07.4465 26271.8
 04 03 2013  20 32  -21.0398 26050.2 -03405.0 -07.4468 26271.8
 04 03 2013  20 33  -21.0398 26050.2 -03405.1 -07.4470 26271.8
 04 03 2013  20 34  -21.0399 26050.1 -03405.1 -07.4471 26271.7
 04 03 2013  20 35  -21.0398 26050.0 -03405.2 -07.4473 26271.6
 04 03 2013  20 36  -21.0400 26049.9 -03405.2 -07.4475 26271.5
 04 03 2013  20 37  -21.0401 26049.8 -03405.3 -07.4477 26271.5
 04 03 2013  20 38  -21.0402 26049.8 -03405.5 -07.4479 26271.5
 04 03 2013  20 39  -21.0404 26049.7 -03405.6 -07.4482 26271.4
 04 03 2013  20 40  -21.0405 26049.8 -03405.7 -07.4485 26271.5
 04 03 2013  20 41  -21.0407 26049.8 -03405.8 -07.4487 26271.5
 04 03 2013  20 42  -21.0407 26049.8 -03406.0 -07.4490 26271.5
 04 03 2013  20 43  -21.0410 26049.7 -03406.1 -07.4493 26271.4
 04 03 2013  20 44  -21.0412 26049.5 -03406.1 -07.4494 26271.3
 04 03 2013  20 45  -21.0413 26049.4 -03406.2 -07.4497 26271.2
 04 03 2013  20 46  -21.0416 26049.3 -03406.3 -07.4499 26271.1
 04 03 2013  20 47  -21.0418 26049.2 -03406.4 -07.4501 26271.0
 04 03 2013  20 48  -21.0420 26049.1 -03406.5 -07.4503 26270.9
 04 03 2013  20 49  -21.0420 26048.9 -03406.6 -07.4506 26270.7
 04 03 2013  20 50  -21.0422 26048.8 -03406.6 -07.4508 26270.6
 04 03 2013  20 51  -21.0423 26048.7 -03406.7 -07.4509 26270.5
 04 03 2013  20 52  -21.0424 26048.6 -03406.8 -07.4513 26270.4
 04 03 2013  20 53  -21.0424 26048.6 -03407.0 -07.4516 26270.4
 04 03 2013  20 54  -21.0425 26048.7 -03407.2 -07.4521 26270.6
 04 03 2013  20 55  -21.0427 26048.8 -03407.4 -07.4525 26270.7
 04 03 2013  20 56  -21.0428 26048.8 -03407.6 -07.4529 26270.7
 04 03 2013  20 57  -21.0429 26048.7 -03407.7 -07.4532 26270.7
 04 03 2013  20 58  -21.0430 26048.6 -03407.9 -07.4535 26270.6
 04 03 2013  20 59  -21.0431 26048.5 -03407.9 -07.4537 26270.5
 04 03 2013  21 00  -21.0432 26048.4 -03408.1 -07.4540 26270.4
 04 03 2013  21 01  -21.0433 26048.3 -03408.2 -07.4542 26270.3
 04 03 2013  21 02  -21.0435 26048.2 -03408.3 -07.4546 26270.3
 04 03 2013  21 03  -21.0437 26048.1 -03408.4 -07.4548 26270.2
 04 03 2013  21 04  -21.0438 26048.0 -03408.5 -07.4551 26270.1
 04 03 2013  21 05  -21.0438 26047.9 -03408.7 -07.4554 26270.0
 04 03 2013  21 06  -21.0438 26047.9 -03408.8 -07.4557 26270.0
 04 03 2013  21 07  -21.0439 26047.9 -03408.9 -07.4560 26270.0
 04 03 2013  21 08  -21.0440 26047.7 -03409.0 -07.4563 26269.9
 04 03 2013  21 09  -21.0440 26047.7 -03409.1 -07.4565 26269.8
 04 03 2013  21 10  -21.0441 26047.5 -03409.2 -07.4567 26269.6
 04 03 2013  21 11  -21.0441 26047.2 -03409.2 -07.4569 26269.4
 04 03 2013  21 12  -21.0442 26047.1 -03409.3 -07.4571 26269.2
 04 03 2013  21 13  -21.0442 26046.9 -03409.3 -07.4572 26269.0
 04 03 2013  21 14  -21.0443 26046.7 -03409.4 -07.4574 26268.9
 04 03 2013  21 15  -21.0443 26046.6 -03409.5 -07.4577 26268.8
 04 03 2013  21 16  -21.0442 26046.5 -03409.7 -07.4581 26268.7
 04 03 2013  21 17  -21.0442 26046.4 -03409.8 -07.4583 26268.6
 04 03 2013  21 18  -21.0442 26046.2 -03409.9 -07.4586 26268.5
 04 03 2013  21 19  -21.0441 26046.0 -03410.0 -07.4589 26268.3
 04 03 2013  21 20  -21.0441 26046.0 -03410.2 -07.4592 26268.3
 04 03 2013  21 21  -21.0442 26045.9 -03410.3 -07.4596 26268.2
 04 03 2013  21 22  -21.0442 26045.8 -03410.5 -07.4600 26268.1
 04 03 2013  21 23  -21.0444 26045.8 -03410.7 -07.4604 26268.1
 04 03 2013  21 24  -21.0445 26045.7 -03410.8 -07.4607 26268.1
 04 03 2013  21 25  -21.0446 26045.7 -03411.1 -07.4612 26268.1
 04 03 2013  21 26  -21.0449 26045.7 -03411.3 -07.4618 26268.2
 04 03 2013  21 27  -21.0451 26045.7 -03411.5 -07.4621 26268.1
 04 03 2013  21 28  -21.0454 26045.5 -03411.6 -07.4624 26268.0
 04 03 2013  21 29  -21.0458 26045.4 -03411.7 -07.4627 26267.9
 04 03 2013  21 30  -21.0459 26045.2 -03411.7 -07.4628 26267.7
 04 03 2013  21 31  -21.0460 26045.0 -03411.8 -07.4630 26267.5
 04 03 2013  21 32  -21.0461 26044.8 -03411.8 -07.4632 26267.3
 04 03 2013  21 33  -21.0462 26044.5 -03411.8 -07.4632 26267.1
 04 03 2013  21 34  -21.0463 26044.4 -03411.8 -07.4633 26267.0
 04 03 2013  21 35  -21.0465 26044.4 -03412.0 -07.4636 26266.9
 04 03 2013  21 36  -21.0466 26044.3 -03412.1 -07.4639 26266.9
 04 03 2013  21 37  -21.0466 26044.3 -03412.3 -07.4642 26266.8
 04 03 2013  21 38  -21.0468 26044.2 -03412.3 -07.4645 26266.8
 04 03 2013  21 39  -21.0468 26044.0 -03412.4 -07.4646 26266.6
 04 03 2013  21 40  -21.0471 26043.9 -03412.5 -07.4648 26266.5
 04 03 2013  21 41  -21.0472 26043.8 -03412.5 -07.4649 26266.4
 04 03 2013  21 42  -21.0474 26043.7 -03412.6 -07.4651 26266.4
 04 03 2013  21 43  -21.0476 26043.6 -03412.6 -07.4652 26266.3
 04 03 2013  21 44  -21.0476 26043.7 -03412.8 -07.4655 26266.3
 04 03 2013  21 45  -21.0477 26043.6 -03412.8 -07.4657 26266.3
 04 03 2013  21 46  -21.0478 26043.5 -03412.8 -07.4657 26266.1
 04 03 2013  21 47  -21.0478 26043.3 -03412.9 -07.4658 26266.0
 04 03 2013  21 48  -21.0478 26043.1 -03412.8 -07.4658 26265.7
 04 03 2013  21 49  -21.0479 26043.0 -03412.9 -07.4659 26265.7
 04 03 2013  21 50  -21.0480 26042.9 -03412.9 -07.4660 26265.6
 04 03 2013  21 51  -21.0481 26042.8 -03412.9 -07.4661 26265.5
 04 03 2013  21 52  -21.0481 26042.6 -03413.0 -07.4662 26265.3
 04 03 2013  21 53  -21.0483 26042.5 -03413.0 -07.4663 26265.2
 04 03 2013  21 54  -21.0484 26042.5 -03413.0 -07.4664 26265.2
 04 03 2013  21 55  -21.0484 26042.3 -03413.0 -07.4665 26265.0
 04 03 2013  21 56  -21.0485 26042.2 -03413.1 -07.4666 26265.0
 04 03 2013  21 57  -21.0486 26042.2 -03413.1 -07.4667 26264.9
 04 03 2013  21 58  -21.0487 26042.1 -03413.1 -07.4667 26264.8
 04 03 2013  21 59  -21.0488 26042.0 -03413.2 -07.4669 26264.7
 04 03 2013  22 00  -21.0488 26041.9 -03413.2 -07.4670 26264.7
 04 03 2013  22 01  -21.0488 26042.0 -03413.3 -07.4672 26264.7
 04 03 2013  22 02  -21.0488 26042.0 -03413.4 -07.4674 26264.8
 04 03 2013  22 03  -21.0487 26042.1 -03413.4 -07.4674 26264.8
 04 03 2013  22 04  -21.0487 26042.1 -03413.6 -07.4677 26264.9
 04 03 2013  22 05  -21.0485 26042.3 -03413.7 -07.4679 26265.1
 04 03 2013  22 06  -21.0485 26042.2 -03413.7 -07.4680 26265.0
 04 03 2013  22 07  -21.0486 26042.3 -03413.8 -07.4681 26265.1
 04 03 2013  22 08  -21.0483 26042.3 -03413.8 -07.4682 26265.1
 04 03 2013  22 09  -21.0483 26042.1 -03413.8 -07.4682 26264.9
 04 03 2013  22 10  -21.0483 26042.1 -03413.8 -07.4682 26265.0
 04 03 2013  22 11  -21.0480 26042.1 -03413.9 -07.4683 26265.0
 04 03 2013  22 12  -21.0481 26042.0 -03413.9 -07.4684 26264.8
 04 03 2013  22 13  -21.0480 26042.1 -03413.9 -07.4685 26264.9
 04 03 2013  22 14  -21.0480 26042.0 -03413.9 -07.4685 26264.8
 04 03 2013  22 15  -21.0478 26042.0 -03413.9 -07.4685 26264.8
 04 03 2013  22 16  -21.0476 26041.9 -03414.0 -07.4687 26264.8
 04 03 2013  22 17  -21.0475 26042.0 -03414.1 -07.4688 26264.8
 04 03 2013  22 18  -21.0473 26041.8 -03414.1 -07.4688 26264.7
 04 03 2013  22 19  -21.0472 26041.7 -03414.1 -07.4689 26264.5
 04 03 2013  22 20  -21.0470 26041.6 -03414.1 -07.4689 26264.4
 04 03 2013  22 21  -21.0469 26041.4 -03414.0 -07.4689 26264.2
 04 03 2013  22 22  -21.0468 26041.2 -03414.0 -07.4689 26264.1
 04 03 2013  22 23  -21.0468 26041.1 -03414.0 -07.4689 26263.9
 04 03 2013  22 24  -21.0468 26040.9 -03414.0 -07.4690 26263.8
 04 03 2013  22 25  -21.0468 26040.8 -03414.0 -07.4690 26263.6
 04 03 2013  22 26  -21.0468 26040.6 -03414.0 -07.4691 26263.5
 04 03 2013  22 27  -21.0468 26040.7 -03414.2 -07.4693 26263.6
 04 03 2013  22 28  -21.0469 26040.6 -03414.1 -07.4694 26263.5
 04 03 2013  22 29  -21.0469 26040.6 -03414.2 -07.4695 26263.5
 04 03 2013  22 30  -21.0469 26040.6 -03414.3 -07.4696 26263.5
 04 03 2013  22 31  -21.0470 26040.6 -03414.3 -07.4698 26263.4
 04 03 2013  22 32  -21.0469 26040.7 -03414.4 -07.4699 26263.6
 04 03 2013  22 33  -21.0470 26040.7 -03414.5 -07.4701 26263.6
 04 03 2013  22 34  -21.0472 26040.9 -03414.6 -07.4703 26263.8
 04 03 2013  22 35  -21.0472 26040.9 -03414.7 -07.4705 26263.9
 04 03 2013  22 36  -21.0473 26040.9 -03414.8 -07.4706 26263.8
 04 03 2013  22 37  -21.0473 26040.9 -03414.8 -07.4706 26263.8
 04 03 2013  22 38  -21.0471 26040.9 -03414.7 -07.4705 26263.8
 04 03 2013  22 39  -21.0469 26040.9 -03414.6 -07.4703 26263.8
 04 03 2013  22 40  -21.0468 26040.7 -03414.6 -07.4704 26263.7
 04 03 2013  22 41  -21.0466 26040.7 -03414.7 -07.4705 26263.6
 04 03 2013  22 42  -21.0466 26040.8 -03414.8 -07.4707 26263.7
 04 03 2013  22 43  -21.0464 26040.9 -03414.9 -07.4709 26263.8
 04 03 2013  22 44  -21.0462 26040.9 -03415.0 -07.4710 26263.9
 04 03 2013  22 45  -21.0459 26041.0 -03415.0 -07.4711 26263.9
 04 03 2013  22 46  -21.0458 26041.1 -03415.1 -07.4712 26264.0
 04 03 2013  22 47  -21.0455 26041.2 -03415.2 -07.4714 26264.1
 04 03 2013  22 48  -21.0452 26041.3 -03415.2 -07.4715 26264.2
 04 03 2013  22 49  -21.0453 26041.3 -03415.3 -07.4716 26264.3
 04 03 2013  22 50  -21.0452 26041.4 -03415.4 -07.4718 26264.4
 04 03 2013  22 51  -21.0453 26041.3 -03415.4 -07.4718 26264.3
 04 03 2013  22 52  -21.0453 26041.3 -03415.3 -07.4717 26264.3
 04 03 2013  22 53  -21.0453 26041.2 -03415.3 -07.4717 26264.3
 04 03 2013  22 54  -21.0454 26041.2 -03415.3 -07.4717 26264.2
 04 03 2013  22 55  -21.0456 26041.2 -03415.3 -07.4717 26264.2
 04 03 2013  22 56  -21.0456 26041.1 -03415.3 -07.4717 26264.1
 04 03 2013  22 57  -21.0459 26041.0 -03415.3 -07.4717 26264.0
 04 03 2013  22 58  -21.0459 26041.0 -03415.3 -07.4717 26264.0
 04 03 2013  22 59  -21.0459 26041.0 -03415.3 -07.4717 26264.0
 04 03 2013  23 00  -21.0462 26040.9 -03415.3 -07.4717 26263.9
 04 03 2013  23 01  -21.0460 26040.8 -03415.2 -07.4716 26263.8
 04 03 2013  23 02  -21.0460 26040.7 -03415.1 -07.4714 26263.6
 04 03 2013  23 03  -21.0460 26040.5 -03415.0 -07.4713 26263.5
 04 03 2013  23 04  -21.0460 26040.4 -03415.0 -07.4713 26263.3
 04 03 2013  23 05  -21.0458 26040.2 -03414.9 -07.4712 26263.2
 04 03 2013  23 06  -21.0457 26040.0 -03414.8 -07.4710 26263.0
 04 03 2013  23 07  -21.0455 26039.9 -03414.8 -07.4709 26262.8
 04 03 2013  23 08  -21.0455 26039.9 -03414.8 -07.4710 26262.8
 04 03 2013  23 09  -21.0456 26040.0 -03414.9 -07.4712 26263.0
 04 03 2013  23 10  -21.0457 26040.1 -03415.0 -07.4714 26263.1
 04 03 2013  23 11  -21.0458 26040.2 -03415.1 -07.4715 26263.2
 04 03 2013  23 12  -21.0460 26040.2 -03415.2 -07.4717 26263.2
 04 03 2013  23 13  -21.0462 26040.2 -03415.2 -07.4717 26263.2
 04 03 2013  23 14  -21.0463 26040.2 -03415.2 -07.4717 26263.2
 04 03 2013  23 15  -21.0463 26040.2 -03415.2 -07.4717 26263.2
 04 03 2013  23 16  -21.0464 26040.4 -03415.3 -07.4718 26263.4
 04 03 2013  23 17  -21.0466 26040.6 -03415.4 -07.4721 26263.6
 04 03 2013  23 18  -21.0467 26040.9 -03415.5 -07.4723 26263.9
 04 03 2013  23 19  -21.0471 26041.1 -03415.7 -07.4725 26264.2
 04 03 2013  23 20  -21.0473 26041.3 -03415.8 -07.4727 26264.3
 04 03 2013  23 21  -21.0474 26041.3 -03415.8 -07.4728 26264.4
 04 03 2013  23 22  -21.0473 26041.2 -03415.8 -07.4727 26264.3
 04 03 2013  23 23  -21.0471 26040.8 -03415.5 -07.4723 26263.9
 04 03 2013  23 24  -21.0468 26040.7 -03415.4 -07.4720 26263.7
 04 03 2013  23 25  -21.0467 26040.5 -03415.3 -07.4720 26263.5
 04 03 2013  23 26  -21.0465 26040.5 -03415.3 -07.4719 26263.5
 04 03 2013  23 27  -21.0462 26040.4 -03415.3 -07.4720 26263.5
 04 03 2013  23 28  -21.0460 26040.4 -03415.3 -07.4720 26263.4
 04 03 2013  23 29  -21.0458 26040.3 -03415.3 -07.4719 26263.3
 04 03 2013  23 30  -21.0457 26040.1 -03415.2 -07.4719 26263.1
 04 03 2013  23 31  -21.0456 26040.0 -03415.2 -07.4718 26263.0
 04 03 2013  23 32  -21.0456 26039.9 -03415.2 -07.4718 26262.9
 04 03 2013  23 33  -21.0454 26039.8 -03415.2 -07.4718 26262.8
 04 03 2013  23 34  -21.0454 26039.7 -03415.2 -07.4718 26262.7
 04 03 2013  23 35  -21.0453 26039.6 -03415.1 -07.4717 26262.6
 04 03 2013  23 36  -21.0451 26039.6 -03415.1 -07.4718 26262.6
 04 03 2013  23 37  -21.0451 26039.5 -03415.1 -07.4717 26262.5
 04 03 2013  23 38  -21.0450 26039.4 -03415.1 -07.4717 26262.4
 04 03 2013  23 39  -21.0449 26039.5 -03415.1 -07.4718 26262.5
 04 03 2013  23 40  -21.0448 26039.5 -03415.2 -07.4719 26262.5
 04 03 2013  23 41  -21.0447 26039.6 -03415.2 -07.4719 26262.6
 04 03 2013  23 42  -21.0449 26039.3 -03415.1 -07.4717 26262.3
 04 03 2013  23 43  -21.0448 26039.4 -03415.2 -07.4719 26262.4
 04 03 2013  23 44  -21.0448 26039.3 -03415.1 -07.4718 26262.3
 04 03 2013  23 45  -21.0449 26039.3 -03415.1 -07.4718 26262.3
 04 03 2013  23 46  -21.0448 26039.1 -03415.1 -07.4718 26262.1
 04 03 2013  23 47  -21.0447 26039.1 -03415.0 -07.4717 26262.1
 04 03 2013  23 48  -21.0445 26039.1 -03415.0 -07.4716 26262.0
 04 03 2013  23 49  -21.0441 26039.0 -03415.0 -07.4716 26262.0
 04 03 2013  23 50  -21.0439 26038.8 -03414.9 -07.4714 26261.7
 04 03 2013  23 51  -21.0437 26038.7 -03414.9 -07.4714 26261.7
 04 03 2013  23 52  -21.0437 26038.6 -03414.8 -07.4713 26261.6
 04 03 2013  23 53  -21.0435 26038.6 -03414.8 -07.4714 26261.6
 04 03 2013  23 54  -21.0435 26038.4 -03414.8 -07.4713 26261.4
 04 03 2013  23 55  -21.0432 26038.4 -03414.7 -07.4712 26261.3
 04 03 2013  23 56  -21.0432 26038.4 -03414.7 -07.4713 26261.3
 04 03 2013  23 57  -21.0432 26038.2 -03414.7 -07.4713 26261.2
 04 03 2013  23 58  -21.0432 26038.3 -03414.8 -07.4714 26261.2
