SAO LUIS EMBRACE-03 <155> 1 Min. Reported data

 DD MM YYYY  HH MM   D(Deg)  H(nT)   Z(nT)   I(Deg)   F(nT)

 04 06 2013  00 00  -21.0530 26011.6 -03444.3 -07.5429 26238.6
 04 06 2013  00 01  -21.0529 26011.4 -03444.2 -07.5428 26238.4
 04 06 2013  00 02  -21.0528 26011.0 -03444.1 -07.5425 26238.0
 04 06 2013  00 03  -21.0526 26011.1 -03444.1 -07.5425 26238.1
 04 06 2013  00 04  -21.0519 26012.3 -03444.7 -07.5434 26239.4
 04 06 2013  00 05  -21.0510 26013.7 -03445.3 -07.5445 26240.8
 04 06 2013  00 06  -21.0501 26015.3 -03446.2 -07.5460 26242.6
 04 06 2013  00 07  -21.0495 26016.3 -03446.7 -07.5468 26243.6
 04 06 2013  00 08  -21.0489 26017.4 -03447.3 -07.5476 26244.8
 04 06 2013  00 09  -21.0485 26017.9 -03447.5 -07.5479 26245.3
 04 06 2013  00 10  -21.0478 26018.6 -03447.7 -07.5483 26246.0
 04 06 2013  00 11  -21.0474 26019.0 -03447.9 -07.5485 26246.5
 04 06 2013  00 12  -21.0471 26019.5 -03448.0 -07.5486 26247.0
 04 06 2013  00 13  -21.0471 26019.6 -03448.0 -07.5485 26247.1
 04 06 2013  00 14  -21.0469 26019.7 -03447.9 -07.5483 26247.1
 04 06 2013  00 15  -21.0471 26019.8 -03448.0 -07.5484 26247.3
 04 06 2013  00 16  -21.0475 26019.6 -03447.8 -07.5481 26247.1
 04 06 2013  00 17  -21.0476 26020.0 -03447.9 -07.5483 26247.5
 04 06 2013  00 18  -21.0480 26020.5 -03448.1 -07.5485 26248.0
 04 06 2013  00 19  -21.0488 26021.3 -03448.5 -07.5491 26248.9
 04 06 2013  00 20  -21.0498 26021.5 -03448.6 -07.5492 26249.0
 04 06 2013  00 21  -21.0507 26021.7 -03448.5 -07.5491 26249.2
 04 06 2013  00 22  -21.0512 26021.1 -03448.2 -07.5485 26248.6
 04 06 2013  00 23  -21.0511 26020.4 -03447.6 -07.5475 26247.8
 04 06 2013  00 24  -21.0504 26020.1 -03447.2 -07.5468 26247.4
 04 06 2013  00 25  -21.0499 26020.1 -03447.2 -07.5467 26247.5
 04 06 2013  00 26  -21.0494 26019.9 -03447.1 -07.5465 26247.2
 04 06 2013  00 27  -21.0489 26019.2 -03446.7 -07.5458 26246.5
 04 06 2013  00 28  -21.0484 26018.7 -03446.3 -07.5453 26245.9
 04 06 2013  00 29  -21.0483 26018.5 -03446.3 -07.5452 26245.7
 04 06 2013  00 30  -21.0483 26018.2 -03446.2 -07.5452 26245.5
 04 06 2013  00 31  -21.0487 26018.1 -03446.2 -07.5452 26245.3
 04 06 2013  00 32  -21.0490 26017.7 -03446.1 -07.5450 26244.9
 04 06 2013  00 33  -21.0492 26017.5 -03446.0 -07.5448 26244.7
 04 06 2013  00 34  -21.0492 26017.4 -03446.0 -07.5448 26244.6
 04 06 2013  00 35  -21.0492 26017.2 -03445.9 -07.5448 26244.4
 04 06 2013  00 36  -21.0492 26017.0 -03445.8 -07.5446 26244.2
 04 06 2013  00 37  -21.0492 26016.7 -03445.7 -07.5444 26243.9
 04 06 2013  00 38  -21.0490 26016.3 -03445.5 -07.5441 26243.5
 04 06 2013  00 39  -21.0490 26015.9 -03445.3 -07.5438 26243.0
 04 06 2013  00 40  -21.0490 26015.4 -03445.1 -07.5435 26242.5
 04 06 2013  00 41  -21.0491 26015.0 -03444.9 -07.5433 26242.1
 04 06 2013  00 42  -21.0492 26014.6 -03444.8 -07.5431 26241.7
 04 06 2013  00 43  -21.0497 26014.3 -03444.7 -07.5431 26241.4
 04 06 2013  00 44  -21.0503 26014.2 -03444.8 -07.5432 26241.3
 04 06 2013  00 45  -21.0506 26014.0 -03444.8 -07.5432 26241.1
 04 06 2013  00 46  -21.0505 26014.0 -03444.8 -07.5432 26241.1
 04 06 2013  00 47  -21.0503 26014.1 -03444.9 -07.5434 26241.2
 04 06 2013  00 48  -21.0500 26013.9 -03444.8 -07.5432 26241.0
 04 06 2013  00 49  -21.0499 26013.8 -03444.8 -07.5433 26240.9
 04 06 2013  00 50  -21.0504 26013.5 -03444.7 -07.5433 26240.6
 04 06 2013  00 51  -21.0506 26013.3 -03444.7 -07.5433 26240.4
 04 06 2013  00 52  -21.0504 26013.3 -03444.7 -07.5433 26240.4
 04 06 2013  00 53  -21.0500 26013.7 -03444.9 -07.5436 26240.8
 04 06 2013  00 54  -21.0498 26013.8 -03445.1 -07.5439 26240.9
 04 06 2013  00 55  -21.0497 26014.0 -03445.2 -07.5441 26241.2
 04 06 2013  00 56  -21.0499 26014.0 -03445.3 -07.5442 26241.2
 04 06 2013  00 57  -21.0502 26014.1 -03445.4 -07.5444 26241.3
 04 06 2013  00 58  -21.0504 26014.4 -03445.5 -07.5447 26241.6
 04 06 2013  00 59  -21.0505 26014.6 -03445.6 -07.5448 26241.8
 04 06 2013  01 00  -21.0508 26014.8 -03445.7 -07.5449 26242.0
 04 06 2013  01 01  -21.0511 26015.0 -03445.8 -07.5451 26242.2
 04 06 2013  01 02  -21.0508 26015.5 -03445.9 -07.5452 26242.7
 04 06 2013  01 03  -21.0506 26015.6 -03445.9 -07.5452 26242.8
 04 06 2013  01 04  -21.0506 26015.7 -03445.9 -07.5451 26243.0
 04 06 2013  01 05  -21.0507 26015.9 -03445.9 -07.5451 26243.1
 04 06 2013  01 06  -21.0504 26016.0 -03445.9 -07.5451 26243.2
 04 06 2013  01 07  -21.0501 26016.3 -03446.0 -07.5452 26243.5
 04 06 2013  01 08  -21.0499 26016.3 -03445.9 -07.5451 26243.5
 04 06 2013  01 09  -21.0500 26016.3 -03446.0 -07.5451 26243.6
 04 06 2013  01 10  -21.0495 26016.2 -03445.9 -07.5449 26243.4
 04 06 2013  01 11  -21.0489 26016.4 -03445.9 -07.5450 26243.6
 04 06 2013  01 12  -21.0488 26016.8 -03446.1 -07.5453 26244.0
 04 06 2013  01 13  -21.0488 26017.1 -03446.3 -07.5457 26244.3
 04 06 2013  01 14  -21.0488 26017.1 -03446.3 -07.5457 26244.3
 04 06 2013  01 15  -21.0486 26016.9 -03446.3 -07.5456 26244.2
 04 06 2013  01 16  -21.0484 26016.7 -03446.1 -07.5453 26243.9
 04 06 2013  01 17  -21.0485 26016.5 -03446.0 -07.5451 26243.7
 04 06 2013  01 18  -21.0485 26016.5 -03446.0 -07.5452 26243.8
 04 06 2013  01 19  -21.0486 26016.7 -03446.1 -07.5454 26243.9
 04 06 2013  01 20  -21.0488 26016.7 -03446.2 -07.5455 26244.0
 04 06 2013  01 21  -21.0487 26016.6 -03446.1 -07.5454 26243.9
 04 06 2013  01 22  -21.0483 26016.4 -03446.0 -07.5452 26243.6
 04 06 2013  01 23  -21.0481 26016.0 -03445.8 -07.5448 26243.2
 04 06 2013  01 24  -21.0483 26015.6 -03445.6 -07.5446 26242.8
 04 06 2013  01 25  -21.0486 26015.2 -03445.6 -07.5446 26242.4
 04 06 2013  01 26  -21.0487 26014.9 -03445.4 -07.5443 26242.0
 04 06 2013  01 27  -21.0491 26014.6 -03445.3 -07.5442 26241.7
 04 06 2013  01 28  -21.0494 26014.8 -03445.5 -07.5445 26242.0
 04 06 2013  01 29  -21.0497 26014.8 -03445.6 -07.5448 26242.0
 04 06 2013  01 30  -21.0493 26014.6 -03445.5 -07.5446 26241.8
 04 06 2013  01 31  -21.0483 26014.4 -03445.3 -07.5443 26241.5
 04 06 2013  01 32  -21.0482 26013.9 -03445.1 -07.5439 26241.0
 04 06 2013  01 33  -21.0484 26013.7 -03445.1 -07.5440 26240.9
 04 06 2013  01 34  -21.0486 26013.7 -03445.2 -07.5441 26240.9
 04 06 2013  01 35  -21.0487 26014.0 -03445.3 -07.5444 26241.1
 04 06 2013  01 36  -21.0490 26013.8 -03445.4 -07.5446 26241.0
 04 06 2013  01 37  -21.0494 26013.4 -03445.2 -07.5443 26240.5
 04 06 2013  01 38  -21.0493 26013.0 -03445.0 -07.5440 26240.1
 04 06 2013  01 39  -21.0490 26012.8 -03444.8 -07.5437 26239.9
 04 06 2013  01 40  -21.0489 26012.6 -03444.8 -07.5436 26239.7
 04 06 2013  01 41  -21.0485 26012.5 -03444.8 -07.5436 26239.6
 04 06 2013  01 42  -21.0484 26012.4 -03444.8 -07.5436 26239.5
 04 06 2013  01 43  -21.0485 26012.5 -03444.9 -07.5439 26239.6
 04 06 2013  01 44  -21.0484 26012.6 -03445.0 -07.5441 26239.7
 04 06 2013  01 45  -21.0479 26012.6 -03445.1 -07.5442 26239.7
 04 06 2013  01 46  -21.0473 26012.4 -03445.0 -07.5442 26239.5
 04 06 2013  01 47  -21.0470 26012.1 -03444.9 -07.5441 26239.3
 04 06 2013  01 48  -21.0475 26012.2 -03445.1 -07.5445 26239.4
 04 06 2013  01 49  -21.0486 26012.5 -03445.4 -07.5451 26239.7
 04 06 2013  01 50  -21.0497 26012.5 -03445.6 -07.5454 26239.7
 04 06 2013  01 51  -21.0498 26011.6 -03445.2 -07.5448 26238.8
 04 06 2013  01 52  -21.0494 26010.5 -03444.6 -07.5438 26237.6
 04 06 2013  01 53  -21.0493 26009.7 -03444.2 -07.5431 26236.8
 04 06 2013  01 54  -21.0491 26009.6 -03444.2 -07.5432 26236.6
 04 06 2013  01 55  -21.0487 26009.4 -03444.2 -07.5432 26236.5
 04 06 2013  01 56  -21.0480 26009.1 -03444.1 -07.5431 26236.1
 04 06 2013  01 57  -21.0472 26009.2 -03444.2 -07.5434 26236.3
 04 06 2013  01 58  -21.0467 26009.4 -03444.5 -07.5440 26236.5
 04 06 2013  01 59  -21.0466 26009.6 -03444.8 -07.5444 26236.7
 04 06 2013  02 00  -21.0471 26009.6 -03445.0 -07.5449 26236.7
 04 06 2013  02 01  -21.0476 26009.1 -03444.9 -07.5448 26236.2
 04 06 2013  02 02  -21.0477 26008.2 -03444.4 -07.5441 26235.2
 04 06 2013  02 03  -21.0476 26007.6 -03444.2 -07.5438 26234.7
 04 06 2013  02 04  -21.0477 26007.3 -03444.1 -07.5437 26234.4
 04 06 2013  02 05  -21.0480 26007.1 -03444.2 -07.5439 26234.2
 04 06 2013  02 06  -21.0484 26006.9 -03444.2 -07.5441 26234.0
 04 06 2013  02 07  -21.0486 26006.6 -03444.2 -07.5441 26233.7
 04 06 2013  02 08  -21.0487 26006.7 -03444.3 -07.5443 26233.8
 04 06 2013  02 09  -21.0489 26006.9 -03444.6 -07.5448 26234.0
 04 06 2013  02 10  -21.0492 26006.9 -03444.7 -07.5451 26234.0
 04 06 2013  02 11  -21.0492 26006.8 -03444.7 -07.5452 26233.9
 04 06 2013  02 12  -21.0491 26006.7 -03444.7 -07.5452 26233.8
 04 06 2013  02 13  -21.0491 26006.8 -03444.8 -07.5454 26234.0
 04 06 2013  02 14  -21.0493 26007.0 -03445.0 -07.5457 26234.2
 04 06 2013  02 15  -21.0495 26007.3 -03445.2 -07.5461 26234.5
 04 06 2013  02 16  -21.0498 26007.5 -03445.4 -07.5465 26234.7
 04 06 2013  02 17  -21.0500 26007.8 -03445.6 -07.5468 26235.0
 04 06 2013  02 18  -21.0503 26007.9 -03445.7 -07.5470 26235.1
 04 06 2013  02 19  -21.0505 26007.9 -03445.7 -07.5470 26235.2
 04 06 2013  02 20  -21.0508 26008.1 -03445.8 -07.5472 26235.4
 04 06 2013  02 21  -21.0509 26008.4 -03446.0 -07.5475 26235.7
 04 06 2013  02 22  -21.0510 26008.7 -03446.1 -07.5477 26236.0
 04 06 2013  02 23  -21.0509 26009.3 -03446.5 -07.5482 26236.7
 04 06 2013  02 24  -21.0511 26009.9 -03446.8 -07.5487 26237.3
 04 06 2013  02 25  -21.0512 26010.3 -03446.9 -07.5489 26237.7
 04 06 2013  02 26  -21.0514 26010.7 -03447.0 -07.5491 26238.1
 04 06 2013  02 27  -21.0513 26010.9 -03447.1 -07.5491 26238.4
 04 06 2013  02 28  -21.0513 26011.3 -03447.2 -07.5493 26238.8
 04 06 2013  02 29  -21.0514 26011.7 -03447.4 -07.5496 26239.1
 04 06 2013  02 30  -21.0517 26011.9 -03447.6 -07.5498 26239.4
 04 06 2013  02 31  -21.0520 26012.1 -03447.5 -07.5498 26239.5
 04 06 2013  02 32  -21.0522 26012.1 -03447.5 -07.5497 26239.6
 04 06 2013  02 33  -21.0523 26012.0 -03447.4 -07.5495 26239.5
 04 06 2013  02 34  -21.0522 26011.9 -03447.3 -07.5493 26239.4
 04 06 2013  02 35  -21.0520 26011.8 -03447.2 -07.5490 26239.2
 04 06 2013  02 36  -21.0521 26011.7 -03447.1 -07.5489 26239.1
 04 06 2013  02 37  -21.0524 26011.5 -03447.0 -07.5487 26238.9
 04 06 2013  02 38  -21.0524 26011.2 -03446.8 -07.5483 26238.5
 04 06 2013  02 39  -21.0520 26010.7 -03446.5 -07.5479 26238.0
 04 06 2013  02 40  -21.0516 26010.2 -03446.2 -07.5475 26237.5
 04 06 2013  02 41  -21.0514 26009.9 -03446.1 -07.5473 26237.2
 04 06 2013  02 42  -21.0510 26009.5 -03446.0 -07.5471 26236.8
 04 06 2013  02 43  -21.0509 26009.3 -03445.9 -07.5470 26236.6
 04 06 2013  02 44  -21.0508 26009.6 -03446.1 -07.5473 26236.9
 04 06 2013  02 45  -21.0507 26010.3 -03446.5 -07.5479 26237.6
 04 06 2013  02 46  -21.0508 26011.5 -03447.1 -07.5489 26238.9
 04 06 2013  02 47  -21.0512 26012.8 -03447.7 -07.5499 26240.3
 04 06 2013  02 48  -21.0515 26014.0 -03448.3 -07.5509 26241.6
 04 06 2013  02 49  -21.0514 26014.6 -03448.6 -07.5513 26242.2
 04 06 2013  02 50  -21.0508 26014.9 -03448.6 -07.5513 26242.5
 04 06 2013  02 51  -21.0508 26015.4 -03448.8 -07.5514 26243.0
 04 06 2013  02 52  -21.0511 26015.3 -03448.7 -07.5514 26242.9
 04 06 2013  02 53  -21.0515 26015.4 -03448.6 -07.5511 26242.9
 04 06 2013  02 54  -21.0516 26015.8 -03448.7 -07.5512 26243.4
 04 06 2013  02 55  -21.0517 26016.5 -03448.9 -07.5515 26244.1
 04 06 2013  02 56  -21.0516 26017.0 -03449.2 -07.5518 26244.7
 04 06 2013  02 57  -21.0520 26017.4 -03449.2 -07.5519 26245.0
 04 06 2013  02 58  -21.0526 26017.7 -03449.4 -07.5521 26245.4
 04 06 2013  02 59  -21.0532 26017.5 -03449.2 -07.5518 26245.2
 04 06 2013  03 00  -21.0532 26017.7 -03449.1 -07.5515 26245.3
 04 06 2013  03 01  -21.0529 26018.0 -03449.1 -07.5513 26245.6
 04 06 2013  03 02  -21.0527 26018.0 -03449.0 -07.5511 26245.6
 04 06 2013  03 03  -21.0526 26018.1 -03448.9 -07.5510 26245.7
 04 06 2013  03 04  -21.0525 26018.1 -03448.8 -07.5508 26245.7
 04 06 2013  03 05  -21.0523 26017.9 -03448.6 -07.5504 26245.4
 04 06 2013  03 06  -21.0520 26018.4 -03448.7 -07.5505 26246.0
 04 06 2013  03 07  -21.0519 26018.8 -03448.9 -07.5507 26246.3
 04 06 2013  03 08  -21.0513 26019.2 -03449.0 -07.5509 26246.8
 04 06 2013  03 09  -21.0508 26019.0 -03448.9 -07.5506 26246.6
 04 06 2013  03 10  -21.0503 26019.0 -03448.7 -07.5503 26246.6
 04 06 2013  03 11  -21.0498 26018.8 -03448.5 -07.5500 26246.4
 04 06 2013  03 12  -21.0496 26019.0 -03448.6 -07.5501 26246.5
 04 06 2013  03 13  -21.0497 26018.8 -03448.5 -07.5499 26246.3
 04 06 2013  03 14  -21.0496 26018.5 -03448.3 -07.5496 26246.0
 04 06 2013  03 15  -21.0491 26018.5 -03448.2 -07.5494 26246.0
 04 06 2013  03 16  -21.0483 26018.3 -03448.1 -07.5492 26245.8
 04 06 2013  03 17  -21.0472 26018.3 -03448.1 -07.5491 26245.8
 04 06 2013  03 18  -21.0464 26018.5 -03448.1 -07.5491 26245.9
 04 06 2013  03 19  -21.0455 26018.5 -03448.2 -07.5492 26246.0
 04 06 2013  03 20  -21.0449 26018.7 -03448.2 -07.5494 26246.2
 04 06 2013  03 21  -21.0447 26018.8 -03448.4 -07.5496 26246.3
 04 06 2013  03 22  -21.0446 26019.0 -03448.5 -07.5499 26246.5
 04 06 2013  03 23  -21.0447 26019.3 -03448.7 -07.5501 26246.8
 04 06 2013  03 24  -21.0448 26019.4 -03448.8 -07.5503 26247.0
 04 06 2013  03 25  -21.0449 26019.5 -03448.8 -07.5504 26247.1
 04 06 2013  03 26  -21.0450 26019.6 -03448.8 -07.5503 26247.2
 04 06 2013  03 27  -21.0449 26019.7 -03448.9 -07.5504 26247.3
 04 06 2013  03 28  -21.0446 26019.8 -03448.8 -07.5503 26247.3
 04 06 2013  03 29  -21.0443 26019.8 -03448.8 -07.5502 26247.4
 04 06 2013  03 30  -21.0441 26019.8 -03448.7 -07.5501 26247.3
 04 06 2013  03 31  -21.0442 26019.7 -03448.7 -07.5500 26247.2
 04 06 2013  03 32  -21.0444 26019.5 -03448.6 -07.5498 26247.1
 04 06 2013  03 33  -21.0448 26019.5 -03448.5 -07.5497 26247.0
 04 06 2013  03 34  -21.0451 26019.4 -03448.5 -07.5496 26246.9
 04 06 2013  03 35  -21.0452 26019.3 -03448.4 -07.5494 26246.8
 04 06 2013  03 36  -21.0452 26019.2 -03448.3 -07.5493 26246.7
 04 06 2013  03 37  -21.0452 26019.0 -03448.2 -07.5492 26246.5
 04 06 2013  03 38  -21.0450 26018.9 -03448.1 -07.5490 26246.4
 04 06 2013  03 39  -21.0449 26018.9 -03448.1 -07.5490 26246.4
 04 06 2013  03 40  -21.0450 26018.9 -03448.1 -07.5490 26246.4
 04 06 2013  03 41  -21.0454 26018.9 -03448.1 -07.5491 26246.4
 04 06 2013  03 42  -21.0459 26018.8 -03448.2 -07.5492 26246.3
 04 06 2013  03 43  -21.0466 26018.7 -03448.1 -07.5491 26246.2
 04 06 2013  03 44  -21.0475 26018.7 -03448.1 -07.5491 26246.2
 04 06 2013  03 45  -21.0480 26018.7 -03448.1 -07.5490 26246.2
 04 06 2013  03 46  -21.0482 26018.8 -03448.1 -07.5490 26246.2
 04 06 2013  03 47  -21.0480 26019.0 -03448.1 -07.5490 26246.4
 04 06 2013  03 48  -21.0479 26019.1 -03448.1 -07.5490 26246.6
 04 06 2013  03 49  -21.0477 26019.0 -03448.0 -07.5489 26246.4
 04 06 2013  03 50  -21.0476 26018.9 -03448.0 -07.5488 26246.4
 04 06 2013  03 51  -21.0476 26018.7 -03447.9 -07.5486 26246.1
 04 06 2013  03 52  -21.0476 26018.3 -03447.7 -07.5483 26245.8
 04 06 2013  03 53  -21.0476 26018.0 -03447.5 -07.5480 26245.4
 04 06 2013  03 54  -21.0476 26017.7 -03447.4 -07.5479 26245.1
 04 06 2013  03 55  -21.0477 26017.5 -03447.4 -07.5478 26244.9
 04 06 2013  03 56  -21.0476 26017.4 -03447.3 -07.5477 26244.8
 04 06 2013  03 57  -21.0473 26017.2 -03447.2 -07.5476 26244.6
 04 06 2013  03 58  -21.0471 26017.1 -03447.2 -07.5475 26244.5
 04 06 2013  03 59  -21.0471 26016.9 -03447.2 -07.5475 26244.3
 04 06 2013  04 00  -21.0468 26016.8 -03447.1 -07.5475 26244.1
 04 06 2013  04 01  -21.0467 26016.7 -03447.1 -07.5475 26244.1
 04 06 2013  04 02  -21.0464 26016.7 -03447.2 -07.5476 26244.1
 04 06 2013  04 03  -21.0462 26016.6 -03447.2 -07.5476 26244.0
 04 06 2013  04 04  -21.0459 26016.5 -03447.1 -07.5476 26243.8
 04 06 2013  04 05  -21.0458 26016.2 -03447.1 -07.5476 26243.6
 04 06 2013  04 06  -21.0459 26016.1 -03447.1 -07.5476 26243.5
 04 06 2013  04 07  -21.0458 26016.0 -03447.1 -07.5476 26243.3
 04 06 2013  04 08  -21.0456 26015.8 -03447.1 -07.5476 26243.2
 04 06 2013  04 09  -21.0455 26015.8 -03447.1 -07.5477 26243.2
 04 06 2013  04 10  -21.0454 26015.7 -03447.1 -07.5477 26243.1
 04 06 2013  04 11  -21.0455 26015.7 -03447.2 -07.5479 26243.1
 04 06 2013  04 12  -21.0457 26015.8 -03447.3 -07.5480 26243.2
 04 06 2013  04 13  -21.0460 26015.8 -03447.3 -07.5482 26243.2
 04 06 2013  04 14  -21.0461 26015.8 -03447.3 -07.5482 26243.2
 04 06 2013  04 15  -21.0463 26015.7 -03447.3 -07.5481 26243.1
 04 06 2013  04 16  -21.0463 26015.7 -03447.3 -07.5482 26243.1
 04 06 2013  04 17  -21.0463 26015.9 -03447.4 -07.5483 26243.3
 04 06 2013  04 18  -21.0461 26016.1 -03447.5 -07.5484 26243.5
 04 06 2013  04 19  -21.0460 26016.2 -03447.5 -07.5486 26243.6
 04 06 2013  04 20  -21.0458 26016.2 -03447.5 -07.5486 26243.6
 04 06 2013  04 21  -21.0458 26016.2 -03447.6 -07.5486 26243.6
 04 06 2013  04 22  -21.0458 26016.0 -03447.5 -07.5485 26243.4
 04 06 2013  04 23  -21.0459 26015.8 -03447.4 -07.5483 26243.2
 04 06 2013  04 24  -21.0460 26015.5 -03447.2 -07.5480 26242.8
 04 06 2013  04 25  -21.0462 26015.3 -03447.1 -07.5479 26242.6
 04 06 2013  04 26  -21.0464 26015.2 -03447.1 -07.5479 26242.6
 04 06 2013  04 27  -21.0465 26015.2 -03447.1 -07.5480 26242.6
 04 06 2013  04 28  -21.0466 26015.3 -03447.2 -07.5481 26242.7
 04 06 2013  04 29  -21.0464 26015.4 -03447.2 -07.5481 26242.8
 04 06 2013  04 30  -21.0462 26015.4 -03447.3 -07.5482 26242.9
 04 06 2013  04 31  -21.0459 26015.5 -03447.3 -07.5483 26243.0
 04 06 2013  04 32  -21.0457 26015.7 -03447.4 -07.5483 26243.1
 04 06 2013  04 33  -21.0452 26015.9 -03447.5 -07.5485 26243.4
 04 06 2013  04 34  -21.0447 26016.0 -03447.6 -07.5487 26243.5
 04 06 2013  04 35  -21.0443 26016.0 -03447.5 -07.5486 26243.4
 04 06 2013  04 36  -21.0441 26015.9 -03447.5 -07.5485 26243.3
 04 06 2013  04 37  -21.0442 26015.7 -03447.4 -07.5484 26243.1
 04 06 2013  04 38  -21.0442 26015.5 -03447.3 -07.5483 26242.9
 04 06 2013  04 39  -21.0442 26015.3 -03447.2 -07.5482 26242.7
 04 06 2013  04 40  -21.0441 26015.0 -03447.1 -07.5480 26242.4
 04 06 2013  04 41  -21.0439 26014.9 -03447.1 -07.5479 26242.3
 04 06 2013  04 42  -21.0438 26014.8 -03447.1 -07.5479 26242.2
 04 06 2013  04 43  -21.0435 26015.0 -03447.1 -07.5480 26242.3
 04 06 2013  04 44  -21.0432 26015.1 -03447.2 -07.5481 26242.5
 04 06 2013  04 45  -21.0428 26015.2 -03447.3 -07.5483 26242.6
 04 06 2013  04 46  -21.0425 26015.2 -03447.3 -07.5484 26242.6
 04 06 2013  04 47  -21.0424 26015.3 -03447.4 -07.5485 26242.7
 04 06 2013  04 48  -21.0423 26015.3 -03447.5 -07.5486 26242.8
 04 06 2013  04 49  -21.0423 26015.5 -03447.6 -07.5488 26242.9
 04 06 2013  04 50  -21.0424 26015.5 -03447.6 -07.5490 26243.0
 04 06 2013  04 51  -21.0427 26015.5 -03447.6 -07.5489 26242.9
 04 06 2013  04 52  -21.0429 26015.4 -03447.6 -07.5489 26242.9
 04 06 2013  04 53  -21.0430 26015.4 -03447.6 -07.5489 26242.9
 04 06 2013  04 54  -21.0429 26015.4 -03447.5 -07.5488 26242.8
 04 06 2013  04 55  -21.0431 26015.3 -03447.5 -07.5488 26242.7
 04 06 2013  04 56  -21.0433 26015.2 -03447.5 -07.5487 26242.7
 04 06 2013  04 57  -21.0436 26015.2 -03447.5 -07.5487 26242.7
 04 06 2013  04 58  -21.0436 26015.3 -03447.5 -07.5487 26242.8
 04 06 2013  04 59  -21.0434 26015.6 -03447.6 -07.5489 26243.1
 04 06 2013  05 00  -21.0434 26015.8 -03447.7 -07.5490 26243.3
 04 06 2013  05 01  -21.0438 26015.7 -03447.7 -07.5490 26243.2
 04 06 2013  05 02  -21.0445 26015.5 -03447.6 -07.5489 26242.9
 04 06 2013  05 03  -21.0447 26015.6 -03447.6 -07.5489 26243.0
 04 06 2013  05 04  -21.0447 26015.8 -03447.7 -07.5490 26243.2
 04 06 2013  05 05  -21.0449 26015.9 -03447.7 -07.5491 26243.4
 04 06 2013  05 06  -21.0450 26016.2 -03447.8 -07.5492 26243.6
 04 06 2013  05 07  -21.0453 26016.3 -03447.9 -07.5493 26243.8
 04 06 2013  05 08  -21.0457 26016.3 -03447.9 -07.5492 26243.8
 04 06 2013  05 09  -21.0460 26016.4 -03447.9 -07.5492 26243.8
 04 06 2013  05 10  -21.0461 26016.4 -03447.9 -07.5492 26243.9
 04 06 2013  05 11  -21.0463 26016.4 -03447.8 -07.5490 26243.8
 04 06 2013  05 12  -21.0466 26016.4 -03447.8 -07.5490 26243.9
 04 06 2013  05 13  -21.0468 26016.5 -03447.8 -07.5490 26244.0
 04 06 2013  05 14  -21.0468 26016.8 -03447.9 -07.5491 26244.2
 04 06 2013  05 15  -21.0468 26017.2 -03448.0 -07.5494 26244.7
 04 06 2013  05 16  -21.0465 26017.7 -03448.2 -07.5496 26245.2
 04 06 2013  05 17  -21.0465 26018.1 -03448.4 -07.5499 26245.7
 04 06 2013  05 18  -21.0467 26018.2 -03448.4 -07.5499 26245.8
 04 06 2013  05 19  -21.0469 26018.2 -03448.4 -07.5498 26245.8
 04 06 2013  05 20  -21.0470 26018.2 -03448.3 -07.5496 26245.7
 04 06 2013  05 21  -21.0471 26018.2 -03448.2 -07.5494 26245.7
 04 06 2013  05 22  -21.0473 26018.1 -03448.1 -07.5493 26245.6
 04 06 2013  05 23  -21.0475 26017.9 -03448.0 -07.5491 26245.4
 04 06 2013  05 24  -21.0477 26017.7 -03447.8 -07.5488 26245.1
 04 06 2013  05 25  -21.0477 26017.3 -03447.5 -07.5483 26244.7
 04 06 2013  05 26  -21.0474 26017.0 -03447.3 -07.5479 26244.4
 04 06 2013  05 27  -21.0469 26016.8 -03447.2 -07.5476 26244.1
 04 06 2013  05 28  -21.0464 26016.5 -03447.1 -07.5474 26243.9
 04 06 2013  05 29  -21.0459 26016.5 -03447.0 -07.5474 26243.8
 04 06 2013  05 30  -21.0454 26016.5 -03447.1 -07.5475 26243.8
 04 06 2013  05 31  -21.0452 26016.6 -03447.2 -07.5476 26244.0
 04 06 2013  05 32  -21.0453 26016.9 -03447.4 -07.5480 26244.3
 04 06 2013  05 33  -21.0456 26017.1 -03447.6 -07.5483 26244.6
 04 06 2013  05 34  -21.0458 26017.5 -03447.8 -07.5487 26244.9
 04 06 2013  05 35  -21.0463 26017.8 -03447.9 -07.5490 26245.3
 04 06 2013  05 36  -21.0464 26018.2 -03448.1 -07.5493 26245.7
 04 06 2013  05 37  -21.0463 26018.9 -03448.4 -07.5496 26246.4
 04 06 2013  05 38  -21.0465 26019.3 -03448.6 -07.5500 26246.9
 04 06 2013  05 39  -21.0467 26019.6 -03448.7 -07.5501 26247.2
 04 06 2013  05 40  -21.0470 26019.8 -03448.8 -07.5502 26247.4
 04 06 2013  05 41  -21.0469 26020.1 -03448.8 -07.5502 26247.7
 04 06 2013  05 42  -21.0469 26020.3 -03448.8 -07.5502 26247.9
 04 06 2013  05 43  -21.0471 26020.4 -03448.8 -07.5502 26248.0
 04 06 2013  05 44  -21.0472 26020.6 -03448.8 -07.5501 26248.1
 04 06 2013  05 45  -21.0471 26020.7 -03448.9 -07.5501 26248.3
 04 06 2013  05 46  -21.0475 26021.0 -03449.0 -07.5502 26248.6
 04 06 2013  05 47  -21.0480 26021.1 -03449.0 -07.5502 26248.7
 04 06 2013  05 48  -21.0481 26021.4 -03449.0 -07.5503 26249.0
 04 06 2013  05 49  -21.0483 26021.6 -03449.1 -07.5503 26249.2
 04 06 2013  05 50  -21.0483 26021.6 -03449.0 -07.5502 26249.2
 04 06 2013  05 51  -21.0479 26021.4 -03448.8 -07.5498 26248.9
 04 06 2013  05 52  -21.0473 26021.3 -03448.6 -07.5494 26248.9
 04 06 2013  05 53  -21.0469 26021.2 -03448.6 -07.5493 26248.8
 04 06 2013  05 54  -21.0466 26021.0 -03448.4 -07.5490 26248.5
 04 06 2013  05 55  -21.0464 26020.6 -03448.2 -07.5486 26248.1
 04 06 2013  05 56  -21.0460 26020.4 -03448.0 -07.5484 26247.9
 04 06 2013  05 57  -21.0455 26020.3 -03447.9 -07.5482 26247.7
 04 06 2013  05 58  -21.0451 26020.1 -03447.8 -07.5480 26247.5
 04 06 2013  05 59  -21.0451 26019.9 -03447.8 -07.5480 26247.3
 04 06 2013  06 00  -21.0451 26019.7 -03447.7 -07.5480 26247.1
 04 06 2013  06 01  -21.0451 26019.6 -03447.7 -07.5480 26247.1
 04 06 2013  06 02  -21.0450 26019.8 -03447.8 -07.5482 26247.2
 04 06 2013  06 03  -21.0449 26019.8 -03447.9 -07.5483 26247.3
 04 06 2013  06 04  -21.0448 26020.0 -03447.9 -07.5483 26247.4
 04 06 2013  06 05  -21.0446 26019.9 -03447.9 -07.5483 26247.4
 04 06 2013  06 06  -21.0442 26019.7 -03447.8 -07.5482 26247.1
 04 06 2013  06 07  -21.0438 26019.4 -03447.6 -07.5479 26246.8
 04 06 2013  06 08  -21.0439 26019.2 -03447.6 -07.5477 26246.6
 04 06 2013  06 09  -21.0438 26019.2 -03447.6 -07.5477 26246.6
 04 06 2013  06 10  -21.0437 26019.4 -03447.7 -07.5479 26246.8
 04 06 2013  06 11  -21.0436 26019.5 -03447.8 -07.5481 26246.9
 04 06 2013  06 12  -21.0435 26019.4 -03447.7 -07.5481 26246.8
 04 06 2013  06 13  -21.0435 26019.5 -03447.8 -07.5481 26246.9
 04 06 2013  06 14  -21.0433 26019.4 -03447.7 -07.5481 26246.8
 04 06 2013  06 15  -21.0428 26019.5 -03447.7 -07.5480 26246.9
 04 06 2013  06 16  -21.0427 26019.5 -03447.8 -07.5482 26247.0
 04 06 2013  06 17  -21.0427 26019.6 -03447.8 -07.5482 26247.0
 04 06 2013  06 18  -21.0430 26019.5 -03447.8 -07.5482 26247.0
 04 06 2013  06 19  -21.0430 26019.6 -03447.8 -07.5482 26247.0
 04 06 2013  06 20  -21.0429 26019.5 -03447.8 -07.5481 26246.9
 04 06 2013  06 21  -21.0428 26019.5 -03447.8 -07.5481 26246.9
 04 06 2013  06 22  -21.0427 26019.4 -03447.7 -07.5481 26246.9
 04 06 2013  06 23  -21.0425 26019.4 -03447.7 -07.5480 26246.8
 04 06 2013  06 24  -21.0424 26019.4 -03447.7 -07.5479 26246.8
 04 06 2013  06 25  -21.0421 26019.3 -03447.6 -07.5479 26246.7
 04 06 2013  06 26  -21.0419 26019.2 -03447.6 -07.5479 26246.7
 04 06 2013  06 27  -21.0417 26019.3 -03447.6 -07.5479 26246.7
 04 06 2013  06 28  -21.0416 26019.4 -03447.7 -07.5480 26246.8
 04 06 2013  06 29  -21.0415 26019.4 -03447.7 -07.5481 26246.8
 04 06 2013  06 30  -21.0416 26019.4 -03447.7 -07.5481 26246.8
 04 06 2013  06 31  -21.0419 26019.3 -03447.7 -07.5480 26246.8
 04 06 2013  06 32  -21.0422 26019.4 -03447.7 -07.5480 26246.8
 04 06 2013  06 33  -21.0424 26019.5 -03447.7 -07.5481 26246.9
 04 06 2013  06 34  -21.0427 26019.4 -03447.8 -07.5481 26246.9
 04 06 2013  06 35  -21.0428 26019.3 -03447.6 -07.5479 26246.7
 04 06 2013  06 36  -21.0429 26019.3 -03447.6 -07.5477 26246.7
 04 06 2013  06 37  -21.0431 26019.2 -03447.5 -07.5476 26246.6
 04 06 2013  06 38  -21.0432 26019.1 -03447.4 -07.5475 26246.5
 04 06 2013  06 39  -21.0435 26019.0 -03447.4 -07.5475 26246.4
 04 06 2013  06 40  -21.0438 26019.0 -03447.4 -07.5474 26246.4
 04 06 2013  06 41  -21.0439 26019.1 -03447.4 -07.5475 26246.5
 04 06 2013  06 42  -21.0438 26019.2 -03447.4 -07.5474 26246.5
 04 06 2013  06 43  -21.0437 26019.1 -03447.4 -07.5473 26246.4
 04 06 2013  06 44  -21.0439 26019.0 -03447.3 -07.5473 26246.4
 04 06 2013  06 45  -21.0440 26018.9 -03447.3 -07.5472 26246.3
 04 06 2013  06 46  -21.0440 26019.0 -03447.3 -07.5472 26246.4
 04 06 2013  06 47  -21.0439 26019.1 -03447.3 -07.5472 26246.5
 04 06 2013  06 48  -21.0441 26019.1 -03447.3 -07.5473 26246.5
 04 06 2013  06 49  -21.0444 26019.2 -03447.4 -07.5474 26246.6
 04 06 2013  06 50  -21.0445 26019.1 -03447.3 -07.5473 26246.5
 04 06 2013  06 51  -21.0442 26019.0 -03447.2 -07.5471 26246.3
 04 06 2013  06 52  -21.0439 26018.9 -03447.1 -07.5469 26246.2
 04 06 2013  06 53  -21.0436 26018.7 -03447.0 -07.5468 26246.0
 04 06 2013  06 54  -21.0431 26018.7 -03447.0 -07.5468 26246.1
 04 06 2013  06 55  -21.0425 26018.6 -03447.0 -07.5467 26245.9
 04 06 2013  06 56  -21.0419 26018.6 -03447.0 -07.5467 26245.9
 04 06 2013  06 57  -21.0418 26018.7 -03447.1 -07.5470 26246.1
 04 06 2013  06 58  -21.0415 26018.7 -03447.2 -07.5470 26246.0
 04 06 2013  06 59  -21.0411 26018.7 -03447.2 -07.5471 26246.1
 04 06 2013  07 00  -21.0409 26018.8 -03447.3 -07.5472 26246.1
 04 06 2013  07 01  -21.0413 26018.8 -03447.3 -07.5474 26246.2
 04 06 2013  07 02  -21.0414 26018.5 -03447.3 -07.5473 26245.9
 04 06 2013  07 03  -21.0417 26018.2 -03447.1 -07.5471 26245.5
 04 06 2013  07 04  -21.0415 26018.0 -03447.0 -07.5469 26245.3
 04 06 2013  07 05  -21.0417 26017.8 -03446.9 -07.5467 26245.1
 04 06 2013  07 06  -21.0415 26017.9 -03446.9 -07.5467 26245.2
 04 06 2013  07 07  -21.0410 26018.1 -03447.0 -07.5468 26245.4
 04 06 2013  07 08  -21.0403 26018.5 -03447.2 -07.5471 26245.9
 04 06 2013  07 09  -21.0400 26018.7 -03447.4 -07.5475 26246.1
 04 06 2013  07 10  -21.0397 26018.6 -03447.4 -07.5476 26246.0
 04 06 2013  07 11  -21.0400 26018.3 -03447.3 -07.5474 26245.7
 04 06 2013  07 12  -21.0400 26018.0 -03447.1 -07.5471 26245.3
 04 06 2013  07 13  -21.0398 26017.9 -03447.1 -07.5470 26245.3
 04 06 2013  07 14  -21.0396 26017.8 -03447.0 -07.5469 26245.1
 04 06 2013  07 15  -21.0392 26017.7 -03447.0 -07.5469 26245.1
 04 06 2013  07 16  -21.0391 26017.5 -03446.9 -07.5468 26244.8
 04 06 2013  07 17  -21.0396 26017.2 -03446.8 -07.5467 26244.5
 04 06 2013  07 18  -21.0406 26016.9 -03446.8 -07.5467 26244.2
 04 06 2013  07 19  -21.0406 26017.2 -03446.8 -07.5468 26244.6
 04 06 2013  07 20  -21.0402 26017.4 -03447.0 -07.5470 26244.7
 04 06 2013  07 21  -21.0397 26017.6 -03447.1 -07.5472 26244.9
 04 06 2013  07 22  -21.0389 26017.2 -03447.0 -07.5470 26244.6
 04 06 2013  07 23  -21.0384 26016.8 -03446.7 -07.5466 26244.1
 04 06 2013  07 24  -21.0383 26016.4 -03446.6 -07.5464 26243.7
 04 06 2013  07 25  -21.0381 26016.1 -03446.5 -07.5463 26243.4
 04 06 2013  07 26  -21.0379 26015.8 -03446.4 -07.5462 26243.1
 04 06 2013  07 27  -21.0378 26015.7 -03446.4 -07.5462 26243.0
 04 06 2013  07 28  -21.0380 26015.8 -03446.5 -07.5465 26243.1
 04 06 2013  07 29  -21.0380 26015.8 -03446.6 -07.5466 26243.1
 04 06 2013  07 30  -21.0380 26015.6 -03446.5 -07.5465 26242.9
 04 06 2013  07 31  -21.0381 26015.8 -03446.7 -07.5468 26243.1
 04 06 2013  07 32  -21.0386 26016.0 -03446.8 -07.5471 26243.3
 04 06 2013  07 33  -21.0390 26016.3 -03447.1 -07.5475 26243.7
 04 06 2013  07 34  -21.0393 26016.6 -03447.3 -07.5478 26243.9
 04 06 2013  07 35  -21.0394 26016.6 -03447.3 -07.5479 26244.0
 04 06 2013  07 36  -21.0396 26016.6 -03447.2 -07.5478 26244.0
 04 06 2013  07 37  -21.0398 26016.5 -03447.2 -07.5477 26243.9
 04 06 2013  07 38  -21.0399 26016.5 -03447.1 -07.5476 26243.9
 04 06 2013  07 39  -21.0399 26016.7 -03447.2 -07.5477 26244.1
 04 06 2013  07 40  -21.0398 26016.7 -03447.2 -07.5478 26244.1
 04 06 2013  07 41  -21.0398 26016.6 -03447.1 -07.5476 26244.0
 04 06 2013  07 42  -21.0395 26016.7 -03447.2 -07.5477 26244.1
 04 06 2013  07 43  -21.0394 26016.9 -03447.3 -07.5478 26244.3
 04 06 2013  07 44  -21.0392 26017.1 -03447.4 -07.5480 26244.5
 04 06 2013  07 45  -21.0389 26017.2 -03447.4 -07.5479 26244.6
 04 06 2013  07 46  -21.0386 26017.3 -03447.4 -07.5480 26244.7
 04 06 2013  07 47  -21.0385 26017.6 -03447.6 -07.5482 26245.0
 04 06 2013  07 48  -21.0389 26017.8 -03447.7 -07.5485 26245.2
 04 06 2013  07 49  -21.0390 26017.9 -03447.7 -07.5484 26245.3
 04 06 2013  07 50  -21.0389 26017.8 -03447.6 -07.5483 26245.2
 04 06 2013  07 51  -21.0391 26017.9 -03447.7 -07.5483 26245.4
 04 06 2013  07 52  -21.0393 26018.0 -03447.7 -07.5484 26245.4
 04 06 2013  07 53  -21.0393 26017.8 -03447.6 -07.5482 26245.2
 04 06 2013  07 54  -21.0391 26017.5 -03447.4 -07.5479 26244.9
 04 06 2013  07 55  -21.0389 26017.3 -03447.3 -07.5478 26244.7
 04 06 2013  07 56  -21.0391 26017.2 -03447.3 -07.5477 26244.6
 04 06 2013  07 57  -21.0392 26017.1 -03447.2 -07.5476 26244.5
 04 06 2013  07 58  -21.0393 26017.0 -03447.2 -07.5476 26244.4
 04 06 2013  07 59  -21.0397 26016.9 -03447.1 -07.5475 26244.3
 04 06 2013  08 00  -21.0400 26016.8 -03447.1 -07.5474 26244.2
 04 06 2013  08 01  -21.0406 26016.8 -03447.1 -07.5474 26244.2
 04 06 2013  08 02  -21.0413 26016.7 -03447.1 -07.5474 26244.1
 04 06 2013  08 03  -21.0416 26016.5 -03447.0 -07.5473 26243.9
 04 06 2013  08 04  -21.0413 26016.4 -03446.8 -07.5470 26243.7
 04 06 2013  08 05  -21.0407 26016.4 -03446.8 -07.5469 26243.8
 04 06 2013  08 06  -21.0401 26016.5 -03446.8 -07.5469 26243.8
 04 06 2013  08 07  -21.0394 26016.6 -03446.9 -07.5471 26244.0
 04 06 2013  08 08  -21.0386 26016.6 -03447.0 -07.5472 26244.0
 04 06 2013  08 09  -21.0381 26016.6 -03447.0 -07.5473 26244.0
 04 06 2013  08 10  -21.0375 26016.7 -03447.1 -07.5474 26244.0
 04 06 2013  08 11  -21.0370 26016.7 -03447.1 -07.5476 26244.1
 04 06 2013  08 12  -21.0371 26016.7 -03447.2 -07.5477 26244.1
 04 06 2013  08 13  -21.0372 26016.8 -03447.3 -07.5479 26244.2
 04 06 2013  08 14  -21.0368 26016.8 -03447.3 -07.5480 26244.2
 04 06 2013  08 15  -21.0368 26016.8 -03447.4 -07.5481 26244.2
 04 06 2013  08 16  -21.0367 26016.8 -03447.4 -07.5481 26244.2
 04 06 2013  08 17  -21.0367 26017.0 -03447.5 -07.5483 26244.4
 04 06 2013  08 18  -21.0366 26016.9 -03447.5 -07.5483 26244.4
 04 06 2013  08 19  -21.0367 26017.1 -03447.5 -07.5483 26244.5
 04 06 2013  08 20  -21.0365 26017.0 -03447.5 -07.5483 26244.4
 04 06 2013  08 21  -21.0367 26017.0 -03447.6 -07.5484 26244.4
 04 06 2013  08 22  -21.0369 26017.0 -03447.6 -07.5484 26244.4
 04 06 2013  08 23  -21.0372 26017.1 -03447.6 -07.5485 26244.5
 04 06 2013  08 24  -21.0374 26017.3 -03447.7 -07.5487 26244.8
 04 06 2013  08 25  -21.0374 26017.4 -03447.7 -07.5486 26244.8
 04 06 2013  08 26  -21.0372 26017.6 -03447.8 -07.5486 26245.0
 04 06 2013  08 27  -21.0369 26017.7 -03447.7 -07.5486 26245.1
 04 06 2013  08 28  -21.0367 26017.6 -03447.6 -07.5484 26245.0
 04 06 2013  08 29  -21.0365 26017.4 -03447.5 -07.5481 26244.8
 04 06 2013  08 30  -21.0362 26017.2 -03447.3 -07.5478 26244.6
 04 06 2013  08 31  -21.0359 26017.1 -03447.2 -07.5476 26244.4
 04 06 2013  08 32  -21.0355 26017.0 -03447.2 -07.5475 26244.4
 04 06 2013  08 33  -21.0354 26017.1 -03447.2 -07.5476 26244.5
 04 06 2013  08 34  -21.0351 26017.1 -03447.2 -07.5476 26244.5
 04 06 2013  08 35  -21.0350 26017.2 -03447.2 -07.5476 26244.5
 04 06 2013  08 36  -21.0350 26017.2 -03447.2 -07.5476 26244.6
 04 06 2013  08 37  -21.0348 26017.2 -03447.1 -07.5474 26244.5
 04 06 2013  08 38  -21.0348 26017.2 -03447.1 -07.5473 26244.6
 04 06 2013  08 39  -21.0351 26017.3 -03447.1 -07.5473 26244.7
 04 06 2013  08 40  -21.0352 26017.2 -03447.0 -07.5472 26244.5
 04 06 2013  08 41  -21.0352 26017.1 -03447.0 -07.5471 26244.5
 04 06 2013  08 42  -21.0351 26017.3 -03447.0 -07.5470 26244.7
 04 06 2013  08 43  -21.0349 26017.5 -03446.9 -07.5468 26244.8
 04 06 2013  08 44  -21.0348 26017.5 -03446.9 -07.5468 26244.8
 04 06 2013  08 45  -21.0348 26017.5 -03446.9 -07.5468 26244.9
 04 06 2013  08 46  -21.0349 26017.6 -03446.8 -07.5466 26244.9
 04 06 2013  08 47  -21.0346 26017.7 -03446.7 -07.5463 26245.0
 04 06 2013  08 48  -21.0342 26017.7 -03446.6 -07.5462 26245.0
 04 06 2013  08 49  -21.0337 26017.5 -03446.5 -07.5460 26244.8
 04 06 2013  08 50  -21.0333 26017.5 -03446.4 -07.5458 26244.8
 04 06 2013  08 51  -21.0325 26017.7 -03446.4 -07.5456 26244.9
 04 06 2013  08 52  -21.0319 26017.7 -03446.3 -07.5455 26244.9
 04 06 2013  08 53  -21.0316 26017.7 -03446.2 -07.5452 26244.9
 04 06 2013  08 54  -21.0309 26017.7 -03446.1 -07.5450 26244.9
 04 06 2013  08 55  -21.0302 26017.7 -03446.2 -07.5451 26244.9
 04 06 2013  08 56  -21.0301 26017.6 -03446.2 -07.5452 26244.9
 04 06 2013  08 57  -21.0292 26017.6 -03446.1 -07.5451 26244.8
 04 06 2013  08 58  -21.0283 26017.8 -03446.2 -07.5452 26245.1
 04 06 2013  08 59  -21.0272 26017.9 -03446.1 -07.5450 26245.1
 04 06 2013  09 00  -21.0264 26017.9 -03446.1 -07.5450 26245.1
 04 06 2013  09 01  -21.0261 26017.9 -03446.1 -07.5450 26245.1
 04 06 2013  09 02  -21.0263 26018.0 -03446.2 -07.5452 26245.2
 04 06 2013  09 03  -21.0262 26018.0 -03446.4 -07.5455 26245.3
 04 06 2013  09 04  -21.0254 26018.0 -03446.4 -07.5455 26245.2
 04 06 2013  09 05  -21.0247 26017.8 -03446.4 -07.5457 26245.1
 04 06 2013  09 06  -21.0245 26018.2 -03446.7 -07.5462 26245.5
 04 06 2013  09 07  -21.0251 26018.6 -03447.0 -07.5467 26245.9
 04 06 2013  09 08  -21.0254 26018.8 -03447.1 -07.5470 26246.1
 04 06 2013  09 09  -21.0238 26018.8 -03447.0 -07.5467 26246.1
 04 06 2013  09 10  -21.0216 26018.7 -03446.8 -07.5462 26246.0
 04 06 2013  09 11  -21.0214 26018.7 -03446.8 -07.5463 26246.0
 04 06 2013  09 12  -21.0220 26018.7 -03447.0 -07.5467 26246.0
 04 06 2013  09 13  -21.0223 26018.6 -03447.2 -07.5471 26246.0
 04 06 2013  09 14  -21.0226 26018.6 -03447.3 -07.5473 26246.0
 04 06 2013  09 15  -21.0227 26018.7 -03447.5 -07.5477 26246.1
 04 06 2013  09 16  -21.0228 26018.9 -03447.6 -07.5480 26246.3
 04 06 2013  09 17  -21.0225 26019.2 -03447.8 -07.5482 26246.6
 04 06 2013  09 18  -21.0223 26019.5 -03447.9 -07.5484 26247.0
 04 06 2013  09 19  -21.0218 26019.6 -03447.9 -07.5483 26247.0
 04 06 2013  09 20  -21.0211 26019.7 -03447.9 -07.5482 26247.2
 04 06 2013  09 21  -21.0205 26019.9 -03447.8 -07.5482 26247.3
 04 06 2013  09 22  -21.0205 26020.0 -03447.9 -07.5482 26247.4
 04 06 2013  09 23  -21.0211 26020.0 -03448.0 -07.5485 26247.4
 04 06 2013  09 24  -21.0207 26020.0 -03448.1 -07.5487 26247.5
 04 06 2013  09 25  -21.0199 26020.2 -03448.1 -07.5487 26247.6
 04 06 2013  09 26  -21.0198 26020.4 -03448.3 -07.5489 26247.9
 04 06 2013  09 27  -21.0197 26020.3 -03448.2 -07.5488 26247.8
 04 06 2013  09 28  -21.0196 26020.3 -03448.2 -07.5488 26247.8
 04 06 2013  09 29  -21.0189 26020.3 -03448.2 -07.5488 26247.8
 04 06 2013  09 30  -21.0177 26020.4 -03448.2 -07.5488 26247.9
 04 06 2013  09 31  -21.0173 26020.4 -03448.3 -07.5489 26247.9
 04 06 2013  09 32  -21.0175 26020.4 -03448.3 -07.5491 26247.9
 04 06 2013  09 33  -21.0178 26020.2 -03448.3 -07.5490 26247.7
 04 06 2013  09 34  -21.0182 26019.9 -03448.2 -07.5489 26247.4
 04 06 2013  09 35  -21.0178 26019.8 -03448.2 -07.5489 26247.3
 04 06 2013  09 36  -21.0172 26020.0 -03448.3 -07.5491 26247.5
 04 06 2013  09 37  -21.0175 26020.0 -03448.3 -07.5492 26247.5
 04 06 2013  09 38  -21.0171 26020.1 -03448.4 -07.5494 26247.6
 04 06 2013  09 39  -21.0173 26020.1 -03448.4 -07.5494 26247.6
 04 06 2013  09 40  -21.0171 26020.2 -03448.5 -07.5496 26247.7
 04 06 2013  09 41  -21.0170 26020.3 -03448.6 -07.5497 26247.9
 04 06 2013  09 42  -21.0173 26020.3 -03448.6 -07.5497 26247.8
 04 06 2013  09 43  -21.0160 26020.4 -03448.6 -07.5497 26248.0
 04 06 2013  09 44  -21.0150 26020.3 -03448.5 -07.5495 26247.8
 04 06 2013  09 45  -21.0144 26020.3 -03448.5 -07.5495 26247.8
 04 06 2013  09 46  -21.0136 26020.4 -03448.5 -07.5494 26247.9
 04 06 2013  09 47  -21.0135 26020.4 -03448.6 -07.5495 26248.0
 04 06 2013  09 48  -21.0131 26020.7 -03448.6 -07.5496 26248.2
 04 06 2013  09 49  -21.0135 26020.9 -03448.7 -07.5497 26248.4
 04 06 2013  09 50  -21.0141 26021.1 -03448.9 -07.5500 26248.7
 04 06 2013  09 51  -21.0151 26021.4 -03449.1 -07.5504 26249.0
 04 06 2013  09 52  -21.0153 26021.5 -03449.2 -07.5506 26249.1
 04 06 2013  09 53  -21.0149 26022.1 -03449.3 -07.5508 26249.7
 04 06 2013  09 54  -21.0141 26022.7 -03449.4 -07.5508 26250.3
 04 06 2013  09 55  -21.0139 26023.1 -03449.5 -07.5508 26250.8
 04 06 2013  09 56  -21.0140 26023.2 -03449.4 -07.5506 26250.9
 04 06 2013  09 57  -21.0143 26023.3 -03449.3 -07.5503 26250.9
 04 06 2013  09 58  -21.0150 26023.4 -03449.2 -07.5501 26251.0
 04 06 2013  09 59  -21.0155 26023.5 -03449.2 -07.5501 26251.1
 04 06 2013  10 00  -21.0162 26023.7 -03449.3 -07.5502 26251.3
 04 06 2013  10 01  -21.0167 26023.9 -03449.4 -07.5503 26251.5
 04 06 2013  10 02  -21.0165 26024.3 -03449.5 -07.5504 26251.9
 04 06 2013  10 03  -21.0166 26024.6 -03449.5 -07.5503 26252.3
 04 06 2013  10 04  -21.0170 26024.8 -03449.5 -07.5502 26252.4
 04 06 2013  10 05  -21.0170 26025.0 -03449.4 -07.5500 26252.6
 04 06 2013  10 06  -21.0174 26025.1 -03449.3 -07.5498 26252.6
 04 06 2013  10 07  -21.0177 26025.3 -03449.3 -07.5498 26252.9
 04 06 2013  10 08  -21.0181 26025.5 -03449.4 -07.5498 26253.1
 04 06 2013  10 09  -21.0186 26025.6 -03449.3 -07.5497 26253.2
 04 06 2013  10 10  -21.0190 26025.9 -03449.4 -07.5498 26253.5
 04 06 2013  10 11  -21.0193 26026.2 -03449.5 -07.5499 26253.8
 04 06 2013  10 12  -21.0196 26026.7 -03449.6 -07.5501 26254.4
 04 06 2013  10 13  -21.0196 26027.0 -03449.6 -07.5500 26254.7
 04 06 2013  10 14  -21.0194 26027.2 -03449.6 -07.5498 26254.8
 04 06 2013  10 15  -21.0193 26027.3 -03449.5 -07.5496 26254.9
 04 06 2013  10 16  -21.0193 26027.3 -03449.4 -07.5495 26254.9
 04 06 2013  10 17  -21.0193 26027.5 -03449.4 -07.5493 26255.0
 04 06 2013  10 18  -21.0198 26027.5 -03449.3 -07.5491 26255.1
 04 06 2013  10 19  -21.0209 26027.4 -03449.2 -07.5490 26255.0
 04 06 2013  10 20  -21.0219 26027.3 -03449.2 -07.5489 26254.8
 04 06 2013  10 21  -21.0222 26027.3 -03449.1 -07.5488 26254.9
 04 06 2013  10 22  -21.0224 26027.4 -03449.1 -07.5487 26254.9
 04 06 2013  10 23  -21.0222 26027.5 -03449.1 -07.5487 26255.0
 04 06 2013  10 24  -21.0231 26027.5 -03449.0 -07.5485 26255.0
 04 06 2013  10 25  -21.0241 26027.6 -03449.0 -07.5485 26255.1
 04 06 2013  10 26  -21.0246 26027.5 -03448.8 -07.5481 26255.0
 04 06 2013  10 27  -21.0250 26027.4 -03448.7 -07.5479 26254.9
 04 06 2013  10 28  -21.0251 26027.5 -03448.6 -07.5476 26255.0
 04 06 2013  10 29  -21.0245 26027.4 -03448.5 -07.5473 26254.9
 04 06 2013  10 30  -21.0248 26027.2 -03448.3 -07.5470 26254.6
 04 06 2013  10 31  -21.0252 26027.0 -03448.2 -07.5468 26254.4
 04 06 2013  10 32  -21.0259 26026.8 -03448.0 -07.5465 26254.2
 04 06 2013  10 33  -21.0262 26026.5 -03447.8 -07.5462 26253.9
 04 06 2013  10 34  -21.0261 26026.7 -03447.8 -07.5461 26254.1
 04 06 2013  10 35  -21.0259 26026.9 -03447.7 -07.5459 26254.2
 04 06 2013  10 36  -21.0259 26027.0 -03447.7 -07.5457 26254.3
 04 06 2013  10 37  -21.0260 26027.3 -03447.7 -07.5457 26254.7
 04 06 2013  10 38  -21.0260 26027.5 -03447.7 -07.5456 26254.9
 04 06 2013  10 39  -21.0262 26027.7 -03447.6 -07.5454 26255.0
 04 06 2013  10 40  -21.0265 26027.8 -03447.6 -07.5453 26255.2
 04 06 2013  10 41  -21.0269 26028.0 -03447.5 -07.5451 26255.3
 04 06 2013  10 42  -21.0269 26028.3 -03447.5 -07.5449 26255.6
 04 06 2013  10 43  -21.0268 26028.4 -03447.4 -07.5447 26255.7
 04 06 2013  10 44  -21.0273 26028.4 -03447.2 -07.5444 26255.7
 04 06 2013  10 45  -21.0279 26028.7 -03447.2 -07.5443 26256.0
 04 06 2013  10 46  -21.0283 26029.0 -03447.1 -07.5440 26256.2
 04 06 2013  10 47  -21.0282 26029.1 -03447.0 -07.5437 26256.3
 04 06 2013  10 48  -21.0283 26029.2 -03446.9 -07.5434 26256.5
 04 06 2013  10 49  -21.0288 26029.5 -03446.8 -07.5432 26256.7
 04 06 2013  10 50  -21.0295 26029.7 -03446.8 -07.5431 26257.0
 04 06 2013  10 51  -21.0292 26030.0 -03446.7 -07.5428 26257.2
 04 06 2013  10 52  -21.0286 26030.1 -03446.6 -07.5425 26257.3
 04 06 2013  10 53  -21.0290 26030.2 -03446.5 -07.5422 26257.4
 04 06 2013  10 54  -21.0294 26030.4 -03446.4 -07.5421 26257.5
 04 06 2013  10 55  -21.0295 26030.4 -03446.3 -07.5418 26257.6
 04 06 2013  10 56  -21.0297 26030.5 -03446.2 -07.5416 26257.6
 04 06 2013  10 57  -21.0302 26030.6 -03446.2 -07.5415 26257.7
 04 06 2013  10 58  -21.0302 26030.6 -03446.1 -07.5414 26257.7
 04 06 2013  10 59  -21.0302 26030.4 -03446.0 -07.5411 26257.5
 04 06 2013  11 00  -21.0302 26030.0 -03445.7 -07.5407 26257.1
 04 06 2013  11 01  -21.0300 26030.4 -03445.8 -07.5406 26257.4
 04 06 2013  11 02  -21.0298 26030.9 -03445.9 -07.5408 26258.0
 04 06 2013  11 03  -21.0298 26031.3 -03446.0 -07.5408 26258.4
 04 06 2013  11 04  -21.0300 26031.3 -03445.8 -07.5404 26258.3
 04 06 2013  11 05  -21.0305 26031.1 -03445.5 -07.5400 26258.1
 04 06 2013  11 06  -21.0313 26030.8 -03445.3 -07.5396 26257.8
 04 06 2013  11 07  -21.0318 26031.0 -03445.3 -07.5394 26258.0
 04 06 2013  11 08  -21.0318 26031.5 -03445.3 -07.5393 26258.5
 04 06 2013  11 09  -21.0330 26031.8 -03445.3 -07.5393 26258.8
 04 06 2013  11 10  -21.0336 26032.4 -03445.4 -07.5392 26259.4
 04 06 2013  11 11  -21.0343 26032.5 -03445.2 -07.5389 26259.5
 04 06 2013  11 12  -21.0349 26032.8 -03445.1 -07.5386 26259.7
 04 06 2013  11 13  -21.0347 26033.0 -03444.9 -07.5381 26259.9
 04 06 2013  11 14  -21.0342 26033.4 -03444.8 -07.5378 26260.3
 04 06 2013  11 15  -21.0342 26033.8 -03444.8 -07.5375 26260.7
 04 06 2013  11 16  -21.0339 26034.1 -03444.7 -07.5372 26261.0
 04 06 2013  11 17  -21.0350 26034.2 -03444.5 -07.5369 26261.1
 04 06 2013  11 18  -21.0367 26034.0 -03444.3 -07.5365 26260.9
 04 06 2013  11 19  -21.0377 26033.7 -03444.1 -07.5360 26260.5
 04 06 2013  11 20  -21.0387 26033.5 -03443.8 -07.5355 26260.3
 04 06 2013  11 21  -21.0388 26034.0 -03443.9 -07.5355 26260.8
 04 06 2013  11 22  -21.0387 26035.2 -03444.0 -07.5355 26262.0
 04 06 2013  11 23  -21.0377 26036.4 -03444.2 -07.5355 26263.2
 04 06 2013  11 24  -21.0378 26036.3 -03443.8 -07.5347 26263.1
 04 06 2013  11 25  -21.0383 26036.4 -03443.5 -07.5341 26263.1
 04 06 2013  11 26  -21.0392 26036.7 -03443.4 -07.5337 26263.4
 04 06 2013  11 27  -21.0409 26036.4 -03443.1 -07.5331 26263.0
 04 06 2013  11 28  -21.0425 26036.1 -03442.8 -07.5325 26262.7
 04 06 2013  11 29  -21.0433 26035.8 -03442.4 -07.5318 26262.4
 04 06 2013  11 30  -21.0433 26035.9 -03442.1 -07.5312 26262.5
 04 06 2013  11 31  -21.0433 26036.3 -03442.0 -07.5308 26262.8
 04 06 2013  11 32  -21.0436 26036.1 -03441.6 -07.5301 26262.6
 04 06 2013  11 33  -21.0436 26036.6 -03441.6 -07.5298 26263.1
 04 06 2013  11 34  -21.0436 26037.3 -03441.5 -07.5295 26263.8
 04 06 2013  11 35  -21.0440 26037.8 -03441.4 -07.5291 26264.2
 04 06 2013  11 36  -21.0441 26038.4 -03441.2 -07.5286 26264.8
 04 06 2013  11 37  -21.0444 26038.6 -03441.0 -07.5279 26265.0
 04 06 2013  11 38  -21.0449 26038.7 -03440.7 -07.5273 26265.1
 04 06 2013  11 39  -21.0452 26039.3 -03440.6 -07.5269 26265.7
 04 06 2013  11 40  -21.0447 26039.4 -03440.3 -07.5262 26265.7
 04 06 2013  11 41  -21.0439 26039.7 -03440.0 -07.5255 26265.9
 04 06 2013  11 42  -21.0437 26039.7 -03439.7 -07.5248 26265.9
 04 06 2013  11 43  -21.0444 26039.4 -03439.2 -07.5240 26265.5
 04 06 2013  11 44  -21.0453 26039.5 -03439.1 -07.5236 26265.7
 04 06 2013  11 45  -21.0452 26040.0 -03439.0 -07.5232 26266.1
 04 06 2013  11 46  -21.0452 26040.2 -03438.8 -07.5227 26266.2
 04 06 2013  11 47  -21.0456 26040.2 -03438.4 -07.5220 26266.2
 04 06 2013  11 48  -21.0460 26040.1 -03438.2 -07.5215 26266.1
 04 06 2013  11 49  -21.0461 26040.2 -03438.0 -07.5210 26266.2
 04 06 2013  11 50  -21.0464 26040.4 -03437.8 -07.5206 26266.4
 04 06 2013  11 51  -21.0469 26040.4 -03437.6 -07.5201 26266.3
 04 06 2013  11 52  -21.0465 26040.6 -03437.4 -07.5197 26266.5
 04 06 2013  11 53  -21.0461 26040.6 -03437.1 -07.5190 26266.5
 04 06 2013  11 54  -21.0462 26040.8 -03436.9 -07.5186 26266.6
 04 06 2013  11 55  -21.0461 26040.7 -03436.6 -07.5179 26266.5
 04 06 2013  11 56  -21.0461 26040.9 -03436.5 -07.5175 26266.7
 04 06 2013  11 57  -21.0457 26041.7 -03436.5 -07.5174 26267.4
 04 06 2013  11 58  -21.0452 26041.7 -03436.1 -07.5166 26267.4
 04 06 2013  11 59  -21.0455 26041.8 -03435.9 -07.5161 26267.5
 04 06 2013  12 00  -21.0462 26042.3 -03435.9 -07.5159 26268.0
 04 06 2013  12 01  -21.0465 26042.3 -03435.6 -07.5154 26268.0
 04 06 2013  12 02  -21.0469 26041.7 -03435.1 -07.5143 26267.3
 04 06 2013  12 03  -21.0473 26041.6 -03434.9 -07.5140 26267.2
 04 06 2013  12 04  -21.0481 26041.6 -03434.8 -07.5136 26267.1
 04 06 2013  12 05  -21.0485 26042.2 -03434.8 -07.5136 26267.7
 04 06 2013  12 06  -21.0483 26043.0 -03434.8 -07.5134 26268.5
 04 06 2013  12 07  -21.0479 26044.1 -03435.0 -07.5134 26269.6
 04 06 2013  12 08  -21.0484 26044.6 -03434.9 -07.5131 26270.1
 04 06 2013  12 09  -21.0485 26044.6 -03434.6 -07.5125 26270.1
 04 06 2013  12 10  -21.0489 26044.3 -03434.2 -07.5116 26269.7
 04 06 2013  12 11  -21.0483 26043.8 -03433.6 -07.5106 26269.2
 04 06 2013  12 12  -21.0477 26043.4 -03433.4 -07.5102 26268.8
 04 06 2013  12 13  -21.0471 26043.4 -03433.3 -07.5100 26268.8
 04 06 2013  12 14  -21.0462 26044.5 -03433.6 -07.5104 26269.9
 04 06 2013  12 15  -21.0461 26045.5 -03433.9 -07.5107 26270.9
 04 06 2013  12 16  -21.0458 26046.3 -03434.0 -07.5107 26271.7
 04 06 2013  12 17  -21.0460 26046.5 -03433.9 -07.5104 26271.9
 04 06 2013  12 18  -21.0470 26046.6 -03433.7 -07.5100 26271.9
 04 06 2013  12 19  -21.0474 26047.1 -03433.7 -07.5099 26272.4
 04 06 2013  12 20  -21.0476 26047.3 -03433.6 -07.5096 26272.6
 04 06 2013  12 21  -21.0481 26047.4 -03433.5 -07.5093 26272.8
 04 06 2013  12 22  -21.0482 26047.9 -03433.5 -07.5091 26273.2
 04 06 2013  12 23  -21.0481 26048.0 -03433.4 -07.5088 26273.3
 04 06 2013  12 24  -21.0484 26048.3 -03433.3 -07.5085 26273.5
 04 06 2013  12 25  -21.0490 26048.7 -03433.2 -07.5083 26274.0
 04 06 2013  12 26  -21.0490 26049.3 -03433.2 -07.5081 26274.6
 04 06 2013  12 27  -21.0490 26049.3 -03433.0 -07.5077 26274.5
 04 06 2013  12 28  -21.0492 26049.2 -03432.8 -07.5073 26274.4
 04 06 2013  12 29  -21.0496 26049.1 -03432.6 -07.5068 26274.3
 04 06 2013  12 30  -21.0498 26049.6 -03432.6 -07.5067 26274.8
 04 06 2013  12 31  -21.0501 26050.0 -03432.6 -07.5066 26275.2
 04 06 2013  12 32  -21.0504 26050.6 -03432.7 -07.5065 26275.8
 04 06 2013  12 33  -21.0507 26050.6 -03432.5 -07.5061 26275.7
 04 06 2013  12 34  -21.0509 26050.4 -03432.2 -07.5057 26275.5
 04 06 2013  12 35  -21.0505 26050.4 -03432.1 -07.5054 26275.5
 04 06 2013  12 36  -21.0500 26050.6 -03432.1 -07.5053 26275.7
 04 06 2013  12 37  -21.0494 26050.2 -03431.9 -07.5050 26275.3
 04 06 2013  12 38  -21.0492 26050.0 -03431.9 -07.5050 26275.1
 04 06 2013  12 39  -21.0489 26050.1 -03431.9 -07.5051 26275.2
 04 06 2013  12 40  -21.0492 26050.1 -03432.0 -07.5053 26275.2
 04 06 2013  12 41  -21.0496 26049.9 -03432.0 -07.5053 26275.0
 04 06 2013  12 42  -21.0494 26050.0 -03432.1 -07.5054 26275.1
 04 06 2013  12 43  -21.0493 26050.6 -03432.3 -07.5057 26275.7
 04 06 2013  12 44  -21.0493 26051.1 -03432.5 -07.5061 26276.3
 04 06 2013  12 45  -21.0493 26051.6 -03432.7 -07.5064 26276.8
 04 06 2013  12 46  -21.0500 26051.6 -03432.7 -07.5063 26276.8
 04 06 2013  12 47  -21.0501 26051.4 -03432.5 -07.5061 26276.5
 04 06 2013  12 48  -21.0508 26051.5 -03432.6 -07.5062 26276.7
 04 06 2013  12 49  -21.0507 26051.3 -03432.5 -07.5060 26276.5
 04 06 2013  12 50  -21.0505 26051.5 -03432.6 -07.5061 26276.7
 04 06 2013  12 51  -21.0505 26051.9 -03432.8 -07.5064 26277.1
 04 06 2013  12 52  -21.0504 26052.3 -03432.9 -07.5067 26277.5
 04 06 2013  12 53  -21.0501 26052.5 -03433.0 -07.5067 26277.7
 04 06 2013  12 54  -21.0504 26052.9 -03433.1 -07.5069 26278.1
 04 06 2013  12 55  -21.0502 26053.5 -03433.3 -07.5071 26278.8
 04 06 2013  12 56  -21.0504 26053.5 -03433.3 -07.5070 26278.8
 04 06 2013  12 57  -21.0502 26053.6 -03433.3 -07.5070 26278.8
 04 06 2013  12 58  -21.0502 26053.5 -03433.2 -07.5069 26278.7
 04 06 2013  12 59  -21.0497 26053.6 -03433.3 -07.5070 26278.9
 04 06 2013  13 00  -21.0497 26053.7 -03433.3 -07.5071 26279.0
 04 06 2013  13 01  -21.0498 26053.8 -03433.4 -07.5073 26279.0
 04 06 2013  13 02  -21.0500 26053.8 -03433.6 -07.5076 26279.1
 04 06 2013  13 03  -21.0502 26054.1 -03433.8 -07.5079 26279.4
 04 06 2013  13 04  -21.0506 26054.3 -03433.9 -07.5082 26279.6
 04 06 2013  13 05  -21.0505 26054.3 -03433.9 -07.5082 26279.6
 04 06 2013  13 06  -21.0505 26054.6 -03434.1 -07.5085 26279.9
 04 06 2013  13 07  -21.0509 26055.2 -03434.3 -07.5088 26280.6
 04 06 2013  13 08  -21.0516 26055.6 -03434.5 -07.5090 26281.0
 04 06 2013  13 09  -21.0524 26056.0 -03434.5 -07.5090 26281.4
 04 06 2013  13 10  -21.0529 26056.4 -03434.5 -07.5089 26281.7
 04 06 2013  13 11  -21.0529 26056.5 -03434.3 -07.5085 26281.8
 04 06 2013  13 12  -21.0526 26056.4 -03434.1 -07.5081 26281.7
 04 06 2013  13 13  -21.0526 26056.6 -03434.1 -07.5080 26281.9
 04 06 2013  13 14  -21.0531 26056.9 -03434.2 -07.5080 26282.2
 04 06 2013  13 15  -21.0536 26057.0 -03434.1 -07.5078 26282.4
 04 06 2013  13 16  -21.0539 26056.9 -03433.9 -07.5074 26282.2
 04 06 2013  13 17  -21.0544 26056.5 -03433.6 -07.5069 26281.8
 04 06 2013  13 18  -21.0551 26056.1 -03433.4 -07.5065 26281.3
 04 06 2013  13 19  -21.0562 26055.9 -03433.3 -07.5064 26281.1
 04 06 2013  13 20  -21.0567 26055.3 -03433.0 -07.5060 26280.5
 04 06 2013  13 21  -21.0562 26054.5 -03432.7 -07.5056 26279.7
 04 06 2013  13 22  -21.0555 26054.0 -03432.6 -07.5055 26279.2
 04 06 2013  13 23  -21.0554 26053.5 -03432.6 -07.5056 26278.7
 04 06 2013  13 24  -21.0553 26053.5 -03432.8 -07.5060 26278.7
 04 06 2013  13 25  -21.0551 26053.1 -03432.8 -07.5062 26278.3
 04 06 2013  13 26  -21.0546 26053.8 -03433.2 -07.5069 26279.0
 04 06 2013  13 27  -21.0543 26054.4 -03433.6 -07.5074 26279.6
 04 06 2013  13 28  -21.0546 26055.0 -03433.8 -07.5077 26280.3
 04 06 2013  13 29  -21.0545 26055.7 -03433.9 -07.5078 26281.0
 04 06 2013  13 30  -21.0551 26055.5 -03433.8 -07.5075 26280.7
 04 06 2013  13 31  -21.0560 26055.4 -03433.6 -07.5072 26280.6
 04 06 2013  13 32  -21.0553 26056.0 -03433.6 -07.5070 26281.3
 04 06 2013  13 33  -21.0552 26056.4 -03433.6 -07.5070 26281.6
 04 06 2013  13 34  -21.0553 26056.2 -03433.5 -07.5067 26281.4
 04 06 2013  13 35  -21.0560 26055.7 -03433.2 -07.5063 26280.9
 04 06 2013  13 36  -21.0562 26055.5 -03433.1 -07.5061 26280.7
 04 06 2013  13 37  -21.0562 26055.1 -03433.0 -07.5060 26280.3
 04 06 2013  13 38  -21.0566 26055.1 -03433.1 -07.5061 26280.3
 04 06 2013  13 39  -21.0569 26055.4 -03433.2 -07.5064 26280.6
 04 06 2013  13 40  -21.0569 26055.1 -03433.2 -07.5064 26280.3
 04 06 2013  13 41  -21.0575 26055.0 -03433.3 -07.5066 26280.3
 04 06 2013  13 42  -21.0577 26055.0 -03433.3 -07.5067 26280.2
 04 06 2013  13 43  -21.0584 26055.4 -03433.6 -07.5072 26280.7
 04 06 2013  13 44  -21.0586 26055.6 -03433.6 -07.5072 26280.8
 04 06 2013  13 45  -21.0588 26056.1 -03433.8 -07.5075 26281.4
 04 06 2013  13 46  -21.0588 26056.2 -03433.8 -07.5074 26281.5
 04 06 2013  13 47  -21.0589 26056.4 -03433.8 -07.5074 26281.7
 04 06 2013  13 48  -21.0590 26056.8 -03434.0 -07.5076 26282.1
 04 06 2013  13 49  -21.0594 26056.8 -03433.9 -07.5074 26282.1
 04 06 2013  13 50  -21.0597 26056.9 -03433.8 -07.5072 26282.2
 04 06 2013  13 51  -21.0601 26057.0 -03433.8 -07.5072 26282.3
 04 06 2013  13 52  -21.0602 26057.1 -03433.8 -07.5071 26282.4
 04 06 2013  13 53  -21.0601 26056.6 -03433.5 -07.5068 26281.9
 04 06 2013  13 54  -21.0603 26056.3 -03433.4 -07.5066 26281.6
 04 06 2013  13 55  -21.0607 26056.4 -03433.5 -07.5066 26281.6
 04 06 2013  13 56  -21.0611 26056.8 -03433.6 -07.5069 26282.0
 04 06 2013  13 57  -21.0614 26056.9 -03433.6 -07.5069 26282.1
 04 06 2013  13 58  -21.0619 26057.4 -03433.8 -07.5071 26282.7
 04 06 2013  13 59  -21.0623 26057.4 -03433.7 -07.5069 26282.6
 04 06 2013  14 00  -21.0622 26057.5 -03433.7 -07.5068 26282.7
 04 06 2013  14 01  -21.0620 26057.1 -03433.5 -07.5064 26282.3
 04 06 2013  14 02  -21.0621 26056.8 -03433.3 -07.5062 26282.0
 04 06 2013  14 03  -21.0621 26056.2 -03433.2 -07.5060 26281.4
 04 06 2013  14 04  -21.0623 26055.7 -03433.0 -07.5059 26280.9
 04 06 2013  14 05  -21.0632 26055.8 -03433.3 -07.5064 26281.0
 04 06 2013  14 06  -21.0642 26056.0 -03433.5 -07.5067 26281.3
 04 06 2013  14 07  -21.0649 26056.4 -03433.6 -07.5070 26281.6
 04 06 2013  14 08  -21.0652 26057.3 -03434.0 -07.5075 26282.6
 04 06 2013  14 09  -21.0658 26057.8 -03434.0 -07.5075 26283.1
 04 06 2013  14 10  -21.0664 26058.1 -03434.0 -07.5073 26283.4
 04 06 2013  14 11  -21.0667 26058.0 -03433.8 -07.5069 26283.3
 04 06 2013  14 12  -21.0674 26057.7 -03433.6 -07.5064 26283.0
 04 06 2013  14 13  -21.0674 26057.3 -03433.3 -07.5059 26282.5
 04 06 2013  14 14  -21.0673 26057.2 -03433.3 -07.5060 26282.4
 04 06 2013  14 15  -21.0672 26057.1 -03433.4 -07.5062 26282.3
 04 06 2013  14 16  -21.0671 26057.1 -03433.4 -07.5064 26282.4
 04 06 2013  14 17  -21.0675 26057.5 -03433.6 -07.5067 26282.7
 04 06 2013  14 18  -21.0683 26057.9 -03433.8 -07.5070 26283.1
 04 06 2013  14 19  -21.0693 26058.6 -03434.1 -07.5074 26283.9
 04 06 2013  14 20  -21.0703 26059.5 -03434.4 -07.5077 26284.8
 04 06 2013  14 21  -21.0715 26060.1 -03434.4 -07.5076 26285.4
 04 06 2013  14 22  -21.0716 26060.2 -03434.1 -07.5070 26285.5
 04 06 2013  14 23  -21.0711 26059.8 -03433.8 -07.5063 26285.0
 04 06 2013  14 24  -21.0706 26059.4 -03433.5 -07.5058 26284.6
 04 06 2013  14 25  -21.0702 26059.4 -03433.4 -07.5057 26284.6
 04 06 2013  14 26  -21.0701 26059.4 -03433.4 -07.5056 26284.6
 04 06 2013  14 27  -21.0705 26059.5 -03433.5 -07.5058 26284.7
 04 06 2013  14 28  -21.0705 26059.3 -03433.4 -07.5056 26284.6
 04 06 2013  14 29  -21.0707 26059.2 -03433.3 -07.5055 26284.4
 04 06 2013  14 30  -21.0712 26059.5 -03433.4 -07.5056 26284.7
 04 06 2013  14 31  -21.0713 26059.9 -03433.5 -07.5057 26285.1
 04 06 2013  14 32  -21.0717 26060.2 -03433.6 -07.5058 26285.4
 04 06 2013  14 33  -21.0716 26060.0 -03433.5 -07.5056 26285.2
 04 06 2013  14 34  -21.0714 26059.5 -03433.3 -07.5053 26284.7
 04 06 2013  14 35  -21.0709 26058.9 -03433.0 -07.5050 26284.1
 04 06 2013  14 36  -21.0707 26059.0 -03433.2 -07.5054 26284.2
 04 06 2013  14 37  -21.0699 26059.4 -03433.5 -07.5058 26284.6
 04 06 2013  14 38  -21.0691 26060.4 -03433.8 -07.5063 26285.6
 04 06 2013  14 39  -21.0686 26060.7 -03433.8 -07.5062 26286.0
 04 06 2013  14 40  -21.0686 26060.4 -03433.6 -07.5057 26285.6
 04 06 2013  14 41  -21.0694 26060.6 -03433.6 -07.5057 26285.8
 04 06 2013  14 42  -21.0699 26061.1 -03433.8 -07.5060 26286.3
 04 06 2013  14 43  -21.0708 26062.0 -03434.1 -07.5065 26287.3
 04 06 2013  14 44  -21.0718 26062.9 -03434.4 -07.5069 26288.2
 04 06 2013  14 45  -21.0726 26063.2 -03434.4 -07.5067 26288.5
 04 06 2013  14 46  -21.0728 26063.3 -03434.3 -07.5064 26288.6
 04 06 2013  14 47  -21.0734 26063.2 -03434.2 -07.5063 26288.5
 04 06 2013  14 48  -21.0735 26062.9 -03434.0 -07.5060 26288.1
 04 06 2013  14 49  -21.0737 26062.9 -03434.1 -07.5060 26288.2
 04 06 2013  14 50  -21.0743 26063.1 -03434.2 -07.5064 26288.4
 04 06 2013  14 51  -21.0748 26063.0 -03434.2 -07.5063 26288.2
 04 06 2013  14 52  -21.0754 26062.9 -03434.2 -07.5063 26288.2
 04 06 2013  14 53  -21.0760 26062.7 -03434.2 -07.5063 26288.0
 04 06 2013  14 54  -21.0763 26062.7 -03434.2 -07.5063 26287.9
 04 06 2013  14 55  -21.0762 26062.8 -03434.3 -07.5066 26288.1
 04 06 2013  14 56  -21.0763 26062.8 -03434.4 -07.5068 26288.1
 04 06 2013  14 57  -21.0765 26062.9 -03434.5 -07.5069 26288.2
 04 06 2013  14 58  -21.0770 26062.7 -03434.5 -07.5071 26288.0
 04 06 2013  14 59  -21.0776 26062.6 -03434.5 -07.5072 26287.9
 04 06 2013  15 00  -21.0780 26062.4 -03434.5 -07.5072 26287.7
 04 06 2013  15 01  -21.0784 26062.4 -03434.6 -07.5075 26287.7
 04 06 2013  15 02  -21.0789 26062.8 -03434.9 -07.5078 26288.2
 04 06 2013  15 03  -21.0794 26063.0 -03435.0 -07.5082 26288.4
 04 06 2013  15 04  -21.0796 26062.6 -03434.9 -07.5079 26287.9
 04 06 2013  15 05  -21.0796 26061.9 -03434.6 -07.5075 26287.2
 04 06 2013  15 06  -21.0795 26061.2 -03434.5 -07.5074 26286.6
 04 06 2013  15 07  -21.0795 26060.9 -03434.5 -07.5075 26286.2
 04 06 2013  15 08  -21.0797 26061.0 -03434.7 -07.5079 26286.3
 04 06 2013  15 09  -21.0800 26061.1 -03434.9 -07.5084 26286.5
 04 06 2013  15 10  -21.0804 26061.1 -03435.1 -07.5087 26286.6
 04 06 2013  15 11  -21.0806 26061.0 -03435.1 -07.5089 26286.4
 04 06 2013  15 12  -21.0806 26061.3 -03435.4 -07.5093 26286.7
 04 06 2013  15 13  -21.0812 26061.8 -03435.7 -07.5099 26287.3
 04 06 2013  15 14  -21.0819 26062.3 -03435.9 -07.5103 26287.8
 04 06 2013  15 15  -21.0832 26061.2 -03435.4 -07.5095 26286.7
 04 06 2013  15 16  -21.0817 26058.1 -03433.9 -07.5071 26283.4
 04 06 2013  15 17  -21.0806 26055.8 -03433.1 -07.5060 26281.0
 04 06 2013  15 18  -21.0807 26054.6 -03433.0 -07.5062 26279.9
 04 06 2013  15 19  -21.0813 26054.3 -03433.4 -07.5071 26279.6
 04 06 2013  15 20  -21.0820 26054.4 -03433.9 -07.5081 26279.7
 04 06 2013  15 21  -21.0827 26055.3 -03434.6 -07.5093 26280.7
 04 06 2013  15 22  -21.0840 26056.6 -03435.3 -07.5106 26282.1
 04 06 2013  15 23  -21.0850 26057.4 -03435.7 -07.5111 26282.9
 04 06 2013  15 24  -21.0852 26058.0 -03435.8 -07.5113 26283.6
 04 06 2013  15 25  -21.0854 26058.6 -03436.0 -07.5114 26284.2
 04 06 2013  15 26  -21.0854 26058.6 -03435.9 -07.5113 26284.2
 04 06 2013  15 27  -21.0857 26058.0 -03435.6 -07.5107 26283.5
 04 06 2013  15 28  -21.0857 26057.5 -03435.3 -07.5102 26283.0
 04 06 2013  15 29  -21.0861 26057.2 -03435.2 -07.5101 26282.7
 04 06 2013  15 30  -21.0863 26057.0 -03435.1 -07.5100 26282.4
 04 06 2013  15 31  -21.0863 26056.8 -03435.0 -07.5099 26282.3
 04 06 2013  15 32  -21.0863 26056.7 -03435.1 -07.5100 26282.2
 04 06 2013  15 33  -21.0868 26056.8 -03435.1 -07.5100 26282.2
 04 06 2013  15 34  -21.0872 26056.8 -03435.1 -07.5100 26282.3
 04 06 2013  15 35  -21.0875 26056.9 -03435.1 -07.5100 26282.3
 04 06 2013  15 36  -21.0882 26057.1 -03435.1 -07.5100 26282.6
 04 06 2013  15 37  -21.0884 26057.2 -03435.1 -07.5099 26282.6
 04 06 2013  15 38  -21.0883 26057.3 -03435.1 -07.5098 26282.8
 04 06 2013  15 39  -21.0886 26057.7 -03435.1 -07.5099 26283.2
 04 06 2013  15 40  -21.0881 26057.7 -03435.0 -07.5096 26283.1
 04 06 2013  15 41  -21.0878 26057.8 -03435.0 -07.5095 26283.3
 04 06 2013  15 42  -21.0876 26057.8 -03435.0 -07.5095 26283.2
 04 06 2013  15 43  -21.0874 26057.6 -03434.9 -07.5094 26283.0
 04 06 2013  15 44  -21.0871 26057.7 -03435.0 -07.5095 26283.2
 04 06 2013  15 45  -21.0869 26057.7 -03435.0 -07.5097 26283.2
 04 06 2013  15 46  -21.0872 26057.8 -03435.2 -07.5099 26283.3
 04 06 2013  15 47  -21.0875 26057.9 -03435.2 -07.5099 26283.4
 04 06 2013  15 48  -21.0880 26058.0 -03435.1 -07.5098 26283.4
 04 06 2013  15 49  -21.0881 26057.7 -03435.0 -07.5095 26283.1
 04 06 2013  15 50  -21.0879 26057.3 -03434.7 -07.5091 26282.7
 04 06 2013  15 51  -21.0877 26056.9 -03434.6 -07.5088 26282.3
 04 06 2013  15 52  -21.0875 26056.5 -03434.3 -07.5085 26281.8
 04 06 2013  15 53  -21.0874 26056.3 -03434.3 -07.5085 26281.6
 04 06 2013  15 54  -21.0874 26056.3 -03434.4 -07.5086 26281.7
 04 06 2013  15 55  -21.0875 26056.4 -03434.5 -07.5088 26281.8
 04 06 2013  15 56  -21.0874 26056.5 -03434.5 -07.5089 26281.8
 04 06 2013  15 57  -21.0873 26056.5 -03434.6 -07.5090 26281.9
 04 06 2013  15 58  -21.0869 26056.4 -03434.6 -07.5090 26281.8
 04 06 2013  15 59  -21.0868 26056.6 -03434.7 -07.5092 26282.0
 04 06 2013  16 00  -21.0870 26056.8 -03434.8 -07.5094 26282.2
 04 06 2013  16 01  -21.0869 26056.9 -03434.9 -07.5095 26282.3
 04 06 2013  16 02  -21.0867 26056.9 -03434.9 -07.5096 26282.4
 04 06 2013  16 03  -21.0866 26056.9 -03434.9 -07.5096 26282.3
 04 06 2013  16 04  -21.0865 26056.9 -03435.0 -07.5097 26282.3
 04 06 2013  16 05  -21.0866 26056.6 -03434.9 -07.5096 26282.0
 04 06 2013  16 06  -21.0862 26056.2 -03434.7 -07.5094 26281.6
 04 06 2013  16 07  -21.0860 26055.9 -03434.7 -07.5096 26281.3
 04 06 2013  16 08  -21.0863 26055.8 -03434.9 -07.5099 26281.3
 04 06 2013  16 09  -21.0863 26055.6 -03434.9 -07.5100 26281.1
 04 06 2013  16 10  -21.0861 26055.4 -03435.0 -07.5102 26280.9
 04 06 2013  16 11  -21.0862 26055.4 -03435.1 -07.5104 26280.8
 04 06 2013  16 12  -21.0862 26055.3 -03435.2 -07.5107 26280.8
 04 06 2013  16 13  -21.0863 26055.3 -03435.3 -07.5109 26280.8
 04 06 2013  16 14  -21.0864 26055.2 -03435.4 -07.5111 26280.7
 04 06 2013  16 15  -21.0865 26055.1 -03435.4 -07.5112 26280.6
 04 06 2013  16 16  -21.0865 26055.0 -03435.5 -07.5113 26280.5
 04 06 2013  16 17  -21.0867 26055.1 -03435.6 -07.5116 26280.6
 04 06 2013  16 18  -21.0872 26054.7 -03435.5 -07.5114 26280.2
 04 06 2013  16 19  -21.0867 26053.7 -03435.0 -07.5106 26279.2
 04 06 2013  16 20  -21.0863 26053.0 -03434.8 -07.5105 26278.5
 04 06 2013  16 21  -21.0861 26052.8 -03434.9 -07.5107 26278.3
 04 06 2013  16 22  -21.0867 26052.8 -03435.1 -07.5111 26278.3
 04 06 2013  16 23  -21.0870 26052.8 -03435.1 -07.5113 26278.3
 04 06 2013  16 24  -21.0873 26053.0 -03435.2 -07.5114 26278.5
 04 06 2013  16 25  -21.0875 26053.3 -03435.4 -07.5116 26278.8
 04 06 2013  16 26  -21.0876 26053.5 -03435.4 -07.5116 26279.0
 04 06 2013  16 27  -21.0877 26053.6 -03435.4 -07.5115 26279.1
 04 06 2013  16 28  -21.0877 26053.7 -03435.3 -07.5113 26279.2
 04 06 2013  16 29  -21.0877 26053.6 -03435.1 -07.5110 26279.1
 04 06 2013  16 30  -21.0874 26053.4 -03434.9 -07.5107 26278.9
 04 06 2013  16 31  -21.0872 26053.3 -03434.8 -07.5104 26278.8
 04 06 2013  16 32  -21.0870 26053.2 -03434.6 -07.5101 26278.7
 04 06 2013  16 33  -21.0868 26053.2 -03434.5 -07.5098 26278.6
 04 06 2013  16 34  -21.0866 26052.9 -03434.3 -07.5094 26278.3
 04 06 2013  16 35  -21.0863 26052.9 -03434.1 -07.5091 26278.2
 04 06 2013  16 36  -21.0861 26052.4 -03433.9 -07.5086 26277.8
 04 06 2013  16 37  -21.0857 26052.2 -03433.7 -07.5083 26277.5
 04 06 2013  16 38  -21.0853 26051.5 -03433.3 -07.5077 26276.8
 04 06 2013  16 39  -21.0847 26050.9 -03433.0 -07.5072 26276.1
 04 06 2013  16 40  -21.0844 26050.3 -03432.7 -07.5068 26275.5
 04 06 2013  16 41  -21.0837 26049.8 -03432.4 -07.5063 26274.9
 04 06 2013  16 42  -21.0831 26049.3 -03432.3 -07.5062 26274.4
 04 06 2013  16 43  -21.0825 26049.0 -03432.3 -07.5062 26274.2
 04 06 2013  16 44  -21.0818 26048.8 -03432.3 -07.5063 26273.9
 04 06 2013  16 45  -21.0813 26048.8 -03432.4 -07.5065 26274.0
 04 06 2013  16 46  -21.0810 26049.1 -03432.6 -07.5068 26274.2
 04 06 2013  16 47  -21.0806 26049.0 -03432.6 -07.5068 26274.2
 04 06 2013  16 48  -21.0796 26048.7 -03432.4 -07.5065 26273.8
 04 06 2013  16 49  -21.0787 26048.6 -03432.4 -07.5066 26273.8
 04 06 2013  16 50  -21.0783 26048.9 -03432.7 -07.5070 26274.1
 04 06 2013  16 51  -21.0781 26049.2 -03432.9 -07.5074 26274.4
 04 06 2013  16 52  -21.0777 26049.1 -03432.8 -07.5073 26274.3
 04 06 2013  16 53  -21.0766 26048.6 -03432.6 -07.5069 26273.8
 04 06 2013  16 54  -21.0760 26048.8 -03432.7 -07.5072 26274.0
 04 06 2013  16 55  -21.0753 26048.9 -03432.9 -07.5076 26274.2
 04 06 2013  16 56  -21.0748 26048.9 -03433.0 -07.5078 26274.1
 04 06 2013  16 57  -21.0743 26048.4 -03432.9 -07.5077 26273.7
 04 06 2013  16 58  -21.0738 26047.8 -03432.7 -07.5075 26273.0
 04 06 2013  16 59  -21.0735 26047.4 -03432.6 -07.5073 26272.6
 04 06 2013  17 00  -21.0732 26047.1 -03432.6 -07.5074 26272.3
 04 06 2013  17 01  -21.0728 26046.9 -03432.6 -07.5075 26272.1
 04 06 2013  17 02  -21.0724 26046.9 -03432.7 -07.5077 26272.2
 04 06 2013  17 03  -21.0722 26047.2 -03433.0 -07.5083 26272.5
 04 06 2013  17 04  -21.0720 26047.6 -03433.3 -07.5089 26272.9
 04 06 2013  17 05  -21.0720 26048.3 -03433.8 -07.5096 26273.6
 04 06 2013  17 06  -21.0725 26048.6 -03434.0 -07.5100 26273.9
 04 06 2013  17 07  -21.0731 26048.7 -03434.1 -07.5101 26274.1
 04 06 2013  17 08  -21.0736 26048.7 -03434.0 -07.5101 26274.1
 04 06 2013  17 09  -21.0740 26048.5 -03433.9 -07.5098 26273.9
 04 06 2013  17 10  -21.0740 26048.2 -03433.8 -07.5096 26273.5
 04 06 2013  17 11  -21.0738 26047.9 -03433.7 -07.5095 26273.2
 04 06 2013  17 12  -21.0744 26047.8 -03433.7 -07.5097 26273.1
 04 06 2013  17 13  -21.0751 26048.1 -03434.0 -07.5101 26273.5
 04 06 2013  17 14  -21.0756 26048.2 -03434.1 -07.5103 26273.6
 04 06 2013  17 15  -21.0760 26048.0 -03434.0 -07.5102 26273.4
 04 06 2013  17 16  -21.0765 26047.8 -03434.0 -07.5101 26273.2
 04 06 2013  17 17  -21.0771 26047.4 -03433.8 -07.5100 26272.8
 04 06 2013  17 18  -21.0778 26047.3 -03433.7 -07.5098 26272.6
 04 06 2013  17 19  -21.0780 26047.0 -03433.6 -07.5096 26272.3
 04 06 2013  17 20  -21.0780 26046.5 -03433.4 -07.5093 26271.8
 04 06 2013  17 21  -21.0783 26046.1 -03433.3 -07.5092 26271.5
 04 06 2013  17 22  -21.0787 26045.8 -03433.2 -07.5092 26271.1
 04 06 2013  17 23  -21.0793 26045.3 -03433.2 -07.5091 26270.6
 04 06 2013  17 24  -21.0788 26044.2 -03432.7 -07.5084 26269.4
 04 06 2013  17 25  -21.0787 26043.4 -03432.5 -07.5083 26268.7
 04 06 2013  17 26  -21.0790 26043.5 -03432.8 -07.5088 26268.7
 04 06 2013  17 27  -21.0797 26043.9 -03433.1 -07.5095 26269.2
 04 06 2013  17 28  -21.0804 26044.3 -03433.4 -07.5099 26269.6
 04 06 2013  17 29  -21.0810 26044.4 -03433.4 -07.5100 26269.8
 04 06 2013  17 30  -21.0813 26044.4 -03433.4 -07.5098 26269.7
 04 06 2013  17 31  -21.0817 26044.5 -03433.3 -07.5097 26269.9
 04 06 2013  17 32  -21.0821 26044.6 -03433.4 -07.5098 26269.9
 04 06 2013  17 33  -21.0825 26044.4 -03433.2 -07.5096 26269.7
 04 06 2013  17 34  -21.0831 26044.4 -03433.2 -07.5094 26269.7
 04 06 2013  17 35  -21.0834 26044.1 -03432.9 -07.5090 26269.4
 04 06 2013  17 36  -21.0838 26043.8 -03432.8 -07.5087 26269.1
 04 06 2013  17 37  -21.0836 26043.2 -03432.4 -07.5081 26268.4
 04 06 2013  17 38  -21.0839 26042.8 -03432.2 -07.5077 26268.0
 04 06 2013  17 39  -21.0843 26042.3 -03432.0 -07.5075 26267.5
 04 06 2013  17 40  -21.0845 26042.0 -03431.9 -07.5072 26267.2
 04 06 2013  17 41  -21.0848 26041.8 -03431.8 -07.5071 26267.0
 04 06 2013  17 42  -21.0851 26042.0 -03431.9 -07.5073 26267.2
 04 06 2013  17 43  -21.0855 26042.4 -03432.1 -07.5076 26267.6
 04 06 2013  17 44  -21.0857 26042.5 -03432.1 -07.5076 26267.7
 04 06 2013  17 45  -21.0857 26042.4 -03432.0 -07.5074 26267.6
 04 06 2013  17 46  -21.0857 26042.4 -03431.9 -07.5073 26267.6
 04 06 2013  17 47  -21.0857 26042.2 -03431.8 -07.5072 26267.4
 04 06 2013  17 48  -21.0855 26042.0 -03431.7 -07.5070 26267.1
 04 06 2013  17 49  -21.0851 26041.6 -03431.5 -07.5067 26266.7
 04 06 2013  17 50  -21.0850 26041.8 -03431.7 -07.5070 26266.9
 04 06 2013  17 51  -21.0853 26042.1 -03431.9 -07.5073 26267.3
 04 06 2013  17 52  -21.0851 26042.0 -03431.8 -07.5072 26267.1
 04 06 2013  17 53  -21.0848 26041.5 -03431.6 -07.5068 26266.6
 04 06 2013  17 54  -21.0845 26040.9 -03431.3 -07.5064 26266.0
 04 06 2013  17 55  -21.0845 26040.1 -03431.1 -07.5061 26265.2
 04 06 2013  17 56  -21.0843 26039.7 -03431.1 -07.5062 26264.7
 04 06 2013  17 57  -21.0845 26039.1 -03431.1 -07.5065 26264.2
 04 06 2013  17 58  -21.0846 26039.1 -03431.3 -07.5069 26264.2
 04 06 2013  17 59  -21.0851 26039.1 -03431.6 -07.5075 26264.3
 04 06 2013  18 00  -21.0851 26039.2 -03431.8 -07.5078 26264.4
 04 06 2013  18 01  -21.0850 26038.7 -03431.6 -07.5077 26263.8
 04 06 2013  18 02  -21.0851 26038.1 -03431.5 -07.5077 26263.2
 04 06 2013  18 03  -21.0851 26037.4 -03431.4 -07.5076 26262.5
 04 06 2013  18 04  -21.0851 26036.8 -03431.4 -07.5077 26261.9
 04 06 2013  18 05  -21.0849 26036.3 -03431.4 -07.5078 26261.5
 04 06 2013  18 06  -21.0849 26035.9 -03431.4 -07.5080 26261.0
 04 06 2013  18 07  -21.0847 26035.5 -03431.5 -07.5082 26260.7
 04 06 2013  18 08  -21.0846 26035.0 -03431.4 -07.5084 26260.1
 04 06 2013  18 09  -21.0845 26034.8 -03431.6 -07.5087 26260.0
 04 06 2013  18 10  -21.0845 26034.6 -03431.7 -07.5091 26259.8
 04 06 2013  18 11  -21.0843 26034.1 -03431.7 -07.5091 26259.3
 04 06 2013  18 12  -21.0841 26033.5 -03431.6 -07.5091 26258.7
 04 06 2013  18 13  -21.0843 26033.6 -03431.8 -07.5095 26258.8
 04 06 2013  18 14  -21.0840 26033.5 -03431.9 -07.5098 26258.8
 04 06 2013  18 15  -21.0839 26033.1 -03432.0 -07.5100 26258.4
 04 06 2013  18 16  -21.0838 26032.6 -03431.9 -07.5101 26257.9
 04 06 2013  18 17  -21.0835 26031.7 -03431.7 -07.5099 26257.0
 04 06 2013  18 18  -21.0835 26031.4 -03431.8 -07.5103 26256.6
 04 06 2013  18 19  -21.0839 26031.5 -03432.1 -07.5108 26256.7
 04 06 2013  18 20  -21.0843 26031.6 -03432.3 -07.5113 26256.9
 04 06 2013  18 21  -21.0845 26031.4 -03432.3 -07.5113 26256.7
 04 06 2013  18 22  -21.0844 26031.2 -03432.3 -07.5113 26256.5
 04 06 2013  18 23  -21.0848 26031.4 -03432.6 -07.5119 26256.7
 04 06 2013  18 24  -21.0849 26031.4 -03432.7 -07.5121 26256.8
 04 06 2013  18 25  -21.0845 26031.2 -03432.7 -07.5121 26256.5
 04 06 2013  18 26  -21.0844 26031.0 -03432.8 -07.5123 26256.4
 04 06 2013  18 27  -21.0850 26031.5 -03433.0 -07.5127 26256.9
 04 06 2013  18 28  -21.0858 26032.0 -03433.2 -07.5130 26257.4
 04 06 2013  18 29  -21.0861 26032.3 -03433.3 -07.5131 26257.7
 04 06 2013  18 30  -21.0862 26032.1 -03433.1 -07.5128 26257.5
 04 06 2013  18 31  -21.0859 26031.5 -03432.9 -07.5124 26256.9
 04 06 2013  18 32  -21.0854 26030.7 -03432.6 -07.5121 26256.0
 04 06 2013  18 33  -21.0849 26030.1 -03432.5 -07.5121 26255.5
 04 06 2013  18 34  -21.0845 26029.9 -03432.6 -07.5123 26255.2
 04 06 2013  18 35  -21.0845 26030.0 -03432.8 -07.5128 26255.3
 04 06 2013  18 36  -21.0843 26029.4 -03432.7 -07.5128 26254.8
 04 06 2013  18 37  -21.0842 26029.1 -03432.7 -07.5127 26254.5
 04 06 2013  18 38  -21.0842 26029.0 -03432.7 -07.5129 26254.4
 04 06 2013  18 39  -21.0840 26028.7 -03432.7 -07.5129 26254.0
 04 06 2013  18 40  -21.0837 26028.1 -03432.6 -07.5128 26253.4
 04 06 2013  18 41  -21.0831 26027.6 -03432.5 -07.5128 26253.0
 04 06 2013  18 42  -21.0828 26027.3 -03432.6 -07.5130 26252.7
 04 06 2013  18 43  -21.0825 26027.2 -03432.7 -07.5133 26252.6
 04 06 2013  18 44  -21.0820 26026.9 -03432.8 -07.5136 26252.3
 04 06 2013  18 45  -21.0816 26026.6 -03432.9 -07.5139 26252.0
 04 06 2013  18 46  -21.0812 26026.3 -03432.9 -07.5141 26251.8
 04 06 2013  18 47  -21.0806 26025.9 -03432.9 -07.5141 26251.4
 04 06 2013  18 48  -21.0805 26025.7 -03433.1 -07.5145 26251.1
 04 06 2013  18 49  -21.0799 26025.2 -03433.1 -07.5147 26250.7
 04 06 2013  18 50  -21.0797 26025.2 -03433.3 -07.5151 26250.6
 04 06 2013  18 51  -21.0795 26025.1 -03433.4 -07.5155 26250.6
 04 06 2013  18 52  -21.0792 26024.8 -03433.6 -07.5158 26250.3
 04 06 2013  18 53  -21.0789 26024.7 -03433.7 -07.5163 26250.3
 04 06 2013  18 54  -21.0784 26024.5 -03433.9 -07.5166 26250.0
 04 06 2013  18 55  -21.0778 26024.1 -03433.9 -07.5168 26249.6
 04 06 2013  18 56  -21.0769 26023.4 -03433.9 -07.5169 26249.0
 04 06 2013  18 57  -21.0761 26023.0 -03434.0 -07.5173 26248.6
 04 06 2013  18 58  -21.0752 26022.7 -03434.2 -07.5177 26248.3
 04 06 2013  18 59  -21.0748 26022.5 -03434.5 -07.5185 26248.2
 04 06 2013  19 00  -21.0744 26022.7 -03434.9 -07.5192 26248.4
 04 06 2013  19 01  -21.0739 26022.9 -03435.2 -07.5200 26248.6
 04 06 2013  19 02  -21.0734 26023.1 -03435.5 -07.5205 26248.9
 04 06 2013  19 03  -21.0734 26023.5 -03435.9 -07.5212 26249.4
 04 06 2013  19 04  -21.0735 26023.7 -03436.1 -07.5216 26249.5
 04 06 2013  19 05  -21.0741 26023.9 -03436.3 -07.5220 26249.8
 04 06 2013  19 06  -21.0748 26024.2 -03436.4 -07.5221 26250.1
 04 06 2013  19 07  -21.0747 26024.2 -03436.3 -07.5220 26250.1
 04 06 2013  19 08  -21.0746 26024.0 -03436.3 -07.5219 26249.9
 04 06 2013  19 09  -21.0744 26023.8 -03436.2 -07.5218 26249.6
 04 06 2013  19 10  -21.0741 26023.3 -03436.1 -07.5217 26249.1
 04 06 2013  19 11  -21.0737 26022.7 -03435.9 -07.5216 26248.5
 04 06 2013  19 12  -21.0730 26022.4 -03436.0 -07.5218 26248.3
 04 06 2013  19 13  -21.0725 26022.4 -03436.2 -07.5222 26248.3
 04 06 2013  19 14  -21.0720 26022.3 -03436.4 -07.5226 26248.2
 04 06 2013  19 15  -21.0716 26022.1 -03436.5 -07.5229 26248.1
 04 06 2013  19 16  -21.0712 26021.7 -03436.5 -07.5230 26247.7
 04 06 2013  19 17  -21.0709 26021.2 -03436.5 -07.5232 26247.2
 04 06 2013  19 18  -21.0706 26021.1 -03436.7 -07.5237 26247.1
 04 06 2013  19 19  -21.0703 26021.0 -03437.0 -07.5243 26247.1
 04 06 2013  19 20  -21.0700 26020.9 -03437.1 -07.5247 26246.9
 04 06 2013  19 21  -21.0695 26020.6 -03437.1 -07.5247 26246.7
 04 06 2013  19 22  -21.0695 26020.4 -03437.1 -07.5248 26246.5
 04 06 2013  19 23  -21.0699 26020.3 -03437.1 -07.5249 26246.3
 04 06 2013  19 24  -21.0700 26020.0 -03437.1 -07.5249 26246.1
 04 06 2013  19 25  -21.0701 26019.8 -03437.2 -07.5251 26245.9
 04 06 2013  19 26  -21.0698 26019.6 -03437.2 -07.5252 26245.6
 04 06 2013  19 27  -21.0689 26019.5 -03437.3 -07.5254 26245.6
 04 06 2013  19 28  -21.0685 26019.8 -03437.6 -07.5260 26245.9
 04 06 2013  19 29  -21.0682 26020.0 -03437.8 -07.5265 26246.1
 04 06 2013  19 30  -21.0672 26020.1 -03438.0 -07.5268 26246.3
 04 06 2013  19 31  -21.0666 26020.1 -03438.1 -07.5270 26246.2
 04 06 2013  19 32  -21.0658 26019.7 -03438.1 -07.5271 26245.8
 04 06 2013  19 33  -21.0649 26019.1 -03438.0 -07.5270 26245.2
 04 06 2013  19 34  -21.0643 26018.6 -03438.1 -07.5273 26244.8
 04 06 2013  19 35  -21.0635 26018.2 -03438.2 -07.5277 26244.4
 04 06 2013  19 36  -21.0628 26018.1 -03438.4 -07.5282 26244.3
 04 06 2013  19 37  -21.0622 26017.9 -03438.6 -07.5287 26244.2
 04 06 2013  19 38  -21.0621 26018.1 -03439.0 -07.5294 26244.4
 04 06 2013  19 39  -21.0622 26018.2 -03439.2 -07.5299 26244.5
 04 06 2013  19 40  -21.0615 26017.6 -03439.0 -07.5297 26243.9
 04 06 2013  19 41  -21.0607 26017.2 -03438.9 -07.5297 26243.5
 04 06 2013  19 42  -21.0601 26017.0 -03439.0 -07.5300 26243.3
 04 06 2013  19 43  -21.0594 26016.7 -03439.2 -07.5303 26243.1
 04 06 2013  19 44  -21.0586 26016.3 -03439.2 -07.5305 26242.6
 04 06 2013  19 45  -21.0575 26015.9 -03439.3 -07.5308 26242.2
 04 06 2013  19 46  -21.0566 26015.8 -03439.5 -07.5313 26242.2
 04 06 2013  19 47  -21.0557 26016.0 -03439.8 -07.5319 26242.4
 04 06 2013  19 48  -21.0549 26016.3 -03440.2 -07.5326 26242.8
 04 06 2013  19 49  -21.0542 26016.7 -03440.6 -07.5333 26243.2
 04 06 2013  19 50  -21.0536 26016.8 -03440.8 -07.5339 26243.4
 04 06 2013  19 51  -21.0528 26016.7 -03440.9 -07.5341 26243.3
 04 06 2013  19 52  -21.0521 26016.6 -03441.0 -07.5343 26243.1
 04 06 2013  19 53  -21.0512 26016.3 -03441.0 -07.5344 26242.9
 04 06 2013  19 54  -21.0503 26016.2 -03441.1 -07.5347 26242.8
 04 06 2013  19 55  -21.0495 26016.1 -03441.3 -07.5351 26242.7
 04 06 2013  19 56  -21.0488 26015.9 -03441.5 -07.5355 26242.5
 04 06 2013  19 57  -21.0482 26015.7 -03441.5 -07.5357 26242.4
 04 06 2013  19 58  -21.0473 26015.5 -03441.6 -07.5358 26242.1
 04 06 2013  19 59  -21.0466 26015.3 -03441.7 -07.5361 26242.0
 04 06 2013  20 00  -21.0460 26015.3 -03441.9 -07.5365 26242.0
 04 06 2013  20 01  -21.0454 26015.3 -03442.0 -07.5369 26242.1
 04 06 2013  20 02  -21.0449 26015.4 -03442.3 -07.5375 26242.2
 04 06 2013  20 03  -21.0447 26015.6 -03442.6 -07.5379 26242.4
 04 06 2013  20 04  -21.0444 26015.3 -03442.6 -07.5381 26242.1
 04 06 2013  20 05  -21.0440 26014.6 -03442.4 -07.5379 26241.4
 04 06 2013  20 06  -21.0434 26014.1 -03442.3 -07.5378 26240.9
 04 06 2013  20 07  -21.0428 26013.9 -03442.4 -07.5380 26240.6
 04 06 2013  20 08  -21.0424 26013.9 -03442.6 -07.5384 26240.7
 04 06 2013  20 09  -21.0421 26014.1 -03442.8 -07.5390 26240.9
 04 06 2013  20 10  -21.0417 26014.2 -03443.0 -07.5393 26241.1
 04 06 2013  20 11  -21.0414 26014.2 -03443.1 -07.5396 26241.1
 04 06 2013  20 12  -21.0411 26014.3 -03443.3 -07.5399 26241.1
 04 06 2013  20 13  -21.0408 26014.4 -03443.5 -07.5404 26241.3
 04 06 2013  20 14  -21.0406 26014.5 -03443.7 -07.5407 26241.4
 04 06 2013  20 15  -21.0404 26014.5 -03443.9 -07.5411 26241.5
 04 06 2013  20 16  -21.0402 26014.6 -03444.0 -07.5413 26241.6
 04 06 2013  20 17  -21.0401 26014.7 -03444.1 -07.5416 26241.7
 04 06 2013  20 18  -21.0401 26014.7 -03444.2 -07.5418 26241.7
 04 06 2013  20 19  -21.0399 26014.6 -03444.3 -07.5419 26241.6
 04 06 2013  20 20  -21.0399 26014.5 -03444.3 -07.5420 26241.5
 04 06 2013  20 21  -21.0396 26014.4 -03444.3 -07.5421 26241.4
 04 06 2013  20 22  -21.0394 26014.0 -03444.2 -07.5420 26241.0
 04 06 2013  20 23  -21.0390 26014.0 -03444.3 -07.5423 26241.0
 04 06 2013  20 24  -21.0386 26013.9 -03444.5 -07.5425 26241.0
 04 06 2013  20 25  -21.0383 26014.0 -03444.5 -07.5427 26241.1
 04 06 2013  20 26  -21.0379 26014.2 -03444.7 -07.5430 26241.3
 04 06 2013  20 27  -21.0377 26014.1 -03444.8 -07.5433 26241.2
 04 06 2013  20 28  -21.0374 26014.2 -03444.9 -07.5435 26241.3
 04 06 2013  20 29  -21.0372 26013.8 -03444.8 -07.5434 26240.9
 04 06 2013  20 30  -21.0372 26013.8 -03444.9 -07.5435 26240.9
 04 06 2013  20 31  -21.0370 26013.7 -03444.9 -07.5436 26240.8
 04 06 2013  20 32  -21.0370 26013.4 -03444.9 -07.5437 26240.5
 04 06 2013  20 33  -21.0367 26013.3 -03444.9 -07.5437 26240.4
 04 06 2013  20 34  -21.0362 26013.2 -03445.0 -07.5438 26240.3
 04 06 2013  20 35  -21.0360 26013.1 -03445.0 -07.5440 26240.3
 04 06 2013  20 36  -21.0359 26013.4 -03445.2 -07.5443 26240.6
 04 06 2013  20 37  -21.0360 26013.6 -03445.3 -07.5445 26240.7
 04 06 2013  20 38  -21.0359 26013.3 -03445.2 -07.5444 26240.4
 04 06 2013  20 39  -21.0360 26013.3 -03445.3 -07.5444 26240.5
 04 06 2013  20 40  -21.0360 26013.3 -03445.3 -07.5445 26240.4
 04 06 2013  20 41  -21.0360 26013.3 -03445.3 -07.5446 26240.5
 04 06 2013  20 42  -21.0360 26013.5 -03445.5 -07.5449 26240.7
 04 06 2013  20 43  -21.0360 26013.5 -03445.5 -07.5449 26240.7
 04 06 2013  20 44  -21.0361 26013.5 -03445.5 -07.5449 26240.7
 04 06 2013  20 45  -21.0361 26013.8 -03445.6 -07.5450 26241.0
 04 06 2013  20 46  -21.0360 26014.0 -03445.7 -07.5453 26241.2
 04 06 2013  20 47  -21.0362 26014.4 -03445.9 -07.5455 26241.6
 04 06 2013  20 48  -21.0365 26014.8 -03446.1 -07.5458 26242.0
 04 06 2013  20 49  -21.0366 26015.2 -03446.3 -07.5461 26242.5
 04 06 2013  20 50  -21.0367 26015.3 -03446.3 -07.5461 26242.6
 04 06 2013  20 51  -21.0368 26015.3 -03446.2 -07.5460 26242.5
 04 06 2013  20 52  -21.0371 26015.5 -03446.3 -07.5461 26242.8
 04 06 2013  20 53  -21.0372 26015.9 -03446.5 -07.5463 26243.2
 04 06 2013  20 54  -21.0372 26016.1 -03446.5 -07.5464 26243.4
 04 06 2013  20 55  -21.0371 26016.4 -03446.6 -07.5466 26243.7
 04 06 2013  20 56  -21.0369 26016.8 -03446.8 -07.5468 26244.1
 04 06 2013  20 57  -21.0367 26017.0 -03446.9 -07.5469 26244.4
 04 06 2013  20 58  -21.0366 26017.5 -03447.0 -07.5471 26244.9
 04 06 2013  20 59  -21.0368 26018.0 -03447.2 -07.5473 26245.4
 04 06 2013  21 00  -21.0374 26018.1 -03447.1 -07.5471 26245.5
 04 06 2013  21 01  -21.0378 26018.5 -03447.2 -07.5472 26245.9
 04 06 2013  21 02  -21.0379 26018.9 -03447.2 -07.5471 26246.3
 04 06 2013  21 03  -21.0378 26018.8 -03447.0 -07.5466 26246.2
 04 06 2013  21 04  -21.0378 26018.6 -03446.6 -07.5459 26245.9
 04 06 2013  21 05  -21.0379 26018.3 -03446.3 -07.5453 26245.5
 04 06 2013  21 06  -21.0378 26017.8 -03445.9 -07.5447 26245.0
 04 06 2013  21 07  -21.0370 26017.7 -03445.8 -07.5443 26244.9
 04 06 2013  21 08  -21.0358 26018.1 -03445.8 -07.5442 26245.3
 04 06 2013  21 09  -21.0349 26018.1 -03445.7 -07.5440 26245.3
 04 06 2013  21 10  -21.0348 26017.7 -03445.4 -07.5435 26244.9
 04 06 2013  21 11  -21.0347 26017.2 -03445.1 -07.5430 26244.3
 04 06 2013  21 12  -21.0346 26016.3 -03444.7 -07.5423 26243.3
 04 06 2013  21 13  -21.0349 26015.5 -03444.4 -07.5419 26242.6
 04 06 2013  21 14  -21.0347 26015.5 -03444.4 -07.5420 26242.5
 04 06 2013  21 15  -21.0341 26015.6 -03444.5 -07.5422 26242.7
 04 06 2013  21 16  -21.0340 26016.1 -03444.8 -07.5426 26243.2
 04 06 2013  21 17  -21.0337 26016.7 -03445.2 -07.5433 26243.8
 04 06 2013  21 18  -21.0335 26016.9 -03445.3 -07.5435 26244.0
 04 06 2013  21 19  -21.0333 26016.4 -03445.0 -07.5431 26243.5
 04 06 2013  21 20  -21.0339 26016.0 -03444.9 -07.5429 26243.1
 04 06 2013  21 21  -21.0344 26015.9 -03444.8 -07.5428 26243.0
 04 06 2013  21 22  -21.0341 26016.1 -03444.9 -07.5430 26243.2
 04 06 2013  21 23  -21.0336 26016.1 -03444.9 -07.5430 26243.2
 04 06 2013  21 24  -21.0334 26016.0 -03444.9 -07.5429 26243.1
 04 06 2013  21 25  -21.0332 26016.2 -03445.0 -07.5430 26243.3
 04 06 2013  21 26  -21.0326 26016.5 -03445.1 -07.5433 26243.6
 04 06 2013  21 27  -21.0321 26016.8 -03445.3 -07.5435 26243.9
 04 06 2013  21 28  -21.0321 26017.2 -03445.5 -07.5438 26244.3
 04 06 2013  21 29  -21.0322 26017.5 -03445.7 -07.5441 26244.6
 04 06 2013  21 30  -21.0324 26017.2 -03445.6 -07.5440 26244.4
 04 06 2013  21 31  -21.0322 26017.1 -03445.4 -07.5437 26244.2
 04 06 2013  21 32  -21.0319 26017.1 -03445.4 -07.5436 26244.2
 04 06 2013  21 33  -21.0323 26016.8 -03445.4 -07.5436 26244.0
 04 06 2013  21 34  -21.0320 26016.4 -03445.1 -07.5433 26243.5
 04 06 2013  21 35  -21.0319 26016.2 -03445.0 -07.5431 26243.3
 04 06 2013  21 36  -21.0320 26016.3 -03445.1 -07.5433 26243.5
 04 06 2013  21 37  -21.0322 26015.6 -03444.9 -07.5429 26242.7
 04 06 2013  21 38  -21.0324 26015.1 -03444.6 -07.5425 26242.2
 04 06 2013  21 39  -21.0329 26015.1 -03444.6 -07.5425 26242.1
 04 06 2013  21 40  -21.0331 26015.2 -03444.7 -07.5427 26242.3
 04 06 2013  21 41  -21.0332 26015.9 -03445.1 -07.5433 26243.0
 04 06 2013  21 42  -21.0330 26017.7 -03446.0 -07.5447 26244.9
 04 06 2013  21 43  -21.0320 26019.4 -03446.8 -07.5461 26246.7
 04 06 2013  21 44  -21.0317 26020.3 -03447.3 -07.5468 26247.7
 04 06 2013  21 45  -21.0321 26020.2 -03447.1 -07.5466 26247.5
 04 06 2013  21 46  -21.0327 26019.5 -03446.7 -07.5458 26246.8
 04 06 2013  21 47  -21.0329 26018.8 -03446.2 -07.5450 26246.0
 04 06 2013  21 48  -21.0330 26018.1 -03445.8 -07.5442 26245.3
 04 06 2013  21 49  -21.0331 26017.9 -03445.5 -07.5438 26245.0
 04 06 2013  21 50  -21.0331 26017.8 -03445.5 -07.5437 26245.0
 04 06 2013  21 51  -21.0335 26018.1 -03445.6 -07.5438 26245.3
 04 06 2013  21 52  -21.0339 26018.4 -03445.8 -07.5441 26245.6
 04 06 2013  21 53  -21.0341 26018.6 -03445.8 -07.5442 26245.8
 04 06 2013  21 54  -21.0343 26018.9 -03445.9 -07.5443 26246.1
 04 06 2013  21 55  -21.0343 26019.3 -03446.1 -07.5445 26246.6
 04 06 2013  21 56  -21.0342 26019.5 -03446.1 -07.5445 26246.7
 04 06 2013  21 57  -21.0344 26019.4 -03446.0 -07.5443 26246.6
 04 06 2013  21 58  -21.0347 26019.5 -03446.0 -07.5443 26246.7
 04 06 2013  21 59  -21.0348 26019.5 -03446.0 -07.5443 26246.7
 04 06 2013  22 00  -21.0349 26019.4 -03445.9 -07.5440 26246.6
 04 06 2013  22 01  -21.0352 26019.3 -03445.8 -07.5438 26246.4
 04 06 2013  22 02  -21.0354 26019.1 -03445.6 -07.5436 26246.2
 04 06 2013  22 03  -21.0357 26019.0 -03445.5 -07.5434 26246.2
 04 06 2013  22 04  -21.0358 26019.0 -03445.5 -07.5434 26246.2
 04 06 2013  22 05  -21.0358 26019.4 -03445.6 -07.5435 26246.5
 04 06 2013  22 06  -21.0356 26019.5 -03445.7 -07.5435 26246.7
 04 06 2013  22 07  -21.0356 26019.2 -03445.5 -07.5433 26246.4
 04 06 2013  22 08  -21.0356 26018.8 -03445.2 -07.5427 26245.9
 04 06 2013  22 09  -21.0355 26018.8 -03445.1 -07.5426 26245.9
 04 06 2013  22 10  -21.0353 26019.4 -03445.4 -07.5430 26246.5
 04 06 2013  22 11  -21.0351 26019.9 -03445.7 -07.5434 26247.1
 04 06 2013  22 12  -21.0352 26020.2 -03445.8 -07.5437 26247.4
 04 06 2013  22 13  -21.0353 26020.2 -03445.8 -07.5437 26247.4
 04 06 2013  22 14  -21.0355 26020.0 -03445.7 -07.5434 26247.2
 04 06 2013  22 15  -21.0356 26019.7 -03445.5 -07.5432 26246.9
 04 06 2013  22 16  -21.0355 26019.6 -03445.4 -07.5430 26246.7
 04 06 2013  22 17  -21.0356 26019.6 -03445.4 -07.5429 26246.7
 04 06 2013  22 18  -21.0355 26019.5 -03445.3 -07.5427 26246.6
 04 06 2013  22 19  -21.0356 26019.2 -03445.2 -07.5426 26246.3
 04 06 2013  22 20  -21.0360 26019.0 -03445.1 -07.5424 26246.1
 04 06 2013  22 21  -21.0363 26019.0 -03445.1 -07.5425 26246.1
 04 06 2013  22 22  -21.0363 26019.0 -03445.1 -07.5426 26246.1
 04 06 2013  22 23  -21.0364 26019.0 -03445.1 -07.5425 26246.1
 04 06 2013  22 24  -21.0365 26018.9 -03445.1 -07.5425 26246.0
 04 06 2013  22 25  -21.0366 26018.8 -03445.0 -07.5424 26245.9
 04 06 2013  22 26  -21.0366 26018.6 -03444.9 -07.5422 26245.6
 04 06 2013  22 27  -21.0367 26018.5 -03444.9 -07.5422 26245.6
 04 06 2013  22 28  -21.0368 26018.6 -03445.0 -07.5424 26245.7
 04 06 2013  22 29  -21.0370 26018.7 -03445.1 -07.5425 26245.8
 04 06 2013  22 30  -21.0371 26018.6 -03445.1 -07.5425 26245.7
 04 06 2013  22 31  -21.0371 26018.4 -03445.0 -07.5424 26245.5
 04 06 2013  22 32  -21.0371 26018.5 -03445.0 -07.5425 26245.6
 04 06 2013  22 33  -21.0372 26018.7 -03445.1 -07.5427 26245.8
 04 06 2013  22 34  -21.0371 26018.7 -03445.2 -07.5428 26245.8
 04 06 2013  22 35  -21.0373 26018.6 -03445.2 -07.5428 26245.7
 04 06 2013  22 36  -21.0376 26018.6 -03445.2 -07.5428 26245.7
 04 06 2013  22 37  -21.0378 26018.8 -03445.3 -07.5430 26245.9
 04 06 2013  22 38  -21.0382 26018.7 -03445.3 -07.5431 26245.8
 04 06 2013  22 39  -21.0384 26019.1 -03445.5 -07.5434 26246.2
 04 06 2013  22 40  -21.0389 26019.1 -03445.6 -07.5435 26246.2
 04 06 2013  22 41  -21.0392 26019.2 -03445.6 -07.5436 26246.3
 04 06 2013  22 42  -21.0394 26019.1 -03445.6 -07.5436 26246.2
 04 06 2013  22 43  -21.0393 26019.1 -03445.5 -07.5434 26246.2
 04 06 2013  22 44  -21.0396 26018.8 -03445.4 -07.5433 26245.9
 04 06 2013  22 45  -21.0399 26018.8 -03445.4 -07.5431 26245.9
 04 06 2013  22 46  -21.0404 26018.3 -03445.2 -07.5430 26245.4
 04 06 2013  22 47  -21.0407 26018.4 -03445.3 -07.5430 26245.5
 04 06 2013  22 48  -21.0406 26018.7 -03445.4 -07.5432 26245.8
 04 06 2013  22 49  -21.0405 26018.8 -03445.5 -07.5433 26246.0
 04 06 2013  22 50  -21.0406 26018.9 -03445.5 -07.5435 26246.0
 04 06 2013  22 51  -21.0406 26019.0 -03445.6 -07.5435 26246.2
 04 06 2013  22 52  -21.0406 26019.1 -03445.6 -07.5436 26246.2
 04 06 2013  22 53  -21.0410 26018.8 -03445.5 -07.5434 26245.9
 04 06 2013  22 54  -21.0412 26018.6 -03445.5 -07.5434 26245.8
 04 06 2013  22 55  -21.0413 26018.5 -03445.4 -07.5432 26245.6
 04 06 2013  22 56  -21.0412 26018.3 -03445.3 -07.5431 26245.4
 04 06 2013  22 57  -21.0411 26018.1 -03445.2 -07.5430 26245.2
 04 06 2013  22 58  -21.0411 26017.9 -03445.1 -07.5428 26245.0
 04 06 2013  22 59  -21.0414 26017.9 -03445.1 -07.5428 26245.0
 04 06 2013  23 00  -21.0416 26018.0 -03445.2 -07.5429 26245.1
 04 06 2013  23 01  -21.0419 26018.3 -03445.4 -07.5433 26245.5
 04 06 2013  23 02  -21.0421 26018.6 -03445.5 -07.5435 26245.8
 04 06 2013  23 03  -21.0419 26018.9 -03445.6 -07.5437 26246.1
 04 06 2013  23 04  -21.0422 26019.2 -03445.7 -07.5438 26246.3
 04 06 2013  23 05  -21.0421 26019.4 -03445.8 -07.5439 26246.5
 04 06 2013  23 06  -21.0419 26019.4 -03445.8 -07.5438 26246.6
 04 06 2013  23 07  -21.0417 26019.5 -03445.7 -07.5437 26246.6
 04 06 2013  23 08  -21.0418 26019.5 -03445.7 -07.5437 26246.6
 04 06 2013  23 09  -21.0418 26019.3 -03445.6 -07.5435 26246.5
 04 06 2013  23 10  -21.0418 26019.0 -03445.5 -07.5433 26246.2
 04 06 2013  23 11  -21.0416 26018.8 -03445.4 -07.5431 26246.0
 04 06 2013  23 12  -21.0412 26018.9 -03445.3 -07.5430 26246.0
 04 06 2013  23 13  -21.0408 26019.1 -03445.4 -07.5431 26246.2
 04 06 2013  23 14  -21.0408 26019.0 -03445.4 -07.5432 26246.1
 04 06 2013  23 15  -21.0410 26018.9 -03445.4 -07.5432 26246.0
 04 06 2013  23 16  -21.0408 26018.7 -03445.3 -07.5431 26245.9
 04 06 2013  23 17  -21.0407 26018.6 -03445.2 -07.5429 26245.7
 04 06 2013  23 18  -21.0407 26018.3 -03445.1 -07.5427 26245.4
 04 06 2013  23 19  -21.0410 26018.4 -03445.2 -07.5428 26245.5
 04 06 2013  23 20  -21.0412 26018.2 -03445.1 -07.5428 26245.3
 04 06 2013  23 21  -21.0413 26018.2 -03445.1 -07.5427 26245.3
 04 06 2013  23 22  -21.0414 26018.0 -03445.0 -07.5426 26245.1
 04 06 2013  23 23  -21.0415 26018.4 -03445.2 -07.5429 26245.5
 04 06 2013  23 24  -21.0419 26018.3 -03445.3 -07.5430 26245.5
 04 06 2013  23 25  -21.0421 26018.6 -03445.3 -07.5430 26245.7
 04 06 2013  23 26  -21.0419 26018.6 -03445.3 -07.5431 26245.7
 04 06 2013  23 27  -21.0420 26018.1 -03445.1 -07.5428 26245.2
 04 06 2013  23 28  -21.0423 26018.0 -03445.1 -07.5428 26245.1
 04 06 2013  23 29  -21.0423 26018.1 -03445.1 -07.5428 26245.2
 04 06 2013  23 30  -21.0422 26018.3 -03445.2 -07.5429 26245.4
 04 06 2013  23 31  -21.0423 26018.4 -03445.2 -07.5430 26245.5
 04 06 2013  23 32  -21.0424 26018.6 -03445.4 -07.5431 26245.7
 04 06 2013  23 33  -21.0423 26018.9 -03445.5 -07.5434 26246.0
 04 06 2013  23 34  -21.0420 26019.3 -03445.7 -07.5437 26246.5
 04 06 2013  23 35  -21.0419 26019.6 -03445.8 -07.5438 26246.8
 04 06 2013  23 36  -21.0421 26019.9 -03446.0 -07.5442 26247.1
 04 06 2013  23 37  -21.0420 26020.0 -03446.0 -07.5442 26247.2
 04 06 2013  23 38  -21.0419 26020.2 -03446.1 -07.5443 26247.4
 04 06 2013  23 39  -21.0418 26020.3 -03446.1 -07.5443 26247.5
 04 06 2013  23 40  -21.0418 26020.2 -03446.0 -07.5442 26247.4
 04 06 2013  23 41  -21.0416 26020.3 -03446.1 -07.5442 26247.5
 04 06 2013  23 42  -21.0415 26020.6 -03446.2 -07.5444 26247.8
 04 06 2013  23 43  -21.0415 26020.8 -03446.2 -07.5444 26248.0
 04 06 2013  23 44  -21.0414 26020.8 -03446.2 -07.5444 26248.0
 04 06 2013  23 45  -21.0413 26020.6 -03446.1 -07.5442 26247.9
 04 06 2013  23 46  -21.0408 26020.3 -03445.9 -07.5438 26247.5
 04 06 2013  23 47  -21.0404 26019.9 -03445.6 -07.5433 26247.1
 04 06 2013  23 48  -21.0402 26019.9 -03445.6 -07.5434 26247.0
 04 06 2013  23 49  -21.0401 26020.0 -03445.7 -07.5435 26247.1
 04 06 2013  23 50  -21.0398 26020.2 -03445.8 -07.5437 26247.4
 04 06 2013  23 51  -21.0402 26020.0 -03445.8 -07.5437 26247.2
 04 06 2013  23 52  -21.0406 26019.7 -03445.7 -07.5436 26246.9
 04 06 2013  23 53  -21.0407 26019.3 -03445.5 -07.5433 26246.4
 04 06 2013  23 54  -21.0406 26018.7 -03445.2 -07.5428 26245.8
 04 06 2013  23 55  -21.0407 26017.9 -03444.8 -07.5422 26245.0
 04 06 2013  23 56  -21.0405 26017.3 -03444.5 -07.5418 26244.3
 04 06 2013  23 57  -21.0401 26016.9 -03444.3 -07.5414 26243.9
 04 06 2013  23 58  -21.0397 26016.7 -03444.3 -07.5413 26243.7
