SAO LUIS EMBRACE-03 <343> 1 Min. Reported data

 DD MM YYYY  HH MM   D(Deg)  H(nT)   Z(nT)   I(Deg)   F(nT)

 09 12 2013  00 00  -21.0173 26008.8 -03516.4 -07.6997 26245.5
 09 12 2013  00 01  -21.0173 26008.9 -03516.5 -07.6998 26245.5
 09 12 2013  00 02  -21.0172 26008.8 -03516.4 -07.6997 26245.5
 09 12 2013  00 03  -21.0171 26008.8 -03516.4 -07.6997 26245.4
 09 12 2013  00 04  -21.0171 26008.8 -03516.4 -07.6997 26245.4
 09 12 2013  00 05  -21.0170 26008.7 -03516.4 -07.6996 26245.4
 09 12 2013  00 06  -21.0171 26008.7 -03516.4 -07.6996 26245.4
 09 12 2013  00 07  -21.0170 26008.8 -03516.4 -07.6997 26245.4
 09 12 2013  00 08  -21.0170 26008.9 -03516.5 -07.6998 26245.5
 09 12 2013  00 09  -21.0169 26008.9 -03516.5 -07.6999 26245.5
 09 12 2013  00 10  -21.0169 26008.9 -03516.5 -07.6998 26245.5
 09 12 2013  00 11  -21.0169 26008.8 -03516.4 -07.6998 26245.4
 09 12 2013  00 12  -21.0168 26008.8 -03516.4 -07.6998 26245.5
 09 12 2013  00 13  -21.0168 26008.9 -03516.5 -07.6999 26245.5
 09 12 2013  00 14  -21.0167 26008.8 -03516.5 -07.6999 26245.4
 09 12 2013  00 15  -21.0169 26008.8 -03516.5 -07.6999 26245.5
 09 12 2013  00 16  -21.0168 26009.0 -03516.6 -07.7000 26245.6
 09 12 2013  00 17  -21.0168 26009.1 -03516.6 -07.7001 26245.7
 09 12 2013  00 18  -21.0167 26009.2 -03516.7 -07.7002 26245.9
 09 12 2013  00 19  -21.0166 26009.2 -03516.7 -07.7002 26245.9
 09 12 2013  00 20  -21.0165 26009.2 -03516.7 -07.7003 26245.9
 09 12 2013  00 21  -21.0163 26009.3 -03516.7 -07.7002 26245.9
 09 12 2013  00 22  -21.0162 26009.3 -03516.7 -07.7002 26246.0
 09 12 2013  00 23  -21.0160 26009.4 -03516.7 -07.7003 26246.0
 09 12 2013  00 24  -21.0159 26009.3 -03516.7 -07.7003 26246.0
 09 12 2013  00 25  -21.0160 26009.3 -03516.7 -07.7003 26246.0
 09 12 2013  00 26  -21.0157 26009.4 -03516.8 -07.7003 26246.1
 09 12 2013  00 27  -21.0158 26009.4 -03516.8 -07.7003 26246.1
 09 12 2013  00 28  -21.0156 26009.5 -03516.8 -07.7004 26246.2
 09 12 2013  00 29  -21.0156 26009.5 -03516.9 -07.7005 26246.2
 09 12 2013  00 30  -21.0156 26009.5 -03516.8 -07.7004 26246.2
 09 12 2013  00 31  -21.0157 26009.4 -03516.8 -07.7005 26246.1
 09 12 2013  00 32  -21.0156 26009.4 -03516.8 -07.7004 26246.1
 09 12 2013  00 33  -21.0157 26009.5 -03516.9 -07.7005 26246.2
 09 12 2013  00 34  -21.0156 26009.5 -03516.9 -07.7005 26246.2
 09 12 2013  00 35  -21.0156 26009.4 -03516.8 -07.7004 26246.0
 09 12 2013  00 36  -21.0154 26009.3 -03516.8 -07.7004 26246.0
 09 12 2013  00 37  -21.0155 26009.3 -03516.8 -07.7004 26246.0
 09 12 2013  00 38  -21.0156 26009.4 -03516.8 -07.7004 26246.0
 09 12 2013  00 39  -21.0156 26009.3 -03516.8 -07.7005 26246.0
 09 12 2013  00 40  -21.0155 26009.3 -03516.8 -07.7004 26246.0
 09 12 2013  00 41  -21.0156 26009.4 -03516.8 -07.7005 26246.1
 09 12 2013  00 42  -21.0155 26009.4 -03516.9 -07.7006 26246.1
 09 12 2013  00 43  -21.0155 26009.4 -03516.8 -07.7005 26246.0
 09 12 2013  00 44  -21.0156 26009.2 -03516.8 -07.7005 26245.9
 09 12 2013  00 45  -21.0157 26009.2 -03516.7 -07.7003 26245.8
 09 12 2013  00 46  -21.0157 26009.1 -03516.7 -07.7003 26245.8
 09 12 2013  00 47  -21.0159 26009.1 -03516.7 -07.7002 26245.8
 09 12 2013  00 48  -21.0161 26009.0 -03516.7 -07.7003 26245.7
 09 12 2013  00 49  -21.0162 26009.1 -03516.7 -07.7004 26245.7
 09 12 2013  00 50  -21.0165 26009.1 -03516.8 -07.7004 26245.8
 09 12 2013  00 51  -21.0166 26009.1 -03516.7 -07.7003 26245.8
 09 12 2013  00 52  -21.0168 26009.1 -03516.7 -07.7003 26245.8
 09 12 2013  00 53  -21.0169 26009.1 -03516.7 -07.7003 26245.8
 09 12 2013  00 54  -21.0171 26009.2 -03516.8 -07.7004 26245.9
 09 12 2013  00 55  -21.0173 26009.2 -03516.8 -07.7004 26245.9
 09 12 2013  00 56  -21.0175 26009.3 -03516.8 -07.7004 26246.0
 09 12 2013  00 57  -21.0176 26009.4 -03516.9 -07.7005 26246.1
 09 12 2013  00 58  -21.0176 26009.4 -03516.8 -07.7005 26246.1
 09 12 2013  00 59  -21.0176 26009.5 -03516.9 -07.7005 26246.2
 09 12 2013  01 00  -21.0176 26009.6 -03516.9 -07.7005 26246.3
 09 12 2013  01 01  -21.0176 26009.7 -03516.9 -07.7005 26246.4
 09 12 2013  01 02  -21.0175 26009.7 -03516.9 -07.7005 26246.4
 09 12 2013  01 03  -21.0174 26009.7 -03516.9 -07.7005 26246.4
 09 12 2013  01 04  -21.0172 26009.7 -03516.9 -07.7005 26246.4
 09 12 2013  01 05  -21.0169 26009.6 -03516.8 -07.7004 26246.3
 09 12 2013  01 06  -21.0166 26009.5 -03516.8 -07.7003 26246.2
 09 12 2013  01 07  -21.0165 26009.4 -03516.7 -07.7001 26246.1
 09 12 2013  01 08  -21.0165 26009.3 -03516.6 -07.7001 26246.0
 09 12 2013  01 09  -21.0166 26009.3 -03516.7 -07.7002 26245.9
 09 12 2013  01 10  -21.0166 26009.3 -03516.7 -07.7002 26246.0
 09 12 2013  01 11  -21.0167 26009.3 -03516.7 -07.7003 26246.0
 09 12 2013  01 12  -21.0166 26009.4 -03516.8 -07.7004 26246.1
 09 12 2013  01 13  -21.0167 26009.5 -03516.8 -07.7004 26246.2
 09 12 2013  01 14  -21.0169 26009.5 -03516.9 -07.7005 26246.2
 09 12 2013  01 15  -21.0170 26009.5 -03516.9 -07.7005 26246.2
 09 12 2013  01 16  -21.0170 26009.4 -03516.9 -07.7005 26246.1
 09 12 2013  01 17  -21.0170 26009.4 -03516.8 -07.7005 26246.0
 09 12 2013  01 18  -21.0172 26009.3 -03516.8 -07.7005 26246.0
 09 12 2013  01 19  -21.0172 26009.2 -03516.8 -07.7004 26245.9
 09 12 2013  01 20  -21.0173 26009.1 -03516.7 -07.7003 26245.7
 09 12 2013  01 21  -21.0173 26009.0 -03516.6 -07.7002 26245.6
 09 12 2013  01 22  -21.0174 26008.8 -03516.6 -07.7001 26245.5
 09 12 2013  01 23  -21.0175 26008.7 -03516.6 -07.7001 26245.4
 09 12 2013  01 24  -21.0177 26008.6 -03516.6 -07.7001 26245.3
 09 12 2013  01 25  -21.0179 26008.6 -03516.6 -07.7001 26245.3
 09 12 2013  01 26  -21.0182 26008.6 -03516.6 -07.7002 26245.3
 09 12 2013  01 27  -21.0183 26008.6 -03516.6 -07.7002 26245.3
 09 12 2013  01 28  -21.0185 26008.6 -03516.6 -07.7002 26245.3
 09 12 2013  01 29  -21.0187 26008.5 -03516.5 -07.7001 26245.2
 09 12 2013  01 30  -21.0189 26008.6 -03516.6 -07.7001 26245.2
 09 12 2013  01 31  -21.0190 26008.6 -03516.6 -07.7001 26245.2
 09 12 2013  01 32  -21.0192 26008.7 -03516.6 -07.7002 26245.3
 09 12 2013  01 33  -21.0194 26008.8 -03516.7 -07.7003 26245.4
 09 12 2013  01 34  -21.0195 26008.8 -03516.7 -07.7003 26245.5
 09 12 2013  01 35  -21.0197 26008.9 -03516.7 -07.7003 26245.5
 09 12 2013  01 36  -21.0198 26008.8 -03516.7 -07.7003 26245.5
 09 12 2013  01 37  -21.0199 26008.8 -03516.6 -07.7001 26245.4
 09 12 2013  01 38  -21.0199 26008.9 -03516.6 -07.7001 26245.5
 09 12 2013  01 39  -21.0200 26008.9 -03516.6 -07.7001 26245.6
 09 12 2013  01 40  -21.0199 26008.9 -03516.5 -07.7000 26245.5
 09 12 2013  01 41  -21.0200 26008.8 -03516.5 -07.6999 26245.5
 09 12 2013  01 42  -21.0204 26008.9 -03516.6 -07.7000 26245.6
 09 12 2013  01 43  -21.0206 26008.9 -03516.5 -07.6999 26245.6
 09 12 2013  01 44  -21.0206 26008.9 -03516.4 -07.6997 26245.5
 09 12 2013  01 45  -21.0205 26008.9 -03516.4 -07.6997 26245.6
 09 12 2013  01 46  -21.0205 26009.1 -03516.4 -07.6997 26245.7
 09 12 2013  01 47  -21.0206 26009.2 -03516.5 -07.6998 26245.9
 09 12 2013  01 48  -21.0207 26009.3 -03516.5 -07.6998 26246.0
 09 12 2013  01 49  -21.0208 26009.5 -03516.5 -07.6998 26246.1
 09 12 2013  01 50  -21.0209 26009.7 -03516.6 -07.6999 26246.3
 09 12 2013  01 51  -21.0210 26009.9 -03516.7 -07.6999 26246.5
 09 12 2013  01 52  -21.0210 26010.0 -03516.6 -07.6999 26246.6
 09 12 2013  01 53  -21.0211 26010.1 -03516.7 -07.6999 26246.8
 09 12 2013  01 54  -21.0212 26010.3 -03516.7 -07.6999 26247.0
 09 12 2013  01 55  -21.0213 26010.3 -03516.7 -07.6998 26247.0
 09 12 2013  01 56  -21.0212 26010.4 -03516.6 -07.6997 26247.0
 09 12 2013  01 57  -21.0212 26010.5 -03516.6 -07.6997 26247.2
 09 12 2013  01 58  -21.0210 26010.7 -03516.6 -07.6996 26247.3
 09 12 2013  01 59  -21.0209 26010.8 -03516.6 -07.6996 26247.4
 09 12 2013  02 00  -21.0208 26010.9 -03516.6 -07.6996 26247.6
 09 12 2013  02 01  -21.0206 26011.0 -03516.7 -07.6996 26247.7
 09 12 2013  02 02  -21.0203 26011.1 -03516.6 -07.6995 26247.7
 09 12 2013  02 03  -21.0199 26011.1 -03516.6 -07.6995 26247.8
 09 12 2013  02 04  -21.0196 26011.1 -03516.6 -07.6994 26247.7
 09 12 2013  02 05  -21.0194 26011.1 -03516.5 -07.6993 26247.7
 09 12 2013  02 06  -21.0193 26011.2 -03516.5 -07.6993 26247.8
 09 12 2013  02 07  -21.0192 26011.4 -03516.6 -07.6994 26248.0
 09 12 2013  02 08  -21.0190 26011.5 -03516.7 -07.6996 26248.2
 09 12 2013  02 09  -21.0186 26011.7 -03516.8 -07.6996 26248.4
 09 12 2013  02 10  -21.0184 26012.0 -03516.9 -07.6998 26248.6
 09 12 2013  02 11  -21.0180 26012.2 -03517.0 -07.6999 26248.9
 09 12 2013  02 12  -21.0178 26012.2 -03517.0 -07.6999 26248.9
 09 12 2013  02 13  -21.0177 26012.0 -03516.9 -07.6998 26248.7
 09 12 2013  02 14  -21.0177 26012.0 -03516.8 -07.6997 26248.7
 09 12 2013  02 15  -21.0178 26012.1 -03516.9 -07.6999 26248.7
 09 12 2013  02 16  -21.0178 26012.4 -03517.0 -07.7001 26249.0
 09 12 2013  02 17  -21.0179 26012.7 -03517.2 -07.7003 26249.4
 09 12 2013  02 18  -21.0180 26013.0 -03517.4 -07.7006 26249.7
 09 12 2013  02 19  -21.0180 26013.2 -03517.5 -07.7007 26249.9
 09 12 2013  02 20  -21.0178 26013.1 -03517.4 -07.7006 26249.9
 09 12 2013  02 21  -21.0176 26013.0 -03517.3 -07.7005 26249.8
 09 12 2013  02 22  -21.0173 26012.9 -03517.2 -07.7003 26249.6
 09 12 2013  02 23  -21.0168 26012.7 -03517.1 -07.7002 26249.4
 09 12 2013  02 24  -21.0165 26012.5 -03517.0 -07.6999 26249.1
 09 12 2013  02 25  -21.0160 26012.2 -03516.9 -07.6998 26248.8
 09 12 2013  02 26  -21.0158 26011.9 -03516.8 -07.6996 26248.5
 09 12 2013  02 27  -21.0159 26011.7 -03516.7 -07.6996 26248.3
 09 12 2013  02 28  -21.0163 26011.7 -03516.8 -07.6998 26248.4
 09 12 2013  02 29  -21.0169 26011.9 -03517.0 -07.7000 26248.6
 09 12 2013  02 30  -21.0173 26012.2 -03517.2 -07.7004 26248.9
 09 12 2013  02 31  -21.0175 26012.4 -03517.3 -07.7006 26249.1
 09 12 2013  02 32  -21.0174 26012.4 -03517.3 -07.7007 26249.2
 09 12 2013  02 33  -21.0174 26012.5 -03517.3 -07.7006 26249.2
 09 12 2013  02 34  -21.0179 26012.6 -03517.4 -07.7007 26249.3
 09 12 2013  02 35  -21.0185 26012.9 -03517.6 -07.7010 26249.7
 09 12 2013  02 36  -21.0192 26013.3 -03517.8 -07.7013 26250.1
 09 12 2013  02 37  -21.0196 26013.6 -03517.9 -07.7015 26250.4
 09 12 2013  02 38  -21.0197 26013.6 -03517.9 -07.7014 26250.4
 09 12 2013  02 39  -21.0195 26013.6 -03517.8 -07.7013 26250.4
 09 12 2013  02 40  -21.0193 26013.6 -03517.7 -07.7011 26250.4
 09 12 2013  02 41  -21.0193 26013.3 -03517.5 -07.7008 26250.0
 09 12 2013  02 42  -21.0191 26012.8 -03517.2 -07.7003 26249.5
 09 12 2013  02 43  -21.0185 26012.2 -03516.9 -07.6998 26248.8
 09 12 2013  02 44  -21.0181 26011.5 -03516.6 -07.6993 26248.2
 09 12 2013  02 45  -21.0180 26011.1 -03516.4 -07.6989 26247.7
 09 12 2013  02 46  -21.0180 26010.6 -03516.2 -07.6987 26247.2
 09 12 2013  02 47  -21.0180 26010.3 -03516.1 -07.6986 26246.8
 09 12 2013  02 48  -21.0183 26010.1 -03516.0 -07.6985 26246.6
 09 12 2013  02 49  -21.0188 26010.0 -03516.1 -07.6987 26246.6
 09 12 2013  02 50  -21.0193 26010.1 -03516.2 -07.6989 26246.7
 09 12 2013  02 51  -21.0198 26010.3 -03516.3 -07.6991 26246.9
 09 12 2013  02 52  -21.0204 26010.5 -03516.5 -07.6993 26247.1
 09 12 2013  02 53  -21.0210 26010.8 -03516.6 -07.6996 26247.4
 09 12 2013  02 54  -21.0214 26011.0 -03516.7 -07.6997 26247.7
 09 12 2013  02 55  -21.0218 26011.1 -03516.7 -07.6998 26247.8
 09 12 2013  02 56  -21.0220 26011.1 -03516.7 -07.6997 26247.8
 09 12 2013  02 57  -21.0219 26011.1 -03516.6 -07.6995 26247.7
 09 12 2013  02 58  -21.0220 26011.0 -03516.6 -07.6994 26247.7
 09 12 2013  02 59  -21.0220 26011.0 -03516.5 -07.6993 26247.6
 09 12 2013  03 00  -21.0222 26011.1 -03516.5 -07.6992 26247.7
 09 12 2013  03 01  -21.0223 26011.1 -03516.5 -07.6993 26247.7
 09 12 2013  03 02  -21.0225 26011.1 -03516.5 -07.6992 26247.8
 09 12 2013  03 03  -21.0226 26011.3 -03516.5 -07.6992 26247.9
 09 12 2013  03 04  -21.0227 26011.3 -03516.5 -07.6992 26248.0
 09 12 2013  03 05  -21.0227 26011.3 -03516.5 -07.6991 26247.9
 09 12 2013  03 06  -21.0228 26011.4 -03516.5 -07.6992 26248.0
 09 12 2013  03 07  -21.0228 26011.5 -03516.5 -07.6991 26248.1
 09 12 2013  03 08  -21.0228 26011.5 -03516.5 -07.6991 26248.1
 09 12 2013  03 09  -21.0229 26011.5 -03516.5 -07.6991 26248.1
 09 12 2013  03 10  -21.0228 26011.5 -03516.4 -07.6990 26248.1
 09 12 2013  03 11  -21.0228 26011.6 -03516.4 -07.6989 26248.2
 09 12 2013  03 12  -21.0227 26011.6 -03516.4 -07.6989 26248.2
 09 12 2013  03 13  -21.0227 26011.7 -03516.4 -07.6990 26248.3
 09 12 2013  03 14  -21.0226 26011.8 -03516.5 -07.6990 26248.4
 09 12 2013  03 15  -21.0226 26011.8 -03516.5 -07.6990 26248.4
 09 12 2013  03 16  -21.0224 26011.7 -03516.4 -07.6988 26248.4
 09 12 2013  03 17  -21.0221 26011.7 -03516.3 -07.6987 26248.3
 09 12 2013  03 18  -21.0219 26011.7 -03516.3 -07.6986 26248.3
 09 12 2013  03 19  -21.0217 26011.6 -03516.3 -07.6986 26248.2
 09 12 2013  03 20  -21.0216 26011.5 -03516.2 -07.6985 26248.0
 09 12 2013  03 21  -21.0216 26011.4 -03516.2 -07.6984 26248.0
 09 12 2013  03 22  -21.0215 26011.4 -03516.1 -07.6984 26248.0
 09 12 2013  03 23  -21.0214 26011.2 -03516.1 -07.6984 26247.8
 09 12 2013  03 24  -21.0212 26011.2 -03516.1 -07.6984 26247.8
 09 12 2013  03 25  -21.0211 26011.2 -03516.1 -07.6983 26247.8
 09 12 2013  03 26  -21.0212 26011.2 -03516.1 -07.6983 26247.8
 09 12 2013  03 27  -21.0212 26011.3 -03516.1 -07.6984 26247.9
 09 12 2013  03 28  -21.0212 26011.3 -03516.1 -07.6984 26247.9
 09 12 2013  03 29  -21.0212 26011.3 -03516.2 -07.6985 26247.9
 09 12 2013  03 30  -21.0211 26011.3 -03516.1 -07.6984 26247.9
 09 12 2013  03 31  -21.0210 26011.3 -03516.1 -07.6983 26247.8
 09 12 2013  03 32  -21.0210 26011.3 -03516.1 -07.6983 26247.9
 09 12 2013  03 33  -21.0211 26011.4 -03516.2 -07.6984 26248.0
 09 12 2013  03 34  -21.0209 26011.6 -03516.2 -07.6984 26248.1
 09 12 2013  03 35  -21.0209 26011.8 -03516.3 -07.6986 26248.4
 09 12 2013  03 36  -21.0209 26012.0 -03516.4 -07.6988 26248.6
 09 12 2013  03 37  -21.0207 26012.3 -03516.5 -07.6989 26248.9
 09 12 2013  03 38  -21.0203 26012.5 -03516.6 -07.6991 26249.1
 09 12 2013  03 39  -21.0201 26012.4 -03516.5 -07.6989 26249.0
 09 12 2013  03 40  -21.0201 26012.6 -03516.6 -07.6990 26249.2
 09 12 2013  03 41  -21.0203 26012.6 -03516.6 -07.6990 26249.2
 09 12 2013  03 42  -21.0204 26012.5 -03516.5 -07.6989 26249.2
 09 12 2013  03 43  -21.0202 26012.5 -03516.4 -07.6987 26249.1
 09 12 2013  03 44  -21.0199 26012.3 -03516.3 -07.6985 26248.9
 09 12 2013  03 45  -21.0197 26012.3 -03516.2 -07.6983 26248.8
 09 12 2013  03 46  -21.0196 26012.3 -03516.2 -07.6983 26248.9
 09 12 2013  03 47  -21.0195 26012.4 -03516.3 -07.6984 26249.0
 09 12 2013  03 48  -21.0193 26012.3 -03516.2 -07.6983 26248.9
 09 12 2013  03 49  -21.0189 26012.4 -03516.2 -07.6983 26249.0
 09 12 2013  03 50  -21.0186 26012.5 -03516.3 -07.6983 26249.1
 09 12 2013  03 51  -21.0184 26012.5 -03516.3 -07.6984 26249.1
 09 12 2013  03 52  -21.0181 26012.5 -03516.3 -07.6984 26249.0
 09 12 2013  03 53  -21.0178 26012.5 -03516.3 -07.6984 26249.1
 09 12 2013  03 54  -21.0178 26012.4 -03516.3 -07.6984 26249.0
 09 12 2013  03 55  -21.0179 26012.4 -03516.3 -07.6984 26249.0
 09 12 2013  03 56  -21.0180 26012.5 -03516.3 -07.6985 26249.1
 09 12 2013  03 57  -21.0180 26012.6 -03516.4 -07.6986 26249.2
 09 12 2013  03 58  -21.0180 26012.6 -03516.4 -07.6986 26249.2
 09 12 2013  03 59  -21.0180 26012.5 -03516.4 -07.6986 26249.1
 09 12 2013  04 00  -21.0180 26012.4 -03516.3 -07.6984 26249.0
 09 12 2013  04 01  -21.0181 26012.3 -03516.2 -07.6983 26248.9
 09 12 2013  04 02  -21.0182 26012.2 -03516.2 -07.6982 26248.8
 09 12 2013  04 03  -21.0184 26012.2 -03516.2 -07.6982 26248.8
 09 12 2013  04 04  -21.0186 26012.3 -03516.2 -07.6982 26248.9
 09 12 2013  04 05  -21.0188 26012.3 -03516.2 -07.6984 26248.9
 09 12 2013  04 06  -21.0189 26012.3 -03516.2 -07.6983 26248.8
 09 12 2013  04 07  -21.0190 26012.3 -03516.2 -07.6983 26248.9
 09 12 2013  04 08  -21.0191 26012.3 -03516.2 -07.6983 26248.9
 09 12 2013  04 09  -21.0191 26012.4 -03516.2 -07.6983 26248.9
 09 12 2013  04 10  -21.0191 26012.4 -03516.3 -07.6983 26249.0
 09 12 2013  04 11  -21.0190 26012.5 -03516.2 -07.6983 26249.1
 09 12 2013  04 12  -21.0190 26012.5 -03516.3 -07.6984 26249.1
 09 12 2013  04 13  -21.0190 26012.5 -03516.2 -07.6983 26249.0
 09 12 2013  04 14  -21.0192 26012.5 -03516.2 -07.6983 26249.1
 09 12 2013  04 15  -21.0192 26012.5 -03516.3 -07.6983 26249.1
 09 12 2013  04 16  -21.0192 26012.5 -03516.2 -07.6982 26249.0
 09 12 2013  04 17  -21.0192 26012.5 -03516.2 -07.6982 26249.1
 09 12 2013  04 18  -21.0194 26012.6 -03516.2 -07.6982 26249.1
 09 12 2013  04 19  -21.0196 26012.7 -03516.3 -07.6983 26249.3
 09 12 2013  04 20  -21.0197 26012.8 -03516.3 -07.6983 26249.4
 09 12 2013  04 21  -21.0197 26012.8 -03516.3 -07.6983 26249.4
 09 12 2013  04 22  -21.0199 26012.8 -03516.3 -07.6983 26249.4
 09 12 2013  04 23  -21.0201 26013.0 -03516.3 -07.6983 26249.5
 09 12 2013  04 24  -21.0202 26013.1 -03516.4 -07.6984 26249.7
 09 12 2013  04 25  -21.0201 26013.1 -03516.4 -07.6984 26249.7
 09 12 2013  04 26  -21.0199 26013.0 -03516.3 -07.6982 26249.6
 09 12 2013  04 27  -21.0198 26013.0 -03516.2 -07.6981 26249.5
 09 12 2013  04 28  -21.0197 26013.0 -03516.2 -07.6980 26249.5
 09 12 2013  04 29  -21.0196 26012.9 -03516.1 -07.6980 26249.5
 09 12 2013  04 30  -21.0197 26013.0 -03516.2 -07.6980 26249.5
 09 12 2013  04 31  -21.0198 26013.0 -03516.2 -07.6980 26249.5
 09 12 2013  04 32  -21.0198 26012.8 -03516.1 -07.6978 26249.3
 09 12 2013  04 33  -21.0198 26012.6 -03515.9 -07.6975 26249.1
 09 12 2013  04 34  -21.0198 26012.4 -03515.8 -07.6974 26248.9
 09 12 2013  04 35  -21.0200 26012.4 -03515.8 -07.6974 26248.9
 09 12 2013  04 36  -21.0203 26012.5 -03515.9 -07.6975 26249.1
 09 12 2013  04 37  -21.0206 26012.7 -03516.0 -07.6977 26249.2
 09 12 2013  04 38  -21.0208 26012.8 -03516.0 -07.6977 26249.3
 09 12 2013  04 39  -21.0211 26012.8 -03516.0 -07.6977 26249.4
 09 12 2013  04 40  -21.0212 26012.8 -03516.0 -07.6977 26249.4
 09 12 2013  04 41  -21.0210 26012.9 -03516.0 -07.6976 26249.5
 09 12 2013  04 42  -21.0207 26013.2 -03516.1 -07.6978 26249.8
 09 12 2013  04 43  -21.0206 26013.4 -03516.2 -07.6979 26250.0
 09 12 2013  04 44  -21.0208 26013.6 -03516.3 -07.6980 26250.1
 09 12 2013  04 45  -21.0208 26013.7 -03516.3 -07.6980 26250.2
 09 12 2013  04 46  -21.0205 26013.8 -03516.3 -07.6980 26250.4
 09 12 2013  04 47  -21.0201 26013.9 -03516.3 -07.6981 26250.5
 09 12 2013  04 48  -21.0198 26013.9 -03516.3 -07.6980 26250.5
 09 12 2013  04 49  -21.0197 26013.9 -03516.3 -07.6980 26250.5
 09 12 2013  04 50  -21.0197 26013.9 -03516.3 -07.6979 26250.4
 09 12 2013  04 51  -21.0197 26013.8 -03516.2 -07.6978 26250.3
 09 12 2013  04 52  -21.0198 26013.6 -03516.1 -07.6977 26250.1
 09 12 2013  04 53  -21.0197 26013.4 -03516.0 -07.6975 26250.0
 09 12 2013  04 54  -21.0198 26013.4 -03516.0 -07.6974 26249.9
 09 12 2013  04 55  -21.0200 26013.4 -03516.0 -07.6975 26249.9
 09 12 2013  04 56  -21.0201 26013.4 -03516.0 -07.6975 26250.0
 09 12 2013  04 57  -21.0202 26013.6 -03516.1 -07.6976 26250.1
 09 12 2013  04 58  -21.0202 26013.7 -03516.2 -07.6977 26250.2
 09 12 2013  04 59  -21.0202 26013.8 -03516.2 -07.6979 26250.4
 09 12 2013  05 00  -21.0201 26013.9 -03516.3 -07.6980 26250.5
 09 12 2013  05 01  -21.0201 26014.0 -03516.4 -07.6981 26250.6
 09 12 2013  05 02  -21.0200 26014.2 -03516.4 -07.6982 26250.8
 09 12 2013  05 03  -21.0200 26014.5 -03516.6 -07.6984 26251.1
 09 12 2013  05 04  -21.0200 26014.6 -03516.6 -07.6985 26251.2
 09 12 2013  05 05  -21.0201 26014.9 -03516.7 -07.6987 26251.5
 09 12 2013  05 06  -21.0201 26015.1 -03516.9 -07.6989 26251.7
 09 12 2013  05 07  -21.0200 26015.3 -03516.9 -07.6989 26251.9
 09 12 2013  05 08  -21.0198 26015.3 -03516.9 -07.6990 26251.9
 09 12 2013  05 09  -21.0197 26015.2 -03516.9 -07.6989 26251.9
 09 12 2013  05 10  -21.0197 26015.1 -03516.8 -07.6988 26251.8
 09 12 2013  05 11  -21.0196 26014.9 -03516.7 -07.6985 26251.5
 09 12 2013  05 12  -21.0196 26014.8 -03516.6 -07.6984 26251.4
 09 12 2013  05 13  -21.0197 26014.8 -03516.6 -07.6984 26251.4
 09 12 2013  05 14  -21.0200 26014.9 -03516.6 -07.6984 26251.5
 09 12 2013  05 15  -21.0202 26014.9 -03516.7 -07.6986 26251.5
 09 12 2013  05 16  -21.0203 26014.9 -03516.7 -07.6986 26251.5
 09 12 2013  05 17  -21.0205 26015.0 -03516.7 -07.6986 26251.6
 09 12 2013  05 18  -21.0206 26014.9 -03516.7 -07.6985 26251.5
 09 12 2013  05 19  -21.0207 26015.0 -03516.7 -07.6986 26251.6
 09 12 2013  05 20  -21.0208 26015.0 -03516.7 -07.6986 26251.6
 09 12 2013  05 21  -21.0209 26015.1 -03516.8 -07.6987 26251.7
 09 12 2013  05 22  -21.0209 26015.1 -03516.8 -07.6988 26251.8
 09 12 2013  05 23  -21.0210 26015.1 -03516.8 -07.6987 26251.8
 09 12 2013  05 24  -21.0209 26015.2 -03516.8 -07.6988 26251.8
 09 12 2013  05 25  -21.0208 26015.2 -03516.9 -07.6988 26251.9
 09 12 2013  05 26  -21.0208 26015.1 -03516.8 -07.6987 26251.8
 09 12 2013  05 27  -21.0209 26015.2 -03516.9 -07.6988 26251.9
 09 12 2013  05 28  -21.0210 26015.3 -03516.9 -07.6989 26251.9
 09 12 2013  05 29  -21.0210 26015.3 -03516.9 -07.6990 26251.9
 09 12 2013  05 30  -21.0209 26015.3 -03516.9 -07.6988 26251.9
 09 12 2013  05 31  -21.0209 26015.3 -03516.9 -07.6988 26251.9
 09 12 2013  05 32  -21.0209 26015.3 -03516.9 -07.6989 26252.0
 09 12 2013  05 33  -21.0211 26015.1 -03516.9 -07.6988 26251.8
 09 12 2013  05 34  -21.0212 26015.3 -03516.9 -07.6990 26251.9
 09 12 2013  05 35  -21.0213 26015.5 -03517.0 -07.6991 26252.1
 09 12 2013  05 36  -21.0214 26015.5 -03517.0 -07.6991 26252.2
 09 12 2013  05 37  -21.0214 26015.7 -03517.1 -07.6992 26252.4
 09 12 2013  05 38  -21.0215 26015.8 -03517.2 -07.6993 26252.4
 09 12 2013  05 39  -21.0213 26015.9 -03517.2 -07.6993 26252.5
 09 12 2013  05 40  -21.0212 26016.0 -03517.2 -07.6994 26252.7
 09 12 2013  05 41  -21.0212 26016.1 -03517.3 -07.6996 26252.8
 09 12 2013  05 42  -21.0211 26016.0 -03517.3 -07.6995 26252.7
 09 12 2013  05 43  -21.0210 26015.9 -03517.2 -07.6994 26252.6
 09 12 2013  05 44  -21.0210 26015.7 -03517.1 -07.6992 26252.4
 09 12 2013  05 45  -21.0211 26015.6 -03517.0 -07.6991 26252.2
 09 12 2013  05 46  -21.0214 26015.5 -03517.0 -07.6991 26252.2
 09 12 2013  05 47  -21.0216 26015.4 -03517.0 -07.6991 26252.1
 09 12 2013  05 48  -21.0219 26015.4 -03517.0 -07.6991 26252.0
 09 12 2013  05 49  -21.0221 26015.4 -03517.0 -07.6991 26252.0
 09 12 2013  05 50  -21.0223 26015.5 -03517.1 -07.6992 26252.2
 09 12 2013  05 51  -21.0224 26015.6 -03517.1 -07.6993 26252.3
 09 12 2013  05 52  -21.0225 26015.7 -03517.2 -07.6994 26252.4
 09 12 2013  05 53  -21.0227 26015.8 -03517.3 -07.6996 26252.5
 09 12 2013  05 54  -21.0227 26015.9 -03517.3 -07.6996 26252.6
 09 12 2013  05 55  -21.0227 26015.9 -03517.3 -07.6996 26252.6
 09 12 2013  05 56  -21.0228 26016.0 -03517.3 -07.6996 26252.7
 09 12 2013  05 57  -21.0228 26016.0 -03517.3 -07.6996 26252.7
 09 12 2013  05 58  -21.0229 26016.0 -03517.3 -07.6996 26252.7
 09 12 2013  05 59  -21.0229 26016.0 -03517.3 -07.6996 26252.7
 09 12 2013  06 00  -21.0230 26015.9 -03517.3 -07.6995 26252.6
 09 12 2013  06 01  -21.0230 26015.9 -03517.2 -07.6995 26252.6
 09 12 2013  06 02  -21.0231 26015.8 -03517.2 -07.6995 26252.5
 09 12 2013  06 03  -21.0234 26015.8 -03517.2 -07.6993 26252.4
 09 12 2013  06 04  -21.0236 26015.7 -03517.1 -07.6993 26252.4
 09 12 2013  06 05  -21.0239 26015.7 -03517.2 -07.6993 26252.3
 09 12 2013  06 06  -21.0240 26015.6 -03517.1 -07.6993 26252.3
 09 12 2013  06 07  -21.0241 26015.5 -03517.1 -07.6992 26252.2
 09 12 2013  06 08  -21.0243 26015.4 -03517.0 -07.6991 26252.1
 09 12 2013  06 09  -21.0244 26015.4 -03517.0 -07.6990 26252.0
 09 12 2013  06 10  -21.0246 26015.3 -03517.0 -07.6990 26252.0
 09 12 2013  06 11  -21.0250 26015.3 -03517.0 -07.6990 26252.0
 09 12 2013  06 12  -21.0253 26015.4 -03517.0 -07.6991 26252.1
 09 12 2013  06 13  -21.0256 26015.4 -03517.0 -07.6991 26252.1
 09 12 2013  06 14  -21.0258 26015.5 -03517.0 -07.6991 26252.2
 09 12 2013  06 15  -21.0259 26015.5 -03517.1 -07.6992 26252.2
 09 12 2013  06 16  -21.0261 26015.5 -03517.0 -07.6990 26252.2
 09 12 2013  06 17  -21.0262 26015.5 -03517.0 -07.6991 26252.2
 09 12 2013  06 18  -21.0262 26015.6 -03517.0 -07.6990 26252.3
 09 12 2013  06 19  -21.0263 26015.6 -03517.1 -07.6991 26252.3
 09 12 2013  06 20  -21.0264 26015.6 -03517.1 -07.6992 26252.3
 09 12 2013  06 21  -21.0264 26015.7 -03517.1 -07.6992 26252.3
 09 12 2013  06 22  -21.0264 26015.6 -03517.0 -07.6991 26252.3
 09 12 2013  06 23  -21.0265 26015.6 -03517.0 -07.6991 26252.2
 09 12 2013  06 24  -21.0267 26015.6 -03517.0 -07.6990 26252.2
 09 12 2013  06 25  -21.0269 26015.5 -03517.0 -07.6990 26252.2
 09 12 2013  06 26  -21.0272 26015.6 -03517.0 -07.6990 26252.3
 09 12 2013  06 27  -21.0274 26015.7 -03517.0 -07.6991 26252.3
 09 12 2013  06 28  -21.0275 26015.7 -03517.0 -07.6991 26252.4
 09 12 2013  06 29  -21.0277 26015.7 -03517.0 -07.6990 26252.3
 09 12 2013  06 30  -21.0278 26015.7 -03517.0 -07.6990 26252.3
 09 12 2013  06 31  -21.0278 26015.7 -03517.0 -07.6990 26252.4
 09 12 2013  06 32  -21.0279 26015.8 -03517.0 -07.6990 26252.5
 09 12 2013  06 33  -21.0282 26015.8 -03517.0 -07.6990 26252.5
 09 12 2013  06 34  -21.0284 26015.8 -03517.0 -07.6990 26252.4
 09 12 2013  06 35  -21.0284 26015.5 -03516.8 -07.6987 26252.2
 09 12 2013  06 36  -21.0282 26015.3 -03516.6 -07.6983 26251.9
 09 12 2013  06 37  -21.0281 26015.1 -03516.6 -07.6982 26251.7
 09 12 2013  06 38  -21.0281 26015.1 -03516.5 -07.6981 26251.7
 09 12 2013  06 39  -21.0282 26015.3 -03516.6 -07.6983 26251.9
 09 12 2013  06 40  -21.0284 26015.4 -03516.7 -07.6984 26252.0
 09 12 2013  06 41  -21.0286 26015.5 -03516.7 -07.6985 26252.1
 09 12 2013  06 42  -21.0286 26015.6 -03516.8 -07.6986 26252.2
 09 12 2013  06 43  -21.0287 26015.6 -03516.8 -07.6987 26252.2
 09 12 2013  06 44  -21.0287 26015.6 -03516.8 -07.6987 26252.2
 09 12 2013  06 45  -21.0289 26015.6 -03516.8 -07.6987 26252.2
 09 12 2013  06 46  -21.0291 26015.5 -03516.8 -07.6986 26252.1
 09 12 2013  06 47  -21.0294 26015.5 -03516.8 -07.6987 26252.2
 09 12 2013  06 48  -21.0297 26015.6 -03516.8 -07.6987 26252.2
 09 12 2013  06 49  -21.0300 26015.6 -03516.8 -07.6987 26252.3
 09 12 2013  06 50  -21.0302 26015.7 -03516.8 -07.6987 26252.4
 09 12 2013  06 51  -21.0304 26015.8 -03516.9 -07.6987 26252.4
 09 12 2013  06 52  -21.0306 26015.8 -03516.9 -07.6987 26252.4
 09 12 2013  06 53  -21.0307 26015.7 -03516.9 -07.6987 26252.4
 09 12 2013  06 54  -21.0308 26015.7 -03516.8 -07.6987 26252.3
 09 12 2013  06 55  -21.0308 26015.6 -03516.8 -07.6986 26252.3
 09 12 2013  06 56  -21.0307 26015.5 -03516.8 -07.6985 26252.1
 09 12 2013  06 57  -21.0306 26015.3 -03516.6 -07.6983 26251.9
 09 12 2013  06 58  -21.0307 26015.2 -03516.6 -07.6982 26251.8
 09 12 2013  06 59  -21.0308 26015.0 -03516.5 -07.6981 26251.6
 09 12 2013  07 00  -21.0308 26015.0 -03516.5 -07.6981 26251.6
 09 12 2013  07 01  -21.0307 26015.1 -03516.6 -07.6983 26251.7
 09 12 2013  07 02  -21.0308 26015.1 -03516.6 -07.6982 26251.7
 09 12 2013  07 03  -21.0306 26015.2 -03516.6 -07.6983 26251.8
 09 12 2013  07 04  -21.0306 26015.3 -03516.7 -07.6984 26251.9
 09 12 2013  07 05  -21.0305 26015.4 -03516.7 -07.6985 26252.0
 09 12 2013  07 06  -21.0305 26015.3 -03516.8 -07.6986 26251.9
 09 12 2013  07 07  -21.0303 26015.3 -03516.7 -07.6985 26251.9
 09 12 2013  07 08  -21.0301 26015.3 -03516.7 -07.6984 26251.9
 09 12 2013  07 09  -21.0300 26015.3 -03516.7 -07.6984 26251.9
 09 12 2013  07 10  -21.0299 26015.3 -03516.6 -07.6983 26251.9
 09 12 2013  07 11  -21.0299 26015.4 -03516.7 -07.6984 26252.0
 09 12 2013  07 12  -21.0301 26015.4 -03516.7 -07.6984 26252.0
 09 12 2013  07 13  -21.0302 26015.5 -03516.7 -07.6985 26252.1
 09 12 2013  07 14  -21.0302 26015.5 -03516.8 -07.6986 26252.2
 09 12 2013  07 15  -21.0301 26015.6 -03516.8 -07.6985 26252.2
 09 12 2013  07 16  -21.0300 26015.6 -03516.8 -07.6986 26252.2
 09 12 2013  07 17  -21.0299 26015.6 -03516.8 -07.6985 26252.2
 09 12 2013  07 18  -21.0299 26015.6 -03516.8 -07.6985 26252.3
 09 12 2013  07 19  -21.0300 26015.6 -03516.7 -07.6984 26252.3
 09 12 2013  07 20  -21.0302 26015.8 -03516.8 -07.6985 26252.4
 09 12 2013  07 21  -21.0304 26015.8 -03516.8 -07.6986 26252.4
 09 12 2013  07 22  -21.0304 26015.9 -03516.9 -07.6986 26252.5
 09 12 2013  07 23  -21.0305 26015.9 -03516.8 -07.6986 26252.5
 09 12 2013  07 24  -21.0306 26016.0 -03516.8 -07.6986 26252.6
 09 12 2013  07 25  -21.0306 26016.0 -03516.9 -07.6986 26252.7
 09 12 2013  07 26  -21.0306 26016.2 -03516.9 -07.6987 26252.8
 09 12 2013  07 27  -21.0306 26016.3 -03517.0 -07.6987 26252.9
 09 12 2013  07 28  -21.0307 26016.3 -03516.9 -07.6987 26252.9
 09 12 2013  07 29  -21.0307 26016.2 -03516.9 -07.6986 26252.9
 09 12 2013  07 30  -21.0306 26016.2 -03516.9 -07.6985 26252.9
 09 12 2013  07 31  -21.0306 26016.2 -03516.8 -07.6984 26252.8
 09 12 2013  07 32  -21.0307 26016.2 -03516.8 -07.6984 26252.8
 09 12 2013  07 33  -21.0308 26016.1 -03516.8 -07.6984 26252.8
 09 12 2013  07 34  -21.0308 26016.1 -03516.8 -07.6984 26252.8
 09 12 2013  07 35  -21.0310 26016.2 -03516.8 -07.6984 26252.9
 09 12 2013  07 36  -21.0310 26016.4 -03516.9 -07.6985 26253.0
 09 12 2013  07 37  -21.0310 26016.5 -03516.9 -07.6986 26253.1
 09 12 2013  07 38  -21.0310 26016.6 -03517.0 -07.6987 26253.2
 09 12 2013  07 39  -21.0310 26016.6 -03517.0 -07.6988 26253.2
 09 12 2013  07 40  -21.0308 26016.6 -03517.0 -07.6988 26253.3
 09 12 2013  07 41  -21.0308 26016.6 -03517.1 -07.6989 26253.3
 09 12 2013  07 42  -21.0307 26016.6 -03517.1 -07.6989 26253.2
 09 12 2013  07 43  -21.0307 26016.6 -03517.1 -07.6989 26253.3
 09 12 2013  07 44  -21.0307 26016.6 -03517.1 -07.6990 26253.3
 09 12 2013  07 45  -21.0307 26016.5 -03517.0 -07.6988 26253.2
 09 12 2013  07 46  -21.0308 26016.5 -03517.1 -07.6989 26253.2
 09 12 2013  07 47  -21.0308 26016.5 -03517.1 -07.6989 26253.2
 09 12 2013  07 48  -21.0309 26016.5 -03517.0 -07.6988 26253.2
 09 12 2013  07 49  -21.0309 26016.5 -03517.0 -07.6988 26253.2
 09 12 2013  07 50  -21.0309 26016.5 -03517.0 -07.6987 26253.2
 09 12 2013  07 51  -21.0310 26016.5 -03517.0 -07.6987 26253.1
 09 12 2013  07 52  -21.0312 26016.5 -03517.0 -07.6987 26253.1
 09 12 2013  07 53  -21.0312 26016.5 -03516.9 -07.6986 26253.2
 09 12 2013  07 54  -21.0314 26016.5 -03516.9 -07.6986 26253.2
 09 12 2013  07 55  -21.0314 26016.6 -03516.9 -07.6986 26253.2
 09 12 2013  07 56  -21.0315 26016.6 -03516.9 -07.6986 26253.2
 09 12 2013  07 57  -21.0315 26016.6 -03516.9 -07.6986 26253.3
 09 12 2013  07 58  -21.0315 26016.6 -03516.9 -07.6986 26253.3
 09 12 2013  07 59  -21.0315 26016.7 -03516.9 -07.6986 26253.3
 09 12 2013  08 00  -21.0314 26016.7 -03516.9 -07.6985 26253.3
 09 12 2013  08 01  -21.0314 26016.7 -03516.9 -07.6985 26253.3
 09 12 2013  08 02  -21.0313 26016.7 -03516.9 -07.6985 26253.3
 09 12 2013  08 03  -21.0312 26016.8 -03516.9 -07.6985 26253.4
 09 12 2013  08 04  -21.0312 26016.7 -03516.9 -07.6984 26253.4
 09 12 2013  08 05  -21.0312 26016.8 -03516.9 -07.6984 26253.4
 09 12 2013  08 06  -21.0311 26016.8 -03516.8 -07.6983 26253.4
 09 12 2013  08 07  -21.0311 26016.9 -03516.8 -07.6983 26253.5
 09 12 2013  08 08  -21.0309 26016.9 -03516.8 -07.6983 26253.5
 09 12 2013  08 09  -21.0310 26016.9 -03516.8 -07.6982 26253.5
 09 12 2013  08 10  -21.0308 26016.9 -03516.8 -07.6983 26253.5
 09 12 2013  08 11  -21.0307 26016.9 -03516.7 -07.6981 26253.5
 09 12 2013  08 12  -21.0305 26016.9 -03516.7 -07.6981 26253.5
 09 12 2013  08 13  -21.0302 26016.9 -03516.7 -07.6980 26253.5
 09 12 2013  08 14  -21.0300 26016.8 -03516.6 -07.6979 26253.4
 09 12 2013  08 15  -21.0299 26016.8 -03516.6 -07.6979 26253.4
 09 12 2013  08 16  -21.0298 26016.9 -03516.6 -07.6979 26253.5
 09 12 2013  08 17  -21.0298 26016.9 -03516.6 -07.6978 26253.5
 09 12 2013  08 18  -21.0297 26016.9 -03516.5 -07.6977 26253.4
 09 12 2013  08 19  -21.0294 26016.8 -03516.5 -07.6976 26253.4
 09 12 2013  08 20  -21.0292 26016.6 -03516.4 -07.6974 26253.2
 09 12 2013  08 21  -21.0289 26016.5 -03516.3 -07.6973 26253.1
 09 12 2013  08 22  -21.0285 26016.4 -03516.2 -07.6971 26253.0
 09 12 2013  08 23  -21.0281 26016.4 -03516.2 -07.6970 26253.0
 09 12 2013  08 24  -21.0278 26016.4 -03516.2 -07.6970 26253.0
 09 12 2013  08 25  -21.0275 26016.5 -03516.2 -07.6969 26253.0
 09 12 2013  08 26  -21.0273 26016.5 -03516.2 -07.6970 26253.0
 09 12 2013  08 27  -21.0270 26016.6 -03516.2 -07.6969 26253.1
 09 12 2013  08 28  -21.0266 26016.7 -03516.2 -07.6970 26253.3
 09 12 2013  08 29  -21.0261 26016.7 -03516.2 -07.6969 26253.3
 09 12 2013  08 30  -21.0255 26016.6 -03516.1 -07.6969 26253.1
 09 12 2013  08 31  -21.0248 26016.6 -03516.1 -07.6969 26253.1
 09 12 2013  08 32  -21.0243 26016.4 -03516.1 -07.6969 26253.0
 09 12 2013  08 33  -21.0237 26016.4 -03516.2 -07.6970 26252.9
 09 12 2013  08 34  -21.0230 26016.3 -03516.2 -07.6971 26252.8
 09 12 2013  08 35  -21.0224 26016.2 -03516.2 -07.6972 26252.7
 09 12 2013  08 36  -21.0218 26016.0 -03516.3 -07.6974 26252.6
 09 12 2013  08 37  -21.0211 26015.8 -03516.3 -07.6974 26252.4
 09 12 2013  08 38  -21.0203 26015.6 -03516.3 -07.6974 26252.2
 09 12 2013  08 39  -21.0198 26015.5 -03516.4 -07.6977 26252.1
 09 12 2013  08 40  -21.0192 26015.5 -03516.5 -07.6981 26252.1
 09 12 2013  08 41  -21.0188 26015.5 -03516.8 -07.6985 26252.1
 09 12 2013  08 42  -21.0184 26015.6 -03517.0 -07.6990 26252.3
 09 12 2013  08 43  -21.0181 26015.7 -03517.2 -07.6994 26252.4
 09 12 2013  08 44  -21.0176 26015.7 -03517.4 -07.6999 26252.4
 09 12 2013  08 45  -21.0170 26015.6 -03517.5 -07.7002 26252.3
 09 12 2013  08 46  -21.0166 26015.5 -03517.7 -07.7006 26252.2
 09 12 2013  08 47  -21.0163 26015.4 -03517.9 -07.7010 26252.2
 09 12 2013  08 48  -21.0161 26015.4 -03518.1 -07.7014 26252.2
 09 12 2013  08 49  -21.0160 26015.4 -03518.3 -07.7019 26252.3
 09 12 2013  08 50  -21.0161 26015.5 -03518.5 -07.7023 26252.3
 09 12 2013  08 51  -21.0161 26015.5 -03518.7 -07.7027 26252.4
 09 12 2013  08 52  -21.0163 26015.5 -03518.9 -07.7032 26252.4
 09 12 2013  08 53  -21.0164 26015.5 -03519.1 -07.7035 26252.4
 09 12 2013  08 54  -21.0165 26015.4 -03519.2 -07.7038 26252.4
 09 12 2013  08 55  -21.0165 26015.4 -03519.3 -07.7041 26252.4
 09 12 2013  08 56  -21.0166 26015.5 -03519.6 -07.7046 26252.5
 09 12 2013  08 57  -21.0167 26015.5 -03519.8 -07.7050 26252.5
 09 12 2013  08 58  -21.0167 26015.3 -03519.9 -07.7054 26252.4
 09 12 2013  08 59  -21.0170 26015.2 -03520.0 -07.7057 26252.3
 09 12 2013  09 00  -21.0172 26015.2 -03520.2 -07.7060 26252.3
 09 12 2013  09 01  -21.0174 26015.0 -03520.3 -07.7063 26252.1
 09 12 2013  09 02  -21.0177 26014.8 -03520.4 -07.7065 26251.9
 09 12 2013  09 03  -21.0180 26014.8 -03520.5 -07.7069 26252.0
 09 12 2013  09 04  -21.0183 26014.9 -03520.8 -07.7074 26252.1
 09 12 2013  09 05  -21.0183 26015.0 -03521.0 -07.7078 26252.2
 09 12 2013  09 06  -21.0186 26014.9 -03521.1 -07.7081 26252.2
 09 12 2013  09 07  -21.0188 26014.9 -03521.2 -07.7082 26252.1
 09 12 2013  09 08  -21.0190 26015.0 -03521.4 -07.7088 26252.2
 09 12 2013  09 09  -21.0193 26015.2 -03521.7 -07.7092 26252.5
 09 12 2013  09 10  -21.0197 26015.3 -03521.7 -07.7094 26252.6
 09 12 2013  09 11  -21.0199 26015.2 -03521.9 -07.7098 26252.5
 09 12 2013  09 12  -21.0201 26015.3 -03522.1 -07.7101 26252.6
 09 12 2013  09 13  -21.0202 26015.3 -03522.2 -07.7103 26252.7
 09 12 2013  09 14  -21.0201 26015.2 -03522.3 -07.7105 26252.6
 09 12 2013  09 15  -21.0198 26015.3 -03522.1 -07.7102 26252.6
 09 12 2013  09 16  -21.0199 26015.2 -03522.6 -07.7111 26252.6
 09 12 2013  09 17  -21.0197 26015.2 -03522.8 -07.7116 26252.7
 09 12 2013  09 18  -21.0197 26015.3 -03523.0 -07.7120 26252.7
 09 12 2013  09 19  -21.0199 26015.2 -03523.1 -07.7124 26252.7
 09 12 2013  09 20  -21.0200 26015.2 -03523.3 -07.7128 26252.7
 09 12 2013  09 21  -21.0201 26015.1 -03523.5 -07.7131 26252.7
 09 12 2013  09 22  -21.0203 26015.3 -03523.7 -07.7136 26252.8
 09 12 2013  09 23  -21.0203 26015.4 -03523.9 -07.7140 26253.0
 09 12 2013  09 24  -21.0204 26015.7 -03524.2 -07.7145 26253.3
 09 12 2013  09 25  -21.0207 26015.9 -03524.4 -07.7150 26253.5
 09 12 2013  09 26  -21.0208 26015.9 -03524.5 -07.7152 26253.6
 09 12 2013  09 27  -21.0208 26015.9 -03524.6 -07.7154 26253.5
 09 12 2013  09 28  -21.0209 26015.8 -03524.7 -07.7156 26253.5
 09 12 2013  09 29  -21.0208 26015.7 -03524.7 -07.7157 26253.4
 09 12 2013  09 30  -21.0208 26015.8 -03524.8 -07.7159 26253.5
 09 12 2013  09 31  -21.0210 26015.9 -03525.0 -07.7162 26253.6
 09 12 2013  09 32  -21.0211 26016.0 -03525.1 -07.7165 26253.7
 09 12 2013  09 33  -21.0212 26016.1 -03525.3 -07.7168 26253.9
 09 12 2013  09 34  -21.0214 26016.2 -03525.4 -07.7171 26254.0
 09 12 2013  09 35  -21.0215 26016.4 -03525.6 -07.7173 26254.1
 09 12 2013  09 36  -21.0216 26016.5 -03525.7 -07.7176 26254.3
 09 12 2013  09 37  -21.0218 26016.7 -03525.9 -07.7179 26254.5
 09 12 2013  09 38  -21.0220 26016.9 -03526.0 -07.7181 26254.7
 09 12 2013  09 39  -21.0222 26017.0 -03526.1 -07.7183 26254.8
 09 12 2013  09 40  -21.0224 26017.1 -03526.2 -07.7185 26255.0
 09 12 2013  09 41  -21.0226 26017.2 -03526.3 -07.7187 26255.1
 09 12 2013  09 42  -21.0226 26017.3 -03526.4 -07.7188 26255.2
 09 12 2013  09 43  -21.0226 26017.4 -03526.5 -07.7191 26255.3
 09 12 2013  09 44  -21.0228 26017.6 -03526.7 -07.7194 26255.5
 09 12 2013  09 45  -21.0230 26017.8 -03526.9 -07.7197 26255.8
 09 12 2013  09 46  -21.0234 26018.1 -03527.1 -07.7201 26256.1
 09 12 2013  09 47  -21.0238 26018.5 -03527.3 -07.7204 26256.5
 09 12 2013  09 48  -21.0241 26018.8 -03527.4 -07.7207 26256.8
 09 12 2013  09 49  -21.0244 26018.9 -03527.5 -07.7208 26256.9
 09 12 2013  09 50  -21.0246 26018.9 -03527.5 -07.7209 26256.9
 09 12 2013  09 51  -21.0246 26018.8 -03527.6 -07.7210 26256.9
 09 12 2013  09 52  -21.0249 26019.0 -03527.8 -07.7213 26257.0
 09 12 2013  09 53  -21.0252 26019.1 -03527.9 -07.7216 26257.2
 09 12 2013  09 54  -21.0254 26019.4 -03528.1 -07.7220 26257.5
 09 12 2013  09 55  -21.0258 26019.7 -03528.3 -07.7223 26257.8
 09 12 2013  09 56  -21.0261 26019.9 -03528.5 -07.7226 26258.1
 09 12 2013  09 57  -21.0263 26020.2 -03528.7 -07.7229 26258.4
 09 12 2013  09 58  -21.0265 26020.3 -03528.8 -07.7232 26258.5
 09 12 2013  09 59  -21.0266 26020.5 -03528.9 -07.7233 26258.7
 09 12 2013  10 00  -21.0266 26020.5 -03529.0 -07.7235 26258.7
 09 12 2013  10 01  -21.0268 26020.6 -03529.1 -07.7238 26258.8
 09 12 2013  10 02  -21.0269 26020.6 -03529.2 -07.7240 26258.8
 09 12 2013  10 03  -21.0269 26020.6 -03529.4 -07.7243 26258.9
 09 12 2013  10 04  -21.0268 26020.5 -03529.5 -07.7246 26258.8
 09 12 2013  10 05  -21.0270 26020.5 -03529.7 -07.7249 26258.8
 09 12 2013  10 06  -21.0272 26020.7 -03529.9 -07.7254 26259.0
 09 12 2013  10 07  -21.0271 26020.7 -03530.0 -07.7257 26259.0
 09 12 2013  10 08  -21.0273 26020.8 -03530.3 -07.7261 26259.2
 09 12 2013  10 09  -21.0273 26020.9 -03530.4 -07.7265 26259.3
 09 12 2013  10 10  -21.0276 26021.0 -03530.6 -07.7269 26259.5
 09 12 2013  10 11  -21.0278 26021.3 -03530.9 -07.7273 26259.7
 09 12 2013  10 12  -21.0279 26021.4 -03531.0 -07.7276 26259.9
 09 12 2013  10 13  -21.0282 26021.6 -03531.2 -07.7279 26260.1
 09 12 2013  10 14  -21.0282 26021.9 -03531.4 -07.7284 26260.5
 09 12 2013  10 15  -21.0279 26022.1 -03531.6 -07.7287 26260.6
 09 12 2013  10 16  -21.0281 26022.3 -03531.8 -07.7291 26260.9
 09 12 2013  10 17  -21.0281 26022.6 -03532.0 -07.7295 26261.2
 09 12 2013  10 18  -21.0281 26022.8 -03532.2 -07.7297 26261.4
 09 12 2013  10 19  -21.0283 26023.0 -03532.4 -07.7301 26261.7
 09 12 2013  10 20  -21.0284 26023.3 -03532.5 -07.7303 26261.9
 09 12 2013  10 21  -21.0285 26023.4 -03532.6 -07.7305 26262.1
 09 12 2013  10 22  -21.0289 26023.6 -03532.7 -07.7307 26262.3
 09 12 2013  10 23  -21.0313 26023.8 -03533.0 -07.7312 26262.5
 09 12 2013  10 24  -21.0315 26023.9 -03533.1 -07.7314 26262.7
 09 12 2013  10 25  -21.0292 26024.2 -03533.1 -07.7314 26262.9
 09 12 2013  10 26  -21.0286 26024.2 -03533.2 -07.7316 26263.0
 09 12 2013  10 27  -21.0285 26024.3 -03533.4 -07.7318 26263.1
 09 12 2013  10 28  -21.0284 26024.5 -03533.5 -07.7322 26263.3
 09 12 2013  10 29  -21.0285 26024.7 -03533.7 -07.7325 26263.5
 09 12 2013  10 30  -21.0284 26024.8 -03533.9 -07.7328 26263.7
 09 12 2013  10 31  -21.0281 26024.9 -03534.0 -07.7331 26263.8
 09 12 2013  10 32  -21.0281 26025.1 -03534.2 -07.7334 26264.0
 09 12 2013  10 33  -21.0280 26025.5 -03534.4 -07.7338 26264.4
 09 12 2013  10 34  -21.0283 26025.8 -03534.6 -07.7342 26264.8
 09 12 2013  10 35  -21.0285 26025.7 -03534.6 -07.7342 26264.6
 09 12 2013  10 36  -21.0279 26025.7 -03534.8 -07.7345 26264.7
 09 12 2013  10 37  -21.0275 26026.0 -03535.1 -07.7350 26265.0
 09 12 2013  10 38  -21.0274 26026.2 -03535.3 -07.7354 26265.2
 09 12 2013  10 39  -21.0273 26026.4 -03535.5 -07.7358 26265.4
 09 12 2013  10 40  -21.0269 26026.6 -03535.7 -07.7362 26265.6
 09 12 2013  10 41  -21.0271 26027.0 -03536.0 -07.7367 26266.1
 09 12 2013  10 42  -21.0274 26027.3 -03536.2 -07.7371 26266.5
 09 12 2013  10 43  -21.0277 26027.7 -03536.4 -07.7374 26266.8
 09 12 2013  10 44  -21.0275 26027.8 -03536.5 -07.7375 26267.0
 09 12 2013  10 45  -21.0276 26028.1 -03536.6 -07.7377 26267.3
 09 12 2013  10 46  -21.0277 26028.4 -03536.8 -07.7381 26267.6
 09 12 2013  10 47  -21.0278 26028.7 -03537.0 -07.7384 26268.0
 09 12 2013  10 48  -21.0277 26029.0 -03537.0 -07.7384 26268.2
 09 12 2013  10 49  -21.0278 26029.1 -03537.2 -07.7387 26268.3
 09 12 2013  10 50  -21.0280 26029.3 -03537.3 -07.7388 26268.6
 09 12 2013  10 51  -21.0280 26029.6 -03537.4 -07.7390 26268.9
 09 12 2013  10 52  -21.0284 26029.8 -03537.4 -07.7391 26269.0
 09 12 2013  10 53  -21.0286 26030.1 -03537.6 -07.7393 26269.4
 09 12 2013  10 54  -21.0283 26030.2 -03537.5 -07.7392 26269.4
 09 12 2013  10 55  -21.0287 26030.3 -03537.6 -07.7393 26269.6
 09 12 2013  10 56  -21.0288 26030.3 -03537.6 -07.7392 26269.6
 09 12 2013  10 57  -21.0288 26030.3 -03537.6 -07.7393 26269.6
 09 12 2013  10 58  -21.0287 26030.3 -03537.6 -07.7393 26269.6
 09 12 2013  10 59  -21.0290 26030.4 -03537.7 -07.7395 26269.7
 09 12 2013  11 00  -21.0292 26030.6 -03537.8 -07.7396 26269.9
 09 12 2013  11 01  -21.0292 26030.8 -03537.9 -07.7397 26270.1
 09 12 2013  11 02  -21.0292 26031.1 -03538.0 -07.7398 26270.4
 09 12 2013  11 03  -21.0292 26031.2 -03538.0 -07.7398 26270.5
 09 12 2013  11 04  -21.0289 26031.0 -03537.9 -07.7397 26270.4
 09 12 2013  11 05  -21.0288 26031.0 -03537.9 -07.7398 26270.4
 09 12 2013  11 06  -21.0288 26031.2 -03538.1 -07.7400 26270.5
 09 12 2013  11 07  -21.0292 26031.5 -03538.3 -07.7403 26270.9
 09 12 2013  11 08  -21.0296 26031.8 -03538.4 -07.7406 26271.2
 09 12 2013  11 09  -21.0294 26032.1 -03538.5 -07.7406 26271.4
 09 12 2013  11 10  -21.0297 26032.3 -03538.6 -07.7407 26271.6
 09 12 2013  11 11  -21.0296 26032.4 -03538.6 -07.7407 26271.8
 09 12 2013  11 12  -21.0297 26032.5 -03538.6 -07.7408 26271.9
 09 12 2013  11 13  -21.0294 26032.6 -03538.7 -07.7409 26272.0
 09 12 2013  11 14  -21.0298 26032.7 -03538.7 -07.7410 26272.1
 09 12 2013  11 15  -21.0302 26033.1 -03538.9 -07.7413 26272.5
 09 12 2013  11 16  -21.0302 26033.2 -03539.0 -07.7413 26272.7
 09 12 2013  11 17  -21.0304 26033.5 -03539.0 -07.7414 26272.9
 09 12 2013  11 18  -21.0298 26033.5 -03539.1 -07.7415 26273.0
 09 12 2013  11 19  -21.0298 26033.5 -03539.2 -07.7417 26272.9
 09 12 2013  11 20  -21.0286 26033.2 -03539.2 -07.7418 26272.7
 09 12 2013  11 21  -21.0295 26033.4 -03539.4 -07.7421 26272.9
 09 12 2013  11 22  -21.0305 26034.0 -03539.7 -07.7427 26273.5
 09 12 2013  11 23  -21.0318 26034.6 -03539.9 -07.7430 26274.1
 09 12 2013  11 24  -21.0326 26034.9 -03540.0 -07.7430 26274.4
 09 12 2013  11 25  -21.0325 26034.7 -03539.8 -07.7426 26274.3
 09 12 2013  11 26  -21.0319 26034.6 -03539.6 -07.7424 26274.1
 09 12 2013  11 27  -21.0311 26034.3 -03539.5 -07.7421 26273.8
 09 12 2013  11 28  -21.0301 26034.1 -03539.4 -07.7421 26273.6
 09 12 2013  11 29  -21.0298 26034.3 -03539.5 -07.7422 26273.8
 09 12 2013  11 30  -21.0292 26034.5 -03539.6 -07.7424 26274.1
 09 12 2013  11 31  -21.0294 26035.1 -03539.8 -07.7427 26274.6
 09 12 2013  11 32  -21.0292 26035.7 -03540.0 -07.7427 26275.3
 09 12 2013  11 33  -21.0283 26036.1 -03539.9 -07.7426 26275.6
 09 12 2013  11 34  -21.0278 26036.7 -03540.0 -07.7426 26276.3
 09 12 2013  11 35  -21.0284 26037.5 -03540.2 -07.7427 26277.1
 09 12 2013  11 36  -21.0285 26038.2 -03540.2 -07.7426 26277.8
 09 12 2013  11 37  -21.0293 26039.0 -03540.2 -07.7424 26278.5
 09 12 2013  11 38  -21.0296 26039.7 -03540.2 -07.7421 26279.2
 09 12 2013  11 39  -21.0297 26039.7 -03539.9 -07.7414 26279.3
 09 12 2013  11 40  -21.0290 26039.4 -03539.4 -07.7405 26278.9
 09 12 2013  11 41  -21.0285 26039.3 -03539.2 -07.7401 26278.7
 09 12 2013  11 42  -21.0283 26039.2 -03539.1 -07.7398 26278.6
 09 12 2013  11 43  -21.0282 26039.2 -03539.1 -07.7398 26278.6
 09 12 2013  11 44  -21.0278 26039.5 -03539.1 -07.7398 26278.9
 09 12 2013  11 45  -21.0278 26039.8 -03539.2 -07.7399 26279.3
 09 12 2013  11 46  -21.0276 26040.4 -03539.3 -07.7399 26279.8
 09 12 2013  11 47  -21.0280 26041.2 -03539.4 -07.7400 26280.6
 09 12 2013  11 48  -21.0281 26041.8 -03539.5 -07.7399 26281.3
 09 12 2013  11 49  -21.0281 26042.4 -03539.4 -07.7396 26281.8
 09 12 2013  11 50  -21.0284 26042.9 -03539.3 -07.7393 26282.3
 09 12 2013  11 51  -21.0284 26043.2 -03539.1 -07.7387 26282.6
 09 12 2013  11 52  -21.0285 26043.4 -03538.9 -07.7383 26282.8
 09 12 2013  11 53  -21.0285 26043.7 -03538.8 -07.7379 26283.0
 09 12 2013  11 54  -21.0284 26043.8 -03538.6 -07.7373 26283.1
 09 12 2013  11 55  -21.0282 26043.8 -03538.3 -07.7369 26283.0
 09 12 2013  11 56  -21.0279 26043.8 -03538.2 -07.7365 26283.0
 09 12 2013  11 57  -21.0278 26043.8 -03538.0 -07.7362 26283.1
 09 12 2013  11 58  -21.0279 26044.1 -03537.9 -07.7359 26283.3
 09 12 2013  11 59  -21.0277 26044.1 -03537.8 -07.7356 26283.2
 09 12 2013  12 00  -21.0275 26044.1 -03537.6 -07.7353 26283.3
 09 12 2013  12 01  -21.0275 26044.2 -03537.5 -07.7349 26283.4
 09 12 2013  12 02  -21.0277 26044.4 -03537.3 -07.7346 26283.5
 09 12 2013  12 03  -21.0280 26044.5 -03537.2 -07.7342 26283.6
 09 12 2013  12 04  -21.0286 26044.6 -03537.0 -07.7337 26283.6
 09 12 2013  12 05  -21.0291 26044.7 -03536.9 -07.7334 26283.8
 09 12 2013  12 06  -21.0294 26044.9 -03536.6 -07.7329 26283.9
 09 12 2013  12 07  -21.0296 26044.7 -03536.3 -07.7323 26283.7
 09 12 2013  12 08  -21.0295 26044.7 -03536.1 -07.7318 26283.7
 09 12 2013  12 09  -21.0308 26044.0 -03535.6 -07.7308 26282.9
 09 12 2013  12 10  -21.0320 26043.7 -03535.5 -07.7307 26282.5
 09 12 2013  12 11  -21.0316 26043.9 -03535.5 -07.7307 26282.8
 09 12 2013  12 12  -21.0319 26043.9 -03535.4 -07.7305 26282.7
 09 12 2013  12 13  -21.0324 26043.8 -03535.3 -07.7302 26282.6
 09 12 2013  12 14  -21.0329 26043.7 -03535.2 -07.7300 26282.5
 09 12 2013  12 15  -21.0341 26043.9 -03535.1 -07.7299 26282.7
 09 12 2013  12 16  -21.0349 26044.4 -03535.2 -07.7299 26283.2
 09 12 2013  12 17  -21.0356 26044.6 -03535.0 -07.7295 26283.4
 09 12 2013  12 18  -21.0359 26044.5 -03534.8 -07.7290 26283.3
 09 12 2013  12 19  -21.0367 26044.6 -03534.6 -07.7285 26283.3
 09 12 2013  12 20  -21.0371 26044.5 -03534.3 -07.7280 26283.2
 09 12 2013  12 21  -21.0377 26044.7 -03534.1 -07.7275 26283.3
 09 12 2013  12 22  -21.0381 26044.7 -03533.9 -07.7269 26283.3
 09 12 2013  12 23  -21.0381 26044.8 -03533.6 -07.7263 26283.4
 09 12 2013  12 24  -21.0380 26045.0 -03533.4 -07.7258 26283.6
 09 12 2013  12 25  -21.0379 26044.9 -03533.1 -07.7252 26283.5
 09 12 2013  12 26  -21.0379 26044.9 -03532.9 -07.7247 26283.4
 09 12 2013  12 27  -21.0379 26045.1 -03532.7 -07.7244 26283.6
 09 12 2013  12 28  -21.0379 26045.8 -03532.8 -07.7242 26284.2
 09 12 2013  12 29  -21.0375 26046.2 -03532.6 -07.7237 26284.7
 09 12 2013  12 30  -21.0376 26046.3 -03532.2 -07.7229 26284.7
 09 12 2013  12 31  -21.0383 26046.5 -03532.0 -07.7224 26284.9
 09 12 2013  12 32  -21.0389 26047.0 -03531.9 -07.7220 26285.4
 09 12 2013  12 33  -21.0390 26047.0 -03531.5 -07.7212 26285.3
 09 12 2013  12 34  -21.0387 26046.7 -03531.0 -07.7203 26284.9
 09 12 2013  12 35  -21.0387 26046.6 -03530.7 -07.7197 26284.8
 09 12 2013  12 36  -21.0385 26046.5 -03530.5 -07.7191 26284.7
 09 12 2013  12 37  -21.0387 26047.0 -03530.5 -07.7189 26285.2
 09 12 2013  12 38  -21.0392 26047.9 -03530.6 -07.7189 26286.1
 09 12 2013  12 39  -21.0400 26048.8 -03530.6 -07.7187 26287.0
 09 12 2013  12 40  -21.0405 26049.5 -03530.5 -07.7182 26287.7
 09 12 2013  12 41  -21.0406 26049.6 -03530.0 -07.7172 26287.7
 09 12 2013  12 42  -21.0414 26049.8 -03529.6 -07.7164 26287.8
 09 12 2013  12 43  -21.0399 26050.0 -03529.3 -07.7154 26288.0
 09 12 2013  12 44  -21.0395 26050.0 -03528.9 -07.7146 26288.0
 09 12 2013  12 45  -21.0388 26050.2 -03528.6 -07.7140 26288.1
 09 12 2013  12 46  -21.0389 26050.3 -03528.3 -07.7133 26288.2
 09 12 2013  12 47  -21.0390 26050.9 -03528.2 -07.7129 26288.7
 09 12 2013  12 48  -21.0388 26050.7 -03527.7 -07.7118 26288.4
 09 12 2013  12 49  -21.0384 26050.6 -03527.3 -07.7110 26288.3
 09 12 2013  12 50  -21.0384 26050.8 -03527.0 -07.7103 26288.5
 09 12 2013  12 51  -21.0381 26050.9 -03526.7 -07.7096 26288.5
 09 12 2013  12 52  -21.0384 26050.9 -03526.3 -07.7089 26288.5
 09 12 2013  12 53  -21.0387 26051.1 -03526.1 -07.7083 26288.7
 09 12 2013  12 54  -21.0393 26051.9 -03526.1 -07.7082 26289.4
 09 12 2013  12 55  -21.0395 26052.7 -03526.1 -07.7077 26290.2
 09 12 2013  12 56  -21.0395 26053.1 -03525.8 -07.7070 26290.6
 09 12 2013  12 57  -21.0391 26053.1 -03525.3 -07.7060 26290.5
 09 12 2013  12 58  -21.0387 26052.9 -03524.8 -07.7050 26290.3
 09 12 2013  12 59  -21.0389 26052.7 -03524.4 -07.7042 26290.0
 09 12 2013  13 00  -21.0392 26052.9 -03524.3 -07.7039 26290.2
 09 12 2013  13 01  -21.0397 26053.2 -03524.2 -07.7037 26290.4
 09 12 2013  13 02  -21.0398 26053.1 -03524.0 -07.7031 26290.3
 09 12 2013  13 03  -21.0399 26053.4 -03523.9 -07.7028 26290.7
 09 12 2013  13 04  -21.0401 26053.8 -03523.7 -07.7024 26291.0
 09 12 2013  13 05  -21.0406 26054.5 -03523.8 -07.7023 26291.8
 09 12 2013  13 06  -21.0405 26054.7 -03523.5 -07.7017 26291.8
 09 12 2013  13 07  -21.0404 26055.1 -03523.4 -07.7013 26292.2
 09 12 2013  13 08  -21.0400 26055.4 -03523.2 -07.7007 26292.5
 09 12 2013  13 09  -21.0398 26055.3 -03522.9 -07.7001 26292.4
 09 12 2013  13 10  -21.0405 26055.6 -03522.8 -07.6998 26292.6
 09 12 2013  13 11  -21.0409 26056.1 -03522.7 -07.6996 26293.2
 09 12 2013  13 12  -21.0404 26056.0 -03522.3 -07.6987 26293.0
 09 12 2013  13 13  -21.0402 26055.9 -03522.0 -07.6981 26292.9
 09 12 2013  13 14  -21.0400 26055.7 -03521.7 -07.6974 26292.7
 09 12 2013  13 15  -21.0400 26055.4 -03521.4 -07.6968 26292.3
 09 12 2013  13 16  -21.0398 26055.5 -03521.2 -07.6964 26292.3
 09 12 2013  13 17  -21.0392 26055.2 -03520.8 -07.6957 26292.0
 09 12 2013  13 18  -21.0383 26055.2 -03520.7 -07.6954 26292.0
 09 12 2013  13 19  -21.0377 26055.0 -03520.4 -07.6949 26291.8
 09 12 2013  13 20  -21.0375 26054.8 -03520.2 -07.6945 26291.5
 09 12 2013  13 21  -21.0370 26054.6 -03520.0 -07.6941 26291.3
 09 12 2013  13 22  -21.0366 26054.7 -03519.9 -07.6939 26291.4
 09 12 2013  13 23  -21.0366 26055.2 -03520.0 -07.6938 26291.9
 09 12 2013  13 24  -21.0363 26055.4 -03519.8 -07.6935 26292.0
 09 12 2013  13 25  -21.0355 26055.5 -03519.6 -07.6931 26292.1
 09 12 2013  13 26  -21.0351 26055.3 -03519.4 -07.6927 26291.9
 09 12 2013  13 27  -21.0352 26055.1 -03519.3 -07.6923 26291.7
 09 12 2013  13 28  -21.0347 26055.1 -03519.2 -07.6922 26291.7
 09 12 2013  13 29  -21.0340 26055.0 -03518.9 -07.6917 26291.5
 09 12 2013  13 30  -21.0338 26054.8 -03518.8 -07.6914 26291.3
 09 12 2013  13 31  -21.0330 26054.1 -03518.4 -07.6907 26290.6
 09 12 2013  13 32  -21.0324 26053.7 -03518.2 -07.6904 26290.2
 09 12 2013  13 33  -21.0320 26053.4 -03518.0 -07.6901 26289.8
 09 12 2013  13 34  -21.0321 26053.5 -03518.2 -07.6904 26290.0
 09 12 2013  13 35  -21.0323 26054.0 -03518.4 -07.6907 26290.5
 09 12 2013  13 36  -21.0322 26054.1 -03518.3 -07.6906 26290.6
 09 12 2013  13 37  -21.0319 26054.6 -03518.4 -07.6905 26291.1
 09 12 2013  13 38  -21.0309 26054.7 -03518.2 -07.6901 26291.1
 09 12 2013  13 39  -21.0299 26054.5 -03517.9 -07.6897 26291.0
 09 12 2013  13 40  -21.0293 26054.7 -03517.9 -07.6895 26291.1
 09 12 2013  13 41  -21.0292 26054.9 -03517.9 -07.6895 26291.3
 09 12 2013  13 42  -21.0287 26054.9 -03517.7 -07.6891 26291.3
 09 12 2013  13 43  -21.0279 26055.1 -03517.7 -07.6889 26291.5
 09 12 2013  13 44  -21.0276 26055.5 -03517.7 -07.6889 26291.9
 09 12 2013  13 45  -21.0280 26056.0 -03517.8 -07.6890 26292.4
 09 12 2013  13 46  -21.0279 26056.2 -03517.7 -07.6887 26292.6
 09 12 2013  13 47  -21.0277 26056.7 -03517.7 -07.6885 26293.0
 09 12 2013  13 48  -21.0280 26057.1 -03517.7 -07.6884 26293.5
 09 12 2013  13 49  -21.0275 26057.3 -03517.5 -07.6878 26293.7
 09 12 2013  13 50  -21.0273 26057.6 -03517.3 -07.6874 26293.9
 09 12 2013  13 51  -21.0269 26057.6 -03517.0 -07.6868 26293.9
 09 12 2013  13 52  -21.0263 26057.6 -03516.7 -07.6861 26293.9
 09 12 2013  13 53  -21.0265 26058.0 -03516.6 -07.6858 26294.2
 09 12 2013  13 54  -21.0262 26058.1 -03516.4 -07.6854 26294.3
 09 12 2013  13 55  -21.0254 26057.9 -03516.0 -07.6846 26294.0
 09 12 2013  13 56  -21.0246 26057.8 -03515.8 -07.6841 26293.9
 09 12 2013  13 57  -21.0241 26057.7 -03515.6 -07.6836 26293.8
 09 12 2013  13 58  -21.0234 26057.5 -03515.3 -07.6832 26293.5
 09 12 2013  13 59  -21.0226 26057.2 -03515.1 -07.6827 26293.2
 09 12 2013  14 00  -21.0219 26057.1 -03514.9 -07.6825 26293.1
 09 12 2013  14 01  -21.0211 26057.3 -03514.9 -07.6823 26293.3
 09 12 2013  14 02  -21.0206 26057.4 -03514.8 -07.6820 26293.4
 09 12 2013  14 03  -21.0199 26057.4 -03514.6 -07.6817 26293.3
 09 12 2013  14 04  -21.0193 26057.0 -03514.3 -07.6811 26292.9
 09 12 2013  14 05  -21.0185 26056.6 -03514.0 -07.6806 26292.5
 09 12 2013  14 06  -21.0181 26056.4 -03513.9 -07.6804 26292.3
 09 12 2013  14 07  -21.0178 26056.3 -03513.8 -07.6802 26292.2
 09 12 2013  14 08  -21.0177 26056.1 -03513.7 -07.6801 26292.0
 09 12 2013  14 09  -21.0171 26055.6 -03513.4 -07.6795 26291.4
 09 12 2013  14 10  -21.0170 26055.4 -03513.3 -07.6794 26291.2
 09 12 2013  14 11  -21.0172 26055.7 -03513.5 -07.6797 26291.6
 09 12 2013  14 12  -21.0169 26055.9 -03513.5 -07.6798 26291.8
 09 12 2013  14 13  -21.0166 26056.2 -03513.5 -07.6797 26292.0
 09 12 2013  14 14  -21.0162 26056.1 -03513.5 -07.6796 26291.9
 09 12 2013  14 15  -21.0153 26055.4 -03513.1 -07.6791 26291.2
 09 12 2013  14 16  -21.0143 26055.0 -03513.0 -07.6789 26290.8
 09 12 2013  14 17  -21.0143 26055.0 -03513.1 -07.6791 26290.8
 09 12 2013  14 18  -21.0146 26055.1 -03513.2 -07.6792 26290.9
 09 12 2013  14 19  -21.0142 26054.3 -03512.9 -07.6789 26290.1
 09 12 2013  14 20  -21.0142 26054.1 -03512.9 -07.6789 26289.8
 09 12 2013  14 21  -21.0152 26054.2 -03513.1 -07.6793 26290.0
 09 12 2013  14 22  -21.0153 26054.6 -03513.2 -07.6795 26290.4
 09 12 2013  14 23  -21.0146 26054.9 -03513.4 -07.6797 26290.8
 09 12 2013  14 24  -21.0140 26055.2 -03513.4 -07.6798 26291.1
 09 12 2013  14 25  -21.0129 26054.7 -03513.1 -07.6791 26290.5
 09 12 2013  14 26  -21.0118 26054.5 -03513.0 -07.6790 26290.3
 09 12 2013  14 27  -21.0115 26054.5 -03513.0 -07.6789 26290.3
 09 12 2013  14 28  -21.0111 26054.6 -03512.9 -07.6789 26290.4
 09 12 2013  14 29  -21.0107 26055.0 -03513.0 -07.6789 26290.8
 09 12 2013  14 30  -21.0108 26055.6 -03513.1 -07.6790 26291.4
 09 12 2013  14 31  -21.0111 26056.5 -03513.3 -07.6791 26292.3
 09 12 2013  14 32  -21.0115 26057.0 -03513.2 -07.6788 26292.8
 09 12 2013  14 33  -21.0117 26057.4 -03513.0 -07.6783 26293.1
 09 12 2013  14 34  -21.0117 26057.5 -03512.8 -07.6778 26293.2
 09 12 2013  14 35  -21.0118 26057.5 -03512.5 -07.6771 26293.2
 09 12 2013  14 36  -21.0121 26057.7 -03512.4 -07.6768 26293.3
 09 12 2013  14 37  -21.0119 26057.5 -03512.1 -07.6762 26293.1
 09 12 2013  14 38  -21.0112 26057.3 -03511.8 -07.6756 26292.9
 09 12 2013  14 39  -21.0104 26057.0 -03511.4 -07.6749 26292.5
 09 12 2013  14 40  -21.0104 26056.8 -03511.2 -07.6746 26292.3
 09 12 2013  14 41  -21.0105 26056.4 -03511.0 -07.6742 26291.9
 09 12 2013  14 42  -21.0109 26056.0 -03510.8 -07.6739 26291.4
 09 12 2013  14 43  -21.0112 26055.6 -03510.6 -07.6735 26291.0
 09 12 2013  14 44  -21.0103 26054.9 -03510.3 -07.6730 26290.3
 09 12 2013  14 45  -21.0096 26054.6 -03510.1 -07.6728 26290.0
 09 12 2013  14 46  -21.0093 26054.5 -03510.1 -07.6728 26289.9
 09 12 2013  14 47  -21.0085 26054.1 -03509.9 -07.6725 26289.5
 09 12 2013  14 48  -21.0081 26053.8 -03509.9 -07.6724 26289.1
 09 12 2013  14 49  -21.0078 26053.6 -03509.9 -07.6725 26289.0
 09 12 2013  14 50  -21.0080 26053.7 -03510.0 -07.6727 26289.0
 09 12 2013  14 51  -21.0078 26053.3 -03509.9 -07.6726 26288.7
 09 12 2013  14 52  -21.0074 26052.7 -03509.6 -07.6723 26288.1
 09 12 2013  14 53  -21.0074 26052.8 -03509.8 -07.6725 26288.1
 09 12 2013  14 54  -21.0074 26052.4 -03509.7 -07.6725 26287.8
 09 12 2013  14 55  -21.0074 26052.4 -03509.8 -07.6727 26287.8
 09 12 2013  14 56  -21.0079 26052.7 -03510.0 -07.6731 26288.1
 09 12 2013  14 57  -21.0080 26052.8 -03510.0 -07.6731 26288.1
 09 12 2013  14 58  -21.0079 26052.7 -03510.0 -07.6730 26288.0
 09 12 2013  14 59  -21.0079 26052.9 -03510.1 -07.6733 26288.3
 09 12 2013  15 00  -21.0073 26052.6 -03510.1 -07.6732 26287.9
 09 12 2013  15 01  -21.0064 26052.0 -03509.9 -07.6730 26287.3
 09 12 2013  15 02  -21.0062 26051.4 -03509.9 -07.6731 26286.8
 09 12 2013  15 03  -21.0058 26051.1 -03509.9 -07.6734 26286.5
 09 12 2013  15 04  -21.0054 26050.5 -03509.9 -07.6735 26285.9
 09 12 2013  15 15  -21.0099 26049.1 -03510.7 -07.6756 26284.6
 09 12 2013  15 16  -21.0098 26048.5 -03510.5 -07.6754 26284.0
 09 12 2013  15 17  -21.0095 26048.2 -03510.5 -07.6755 26283.7
 09 12 2013  15 18  -21.0097 26047.8 -03510.5 -07.6756 26283.3
 09 12 2013  15 19  -21.0101 26047.4 -03510.6 -07.6759 26283.0
 09 12 2013  15 20  -21.0103 26047.2 -03510.7 -07.6761 26282.7
 09 12 2013  15 21  -21.0110 26047.3 -03510.9 -07.6767 26282.9
 09 12 2013  15 22  -21.0113 26047.4 -03511.1 -07.6771 26282.9
 09 12 2013  15 23  -21.0110 26047.1 -03511.0 -07.6770 26282.6
 09 12 2013  15 24  -21.0106 26046.8 -03511.1 -07.6771 26282.4
 09 12 2013  15 25  -21.0108 26046.7 -03511.3 -07.6775 26282.3
 09 12 2013  15 26  -21.0110 26046.7 -03511.5 -07.6780 26282.3
 09 12 2013  15 27  -21.0107 26046.7 -03511.6 -07.6783 26282.3
 09 12 2013  15 28  -21.0101 26046.4 -03511.7 -07.6785 26282.1
 09 12 2013  15 29  -21.0097 26046.0 -03511.7 -07.6786 26281.7
 09 12 2013  15 30  -21.0096 26045.7 -03511.8 -07.6789 26281.4
 09 12 2013  15 31  -21.0101 26045.3 -03511.9 -07.6793 26281.0
 09 12 2013  15 32  -21.0104 26045.0 -03512.0 -07.6796 26280.7
 09 12 2013  15 33  -21.0103 26044.5 -03512.0 -07.6799 26280.2
 09 12 2013  15 34  -21.0106 26044.5 -03512.3 -07.6804 26280.2
 09 12 2013  15 35  -21.0114 26044.8 -03512.7 -07.6812 26280.6
 09 12 2013  15 36  -21.0124 26045.3 -03513.0 -07.6818 26281.1
 09 12 2013  15 37  -21.0130 26045.6 -03513.3 -07.6822 26281.4
 09 12 2013  15 38  -21.0134 26046.0 -03513.6 -07.6827 26282.0
 09 12 2013  15 39  -21.0139 26046.1 -03513.7 -07.6829 26282.1
 09 12 2013  15 40  -21.0142 26046.0 -03513.6 -07.6829 26281.9
 09 12 2013  15 41  -21.0141 26046.1 -03513.7 -07.6830 26282.0
 09 12 2013  15 42  -21.0140 26045.9 -03513.6 -07.6829 26281.8
 09 12 2013  15 43  -21.0141 26045.7 -03513.7 -07.6830 26281.7
 09 12 2013  15 44  -21.0142 26045.7 -03513.8 -07.6833 26281.7
 09 12 2013  15 45  -21.0137 26045.6 -03513.8 -07.6834 26281.5
 09 12 2013  15 46  -21.0129 26045.1 -03513.7 -07.6833 26281.1
 09 12 2013  15 47  -21.0127 26044.9 -03513.9 -07.6837 26280.9
 09 12 2013  15 48  -21.0123 26044.9 -03514.1 -07.6841 26280.9
 09 12 2013  15 49  -21.0119 26044.9 -03514.2 -07.6845 26280.9
 09 12 2013  15 50  -21.0118 26045.0 -03514.4 -07.6849 26281.0
 09 12 2013  15 51  -21.0117 26045.1 -03514.6 -07.6852 26281.2
 09 12 2013  15 52  -21.0116 26045.3 -03514.8 -07.6855 26281.4
 09 12 2013  15 53  -21.0111 26045.5 -03514.9 -07.6857 26281.6
 09 12 2013  15 54  -21.0105 26045.4 -03514.9 -07.6858 26281.5
 09 12 2013  15 55  -21.0101 26045.0 -03514.9 -07.6858 26281.1
 09 12 2013  15 56  -21.0094 26044.9 -03514.9 -07.6860 26281.0
 09 12 2013  15 57  -21.0087 26045.1 -03515.2 -07.6864 26281.2
 09 12 2013  15 58  -21.0083 26045.1 -03515.3 -07.6868 26281.2
 09 12 2013  15 59  -21.0076 26045.0 -03515.4 -07.6871 26281.1
 09 12 2013  16 00  -21.0072 26044.8 -03515.6 -07.6874 26281.0
 09 12 2013  16 01  -21.0069 26044.9 -03515.8 -07.6878 26281.1
 09 12 2013  16 02  -21.0070 26044.7 -03515.9 -07.6882 26280.9
 09 12 2013  16 03  -21.0071 26044.6 -03516.1 -07.6886 26280.9
 09 12 2013  16 04  -21.0067 26044.8 -03516.4 -07.6891 26281.1
 09 12 2013  16 05  -21.0063 26044.8 -03516.6 -07.6897 26281.2
 09 12 2013  16 06  -21.0060 26044.9 -03516.9 -07.6902 26281.3
 09 12 2013  16 07  -21.0058 26044.9 -03517.1 -07.6906 26281.3
 09 12 2013  16 08  -21.0059 26045.2 -03517.5 -07.6914 26281.7
 09 12 2013  16 09  -21.0062 26045.3 -03517.7 -07.6919 26281.7
 09 12 2013  16 10  -21.0066 26045.2 -03517.9 -07.6923 26281.7
 09 12 2013  16 11  -21.0065 26045.0 -03518.0 -07.6925 26281.5
 09 12 2013  16 12  -21.0069 26044.9 -03518.2 -07.6930 26281.5
 09 12 2013  16 13  -21.0075 26044.9 -03518.4 -07.6935 26281.4
 09 12 2013  16 14  -21.0080 26044.9 -03518.6 -07.6938 26281.5
 09 12 2013  16 15  -21.0083 26044.5 -03518.6 -07.6940 26281.1
 09 12 2013  16 16  -21.0082 26044.5 -03518.8 -07.6945 26281.1
 09 12 2013  16 17  -21.0087 26045.0 -03519.2 -07.6953 26281.7
 09 12 2013  16 18  -21.0096 26044.9 -03519.3 -07.6955 26281.6
 09 12 2013  16 19  -21.0102 26045.1 -03519.4 -07.6957 26281.8
 09 12 2013  16 20  -21.0113 26045.4 -03519.7 -07.6961 26282.2
 09 12 2013  16 21  -21.0120 26045.2 -03519.6 -07.6961 26282.0
 09 12 2013  16 22  -21.0126 26045.3 -03519.8 -07.6963 26282.0
 09 12 2013  16 23  -21.0133 26045.2 -03519.8 -07.6964 26282.0
 09 12 2013  16 24  -21.0138 26045.1 -03519.9 -07.6966 26281.9
 09 12 2013  16 25  -21.0146 26045.1 -03520.0 -07.6968 26281.9
 09 12 2013  16 26  -21.0160 26044.5 -03519.8 -07.6967 26281.3
 09 12 2013  16 27  -21.0168 26044.4 -03519.9 -07.6968 26281.2
 09 12 2013  16 28  -21.0173 26044.1 -03519.9 -07.6969 26280.9
 09 12 2013  16 29  -21.0179 26044.0 -03519.9 -07.6971 26280.8
 09 12 2013  16 30  -21.0187 26044.0 -03520.1 -07.6973 26280.8
 09 12 2013  16 31  -21.0194 26044.2 -03520.3 -07.6977 26281.1
 09 12 2013  16 32  -21.0198 26044.1 -03520.3 -07.6978 26280.9
 09 12 2013  16 33  -21.0207 26044.2 -03520.4 -07.6980 26281.0
 09 12 2013  16 34  -21.0215 26044.2 -03520.4 -07.6981 26281.1
 09 12 2013  16 35  -21.0223 26044.6 -03520.6 -07.6983 26281.5
 09 12 2013  16 36  -21.0241 26044.8 -03520.6 -07.6983 26281.7
 09 12 2013  16 37  -21.0248 26045.0 -03520.5 -07.6981 26281.8
 09 12 2013  16 38  -21.0257 26045.0 -03520.4 -07.6979 26281.9
 09 12 2013  16 39  -21.0273 26045.0 -03520.4 -07.6977 26281.9
 09 12 2013  16 40  -21.0284 26045.2 -03520.3 -07.6975 26282.1
 09 12 2013  16 41  -21.0295 26045.1 -03520.2 -07.6973 26282.0
 09 12 2013  16 42  -21.0304 26045.0 -03520.0 -07.6969 26281.8
 09 12 2013  16 43  -21.0313 26044.9 -03519.8 -07.6966 26281.7
 09 12 2013  16 44  -21.0325 26045.1 -03519.8 -07.6965 26281.9
 09 12 2013  16 45  -21.0335 26045.1 -03519.7 -07.6961 26281.9
 09 12 2013  16 46  -21.0344 26045.6 -03519.7 -07.6961 26282.3
 09 12 2013  16 47  -21.0358 26046.0 -03519.6 -07.6958 26282.7
 09 12 2013  16 48  -21.0368 26046.3 -03519.5 -07.6954 26283.0
 09 12 2013  16 49  -21.0376 26046.5 -03519.4 -07.6951 26283.2
 09 12 2013  16 50  -21.0386 26046.5 -03519.1 -07.6945 26283.1
 09 12 2013  16 51  -21.0401 26046.9 -03519.0 -07.6942 26283.5
 09 12 2013  16 52  -21.0417 26047.1 -03518.9 -07.6938 26283.7
 09 12 2013  16 53  -21.0428 26047.3 -03518.6 -07.6931 26283.9
 09 12 2013  16 54  -21.0440 26047.7 -03518.5 -07.6928 26284.2
 09 12 2013  16 55  -21.0452 26047.6 -03518.2 -07.6922 26284.1
 09 12 2013  16 56  -21.0468 26047.9 -03518.0 -07.6916 26284.3
 09 12 2013  16 57  -21.0483 26048.0 -03517.7 -07.6911 26284.4
 09 12 2013  16 58  -21.0490 26047.5 -03517.2 -07.6901 26283.9
 09 12 2013  16 59  -21.0502 26047.2 -03516.8 -07.6894 26283.5
 09 12 2013  17 00  -21.0516 26046.9 -03516.5 -07.6888 26283.2
 09 12 2013  17 01  -21.0523 26046.5 -03516.1 -07.6881 26282.8
 09 12 2013  17 02  -21.0534 26046.3 -03515.9 -07.6876 26282.5
 09 12 2013  17 03  -21.0549 26046.0 -03515.6 -07.6871 26282.2
 09 12 2013  17 04  -21.0563 26045.6 -03515.3 -07.6866 26281.8
 09 12 2013  17 05  -21.0574 26045.0 -03514.9 -07.6859 26281.1
 09 12 2013  17 06  -21.0585 26044.8 -03514.8 -07.6856 26280.9
 09 12 2013  17 07  -21.0601 26045.0 -03514.7 -07.6854 26281.1
 09 12 2013  17 08  -21.0614 26045.3 -03514.5 -07.6850 26281.4
 09 12 2013  17 09  -21.0629 26045.2 -03514.2 -07.6844 26281.2
 09 12 2013  17 10  -21.0638 26045.0 -03513.9 -07.6837 26281.0
 09 12 2013  17 11  -21.0643 26044.9 -03513.6 -07.6831 26280.9
 09 12 2013  17 12  -21.0651 26044.6 -03513.3 -07.6826 26280.5
 09 12 2013  17 13  -21.0662 26044.4 -03513.1 -07.6822 26280.3
 09 12 2013  17 14  -21.0671 26043.9 -03512.8 -07.6816 26279.8
 09 12 2013  17 15  -21.0681 26043.6 -03512.5 -07.6810 26279.4
 09 12 2013  17 16  -21.0686 26043.2 -03512.2 -07.6805 26278.9
 09 12 2013  17 17  -21.0695 26042.9 -03512.0 -07.6801 26278.7
 09 12 2013  17 18  -21.0704 26043.2 -03511.9 -07.6799 26278.9
 09 12 2013  17 19  -21.0713 26043.5 -03511.9 -07.6798 26279.2
 09 12 2013  17 20  -21.0717 26043.5 -03511.7 -07.6795 26279.2
 09 12 2013  17 21  -21.0719 26043.6 -03511.5 -07.6790 26279.2
 09 12 2013  17 22  -21.0721 26043.5 -03511.3 -07.6785 26279.1
 09 12 2013  17 23  -21.0723 26043.2 -03511.0 -07.6781 26278.8
 09 12 2013  17 24  -21.0729 26043.1 -03510.9 -07.6779 26278.7
 09 12 2013  17 25  -21.0733 26043.1 -03510.8 -07.6775 26278.6
 09 12 2013  17 26  -21.0736 26043.3 -03510.7 -07.6774 26278.8
 09 12 2013  17 27  -21.0743 26043.3 -03510.7 -07.6772 26278.8
 09 12 2013  17 28  -21.0746 26043.3 -03510.5 -07.6769 26278.8
 09 12 2013  17 29  -21.0750 26043.5 -03510.4 -07.6766 26279.0
 09 12 2013  17 30  -21.0754 26043.7 -03510.2 -07.6762 26279.2
 09 12 2013  17 31  -21.0756 26043.9 -03510.1 -07.6759 26279.4
 09 12 2013  17 32  -21.0757 26044.0 -03509.9 -07.6755 26279.5
 09 12 2013  17 33  -21.0761 26044.0 -03509.7 -07.6749 26279.4
 09 12 2013  17 34  -21.0763 26043.9 -03509.4 -07.6744 26279.3
 09 12 2013  17 35  -21.0764 26043.5 -03509.0 -07.6736 26278.8
 09 12 2013  17 36  -21.0760 26043.7 -03508.9 -07.6733 26279.0
 09 12 2013  17 37  -21.0765 26043.6 -03508.8 -07.6730 26278.9
 09 12 2013  17 38  -21.0767 26043.4 -03508.5 -07.6726 26278.6
 09 12 2013  17 39  -21.0773 26043.3 -03508.3 -07.6722 26278.5
 09 12 2013  17 40  -21.0776 26043.2 -03508.1 -07.6718 26278.4
 09 12 2013  17 41  -21.0779 26043.0 -03507.9 -07.6713 26278.2
 09 12 2013  17 42  -21.0782 26043.1 -03507.8 -07.6710 26278.3
 09 12 2013  17 43  -21.0785 26043.2 -03507.5 -07.6705 26278.3
 09 12 2013  17 44  -21.0783 26043.1 -03507.3 -07.6700 26278.2
 09 12 2013  17 45  -21.0786 26043.0 -03507.1 -07.6695 26278.1
 09 12 2013  17 46  -21.0787 26042.8 -03506.7 -07.6689 26277.8
 09 12 2013  17 47  -21.0791 26042.7 -03506.5 -07.6684 26277.7
 09 12 2013  17 48  -21.0795 26042.4 -03506.2 -07.6679 26277.4
 09 12 2013  17 49  -21.0792 26042.0 -03505.8 -07.6671 26276.9
 09 12 2013  17 50  -21.0793 26042.1 -03505.7 -07.6668 26277.0
 09 12 2013  17 51  -21.0793 26041.9 -03505.4 -07.6663 26276.8
 09 12 2013  17 52  -21.0797 26041.6 -03505.2 -07.6660 26276.4
 09 12 2013  17 53  -21.0804 26041.4 -03505.1 -07.6658 26276.3
 09 12 2013  17 54  -21.0810 26041.1 -03504.9 -07.6654 26275.9
 09 12 2013  17 55  -21.0819 26040.9 -03504.7 -07.6651 26275.7
 09 12 2013  17 56  -21.0820 26041.2 -03504.7 -07.6649 26276.0
 09 12 2013  17 57  -21.0823 26041.7 -03504.7 -07.6649 26276.4
 09 12 2013  17 58  -21.0823 26041.5 -03504.5 -07.6645 26276.2
 09 12 2013  17 59  -21.0824 26040.7 -03504.1 -07.6638 26275.4
 09 12 2013  18 00  -21.0824 26040.1 -03503.8 -07.6632 26274.8
 09 12 2013  18 01  -21.0822 26039.5 -03503.3 -07.6625 26274.1
 09 12 2013  18 02  -21.0822 26039.2 -03503.2 -07.6624 26273.8
 09 12 2013  18 03  -21.0826 26039.3 -03503.3 -07.6624 26273.9
 09 12 2013  18 04  -21.0828 26039.4 -03503.3 -07.6624 26274.0
 09 12 2013  18 05  -21.0830 26039.6 -03503.3 -07.6623 26274.2
 09 12 2013  18 06  -21.0832 26039.7 -03503.2 -07.6622 26274.3
 09 12 2013  18 07  -21.0833 26039.8 -03503.1 -07.6619 26274.4
 09 12 2013  18 08  -21.0833 26040.0 -03503.0 -07.6617 26274.6
 09 12 2013  18 09  -21.0832 26039.9 -03502.8 -07.6613 26274.5
 09 12 2013  18 10  -21.0828 26039.7 -03502.6 -07.6609 26274.2
 09 12 2013  18 11  -21.0824 26039.3 -03502.3 -07.6604 26273.7
 09 12 2013  18 12  -21.0819 26038.9 -03502.1 -07.6600 26273.4
 09 12 2013  18 13  -21.0816 26039.2 -03502.2 -07.6601 26273.7
 09 12 2013  18 14  -21.0813 26038.9 -03502.0 -07.6598 26273.3
 09 12 2013  18 15  -21.0809 26038.5 -03501.8 -07.6595 26273.0
 09 12 2013  18 16  -21.0807 26039.1 -03502.0 -07.6598 26273.5
 09 12 2013  18 17  -21.0804 26039.3 -03502.1 -07.6599 26273.7
 09 12 2013  18 18  -21.0806 26039.7 -03502.3 -07.6603 26274.1
 09 12 2013  18 19  -21.0808 26040.1 -03502.5 -07.6606 26274.6
 09 12 2013  18 20  -21.0802 26039.8 -03502.3 -07.6603 26274.3
 09 12 2013  18 21  -21.0790 26039.4 -03502.0 -07.6597 26273.8
 09 12 2013  18 22  -21.0787 26038.8 -03501.6 -07.6590 26273.2
 09 12 2013  18 23  -21.0792 26038.7 -03501.5 -07.6588 26273.1
 09 12 2013  18 24  -21.0796 26038.3 -03501.3 -07.6584 26272.6
 09 12 2013  18 25  -21.0796 26037.9 -03501.0 -07.6579 26272.2
 09 12 2013  18 26  -21.0795 26038.1 -03501.1 -07.6580 26272.5
 09 12 2013  18 27  -21.0790 26037.9 -03501.0 -07.6580 26272.2
 09 12 2013  18 28  -21.0788 26037.8 -03500.9 -07.6578 26272.1
 09 12 2013  18 29  -21.0787 26038.0 -03501.0 -07.6578 26272.3
 09 12 2013  18 30  -21.0786 26037.9 -03500.9 -07.6578 26272.2
 09 12 2013  18 31  -21.0784 26037.7 -03500.8 -07.6574 26272.0
 09 12 2013  18 32  -21.0781 26037.8 -03500.7 -07.6573 26272.0
 09 12 2013  18 33  -21.0778 26037.7 -03500.7 -07.6572 26272.0
 09 12 2013  18 34  -21.0774 26037.2 -03500.4 -07.6569 26271.5
 09 12 2013  18 35  -21.0774 26037.0 -03500.3 -07.6566 26271.3
 09 12 2013  18 36  -21.0775 26036.9 -03500.2 -07.6564 26271.1
 09 12 2013  18 37  -21.0805 26036.9 -03500.1 -07.6563 26271.1
 09 12 2013  18 38  -21.0785 26036.4 -03499.9 -07.6559 26270.5
 09 12 2013  18 39  -21.0766 26036.0 -03499.6 -07.6555 26270.1
 09 12 2013  18 40  -21.0762 26036.2 -03499.7 -07.6557 26270.4
 09 12 2013  18 41  -21.0760 26036.5 -03500.0 -07.6562 26270.7
 09 12 2013  18 42  -21.0757 26036.9 -03500.3 -07.6567 26271.1
 09 12 2013  18 43  -21.0749 26037.2 -03500.4 -07.6569 26271.5
 09 12 2013  18 44  -21.0739 26037.3 -03500.5 -07.6571 26271.5
 09 12 2013  18 45  -21.0731 26036.9 -03500.4 -07.6568 26271.1
 09 12 2013  18 46  -21.0726 26036.5 -03500.2 -07.6567 26270.7
 09 12 2013  18 47  -21.0720 26036.0 -03500.0 -07.6563 26270.2
 09 12 2013  18 48  -21.0716 26035.3 -03499.7 -07.6559 26269.4
 09 12 2013  18 49  -21.0711 26034.8 -03499.5 -07.6555 26269.0
 09 12 2013  18 50  -21.0709 26034.8 -03499.6 -07.6557 26268.9
 09 12 2013  18 51  -21.0706 26034.8 -03499.7 -07.6560 26269.0
 09 12 2013  18 52  -21.0706 26035.0 -03499.9 -07.6563 26269.2
 09 12 2013  18 53  -21.0701 26035.3 -03500.1 -07.6568 26269.5
 09 12 2013  18 54  -21.0694 26035.4 -03500.3 -07.6571 26269.6
 09 12 2013  18 55  -21.0687 26035.2 -03500.3 -07.6572 26269.5
 09 12 2013  18 56  -21.0683 26035.0 -03500.3 -07.6572 26269.2
 09 12 2013  18 57  -21.0678 26035.0 -03500.3 -07.6573 26269.2
 09 12 2013  18 58  -21.0674 26034.9 -03500.4 -07.6574 26269.2
 09 12 2013  18 59  -21.0671 26034.9 -03500.4 -07.6576 26269.2
 09 12 2013  19 00  -21.0668 26034.8 -03500.4 -07.6576 26269.0
 09 12 2013  19 01  -21.0665 26034.5 -03500.3 -07.6575 26268.7
 09 12 2013  19 02  -21.0662 26034.4 -03500.3 -07.6575 26268.6
 09 12 2013  19 03  -21.0659 26034.2 -03500.3 -07.6575 26268.5
 09 12 2013  19 04  -21.0657 26034.0 -03500.3 -07.6574 26268.3
 09 12 2013  19 05  -21.0655 26033.8 -03500.2 -07.6573 26268.0
 09 12 2013  19 06  -21.0652 26033.7 -03500.2 -07.6574 26268.0
 09 12 2013  19 07  -21.0649 26033.9 -03500.3 -07.6576 26268.1
 09 12 2013  19 08  -21.0643 26034.1 -03500.5 -07.6580 26268.4
 09 12 2013  19 09  -21.0638 26034.2 -03500.6 -07.6582 26268.5
 09 12 2013  19 10  -21.0633 26034.2 -03500.8 -07.6585 26268.6
 09 12 2013  19 11  -21.0628 26034.2 -03500.9 -07.6587 26268.6
 09 12 2013  19 12  -21.0622 26034.0 -03500.8 -07.6586 26268.3
 09 12 2013  19 13  -21.0617 26033.7 -03500.7 -07.6585 26268.0
 09 12 2013  19 14  -21.0612 26033.5 -03500.7 -07.6586 26267.8
 09 12 2013  19 15  -21.0608 26033.4 -03500.7 -07.6587 26267.7
 09 12 2013  19 16  -21.0603 26033.2 -03500.8 -07.6588 26267.5
 09 12 2013  19 17  -21.0599 26033.1 -03500.8 -07.6589 26267.4
 09 12 2013  19 18  -21.0595 26033.1 -03501.0 -07.6593 26267.4
 09 12 2013  19 19  -21.0591 26032.9 -03501.1 -07.6595 26267.3
 09 12 2013  19 20  -21.0586 26032.8 -03501.1 -07.6597 26267.2
 09 12 2013  19 21  -21.0580 26033.0 -03501.4 -07.6601 26267.4
 09 12 2013  19 22  -21.0577 26032.9 -03501.4 -07.6604 26267.3
 09 12 2013  19 23  -21.0573 26032.9 -03501.6 -07.6606 26267.3
 09 12 2013  19 24  -21.0571 26032.8 -03501.7 -07.6608 26267.3
 09 12 2013  19 25  -21.0569 26032.5 -03501.6 -07.6609 26267.0
 09 12 2013  19 26  -21.0567 26032.3 -03501.6 -07.6609 26266.8
 09 12 2013  19 27  -21.0564 26032.1 -03501.7 -07.6610 26266.6
 09 12 2013  19 28  -21.0562 26032.1 -03501.8 -07.6613 26266.6
 09 12 2013  19 29  -21.0559 26032.2 -03501.9 -07.6616 26266.7
 09 12 2013  19 30  -21.0557 26032.5 -03502.2 -07.6622 26267.0
 09 12 2013  19 31  -21.0553 26032.3 -03502.3 -07.6624 26266.9
 09 12 2013  19 32  -21.0550 26032.1 -03502.4 -07.6626 26266.7
 09 12 2013  19 33  -21.0548 26031.9 -03502.4 -07.6628 26266.5
 09 12 2013  19 34  -21.0546 26031.7 -03502.5 -07.6629 26266.3
 09 12 2013  19 35  -21.0544 26031.4 -03502.5 -07.6630 26266.0
 09 12 2013  19 36  -21.0541 26031.1 -03502.5 -07.6632 26265.7
 09 12 2013  19 37  -21.0540 26030.8 -03502.5 -07.6633 26265.4
 09 12 2013  19 38  -21.0539 26030.5 -03502.6 -07.6635 26265.1
 09 12 2013  19 39  -21.0537 26030.2 -03502.6 -07.6636 26264.8
 09 12 2013  19 40  -21.0536 26030.1 -03502.7 -07.6638 26264.7
 09 12 2013  19 41  -21.0533 26030.0 -03502.8 -07.6642 26264.6
 09 12 2013  19 42  -21.0530 26029.8 -03503.0 -07.6646 26264.5
 09 12 2013  19 43  -21.0525 26029.8 -03503.2 -07.6650 26264.5
 09 12 2013  19 44  -21.0520 26029.7 -03503.3 -07.6654 26264.4
 09 12 2013  19 45  -21.0516 26029.6 -03503.5 -07.6658 26264.3
 09 12 2013  19 46  -21.0512 26029.4 -03503.6 -07.6660 26264.1
 09 12 2013  19 47  -21.0508 26029.3 -03503.7 -07.6663 26264.0
 09 12 2013  19 48  -21.0507 26029.1 -03503.9 -07.6667 26263.9
 09 12 2013  19 49  -21.0506 26028.9 -03504.0 -07.6670 26263.7
 09 12 2013  19 50  -21.0504 26028.7 -03504.1 -07.6673 26263.5
 09 12 2013  19 51  -21.0502 26028.6 -03504.3 -07.6678 26263.4
 09 12 2013  19 52  -21.0500 26028.5 -03504.5 -07.6682 26263.3
 09 12 2013  19 53  -21.0499 26028.2 -03504.6 -07.6684 26263.1
 09 12 2013  19 54  -21.0496 26028.1 -03504.7 -07.6688 26263.0
 09 12 2013  19 55  -21.0496 26028.0 -03504.9 -07.6692 26262.9
 09 12 2013  19 56  -21.0495 26027.8 -03505.1 -07.6696 26262.8
 09 12 2013  19 57  -21.0495 26027.6 -03505.1 -07.6699 26262.5
 09 12 2013  19 58  -21.0494 26027.4 -03505.3 -07.6702 26262.4
 09 12 2013  19 59  -21.0493 26027.2 -03505.4 -07.6705 26262.2
 09 12 2013  20 00  -21.0491 26027.0 -03505.5 -07.6708 26262.1
 09 12 2013  20 01  -21.0489 26026.8 -03505.6 -07.6710 26261.9
 09 12 2013  20 02  -21.0488 26026.8 -03505.8 -07.6714 26261.8
 09 12 2013  20 03  -21.0485 26026.8 -03506.0 -07.6719 26261.9
 09 12 2013  20 04  -21.0482 26026.7 -03506.1 -07.6723 26261.8
 09 12 2013  20 05  -21.0479 26026.5 -03506.3 -07.6726 26261.6
 09 12 2013  20 06  -21.0475 26026.3 -03506.4 -07.6729 26261.5
 09 12 2013  20 07  -21.0473 26026.1 -03506.5 -07.6731 26261.3
 09 12 2013  20 08  -21.0472 26026.0 -03506.6 -07.6735 26261.2
 09 12 2013  20 09  -21.0471 26025.8 -03506.6 -07.6736 26261.0
 09 12 2013  20 10  -21.0469 26025.7 -03506.8 -07.6739 26260.9
 09 12 2013  20 11  -21.0466 26025.6 -03506.9 -07.6742 26260.8
 09 12 2013  20 12  -21.0463 26025.5 -03507.0 -07.6745 26260.7
 09 12 2013  20 13  -21.0459 26025.4 -03507.1 -07.6748 26260.6
 09 12 2013  20 14  -21.0455 26025.2 -03507.2 -07.6751 26260.5
 09 12 2013  20 15  -21.0451 26025.0 -03507.3 -07.6752 26260.3
 09 12 2013  20 16  -21.0448 26024.9 -03507.4 -07.6755 26260.1
 09 12 2013  20 17  -21.0443 26024.7 -03507.5 -07.6757 26260.0
 09 12 2013  20 18  -21.0439 26024.6 -03507.5 -07.6759 26259.9
 09 12 2013  20 19  -21.0436 26024.5 -03507.7 -07.6763 26259.8
 09 12 2013  20 20  -21.0432 26024.3 -03507.8 -07.6765 26259.6
 09 12 2013  20 21  -21.0427 26024.2 -03507.9 -07.6768 26259.6
 09 12 2013  20 22  -21.0423 26024.1 -03508.0 -07.6771 26259.5
 09 12 2013  20 23  -21.0418 26024.0 -03508.1 -07.6773 26259.4
 09 12 2013  20 24  -21.0414 26024.0 -03508.3 -07.6777 26259.4
 09 12 2013  20 25  -21.0410 26024.0 -03508.4 -07.6780 26259.4
 09 12 2013  20 26  -21.0406 26023.9 -03508.6 -07.6783 26259.4
 09 12 2013  20 27  -21.0404 26023.8 -03508.7 -07.6786 26259.3
 09 12 2013  20 28  -21.0400 26023.8 -03508.8 -07.6789 26259.2
 09 12 2013  20 29  -21.0397 26023.8 -03508.9 -07.6792 26259.3
 09 12 2013  20 30  -21.0394 26023.7 -03509.0 -07.6794 26259.2
 09 12 2013  20 31  -21.0391 26023.7 -03509.2 -07.6798 26259.2
 09 12 2013  20 32  -21.0387 26023.6 -03509.3 -07.6800 26259.1
 09 12 2013  20 33  -21.0383 26023.5 -03509.4 -07.6802 26259.1
 09 12 2013  20 34  -21.0381 26023.5 -03509.5 -07.6805 26259.1
 09 12 2013  20 35  -21.0378 26023.4 -03509.6 -07.6807 26259.0
 09 12 2013  20 36  -21.0376 26023.2 -03509.6 -07.6808 26258.8
 09 12 2013  20 37  -21.0373 26023.2 -03509.7 -07.6811 26258.8
 09 12 2013  20 38  -21.0370 26023.2 -03509.8 -07.6813 26258.8
 09 12 2013  20 39  -21.0368 26023.1 -03509.9 -07.6815 26258.8
 09 12 2013  20 40  -21.0365 26022.9 -03509.9 -07.6816 26258.6
 09 12 2013  20 41  -21.0365 26022.7 -03510.0 -07.6818 26258.4
 09 12 2013  20 42  -21.0363 26022.6 -03510.0 -07.6819 26258.3
 09 12 2013  20 43  -21.0362 26022.5 -03510.1 -07.6821 26258.2
 09 12 2013  20 44  -21.0361 26022.4 -03510.1 -07.6821 26258.0
 09 12 2013  20 45  -21.0359 26022.2 -03510.1 -07.6822 26257.9
 09 12 2013  20 46  -21.0356 26022.0 -03510.1 -07.6823 26257.7
 09 12 2013  20 47  -21.0351 26022.0 -03510.2 -07.6824 26257.7
 09 12 2013  20 48  -21.0349 26021.8 -03510.2 -07.6825 26257.5
 09 12 2013  20 49  -21.0344 26021.7 -03510.2 -07.6825 26257.4
 09 12 2013  20 50  -21.0337 26021.8 -03510.3 -07.6828 26257.5
 09 12 2013  20 51  -21.0332 26021.7 -03510.4 -07.6829 26257.5
 09 12 2013  20 52  -21.0328 26021.7 -03510.4 -07.6830 26257.4
 09 12 2013  20 53  -21.0326 26021.4 -03510.3 -07.6829 26257.1
 09 12 2013  20 54  -21.0320 26021.2 -03510.4 -07.6830 26256.9
 09 12 2013  20 55  -21.0319 26021.0 -03510.4 -07.6832 26256.7
 09 12 2013  20 56  -21.0317 26020.8 -03510.5 -07.6834 26256.6
 09 12 2013  20 57  -21.0313 26020.9 -03510.6 -07.6836 26256.6
 09 12 2013  20 58  -21.0310 26020.7 -03510.7 -07.6838 26256.5
 09 12 2013  20 59  -21.0307 26020.7 -03510.8 -07.6841 26256.4
 09 12 2013  21 00  -21.0306 26020.4 -03510.8 -07.6842 26256.2
 09 12 2013  21 01  -21.0303 26020.2 -03510.9 -07.6845 26256.0
 09 12 2013  21 02  -21.0302 26019.8 -03510.9 -07.6845 26255.6
 09 12 2013  21 03  -21.0301 26019.7 -03511.0 -07.6848 26255.5
 09 12 2013  21 04  -21.0302 26019.5 -03511.1 -07.6851 26255.3
 09 12 2013  21 05  -21.0304 26019.3 -03511.3 -07.6855 26255.2
 09 12 2013  21 06  -21.0307 26019.0 -03511.3 -07.6857 26254.9
 09 12 2013  21 07  -21.0310 26018.8 -03511.4 -07.6859 26254.6
 09 12 2013  21 08  -21.0312 26018.5 -03511.5 -07.6862 26254.4
 09 12 2013  21 09  -21.0312 26018.2 -03511.5 -07.6863 26254.1
 09 12 2013  21 10  -21.0310 26018.0 -03511.5 -07.6863 26253.9
 09 12 2013  21 11  -21.0305 26018.0 -03511.6 -07.6866 26253.9
 09 12 2013  21 12  -21.0300 26018.0 -03511.7 -07.6868 26254.0
 09 12 2013  21 13  -21.0295 26017.9 -03511.7 -07.6869 26253.8
 09 12 2013  21 14  -21.0290 26018.0 -03511.7 -07.6869 26253.9
 09 12 2013  21 15  -21.0286 26017.8 -03511.8 -07.6871 26253.8
 09 12 2013  21 16  -21.0281 26017.7 -03511.8 -07.6872 26253.7
 09 12 2013  21 17  -21.0275 26017.7 -03511.9 -07.6874 26253.7
 09 12 2013  21 18  -21.0269 26017.5 -03511.9 -07.6874 26253.5
 09 12 2013  21 19  -21.0263 26017.5 -03512.0 -07.6876 26253.4
 09 12 2013  21 20  -21.0257 26017.5 -03512.1 -07.6878 26253.5
 09 12 2013  21 21  -21.0251 26017.5 -03512.2 -07.6881 26253.5
 09 12 2013  21 22  -21.0244 26017.4 -03512.3 -07.6883 26253.4
 09 12 2013  21 23  -21.0237 26017.5 -03512.5 -07.6886 26253.6
 09 12 2013  21 24  -21.0229 26017.6 -03512.6 -07.6890 26253.7
 09 12 2013  21 25  -21.0222 26017.6 -03512.8 -07.6893 26253.7
 09 12 2013  21 26  -21.0216 26017.6 -03512.9 -07.6896 26253.7
 09 12 2013  21 27  -21.0212 26017.7 -03513.1 -07.6900 26253.8
 09 12 2013  21 28  -21.0207 26017.6 -03513.2 -07.6902 26253.7
 09 12 2013  21 29  -21.0203 26017.4 -03513.2 -07.6903 26253.5
 09 12 2013  21 30  -21.0201 26017.1 -03513.2 -07.6905 26253.2
 09 12 2013  21 31  -21.0200 26016.7 -03513.2 -07.6905 26252.8
 09 12 2013  21 32  -21.0199 26016.5 -03513.2 -07.6906 26252.6
 09 12 2013  21 33  -21.0197 26016.4 -03513.4 -07.6909 26252.6
 09 12 2013  21 34  -21.0197 26016.3 -03513.5 -07.6912 26252.5
 09 12 2013  21 35  -21.0197 26016.3 -03513.6 -07.6915 26252.4
 09 12 2013  21 36  -21.0198 26016.1 -03513.7 -07.6916 26252.3
 09 12 2013  21 37  -21.0200 26016.1 -03513.7 -07.6918 26252.3
 09 12 2013  21 38  -21.0204 26016.0 -03513.8 -07.6921 26252.2
 09 12 2013  21 39  -21.0207 26015.9 -03513.9 -07.6923 26252.1
 09 12 2013  21 40  -21.0208 26015.8 -03514.0 -07.6924 26252.1
 09 12 2013  21 41  -21.0209 26015.8 -03514.0 -07.6926 26252.0
 09 12 2013  21 42  -21.0210 26015.7 -03514.1 -07.6927 26252.0
 09 12 2013  21 43  -21.0211 26015.7 -03514.2 -07.6929 26252.0
 09 12 2013  21 44  -21.0210 26015.7 -03514.2 -07.6930 26252.0
 09 12 2013  21 45  -21.0211 26015.6 -03514.3 -07.6932 26251.9
 09 12 2013  21 46  -21.0211 26015.7 -03514.4 -07.6933 26252.0
 09 12 2013  21 47  -21.0211 26015.8 -03514.5 -07.6935 26252.1
 09 12 2013  21 48  -21.0210 26015.7 -03514.5 -07.6936 26252.0
 09 12 2013  21 49  -21.0209 26015.6 -03514.5 -07.6937 26251.9
 09 12 2013  21 50  -21.0207 26015.5 -03514.5 -07.6937 26251.8
 09 12 2013  21 51  -21.0205 26015.4 -03514.6 -07.6938 26251.7
 09 12 2013  21 52  -21.0203 26015.2 -03514.6 -07.6938 26251.6
 09 12 2013  21 53  -21.0201 26015.2 -03514.6 -07.6939 26251.6
 09 12 2013  21 54  -21.0200 26015.2 -03514.7 -07.6942 26251.6
 09 12 2013  21 55  -21.0197 26015.3 -03514.8 -07.6943 26251.7
 09 12 2013  21 56  -21.0198 26015.2 -03514.8 -07.6945 26251.6
 09 12 2013  21 57  -21.0198 26015.1 -03514.8 -07.6944 26251.4
 09 12 2013  21 58  -21.0199 26014.8 -03514.7 -07.6943 26251.1
 09 12 2013  21 59  -21.0200 26014.6 -03514.7 -07.6943 26250.9
 09 12 2013  22 00  -21.0201 26014.3 -03514.6 -07.6943 26250.7
 09 12 2013  22 01  -21.0201 26014.2 -03514.6 -07.6943 26250.5
 09 12 2013  22 02  -21.0203 26014.0 -03514.6 -07.6943 26250.4
 09 12 2013  22 03  -21.0205 26014.0 -03514.7 -07.6944 26250.3
 09 12 2013  22 04  -21.0206 26013.9 -03514.7 -07.6946 26250.3
 09 12 2013  22 05  -21.0207 26013.9 -03514.7 -07.6946 26250.2
 09 12 2013  22 06  -21.0207 26013.8 -03514.8 -07.6947 26250.2
 09 12 2013  22 07  -21.0209 26013.7 -03514.8 -07.6948 26250.1
 09 12 2013  22 08  -21.0210 26013.8 -03514.9 -07.6949 26250.2
 09 12 2013  22 09  -21.0211 26013.8 -03514.9 -07.6950 26250.2
 09 12 2013  22 10  -21.0210 26013.7 -03514.9 -07.6950 26250.1
 09 12 2013  22 11  -21.0210 26013.7 -03514.9 -07.6951 26250.1
 09 12 2013  22 12  -21.0210 26013.5 -03514.9 -07.6950 26249.9
 09 12 2013  22 13  -21.0212 26013.4 -03514.8 -07.6950 26249.8
 09 12 2013  22 14  -21.0213 26013.4 -03514.9 -07.6950 26249.8
 09 12 2013  22 15  -21.0213 26013.3 -03514.8 -07.6950 26249.7
 09 12 2013  22 16  -21.0213 26013.2 -03514.8 -07.6950 26249.6
 09 12 2013  22 17  -21.0213 26013.1 -03514.8 -07.6950 26249.5
 09 12 2013  22 18  -21.0210 26013.1 -03514.8 -07.6950 26249.5
 09 12 2013  22 19  -21.0208 26013.0 -03514.8 -07.6950 26249.4
 09 12 2013  22 20  -21.0203 26013.1 -03514.8 -07.6950 26249.5
 09 12 2013  22 21  -21.0195 26013.4 -03515.0 -07.6953 26249.8
 09 12 2013  22 22  -21.0189 26013.9 -03515.3 -07.6958 26250.3
 09 12 2013  22 23  -21.0182 26014.1 -03515.4 -07.6961 26250.6
 09 12 2013  22 24  -21.0179 26014.1 -03515.4 -07.6961 26250.6
 09 12 2013  22 25  -21.0182 26013.8 -03515.4 -07.6960 26250.2
 09 12 2013  22 26  -21.0188 26013.3 -03515.2 -07.6959 26249.8
 09 12 2013  22 27  -21.0197 26012.8 -03515.0 -07.6956 26249.2
 09 12 2013  22 28  -21.0204 26012.4 -03514.9 -07.6954 26248.8
 09 12 2013  22 29  -21.0205 26012.4 -03514.9 -07.6954 26248.8
 09 12 2013  22 30  -21.0197 26012.7 -03515.1 -07.6956 26249.2
 09 12 2013  22 31  -21.0190 26013.1 -03515.3 -07.6961 26249.6
 09 12 2013  22 32  -21.0186 26013.2 -03515.4 -07.6964 26249.7
 09 12 2013  22 33  -21.0183 26013.3 -03515.5 -07.6965 26249.7
 09 12 2013  22 34  -21.0185 26013.0 -03515.5 -07.6965 26249.5
 09 12 2013  22 35  -21.0190 26012.3 -03515.3 -07.6962 26248.8
 09 12 2013  22 36  -21.0194 26011.6 -03514.9 -07.6957 26248.0
 09 12 2013  22 37  -21.0196 26011.5 -03514.9 -07.6956 26247.9
 09 12 2013  22 38  -21.0193 26011.8 -03515.1 -07.6959 26248.2
 09 12 2013  22 39  -21.0187 26012.3 -03515.4 -07.6965 26248.8
 09 12 2013  22 40  -21.0180 26012.6 -03515.6 -07.6968 26249.1
 09 12 2013  22 41  -21.0173 26012.7 -03515.7 -07.6970 26249.2
 09 12 2013  22 42  -21.0169 26012.9 -03515.8 -07.6973 26249.5
 09 12 2013  22 43  -21.0164 26013.0 -03516.0 -07.6975 26249.6
 09 12 2013  22 44  -21.0164 26012.9 -03516.0 -07.6976 26249.4
 09 12 2013  22 45  -21.0168 26012.5 -03515.9 -07.6975 26249.0
 09 12 2013  22 46  -21.0174 26012.2 -03515.8 -07.6974 26248.7
 09 12 2013  22 47  -21.0178 26012.0 -03515.7 -07.6973 26248.5
 09 12 2013  22 48  -21.0180 26012.2 -03515.8 -07.6975 26248.7
 09 12 2013  22 49  -21.0183 26012.5 -03516.0 -07.6978 26249.1
 09 12 2013  22 50  -21.0182 26012.9 -03516.3 -07.6983 26249.5
 09 12 2013  22 51  -21.0174 26013.0 -03516.3 -07.6983 26249.6
 09 12 2013  22 52  -21.0177 26012.6 -03516.2 -07.6981 26249.2
 09 12 2013  22 53  -21.0178 26012.5 -03516.1 -07.6980 26249.1
 09 12 2013  22 54  -21.0178 26012.5 -03516.2 -07.6981 26249.0
 09 12 2013  22 55  -21.0175 26012.4 -03516.1 -07.6980 26248.9
 09 12 2013  22 56  -21.0169 26012.2 -03515.9 -07.6977 26248.7
 09 12 2013  22 57  -21.0160 26012.2 -03515.9 -07.6977 26248.7
 09 12 2013  22 58  -21.0156 26012.0 -03515.9 -07.6977 26248.5
 09 12 2013  22 59  -21.0154 26011.7 -03515.8 -07.6976 26248.2
 09 12 2013  23 00  -21.0158 26011.6 -03515.8 -07.6977 26248.1
 09 12 2013  23 01  -21.0157 26011.6 -03515.9 -07.6978 26248.1
 09 12 2013  23 02  -21.0152 26012.0 -03516.1 -07.6981 26248.5
 09 12 2013  23 03  -21.0151 26012.3 -03516.3 -07.6984 26248.9
 09 12 2013  23 04  -21.0151 26012.4 -03516.4 -07.6986 26249.0
 09 12 2013  23 05  -21.0152 26012.6 -03516.4 -07.6987 26249.2
 09 12 2013  23 06  -21.0153 26012.8 -03516.6 -07.6989 26249.5
 09 12 2013  23 07  -21.0149 26013.2 -03516.7 -07.6991 26249.8
 09 12 2013  23 08  -21.0145 26013.5 -03516.9 -07.6993 26250.2
 09 12 2013  23 09  -21.0142 26013.9 -03517.0 -07.6996 26250.6
 09 12 2013  23 10  -21.0141 26014.1 -03517.1 -07.6998 26250.8
 09 12 2013  23 11  -21.0139 26014.6 -03517.3 -07.7000 26251.3
 09 12 2013  23 12  -21.0138 26015.0 -03517.5 -07.7002 26251.7
 09 12 2013  23 13  -21.0135 26015.0 -03517.4 -07.7001 26251.7
 09 12 2013  23 14  -21.0135 26014.9 -03517.3 -07.6999 26251.6
 09 12 2013  23 15  -21.0138 26014.5 -03517.1 -07.6995 26251.2
 09 12 2013  23 16  -21.0140 26014.0 -03516.8 -07.6990 26250.7
 09 12 2013  23 17  -21.0143 26013.5 -03516.5 -07.6986 26250.1
 09 12 2013  23 18  -21.0147 26012.9 -03516.2 -07.6980 26249.5
 09 12 2013  23 19  -21.0144 26013.2 -03516.2 -07.6981 26249.8
 09 12 2013  23 20  -21.0138 26014.1 -03516.6 -07.6986 26250.7
 09 12 2013  23 21  -21.0126 26014.9 -03517.0 -07.6992 26251.5
 09 12 2013  23 22  -21.0121 26015.1 -03517.1 -07.6995 26251.8
 09 12 2013  23 23  -21.0120 26015.2 -03517.2 -07.6996 26251.9
 09 12 2013  23 24  -21.0120 26015.1 -03517.1 -07.6994 26251.8
 09 12 2013  23 25  -21.0121 26014.8 -03517.0 -07.6992 26251.4
 09 12 2013  23 26  -21.0121 26014.6 -03516.8 -07.6989 26251.2
 09 12 2013  23 27  -21.0122 26014.4 -03516.7 -07.6987 26251.0
 09 12 2013  23 28  -21.0121 26014.4 -03516.7 -07.6987 26251.1
 09 12 2013  23 29  -21.0119 26014.6 -03516.7 -07.6988 26251.2
 09 12 2013  23 30  -21.0117 26014.7 -03516.8 -07.6989 26251.3
 09 12 2013  23 31  -21.0118 26014.9 -03516.9 -07.6991 26251.5
 09 12 2013  23 32  -21.0117 26015.0 -03517.0 -07.6992 26251.7
 09 12 2013  23 33  -21.0116 26015.1 -03517.0 -07.6992 26251.8
 09 12 2013  23 34  -21.0115 26015.1 -03517.0 -07.6992 26251.8
 09 12 2013  23 35  -21.0116 26015.1 -03517.0 -07.6992 26251.7
 09 12 2013  23 36  -21.0116 26015.0 -03517.0 -07.6991 26251.7
 09 12 2013  23 37  -21.0118 26014.8 -03516.8 -07.6989 26251.4
 09 12 2013  23 38  -21.0120 26014.6 -03516.8 -07.6988 26251.2
 09 12 2013  23 39  -21.0122 26014.4 -03516.7 -07.6986 26251.0
 09 12 2013  23 40  -21.0122 26014.5 -03516.7 -07.6987 26251.1
 09 12 2013  23 41  -21.0123 26014.7 -03516.8 -07.6989 26251.4
 09 12 2013  23 42  -21.0121 26015.0 -03517.0 -07.6991 26251.7
 09 12 2013  23 43  -21.0121 26015.3 -03517.2 -07.6995 26252.0
 09 12 2013  23 44  -21.0121 26015.5 -03517.3 -07.6996 26252.2
 09 12 2013  23 45  -21.0123 26015.7 -03517.3 -07.6997 26252.4
 09 12 2013  23 46  -21.0125 26015.6 -03517.3 -07.6997 26252.3
 09 12 2013  23 47  -21.0127 26015.5 -03517.3 -07.6996 26252.2
 09 12 2013  23 48  -21.0131 26015.2 -03517.1 -07.6994 26251.9
 09 12 2013  23 49  -21.0135 26014.9 -03516.9 -07.6991 26251.5
 09 12 2013  23 50  -21.0137 26014.7 -03516.9 -07.6989 26251.4
 09 12 2013  23 51  -21.0140 26014.8 -03516.9 -07.6990 26251.4
 09 12 2013  23 52  -21.0140 26014.8 -03516.9 -07.6990 26251.4
 09 12 2013  23 53  -21.0138 26015.0 -03517.0 -07.6992 26251.7
 09 12 2013  23 54  -21.0137 26015.2 -03517.1 -07.6993 26251.9
 09 12 2013  23 55  -21.0135 26015.2 -03517.1 -07.6994 26251.9
 09 12 2013  23 56  -21.0136 26015.1 -03517.1 -07.6993 26251.8
 09 12 2013  23 57  -21.0135 26015.1 -03517.0 -07.6993 26251.7
 09 12 2013  23 58  -21.0135 26015.1 -03517.0 -07.6993 26251.7
