SAO LUIS EMBRACE-03 <126> 1 Min. Reported data

 DD MM YYYY  HH MM   D(Deg)  H(nT)   Z(nT)   I(Deg)   F(nT)

 06 05 2013  00 00  -21.0524 26037.9 -03436.4 -07.5183 26263.7
 06 05 2013  00 01  -21.0523 26038.0 -03436.5 -07.5184 26263.8
 06 05 2013  00 02  -21.0522 26038.0 -03436.5 -07.5184 26263.8
 06 05 2013  00 03  -21.0522 26038.1 -03436.6 -07.5185 26263.9
 06 05 2013  00 04  -21.0521 26038.2 -03436.7 -07.5187 26264.0
 06 05 2013  00 05  -21.0520 26038.3 -03436.7 -07.5188 26264.1
 06 05 2013  00 06  -21.0519 26038.4 -03436.8 -07.5189 26264.2
 06 05 2013  00 07  -21.0519 26038.5 -03436.8 -07.5190 26264.3
 06 05 2013  00 08  -21.0519 26038.6 -03436.9 -07.5192 26264.4
 06 05 2013  00 09  -21.0519 26038.7 -03437.0 -07.5193 26264.5
 06 05 2013  00 10  -21.0519 26038.7 -03437.0 -07.5193 26264.6
 06 05 2013  00 11  -21.0520 26038.7 -03437.0 -07.5193 26264.6
 06 05 2013  00 12  -21.0519 26038.7 -03437.0 -07.5193 26264.6
 06 05 2013  00 13  -21.0518 26038.6 -03437.0 -07.5193 26264.4
 06 05 2013  00 14  -21.0519 26038.4 -03436.8 -07.5191 26264.2
 06 05 2013  00 15  -21.0520 26038.2 -03436.8 -07.5189 26264.0
 06 05 2013  00 16  -21.0520 26038.2 -03436.8 -07.5191 26264.1
 06 05 2013  00 17  -21.0519 26038.4 -03436.9 -07.5192 26264.2
 06 05 2013  00 18  -21.0516 26038.5 -03437.0 -07.5193 26264.4
 06 05 2013  00 19  -21.0513 26038.7 -03437.0 -07.5194 26264.5
 06 05 2013  00 20  -21.0511 26038.5 -03437.0 -07.5194 26264.4
 06 05 2013  00 21  -21.0510 26038.5 -03437.0 -07.5194 26264.3
 06 05 2013  00 22  -21.0511 26038.4 -03437.0 -07.5194 26264.3
 06 05 2013  00 23  -21.0512 26038.3 -03437.0 -07.5194 26264.2
 06 05 2013  00 24  -21.0512 26038.3 -03437.0 -07.5194 26264.1
 06 05 2013  00 25  -21.0513 26038.1 -03436.9 -07.5193 26263.9
 06 05 2013  00 26  -21.0516 26037.8 -03436.8 -07.5192 26263.7
 06 05 2013  00 27  -21.0518 26037.7 -03436.8 -07.5191 26263.6
 06 05 2013  00 28  -21.0518 26037.7 -03436.8 -07.5192 26263.6
 06 05 2013  00 29  -21.0519 26037.8 -03436.9 -07.5193 26263.7
 06 05 2013  00 30  -21.0518 26037.9 -03436.9 -07.5194 26263.8
 06 05 2013  00 31  -21.0516 26038.0 -03437.0 -07.5195 26263.9
 06 05 2013  00 32  -21.0513 26038.1 -03437.1 -07.5196 26263.9
 06 05 2013  00 33  -21.0510 26038.0 -03437.1 -07.5197 26263.9
 06 05 2013  00 34  -21.0508 26038.0 -03437.1 -07.5197 26263.9
 06 05 2013  00 35  -21.0508 26038.2 -03437.2 -07.5199 26264.1
 06 05 2013  00 36  -21.0507 26038.4 -03437.3 -07.5201 26264.3
 06 05 2013  00 37  -21.0507 26038.6 -03437.4 -07.5202 26264.5
 06 05 2013  00 38  -21.0506 26038.7 -03437.5 -07.5204 26264.6
 06 05 2013  00 39  -21.0506 26038.8 -03437.6 -07.5205 26264.8
 06 05 2013  00 40  -21.0505 26039.0 -03437.7 -07.5207 26265.0
 06 05 2013  00 41  -21.0505 26039.2 -03437.8 -07.5208 26265.1
 06 05 2013  00 42  -21.0504 26039.3 -03437.8 -07.5210 26265.3
 06 05 2013  00 43  -21.0502 26039.6 -03437.9 -07.5211 26265.5
 06 05 2013  00 44  -21.0501 26039.7 -03438.0 -07.5212 26265.7
 06 05 2013  00 45  -21.0501 26039.8 -03438.0 -07.5213 26265.7
 06 05 2013  00 46  -21.0502 26039.8 -03438.0 -07.5212 26265.8
 06 05 2013  00 47  -21.0504 26039.8 -03438.0 -07.5212 26265.8
 06 05 2013  00 48  -21.0505 26039.6 -03437.9 -07.5210 26265.6
 06 05 2013  00 49  -21.0507 26039.4 -03437.8 -07.5208 26265.3
 06 05 2013  00 50  -21.0509 26039.2 -03437.7 -07.5206 26265.1
 06 05 2013  00 51  -21.0510 26039.1 -03437.6 -07.5205 26265.0
 06 05 2013  00 52  -21.0511 26039.0 -03437.5 -07.5204 26264.9
 06 05 2013  00 53  -21.0511 26039.0 -03437.6 -07.5204 26264.9
 06 05 2013  00 54  -21.0510 26039.2 -03437.6 -07.5206 26265.1
 06 05 2013  00 55  -21.0510 26039.2 -03437.7 -07.5206 26265.1
 06 05 2013  00 56  -21.0509 26039.1 -03437.6 -07.5206 26265.0
 06 05 2013  00 57  -21.0508 26039.0 -03437.6 -07.5206 26264.9
 06 05 2013  00 58  -21.0508 26038.9 -03437.6 -07.5205 26264.8
 06 05 2013  00 59  -21.0506 26038.7 -03437.5 -07.5204 26264.6
 06 05 2013  01 00  -21.0505 26038.6 -03437.5 -07.5204 26264.5
 06 05 2013  01 01  -21.0505 26038.4 -03437.4 -07.5203 26264.3
 06 05 2013  01 02  -21.0504 26038.3 -03437.4 -07.5203 26264.2
 06 05 2013  01 03  -21.0503 26038.3 -03437.4 -07.5203 26264.2
 06 05 2013  01 04  -21.0501 26038.2 -03437.4 -07.5204 26264.1
 06 05 2013  01 05  -21.0500 26038.1 -03437.4 -07.5204 26264.0
 06 05 2013  01 06  -21.0499 26038.0 -03437.4 -07.5204 26264.0
 06 05 2013  01 07  -21.0497 26037.9 -03437.4 -07.5205 26263.9
 06 05 2013  01 08  -21.0496 26037.9 -03437.4 -07.5205 26263.8
 06 05 2013  01 09  -21.0494 26037.8 -03437.5 -07.5206 26263.7
 06 05 2013  01 10  -21.0492 26037.8 -03437.5 -07.5207 26263.7
 06 05 2013  01 11  -21.0492 26037.8 -03437.6 -07.5208 26263.7
 06 05 2013  01 12  -21.0492 26037.8 -03437.6 -07.5208 26263.7
 06 05 2013  01 13  -21.0491 26037.7 -03437.6 -07.5209 26263.7
 06 05 2013  01 14  -21.0492 26037.7 -03437.6 -07.5210 26263.6
 06 05 2013  01 15  -21.0492 26037.7 -03437.7 -07.5210 26263.6
 06 05 2013  01 16  -21.0492 26037.7 -03437.7 -07.5212 26263.6
 06 05 2013  01 17  -21.0491 26037.7 -03437.8 -07.5212 26263.7
 06 05 2013  01 18  -21.0491 26037.8 -03437.8 -07.5213 26263.8
 06 05 2013  01 19  -21.0491 26038.0 -03437.9 -07.5215 26264.0
 06 05 2013  01 20  -21.0491 26038.2 -03438.1 -07.5218 26264.2
 06 05 2013  01 21  -21.0490 26038.3 -03438.2 -07.5219 26264.3
 06 05 2013  01 22  -21.0490 26038.3 -03438.2 -07.5220 26264.3
 06 05 2013  01 23  -21.0490 26038.2 -03438.1 -07.5219 26264.2
 06 05 2013  01 24  -21.0491 26038.1 -03438.1 -07.5219 26264.1
 06 05 2013  01 25  -21.0493 26038.0 -03438.0 -07.5218 26264.0
 06 05 2013  01 26  -21.0494 26037.8 -03437.9 -07.5216 26263.8
 06 05 2013  01 27  -21.0496 26037.6 -03437.9 -07.5215 26263.6
 06 05 2013  01 28  -21.0497 26037.6 -03437.9 -07.5215 26263.6
 06 05 2013  01 29  -21.0497 26037.6 -03437.9 -07.5215 26263.6
 06 05 2013  01 30  -21.0497 26037.7 -03437.9 -07.5216 26263.7
 06 05 2013  01 31  -21.0496 26037.9 -03438.0 -07.5218 26263.9
 06 05 2013  01 32  -21.0494 26038.3 -03438.2 -07.5221 26264.4
 06 05 2013  01 33  -21.0491 26038.8 -03438.4 -07.5224 26264.8
 06 05 2013  01 34  -21.0488 26039.2 -03438.6 -07.5227 26265.3
 06 05 2013  01 35  -21.0486 26039.5 -03438.8 -07.5230 26265.6
 06 05 2013  01 36  -21.0483 26039.8 -03439.0 -07.5232 26265.9
 06 05 2013  01 37  -21.0481 26040.0 -03439.0 -07.5233 26266.1
 06 05 2013  01 38  -21.0481 26040.0 -03439.0 -07.5232 26266.1
 06 05 2013  01 39  -21.0483 26039.8 -03438.8 -07.5230 26265.8
 06 05 2013  01 40  -21.0486 26039.6 -03438.7 -07.5227 26265.6
 06 05 2013  01 41  -21.0488 26039.5 -03438.6 -07.5225 26265.6
 06 05 2013  01 42  -21.0489 26039.5 -03438.5 -07.5224 26265.5
 06 05 2013  01 43  -21.0488 26039.4 -03438.5 -07.5223 26265.5
 06 05 2013  01 44  -21.0488 26039.4 -03438.4 -07.5222 26265.4
 06 05 2013  01 45  -21.0489 26039.3 -03438.4 -07.5221 26265.4
 06 05 2013  01 46  -21.0487 26039.3 -03438.4 -07.5221 26265.4
 06 05 2013  01 47  -21.0487 26039.3 -03438.3 -07.5220 26265.4
 06 05 2013  01 48  -21.0486 26039.4 -03438.3 -07.5220 26265.4
 06 05 2013  01 49  -21.0486 26039.4 -03438.3 -07.5219 26265.4
 06 05 2013  01 50  -21.0486 26039.3 -03438.3 -07.5219 26265.3
 06 05 2013  01 51  -21.0485 26039.2 -03438.2 -07.5218 26265.2
 06 05 2013  01 52  -21.0483 26039.2 -03438.1 -07.5216 26265.2
 06 05 2013  01 53  -21.0481 26039.2 -03438.1 -07.5216 26265.2
 06 05 2013  01 54  -21.0479 26039.1 -03438.1 -07.5216 26265.1
 06 05 2013  01 55  -21.0477 26039.0 -03438.1 -07.5215 26265.0
 06 05 2013  01 56  -21.0475 26038.9 -03438.0 -07.5213 26264.9
 06 05 2013  01 57  -21.0472 26038.8 -03437.9 -07.5213 26264.7
 06 05 2013  01 58  -21.0471 26038.7 -03437.9 -07.5212 26264.6
 06 05 2013  01 59  -21.0470 26038.6 -03437.9 -07.5213 26264.6
 06 05 2013  02 00  -21.0468 26038.6 -03437.9 -07.5214 26264.6
 06 05 2013  02 01  -21.0467 26038.7 -03438.0 -07.5215 26264.6
 06 05 2013  02 02  -21.0467 26038.6 -03438.0 -07.5214 26264.6
 06 05 2013  02 03  -21.0466 26038.5 -03438.0 -07.5215 26264.5
 06 05 2013  02 04  -21.0465 26038.6 -03438.0 -07.5215 26264.6
 06 05 2013  02 05  -21.0463 26038.7 -03438.1 -07.5216 26264.7
 06 05 2013  02 06  -21.0462 26038.8 -03438.1 -07.5217 26264.8
 06 05 2013  02 07  -21.0461 26038.7 -03438.1 -07.5217 26264.7
 06 05 2013  02 08  -21.0460 26038.6 -03438.1 -07.5216 26264.6
 06 05 2013  02 09  -21.0459 26038.8 -03438.1 -07.5218 26264.8
 06 05 2013  02 10  -21.0458 26038.9 -03438.2 -07.5219 26264.9
 06 05 2013  02 11  -21.0457 26038.8 -03438.2 -07.5219 26264.8
 06 05 2013  02 12  -21.0455 26038.5 -03438.1 -07.5217 26264.5
 06 05 2013  02 13  -21.0455 26038.3 -03438.0 -07.5216 26264.2
 06 05 2013  02 14  -21.0456 26038.0 -03437.9 -07.5214 26263.9
 06 05 2013  02 15  -21.0458 26037.6 -03437.7 -07.5211 26263.5
 06 05 2013  02 16  -21.0460 26037.0 -03437.5 -07.5208 26262.9
 06 05 2013  02 17  -21.0463 26036.4 -03437.2 -07.5204 26262.3
 06 05 2013  02 18  -21.0466 26035.9 -03437.0 -07.5201 26261.7
 06 05 2013  02 19  -21.0468 26035.5 -03436.9 -07.5199 26261.4
 06 05 2013  02 20  -21.0471 26035.3 -03436.8 -07.5199 26261.1
 06 05 2013  02 21  -21.0473 26035.1 -03436.8 -07.5199 26261.0
 06 05 2013  02 22  -21.0474 26035.0 -03436.8 -07.5199 26260.9
 06 05 2013  02 23  -21.0474 26035.0 -03436.9 -07.5201 26260.9
 06 05 2013  02 24  -21.0473 26034.9 -03436.9 -07.5203 26260.8
 06 05 2013  02 25  -21.0472 26034.9 -03437.0 -07.5204 26260.8
 06 05 2013  02 26  -21.0471 26034.8 -03437.0 -07.5205 26260.7
 06 05 2013  02 27  -21.0471 26034.8 -03437.1 -07.5206 26260.6
 06 05 2013  02 28  -21.0471 26034.7 -03437.1 -07.5207 26260.6
 06 05 2013  02 29  -21.0470 26034.8 -03437.2 -07.5208 26260.7
 06 05 2013  02 30  -21.0469 26034.8 -03437.2 -07.5209 26260.7
 06 05 2013  02 31  -21.0468 26034.9 -03437.3 -07.5211 26260.8
 06 05 2013  02 32  -21.0469 26035.3 -03437.6 -07.5215 26261.2
 06 05 2013  02 33  -21.0469 26035.6 -03437.8 -07.5219 26261.6
 06 05 2013  02 34  -21.0469 26035.8 -03437.9 -07.5222 26261.8
 06 05 2013  02 35  -21.0468 26036.1 -03438.0 -07.5223 26262.1
 06 05 2013  02 36  -21.0468 26036.3 -03438.2 -07.5225 26262.3
 06 05 2013  02 37  -21.0468 26036.6 -03438.3 -07.5228 26262.6
 06 05 2013  02 38  -21.0467 26036.9 -03438.4 -07.5229 26262.9
 06 05 2013  02 39  -21.0466 26037.3 -03438.6 -07.5232 26263.3
 06 05 2013  02 40  -21.0464 26037.7 -03438.8 -07.5235 26263.8
 06 05 2013  02 41  -21.0463 26037.9 -03438.9 -07.5236 26264.1
 06 05 2013  02 42  -21.0461 26038.1 -03438.9 -07.5237 26264.2
 06 05 2013  02 43  -21.0459 26038.2 -03439.0 -07.5237 26264.4
 06 05 2013  02 44  -21.0455 26038.5 -03439.0 -07.5238 26264.6
 06 05 2013  02 45  -21.0449 26038.8 -03439.2 -07.5239 26264.9
 06 05 2013  02 46  -21.0442 26039.1 -03439.2 -07.5240 26265.2
 06 05 2013  02 47  -21.0442 26039.0 -03439.2 -07.5240 26265.2
 06 05 2013  02 48  -21.0452 26038.7 -03439.1 -07.5239 26264.9
 06 05 2013  02 49  -21.0466 26038.4 -03438.9 -07.5236 26264.5
 06 05 2013  02 50  -21.0473 26038.2 -03438.8 -07.5233 26264.3
 06 05 2013  02 51  -21.0468 26038.4 -03438.7 -07.5232 26264.4
 06 05 2013  02 52  -21.0463 26038.6 -03438.8 -07.5233 26264.6
 06 05 2013  02 53  -21.0465 26038.4 -03438.7 -07.5231 26264.5
 06 05 2013  02 54  -21.0469 26038.2 -03438.6 -07.5230 26264.3
 06 05 2013  02 55  -21.0474 26037.7 -03438.4 -07.5226 26263.7
 06 05 2013  02 56  -21.0475 26037.2 -03438.1 -07.5222 26263.2
 06 05 2013  02 57  -21.0474 26036.9 -03437.9 -07.5219 26262.9
 06 05 2013  02 58  -21.0473 26036.6 -03437.8 -07.5216 26262.5
 06 05 2013  02 59  -21.0472 26036.3 -03437.7 -07.5214 26262.3
 06 05 2013  03 00  -21.0472 26036.1 -03437.6 -07.5213 26262.0
 06 05 2013  03 01  -21.0471 26035.9 -03437.6 -07.5213 26261.9
 06 05 2013  03 02  -21.0469 26035.9 -03437.6 -07.5213 26261.9
 06 05 2013  03 03  -21.0468 26036.0 -03437.6 -07.5214 26262.0
 06 05 2013  03 04  -21.0465 26036.1 -03437.7 -07.5216 26262.0
 06 05 2013  03 05  -21.0462 26036.0 -03437.7 -07.5216 26262.0
 06 05 2013  03 06  -21.0459 26035.9 -03437.7 -07.5216 26261.8
 06 05 2013  03 07  -21.0458 26035.8 -03437.7 -07.5216 26261.8
 06 05 2013  03 08  -21.0457 26035.8 -03437.7 -07.5217 26261.7
 06 05 2013  03 09  -21.0456 26035.8 -03437.7 -07.5218 26261.7
 06 05 2013  03 10  -21.0456 26035.7 -03437.7 -07.5218 26261.7
 06 05 2013  03 11  -21.0456 26035.6 -03437.7 -07.5218 26261.6
 06 05 2013  03 12  -21.0457 26035.5 -03437.7 -07.5218 26261.5
 06 05 2013  03 13  -21.0457 26035.4 -03437.7 -07.5218 26261.4
 06 05 2013  03 14  -21.0455 26035.5 -03437.7 -07.5218 26261.5
 06 05 2013  03 15  -21.0454 26035.4 -03437.7 -07.5218 26261.4
 06 05 2013  03 16  -21.0452 26035.5 -03437.8 -07.5219 26261.5
 06 05 2013  03 17  -21.0452 26035.5 -03437.8 -07.5221 26261.5
 06 05 2013  03 18  -21.0450 26035.7 -03437.9 -07.5222 26261.7
 06 05 2013  03 19  -21.0454 26035.2 -03437.8 -07.5219 26261.2
 06 05 2013  03 20  -21.0450 26035.5 -03437.8 -07.5220 26261.5
 06 05 2013  03 21  -21.0451 26035.3 -03437.8 -07.5221 26261.3
 06 05 2013  03 22  -21.0447 26035.3 -03437.8 -07.5220 26261.3
 06 05 2013  03 23  -21.0448 26035.2 -03437.8 -07.5221 26261.2
 06 05 2013  03 24  -21.0447 26035.1 -03437.8 -07.5220 26261.1
 06 05 2013  03 25  -21.0447 26035.1 -03437.8 -07.5221 26261.1
 06 05 2013  03 26  -21.0445 26035.3 -03437.9 -07.5222 26261.3
 06 05 2013  03 27  -21.0447 26034.9 -03437.8 -07.5221 26260.9
 06 05 2013  03 28  -21.0442 26035.2 -03437.9 -07.5222 26261.2
 06 05 2013  03 29  -21.0444 26035.3 -03438.0 -07.5225 26261.3
 06 05 2013  03 30  -21.0443 26035.5 -03438.1 -07.5226 26261.5
 06 05 2013  03 31  -21.0445 26035.4 -03438.2 -07.5227 26261.5
 06 05 2013  03 32  -21.0445 26035.6 -03438.2 -07.5227 26261.6
 06 05 2013  03 33  -21.0447 26035.7 -03438.3 -07.5229 26261.7
 06 05 2013  03 34  -21.0447 26035.8 -03438.3 -07.5229 26261.9
 06 05 2013  03 35  -21.0448 26035.7 -03438.3 -07.5230 26261.8
 06 05 2013  03 36  -21.0445 26036.0 -03438.3 -07.5230 26262.0
 06 05 2013  03 37  -21.0447 26035.9 -03438.4 -07.5231 26261.9
 06 05 2013  03 38  -21.0447 26035.7 -03438.2 -07.5228 26261.8
 06 05 2013  03 39  -21.0448 26035.7 -03438.2 -07.5228 26261.7
 06 05 2013  03 40  -21.0447 26035.6 -03438.2 -07.5227 26261.7
 06 05 2013  03 41  -21.0446 26035.7 -03438.2 -07.5228 26261.8
 06 05 2013  03 42  -21.0447 26035.9 -03438.3 -07.5229 26261.9
 06 05 2013  03 43  -21.0447 26035.9 -03438.3 -07.5229 26261.9
 06 05 2013  03 44  -21.0447 26035.9 -03438.3 -07.5230 26261.9
 06 05 2013  03 45  -21.0446 26035.9 -03438.4 -07.5230 26262.0
 06 05 2013  03 46  -21.0446 26035.9 -03438.3 -07.5230 26261.9
 06 05 2013  03 47  -21.0444 26035.9 -03438.3 -07.5229 26261.9
 06 05 2013  03 48  -21.0442 26035.8 -03438.3 -07.5229 26261.8
 06 05 2013  03 49  -21.0443 26035.8 -03438.2 -07.5228 26261.8
 06 05 2013  03 50  -21.0445 26035.5 -03438.2 -07.5227 26261.6
 06 05 2013  03 51  -21.0443 26035.5 -03438.1 -07.5227 26261.5
 06 05 2013  03 52  -21.0441 26035.4 -03438.1 -07.5226 26261.4
 06 05 2013  03 53  -21.0440 26035.3 -03438.1 -07.5226 26261.3
 06 05 2013  03 54  -21.0439 26035.2 -03438.0 -07.5226 26261.3
 06 05 2013  03 55  -21.0439 26035.1 -03438.0 -07.5225 26261.2
 06 05 2013  03 56  -21.0440 26035.1 -03438.0 -07.5225 26261.1
 06 05 2013  03 57  -21.0439 26035.0 -03438.0 -07.5225 26261.1
 06 05 2013  03 58  -21.0437 26035.0 -03438.0 -07.5226 26261.0
 06 05 2013  03 59  -21.0436 26034.9 -03438.0 -07.5226 26260.9
 06 05 2013  04 00  -21.0436 26034.9 -03438.0 -07.5227 26260.9
 06 05 2013  04 01  -21.0437 26034.8 -03438.0 -07.5227 26260.9
 06 05 2013  04 02  -21.0439 26034.8 -03438.1 -07.5227 26260.8
 06 05 2013  04 03  -21.0439 26034.8 -03438.1 -07.5228 26260.9
 06 05 2013  04 04  -21.0438 26034.8 -03438.1 -07.5228 26260.9
 06 05 2013  04 05  -21.0438 26034.9 -03438.2 -07.5229 26261.0
 06 05 2013  04 06  -21.0437 26035.0 -03438.2 -07.5230 26261.0
 06 05 2013  04 07  -21.0437 26035.1 -03438.3 -07.5231 26261.1
 06 05 2013  04 08  -21.0436 26035.2 -03438.3 -07.5232 26261.2
 06 05 2013  04 09  -21.0435 26035.3 -03438.4 -07.5233 26261.4
 06 05 2013  04 10  -21.0433 26035.3 -03438.4 -07.5233 26261.4
 06 05 2013  04 11  -21.0431 26035.4 -03438.5 -07.5234 26261.5
 06 05 2013  04 12  -21.0430 26035.5 -03438.5 -07.5235 26261.5
 06 05 2013  04 13  -21.0431 26035.5 -03438.5 -07.5235 26261.6
 06 05 2013  04 14  -21.0431 26035.5 -03438.5 -07.5235 26261.6
 06 05 2013  04 15  -21.0430 26035.5 -03438.5 -07.5235 26261.6
 06 05 2013  04 16  -21.0428 26035.6 -03438.6 -07.5236 26261.7
 06 05 2013  04 17  -21.0427 26035.7 -03438.6 -07.5236 26261.8
 06 05 2013  04 18  -21.0426 26035.7 -03438.6 -07.5237 26261.7
 06 05 2013  04 19  -21.0424 26035.6 -03438.6 -07.5236 26261.6
 06 05 2013  04 20  -21.0422 26035.3 -03438.4 -07.5234 26261.4
 06 05 2013  04 21  -21.0422 26035.2 -03438.3 -07.5232 26261.2
 06 05 2013  04 22  -21.0424 26035.0 -03438.3 -07.5232 26261.1
 06 05 2013  04 23  -21.0426 26034.9 -03438.3 -07.5231 26261.0
 06 05 2013  04 24  -21.0428 26034.8 -03438.2 -07.5231 26260.9
 06 05 2013  04 25  -21.0425 26035.0 -03438.3 -07.5232 26261.0
 06 05 2013  04 26  -21.0419 26035.1 -03438.4 -07.5233 26261.2
 06 05 2013  04 27  -21.0414 26035.4 -03438.5 -07.5234 26261.5
 06 05 2013  04 28  -21.0415 26035.4 -03438.5 -07.5236 26261.5
 06 05 2013  04 29  -21.0418 26035.3 -03438.6 -07.5237 26261.4
 06 05 2013  04 30  -21.0419 26035.1 -03438.5 -07.5235 26261.2
 06 05 2013  04 31  -21.0414 26035.1 -03438.4 -07.5234 26261.2
 06 05 2013  04 32  -21.0411 26035.3 -03438.5 -07.5235 26261.4
 06 05 2013  04 33  -21.0407 26035.6 -03438.6 -07.5237 26261.7
 06 05 2013  04 34  -21.0404 26035.8 -03438.7 -07.5239 26261.9
 06 05 2013  04 35  -21.0402 26035.9 -03438.8 -07.5240 26262.0
 06 05 2013  04 36  -21.0400 26035.9 -03438.8 -07.5241 26262.0
 06 05 2013  04 37  -21.0399 26036.0 -03438.9 -07.5241 26262.1
 06 05 2013  04 38  -21.0396 26036.5 -03439.1 -07.5244 26262.6
 06 05 2013  04 39  -21.0397 26036.3 -03439.0 -07.5244 26262.5
 06 05 2013  04 40  -21.0395 26036.8 -03439.2 -07.5247 26263.0
 06 05 2013  04 41  -21.0396 26036.5 -03439.1 -07.5246 26262.7
 06 05 2013  04 42  -21.0393 26036.7 -03439.2 -07.5246 26262.8
 06 05 2013  04 43  -21.0394 26036.5 -03439.1 -07.5244 26262.7
 06 05 2013  04 44  -21.0393 26036.6 -03439.1 -07.5244 26262.7
 06 05 2013  04 45  -21.0392 26036.3 -03438.9 -07.5242 26262.4
 06 05 2013  04 46  -21.0387 26036.5 -03439.0 -07.5242 26262.7
 06 05 2013  04 47  -21.0386 26036.6 -03439.1 -07.5244 26262.7
 06 05 2013  04 48  -21.0385 26036.6 -03439.1 -07.5244 26262.8
 06 05 2013  04 49  -21.0384 26036.6 -03439.0 -07.5243 26262.7
 06 05 2013  04 50  -21.0381 26036.6 -03439.1 -07.5244 26262.8
 06 05 2013  04 51  -21.0378 26036.8 -03439.1 -07.5245 26262.9
 06 05 2013  04 52  -21.0373 26037.0 -03439.2 -07.5246 26263.2
 06 05 2013  04 53  -21.0368 26037.2 -03439.4 -07.5248 26263.4
 06 05 2013  04 54  -21.0366 26037.3 -03439.4 -07.5249 26263.5
 06 05 2013  04 55  -21.0363 26037.2 -03439.3 -07.5248 26263.4
 06 05 2013  04 56  -21.0365 26037.1 -03439.3 -07.5248 26263.2
 06 05 2013  04 57  -21.0370 26036.7 -03439.2 -07.5246 26262.9
 06 05 2013  04 58  -21.0374 26036.5 -03439.1 -07.5244 26262.6
 06 05 2013  04 59  -21.0375 26036.4 -03439.0 -07.5244 26262.5
 06 05 2013  05 00  -21.0375 26036.3 -03439.0 -07.5243 26262.4
 06 05 2013  05 01  -21.0375 26036.1 -03438.9 -07.5242 26262.2
 06 05 2013  05 02  -21.0372 26036.0 -03438.9 -07.5241 26262.1
 06 05 2013  05 03  -21.0370 26035.8 -03438.8 -07.5240 26261.9
 06 05 2013  05 04  -21.0367 26035.9 -03438.8 -07.5240 26262.0
 06 05 2013  05 05  -21.0363 26036.0 -03438.9 -07.5241 26262.1
 06 05 2013  05 06  -21.0359 26036.0 -03438.9 -07.5242 26262.1
 06 05 2013  05 07  -21.0355 26036.1 -03439.0 -07.5243 26262.2
 06 05 2013  05 08  -21.0351 26036.3 -03439.1 -07.5245 26262.4
 06 05 2013  05 09  -21.0347 26036.6 -03439.2 -07.5248 26262.7
 06 05 2013  05 10  -21.0343 26036.7 -03439.4 -07.5250 26262.9
 06 05 2013  05 11  -21.0340 26036.8 -03439.4 -07.5251 26263.0
 06 05 2013  05 12  -21.0337 26037.0 -03439.5 -07.5252 26263.2
 06 05 2013  05 13  -21.0334 26037.2 -03439.6 -07.5253 26263.4
 06 05 2013  05 14  -21.0334 26037.4 -03439.7 -07.5256 26263.6
 06 05 2013  05 15  -21.0335 26037.9 -03440.0 -07.5260 26264.1
 06 05 2013  05 16  -21.0335 26037.8 -03440.0 -07.5261 26264.1
 06 05 2013  05 17  -21.0333 26037.7 -03439.9 -07.5258 26263.9
 06 05 2013  05 18  -21.0330 26037.9 -03439.9 -07.5258 26264.1
 06 05 2013  05 19  -21.0330 26038.0 -03440.0 -07.5259 26264.2
 06 05 2013  05 20  -21.0331 26038.2 -03440.1 -07.5261 26264.4
 06 05 2013  05 21  -21.0332 26038.1 -03440.0 -07.5261 26264.3
 06 05 2013  05 22  -21.0331 26038.2 -03440.0 -07.5260 26264.4
 06 05 2013  05 23  -21.0328 26038.5 -03440.1 -07.5262 26264.7
 06 05 2013  05 24  -21.0327 26038.5 -03440.1 -07.5262 26264.8
 06 05 2013  05 25  -21.0326 26038.5 -03440.1 -07.5262 26264.7
 06 05 2013  05 26  -21.0325 26038.4 -03440.1 -07.5261 26264.7
 06 05 2013  05 27  -21.0324 26038.5 -03440.1 -07.5260 26264.7
 06 05 2013  05 28  -21.0325 26038.4 -03440.1 -07.5260 26264.7
 06 05 2013  05 29  -21.0328 26038.2 -03440.0 -07.5259 26264.4
 06 05 2013  05 30  -21.0330 26037.9 -03439.8 -07.5257 26264.1
 06 05 2013  05 31  -21.0330 26037.6 -03439.7 -07.5254 26263.8
 06 05 2013  05 32  -21.0331 26037.5 -03439.6 -07.5252 26263.7
 06 05 2013  05 33  -21.0334 26037.4 -03439.6 -07.5252 26263.6
 06 05 2013  05 34  -21.0335 26037.3 -03439.5 -07.5252 26263.5
 06 05 2013  05 35  -21.0335 26037.3 -03439.5 -07.5252 26263.5
 06 05 2013  05 36  -21.0332 26037.3 -03439.6 -07.5253 26263.5
 06 05 2013  05 37  -21.0327 26037.5 -03439.7 -07.5254 26263.7
 06 05 2013  05 38  -21.0322 26037.8 -03439.8 -07.5256 26264.0
 06 05 2013  05 39  -21.0320 26037.9 -03439.9 -07.5257 26264.1
 06 05 2013  05 40  -21.0317 26038.0 -03439.9 -07.5258 26264.2
 06 05 2013  05 41  -21.0315 26038.2 -03440.0 -07.5259 26264.4
 06 05 2013  05 42  -21.0313 26038.4 -03440.1 -07.5262 26264.6
 06 05 2013  05 43  -21.0314 26038.6 -03440.2 -07.5264 26264.9
 06 05 2013  05 44  -21.0316 26038.8 -03440.3 -07.5265 26265.1
 06 05 2013  05 45  -21.0320 26038.9 -03440.4 -07.5266 26265.2
 06 05 2013  05 46  -21.0323 26039.0 -03440.4 -07.5266 26265.3
 06 05 2013  05 47  -21.0325 26038.9 -03440.4 -07.5265 26265.2
 06 05 2013  05 48  -21.0325 26038.9 -03440.3 -07.5264 26265.2
 06 05 2013  05 49  -21.0329 26038.8 -03440.2 -07.5262 26265.1
 06 05 2013  05 50  -21.0330 26038.8 -03440.1 -07.5261 26265.0
 06 05 2013  05 51  -21.0331 26038.6 -03440.0 -07.5258 26264.9
 06 05 2013  05 52  -21.0333 26038.6 -03439.9 -07.5257 26264.8
 06 05 2013  05 53  -21.0333 26038.5 -03439.9 -07.5256 26264.7
 06 05 2013  05 54  -21.0333 26038.6 -03439.9 -07.5256 26264.9
 06 05 2013  05 55  -21.0331 26038.5 -03439.8 -07.5255 26264.7
 06 05 2013  05 56  -21.0330 26038.4 -03439.8 -07.5254 26264.6
 06 05 2013  05 57  -21.0327 26038.3 -03439.7 -07.5253 26264.5
 06 05 2013  05 58  -21.0327 26038.3 -03439.7 -07.5252 26264.5
 06 05 2013  05 59  -21.0325 26038.1 -03439.6 -07.5251 26264.3
 06 05 2013  06 00  -21.0324 26038.1 -03439.5 -07.5250 26264.2
 06 05 2013  06 01  -21.0320 26037.9 -03439.5 -07.5249 26264.1
 06 05 2013  06 02  -21.0318 26038.1 -03439.6 -07.5251 26264.3
 06 05 2013  06 03  -21.0315 26038.1 -03439.6 -07.5251 26264.4
 06 05 2013  06 04  -21.0312 26038.2 -03439.7 -07.5252 26264.5
 06 05 2013  06 05  -21.0306 26038.3 -03439.7 -07.5252 26264.6
 06 05 2013  06 06  -21.0299 26038.6 -03439.8 -07.5254 26264.8
 06 05 2013  06 07  -21.0292 26039.0 -03440.0 -07.5258 26265.3
 06 05 2013  06 08  -21.0286 26039.6 -03440.4 -07.5264 26265.9
 06 05 2013  06 09  -21.0284 26040.0 -03440.6 -07.5267 26266.3
 06 05 2013  06 10  -21.0280 26040.1 -03440.7 -07.5268 26266.4
 06 05 2013  06 11  -21.0278 26040.0 -03440.6 -07.5267 26266.3
 06 05 2013  06 12  -21.0276 26039.8 -03440.5 -07.5265 26266.1
 06 05 2013  06 13  -21.0273 26039.7 -03440.4 -07.5263 26266.0
 06 05 2013  06 14  -21.0267 26039.8 -03440.4 -07.5263 26266.0
 06 05 2013  06 15  -21.0266 26040.2 -03440.6 -07.5267 26266.5
 06 05 2013  06 16  -21.0268 26040.3 -03440.7 -07.5269 26266.6
 06 05 2013  06 17  -21.0271 26040.4 -03440.8 -07.5270 26266.7
 06 05 2013  06 18  -21.0266 26040.6 -03440.9 -07.5271 26266.9
 06 05 2013  06 19  -21.0262 26041.1 -03441.1 -07.5274 26267.5
 06 05 2013  06 20  -21.0264 26041.7 -03441.5 -07.5281 26268.1
 06 05 2013  06 21  -21.0272 26041.7 -03441.5 -07.5281 26268.1
 06 05 2013  06 22  -21.0276 26041.6 -03441.4 -07.5280 26268.0
 06 05 2013  06 23  -21.0278 26041.7 -03441.3 -07.5278 26268.1
 06 05 2013  06 24  -21.0279 26041.5 -03441.2 -07.5275 26267.9
 06 05 2013  06 25  -21.0277 26041.2 -03441.0 -07.5272 26267.6
 06 05 2013  06 26  -21.0274 26041.6 -03441.0 -07.5272 26267.9
 06 05 2013  06 27  -21.0266 26041.9 -03441.2 -07.5275 26268.3
 06 05 2013  06 28  -21.0261 26042.4 -03441.5 -07.5279 26268.8
 06 05 2013  06 29  -21.0257 26042.8 -03441.7 -07.5284 26269.2
 06 05 2013  06 30  -21.0254 26043.2 -03441.9 -07.5286 26269.6
 06 05 2013  06 31  -21.0250 26043.6 -03442.1 -07.5289 26270.1
 06 05 2013  06 32  -21.0248 26043.9 -03442.3 -07.5293 26270.4
 06 05 2013  06 33  -21.0255 26043.8 -03442.2 -07.5292 26270.3
 06 05 2013  06 34  -21.0264 26043.3 -03442.0 -07.5288 26269.8
 06 05 2013  06 35  -21.0272 26043.0 -03441.8 -07.5284 26269.5
 06 05 2013  06 36  -21.0274 26042.9 -03441.6 -07.5281 26269.3
 06 05 2013  06 37  -21.0270 26042.9 -03441.6 -07.5280 26269.4
 06 05 2013  06 38  -21.0270 26042.8 -03441.5 -07.5278 26269.2
 06 05 2013  06 39  -21.0270 26043.0 -03441.5 -07.5279 26269.4
 06 05 2013  06 40  -21.0265 26043.3 -03441.7 -07.5281 26269.7
 06 05 2013  06 41  -21.0262 26043.6 -03441.8 -07.5284 26270.1
 06 05 2013  06 42  -21.0264 26043.6 -03441.9 -07.5284 26270.1
 06 05 2013  06 43  -21.0270 26043.2 -03441.7 -07.5281 26269.6
 06 05 2013  06 44  -21.0275 26042.6 -03441.2 -07.5274 26269.0
 06 05 2013  06 45  -21.0276 26042.3 -03441.0 -07.5269 26268.6
 06 05 2013  06 46  -21.0278 26042.3 -03441.0 -07.5269 26268.7
 06 05 2013  06 47  -21.0283 26042.6 -03441.2 -07.5272 26269.0
 06 05 2013  06 48  -21.0290 26042.8 -03441.2 -07.5273 26269.1
 06 05 2013  06 49  -21.0288 26042.9 -03441.2 -07.5273 26269.3
 06 05 2013  06 50  -21.0287 26043.2 -03441.3 -07.5274 26269.5
 06 05 2013  06 51  -21.0289 26043.3 -03441.4 -07.5275 26269.7
 06 05 2013  06 52  -21.0289 26043.1 -03441.2 -07.5273 26269.4
 06 05 2013  06 53  -21.0288 26043.0 -03441.1 -07.5271 26269.3
 06 05 2013  06 54  -21.0288 26043.1 -03441.2 -07.5271 26269.4
 06 05 2013  06 55  -21.0291 26043.0 -03441.2 -07.5272 26269.4
 06 05 2013  06 56  -21.0294 26042.7 -03441.1 -07.5270 26269.0
 06 05 2013  06 57  -21.0298 26042.2 -03440.8 -07.5265 26268.6
 06 05 2013  06 58  -21.0298 26042.1 -03440.8 -07.5265 26268.4
 06 05 2013  06 59  -21.0302 26042.2 -03440.8 -07.5265 26268.5
 06 05 2013  07 00  -21.0309 26042.1 -03440.8 -07.5265 26268.4
 06 05 2013  07 01  -21.0314 26041.9 -03440.6 -07.5262 26268.2
 06 05 2013  07 02  -21.0317 26041.9 -03440.6 -07.5262 26268.2
 06 05 2013  07 03  -21.0316 26041.8 -03440.6 -07.5262 26268.1
 06 05 2013  07 04  -21.0314 26042.0 -03440.7 -07.5264 26268.4
 06 05 2013  07 05  -21.0312 26042.3 -03440.8 -07.5266 26268.6
 06 05 2013  07 06  -21.0310 26042.5 -03441.0 -07.5269 26268.9
 06 05 2013  07 07  -21.0307 26042.4 -03440.9 -07.5267 26268.8
 06 05 2013  07 08  -21.0304 26042.4 -03440.9 -07.5267 26268.7
 06 05 2013  07 09  -21.0301 26042.2 -03440.8 -07.5265 26268.6
 06 05 2013  07 10  -21.0301 26042.3 -03440.8 -07.5266 26268.6
 06 05 2013  07 11  -21.0301 26042.4 -03440.9 -07.5267 26268.7
 06 05 2013  07 12  -21.0301 26042.6 -03441.1 -07.5270 26269.0
 06 05 2013  07 13  -21.0301 26043.0 -03441.3 -07.5273 26269.3
 06 05 2013  07 14  -21.0301 26043.2 -03441.4 -07.5275 26269.6
 06 05 2013  07 15  -21.0298 26043.4 -03441.4 -07.5276 26269.8
 06 05 2013  07 16  -21.0291 26043.5 -03441.4 -07.5276 26269.9
 06 05 2013  07 17  -21.0286 26043.8 -03441.6 -07.5278 26270.2
 06 05 2013  07 18  -21.0281 26044.0 -03441.7 -07.5280 26270.4
 06 05 2013  07 19  -21.0276 26044.1 -03441.7 -07.5280 26270.5
 06 05 2013  07 20  -21.0267 26044.2 -03441.7 -07.5280 26270.6
 06 05 2013  07 21  -21.0263 26044.3 -03441.7 -07.5280 26270.7
 06 05 2013  07 22  -21.0256 26044.2 -03441.7 -07.5278 26270.7
 06 05 2013  07 23  -21.0250 26044.0 -03441.5 -07.5275 26270.4
 06 05 2013  07 24  -21.0244 26043.8 -03441.3 -07.5273 26270.2
 06 05 2013  07 25  -21.0233 26043.5 -03441.1 -07.5269 26269.8
 06 05 2013  07 26  -21.0224 26043.6 -03441.1 -07.5268 26270.0
 06 05 2013  07 27  -21.0211 26043.6 -03441.1 -07.5268 26270.0
 06 05 2013  07 28  -21.0194 26043.9 -03441.2 -07.5270 26270.2
 06 05 2013  07 29  -21.0189 26044.2 -03441.5 -07.5275 26270.5
 06 05 2013  07 30  -21.0193 26043.4 -03441.1 -07.5269 26269.8
 06 05 2013  07 31  -21.0183 26043.1 -03440.8 -07.5262 26269.4
 06 05 2013  07 32  -21.0170 26043.7 -03441.1 -07.5267 26270.0
 06 05 2013  07 33  -21.0171 26043.5 -03441.0 -07.5267 26269.8
 06 05 2013  07 34  -21.0166 26043.5 -03441.1 -07.5267 26269.8
 06 05 2013  07 35  -21.0160 26043.9 -03441.3 -07.5272 26270.3
 06 05 2013  07 36  -21.0152 26044.2 -03441.7 -07.5278 26270.7
 06 05 2013  07 37  -21.0139 26044.0 -03441.6 -07.5278 26270.4
 06 05 2013  07 38  -21.0136 26043.9 -03441.5 -07.5276 26270.3
 06 05 2013  07 39  -21.0141 26043.7 -03441.4 -07.5274 26270.1
 06 05 2013  07 40  -21.0137 26043.4 -03441.2 -07.5270 26269.8
 06 05 2013  07 41  -21.0134 26043.5 -03441.3 -07.5272 26269.9
 06 05 2013  07 42  -21.0137 26043.7 -03441.5 -07.5276 26270.1
 06 05 2013  07 43  -21.0140 26042.9 -03441.1 -07.5271 26269.3
 06 05 2013  07 44  -21.0148 26042.1 -03440.7 -07.5263 26268.4
 06 05 2013  07 45  -21.0145 26042.0 -03440.5 -07.5260 26268.3
 06 05 2013  07 46  -21.0144 26042.7 -03441.0 -07.5268 26269.1
 06 05 2013  07 47  -21.0152 26043.1 -03441.4 -07.5275 26269.5
 06 05 2013  07 48  -21.0162 26042.8 -03441.4 -07.5276 26269.2
 06 05 2013  07 49  -21.0169 26042.2 -03441.1 -07.5271 26268.6
 06 05 2013  07 50  -21.0170 26041.8 -03440.7 -07.5264 26268.1
 06 05 2013  07 51  -21.0169 26042.4 -03440.9 -07.5267 26268.7
 06 05 2013  07 52  -21.0174 26043.8 -03441.7 -07.5280 26270.2
 06 05 2013  07 53  -21.0180 26045.2 -03442.6 -07.5296 26271.7
 06 05 2013  07 54  -21.0178 26046.1 -03443.0 -07.5303 26272.6
 06 05 2013  07 55  -21.0162 26046.1 -03442.9 -07.5300 26272.7
 06 05 2013  07 56  -21.0148 26045.6 -03442.4 -07.5290 26272.1
 06 05 2013  07 57  -21.0132 26046.1 -03442.4 -07.5288 26272.6
 06 05 2013  07 58  -21.0123 26046.5 -03442.5 -07.5290 26273.0
 06 05 2013  07 59  -21.0115 26046.8 -03442.6 -07.5291 26273.3
 06 05 2013  08 00  -21.0106 26047.0 -03442.6 -07.5291 26273.5
 06 05 2013  08 01  -21.0098 26046.4 -03442.2 -07.5284 26272.8
 06 05 2013  08 02  -21.0091 26046.0 -03441.7 -07.5275 26272.4
 06 05 2013  08 03  -21.0094 26046.1 -03441.8 -07.5277 26272.5
 06 05 2013  08 04  -21.0103 26046.3 -03442.0 -07.5279 26272.7
 06 05 2013  08 05  -21.0107 26046.5 -03442.0 -07.5279 26272.9
 06 05 2013  08 06  -21.0107 26046.2 -03441.9 -07.5277 26272.7
 06 05 2013  08 07  -21.0101 26045.5 -03441.3 -07.5268 26271.9
 06 05 2013  08 08  -21.0098 26045.6 -03441.3 -07.5267 26272.0
 06 05 2013  08 09  -21.0100 26045.9 -03441.5 -07.5270 26272.3
 06 05 2013  08 10  -21.0102 26046.5 -03441.8 -07.5274 26273.0
 06 05 2013  08 11  -21.0098 26046.6 -03441.8 -07.5275 26273.0
 06 05 2013  08 12  -21.0091 26046.3 -03441.5 -07.5270 26272.6
 06 05 2013  08 13  -21.0082 26046.1 -03441.3 -07.5266 26272.5
 06 05 2013  08 14  -21.0081 26046.0 -03441.1 -07.5261 26272.4
 06 05 2013  08 15  -21.0078 26046.8 -03441.4 -07.5266 26273.1
 06 05 2013  08 16  -21.0070 26047.4 -03441.7 -07.5271 26273.8
 06 05 2013  08 17  -21.0056 26047.7 -03441.8 -07.5271 26274.1
 06 05 2013  08 18  -21.0040 26047.9 -03441.8 -07.5271 26274.3
 06 05 2013  08 19  -21.0031 26047.9 -03441.8 -07.5270 26274.3
 06 05 2013  08 20  -21.0025 26047.9 -03441.8 -07.5270 26274.3
 06 05 2013  08 21  -21.0021 26047.9 -03441.8 -07.5271 26274.3
 06 05 2013  08 22  -21.0017 26048.1 -03441.9 -07.5273 26274.6
 06 05 2013  08 23  -21.0007 26048.6 -03442.2 -07.5277 26275.1
 06 05 2013  08 24  -20.9991 26048.9 -03442.4 -07.5280 26275.4
 06 05 2013  08 25  -20.9967 26048.9 -03442.4 -07.5280 26275.4
 06 05 2013  08 26  -20.9965 26048.0 -03442.0 -07.5275 26274.5
 06 05 2013  08 27  -20.9966 26047.1 -03441.6 -07.5268 26273.5
 06 05 2013  08 28  -20.9977 26046.9 -03441.5 -07.5268 26273.2
 06 05 2013  08 29  -20.9981 26047.4 -03441.9 -07.5274 26273.8
 06 05 2013  08 30  -20.9981 26047.4 -03442.1 -07.5278 26273.8
 06 05 2013  08 31  -20.9984 26047.1 -03442.0 -07.5277 26273.6
 06 05 2013  08 32  -20.9976 26047.2 -03442.0 -07.5278 26273.7
 06 05 2013  08 33  -20.9974 26047.4 -03442.2 -07.5281 26273.9
 06 05 2013  08 34  -20.9970 26047.9 -03442.6 -07.5288 26274.4
 06 05 2013  08 35  -20.9970 26047.6 -03442.6 -07.5289 26274.2
 06 05 2013  08 36  -20.9958 26048.0 -03442.6 -07.5289 26274.5
 06 05 2013  08 37  -20.9944 26048.6 -03443.0 -07.5294 26275.2
 06 05 2013  08 38  -20.9949 26048.9 -03443.4 -07.5301 26275.5
 06 05 2013  08 39  -20.9951 26048.5 -03443.2 -07.5299 26275.1
 06 05 2013  08 40  -20.9949 26048.0 -03443.0 -07.5295 26274.6
 06 05 2013  08 41  -20.9942 26048.2 -03443.0 -07.5295 26274.7
 06 05 2013  08 42  -20.9939 26048.5 -03443.2 -07.5299 26275.1
 06 05 2013  08 43  -20.9949 26048.7 -03443.4 -07.5303 26275.3
 06 05 2013  08 44  -20.9949 26048.7 -03443.5 -07.5305 26275.3
 06 05 2013  08 45  -20.9952 26048.4 -03443.3 -07.5302 26275.0
 06 05 2013  08 46  -20.9966 26048.2 -03443.3 -07.5303 26274.8
 06 05 2013  08 47  -20.9983 26047.5 -03443.1 -07.5299 26274.1
 06 05 2013  08 48  -21.0014 26046.1 -03442.5 -07.5290 26272.7
 06 05 2013  08 49  -21.0041 26045.2 -03441.8 -07.5279 26271.6
 06 05 2013  08 50  -21.0055 26045.5 -03441.9 -07.5280 26271.9
 06 05 2013  08 51  -21.0056 26046.3 -03442.3 -07.5287 26272.7
 06 05 2013  08 52  -21.0054 26046.9 -03442.6 -07.5291 26273.4
 06 05 2013  08 53  -21.0060 26047.3 -03442.9 -07.5297 26273.9
 06 05 2013  08 54  -21.0054 26047.7 -03443.1 -07.5299 26274.2
 06 05 2013  08 55  -21.0052 26048.4 -03443.3 -07.5302 26275.0
 06 05 2013  08 56  -21.0057 26049.1 -03443.6 -07.5307 26275.7
 06 05 2013  08 57  -21.0053 26049.7 -03443.8 -07.5309 26276.3
 06 05 2013  08 58  -21.0048 26050.2 -03444.0 -07.5312 26276.9
 06 05 2013  08 59  -21.0049 26050.2 -03443.9 -07.5310 26276.9
 06 05 2013  09 00  -21.0049 26050.1 -03443.7 -07.5306 26276.7
 06 05 2013  09 01  -21.0055 26050.4 -03443.7 -07.5305 26277.0
 06 05 2013  09 02  -21.0060 26050.0 -03443.4 -07.5299 26276.6
 06 05 2013  09 03  -21.0083 26048.7 -03442.7 -07.5288 26275.2
 06 05 2013  09 04  -21.0117 26046.9 -03441.7 -07.5272 26273.3
 06 05 2013  09 05  -21.0142 26046.4 -03441.4 -07.5266 26272.7
 06 05 2013  09 06  -21.0152 26045.6 -03441.0 -07.5259 26272.0
 06 05 2013  09 07  -21.0154 26044.7 -03440.1 -07.5244 26270.9
 06 05 2013  09 08  -21.0134 26045.8 -03440.4 -07.5247 26272.0
 06 05 2013  09 09  -21.0111 26045.5 -03440.2 -07.5243 26271.7
 06 05 2013  09 10  -21.0105 26044.8 -03439.9 -07.5239 26271.0
 06 05 2013  09 11  -21.0112 26044.8 -03440.1 -07.5243 26271.0
 06 05 2013  09 12  -21.0102 26044.8 -03440.2 -07.5245 26271.1
 06 05 2013  09 13  -21.0104 26044.8 -03440.3 -07.5247 26271.1
 06 05 2013  09 14  -21.0108 26044.8 -03440.5 -07.5251 26271.1
 06 05 2013  09 15  -21.0110 26044.7 -03440.6 -07.5254 26271.0
 06 05 2013  09 16  -21.0119 26044.3 -03440.5 -07.5254 26270.6
 06 05 2013  09 17  -21.0121 26044.8 -03440.8 -07.5259 26271.1
 06 05 2013  09 18  -21.0087 26046.3 -03441.5 -07.5270 26272.7
 06 05 2013  09 19  -21.0059 26047.4 -03442.1 -07.5280 26273.9
 06 05 2013  09 20  -21.0072 26047.9 -03442.7 -07.5290 26274.5
 06 05 2013  09 21  -21.0067 26048.4 -03442.9 -07.5294 26275.0
 06 05 2013  09 22  -21.0052 26048.9 -03443.2 -07.5297 26275.5
 06 05 2013  09 23  -21.0058 26049.0 -03443.1 -07.5296 26275.6
 06 05 2013  09 24  -21.0067 26048.9 -03443.2 -07.5299 26275.5
 06 05 2013  09 25  -21.0071 26048.5 -03443.1 -07.5297 26275.1
 06 05 2013  09 26  -21.0077 26048.5 -03443.0 -07.5294 26275.1
 06 05 2013  09 27  -21.0083 26048.8 -03443.1 -07.5297 26275.4
 06 05 2013  09 28  -21.0081 26048.6 -03443.0 -07.5295 26275.1
 06 05 2013  09 29  -21.0064 26047.8 -03442.4 -07.5284 26274.3
 06 05 2013  09 30  -21.0056 26047.6 -03442.2 -07.5281 26274.1
 06 05 2013  09 31  -21.0063 26048.0 -03442.5 -07.5286 26274.5
 06 05 2013  09 32  -21.0069 26048.9 -03443.0 -07.5295 26275.4
 06 05 2013  09 33  -21.0066 26049.6 -03443.5 -07.5302 26276.2
 06 05 2013  09 34  -21.0074 26049.5 -03443.5 -07.5304 26276.1
 06 05 2013  09 35  -21.0087 26049.7 -03443.8 -07.5308 26276.4
 06 05 2013  09 36  -21.0090 26050.5 -03444.2 -07.5316 26277.2
 06 05 2013  09 37  -21.0090 26050.8 -03444.4 -07.5318 26277.5
 06 05 2013  09 38  -21.0093 26051.1 -03444.5 -07.5321 26277.9
 06 05 2013  09 39  -21.0111 26051.8 -03444.9 -07.5327 26278.6
 06 05 2013  09 40  -21.0114 26052.1 -03445.1 -07.5331 26278.9
 06 05 2013  09 41  -21.0141 26050.9 -03444.5 -07.5320 26277.7
 06 05 2013  09 42  -21.0174 26050.4 -03444.2 -07.5317 26277.1
 06 05 2013  09 43  -21.0189 26050.4 -03444.3 -07.5317 26277.1
 06 05 2013  09 44  -21.0202 26050.5 -03444.4 -07.5319 26277.2
 06 05 2013  09 45  -21.0216 26050.2 -03444.4 -07.5320 26276.9
 06 05 2013  09 46  -21.0220 26049.9 -03444.3 -07.5320 26276.6
 06 05 2013  09 47  -21.0216 26049.5 -03444.2 -07.5317 26276.2
 06 05 2013  09 48  -21.0209 26049.5 -03444.2 -07.5317 26276.2
 06 05 2013  09 49  -21.0206 26049.6 -03444.2 -07.5318 26276.3
 06 05 2013  09 50  -21.0203 26049.5 -03444.3 -07.5319 26276.2
 06 05 2013  09 51  -21.0203 26049.5 -03444.3 -07.5319 26276.2
 06 05 2013  09 52  -21.0208 26049.8 -03444.5 -07.5323 26276.6
 06 05 2013  09 53  -21.0207 26049.9 -03444.6 -07.5326 26276.6
 06 05 2013  09 54  -21.0204 26050.1 -03444.7 -07.5327 26276.9
 06 05 2013  09 55  -21.0203 26050.3 -03444.8 -07.5329 26277.1
 06 05 2013  09 56  -21.0200 26050.6 -03444.9 -07.5331 26277.4
 06 05 2013  09 57  -21.0198 26051.1 -03445.1 -07.5334 26277.9
 06 05 2013  09 58  -21.0198 26051.8 -03445.5 -07.5339 26278.7
 06 05 2013  09 59  -21.0201 26052.0 -03445.5 -07.5340 26278.9
 06 05 2013  10 00  -21.0206 26052.5 -03445.7 -07.5342 26279.4
 06 05 2013  10 01  -21.0205 26053.0 -03445.8 -07.5342 26279.9
 06 05 2013  10 02  -21.0204 26053.3 -03445.8 -07.5341 26280.2
 06 05 2013  10 03  -21.0205 26053.6 -03445.8 -07.5340 26280.4
 06 05 2013  10 04  -21.0213 26053.9 -03445.8 -07.5340 26280.7
 06 05 2013  10 05  -21.0219 26054.4 -03445.9 -07.5341 26281.3
 06 05 2013  10 06  -21.0222 26054.7 -03445.9 -07.5340 26281.6
 06 05 2013  10 07  -21.0229 26054.6 -03445.7 -07.5337 26281.5
 06 05 2013  10 08  -21.0230 26054.4 -03445.5 -07.5331 26281.2
 06 05 2013  10 09  -21.0245 26054.3 -03445.3 -07.5328 26281.1
 06 05 2013  10 10  -21.0280 26054.3 -03445.3 -07.5329 26281.1
 06 05 2013  10 11  -21.0290 26054.0 -03445.2 -07.5326 26280.8
 06 05 2013  10 12  -21.0313 26053.8 -03445.1 -07.5326 26280.6
 06 05 2013  10 13  -21.0325 26053.2 -03444.9 -07.5324 26280.0
 06 05 2013  10 14  -21.0339 26053.3 -03445.0 -07.5325 26280.1
 06 05 2013  10 15  -21.0345 26054.0 -03445.5 -07.5333 26280.8
 06 05 2013  10 16  -21.0335 26054.0 -03445.5 -07.5333 26280.8
 06 05 2013  10 17  -21.0334 26053.5 -03445.1 -07.5326 26280.3
 06 05 2013  10 18  -21.0340 26052.9 -03444.7 -07.5318 26279.7
 06 05 2013  10 19  -21.0352 26052.4 -03444.3 -07.5311 26279.1
 06 05 2013  10 20  -21.0364 26052.4 -03444.2 -07.5310 26279.1
 06 05 2013  10 21  -21.0369 26053.2 -03444.5 -07.5314 26279.9
 06 05 2013  10 22  -21.0377 26053.4 -03444.5 -07.5314 26280.1
 06 05 2013  10 23  -21.0391 26053.3 -03444.5 -07.5313 26280.0
 06 05 2013  10 24  -21.0402 26053.2 -03444.3 -07.5309 26279.9
 06 05 2013  10 25  -21.0414 26053.0 -03444.0 -07.5304 26279.7
 06 05 2013  10 26  -21.0422 26053.1 -03443.9 -07.5302 26279.8
 06 05 2013  10 27  -21.0424 26053.4 -03443.9 -07.5300 26280.0
 06 05 2013  10 28  -21.0432 26053.6 -03443.8 -07.5298 26280.2
 06 05 2013  10 29  -21.0433 26053.7 -03443.8 -07.5297 26280.3
 06 05 2013  10 30  -21.0422 26054.9 -03444.1 -07.5300 26281.5
 06 05 2013  10 31  -21.0425 26056.0 -03444.5 -07.5307 26282.7
 06 05 2013  10 32  -21.0421 26056.6 -03444.7 -07.5309 26283.3
 06 05 2013  10 33  -21.0424 26056.6 -03444.6 -07.5306 26283.3
 06 05 2013  10 34  -21.0427 26057.1 -03444.5 -07.5304 26283.8
 06 05 2013  10 35  -21.0429 26057.4 -03444.3 -07.5298 26284.1
 06 05 2013  10 36  -21.0434 26057.7 -03444.1 -07.5293 26284.4
 06 05 2013  10 37  -21.0437 26058.2 -03444.0 -07.5289 26284.8
 06 05 2013  10 38  -21.0442 26058.7 -03444.1 -07.5289 26285.3
 06 05 2013  10 39  -21.0446 26059.1 -03444.1 -07.5288 26285.7
 06 05 2013  10 40  -21.0461 26059.1 -03443.9 -07.5284 26285.7
 06 05 2013  10 41  -21.0477 26059.5 -03443.8 -07.5281 26286.1
 06 05 2013  10 42  -21.0483 26060.2 -03443.8 -07.5278 26286.8
 06 05 2013  10 43  -21.0485 26060.8 -03443.7 -07.5274 26287.4
 06 05 2013  10 44  -21.0494 26061.4 -03443.7 -07.5273 26288.0
 06 05 2013  10 45  -21.0494 26062.0 -03443.7 -07.5271 26288.6
 06 05 2013  10 46  -21.0499 26062.5 -03443.6 -07.5267 26289.0
 06 05 2013  10 47  -21.0504 26062.6 -03443.3 -07.5261 26289.1
 06 05 2013  10 48  -21.0510 26063.0 -03443.1 -07.5256 26289.4
 06 05 2013  10 49  -21.0515 26063.5 -03443.0 -07.5253 26289.9
 06 05 2013  10 50  -21.0513 26064.0 -03443.0 -07.5250 26290.4
 06 05 2013  10 51  -21.0509 26064.6 -03442.9 -07.5247 26291.0
 06 05 2013  10 52  -21.0513 26065.2 -03442.9 -07.5246 26291.6
 06 05 2013  10 53  -21.0529 26065.7 -03442.9 -07.5243 26292.1
 06 05 2013  10 54  -21.0535 26066.7 -03443.0 -07.5244 26293.1
 06 05 2013  10 55  -21.0539 26067.4 -03443.0 -07.5241 26293.8
 06 05 2013  10 56  -21.0541 26067.9 -03442.8 -07.5236 26294.2
 06 05 2013  10 57  -21.0539 26068.5 -03442.7 -07.5231 26294.9
 06 05 2013  10 58  -21.0542 26069.1 -03442.5 -07.5226 26295.4
 06 05 2013  10 59  -21.0543 26069.5 -03442.3 -07.5220 26295.8
 06 05 2013  11 00  -21.0544 26069.9 -03442.1 -07.5214 26296.1
 06 05 2013  11 01  -21.0537 26070.7 -03442.0 -07.5209 26296.9
 06 05 2013  11 02  -21.0536 26071.2 -03441.8 -07.5203 26297.4
 06 05 2013  11 03  -21.0539 26071.4 -03441.5 -07.5197 26297.6
 06 05 2013  11 04  -21.0543 26071.9 -03441.4 -07.5193 26298.1
 06 05 2013  11 05  -21.0550 26072.6 -03441.3 -07.5189 26298.7
 06 05 2013  11 06  -21.0561 26073.2 -03441.0 -07.5182 26299.3
 06 05 2013  11 07  -21.0556 26074.0 -03440.8 -07.5175 26300.1
 06 05 2013  11 08  -21.0555 26074.4 -03440.6 -07.5169 26300.4
 06 05 2013  11 09  -21.0552 26074.4 -03440.2 -07.5161 26300.4
 06 05 2013  11 10  -21.0559 26075.2 -03440.1 -07.5157 26301.2
 06 05 2013  11 11  -21.0576 26076.7 -03440.4 -07.5158 26302.7
 06 05 2013  11 12  -21.0598 26077.4 -03440.2 -07.5152 26303.4
 06 05 2013  11 13  -21.0620 26077.6 -03439.7 -07.5140 26303.4
 06 05 2013  11 14  -21.0633 26077.4 -03439.1 -07.5128 26303.2
 06 05 2013  11 15  -21.0643 26076.8 -03438.3 -07.5113 26302.5
 06 05 2013  11 16  -21.0649 26076.1 -03437.6 -07.5099 26301.7
 06 05 2013  11 17  -21.0648 26075.7 -03437.0 -07.5088 26301.3
 06 05 2013  11 18  -21.0662 26075.2 -03436.5 -07.5078 26300.7
 06 05 2013  11 19  -21.0685 26075.0 -03436.1 -07.5070 26300.4
 06 05 2013  11 20  -21.0698 26075.1 -03435.8 -07.5062 26300.5
 06 05 2013  11 21  -21.0696 26075.1 -03435.4 -07.5055 26300.5
 06 05 2013  11 22  -21.0702 26074.8 -03435.0 -07.5047 26300.1
 06 05 2013  11 23  -21.0715 26074.6 -03434.7 -07.5041 26299.9
 06 05 2013  11 24  -21.0721 26074.1 -03434.1 -07.5030 26299.3
 06 05 2013  11 25  -21.0728 26073.3 -03433.5 -07.5019 26298.4
 06 05 2013  11 26  -21.0735 26072.4 -03433.0 -07.5010 26297.5
 06 05 2013  11 27  -21.0733 26072.1 -03432.7 -07.5006 26297.1
 06 05 2013  11 28  -21.0722 26071.8 -03432.7 -07.5005 26296.8
 06 05 2013  11 29  -21.0710 26072.3 -03432.9 -07.5010 26297.3
 06 05 2013  11 30  -21.0695 26073.5 -03433.5 -07.5018 26298.6
 06 05 2013  11 31  -21.0680 26075.7 -03434.2 -07.5028 26300.9
 06 05 2013  11 32  -21.0667 26078.4 -03435.0 -07.5037 26303.7
 06 05 2013  11 33  -21.0651 26080.6 -03435.3 -07.5038 26305.9
 06 05 2013  11 34  -21.0637 26081.8 -03435.3 -07.5033 26307.1
 06 05 2013  11 35  -21.0628 26082.1 -03434.8 -07.5023 26307.3
 06 05 2013  11 36  -21.0631 26081.6 -03434.1 -07.5008 26306.7
 06 05 2013  11 37  -21.0644 26081.0 -03433.4 -07.4995 26306.0
 06 05 2013  11 38  -21.0654 26080.7 -03432.9 -07.4986 26305.7
 06 05 2013  11 39  -21.0664 26080.6 -03432.6 -07.4979 26305.5
 06 05 2013  11 40  -21.0667 26080.6 -03432.4 -07.4975 26305.5
 06 05 2013  11 41  -21.0664 26080.9 -03432.3 -07.4972 26305.8
 06 05 2013  11 42  -21.0659 26081.4 -03432.3 -07.4970 26306.2
 06 05 2013  11 43  -21.0661 26081.7 -03432.2 -07.4968 26306.5
 06 05 2013  11 44  -21.0665 26082.6 -03432.3 -07.4967 26307.4
 06 05 2013  11 45  -21.0672 26083.2 -03432.3 -07.4964 26308.0
 06 05 2013  11 46  -21.0678 26083.3 -03431.9 -07.4957 26308.1
 06 05 2013  11 47  -21.0683 26083.3 -03431.6 -07.4949 26308.1
 06 05 2013  11 48  -21.0683 26083.2 -03431.1 -07.4939 26307.9
 06 05 2013  11 49  -21.0680 26083.2 -03430.8 -07.4931 26307.9
 06 05 2013  11 50  -21.0675 26083.6 -03430.6 -07.4927 26308.2
 06 05 2013  11 51  -21.0657 26084.6 -03430.7 -07.4926 26309.3
 06 05 2013  11 52  -21.0641 26085.7 -03430.9 -07.4928 26310.3
 06 05 2013  11 53  -21.0627 26086.8 -03431.2 -07.4931 26311.5
 06 05 2013  11 54  -21.0619 26087.3 -03431.2 -07.4930 26312.0
 06 05 2013  11 55  -21.0619 26087.2 -03431.0 -07.4926 26311.9
 06 05 2013  11 56  -21.0625 26087.6 -03430.9 -07.4923 26312.2
 06 05 2013  11 57  -21.0628 26088.1 -03430.7 -07.4917 26312.7
 06 05 2013  11 58  -21.0621 26088.6 -03430.4 -07.4908 26313.2
 06 05 2013  11 59  -21.0594 26088.2 -03429.6 -07.4892 26312.6
 06 05 2013  12 00  -21.0563 26088.2 -03429.0 -07.4880 26312.5
 06 05 2013  12 01  -21.0535 26088.5 -03428.9 -07.4876 26312.8
 06 05 2013  12 02  -21.0510 26089.2 -03428.9 -07.4875 26313.6
 06 05 2013  12 03  -21.0494 26090.6 -03429.3 -07.4879 26315.0
 06 05 2013  12 04  -21.0485 26092.1 -03429.7 -07.4883 26316.5
 06 05 2013  12 05  -21.0479 26093.3 -03429.9 -07.4884 26317.8
 06 05 2013  12 06  -21.0467 26095.1 -03430.2 -07.4886 26319.5
 06 05 2013  12 07  -21.0456 26095.9 -03430.1 -07.4881 26320.4
 06 05 2013  12 08  -21.0451 26096.0 -03429.8 -07.4874 26320.4
 06 05 2013  12 09  -21.0434 26096.5 -03429.6 -07.4870 26320.9
 06 05 2013  12 10  -21.0433 26096.9 -03429.7 -07.4869 26321.3
 06 05 2013  12 11  -21.0445 26096.9 -03429.4 -07.4864 26321.2
 06 05 2013  12 12  -21.0438 26096.7 -03429.0 -07.4854 26321.0
 06 05 2013  12 13  -21.0431 26096.7 -03428.8 -07.4851 26321.0
 06 05 2013  12 14  -21.0432 26096.7 -03428.7 -07.4849 26320.9
 06 05 2013  12 15  -21.0434 26097.5 -03428.9 -07.4851 26321.8
 06 05 2013  12 16  -21.0426 26097.3 -03428.7 -07.4846 26321.5
 06 05 2013  12 17  -21.0408 26097.1 -03428.5 -07.4843 26321.3
 06 05 2013  12 18  -21.0407 26097.0 -03428.5 -07.4844 26321.3
 06 05 2013  12 19  -21.0408 26097.2 -03428.6 -07.4845 26321.4
 06 05 2013  12 20  -21.0399 26097.8 -03428.8 -07.4848 26322.0
 06 05 2013  12 21  -21.0400 26098.1 -03429.0 -07.4851 26322.4
 06 05 2013  12 22  -21.0417 26098.0 -03428.9 -07.4850 26322.3
 06 05 2013  12 23  -21.0422 26097.5 -03428.5 -07.4843 26321.7
 06 05 2013  12 24  -21.0422 26096.4 -03427.9 -07.4833 26320.6
 06 05 2013  12 25  -21.0423 26096.1 -03427.9 -07.4833 26320.2
 06 05 2013  12 26  -21.0427 26096.0 -03428.1 -07.4837 26320.2
 06 05 2013  12 27  -21.0436 26095.4 -03428.1 -07.4839 26319.6
 06 05 2013  12 28  -21.0441 26094.8 -03428.0 -07.4840 26319.0
 06 05 2013  12 29  -21.0439 26094.6 -03428.1 -07.4843 26318.8
 06 05 2013  12 30  -21.0436 26094.2 -03428.2 -07.4845 26318.4
 06 05 2013  12 31  -21.0437 26094.2 -03428.4 -07.4849 26318.4
 06 05 2013  12 32  -21.0435 26093.8 -03428.3 -07.4849 26318.0
 06 05 2013  12 33  -21.0429 26093.3 -03428.3 -07.4849 26317.5
 06 05 2013  12 34  -21.0433 26092.4 -03428.2 -07.4849 26316.7
 06 05 2013  12 35  -21.0432 26091.9 -03428.3 -07.4853 26316.2
 06 05 2013  12 36  -21.0430 26087.9 -03425.5 -07.4805 26311.9
 06 05 2013  12 37  -21.0426 26087.0 -03428.2 -07.4866 26311.3
 06 05 2013  12 38  -21.0411 26087.9 -03428.8 -07.4875 26312.3
 06 05 2013  12 39  -21.0394 26088.1 -03429.1 -07.4882 26312.5
 06 05 2013  12 40  -21.0392 26088.9 -03429.7 -07.4893 26313.4
 06 05 2013  12 41  -21.0397 26090.2 -03430.6 -07.4908 26314.8
 06 05 2013  12 42  -21.0403 26091.1 -03431.0 -07.4914 26315.8
 06 05 2013  12 43  -21.0404 26091.8 -03431.0 -07.4913 26316.4
 06 05 2013  12 44  -21.0403 26091.9 -03430.7 -07.4905 26316.4
 06 05 2013  12 45  -21.0399 26090.9 -03430.0 -07.4894 26315.4
 06 05 2013  12 46  -21.0395 26090.4 -03429.9 -07.4892 26314.9
 06 05 2013  12 47  -21.0395 26090.6 -03430.1 -07.4896 26315.1
 06 05 2013  12 48  -21.0395 26090.4 -03430.2 -07.4899 26314.9
 06 05 2013  12 49  -21.0394 26090.3 -03430.4 -07.4904 26314.9
 06 05 2013  12 50  -21.0390 26091.0 -03430.8 -07.4911 26315.6
 06 05 2013  12 51  -21.0394 26091.5 -03431.1 -07.4915 26316.1
 06 05 2013  12 52  -21.0393 26091.7 -03431.1 -07.4915 26316.4
 06 05 2013  12 53  -21.0377 26092.5 -03431.2 -07.4915 26317.1
 06 05 2013  12 54  -21.0370 26092.9 -03431.2 -07.4914 26317.5
 06 05 2013  12 55  -21.0371 26092.3 -03430.9 -07.4908 26316.9
 06 05 2013  12 56  -21.0371 26091.0 -03430.3 -07.4899 26315.6
 06 05 2013  12 57  -21.0376 26090.9 -03430.2 -07.4898 26315.4
 06 05 2013  12 58  -21.0380 26091.0 -03430.2 -07.4898 26315.5
 06 05 2013  12 59  -21.0384 26089.9 -03429.7 -07.4890 26314.4
 06 05 2013  13 00  -21.0385 26088.5 -03429.3 -07.4886 26312.9
 06 05 2013  13 01  -21.0384 26088.3 -03429.5 -07.4889 26312.7
 06 05 2013  13 02  -21.0379 26089.1 -03429.9 -07.4897 26313.6
 06 05 2013  13 03  -21.0369 26088.2 -03429.6 -07.4893 26312.7
 06 05 2013  13 04  -21.0360 26087.0 -03429.4 -07.4890 26311.5
 06 05 2013  13 05  -21.0351 26085.3 -03429.3 -07.4893 26309.8
 06 05 2013  13 06  -21.0339 26084.5 -03429.2 -07.4894 26309.0
 06 05 2013  13 07  -21.0333 26085.0 -03430.0 -07.4909 26309.6
 06 05 2013  13 08  -21.0326 26085.3 -03430.6 -07.4922 26309.9
 06 05 2013  13 09  -21.0317 26087.0 -03431.0 -07.4925 26311.7
 06 05 2013  13 10  -21.0306 26087.4 -03431.2 -07.4929 26312.1
 06 05 2013  13 11  -21.0293 26087.2 -03431.5 -07.4936 26311.9
 06 05 2013  13 12  -21.0278 26087.0 -03431.7 -07.4942 26311.8
 06 05 2013  13 13  -21.0263 26086.8 -03432.0 -07.4947 26311.6
 06 05 2013  13 14  -21.0251 26086.6 -03432.2 -07.4954 26311.4
 06 05 2013  13 15  -21.0238 26087.0 -03432.3 -07.4955 26311.8
 06 05 2013  13 16  -21.0225 26087.4 -03432.6 -07.4959 26312.3
 06 05 2013  13 17  -21.0213 26087.3 -03432.9 -07.4966 26312.2
 06 05 2013  13 18  -21.0206 26086.9 -03433.1 -07.4973 26311.8
 06 05 2013  13 19  -21.0203 26087.5 -03433.6 -07.4981 26312.5
 06 05 2013  13 20  -21.0199 26087.7 -03434.1 -07.4991 26312.8
 06 05 2013  13 21  -21.0197 26088.5 -03434.6 -07.4999 26313.6
 06 05 2013  13 22  -21.0193 26088.8 -03434.9 -07.5006 26314.0
 06 05 2013  13 23  -21.0189 26089.3 -03435.2 -07.5010 26314.5
 06 05 2013  13 24  -21.0182 26089.1 -03435.3 -07.5013 26314.3
 06 05 2013  13 25  -21.0175 26088.6 -03435.3 -07.5013 26313.8
 06 05 2013  13 26  -21.0172 26088.1 -03435.2 -07.5015 26313.3
 06 05 2013  13 27  -21.0174 26087.6 -03435.5 -07.5022 26312.8
 06 05 2013  13 28  -21.0177 26087.6 -03435.7 -07.5025 26312.9
 06 05 2013  13 29  -21.0174 26087.8 -03435.8 -07.5028 26313.1
 06 05 2013  13 30  -21.0166 26087.6 -03435.8 -07.5028 26312.9
 06 05 2013  13 31  -21.0163 26086.8 -03436.0 -07.5034 26312.1
 06 05 2013  13 32  -21.0161 26087.1 -03436.3 -07.5041 26312.5
 06 05 2013  13 33  -21.0164 26087.4 -03436.8 -07.5050 26312.8
 06 05 2013  13 34  -21.0162 26087.3 -03437.0 -07.5054 26312.8
 06 05 2013  13 35  -21.0159 26087.1 -03436.9 -07.5054 26312.5
 06 05 2013  13 36  -21.0155 26085.9 -03436.9 -07.5057 26311.3
 06 05 2013  13 37  -21.0151 26085.5 -03437.2 -07.5064 26310.9
 06 05 2013  13 38  -21.0151 26085.5 -03437.5 -07.5070 26311.0
 06 05 2013  13 39  -21.0148 26084.4 -03437.5 -07.5075 26310.0
 06 05 2013  13 40  -21.0144 26084.1 -03437.5 -07.5075 26309.7
 06 05 2013  13 41  -21.0139 26084.4 -03437.7 -07.5078 26310.0
 06 05 2013  13 42  -21.0138 26083.6 -03437.7 -07.5081 26309.1
 06 05 2013  13 43  -21.0136 26083.3 -03437.8 -07.5083 26308.8
 06 05 2013  13 44  -21.0135 26083.5 -03438.1 -07.5089 26309.1
 06 05 2013  13 45  -21.0135 26083.4 -03438.2 -07.5092 26309.1
 06 05 2013  13 46  -21.0135 26083.1 -03438.3 -07.5095 26308.7
 06 05 2013  13 47  -21.0137 26083.2 -03438.7 -07.5103 26308.9
 06 05 2013  13 48  -21.0141 26084.1 -03439.1 -07.5109 26309.9
 06 05 2013  13 49  -21.0141 26084.7 -03439.4 -07.5113 26310.4
 06 05 2013  13 50  -21.0144 26085.1 -03439.9 -07.5124 26311.0
 06 05 2013  13 51  -21.0151 26085.3 -03440.3 -07.5131 26311.1
 06 05 2013  13 52  -21.0147 26085.8 -03440.3 -07.5130 26311.6
 06 05 2013  13 53  -21.0143 26086.6 -03440.5 -07.5133 26312.5
 06 05 2013  13 54  -21.0142 26086.9 -03440.8 -07.5138 26312.9
 06 05 2013  13 55  -21.0145 26087.8 -03440.9 -07.5138 26313.7
 06 05 2013  13 56  -21.0142 26087.6 -03440.7 -07.5134 26313.6
 06 05 2013  13 57  -21.0133 26087.2 -03440.6 -07.5133 26313.1
 06 05 2013  13 58  -21.0135 26087.1 -03440.9 -07.5140 26313.1
 06 05 2013  13 59  -21.0142 26087.3 -03441.3 -07.5147 26313.3
 06 05 2013  14 00  -21.0140 26087.9 -03441.7 -07.5154 26313.9
 06 05 2013  14 01  -21.0133 26087.8 -03441.7 -07.5154 26313.9
 06 05 2013  14 02  -21.0128 26087.7 -03441.8 -07.5157 26313.7
 06 05 2013  14 03  -21.0124 26087.3 -03441.7 -07.5157 26313.3
 06 05 2013  14 04  -21.0121 26086.7 -03441.7 -07.5157 26312.8
 06 05 2013  14 05  -21.0122 26087.2 -03441.9 -07.5161 26313.3
 06 05 2013  14 06  -21.0126 26087.5 -03442.2 -07.5166 26313.6
 06 05 2013  14 07  -21.0123 26086.7 -03441.9 -07.5161 26312.8
 06 05 2013  14 08  -21.0119 26085.6 -03441.4 -07.5155 26311.7
 06 05 2013  14 09  -21.0116 26084.1 -03441.1 -07.5152 26310.1
 06 05 2013  14 10  -21.0113 26083.0 -03441.2 -07.5158 26309.0
 06 05 2013  14 11  -21.0117 26082.5 -03441.8 -07.5173 26308.7
 06 05 2013  14 12  -21.0123 26083.1 -03442.3 -07.5182 26309.2
 06 05 2013  14 13  -21.0125 26083.6 -03442.6 -07.5185 26309.8
 06 05 2013  14 14  -21.0127 26083.1 -03442.5 -07.5186 26309.3
 06 05 2013  14 15  -21.0127 26082.8 -03442.6 -07.5188 26309.0
 06 05 2013  14 16  -21.0137 26082.7 -03442.9 -07.5196 26309.0
 06 05 2013  14 17  -21.0146 26082.2 -03443.0 -07.5199 26308.5
 06 05 2013  14 18  -21.0152 26081.3 -03442.9 -07.5200 26307.5
 06 05 2013  14 19  -21.0158 26080.9 -03442.9 -07.5201 26307.2
 06 05 2013  14 20  -21.0165 26080.2 -03443.0 -07.5204 26306.5
 06 05 2013  14 21  -21.0167 26078.8 -03442.8 -07.5205 26305.0
 06 05 2013  14 22  -21.0171 26078.1 -03443.0 -07.5210 26304.4
 06 05 2013  14 23  -21.0180 26077.2 -03443.3 -07.5220 26303.6
 06 05 2013  14 24  -21.0185 26076.9 -03443.8 -07.5231 26303.4
 06 05 2013  14 25  -21.0190 26077.0 -03444.2 -07.5240 26303.4
 06 05 2013  14 26  -21.0191 26077.1 -03444.6 -07.5248 26303.7
 06 05 2013  14 27  -21.0195 26076.6 -03444.8 -07.5253 26303.1
 06 05 2013  14 28  -21.0201 26076.3 -03445.1 -07.5261 26302.8
 06 05 2013  14 29  -21.0209 26076.2 -03445.5 -07.5269 26302.9
 06 05 2013  14 30  -21.0208 26075.9 -03445.8 -07.5277 26302.6
 06 05 2013  14 31  -21.0212 26076.4 -03446.4 -07.5289 26303.2
 06 05 2013  14 32  -21.0217 26076.4 -03446.8 -07.5297 26303.2
 06 05 2013  14 33  -21.0224 26076.6 -03447.0 -07.5301 26303.4
 06 05 2013  14 34  -21.0225 26075.2 -03446.7 -07.5298 26302.0
 06 05 2013  14 35  -21.0223 26074.6 -03447.0 -07.5306 26301.5
 06 05 2013  14 36  -21.0234 26075.6 -03447.9 -07.5323 26302.6
 06 05 2013  14 37  -21.0241 26076.0 -03448.1 -07.5327 26303.0
 06 05 2013  14 38  -21.0243 26075.5 -03448.1 -07.5327 26302.5
 06 05 2013  14 39  -21.0247 26075.6 -03448.3 -07.5333 26302.6
 06 05 2013  14 40  -21.0244 26075.0 -03448.3 -07.5334 26302.1
 06 05 2013  14 41  -21.0247 26075.2 -03448.7 -07.5341 26302.2
 06 05 2013  14 42  -21.0248 26075.5 -03449.0 -07.5347 26302.6
 06 05 2013  14 43  -21.0256 26076.4 -03449.5 -07.5356 26303.6
 06 05 2013  14 44  -21.0259 26076.3 -03449.5 -07.5356 26303.5
 06 05 2013  14 45  -21.0262 26076.2 -03449.6 -07.5359 26303.4
 06 05 2013  14 46  -21.0261 26076.4 -03449.9 -07.5363 26303.7
 06 05 2013  14 47  -21.0258 26075.9 -03449.8 -07.5363 26303.2
 06 05 2013  14 48  -21.0252 26075.7 -03449.9 -07.5366 26302.9
 06 05 2013  14 49  -21.0254 26076.0 -03450.3 -07.5375 26303.2
 06 05 2013  14 50  -21.0257 26076.1 -03450.6 -07.5380 26303.4
 06 05 2013  14 51  -21.0253 26075.1 -03450.3 -07.5376 26302.4
 06 05 2013  14 52  -21.0253 26074.9 -03450.6 -07.5384 26302.2
 06 05 2013  14 53  -21.0256 26075.0 -03451.0 -07.5391 26302.4
 06 05 2013  14 54  -21.0260 26075.8 -03451.5 -07.5401 26303.2
 06 05 2013  14 55  -21.0259 26076.4 -03452.1 -07.5411 26303.9
 06 05 2013  14 56  -21.0262 26076.9 -03452.4 -07.5416 26304.4
 06 05 2013  14 57  -21.0257 26076.8 -03452.4 -07.5418 26304.4
 06 05 2013  14 58  -21.0257 26077.2 -03452.7 -07.5423 26304.7
 06 05 2013  14 59  -21.0259 26077.1 -03452.9 -07.5428 26304.7
 06 05 2013  15 00  -21.0265 26078.1 -03453.5 -07.5438 26305.8
 06 05 2013  15 01  -21.0272 26079.1 -03453.9 -07.5444 26306.8
 06 05 2013  15 02  -21.0275 26080.1 -03454.3 -07.5448 26307.9
 06 05 2013  15 03  -21.0278 26081.2 -03454.5 -07.5449 26309.0
 06 05 2013  15 04  -21.0271 26081.5 -03454.2 -07.5443 26309.2
 06 05 2013  15 05  -21.0267 26081.8 -03454.0 -07.5438 26309.5
 06 05 2013  15 06  -21.0259 26080.6 -03453.3 -07.5425 26308.2
 06 05 2013  15 07  -21.0247 26078.8 -03452.5 -07.5414 26306.3
 06 05 2013  15 08  -21.0238 26077.8 -03452.4 -07.5415 26305.4
 06 05 2013  15 09  -21.0229 26077.2 -03452.7 -07.5422 26304.8
 06 05 2013  15 10  -21.0221 26076.5 -03452.7 -07.5426 26304.0
 06 05 2013  15 11  -21.0214 26076.1 -03453.0 -07.5433 26303.7
 06 05 2013  15 12  -21.0212 26076.2 -03453.6 -07.5445 26303.9
 06 05 2013  15 13  -21.0208 26075.8 -03453.9 -07.5451 26303.5
 06 05 2013  15 14  -21.0200 26074.6 -03453.7 -07.5451 26302.3
 06 05 2013  15 15  -21.0191 26073.1 -03453.4 -07.5450 26300.8
 06 05 2013  15 16  -21.0189 26072.9 -03453.8 -07.5459 26300.7
 06 05 2013  15 17  -21.0196 26073.6 -03454.7 -07.5475 26301.5
 06 05 2013  15 18  -21.0195 26073.6 -03455.0 -07.5482 26301.5
 06 05 2013  15 19  -21.0191 26073.5 -03455.1 -07.5485 26301.4
 06 05 2013  15 20  -21.0190 26073.3 -03455.2 -07.5488 26301.2
 06 05 2013  15 21  -21.0189 26073.3 -03455.4 -07.5492 26301.2
 06 05 2013  15 22  -21.0193 26073.8 -03455.8 -07.5500 26301.8
 06 05 2013  15 23  -21.0196 26074.5 -03456.2 -07.5506 26302.6
 06 05 2013  15 24  -21.0203 26075.3 -03456.5 -07.5511 26303.4
 06 05 2013  15 25  -21.0210 26075.8 -03456.7 -07.5512 26303.9
 06 05 2013  15 26  -21.0204 26075.5 -03456.4 -07.5507 26303.6
 06 05 2013  15 27  -21.0201 26075.5 -03456.5 -07.5508 26303.6
 06 05 2013  15 28  -21.0201 26074.9 -03456.3 -07.5506 26302.9
 06 05 2013  15 29  -21.0204 26074.4 -03456.3 -07.5507 26302.5
 06 05 2013  15 30  -21.0210 26074.6 -03456.4 -07.5510 26302.7
 06 05 2013  15 31  -21.0207 26074.1 -03456.2 -07.5506 26302.2
 06 05 2013  15 32  -21.0202 26073.8 -03456.1 -07.5506 26301.9
 06 05 2013  15 33  -21.0200 26073.7 -03456.2 -07.5508 26301.8
 06 05 2013  15 34  -21.0198 26073.3 -03456.0 -07.5505 26301.3
 06 05 2013  15 35  -21.0200 26074.1 -03456.5 -07.5513 26302.2
 06 05 2013  15 36  -21.0207 26074.9 -03456.7 -07.5516 26303.0
 06 05 2013  15 37  -21.0211 26074.7 -03456.4 -07.5511 26302.8
 06 05 2013  15 38  -21.0196 26072.2 -03455.2 -07.5490 26300.1
 06 05 2013  15 39  -21.0180 26070.8 -03454.8 -07.5485 26298.8
 06 05 2013  15 40  -21.0182 26072.2 -03455.7 -07.5503 26300.2
 06 05 2013  15 41  -21.0199 26073.8 -03456.5 -07.5514 26301.9
 06 05 2013  15 42  -21.0201 26073.2 -03455.7 -07.5499 26301.2
 06 05 2013  15 43  -21.0195 26071.9 -03454.7 -07.5480 26299.7
 06 05 2013  15 44  -21.0190 26070.6 -03454.0 -07.5469 26298.4
 06 05 2013  15 45  -21.0176 26069.9 -03453.8 -07.5467 26297.7
 06 05 2013  15 46  -21.0165 26069.9 -03454.2 -07.5476 26297.7
 06 05 2013  15 47  -21.0160 26070.8 -03455.0 -07.5491 26298.7
 06 05 2013  15 48  -21.0158 26072.4 -03455.8 -07.5503 26300.4
 06 05 2013  15 49  -21.0158 26073.5 -03456.1 -07.5506 26301.5
 06 05 2013  15 50  -21.0165 26073.6 -03455.7 -07.5497 26301.6
 06 05 2013  15 51  -21.0158 26073.0 -03454.9 -07.5481 26300.9
 06 05 2013  15 52  -21.0147 26073.0 -03454.6 -07.5475 26300.8
 06 05 2013  15 53  -21.0142 26072.5 -03454.3 -07.5470 26300.3
 06 05 2013  15 54  -21.0139 26071.9 -03453.8 -07.5461 26299.7
 06 05 2013  15 55  -21.0148 26071.5 -03453.5 -07.5456 26299.2
 06 05 2013  15 56  -21.0150 26069.8 -03452.7 -07.5443 26297.4
 06 05 2013  15 57  -21.0148 26068.4 -03452.2 -07.5436 26296.0
 06 05 2013  15 58  -21.0158 26069.3 -03452.7 -07.5445 26296.9
 06 05 2013  15 59  -21.0171 26067.3 -03451.8 -07.5432 26294.8
 06 05 2013  16 00  -21.0151 26063.2 -03449.9 -07.5402 26290.5
 06 05 2013  16 01  -21.0143 26061.6 -03449.7 -07.5402 26288.9
 06 05 2013  16 02  -21.0142 26062.9 -03451.0 -07.5427 26290.4
 06 05 2013  16 03  -21.0152 26064.7 -03452.3 -07.5450 26292.4
 06 05 2013  16 04  -21.0158 26065.9 -03452.8 -07.5457 26293.5
 06 05 2013  16 05  -21.0155 26065.6 -03452.6 -07.5453 26293.3
 06 05 2013  16 06  -21.0155 26065.7 -03452.5 -07.5451 26293.4
 06 05 2013  16 07  -21.0155 26065.9 -03452.5 -07.5450 26293.5
 06 05 2013  16 08  -21.0156 26066.2 -03452.5 -07.5450 26293.8
 06 05 2013  16 09  -21.0153 26065.4 -03452.0 -07.5442 26293.0
 06 05 2013  16 10  -21.0150 26065.0 -03451.8 -07.5438 26292.6
 06 05 2013  16 11  -21.0149 26064.4 -03451.6 -07.5435 26291.9
 06 05 2013  16 12  -21.0148 26063.7 -03451.2 -07.5429 26291.2
 06 05 2013  16 13  -21.0146 26063.0 -03450.9 -07.5424 26290.5
 06 05 2013  16 14  -21.0147 26062.3 -03450.7 -07.5422 26289.7
 06 05 2013  16 15  -21.0152 26062.0 -03450.6 -07.5420 26289.5
 06 05 2013  16 16  -21.0149 26061.7 -03450.3 -07.5416 26289.1
 06 05 2013  16 17  -21.0153 26061.4 -03450.1 -07.5412 26288.7
 06 05 2013  16 18  -21.0160 26060.7 -03449.8 -07.5407 26288.1
 06 05 2013  16 19  -21.0161 26059.9 -03449.3 -07.5398 26287.2
 06 05 2013  16 20  -21.0164 26059.2 -03448.9 -07.5393 26286.4
 06 05 2013  16 21  -21.0166 26058.8 -03448.8 -07.5390 26286.1
 06 05 2013  16 22  -21.0172 26058.5 -03448.8 -07.5391 26285.7
 06 05 2013  16 23  -21.0181 26058.7 -03449.0 -07.5396 26286.0
 06 05 2013  16 24  -21.0197 26059.5 -03449.4 -07.5401 26286.8
 06 05 2013  16 25  -21.0209 26059.6 -03449.2 -07.5398 26286.9
 06 05 2013  16 26  -21.0216 26059.3 -03449.0 -07.5393 26286.6
 06 05 2013  16 27  -21.0228 26059.3 -03448.9 -07.5392 26286.6
 06 05 2013  16 28  -21.0234 26059.6 -03448.9 -07.5392 26286.8
 06 05 2013  16 29  -21.0240 26059.3 -03448.7 -07.5388 26286.5
 06 05 2013  16 30  -21.0243 26058.8 -03448.4 -07.5382 26286.0
 06 05 2013  16 31  -21.0250 26058.4 -03448.0 -07.5376 26285.5
 06 05 2013  16 32  -21.0259 26058.4 -03447.9 -07.5373 26285.5
 06 05 2013  16 33  -21.0270 26058.7 -03447.9 -07.5371 26285.9
 06 05 2013  16 34  -21.0273 26058.6 -03447.5 -07.5364 26285.6
 06 05 2013  16 35  -21.0274 26058.6 -03447.4 -07.5360 26285.6
 06 05 2013  16 36  -21.0278 26058.7 -03447.3 -07.5358 26285.7
 06 05 2013  16 37  -21.0291 26059.2 -03447.2 -07.5355 26286.2
 06 05 2013  16 38  -21.0291 26058.6 -03446.5 -07.5342 26285.5
 06 05 2013  16 39  -21.0289 26058.1 -03446.0 -07.5334 26284.9
 06 05 2013  16 40  -21.0286 26056.7 -03445.3 -07.5322 26283.5
 06 05 2013  16 41  -21.0279 26056.1 -03445.0 -07.5317 26282.9
 06 05 2013  16 42  -21.0279 26056.2 -03445.1 -07.5318 26283.0
 06 05 2013  16 43  -21.0279 26056.3 -03445.1 -07.5318 26283.1
 06 05 2013  16 44  -21.0276 26056.4 -03445.0 -07.5315 26283.1
 06 05 2013  16 45  -21.0275 26056.7 -03444.9 -07.5313 26283.4
 06 05 2013  16 46  -21.0272 26057.5 -03445.0 -07.5314 26284.2
 06 05 2013  16 47  -21.0274 26058.2 -03445.2 -07.5315 26285.0
 06 05 2013  16 48  -21.0280 26059.0 -03445.4 -07.5316 26285.8
 06 05 2013  16 49  -21.0286 26059.5 -03445.2 -07.5311 26286.2
 06 05 2013  16 50  -21.0293 26060.3 -03445.0 -07.5305 26287.0
 06 05 2013  16 51  -21.0297 26060.3 -03444.5 -07.5294 26286.9
 06 05 2013  16 52  -21.0293 26060.3 -03444.1 -07.5284 26286.9
 06 05 2013  16 53  -21.0288 26059.8 -03443.5 -07.5274 26286.3
 06 05 2013  16 54  -21.0283 26059.0 -03442.9 -07.5263 26285.5
 06 05 2013  16 55  -21.0271 26058.4 -03442.5 -07.5256 26284.8
 06 05 2013  16 56  -21.0262 26057.8 -03442.2 -07.5252 26284.2
 06 05 2013  16 57  -21.0254 26057.0 -03442.0 -07.5249 26283.3
 06 05 2013  16 58  -21.0252 26057.4 -03442.3 -07.5255 26283.8
 06 05 2013  16 59  -21.0253 26057.7 -03442.5 -07.5257 26284.1
 06 05 2013  17 00  -21.0251 26057.5 -03442.2 -07.5251 26283.8
 06 05 2013  17 01  -21.0239 26056.5 -03441.5 -07.5240 26282.7
 06 05 2013  17 02  -21.0231 26055.9 -03441.2 -07.5235 26282.1
 06 05 2013  17 03  -21.0217 26054.7 -03440.9 -07.5232 26281.0
 06 05 2013  17 04  -21.0202 26055.5 -03441.6 -07.5245 26281.8
 06 05 2013  17 05  -21.0202 26056.5 -03442.4 -07.5259 26282.9
 06 05 2013  17 06  -21.0207 26057.1 -03442.7 -07.5263 26283.5
 06 05 2013  17 07  -21.0204 26056.9 -03442.4 -07.5257 26283.3
 06 05 2013  17 08  -21.0202 26056.6 -03442.1 -07.5252 26283.0
 06 05 2013  17 09  -21.0190 26054.7 -03441.1 -07.5237 26281.0
 06 05 2013  17 10  -21.0184 26053.6 -03440.7 -07.5230 26279.8
 06 05 2013  17 11  -21.0179 26053.3 -03440.7 -07.5231 26279.5
 06 05 2013  17 12  -21.0176 26053.5 -03440.9 -07.5235 26279.7
 06 05 2013  17 13  -21.0173 26054.0 -03441.3 -07.5242 26280.3
 06 05 2013  17 14  -21.0183 26055.1 -03441.8 -07.5250 26281.5
 06 05 2013  17 15  -21.0189 26055.2 -03441.6 -07.5245 26281.5
 06 05 2013  17 16  -21.0181 26054.4 -03440.9 -07.5232 26280.6
 06 05 2013  17 17  -21.0171 26053.6 -03440.5 -07.5225 26279.7
 06 05 2013  17 18  -21.0166 26052.8 -03440.2 -07.5223 26279.0
 06 05 2013  17 19  -21.0155 26052.0 -03440.1 -07.5221 26278.1
 06 05 2013  17 20  -21.0157 26052.0 -03440.3 -07.5228 26278.1
 06 05 2013  17 21  -21.0161 26051.5 -03440.2 -07.5227 26277.7
 06 05 2013  17 22  -21.0159 26050.9 -03440.0 -07.5224 26277.0
 06 05 2013  17 23  -21.0160 26050.0 -03439.8 -07.5221 26276.1
 06 05 2013  17 24  -21.0146 26050.1 -03439.9 -07.5223 26276.2
 06 05 2013  17 25  -21.0146 26051.3 -03440.7 -07.5237 26277.5
 06 05 2013  17 26  -21.0155 26052.0 -03441.0 -07.5242 26278.2
 06 05 2013  17 27  -21.0155 26052.0 -03440.8 -07.5237 26278.2
 06 05 2013  17 28  -21.0156 26052.4 -03440.7 -07.5233 26278.6
 06 05 2013  17 29  -21.0162 26052.8 -03440.6 -07.5230 26279.0
 06 05 2013  17 30  -21.0161 26052.7 -03440.2 -07.5223 26278.8
 06 05 2013  17 31  -21.0154 26052.2 -03439.8 -07.5215 26278.3
 06 05 2013  17 32  -21.0141 26051.7 -03439.5 -07.5210 26277.8
 06 05 2013  17 33  -21.0137 26051.4 -03439.5 -07.5211 26277.5
 06 05 2013  17 34  -21.0137 26051.6 -03439.8 -07.5216 26277.7
 06 05 2013  17 35  -21.0140 26051.4 -03439.7 -07.5215 26277.5
 06 05 2013  17 36  -21.0137 26050.7 -03439.3 -07.5209 26276.8
 06 05 2013  17 37  -21.0135 26049.9 -03439.0 -07.5205 26275.9
 06 05 2013  17 38  -21.0126 26048.8 -03438.6 -07.5199 26274.8
 06 05 2013  17 39  -21.0122 26048.2 -03438.6 -07.5201 26274.2
 06 05 2013  17 40  -21.0121 26048.4 -03438.9 -07.5208 26274.4
 06 05 2013  17 41  -21.0123 26048.5 -03439.3 -07.5215 26274.5
 06 05 2013  17 42  -21.0126 26048.4 -03439.4 -07.5218 26274.5
 06 05 2013  17 43  -21.0128 26048.2 -03439.3 -07.5216 26274.3
 06 05 2013  17 44  -21.0126 26047.9 -03439.1 -07.5212 26274.0
 06 05 2013  17 45  -21.0125 26048.0 -03439.2 -07.5213 26274.0
 06 05 2013  17 46  -21.0124 26047.9 -03439.2 -07.5214 26274.0
 06 05 2013  17 47  -21.0123 26047.8 -03439.2 -07.5214 26273.9
 06 05 2013  17 48  -21.0125 26047.8 -03439.2 -07.5215 26273.8
 06 05 2013  17 49  -21.0126 26047.7 -03439.1 -07.5213 26273.8
 06 05 2013  17 50  -21.0124 26047.5 -03438.9 -07.5209 26273.5
 06 05 2013  17 51  -21.0120 26047.5 -03438.8 -07.5208 26273.5
 06 05 2013  17 52  -21.0120 26047.3 -03438.8 -07.5207 26273.3
 06 05 2013  17 53  -21.0117 26047.3 -03438.7 -07.5205 26273.3
 06 05 2013  17 54  -21.0123 26047.3 -03438.6 -07.5204 26273.3
 06 05 2013  17 55  -21.0123 26046.7 -03438.2 -07.5197 26272.6
 06 05 2013  17 56  -21.0114 26046.1 -03437.9 -07.5192 26272.0
 06 05 2013  17 57  -21.0106 26045.4 -03437.7 -07.5189 26271.3
 06 05 2013  17 58  -21.0108 26045.1 -03437.7 -07.5189 26271.0
 06 05 2013  17 59  -21.0105 26044.9 -03437.6 -07.5188 26270.7
 06 05 2013  18 00  -21.0107 26044.9 -03437.6 -07.5188 26270.8
 06 05 2013  18 01  -21.0110 26044.8 -03437.5 -07.5186 26270.7
 06 05 2013  18 02  -21.0112 26044.9 -03437.4 -07.5185 26270.8
 06 05 2013  18 03  -21.0112 26044.6 -03437.3 -07.5182 26270.4
 06 05 2013  18 04  -21.0114 26044.5 -03437.1 -07.5179 26270.3
 06 05 2013  18 05  -21.0109 26044.2 -03436.8 -07.5174 26269.9
 06 05 2013  18 06  -21.0104 26043.7 -03436.6 -07.5169 26269.4
 06 05 2013  18 07  -21.0097 26043.6 -03436.6 -07.5170 26269.3
 06 05 2013  18 08  -21.0096 26043.8 -03436.8 -07.5173 26269.6
 06 05 2013  18 09  -21.0102 26044.8 -03437.2 -07.5180 26270.6
 06 05 2013  18 10  -21.0108 26045.2 -03437.1 -07.5178 26271.0
 06 05 2013  18 11  -21.0103 26044.7 -03436.7 -07.5169 26270.5
 06 05 2013  18 12  -21.0088 26043.9 -03436.2 -07.5162 26269.6
 06 05 2013  18 13  -21.0082 26044.3 -03436.5 -07.5167 26270.0
 06 05 2013  18 14  -21.0084 26045.0 -03437.1 -07.5177 26270.8
 06 05 2013  18 15  -21.0083 26045.0 -03437.2 -07.5180 26270.8
 06 05 2013  18 16  -21.0086 26045.3 -03437.3 -07.5181 26271.1
 06 05 2013  18 17  -21.0094 26045.2 -03437.2 -07.5178 26271.0
 06 05 2013  18 18  -21.0085 26044.5 -03436.8 -07.5173 26270.3
 06 05 2013  18 19  -21.0079 26043.7 -03436.5 -07.5169 26269.4
 06 05 2013  18 20  -21.0074 26042.3 -03436.2 -07.5166 26268.0
 06 05 2013  18 21  -21.0069 26041.1 -03436.1 -07.5167 26266.8
 06 05 2013  18 22  -21.0068 26040.4 -03436.2 -07.5171 26266.1
 06 05 2013  18 23  -21.0074 26039.9 -03436.5 -07.5178 26265.6
 06 05 2013  18 24  -21.0079 26039.9 -03436.7 -07.5183 26265.7
 06 05 2013  18 25  -21.0085 26040.1 -03437.1 -07.5190 26265.9
 06 05 2013  18 26  -21.0090 26040.1 -03437.2 -07.5194 26266.0
 06 05 2013  18 27  -21.0097 26040.3 -03437.4 -07.5198 26266.2
 06 05 2013  18 28  -21.0100 26040.4 -03437.5 -07.5200 26266.3
 06 05 2013  18 29  -21.0095 26040.0 -03437.4 -07.5198 26265.9
 06 05 2013  18 30  -21.0094 26039.4 -03437.4 -07.5199 26265.3
 06 05 2013  18 31  -21.0094 26038.9 -03437.4 -07.5200 26264.8
 06 05 2013  18 32  -21.0095 26038.2 -03437.3 -07.5200 26264.1
 06 05 2013  18 33  -21.0096 26037.8 -03437.3 -07.5203 26263.7
 06 05 2013  18 34  -21.0096 26037.4 -03437.4 -07.5206 26263.3
 06 05 2013  18 35  -21.0100 26037.8 -03437.8 -07.5212 26263.8
 06 05 2013  18 36  -21.0106 26037.8 -03437.8 -07.5213 26263.8
 06 05 2013  18 37  -21.0105 26037.2 -03437.5 -07.5209 26263.1
 06 05 2013  18 38  -21.0106 26037.1 -03437.6 -07.5210 26263.0
 06 05 2013  18 39  -21.0107 26036.7 -03437.6 -07.5211 26262.6
 06 05 2013  18 40  -21.0105 26036.2 -03437.6 -07.5213 26262.2
 06 05 2013  18 41  -21.0108 26035.6 -03437.6 -07.5216 26261.5
 06 05 2013  18 42  -21.0107 26035.0 -03437.6 -07.5216 26261.0
 06 05 2013  18 43  -21.0104 26034.7 -03437.6 -07.5218 26260.7
 06 05 2013  18 44  -21.0109 26035.2 -03438.0 -07.5225 26261.2
 06 05 2013  18 45  -21.0113 26035.4 -03438.2 -07.5229 26261.4
 06 05 2013  18 46  -21.0115 26035.0 -03438.1 -07.5228 26261.0
 06 05 2013  18 47  -21.0117 26035.0 -03438.0 -07.5227 26261.0
 06 05 2013  18 48  -21.0119 26034.9 -03438.0 -07.5226 26261.0
 06 05 2013  18 49  -21.0115 26034.7 -03437.9 -07.5224 26260.7
 06 05 2013  18 50  -21.0113 26034.3 -03437.9 -07.5224 26260.3
 06 05 2013  18 51  -21.0113 26034.1 -03437.9 -07.5226 26260.1
 06 05 2013  18 52  -21.0115 26034.3 -03438.0 -07.5228 26260.3
 06 05 2013  18 53  -21.0116 26034.5 -03438.1 -07.5230 26260.5
 06 05 2013  18 54  -21.0114 26034.3 -03438.1 -07.5230 26260.3
 06 05 2013  18 55  -21.0117 26034.2 -03438.2 -07.5231 26260.3
 06 05 2013  18 56  -21.0114 26034.0 -03438.2 -07.5232 26260.0
 06 05 2013  18 57  -21.0114 26033.5 -03438.1 -07.5231 26259.5
 06 05 2013  18 58  -21.0111 26032.5 -03437.7 -07.5227 26258.5
 06 05 2013  18 59  -21.0111 26031.9 -03437.6 -07.5226 26257.9
 06 05 2013  19 00  -21.0113 26031.7 -03437.7 -07.5228 26257.7
 06 05 2013  19 01  -21.0114 26031.6 -03437.7 -07.5228 26257.6
 06 05 2013  19 02  -21.0113 26031.7 -03437.8 -07.5230 26257.7
 06 05 2013  19 03  -21.0112 26031.7 -03437.9 -07.5233 26257.7
 06 05 2013  19 04  -21.0113 26031.6 -03438.0 -07.5235 26257.7
 06 05 2013  19 05  -21.0115 26031.6 -03438.0 -07.5236 26257.6
 06 05 2013  19 06  -21.0115 26031.5 -03438.0 -07.5236 26257.5
 06 05 2013  19 07  -21.0117 26031.5 -03438.1 -07.5237 26257.6
 06 05 2013  19 08  -21.0116 26031.4 -03438.0 -07.5237 26257.4
 06 05 2013  19 09  -21.0115 26031.3 -03438.0 -07.5236 26257.3
 06 05 2013  19 10  -21.0115 26031.2 -03438.0 -07.5236 26257.2
 06 05 2013  19 11  -21.0111 26030.9 -03437.9 -07.5235 26257.0
 06 05 2013  19 12  -21.0110 26031.1 -03438.0 -07.5236 26257.1
 06 05 2013  19 13  -21.0109 26031.2 -03438.1 -07.5237 26257.3
 06 05 2013  19 14  -21.0109 26031.4 -03438.2 -07.5240 26257.5
 06 05 2013  19 15  -21.0112 26031.5 -03438.3 -07.5241 26257.6
 06 05 2013  19 16  -21.0116 26031.3 -03438.2 -07.5240 26257.4
 06 05 2013  19 17  -21.0117 26031.0 -03438.1 -07.5238 26257.0
 06 05 2013  19 18  -21.0116 26030.7 -03437.9 -07.5235 26256.7
 06 05 2013  19 19  -21.0117 26030.6 -03437.8 -07.5235 26256.6
 06 05 2013  19 20  -21.0121 26030.4 -03437.8 -07.5234 26256.5
 06 05 2013  19 21  -21.0125 26030.7 -03437.8 -07.5234 26256.7
 06 05 2013  19 22  -21.0128 26030.6 -03437.7 -07.5232 26256.7
 06 05 2013  19 23  -21.0129 26030.6 -03437.6 -07.5230 26256.6
 06 05 2013  19 24  -21.0129 26030.4 -03437.4 -07.5226 26256.3
 06 05 2013  19 25  -21.0127 26029.9 -03437.2 -07.5222 26255.8
 06 05 2013  19 26  -21.0126 26029.6 -03437.0 -07.5219 26255.5
 06 05 2013  19 27  -21.0125 26029.6 -03437.0 -07.5220 26255.5
 06 05 2013  19 28  -21.0126 26029.6 -03437.1 -07.5221 26255.6
 06 05 2013  19 29  -21.0128 26029.5 -03437.0 -07.5219 26255.4
 06 05 2013  19 30  -21.0128 26029.4 -03436.9 -07.5217 26255.3
 06 05 2013  19 31  -21.0130 26029.6 -03436.8 -07.5215 26255.5
 06 05 2013  19 32  -21.0127 26029.4 -03436.6 -07.5212 26255.3
 06 05 2013  19 33  -21.0127 26029.1 -03436.5 -07.5209 26254.9
 06 05 2013  19 34  -21.0124 26028.8 -03436.3 -07.5207 26254.6
 06 05 2013  19 35  -21.0123 26028.6 -03436.3 -07.5206 26254.4
 06 05 2013  19 36  -21.0127 26028.6 -03436.3 -07.5206 26254.4
 06 05 2013  19 37  -21.0128 26027.9 -03435.9 -07.5200 26253.7
 06 05 2013  19 38  -21.0125 26027.4 -03435.6 -07.5196 26253.2
 06 05 2013  19 39  -21.0125 26027.0 -03435.5 -07.5195 26252.8
 06 05 2013  19 40  -21.0124 26026.7 -03435.4 -07.5194 26252.5
 06 05 2013  19 41  -21.0124 26026.5 -03435.5 -07.5195 26252.3
 06 05 2013  19 42  -21.0126 26026.8 -03435.6 -07.5196 26252.5
 06 05 2013  19 43  -21.0129 26027.1 -03435.6 -07.5196 26252.8
 06 05 2013  19 44  -21.0129 26026.9 -03435.5 -07.5194 26252.7
 06 05 2013  19 45  -21.0130 26026.9 -03435.4 -07.5193 26252.7
 06 05 2013  19 46  -21.0135 26027.0 -03435.4 -07.5192 26252.8
 06 05 2013  19 47  -21.0138 26027.2 -03435.4 -07.5190 26252.9
 06 05 2013  19 48  -21.0139 26027.4 -03435.4 -07.5190 26253.1
 06 05 2013  19 49  -21.0139 26027.5 -03435.3 -07.5188 26253.2
 06 05 2013  19 50  -21.0138 26027.5 -03435.2 -07.5186 26253.2
 06 05 2013  19 51  -21.0139 26027.3 -03435.0 -07.5182 26253.0
 06 05 2013  19 52  -21.0158 26026.9 -03434.8 -07.5179 26252.6
 06 05 2013  19 53  -21.0160 26027.1 -03434.8 -07.5180 26252.7
 06 05 2013  19 54  -21.0160 26027.2 -03434.8 -07.5177 26252.9
 06 05 2013  19 55  -21.0164 26027.5 -03434.9 -07.5180 26253.2
 06 05 2013  19 56  -21.0167 26027.9 -03435.0 -07.5181 26253.5
 06 05 2013  19 57  -21.0174 26028.8 -03435.3 -07.5185 26254.5
 06 05 2013  19 58  -21.0173 26029.5 -03435.3 -07.5183 26255.2
 06 05 2013  19 59  -21.0175 26029.4 -03435.0 -07.5177 26255.1
 06 05 2013  20 00  -21.0174 26028.8 -03434.6 -07.5168 26254.4
 06 05 2013  20 01  -21.0172 26028.4 -03434.2 -07.5162 26254.0
 06 05 2013  20 02  -21.0172 26028.5 -03434.2 -07.5161 26254.1
 06 05 2013  20 03  -21.0175 26028.8 -03433.9 -07.5155 26254.3
 06 05 2013  20 04  -21.0155 26028.3 -03433.9 -07.5155 26253.8
 06 05 2013  20 05  -21.0149 26028.0 -03433.8 -07.5154 26253.6
 06 05 2013  20 06  -21.0147 26028.7 -03434.2 -07.5162 26254.2
 06 05 2013  20 07  -21.0147 26029.2 -03434.6 -07.5168 26254.9
 06 05 2013  20 08  -21.0147 26029.5 -03434.7 -07.5170 26255.1
 06 05 2013  20 09  -21.0148 26028.9 -03434.5 -07.5166 26254.5
 06 05 2013  20 10  -21.0145 26028.2 -03434.1 -07.5160 26253.7
 06 05 2013  20 11  -21.0144 26027.7 -03433.8 -07.5156 26253.3
 06 05 2013  20 12  -21.0143 26027.7 -03433.9 -07.5157 26253.3
 06 05 2013  20 13  -21.0142 26028.0 -03434.0 -07.5160 26253.5
 06 05 2013  20 14  -21.0143 26028.0 -03434.2 -07.5162 26253.6
 06 05 2013  20 15  -21.0142 26027.6 -03434.0 -07.5160 26253.2
 06 05 2013  20 16  -21.0141 26027.3 -03433.9 -07.5158 26252.9
 06 05 2013  20 17  -21.0142 26027.1 -03433.8 -07.5157 26252.6
 06 05 2013  20 18  -21.0137 26026.9 -03433.8 -07.5158 26252.4
 06 05 2013  20 19  -21.0135 26027.2 -03434.0 -07.5161 26252.8
 06 05 2013  20 20  -21.0134 26027.8 -03434.3 -07.5166 26253.4
 06 05 2013  20 21  -21.0138 26028.4 -03434.6 -07.5170 26254.0
 06 05 2013  20 22  -21.0142 26028.9 -03434.7 -07.5172 26254.5
 06 05 2013  20 23  -21.0146 26029.2 -03434.7 -07.5171 26254.8
 06 05 2013  20 24  -21.0149 26029.2 -03434.6 -07.5168 26254.8
 06 05 2013  20 25  -21.0148 26028.6 -03434.2 -07.5161 26254.2
 06 05 2013  20 26  -21.0148 26028.5 -03434.0 -07.5158 26254.0
 06 05 2013  20 27  -21.0143 26028.6 -03434.0 -07.5157 26254.1
 06 05 2013  20 28  -21.0141 26028.4 -03433.8 -07.5154 26253.9
 06 05 2013  20 29  -21.0141 26028.3 -03433.8 -07.5154 26253.8
 06 05 2013  20 30  -21.0147 26029.5 -03434.3 -07.5160 26255.0
 06 05 2013  20 31  -21.0148 26030.1 -03434.5 -07.5163 26255.7
 06 05 2013  20 32  -21.0144 26030.0 -03434.2 -07.5157 26255.5
 06 05 2013  20 33  -21.0146 26030.0 -03434.0 -07.5153 26255.5
 06 05 2013  20 34  -21.0148 26030.3 -03434.1 -07.5153 26255.9
 06 05 2013  20 35  -21.0150 26030.5 -03434.1 -07.5154 26256.0
 06 05 2013  20 36  -21.0151 26030.1 -03433.9 -07.5150 26255.7
 06 05 2013  20 37  -21.0148 26029.7 -03433.6 -07.5145 26255.2
 06 05 2013  20 38  -21.0148 26028.8 -03433.2 -07.5139 26254.3
 06 05 2013  20 39  -21.0147 26027.7 -03432.7 -07.5132 26253.1
 06 05 2013  20 40  -21.0150 26027.0 -03432.5 -07.5128 26252.4
 06 05 2013  20 41  -21.0153 26026.6 -03432.4 -07.5128 26252.0
 06 05 2013  20 42  -21.0157 26026.3 -03432.4 -07.5129 26251.7
 06 05 2013  20 43  -21.0159 26026.0 -03432.4 -07.5129 26251.4
 06 05 2013  20 44  -21.0163 26025.9 -03432.4 -07.5130 26251.3
 06 05 2013  20 45  -21.0168 26025.9 -03432.5 -07.5131 26251.3
 06 05 2013  20 46  -21.0172 26026.2 -03432.6 -07.5134 26251.6
 06 05 2013  20 47  -21.0176 26026.8 -03432.9 -07.5138 26252.2
 06 05 2013  20 48  -21.0183 26027.3 -03433.1 -07.5142 26252.7
 06 05 2013  20 49  -21.0194 26027.9 -03433.4 -07.5146 26253.4
 06 05 2013  20 50  -21.0207 26028.7 -03433.8 -07.5152 26254.2
 06 05 2013  20 51  -21.0214 26029.5 -03434.0 -07.5155 26255.1
 06 05 2013  20 52  -21.0218 26030.1 -03434.1 -07.5154 26255.7
 06 05 2013  20 53  -21.0222 26030.2 -03433.9 -07.5151 26255.8
 06 05 2013  20 54  -21.0226 26029.9 -03433.5 -07.5143 26255.4
 06 05 2013  20 55  -21.0225 26029.6 -03433.1 -07.5135 26255.0
 06 05 2013  20 56  -21.0218 26029.1 -03432.6 -07.5126 26254.5
 06 05 2013  20 57  -21.0211 26028.0 -03432.0 -07.5115 26253.3
 06 05 2013  20 58  -21.0209 26026.9 -03431.4 -07.5105 26252.1
 06 05 2013  20 59  -21.0210 26026.1 -03431.1 -07.5101 26251.3
 06 05 2013  21 00  -21.0212 26025.8 -03431.1 -07.5101 26251.0
 06 05 2013  21 01  -21.0215 26025.5 -03431.0 -07.5101 26250.6
 06 05 2013  21 02  -21.0218 26025.2 -03431.0 -07.5102 26250.4
 06 05 2013  21 03  -21.0218 26024.8 -03430.9 -07.5101 26250.0
 06 05 2013  21 04  -21.0217 26024.0 -03430.7 -07.5099 26249.2
 06 05 2013  21 05  -21.0217 26023.7 -03430.6 -07.5098 26248.9
 06 05 2013  21 06  -21.0219 26023.7 -03430.8 -07.5101 26248.9
 06 05 2013  21 07  -21.0226 26023.7 -03431.0 -07.5105 26248.9
 06 05 2013  21 08  -21.0230 26023.8 -03431.2 -07.5109 26249.0
 06 05 2013  21 09  -21.0233 26024.1 -03431.3 -07.5113 26249.3
 06 05 2013  21 10  -21.0236 26024.1 -03431.4 -07.5114 26249.4
 06 05 2013  21 11  -21.0241 26023.9 -03431.4 -07.5114 26249.2
 06 05 2013  21 12  -21.0244 26024.5 -03431.6 -07.5118 26249.8
 06 05 2013  21 13  -21.0250 26025.1 -03432.0 -07.5124 26250.5
 06 05 2013  21 14  -21.0254 26025.5 -03432.2 -07.5126 26250.8
 06 05 2013  21 15  -21.0256 26025.3 -03432.0 -07.5124 26250.6
 06 05 2013  21 16  -21.0261 26025.1 -03431.9 -07.5121 26250.4
 06 05 2013  21 17  -21.0265 26024.8 -03431.7 -07.5119 26250.1
 06 05 2013  21 18  -21.0264 26024.7 -03431.6 -07.5116 26250.0
 06 05 2013  21 19  -21.0267 26024.3 -03431.3 -07.5112 26249.5
 06 05 2013  21 20  -21.0270 26024.6 -03431.4 -07.5112 26249.9
 06 05 2013  21 21  -21.0276 26025.2 -03431.7 -07.5118 26250.4
 06 05 2013  21 22  -21.0278 26026.0 -03432.2 -07.5125 26251.4
 06 05 2013  21 23  -21.0285 26026.0 -03432.3 -07.5127 26251.3
 06 05 2013  21 24  -21.0283 26026.2 -03432.3 -07.5126 26251.6
 06 05 2013  21 25  -21.0287 26025.9 -03432.0 -07.5122 26251.2
 06 05 2013  21 26  -21.0287 26025.6 -03431.8 -07.5119 26250.9
 06 05 2013  21 27  -21.0286 26025.2 -03431.5 -07.5114 26250.5
 06 05 2013  21 28  -21.0288 26024.6 -03431.2 -07.5109 26249.8
 06 05 2013  21 29  -21.0291 26024.6 -03431.2 -07.5107 26249.8
 06 05 2013  21 30  -21.0297 26024.9 -03431.3 -07.5110 26250.2
 06 05 2013  21 31  -21.0302 26025.6 -03431.7 -07.5117 26250.9
 06 05 2013  21 32  -21.0305 26026.3 -03432.2 -07.5124 26251.7
 06 05 2013  21 33  -21.0307 26026.7 -03432.4 -07.5127 26252.1
 06 05 2013  21 34  -21.0309 26026.8 -03432.4 -07.5127 26252.1
 06 05 2013  21 35  -21.0315 26026.6 -03432.2 -07.5124 26252.0
 06 05 2013  21 36  -21.0322 26026.8 -03432.3 -07.5125 26252.1
 06 05 2013  21 37  -21.0325 26027.4 -03432.5 -07.5128 26252.7
 06 05 2013  21 38  -21.0332 26027.4 -03432.5 -07.5129 26252.8
 06 05 2013  21 39  -21.0335 26027.6 -03432.6 -07.5129 26252.9
 06 05 2013  21 40  -21.0342 26027.3 -03432.4 -07.5126 26252.6
 06 05 2013  21 41  -21.0350 26027.1 -03432.2 -07.5123 26252.4
 06 05 2013  21 42  -21.0352 26027.2 -03432.2 -07.5122 26252.5
 06 05 2013  21 43  -21.0358 26027.0 -03432.1 -07.5121 26252.3
 06 05 2013  21 44  -21.0360 26027.2 -03432.2 -07.5121 26252.5
 06 05 2013  21 45  -21.0364 26027.1 -03432.1 -07.5120 26252.5
 06 05 2013  21 46  -21.0365 26027.3 -03432.1 -07.5120 26252.7
 06 05 2013  21 47  -21.0364 26027.4 -03432.1 -07.5120 26252.8
 06 05 2013  21 48  -21.0368 26027.3 -03432.1 -07.5119 26252.6
 06 05 2013  21 49  -21.0369 26027.4 -03432.1 -07.5120 26252.7
 06 05 2013  21 50  -21.0372 26027.6 -03432.2 -07.5121 26253.0
 06 05 2013  21 51  -21.0372 26027.8 -03432.4 -07.5124 26253.2
 06 05 2013  21 52  -21.0371 26028.1 -03432.5 -07.5125 26253.4
 06 05 2013  21 53  -21.0366 26028.2 -03432.5 -07.5126 26253.5
 06 05 2013  21 54  -21.0366 26028.0 -03432.4 -07.5124 26253.4
 06 05 2013  21 55  -21.0364 26028.0 -03432.4 -07.5125 26253.4
 06 05 2013  21 56  -21.0366 26028.0 -03432.4 -07.5125 26253.4
 06 05 2013  21 57  -21.0366 26028.3 -03432.6 -07.5127 26253.7
 06 05 2013  21 58  -21.0368 26028.7 -03432.8 -07.5130 26254.1
 06 05 2013  21 59  -21.0372 26029.0 -03433.0 -07.5134 26254.5
 06 05 2013  22 00  -21.0376 26029.1 -03433.0 -07.5135 26254.5
 06 05 2013  22 01  -21.0379 26029.2 -03433.0 -07.5134 26254.6
 06 05 2013  22 02  -21.0381 26029.4 -03433.1 -07.5135 26254.8
 06 05 2013  22 03  -21.0383 26029.5 -03433.1 -07.5135 26255.0
 06 05 2013  22 04  -21.0383 26029.6 -03433.1 -07.5134 26255.0
 06 05 2013  22 05  -21.0383 26029.6 -03433.0 -07.5134 26255.0
 06 05 2013  22 06  -21.0381 26029.8 -03433.1 -07.5134 26255.2
 06 05 2013  22 07  -21.0380 26030.1 -03433.2 -07.5136 26255.5
 06 05 2013  22 08  -21.0379 26030.4 -03433.3 -07.5137 26255.8
 06 05 2013  22 09  -21.0380 26030.7 -03433.4 -07.5139 26256.1
 06 05 2013  22 10  -21.0382 26030.8 -03433.5 -07.5139 26256.3
 06 05 2013  22 11  -21.0385 26031.0 -03433.5 -07.5140 26256.5
 06 05 2013  22 12  -21.0388 26031.2 -03433.6 -07.5141 26256.7
 06 05 2013  22 13  -21.0389 26031.4 -03433.6 -07.5141 26256.9
 06 05 2013  22 14  -21.0390 26031.4 -03433.5 -07.5139 26256.8
 06 05 2013  22 15  -21.0393 26031.3 -03433.4 -07.5137 26256.7
 06 05 2013  22 16  -21.0395 26031.2 -03433.3 -07.5135 26256.7
 06 05 2013  22 17  -21.0397 26031.4 -03433.4 -07.5135 26256.8
 06 05 2013  22 18  -21.0395 26031.7 -03433.5 -07.5136 26257.2
 06 05 2013  22 19  -21.0393 26032.0 -03433.5 -07.5138 26257.5
 06 05 2013  22 20  -21.0393 26032.0 -03433.5 -07.5137 26257.5
 06 05 2013  22 21  -21.0396 26031.8 -03433.4 -07.5135 26257.3
 06 05 2013  22 22  -21.0398 26031.7 -03433.3 -07.5133 26257.1
 06 05 2013  22 23  -21.0398 26031.6 -03433.2 -07.5132 26257.0
 06 05 2013  22 24  -21.0397 26031.6 -03433.2 -07.5131 26257.0
 06 05 2013  22 25  -21.0396 26031.7 -03433.2 -07.5130 26257.1
 06 05 2013  22 26  -21.0396 26031.9 -03433.3 -07.5132 26257.3
 06 05 2013  22 27  -21.0396 26032.2 -03433.4 -07.5134 26257.6
 06 05 2013  22 28  -21.0395 26032.5 -03433.5 -07.5136 26257.9
 06 05 2013  22 29  -21.0395 26032.4 -03433.5 -07.5135 26257.9
 06 05 2013  22 30  -21.0396 26032.1 -03433.4 -07.5133 26257.6
 06 05 2013  22 31  -21.0400 26031.8 -03433.2 -07.5131 26257.3
 06 05 2013  22 32  -21.0402 26031.7 -03433.1 -07.5129 26257.1
 06 05 2013  22 33  -21.0403 26031.7 -03433.1 -07.5129 26257.1
 06 05 2013  22 34  -21.0403 26032.0 -03433.2 -07.5130 26257.4
 06 05 2013  22 35  -21.0403 26032.4 -03433.4 -07.5134 26257.8
 06 05 2013  22 36  -21.0404 26032.5 -03433.5 -07.5135 26258.0
 06 05 2013  22 37  -21.0406 26032.3 -03433.4 -07.5134 26257.8
 06 05 2013  22 38  -21.0408 26032.0 -03433.2 -07.5131 26257.4
 06 05 2013  22 39  -21.0411 26031.8 -03433.1 -07.5129 26257.2
 06 05 2013  22 40  -21.0415 26031.8 -03433.1 -07.5129 26257.2
 06 05 2013  22 41  -21.0417 26032.1 -03433.2 -07.5130 26257.5
 06 05 2013  22 42  -21.0416 26032.4 -03433.4 -07.5133 26257.8
 06 05 2013  22 43  -21.0416 26032.5 -03433.4 -07.5134 26258.0
 06 05 2013  22 44  -21.0416 26032.4 -03433.4 -07.5132 26257.9
 06 05 2013  22 45  -21.0417 26032.2 -03433.2 -07.5130 26257.6
 06 05 2013  22 46  -21.0417 26031.9 -03433.1 -07.5128 26257.3
 06 05 2013  22 47  -21.0418 26031.7 -03433.0 -07.5126 26257.1
 06 05 2013  22 48  -21.0418 26031.6 -03432.9 -07.5125 26257.0
 06 05 2013  22 49  -21.0418 26031.6 -03432.9 -07.5125 26257.0
 06 05 2013  22 50  -21.0418 26031.6 -03432.9 -07.5126 26257.0
 06 05 2013  22 51  -21.0418 26031.6 -03433.0 -07.5126 26257.0
 06 05 2013  22 52  -21.0418 26031.7 -03433.1 -07.5128 26257.1
 06 05 2013  22 53  -21.0422 26031.7 -03433.1 -07.5129 26257.1
 06 05 2013  22 54  -21.0423 26031.7 -03433.1 -07.5129 26257.1
 06 05 2013  22 55  -21.0426 26031.8 -03433.2 -07.5131 26257.3
 06 05 2013  22 56  -21.0428 26031.9 -03433.3 -07.5132 26257.3
 06 05 2013  22 57  -21.0430 26031.9 -03433.3 -07.5132 26257.3
 06 05 2013  22 58  -21.0430 26031.5 -03433.1 -07.5129 26256.9
 06 05 2013  22 59  -21.0435 26031.1 -03432.9 -07.5127 26256.5
 06 05 2013  23 00  -21.0441 26031.2 -03433.0 -07.5127 26256.6
 06 05 2013  23 01  -21.0443 26031.6 -03433.2 -07.5130 26257.0
 06 05 2013  23 02  -21.0441 26031.7 -03433.2 -07.5132 26257.1
 06 05 2013  23 03  -21.0442 26031.5 -03433.1 -07.5130 26256.9
 06 05 2013  23 04  -21.0443 26031.5 -03433.1 -07.5130 26256.9
 06 05 2013  23 05  -21.0445 26031.6 -03433.2 -07.5131 26257.0
 06 05 2013  23 06  -21.0447 26031.6 -03433.2 -07.5132 26257.0
 06 05 2013  23 07  -21.0446 26031.7 -03433.2 -07.5132 26257.1
 06 05 2013  23 08  -21.0444 26031.7 -03433.3 -07.5133 26257.1
 06 05 2013  23 09  -21.0444 26031.7 -03433.3 -07.5133 26257.1
 06 05 2013  23 10  -21.0448 26031.4 -03433.2 -07.5132 26256.8
 06 05 2013  23 11  -21.0452 26031.5 -03433.3 -07.5134 26256.9
 06 05 2013  23 12  -21.0456 26031.2 -03433.1 -07.5131 26256.6
 06 05 2013  23 13  -21.0457 26031.1 -03433.1 -07.5130 26256.5
 06 05 2013  23 14  -21.0459 26030.7 -03432.9 -07.5127 26256.1
 06 05 2013  23 15  -21.0459 26030.0 -03432.6 -07.5122 26255.4
 06 05 2013  23 16  -21.0455 26029.5 -03432.3 -07.5117 26254.8
 06 05 2013  23 17  -21.0450 26029.1 -03432.1 -07.5115 26254.4
 06 05 2013  23 18  -21.0446 26028.7 -03432.0 -07.5114 26254.0
 06 05 2013  23 19  -21.0450 26028.3 -03431.9 -07.5112 26253.6
 06 05 2013  23 20  -21.0456 26028.1 -03431.9 -07.5113 26253.4
 06 05 2013  23 21  -21.0458 26028.5 -03432.1 -07.5117 26253.8
 06 05 2013  23 22  -21.0454 26028.5 -03432.3 -07.5120 26253.9
 06 05 2013  23 23  -21.0448 26028.2 -03432.2 -07.5118 26253.5
 06 05 2013  23 24  -21.0447 26027.3 -03431.8 -07.5114 26252.5
 06 05 2013  23 25  -21.0447 26026.4 -03431.5 -07.5109 26251.6
 06 05 2013  23 26  -21.0447 26026.0 -03431.3 -07.5105 26251.2
 06 05 2013  23 27  -21.0446 26026.4 -03431.5 -07.5110 26251.6
 06 05 2013  23 28  -21.0447 26026.5 -03431.8 -07.5116 26251.8
 06 05 2013  23 29  -21.0450 26026.3 -03431.9 -07.5118 26251.6
 06 05 2013  23 30  -21.0457 26026.1 -03431.9 -07.5118 26251.3
 06 05 2013  23 31  -21.0461 26025.8 -03431.8 -07.5118 26251.1
 06 05 2013  23 32  -21.0464 26025.8 -03431.8 -07.5118 26251.0
 06 05 2013  23 33  -21.0467 26025.8 -03431.8 -07.5119 26251.0
 06 05 2013  23 34  -21.0467 26026.0 -03432.0 -07.5122 26251.3
 06 05 2013  23 35  -21.0468 26026.3 -03432.2 -07.5125 26251.6
 06 05 2013  23 36  -21.0468 26026.8 -03432.5 -07.5130 26252.2
 06 05 2013  23 37  -21.0469 26027.6 -03433.0 -07.5138 26253.1
 06 05 2013  23 38  -21.0471 26028.3 -03433.4 -07.5145 26253.8
 06 05 2013  23 39  -21.0473 26028.2 -03433.4 -07.5145 26253.7
 06 05 2013  23 40  -21.0475 26027.7 -03433.1 -07.5140 26253.1
 06 05 2013  23 41  -21.0481 26026.9 -03432.7 -07.5134 26252.3
 06 05 2013  23 42  -21.0487 26026.6 -03432.5 -07.5131 26251.9
 06 05 2013  23 43  -21.0491 26026.4 -03432.4 -07.5130 26251.7
 06 05 2013  23 44  -21.0492 26026.5 -03432.5 -07.5130 26251.8
 06 05 2013  23 45  -21.0489 26026.8 -03432.6 -07.5133 26252.2
 06 05 2013  23 46  -21.0488 26027.1 -03432.8 -07.5136 26252.5
 06 05 2013  23 47  -21.0489 26027.2 -03432.9 -07.5138 26252.6
 06 05 2013  23 48  -21.0492 26026.9 -03432.8 -07.5137 26252.3
 06 05 2013  23 49  -21.0491 26026.8 -03432.7 -07.5135 26252.2
 06 05 2013  23 50  -21.0490 26026.7 -03432.7 -07.5135 26252.1
 06 05 2013  23 51  -21.0488 26026.9 -03432.8 -07.5136 26252.3
 06 05 2013  23 52  -21.0488 26027.2 -03433.0 -07.5139 26252.6
 06 05 2013  23 53  -21.0490 26027.0 -03433.0 -07.5139 26252.5
 06 05 2013  23 54  -21.0491 26026.1 -03432.5 -07.5133 26251.5
 06 05 2013  23 55  -21.0493 26025.3 -03432.1 -07.5126 26250.6
 06 05 2013  23 56  -21.0490 26025.0 -03432.0 -07.5124 26250.3
 06 05 2013  23 57  -21.0483 26024.8 -03431.9 -07.5122 26250.1
 06 05 2013  23 58  -21.0474 26025.3 -03432.2 -07.5128 26250.6
