SAO LUIS EMBRACE-03 <093> 1 Min. Reported data

 DD MM YYYY  HH MM   D(Deg)  H(nT)   Z(nT)   I(Deg)   F(nT)

 03 04 2013  00 00  -21.0433 26029.5 -03425.7 -07.4974 26253.9
 03 04 2013  00 01  -21.0435 26029.3 -03425.6 -07.4974 26253.8
 03 04 2013  00 02  -21.0434 26029.2 -03425.6 -07.4974 26253.6
 03 04 2013  00 03  -21.0431 26029.1 -03425.6 -07.4974 26253.5
 03 04 2013  00 04  -21.0431 26028.9 -03425.5 -07.4973 26253.3
 03 04 2013  00 05  -21.0431 26028.6 -03425.4 -07.4972 26253.0
 03 04 2013  00 06  -21.0431 26028.5 -03425.4 -07.4972 26253.0
 03 04 2013  00 07  -21.0429 26028.5 -03425.5 -07.4973 26252.9
 03 04 2013  00 08  -21.0430 26028.4 -03425.5 -07.4974 26252.8
 03 04 2013  00 09  -21.0429 26028.4 -03425.5 -07.4974 26252.9
 03 04 2013  00 10  -21.0430 26028.4 -03425.6 -07.4975 26252.8
 03 04 2013  00 11  -21.0429 26028.5 -03425.7 -07.4977 26252.9
 03 04 2013  00 12  -21.0429 26028.4 -03425.7 -07.4977 26252.9
 03 04 2013  00 13  -21.0427 26028.5 -03425.7 -07.4979 26253.0
 03 04 2013  00 14  -21.0427 26028.6 -03425.8 -07.4980 26253.0
 03 04 2013  00 15  -21.0426 26028.7 -03425.9 -07.4981 26253.2
 03 04 2013  00 16  -21.0424 26028.8 -03425.9 -07.4982 26253.2
 03 04 2013  00 17  -21.0422 26028.8 -03425.9 -07.4982 26253.3
 03 04 2013  00 18  -21.0423 26028.8 -03426.0 -07.4983 26253.3
 03 04 2013  00 19  -21.0425 26028.8 -03426.0 -07.4984 26253.3
 03 04 2013  00 20  -21.0425 26028.8 -03426.1 -07.4985 26253.3
 03 04 2013  00 21  -21.0424 26028.7 -03426.0 -07.4985 26253.2
 03 04 2013  00 22  -21.0423 26028.7 -03426.0 -07.4984 26253.2
 03 04 2013  00 23  -21.0422 26028.7 -03426.0 -07.4984 26253.2
 03 04 2013  00 24  -21.0421 26028.7 -03426.1 -07.4985 26253.2
 03 04 2013  00 25  -21.0419 26028.7 -03426.1 -07.4985 26253.2
 03 04 2013  00 26  -21.0418 26028.7 -03426.1 -07.4985 26253.2
 03 04 2013  00 27  -21.0416 26028.8 -03426.1 -07.4986 26253.3
 03 04 2013  00 28  -21.0416 26028.8 -03426.1 -07.4987 26253.3
 03 04 2013  00 29  -21.0417 26028.8 -03426.2 -07.4987 26253.4
 03 04 2013  00 30  -21.0417 26028.9 -03426.2 -07.4988 26253.5
 03 04 2013  00 31  -21.0418 26028.9 -03426.2 -07.4988 26253.4
 03 04 2013  00 32  -21.0419 26028.8 -03426.2 -07.4987 26253.3
 03 04 2013  00 33  -21.0420 26028.7 -03426.1 -07.4987 26253.3
 03 04 2013  00 34  -21.0419 26028.7 -03426.1 -07.4986 26253.2
 03 04 2013  00 35  -21.0419 26028.5 -03426.0 -07.4984 26253.0
 03 04 2013  00 36  -21.0419 26028.4 -03425.9 -07.4983 26252.9
 03 04 2013  00 37  -21.0419 26028.3 -03425.9 -07.4983 26252.8
 03 04 2013  00 38  -21.0421 26028.4 -03426.0 -07.4984 26252.9
 03 04 2013  00 39  -21.0423 26028.5 -03426.1 -07.4986 26253.0
 03 04 2013  00 40  -21.0423 26028.5 -03426.1 -07.4986 26253.0
 03 04 2013  00 41  -21.0423 26028.5 -03426.1 -07.4986 26253.0
 03 04 2013  00 42  -21.0424 26028.5 -03426.1 -07.4986 26253.0
 03 04 2013  00 43  -21.0426 26028.4 -03426.1 -07.4986 26252.9
 03 04 2013  00 44  -21.0425 26028.4 -03426.1 -07.4986 26252.9
 03 04 2013  00 45  -21.0423 26028.3 -03426.0 -07.4986 26252.8
 03 04 2013  00 46  -21.0422 26028.3 -03426.0 -07.4985 26252.8
 03 04 2013  00 47  -21.0421 26028.2 -03426.0 -07.4985 26252.7
 03 04 2013  00 48  -21.0419 26028.3 -03426.0 -07.4985 26252.8
 03 04 2013  00 49  -21.0419 26028.3 -03426.0 -07.4985 26252.8
 03 04 2013  00 50  -21.0418 26028.4 -03426.1 -07.4987 26253.0
 03 04 2013  00 51  -21.0417 26028.5 -03426.2 -07.4988 26253.1
 03 04 2013  00 52  -21.0415 26028.7 -03426.2 -07.4989 26253.2
 03 04 2013  00 53  -21.0414 26028.8 -03426.3 -07.4990 26253.3
 03 04 2013  00 54  -21.0414 26028.8 -03426.3 -07.4990 26253.4
 03 04 2013  00 55  -21.0412 26028.8 -03426.3 -07.4990 26253.4
 03 04 2013  00 56  -21.0411 26028.8 -03426.3 -07.4990 26253.4
 03 04 2013  00 57  -21.0410 26028.8 -03426.3 -07.4989 26253.3
 03 04 2013  00 58  -21.0410 26028.8 -03426.3 -07.4989 26253.4
 03 04 2013  00 59  -21.0410 26028.8 -03426.3 -07.4990 26253.4
 03 04 2013  01 00  -21.0408 26028.8 -03426.3 -07.4989 26253.3
 03 04 2013  01 01  -21.0408 26028.7 -03426.2 -07.4989 26253.2
 03 04 2013  01 02  -21.0406 26028.7 -03426.2 -07.4988 26253.2
 03 04 2013  01 03  -21.0406 26028.6 -03426.2 -07.4989 26253.2
 03 04 2013  01 04  -21.0407 26028.7 -03426.2 -07.4989 26253.2
 03 04 2013  01 05  -21.0407 26028.6 -03426.2 -07.4988 26253.1
 03 04 2013  01 06  -21.0406 26028.5 -03426.1 -07.4987 26253.0
 03 04 2013  01 07  -21.0405 26028.5 -03426.1 -07.4987 26253.0
 03 04 2013  01 08  -21.0402 26028.5 -03426.1 -07.4987 26253.0
 03 04 2013  01 09  -21.0401 26028.5 -03426.1 -07.4987 26253.0
 03 04 2013  01 10  -21.0402 26028.5 -03426.1 -07.4987 26253.0
 03 04 2013  01 11  -21.0402 26028.5 -03426.1 -07.4988 26253.0
 03 04 2013  01 12  -21.0404 26028.5 -03426.2 -07.4988 26253.0
 03 04 2013  01 13  -21.0405 26028.5 -03426.2 -07.4988 26253.0
 03 04 2013  01 14  -21.0405 26028.4 -03426.1 -07.4988 26253.0
 03 04 2013  01 15  -21.0404 26028.5 -03426.1 -07.4987 26253.0
 03 04 2013  01 16  -21.0403 26028.4 -03426.1 -07.4987 26252.9
 03 04 2013  01 17  -21.0403 26028.4 -03426.1 -07.4987 26252.9
 03 04 2013  01 18  -21.0403 26028.3 -03426.1 -07.4986 26252.8
 03 04 2013  01 19  -21.0402 26028.3 -03426.1 -07.4986 26252.8
 03 04 2013  01 20  -21.0401 26028.3 -03426.1 -07.4986 26252.8
 03 04 2013  01 21  -21.0400 26028.3 -03426.0 -07.4986 26252.8
 03 04 2013  01 22  -21.0397 26028.4 -03426.1 -07.4986 26252.9
 03 04 2013  01 23  -21.0396 26028.3 -03426.1 -07.4986 26252.9
 03 04 2013  01 24  -21.0396 26028.3 -03426.0 -07.4986 26252.8
 03 04 2013  01 25  -21.0396 26028.2 -03426.0 -07.4985 26252.7
 03 04 2013  01 26  -21.0395 26028.2 -03426.0 -07.4985 26252.7
 03 04 2013  01 27  -21.0395 26028.1 -03425.9 -07.4984 26252.6
 03 04 2013  01 28  -21.0395 26028.1 -03426.0 -07.4984 26252.6
 03 04 2013  01 29  -21.0395 26028.1 -03425.9 -07.4984 26252.6
 03 04 2013  01 30  -21.0396 26027.9 -03425.9 -07.4983 26252.4
 03 04 2013  01 31  -21.0397 26027.9 -03425.8 -07.4982 26252.4
 03 04 2013  01 32  -21.0399 26027.8 -03425.8 -07.4982 26252.3
 03 04 2013  01 33  -21.0400 26027.8 -03425.8 -07.4981 26252.3
 03 04 2013  01 34  -21.0401 26027.7 -03425.7 -07.4980 26252.2
 03 04 2013  01 35  -21.0402 26027.6 -03425.6 -07.4979 26252.1
 03 04 2013  01 36  -21.0401 26027.5 -03425.5 -07.4977 26251.9
 03 04 2013  01 37  -21.0398 26027.2 -03425.4 -07.4975 26251.6
 03 04 2013  01 38  -21.0397 26026.9 -03425.3 -07.4973 26251.4
 03 04 2013  01 39  -21.0395 26026.8 -03425.2 -07.4971 26251.2
 03 04 2013  01 40  -21.0391 26026.8 -03425.2 -07.4972 26251.3
 03 04 2013  01 41  -21.0391 26026.9 -03425.3 -07.4974 26251.4
 03 04 2013  01 42  -21.0391 26027.1 -03425.4 -07.4975 26251.5
 03 04 2013  01 43  -21.0393 26027.3 -03425.5 -07.4977 26251.7
 03 04 2013  01 44  -21.0393 26027.4 -03425.6 -07.4979 26251.9
 03 04 2013  01 45  -21.0394 26027.4 -03425.6 -07.4979 26251.9
 03 04 2013  01 46  -21.0394 26027.5 -03425.6 -07.4979 26252.0
 03 04 2013  01 47  -21.0395 26027.5 -03425.6 -07.4979 26251.9
 03 04 2013  01 48  -21.0396 26027.4 -03425.5 -07.4977 26251.8
 03 04 2013  01 49  -21.0397 26027.2 -03425.5 -07.4976 26251.7
 03 04 2013  01 50  -21.0397 26027.0 -03425.3 -07.4974 26251.5
 03 04 2013  01 51  -21.0398 26027.0 -03425.3 -07.4973 26251.4
 03 04 2013  01 52  -21.0399 26026.9 -03425.2 -07.4972 26251.4
 03 04 2013  01 53  -21.0400 26026.9 -03425.2 -07.4972 26251.3
 03 04 2013  01 54  -21.0400 26026.9 -03425.2 -07.4971 26251.3
 03 04 2013  01 55  -21.0400 26026.9 -03425.2 -07.4971 26251.3
 03 04 2013  01 56  -21.0399 26026.9 -03425.2 -07.4971 26251.3
 03 04 2013  01 57  -21.0399 26026.9 -03425.2 -07.4971 26251.3
 03 04 2013  01 58  -21.0402 26026.8 -03425.1 -07.4971 26251.2
 03 04 2013  01 59  -21.0403 26026.7 -03425.1 -07.4969 26251.1
 03 04 2013  02 00  -21.0403 26026.6 -03425.0 -07.4968 26251.0
 03 04 2013  02 01  -21.0403 26026.5 -03425.0 -07.4968 26250.9
 03 04 2013  02 02  -21.0402 26026.5 -03424.9 -07.4967 26250.9
 03 04 2013  02 03  -21.0402 26026.4 -03424.9 -07.4967 26250.8
 03 04 2013  02 04  -21.0402 26026.4 -03424.9 -07.4966 26250.7
 03 04 2013  02 05  -21.0402 26026.3 -03424.9 -07.4966 26250.7
 03 04 2013  02 06  -21.0403 26026.3 -03424.9 -07.4966 26250.7
 03 04 2013  02 07  -21.0403 26026.3 -03424.9 -07.4966 26250.7
 03 04 2013  02 08  -21.0403 26026.3 -03424.9 -07.4966 26250.7
 03 04 2013  02 09  -21.0402 26026.3 -03424.9 -07.4966 26250.7
 03 04 2013  02 10  -21.0403 26026.3 -03424.9 -07.4966 26250.7
 03 04 2013  02 11  -21.0405 26026.3 -03424.9 -07.4967 26250.7
 03 04 2013  02 12  -21.0406 26026.3 -03424.9 -07.4966 26250.7
 03 04 2013  02 13  -21.0406 26026.2 -03424.8 -07.4965 26250.6
 03 04 2013  02 14  -21.0406 26026.2 -03424.8 -07.4965 26250.5
 03 04 2013  02 15  -21.0406 26026.1 -03424.7 -07.4964 26250.5
 03 04 2013  02 16  -21.0405 26026.0 -03424.7 -07.4963 26250.3
 03 04 2013  02 17  -21.0405 26025.8 -03424.6 -07.4962 26250.2
 03 04 2013  02 18  -21.0405 26025.7 -03424.6 -07.4961 26250.1
 03 04 2013  02 19  -21.0405 26025.7 -03424.5 -07.4961 26250.0
 03 04 2013  02 20  -21.0405 26025.6 -03424.5 -07.4960 26249.9
 03 04 2013  02 21  -21.0403 26025.5 -03424.5 -07.4960 26249.9
 03 04 2013  02 22  -21.0402 26025.5 -03424.5 -07.4960 26249.9
 03 04 2013  02 23  -21.0400 26025.5 -03424.5 -07.4960 26249.8
 03 04 2013  02 24  -21.0402 26025.5 -03424.5 -07.4961 26249.9
 03 04 2013  02 25  -21.0403 26025.6 -03424.6 -07.4962 26250.0
 03 04 2013  02 26  -21.0403 26025.6 -03424.6 -07.4961 26249.9
 03 04 2013  02 27  -21.0404 26025.5 -03424.5 -07.4961 26249.8
 03 04 2013  02 28  -21.0405 26025.4 -03424.5 -07.4961 26249.7
 03 04 2013  02 29  -21.0405 26025.4 -03424.5 -07.4960 26249.7
 03 04 2013  02 30  -21.0406 26025.2 -03424.4 -07.4960 26249.6
 03 04 2013  02 31  -21.0406 26025.1 -03424.4 -07.4958 26249.4
 03 04 2013  02 32  -21.0407 26025.0 -03424.3 -07.4957 26249.3
 03 04 2013  02 33  -21.0407 26024.9 -03424.3 -07.4957 26249.2
 03 04 2013  02 34  -21.0408 26024.8 -03424.3 -07.4957 26249.1
 03 04 2013  02 35  -21.0408 26024.8 -03424.2 -07.4957 26249.1
 03 04 2013  02 36  -21.0408 26024.7 -03424.2 -07.4956 26249.0
 03 04 2013  02 37  -21.0409 26024.6 -03424.2 -07.4956 26248.9
 03 04 2013  02 38  -21.0409 26024.4 -03424.1 -07.4955 26248.7
 03 04 2013  02 39  -21.0412 26024.2 -03424.0 -07.4953 26248.5
 03 04 2013  02 40  -21.0414 26024.0 -03423.9 -07.4952 26248.3
 03 04 2013  02 41  -21.0416 26024.0 -03423.9 -07.4952 26248.3
 03 04 2013  02 42  -21.0416 26023.9 -03423.9 -07.4952 26248.2
 03 04 2013  02 43  -21.0415 26023.8 -03423.9 -07.4952 26248.1
 03 04 2013  02 44  -21.0416 26023.7 -03423.9 -07.4952 26248.0
 03 04 2013  02 45  -21.0417 26023.5 -03423.8 -07.4951 26247.8
 03 04 2013  02 46  -21.0418 26023.4 -03423.8 -07.4950 26247.6
 03 04 2013  02 47  -21.0419 26023.2 -03423.7 -07.4950 26247.5
 03 04 2013  02 48  -21.0419 26023.1 -03423.7 -07.4950 26247.4
 03 04 2013  02 49  -21.0422 26023.0 -03423.7 -07.4950 26247.3
 03 04 2013  02 50  -21.0423 26023.1 -03423.7 -07.4951 26247.4
 03 04 2013  02 51  -21.0426 26023.1 -03423.8 -07.4952 26247.4
 03 04 2013  02 52  -21.0427 26023.2 -03423.9 -07.4953 26247.5
 03 04 2013  02 53  -21.0428 26023.4 -03423.9 -07.4954 26247.6
 03 04 2013  02 54  -21.0428 26023.5 -03424.0 -07.4955 26247.8
 03 04 2013  02 55  -21.0429 26023.5 -03424.1 -07.4957 26247.8
 03 04 2013  02 56  -21.0430 26023.5 -03424.0 -07.4956 26247.8
 03 04 2013  02 57  -21.0432 26023.4 -03424.0 -07.4956 26247.7
 03 04 2013  02 58  -21.0433 26023.4 -03424.0 -07.4955 26247.7
 03 04 2013  02 59  -21.0435 26023.3 -03424.0 -07.4955 26247.6
 03 04 2013  03 00  -21.0437 26023.3 -03424.0 -07.4955 26247.6
 03 04 2013  03 01  -21.0437 26023.1 -03423.9 -07.4953 26247.4
 03 04 2013  03 02  -21.0436 26023.0 -03423.7 -07.4951 26247.2
 03 04 2013  03 03  -21.0435 26022.9 -03423.7 -07.4950 26247.1
 03 04 2013  03 04  -21.0435 26022.8 -03423.7 -07.4950 26247.0
 03 04 2013  03 05  -21.0434 26022.8 -03423.6 -07.4950 26247.0
 03 04 2013  03 06  -21.0432 26022.7 -03423.6 -07.4949 26246.9
 03 04 2013  03 07  -21.0432 26022.5 -03423.6 -07.4949 26246.8
 03 04 2013  03 08  -21.0432 26022.5 -03423.6 -07.4949 26246.7
 03 04 2013  03 09  -21.0433 26022.4 -03423.5 -07.4948 26246.6
 03 04 2013  03 10  -21.0432 26022.3 -03423.5 -07.4948 26246.5
 03 04 2013  03 11  -21.0431 26022.3 -03423.5 -07.4948 26246.5
 03 04 2013  03 12  -21.0430 26022.2 -03423.5 -07.4948 26246.4
 03 04 2013  03 13  -21.0428 26022.1 -03423.5 -07.4948 26246.4
 03 04 2013  03 14  -21.0427 26022.1 -03423.5 -07.4948 26246.3
 03 04 2013  03 15  -21.0426 26022.1 -03423.5 -07.4948 26246.3
 03 04 2013  03 16  -21.0425 26022.1 -03423.5 -07.4949 26246.4
 03 04 2013  03 17  -21.0425 26022.2 -03423.6 -07.4950 26246.4
 03 04 2013  03 18  -21.0425 26022.2 -03423.6 -07.4950 26246.4
 03 04 2013  03 19  -21.0424 26022.1 -03423.6 -07.4951 26246.4
 03 04 2013  03 20  -21.0424 26022.1 -03423.6 -07.4951 26246.4
 03 04 2013  03 21  -21.0425 26022.1 -03423.7 -07.4952 26246.4
 03 04 2013  03 22  -21.0426 26022.2 -03423.7 -07.4952 26246.4
 03 04 2013  03 23  -21.0426 26022.2 -03423.7 -07.4952 26246.5
 03 04 2013  03 24  -21.0426 26022.2 -03423.7 -07.4953 26246.5
 03 04 2013  03 25  -21.0426 26022.1 -03423.7 -07.4952 26246.4
 03 04 2013  03 26  -21.0425 26022.1 -03423.6 -07.4952 26246.3
 03 04 2013  03 27  -21.0423 26022.0 -03423.6 -07.4952 26246.2
 03 04 2013  03 28  -21.0423 26022.0 -03423.6 -07.4952 26246.2
 03 04 2013  03 29  -21.0422 26021.9 -03423.6 -07.4952 26246.1
 03 04 2013  03 30  -21.0422 26021.9 -03423.6 -07.4952 26246.1
 03 04 2013  03 31  -21.0422 26021.8 -03423.7 -07.4953 26246.1
 03 04 2013  03 32  -21.0423 26021.8 -03423.7 -07.4953 26246.1
 03 04 2013  03 33  -21.0423 26021.8 -03423.7 -07.4954 26246.1
 03 04 2013  03 34  -21.0424 26021.8 -03423.8 -07.4955 26246.1
 03 04 2013  03 35  -21.0424 26021.8 -03423.8 -07.4956 26246.1
 03 04 2013  03 36  -21.0423 26021.8 -03423.8 -07.4956 26246.1
 03 04 2013  03 37  -21.0422 26021.8 -03423.8 -07.4957 26246.1
 03 04 2013  03 38  -21.0421 26021.8 -03423.9 -07.4957 26246.1
 03 04 2013  03 39  -21.0420 26021.9 -03423.9 -07.4958 26246.2
 03 04 2013  03 40  -21.0420 26022.0 -03424.0 -07.4960 26246.3
 03 04 2013  03 41  -21.0419 26022.0 -03424.1 -07.4961 26246.3
 03 04 2013  03 42  -21.0420 26022.0 -03424.1 -07.4962 26246.3
 03 04 2013  03 43  -21.0420 26022.1 -03424.2 -07.4963 26246.4
 03 04 2013  03 44  -21.0419 26022.1 -03424.2 -07.4964 26246.5
 03 04 2013  03 45  -21.0418 26022.1 -03424.2 -07.4964 26246.5
 03 04 2013  03 46  -21.0417 26022.2 -03424.2 -07.4964 26246.5
 03 04 2013  03 47  -21.0417 26022.2 -03424.3 -07.4965 26246.5
 03 04 2013  03 48  -21.0418 26022.3 -03424.3 -07.4966 26246.6
 03 04 2013  03 49  -21.0416 26022.3 -03424.4 -07.4967 26246.7
 03 04 2013  03 50  -21.0416 26022.4 -03424.4 -07.4967 26246.7
 03 04 2013  03 51  -21.0414 26022.3 -03424.4 -07.4968 26246.7
 03 04 2013  03 52  -21.0413 26022.4 -03424.5 -07.4968 26246.8
 03 04 2013  03 53  -21.0411 26022.5 -03424.5 -07.4969 26246.8
 03 04 2013  03 54  -21.0410 26022.6 -03424.6 -07.4971 26246.9
 03 04 2013  03 55  -21.0408 26022.5 -03424.6 -07.4972 26246.9
 03 04 2013  03 56  -21.0407 26022.6 -03424.7 -07.4972 26246.9
 03 04 2013  03 57  -21.0406 26022.5 -03424.7 -07.4972 26246.9
 03 04 2013  03 58  -21.0405 26022.5 -03424.7 -07.4973 26246.9
 03 04 2013  03 59  -21.0405 26022.5 -03424.7 -07.4974 26246.9
 03 04 2013  04 00  -21.0404 26022.6 -03424.8 -07.4976 26247.0
 03 04 2013  04 01  -21.0404 26022.6 -03424.9 -07.4977 26247.0
 03 04 2013  04 02  -21.0403 26022.6 -03424.9 -07.4977 26247.0
 03 04 2013  04 03  -21.0404 26022.6 -03424.9 -07.4978 26247.0
 03 04 2013  04 04  -21.0404 26022.6 -03424.9 -07.4978 26247.0
 03 04 2013  04 05  -21.0406 26022.6 -03424.9 -07.4978 26247.0
 03 04 2013  04 06  -21.0406 26022.6 -03425.0 -07.4980 26247.0
 03 04 2013  04 07  -21.0407 26022.6 -03425.0 -07.4980 26247.1
 03 04 2013  04 08  -21.0407 26022.7 -03425.1 -07.4981 26247.1
 03 04 2013  04 09  -21.0408 26022.7 -03425.1 -07.4982 26247.1
 03 04 2013  04 10  -21.0409 26022.8 -03425.2 -07.4983 26247.2
 03 04 2013  04 11  -21.0413 26022.7 -03425.2 -07.4984 26247.2
 03 04 2013  04 12  -21.0416 26022.7 -03425.2 -07.4984 26247.2
 03 04 2013  04 13  -21.0418 26022.6 -03425.2 -07.4984 26247.1
 03 04 2013  04 14  -21.0418 26022.6 -03425.2 -07.4983 26247.1
 03 04 2013  04 15  -21.0419 26022.6 -03425.2 -07.4984 26247.0
 03 04 2013  04 16  -21.0419 26022.6 -03425.2 -07.4983 26247.0
 03 04 2013  04 17  -21.0419 26022.5 -03425.2 -07.4984 26247.0
 03 04 2013  04 18  -21.0419 26022.6 -03425.2 -07.4985 26247.1
 03 04 2013  04 19  -21.0420 26022.5 -03425.3 -07.4985 26247.0
 03 04 2013  04 20  -21.0420 26022.6 -03425.3 -07.4986 26247.0
 03 04 2013  04 21  -21.0419 26022.6 -03425.3 -07.4987 26247.1
 03 04 2013  04 22  -21.0419 26022.8 -03425.4 -07.4987 26247.2
 03 04 2013  04 23  -21.0422 26022.8 -03425.5 -07.4989 26247.3
 03 04 2013  04 24  -21.0426 26022.9 -03425.6 -07.4991 26247.4
 03 04 2013  04 25  -21.0428 26023.0 -03425.6 -07.4992 26247.5
 03 04 2013  04 26  -21.0430 26023.0 -03425.6 -07.4992 26247.5
 03 04 2013  04 27  -21.0434 26023.1 -03425.7 -07.4993 26247.6
 03 04 2013  04 28  -21.0436 26023.1 -03425.7 -07.4993 26247.6
 03 04 2013  04 29  -21.0438 26023.2 -03425.7 -07.4993 26247.7
 03 04 2013  04 30  -21.0441 26023.3 -03425.7 -07.4994 26247.8
 03 04 2013  04 31  -21.0442 26023.2 -03425.7 -07.4993 26247.8
 03 04 2013  04 32  -21.0445 26023.3 -03425.7 -07.4993 26247.8
 03 04 2013  04 33  -21.0447 26023.3 -03425.6 -07.4991 26247.8
 03 04 2013  04 34  -21.0448 26023.3 -03425.6 -07.4991 26247.8
 03 04 2013  04 35  -21.0449 26023.3 -03425.6 -07.4991 26247.8
 03 04 2013  04 36  -21.0449 26023.4 -03425.6 -07.4990 26247.9
 03 04 2013  04 37  -21.0450 26023.4 -03425.6 -07.4991 26247.9
 03 04 2013  04 38  -21.0451 26023.4 -03425.7 -07.4992 26248.0
 03 04 2013  04 39  -21.0452 26023.4 -03425.7 -07.4993 26247.9
 03 04 2013  04 40  -21.0454 26023.5 -03425.7 -07.4993 26248.0
 03 04 2013  04 41  -21.0453 26023.5 -03425.7 -07.4993 26248.1
 03 04 2013  04 42  -21.0453 26023.6 -03425.7 -07.4992 26248.1
 03 04 2013  04 43  -21.0454 26023.5 -03425.7 -07.4992 26248.0
 03 04 2013  04 44  -21.0454 26023.5 -03425.7 -07.4992 26248.0
 03 04 2013  04 45  -21.0454 26023.5 -03425.6 -07.4991 26248.0
 03 04 2013  04 46  -21.0454 26023.4 -03425.6 -07.4990 26247.9
 03 04 2013  04 47  -21.0453 26023.4 -03425.6 -07.4991 26247.9
 03 04 2013  04 48  -21.0454 26023.5 -03425.6 -07.4990 26248.0
 03 04 2013  04 49  -21.0454 26023.4 -03425.6 -07.4990 26247.9
 03 04 2013  04 50  -21.0456 26023.4 -03425.6 -07.4990 26247.9
 03 04 2013  04 51  -21.0458 26023.4 -03425.6 -07.4990 26247.9
 03 04 2013  04 52  -21.0459 26023.4 -03425.6 -07.4990 26247.9
 03 04 2013  04 53  -21.0460 26023.4 -03425.6 -07.4990 26247.9
 03 04 2013  04 54  -21.0461 26023.5 -03425.6 -07.4990 26248.0
 03 04 2013  04 55  -21.0462 26023.6 -03425.6 -07.4990 26248.1
 03 04 2013  04 56  -21.0462 26023.6 -03425.6 -07.4990 26248.1
 03 04 2013  04 57  -21.0464 26023.6 -03425.7 -07.4991 26248.2
 03 04 2013  04 58  -21.0465 26023.8 -03425.7 -07.4991 26248.3
 03 04 2013  04 59  -21.0466 26023.8 -03425.7 -07.4991 26248.3
 03 04 2013  05 00  -21.0467 26023.9 -03425.7 -07.4991 26248.4
 03 04 2013  05 01  -21.0467 26024.0 -03425.7 -07.4991 26248.5
 03 04 2013  05 02  -21.0467 26024.1 -03425.8 -07.4991 26248.6
 03 04 2013  05 03  -21.0467 26024.3 -03425.8 -07.4992 26248.8
 03 04 2013  05 04  -21.0468 26024.4 -03425.8 -07.4993 26248.9
 03 04 2013  05 05  -21.0469 26024.5 -03425.9 -07.4993 26249.0
 03 04 2013  05 06  -21.0469 26024.6 -03425.8 -07.4992 26249.1
 03 04 2013  05 07  -21.0469 26024.6 -03425.8 -07.4992 26249.1
 03 04 2013  05 08  -21.0468 26024.7 -03425.8 -07.4992 26249.2
 03 04 2013  05 09  -21.0468 26024.7 -03425.8 -07.4991 26249.2
 03 04 2013  05 10  -21.0469 26024.7 -03425.8 -07.4991 26249.2
 03 04 2013  05 11  -21.0469 26024.7 -03425.8 -07.4990 26249.3
 03 04 2013  05 12  -21.0468 26024.7 -03425.8 -07.4990 26249.2
 03 04 2013  05 13  -21.0468 26024.8 -03425.7 -07.4989 26249.3
 03 04 2013  05 14  -21.0469 26024.8 -03425.7 -07.4989 26249.3
 03 04 2013  05 15  -21.0469 26024.7 -03425.7 -07.4988 26249.2
 03 04 2013  05 16  -21.0468 26024.7 -03425.7 -07.4988 26249.2
 03 04 2013  05 17  -21.0467 26024.8 -03425.7 -07.4988 26249.3
 03 04 2013  05 18  -21.0466 26024.8 -03425.7 -07.4987 26249.3
 03 04 2013  05 19  -21.0465 26024.8 -03425.7 -07.4988 26249.3
 03 04 2013  05 20  -21.0464 26024.8 -03425.7 -07.4988 26249.3
 03 04 2013  05 21  -21.0464 26024.9 -03425.7 -07.4988 26249.4
 03 04 2013  05 22  -21.0464 26025.0 -03425.7 -07.4988 26249.5
 03 04 2013  05 23  -21.0463 26025.0 -03425.7 -07.4989 26249.5
 03 04 2013  05 24  -21.0462 26025.1 -03425.7 -07.4989 26249.6
 03 04 2013  05 25  -21.0461 26025.1 -03425.8 -07.4989 26249.6
 03 04 2013  05 26  -21.0461 26025.1 -03425.8 -07.4989 26249.6
 03 04 2013  05 27  -21.0460 26025.1 -03425.8 -07.4989 26249.6
 03 04 2013  05 28  -21.0458 26025.1 -03425.8 -07.4989 26249.6
 03 04 2013  05 29  -21.0457 26025.1 -03425.8 -07.4989 26249.6
 03 04 2013  05 30  -21.0456 26025.1 -03425.7 -07.4988 26249.6
 03 04 2013  05 31  -21.0456 26025.1 -03425.8 -07.4989 26249.6
 03 04 2013  05 32  -21.0456 26025.1 -03425.8 -07.4990 26249.6
 03 04 2013  05 33  -21.0454 26025.2 -03425.8 -07.4990 26249.7
 03 04 2013  05 34  -21.0453 26025.2 -03425.8 -07.4990 26249.7
 03 04 2013  05 35  -21.0452 26025.3 -03425.8 -07.4990 26249.8
 03 04 2013  05 36  -21.0451 26025.3 -03425.9 -07.4991 26249.8
 03 04 2013  05 37  -21.0450 26025.3 -03425.9 -07.4990 26249.8
 03 04 2013  05 38  -21.0450 26025.4 -03425.9 -07.4991 26249.9
 03 04 2013  05 39  -21.0450 26025.4 -03425.9 -07.4992 26250.0
 03 04 2013  05 40  -21.0449 26025.5 -03425.9 -07.4992 26250.0
 03 04 2013  05 41  -21.0449 26025.5 -03425.9 -07.4991 26250.0
 03 04 2013  05 42  -21.0448 26025.5 -03425.9 -07.4991 26250.0
 03 04 2013  05 43  -21.0448 26025.5 -03425.9 -07.4991 26250.0
 03 04 2013  05 44  -21.0447 26025.4 -03425.9 -07.4991 26250.0
 03 04 2013  05 45  -21.0444 26025.4 -03425.9 -07.4991 26250.0
 03 04 2013  05 46  -21.0443 26025.4 -03425.9 -07.4991 26249.9
 03 04 2013  05 47  -21.0442 26025.4 -03425.9 -07.4991 26249.9
 03 04 2013  05 48  -21.0442 26025.4 -03425.9 -07.4991 26249.9
 03 04 2013  05 49  -21.0442 26025.5 -03425.9 -07.4992 26250.0
 03 04 2013  05 50  -21.0442 26025.5 -03426.0 -07.4992 26250.0
 03 04 2013  05 51  -21.0441 26025.6 -03426.0 -07.4992 26250.1
 03 04 2013  05 52  -21.0442 26025.6 -03426.0 -07.4993 26250.1
 03 04 2013  05 53  -21.0442 26025.6 -03426.0 -07.4993 26250.2
 03 04 2013  05 54  -21.0442 26025.7 -03426.1 -07.4994 26250.2
 03 04 2013  05 55  -21.0441 26025.7 -03426.1 -07.4994 26250.2
 03 04 2013  05 56  -21.0441 26025.7 -03426.1 -07.4994 26250.2
 03 04 2013  05 57  -21.0441 26025.6 -03426.0 -07.4993 26250.2
 03 04 2013  05 58  -21.0440 26025.7 -03426.1 -07.4994 26250.2
 03 04 2013  05 59  -21.0438 26025.6 -03426.0 -07.4993 26250.2
 03 04 2013  06 00  -21.0438 26025.6 -03426.0 -07.4993 26250.2
 03 04 2013  06 01  -21.0436 26025.6 -03426.0 -07.4993 26250.1
 03 04 2013  06 02  -21.0435 26025.6 -03426.0 -07.4993 26250.1
 03 04 2013  06 03  -21.0433 26025.5 -03426.0 -07.4993 26250.1
 03 04 2013  06 04  -21.0431 26025.5 -03426.0 -07.4994 26250.1
 03 04 2013  06 05  -21.0430 26025.6 -03426.0 -07.4993 26250.1
 03 04 2013  06 06  -21.0429 26025.6 -03426.1 -07.4994 26250.1
 03 04 2013  06 07  -21.0428 26025.6 -03426.1 -07.4995 26250.2
 03 04 2013  06 08  -21.0427 26025.7 -03426.2 -07.4996 26250.2
 03 04 2013  06 09  -21.0425 26025.7 -03426.2 -07.4997 26250.3
 03 04 2013  06 10  -21.0423 26025.8 -03426.2 -07.4997 26250.3
 03 04 2013  06 11  -21.0423 26025.9 -03426.3 -07.4998 26250.4
 03 04 2013  06 12  -21.0421 26026.0 -03426.4 -07.5000 26250.5
 03 04 2013  06 13  -21.0421 26026.0 -03426.4 -07.5001 26250.6
 03 04 2013  06 14  -21.0419 26026.1 -03426.5 -07.5001 26250.6
 03 04 2013  06 15  -21.0417 26026.1 -03426.5 -07.5001 26250.7
 03 04 2013  06 16  -21.0415 26026.1 -03426.5 -07.5002 26250.7
 03 04 2013  06 17  -21.0413 26026.1 -03426.5 -07.5002 26250.7
 03 04 2013  06 18  -21.0411 26026.1 -03426.5 -07.5002 26250.7
 03 04 2013  06 19  -21.0409 26026.1 -03426.5 -07.5002 26250.7
 03 04 2013  06 20  -21.0408 26026.1 -03426.5 -07.5003 26250.7
 03 04 2013  06 21  -21.0407 26026.1 -03426.5 -07.5003 26250.7
 03 04 2013  06 22  -21.0405 26026.0 -03426.5 -07.5003 26250.6
 03 04 2013  06 23  -21.0404 26026.0 -03426.5 -07.5003 26250.6
 03 04 2013  06 24  -21.0404 26026.0 -03426.5 -07.5003 26250.6
 03 04 2013  06 25  -21.0404 26026.0 -03426.6 -07.5003 26250.6
 03 04 2013  06 26  -21.0404 26026.0 -03426.6 -07.5004 26250.6
 03 04 2013  06 27  -21.0405 26026.1 -03426.6 -07.5005 26250.7
 03 04 2013  06 28  -21.0405 26026.1 -03426.7 -07.5006 26250.7
 03 04 2013  06 29  -21.0406 26026.1 -03426.7 -07.5007 26250.8
 03 04 2013  06 30  -21.0407 26026.2 -03426.7 -07.5007 26250.8
 03 04 2013  06 31  -21.0406 26026.2 -03426.8 -07.5007 26250.9
 03 04 2013  06 32  -21.0407 26026.3 -03426.8 -07.5008 26250.9
 03 04 2013  06 33  -21.0406 26026.4 -03426.8 -07.5008 26251.0
 03 04 2013  06 34  -21.0407 26026.4 -03426.9 -07.5009 26251.0
 03 04 2013  06 35  -21.0408 26026.4 -03426.9 -07.5009 26251.1
 03 04 2013  06 36  -21.0407 26026.4 -03426.9 -07.5010 26251.1
 03 04 2013  06 37  -21.0406 26026.4 -03426.9 -07.5010 26251.0
 03 04 2013  06 38  -21.0406 26026.3 -03426.8 -07.5009 26251.0
 03 04 2013  06 39  -21.0403 26026.3 -03426.8 -07.5008 26250.9
 03 04 2013  06 40  -21.0402 26026.2 -03426.7 -07.5007 26250.8
 03 04 2013  06 41  -21.0398 26026.0 -03426.7 -07.5007 26250.7
 03 04 2013  06 42  -21.0395 26026.0 -03426.7 -07.5007 26250.6
 03 04 2013  06 43  -21.0394 26025.9 -03426.7 -07.5007 26250.5
 03 04 2013  06 44  -21.0392 26025.8 -03426.7 -07.5007 26250.4
 03 04 2013  06 45  -21.0391 26025.7 -03426.7 -07.5008 26250.3
 03 04 2013  06 46  -21.0390 26025.6 -03426.8 -07.5009 26250.3
 03 04 2013  06 47  -21.0389 26025.6 -03426.8 -07.5010 26250.2
 03 04 2013  06 48  -21.0388 26025.6 -03426.8 -07.5010 26250.3
 03 04 2013  06 49  -21.0387 26025.7 -03426.9 -07.5012 26250.3
 03 04 2013  06 50  -21.0386 26025.7 -03427.0 -07.5013 26250.4
 03 04 2013  06 51  -21.0386 26025.7 -03427.0 -07.5014 26250.4
 03 04 2013  06 52  -21.0386 26025.8 -03427.1 -07.5016 26250.4
 03 04 2013  06 53  -21.0384 26025.9 -03427.1 -07.5017 26250.5
 03 04 2013  06 54  -21.0385 26025.9 -03427.2 -07.5018 26250.6
 03 04 2013  06 55  -21.0385 26026.0 -03427.3 -07.5019 26250.6
 03 04 2013  06 56  -21.0384 26025.9 -03427.3 -07.5020 26250.6
 03 04 2013  06 57  -21.0383 26025.9 -03427.3 -07.5021 26250.6
 03 04 2013  06 58  -21.0383 26025.9 -03427.3 -07.5021 26250.6
 03 04 2013  06 59  -21.0382 26025.9 -03427.3 -07.5021 26250.6
 03 04 2013  07 00  -21.0382 26025.9 -03427.3 -07.5021 26250.6
 03 04 2013  07 01  -21.0381 26025.8 -03427.3 -07.5021 26250.5
 03 04 2013  07 02  -21.0380 26025.7 -03427.3 -07.5021 26250.4
 03 04 2013  07 03  -21.0379 26025.8 -03427.4 -07.5022 26250.5
 03 04 2013  07 04  -21.0380 26025.8 -03427.4 -07.5023 26250.5
 03 04 2013  07 05  -21.0381 26025.8 -03427.5 -07.5024 26250.5
 03 04 2013  07 06  -21.0383 26025.9 -03427.5 -07.5025 26250.6
 03 04 2013  07 07  -21.0384 26025.9 -03427.6 -07.5026 26250.7
 03 04 2013  07 08  -21.0386 26026.0 -03427.6 -07.5027 26250.8
 03 04 2013  07 09  -21.0387 26026.1 -03427.7 -07.5027 26250.9
 03 04 2013  07 10  -21.0388 26026.2 -03427.7 -07.5027 26251.0
 03 04 2013  07 11  -21.0390 26026.3 -03427.8 -07.5029 26251.0
 03 04 2013  07 12  -21.0391 26026.3 -03427.8 -07.5029 26251.0
 03 04 2013  07 13  -21.0392 26026.4 -03427.8 -07.5029 26251.1
 03 04 2013  07 14  -21.0393 26026.3 -03427.8 -07.5029 26251.1
 03 04 2013  07 15  -21.0393 26026.3 -03427.8 -07.5029 26251.1
 03 04 2013  07 16  -21.0393 26026.3 -03427.7 -07.5028 26251.0
 03 04 2013  07 17  -21.0393 26026.3 -03427.7 -07.5028 26251.0
 03 04 2013  07 18  -21.0394 26026.3 -03427.7 -07.5028 26251.0
 03 04 2013  07 19  -21.0393 26026.2 -03427.7 -07.5027 26250.9
 03 04 2013  07 20  -21.0392 26026.2 -03427.7 -07.5027 26251.0
 03 04 2013  07 21  -21.0392 26026.2 -03427.6 -07.5026 26251.0
 03 04 2013  07 22  -21.0391 26026.2 -03427.6 -07.5026 26250.9
 03 04 2013  07 23  -21.0390 26026.2 -03427.6 -07.5026 26250.9
 03 04 2013  07 24  -21.0388 26026.2 -03427.6 -07.5026 26250.9
 03 04 2013  07 25  -21.0386 26026.1 -03427.6 -07.5026 26250.8
 03 04 2013  07 26  -21.0385 26026.0 -03427.5 -07.5024 26250.7
 03 04 2013  07 27  -21.0381 26025.8 -03427.5 -07.5024 26250.6
 03 04 2013  07 28  -21.0380 26025.8 -03427.5 -07.5024 26250.5
 03 04 2013  07 29  -21.0377 26025.7 -03427.5 -07.5025 26250.5
 03 04 2013  07 30  -21.0376 26025.8 -03427.6 -07.5026 26250.5
 03 04 2013  07 31  -21.0374 26025.8 -03427.6 -07.5027 26250.6
 03 04 2013  07 32  -21.0373 26025.8 -03427.6 -07.5027 26250.5
 03 04 2013  07 33  -21.0371 26025.8 -03427.7 -07.5028 26250.5
 03 04 2013  07 34  -21.0370 26025.7 -03427.7 -07.5029 26250.5
 03 04 2013  07 35  -21.0369 26025.7 -03427.7 -07.5029 26250.5
 03 04 2013  07 36  -21.0369 26025.7 -03427.7 -07.5030 26250.5
 03 04 2013  07 37  -21.0368 26025.7 -03427.8 -07.5030 26250.5
 03 04 2013  07 38  -21.0369 26025.7 -03427.8 -07.5031 26250.5
 03 04 2013  07 39  -21.0371 26025.7 -03427.8 -07.5031 26250.5
 03 04 2013  07 40  -21.0372 26025.7 -03427.8 -07.5031 26250.5
 03 04 2013  07 41  -21.0373 26025.9 -03427.9 -07.5034 26250.7
 03 04 2013  07 42  -21.0374 26026.0 -03428.0 -07.5034 26250.8
 03 04 2013  07 43  -21.0374 26026.1 -03428.0 -07.5035 26250.9
 03 04 2013  07 44  -21.0375 26025.9 -03428.0 -07.5035 26250.7
 03 04 2013  07 45  -21.0375 26026.0 -03428.0 -07.5035 26250.8
 03 04 2013  07 46  -21.0375 26026.5 -03428.2 -07.5039 26251.3
 03 04 2013  07 47  -21.0377 26026.4 -03428.2 -07.5038 26251.2
 03 04 2013  07 48  -21.0375 26026.5 -03428.3 -07.5040 26251.4
 03 04 2013  07 49  -21.0375 26026.6 -03428.3 -07.5040 26251.5
 03 04 2013  07 50  -21.0373 26026.7 -03428.3 -07.5039 26251.5
 03 04 2013  07 51  -21.0374 26026.7 -03428.4 -07.5040 26251.6
 03 04 2013  07 52  -21.0374 26026.9 -03428.4 -07.5041 26251.7
 03 04 2013  07 53  -21.0373 26026.9 -03428.4 -07.5040 26251.7
 03 04 2013  07 54  -21.0372 26027.0 -03428.4 -07.5040 26251.8
 03 04 2013  07 55  -21.0373 26027.0 -03428.3 -07.5039 26251.8
 03 04 2013  07 56  -21.0371 26026.9 -03428.3 -07.5038 26251.7
 03 04 2013  07 57  -21.0368 26027.0 -03428.3 -07.5038 26251.8
 03 04 2013  07 58  -21.0366 26027.0 -03428.3 -07.5038 26251.8
 03 04 2013  07 59  -21.0361 26026.9 -03428.2 -07.5037 26251.7
 03 04 2013  08 00  -21.0361 26026.8 -03428.2 -07.5036 26251.6
 03 04 2013  08 01  -21.0360 26026.9 -03428.3 -07.5038 26251.7
 03 04 2013  08 02  -21.0358 26027.0 -03428.3 -07.5038 26251.8
 03 04 2013  08 03  -21.0356 26027.0 -03428.3 -07.5039 26251.8
 03 04 2013  08 04  -21.0351 26027.0 -03428.3 -07.5039 26251.8
 03 04 2013  08 05  -21.0348 26026.9 -03428.3 -07.5039 26251.8
 03 04 2013  08 06  -21.0347 26027.0 -03428.4 -07.5040 26251.8
 03 04 2013  08 07  -21.0345 26026.9 -03428.4 -07.5040 26251.7
 03 04 2013  08 08  -21.0344 26026.8 -03428.4 -07.5040 26251.6
 03 04 2013  08 09  -21.0343 26026.8 -03428.4 -07.5041 26251.6
 03 04 2013  08 10  -21.0341 26026.8 -03428.4 -07.5042 26251.7
 03 04 2013  08 11  -21.0341 26026.8 -03428.4 -07.5042 26251.6
 03 04 2013  08 12  -21.0342 26026.7 -03428.4 -07.5042 26251.6
 03 04 2013  08 13  -21.0343 26026.6 -03428.4 -07.5042 26251.5
 03 04 2013  08 14  -21.0344 26026.6 -03428.5 -07.5043 26251.4
 03 04 2013  08 15  -21.0345 26026.6 -03428.5 -07.5044 26251.5
 03 04 2013  08 16  -21.0346 26026.6 -03428.5 -07.5045 26251.5
 03 04 2013  08 17  -21.0346 26026.6 -03428.5 -07.5045 26251.4
 03 04 2013  08 18  -21.0347 26026.6 -03428.5 -07.5045 26251.4
 03 04 2013  08 19  -21.0345 26026.4 -03428.5 -07.5044 26251.2
 03 04 2013  08 20  -21.0342 26026.3 -03428.4 -07.5043 26251.1
 03 04 2013  08 21  -21.0341 26026.3 -03428.5 -07.5044 26251.1
 03 04 2013  08 22  -21.0342 26026.2 -03428.5 -07.5044 26251.0
 03 04 2013  08 23  -21.0342 26026.2 -03428.5 -07.5044 26251.0
 03 04 2013  08 24  -21.0341 26026.1 -03428.5 -07.5045 26251.0
 03 04 2013  08 25  -21.0340 26026.1 -03428.5 -07.5045 26250.9
 03 04 2013  08 26  -21.0338 26026.0 -03428.5 -07.5045 26250.9
 03 04 2013  08 27  -21.0339 26025.9 -03428.5 -07.5046 26250.8
 03 04 2013  08 28  -21.0340 26025.9 -03428.6 -07.5047 26250.8
 03 04 2013  08 29  -21.0340 26025.9 -03428.6 -07.5047 26250.7
 03 04 2013  08 30  -21.0339 26025.8 -03428.6 -07.5048 26250.7
 03 04 2013  08 31  -21.0340 26025.8 -03428.6 -07.5049 26250.6
 03 04 2013  08 32  -21.0340 26025.7 -03428.6 -07.5049 26250.6
 03 04 2013  08 33  -21.0340 26025.7 -03428.6 -07.5049 26250.5
 03 04 2013  08 34  -21.0339 26025.7 -03428.7 -07.5050 26250.6
 03 04 2013  08 35  -21.0340 26025.7 -03428.7 -07.5050 26250.5
 03 04 2013  08 36  -21.0338 26025.7 -03428.7 -07.5050 26250.5
 03 04 2013  08 37  -21.0335 26025.6 -03428.6 -07.5050 26250.5
 03 04 2013  08 38  -21.0331 26025.5 -03428.6 -07.5049 26250.4
 03 04 2013  08 39  -21.0327 26025.5 -03428.5 -07.5048 26250.3
 03 04 2013  08 40  -21.0324 26025.4 -03428.4 -07.5045 26250.2
 03 04 2013  08 41  -21.0323 26025.3 -03428.5 -07.5047 26250.1
 03 04 2013  08 42  -21.0321 26025.1 -03428.5 -07.5047 26250.0
 03 04 2013  08 43  -21.0318 26025.0 -03428.4 -07.5047 26249.8
 03 04 2013  08 44  -21.0317 26024.9 -03428.4 -07.5047 26249.7
 03 04 2013  08 45  -21.0313 26024.8 -03428.4 -07.5047 26249.6
 03 04 2013  08 46  -21.0312 26024.7 -03428.4 -07.5047 26249.6
 03 04 2013  08 47  -21.0309 26024.5 -03428.4 -07.5048 26249.4
 03 04 2013  08 48  -21.0306 26024.5 -03428.4 -07.5049 26249.3
 03 04 2013  08 49  -21.0301 26024.4 -03428.5 -07.5050 26249.2
 03 04 2013  08 50  -21.0298 26024.4 -03428.6 -07.5053 26249.3
 03 04 2013  08 51  -21.0296 26024.3 -03428.7 -07.5054 26249.2
 03 04 2013  08 52  -21.0295 26024.1 -03428.7 -07.5056 26249.0
 03 04 2013  08 53  -21.0294 26024.1 -03428.9 -07.5059 26249.0
 03 04 2013  08 54  -21.0293 26024.2 -03429.0 -07.5062 26249.2
 03 04 2013  08 55  -21.0291 26024.2 -03429.1 -07.5063 26249.1
 03 04 2013  08 56  -21.0289 26023.8 -03429.1 -07.5065 26248.8
 03 04 2013  08 57  -21.0287 26024.0 -03429.3 -07.5069 26249.0
 03 04 2013  08 58  -21.0287 26023.7 -03429.4 -07.5071 26248.7
 03 04 2013  08 59  -21.0283 26023.9 -03429.6 -07.5075 26248.9
 03 04 2013  09 00  -21.0281 26023.3 -03429.6 -07.5077 26248.3
 03 04 2013  09 01  -21.0277 26023.4 -03429.8 -07.5081 26248.4
 03 04 2013  09 02  -21.0279 26023.5 -03430.0 -07.5085 26248.6
 03 04 2013  09 03  -21.0282 26023.5 -03430.2 -07.5089 26248.6
 03 04 2013  09 04  -21.0284 26023.4 -03430.3 -07.5093 26248.5
 03 04 2013  09 05  -21.0284 26023.4 -03430.5 -07.5097 26248.5
 03 04 2013  09 06  -21.0286 26023.3 -03430.6 -07.5100 26248.4
 03 04 2013  09 07  -21.0284 26023.3 -03430.8 -07.5103 26248.5
 03 04 2013  09 08  -21.0291 26023.0 -03430.8 -07.5105 26248.2
 03 04 2013  09 09  -21.0290 26023.4 -03431.2 -07.5112 26248.6
 03 04 2013  09 10  -21.0297 26023.1 -03431.2 -07.5113 26248.4
 03 04 2013  09 11  -21.0300 26023.1 -03431.4 -07.5117 26248.4
 03 04 2013  09 12  -21.0298 26023.4 -03431.6 -07.5121 26248.7
 03 04 2013  09 13  -21.0302 26023.2 -03431.7 -07.5122 26248.5
 03 04 2013  09 14  -21.0304 26023.4 -03431.9 -07.5126 26248.7
 03 04 2013  09 15  -21.0306 26023.2 -03432.0 -07.5129 26248.5
 03 04 2013  09 16  -21.0307 26023.2 -03432.1 -07.5132 26248.6
 03 04 2013  09 17  -21.0307 26023.4 -03432.3 -07.5136 26248.8
 03 04 2013  09 18  -21.0315 26023.4 -03432.5 -07.5139 26248.8
 03 04 2013  09 19  -21.0317 26023.5 -03432.6 -07.5141 26248.9
 03 04 2013  09 20  -21.0322 26023.3 -03432.6 -07.5141 26248.7
 03 04 2013  09 21  -21.0323 26023.2 -03432.8 -07.5146 26248.7
 03 04 2013  09 22  -21.0330 26023.2 -03432.9 -07.5149 26248.7
 03 04 2013  09 23  -21.0337 26023.2 -03433.1 -07.5152 26248.7
 03 04 2013  09 24  -21.0339 26022.9 -03433.1 -07.5153 26248.4
 03 04 2013  09 25  -21.0340 26023.0 -03433.2 -07.5156 26248.4
 03 04 2013  09 26  -21.0341 26023.0 -03433.3 -07.5158 26248.5
 03 04 2013  09 27  -21.0346 26023.0 -03433.5 -07.5161 26248.6
 03 04 2013  09 28  -21.0348 26023.2 -03433.6 -07.5164 26248.8
 03 04 2013  09 29  -21.0353 26023.3 -03433.8 -07.5167 26248.9
 03 04 2013  09 30  -21.0354 26023.4 -03433.9 -07.5170 26249.0
 03 04 2013  09 31  -21.0358 26023.4 -03434.0 -07.5172 26249.0
 03 04 2013  09 32  -21.0362 26023.4 -03434.1 -07.5174 26249.0
 03 04 2013  09 33  -21.0366 26023.3 -03434.2 -07.5176 26248.9
 03 04 2013  09 34  -21.0367 26023.3 -03434.2 -07.5177 26248.9
 03 04 2013  09 35  -21.0366 26023.4 -03434.3 -07.5180 26249.0
 03 04 2013  09 36  -21.0369 26023.4 -03434.4 -07.5182 26249.0
 03 04 2013  09 37  -21.0372 26023.4 -03434.6 -07.5185 26249.1
 03 04 2013  09 38  -21.0379 26023.4 -03434.7 -07.5188 26249.1
 03 04 2013  09 39  -21.0382 26023.3 -03434.8 -07.5190 26249.0
 03 04 2013  09 40  -21.0384 26023.2 -03434.9 -07.5192 26248.9
 03 04 2013  09 41  -21.0384 26023.0 -03434.9 -07.5194 26248.7
 03 04 2013  09 42  -21.0386 26023.0 -03435.1 -07.5197 26248.7
 03 04 2013  09 43  -21.0389 26023.0 -03435.3 -07.5201 26248.7
 03 04 2013  09 44  -21.0392 26022.9 -03435.5 -07.5205 26248.7
 03 04 2013  09 45  -21.0396 26023.0 -03435.6 -07.5208 26248.8
 03 04 2013  09 46  -21.0400 26023.1 -03435.8 -07.5212 26248.9
 03 04 2013  09 47  -21.0403 26023.1 -03436.0 -07.5215 26249.0
 03 04 2013  09 48  -21.0405 26023.2 -03436.1 -07.5218 26249.0
 03 04 2013  09 49  -21.0411 26023.3 -03436.3 -07.5221 26249.2
 03 04 2013  09 50  -21.0418 26023.5 -03436.4 -07.5224 26249.4
 03 04 2013  09 51  -21.0424 26023.6 -03436.5 -07.5226 26249.5
 03 04 2013  09 52  -21.0433 26023.6 -03436.6 -07.5227 26249.5
 03 04 2013  09 53  -21.0438 26023.6 -03436.7 -07.5229 26249.5
 03 04 2013  09 54  -21.0441 26023.7 -03436.8 -07.5231 26249.7
 03 04 2013  09 55  -21.0446 26023.8 -03436.9 -07.5233 26249.8
 03 04 2013  09 56  -21.0451 26023.9 -03437.0 -07.5235 26249.9
 03 04 2013  09 57  -21.0454 26023.8 -03437.0 -07.5236 26249.8
 03 04 2013  09 58  -21.0458 26023.8 -03437.0 -07.5237 26249.8
 03 04 2013  09 59  -21.0464 26023.8 -03437.1 -07.5239 26249.8
 03 04 2013  10 00  -21.0469 26023.9 -03437.3 -07.5241 26249.9
 03 04 2013  10 01  -21.0477 26024.0 -03437.4 -07.5244 26250.0
 03 04 2013  10 02  -21.0485 26023.9 -03437.5 -07.5247 26250.0
 03 04 2013  10 03  -21.0493 26023.9 -03437.6 -07.5249 26250.0
 03 04 2013  10 04  -21.0498 26023.9 -03437.7 -07.5251 26250.0
 03 04 2013  10 05  -21.0503 26023.9 -03437.8 -07.5253 26250.0
 03 04 2013  10 06  -21.0508 26023.8 -03437.9 -07.5255 26249.9
 03 04 2013  10 07  -21.0508 26023.7 -03437.9 -07.5256 26249.8
 03 04 2013  10 08  -21.0507 26023.7 -03438.0 -07.5258 26249.8
 03 04 2013  10 09  -21.0510 26023.7 -03438.1 -07.5261 26249.8
 03 04 2013  10 10  -21.0514 26023.7 -03438.3 -07.5264 26249.9
 03 04 2013  10 11  -21.0519 26023.8 -03438.4 -07.5266 26250.0
 03 04 2013  10 12  -21.0525 26023.9 -03438.6 -07.5269 26250.1
 03 04 2013  10 13  -21.0532 26024.0 -03438.7 -07.5272 26250.2
 03 04 2013  10 14  -21.0541 26024.2 -03438.9 -07.5275 26250.4
 03 04 2013  10 15  -21.0547 26024.2 -03438.9 -07.5276 26250.4
 03 04 2013  10 16  -21.0549 26024.2 -03438.9 -07.5277 26250.5
 03 04 2013  10 17  -21.0552 26024.1 -03439.0 -07.5277 26250.4
 03 04 2013  10 18  -21.0558 26024.2 -03439.1 -07.5279 26250.4
 03 04 2013  10 19  -21.0561 26024.2 -03439.1 -07.5281 26250.4
 03 04 2013  10 20  -21.0566 26024.2 -03439.2 -07.5283 26250.5
 03 04 2013  10 21  -21.0571 26024.3 -03439.3 -07.5285 26250.6
 03 04 2013  10 22  -21.0576 26024.4 -03439.4 -07.5287 26250.7
 03 04 2013  10 23  -21.0584 26024.5 -03439.6 -07.5289 26250.8
 03 04 2013  10 24  -21.0591 26024.6 -03439.6 -07.5290 26250.9
 03 04 2013  10 25  -21.0599 26024.6 -03439.7 -07.5293 26250.9
 03 04 2013  10 26  -21.0607 26024.7 -03439.8 -07.5295 26251.0
 03 04 2013  10 27  -21.0613 26024.7 -03439.9 -07.5295 26251.0
 03 04 2013  10 28  -21.0620 26024.7 -03439.9 -07.5296 26251.1
 03 04 2013  10 29  -21.0625 26024.9 -03440.0 -07.5297 26251.2
 03 04 2013  10 30  -21.0632 26025.0 -03440.0 -07.5298 26251.3
 03 04 2013  10 31  -21.0638 26025.1 -03440.1 -07.5298 26251.5
 03 04 2013  10 32  -21.0645 26025.1 -03440.1 -07.5298 26251.5
 03 04 2013  10 33  -21.0654 26025.2 -03440.1 -07.5298 26251.6
 03 04 2013  10 34  -21.0661 26025.3 -03440.1 -07.5298 26251.7
 03 04 2013  10 35  -21.0669 26025.4 -03440.0 -07.5297 26251.7
 03 04 2013  10 36  -21.0674 26025.5 -03440.1 -07.5297 26251.9
 03 04 2013  10 37  -21.0680 26025.5 -03440.0 -07.5296 26251.9
 03 04 2013  10 38  -21.0684 26025.7 -03440.0 -07.5296 26252.1
 03 04 2013  10 39  -21.0691 26025.8 -03440.0 -07.5295 26252.2
 03 04 2013  10 40  -21.0696 26026.0 -03440.0 -07.5294 26252.3
 03 04 2013  10 41  -21.0699 26026.1 -03439.9 -07.5292 26252.5
 03 04 2013  10 42  -21.0703 26026.3 -03439.9 -07.5292 26252.7
 03 04 2013  10 43  -21.0706 26026.5 -03439.9 -07.5290 26252.9
 03 04 2013  10 44  -21.0709 26026.7 -03439.8 -07.5288 26253.0
 03 04 2013  10 45  -21.0711 26026.9 -03439.7 -07.5286 26253.2
 03 04 2013  10 46  -21.0713 26027.1 -03439.7 -07.5284 26253.4
 03 04 2013  10 47  -21.0716 26027.3 -03439.6 -07.5282 26253.6
 03 04 2013  10 48  -21.0717 26027.5 -03439.6 -07.5280 26253.8
 03 04 2013  10 49  -21.0719 26027.7 -03439.5 -07.5278 26254.0
 03 04 2013  10 50  -21.0721 26027.9 -03439.4 -07.5276 26254.1
 03 04 2013  10 51  -21.0724 26028.2 -03439.4 -07.5275 26254.4
 03 04 2013  10 52  -21.0730 26028.4 -03439.3 -07.5273 26254.7
 03 04 2013  10 53  -21.0734 26028.7 -03439.3 -07.5272 26255.0
 03 04 2013  10 54  -21.0738 26029.0 -03439.3 -07.5270 26255.2
 03 04 2013  10 55  -21.0741 26029.3 -03439.2 -07.5268 26255.5
 03 04 2013  10 56  -21.0744 26029.5 -03439.1 -07.5266 26255.8
 03 04 2013  10 57  -21.0746 26029.9 -03439.1 -07.5263 26256.1
 03 04 2013  10 58  -21.0751 26030.1 -03439.0 -07.5260 26256.3
 03 04 2013  10 59  -21.0756 26030.4 -03438.9 -07.5258 26256.5
 03 04 2013  11 00  -21.0762 26030.7 -03438.8 -07.5256 26256.8
 03 04 2013  11 01  -21.0768 26031.0 -03438.7 -07.5253 26257.1
 03 04 2013  11 02  -21.0771 26031.2 -03438.6 -07.5249 26257.3
 03 04 2013  11 03  -21.0774 26031.3 -03438.4 -07.5245 26257.4
 03 04 2013  11 04  -21.0779 26031.4 -03438.3 -07.5242 26257.5
 03 04 2013  11 05  -21.0783 26031.6 -03438.2 -07.5240 26257.7
 03 04 2013  11 06  -21.0787 26031.9 -03438.1 -07.5237 26258.0
 03 04 2013  11 07  -21.0792 26032.2 -03438.1 -07.5235 26258.2
 03 04 2013  11 08  -21.0796 26032.5 -03438.0 -07.5232 26258.5
 03 04 2013  11 09  -21.0800 26032.7 -03437.8 -07.5229 26258.7
 03 04 2013  11 10  -21.0802 26033.0 -03437.8 -07.5226 26259.0
 03 04 2013  11 11  -21.0806 26033.3 -03437.7 -07.5224 26259.3
 03 04 2013  11 12  -21.0808 26033.6 -03437.6 -07.5221 26259.6
 03 04 2013  11 13  -21.0809 26033.9 -03437.6 -07.5219 26259.9
 03 04 2013  11 14  -21.0811 26034.1 -03437.5 -07.5216 26260.0
 03 04 2013  11 15  -21.0815 26034.3 -03437.4 -07.5215 26260.3
 03 04 2013  11 16  -21.0820 26034.7 -03437.4 -07.5212 26260.6
 03 04 2013  11 17  -21.0823 26035.1 -03437.3 -07.5210 26261.0
 03 04 2013  11 18  -21.0828 26035.3 -03437.2 -07.5207 26261.2
 03 04 2013  11 19  -21.0833 26035.6 -03437.1 -07.5203 26261.5
 03 04 2013  11 20  -21.0837 26035.8 -03436.9 -07.5200 26261.7
 03 04 2013  11 21  -21.0840 26036.0 -03436.7 -07.5195 26261.8
 03 04 2013  11 22  -21.0843 26036.0 -03436.6 -07.5192 26261.9
 03 04 2013  11 23  -21.0846 26036.2 -03436.5 -07.5189 26262.0
 03 04 2013  11 24  -21.0848 26036.5 -03436.4 -07.5187 26262.3
 03 04 2013  11 25  -21.0850 26036.8 -03436.3 -07.5184 26262.6
 03 04 2013  11 26  -21.0853 26037.1 -03436.2 -07.5181 26262.9
 03 04 2013  11 27  -21.0855 26037.5 -03436.2 -07.5179 26263.3
 03 04 2013  11 28  -21.0857 26037.8 -03436.1 -07.5175 26263.5
 03 04 2013  11 29  -21.0860 26038.1 -03436.0 -07.5173 26263.8
 03 04 2013  11 30  -21.0863 26038.4 -03435.9 -07.5170 26264.1
 03 04 2013  11 31  -21.0865 26038.7 -03435.8 -07.5167 26264.4
 03 04 2013  11 32  -21.0869 26039.0 -03435.7 -07.5163 26264.7
 03 04 2013  11 33  -21.0871 26039.4 -03435.6 -07.5160 26265.1
 03 04 2013  11 34  -21.0873 26039.7 -03435.4 -07.5157 26265.3
 03 04 2013  11 35  -21.0875 26039.9 -03435.3 -07.5153 26265.5
 03 04 2013  11 36  -21.0878 26040.2 -03435.2 -07.5150 26265.8
 03 04 2013  11 37  -21.0881 26040.5 -03435.1 -07.5147 26266.1
 03 04 2013  11 38  -21.0885 26040.9 -03435.0 -07.5144 26266.5
 03 04 2013  11 39  -21.0887 26041.4 -03434.9 -07.5141 26266.9
 03 04 2013  11 40  -21.0888 26041.9 -03434.8 -07.5137 26267.4
 03 04 2013  11 41  -21.0890 26042.3 -03434.7 -07.5133 26267.8
 03 04 2013  11 42  -21.0890 26042.7 -03434.5 -07.5129 26268.2
 03 04 2013  11 43  -21.0892 26043.2 -03434.4 -07.5124 26268.6
 03 04 2013  11 44  -21.0895 26043.5 -03434.2 -07.5119 26268.9
 03 04 2013  11 45  -21.0905 26043.9 -03434.0 -07.5114 26269.4
 03 04 2013  11 46  -21.0941 26043.9 -03433.6 -07.5105 26269.3
 03 04 2013  11 47  -21.0942 26044.4 -03433.5 -07.5102 26269.7
 03 04 2013  11 48  -21.0946 26044.7 -03433.3 -07.5096 26270.0
 03 04 2013  11 49  -21.0950 26045.0 -03433.1 -07.5091 26270.3
 03 04 2013  11 50  -21.0953 26045.4 -03432.9 -07.5086 26270.7
 03 04 2013  11 51  -21.0955 26045.9 -03432.8 -07.5083 26271.2
 03 04 2013  11 52  -21.0957 26046.4 -03432.7 -07.5078 26271.7
 03 04 2013  11 53  -21.0958 26046.8 -03432.5 -07.5072 26272.0
 03 04 2013  11 54  -21.0961 26047.1 -03432.3 -07.5067 26272.2
 03 04 2013  11 55  -21.0964 26047.3 -03432.1 -07.5062 26272.5
 03 04 2013  11 56  -21.0964 26047.6 -03431.9 -07.5058 26272.7
 03 04 2013  11 57  -21.0929 26048.4 -03432.1 -07.5059 26273.5
 03 04 2013  11 58  -21.0932 26048.6 -03431.9 -07.5054 26273.7
 03 04 2013  11 59  -21.0934 26048.7 -03431.6 -07.5049 26273.8
 03 04 2013  12 00  -21.0937 26048.9 -03431.4 -07.5043 26273.9
 03 04 2013  12 01  -21.0939 26049.1 -03431.2 -07.5039 26274.1
 03 04 2013  12 02  -21.0941 26049.5 -03431.2 -07.5036 26274.5
 03 04 2013  12 03  -21.0943 26049.8 -03431.0 -07.5032 26274.8
 03 04 2013  12 04  -21.0944 26050.2 -03430.9 -07.5028 26275.1
 03 04 2013  12 05  -21.0943 26050.4 -03430.6 -07.5022 26275.3
 03 04 2013  12 06  -21.0943 26050.5 -03430.4 -07.5017 26275.4
 03 04 2013  12 07  -21.0940 26050.9 -03430.2 -07.5012 26275.7
 03 04 2013  12 08  -21.0937 26051.5 -03430.2 -07.5009 26276.3
 03 04 2013  12 09  -21.0934 26052.0 -03430.0 -07.5005 26276.9
 03 04 2013  12 10  -21.0933 26052.4 -03429.9 -07.5000 26277.2
 03 04 2013  12 11  -21.0932 26052.7 -03429.6 -07.4994 26277.5
 03 04 2013  12 12  -21.0933 26053.1 -03429.4 -07.4989 26277.8
 03 04 2013  12 13  -21.0932 26053.5 -03429.2 -07.4983 26278.2
 03 04 2013  12 14  -21.0930 26054.0 -03429.0 -07.4978 26278.6
 03 04 2013  12 15  -21.0928 26054.4 -03428.8 -07.4972 26279.1
 03 04 2013  12 16  -21.0924 26054.8 -03428.6 -07.4966 26279.5
 03 04 2013  12 17  -21.0922 26055.2 -03428.4 -07.4960 26279.7
 03 04 2013  12 18  -21.0921 26055.5 -03428.2 -07.4954 26280.1
 03 04 2013  12 19  -21.0918 26056.0 -03427.9 -07.4948 26280.5
 03 04 2013  12 20  -21.0915 26056.4 -03427.7 -07.4942 26280.9
 03 04 2013  12 21  -21.0911 26057.0 -03427.6 -07.4937 26281.5
 03 04 2013  12 22  -21.0905 26057.5 -03427.3 -07.4931 26281.9
 03 04 2013  12 23  -21.0898 26057.9 -03427.1 -07.4924 26282.3
 03 04 2013  12 24  -21.0894 26058.2 -03426.8 -07.4918 26282.6
 03 04 2013  12 25  -21.0891 26058.5 -03426.6 -07.4911 26282.8
 03 04 2013  12 26  -21.0887 26058.9 -03426.4 -07.4906 26283.2
 03 04 2013  12 27  -21.0884 26059.3 -03426.1 -07.4900 26283.5
 03 04 2013  12 28  -21.0880 26059.7 -03425.9 -07.4894 26283.9
 03 04 2013  12 29  -21.0877 26059.9 -03425.7 -07.4887 26284.1
 03 04 2013  12 30  -21.0873 26060.4 -03425.5 -07.4882 26284.6
 03 04 2013  12 31  -21.0870 26060.8 -03425.3 -07.4877 26284.9
 03 04 2013  12 32  -21.0867 26060.9 -03425.0 -07.4870 26285.0
 03 04 2013  12 33  -21.0865 26061.3 -03424.8 -07.4865 26285.3
 03 04 2013  12 34  -21.0862 26061.5 -03424.6 -07.4860 26285.6
 03 04 2013  12 35  -21.0860 26061.9 -03424.4 -07.4855 26285.9
 03 04 2013  12 36  -21.0856 26062.5 -03424.3 -07.4852 26286.5
 03 04 2013  12 37  -21.0852 26062.7 -03424.1 -07.4846 26286.6
 03 04 2013  12 38  -21.0849 26063.0 -03423.9 -07.4841 26286.9
 03 04 2013  12 39  -21.0848 26063.2 -03423.7 -07.4837 26287.2
 03 04 2013  12 40  -21.0844 26063.6 -03423.6 -07.4832 26287.5
 03 04 2013  12 41  -21.0840 26063.9 -03423.4 -07.4828 26287.8
 03 04 2013  12 42  -21.0833 26064.2 -03423.2 -07.4822 26288.0
 03 04 2013  12 43  -21.0830 26064.6 -03423.1 -07.4820 26288.4
 03 04 2013  12 44  -21.0826 26064.8 -03422.9 -07.4815 26288.6
 03 04 2013  12 45  -21.0821 26065.0 -03422.7 -07.4810 26288.7
 03 04 2013  12 46  -21.0816 26065.2 -03422.6 -07.4806 26288.9
 03 04 2013  12 47  -21.0812 26065.7 -03422.5 -07.4804 26289.4
 03 04 2013  12 48  -21.0809 26065.7 -03422.3 -07.4799 26289.4
 03 04 2013  12 49  -21.0806 26066.0 -03422.2 -07.4796 26289.7
 03 04 2013  12 50  -21.0804 26066.2 -03422.1 -07.4793 26289.9
 03 04 2013  12 51  -21.0800 26066.2 -03421.9 -07.4788 26289.8
 03 04 2013  12 52  -21.0796 26066.5 -03421.8 -07.4786 26290.1
 03 04 2013  12 53  -21.0793 26066.7 -03421.7 -07.4784 26290.3
 03 04 2013  12 54  -21.0788 26067.1 -03421.7 -07.4782 26290.7
 03 04 2013  12 55  -21.0785 26067.4 -03421.7 -07.4780 26291.0
 03 04 2013  12 56  -21.0782 26067.6 -03421.6 -07.4778 26291.2
 03 04 2013  12 57  -21.0780 26067.9 -03421.5 -07.4775 26291.5
 03 04 2013  12 58  -21.0778 26068.2 -03421.4 -07.4772 26291.8
 03 04 2013  12 59  -21.0778 26068.7 -03421.5 -07.4772 26292.3
 03 04 2013  13 00  -21.0776 26069.1 -03421.4 -07.4770 26292.6
 03 04 2013  13 01  -21.0775 26069.1 -03421.3 -07.4767 26292.7
 03 04 2013  13 02  -21.0774 26069.0 -03421.1 -07.4764 26292.5
 03 04 2013  13 03  -21.0775 26068.9 -03421.1 -07.4763 26292.4
 03 04 2013  13 04  -21.0774 26069.1 -03421.0 -07.4762 26292.6
 03 04 2013  13 05  -21.0771 26069.4 -03421.2 -07.4763 26293.0
 03 04 2013  13 06  -21.0769 26069.8 -03421.2 -07.4764 26293.3
 03 04 2013  13 07  -21.0769 26070.0 -03421.2 -07.4763 26293.5
 03 04 2013  13 08  -21.0770 26070.1 -03421.2 -07.4762 26293.6
 03 04 2013  13 09  -21.0771 26070.2 -03421.2 -07.4761 26293.8
 03 04 2013  13 10  -21.0772 26070.3 -03421.0 -07.4758 26293.8
 03 04 2013  13 11  -21.0771 26070.4 -03421.0 -07.4757 26293.9
 03 04 2013  13 12  -21.0771 26070.4 -03420.9 -07.4754 26293.9
 03 04 2013  13 13  -21.0770 26070.4 -03420.7 -07.4751 26293.8
 03 04 2013  13 14  -21.0770 26070.7 -03420.7 -07.4750 26294.2
 03 04 2013  13 15  -21.0769 26071.1 -03420.7 -07.4750 26294.5
 03 04 2013  13 16  -21.0767 26071.3 -03420.7 -07.4748 26294.7
 03 04 2013  13 17  -21.0766 26071.3 -03420.5 -07.4745 26294.8
 03 04 2013  13 18  -21.0765 26071.3 -03420.4 -07.4742 26294.8
 03 04 2013  13 19  -21.0764 26071.2 -03420.3 -07.4739 26294.6
 03 04 2013  13 20  -21.0762 26071.0 -03420.1 -07.4737 26294.4
 03 04 2013  13 21  -21.0760 26071.0 -03420.1 -07.4736 26294.4
 03 04 2013  13 22  -21.0760 26071.2 -03420.2 -07.4737 26294.6
 03 04 2013  13 23  -21.0789 26070.8 -03419.8 -07.4730 26294.1
 03 04 2013  13 24  -21.0793 26070.5 -03419.7 -07.4728 26293.8
 03 04 2013  13 25  -21.0791 26070.4 -03419.6 -07.4728 26293.7
 03 04 2013  13 26  -21.0788 26070.3 -03419.6 -07.4727 26293.6
 03 04 2013  13 27  -21.0786 26070.4 -03419.7 -07.4728 26293.7
 03 04 2013  13 28  -21.0786 26070.7 -03419.8 -07.4730 26294.0
 03 04 2013  13 29  -21.0785 26071.0 -03419.9 -07.4732 26294.3
 03 04 2013  13 30  -21.0785 26071.1 -03419.9 -07.4731 26294.5
 03 04 2013  13 31  -21.0784 26071.5 -03419.9 -07.4731 26294.8
 03 04 2013  13 32  -21.0780 26071.5 -03419.9 -07.4730 26294.9
 03 04 2013  13 33  -21.0776 26071.5 -03419.8 -07.4728 26294.9
 03 04 2013  13 34  -21.0776 26071.4 -03419.7 -07.4726 26294.7
 03 04 2013  13 35  -21.0775 26071.3 -03419.6 -07.4725 26294.6
 03 04 2013  13 36  -21.0773 26071.3 -03419.6 -07.4725 26294.6
 03 04 2013  13 37  -21.0772 26071.2 -03419.6 -07.4725 26294.5
 03 04 2013  13 38  -21.0769 26071.2 -03419.6 -07.4724 26294.5
 03 04 2013  13 39  -21.0773 26071.5 -03419.8 -07.4728 26294.9
 03 04 2013  13 40  -21.0772 26071.6 -03419.8 -07.4727 26294.9
 03 04 2013  13 41  -21.0771 26072.0 -03420.0 -07.4730 26295.4
 03 04 2013  13 42  -21.0769 26072.1 -03419.9 -07.4728 26295.4
 03 04 2013  13 43  -21.0766 26072.2 -03419.8 -07.4726 26295.5
 03 04 2013  13 44  -21.0765 26072.2 -03419.7 -07.4725 26295.5
 03 04 2013  13 45  -21.0761 26072.2 -03419.7 -07.4724 26295.6
 03 04 2013  13 46  -21.0759 26072.4 -03419.7 -07.4724 26295.8
 03 04 2013  13 47  -21.0758 26072.5 -03419.8 -07.4724 26295.8
 03 04 2013  13 48  -21.0756 26072.7 -03419.8 -07.4724 26296.1
 03 04 2013  13 49  -21.0756 26073.2 -03419.9 -07.4726 26296.5
 03 04 2013  13 50  -21.0757 26073.5 -03419.9 -07.4724 26296.8
 03 04 2013  13 51  -21.0755 26073.5 -03419.7 -07.4720 26296.8
 03 04 2013  13 52  -21.0753 26073.5 -03419.6 -07.4717 26296.8
 03 04 2013  13 53  -21.0752 26073.4 -03419.4 -07.4714 26296.6
 03 04 2013  13 54  -21.0750 26073.3 -03419.3 -07.4711 26296.5
 03 04 2013  13 55  -21.0747 26073.2 -03419.2 -07.4709 26296.4
 03 04 2013  13 56  -21.0744 26073.0 -03419.0 -07.4707 26296.2
 03 04 2013  13 57  -21.0741 26073.1 -03419.0 -07.4706 26296.3
 03 04 2013  13 58  -21.0738 26073.3 -03419.0 -07.4706 26296.5
 03 04 2013  13 59  -21.0711 26073.8 -03419.2 -07.4708 26297.0
 03 04 2013  14 00  -21.0694 26074.3 -03419.4 -07.4711 26297.5
 03 04 2013  14 01  -21.0690 26074.6 -03419.4 -07.4711 26297.8
 03 04 2013  14 02  -21.0684 26074.8 -03419.4 -07.4709 26298.1
 03 04 2013  14 03  -21.0678 26075.1 -03419.3 -07.4708 26298.3
 03 04 2013  14 04  -21.0673 26075.7 -03419.4 -07.4708 26298.9
 03 04 2013  14 05  -21.0668 26076.2 -03419.5 -07.4709 26299.5
 03 04 2013  14 06  -21.0662 26076.9 -03419.6 -07.4709 26300.2
 03 04 2013  14 07  -21.0659 26077.7 -03419.7 -07.4709 26301.0
 03 04 2013  14 08  -21.0655 26078.2 -03419.7 -07.4707 26301.5
 03 04 2013  14 09  -21.0652 26078.7 -03419.6 -07.4704 26301.9
 03 04 2013  14 10  -21.0650 26079.1 -03419.6 -07.4702 26302.3
 03 04 2013  14 11  -21.0649 26079.5 -03419.6 -07.4701 26302.7
 03 04 2013  14 12  -21.0645 26079.6 -03419.4 -07.4697 26302.8
 03 04 2013  14 13  -21.0641 26080.0 -03419.5 -07.4696 26303.3
 03 04 2013  14 14  -21.0639 26080.5 -03419.5 -07.4696 26303.7
 03 04 2013  14 15  -21.0636 26080.7 -03419.4 -07.4694 26303.9
 03 04 2013  14 16  -21.0634 26080.8 -03419.3 -07.4692 26304.0
 03 04 2013  14 17  -21.0633 26081.0 -03419.3 -07.4691 26304.2
 03 04 2013  14 18  -21.0633 26081.3 -03419.4 -07.4692 26304.5
 03 04 2013  14 19  -21.0633 26081.6 -03419.5 -07.4693 26304.8
 03 04 2013  14 20  -21.0632 26081.7 -03419.5 -07.4692 26304.9
 03 04 2013  14 21  -21.0632 26081.8 -03419.4 -07.4691 26305.0
 03 04 2013  14 22  -21.0633 26081.9 -03419.5 -07.4691 26305.1
 03 04 2013  14 23  -21.0634 26082.4 -03419.6 -07.4694 26305.6
 03 04 2013  14 24  -21.0633 26082.1 -03419.5 -07.4691 26305.3
 03 04 2013  14 25  -21.0629 26081.8 -03419.4 -07.4689 26305.0
 03 04 2013  14 26  -21.0629 26081.8 -03419.4 -07.4691 26304.9
 03 04 2013  14 27  -21.0631 26081.8 -03419.5 -07.4693 26305.0
 03 04 2013  14 28  -21.0637 26082.2 -03419.7 -07.4696 26305.4
 03 04 2013  14 29  -21.0642 26082.6 -03419.9 -07.4699 26305.8
 03 04 2013  14 30  -21.0648 26082.8 -03419.9 -07.4699 26306.0
 03 04 2013  14 31  -21.0650 26082.7 -03419.8 -07.4697 26306.0
 03 04 2013  14 32  -21.0652 26082.8 -03419.8 -07.4696 26306.0
 03 04 2013  14 33  -21.0652 26082.9 -03419.7 -07.4695 26306.1
 03 04 2013  14 34  -21.0651 26083.0 -03419.7 -07.4694 26306.2
 03 04 2013  14 35  -21.0651 26083.1 -03419.7 -07.4693 26306.3
 03 04 2013  14 36  -21.0651 26083.6 -03419.9 -07.4695 26306.8
 03 04 2013  14 37  -21.0652 26083.5 -03419.7 -07.4692 26306.7
 03 04 2013  14 38  -21.0652 26083.6 -03419.6 -07.4690 26306.8
 03 04 2013  14 39  -21.0653 26083.9 -03419.7 -07.4690 26307.1
 03 04 2013  14 40  -21.0651 26084.2 -03419.6 -07.4688 26307.4
 03 04 2013  14 41  -21.0650 26084.4 -03419.6 -07.4687 26307.6
 03 04 2013  14 42  -21.0650 26084.5 -03419.5 -07.4684 26307.6
 03 04 2013  14 43  -21.0651 26084.3 -03419.3 -07.4681 26307.5
 03 04 2013  14 44  -21.0648 26084.1 -03419.1 -07.4678 26307.3
 03 04 2013  14 45  -21.0645 26084.0 -03419.0 -07.4676 26307.1
 03 04 2013  14 46  -21.0643 26083.9 -03419.0 -07.4675 26307.0
 03 04 2013  14 47  -21.0641 26083.8 -03418.9 -07.4674 26307.0
 03 04 2013  14 48  -21.0637 26083.9 -03418.9 -07.4674 26307.0
 03 04 2013  14 49  -21.0633 26084.3 -03419.0 -07.4676 26307.4
 03 04 2013  14 50  -21.0629 26084.4 -03419.1 -07.4675 26307.5
 03 04 2013  14 51  -21.0626 26084.1 -03418.9 -07.4673 26307.2
 03 04 2013  14 52  -21.0624 26084.1 -03418.9 -07.4674 26307.2
 03 04 2013  14 53  -21.0623 26084.3 -03419.0 -07.4675 26307.4
 03 04 2013  14 54  -21.0618 26084.2 -03419.0 -07.4674 26307.3
 03 04 2013  14 55  -21.0615 26084.3 -03419.0 -07.4676 26307.4
 03 04 2013  14 56  -21.0615 26084.4 -03419.1 -07.4677 26307.6
 03 04 2013  14 57  -21.0616 26084.6 -03419.2 -07.4679 26307.8
 03 04 2013  14 58  -21.0616 26084.8 -03419.3 -07.4679 26308.0
 03 04 2013  14 59  -21.0616 26084.9 -03419.3 -07.4680 26308.1
 03 04 2013  15 00  -21.0615 26084.8 -03419.3 -07.4679 26307.9
 03 04 2013  15 01  -21.0615 26084.9 -03419.3 -07.4680 26308.0
 03 04 2013  15 02  -21.0613 26084.9 -03419.3 -07.4680 26308.1
 03 04 2013  15 03  -21.0612 26084.9 -03419.3 -07.4680 26308.0
 03 04 2013  15 04  -21.0613 26084.8 -03419.4 -07.4681 26308.0
 03 04 2013  15 05  -21.0612 26084.5 -03419.3 -07.4680 26307.7
 03 04 2013  15 06  -21.0611 26084.4 -03419.3 -07.4681 26307.6
 03 04 2013  15 07  -21.0609 26083.9 -03419.2 -07.4680 26307.1
 03 04 2013  15 08  -21.0608 26084.1 -03419.4 -07.4685 26307.3
 03 04 2013  15 09  -21.0608 26083.9 -03419.5 -07.4686 26307.1
 03 04 2013  15 10  -21.0606 26083.5 -03419.5 -07.4687 26306.7
 03 04 2013  15 11  -21.0603 26083.5 -03419.6 -07.4689 26306.7
 03 04 2013  15 12  -21.0602 26083.2 -03419.6 -07.4691 26306.4
 03 04 2013  15 13  -21.0601 26083.1 -03419.8 -07.4694 26306.4
 03 04 2013  15 14  -21.0602 26083.1 -03420.0 -07.4699 26306.3
 03 04 2013  15 15  -21.0601 26083.2 -03420.2 -07.4703 26306.4
 03 04 2013  15 16  -21.0603 26083.1 -03420.3 -07.4706 26306.4
 03 04 2013  15 17  -21.0603 26082.9 -03420.4 -07.4708 26306.3
 03 04 2013  15 18  -21.0605 26082.8 -03420.4 -07.4710 26306.1
 03 04 2013  15 19  -21.0607 26082.7 -03420.5 -07.4712 26306.0
 03 04 2013  15 20  -21.0609 26082.6 -03420.6 -07.4714 26305.9
 03 04 2013  15 21  -21.0611 26082.6 -03420.7 -07.4716 26305.9
 03 04 2013  15 22  -21.0614 26082.6 -03420.8 -07.4718 26305.9
 03 04 2013  15 23  -21.0618 26082.4 -03420.9 -07.4720 26305.8
 03 04 2013  15 24  -21.0621 26082.4 -03420.9 -07.4721 26305.8
 03 04 2013  15 25  -21.0626 26082.4 -03421.0 -07.4723 26305.8
 03 04 2013  15 26  -21.0631 26082.5 -03421.1 -07.4724 26305.9
 03 04 2013  15 27  -21.0635 26082.3 -03421.0 -07.4724 26305.7
 03 04 2013  15 28  -21.0639 26082.3 -03421.1 -07.4725 26305.7
 03 04 2013  15 29  -21.0644 26082.1 -03421.0 -07.4724 26305.5
 03 04 2013  15 30  -21.0648 26082.2 -03421.1 -07.4726 26305.7
 03 04 2013  15 31  -21.0654 26082.3 -03421.2 -07.4727 26305.7
 03 04 2013  15 32  -21.0661 26082.6 -03421.3 -07.4729 26306.1
 03 04 2013  15 33  -21.0665 26082.8 -03421.3 -07.4729 26306.2
 03 04 2013  15 34  -21.0672 26082.9 -03421.2 -07.4727 26306.3
 03 04 2013  15 35  -21.0679 26083.1 -03421.2 -07.4726 26306.5
 03 04 2013  15 36  -21.0683 26083.3 -03421.2 -07.4724 26306.7
 03 04 2013  15 37  -21.0689 26083.4 -03421.1 -07.4722 26306.8
 03 04 2013  15 38  -21.0695 26083.4 -03420.9 -07.4719 26306.8
 03 04 2013  15 39  -21.0702 26083.4 -03420.8 -07.4716 26306.8
 03 04 2013  15 40  -21.0708 26083.4 -03420.7 -07.4713 26306.7
 03 04 2013  15 41  -21.0715 26083.4 -03420.5 -07.4710 26306.7
 03 04 2013  15 42  -21.0724 26083.4 -03420.4 -07.4708 26306.7
 03 04 2013  15 43  -21.0731 26083.4 -03420.3 -07.4706 26306.7
 03 04 2013  15 44  -21.0737 26083.2 -03420.1 -07.4702 26306.5
 03 04 2013  15 45  -21.0741 26083.1 -03420.0 -07.4699 26306.4
 03 04 2013  15 46  -21.0748 26083.2 -03419.9 -07.4698 26306.5
 03 04 2013  15 47  -21.0751 26083.2 -03419.8 -07.4696 26306.5
 03 04 2013  15 48  -21.0755 26082.9 -03419.6 -07.4692 26306.1
 03 04 2013  15 49  -21.0757 26083.1 -03419.6 -07.4692 26306.3
 03 04 2013  15 50  -21.0761 26083.2 -03419.6 -07.4691 26306.4
 03 04 2013  15 51  -21.0765 26083.0 -03419.5 -07.4689 26306.2
 03 04 2013  15 52  -21.0766 26083.2 -03419.5 -07.4689 26306.4
 03 04 2013  15 53  -21.0769 26083.2 -03419.5 -07.4689 26306.4
 03 04 2013  15 54  -21.0771 26082.9 -03419.4 -07.4687 26306.1
 03 04 2013  15 55  -21.0773 26082.9 -03419.4 -07.4687 26306.1
 03 04 2013  15 56  -21.0776 26082.9 -03419.4 -07.4687 26306.1
 03 04 2013  15 57  -21.0779 26082.8 -03419.4 -07.4687 26306.0
 03 04 2013  15 58  -21.0782 26082.8 -03419.4 -07.4687 26306.0
 03 04 2013  15 59  -21.0786 26082.7 -03419.4 -07.4688 26305.9
 03 04 2013  16 00  -21.0789 26082.6 -03419.4 -07.4688 26305.8
 03 04 2013  16 01  -21.0792 26082.4 -03419.4 -07.4688 26305.6
 03 04 2013  16 02  -21.0796 26082.2 -03419.4 -07.4689 26305.4
 03 04 2013  16 03  -21.0800 26082.1 -03419.4 -07.4690 26305.3
 03 04 2013  16 04  -21.0803 26081.9 -03419.5 -07.4692 26305.1
 03 04 2013  16 05  -21.0808 26081.7 -03419.5 -07.4694 26304.9
 03 04 2013  16 06  -21.0812 26081.6 -03419.6 -07.4695 26304.8
 03 04 2013  16 07  -21.0818 26081.6 -03419.7 -07.4698 26304.8
 03 04 2013  16 08  -21.0823 26081.4 -03419.8 -07.4699 26304.7
 03 04 2013  16 09  -21.0827 26081.3 -03419.8 -07.4700 26304.5
 03 04 2013  16 10  -21.0832 26081.1 -03419.8 -07.4701 26304.4
 03 04 2013  16 11  -21.0839 26081.1 -03420.0 -07.4704 26304.4
 03 04 2013  16 12  -21.0846 26081.1 -03420.0 -07.4706 26304.4
 03 04 2013  16 13  -21.0852 26081.1 -03420.1 -07.4707 26304.4
 03 04 2013  16 14  -21.0859 26081.0 -03420.1 -07.4707 26304.3
 03 04 2013  16 15  -21.0865 26081.0 -03420.1 -07.4708 26304.3
 03 04 2013  16 16  -21.0871 26081.0 -03420.1 -07.4708 26304.3
 03 04 2013  16 17  -21.0877 26080.9 -03420.1 -07.4707 26304.1
 03 04 2013  16 18  -21.0883 26080.8 -03420.0 -07.4706 26304.1
 03 04 2013  16 19  -21.0888 26080.8 -03420.0 -07.4705 26304.1
 03 04 2013  16 20  -21.0893 26080.5 -03419.8 -07.4702 26303.7
 03 04 2013  16 21  -21.0899 26080.9 -03419.9 -07.4703 26304.1
 03 04 2013  16 22  -21.0903 26080.5 -03419.6 -07.4699 26303.7
 03 04 2013  16 23  -21.0907 26080.3 -03419.5 -07.4697 26303.6
 03 04 2013  16 24  -21.0912 26080.4 -03419.5 -07.4696 26303.6
 03 04 2013  16 25  -21.0917 26080.5 -03419.4 -07.4693 26303.7
 03 04 2013  16 26  -21.0921 26080.3 -03419.2 -07.4690 26303.5
 03 04 2013  16 27  -21.0925 26080.3 -03419.1 -07.4687 26303.5
 03 04 2013  16 28  -21.0930 26080.3 -03419.0 -07.4685 26303.4
 03 04 2013  16 29  -21.0934 26080.0 -03418.7 -07.4681 26303.1
 03 04 2013  16 30  -21.0938 26079.8 -03418.5 -07.4677 26302.9
 03 04 2013  16 31  -21.0944 26079.7 -03418.4 -07.4675 26302.8
 03 04 2013  16 32  -21.0948 26079.5 -03418.2 -07.4671 26302.6
 03 04 2013  16 33  -21.0954 26079.5 -03418.1 -07.4670 26302.6
 03 04 2013  16 34  -21.0958 26079.5 -03418.0 -07.4667 26302.5
 03 04 2013  16 35  -21.0964 26079.2 -03417.8 -07.4663 26302.2
 03 04 2013  16 36  -21.0969 26079.1 -03417.7 -07.4660 26302.1
 03 04 2013  16 37  -21.0973 26078.8 -03417.4 -07.4656 26301.8
 03 04 2013  16 38  -21.0979 26078.6 -03417.3 -07.4654 26301.6
 03 04 2013  16 39  -21.0983 26078.4 -03417.1 -07.4651 26301.3
 03 04 2013  16 40  -21.0987 26078.2 -03417.0 -07.4648 26301.1
 03 04 2013  16 41  -21.0992 26078.0 -03416.8 -07.4645 26300.9
 03 04 2013  16 42  -21.0997 26077.8 -03416.7 -07.4643 26300.7
 03 04 2013  16 43  -21.1002 26077.0 -03416.3 -07.4636 26299.8
 03 04 2013  16 44  -21.1004 26077.3 -03416.3 -07.4636 26300.2
 03 04 2013  16 45  -21.1013 26077.5 -03416.3 -07.4635 26300.3
 03 04 2013  16 46  -21.1021 26076.9 -03415.9 -07.4628 26299.7
 03 04 2013  16 47  -21.1022 26077.0 -03415.7 -07.4624 26299.8
 03 04 2013  16 48  -21.1027 26077.1 -03415.6 -07.4621 26299.8
 03 04 2013  16 49  -21.1030 26076.6 -03415.2 -07.4614 26299.3
 03 04 2013  16 50  -21.1030 26076.3 -03414.9 -07.4609 26299.0
 03 04 2013  16 51  -21.1032 26076.2 -03414.8 -07.4607 26298.9
 03 04 2013  16 52  -21.1036 26076.1 -03414.6 -07.4603 26298.7
 03 04 2013  16 53  -21.1039 26075.9 -03414.4 -07.4599 26298.5
 03 04 2013  16 54  -21.1043 26075.7 -03414.2 -07.4594 26298.3
 03 04 2013  16 55  -21.1046 26075.6 -03413.9 -07.4589 26298.2
 03 04 2013  16 56  -21.1048 26075.6 -03413.7 -07.4585 26298.1
 03 04 2013  16 57  -21.1050 26075.5 -03413.4 -07.4580 26297.9
 03 04 2013  16 58  -21.1050 26075.1 -03413.1 -07.4574 26297.6
 03 04 2013  16 59  -21.1052 26075.0 -03412.9 -07.4570 26297.4
 03 04 2013  17 00  -21.1051 26074.3 -03412.5 -07.4562 26296.6
 03 04 2013  17 01  -21.1052 26074.3 -03412.4 -07.4561 26296.7
 03 04 2013  17 02  -21.1054 26074.3 -03412.3 -07.4558 26296.6
 03 04 2013  17 03  -21.1056 26074.1 -03412.1 -07.4555 26296.4
 03 04 2013  17 04  -21.1057 26074.3 -03412.0 -07.4552 26296.6
 03 04 2013  17 05  -21.1057 26073.8 -03411.6 -07.4545 26296.0
 03 04 2013  17 06  -21.1055 26073.8 -03411.5 -07.4542 26296.0
 03 04 2013  17 07  -21.1053 26073.6 -03411.3 -07.4538 26295.8
 03 04 2013  17 08  -21.1051 26073.8 -03411.2 -07.4536 26295.9
 03 04 2013  17 09  -21.1049 26073.7 -03411.0 -07.4532 26295.8
 03 04 2013  17 10  -21.1045 26073.3 -03410.7 -07.4526 26295.5
 03 04 2013  17 11  -21.1043 26073.2 -03410.5 -07.4522 26295.4
 03 04 2013  17 12  -21.1044 26073.4 -03410.5 -07.4522 26295.5
 03 04 2013  17 13  -21.1048 26073.6 -03410.5 -07.4520 26295.7
 03 04 2013  17 14  -21.1049 26073.5 -03410.2 -07.4516 26295.6
 03 04 2013  17 15  -21.1043 26073.4 -03409.9 -07.4509 26295.4
 03 04 2013  17 16  -21.1039 26073.3 -03409.7 -07.4505 26295.3
 03 04 2013  17 17  -21.1035 26073.0 -03409.5 -07.4501 26295.0
 03 04 2013  17 18  -21.1032 26072.7 -03409.3 -07.4498 26294.6
 03 04 2013  17 19  -21.1027 26072.3 -03409.1 -07.4494 26294.3
 03 04 2013  17 20  -21.1022 26072.0 -03408.9 -07.4491 26294.0
 03 04 2013  17 21  -21.1018 26071.8 -03408.8 -07.4489 26293.7
 03 04 2013  17 22  -21.1013 26071.5 -03408.6 -07.4487 26293.4
 03 04 2013  17 23  -21.1007 26071.2 -03408.5 -07.4484 26293.1
 03 04 2013  17 24  -21.1001 26071.0 -03408.3 -07.4482 26292.8
 03 04 2013  17 25  -21.0997 26070.8 -03408.2 -07.4481 26292.6
 03 04 2013  17 26  -21.0990 26070.5 -03408.1 -07.4479 26292.3
 03 04 2013  17 27  -21.0984 26070.4 -03408.0 -07.4477 26292.2
 03 04 2013  17 28  -21.0979 26070.2 -03408.0 -07.4476 26292.0
 03 04 2013  17 29  -21.0974 26069.9 -03407.9 -07.4475 26291.7
 03 04 2013  17 30  -21.0969 26069.7 -03407.8 -07.4474 26291.5
 03 04 2013  17 31  -21.0965 26069.5 -03407.7 -07.4472 26291.3
 03 04 2013  17 32  -21.0973 26068.9 -03407.4 -07.4467 26290.7
 03 04 2013  17 33  -21.0969 26068.8 -03407.3 -07.4466 26290.6
 03 04 2013  17 34  -21.0978 26068.5 -03407.3 -07.4466 26290.3
 03 04 2013  17 35  -21.0986 26068.2 -03407.1 -07.4464 26289.9
 03 04 2013  17 36  -21.0978 26067.9 -03407.0 -07.4462 26289.6
 03 04 2013  17 37  -21.0975 26067.8 -03407.0 -07.4462 26289.5
 03 04 2013  17 38  -21.0972 26067.5 -03406.9 -07.4461 26289.2
 03 04 2013  17 39  -21.0964 26067.0 -03406.7 -07.4458 26288.7
 03 04 2013  17 40  -21.0948 26067.0 -03406.7 -07.4457 26288.6
 03 04 2013  17 41  -21.0914 26067.3 -03406.8 -07.4458 26289.0
 03 04 2013  17 42  -21.0908 26067.4 -03406.8 -07.4458 26289.1
 03 04 2013  17 43  -21.0904 26067.2 -03406.6 -07.4456 26288.9
 03 04 2013  17 44  -21.0901 26067.2 -03406.6 -07.4455 26288.9
 03 04 2013  17 45  -21.0895 26067.0 -03406.5 -07.4453 26288.6
 03 04 2013  17 46  -21.0892 26066.9 -03406.4 -07.4452 26288.5
 03 04 2013  17 47  -21.0886 26066.6 -03406.2 -07.4449 26288.2
 03 04 2013  17 48  -21.0882 26066.6 -03406.3 -07.4449 26288.2
 03 04 2013  17 49  -21.0878 26066.5 -03406.2 -07.4448 26288.1
 03 04 2013  17 50  -21.0871 26066.5 -03406.1 -07.4447 26288.0
 03 04 2013  17 51  -21.0866 26066.2 -03406.0 -07.4445 26287.8
 03 04 2013  17 52  -21.0860 26066.3 -03406.0 -07.4445 26287.9
 03 04 2013  17 53  -21.0854 26066.2 -03405.9 -07.4443 26287.8
 03 04 2013  17 54  -21.0850 26066.2 -03405.9 -07.4443 26287.8
 03 04 2013  17 55  -21.0846 26066.3 -03405.9 -07.4442 26287.8
 03 04 2013  17 56  -21.0842 26066.3 -03405.8 -07.4441 26287.9
 03 04 2013  17 57  -21.0836 26066.2 -03405.7 -07.4438 26287.7
 03 04 2013  17 58  -21.0828 26066.0 -03405.5 -07.4436 26287.6
 03 04 2013  17 59  -21.0819 26065.7 -03405.4 -07.4432 26287.2
 03 04 2013  18 00  -21.0810 26065.3 -03405.1 -07.4429 26286.8
 03 04 2013  18 01  -21.0797 26065.1 -03405.0 -07.4427 26286.6
 03 04 2013  18 02  -21.0785 26064.7 -03404.9 -07.4425 26286.1
 03 04 2013  18 03  -21.0772 26064.3 -03404.7 -07.4423 26285.7
 03 04 2013  18 04  -21.0763 26063.9 -03404.7 -07.4423 26285.3
 03 04 2013  18 05  -21.0754 26063.5 -03404.6 -07.4423 26284.9
 03 04 2013  18 06  -21.0749 26063.1 -03404.6 -07.4424 26284.6
 03 04 2013  18 07  -21.0743 26062.9 -03404.7 -07.4425 26284.3
 03 04 2013  18 08  -21.0737 26062.5 -03404.6 -07.4426 26283.9
 03 04 2013  18 09  -21.0730 26062.2 -03404.6 -07.4426 26283.6
 03 04 2013  18 10  -21.0724 26062.0 -03404.6 -07.4427 26283.5
 03 04 2013  18 11  -21.0717 26061.8 -03404.6 -07.4428 26283.2
 03 04 2013  18 12  -21.0709 26061.7 -03404.7 -07.4429 26283.1
 03 04 2013  18 13  -21.0703 26061.6 -03404.7 -07.4430 26283.0
 03 04 2013  18 14  -21.0698 26061.6 -03404.8 -07.4432 26283.0
 03 04 2013  18 15  -21.0693 26061.6 -03404.8 -07.4433 26283.1
 03 04 2013  18 16  -21.0687 26061.5 -03404.9 -07.4434 26283.0
 03 04 2013  18 17  -21.0681 26061.4 -03404.9 -07.4434 26282.9
 03 04 2013  18 18  -21.0675 26061.2 -03404.8 -07.4433 26282.7
 03 04 2013  18 19  -21.0668 26061.0 -03404.8 -07.4433 26282.5
 03 04 2013  18 20  -21.0661 26060.8 -03404.7 -07.4433 26282.3
 03 04 2013  18 21  -21.0653 26060.5 -03404.7 -07.4432 26282.0
 03 04 2013  18 22  -21.0644 26060.3 -03404.6 -07.4432 26281.7
 03 04 2013  18 23  -21.0637 26060.1 -03404.7 -07.4433 26281.6
 03 04 2013  18 24  -21.0629 26059.8 -03404.6 -07.4433 26281.3
 03 04 2013  18 25  -21.0619 26059.6 -03404.6 -07.4434 26281.1
 03 04 2013  18 26  -21.0612 26059.6 -03404.7 -07.4436 26281.0
 03 04 2013  18 27  -21.0604 26059.4 -03404.8 -07.4437 26280.8
 03 04 2013  18 28  -21.0597 26059.3 -03404.8 -07.4439 26280.8
 03 04 2013  18 29  -21.0587 26059.0 -03404.8 -07.4440 26280.5
 03 04 2013  18 30  -21.0578 26058.9 -03404.9 -07.4442 26280.4
 03 04 2013  18 31  -21.0571 26058.8 -03405.0 -07.4445 26280.4
 03 04 2013  18 32  -21.0564 26058.7 -03405.1 -07.4446 26280.2
 03 04 2013  18 33  -21.0558 26058.6 -03405.1 -07.4447 26280.2
 03 04 2013  18 34  -21.0551 26058.5 -03405.1 -07.4448 26280.0
 03 04 2013  18 35  -21.0545 26058.4 -03405.2 -07.4449 26279.9
 03 04 2013  18 36  -21.0540 26058.2 -03405.1 -07.4449 26279.7
 03 04 2013  18 37  -21.0535 26058.0 -03405.1 -07.4449 26279.6
 03 04 2013  18 38  -21.0530 26057.8 -03405.1 -07.4450 26279.4
 03 04 2013  18 39  -21.0525 26057.7 -03405.1 -07.4450 26279.2
 03 04 2013  18 40  -21.0520 26057.5 -03405.1 -07.4450 26279.0
 03 04 2013  18 41  -21.0516 26057.4 -03405.1 -07.4450 26278.9
 03 04 2013  18 42  -21.0509 26057.0 -03405.0 -07.4449 26278.5
 03 04 2013  18 43  -21.0501 26056.7 -03404.9 -07.4448 26278.3
 03 04 2013  18 44  -21.0496 26056.6 -03404.9 -07.4449 26278.1
 03 04 2013  18 45  -21.0489 26056.2 -03404.9 -07.4448 26277.8
 03 04 2013  18 46  -21.0481 26056.0 -03404.8 -07.4449 26277.5
 03 04 2013  18 47  -21.0472 26055.8 -03404.8 -07.4449 26277.3
 03 04 2013  18 48  -21.0466 26055.7 -03404.9 -07.4451 26277.2
 03 04 2013  18 49  -21.0458 26055.5 -03404.9 -07.4451 26277.0
 03 04 2013  18 50  -21.0451 26055.3 -03404.9 -07.4452 26276.8
 03 04 2013  18 51  -21.0445 26055.0 -03404.9 -07.4452 26276.6
 03 04 2013  18 52  -21.0438 26054.8 -03404.9 -07.4453 26276.4
 03 04 2013  18 53  -21.0432 26054.5 -03404.9 -07.4453 26276.1
 03 04 2013  18 54  -21.0424 26054.2 -03404.8 -07.4453 26275.8
 03 04 2013  18 55  -21.0416 26053.9 -03404.8 -07.4453 26275.4
 03 04 2013  18 56  -21.0409 26053.5 -03404.7 -07.4453 26275.1
 03 04 2013  18 57  -21.0403 26053.4 -03404.7 -07.4454 26274.9
 03 04 2013  18 58  -21.0397 26053.2 -03404.8 -07.4455 26274.8
 03 04 2013  18 59  -21.0389 26053.0 -03404.7 -07.4455 26274.5
 03 04 2013  19 00  -21.0383 26052.9 -03404.8 -07.4457 26274.4
 03 04 2013  19 01  -21.0379 26052.7 -03404.9 -07.4459 26274.3
 03 04 2013  19 02  -21.0374 26052.5 -03404.9 -07.4460 26274.1
 03 04 2013  19 03  -21.0371 26052.4 -03405.0 -07.4462 26274.0
 03 04 2013  19 04  -21.0367 26052.4 -03405.1 -07.4465 26274.0
 03 04 2013  19 05  -21.0365 26052.2 -03405.2 -07.4466 26273.8
 03 04 2013  19 06  -21.0362 26052.0 -03405.2 -07.4467 26273.6
 03 04 2013  19 07  -21.0360 26051.8 -03405.2 -07.4469 26273.4
 03 04 2013  19 08  -21.0355 26051.8 -03405.3 -07.4471 26273.4
 03 04 2013  19 09  -21.0351 26051.5 -03405.4 -07.4473 26273.1
 03 04 2013  19 10  -21.0346 26051.3 -03405.4 -07.4474 26272.9
 03 04 2013  19 11  -21.0340 26050.9 -03405.4 -07.4476 26272.6
 03 04 2013  19 12  -21.0335 26050.7 -03405.5 -07.4478 26272.4
 03 04 2013  19 13  -21.0330 26050.5 -03405.6 -07.4481 26272.2
 03 04 2013  19 14  -21.0324 26050.3 -03405.7 -07.4483 26272.0
 03 04 2013  19 15  -21.0317 26050.1 -03405.8 -07.4485 26271.8
 03 04 2013  19 16  -21.0311 26049.8 -03405.9 -07.4489 26271.5
 03 04 2013  19 17  -21.0305 26049.6 -03406.0 -07.4492 26271.3
 03 04 2013  19 18  -21.0299 26049.4 -03406.1 -07.4495 26271.2
 03 04 2013  19 19  -21.0294 26049.2 -03406.3 -07.4499 26270.9
 03 04 2013  19 20  -21.0289 26049.0 -03406.4 -07.4503 26270.8
 03 04 2013  19 21  -21.0283 26048.8 -03406.6 -07.4507 26270.6
 03 04 2013  19 22  -21.0280 26048.7 -03406.8 -07.4511 26270.5
 03 04 2013  19 23  -21.0276 26048.5 -03406.9 -07.4515 26270.3
 03 04 2013  19 24  -21.0272 26048.3 -03407.1 -07.4520 26270.2
 03 04 2013  19 25  -21.0269 26048.2 -03407.3 -07.4524 26270.1
 03 04 2013  19 26  -21.0266 26047.9 -03407.5 -07.4529 26269.9
 03 04 2013  19 27  -21.0265 26047.7 -03407.6 -07.4532 26269.7
 03 04 2013  19 28  -21.0261 26047.6 -03407.8 -07.4536 26269.6
 03 04 2013  19 29  -21.0261 26047.6 -03408.1 -07.4542 26269.6
 03 04 2013  19 30  -21.0259 26047.4 -03408.3 -07.4547 26269.5
 03 04 2013  19 31  -21.0258 26047.4 -03408.5 -07.4552 26269.5
 03 04 2013  19 32  -21.0259 26047.4 -03408.7 -07.4557 26269.5
 03 04 2013  19 33  -21.0258 26047.3 -03408.9 -07.4560 26269.4
 03 04 2013  19 34  -21.0257 26047.2 -03409.1 -07.4565 26269.3
 03 04 2013  19 35  -21.0258 26047.1 -03409.2 -07.4568 26269.3
 03 04 2013  19 36  -21.0258 26047.0 -03409.4 -07.4573 26269.2
 03 04 2013  19 37  -21.0259 26047.0 -03409.6 -07.4576 26269.2
 03 04 2013  19 38  -21.0260 26046.9 -03409.7 -07.4579 26269.1
 03 04 2013  19 39  -21.0260 26046.8 -03409.8 -07.4583 26269.0
 03 04 2013  19 40  -21.0261 26046.7 -03410.0 -07.4586 26269.0
 03 04 2013  19 41  -21.0263 26046.6 -03410.1 -07.4589 26268.9
 03 04 2013  19 42  -21.0264 26046.5 -03410.3 -07.4593 26268.8
 03 04 2013  19 43  -21.0267 26046.5 -03410.5 -07.4597 26268.8
 03 04 2013  19 44  -21.0267 26046.5 -03410.6 -07.4600 26268.8
 03 04 2013  19 45  -21.0268 26046.4 -03410.7 -07.4604 26268.7
 03 04 2013  19 46  -21.0271 26046.3 -03410.9 -07.4607 26268.7
 03 04 2013  19 47  -21.0273 26046.2 -03411.0 -07.4611 26268.6
 03 04 2013  19 48  -21.0274 26046.2 -03411.2 -07.4614 26268.6
 03 04 2013  19 49  -21.0276 26046.1 -03411.4 -07.4617 26268.6
 03 04 2013  19 50  -21.0279 26046.0 -03411.5 -07.4620 26268.5
 03 04 2013  19 51  -21.0280 26045.9 -03411.6 -07.4624 26268.3
 03 04 2013  19 52  -21.0283 26045.9 -03411.8 -07.4628 26268.4
 03 04 2013  19 53  -21.0286 26045.9 -03412.0 -07.4632 26268.4
 03 04 2013  19 54  -21.0288 26045.8 -03412.2 -07.4636 26268.4
 03 04 2013  19 55  -21.0290 26045.7 -03412.3 -07.4639 26268.3
 03 04 2013  19 56  -21.0292 26045.7 -03412.4 -07.4642 26268.2
 03 04 2013  19 57  -21.0294 26045.7 -03412.6 -07.4647 26268.3
 03 04 2013  19 58  -21.0297 26045.7 -03412.9 -07.4651 26268.4
 03 04 2013  19 59  -21.0299 26045.8 -03413.1 -07.4655 26268.5
 03 04 2013  20 00  -21.0302 26045.8 -03413.2 -07.4658 26268.5
 03 04 2013  20 01  -21.0304 26045.7 -03413.4 -07.4663 26268.4
 03 04 2013  20 02  -21.0306 26045.7 -03413.6 -07.4668 26268.4
 03 04 2013  20 03  -21.0308 26045.6 -03413.8 -07.4672 26268.4
 03 04 2013  20 04  -21.0310 26045.6 -03414.0 -07.4676 26268.4
 03 04 2013  20 05  -21.0314 26045.7 -03414.2 -07.4679 26268.5
 03 04 2013  20 06  -21.0318 26045.6 -03414.3 -07.4683 26268.5
 03 04 2013  20 07  -21.0321 26045.6 -03414.4 -07.4685 26268.5
 03 04 2013  20 08  -21.0325 26045.7 -03414.6 -07.4689 26268.5
 03 04 2013  20 09  -21.0328 26045.5 -03414.7 -07.4691 26268.4
 03 04 2013  20 10  -21.0329 26045.5 -03414.8 -07.4694 26268.4
 03 04 2013  20 11  -21.0330 26045.4 -03414.9 -07.4697 26268.3
 03 04 2013  20 12  -21.0331 26045.3 -03415.0 -07.4699 26268.2
 03 04 2013  20 13  -21.0333 26045.3 -03415.2 -07.4702 26268.3
 03 04 2013  20 14  -21.0333 26045.2 -03415.3 -07.4705 26268.2
 03 04 2013  20 15  -21.0334 26045.3 -03415.5 -07.4709 26268.3
 03 04 2013  20 16  -21.0335 26045.3 -03415.6 -07.4712 26268.3
 03 04 2013  20 17  -21.0335 26045.1 -03415.7 -07.4715 26268.1
 03 04 2013  20 18  -21.0335 26045.1 -03415.9 -07.4718 26268.1
 03 04 2013  20 19  -21.0336 26045.0 -03416.0 -07.4721 26268.1
 03 04 2013  20 20  -21.0337 26045.0 -03416.2 -07.4724 26268.1
 03 04 2013  20 21  -21.0338 26044.9 -03416.3 -07.4727 26268.0
 03 04 2013  20 22  -21.0339 26044.8 -03416.4 -07.4730 26268.0
 03 04 2013  20 23  -21.0340 26044.8 -03416.5 -07.4734 26267.9
 03 04 2013  20 24  -21.0342 26044.7 -03416.7 -07.4737 26267.9
 03 04 2013  20 25  -21.0343 26044.7 -03416.8 -07.4740 26267.8
 03 04 2013  20 26  -21.0344 26044.6 -03417.0 -07.4743 26267.8
 03 04 2013  20 27  -21.0344 26044.6 -03417.1 -07.4747 26267.8
 03 04 2013  20 28  -21.0346 26044.5 -03417.2 -07.4750 26267.7
 03 04 2013  20 29  -21.0347 26044.4 -03417.4 -07.4752 26267.7
 03 04 2013  20 30  -21.0347 26044.3 -03417.5 -07.4755 26267.6
 03 04 2013  20 31  -21.0347 26044.3 -03417.6 -07.4758 26267.5
 03 04 2013  20 32  -21.0347 26044.2 -03417.8 -07.4761 26267.5
 03 04 2013  20 33  -21.0347 26044.2 -03417.9 -07.4764 26267.5
 03 04 2013  20 34  -21.0348 26044.2 -03418.0 -07.4768 26267.5
 03 04 2013  20 35  -21.0349 26044.1 -03418.2 -07.4771 26267.5
 03 04 2013  20 36  -21.0349 26043.9 -03418.3 -07.4773 26267.3
 03 04 2013  20 37  -21.0349 26043.7 -03418.3 -07.4775 26267.1
 03 04 2013  20 38  -21.0349 26043.6 -03418.4 -07.4777 26267.0
 03 04 2013  20 39  -21.0349 26043.4 -03418.5 -07.4780 26266.8
 03 04 2013  20 40  -21.0348 26043.3 -03418.6 -07.4782 26266.7
 03 04 2013  20 41  -21.0348 26043.1 -03418.7 -07.4785 26266.6
 03 04 2013  20 42  -21.0348 26043.0 -03418.8 -07.4787 26266.4
 03 04 2013  20 43  -21.0347 26042.8 -03418.9 -07.4790 26266.2
 03 04 2013  20 44  -21.0348 26042.7 -03419.0 -07.4793 26266.2
 03 04 2013  20 45  -21.0349 26042.5 -03419.1 -07.4795 26266.0
 03 04 2013  20 46  -21.0350 26042.4 -03419.2 -07.4797 26265.9
 03 04 2013  20 47  -21.0350 26042.2 -03419.2 -07.4799 26265.7
 03 04 2013  20 48  -21.0351 26042.1 -03419.3 -07.4801 26265.6
 03 04 2013  20 49  -21.0352 26041.9 -03419.4 -07.4803 26265.4
 03 04 2013  20 50  -21.0353 26041.8 -03419.4 -07.4804 26265.3
 03 04 2013  20 51  -21.0353 26041.6 -03419.5 -07.4806 26265.1
 03 04 2013  20 52  -21.0353 26041.5 -03419.5 -07.4808 26265.1
 03 04 2013  20 53  -21.0353 26041.4 -03419.6 -07.4810 26265.0
 03 04 2013  20 54  -21.0353 26041.3 -03419.7 -07.4812 26264.9
 03 04 2013  20 55  -21.0354 26041.2 -03419.8 -07.4813 26264.8
 03 04 2013  20 56  -21.0354 26041.1 -03419.8 -07.4814 26264.7
 03 04 2013  20 57  -21.0354 26041.1 -03419.8 -07.4815 26264.7
 03 04 2013  20 58  -21.0353 26041.1 -03419.9 -07.4817 26264.7
 03 04 2013  20 59  -21.0351 26041.1 -03420.0 -07.4820 26264.7
 03 04 2013  21 00  -21.0349 26041.1 -03420.2 -07.4822 26264.7
 03 04 2013  21 01  -21.0348 26041.0 -03420.2 -07.4823 26264.7
 03 04 2013  21 02  -21.0346 26041.1 -03420.3 -07.4825 26264.7
 03 04 2013  21 03  -21.0345 26041.0 -03420.4 -07.4827 26264.7
 03 04 2013  21 04  -21.0343 26041.1 -03420.5 -07.4829 26264.8
 03 04 2013  21 05  -21.0341 26041.0 -03420.6 -07.4831 26264.7
 03 04 2013  21 06  -21.0340 26041.0 -03420.7 -07.4833 26264.7
 03 04 2013  21 07  -21.0337 26041.0 -03420.7 -07.4835 26264.7
 03 04 2013  21 08  -21.0334 26041.0 -03420.9 -07.4837 26264.7
 03 04 2013  21 09  -21.0332 26041.0 -03420.9 -07.4839 26264.7
 03 04 2013  21 10  -21.0329 26041.0 -03421.0 -07.4841 26264.8
 03 04 2013  21 11  -21.0326 26041.0 -03421.2 -07.4844 26264.8
 03 04 2013  21 12  -21.0324 26041.0 -03421.3 -07.4847 26264.8
 03 04 2013  21 13  -21.0320 26041.0 -03421.4 -07.4850 26264.8
 03 04 2013  21 14  -21.0319 26041.0 -03421.6 -07.4853 26264.8
 03 04 2013  21 15  -21.0317 26041.0 -03421.7 -07.4856 26264.8
 03 04 2013  21 16  -21.0313 26041.0 -03421.9 -07.4860 26264.8
 03 04 2013  21 17  -21.0312 26041.0 -03422.1 -07.4864 26264.9
 03 04 2013  21 18  -21.0312 26041.0 -03422.2 -07.4867 26264.9
 03 04 2013  21 19  -21.0310 26041.0 -03422.4 -07.4871 26264.9
 03 04 2013  21 20  -21.0308 26041.0 -03422.6 -07.4875 26265.0
 03 04 2013  21 21  -21.0308 26041.0 -03422.8 -07.4879 26265.0
 03 04 2013  21 22  -21.0308 26041.0 -03423.0 -07.4883 26265.0
 03 04 2013  21 23  -21.0308 26041.1 -03423.2 -07.4887 26265.1
 03 04 2013  21 24  -21.0309 26041.1 -03423.3 -07.4890 26265.1
 03 04 2013  21 25  -21.0309 26041.2 -03423.5 -07.4894 26265.2
 03 04 2013  21 26  -21.0310 26041.2 -03423.6 -07.4896 26265.3
 03 04 2013  21 27  -21.0310 26041.2 -03423.7 -07.4899 26265.3
 03 04 2013  21 28  -21.0311 26041.3 -03423.8 -07.4901 26265.4
 03 04 2013  21 29  -21.0313 26041.2 -03423.9 -07.4903 26265.3
 03 04 2013  21 30  -21.0314 26041.2 -03424.0 -07.4905 26265.4
 03 04 2013  21 31  -21.0316 26041.3 -03424.1 -07.4908 26265.4
 03 04 2013  21 32  -21.0317 26041.3 -03424.2 -07.4909 26265.4
 03 04 2013  21 33  -21.0320 26041.2 -03424.3 -07.4911 26265.4
 03 04 2013  21 34  -21.0321 26041.2 -03424.3 -07.4912 26265.3
 03 04 2013  21 35  -21.0323 26041.1 -03424.5 -07.4915 26265.3
 03 04 2013  21 36  -21.0324 26041.2 -03424.6 -07.4917 26265.4
 03 04 2013  21 37  -21.0325 26041.1 -03424.6 -07.4918 26265.4
 03 04 2013  21 38  -21.0327 26041.2 -03424.7 -07.4919 26265.4
 03 04 2013  21 39  -21.0328 26041.1 -03424.7 -07.4921 26265.3
 03 04 2013  21 40  -21.0331 26041.0 -03424.8 -07.4922 26265.2
 03 04 2013  21 41  -21.0333 26041.0 -03424.9 -07.4924 26265.3
 03 04 2013  21 42  -21.0334 26041.0 -03424.9 -07.4925 26265.2
 03 04 2013  21 43  -21.0335 26041.0 -03425.0 -07.4927 26265.2
 03 04 2013  21 44  -21.0337 26040.9 -03424.9 -07.4926 26265.2
 03 04 2013  21 45  -21.0338 26040.9 -03425.0 -07.4927 26265.1
 03 04 2013  21 46  -21.0340 26040.8 -03425.1 -07.4929 26265.1
 03 04 2013  21 47  -21.0342 26040.7 -03425.1 -07.4929 26265.0
 03 04 2013  21 48  -21.0344 26040.7 -03425.1 -07.4931 26265.0
 03 04 2013  21 49  -21.0346 26040.7 -03425.2 -07.4931 26265.0
 03 04 2013  21 50  -21.0348 26040.7 -03425.2 -07.4932 26265.0
 03 04 2013  21 51  -21.0350 26040.7 -03425.2 -07.4933 26265.0
 03 04 2013  21 52  -21.0352 26040.6 -03425.3 -07.4934 26264.9
 03 04 2013  21 53  -21.0355 26040.6 -03425.3 -07.4934 26264.9
 03 04 2013  21 54  -21.0358 26040.6 -03425.4 -07.4936 26264.9
 03 04 2013  21 55  -21.0361 26040.6 -03425.4 -07.4936 26265.0
 03 04 2013  21 56  -21.0362 26040.6 -03425.4 -07.4936 26264.9
 03 04 2013  21 57  -21.0366 26040.6 -03425.4 -07.4937 26265.0
 03 04 2013  21 58  -21.0369 26040.6 -03425.5 -07.4938 26264.9
 03 04 2013  21 59  -21.0372 26040.6 -03425.5 -07.4939 26265.0
 03 04 2013  22 00  -21.0374 26040.7 -03425.6 -07.4941 26265.1
 03 04 2013  22 01  -21.0376 26040.7 -03425.6 -07.4941 26265.1
 03 04 2013  22 02  -21.0377 26040.8 -03425.7 -07.4942 26265.1
 03 04 2013  22 03  -21.0379 26040.8 -03425.7 -07.4943 26265.2
 03 04 2013  22 04  -21.0382 26040.8 -03425.7 -07.4944 26265.2
 03 04 2013  22 05  -21.0383 26040.8 -03425.7 -07.4943 26265.2
 03 04 2013  22 06  -21.0385 26040.9 -03425.8 -07.4944 26265.2
 03 04 2013  22 07  -21.0387 26040.9 -03425.8 -07.4944 26265.2
 03 04 2013  22 08  -21.0387 26041.0 -03425.8 -07.4944 26265.3
 03 04 2013  22 09  -21.0388 26040.9 -03425.8 -07.4945 26265.3
 03 04 2013  22 10  -21.0388 26040.9 -03425.8 -07.4945 26265.3
 03 04 2013  22 11  -21.0390 26041.0 -03425.8 -07.4945 26265.4
 03 04 2013  22 12  -21.0390 26041.1 -03425.9 -07.4945 26265.5
 03 04 2013  22 13  -21.0391 26041.1 -03425.9 -07.4946 26265.5
 03 04 2013  22 14  -21.0393 26041.2 -03425.9 -07.4946 26265.6
 03 04 2013  22 15  -21.0394 26041.2 -03425.9 -07.4947 26265.6
 03 04 2013  22 16  -21.0395 26041.2 -03425.9 -07.4946 26265.6
 03 04 2013  22 17  -21.0397 26041.2 -03425.9 -07.4946 26265.6
 03 04 2013  22 18  -21.0398 26041.1 -03425.9 -07.4945 26265.5
 03 04 2013  22 19  -21.0401 26041.2 -03425.8 -07.4944 26265.6
 03 04 2013  22 20  -21.0403 26041.3 -03425.9 -07.4945 26265.6
 03 04 2013  22 21  -21.0404 26041.3 -03425.9 -07.4945 26265.7
 03 04 2013  22 22  -21.0407 26041.3 -03425.9 -07.4945 26265.6
 03 04 2013  22 23  -21.0409 26041.3 -03425.8 -07.4944 26265.6
 03 04 2013  22 24  -21.0411 26041.3 -03425.8 -07.4944 26265.7
 03 04 2013  22 25  -21.0415 26041.3 -03425.8 -07.4943 26265.7
 03 04 2013  22 26  -21.0418 26041.4 -03425.8 -07.4943 26265.7
 03 04 2013  22 27  -21.0421 26041.4 -03425.8 -07.4943 26265.8
 03 04 2013  22 28  -21.0424 26041.4 -03425.8 -07.4942 26265.8
 03 04 2013  22 29  -21.0426 26041.4 -03425.7 -07.4942 26265.8
 03 04 2013  22 30  -21.0428 26041.3 -03425.6 -07.4940 26265.7
 03 04 2013  22 31  -21.0429 26041.2 -03425.6 -07.4939 26265.6
 03 04 2013  22 32  -21.0430 26041.2 -03425.6 -07.4938 26265.6
 03 04 2013  22 33  -21.0431 26041.2 -03425.5 -07.4938 26265.5
 03 04 2013  22 34  -21.0432 26041.1 -03425.4 -07.4936 26265.5
 03 04 2013  22 35  -21.0434 26041.1 -03425.4 -07.4935 26265.4
 03 04 2013  22 36  -21.0436 26041.1 -03425.4 -07.4935 26265.4
 03 04 2013  22 37  -21.0438 26041.1 -03425.3 -07.4934 26265.4
 03 04 2013  22 38  -21.0440 26041.1 -03425.3 -07.4934 26265.4
 03 04 2013  22 39  -21.0442 26040.9 -03425.2 -07.4932 26265.2
 03 04 2013  22 40  -21.0444 26040.8 -03425.1 -07.4931 26265.1
 03 04 2013  22 41  -21.0445 26040.7 -03425.1 -07.4929 26265.0
 03 04 2013  22 42  -21.0447 26040.7 -03425.0 -07.4929 26265.0
 03 04 2013  22 43  -21.0449 26040.6 -03425.0 -07.4928 26264.9
 03 04 2013  22 44  -21.0450 26040.5 -03424.9 -07.4926 26264.7
 03 04 2013  22 45  -21.0451 26040.4 -03424.8 -07.4925 26264.7
 03 04 2013  22 46  -21.0453 26040.3 -03424.8 -07.4924 26264.5
 03 04 2013  22 47  -21.0454 26040.1 -03424.7 -07.4923 26264.3
 03 04 2013  22 48  -21.0455 26040.0 -03424.6 -07.4922 26264.2
 03 04 2013  22 49  -21.0455 26039.8 -03424.5 -07.4920 26264.0
 03 04 2013  22 50  -21.0456 26039.6 -03424.5 -07.4920 26263.9
 03 04 2013  22 51  -21.0458 26039.4 -03424.4 -07.4918 26263.6
 03 04 2013  22 52  -21.0459 26039.2 -03424.3 -07.4917 26263.4
 03 04 2013  22 53  -21.0461 26039.2 -03424.3 -07.4916 26263.3
 03 04 2013  22 54  -21.0461 26039.1 -03424.2 -07.4916 26263.3
 03 04 2013  22 55  -21.0462 26039.0 -03424.2 -07.4916 26263.2
 03 04 2013  22 56  -21.0463 26038.9 -03424.2 -07.4916 26263.1
 03 04 2013  22 57  -21.0464 26038.8 -03424.2 -07.4916 26263.0
 03 04 2013  22 58  -21.0466 26038.7 -03424.2 -07.4915 26262.9
 03 04 2013  22 59  -21.0468 26038.7 -03424.2 -07.4916 26262.8
 03 04 2013  23 00  -21.0470 26038.6 -03424.2 -07.4916 26262.7
 03 04 2013  23 01  -21.0472 26038.5 -03424.1 -07.4916 26262.7
 03 04 2013  23 02  -21.0473 26038.5 -03424.1 -07.4915 26262.6
 03 04 2013  23 03  -21.0473 26038.4 -03424.0 -07.4914 26262.5
 03 04 2013  23 04  -21.0475 26038.2 -03424.0 -07.4914 26262.4
 03 04 2013  23 05  -21.0476 26038.1 -03424.0 -07.4913 26262.3
 03 04 2013  23 06  -21.0478 26038.0 -03424.0 -07.4914 26262.2
 03 04 2013  23 07  -21.0479 26037.9 -03423.9 -07.4912 26262.0
 03 04 2013  23 08  -21.0481 26037.8 -03423.9 -07.4911 26261.9
 03 04 2013  23 09  -21.0482 26037.7 -03423.8 -07.4911 26261.9
 03 04 2013  23 10  -21.0484 26037.7 -03423.8 -07.4911 26261.8
 03 04 2013  23 11  -21.0486 26037.5 -03423.8 -07.4911 26261.7
 03 04 2013  23 12  -21.0488 26037.5 -03423.8 -07.4912 26261.6
 03 04 2013  23 13  -21.0490 26037.4 -03423.7 -07.4910 26261.5
 03 04 2013  23 14  -21.0492 26037.3 -03423.7 -07.4910 26261.4
 03 04 2013  23 15  -21.0493 26037.2 -03423.7 -07.4910 26261.3
 03 04 2013  23 16  -21.0495 26037.1 -03423.7 -07.4909 26261.2
 03 04 2013  23 17  -21.0496 26037.0 -03423.6 -07.4909 26261.1
 03 04 2013  23 18  -21.0497 26036.9 -03423.6 -07.4909 26261.0
 03 04 2013  23 19  -21.0499 26036.8 -03423.6 -07.4909 26261.0
 03 04 2013  23 20  -21.0500 26036.8 -03423.6 -07.4909 26260.9
 03 04 2013  23 21  -21.0502 26036.8 -03423.6 -07.4909 26260.9
 03 04 2013  23 22  -21.0503 26036.8 -03423.6 -07.4909 26260.9
 03 04 2013  23 23  -21.0505 26036.6 -03423.6 -07.4909 26260.7
 03 04 2013  23 24  -21.0505 26036.5 -03423.5 -07.4908 26260.6
 03 04 2013  23 25  -21.0503 26036.6 -03423.6 -07.4910 26260.7
 03 04 2013  23 26  -21.0507 26036.0 -03423.3 -07.4905 26260.1
 03 04 2013  23 27  -21.0507 26036.4 -03423.5 -07.4908 26260.5
 03 04 2013  23 28  -21.0508 26036.0 -03423.4 -07.4907 26260.1
 03 04 2013  23 29  -21.0510 26036.1 -03423.4 -07.4907 26260.2
 03 04 2013  23 30  -21.0510 26036.2 -03423.6 -07.4910 26260.3
 03 04 2013  23 31  -21.0509 26036.5 -03423.7 -07.4913 26260.6
 03 04 2013  23 32  -21.0512 26036.4 -03423.7 -07.4911 26260.5
 03 04 2013  23 33  -21.0510 26036.4 -03423.7 -07.4913 26260.5
 03 04 2013  23 34  -21.0511 26036.5 -03423.8 -07.4914 26260.7
 03 04 2013  23 35  -21.0511 26036.4 -03423.8 -07.4914 26260.5
 03 04 2013  23 36  -21.0513 26036.3 -03423.7 -07.4913 26260.4
 03 04 2013  23 37  -21.0514 26036.2 -03423.8 -07.4915 26260.4
 03 04 2013  23 38  -21.0513 26036.4 -03423.9 -07.4916 26260.6
 03 04 2013  23 39  -21.0515 26036.0 -03423.7 -07.4914 26260.2
 03 04 2013  23 40  -21.0514 26036.1 -03423.8 -07.4914 26260.3
 03 04 2013  23 41  -21.0515 26036.2 -03423.8 -07.4915 26260.3
 03 04 2013  23 42  -21.0516 26036.2 -03423.8 -07.4915 26260.4
 03 04 2013  23 43  -21.0516 26036.2 -03423.8 -07.4916 26260.4
 03 04 2013  23 44  -21.0515 26036.5 -03424.0 -07.4919 26260.7
 03 04 2013  23 45  -21.0512 26037.0 -03424.2 -07.4921 26261.2
 03 04 2013  23 46  -21.0512 26036.8 -03424.2 -07.4922 26261.0
 03 04 2013  23 47  -21.0513 26036.9 -03424.2 -07.4922 26261.1
 03 04 2013  23 48  -21.0511 26037.5 -03424.6 -07.4928 26261.7
 03 04 2013  23 49  -21.0514 26037.3 -03424.5 -07.4927 26261.5
 03 04 2013  23 50  -21.0516 26037.5 -03424.6 -07.4928 26261.8
 03 04 2013  23 51  -21.0518 26037.7 -03424.7 -07.4930 26261.9
 03 04 2013  23 52  -21.0517 26037.9 -03424.7 -07.4931 26262.2
 03 04 2013  23 53  -21.0519 26038.0 -03424.8 -07.4931 26262.3
 03 04 2013  23 54  -21.0520 26038.3 -03424.9 -07.4933 26262.6
 03 04 2013  23 55  -21.0523 26038.1 -03424.8 -07.4931 26262.3
 03 04 2013  23 56  -21.0524 26038.2 -03424.8 -07.4931 26262.5
 03 04 2013  23 57  -21.0525 26038.2 -03424.7 -07.4929 26262.4
