SAO LUIS EMBRACE-03 <124> 1 Min. Reported data

 DD MM YYYY  HH MM   D(Deg)  H(nT)   Z(nT)   I(Deg)   F(nT)

 04 05 2013  00 00  -21.0563 26023.8 -03435.1 -07.5196 26249.6
 04 05 2013  00 01  -21.0561 26023.7 -03435.1 -07.5196 26249.5
 04 05 2013  00 02  -21.0561 26023.7 -03435.2 -07.5196 26249.5
 04 05 2013  00 03  -21.0561 26023.8 -03435.2 -07.5197 26249.6
 04 05 2013  00 04  -21.0559 26023.7 -03435.2 -07.5197 26249.5
 04 05 2013  00 05  -21.0559 26023.6 -03435.2 -07.5197 26249.3
 04 05 2013  00 06  -21.0557 26023.5 -03435.1 -07.5196 26249.2
 04 05 2013  00 07  -21.0555 26023.4 -03435.1 -07.5196 26249.1
 04 05 2013  00 08  -21.0555 26023.5 -03435.2 -07.5197 26249.2
 04 05 2013  00 09  -21.0553 26023.6 -03435.3 -07.5199 26249.3
 04 05 2013  00 10  -21.0553 26023.8 -03435.4 -07.5202 26249.6
 04 05 2013  00 11  -21.0553 26024.0 -03435.5 -07.5204 26249.8
 04 05 2013  00 12  -21.0550 26024.1 -03435.6 -07.5205 26249.9
 04 05 2013  00 13  -21.0550 26024.1 -03435.7 -07.5206 26249.9
 04 05 2013  00 14  -21.0550 26024.1 -03435.6 -07.5205 26249.9
 04 05 2013  00 15  -21.0550 26024.1 -03435.6 -07.5205 26249.9
 04 05 2013  00 16  -21.0551 26024.1 -03435.7 -07.5206 26249.9
 04 05 2013  00 17  -21.0552 26024.1 -03435.7 -07.5207 26249.9
 04 05 2013  00 18  -21.0554 26024.1 -03435.7 -07.5206 26249.9
 04 05 2013  00 19  -21.0555 26024.1 -03435.6 -07.5205 26249.9
 04 05 2013  00 20  -21.0555 26024.1 -03435.6 -07.5205 26249.9
 04 05 2013  00 21  -21.0556 26024.2 -03435.7 -07.5206 26250.0
 04 05 2013  00 22  -21.0556 26024.2 -03435.8 -07.5208 26250.0
 04 05 2013  00 23  -21.0555 26024.2 -03435.7 -07.5206 26250.0
 04 05 2013  00 24  -21.0555 26024.3 -03435.8 -07.5208 26250.2
 04 05 2013  00 25  -21.0557 26024.1 -03435.7 -07.5206 26249.9
 04 05 2013  00 26  -21.0557 26024.3 -03435.7 -07.5206 26250.1
 04 05 2013  00 27  -21.0557 26024.4 -03435.8 -07.5208 26250.2
 04 05 2013  00 28  -21.0557 26024.3 -03435.8 -07.5207 26250.1
 04 05 2013  00 29  -21.0556 26024.1 -03435.6 -07.5205 26250.0
 04 05 2013  00 30  -21.0552 26024.2 -03435.6 -07.5205 26250.0
 04 05 2013  00 31  -21.0549 26024.2 -03435.7 -07.5205 26250.1
 04 05 2013  00 32  -21.0546 26024.3 -03435.7 -07.5206 26250.1
 04 05 2013  00 33  -21.0543 26024.2 -03435.7 -07.5206 26250.0
 04 05 2013  00 34  -21.0542 26024.4 -03435.8 -07.5209 26250.2
 04 05 2013  00 35  -21.0539 26024.5 -03435.9 -07.5209 26250.3
 04 05 2013  00 36  -21.0537 26025.1 -03436.2 -07.5215 26250.9
 04 05 2013  00 37  -21.0540 26024.5 -03436.0 -07.5211 26250.3
 04 05 2013  00 38  -21.0539 26024.8 -03436.1 -07.5213 26250.6
 04 05 2013  00 39  -21.0535 26025.5 -03436.4 -07.5218 26251.4
 04 05 2013  00 40  -21.0533 26025.6 -03436.5 -07.5221 26251.5
 04 05 2013  00 41  -21.0534 26025.8 -03436.6 -07.5222 26251.7
 04 05 2013  00 42  -21.0533 26026.1 -03436.7 -07.5224 26252.0
 04 05 2013  00 43  -21.0531 26026.3 -03436.8 -07.5225 26252.2
 04 05 2013  00 44  -21.0530 26026.6 -03436.9 -07.5226 26252.6
 04 05 2013  00 45  -21.0532 26026.8 -03437.0 -07.5228 26252.7
 04 05 2013  00 46  -21.0534 26026.7 -03437.0 -07.5228 26252.7
 04 05 2013  00 47  -21.0531 26027.0 -03437.0 -07.5228 26252.9
 04 05 2013  00 48  -21.0530 26027.0 -03437.0 -07.5227 26252.9
 04 05 2013  00 49  -21.0530 26027.0 -03437.0 -07.5227 26253.0
 04 05 2013  00 50  -21.0529 26027.1 -03437.0 -07.5227 26253.0
 04 05 2013  00 51  -21.0527 26027.1 -03437.0 -07.5226 26253.1
 04 05 2013  00 52  -21.0525 26027.1 -03437.0 -07.5226 26253.1
 04 05 2013  00 53  -21.0526 26027.1 -03436.9 -07.5225 26253.0
 04 05 2013  00 54  -21.0525 26027.1 -03436.9 -07.5224 26253.1
 04 05 2013  00 55  -21.0522 26027.1 -03436.9 -07.5224 26253.0
 04 05 2013  00 56  -21.0521 26027.0 -03436.8 -07.5223 26252.9
 04 05 2013  00 57  -21.0520 26027.0 -03436.8 -07.5222 26252.9
 04 05 2013  00 58  -21.0520 26026.9 -03436.8 -07.5222 26252.8
 04 05 2013  00 59  -21.0518 26026.9 -03436.7 -07.5221 26252.8
 04 05 2013  01 00  -21.0516 26026.7 -03436.7 -07.5220 26252.6
 04 05 2013  01 01  -21.0515 26026.7 -03436.6 -07.5219 26252.6
 04 05 2013  01 02  -21.0514 26026.6 -03436.6 -07.5219 26252.5
 04 05 2013  01 03  -21.0513 26026.5 -03436.6 -07.5219 26252.5
 04 05 2013  01 04  -21.0512 26026.4 -03436.5 -07.5218 26252.3
 04 05 2013  01 05  -21.0511 26026.3 -03436.5 -07.5217 26252.2
 04 05 2013  01 06  -21.0509 26026.2 -03436.4 -07.5217 26252.0
 04 05 2013  01 07  -21.0508 26026.0 -03436.4 -07.5216 26251.9
 04 05 2013  01 08  -21.0507 26025.9 -03436.3 -07.5216 26251.8
 04 05 2013  01 09  -21.0505 26025.8 -03436.3 -07.5216 26251.7
 04 05 2013  01 10  -21.0502 26025.7 -03436.3 -07.5216 26251.6
 04 05 2013  01 11  -21.0501 26025.7 -03436.3 -07.5216 26251.5
 04 05 2013  01 12  -21.0500 26025.6 -03436.3 -07.5216 26251.5
 04 05 2013  01 13  -21.0500 26025.5 -03436.3 -07.5216 26251.4
 04 05 2013  01 14  -21.0500 26025.5 -03436.3 -07.5217 26251.4
 04 05 2013  01 15  -21.0500 26025.4 -03436.3 -07.5217 26251.3
 04 05 2013  01 16  -21.0501 26025.3 -03436.3 -07.5217 26251.2
 04 05 2013  01 17  -21.0501 26025.3 -03436.4 -07.5218 26251.2
 04 05 2013  01 18  -21.0501 26025.3 -03436.4 -07.5218 26251.1
 04 05 2013  01 19  -21.0501 26025.2 -03436.3 -07.5218 26251.1
 04 05 2013  01 20  -21.0501 26025.1 -03436.3 -07.5217 26251.0
 04 05 2013  01 21  -21.0501 26025.0 -03436.3 -07.5217 26250.9
 04 05 2013  01 22  -21.0500 26025.0 -03436.3 -07.5217 26250.9
 04 05 2013  01 23  -21.0500 26024.9 -03436.3 -07.5217 26250.8
 04 05 2013  01 24  -21.0500 26024.9 -03436.3 -07.5218 26250.8
 04 05 2013  01 25  -21.0500 26024.8 -03436.3 -07.5218 26250.7
 04 05 2013  01 26  -21.0500 26024.8 -03436.3 -07.5218 26250.6
 04 05 2013  01 27  -21.0500 26024.7 -03436.3 -07.5218 26250.6
 04 05 2013  01 28  -21.0500 26024.7 -03436.3 -07.5218 26250.6
 04 05 2013  01 29  -21.0500 26024.7 -03436.3 -07.5218 26250.5
 04 05 2013  01 30  -21.0501 26024.6 -03436.3 -07.5218 26250.5
 04 05 2013  01 31  -21.0500 26024.5 -03436.3 -07.5219 26250.4
 04 05 2013  01 32  -21.0500 26024.5 -03436.3 -07.5218 26250.4
 04 05 2013  01 33  -21.0500 26024.5 -03436.3 -07.5219 26250.4
 04 05 2013  01 34  -21.0499 26024.5 -03436.3 -07.5219 26250.4
 04 05 2013  01 35  -21.0499 26024.5 -03436.4 -07.5220 26250.4
 04 05 2013  01 36  -21.0498 26024.5 -03436.4 -07.5221 26250.4
 04 05 2013  01 37  -21.0497 26024.6 -03436.5 -07.5222 26250.5
 04 05 2013  01 38  -21.0497 26024.6 -03436.5 -07.5223 26250.6
 04 05 2013  01 39  -21.0496 26024.6 -03436.5 -07.5223 26250.5
 04 05 2013  01 40  -21.0496 26024.6 -03436.5 -07.5223 26250.5
 04 05 2013  01 41  -21.0494 26024.7 -03436.6 -07.5224 26250.6
 04 05 2013  01 42  -21.0494 26024.7 -03436.6 -07.5224 26250.6
 04 05 2013  01 43  -21.0493 26024.7 -03436.6 -07.5225 26250.6
 04 05 2013  01 44  -21.0494 26024.7 -03436.6 -07.5225 26250.6
 04 05 2013  01 45  -21.0494 26024.8 -03436.7 -07.5226 26250.7
 04 05 2013  01 46  -21.0494 26024.8 -03436.7 -07.5226 26250.7
 04 05 2013  01 47  -21.0494 26024.8 -03436.7 -07.5227 26250.8
 04 05 2013  01 48  -21.0495 26024.8 -03436.7 -07.5227 26250.8
 04 05 2013  01 49  -21.0498 26024.8 -03436.7 -07.5227 26250.8
 04 05 2013  01 50  -21.0499 26024.8 -03436.7 -07.5227 26250.8
 04 05 2013  01 51  -21.0499 26024.8 -03436.7 -07.5227 26250.7
 04 05 2013  01 52  -21.0500 26024.8 -03436.7 -07.5226 26250.7
 04 05 2013  01 53  -21.0499 26024.8 -03436.7 -07.5227 26250.8
 04 05 2013  01 54  -21.0499 26024.8 -03436.7 -07.5227 26250.8
 04 05 2013  01 55  -21.0500 26024.8 -03436.7 -07.5227 26250.7
 04 05 2013  01 56  -21.0501 26024.9 -03436.7 -07.5227 26250.8
 04 05 2013  01 57  -21.0503 26024.9 -03436.7 -07.5227 26250.8
 04 05 2013  01 58  -21.0506 26024.8 -03436.7 -07.5227 26250.8
 04 05 2013  01 59  -21.0506 26024.8 -03436.7 -07.5226 26250.7
 04 05 2013  02 00  -21.0506 26024.7 -03436.7 -07.5226 26250.7
 04 05 2013  02 01  -21.0507 26024.7 -03436.6 -07.5225 26250.6
 04 05 2013  02 02  -21.0508 26024.8 -03436.7 -07.5226 26250.7
 04 05 2013  02 03  -21.0510 26024.8 -03436.7 -07.5226 26250.7
 04 05 2013  02 04  -21.0510 26024.9 -03436.8 -07.5227 26250.9
 04 05 2013  02 05  -21.0510 26025.0 -03436.7 -07.5227 26250.9
 04 05 2013  02 06  -21.0509 26024.9 -03436.7 -07.5227 26250.9
 04 05 2013  02 07  -21.0509 26025.0 -03436.7 -07.5227 26250.9
 04 05 2013  02 08  -21.0509 26024.9 -03436.7 -07.5226 26250.9
 04 05 2013  02 09  -21.0509 26024.9 -03436.7 -07.5226 26250.9
 04 05 2013  02 10  -21.0508 26024.9 -03436.7 -07.5226 26250.9
 04 05 2013  02 11  -21.0506 26024.9 -03436.7 -07.5226 26250.8
 04 05 2013  02 12  -21.0505 26024.9 -03436.7 -07.5226 26250.8
 04 05 2013  02 13  -21.0505 26024.9 -03436.7 -07.5226 26250.8
 04 05 2013  02 14  -21.0505 26024.9 -03436.7 -07.5226 26250.9
 04 05 2013  02 15  -21.0506 26024.9 -03436.7 -07.5226 26250.9
 04 05 2013  02 16  -21.0505 26024.9 -03436.7 -07.5227 26250.8
 04 05 2013  02 17  -21.0505 26024.9 -03436.7 -07.5226 26250.8
 04 05 2013  02 18  -21.0503 26024.9 -03436.7 -07.5227 26250.8
 04 05 2013  02 19  -21.0503 26024.9 -03436.8 -07.5227 26250.9
 04 05 2013  02 20  -21.0502 26025.0 -03436.8 -07.5228 26250.9
 04 05 2013  02 21  -21.0501 26025.0 -03436.8 -07.5228 26250.9
 04 05 2013  02 22  -21.0501 26025.0 -03436.8 -07.5228 26251.0
 04 05 2013  02 23  -21.0500 26025.0 -03436.8 -07.5228 26251.0
 04 05 2013  02 24  -21.0499 26025.0 -03436.8 -07.5228 26251.0
 04 05 2013  02 25  -21.0499 26025.0 -03436.8 -07.5229 26251.0
 04 05 2013  02 26  -21.0498 26025.0 -03436.8 -07.5228 26250.9
 04 05 2013  02 27  -21.0497 26025.0 -03436.8 -07.5228 26250.9
 04 05 2013  02 28  -21.0499 26024.9 -03436.8 -07.5228 26250.9
 04 05 2013  02 29  -21.0501 26024.9 -03436.8 -07.5228 26250.9
 04 05 2013  02 30  -21.0502 26024.9 -03436.8 -07.5229 26250.9
 04 05 2013  02 31  -21.0502 26025.0 -03436.9 -07.5230 26251.0
 04 05 2013  02 32  -21.0501 26025.1 -03436.9 -07.5230 26251.1
 04 05 2013  02 33  -21.0501 26025.1 -03436.9 -07.5230 26251.1
 04 05 2013  02 34  -21.0502 26025.0 -03436.9 -07.5229 26251.0
 04 05 2013  02 35  -21.0500 26025.3 -03437.0 -07.5231 26251.3
 04 05 2013  02 36  -21.0497 26025.6 -03437.1 -07.5233 26251.5
 04 05 2013  02 37  -21.0494 26025.9 -03437.2 -07.5235 26251.9
 04 05 2013  02 38  -21.0495 26025.9 -03437.3 -07.5236 26251.9
 04 05 2013  02 39  -21.0496 26026.1 -03437.4 -07.5237 26252.1
 04 05 2013  02 40  -21.0493 26026.5 -03437.5 -07.5239 26252.5
 04 05 2013  02 41  -21.0495 26026.4 -03437.5 -07.5240 26252.5
 04 05 2013  02 42  -21.0496 26026.6 -03437.6 -07.5240 26252.6
 04 05 2013  02 43  -21.0496 26026.7 -03437.6 -07.5240 26252.7
 04 05 2013  02 44  -21.0495 26026.8 -03437.6 -07.5240 26252.8
 04 05 2013  02 45  -21.0494 26026.8 -03437.6 -07.5240 26252.8
 04 05 2013  02 46  -21.0494 26026.8 -03437.6 -07.5239 26252.9
 04 05 2013  02 47  -21.0492 26027.0 -03437.6 -07.5240 26253.0
 04 05 2013  02 48  -21.0492 26027.1 -03437.7 -07.5241 26253.1
 04 05 2013  02 49  -21.0493 26027.2 -03437.7 -07.5242 26253.2
 04 05 2013  02 50  -21.0494 26027.3 -03437.7 -07.5242 26253.3
 04 05 2013  02 51  -21.0494 26027.4 -03437.8 -07.5243 26253.5
 04 05 2013  02 52  -21.0494 26027.4 -03437.8 -07.5242 26253.4
 04 05 2013  02 53  -21.0493 26027.4 -03437.7 -07.5241 26253.4
 04 05 2013  02 54  -21.0493 26027.3 -03437.7 -07.5240 26253.4
 04 05 2013  02 55  -21.0492 26027.2 -03437.6 -07.5238 26253.3
 04 05 2013  02 56  -21.0492 26027.1 -03437.5 -07.5237 26253.2
 04 05 2013  02 57  -21.0491 26027.1 -03437.5 -07.5237 26253.1
 04 05 2013  02 58  -21.0491 26027.0 -03437.4 -07.5236 26253.0
 04 05 2013  02 59  -21.0491 26027.0 -03437.4 -07.5235 26253.0
 04 05 2013  03 00  -21.0490 26026.9 -03437.4 -07.5235 26252.9
 04 05 2013  03 01  -21.0489 26026.8 -03437.3 -07.5234 26252.8
 04 05 2013  03 02  -21.0489 26026.8 -03437.3 -07.5234 26252.8
 04 05 2013  03 03  -21.0488 26026.7 -03437.3 -07.5234 26252.7
 04 05 2013  03 04  -21.0490 26026.6 -03437.3 -07.5234 26252.6
 04 05 2013  03 05  -21.0491 26026.6 -03437.3 -07.5234 26252.6
 04 05 2013  03 06  -21.0492 26026.5 -03437.2 -07.5233 26252.5
 04 05 2013  03 07  -21.0493 26026.5 -03437.2 -07.5233 26252.5
 04 05 2013  03 08  -21.0493 26026.5 -03437.2 -07.5233 26252.4
 04 05 2013  03 09  -21.0493 26026.4 -03437.2 -07.5232 26252.3
 04 05 2013  03 10  -21.0493 26026.3 -03437.1 -07.5232 26252.3
 04 05 2013  03 11  -21.0492 26026.2 -03437.1 -07.5231 26252.2
 04 05 2013  03 12  -21.0491 26026.2 -03437.1 -07.5231 26252.2
 04 05 2013  03 13  -21.0490 26026.1 -03437.1 -07.5231 26252.1
 04 05 2013  03 14  -21.0490 26026.1 -03437.1 -07.5231 26252.1
 04 05 2013  03 15  -21.0490 26026.1 -03437.1 -07.5231 26252.1
 04 05 2013  03 16  -21.0491 26026.0 -03437.1 -07.5231 26252.0
 04 05 2013  03 17  -21.0490 26026.0 -03437.1 -07.5231 26252.0
 04 05 2013  03 18  -21.0490 26026.0 -03437.1 -07.5232 26252.0
 04 05 2013  03 19  -21.0490 26026.0 -03437.1 -07.5232 26252.0
 04 05 2013  03 20  -21.0490 26026.0 -03437.1 -07.5232 26251.9
 04 05 2013  03 21  -21.0489 26025.9 -03437.1 -07.5231 26251.9
 04 05 2013  03 22  -21.0488 26025.9 -03437.0 -07.5231 26251.9
 04 05 2013  03 23  -21.0486 26026.0 -03437.1 -07.5231 26252.0
 04 05 2013  03 24  -21.0485 26026.2 -03437.2 -07.5233 26252.1
 04 05 2013  03 25  -21.0485 26026.1 -03437.2 -07.5233 26252.1
 04 05 2013  03 26  -21.0484 26026.1 -03437.2 -07.5233 26252.1
 04 05 2013  03 27  -21.0485 26026.1 -03437.1 -07.5232 26252.1
 04 05 2013  03 28  -21.0485 26026.0 -03437.1 -07.5231 26252.0
 04 05 2013  03 29  -21.0484 26025.9 -03437.0 -07.5230 26251.9
 04 05 2013  03 30  -21.0484 26025.8 -03437.0 -07.5229 26251.7
 04 05 2013  03 31  -21.0485 26025.7 -03436.9 -07.5228 26251.6
 04 05 2013  03 32  -21.0486 26025.5 -03436.9 -07.5228 26251.5
 04 05 2013  03 33  -21.0486 26025.5 -03436.8 -07.5227 26251.4
 04 05 2013  03 34  -21.0486 26025.5 -03436.8 -07.5228 26251.4
 04 05 2013  03 35  -21.0487 26025.5 -03436.9 -07.5228 26251.4
 04 05 2013  03 36  -21.0487 26025.5 -03436.9 -07.5228 26251.5
 04 05 2013  03 37  -21.0487 26025.5 -03436.9 -07.5228 26251.4
 04 05 2013  03 38  -21.0487 26025.5 -03436.9 -07.5229 26251.5
 04 05 2013  03 39  -21.0486 26025.5 -03436.9 -07.5229 26251.5
 04 05 2013  03 40  -21.0487 26025.5 -03436.9 -07.5229 26251.5
 04 05 2013  03 41  -21.0489 26025.5 -03436.9 -07.5229 26251.4
 04 05 2013  03 42  -21.0488 26025.5 -03436.9 -07.5228 26251.4
 04 05 2013  03 43  -21.0487 26025.5 -03436.9 -07.5228 26251.4
 04 05 2013  03 44  -21.0487 26025.5 -03436.9 -07.5228 26251.5
 04 05 2013  03 45  -21.0487 26025.6 -03436.9 -07.5228 26251.5
 04 05 2013  03 46  -21.0486 26025.6 -03436.9 -07.5228 26251.6
 04 05 2013  03 47  -21.0486 26025.7 -03436.9 -07.5229 26251.6
 04 05 2013  03 48  -21.0485 26025.7 -03436.9 -07.5229 26251.7
 04 05 2013  03 49  -21.0485 26025.8 -03436.9 -07.5229 26251.8
 04 05 2013  03 50  -21.0484 26025.8 -03436.9 -07.5228 26251.8
 04 05 2013  03 51  -21.0483 26025.8 -03436.9 -07.5227 26251.7
 04 05 2013  03 52  -21.0482 26025.7 -03436.8 -07.5227 26251.6
 04 05 2013  03 53  -21.0480 26025.6 -03436.7 -07.5225 26251.5
 04 05 2013  03 54  -21.0480 26025.5 -03436.7 -07.5223 26251.5
 04 05 2013  03 55  -21.0480 26025.4 -03436.6 -07.5223 26251.3
 04 05 2013  03 56  -21.0481 26025.4 -03436.5 -07.5221 26251.3
 04 05 2013  03 57  -21.0482 26025.3 -03436.5 -07.5221 26251.2
 04 05 2013  03 58  -21.0483 26025.2 -03436.4 -07.5219 26251.0
 04 05 2013  03 59  -21.0484 26025.0 -03436.4 -07.5218 26250.9
 04 05 2013  04 00  -21.0484 26024.9 -03436.3 -07.5217 26250.8
 04 05 2013  04 01  -21.0485 26024.7 -03436.2 -07.5216 26250.6
 04 05 2013  04 02  -21.0484 26024.7 -03436.2 -07.5216 26250.5
 04 05 2013  04 03  -21.0482 26024.6 -03436.2 -07.5215 26250.5
 04 05 2013  04 04  -21.0481 26024.6 -03436.2 -07.5215 26250.4
 04 05 2013  04 05  -21.0482 26024.5 -03436.1 -07.5215 26250.4
 04 05 2013  04 06  -21.0484 26024.4 -03436.1 -07.5215 26250.3
 04 05 2013  04 07  -21.0486 26024.3 -03436.1 -07.5215 26250.2
 04 05 2013  04 08  -21.0489 26024.3 -03436.1 -07.5216 26250.2
 04 05 2013  04 09  -21.0491 26024.3 -03436.2 -07.5216 26250.2
 04 05 2013  04 10  -21.0493 26024.3 -03436.2 -07.5216 26250.2
 04 05 2013  04 11  -21.0493 26024.3 -03436.2 -07.5216 26250.2
 04 05 2013  04 12  -21.0494 26024.3 -03436.2 -07.5216 26250.2
 04 05 2013  04 13  -21.0493 26024.3 -03436.1 -07.5216 26250.1
 04 05 2013  04 14  -21.0492 26024.3 -03436.1 -07.5215 26250.1
 04 05 2013  04 15  -21.0490 26024.3 -03436.1 -07.5215 26250.2
 04 05 2013  04 16  -21.0489 26024.3 -03436.2 -07.5216 26250.2
 04 05 2013  04 17  -21.0489 26024.3 -03436.2 -07.5217 26250.2
 04 05 2013  04 18  -21.0489 26024.3 -03436.2 -07.5217 26250.2
 04 05 2013  04 19  -21.0489 26024.3 -03436.3 -07.5218 26250.2
 04 05 2013  04 20  -21.0489 26024.3 -03436.2 -07.5218 26250.2
 04 05 2013  04 21  -21.0488 26024.3 -03436.2 -07.5218 26250.2
 04 05 2013  04 22  -21.0488 26024.3 -03436.3 -07.5219 26250.2
 04 05 2013  04 23  -21.0487 26024.4 -03436.3 -07.5220 26250.3
 04 05 2013  04 24  -21.0487 26024.5 -03436.4 -07.5222 26250.4
 04 05 2013  04 25  -21.0486 26024.8 -03436.5 -07.5223 26250.7
 04 05 2013  04 26  -21.0485 26024.8 -03436.6 -07.5224 26250.8
 04 05 2013  04 27  -21.0484 26024.9 -03436.6 -07.5225 26250.8
 04 05 2013  04 28  -21.0482 26024.9 -03436.6 -07.5225 26250.8
 04 05 2013  04 29  -21.0482 26024.9 -03436.6 -07.5225 26250.8
 04 05 2013  04 30  -21.0480 26025.0 -03436.6 -07.5224 26250.9
 04 05 2013  04 31  -21.0479 26024.9 -03436.6 -07.5225 26250.9
 04 05 2013  04 32  -21.0479 26024.9 -03436.6 -07.5224 26250.8
 04 05 2013  04 33  -21.0478 26024.9 -03436.6 -07.5224 26250.8
 04 05 2013  04 34  -21.0476 26024.8 -03436.6 -07.5224 26250.8
 04 05 2013  04 35  -21.0474 26024.8 -03436.6 -07.5224 26250.7
 04 05 2013  04 36  -21.0472 26024.9 -03436.6 -07.5224 26250.8
 04 05 2013  04 37  -21.0470 26024.8 -03436.6 -07.5224 26250.7
 04 05 2013  04 38  -21.0468 26024.8 -03436.6 -07.5224 26250.7
 04 05 2013  04 39  -21.0466 26024.8 -03436.6 -07.5224 26250.7
 04 05 2013  04 40  -21.0465 26024.7 -03436.6 -07.5224 26250.6
 04 05 2013  04 41  -21.0465 26024.5 -03436.5 -07.5223 26250.4
 04 05 2013  04 42  -21.0466 26024.2 -03436.4 -07.5221 26250.1
 04 05 2013  04 43  -21.0467 26023.9 -03436.2 -07.5219 26249.8
 04 05 2013  04 44  -21.0468 26023.7 -03436.1 -07.5217 26249.5
 04 05 2013  04 45  -21.0471 26023.5 -03436.1 -07.5217 26249.4
 04 05 2013  04 46  -21.0473 26023.3 -03436.1 -07.5217 26249.2
 04 05 2013  04 47  -21.0472 26023.3 -03436.1 -07.5217 26249.1
 04 05 2013  04 48  -21.0472 26023.3 -03436.1 -07.5217 26249.2
 04 05 2013  04 49  -21.0471 26023.4 -03436.2 -07.5219 26249.3
 04 05 2013  04 50  -21.0470 26023.5 -03436.2 -07.5220 26249.4
 04 05 2013  04 51  -21.0470 26023.7 -03436.4 -07.5222 26249.6
 04 05 2013  04 52  -21.0469 26023.9 -03436.5 -07.5224 26249.8
 04 05 2013  04 53  -21.0469 26024.0 -03436.6 -07.5226 26249.9
 04 05 2013  04 54  -21.0470 26024.1 -03436.7 -07.5227 26250.0
 04 05 2013  04 55  -21.0471 26024.2 -03436.7 -07.5228 26250.1
 04 05 2013  04 56  -21.0473 26024.2 -03436.7 -07.5229 26250.1
 04 05 2013  04 57  -21.0473 26024.1 -03436.7 -07.5228 26250.0
 04 05 2013  04 58  -21.0473 26024.1 -03436.6 -07.5227 26250.0
 04 05 2013  04 59  -21.0472 26024.0 -03436.6 -07.5227 26250.0
 04 05 2013  05 00  -21.0472 26024.0 -03436.6 -07.5227 26249.9
 04 05 2013  05 01  -21.0474 26024.1 -03436.7 -07.5228 26250.0
 04 05 2013  05 02  -21.0473 26024.1 -03436.7 -07.5228 26250.1
 04 05 2013  05 03  -21.0470 26024.1 -03436.7 -07.5228 26250.0
 04 05 2013  05 04  -21.0470 26024.1 -03436.7 -07.5228 26250.0
 04 05 2013  05 05  -21.0468 26024.0 -03436.7 -07.5228 26249.9
 04 05 2013  05 06  -21.0468 26023.9 -03436.6 -07.5228 26249.9
 04 05 2013  05 07  -21.0467 26023.9 -03436.6 -07.5227 26249.8
 04 05 2013  05 08  -21.0466 26023.9 -03436.6 -07.5227 26249.8
 04 05 2013  05 09  -21.0465 26023.8 -03436.6 -07.5228 26249.7
 04 05 2013  05 10  -21.0465 26023.8 -03436.6 -07.5228 26249.7
 04 05 2013  05 11  -21.0464 26023.8 -03436.7 -07.5229 26249.7
 04 05 2013  05 12  -21.0464 26023.8 -03436.7 -07.5229 26249.7
 04 05 2013  05 13  -21.0465 26023.7 -03436.7 -07.5230 26249.7
 04 05 2013  05 14  -21.0465 26023.8 -03436.8 -07.5230 26249.7
 04 05 2013  05 15  -21.0466 26023.8 -03436.8 -07.5231 26249.8
 04 05 2013  05 16  -21.0466 26023.9 -03436.9 -07.5232 26249.9
 04 05 2013  05 17  -21.0466 26024.0 -03436.9 -07.5233 26249.9
 04 05 2013  05 18  -21.0467 26024.1 -03437.0 -07.5234 26250.1
 04 05 2013  05 19  -21.0468 26024.2 -03437.0 -07.5236 26250.2
 04 05 2013  05 20  -21.0468 26024.2 -03437.1 -07.5237 26250.2
 04 05 2013  05 21  -21.0468 26024.3 -03437.1 -07.5236 26250.3
 04 05 2013  05 22  -21.0468 26024.2 -03437.1 -07.5236 26250.2
 04 05 2013  05 23  -21.0467 26024.3 -03437.1 -07.5236 26250.2
 04 05 2013  05 24  -21.0465 26024.2 -03437.0 -07.5236 26250.2
 04 05 2013  05 25  -21.0464 26024.2 -03437.0 -07.5235 26250.2
 04 05 2013  05 26  -21.0463 26024.2 -03437.0 -07.5235 26250.2
 04 05 2013  05 27  -21.0462 26024.2 -03437.0 -07.5235 26250.1
 04 05 2013  05 28  -21.0460 26024.1 -03437.0 -07.5236 26250.1
 04 05 2013  05 29  -21.0458 26024.1 -03437.1 -07.5237 26250.1
 04 05 2013  05 30  -21.0457 26024.2 -03437.1 -07.5237 26250.2
 04 05 2013  05 31  -21.0457 26024.2 -03437.1 -07.5237 26250.2
 04 05 2013  05 32  -21.0458 26024.2 -03437.2 -07.5238 26250.2
 04 05 2013  05 33  -21.0460 26024.3 -03437.2 -07.5239 26250.3
 04 05 2013  05 34  -21.0461 26024.2 -03437.2 -07.5240 26250.2
 04 05 2013  05 35  -21.0463 26024.2 -03437.2 -07.5239 26250.2
 04 05 2013  05 36  -21.0463 26024.2 -03437.3 -07.5240 26250.2
 04 05 2013  05 37  -21.0464 26024.3 -03437.3 -07.5240 26250.3
 04 05 2013  05 38  -21.0466 26024.4 -03437.3 -07.5241 26250.4
 04 05 2013  05 39  -21.0466 26024.5 -03437.4 -07.5242 26250.5
 04 05 2013  05 40  -21.0467 26024.5 -03437.4 -07.5242 26250.6
 04 05 2013  05 41  -21.0468 26024.7 -03437.5 -07.5243 26250.7
 04 05 2013  05 42  -21.0468 26024.7 -03437.5 -07.5243 26250.8
 04 05 2013  05 43  -21.0467 26024.8 -03437.5 -07.5243 26250.8
 04 05 2013  05 44  -21.0466 26024.7 -03437.4 -07.5242 26250.8
 04 05 2013  05 45  -21.0466 26024.7 -03437.4 -07.5242 26250.8
 04 05 2013  05 46  -21.0465 26024.7 -03437.4 -07.5242 26250.8
 04 05 2013  05 47  -21.0464 26024.8 -03437.4 -07.5243 26250.8
 04 05 2013  05 48  -21.0464 26024.8 -03437.4 -07.5242 26250.8
 04 05 2013  05 49  -21.0463 26024.8 -03437.4 -07.5242 26250.8
 04 05 2013  05 50  -21.0462 26024.9 -03437.4 -07.5242 26250.9
 04 05 2013  05 51  -21.0458 26024.9 -03437.4 -07.5242 26250.9
 04 05 2013  05 52  -21.0457 26024.9 -03437.4 -07.5242 26250.9
 04 05 2013  05 53  -21.0455 26024.9 -03437.5 -07.5243 26251.0
 04 05 2013  05 54  -21.0453 26025.0 -03437.5 -07.5244 26251.0
 04 05 2013  05 55  -21.0451 26025.0 -03437.6 -07.5245 26251.1
 04 05 2013  05 56  -21.0449 26025.1 -03437.6 -07.5245 26251.2
 04 05 2013  05 57  -21.0448 26025.2 -03437.6 -07.5246 26251.3
 04 05 2013  05 58  -21.0447 26025.3 -03437.7 -07.5246 26251.4
 04 05 2013  05 59  -21.0445 26025.4 -03437.7 -07.5247 26251.4
 04 05 2013  06 00  -21.0444 26025.5 -03437.8 -07.5248 26251.5
 04 05 2013  06 01  -21.0442 26025.5 -03437.8 -07.5248 26251.6
 04 05 2013  06 02  -21.0442 26025.5 -03437.8 -07.5248 26251.6
 04 05 2013  06 03  -21.0441 26025.5 -03437.8 -07.5248 26251.6
 04 05 2013  06 04  -21.0441 26025.5 -03437.8 -07.5248 26251.6
 04 05 2013  06 05  -21.0440 26025.5 -03437.8 -07.5248 26251.6
 04 05 2013  06 06  -21.0440 26025.5 -03437.8 -07.5248 26251.6
 04 05 2013  06 07  -21.0439 26025.5 -03437.8 -07.5248 26251.6
 04 05 2013  06 08  -21.0441 26025.6 -03437.8 -07.5249 26251.7
 04 05 2013  06 09  -21.0442 26025.7 -03437.9 -07.5249 26251.7
 04 05 2013  06 10  -21.0443 26025.7 -03437.9 -07.5250 26251.8
 04 05 2013  06 11  -21.0442 26025.7 -03437.9 -07.5249 26251.8
 04 05 2013  06 12  -21.0441 26025.7 -03437.9 -07.5249 26251.8
 04 05 2013  06 13  -21.0440 26025.8 -03437.9 -07.5249 26251.9
 04 05 2013  06 14  -21.0440 26025.8 -03437.9 -07.5249 26251.9
 04 05 2013  06 15  -21.0440 26025.8 -03437.9 -07.5249 26251.9
 04 05 2013  06 16  -21.0440 26025.8 -03437.9 -07.5249 26251.9
 04 05 2013  06 17  -21.0438 26025.8 -03437.8 -07.5248 26251.9
 04 05 2013  06 18  -21.0436 26025.7 -03437.8 -07.5248 26251.8
 04 05 2013  06 19  -21.0435 26025.8 -03437.8 -07.5247 26251.8
 04 05 2013  06 20  -21.0433 26025.7 -03437.7 -07.5246 26251.8
 04 05 2013  06 21  -21.0431 26025.6 -03437.7 -07.5245 26251.7
 04 05 2013  06 22  -21.0429 26025.6 -03437.6 -07.5244 26251.6
 04 05 2013  06 23  -21.0427 26025.5 -03437.6 -07.5244 26251.5
 04 05 2013  06 24  -21.0424 26025.5 -03437.6 -07.5244 26251.5
 04 05 2013  06 25  -21.0421 26025.4 -03437.6 -07.5244 26251.5
 04 05 2013  06 26  -21.0419 26025.4 -03437.6 -07.5244 26251.4
 04 05 2013  06 27  -21.0416 26025.4 -03437.5 -07.5243 26251.4
 04 05 2013  06 28  -21.0412 26025.3 -03437.5 -07.5243 26251.4
 04 05 2013  06 29  -21.0408 26025.3 -03437.5 -07.5243 26251.4
 04 05 2013  06 30  -21.0407 26025.3 -03437.6 -07.5243 26251.4
 04 05 2013  06 31  -21.0406 26025.3 -03437.6 -07.5244 26251.4
 04 05 2013  06 32  -21.0404 26025.3 -03437.6 -07.5243 26251.3
 04 05 2013  06 33  -21.0404 26025.3 -03437.6 -07.5244 26251.3
 04 05 2013  06 34  -21.0405 26025.3 -03437.6 -07.5245 26251.3
 04 05 2013  06 35  -21.0405 26025.3 -03437.6 -07.5245 26251.3
 04 05 2013  06 36  -21.0403 26025.3 -03437.6 -07.5245 26251.3
 04 05 2013  06 37  -21.0403 26025.3 -03437.6 -07.5245 26251.3
 04 05 2013  06 38  -21.0403 26025.2 -03437.6 -07.5245 26251.3
 04 05 2013  06 39  -21.0401 26025.1 -03437.5 -07.5244 26251.2
 04 05 2013  06 40  -21.0401 26025.1 -03437.5 -07.5243 26251.2
 04 05 2013  06 41  -21.0401 26025.1 -03437.5 -07.5243 26251.1
 04 05 2013  06 42  -21.0400 26025.0 -03437.5 -07.5243 26251.1
 04 05 2013  06 43  -21.0400 26025.0 -03437.5 -07.5243 26251.0
 04 05 2013  06 44  -21.0399 26024.9 -03437.4 -07.5241 26250.9
 04 05 2013  06 45  -21.0399 26024.9 -03437.4 -07.5242 26250.9
 04 05 2013  06 46  -21.0401 26024.9 -03437.5 -07.5242 26251.0
 04 05 2013  06 47  -21.0403 26025.0 -03437.5 -07.5243 26251.0
 04 05 2013  06 48  -21.0405 26025.0 -03437.5 -07.5244 26251.0
 04 05 2013  06 49  -21.0406 26024.9 -03437.5 -07.5244 26251.0
 04 05 2013  06 50  -21.0407 26024.9 -03437.5 -07.5244 26251.0
 04 05 2013  06 51  -21.0408 26025.0 -03437.5 -07.5243 26251.0
 04 05 2013  06 52  -21.0408 26025.0 -03437.5 -07.5243 26251.1
 04 05 2013  06 53  -21.0407 26025.0 -03437.5 -07.5243 26251.1
 04 05 2013  06 54  -21.0407 26025.0 -03437.5 -07.5243 26251.0
 04 05 2013  06 55  -21.0406 26025.0 -03437.5 -07.5243 26251.0
 04 05 2013  06 56  -21.0407 26025.1 -03437.5 -07.5243 26251.1
 04 05 2013  06 57  -21.0407 26025.1 -03437.5 -07.5242 26251.1
 04 05 2013  06 58  -21.0406 26025.1 -03437.5 -07.5242 26251.1
 04 05 2013  06 59  -21.0405 26025.1 -03437.4 -07.5241 26251.1
 04 05 2013  07 00  -21.0404 26025.0 -03437.4 -07.5241 26251.0
 04 05 2013  07 01  -21.0401 26024.9 -03437.4 -07.5240 26251.0
 04 05 2013  07 02  -21.0400 26024.8 -03437.3 -07.5240 26250.8
 04 05 2013  07 03  -21.0397 26024.8 -03437.3 -07.5239 26250.8
 04 05 2013  07 04  -21.0395 26024.8 -03437.3 -07.5239 26250.8
 04 05 2013  07 05  -21.0393 26024.7 -03437.3 -07.5239 26250.7
 04 05 2013  07 06  -21.0391 26024.7 -03437.3 -07.5240 26250.7
 04 05 2013  07 07  -21.0389 26024.6 -03437.3 -07.5241 26250.7
 04 05 2013  07 08  -21.0387 26024.6 -03437.3 -07.5241 26250.6
 04 05 2013  07 09  -21.0384 26024.5 -03437.3 -07.5240 26250.5
 04 05 2013  07 10  -21.0383 26024.5 -03437.3 -07.5240 26250.5
 04 05 2013  07 11  -21.0382 26024.5 -03437.3 -07.5241 26250.5
 04 05 2013  07 12  -21.0383 26024.5 -03437.4 -07.5242 26250.6
 04 05 2013  07 13  -21.0383 26024.5 -03437.4 -07.5243 26250.5
 04 05 2013  07 14  -21.0382 26024.4 -03437.4 -07.5242 26250.4
 04 05 2013  07 15  -21.0380 26024.3 -03437.3 -07.5241 26250.3
 04 05 2013  07 16  -21.0379 26024.2 -03437.3 -07.5241 26250.2
 04 05 2013  07 17  -21.0380 26024.2 -03437.3 -07.5242 26250.2
 04 05 2013  07 18  -21.0381 26024.2 -03437.4 -07.5243 26250.2
 04 05 2013  07 19  -21.0382 26024.2 -03437.4 -07.5244 26250.2
 04 05 2013  07 20  -21.0384 26024.3 -03437.5 -07.5245 26250.3
 04 05 2013  07 21  -21.0384 26024.4 -03437.6 -07.5246 26250.5
 04 05 2013  07 22  -21.0384 26024.4 -03437.6 -07.5247 26250.5
 04 05 2013  07 23  -21.0385 26024.5 -03437.6 -07.5248 26250.6
 04 05 2013  07 24  -21.0385 26024.4 -03437.6 -07.5248 26250.5
 04 05 2013  07 25  -21.0384 26024.4 -03437.6 -07.5248 26250.5
 04 05 2013  07 26  -21.0384 26024.5 -03437.6 -07.5248 26250.5
 04 05 2013  07 27  -21.0383 26024.5 -03437.7 -07.5249 26250.6
 04 05 2013  07 28  -21.0383 26024.6 -03437.7 -07.5249 26250.7
 04 05 2013  07 29  -21.0383 26024.6 -03437.7 -07.5249 26250.6
 04 05 2013  07 30  -21.0381 26024.5 -03437.7 -07.5248 26250.6
 04 05 2013  07 31  -21.0381 26024.5 -03437.7 -07.5248 26250.5
 04 05 2013  07 32  -21.0379 26024.5 -03437.7 -07.5249 26250.5
 04 05 2013  07 33  -21.0376 26024.4 -03437.7 -07.5249 26250.5
 04 05 2013  07 34  -21.0372 26024.4 -03437.7 -07.5249 26250.4
 04 05 2013  07 35  -21.0371 26024.5 -03437.7 -07.5249 26250.5
 04 05 2013  07 36  -21.0368 26024.6 -03437.7 -07.5250 26250.6
 04 05 2013  07 37  -21.0365 26024.6 -03437.8 -07.5251 26250.7
 04 05 2013  07 38  -21.0362 26024.7 -03437.9 -07.5253 26250.8
 04 05 2013  07 39  -21.0358 26024.8 -03438.0 -07.5255 26250.9
 04 05 2013  07 40  -21.0355 26025.0 -03438.1 -07.5256 26251.1
 04 05 2013  07 41  -21.0350 26025.0 -03438.1 -07.5257 26251.2
 04 05 2013  07 42  -21.0344 26025.1 -03438.1 -07.5257 26251.2
 04 05 2013  07 43  -21.0339 26025.1 -03438.2 -07.5258 26251.2
 04 05 2013  07 44  -21.0334 26025.0 -03438.2 -07.5258 26251.2
 04 05 2013  07 45  -21.0329 26025.0 -03438.2 -07.5258 26251.1
 04 05 2013  07 46  -21.0324 26024.9 -03438.1 -07.5257 26251.0
 04 05 2013  07 47  -21.0323 26024.8 -03438.2 -07.5258 26251.0
 04 05 2013  07 48  -21.0323 26024.9 -03438.2 -07.5259 26251.0
 04 05 2013  07 49  -21.0322 26024.8 -03438.3 -07.5260 26251.0
 04 05 2013  07 50  -21.0321 26024.8 -03438.3 -07.5261 26251.0
 04 05 2013  07 51  -21.0321 26024.7 -03438.3 -07.5261 26250.8
 04 05 2013  07 52  -21.0320 26024.4 -03438.2 -07.5261 26250.6
 04 05 2013  07 53  -21.0323 26024.4 -03438.3 -07.5262 26250.6
 04 05 2013  07 54  -21.0326 26024.5 -03438.4 -07.5264 26250.6
 04 05 2013  07 55  -21.0326 26024.4 -03438.4 -07.5265 26250.6
 04 05 2013  07 56  -21.0325 26024.5 -03438.5 -07.5267 26250.6
 04 05 2013  07 57  -21.0325 26024.4 -03438.5 -07.5267 26250.6
 04 05 2013  07 58  -21.0325 26024.4 -03438.6 -07.5268 26250.6
 04 05 2013  07 59  -21.0323 26024.5 -03438.6 -07.5269 26250.7
 04 05 2013  08 00  -21.0321 26024.5 -03438.7 -07.5271 26250.7
 04 05 2013  08 01  -21.0318 26024.3 -03438.7 -07.5271 26250.5
 04 05 2013  08 02  -21.0318 26024.3 -03438.7 -07.5271 26250.5
 04 05 2013  08 03  -21.0315 26024.3 -03438.8 -07.5273 26250.5
 04 05 2013  08 04  -21.0314 26024.2 -03438.8 -07.5274 26250.5
 04 05 2013  08 05  -21.0313 26024.2 -03438.9 -07.5276 26250.4
 04 05 2013  08 06  -21.0311 26024.1 -03439.0 -07.5278 26250.4
 04 05 2013  08 07  -21.0311 26024.1 -03439.0 -07.5279 26250.3
 04 05 2013  08 08  -21.0313 26024.1 -03439.1 -07.5280 26250.4
 04 05 2013  08 09  -21.0318 26024.1 -03439.1 -07.5281 26250.3
 04 05 2013  08 10  -21.0321 26024.0 -03439.2 -07.5283 26250.3
 04 05 2013  08 11  -21.0325 26024.1 -03439.2 -07.5283 26250.4
 04 05 2013  08 12  -21.0333 26024.1 -03439.3 -07.5284 26250.3
 04 05 2013  08 13  -21.0338 26024.1 -03439.3 -07.5286 26250.4
 04 05 2013  08 14  -21.0343 26023.9 -03439.2 -07.5284 26250.1
 04 05 2013  08 15  -21.0346 26023.7 -03439.2 -07.5284 26250.0
 04 05 2013  08 16  -21.0349 26023.6 -03439.2 -07.5284 26249.8
 04 05 2013  08 17  -21.0352 26023.5 -03439.2 -07.5284 26249.7
 04 05 2013  08 18  -21.0356 26023.5 -03439.3 -07.5285 26249.8
 04 05 2013  08 19  -21.0361 26023.8 -03439.4 -07.5288 26250.1
 04 05 2013  08 20  -21.0363 26024.1 -03439.6 -07.5291 26250.4
 04 05 2013  08 21  -21.0365 26024.6 -03439.8 -07.5295 26251.0
 04 05 2013  08 22  -21.0362 26025.0 -03440.0 -07.5297 26251.4
 04 05 2013  08 23  -21.0361 26025.2 -03440.1 -07.5298 26251.5
 04 05 2013  08 24  -21.0362 26025.5 -03440.2 -07.5300 26251.9
 04 05 2013  08 25  -21.0361 26025.7 -03440.2 -07.5300 26252.1
 04 05 2013  08 26  -21.0356 26025.8 -03440.2 -07.5300 26252.2
 04 05 2013  08 27  -21.0356 26025.7 -03440.2 -07.5299 26252.1
 04 05 2013  08 28  -21.0357 26025.9 -03440.2 -07.5299 26252.3
 04 05 2013  08 29  -21.0357 26026.1 -03440.3 -07.5301 26252.5
 04 05 2013  08 30  -21.0353 26026.2 -03440.2 -07.5299 26252.6
 04 05 2013  08 31  -21.0349 26026.3 -03440.2 -07.5298 26252.7
 04 05 2013  08 32  -21.0344 26026.2 -03440.1 -07.5295 26252.5
 04 05 2013  08 33  -21.0340 26026.0 -03440.0 -07.5293 26252.4
 04 05 2013  08 34  -21.0336 26026.2 -03440.0 -07.5293 26252.5
 04 05 2013  08 35  -21.0328 26026.1 -03440.0 -07.5293 26252.5
 04 05 2013  08 36  -21.0321 26026.2 -03439.9 -07.5292 26252.5
 04 05 2013  08 37  -21.0313 26026.0 -03439.8 -07.5290 26252.3
 04 05 2013  08 38  -21.0306 26025.9 -03439.8 -07.5290 26252.3
 04 05 2013  08 39  -21.0299 26025.9 -03439.8 -07.5291 26252.2
 04 05 2013  08 40  -21.0291 26025.9 -03439.8 -07.5291 26252.2
 04 05 2013  08 41  -21.0286 26025.9 -03439.9 -07.5293 26252.3
 04 05 2013  08 42  -21.0282 26025.9 -03439.9 -07.5293 26252.2
 04 05 2013  08 43  -21.0279 26025.8 -03440.0 -07.5294 26252.2
 04 05 2013  08 44  -21.0274 26025.8 -03440.0 -07.5294 26252.1
 04 05 2013  08 45  -21.0271 26025.8 -03440.0 -07.5295 26252.1
 04 05 2013  08 46  -21.0267 26025.7 -03439.9 -07.5294 26252.1
 04 05 2013  08 47  -21.0261 26025.7 -03439.9 -07.5293 26252.0
 04 05 2013  08 48  -21.0258 26025.5 -03439.8 -07.5292 26251.9
 04 05 2013  08 49  -21.0254 26025.5 -03439.8 -07.5291 26251.8
 04 05 2013  08 50  -21.0252 26025.4 -03439.8 -07.5291 26251.8
 04 05 2013  08 51  -21.0247 26025.3 -03439.7 -07.5291 26251.6
 04 05 2013  08 52  -21.0243 26025.1 -03439.6 -07.5288 26251.4
 04 05 2013  08 53  -21.0243 26025.0 -03439.7 -07.5290 26251.4
 04 05 2013  08 54  -21.0234 26024.9 -03439.6 -07.5290 26251.3
 04 05 2013  08 55  -21.0232 26024.9 -03439.6 -07.5290 26251.2
 04 05 2013  08 56  -21.0227 26024.9 -03439.7 -07.5291 26251.3
 04 05 2013  08 57  -21.0222 26024.9 -03439.7 -07.5292 26251.3
 04 05 2013  08 58  -21.0219 26024.9 -03439.8 -07.5293 26251.2
 04 05 2013  08 59  -21.0214 26024.9 -03439.8 -07.5294 26251.3
 04 05 2013  09 00  -21.0212 26024.9 -03439.9 -07.5295 26251.2
 04 05 2013  09 01  -21.0206 26024.9 -03439.9 -07.5296 26251.3
 04 05 2013  09 02  -21.0202 26024.8 -03440.0 -07.5297 26251.2
 04 05 2013  09 03  -21.0199 26024.9 -03440.0 -07.5298 26251.3
 04 05 2013  09 04  -21.0195 26025.1 -03440.2 -07.5301 26251.5
 04 05 2013  09 05  -21.0191 26025.1 -03440.2 -07.5302 26251.5
 04 05 2013  09 06  -21.0189 26025.1 -03440.3 -07.5304 26251.5
 04 05 2013  09 07  -21.0185 26025.2 -03440.4 -07.5306 26251.6
 04 05 2013  09 08  -21.0182 26025.3 -03440.5 -07.5307 26251.7
 04 05 2013  09 09  -21.0182 26025.4 -03440.6 -07.5309 26251.8
 04 05 2013  09 10  -21.0179 26025.6 -03440.8 -07.5312 26252.1
 04 05 2013  09 11  -21.0176 26025.8 -03440.9 -07.5314 26252.3
 04 05 2013  09 12  -21.0174 26026.2 -03441.0 -07.5317 26252.7
 04 05 2013  09 13  -21.0174 26026.6 -03441.3 -07.5321 26253.1
 04 05 2013  09 14  -21.0173 26026.5 -03441.3 -07.5322 26253.0
 04 05 2013  09 15  -21.0174 26026.5 -03441.3 -07.5321 26253.0
 04 05 2013  09 16  -21.0176 26026.6 -03441.4 -07.5323 26253.1
 04 05 2013  09 17  -21.0177 26026.7 -03441.5 -07.5325 26253.2
 04 05 2013  09 18  -21.0179 26026.9 -03441.6 -07.5327 26253.4
 04 05 2013  09 19  -21.0180 26027.0 -03441.7 -07.5328 26253.6
 04 05 2013  09 20  -21.0180 26027.0 -03441.7 -07.5328 26253.6
 04 05 2013  09 21  -21.0179 26027.0 -03441.8 -07.5329 26253.6
 04 05 2013  09 22  -21.0176 26026.9 -03441.7 -07.5329 26253.5
 04 05 2013  09 23  -21.0176 26026.8 -03441.7 -07.5329 26253.4
 04 05 2013  09 24  -21.0177 26026.8 -03441.7 -07.5330 26253.4
 04 05 2013  09 25  -21.0177 26026.8 -03441.8 -07.5331 26253.4
 04 05 2013  09 26  -21.0174 26026.9 -03441.8 -07.5331 26253.5
 04 05 2013  09 27  -21.0168 26027.1 -03441.9 -07.5332 26253.7
 04 05 2013  09 28  -21.0163 26027.3 -03442.0 -07.5333 26253.9
 04 05 2013  09 29  -21.0161 26027.5 -03442.0 -07.5334 26254.1
 04 05 2013  09 30  -21.0158 26027.6 -03442.1 -07.5335 26254.2
 04 05 2013  09 31  -21.0160 26027.7 -03442.1 -07.5335 26254.3
 04 05 2013  09 32  -21.0159 26027.8 -03442.2 -07.5336 26254.4
 04 05 2013  09 33  -21.0159 26027.8 -03442.2 -07.5336 26254.4
 04 05 2013  09 34  -21.0159 26027.8 -03442.2 -07.5336 26254.4
 04 05 2013  09 35  -21.0161 26027.8 -03442.2 -07.5337 26254.5
 04 05 2013  09 36  -21.0165 26028.0 -03442.3 -07.5338 26254.6
 04 05 2013  09 37  -21.0169 26028.2 -03442.3 -07.5339 26254.8
 04 05 2013  09 38  -21.0169 26028.4 -03442.4 -07.5340 26255.0
 04 05 2013  09 39  -21.0168 26028.6 -03442.4 -07.5340 26255.2
 04 05 2013  09 40  -21.0167 26028.6 -03442.4 -07.5339 26255.3
 04 05 2013  09 41  -21.0166 26028.6 -03442.3 -07.5337 26255.2
 04 05 2013  09 42  -21.0169 26028.6 -03442.3 -07.5337 26255.3
 04 05 2013  09 43  -21.0172 26028.7 -03442.3 -07.5337 26255.3
 04 05 2013  09 44  -21.0173 26028.7 -03442.3 -07.5337 26255.4
 04 05 2013  09 45  -21.0175 26028.8 -03442.4 -07.5337 26255.4
 04 05 2013  09 46  -21.0180 26028.8 -03442.4 -07.5338 26255.5
 04 05 2013  09 47  -21.0187 26028.8 -03442.4 -07.5338 26255.4
 04 05 2013  09 48  -21.0193 26028.9 -03442.4 -07.5338 26255.5
 04 05 2013  09 49  -21.0195 26029.0 -03442.4 -07.5337 26255.6
 04 05 2013  09 50  -21.0198 26029.1 -03442.4 -07.5337 26255.7
 04 05 2013  09 51  -21.0201 26029.2 -03442.4 -07.5337 26255.8
 04 05 2013  09 52  -21.0207 26029.2 -03442.4 -07.5337 26255.9
 04 05 2013  09 53  -21.0213 26029.4 -03442.4 -07.5337 26256.0
 04 05 2013  09 54  -21.0216 26029.5 -03442.4 -07.5337 26256.2
 04 05 2013  09 55  -21.0218 26029.6 -03442.4 -07.5336 26256.3
 04 05 2013  09 56  -21.0221 26029.7 -03442.4 -07.5336 26256.4
 04 05 2013  09 57  -21.0227 26029.8 -03442.4 -07.5335 26256.4
 04 05 2013  09 58  -21.0233 26029.9 -03442.4 -07.5335 26256.5
 04 05 2013  09 59  -21.0240 26030.0 -03442.4 -07.5335 26256.6
 04 05 2013  10 00  -21.0248 26030.1 -03442.4 -07.5334 26256.7
 04 05 2013  10 01  -21.0253 26030.2 -03442.3 -07.5332 26256.8
 04 05 2013  10 02  -21.0258 26030.3 -03442.3 -07.5331 26256.9
 04 05 2013  10 03  -21.0264 26030.4 -03442.2 -07.5330 26257.0
 04 05 2013  10 04  -21.0269 26030.5 -03442.2 -07.5329 26257.1
 04 05 2013  10 05  -21.0274 26030.7 -03442.2 -07.5329 26257.3
 04 05 2013  10 06  -21.0278 26030.9 -03442.2 -07.5327 26257.5
 04 05 2013  10 07  -21.0283 26031.1 -03442.1 -07.5326 26257.6
 04 05 2013  10 08  -21.0288 26031.2 -03442.1 -07.5324 26257.8
 04 05 2013  10 09  -21.0295 26031.3 -03442.0 -07.5323 26257.9
 04 05 2013  10 10  -21.0302 26031.5 -03442.0 -07.5322 26258.0
 04 05 2013  10 11  -21.0310 26031.6 -03441.9 -07.5320 26258.2
 04 05 2013  10 12  -21.0317 26031.7 -03441.9 -07.5318 26258.3
 04 05 2013  10 13  -21.0324 26031.9 -03441.8 -07.5317 26258.4
 04 05 2013  10 14  -21.0332 26032.0 -03441.7 -07.5315 26258.5
 04 05 2013  10 15  -21.0338 26032.2 -03441.7 -07.5314 26258.7
 04 05 2013  10 16  -21.0344 26032.4 -03441.6 -07.5311 26258.9
 04 05 2013  10 17  -21.0349 26032.5 -03441.5 -07.5309 26259.0
 04 05 2013  10 18  -21.0355 26032.6 -03441.5 -07.5307 26259.1
 04 05 2013  10 19  -21.0360 26032.7 -03441.4 -07.5306 26259.2
 04 05 2013  10 20  -21.0367 26032.8 -03441.3 -07.5304 26259.3
 04 05 2013  10 21  -21.0372 26033.0 -03441.3 -07.5302 26259.5
 04 05 2013  10 22  -21.0376 26033.2 -03441.3 -07.5301 26259.7
 04 05 2013  10 23  -21.0380 26033.4 -03441.2 -07.5299 26259.9
 04 05 2013  10 24  -21.0385 26033.6 -03441.1 -07.5298 26260.0
 04 05 2013  10 25  -21.0393 26033.7 -03441.1 -07.5297 26260.2
 04 05 2013  10 26  -21.0400 26034.0 -03441.1 -07.5296 26260.4
 04 05 2013  10 27  -21.0409 26034.2 -03441.1 -07.5295 26260.6
 04 05 2013  10 28  -21.0415 26034.4 -03441.0 -07.5293 26260.8
 04 05 2013  10 29  -21.0421 26034.5 -03440.9 -07.5290 26260.9
 04 05 2013  10 30  -21.0426 26034.7 -03440.9 -07.5289 26261.1
 04 05 2013  10 31  -21.0430 26034.9 -03440.8 -07.5287 26261.3
 04 05 2013  10 32  -21.0433 26035.1 -03440.8 -07.5285 26261.5
 04 05 2013  10 33  -21.0438 26035.3 -03440.7 -07.5282 26261.6
 04 05 2013  10 34  -21.0445 26035.4 -03440.6 -07.5280 26261.8
 04 05 2013  10 35  -21.0454 26035.5 -03440.5 -07.5278 26261.9
 04 05 2013  10 36  -21.0462 26035.7 -03440.4 -07.5276 26262.0
 04 05 2013  10 37  -21.0468 26036.0 -03440.3 -07.5273 26262.3
 04 05 2013  10 38  -21.0472 26036.3 -03440.3 -07.5271 26262.6
 04 05 2013  10 39  -21.0477 26036.4 -03440.1 -07.5267 26262.7
 04 05 2013  10 40  -21.0484 26036.5 -03440.0 -07.5264 26262.8
 04 05 2013  10 41  -21.0488 26037.0 -03440.0 -07.5263 26263.2
 04 05 2013  10 42  -21.0494 26037.2 -03439.9 -07.5260 26263.5
 04 05 2013  10 43  -21.0503 26037.4 -03439.8 -07.5257 26263.6
 04 05 2013  10 44  -21.0511 26037.6 -03439.6 -07.5253 26263.8
 04 05 2013  10 45  -21.0516 26038.1 -03439.6 -07.5251 26264.3
 04 05 2013  10 46  -21.0521 26038.4 -03439.5 -07.5247 26264.6
 04 05 2013  10 47  -21.0523 26038.7 -03439.3 -07.5243 26264.8
 04 05 2013  10 48  -21.0525 26039.1 -03439.2 -07.5239 26265.2
 04 05 2013  10 49  -21.0528 26039.5 -03439.1 -07.5236 26265.7
 04 05 2013  10 50  -21.0529 26040.2 -03439.0 -07.5232 26266.3
 04 05 2013  10 51  -21.0531 26040.6 -03438.8 -07.5227 26266.7
 04 05 2013  10 52  -21.0538 26041.0 -03438.6 -07.5222 26267.1
 04 05 2013  10 53  -21.0541 26041.5 -03438.4 -07.5216 26267.6
 04 05 2013  10 54  -21.0543 26041.9 -03438.2 -07.5210 26267.9
 04 05 2013  10 55  -21.0548 26042.1 -03437.9 -07.5204 26268.1
 04 05 2013  10 56  -21.0554 26042.4 -03437.7 -07.5198 26268.3
 04 05 2013  10 57  -21.0560 26042.8 -03437.5 -07.5192 26268.7
 04 05 2013  10 58  -21.0573 26042.8 -03437.2 -07.5185 26268.7
 04 05 2013  10 59  -21.0579 26043.1 -03436.9 -07.5179 26268.9
 04 05 2013  11 00  -21.0585 26043.4 -03436.7 -07.5173 26269.1
 04 05 2013  11 01  -21.0594 26043.8 -03436.6 -07.5169 26269.5
 04 05 2013  11 02  -21.0605 26043.9 -03436.3 -07.5162 26269.6
 04 05 2013  11 03  -21.0611 26044.3 -03436.1 -07.5157 26270.0
 04 05 2013  11 04  -21.0619 26044.5 -03435.8 -07.5150 26270.1
 04 05 2013  11 05  -21.0630 26044.8 -03435.6 -07.5145 26270.4
 04 05 2013  11 06  -21.0637 26045.1 -03435.3 -07.5139 26270.7
 04 05 2013  11 07  -21.0643 26045.5 -03435.1 -07.5133 26271.1
 04 05 2013  11 08  -21.0648 26045.8 -03434.8 -07.5125 26271.3
 04 05 2013  11 09  -21.0653 26046.1 -03434.5 -07.5118 26271.6
 04 05 2013  11 10  -21.0656 26046.5 -03434.2 -07.5111 26272.0
 04 05 2013  11 11  -21.0660 26046.8 -03433.9 -07.5103 26272.2
 04 05 2013  11 12  -21.0666 26046.9 -03433.6 -07.5095 26272.3
 04 05 2013  11 13  -21.0673 26047.0 -03433.2 -07.5087 26272.3
 04 05 2013  11 14  -21.0681 26047.2 -03432.8 -07.5079 26272.4
 04 05 2013  11 15  -21.0690 26047.2 -03432.5 -07.5071 26272.3
 04 05 2013  11 16  -21.0689 26047.6 -03432.2 -07.5064 26272.7
 04 05 2013  11 17  -21.0691 26047.4 -03431.7 -07.5054 26272.5
 04 05 2013  11 18  -21.0701 26046.8 -03431.2 -07.5044 26271.9
 04 05 2013  11 19  -21.0708 26047.0 -03430.9 -07.5038 26272.0
 04 05 2013  11 20  -21.0714 26047.4 -03430.7 -07.5033 26272.4
 04 05 2013  11 21  -21.0724 26047.5 -03430.4 -07.5025 26272.4
 04 05 2013  11 22  -21.0733 26047.5 -03430.0 -07.5016 26272.4
 04 05 2013  11 23  -21.0740 26047.7 -03429.6 -07.5008 26272.5
 04 05 2013  11 24  -21.0747 26047.6 -03429.1 -07.4998 26272.4
 04 05 2013  11 25  -21.0750 26047.3 -03428.6 -07.4986 26272.0
 04 05 2013  11 26  -21.0749 26047.1 -03428.0 -07.4974 26271.7
 04 05 2013  11 27  -21.0749 26046.7 -03427.4 -07.4962 26271.2
 04 05 2013  11 28  -21.0749 26046.4 -03426.8 -07.4951 26270.9
 04 05 2013  11 29  -21.0745 26046.5 -03426.4 -07.4942 26270.9
 04 05 2013  11 30  -21.0746 26046.6 -03426.1 -07.4935 26271.0
 04 05 2013  11 31  -21.0744 26046.8 -03425.7 -07.4927 26271.2
 04 05 2013  11 32  -21.0739 26047.3 -03425.5 -07.4920 26271.6
 04 05 2013  11 33  -21.0735 26047.7 -03425.1 -07.4911 26271.9
 04 05 2013  11 34  -21.0739 26047.7 -03424.7 -07.4902 26271.9
 04 05 2013  11 35  -21.0742 26047.6 -03424.2 -07.4892 26271.7
 04 05 2013  11 36  -21.0743 26047.7 -03423.8 -07.4883 26271.7
 04 05 2013  11 37  -21.0741 26047.8 -03423.4 -07.4873 26271.8
 04 05 2013  11 38  -21.0737 26048.0 -03423.0 -07.4864 26271.9
 04 05 2013  11 39  -21.0734 26048.2 -03422.6 -07.4855 26272.1
 04 05 2013  11 40  -21.0730 26048.4 -03422.2 -07.4846 26272.2
 04 05 2013  11 41  -21.0721 26048.8 -03421.9 -07.4837 26272.6
 04 05 2013  11 42  -21.0714 26049.1 -03421.4 -07.4827 26272.9
 04 05 2013  11 43  -21.0702 26049.8 -03421.1 -07.4818 26273.5
 04 05 2013  11 44  -21.0687 26050.3 -03420.7 -07.4808 26274.0
 04 05 2013  11 45  -21.0674 26050.5 -03420.1 -07.4795 26274.0
 04 05 2013  11 46  -21.0666 26050.3 -03419.6 -07.4783 26273.8
 04 05 2013  11 47  -21.0659 26050.4 -03419.2 -07.4775 26273.9
 04 05 2013  11 48  -21.0653 26050.8 -03418.9 -07.4768 26274.1
 04 05 2013  11 49  -21.0643 26051.3 -03418.7 -07.4763 26274.6
 04 05 2013  11 50  -21.0634 26051.4 -03418.4 -07.4755 26274.8
 04 05 2013  11 51  -21.0625 26051.8 -03418.2 -07.4749 26275.0
 04 05 2013  11 52  -21.0617 26052.2 -03418.0 -07.4744 26275.4
 04 05 2013  11 53  -21.0609 26052.5 -03417.7 -07.4737 26275.7
 04 05 2013  11 54  -21.0603 26052.7 -03417.5 -07.4731 26275.9
 04 05 2013  11 55  -21.0595 26053.2 -03417.3 -07.4726 26276.4
 04 05 2013  11 56  -21.0586 26053.9 -03417.2 -07.4722 26277.1
 04 05 2013  11 57  -21.0574 26054.8 -03417.1 -07.4717 26277.9
 04 05 2013  11 58  -21.0562 26055.7 -03417.0 -07.4711 26278.8
 04 05 2013  11 59  -21.0550 26056.5 -03416.7 -07.4705 26279.6
 04 05 2013  12 00  -21.0539 26057.1 -03416.4 -07.4696 26280.1
 04 05 2013  12 01  -21.0529 26057.5 -03416.0 -07.4686 26280.4
 04 05 2013  12 02  -21.0520 26057.5 -03415.5 -07.4675 26280.4
 04 05 2013  12 03  -21.0506 26057.7 -03415.0 -07.4663 26280.5
 04 05 2013  12 04  -21.0493 26057.7 -03414.5 -07.4653 26280.4
 04 05 2013  12 05  -21.0481 26058.0 -03414.2 -07.4646 26280.7
 04 05 2013  12 06  -21.0469 26058.6 -03414.1 -07.4641 26281.3
 04 05 2013  12 07  -21.0456 26059.2 -03413.9 -07.4636 26281.9
 04 05 2013  12 08  -21.0440 26059.7 -03413.6 -07.4629 26282.3
 04 05 2013  12 09  -21.0425 26060.1 -03413.4 -07.4623 26282.7
 04 05 2013  12 10  -21.0414 26060.2 -03413.1 -07.4616 26282.7
 04 05 2013  12 11  -21.0402 26060.1 -03412.9 -07.4610 26282.6
 04 05 2013  12 12  -21.0391 26060.0 -03412.6 -07.4606 26282.5
 04 05 2013  12 13  -21.0379 26060.0 -03412.5 -07.4603 26282.5
 04 05 2013  12 14  -21.0366 26060.0 -03412.4 -07.4600 26282.5
 04 05 2013  12 15  -21.0352 26059.9 -03412.3 -07.4598 26282.3
 04 05 2013  12 16  -21.0337 26059.6 -03412.1 -07.4595 26282.0
 04 05 2013  12 17  -21.0322 26059.4 -03412.0 -07.4595 26281.8
 04 05 2013  12 18  -21.0307 26059.6 -03412.2 -07.4597 26282.1
 04 05 2013  12 19  -21.0293 26059.7 -03412.3 -07.4600 26282.2
 04 05 2013  12 20  -21.0279 26059.5 -03412.4 -07.4602 26282.0
 04 05 2013  12 21  -21.0268 26059.5 -03412.5 -07.4605 26282.0
 04 05 2013  12 22  -21.0257 26059.5 -03412.7 -07.4610 26282.0
 04 05 2013  12 23  -21.0248 26059.7 -03413.0 -07.4615 26282.2
 04 05 2013  12 24  -21.0238 26059.9 -03413.3 -07.4620 26282.5
 04 05 2013  12 25  -21.0230 26060.0 -03413.5 -07.4626 26282.6
 04 05 2013  12 26  -21.0223 26060.2 -03413.8 -07.4631 26282.9
 04 05 2013  12 27  -21.0220 26060.7 -03414.1 -07.4636 26283.4
 04 05 2013  12 28  -21.0216 26061.1 -03414.3 -07.4639 26283.9
 04 05 2013  12 29  -21.0212 26061.6 -03414.5 -07.4642 26284.3
 04 05 2013  12 30  -21.0209 26062.4 -03414.8 -07.4646 26285.2
 04 05 2013  12 31  -21.0206 26063.2 -03415.1 -07.4649 26286.0
 04 05 2013  12 32  -21.0203 26063.9 -03415.3 -07.4652 26286.7
 04 05 2013  12 33  -21.0197 26064.4 -03415.4 -07.4654 26287.2
 04 05 2013  12 34  -21.0192 26064.8 -03415.6 -07.4656 26287.7
 04 05 2013  12 35  -21.0190 26065.2 -03415.7 -07.4656 26288.1
 04 05 2013  12 36  -21.0190 26065.6 -03415.7 -07.4655 26288.5
 04 05 2013  12 37  -21.0192 26066.4 -03415.7 -07.4655 26289.3
 04 05 2013  12 38  -21.0191 26066.9 -03415.7 -07.4653 26289.7
 04 05 2013  12 39  -21.0186 26067.0 -03415.7 -07.4651 26289.8
 04 05 2013  12 40  -21.0179 26067.4 -03415.8 -07.4654 26290.2
 04 05 2013  12 41  -21.0172 26067.8 -03416.1 -07.4658 26290.7
 04 05 2013  12 42  -21.0163 26068.2 -03416.4 -07.4663 26291.1
 04 05 2013  12 43  -21.0153 26068.3 -03416.6 -07.4667 26291.3
 04 05 2013  12 44  -21.0145 26068.5 -03416.8 -07.4673 26291.5
 04 05 2013  12 45  -21.0137 26068.6 -03417.1 -07.4678 26291.7
 04 05 2013  12 46  -21.0130 26068.7 -03417.3 -07.4683 26291.7
 04 05 2013  12 47  -21.0124 26068.9 -03417.6 -07.4689 26292.0
 04 05 2013  12 48  -21.0119 26069.2 -03418.0 -07.4696 26292.3
 04 05 2013  12 49  -21.0115 26069.8 -03418.4 -07.4704 26293.0
 04 05 2013  12 50  -21.0114 26070.4 -03418.9 -07.4711 26293.6
 04 05 2013  12 51  -21.0114 26070.6 -03419.1 -07.4715 26293.8
 04 05 2013  12 52  -21.0113 26070.6 -03419.2 -07.4718 26293.9
 04 05 2013  12 53  -21.0112 26070.5 -03419.4 -07.4722 26293.8
 04 05 2013  12 54  -21.0114 26070.6 -03419.7 -07.4728 26293.9
 04 05 2013  12 55  -21.0116 26070.9 -03420.1 -07.4735 26294.3
 04 05 2013  12 56  -21.0118 26071.1 -03420.4 -07.4742 26294.5
 04 05 2013  12 57  -21.0121 26071.3 -03420.8 -07.4750 26294.8
 04 05 2013  12 58  -21.0124 26071.7 -03421.3 -07.4759 26295.3
 04 05 2013  12 59  -21.0127 26072.2 -03421.7 -07.4767 26295.7
 04 05 2013  13 00  -21.0132 26072.4 -03422.0 -07.4774 26296.0
 04 05 2013  13 01  -21.0138 26072.5 -03422.4 -07.4781 26296.1
 04 05 2013  13 02  -21.0145 26073.0 -03422.9 -07.4790 26296.7
 04 05 2013  13 03  -21.0154 26073.2 -03423.3 -07.4799 26297.0
 04 05 2013  13 04  -21.0162 26073.3 -03423.6 -07.4806 26297.1
 04 05 2013  13 05  -21.0171 26073.5 -03423.9 -07.4812 26297.4
 04 05 2013  13 06  -21.0179 26073.6 -03424.1 -07.4816 26297.4
 04 05 2013  13 07  -21.0190 26073.7 -03424.5 -07.4823 26297.6
 04 05 2013  13 08  -21.0203 26073.8 -03424.7 -07.4828 26297.8
 04 05 2013  13 09  -21.0217 26073.8 -03424.9 -07.4833 26297.8
 04 05 2013  13 10  -21.0234 26073.9 -03425.2 -07.4838 26297.9
 04 05 2013  13 11  -21.0250 26073.6 -03425.4 -07.4842 26297.7
 04 05 2013  13 12  -21.0265 26073.1 -03425.5 -07.4846 26297.2
 04 05 2013  13 13  -21.0279 26072.5 -03425.6 -07.4849 26296.6
 04 05 2013  13 14  -21.0293 26072.0 -03425.7 -07.4855 26296.1
 04 05 2013  13 15  -21.0305 26071.8 -03426.0 -07.4862 26295.9
 04 05 2013  13 16  -21.0318 26071.7 -03426.3 -07.4869 26295.9
 04 05 2013  13 17  -21.0330 26071.8 -03426.7 -07.4876 26296.1
 04 05 2013  13 18  -21.0340 26072.1 -03427.0 -07.4882 26296.4
 04 05 2013  13 19  -21.0352 26072.3 -03427.3 -07.4887 26296.6
 04 05 2013  13 20  -21.0362 26072.1 -03427.3 -07.4889 26296.4
 04 05 2013  13 21  -21.0372 26072.1 -03427.5 -07.4892 26296.4
 04 05 2013  13 22  -21.0383 26072.2 -03427.6 -07.4895 26296.6
 04 05 2013  13 23  -21.0394 26072.5 -03427.8 -07.4898 26296.8
 04 05 2013  13 24  -21.0402 26072.8 -03427.9 -07.4899 26297.1
 04 05 2013  13 25  -21.0411 26073.2 -03428.1 -07.4902 26297.6
 04 05 2013  13 26  -21.0420 26073.5 -03428.1 -07.4902 26297.9
 04 05 2013  13 27  -21.0429 26073.7 -03428.1 -07.4902 26298.1
 04 05 2013  13 28  -21.0439 26073.7 -03428.1 -07.4900 26298.1
 04 05 2013  13 29  -21.0448 26074.1 -03428.1 -07.4901 26298.5
 04 05 2013  13 30  -21.0457 26074.5 -03428.2 -07.4901 26298.9
 04 05 2013  13 31  -21.0466 26074.7 -03428.1 -07.4898 26299.0
 04 05 2013  13 32  -21.0473 26075.0 -03428.0 -07.4896 26299.3
 04 05 2013  13 33  -21.0481 26075.1 -03427.9 -07.4893 26299.5
 04 05 2013  13 34  -21.0489 26075.3 -03427.8 -07.4891 26299.6
 04 05 2013  13 35  -21.0495 26075.1 -03427.6 -07.4886 26299.4
 04 05 2013  13 36  -21.0501 26075.1 -03427.4 -07.4883 26299.4
 04 05 2013  13 37  -21.0508 26075.2 -03427.3 -07.4880 26299.5
 04 05 2013  13 38  -21.0517 26075.5 -03427.3 -07.4878 26299.7
 04 05 2013  13 39  -21.0524 26075.6 -03427.1 -07.4874 26299.8
 04 05 2013  13 40  -21.0529 26075.8 -03427.0 -07.4871 26300.1
 04 05 2013  13 41  -21.0535 26075.8 -03426.7 -07.4866 26300.0
 04 05 2013  13 42  -21.0541 26075.7 -03426.5 -07.4861 26299.9
 04 05 2013  13 43  -21.0548 26075.7 -03426.3 -07.4857 26299.9
 04 05 2013  13 44  -21.0556 26075.7 -03426.1 -07.4852 26299.9
 04 05 2013  13 45  -21.0562 26076.0 -03426.0 -07.4849 26300.1
 04 05 2013  13 46  -21.0569 26075.9 -03425.7 -07.4844 26300.0
 04 05 2013  13 47  -21.0576 26076.1 -03425.6 -07.4840 26300.2
 04 05 2013  13 48  -21.0582 26076.1 -03425.3 -07.4834 26300.1
 04 05 2013  13 49  -21.0587 26075.8 -03425.0 -07.4828 26299.8
 04 05 2013  13 50  -21.0590 26075.6 -03424.7 -07.4821 26299.5
 04 05 2013  13 51  -21.0593 26075.3 -03424.4 -07.4816 26299.2
 04 05 2013  13 52  -21.0596 26075.5 -03424.3 -07.4814 26299.4
 04 05 2013  13 53  -21.0601 26075.6 -03424.2 -07.4811 26299.5
 04 05 2013  13 54  -21.0606 26075.4 -03423.9 -07.4806 26299.2
 04 05 2013  13 55  -21.0608 26075.3 -03423.7 -07.4801 26299.1
 04 05 2013  13 56  -21.0611 26075.4 -03423.6 -07.4799 26299.2
 04 05 2013  13 57  -21.0615 26075.2 -03423.4 -07.4796 26298.9
 04 05 2013  13 58  -21.0616 26075.1 -03423.3 -07.4793 26298.9
 04 05 2013  13 59  -21.0619 26075.2 -03423.2 -07.4792 26299.0
 04 05 2013  14 00  -21.0622 26074.9 -03423.1 -07.4789 26298.7
 04 05 2013  14 01  -21.0623 26075.0 -03423.1 -07.4789 26298.7
 04 05 2013  14 02  -21.0626 26075.1 -03423.1 -07.4789 26298.8
 04 05 2013  14 03  -21.0630 26075.0 -03423.0 -07.4788 26298.7
 04 05 2013  14 04  -21.0634 26074.7 -03422.9 -07.4787 26298.4
 04 05 2013  14 05  -21.0637 26074.5 -03422.8 -07.4785 26298.2
 04 05 2013  14 06  -21.0640 26074.3 -03422.7 -07.4782 26297.9
 04 05 2013  14 07  -21.0638 26074.0 -03422.6 -07.4781 26297.6
 04 05 2013  14 08  -21.0639 26073.9 -03422.5 -07.4780 26297.5
 04 05 2013  14 09  -21.0637 26073.3 -03422.3 -07.4777 26296.9
 04 05 2013  14 10  -21.0635 26072.9 -03422.2 -07.4777 26296.5
 04 05 2013  14 11  -21.0635 26072.4 -03422.2 -07.4778 26296.1
 04 05 2013  14 12  -21.0636 26072.3 -03422.3 -07.4781 26295.9
 04 05 2013  14 13  -21.0639 26072.3 -03422.5 -07.4785 26296.0
 04 05 2013  14 14  -21.0641 26072.5 -03422.7 -07.4788 26296.2
 04 05 2013  14 15  -21.0643 26072.3 -03422.8 -07.4790 26296.0
 04 05 2013  14 16  -21.0644 26072.2 -03422.9 -07.4792 26296.0
 04 05 2013  14 17  -21.0644 26072.2 -03423.0 -07.4795 26295.9
 04 05 2013  14 18  -21.0643 26072.3 -03423.1 -07.4798 26296.1
 04 05 2013  14 19  -21.0644 26072.4 -03423.2 -07.4800 26296.2
 04 05 2013  14 20  -21.0647 26072.5 -03423.3 -07.4802 26296.3
 04 05 2013  14 21  -21.0655 26073.1 -03423.6 -07.4806 26296.9
 04 05 2013  14 22  -21.0660 26073.8 -03423.8 -07.4808 26297.6
 04 05 2013  14 23  -21.0664 26074.5 -03423.9 -07.4809 26298.3
 04 05 2013  14 24  -21.0664 26073.9 -03423.5 -07.4801 26297.7
 04 05 2013  14 25  -21.0663 26073.2 -03423.2 -07.4796 26297.0
 04 05 2013  14 26  -21.0660 26072.9 -03423.1 -07.4796 26296.6
 04 05 2013  14 27  -21.0655 26073.0 -03423.2 -07.4798 26296.8
 04 05 2013  14 28  -21.0654 26072.8 -03423.3 -07.4801 26296.6
 04 05 2013  14 29  -21.0655 26072.7 -03423.4 -07.4802 26296.5
 04 05 2013  14 30  -21.0662 26072.7 -03423.5 -07.4805 26296.5
 04 05 2013  14 31  -21.0669 26073.0 -03423.6 -07.4807 26296.8
 04 05 2013  14 32  -21.0674 26073.8 -03424.0 -07.4811 26297.7
 04 05 2013  14 33  -21.0679 26074.2 -03423.9 -07.4810 26298.1
 04 05 2013  14 34  -21.0685 26074.6 -03424.0 -07.4809 26298.4
 04 05 2013  14 35  -21.0686 26074.3 -03423.7 -07.4804 26298.1
 04 05 2013  14 36  -21.0685 26073.9 -03423.4 -07.4799 26297.7
 04 05 2013  14 37  -21.0684 26074.0 -03423.4 -07.4799 26297.8
 04 05 2013  14 38  -21.0685 26074.5 -03423.6 -07.4801 26298.3
 04 05 2013  14 39  -21.0689 26074.9 -03423.7 -07.4803 26298.7
 04 05 2013  14 40  -21.0695 26075.2 -03423.7 -07.4803 26299.0
 04 05 2013  14 41  -21.0699 26075.3 -03423.7 -07.4801 26299.1
 04 05 2013  14 42  -21.0700 26075.3 -03423.6 -07.4800 26299.1
 04 05 2013  14 43  -21.0703 26075.2 -03423.5 -07.4798 26299.0
 04 05 2013  14 44  -21.0708 26075.0 -03423.4 -07.4797 26298.8
 04 05 2013  14 45  -21.0712 26074.7 -03423.3 -07.4794 26298.4
 04 05 2013  14 46  -21.0716 26074.3 -03423.1 -07.4792 26298.0
 04 05 2013  14 47  -21.0721 26074.0 -03423.1 -07.4791 26297.8
 04 05 2013  14 48  -21.0726 26073.8 -03423.0 -07.4790 26297.5
 04 05 2013  14 49  -21.0733 26073.9 -03423.1 -07.4792 26297.6
 04 05 2013  14 50  -21.0740 26073.8 -03423.0 -07.4792 26297.6
 04 05 2013  14 51  -21.0745 26073.7 -03423.0 -07.4790 26297.4
 04 05 2013  14 52  -21.0749 26073.5 -03422.9 -07.4789 26297.2
 04 05 2013  14 53  -21.0753 26073.4 -03422.8 -07.4788 26297.1
 04 05 2013  14 54  -21.0757 26073.3 -03422.7 -07.4787 26297.0
 04 05 2013  14 55  -21.0761 26073.1 -03422.6 -07.4785 26296.8
 04 05 2013  14 56  -21.0766 26073.1 -03422.6 -07.4785 26296.7
 04 05 2013  14 57  -21.0773 26073.3 -03422.7 -07.4785 26296.9
 04 05 2013  14 58  -21.0780 26073.4 -03422.7 -07.4785 26297.1
 04 05 2013  14 59  -21.0787 26073.5 -03422.6 -07.4783 26297.2
 04 05 2013  15 00  -21.0792 26073.6 -03422.6 -07.4782 26297.3
 04 05 2013  15 01  -21.0798 26073.8 -03422.6 -07.4782 26297.5
 04 05 2013  15 02  -21.0803 26073.9 -03422.6 -07.4781 26297.6
 04 05 2013  15 03  -21.0804 26074.0 -03422.5 -07.4779 26297.6
 04 05 2013  15 04  -21.0807 26073.9 -03422.4 -07.4776 26297.6
 04 05 2013  15 05  -21.0811 26074.1 -03422.3 -07.4776 26297.8
 04 05 2013  15 06  -21.0820 26074.4 -03422.3 -07.4775 26298.0
 04 05 2013  15 07  -21.0831 26074.5 -03422.3 -07.4773 26298.1
 04 05 2013  15 08  -21.0840 26074.8 -03422.2 -07.4771 26298.4
 04 05 2013  15 09  -21.0849 26075.0 -03422.1 -07.4768 26298.6
 04 05 2013  15 10  -21.0853 26075.0 -03421.8 -07.4762 26298.6
 04 05 2013  15 11  -21.0855 26075.0 -03421.6 -07.4756 26298.5
 04 05 2013  15 12  -21.0859 26074.9 -03421.3 -07.4752 26298.4
 04 05 2013  15 13  -21.0864 26075.0 -03421.2 -07.4749 26298.5
 04 05 2013  15 14  -21.0872 26075.1 -03421.1 -07.4747 26298.6
 04 05 2013  15 15  -21.0879 26075.4 -03421.0 -07.4743 26298.8
 04 05 2013  15 16  -21.0886 26075.8 -03420.9 -07.4740 26299.2
 04 05 2013  15 17  -21.0891 26075.9 -03420.6 -07.4734 26299.3
 04 05 2013  15 18  -21.0894 26075.8 -03420.2 -07.4725 26299.1
 04 05 2013  15 19  -21.0896 26075.5 -03419.8 -07.4716 26298.8
 04 05 2013  15 20  -21.0895 26075.2 -03419.3 -07.4708 26298.4
 04 05 2013  15 21  -21.0893 26075.1 -03419.1 -07.4702 26298.3
 04 05 2013  15 22  -21.0893 26075.3 -03419.0 -07.4699 26298.5
 04 05 2013  15 23  -21.0897 26075.5 -03418.8 -07.4695 26298.6
 04 05 2013  15 24  -21.0901 26075.8 -03418.7 -07.4692 26298.9
 04 05 2013  15 25  -21.0906 26076.2 -03418.5 -07.4687 26299.4
 04 05 2013  15 26  -21.0909 26076.4 -03418.3 -07.4681 26299.5
 04 05 2013  15 27  -21.0909 26076.5 -03417.9 -07.4673 26299.5
 04 05 2013  15 28  -21.0908 26076.6 -03417.6 -07.4666 26299.6
 04 05 2013  15 29  -21.0906 26076.7 -03417.3 -07.4659 26299.6
 04 05 2013  15 30  -21.0904 26076.8 -03416.9 -07.4651 26299.7
 04 05 2013  15 31  -21.0903 26077.0 -03416.6 -07.4644 26299.9
 04 05 2013  15 32  -21.0902 26077.2 -03416.4 -07.4637 26300.1
 04 05 2013  15 33  -21.0901 26077.6 -03416.1 -07.4631 26300.4
 04 05 2013  15 34  -21.0897 26077.8 -03415.7 -07.4623 26300.6
 04 05 2013  15 35  -21.0892 26078.0 -03415.4 -07.4614 26300.7
 04 05 2013  15 36  -21.0884 26078.0 -03415.0 -07.4605 26300.7
 04 05 2013  15 37  -21.0875 26078.0 -03414.5 -07.4596 26300.6
 04 05 2013  15 38  -21.0868 26078.2 -03414.3 -07.4590 26300.7
 04 05 2013  15 39  -21.0862 26078.5 -03414.1 -07.4584 26301.0
 04 05 2013  15 40  -21.0857 26078.7 -03413.8 -07.4578 26301.2
 04 05 2013  15 41  -21.0850 26078.6 -03413.3 -07.4568 26301.0
 04 05 2013  15 42  -21.0844 26078.7 -03413.0 -07.4560 26301.1
 04 05 2013  15 43  -21.0836 26079.0 -03412.7 -07.4553 26301.3
 04 05 2013  15 44  -21.0825 26079.3 -03412.4 -07.4545 26301.6
 04 05 2013  15 45  -21.0818 26078.9 -03411.8 -07.4535 26301.1
 04 05 2013  15 46  -21.0812 26078.6 -03411.4 -07.4526 26300.8
 04 05 2013  15 47  -21.0800 26077.8 -03410.9 -07.4517 26300.0
 04 05 2013  15 48  -21.0793 26077.3 -03410.6 -07.4513 26299.4
 04 05 2013  15 49  -21.0788 26077.6 -03410.6 -07.4513 26299.7
 04 05 2013  15 50  -21.0783 26078.7 -03411.0 -07.4517 26300.8
 04 05 2013  15 51  -21.0781 26079.5 -03411.1 -07.4517 26301.6
 04 05 2013  15 52  -21.0774 26079.8 -03410.9 -07.4511 26301.9
 04 05 2013  15 53  -21.0767 26079.9 -03410.6 -07.4506 26302.0
 04 05 2013  15 54  -21.0760 26080.0 -03410.4 -07.4501 26302.1
 04 05 2013  15 55  -21.0756 26080.4 -03410.3 -07.4498 26302.4
 04 05 2013  15 56  -21.0749 26080.4 -03410.1 -07.4492 26302.4
 04 05 2013  15 57  -21.0744 26080.3 -03409.7 -07.4486 26302.2
 04 05 2013  15 58  -21.0738 26080.0 -03409.4 -07.4480 26301.9
 04 05 2013  15 59  -21.0734 26079.9 -03409.2 -07.4475 26301.7
 04 05 2013  16 00  -21.0728 26079.5 -03408.9 -07.4469 26301.4
 04 05 2013  16 01  -21.0722 26078.8 -03408.5 -07.4464 26300.6
 04 05 2013  16 02  -21.0719 26078.3 -03408.4 -07.4462 26300.1
 04 05 2013  16 03  -21.0714 26078.0 -03408.3 -07.4461 26299.8
 04 05 2013  16 04  -21.0711 26078.1 -03408.4 -07.4463 26299.9
 04 05 2013  16 05  -21.0710 26078.4 -03408.5 -07.4465 26300.2
 04 05 2013  16 06  -21.0708 26078.6 -03408.6 -07.4467 26300.4
 04 05 2013  16 07  -21.0705 26078.6 -03408.6 -07.4467 26300.5
 04 05 2013  16 08  -21.0701 26078.5 -03408.6 -07.4466 26300.3
 04 05 2013  16 09  -21.0698 26078.3 -03408.5 -07.4464 26300.1
 04 05 2013  16 10  -21.0692 26078.0 -03408.4 -07.4462 26299.8
 04 05 2013  16 11  -21.0689 26077.7 -03408.2 -07.4461 26299.5
 04 05 2013  16 12  -21.0689 26077.6 -03408.3 -07.4462 26299.4
 04 05 2013  16 13  -21.0690 26077.6 -03408.4 -07.4464 26299.4
 04 05 2013  16 14  -21.0690 26077.6 -03408.4 -07.4465 26299.4
 04 05 2013  16 15  -21.0689 26077.5 -03408.4 -07.4466 26299.3
 04 05 2013  16 16  -21.0691 26077.3 -03408.4 -07.4465 26299.1
 04 05 2013  16 17  -21.0693 26077.1 -03408.4 -07.4465 26298.9
 04 05 2013  16 18  -21.0694 26076.6 -03408.2 -07.4464 26298.4
 04 05 2013  16 19  -21.0692 26076.1 -03408.2 -07.4464 26297.9
 04 05 2013  16 20  -21.0689 26075.8 -03408.2 -07.4466 26297.6
 04 05 2013  16 21  -21.0687 26075.7 -03408.3 -07.4469 26297.5
 04 05 2013  16 22  -21.0687 26075.6 -03408.5 -07.4472 26297.5
 04 05 2013  16 23  -21.0687 26075.5 -03408.5 -07.4473 26297.3
 04 05 2013  16 24  -21.0685 26075.1 -03408.5 -07.4473 26297.0
 04 05 2013  16 25  -21.0682 26074.6 -03408.4 -07.4473 26296.4
 04 05 2013  16 26  -21.0681 26074.5 -03408.6 -07.4477 26296.3
 04 05 2013  16 27  -21.0679 26073.9 -03408.5 -07.4478 26295.7
 04 05 2013  16 28  -21.0679 26073.8 -03408.8 -07.4483 26295.7
 04 05 2013  16 29  -21.0680 26073.4 -03408.9 -07.4487 26295.3
 04 05 2013  16 30  -21.0683 26073.3 -03409.0 -07.4490 26295.2
 04 05 2013  16 31  -21.0681 26073.2 -03409.2 -07.4495 26295.1
 04 05 2013  16 32  -21.0679 26072.9 -03409.3 -07.4497 26294.9
 04 05 2013  16 33  -21.0678 26072.5 -03409.3 -07.4499 26294.4
 04 05 2013  16 34  -21.0676 26071.9 -03409.4 -07.4502 26293.9
 04 05 2013  16 35  -21.0675 26071.6 -03409.6 -07.4507 26293.6
 04 05 2013  16 36  -21.0675 26071.2 -03409.7 -07.4511 26293.2
 04 05 2013  16 37  -21.0678 26070.5 -03409.7 -07.4514 26292.5
 04 05 2013  16 38  -21.0680 26069.9 -03409.9 -07.4518 26292.0
 04 05 2013  16 39  -21.0685 26069.7 -03410.2 -07.4525 26291.8
 04 05 2013  16 40  -21.0691 26069.8 -03410.7 -07.4535 26292.0
 04 05 2013  16 41  -21.0698 26069.7 -03410.9 -07.4541 26291.9
 04 05 2013  16 42  -21.0706 26069.4 -03411.1 -07.4546 26291.6
 04 05 2013  16 43  -21.0714 26069.1 -03411.3 -07.4550 26291.3
 04 05 2013  16 44  -21.0723 26069.0 -03411.5 -07.4556 26291.3
 04 05 2013  16 45  -21.0732 26068.7 -03411.6 -07.4559 26291.0
 04 05 2013  16 46  -21.0740 26068.3 -03411.7 -07.4561 26290.6
 04 05 2013  16 47  -21.0747 26068.1 -03411.7 -07.4564 26290.4
 04 05 2013  16 48  -21.0753 26067.3 -03411.6 -07.4563 26289.6
 04 05 2013  16 49  -21.0757 26066.5 -03411.5 -07.4563 26288.8
 04 05 2013  16 50  -21.0760 26065.8 -03411.5 -07.4564 26288.1
 04 05 2013  16 51  -21.0764 26065.1 -03411.5 -07.4567 26287.4
 04 05 2013  16 52  -21.0768 26064.5 -03411.6 -07.4571 26286.9
 04 05 2013  16 53  -21.0773 26064.0 -03411.7 -07.4575 26286.3
 04 05 2013  16 54  -21.0778 26063.6 -03411.9 -07.4579 26285.9
 04 05 2013  16 55  -21.0782 26063.4 -03412.1 -07.4584 26285.8
 04 05 2013  16 56  -21.0783 26062.9 -03412.1 -07.4587 26285.3
 04 05 2013  16 57  -21.0785 26062.3 -03412.2 -07.4589 26284.7
 04 05 2013  16 58  -21.0785 26061.9 -03412.3 -07.4592 26284.3
 04 05 2013  16 59  -21.0788 26061.6 -03412.4 -07.4597 26284.1
 04 05 2013  17 00  -21.0793 26061.3 -03412.5 -07.4600 26283.8
 04 05 2013  17 01  -21.0795 26060.8 -03412.5 -07.4601 26283.3
 04 05 2013  17 02  -21.0796 26060.2 -03412.5 -07.4602 26282.7
 04 05 2013  17 03  -21.0796 26059.3 -03412.3 -07.4602 26281.7
 04 05 2013  17 04  -21.0794 26058.3 -03412.2 -07.4601 26280.8
 04 05 2013  17 05  -21.0795 26057.8 -03412.3 -07.4604 26280.3
 04 05 2013  17 06  -21.0800 26057.4 -03412.5 -07.4611 26279.9
 04 05 2013  17 07  -21.0803 26057.0 -03412.7 -07.4616 26279.6
 04 05 2013  17 08  -21.0804 26056.5 -03412.8 -07.4618 26279.1
 04 05 2013  17 09  -21.0807 26056.1 -03412.8 -07.4620 26278.7
 04 05 2013  17 10  -21.0810 26055.5 -03412.7 -07.4621 26278.1
 04 05 2013  17 11  -21.0813 26054.9 -03412.7 -07.4621 26277.4
 04 05 2013  17 12  -21.0819 26054.5 -03412.7 -07.4623 26277.0
 04 05 2013  17 13  -21.0826 26054.3 -03412.9 -07.4627 26276.9
 04 05 2013  17 14  -21.0833 26054.4 -03413.1 -07.4631 26277.0
 04 05 2013  17 15  -21.0834 26054.5 -03413.2 -07.4633 26277.2
 04 05 2013  17 16  -21.0837 26054.6 -03413.2 -07.4634 26277.2
 04 05 2013  17 17  -21.0842 26054.6 -03413.3 -07.4636 26277.2
 04 05 2013  17 18  -21.0843 26054.4 -03413.3 -07.4636 26277.0
 04 05 2013  17 19  -21.0849 26054.3 -03413.3 -07.4637 26276.9
 04 05 2013  17 20  -21.0855 26054.2 -03413.4 -07.4638 26276.9
 04 05 2013  17 21  -21.0859 26054.1 -03413.4 -07.4639 26276.7
 04 05 2013  17 22  -21.0861 26054.1 -03413.4 -07.4639 26276.7
 04 05 2013  17 23  -21.0868 26054.3 -03413.6 -07.4642 26276.9
 04 05 2013  17 24  -21.0876 26054.4 -03413.7 -07.4645 26277.1
 04 05 2013  17 25  -21.0881 26054.6 -03413.7 -07.4645 26277.3
 04 05 2013  17 26  -21.0886 26054.6 -03413.7 -07.4645 26277.3
 04 05 2013  17 27  -21.0887 26054.5 -03413.7 -07.4644 26277.2
 04 05 2013  17 28  -21.0890 26054.2 -03413.6 -07.4644 26276.9
 04 05 2013  17 29  -21.0892 26054.2 -03413.6 -07.4643 26276.8
 04 05 2013  17 30  -21.0895 26054.1 -03413.6 -07.4644 26276.8
 04 05 2013  17 31  -21.0899 26054.3 -03413.8 -07.4647 26277.0
 04 05 2013  17 32  -21.0900 26054.2 -03413.8 -07.4647 26276.9
 04 05 2013  17 33  -21.0903 26054.0 -03413.7 -07.4646 26276.7
 04 05 2013  17 34  -21.0906 26054.2 -03413.8 -07.4648 26276.9
 04 05 2013  17 35  -21.0908 26054.4 -03414.0 -07.4651 26277.1
 04 05 2013  17 36  -21.0905 26054.3 -03414.0 -07.4651 26277.0
 04 05 2013  17 37  -21.0901 26054.4 -03414.0 -07.4652 26277.1
 04 05 2013  17 38  -21.0898 26053.8 -03413.8 -07.4649 26276.5
 04 05 2013  17 39  -21.0891 26053.3 -03413.6 -07.4646 26276.0
 04 05 2013  17 40  -21.0888 26053.0 -03413.6 -07.4646 26275.7
 04 05 2013  17 41  -21.0887 26052.8 -03413.6 -07.4647 26275.5
 04 05 2013  17 42  -21.0881 26052.2 -03413.5 -07.4646 26274.9
 04 05 2013  17 43  -21.0877 26051.7 -03413.4 -07.4646 26274.4
 04 05 2013  17 44  -21.0879 26051.3 -03413.5 -07.4648 26274.0
 04 05 2013  17 45  -21.0877 26050.8 -03413.3 -07.4647 26273.5
 04 05 2013  17 46  -21.0870 26050.0 -03413.1 -07.4645 26272.7
 04 05 2013  17 47  -21.0861 26049.1 -03413.0 -07.4644 26271.8
 04 05 2013  17 48  -21.0855 26048.4 -03413.0 -07.4647 26271.1
 04 05 2013  17 49  -21.0845 26047.8 -03413.1 -07.4651 26270.5
 04 05 2013  17 50  -21.0835 26047.5 -03413.4 -07.4657 26270.1
 04 05 2013  17 51  -21.0836 26047.3 -03413.6 -07.4664 26270.0
 04 05 2013  17 52  -21.0833 26047.1 -03413.9 -07.4669 26269.8
 04 05 2013  17 53  -21.0830 26046.4 -03413.8 -07.4670 26269.2
 04 05 2013  17 54  -21.0826 26046.3 -03414.0 -07.4674 26269.1
 04 05 2013  17 55  -21.0824 26046.2 -03414.2 -07.4679 26269.0
 04 05 2013  17 56  -21.0822 26046.1 -03414.3 -07.4682 26268.9
 04 05 2013  17 57  -21.0824 26045.7 -03414.4 -07.4684 26268.5
 04 05 2013  17 58  -21.0825 26045.8 -03414.6 -07.4687 26268.7
 04 05 2013  17 59  -21.0824 26045.9 -03414.7 -07.4690 26268.7
 04 05 2013  18 00  -21.0824 26045.8 -03414.8 -07.4692 26268.7
 04 05 2013  18 01  -21.0825 26045.5 -03414.7 -07.4692 26268.4
 04 05 2013  18 02  -21.0828 26045.3 -03414.8 -07.4694 26268.2
 04 05 2013  18 03  -21.0826 26045.2 -03414.8 -07.4695 26268.1
 04 05 2013  18 04  -21.0827 26044.9 -03414.8 -07.4695 26267.8
 04 05 2013  18 05  -21.0824 26044.6 -03414.7 -07.4695 26267.5
 04 05 2013  18 06  -21.0822 26044.3 -03414.7 -07.4696 26267.2
 04 05 2013  18 07  -21.0820 26044.0 -03414.8 -07.4697 26266.9
 04 05 2013  18 08  -21.0815 26043.5 -03414.6 -07.4696 26266.4
 04 05 2013  18 09  -21.0809 26042.9 -03414.5 -07.4695 26265.7
 04 05 2013  18 10  -21.0811 26042.6 -03414.6 -07.4698 26265.5
 04 05 2013  18 11  -21.0812 26042.1 -03414.6 -07.4699 26265.0
 04 05 2013  18 12  -21.0810 26041.4 -03414.5 -07.4700 26264.3
 04 05 2013  18 13  -21.0806 26040.8 -03414.5 -07.4702 26263.7
 04 05 2013  18 14  -21.0807 26040.6 -03414.7 -07.4706 26263.6
 04 05 2013  18 15  -21.0808 26040.3 -03414.9 -07.4710 26263.2
 04 05 2013  18 16  -21.0805 26039.8 -03414.9 -07.4712 26262.7
 04 05 2013  18 17  -21.0806 26039.5 -03415.0 -07.4715 26262.5
 04 05 2013  18 18  -21.0808 26039.4 -03415.2 -07.4719 26262.4
 04 05 2013  18 19  -21.0810 26039.3 -03415.3 -07.4723 26262.3
 04 05 2013  18 20  -21.0807 26039.1 -03415.4 -07.4726 26262.2
 04 05 2013  18 21  -21.0804 26038.9 -03415.5 -07.4728 26261.9
 04 05 2013  18 22  -21.0801 26038.5 -03415.6 -07.4731 26261.6
 04 05 2013  18 23  -21.0797 26038.2 -03415.7 -07.4734 26261.3
 04 05 2013  18 24  -21.0793 26038.0 -03415.9 -07.4738 26261.1
 04 05 2013  18 25  -21.0792 26038.1 -03416.2 -07.4745 26261.2
 04 05 2013  18 26  -21.0791 26038.0 -03416.5 -07.4751 26261.2
 04 05 2013  18 27  -21.0790 26037.7 -03416.6 -07.4756 26260.9
 04 05 2013  18 28  -21.0789 26037.6 -03416.9 -07.4761 26260.9
 04 05 2013  18 29  -21.0789 26037.5 -03417.1 -07.4767 26260.8
 04 05 2013  18 30  -21.0786 26037.1 -03417.2 -07.4770 26260.4
 04 05 2013  18 31  -21.0785 26036.8 -03417.4 -07.4775 26260.1
 04 05 2013  18 32  -21.0786 26036.5 -03417.5 -07.4779 26259.8
 04 05 2013  18 33  -21.0785 26036.3 -03417.7 -07.4783 26259.7
 04 05 2013  18 34  -21.0783 26036.2 -03418.0 -07.4788 26259.6
 04 05 2013  18 35  -21.0781 26036.0 -03418.2 -07.4794 26259.4
 04 05 2013  18 36  -21.0778 26035.8 -03418.4 -07.4799 26259.3
 04 05 2013  18 37  -21.0779 26035.7 -03418.6 -07.4804 26259.2
 04 05 2013  18 38  -21.0779 26035.7 -03418.8 -07.4809 26259.2
 04 05 2013  18 39  -21.0777 26035.5 -03419.0 -07.4814 26259.0
 04 05 2013  18 40  -21.0777 26035.3 -03419.2 -07.4818 26258.9
 04 05 2013  18 41  -21.0778 26035.0 -03419.4 -07.4823 26258.6
 04 05 2013  18 42  -21.0781 26034.7 -03419.5 -07.4826 26258.3
 04 05 2013  18 43  -21.0783 26034.4 -03419.6 -07.4830 26258.0
 04 05 2013  18 44  -21.0784 26033.9 -03419.7 -07.4832 26257.6
 04 05 2013  18 45  -21.0783 26033.7 -03419.8 -07.4835 26257.3
 04 05 2013  18 46  -21.0783 26033.3 -03419.8 -07.4837 26256.9
 04 05 2013  18 47  -21.0781 26032.8 -03419.8 -07.4839 26256.5
 04 05 2013  18 48  -21.0779 26032.5 -03419.9 -07.4841 26256.2
 04 05 2013  18 49  -21.0779 26032.4 -03420.2 -07.4847 26256.1
 04 05 2013  18 50  -21.0777 26032.3 -03420.4 -07.4852 26256.0
 04 05 2013  18 51  -21.0776 26032.0 -03420.5 -07.4856 26255.8
 04 05 2013  18 52  -21.0778 26032.1 -03420.7 -07.4860 26255.9
 04 05 2013  18 53  -21.0778 26032.1 -03421.0 -07.4865 26256.0
 04 05 2013  18 54  -21.0779 26031.9 -03421.0 -07.4867 26255.7
 04 05 2013  18 55  -21.0779 26031.7 -03421.1 -07.4869 26255.5
 04 05 2013  18 56  -21.0777 26031.3 -03421.1 -07.4870 26255.1
 04 05 2013  18 57  -21.0777 26031.1 -03421.1 -07.4871 26255.0
 04 05 2013  18 58  -21.0775 26031.0 -03421.2 -07.4874 26254.9
 04 05 2013  18 59  -21.0774 26031.0 -03421.3 -07.4875 26254.8
 04 05 2013  19 00  -21.0770 26030.7 -03421.3 -07.4876 26254.6
 04 05 2013  19 01  -21.0769 26030.6 -03421.3 -07.4877 26254.5
 04 05 2013  19 02  -21.0768 26030.5 -03421.4 -07.4879 26254.4
 04 05 2013  19 03  -21.0765 26030.3 -03421.5 -07.4881 26254.2
 04 05 2013  19 04  -21.0762 26030.0 -03421.5 -07.4882 26253.9
 04 05 2013  19 05  -21.0758 26029.8 -03421.5 -07.4882 26253.7
 04 05 2013  19 06  -21.0753 26029.5 -03421.4 -07.4882 26253.4
 04 05 2013  19 07  -21.0750 26029.1 -03421.4 -07.4883 26253.0
 04 05 2013  19 08  -21.0746 26028.8 -03421.5 -07.4885 26252.7
 04 05 2013  19 09  -21.0743 26028.6 -03421.5 -07.4887 26252.5
 04 05 2013  19 10  -21.0741 26028.5 -03421.7 -07.4890 26252.4
 04 05 2013  19 11  -21.0740 26028.4 -03421.8 -07.4893 26252.3
 04 05 2013  19 12  -21.0739 26028.2 -03421.9 -07.4896 26252.2
 04 05 2013  19 13  -21.0736 26028.1 -03422.0 -07.4898 26252.1
 04 05 2013  19 14  -21.0734 26027.9 -03422.0 -07.4899 26251.9
 04 05 2013  19 15  -21.0733 26027.7 -03422.1 -07.4901 26251.7
 04 05 2013  19 16  -21.0730 26027.5 -03422.1 -07.4903 26251.5
 04 05 2013  19 17  -21.0726 26027.4 -03422.1 -07.4904 26251.4
 04 05 2013  19 18  -21.0724 26027.2 -03422.2 -07.4905 26251.2
 04 05 2013  19 19  -21.0721 26027.0 -03422.2 -07.4907 26251.0
 04 05 2013  19 20  -21.0719 26026.8 -03422.3 -07.4908 26250.8
 04 05 2013  19 21  -21.0718 26026.6 -03422.3 -07.4909 26250.6
 04 05 2013  19 22  -21.0717 26026.4 -03422.3 -07.4910 26250.5
 04 05 2013  19 23  -21.0717 26026.2 -03422.3 -07.4911 26250.2
 04 05 2013  19 24  -21.0716 26026.0 -03422.3 -07.4912 26250.0
 04 05 2013  19 25  -21.0716 26026.0 -03422.5 -07.4915 26250.1
 04 05 2013  19 26  -21.0716 26025.9 -03422.6 -07.4917 26250.0
 04 05 2013  19 27  -21.0713 26025.8 -03422.6 -07.4917 26249.9
 04 05 2013  19 28  -21.0709 26025.8 -03422.6 -07.4919 26249.9
 04 05 2013  19 29  -21.0707 26026.0 -03422.8 -07.4922 26250.1
 04 05 2013  19 30  -21.0704 26026.0 -03422.9 -07.4924 26250.2
 04 05 2013  19 31  -21.0701 26026.0 -03422.9 -07.4925 26250.1
 04 05 2013  19 32  -21.0699 26026.0 -03423.0 -07.4927 26250.1
 04 05 2013  19 33  -21.0698 26025.8 -03423.0 -07.4927 26250.0
 04 05 2013  19 34  -21.0696 26025.8 -03423.1 -07.4929 26249.9
 04 05 2013  19 35  -21.0695 26025.7 -03423.1 -07.4930 26249.9
 04 05 2013  19 36  -21.0693 26025.7 -03423.2 -07.4931 26249.8
 04 05 2013  19 37  -21.0692 26025.7 -03423.2 -07.4932 26249.8
 04 05 2013  19 38  -21.0691 26025.6 -03423.3 -07.4934 26249.8
 04 05 2013  19 39  -21.0690 26025.4 -03423.3 -07.4934 26249.6
 04 05 2013  19 40  -21.0690 26025.2 -03423.3 -07.4936 26249.4
 04 05 2013  19 41  -21.0690 26024.9 -03423.3 -07.4937 26249.1
 04 05 2013  19 42  -21.0690 26024.6 -03423.3 -07.4937 26248.8
 04 05 2013  19 43  -21.0689 26024.6 -03423.5 -07.4941 26248.8
 04 05 2013  19 44  -21.0687 26024.6 -03423.7 -07.4946 26248.8
 04 05 2013  19 45  -21.0690 26024.4 -03423.8 -07.4949 26248.6
 04 05 2013  19 46  -21.0691 26024.1 -03423.9 -07.4952 26248.4
 04 05 2013  19 47  -21.0690 26024.0 -03424.0 -07.4954 26248.3
 04 05 2013  19 48  -21.0687 26023.6 -03424.0 -07.4955 26247.9
 04 05 2013  19 49  -21.0685 26023.3 -03424.0 -07.4956 26247.5
 04 05 2013  19 50  -21.0681 26023.0 -03424.1 -07.4959 26247.3
 04 05 2013  19 51  -21.0679 26022.8 -03424.2 -07.4962 26247.1
 04 05 2013  19 52  -21.0676 26022.5 -03424.3 -07.4965 26246.9
 04 05 2013  19 53  -21.0674 26022.4 -03424.5 -07.4970 26246.8
 04 05 2013  19 54  -21.0671 26022.3 -03424.7 -07.4973 26246.7
 04 05 2013  19 55  -21.0671 26022.2 -03424.8 -07.4976 26246.6
 04 05 2013  19 56  -21.0671 26022.1 -03425.0 -07.4980 26246.5
 04 05 2013  19 57  -21.0669 26022.0 -03425.2 -07.4985 26246.5
 04 05 2013  19 58  -21.0668 26021.9 -03425.4 -07.4990 26246.4
 04 05 2013  19 59  -21.0669 26021.9 -03425.6 -07.4994 26246.4
 04 05 2013  20 00  -21.0670 26022.0 -03425.8 -07.4999 26246.6
 04 05 2013  20 01  -21.0671 26022.1 -03426.1 -07.5004 26246.7
 04 05 2013  20 02  -21.0673 26022.1 -03426.2 -07.5008 26246.7
 04 05 2013  20 03  -21.0673 26022.0 -03426.3 -07.5010 26246.6
 04 05 2013  20 04  -21.0674 26021.9 -03426.4 -07.5012 26246.5
 04 05 2013  20 05  -21.0674 26021.6 -03426.4 -07.5013 26246.3
 04 05 2013  20 06  -21.0674 26021.4 -03426.5 -07.5015 26246.0
 04 05 2013  20 07  -21.0673 26021.2 -03426.6 -07.5017 26245.9
 04 05 2013  20 08  -21.0674 26021.0 -03426.6 -07.5019 26245.7
 04 05 2013  20 09  -21.0674 26020.8 -03426.7 -07.5021 26245.5
 04 05 2013  20 10  -21.0676 26020.7 -03426.8 -07.5024 26245.4
 04 05 2013  20 11  -21.0677 26020.6 -03426.9 -07.5027 26245.3
 04 05 2013  20 12  -21.0678 26020.5 -03427.1 -07.5030 26245.2
 04 05 2013  20 13  -21.0679 26020.5 -03427.2 -07.5033 26245.2
 04 05 2013  20 14  -21.0680 26020.5 -03427.3 -07.5036 26245.2
 04 05 2013  20 15  -21.0681 26020.6 -03427.5 -07.5038 26245.4
 04 05 2013  20 16  -21.0682 26020.8 -03427.6 -07.5042 26245.6
 04 05 2013  20 17  -21.0684 26020.8 -03427.8 -07.5045 26245.6
 04 05 2013  20 18  -21.0685 26020.9 -03427.9 -07.5047 26245.7
 04 05 2013  20 19  -21.0683 26021.0 -03427.9 -07.5047 26245.8
 04 05 2013  20 20  -21.0683 26020.9 -03428.0 -07.5048 26245.7
 04 05 2013  20 21  -21.0683 26020.9 -03428.1 -07.5051 26245.7
 04 05 2013  20 22  -21.0682 26020.9 -03428.2 -07.5054 26245.8
 04 05 2013  20 23  -21.0683 26021.0 -03428.3 -07.5056 26245.9
 04 05 2013  20 24  -21.0684 26021.0 -03428.4 -07.5059 26245.9
 04 05 2013  20 25  -21.0683 26020.9 -03428.5 -07.5060 26245.8
 04 05 2013  20 26  -21.0682 26020.9 -03428.6 -07.5062 26245.9
 04 05 2013  20 27  -21.0680 26020.9 -03428.6 -07.5063 26245.8
 04 05 2013  20 28  -21.0679 26020.9 -03428.7 -07.5064 26245.8
 04 05 2013  20 29  -21.0679 26020.9 -03428.7 -07.5065 26245.8
 04 05 2013  20 30  -21.0677 26020.7 -03428.7 -07.5065 26245.6
 04 05 2013  20 31  -21.0674 26020.5 -03428.7 -07.5066 26245.4
 04 05 2013  20 32  -21.0671 26020.4 -03428.8 -07.5068 26245.3
 04 05 2013  20 33  -21.0669 26020.3 -03428.8 -07.5069 26245.2
 04 05 2013  20 34  -21.0668 26020.2 -03428.8 -07.5070 26245.1
 04 05 2013  20 35  -21.0666 26020.1 -03428.9 -07.5071 26245.0
 04 05 2013  20 36  -21.0663 26020.0 -03429.0 -07.5073 26245.0
 04 05 2013  20 37  -21.0659 26019.8 -03429.0 -07.5073 26244.8
 04 05 2013  20 38  -21.0655 26019.8 -03429.0 -07.5074 26244.7
 04 05 2013  20 39  -21.0651 26019.6 -03429.0 -07.5075 26244.6
 04 05 2013  20 40  -21.0651 26019.5 -03429.1 -07.5077 26244.5
 04 05 2013  20 41  -21.0650 26019.6 -03429.2 -07.5079 26244.6
 04 05 2013  20 42  -21.0649 26019.6 -03429.3 -07.5081 26244.6
 04 05 2013  20 43  -21.0646 26019.5 -03429.4 -07.5082 26244.6
 04 05 2013  20 44  -21.0642 26019.5 -03429.4 -07.5083 26244.5
 04 05 2013  20 45  -21.0638 26019.5 -03429.4 -07.5083 26244.5
 04 05 2013  20 46  -21.0635 26019.3 -03429.4 -07.5084 26244.4
 04 05 2013  20 47  -21.0632 26019.3 -03429.5 -07.5086 26244.3
 04 05 2013  20 48  -21.0629 26019.3 -03429.5 -07.5087 26244.4
 04 05 2013  20 49  -21.0625 26019.4 -03429.7 -07.5090 26244.5
 04 05 2013  20 50  -21.0621 26019.6 -03429.8 -07.5092 26244.7
 04 05 2013  20 51  -21.0617 26019.8 -03429.9 -07.5094 26244.9
 04 05 2013  20 52  -21.0613 26019.9 -03430.1 -07.5096 26245.0
 04 05 2013  20 53  -21.0608 26020.0 -03430.1 -07.5098 26245.1
 04 05 2013  20 54  -21.0604 26020.0 -03430.2 -07.5099 26245.1
 04 05 2013  20 55  -21.0602 26020.0 -03430.2 -07.5100 26245.1
 04 05 2013  20 56  -21.0599 26019.9 -03430.3 -07.5101 26245.1
 04 05 2013  20 57  -21.0596 26019.9 -03430.3 -07.5102 26245.0
 04 05 2013  20 58  -21.0594 26019.8 -03430.3 -07.5103 26245.0
 04 05 2013  20 59  -21.0592 26019.8 -03430.4 -07.5104 26245.0
 04 05 2013  21 00  -21.0591 26019.7 -03430.4 -07.5105 26244.9
 04 05 2013  21 01  -21.0589 26019.7 -03430.4 -07.5106 26244.9
 04 05 2013  21 02  -21.0586 26019.7 -03430.5 -07.5106 26244.8
 04 05 2013  21 03  -21.0581 26019.6 -03430.5 -07.5106 26244.8
 04 05 2013  21 04  -21.0577 26019.6 -03430.5 -07.5108 26244.8
 04 05 2013  21 05  -21.0575 26019.8 -03430.7 -07.5111 26245.0
 04 05 2013  21 06  -21.0572 26020.0 -03430.8 -07.5113 26245.2
 04 05 2013  21 07  -21.0568 26020.1 -03430.9 -07.5115 26245.3
 04 05 2013  21 08  -21.0566 26020.3 -03431.1 -07.5118 26245.5
 04 05 2013  21 09  -21.0563 26020.5 -03431.3 -07.5121 26245.8
 04 05 2013  21 10  -21.0561 26020.8 -03431.4 -07.5124 26246.1
 04 05 2013  21 11  -21.0558 26021.1 -03431.6 -07.5127 26246.4
 04 05 2013  21 12  -21.0554 26021.2 -03431.7 -07.5129 26246.6
 04 05 2013  21 13  -21.0551 26021.4 -03431.9 -07.5131 26246.8
 04 05 2013  21 14  -21.0549 26021.5 -03431.9 -07.5133 26246.8
 04 05 2013  21 15  -21.0547 26021.6 -03432.0 -07.5135 26247.0
 04 05 2013  21 16  -21.0544 26021.9 -03432.2 -07.5138 26247.3
 04 05 2013  21 17  -21.0541 26021.9 -03432.3 -07.5139 26247.3
 04 05 2013  21 18  -21.0534 26022.1 -03432.4 -07.5141 26247.5
 04 05 2013  21 19  -21.0528 26022.3 -03432.5 -07.5143 26247.7
 04 05 2013  21 20  -21.0521 26022.3 -03432.5 -07.5143 26247.7
 04 05 2013  21 21  -21.0517 26022.3 -03432.6 -07.5144 26247.7
 04 05 2013  21 22  -21.0511 26022.1 -03432.6 -07.5145 26247.6
 04 05 2013  21 23  -21.0505 26022.0 -03432.5 -07.5145 26247.4
 04 05 2013  21 24  -21.0500 26021.8 -03432.5 -07.5145 26247.2
 04 05 2013  21 25  -21.0493 26021.8 -03432.6 -07.5146 26247.2
 04 05 2013  21 26  -21.0489 26021.9 -03432.7 -07.5149 26247.3
 04 05 2013  21 27  -21.0483 26021.8 -03432.8 -07.5150 26247.3
 04 05 2013  21 28  -21.0477 26021.8 -03432.9 -07.5152 26247.3
 04 05 2013  21 29  -21.0473 26021.8 -03432.9 -07.5154 26247.3
 04 05 2013  21 30  -21.0469 26021.8 -03433.0 -07.5155 26247.2
 04 05 2013  21 31  -21.0468 26021.7 -03433.1 -07.5157 26247.2
 04 05 2013  21 32  -21.0467 26021.6 -03433.1 -07.5159 26247.1
 04 05 2013  21 33  -21.0466 26021.5 -03433.2 -07.5161 26247.0
 04 05 2013  21 34  -21.0465 26021.4 -03433.3 -07.5162 26246.9
 04 05 2013  21 35  -21.0464 26021.2 -03433.3 -07.5162 26246.7
 04 05 2013  21 36  -21.0464 26021.1 -03433.3 -07.5164 26246.6
 04 05 2013  21 37  -21.0463 26021.0 -03433.4 -07.5165 26246.5
 04 05 2013  21 38  -21.0461 26021.1 -03433.4 -07.5167 26246.6
 04 05 2013  21 39  -21.0459 26021.0 -03433.5 -07.5169 26246.5
 04 05 2013  21 40  -21.0459 26020.8 -03433.5 -07.5169 26246.4
 04 05 2013  21 41  -21.0461 26021.0 -03433.7 -07.5172 26246.5
 04 05 2013  21 42  -21.0464 26021.2 -03433.9 -07.5175 26246.8
 04 05 2013  21 43  -21.0466 26021.3 -03434.0 -07.5179 26247.0
 04 05 2013  21 44  -21.0472 26021.6 -03434.3 -07.5183 26247.2
 04 05 2013  21 45  -21.0478 26021.7 -03434.4 -07.5185 26247.4
 04 05 2013  21 46  -21.0483 26021.9 -03434.5 -07.5188 26247.6
 04 05 2013  21 47  -21.0489 26021.9 -03434.6 -07.5188 26247.6
 04 05 2013  21 48  -21.0494 26022.0 -03434.6 -07.5188 26247.6
 04 05 2013  21 49  -21.0499 26021.8 -03434.5 -07.5188 26247.5
 04 05 2013  21 50  -21.0504 26021.8 -03434.5 -07.5187 26247.4
 04 05 2013  21 51  -21.0507 26021.8 -03434.5 -07.5187 26247.5
 04 05 2013  21 52  -21.0510 26021.7 -03434.4 -07.5186 26247.4
 04 05 2013  21 53  -21.0513 26021.7 -03434.4 -07.5186 26247.4
 04 05 2013  21 54  -21.0519 26021.7 -03434.4 -07.5186 26247.4
 04 05 2013  21 55  -21.0523 26021.8 -03434.5 -07.5187 26247.5
 04 05 2013  21 56  -21.0527 26021.7 -03434.5 -07.5187 26247.4
 04 05 2013  21 57  -21.0530 26021.6 -03434.4 -07.5186 26247.3
 04 05 2013  21 58  -21.0533 26021.5 -03434.4 -07.5185 26247.2
 04 05 2013  21 59  -21.0532 26021.5 -03434.3 -07.5185 26247.1
 04 05 2013  22 00  -21.0533 26021.6 -03434.4 -07.5185 26247.2
 04 05 2013  22 01  -21.0531 26021.7 -03434.4 -07.5186 26247.4
 04 05 2013  22 02  -21.0532 26021.7 -03434.5 -07.5187 26247.4
 04 05 2013  22 03  -21.0532 26021.8 -03434.5 -07.5187 26247.5
 04 05 2013  22 04  -21.0531 26022.0 -03434.6 -07.5189 26247.7
 04 05 2013  22 05  -21.0531 26022.0 -03434.7 -07.5190 26247.7
 04 05 2013  22 06  -21.0531 26022.1 -03434.7 -07.5191 26247.8
 04 05 2013  22 07  -21.0533 26022.2 -03434.8 -07.5192 26247.9
 04 05 2013  22 08  -21.0535 26022.0 -03434.7 -07.5191 26247.6
 04 05 2013  22 09  -21.0537 26021.8 -03434.6 -07.5189 26247.5
 04 05 2013  22 10  -21.0537 26021.8 -03434.6 -07.5189 26247.4
 04 05 2013  22 11  -21.0536 26021.6 -03434.5 -07.5188 26247.3
 04 05 2013  22 12  -21.0534 26021.5 -03434.4 -07.5187 26247.1
 04 05 2013  22 13  -21.0533 26021.3 -03434.4 -07.5186 26247.0
 04 05 2013  22 14  -21.0531 26021.2 -03434.3 -07.5186 26246.8
 04 05 2013  22 15  -21.0529 26021.1 -03434.3 -07.5185 26246.7
 04 05 2013  22 16  -21.0526 26021.0 -03434.3 -07.5185 26246.6
 04 05 2013  22 17  -21.0525 26021.0 -03434.3 -07.5186 26246.6
 04 05 2013  22 18  -21.0521 26021.0 -03434.4 -07.5188 26246.7
 04 05 2013  22 19  -21.0520 26021.2 -03434.6 -07.5191 26246.9
 04 05 2013  22 20  -21.0519 26021.3 -03434.7 -07.5193 26247.0
 04 05 2013  22 21  -21.0518 26021.5 -03434.8 -07.5195 26247.2
 04 05 2013  22 22  -21.0516 26021.7 -03435.0 -07.5198 26247.4
 04 05 2013  22 23  -21.0513 26021.7 -03435.0 -07.5199 26247.5
 04 05 2013  22 24  -21.0510 26021.7 -03435.0 -07.5199 26247.5
 04 05 2013  22 25  -21.0510 26021.7 -03435.1 -07.5200 26247.4
 04 05 2013  22 26  -21.0510 26021.6 -03435.1 -07.5201 26247.4
 04 05 2013  22 27  -21.0511 26021.7 -03435.2 -07.5202 26247.5
 04 05 2013  22 28  -21.0512 26021.8 -03435.2 -07.5203 26247.5
 04 05 2013  22 29  -21.0513 26021.7 -03435.2 -07.5203 26247.4
 04 05 2013  22 30  -21.0513 26021.6 -03435.2 -07.5202 26247.3
 04 05 2013  22 31  -21.0514 26021.4 -03435.1 -07.5202 26247.2
 04 05 2013  22 32  -21.0515 26021.2 -03435.0 -07.5200 26247.0
 04 05 2013  22 33  -21.0516 26021.0 -03435.0 -07.5200 26246.8
 04 05 2013  22 34  -21.0515 26020.9 -03434.9 -07.5199 26246.6
 04 05 2013  22 35  -21.0514 26020.7 -03434.9 -07.5198 26246.5
 04 05 2013  22 36  -21.0515 26020.6 -03434.9 -07.5199 26246.4
 04 05 2013  22 37  -21.0515 26020.5 -03434.9 -07.5199 26246.3
 04 05 2013  22 38  -21.0515 26020.5 -03434.9 -07.5199 26246.2
 04 05 2013  22 39  -21.0515 26020.4 -03434.9 -07.5200 26246.2
 04 05 2013  22 40  -21.0517 26020.3 -03434.9 -07.5201 26246.1
 04 05 2013  22 41  -21.0518 26020.3 -03435.0 -07.5201 26246.1
 04 05 2013  22 42  -21.0519 26020.4 -03435.0 -07.5203 26246.1
 04 05 2013  22 43  -21.0521 26020.3 -03435.1 -07.5204 26246.1
 04 05 2013  22 44  -21.0522 26020.2 -03435.0 -07.5204 26246.0
 04 05 2013  22 45  -21.0522 26020.2 -03435.1 -07.5204 26245.9
 04 05 2013  22 46  -21.0521 26020.1 -03435.0 -07.5204 26245.9
 04 05 2013  22 47  -21.0521 26020.0 -03435.1 -07.5204 26245.8
 04 05 2013  22 48  -21.0521 26020.0 -03435.1 -07.5205 26245.8
 04 05 2013  22 49  -21.0521 26020.0 -03435.1 -07.5205 26245.8
 04 05 2013  22 50  -21.0521 26020.1 -03435.1 -07.5206 26245.8
 04 05 2013  22 51  -21.0520 26020.1 -03435.2 -07.5208 26245.9
 04 05 2013  22 52  -21.0520 26020.1 -03435.3 -07.5209 26245.9
 04 05 2013  22 53  -21.0521 26020.2 -03435.3 -07.5210 26246.0
 04 05 2013  22 54  -21.0522 26020.2 -03435.4 -07.5211 26246.0
 04 05 2013  22 55  -21.0524 26020.2 -03435.4 -07.5211 26246.0
 04 05 2013  22 56  -21.0524 26020.2 -03435.4 -07.5212 26246.0
 04 05 2013  22 57  -21.0524 26020.3 -03435.5 -07.5213 26246.1
 04 05 2013  22 58  -21.0526 26020.3 -03435.5 -07.5214 26246.1
 04 05 2013  22 59  -21.0528 26020.4 -03435.6 -07.5215 26246.2
 04 05 2013  23 00  -21.0530 26020.3 -03435.6 -07.5215 26246.2
 04 05 2013  23 01  -21.0532 26020.3 -03435.6 -07.5216 26246.2
 04 05 2013  23 02  -21.0534 26020.3 -03435.6 -07.5216 26246.1
 04 05 2013  23 03  -21.0535 26020.3 -03435.6 -07.5216 26246.2
 04 05 2013  23 04  -21.0536 26020.4 -03435.7 -07.5217 26246.2
 04 05 2013  23 05  -21.0536 26020.3 -03435.7 -07.5217 26246.2
 04 05 2013  23 06  -21.0537 26020.4 -03435.7 -07.5217 26246.2
 04 05 2013  23 07  -21.0536 26020.5 -03435.7 -07.5218 26246.3
 04 05 2013  23 08  -21.0536 26020.5 -03435.8 -07.5218 26246.4
 04 05 2013  23 09  -21.0535 26020.6 -03435.8 -07.5220 26246.5
 04 05 2013  23 10  -21.0535 26020.8 -03435.9 -07.5221 26246.7
 04 05 2013  23 11  -21.0535 26021.0 -03436.1 -07.5223 26246.9
 04 05 2013  23 12  -21.0535 26021.1 -03436.1 -07.5225 26247.0
 04 05 2013  23 13  -21.0536 26021.1 -03436.1 -07.5225 26247.0
 04 05 2013  23 14  -21.0538 26021.1 -03436.1 -07.5225 26247.0
 04 05 2013  23 15  -21.0539 26021.1 -03436.1 -07.5225 26247.0
 04 05 2013  23 16  -21.0541 26021.0 -03436.2 -07.5225 26246.9
 04 05 2013  23 17  -21.0542 26020.9 -03436.1 -07.5225 26246.8
 04 05 2013  23 18  -21.0542 26021.0 -03436.1 -07.5224 26246.8
 04 05 2013  23 19  -21.0543 26021.0 -03436.1 -07.5225 26246.9
 04 05 2013  23 20  -21.0542 26020.9 -03436.1 -07.5225 26246.8
 04 05 2013  23 21  -21.0543 26020.8 -03436.1 -07.5224 26246.7
 04 05 2013  23 22  -21.0543 26020.8 -03436.1 -07.5224 26246.7
 04 05 2013  23 23  -21.0544 26020.7 -03436.1 -07.5224 26246.6
 04 05 2013  23 24  -21.0546 26020.6 -03436.1 -07.5224 26246.5
 04 05 2013  23 25  -21.0549 26020.6 -03436.1 -07.5225 26246.5
 04 05 2013  23 26  -21.0552 26020.7 -03436.2 -07.5227 26246.6
 04 05 2013  23 27  -21.0555 26020.7 -03436.2 -07.5227 26246.6
 04 05 2013  23 28  -21.0557 26020.7 -03436.2 -07.5227 26246.6
 04 05 2013  23 29  -21.0558 26020.7 -03436.2 -07.5228 26246.6
 04 05 2013  23 30  -21.0559 26020.8 -03436.3 -07.5229 26246.7
 04 05 2013  23 31  -21.0559 26020.7 -03436.3 -07.5228 26246.6
 04 05 2013  23 32  -21.0560 26020.7 -03436.2 -07.5228 26246.6
 04 05 2013  23 33  -21.0560 26020.5 -03436.2 -07.5227 26246.5
 04 05 2013  23 34  -21.0559 26020.5 -03436.1 -07.5226 26246.4
 04 05 2013  23 35  -21.0559 26020.4 -03436.1 -07.5226 26246.3
 04 05 2013  23 36  -21.0560 26020.4 -03436.1 -07.5226 26246.3
 04 05 2013  23 37  -21.0561 26020.4 -03436.1 -07.5226 26246.3
 04 05 2013  23 38  -21.0561 26020.2 -03436.1 -07.5226 26246.1
 04 05 2013  23 39  -21.0561 26020.1 -03436.0 -07.5226 26246.0
 04 05 2013  23 40  -21.0560 26020.0 -03436.0 -07.5225 26245.9
 04 05 2013  23 41  -21.0559 26019.9 -03436.0 -07.5225 26245.8
 04 05 2013  23 42  -21.0559 26019.9 -03436.0 -07.5226 26245.8
 04 05 2013  23 43  -21.0561 26019.8 -03436.0 -07.5226 26245.7
 04 05 2013  23 44  -21.0563 26019.7 -03436.0 -07.5226 26245.6
 04 05 2013  23 45  -21.0565 26019.7 -03436.1 -07.5228 26245.6
 04 05 2013  23 46  -21.0566 26019.8 -03436.1 -07.5228 26245.7
 04 05 2013  23 47  -21.0567 26019.8 -03436.2 -07.5229 26245.7
 04 05 2013  23 48  -21.0568 26020.0 -03436.2 -07.5230 26245.9
 04 05 2013  23 49  -21.0569 26020.1 -03436.3 -07.5232 26246.0
 04 05 2013  23 50  -21.0568 26020.2 -03436.4 -07.5233 26246.1
 04 05 2013  23 51  -21.0566 26020.3 -03436.4 -07.5234 26246.2
 04 05 2013  23 52  -21.0564 26020.3 -03436.5 -07.5234 26246.3
 04 05 2013  23 53  -21.0562 26020.3 -03436.5 -07.5234 26246.2
 04 05 2013  23 54  -21.0559 26020.3 -03436.5 -07.5234 26246.2
 04 05 2013  23 55  -21.0558 26020.3 -03436.5 -07.5235 26246.3
 04 05 2013  23 56  -21.0557 26020.4 -03436.6 -07.5236 26246.4
 04 05 2013  23 57  -21.0557 26020.5 -03436.6 -07.5237 26246.5
 04 05 2013  23 58  -21.0558 26020.5 -03436.7 -07.5238 26246.5
