SAO LUIS EMBRACE-03 <097> 1 Min. Reported data

 DD MM YYYY  HH MM   D(Deg)  H(nT)   Z(nT)   I(Deg)   F(nT)

 07 04 2013  00 00  -21.0399 26036.6 -03426.2 -07.4965 26261.0
 07 04 2013  00 01  -21.0399 26036.7 -03426.3 -07.4966 26261.2
 07 04 2013  00 02  -21.0399 26036.8 -03426.3 -07.4967 26261.3
 07 04 2013  00 03  -21.0399 26037.0 -03426.4 -07.4969 26261.5
 07 04 2013  00 04  -21.0399 26037.1 -03426.4 -07.4969 26261.6
 07 04 2013  00 05  -21.0399 26037.2 -03426.5 -07.4971 26261.7
 07 04 2013  00 06  -21.0398 26037.3 -03426.5 -07.4970 26261.8
 07 04 2013  00 07  -21.0397 26037.4 -03426.5 -07.4971 26261.9
 07 04 2013  00 08  -21.0397 26037.3 -03426.6 -07.4971 26261.8
 07 04 2013  00 09  -21.0395 26037.3 -03426.5 -07.4971 26261.8
 07 04 2013  00 10  -21.0392 26037.4 -03426.6 -07.4971 26261.9
 07 04 2013  00 11  -21.0390 26037.5 -03426.6 -07.4972 26262.0
 07 04 2013  00 12  -21.0389 26037.4 -03426.6 -07.4972 26261.9
 07 04 2013  00 13  -21.0389 26037.4 -03426.6 -07.4972 26261.9
 07 04 2013  00 14  -21.0389 26037.2 -03426.5 -07.4971 26261.7
 07 04 2013  00 15  -21.0389 26037.0 -03426.4 -07.4969 26261.4
 07 04 2013  00 16  -21.0389 26036.8 -03426.3 -07.4968 26261.3
 07 04 2013  00 17  -21.0388 26036.7 -03426.3 -07.4968 26261.2
 07 04 2013  00 18  -21.0388 26036.7 -03426.4 -07.4969 26261.2
 07 04 2013  00 19  -21.0389 26036.6 -03426.4 -07.4969 26261.1
 07 04 2013  00 20  -21.0388 26036.5 -03426.3 -07.4969 26261.0
 07 04 2013  00 21  -21.0387 26036.5 -03426.3 -07.4969 26261.0
 07 04 2013  00 22  -21.0387 26036.4 -03426.3 -07.4969 26260.9
 07 04 2013  00 23  -21.0388 26036.3 -03426.3 -07.4969 26260.8
 07 04 2013  00 24  -21.0389 26036.2 -03426.3 -07.4970 26260.7
 07 04 2013  00 25  -21.0390 26036.2 -03426.4 -07.4970 26260.7
 07 04 2013  00 26  -21.0391 26036.1 -03426.3 -07.4970 26260.5
 07 04 2013  00 27  -21.0391 26036.0 -03426.3 -07.4970 26260.5
 07 04 2013  00 28  -21.0391 26035.9 -03426.3 -07.4970 26260.4
 07 04 2013  00 29  -21.0393 26035.9 -03426.3 -07.4970 26260.4
 07 04 2013  00 30  -21.0393 26035.9 -03426.4 -07.4971 26260.4
 07 04 2013  00 31  -21.0393 26035.8 -03426.4 -07.4971 26260.3
 07 04 2013  00 32  -21.0392 26035.8 -03426.4 -07.4971 26260.3
 07 04 2013  00 33  -21.0393 26035.8 -03426.4 -07.4971 26260.3
 07 04 2013  00 34  -21.0393 26035.9 -03426.4 -07.4972 26260.3
 07 04 2013  00 35  -21.0393 26036.0 -03426.5 -07.4974 26260.5
 07 04 2013  00 36  -21.0394 26036.1 -03426.6 -07.4976 26260.7
 07 04 2013  00 37  -21.0393 26036.3 -03426.7 -07.4977 26260.9
 07 04 2013  00 38  -21.0394 26036.5 -03426.8 -07.4979 26261.1
 07 04 2013  00 39  -21.0395 26036.6 -03426.9 -07.4980 26261.1
 07 04 2013  00 40  -21.0396 26036.7 -03426.9 -07.4981 26261.3
 07 04 2013  00 41  -21.0397 26036.8 -03426.9 -07.4981 26261.3
 07 04 2013  00 42  -21.0398 26036.8 -03427.0 -07.4981 26261.4
 07 04 2013  00 43  -21.0398 26036.9 -03427.0 -07.4982 26261.5
 07 04 2013  00 44  -21.0398 26037.0 -03427.0 -07.4982 26261.5
 07 04 2013  00 45  -21.0398 26036.9 -03427.0 -07.4981 26261.5
 07 04 2013  00 46  -21.0398 26036.9 -03427.0 -07.4981 26261.5
 07 04 2013  00 47  -21.0399 26036.8 -03426.9 -07.4980 26261.3
 07 04 2013  00 48  -21.0398 26036.8 -03426.9 -07.4979 26261.3
 07 04 2013  00 49  -21.0397 26036.8 -03426.8 -07.4979 26261.3
 07 04 2013  00 50  -21.0397 26036.7 -03426.8 -07.4979 26261.3
 07 04 2013  00 51  -21.0396 26036.7 -03426.8 -07.4978 26261.2
 07 04 2013  00 52  -21.0396 26036.5 -03426.7 -07.4978 26261.1
 07 04 2013  00 53  -21.0395 26036.4 -03426.7 -07.4977 26261.0
 07 04 2013  00 54  -21.0396 26036.3 -03426.7 -07.4977 26260.9
 07 04 2013  00 55  -21.0396 26036.4 -03426.7 -07.4978 26261.0
 07 04 2013  00 56  -21.0396 26036.3 -03426.8 -07.4978 26260.9
 07 04 2013  00 57  -21.0396 26036.3 -03426.7 -07.4978 26260.8
 07 04 2013  00 58  -21.0395 26036.1 -03426.7 -07.4977 26260.7
 07 04 2013  00 59  -21.0395 26036.1 -03426.7 -07.4977 26260.6
 07 04 2013  01 00  -21.0394 26035.9 -03426.6 -07.4976 26260.5
 07 04 2013  01 01  -21.0394 26035.8 -03426.6 -07.4975 26260.3
 07 04 2013  01 02  -21.0393 26035.7 -03426.5 -07.4976 26260.2
 07 04 2013  01 03  -21.0392 26035.8 -03426.6 -07.4976 26260.3
 07 04 2013  01 04  -21.0391 26035.8 -03426.6 -07.4977 26260.3
 07 04 2013  01 05  -21.0391 26035.6 -03426.6 -07.4977 26260.1
 07 04 2013  01 06  -21.0391 26035.5 -03426.6 -07.4976 26260.0
 07 04 2013  01 07  -21.0390 26035.4 -03426.5 -07.4976 26259.9
 07 04 2013  01 08  -21.0388 26035.4 -03426.5 -07.4976 26259.9
 07 04 2013  01 09  -21.0387 26035.4 -03426.6 -07.4977 26260.0
 07 04 2013  01 10  -21.0388 26035.5 -03426.7 -07.4979 26260.1
 07 04 2013  01 11  -21.0388 26035.6 -03426.7 -07.4980 26260.2
 07 04 2013  01 12  -21.0389 26035.7 -03426.8 -07.4981 26260.3
 07 04 2013  01 13  -21.0389 26035.7 -03426.8 -07.4982 26260.3
 07 04 2013  01 14  -21.0389 26035.8 -03426.9 -07.4982 26260.3
 07 04 2013  01 15  -21.0389 26035.8 -03426.9 -07.4983 26260.4
 07 04 2013  01 16  -21.0390 26035.8 -03426.9 -07.4983 26260.4
 07 04 2013  01 17  -21.0391 26035.9 -03426.9 -07.4983 26260.5
 07 04 2013  01 18  -21.0389 26036.0 -03427.0 -07.4984 26260.6
 07 04 2013  01 19  -21.0389 26036.0 -03427.0 -07.4984 26260.6
 07 04 2013  01 20  -21.0390 26036.1 -03427.0 -07.4984 26260.7
 07 04 2013  01 21  -21.0389 26036.2 -03427.0 -07.4984 26260.7
 07 04 2013  01 22  -21.0387 26036.1 -03427.0 -07.4984 26260.7
 07 04 2013  01 23  -21.0387 26036.1 -03427.0 -07.4984 26260.7
 07 04 2013  01 24  -21.0387 26036.1 -03427.0 -07.4984 26260.7
 07 04 2013  01 25  -21.0386 26036.0 -03427.0 -07.4984 26260.6
 07 04 2013  01 26  -21.0386 26035.8 -03426.9 -07.4983 26260.4
 07 04 2013  01 27  -21.0389 26035.6 -03426.8 -07.4981 26260.1
 07 04 2013  01 28  -21.0392 26035.2 -03426.6 -07.4979 26259.8
 07 04 2013  01 29  -21.0392 26034.9 -03426.5 -07.4977 26259.4
 07 04 2013  01 30  -21.0393 26034.5 -03426.4 -07.4975 26259.0
 07 04 2013  01 31  -21.0392 26034.3 -03426.3 -07.4974 26258.7
 07 04 2013  01 32  -21.0392 26034.1 -03426.2 -07.4973 26258.5
 07 04 2013  01 33  -21.0391 26033.8 -03426.2 -07.4973 26258.3
 07 04 2013  01 34  -21.0392 26033.7 -03426.2 -07.4973 26258.2
 07 04 2013  01 35  -21.0392 26033.5 -03426.2 -07.4974 26258.0
 07 04 2013  01 36  -21.0393 26033.4 -03426.2 -07.4974 26257.9
 07 04 2013  01 37  -21.0394 26033.3 -03426.2 -07.4975 26257.8
 07 04 2013  01 38  -21.0394 26033.2 -03426.2 -07.4975 26257.7
 07 04 2013  01 39  -21.0393 26033.2 -03426.2 -07.4976 26257.7
 07 04 2013  01 40  -21.0392 26033.2 -03426.3 -07.4977 26257.7
 07 04 2013  01 41  -21.0392 26033.2 -03426.3 -07.4978 26257.7
 07 04 2013  01 42  -21.0389 26033.3 -03426.4 -07.4979 26257.8
 07 04 2013  01 43  -21.0386 26033.3 -03426.4 -07.4980 26257.8
 07 04 2013  01 44  -21.0385 26033.3 -03426.5 -07.4981 26257.8
 07 04 2013  01 45  -21.0385 26033.5 -03426.6 -07.4983 26258.0
 07 04 2013  01 46  -21.0384 26033.6 -03426.7 -07.4986 26258.2
 07 04 2013  01 47  -21.0386 26033.7 -03426.8 -07.4987 26258.3
 07 04 2013  01 48  -21.0387 26033.8 -03426.9 -07.4989 26258.4
 07 04 2013  01 49  -21.0388 26033.8 -03426.9 -07.4989 26258.4
 07 04 2013  01 50  -21.0389 26033.8 -03426.9 -07.4990 26258.4
 07 04 2013  01 51  -21.0391 26034.0 -03427.0 -07.4990 26258.5
 07 04 2013  01 52  -21.0392 26034.0 -03427.1 -07.4991 26258.6
 07 04 2013  01 53  -21.0395 26034.0 -03427.0 -07.4991 26258.6
 07 04 2013  01 54  -21.0397 26033.9 -03427.0 -07.4991 26258.5
 07 04 2013  01 55  -21.0399 26033.9 -03427.0 -07.4990 26258.5
 07 04 2013  01 56  -21.0401 26033.9 -03427.0 -07.4990 26258.5
 07 04 2013  01 57  -21.0403 26033.8 -03426.9 -07.4990 26258.4
 07 04 2013  01 58  -21.0403 26033.8 -03426.9 -07.4990 26258.4
 07 04 2013  01 59  -21.0405 26033.9 -03426.9 -07.4989 26258.4
 07 04 2013  02 00  -21.0406 26033.9 -03427.0 -07.4990 26258.5
 07 04 2013  02 01  -21.0407 26033.8 -03426.9 -07.4989 26258.4
 07 04 2013  02 02  -21.0408 26033.7 -03426.8 -07.4988 26258.2
 07 04 2013  02 03  -21.0407 26033.5 -03426.7 -07.4986 26258.0
 07 04 2013  02 04  -21.0407 26033.3 -03426.7 -07.4985 26257.8
 07 04 2013  02 05  -21.0406 26033.2 -03426.6 -07.4984 26257.7
 07 04 2013  02 06  -21.0406 26033.2 -03426.7 -07.4985 26257.8
 07 04 2013  02 07  -21.0406 26033.4 -03426.8 -07.4987 26258.0
 07 04 2013  02 08  -21.0408 26033.5 -03426.9 -07.4989 26258.1
 07 04 2013  02 09  -21.0410 26033.6 -03426.9 -07.4990 26258.1
 07 04 2013  02 10  -21.0411 26033.6 -03427.0 -07.4991 26258.2
 07 04 2013  02 11  -21.0413 26033.6 -03427.0 -07.4991 26258.2
 07 04 2013  02 12  -21.0414 26033.5 -03426.9 -07.4990 26258.1
 07 04 2013  02 13  -21.0415 26033.5 -03426.9 -07.4990 26258.0
 07 04 2013  02 14  -21.0415 26033.4 -03426.8 -07.4989 26257.9
 07 04 2013  02 15  -21.0414 26033.2 -03426.8 -07.4987 26257.8
 07 04 2013  02 16  -21.0414 26033.1 -03426.7 -07.4986 26257.6
 07 04 2013  02 17  -21.0414 26033.0 -03426.7 -07.4986 26257.6
 07 04 2013  02 18  -21.0417 26033.0 -03426.7 -07.4986 26257.5
 07 04 2013  02 19  -21.0417 26032.9 -03426.7 -07.4986 26257.5
 07 04 2013  02 20  -21.0419 26032.7 -03426.6 -07.4985 26257.3
 07 04 2013  02 21  -21.0419 26032.6 -03426.5 -07.4984 26257.1
 07 04 2013  02 22  -21.0419 26032.5 -03426.5 -07.4984 26257.0
 07 04 2013  02 23  -21.0419 26032.4 -03426.5 -07.4984 26257.0
 07 04 2013  02 24  -21.0419 26032.4 -03426.5 -07.4983 26256.9
 07 04 2013  02 25  -21.0418 26032.4 -03426.5 -07.4985 26257.0
 07 04 2013  02 26  -21.0418 26032.6 -03426.6 -07.4986 26257.2
 07 04 2013  02 27  -21.0418 26032.8 -03426.7 -07.4988 26257.3
 07 04 2013  02 28  -21.0418 26032.9 -03426.9 -07.4990 26257.5
 07 04 2013  02 29  -21.0418 26032.8 -03426.8 -07.4989 26257.3
 07 04 2013  02 30  -21.0418 26032.7 -03426.7 -07.4988 26257.2
 07 04 2013  02 31  -21.0417 26032.6 -03426.7 -07.4988 26257.2
 07 04 2013  02 32  -21.0417 26032.6 -03426.7 -07.4988 26257.1
 07 04 2013  02 33  -21.0417 26032.5 -03426.6 -07.4987 26257.0
 07 04 2013  02 34  -21.0417 26032.4 -03426.6 -07.4987 26257.0
 07 04 2013  02 35  -21.0419 26032.3 -03426.6 -07.4986 26256.8
 07 04 2013  02 36  -21.0419 26032.1 -03426.5 -07.4986 26256.7
 07 04 2013  02 37  -21.0420 26032.0 -03426.5 -07.4985 26256.6
 07 04 2013  02 38  -21.0422 26032.0 -03426.5 -07.4986 26256.5
 07 04 2013  02 39  -21.0423 26032.1 -03426.6 -07.4986 26256.6
 07 04 2013  02 40  -21.0424 26032.1 -03426.6 -07.4987 26256.7
 07 04 2013  02 41  -21.0425 26032.1 -03426.6 -07.4987 26256.6
 07 04 2013  02 42  -21.0426 26032.0 -03426.5 -07.4986 26256.5
 07 04 2013  02 43  -21.0425 26031.7 -03426.4 -07.4985 26256.3
 07 04 2013  02 44  -21.0424 26031.5 -03426.3 -07.4983 26256.1
 07 04 2013  02 45  -21.0424 26031.3 -03426.3 -07.4982 26255.8
 07 04 2013  02 46  -21.0425 26031.3 -03426.3 -07.4982 26255.8
 07 04 2013  02 47  -21.0427 26031.1 -03426.2 -07.4982 26255.6
 07 04 2013  02 48  -21.0429 26031.0 -03426.2 -07.4983 26255.5
 07 04 2013  02 49  -21.0432 26030.8 -03426.2 -07.4982 26255.3
 07 04 2013  02 50  -21.0434 26030.7 -03426.1 -07.4981 26255.2
 07 04 2013  02 51  -21.0434 26030.7 -03426.2 -07.4982 26255.2
 07 04 2013  02 52  -21.0434 26030.7 -03426.2 -07.4983 26255.2
 07 04 2013  02 53  -21.0433 26030.7 -03426.3 -07.4984 26255.3
 07 04 2013  02 54  -21.0432 26030.7 -03426.3 -07.4985 26255.3
 07 04 2013  02 55  -21.0432 26030.7 -03426.4 -07.4986 26255.3
 07 04 2013  02 56  -21.0432 26030.9 -03426.5 -07.4988 26255.4
 07 04 2013  02 57  -21.0434 26030.9 -03426.5 -07.4988 26255.4
 07 04 2013  02 58  -21.0434 26030.9 -03426.5 -07.4989 26255.5
 07 04 2013  02 59  -21.0435 26030.9 -03426.5 -07.4989 26255.4
 07 04 2013  03 00  -21.0435 26030.9 -03426.6 -07.4990 26255.4
 07 04 2013  03 01  -21.0435 26030.9 -03426.6 -07.4990 26255.5
 07 04 2013  03 02  -21.0436 26030.9 -03426.6 -07.4991 26255.4
 07 04 2013  03 03  -21.0435 26030.8 -03426.6 -07.4990 26255.3
 07 04 2013  03 04  -21.0436 26030.7 -03426.5 -07.4990 26255.2
 07 04 2013  03 05  -21.0434 26030.7 -03426.6 -07.4990 26255.3
 07 04 2013  03 06  -21.0433 26030.7 -03426.6 -07.4991 26255.3
 07 04 2013  03 07  -21.0435 26030.8 -03426.6 -07.4992 26255.3
 07 04 2013  03 08  -21.0436 26030.8 -03426.7 -07.4993 26255.4
 07 04 2013  03 09  -21.0437 26030.8 -03426.8 -07.4995 26255.4
 07 04 2013  03 10  -21.0438 26030.9 -03426.8 -07.4995 26255.5
 07 04 2013  03 11  -21.0437 26031.0 -03426.9 -07.4996 26255.6
 07 04 2013  03 12  -21.0436 26030.9 -03426.9 -07.4996 26255.5
 07 04 2013  03 13  -21.0432 26031.4 -03427.1 -07.4999 26256.0
 07 04 2013  03 14  -21.0434 26031.2 -03427.1 -07.5000 26255.9
 07 04 2013  03 15  -21.0430 26031.3 -03427.1 -07.5001 26255.9
 07 04 2013  03 16  -21.0428 26031.3 -03427.2 -07.5002 26255.9
 07 04 2013  03 17  -21.0427 26031.3 -03427.2 -07.5002 26255.9
 07 04 2013  03 18  -21.0428 26031.5 -03427.4 -07.5005 26256.2
 07 04 2013  03 19  -21.0426 26032.0 -03427.5 -07.5008 26256.6
 07 04 2013  03 20  -21.0432 26031.6 -03427.5 -07.5009 26256.3
 07 04 2013  03 21  -21.0430 26032.1 -03427.7 -07.5011 26256.8
 07 04 2013  03 22  -21.0435 26032.0 -03427.7 -07.5012 26256.7
 07 04 2013  03 23  -21.0433 26032.2 -03427.8 -07.5013 26256.9
 07 04 2013  03 24  -21.0433 26032.3 -03427.9 -07.5014 26257.0
 07 04 2013  03 25  -21.0433 26032.3 -03427.8 -07.5013 26257.0
 07 04 2013  03 26  -21.0433 26032.4 -03427.9 -07.5014 26257.1
 07 04 2013  03 27  -21.0433 26032.4 -03427.9 -07.5014 26257.1
 07 04 2013  03 28  -21.0432 26032.3 -03427.8 -07.5013 26257.0
 07 04 2013  03 29  -21.0429 26032.4 -03427.9 -07.5014 26257.1
 07 04 2013  03 30  -21.0429 26032.4 -03427.9 -07.5014 26257.1
 07 04 2013  03 31  -21.0429 26032.3 -03427.9 -07.5014 26257.0
 07 04 2013  03 32  -21.0428 26032.4 -03427.9 -07.5015 26257.1
 07 04 2013  03 33  -21.0429 26032.3 -03427.9 -07.5014 26257.0
 07 04 2013  03 34  -21.0429 26032.3 -03427.9 -07.5015 26257.0
 07 04 2013  03 35  -21.0429 26032.2 -03427.9 -07.5015 26256.9
 07 04 2013  03 36  -21.0430 26032.2 -03427.9 -07.5015 26256.9
 07 04 2013  03 37  -21.0431 26032.1 -03427.8 -07.5014 26256.8
 07 04 2013  03 38  -21.0430 26032.1 -03427.8 -07.5014 26256.8
 07 04 2013  03 39  -21.0429 26032.0 -03427.8 -07.5013 26256.7
 07 04 2013  03 40  -21.0429 26031.9 -03427.8 -07.5013 26256.7
 07 04 2013  03 41  -21.0426 26031.8 -03427.7 -07.5012 26256.5
 07 04 2013  03 42  -21.0424 26031.7 -03427.7 -07.5011 26256.4
 07 04 2013  03 43  -21.0424 26031.6 -03427.7 -07.5011 26256.3
 07 04 2013  03 44  -21.0424 26031.5 -03427.6 -07.5011 26256.2
 07 04 2013  03 45  -21.0425 26031.3 -03427.6 -07.5010 26256.0
 07 04 2013  03 46  -21.0424 26031.1 -03427.5 -07.5009 26255.8
 07 04 2013  03 47  -21.0424 26031.0 -03427.4 -07.5008 26255.6
 07 04 2013  03 48  -21.0424 26030.9 -03427.4 -07.5007 26255.5
 07 04 2013  03 49  -21.0426 26030.8 -03427.3 -07.5007 26255.5
 07 04 2013  03 50  -21.0427 26030.8 -03427.4 -07.5007 26255.4
 07 04 2013  03 51  -21.0428 26030.8 -03427.4 -07.5008 26255.4
 07 04 2013  03 52  -21.0429 26030.7 -03427.4 -07.5007 26255.3
 07 04 2013  03 53  -21.0428 26030.5 -03427.3 -07.5007 26255.2
 07 04 2013  03 54  -21.0428 26030.4 -03427.2 -07.5005 26255.0
 07 04 2013  03 55  -21.0427 26030.1 -03427.1 -07.5004 26254.8
 07 04 2013  03 56  -21.0426 26030.0 -03427.1 -07.5003 26254.7
 07 04 2013  03 57  -21.0427 26029.9 -03427.1 -07.5003 26254.6
 07 04 2013  03 58  -21.0427 26029.8 -03427.0 -07.5002 26254.4
 07 04 2013  03 59  -21.0429 26029.7 -03427.0 -07.5002 26254.3
 07 04 2013  04 00  -21.0431 26029.6 -03426.9 -07.5001 26254.2
 07 04 2013  04 01  -21.0433 26029.6 -03427.0 -07.5002 26254.2
 07 04 2013  04 02  -21.0435 26029.6 -03427.0 -07.5003 26254.2
 07 04 2013  04 03  -21.0436 26029.7 -03427.1 -07.5004 26254.3
 07 04 2013  04 04  -21.0437 26030.0 -03427.2 -07.5005 26254.6
 07 04 2013  04 05  -21.0436 26030.0 -03427.2 -07.5005 26254.6
 07 04 2013  04 06  -21.0436 26030.2 -03427.3 -07.5007 26254.8
 07 04 2013  04 07  -21.0437 26030.1 -03427.2 -07.5006 26254.8
 07 04 2013  04 08  -21.0435 26030.2 -03427.2 -07.5006 26254.8
 07 04 2013  04 09  -21.0433 26030.0 -03427.2 -07.5005 26254.7
 07 04 2013  04 10  -21.0433 26030.0 -03427.1 -07.5004 26254.6
 07 04 2013  04 11  -21.0433 26030.0 -03427.1 -07.5005 26254.6
 07 04 2013  04 12  -21.0434 26030.0 -03427.2 -07.5005 26254.7
 07 04 2013  04 13  -21.0436 26030.0 -03427.2 -07.5006 26254.7
 07 04 2013  04 14  -21.0436 26030.1 -03427.2 -07.5006 26254.8
 07 04 2013  04 15  -21.0435 26030.2 -03427.2 -07.5006 26254.8
 07 04 2013  04 16  -21.0435 26030.2 -03427.3 -07.5007 26254.9
 07 04 2013  04 17  -21.0437 26030.4 -03427.4 -07.5009 26255.1
 07 04 2013  04 18  -21.0439 26030.3 -03427.3 -07.5008 26255.0
 07 04 2013  04 19  -21.0439 26030.3 -03427.3 -07.5008 26255.0
 07 04 2013  04 20  -21.0440 26030.3 -03427.3 -07.5007 26255.0
 07 04 2013  04 21  -21.0440 26030.4 -03427.4 -07.5009 26255.1
 07 04 2013  04 22  -21.0440 26030.3 -03427.3 -07.5008 26255.0
 07 04 2013  04 23  -21.0441 26030.3 -03427.3 -07.5007 26255.0
 07 04 2013  04 24  -21.0441 26030.3 -03427.3 -07.5008 26255.0
 07 04 2013  04 25  -21.0442 26030.3 -03427.3 -07.5008 26255.0
 07 04 2013  04 26  -21.0441 26030.4 -03427.3 -07.5008 26255.0
 07 04 2013  04 27  -21.0443 26030.0 -03427.2 -07.5006 26254.7
 07 04 2013  04 28  -21.0441 26030.1 -03427.2 -07.5006 26254.8
 07 04 2013  04 29  -21.0441 26030.1 -03427.2 -07.5005 26254.7
 07 04 2013  04 30  -21.0442 26030.2 -03427.3 -07.5007 26254.9
 07 04 2013  04 31  -21.0441 26030.3 -03427.3 -07.5008 26255.0
 07 04 2013  04 32  -21.0439 26030.3 -03427.3 -07.5007 26254.9
 07 04 2013  04 33  -21.0436 26030.3 -03427.3 -07.5007 26254.9
 07 04 2013  04 34  -21.0437 26030.3 -03427.3 -07.5008 26255.0
 07 04 2013  04 35  -21.0439 26030.6 -03427.5 -07.5010 26255.3
 07 04 2013  04 36  -21.0443 26030.9 -03427.7 -07.5014 26255.6
 07 04 2013  04 37  -21.0439 26030.9 -03427.7 -07.5013 26255.6
 07 04 2013  04 38  -21.0437 26031.1 -03427.7 -07.5013 26255.8
 07 04 2013  04 39  -21.0436 26031.2 -03427.7 -07.5014 26255.9
 07 04 2013  04 40  -21.0437 26031.3 -03427.8 -07.5015 26256.0
 07 04 2013  04 41  -21.0438 26031.5 -03427.8 -07.5016 26256.2
 07 04 2013  04 42  -21.0442 26031.7 -03428.0 -07.5018 26256.4
 07 04 2013  04 43  -21.0447 26031.8 -03428.0 -07.5019 26256.6
 07 04 2013  04 44  -21.0450 26032.0 -03428.1 -07.5019 26256.7
 07 04 2013  04 45  -21.0449 26032.1 -03428.0 -07.5018 26256.8
 07 04 2013  04 46  -21.0447 26032.1 -03428.1 -07.5018 26256.9
 07 04 2013  04 47  -21.0444 26032.3 -03428.1 -07.5018 26257.1
 07 04 2013  04 48  -21.0443 26032.5 -03428.1 -07.5018 26257.2
 07 04 2013  04 49  -21.0441 26032.7 -03428.2 -07.5020 26257.4
 07 04 2013  04 50  -21.0441 26032.8 -03428.2 -07.5020 26257.5
 07 04 2013  04 51  -21.0438 26033.0 -03428.3 -07.5021 26257.8
 07 04 2013  04 52  -21.0436 26033.1 -03428.3 -07.5022 26257.9
 07 04 2013  04 53  -21.0434 26033.2 -03428.4 -07.5022 26258.0
 07 04 2013  04 54  -21.0435 26033.3 -03428.4 -07.5022 26258.0
 07 04 2013  04 55  -21.0437 26033.3 -03428.4 -07.5022 26258.1
 07 04 2013  04 56  -21.0438 26033.4 -03428.4 -07.5022 26258.1
 07 04 2013  04 57  -21.0439 26033.5 -03428.4 -07.5023 26258.3
 07 04 2013  04 58  -21.0441 26033.7 -03428.5 -07.5023 26258.4
 07 04 2013  04 59  -21.0444 26033.9 -03428.5 -07.5024 26258.7
 07 04 2013  05 00  -21.0446 26034.0 -03428.6 -07.5025 26258.8
 07 04 2013  05 01  -21.0447 26034.2 -03428.6 -07.5025 26259.0
 07 04 2013  05 02  -21.0448 26034.3 -03428.6 -07.5025 26259.1
 07 04 2013  05 03  -21.0449 26034.4 -03428.6 -07.5024 26259.2
 07 04 2013  05 04  -21.0448 26034.4 -03428.6 -07.5023 26259.2
 07 04 2013  05 05  -21.0449 26034.5 -03428.6 -07.5023 26259.3
 07 04 2013  05 06  -21.0451 26034.6 -03428.5 -07.5021 26259.4
 07 04 2013  05 07  -21.0452 26034.6 -03428.5 -07.5020 26259.4
 07 04 2013  05 08  -21.0453 26034.7 -03428.5 -07.5020 26259.4
 07 04 2013  05 09  -21.0455 26034.8 -03428.5 -07.5020 26259.5
 07 04 2013  05 10  -21.0456 26034.8 -03428.4 -07.5019 26259.5
 07 04 2013  05 11  -21.0457 26034.8 -03428.4 -07.5018 26259.6
 07 04 2013  05 12  -21.0457 26034.9 -03428.4 -07.5018 26259.6
 07 04 2013  05 13  -21.0458 26034.9 -03428.4 -07.5017 26259.6
 07 04 2013  05 14  -21.0458 26034.9 -03428.3 -07.5016 26259.6
 07 04 2013  05 15  -21.0457 26034.8 -03428.3 -07.5015 26259.6
 07 04 2013  05 16  -21.0456 26034.9 -03428.3 -07.5015 26259.6
 07 04 2013  05 17  -21.0455 26035.0 -03428.3 -07.5015 26259.7
 07 04 2013  05 18  -21.0454 26034.9 -03428.2 -07.5014 26259.7
 07 04 2013  05 19  -21.0452 26035.0 -03428.2 -07.5014 26259.7
 07 04 2013  05 20  -21.0450 26035.0 -03428.2 -07.5013 26259.7
 07 04 2013  05 21  -21.0450 26035.1 -03428.2 -07.5013 26259.8
 07 04 2013  05 22  -21.0453 26035.1 -03428.3 -07.5014 26259.9
 07 04 2013  05 23  -21.0454 26035.2 -03428.3 -07.5014 26259.9
 07 04 2013  05 24  -21.0455 26035.3 -03428.3 -07.5014 26260.0
 07 04 2013  05 25  -21.0455 26035.3 -03428.3 -07.5014 26260.1
 07 04 2013  05 26  -21.0454 26035.3 -03428.3 -07.5014 26260.1
 07 04 2013  05 27  -21.0454 26035.3 -03428.2 -07.5013 26260.0
 07 04 2013  05 28  -21.0454 26035.3 -03428.2 -07.5012 26260.0
 07 04 2013  05 29  -21.0454 26035.3 -03428.1 -07.5011 26260.0
 07 04 2013  05 30  -21.0453 26035.2 -03428.1 -07.5010 26260.0
 07 04 2013  05 31  -21.0453 26035.2 -03428.0 -07.5009 26259.9
 07 04 2013  05 32  -21.0453 26035.3 -03428.1 -07.5009 26260.0
 07 04 2013  05 33  -21.0455 26035.3 -03428.1 -07.5010 26260.0
 07 04 2013  05 34  -21.0455 26035.3 -03428.1 -07.5010 26260.0
 07 04 2013  05 35  -21.0454 26035.2 -03428.0 -07.5008 26259.9
 07 04 2013  05 36  -21.0451 26035.2 -03427.9 -07.5007 26259.9
 07 04 2013  05 37  -21.0449 26035.1 -03427.9 -07.5006 26259.8
 07 04 2013  05 38  -21.0445 26035.1 -03427.8 -07.5005 26259.7
 07 04 2013  05 39  -21.0443 26035.1 -03427.8 -07.5005 26259.8
 07 04 2013  05 40  -21.0441 26035.1 -03427.9 -07.5006 26259.8
 07 04 2013  05 41  -21.0440 26035.1 -03427.9 -07.5006 26259.8
 07 04 2013  05 42  -21.0440 26035.1 -03427.9 -07.5006 26259.8
 07 04 2013  05 43  -21.0440 26035.1 -03427.9 -07.5006 26259.8
 07 04 2013  05 44  -21.0440 26035.0 -03427.9 -07.5007 26259.7
 07 04 2013  05 45  -21.0439 26035.0 -03427.9 -07.5006 26259.7
 07 04 2013  05 46  -21.0438 26035.1 -03427.9 -07.5007 26259.8
 07 04 2013  05 47  -21.0436 26035.1 -03427.9 -07.5007 26259.8
 07 04 2013  05 48  -21.0434 26035.2 -03428.0 -07.5008 26259.9
 07 04 2013  05 49  -21.0431 26035.3 -03428.0 -07.5009 26260.0
 07 04 2013  05 50  -21.0430 26035.4 -03428.1 -07.5010 26260.1
 07 04 2013  05 51  -21.0431 26035.6 -03428.2 -07.5012 26260.4
 07 04 2013  05 52  -21.0429 26035.8 -03428.3 -07.5014 26260.6
 07 04 2013  05 53  -21.0427 26036.0 -03428.4 -07.5014 26260.7
 07 04 2013  05 54  -21.0425 26036.1 -03428.4 -07.5015 26260.9
 07 04 2013  05 55  -21.0423 26036.2 -03428.5 -07.5016 26261.0
 07 04 2013  05 56  -21.0420 26036.3 -03428.5 -07.5016 26261.0
 07 04 2013  05 57  -21.0419 26036.2 -03428.5 -07.5015 26261.0
 07 04 2013  05 58  -21.0418 26036.2 -03428.4 -07.5015 26261.0
 07 04 2013  05 59  -21.0420 26036.2 -03428.5 -07.5016 26261.0
 07 04 2013  06 00  -21.0423 26036.3 -03428.5 -07.5017 26261.0
 07 04 2013  06 01  -21.0426 26036.3 -03428.5 -07.5017 26261.0
 07 04 2013  06 02  -21.0428 26036.3 -03428.5 -07.5016 26261.0
 07 04 2013  06 03  -21.0432 26036.2 -03428.5 -07.5016 26261.0
 07 04 2013  06 04  -21.0436 26036.3 -03428.5 -07.5016 26261.1
 07 04 2013  06 05  -21.0439 26036.4 -03428.5 -07.5016 26261.1
 07 04 2013  06 06  -21.0442 26036.4 -03428.5 -07.5016 26261.2
 07 04 2013  06 07  -21.0445 26036.5 -03428.5 -07.5016 26261.2
 07 04 2013  06 08  -21.0447 26036.5 -03428.5 -07.5015 26261.2
 07 04 2013  06 09  -21.0451 26036.5 -03428.4 -07.5014 26261.2
 07 04 2013  06 10  -21.0454 26036.4 -03428.4 -07.5013 26261.1
 07 04 2013  06 11  -21.0457 26036.4 -03428.3 -07.5012 26261.1
 07 04 2013  06 12  -21.0461 26036.4 -03428.3 -07.5011 26261.1
 07 04 2013  06 13  -21.0463 26036.4 -03428.2 -07.5010 26261.1
 07 04 2013  06 14  -21.0464 26036.4 -03428.2 -07.5010 26261.1
 07 04 2013  06 15  -21.0464 26036.3 -03428.1 -07.5008 26261.0
 07 04 2013  06 16  -21.0466 26036.4 -03428.1 -07.5007 26261.1
 07 04 2013  06 17  -21.0466 26036.4 -03428.1 -07.5007 26261.1
 07 04 2013  06 18  -21.0467 26036.4 -03428.1 -07.5007 26261.1
 07 04 2013  06 19  -21.0466 26036.5 -03428.1 -07.5006 26261.2
 07 04 2013  06 20  -21.0465 26036.5 -03428.1 -07.5006 26261.2
 07 04 2013  06 21  -21.0464 26036.5 -03428.1 -07.5006 26261.2
 07 04 2013  06 22  -21.0460 26036.6 -03428.1 -07.5006 26261.3
 07 04 2013  06 23  -21.0456 26036.6 -03428.1 -07.5007 26261.3
 07 04 2013  06 24  -21.0451 26036.5 -03428.0 -07.5006 26261.2
 07 04 2013  06 25  -21.0445 26036.5 -03428.0 -07.5006 26261.2
 07 04 2013  06 26  -21.0440 26036.5 -03428.0 -07.5005 26261.2
 07 04 2013  06 27  -21.0436 26036.5 -03428.0 -07.5006 26261.2
 07 04 2013  06 28  -21.0431 26036.5 -03428.1 -07.5007 26261.2
 07 04 2013  06 29  -21.0426 26036.6 -03428.1 -07.5008 26261.3
 07 04 2013  06 30  -21.0422 26036.8 -03428.3 -07.5010 26261.5
 07 04 2013  06 31  -21.0419 26037.0 -03428.4 -07.5012 26261.7
 07 04 2013  06 32  -21.0417 26037.1 -03428.5 -07.5014 26261.9
 07 04 2013  06 33  -21.0415 26037.3 -03428.6 -07.5016 26262.0
 07 04 2013  06 34  -21.0413 26037.3 -03428.6 -07.5016 26262.1
 07 04 2013  06 35  -21.0409 26037.3 -03428.6 -07.5016 26262.0
 07 04 2013  06 36  -21.0405 26037.4 -03428.7 -07.5017 26262.1
 07 04 2013  06 37  -21.0401 26037.5 -03428.7 -07.5018 26262.2
 07 04 2013  06 38  -21.0399 26037.6 -03428.9 -07.5021 26262.5
 07 04 2013  06 39  -21.0396 26037.8 -03429.0 -07.5023 26262.6
 07 04 2013  06 40  -21.0396 26038.0 -03429.1 -07.5025 26262.9
 07 04 2013  06 41  -21.0395 26038.2 -03429.2 -07.5026 26263.0
 07 04 2013  06 42  -21.0395 26038.4 -03429.3 -07.5028 26263.2
 07 04 2013  06 43  -21.0394 26038.6 -03429.4 -07.5029 26263.5
 07 04 2013  06 44  -21.0394 26038.8 -03429.5 -07.5031 26263.7
 07 04 2013  06 45  -21.0394 26039.0 -03429.6 -07.5031 26263.9
 07 04 2013  06 46  -21.0395 26039.2 -03429.6 -07.5032 26264.1
 07 04 2013  06 47  -21.0395 26039.3 -03429.6 -07.5032 26264.2
 07 04 2013  06 48  -21.0396 26039.2 -03429.5 -07.5030 26264.1
 07 04 2013  06 49  -21.0396 26039.1 -03429.5 -07.5029 26264.0
 07 04 2013  06 50  -21.0396 26039.0 -03429.4 -07.5027 26263.8
 07 04 2013  06 51  -21.0396 26038.9 -03429.3 -07.5025 26263.8
 07 04 2013  06 52  -21.0398 26038.9 -03429.3 -07.5026 26263.8
 07 04 2013  06 53  -21.0397 26038.9 -03429.2 -07.5024 26263.7
 07 04 2013  06 54  -21.0395 26039.0 -03429.2 -07.5023 26263.8
 07 04 2013  06 55  -21.0392 26039.0 -03429.2 -07.5023 26263.8
 07 04 2013  06 56  -21.0389 26039.0 -03429.2 -07.5023 26263.8
 07 04 2013  06 57  -21.0388 26039.1 -03429.2 -07.5024 26263.9
 07 04 2013  06 58  -21.0385 26039.0 -03429.1 -07.5022 26263.8
 07 04 2013  06 59  -21.0381 26039.0 -03429.1 -07.5022 26263.8
 07 04 2013  07 00  -21.0378 26039.1 -03429.2 -07.5023 26263.9
 07 04 2013  07 01  -21.0377 26039.2 -03429.3 -07.5024 26264.1
 07 04 2013  07 02  -21.0379 26039.4 -03429.3 -07.5026 26264.2
 07 04 2013  07 03  -21.0380 26039.6 -03429.4 -07.5026 26264.4
 07 04 2013  07 04  -21.0381 26039.6 -03429.4 -07.5026 26264.4
 07 04 2013  07 05  -21.0382 26039.6 -03429.4 -07.5026 26264.5
 07 04 2013  07 06  -21.0381 26039.6 -03429.4 -07.5026 26264.4
 07 04 2013  07 07  -21.0381 26039.6 -03429.3 -07.5025 26264.4
 07 04 2013  07 08  -21.0383 26039.6 -03429.3 -07.5025 26264.4
 07 04 2013  07 09  -21.0385 26039.5 -03429.3 -07.5025 26264.4
 07 04 2013  07 10  -21.0387 26039.6 -03429.3 -07.5024 26264.4
 07 04 2013  07 11  -21.0386 26039.7 -03429.3 -07.5024 26264.5
 07 04 2013  07 12  -21.0386 26039.9 -03429.4 -07.5024 26264.7
 07 04 2013  07 13  -21.0387 26040.1 -03429.4 -07.5026 26264.9
 07 04 2013  07 14  -21.0387 26040.1 -03429.4 -07.5026 26265.0
 07 04 2013  07 15  -21.0385 26040.0 -03429.4 -07.5024 26264.9
 07 04 2013  07 16  -21.0384 26040.0 -03429.3 -07.5023 26264.8
 07 04 2013  07 17  -21.0384 26040.1 -03429.3 -07.5023 26264.9
 07 04 2013  07 18  -21.0384 26040.1 -03429.3 -07.5023 26265.0
 07 04 2013  07 19  -21.0383 26040.2 -03429.3 -07.5023 26265.0
 07 04 2013  07 20  -21.0383 26040.2 -03429.3 -07.5023 26265.1
 07 04 2013  07 21  -21.0382 26040.3 -03429.3 -07.5023 26265.1
 07 04 2013  07 22  -21.0383 26040.3 -03429.3 -07.5023 26265.2
 07 04 2013  07 23  -21.0382 26040.5 -03429.4 -07.5023 26265.3
 07 04 2013  07 24  -21.0381 26040.5 -03429.4 -07.5023 26265.3
 07 04 2013  07 25  -21.0383 26040.4 -03429.3 -07.5023 26265.3
 07 04 2013  07 26  -21.0384 26040.4 -03429.3 -07.5022 26265.2
 07 04 2013  07 27  -21.0385 26040.5 -03429.3 -07.5022 26265.3
 07 04 2013  07 28  -21.0387 26040.6 -03429.4 -07.5023 26265.4
 07 04 2013  07 29  -21.0386 26040.6 -03429.3 -07.5022 26265.5
 07 04 2013  07 30  -21.0386 26040.7 -03429.4 -07.5022 26265.6
 07 04 2013  07 31  -21.0385 26040.8 -03429.3 -07.5021 26265.6
 07 04 2013  07 32  -21.0385 26040.8 -03429.3 -07.5021 26265.6
 07 04 2013  07 33  -21.0385 26040.8 -03429.3 -07.5020 26265.7
 07 04 2013  07 34  -21.0384 26040.9 -03429.3 -07.5020 26265.7
 07 04 2013  07 35  -21.0383 26040.9 -03429.3 -07.5020 26265.7
 07 04 2013  07 36  -21.0382 26041.0 -03429.3 -07.5021 26265.8
 07 04 2013  07 37  -21.0380 26041.1 -03429.4 -07.5021 26266.0
 07 04 2013  07 38  -21.0376 26041.3 -03429.4 -07.5021 26266.1
 07 04 2013  07 39  -21.0373 26041.4 -03429.4 -07.5021 26266.2
 07 04 2013  07 40  -21.0370 26041.5 -03429.4 -07.5021 26266.3
 07 04 2013  07 41  -21.0367 26041.6 -03429.4 -07.5021 26266.4
 07 04 2013  07 42  -21.0362 26041.6 -03429.4 -07.5021 26266.4
 07 04 2013  07 43  -21.0358 26041.6 -03429.4 -07.5020 26266.4
 07 04 2013  07 44  -21.0356 26041.6 -03429.4 -07.5021 26266.5
 07 04 2013  07 45  -21.0354 26041.6 -03429.4 -07.5021 26266.5
 07 04 2013  07 46  -21.0353 26041.6 -03429.4 -07.5021 26266.4
 07 04 2013  07 47  -21.0351 26041.6 -03429.4 -07.5021 26266.4
 07 04 2013  07 48  -21.0351 26041.7 -03429.4 -07.5021 26266.5
 07 04 2013  07 49  -21.0351 26041.8 -03429.5 -07.5022 26266.7
 07 04 2013  07 50  -21.0349 26042.0 -03429.6 -07.5023 26266.8
 07 04 2013  07 51  -21.0347 26042.1 -03429.6 -07.5024 26267.0
 07 04 2013  07 52  -21.0343 26042.2 -03429.7 -07.5024 26267.1
 07 04 2013  07 53  -21.0341 26042.3 -03429.7 -07.5025 26267.2
 07 04 2013  07 54  -21.0338 26042.3 -03429.7 -07.5025 26267.2
 07 04 2013  07 55  -21.0335 26042.4 -03429.8 -07.5026 26267.3
 07 04 2013  07 56  -21.0333 26042.5 -03429.8 -07.5027 26267.4
 07 04 2013  07 57  -21.0331 26042.6 -03429.9 -07.5028 26267.5
 07 04 2013  07 58  -21.0328 26042.7 -03429.9 -07.5028 26267.6
 07 04 2013  07 59  -21.0324 26042.8 -03429.9 -07.5028 26267.7
 07 04 2013  08 00  -21.0323 26042.8 -03429.9 -07.5028 26267.7
 07 04 2013  08 01  -21.0321 26042.9 -03429.9 -07.5029 26267.8
 07 04 2013  08 02  -21.0318 26042.9 -03429.9 -07.5029 26267.8
 07 04 2013  08 03  -21.0315 26042.9 -03429.9 -07.5028 26267.8
 07 04 2013  08 04  -21.0313 26042.9 -03429.9 -07.5028 26267.8
 07 04 2013  08 05  -21.0311 26042.9 -03429.9 -07.5028 26267.7
 07 04 2013  08 06  -21.0311 26042.9 -03429.9 -07.5027 26267.8
 07 04 2013  08 07  -21.0310 26042.9 -03430.0 -07.5029 26267.8
 07 04 2013  08 08  -21.0309 26043.1 -03430.0 -07.5030 26268.0
 07 04 2013  08 09  -21.0307 26043.2 -03430.1 -07.5030 26268.1
 07 04 2013  08 10  -21.0304 26043.3 -03430.1 -07.5031 26268.2
 07 04 2013  08 11  -21.0302 26043.4 -03430.2 -07.5032 26268.3
 07 04 2013  08 12  -21.0300 26043.5 -03430.2 -07.5033 26268.4
 07 04 2013  08 13  -21.0298 26043.6 -03430.2 -07.5033 26268.6
 07 04 2013  08 14  -21.0296 26043.7 -03430.3 -07.5033 26268.6
 07 04 2013  08 15  -21.0293 26043.7 -03430.3 -07.5034 26268.7
 07 04 2013  08 16  -21.0290 26043.7 -03430.2 -07.5032 26268.7
 07 04 2013  08 17  -21.0287 26043.8 -03430.2 -07.5032 26268.7
 07 04 2013  08 18  -21.0285 26043.8 -03430.2 -07.5031 26268.7
 07 04 2013  08 19  -21.0281 26043.8 -03430.2 -07.5031 26268.7
 07 04 2013  08 20  -21.0279 26043.8 -03430.2 -07.5031 26268.8
 07 04 2013  08 21  -21.0277 26043.8 -03430.2 -07.5031 26268.7
 07 04 2013  08 22  -21.0275 26043.8 -03430.1 -07.5030 26268.7
 07 04 2013  08 23  -21.0273 26043.8 -03430.2 -07.5032 26268.7
 07 04 2013  08 24  -21.0271 26043.8 -03430.2 -07.5032 26268.7
 07 04 2013  08 25  -21.0269 26043.7 -03430.2 -07.5032 26268.6
 07 04 2013  08 26  -21.0268 26043.6 -03430.2 -07.5031 26268.5
 07 04 2013  08 27  -21.0268 26043.5 -03430.1 -07.5031 26268.4
 07 04 2013  08 28  -21.0268 26043.4 -03430.2 -07.5032 26268.4
 07 04 2013  08 29  -21.0269 26043.5 -03430.2 -07.5032 26268.4
 07 04 2013  08 30  -21.0268 26043.4 -03430.2 -07.5032 26268.3
 07 04 2013  08 31  -21.0267 26043.4 -03430.1 -07.5032 26268.3
 07 04 2013  08 32  -21.0267 26043.4 -03430.2 -07.5032 26268.3
 07 04 2013  08 33  -21.0265 26043.4 -03430.2 -07.5033 26268.3
 07 04 2013  08 34  -21.0264 26043.4 -03430.2 -07.5033 26268.3
 07 04 2013  08 35  -21.0263 26043.4 -03430.3 -07.5034 26268.3
 07 04 2013  08 36  -21.0263 26043.5 -03430.3 -07.5036 26268.5
 07 04 2013  08 37  -21.0263 26043.6 -03430.4 -07.5037 26268.6
 07 04 2013  08 38  -21.0263 26043.7 -03430.5 -07.5038 26268.6
 07 04 2013  08 39  -21.0263 26043.6 -03430.4 -07.5036 26268.6
 07 04 2013  08 40  -21.0261 26043.6 -03430.3 -07.5035 26268.5
 07 04 2013  08 41  -21.0260 26043.5 -03430.3 -07.5035 26268.5
 07 04 2013  08 42  -21.0260 26043.5 -03430.3 -07.5034 26268.5
 07 04 2013  08 43  -21.0258 26043.5 -03430.3 -07.5034 26268.5
 07 04 2013  08 44  -21.0257 26043.5 -03430.3 -07.5034 26268.4
 07 04 2013  08 45  -21.0255 26043.5 -03430.2 -07.5033 26268.4
 07 04 2013  08 46  -21.0253 26043.5 -03430.2 -07.5033 26268.4
 07 04 2013  08 47  -21.0252 26043.2 -03430.1 -07.5031 26268.1
 07 04 2013  08 48  -21.0252 26043.1 -03430.0 -07.5030 26268.0
 07 04 2013  08 49  -21.0251 26042.9 -03429.9 -07.5028 26267.8
 07 04 2013  08 50  -21.0248 26042.8 -03429.9 -07.5027 26267.7
 07 04 2013  08 51  -21.0249 26042.6 -03429.8 -07.5026 26267.5
 07 04 2013  08 52  -21.0247 26042.4 -03429.7 -07.5025 26267.3
 07 04 2013  08 53  -21.0247 26042.2 -03429.6 -07.5024 26267.1
 07 04 2013  08 54  -21.0246 26042.0 -03429.5 -07.5022 26266.8
 07 04 2013  08 55  -21.0247 26041.8 -03429.4 -07.5020 26266.6
 07 04 2013  08 56  -21.0247 26041.7 -03429.4 -07.5020 26266.6
 07 04 2013  08 57  -21.0250 26041.5 -03429.4 -07.5020 26266.3
 07 04 2013  08 58  -21.0253 26041.5 -03429.3 -07.5020 26266.3
 07 04 2013  08 59  -21.0255 26041.4 -03429.3 -07.5020 26266.2
 07 04 2013  09 00  -21.0255 26041.3 -03429.3 -07.5019 26266.1
 07 04 2013  09 01  -21.0253 26041.1 -03429.2 -07.5018 26266.0
 07 04 2013  09 02  -21.0252 26041.0 -03429.2 -07.5018 26265.8
 07 04 2013  09 03  -21.0251 26040.9 -03429.3 -07.5019 26265.7
 07 04 2013  09 04  -21.0249 26040.8 -03429.2 -07.5019 26265.6
 07 04 2013  09 05  -21.0248 26040.8 -03429.3 -07.5022 26265.7
 07 04 2013  09 06  -21.0242 26040.7 -03429.3 -07.5021 26265.6
 07 04 2013  09 07  -21.0237 26040.7 -03429.3 -07.5022 26265.5
 07 04 2013  09 08  -21.0234 26040.7 -03429.4 -07.5023 26265.5
 07 04 2013  09 09  -21.0226 26040.6 -03429.4 -07.5022 26265.4
 07 04 2013  09 10  -21.0220 26040.5 -03429.3 -07.5022 26265.4
 07 04 2013  09 11  -21.0214 26040.5 -03429.3 -07.5021 26265.3
 07 04 2013  09 12  -21.0209 26040.3 -03429.2 -07.5020 26265.1
 07 04 2013  09 13  -21.0206 26040.3 -03429.2 -07.5020 26265.1
 07 04 2013  09 14  -21.0206 26040.3 -03429.3 -07.5021 26265.2
 07 04 2013  09 15  -21.0206 26040.4 -03429.4 -07.5023 26265.3
 07 04 2013  09 16  -21.0207 26040.5 -03429.4 -07.5023 26265.3
 07 04 2013  09 17  -21.0207 26040.6 -03429.5 -07.5025 26265.4
 07 04 2013  09 18  -21.0207 26040.7 -03429.5 -07.5025 26265.6
 07 04 2013  09 19  -21.0208 26040.9 -03429.6 -07.5026 26265.7
 07 04 2013  09 20  -21.0214 26041.1 -03429.6 -07.5027 26265.9
 07 04 2013  09 21  -21.0217 26041.2 -03429.7 -07.5028 26266.0
 07 04 2013  09 22  -21.0219 26041.4 -03429.7 -07.5028 26266.2
 07 04 2013  09 23  -21.0222 26041.5 -03429.7 -07.5028 26266.4
 07 04 2013  09 24  -21.0224 26041.6 -03429.7 -07.5026 26266.4
 07 04 2013  09 25  -21.0225 26041.7 -03429.6 -07.5025 26266.5
 07 04 2013  09 26  -21.0223 26041.5 -03429.4 -07.5022 26266.3
 07 04 2013  09 27  -21.0221 26041.6 -03429.4 -07.5020 26266.4
 07 04 2013  09 28  -21.0225 26041.6 -03429.2 -07.5017 26266.4
 07 04 2013  09 29  -21.0232 26041.8 -03429.3 -07.5018 26266.6
 07 04 2013  09 30  -21.0237 26042.0 -03429.3 -07.5017 26266.8
 07 04 2013  09 31  -21.0243 26042.1 -03429.3 -07.5016 26266.9
 07 04 2013  09 32  -21.0247 26042.2 -03429.3 -07.5016 26267.1
 07 04 2013  09 33  -21.0251 26042.3 -03429.2 -07.5014 26267.1
 07 04 2013  09 34  -21.0257 26042.5 -03429.2 -07.5014 26267.3
 07 04 2013  09 35  -21.0262 26042.5 -03429.1 -07.5012 26267.3
 07 04 2013  09 36  -21.0265 26042.6 -03429.1 -07.5011 26267.4
 07 04 2013  09 37  -21.0266 26042.6 -03428.9 -07.5007 26267.4
 07 04 2013  09 38  -21.0271 26042.8 -03428.9 -07.5006 26267.6
 07 04 2013  09 39  -21.0275 26042.9 -03428.9 -07.5005 26267.7
 07 04 2013  09 40  -21.0278 26043.1 -03428.8 -07.5004 26267.8
 07 04 2013  09 41  -21.0283 26043.0 -03428.7 -07.5001 26267.8
 07 04 2013  09 42  -21.0290 26043.3 -03428.7 -07.5001 26268.0
 07 04 2013  09 43  -21.0293 26043.3 -03428.6 -07.4999 26268.1
 07 04 2013  09 44  -21.0298 26043.3 -03428.5 -07.4997 26268.0
 07 04 2013  09 45  -21.0302 26043.3 -03428.4 -07.4995 26268.0
 07 04 2013  09 46  -21.0302 26043.2 -03428.2 -07.4991 26267.9
 07 04 2013  09 47  -21.0309 26043.2 -03428.1 -07.4988 26267.8
 07 04 2013  09 48  -21.0312 26043.2 -03428.0 -07.4986 26267.8
 07 04 2013  09 49  -21.0311 26043.4 -03428.0 -07.4985 26268.0
 07 04 2013  09 50  -21.0314 26043.5 -03428.0 -07.4984 26268.1
 07 04 2013  09 51  -21.0321 26043.8 -03428.1 -07.4986 26268.5
 07 04 2013  09 52  -21.0324 26044.3 -03428.3 -07.4989 26268.9
 07 04 2013  09 53  -21.0327 26044.6 -03428.3 -07.4989 26269.2
 07 04 2013  09 54  -21.0327 26044.9 -03428.4 -07.4990 26269.6
 07 04 2013  09 55  -21.0328 26045.3 -03428.6 -07.4992 26270.0
 07 04 2013  09 56  -21.0326 26045.6 -03428.6 -07.4991 26270.3
 07 04 2013  09 57  -21.0324 26045.9 -03428.5 -07.4989 26270.6
 07 04 2013  09 58  -21.0326 26046.1 -03428.4 -07.4987 26270.8
 07 04 2013  09 59  -21.0328 26046.3 -03428.3 -07.4983 26270.9
 07 04 2013  10 00  -21.0327 26046.2 -03428.1 -07.4978 26270.9
 07 04 2013  10 01  -21.0335 26046.5 -03428.0 -07.4976 26271.1
 07 04 2013  10 02  -21.0347 26047.1 -03428.0 -07.4975 26271.7
 07 04 2013  10 03  -21.0361 26047.9 -03428.2 -07.4976 26272.5
 07 04 2013  10 04  -21.0375 26048.7 -03428.2 -07.4975 26273.3
 07 04 2013  10 05  -21.0387 26049.2 -03428.2 -07.4972 26273.8
 07 04 2013  10 06  -21.0391 26049.2 -03427.9 -07.4966 26273.8
 07 04 2013  10 07  -21.0395 26049.2 -03427.6 -07.4960 26273.7
 07 04 2013  10 08  -21.0401 26049.2 -03427.4 -07.4956 26273.7
 07 04 2013  10 09  -21.0407 26049.3 -03427.3 -07.4953 26273.8
 07 04 2013  10 10  -21.0414 26049.4 -03427.2 -07.4951 26273.9
 07 04 2013  10 11  -21.0423 26049.6 -03427.2 -07.4949 26274.1
 07 04 2013  10 12  -21.0432 26049.9 -03427.1 -07.4948 26274.3
 07 04 2013  10 13  -21.0438 26050.1 -03427.1 -07.4946 26274.6
 07 04 2013  10 14  -21.0443 26050.2 -03426.9 -07.4943 26274.6
 07 04 2013  10 15  -21.0450 26050.5 -03426.9 -07.4941 26274.9
 07 04 2013  10 16  -21.0455 26050.7 -03426.8 -07.4939 26275.1
 07 04 2013  10 17  -21.0459 26050.9 -03426.7 -07.4936 26275.3
 07 04 2013  10 18  -21.0468 26051.0 -03426.6 -07.4934 26275.4
 07 04 2013  10 19  -21.0474 26051.3 -03426.6 -07.4932 26275.7
 07 04 2013  10 20  -21.0480 26051.5 -03426.5 -07.4930 26275.8
 07 04 2013  10 21  -21.0482 26051.8 -03426.5 -07.4928 26276.1
 07 04 2013  10 22  -21.0481 26052.1 -03426.5 -07.4927 26276.5
 07 04 2013  10 23  -21.0487 26052.5 -03426.5 -07.4927 26276.9
 07 04 2013  10 24  -21.0497 26052.7 -03426.5 -07.4927 26277.1
 07 04 2013  10 25  -21.0508 26052.7 -03426.4 -07.4925 26277.1
 07 04 2013  10 26  -21.0517 26052.8 -03426.3 -07.4922 26277.1
 07 04 2013  10 27  -21.0524 26052.8 -03426.2 -07.4918 26277.1
 07 04 2013  10 28  -21.0533 26053.1 -03426.1 -07.4917 26277.4
 07 04 2013  10 29  -21.0541 26053.5 -03426.1 -07.4916 26277.8
 07 04 2013  10 30  -21.0549 26053.7 -03426.0 -07.4913 26277.9
 07 04 2013  10 31  -21.0555 26054.1 -03426.0 -07.4912 26278.4
 07 04 2013  10 32  -21.0559 26054.4 -03426.0 -07.4910 26278.7
 07 04 2013  10 33  -21.0563 26054.5 -03425.8 -07.4907 26278.8
 07 04 2013  10 34  -21.0562 26054.5 -03425.7 -07.4903 26278.8
 07 04 2013  10 35  -21.0562 26054.8 -03425.6 -07.4900 26279.0
 07 04 2013  10 36  -21.0563 26055.1 -03425.5 -07.4898 26279.3
 07 04 2013  10 37  -21.0569 26055.6 -03425.5 -07.4897 26279.8
 07 04 2013  10 38  -21.0578 26056.1 -03425.6 -07.4897 26280.4
 07 04 2013  10 39  -21.0586 26056.7 -03425.6 -07.4895 26280.9
 07 04 2013  10 40  -21.0594 26057.1 -03425.5 -07.4893 26281.3
 07 04 2013  10 41  -21.0600 26057.7 -03425.4 -07.4889 26281.8
 07 04 2013  10 42  -21.0606 26058.0 -03425.3 -07.4886 26282.2
 07 04 2013  10 43  -21.0608 26058.2 -03425.2 -07.4882 26282.4
 07 04 2013  10 44  -21.0610 26058.3 -03425.0 -07.4877 26282.4
 07 04 2013  10 45  -21.0619 26058.5 -03424.9 -07.4874 26282.6
 07 04 2013  10 46  -21.0624 26058.8 -03424.8 -07.4873 26282.9
 07 04 2013  10 47  -21.0629 26059.3 -03424.8 -07.4871 26283.4
 07 04 2013  10 48  -21.0633 26059.6 -03424.8 -07.4870 26283.7
 07 04 2013  10 49  -21.0638 26060.0 -03424.7 -07.4867 26284.1
 07 04 2013  10 50  -21.0645 26060.6 -03424.8 -07.4866 26284.6
 07 04 2013  10 51  -21.0651 26061.1 -03424.8 -07.4865 26285.2
 07 04 2013  10 52  -21.0661 26061.6 -03424.7 -07.4863 26285.6
 07 04 2013  10 53  -21.0674 26061.7 -03424.6 -07.4860 26285.7
 07 04 2013  10 54  -21.0684 26061.9 -03424.5 -07.4856 26285.9
 07 04 2013  10 55  -21.0694 26062.0 -03424.3 -07.4852 26286.0
 07 04 2013  10 56  -21.0704 26062.3 -03424.2 -07.4850 26286.3
 07 04 2013  10 57  -21.0714 26062.5 -03424.1 -07.4847 26286.4
 07 04 2013  10 58  -21.0721 26062.6 -03424.0 -07.4844 26286.5
 07 04 2013  10 59  -21.0729 26062.8 -03423.9 -07.4841 26286.7
 07 04 2013  11 00  -21.0735 26063.0 -03423.8 -07.4838 26286.9
 07 04 2013  11 01  -21.0741 26063.2 -03423.7 -07.4835 26287.1
 07 04 2013  11 02  -21.0748 26063.3 -03423.6 -07.4833 26287.2
 07 04 2013  11 03  -21.0755 26063.6 -03423.5 -07.4830 26287.4
 07 04 2013  11 04  -21.0761 26064.0 -03423.5 -07.4828 26287.9
 07 04 2013  11 05  -21.0765 26064.4 -03423.4 -07.4826 26288.2
 07 04 2013  11 06  -21.0769 26064.8 -03423.3 -07.4824 26288.6
 07 04 2013  11 07  -21.0774 26065.2 -03423.3 -07.4822 26289.0
 07 04 2013  11 08  -21.0782 26065.6 -03423.3 -07.4821 26289.5
 07 04 2013  11 09  -21.0793 26066.4 -03423.4 -07.4820 26290.2
 07 04 2013  11 10  -21.0805 26067.1 -03423.4 -07.4818 26290.9
 07 04 2013  11 11  -21.0817 26067.6 -03423.3 -07.4815 26291.4
 07 04 2013  11 12  -21.0829 26068.4 -03423.3 -07.4811 26292.2
 07 04 2013  11 13  -21.0839 26069.1 -03423.1 -07.4807 26292.9
 07 04 2013  11 14  -21.0846 26069.6 -03422.9 -07.4800 26293.3
 07 04 2013  11 15  -21.0854 26069.9 -03422.6 -07.4793 26293.6
 07 04 2013  11 16  -21.0864 26069.8 -03422.2 -07.4785 26293.4
 07 04 2013  11 17  -21.0870 26069.8 -03421.9 -07.4777 26293.4
 07 04 2013  11 18  -21.0878 26069.9 -03421.6 -07.4771 26293.5
 07 04 2013  11 19  -21.0887 26070.0 -03421.4 -07.4766 26293.6
 07 04 2013  11 20  -21.0892 26070.4 -03421.2 -07.4761 26293.9
 07 04 2013  11 21  -21.0898 26070.6 -03421.0 -07.4756 26294.1
 07 04 2013  11 22  -21.0900 26070.9 -03420.8 -07.4751 26294.4
 07 04 2013  11 23  -21.0904 26071.1 -03420.6 -07.4746 26294.6
 07 04 2013  11 24  -21.0908 26071.3 -03420.4 -07.4741 26294.7
 07 04 2013  11 25  -21.0913 26071.5 -03420.2 -07.4737 26294.9
 07 04 2013  11 26  -21.0922 26071.9 -03420.1 -07.4734 26295.3
 07 04 2013  11 27  -21.0926 26072.3 -03420.0 -07.4730 26295.7
 07 04 2013  11 28  -21.0929 26072.9 -03419.8 -07.4725 26296.2
 07 04 2013  11 29  -21.0931 26073.6 -03419.7 -07.4721 26296.9
 07 04 2013  11 30  -21.0934 26074.5 -03419.8 -07.4719 26297.8
 07 04 2013  11 31  -21.0939 26074.7 -03419.4 -07.4711 26298.0
 07 04 2013  11 32  -21.0943 26075.1 -03419.2 -07.4705 26298.4
 07 04 2013  11 33  -21.0947 26075.4 -03418.9 -07.4698 26298.5
 07 04 2013  11 34  -21.0952 26075.5 -03418.6 -07.4691 26298.6
 07 04 2013  11 35  -21.0959 26075.7 -03418.4 -07.4686 26298.8
 07 04 2013  11 36  -21.0964 26076.0 -03418.2 -07.4680 26299.1
 07 04 2013  11 37  -21.0972 26076.4 -03418.0 -07.4676 26299.5
 07 04 2013  11 38  -21.0975 26076.8 -03417.9 -07.4671 26299.8
 07 04 2013  11 39  -21.0976 26076.7 -03417.5 -07.4663 26299.7
 07 04 2013  11 40  -21.0977 26077.0 -03417.2 -07.4657 26300.0
 07 04 2013  11 41  -21.0977 26077.6 -03417.2 -07.4654 26300.5
 07 04 2013  11 42  -21.0977 26078.0 -03417.0 -07.4649 26300.9
 07 04 2013  11 43  -21.0977 26078.8 -03417.0 -07.4647 26301.8
 07 04 2013  11 44  -21.0979 26079.6 -03416.9 -07.4642 26302.5
 07 04 2013  11 45  -21.0986 26080.1 -03416.7 -07.4637 26302.9
 07 04 2013  11 46  -21.0996 26080.6 -03416.5 -07.4632 26303.5
 07 04 2013  11 47  -21.1002 26081.0 -03416.2 -07.4624 26303.8
 07 04 2013  11 48  -21.1007 26081.5 -03416.0 -07.4619 26304.3
 07 04 2013  11 49  -21.1015 26080.4 -03415.2 -07.4603 26303.0
 07 04 2013  11 50  -21.1019 26080.9 -03415.0 -07.4598 26303.5
 07 04 2013  11 51  -21.1023 26080.3 -03414.4 -07.4588 26302.9
 07 04 2013  11 52  -21.1023 26080.5 -03414.2 -07.4582 26303.0
 07 04 2013  11 53  -21.1024 26080.0 -03413.8 -07.4574 26302.5
 07 04 2013  11 54  -21.1020 26080.4 -03413.7 -07.4571 26302.9
 07 04 2013  11 55  -21.1021 26080.7 -03413.6 -07.4567 26303.1
 07 04 2013  11 56  -21.1021 26081.1 -03413.5 -07.4564 26303.6
 07 04 2013  11 57  -21.1021 26081.1 -03413.2 -07.4559 26303.5
 07 04 2013  11 58  -21.1022 26081.3 -03413.0 -07.4554 26303.6
 07 04 2013  11 59  -21.1027 26081.2 -03412.8 -07.4549 26303.5
 07 04 2013  12 00  -21.1031 26081.5 -03412.7 -07.4547 26303.8
 07 04 2013  12 01  -21.1032 26082.0 -03412.7 -07.4545 26304.3
 07 04 2013  12 02  -21.1035 26082.1 -03412.5 -07.4541 26304.4
 07 04 2013  12 03  -21.1036 26082.5 -03412.5 -07.4538 26304.8
 07 04 2013  12 04  -21.1037 26083.0 -03412.4 -07.4537 26305.3
 07 04 2013  12 05  -21.1037 26083.3 -03412.4 -07.4534 26305.6
 07 04 2013  12 06  -21.1035 26084.1 -03412.4 -07.4533 26306.3
 07 04 2013  12 07  -21.1036 26084.7 -03412.4 -07.4531 26306.9
 07 04 2013  12 08  -21.1036 26084.9 -03412.2 -07.4527 26307.1
 07 04 2013  12 09  -21.1036 26084.9 -03411.9 -07.4520 26307.0
 07 04 2013  12 10  -21.1036 26085.5 -03412.0 -07.4519 26307.7
 07 04 2013  12 11  -21.1037 26085.6 -03411.8 -07.4515 26307.8
 07 04 2013  12 12  -21.1038 26085.8 -03411.7 -07.4512 26307.9
 07 04 2013  12 13  -21.1038 26086.5 -03411.7 -07.4511 26308.6
 07 04 2013  12 14  -21.1038 26086.9 -03411.7 -07.4509 26309.1
 07 04 2013  12 15  -21.1036 26086.8 -03411.4 -07.4503 26309.0
 07 04 2013  12 16  -21.1032 26087.1 -03411.3 -07.4500 26309.2
 07 04 2013  12 17  -21.1028 26087.6 -03411.3 -07.4499 26309.7
 07 04 2013  12 18  -21.1029 26088.2 -03411.4 -07.4499 26310.3
 07 04 2013  12 19  -21.1027 26088.7 -03411.3 -07.4496 26310.8
 07 04 2013  12 20  -21.1024 26088.7 -03411.0 -07.4490 26310.8
 07 04 2013  12 21  -21.1025 26088.3 -03410.6 -07.4483 26310.3
 07 04 2013  12 22  -21.1026 26087.9 -03410.3 -07.4477 26309.9
 07 04 2013  12 23  -21.1025 26088.0 -03410.2 -07.4474 26310.0
 07 04 2013  12 24  -21.1028 26087.5 -03409.9 -07.4469 26309.5
 07 04 2013  12 25  -21.1029 26087.7 -03409.9 -07.4468 26309.6
 07 04 2013  12 26  -21.1032 26087.8 -03409.8 -07.4466 26309.7
 07 04 2013  12 27  -21.1028 26088.0 -03409.7 -07.4463 26309.9
 07 04 2013  12 28  -21.1031 26087.8 -03409.4 -07.4458 26309.6
 07 04 2013  12 29  -21.1034 26087.5 -03409.2 -07.4454 26309.4
 07 04 2013  12 30  -21.1036 26087.2 -03408.9 -07.4449 26309.0
 07 04 2013  12 31  -21.1037 26087.5 -03408.9 -07.4449 26309.3
 07 04 2013  12 32  -21.1038 26087.8 -03409.0 -07.4448 26309.6
 07 04 2013  12 33  -21.1039 26088.0 -03409.0 -07.4447 26309.8
 07 04 2013  12 34  -21.1037 26088.1 -03408.8 -07.4445 26309.9
 07 04 2013  12 35  -21.1035 26088.1 -03408.7 -07.4442 26309.9
 07 04 2013  12 36  -21.1033 26087.4 -03408.3 -07.4435 26309.1
 07 04 2013  12 37  -21.1030 26087.5 -03408.3 -07.4435 26309.2
 07 04 2013  12 38  -21.1030 26087.1 -03408.2 -07.4433 26308.8
 07 04 2013  12 39  -21.1028 26086.0 -03407.8 -07.4427 26307.7
 07 04 2013  12 40  -21.1027 26086.4 -03408.0 -07.4431 26308.1
 07 04 2013  12 41  -21.1028 26086.5 -03408.1 -07.4434 26308.2
 07 04 2013  12 42  -21.1026 26085.6 -03407.8 -07.4429 26307.3
 07 04 2013  12 43  -21.1023 26085.0 -03407.6 -07.4427 26306.6
 07 04 2013  12 44  -21.1020 26084.7 -03407.6 -07.4427 26306.4
 07 04 2013  12 45  -21.1017 26084.6 -03407.6 -07.4427 26306.2
 07 04 2013  12 46  -21.1012 26085.5 -03408.0 -07.4434 26307.2
 07 04 2013  12 47  -21.1008 26086.1 -03408.2 -07.4435 26307.8
 07 04 2013  12 48  -21.1004 26086.4 -03408.2 -07.4435 26308.1
 07 04 2013  12 49  -21.0997 26087.2 -03408.4 -07.4437 26308.9
 07 04 2013  12 50  -21.0991 26088.4 -03408.7 -07.4440 26310.2
 07 04 2013  12 51  -21.0987 26089.0 -03408.6 -07.4438 26310.7
 07 04 2013  12 52  -21.0983 26089.8 -03408.7 -07.4436 26311.5
 07 04 2013  12 53  -21.0979 26090.8 -03408.7 -07.4435 26312.5
 07 04 2013  12 54  -21.0974 26091.5 -03408.7 -07.4431 26313.2
 07 04 2013  12 55  -21.0968 26091.3 -03408.2 -07.4423 26313.0
 07 04 2013  12 56  -21.0966 26091.2 -03407.9 -07.4416 26312.8
 07 04 2013  12 57  -21.0958 26090.6 -03407.4 -07.4407 26312.2
 07 04 2013  12 58  -21.0950 26090.3 -03407.1 -07.4401 26311.9
 07 04 2013  12 59  -21.0940 26090.3 -03407.0 -07.4398 26311.8
 07 04 2013  13 00  -21.0929 26090.8 -03407.0 -07.4398 26312.3
 07 04 2013  13 01  -21.0917 26090.9 -03406.9 -07.4395 26312.4
 07 04 2013  13 02  -21.0909 26091.2 -03406.9 -07.4394 26312.7
 07 04 2013  13 03  -21.0903 26091.1 -03406.8 -07.4391 26312.6
 07 04 2013  13 04  -21.0898 26090.8 -03406.5 -07.4387 26312.3
 07 04 2013  13 05  -21.0890 26090.2 -03406.2 -07.4382 26311.6
 07 04 2013  13 06  -21.0883 26089.7 -03406.0 -07.4380 26311.1
 07 04 2013  13 07  -21.0876 26089.5 -03406.0 -07.4380 26310.9
 07 04 2013  13 08  -21.0869 26089.5 -03406.0 -07.4380 26310.9
 07 04 2013  13 09  -21.0864 26089.6 -03406.1 -07.4382 26311.0
 07 04 2013  13 10  -21.0856 26089.6 -03406.2 -07.4383 26311.0
 07 04 2013  13 11  -21.0845 26089.3 -03406.1 -07.4382 26310.7
 07 04 2013  13 12  -21.0834 26089.1 -03406.0 -07.4381 26310.5
 07 04 2013  13 13  -21.0824 26089.0 -03406.2 -07.4384 26310.4
 07 04 2013  13 14  -21.0816 26089.0 -03406.4 -07.4388 26310.5
 07 04 2013  13 15  -21.0806 26089.2 -03406.6 -07.4393 26310.7
 07 04 2013  13 16  -21.0797 26089.2 -03406.7 -07.4396 26310.6
 07 04 2013  13 17  -21.0788 26089.4 -03407.0 -07.4401 26310.9
 07 04 2013  13 18  -21.0778 26090.1 -03407.3 -07.4406 26311.7
 07 04 2013  13 19  -21.0768 26091.0 -03407.8 -07.4413 26312.6
 07 04 2013  13 20  -21.0759 26091.7 -03408.1 -07.4417 26313.4
 07 04 2013  13 21  -21.0753 26091.7 -03408.0 -07.4416 26313.3
 07 04 2013  13 22  -21.0748 26091.6 -03408.0 -07.4416 26313.2
 07 04 2013  13 23  -21.0740 26091.2 -03407.9 -07.4415 26312.8
 07 04 2013  13 24  -21.0730 26091.3 -03408.0 -07.4417 26312.9
 07 04 2013  13 25  -21.0724 26091.3 -03408.1 -07.4420 26313.0
 07 04 2013  13 26  -21.0718 26091.7 -03408.4 -07.4425 26313.4
 07 04 2013  13 27  -21.0712 26092.5 -03408.8 -07.4432 26314.2
 07 04 2013  13 28  -21.0708 26092.7 -03409.1 -07.4436 26314.5
 07 04 2013  13 29  -21.0703 26092.6 -03409.0 -07.4436 26314.3
 07 04 2013  13 30  -21.0698 26092.6 -03409.1 -07.4438 26314.4
 07 04 2013  13 31  -21.0693 26092.3 -03409.1 -07.4437 26314.0
 07 04 2013  13 32  -21.0687 26092.3 -03409.1 -07.4439 26314.1
 07 04 2013  13 33  -21.0685 26092.6 -03409.3 -07.4443 26314.4
 07 04 2013  13 34  -21.0682 26093.4 -03409.7 -07.4449 26315.2
 07 04 2013  13 35  -21.0682 26094.0 -03410.0 -07.4452 26315.8
 07 04 2013  13 36  -21.0679 26094.5 -03410.1 -07.4455 26316.4
 07 04 2013  13 37  -21.0674 26094.9 -03410.2 -07.4455 26316.8
 07 04 2013  13 38  -21.0673 26094.9 -03410.2 -07.4455 26316.8
 07 04 2013  13 39  -21.0668 26094.8 -03410.1 -07.4453 26316.7
 07 04 2013  13 40  -21.0663 26094.9 -03410.2 -07.4454 26316.8
 07 04 2013  13 41  -21.0655 26094.7 -03410.1 -07.4454 26316.5
 07 04 2013  13 42  -21.0651 26094.8 -03410.3 -07.4457 26316.7
 07 04 2013  13 43  -21.0646 26094.7 -03410.4 -07.4460 26316.7
 07 04 2013  13 44  -21.0640 26095.4 -03410.8 -07.4467 26317.3
 07 04 2013  13 45  -21.0641 26095.9 -03411.1 -07.4472 26317.9
 07 04 2013  13 46  -21.0636 26095.8 -03411.1 -07.4470 26317.8
 07 04 2013  13 47  -21.0629 26095.6 -03411.0 -07.4470 26317.6
 07 04 2013  13 48  -21.0623 26095.3 -03410.9 -07.4470 26317.3
 07 04 2013  13 49  -21.0619 26095.2 -03411.1 -07.4473 26317.2
 07 04 2013  13 50  -21.0613 26095.1 -03411.2 -07.4475 26317.1
 07 04 2013  13 51  -21.0608 26094.7 -03411.2 -07.4476 26316.7
 07 04 2013  13 52  -21.0605 26094.6 -03411.3 -07.4479 26316.7
 07 04 2013  13 53  -21.0603 26094.4 -03411.4 -07.4482 26316.5
 07 04 2013  13 54  -21.0602 26094.2 -03411.5 -07.4485 26316.3
 07 04 2013  13 55  -21.0601 26094.2 -03411.7 -07.4489 26316.3
 07 04 2013  13 56  -21.0603 26093.9 -03411.7 -07.4490 26316.0
 07 04 2013  13 57  -21.0601 26093.4 -03411.7 -07.4492 26315.5
 07 04 2013  13 58  -21.0602 26092.9 -03411.8 -07.4494 26315.0
 07 04 2013  13 59  -21.0601 26093.0 -03412.1 -07.4501 26315.1
 07 04 2013  14 00  -21.0598 26092.1 -03412.0 -07.4502 26314.3
 07 04 2013  14 01  -21.0592 26091.3 -03412.0 -07.4504 26313.4
 07 04 2013  14 02  -21.0591 26091.4 -03412.5 -07.4513 26313.6
 07 04 2013  14 03  -21.0594 26091.8 -03412.9 -07.4523 26314.0
 07 04 2013  14 04  -21.0601 26091.9 -03413.2 -07.4529 26314.2
 07 04 2013  14 05  -21.0603 26091.4 -03413.2 -07.4529 26313.7
 07 04 2013  14 06  -21.0600 26091.0 -03413.2 -07.4530 26313.3
 07 04 2013  14 07  -21.0598 26090.8 -03413.3 -07.4533 26313.2
 07 04 2013  14 08  -21.0598 26090.8 -03413.6 -07.4539 26313.2
 07 04 2013  14 09  -21.0599 26090.8 -03413.8 -07.4544 26313.2
 07 04 2013  14 10  -21.0596 26090.8 -03414.0 -07.4547 26313.2
 07 04 2013  14 11  -21.0598 26090.7 -03414.2 -07.4552 26313.2
 07 04 2013  14 12  -21.0589 26090.5 -03414.2 -07.4554 26313.0
 07 04 2013  14 13  -21.0585 26090.6 -03414.6 -07.4562 26313.1
 07 04 2013  14 14  -21.0582 26090.2 -03414.8 -07.4568 26312.8
 07 04 2013  14 15  -21.0580 26090.0 -03415.1 -07.4574 26312.6
 07 04 2013  14 16  -21.0580 26089.5 -03415.2 -07.4579 26312.1
 07 04 2013  14 17  -21.0577 26088.3 -03415.1 -07.4578 26310.9
 07 04 2013  14 18  -21.0571 26086.8 -03414.9 -07.4579 26309.3
 07 04 2013  14 19  -21.0565 26085.4 -03415.0 -07.4584 26308.0
 07 04 2013  14 20  -21.0562 26084.1 -03415.2 -07.4592 26306.7
 07 04 2013  14 21  -21.0561 26083.3 -03415.5 -07.4603 26305.9
 07 04 2013  14 22  -21.0560 26082.7 -03416.1 -07.4616 26305.4
 07 04 2013  14 23  -21.0559 26081.8 -03416.4 -07.4626 26304.6
 07 04 2013  14 24  -21.0553 26080.6 -03416.6 -07.4634 26303.5
 07 04 2013  14 25  -21.0547 26079.3 -03416.8 -07.4641 26302.2
 07 04 2013  14 26  -21.0543 26078.3 -03417.1 -07.4651 26301.2
 07 04 2013  14 27  -21.0543 26077.8 -03417.7 -07.4665 26300.8
 07 04 2013  14 28  -21.0542 26077.6 -03418.3 -07.4678 26300.7
 07 04 2013  14 29  -21.0544 26077.4 -03418.8 -07.4690 26300.6
 07 04 2013  14 30  -21.0544 26077.6 -03419.4 -07.4702 26300.8
 07 04 2013  14 31  -21.0548 26078.3 -03420.1 -07.4716 26301.6
 07 04 2013  14 32  -21.0552 26079.2 -03420.8 -07.4728 26302.6
 07 04 2013  14 33  -21.0555 26079.7 -03421.2 -07.4735 26303.2
 07 04 2013  14 34  -21.0557 26080.4 -03421.6 -07.4741 26303.9
 07 04 2013  14 35  -21.0558 26081.1 -03421.9 -07.4746 26304.6
 07 04 2013  14 36  -21.0558 26081.5 -03422.0 -07.4748 26305.1
 07 04 2013  14 37  -21.0557 26081.8 -03422.1 -07.4748 26305.4
 07 04 2013  14 38  -21.0555 26082.1 -03422.2 -07.4749 26305.7
 07 04 2013  14 39  -21.0552 26082.1 -03422.1 -07.4748 26305.7
 07 04 2013  14 40  -21.0549 26081.9 -03422.0 -07.4747 26305.5
 07 04 2013  14 41  -21.0547 26081.6 -03421.9 -07.4745 26305.1
 07 04 2013  14 42  -21.0545 26081.3 -03421.9 -07.4746 26304.8
 07 04 2013  14 43  -21.0542 26081.0 -03421.9 -07.4747 26304.5
 07 04 2013  14 44  -21.0539 26081.2 -03422.1 -07.4751 26304.7
 07 04 2013  14 45  -21.0539 26081.6 -03422.5 -07.4757 26305.2
 07 04 2013  14 46  -21.0537 26081.5 -03422.5 -07.4759 26305.1
 07 04 2013  14 47  -21.0529 26081.0 -03422.5 -07.4760 26304.6
 07 04 2013  14 48  -21.0524 26080.6 -03422.6 -07.4762 26304.2
 07 04 2013  14 49  -21.0522 26080.3 -03422.7 -07.4766 26304.0
 07 04 2013  14 50  -21.0522 26080.1 -03423.0 -07.4772 26303.8
 07 04 2013  14 51  -21.0522 26079.9 -03423.2 -07.4777 26303.6
 07 04 2013  14 52  -21.0520 26079.6 -03423.3 -07.4781 26303.3
 07 04 2013  14 53  -21.0519 26079.3 -03423.5 -07.4786 26303.0
 07 04 2013  14 54  -21.0520 26079.0 -03423.7 -07.4791 26302.7
 07 04 2013  14 55  -21.0522 26078.8 -03423.9 -07.4796 26302.6
 07 04 2013  14 56  -21.0521 26078.7 -03424.1 -07.4801 26302.6
 07 04 2013  14 57  -21.0523 26078.6 -03424.3 -07.4805 26302.5
 07 04 2013  14 58  -21.0525 26078.6 -03424.5 -07.4810 26302.5
 07 04 2013  14 59  -21.0527 26078.6 -03424.7 -07.4814 26302.5
 07 04 2013  15 00  -21.0531 26078.4 -03424.8 -07.4816 26302.3
 07 04 2013  15 01  -21.0532 26078.2 -03424.8 -07.4818 26302.2
 07 04 2013  15 02  -21.0533 26077.9 -03424.9 -07.4820 26301.8
 07 04 2013  15 03  -21.0535 26077.6 -03425.0 -07.4823 26301.6
 07 04 2013  15 04  -21.0537 26077.6 -03425.2 -07.4827 26301.5
 07 04 2013  15 05  -21.0540 26077.6 -03425.4 -07.4831 26301.6
 07 04 2013  15 06  -21.0542 26077.6 -03425.5 -07.4834 26301.6
 07 04 2013  15 07  -21.0547 26077.7 -03425.7 -07.4838 26301.8
 07 04 2013  15 08  -21.0555 26078.1 -03425.9 -07.4842 26302.2
 07 04 2013  15 09  -21.0566 26078.1 -03425.9 -07.4841 26302.1
 07 04 2013  15 10  -21.0566 26077.5 -03425.6 -07.4836 26301.5
 07 04 2013  15 11  -21.0566 26076.9 -03425.4 -07.4834 26300.9
 07 04 2013  15 12  -21.0568 26076.4 -03425.4 -07.4835 26300.4
 07 04 2013  15 13  -21.0572 26076.1 -03425.5 -07.4838 26300.1
 07 04 2013  15 14  -21.0579 26076.1 -03425.7 -07.4842 26300.2
 07 04 2013  15 15  -21.0587 26076.2 -03425.9 -07.4845 26300.3
 07 04 2013  15 16  -21.0593 26076.0 -03425.9 -07.4846 26300.1
 07 04 2013  15 17  -21.0598 26076.0 -03425.9 -07.4847 26300.1
 07 04 2013  15 18  -21.0606 26076.2 -03426.0 -07.4850 26300.3
 07 04 2013  15 19  -21.0615 26076.4 -03426.2 -07.4852 26300.5
 07 04 2013  15 20  -21.0622 26076.5 -03426.2 -07.4852 26300.6
 07 04 2013  15 21  -21.0627 26076.4 -03426.1 -07.4851 26300.5
 07 04 2013  15 22  -21.0630 26076.2 -03426.0 -07.4850 26300.3
 07 04 2013  15 23  -21.0637 26076.3 -03426.1 -07.4852 26300.4
 07 04 2013  15 24  -21.0642 26076.0 -03426.0 -07.4850 26300.1
 07 04 2013  15 25  -21.0644 26075.7 -03425.9 -07.4849 26299.8
 07 04 2013  15 26  -21.0647 26075.4 -03425.9 -07.4848 26299.4
 07 04 2013  15 27  -21.0652 26075.3 -03426.0 -07.4851 26299.4
 07 04 2013  15 28  -21.0658 26075.0 -03426.0 -07.4851 26299.1
 07 04 2013  15 29  -21.0664 26075.0 -03426.0 -07.4853 26299.1
 07 04 2013  15 30  -21.0669 26075.3 -03426.3 -07.4857 26299.4
 07 04 2013  15 31  -21.0678 26075.5 -03426.4 -07.4860 26299.7
 07 04 2013  15 32  -21.0684 26075.8 -03426.5 -07.4862 26300.0
 07 04 2013  15 33  -21.0687 26075.8 -03426.5 -07.4861 26299.9
 07 04 2013  15 34  -21.0694 26075.5 -03426.4 -07.4859 26299.6
 07 04 2013  15 35  -21.0700 26074.9 -03426.1 -07.4854 26299.0
 07 04 2013  15 36  -21.0705 26074.4 -03425.8 -07.4849 26298.5
 07 04 2013  15 37  -21.0709 26073.7 -03425.4 -07.4844 26297.8
 07 04 2013  15 38  -21.0712 26073.1 -03425.2 -07.4841 26297.2
 07 04 2013  15 39  -21.0714 26072.5 -03425.0 -07.4838 26296.5
 07 04 2013  15 40  -21.0718 26072.0 -03424.9 -07.4837 26296.0
 07 04 2013  15 41  -21.0722 26071.8 -03425.0 -07.4839 26295.8
 07 04 2013  15 42  -21.0726 26071.9 -03425.2 -07.4843 26295.9
 07 04 2013  15 43  -21.0732 26072.3 -03425.5 -07.4848 26296.4
 07 04 2013  15 44  -21.0738 26072.8 -03425.7 -07.4852 26296.8
 07 04 2013  15 45  -21.0748 26073.6 -03426.1 -07.4857 26297.7
 07 04 2013  15 46  -21.0758 26074.2 -03426.2 -07.4859 26298.3
 07 04 2013  15 47  -21.0768 26074.8 -03426.3 -07.4859 26298.9
 07 04 2013  15 48  -21.0774 26075.1 -03426.1 -07.4855 26299.2
 07 04 2013  15 49  -21.0776 26075.4 -03426.0 -07.4851 26299.5
 07 04 2013  15 50  -21.0779 26075.3 -03425.8 -07.4846 26299.4
 07 04 2013  15 51  -21.0782 26075.2 -03425.6 -07.4842 26299.3
 07 04 2013  15 52  -21.0782 26075.2 -03425.4 -07.4838 26299.3
 07 04 2013  15 53  -21.0786 26075.2 -03425.3 -07.4836 26299.2
 07 04 2013  15 54  -21.0789 26074.9 -03425.0 -07.4831 26298.9
 07 04 2013  15 55  -21.0794 26074.5 -03424.7 -07.4827 26298.4
 07 04 2013  15 56  -21.0793 26073.9 -03424.4 -07.4820 26297.8
 07 04 2013  15 57  -21.0795 26073.4 -03424.2 -07.4817 26297.3
 07 04 2013  15 58  -21.0797 26073.3 -03424.1 -07.4817 26297.2
 07 04 2013  15 59  -21.0813 26074.0 -03424.5 -07.4823 26297.9
 07 04 2013  16 00  -21.0823 26073.8 -03424.2 -07.4817 26297.6
 07 04 2013  16 01  -21.0831 26073.6 -03424.0 -07.4813 26297.5
 07 04 2013  16 02  -21.0834 26073.1 -03423.6 -07.4806 26296.9
 07 04 2013  16 03  -21.0837 26072.4 -03423.2 -07.4800 26296.2
 07 04 2013  16 04  -21.0835 26071.5 -03422.8 -07.4794 26295.3
 07 04 2013  16 05  -21.0837 26071.0 -03422.7 -07.4793 26294.7
 07 04 2013  16 06  -21.0839 26070.4 -03422.6 -07.4792 26294.1
 07 04 2013  16 07  -21.0840 26069.9 -03422.6 -07.4792 26293.6
 07 04 2013  16 08  -21.0837 26069.5 -03422.6 -07.4794 26293.2
 07 04 2013  16 09  -21.0839 26069.9 -03422.9 -07.4800 26293.6
 07 04 2013  16 10  -21.0848 26070.8 -03423.5 -07.4809 26294.6
 07 04 2013  16 11  -21.0860 26071.9 -03424.0 -07.4817 26295.8
 07 04 2013  16 12  -21.0867 26072.5 -03424.0 -07.4816 26296.4
 07 04 2013  16 13  -21.0875 26073.4 -03424.2 -07.4817 26297.2
 07 04 2013  16 14  -21.0882 26074.0 -03424.1 -07.4815 26297.9
 07 04 2013  16 15  -21.0884 26074.1 -03423.9 -07.4809 26297.9
 07 04 2013  16 16  -21.0882 26073.8 -03423.5 -07.4801 26297.6
 07 04 2013  16 17  -21.0887 26073.5 -03423.2 -07.4795 26297.3
 07 04 2013  16 18  -21.0886 26071.7 -03422.2 -07.4779 26295.4
 07 04 2013  16 19  -21.0875 26069.8 -03421.2 -07.4763 26293.3
 07 04 2013  16 20  -21.0870 26068.0 -03420.6 -07.4755 26291.4
 07 04 2013  16 21  -21.0866 26066.6 -03420.2 -07.4751 26290.0
 07 04 2013  16 22  -21.0872 26065.6 -03420.1 -07.4752 26289.0
 07 04 2013  16 23  -21.0876 26064.5 -03419.9 -07.4750 26287.9
 07 04 2013  16 24  -21.0879 26063.9 -03419.9 -07.4752 26287.3
 07 04 2013  16 25  -21.0887 26063.0 -03419.8 -07.4752 26286.4
 07 04 2013  16 26  -21.0893 26061.1 -03419.1 -07.4743 26284.5
 07 04 2013  16 27  -21.0891 26058.8 -03418.2 -07.4730 26282.0
 07 04 2013  16 28  -21.0889 26056.9 -03417.8 -07.4726 26280.1
 07 04 2013  16 29  -21.0893 26055.5 -03417.7 -07.4727 26278.7
 07 04 2013  16 30  -21.0893 26054.4 -03417.6 -07.4729 26277.5
 07 04 2013  16 31  -21.0898 26053.7 -03417.8 -07.4735 26276.9
 07 04 2013  16 32  -21.0905 26053.3 -03418.0 -07.4741 26276.6
 07 04 2013  16 33  -21.0913 26053.5 -03418.4 -07.4748 26276.8
 07 04 2013  16 34  -21.0924 26053.9 -03418.7 -07.4754 26277.3
 07 04 2013  16 35  -21.0932 26054.5 -03418.9 -07.4757 26277.8
 07 04 2013  16 36  -21.0940 26055.3 -03419.2 -07.4760 26278.7
 07 04 2013  16 37  -21.0946 26056.3 -03419.4 -07.4762 26279.7
 07 04 2013  16 38  -21.0955 26057.1 -03419.4 -07.4761 26280.5
 07 04 2013  16 39  -21.0959 26057.7 -03419.3 -07.4757 26281.1
 07 04 2013  16 40  -21.0961 26058.3 -03419.2 -07.4752 26281.6
 07 04 2013  16 41  -21.0962 26058.7 -03419.0 -07.4746 26282.0
 07 04 2013  16 42  -21.0964 26059.4 -03418.9 -07.4743 26282.7
 07 04 2013  16 43  -21.0967 26060.2 -03419.0 -07.4742 26283.5
 07 04 2013  16 44  -21.0970 26060.7 -03418.8 -07.4737 26283.9
 07 04 2013  16 45  -21.0969 26060.8 -03418.4 -07.4729 26284.0
 07 04 2013  16 46  -21.0965 26060.9 -03418.1 -07.4723 26284.1
 07 04 2013  16 47  -21.0961 26060.7 -03417.8 -07.4715 26283.9
 07 04 2013  16 48  -21.0956 26060.4 -03417.4 -07.4708 26283.5
 07 04 2013  16 49  -21.0951 26059.9 -03417.0 -07.4701 26283.0
 07 04 2013  16 50  -21.0946 26059.6 -03416.8 -07.4697 26282.7
 07 04 2013  16 51  -21.0944 26059.2 -03416.5 -07.4692 26282.2
 07 04 2013  16 52  -21.0941 26058.9 -03416.3 -07.4688 26281.9
 07 04 2013  16 53  -21.0939 26058.9 -03416.2 -07.4686 26281.9
 07 04 2013  16 54  -21.0935 26058.9 -03416.2 -07.4685 26281.9
 07 04 2013  16 55  -21.0933 26058.8 -03416.1 -07.4683 26281.8
 07 04 2013  16 56  -21.0930 26058.8 -03416.0 -07.4681 26281.7
 07 04 2013  16 57  -21.0930 26059.0 -03416.0 -07.4681 26282.0
 07 04 2013  16 58  -21.0931 26059.4 -03416.1 -07.4681 26282.4
 07 04 2013  16 59  -21.0931 26059.7 -03416.0 -07.4680 26282.6
 07 04 2013  17 00  -21.0930 26059.8 -03415.9 -07.4677 26282.7
 07 04 2013  17 01  -21.0929 26059.8 -03415.7 -07.4673 26282.7
 07 04 2013  17 02  -21.0928 26060.0 -03415.6 -07.4670 26282.9
 07 04 2013  17 03  -21.0927 26060.0 -03415.4 -07.4666 26282.8
 07 04 2013  17 04  -21.0925 26059.9 -03415.2 -07.4662 26282.7
 07 04 2013  17 05  -21.0922 26059.6 -03415.0 -07.4657 26282.4
 07 04 2013  17 06  -21.0920 26059.4 -03414.7 -07.4653 26282.2
 07 04 2013  17 07  -21.0918 26059.0 -03414.5 -07.4649 26281.7
 07 04 2013  17 08  -21.0915 26058.5 -03414.2 -07.4644 26281.2
 07 04 2013  17 09  -21.0911 26057.9 -03413.9 -07.4640 26280.6
 07 04 2013  17 10  -21.0909 26057.4 -03413.7 -07.4637 26280.1
 07 04 2013  17 11  -21.0908 26057.0 -03413.6 -07.4635 26279.6
 07 04 2013  17 12  -21.0907 26056.6 -03413.5 -07.4633 26279.2
 07 04 2013  17 13  -21.0906 26056.3 -03413.3 -07.4632 26278.9
 07 04 2013  17 14  -21.0906 26056.1 -03413.3 -07.4632 26278.7
 07 04 2013  17 15  -21.0907 26056.0 -03413.3 -07.4631 26278.6
 07 04 2013  17 16  -21.0907 26055.8 -03413.2 -07.4629 26278.4
 07 04 2013  17 17  -21.0908 26055.8 -03413.2 -07.4629 26278.4
 07 04 2013  17 18  -21.0907 26055.7 -03413.1 -07.4628 26278.3
 07 04 2013  17 19  -21.0905 26055.5 -03413.0 -07.4626 26278.0
 07 04 2013  17 20  -21.0904 26055.2 -03412.8 -07.4623 26277.8
 07 04 2013  17 21  -21.0902 26055.0 -03412.7 -07.4622 26277.6
 07 04 2013  17 22  -21.0900 26054.9 -03412.6 -07.4620 26277.4
 07 04 2013  17 23  -21.0899 26054.7 -03412.5 -07.4618 26277.2
 07 04 2013  17 24  -21.0897 26054.4 -03412.4 -07.4616 26276.9
 07 04 2013  17 25  -21.0895 26054.2 -03412.2 -07.4613 26276.7
 07 04 2013  17 26  -21.0892 26053.9 -03412.1 -07.4612 26276.4
 07 04 2013  17 27  -21.0889 26053.7 -03412.0 -07.4610 26276.1
 07 04 2013  17 28  -21.0888 26053.4 -03411.9 -07.4609 26275.9
 07 04 2013  17 29  -21.0885 26053.1 -03411.8 -07.4607 26275.6
 07 04 2013  17 30  -21.0881 26052.9 -03411.7 -07.4605 26275.3
 07 04 2013  17 31  -21.0879 26052.7 -03411.6 -07.4605 26275.1
 07 04 2013  17 32  -21.0877 26052.6 -03411.6 -07.4604 26275.0
 07 04 2013  17 33  -21.0876 26052.5 -03411.6 -07.4604 26274.9
 07 04 2013  17 34  -21.0874 26052.6 -03411.6 -07.4604 26275.0
 07 04 2013  17 35  -21.0872 26052.7 -03411.6 -07.4604 26275.2
 07 04 2013  17 36  -21.0870 26052.8 -03411.6 -07.4603 26275.2
 07 04 2013  17 37  -21.0867 26052.8 -03411.5 -07.4602 26275.2
 07 04 2013  17 38  -21.0863 26052.7 -03411.4 -07.4600 26275.1
 07 04 2013  17 39  -21.0861 26052.8 -03411.4 -07.4599 26275.1
 07 04 2013  17 40  -21.0856 26052.7 -03411.3 -07.4597 26275.0
 07 04 2013  17 41  -21.0851 26052.6 -03411.2 -07.4595 26275.0
 07 04 2013  17 42  -21.0846 26052.5 -03411.0 -07.4592 26274.8
 07 04 2013  17 43  -21.0841 26052.3 -03410.9 -07.4589 26274.6
 07 04 2013  17 44  -21.0836 26052.2 -03410.8 -07.4589 26274.5
 07 04 2013  17 45  -21.0832 26052.0 -03410.7 -07.4587 26274.3
 07 04 2013  17 46  -21.0828 26051.9 -03410.6 -07.4585 26274.2
 07 04 2013  17 47  -21.0823 26051.8 -03410.5 -07.4584 26274.0
 07 04 2013  17 48  -21.0819 26051.5 -03410.4 -07.4582 26273.8
 07 04 2013  17 49  -21.0815 26051.4 -03410.3 -07.4581 26273.7
 07 04 2013  17 50  -21.0811 26051.4 -03410.3 -07.4579 26273.6
 07 04 2013  17 51  -21.0806 26051.3 -03410.2 -07.4579 26273.5
 07 04 2013  17 52  -21.0802 26051.2 -03410.2 -07.4578 26273.4
 07 04 2013  17 53  -21.0798 26051.1 -03410.1 -07.4577 26273.3
 07 04 2013  17 54  -21.0793 26051.0 -03410.1 -07.4576 26273.2
 07 04 2013  17 55  -21.0789 26050.9 -03410.0 -07.4576 26273.1
 07 04 2013  17 56  -21.0784 26050.9 -03410.0 -07.4575 26273.1
 07 04 2013  17 57  -21.0779 26050.8 -03410.0 -07.4574 26273.0
 07 04 2013  17 58  -21.0775 26050.8 -03410.0 -07.4574 26273.0
 07 04 2013  17 59  -21.0772 26050.8 -03410.0 -07.4574 26273.1
 07 04 2013  18 00  -21.0767 26050.9 -03409.9 -07.4574 26273.1
 07 04 2013  18 01  -21.0762 26050.8 -03409.9 -07.4573 26273.0
 07 04 2013  18 02  -21.0759 26050.8 -03409.9 -07.4572 26273.0
 07 04 2013  18 03  -21.0755 26050.8 -03409.9 -07.4572 26273.0
 07 04 2013  18 04  -21.0750 26050.8 -03409.8 -07.4571 26273.0
 07 04 2013  18 05  -21.0744 26050.8 -03409.8 -07.4571 26273.0
 07 04 2013  18 06  -21.0739 26050.8 -03409.8 -07.4571 26273.0
 07 04 2013  18 07  -21.0735 26050.9 -03409.9 -07.4572 26273.1
 07 04 2013  18 08  -21.0732 26051.0 -03409.9 -07.4572 26273.2
 07 04 2013  18 09  -21.0727 26051.1 -03409.9 -07.4573 26273.3
 07 04 2013  18 10  -21.0724 26051.2 -03409.9 -07.4572 26273.4
 07 04 2013  18 11  -21.0720 26051.2 -03409.9 -07.4572 26273.4
 07 04 2013  18 12  -21.0715 26051.2 -03409.9 -07.4571 26273.5
 07 04 2013  18 13  -21.0711 26051.3 -03409.9 -07.4571 26273.5
 07 04 2013  18 14  -21.0708 26051.3 -03409.9 -07.4570 26273.5
 07 04 2013  18 15  -21.0703 26051.2 -03409.8 -07.4569 26273.4
 07 04 2013  18 16  -21.0699 26051.1 -03409.7 -07.4569 26273.3
 07 04 2013  18 17  -21.0693 26051.2 -03409.8 -07.4569 26273.4
 07 04 2013  18 18  -21.0692 26051.7 -03410.0 -07.4573 26273.9
 07 04 2013  18 19  -21.0688 26052.2 -03410.3 -07.4576 26274.5
 07 04 2013  18 20  -21.0689 26053.0 -03410.6 -07.4581 26275.3
 07 04 2013  18 21  -21.0684 26053.6 -03410.7 -07.4583 26275.9
 07 04 2013  18 22  -21.0681 26053.8 -03410.8 -07.4583 26276.2
 07 04 2013  18 23  -21.0678 26053.8 -03410.7 -07.4581 26276.1
 07 04 2013  18 24  -21.0675 26053.9 -03410.6 -07.4579 26276.2
 07 04 2013  18 25  -21.0671 26053.9 -03410.6 -07.4579 26276.2
 07 04 2013  18 26  -21.0666 26053.9 -03410.6 -07.4578 26276.1
 07 04 2013  18 27  -21.0664 26054.0 -03410.7 -07.4580 26276.3
 07 04 2013  18 28  -21.0663 26054.1 -03410.7 -07.4581 26276.4
 07 04 2013  18 29  -21.0659 26054.2 -03410.8 -07.4582 26276.5
 07 04 2013  18 30  -21.0658 26054.2 -03410.8 -07.4582 26276.5
 07 04 2013  18 31  -21.0650 26054.0 -03410.6 -07.4580 26276.3
 07 04 2013  18 32  -21.0646 26053.9 -03410.6 -07.4580 26276.2
 07 04 2013  18 33  -21.0643 26053.7 -03410.6 -07.4579 26276.0
 07 04 2013  18 34  -21.0637 26053.4 -03410.5 -07.4577 26275.7
 07 04 2013  18 35  -21.0633 26053.2 -03410.4 -07.4577 26275.4
 07 04 2013  18 36  -21.0627 26052.8 -03410.2 -07.4574 26275.0
 07 04 2013  18 37  -21.0622 26052.6 -03410.2 -07.4574 26274.9
 07 04 2013  18 38  -21.0618 26052.5 -03410.2 -07.4574 26274.7
 07 04 2013  18 39  -21.0612 26052.2 -03410.2 -07.4575 26274.5
 07 04 2013  18 40  -21.0608 26052.3 -03410.3 -07.4577 26274.6
 07 04 2013  18 41  -21.0604 26052.3 -03410.4 -07.4579 26274.6
 07 04 2013  18 42  -21.0599 26052.3 -03410.5 -07.4581 26274.6
 07 04 2013  18 43  -21.0593 26052.3 -03410.5 -07.4582 26274.6
 07 04 2013  18 44  -21.0585 26052.2 -03410.5 -07.4582 26274.5
 07 04 2013  18 45  -21.0580 26052.3 -03410.7 -07.4585 26274.6
 07 04 2013  18 46  -21.0575 26052.4 -03410.8 -07.4588 26274.7
 07 04 2013  18 47  -21.0570 26052.1 -03410.7 -07.4587 26274.4
 07 04 2013  18 48  -21.0563 26051.6 -03410.6 -07.4585 26273.9
 07 04 2013  18 49  -21.0557 26051.0 -03410.4 -07.4582 26273.3
 07 04 2013  18 50  -21.0547 26050.1 -03410.1 -07.4579 26272.4
 07 04 2013  18 51  -21.0536 26049.2 -03409.9 -07.4577 26271.5
 07 04 2013  18 52  -21.0525 26048.5 -03409.8 -07.4577 26270.7
 07 04 2013  18 53  -21.0519 26048.1 -03409.9 -07.4581 26270.4
 07 04 2013  18 54  -21.0514 26047.7 -03410.0 -07.4585 26270.0
 07 04 2013  18 55  -21.0509 26047.4 -03410.2 -07.4588 26269.7
 07 04 2013  18 56  -21.0506 26047.0 -03410.2 -07.4591 26269.3
 07 04 2013  18 57  -21.0503 26046.9 -03410.4 -07.4594 26269.2
 07 04 2013  18 58  -21.0501 26046.8 -03410.6 -07.4599 26269.1
 07 04 2013  18 59  -21.0499 26046.9 -03410.8 -07.4604 26269.3
 07 04 2013  19 00  -21.0498 26047.3 -03411.1 -07.4610 26269.7
 07 04 2013  19 01  -21.0496 26047.4 -03411.3 -07.4613 26269.8
 07 04 2013  19 02  -21.0496 26047.7 -03411.6 -07.4617 26270.1
 07 04 2013  19 03  -21.0495 26047.9 -03411.8 -07.4622 26270.4
 07 04 2013  19 04  -21.0494 26048.1 -03412.0 -07.4626 26270.7
 07 04 2013  19 05  -21.0493 26048.3 -03412.1 -07.4628 26270.8
 07 04 2013  19 06  -21.0490 26048.2 -03412.2 -07.4629 26270.8
 07 04 2013  19 07  -21.0486 26048.1 -03412.2 -07.4631 26270.7
 07 04 2013  19 08  -21.0483 26048.0 -03412.3 -07.4632 26270.6
 07 04 2013  19 09  -21.0481 26048.0 -03412.4 -07.4634 26270.6
 07 04 2013  19 10  -21.0479 26048.1 -03412.5 -07.4637 26270.7
 07 04 2013  19 11  -21.0478 26048.3 -03412.7 -07.4641 26270.9
 07 04 2013  19 12  -21.0474 26048.4 -03412.9 -07.4644 26271.0
 07 04 2013  19 13  -21.0472 26048.5 -03413.0 -07.4647 26271.1
 07 04 2013  19 14  -21.0471 26048.6 -03413.2 -07.4650 26271.3
 07 04 2013  19 15  -21.0470 26048.8 -03413.3 -07.4653 26271.5
 07 04 2013  19 16  -21.0468 26048.9 -03413.5 -07.4656 26271.6
 07 04 2013  19 17  -21.0466 26049.0 -03413.6 -07.4658 26271.7
 07 04 2013  19 18  -21.0466 26049.0 -03413.7 -07.4660 26271.7
 07 04 2013  19 19  -21.0466 26049.1 -03413.8 -07.4663 26271.9
 07 04 2013  19 20  -21.0465 26049.3 -03414.0 -07.4666 26272.0
 07 04 2013  19 21  -21.0461 26049.2 -03414.1 -07.4667 26272.0
 07 04 2013  19 22  -21.0458 26049.0 -03414.0 -07.4667 26271.8
 07 04 2013  19 23  -21.0457 26048.8 -03414.0 -07.4668 26271.6
 07 04 2013  19 24  -21.0455 26048.7 -03414.1 -07.4669 26271.4
 07 04 2013  19 25  -21.0454 26048.5 -03414.1 -07.4670 26271.2
 07 04 2013  19 26  -21.0453 26048.4 -03414.2 -07.4672 26271.2
 07 04 2013  19 27  -21.0452 26048.1 -03414.2 -07.4673 26270.9
 07 04 2013  19 28  -21.0451 26048.0 -03414.2 -07.4674 26270.8
 07 04 2013  19 29  -21.0447 26047.7 -03414.2 -07.4675 26270.5
 07 04 2013  19 30  -21.0444 26047.4 -03414.2 -07.4675 26270.3
 07 04 2013  19 31  -21.0439 26047.3 -03414.2 -07.4676 26270.1
 07 04 2013  19 32  -21.0436 26047.2 -03414.3 -07.4679 26270.0
 07 04 2013  19 33  -21.0433 26047.3 -03414.5 -07.4683 26270.1
 07 04 2013  19 34  -21.0431 26047.8 -03414.9 -07.4689 26270.7
 07 04 2013  19 35  -21.0429 26048.6 -03415.4 -07.4697 26271.5
 07 04 2013  19 36  -21.0428 26049.3 -03415.8 -07.4704 26272.3
 07 04 2013  19 37  -21.0427 26050.1 -03416.2 -07.4710 26273.1
 07 04 2013  19 38  -21.0425 26050.9 -03416.5 -07.4716 26274.0
 07 04 2013  19 39  -21.0424 26051.7 -03416.9 -07.4721 26274.8
 07 04 2013  19 40  -21.0423 26052.1 -03417.1 -07.4725 26275.3
 07 04 2013  19 41  -21.0421 26052.4 -03417.2 -07.4726 26275.5
 07 04 2013  19 42  -21.0418 26052.4 -03417.2 -07.4726 26275.5
 07 04 2013  19 43  -21.0412 26052.1 -03417.1 -07.4725 26275.3
 07 04 2013  19 44  -21.0405 26051.7 -03417.0 -07.4723 26274.9
 07 04 2013  19 45  -21.0399 26051.3 -03416.9 -07.4722 26274.4
 07 04 2013  19 46  -21.0391 26050.9 -03416.8 -07.4722 26274.0
 07 04 2013  19 47  -21.0385 26050.5 -03416.8 -07.4722 26273.6
 07 04 2013  19 48  -21.0379 26050.2 -03416.8 -07.4724 26273.4
 07 04 2013  19 49  -21.0374 26050.2 -03417.0 -07.4727 26273.3
 07 04 2013  19 50  -21.0370 26050.2 -03417.1 -07.4731 26273.3
 07 04 2013  19 51  -21.0367 26050.2 -03417.3 -07.4734 26273.4
 07 04 2013  19 52  -21.0363 26050.3 -03417.4 -07.4737 26273.5
 07 04 2013  19 53  -21.0358 26050.4 -03417.6 -07.4741 26273.6
 07 04 2013  19 54  -21.0354 26050.4 -03417.8 -07.4744 26273.7
 07 04 2013  19 55  -21.0350 26050.5 -03417.9 -07.4747 26273.8
 07 04 2013  19 56  -21.0345 26050.5 -03418.0 -07.4749 26273.8
 07 04 2013  19 57  -21.0342 26050.5 -03418.1 -07.4751 26273.8
 07 04 2013  19 58  -21.0337 26050.5 -03418.2 -07.4753 26273.8
 07 04 2013  19 59  -21.0332 26050.5 -03418.3 -07.4756 26273.8
 07 04 2013  20 00  -21.0327 26050.5 -03418.4 -07.4758 26273.8
 07 04 2013  20 01  -21.0322 26050.3 -03418.5 -07.4759 26273.7
 07 04 2013  20 02  -21.0317 26050.2 -03418.5 -07.4760 26273.6
 07 04 2013  20 03  -21.0312 26050.2 -03418.6 -07.4763 26273.6
 07 04 2013  20 04  -21.0307 26050.1 -03418.7 -07.4764 26273.5
 07 04 2013  20 05  -21.0303 26050.0 -03418.8 -07.4767 26273.4
 07 04 2013  20 06  -21.0298 26049.9 -03418.8 -07.4769 26273.3
 07 04 2013  20 07  -21.0293 26049.9 -03418.9 -07.4771 26273.3
 07 04 2013  20 08  -21.0288 26049.8 -03419.0 -07.4773 26273.2
 07 04 2013  20 09  -21.0284 26049.7 -03419.1 -07.4774 26273.1
 07 04 2013  20 10  -21.0280 26049.6 -03419.1 -07.4776 26273.0
 07 04 2013  20 11  -21.0276 26049.5 -03419.2 -07.4778 26273.0
 07 04 2013  20 12  -21.0272 26049.4 -03419.3 -07.4780 26272.9
 07 04 2013  20 13  -21.0268 26049.3 -03419.4 -07.4781 26272.8
 07 04 2013  20 14  -21.0265 26049.2 -03419.4 -07.4783 26272.7
 07 04 2013  20 15  -21.0261 26049.1 -03419.5 -07.4785 26272.6
 07 04 2013  20 16  -21.0258 26049.0 -03419.5 -07.4786 26272.5
 07 04 2013  20 17  -21.0256 26048.9 -03419.6 -07.4788 26272.4
 07 04 2013  20 18  -21.0253 26048.8 -03419.7 -07.4790 26272.3
 07 04 2013  20 19  -21.0249 26048.7 -03419.8 -07.4792 26272.2
 07 04 2013  20 20  -21.0247 26048.7 -03419.9 -07.4794 26272.2
 07 04 2013  20 21  -21.0245 26048.7 -03420.0 -07.4797 26272.2
 07 04 2013  20 22  -21.0243 26048.6 -03420.0 -07.4798 26272.2
 07 04 2013  20 23  -21.0241 26048.6 -03420.2 -07.4801 26272.2
 07 04 2013  20 24  -21.0239 26048.6 -03420.3 -07.4803 26272.2
 07 04 2013  20 25  -21.0238 26048.6 -03420.3 -07.4805 26272.2
 07 04 2013  20 26  -21.0236 26048.5 -03420.4 -07.4806 26272.2
 07 04 2013  20 27  -21.0235 26048.6 -03420.5 -07.4809 26272.2
 07 04 2013  20 28  -21.0233 26048.5 -03420.6 -07.4810 26272.1
 07 04 2013  20 29  -21.0231 26048.4 -03420.6 -07.4811 26272.0
 07 04 2013  20 30  -21.0230 26048.2 -03420.6 -07.4812 26271.8
 07 04 2013  20 31  -21.0228 26048.1 -03420.7 -07.4813 26271.7
 07 04 2013  20 32  -21.0226 26047.9 -03420.7 -07.4814 26271.5
 07 04 2013  20 33  -21.0224 26047.7 -03420.7 -07.4815 26271.4
 07 04 2013  20 34  -21.0222 26047.6 -03420.7 -07.4816 26271.3
 07 04 2013  20 35  -21.0221 26047.5 -03420.8 -07.4818 26271.1
 07 04 2013  20 36  -21.0219 26047.3 -03420.8 -07.4819 26270.9
 07 04 2013  20 37  -21.0217 26047.1 -03420.9 -07.4820 26270.8
 07 04 2013  20 38  -21.0216 26047.0 -03420.9 -07.4821 26270.6
 07 04 2013  20 39  -21.0214 26046.8 -03420.9 -07.4823 26270.5
 07 04 2013  20 40  -21.0214 26046.5 -03421.0 -07.4824 26270.2
 07 04 2013  20 41  -21.0213 26046.3 -03421.0 -07.4825 26270.0
 07 04 2013  20 42  -21.0214 26046.1 -03421.0 -07.4827 26269.8
 07 04 2013  20 43  -21.0215 26046.0 -03421.1 -07.4829 26269.8
 07 04 2013  20 44  -21.0216 26045.8 -03421.2 -07.4831 26269.6
 07 04 2013  20 45  -21.0217 26045.8 -03421.3 -07.4833 26269.6
 07 04 2013  20 46  -21.0219 26045.8 -03421.4 -07.4836 26269.5
 07 04 2013  20 47  -21.0220 26045.7 -03421.5 -07.4837 26269.5
 07 04 2013  20 48  -21.0222 26045.7 -03421.5 -07.4839 26269.5
 07 04 2013  20 49  -21.0224 26045.7 -03421.6 -07.4841 26269.4
 07 04 2013  20 50  -21.0224 26045.6 -03421.7 -07.4842 26269.4
 07 04 2013  20 51  -21.0226 26045.6 -03421.8 -07.4844 26269.4
 07 04 2013  20 52  -21.0228 26045.7 -03421.9 -07.4846 26269.5
 07 04 2013  20 53  -21.0229 26045.7 -03421.9 -07.4848 26269.5
 07 04 2013  20 54  -21.0230 26045.7 -03422.0 -07.4849 26269.5
 07 04 2013  20 55  -21.0232 26045.7 -03422.1 -07.4850 26269.6
 07 04 2013  20 56  -21.0233 26045.7 -03422.1 -07.4851 26269.6
 07 04 2013  20 57  -21.0234 26045.7 -03422.1 -07.4852 26269.6
 07 04 2013  20 58  -21.0236 26045.7 -03422.2 -07.4852 26269.6
 07 04 2013  20 59  -21.0236 26045.7 -03422.2 -07.4853 26269.5
 07 04 2013  21 00  -21.0237 26045.6 -03422.2 -07.4853 26269.5
 07 04 2013  21 01  -21.0237 26045.6 -03422.2 -07.4853 26269.5
 07 04 2013  21 02  -21.0237 26045.6 -03422.2 -07.4854 26269.4
 07 04 2013  21 03  -21.0238 26045.6 -03422.3 -07.4855 26269.5
 07 04 2013  21 04  -21.0238 26045.5 -03422.3 -07.4856 26269.4
 07 04 2013  21 05  -21.0238 26045.4 -03422.3 -07.4856 26269.3
 07 04 2013  21 06  -21.0240 26045.4 -03422.4 -07.4857 26269.3
 07 04 2013  21 07  -21.0240 26045.3 -03422.4 -07.4859 26269.2
 07 04 2013  21 08  -21.0241 26045.3 -03422.5 -07.4860 26269.2
 07 04 2013  21 09  -21.0241 26045.2 -03422.5 -07.4861 26269.1
 07 04 2013  21 10  -21.0241 26045.0 -03422.5 -07.4862 26268.9
 07 04 2013  21 11  -21.0241 26044.9 -03422.6 -07.4863 26268.9
 07 04 2013  21 12  -21.0243 26044.9 -03422.7 -07.4866 26268.8
 07 04 2013  21 13  -21.0244 26044.8 -03422.8 -07.4868 26268.8
 07 04 2013  21 14  -21.0246 26044.8 -03422.8 -07.4869 26268.7
 07 04 2013  21 15  -21.0247 26044.8 -03422.9 -07.4872 26268.7
 07 04 2013  21 16  -21.0250 26044.7 -03423.1 -07.4874 26268.7
 07 04 2013  21 17  -21.0251 26044.7 -03423.2 -07.4877 26268.7
 07 04 2013  21 18  -21.0252 26044.6 -03423.2 -07.4878 26268.6
 07 04 2013  21 19  -21.0253 26044.7 -03423.4 -07.4881 26268.7
 07 04 2013  21 20  -21.0255 26044.6 -03423.4 -07.4883 26268.6
 07 04 2013  21 21  -21.0257 26044.6 -03423.5 -07.4885 26268.6
 07 04 2013  21 22  -21.0260 26044.7 -03423.7 -07.4888 26268.7
 07 04 2013  21 23  -21.0262 26044.6 -03423.7 -07.4890 26268.7
 07 04 2013  21 24  -21.0264 26044.7 -03423.8 -07.4891 26268.8
 07 04 2013  21 25  -21.0266 26044.7 -03423.9 -07.4893 26268.8
 07 04 2013  21 26  -21.0269 26044.6 -03423.9 -07.4894 26268.7
 07 04 2013  21 27  -21.0272 26044.5 -03424.0 -07.4895 26268.6
 07 04 2013  21 28  -21.0275 26044.4 -03424.0 -07.4896 26268.5
 07 04 2013  21 29  -21.0277 26044.4 -03424.1 -07.4897 26268.5
 07 04 2013  21 30  -21.0279 26044.3 -03424.1 -07.4898 26268.4
 07 04 2013  21 31  -21.0281 26044.2 -03424.1 -07.4899 26268.4
 07 04 2013  21 32  -21.0283 26044.0 -03424.1 -07.4900 26268.2
 07 04 2013  21 33  -21.0287 26043.7 -03424.1 -07.4899 26267.8
 07 04 2013  21 34  -21.0291 26043.4 -03424.1 -07.4900 26267.6
 07 04 2013  21 35  -21.0295 26043.2 -03424.0 -07.4900 26267.3
 07 04 2013  21 36  -21.0298 26042.9 -03424.0 -07.4900 26267.0
 07 04 2013  21 37  -21.0302 26042.7 -03424.0 -07.4900 26266.8
 07 04 2013  21 38  -21.0306 26042.4 -03424.0 -07.4901 26266.5
 07 04 2013  21 39  -21.0309 26042.2 -03424.0 -07.4902 26266.3
 07 04 2013  21 40  -21.0312 26042.1 -03424.0 -07.4903 26266.2
 07 04 2013  21 41  -21.0315 26042.0 -03424.1 -07.4905 26266.2
 07 04 2013  21 42  -21.0319 26042.0 -03424.2 -07.4907 26266.1
 07 04 2013  21 43  -21.0321 26042.0 -03424.3 -07.4909 26266.2
 07 04 2013  21 44  -21.0324 26042.0 -03424.4 -07.4912 26266.2
 07 04 2013  21 45  -21.0327 26042.0 -03424.6 -07.4914 26266.2
 07 04 2013  21 46  -21.0331 26042.1 -03424.7 -07.4917 26266.3
 07 04 2013  21 47  -21.0334 26042.1 -03424.8 -07.4919 26266.3
 07 04 2013  21 48  -21.0337 26042.1 -03424.9 -07.4921 26266.4
 07 04 2013  21 49  -21.0340 26042.0 -03424.9 -07.4922 26266.3
 07 04 2013  21 50  -21.0343 26042.0 -03425.0 -07.4923 26266.3
 07 04 2013  21 51  -21.0346 26041.9 -03425.0 -07.4924 26266.2
 07 04 2013  21 52  -21.0349 26041.9 -03425.0 -07.4925 26266.2
 07 04 2013  21 53  -21.0351 26041.9 -03425.1 -07.4926 26266.2
 07 04 2013  21 54  -21.0353 26041.9 -03425.1 -07.4927 26266.2
 07 04 2013  21 55  -21.0355 26041.9 -03425.2 -07.4928 26266.2
 07 04 2013  21 56  -21.0357 26041.9 -03425.2 -07.4929 26266.1
 07 04 2013  21 57  -21.0359 26041.7 -03425.2 -07.4929 26266.0
 07 04 2013  21 58  -21.0361 26041.6 -03425.1 -07.4929 26265.8
 07 04 2013  21 59  -21.0363 26041.4 -03425.1 -07.4928 26265.7
 07 04 2013  22 00  -21.0365 26041.3 -03425.1 -07.4928 26265.5
 07 04 2013  22 01  -21.0368 26041.1 -03425.1 -07.4928 26265.4
 07 04 2013  22 02  -21.0369 26040.9 -03425.0 -07.4927 26265.2
 07 04 2013  22 03  -21.0370 26040.7 -03425.0 -07.4927 26265.0
 07 04 2013  22 04  -21.0372 26040.5 -03424.9 -07.4927 26264.8
 07 04 2013  22 05  -21.0374 26040.3 -03424.9 -07.4927 26264.6
 07 04 2013  22 06  -21.0374 26040.3 -03424.9 -07.4927 26264.5
 07 04 2013  22 07  -21.0375 26040.2 -03424.9 -07.4928 26264.5
 07 04 2013  22 08  -21.0377 26040.2 -03425.0 -07.4929 26264.5
 07 04 2013  22 09  -21.0378 26040.3 -03425.1 -07.4931 26264.6
 07 04 2013  22 10  -21.0378 26040.3 -03425.1 -07.4932 26264.5
 07 04 2013  22 11  -21.0379 26040.3 -03425.2 -07.4934 26264.6
 07 04 2013  22 12  -21.0379 26040.2 -03425.2 -07.4934 26264.5
 07 04 2013  22 13  -21.0380 26040.2 -03425.2 -07.4934 26264.5
 07 04 2013  22 14  -21.0380 26040.2 -03425.3 -07.4936 26264.5
 07 04 2013  22 15  -21.0381 26040.1 -03425.3 -07.4936 26264.5
 07 04 2013  22 16  -21.0383 26040.1 -03425.3 -07.4936 26264.4
 07 04 2013  22 17  -21.0384 26040.1 -03425.3 -07.4937 26264.4
 07 04 2013  22 18  -21.0385 26040.0 -03425.3 -07.4937 26264.3
 07 04 2013  22 19  -21.0386 26040.0 -03425.3 -07.4937 26264.3
 07 04 2013  22 20  -21.0387 26039.9 -03425.3 -07.4937 26264.2
 07 04 2013  22 21  -21.0388 26039.9 -03425.3 -07.4937 26264.2
 07 04 2013  22 22  -21.0389 26039.8 -03425.3 -07.4937 26264.1
 07 04 2013  22 23  -21.0389 26039.8 -03425.3 -07.4937 26264.1
 07 04 2013  22 24  -21.0390 26039.8 -03425.3 -07.4938 26264.1
 07 04 2013  22 25  -21.0392 26039.8 -03425.4 -07.4939 26264.1
 07 04 2013  22 26  -21.0393 26039.7 -03425.4 -07.4940 26264.1
 07 04 2013  22 27  -21.0393 26039.7 -03425.4 -07.4940 26264.1
 07 04 2013  22 28  -21.0394 26039.7 -03425.5 -07.4941 26264.1
 07 04 2013  22 29  -21.0394 26039.8 -03425.5 -07.4942 26264.1
 07 04 2013  22 30  -21.0395 26039.8 -03425.5 -07.4942 26264.1
 07 04 2013  22 31  -21.0395 26039.7 -03425.5 -07.4942 26264.1
 07 04 2013  22 32  -21.0396 26039.7 -03425.5 -07.4942 26264.1
 07 04 2013  22 33  -21.0397 26039.7 -03425.5 -07.4943 26264.0
 07 04 2013  22 34  -21.0397 26039.5 -03425.5 -07.4942 26263.9
 07 04 2013  22 35  -21.0399 26039.4 -03425.5 -07.4942 26263.8
 07 04 2013  22 36  -21.0399 26039.4 -03425.5 -07.4942 26263.8
 07 04 2013  22 37  -21.0400 26039.4 -03425.5 -07.4942 26263.7
 07 04 2013  22 38  -21.0402 26039.3 -03425.5 -07.4942 26263.6
 07 04 2013  22 39  -21.0402 26039.3 -03425.5 -07.4942 26263.6
 07 04 2013  22 40  -21.0403 26039.2 -03425.5 -07.4943 26263.6
 07 04 2013  22 41  -21.0403 26039.1 -03425.5 -07.4943 26263.5
 07 04 2013  22 42  -21.0404 26039.1 -03425.5 -07.4943 26263.5
 07 04 2013  22 43  -21.0404 26039.1 -03425.5 -07.4944 26263.4
 07 04 2013  22 44  -21.0403 26038.9 -03425.5 -07.4943 26263.3
 07 04 2013  22 45  -21.0403 26038.8 -03425.4 -07.4943 26263.1
 07 04 2013  22 46  -21.0402 26038.5 -03425.4 -07.4942 26262.9
 07 04 2013  22 47  -21.0402 26038.3 -03425.3 -07.4940 26262.6
 07 04 2013  22 48  -21.0402 26038.2 -03425.2 -07.4940 26262.5
 07 04 2013  22 49  -21.0402 26038.1 -03425.2 -07.4941 26262.4
 07 04 2013  22 50  -21.0402 26038.0 -03425.3 -07.4941 26262.3
 07 04 2013  22 51  -21.0402 26037.9 -03425.2 -07.4941 26262.2
 07 04 2013  22 52  -21.0403 26037.8 -03425.2 -07.4941 26262.1
 07 04 2013  22 53  -21.0403 26037.9 -03425.3 -07.4943 26262.2
 07 04 2013  22 54  -21.0404 26037.8 -03425.3 -07.4943 26262.1
 07 04 2013  22 55  -21.0405 26037.8 -03425.4 -07.4944 26262.1
 07 04 2013  22 56  -21.0406 26037.8 -03425.4 -07.4946 26262.2
 07 04 2013  22 57  -21.0407 26037.8 -03425.4 -07.4946 26262.1
 07 04 2013  22 58  -21.0408 26037.7 -03425.4 -07.4946 26262.0
 07 04 2013  22 59  -21.0409 26037.7 -03425.5 -07.4947 26262.0
 07 04 2013  23 00  -21.0409 26037.6 -03425.5 -07.4947 26262.0
 07 04 2013  23 01  -21.0410 26037.7 -03425.5 -07.4948 26262.0
 07 04 2013  23 02  -21.0410 26037.7 -03425.6 -07.4949 26262.0
 07 04 2013  23 03  -21.0411 26037.7 -03425.6 -07.4949 26262.0
 07 04 2013  23 04  -21.0412 26037.7 -03425.6 -07.4951 26262.1
 07 04 2013  23 05  -21.0412 26037.7 -03425.7 -07.4951 26262.1
 07 04 2013  23 06  -21.0413 26037.8 -03425.7 -07.4952 26262.2
 07 04 2013  23 07  -21.0414 26037.8 -03425.8 -07.4953 26262.2
 07 04 2013  23 08  -21.0414 26037.8 -03425.8 -07.4953 26262.2
 07 04 2013  23 09  -21.0414 26037.8 -03425.8 -07.4954 26262.2
 07 04 2013  23 10  -21.0414 26037.8 -03425.8 -07.4954 26262.2
 07 04 2013  23 11  -21.0415 26037.8 -03425.8 -07.4954 26262.2
 07 04 2013  23 12  -21.0416 26037.8 -03425.8 -07.4954 26262.2
 07 04 2013  23 13  -21.0417 26037.8 -03425.9 -07.4955 26262.2
 07 04 2013  23 14  -21.0417 26037.8 -03425.9 -07.4955 26262.2
 07 04 2013  23 15  -21.0418 26037.9 -03425.9 -07.4955 26262.3
 07 04 2013  23 16  -21.0419 26037.9 -03425.9 -07.4956 26262.4
 07 04 2013  23 17  -21.0419 26038.0 -03426.0 -07.4957 26262.4
 07 04 2013  23 18  -21.0419 26038.0 -03426.0 -07.4958 26262.5
 07 04 2013  23 19  -21.0419 26038.0 -03426.0 -07.4958 26262.5
 07 04 2013  23 20  -21.0420 26038.0 -03426.0 -07.4958 26262.5
 07 04 2013  23 21  -21.0421 26038.0 -03426.1 -07.4959 26262.5
 07 04 2013  23 22  -21.0421 26038.0 -03426.1 -07.4958 26262.4
 07 04 2013  23 23  -21.0422 26038.0 -03426.1 -07.4959 26262.4
 07 04 2013  23 24  -21.0422 26038.0 -03426.1 -07.4959 26262.4
 07 04 2013  23 25  -21.0422 26037.9 -03426.0 -07.4958 26262.4
 07 04 2013  23 26  -21.0422 26037.9 -03426.0 -07.4958 26262.3
 07 04 2013  23 27  -21.0423 26037.9 -03426.0 -07.4958 26262.3
 07 04 2013  23 28  -21.0423 26037.8 -03426.0 -07.4959 26262.3
 07 04 2013  23 29  -21.0423 26037.8 -03426.0 -07.4959 26262.2
 07 04 2013  23 30  -21.0424 26037.8 -03426.1 -07.4959 26262.2
 07 04 2013  23 31  -21.0424 26037.8 -03426.1 -07.4959 26262.2
 07 04 2013  23 32  -21.0423 26037.8 -03426.1 -07.4960 26262.2
 07 04 2013  23 33  -21.0422 26037.7 -03426.1 -07.4960 26262.2
 07 04 2013  23 34  -21.0422 26037.8 -03426.1 -07.4960 26262.2
 07 04 2013  23 35  -21.0421 26037.8 -03426.2 -07.4961 26262.3
 07 04 2013  23 36  -21.0422 26037.8 -03426.2 -07.4961 26262.2
 07 04 2013  23 37  -21.0421 26037.7 -03426.1 -07.4961 26262.2
 07 04 2013  23 38  -21.0421 26037.7 -03426.2 -07.4961 26262.2
 07 04 2013  23 39  -21.0421 26037.7 -03426.2 -07.4962 26262.2
 07 04 2013  23 40  -21.0421 26037.7 -03426.2 -07.4962 26262.2
 07 04 2013  23 41  -21.0420 26037.8 -03426.2 -07.4963 26262.2
 07 04 2013  23 42  -21.0419 26037.8 -03426.2 -07.4963 26262.2
 07 04 2013  23 43  -21.0419 26037.8 -03426.3 -07.4963 26262.2
 07 04 2013  23 44  -21.0419 26037.7 -03426.3 -07.4964 26262.2
 07 04 2013  23 45  -21.0419 26037.8 -03426.3 -07.4965 26262.2
 07 04 2013  23 46  -21.0418 26037.8 -03426.3 -07.4965 26262.3
 07 04 2013  23 47  -21.0418 26037.8 -03426.3 -07.4965 26262.3
 07 04 2013  23 48  -21.0418 26037.8 -03426.4 -07.4965 26262.3
 07 04 2013  23 49  -21.0418 26037.9 -03426.4 -07.4965 26262.3
 07 04 2013  23 50  -21.0417 26037.8 -03426.4 -07.4966 26262.3
 07 04 2013  23 51  -21.0417 26037.9 -03426.4 -07.4967 26262.3
 07 04 2013  23 52  -21.0417 26037.8 -03426.4 -07.4966 26262.3
 07 04 2013  23 53  -21.0417 26037.7 -03426.4 -07.4966 26262.2
 07 04 2013  23 54  -21.0417 26037.7 -03426.4 -07.4966 26262.2
 07 04 2013  23 55  -21.0416 26037.6 -03426.4 -07.4966 26262.1
 07 04 2013  23 56  -21.0416 26037.6 -03426.4 -07.4966 26262.0
 07 04 2013  23 57  -21.0416 26037.5 -03426.3 -07.4966 26262.0
