SAO LUIS EMBRACE-03 <247> 1 Min. Reported data

 DD MM YYYY  HH MM   D(Deg)  H(nT)   Z(nT)   I(Deg)   F(nT)

 04 09 2013  00 00  -21.0325 26016.7 -03478.9 -07.6164 26248.2
 04 09 2013  00 01  -21.0323 26016.7 -03479.0 -07.6164 26248.2
 04 09 2013  00 02  -21.0322 26016.8 -03479.1 -07.6167 26248.4
 04 09 2013  00 03  -21.0322 26016.9 -03479.2 -07.6169 26248.5
 04 09 2013  00 04  -21.0321 26016.9 -03479.3 -07.6170 26248.5
 04 09 2013  00 05  -21.0321 26016.9 -03479.4 -07.6172 26248.5
 04 09 2013  00 06  -21.0319 26016.9 -03479.4 -07.6173 26248.5
 04 09 2013  00 07  -21.0319 26017.0 -03479.4 -07.6173 26248.6
 04 09 2013  00 08  -21.0317 26017.0 -03479.5 -07.6174 26248.6
 04 09 2013  00 09  -21.0314 26017.2 -03479.6 -07.6176 26248.8
 04 09 2013  00 10  -21.0312 26017.2 -03479.6 -07.6177 26248.9
 04 09 2013  00 11  -21.0307 26017.6 -03479.8 -07.6180 26249.2
 04 09 2013  00 12  -21.0301 26018.0 -03480.0 -07.6184 26249.7
 04 09 2013  00 13  -21.0294 26018.4 -03480.2 -07.6187 26250.1
 04 09 2013  00 14  -21.0288 26018.9 -03480.5 -07.6191 26250.6
 04 09 2013  00 15  -21.0283 26019.5 -03480.8 -07.6196 26251.3
 04 09 2013  00 16  -21.0280 26020.0 -03481.1 -07.6201 26251.8
 04 09 2013  00 17  -21.0276 26020.4 -03481.3 -07.6204 26252.3
 04 09 2013  00 18  -21.0275 26020.9 -03481.6 -07.6208 26252.8
 04 09 2013  00 19  -21.0277 26021.2 -03481.8 -07.6212 26253.1
 04 09 2013  00 20  -21.0280 26021.4 -03481.9 -07.6213 26253.3
 04 09 2013  00 21  -21.0284 26021.4 -03481.9 -07.6213 26253.3
 04 09 2013  00 22  -21.0287 26021.3 -03481.8 -07.6212 26253.2
 04 09 2013  00 23  -21.0289 26021.1 -03481.7 -07.6210 26253.0
 04 09 2013  00 24  -21.0287 26021.0 -03481.6 -07.6208 26252.9
 04 09 2013  00 25  -21.0285 26020.9 -03481.5 -07.6206 26252.8
 04 09 2013  00 26  -21.0283 26021.0 -03481.5 -07.6206 26252.9
 04 09 2013  00 27  -21.0282 26021.0 -03481.5 -07.6206 26252.9
 04 09 2013  00 28  -21.0283 26021.0 -03481.5 -07.6207 26252.9
 04 09 2013  00 29  -21.0283 26021.0 -03481.5 -07.6207 26252.9
 04 09 2013  00 30  -21.0284 26021.1 -03481.5 -07.6207 26252.9
 04 09 2013  00 31  -21.0284 26021.0 -03481.5 -07.6207 26252.9
 04 09 2013  00 32  -21.0286 26021.0 -03481.5 -07.6207 26252.9
 04 09 2013  00 33  -21.0287 26021.1 -03481.5 -07.6207 26253.0
 04 09 2013  00 34  -21.0288 26021.1 -03481.5 -07.6207 26253.0
 04 09 2013  00 35  -21.0289 26021.2 -03481.6 -07.6208 26253.1
 04 09 2013  00 36  -21.0290 26021.2 -03481.6 -07.6208 26253.1
 04 09 2013  00 37  -21.0292 26021.3 -03481.6 -07.6209 26253.2
 04 09 2013  00 38  -21.0294 26021.4 -03481.7 -07.6210 26253.3
 04 09 2013  00 39  -21.0295 26021.5 -03481.8 -07.6211 26253.4
 04 09 2013  00 40  -21.0296 26021.7 -03481.8 -07.6212 26253.6
 04 09 2013  00 41  -21.0296 26021.8 -03481.9 -07.6213 26253.7
 04 09 2013  00 42  -21.0295 26021.8 -03481.9 -07.6213 26253.7
 04 09 2013  00 43  -21.0295 26021.9 -03481.9 -07.6213 26253.9
 04 09 2013  00 44  -21.0295 26022.1 -03482.0 -07.6215 26254.0
 04 09 2013  00 45  -21.0295 26022.2 -03482.1 -07.6216 26254.1
 04 09 2013  00 46  -21.0293 26022.4 -03482.2 -07.6217 26254.4
 04 09 2013  00 47  -21.0290 26022.5 -03482.2 -07.6218 26254.5
 04 09 2013  00 48  -21.0287 26022.8 -03482.3 -07.6220 26254.7
 04 09 2013  00 49  -21.0284 26023.1 -03482.5 -07.6222 26255.1
 04 09 2013  00 50  -21.0284 26023.6 -03482.7 -07.6226 26255.6
 04 09 2013  00 51  -21.0285 26023.9 -03482.9 -07.6228 26255.9
 04 09 2013  00 52  -21.0288 26024.0 -03482.9 -07.6228 26256.0
 04 09 2013  00 53  -21.0292 26023.6 -03482.6 -07.6223 26255.6
 04 09 2013  00 54  -21.0295 26023.1 -03482.3 -07.6218 26255.0
 04 09 2013  00 55  -21.0297 26022.5 -03482.0 -07.6212 26254.4
 04 09 2013  00 56  -21.0297 26021.8 -03481.6 -07.6207 26253.7
 04 09 2013  00 57  -21.0297 26021.6 -03481.5 -07.6204 26253.5
 04 09 2013  00 58  -21.0296 26021.6 -03481.5 -07.6206 26253.5
 04 09 2013  00 59  -21.0294 26021.9 -03481.7 -07.6208 26253.8
 04 09 2013  01 00  -21.0294 26022.1 -03481.9 -07.6211 26254.0
 04 09 2013  01 01  -21.0294 26022.0 -03481.9 -07.6212 26253.9
 04 09 2013  01 02  -21.0295 26021.9 -03481.9 -07.6212 26253.8
 04 09 2013  01 03  -21.0295 26021.8 -03481.8 -07.6212 26253.7
 04 09 2013  01 04  -21.0296 26021.6 -03481.7 -07.6210 26253.5
 04 09 2013  01 05  -21.0297 26021.4 -03481.7 -07.6209 26253.3
 04 09 2013  01 06  -21.0299 26021.4 -03481.7 -07.6209 26253.3
 04 09 2013  01 07  -21.0300 26021.3 -03481.7 -07.6209 26253.2
 04 09 2013  01 08  -21.0298 26021.2 -03481.7 -07.6209 26253.1
 04 09 2013  01 09  -21.0297 26021.2 -03481.7 -07.6211 26253.1
 04 09 2013  01 10  -21.0294 26021.4 -03481.8 -07.6212 26253.3
 04 09 2013  01 11  -21.0292 26021.7 -03482.0 -07.6216 26253.6
 04 09 2013  01 12  -21.0291 26022.1 -03482.2 -07.6219 26254.1
 04 09 2013  01 13  -21.0291 26022.2 -03482.4 -07.6222 26254.2
 04 09 2013  01 14  -21.0291 26022.3 -03482.4 -07.6223 26254.2
 04 09 2013  01 15  -21.0290 26022.3 -03482.4 -07.6223 26254.3
 04 09 2013  01 16  -21.0290 26022.3 -03482.4 -07.6223 26254.3
 04 09 2013  01 17  -21.0290 26022.2 -03482.4 -07.6222 26254.2
 04 09 2013  01 18  -21.0290 26022.0 -03482.3 -07.6221 26254.0
 04 09 2013  01 19  -21.0288 26021.9 -03482.2 -07.6220 26253.9
 04 09 2013  01 20  -21.0286 26021.9 -03482.3 -07.6220 26253.8
 04 09 2013  01 21  -21.0282 26022.1 -03482.3 -07.6222 26254.0
 04 09 2013  01 22  -21.0279 26022.3 -03482.5 -07.6224 26254.3
 04 09 2013  01 23  -21.0277 26022.7 -03482.8 -07.6229 26254.8
 04 09 2013  01 24  -21.0274 26023.0 -03482.9 -07.6231 26255.1
 04 09 2013  01 25  -21.0274 26023.2 -03483.0 -07.6233 26255.2
 04 09 2013  01 26  -21.0273 26023.4 -03483.1 -07.6235 26255.4
 04 09 2013  01 27  -21.0273 26023.6 -03483.3 -07.6237 26255.7
 04 09 2013  01 28  -21.0272 26023.7 -03483.3 -07.6238 26255.8
 04 09 2013  01 29  -21.0270 26023.7 -03483.3 -07.6237 26255.8
 04 09 2013  01 30  -21.0271 26023.5 -03483.2 -07.6236 26255.5
 04 09 2013  01 31  -21.0272 26023.4 -03483.1 -07.6235 26255.4
 04 09 2013  01 32  -21.0273 26023.4 -03483.2 -07.6235 26255.5
 04 09 2013  01 33  -21.0273 26023.6 -03483.2 -07.6236 26255.7
 04 09 2013  01 34  -21.0275 26023.7 -03483.3 -07.6238 26255.8
 04 09 2013  01 35  -21.0275 26023.7 -03483.3 -07.6238 26255.8
 04 09 2013  01 36  -21.0276 26023.6 -03483.3 -07.6237 26255.7
 04 09 2013  01 37  -21.0276 26023.6 -03483.2 -07.6236 26255.7
 04 09 2013  01 38  -21.0276 26023.6 -03483.2 -07.6236 26255.7
 04 09 2013  01 39  -21.0276 26023.5 -03483.2 -07.6235 26255.6
 04 09 2013  01 40  -21.0275 26023.3 -03483.1 -07.6234 26255.4
 04 09 2013  01 41  -21.0274 26023.2 -03483.0 -07.6233 26255.3
 04 09 2013  01 42  -21.0275 26023.0 -03482.9 -07.6231 26255.0
 04 09 2013  01 43  -21.0275 26022.8 -03482.9 -07.6231 26254.9
 04 09 2013  01 44  -21.0273 26022.8 -03482.8 -07.6230 26254.8
 04 09 2013  01 45  -21.0270 26022.8 -03482.8 -07.6230 26254.8
 04 09 2013  01 46  -21.0269 26022.8 -03482.8 -07.6230 26254.8
 04 09 2013  01 47  -21.0267 26022.8 -03482.9 -07.6231 26254.8
 04 09 2013  01 48  -21.0266 26022.9 -03482.9 -07.6232 26254.9
 04 09 2013  01 49  -21.0263 26023.2 -03483.1 -07.6234 26255.2
 04 09 2013  01 50  -21.0262 26023.3 -03483.2 -07.6237 26255.4
 04 09 2013  01 51  -21.0262 26023.5 -03483.3 -07.6238 26255.6
 04 09 2013  01 52  -21.0262 26023.7 -03483.4 -07.6240 26255.8
 04 09 2013  01 53  -21.0261 26023.8 -03483.5 -07.6241 26255.9
 04 09 2013  01 54  -21.0259 26023.9 -03483.5 -07.6241 26256.0
 04 09 2013  01 55  -21.0258 26024.2 -03483.6 -07.6243 26256.3
 04 09 2013  01 56  -21.0256 26024.4 -03483.7 -07.6245 26256.6
 04 09 2013  01 57  -21.0253 26024.7 -03483.8 -07.6247 26256.8
 04 09 2013  01 58  -21.0251 26024.7 -03483.9 -07.6248 26256.9
 04 09 2013  01 59  -21.0251 26024.4 -03483.7 -07.6245 26256.5
 04 09 2013  02 00  -21.0250 26024.0 -03483.5 -07.6241 26256.1
 04 09 2013  02 01  -21.0252 26023.7 -03483.3 -07.6238 26255.8
 04 09 2013  02 02  -21.0251 26023.8 -03483.4 -07.6239 26255.9
 04 09 2013  02 03  -21.0248 26023.8 -03483.4 -07.6239 26255.9
 04 09 2013  02 04  -21.0244 26023.9 -03483.4 -07.6240 26256.0
 04 09 2013  02 05  -21.0243 26024.2 -03483.6 -07.6242 26256.3
 04 09 2013  02 06  -21.0242 26024.3 -03483.7 -07.6244 26256.4
 04 09 2013  02 07  -21.0241 26024.3 -03483.7 -07.6245 26256.5
 04 09 2013  02 08  -21.0240 26024.3 -03483.7 -07.6245 26256.4
 04 09 2013  02 09  -21.0239 26024.3 -03483.8 -07.6246 26256.5
 04 09 2013  02 10  -21.0237 26024.3 -03483.8 -07.6246 26256.5
 04 09 2013  02 11  -21.0238 26024.2 -03483.8 -07.6246 26256.4
 04 09 2013  02 12  -21.0239 26024.0 -03483.7 -07.6245 26256.1
 04 09 2013  02 13  -21.0238 26023.8 -03483.6 -07.6243 26255.9
 04 09 2013  02 14  -21.0237 26023.6 -03483.5 -07.6242 26255.7
 04 09 2013  02 15  -21.0237 26023.6 -03483.5 -07.6242 26255.7
 04 09 2013  02 16  -21.0239 26023.5 -03483.5 -07.6243 26255.7
 04 09 2013  02 17  -21.0240 26023.5 -03483.5 -07.6243 26255.6
 04 09 2013  02 18  -21.0239 26023.4 -03483.5 -07.6243 26255.5
 04 09 2013  02 19  -21.0240 26023.3 -03483.5 -07.6243 26255.5
 04 09 2013  02 20  -21.0239 26023.3 -03483.5 -07.6244 26255.4
 04 09 2013  02 21  -21.0239 26023.3 -03483.5 -07.6244 26255.4
 04 09 2013  02 22  -21.0240 26023.3 -03483.6 -07.6245 26255.4
 04 09 2013  02 23  -21.0242 26023.3 -03483.6 -07.6246 26255.5
 04 09 2013  02 24  -21.0243 26023.2 -03483.6 -07.6245 26255.3
 04 09 2013  02 25  -21.0243 26023.0 -03483.4 -07.6243 26255.1
 04 09 2013  02 26  -21.0244 26022.9 -03483.4 -07.6243 26255.0
 04 09 2013  02 27  -21.0243 26022.8 -03483.4 -07.6243 26254.9
 04 09 2013  02 28  -21.0244 26022.9 -03483.5 -07.6244 26255.0
 04 09 2013  02 29  -21.0243 26023.0 -03483.5 -07.6245 26255.1
 04 09 2013  02 30  -21.0243 26023.0 -03483.6 -07.6246 26255.1
 04 09 2013  02 31  -21.0242 26023.0 -03483.6 -07.6247 26255.2
 04 09 2013  02 32  -21.0242 26023.0 -03483.6 -07.6247 26255.1
 04 09 2013  02 33  -21.0241 26023.0 -03483.6 -07.6247 26255.1
 04 09 2013  02 34  -21.0241 26023.1 -03483.7 -07.6247 26255.2
 04 09 2013  02 35  -21.0244 26023.0 -03483.7 -07.6248 26255.2
 04 09 2013  02 36  -21.0244 26023.0 -03483.7 -07.6248 26255.2
 04 09 2013  02 37  -21.0247 26023.0 -03483.7 -07.6248 26255.1
 04 09 2013  02 38  -21.0247 26023.1 -03483.7 -07.6249 26255.2
 04 09 2013  02 39  -21.0247 26023.3 -03483.8 -07.6250 26255.4
 04 09 2013  02 40  -21.0249 26023.4 -03483.9 -07.6251 26255.6
 04 09 2013  02 41  -21.0249 26023.5 -03484.0 -07.6253 26255.7
 04 09 2013  02 42  -21.0248 26023.5 -03483.9 -07.6252 26255.7
 04 09 2013  02 43  -21.0248 26023.6 -03483.9 -07.6252 26255.7
 04 09 2013  02 44  -21.0248 26023.6 -03483.9 -07.6252 26255.8
 04 09 2013  02 45  -21.0246 26023.8 -03484.0 -07.6253 26256.0
 04 09 2013  02 46  -21.0244 26024.0 -03484.1 -07.6254 26256.2
 04 09 2013  02 47  -21.0242 26024.3 -03484.2 -07.6256 26256.5
 04 09 2013  02 48  -21.0241 26024.5 -03484.3 -07.6257 26256.8
 04 09 2013  02 49  -21.0239 26024.7 -03484.3 -07.6257 26256.9
 04 09 2013  02 50  -21.0239 26024.8 -03484.4 -07.6258 26257.0
 04 09 2013  02 51  -21.0239 26024.8 -03484.4 -07.6258 26257.0
 04 09 2013  02 52  -21.0239 26024.8 -03484.4 -07.6257 26257.0
 04 09 2013  02 53  -21.0240 26024.7 -03484.3 -07.6257 26256.9
 04 09 2013  02 54  -21.0241 26024.8 -03484.3 -07.6256 26257.0
 04 09 2013  02 55  -21.0242 26024.6 -03484.2 -07.6254 26256.8
 04 09 2013  02 56  -21.0242 26024.5 -03484.1 -07.6252 26256.7
 04 09 2013  02 57  -21.0243 26024.2 -03483.9 -07.6250 26256.4
 04 09 2013  02 58  -21.0244 26024.2 -03483.9 -07.6249 26256.3
 04 09 2013  02 59  -21.0244 26024.2 -03483.9 -07.6249 26256.4
 04 09 2013  03 00  -21.0244 26024.3 -03484.0 -07.6250 26256.5
 04 09 2013  03 01  -21.0244 26024.5 -03484.0 -07.6251 26256.7
 04 09 2013  03 02  -21.0243 26024.6 -03484.1 -07.6252 26256.8
 04 09 2013  03 03  -21.0241 26024.6 -03484.1 -07.6251 26256.8
 04 09 2013  03 04  -21.0239 26024.7 -03484.1 -07.6252 26256.9
 04 09 2013  03 05  -21.0239 26024.8 -03484.1 -07.6253 26257.0
 04 09 2013  03 06  -21.0238 26024.7 -03484.1 -07.6252 26256.9
 04 09 2013  03 07  -21.0239 26024.6 -03484.0 -07.6251 26256.7
 04 09 2013  03 08  -21.0239 26024.5 -03484.0 -07.6250 26256.7
 04 09 2013  03 09  -21.0239 26024.4 -03483.9 -07.6249 26256.6
 04 09 2013  03 10  -21.0239 26024.4 -03483.9 -07.6249 26256.6
 04 09 2013  03 11  -21.0240 26024.5 -03483.9 -07.6249 26256.6
 04 09 2013  03 12  -21.0240 26024.5 -03483.9 -07.6249 26256.6
 04 09 2013  03 13  -21.0240 26024.5 -03484.0 -07.6250 26256.7
 04 09 2013  03 14  -21.0241 26024.5 -03484.0 -07.6251 26256.7
 04 09 2013  03 15  -21.0242 26024.6 -03484.1 -07.6252 26256.8
 04 09 2013  03 16  -21.0243 26024.7 -03484.1 -07.6252 26256.9
 04 09 2013  03 17  -21.0244 26024.8 -03484.1 -07.6253 26256.9
 04 09 2013  03 18  -21.0244 26024.8 -03484.1 -07.6253 26257.0
 04 09 2013  03 19  -21.0245 26024.8 -03484.1 -07.6253 26257.0
 04 09 2013  03 20  -21.0246 26024.8 -03484.1 -07.6252 26257.0
 04 09 2013  03 21  -21.0245 26024.8 -03484.1 -07.6251 26257.0
 04 09 2013  03 22  -21.0246 26024.8 -03484.1 -07.6251 26257.0
 04 09 2013  03 23  -21.0246 26024.8 -03484.0 -07.6250 26257.0
 04 09 2013  03 24  -21.0247 26024.8 -03484.0 -07.6250 26257.0
 04 09 2013  03 25  -21.0247 26024.8 -03484.0 -07.6250 26257.0
 04 09 2013  03 26  -21.0248 26024.8 -03484.0 -07.6250 26257.0
 04 09 2013  03 27  -21.0248 26024.8 -03484.0 -07.6250 26257.0
 04 09 2013  03 28  -21.0248 26024.8 -03484.0 -07.6249 26257.0
 04 09 2013  03 29  -21.0248 26024.9 -03484.0 -07.6249 26257.1
 04 09 2013  03 30  -21.0247 26024.9 -03484.0 -07.6249 26257.1
 04 09 2013  03 31  -21.0246 26025.0 -03484.0 -07.6248 26257.1
 04 09 2013  03 32  -21.0245 26025.0 -03484.0 -07.6249 26257.2
 04 09 2013  03 33  -21.0244 26025.0 -03484.0 -07.6248 26257.2
 04 09 2013  03 34  -21.0243 26025.0 -03483.9 -07.6248 26257.2
 04 09 2013  03 35  -21.0241 26025.0 -03484.0 -07.6248 26257.2
 04 09 2013  03 36  -21.0239 26025.1 -03483.9 -07.6248 26257.2
 04 09 2013  03 37  -21.0236 26025.1 -03484.0 -07.6248 26257.3
 04 09 2013  03 38  -21.0233 26025.2 -03484.0 -07.6248 26257.4
 04 09 2013  03 39  -21.0231 26025.3 -03484.0 -07.6249 26257.5
 04 09 2013  03 40  -21.0228 26025.3 -03484.0 -07.6249 26257.5
 04 09 2013  03 41  -21.0226 26025.4 -03484.0 -07.6249 26257.5
 04 09 2013  03 42  -21.0224 26025.3 -03484.0 -07.6248 26257.5
 04 09 2013  03 43  -21.0222 26025.3 -03484.0 -07.6248 26257.4
 04 09 2013  03 44  -21.0220 26025.3 -03484.0 -07.6248 26257.5
 04 09 2013  03 45  -21.0218 26025.2 -03483.9 -07.6247 26257.4
 04 09 2013  03 46  -21.0216 26025.1 -03483.9 -07.6246 26257.2
 04 09 2013  03 47  -21.0215 26025.1 -03483.9 -07.6246 26257.2
 04 09 2013  03 48  -21.0215 26025.0 -03483.9 -07.6246 26257.2
 04 09 2013  03 49  -21.0214 26025.1 -03483.9 -07.6246 26257.2
 04 09 2013  03 50  -21.0214 26025.1 -03483.9 -07.6246 26257.2
 04 09 2013  03 51  -21.0214 26025.1 -03483.9 -07.6247 26257.2
 04 09 2013  03 52  -21.0213 26025.0 -03483.9 -07.6246 26257.2
 04 09 2013  03 53  -21.0213 26025.0 -03483.9 -07.6246 26257.1
 04 09 2013  03 54  -21.0212 26025.0 -03483.9 -07.6246 26257.1
 04 09 2013  03 55  -21.0211 26025.0 -03483.9 -07.6246 26257.2
 04 09 2013  03 56  -21.0211 26025.1 -03484.0 -07.6248 26257.3
 04 09 2013  03 57  -21.0210 26025.3 -03484.0 -07.6248 26257.5
 04 09 2013  03 58  -21.0210 26025.5 -03484.1 -07.6250 26257.6
 04 09 2013  03 59  -21.0210 26025.4 -03484.1 -07.6249 26257.6
 04 09 2013  04 00  -21.0210 26025.6 -03484.1 -07.6251 26257.7
 04 09 2013  04 01  -21.0209 26025.8 -03484.2 -07.6252 26258.0
 04 09 2013  04 02  -21.0209 26026.0 -03484.3 -07.6253 26258.2
 04 09 2013  04 03  -21.0209 26026.1 -03484.3 -07.6253 26258.3
 04 09 2013  04 04  -21.0209 26026.2 -03484.4 -07.6254 26258.4
 04 09 2013  04 05  -21.0210 26026.3 -03484.4 -07.6254 26258.5
 04 09 2013  04 06  -21.0210 26026.4 -03484.4 -07.6254 26258.6
 04 09 2013  04 07  -21.0209 26026.4 -03484.4 -07.6254 26258.7
 04 09 2013  04 08  -21.0209 26026.5 -03484.4 -07.6253 26258.7
 04 09 2013  04 09  -21.0210 26026.6 -03484.4 -07.6253 26258.8
 04 09 2013  04 10  -21.0211 26026.7 -03484.4 -07.6253 26258.9
 04 09 2013  04 11  -21.0213 26026.7 -03484.4 -07.6253 26258.9
 04 09 2013  04 12  -21.0213 26026.7 -03484.4 -07.6253 26258.9
 04 09 2013  04 13  -21.0212 26026.6 -03484.3 -07.6252 26258.8
 04 09 2013  04 14  -21.0211 26026.5 -03484.2 -07.6250 26258.7
 04 09 2013  04 15  -21.0210 26026.4 -03484.2 -07.6249 26258.6
 04 09 2013  04 16  -21.0211 26026.5 -03484.2 -07.6249 26258.7
 04 09 2013  04 17  -21.0212 26026.5 -03484.2 -07.6250 26258.7
 04 09 2013  04 18  -21.0213 26026.6 -03484.3 -07.6250 26258.8
 04 09 2013  04 19  -21.0213 26026.6 -03484.2 -07.6250 26258.8
 04 09 2013  04 20  -21.0214 26026.6 -03484.2 -07.6249 26258.7
 04 09 2013  04 21  -21.0213 26026.4 -03484.1 -07.6248 26258.6
 04 09 2013  04 22  -21.0213 26026.4 -03484.1 -07.6247 26258.6
 04 09 2013  04 23  -21.0214 26026.4 -03484.1 -07.6247 26258.6
 04 09 2013  04 24  -21.0214 26026.5 -03484.1 -07.6248 26258.6
 04 09 2013  04 25  -21.0214 26026.5 -03484.2 -07.6248 26258.7
 04 09 2013  04 26  -21.0213 26026.5 -03484.2 -07.6248 26258.7
 04 09 2013  04 27  -21.0212 26026.6 -03484.2 -07.6248 26258.7
 04 09 2013  04 28  -21.0210 26026.5 -03484.1 -07.6248 26258.7
 04 09 2013  04 29  -21.0209 26026.6 -03484.1 -07.6248 26258.7
 04 09 2013  04 30  -21.0207 26026.6 -03484.2 -07.6248 26258.8
 04 09 2013  04 31  -21.0205 26026.6 -03484.2 -07.6248 26258.8
 04 09 2013  04 32  -21.0205 26026.7 -03484.2 -07.6249 26258.9
 04 09 2013  04 33  -21.0204 26026.7 -03484.2 -07.6249 26258.9
 04 09 2013  04 34  -21.0203 26026.7 -03484.2 -07.6249 26258.9
 04 09 2013  04 35  -21.0203 26026.7 -03484.3 -07.6250 26258.9
 04 09 2013  04 36  -21.0201 26026.8 -03484.3 -07.6250 26259.0
 04 09 2013  04 37  -21.0201 26026.8 -03484.3 -07.6250 26259.0
 04 09 2013  04 38  -21.0200 26026.9 -03484.3 -07.6251 26259.1
 04 09 2013  04 39  -21.0200 26027.0 -03484.4 -07.6252 26259.2
 04 09 2013  04 40  -21.0198 26027.0 -03484.4 -07.6252 26259.2
 04 09 2013  04 41  -21.0197 26027.0 -03484.4 -07.6252 26259.3
 04 09 2013  04 42  -21.0197 26027.0 -03484.4 -07.6252 26259.2
 04 09 2013  04 43  -21.0197 26027.0 -03484.4 -07.6252 26259.2
 04 09 2013  04 44  -21.0198 26027.0 -03484.4 -07.6253 26259.2
 04 09 2013  04 45  -21.0198 26027.0 -03484.4 -07.6252 26259.2
 04 09 2013  04 46  -21.0198 26027.1 -03484.5 -07.6253 26259.3
 04 09 2013  04 47  -21.0196 26027.2 -03484.5 -07.6254 26259.4
 04 09 2013  04 48  -21.0196 26027.4 -03484.7 -07.6256 26259.6
 04 09 2013  04 49  -21.0196 26027.6 -03484.7 -07.6257 26259.8
 04 09 2013  04 50  -21.0196 26027.7 -03484.8 -07.6259 26259.9
 04 09 2013  04 51  -21.0194 26027.8 -03484.8 -07.6259 26260.0
 04 09 2013  04 52  -21.0192 26027.9 -03484.8 -07.6259 26260.1
 04 09 2013  04 53  -21.0190 26027.9 -03484.9 -07.6260 26260.2
 04 09 2013  04 54  -21.0188 26027.9 -03484.8 -07.6259 26260.1
 04 09 2013  04 55  -21.0185 26027.8 -03484.8 -07.6259 26260.1
 04 09 2013  04 56  -21.0183 26027.8 -03484.8 -07.6258 26260.1
 04 09 2013  04 57  -21.0181 26027.9 -03484.8 -07.6258 26260.1
 04 09 2013  04 58  -21.0180 26027.9 -03484.8 -07.6259 26260.1
 04 09 2013  04 59  -21.0180 26027.9 -03484.8 -07.6259 26260.1
 04 09 2013  05 00  -21.0180 26028.0 -03484.9 -07.6260 26260.2
 04 09 2013  05 01  -21.0180 26028.0 -03484.9 -07.6261 26260.3
 04 09 2013  05 02  -21.0180 26028.0 -03484.9 -07.6261 26260.3
 04 09 2013  05 03  -21.0182 26028.0 -03485.0 -07.6261 26260.3
 04 09 2013  05 04  -21.0182 26028.1 -03485.0 -07.6262 26260.4
 04 09 2013  05 05  -21.0184 26028.2 -03485.1 -07.6263 26260.5
 04 09 2013  05 06  -21.0185 26028.4 -03485.1 -07.6264 26260.7
 04 09 2013  05 07  -21.0186 26028.5 -03485.2 -07.6265 26260.8
 04 09 2013  05 08  -21.0187 26028.6 -03485.2 -07.6265 26260.9
 04 09 2013  05 09  -21.0186 26028.7 -03485.3 -07.6266 26261.0
 04 09 2013  05 10  -21.0186 26028.8 -03485.2 -07.6265 26261.1
 04 09 2013  05 11  -21.0186 26028.8 -03485.3 -07.6265 26261.1
 04 09 2013  05 12  -21.0185 26028.8 -03485.2 -07.6264 26261.1
 04 09 2013  05 13  -21.0184 26028.8 -03485.2 -07.6264 26261.1
 04 09 2013  05 14  -21.0182 26028.7 -03485.1 -07.6263 26261.0
 04 09 2013  05 15  -21.0182 26028.7 -03485.1 -07.6262 26260.9
 04 09 2013  05 16  -21.0181 26028.5 -03485.0 -07.6261 26260.8
 04 09 2013  05 17  -21.0180 26028.4 -03485.0 -07.6260 26260.6
 04 09 2013  05 18  -21.0179 26028.2 -03484.9 -07.6259 26260.5
 04 09 2013  05 19  -21.0177 26028.0 -03484.8 -07.6258 26260.3
 04 09 2013  05 20  -21.0176 26027.9 -03484.8 -07.6257 26260.2
 04 09 2013  05 21  -21.0175 26027.9 -03484.8 -07.6258 26260.2
 04 09 2013  05 22  -21.0173 26027.9 -03484.8 -07.6258 26260.2
 04 09 2013  05 23  -21.0171 26028.0 -03484.9 -07.6259 26260.3
 04 09 2013  05 24  -21.0171 26028.1 -03485.0 -07.6261 26260.4
 04 09 2013  05 25  -21.0172 26028.2 -03485.1 -07.6263 26260.5
 04 09 2013  05 26  -21.0174 26028.4 -03485.1 -07.6264 26260.7
 04 09 2013  05 27  -21.0175 26028.6 -03485.2 -07.6266 26260.9
 04 09 2013  05 28  -21.0178 26028.6 -03485.3 -07.6268 26261.0
 04 09 2013  05 29  -21.0178 26028.7 -03485.4 -07.6269 26261.0
 04 09 2013  05 30  -21.0176 26028.6 -03485.4 -07.6268 26260.9
 04 09 2013  05 31  -21.0173 26028.4 -03485.2 -07.6265 26260.7
 04 09 2013  05 32  -21.0171 26028.3 -03485.1 -07.6263 26260.6
 04 09 2013  05 33  -21.0170 26028.2 -03485.0 -07.6262 26260.4
 04 09 2013  05 34  -21.0168 26028.1 -03485.0 -07.6262 26260.4
 04 09 2013  05 35  -21.0166 26028.2 -03485.1 -07.6263 26260.5
 04 09 2013  05 36  -21.0166 26028.1 -03485.1 -07.6263 26260.4
 04 09 2013  05 37  -21.0166 26028.2 -03485.1 -07.6264 26260.5
 04 09 2013  05 38  -21.0166 26028.2 -03485.1 -07.6265 26260.5
 04 09 2013  05 39  -21.0167 26028.3 -03485.2 -07.6266 26260.6
 04 09 2013  05 40  -21.0167 26028.3 -03485.3 -07.6267 26260.6
 04 09 2013  05 41  -21.0167 26028.4 -03485.3 -07.6267 26260.7
 04 09 2013  05 42  -21.0168 26028.4 -03485.3 -07.6267 26260.7
 04 09 2013  05 43  -21.0169 26028.4 -03485.3 -07.6267 26260.7
 04 09 2013  05 44  -21.0170 26028.4 -03485.3 -07.6268 26260.7
 04 09 2013  05 45  -21.0169 26028.5 -03485.3 -07.6268 26260.8
 04 09 2013  05 46  -21.0169 26028.5 -03485.4 -07.6269 26260.9
 04 09 2013  05 47  -21.0169 26028.5 -03485.4 -07.6268 26260.8
 04 09 2013  05 48  -21.0169 26028.5 -03485.3 -07.6268 26260.8
 04 09 2013  05 49  -21.0168 26028.5 -03485.4 -07.6269 26260.8
 04 09 2013  05 50  -21.0166 26028.6 -03485.4 -07.6269 26260.9
 04 09 2013  05 51  -21.0165 26028.6 -03485.4 -07.6270 26260.9
 04 09 2013  05 52  -21.0164 26028.7 -03485.5 -07.6270 26261.0
 04 09 2013  05 53  -21.0164 26028.7 -03485.5 -07.6271 26261.0
 04 09 2013  05 54  -21.0163 26028.7 -03485.5 -07.6270 26261.1
 04 09 2013  05 55  -21.0161 26028.7 -03485.5 -07.6270 26261.0
 04 09 2013  05 56  -21.0160 26028.7 -03485.5 -07.6270 26261.0
 04 09 2013  05 57  -21.0159 26028.6 -03485.4 -07.6269 26261.0
 04 09 2013  05 58  -21.0159 26028.6 -03485.5 -07.6270 26261.0
 04 09 2013  05 59  -21.0158 26028.6 -03485.4 -07.6270 26260.9
 04 09 2013  06 00  -21.0157 26028.6 -03485.5 -07.6270 26261.0
 04 09 2013  06 01  -21.0155 26028.7 -03485.5 -07.6270 26261.0
 04 09 2013  06 02  -21.0153 26028.7 -03485.5 -07.6270 26261.0
 04 09 2013  06 03  -21.0152 26028.7 -03485.5 -07.6271 26261.1
 04 09 2013  06 04  -21.0151 26028.8 -03485.5 -07.6271 26261.1
 04 09 2013  06 05  -21.0149 26028.8 -03485.6 -07.6272 26261.1
 04 09 2013  06 06  -21.0147 26028.8 -03485.5 -07.6271 26261.1
 04 09 2013  06 07  -21.0145 26028.8 -03485.5 -07.6271 26261.1
 04 09 2013  06 08  -21.0143 26028.8 -03485.5 -07.6271 26261.1
 04 09 2013  06 09  -21.0141 26028.8 -03485.5 -07.6271 26261.1
 04 09 2013  06 10  -21.0141 26028.7 -03485.5 -07.6271 26261.1
 04 09 2013  06 11  -21.0141 26028.6 -03485.5 -07.6271 26261.0
 04 09 2013  06 12  -21.0141 26028.5 -03485.4 -07.6270 26260.8
 04 09 2013  06 13  -21.0141 26028.4 -03485.4 -07.6269 26260.8
 04 09 2013  06 14  -21.0141 26028.3 -03485.4 -07.6269 26260.6
 04 09 2013  06 15  -21.0139 26028.3 -03485.3 -07.6268 26260.6
 04 09 2013  06 16  -21.0137 26028.2 -03485.3 -07.6268 26260.5
 04 09 2013  06 17  -21.0136 26028.1 -03485.3 -07.6267 26260.4
 04 09 2013  06 18  -21.0133 26028.0 -03485.2 -07.6267 26260.3
 04 09 2013  06 19  -21.0131 26027.9 -03485.2 -07.6266 26260.2
 04 09 2013  06 20  -21.0129 26027.8 -03485.2 -07.6266 26260.1
 04 09 2013  06 21  -21.0128 26028.0 -03485.2 -07.6267 26260.3
 04 09 2013  06 22  -21.0129 26027.9 -03485.2 -07.6267 26260.2
 04 09 2013  06 23  -21.0129 26027.9 -03485.3 -07.6269 26260.3
 04 09 2013  06 24  -21.0129 26027.8 -03485.3 -07.6269 26260.1
 04 09 2013  06 25  -21.0129 26027.9 -03485.4 -07.6271 26260.2
 04 09 2013  06 26  -21.0129 26027.8 -03485.4 -07.6271 26260.2
 04 09 2013  06 27  -21.0130 26027.9 -03485.5 -07.6272 26260.3
 04 09 2013  06 28  -21.0129 26028.0 -03485.5 -07.6273 26260.3
 04 09 2013  06 29  -21.0129 26028.1 -03485.5 -07.6273 26260.4
 04 09 2013  06 30  -21.0130 26028.0 -03485.5 -07.6273 26260.4
 04 09 2013  06 31  -21.0129 26028.2 -03485.5 -07.6273 26260.5
 04 09 2013  06 32  -21.0127 26028.0 -03485.4 -07.6271 26260.3
 04 09 2013  06 33  -21.0128 26028.0 -03485.5 -07.6272 26260.3
 04 09 2013  06 34  -21.0127 26028.0 -03485.4 -07.6272 26260.3
 04 09 2013  06 35  -21.0124 26028.1 -03485.5 -07.6273 26260.5
 04 09 2013  06 36  -21.0122 26028.2 -03485.6 -07.6274 26260.6
 04 09 2013  06 37  -21.0118 26028.4 -03485.6 -07.6274 26260.7
 04 09 2013  06 38  -21.0114 26028.4 -03485.6 -07.6275 26260.8
 04 09 2013  06 39  -21.0111 26028.7 -03485.8 -07.6276 26261.0
 04 09 2013  06 40  -21.0106 26028.9 -03485.9 -07.6278 26261.3
 04 09 2013  06 41  -21.0101 26029.2 -03486.0 -07.6281 26261.6
 04 09 2013  06 42  -21.0097 26029.4 -03486.1 -07.6283 26261.8
 04 09 2013  06 43  -21.0091 26029.4 -03486.2 -07.6284 26261.8
 04 09 2013  06 44  -21.0087 26029.3 -03486.1 -07.6283 26261.7
 04 09 2013  06 45  -21.0086 26029.2 -03486.1 -07.6283 26261.6
 04 09 2013  06 46  -21.0085 26029.1 -03486.2 -07.6284 26261.5
 04 09 2013  06 47  -21.0087 26029.1 -03486.3 -07.6287 26261.5
 04 09 2013  06 48  -21.0090 26028.8 -03486.2 -07.6286 26261.2
 04 09 2013  06 49  -21.0091 26028.9 -03486.3 -07.6288 26261.3
 04 09 2013  06 50  -21.0093 26028.8 -03486.3 -07.6288 26261.2
 04 09 2013  06 51  -21.0096 26028.7 -03486.3 -07.6288 26261.2
 04 09 2013  06 52  -21.0098 26028.4 -03486.1 -07.6285 26260.8
 04 09 2013  06 53  -21.0100 26028.3 -03486.0 -07.6283 26260.7
 04 09 2013  06 54  -21.0102 26028.3 -03486.0 -07.6284 26260.7
 04 09 2013  06 55  -21.0106 26028.3 -03486.1 -07.6285 26260.7
 04 09 2013  06 56  -21.0112 26028.3 -03486.1 -07.6286 26260.8
 04 09 2013  06 57  -21.0119 26028.5 -03486.2 -07.6287 26260.9
 04 09 2013  06 58  -21.0123 26028.6 -03486.2 -07.6286 26261.1
 04 09 2013  06 59  -21.0126 26028.8 -03486.1 -07.6284 26261.2
 04 09 2013  07 00  -21.0124 26028.9 -03486.1 -07.6283 26261.3
 04 09 2013  07 01  -21.0120 26028.8 -03485.9 -07.6280 26261.2
 04 09 2013  07 02  -21.0117 26028.6 -03485.8 -07.6278 26260.9
 04 09 2013  07 03  -21.0115 26028.3 -03485.7 -07.6276 26260.7
 04 09 2013  07 04  -21.0116 26028.2 -03485.7 -07.6276 26260.5
 04 09 2013  07 05  -21.0118 26028.0 -03485.7 -07.6276 26260.4
 04 09 2013  07 06  -21.0121 26028.1 -03485.7 -07.6278 26260.4
 04 09 2013  07 07  -21.0121 26028.3 -03485.8 -07.6279 26260.7
 04 09 2013  07 08  -21.0119 26028.5 -03485.8 -07.6278 26260.8
 04 09 2013  07 09  -21.0116 26028.5 -03485.8 -07.6277 26260.9
 04 09 2013  07 10  -21.0112 26028.5 -03485.7 -07.6277 26260.8
 04 09 2013  07 11  -21.0109 26028.3 -03485.6 -07.6275 26260.6
 04 09 2013  07 12  -21.0108 26028.2 -03485.6 -07.6274 26260.5
 04 09 2013  07 13  -21.0107 26028.1 -03485.6 -07.6275 26260.5
 04 09 2013  07 14  -21.0103 26028.2 -03485.6 -07.6274 26260.5
 04 09 2013  07 15  -21.0100 26028.2 -03485.5 -07.6273 26260.6
 04 09 2013  07 16  -21.0098 26028.3 -03485.5 -07.6273 26260.6
 04 09 2013  07 17  -21.0094 26028.2 -03485.5 -07.6273 26260.6
 04 09 2013  07 18  -21.0092 26028.2 -03485.5 -07.6273 26260.5
 04 09 2013  07 19  -21.0088 26028.0 -03485.5 -07.6272 26260.3
 04 09 2013  07 20  -21.0085 26027.9 -03485.4 -07.6271 26260.2
 04 09 2013  07 21  -21.0083 26027.8 -03485.4 -07.6271 26260.1
 04 09 2013  07 22  -21.0079 26027.7 -03485.3 -07.6270 26260.0
 04 09 2013  07 23  -21.0075 26027.6 -03485.3 -07.6270 26259.9
 04 09 2013  07 24  -21.0070 26027.6 -03485.3 -07.6270 26260.0
 04 09 2013  07 25  -21.0066 26027.8 -03485.4 -07.6271 26260.1
 04 09 2013  07 26  -21.0062 26028.0 -03485.5 -07.6273 26260.3
 04 09 2013  07 27  -21.0057 26028.1 -03485.6 -07.6274 26260.5
 04 09 2013  07 28  -21.0054 26028.4 -03485.7 -07.6276 26260.7
 04 09 2013  07 29  -21.0051 26028.6 -03485.8 -07.6277 26261.0
 04 09 2013  07 30  -21.0047 26028.8 -03485.9 -07.6279 26261.2
 04 09 2013  07 31  -21.0042 26028.9 -03485.9 -07.6280 26261.3
 04 09 2013  07 32  -21.0035 26028.9 -03485.9 -07.6280 26261.3
 04 09 2013  07 33  -21.0030 26028.7 -03485.9 -07.6280 26261.1
 04 09 2013  07 34  -21.0028 26028.4 -03485.9 -07.6280 26260.8
 04 09 2013  07 35  -21.0029 26028.3 -03485.9 -07.6281 26260.7
 04 09 2013  07 36  -21.0029 26028.3 -03486.0 -07.6282 26260.7
 04 09 2013  07 37  -21.0030 26028.5 -03486.1 -07.6285 26260.9
 04 09 2013  07 38  -21.0030 26028.7 -03486.3 -07.6288 26261.1
 04 09 2013  07 39  -21.0033 26028.9 -03486.4 -07.6290 26261.3
 04 09 2013  07 40  -21.0034 26028.9 -03486.4 -07.6290 26261.3
 04 09 2013  07 41  -21.0036 26028.9 -03486.5 -07.6292 26261.4
 04 09 2013  07 42  -21.0037 26028.9 -03486.5 -07.6291 26261.4
 04 09 2013  07 43  -21.0040 26029.0 -03486.6 -07.6293 26261.5
 04 09 2013  07 44  -21.0043 26029.2 -03486.6 -07.6294 26261.7
 04 09 2013  07 45  -21.0045 26029.2 -03486.6 -07.6293 26261.7
 04 09 2013  07 46  -21.0045 26029.1 -03486.5 -07.6291 26261.6
 04 09 2013  07 47  -21.0044 26028.8 -03486.3 -07.6288 26261.2
 04 09 2013  07 48  -21.0044 26028.6 -03486.2 -07.6286 26261.0
 04 09 2013  07 49  -21.0044 26028.4 -03486.1 -07.6285 26260.8
 04 09 2013  07 50  -21.0041 26028.5 -03486.1 -07.6285 26260.9
 04 09 2013  07 51  -21.0042 26028.6 -03486.2 -07.6285 26261.0
 04 09 2013  07 52  -21.0038 26028.8 -03486.1 -07.6284 26261.2
 04 09 2013  07 53  -21.0032 26028.7 -03486.0 -07.6282 26261.1
 04 09 2013  07 54  -21.0027 26028.6 -03485.9 -07.6280 26261.0
 04 09 2013  07 55  -21.0023 26028.3 -03485.8 -07.6279 26260.7
 04 09 2013  07 56  -21.0020 26028.2 -03485.8 -07.6279 26260.5
 04 09 2013  07 57  -21.0019 26028.1 -03485.8 -07.6279 26260.5
 04 09 2013  07 58  -21.0017 26028.0 -03485.8 -07.6279 26260.4
 04 09 2013  07 59  -21.0015 26028.1 -03485.8 -07.6280 26260.5
 04 09 2013  08 00  -21.0011 26028.1 -03485.9 -07.6280 26260.5
 04 09 2013  08 01  -21.0009 26028.2 -03485.9 -07.6281 26260.6
 04 09 2013  08 02  -21.0004 26028.3 -03485.9 -07.6280 26260.7
 04 09 2013  08 03  -21.0001 26028.2 -03485.8 -07.6279 26260.6
 04 09 2013  08 04  -20.9998 26028.1 -03485.8 -07.6279 26260.5
 04 09 2013  08 05  -20.9992 26028.1 -03485.8 -07.6279 26260.5
 04 09 2013  08 06  -20.9989 26027.8 -03485.8 -07.6279 26260.2
 04 09 2013  08 07  -20.9984 26028.3 -03486.0 -07.6282 26260.7
 04 09 2013  08 08  -20.9981 26027.8 -03485.8 -07.6281 26260.2
 04 09 2013  08 09  -20.9977 26028.6 -03486.1 -07.6285 26261.0
 04 09 2013  08 10  -20.9977 26028.3 -03486.1 -07.6285 26260.7
 04 09 2013  08 11  -20.9976 26028.6 -03486.2 -07.6286 26261.0
 04 09 2013  08 12  -20.9976 26028.4 -03486.1 -07.6285 26260.8
 04 09 2013  08 13  -20.9978 26028.5 -03486.2 -07.6287 26261.0
 04 09 2013  08 14  -20.9978 26028.7 -03486.3 -07.6289 26261.1
 04 09 2013  08 15  -20.9979 26028.6 -03486.3 -07.6289 26261.0
 04 09 2013  08 16  -20.9977 26028.7 -03486.3 -07.6289 26261.1
 04 09 2013  08 17  -20.9974 26028.9 -03486.4 -07.6289 26261.3
 04 09 2013  08 18  -20.9971 26028.8 -03486.3 -07.6287 26261.2
 04 09 2013  08 19  -20.9967 26029.1 -03486.3 -07.6287 26261.5
 04 09 2013  08 20  -20.9964 26029.0 -03486.2 -07.6284 26261.4
 04 09 2013  08 21  -20.9961 26029.0 -03486.2 -07.6285 26261.4
 04 09 2013  08 22  -20.9956 26028.9 -03486.1 -07.6284 26261.3
 04 09 2013  08 23  -20.9951 26028.8 -03486.1 -07.6283 26261.2
 04 09 2013  08 24  -20.9945 26028.9 -03486.1 -07.6282 26261.3
 04 09 2013  08 25  -20.9940 26029.0 -03486.1 -07.6282 26261.4
 04 09 2013  08 26  -20.9934 26029.1 -03486.1 -07.6282 26261.5
 04 09 2013  08 27  -20.9929 26029.2 -03486.2 -07.6284 26261.6
 04 09 2013  08 28  -20.9925 26029.3 -03486.2 -07.6285 26261.8
 04 09 2013  08 29  -20.9920 26029.5 -03486.3 -07.6285 26261.9
 04 09 2013  08 30  -20.9915 26029.5 -03486.3 -07.6285 26261.9
 04 09 2013  08 31  -20.9910 26029.6 -03486.3 -07.6286 26262.0
 04 09 2013  08 32  -20.9904 26029.7 -03486.3 -07.6286 26262.1
 04 09 2013  08 33  -20.9898 26029.6 -03486.3 -07.6286 26262.0
 04 09 2013  08 34  -20.9892 26029.6 -03486.3 -07.6286 26262.1
 04 09 2013  08 35  -20.9888 26029.7 -03486.4 -07.6287 26262.1
 04 09 2013  08 36  -20.9884 26029.7 -03486.4 -07.6288 26262.2
 04 09 2013  08 37  -20.9879 26029.7 -03486.4 -07.6288 26262.1
 04 09 2013  08 38  -20.9874 26029.7 -03486.5 -07.6289 26262.2
 04 09 2013  08 39  -20.9868 26029.8 -03486.4 -07.6288 26262.3
 04 09 2013  08 40  -20.9862 26029.9 -03486.7 -07.6293 26262.4
 04 09 2013  08 41  -20.9856 26029.9 -03486.7 -07.6294 26262.4
 04 09 2013  08 42  -20.9851 26029.9 -03486.8 -07.6295 26262.4
 04 09 2013  08 43  -20.9844 26029.8 -03486.8 -07.6296 26262.3
 04 09 2013  08 44  -20.9841 26029.6 -03486.8 -07.6295 26262.1
 04 09 2013  08 45  -20.9836 26029.6 -03486.9 -07.6298 26262.1
 04 09 2013  08 46  -20.9830 26029.7 -03487.0 -07.6299 26262.2
 04 09 2013  08 47  -20.9826 26029.5 -03487.0 -07.6301 26262.0
 04 09 2013  08 48  -20.9823 26029.3 -03487.0 -07.6301 26261.8
 04 09 2013  08 49  -20.9818 26029.2 -03487.0 -07.6303 26261.8
 04 09 2013  08 50  -20.9815 26029.3 -03487.2 -07.6306 26261.8
 04 09 2013  08 51  -20.9810 26029.4 -03487.4 -07.6309 26262.0
 04 09 2013  08 52  -20.9808 26029.6 -03487.6 -07.6314 26262.2
 04 09 2013  08 53  -20.9804 26029.7 -03487.8 -07.6317 26262.3
 04 09 2013  08 54  -20.9800 26029.7 -03487.9 -07.6319 26262.3
 04 09 2013  08 55  -20.9799 26029.8 -03487.9 -07.6321 26262.4
 04 09 2013  08 56  -20.9795 26029.9 -03488.1 -07.6324 26262.6
 04 09 2013  08 57  -20.9790 26030.2 -03488.3 -07.6327 26262.9
 04 09 2013  08 58  -20.9782 26030.3 -03488.4 -07.6330 26263.0
 04 09 2013  08 59  -20.9776 26030.2 -03488.4 -07.6330 26263.0
 04 09 2013  09 00  -20.9775 26030.0 -03488.5 -07.6332 26262.8
 04 09 2013  09 01  -20.9771 26030.0 -03488.6 -07.6335 26262.7
 04 09 2013  09 02  -20.9770 26029.7 -03488.7 -07.6337 26262.5
 04 09 2013  09 03  -20.9768 26029.6 -03488.7 -07.6338 26262.4
 04 09 2013  09 04  -20.9766 26029.6 -03488.9 -07.6341 26262.4
 04 09 2013  09 05  -20.9761 26029.6 -03489.0 -07.6343 26262.4
 04 09 2013  09 06  -20.9760 26029.6 -03489.1 -07.6347 26262.4
 04 09 2013  09 07  -20.9758 26029.4 -03489.2 -07.6349 26262.3
 04 09 2013  09 08  -20.9758 26029.4 -03489.3 -07.6352 26262.3
 04 09 2013  09 09  -20.9758 26029.6 -03489.6 -07.6356 26262.5
 04 09 2013  09 10  -20.9761 26029.9 -03489.8 -07.6360 26262.8
 04 09 2013  09 11  -20.9763 26030.2 -03490.1 -07.6365 26263.1
 04 09 2013  09 12  -20.9766 26030.4 -03490.3 -07.6369 26263.3
 04 09 2013  09 13  -20.9769 26030.8 -03490.5 -07.6372 26263.8
 04 09 2013  09 14  -20.9773 26031.1 -03490.7 -07.6377 26264.1
 04 09 2013  09 15  -20.9778 26031.3 -03491.0 -07.6383 26264.3
 04 09 2013  09 16  -20.9781 26031.2 -03491.1 -07.6384 26264.2
 04 09 2013  09 17  -20.9782 26031.1 -03491.1 -07.6385 26264.2
 04 09 2013  09 18  -20.9786 26031.1 -03491.2 -07.6387 26264.2
 04 09 2013  09 19  -20.9788 26030.8 -03491.2 -07.6388 26263.9
 04 09 2013  09 20  -20.9792 26030.6 -03491.2 -07.6390 26263.6
 04 09 2013  09 21  -20.9793 26030.5 -03491.4 -07.6393 26263.6
 04 09 2013  09 22  -20.9793 26030.4 -03491.5 -07.6397 26263.5
 04 09 2013  09 23  -20.9790 26030.1 -03491.4 -07.6395 26263.2
 04 09 2013  09 24  -20.9787 26029.9 -03491.6 -07.6399 26263.0
 04 09 2013  09 25  -20.9784 26029.7 -03491.7 -07.6401 26262.9
 04 09 2013  09 26  -20.9780 26029.6 -03491.8 -07.6403 26262.8
 04 09 2013  09 27  -20.9777 26029.7 -03491.9 -07.6406 26262.8
 04 09 2013  09 28  -20.9776 26029.5 -03491.9 -07.6408 26262.7
 04 09 2013  09 29  -20.9778 26029.5 -03492.1 -07.6411 26262.7
 04 09 2013  09 30  -20.9783 26029.7 -03492.3 -07.6415 26263.0
 04 09 2013  09 31  -20.9784 26029.8 -03492.5 -07.6420 26263.1
 04 09 2013  09 32  -20.9785 26029.5 -03492.5 -07.6420 26262.8
 04 09 2013  09 33  -20.9788 26029.5 -03492.5 -07.6420 26262.7
 04 09 2013  09 34  -20.9796 26029.7 -03492.7 -07.6424 26263.0
 04 09 2013  09 35  -20.9798 26030.0 -03492.8 -07.6426 26263.2
 04 09 2013  09 36  -20.9800 26030.1 -03492.9 -07.6427 26263.4
 04 09 2013  09 37  -20.9803 26030.1 -03492.9 -07.6426 26263.4
 04 09 2013  09 38  -20.9810 26030.1 -03492.9 -07.6427 26263.5
 04 09 2013  09 39  -20.9817 26030.1 -03492.9 -07.6427 26263.4
 04 09 2013  09 40  -20.9822 26030.0 -03493.0 -07.6429 26263.4
 04 09 2013  09 41  -20.9826 26029.9 -03493.1 -07.6431 26263.3
 04 09 2013  09 42  -20.9831 26029.9 -03493.2 -07.6433 26263.2
 04 09 2013  09 43  -20.9837 26029.9 -03493.2 -07.6434 26263.2
 04 09 2013  09 44  -20.9844 26029.9 -03493.3 -07.6436 26263.3
 04 09 2013  09 45  -20.9850 26030.1 -03493.4 -07.6438 26263.5
 04 09 2013  09 46  -20.9854 26030.3 -03493.6 -07.6441 26263.7
 04 09 2013  09 47  -20.9854 26030.6 -03493.8 -07.6444 26264.1
 04 09 2013  09 48  -20.9857 26030.9 -03493.8 -07.6444 26264.3
 04 09 2013  09 49  -20.9860 26031.3 -03494.1 -07.6448 26264.7
 04 09 2013  09 50  -20.9866 26031.7 -03494.3 -07.6452 26265.1
 04 09 2013  09 51  -20.9872 26032.1 -03494.5 -07.6455 26265.6
 04 09 2013  09 52  -20.9884 26032.5 -03494.7 -07.6459 26266.0
 04 09 2013  09 53  -20.9883 26032.7 -03494.7 -07.6459 26266.3
 04 09 2013  09 54  -20.9884 26032.5 -03494.6 -07.6456 26266.1
 04 09 2013  09 55  -20.9890 26032.3 -03494.4 -07.6454 26265.8
 04 09 2013  09 56  -20.9894 26032.1 -03494.5 -07.6455 26265.6
 04 09 2013  09 57  -20.9898 26032.1 -03494.5 -07.6456 26265.6
 04 09 2013  09 58  -20.9905 26032.1 -03494.7 -07.6460 26265.7
 04 09 2013  09 59  -20.9910 26032.5 -03495.0 -07.6464 26266.1
 04 09 2013  10 00  -20.9913 26032.7 -03495.1 -07.6466 26266.3
 04 09 2013  10 01  -20.9916 26033.0 -03495.2 -07.6469 26266.6
 04 09 2013  10 02  -20.9920 26033.2 -03495.4 -07.6471 26266.8
 04 09 2013  10 03  -20.9925 26033.4 -03495.5 -07.6473 26267.1
 04 09 2013  10 04  -20.9932 26033.6 -03495.6 -07.6475 26267.3
 04 09 2013  10 05  -20.9938 26033.7 -03495.7 -07.6476 26267.3
 04 09 2013  10 06  -20.9948 26033.6 -03495.7 -07.6477 26267.3
 04 09 2013  10 07  -20.9959 26033.7 -03495.7 -07.6478 26267.3
 04 09 2013  10 08  -20.9964 26033.6 -03495.7 -07.6477 26267.3
 04 09 2013  10 09  -20.9971 26033.9 -03495.9 -07.6480 26267.5
 04 09 2013  10 10  -20.9978 26034.4 -03496.1 -07.6484 26268.1
 04 09 2013  10 11  -20.9980 26034.8 -03496.3 -07.6487 26268.5
 04 09 2013  10 12  -20.9981 26035.2 -03496.4 -07.6488 26269.0
 04 09 2013  10 13  -20.9990 26035.6 -03496.5 -07.6488 26269.3
 04 09 2013  10 14  -21.0000 26035.9 -03496.5 -07.6488 26269.7
 04 09 2013  10 15  -21.0004 26036.1 -03496.5 -07.6486 26269.9
 04 09 2013  10 16  -21.0008 26036.1 -03496.3 -07.6483 26269.8
 04 09 2013  10 17  -21.0017 26036.4 -03496.4 -07.6483 26270.1
 04 09 2013  10 18  -21.0026 26036.7 -03496.4 -07.6484 26270.4
 04 09 2013  10 19  -21.0039 26037.1 -03496.5 -07.6485 26270.8
 04 09 2013  10 20  -21.0050 26037.4 -03496.6 -07.6485 26271.1
 04 09 2013  10 21  -21.0057 26037.6 -03496.5 -07.6484 26271.3
 04 09 2013  10 22  -21.0064 26037.8 -03496.5 -07.6482 26271.5
 04 09 2013  10 23  -21.0070 26038.0 -03496.4 -07.6480 26271.7
 04 09 2013  10 24  -21.0074 26038.1 -03496.3 -07.6478 26271.8
 04 09 2013  10 25  -21.0082 26038.1 -03496.2 -07.6475 26271.8
 04 09 2013  10 26  -21.0090 26038.3 -03496.2 -07.6475 26272.0
 04 09 2013  10 27  -21.0100 26038.5 -03496.2 -07.6474 26272.1
 04 09 2013  10 28  -21.0111 26038.4 -03496.1 -07.6473 26272.1
 04 09 2013  10 29  -21.0117 26038.3 -03496.0 -07.6470 26272.0
 04 09 2013  10 30  -21.0122 26038.0 -03495.8 -07.6466 26271.6
 04 09 2013  10 31  -21.0127 26037.7 -03495.6 -07.6463 26271.3
 04 09 2013  10 32  -21.0138 26037.4 -03495.5 -07.6461 26271.0
 04 09 2013  10 33  -21.0144 26037.3 -03495.5 -07.6462 26270.9
 04 09 2013  10 34  -21.0154 26037.3 -03495.5 -07.6463 26270.8
 04 09 2013  10 35  -21.0167 26037.1 -03495.5 -07.6463 26270.7
 04 09 2013  10 36  -21.0179 26037.0 -03495.5 -07.6463 26270.6
 04 09 2013  10 37  -21.0193 26036.9 -03495.5 -07.6463 26270.5
 04 09 2013  10 38  -21.0198 26037.0 -03495.4 -07.6462 26270.6
 04 09 2013  10 39  -21.0199 26037.4 -03495.5 -07.6461 26270.9
 04 09 2013  10 40  -21.0204 26037.7 -03495.5 -07.6461 26271.3
 04 09 2013  10 41  -21.0211 26037.8 -03495.4 -07.6458 26271.4
 04 09 2013  10 42  -21.0216 26037.7 -03495.2 -07.6453 26271.3
 04 09 2013  10 43  -21.0219 26037.8 -03494.9 -07.6449 26271.3
 04 09 2013  10 44  -21.0224 26037.9 -03494.9 -07.6446 26271.4
 04 09 2013  10 45  -21.0222 26038.0 -03494.7 -07.6443 26271.4
 04 09 2013  10 46  -21.0233 26037.7 -03494.5 -07.6439 26271.1
 04 09 2013  10 47  -21.0256 26037.2 -03494.3 -07.6437 26270.7
 04 09 2013  10 48  -21.0268 26037.6 -03494.4 -07.6438 26271.0
 04 09 2013  10 49  -21.0273 26037.8 -03494.4 -07.6438 26271.2
 04 09 2013  10 50  -21.0266 26038.6 -03494.6 -07.6438 26272.0
 04 09 2013  10 51  -21.0258 26039.3 -03494.6 -07.6437 26272.7
 04 09 2013  10 52  -21.0258 26039.5 -03494.4 -07.6432 26273.0
 04 09 2013  10 53  -21.0278 26039.7 -03494.3 -07.6429 26273.1
 04 09 2013  10 54  -21.0294 26039.8 -03494.1 -07.6425 26273.2
 04 09 2013  10 55  -21.0298 26040.2 -03494.1 -07.6423 26273.5
 04 09 2013  10 56  -21.0302 26040.8 -03494.0 -07.6420 26274.1
 04 09 2013  10 57  -21.0307 26041.1 -03493.9 -07.6417 26274.4
 04 09 2013  10 58  -21.0314 26040.8 -03493.6 -07.6410 26274.1
 04 09 2013  10 59  -21.0329 26040.8 -03493.4 -07.6407 26274.1
 04 09 2013  11 00  -21.0335 26041.4 -03493.4 -07.6406 26274.7
 04 09 2013  11 01  -21.0338 26041.9 -03493.3 -07.6402 26275.1
 04 09 2013  11 02  -21.0342 26042.1 -03493.1 -07.6397 26275.3
 04 09 2013  11 03  -21.0355 26042.4 -03493.0 -07.6394 26275.6
 04 09 2013  11 04  -21.0363 26043.1 -03493.1 -07.6393 26276.3
 04 09 2013  11 05  -21.0371 26043.7 -03493.0 -07.6389 26276.9
 04 09 2013  11 06  -21.0381 26044.0 -03492.8 -07.6384 26277.2
 04 09 2013  11 07  -21.0391 26044.1 -03492.4 -07.6376 26277.2
 04 09 2013  11 08  -21.0403 26043.5 -03492.0 -07.6367 26276.6
 04 09 2013  11 09  -21.0415 26043.3 -03491.7 -07.6363 26276.4
 04 09 2013  11 10  -21.0428 26043.2 -03491.6 -07.6361 26276.2
 04 09 2013  11 11  -21.0444 26043.1 -03491.6 -07.6361 26276.1
 04 09 2013  11 12  -21.0459 26042.8 -03491.4 -07.6358 26275.8
 04 09 2013  11 13  -21.0466 26042.9 -03491.3 -07.6356 26275.9
 04 09 2013  11 14  -21.0474 26043.1 -03491.2 -07.6353 26276.0
 04 09 2013  11 15  -21.0482 26042.2 -03490.7 -07.6344 26275.1
 04 09 2013  11 16  -21.0495 26040.8 -03490.1 -07.6336 26273.7
 04 09 2013  11 17  -21.0508 26040.0 -03489.8 -07.6331 26272.8
 04 09 2013  11 18  -21.0513 26039.3 -03489.6 -07.6329 26272.0
 04 09 2013  11 19  -21.0520 26039.1 -03489.6 -07.6329 26271.9
 04 09 2013  11 20  -21.0530 26039.0 -03489.6 -07.6330 26271.8
 04 09 2013  11 21  -21.0540 26038.9 -03489.6 -07.6329 26271.7
 04 09 2013  11 22  -21.0545 26038.8 -03489.5 -07.6328 26271.6
 04 09 2013  11 23  -21.0549 26038.7 -03489.4 -07.6327 26271.5
 04 09 2013  11 24  -21.0561 26038.6 -03489.4 -07.6327 26271.3
 04 09 2013  11 25  -21.0575 26038.5 -03489.4 -07.6327 26271.2
 04 09 2013  11 26  -21.0590 26038.5 -03489.4 -07.6326 26271.2
 04 09 2013  11 27  -21.0599 26038.8 -03489.5 -07.6327 26271.6
 04 09 2013  11 28  -21.0600 26039.8 -03489.7 -07.6329 26272.5
 04 09 2013  11 29  -21.0604 26040.3 -03489.7 -07.6328 26273.1
 04 09 2013  11 30  -21.0607 26040.5 -03489.6 -07.6325 26273.3
 04 09 2013  11 31  -21.0611 26040.7 -03489.5 -07.6322 26273.5
 04 09 2013  11 32  -21.0620 26040.6 -03489.2 -07.6317 26273.3
 04 09 2013  11 33  -21.0626 26041.0 -03489.2 -07.6316 26273.7
 04 09 2013  11 34  -21.0628 26042.3 -03489.6 -07.6320 26275.1
 04 09 2013  11 35  -21.0631 26043.5 -03490.0 -07.6324 26276.3
 04 09 2013  11 36  -21.0630 26044.2 -03489.9 -07.6321 26277.0
 04 09 2013  11 37  -21.0625 26045.0 -03489.9 -07.6318 26277.7
 04 09 2013  11 38  -21.0622 26045.7 -03489.8 -07.6315 26278.5
 04 09 2013  11 39  -21.0621 26046.3 -03489.7 -07.6310 26279.1
 04 09 2013  11 40  -21.0623 26047.1 -03489.5 -07.6305 26279.8
 04 09 2013  11 41  -21.0628 26047.4 -03489.2 -07.6297 26280.1
 04 09 2013  11 42  -21.0640 26047.1 -03488.7 -07.6286 26279.7
 04 09 2013  11 43  -21.0657 26046.9 -03488.3 -07.6278 26279.4
 04 09 2013  11 44  -21.0663 26047.5 -03488.2 -07.6275 26280.0
 04 09 2013  11 45  -21.0660 26048.6 -03488.4 -07.6276 26281.1
 04 09 2013  11 46  -21.0660 26049.8 -03488.6 -07.6276 26282.3
 04 09 2013  11 47  -21.0661 26050.3 -03488.4 -07.6272 26282.8
 04 09 2013  11 48  -21.0675 26049.2 -03487.8 -07.6261 26281.6
 04 09 2013  11 49  -21.0690 26048.4 -03487.3 -07.6253 26280.8
 04 09 2013  11 50  -21.0706 26048.5 -03487.2 -07.6250 26280.9
 04 09 2013  11 51  -21.0717 26049.5 -03487.3 -07.6250 26281.9
 04 09 2013  11 52  -21.0726 26049.8 -03487.1 -07.6244 26282.2
 04 09 2013  11 53  -21.0732 26049.5 -03486.7 -07.6236 26281.8
 04 09 2013  11 54  -21.0738 26048.9 -03486.2 -07.6228 26281.2
 04 09 2013  11 55  -21.0739 26048.8 -03486.1 -07.6225 26281.1
 04 09 2013  11 56  -21.0742 26049.8 -03486.3 -07.6226 26282.1
 04 09 2013  11 57  -21.0749 26050.8 -03486.4 -07.6226 26283.1
 04 09 2013  11 58  -21.0753 26052.2 -03486.5 -07.6225 26284.5
 04 09 2013  11 59  -21.0760 26053.2 -03486.5 -07.6221 26285.5
 04 09 2013  12 00  -21.0768 26053.6 -03486.2 -07.6214 26285.8
 04 09 2013  12 01  -21.0780 26053.3 -03485.7 -07.6205 26285.5
 04 09 2013  12 02  -21.0794 26052.9 -03485.2 -07.6195 26285.0
 04 09 2013  12 03  -21.0809 26052.7 -03484.9 -07.6188 26284.8
 04 09 2013  12 04  -21.0819 26052.9 -03484.6 -07.6182 26284.9
 04 09 2013  12 05  -21.0825 26053.4 -03484.6 -07.6179 26285.4
 04 09 2013  12 06  -21.0828 26053.5 -03484.3 -07.6173 26285.5
 04 09 2013  12 07  -21.0833 26052.6 -03483.7 -07.6163 26284.5
 04 09 2013  12 08  -21.0840 26051.6 -03483.1 -07.6152 26283.4
 04 09 2013  12 09  -21.0851 26051.0 -03482.8 -07.6149 26282.8
 04 09 2013  12 10  -21.0859 26051.2 -03482.9 -07.6148 26283.0
 04 09 2013  12 11  -21.0867 26051.4 -03482.8 -07.6148 26283.2
 04 09 2013  12 12  -21.0872 26052.0 -03483.0 -07.6149 26283.8
 04 09 2013  12 13  -21.0875 26052.0 -03482.8 -07.6145 26283.7
 04 09 2013  12 14  -21.0880 26052.2 -03482.8 -07.6144 26283.9
 04 09 2013  12 15  -21.0883 26052.3 -03482.7 -07.6142 26284.1
 04 09 2013  12 16  -21.0885 26053.1 -03482.8 -07.6142 26284.8
 04 09 2013  12 17  -21.0889 26054.8 -03483.2 -07.6146 26286.6
 04 09 2013  12 18  -21.0886 26056.0 -03483.2 -07.6142 26287.8
 04 09 2013  12 19  -21.0885 26055.8 -03482.6 -07.6130 26287.5
 04 09 2013  12 20  -21.0885 26054.9 -03481.9 -07.6117 26286.6
 04 09 2013  12 21  -21.0885 26054.7 -03481.6 -07.6112 26286.3
 04 09 2013  12 22  -21.0889 26055.0 -03481.7 -07.6112 26286.6
 04 09 2013  12 23  -21.0895 26055.7 -03481.8 -07.6113 26287.3
 04 09 2013  12 24  -21.0903 26056.4 -03481.8 -07.6111 26288.0
 04 09 2013  12 25  -21.0908 26057.2 -03481.8 -07.6109 26288.8
 04 09 2013  12 26  -21.0910 26057.3 -03481.5 -07.6101 26288.8
 04 09 2013  12 27  -21.0910 26056.7 -03480.9 -07.6090 26288.2
 04 09 2013  12 28  -21.0910 26056.1 -03480.4 -07.6082 26287.5
 04 09 2013  12 29  -21.0911 26056.1 -03480.3 -07.6079 26287.5
 04 09 2013  12 30  -21.0913 26056.3 -03480.3 -07.6078 26287.7
 04 09 2013  12 31  -21.0918 26056.6 -03480.3 -07.6077 26288.0
 04 09 2013  12 32  -21.0922 26057.1 -03480.3 -07.6076 26288.5
 04 09 2013  12 33  -21.0926 26057.3 -03480.2 -07.6073 26288.7
 04 09 2013  12 34  -21.0925 26057.7 -03480.0 -07.6068 26289.0
 04 09 2013  12 35  -21.0926 26057.9 -03479.8 -07.6064 26289.3
 04 09 2013  12 36  -21.0927 26058.1 -03479.6 -07.6059 26289.4
 04 09 2013  12 37  -21.0927 26058.3 -03479.4 -07.6054 26289.6
 04 09 2013  12 38  -21.0930 26058.3 -03479.2 -07.6049 26289.6
 04 09 2013  12 39  -21.0934 26058.4 -03479.0 -07.6045 26289.6
 04 09 2013  12 40  -21.0936 26058.6 -03479.0 -07.6043 26289.8
 04 09 2013  12 41  -21.0939 26059.1 -03479.0 -07.6042 26290.3
 04 09 2013  12 42  -21.0942 26059.5 -03478.9 -07.6040 26290.7
 04 09 2013  12 43  -21.0947 26059.7 -03478.8 -07.6035 26290.9
 04 09 2013  12 44  -21.0949 26059.9 -03478.6 -07.6032 26291.1
 04 09 2013  12 45  -21.0955 26060.4 -03478.6 -07.6030 26291.5
 04 09 2013  12 46  -21.0958 26060.5 -03478.4 -07.6025 26291.6
 04 09 2013  12 47  -21.0963 26060.3 -03478.1 -07.6020 26291.4
 04 09 2013  12 48  -21.0967 26060.1 -03477.8 -07.6014 26291.2
 04 09 2013  12 49  -21.0973 26059.9 -03477.6 -07.6010 26290.9
 04 09 2013  12 50  -21.0974 26059.9 -03477.5 -07.6007 26290.9
 04 09 2013  12 51  -21.0977 26060.1 -03477.4 -07.6006 26291.0
 04 09 2013  12 52  -21.0978 26059.7 -03477.2 -07.6002 26290.7
 04 09 2013  12 53  -21.0982 26059.7 -03477.2 -07.6001 26290.7
 04 09 2013  12 54  -21.0982 26060.3 -03477.2 -07.6001 26291.2
 04 09 2013  12 55  -21.0986 26060.9 -03477.4 -07.6002 26291.9
 04 09 2013  12 56  -21.0990 26061.6 -03477.4 -07.6001 26292.6
 04 09 2013  12 57  -21.0995 26062.0 -03477.4 -07.6000 26293.0
 04 09 2013  12 58  -21.0999 26061.4 -03476.9 -07.5991 26292.3
 04 09 2013  12 59  -21.0999 26060.8 -03476.5 -07.5985 26291.7
 04 09 2013  13 00  -21.1001 26061.0 -03476.6 -07.5985 26291.8
 04 09 2013  13 01  -21.1004 26061.9 -03476.8 -07.5988 26292.8
 04 09 2013  13 02  -21.1009 26062.2 -03476.8 -07.5987 26293.1
 04 09 2013  13 03  -21.1014 26062.7 -03476.9 -07.5986 26293.6
 04 09 2013  13 04  -21.1021 26062.5 -03476.6 -07.5981 26293.4
 04 09 2013  13 05  -21.1027 26062.8 -03476.6 -07.5979 26293.6
 04 09 2013  13 06  -21.1029 26063.2 -03476.5 -07.5976 26294.0
 04 09 2013  13 07  -21.1036 26063.3 -03476.4 -07.5973 26294.2
 04 09 2013  13 08  -21.1041 26063.6 -03476.3 -07.5970 26294.4
 04 09 2013  13 09  -21.1044 26063.1 -03475.8 -07.5963 26293.8
 04 09 2013  13 10  -21.1048 26063.0 -03475.6 -07.5959 26293.7
 04 09 2013  13 11  -21.1052 26063.1 -03475.6 -07.5957 26293.8
 04 09 2013  13 12  -21.1058 26063.1 -03475.5 -07.5955 26293.8
 04 09 2013  13 13  -21.1064 26063.2 -03475.4 -07.5953 26293.9
 04 09 2013  13 14  -21.1070 26063.2 -03475.3 -07.5950 26293.9
 04 09 2013  13 15  -21.1074 26063.4 -03475.2 -07.5947 26294.1
 04 09 2013  13 16  -21.1078 26063.4 -03475.0 -07.5943 26294.1
 04 09 2013  13 17  -21.1080 26063.5 -03474.8 -07.5939 26294.1
 04 09 2013  13 18  -21.1084 26063.8 -03474.8 -07.5937 26294.4
 04 09 2013  13 19  -21.1090 26064.3 -03474.8 -07.5937 26294.9
 04 09 2013  13 20  -21.1094 26064.2 -03474.5 -07.5931 26294.7
 04 09 2013  13 21  -21.1097 26064.2 -03474.3 -07.5926 26294.8
 04 09 2013  13 22  -21.1096 26064.2 -03474.1 -07.5922 26294.7
 04 09 2013  13 23  -21.1095 26064.0 -03473.9 -07.5918 26294.5
 04 09 2013  13 24  -21.1097 26064.1 -03473.8 -07.5916 26294.6
 04 09 2013  13 25  -21.1100 26064.1 -03473.7 -07.5913 26294.5
 04 09 2013  13 26  -21.1102 26063.9 -03473.4 -07.5909 26294.3
 04 09 2013  13 27  -21.1104 26064.1 -03473.4 -07.5907 26294.5
 04 09 2013  13 28  -21.1110 26064.4 -03473.4 -07.5905 26294.8
 04 09 2013  13 29  -21.1111 26064.2 -03473.1 -07.5900 26294.6
 04 09 2013  13 30  -21.1111 26064.0 -03472.9 -07.5897 26294.3
 04 09 2013  13 31  -21.1114 26063.7 -03472.7 -07.5893 26294.1
 04 09 2013  13 32  -21.1120 26063.8 -03472.7 -07.5892 26294.1
 04 09 2013  13 33  -21.1127 26063.5 -03472.5 -07.5889 26293.8
 04 09 2013  13 34  -21.1132 26063.7 -03472.5 -07.5889 26294.0
 04 09 2013  13 35  -21.1138 26064.0 -03472.6 -07.5889 26294.3
 04 09 2013  13 36  -21.1146 26064.2 -03472.5 -07.5888 26294.5
 04 09 2013  13 37  -21.1149 26064.1 -03472.3 -07.5884 26294.4
 04 09 2013  13 38  -21.1152 26063.6 -03472.0 -07.5877 26293.8
 04 09 2013  13 39  -21.1158 26064.3 -03472.2 -07.5880 26294.6
 04 09 2013  13 40  -21.1162 26064.6 -03472.1 -07.5877 26294.8
 04 09 2013  13 41  -21.1164 26064.5 -03471.9 -07.5873 26294.8
 04 09 2013  13 42  -21.1171 26064.9 -03471.8 -07.5871 26295.1
 04 09 2013  13 43  -21.1179 26065.2 -03471.7 -07.5868 26295.4
 04 09 2013  13 44  -21.1176 26064.5 -03471.1 -07.5857 26294.6
 04 09 2013  13 45  -21.1178 26064.1 -03470.9 -07.5854 26294.2
 04 09 2013  13 46  -21.1179 26063.9 -03470.8 -07.5851 26294.0
 04 09 2013  13 47  -21.1181 26064.0 -03470.8 -07.5850 26294.1
 04 09 2013  13 48  -21.1184 26064.0 -03470.7 -07.5849 26294.0
 04 09 2013  13 49  -21.1181 26064.5 -03470.8 -07.5849 26294.5
 04 09 2013  13 50  -21.1184 26064.4 -03470.7 -07.5847 26294.5
 04 09 2013  13 51  -21.1179 26064.0 -03470.4 -07.5842 26294.0
 04 09 2013  13 52  -21.1177 26064.1 -03470.5 -07.5844 26294.1
 04 09 2013  13 53  -21.1176 26064.5 -03470.6 -07.5845 26294.5
 04 09 2013  13 54  -21.1179 26065.4 -03470.9 -07.5849 26295.5
 04 09 2013  13 55  -21.1178 26065.8 -03470.9 -07.5847 26295.8
 04 09 2013  13 56  -21.1178 26065.2 -03470.4 -07.5840 26295.3
 04 09 2013  13 57  -21.1167 26064.1 -03469.9 -07.5831 26294.0
 04 09 2013  13 58  -21.1164 26063.6 -03469.8 -07.5832 26293.5
 04 09 2013  13 59  -21.1164 26063.9 -03470.1 -07.5837 26293.9
 04 09 2013  14 00  -21.1164 26064.2 -03470.3 -07.5841 26294.2
 04 09 2013  14 01  -21.1165 26064.7 -03470.6 -07.5845 26294.7
 04 09 2013  14 02  -21.1162 26065.0 -03470.7 -07.5846 26295.1
 04 09 2013  14 03  -21.1162 26065.0 -03470.7 -07.5846 26295.0
 04 09 2013  14 04  -21.1161 26065.7 -03470.9 -07.5849 26295.7
 04 09 2013  14 05  -21.1167 26066.3 -03471.1 -07.5852 26296.4
 04 09 2013  14 06  -21.1170 26066.6 -03471.1 -07.5851 26296.7
 04 09 2013  14 07  -21.1169 26067.0 -03471.1 -07.5850 26297.1
 04 09 2013  14 08  -21.1170 26068.1 -03471.4 -07.5852 26298.2
 04 09 2013  14 09  -21.1175 26068.9 -03471.5 -07.5851 26299.0
 04 09 2013  14 10  -21.1179 26069.1 -03471.3 -07.5847 26299.2
 04 09 2013  14 11  -21.1183 26068.5 -03470.9 -07.5840 26298.6
 04 09 2013  14 12  -21.1180 26067.5 -03470.3 -07.5831 26297.5
 04 09 2013  14 13  -21.1173 26067.0 -03470.2 -07.5831 26297.0
 04 09 2013  14 14  -21.1165 26066.7 -03470.3 -07.5833 26296.7
 04 09 2013  14 15  -21.1158 26067.4 -03470.8 -07.5841 26297.4
 04 09 2013  14 16  -21.1156 26068.2 -03471.3 -07.5849 26298.3
 04 09 2013  14 17  -21.1154 26068.6 -03471.5 -07.5853 26298.7
 04 09 2013  14 18  -21.1152 26068.9 -03471.7 -07.5856 26299.0
 04 09 2013  14 19  -21.1150 26068.6 -03471.6 -07.5855 26298.7
 04 09 2013  14 20  -21.1148 26067.8 -03471.3 -07.5851 26297.9
 04 09 2013  14 21  -21.1145 26067.1 -03471.1 -07.5848 26297.1
 04 09 2013  14 22  -21.1146 26066.7 -03471.1 -07.5850 26296.8
 04 09 2013  14 23  -21.1148 26066.3 -03471.1 -07.5850 26296.4
 04 09 2013  14 24  -21.1141 26065.6 -03471.0 -07.5850 26295.7
 04 09 2013  14 25  -21.1139 26065.4 -03471.1 -07.5854 26295.5
 04 09 2013  14 26  -21.1141 26065.3 -03471.3 -07.5859 26295.5
 04 09 2013  14 27  -21.1141 26065.3 -03471.5 -07.5862 26295.4
 04 09 2013  14 28  -21.1148 26065.6 -03471.8 -07.5868 26295.8
 04 09 2013  14 29  -21.1147 26065.8 -03472.0 -07.5872 26296.0
 04 09 2013  14 30  -21.1144 26065.9 -03472.1 -07.5873 26296.1
 04 09 2013  14 31  -21.1145 26065.8 -03472.1 -07.5874 26296.0
 04 09 2013  14 32  -21.1135 26065.5 -03472.0 -07.5873 26295.7
 04 09 2013  14 33  -21.1127 26065.5 -03472.2 -07.5877 26295.8
 04 09 2013  14 34  -21.1121 26065.4 -03472.3 -07.5880 26295.7
 04 09 2013  14 35  -21.1112 26065.5 -03472.5 -07.5884 26295.8
 04 09 2013  14 36  -21.1107 26065.5 -03472.8 -07.5890 26295.9
 04 09 2013  14 37  -21.1103 26065.9 -03473.1 -07.5896 26296.3
 04 09 2013  14 38  -21.1097 26066.0 -03473.4 -07.5901 26296.5
 04 09 2013  14 39  -21.1090 26066.2 -03473.6 -07.5905 26296.6
 04 09 2013  14 40  -21.1088 26066.7 -03473.9 -07.5910 26297.1
 04 09 2013  14 41  -21.1088 26066.8 -03474.1 -07.5914 26297.3
 04 09 2013  14 42  -21.1085 26067.1 -03474.3 -07.5917 26297.6
 04 09 2013  14 43  -21.1081 26067.0 -03474.3 -07.5918 26297.5
 04 09 2013  14 44  -21.1074 26066.8 -03474.3 -07.5918 26297.3
 04 09 2013  14 45  -21.1070 26066.6 -03474.4 -07.5921 26297.1
 04 09 2013  14 46  -21.1065 26066.3 -03474.4 -07.5922 26296.8
 04 09 2013  14 47  -21.1059 26065.9 -03474.4 -07.5924 26296.5
 04 09 2013  14 48  -21.1053 26065.6 -03474.4 -07.5925 26296.1
 04 09 2013  14 49  -21.1049 26065.6 -03474.7 -07.5931 26296.2
 04 09 2013  14 50  -21.1045 26065.9 -03475.0 -07.5936 26296.6
 04 09 2013  14 51  -21.1039 26065.9 -03475.1 -07.5939 26296.5
 04 09 2013  14 52  -21.1030 26065.8 -03475.2 -07.5941 26296.4
 04 09 2013  14 53  -21.1028 26066.1 -03475.5 -07.5946 26296.7
 04 09 2013  14 54  -21.1025 26066.5 -03475.7 -07.5950 26297.2
 04 09 2013  14 55  -21.1018 26066.9 -03475.9 -07.5953 26297.6
 04 09 2013  14 56  -21.1010 26067.4 -03476.2 -07.5957 26298.2
 04 09 2013  14 57  -21.1005 26067.9 -03476.3 -07.5960 26298.6
 04 09 2013  14 58  -21.1001 26068.0 -03476.3 -07.5959 26298.8
 04 09 2013  14 59  -21.0992 26067.8 -03476.3 -07.5958 26298.6
 04 09 2013  15 00  -21.0980 26067.4 -03476.1 -07.5956 26298.1
 04 09 2013  15 01  -21.0963 26066.5 -03475.9 -07.5954 26297.2
 04 09 2013  15 02  -21.0946 26066.0 -03476.0 -07.5957 26296.8
 04 09 2013  15 03  -21.0936 26066.0 -03476.3 -07.5964 26296.8
 04 09 2013  15 04  -21.0930 26066.3 -03476.7 -07.5972 26297.1
 04 09 2013  15 05  -21.0924 26066.6 -03477.1 -07.5980 26297.5
 04 09 2013  15 06  -21.0920 26066.8 -03477.4 -07.5985 26297.7
 04 09 2013  15 07  -21.0914 26066.4 -03477.4 -07.5987 26297.4
 04 09 2013  15 08  -21.0901 26065.8 -03477.3 -07.5987 26296.7
 04 09 2013  15 09  -21.0888 26065.1 -03477.4 -07.5990 26296.1
 04 09 2013  15 10  -21.0882 26065.1 -03477.8 -07.5999 26296.1
 04 09 2013  15 11  -21.0879 26065.0 -03478.1 -07.6005 26296.1
 04 09 2013  15 12  -21.0875 26065.1 -03478.4 -07.6012 26296.2
 04 09 2013  15 13  -21.0872 26065.3 -03478.8 -07.6019 26296.4
 04 09 2013  15 14  -21.0869 26065.1 -03478.9 -07.6024 26296.2
 04 09 2013  15 15  -21.0860 26064.6 -03479.0 -07.6026 26295.8
 04 09 2013  15 16  -21.0850 26064.1 -03479.1 -07.6030 26295.2
 04 09 2013  15 17  -21.0846 26064.0 -03479.4 -07.6038 26295.3
 04 09 2013  15 18  -21.0849 26064.3 -03479.9 -07.6047 26295.6
 04 09 2013  15 19  -21.0851 26064.5 -03480.2 -07.6053 26295.9
 04 09 2013  15 20  -21.0850 26064.4 -03480.4 -07.6057 26295.8
 04 09 2013  15 21  -21.0846 26064.0 -03480.4 -07.6059 26295.3
 04 09 2013  15 22  -21.0840 26063.6 -03480.4 -07.6060 26294.9
 04 09 2013  15 23  -21.0834 26063.2 -03480.5 -07.6064 26294.6
 04 09 2013  15 24  -21.0827 26063.0 -03480.7 -07.6067 26294.4
 04 09 2013  15 25  -21.0822 26063.0 -03480.9 -07.6072 26294.4
 04 09 2013  15 26  -21.0817 26062.8 -03481.0 -07.6075 26294.3
 04 09 2013  15 27  -21.0809 26062.4 -03481.0 -07.6076 26293.8
 04 09 2013  15 28  -21.0797 26062.0 -03481.0 -07.6077 26293.4
 04 09 2013  15 29  -21.0789 26061.8 -03481.1 -07.6081 26293.3
 04 09 2013  15 30  -21.0781 26061.8 -03481.3 -07.6085 26293.3
 04 09 2013  15 31  -21.0775 26061.7 -03481.5 -07.6089 26293.3
 04 09 2013  15 32  -21.0772 26061.8 -03481.7 -07.6093 26293.3
 04 09 2013  15 33  -21.0765 26061.7 -03481.8 -07.6096 26293.2
 04 09 2013  15 34  -21.0758 26061.4 -03481.9 -07.6098 26293.0
 04 09 2013  15 35  -21.0746 26061.1 -03481.9 -07.6100 26292.7
 04 09 2013  15 36  -21.0736 26060.9 -03482.1 -07.6104 26292.5
 04 09 2013  15 37  -21.0729 26061.0 -03482.4 -07.6109 26292.6
 04 09 2013  15 38  -21.0722 26061.2 -03482.6 -07.6115 26292.8
 04 09 2013  15 39  -21.0716 26061.2 -03482.8 -07.6119 26292.8
 04 09 2013  15 40  -21.0712 26061.1 -03482.9 -07.6122 26292.9
 04 09 2013  15 41  -21.0703 26061.0 -03483.0 -07.6123 26292.7
 04 09 2013  15 42  -21.0694 26060.6 -03483.0 -07.6124 26292.3
 04 09 2013  15 43  -21.0686 26060.3 -03483.0 -07.6126 26292.0
 04 09 2013  15 44  -21.0680 26060.1 -03483.2 -07.6130 26291.9
 04 09 2013  15 45  -21.0676 26060.2 -03483.4 -07.6134 26292.0
 04 09 2013  15 46  -21.0674 26060.2 -03483.5 -07.6137 26292.0
 04 09 2013  15 47  -21.0670 26060.0 -03483.6 -07.6139 26291.8
 04 09 2013  15 48  -21.0666 26060.1 -03483.7 -07.6142 26291.9
 04 09 2013  15 49  -21.0663 26060.3 -03483.9 -07.6145 26292.2
 04 09 2013  15 50  -21.0666 26060.8 -03484.2 -07.6149 26292.7
 04 09 2013  15 51  -21.0665 26061.0 -03484.2 -07.6149 26292.9
 04 09 2013  15 52  -21.0660 26061.0 -03484.2 -07.6149 26292.9
 04 09 2013  15 53  -21.0648 26060.3 -03483.8 -07.6144 26292.1
 04 09 2013  15 54  -21.0634 26059.6 -03483.7 -07.6142 26291.4
 04 09 2013  15 55  -21.0625 26059.3 -03483.7 -07.6144 26291.1
 04 09 2013  15 56  -21.0617 26058.7 -03483.7 -07.6146 26290.6
 04 09 2013  15 57  -21.0610 26058.5 -03483.9 -07.6150 26290.4
 04 09 2013  15 58  -21.0604 26058.3 -03484.1 -07.6154 26290.2
 04 09 2013  15 59  -21.0597 26058.3 -03484.3 -07.6160 26290.2
 04 09 2013  16 00  -21.0596 26058.6 -03484.7 -07.6167 26290.6
 04 09 2013  16 01  -21.0592 26058.5 -03484.8 -07.6170 26290.5
 04 09 2013  16 02  -21.0588 26058.7 -03485.1 -07.6175 26290.7
 04 09 2013  16 03  -21.0583 26058.3 -03485.1 -07.6176 26290.4
 04 09 2013  16 04  -21.0579 26058.3 -03485.3 -07.6182 26290.4
 04 09 2013  16 05  -21.0576 26058.6 -03485.6 -07.6188 26290.7
 04 09 2013  16 06  -21.0575 26058.6 -03485.8 -07.6191 26290.7
 04 09 2013  16 07  -21.0571 26058.5 -03485.9 -07.6193 26290.6
 04 09 2013  16 08  -21.0568 26058.5 -03486.1 -07.6197 26290.6
 04 09 2013  16 09  -21.0565 26058.7 -03486.3 -07.6202 26290.8
 04 09 2013  16 10  -21.0565 26059.1 -03486.6 -07.6207 26291.3
 04 09 2013  16 11  -21.0565 26059.5 -03486.9 -07.6212 26291.7
 04 09 2013  16 12  -21.0563 26059.5 -03487.0 -07.6213 26291.8
 04 09 2013  16 13  -21.0562 26059.7 -03487.1 -07.6215 26292.0
 04 09 2013  16 14  -21.0564 26060.0 -03487.2 -07.6218 26292.3
 04 09 2013  16 15  -21.0560 26059.9 -03487.2 -07.6217 26292.2
 04 09 2013  16 16  -21.0558 26059.9 -03487.2 -07.6218 26292.2
 04 09 2013  16 17  -21.0558 26060.2 -03487.4 -07.6222 26292.5
 04 09 2013  16 18  -21.0560 26060.3 -03487.5 -07.6223 26292.6
 04 09 2013  16 19  -21.0560 26060.0 -03487.4 -07.6221 26292.3
 04 09 2013  16 20  -21.0555 26059.3 -03487.1 -07.6217 26291.6
 04 09 2013  16 21  -21.0550 26058.6 -03486.9 -07.6215 26290.8
 04 09 2013  16 22  -21.0548 26058.0 -03486.9 -07.6216 26290.3
 04 09 2013  16 23  -21.0544 26057.5 -03486.8 -07.6217 26289.7
 04 09 2013  16 24  -21.0539 26057.1 -03486.9 -07.6219 26289.4
 04 09 2013  16 25  -21.0537 26057.1 -03487.1 -07.6223 26289.4
 04 09 2013  16 26  -21.0536 26057.1 -03487.2 -07.6226 26289.5
 04 09 2013  16 27  -21.0536 26057.4 -03487.4 -07.6230 26289.7
 04 09 2013  16 28  -21.0534 26057.5 -03487.6 -07.6233 26289.9
 04 09 2013  16 29  -21.0529 26057.5 -03487.7 -07.6235 26289.9
 04 09 2013  16 30  -21.0523 26057.4 -03487.7 -07.6235 26289.8
 04 09 2013  16 31  -21.0517 26057.4 -03487.7 -07.6236 26289.7
 04 09 2013  16 32  -21.0510 26057.2 -03487.7 -07.6237 26289.6
 04 09 2013  16 33  -21.0502 26056.9 -03487.7 -07.6236 26289.3
 04 09 2013  16 34  -21.0507 26057.7 -03488.0 -07.6241 26290.1
 04 09 2013  16 35  -21.0517 26058.5 -03488.3 -07.6245 26290.9
 04 09 2013  16 36  -21.0514 26058.2 -03488.0 -07.6239 26290.6
 04 09 2013  16 37  -21.0501 26057.4 -03487.4 -07.6230 26289.7
 04 09 2013  16 38  -21.0492 26057.0 -03487.3 -07.6228 26289.4
 04 09 2013  16 39  -21.0490 26057.2 -03487.4 -07.6230 26289.5
 04 09 2013  16 40  -21.0487 26057.2 -03487.5 -07.6231 26289.6
 04 09 2013  16 41  -21.0482 26057.0 -03487.4 -07.6229 26289.3
 04 09 2013  16 42  -21.0475 26056.7 -03487.3 -07.6229 26289.1
 04 09 2013  16 43  -21.0469 26056.4 -03487.3 -07.6229 26288.8
 04 09 2013  16 44  -21.0463 26056.1 -03487.3 -07.6230 26288.4
 04 09 2013  16 45  -21.0457 26055.9 -03487.3 -07.6231 26288.2
 04 09 2013  16 46  -21.0455 26055.8 -03487.4 -07.6234 26288.1
 04 09 2013  16 47  -21.0451 26055.6 -03487.5 -07.6236 26287.9
 04 09 2013  16 48  -21.0449 26055.5 -03487.6 -07.6238 26287.9
 04 09 2013  16 49  -21.0445 26055.3 -03487.6 -07.6239 26287.6
 04 09 2013  16 50  -21.0441 26055.0 -03487.6 -07.6240 26287.4
 04 09 2013  16 51  -21.0436 26054.8 -03487.6 -07.6241 26287.2
 04 09 2013  16 52  -21.0426 26054.5 -03487.6 -07.6241 26286.9
 04 09 2013  16 53  -21.0420 26054.6 -03487.8 -07.6246 26287.0
 04 09 2013  16 54  -21.0419 26054.7 -03488.0 -07.6250 26287.1
 04 09 2013  16 55  -21.0418 26054.7 -03488.1 -07.6252 26287.1
 04 09 2013  16 56  -21.0415 26054.8 -03488.2 -07.6254 26287.3
 04 09 2013  16 57  -21.0416 26054.6 -03488.1 -07.6253 26287.1
 04 09 2013  16 58  -21.0410 26054.0 -03488.0 -07.6251 26286.4
 04 09 2013  16 59  -21.0400 26053.8 -03487.9 -07.6251 26286.2
 04 09 2013  17 00  -21.0398 26053.8 -03488.2 -07.6255 26286.3
 04 09 2013  17 01  -21.0397 26054.1 -03488.4 -07.6259 26286.6
 04 09 2013  17 02  -21.0396 26054.4 -03488.6 -07.6262 26287.0
 04 09 2013  17 03  -21.0394 26054.6 -03488.6 -07.6263 26287.1
 04 09 2013  17 04  -21.0392 26054.8 -03488.7 -07.6264 26287.4
 04 09 2013  17 05  -21.0388 26054.9 -03488.7 -07.6264 26287.4
 04 09 2013  17 06  -21.0383 26054.6 -03488.6 -07.6262 26287.1
 04 09 2013  17 07  -21.0379 26054.5 -03488.6 -07.6262 26287.0
 04 09 2013  17 08  -21.0378 26054.5 -03488.5 -07.6262 26287.0
 04 09 2013  17 09  -21.0375 26054.3 -03488.5 -07.6261 26286.8
 04 09 2013  17 10  -21.0372 26054.0 -03488.4 -07.6261 26286.5
 04 09 2013  17 11  -21.0369 26053.8 -03488.4 -07.6261 26286.3
 04 09 2013  17 12  -21.0368 26053.6 -03488.4 -07.6261 26286.1
 04 09 2013  17 13  -21.0367 26053.3 -03488.3 -07.6261 26285.8
 04 09 2013  17 14  -21.0364 26053.0 -03488.3 -07.6261 26285.5
 04 09 2013  17 15  -21.0358 26052.6 -03488.2 -07.6259 26285.1
 04 09 2013  17 16  -21.0355 26052.4 -03488.2 -07.6261 26284.9
 04 09 2013  17 17  -21.0356 26052.4 -03488.4 -07.6264 26284.9
 04 09 2013  17 18  -21.0354 26052.3 -03488.4 -07.6265 26284.8
 04 09 2013  17 19  -21.0349 26052.1 -03488.4 -07.6266 26284.6
 04 09 2013  17 20  -21.0342 26051.9 -03488.4 -07.6267 26284.4
 04 09 2013  17 21  -21.0335 26051.8 -03488.5 -07.6269 26284.3
 04 09 2013  17 22  -21.0331 26051.4 -03488.5 -07.6270 26283.9
 04 09 2013  17 23  -21.0329 26051.3 -03488.6 -07.6273 26283.9
 04 09 2013  17 24  -21.0333 26051.3 -03488.8 -07.6276 26283.9
 04 09 2013  17 25  -21.0336 26051.1 -03488.7 -07.6275 26283.6
 04 09 2013  17 26  -21.0336 26050.5 -03488.5 -07.6272 26283.0
 04 09 2013  17 27  -21.0332 26050.1 -03488.4 -07.6272 26282.7
 04 09 2013  17 28  -21.0330 26049.4 -03488.3 -07.6272 26282.0
 04 09 2013  17 29  -21.0329 26049.3 -03488.4 -07.6273 26281.8
 04 09 2013  17 30  -21.0332 26049.3 -03488.5 -07.6277 26281.9
 04 09 2013  17 31  -21.0334 26049.0 -03488.5 -07.6276 26281.6
 04 09 2013  17 32  -21.0333 26048.9 -03488.5 -07.6276 26281.4
 04 09 2013  17 33  -21.0331 26048.5 -03488.4 -07.6276 26281.0
 04 09 2013  17 34  -21.0330 26048.2 -03488.4 -07.6276 26280.7
 04 09 2013  17 35  -21.0332 26048.1 -03488.4 -07.6278 26280.7
 04 09 2013  17 36  -21.0333 26047.9 -03488.3 -07.6276 26280.4
 04 09 2013  17 37  -21.0333 26047.9 -03488.3 -07.6276 26280.5
 04 09 2013  17 38  -21.0330 26048.0 -03488.3 -07.6276 26280.5
 04 09 2013  17 39  -21.0327 26048.2 -03488.4 -07.6278 26280.7
 04 09 2013  17 40  -21.0324 26048.2 -03488.5 -07.6279 26280.8
 04 09 2013  17 41  -21.0320 26048.4 -03488.6 -07.6280 26280.9
 04 09 2013  17 42  -21.0320 26048.5 -03488.6 -07.6281 26281.1
 04 09 2013  17 43  -21.0322 26048.7 -03488.6 -07.6281 26281.3
 04 09 2013  17 44  -21.0321 26048.6 -03488.5 -07.6278 26281.2
 04 09 2013  17 45  -21.0317 26048.5 -03488.4 -07.6276 26281.0
 04 09 2013  17 46  -21.0315 26048.4 -03488.4 -07.6275 26281.0
 04 09 2013  17 47  -21.0314 26048.3 -03488.2 -07.6273 26280.9
 04 09 2013  17 48  -21.0313 26048.3 -03488.1 -07.6271 26280.8
 04 09 2013  17 49  -21.0311 26048.2 -03488.1 -07.6269 26280.7
 04 09 2013  17 50  -21.0306 26047.9 -03487.8 -07.6265 26280.4
 04 09 2013  17 51  -21.0301 26047.7 -03487.7 -07.6263 26280.2
 04 09 2013  17 52  -21.0296 26047.7 -03487.6 -07.6262 26280.1
 04 09 2013  17 53  -21.0292 26047.6 -03487.6 -07.6261 26280.0
 04 09 2013  17 54  -21.0287 26047.5 -03487.5 -07.6259 26279.9
 04 09 2013  17 55  -21.0280 26047.5 -03487.4 -07.6258 26279.9
 04 09 2013  17 56  -21.0277 26047.7 -03487.5 -07.6259 26280.1
 04 09 2013  17 57  -21.0277 26047.9 -03487.4 -07.6257 26280.3
 04 09 2013  17 58  -21.0274 26047.9 -03487.3 -07.6254 26280.3
 04 09 2013  17 59  -21.0266 26047.7 -03487.1 -07.6250 26280.1
 04 09 2013  18 00  -21.0260 26047.7 -03486.9 -07.6247 26280.0
 04 09 2013  18 01  -21.0256 26047.7 -03486.8 -07.6245 26280.0
 04 09 2013  18 02  -21.0257 26047.7 -03486.7 -07.6242 26280.1
 04 09 2013  18 03  -21.0258 26047.7 -03486.5 -07.6238 26280.0
 04 09 2013  18 04  -21.0252 26047.4 -03486.1 -07.6230 26279.7
 04 09 2013  18 05  -21.0243 26047.1 -03485.8 -07.6225 26279.3
 04 09 2013  18 06  -21.0236 26046.7 -03485.5 -07.6219 26278.9
 04 09 2013  18 07  -21.0230 26046.5 -03485.3 -07.6214 26278.7
 04 09 2013  18 08  -21.0225 26046.6 -03485.2 -07.6212 26278.8
 04 09 2013  18 09  -21.0218 26046.9 -03485.1 -07.6210 26279.0
 04 09 2013  18 10  -21.0211 26047.2 -03485.1 -07.6209 26279.3
 04 09 2013  18 11  -21.0202 26047.6 -03485.1 -07.6208 26279.8
 04 09 2013  18 12  -21.0194 26047.9 -03485.1 -07.6206 26280.0
 04 09 2013  18 13  -21.0193 26048.3 -03485.0 -07.6203 26280.4
 04 09 2013  18 14  -21.0191 26048.7 -03484.8 -07.6199 26280.7
 04 09 2013  18 15  -21.0186 26048.7 -03484.6 -07.6193 26280.8
 04 09 2013  18 16  -21.0182 26048.8 -03484.3 -07.6186 26280.8
 04 09 2013  18 17  -21.0178 26048.6 -03484.0 -07.6180 26280.6
 04 09 2013  18 18  -21.0171 26048.2 -03483.5 -07.6172 26280.1
 04 09 2013  18 19  -21.0160 26047.6 -03483.1 -07.6164 26279.4
 04 09 2013  18 20  -21.0147 26046.9 -03482.8 -07.6160 26278.7
 04 09 2013  18 21  -21.0138 26046.6 -03482.7 -07.6159 26278.4
 04 09 2013  18 22  -21.0131 26046.6 -03482.8 -07.6160 26278.4
 04 09 2013  18 23  -21.0123 26046.6 -03482.8 -07.6161 26278.4
 04 09 2013  18 24  -21.0119 26046.5 -03482.8 -07.6160 26278.3
 04 09 2013  18 25  -21.0117 26046.4 -03482.7 -07.6159 26278.2
 04 09 2013  18 26  -21.0115 26046.4 -03482.6 -07.6157 26278.2
 04 09 2013  18 27  -21.0113 26046.5 -03482.6 -07.6156 26278.3
 04 09 2013  18 28  -21.0112 26046.6 -03482.6 -07.6156 26278.4
 04 09 2013  18 29  -21.0111 26046.6 -03482.5 -07.6154 26278.4
 04 09 2013  18 30  -21.0110 26046.5 -03482.3 -07.6151 26278.2
 04 09 2013  18 31  -21.0110 26046.4 -03482.2 -07.6149 26278.1
 04 09 2013  18 32  -21.0108 26046.4 -03482.2 -07.6147 26278.2
 04 09 2013  18 33  -21.0110 26046.3 -03482.1 -07.6145 26278.0
 04 09 2013  18 34  -21.0108 26045.9 -03481.7 -07.6140 26277.6
 04 09 2013  18 35  -21.0106 26045.4 -03481.5 -07.6136 26277.0
 04 09 2013  18 36  -21.0103 26044.9 -03481.2 -07.6132 26276.5
 04 09 2013  18 37  -21.0099 26044.6 -03481.2 -07.6131 26276.2
 04 09 2013  18 38  -21.0096 26044.3 -03481.0 -07.6129 26275.9
 04 09 2013  18 39  -21.0093 26044.1 -03480.9 -07.6128 26275.7
 04 09 2013  18 40  -21.0103 26044.3 -03481.0 -07.6129 26275.9
 04 09 2013  18 41  -21.0096 26044.3 -03481.0 -07.6128 26275.9
 04 09 2013  18 42  -21.0095 26044.9 -03481.4 -07.6134 26276.6
 04 09 2013  18 43  -21.0105 26045.3 -03481.5 -07.6137 26277.0
 04 09 2013  18 44  -21.0106 26045.0 -03481.1 -07.6129 26276.6
 04 09 2013  18 45  -21.0108 26044.8 -03480.8 -07.6123 26276.4
 04 09 2013  18 46  -21.0103 26044.7 -03480.7 -07.6120 26276.3
 04 09 2013  18 47  -21.0099 26044.6 -03480.6 -07.6119 26276.2
 04 09 2013  18 48  -21.0101 26045.0 -03480.7 -07.6120 26276.5
 04 09 2013  18 49  -21.0103 26045.3 -03480.7 -07.6119 26276.8
 04 09 2013  18 50  -21.0103 26045.3 -03480.6 -07.6116 26276.8
 04 09 2013  18 51  -21.0106 26045.4 -03480.5 -07.6114 26276.9
 04 09 2013  18 52  -21.0109 26045.4 -03480.3 -07.6111 26276.9
 04 09 2013  18 53  -21.0109 26045.3 -03480.1 -07.6107 26276.7
 04 09 2013  18 54  -21.0108 26045.0 -03479.9 -07.6102 26276.4
 04 09 2013  18 55  -21.0104 26044.7 -03479.7 -07.6098 26276.1
 04 09 2013  18 56  -21.0104 26044.4 -03479.4 -07.6094 26275.8
 04 09 2013  18 57  -21.0103 26043.6 -03479.1 -07.6088 26275.0
 04 09 2013  18 58  -21.0102 26043.7 -03479.0 -07.6087 26275.0
 04 09 2013  18 59  -21.0110 26044.1 -03479.2 -07.6090 26275.4
 04 09 2013  19 00  -21.0113 26043.9 -03479.1 -07.6088 26275.2
 04 09 2013  19 01  -21.0119 26043.7 -03478.9 -07.6084 26275.0
 04 09 2013  19 02  -21.0125 26043.6 -03478.7 -07.6080 26274.9
 04 09 2013  19 03  -21.0118 26043.2 -03478.4 -07.6076 26274.5
 04 09 2013  19 04  -21.0118 26042.6 -03478.1 -07.6071 26273.8
 04 09 2013  19 05  -21.0119 26042.2 -03478.0 -07.6069 26273.4
 04 09 2013  19 06  -21.0118 26041.6 -03477.7 -07.6065 26272.8
 04 09 2013  19 07  -21.0118 26041.3 -03477.6 -07.6063 26272.4
 04 09 2013  19 08  -21.0120 26040.9 -03477.5 -07.6062 26272.1
 04 09 2013  19 09  -21.0119 26040.4 -03477.3 -07.6059 26271.6
 04 09 2013  19 10  -21.0117 26040.0 -03477.1 -07.6057 26271.1
 04 09 2013  19 11  -21.0114 26039.6 -03477.0 -07.6056 26270.7
 04 09 2013  19 12  -21.0114 26039.3 -03476.9 -07.6055 26270.4
 04 09 2013  19 13  -21.0115 26039.0 -03476.8 -07.6053 26270.1
 04 09 2013  19 14  -21.0109 26038.5 -03476.7 -07.6052 26269.6
 04 09 2013  19 15  -21.0106 26038.4 -03476.8 -07.6055 26269.5
 04 09 2013  19 16  -21.0103 26038.4 -03477.0 -07.6059 26269.6
 04 09 2013  19 17  -21.0104 26038.5 -03477.2 -07.6063 26269.6
 04 09 2013  19 18  -21.0106 26038.4 -03477.3 -07.6065 26269.6
 04 09 2013  19 19  -21.0101 26037.9 -03477.1 -07.6062 26269.0
 04 09 2013  19 20  -21.0091 26037.1 -03476.9 -07.6060 26268.3
 04 09 2013  19 21  -21.0085 26036.6 -03476.8 -07.6061 26267.8
 04 09 2013  19 22  -21.0082 26036.7 -03477.1 -07.6065 26267.8
 04 09 2013  19 23  -21.0081 26036.9 -03477.3 -07.6070 26268.1
 04 09 2013  19 24  -21.0081 26036.9 -03477.4 -07.6073 26268.1
 04 09 2013  19 25  -21.0075 26036.6 -03477.4 -07.6072 26267.8
 04 09 2013  19 26  -21.0069 26036.3 -03477.4 -07.6074 26267.5
 04 09 2013  19 27  -21.0065 26036.3 -03477.5 -07.6077 26267.5
 04 09 2013  19 28  -21.0066 26036.6 -03477.9 -07.6083 26267.9
 04 09 2013  19 29  -21.0066 26036.6 -03477.9 -07.6084 26267.9
 04 09 2013  19 30  -21.0065 26036.3 -03477.8 -07.6083 26267.5
 04 09 2013  19 31  -21.0060 26035.7 -03477.6 -07.6080 26266.9
 04 09 2013  19 32  -21.0054 26035.1 -03477.5 -07.6078 26266.3
 04 09 2013  19 33  -21.0049 26034.7 -03477.4 -07.6079 26265.9
 04 09 2013  19 34  -21.0046 26034.7 -03477.6 -07.6083 26265.9
 04 09 2013  19 35  -21.0044 26034.8 -03477.8 -07.6087 26266.1
 04 09 2013  19 36  -21.0041 26035.0 -03478.1 -07.6092 26266.3
 04 09 2013  19 37  -21.0045 26035.4 -03478.4 -07.6099 26266.8
 04 09 2013  19 38  -21.0047 26035.5 -03478.5 -07.6101 26266.9
 04 09 2013  19 39  -21.0050 26035.3 -03478.5 -07.6100 26266.7
 04 09 2013  19 40  -21.0049 26034.7 -03478.2 -07.6095 26266.0
 04 09 2013  19 41  -21.0047 26034.1 -03477.9 -07.6092 26265.3
 04 09 2013  19 42  -21.0043 26033.6 -03477.8 -07.6091 26264.8
 04 09 2013  19 43  -21.0039 26033.3 -03477.8 -07.6092 26264.5
 04 09 2013  19 44  -21.0037 26033.2 -03478.0 -07.6096 26264.5
 04 09 2013  19 45  -21.0038 26033.3 -03478.3 -07.6103 26264.7
 04 09 2013  19 46  -21.0040 26033.8 -03478.8 -07.6111 26265.2
 04 09 2013  19 47  -21.0044 26034.5 -03479.3 -07.6119 26266.0
 04 09 2013  19 48  -21.0048 26035.2 -03479.7 -07.6126 26266.7
 04 09 2013  19 49  -21.0055 26035.3 -03479.8 -07.6128 26266.8
 04 09 2013  19 50  -21.0058 26034.8 -03479.5 -07.6124 26266.3
 04 09 2013  19 51  -21.0058 26034.1 -03479.2 -07.6120 26265.6
 04 09 2013  19 52  -21.0061 26033.7 -03479.0 -07.6117 26265.1
 04 09 2013  19 53  -21.0062 26033.6 -03479.1 -07.6118 26265.1
 04 09 2013  19 54  -21.0063 26033.6 -03479.2 -07.6120 26265.1
 04 09 2013  19 55  -21.0065 26033.7 -03479.3 -07.6121 26265.2
 04 09 2013  19 56  -21.0066 26033.7 -03479.3 -07.6122 26265.1
 04 09 2013  19 57  -21.0063 26033.6 -03479.3 -07.6122 26265.0
 04 09 2013  19 58  -21.0059 26033.2 -03479.1 -07.6120 26264.7
 04 09 2013  19 59  -21.0058 26033.1 -03479.2 -07.6121 26264.6
 04 09 2013  20 00  -21.0055 26032.9 -03479.1 -07.6121 26264.3
 04 09 2013  20 01  -21.0052 26032.7 -03479.2 -07.6123 26264.1
 04 09 2013  20 02  -21.0048 26032.4 -03479.2 -07.6124 26263.8
 04 09 2013  20 03  -21.0045 26032.1 -03479.2 -07.6125 26263.5
 04 09 2013  20 04  -21.0043 26032.0 -03479.4 -07.6128 26263.5
 04 09 2013  20 05  -21.0042 26032.0 -03479.5 -07.6132 26263.5
 04 09 2013  20 06  -21.0042 26032.1 -03479.7 -07.6136 26263.6
 04 09 2013  20 07  -21.0040 26032.1 -03479.9 -07.6139 26263.7
 04 09 2013  20 08  -21.0038 26032.1 -03480.0 -07.6141 26263.7
 04 09 2013  20 09  -21.0035 26032.1 -03480.0 -07.6143 26263.6
 04 09 2013  20 10  -21.0033 26032.3 -03480.2 -07.6146 26263.9
 04 09 2013  20 11  -21.0031 26032.5 -03480.4 -07.6150 26264.1
 04 09 2013  20 12  -21.0028 26032.1 -03480.3 -07.6148 26263.7
 04 09 2013  20 13  -21.0028 26032.6 -03480.6 -07.6154 26264.3
 04 09 2013  20 14  -21.0026 26031.6 -03480.3 -07.6149 26263.3
 04 09 2013  20 15  -21.0029 26032.2 -03480.6 -07.6154 26263.8
 04 09 2013  20 16  -21.0029 26031.6 -03480.4 -07.6152 26263.2
 04 09 2013  20 17  -21.0029 26031.5 -03480.4 -07.6153 26263.1
 04 09 2013  20 18  -21.0031 26031.7 -03480.7 -07.6158 26263.4
 04 09 2013  20 19  -21.0032 26031.7 -03480.8 -07.6160 26263.4
 04 09 2013  20 20  -21.0031 26031.6 -03480.7 -07.6159 26263.2
 04 09 2013  20 21  -21.0030 26031.3 -03480.6 -07.6158 26263.0
 04 09 2013  20 22  -21.0032 26031.2 -03480.7 -07.6159 26262.9
 04 09 2013  20 23  -21.0034 26031.0 -03480.7 -07.6159 26262.7
 04 09 2013  20 24  -21.0033 26030.8 -03480.6 -07.6159 26262.5
 04 09 2013  20 25  -21.0033 26031.1 -03480.8 -07.6162 26262.8
 04 09 2013  20 26  -21.0031 26031.2 -03480.9 -07.6165 26262.9
 04 09 2013  20 27  -21.0030 26031.4 -03481.1 -07.6167 26263.2
 04 09 2013  20 28  -21.0029 26031.5 -03481.1 -07.6169 26263.3
 04 09 2013  20 29  -21.0030 26031.6 -03481.2 -07.6169 26263.3
 04 09 2013  20 30  -21.0032 26031.6 -03481.2 -07.6170 26263.4
 04 09 2013  20 31  -21.0033 26031.7 -03481.3 -07.6172 26263.4
 04 09 2013  20 32  -21.0036 26031.7 -03481.5 -07.6175 26263.5
 04 09 2013  20 33  -21.0039 26031.7 -03481.6 -07.6177 26263.5
 04 09 2013  20 34  -21.0042 26031.7 -03481.6 -07.6177 26263.4
 04 09 2013  20 35  -21.0047 26031.8 -03481.7 -07.6179 26263.6
 04 09 2013  20 36  -21.0050 26032.2 -03481.9 -07.6182 26264.0
 04 09 2013  20 37  -21.0055 26032.5 -03482.0 -07.6185 26264.3
 04 09 2013  20 38  -21.0059 26032.6 -03482.1 -07.6186 26264.5
 04 09 2013  20 39  -21.0062 26032.9 -03482.2 -07.6188 26264.8
 04 09 2013  20 40  -21.0065 26033.0 -03482.3 -07.6188 26264.9
 04 09 2013  20 41  -21.0068 26033.2 -03482.3 -07.6189 26265.1
 04 09 2013  20 42  -21.0072 26033.1 -03482.3 -07.6189 26264.9
 04 09 2013  20 43  -21.0071 26033.1 -03482.3 -07.6188 26265.0
 04 09 2013  20 44  -21.0074 26032.3 -03482.0 -07.6184 26264.2
 04 09 2013  20 45  -21.0075 26033.1 -03482.2 -07.6187 26264.9
 04 09 2013  20 46  -21.0078 26032.4 -03481.9 -07.6183 26264.2
 04 09 2013  20 47  -21.0081 26032.7 -03482.1 -07.6186 26264.6
 04 09 2013  20 48  -21.0086 26032.7 -03482.2 -07.6188 26264.6
 04 09 2013  20 49  -21.0089 26032.6 -03482.1 -07.6186 26264.5
 04 09 2013  20 50  -21.0090 26032.7 -03482.1 -07.6186 26264.6
 04 09 2013  20 51  -21.0092 26033.0 -03482.2 -07.6187 26264.9
 04 09 2013  20 52  -21.0094 26033.3 -03482.3 -07.6189 26265.1
 04 09 2013  20 53  -21.0099 26033.3 -03482.4 -07.6190 26265.1
 04 09 2013  20 54  -21.0106 26033.5 -03482.4 -07.6191 26265.4
 04 09 2013  20 55  -21.0112 26033.3 -03482.4 -07.6190 26265.2
 04 09 2013  20 56  -21.0118 26033.2 -03482.3 -07.6188 26265.1
 04 09 2013  20 57  -21.0122 26032.8 -03482.1 -07.6184 26264.6
 04 09 2013  20 58  -21.0124 26031.8 -03481.4 -07.6174 26263.6
 04 09 2013  20 59  -21.0128 26031.3 -03481.1 -07.6167 26263.0
 04 09 2013  21 00  -21.0133 26031.0 -03481.0 -07.6166 26262.7
 04 09 2013  21 01  -21.0137 26031.0 -03481.0 -07.6167 26262.7
 04 09 2013  21 02  -21.0141 26030.7 -03480.9 -07.6166 26262.4
 04 09 2013  21 03  -21.0142 26030.5 -03480.7 -07.6162 26262.1
 04 09 2013  21 04  -21.0142 26030.0 -03480.3 -07.6155 26261.7
 04 09 2013  21 05  -21.0141 26029.9 -03480.2 -07.6153 26261.6
 04 09 2013  21 06  -21.0143 26029.9 -03480.3 -07.6155 26261.5
 04 09 2013  21 07  -21.0146 26029.9 -03480.4 -07.6156 26261.6
 04 09 2013  21 08  -21.0147 26030.2 -03480.5 -07.6159 26261.8
 04 09 2013  21 09  -21.0147 26030.4 -03480.6 -07.6160 26262.0
 04 09 2013  21 10  -21.0145 26030.4 -03480.7 -07.6161 26262.1
 04 09 2013  21 11  -21.0143 26030.5 -03480.6 -07.6161 26262.2
 04 09 2013  21 12  -21.0142 26030.6 -03480.7 -07.6162 26262.3
 04 09 2013  21 13  -21.0142 26030.7 -03480.9 -07.6165 26262.4
 04 09 2013  21 14  -21.0143 26030.6 -03480.8 -07.6165 26262.3
 04 09 2013  21 15  -21.0146 26030.5 -03480.8 -07.6164 26262.2
 04 09 2013  21 16  -21.0147 26030.4 -03480.8 -07.6163 26262.1
 04 09 2013  21 17  -21.0150 26030.1 -03480.7 -07.6164 26261.8
 04 09 2013  21 18  -21.0152 26030.1 -03480.8 -07.6164 26261.8
 04 09 2013  21 19  -21.0151 26030.2 -03480.8 -07.6165 26261.9
 04 09 2013  21 20  -21.0154 26030.4 -03481.0 -07.6168 26262.2
 04 09 2013  21 21  -21.0154 26030.6 -03481.1 -07.6170 26262.4
 04 09 2013  21 22  -21.0154 26030.7 -03481.1 -07.6169 26262.4
 04 09 2013  21 23  -21.0153 26030.9 -03481.1 -07.6169 26262.6
 04 09 2013  21 24  -21.0156 26031.2 -03481.3 -07.6172 26263.0
 04 09 2013  21 25  -21.0158 26031.5 -03481.5 -07.6176 26263.2
 04 09 2013  21 26  -21.0160 26031.9 -03481.7 -07.6179 26263.7
 04 09 2013  21 27  -21.0168 26031.8 -03481.7 -07.6181 26263.6
 04 09 2013  21 28  -21.0174 26031.6 -03481.7 -07.6179 26263.4
 04 09 2013  21 29  -21.0177 26031.5 -03481.5 -07.6177 26263.2
 04 09 2013  21 30  -21.0182 26031.2 -03481.4 -07.6175 26263.0
 04 09 2013  21 31  -21.0183 26031.4 -03481.4 -07.6175 26263.1
 04 09 2013  21 32  -21.0184 26031.5 -03481.5 -07.6176 26263.3
 04 09 2013  21 33  -21.0187 26031.5 -03481.5 -07.6177 26263.3
 04 09 2013  21 34  -21.0186 26031.7 -03481.5 -07.6177 26263.4
 04 09 2013  21 35  -21.0189 26031.6 -03481.5 -07.6175 26263.4
 04 09 2013  21 36  -21.0190 26031.7 -03481.5 -07.6176 26263.5
 04 09 2013  21 37  -21.0194 26031.6 -03481.5 -07.6175 26263.4
 04 09 2013  21 38  -21.0199 26031.5 -03481.4 -07.6175 26263.3
 04 09 2013  21 39  -21.0204 26031.4 -03481.4 -07.6174 26263.1
 04 09 2013  21 40  -21.0206 26031.7 -03481.5 -07.6175 26263.4
 04 09 2013  21 41  -21.0211 26031.4 -03481.4 -07.6174 26263.2
 04 09 2013  21 42  -21.0212 26031.4 -03481.3 -07.6173 26263.2
 04 09 2013  21 43  -21.0216 26031.5 -03481.3 -07.6172 26263.2
 04 09 2013  21 44  -21.0217 26031.4 -03481.3 -07.6171 26263.2
 04 09 2013  21 45  -21.0218 26031.2 -03481.1 -07.6169 26262.9
 04 09 2013  21 46  -21.0219 26031.0 -03481.0 -07.6166 26262.7
 04 09 2013  21 47  -21.0220 26030.6 -03480.8 -07.6163 26262.3
 04 09 2013  21 48  -21.0219 26030.3 -03480.6 -07.6160 26262.0
 04 09 2013  21 49  -21.0220 26030.0 -03480.5 -07.6159 26261.7
 04 09 2013  21 50  -21.0222 26030.3 -03480.7 -07.6162 26262.0
 04 09 2013  21 51  -21.0223 26030.3 -03480.7 -07.6163 26262.0
 04 09 2013  21 52  -21.0223 26030.2 -03480.7 -07.6163 26261.9
 04 09 2013  21 53  -21.0222 26030.1 -03480.6 -07.6161 26261.8
 04 09 2013  21 54  -21.0220 26030.0 -03480.5 -07.6160 26261.6
 04 09 2013  21 55  -21.0220 26029.8 -03480.5 -07.6160 26261.5
 04 09 2013  21 56  -21.0219 26030.0 -03480.6 -07.6162 26261.7
 04 09 2013  21 57  -21.0219 26030.2 -03480.8 -07.6164 26261.9
 04 09 2013  21 58  -21.0219 26030.6 -03481.1 -07.6169 26262.3
 04 09 2013  21 59  -21.0217 26030.8 -03481.2 -07.6172 26262.6
 04 09 2013  22 00  -21.0216 26031.2 -03481.4 -07.6175 26262.9
 04 09 2013  22 01  -21.0216 26031.6 -03481.6 -07.6178 26263.3
 04 09 2013  22 02  -21.0216 26032.1 -03481.9 -07.6183 26263.9
 04 09 2013  22 03  -21.0218 26032.5 -03482.1 -07.6186 26264.4
 04 09 2013  22 04  -21.0218 26033.1 -03482.3 -07.6189 26264.9
 04 09 2013  22 05  -21.0221 26033.5 -03482.4 -07.6191 26265.3
 04 09 2013  22 06  -21.0223 26033.4 -03482.3 -07.6189 26265.3
 04 09 2013  22 07  -21.0225 26033.0 -03482.1 -07.6184 26264.9
 04 09 2013  22 08  -21.0228 26032.4 -03481.7 -07.6178 26264.2
 04 09 2013  22 09  -21.0230 26031.7 -03481.3 -07.6171 26263.4
 04 09 2013  22 10  -21.0233 26031.0 -03480.9 -07.6165 26262.7
 04 09 2013  22 11  -21.0236 26030.7 -03480.8 -07.6163 26262.4
 04 09 2013  22 12  -21.0236 26030.6 -03480.7 -07.6162 26262.2
 04 09 2013  22 13  -21.0238 26030.6 -03480.8 -07.6164 26262.3
 04 09 2013  22 14  -21.0241 26030.9 -03481.0 -07.6168 26262.7
 04 09 2013  22 15  -21.0243 26031.1 -03481.2 -07.6170 26262.9
 04 09 2013  22 16  -21.0244 26031.2 -03481.2 -07.6171 26262.9
 04 09 2013  22 17  -21.0244 26031.0 -03481.1 -07.6169 26262.7
 04 09 2013  22 18  -21.0245 26030.9 -03481.1 -07.6169 26262.6
 04 09 2013  22 19  -21.0245 26030.8 -03481.0 -07.6168 26262.5
 04 09 2013  22 20  -21.0244 26030.7 -03481.1 -07.6169 26262.5
 04 09 2013  22 21  -21.0242 26030.8 -03481.1 -07.6169 26262.5
 04 09 2013  22 22  -21.0241 26031.0 -03481.2 -07.6172 26262.7
 04 09 2013  22 23  -21.0237 26031.5 -03481.5 -07.6176 26263.3
 04 09 2013  22 24  -21.0235 26031.7 -03481.6 -07.6178 26263.5
 04 09 2013  22 25  -21.0234 26031.7 -03481.7 -07.6179 26263.5
 04 09 2013  22 26  -21.0236 26031.7 -03481.6 -07.6179 26263.5
 04 09 2013  22 27  -21.0239 26031.7 -03481.7 -07.6180 26263.5
 04 09 2013  22 28  -21.0240 26031.8 -03481.7 -07.6181 26263.6
 04 09 2013  22 29  -21.0243 26031.7 -03481.7 -07.6181 26263.5
 04 09 2013  22 30  -21.0243 26031.7 -03481.7 -07.6180 26263.5
 04 09 2013  22 31  -21.0243 26031.6 -03481.6 -07.6178 26263.4
 04 09 2013  22 32  -21.0246 26031.2 -03481.4 -07.6175 26263.0
 04 09 2013  22 33  -21.0245 26031.2 -03481.4 -07.6174 26263.0
 04 09 2013  22 34  -21.0249 26031.2 -03481.4 -07.6175 26262.9
 04 09 2013  22 35  -21.0250 26031.6 -03481.6 -07.6178 26263.4
 04 09 2013  22 36  -21.0250 26031.9 -03481.7 -07.6180 26263.7
 04 09 2013  22 37  -21.0250 26031.9 -03481.8 -07.6181 26263.7
 04 09 2013  22 38  -21.0251 26031.8 -03481.7 -07.6180 26263.6
 04 09 2013  22 39  -21.0253 26031.7 -03481.6 -07.6178 26263.5
 04 09 2013  22 40  -21.0254 26031.7 -03481.6 -07.6178 26263.5
 04 09 2013  22 41  -21.0255 26031.6 -03481.5 -07.6176 26263.4
 04 09 2013  22 42  -21.0256 26031.6 -03481.5 -07.6177 26263.4
 04 09 2013  22 43  -21.0257 26031.7 -03481.6 -07.6177 26263.5
 04 09 2013  22 44  -21.0256 26031.7 -03481.5 -07.6176 26263.4
 04 09 2013  22 45  -21.0257 26031.6 -03481.5 -07.6176 26263.4
 04 09 2013  22 46  -21.0257 26031.7 -03481.6 -07.6177 26263.5
 04 09 2013  22 47  -21.0258 26031.7 -03481.6 -07.6177 26263.5
 04 09 2013  22 48  -21.0258 26031.7 -03481.5 -07.6176 26263.5
 04 09 2013  22 49  -21.0258 26031.6 -03481.5 -07.6175 26263.4
 04 09 2013  22 50  -21.0258 26031.6 -03481.4 -07.6174 26263.3
 04 09 2013  22 51  -21.0258 26031.4 -03481.4 -07.6174 26263.2
 04 09 2013  22 52  -21.0258 26031.4 -03481.4 -07.6174 26263.2
 04 09 2013  22 53  -21.0257 26031.5 -03481.4 -07.6174 26263.2
 04 09 2013  22 54  -21.0257 26031.5 -03481.4 -07.6175 26263.3
 04 09 2013  22 55  -21.0257 26031.6 -03481.5 -07.6175 26263.4
 04 09 2013  22 56  -21.0257 26031.7 -03481.5 -07.6176 26263.4
 04 09 2013  22 57  -21.0256 26031.7 -03481.5 -07.6176 26263.4
 04 09 2013  22 58  -21.0256 26031.7 -03481.5 -07.6175 26263.4
 04 09 2013  22 59  -21.0255 26031.6 -03481.4 -07.6174 26263.3
 04 09 2013  23 00  -21.0255 26031.5 -03481.4 -07.6174 26263.3
 04 09 2013  23 01  -21.0254 26031.5 -03481.4 -07.6174 26263.2
 04 09 2013  23 02  -21.0253 26031.5 -03481.4 -07.6174 26263.2
 04 09 2013  23 03  -21.0252 26031.5 -03481.4 -07.6174 26263.2
 04 09 2013  23 04  -21.0251 26031.5 -03481.4 -07.6174 26263.3
 04 09 2013  23 05  -21.0252 26031.5 -03481.4 -07.6175 26263.2
 04 09 2013  23 06  -21.0252 26031.5 -03481.5 -07.6175 26263.2
 04 09 2013  23 07  -21.0251 26031.5 -03481.5 -07.6176 26263.2
 04 09 2013  23 08  -21.0251 26031.4 -03481.4 -07.6175 26263.2
 04 09 2013  23 09  -21.0251 26031.3 -03481.4 -07.6174 26263.0
 04 09 2013  23 10  -21.0251 26031.2 -03481.3 -07.6174 26262.9
 04 09 2013  23 11  -21.0251 26031.0 -03481.3 -07.6173 26262.8
 04 09 2013  23 12  -21.0251 26030.9 -03481.2 -07.6172 26262.7
 04 09 2013  23 13  -21.0252 26030.9 -03481.2 -07.6172 26262.7
 04 09 2013  23 14  -21.0252 26030.8 -03481.2 -07.6172 26262.6
 04 09 2013  23 15  -21.0250 26030.8 -03481.2 -07.6172 26262.5
 04 09 2013  23 16  -21.0249 26030.8 -03481.2 -07.6172 26262.5
 04 09 2013  23 17  -21.0249 26030.9 -03481.3 -07.6174 26262.7
 04 09 2013  23 18  -21.0247 26031.0 -03481.4 -07.6175 26262.8
 04 09 2013  23 19  -21.0244 26031.0 -03481.4 -07.6175 26262.8
 04 09 2013  23 20  -21.0242 26031.0 -03481.4 -07.6175 26262.8
 04 09 2013  23 21  -21.0240 26031.1 -03481.4 -07.6176 26262.8
 04 09 2013  23 22  -21.0239 26031.1 -03481.5 -07.6177 26262.9
 04 09 2013  23 23  -21.0238 26031.2 -03481.6 -07.6178 26263.0
 04 09 2013  23 24  -21.0235 26031.3 -03481.6 -07.6179 26263.1
 04 09 2013  23 25  -21.0233 26031.4 -03481.6 -07.6179 26263.2
 04 09 2013  23 26  -21.0233 26031.4 -03481.7 -07.6180 26263.2
 04 09 2013  23 27  -21.0231 26031.3 -03481.7 -07.6180 26263.1
 04 09 2013  23 28  -21.0230 26031.3 -03481.7 -07.6180 26263.1
 04 09 2013  23 29  -21.0229 26031.3 -03481.7 -07.6180 26263.1
 04 09 2013  23 30  -21.0227 26031.3 -03481.7 -07.6180 26263.1
 04 09 2013  23 31  -21.0227 26031.3 -03481.7 -07.6181 26263.1
 04 09 2013  23 32  -21.0226 26031.3 -03481.7 -07.6182 26263.1
 04 09 2013  23 33  -21.0226 26031.3 -03481.7 -07.6182 26263.1
 04 09 2013  23 34  -21.0225 26031.3 -03481.8 -07.6182 26263.1
 04 09 2013  23 35  -21.0223 26031.2 -03481.8 -07.6183 26263.1
 04 09 2013  23 36  -21.0223 26031.2 -03481.8 -07.6183 26263.0
 04 09 2013  23 37  -21.0221 26031.3 -03481.8 -07.6184 26263.1
 04 09 2013  23 38  -21.0220 26031.4 -03481.8 -07.6184 26263.2
 04 09 2013  23 39  -21.0219 26031.4 -03481.9 -07.6185 26263.2
 04 09 2013  23 40  -21.0218 26031.3 -03481.9 -07.6185 26263.2
 04 09 2013  23 41  -21.0216 26031.3 -03481.9 -07.6185 26263.1
 04 09 2013  23 42  -21.0214 26031.3 -03481.9 -07.6185 26263.1
 04 09 2013  23 43  -21.0212 26031.3 -03481.9 -07.6185 26263.1
 04 09 2013  23 44  -21.0211 26031.2 -03481.9 -07.6185 26263.0
 04 09 2013  23 45  -21.0209 26031.3 -03482.0 -07.6187 26263.2
 04 09 2013  23 46  -21.0208 26031.4 -03482.0 -07.6188 26263.3
 04 09 2013  23 47  -21.0207 26031.5 -03482.1 -07.6189 26263.3
 04 09 2013  23 48  -21.0206 26031.5 -03482.1 -07.6189 26263.4
 04 09 2013  23 49  -21.0204 26031.5 -03482.1 -07.6189 26263.4
 04 09 2013  23 50  -21.0204 26031.6 -03482.2 -07.6190 26263.5
 04 09 2013  23 51  -21.0203 26031.6 -03482.2 -07.6190 26263.5
 04 09 2013  23 52  -21.0203 26031.5 -03482.2 -07.6190 26263.4
 04 09 2013  23 53  -21.0202 26031.4 -03482.1 -07.6189 26263.3
 04 09 2013  23 54  -21.0202 26031.4 -03482.1 -07.6190 26263.3
 04 09 2013  23 55  -21.0202 26031.4 -03482.1 -07.6190 26263.2
 04 09 2013  23 56  -21.0200 26031.4 -03482.1 -07.6189 26263.2
 04 09 2013  23 57  -21.0200 26031.4 -03482.1 -07.6190 26263.3
