SAO LUIS EMBRACE-03 <311> 1 Min. Reported data

 DD MM YYYY  HH MM   D(Deg)  H(nT)   Z(nT)   I(Deg)   F(nT)

 07 11 2013  00 00  -21.0183 26014.5 -03503.6 -07.6703 26249.3
 07 11 2013  00 01  -21.0184 26014.6 -03503.6 -07.6703 26249.5
 07 11 2013  00 02  -21.0185 26014.7 -03503.6 -07.6703 26249.6
 07 11 2013  00 03  -21.0185 26014.9 -03503.7 -07.6704 26249.7
 07 11 2013  00 04  -21.0184 26015.0 -03503.7 -07.6705 26249.9
 07 11 2013  00 05  -21.0182 26015.2 -03503.8 -07.6705 26250.0
 07 11 2013  00 06  -21.0180 26015.3 -03503.8 -07.6706 26250.2
 07 11 2013  00 07  -21.0177 26015.3 -03503.8 -07.6705 26250.2
 07 11 2013  00 08  -21.0175 26015.3 -03503.8 -07.6705 26250.2
 07 11 2013  00 09  -21.0174 26015.3 -03503.8 -07.6705 26250.2
 07 11 2013  00 10  -21.0171 26015.5 -03503.8 -07.6705 26250.4
 07 11 2013  00 11  -21.0168 26015.7 -03503.9 -07.6706 26250.6
 07 11 2013  00 12  -21.0167 26015.9 -03504.0 -07.6708 26250.8
 07 11 2013  00 13  -21.0166 26016.1 -03504.1 -07.6709 26251.0
 07 11 2013  00 14  -21.0166 26016.3 -03504.2 -07.6711 26251.2
 07 11 2013  00 15  -21.0165 26016.5 -03504.2 -07.6712 26251.4
 07 11 2013  00 16  -21.0163 26016.7 -03504.3 -07.6713 26251.6
 07 11 2013  00 17  -21.0161 26016.8 -03504.3 -07.6713 26251.7
 07 11 2013  00 18  -21.0159 26016.8 -03504.3 -07.6713 26251.7
 07 11 2013  00 19  -21.0157 26016.8 -03504.3 -07.6712 26251.8
 07 11 2013  00 20  -21.0156 26016.8 -03504.3 -07.6712 26251.7
 07 11 2013  00 21  -21.0154 26016.8 -03504.2 -07.6711 26251.7
 07 11 2013  00 22  -21.0153 26016.7 -03504.2 -07.6710 26251.7
 07 11 2013  00 23  -21.0151 26016.7 -03504.2 -07.6709 26251.6
 07 11 2013  00 24  -21.0150 26016.7 -03504.1 -07.6709 26251.6
 07 11 2013  00 25  -21.0148 26016.7 -03504.1 -07.6709 26251.6
 07 11 2013  00 26  -21.0146 26016.6 -03504.1 -07.6709 26251.5
 07 11 2013  00 27  -21.0144 26016.6 -03504.1 -07.6709 26251.6
 07 11 2013  00 28  -21.0142 26016.7 -03504.2 -07.6709 26251.6
 07 11 2013  00 29  -21.0139 26016.7 -03504.2 -07.6710 26251.6
 07 11 2013  00 30  -21.0136 26016.7 -03504.2 -07.6710 26251.6
 07 11 2013  00 31  -21.0133 26016.7 -03504.2 -07.6710 26251.6
 07 11 2013  00 32  -21.0130 26016.6 -03504.2 -07.6710 26251.6
 07 11 2013  00 33  -21.0128 26016.6 -03504.2 -07.6711 26251.6
 07 11 2013  00 34  -21.0125 26016.6 -03504.2 -07.6711 26251.6
 07 11 2013  00 35  -21.0124 26016.6 -03504.3 -07.6712 26251.6
 07 11 2013  00 36  -21.0123 26016.7 -03504.3 -07.6713 26251.6
 07 11 2013  00 37  -21.0121 26016.8 -03504.4 -07.6714 26251.8
 07 11 2013  00 38  -21.0117 26016.9 -03504.5 -07.6716 26251.9
 07 11 2013  00 39  -21.0116 26017.1 -03504.6 -07.6718 26252.0
 07 11 2013  00 40  -21.0117 26017.1 -03504.7 -07.6719 26252.1
 07 11 2013  00 41  -21.0118 26017.2 -03504.7 -07.6720 26252.2
 07 11 2013  00 42  -21.0117 26017.3 -03504.8 -07.6721 26252.3
 07 11 2013  00 43  -21.0116 26017.2 -03504.8 -07.6721 26252.2
 07 11 2013  00 44  -21.0114 26017.2 -03504.8 -07.6721 26252.3
 07 11 2013  00 45  -21.0114 26017.2 -03504.8 -07.6721 26252.2
 07 11 2013  00 46  -21.0114 26017.2 -03504.8 -07.6721 26252.2
 07 11 2013  00 47  -21.0115 26017.2 -03504.8 -07.6722 26252.2
 07 11 2013  00 48  -21.0115 26017.3 -03504.8 -07.6722 26252.3
 07 11 2013  00 49  -21.0116 26017.4 -03504.9 -07.6723 26252.4
 07 11 2013  00 50  -21.0118 26017.5 -03504.9 -07.6723 26252.5
 07 11 2013  00 51  -21.0120 26017.6 -03505.0 -07.6725 26252.6
 07 11 2013  00 52  -21.0119 26017.6 -03505.0 -07.6726 26252.7
 07 11 2013  00 53  -21.0119 26017.7 -03505.0 -07.6725 26252.7
 07 11 2013  00 54  -21.0119 26017.7 -03505.0 -07.6725 26252.7
 07 11 2013  00 55  -21.0118 26017.8 -03505.1 -07.6726 26252.8
 07 11 2013  00 56  -21.0116 26017.8 -03505.1 -07.6727 26252.9
 07 11 2013  00 57  -21.0116 26017.8 -03505.1 -07.6726 26252.9
 07 11 2013  00 58  -21.0116 26017.8 -03505.1 -07.6726 26252.8
 07 11 2013  00 59  -21.0117 26017.9 -03505.1 -07.6726 26252.9
 07 11 2013  01 00  -21.0117 26017.8 -03505.1 -07.6726 26252.8
 07 11 2013  01 01  -21.0118 26017.8 -03505.1 -07.6726 26252.9
 07 11 2013  01 02  -21.0118 26017.8 -03505.1 -07.6726 26252.8
 07 11 2013  01 03  -21.0119 26017.7 -03505.0 -07.6725 26252.8
 07 11 2013  01 04  -21.0120 26017.8 -03505.1 -07.6726 26252.8
 07 11 2013  01 05  -21.0119 26017.7 -03505.1 -07.6726 26252.8
 07 11 2013  01 06  -21.0118 26017.8 -03505.1 -07.6725 26252.8
 07 11 2013  01 07  -21.0115 26017.8 -03505.0 -07.6725 26252.8
 07 11 2013  01 08  -21.0116 26017.8 -03505.1 -07.6726 26252.9
 07 11 2013  01 09  -21.0115 26017.8 -03505.1 -07.6726 26252.8
 07 11 2013  01 10  -21.0114 26017.8 -03505.1 -07.6726 26252.8
 07 11 2013  01 11  -21.0112 26017.9 -03505.1 -07.6726 26252.9
 07 11 2013  01 12  -21.0112 26017.9 -03505.2 -07.6728 26253.0
 07 11 2013  01 13  -21.0112 26018.0 -03505.3 -07.6729 26253.1
 07 11 2013  01 14  -21.0113 26018.1 -03505.3 -07.6731 26253.2
 07 11 2013  01 15  -21.0115 26018.2 -03505.4 -07.6731 26253.3
 07 11 2013  01 16  -21.0113 26018.2 -03505.4 -07.6731 26253.3
 07 11 2013  01 17  -21.0112 26018.3 -03505.4 -07.6731 26253.3
 07 11 2013  01 18  -21.0110 26018.2 -03505.4 -07.6732 26253.3
 07 11 2013  01 19  -21.0108 26018.1 -03505.3 -07.6731 26253.2
 07 11 2013  01 20  -21.0108 26018.0 -03505.3 -07.6731 26253.1
 07 11 2013  01 21  -21.0108 26018.0 -03505.4 -07.6731 26253.1
 07 11 2013  01 22  -21.0107 26018.0 -03505.4 -07.6731 26253.1
 07 11 2013  01 23  -21.0107 26018.1 -03505.4 -07.6733 26253.2
 07 11 2013  01 24  -21.0108 26018.3 -03505.6 -07.6735 26253.4
 07 11 2013  01 25  -21.0110 26018.4 -03505.6 -07.6737 26253.5
 07 11 2013  01 26  -21.0111 26018.5 -03505.7 -07.6738 26253.6
 07 11 2013  01 27  -21.0111 26018.6 -03505.8 -07.6739 26253.8
 07 11 2013  01 28  -21.0112 26018.6 -03505.8 -07.6740 26253.8
 07 11 2013  01 29  -21.0113 26018.6 -03505.8 -07.6739 26253.7
 07 11 2013  01 30  -21.0113 26018.5 -03505.7 -07.6738 26253.6
 07 11 2013  01 31  -21.0113 26018.4 -03505.7 -07.6737 26253.5
 07 11 2013  01 32  -21.0115 26018.2 -03505.6 -07.6737 26253.4
 07 11 2013  01 33  -21.0114 26017.9 -03505.5 -07.6735 26253.0
 07 11 2013  01 34  -21.0115 26017.7 -03505.4 -07.6734 26252.8
 07 11 2013  01 35  -21.0117 26017.6 -03505.4 -07.6734 26252.7
 07 11 2013  01 36  -21.0119 26017.5 -03505.4 -07.6733 26252.5
 07 11 2013  01 37  -21.0118 26017.8 -03505.5 -07.6735 26252.9
 07 11 2013  01 38  -21.0118 26018.1 -03505.8 -07.6740 26253.3
 07 11 2013  01 39  -21.0121 26018.1 -03505.7 -07.6740 26253.2
 07 11 2013  01 40  -21.0123 26018.6 -03506.0 -07.6744 26253.7
 07 11 2013  01 41  -21.0125 26018.9 -03506.2 -07.6747 26254.0
 07 11 2013  01 42  -21.0129 26019.0 -03506.3 -07.6748 26254.2
 07 11 2013  01 43  -21.0131 26019.2 -03506.4 -07.6750 26254.4
 07 11 2013  01 44  -21.0134 26019.2 -03506.4 -07.6750 26254.4
 07 11 2013  01 45  -21.0136 26019.5 -03506.4 -07.6750 26254.7
 07 11 2013  01 46  -21.0138 26019.5 -03506.4 -07.6750 26254.7
 07 11 2013  01 47  -21.0141 26019.4 -03506.4 -07.6749 26254.6
 07 11 2013  01 48  -21.0140 26019.2 -03506.2 -07.6747 26254.4
 07 11 2013  01 49  -21.0139 26019.1 -03506.2 -07.6745 26254.3
 07 11 2013  01 50  -21.0139 26018.9 -03506.0 -07.6744 26254.1
 07 11 2013  01 51  -21.0139 26018.8 -03506.0 -07.6742 26254.0
 07 11 2013  01 52  -21.0139 26018.6 -03505.9 -07.6741 26253.8
 07 11 2013  01 53  -21.0138 26018.6 -03505.9 -07.6741 26253.7
 07 11 2013  01 54  -21.0137 26018.6 -03505.9 -07.6741 26253.7
 07 11 2013  01 55  -21.0136 26018.4 -03505.8 -07.6740 26253.6
 07 11 2013  01 56  -21.0137 26018.5 -03505.9 -07.6742 26253.6
 07 11 2013  01 57  -21.0138 26018.6 -03506.0 -07.6743 26253.7
 07 11 2013  01 58  -21.0142 26018.8 -03506.1 -07.6745 26253.9
 07 11 2013  01 59  -21.0148 26018.8 -03506.2 -07.6746 26254.0
 07 11 2013  02 00  -21.0149 26019.0 -03506.2 -07.6747 26254.1
 07 11 2013  02 01  -21.0152 26019.0 -03506.2 -07.6747 26254.1
 07 11 2013  02 02  -21.0156 26018.9 -03506.2 -07.6746 26254.1
 07 11 2013  02 03  -21.0160 26018.8 -03506.1 -07.6746 26254.0
 07 11 2013  02 04  -21.0162 26018.7 -03506.1 -07.6744 26253.9
 07 11 2013  02 05  -21.0164 26018.5 -03505.9 -07.6742 26253.7
 07 11 2013  02 06  -21.0167 26018.4 -03505.9 -07.6741 26253.6
 07 11 2013  02 07  -21.0168 26018.2 -03505.7 -07.6739 26253.4
 07 11 2013  02 08  -21.0170 26018.1 -03505.7 -07.6737 26253.2
 07 11 2013  02 09  -21.0171 26017.9 -03505.5 -07.6735 26253.0
 07 11 2013  02 10  -21.0171 26017.9 -03505.5 -07.6735 26253.0
 07 11 2013  02 11  -21.0171 26018.0 -03505.5 -07.6735 26253.1
 07 11 2013  02 12  -21.0171 26017.9 -03505.5 -07.6736 26253.0
 07 11 2013  02 13  -21.0171 26017.9 -03505.6 -07.6737 26253.0
 07 11 2013  02 14  -21.0171 26017.8 -03505.6 -07.6737 26253.0
 07 11 2013  02 15  -21.0172 26017.9 -03505.6 -07.6737 26253.0
 07 11 2013  02 16  -21.0172 26017.7 -03505.5 -07.6736 26252.8
 07 11 2013  02 17  -21.0173 26017.7 -03505.5 -07.6735 26252.8
 07 11 2013  02 18  -21.0176 26017.5 -03505.4 -07.6734 26252.6
 07 11 2013  02 19  -21.0178 26017.2 -03505.3 -07.6732 26252.3
 07 11 2013  02 20  -21.0179 26016.9 -03505.1 -07.6729 26252.0
 07 11 2013  02 21  -21.0178 26016.6 -03505.0 -07.6727 26251.7
 07 11 2013  02 22  -21.0177 26016.2 -03504.8 -07.6724 26251.3
 07 11 2013  02 23  -21.0176 26016.0 -03504.7 -07.6722 26251.0
 07 11 2013  02 24  -21.0179 26015.7 -03504.5 -07.6720 26250.7
 07 11 2013  02 25  -21.0180 26015.4 -03504.4 -07.6718 26250.3
 07 11 2013  02 26  -21.0180 26015.2 -03504.3 -07.6717 26250.1
 07 11 2013  02 27  -21.0180 26015.0 -03504.3 -07.6717 26250.0
 07 11 2013  02 28  -21.0182 26014.9 -03504.3 -07.6718 26249.9
 07 11 2013  02 29  -21.0183 26014.9 -03504.3 -07.6718 26249.9
 07 11 2013  02 30  -21.0183 26014.9 -03504.4 -07.6719 26249.9
 07 11 2013  02 31  -21.0185 26014.7 -03504.3 -07.6718 26249.6
 07 11 2013  02 32  -21.0188 26014.3 -03504.2 -07.6716 26249.2
 07 11 2013  02 33  -21.0194 26014.0 -03504.0 -07.6714 26248.9
 07 11 2013  02 34  -21.0200 26013.7 -03503.9 -07.6713 26248.6
 07 11 2013  02 35  -21.0205 26013.6 -03503.9 -07.6713 26248.5
 07 11 2013  02 36  -21.0207 26013.6 -03503.9 -07.6713 26248.5
 07 11 2013  02 37  -21.0212 26013.7 -03504.0 -07.6715 26248.6
 07 11 2013  02 38  -21.0217 26013.9 -03504.2 -07.6718 26248.8
 07 11 2013  02 39  -21.0221 26014.0 -03504.3 -07.6720 26249.0
 07 11 2013  02 40  -21.0226 26014.1 -03504.4 -07.6721 26249.1
 07 11 2013  02 41  -21.0230 26014.1 -03504.4 -07.6722 26249.0
 07 11 2013  02 42  -21.0235 26014.0 -03504.3 -07.6721 26248.9
 07 11 2013  02 43  -21.0240 26013.9 -03504.3 -07.6720 26248.9
 07 11 2013  02 44  -21.0245 26013.9 -03504.2 -07.6719 26248.8
 07 11 2013  02 45  -21.0248 26013.9 -03504.2 -07.6718 26248.8
 07 11 2013  02 46  -21.0249 26014.0 -03504.2 -07.6718 26248.9
 07 11 2013  02 47  -21.0250 26014.0 -03504.2 -07.6718 26249.0
 07 11 2013  02 48  -21.0251 26014.0 -03504.2 -07.6718 26249.0
 07 11 2013  02 49  -21.0252 26014.0 -03504.2 -07.6717 26249.0
 07 11 2013  02 50  -21.0253 26014.0 -03504.1 -07.6716 26248.9
 07 11 2013  02 51  -21.0256 26014.0 -03504.1 -07.6716 26248.9
 07 11 2013  02 52  -21.0256 26013.9 -03504.1 -07.6715 26248.8
 07 11 2013  02 53  -21.0256 26013.9 -03504.0 -07.6715 26248.8
 07 11 2013  02 54  -21.0257 26013.9 -03504.0 -07.6714 26248.8
 07 11 2013  02 55  -21.0258 26013.9 -03504.0 -07.6714 26248.8
 07 11 2013  02 56  -21.0259 26013.9 -03504.0 -07.6714 26248.9
 07 11 2013  02 57  -21.0260 26014.0 -03504.0 -07.6714 26248.9
 07 11 2013  02 58  -21.0259 26014.0 -03504.0 -07.6714 26248.9
 07 11 2013  02 59  -21.0258 26014.1 -03504.0 -07.6714 26249.1
 07 11 2013  03 00  -21.0258 26014.2 -03504.1 -07.6715 26249.2
 07 11 2013  03 01  -21.0258 26014.3 -03504.1 -07.6716 26249.2
 07 11 2013  03 02  -21.0256 26014.4 -03504.1 -07.6715 26249.3
 07 11 2013  03 03  -21.0255 26014.4 -03504.1 -07.6715 26249.4
 07 11 2013  03 04  -21.0253 26014.5 -03504.2 -07.6716 26249.4
 07 11 2013  03 05  -21.0255 26014.6 -03504.2 -07.6717 26249.5
 07 11 2013  03 06  -21.0257 26014.7 -03504.3 -07.6719 26249.6
 07 11 2013  03 07  -21.0258 26014.7 -03504.3 -07.6719 26249.7
 07 11 2013  03 08  -21.0258 26014.8 -03504.4 -07.6720 26249.8
 07 11 2013  03 09  -21.0260 26014.9 -03504.4 -07.6720 26249.9
 07 11 2013  03 10  -21.0261 26015.0 -03504.4 -07.6720 26250.0
 07 11 2013  03 11  -21.0260 26014.8 -03504.4 -07.6720 26249.8
 07 11 2013  03 12  -21.0262 26014.7 -03504.3 -07.6718 26249.6
 07 11 2013  03 13  -21.0264 26014.5 -03504.2 -07.6717 26249.5
 07 11 2013  03 14  -21.0265 26014.6 -03504.3 -07.6717 26249.5
 07 11 2013  03 15  -21.0265 26014.5 -03504.2 -07.6717 26249.5
 07 11 2013  03 16  -21.0262 26014.5 -03504.2 -07.6716 26249.5
 07 11 2013  03 17  -21.0263 26014.4 -03504.2 -07.6716 26249.4
 07 11 2013  03 18  -21.0261 26014.4 -03504.2 -07.6716 26249.3
 07 11 2013  03 19  -21.0261 26014.2 -03504.1 -07.6715 26249.1
 07 11 2013  03 20  -21.0260 26014.2 -03504.1 -07.6715 26249.2
 07 11 2013  03 21  -21.0262 26014.2 -03504.1 -07.6716 26249.1
 07 11 2013  03 22  -21.0263 26014.1 -03504.1 -07.6716 26249.0
 07 11 2013  03 23  -21.0264 26014.1 -03504.1 -07.6716 26249.0
 07 11 2013  03 24  -21.0265 26014.0 -03504.1 -07.6716 26249.0
 07 11 2013  03 25  -21.0267 26014.1 -03504.2 -07.6717 26249.0
 07 11 2013  03 26  -21.0267 26014.3 -03504.2 -07.6718 26249.2
 07 11 2013  03 27  -21.0267 26014.4 -03504.3 -07.6720 26249.4
 07 11 2013  03 28  -21.0266 26014.5 -03504.4 -07.6721 26249.5
 07 11 2013  03 29  -21.0268 26014.6 -03504.5 -07.6722 26249.6
 07 11 2013  03 30  -21.0269 26014.8 -03504.5 -07.6723 26249.7
 07 11 2013  03 31  -21.0268 26014.9 -03504.6 -07.6724 26249.9
 07 11 2013  03 32  -21.0270 26014.9 -03504.7 -07.6725 26249.9
 07 11 2013  03 33  -21.0272 26014.9 -03504.6 -07.6725 26249.9
 07 11 2013  03 34  -21.0273 26014.8 -03504.6 -07.6724 26249.8
 07 11 2013  03 35  -21.0276 26014.9 -03504.6 -07.6724 26249.9
 07 11 2013  03 36  -21.0280 26015.0 -03504.6 -07.6724 26250.0
 07 11 2013  03 37  -21.0283 26015.0 -03504.7 -07.6725 26250.0
 07 11 2013  03 38  -21.0286 26015.1 -03504.7 -07.6725 26250.1
 07 11 2013  03 39  -21.0291 26015.3 -03504.8 -07.6726 26250.3
 07 11 2013  03 40  -21.0296 26015.6 -03504.9 -07.6728 26250.7
 07 11 2013  03 41  -21.0300 26015.9 -03505.0 -07.6729 26251.0
 07 11 2013  03 42  -21.0305 26016.1 -03505.1 -07.6730 26251.2
 07 11 2013  03 43  -21.0307 26016.1 -03505.0 -07.6729 26251.1
 07 11 2013  03 44  -21.0305 26016.0 -03504.9 -07.6727 26251.0
 07 11 2013  03 45  -21.0305 26015.8 -03504.7 -07.6724 26250.8
 07 11 2013  03 46  -21.0306 26015.6 -03504.6 -07.6722 26250.6
 07 11 2013  03 47  -21.0307 26015.5 -03504.5 -07.6720 26250.5
 07 11 2013  03 48  -21.0303 26015.3 -03504.4 -07.6718 26250.3
 07 11 2013  03 49  -21.0301 26015.1 -03504.3 -07.6716 26250.1
 07 11 2013  03 50  -21.0300 26015.1 -03504.2 -07.6716 26250.0
 07 11 2013  03 51  -21.0299 26015.3 -03504.4 -07.6718 26250.3
 07 11 2013  03 52  -21.0302 26015.4 -03504.5 -07.6720 26250.4
 07 11 2013  03 53  -21.0304 26015.8 -03504.7 -07.6723 26250.8
 07 11 2013  03 54  -21.0305 26015.7 -03504.7 -07.6724 26250.7
 07 11 2013  03 55  -21.0305 26015.9 -03504.7 -07.6724 26250.9
 07 11 2013  03 56  -21.0309 26015.9 -03504.8 -07.6725 26250.9
 07 11 2013  03 57  -21.0310 26016.0 -03504.8 -07.6725 26251.1
 07 11 2013  03 58  -21.0311 26016.2 -03504.9 -07.6727 26251.3
 07 11 2013  03 59  -21.0313 26016.4 -03505.0 -07.6728 26251.5
 07 11 2013  04 00  -21.0316 26016.4 -03504.9 -07.6727 26251.4
 07 11 2013  04 01  -21.0317 26016.4 -03505.0 -07.6727 26251.4
 07 11 2013  04 02  -21.0317 26016.4 -03504.9 -07.6727 26251.4
 07 11 2013  04 03  -21.0315 26016.4 -03504.9 -07.6726 26251.5
 07 11 2013  04 04  -21.0316 26016.3 -03504.8 -07.6724 26251.3
 07 11 2013  04 05  -21.0315 26016.3 -03504.8 -07.6724 26251.3
 07 11 2013  04 06  -21.0315 26016.2 -03504.7 -07.6722 26251.2
 07 11 2013  04 07  -21.0315 26016.1 -03504.6 -07.6721 26251.1
 07 11 2013  04 08  -21.0315 26016.1 -03504.6 -07.6720 26251.1
 07 11 2013  04 09  -21.0316 26016.1 -03504.6 -07.6720 26251.1
 07 11 2013  04 10  -21.0322 26016.0 -03504.5 -07.6720 26251.0
 07 11 2013  04 11  -21.0325 26016.0 -03504.5 -07.6719 26251.0
 07 11 2013  04 12  -21.0328 26016.1 -03504.5 -07.6719 26251.1
 07 11 2013  04 13  -21.0330 26016.0 -03504.5 -07.6718 26251.0
 07 11 2013  04 14  -21.0330 26015.9 -03504.4 -07.6716 26250.9
 07 11 2013  04 15  -21.0330 26015.7 -03504.3 -07.6714 26250.7
 07 11 2013  04 16  -21.0333 26015.5 -03504.2 -07.6713 26250.4
 07 11 2013  04 17  -21.0337 26015.4 -03504.1 -07.6711 26250.3
 07 11 2013  04 18  -21.0340 26015.2 -03504.0 -07.6710 26250.1
 07 11 2013  04 19  -21.0342 26015.1 -03503.9 -07.6707 26250.0
 07 11 2013  04 20  -21.0344 26015.0 -03503.8 -07.6707 26249.9
 07 11 2013  04 21  -21.0345 26015.0 -03503.8 -07.6707 26249.9
 07 11 2013  04 22  -21.0347 26015.0 -03503.8 -07.6706 26249.9
 07 11 2013  04 23  -21.0349 26015.0 -03503.8 -07.6706 26249.9
 07 11 2013  04 24  -21.0352 26015.1 -03503.9 -07.6707 26250.0
 07 11 2013  04 25  -21.0351 26015.1 -03503.9 -07.6707 26250.0
 07 11 2013  04 26  -21.0351 26015.1 -03503.8 -07.6707 26250.0
 07 11 2013  04 27  -21.0352 26015.1 -03503.8 -07.6707 26250.0
 07 11 2013  04 28  -21.0354 26015.3 -03503.9 -07.6707 26250.2
 07 11 2013  04 29  -21.0354 26015.3 -03503.9 -07.6708 26250.2
 07 11 2013  04 30  -21.0354 26015.3 -03503.9 -07.6707 26250.2
 07 11 2013  04 31  -21.0353 26015.3 -03503.9 -07.6707 26250.2
 07 11 2013  04 32  -21.0352 26015.2 -03503.9 -07.6707 26250.1
 07 11 2013  04 33  -21.0349 26015.4 -03503.9 -07.6707 26250.3
 07 11 2013  04 34  -21.0347 26015.5 -03503.9 -07.6708 26250.4
 07 11 2013  04 35  -21.0345 26015.5 -03503.9 -07.6708 26250.4
 07 11 2013  04 36  -21.0342 26015.5 -03504.0 -07.6709 26250.4
 07 11 2013  04 37  -21.0337 26015.5 -03504.0 -07.6709 26250.4
 07 11 2013  04 38  -21.0334 26015.5 -03504.0 -07.6709 26250.4
 07 11 2013  04 39  -21.0333 26015.4 -03504.0 -07.6709 26250.3
 07 11 2013  04 40  -21.0330 26015.3 -03504.0 -07.6709 26250.2
 07 11 2013  04 41  -21.0327 26015.0 -03503.9 -07.6708 26249.9
 07 11 2013  04 42  -21.0324 26014.8 -03503.8 -07.6706 26249.7
 07 11 2013  04 43  -21.0323 26014.6 -03503.7 -07.6706 26249.5
 07 11 2013  04 44  -21.0328 26014.6 -03503.8 -07.6707 26249.5
 07 11 2013  04 45  -21.0329 26014.9 -03504.0 -07.6711 26249.8
 07 11 2013  04 46  -21.0330 26014.9 -03504.1 -07.6713 26249.9
 07 11 2013  04 47  -21.0330 26014.7 -03504.0 -07.6712 26249.7
 07 11 2013  04 48  -21.0333 26014.5 -03503.9 -07.6710 26249.4
 07 11 2013  04 49  -21.0334 26014.2 -03503.8 -07.6709 26249.1
 07 11 2013  04 50  -21.0333 26014.0 -03503.7 -07.6706 26248.8
 07 11 2013  04 51  -21.0329 26013.6 -03503.5 -07.6704 26248.5
 07 11 2013  04 52  -21.0330 26013.4 -03503.4 -07.6702 26248.2
 07 11 2013  04 53  -21.0332 26013.3 -03503.4 -07.6703 26248.2
 07 11 2013  04 54  -21.0334 26013.2 -03503.5 -07.6704 26248.1
 07 11 2013  04 55  -21.0338 26013.0 -03503.5 -07.6705 26247.9
 07 11 2013  04 56  -21.0342 26012.8 -03503.3 -07.6703 26247.6
 07 11 2013  04 57  -21.0343 26012.5 -03503.3 -07.6702 26247.3
 07 11 2013  04 58  -21.0346 26012.3 -03503.2 -07.6701 26247.2
 07 11 2013  04 59  -21.0353 26012.1 -03503.2 -07.6701 26247.0
 07 11 2013  05 00  -21.0357 26012.2 -03503.2 -07.6702 26247.1
 07 11 2013  05 01  -21.0366 26012.2 -03503.3 -07.6703 26247.1
 07 11 2013  05 02  -21.0371 26012.6 -03503.5 -07.6706 26247.5
 07 11 2013  05 03  -21.0380 26012.8 -03503.6 -07.6709 26247.7
 07 11 2013  05 04  -21.0389 26013.3 -03503.8 -07.6712 26248.2
 07 11 2013  05 05  -21.0397 26013.6 -03503.9 -07.6713 26248.5
 07 11 2013  05 06  -21.0404 26013.7 -03503.9 -07.6713 26248.6
 07 11 2013  05 07  -21.0410 26013.7 -03503.9 -07.6713 26248.7
 07 11 2013  05 08  -21.0413 26013.8 -03503.9 -07.6711 26248.7
 07 11 2013  05 09  -21.0416 26013.7 -03503.7 -07.6708 26248.6
 07 11 2013  05 10  -21.0419 26013.6 -03503.7 -07.6707 26248.5
 07 11 2013  05 11  -21.0422 26013.7 -03503.6 -07.6706 26248.6
 07 11 2013  05 12  -21.0426 26013.7 -03503.6 -07.6706 26248.6
 07 11 2013  05 13  -21.0429 26013.6 -03503.5 -07.6705 26248.4
 07 11 2013  05 14  -21.0429 26013.4 -03503.3 -07.6701 26248.2
 07 11 2013  05 15  -21.0432 26013.3 -03503.3 -07.6700 26248.2
 07 11 2013  05 16  -21.0433 26013.5 -03503.3 -07.6700 26248.3
 07 11 2013  05 17  -21.0440 26014.0 -03503.5 -07.6703 26248.8
 07 11 2013  05 18  -21.0448 26014.5 -03503.8 -07.6708 26249.4
 07 11 2013  05 19  -21.0453 26014.5 -03503.8 -07.6708 26249.4
 07 11 2013  05 20  -21.0457 26014.9 -03503.9 -07.6710 26249.8
 07 11 2013  05 21  -21.0463 26014.8 -03503.9 -07.6708 26249.8
 07 11 2013  05 22  -21.0462 26015.0 -03503.8 -07.6706 26249.9
 07 11 2013  05 23  -21.0469 26015.4 -03504.0 -07.6709 26250.3
 07 11 2013  05 24  -21.0474 26015.8 -03504.1 -07.6710 26250.7
 07 11 2013  05 25  -21.0478 26016.0 -03504.1 -07.6710 26251.0
 07 11 2013  05 26  -21.0483 26016.1 -03504.1 -07.6709 26251.1
 07 11 2013  05 27  -21.0484 26015.8 -03503.9 -07.6706 26250.7
 07 11 2013  05 28  -21.0485 26015.8 -03503.7 -07.6702 26250.6
 07 11 2013  05 29  -21.0483 26015.4 -03503.5 -07.6698 26250.3
 07 11 2013  05 30  -21.0483 26015.4 -03503.4 -07.6696 26250.3
 07 11 2013  05 31  -21.0485 26015.6 -03503.4 -07.6697 26250.4
 07 11 2013  05 32  -21.0483 26016.4 -03503.8 -07.6702 26251.3
 07 11 2013  05 33  -21.0479 26017.0 -03504.0 -07.6706 26251.9
 07 11 2013  05 34  -21.0473 26017.2 -03504.1 -07.6708 26252.1
 07 11 2013  05 35  -21.0478 26017.5 -03504.3 -07.6710 26252.5
 07 11 2013  05 36  -21.0477 26018.0 -03504.5 -07.6714 26252.9
 07 11 2013  05 37  -21.0470 26018.2 -03504.6 -07.6714 26253.2
 07 11 2013  05 38  -21.0459 26018.6 -03504.7 -07.6715 26253.6
 07 11 2013  05 39  -21.0452 26019.1 -03504.9 -07.6718 26254.1
 07 11 2013  05 40  -21.0447 26019.8 -03505.2 -07.6723 26254.9
 07 11 2013  05 41  -21.0440 26020.3 -03505.5 -07.6727 26255.4
 07 11 2013  05 42  -21.0425 26020.8 -03505.6 -07.6728 26255.8
 07 11 2013  05 43  -21.0409 26020.9 -03505.6 -07.6728 26256.0
 07 11 2013  05 44  -21.0393 26020.9 -03505.6 -07.6728 26256.0
 07 11 2013  05 45  -21.0377 26021.0 -03505.6 -07.6728 26256.0
 07 11 2013  05 46  -21.0359 26021.3 -03505.7 -07.6730 26256.4
 07 11 2013  05 47  -21.0347 26021.5 -03505.8 -07.6732 26256.6
 07 11 2013  05 48  -21.0337 26021.7 -03506.0 -07.6735 26256.9
 07 11 2013  05 49  -21.0327 26021.9 -03506.2 -07.6738 26257.1
 07 11 2013  05 50  -21.0314 26021.9 -03506.2 -07.6738 26257.1
 07 11 2013  05 51  -21.0304 26022.0 -03506.3 -07.6740 26257.2
 07 11 2013  05 52  -21.0293 26022.1 -03506.4 -07.6742 26257.3
 07 11 2013  05 53  -21.0289 26022.2 -03506.6 -07.6745 26257.4
 07 11 2013  05 54  -21.0283 26022.2 -03506.6 -07.6747 26257.4
 07 11 2013  05 55  -21.0277 26022.3 -03506.8 -07.6749 26257.5
 07 11 2013  05 56  -21.0268 26022.4 -03506.8 -07.6751 26257.6
 07 11 2013  05 57  -21.0255 26022.5 -03506.9 -07.6752 26257.7
 07 11 2013  05 58  -21.0244 26022.5 -03507.0 -07.6754 26257.7
 07 11 2013  05 59  -21.0233 26022.5 -03507.1 -07.6755 26257.7
 07 11 2013  06 00  -21.0225 26022.5 -03507.1 -07.6757 26257.7
 07 11 2013  06 01  -21.0216 26022.4 -03507.2 -07.6759 26257.6
 07 11 2013  06 02  -21.0214 26022.2 -03507.3 -07.6760 26257.5
 07 11 2013  06 03  -21.0213 26022.2 -03507.3 -07.6762 26257.5
 07 11 2013  06 04  -21.0214 26022.2 -03507.4 -07.6763 26257.5
 07 11 2013  06 05  -21.0219 26022.2 -03507.5 -07.6766 26257.5
 07 11 2013  06 06  -21.0223 26022.2 -03507.6 -07.6767 26257.5
 07 11 2013  06 07  -21.0227 26022.2 -03507.6 -07.6768 26257.6
 07 11 2013  06 08  -21.0235 26022.4 -03507.7 -07.6768 26257.7
 07 11 2013  06 09  -21.0244 26022.5 -03507.8 -07.6771 26257.9
 07 11 2013  06 10  -21.0252 26022.5 -03507.7 -07.6770 26257.9
 07 11 2013  06 11  -21.0258 26022.7 -03507.8 -07.6770 26258.1
 07 11 2013  06 12  -21.0264 26022.8 -03507.8 -07.6770 26258.1
 07 11 2013  06 13  -21.0271 26022.7 -03507.6 -07.6767 26258.0
 07 11 2013  06 14  -21.0277 26022.6 -03507.6 -07.6765 26258.0
 07 11 2013  06 15  -21.0281 26022.3 -03507.3 -07.6761 26257.6
 07 11 2013  06 16  -21.0283 26021.9 -03507.0 -07.6756 26257.2
 07 11 2013  06 17  -21.0284 26021.8 -03506.9 -07.6753 26257.0
 07 11 2013  06 18  -21.0284 26021.5 -03506.6 -07.6749 26256.7
 07 11 2013  06 19  -21.0283 26021.5 -03506.6 -07.6747 26256.7
 07 11 2013  06 20  -21.0285 26021.4 -03506.5 -07.6745 26256.6
 07 11 2013  06 21  -21.0291 26021.1 -03506.3 -07.6743 26256.3
 07 11 2013  06 22  -21.0296 26020.9 -03506.2 -07.6741 26256.0
 07 11 2013  06 23  -21.0300 26020.8 -03506.1 -07.6740 26256.0
 07 11 2013  06 24  -21.0305 26020.8 -03506.1 -07.6739 26255.9
 07 11 2013  06 25  -21.0307 26021.3 -03506.3 -07.6741 26256.5
 07 11 2013  06 26  -21.0310 26021.9 -03506.6 -07.6746 26257.1
 07 11 2013  06 27  -21.0312 26022.3 -03506.7 -07.6748 26257.5
 07 11 2013  06 28  -21.0314 26022.4 -03506.7 -07.6748 26257.6
 07 11 2013  06 29  -21.0316 26022.3 -03506.6 -07.6746 26257.5
 07 11 2013  06 30  -21.0318 26022.3 -03506.5 -07.6743 26257.5
 07 11 2013  06 31  -21.0320 26022.2 -03506.4 -07.6741 26257.4
 07 11 2013  06 32  -21.0323 26022.1 -03506.2 -07.6738 26257.2
 07 11 2013  06 33  -21.0320 26021.6 -03505.9 -07.6733 26256.7
 07 11 2013  06 34  -21.0311 26020.9 -03505.4 -07.6724 26255.9
 07 11 2013  06 35  -21.0305 26020.5 -03505.1 -07.6718 26255.5
 07 11 2013  06 36  -21.0302 26020.2 -03504.9 -07.6715 26255.2
 07 11 2013  06 37  -21.0304 26020.1 -03505.0 -07.6716 26255.1
 07 11 2013  06 38  -21.0305 26020.3 -03505.1 -07.6719 26255.4
 07 11 2013  06 39  -21.0305 26020.5 -03505.3 -07.6722 26255.5
 07 11 2013  06 40  -21.0303 26020.4 -03505.3 -07.6724 26255.5
 07 11 2013  06 41  -21.0302 26020.2 -03505.3 -07.6723 26255.2
 07 11 2013  06 42  -21.0302 26020.1 -03505.2 -07.6722 26255.1
 07 11 2013  06 43  -21.0304 26020.1 -03505.3 -07.6723 26255.2
 07 11 2013  06 44  -21.0308 26020.3 -03505.3 -07.6724 26255.3
 07 11 2013  06 45  -21.0315 26020.4 -03505.5 -07.6726 26255.5
 07 11 2013  06 46  -21.0322 26020.5 -03505.5 -07.6727 26255.6
 07 11 2013  06 47  -21.0328 26020.4 -03505.4 -07.6726 26255.5
 07 11 2013  06 48  -21.0332 26020.3 -03505.3 -07.6724 26255.3
 07 11 2013  06 49  -21.0335 26020.2 -03505.3 -07.6723 26255.3
 07 11 2013  06 50  -21.0339 26020.3 -03505.3 -07.6723 26255.4
 07 11 2013  06 51  -21.0346 26020.4 -03505.3 -07.6724 26255.5
 07 11 2013  06 52  -21.0354 26020.7 -03505.4 -07.6725 26255.7
 07 11 2013  06 53  -21.0358 26020.9 -03505.5 -07.6725 26256.0
 07 11 2013  06 54  -21.0360 26021.1 -03505.5 -07.6726 26256.2
 07 11 2013  06 55  -21.0361 26021.2 -03505.5 -07.6725 26256.3
 07 11 2013  06 56  -21.0361 26021.2 -03505.4 -07.6723 26256.3
 07 11 2013  06 57  -21.0360 26020.9 -03505.2 -07.6719 26255.9
 07 11 2013  06 58  -21.0358 26020.7 -03505.0 -07.6716 26255.7
 07 11 2013  06 59  -21.0355 26020.5 -03504.8 -07.6712 26255.4
 07 11 2013  07 00  -21.0353 26020.5 -03504.8 -07.6712 26255.5
 07 11 2013  07 01  -21.0350 26020.4 -03504.8 -07.6712 26255.4
 07 11 2013  07 02  -21.0346 26020.3 -03504.7 -07.6710 26255.3
 07 11 2013  07 03  -21.0342 26020.4 -03504.7 -07.6710 26255.4
 07 11 2013  07 04  -21.0337 26020.6 -03504.7 -07.6710 26255.5
 07 11 2013  07 05  -21.0333 26020.8 -03504.9 -07.6713 26255.8
 07 11 2013  07 06  -21.0328 26021.0 -03505.0 -07.6714 26255.9
 07 11 2013  07 07  -21.0327 26020.7 -03504.9 -07.6713 26255.6
 07 11 2013  07 08  -21.0324 26020.4 -03504.7 -07.6711 26255.4
 07 11 2013  07 09  -21.0323 26020.3 -03504.6 -07.6709 26255.2
 07 11 2013  07 10  -21.0324 26020.1 -03504.6 -07.6708 26255.1
 07 11 2013  07 11  -21.0328 26020.0 -03504.5 -07.6707 26255.0
 07 11 2013  07 12  -21.0332 26020.0 -03504.5 -07.6706 26254.9
 07 11 2013  07 13  -21.0337 26020.0 -03504.5 -07.6706 26254.9
 07 11 2013  07 14  -21.0340 26020.1 -03504.5 -07.6707 26255.1
 07 11 2013  07 15  -21.0346 26020.3 -03504.7 -07.6710 26255.3
 07 11 2013  07 16  -21.0354 26020.5 -03504.8 -07.6711 26255.5
 07 11 2013  07 17  -21.0361 26020.7 -03504.9 -07.6713 26255.6
 07 11 2013  07 18  -21.0368 26020.9 -03504.9 -07.6714 26255.9
 07 11 2013  07 19  -21.0373 26021.1 -03505.0 -07.6715 26256.1
 07 11 2013  07 20  -21.0378 26020.9 -03504.9 -07.6713 26255.9
 07 11 2013  07 21  -21.0381 26020.7 -03504.7 -07.6710 26255.7
 07 11 2013  07 22  -21.0381 26020.4 -03504.5 -07.6706 26255.3
 07 11 2013  07 23  -21.0381 26019.9 -03504.2 -07.6701 26254.8
 07 11 2013  07 24  -21.0379 26019.4 -03503.9 -07.6695 26254.3
 07 11 2013  07 25  -21.0376 26019.0 -03503.6 -07.6691 26253.8
 07 11 2013  07 26  -21.0374 26018.7 -03503.5 -07.6688 26253.5
 07 11 2013  07 27  -21.0372 26018.8 -03503.5 -07.6689 26253.6
 07 11 2013  07 28  -21.0373 26019.0 -03503.7 -07.6692 26253.8
 07 11 2013  07 29  -21.0372 26019.2 -03503.9 -07.6696 26254.1
 07 11 2013  07 30  -21.0370 26019.4 -03504.0 -07.6698 26254.3
 07 11 2013  07 31  -21.0368 26019.5 -03504.1 -07.6700 26254.3
 07 11 2013  07 32  -21.0365 26019.4 -03504.1 -07.6700 26254.3
 07 11 2013  07 33  -21.0359 26019.3 -03504.1 -07.6700 26254.2
 07 11 2013  07 34  -21.0349 26019.0 -03503.9 -07.6697 26253.9
 07 11 2013  07 35  -21.0337 26018.6 -03503.7 -07.6695 26253.5
 07 11 2013  07 36  -21.0320 26018.2 -03503.6 -07.6692 26253.0
 07 11 2013  07 37  -21.0305 26017.9 -03503.5 -07.6691 26252.7
 07 11 2013  07 38  -21.0291 26017.8 -03503.5 -07.6693 26252.6
 07 11 2013  07 39  -21.0281 26018.1 -03503.8 -07.6697 26252.9
 07 11 2013  07 40  -21.0278 26018.2 -03504.1 -07.6702 26253.1
 07 11 2013  07 41  -21.0277 26018.2 -03504.2 -07.6706 26253.1
 07 11 2013  07 42  -21.0276 26018.3 -03504.4 -07.6710 26253.3
 07 11 2013  07 43  -21.0276 26018.5 -03504.6 -07.6714 26253.5
 07 11 2013  07 44  -21.0274 26018.6 -03504.8 -07.6717 26253.5
 07 11 2013  07 45  -21.0272 26018.6 -03504.8 -07.6718 26253.6
 07 11 2013  07 46  -21.0271 26018.6 -03504.9 -07.6719 26253.6
 07 11 2013  07 47  -21.0272 26018.6 -03505.0 -07.6721 26253.6
 07 11 2013  07 48  -21.0271 26018.6 -03505.0 -07.6722 26253.6
 07 11 2013  07 49  -21.0269 26018.4 -03504.9 -07.6721 26253.4
 07 11 2013  07 50  -21.0266 26018.5 -03505.0 -07.6723 26253.5
 07 11 2013  07 51  -21.0263 26018.6 -03505.1 -07.6725 26253.6
 07 11 2013  07 52  -21.0261 26018.7 -03505.2 -07.6727 26253.7
 07 11 2013  07 53  -21.0260 26018.7 -03505.3 -07.6728 26253.8
 07 11 2013  07 54  -21.0259 26018.7 -03505.4 -07.6730 26253.8
 07 11 2013  07 55  -21.0258 26018.7 -03505.4 -07.6731 26253.7
 07 11 2013  07 56  -21.0254 26018.6 -03505.4 -07.6730 26253.7
 07 11 2013  07 57  -21.0251 26018.6 -03505.4 -07.6731 26253.7
 07 11 2013  07 58  -21.0249 26018.5 -03505.4 -07.6731 26253.6
 07 11 2013  07 59  -21.0247 26018.5 -03505.5 -07.6733 26253.6
 07 11 2013  08 00  -21.0246 26018.1 -03505.4 -07.6732 26253.2
 07 11 2013  08 01  -21.0246 26017.7 -03505.3 -07.6730 26252.8
 07 11 2013  08 02  -21.0244 26017.6 -03505.3 -07.6730 26252.7
 07 11 2013  08 03  -21.0245 26017.9 -03505.4 -07.6734 26253.0
 07 11 2013  08 04  -21.0249 26018.4 -03505.8 -07.6740 26253.5
 07 11 2013  08 05  -21.0255 26018.7 -03506.1 -07.6745 26253.9
 07 11 2013  08 06  -21.0260 26018.8 -03506.2 -07.6748 26254.0
 07 11 2013  08 07  -21.0265 26018.6 -03506.1 -07.6746 26253.8
 07 11 2013  08 08  -21.0270 26018.1 -03505.8 -07.6741 26253.2
 07 11 2013  08 09  -21.0275 26017.6 -03505.5 -07.6735 26252.7
 07 11 2013  08 10  -21.0275 26017.4 -03505.3 -07.6732 26252.5
 07 11 2013  08 11  -21.0278 26017.3 -03505.2 -07.6730 26252.3
 07 11 2013  08 12  -21.0279 26017.0 -03505.1 -07.6728 26252.1
 07 11 2013  08 13  -21.0278 26016.7 -03504.8 -07.6724 26251.7
 07 11 2013  08 14  -21.0276 26016.3 -03504.6 -07.6721 26251.3
 07 11 2013  08 15  -21.0269 26016.2 -03504.5 -07.6718 26251.2
 07 11 2013  08 16  -21.0262 26016.3 -03504.5 -07.6718 26251.3
 07 11 2013  08 17  -21.0255 26016.4 -03504.5 -07.6718 26251.4
 07 11 2013  08 18  -21.0251 26016.5 -03504.6 -07.6719 26251.4
 07 11 2013  08 19  -21.0246 26016.4 -03504.5 -07.6718 26251.4
 07 11 2013  08 20  -21.0239 26016.3 -03504.5 -07.6717 26251.3
 07 11 2013  08 21  -21.0234 26016.4 -03504.5 -07.6717 26251.4
 07 11 2013  08 22  -21.0230 26016.4 -03504.5 -07.6718 26251.4
 07 11 2013  08 23  -21.0225 26016.3 -03504.4 -07.6717 26251.3
 07 11 2013  08 24  -21.0219 26016.2 -03504.4 -07.6716 26251.2
 07 11 2013  08 25  -21.0209 26016.1 -03504.4 -07.6716 26251.0
 07 11 2013  08 26  -21.0204 26016.1 -03504.4 -07.6716 26251.1
 07 11 2013  08 27  -21.0199 26016.0 -03504.4 -07.6717 26250.9
 07 11 2013  08 28  -21.0190 26015.9 -03504.5 -07.6718 26250.9
 07 11 2013  08 29  -21.0180 26015.9 -03504.6 -07.6720 26250.9
 07 11 2013  08 30  -21.0168 26015.9 -03504.7 -07.6723 26250.9
 07 11 2013  08 31  -21.0157 26015.8 -03504.8 -07.6725 26250.8
 07 11 2013  08 32  -21.0147 26015.8 -03505.0 -07.6729 26250.9
 07 11 2013  08 33  -21.0139 26016.0 -03505.3 -07.6735 26251.0
 07 11 2013  08 34  -21.0132 26016.1 -03505.6 -07.6742 26251.2
 07 11 2013  08 35  -21.0125 26016.3 -03506.0 -07.6749 26251.5
 07 11 2013  08 36  -21.0124 26016.5 -03506.3 -07.6756 26251.7
 07 11 2013  08 37  -21.0131 26016.5 -03506.6 -07.6763 26251.7
 07 11 2013  08 38  -21.0137 26016.5 -03506.8 -07.6768 26251.8
 07 11 2013  08 39  -21.0142 26016.5 -03507.0 -07.6772 26251.8
 07 11 2013  08 40  -21.0149 26016.7 -03507.2 -07.6775 26252.1
 07 11 2013  08 41  -21.0153 26016.9 -03507.4 -07.6779 26252.3
 07 11 2013  08 42  -21.0155 26016.9 -03507.6 -07.6782 26252.3
 07 11 2013  08 43  -21.0156 26017.0 -03507.6 -07.6783 26252.4
 07 11 2013  08 44  -21.0158 26016.9 -03507.7 -07.6784 26252.3
 07 11 2013  08 45  -21.0161 26016.9 -03507.7 -07.6786 26252.3
 07 11 2013  08 46  -21.0163 26016.8 -03507.8 -07.6787 26252.2
 07 11 2013  08 47  -21.0167 26016.9 -03507.9 -07.6790 26252.3
 07 11 2013  08 48  -21.0170 26017.0 -03508.0 -07.6792 26252.4
 07 11 2013  08 49  -21.0168 26016.9 -03508.0 -07.6793 26252.3
 07 11 2013  08 50  -21.0167 26016.8 -03508.1 -07.6794 26252.3
 07 11 2013  08 51  -21.0170 26016.9 -03508.2 -07.6797 26252.4
 07 11 2013  08 52  -21.0172 26016.7 -03508.3 -07.6798 26252.1
 07 11 2013  08 53  -21.0173 26016.4 -03508.2 -07.6797 26251.8
 07 11 2013  08 54  -21.0173 26016.4 -03508.2 -07.6797 26251.8
 07 11 2013  08 55  -21.0170 26016.5 -03508.4 -07.6802 26251.9
 07 11 2013  08 56  -21.0165 26016.3 -03508.6 -07.6806 26251.8
 07 11 2013  08 57  -21.0164 26016.1 -03508.7 -07.6809 26251.7
 07 11 2013  08 58  -21.0165 26016.0 -03508.9 -07.6814 26251.6
 07 11 2013  08 59  -21.0168 26016.2 -03509.1 -07.6819 26251.8
 07 11 2013  09 00  -21.0174 26016.4 -03509.4 -07.6823 26252.0
 07 11 2013  09 01  -21.0181 26016.6 -03509.7 -07.6829 26252.3
 07 11 2013  09 02  -21.0186 26016.8 -03509.8 -07.6832 26252.5
 07 11 2013  09 03  -21.0195 26016.9 -03509.9 -07.6833 26252.6
 07 11 2013  09 04  -21.0204 26016.9 -03509.9 -07.6833 26252.5
 07 11 2013  09 05  -21.0210 26016.8 -03509.8 -07.6832 26252.5
 07 11 2013  09 06  -21.0218 26016.8 -03509.8 -07.6831 26252.4
 07 11 2013  09 07  -21.0221 26016.8 -03509.8 -07.6830 26252.5
 07 11 2013  09 08  -21.0228 26016.8 -03509.7 -07.6830 26252.4
 07 11 2013  09 09  -21.0234 26016.9 -03509.8 -07.6830 26252.6
 07 11 2013  09 10  -21.0227 26016.7 -03509.4 -07.6822 26252.3
 07 11 2013  09 11  -21.0224 26016.6 -03509.6 -07.6827 26252.2
 07 11 2013  09 12  -21.0223 26016.8 -03509.7 -07.6829 26252.4
 07 11 2013  09 13  -21.0228 26017.0 -03509.8 -07.6831 26252.6
 07 11 2013  09 14  -21.0233 26017.4 -03510.2 -07.6838 26253.1
 07 11 2013  09 15  -21.0237 26017.8 -03510.4 -07.6841 26253.6
 07 11 2013  09 16  -21.0248 26018.2 -03510.5 -07.6843 26254.0
 07 11 2013  09 17  -21.0259 26018.8 -03510.7 -07.6844 26254.5
 07 11 2013  09 18  -21.0266 26019.0 -03510.7 -07.6843 26254.8
 07 11 2013  09 19  -21.0269 26018.6 -03510.4 -07.6838 26254.3
 07 11 2013  09 20  -21.0265 26018.1 -03510.1 -07.6833 26253.8
 07 11 2013  09 21  -21.0260 26017.7 -03509.9 -07.6830 26253.4
 07 11 2013  09 22  -21.0263 26017.9 -03510.0 -07.6833 26253.6
 07 11 2013  09 23  -21.0262 26017.8 -03510.1 -07.6834 26253.5
 07 11 2013  09 24  -21.0265 26017.7 -03510.1 -07.6835 26253.4
 07 11 2013  09 25  -21.0265 26017.8 -03510.2 -07.6837 26253.5
 07 11 2013  09 26  -21.0274 26018.1 -03510.5 -07.6842 26253.9
 07 11 2013  09 27  -21.0279 26018.4 -03510.7 -07.6845 26254.2
 07 11 2013  09 28  -21.0281 26018.2 -03510.6 -07.6844 26254.0
 07 11 2013  09 29  -21.0291 26018.3 -03510.7 -07.6845 26254.1
 07 11 2013  09 30  -21.0296 26018.5 -03510.7 -07.6846 26254.3
 07 11 2013  09 31  -21.0309 26018.8 -03510.9 -07.6849 26254.6
 07 11 2013  09 32  -21.0322 26019.2 -03511.1 -07.6852 26255.0
 07 11 2013  09 33  -21.0329 26019.4 -03511.1 -07.6852 26255.2
 07 11 2013  09 34  -21.0333 26019.5 -03511.0 -07.6849 26255.3
 07 11 2013  09 35  -21.0331 26020.0 -03511.0 -07.6848 26255.9
 07 11 2013  09 36  -21.0330 26020.1 -03510.9 -07.6846 26255.9
 07 11 2013  09 37  -21.0332 26020.2 -03510.9 -07.6844 26255.9
 07 11 2013  09 38  -21.0341 26020.0 -03510.8 -07.6843 26255.8
 07 11 2013  09 39  -21.0348 26020.1 -03510.8 -07.6842 26255.9
 07 11 2013  09 40  -21.0358 26020.0 -03510.7 -07.6840 26255.8
 07 11 2013  09 41  -21.0363 26019.8 -03510.4 -07.6836 26255.6
 07 11 2013  09 42  -21.0363 26019.6 -03510.2 -07.6832 26255.3
 07 11 2013  09 43  -21.0366 26019.5 -03510.1 -07.6830 26255.2
 07 11 2013  09 44  -21.0376 26019.3 -03510.1 -07.6830 26255.0
 07 11 2013  09 45  -21.0375 26018.3 -03509.8 -07.6826 26253.9
 07 11 2013  09 46  -21.0374 26017.4 -03509.5 -07.6824 26253.1
 07 11 2013  09 47  -21.0389 26017.0 -03509.6 -07.6826 26252.7
 07 11 2013  09 48  -21.0401 26016.9 -03509.7 -07.6829 26252.5
 07 11 2013  09 49  -21.0406 26017.0 -03509.9 -07.6832 26252.7
 07 11 2013  09 50  -21.0419 26017.2 -03510.0 -07.6834 26252.9
 07 11 2013  09 51  -21.0429 26017.5 -03510.0 -07.6834 26253.2
 07 11 2013  09 52  -21.0431 26017.3 -03509.8 -07.6830 26253.0
 07 11 2013  09 53  -21.0423 26016.9 -03509.5 -07.6825 26252.5
 07 11 2013  09 54  -21.0423 26016.7 -03509.4 -07.6823 26252.3
 07 11 2013  09 55  -21.0417 26016.6 -03509.4 -07.6822 26252.2
 07 11 2013  09 56  -21.0414 26017.1 -03509.5 -07.6823 26252.7
 07 11 2013  09 57  -21.0412 26017.6 -03509.7 -07.6827 26253.3
 07 11 2013  09 58  -21.0410 26017.8 -03509.7 -07.6826 26253.5
 07 11 2013  09 59  -21.0409 26017.6 -03509.6 -07.6824 26253.3
 07 11 2013  10 00  -21.0418 26017.5 -03509.5 -07.6823 26253.1
 07 11 2013  10 01  -21.0415 26016.8 -03509.3 -07.6821 26252.4
 07 11 2013  10 02  -21.0416 26016.3 -03509.3 -07.6821 26251.9
 07 11 2013  10 03  -21.0409 26015.5 -03509.2 -07.6822 26251.1
 07 11 2013  10 04  -21.0395 26014.8 -03509.3 -07.6826 26250.4
 07 11 2013  10 05  -21.0391 26014.9 -03509.8 -07.6837 26250.6
 07 11 2013  10 06  -21.0399 26015.1 -03510.3 -07.6847 26250.9
 07 11 2013  10 07  -21.0412 26015.6 -03510.7 -07.6855 26251.4
 07 11 2013  10 08  -21.0405 26015.2 -03510.8 -07.6857 26251.1
 07 11 2013  10 09  -21.0401 26015.1 -03510.9 -07.6861 26251.0
 07 11 2013  10 10  -21.0411 26015.8 -03511.4 -07.6868 26251.7
 07 11 2013  10 11  -21.0404 26016.7 -03511.8 -07.6875 26252.6
 07 11 2013  10 12  -21.0407 26017.3 -03512.1 -07.6880 26253.3
 07 11 2013  10 13  -21.0421 26017.8 -03512.4 -07.6884 26253.8
 07 11 2013  10 14  -21.0413 26018.2 -03512.5 -07.6885 26254.2
 07 11 2013  10 15  -21.0400 26019.1 -03512.7 -07.6887 26255.1
 07 11 2013  10 16  -21.0393 26020.7 -03513.1 -07.6891 26256.8
 07 11 2013  10 17  -21.0388 26021.7 -03513.2 -07.6889 26257.8
 07 11 2013  10 18  -21.0393 26023.0 -03513.2 -07.6887 26259.1
 07 11 2013  10 19  -21.0420 26025.0 -03513.5 -07.6886 26261.1
 07 11 2013  10 20  -21.0446 26025.0 -03512.8 -07.6871 26261.0
 07 11 2013  10 21  -21.0426 26023.0 -03511.2 -07.6843 26258.9
 07 11 2013  10 22  -21.0394 26021.5 -03510.4 -07.6831 26257.2
 07 11 2013  10 23  -21.0359 26020.8 -03510.4 -07.6833 26256.6
 07 11 2013  10 24  -21.0350 26021.3 -03510.9 -07.6842 26257.1
 07 11 2013  10 25  -21.0339 26021.8 -03511.3 -07.6848 26257.7
 07 11 2013  10 26  -21.0340 26022.7 -03511.6 -07.6853 26258.6
 07 11 2013  10 27  -21.0350 26023.7 -03511.9 -07.6856 26259.6
 07 11 2013  10 28  -21.0359 26024.5 -03512.0 -07.6856 26260.4
 07 11 2013  10 29  -21.0362 26024.9 -03511.9 -07.6852 26260.8
 07 11 2013  10 30  -21.0363 26024.6 -03511.4 -07.6843 26260.4
 07 11 2013  10 31  -21.0353 26024.4 -03511.1 -07.6837 26260.2
 07 11 2013  10 32  -21.0349 26023.8 -03510.7 -07.6831 26259.5
 07 11 2013  10 33  -21.0348 26023.3 -03510.5 -07.6827 26259.0
 07 11 2013  10 34  -21.0351 26022.8 -03510.5 -07.6828 26258.5
 07 11 2013  10 35  -21.0350 26022.5 -03510.5 -07.6830 26258.2
 07 11 2013  10 36  -21.0350 26022.5 -03510.7 -07.6835 26258.3
 07 11 2013  10 37  -21.0350 26022.4 -03510.8 -07.6837 26258.2
 07 11 2013  10 38  -21.0322 26022.2 -03510.8 -07.6836 26257.9
 07 11 2013  10 39  -21.0285 26024.1 -03511.6 -07.6849 26260.0
 07 11 2013  10 40  -21.0279 26027.0 -03513.0 -07.6870 26263.0
 07 11 2013  10 41  -21.0281 26029.4 -03513.6 -07.6877 26265.5
 07 11 2013  10 42  -21.0293 26032.1 -03514.0 -07.6876 26268.2
 07 11 2013  10 43  -21.0291 26034.9 -03514.2 -07.6873 26271.0
 07 11 2013  10 44  -21.0280 26037.0 -03514.1 -07.6864 26273.1
 07 11 2013  10 45  -21.0288 26039.3 -03514.1 -07.6859 26275.4
 07 11 2013  10 46  -21.0274 26040.4 -03513.6 -07.6844 26276.4
 07 11 2013  10 47  -21.0265 26040.0 -03512.7 -07.6825 26275.9
 07 11 2013  10 48  -21.0252 26039.9 -03512.0 -07.6812 26275.7
 07 11 2013  10 49  -21.0235 26040.6 -03511.9 -07.6806 26276.3
 07 11 2013  10 50  -21.0233 26040.3 -03511.4 -07.6797 26276.0
 07 11 2013  10 51  -21.0220 26040.1 -03511.0 -07.6788 26275.7
 07 11 2013  10 52  -21.0217 26040.4 -03510.9 -07.6785 26276.0
 07 11 2013  10 53  -21.0228 26040.5 -03510.7 -07.6782 26276.1
 07 11 2013  10 54  -21.0231 26040.4 -03510.5 -07.6777 26275.9
 07 11 2013  10 55  -21.0232 26039.6 -03510.0 -07.6769 26275.1
 07 11 2013  10 56  -21.0236 26039.4 -03509.8 -07.6766 26274.9
 07 11 2013  10 57  -21.0272 26037.3 -03508.9 -07.6751 26272.7
 07 11 2013  10 58  -21.0289 26032.6 -03506.8 -07.6719 26267.8
 07 11 2013  10 59  -21.0290 26028.5 -03505.6 -07.6706 26263.5
 07 11 2013  11 00  -21.0282 26027.9 -03506.6 -07.6729 26263.1
 07 11 2013  11 01  -21.0254 26031.2 -03508.7 -07.6765 26266.6
 07 11 2013  11 02  -21.0222 26032.6 -03509.3 -07.6773 26268.0
 07 11 2013  11 03  -21.0252 26029.4 -03507.7 -07.6749 26264.7
 07 11 2013  11 04  -21.0267 26026.8 -03506.5 -07.6731 26262.0
 07 11 2013  11 05  -21.0274 26024.8 -03506.0 -07.6726 26259.9
 07 11 2013  11 06  -21.0299 26022.7 -03505.9 -07.6730 26257.9
 07 11 2013  11 07  -21.0321 26022.3 -03506.6 -07.6745 26257.5
 07 11 2013  11 08  -21.0332 26022.2 -03507.1 -07.6757 26257.4
 07 11 2013  11 09  -21.0348 26021.4 -03507.3 -07.6763 26256.7
 07 11 2013  11 10  -21.0350 26021.2 -03507.6 -07.6771 26256.6
 07 11 2013  11 11  -21.0350 26021.9 -03508.3 -07.6783 26257.4
 07 11 2013  11 12  -21.0348 26022.7 -03508.7 -07.6790 26258.2
 07 11 2013  11 13  -21.0349 26022.8 -03508.5 -07.6786 26258.3
 07 11 2013  11 14  -21.0353 26024.9 -03509.2 -07.6794 26260.4
 07 11 2013  11 15  -21.0348 26026.4 -03509.3 -07.6793 26261.9
 07 11 2013  11 16  -21.0345 26026.5 -03509.0 -07.6786 26262.0
 07 11 2013  11 17  -21.0313 26029.9 -03510.2 -07.6801 26265.5
 07 11 2013  11 18  -21.0280 26033.1 -03510.9 -07.6807 26268.8
 07 11 2013  11 19  -21.0275 26038.0 -03511.9 -07.6815 26273.7
 07 11 2013  11 20  -21.0276 26040.9 -03511.9 -07.6807 26276.7
 07 11 2013  11 21  -21.0273 26041.7 -03511.0 -07.6785 26277.3
 07 11 2013  11 22  -21.0266 26042.6 -03510.4 -07.6768 26278.1
 07 11 2013  11 23  -21.0276 26042.9 -03509.6 -07.6751 26278.3
 07 11 2013  11 24  -21.0290 26042.7 -03508.8 -07.6734 26278.0
 07 11 2013  11 25  -21.0298 26043.3 -03508.5 -07.6726 26278.6
 07 11 2013  11 26  -21.0304 26043.2 -03508.0 -07.6715 26278.4
 07 11 2013  11 27  -21.0303 26043.2 -03507.6 -07.6707 26278.4
 07 11 2013  11 28  -21.0307 26043.9 -03507.6 -07.6704 26279.1
 07 11 2013  11 29  -21.0317 26043.5 -03507.1 -07.6695 26278.6
 07 11 2013  11 30  -21.0318 26044.2 -03507.1 -07.6692 26279.2
 07 11 2013  11 31  -21.0309 26044.5 -03507.0 -07.6690 26279.6
 07 11 2013  11 32  -21.0297 26043.6 -03506.4 -07.6679 26278.6
 07 11 2013  11 33  -21.0287 26045.8 -03507.2 -07.6689 26280.9
 07 11 2013  11 34  -21.0292 26047.0 -03507.4 -07.6691 26282.1
 07 11 2013  11 35  -21.0320 26042.2 -03505.1 -07.6655 26277.0
 07 11 2013  11 36  -21.0325 26040.7 -03504.5 -07.6647 26275.4
 07 11 2013  11 37  -21.0342 26038.3 -03504.0 -07.6642 26273.0
 07 11 2013  11 38  -21.0356 26036.4 -03503.6 -07.6639 26271.1
 07 11 2013  11 39  -21.0369 26036.0 -03504.1 -07.6653 26270.7
 07 11 2013  11 40  -21.0391 26035.2 -03504.5 -07.6664 26270.0
 07 11 2013  11 41  -21.0412 26035.0 -03505.0 -07.6675 26269.9
 07 11 2013  11 42  -21.0415 26035.5 -03505.7 -07.6687 26270.4
 07 11 2013  11 43  -21.0408 26035.0 -03505.8 -07.6691 26270.0
 07 11 2013  11 44  -21.0393 26034.9 -03506.0 -07.6695 26269.9
 07 11 2013  11 45  -21.0380 26035.0 -03506.3 -07.6703 26270.1
 07 11 2013  11 46  -21.0368 26034.8 -03506.6 -07.6710 26269.9
 07 11 2013  11 47  -21.0354 26035.3 -03507.2 -07.6721 26270.4
 07 11 2013  11 48  -21.0355 26035.7 -03507.7 -07.6730 26270.9
 07 11 2013  11 49  -21.0375 26035.8 -03508.0 -07.6736 26271.0
 07 11 2013  11 50  -21.0373 26036.0 -03508.1 -07.6738 26271.3
 07 11 2013  11 51  -21.0387 26036.7 -03508.6 -07.6747 26272.0
 07 11 2013  11 52  -21.0411 26037.3 -03509.1 -07.6756 26272.7
 07 11 2013  11 53  -21.0413 26037.8 -03509.4 -07.6761 26273.3
 07 11 2013  11 54  -21.0398 26036.9 -03508.9 -07.6753 26272.3
 07 11 2013  11 55  -21.0380 26037.6 -03509.1 -07.6756 26273.0
 07 11 2013  11 56  -21.0350 26039.2 -03509.9 -07.6767 26274.6
 07 11 2013  11 57  -21.0342 26039.7 -03510.2 -07.6772 26275.2
 07 11 2013  11 58  -21.0332 26040.5 -03510.6 -07.6780 26276.1
 07 11 2013  11 59  -21.0330 26040.8 -03510.8 -07.6782 26276.4
 07 11 2013  12 00  -21.0320 26041.2 -03510.7 -07.6780 26276.8
 07 11 2013  12 01  -21.0305 26041.7 -03510.9 -07.6783 26277.3
 07 11 2013  12 02  -21.0302 26042.8 -03511.6 -07.6793 26278.5
 07 11 2013  12 03  -21.0307 26043.5 -03511.8 -07.6796 26279.2
 07 11 2013  12 04  -21.0315 26043.9 -03511.7 -07.6794 26279.6
 07 11 2013  12 05  -21.0324 26043.8 -03511.5 -07.6790 26279.5
 07 11 2013  12 06  -21.0328 26043.8 -03511.4 -07.6787 26279.4
 07 11 2013  12 07  -21.0331 26043.2 -03511.0 -07.6781 26278.9
 07 11 2013  12 08  -21.0337 26043.1 -03511.0 -07.6781 26278.7
 07 11 2013  12 09  -21.0346 26043.1 -03511.2 -07.6785 26278.8
 07 11 2013  12 10  -21.0356 26043.0 -03511.3 -07.6786 26278.7
 07 11 2013  12 11  -21.0356 26042.2 -03511.0 -07.6782 26277.8
 07 11 2013  12 12  -21.0353 26041.1 -03510.6 -07.6778 26276.7
 07 11 2013  12 13  -21.0347 26040.3 -03510.6 -07.6779 26275.9
 07 11 2013  12 14  -21.0344 26039.6 -03510.6 -07.6782 26275.2
 07 11 2013  12 15  -21.0343 26038.9 -03510.6 -07.6784 26274.5
 07 11 2013  12 16  -21.0325 26039.0 -03510.8 -07.6789 26274.6
 07 11 2013  12 17  -21.0308 26038.6 -03511.1 -07.6795 26274.2
 07 11 2013  12 18  -21.0305 26038.3 -03511.4 -07.6803 26274.0
 07 11 2013  12 19  -21.0305 26038.9 -03512.0 -07.6813 26274.7
 07 11 2013  12 20  -21.0302 26038.9 -03512.2 -07.6819 26274.7
 07 11 2013  12 21  -21.0301 26039.0 -03512.4 -07.6823 26274.8
 07 11 2013  12 22  -21.0305 26039.2 -03512.6 -07.6826 26275.1
 07 11 2013  12 23  -21.0309 26039.5 -03512.7 -07.6828 26275.3
 07 11 2013  12 24  -21.0308 26039.7 -03512.7 -07.6827 26275.5
 07 11 2013  12 25  -21.0303 26039.7 -03512.7 -07.6827 26275.6
 07 11 2013  12 26  -21.0296 26039.3 -03512.6 -07.6827 26275.2
 07 11 2013  12 27  -21.0290 26039.2 -03512.7 -07.6829 26275.0
 07 11 2013  12 28  -21.0291 26038.9 -03512.8 -07.6831 26274.8
 07 11 2013  12 29  -21.0299 26038.8 -03512.9 -07.6835 26274.7
 07 11 2013  12 30  -21.0311 26037.9 -03512.8 -07.6834 26273.8
 07 11 2013  12 31  -21.0339 26034.9 -03511.7 -07.6819 26270.6
 07 11 2013  12 32  -21.0373 26031.2 -03510.2 -07.6797 26266.8
 07 11 2013  12 33  -21.0393 26027.9 -03509.2 -07.6786 26263.4
 07 11 2013  12 34  -21.0416 26025.0 -03508.8 -07.6785 26260.5
 07 11 2013  12 35  -21.0439 26021.6 -03508.2 -07.6783 26257.0
 07 11 2013  12 36  -21.0449 26019.0 -03508.0 -07.6785 26254.5
 07 11 2013  12 37  -21.0456 26017.5 -03508.3 -07.6796 26253.0
 07 11 2013  12 38  -21.0461 26016.7 -03508.8 -07.6810 26252.2
 07 11 2013  12 39  -21.0461 26016.0 -03509.3 -07.6823 26251.7
 07 11 2013  12 40  -21.0467 26016.5 -03510.1 -07.6838 26252.2
 07 11 2013  12 41  -21.0472 26017.4 -03510.8 -07.6850 26253.2
 07 11 2013  12 42  -21.0475 26018.6 -03511.3 -07.6858 26254.4
 07 11 2013  12 43  -21.0476 26019.4 -03511.5 -07.6860 26255.2
 07 11 2013  12 44  -21.0482 26020.0 -03511.4 -07.6856 26255.9
 07 11 2013  12 45  -21.0489 26020.7 -03511.1 -07.6848 26256.5
 07 11 2013  12 46  -21.0490 26021.2 -03510.9 -07.6843 26257.0
 07 11 2013  12 47  -21.0489 26022.1 -03511.0 -07.6842 26257.9
 07 11 2013  12 48  -21.0486 26023.1 -03511.1 -07.6840 26258.9
 07 11 2013  12 49  -21.0485 26024.1 -03511.0 -07.6835 26259.9
 07 11 2013  12 50  -21.0481 26024.8 -03510.5 -07.6824 26260.5
 07 11 2013  12 51  -21.0481 26026.7 -03510.6 -07.6818 26262.4
 07 11 2013  12 52  -21.0479 26028.8 -03510.7 -07.6815 26264.5
 07 11 2013  12 53  -21.0465 26029.5 -03510.3 -07.6804 26265.2
 07 11 2013  12 54  -21.0450 26029.4 -03509.5 -07.6788 26264.9
 07 11 2013  12 55  -21.0434 26029.7 -03509.0 -07.6776 26265.1
 07 11 2013  12 56  -21.0422 26030.9 -03508.9 -07.6771 26266.4
 07 11 2013  12 57  -21.0413 26032.0 -03508.9 -07.6767 26267.5
 07 11 2013  12 58  -21.0400 26032.4 -03508.5 -07.6757 26267.8
 07 11 2013  12 59  -21.0389 26032.3 -03507.9 -07.6745 26267.5
 07 11 2013  13 00  -21.0382 26033.0 -03507.7 -07.6739 26268.2
 07 11 2013  13 01  -21.0379 26034.4 -03507.9 -07.6739 26269.6
 07 11 2013  13 02  -21.0377 26035.7 -03508.0 -07.6737 26270.9
 07 11 2013  13 03  -21.0373 26036.4 -03507.7 -07.6728 26271.6
 07 11 2013  13 04  -21.0372 26036.7 -03507.2 -07.6717 26271.8
 07 11 2013  13 05  -21.0376 26037.2 -03506.9 -07.6709 26272.3
 07 11 2013  13 06  -21.0382 26038.1 -03506.8 -07.6703 26273.2
 07 11 2013  13 07  -21.0387 26038.7 -03506.5 -07.6695 26273.7
 07 11 2013  13 08  -21.0394 26038.9 -03506.1 -07.6686 26273.9
 07 11 2013  13 09  -21.0398 26039.1 -03505.7 -07.6678 26274.0
 07 11 2013  13 10  -21.0400 26039.4 -03505.4 -07.6671 26274.3
 07 11 2013  13 11  -21.0396 26040.1 -03505.4 -07.6667 26275.0
 07 11 2013  13 12  -21.0394 26041.2 -03505.4 -07.6666 26276.1
 07 11 2013  13 13  -21.0394 26042.4 -03505.5 -07.6663 26277.2
 07 11 2013  13 14  -21.0393 26043.3 -03505.4 -07.6658 26278.1
 07 11 2013  13 15  -21.0391 26044.0 -03505.1 -07.6650 26278.8
 07 11 2013  13 16  -21.0385 26044.5 -03504.8 -07.6641 26279.3
 07 11 2013  13 17  -21.0379 26044.8 -03504.4 -07.6632 26279.5
 07 11 2013  13 18  -21.0373 26045.1 -03504.0 -07.6624 26279.7
 07 11 2013  13 19  -21.0368 26045.2 -03503.8 -07.6618 26279.8
 07 11 2013  13 20  -21.0364 26045.1 -03503.4 -07.6611 26279.7
 07 11 2013  13 21  -21.0363 26044.9 -03503.1 -07.6605 26279.5
 07 11 2013  13 22  -21.0363 26045.2 -03502.9 -07.6600 26279.7
 07 11 2013  13 23  -21.0371 26045.9 -03503.1 -07.6600 26280.4
 07 11 2013  13 24  -21.0382 26045.7 -03502.8 -07.6596 26280.2
 07 11 2013  13 25  -21.0394 26045.4 -03502.4 -07.6589 26279.8
 07 11 2013  13 26  -21.0407 26045.4 -03502.2 -07.6583 26279.8
 07 11 2013  13 27  -21.0417 26045.3 -03502.0 -07.6579 26279.6
 07 11 2013  13 28  -21.0423 26045.1 -03501.8 -07.6576 26279.4
 07 11 2013  13 29  -21.0429 26045.1 -03501.6 -07.6572 26279.5
 07 11 2013  13 30  -21.0434 26045.6 -03501.7 -07.6573 26280.0
 07 11 2013  13 31  -21.0437 26046.2 -03501.8 -07.6572 26280.6
 07 11 2013  13 32  -21.0435 26046.8 -03501.8 -07.6570 26281.1
 07 11 2013  13 33  -21.0436 26047.1 -03501.7 -07.6567 26281.4
 07 11 2013  13 34  -21.0439 26047.3 -03501.5 -07.6562 26281.5
 07 11 2013  13 35  -21.0442 26047.2 -03501.2 -07.6556 26281.4
 07 11 2013  13 36  -21.0448 26047.3 -03500.9 -07.6550 26281.5
 07 11 2013  13 37  -21.0454 26047.3 -03500.7 -07.6546 26281.5
 07 11 2013  13 38  -21.0459 26047.4 -03500.6 -07.6543 26281.6
 07 11 2013  13 39  -21.0462 26047.1 -03500.3 -07.6537 26281.3
 07 11 2013  13 40  -21.0461 26047.1 -03500.1 -07.6533 26281.2
 07 11 2013  13 41  -21.0463 26047.6 -03500.1 -07.6532 26281.7
 07 11 2013  13 42  -21.0465 26048.3 -03500.2 -07.6532 26282.4
 07 11 2013  13 43  -21.0467 26048.9 -03500.3 -07.6531 26283.1
 07 11 2013  13 44  -21.0469 26049.6 -03500.3 -07.6530 26283.7
 07 11 2013  13 45  -21.0467 26050.2 -03500.2 -07.6526 26284.3
 07 11 2013  13 46  -21.0462 26050.3 -03499.9 -07.6519 26284.4
 07 11 2013  13 47  -21.0455 26050.2 -03499.6 -07.6512 26284.3
 07 11 2013  13 48  -21.0451 26050.3 -03499.4 -07.6508 26284.3
 07 11 2013  13 49  -21.0446 26050.9 -03499.4 -07.6506 26284.9
 07 11 2013  13 50  -21.0443 26051.5 -03499.4 -07.6505 26285.5
 07 11 2013  13 51  -21.0444 26051.9 -03499.2 -07.6501 26285.8
 07 11 2013  13 52  -21.0451 26052.1 -03499.1 -07.6497 26286.0
 07 11 2013  13 53  -21.0454 26051.9 -03498.9 -07.6492 26285.8
 07 11 2013  13 54  -21.0453 26051.6 -03498.5 -07.6486 26285.4
 07 11 2013  13 55  -21.0454 26051.6 -03498.4 -07.6482 26285.4
 07 11 2013  13 56  -21.0460 26051.7 -03498.4 -07.6482 26285.6
 07 11 2013  13 57  -21.0465 26051.7 -03498.3 -07.6481 26285.6
 07 11 2013  13 58  -21.0466 26051.7 -03498.2 -07.6478 26285.5
 07 11 2013  13 59  -21.0465 26051.7 -03498.0 -07.6475 26285.5
 07 11 2013  14 00  -21.0465 26052.0 -03498.1 -07.6474 26285.8
 07 11 2013  14 01  -21.0467 26052.5 -03498.1 -07.6475 26286.3
 07 11 2013  14 02  -21.0468 26053.3 -03498.3 -07.6476 26287.1
 07 11 2013  14 03  -21.0470 26053.8 -03498.4 -07.6476 26287.6
 07 11 2013  14 04  -21.0468 26053.8 -03498.2 -07.6472 26287.6
 07 11 2013  14 05  -21.0463 26053.9 -03498.1 -07.6469 26287.6
 07 11 2013  14 06  -21.0457 26054.2 -03498.1 -07.6468 26288.0
 07 11 2013  14 07  -21.0453 26054.7 -03498.2 -07.6469 26288.5
 07 11 2013  14 08  -21.0454 26055.3 -03498.2 -07.6469 26289.1
 07 11 2013  14 09  -21.0454 26055.9 -03498.2 -07.6467 26289.6
 07 11 2013  14 10  -21.0447 26055.9 -03498.1 -07.6465 26289.6
 07 11 2013  14 11  -21.0441 26056.6 -03498.3 -07.6467 26290.4
 07 11 2013  14 12  -21.0439 26057.7 -03498.6 -07.6470 26291.5
 07 11 2013  14 13  -21.0444 26058.5 -03498.7 -07.6469 26292.4
 07 11 2013  14 14  -21.0450 26059.0 -03498.6 -07.6467 26292.9
 07 11 2013  14 15  -21.0454 26059.0 -03498.3 -07.6460 26292.7
 07 11 2013  14 16  -21.0451 26058.4 -03497.8 -07.6452 26292.1
 07 11 2013  14 17  -21.0445 26057.6 -03497.5 -07.6446 26291.3
 07 11 2013  14 18  -21.0442 26057.8 -03497.6 -07.6449 26291.5
 07 11 2013  14 19  -21.0446 26058.8 -03498.2 -07.6457 26292.6
 07 11 2013  14 20  -21.0457 26060.9 -03499.0 -07.6469 26294.7
 07 11 2013  14 21  -21.0472 26062.7 -03499.5 -07.6474 26296.5
 07 11 2013  14 22  -21.0486 26063.7 -03499.5 -07.6471 26297.6
 07 11 2013  14 23  -21.0494 26063.8 -03499.1 -07.6463 26297.7
 07 11 2013  14 24  -21.0494 26064.3 -03499.0 -07.6459 26298.1
 07 11 2013  14 25  -21.0500 26065.7 -03499.3 -07.6462 26299.5
 07 11 2013  14 26  -21.0515 26067.2 -03499.7 -07.6466 26301.1
 07 11 2013  14 27  -21.0532 26068.4 -03499.8 -07.6464 26302.3
 07 11 2013  14 28  -21.0543 26069.6 -03499.8 -07.6462 26303.5
 07 11 2013  14 29  -21.0536 26070.0 -03499.7 -07.6458 26303.8
 07 11 2013  14 30  -21.0525 26073.5 -03501.0 -07.6476 26307.5
 07 11 2013  14 31  -21.0531 26077.1 -03502.0 -07.6487 26311.2
 07 11 2013  14 32  -21.0530 26078.3 -03501.7 -07.6476 26312.4
 07 11 2013  14 33  -21.0509 26078.3 -03501.0 -07.6461 26312.3
 07 11 2013  14 34  -21.0478 26077.3 -03500.0 -07.6443 26311.1
 07 11 2013  14 35  -21.0455 26076.0 -03499.1 -07.6428 26309.7
 07 11 2013  14 36  -21.0442 26074.2 -03498.3 -07.6415 26307.8
 07 11 2013  14 37  -21.0439 26072.7 -03497.8 -07.6409 26306.3
 07 11 2013  14 38  -21.0438 26071.3 -03497.5 -07.6407 26304.9
 07 11 2013  14 39  -21.0436 26070.4 -03497.4 -07.6407 26303.9
 07 11 2013  14 40  -21.0441 26069.5 -03497.3 -07.6408 26303.0
 07 11 2013  14 41  -21.0444 26067.3 -03496.6 -07.6399 26300.8
 07 11 2013  14 42  -21.0445 26065.9 -03496.4 -07.6400 26299.4
 07 11 2013  14 43  -21.0442 26064.8 -03496.4 -07.6402 26298.2
 07 11 2013  14 44  -21.0443 26064.0 -03496.5 -07.6406 26297.5
 07 11 2013  14 45  -21.0447 26063.5 -03496.7 -07.6411 26297.0
 07 11 2013  14 46  -21.0450 26063.7 -03497.1 -07.6420 26297.3
 07 11 2013  14 47  -21.0453 26064.8 -03497.8 -07.6432 26298.4
 07 11 2013  14 48  -21.0456 26065.8 -03498.3 -07.6439 26299.5
 07 11 2013  14 49  -21.0459 26066.9 -03498.6 -07.6443 26300.6
 07 11 2013  14 50  -21.0465 26067.8 -03498.8 -07.6445 26301.6
 07 11 2013  14 51  -21.0466 26068.3 -03498.8 -07.6443 26302.1
 07 11 2013  14 52  -21.0465 26068.1 -03498.4 -07.6436 26301.8
 07 11 2013  14 53  -21.0463 26067.8 -03498.1 -07.6430 26301.4
 07 11 2013  14 54  -21.0458 26067.5 -03497.9 -07.6427 26301.2
 07 11 2013  14 55  -21.0456 26067.4 -03497.8 -07.6425 26301.1
 07 11 2013  14 56  -21.0456 26067.0 -03497.6 -07.6421 26300.6
 07 11 2013  14 57  -21.0456 26066.3 -03497.2 -07.6414 26299.9
 07 11 2013  14 58  -21.0453 26065.4 -03496.8 -07.6409 26298.9
 07 11 2013  14 59  -21.0450 26064.1 -03496.4 -07.6404 26297.6
 07 11 2013  15 00  -21.0445 26063.2 -03496.2 -07.6403 26296.6
 07 11 2013  15 01  -21.0435 26063.7 -03496.7 -07.6412 26297.2
 07 11 2013  15 02  -21.0430 26064.9 -03497.4 -07.6423 26298.5
 07 11 2013  15 03  -21.0431 26066.3 -03498.0 -07.6432 26300.0
 07 11 2013  15 04  -21.0441 26067.0 -03498.2 -07.6435 26300.7
 07 11 2013  15 05  -21.0446 26066.8 -03498.0 -07.6429 26300.5
 07 11 2013  15 06  -21.0445 26066.1 -03497.5 -07.6422 26299.7
 07 11 2013  15 07  -21.0441 26065.6 -03497.2 -07.6418 26299.1
 07 11 2013  15 08  -21.0442 26065.6 -03497.2 -07.6418 26299.1
 07 11 2013  15 09  -21.0448 26065.4 -03497.2 -07.6417 26299.0
 07 11 2013  15 10  -21.0453 26064.9 -03497.0 -07.6414 26298.4
 07 11 2013  15 11  -21.0455 26064.5 -03496.8 -07.6412 26298.0
 07 11 2013  15 12  -21.0454 26064.2 -03496.7 -07.6410 26297.7
 07 11 2013  15 13  -21.0455 26063.8 -03496.6 -07.6408 26297.3
 07 11 2013  15 14  -21.0459 26063.6 -03496.5 -07.6407 26297.1
 07 11 2013  15 15  -21.0461 26063.2 -03496.4 -07.6406 26296.7
 07 11 2013  15 16  -21.0466 26063.1 -03496.4 -07.6408 26296.6
 07 11 2013  15 17  -21.0472 26063.0 -03496.4 -07.6408 26296.5
 07 11 2013  15 18  -21.0476 26062.4 -03496.2 -07.6405 26295.9
 07 11 2013  15 19  -21.0477 26061.8 -03496.0 -07.6402 26295.3
 07 11 2013  15 20  -21.0478 26061.5 -03496.0 -07.6403 26295.0
 07 11 2013  15 21  -21.0483 26061.6 -03496.2 -07.6406 26295.1
 07 11 2013  15 22  -21.0485 26061.4 -03496.1 -07.6405 26294.8
 07 11 2013  15 23  -21.0488 26061.4 -03496.2 -07.6408 26294.9
 07 11 2013  15 24  -21.0492 26061.4 -03496.3 -07.6409 26294.9
 07 11 2013  15 25  -21.0494 26061.3 -03496.2 -07.6408 26294.8
 07 11 2013  15 26  -21.0501 26061.6 -03496.4 -07.6411 26295.1
 07 11 2013  15 27  -21.0508 26061.7 -03496.4 -07.6411 26295.2
 07 11 2013  15 28  -21.0514 26061.7 -03496.4 -07.6410 26295.2
 07 11 2013  15 29  -21.0521 26061.8 -03496.3 -07.6409 26295.3
 07 11 2013  15 30  -21.0528 26062.0 -03496.3 -07.6409 26295.5
 07 11 2013  15 31  -21.0538 26061.9 -03496.2 -07.6405 26295.4
 07 11 2013  15 32  -21.0547 26061.6 -03495.9 -07.6400 26295.0
 07 11 2013  15 33  -21.0558 26061.2 -03495.6 -07.6395 26294.6
 07 11 2013  15 34  -21.0561 26060.9 -03495.4 -07.6392 26294.2
 07 11 2013  15 35  -21.0566 26061.5 -03495.7 -07.6396 26294.9
 07 11 2013  15 36  -21.0575 26061.9 -03495.7 -07.6396 26295.3
 07 11 2013  15 37  -21.0583 26061.5 -03495.4 -07.6390 26294.9
 07 11 2013  15 38  -21.0593 26062.0 -03495.6 -07.6392 26295.3
 07 11 2013  15 39  -21.0602 26062.9 -03495.9 -07.6396 26296.4
 07 11 2013  15 40  -21.0609 26063.5 -03495.9 -07.6395 26296.9
 07 11 2013  15 41  -21.0612 26063.6 -03495.7 -07.6391 26297.0
 07 11 2013  15 42  -21.0616 26063.9 -03495.6 -07.6387 26297.2
 07 11 2013  15 43  -21.0622 26064.0 -03495.5 -07.6384 26297.4
 07 11 2013  15 44  -21.0633 26064.0 -03495.3 -07.6381 26297.3
 07 11 2013  15 45  -21.0640 26063.6 -03495.0 -07.6376 26296.9
 07 11 2013  15 46  -21.0644 26063.3 -03494.7 -07.6370 26296.6
 07 11 2013  15 47  -21.0649 26063.3 -03494.6 -07.6367 26296.5
 07 11 2013  15 48  -21.0650 26062.9 -03494.3 -07.6362 26296.1
 07 11 2013  15 49  -21.0652 26063.3 -03494.4 -07.6362 26296.5
 07 11 2013  15 50  -21.0657 26063.8 -03494.6 -07.6365 26297.1
 07 11 2013  15 51  -21.0656 26063.7 -03494.3 -07.6360 26296.9
 07 11 2013  15 52  -21.0660 26063.6 -03494.1 -07.6355 26296.7
 07 11 2013  15 53  -21.0662 26063.2 -03493.8 -07.6350 26296.3
 07 11 2013  15 54  -21.0662 26062.9 -03493.5 -07.6345 26296.0
 07 11 2013  15 55  -21.0655 26062.0 -03493.1 -07.6338 26295.1
 07 11 2013  15 56  -21.0650 26061.2 -03492.7 -07.6333 26294.3
 07 11 2013  15 57  -21.0655 26060.8 -03492.7 -07.6332 26293.8
 07 11 2013  15 58  -21.0656 26060.1 -03492.3 -07.6327 26293.0
 07 11 2013  15 59  -21.0656 26059.0 -03492.0 -07.6323 26291.9
 07 11 2013  16 00  -21.0655 26058.4 -03491.9 -07.6324 26291.3
 07 11 2013  16 01  -21.0656 26058.6 -03492.2 -07.6330 26291.5
 07 11 2013  16 02  -21.0657 26059.0 -03492.6 -07.6336 26292.0
 07 11 2013  16 03  -21.0660 26059.5 -03492.9 -07.6342 26292.6
 07 11 2013  16 04  -21.0662 26060.1 -03493.2 -07.6346 26293.1
 07 11 2013  16 05  -21.0667 26060.8 -03493.5 -07.6351 26293.9
 07 11 2013  16 06  -21.0670 26061.1 -03493.6 -07.6353 26294.2
 07 11 2013  16 07  -21.0668 26061.2 -03493.6 -07.6352 26294.4
 07 11 2013  16 08  -21.0676 26061.9 -03493.9 -07.6356 26295.0
 07 11 2013  16 09  -21.0684 26062.3 -03494.1 -07.6358 26295.4
 07 11 2013  16 10  -21.0686 26062.1 -03493.9 -07.6356 26295.2
 07 11 2013  16 11  -21.0686 26061.7 -03493.7 -07.6352 26294.9
 07 11 2013  16 12  -21.0680 26060.8 -03493.3 -07.6346 26293.9
 07 11 2013  16 13  -21.0682 26060.4 -03493.4 -07.6349 26293.5
 07 11 2013  16 14  -21.0689 26060.6 -03493.7 -07.6355 26293.7
 07 11 2013  16 15  -21.0693 26060.6 -03493.8 -07.6359 26293.8
 07 11 2013  16 16  -21.0699 26060.7 -03494.0 -07.6361 26293.8
 07 11 2013  16 17  -21.0709 26060.4 -03493.9 -07.6361 26293.6
 07 11 2013  16 18  -21.0715 26059.6 -03493.7 -07.6359 26292.8
 07 11 2013  16 19  -21.0714 26058.7 -03493.4 -07.6355 26291.8
 07 11 2013  16 20  -21.0714 26058.0 -03493.4 -07.6356 26291.1
 07 11 2013  16 21  -21.0718 26058.2 -03493.7 -07.6363 26291.3
 07 11 2013  16 22  -21.0732 26058.7 -03494.2 -07.6372 26292.0
 07 11 2013  16 23  -21.0742 26059.3 -03494.4 -07.6375 26292.5
 07 11 2013  16 24  -21.0748 26059.2 -03494.4 -07.6375 26292.5
 07 11 2013  16 25  -21.0750 26059.4 -03494.5 -07.6375 26292.7
 07 11 2013  16 26  -21.0762 26060.2 -03494.8 -07.6381 26293.5
 07 11 2013  16 27  -21.0786 26061.7 -03495.4 -07.6389 26295.1
 07 11 2013  16 28  -21.0805 26062.5 -03495.4 -07.6388 26295.8
 07 11 2013  16 29  -21.0810 26061.9 -03494.8 -07.6376 26295.1
 07 11 2013  16 30  -21.0807 26060.9 -03494.1 -07.6364 26294.1
 07 11 2013  16 31  -21.0801 26059.7 -03493.6 -07.6355 26292.8
 07 11 2013  16 32  -21.0794 26058.7 -03493.2 -07.6351 26291.8
 07 11 2013  16 33  -21.0788 26058.3 -03493.3 -07.6353 26291.4
 07 11 2013  16 34  -21.0785 26058.1 -03493.4 -07.6357 26291.3
 07 11 2013  16 35  -21.0790 26058.1 -03493.6 -07.6361 26291.3
 07 11 2013  16 36  -21.0799 26057.9 -03493.7 -07.6364 26291.1
 07 11 2013  16 37  -21.0808 26057.2 -03493.5 -07.6361 26290.4
 07 11 2013  16 38  -21.0801 26056.3 -03493.3 -07.6359 26289.4
 07 11 2013  16 39  -21.0799 26056.0 -03493.4 -07.6361 26289.1
 07 11 2013  16 40  -21.0801 26055.6 -03493.5 -07.6365 26288.8
 07 11 2013  16 41  -21.0800 26055.2 -03493.5 -07.6367 26288.4
 07 11 2013  16 42  -21.0801 26054.9 -03493.6 -07.6370 26288.1
 07 11 2013  16 43  -21.0804 26054.7 -03493.7 -07.6373 26287.9
 07 11 2013  16 44  -21.0807 26054.5 -03493.8 -07.6375 26287.7
 07 11 2013  16 45  -21.0808 26054.3 -03493.8 -07.6377 26287.5
 07 11 2013  16 46  -21.0813 26054.8 -03494.2 -07.6383 26288.1
 07 11 2013  16 47  -21.0820 26055.4 -03494.6 -07.6390 26288.7
 07 11 2013  16 48  -21.0824 26055.2 -03494.5 -07.6389 26288.5
 07 11 2013  16 49  -21.0824 26054.7 -03494.3 -07.6385 26288.0
 07 11 2013  16 50  -21.0821 26054.6 -03494.3 -07.6386 26287.9
 07 11 2013  16 51  -21.0815 26054.7 -03494.5 -07.6390 26288.0
 07 11 2013  16 52  -21.0813 26055.1 -03494.8 -07.6395 26288.4
 07 11 2013  16 53  -21.0818 26054.8 -03494.7 -07.6395 26288.1
 07 11 2013  16 54  -21.0824 26054.8 -03494.8 -07.6395 26288.2
 07 11 2013  16 55  -21.0833 26054.5 -03494.6 -07.6393 26287.8
 07 11 2013  16 56  -21.0834 26054.1 -03494.4 -07.6389 26287.4
 07 11 2013  16 57  -21.0834 26053.8 -03494.3 -07.6389 26287.1
 07 11 2013  16 58  -21.0831 26053.8 -03494.4 -07.6390 26287.1
 07 11 2013  16 59  -21.0832 26054.0 -03494.5 -07.6393 26287.3
 07 11 2013  17 00  -21.0835 26053.8 -03494.5 -07.6393 26287.1
 07 11 2013  17 01  -21.0833 26053.5 -03494.5 -07.6392 26286.8
 07 11 2013  17 02  -21.0832 26053.0 -03494.3 -07.6390 26286.3
 07 11 2013  17 03  -21.0837 26052.6 -03494.3 -07.6391 26285.8
 07 11 2013  17 04  -21.0839 26052.2 -03494.2 -07.6391 26285.4
 07 11 2013  17 05  -21.0841 26052.0 -03494.2 -07.6392 26285.3
 07 11 2013  17 06  -21.0852 26052.3 -03494.5 -07.6397 26285.6
 07 11 2013  17 07  -21.0861 26052.7 -03494.6 -07.6399 26286.0
 07 11 2013  17 08  -21.0868 26053.1 -03494.8 -07.6401 26286.4
 07 11 2013  17 09  -21.0877 26053.3 -03494.8 -07.6401 26286.6
 07 11 2013  17 10  -21.0885 26053.2 -03494.7 -07.6398 26286.5
 07 11 2013  17 11  -21.0886 26052.9 -03494.4 -07.6394 26286.2
 07 11 2013  17 12  -21.0887 26052.7 -03494.3 -07.6391 26286.0
 07 11 2013  17 13  -21.0890 26052.4 -03494.1 -07.6388 26285.7
 07 11 2013  17 14  -21.0890 26052.1 -03493.9 -07.6384 26285.3
 07 11 2013  17 15  -21.0890 26052.6 -03494.0 -07.6386 26285.8
 07 11 2013  17 16  -21.0898 26053.3 -03494.3 -07.6390 26286.5
 07 11 2013  17 17  -21.0903 26053.9 -03494.5 -07.6391 26287.2
 07 11 2013  17 18  -21.0904 26054.1 -03494.3 -07.6388 26287.3
 07 11 2013  17 19  -21.0905 26054.2 -03494.2 -07.6385 26287.5
 07 11 2013  17 20  -21.0915 26054.2 -03494.1 -07.6382 26287.5
 07 11 2013  17 21  -21.0922 26053.8 -03493.8 -07.6377 26287.1
 07 11 2013  17 22  -21.0923 26053.2 -03493.5 -07.6372 26286.4
 07 11 2013  17 23  -21.0928 26053.0 -03493.3 -07.6370 26286.2
 07 11 2013  17 24  -21.0934 26052.8 -03493.2 -07.6368 26286.0
 07 11 2013  17 25  -21.0940 26052.5 -03493.1 -07.6366 26285.6
 07 11 2013  17 26  -21.0946 26052.1 -03492.9 -07.6363 26285.2
 07 11 2013  17 27  -21.0950 26051.7 -03492.8 -07.6361 26284.8
 07 11 2013  17 28  -21.0953 26051.7 -03492.8 -07.6361 26284.8
 07 11 2013  17 29  -21.0958 26051.9 -03492.8 -07.6362 26285.0
 07 11 2013  17 30  -21.0962 26051.8 -03492.7 -07.6359 26284.9
 07 11 2013  17 31  -21.0964 26051.6 -03492.5 -07.6355 26284.6
 07 11 2013  17 32  -21.0966 26051.3 -03492.3 -07.6352 26284.3
 07 11 2013  17 33  -21.0967 26051.0 -03492.1 -07.6349 26284.1
 07 11 2013  17 34  -21.0969 26050.7 -03491.9 -07.6346 26283.7
 07 11 2013  17 35  -21.0970 26050.4 -03491.8 -07.6344 26283.4
 07 11 2013  17 36  -21.0972 26050.2 -03491.7 -07.6342 26283.1
 07 11 2013  17 37  -21.0971 26049.7 -03491.5 -07.6340 26282.7
 07 11 2013  17 38  -21.0968 26049.1 -03491.3 -07.6336 26282.1
 07 11 2013  17 39  -21.0973 26048.7 -03491.1 -07.6335 26281.6
 07 11 2013  17 40  -21.0974 26048.0 -03490.9 -07.6331 26280.9
 07 11 2013  17 41  -21.0971 26046.9 -03490.5 -07.6327 26279.7
 07 11 2013  17 42  -21.0969 26046.2 -03490.4 -07.6325 26279.1
 07 11 2013  17 43  -21.0975 26046.0 -03490.5 -07.6329 26278.9
 07 11 2013  17 44  -21.0977 26045.6 -03490.3 -07.6327 26278.4
 07 11 2013  17 45  -21.0978 26045.1 -03490.2 -07.6324 26277.9
 07 11 2013  17 46  -21.0981 26044.6 -03490.1 -07.6323 26277.4
 07 11 2013  17 47  -21.0982 26044.2 -03490.0 -07.6323 26277.0
 07 11 2013  17 48  -21.0983 26043.9 -03489.9 -07.6322 26276.7
 07 11 2013  17 49  -21.0988 26043.7 -03489.9 -07.6323 26276.5
 07 11 2013  17 50  -21.0994 26043.7 -03490.0 -07.6324 26276.5
 07 11 2013  17 51  -21.1000 26043.7 -03490.0 -07.6325 26276.5
 07 11 2013  17 52  -21.1005 26043.7 -03490.0 -07.6324 26276.5
 07 11 2013  17 53  -21.1010 26043.8 -03490.0 -07.6325 26276.6
 07 11 2013  17 54  -21.1015 26043.9 -03490.0 -07.6324 26276.7
 07 11 2013  17 55  -21.1020 26043.8 -03489.9 -07.6322 26276.6
 07 11 2013  17 56  -21.1016 26043.4 -03489.6 -07.6317 26276.2
 07 11 2013  17 57  -21.1012 26042.9 -03489.4 -07.6314 26275.6
 07 11 2013  17 58  -21.1012 26042.8 -03489.3 -07.6312 26275.5
 07 11 2013  17 59  -21.1009 26042.9 -03489.3 -07.6313 26275.6
 07 11 2013  18 00  -21.1003 26043.3 -03489.4 -07.6314 26276.0
 07 11 2013  18 01  -21.1005 26043.6 -03489.6 -07.6316 26276.4
 07 11 2013  18 02  -21.1020 26043.8 -03489.5 -07.6315 26276.5
 07 11 2013  18 03  -21.1026 26043.3 -03489.1 -07.6307 26276.0
 07 11 2013  18 04  -21.1023 26042.2 -03488.5 -07.6297 26274.9
 07 11 2013  18 05  -21.1015 26041.1 -03488.0 -07.6289 26273.7
 07 11 2013  18 06  -21.1008 26040.3 -03487.8 -07.6286 26272.8
 07 11 2013  18 07  -21.1002 26040.4 -03487.9 -07.6290 26273.0
 07 11 2013  18 08  -21.0999 26039.9 -03487.8 -07.6289 26272.5
 07 11 2013  18 09  -21.0998 26040.6 -03488.2 -07.6296 26273.2
 07 11 2013  18 10  -21.1002 26041.1 -03488.5 -07.6300 26273.8
 07 11 2013  18 11  -21.1001 26041.5 -03488.6 -07.6301 26274.2
 07 11 2013  18 12  -21.1001 26041.5 -03488.5 -07.6299 26274.1
 07 11 2013  18 13  -21.0999 26041.0 -03488.2 -07.6294 26273.6
 07 11 2013  18 14  -21.0998 26040.3 -03487.9 -07.6288 26272.9
 07 11 2013  18 15  -21.0999 26039.5 -03487.5 -07.6283 26272.0
 07 11 2013  18 16  -21.0997 26038.7 -03487.3 -07.6280 26271.2
 07 11 2013  18 17  -21.0993 26038.1 -03487.1 -07.6278 26270.5
 07 11 2013  18 18  -21.0989 26037.8 -03487.0 -07.6278 26270.2
 07 11 2013  18 19  -21.0985 26037.7 -03487.1 -07.6280 26270.1
 07 11 2013  18 20  -21.0979 26037.6 -03487.2 -07.6281 26270.1
 07 11 2013  18 21  -21.0973 26037.5 -03487.2 -07.6282 26270.0
 07 11 2013  18 22  -21.0970 26037.5 -03487.3 -07.6284 26270.0
 07 11 2013  18 23  -21.0969 26037.5 -03487.4 -07.6286 26270.0
 07 11 2013  18 24  -21.0966 26037.5 -03487.4 -07.6286 26270.0
 07 11 2013  18 25  -21.0964 26037.3 -03487.3 -07.6285 26269.8
 07 11 2013  18 26  -21.0961 26037.1 -03487.3 -07.6286 26269.6
 07 11 2013  18 27  -21.0958 26037.0 -03487.3 -07.6286 26269.5
 07 11 2013  18 28  -21.0956 26036.9 -03487.3 -07.6285 26269.4
 07 11 2013  18 29  -21.0952 26036.8 -03487.3 -07.6285 26269.3
 07 11 2013  18 30  -21.0946 26036.5 -03487.1 -07.6283 26269.0
 07 11 2013  18 31  -21.0942 26036.2 -03487.1 -07.6283 26268.7
 07 11 2013  18 32  -21.0939 26035.9 -03487.0 -07.6282 26268.4
 07 11 2013  18 33  -21.0937 26035.6 -03486.9 -07.6281 26268.1
 07 11 2013  18 34  -21.0934 26035.2 -03486.8 -07.6281 26267.7
 07 11 2013  18 35  -21.0933 26035.1 -03486.8 -07.6281 26267.5
 07 11 2013  18 36  -21.0930 26034.9 -03486.8 -07.6282 26267.4
 07 11 2013  18 37  -21.0924 26034.7 -03486.8 -07.6281 26267.1
 07 11 2013  18 38  -21.0918 26034.4 -03486.7 -07.6281 26266.9
 07 11 2013  18 39  -21.0911 26033.9 -03486.5 -07.6278 26266.3
 07 11 2013  18 40  -21.0903 26033.5 -03486.5 -07.6277 26266.0
 07 11 2013  18 41  -21.0899 26033.3 -03486.5 -07.6278 26265.7
 07 11 2013  18 42  -21.0893 26033.0 -03486.5 -07.6279 26265.5
 07 11 2013  18 43  -21.0887 26032.8 -03486.5 -07.6280 26265.3
 07 11 2013  18 44  -21.0878 26032.5 -03486.4 -07.6280 26264.9
 07 11 2013  18 45  -21.0869 26032.4 -03486.5 -07.6282 26264.9
 07 11 2013  18 46  -21.0864 26032.5 -03486.7 -07.6285 26265.0
 07 11 2013  18 47  -21.0858 26032.4 -03486.7 -07.6286 26264.9
 07 11 2013  18 48  -21.0852 26032.2 -03486.7 -07.6287 26264.7
 07 11 2013  18 49  -21.0845 26032.1 -03486.7 -07.6287 26264.5
 07 11 2013  18 50  -21.0836 26032.1 -03486.8 -07.6290 26264.6
 07 11 2013  18 51  -21.0826 26032.4 -03487.1 -07.6295 26264.9
 07 11 2013  18 52  -21.0814 26032.6 -03487.3 -07.6298 26265.1
 07 11 2013  18 53  -21.0809 26032.5 -03487.4 -07.6300 26265.1
 07 11 2013  18 54  -21.0792 26032.0 -03487.2 -07.6297 26264.6
 07 11 2013  18 55  -21.0763 26032.9 -03487.8 -07.6308 26265.5
 07 11 2013  18 56  -21.0755 26033.8 -03488.4 -07.6320 26266.5
 07 11 2013  18 57  -21.0747 26034.8 -03489.0 -07.6330 26267.6
 07 11 2013  18 58  -21.0744 26035.6 -03489.4 -07.6336 26268.4
 07 11 2013  18 59  -21.0743 26036.1 -03489.7 -07.6340 26268.9
 07 11 2013  19 00  -21.0745 26036.0 -03489.6 -07.6339 26268.8
 07 11 2013  19 01  -21.0738 26035.2 -03489.3 -07.6334 26267.9
 07 11 2013  19 02  -21.0733 26034.4 -03488.9 -07.6329 26267.1
 07 11 2013  19 03  -21.0732 26033.8 -03488.8 -07.6328 26266.6
 07 11 2013  19 04  -21.0731 26033.4 -03488.7 -07.6326 26266.1
 07 11 2013  19 05  -21.0728 26032.9 -03488.6 -07.6325 26265.6
 07 11 2013  19 06  -21.0728 26032.5 -03488.5 -07.6325 26265.2
 07 11 2013  19 07  -21.0728 26032.1 -03488.6 -07.6327 26264.8
 07 11 2013  19 08  -21.0727 26031.8 -03488.6 -07.6329 26264.6
 07 11 2013  19 09  -21.0726 26031.6 -03488.7 -07.6331 26264.3
 07 11 2013  19 10  -21.0721 26031.2 -03488.7 -07.6332 26264.0
 07 11 2013  19 11  -21.0712 26030.9 -03488.6 -07.6332 26263.6
 07 11 2013  19 12  -21.0702 26030.8 -03488.8 -07.6335 26263.5
 07 11 2013  19 13  -21.0693 26030.5 -03488.9 -07.6338 26263.3
 07 11 2013  19 14  -21.0684 26029.9 -03488.7 -07.6337 26262.7
 07 11 2013  19 15  -21.0674 26029.2 -03488.6 -07.6337 26262.0
 07 11 2013  19 16  -21.0665 26029.0 -03488.7 -07.6339 26261.7
 07 11 2013  19 17  -21.0662 26028.8 -03488.9 -07.6344 26261.6
 07 11 2013  19 18  -21.0663 26028.5 -03489.1 -07.6349 26261.4
 07 11 2013  19 19  -21.0660 26028.5 -03489.3 -07.6355 26261.3
 07 11 2013  19 20  -21.0659 26028.5 -03489.6 -07.6359 26261.4
 07 11 2013  19 21  -21.0659 26028.5 -03489.7 -07.6361 26261.4
 07 11 2013  19 22  -21.0653 26028.5 -03489.8 -07.6365 26261.4
 07 11 2013  19 23  -21.0653 26028.9 -03490.1 -07.6371 26261.9
 07 11 2013  19 24  -21.0652 26029.1 -03490.4 -07.6375 26262.1
 07 11 2013  19 25  -21.0648 26028.9 -03490.4 -07.6377 26261.9
 07 11 2013  19 26  -21.0646 26028.6 -03490.4 -07.6376 26261.6
 07 11 2013  19 27  -21.0642 26028.5 -03490.5 -07.6379 26261.5
 07 11 2013  19 28  -21.0638 26028.5 -03490.6 -07.6382 26261.6
 07 11 2013  19 29  -21.0632 26028.4 -03490.7 -07.6384 26261.4
 07 11 2013  19 30  -21.0617 26028.2 -03490.7 -07.6384 26261.2
 07 11 2013  19 31  -21.0605 26027.9 -03490.7 -07.6385 26261.0
 07 11 2013  19 32  -21.0597 26027.8 -03490.8 -07.6388 26260.9
 07 11 2013  19 33  -21.0590 26027.8 -03490.9 -07.6391 26260.9
 07 11 2013  19 34  -21.0585 26027.9 -03491.2 -07.6396 26261.0
 07 11 2013  19 35  -21.0582 26027.6 -03491.2 -07.6397 26260.7
 07 11 2013  19 36  -21.0580 26027.3 -03491.2 -07.6398 26260.4
 07 11 2013  19 37  -21.0574 26026.7 -03491.0 -07.6396 26259.8
 07 11 2013  19 38  -21.0566 26025.9 -03490.8 -07.6393 26259.0
 07 11 2013  19 39  -21.0558 26025.5 -03490.8 -07.6394 26258.6
 07 11 2013  19 40  -21.0552 26025.3 -03491.0 -07.6398 26258.4
 07 11 2013  19 41  -21.0551 26025.4 -03491.2 -07.6403 26258.5
 07 11 2013  19 42  -21.0549 26026.3 -03491.8 -07.6415 26259.4
 07 11 2013  19 43  -21.0545 26027.1 -03492.4 -07.6426 26260.4
 07 11 2013  19 44  -21.0539 26027.9 -03493.0 -07.6436 26261.2
 07 11 2013  19 45  -21.0535 26028.6 -03493.5 -07.6445 26262.0
 07 11 2013  19 46  -21.0528 26029.3 -03494.0 -07.6453 26262.8
 07 11 2013  19 47  -21.0524 26029.8 -03494.3 -07.6459 26263.3
 07 11 2013  19 48  -21.0519 26030.0 -03494.5 -07.6463 26263.5
 07 11 2013  19 49  -21.0510 26029.8 -03494.5 -07.6462 26263.4
 07 11 2013  19 50  -21.0502 26029.6 -03494.4 -07.6462 26263.1
 07 11 2013  19 51  -21.0495 26029.0 -03494.2 -07.6459 26262.5
 07 11 2013  19 52  -21.0488 26028.5 -03494.2 -07.6458 26262.0
 07 11 2013  19 53  -21.0485 26027.2 -03493.8 -07.6454 26260.7
 07 11 2013  19 54  -21.0475 26025.0 -03492.8 -07.6440 26258.3
 07 11 2013  19 55  -21.0466 26022.9 -03492.1 -07.6429 26256.2
 07 11 2013  19 56  -21.0455 26021.4 -03491.5 -07.6423 26254.6
 07 11 2013  19 57  -21.0443 26020.2 -03491.3 -07.6421 26253.4
 07 11 2013  19 58  -21.0435 26019.5 -03491.4 -07.6425 26252.7
 07 11 2013  19 59  -21.0428 26018.8 -03491.5 -07.6429 26252.1
 07 11 2013  20 00  -21.0421 26018.2 -03491.6 -07.6433 26251.4
 07 11 2013  20 01  -21.0415 26017.5 -03491.6 -07.6436 26250.8
 07 11 2013  20 02  -21.0407 26016.9 -03491.8 -07.6440 26250.2
 07 11 2013  20 03  -21.0400 26016.5 -03491.9 -07.6446 26249.8
 07 11 2013  20 04  -21.0392 26016.4 -03492.3 -07.6453 26249.7
 07 11 2013  20 05  -21.0387 26016.5 -03492.7 -07.6461 26249.9
 07 11 2013  20 06  -21.0382 26016.7 -03493.1 -07.6471 26250.2
 07 11 2013  20 07  -21.0377 26017.0 -03493.6 -07.6479 26250.5
 07 11 2013  20 08  -21.0372 26017.3 -03494.0 -07.6489 26250.8
 07 11 2013  20 09  -21.0366 26017.5 -03494.4 -07.6497 26251.1
 07 11 2013  20 10  -21.0365 26017.6 -03494.8 -07.6504 26251.3
 07 11 2013  20 11  -21.0364 26017.3 -03494.9 -07.6507 26251.0
 07 11 2013  20 12  -21.0359 26016.8 -03494.8 -07.6507 26250.4
 07 11 2013  20 13  -21.0354 26016.2 -03494.8 -07.6508 26249.9
 07 11 2013  20 14  -21.0347 26015.8 -03494.8 -07.6510 26249.5
 07 11 2013  20 15  -21.0342 26015.6 -03495.0 -07.6514 26249.3
 07 11 2013  20 16  -21.0340 26015.4 -03495.2 -07.6520 26249.2
 07 11 2013  20 17  -21.0338 26015.2 -03495.4 -07.6524 26249.0
 07 11 2013  20 18  -21.0336 26014.9 -03495.5 -07.6527 26248.7
 07 11 2013  20 19  -21.0336 26014.6 -03495.6 -07.6531 26248.4
 07 11 2013  20 20  -21.0336 26014.3 -03495.8 -07.6535 26248.1
 07 11 2013  20 21  -21.0336 26014.1 -03495.9 -07.6539 26248.0
 07 11 2013  20 22  -21.0331 26014.0 -03496.2 -07.6544 26247.9
 07 11 2013  20 23  -21.0327 26013.9 -03496.4 -07.6549 26247.8
 07 11 2013  20 24  -21.0323 26013.8 -03496.5 -07.6553 26247.7
 07 11 2013  20 25  -21.0319 26013.6 -03496.7 -07.6556 26247.6
 07 11 2013  20 26  -21.0316 26013.3 -03496.8 -07.6559 26247.3
 07 11 2013  20 27  -21.0312 26013.2 -03496.9 -07.6563 26247.1
 07 11 2013  20 28  -21.0313 26013.0 -03497.1 -07.6567 26247.0
 07 11 2013  20 29  -21.0315 26012.4 -03497.0 -07.6568 26246.4
 07 11 2013  20 30  -21.0315 26011.6 -03496.9 -07.6566 26245.6
 07 11 2013  20 31  -21.0317 26010.8 -03496.6 -07.6564 26244.8
 07 11 2013  20 32  -21.0316 26010.1 -03496.4 -07.6562 26244.0
 07 11 2013  20 33  -21.0315 26009.6 -03496.4 -07.6562 26243.6
 07 11 2013  20 34  -21.0310 26009.5 -03496.5 -07.6565 26243.4
 07 11 2013  20 35  -21.0307 26009.4 -03496.7 -07.6569 26243.4
 07 11 2013  20 36  -21.0305 26009.5 -03497.0 -07.6575 26243.5
 07 11 2013  20 37  -21.0305 26009.3 -03497.1 -07.6578 26243.4
 07 11 2013  20 38  -21.0304 26009.2 -03497.2 -07.6581 26243.3
 07 11 2013  20 39  -21.0308 26008.8 -03497.2 -07.6582 26242.9
 07 11 2013  20 40  -21.0310 26008.8 -03497.3 -07.6585 26242.8
 07 11 2013  20 41  -21.0298 26009.9 -03498.0 -07.6595 26244.0
 07 11 2013  20 42  -21.0289 26010.7 -03498.5 -07.6605 26244.9
 07 11 2013  20 43  -21.0286 26011.2 -03498.9 -07.6612 26245.5
 07 11 2013  20 44  -21.0288 26011.4 -03499.1 -07.6615 26245.7
 07 11 2013  20 45  -21.0289 26011.7 -03499.3 -07.6619 26246.0
 07 11 2013  20 46  -21.0289 26012.0 -03499.6 -07.6623 26246.4
 07 11 2013  20 47  -21.0291 26012.1 -03499.7 -07.6626 26246.4
 07 11 2013  20 48  -21.0290 26011.8 -03499.6 -07.6625 26246.2
 07 11 2013  20 49  -21.0288 26011.4 -03499.4 -07.6622 26245.7
 07 11 2013  20 50  -21.0286 26011.1 -03499.2 -07.6618 26245.4
 07 11 2013  20 51  -21.0284 26010.7 -03499.2 -07.6619 26245.0
 07 11 2013  20 52  -21.0279 26010.4 -03499.2 -07.6620 26244.7
 07 11 2013  20 53  -21.0275 26010.3 -03499.3 -07.6622 26244.6
 07 11 2013  20 54  -21.0271 26010.0 -03499.3 -07.6623 26244.3
 07 11 2013  20 55  -21.0269 26009.6 -03499.3 -07.6624 26244.0
 07 11 2013  20 56  -21.0268 26009.1 -03499.2 -07.6624 26243.4
 07 11 2013  20 57  -21.0268 26008.5 -03499.1 -07.6623 26242.8
 07 11 2013  20 58  -21.0269 26008.1 -03499.0 -07.6623 26242.4
 07 11 2013  20 59  -21.0269 26007.7 -03499.0 -07.6624 26242.0
 07 11 2013  21 00  -21.0270 26007.3 -03499.1 -07.6627 26241.7
 07 11 2013  21 01  -21.0269 26006.9 -03499.0 -07.6626 26241.2
 07 11 2013  21 02  -21.0269 26006.6 -03499.0 -07.6627 26240.9
 07 11 2013  21 03  -21.0270 26006.4 -03499.1 -07.6630 26240.7
 07 11 2013  21 04  -21.0270 26006.2 -03499.2 -07.6634 26240.5
 07 11 2013  21 05  -21.0269 26006.1 -03499.4 -07.6636 26240.5
 07 11 2013  21 06  -21.0268 26006.0 -03499.5 -07.6639 26240.4
 07 11 2013  21 07  -21.0269 26005.8 -03499.6 -07.6642 26240.2
 07 11 2013  21 08  -21.0268 26005.5 -03499.6 -07.6643 26239.9
 07 11 2013  21 09  -21.0269 26005.3 -03499.7 -07.6645 26239.7
 07 11 2013  21 10  -21.0268 26005.1 -03499.7 -07.6646 26239.5
 07 11 2013  21 11  -21.0268 26004.7 -03499.7 -07.6647 26239.2
 07 11 2013  21 12  -21.0268 26004.4 -03499.6 -07.6647 26238.8
 07 11 2013  21 13  -21.0267 26004.0 -03499.6 -07.6648 26238.5
 07 11 2013  21 14  -21.0266 26003.6 -03499.6 -07.6648 26238.1
 07 11 2013  21 15  -21.0265 26003.2 -03499.5 -07.6648 26237.6
 07 11 2013  21 16  -21.0266 26002.9 -03499.5 -07.6649 26237.3
 07 11 2013  21 17  -21.0266 26002.7 -03499.5 -07.6650 26237.2
 07 11 2013  21 18  -21.0267 26002.7 -03499.7 -07.6654 26237.1
 07 11 2013  21 19  -21.0269 26002.5 -03499.7 -07.6655 26236.9
 07 11 2013  21 20  -21.0269 26002.0 -03499.6 -07.6654 26236.5
 07 11 2013  21 21  -21.0273 26001.5 -03499.6 -07.6655 26236.0
 07 11 2013  21 22  -21.0271 26001.2 -03499.6 -07.6655 26235.7
 07 11 2013  21 23  -21.0271 26001.0 -03499.6 -07.6656 26235.4
 07 11 2013  21 24  -21.0270 26000.4 -03499.5 -07.6655 26234.9
 07 11 2013  21 25  -21.0271 25999.9 -03499.4 -07.6654 26234.4
 07 11 2013  21 26  -21.0273 25999.5 -03499.3 -07.6654 26234.0
 07 11 2013  21 27  -21.0272 25999.4 -03499.4 -07.6656 26233.8
 07 11 2013  21 28  -21.0274 25999.2 -03499.5 -07.6660 26233.7
 07 11 2013  21 29  -21.0277 25998.3 -03499.3 -07.6657 26232.8
 07 11 2013  21 30  -21.0280 25997.7 -03499.1 -07.6655 26232.1
 07 11 2013  21 31  -21.0282 25997.4 -03499.0 -07.6654 26231.8
 07 11 2013  21 32  -21.0282 25997.1 -03499.0 -07.6655 26231.5
 07 11 2013  21 33  -21.0281 25997.0 -03499.2 -07.6659 26231.5
 07 11 2013  21 34  -21.0279 25997.2 -03499.4 -07.6664 26231.7
 07 11 2013  21 35  -21.0277 25997.4 -03499.7 -07.6668 26231.9
 07 11 2013  21 36  -21.0276 25997.5 -03499.8 -07.6671 26232.0
 07 11 2013  21 37  -21.0277 25997.4 -03499.9 -07.6674 26231.9
 07 11 2013  21 38  -21.0278 25997.4 -03500.1 -07.6677 26231.9
 07 11 2013  21 39  -21.0279 25997.3 -03500.1 -07.6679 26231.9
 07 11 2013  21 40  -21.0280 25997.0 -03500.1 -07.6679 26231.6
 07 11 2013  21 41  -21.0278 25996.8 -03500.1 -07.6679 26231.4
 07 11 2013  21 42  -21.0277 25996.7 -03500.1 -07.6680 26231.2
 07 11 2013  21 43  -21.0276 25996.5 -03500.2 -07.6682 26231.1
 07 11 2013  21 44  -21.0278 25996.5 -03500.3 -07.6684 26231.1
 07 11 2013  21 45  -21.0281 25996.6 -03500.4 -07.6687 26231.2
 07 11 2013  21 46  -21.0285 25996.4 -03500.5 -07.6689 26231.0
 07 11 2013  21 47  -21.0289 25996.2 -03500.5 -07.6689 26230.8
 07 11 2013  21 48  -21.0291 25996.0 -03500.5 -07.6690 26230.7
 07 11 2013  21 49  -21.0291 25996.0 -03500.5 -07.6691 26230.7
 07 11 2013  21 50  -21.0293 25995.9 -03500.5 -07.6692 26230.5
 07 11 2013  21 51  -21.0296 25995.9 -03500.6 -07.6693 26230.5
 07 11 2013  21 52  -21.0300 25996.0 -03500.7 -07.6695 26230.7
 07 11 2013  21 53  -21.0303 25996.1 -03500.9 -07.6698 26230.8
 07 11 2013  21 54  -21.0304 25996.3 -03501.0 -07.6701 26231.0
 07 11 2013  21 55  -21.0305 25996.4 -03501.2 -07.6703 26231.1
 07 11 2013  21 56  -21.0307 25996.6 -03501.3 -07.6705 26231.3
 07 11 2013  21 57  -21.0309 25996.6 -03501.3 -07.6706 26231.3
 07 11 2013  21 58  -21.0312 25996.6 -03501.3 -07.6707 26231.3
 07 11 2013  21 59  -21.0315 25996.5 -03501.3 -07.6707 26231.3
 07 11 2013  22 00  -21.0319 25996.5 -03501.3 -07.6707 26231.2
 07 11 2013  22 01  -21.0321 25996.4 -03501.4 -07.6708 26231.2
 07 11 2013  22 02  -21.0323 25996.4 -03501.3 -07.6707 26231.1
 07 11 2013  22 03  -21.0320 25996.4 -03501.3 -07.6707 26231.1
 07 11 2013  22 04  -21.0319 25996.3 -03501.3 -07.6706 26231.0
 07 11 2013  22 05  -21.0319 25996.2 -03501.3 -07.6707 26230.9
 07 11 2013  22 06  -21.0319 25996.0 -03501.2 -07.6706 26230.8
 07 11 2013  22 07  -21.0319 25996.0 -03501.2 -07.6706 26230.7
 07 11 2013  22 08  -21.0317 25996.0 -03501.3 -07.6707 26230.8
 07 11 2013  22 09  -21.0316 25996.0 -03501.3 -07.6707 26230.7
 07 11 2013  22 10  -21.0316 25995.9 -03501.3 -07.6708 26230.6
 07 11 2013  22 11  -21.0313 25996.1 -03501.4 -07.6710 26230.9
 07 11 2013  22 12  -21.0312 25996.3 -03501.5 -07.6712 26231.0
 07 11 2013  22 13  -21.0313 25996.4 -03501.7 -07.6715 26231.2
 07 11 2013  22 14  -21.0313 25996.4 -03501.8 -07.6716 26231.2
 07 11 2013  22 15  -21.0312 25996.4 -03501.8 -07.6716 26231.1
 07 11 2013  22 16  -21.0307 25996.5 -03501.8 -07.6717 26231.3
 07 11 2013  22 17  -21.0306 25996.4 -03501.8 -07.6717 26231.2
 07 11 2013  22 18  -21.0304 25996.1 -03501.7 -07.6716 26230.9
 07 11 2013  22 19  -21.0304 25995.8 -03501.6 -07.6714 26230.6
 07 11 2013  22 20  -21.0304 25995.6 -03501.5 -07.6713 26230.4
 07 11 2013  22 21  -21.0306 25995.6 -03501.5 -07.6714 26230.4
 07 11 2013  22 22  -21.0310 25995.7 -03501.7 -07.6717 26230.4
 07 11 2013  22 23  -21.0313 25995.7 -03501.7 -07.6718 26230.5
 07 11 2013  22 24  -21.0317 25995.7 -03501.8 -07.6719 26230.5
 07 11 2013  22 25  -21.0319 25995.6 -03501.8 -07.6719 26230.4
 07 11 2013  22 26  -21.0319 25995.4 -03501.7 -07.6718 26230.2
 07 11 2013  22 27  -21.0319 25995.3 -03501.6 -07.6717 26230.1
 07 11 2013  22 28  -21.0318 25995.2 -03501.5 -07.6715 26229.9
 07 11 2013  22 29  -21.0318 25995.1 -03501.5 -07.6716 26229.9
 07 11 2013  22 30  -21.0314 25995.1 -03501.5 -07.6716 26229.9
 07 11 2013  22 31  -21.0312 25995.1 -03501.6 -07.6717 26229.9
 07 11 2013  22 32  -21.0309 25995.0 -03501.6 -07.6717 26229.8
 07 11 2013  22 33  -21.0307 25995.1 -03501.7 -07.6719 26229.9
 07 11 2013  22 34  -21.0305 25995.2 -03501.8 -07.6721 26230.0
 07 11 2013  22 35  -21.0305 25995.3 -03501.9 -07.6723 26230.1
 07 11 2013  22 36  -21.0304 25995.4 -03502.0 -07.6725 26230.2
 07 11 2013  22 37  -21.0303 25995.6 -03502.2 -07.6728 26230.5
 07 11 2013  22 38  -21.0303 25995.7 -03502.2 -07.6729 26230.5
 07 11 2013  22 39  -21.0301 25995.6 -03502.2 -07.6729 26230.5
 07 11 2013  22 40  -21.0300 25995.4 -03502.2 -07.6729 26230.3
 07 11 2013  22 41  -21.0300 25995.2 -03502.1 -07.6727 26230.0
 07 11 2013  22 42  -21.0301 25995.0 -03502.0 -07.6726 26229.8
 07 11 2013  22 43  -21.0301 25994.7 -03501.9 -07.6725 26229.5
 07 11 2013  22 44  -21.0301 25994.5 -03501.8 -07.6724 26229.3
 07 11 2013  22 45  -21.0302 25994.5 -03501.9 -07.6725 26229.4
 07 11 2013  22 46  -21.0303 25994.5 -03501.9 -07.6725 26229.3
 07 11 2013  22 47  -21.0305 25994.5 -03502.0 -07.6727 26229.3
 07 11 2013  22 48  -21.0308 25994.6 -03502.1 -07.6729 26229.5
 07 11 2013  22 49  -21.0307 25995.0 -03502.3 -07.6732 26229.9
 07 11 2013  22 50  -21.0307 25995.3 -03502.5 -07.6735 26230.2
 07 11 2013  22 51  -21.0310 25995.3 -03502.5 -07.6736 26230.2
 07 11 2013  22 52  -21.0310 25995.2 -03502.5 -07.6736 26230.1
 07 11 2013  22 53  -21.0309 25995.3 -03502.5 -07.6736 26230.2
 07 11 2013  22 54  -21.0307 25995.1 -03502.5 -07.6735 26230.0
 07 11 2013  22 55  -21.0306 25994.7 -03502.2 -07.6732 26229.5
 07 11 2013  22 56  -21.0305 25994.2 -03502.1 -07.6730 26229.1
 07 11 2013  22 57  -21.0301 25993.9 -03501.9 -07.6727 26228.7
 07 11 2013  22 58  -21.0299 25993.5 -03501.8 -07.6725 26228.3
 07 11 2013  22 59  -21.0298 25993.3 -03501.7 -07.6724 26228.1
 07 11 2013  23 00  -21.0295 25993.1 -03501.7 -07.6724 26227.9
 07 11 2013  23 01  -21.0292 25993.0 -03501.7 -07.6725 26227.8
 07 11 2013  23 02  -21.0289 25992.8 -03501.7 -07.6725 26227.6
 07 11 2013  23 03  -21.0286 25992.7 -03501.7 -07.6726 26227.5
 07 11 2013  23 04  -21.0287 25992.7 -03501.8 -07.6729 26227.5
 07 11 2013  23 05  -21.0286 25992.7 -03501.9 -07.6731 26227.5
 07 11 2013  23 06  -21.0284 25992.7 -03502.0 -07.6733 26227.6
 07 11 2013  23 07  -21.0285 25993.0 -03502.2 -07.6736 26227.8
 07 11 2013  23 08  -21.0288 25993.2 -03502.4 -07.6739 26228.1
 07 11 2013  23 09  -21.0289 25993.3 -03502.5 -07.6741 26228.2
 07 11 2013  23 10  -21.0288 25993.4 -03502.5 -07.6742 26228.3
 07 11 2013  23 11  -21.0285 25993.4 -03502.6 -07.6743 26228.4
 07 11 2013  23 12  -21.0285 25993.5 -03502.6 -07.6743 26228.4
 07 11 2013  23 13  -21.0285 25993.5 -03502.7 -07.6744 26228.5
 07 11 2013  23 14  -21.0284 25993.7 -03502.7 -07.6745 26228.6
 07 11 2013  23 15  -21.0284 25993.7 -03502.7 -07.6746 26228.7
 07 11 2013  23 16  -21.0284 25993.7 -03502.8 -07.6746 26228.7
 07 11 2013  23 17  -21.0282 25993.9 -03502.8 -07.6747 26228.8
 07 11 2013  23 18  -21.0279 25993.8 -03502.8 -07.6747 26228.8
 07 11 2013  23 19  -21.0278 25993.8 -03502.8 -07.6747 26228.7
 07 11 2013  23 20  -21.0275 25993.8 -03502.8 -07.6746 26228.7
 07 11 2013  23 21  -21.0273 25993.7 -03502.7 -07.6746 26228.6
 07 11 2013  23 22  -21.0273 25993.6 -03502.7 -07.6746 26228.5
 07 11 2013  23 23  -21.0272 25993.5 -03502.7 -07.6745 26228.5
 07 11 2013  23 24  -21.0275 25993.5 -03502.7 -07.6746 26228.5
 07 11 2013  23 25  -21.0277 25993.5 -03502.8 -07.6747 26228.5
 07 11 2013  23 26  -21.0277 25993.5 -03502.8 -07.6747 26228.4
 07 11 2013  23 27  -21.0277 25993.5 -03502.8 -07.6747 26228.4
 07 11 2013  23 28  -21.0280 25993.5 -03502.8 -07.6748 26228.4
 07 11 2013  23 29  -21.0280 25993.6 -03502.9 -07.6749 26228.6
 07 11 2013  23 30  -21.0281 25993.8 -03503.0 -07.6751 26228.8
 07 11 2013  23 31  -21.0282 25994.0 -03503.1 -07.6752 26228.9
 07 11 2013  23 32  -21.0283 25993.9 -03503.1 -07.6753 26228.9
 07 11 2013  23 33  -21.0281 25994.0 -03503.1 -07.6753 26229.0
 07 11 2013  23 34  -21.0280 25994.0 -03503.1 -07.6753 26229.0
 07 11 2013  23 35  -21.0278 25994.1 -03503.1 -07.6753 26229.1
 07 11 2013  23 36  -21.0277 25994.3 -03503.3 -07.6755 26229.3
 07 11 2013  23 37  -21.0279 25994.7 -03503.5 -07.6759 26229.8
 07 11 2013  23 38  -21.0281 25995.3 -03503.8 -07.6764 26230.3
 07 11 2013  23 39  -21.0287 25995.4 -03503.9 -07.6765 26230.5
 07 11 2013  23 40  -21.0292 25995.4 -03503.8 -07.6765 26230.5
 07 11 2013  23 41  -21.0297 25995.3 -03503.8 -07.6763 26230.4
 07 11 2013  23 42  -21.0302 25995.1 -03503.7 -07.6762 26230.2
 07 11 2013  23 43  -21.0307 25995.0 -03503.5 -07.6759 26230.0
 07 11 2013  23 44  -21.0307 25994.9 -03503.4 -07.6756 26229.9
 07 11 2013  23 45  -21.0310 25994.7 -03503.3 -07.6754 26229.7
 07 11 2013  23 46  -21.0309 25994.7 -03503.2 -07.6753 26229.7
 07 11 2013  23 47  -21.0309 25994.9 -03503.3 -07.6753 26229.9
 07 11 2013  23 48  -21.0310 25995.0 -03503.3 -07.6754 26230.0
 07 11 2013  23 49  -21.0309 25995.1 -03503.4 -07.6755 26230.1
 07 11 2013  23 50  -21.0307 25995.1 -03503.4 -07.6755 26230.1
 07 11 2013  23 51  -21.0305 25995.2 -03503.4 -07.6755 26230.2
 07 11 2013  23 52  -21.0306 25995.3 -03503.4 -07.6756 26230.3
 07 11 2013  23 53  -21.0308 25995.2 -03503.4 -07.6756 26230.3
 07 11 2013  23 54  -21.0312 25995.2 -03503.4 -07.6755 26230.2
 07 11 2013  23 55  -21.0316 25995.1 -03503.3 -07.6754 26230.1
 07 11 2013  23 56  -21.0319 25994.9 -03503.2 -07.6752 26229.9
 07 11 2013  23 57  -21.0323 25994.7 -03503.1 -07.6751 26229.7
