SAO LUIS EMBRACE-03 <039> 1 Min. Reported data

 DD MM YYYY  HH MM   D(Deg)  H(nT)   Z(nT)   I(Deg)   F(nT)

 08 02 2013  00 00  -21.0025 26047.9 -03400.4 -07.4376 26269.0
 08 02 2013  00 01  -21.0026 26047.9 -03400.4 -07.4376 26269.0
 08 02 2013  00 02  -21.0027 26047.8 -03400.4 -07.4375 26268.8
 08 02 2013  00 03  -21.0027 26047.5 -03400.2 -07.4372 26268.5
 08 02 2013  00 04  -21.0025 26047.1 -03400.0 -07.4368 26268.1
 08 02 2013  00 05  -21.0023 26047.1 -03399.9 -07.4367 26268.1
 08 02 2013  00 06  -21.0022 26047.1 -03399.9 -07.4368 26268.1
 08 02 2013  00 07  -21.0023 26047.2 -03400.0 -07.4370 26268.2
 08 02 2013  00 08  -21.0024 26047.4 -03400.1 -07.4371 26268.3
 08 02 2013  00 09  -21.0025 26047.6 -03400.3 -07.4373 26268.6
 08 02 2013  00 10  -21.0026 26047.7 -03400.3 -07.4375 26268.7
 08 02 2013  00 11  -21.0026 26047.8 -03400.4 -07.4376 26268.9
 08 02 2013  00 12  -21.0028 26047.9 -03400.5 -07.4377 26268.9
 08 02 2013  00 13  -21.0030 26047.9 -03400.5 -07.4377 26268.9
 08 02 2013  00 14  -21.0033 26047.9 -03400.5 -07.4377 26269.0
 08 02 2013  00 15  -21.0035 26048.0 -03400.5 -07.4378 26269.1
 08 02 2013  00 16  -21.0037 26048.2 -03400.6 -07.4379 26269.2
 08 02 2013  00 17  -21.0039 26048.4 -03400.7 -07.4380 26269.5
 08 02 2013  00 18  -21.0040 26048.1 -03400.6 -07.4378 26269.2
 08 02 2013  00 19  -21.0041 26047.9 -03400.4 -07.4375 26268.9
 08 02 2013  00 20  -21.0043 26047.5 -03400.2 -07.4372 26268.5
 08 02 2013  00 21  -21.0045 26047.4 -03400.1 -07.4370 26268.3
 08 02 2013  00 22  -21.0048 26047.1 -03400.0 -07.4368 26268.1
 08 02 2013  00 23  -21.0049 26047.0 -03399.9 -07.4366 26268.0
 08 02 2013  00 24  -21.0049 26047.1 -03399.9 -07.4367 26268.1
 08 02 2013  00 25  -21.0049 26047.2 -03399.9 -07.4368 26268.2
 08 02 2013  00 26  -21.0048 26047.3 -03400.0 -07.4369 26268.3
 08 02 2013  00 27  -21.0048 26047.3 -03400.0 -07.4369 26268.2
 08 02 2013  00 28  -21.0047 26047.2 -03400.0 -07.4368 26268.2
 08 02 2013  00 29  -21.0047 26047.1 -03399.9 -07.4368 26268.1
 08 02 2013  00 30  -21.0049 26047.0 -03399.9 -07.4368 26268.0
 08 02 2013  00 31  -21.0051 26046.8 -03399.8 -07.4366 26267.7
 08 02 2013  00 32  -21.0052 26046.4 -03399.6 -07.4363 26267.3
 08 02 2013  00 33  -21.0052 26046.1 -03399.5 -07.4361 26267.0
 08 02 2013  00 34  -21.0051 26046.0 -03399.4 -07.4359 26266.9
 08 02 2013  00 35  -21.0052 26046.1 -03399.5 -07.4361 26267.0
 08 02 2013  00 36  -21.0056 26046.5 -03399.7 -07.4365 26267.4
 08 02 2013  00 37  -21.0056 26046.7 -03399.9 -07.4368 26267.6
 08 02 2013  00 38  -21.0057 26046.9 -03400.0 -07.4370 26267.8
 08 02 2013  00 39  -21.0058 26047.2 -03400.2 -07.4373 26268.2
 08 02 2013  00 40  -21.0060 26047.4 -03400.4 -07.4376 26268.4
 08 02 2013  00 41  -21.0061 26047.5 -03400.4 -07.4377 26268.6
 08 02 2013  00 42  -21.0062 26047.6 -03400.5 -07.4378 26268.6
 08 02 2013  00 43  -21.0063 26047.6 -03400.5 -07.4378 26268.6
 08 02 2013  00 44  -21.0064 26047.6 -03400.4 -07.4377 26268.6
 08 02 2013  00 45  -21.0064 26047.5 -03400.4 -07.4376 26268.5
 08 02 2013  00 46  -21.0065 26047.4 -03400.3 -07.4375 26268.4
 08 02 2013  00 47  -21.0064 26047.4 -03400.3 -07.4375 26268.4
 08 02 2013  00 48  -21.0066 26047.5 -03400.4 -07.4376 26268.5
 08 02 2013  00 49  -21.0067 26047.4 -03400.3 -07.4376 26268.4
 08 02 2013  00 50  -21.0067 26047.3 -03400.3 -07.4375 26268.3
 08 02 2013  00 51  -21.0068 26047.2 -03400.3 -07.4374 26268.2
 08 02 2013  00 52  -21.0069 26047.0 -03400.2 -07.4374 26268.0
 08 02 2013  00 53  -21.0070 26046.9 -03400.1 -07.4373 26267.9
 08 02 2013  00 54  -21.0071 26046.8 -03400.1 -07.4372 26267.8
 08 02 2013  00 55  -21.0073 26046.7 -03400.1 -07.4372 26267.7
 08 02 2013  00 56  -21.0074 26046.6 -03400.1 -07.4372 26267.6
 08 02 2013  00 57  -21.0075 26046.7 -03400.1 -07.4373 26267.7
 08 02 2013  00 58  -21.0078 26046.8 -03400.2 -07.4375 26267.8
 08 02 2013  00 59  -21.0080 26046.8 -03400.3 -07.4376 26267.8
 08 02 2013  01 00  -21.0081 26046.9 -03400.4 -07.4377 26267.9
 08 02 2013  01 01  -21.0083 26047.0 -03400.4 -07.4379 26268.0
 08 02 2013  01 02  -21.0085 26047.1 -03400.5 -07.4380 26268.1
 08 02 2013  01 03  -21.0088 26047.2 -03400.6 -07.4381 26268.3
 08 02 2013  01 04  -21.0091 26047.2 -03400.6 -07.4381 26268.2
 08 02 2013  01 05  -21.0093 26047.2 -03400.6 -07.4381 26268.3
 08 02 2013  01 06  -21.0095 26047.2 -03400.6 -07.4381 26268.2
 08 02 2013  01 07  -21.0097 26047.1 -03400.5 -07.4381 26268.2
 08 02 2013  01 08  -21.0100 26047.0 -03400.5 -07.4379 26268.1
 08 02 2013  01 09  -21.0102 26047.1 -03400.5 -07.4380 26268.1
 08 02 2013  01 10  -21.0105 26047.0 -03400.5 -07.4379 26268.0
 08 02 2013  01 11  -21.0108 26046.9 -03400.4 -07.4379 26267.9
 08 02 2013  01 12  -21.0110 26046.7 -03400.4 -07.4378 26267.8
 08 02 2013  01 13  -21.0110 26046.7 -03400.3 -07.4377 26267.7
 08 02 2013  01 14  -21.0111 26046.6 -03400.3 -07.4377 26267.7
 08 02 2013  01 15  -21.0112 26046.6 -03400.3 -07.4378 26267.6
 08 02 2013  01 16  -21.0112 26046.7 -03400.4 -07.4378 26267.7
 08 02 2013  01 17  -21.0114 26046.9 -03400.5 -07.4381 26267.9
 08 02 2013  01 18  -21.0115 26047.0 -03400.6 -07.4382 26268.0
 08 02 2013  01 19  -21.0117 26047.1 -03400.7 -07.4384 26268.2
 08 02 2013  01 20  -21.0117 26047.2 -03400.7 -07.4385 26268.2
 08 02 2013  01 21  -21.0117 26047.2 -03400.8 -07.4385 26268.3
 08 02 2013  01 22  -21.0118 26047.2 -03400.8 -07.4386 26268.3
 08 02 2013  01 23  -21.0118 26047.3 -03400.8 -07.4386 26268.3
 08 02 2013  01 24  -21.0120 26047.3 -03400.8 -07.4386 26268.3
 08 02 2013  01 25  -21.0121 26047.1 -03400.8 -07.4385 26268.2
 08 02 2013  01 26  -21.0120 26047.0 -03400.7 -07.4384 26268.1
 08 02 2013  01 27  -21.0121 26046.9 -03400.6 -07.4383 26268.0
 08 02 2013  01 28  -21.0122 26046.9 -03400.6 -07.4383 26267.9
 08 02 2013  01 29  -21.0125 26046.8 -03400.6 -07.4384 26267.9
 08 02 2013  01 30  -21.0128 26046.9 -03400.7 -07.4384 26267.9
 08 02 2013  01 31  -21.0131 26046.9 -03400.7 -07.4385 26268.0
 08 02 2013  01 32  -21.0132 26047.0 -03400.8 -07.4386 26268.0
 08 02 2013  01 33  -21.0133 26047.3 -03400.9 -07.4388 26268.4
 08 02 2013  01 34  -21.0135 26047.7 -03401.2 -07.4392 26268.9
 08 02 2013  01 35  -21.0136 26048.0 -03401.3 -07.4394 26269.1
 08 02 2013  01 36  -21.0140 26048.2 -03401.4 -07.4396 26269.4
 08 02 2013  01 37  -21.0141 26048.3 -03401.4 -07.4396 26269.4
 08 02 2013  01 38  -21.0142 26048.2 -03401.4 -07.4395 26269.4
 08 02 2013  01 39  -21.0142 26048.0 -03401.2 -07.4393 26269.2
 08 02 2013  01 40  -21.0141 26048.0 -03401.1 -07.4391 26269.1
 08 02 2013  01 41  -21.0141 26047.5 -03400.9 -07.4387 26268.6
 08 02 2013  01 42  -21.0140 26047.2 -03400.7 -07.4383 26268.3
 08 02 2013  01 43  -21.0146 26047.2 -03400.7 -07.4384 26268.3
 08 02 2013  01 44  -21.0152 26046.5 -03400.4 -07.4380 26267.6
 08 02 2013  01 45  -21.0158 26045.3 -03399.9 -07.4371 26266.3
 08 02 2013  01 46  -21.0161 26044.3 -03399.3 -07.4362 26265.2
 08 02 2013  01 47  -21.0163 26043.5 -03398.9 -07.4356 26264.4
 08 02 2013  01 48  -21.0167 26043.0 -03398.7 -07.4352 26263.9
 08 02 2013  01 49  -21.0172 26042.9 -03398.7 -07.4354 26263.8
 08 02 2013  01 50  -21.0179 26043.2 -03399.0 -07.4359 26264.1
 08 02 2013  01 51  -21.0187 26043.3 -03399.2 -07.4362 26264.2
 08 02 2013  01 52  -21.0196 26043.6 -03399.4 -07.4367 26264.5
 08 02 2013  01 53  -21.0201 26043.5 -03399.4 -07.4366 26264.4
 08 02 2013  01 54  -21.0205 26043.9 -03399.6 -07.4370 26264.8
 08 02 2013  01 55  -21.0207 26044.1 -03399.7 -07.4371 26265.1
 08 02 2013  01 56  -21.0213 26045.1 -03400.2 -07.4379 26266.1
 08 02 2013  01 57  -21.0217 26045.1 -03400.3 -07.4381 26266.1
 08 02 2013  01 58  -21.0221 26045.5 -03400.4 -07.4383 26266.5
 08 02 2013  01 59  -21.0225 26045.2 -03400.3 -07.4380 26266.2
 08 02 2013  02 00  -21.0227 26045.3 -03400.2 -07.4378 26266.3
 08 02 2013  02 01  -21.0227 26045.0 -03400.0 -07.4376 26266.0
 08 02 2013  02 02  -21.0222 26044.4 -03399.6 -07.4369 26265.4
 08 02 2013  02 03  -21.0220 26044.0 -03399.4 -07.4365 26264.9
 08 02 2013  02 04  -21.0222 26043.7 -03399.2 -07.4362 26264.6
 08 02 2013  02 05  -21.0227 26043.7 -03399.3 -07.4363 26264.6
 08 02 2013  02 06  -21.0231 26043.3 -03399.1 -07.4361 26264.1
 08 02 2013  02 07  -21.0232 26043.0 -03399.0 -07.4359 26263.9
 08 02 2013  02 08  -21.0231 26042.6 -03398.8 -07.4356 26263.5
 08 02 2013  02 09  -21.0232 26042.5 -03398.8 -07.4356 26263.4
 08 02 2013  02 10  -21.0235 26042.2 -03398.7 -07.4354 26263.1
 08 02 2013  02 11  -21.0237 26042.6 -03398.9 -07.4358 26263.4
 08 02 2013  02 12  -21.0241 26042.5 -03398.9 -07.4359 26263.3
 08 02 2013  02 13  -21.0244 26042.8 -03399.1 -07.4362 26263.7
 08 02 2013  02 14  -21.0248 26042.6 -03399.1 -07.4362 26263.5
 08 02 2013  02 15  -21.0246 26042.5 -03399.0 -07.4361 26263.3
 08 02 2013  02 16  -21.0249 26042.2 -03399.0 -07.4360 26263.1
 08 02 2013  02 17  -21.0247 26041.7 -03398.7 -07.4356 26262.6
 08 02 2013  02 18  -21.0248 26041.2 -03398.5 -07.4353 26262.0
 08 02 2013  02 19  -21.0252 26040.8 -03398.3 -07.4350 26261.6
 08 02 2013  02 20  -21.0255 26040.6 -03398.2 -07.4350 26261.4
 08 02 2013  02 21  -21.0257 26040.3 -03398.2 -07.4350 26261.1
 08 02 2013  02 22  -21.0257 26040.3 -03398.2 -07.4350 26261.1
 08 02 2013  02 23  -21.0261 26040.4 -03398.4 -07.4353 26261.2
 08 02 2013  02 24  -21.0265 26040.4 -03398.5 -07.4355 26261.3
 08 02 2013  02 25  -21.0267 26040.5 -03398.6 -07.4357 26261.3
 08 02 2013  02 26  -21.0267 26040.4 -03398.6 -07.4357 26261.2
 08 02 2013  02 27  -21.0271 26040.2 -03398.6 -07.4357 26261.1
 08 02 2013  02 28  -21.0271 26040.1 -03398.5 -07.4357 26261.0
 08 02 2013  02 29  -21.0274 26039.9 -03398.5 -07.4357 26260.7
 08 02 2013  02 30  -21.0273 26039.6 -03398.4 -07.4355 26260.5
 08 02 2013  02 31  -21.0277 26039.8 -03398.5 -07.4358 26260.7
 08 02 2013  02 32  -21.0279 26039.0 -03398.2 -07.4354 26259.8
 08 02 2013  02 33  -21.0281 26038.8 -03398.1 -07.4351 26259.6
 08 02 2013  02 34  -21.0282 26038.2 -03397.9 -07.4349 26259.0
 08 02 2013  02 35  -21.0281 26038.2 -03397.9 -07.4348 26259.0
 08 02 2013  02 36  -21.0287 26038.0 -03397.9 -07.4350 26258.8
 08 02 2013  02 37  -21.0289 26038.3 -03398.1 -07.4353 26259.1
 08 02 2013  02 38  -21.0292 26038.2 -03398.2 -07.4355 26259.0
 08 02 2013  02 39  -21.0292 26038.3 -03398.3 -07.4356 26259.1
 08 02 2013  02 40  -21.0292 26038.0 -03398.2 -07.4355 26258.8
 08 02 2013  02 41  -21.0294 26038.2 -03398.3 -07.4357 26259.0
 08 02 2013  02 42  -21.0296 26038.1 -03398.3 -07.4358 26258.9
 08 02 2013  02 43  -21.0295 26038.2 -03398.4 -07.4359 26259.0
 08 02 2013  02 44  -21.0298 26038.1 -03398.3 -07.4359 26258.9
 08 02 2013  02 45  -21.0299 26037.9 -03398.3 -07.4359 26258.8
 08 02 2013  02 46  -21.0297 26038.1 -03398.4 -07.4360 26259.0
 08 02 2013  02 47  -21.0301 26038.3 -03398.6 -07.4363 26259.2
 08 02 2013  02 48  -21.0301 26038.4 -03398.6 -07.4364 26259.3
 08 02 2013  02 49  -21.0299 26038.5 -03398.7 -07.4365 26259.3
 08 02 2013  02 50  -21.0295 26038.7 -03398.8 -07.4366 26259.6
 08 02 2013  02 51  -21.0294 26038.9 -03398.9 -07.4369 26259.8
 08 02 2013  02 52  -21.0296 26039.1 -03399.0 -07.4371 26260.0
 08 02 2013  02 53  -21.0296 26039.3 -03399.1 -07.4372 26260.2
 08 02 2013  02 54  -21.0295 26039.3 -03399.2 -07.4373 26260.2
 08 02 2013  02 55  -21.0292 26039.6 -03399.2 -07.4374 26260.5
 08 02 2013  02 56  -21.0288 26039.7 -03399.3 -07.4375 26260.7
 08 02 2013  02 57  -21.0285 26040.0 -03399.4 -07.4377 26261.0
 08 02 2013  02 58  -21.0284 26040.1 -03399.5 -07.4378 26261.0
 08 02 2013  02 59  -21.0281 26040.4 -03399.6 -07.4379 26261.4
 08 02 2013  03 00  -21.0280 26040.7 -03399.7 -07.4382 26261.7
 08 02 2013  03 01  -21.0279 26040.7 -03399.7 -07.4381 26261.7
 08 02 2013  03 02  -21.0279 26040.7 -03399.7 -07.4381 26261.7
 08 02 2013  03 03  -21.0279 26040.7 -03399.7 -07.4381 26261.7
 08 02 2013  03 04  -21.0277 26040.7 -03399.7 -07.4380 26261.7
 08 02 2013  03 05  -21.0276 26040.6 -03399.6 -07.4379 26261.6
 08 02 2013  03 06  -21.0273 26040.8 -03399.6 -07.4379 26261.7
 08 02 2013  03 07  -21.0272 26040.8 -03399.7 -07.4380 26261.8
 08 02 2013  03 08  -21.0273 26041.0 -03399.8 -07.4382 26262.0
 08 02 2013  03 09  -21.0272 26040.9 -03399.7 -07.4381 26261.9
 08 02 2013  03 10  -21.0270 26041.1 -03399.8 -07.4381 26262.1
 08 02 2013  03 11  -21.0272 26041.7 -03400.0 -07.4385 26262.7
 08 02 2013  03 12  -21.0274 26042.1 -03400.3 -07.4390 26263.2
 08 02 2013  03 13  -21.0272 26042.2 -03400.3 -07.4390 26263.2
 08 02 2013  03 14  -21.0271 26042.2 -03400.2 -07.4388 26263.2
 08 02 2013  03 15  -21.0272 26042.3 -03400.2 -07.4388 26263.3
 08 02 2013  03 16  -21.0273 26042.1 -03400.1 -07.4385 26263.1
 08 02 2013  03 17  -21.0270 26042.0 -03400.0 -07.4383 26263.0
 08 02 2013  03 18  -21.0266 26041.7 -03399.8 -07.4380 26262.7
 08 02 2013  03 19  -21.0265 26041.7 -03399.8 -07.4379 26262.7
 08 02 2013  03 20  -21.0264 26041.1 -03399.5 -07.4375 26262.1
 08 02 2013  03 21  -21.0265 26041.1 -03399.5 -07.4376 26262.1
 08 02 2013  03 22  -21.0270 26041.1 -03399.5 -07.4376 26262.0
 08 02 2013  03 23  -21.0274 26041.3 -03399.7 -07.4379 26262.3
 08 02 2013  03 24  -21.0278 26041.3 -03399.7 -07.4379 26262.2
 08 02 2013  03 25  -21.0283 26041.4 -03399.7 -07.4380 26262.4
 08 02 2013  03 26  -21.0288 26041.2 -03399.7 -07.4379 26262.2
 08 02 2013  03 27  -21.0291 26041.1 -03399.6 -07.4378 26262.1
 08 02 2013  03 28  -21.0292 26041.1 -03399.6 -07.4376 26262.0
 08 02 2013  03 29  -21.0292 26041.1 -03399.5 -07.4376 26262.1
 08 02 2013  03 30  -21.0291 26041.2 -03399.6 -07.4376 26262.2
 08 02 2013  03 31  -21.0292 26041.3 -03399.6 -07.4376 26262.2
 08 02 2013  03 32  -21.0294 26041.3 -03399.6 -07.4377 26262.3
 08 02 2013  03 33  -21.0291 26041.3 -03399.6 -07.4376 26262.3
 08 02 2013  03 34  -21.0291 26041.3 -03399.5 -07.4375 26262.2
 08 02 2013  03 35  -21.0289 26041.2 -03399.5 -07.4374 26262.1
 08 02 2013  03 36  -21.0289 26041.2 -03399.4 -07.4374 26262.1
 08 02 2013  03 37  -21.0291 26041.1 -03399.4 -07.4374 26262.0
 08 02 2013  03 38  -21.0290 26040.8 -03399.3 -07.4372 26261.8
 08 02 2013  03 39  -21.0290 26040.5 -03399.1 -07.4369 26261.4
 08 02 2013  03 40  -21.0290 26040.2 -03399.0 -07.4367 26261.1
 08 02 2013  03 41  -21.0290 26039.9 -03398.9 -07.4365 26260.8
 08 02 2013  03 42  -21.0290 26039.8 -03398.8 -07.4364 26260.6
 08 02 2013  03 43  -21.0292 26039.4 -03398.7 -07.4362 26260.3
 08 02 2013  03 44  -21.0292 26039.0 -03398.5 -07.4359 26259.9
 08 02 2013  03 45  -21.0290 26038.8 -03398.4 -07.4358 26259.6
 08 02 2013  03 46  -21.0290 26038.5 -03398.3 -07.4356 26259.3
 08 02 2013  03 47  -21.0288 26038.3 -03398.2 -07.4355 26259.1
 08 02 2013  03 48  -21.0287 26038.1 -03398.2 -07.4355 26259.0
 08 02 2013  03 49  -21.0285 26038.1 -03398.2 -07.4356 26258.9
 08 02 2013  03 50  -21.0286 26038.1 -03398.3 -07.4358 26259.0
 08 02 2013  03 51  -21.0288 26038.1 -03398.4 -07.4360 26258.9
 08 02 2013  03 52  -21.0288 26038.0 -03398.4 -07.4360 26258.8
 08 02 2013  03 53  -21.0289 26038.1 -03398.5 -07.4362 26259.0
 08 02 2013  03 54  -21.0294 26038.3 -03398.6 -07.4364 26259.2
 08 02 2013  03 55  -21.0296 26038.4 -03398.7 -07.4366 26259.3
 08 02 2013  03 56  -21.0299 26038.5 -03398.8 -07.4368 26259.4
 08 02 2013  03 57  -21.0297 26038.6 -03398.8 -07.4368 26259.5
 08 02 2013  03 58  -21.0293 26038.9 -03398.9 -07.4369 26259.8
 08 02 2013  03 59  -21.0291 26039.3 -03399.1 -07.4372 26260.2
 08 02 2013  04 00  -21.0288 26039.4 -03399.2 -07.4374 26260.4
 08 02 2013  04 01  -21.0284 26039.4 -03399.2 -07.4373 26260.4
 08 02 2013  04 02  -21.0282 26039.4 -03399.2 -07.4373 26260.3
 08 02 2013  04 03  -21.0282 26039.4 -03399.2 -07.4373 26260.3
 08 02 2013  04 04  -21.0286 26039.3 -03399.2 -07.4374 26260.3
 08 02 2013  04 05  -21.0289 26039.3 -03399.2 -07.4374 26260.2
 08 02 2013  04 06  -21.0294 26039.1 -03399.2 -07.4374 26260.1
 08 02 2013  04 07  -21.0301 26038.8 -03399.1 -07.4372 26259.7
 08 02 2013  04 08  -21.0309 26038.4 -03398.9 -07.4369 26259.3
 08 02 2013  04 09  -21.0315 26038.0 -03398.7 -07.4366 26258.9
 08 02 2013  04 10  -21.0319 26037.7 -03398.5 -07.4363 26258.5
 08 02 2013  04 11  -21.0323 26037.5 -03398.4 -07.4362 26258.3
 08 02 2013  04 12  -21.0325 26037.3 -03398.3 -07.4361 26258.2
 08 02 2013  04 13  -21.0327 26037.2 -03398.3 -07.4360 26258.0
 08 02 2013  04 14  -21.0328 26037.2 -03398.4 -07.4362 26258.0
 08 02 2013  04 15  -21.0327 26037.3 -03398.5 -07.4364 26258.2
 08 02 2013  04 16  -21.0328 26037.5 -03398.6 -07.4366 26258.4
 08 02 2013  04 17  -21.0326 26037.7 -03398.7 -07.4368 26258.6
 08 02 2013  04 18  -21.0323 26038.0 -03398.9 -07.4371 26258.9
 08 02 2013  04 19  -21.0321 26038.1 -03399.0 -07.4373 26259.0
 08 02 2013  04 20  -21.0320 26038.4 -03399.2 -07.4376 26259.3
 08 02 2013  04 21  -21.0323 26038.5 -03399.3 -07.4378 26259.5
 08 02 2013  04 22  -21.0326 26038.6 -03399.4 -07.4379 26259.6
 08 02 2013  04 23  -21.0327 26038.7 -03399.4 -07.4380 26259.7
 08 02 2013  04 24  -21.0325 26038.7 -03399.4 -07.4380 26259.7
 08 02 2013  04 25  -21.0320 26038.6 -03399.3 -07.4378 26259.5
 08 02 2013  04 26  -21.0313 26038.5 -03399.2 -07.4376 26259.4
 08 02 2013  04 27  -21.0306 26038.5 -03399.1 -07.4374 26259.4
 08 02 2013  04 28  -21.0299 26038.6 -03399.2 -07.4375 26259.5
 08 02 2013  04 29  -21.0293 26038.7 -03399.3 -07.4377 26259.6
 08 02 2013  04 30  -21.0288 26038.9 -03399.4 -07.4380 26259.9
 08 02 2013  04 31  -21.0283 26039.1 -03399.6 -07.4383 26260.0
 08 02 2013  04 32  -21.0282 26038.7 -03399.6 -07.4384 26259.7
 08 02 2013  04 33  -21.0277 26037.9 -03399.2 -07.4379 26258.8
 08 02 2013  04 34  -21.0270 26037.0 -03398.8 -07.4373 26257.9
 08 02 2013  04 35  -21.0263 26036.2 -03398.5 -07.4368 26257.0
 08 02 2013  04 36  -21.0259 26035.8 -03398.4 -07.4367 26256.6
 08 02 2013  04 37  -21.0258 26035.7 -03398.5 -07.4369 26256.6
 08 02 2013  04 38  -21.0256 26036.0 -03398.8 -07.4375 26256.9
 08 02 2013  04 39  -21.0255 26036.3 -03399.1 -07.4379 26257.2
 08 02 2013  04 40  -21.0252 26037.0 -03399.4 -07.4384 26258.0
 08 02 2013  04 41  -21.0253 26037.7 -03399.6 -07.4387 26258.7
 08 02 2013  04 42  -21.0254 26038.2 -03399.8 -07.4390 26259.2
 08 02 2013  04 43  -21.0252 26038.4 -03399.9 -07.4391 26259.4
 08 02 2013  04 44  -21.0250 26038.6 -03399.9 -07.4392 26259.7
 08 02 2013  04 45  -21.0250 26038.7 -03400.1 -07.4394 26259.8
 08 02 2013  04 46  -21.0248 26038.9 -03400.2 -07.4396 26260.0
 08 02 2013  04 47  -21.0245 26039.4 -03400.4 -07.4400 26260.5
 08 02 2013  04 48  -21.0242 26040.2 -03400.8 -07.4406 26261.4
 08 02 2013  04 49  -21.0241 26041.2 -03401.3 -07.4414 26262.4
 08 02 2013  04 50  -21.0242 26042.0 -03401.7 -07.4419 26263.3
 08 02 2013  04 51  -21.0243 26042.6 -03401.8 -07.4421 26263.8
 08 02 2013  04 52  -21.0240 26042.8 -03401.8 -07.4420 26264.1
 08 02 2013  04 53  -21.0236 26043.2 -03401.8 -07.4420 26264.4
 08 02 2013  04 54  -21.0234 26043.7 -03402.0 -07.4423 26264.9
 08 02 2013  04 55  -21.0235 26043.7 -03402.0 -07.4422 26265.0
 08 02 2013  04 56  -21.0237 26043.3 -03401.8 -07.4419 26264.5
 08 02 2013  04 57  -21.0240 26042.7 -03401.5 -07.4414 26263.9
 08 02 2013  04 58  -21.0243 26042.1 -03401.2 -07.4409 26263.2
 08 02 2013  04 59  -21.0246 26041.5 -03401.0 -07.4406 26262.7
 08 02 2013  05 00  -21.0247 26041.3 -03400.9 -07.4405 26262.5
 08 02 2013  05 01  -21.0248 26041.3 -03400.9 -07.4406 26262.4
 08 02 2013  05 02  -21.0250 26041.1 -03400.9 -07.4406 26262.3
 08 02 2013  05 03  -21.0252 26041.0 -03400.9 -07.4406 26262.2
 08 02 2013  05 04  -21.0256 26041.2 -03400.9 -07.4405 26262.3
 08 02 2013  05 05  -21.0260 26041.3 -03400.9 -07.4405 26262.5
 08 02 2013  05 06  -21.0264 26041.6 -03401.0 -07.4406 26262.8
 08 02 2013  05 07  -21.0270 26042.0 -03401.2 -07.4409 26263.1
 08 02 2013  05 08  -21.0275 26042.3 -03401.3 -07.4411 26263.5
 08 02 2013  05 09  -21.0279 26042.7 -03401.5 -07.4413 26263.9
 08 02 2013  05 10  -21.0283 26043.1 -03401.6 -07.4415 26264.3
 08 02 2013  05 11  -21.0285 26043.2 -03401.6 -07.4416 26264.4
 08 02 2013  05 12  -21.0284 26043.3 -03401.6 -07.4415 26264.5
 08 02 2013  05 13  -21.0284 26043.3 -03401.6 -07.4414 26264.5
 08 02 2013  05 14  -21.0285 26043.3 -03401.5 -07.4412 26264.4
 08 02 2013  05 15  -21.0287 26043.3 -03401.4 -07.4411 26264.5
 08 02 2013  05 16  -21.0289 26043.4 -03401.4 -07.4410 26264.6
 08 02 2013  05 17  -21.0293 26043.5 -03401.4 -07.4410 26264.7
 08 02 2013  05 18  -21.0298 26043.6 -03401.4 -07.4410 26264.8
 08 02 2013  05 19  -21.0301 26043.8 -03401.4 -07.4409 26265.0
 08 02 2013  05 20  -21.0303 26043.9 -03401.4 -07.4409 26265.1
 08 02 2013  05 21  -21.0306 26044.0 -03401.4 -07.4409 26265.2
 08 02 2013  05 22  -21.0308 26044.1 -03401.4 -07.4409 26265.3
 08 02 2013  05 23  -21.0312 26044.2 -03401.5 -07.4409 26265.4
 08 02 2013  05 24  -21.0316 26044.1 -03401.5 -07.4409 26265.3
 08 02 2013  05 25  -21.0320 26044.1 -03401.4 -07.4409 26265.3
 08 02 2013  05 26  -21.0324 26044.2 -03401.5 -07.4409 26265.3
 08 02 2013  05 27  -21.0327 26044.2 -03401.5 -07.4409 26265.4
 08 02 2013  05 28  -21.0328 26044.3 -03401.5 -07.4409 26265.4
 08 02 2013  05 29  -21.0327 26044.3 -03401.4 -07.4407 26265.4
 08 02 2013  05 30  -21.0325 26044.3 -03401.3 -07.4406 26265.5
 08 02 2013  05 31  -21.0324 26044.4 -03401.3 -07.4405 26265.5
 08 02 2013  05 32  -21.0324 26044.6 -03401.3 -07.4405 26265.8
 08 02 2013  05 33  -21.0326 26044.8 -03401.4 -07.4406 26266.0
 08 02 2013  05 34  -21.0326 26044.9 -03401.4 -07.4405 26266.1
 08 02 2013  05 35  -21.0325 26045.1 -03401.3 -07.4404 26266.2
 08 02 2013  05 36  -21.0325 26045.3 -03401.3 -07.4403 26266.4
 08 02 2013  05 37  -21.0323 26045.3 -03401.3 -07.4402 26266.5
 08 02 2013  05 38  -21.0321 26045.3 -03401.2 -07.4401 26266.4
 08 02 2013  05 39  -21.0318 26045.2 -03401.2 -07.4400 26266.4
 08 02 2013  05 40  -21.0317 26045.2 -03401.1 -07.4399 26266.4
 08 02 2013  05 41  -21.0316 26045.2 -03401.1 -07.4398 26266.3
 08 02 2013  05 42  -21.0314 26045.1 -03401.1 -07.4398 26266.2
 08 02 2013  05 43  -21.0312 26045.0 -03401.0 -07.4397 26266.1
 08 02 2013  05 44  -21.0311 26045.0 -03401.1 -07.4398 26266.1
 08 02 2013  05 45  -21.0310 26045.0 -03401.1 -07.4399 26266.2
 08 02 2013  05 46  -21.0310 26045.0 -03401.1 -07.4399 26266.1
 08 02 2013  05 47  -21.0312 26045.0 -03401.2 -07.4400 26266.1
 08 02 2013  05 48  -21.0313 26044.8 -03401.1 -07.4400 26265.9
 08 02 2013  05 49  -21.0313 26044.7 -03401.1 -07.4400 26265.8
 08 02 2013  05 50  -21.0312 26044.7 -03401.1 -07.4399 26265.8
 08 02 2013  05 51  -21.0310 26044.8 -03401.1 -07.4399 26265.9
 08 02 2013  05 52  -21.0307 26044.8 -03401.1 -07.4399 26266.0
 08 02 2013  05 53  -21.0305 26045.0 -03401.1 -07.4400 26266.1
 08 02 2013  05 54  -21.0303 26045.1 -03401.2 -07.4401 26266.3
 08 02 2013  05 55  -21.0304 26045.3 -03401.3 -07.4402 26266.4
 08 02 2013  05 56  -21.0305 26045.4 -03401.3 -07.4402 26266.6
 08 02 2013  05 57  -21.0306 26045.6 -03401.3 -07.4402 26266.8
 08 02 2013  05 58  -21.0307 26045.8 -03401.4 -07.4403 26266.9
 08 02 2013  05 59  -21.0307 26045.7 -03401.3 -07.4402 26266.9
 08 02 2013  06 00  -21.0307 26045.7 -03401.3 -07.4401 26266.8
 08 02 2013  06 01  -21.0307 26045.5 -03401.3 -07.4401 26266.7
 08 02 2013  06 02  -21.0305 26045.5 -03401.2 -07.4400 26266.6
 08 02 2013  06 03  -21.0304 26045.4 -03401.2 -07.4400 26266.5
 08 02 2013  06 04  -21.0303 26045.3 -03401.1 -07.4399 26266.5
 08 02 2013  06 05  -21.0303 26045.2 -03401.0 -07.4397 26266.3
 08 02 2013  06 06  -21.0304 26045.0 -03400.9 -07.4395 26266.1
 08 02 2013  06 07  -21.0305 26044.8 -03400.8 -07.4393 26265.9
 08 02 2013  06 08  -21.0306 26044.5 -03400.6 -07.4390 26265.5
 08 02 2013  06 09  -21.0306 26044.2 -03400.4 -07.4387 26265.3
 08 02 2013  06 10  -21.0308 26044.2 -03400.4 -07.4385 26265.2
 08 02 2013  06 11  -21.0311 26044.2 -03400.3 -07.4385 26265.2
 08 02 2013  06 12  -21.0312 26044.2 -03400.3 -07.4384 26265.2
 08 02 2013  06 13  -21.0314 26044.1 -03400.3 -07.4383 26265.1
 08 02 2013  06 14  -21.0316 26044.0 -03400.2 -07.4383 26265.1
 08 02 2013  06 15  -21.0316 26044.1 -03400.2 -07.4383 26265.1
 08 02 2013  06 16  -21.0317 26044.1 -03400.2 -07.4383 26265.1
 08 02 2013  06 17  -21.0318 26044.2 -03400.2 -07.4383 26265.2
 08 02 2013  06 18  -21.0320 26044.2 -03400.2 -07.4383 26265.2
 08 02 2013  06 19  -21.0323 26044.2 -03400.2 -07.4382 26265.2
 08 02 2013  06 20  -21.0325 26044.2 -03400.2 -07.4382 26265.2
 08 02 2013  06 21  -21.0327 26044.3 -03400.2 -07.4382 26265.3
 08 02 2013  06 22  -21.0327 26044.4 -03400.3 -07.4383 26265.4
 08 02 2013  06 23  -21.0327 26044.7 -03400.4 -07.4385 26265.7
 08 02 2013  06 24  -21.0324 26045.3 -03400.7 -07.4390 26266.4
 08 02 2013  06 25  -21.0322 26046.0 -03401.1 -07.4397 26267.2
 08 02 2013  06 26  -21.0318 26046.5 -03401.5 -07.4402 26267.7
 08 02 2013  06 27  -21.0314 26047.0 -03401.7 -07.4406 26268.2
 08 02 2013  06 28  -21.0307 26047.2 -03401.8 -07.4408 26268.4
 08 02 2013  06 29  -21.0300 26047.2 -03401.7 -07.4407 26268.3
 08 02 2013  06 30  -21.0291 26046.9 -03401.6 -07.4403 26268.0
 08 02 2013  06 31  -21.0277 26046.4 -03401.2 -07.4398 26267.5
 08 02 2013  06 32  -21.0263 26045.8 -03400.9 -07.4392 26266.9
 08 02 2013  06 33  -21.0249 26044.8 -03400.4 -07.4384 26265.9
 08 02 2013  06 34  -21.0234 26044.1 -03400.1 -07.4379 26265.2
 08 02 2013  06 35  -21.0225 26043.7 -03399.9 -07.4377 26264.7
 08 02 2013  06 36  -21.0218 26043.4 -03399.9 -07.4378 26264.3
 08 02 2013  06 37  -21.0213 26043.1 -03399.9 -07.4379 26264.1
 08 02 2013  06 38  -21.0213 26043.3 -03400.2 -07.4383 26264.3
 08 02 2013  06 39  -21.0216 26043.4 -03400.4 -07.4389 26264.5
 08 02 2013  06 40  -21.0220 26043.6 -03400.7 -07.4395 26264.7
 08 02 2013  06 41  -21.0224 26043.6 -03400.8 -07.4397 26264.7
 08 02 2013  06 42  -21.0226 26043.5 -03400.9 -07.4398 26264.6
 08 02 2013  06 43  -21.0229 26043.3 -03400.8 -07.4397 26264.4
 08 02 2013  06 44  -21.0234 26043.4 -03400.9 -07.4399 26264.5
 08 02 2013  06 45  -21.0239 26043.6 -03401.1 -07.4402 26264.7
 08 02 2013  06 46  -21.0244 26043.6 -03401.1 -07.4403 26264.7
 08 02 2013  06 47  -21.0245 26043.8 -03401.1 -07.4402 26265.0
 08 02 2013  06 48  -21.0247 26044.4 -03401.3 -07.4406 26265.5
 08 02 2013  06 49  -21.0249 26044.6 -03401.5 -07.4408 26265.8
 08 02 2013  06 50  -21.0253 26044.9 -03401.6 -07.4409 26266.1
 08 02 2013  06 51  -21.0256 26045.0 -03401.6 -07.4410 26266.2
 08 02 2013  06 52  -21.0261 26045.1 -03401.6 -07.4409 26266.3
 08 02 2013  06 53  -21.0266 26044.6 -03401.3 -07.4405 26265.8
 08 02 2013  06 54  -21.0266 26045.0 -03401.4 -07.4405 26266.2
 08 02 2013  06 55  -21.0274 26044.8 -03401.3 -07.4405 26266.0
 08 02 2013  06 56  -21.0279 26044.9 -03401.3 -07.4404 26266.1
 08 02 2013  06 57  -21.0282 26045.4 -03401.5 -07.4407 26266.6
 08 02 2013  06 58  -21.0286 26045.7 -03401.6 -07.4408 26266.9
 08 02 2013  06 59  -21.0290 26045.8 -03401.6 -07.4408 26267.0
 08 02 2013  07 00  -21.0295 26045.5 -03401.4 -07.4404 26266.6
 08 02 2013  07 01  -21.0298 26045.7 -03401.4 -07.4404 26266.9
 08 02 2013  07 02  -21.0307 26045.8 -03401.4 -07.4403 26266.9
 08 02 2013  07 03  -21.0314 26046.3 -03401.6 -07.4406 26267.5
 08 02 2013  07 04  -21.0321 26046.7 -03401.7 -07.4408 26267.9
 08 02 2013  07 05  -21.0328 26047.4 -03402.0 -07.4411 26268.6
 08 02 2013  07 06  -21.0336 26048.1 -03402.2 -07.4415 26269.3
 08 02 2013  07 07  -21.0344 26048.2 -03402.2 -07.4414 26269.4
 08 02 2013  07 08  -21.0351 26048.4 -03402.2 -07.4412 26269.6
 08 02 2013  07 09  -21.0357 26049.1 -03402.4 -07.4415 26270.4
 08 02 2013  07 10  -21.0359 26049.2 -03402.3 -07.4413 26270.5
 08 02 2013  07 11  -21.0363 26049.3 -03402.2 -07.4410 26270.6
 08 02 2013  07 12  -21.0365 26050.0 -03402.3 -07.4412 26271.3
 08 02 2013  07 13  -21.0370 26050.1 -03402.3 -07.4411 26271.4
 08 02 2013  07 14  -21.0370 26050.1 -03402.1 -07.4406 26271.3
 08 02 2013  07 15  -21.0370 26050.5 -03402.1 -07.4406 26271.7
 08 02 2013  07 16  -21.0370 26050.8 -03402.2 -07.4406 26272.0
 08 02 2013  07 17  -21.0373 26050.9 -03402.2 -07.4405 26272.1
 08 02 2013  07 18  -21.0370 26051.0 -03402.1 -07.4403 26272.2
 08 02 2013  07 19  -21.0368 26051.1 -03402.0 -07.4401 26272.3
 08 02 2013  07 20  -21.0369 26051.2 -03402.0 -07.4400 26272.4
 08 02 2013  07 21  -21.0371 26051.5 -03402.0 -07.4400 26272.7
 08 02 2013  07 22  -21.0370 26051.8 -03402.0 -07.4399 26272.9
 08 02 2013  07 23  -21.0372 26051.9 -03402.0 -07.4398 26273.1
 08 02 2013  07 24  -21.0376 26052.1 -03402.0 -07.4398 26273.3
 08 02 2013  07 25  -21.0371 26052.3 -03402.0 -07.4398 26273.5
 08 02 2013  07 26  -21.0367 26052.5 -03402.0 -07.4397 26273.7
 08 02 2013  07 27  -21.0362 26053.0 -03402.2 -07.4399 26274.2
 08 02 2013  07 28  -21.0356 26052.9 -03402.0 -07.4397 26274.0
 08 02 2013  07 29  -21.0350 26053.0 -03402.1 -07.4398 26274.2
 08 02 2013  07 30  -21.0345 26052.7 -03401.9 -07.4395 26273.9
 08 02 2013  07 31  -21.0339 26052.7 -03401.9 -07.4394 26273.8
 08 02 2013  07 32  -21.0331 26052.7 -03401.8 -07.4393 26273.8
 08 02 2013  07 33  -21.0327 26052.5 -03401.7 -07.4391 26273.6
 08 02 2013  07 34  -21.0323 26052.5 -03401.7 -07.4391 26273.6
 08 02 2013  07 35  -21.0320 26052.3 -03401.7 -07.4390 26273.5
 08 02 2013  07 36  -21.0318 26052.1 -03401.5 -07.4388 26273.2
 08 02 2013  07 37  -21.0318 26052.0 -03401.5 -07.4388 26273.1
 08 02 2013  07 38  -21.0314 26051.8 -03401.4 -07.4387 26272.9
 08 02 2013  07 39  -21.0310 26051.5 -03401.3 -07.4384 26272.6
 08 02 2013  07 40  -21.0307 26051.3 -03401.1 -07.4382 26272.4
 08 02 2013  07 41  -21.0301 26051.2 -03401.0 -07.4380 26272.3
 08 02 2013  07 42  -21.0294 26051.0 -03400.9 -07.4378 26272.1
 08 02 2013  07 43  -21.0288 26051.0 -03400.9 -07.4378 26272.1
 08 02 2013  07 44  -21.0282 26050.9 -03401.0 -07.4379 26272.0
 08 02 2013  07 45  -21.0282 26050.9 -03401.1 -07.4381 26272.0
 08 02 2013  07 46  -21.0283 26051.0 -03401.2 -07.4384 26272.0
 08 02 2013  07 47  -21.0288 26050.7 -03401.2 -07.4385 26271.8
 08 02 2013  07 48  -21.0289 26050.5 -03401.2 -07.4385 26271.5
 08 02 2013  07 49  -21.0289 26050.1 -03401.1 -07.4384 26271.2
 08 02 2013  07 50  -21.0289 26049.9 -03401.0 -07.4384 26271.0
 08 02 2013  07 51  -21.0288 26050.0 -03401.1 -07.4386 26271.1
 08 02 2013  07 52  -21.0286 26050.1 -03401.3 -07.4389 26271.3
 08 02 2013  07 53  -21.0285 26050.4 -03401.5 -07.4393 26271.5
 08 02 2013  07 54  -21.0285 26050.8 -03401.8 -07.4398 26271.9
 08 02 2013  07 55  -21.0284 26051.2 -03402.1 -07.4402 26272.4
 08 02 2013  07 56  -21.0280 26051.5 -03402.2 -07.4405 26272.7
 08 02 2013  07 57  -21.0280 26051.4 -03402.3 -07.4406 26272.7
 08 02 2013  07 58  -21.0275 26051.6 -03402.4 -07.4407 26272.9
 08 02 2013  07 59  -21.0270 26051.9 -03402.5 -07.4409 26273.2
 08 02 2013  08 00  -21.0262 26052.0 -03402.5 -07.4409 26273.3
 08 02 2013  08 01  -21.0259 26051.8 -03402.3 -07.4407 26273.0
 08 02 2013  08 02  -21.0259 26051.2 -03402.0 -07.4401 26272.4
 08 02 2013  08 03  -21.0255 26050.9 -03401.8 -07.4397 26272.0
 08 02 2013  08 04  -21.0252 26050.7 -03401.7 -07.4396 26271.9
 08 02 2013  08 05  -21.0253 26050.5 -03401.7 -07.4395 26271.7
 08 02 2013  08 06  -21.0254 26050.4 -03401.6 -07.4395 26271.5
 08 02 2013  08 07  -21.0254 26050.5 -03401.8 -07.4398 26271.6
 08 02 2013  08 08  -21.0256 26050.4 -03401.8 -07.4399 26271.6
 08 02 2013  08 09  -21.0258 26050.3 -03401.8 -07.4398 26271.5
 08 02 2013  08 10  -21.0260 26050.5 -03401.9 -07.4400 26271.7
 08 02 2013  08 11  -21.0262 26050.6 -03402.0 -07.4402 26271.8
 08 02 2013  08 12  -21.0268 26050.3 -03401.9 -07.4401 26271.5
 08 02 2013  08 13  -21.0273 26050.2 -03401.8 -07.4399 26271.4
 08 02 2013  08 14  -21.0275 26050.3 -03401.8 -07.4399 26271.5
 08 02 2013  08 15  -21.0277 26050.5 -03401.9 -07.4401 26271.6
 08 02 2013  08 16  -21.0279 26050.4 -03401.9 -07.4401 26271.6
 08 02 2013  08 17  -21.0281 26050.5 -03402.0 -07.4402 26271.7
 08 02 2013  08 18  -21.0281 26050.6 -03402.0 -07.4403 26271.8
 08 02 2013  08 19  -21.0277 26050.8 -03402.1 -07.4404 26272.0
 08 02 2013  08 20  -21.0275 26050.8 -03402.1 -07.4404 26272.0
 08 02 2013  08 21  -21.0274 26050.6 -03402.0 -07.4403 26271.8
 08 02 2013  08 22  -21.0271 26050.6 -03402.0 -07.4402 26271.8
 08 02 2013  08 23  -21.0267 26050.6 -03402.0 -07.4402 26271.8
 08 02 2013  08 24  -21.0264 26050.6 -03402.0 -07.4402 26271.8
 08 02 2013  08 25  -21.0263 26050.7 -03402.0 -07.4402 26271.9
 08 02 2013  08 26  -21.0262 26050.9 -03402.2 -07.4406 26272.1
 08 02 2013  08 27  -21.0261 26051.1 -03402.3 -07.4408 26272.3
 08 02 2013  08 28  -21.0259 26051.3 -03402.4 -07.4410 26272.5
 08 02 2013  08 29  -21.0256 26051.5 -03402.6 -07.4412 26272.7
 08 02 2013  08 30  -21.0254 26051.5 -03402.6 -07.4413 26272.7
 08 02 2013  08 31  -21.0251 26051.4 -03402.6 -07.4414 26272.7
 08 02 2013  08 32  -21.0250 26051.2 -03402.5 -07.4413 26272.4
 08 02 2013  08 33  -21.0248 26051.2 -03402.5 -07.4412 26272.4
 08 02 2013  08 34  -21.0245 26051.1 -03402.5 -07.4411 26272.4
 08 02 2013  08 35  -21.0244 26051.1 -03402.5 -07.4411 26272.4
 08 02 2013  08 36  -21.0242 26050.8 -03402.4 -07.4410 26272.1
 08 02 2013  08 37  -21.0239 26050.8 -03402.3 -07.4409 26272.1
 08 02 2013  08 38  -21.0237 26050.8 -03402.3 -07.4409 26272.0
 08 02 2013  08 39  -21.0232 26050.7 -03402.3 -07.4409 26271.9
 08 02 2013  08 40  -21.0225 26050.5 -03402.3 -07.4408 26271.7
 08 02 2013  08 41  -21.0218 26050.3 -03402.2 -07.4407 26271.5
 08 02 2013  08 42  -21.0211 26050.2 -03402.1 -07.4406 26271.4
 08 02 2013  08 43  -21.0207 26050.1 -03402.1 -07.4406 26271.4
 08 02 2013  08 44  -21.0206 26050.1 -03402.1 -07.4406 26271.3
 08 02 2013  08 45  -21.0205 26049.8 -03402.0 -07.4405 26271.0
 08 02 2013  08 46  -21.0209 26049.1 -03401.6 -07.4398 26270.2
 08 02 2013  08 47  -21.0205 26048.7 -03401.4 -07.4395 26269.8
 08 02 2013  08 48  -21.0204 26048.4 -03401.2 -07.4392 26269.6
 08 02 2013  08 49  -21.0203 26048.2 -03401.1 -07.4390 26269.3
 08 02 2013  08 50  -21.0199 26047.9 -03401.0 -07.4388 26269.0
 08 02 2013  08 51  -21.0195 26047.6 -03400.8 -07.4386 26268.7
 08 02 2013  08 52  -21.0191 26047.1 -03400.6 -07.4383 26268.2
 08 02 2013  08 53  -21.0185 26046.8 -03400.4 -07.4380 26267.8
 08 02 2013  08 54  -21.0179 26046.5 -03400.3 -07.4378 26267.5
 08 02 2013  08 55  -21.0173 26046.5 -03400.3 -07.4378 26267.5
 08 02 2013  08 56  -21.0166 26046.5 -03400.5 -07.4381 26267.5
 08 02 2013  08 57  -21.0160 26046.5 -03400.6 -07.4384 26267.5
 08 02 2013  08 58  -21.0156 26046.5 -03400.8 -07.4388 26267.5
 08 02 2013  08 59  -21.0152 26046.4 -03400.9 -07.4392 26267.5
 08 02 2013  09 00  -21.0149 26046.6 -03401.2 -07.4397 26267.7
 08 02 2013  09 01  -21.0146 26046.6 -03401.4 -07.4402 26267.7
 08 02 2013  09 02  -21.0145 26046.7 -03401.7 -07.4408 26267.9
 08 02 2013  09 03  -21.0148 26046.7 -03401.9 -07.4412 26267.9
 08 02 2013  09 04  -21.0148 26046.9 -03402.2 -07.4418 26268.1
 08 02 2013  09 05  -21.0146 26046.9 -03402.4 -07.4422 26268.2
 08 02 2013  09 06  -21.0146 26046.7 -03402.6 -07.4427 26268.0
 08 02 2013  09 07  -21.0146 26046.5 -03402.8 -07.4431 26267.9
 08 02 2013  09 08  -21.0149 26046.4 -03403.0 -07.4435 26267.8
 08 02 2013  09 09  -21.0153 26046.2 -03403.1 -07.4438 26267.6
 08 02 2013  09 10  -21.0157 26046.2 -03403.2 -07.4440 26267.5
 08 02 2013  09 11  -21.0162 26045.9 -03403.2 -07.4441 26267.3
 08 02 2013  09 12  -21.0166 26045.4 -03403.1 -07.4440 26266.8
 08 02 2013  09 13  -21.0171 26045.3 -03403.0 -07.4440 26266.7
 08 02 2013  09 14  -21.0173 26045.2 -03403.0 -07.4439 26266.6
 08 02 2013  09 15  -21.0175 26045.3 -03403.1 -07.4441 26266.6
 08 02 2013  09 16  -21.0182 26045.3 -03403.2 -07.4444 26266.7
 08 02 2013  09 17  -21.0188 26045.2 -03403.3 -07.4447 26266.6
 08 02 2013  09 18  -21.0197 26045.3 -03403.4 -07.4449 26266.7
 08 02 2013  09 19  -21.0206 26045.4 -03403.6 -07.4452 26266.8
 08 02 2013  09 20  -21.0215 26045.3 -03403.6 -07.4453 26266.8
 08 02 2013  09 21  -21.0225 26045.3 -03403.7 -07.4454 26266.8
 08 02 2013  09 22  -21.0235 26045.5 -03403.9 -07.4457 26267.0
 08 02 2013  09 23  -21.0247 26045.7 -03403.9 -07.4458 26267.2
 08 02 2013  09 24  -21.0256 26045.7 -03403.9 -07.4458 26267.2
 08 02 2013  09 25  -21.0267 26045.6 -03403.9 -07.4457 26267.1
 08 02 2013  09 26  -21.0279 26045.9 -03403.9 -07.4458 26267.4
 08 02 2013  09 27  -21.0290 26046.0 -03404.0 -07.4458 26267.5
 08 02 2013  09 28  -21.0297 26045.8 -03403.8 -07.4455 26267.3
 08 02 2013  09 29  -21.0300 26045.7 -03403.7 -07.4453 26267.2
 08 02 2013  09 30  -21.0303 26045.6 -03403.5 -07.4450 26267.0
 08 02 2013  09 31  -21.0307 26045.6 -03403.4 -07.4448 26267.0
 08 02 2013  09 32  -21.0308 26045.7 -03403.5 -07.4448 26267.1
 08 02 2013  09 33  -21.0316 26045.6 -03403.5 -07.4448 26267.0
 08 02 2013  09 34  -21.0322 26045.7 -03403.5 -07.4450 26267.1
 08 02 2013  09 35  -21.0330 26045.7 -03403.6 -07.4451 26267.1
 08 02 2013  09 36  -21.0339 26046.1 -03403.8 -07.4454 26267.6
 08 02 2013  09 37  -21.0349 26046.3 -03403.9 -07.4456 26267.8
 08 02 2013  09 38  -21.0362 26046.7 -03404.0 -07.4458 26268.2
 08 02 2013  09 39  -21.0379 26047.2 -03404.2 -07.4460 26268.7
 08 02 2013  09 40  -21.0392 26047.4 -03404.2 -07.4459 26269.0
 08 02 2013  09 41  -21.0402 26047.6 -03404.1 -07.4456 26269.0
 08 02 2013  09 42  -21.0410 26047.5 -03403.9 -07.4453 26269.0
 08 02 2013  09 43  -21.0418 26047.6 -03403.8 -07.4450 26269.1
 08 02 2013  09 44  -21.0425 26047.7 -03403.8 -07.4449 26269.1
 08 02 2013  09 45  -21.0430 26047.6 -03403.6 -07.4446 26269.0
 08 02 2013  09 46  -21.0433 26047.4 -03403.5 -07.4443 26268.8
 08 02 2013  09 47  -21.0437 26047.3 -03403.3 -07.4441 26268.7
 08 02 2013  09 48  -21.0441 26047.2 -03403.3 -07.4439 26268.6
 08 02 2013  09 49  -21.0446 26047.2 -03403.2 -07.4439 26268.6
 08 02 2013  09 50  -21.0451 26047.3 -03403.3 -07.4439 26268.7
 08 02 2013  09 51  -21.0459 26047.4 -03403.3 -07.4439 26268.8
 08 02 2013  09 52  -21.0468 26047.5 -03403.3 -07.4439 26268.9
 08 02 2013  09 53  -21.0481 26047.4 -03403.2 -07.4437 26268.7
 08 02 2013  09 54  -21.0487 26047.4 -03403.1 -07.4435 26268.8
 08 02 2013  09 55  -21.0491 26047.2 -03403.0 -07.4433 26268.6
 08 02 2013  09 56  -21.0495 26046.9 -03402.8 -07.4431 26268.3
 08 02 2013  09 57  -21.0497 26046.7 -03402.7 -07.4429 26268.0
 08 02 2013  09 58  -21.0502 26046.4 -03402.6 -07.4428 26267.7
 08 02 2013  09 59  -21.0507 26046.3 -03402.7 -07.4429 26267.6
 08 02 2013  10 00  -21.0514 26046.3 -03402.7 -07.4429 26267.6
 08 02 2013  10 01  -21.0522 26046.4 -03402.7 -07.4430 26267.8
 08 02 2013  10 02  -21.0530 26046.5 -03402.8 -07.4431 26267.9
 08 02 2013  10 03  -21.0538 26046.7 -03402.7 -07.4429 26268.0
 08 02 2013  10 04  -21.0550 26046.7 -03402.7 -07.4429 26268.0
 08 02 2013  10 05  -21.0558 26046.8 -03402.6 -07.4427 26268.1
 08 02 2013  10 06  -21.0566 26046.6 -03402.5 -07.4424 26267.9
 08 02 2013  10 07  -21.0570 26046.5 -03402.4 -07.4422 26267.8
 08 02 2013  10 08  -21.0575 26046.3 -03402.2 -07.4419 26267.5
 08 02 2013  10 09  -21.0583 26046.2 -03402.2 -07.4420 26267.5
 08 02 2013  10 10  -21.0588 26046.1 -03402.2 -07.4420 26267.4
 08 02 2013  10 11  -21.0595 26046.1 -03402.2 -07.4420 26267.4
 08 02 2013  10 12  -21.0604 26046.0 -03402.2 -07.4419 26267.3
 08 02 2013  10 13  -21.0613 26046.4 -03402.2 -07.4419 26267.6
 08 02 2013  10 14  -21.0622 26046.7 -03402.2 -07.4417 26268.0
 08 02 2013  10 15  -21.0628 26047.4 -03402.2 -07.4415 26268.6
 08 02 2013  10 16  -21.0639 26048.1 -03402.2 -07.4415 26269.3
 08 02 2013  10 17  -21.0647 26048.6 -03402.2 -07.4412 26269.9
 08 02 2013  10 18  -21.0653 26049.1 -03402.0 -07.4407 26270.3
 08 02 2013  10 19  -21.0652 26049.3 -03401.7 -07.4400 26270.4
 08 02 2013  10 20  -21.0658 26049.4 -03401.5 -07.4395 26270.6
 08 02 2013  10 21  -21.0661 26049.5 -03401.3 -07.4390 26270.6
 08 02 2013  10 22  -21.0659 26049.3 -03401.0 -07.4384 26270.4
 08 02 2013  10 23  -21.0660 26049.3 -03400.8 -07.4380 26270.4
 08 02 2013  10 24  -21.0663 26049.5 -03400.7 -07.4378 26270.6
 08 02 2013  10 25  -21.0665 26049.7 -03400.6 -07.4375 26270.8
 08 02 2013  10 26  -21.0671 26050.4 -03400.8 -07.4376 26271.5
 08 02 2013  10 27  -21.0671 26050.5 -03400.6 -07.4374 26271.5
 08 02 2013  10 28  -21.0676 26050.5 -03400.5 -07.4370 26271.5
 08 02 2013  10 29  -21.0677 26050.4 -03400.3 -07.4367 26271.4
 08 02 2013  10 30  -21.0681 26050.3 -03400.2 -07.4364 26271.3
 08 02 2013  10 31  -21.0681 26049.9 -03399.9 -07.4360 26270.9
 08 02 2013  10 32  -21.0680 26049.7 -03399.8 -07.4358 26270.6
 08 02 2013  10 33  -21.0683 26049.7 -03399.9 -07.4359 26270.7
 08 02 2013  10 34  -21.0686 26050.0 -03399.9 -07.4359 26270.9
 08 02 2013  10 35  -21.0686 26050.0 -03399.9 -07.4360 26270.9
 08 02 2013  10 36  -21.0687 26049.9 -03399.8 -07.4358 26270.8
 08 02 2013  10 37  -21.0690 26050.0 -03400.0 -07.4360 26271.0
 08 02 2013  10 38  -21.0692 26049.9 -03400.0 -07.4360 26270.9
 08 02 2013  10 39  -21.0695 26049.9 -03400.0 -07.4361 26270.9
 08 02 2013  10 40  -21.0698 26049.9 -03400.0 -07.4361 26270.8
 08 02 2013  10 41  -21.0701 26050.2 -03400.2 -07.4364 26271.2
 08 02 2013  10 42  -21.0701 26050.3 -03400.2 -07.4364 26271.2
 08 02 2013  10 43  -21.0705 26050.4 -03400.3 -07.4365 26271.4
 08 02 2013  10 44  -21.0709 26050.7 -03400.3 -07.4365 26271.6
 08 02 2013  10 45  -21.0716 26051.2 -03400.4 -07.4366 26272.2
 08 02 2013  10 46  -21.0720 26051.6 -03400.4 -07.4365 26272.6
 08 02 2013  10 47  -21.0728 26052.0 -03400.3 -07.4362 26273.0
 08 02 2013  10 48  -21.0732 26052.2 -03400.1 -07.4358 26273.1
 08 02 2013  10 49  -21.0732 26052.7 -03399.9 -07.4352 26273.6
 08 02 2013  10 50  -21.0727 26053.1 -03399.7 -07.4346 26274.0
 08 02 2013  10 51  -21.0738 26054.3 -03399.9 -07.4346 26275.2
 08 02 2013  10 52  -21.0745 26055.0 -03399.9 -07.4344 26275.9
 08 02 2013  10 53  -21.0736 26054.5 -03399.3 -07.4332 26275.3
 08 02 2013  10 54  -21.0729 26054.3 -03398.9 -07.4324 26275.1
 08 02 2013  10 55  -21.0726 26054.9 -03399.0 -07.4324 26275.7
 08 02 2013  10 56  -21.0722 26055.3 -03398.9 -07.4322 26276.1
 08 02 2013  10 57  -21.0716 26055.5 -03398.8 -07.4319 26276.2
 08 02 2013  10 58  -21.0716 26055.8 -03398.7 -07.4317 26276.6
 08 02 2013  10 59  -21.0713 26056.1 -03398.7 -07.4315 26276.8
 08 02 2013  11 00  -21.0714 26055.9 -03398.4 -07.4310 26276.6
 08 02 2013  11 01  -21.0723 26056.0 -03398.4 -07.4309 26276.6
 08 02 2013  11 02  -21.0736 26056.0 -03398.3 -07.4307 26276.7
 08 02 2013  11 03  -21.0736 26056.3 -03398.3 -07.4307 26276.9
 08 02 2013  11 04  -21.0735 26055.6 -03397.9 -07.4300 26276.2
 08 02 2013  11 05  -21.0734 26055.0 -03397.6 -07.4294 26275.5
 08 02 2013  11 06  -21.0734 26054.9 -03397.5 -07.4293 26275.4
 08 02 2013  11 07  -21.0734 26055.3 -03397.7 -07.4296 26275.9
 08 02 2013  11 08  -21.0733 26055.6 -03397.8 -07.4297 26276.2
 08 02 2013  11 09  -21.0730 26056.1 -03397.8 -07.4297 26276.7
 08 02 2013  11 10  -21.0729 26056.9 -03398.0 -07.4297 26277.5
 08 02 2013  11 11  -21.0730 26057.9 -03398.0 -07.4296 26278.5
 08 02 2013  11 12  -21.0737 26058.8 -03398.1 -07.4295 26279.4
 08 02 2013  11 13  -21.0748 26058.9 -03397.8 -07.4289 26279.4
 08 02 2013  11 14  -21.0750 26058.9 -03397.5 -07.4282 26279.5
 08 02 2013  11 15  -21.0744 26059.3 -03397.4 -07.4278 26279.8
 08 02 2013  11 16  -21.0742 26059.8 -03397.4 -07.4276 26280.3
 08 02 2013  11 17  -21.0734 26060.1 -03397.3 -07.4274 26280.6
 08 02 2013  11 18  -21.0724 26060.1 -03397.2 -07.4271 26280.6
 08 02 2013  11 19  -21.0717 26059.8 -03397.0 -07.4267 26280.3
 08 02 2013  11 20  -21.0743 26059.7 -03396.9 -07.4266 26280.1
 08 02 2013  11 21  -21.0747 26059.5 -03396.8 -07.4266 26280.0
 08 02 2013  11 22  -21.0727 26058.9 -03396.6 -07.4262 26279.3
 08 02 2013  11 23  -21.0726 26058.3 -03396.3 -07.4258 26278.7
 08 02 2013  11 24  -21.0725 26058.0 -03396.2 -07.4256 26278.4
 08 02 2013  11 25  -21.0727 26057.9 -03396.1 -07.4253 26278.2
 08 02 2013  11 26  -21.0734 26057.5 -03395.9 -07.4251 26277.8
 08 02 2013  11 27  -21.0737 26057.7 -03395.9 -07.4251 26278.0
 08 02 2013  11 28  -21.0741 26057.2 -03395.7 -07.4248 26277.5
 08 02 2013  11 29  -21.0750 26056.9 -03395.6 -07.4247 26277.2
 08 02 2013  11 30  -21.0760 26057.0 -03395.7 -07.4248 26277.4
 08 02 2013  11 31  -21.0766 26056.1 -03395.4 -07.4244 26276.3
 08 02 2013  11 32  -21.0770 26056.3 -03395.5 -07.4246 26276.6
 08 02 2013  11 33  -21.0773 26055.8 -03395.3 -07.4243 26276.1
 08 02 2013  11 34  -21.0771 26056.0 -03395.3 -07.4242 26276.2
 08 02 2013  11 35  -21.0771 26056.7 -03395.4 -07.4243 26277.0
 08 02 2013  11 36  -21.0768 26058.0 -03395.7 -07.4246 26278.3
 08 02 2013  11 37  -21.0763 26058.9 -03395.7 -07.4243 26279.2
 08 02 2013  11 38  -21.0758 26060.0 -03395.8 -07.4242 26280.3
 08 02 2013  11 39  -21.0750 26060.5 -03395.6 -07.4237 26280.8
 08 02 2013  11 40  -21.0746 26061.2 -03395.5 -07.4232 26281.4
 08 02 2013  11 41  -21.0742 26061.9 -03395.4 -07.4227 26282.1
 08 02 2013  11 42  -21.0736 26062.4 -03395.1 -07.4221 26282.6
 08 02 2013  11 43  -21.0734 26062.8 -03394.9 -07.4215 26283.0
 08 02 2013  11 44  -21.0731 26063.1 -03394.6 -07.4208 26283.2
 08 02 2013  11 45  -21.0726 26063.3 -03394.3 -07.4201 26283.4
 08 02 2013  11 46  -21.0728 26063.9 -03394.2 -07.4197 26284.0
 08 02 2013  11 47  -21.0726 26064.8 -03394.2 -07.4194 26284.8
 08 02 2013  11 48  -21.0720 26065.4 -03394.1 -07.4191 26285.5
 08 02 2013  11 49  -21.0711 26066.0 -03394.0 -07.4186 26286.0
 08 02 2013  11 50  -21.0701 26066.5 -03393.9 -07.4182 26286.5
 08 02 2013  11 51  -21.0698 26067.2 -03393.9 -07.4180 26287.2
 08 02 2013  11 52  -21.0693 26068.3 -03393.9 -07.4178 26288.3
 08 02 2013  11 53  -21.0688 26069.1 -03393.9 -07.4174 26289.1
 08 02 2013  11 54  -21.0687 26070.0 -03393.8 -07.4170 26290.0
 08 02 2013  11 55  -21.0686 26071.0 -03393.7 -07.4165 26290.9
 08 02 2013  11 56  -21.0685 26071.2 -03393.3 -07.4157 26291.1
 08 02 2013  11 57  -21.0686 26071.3 -03392.9 -07.4148 26291.2
 08 02 2013  11 58  -21.0685 26071.7 -03392.7 -07.4142 26291.5
 08 02 2013  11 59  -21.0679 26072.1 -03392.4 -07.4135 26291.9
 08 02 2013  12 00  -21.0673 26071.8 -03391.9 -07.4125 26291.5
 08 02 2013  12 01  -21.0667 26071.7 -03391.5 -07.4117 26291.4
 08 02 2013  12 02  -21.0659 26072.4 -03391.5 -07.4115 26292.1
 08 02 2013  12 03  -21.0649 26072.9 -03391.4 -07.4110 26292.5
 08 02 2013  12 04  -21.0643 26073.9 -03391.5 -07.4110 26293.5
 08 02 2013  12 05  -21.0638 26074.6 -03391.5 -07.4108 26294.3
 08 02 2013  12 06  -21.0634 26074.8 -03391.3 -07.4102 26294.4
 08 02 2013  12 07  -21.0629 26074.9 -03391.0 -07.4097 26294.5
 08 02 2013  12 08  -21.0622 26075.2 -03390.8 -07.4092 26294.8
 08 02 2013  12 09  -21.0616 26075.5 -03390.7 -07.4089 26295.1
 08 02 2013  12 10  -21.0613 26075.7 -03390.6 -07.4085 26295.2
 08 02 2013  12 11  -21.0607 26076.0 -03390.5 -07.4081 26295.5
 08 02 2013  12 12  -21.0606 26076.1 -03390.3 -07.4078 26295.5
 08 02 2013  12 13  -21.0604 26076.5 -03390.3 -07.4077 26296.0
 08 02 2013  12 14  -21.0603 26076.9 -03390.3 -07.4074 26296.4
 08 02 2013  12 15  -21.0604 26076.9 -03390.0 -07.4068 26296.3
 08 02 2013  12 16  -21.0607 26077.1 -03389.8 -07.4063 26296.5
 08 02 2013  12 17  -21.0600 26076.6 -03389.3 -07.4054 26295.9
 08 02 2013  12 18  -21.0594 26076.2 -03388.9 -07.4047 26295.4
 08 02 2013  12 19  -21.0589 26076.2 -03388.7 -07.4044 26295.5
 08 02 2013  12 20  -21.0583 26076.6 -03388.7 -07.4042 26295.9
 08 02 2013  12 21  -21.0576 26076.8 -03388.6 -07.4038 26296.0
 08 02 2013  12 22  -21.0566 26077.0 -03388.4 -07.4034 26296.2
 08 02 2013  12 23  -21.0552 26077.1 -03388.2 -07.4029 26296.3
 08 02 2013  12 24  -21.0544 26078.0 -03388.3 -07.4030 26297.2
 08 02 2013  12 25  -21.0538 26078.7 -03388.4 -07.4029 26298.0
 08 02 2013  12 26  -21.0533 26079.5 -03388.4 -07.4026 26298.7
 08 02 2013  12 27  -21.0524 26080.0 -03388.1 -07.4019 26299.1
 08 02 2013  12 28  -21.0516 26080.6 -03388.0 -07.4014 26299.8
 08 02 2013  12 29  -21.0513 26080.5 -03387.6 -07.4007 26299.5
 08 02 2013  12 30  -21.0505 26080.1 -03387.2 -07.4000 26299.2
 08 02 2013  12 31  -21.0496 26080.2 -03387.1 -07.3997 26299.2
 08 02 2013  12 32  -21.0489 26080.8 -03387.2 -07.3997 26299.8
 08 02 2013  12 33  -21.0482 26081.3 -03387.3 -07.3997 26300.4
 08 02 2013  12 34  -21.0469 26081.0 -03387.0 -07.3992 26300.0
 08 02 2013  12 35  -21.0463 26081.4 -03387.0 -07.3992 26300.4
 08 02 2013  12 36  -21.0456 26082.1 -03387.2 -07.3994 26301.1
 08 02 2013  12 37  -21.0450 26083.0 -03387.4 -07.3996 26302.1
 08 02 2013  12 38  -21.0446 26083.4 -03387.3 -07.3993 26302.4
 08 02 2013  12 39  -21.0443 26083.2 -03387.0 -07.3986 26302.2
 08 02 2013  12 40  -21.0438 26083.4 -03386.8 -07.3982 26302.3
 08 02 2013  12 41  -21.0433 26082.9 -03386.4 -07.3975 26301.8
 08 02 2013  12 42  -21.0428 26082.8 -03386.3 -07.3973 26301.7
 08 02 2013  12 43  -21.0420 26082.8 -03386.2 -07.3971 26301.7
 08 02 2013  12 44  -21.0414 26082.5 -03386.1 -07.3968 26301.4
 08 02 2013  12 45  -21.0409 26082.2 -03385.9 -07.3966 26301.1
 08 02 2013  12 46  -21.0401 26081.9 -03385.8 -07.3964 26300.7
 08 02 2013  12 47  -21.0401 26081.9 -03385.8 -07.3965 26300.7
 08 02 2013  12 48  -21.0405 26082.2 -03386.0 -07.3968 26301.1
 08 02 2013  12 49  -21.0406 26082.7 -03386.2 -07.3970 26301.6
 08 02 2013  12 50  -21.0403 26083.1 -03386.2 -07.3970 26302.0
 08 02 2013  12 51  -21.0394 26082.6 -03385.8 -07.3963 26301.4
 08 02 2013  12 52  -21.0389 26081.9 -03385.5 -07.3959 26300.7
 08 02 2013  12 53  -21.0385 26081.4 -03385.5 -07.3958 26300.2
 08 02 2013  12 54  -21.0379 26080.8 -03385.3 -07.3957 26299.5
 08 02 2013  12 55  -21.0377 26080.8 -03385.5 -07.3962 26299.6
 08 02 2013  12 56  -21.0376 26081.0 -03385.8 -07.3966 26299.9
 08 02 2013  12 57  -21.0378 26081.0 -03385.9 -07.3968 26299.9
 08 02 2013  12 58  -21.0378 26081.0 -03385.9 -07.3969 26299.9
 08 02 2013  12 59  -21.0380 26080.9 -03385.9 -07.3969 26299.8
 08 02 2013  13 00  -21.0380 26080.0 -03385.6 -07.3965 26298.8
 08 02 2013  13 01  -21.0377 26079.4 -03385.4 -07.3964 26298.2
 08 02 2013  13 02  -21.0374 26079.4 -03385.6 -07.3967 26298.2
 08 02 2013  13 03  -21.0372 26079.2 -03385.7 -07.3969 26298.1
 08 02 2013  13 04  -21.0377 26080.0 -03386.1 -07.3976 26298.9
 08 02 2013  13 05  -21.0379 26079.8 -03386.0 -07.3975 26298.7
 08 02 2013  13 06  -21.0377 26079.2 -03385.7 -07.3970 26298.1
 08 02 2013  13 07  -21.0374 26079.1 -03385.7 -07.3970 26297.9
 08 02 2013  13 08  -21.0372 26078.4 -03385.5 -07.3968 26297.3
 08 02 2013  13 09  -21.0367 26077.8 -03385.4 -07.3966 26296.6
 08 02 2013  13 10  -21.0362 26077.6 -03385.4 -07.3968 26296.4
 08 02 2013  13 11  -21.0360 26077.3 -03385.5 -07.3970 26296.2
 08 02 2013  13 12  -21.0352 26076.6 -03385.3 -07.3968 26295.4
 08 02 2013  13 13  -21.0348 26076.1 -03385.3 -07.3969 26294.9
 08 02 2013  13 14  -21.0347 26075.5 -03385.2 -07.3969 26294.3
 08 02 2013  13 15  -21.0343 26075.0 -03385.2 -07.3970 26293.8
 08 02 2013  13 16  -21.0339 26075.1 -03385.4 -07.3975 26294.0
 08 02 2013  13 17  -21.0335 26075.1 -03385.6 -07.3979 26294.0
 08 02 2013  13 18  -21.0327 26075.0 -03385.7 -07.3982 26293.9
 08 02 2013  13 19  -21.0319 26075.2 -03385.9 -07.3986 26294.1
 08 02 2013  13 20  -21.0309 26075.4 -03386.1 -07.3989 26294.3
 08 02 2013  13 21  -21.0300 26075.6 -03386.4 -07.3994 26294.6
 08 02 2013  13 22  -21.0299 26075.9 -03386.7 -07.4000 26294.9
 08 02 2013  13 23  -21.0301 26075.9 -03386.7 -07.4001 26294.9
 08 02 2013  13 24  -21.0303 26076.3 -03386.9 -07.4005 26295.3
 08 02 2013  13 25  -21.0308 26075.9 -03386.7 -07.4001 26294.9
 08 02 2013  13 26  -21.0316 26076.4 -03386.9 -07.4004 26295.5
 08 02 2013  13 27  -21.0321 26076.6 -03386.9 -07.4004 26295.6
 08 02 2013  13 28  -21.0322 26076.2 -03386.7 -07.4001 26295.2
 08 02 2013  13 29  -21.0323 26075.5 -03386.5 -07.3998 26294.5
 08 02 2013  13 30  -21.0324 26075.0 -03386.4 -07.3997 26294.0
 08 02 2013  13 31  -21.0320 26075.7 -03386.8 -07.4003 26294.7
 08 02 2013  13 32  -21.0318 26076.0 -03386.9 -07.4006 26295.1
 08 02 2013  13 33  -21.0310 26075.9 -03386.9 -07.4005 26294.9
 08 02 2013  13 34  -21.0304 26075.7 -03386.9 -07.4006 26294.8
 08 02 2013  13 35  -21.0298 26075.9 -03387.1 -07.4010 26295.0
 08 02 2013  13 36  -21.0293 26076.4 -03387.4 -07.4015 26295.5
 08 02 2013  13 37  -21.0292 26076.2 -03387.4 -07.4016 26295.3
 08 02 2013  13 38  -21.0292 26075.8 -03387.4 -07.4015 26294.9
 08 02 2013  13 39  -21.0292 26074.9 -03387.1 -07.4011 26294.0
 08 02 2013  13 40  -21.0293 26075.1 -03387.3 -07.4016 26294.2
 08 02 2013  13 41  -21.0296 26075.2 -03387.5 -07.4020 26294.3
 08 02 2013  13 42  -21.0297 26074.4 -03387.3 -07.4018 26293.5
 08 02 2013  13 43  -21.0291 26073.6 -03387.2 -07.4017 26292.7
 08 02 2013  13 44  -21.0289 26073.0 -03387.1 -07.4018 26292.1
 08 02 2013  13 45  -21.0288 26072.2 -03387.0 -07.4018 26291.3
 08 02 2013  13 46  -21.0289 26071.4 -03386.9 -07.4018 26290.4
 08 02 2013  13 47  -21.0290 26071.7 -03387.2 -07.4023 26290.8
 08 02 2013  13 48  -21.0288 26073.4 -03387.9 -07.4034 26292.5
 08 02 2013  13 49  -21.0281 26074.2 -03388.1 -07.4035 26293.4
 08 02 2013  13 50  -21.0268 26074.3 -03388.0 -07.4033 26293.5
 08 02 2013  13 51  -21.0255 26073.7 -03387.6 -07.4026 26292.9
 08 02 2013  13 52  -21.0247 26074.7 -03387.9 -07.4030 26293.8
 08 02 2013  13 53  -21.0241 26076.0 -03388.4 -07.4036 26295.3
 08 02 2013  13 54  -21.0240 26076.8 -03388.5 -07.4036 26296.1
 08 02 2013  13 55  -21.0244 26078.1 -03388.7 -07.4037 26297.4
 08 02 2013  13 56  -21.0240 26078.1 -03388.2 -07.4027 26297.3
 08 02 2013  13 57  -21.0229 26077.6 -03387.6 -07.4016 26296.7
 08 02 2013  13 58  -21.0229 26077.6 -03387.4 -07.4011 26296.7
 08 02 2013  13 59  -21.0219 26076.6 -03386.9 -07.4002 26295.6
 08 02 2013  14 00  -21.0210 26076.5 -03386.9 -07.4003 26295.5
 08 02 2013  14 01  -21.0207 26076.8 -03387.0 -07.4005 26295.8
 08 02 2013  14 02  -21.0211 26077.2 -03387.1 -07.4005 26296.3
 08 02 2013  14 03  -21.0215 26078.2 -03387.3 -07.4007 26297.3
 08 02 2013  14 04  -21.0218 26077.1 -03386.7 -07.3996 26296.1
 08 02 2013  14 05  -21.0202 26074.7 -03385.7 -07.3982 26293.6
 08 02 2013  14 06  -21.0164 26071.4 -03384.6 -07.3968 26290.2
 08 02 2013  14 07  -21.0141 26069.8 -03384.9 -07.3978 26288.6
 08 02 2013  14 08  -21.0129 26069.9 -03386.0 -07.4003 26288.9
 08 02 2013  14 09  -21.0128 26070.7 -03387.4 -07.4030 26289.8
 08 02 2013  14 10  -21.0133 26071.7 -03388.6 -07.4054 26291.0
 08 02 2013  14 11  -21.0138 26071.5 -03388.9 -07.4061 26290.9
 08 02 2013  14 12  -21.0137 26070.5 -03388.8 -07.4061 26289.8
 08 02 2013  14 13  -21.0132 26069.3 -03388.7 -07.4063 26288.7
 08 02 2013  14 14  -21.0121 26068.5 -03388.9 -07.4069 26287.8
 08 02 2013  14 15  -21.0108 26067.8 -03389.3 -07.4080 26287.2
 08 02 2013  14 16  -21.0098 26067.9 -03390.1 -07.4096 26287.5
 08 02 2013  14 17  -21.0097 26068.3 -03390.9 -07.4112 26287.9
 08 02 2013  14 18  -21.0104 26068.1 -03391.4 -07.4123 26287.8
 08 02 2013  14 19  -21.0102 26066.9 -03391.3 -07.4125 26286.6
 08 02 2013  14 20  -21.0092 26065.6 -03391.3 -07.4128 26285.3
 08 02 2013  14 21  -21.0088 26064.7 -03391.6 -07.4138 26284.5
 08 02 2013  14 22  -21.0087 26064.2 -03392.1 -07.4151 26284.0
 08 02 2013  14 23  -21.0088 26063.7 -03392.6 -07.4163 26283.6
 08 02 2013  14 24  -21.0092 26063.2 -03393.1 -07.4174 26283.1
 08 02 2013  14 25  -21.0094 26062.7 -03393.4 -07.4183 26282.7
 08 02 2013  14 26  -21.0094 26062.6 -03393.9 -07.4194 26282.6
 08 02 2013  14 27  -21.0093 26062.4 -03394.4 -07.4204 26282.5
 08 02 2013  14 28  -21.0095 26062.1 -03394.7 -07.4213 26282.3
 08 02 2013  14 29  -21.0096 26061.5 -03394.9 -07.4218 26281.7
 08 02 2013  14 30  -21.0093 26060.9 -03395.1 -07.4224 26281.1
 08 02 2013  14 31  -21.0094 26060.5 -03395.4 -07.4232 26280.8
 08 02 2013  14 32  -21.0097 26059.8 -03395.5 -07.4236 26280.1
 08 02 2013  14 33  -21.0098 26059.0 -03395.5 -07.4238 26279.3
 08 02 2013  14 34  -21.0091 26057.7 -03395.4 -07.4240 26277.9
 08 02 2013  14 35  -21.0083 26056.8 -03395.7 -07.4248 26277.1
 08 02 2013  14 36  -21.0081 26056.3 -03396.1 -07.4260 26276.6
 08 02 2013  14 37  -21.0076 26056.3 -03396.8 -07.4273 26276.8
 08 02 2013  14 38  -21.0069 26056.7 -03397.5 -07.4287 26277.2
 08 02 2013  14 39  -21.0063 26056.5 -03397.8 -07.4295 26277.1
 08 02 2013  14 40  -21.0060 26056.4 -03398.2 -07.4303 26277.1
 08 02 2013  14 41  -21.0057 26056.5 -03398.6 -07.4311 26277.2
 08 02 2013  14 42  -21.0056 26056.7 -03399.0 -07.4321 26277.5
 08 02 2013  14 43  -21.0056 26056.5 -03399.2 -07.4326 26277.3
 08 02 2013  14 44  -21.0053 26056.3 -03399.4 -07.4331 26277.1
 08 02 2013  14 45  -21.0048 26056.1 -03399.7 -07.4338 26277.0
 08 02 2013  14 46  -21.0044 26055.7 -03399.9 -07.4343 26276.6
 08 02 2013  14 47  -21.0043 26055.1 -03400.0 -07.4347 26276.0
 08 02 2013  14 48  -21.0044 26054.7 -03400.2 -07.4352 26275.6
 08 02 2013  14 49  -21.0045 26054.2 -03400.3 -07.4356 26275.2
 08 02 2013  14 50  -21.0044 26053.5 -03400.3 -07.4359 26274.4
 08 02 2013  14 51  -21.0044 26052.9 -03400.5 -07.4363 26273.9
 08 02 2013  14 52  -21.0046 26052.5 -03400.8 -07.4370 26273.5
 08 02 2013  14 53  -21.0045 26052.2 -03401.0 -07.4377 26273.2
 08 02 2013  14 54  -21.0046 26051.9 -03401.3 -07.4383 26273.0
 08 02 2013  14 55  -21.0049 26051.8 -03401.6 -07.4390 26272.9
 08 02 2013  14 56  -21.0055 26051.8 -03401.9 -07.4397 26273.0
 08 02 2013  14 57  -21.0062 26052.1 -03402.2 -07.4403 26273.3
 08 02 2013  14 58  -21.0065 26052.7 -03402.5 -07.4408 26273.9
 08 02 2013  14 59  -21.0067 26052.8 -03402.5 -07.4408 26274.1
 08 02 2013  15 00  -21.0073 26053.8 -03402.8 -07.4412 26275.1
 08 02 2013  15 01  -21.0076 26054.7 -03403.0 -07.4412 26276.0
 08 02 2013  15 02  -21.0077 26055.6 -03403.1 -07.4412 26276.9
 08 02 2013  15 03  -21.0075 26056.3 -03403.0 -07.4408 26277.6
 08 02 2013  15 04  -21.0066 26056.5 -03402.7 -07.4400 26277.8
 08 02 2013  15 05  -21.0058 26056.9 -03402.4 -07.4394 26278.1
 08 02 2013  15 06  -21.0053 26056.8 -03402.1 -07.4387 26278.0
 08 02 2013  15 07  -21.0047 26057.3 -03402.1 -07.4386 26278.4
 08 02 2013  15 08  -21.0044 26058.3 -03402.4 -07.4389 26279.5
 08 02 2013  15 09  -21.0040 26059.2 -03402.5 -07.4388 26280.4
 08 02 2013  15 10  -21.0035 26059.4 -03402.2 -07.4382 26280.6
 08 02 2013  15 11  -21.0030 26059.3 -03401.8 -07.4374 26280.4
 08 02 2013  15 12  -21.0027 26059.3 -03401.6 -07.4370 26280.4
 08 02 2013  15 13  -21.0025 26058.8 -03401.3 -07.4363 26279.8
 08 02 2013  15 14  -21.0028 26058.8 -03401.3 -07.4363 26279.8
 08 02 2013  15 15  -21.0033 26058.6 -03401.3 -07.4364 26279.6
 08 02 2013  15 16  -21.0031 26058.3 -03401.2 -07.4364 26279.3
 08 02 2013  15 17  -21.0031 26057.9 -03401.2 -07.4365 26278.9
 08 02 2013  15 18  -21.0030 26057.5 -03401.2 -07.4367 26278.5
 08 02 2013  15 19  -21.0031 26057.3 -03401.4 -07.4371 26278.3
 08 02 2013  15 20  -21.0036 26057.1 -03401.6 -07.4376 26278.2
 08 02 2013  15 21  -21.0040 26057.2 -03401.9 -07.4381 26278.3
 08 02 2013  15 22  -21.0043 26057.0 -03402.0 -07.4384 26278.2
 08 02 2013  15 23  -21.0042 26056.8 -03402.1 -07.4388 26277.9
 08 02 2013  15 24  -21.0041 26056.0 -03402.0 -07.4388 26277.1
 08 02 2013  15 25  -21.0038 26055.6 -03402.3 -07.4394 26276.8
 08 02 2013  15 26  -21.0036 26055.4 -03402.5 -07.4400 26276.6
 08 02 2013  15 27  -21.0037 26056.0 -03403.1 -07.4411 26277.3
 08 02 2013  15 28  -21.0050 26056.0 -03403.3 -07.4415 26277.4
 08 02 2013  15 29  -21.0060 26055.3 -03403.2 -07.4415 26276.6
 08 02 2013  15 30  -21.0062 26054.4 -03403.0 -07.4413 26275.7
 08 02 2013  15 31  -21.0065 26053.0 -03402.8 -07.4412 26274.3
 08 02 2013  15 32  -21.0069 26052.2 -03402.9 -07.4418 26273.5
 08 02 2013  15 33  -21.0075 26051.9 -03403.4 -07.4428 26273.3
 08 02 2013  15 34  -21.0078 26052.0 -03403.7 -07.4436 26273.4
 08 02 2013  15 35  -21.0083 26051.6 -03403.8 -07.4439 26273.0
 08 02 2013  15 36  -21.0092 26051.2 -03404.0 -07.4443 26272.6
 08 02 2013  15 37  -21.0096 26050.6 -03404.0 -07.4446 26272.1
 08 02 2013  15 38  -21.0094 26049.0 -03403.6 -07.4442 26270.4
 08 02 2013  15 39  -21.0092 26047.9 -03403.6 -07.4444 26269.3
 08 02 2013  15 40  -21.0092 26047.9 -03404.0 -07.4454 26269.4
 08 02 2013  15 41  -21.0090 26047.9 -03404.4 -07.4462 26269.4
 08 02 2013  15 42  -21.0096 26047.6 -03404.6 -07.4467 26269.2
 08 02 2013  15 43  -21.0100 26047.6 -03404.8 -07.4472 26269.2
 08 02 2013  15 44  -21.0108 26048.2 -03405.3 -07.4480 26269.9
 08 02 2013  15 45  -21.0114 26048.8 -03405.5 -07.4483 26270.4
 08 02 2013  15 46  -21.0114 26048.6 -03405.4 -07.4481 26270.2
 08 02 2013  15 47  -21.0114 26048.3 -03405.2 -07.4478 26269.9
 08 02 2013  15 48  -21.0107 26047.8 -03405.0 -07.4475 26269.4
 08 02 2013  15 49  -21.0102 26047.6 -03405.0 -07.4475 26269.2
 08 02 2013  15 50  -21.0103 26048.1 -03405.3 -07.4481 26269.8
 08 02 2013  15 51  -21.0102 26048.4 -03405.5 -07.4484 26270.1
 08 02 2013  15 52  -21.0101 26048.7 -03405.6 -07.4486 26270.4
 08 02 2013  15 53  -21.0100 26049.2 -03405.7 -07.4487 26270.9
 08 02 2013  15 54  -21.0100 26049.6 -03405.8 -07.4487 26271.3
 08 02 2013  15 55  -21.0099 26049.9 -03405.8 -07.4486 26271.6
 08 02 2013  15 56  -21.0103 26050.5 -03405.9 -07.4488 26272.2
 08 02 2013  15 57  -21.0102 26050.9 -03405.9 -07.4487 26272.6
 08 02 2013  15 58  -21.0100 26050.8 -03405.8 -07.4485 26272.5
 08 02 2013  15 59  -21.0099 26050.3 -03405.6 -07.4481 26272.0
 08 02 2013  16 00  -21.0099 26049.9 -03405.5 -07.4480 26271.6
 08 02 2013  16 01  -21.0097 26049.4 -03405.4 -07.4479 26271.0
 08 02 2013  16 02  -21.0091 26048.9 -03405.3 -07.4479 26270.5
 08 02 2013  16 03  -21.0084 26047.9 -03405.0 -07.4475 26269.5
 08 02 2013  16 04  -21.0085 26047.9 -03405.3 -07.4480 26269.6
 08 02 2013  16 05  -21.0088 26047.9 -03405.5 -07.4486 26269.6
 08 02 2013  16 06  -21.0090 26048.0 -03405.8 -07.4492 26269.7
 08 02 2013  16 07  -21.0092 26048.1 -03406.1 -07.4497 26269.8
 08 02 2013  16 08  -21.0086 26047.8 -03406.2 -07.4500 26269.6
 08 02 2013  16 09  -21.0084 26048.2 -03406.5 -07.4506 26270.0
 08 02 2013  16 10  -21.0085 26048.8 -03406.8 -07.4511 26270.6
 08 02 2013  16 11  -21.0088 26049.5 -03407.1 -07.4516 26271.3
 08 02 2013  16 12  -21.0094 26050.1 -03407.4 -07.4520 26272.0
 08 02 2013  16 13  -21.0098 26050.3 -03407.4 -07.4520 26272.2
 08 02 2013  16 14  -21.0097 26049.9 -03407.2 -07.4516 26271.8
 08 02 2013  16 15  -21.0098 26049.7 -03407.1 -07.4516 26271.5
 08 02 2013  16 16  -21.0095 26049.6 -03407.3 -07.4520 26271.5
 08 02 2013  16 17  -21.0098 26049.8 -03407.6 -07.4525 26271.7
 08 02 2013  16 18  -21.0100 26049.9 -03407.7 -07.4528 26271.9
 08 02 2013  16 19  -21.0101 26050.3 -03408.0 -07.4532 26272.2
 08 02 2013  16 20  -21.0105 26050.7 -03408.2 -07.4537 26272.7
 08 02 2013  16 21  -21.0111 26051.2 -03408.4 -07.4540 26273.2
 08 02 2013  16 22  -21.0116 26051.4 -03408.5 -07.4541 26273.4
 08 02 2013  16 23  -21.0120 26051.2 -03408.5 -07.4541 26273.2
 08 02 2013  16 24  -21.0118 26050.7 -03408.3 -07.4539 26272.7
 08 02 2013  16 25  -21.0117 26050.2 -03408.2 -07.4538 26272.2
 08 02 2013  16 26  -21.0117 26049.8 -03408.2 -07.4540 26271.8
 08 02 2013  16 27  -21.0119 26049.6 -03408.4 -07.4543 26271.6
 08 02 2013  16 28  -21.0122 26049.5 -03408.6 -07.4548 26271.6
 08 02 2013  16 29  -21.0124 26049.6 -03408.8 -07.4553 26271.7
 08 02 2013  16 30  -21.0126 26049.8 -03409.1 -07.4558 26271.9
 08 02 2013  16 31  -21.0128 26050.0 -03409.3 -07.4562 26272.2
 08 02 2013  16 32  -21.0129 26050.3 -03409.5 -07.4565 26272.5
 08 02 2013  16 33  -21.0126 26050.3 -03409.6 -07.4567 26272.5
 08 02 2013  16 34  -21.0127 26050.1 -03409.6 -07.4567 26272.3
 08 02 2013  16 35  -21.0127 26049.9 -03409.5 -07.4566 26272.0
 08 02 2013  16 36  -21.0129 26049.9 -03409.6 -07.4568 26272.1
 08 02 2013  16 37  -21.0129 26049.9 -03409.5 -07.4566 26272.1
 08 02 2013  16 38  -21.0124 26049.8 -03409.4 -07.4564 26271.9
 08 02 2013  16 39  -21.0119 26049.5 -03409.3 -07.4563 26271.6
 08 02 2013  16 40  -21.0119 26049.2 -03409.3 -07.4564 26271.4
 08 02 2013  16 41  -21.0123 26049.4 -03409.6 -07.4570 26271.6
 08 02 2013  16 42  -21.0124 26049.9 -03409.8 -07.4574 26272.1
 08 02 2013  16 43  -21.0124 26050.4 -03410.0 -07.4576 26272.6
 08 02 2013  16 44  -21.0125 26050.7 -03410.0 -07.4576 26273.0
 08 02 2013  16 45  -21.0124 26050.9 -03410.1 -07.4576 26273.2
 08 02 2013  16 46  -21.0122 26050.9 -03410.0 -07.4575 26273.2
 08 02 2013  16 47  -21.0120 26050.9 -03410.0 -07.4575 26273.2
 08 02 2013  16 48  -21.0119 26050.9 -03410.0 -07.4575 26273.2
 08 02 2013  16 49  -21.0117 26051.0 -03410.0 -07.4575 26273.2
 08 02 2013  16 50  -21.0117 26051.1 -03410.1 -07.4576 26273.3
 08 02 2013  16 51  -21.0117 26050.7 -03410.0 -07.4575 26273.0
 08 02 2013  16 52  -21.0117 26050.5 -03410.0 -07.4575 26272.7
 08 02 2013  16 53  -21.0122 26050.7 -03410.1 -07.4578 26272.9
 08 02 2013  16 54  -21.0132 26051.1 -03410.3 -07.4580 26273.3
 08 02 2013  16 55  -21.0135 26051.1 -03410.1 -07.4577 26273.3
 08 02 2013  16 56  -21.0135 26050.9 -03409.9 -07.4572 26273.1
 08 02 2013  16 57  -21.0133 26050.5 -03409.7 -07.4569 26272.7
 08 02 2013  16 58  -21.0131 26050.2 -03409.6 -07.4567 26272.4
 08 02 2013  16 59  -21.0133 26050.4 -03409.7 -07.4569 26272.6
 08 02 2013  17 00  -21.0136 26051.0 -03409.8 -07.4571 26273.2
 08 02 2013  17 01  -21.0137 26051.7 -03410.0 -07.4572 26273.9
 08 02 2013  17 02  -21.0131 26052.0 -03409.9 -07.4569 26274.2
 08 02 2013  17 03  -21.0127 26052.3 -03409.7 -07.4565 26274.4
 08 02 2013  17 04  -21.0123 26052.4 -03409.6 -07.4562 26274.6
 08 02 2013  17 05  -21.0119 26052.3 -03409.4 -07.4558 26274.4
 08 02 2013  17 06  -21.0115 26052.2 -03409.2 -07.4555 26274.3
 08 02 2013  17 07  -21.0112 26052.2 -03409.2 -07.4553 26274.3
 08 02 2013  17 08  -21.0110 26052.2 -03409.1 -07.4552 26274.4
 08 02 2013  17 09  -21.0108 26052.4 -03409.1 -07.4552 26274.5
 08 02 2013  17 10  -21.0107 26052.6 -03409.1 -07.4551 26274.7
 08 02 2013  17 11  -21.0105 26052.9 -03409.1 -07.4550 26275.0
 08 02 2013  17 12  -21.0101 26053.1 -03409.1 -07.4548 26275.2
 08 02 2013  17 13  -21.0098 26053.0 -03408.9 -07.4545 26275.1
 08 02 2013  17 14  -21.0094 26052.8 -03408.8 -07.4542 26274.9
 08 02 2013  17 15  -21.0089 26052.8 -03408.7 -07.4541 26274.8
 08 02 2013  17 16  -21.0084 26052.8 -03408.7 -07.4541 26274.8
 08 02 2013  17 17  -21.0080 26052.9 -03408.8 -07.4542 26274.9
 08 02 2013  17 18  -21.0078 26053.1 -03408.9 -07.4544 26275.2
 08 02 2013  17 19  -21.0073 26053.2 -03408.8 -07.4543 26275.3
 08 02 2013  17 20  -21.0068 26053.3 -03408.9 -07.4543 26275.4
 08 02 2013  17 21  -21.0063 26053.4 -03408.9 -07.4543 26275.5
 08 02 2013  17 22  -21.0060 26053.5 -03408.9 -07.4544 26275.5
 08 02 2013  17 23  -21.0059 26053.6 -03408.9 -07.4544 26275.7
 08 02 2013  17 24  -21.0055 26053.5 -03408.9 -07.4543 26275.6
 08 02 2013  17 25  -21.0052 26053.5 -03408.9 -07.4543 26275.5
 08 02 2013  17 26  -21.0049 26053.5 -03409.0 -07.4545 26275.6
 08 02 2013  17 27  -21.0048 26053.8 -03409.1 -07.4547 26275.9
 08 02 2013  17 28  -21.0047 26054.0 -03409.2 -07.4550 26276.1
 08 02 2013  17 29  -21.0046 26054.1 -03409.3 -07.4550 26276.2
 08 02 2013  17 30  -21.0044 26054.3 -03409.3 -07.4551 26276.4
 08 02 2013  17 31  -21.0044 26054.5 -03409.4 -07.4552 26276.6
 08 02 2013  17 32  -21.0045 26054.6 -03409.5 -07.4552 26276.7
 08 02 2013  17 33  -21.0044 26054.5 -03409.4 -07.4551 26276.7
 08 02 2013  17 34  -21.0044 26054.4 -03409.4 -07.4551 26276.6
 08 02 2013  17 35  -21.0046 26054.4 -03409.3 -07.4551 26276.5
 08 02 2013  17 36  -21.0047 26054.4 -03409.4 -07.4551 26276.5
 08 02 2013  17 37  -21.0052 26054.6 -03409.5 -07.4553 26276.7
 08 02 2013  17 38  -21.0055 26054.8 -03409.5 -07.4553 26276.9
 08 02 2013  17 39  -21.0055 26054.9 -03409.5 -07.4552 26277.0
 08 02 2013  17 40  -21.0058 26055.1 -03409.5 -07.4552 26277.2
 08 02 2013  17 41  -21.0063 26055.3 -03409.5 -07.4552 26277.4
 08 02 2013  17 42  -21.0070 26055.5 -03409.5 -07.4552 26277.7
 08 02 2013  17 43  -21.0074 26055.7 -03409.5 -07.4550 26277.8
 08 02 2013  17 44  -21.0081 26055.7 -03409.4 -07.4547 26277.9
 08 02 2013  17 45  -21.0087 26055.9 -03409.3 -07.4545 26278.0
 08 02 2013  17 46  -21.0092 26055.9 -03409.1 -07.4542 26278.0
 08 02 2013  17 47  -21.0097 26056.0 -03409.0 -07.4539 26278.1
 08 02 2013  17 48  -21.0101 26056.1 -03408.9 -07.4536 26278.2
 08 02 2013  17 49  -21.0104 26056.1 -03408.7 -07.4532 26278.1
 08 02 2013  17 50  -21.0106 26056.1 -03408.5 -07.4528 26278.1
 08 02 2013  17 51  -21.0107 26056.3 -03408.4 -07.4525 26278.3
 08 02 2013  17 52  -21.0111 26056.4 -03408.3 -07.4523 26278.4
 08 02 2013  17 53  -21.0113 26056.3 -03408.1 -07.4518 26278.2
 08 02 2013  17 54  -21.0116 26056.3 -03407.9 -07.4514 26278.2
 08 02 2013  17 55  -21.0120 26056.3 -03407.7 -07.4510 26278.2
 08 02 2013  17 56  -21.0122 26056.3 -03407.5 -07.4506 26278.1
 08 02 2013  17 57  -21.0123 26056.3 -03407.4 -07.4503 26278.2
 08 02 2013  17 58  -21.0125 26056.4 -03407.3 -07.4500 26278.2
 08 02 2013  17 59  -21.0126 26056.5 -03407.1 -07.4497 26278.3
 08 02 2013  18 00  -21.0128 26056.6 -03407.0 -07.4494 26278.4
 08 02 2013  18 01  -21.0131 26056.7 -03406.8 -07.4490 26278.5
 08 02 2013  18 02  -21.0132 26056.9 -03406.7 -07.4486 26278.6
 08 02 2013  18 03  -21.0131 26056.9 -03406.5 -07.4483 26278.7
 08 02 2013  18 04  -21.0131 26057.0 -03406.4 -07.4479 26278.7
 08 02 2013  18 05  -21.0131 26057.1 -03406.2 -07.4474 26278.8
 08 02 2013  18 06  -21.0131 26057.1 -03406.0 -07.4470 26278.8
 08 02 2013  18 07  -21.0132 26057.2 -03405.8 -07.4466 26278.8
 08 02 2013  18 08  -21.0130 26057.1 -03405.5 -07.4461 26278.7
 08 02 2013  18 09  -21.0129 26057.0 -03405.3 -07.4456 26278.6
 08 02 2013  18 10  -21.0128 26057.0 -03405.1 -07.4451 26278.5
 08 02 2013  18 11  -21.0127 26056.8 -03404.8 -07.4446 26278.3
 08 02 2013  18 12  -21.0125 26056.7 -03404.6 -07.4441 26278.2
 08 02 2013  18 13  -21.0121 26056.5 -03404.3 -07.4436 26277.9
 08 02 2013  18 14  -21.0117 26056.3 -03404.1 -07.4432 26277.7
 08 02 2013  18 15  -21.0113 26056.3 -03404.0 -07.4429 26277.7
 08 02 2013  18 16  -21.0107 26056.2 -03403.8 -07.4426 26277.6
 08 02 2013  18 17  -21.0103 26056.2 -03403.8 -07.4425 26277.6
 08 02 2013  18 18  -21.0099 26056.2 -03403.6 -07.4422 26277.6
 08 02 2013  18 19  -21.0094 26056.1 -03403.4 -07.4418 26277.4
 08 02 2013  18 20  -21.0089 26056.1 -03403.4 -07.4417 26277.4
 08 02 2013  18 21  -21.0085 26056.1 -03403.3 -07.4415 26277.4
 08 02 2013  18 22  -21.0083 26056.3 -03403.3 -07.4414 26277.6
 08 02 2013  18 23  -21.0080 26056.4 -03403.2 -07.4413 26277.7
 08 02 2013  18 24  -21.0079 26056.5 -03403.2 -07.4411 26277.8
 08 02 2013  18 25  -21.0078 26056.6 -03403.1 -07.4410 26277.9
 08 02 2013  18 26  -21.0077 26056.7 -03403.1 -07.4408 26278.0
 08 02 2013  18 27  -21.0076 26056.7 -03402.9 -07.4405 26277.9
 08 02 2013  18 28  -21.0075 26056.5 -03402.7 -07.4401 26277.7
 08 02 2013  18 29  -21.0074 26056.3 -03402.5 -07.4397 26277.5
 08 02 2013  18 30  -21.0073 26056.0 -03402.3 -07.4393 26277.2
 08 02 2013  18 31  -21.0071 26055.8 -03402.0 -07.4389 26277.0
 08 02 2013  18 32  -21.0068 26055.6 -03401.8 -07.4385 26276.7
 08 02 2013  18 33  -21.0063 26055.5 -03401.6 -07.4381 26276.6
 08 02 2013  18 34  -21.0059 26055.6 -03401.6 -07.4380 26276.7
 08 02 2013  18 35  -21.0054 26055.6 -03401.5 -07.4377 26276.7
 08 02 2013  18 36  -21.0049 26055.6 -03401.3 -07.4374 26276.7
 08 02 2013  18 37  -21.0046 26055.6 -03401.2 -07.4371 26276.7
 08 02 2013  18 38  -21.0041 26055.8 -03401.1 -07.4368 26276.8
 08 02 2013  18 39  -21.0034 26055.8 -03400.9 -07.4365 26276.8
 08 02 2013  18 40  -21.0027 26055.7 -03400.7 -07.4361 26276.7
 08 02 2013  18 41  -21.0020 26055.7 -03400.6 -07.4358 26276.7
 08 02 2013  18 42  -21.0016 26055.8 -03400.5 -07.4356 26276.7
 08 02 2013  18 43  -21.0010 26056.0 -03400.5 -07.4355 26277.0
 08 02 2013  18 44  -21.0004 26056.2 -03400.4 -07.4353 26277.2
 08 02 2013  18 45  -21.0001 26056.3 -03400.4 -07.4351 26277.3
 08 02 2013  18 46  -20.9996 26056.3 -03400.2 -07.4348 26277.2
 08 02 2013  18 47  -20.9992 26056.2 -03400.0 -07.4344 26277.1
 08 02 2013  18 48  -20.9988 26056.2 -03399.9 -07.4342 26277.1
 08 02 2013  18 49  -20.9987 26056.2 -03399.9 -07.4341 26277.1
 08 02 2013  18 50  -20.9984 26056.2 -03399.8 -07.4338 26277.1
 08 02 2013  18 51  -20.9981 26056.1 -03399.7 -07.4337 26277.0
 08 02 2013  18 52  -20.9976 26055.9 -03399.5 -07.4334 26276.8
 08 02 2013  18 53  -20.9975 26055.9 -03399.5 -07.4333 26276.7
 08 02 2013  18 54  -20.9972 26055.8 -03399.4 -07.4332 26276.7
 08 02 2013  18 55  -20.9968 26055.9 -03399.4 -07.4331 26276.7
 08 02 2013  18 56  -20.9965 26055.8 -03399.3 -07.4330 26276.6
 08 02 2013  18 57  -20.9964 26055.7 -03399.3 -07.4329 26276.5
 08 02 2013  18 58  -20.9961 26055.5 -03399.2 -07.4328 26276.3
 08 02 2013  18 59  -20.9959 26055.6 -03399.2 -07.4328 26276.4
 08 02 2013  19 00  -20.9954 26055.6 -03399.3 -07.4329 26276.4
 08 02 2013  19 01  -20.9950 26055.7 -03399.3 -07.4330 26276.5
 08 02 2013  19 02  -20.9948 26055.9 -03399.4 -07.4332 26276.7
 08 02 2013  19 03  -20.9949 26056.0 -03399.5 -07.4332 26276.9
 08 02 2013  19 04  -20.9950 26056.1 -03399.5 -07.4333 26276.9
 08 02 2013  19 05  -20.9949 26056.0 -03399.4 -07.4332 26276.8
 08 02 2013  19 06  -20.9948 26055.9 -03399.4 -07.4331 26276.7
 08 02 2013  19 07  -20.9948 26055.9 -03399.4 -07.4331 26276.7
 08 02 2013  19 08  -20.9947 26055.8 -03399.4 -07.4331 26276.6
 08 02 2013  19 09  -20.9948 26055.7 -03399.3 -07.4330 26276.5
 08 02 2013  19 10  -20.9950 26055.6 -03399.3 -07.4330 26276.4
 08 02 2013  19 11  -20.9954 26055.5 -03399.2 -07.4328 26276.3
 08 02 2013  19 12  -20.9958 26055.4 -03399.2 -07.4328 26276.2
 08 02 2013  19 13  -20.9959 26055.4 -03399.1 -07.4326 26276.2
 08 02 2013  19 14  -20.9962 26055.2 -03399.0 -07.4324 26275.9
 08 02 2013  19 15  -20.9964 26054.9 -03398.9 -07.4322 26275.7
 08 02 2013  19 16  -20.9967 26054.6 -03398.7 -07.4320 26275.4
 08 02 2013  19 17  -20.9972 26054.5 -03398.6 -07.4318 26275.2
 08 02 2013  19 18  -20.9976 26054.2 -03398.4 -07.4315 26274.9
 08 02 2013  19 19  -20.9977 26053.8 -03398.2 -07.4312 26274.5
 08 02 2013  19 20  -20.9979 26053.7 -03398.2 -07.4311 26274.4
 08 02 2013  19 21  -20.9983 26053.7 -03398.1 -07.4310 26274.4
 08 02 2013  19 22  -20.9985 26053.8 -03398.1 -07.4310 26274.4
 08 02 2013  19 23  -20.9987 26053.8 -03398.1 -07.4310 26274.5
 08 02 2013  19 24  -20.9991 26053.9 -03398.1 -07.4309 26274.6
 08 02 2013  19 25  -20.9995 26054.1 -03398.2 -07.4310 26274.8
 08 02 2013  19 26  -20.9999 26054.1 -03398.2 -07.4309 26274.8
 08 02 2013  19 27  -21.0001 26054.0 -03398.1 -07.4308 26274.7
 08 02 2013  19 28  -21.0005 26053.8 -03398.0 -07.4306 26274.5
 08 02 2013  19 29  -21.0008 26053.6 -03397.8 -07.4303 26274.3
 08 02 2013  19 30  -21.0010 26053.5 -03397.8 -07.4302 26274.2
 08 02 2013  19 31  -21.0011 26053.5 -03397.7 -07.4302 26274.1
 08 02 2013  19 32  -21.0011 26053.5 -03397.7 -07.4302 26274.1
 08 02 2013  19 33  -21.0013 26053.6 -03397.8 -07.4303 26274.2
 08 02 2013  19 34  -21.0015 26053.6 -03397.8 -07.4302 26274.2
 08 02 2013  19 35  -21.0019 26053.5 -03397.7 -07.4302 26274.2
 08 02 2013  19 36  -21.0023 26053.5 -03397.7 -07.4302 26274.2
 08 02 2013  19 37  -21.0025 26053.5 -03397.7 -07.4301 26274.1
 08 02 2013  19 38  -21.0029 26053.3 -03397.6 -07.4300 26274.0
 08 02 2013  19 39  -21.0032 26053.4 -03397.6 -07.4299 26274.0
 08 02 2013  19 40  -21.0034 26053.3 -03397.5 -07.4297 26273.9
 08 02 2013  19 41  -21.0038 26053.2 -03397.4 -07.4296 26273.8
 08 02 2013  19 42  -21.0040 26053.1 -03397.4 -07.4295 26273.7
 08 02 2013  19 43  -21.0042 26053.1 -03397.3 -07.4295 26273.7
 08 02 2013  19 44  -21.0046 26052.9 -03397.2 -07.4293 26273.4
 08 02 2013  19 45  -21.0048 26052.6 -03397.1 -07.4290 26273.2
 08 02 2013  19 46  -21.0047 26052.6 -03397.1 -07.4290 26273.2
 08 02 2013  19 47  -21.0048 26052.7 -03397.2 -07.4292 26273.3
 08 02 2013  19 48  -21.0048 26052.8 -03397.2 -07.4292 26273.4
 08 02 2013  19 49  -21.0050 26052.7 -03397.1 -07.4291 26273.2
 08 02 2013  19 50  -21.0053 26052.7 -03397.1 -07.4291 26273.3
 08 02 2013  19 51  -21.0056 26052.6 -03397.1 -07.4290 26273.1
 08 02 2013  19 52  -21.0060 26052.5 -03397.0 -07.4289 26273.0
 08 02 2013  19 53  -21.0065 26052.6 -03397.0 -07.4289 26273.1
 08 02 2013  19 54  -21.0074 26052.7 -03397.0 -07.4289 26273.2
 08 02 2013  19 55  -21.0080 26052.6 -03396.9 -07.4287 26273.1
 08 02 2013  19 56  -21.0086 26052.3 -03396.8 -07.4285 26272.9
 08 02 2013  19 57  -21.0090 26052.3 -03396.7 -07.4284 26272.8
 08 02 2013  19 58  -21.0096 26052.0 -03396.6 -07.4282 26272.5
 08 02 2013  19 59  -21.0101 26051.8 -03396.5 -07.4281 26272.2
 08 02 2013  20 00  -21.0104 26051.7 -03396.4 -07.4279 26272.1
 08 02 2013  20 01  -21.0107 26051.6 -03396.4 -07.4279 26272.0
 08 02 2013  20 02  -21.0109 26051.5 -03396.4 -07.4278 26272.0
 08 02 2013  20 03  -21.0111 26051.4 -03396.3 -07.4278 26271.9
 08 02 2013  20 04  -21.0113 26051.6 -03396.4 -07.4279 26272.1
 08 02 2013  20 05  -21.0113 26051.8 -03396.5 -07.4280 26272.2
 08 02 2013  20 06  -21.0114 26051.8 -03396.5 -07.4280 26272.3
 08 02 2013  20 07  -21.0114 26051.8 -03396.5 -07.4280 26272.3
 08 02 2013  20 08  -21.0115 26051.7 -03396.5 -07.4280 26272.2
 08 02 2013  20 09  -21.0117 26051.7 -03396.4 -07.4279 26272.1
 08 02 2013  20 10  -21.0117 26051.5 -03396.4 -07.4278 26272.0
 08 02 2013  20 11  -21.0117 26051.4 -03396.3 -07.4277 26271.9
 08 02 2013  20 12  -21.0117 26051.4 -03396.3 -07.4277 26271.9
 08 02 2013  20 13  -21.0116 26051.3 -03396.2 -07.4276 26271.8
 08 02 2013  20 14  -21.0116 26051.3 -03396.2 -07.4275 26271.7
 08 02 2013  20 15  -21.0115 26051.3 -03396.2 -07.4276 26271.7
 08 02 2013  20 16  -21.0115 26051.3 -03396.3 -07.4276 26271.7
 08 02 2013  20 17  -21.0115 26051.4 -03396.3 -07.4277 26271.9
 08 02 2013  20 18  -21.0115 26051.5 -03396.4 -07.4279 26272.0
 08 02 2013  20 19  -21.0115 26051.3 -03396.4 -07.4278 26271.8
 08 02 2013  20 20  -21.0114 26051.2 -03396.3 -07.4278 26271.7
 08 02 2013  20 21  -21.0115 26051.0 -03396.2 -07.4277 26271.5
 08 02 2013  20 22  -21.0117 26050.8 -03396.1 -07.4275 26271.3
 08 02 2013  20 23  -21.0118 26050.6 -03396.1 -07.4274 26271.0
 08 02 2013  20 24  -21.0117 26050.4 -03396.0 -07.4273 26270.9
 08 02 2013  20 25  -21.0117 26050.3 -03396.0 -07.4273 26270.7
 08 02 2013  20 26  -21.0115 26050.2 -03396.0 -07.4273 26270.6
 08 02 2013  20 27  -21.0116 26050.0 -03395.9 -07.4273 26270.5
 08 02 2013  20 28  -21.0115 26050.0 -03395.9 -07.4273 26270.4
 08 02 2013  20 29  -21.0116 26049.9 -03395.9 -07.4273 26270.3
 08 02 2013  20 30  -21.0116 26049.8 -03395.9 -07.4274 26270.2
 08 02 2013  20 31  -21.0117 26049.7 -03395.9 -07.4274 26270.1
 08 02 2013  20 32  -21.0116 26049.5 -03395.9 -07.4273 26269.9
 08 02 2013  20 33  -21.0117 26049.4 -03395.9 -07.4273 26269.8
 08 02 2013  20 34  -21.0116 26049.2 -03395.8 -07.4273 26269.6
 08 02 2013  20 35  -21.0116 26049.0 -03395.7 -07.4272 26269.4
 08 02 2013  20 36  -21.0115 26048.9 -03395.7 -07.4272 26269.3
 08 02 2013  20 37  -21.0114 26048.8 -03395.8 -07.4273 26269.2
 08 02 2013  20 38  -21.0114 26048.6 -03395.8 -07.4273 26269.0
 08 02 2013  20 39  -21.0114 26048.2 -03395.6 -07.4271 26268.6
 08 02 2013  20 40  -21.0114 26048.0 -03395.5 -07.4270 26268.4
 08 02 2013  20 41  -21.0113 26047.8 -03395.5 -07.4270 26268.2
 08 02 2013  20 42  -21.0112 26047.8 -03395.6 -07.4271 26268.2
 08 02 2013  20 43  -21.0113 26047.7 -03395.6 -07.4272 26268.1
 08 02 2013  20 44  -21.0113 26047.6 -03395.6 -07.4273 26268.0
 08 02 2013  20 45  -21.0114 26047.5 -03395.6 -07.4273 26267.9
 08 02 2013  20 46  -21.0116 26047.3 -03395.6 -07.4273 26267.7
 08 02 2013  20 47  -21.0117 26047.2 -03395.6 -07.4273 26267.5
 08 02 2013  20 48  -21.0117 26046.9 -03395.5 -07.4273 26267.3
 08 02 2013  20 49  -21.0118 26046.8 -03395.6 -07.4274 26267.2
 08 02 2013  20 50  -21.0119 26046.8 -03395.6 -07.4275 26267.2
 08 02 2013  20 51  -21.0120 26046.7 -03395.6 -07.4275 26267.1
 08 02 2013  20 52  -21.0121 26046.6 -03395.7 -07.4276 26267.0
 08 02 2013  20 53  -21.0124 26046.6 -03395.7 -07.4278 26267.0
 08 02 2013  20 54  -21.0126 26046.6 -03395.8 -07.4280 26267.1
 08 02 2013  20 55  -21.0128 26046.6 -03395.9 -07.4282 26267.1
 08 02 2013  20 56  -21.0132 26046.6 -03395.9 -07.4282 26267.0
 08 02 2013  20 57  -21.0135 26046.4 -03395.9 -07.4282 26266.9
 08 02 2013  20 58  -21.0139 26046.3 -03395.9 -07.4282 26266.7
 08 02 2013  20 59  -21.0142 26046.2 -03395.8 -07.4282 26266.6
 08 02 2013  21 00  -21.0145 26046.0 -03395.8 -07.4281 26266.5
 08 02 2013  21 01  -21.0147 26045.9 -03395.8 -07.4281 26266.4
 08 02 2013  21 02  -21.0148 26045.9 -03395.8 -07.4281 26266.3
 08 02 2013  21 03  -21.0148 26045.9 -03395.8 -07.4282 26266.3
 08 02 2013  21 04  -21.0147 26045.9 -03395.8 -07.4282 26266.3
 08 02 2013  21 05  -21.0146 26045.9 -03395.9 -07.4283 26266.3
 08 02 2013  21 06  -21.0144 26045.9 -03395.9 -07.4284 26266.3
 08 02 2013  21 07  -21.0142 26046.0 -03396.0 -07.4286 26266.5
 08 02 2013  21 08  -21.0139 26046.2 -03396.1 -07.4288 26266.7
 08 02 2013  21 09  -21.0134 26046.3 -03396.2 -07.4289 26266.8
 08 02 2013  21 10  -21.0129 26046.5 -03396.3 -07.4291 26267.0
 08 02 2013  21 11  -21.0126 26046.4 -03396.3 -07.4290 26266.8
 08 02 2013  21 12  -21.0123 26046.3 -03396.3 -07.4291 26266.8
 08 02 2013  21 13  -21.0119 26046.4 -03396.4 -07.4293 26266.9
 08 02 2013  21 14  -21.0115 26046.7 -03396.5 -07.4296 26267.2
 08 02 2013  21 15  -21.0113 26047.0 -03396.7 -07.4299 26267.5
 08 02 2013  21 16  -21.0109 26047.1 -03396.8 -07.4301 26267.7
 08 02 2013  21 17  -21.0107 26047.3 -03397.0 -07.4303 26267.8
 08 02 2013  21 18  -21.0105 26047.3 -03397.0 -07.4304 26267.8
 08 02 2013  21 19  -21.0105 26047.2 -03397.1 -07.4306 26267.8
 08 02 2013  21 20  -21.0106 26046.9 -03397.0 -07.4306 26267.5
 08 02 2013  21 21  -21.0107 26046.6 -03397.0 -07.4306 26267.2
 08 02 2013  21 22  -21.0108 26046.4 -03397.0 -07.4306 26267.0
 08 02 2013  21 23  -21.0109 26046.4 -03397.1 -07.4308 26267.0
 08 02 2013  21 24  -21.0111 26046.2 -03397.1 -07.4309 26266.8
 08 02 2013  21 25  -21.0113 26046.0 -03397.1 -07.4309 26266.6
 08 02 2013  21 26  -21.0115 26045.6 -03397.0 -07.4309 26266.2
 08 02 2013  21 27  -21.0115 26045.6 -03397.1 -07.4310 26266.2
 08 02 2013  21 28  -21.0113 26045.4 -03397.0 -07.4310 26266.0
 08 02 2013  21 29  -21.0111 26045.1 -03397.0 -07.4310 26265.7
 08 02 2013  21 30  -21.0108 26045.0 -03397.1 -07.4312 26265.6
 08 02 2013  21 31  -21.0107 26045.0 -03397.2 -07.4314 26265.6
 08 02 2013  21 32  -21.0109 26044.9 -03397.2 -07.4316 26265.5
 08 02 2013  21 33  -21.0113 26044.3 -03397.1 -07.4314 26265.0
 08 02 2013  21 34  -21.0118 26044.0 -03397.0 -07.4313 26264.6
 08 02 2013  21 35  -21.0121 26043.7 -03396.9 -07.4312 26264.3
 08 02 2013  21 36  -21.0121 26043.6 -03396.9 -07.4313 26264.2
 08 02 2013  21 37  -21.0120 26043.5 -03397.0 -07.4314 26264.2
 08 02 2013  21 38  -21.0120 26043.4 -03397.0 -07.4314 26264.0
 08 02 2013  21 39  -21.0120 26043.4 -03397.0 -07.4315 26264.0
 08 02 2013  21 40  -21.0120 26043.4 -03397.1 -07.4317 26264.0
 08 02 2013  21 41  -21.0121 26043.4 -03397.2 -07.4318 26264.0
 08 02 2013  21 42  -21.0123 26043.3 -03397.2 -07.4319 26263.9
 08 02 2013  21 43  -21.0124 26043.2 -03397.2 -07.4320 26263.8
 08 02 2013  21 44  -21.0126 26043.0 -03397.2 -07.4319 26263.6
 08 02 2013  21 45  -21.0128 26042.8 -03397.1 -07.4319 26263.4
 08 02 2013  21 46  -21.0129 26042.6 -03397.0 -07.4318 26263.2
 08 02 2013  21 47  -21.0130 26042.3 -03397.0 -07.4318 26263.0
 08 02 2013  21 48  -21.0131 26042.1 -03397.0 -07.4318 26262.7
 08 02 2013  21 49  -21.0131 26042.1 -03397.0 -07.4317 26262.7
 08 02 2013  21 50  -21.0131 26042.0 -03397.0 -07.4318 26262.6
 08 02 2013  21 51  -21.0131 26041.9 -03397.0 -07.4319 26262.5
 08 02 2013  21 52  -21.0131 26041.9 -03397.1 -07.4321 26262.5
 08 02 2013  21 53  -21.0130 26041.9 -03397.2 -07.4323 26262.6
 08 02 2013  21 54  -21.0130 26042.0 -03397.3 -07.4325 26262.6
 08 02 2013  21 55  -21.0130 26041.9 -03397.3 -07.4326 26262.6
 08 02 2013  21 56  -21.0130 26041.7 -03397.3 -07.4326 26262.4
 08 02 2013  21 57  -21.0130 26041.6 -03397.3 -07.4327 26262.3
 08 02 2013  21 58  -21.0132 26041.6 -03397.4 -07.4328 26262.3
 08 02 2013  21 59  -21.0135 26041.5 -03397.4 -07.4329 26262.2
 08 02 2013  22 00  -21.0138 26041.3 -03397.4 -07.4329 26262.0
 08 02 2013  22 01  -21.0140 26041.2 -03397.4 -07.4329 26261.9
 08 02 2013  22 02  -21.0142 26041.1 -03397.4 -07.4330 26261.8
 08 02 2013  22 03  -21.0145 26041.0 -03397.4 -07.4330 26261.7
 08 02 2013  22 04  -21.0147 26041.0 -03397.4 -07.4331 26261.7
 08 02 2013  22 05  -21.0149 26041.0 -03397.5 -07.4332 26261.7
 08 02 2013  22 06  -21.0151 26041.0 -03397.5 -07.4332 26261.7
 08 02 2013  22 07  -21.0153 26041.2 -03397.7 -07.4335 26261.9
 08 02 2013  22 08  -21.0153 26041.6 -03397.9 -07.4339 26262.4
 08 02 2013  22 09  -21.0154 26042.0 -03398.1 -07.4343 26262.7
 08 02 2013  22 10  -21.0155 26042.1 -03398.2 -07.4345 26262.9
 08 02 2013  22 11  -21.0155 26042.2 -03398.3 -07.4346 26263.0
 08 02 2013  22 12  -21.0155 26042.2 -03398.3 -07.4346 26263.0
 08 02 2013  22 13  -21.0155 26042.1 -03398.2 -07.4345 26262.9
 08 02 2013  22 14  -21.0154 26041.9 -03398.1 -07.4344 26262.6
 08 02 2013  22 15  -21.0153 26041.7 -03398.1 -07.4343 26262.5
 08 02 2013  22 16  -21.0153 26041.5 -03398.0 -07.4341 26262.3
 08 02 2013  22 17  -21.0153 26041.3 -03397.9 -07.4340 26262.0
 08 02 2013  22 18  -21.0153 26041.2 -03397.9 -07.4339 26261.9
 08 02 2013  22 19  -21.0154 26041.1 -03397.8 -07.4339 26261.8
 08 02 2013  22 20  -21.0155 26040.9 -03397.8 -07.4338 26261.6
 08 02 2013  22 21  -21.0156 26040.8 -03397.8 -07.4338 26261.5
 08 02 2013  22 22  -21.0157 26040.6 -03397.7 -07.4338 26261.4
 08 02 2013  22 23  -21.0155 26040.6 -03397.7 -07.4338 26261.3
 08 02 2013  22 24  -21.0153 26040.6 -03397.8 -07.4339 26261.3
 08 02 2013  22 25  -21.0151 26040.5 -03397.8 -07.4339 26261.3
 08 02 2013  22 26  -21.0150 26040.5 -03397.8 -07.4340 26261.2
 08 02 2013  22 27  -21.0149 26040.4 -03397.7 -07.4339 26261.1
 08 02 2013  22 28  -21.0147 26040.2 -03397.7 -07.4339 26260.9
 08 02 2013  22 29  -21.0145 26039.9 -03397.6 -07.4337 26260.6
 08 02 2013  22 30  -21.0144 26039.4 -03397.4 -07.4335 26260.1
 08 02 2013  22 31  -21.0143 26039.2 -03397.3 -07.4334 26259.9
 08 02 2013  22 32  -21.0143 26039.1 -03397.4 -07.4334 26259.8
 08 02 2013  22 33  -21.0140 26039.2 -03397.4 -07.4336 26259.9
 08 02 2013  22 34  -21.0139 26039.3 -03397.6 -07.4338 26260.0
 08 02 2013  22 35  -21.0140 26039.2 -03397.6 -07.4339 26259.9
 08 02 2013  22 36  -21.0142 26039.2 -03397.6 -07.4340 26259.9
 08 02 2013  22 37  -21.0143 26039.3 -03397.7 -07.4341 26260.0
 08 02 2013  22 38  -21.0144 26039.4 -03397.8 -07.4343 26260.1
 08 02 2013  22 39  -21.0144 26039.4 -03397.8 -07.4344 26260.2
 08 02 2013  22 40  -21.0144 26039.4 -03397.9 -07.4345 26260.2
 08 02 2013  22 41  -21.0141 26039.6 -03397.9 -07.4345 26260.3
 08 02 2013  22 42  -21.0141 26039.7 -03398.0 -07.4347 26260.4
 08 02 2013  22 43  -21.0140 26039.8 -03398.1 -07.4348 26260.5
 08 02 2013  22 44  -21.0138 26039.9 -03398.2 -07.4350 26260.7
 08 02 2013  22 45  -21.0138 26040.0 -03398.2 -07.4351 26260.8
 08 02 2013  22 46  -21.0138 26040.1 -03398.3 -07.4352 26260.9
 08 02 2013  22 47  -21.0139 26040.0 -03398.3 -07.4351 26260.8
 08 02 2013  22 48  -21.0140 26040.0 -03398.2 -07.4351 26260.8
 08 02 2013  22 49  -21.0140 26040.0 -03398.2 -07.4351 26260.8
 08 02 2013  22 50  -21.0139 26039.9 -03398.2 -07.4350 26260.7
 08 02 2013  22 51  -21.0138 26039.9 -03398.2 -07.4350 26260.7
 08 02 2013  22 52  -21.0137 26039.9 -03398.2 -07.4350 26260.7
 08 02 2013  22 53  -21.0138 26040.0 -03398.2 -07.4351 26260.8
 08 02 2013  22 54  -21.0137 26040.0 -03398.3 -07.4351 26260.8
 08 02 2013  22 55  -21.0137 26039.9 -03398.3 -07.4351 26260.7
 08 02 2013  22 56  -21.0135 26039.9 -03398.2 -07.4351 26260.7
 08 02 2013  22 57  -21.0134 26039.8 -03398.2 -07.4350 26260.5
 08 02 2013  22 58  -21.0132 26039.5 -03398.1 -07.4349 26260.3
 08 02 2013  22 59  -21.0131 26039.3 -03398.0 -07.4348 26260.1
 08 02 2013  23 00  -21.0128 26039.1 -03397.9 -07.4346 26259.9
 08 02 2013  23 01  -21.0128 26039.0 -03397.9 -07.4346 26259.8
 08 02 2013  23 02  -21.0127 26039.1 -03397.9 -07.4347 26259.8
 08 02 2013  23 03  -21.0126 26039.2 -03398.0 -07.4349 26260.0
 08 02 2013  23 04  -21.0126 26039.2 -03398.1 -07.4350 26260.0
 08 02 2013  23 05  -21.0125 26039.3 -03398.2 -07.4352 26260.1
 08 02 2013  23 06  -21.0123 26039.4 -03398.2 -07.4353 26260.2
 08 02 2013  23 07  -21.0119 26039.5 -03398.3 -07.4354 26260.3
 08 02 2013  23 08  -21.0114 26039.5 -03398.4 -07.4355 26260.3
 08 02 2013  23 09  -21.0111 26039.6 -03398.4 -07.4356 26260.5
 08 02 2013  23 10  -21.0108 26039.7 -03398.5 -07.4358 26260.6
 08 02 2013  23 11  -21.0108 26040.1 -03398.7 -07.4361 26260.9
 08 02 2013  23 12  -21.0108 26040.4 -03398.9 -07.4365 26261.3
 08 02 2013  23 13  -21.0107 26040.6 -03399.1 -07.4367 26261.5
 08 02 2013  23 14  -21.0105 26041.0 -03399.2 -07.4369 26261.9
 08 02 2013  23 15  -21.0104 26041.1 -03399.3 -07.4371 26262.0
 08 02 2013  23 16  -21.0101 26041.1 -03399.3 -07.4371 26262.1
 08 02 2013  23 17  -21.0099 26041.2 -03399.3 -07.4371 26262.1
 08 02 2013  23 18  -21.0098 26041.4 -03399.4 -07.4372 26262.3
 08 02 2013  23 19  -21.0097 26041.5 -03399.5 -07.4373 26262.5
 08 02 2013  23 20  -21.0096 26041.6 -03399.5 -07.4374 26262.5
 08 02 2013  23 21  -21.0094 26041.6 -03399.5 -07.4373 26262.5
 08 02 2013  23 22  -21.0093 26041.5 -03399.4 -07.4373 26262.4
 08 02 2013  23 23  -21.0092 26041.4 -03399.4 -07.4372 26262.4
 08 02 2013  23 24  -21.0092 26041.4 -03399.4 -07.4372 26262.4
 08 02 2013  23 25  -21.0093 26041.4 -03399.4 -07.4372 26262.4
 08 02 2013  23 26  -21.0094 26041.3 -03399.3 -07.4371 26262.2
 08 02 2013  23 27  -21.0096 26041.2 -03399.3 -07.4371 26262.1
 08 02 2013  23 28  -21.0098 26041.2 -03399.3 -07.4371 26262.1
 08 02 2013  23 29  -21.0100 26041.2 -03399.3 -07.4371 26262.1
 08 02 2013  23 30  -21.0103 26041.1 -03399.2 -07.4370 26262.0
 08 02 2013  23 31  -21.0106 26041.1 -03399.2 -07.4370 26262.0
 08 02 2013  23 32  -21.0108 26041.1 -03399.2 -07.4370 26262.0
 08 02 2013  23 33  -21.0108 26041.1 -03399.2 -07.4369 26262.0
 08 02 2013  23 34  -21.0108 26041.0 -03399.2 -07.4369 26261.9
 08 02 2013  23 35  -21.0109 26041.0 -03399.2 -07.4369 26261.9
 08 02 2013  23 36  -21.0112 26041.0 -03399.2 -07.4369 26261.9
 08 02 2013  23 37  -21.0115 26040.9 -03399.2 -07.4369 26261.8
 08 02 2013  23 38  -21.0117 26040.9 -03399.1 -07.4368 26261.8
 08 02 2013  23 39  -21.0118 26040.8 -03399.1 -07.4368 26261.7
 08 02 2013  23 40  -21.0120 26040.7 -03399.1 -07.4367 26261.6
 08 02 2013  23 41  -21.0122 26040.5 -03399.0 -07.4365 26261.4
 08 02 2013  23 42  -21.0123 26040.3 -03398.9 -07.4364 26261.2
 08 02 2013  23 43  -21.0124 26040.2 -03398.8 -07.4363 26261.0
 08 02 2013  23 44  -21.0124 26040.1 -03398.7 -07.4362 26261.0
 08 02 2013  23 45  -21.0126 26040.1 -03398.8 -07.4362 26261.0
 08 02 2013  23 46  -21.0128 26040.2 -03398.9 -07.4364 26261.1
 08 02 2013  23 47  -21.0130 26040.3 -03398.9 -07.4365 26261.1
 08 02 2013  23 48  -21.0132 26040.4 -03399.0 -07.4366 26261.2
 08 02 2013  23 49  -21.0133 26040.4 -03399.0 -07.4367 26261.3
 08 02 2013  23 50  -21.0132 26040.4 -03399.0 -07.4367 26261.3
 08 02 2013  23 51  -21.0132 26040.4 -03399.0 -07.4367 26261.2
 08 02 2013  23 52  -21.0133 26040.3 -03399.0 -07.4367 26261.2
 08 02 2013  23 53  -21.0134 26040.1 -03398.9 -07.4365 26261.0
 08 02 2013  23 54  -21.0136 26040.0 -03398.9 -07.4365 26260.9
 08 02 2013  23 55  -21.0138 26039.8 -03398.8 -07.4364 26260.7
 08 02 2013  23 56  -21.0140 26039.9 -03398.8 -07.4364 26260.7
 08 02 2013  23 57  -21.0143 26039.9 -03398.9 -07.4365 26260.8
