SAO LUIS EMBRACE-03 <003> 1 Min. Reported data

 DD MM YYYY  HH MM   D(Deg)  H(nT)   Z(nT)   I(Deg)   F(nT)

 03 01 2013  00 00  -20.9990 26057.0 -03386.2 -07.4043 26276.1
 03 01 2013  00 01  -20.9990 26057.2 -03386.3 -07.4044 26276.3
 03 01 2013  00 02  -20.9988 26057.4 -03386.4 -07.4046 26276.5
 03 01 2013  00 03  -20.9986 26057.5 -03386.4 -07.4046 26276.6
 03 01 2013  00 04  -20.9985 26057.5 -03386.5 -07.4047 26276.7
 03 01 2013  00 05  -20.9983 26057.5 -03386.4 -07.4046 26276.7
 03 01 2013  00 06  -20.9982 26057.6 -03386.5 -07.4047 26276.7
 03 01 2013  00 07  -20.9982 26057.7 -03386.5 -07.4047 26276.8
 03 01 2013  00 08  -20.9981 26057.7 -03386.5 -07.4048 26276.9
 03 01 2013  00 09  -20.9981 26057.7 -03386.5 -07.4048 26276.9
 03 01 2013  00 10  -20.9982 26057.7 -03386.5 -07.4048 26276.9
 03 01 2013  00 11  -20.9984 26057.7 -03386.5 -07.4048 26276.9
 03 01 2013  00 12  -20.9985 26057.8 -03386.6 -07.4048 26276.9
 03 01 2013  00 13  -20.9987 26057.8 -03386.6 -07.4048 26276.9
 03 01 2013  00 14  -20.9988 26057.8 -03386.6 -07.4049 26277.0
 03 01 2013  00 15  -20.9990 26057.9 -03386.6 -07.4049 26277.0
 03 01 2013  00 16  -20.9990 26057.9 -03386.6 -07.4049 26277.0
 03 01 2013  00 17  -20.9990 26057.9 -03386.6 -07.4048 26277.0
 03 01 2013  00 18  -20.9990 26057.9 -03386.6 -07.4048 26277.0
 03 01 2013  00 19  -20.9990 26057.8 -03386.5 -07.4047 26277.0
 03 01 2013  00 20  -20.9989 26057.9 -03386.5 -07.4047 26277.0
 03 01 2013  00 21  -20.9986 26057.9 -03386.5 -07.4047 26277.0
 03 01 2013  00 22  -20.9985 26057.8 -03386.5 -07.4047 26277.0
 03 01 2013  00 23  -20.9986 26057.9 -03386.6 -07.4048 26277.0
 03 01 2013  00 24  -20.9985 26057.9 -03386.6 -07.4049 26277.0
 03 01 2013  00 25  -20.9987 26058.0 -03386.7 -07.4050 26277.2
 03 01 2013  00 26  -20.9987 26058.1 -03386.7 -07.4051 26277.3
 03 01 2013  00 27  -20.9989 26058.1 -03386.7 -07.4051 26277.3
 03 01 2013  00 28  -20.9990 26058.1 -03386.7 -07.4051 26277.3
 03 01 2013  00 29  -20.9990 26058.0 -03386.7 -07.4050 26277.1
 03 01 2013  00 30  -20.9992 26057.9 -03386.6 -07.4049 26277.0
 03 01 2013  00 31  -20.9995 26057.9 -03386.6 -07.4050 26277.1
 03 01 2013  00 32  -20.9996 26058.0 -03386.7 -07.4050 26277.1
 03 01 2013  00 33  -20.9999 26058.0 -03386.7 -07.4050 26277.1
 03 01 2013  00 34  -21.0001 26057.9 -03386.6 -07.4049 26277.1
 03 01 2013  00 35  -21.0004 26057.9 -03386.6 -07.4048 26277.0
 03 01 2013  00 36  -21.0006 26057.8 -03386.5 -07.4047 26276.9
 03 01 2013  00 37  -21.0007 26057.8 -03386.5 -07.4047 26276.9
 03 01 2013  00 38  -21.0007 26057.8 -03386.5 -07.4046 26276.9
 03 01 2013  00 39  -21.0008 26057.7 -03386.4 -07.4046 26276.9
 03 01 2013  00 40  -21.0008 26057.7 -03386.5 -07.4046 26276.9
 03 01 2013  00 41  -21.0010 26057.7 -03386.4 -07.4046 26276.8
 03 01 2013  00 42  -21.0011 26057.8 -03386.5 -07.4046 26276.9
 03 01 2013  00 43  -21.0011 26057.9 -03386.5 -07.4047 26277.0
 03 01 2013  00 44  -21.0009 26057.8 -03386.5 -07.4046 26276.9
 03 01 2013  00 45  -21.0010 26057.6 -03386.4 -07.4045 26276.7
 03 01 2013  00 46  -21.0012 26057.4 -03386.3 -07.4044 26276.5
 03 01 2013  00 47  -21.0013 26057.4 -03386.3 -07.4043 26276.5
 03 01 2013  00 48  -21.0012 26057.6 -03386.4 -07.4045 26276.7
 03 01 2013  00 49  -21.0010 26057.6 -03386.4 -07.4046 26276.7
 03 01 2013  00 50  -21.0010 26057.5 -03386.3 -07.4045 26276.6
 03 01 2013  00 51  -21.0011 26057.4 -03386.3 -07.4044 26276.5
 03 01 2013  00 52  -21.0011 26057.5 -03386.4 -07.4045 26276.6
 03 01 2013  00 53  -21.0013 26057.7 -03386.5 -07.4047 26276.8
 03 01 2013  00 54  -21.0015 26057.8 -03386.6 -07.4048 26276.9
 03 01 2013  00 55  -21.0016 26057.9 -03386.6 -07.4049 26277.0
 03 01 2013  00 56  -21.0017 26057.9 -03386.6 -07.4049 26277.1
 03 01 2013  00 57  -21.0018 26058.0 -03386.7 -07.4050 26277.2
 03 01 2013  00 58  -21.0020 26058.2 -03386.7 -07.4050 26277.3
 03 01 2013  00 59  -21.0021 26058.2 -03386.7 -07.4051 26277.4
 03 01 2013  01 00  -21.0023 26058.3 -03386.7 -07.4051 26277.4
 03 01 2013  01 01  -21.0025 26058.3 -03386.8 -07.4051 26277.5
 03 01 2013  01 02  -21.0029 26058.3 -03386.7 -07.4051 26277.5
 03 01 2013  01 03  -21.0034 26058.3 -03386.7 -07.4050 26277.4
 03 01 2013  01 04  -21.0038 26058.3 -03386.7 -07.4049 26277.4
 03 01 2013  01 05  -21.0041 26058.3 -03386.6 -07.4048 26277.4
 03 01 2013  01 06  -21.0040 26058.3 -03386.6 -07.4047 26277.4
 03 01 2013  01 07  -21.0039 26058.4 -03386.6 -07.4047 26277.5
 03 01 2013  01 08  -21.0038 26058.3 -03386.5 -07.4046 26277.5
 03 01 2013  01 09  -21.0037 26058.1 -03386.4 -07.4044 26277.3
 03 01 2013  01 10  -21.0037 26058.0 -03386.3 -07.4042 26277.1
 03 01 2013  01 11  -21.0037 26057.8 -03386.2 -07.4040 26276.9
 03 01 2013  01 12  -21.0038 26057.6 -03386.1 -07.4038 26276.7
 03 01 2013  01 13  -21.0039 26057.4 -03386.0 -07.4037 26276.5
 03 01 2013  01 14  -21.0040 26057.3 -03385.9 -07.4036 26276.3
 03 01 2013  01 15  -21.0041 26057.4 -03386.0 -07.4037 26276.5
 03 01 2013  01 16  -21.0041 26057.6 -03386.1 -07.4039 26276.7
 03 01 2013  01 17  -21.0043 26057.8 -03386.2 -07.4041 26276.9
 03 01 2013  01 18  -21.0045 26057.9 -03386.3 -07.4043 26277.1
 03 01 2013  01 19  -21.0045 26058.0 -03386.3 -07.4043 26277.1
 03 01 2013  01 20  -21.0046 26058.1 -03386.4 -07.4043 26277.2
 03 01 2013  01 21  -21.0046 26058.2 -03386.4 -07.4044 26277.3
 03 01 2013  01 22  -21.0046 26058.3 -03386.5 -07.4045 26277.4
 03 01 2013  01 23  -21.0046 26058.2 -03386.4 -07.4044 26277.4
 03 01 2013  01 24  -21.0045 26058.2 -03386.4 -07.4043 26277.3
 03 01 2013  01 25  -21.0045 26058.0 -03386.3 -07.4042 26277.1
 03 01 2013  01 26  -21.0046 26057.7 -03386.2 -07.4040 26276.8
 03 01 2013  01 27  -21.0046 26057.5 -03386.0 -07.4038 26276.5
 03 01 2013  01 28  -21.0046 26057.4 -03386.0 -07.4037 26276.5
 03 01 2013  01 29  -21.0047 26057.3 -03386.0 -07.4037 26276.4
 03 01 2013  01 30  -21.0048 26057.3 -03386.0 -07.4037 26276.4
 03 01 2013  01 31  -21.0050 26057.3 -03386.0 -07.4038 26276.4
 03 01 2013  01 32  -21.0051 26057.2 -03386.0 -07.4038 26276.2
 03 01 2013  01 33  -21.0051 26057.1 -03385.9 -07.4037 26276.1
 03 01 2013  01 34  -21.0053 26057.0 -03386.0 -07.4038 26276.1
 03 01 2013  01 35  -21.0052 26057.0 -03386.0 -07.4038 26276.0
 03 01 2013  01 36  -21.0053 26057.0 -03386.0 -07.4038 26276.0
 03 01 2013  01 37  -21.0052 26056.9 -03386.0 -07.4038 26276.0
 03 01 2013  01 38  -21.0053 26056.8 -03386.0 -07.4038 26275.9
 03 01 2013  01 39  -21.0053 26056.9 -03386.0 -07.4039 26276.0
 03 01 2013  01 40  -21.0053 26056.9 -03386.1 -07.4040 26276.0
 03 01 2013  01 41  -21.0054 26057.2 -03386.2 -07.4042 26276.3
 03 01 2013  01 42  -21.0054 26057.5 -03386.4 -07.4045 26276.6
 03 01 2013  01 43  -21.0054 26057.7 -03386.5 -07.4047 26276.8
 03 01 2013  01 44  -21.0053 26057.8 -03386.6 -07.4049 26277.0
 03 01 2013  01 45  -21.0051 26058.0 -03386.6 -07.4049 26277.1
 03 01 2013  01 46  -21.0051 26058.1 -03386.7 -07.4050 26277.3
 03 01 2013  01 47  -21.0052 26058.2 -03386.7 -07.4051 26277.4
 03 01 2013  01 48  -21.0052 26058.3 -03386.8 -07.4051 26277.5
 03 01 2013  01 49  -21.0051 26058.5 -03386.8 -07.4052 26277.6
 03 01 2013  01 50  -21.0050 26058.5 -03386.8 -07.4052 26277.7
 03 01 2013  01 51  -21.0049 26058.7 -03386.8 -07.4052 26277.8
 03 01 2013  01 52  -21.0049 26058.8 -03386.9 -07.4052 26278.0
 03 01 2013  01 53  -21.0049 26058.8 -03386.8 -07.4051 26278.0
 03 01 2013  01 54  -21.0050 26058.9 -03386.8 -07.4051 26278.1
 03 01 2013  01 55  -21.0051 26058.9 -03386.8 -07.4051 26278.1
 03 01 2013  01 56  -21.0053 26058.9 -03386.8 -07.4049 26278.1
 03 01 2013  01 57  -21.0054 26058.9 -03386.7 -07.4048 26278.1
 03 01 2013  01 58  -21.0054 26058.9 -03386.7 -07.4048 26278.1
 03 01 2013  01 59  -21.0056 26058.9 -03386.6 -07.4046 26278.1
 03 01 2013  02 00  -21.0058 26059.0 -03386.6 -07.4046 26278.1
 03 01 2013  02 01  -21.0058 26059.0 -03386.5 -07.4045 26278.1
 03 01 2013  02 02  -21.0059 26059.0 -03386.5 -07.4044 26278.1
 03 01 2013  02 03  -21.0059 26058.9 -03386.4 -07.4042 26278.0
 03 01 2013  02 04  -21.0061 26058.9 -03386.3 -07.4041 26278.0
 03 01 2013  02 05  -21.0062 26058.8 -03386.3 -07.4039 26277.9
 03 01 2013  02 06  -21.0062 26058.8 -03386.2 -07.4038 26277.9
 03 01 2013  02 07  -21.0062 26058.9 -03386.2 -07.4038 26278.0
 03 01 2013  02 08  -21.0062 26059.0 -03386.2 -07.4038 26278.0
 03 01 2013  02 09  -21.0061 26059.1 -03386.3 -07.4038 26278.2
 03 01 2013  02 10  -21.0061 26059.3 -03386.3 -07.4039 26278.4
 03 01 2013  02 11  -21.0060 26059.4 -03386.4 -07.4040 26278.5
 03 01 2013  02 12  -21.0059 26059.6 -03386.5 -07.4042 26278.7
 03 01 2013  02 13  -21.0059 26059.7 -03386.5 -07.4043 26278.8
 03 01 2013  02 14  -21.0059 26059.8 -03386.6 -07.4043 26278.9
 03 01 2013  02 15  -21.0059 26059.9 -03386.6 -07.4044 26279.1
 03 01 2013  02 16  -21.0058 26060.0 -03386.6 -07.4044 26279.1
 03 01 2013  02 17  -21.0058 26060.0 -03386.7 -07.4044 26279.2
 03 01 2013  02 18  -21.0056 26060.0 -03386.6 -07.4043 26279.1
 03 01 2013  02 19  -21.0056 26059.9 -03386.6 -07.4043 26279.1
 03 01 2013  02 20  -21.0059 26059.9 -03386.6 -07.4043 26279.0
 03 01 2013  02 21  -21.0057 26059.9 -03386.5 -07.4042 26279.0
 03 01 2013  02 22  -21.0056 26059.9 -03386.6 -07.4043 26279.1
 03 01 2013  02 23  -21.0057 26060.0 -03386.6 -07.4044 26279.1
 03 01 2013  02 24  -21.0058 26060.0 -03386.7 -07.4045 26279.2
 03 01 2013  02 25  -21.0058 26060.2 -03386.8 -07.4046 26279.3
 03 01 2013  02 26  -21.0058 26060.2 -03386.8 -07.4046 26279.3
 03 01 2013  02 27  -21.0058 26060.2 -03386.8 -07.4047 26279.4
 03 01 2013  02 28  -21.0059 26060.2 -03386.8 -07.4047 26279.4
 03 01 2013  02 29  -21.0060 26060.3 -03386.8 -07.4047 26279.4
 03 01 2013  02 30  -21.0061 26060.4 -03386.9 -07.4048 26279.5
 03 01 2013  02 31  -21.0062 26060.4 -03386.9 -07.4049 26279.6
 03 01 2013  02 32  -21.0063 26060.5 -03386.9 -07.4049 26279.7
 03 01 2013  02 33  -21.0062 26060.7 -03387.0 -07.4049 26279.8
 03 01 2013  02 34  -21.0062 26060.7 -03387.0 -07.4050 26279.9
 03 01 2013  02 35  -21.0063 26060.8 -03387.0 -07.4050 26279.9
 03 01 2013  02 36  -21.0063 26060.7 -03387.0 -07.4050 26279.9
 03 01 2013  02 37  -21.0064 26060.7 -03387.0 -07.4049 26279.9
 03 01 2013  02 38  -21.0064 26060.7 -03386.9 -07.4048 26279.8
 03 01 2013  02 39  -21.0064 26060.6 -03386.9 -07.4047 26279.8
 03 01 2013  02 40  -21.0064 26060.5 -03386.8 -07.4046 26279.7
 03 01 2013  02 41  -21.0064 26060.4 -03386.7 -07.4045 26279.6
 03 01 2013  02 42  -21.0064 26060.4 -03386.7 -07.4044 26279.6
 03 01 2013  02 43  -21.0064 26060.4 -03386.7 -07.4044 26279.5
 03 01 2013  02 44  -21.0064 26060.3 -03386.7 -07.4043 26279.4
 03 01 2013  02 45  -21.0063 26060.2 -03386.6 -07.4042 26279.4
 03 01 2013  02 46  -21.0064 26060.0 -03386.5 -07.4041 26279.1
 03 01 2013  02 47  -21.0066 26059.7 -03386.3 -07.4038 26278.8
 03 01 2013  02 48  -21.0069 26059.3 -03386.1 -07.4035 26278.4
 03 01 2013  02 49  -21.0071 26059.1 -03386.0 -07.4033 26278.1
 03 01 2013  02 50  -21.0073 26058.9 -03385.9 -07.4031 26277.9
 03 01 2013  02 51  -21.0075 26058.8 -03385.9 -07.4030 26277.9
 03 01 2013  02 52  -21.0077 26058.8 -03385.9 -07.4031 26277.9
 03 01 2013  02 53  -21.0077 26058.9 -03385.9 -07.4031 26277.9
 03 01 2013  02 54  -21.0076 26058.8 -03385.9 -07.4031 26277.8
 03 01 2013  02 55  -21.0076 26058.7 -03385.8 -07.4030 26277.7
 03 01 2013  02 56  -21.0077 26058.5 -03385.8 -07.4029 26277.5
 03 01 2013  02 57  -21.0079 26058.4 -03385.7 -07.4028 26277.5
 03 01 2013  02 58  -21.0081 26058.6 -03385.8 -07.4029 26277.6
 03 01 2013  02 59  -21.0083 26059.0 -03386.0 -07.4033 26278.0
 03 01 2013  03 00  -21.0083 26059.7 -03386.3 -07.4038 26278.7
 03 01 2013  03 01  -21.0082 26060.4 -03386.7 -07.4044 26279.5
 03 01 2013  03 02  -21.0082 26061.0 -03387.0 -07.4049 26280.2
 03 01 2013  03 03  -21.0082 26061.7 -03387.3 -07.4054 26280.9
 03 01 2013  03 04  -21.0081 26062.1 -03387.5 -07.4057 26281.3
 03 01 2013  03 05  -21.0079 26062.4 -03387.6 -07.4058 26281.7
 03 01 2013  03 06  -21.0078 26062.5 -03387.6 -07.4057 26281.8
 03 01 2013  03 07  -21.0077 26062.5 -03387.5 -07.4056 26281.8
 03 01 2013  03 08  -21.0076 26062.5 -03387.4 -07.4054 26281.7
 03 01 2013  03 09  -21.0075 26062.3 -03387.3 -07.4052 26281.5
 03 01 2013  03 10  -21.0074 26062.1 -03387.2 -07.4050 26281.3
 03 01 2013  03 11  -21.0075 26062.0 -03387.1 -07.4048 26281.1
 03 01 2013  03 12  -21.0075 26061.8 -03387.0 -07.4047 26280.9
 03 01 2013  03 13  -21.0077 26061.6 -03386.9 -07.4046 26280.8
 03 01 2013  03 14  -21.0078 26061.5 -03386.9 -07.4045 26280.6
 03 01 2013  03 15  -21.0079 26061.4 -03386.8 -07.4044 26280.5
 03 01 2013  03 16  -21.0080 26061.3 -03386.8 -07.4044 26280.5
 03 01 2013  03 17  -21.0082 26061.2 -03386.8 -07.4043 26280.3
 03 01 2013  03 18  -21.0085 26061.1 -03386.7 -07.4043 26280.2
 03 01 2013  03 19  -21.0086 26060.7 -03386.6 -07.4041 26279.9
 03 01 2013  03 20  -21.0089 26060.1 -03386.3 -07.4036 26279.2
 03 01 2013  03 21  -21.0095 26059.5 -03386.0 -07.4032 26278.6
 03 01 2013  03 22  -21.0101 26058.9 -03385.8 -07.4028 26278.0
 03 01 2013  03 23  -21.0107 26058.6 -03385.6 -07.4026 26277.6
 03 01 2013  03 24  -21.0112 26058.3 -03385.5 -07.4024 26277.3
 03 01 2013  03 25  -21.0115 26058.2 -03385.5 -07.4024 26277.2
 03 01 2013  03 26  -21.0118 26058.4 -03385.6 -07.4026 26277.4
 03 01 2013  03 27  -21.0121 26058.6 -03385.7 -07.4029 26277.6
 03 01 2013  03 28  -21.0124 26058.9 -03385.9 -07.4032 26278.0
 03 01 2013  03 29  -21.0126 26059.3 -03386.2 -07.4036 26278.4
 03 01 2013  03 30  -21.0126 26059.6 -03386.4 -07.4039 26278.7
 03 01 2013  03 31  -21.0127 26060.0 -03386.5 -07.4042 26279.1
 03 01 2013  03 32  -21.0127 26060.3 -03386.7 -07.4044 26279.5
 03 01 2013  03 33  -21.0126 26060.6 -03386.8 -07.4046 26279.7
 03 01 2013  03 34  -21.0126 26060.9 -03386.9 -07.4047 26280.0
 03 01 2013  03 35  -21.0125 26061.1 -03387.0 -07.4049 26280.3
 03 01 2013  03 36  -21.0124 26061.3 -03387.1 -07.4050 26280.4
 03 01 2013  03 37  -21.0123 26061.4 -03387.1 -07.4050 26280.6
 03 01 2013  03 38  -21.0123 26061.5 -03387.1 -07.4050 26280.7
 03 01 2013  03 39  -21.0122 26061.6 -03387.1 -07.4050 26280.8
 03 01 2013  03 40  -21.0122 26061.6 -03387.1 -07.4050 26280.8
 03 01 2013  03 41  -21.0121 26061.6 -03387.1 -07.4049 26280.8
 03 01 2013  03 42  -21.0122 26061.7 -03387.1 -07.4048 26280.8
 03 01 2013  03 43  -21.0121 26061.6 -03387.0 -07.4047 26280.8
 03 01 2013  03 44  -21.0120 26061.6 -03387.0 -07.4047 26280.8
 03 01 2013  03 45  -21.0120 26061.6 -03387.0 -07.4046 26280.8
 03 01 2013  03 46  -21.0120 26061.7 -03387.0 -07.4047 26280.8
 03 01 2013  03 47  -21.0119 26061.7 -03387.0 -07.4047 26280.8
 03 01 2013  03 48  -21.0119 26061.6 -03387.0 -07.4046 26280.8
 03 01 2013  03 49  -21.0120 26061.6 -03386.9 -07.4046 26280.7
 03 01 2013  03 50  -21.0121 26061.4 -03386.8 -07.4044 26280.6
 03 01 2013  03 51  -21.0123 26061.3 -03386.8 -07.4043 26280.5
 03 01 2013  03 52  -21.0125 26061.2 -03386.7 -07.4042 26280.3
 03 01 2013  03 53  -21.0127 26061.1 -03386.7 -07.4041 26280.2
 03 01 2013  03 54  -21.0129 26061.1 -03386.7 -07.4041 26280.2
 03 01 2013  03 55  -21.0129 26060.9 -03386.6 -07.4040 26280.0
 03 01 2013  03 56  -21.0131 26060.9 -03386.6 -07.4039 26280.0
 03 01 2013  03 57  -21.0131 26060.9 -03386.5 -07.4039 26280.0
 03 01 2013  03 58  -21.0132 26060.9 -03386.5 -07.4039 26280.0
 03 01 2013  03 59  -21.0134 26060.8 -03386.5 -07.4039 26279.9
 03 01 2013  04 00  -21.0134 26060.9 -03386.5 -07.4039 26280.0
 03 01 2013  04 01  -21.0134 26061.0 -03386.6 -07.4040 26280.1
 03 01 2013  04 02  -21.0131 26060.9 -03386.5 -07.4039 26280.0
 03 01 2013  04 03  -21.0132 26061.0 -03386.6 -07.4040 26280.1
 03 01 2013  04 04  -21.0131 26060.9 -03386.6 -07.4040 26280.0
 03 01 2013  04 05  -21.0131 26060.9 -03386.6 -07.4040 26280.1
 03 01 2013  04 06  -21.0131 26061.0 -03386.6 -07.4041 26280.2
 03 01 2013  04 07  -21.0131 26061.0 -03386.6 -07.4041 26280.1
 03 01 2013  04 08  -21.0133 26061.1 -03386.7 -07.4042 26280.2
 03 01 2013  04 09  -21.0132 26061.3 -03386.8 -07.4043 26280.4
 03 01 2013  04 10  -21.0130 26061.3 -03386.7 -07.4043 26280.4
 03 01 2013  04 11  -21.0131 26061.4 -03386.8 -07.4043 26280.5
 03 01 2013  04 12  -21.0131 26061.3 -03386.8 -07.4043 26280.5
 03 01 2013  04 13  -21.0132 26061.3 -03386.8 -07.4043 26280.5
 03 01 2013  04 14  -21.0132 26061.3 -03386.8 -07.4043 26280.5
 03 01 2013  04 15  -21.0132 26061.2 -03386.7 -07.4042 26280.3
 03 01 2013  04 16  -21.0133 26061.1 -03386.6 -07.4041 26280.2
 03 01 2013  04 17  -21.0134 26060.8 -03386.5 -07.4038 26279.9
 03 01 2013  04 18  -21.0136 26060.7 -03386.4 -07.4037 26279.8
 03 01 2013  04 19  -21.0139 26060.5 -03386.3 -07.4036 26279.6
 03 01 2013  04 20  -21.0142 26060.3 -03386.3 -07.4035 26279.4
 03 01 2013  04 21  -21.0145 26060.2 -03386.3 -07.4035 26279.3
 03 01 2013  04 22  -21.0146 26060.2 -03386.2 -07.4034 26279.3
 03 01 2013  04 23  -21.0150 26060.2 -03386.2 -07.4035 26279.3
 03 01 2013  04 24  -21.0151 26060.2 -03386.2 -07.4034 26279.2
 03 01 2013  04 25  -21.0154 26060.1 -03386.2 -07.4034 26279.2
 03 01 2013  04 26  -21.0156 26060.1 -03386.2 -07.4033 26279.1
 03 01 2013  04 27  -21.0159 26060.0 -03386.1 -07.4033 26279.0
 03 01 2013  04 28  -21.0163 26060.0 -03386.1 -07.4033 26279.0
 03 01 2013  04 29  -21.0165 26060.0 -03386.1 -07.4032 26279.0
 03 01 2013  04 30  -21.0167 26060.0 -03386.1 -07.4032 26279.1
 03 01 2013  04 31  -21.0168 26060.1 -03386.1 -07.4033 26279.2
 03 01 2013  04 32  -21.0168 26060.1 -03386.2 -07.4033 26279.2
 03 01 2013  04 33  -21.0170 26060.2 -03386.2 -07.4034 26279.3
 03 01 2013  04 34  -21.0170 26060.3 -03386.2 -07.4034 26279.3
 03 01 2013  04 35  -21.0171 26060.3 -03386.3 -07.4035 26279.4
 03 01 2013  04 36  -21.0171 26060.4 -03386.3 -07.4035 26279.5
 03 01 2013  04 37  -21.0170 26060.5 -03386.3 -07.4035 26279.6
 03 01 2013  04 38  -21.0169 26060.5 -03386.3 -07.4035 26279.6
 03 01 2013  04 39  -21.0168 26060.5 -03386.3 -07.4035 26279.6
 03 01 2013  04 40  -21.0167 26060.6 -03386.3 -07.4035 26279.6
 03 01 2013  04 41  -21.0166 26060.6 -03386.3 -07.4035 26279.7
 03 01 2013  04 42  -21.0166 26060.6 -03386.3 -07.4035 26279.7
 03 01 2013  04 43  -21.0165 26060.6 -03386.3 -07.4035 26279.7
 03 01 2013  04 44  -21.0164 26060.6 -03386.3 -07.4035 26279.7
 03 01 2013  04 45  -21.0164 26060.6 -03386.3 -07.4034 26279.7
 03 01 2013  04 46  -21.0164 26060.5 -03386.2 -07.4034 26279.6
 03 01 2013  04 47  -21.0163 26060.5 -03386.2 -07.4033 26279.6
 03 01 2013  04 48  -21.0164 26060.5 -03386.2 -07.4033 26279.6
 03 01 2013  04 49  -21.0164 26060.5 -03386.2 -07.4033 26279.6
 03 01 2013  04 50  -21.0164 26060.6 -03386.2 -07.4033 26279.7
 03 01 2013  04 51  -21.0163 26060.7 -03386.3 -07.4034 26279.8
 03 01 2013  04 52  -21.0162 26060.7 -03386.3 -07.4034 26279.8
 03 01 2013  04 53  -21.0161 26060.7 -03386.3 -07.4034 26279.8
 03 01 2013  04 54  -21.0160 26060.7 -03386.3 -07.4035 26279.8
 03 01 2013  04 55  -21.0158 26060.7 -03386.3 -07.4034 26279.8
 03 01 2013  04 56  -21.0158 26060.8 -03386.3 -07.4035 26279.9
 03 01 2013  04 57  -21.0157 26060.8 -03386.3 -07.4035 26279.9
 03 01 2013  04 58  -21.0157 26060.9 -03386.4 -07.4035 26280.0
 03 01 2013  04 59  -21.0157 26061.0 -03386.4 -07.4036 26280.1
 03 01 2013  05 00  -21.0155 26061.1 -03386.5 -07.4037 26280.3
 03 01 2013  05 01  -21.0155 26061.2 -03386.5 -07.4037 26280.3
 03 01 2013  05 02  -21.0154 26061.2 -03386.5 -07.4037 26280.4
 03 01 2013  05 03  -21.0153 26061.2 -03386.5 -07.4037 26280.3
 03 01 2013  05 04  -21.0152 26061.2 -03386.4 -07.4036 26280.3
 03 01 2013  05 05  -21.0152 26061.1 -03386.4 -07.4036 26280.2
 03 01 2013  05 06  -21.0151 26061.0 -03386.4 -07.4035 26280.1
 03 01 2013  05 07  -21.0151 26060.9 -03386.3 -07.4035 26280.0
 03 01 2013  05 08  -21.0151 26060.9 -03386.3 -07.4034 26280.0
 03 01 2013  05 09  -21.0150 26061.0 -03386.3 -07.4035 26280.1
 03 01 2013  05 10  -21.0150 26061.1 -03386.4 -07.4035 26280.2
 03 01 2013  05 11  -21.0150 26061.2 -03386.4 -07.4036 26280.3
 03 01 2013  05 12  -21.0151 26061.2 -03386.5 -07.4037 26280.3
 03 01 2013  05 13  -21.0154 26061.3 -03386.5 -07.4037 26280.4
 03 01 2013  05 14  -21.0152 26061.4 -03386.5 -07.4037 26280.5
 03 01 2013  05 15  -21.0149 26061.5 -03386.6 -07.4038 26280.7
 03 01 2013  05 16  -21.0149 26061.5 -03386.6 -07.4038 26280.7
 03 01 2013  05 17  -21.0149 26061.5 -03386.6 -07.4038 26280.7
 03 01 2013  05 18  -21.0149 26061.4 -03386.5 -07.4037 26280.6
 03 01 2013  05 19  -21.0148 26061.5 -03386.5 -07.4037 26280.6
 03 01 2013  05 20  -21.0145 26061.6 -03386.5 -07.4037 26280.7
 03 01 2013  05 21  -21.0145 26061.5 -03386.5 -07.4037 26280.6
 03 01 2013  05 22  -21.0145 26061.5 -03386.5 -07.4036 26280.6
 03 01 2013  05 23  -21.0144 26061.5 -03386.5 -07.4036 26280.6
 03 01 2013  05 24  -21.0144 26061.4 -03386.4 -07.4036 26280.5
 03 01 2013  05 25  -21.0144 26061.4 -03386.4 -07.4035 26280.5
 03 01 2013  05 26  -21.0144 26061.4 -03386.4 -07.4035 26280.5
 03 01 2013  05 27  -21.0143 26061.4 -03386.4 -07.4035 26280.5
 03 01 2013  05 28  -21.0143 26061.4 -03386.4 -07.4035 26280.5
 03 01 2013  05 29  -21.0143 26061.4 -03386.4 -07.4035 26280.5
 03 01 2013  05 30  -21.0143 26061.3 -03386.4 -07.4035 26280.4
 03 01 2013  05 31  -21.0142 26061.4 -03386.4 -07.4035 26280.5
 03 01 2013  05 32  -21.0141 26061.4 -03386.4 -07.4035 26280.5
 03 01 2013  05 33  -21.0142 26061.5 -03386.4 -07.4036 26280.6
 03 01 2013  05 34  -21.0141 26061.5 -03386.5 -07.4036 26280.6
 03 01 2013  05 35  -21.0141 26061.5 -03386.4 -07.4036 26280.6
 03 01 2013  05 36  -21.0141 26061.5 -03386.5 -07.4036 26280.6
 03 01 2013  05 37  -21.0140 26061.5 -03386.5 -07.4036 26280.6
 03 01 2013  05 38  -21.0139 26061.5 -03386.5 -07.4036 26280.6
 03 01 2013  05 39  -21.0139 26061.5 -03386.5 -07.4036 26280.6
 03 01 2013  05 40  -21.0139 26061.5 -03386.5 -07.4036 26280.6
 03 01 2013  05 41  -21.0139 26061.6 -03386.5 -07.4036 26280.7
 03 01 2013  05 42  -21.0138 26061.6 -03386.5 -07.4036 26280.7
 03 01 2013  05 43  -21.0137 26061.6 -03386.5 -07.4037 26280.7
 03 01 2013  05 44  -21.0136 26061.6 -03386.5 -07.4036 26280.7
 03 01 2013  05 45  -21.0135 26061.5 -03386.5 -07.4036 26280.6
 03 01 2013  05 46  -21.0135 26061.6 -03386.5 -07.4036 26280.7
 03 01 2013  05 47  -21.0133 26061.6 -03386.5 -07.4037 26280.7
 03 01 2013  05 48  -21.0132 26061.6 -03386.6 -07.4037 26280.7
 03 01 2013  05 49  -21.0131 26061.6 -03386.6 -07.4038 26280.7
 03 01 2013  05 50  -21.0130 26061.6 -03386.6 -07.4038 26280.7
 03 01 2013  05 51  -21.0129 26061.6 -03386.6 -07.4039 26280.8
 03 01 2013  05 52  -21.0128 26061.6 -03386.6 -07.4039 26280.7
 03 01 2013  05 53  -21.0126 26061.5 -03386.6 -07.4039 26280.6
 03 01 2013  05 54  -21.0126 26061.4 -03386.6 -07.4039 26280.5
 03 01 2013  05 55  -21.0126 26061.3 -03386.6 -07.4039 26280.4
 03 01 2013  05 56  -21.0126 26061.2 -03386.6 -07.4039 26280.4
 03 01 2013  05 57  -21.0126 26061.2 -03386.6 -07.4039 26280.3
 03 01 2013  05 58  -21.0128 26061.1 -03386.6 -07.4039 26280.2
 03 01 2013  05 59  -21.0130 26061.1 -03386.6 -07.4039 26280.2
 03 01 2013  06 00  -21.0132 26061.1 -03386.6 -07.4040 26280.2
 03 01 2013  06 01  -21.0133 26061.1 -03386.6 -07.4041 26280.2
 03 01 2013  06 02  -21.0135 26061.2 -03386.7 -07.4041 26280.3
 03 01 2013  06 03  -21.0136 26061.2 -03386.7 -07.4042 26280.3
 03 01 2013  06 04  -21.0138 26061.3 -03386.8 -07.4043 26280.4
 03 01 2013  06 05  -21.0139 26061.4 -03386.8 -07.4044 26280.5
 03 01 2013  06 06  -21.0140 26061.4 -03386.9 -07.4045 26280.6
 03 01 2013  06 07  -21.0141 26061.6 -03387.0 -07.4046 26280.8
 03 01 2013  06 08  -21.0141 26061.7 -03387.0 -07.4047 26280.9
 03 01 2013  06 09  -21.0141 26061.7 -03387.0 -07.4048 26280.9
 03 01 2013  06 10  -21.0142 26061.8 -03387.1 -07.4048 26281.0
 03 01 2013  06 11  -21.0143 26061.8 -03387.1 -07.4048 26281.0
 03 01 2013  06 12  -21.0144 26061.9 -03387.1 -07.4049 26281.1
 03 01 2013  06 13  -21.0145 26061.9 -03387.1 -07.4049 26281.1
 03 01 2013  06 14  -21.0147 26061.9 -03387.1 -07.4049 26281.1
 03 01 2013  06 15  -21.0150 26062.0 -03387.2 -07.4050 26281.2
 03 01 2013  06 16  -21.0152 26062.0 -03387.2 -07.4050 26281.1
 03 01 2013  06 17  -21.0154 26062.0 -03387.2 -07.4050 26281.2
 03 01 2013  06 18  -21.0157 26062.0 -03387.2 -07.4050 26281.2
 03 01 2013  06 19  -21.0159 26062.0 -03387.2 -07.4050 26281.2
 03 01 2013  06 20  -21.0161 26062.1 -03387.2 -07.4050 26281.3
 03 01 2013  06 21  -21.0163 26062.1 -03387.2 -07.4050 26281.3
 03 01 2013  06 22  -21.0164 26062.2 -03387.2 -07.4051 26281.4
 03 01 2013  06 23  -21.0165 26062.2 -03387.3 -07.4051 26281.4
 03 01 2013  06 24  -21.0167 26062.2 -03387.3 -07.4051 26281.4
 03 01 2013  06 25  -21.0169 26062.2 -03387.3 -07.4051 26281.4
 03 01 2013  06 26  -21.0171 26062.3 -03387.3 -07.4051 26281.4
 03 01 2013  06 27  -21.0173 26062.2 -03387.3 -07.4051 26281.4
 03 01 2013  06 28  -21.0174 26062.2 -03387.3 -07.4051 26281.4
 03 01 2013  06 29  -21.0176 26062.2 -03387.3 -07.4051 26281.4
 03 01 2013  06 30  -21.0178 26062.2 -03387.2 -07.4050 26281.4
 03 01 2013  06 31  -21.0181 26062.1 -03387.2 -07.4050 26281.3
 03 01 2013  06 32  -21.0183 26062.1 -03387.2 -07.4050 26281.3
 03 01 2013  06 33  -21.0186 26062.2 -03387.2 -07.4051 26281.4
 03 01 2013  06 34  -21.0187 26062.2 -03387.2 -07.4051 26281.4
 03 01 2013  06 35  -21.0188 26062.3 -03387.3 -07.4051 26281.5
 03 01 2013  06 36  -21.0189 26062.4 -03387.3 -07.4051 26281.6
 03 01 2013  06 37  -21.0191 26062.4 -03387.3 -07.4051 26281.6
 03 01 2013  06 38  -21.0191 26062.4 -03387.2 -07.4050 26281.6
 03 01 2013  06 39  -21.0192 26062.4 -03387.3 -07.4050 26281.6
 03 01 2013  06 40  -21.0194 26062.4 -03387.3 -07.4050 26281.6
 03 01 2013  06 41  -21.0195 26062.4 -03387.3 -07.4050 26281.6
 03 01 2013  06 42  -21.0196 26062.4 -03387.2 -07.4050 26281.6
 03 01 2013  06 43  -21.0197 26062.5 -03387.2 -07.4050 26281.6
 03 01 2013  06 44  -21.0198 26062.5 -03387.3 -07.4050 26281.7
 03 01 2013  06 45  -21.0198 26062.6 -03387.3 -07.4050 26281.8
 03 01 2013  06 46  -21.0200 26062.7 -03387.3 -07.4051 26281.9
 03 01 2013  06 47  -21.0199 26062.7 -03387.3 -07.4051 26281.9
 03 01 2013  06 48  -21.0199 26062.8 -03387.3 -07.4051 26282.0
 03 01 2013  06 49  -21.0199 26062.7 -03387.3 -07.4051 26281.9
 03 01 2013  06 50  -21.0199 26062.6 -03387.3 -07.4050 26281.8
 03 01 2013  06 51  -21.0201 26062.7 -03387.3 -07.4050 26281.9
 03 01 2013  06 52  -21.0202 26062.7 -03387.3 -07.4050 26281.9
 03 01 2013  06 53  -21.0203 26062.8 -03387.3 -07.4050 26282.0
 03 01 2013  06 54  -21.0203 26063.0 -03387.4 -07.4051 26282.2
 03 01 2013  06 55  -21.0204 26063.2 -03387.4 -07.4052 26282.4
 03 01 2013  06 56  -21.0205 26063.4 -03387.5 -07.4054 26282.6
 03 01 2013  06 57  -21.0206 26063.7 -03387.7 -07.4056 26282.9
 03 01 2013  06 58  -21.0206 26063.9 -03387.8 -07.4058 26283.1
 03 01 2013  06 59  -21.0206 26064.0 -03387.8 -07.4058 26283.3
 03 01 2013  07 00  -21.0205 26064.1 -03387.8 -07.4058 26283.3
 03 01 2013  07 01  -21.0204 26064.1 -03387.8 -07.4057 26283.3
 03 01 2013  07 02  -21.0203 26064.0 -03387.7 -07.4056 26283.2
 03 01 2013  07 03  -21.0203 26063.9 -03387.6 -07.4054 26283.1
 03 01 2013  07 04  -21.0202 26063.8 -03387.6 -07.4053 26283.1
 03 01 2013  07 05  -21.0202 26063.8 -03387.5 -07.4052 26283.0
 03 01 2013  07 06  -21.0202 26063.8 -03387.5 -07.4052 26283.0
 03 01 2013  07 07  -21.0203 26063.8 -03387.5 -07.4051 26283.0
 03 01 2013  07 08  -21.0203 26063.8 -03387.5 -07.4051 26283.0
 03 01 2013  07 09  -21.0203 26063.8 -03387.5 -07.4051 26283.0
 03 01 2013  07 10  -21.0204 26063.9 -03387.5 -07.4052 26283.1
 03 01 2013  07 11  -21.0205 26064.0 -03387.5 -07.4052 26283.2
 03 01 2013  07 12  -21.0205 26064.1 -03387.6 -07.4053 26283.3
 03 01 2013  07 13  -21.0206 26064.2 -03387.6 -07.4053 26283.4
 03 01 2013  07 14  -21.0206 26064.2 -03387.6 -07.4053 26283.4
 03 01 2013  07 15  -21.0205 26064.1 -03387.5 -07.4052 26283.3
 03 01 2013  07 16  -21.0206 26064.1 -03387.5 -07.4050 26283.3
 03 01 2013  07 17  -21.0206 26064.0 -03387.4 -07.4050 26283.2
 03 01 2013  07 18  -21.0207 26064.0 -03387.4 -07.4049 26283.2
 03 01 2013  07 19  -21.0207 26064.0 -03387.4 -07.4049 26283.2
 03 01 2013  07 20  -21.0207 26064.0 -03387.4 -07.4048 26283.2
 03 01 2013  07 21  -21.0208 26064.0 -03387.3 -07.4048 26283.2
 03 01 2013  07 22  -21.0209 26064.0 -03387.3 -07.4047 26283.2
 03 01 2013  07 23  -21.0210 26064.0 -03387.3 -07.4047 26283.2
 03 01 2013  07 24  -21.0210 26064.0 -03387.3 -07.4047 26283.2
 03 01 2013  07 25  -21.0210 26064.0 -03387.3 -07.4047 26283.2
 03 01 2013  07 26  -21.0212 26064.1 -03387.3 -07.4047 26283.3
 03 01 2013  07 27  -21.0212 26064.1 -03387.3 -07.4047 26283.3
 03 01 2013  07 28  -21.0213 26064.2 -03387.3 -07.4047 26283.3
 03 01 2013  07 29  -21.0214 26064.2 -03387.3 -07.4047 26283.4
 03 01 2013  07 30  -21.0215 26064.2 -03387.3 -07.4047 26283.4
 03 01 2013  07 31  -21.0215 26064.3 -03387.3 -07.4047 26283.5
 03 01 2013  07 32  -21.0215 26064.3 -03387.3 -07.4046 26283.5
 03 01 2013  07 33  -21.0216 26064.3 -03387.3 -07.4046 26283.5
 03 01 2013  07 34  -21.0215 26064.3 -03387.3 -07.4045 26283.4
 03 01 2013  07 35  -21.0215 26064.2 -03387.2 -07.4045 26283.4
 03 01 2013  07 36  -21.0214 26064.2 -03387.2 -07.4044 26283.4
 03 01 2013  07 37  -21.0216 26064.1 -03387.2 -07.4044 26283.3
 03 01 2013  07 38  -21.0219 26064.1 -03387.1 -07.4043 26283.3
 03 01 2013  07 39  -21.0217 26064.2 -03387.2 -07.4043 26283.4
 03 01 2013  07 40  -21.0215 26064.2 -03387.1 -07.4043 26283.4
 03 01 2013  07 41  -21.0216 26064.3 -03387.2 -07.4043 26283.4
 03 01 2013  07 42  -21.0220 26064.2 -03387.1 -07.4043 26283.4
 03 01 2013  07 43  -21.0217 26064.4 -03387.2 -07.4044 26283.6
 03 01 2013  07 44  -21.0212 26064.6 -03387.2 -07.4044 26283.8
 03 01 2013  07 45  -21.0213 26064.5 -03387.2 -07.4044 26283.7
 03 01 2013  07 46  -21.0214 26064.4 -03387.2 -07.4043 26283.6
 03 01 2013  07 47  -21.0213 26064.4 -03387.2 -07.4043 26283.6
 03 01 2013  07 48  -21.0212 26064.4 -03387.1 -07.4042 26283.6
 03 01 2013  07 49  -21.0213 26064.4 -03387.1 -07.4042 26283.6
 03 01 2013  07 50  -21.0215 26064.4 -03387.1 -07.4042 26283.6
 03 01 2013  07 51  -21.0214 26064.5 -03387.2 -07.4043 26283.6
 03 01 2013  07 52  -21.0212 26064.5 -03387.2 -07.4043 26283.7
 03 01 2013  07 53  -21.0218 26064.3 -03387.1 -07.4042 26283.5
 03 01 2013  07 54  -21.0219 26064.3 -03387.1 -07.4041 26283.4
 03 01 2013  07 55  -21.0214 26064.4 -03387.1 -07.4041 26283.6
 03 01 2013  07 56  -21.0214 26064.3 -03387.0 -07.4040 26283.4
 03 01 2013  07 57  -21.0219 26064.2 -03387.0 -07.4040 26283.3
 03 01 2013  07 58  -21.0223 26064.1 -03387.0 -07.4040 26283.3
 03 01 2013  07 59  -21.0219 26064.1 -03386.9 -07.4039 26283.2
 03 01 2013  08 00  -21.0222 26064.1 -03386.9 -07.4039 26283.2
 03 01 2013  08 01  -21.0226 26063.9 -03386.9 -07.4038 26283.0
 03 01 2013  08 02  -21.0224 26064.1 -03386.9 -07.4039 26283.2
 03 01 2013  08 03  -21.0227 26064.0 -03387.0 -07.4040 26283.2
 03 01 2013  08 04  -21.0227 26064.0 -03386.9 -07.4039 26283.1
 03 01 2013  08 05  -21.0227 26064.0 -03387.0 -07.4039 26283.2
 03 01 2013  08 06  -21.0226 26064.1 -03387.0 -07.4040 26283.2
 03 01 2013  08 07  -21.0226 26064.1 -03387.0 -07.4040 26283.3
 03 01 2013  08 08  -21.0228 26064.1 -03387.0 -07.4041 26283.2
 03 01 2013  08 09  -21.0227 26064.0 -03387.0 -07.4039 26283.1
 03 01 2013  08 10  -21.0228 26064.0 -03387.0 -07.4039 26283.2
 03 01 2013  08 11  -21.0227 26064.0 -03387.0 -07.4039 26283.1
 03 01 2013  08 12  -21.0227 26064.0 -03387.0 -07.4040 26283.2
 03 01 2013  08 13  -21.0230 26064.0 -03387.0 -07.4040 26283.2
 03 01 2013  08 14  -21.0230 26064.0 -03387.0 -07.4040 26283.1
 03 01 2013  08 15  -21.0230 26063.9 -03386.9 -07.4039 26283.1
 03 01 2013  08 16  -21.0230 26064.0 -03386.9 -07.4039 26283.1
 03 01 2013  08 17  -21.0230 26064.0 -03387.0 -07.4039 26283.1
 03 01 2013  08 18  -21.0233 26064.0 -03387.0 -07.4040 26283.2
 03 01 2013  08 19  -21.0232 26064.0 -03387.0 -07.4040 26283.2
 03 01 2013  08 20  -21.0231 26064.2 -03387.0 -07.4041 26283.3
 03 01 2013  08 21  -21.0236 26064.1 -03387.0 -07.4040 26283.2
 03 01 2013  08 22  -21.0235 26064.1 -03387.0 -07.4040 26283.3
 03 01 2013  08 23  -21.0236 26064.1 -03387.0 -07.4040 26283.3
 03 01 2013  08 24  -21.0237 26064.1 -03387.0 -07.4039 26283.2
 03 01 2013  08 25  -21.0238 26064.1 -03386.9 -07.4039 26283.2
 03 01 2013  08 26  -21.0240 26064.0 -03386.9 -07.4038 26283.2
 03 01 2013  08 27  -21.0239 26064.1 -03386.9 -07.4037 26283.2
 03 01 2013  08 28  -21.0239 26064.1 -03386.8 -07.4037 26283.3
 03 01 2013  08 29  -21.0243 26064.1 -03386.8 -07.4036 26283.2
 03 01 2013  08 30  -21.0242 26064.1 -03386.8 -07.4035 26283.2
 03 01 2013  08 31  -21.0242 26064.2 -03386.8 -07.4035 26283.3
 03 01 2013  08 32  -21.0244 26064.2 -03386.7 -07.4034 26283.3
 03 01 2013  08 33  -21.0244 26064.2 -03386.7 -07.4033 26283.3
 03 01 2013  08 34  -21.0243 26064.2 -03386.6 -07.4032 26283.3
 03 01 2013  08 35  -21.0243 26064.1 -03386.5 -07.4030 26283.2
 03 01 2013  08 36  -21.0249 26064.0 -03386.4 -07.4027 26283.1
 03 01 2013  08 37  -21.0248 26063.9 -03386.4 -07.4027 26283.0
 03 01 2013  08 38  -21.0250 26063.9 -03386.4 -07.4027 26283.0
 03 01 2013  08 39  -21.0248 26063.8 -03386.3 -07.4026 26282.9
 03 01 2013  08 40  -21.0246 26063.8 -03386.2 -07.4024 26282.9
 03 01 2013  08 41  -21.0250 26063.7 -03386.2 -07.4024 26282.7
 03 01 2013  08 42  -21.0250 26063.6 -03386.1 -07.4023 26282.6
 03 01 2013  08 43  -21.0249 26063.6 -03386.1 -07.4023 26282.7
 03 01 2013  08 44  -21.0249 26063.6 -03386.1 -07.4023 26282.6
 03 01 2013  08 45  -21.0251 26063.6 -03386.2 -07.4023 26282.7
 03 01 2013  08 46  -21.0251 26063.7 -03386.2 -07.4024 26282.7
 03 01 2013  08 47  -21.0250 26063.8 -03386.2 -07.4025 26282.8
 03 01 2013  08 48  -21.0254 26063.7 -03386.2 -07.4025 26282.7
 03 01 2013  08 49  -21.0254 26063.7 -03386.2 -07.4024 26282.7
 03 01 2013  08 50  -21.0252 26063.8 -03386.3 -07.4025 26282.9
 03 01 2013  08 51  -21.0256 26063.8 -03386.3 -07.4026 26282.9
 03 01 2013  08 52  -21.0260 26063.8 -03386.3 -07.4027 26282.9
 03 01 2013  08 53  -21.0259 26064.0 -03386.4 -07.4028 26283.1
 03 01 2013  08 54  -21.0263 26064.0 -03386.5 -07.4029 26283.1
 03 01 2013  08 55  -21.0268 26064.0 -03386.4 -07.4028 26283.0
 03 01 2013  08 56  -21.0272 26064.0 -03386.3 -07.4026 26283.0
 03 01 2013  08 57  -21.0275 26064.0 -03386.4 -07.4027 26283.1
 03 01 2013  08 58  -21.0278 26064.1 -03386.4 -07.4027 26283.2
 03 01 2013  08 59  -21.0283 26064.2 -03386.4 -07.4028 26283.3
 03 01 2013  09 00  -21.0287 26064.2 -03386.4 -07.4027 26283.3
 03 01 2013  09 01  -21.0291 26064.2 -03386.4 -07.4026 26283.3
 03 01 2013  09 02  -21.0296 26064.3 -03386.3 -07.4025 26283.3
 03 01 2013  09 03  -21.0298 26064.4 -03386.3 -07.4025 26283.5
 03 01 2013  09 04  -21.0300 26064.0 -03386.1 -07.4021 26283.0
 03 01 2013  09 05  -21.0305 26064.2 -03386.2 -07.4022 26283.2
 03 01 2013  09 06  -21.0310 26064.2 -03386.1 -07.4021 26283.2
 03 01 2013  09 07  -21.0319 26063.9 -03385.9 -07.4018 26282.9
 03 01 2013  09 08  -21.0323 26064.1 -03385.9 -07.4017 26283.1
 03 01 2013  09 09  -21.0326 26064.0 -03385.8 -07.4015 26283.0
 03 01 2013  09 10  -21.0333 26063.9 -03385.7 -07.4014 26282.9
 03 01 2013  09 11  -21.0339 26064.0 -03385.7 -07.4013 26282.9
 03 01 2013  09 12  -21.0341 26063.8 -03385.6 -07.4010 26282.8
 03 01 2013  09 13  -21.0346 26063.7 -03385.5 -07.4008 26282.7
 03 01 2013  09 14  -21.0352 26063.6 -03385.3 -07.4006 26282.5
 03 01 2013  09 15  -21.0356 26063.5 -03385.3 -07.4004 26282.4
 03 01 2013  09 16  -21.0360 26063.4 -03385.2 -07.4003 26282.4
 03 01 2013  09 17  -21.0365 26063.3 -03385.1 -07.4000 26282.2
 03 01 2013  09 18  -21.0370 26063.3 -03385.0 -07.3999 26282.1
 03 01 2013  09 19  -21.0373 26063.2 -03384.9 -07.3998 26282.1
 03 01 2013  09 20  -21.0378 26063.2 -03384.8 -07.3996 26282.1
 03 01 2013  09 21  -21.0385 26063.2 -03384.8 -07.3996 26282.1
 03 01 2013  09 22  -21.0390 26063.2 -03384.8 -07.3995 26282.1
 03 01 2013  09 23  -21.0395 26063.2 -03384.8 -07.3994 26282.1
 03 01 2013  09 24  -21.0400 26063.2 -03384.7 -07.3993 26282.0
 03 01 2013  09 25  -21.0411 26063.2 -03384.6 -07.3991 26282.0
 03 01 2013  09 26  -21.0410 26063.4 -03384.6 -07.3989 26282.2
 03 01 2013  09 27  -21.0416 26063.3 -03384.5 -07.3988 26282.1
 03 01 2013  09 28  -21.0422 26063.3 -03384.4 -07.3986 26282.1
 03 01 2013  09 29  -21.0427 26063.4 -03384.3 -07.3984 26282.2
 03 01 2013  09 30  -21.0432 26063.4 -03384.2 -07.3981 26282.2
 03 01 2013  09 31  -21.0438 26063.5 -03384.1 -07.3979 26282.3
 03 01 2013  09 32  -21.0443 26063.5 -03384.0 -07.3977 26282.3
 03 01 2013  09 33  -21.0447 26063.6 -03383.9 -07.3975 26282.4
 03 01 2013  09 34  -21.0452 26063.7 -03383.9 -07.3974 26282.5
 03 01 2013  09 35  -21.0457 26063.8 -03383.8 -07.3972 26282.5
 03 01 2013  09 36  -21.0463 26064.0 -03383.8 -07.3971 26282.7
 03 01 2013  09 37  -21.0467 26064.1 -03383.7 -07.3969 26282.8
 03 01 2013  09 38  -21.0470 26064.1 -03383.6 -07.3967 26282.8
 03 01 2013  09 39  -21.0475 26064.3 -03383.6 -07.3965 26283.0
 03 01 2013  09 40  -21.0480 26064.4 -03383.5 -07.3964 26283.1
 03 01 2013  09 41  -21.0484 26064.9 -03383.6 -07.3964 26283.5
 03 01 2013  09 42  -21.0488 26065.0 -03383.6 -07.3963 26283.7
 03 01 2013  09 43  -21.0498 26064.8 -03383.3 -07.3959 26283.4
 03 01 2013  09 44  -21.0501 26065.1 -03383.4 -07.3959 26283.8
 03 01 2013  09 45  -21.0504 26064.9 -03383.2 -07.3955 26283.6
 03 01 2013  09 46  -21.0510 26065.0 -03383.0 -07.3952 26283.6
 03 01 2013  09 47  -21.0517 26065.0 -03383.0 -07.3951 26283.6
 03 01 2013  09 48  -21.0523 26064.7 -03382.7 -07.3946 26283.3
 03 01 2013  09 49  -21.0525 26065.0 -03382.7 -07.3945 26283.5
 03 01 2013  09 50  -21.0531 26064.7 -03382.6 -07.3943 26283.3
 03 01 2013  09 51  -21.0536 26064.7 -03382.5 -07.3941 26283.3
 03 01 2013  09 52  -21.0540 26064.8 -03382.5 -07.3941 26283.4
 03 01 2013  09 53  -21.0546 26064.8 -03382.4 -07.3940 26283.4
 03 01 2013  09 54  -21.0555 26065.2 -03382.6 -07.3942 26283.8
 03 01 2013  09 55  -21.0560 26065.3 -03382.6 -07.3941 26283.9
 03 01 2013  09 56  -21.0568 26065.5 -03382.6 -07.3940 26284.1
 03 01 2013  09 57  -21.0575 26065.6 -03382.5 -07.3938 26284.1
 03 01 2013  09 58  -21.0582 26065.8 -03382.5 -07.3937 26284.3
 03 01 2013  09 59  -21.0588 26066.1 -03382.5 -07.3936 26284.7
 03 01 2013  10 00  -21.0595 26065.7 -03382.2 -07.3931 26284.2
 03 01 2013  10 01  -21.0601 26065.4 -03381.9 -07.3927 26283.9
 03 01 2013  10 02  -21.0602 26065.7 -03381.9 -07.3926 26284.2
 03 01 2013  10 03  -21.0609 26065.7 -03381.7 -07.3922 26284.1
 03 01 2013  10 04  -21.0621 26065.8 -03381.7 -07.3920 26284.2
 03 01 2013  10 05  -21.0626 26065.8 -03381.6 -07.3918 26284.3
 03 01 2013  10 06  -21.0628 26065.7 -03381.3 -07.3913 26284.1
 03 01 2013  10 07  -21.0633 26065.5 -03381.1 -07.3910 26283.9
 03 01 2013  10 08  -21.0638 26065.8 -03381.1 -07.3908 26284.1
 03 01 2013  10 09  -21.0642 26065.8 -03381.0 -07.3906 26284.1
 03 01 2013  10 10  -21.0648 26065.8 -03380.9 -07.3903 26284.1
 03 01 2013  10 11  -21.0653 26066.0 -03380.8 -07.3901 26284.3
 03 01 2013  10 12  -21.0655 26066.1 -03380.7 -07.3898 26284.4
 03 01 2013  10 13  -21.0662 26066.0 -03380.5 -07.3895 26284.3
 03 01 2013  10 14  -21.0666 26066.2 -03380.4 -07.3892 26284.5
 03 01 2013  10 15  -21.0668 26066.2 -03380.3 -07.3889 26284.5
 03 01 2013  10 16  -21.0673 26066.2 -03380.0 -07.3884 26284.4
 03 01 2013  10 17  -21.0676 26066.3 -03379.9 -07.3881 26284.5
 03 01 2013  10 18  -21.0678 26066.1 -03379.7 -07.3876 26284.3
 03 01 2013  10 19  -21.0678 26066.1 -03379.5 -07.3872 26284.3
 03 01 2013  10 20  -21.0680 26066.1 -03379.3 -07.3869 26284.3
 03 01 2013  10 21  -21.0682 26066.1 -03379.2 -07.3865 26284.2
 03 01 2013  10 22  -21.0684 26066.2 -03379.1 -07.3863 26284.3
 03 01 2013  10 23  -21.0688 26066.0 -03378.8 -07.3858 26284.1
 03 01 2013  10 24  -21.0689 26066.1 -03378.7 -07.3856 26284.2
 03 01 2013  10 25  -21.0689 26066.2 -03378.6 -07.3853 26284.3
 03 01 2013  10 26  -21.0691 26066.2 -03378.5 -07.3850 26284.2
 03 01 2013  10 27  -21.0694 26066.3 -03378.4 -07.3847 26284.3
 03 01 2013  10 28  -21.0695 26066.3 -03378.3 -07.3845 26284.4
 03 01 2013  10 29  -21.0695 26066.4 -03378.1 -07.3842 26284.4
 03 01 2013  10 30  -21.0694 26066.4 -03378.0 -07.3840 26284.4
 03 01 2013  10 31  -21.0693 26066.4 -03377.9 -07.3837 26284.3
 03 01 2013  10 32  -21.0695 26066.6 -03377.9 -07.3836 26284.5
 03 01 2013  10 33  -21.0695 26066.8 -03377.8 -07.3835 26284.8
 03 01 2013  10 34  -21.0697 26067.1 -03377.8 -07.3833 26285.0
 03 01 2013  10 35  -21.0712 26067.0 -03377.5 -07.3827 26284.9
 03 01 2013  10 36  -21.0700 26067.4 -03377.6 -07.3828 26285.3
 03 01 2013  10 37  -21.0701 26067.6 -03377.5 -07.3826 26285.5
 03 01 2013  10 38  -21.0728 26067.5 -03377.2 -07.3818 26285.4
 03 01 2013  10 39  -21.0742 26067.4 -03376.9 -07.3812 26285.3
 03 01 2013  10 40  -21.0743 26067.3 -03376.6 -07.3807 26285.1
 03 01 2013  10 41  -21.0741 26067.1 -03376.4 -07.3802 26284.9
 03 01 2013  10 42  -21.0740 26067.0 -03376.2 -07.3798 26284.7
 03 01 2013  10 43  -21.0739 26067.1 -03376.1 -07.3796 26284.8
 03 01 2013  10 44  -21.0737 26067.2 -03376.0 -07.3794 26284.9
 03 01 2013  10 45  -21.0734 26067.2 -03375.9 -07.3791 26284.9
 03 01 2013  10 46  -21.0733 26067.5 -03375.9 -07.3790 26285.2
 03 01 2013  10 47  -21.0731 26067.8 -03375.9 -07.3789 26285.5
 03 01 2013  10 48  -21.0732 26068.2 -03375.8 -07.3787 26285.8
 03 01 2013  10 49  -21.0731 26068.5 -03375.8 -07.3786 26286.2
 03 01 2013  10 50  -21.0731 26068.9 -03375.8 -07.3784 26286.5
 03 01 2013  10 51  -21.0730 26069.2 -03375.7 -07.3782 26286.9
 03 01 2013  10 52  -21.0728 26069.3 -03375.6 -07.3778 26287.0
 03 01 2013  10 53  -21.0728 26069.4 -03375.4 -07.3774 26287.0
 03 01 2013  10 54  -21.0726 26069.6 -03375.3 -07.3772 26287.2
 03 01 2013  10 55  -21.0723 26069.5 -03375.1 -07.3767 26287.0
 03 01 2013  10 56  -21.0689 26069.9 -03375.2 -07.3769 26287.5
 03 01 2013  10 57  -21.0681 26070.0 -03375.2 -07.3768 26287.6
 03 01 2013  10 58  -21.0678 26070.2 -03375.1 -07.3765 26287.7
 03 01 2013  10 59  -21.0674 26070.2 -03375.0 -07.3763 26287.8
 03 01 2013  11 00  -21.0675 26070.1 -03374.8 -07.3760 26287.7
 03 01 2013  11 01  -21.0675 26070.7 -03374.9 -07.3760 26288.2
 03 01 2013  11 02  -21.0673 26070.7 -03374.7 -07.3757 26288.2
 03 01 2013  11 03  -21.0670 26071.0 -03374.7 -07.3755 26288.5
 03 01 2013  11 04  -21.0668 26071.1 -03374.6 -07.3752 26288.6
 03 01 2013  11 05  -21.0667 26070.9 -03374.3 -07.3747 26288.4
 03 01 2013  11 06  -21.0662 26071.2 -03374.3 -07.3745 26288.7
 03 01 2013  11 07  -21.0658 26071.2 -03374.2 -07.3743 26288.7
 03 01 2013  11 08  -21.0658 26071.2 -03374.0 -07.3739 26288.6
 03 01 2013  11 09  -21.0656 26071.5 -03374.0 -07.3739 26288.9
 03 01 2013  11 10  -21.0651 26071.5 -03373.9 -07.3736 26288.9
 03 01 2013  11 11  -21.0649 26071.8 -03373.8 -07.3734 26289.2
 03 01 2013  11 12  -21.0646 26071.9 -03373.7 -07.3732 26289.3
 03 01 2013  11 13  -21.0642 26072.0 -03373.6 -07.3729 26289.4
 03 01 2013  11 14  -21.0640 26072.4 -03373.7 -07.3729 26289.8
 03 01 2013  11 15  -21.0634 26072.5 -03373.6 -07.3727 26289.9
 03 01 2013  11 16  -21.0635 26072.8 -03373.6 -07.3726 26290.2
 03 01 2013  11 17  -21.0629 26073.1 -03373.6 -07.3726 26290.4
 03 01 2013  11 18  -21.0621 26073.1 -03373.5 -07.3723 26290.5
 03 01 2013  11 19  -21.0616 26073.2 -03373.4 -07.3722 26290.5
 03 01 2013  11 20  -21.0612 26073.2 -03373.3 -07.3719 26290.5
 03 01 2013  11 21  -21.0613 26073.6 -03373.3 -07.3719 26290.9
 03 01 2013  11 22  -21.0614 26074.0 -03373.4 -07.3718 26291.3
 03 01 2013  11 23  -21.0610 26074.1 -03373.2 -07.3715 26291.4
 03 01 2013  11 24  -21.0605 26074.0 -03373.1 -07.3711 26291.3
 03 01 2013  11 25  -21.0601 26074.0 -03373.0 -07.3709 26291.2
 03 01 2013  11 26  -21.0595 26073.9 -03372.9 -07.3707 26291.1
 03 01 2013  11 27  -21.0590 26074.0 -03372.8 -07.3706 26291.3
 03 01 2013  11 28  -21.0587 26074.2 -03372.8 -07.3706 26291.5
 03 01 2013  11 29  -21.0580 26074.5 -03372.9 -07.3706 26291.8
 03 01 2013  11 30  -21.0574 26074.7 -03372.9 -07.3705 26291.9
 03 01 2013  11 31  -21.0570 26074.8 -03372.9 -07.3704 26292.1
 03 01 2013  11 32  -21.0569 26075.3 -03373.0 -07.3706 26292.6
 03 01 2013  11 33  -21.0566 26075.7 -03373.1 -07.3707 26293.0
 03 01 2013  11 34  -21.0562 26076.1 -03373.2 -07.3708 26293.4
 03 01 2013  11 35  -21.0561 26076.6 -03373.3 -07.3709 26293.9
 03 01 2013  11 36  -21.0558 26077.0 -03373.3 -07.3708 26294.3
 03 01 2013  11 37  -21.0558 26077.3 -03373.2 -07.3706 26294.5
 03 01 2013  11 38  -21.0563 26077.3 -03373.1 -07.3702 26294.6
 03 01 2013  11 39  -21.0565 26077.2 -03372.9 -07.3699 26294.4
 03 01 2013  11 40  -21.0564 26077.0 -03372.7 -07.3695 26294.2
 03 01 2013  11 41  -21.0563 26076.7 -03372.5 -07.3692 26293.9
 03 01 2013  11 42  -21.0561 26076.5 -03372.4 -07.3691 26293.7
 03 01 2013  11 43  -21.0560 26076.5 -03372.4 -07.3691 26293.7
 03 01 2013  11 44  -21.0559 26076.8 -03372.6 -07.3693 26294.0
 03 01 2013  11 45  -21.0557 26077.2 -03372.7 -07.3695 26294.4
 03 01 2013  11 46  -21.0556 26077.6 -03372.9 -07.3698 26294.9
 03 01 2013  11 47  -21.0557 26078.1 -03373.0 -07.3699 26295.4
 03 01 2013  11 48  -21.0559 26078.7 -03373.1 -07.3700 26296.0
 03 01 2013  11 49  -21.0562 26079.3 -03373.2 -07.3699 26296.5
 03 01 2013  11 50  -21.0567 26079.7 -03373.2 -07.3697 26296.9
 03 01 2013  11 51  -21.0570 26080.2 -03373.1 -07.3695 26297.5
 03 01 2013  11 52  -21.0575 26080.6 -03373.0 -07.3692 26297.8
 03 01 2013  11 53  -21.0582 26080.7 -03372.8 -07.3687 26297.9
 03 01 2013  11 54  -21.0584 26081.0 -03372.7 -07.3683 26298.2
 03 01 2013  11 55  -21.0584 26081.1 -03372.4 -07.3678 26298.3
 03 01 2013  11 56  -21.0587 26081.0 -03372.2 -07.3672 26298.1
 03 01 2013  11 57  -21.0588 26081.2 -03372.0 -07.3668 26298.3
 03 01 2013  11 58  -21.0592 26081.1 -03371.8 -07.3664 26298.2
 03 01 2013  11 59  -21.0593 26081.3 -03371.7 -07.3662 26298.3
 03 01 2013  12 00  -21.0595 26081.2 -03371.5 -07.3657 26298.2
 03 01 2013  12 01  -21.0598 26081.4 -03371.4 -07.3655 26298.4
 03 01 2013  12 02  -21.0600 26081.6 -03371.4 -07.3653 26298.6
 03 01 2013  12 03  -21.0605 26081.4 -03371.1 -07.3648 26298.4
 03 01 2013  12 04  -21.0604 26081.8 -03371.1 -07.3648 26298.8
 03 01 2013  12 05  -21.0605 26081.9 -03371.0 -07.3645 26298.9
 03 01 2013  12 06  -21.0613 26082.0 -03370.9 -07.3641 26298.9
 03 01 2013  12 07  -21.0618 26082.5 -03370.9 -07.3641 26299.4
 03 01 2013  12 08  -21.0620 26082.8 -03370.9 -07.3639 26299.7
 03 01 2013  12 09  -21.0622 26083.0 -03370.7 -07.3636 26299.9
 03 01 2013  12 10  -21.0623 26083.4 -03370.7 -07.3634 26300.3
 03 01 2013  12 11  -21.0624 26083.5 -03370.6 -07.3631 26300.4
 03 01 2013  12 12  -21.0629 26083.8 -03370.6 -07.3629 26300.7
 03 01 2013  12 13  -21.0632 26084.2 -03370.5 -07.3628 26301.1
 03 01 2013  12 14  -21.0636 26084.5 -03370.4 -07.3625 26301.3
 03 01 2013  12 15  -21.0639 26085.0 -03370.4 -07.3624 26301.9
 03 01 2013  12 16  -21.0641 26085.2 -03370.3 -07.3620 26302.0
 03 01 2013  12 17  -21.0642 26085.5 -03370.2 -07.3617 26302.3
 03 01 2013  12 18  -21.0643 26086.1 -03370.2 -07.3615 26302.9
 03 01 2013  12 19  -21.0644 26086.3 -03370.1 -07.3612 26303.1
 03 01 2013  12 20  -21.0647 26086.5 -03369.9 -07.3608 26303.3
 03 01 2013  12 21  -21.0649 26086.9 -03369.9 -07.3606 26303.7
 03 01 2013  12 22  -21.0649 26087.2 -03369.8 -07.3603 26304.0
 03 01 2013  12 23  -21.0650 26087.4 -03369.6 -07.3600 26304.2
 03 01 2013  12 24  -21.0652 26087.7 -03369.5 -07.3596 26304.4
 03 01 2013  12 25  -21.0656 26087.9 -03369.4 -07.3593 26304.6
 03 01 2013  12 26  -21.0659 26088.1 -03369.3 -07.3590 26304.8
 03 01 2013  12 27  -21.0660 26088.3 -03369.1 -07.3586 26304.9
 03 01 2013  12 28  -21.0662 26088.5 -03369.0 -07.3583 26305.2
 03 01 2013  12 29  -21.0663 26089.0 -03369.0 -07.3581 26305.6
 03 01 2013  12 30  -21.0663 26089.2 -03368.8 -07.3577 26305.8
 03 01 2013  12 31  -21.0667 26089.3 -03368.6 -07.3572 26305.9
 03 01 2013  12 32  -21.0669 26089.6 -03368.4 -07.3567 26306.2
 03 01 2013  12 33  -21.0671 26090.0 -03368.3 -07.3563 26306.5
 03 01 2013  12 34  -21.0667 26089.9 -03367.9 -07.3555 26306.4
 03 01 2013  12 35  -21.0675 26089.2 -03367.2 -07.3543 26305.6
 03 01 2013  12 36  -21.0687 26089.3 -03367.0 -07.3538 26305.7
 03 01 2013  12 37  -21.0680 26089.8 -03367.0 -07.3536 26306.2
 03 01 2013  12 38  -21.0677 26090.4 -03366.9 -07.3532 26306.8
 03 01 2013  12 39  -21.0680 26090.8 -03366.8 -07.3529 26307.1
 03 01 2013  12 40  -21.0675 26091.0 -03366.6 -07.3523 26307.3
 03 01 2013  12 41  -21.0673 26091.8 -03366.5 -07.3521 26308.0
 03 01 2013  12 42  -21.0676 26092.8 -03366.6 -07.3518 26309.1
 03 01 2013  12 43  -21.0681 26093.8 -03366.5 -07.3513 26310.0
 03 01 2013  12 44  -21.0674 26094.2 -03366.1 -07.3505 26310.4
 03 01 2013  12 45  -21.0662 26093.8 -03365.4 -07.3491 26310.0
 03 01 2013  12 46  -21.0671 26094.7 -03365.4 -07.3489 26310.9
 03 01 2013  12 47  -21.0675 26094.9 -03364.9 -07.3477 26311.0
 03 01 2013  12 48  -21.0702 26093.8 -03364.0 -07.3460 26309.7
 03 01 2013  12 49  -21.0704 26093.4 -03363.7 -07.3455 26309.3
 03 01 2013  12 50  -21.0698 26094.4 -03364.0 -07.3458 26310.3
 03 01 2013  12 51  -21.0695 26095.3 -03364.1 -07.3458 26311.3
 03 01 2013  12 52  -21.0694 26094.8 -03363.3 -07.3443 26310.6
 03 01 2013  12 53  -21.0708 26094.8 -03362.9 -07.3433 26310.6
 03 01 2013  12 54  -21.0713 26094.7 -03362.6 -07.3427 26310.5
 03 01 2013  12 55  -21.0705 26094.7 -03362.4 -07.3422 26310.4
 03 01 2013  12 56  -21.0703 26095.3 -03362.5 -07.3423 26311.1
 03 01 2013  12 57  -21.0700 26095.9 -03362.4 -07.3419 26311.6
 03 01 2013  12 58  -21.0696 26096.1 -03362.0 -07.3410 26311.7
 03 01 2013  12 59  -21.0691 26095.7 -03361.4 -07.3399 26311.3
 03 01 2013  13 00  -21.0687 26095.5 -03361.0 -07.3390 26311.1
 03 01 2013  13 01  -21.0690 26095.9 -03360.9 -07.3388 26311.5
 03 01 2013  13 02  -21.0694 26096.5 -03360.9 -07.3386 26312.0
 03 01 2013  13 03  -21.0697 26097.0 -03360.8 -07.3382 26312.5
 03 01 2013  13 04  -21.0696 26097.4 -03360.6 -07.3376 26312.9
 03 01 2013  13 05  -21.0693 26097.6 -03360.2 -07.3367 26313.0
 03 01 2013  13 06  -21.0694 26097.6 -03359.7 -07.3357 26312.9
 03 01 2013  13 07  -21.0696 26097.7 -03359.3 -07.3348 26313.0
 03 01 2013  13 08  -21.0698 26098.0 -03359.0 -07.3340 26313.3
 03 01 2013  13 09  -21.0696 26098.2 -03358.6 -07.3331 26313.4
 03 01 2013  13 10  -21.0693 26098.2 -03358.1 -07.3320 26313.3
 03 01 2013  13 11  -21.0687 26098.2 -03357.6 -07.3311 26313.3
 03 01 2013  13 12  -21.0680 26098.3 -03357.3 -07.3303 26313.4
 03 01 2013  13 13  -21.0673 26098.6 -03357.0 -07.3296 26313.6
 03 01 2013  13 14  -21.0664 26098.9 -03356.8 -07.3291 26313.9
 03 01 2013  13 15  -21.0659 26099.5 -03356.7 -07.3286 26314.4
 03 01 2013  13 16  -21.0652 26100.0 -03356.5 -07.3281 26314.9
 03 01 2013  13 17  -21.0646 26100.5 -03356.3 -07.3275 26315.4
 03 01 2013  13 18  -21.0639 26101.1 -03356.1 -07.3270 26316.0
 03 01 2013  13 19  -21.0630 26101.6 -03355.9 -07.3264 26316.5
 03 01 2013  13 20  -21.0623 26102.3 -03355.7 -07.3257 26317.1
 03 01 2013  13 21  -21.0619 26103.2 -03355.6 -07.3252 26318.0
 03 01 2013  13 22  -21.0608 26103.7 -03355.2 -07.3244 26318.5
 03 01 2013  13 23  -21.0598 26104.0 -03354.9 -07.3235 26318.7
 03 01 2013  13 24  -21.0586 26104.0 -03354.4 -07.3224 26318.7
 03 01 2013  13 25  -21.0582 26104.8 -03354.3 -07.3219 26319.4
 03 01 2013  13 26  -21.0578 26105.6 -03354.2 -07.3215 26320.2
 03 01 2013  13 27  -21.0573 26105.8 -03353.8 -07.3206 26320.3
 03 01 2013  13 28  -21.0565 26105.9 -03353.4 -07.3198 26320.4
 03 01 2013  13 29  -21.0556 26106.6 -03353.3 -07.3193 26321.0
 03 01 2013  13 30  -21.0548 26107.0 -03353.0 -07.3186 26321.4
 03 01 2013  13 31  -21.0539 26107.2 -03352.6 -07.3177 26321.6
 03 01 2013  13 32  -21.0531 26107.5 -03352.3 -07.3169 26321.8
 03 01 2013  13 33  -21.0523 26107.8 -03352.0 -07.3161 26322.1
 03 01 2013  13 34  -21.0515 26108.0 -03351.6 -07.3153 26322.3
 03 01 2013  13 35  -21.0506 26108.3 -03351.3 -07.3146 26322.5
 03 01 2013  13 36  -21.0498 26108.6 -03351.1 -07.3139 26322.8
 03 01 2013  13 37  -21.0487 26109.2 -03350.9 -07.3134 26323.4
 03 01 2013  13 38  -21.0473 26109.8 -03350.6 -07.3127 26323.9
 03 01 2013  13 39  -21.0464 26109.9 -03350.2 -07.3118 26324.0
 03 01 2013  13 40  -21.0459 26109.8 -03349.9 -07.3111 26323.8
 03 01 2013  13 41  -21.0458 26110.1 -03349.8 -07.3107 26324.1
 03 01 2013  13 42  -21.0454 26110.5 -03349.7 -07.3105 26324.5
 03 01 2013  13 43  -21.0445 26111.0 -03349.7 -07.3103 26324.9
 03 01 2013  13 44  -21.0429 26111.2 -03349.5 -07.3098 26325.1
 03 01 2013  13 45  -21.0418 26111.1 -03349.2 -07.3092 26325.0
 03 01 2013  13 46  -21.0411 26110.7 -03348.8 -07.3086 26324.5
 03 01 2013  13 47  -21.0409 26110.7 -03348.8 -07.3085 26324.6
 03 01 2013  13 48  -21.0408 26111.0 -03348.8 -07.3085 26324.9
 03 01 2013  13 49  -21.0405 26111.0 -03348.8 -07.3084 26324.9
 03 01 2013  13 50  -21.0400 26111.1 -03348.8 -07.3084 26324.9
 03 01 2013  13 51  -21.0396 26111.3 -03348.9 -07.3085 26325.2
 03 01 2013  13 52  -21.0394 26111.3 -03348.8 -07.3083 26325.2
 03 01 2013  13 53  -21.0391 26111.2 -03348.7 -07.3081 26325.1
 03 01 2013  13 54  -21.0383 26111.0 -03348.5 -07.3079 26324.8
 03 01 2013  13 55  -21.0378 26111.1 -03348.6 -07.3080 26324.9
 03 01 2013  13 56  -21.0377 26111.2 -03348.7 -07.3081 26325.1
 03 01 2013  13 57  -21.0380 26111.4 -03348.8 -07.3082 26325.3
 03 01 2013  13 58  -21.0383 26111.6 -03348.8 -07.3082 26325.5
 03 01 2013  13 59  -21.0381 26111.8 -03348.8 -07.3082 26325.6
 03 01 2013  14 00  -21.0380 26112.0 -03348.9 -07.3084 26325.9
 03 01 2013  14 01  -21.0379 26112.3 -03349.0 -07.3085 26326.2
 03 01 2013  14 02  -21.0378 26112.9 -03349.3 -07.3089 26326.8
 03 01 2013  14 03  -21.0376 26113.5 -03349.4 -07.3091 26327.4
 03 01 2013  14 04  -21.0374 26114.1 -03349.6 -07.3092 26328.1
 03 01 2013  14 05  -21.0381 26115.0 -03349.8 -07.3094 26328.9
 03 01 2013  14 06  -21.0381 26114.7 -03349.3 -07.3085 26328.6
 03 01 2013  14 07  -21.0369 26114.1 -03348.8 -07.3075 26327.9
 03 01 2013  14 08  -21.0370 26112.9 -03348.2 -07.3067 26326.7
 03 01 2013  14 09  -21.0377 26112.7 -03348.2 -07.3067 26326.4
 03 01 2013  14 10  -21.0376 26112.7 -03348.2 -07.3067 26326.4
 03 01 2013  14 11  -21.0376 26112.4 -03348.2 -07.3067 26326.2
 03 01 2013  14 12  -21.0378 26112.4 -03348.2 -07.3067 26326.2
 03 01 2013  14 13  -21.0380 26112.8 -03348.3 -07.3069 26326.6
 03 01 2013  14 14  -21.0381 26113.1 -03348.4 -07.3070 26326.9
 03 01 2013  14 15  -21.0384 26113.4 -03348.4 -07.3070 26327.2
 03 01 2013  14 16  -21.0385 26113.8 -03348.5 -07.3069 26327.6
 03 01 2013  14 17  -21.0387 26114.1 -03348.5 -07.3068 26327.9
 03 01 2013  14 18  -21.0387 26114.3 -03348.4 -07.3066 26328.1
 03 01 2013  14 19  -21.0386 26114.4 -03348.3 -07.3064 26328.2
 03 01 2013  14 20  -21.0384 26114.6 -03348.3 -07.3063 26328.4
 03 01 2013  14 21  -21.0382 26114.7 -03348.2 -07.3061 26328.5
 03 01 2013  14 22  -21.0383 26114.9 -03348.1 -07.3059 26328.7
 03 01 2013  14 23  -21.0384 26115.4 -03348.2 -07.3058 26329.2
 03 01 2013  14 24  -21.0385 26116.0 -03348.2 -07.3057 26329.7
 03 01 2013  14 25  -21.0385 26116.5 -03348.1 -07.3055 26330.2
 03 01 2013  14 26  -21.0380 26116.5 -03347.9 -07.3049 26330.2
 03 01 2013  14 27  -21.0374 26116.6 -03347.8 -07.3046 26330.3
 03 01 2013  14 28  -21.0373 26116.9 -03347.7 -07.3045 26330.6
 03 01 2013  14 29  -21.0373 26117.3 -03347.8 -07.3045 26331.0
 03 01 2013  14 30  -21.0371 26117.6 -03347.8 -07.3044 26331.3
 03 01 2013  14 31  -21.0367 26117.7 -03347.7 -07.3041 26331.4
 03 01 2013  14 32  -21.0361 26117.8 -03347.6 -07.3040 26331.4
 03 01 2013  14 33  -21.0356 26117.9 -03347.6 -07.3039 26331.5
 03 01 2013  14 34  -21.0355 26118.1 -03347.6 -07.3039 26331.8
 03 01 2013  14 35  -21.0356 26118.3 -03347.7 -07.3040 26332.0
 03 01 2013  14 36  -21.0356 26118.4 -03347.7 -07.3040 26332.1
 03 01 2013  14 37  -21.0357 26118.4 -03347.7 -07.3039 26332.0
 03 01 2013  14 38  -21.0354 26118.3 -03347.7 -07.3039 26332.0
 03 01 2013  14 39  -21.0355 26118.4 -03347.8 -07.3041 26332.1
 03 01 2013  14 40  -21.0356 26118.5 -03347.9 -07.3043 26332.2
 03 01 2013  14 41  -21.0357 26118.6 -03348.0 -07.3045 26332.3
 03 01 2013  14 42  -21.0357 26118.6 -03348.0 -07.3046 26332.3
 03 01 2013  14 43  -21.0361 26118.4 -03347.9 -07.3045 26332.1
 03 01 2013  14 44  -21.0363 26118.0 -03347.9 -07.3044 26331.7
 03 01 2013  14 45  -21.0362 26117.8 -03347.9 -07.3046 26331.5
 03 01 2013  14 46  -21.0361 26118.0 -03348.2 -07.3053 26331.8
 03 01 2013  14 47  -21.0363 26118.7 -03348.7 -07.3061 26332.5
 03 01 2013  14 48  -21.0368 26119.3 -03349.1 -07.3067 26333.1
 03 01 2013  14 49  -21.0368 26119.1 -03349.0 -07.3067 26332.9
 03 01 2013  14 50  -21.0367 26118.9 -03349.0 -07.3067 26332.7
 03 01 2013  14 51  -21.0368 26118.7 -03349.1 -07.3070 26332.6
 03 01 2013  14 52  -21.0372 26119.0 -03349.4 -07.3075 26332.9
 03 01 2013  14 53  -21.0376 26119.0 -03349.5 -07.3077 26332.9
 03 01 2013  14 54  -21.0376 26119.0 -03349.6 -07.3079 26332.9
 03 01 2013  14 55  -21.0379 26118.9 -03349.8 -07.3083 26332.8
 03 01 2013  14 56  -21.0385 26119.5 -03350.3 -07.3092 26333.5
 03 01 2013  14 57  -21.0387 26120.0 -03350.6 -07.3098 26334.0
 03 01 2013  14 58  -21.0391 26120.1 -03350.6 -07.3098 26334.2
 03 01 2013  14 59  -21.0392 26119.5 -03350.3 -07.3094 26333.5
 03 01 2013  15 00  -21.0391 26119.0 -03350.3 -07.3094 26333.0
 03 01 2013  15 01  -21.0393 26118.5 -03350.3 -07.3096 26332.5
 03 01 2013  15 02  -21.0396 26118.1 -03350.4 -07.3100 26332.1
 03 01 2013  15 03  -21.0403 26117.9 -03350.7 -07.3105 26331.9
 03 01 2013  15 04  -21.0412 26118.0 -03351.0 -07.3111 26332.1
 03 01 2013  15 05  -21.0419 26118.2 -03351.3 -07.3117 26332.3
 03 01 2013  15 06  -21.0425 26118.2 -03351.4 -07.3120 26332.3
 03 01 2013  15 07  -21.0429 26118.3 -03351.6 -07.3125 26332.5
 03 01 2013  15 08  -21.0433 26118.3 -03351.8 -07.3128 26332.5
 03 01 2013  15 09  -21.0436 26118.4 -03351.9 -07.3131 26332.6
 03 01 2013  15 10  -21.0440 26118.3 -03352.0 -07.3133 26332.5
 03 01 2013  15 11  -21.0445 26118.1 -03352.1 -07.3135 26332.4
 03 01 2013  15 12  -21.0451 26117.9 -03352.1 -07.3136 26332.1
 03 01 2013  15 13  -21.0456 26117.7 -03352.1 -07.3138 26331.9
 03 01 2013  15 14  -21.0461 26117.6 -03352.3 -07.3141 26331.9
 03 01 2013  15 15  -21.0464 26117.4 -03352.3 -07.3142 26331.6
 03 01 2013  15 16  -21.0468 26117.3 -03352.5 -07.3146 26331.6
 03 01 2013  15 17  -21.0474 26117.3 -03352.7 -07.3150 26331.6
 03 01 2013  15 18  -21.0479 26117.2 -03352.8 -07.3153 26331.6
 03 01 2013  15 19  -21.0483 26117.2 -03352.9 -07.3156 26331.6
 03 01 2013  15 20  -21.0489 26117.5 -03353.2 -07.3161 26331.9
 03 01 2013  15 21  -21.0495 26117.5 -03353.3 -07.3163 26331.9
 03 01 2013  15 22  -21.0500 26117.5 -03353.4 -07.3165 26331.9
 03 01 2013  15 23  -21.0505 26117.8 -03353.6 -07.3168 26332.2
 03 01 2013  15 24  -21.0509 26117.8 -03353.6 -07.3169 26332.3
 03 01 2013  15 25  -21.0513 26117.6 -03353.6 -07.3169 26332.0
 03 01 2013  15 26  -21.0524 26118.1 -03353.9 -07.3174 26332.5
 03 01 2013  15 27  -21.0529 26118.0 -03353.8 -07.3174 26332.5
 03 01 2013  15 28  -21.0532 26117.9 -03353.8 -07.3173 26332.3
 03 01 2013  15 29  -21.0535 26117.6 -03353.7 -07.3172 26332.1
 03 01 2013  15 30  -21.0541 26117.7 -03353.9 -07.3175 26332.2
 03 01 2013  15 31  -21.0548 26117.9 -03354.0 -07.3178 26332.4
 03 01 2013  15 32  -21.0555 26118.0 -03354.1 -07.3179 26332.5
 03 01 2013  15 33  -21.0561 26118.3 -03354.2 -07.3180 26332.7
 03 01 2013  15 34  -21.0566 26118.3 -03354.1 -07.3179 26332.8
 03 01 2013  15 35  -21.0575 26118.1 -03354.0 -07.3178 26332.6
 03 01 2013  15 36  -21.0578 26117.8 -03353.9 -07.3175 26332.3
 03 01 2013  15 37  -21.0581 26117.7 -03353.9 -07.3175 26332.2
 03 01 2013  15 38  -21.0591 26117.8 -03354.1 -07.3179 26332.3
 03 01 2013  15 39  -21.0602 26118.1 -03354.2 -07.3181 26332.6
 03 01 2013  15 40  -21.0605 26118.4 -03354.3 -07.3182 26332.9
 03 01 2013  15 41  -21.0612 26118.8 -03354.4 -07.3184 26333.3
 03 01 2013  15 42  -21.0616 26118.9 -03354.4 -07.3184 26333.4
 03 01 2013  15 43  -21.0622 26119.3 -03354.5 -07.3185 26333.8
 03 01 2013  15 44  -21.0627 26119.0 -03354.4 -07.3183 26333.5
 03 01 2013  15 45  -21.0631 26118.5 -03354.2 -07.3180 26333.0
 03 01 2013  15 46  -21.0635 26118.6 -03354.3 -07.3182 26333.1
 03 01 2013  15 47  -21.0641 26118.9 -03354.5 -07.3186 26333.4
 03 01 2013  15 48  -21.0649 26118.4 -03354.4 -07.3185 26333.0
 03 01 2013  15 49  -21.0656 26118.5 -03354.6 -07.3187 26333.1
 03 01 2013  15 50  -21.0663 26118.9 -03354.8 -07.3192 26333.5
 03 01 2013  15 51  -21.0670 26118.7 -03354.8 -07.3193 26333.2
 03 01 2013  15 52  -21.0681 26118.8 -03355.0 -07.3196 26333.4
 03 01 2013  15 53  -21.0691 26119.0 -03355.1 -07.3198 26333.6
 03 01 2013  15 54  -21.0700 26118.9 -03355.1 -07.3198 26333.5
 03 01 2013  15 55  -21.0710 26118.7 -03355.1 -07.3199 26333.3
 03 01 2013  15 56  -21.0721 26119.0 -03355.3 -07.3203 26333.6
 03 01 2013  15 57  -21.0733 26119.1 -03355.5 -07.3206 26333.7
 03 01 2013  15 58  -21.0744 26119.2 -03355.6 -07.3208 26333.9
 03 01 2013  15 59  -21.0757 26119.3 -03355.7 -07.3209 26334.0
 03 01 2013  16 00  -21.0771 26119.4 -03355.7 -07.3210 26334.1
 03 01 2013  16 01  -21.0784 26119.8 -03355.8 -07.3211 26334.4
 03 01 2013  16 02  -21.0799 26119.7 -03355.7 -07.3210 26334.4
 03 01 2013  16 03  -21.0814 26119.6 -03355.6 -07.3207 26334.2
 03 01 2013  16 04  -21.0828 26120.1 -03355.7 -07.3208 26334.7
 03 01 2013  16 05  -21.0843 26120.0 -03355.6 -07.3205 26334.7
 03 01 2013  16 06  -21.0858 26120.1 -03355.4 -07.3202 26334.7
 03 01 2013  16 07  -21.0872 26120.4 -03355.4 -07.3200 26335.0
 03 01 2013  16 08  -21.0887 26120.4 -03355.2 -07.3195 26335.0
 03 01 2013  16 09  -21.0902 26120.4 -03354.9 -07.3190 26335.0
 03 01 2013  16 10  -21.0917 26120.9 -03354.9 -07.3187 26335.5
 03 01 2013  16 11  -21.0932 26121.0 -03354.6 -07.3181 26335.5
 03 01 2013  16 12  -21.0945 26121.1 -03354.3 -07.3174 26335.5
 03 01 2013  16 13  -21.0958 26121.3 -03354.0 -07.3168 26335.7
 03 01 2013  16 14  -21.0971 26121.4 -03353.7 -07.3161 26335.8
 03 01 2013  16 15  -21.0986 26121.7 -03353.5 -07.3155 26336.1
 03 01 2013  16 16  -21.0999 26121.6 -03353.0 -07.3145 26335.9
 03 01 2013  16 17  -21.1007 26121.4 -03352.4 -07.3134 26335.7
 03 01 2013  16 18  -21.1018 26121.6 -03352.2 -07.3127 26335.8
 03 01 2013  16 19  -21.1031 26121.9 -03351.9 -07.3121 26336.0
 03 01 2013  16 20  -21.1044 26121.8 -03351.4 -07.3110 26335.9
 03 01 2013  16 21  -21.1052 26122.4 -03351.1 -07.3103 26336.4
 03 01 2013  16 22  -21.1065 26121.9 -03350.4 -07.3089 26335.8
 03 01 2013  16 23  -21.1073 26122.3 -03350.1 -07.3080 26336.3
 03 01 2013  16 24  -21.1083 26122.4 -03349.5 -07.3068 26336.2
 03 01 2013  16 25  -21.1091 26122.3 -03348.8 -07.3054 26336.1
 03 01 2013  16 26  -21.1099 26122.4 -03348.3 -07.3041 26336.1
 03 01 2013  16 27  -21.1102 26122.5 -03347.7 -07.3028 26336.2
 03 01 2013  16 28  -21.1109 26123.0 -03347.2 -07.3017 26336.6
 03 01 2013  16 29  -21.1113 26121.9 -03346.0 -07.2994 26335.3
 03 01 2013  16 30  -21.1112 26122.4 -03345.6 -07.2983 26335.8
 03 01 2013  16 31  -21.1116 26122.4 -03345.0 -07.2970 26335.6
 03 01 2013  16 32  -21.1117 26122.1 -03344.1 -07.2953 26335.3
 03 01 2013  16 33  -21.1112 26123.4 -03344.0 -07.2946 26336.5
 03 01 2013  16 34  -21.1108 26123.3 -03343.3 -07.2931 26336.4
 03 01 2013  16 35  -21.1102 26122.7 -03342.2 -07.2910 26335.7
 03 01 2013  16 36  -21.1094 26123.5 -03341.9 -07.2900 26336.4
 03 01 2013  16 37  -21.1090 26123.7 -03341.3 -07.2886 26336.6
 03 01 2013  16 38  -21.1082 26123.1 -03340.2 -07.2866 26335.8
 03 01 2013  16 39  -21.1073 26123.5 -03339.7 -07.2853 26336.1
 03 01 2013  16 40  -21.1062 26123.7 -03339.1 -07.2840 26336.2
 03 01 2013  16 41  -21.1052 26123.4 -03338.3 -07.2823 26335.8
 03 01 2013  16 42  -21.1040 26123.4 -03337.7 -07.2809 26335.8
 03 01 2013  16 43  -21.1025 26123.4 -03337.0 -07.2796 26335.7
 03 01 2013  16 44  -21.1012 26123.2 -03336.4 -07.2782 26335.4
 03 01 2013  16 45  -21.0998 26123.2 -03335.8 -07.2770 26335.4
 03 01 2013  16 46  -21.0983 26123.3 -03335.3 -07.2759 26335.3
 03 01 2013  16 47  -21.0967 26123.1 -03334.7 -07.2746 26335.0
 03 01 2013  16 48  -21.0951 26123.2 -03334.2 -07.2735 26335.1
 03 01 2013  16 49  -21.0934 26123.1 -03333.7 -07.2724 26335.0
 03 01 2013  16 50  -21.0917 26123.0 -03333.1 -07.2712 26334.8
 03 01 2013  16 51  -21.0898 26123.0 -03332.6 -07.2702 26334.8
 03 01 2013  16 52  -21.0879 26123.0 -03332.2 -07.2693 26334.7
 03 01 2013  16 53  -21.0859 26122.9 -03331.7 -07.2683 26334.5
 03 01 2013  16 54  -21.0839 26122.8 -03331.3 -07.2673 26334.3
 03 01 2013  16 55  -21.0818 26122.8 -03330.9 -07.2665 26334.3
 03 01 2013  16 56  -21.0798 26122.6 -03330.4 -07.2656 26334.1
 03 01 2013  16 57  -21.0776 26122.6 -03330.1 -07.2648 26334.0
 03 01 2013  16 58  -21.0754 26122.5 -03329.7 -07.2641 26333.9
 03 01 2013  16 59  -21.0734 26122.4 -03329.4 -07.2634 26333.8
 03 01 2013  17 00  -21.0711 26122.4 -03329.0 -07.2626 26333.7
 03 01 2013  17 01  -21.0691 26122.2 -03328.6 -07.2618 26333.4
 03 01 2013  17 02  -21.0667 26121.5 -03328.1 -07.2608 26332.7
 03 01 2013  17 03  -21.0642 26121.2 -03327.8 -07.2602 26332.3
 03 01 2013  17 04  -21.0618 26120.9 -03327.5 -07.2596 26332.0
 03 01 2013  17 05  -21.0594 26120.8 -03327.3 -07.2594 26331.9
 03 01 2013  17 06  -21.0568 26121.0 -03327.3 -07.2593 26332.1
 03 01 2013  17 07  -21.0542 26121.1 -03327.2 -07.2591 26332.1
 03 01 2013  17 08  -21.0514 26121.0 -03327.2 -07.2590 26332.1
 03 01 2013  17 09  -21.0488 26120.9 -03327.1 -07.2589 26331.9
 03 01 2013  17 10  -21.0462 26120.7 -03327.0 -07.2588 26331.7
 03 01 2013  17 11  -21.0437 26120.4 -03327.0 -07.2589 26331.4
 03 01 2013  17 12  -21.0413 26120.0 -03327.0 -07.2589 26331.0
 03 01 2013  17 13  -21.0389 26119.9 -03327.2 -07.2593 26330.9
 03 01 2013  17 14  -21.0365 26119.5 -03327.3 -07.2596 26330.6
 03 01 2013  17 15  -21.0343 26119.3 -03327.5 -07.2600 26330.4
 03 01 2013  17 16  -21.0323 26119.0 -03327.6 -07.2605 26330.2
 03 01 2013  17 17  -21.0302 26118.8 -03327.8 -07.2610 26329.9
 03 01 2013  17 18  -21.0283 26118.4 -03328.1 -07.2616 26329.6
 03 01 2013  17 19  -21.0264 26118.2 -03328.3 -07.2622 26329.4
 03 01 2013  17 20  -21.0249 26117.9 -03328.6 -07.2629 26329.2
 03 01 2013  17 21  -21.0230 26117.4 -03328.8 -07.2634 26328.6
 03 01 2013  17 22  -21.0212 26117.0 -03329.1 -07.2642 26328.4
 03 01 2013  17 23  -21.0195 26116.8 -03329.4 -07.2650 26328.1
 03 01 2013  17 24  -21.0177 26116.4 -03329.7 -07.2658 26327.8
 03 01 2013  17 25  -21.0160 26116.4 -03330.3 -07.2669 26327.9
 03 01 2013  17 26  -21.0145 26116.4 -03330.8 -07.2680 26327.9
 03 01 2013  17 27  -21.0132 26116.3 -03331.2 -07.2689 26327.9
 03 01 2013  17 28  -21.0116 26116.0 -03331.5 -07.2696 26327.6
 03 01 2013  17 29  -21.0101 26115.6 -03331.8 -07.2704 26327.2
 03 01 2013  17 30  -21.0086 26115.2 -03332.1 -07.2712 26326.9
 03 01 2013  17 31  -21.0075 26114.7 -03332.4 -07.2719 26326.4
 03 01 2013  17 32  -21.0060 26114.1 -03332.6 -07.2726 26325.9
 03 01 2013  17 33  -21.0049 26113.6 -03332.9 -07.2734 26325.4
 03 01 2013  17 34  -21.0037 26112.8 -03333.1 -07.2740 26324.6
 03 01 2013  17 35  -21.0026 26112.2 -03333.4 -07.2748 26324.1
 03 01 2013  17 36  -21.0016 26111.7 -03333.8 -07.2758 26323.6
 03 01 2013  17 37  -21.0007 26111.2 -03334.2 -07.2768 26323.2
 03 01 2013  17 38  -20.9999 26110.7 -03334.5 -07.2777 26322.7
 03 01 2013  17 39  -20.9991 26110.2 -03334.9 -07.2787 26322.3
 03 01 2013  17 40  -20.9983 26109.9 -03335.4 -07.2798 26322.1
 03 01 2013  17 41  -20.9974 26109.6 -03335.9 -07.2810 26321.9
 03 01 2013  17 42  -20.9968 26109.3 -03336.4 -07.2822 26321.7
 03 01 2013  17 43  -20.9963 26108.9 -03336.8 -07.2832 26321.3
 03 01 2013  17 44  -20.9957 26108.5 -03337.2 -07.2841 26320.9
 03 01 2013  17 45  -20.9952 26107.9 -03337.6 -07.2850 26320.4
 03 01 2013  17 46  -20.9945 26107.5 -03338.0 -07.2861 26320.0
 03 01 2013  17 47  -20.9940 26107.3 -03338.5 -07.2873 26319.9
 03 01 2013  17 48  -20.9934 26107.0 -03339.0 -07.2883 26319.7
 03 01 2013  17 49  -20.9928 26106.8 -03339.4 -07.2894 26319.5
 03 01 2013  17 50  -20.9929 26106.6 -03339.9 -07.2903 26319.3
 03 01 2013  17 51  -20.9929 26106.3 -03340.2 -07.2912 26319.1
 03 01 2013  17 52  -20.9923 26106.0 -03340.7 -07.2922 26318.8
 03 01 2013  17 53  -20.9917 26105.7 -03341.1 -07.2933 26318.6
 03 01 2013  17 54  -20.9911 26105.4 -03341.6 -07.2943 26318.4
 03 01 2013  17 55  -20.9904 26105.2 -03342.1 -07.2955 26318.3
 03 01 2013  17 56  -20.9900 26104.8 -03342.4 -07.2964 26317.9
 03 01 2013  17 57  -20.9895 26104.3 -03342.8 -07.2973 26317.5
 03 01 2013  17 58  -20.9889 26103.9 -03343.2 -07.2983 26317.2
 03 01 2013  17 59  -20.9883 26103.7 -03343.7 -07.2995 26317.0
 03 01 2013  18 00  -20.9880 26103.5 -03344.2 -07.3007 26316.8
 03 01 2013  18 01  -20.9876 26102.4 -03344.3 -07.3011 26315.7
 03 01 2013  18 02  -20.9868 26102.3 -03344.9 -07.3025 26315.8
 03 01 2013  18 03  -20.9860 26102.3 -03345.6 -07.3038 26315.8
 03 01 2013  18 04  -20.9848 26101.5 -03346.0 -07.3050 26315.1
 03 01 2013  18 05  -20.9843 26101.5 -03346.6 -07.3063 26315.2
 03 01 2013  18 06  -20.9839 26101.3 -03347.2 -07.3075 26315.1
 03 01 2013  18 07  -20.9835 26101.1 -03347.7 -07.3088 26314.9
 03 01 2013  18 08  -20.9834 26101.0 -03348.2 -07.3100 26314.9
 03 01 2013  18 09  -20.9831 26100.8 -03348.8 -07.3112 26314.7
 03 01 2013  18 10  -20.9829 26100.4 -03349.2 -07.3122 26314.4
 03 01 2013  18 11  -20.9828 26100.2 -03349.7 -07.3133 26314.3
 03 01 2013  18 12  -20.9828 26099.8 -03350.0 -07.3142 26314.0
 03 01 2013  18 13  -20.9825 26099.4 -03350.4 -07.3151 26313.6
 03 01 2013  18 14  -20.9822 26099.2 -03350.9 -07.3162 26313.5
 03 01 2013  18 15  -20.9822 26099.2 -03351.4 -07.3174 26313.5
 03 01 2013  18 16  -20.9821 26098.9 -03351.9 -07.3184 26313.2
 03 01 2013  18 17  -20.9821 26098.7 -03352.3 -07.3195 26313.1
 03 01 2013  18 18  -20.9820 26098.6 -03352.8 -07.3205 26313.1
 03 01 2013  18 19  -20.9818 26098.3 -03353.2 -07.3214 26312.8
 03 01 2013  18 20  -20.9820 26097.9 -03353.5 -07.3222 26312.5
 03 01 2013  18 21  -20.9820 26097.4 -03353.8 -07.3229 26312.0
 03 01 2013  18 22  -20.9815 26097.1 -03354.2 -07.3238 26311.8
 03 01 2013  18 23  -20.9814 26097.1 -03354.8 -07.3251 26311.9
 03 01 2013  18 24  -20.9815 26096.9 -03355.2 -07.3262 26311.7
 03 01 2013  18 25  -20.9815 26096.8 -03355.7 -07.3271 26311.7
 03 01 2013  18 26  -20.9812 26096.6 -03356.1 -07.3281 26311.5
 03 01 2013  18 27  -20.9814 26096.2 -03356.4 -07.3290 26311.2
 03 01 2013  18 28  -20.9814 26095.8 -03356.7 -07.3298 26310.8
 03 01 2013  18 29  -20.9813 26095.5 -03357.1 -07.3307 26310.5
 03 01 2013  18 30  -20.9816 26094.9 -03357.4 -07.3315 26310.0
 03 01 2013  18 31  -20.9819 26094.4 -03357.7 -07.3322 26309.5
 03 01 2013  18 32  -20.9819 26093.9 -03358.0 -07.3331 26309.1
 03 01 2013  18 33  -20.9819 26093.6 -03358.4 -07.3340 26308.8
 03 01 2013  18 34  -20.9821 26093.2 -03358.8 -07.3350 26308.5
 03 01 2013  18 35  -20.9824 26092.8 -03359.2 -07.3359 26308.2
 03 01 2013  18 36  -20.9825 26092.7 -03359.7 -07.3369 26308.1
 03 01 2013  18 37  -20.9828 26092.5 -03360.1 -07.3380 26308.0
 03 01 2013  18 38  -20.9831 26092.4 -03360.5 -07.3390 26307.9
 03 01 2013  18 39  -20.9835 26092.2 -03360.9 -07.3399 26307.8
 03 01 2013  18 40  -20.9838 26092.0 -03361.4 -07.3408 26307.7
 03 01 2013  18 41  -20.9841 26091.9 -03361.8 -07.3417 26307.5
 03 01 2013  18 42  -20.9844 26091.7 -03362.1 -07.3425 26307.4
 03 01 2013  18 43  -20.9847 26091.5 -03362.5 -07.3434 26307.3
 03 01 2013  18 44  -20.9850 26091.3 -03362.8 -07.3442 26307.1
 03 01 2013  18 45  -20.9853 26091.1 -03363.1 -07.3449 26307.0
 03 01 2013  18 46  -20.9856 26090.9 -03363.4 -07.3456 26306.8
 03 01 2013  18 47  -20.9859 26090.6 -03363.7 -07.3462 26306.6
 03 01 2013  18 48  -20.9863 26090.4 -03363.9 -07.3468 26306.4
 03 01 2013  18 49  -20.9865 26090.2 -03364.2 -07.3475 26306.2
 03 01 2013  18 50  -20.9868 26090.0 -03364.5 -07.3481 26306.0
 03 01 2013  18 51  -20.9871 26089.8 -03364.7 -07.3486 26305.8
 03 01 2013  18 52  -20.9875 26089.6 -03364.9 -07.3492 26305.7
 03 01 2013  18 53  -20.9877 26089.4 -03365.2 -07.3498 26305.5
 03 01 2013  18 54  -20.9879 26089.2 -03365.4 -07.3503 26305.3
 03 01 2013  18 55  -20.9881 26088.9 -03365.6 -07.3508 26305.1
 03 01 2013  18 56  -20.9883 26088.6 -03365.7 -07.3512 26304.8
 03 01 2013  18 57  -20.9885 26088.3 -03365.9 -07.3516 26304.5
 03 01 2013  18 58  -20.9887 26088.1 -03366.1 -07.3521 26304.3
 03 01 2013  18 59  -20.9888 26087.8 -03366.3 -07.3526 26304.1
 03 01 2013  19 00  -20.9890 26087.6 -03366.5 -07.3530 26304.0
 03 01 2013  19 01  -20.9892 26087.5 -03366.7 -07.3536 26303.9
 03 01 2013  19 02  -20.9894 26087.3 -03366.9 -07.3541 26303.7
 03 01 2013  19 03  -20.9894 26087.1 -03367.1 -07.3545 26303.5
 03 01 2013  19 04  -20.9895 26086.9 -03367.2 -07.3549 26303.3
 03 01 2013  19 05  -20.9897 26086.6 -03367.4 -07.3553 26303.1
 03 01 2013  19 06  -20.9898 26086.5 -03367.6 -07.3557 26302.9
 03 01 2013  19 07  -20.9898 26086.3 -03367.8 -07.3562 26302.8
 03 01 2013  19 08  -20.9899 26086.1 -03367.9 -07.3566 26302.6
 03 01 2013  19 09  -20.9900 26085.9 -03368.1 -07.3570 26302.4
 03 01 2013  19 10  -20.9900 26085.7 -03368.2 -07.3574 26302.2
 03 01 2013  19 11  -20.9900 26085.5 -03368.4 -07.3578 26302.1
 03 01 2013  19 12  -20.9900 26085.3 -03368.5 -07.3582 26301.9
 03 01 2013  19 13  -20.9900 26085.0 -03368.6 -07.3585 26301.7
 03 01 2013  19 14  -20.9901 26084.9 -03368.8 -07.3588 26301.5
 03 01 2013  19 15  -20.9901 26084.6 -03368.9 -07.3592 26301.3
 03 01 2013  19 16  -20.9901 26084.4 -03369.1 -07.3596 26301.1
 03 01 2013  19 17  -20.9901 26084.2 -03369.2 -07.3599 26300.9
 03 01 2013  19 18  -20.9902 26084.0 -03369.3 -07.3602 26300.7
 03 01 2013  19 19  -20.9903 26083.9 -03369.5 -07.3606 26300.7
 03 01 2013  19 20  -20.9903 26083.8 -03369.6 -07.3608 26300.5
 03 01 2013  19 21  -20.9903 26083.5 -03369.6 -07.3610 26300.2
 03 01 2013  19 22  -20.9903 26083.2 -03369.6 -07.3611 26300.0
 03 01 2013  19 23  -20.9903 26083.1 -03369.7 -07.3614 26299.8
 03 01 2013  19 24  -20.9903 26082.8 -03369.8 -07.3616 26299.6
 03 01 2013  19 25  -20.9903 26082.6 -03369.8 -07.3618 26299.4
 03 01 2013  19 26  -20.9903 26082.4 -03369.9 -07.3619 26299.1
 03 01 2013  19 27  -20.9903 26082.2 -03369.9 -07.3620 26299.0
 03 01 2013  19 28  -20.9902 26081.9 -03369.9 -07.3622 26298.7
 03 01 2013  19 29  -20.9901 26081.7 -03370.0 -07.3623 26298.5
 03 01 2013  19 30  -20.9900 26081.4 -03370.0 -07.3624 26298.2
 03 01 2013  19 31  -20.9898 26081.1 -03370.0 -07.3625 26298.0
 03 01 2013  19 32  -20.9897 26080.9 -03370.0 -07.3626 26297.7
 03 01 2013  19 33  -20.9894 26080.6 -03370.1 -07.3628 26297.5
 03 01 2013  19 34  -20.9891 26080.4 -03370.1 -07.3630 26297.3
 03 01 2013  19 35  -20.9888 26080.2 -03370.2 -07.3632 26297.1
 03 01 2013  19 36  -20.9886 26079.9 -03370.3 -07.3634 26296.8
 03 01 2013  19 37  -20.9882 26079.7 -03370.4 -07.3637 26296.5
 03 01 2013  19 38  -20.9879 26079.4 -03370.5 -07.3640 26296.3
 03 01 2013  19 39  -20.9876 26079.2 -03370.6 -07.3644 26296.1
 03 01 2013  19 40  -20.9873 26079.0 -03370.8 -07.3648 26296.0
 03 01 2013  19 41  -20.9872 26078.8 -03371.0 -07.3652 26295.8
 03 01 2013  19 42  -20.9870 26078.7 -03371.2 -07.3657 26295.7
 03 01 2013  19 43  -20.9869 26078.5 -03371.3 -07.3661 26295.5
 03 01 2013  19 44  -20.9868 26078.3 -03371.5 -07.3666 26295.3
 03 01 2013  19 45  -20.9868 26078.2 -03371.7 -07.3671 26295.2
 03 01 2013  19 46  -20.9868 26078.0 -03371.9 -07.3676 26295.1
 03 01 2013  19 47  -20.9869 26077.8 -03372.1 -07.3680 26294.9
 03 01 2013  19 48  -20.9870 26077.5 -03372.3 -07.3684 26294.7
 03 01 2013  19 49  -20.9871 26077.3 -03372.5 -07.3689 26294.5
 03 01 2013  19 50  -20.9873 26077.0 -03372.6 -07.3693 26294.2
 03 01 2013  19 51  -20.9875 26076.7 -03372.7 -07.3696 26293.9
 03 01 2013  19 52  -20.9877 26076.5 -03372.9 -07.3700 26293.7
 03 01 2013  19 53  -20.9879 26076.3 -03373.0 -07.3704 26293.5
 03 01 2013  19 54  -20.9881 26076.1 -03373.2 -07.3708 26293.3
 03 01 2013  19 55  -20.9883 26075.9 -03373.3 -07.3712 26293.2
 03 01 2013  19 56  -20.9885 26075.6 -03373.4 -07.3715 26293.0
 03 01 2013  19 57  -20.9887 26075.4 -03373.6 -07.3718 26292.8
 03 01 2013  19 58  -20.9889 26075.2 -03373.7 -07.3722 26292.5
 03 01 2013  19 59  -20.9892 26075.0 -03373.8 -07.3724 26292.3
 03 01 2013  20 00  -20.9894 26074.8 -03373.9 -07.3727 26292.1
 03 01 2013  20 01  -20.9895 26074.5 -03374.0 -07.3729 26291.9
 03 01 2013  20 02  -20.9897 26074.3 -03374.0 -07.3731 26291.6
 03 01 2013  20 03  -20.9900 26074.0 -03374.1 -07.3733 26291.4
 03 01 2013  20 04  -20.9902 26073.7 -03374.1 -07.3734 26291.1
 03 01 2013  20 05  -20.9904 26073.4 -03374.1 -07.3736 26290.8
 03 01 2013  20 06  -20.9906 26073.2 -03374.2 -07.3737 26290.6
 03 01 2013  20 07  -20.9907 26072.9 -03374.2 -07.3739 26290.4
 03 01 2013  20 08  -20.9908 26072.8 -03374.3 -07.3741 26290.2
 03 01 2013  20 09  -20.9910 26072.5 -03374.3 -07.3743 26290.0
 03 01 2013  20 10  -20.9912 26072.2 -03374.4 -07.3744 26289.7
 03 01 2013  20 11  -20.9912 26072.0 -03374.4 -07.3745 26289.5
 03 01 2013  20 12  -20.9911 26071.9 -03374.5 -07.3748 26289.4
 03 01 2013  20 13  -20.9912 26071.7 -03374.6 -07.3750 26289.1
 03 01 2013  20 14  -20.9912 26071.4 -03374.6 -07.3752 26288.9
 03 01 2013  20 15  -20.9912 26071.2 -03374.7 -07.3754 26288.7
 03 01 2013  20 16  -20.9912 26071.0 -03374.8 -07.3757 26288.5
 03 01 2013  20 17  -20.9912 26070.9 -03374.9 -07.3760 26288.4
 03 01 2013  20 18  -20.9913 26070.7 -03375.0 -07.3763 26288.2
 03 01 2013  20 19  -20.9915 26070.5 -03375.1 -07.3766 26288.0
 03 01 2013  20 20  -20.9917 26070.2 -03375.2 -07.3768 26287.8
 03 01 2013  20 21  -20.9918 26070.0 -03375.3 -07.3771 26287.6
 03 01 2013  20 22  -20.9921 26069.9 -03375.5 -07.3775 26287.5
 03 01 2013  20 23  -20.9924 26069.7 -03375.6 -07.3778 26287.4
 03 01 2013  20 24  -20.9926 26069.6 -03375.7 -07.3782 26287.2
 03 01 2013  20 25  -20.9928 26069.4 -03375.9 -07.3785 26287.0
 03 01 2013  20 26  -20.9929 26069.1 -03376.0 -07.3788 26286.8
 03 01 2013  20 27  -20.9932 26069.0 -03376.1 -07.3791 26286.7
 03 01 2013  20 28  -20.9934 26068.9 -03376.2 -07.3794 26286.6
 03 01 2013  20 29  -20.9936 26068.8 -03376.4 -07.3798 26286.5
 03 01 2013  20 30  -20.9938 26068.6 -03376.5 -07.3801 26286.4
 03 01 2013  20 31  -20.9940 26068.5 -03376.7 -07.3805 26286.2
 03 01 2013  20 32  -20.9942 26068.3 -03376.8 -07.3808 26286.1
 03 01 2013  20 33  -20.9943 26068.2 -03377.0 -07.3812 26286.0
 03 01 2013  20 34  -20.9945 26068.0 -03377.1 -07.3816 26285.9
 03 01 2013  20 35  -20.9946 26067.9 -03377.2 -07.3819 26285.7
 03 01 2013  20 36  -20.9948 26067.8 -03377.4 -07.3823 26285.6
 03 01 2013  20 37  -20.9950 26067.7 -03377.6 -07.3827 26285.6
 03 01 2013  20 38  -20.9951 26067.5 -03377.7 -07.3830 26285.5
 03 01 2013  20 39  -20.9953 26067.5 -03377.9 -07.3834 26285.4
 03 01 2013  20 40  -20.9957 26067.3 -03378.1 -07.3838 26285.2
 03 01 2013  20 41  -20.9951 26067.2 -03378.2 -07.3841 26285.2
 03 01 2013  20 42  -20.9957 26067.2 -03378.3 -07.3844 26285.2
 03 01 2013  20 43  -20.9961 26067.0 -03378.5 -07.3848 26285.0
 03 01 2013  20 44  -20.9963 26066.9 -03378.6 -07.3851 26285.0
 03 01 2013  20 45  -20.9966 26066.9 -03378.8 -07.3855 26284.9
 03 01 2013  20 46  -20.9969 26066.7 -03378.9 -07.3857 26284.8
 03 01 2013  20 47  -20.9972 26066.6 -03379.0 -07.3861 26284.7
 03 01 2013  20 48  -20.9975 26066.6 -03379.2 -07.3864 26284.7
 03 01 2013  20 49  -20.9977 26066.5 -03379.3 -07.3868 26284.6
 03 01 2013  20 50  -20.9980 26066.4 -03379.5 -07.3872 26284.6
 03 01 2013  20 51  -20.9984 26066.4 -03379.7 -07.3876 26284.6
 03 01 2013  20 52  -20.9987 26066.3 -03379.8 -07.3879 26284.5
 03 01 2013  20 53  -20.9991 26066.3 -03380.0 -07.3882 26284.5
 03 01 2013  20 54  -20.9993 26066.1 -03380.0 -07.3884 26284.4
 03 01 2013  20 55  -20.9997 26066.0 -03380.2 -07.3887 26284.3
 03 01 2013  20 56  -21.0002 26065.9 -03380.2 -07.3889 26284.1
 03 01 2013  20 57  -21.0006 26065.7 -03380.3 -07.3890 26284.0
 03 01 2013  20 58  -21.0010 26065.6 -03380.3 -07.3892 26283.8
 03 01 2013  20 59  -21.0014 26065.5 -03380.4 -07.3894 26283.8
 03 01 2013  21 00  -21.0018 26065.4 -03380.5 -07.3896 26283.7
 03 01 2013  21 01  -21.0023 26065.4 -03380.6 -07.3897 26283.7
 03 01 2013  21 02  -21.0026 26065.3 -03380.6 -07.3899 26283.6
 03 01 2013  21 03  -21.0029 26065.3 -03380.7 -07.3901 26283.6
 03 01 2013  21 04  -21.0030 26065.3 -03380.8 -07.3903 26283.7
 03 01 2013  21 05  -21.0034 26065.4 -03380.9 -07.3905 26283.7
 03 01 2013  21 06  -21.0036 26065.4 -03381.0 -07.3907 26283.8
 03 01 2013  21 07  -21.0037 26065.4 -03381.1 -07.3909 26283.8
 03 01 2013  21 08  -21.0039 26065.5 -03381.2 -07.3910 26283.8
 03 01 2013  21 09  -21.0040 26065.5 -03381.2 -07.3912 26283.9
 03 01 2013  21 10  -21.0041 26065.5 -03381.3 -07.3913 26283.9
 03 01 2013  21 11  -21.0043 26065.4 -03381.3 -07.3914 26283.9
 03 01 2013  21 12  -21.0044 26065.4 -03381.4 -07.3915 26283.8
 03 01 2013  21 13  -21.0047 26065.3 -03381.5 -07.3918 26283.7
 03 01 2013  21 14  -21.0048 26065.3 -03381.6 -07.3920 26283.7
 03 01 2013  21 15  -21.0050 26065.3 -03381.7 -07.3922 26283.7
 03 01 2013  21 16  -21.0052 26065.2 -03381.8 -07.3924 26283.7
 03 01 2013  21 17  -21.0054 26065.2 -03381.8 -07.3925 26283.7
 03 01 2013  21 18  -21.0057 26065.2 -03381.8 -07.3926 26283.7
 03 01 2013  21 19  -21.0060 26065.2 -03381.9 -07.3928 26283.7
 03 01 2013  21 20  -21.0066 26065.1 -03382.0 -07.3929 26283.6
 03 01 2013  21 21  -21.0070 26065.0 -03381.9 -07.3928 26283.5
 03 01 2013  21 22  -21.0072 26065.1 -03382.0 -07.3930 26283.6
 03 01 2013  21 23  -21.0076 26065.1 -03382.1 -07.3932 26283.6
 03 01 2013  21 24  -21.0079 26065.1 -03382.1 -07.3932 26283.6
 03 01 2013  21 25  -21.0081 26065.1 -03382.1 -07.3932 26283.6
 03 01 2013  21 26  -21.0084 26065.0 -03382.1 -07.3931 26283.5
 03 01 2013  21 27  -21.0085 26065.0 -03382.0 -07.3930 26283.5
 03 01 2013  21 28  -21.0086 26065.0 -03382.0 -07.3930 26283.5
 03 01 2013  21 29  -21.0087 26064.9 -03382.0 -07.3930 26283.4
 03 01 2013  21 30  -21.0088 26064.9 -03381.9 -07.3929 26283.4
 03 01 2013  21 31  -21.0089 26064.8 -03381.9 -07.3928 26283.3
 03 01 2013  21 32  -21.0089 26064.8 -03381.9 -07.3927 26283.3
 03 01 2013  21 33  -21.0089 26064.7 -03381.8 -07.3927 26283.2
 03 01 2013  21 34  -21.0088 26064.8 -03381.8 -07.3926 26283.2
 03 01 2013  21 35  -21.0088 26064.8 -03381.8 -07.3926 26283.3
 03 01 2013  21 36  -21.0087 26064.8 -03381.8 -07.3926 26283.3
 03 01 2013  21 37  -21.0085 26064.8 -03381.9 -07.3927 26283.3
 03 01 2013  21 38  -21.0085 26064.8 -03381.9 -07.3928 26283.3
 03 01 2013  21 39  -21.0085 26064.7 -03381.9 -07.3928 26283.2
 03 01 2013  21 40  -21.0085 26064.5 -03381.9 -07.3928 26283.0
 03 01 2013  21 41  -21.0085 26064.4 -03381.8 -07.3928 26282.9
 03 01 2013  21 42  -21.0082 26064.5 -03381.9 -07.3929 26282.9
 03 01 2013  21 43  -21.0080 26064.5 -03382.0 -07.3931 26283.0
 03 01 2013  21 44  -21.0077 26064.5 -03382.1 -07.3932 26283.0
 03 01 2013  21 45  -21.0076 26064.5 -03382.1 -07.3934 26283.1
 03 01 2013  21 46  -21.0074 26064.6 -03382.2 -07.3935 26283.1
 03 01 2013  21 47  -21.0072 26064.6 -03382.3 -07.3936 26283.1
 03 01 2013  21 48  -21.0070 26064.6 -03382.3 -07.3938 26283.2
 03 01 2013  21 49  -21.0068 26064.6 -03382.4 -07.3939 26283.2
 03 01 2013  21 50  -21.0067 26064.7 -03382.5 -07.3941 26283.2
 03 01 2013  21 51  -21.0066 26064.6 -03382.5 -07.3942 26283.2
 03 01 2013  21 52  -21.0065 26064.6 -03382.6 -07.3943 26283.1
 03 01 2013  21 53  -21.0064 26064.6 -03382.6 -07.3944 26283.1
 03 01 2013  21 54  -21.0065 26064.5 -03382.6 -07.3945 26283.0
 03 01 2013  21 55  -21.0064 26064.4 -03382.6 -07.3945 26283.0
 03 01 2013  21 56  -21.0064 26064.3 -03382.7 -07.3946 26282.9
 03 01 2013  21 57  -21.0065 26064.3 -03382.7 -07.3947 26282.8
 03 01 2013  21 58  -21.0065 26064.1 -03382.7 -07.3947 26282.7
 03 01 2013  21 59  -21.0064 26064.1 -03382.7 -07.3948 26282.7
 03 01 2013  22 00  -21.0064 26064.1 -03382.8 -07.3948 26282.7
 03 01 2013  22 01  -21.0063 26064.0 -03382.8 -07.3949 26282.6
 03 01 2013  22 02  -21.0063 26063.9 -03382.8 -07.3949 26282.5
 03 01 2013  22 03  -21.0063 26063.8 -03382.8 -07.3950 26282.4
 03 01 2013  22 04  -21.0062 26063.7 -03382.8 -07.3950 26282.3
 03 01 2013  22 05  -21.0062 26063.6 -03382.8 -07.3950 26282.2
 03 01 2013  22 06  -21.0063 26063.5 -03382.8 -07.3950 26282.1
 03 01 2013  22 07  -21.0064 26063.4 -03382.8 -07.3951 26282.0
 03 01 2013  22 08  -21.0064 26063.2 -03382.8 -07.3951 26281.8
 03 01 2013  22 09  -21.0063 26063.1 -03382.8 -07.3951 26281.7
 03 01 2013  22 10  -21.0062 26063.0 -03382.7 -07.3951 26281.6
 03 01 2013  22 11  -21.0062 26062.9 -03382.7 -07.3952 26281.5
 03 01 2013  22 12  -21.0061 26062.8 -03382.8 -07.3952 26281.4
 03 01 2013  22 13  -21.0061 26062.7 -03382.7 -07.3952 26281.3
 03 01 2013  22 14  -21.0060 26062.6 -03382.8 -07.3953 26281.2
 03 01 2013  22 15  -21.0062 26062.5 -03382.8 -07.3953 26281.1
 03 01 2013  22 16  -21.0061 26062.4 -03382.8 -07.3953 26281.0
 03 01 2013  22 17  -21.0061 26062.3 -03382.8 -07.3954 26280.9
 03 01 2013  22 18  -21.0060 26062.2 -03382.7 -07.3953 26280.8
 03 01 2013  22 19  -21.0058 26062.2 -03382.8 -07.3954 26280.8
 03 01 2013  22 20  -21.0056 26062.1 -03382.8 -07.3955 26280.7
 03 01 2013  22 21  -21.0054 26062.1 -03382.9 -07.3956 26280.7
 03 01 2013  22 22  -21.0053 26062.1 -03382.9 -07.3957 26280.7
 03 01 2013  22 23  -21.0051 26062.0 -03382.9 -07.3958 26280.7
 03 01 2013  22 24  -21.0048 26061.9 -03382.9 -07.3958 26280.6
 03 01 2013  22 25  -21.0047 26061.9 -03383.0 -07.3959 26280.5
 03 01 2013  22 26  -21.0044 26062.0 -03383.0 -07.3961 26280.6
 03 01 2013  22 27  -21.0045 26062.0 -03383.1 -07.3962 26280.6
 03 01 2013  22 28  -21.0046 26061.9 -03383.1 -07.3963 26280.6
 03 01 2013  22 29  -21.0045 26061.9 -03383.2 -07.3964 26280.6
 03 01 2013  22 30  -21.0043 26061.9 -03383.2 -07.3965 26280.6
 03 01 2013  22 31  -21.0041 26061.9 -03383.2 -07.3965 26280.6
 03 01 2013  22 32  -21.0039 26061.9 -03383.3 -07.3966 26280.5
 03 01 2013  22 33  -21.0038 26061.9 -03383.3 -07.3966 26280.6
 03 01 2013  22 34  -21.0037 26061.8 -03383.3 -07.3967 26280.5
 03 01 2013  22 35  -21.0036 26061.8 -03383.3 -07.3967 26280.5
 03 01 2013  22 36  -21.0034 26061.7 -03383.3 -07.3968 26280.4
 03 01 2013  22 37  -21.0032 26061.8 -03383.4 -07.3968 26280.5
 03 01 2013  22 38  -21.0030 26061.7 -03383.3 -07.3968 26280.4
 03 01 2013  22 39  -21.0030 26061.6 -03383.4 -07.3968 26280.3
 03 01 2013  22 40  -21.0029 26061.5 -03383.4 -07.3968 26280.2
 03 01 2013  22 41  -21.0028 26061.5 -03383.4 -07.3969 26280.2
 03 01 2013  22 42  -21.0026 26061.4 -03383.4 -07.3969 26280.1
 03 01 2013  22 43  -21.0025 26061.4 -03383.4 -07.3970 26280.1
 03 01 2013  22 44  -21.0025 26061.3 -03383.4 -07.3970 26280.0
 03 01 2013  22 45  -21.0025 26061.3 -03383.4 -07.3971 26280.0
 03 01 2013  22 46  -21.0025 26061.3 -03383.5 -07.3972 26280.0
 03 01 2013  22 47  -21.0023 26061.3 -03383.5 -07.3972 26280.0
 03 01 2013  22 48  -21.0022 26061.2 -03383.5 -07.3973 26280.0
 03 01 2013  22 49  -21.0022 26061.2 -03383.5 -07.3973 26279.9
 03 01 2013  22 50  -21.0022 26061.1 -03383.5 -07.3973 26279.8
 03 01 2013  22 51  -21.0020 26061.0 -03383.5 -07.3974 26279.7
 03 01 2013  22 52  -21.0019 26060.9 -03383.5 -07.3974 26279.7
 03 01 2013  22 53  -21.0017 26061.0 -03383.6 -07.3975 26279.7
 03 01 2013  22 54  -21.0018 26061.0 -03383.7 -07.3976 26279.8
 03 01 2013  22 55  -21.0017 26061.0 -03383.7 -07.3977 26279.7
 03 01 2013  22 56  -21.0018 26060.9 -03383.7 -07.3977 26279.7
 03 01 2013  22 57  -21.0017 26060.9 -03383.7 -07.3978 26279.7
 03 01 2013  22 58  -21.0018 26060.9 -03383.8 -07.3979 26279.6
 03 01 2013  22 59  -21.0018 26060.8 -03383.7 -07.3979 26279.5
 03 01 2013  23 00  -21.0018 26060.8 -03383.8 -07.3979 26279.5
 03 01 2013  23 01  -21.0016 26060.7 -03383.7 -07.3979 26279.4
 03 01 2013  23 02  -21.0015 26060.7 -03383.8 -07.3980 26279.4
 03 01 2013  23 03  -21.0015 26060.7 -03383.8 -07.3981 26279.4
 03 01 2013  23 04  -21.0014 26060.6 -03383.8 -07.3981 26279.4
 03 01 2013  23 05  -21.0014 26060.5 -03383.8 -07.3982 26279.3
 03 01 2013  23 06  -21.0014 26060.6 -03383.9 -07.3983 26279.3
 03 01 2013  23 07  -21.0012 26060.6 -03383.9 -07.3984 26279.4
 03 01 2013  23 08  -21.0011 26060.5 -03384.0 -07.3984 26279.3
 03 01 2013  23 09  -21.0010 26060.6 -03384.0 -07.3985 26279.4
 03 01 2013  23 10  -21.0009 26060.6 -03384.0 -07.3986 26279.4
 03 01 2013  23 11  -21.0009 26060.5 -03384.1 -07.3987 26279.3
 03 01 2013  23 12  -21.0009 26060.5 -03384.1 -07.3987 26279.3
 03 01 2013  23 13  -21.0009 26060.5 -03384.1 -07.3988 26279.3
 03 01 2013  23 14  -21.0009 26060.5 -03384.1 -07.3988 26279.3
 03 01 2013  23 15  -21.0010 26060.4 -03384.2 -07.3989 26279.2
 03 01 2013  23 16  -21.0009 26060.3 -03384.1 -07.3989 26279.1
 03 01 2013  23 17  -21.0009 26060.3 -03384.2 -07.3989 26279.1
 03 01 2013  23 18  -21.0007 26060.3 -03384.2 -07.3990 26279.1
 03 01 2013  23 19  -21.0005 26060.2 -03384.2 -07.3990 26279.0
 03 01 2013  23 20  -21.0007 26060.4 -03384.3 -07.3992 26279.2
 03 01 2013  23 21  -21.0007 26060.3 -03384.3 -07.3993 26279.1
 03 01 2013  23 22  -21.0008 26060.2 -03384.3 -07.3993 26279.0
 03 01 2013  23 23  -21.0010 26060.3 -03384.4 -07.3994 26279.1
 03 01 2013  23 24  -21.0009 26060.2 -03384.4 -07.3995 26279.0
 03 01 2013  23 25  -21.0010 26060.2 -03384.4 -07.3995 26279.0
 03 01 2013  23 26  -21.0009 26060.2 -03384.4 -07.3996 26279.0
 03 01 2013  23 27  -21.0008 26060.0 -03384.4 -07.3995 26278.8
 03 01 2013  23 28  -21.0008 26059.9 -03384.4 -07.3995 26278.8
 03 01 2013  23 29  -21.0008 26059.9 -03384.4 -07.3995 26278.7
 03 01 2013  23 30  -21.0007 26059.8 -03384.4 -07.3996 26278.7
 03 01 2013  23 31  -21.0007 26059.7 -03384.4 -07.3996 26278.6
 03 01 2013  23 32  -21.0008 26059.9 -03384.5 -07.3998 26278.8
 03 01 2013  23 33  -21.0011 26059.9 -03384.6 -07.4000 26278.8
 03 01 2013  23 34  -21.0014 26060.0 -03384.7 -07.4001 26278.8
 03 01 2013  23 35  -21.0017 26059.9 -03384.7 -07.4002 26278.8
 03 01 2013  23 36  -21.0019 26059.9 -03384.7 -07.4002 26278.8
 03 01 2013  23 37  -21.0020 26059.9 -03384.7 -07.4002 26278.7
 03 01 2013  23 38  -21.0020 26059.7 -03384.6 -07.4001 26278.6
 03 01 2013  23 39  -21.0020 26059.6 -03384.6 -07.4001 26278.5
 03 01 2013  23 40  -21.0023 26059.6 -03384.6 -07.4001 26278.5
 03 01 2013  23 41  -21.0023 26059.5 -03384.6 -07.4001 26278.4
 03 01 2013  23 42  -21.0024 26059.5 -03384.6 -07.4002 26278.4
 03 01 2013  23 43  -21.0024 26059.5 -03384.6 -07.4002 26278.3
 03 01 2013  23 44  -21.0022 26059.4 -03384.6 -07.4001 26278.3
 03 01 2013  23 45  -21.0023 26059.3 -03384.6 -07.4002 26278.2
 03 01 2013  23 46  -21.0024 26059.3 -03384.6 -07.4002 26278.1
 03 01 2013  23 47  -21.0026 26059.2 -03384.6 -07.4003 26278.1
 03 01 2013  23 48  -21.0028 26059.2 -03384.7 -07.4004 26278.1
 03 01 2013  23 49  -21.0028 26059.2 -03384.7 -07.4004 26278.1
 03 01 2013  23 50  -21.0029 26059.3 -03384.8 -07.4005 26278.2
 03 01 2013  23 51  -21.0027 26059.2 -03384.7 -07.4005 26278.1
 03 01 2013  23 52  -21.0026 26059.0 -03384.7 -07.4004 26277.9
 03 01 2013  23 53  -21.0026 26059.0 -03384.7 -07.4004 26277.9
 03 01 2013  23 54  -21.0026 26059.0 -03384.7 -07.4006 26277.9
 03 01 2013  23 55  -21.0026 26059.0 -03384.7 -07.4005 26277.9
 03 01 2013  23 56  -21.0027 26058.9 -03384.8 -07.4006 26277.8
 03 01 2013  23 57  -21.0026 26058.9 -03384.8 -07.4007 26277.8
 03 01 2013  23 58  -21.0024 26058.8 -03384.7 -07.4006 26277.7
