SAO LUIS EMBRACE-03 <067> 1 Min. Reported data

 DD MM YYYY  HH MM   D(Deg)  H(nT)   Z(nT)   I(Deg)   F(nT)

 08 03 2013  00 00  -21.0337 26045.7 -03415.8 -07.4716 26268.7
 08 03 2013  00 01  -21.0337 26045.7 -03415.9 -07.4716 26268.8
 08 03 2013  00 02  -21.0337 26045.8 -03415.8 -07.4715 26268.8
 08 03 2013  00 03  -21.0336 26045.7 -03415.9 -07.4716 26268.8
 08 03 2013  00 04  -21.0338 26045.7 -03415.9 -07.4716 26268.8
 08 03 2013  00 05  -21.0340 26045.6 -03415.9 -07.4716 26268.7
 08 03 2013  00 06  -21.0340 26045.5 -03415.8 -07.4715 26268.6
 08 03 2013  00 07  -21.0340 26045.4 -03415.7 -07.4715 26268.4
 08 03 2013  00 08  -21.0340 26045.3 -03415.7 -07.4713 26268.3
 08 03 2013  00 09  -21.0339 26045.2 -03415.6 -07.4713 26268.2
 08 03 2013  00 10  -21.0338 26044.9 -03415.6 -07.4712 26268.0
 08 03 2013  00 11  -21.0338 26044.8 -03415.5 -07.4711 26267.8
 08 03 2013  00 12  -21.0339 26044.6 -03415.5 -07.4711 26267.6
 08 03 2013  00 13  -21.0340 26044.6 -03415.5 -07.4711 26267.6
 08 03 2013  00 14  -21.0340 26044.5 -03415.5 -07.4711 26267.5
 08 03 2013  00 15  -21.0340 26044.6 -03415.6 -07.4713 26267.6
 08 03 2013  00 16  -21.0342 26044.7 -03415.7 -07.4715 26267.7
 08 03 2013  00 17  -21.0339 26044.7 -03415.7 -07.4716 26267.8
 08 03 2013  00 18  -21.0336 26044.7 -03415.8 -07.4717 26267.8
 08 03 2013  00 19  -21.0335 26044.9 -03415.9 -07.4718 26267.9
 08 03 2013  00 20  -21.0334 26044.8 -03415.9 -07.4720 26267.9
 08 03 2013  00 21  -21.0333 26044.7 -03415.9 -07.4719 26267.7
 08 03 2013  00 22  -21.0332 26044.6 -03415.9 -07.4720 26267.7
 08 03 2013  00 23  -21.0331 26044.6 -03415.9 -07.4721 26267.7
 08 03 2013  00 24  -21.0329 26044.5 -03415.9 -07.4721 26267.6
 08 03 2013  00 25  -21.0328 26044.4 -03415.9 -07.4721 26267.5
 08 03 2013  00 26  -21.0326 26044.4 -03415.9 -07.4721 26267.4
 08 03 2013  00 27  -21.0325 26044.2 -03415.9 -07.4722 26267.3
 08 03 2013  00 28  -21.0324 26044.1 -03415.9 -07.4722 26267.1
 08 03 2013  00 29  -21.0322 26044.1 -03415.9 -07.4722 26267.1
 08 03 2013  00 30  -21.0321 26044.0 -03416.0 -07.4723 26267.1
 08 03 2013  00 31  -21.0320 26044.0 -03416.0 -07.4723 26267.1
 08 03 2013  00 32  -21.0318 26044.0 -03416.0 -07.4724 26267.0
 08 03 2013  00 33  -21.0317 26044.0 -03416.1 -07.4725 26267.0
 08 03 2013  00 34  -21.0316 26043.9 -03416.1 -07.4726 26267.0
 08 03 2013  00 35  -21.0314 26043.9 -03416.1 -07.4726 26266.9
 08 03 2013  00 36  -21.0313 26043.9 -03416.1 -07.4727 26267.0
 08 03 2013  00 37  -21.0312 26043.9 -03416.2 -07.4728 26267.0
 08 03 2013  00 38  -21.0310 26043.8 -03416.2 -07.4728 26266.8
 08 03 2013  00 39  -21.0309 26043.7 -03416.2 -07.4729 26266.8
 08 03 2013  00 40  -21.0308 26043.6 -03416.2 -07.4729 26266.7
 08 03 2013  00 41  -21.0307 26043.6 -03416.2 -07.4730 26266.7
 08 03 2013  00 42  -21.0306 26043.6 -03416.3 -07.4731 26266.7
 08 03 2013  00 43  -21.0306 26043.5 -03416.3 -07.4731 26266.6
 08 03 2013  00 44  -21.0304 26043.4 -03416.3 -07.4732 26266.5
 08 03 2013  00 45  -21.0303 26043.4 -03416.3 -07.4733 26266.5
 08 03 2013  00 46  -21.0302 26043.3 -03416.4 -07.4734 26266.5
 08 03 2013  00 47  -21.0300 26043.3 -03416.4 -07.4735 26266.4
 08 03 2013  00 48  -21.0299 26043.3 -03416.5 -07.4736 26266.4
 08 03 2013  00 49  -21.0298 26043.2 -03416.5 -07.4736 26266.4
 08 03 2013  00 50  -21.0297 26043.2 -03416.5 -07.4737 26266.4
 08 03 2013  00 51  -21.0297 26043.2 -03416.6 -07.4739 26266.4
 08 03 2013  00 52  -21.0297 26043.2 -03416.6 -07.4740 26266.4
 08 03 2013  00 53  -21.0297 26043.2 -03416.7 -07.4741 26266.4
 08 03 2013  00 54  -21.0296 26043.1 -03416.7 -07.4741 26266.3
 08 03 2013  00 55  -21.0296 26043.1 -03416.7 -07.4742 26266.3
 08 03 2013  00 56  -21.0296 26043.1 -03416.8 -07.4743 26266.3
 08 03 2013  00 57  -21.0296 26043.1 -03416.8 -07.4744 26266.3
 08 03 2013  00 58  -21.0296 26043.1 -03416.9 -07.4745 26266.3
 08 03 2013  00 59  -21.0296 26043.1 -03416.9 -07.4746 26266.3
 08 03 2013  01 00  -21.0296 26043.2 -03417.0 -07.4747 26266.4
 08 03 2013  01 01  -21.0296 26043.2 -03417.0 -07.4748 26266.4
 08 03 2013  01 02  -21.0296 26043.2 -03417.1 -07.4750 26266.4
 08 03 2013  01 03  -21.0296 26043.2 -03417.1 -07.4750 26266.4
 08 03 2013  01 04  -21.0296 26043.2 -03417.1 -07.4751 26266.4
 08 03 2013  01 05  -21.0296 26043.2 -03417.2 -07.4751 26266.5
 08 03 2013  01 06  -21.0295 26043.2 -03417.2 -07.4753 26266.5
 08 03 2013  01 07  -21.0296 26043.3 -03417.3 -07.4754 26266.6
 08 03 2013  01 08  -21.0295 26043.3 -03417.3 -07.4755 26266.6
 08 03 2013  01 09  -21.0295 26043.4 -03417.4 -07.4756 26266.6
 08 03 2013  01 10  -21.0295 26043.4 -03417.4 -07.4757 26266.6
 08 03 2013  01 11  -21.0295 26043.3 -03417.4 -07.4757 26266.5
 08 03 2013  01 12  -21.0295 26043.3 -03417.5 -07.4758 26266.5
 08 03 2013  01 13  -21.0295 26043.3 -03417.5 -07.4758 26266.5
 08 03 2013  01 14  -21.0295 26043.2 -03417.5 -07.4758 26266.5
 08 03 2013  01 15  -21.0296 26043.2 -03417.5 -07.4758 26266.4
 08 03 2013  01 16  -21.0296 26043.2 -03417.5 -07.4759 26266.4
 08 03 2013  01 17  -21.0297 26043.1 -03417.5 -07.4759 26266.4
 08 03 2013  01 18  -21.0298 26043.1 -03417.5 -07.4759 26266.3
 08 03 2013  01 19  -21.0298 26043.1 -03417.5 -07.4760 26266.4
 08 03 2013  01 20  -21.0299 26043.1 -03417.6 -07.4761 26266.3
 08 03 2013  01 21  -21.0299 26043.0 -03417.6 -07.4761 26266.3
 08 03 2013  01 22  -21.0299 26043.0 -03417.6 -07.4762 26266.3
 08 03 2013  01 23  -21.0299 26043.0 -03417.6 -07.4762 26266.3
 08 03 2013  01 24  -21.0299 26043.0 -03417.7 -07.4763 26266.3
 08 03 2013  01 25  -21.0300 26042.9 -03417.7 -07.4763 26266.2
 08 03 2013  01 26  -21.0300 26042.9 -03417.7 -07.4763 26266.1
 08 03 2013  01 27  -21.0301 26042.8 -03417.7 -07.4763 26266.1
 08 03 2013  01 28  -21.0301 26042.9 -03417.7 -07.4763 26266.2
 08 03 2013  01 29  -21.0301 26042.9 -03417.7 -07.4765 26266.2
 08 03 2013  01 30  -21.0301 26042.8 -03417.7 -07.4765 26266.1
 08 03 2013  01 31  -21.0301 26042.8 -03417.8 -07.4766 26266.1
 08 03 2013  01 32  -21.0301 26042.7 -03417.8 -07.4766 26266.1
 08 03 2013  01 33  -21.0302 26042.7 -03417.8 -07.4767 26266.0
 08 03 2013  01 34  -21.0303 26042.7 -03417.8 -07.4767 26266.0
 08 03 2013  01 35  -21.0305 26042.7 -03417.9 -07.4768 26266.0
 08 03 2013  01 36  -21.0307 26042.6 -03417.9 -07.4768 26265.9
 08 03 2013  01 37  -21.0307 26042.6 -03417.8 -07.4768 26265.9
 08 03 2013  01 38  -21.0307 26042.5 -03417.8 -07.4767 26265.8
 08 03 2013  01 39  -21.0307 26042.5 -03417.8 -07.4768 26265.8
 08 03 2013  01 40  -21.0308 26042.4 -03417.8 -07.4768 26265.7
 08 03 2013  01 41  -21.0309 26042.4 -03417.8 -07.4768 26265.7
 08 03 2013  01 42  -21.0309 26042.4 -03417.9 -07.4769 26265.7
 08 03 2013  01 43  -21.0310 26042.5 -03417.9 -07.4770 26265.8
 08 03 2013  01 44  -21.0310 26042.5 -03418.0 -07.4771 26265.8
 08 03 2013  01 45  -21.0311 26042.5 -03418.1 -07.4772 26265.9
 08 03 2013  01 46  -21.0312 26042.6 -03418.1 -07.4774 26265.9
 08 03 2013  01 47  -21.0313 26042.6 -03418.1 -07.4774 26265.9
 08 03 2013  01 48  -21.0313 26042.6 -03418.2 -07.4775 26266.0
 08 03 2013  01 49  -21.0315 26042.7 -03418.2 -07.4776 26266.0
 08 03 2013  01 50  -21.0316 26042.6 -03418.2 -07.4776 26266.0
 08 03 2013  01 51  -21.0316 26042.5 -03418.2 -07.4775 26265.9
 08 03 2013  01 52  -21.0317 26042.6 -03418.2 -07.4776 26265.9
 08 03 2013  01 53  -21.0317 26042.5 -03418.2 -07.4776 26265.9
 08 03 2013  01 54  -21.0318 26042.5 -03418.2 -07.4776 26265.9
 08 03 2013  01 55  -21.0318 26042.5 -03418.2 -07.4776 26265.9
 08 03 2013  01 56  -21.0319 26042.5 -03418.3 -07.4777 26265.9
 08 03 2013  01 57  -21.0320 26042.5 -03418.3 -07.4777 26265.9
 08 03 2013  01 58  -21.0321 26042.5 -03418.3 -07.4777 26265.9
 08 03 2013  01 59  -21.0322 26042.4 -03418.2 -07.4776 26265.8
 08 03 2013  02 00  -21.0323 26042.4 -03418.3 -07.4778 26265.8
 08 03 2013  02 01  -21.0324 26042.4 -03418.3 -07.4778 26265.8
 08 03 2013  02 02  -21.0323 26042.4 -03418.3 -07.4779 26265.8
 08 03 2013  02 03  -21.0324 26042.4 -03418.3 -07.4779 26265.8
 08 03 2013  02 04  -21.0325 26042.5 -03418.4 -07.4779 26265.8
 08 03 2013  02 05  -21.0327 26042.4 -03418.3 -07.4779 26265.8
 08 03 2013  02 06  -21.0328 26042.4 -03418.4 -07.4780 26265.7
 08 03 2013  02 07  -21.0329 26042.3 -03418.4 -07.4780 26265.7
 08 03 2013  02 08  -21.0330 26042.3 -03418.4 -07.4780 26265.7
 08 03 2013  02 09  -21.0331 26042.3 -03418.3 -07.4779 26265.7
 08 03 2013  02 10  -21.0332 26042.3 -03418.3 -07.4780 26265.7
 08 03 2013  02 11  -21.0332 26042.2 -03418.3 -07.4779 26265.6
 08 03 2013  02 12  -21.0334 26042.2 -03418.3 -07.4779 26265.5
 08 03 2013  02 13  -21.0334 26042.1 -03418.3 -07.4778 26265.4
 08 03 2013  02 14  -21.0335 26042.0 -03418.2 -07.4777 26265.3
 08 03 2013  02 15  -21.0336 26041.9 -03418.2 -07.4777 26265.3
 08 03 2013  02 16  -21.0337 26041.9 -03418.2 -07.4778 26265.3
 08 03 2013  02 17  -21.0337 26041.8 -03418.2 -07.4778 26265.2
 08 03 2013  02 18  -21.0338 26041.8 -03418.2 -07.4777 26265.2
 08 03 2013  02 19  -21.0339 26041.8 -03418.2 -07.4778 26265.2
 08 03 2013  02 20  -21.0340 26041.8 -03418.2 -07.4778 26265.2
 08 03 2013  02 21  -21.0341 26041.8 -03418.2 -07.4778 26265.2
 08 03 2013  02 22  -21.0342 26041.9 -03418.3 -07.4779 26265.3
 08 03 2013  02 23  -21.0342 26041.9 -03418.3 -07.4779 26265.3
 08 03 2013  02 24  -21.0341 26041.9 -03418.3 -07.4779 26265.3
 08 03 2013  02 25  -21.0341 26041.9 -03418.3 -07.4779 26265.3
 08 03 2013  02 26  -21.0341 26041.9 -03418.3 -07.4779 26265.3
 08 03 2013  02 27  -21.0340 26042.0 -03418.3 -07.4779 26265.4
 08 03 2013  02 28  -21.0340 26042.0 -03418.3 -07.4779 26265.3
 08 03 2013  02 29  -21.0342 26041.9 -03418.3 -07.4780 26265.3
 08 03 2013  02 30  -21.0343 26041.9 -03418.3 -07.4779 26265.3
 08 03 2013  02 31  -21.0344 26041.8 -03418.3 -07.4780 26265.2
 08 03 2013  02 32  -21.0345 26041.8 -03418.3 -07.4779 26265.2
 08 03 2013  02 33  -21.0346 26041.8 -03418.3 -07.4780 26265.2
 08 03 2013  02 34  -21.0347 26041.8 -03418.3 -07.4779 26265.2
 08 03 2013  02 35  -21.0347 26041.7 -03418.3 -07.4779 26265.1
 08 03 2013  02 36  -21.0348 26041.6 -03418.2 -07.4779 26265.0
 08 03 2013  02 37  -21.0346 26041.5 -03418.2 -07.4778 26264.9
 08 03 2013  02 38  -21.0346 26041.4 -03418.1 -07.4777 26264.8
 08 03 2013  02 39  -21.0345 26041.4 -03418.1 -07.4777 26264.8
 08 03 2013  02 40  -21.0346 26041.5 -03418.2 -07.4778 26264.8
 08 03 2013  02 41  -21.0346 26041.6 -03418.2 -07.4779 26264.9
 08 03 2013  02 42  -21.0347 26041.6 -03418.3 -07.4781 26265.0
 08 03 2013  02 43  -21.0348 26041.7 -03418.3 -07.4781 26265.1
 08 03 2013  02 44  -21.0349 26041.7 -03418.4 -07.4782 26265.1
 08 03 2013  02 45  -21.0350 26041.7 -03418.4 -07.4782 26265.1
 08 03 2013  02 46  -21.0351 26041.7 -03418.4 -07.4782 26265.1
 08 03 2013  02 47  -21.0351 26041.8 -03418.4 -07.4782 26265.2
 08 03 2013  02 48  -21.0351 26041.8 -03418.4 -07.4783 26265.2
 08 03 2013  02 49  -21.0352 26041.8 -03418.4 -07.4783 26265.2
 08 03 2013  02 50  -21.0352 26041.8 -03418.5 -07.4784 26265.2
 08 03 2013  02 51  -21.0352 26041.7 -03418.4 -07.4783 26265.1
 08 03 2013  02 52  -21.0353 26041.8 -03418.5 -07.4784 26265.2
 08 03 2013  02 53  -21.0354 26041.7 -03418.5 -07.4785 26265.2
 08 03 2013  02 54  -21.0355 26041.6 -03418.5 -07.4784 26265.0
 08 03 2013  02 55  -21.0355 26041.5 -03418.4 -07.4783 26264.9
 08 03 2013  02 56  -21.0355 26041.4 -03418.4 -07.4783 26264.8
 08 03 2013  02 57  -21.0355 26041.3 -03418.4 -07.4783 26264.7
 08 03 2013  02 58  -21.0353 26041.3 -03418.4 -07.4783 26264.7
 08 03 2013  02 59  -21.0353 26041.3 -03418.4 -07.4784 26264.7
 08 03 2013  03 00  -21.0353 26041.4 -03418.5 -07.4785 26264.8
 08 03 2013  03 01  -21.0354 26041.5 -03418.6 -07.4787 26264.9
 08 03 2013  03 02  -21.0356 26041.6 -03418.7 -07.4789 26265.0
 08 03 2013  03 03  -21.0359 26041.7 -03418.8 -07.4791 26265.2
 08 03 2013  03 04  -21.0361 26041.8 -03418.8 -07.4792 26265.2
 08 03 2013  03 05  -21.0363 26041.8 -03418.9 -07.4792 26265.3
 08 03 2013  03 06  -21.0364 26041.9 -03418.9 -07.4793 26265.3
 08 03 2013  03 07  -21.0366 26042.0 -03418.9 -07.4793 26265.4
 08 03 2013  03 08  -21.0368 26041.9 -03419.0 -07.4794 26265.4
 08 03 2013  03 09  -21.0368 26041.9 -03418.9 -07.4793 26265.4
 08 03 2013  03 10  -21.0367 26041.9 -03419.0 -07.4794 26265.4
 08 03 2013  03 11  -21.0368 26042.0 -03419.0 -07.4795 26265.4
 08 03 2013  03 12  -21.0368 26042.0 -03419.0 -07.4795 26265.4
 08 03 2013  03 13  -21.0368 26041.9 -03419.0 -07.4795 26265.4
 08 03 2013  03 14  -21.0368 26041.9 -03419.0 -07.4795 26265.4
 08 03 2013  03 15  -21.0368 26041.9 -03419.1 -07.4796 26265.4
 08 03 2013  03 16  -21.0368 26042.0 -03419.1 -07.4797 26265.5
 08 03 2013  03 17  -21.0368 26042.1 -03419.2 -07.4799 26265.6
 08 03 2013  03 18  -21.0369 26042.2 -03419.3 -07.4800 26265.7
 08 03 2013  03 19  -21.0370 26042.2 -03419.3 -07.4801 26265.7
 08 03 2013  03 20  -21.0371 26042.1 -03419.3 -07.4802 26265.6
 08 03 2013  03 21  -21.0373 26042.1 -03419.3 -07.4801 26265.6
 08 03 2013  03 22  -21.0375 26042.0 -03419.3 -07.4801 26265.5
 08 03 2013  03 23  -21.0377 26042.0 -03419.3 -07.4800 26265.5
 08 03 2013  03 24  -21.0378 26042.0 -03419.3 -07.4800 26265.5
 08 03 2013  03 25  -21.0381 26042.0 -03419.3 -07.4801 26265.5
 08 03 2013  03 26  -21.0384 26042.0 -03419.3 -07.4802 26265.5
 08 03 2013  03 27  -21.0388 26042.0 -03419.3 -07.4802 26265.5
 08 03 2013  03 28  -21.0391 26042.0 -03419.3 -07.4801 26265.5
 08 03 2013  03 29  -21.0393 26042.0 -03419.3 -07.4801 26265.5
 08 03 2013  03 30  -21.0395 26042.0 -03419.3 -07.4801 26265.5
 08 03 2013  03 31  -21.0395 26042.0 -03419.3 -07.4800 26265.5
 08 03 2013  03 32  -21.0396 26042.0 -03419.2 -07.4800 26265.5
 08 03 2013  03 33  -21.0397 26041.9 -03419.2 -07.4799 26265.4
 08 03 2013  03 34  -21.0398 26041.9 -03419.2 -07.4799 26265.4
 08 03 2013  03 35  -21.0400 26041.8 -03419.1 -07.4798 26265.3
 08 03 2013  03 36  -21.0403 26041.8 -03419.1 -07.4797 26265.2
 08 03 2013  03 37  -21.0407 26041.8 -03419.1 -07.4797 26265.3
 08 03 2013  03 38  -21.0409 26041.8 -03419.1 -07.4796 26265.2
 08 03 2013  03 39  -21.0410 26041.8 -03419.0 -07.4795 26265.2
 08 03 2013  03 40  -21.0412 26041.8 -03419.0 -07.4796 26265.3
 08 03 2013  03 41  -21.0414 26041.8 -03419.0 -07.4796 26265.3
 08 03 2013  03 42  -21.0416 26041.8 -03419.0 -07.4795 26265.3
 08 03 2013  03 43  -21.0417 26041.9 -03419.0 -07.4794 26265.3
 08 03 2013  03 44  -21.0420 26041.8 -03418.9 -07.4793 26265.3
 08 03 2013  03 45  -21.0422 26041.8 -03418.9 -07.4792 26265.3
 08 03 2013  03 46  -21.0425 26041.9 -03418.9 -07.4792 26265.3
 08 03 2013  03 47  -21.0426 26041.8 -03418.8 -07.4791 26265.3
 08 03 2013  03 48  -21.0427 26041.7 -03418.7 -07.4789 26265.2
 08 03 2013  03 49  -21.0428 26041.7 -03418.7 -07.4788 26265.2
 08 03 2013  03 50  -21.0430 26041.7 -03418.6 -07.4787 26265.2
 08 03 2013  03 51  -21.0430 26041.8 -03418.6 -07.4787 26265.2
 08 03 2013  03 52  -21.0431 26041.8 -03418.6 -07.4786 26265.2
 08 03 2013  03 53  -21.0430 26041.8 -03418.5 -07.4785 26265.2
 08 03 2013  03 54  -21.0432 26041.8 -03418.5 -07.4784 26265.2
 08 03 2013  03 55  -21.0433 26041.8 -03418.5 -07.4784 26265.2
 08 03 2013  03 56  -21.0433 26041.8 -03418.4 -07.4782 26265.2
 08 03 2013  03 57  -21.0434 26041.7 -03418.3 -07.4781 26265.1
 08 03 2013  03 58  -21.0434 26041.7 -03418.3 -07.4780 26265.1
 08 03 2013  03 59  -21.0435 26041.7 -03418.3 -07.4780 26265.1
 08 03 2013  04 00  -21.0435 26041.7 -03418.3 -07.4780 26265.1
 08 03 2013  04 01  -21.0435 26041.8 -03418.2 -07.4779 26265.2
 08 03 2013  04 02  -21.0435 26041.7 -03418.2 -07.4778 26265.1
 08 03 2013  04 03  -21.0434 26041.9 -03418.2 -07.4778 26265.2
 08 03 2013  04 04  -21.0434 26041.9 -03418.2 -07.4778 26265.3
 08 03 2013  04 05  -21.0433 26042.0 -03418.2 -07.4778 26265.4
 08 03 2013  04 06  -21.0433 26042.0 -03418.2 -07.4778 26265.4
 08 03 2013  04 07  -21.0432 26042.1 -03418.2 -07.4777 26265.5
 08 03 2013  04 08  -21.0430 26042.1 -03418.2 -07.4777 26265.5
 08 03 2013  04 09  -21.0429 26042.2 -03418.2 -07.4776 26265.6
 08 03 2013  04 10  -21.0428 26042.3 -03418.2 -07.4776 26265.6
 08 03 2013  04 11  -21.0427 26042.3 -03418.2 -07.4776 26265.6
 08 03 2013  04 12  -21.0425 26042.3 -03418.2 -07.4776 26265.7
 08 03 2013  04 13  -21.0425 26042.3 -03418.2 -07.4775 26265.7
 08 03 2013  04 14  -21.0425 26042.4 -03418.1 -07.4775 26265.7
 08 03 2013  04 15  -21.0424 26042.4 -03418.1 -07.4775 26265.7
 08 03 2013  04 16  -21.0423 26042.4 -03418.1 -07.4774 26265.8
 08 03 2013  04 17  -21.0422 26042.4 -03418.1 -07.4774 26265.8
 08 03 2013  04 18  -21.0421 26042.4 -03418.1 -07.4773 26265.8
 08 03 2013  04 19  -21.0420 26042.5 -03418.1 -07.4773 26265.8
 08 03 2013  04 20  -21.0419 26042.5 -03418.1 -07.4773 26265.9
 08 03 2013  04 21  -21.0418 26042.6 -03418.1 -07.4773 26265.9
 08 03 2013  04 22  -21.0416 26042.6 -03418.0 -07.4772 26265.9
 08 03 2013  04 23  -21.0416 26042.6 -03418.0 -07.4772 26266.0
 08 03 2013  04 24  -21.0414 26042.6 -03418.0 -07.4772 26266.0
 08 03 2013  04 25  -21.0413 26042.6 -03418.0 -07.4771 26266.0
 08 03 2013  04 26  -21.0412 26042.6 -03418.0 -07.4771 26266.0
 08 03 2013  04 27  -21.0410 26042.6 -03418.0 -07.4770 26266.0
 08 03 2013  04 28  -21.0408 26042.6 -03417.9 -07.4770 26266.0
 08 03 2013  04 29  -21.0407 26042.7 -03417.9 -07.4769 26266.0
 08 03 2013  04 30  -21.0406 26042.6 -03417.9 -07.4768 26265.9
 08 03 2013  04 31  -21.0405 26042.6 -03417.9 -07.4769 26265.9
 08 03 2013  04 32  -21.0403 26042.7 -03417.9 -07.4768 26266.0
 08 03 2013  04 33  -21.0401 26042.6 -03417.8 -07.4767 26266.0
 08 03 2013  04 34  -21.0399 26042.7 -03417.8 -07.4766 26266.0
 08 03 2013  04 35  -21.0397 26042.7 -03417.8 -07.4766 26266.0
 08 03 2013  04 36  -21.0395 26042.7 -03417.8 -07.4766 26266.0
 08 03 2013  04 37  -21.0393 26042.7 -03417.8 -07.4766 26266.0
 08 03 2013  04 38  -21.0391 26042.7 -03417.7 -07.4765 26266.0
 08 03 2013  04 39  -21.0390 26042.7 -03417.7 -07.4765 26266.0
 08 03 2013  04 40  -21.0388 26042.7 -03417.7 -07.4764 26266.0
 08 03 2013  04 41  -21.0386 26042.7 -03417.6 -07.4763 26266.0
 08 03 2013  04 42  -21.0385 26042.7 -03417.6 -07.4762 26266.0
 08 03 2013  04 43  -21.0383 26042.7 -03417.6 -07.4762 26266.0
 08 03 2013  04 44  -21.0382 26042.7 -03417.6 -07.4762 26266.0
 08 03 2013  04 45  -21.0380 26042.7 -03417.5 -07.4761 26266.0
 08 03 2013  04 46  -21.0380 26042.7 -03417.5 -07.4760 26266.0
 08 03 2013  04 47  -21.0379 26042.7 -03417.5 -07.4760 26266.0
 08 03 2013  04 48  -21.0377 26042.8 -03417.5 -07.4760 26266.1
 08 03 2013  04 49  -21.0374 26042.9 -03417.6 -07.4761 26266.2
 08 03 2013  04 50  -21.0372 26042.9 -03417.6 -07.4761 26266.2
 08 03 2013  04 51  -21.0370 26042.9 -03417.6 -07.4761 26266.2
 08 03 2013  04 52  -21.0370 26042.9 -03417.5 -07.4760 26266.1
 08 03 2013  04 53  -21.0368 26042.8 -03417.5 -07.4759 26266.1
 08 03 2013  04 54  -21.0368 26042.8 -03417.5 -07.4759 26266.1
 08 03 2013  04 55  -21.0367 26042.9 -03417.4 -07.4759 26266.1
 08 03 2013  04 56  -21.0365 26042.9 -03417.5 -07.4759 26266.2
 08 03 2013  04 57  -21.0362 26042.9 -03417.5 -07.4759 26266.2
 08 03 2013  04 58  -21.0359 26042.9 -03417.5 -07.4759 26266.1
 08 03 2013  04 59  -21.0357 26042.8 -03417.4 -07.4758 26266.1
 08 03 2013  05 00  -21.0357 26042.8 -03417.4 -07.4758 26266.1
 08 03 2013  05 01  -21.0357 26042.9 -03417.5 -07.4759 26266.2
 08 03 2013  05 02  -21.0355 26043.0 -03417.6 -07.4760 26266.3
 08 03 2013  05 03  -21.0352 26043.1 -03417.6 -07.4761 26266.4
 08 03 2013  05 04  -21.0350 26043.1 -03417.6 -07.4760 26266.4
 08 03 2013  05 05  -21.0349 26043.1 -03417.6 -07.4761 26266.4
 08 03 2013  05 06  -21.0347 26043.2 -03417.6 -07.4761 26266.5
 08 03 2013  05 07  -21.0345 26043.3 -03417.7 -07.4762 26266.6
 08 03 2013  05 08  -21.0342 26043.5 -03417.8 -07.4763 26266.8
 08 03 2013  05 09  -21.0339 26043.6 -03417.8 -07.4765 26266.9
 08 03 2013  05 10  -21.0337 26043.6 -03417.8 -07.4765 26266.9
 08 03 2013  05 11  -21.0335 26043.5 -03417.8 -07.4765 26266.8
 08 03 2013  05 12  -21.0334 26043.5 -03417.8 -07.4764 26266.8
 08 03 2013  05 13  -21.0334 26043.5 -03417.8 -07.4764 26266.9
 08 03 2013  05 14  -21.0332 26043.7 -03417.9 -07.4765 26267.0
 08 03 2013  05 15  -21.0330 26043.8 -03417.9 -07.4767 26267.1
 08 03 2013  05 16  -21.0329 26043.9 -03418.0 -07.4768 26267.2
 08 03 2013  05 17  -21.0327 26044.0 -03418.1 -07.4769 26267.3
 08 03 2013  05 18  -21.0325 26044.0 -03418.1 -07.4770 26267.4
 08 03 2013  05 19  -21.0323 26044.0 -03418.1 -07.4770 26267.4
 08 03 2013  05 20  -21.0322 26044.1 -03418.2 -07.4770 26267.4
 08 03 2013  05 21  -21.0321 26044.1 -03418.2 -07.4771 26267.4
 08 03 2013  05 22  -21.0320 26044.1 -03418.2 -07.4770 26267.4
 08 03 2013  05 23  -21.0320 26044.1 -03418.2 -07.4771 26267.4
 08 03 2013  05 24  -21.0319 26044.0 -03418.2 -07.4771 26267.4
 08 03 2013  05 25  -21.0318 26044.0 -03418.2 -07.4771 26267.4
 08 03 2013  05 26  -21.0317 26044.0 -03418.2 -07.4771 26267.4
 08 03 2013  05 27  -21.0316 26044.0 -03418.2 -07.4771 26267.4
 08 03 2013  05 28  -21.0316 26044.1 -03418.2 -07.4772 26267.4
 08 03 2013  05 29  -21.0315 26044.2 -03418.3 -07.4773 26267.5
 08 03 2013  05 30  -21.0314 26044.3 -03418.3 -07.4774 26267.7
 08 03 2013  05 31  -21.0313 26044.4 -03418.4 -07.4775 26267.8
 08 03 2013  05 32  -21.0311 26044.5 -03418.5 -07.4776 26267.9
 08 03 2013  05 33  -21.0310 26044.7 -03418.6 -07.4778 26268.1
 08 03 2013  05 34  -21.0307 26044.9 -03418.7 -07.4779 26268.3
 08 03 2013  05 35  -21.0306 26045.0 -03418.7 -07.4780 26268.4
 08 03 2013  05 36  -21.0304 26045.1 -03418.8 -07.4781 26268.5
 08 03 2013  05 37  -21.0302 26045.1 -03418.8 -07.4781 26268.6
 08 03 2013  05 38  -21.0301 26045.2 -03418.8 -07.4782 26268.7
 08 03 2013  05 39  -21.0299 26045.3 -03418.8 -07.4782 26268.7
 08 03 2013  05 40  -21.0298 26045.3 -03418.8 -07.4782 26268.7
 08 03 2013  05 41  -21.0297 26045.2 -03418.8 -07.4781 26268.7
 08 03 2013  05 42  -21.0296 26045.2 -03418.8 -07.4781 26268.6
 08 03 2013  05 43  -21.0296 26045.2 -03418.7 -07.4780 26268.6
 08 03 2013  05 44  -21.0296 26045.2 -03418.8 -07.4780 26268.6
 08 03 2013  05 45  -21.0295 26045.3 -03418.8 -07.4780 26268.7
 08 03 2013  05 46  -21.0295 26045.3 -03418.8 -07.4780 26268.8
 08 03 2013  05 47  -21.0294 26045.4 -03418.8 -07.4780 26268.8
 08 03 2013  05 48  -21.0294 26045.4 -03418.8 -07.4781 26268.8
 08 03 2013  05 49  -21.0294 26045.4 -03418.8 -07.4780 26268.8
 08 03 2013  05 50  -21.0294 26045.5 -03418.8 -07.4780 26268.9
 08 03 2013  05 51  -21.0295 26045.5 -03418.8 -07.4780 26268.9
 08 03 2013  05 52  -21.0295 26045.5 -03418.8 -07.4780 26268.9
 08 03 2013  05 53  -21.0295 26045.6 -03418.8 -07.4781 26269.0
 08 03 2013  05 54  -21.0296 26045.6 -03418.9 -07.4781 26269.1
 08 03 2013  05 55  -21.0297 26045.8 -03418.9 -07.4782 26269.2
 08 03 2013  05 56  -21.0296 26045.8 -03418.9 -07.4782 26269.3
 08 03 2013  05 57  -21.0295 26045.9 -03418.9 -07.4782 26269.3
 08 03 2013  05 58  -21.0295 26045.9 -03418.9 -07.4782 26269.3
 08 03 2013  05 59  -21.0294 26046.0 -03419.0 -07.4782 26269.4
 08 03 2013  06 00  -21.0293 26046.0 -03419.0 -07.4783 26269.5
 08 03 2013  06 01  -21.0292 26046.1 -03419.0 -07.4783 26269.6
 08 03 2013  06 02  -21.0291 26046.1 -03419.0 -07.4783 26269.6
 08 03 2013  06 03  -21.0291 26046.1 -03419.0 -07.4783 26269.6
 08 03 2013  06 04  -21.0290 26046.1 -03419.0 -07.4783 26269.5
 08 03 2013  06 05  -21.0290 26046.1 -03419.0 -07.4783 26269.5
 08 03 2013  06 06  -21.0289 26046.1 -03419.0 -07.4783 26269.5
 08 03 2013  06 07  -21.0288 26046.1 -03419.0 -07.4783 26269.5
 08 03 2013  06 08  -21.0288 26046.2 -03419.1 -07.4785 26269.7
 08 03 2013  06 09  -21.0286 26046.1 -03419.1 -07.4784 26269.6
 08 03 2013  06 10  -21.0285 26045.9 -03419.0 -07.4782 26269.4
 08 03 2013  06 11  -21.0286 26045.9 -03419.0 -07.4783 26269.3
 08 03 2013  06 12  -21.0286 26046.0 -03419.0 -07.4784 26269.5
 08 03 2013  06 13  -21.0288 26046.2 -03419.2 -07.4786 26269.7
 08 03 2013  06 14  -21.0287 26046.1 -03419.1 -07.4785 26269.6
 08 03 2013  06 15  -21.0288 26046.1 -03419.1 -07.4785 26269.5
 08 03 2013  06 16  -21.0292 26046.2 -03419.2 -07.4786 26269.6
 08 03 2013  06 17  -21.0292 26046.4 -03419.3 -07.4788 26269.9
 08 03 2013  06 18  -21.0293 26046.6 -03419.4 -07.4790 26270.1
 08 03 2013  06 19  -21.0294 26046.7 -03419.4 -07.4791 26270.2
 08 03 2013  06 20  -21.0294 26046.7 -03419.4 -07.4790 26270.2
 08 03 2013  06 21  -21.0295 26046.7 -03419.4 -07.4790 26270.2
 08 03 2013  06 22  -21.0295 26046.8 -03419.5 -07.4791 26270.3
 08 03 2013  06 23  -21.0298 26046.9 -03419.5 -07.4792 26270.4
 08 03 2013  06 24  -21.0296 26046.9 -03419.5 -07.4792 26270.4
 08 03 2013  06 25  -21.0295 26046.9 -03419.5 -07.4791 26270.4
 08 03 2013  06 26  -21.0296 26047.3 -03419.7 -07.4794 26270.8
 08 03 2013  06 27  -21.0293 26047.3 -03419.7 -07.4795 26270.8
 08 03 2013  06 28  -21.0291 26047.4 -03419.7 -07.4795 26270.9
 08 03 2013  06 29  -21.0293 26047.8 -03419.9 -07.4797 26271.3
 08 03 2013  06 30  -21.0287 26048.0 -03420.0 -07.4799 26271.5
 08 03 2013  06 31  -21.0283 26047.9 -03419.9 -07.4797 26271.4
 08 03 2013  06 32  -21.0282 26048.0 -03419.9 -07.4796 26271.5
 08 03 2013  06 33  -21.0279 26048.4 -03420.1 -07.4800 26272.0
 08 03 2013  06 34  -21.0272 26048.5 -03420.1 -07.4801 26272.1
 08 03 2013  06 35  -21.0266 26048.5 -03420.1 -07.4801 26272.1
 08 03 2013  06 36  -21.0262 26048.8 -03420.3 -07.4804 26272.4
 08 03 2013  06 37  -21.0257 26048.6 -03420.3 -07.4803 26272.2
 08 03 2013  06 38  -21.0248 26048.0 -03419.9 -07.4797 26271.6
 08 03 2013  06 39  -21.0242 26047.6 -03419.6 -07.4792 26271.1
 08 03 2013  06 40  -21.0243 26047.6 -03419.6 -07.4792 26271.1
 08 03 2013  06 41  -21.0246 26047.2 -03419.5 -07.4791 26270.7
 08 03 2013  06 42  -21.0254 26046.9 -03419.3 -07.4788 26270.3
 08 03 2013  06 43  -21.0262 26046.6 -03419.3 -07.4787 26270.1
 08 03 2013  06 44  -21.0264 26046.5 -03419.2 -07.4786 26270.0
 08 03 2013  06 45  -21.0268 26046.9 -03419.5 -07.4791 26270.4
 08 03 2013  06 46  -21.0270 26047.1 -03419.7 -07.4795 26270.6
 08 03 2013  06 47  -21.0270 26047.2 -03419.8 -07.4797 26270.8
 08 03 2013  06 48  -21.0271 26047.5 -03420.0 -07.4800 26271.1
 08 03 2013  06 49  -21.0269 26047.7 -03420.1 -07.4802 26271.2
 08 03 2013  06 50  -21.0267 26047.7 -03420.1 -07.4802 26271.3
 08 03 2013  06 51  -21.0269 26048.0 -03420.3 -07.4805 26271.6
 08 03 2013  06 52  -21.0272 26048.0 -03420.3 -07.4805 26271.6
 08 03 2013  06 53  -21.0273 26048.1 -03420.3 -07.4806 26271.7
 08 03 2013  06 54  -21.0274 26048.1 -03420.3 -07.4806 26271.7
 08 03 2013  06 55  -21.0277 26048.1 -03420.3 -07.4805 26271.7
 08 03 2013  06 56  -21.0280 26048.0 -03420.2 -07.4804 26271.6
 08 03 2013  06 57  -21.0283 26048.0 -03420.2 -07.4803 26271.6
 08 03 2013  06 58  -21.0288 26048.1 -03420.2 -07.4803 26271.6
 08 03 2013  06 59  -21.0292 26048.1 -03420.1 -07.4802 26271.7
 08 03 2013  07 00  -21.0295 26047.9 -03420.0 -07.4799 26271.5
 08 03 2013  07 01  -21.0296 26047.9 -03420.0 -07.4799 26271.5
 08 03 2013  07 02  -21.0296 26047.7 -03419.8 -07.4796 26271.2
 08 03 2013  07 03  -21.0297 26047.5 -03419.7 -07.4793 26271.0
 08 03 2013  07 04  -21.0299 26047.1 -03419.5 -07.4790 26270.6
 08 03 2013  07 05  -21.0302 26046.9 -03419.3 -07.4787 26270.4
 08 03 2013  07 06  -21.0306 26046.6 -03419.1 -07.4784 26270.1
 08 03 2013  07 07  -21.0310 26046.5 -03419.0 -07.4782 26269.9
 08 03 2013  07 08  -21.0313 26046.4 -03419.0 -07.4782 26269.9
 08 03 2013  07 09  -21.0314 26046.4 -03419.0 -07.4782 26269.9
 08 03 2013  07 10  -21.0316 26046.4 -03419.0 -07.4782 26269.8
 08 03 2013  07 11  -21.0317 26046.5 -03419.1 -07.4784 26270.0
 08 03 2013  07 12  -21.0317 26046.6 -03419.1 -07.4785 26270.0
 08 03 2013  07 13  -21.0317 26046.7 -03419.2 -07.4786 26270.2
 08 03 2013  07 14  -21.0317 26046.7 -03419.2 -07.4786 26270.2
 08 03 2013  07 15  -21.0317 26046.7 -03419.3 -07.4787 26270.2
 08 03 2013  07 16  -21.0315 26046.8 -03419.3 -07.4787 26270.2
 08 03 2013  07 17  -21.0315 26046.8 -03419.3 -07.4788 26270.3
 08 03 2013  07 18  -21.0315 26046.8 -03419.4 -07.4789 26270.3
 08 03 2013  07 19  -21.0315 26046.8 -03419.4 -07.4789 26270.2
 08 03 2013  07 20  -21.0314 26046.7 -03419.4 -07.4789 26270.2
 08 03 2013  07 21  -21.0313 26046.6 -03419.3 -07.4788 26270.1
 08 03 2013  07 22  -21.0312 26046.6 -03419.3 -07.4788 26270.0
 08 03 2013  07 23  -21.0312 26046.6 -03419.3 -07.4788 26270.1
 08 03 2013  07 24  -21.0313 26046.6 -03419.3 -07.4788 26270.0
 08 03 2013  07 25  -21.0314 26046.5 -03419.3 -07.4788 26270.0
 08 03 2013  07 26  -21.0316 26046.5 -03419.3 -07.4788 26270.0
 08 03 2013  07 27  -21.0315 26046.4 -03419.3 -07.4788 26269.9
 08 03 2013  07 28  -21.0315 26046.4 -03419.2 -07.4787 26269.9
 08 03 2013  07 29  -21.0316 26046.5 -03419.3 -07.4787 26270.0
 08 03 2013  07 30  -21.0316 26046.7 -03419.3 -07.4788 26270.2
 08 03 2013  07 31  -21.0315 26046.9 -03419.5 -07.4790 26270.4
 08 03 2013  07 32  -21.0313 26046.9 -03419.5 -07.4791 26270.4
 08 03 2013  07 33  -21.0310 26046.9 -03419.5 -07.4791 26270.4
 08 03 2013  07 34  -21.0307 26046.9 -03419.5 -07.4791 26270.3
 08 03 2013  07 35  -21.0304 26046.8 -03419.5 -07.4791 26270.3
 08 03 2013  07 36  -21.0301 26046.9 -03419.5 -07.4792 26270.4
 08 03 2013  07 37  -21.0297 26047.0 -03419.6 -07.4793 26270.5
 08 03 2013  07 38  -21.0295 26047.0 -03419.6 -07.4793 26270.5
 08 03 2013  07 39  -21.0298 26046.7 -03419.6 -07.4793 26270.2
 08 03 2013  07 40  -21.0293 26047.1 -03419.7 -07.4795 26270.6
 08 03 2013  07 41  -21.0293 26047.1 -03419.7 -07.4795 26270.6
 08 03 2013  07 42  -21.0295 26047.0 -03419.7 -07.4795 26270.5
 08 03 2013  07 43  -21.0293 26047.3 -03419.8 -07.4797 26270.9
 08 03 2013  07 44  -21.0293 26047.4 -03419.9 -07.4798 26270.9
 08 03 2013  07 45  -21.0292 26047.3 -03419.8 -07.4797 26270.8
 08 03 2013  07 46  -21.0290 26047.3 -03419.8 -07.4797 26270.8
 08 03 2013  07 47  -21.0290 26047.3 -03419.8 -07.4797 26270.8
 08 03 2013  07 48  -21.0288 26047.3 -03419.8 -07.4798 26270.9
 08 03 2013  07 49  -21.0288 26047.2 -03419.8 -07.4797 26270.8
 08 03 2013  07 50  -21.0286 26047.3 -03419.8 -07.4798 26270.8
 08 03 2013  07 51  -21.0286 26047.4 -03419.9 -07.4798 26270.9
 08 03 2013  07 52  -21.0289 26047.1 -03419.8 -07.4797 26270.7
 08 03 2013  07 53  -21.0287 26047.3 -03419.8 -07.4797 26270.8
 08 03 2013  07 54  -21.0289 26047.3 -03419.9 -07.4798 26270.9
 08 03 2013  07 55  -21.0289 26047.4 -03419.9 -07.4798 26271.0
 08 03 2013  07 56  -21.0287 26047.6 -03420.0 -07.4800 26271.2
 08 03 2013  07 57  -21.0288 26047.6 -03420.0 -07.4800 26271.1
 08 03 2013  07 58  -21.0288 26047.5 -03420.0 -07.4801 26271.1
 08 03 2013  07 59  -21.0285 26047.6 -03420.0 -07.4801 26271.2
 08 03 2013  08 00  -21.0284 26047.4 -03419.9 -07.4800 26270.9
 08 03 2013  08 01  -21.0283 26047.3 -03419.9 -07.4800 26270.9
 08 03 2013  08 02  -21.0282 26047.3 -03419.9 -07.4800 26270.9
 08 03 2013  08 03  -21.0281 26047.4 -03420.0 -07.4801 26270.9
 08 03 2013  08 04  -21.0283 26047.4 -03420.0 -07.4801 26270.9
 08 03 2013  08 05  -21.0284 26047.4 -03420.1 -07.4802 26271.0
 08 03 2013  08 06  -21.0285 26047.5 -03420.1 -07.4802 26271.0
 08 03 2013  08 07  -21.0286 26047.5 -03420.1 -07.4803 26271.1
 08 03 2013  08 08  -21.0286 26047.4 -03420.1 -07.4804 26271.0
 08 03 2013  08 09  -21.0287 26047.4 -03420.1 -07.4804 26271.0
 08 03 2013  08 10  -21.0286 26047.4 -03420.1 -07.4804 26271.0
 08 03 2013  08 11  -21.0287 26047.4 -03420.1 -07.4804 26271.0
 08 03 2013  08 12  -21.0287 26047.4 -03420.1 -07.4803 26270.9
 08 03 2013  08 13  -21.0286 26047.3 -03420.1 -07.4804 26270.9
 08 03 2013  08 14  -21.0285 26047.4 -03420.1 -07.4804 26270.9
 08 03 2013  08 15  -21.0285 26047.4 -03420.2 -07.4805 26271.0
 08 03 2013  08 16  -21.0284 26047.3 -03420.2 -07.4805 26270.9
 08 03 2013  08 17  -21.0285 26047.3 -03420.2 -07.4805 26270.8
 08 03 2013  08 18  -21.0284 26047.2 -03420.2 -07.4805 26270.8
 08 03 2013  08 19  -21.0285 26047.1 -03420.1 -07.4804 26270.7
 08 03 2013  08 20  -21.0286 26047.0 -03420.1 -07.4804 26270.6
 08 03 2013  08 21  -21.0286 26047.0 -03420.1 -07.4804 26270.6
 08 03 2013  08 22  -21.0286 26047.0 -03420.1 -07.4803 26270.6
 08 03 2013  08 23  -21.0287 26047.2 -03420.2 -07.4806 26270.7
 08 03 2013  08 24  -21.0288 26047.3 -03420.3 -07.4808 26270.9
 08 03 2013  08 25  -21.0288 26047.4 -03420.4 -07.4809 26271.0
 08 03 2013  08 26  -21.0290 26047.4 -03420.4 -07.4810 26271.0
 08 03 2013  08 27  -21.0289 26047.2 -03420.3 -07.4808 26270.8
 08 03 2013  08 28  -21.0289 26047.0 -03420.2 -07.4807 26270.6
 08 03 2013  08 29  -21.0288 26046.9 -03420.1 -07.4805 26270.5
 08 03 2013  08 30  -21.0288 26046.7 -03420.0 -07.4803 26270.3
 08 03 2013  08 31  -21.0289 26046.7 -03420.0 -07.4802 26270.2
 08 03 2013  08 32  -21.0293 26046.8 -03420.0 -07.4803 26270.3
 08 03 2013  08 33  -21.0295 26046.8 -03420.1 -07.4804 26270.4
 08 03 2013  08 34  -21.0297 26046.8 -03420.1 -07.4804 26270.4
 08 03 2013  08 35  -21.0299 26046.8 -03420.1 -07.4804 26270.3
 08 03 2013  08 36  -21.0302 26046.7 -03420.0 -07.4804 26270.3
 08 03 2013  08 37  -21.0304 26046.5 -03420.0 -07.4803 26270.0
 08 03 2013  08 38  -21.0303 26046.3 -03419.8 -07.4800 26269.9
 08 03 2013  08 39  -21.0303 26046.4 -03419.9 -07.4801 26269.9
 08 03 2013  08 40  -21.0304 26046.5 -03420.0 -07.4802 26270.1
 08 03 2013  08 41  -21.0306 26046.7 -03420.1 -07.4804 26270.3
 08 03 2013  08 42  -21.0307 26047.0 -03420.2 -07.4806 26270.5
 08 03 2013  08 43  -21.0309 26047.3 -03420.3 -07.4808 26270.9
 08 03 2013  08 44  -21.0309 26047.0 -03420.2 -07.4806 26270.6
 08 03 2013  08 45  -21.0308 26046.8 -03420.0 -07.4802 26270.3
 08 03 2013  08 46  -21.0309 26046.7 -03419.9 -07.4800 26270.3
 08 03 2013  08 47  -21.0305 26046.4 -03419.7 -07.4797 26270.0
 08 03 2013  08 48  -21.0305 26046.1 -03419.5 -07.4793 26269.6
 08 03 2013  08 49  -21.0307 26045.9 -03419.3 -07.4791 26269.4
 08 03 2013  08 50  -21.0305 26045.7 -03419.3 -07.4789 26269.2
 08 03 2013  08 51  -21.0305 26045.5 -03419.1 -07.4787 26269.0
 08 03 2013  08 52  -21.0303 26045.4 -03419.1 -07.4787 26268.9
 08 03 2013  08 53  -21.0302 26045.4 -03419.1 -07.4787 26268.9
 08 03 2013  08 54  -21.0300 26045.5 -03419.2 -07.4789 26269.0
 08 03 2013  08 55  -21.0301 26045.5 -03419.3 -07.4790 26269.0
 08 03 2013  08 56  -21.0298 26045.9 -03419.5 -07.4793 26269.4
 08 03 2013  08 57  -21.0297 26046.8 -03420.0 -07.4802 26270.3
 08 03 2013  08 58  -21.0298 26047.6 -03420.5 -07.4811 26271.3
 08 03 2013  08 59  -21.0300 26048.1 -03420.8 -07.4815 26271.8
 08 03 2013  09 00  -21.0307 26048.7 -03421.0 -07.4819 26272.4
 08 03 2013  09 01  -21.0305 26048.7 -03421.0 -07.4819 26272.4
 08 03 2013  09 02  -21.0305 26048.3 -03420.7 -07.4813 26271.9
 08 03 2013  09 03  -21.0311 26047.9 -03420.5 -07.4810 26271.5
 08 03 2013  09 04  -21.0319 26047.6 -03420.3 -07.4806 26271.2
 08 03 2013  09 05  -21.0325 26047.4 -03420.1 -07.4803 26271.0
 08 03 2013  09 06  -21.0325 26046.9 -03419.8 -07.4799 26270.4
 08 03 2013  09 07  -21.0330 26046.7 -03419.7 -07.4796 26270.2
 08 03 2013  09 08  -21.0324 26046.8 -03419.8 -07.4799 26270.3
 08 03 2013  09 09  -21.0315 26046.0 -03419.5 -07.4795 26269.5
 08 03 2013  09 10  -21.0321 26045.5 -03419.3 -07.4790 26269.0
 08 03 2013  09 11  -21.0334 26045.3 -03419.3 -07.4791 26268.8
 08 03 2013  09 12  -21.0341 26045.3 -03419.2 -07.4790 26268.8
 08 03 2013  09 13  -21.0343 26045.5 -03419.3 -07.4792 26269.0
 08 03 2013  09 14  -21.0342 26045.7 -03419.4 -07.4793 26269.2
 08 03 2013  09 15  -21.0339 26046.0 -03419.6 -07.4795 26269.5
 08 03 2013  09 16  -21.0337 26046.2 -03419.6 -07.4796 26269.7
 08 03 2013  09 17  -21.0339 26046.5 -03419.8 -07.4799 26270.1
 08 03 2013  09 18  -21.0342 26047.0 -03420.1 -07.4804 26270.6
 08 03 2013  09 19  -21.0341 26047.4 -03420.3 -07.4806 26271.0
 08 03 2013  09 20  -21.0342 26047.6 -03420.3 -07.4807 26271.2
 08 03 2013  09 21  -21.0349 26047.9 -03420.4 -07.4807 26271.5
 08 03 2013  09 22  -21.0362 26048.3 -03420.4 -07.4807 26271.9
 08 03 2013  09 23  -21.0369 26048.7 -03420.5 -07.4809 26272.3
 08 03 2013  09 24  -21.0363 26048.3 -03420.3 -07.4804 26271.9
 08 03 2013  09 25  -21.0365 26048.3 -03420.0 -07.4799 26271.8
 08 03 2013  09 26  -21.0365 26048.2 -03419.9 -07.4797 26271.7
 08 03 2013  09 27  -21.0369 26048.1 -03419.8 -07.4794 26271.6
 08 03 2013  09 28  -21.0375 26048.3 -03419.8 -07.4794 26271.8
 08 03 2013  09 29  -21.0377 26048.2 -03419.7 -07.4792 26271.7
 08 03 2013  09 30  -21.0380 26048.2 -03419.6 -07.4790 26271.7
 08 03 2013  09 31  -21.0383 26048.3 -03419.6 -07.4790 26271.8
 08 03 2013  09 32  -21.0383 26048.3 -03419.6 -07.4790 26271.8
 08 03 2013  09 33  -21.0385 26048.3 -03419.6 -07.4789 26271.8
 08 03 2013  09 34  -21.0390 26048.7 -03419.7 -07.4792 26272.2
 08 03 2013  09 35  -21.0395 26049.0 -03419.9 -07.4794 26272.5
 08 03 2013  09 36  -21.0395 26049.1 -03419.9 -07.4793 26272.6
 08 03 2013  09 37  -21.0398 26049.3 -03419.8 -07.4792 26272.8
 08 03 2013  09 38  -21.0408 26050.0 -03420.1 -07.4795 26273.6
 08 03 2013  09 39  -21.0407 26050.6 -03420.3 -07.4798 26274.2
 08 03 2013  09 40  -21.0406 26050.8 -03420.3 -07.4797 26274.4
 08 03 2013  09 41  -21.0412 26051.4 -03420.4 -07.4798 26275.0
 08 03 2013  09 42  -21.0413 26051.7 -03420.4 -07.4797 26275.2
 08 03 2013  09 43  -21.0414 26051.7 -03420.2 -07.4793 26275.3
 08 03 2013  09 44  -21.0421 26052.0 -03420.1 -07.4790 26275.6
 08 03 2013  09 45  -21.0429 26052.2 -03420.0 -07.4788 26275.7
 08 03 2013  09 46  -21.0436 26052.3 -03419.9 -07.4784 26275.8
 08 03 2013  09 47  -21.0443 26052.1 -03419.6 -07.4780 26275.5
 08 03 2013  09 48  -21.0440 26051.9 -03419.4 -07.4774 26275.4
 08 03 2013  09 49  -21.0442 26051.6 -03419.1 -07.4769 26275.0
 08 03 2013  09 50  -21.0447 26051.5 -03418.9 -07.4765 26274.8
 08 03 2013  09 51  -21.0448 26051.6 -03418.8 -07.4763 26275.0
 08 03 2013  09 52  -21.0452 26051.4 -03418.6 -07.4759 26274.7
 08 03 2013  09 53  -21.0453 26051.3 -03418.5 -07.4756 26274.7
 08 03 2013  09 54  -21.0455 26051.7 -03418.5 -07.4757 26275.0
 08 03 2013  09 55  -21.0460 26051.5 -03418.4 -07.4755 26274.8
 08 03 2013  09 56  -21.0459 26051.8 -03418.5 -07.4755 26275.2
 08 03 2013  09 57  -21.0463 26051.8 -03418.4 -07.4754 26275.1
 08 03 2013  09 58  -21.0468 26051.7 -03418.3 -07.4751 26275.0
 08 03 2013  09 59  -21.0469 26051.8 -03418.2 -07.4749 26275.1
 08 03 2013  10 00  -21.0476 26051.6 -03417.9 -07.4744 26274.9
 08 03 2013  10 01  -21.0477 26051.7 -03417.8 -07.4742 26274.9
 08 03 2013  10 02  -21.0482 26051.4 -03417.7 -07.4739 26274.7
 08 03 2013  10 03  -21.0482 26051.4 -03417.6 -07.4736 26274.6
 08 03 2013  10 04  -21.0483 26051.2 -03417.4 -07.4734 26274.4
 08 03 2013  10 05  -21.0484 26051.0 -03417.2 -07.4731 26274.2
 08 03 2013  10 06  -21.0487 26051.0 -03417.2 -07.4730 26274.2
 08 03 2013  10 07  -21.0492 26051.2 -03417.2 -07.4729 26274.3
 08 03 2013  10 08  -21.0496 26051.2 -03417.2 -07.4728 26274.4
 08 03 2013  10 09  -21.0498 26051.3 -03417.1 -07.4727 26274.5
 08 03 2013  10 10  -21.0500 26051.3 -03417.0 -07.4725 26274.5
 08 03 2013  10 11  -21.0503 26051.4 -03416.9 -07.4723 26274.5
 08 03 2013  10 12  -21.0506 26051.4 -03416.8 -07.4721 26274.5
 08 03 2013  10 13  -21.0507 26051.3 -03416.7 -07.4718 26274.4
 08 03 2013  10 14  -21.0511 26051.5 -03416.7 -07.4717 26274.6
 08 03 2013  10 15  -21.0517 26051.5 -03416.6 -07.4715 26274.6
 08 03 2013  10 16  -21.0522 26051.6 -03416.5 -07.4714 26274.7
 08 03 2013  10 17  -21.0529 26051.5 -03416.4 -07.4711 26274.6
 08 03 2013  10 18  -21.0535 26051.6 -03416.3 -07.4709 26274.6
 08 03 2013  10 19  -21.0541 26051.6 -03416.3 -07.4709 26274.7
 08 03 2013  10 20  -21.0542 26051.7 -03416.3 -07.4708 26274.7
 08 03 2013  10 21  -21.0542 26051.6 -03416.2 -07.4706 26274.7
 08 03 2013  10 22  -21.0542 26051.6 -03416.2 -07.4706 26274.7
 08 03 2013  10 23  -21.0542 26051.8 -03416.2 -07.4706 26274.9
 08 03 2013  10 24  -21.0545 26052.0 -03416.2 -07.4707 26275.1
 08 03 2013  10 25  -21.0546 26052.1 -03416.2 -07.4706 26275.1
 08 03 2013  10 26  -21.0545 26052.3 -03416.3 -07.4706 26275.4
 08 03 2013  10 27  -21.0548 26052.5 -03416.3 -07.4707 26275.6
 08 03 2013  10 28  -21.0548 26052.7 -03416.3 -07.4706 26275.7
 08 03 2013  10 29  -21.0547 26052.6 -03416.1 -07.4702 26275.6
 08 03 2013  10 30  -21.0547 26052.3 -03415.9 -07.4699 26275.3
 08 03 2013  10 31  -21.0546 26052.2 -03415.9 -07.4699 26275.2
 08 03 2013  10 32  -21.0550 26052.4 -03415.9 -07.4699 26275.4
 08 03 2013  10 33  -21.0554 26052.5 -03415.9 -07.4698 26275.5
 08 03 2013  10 34  -21.0556 26052.6 -03415.9 -07.4697 26275.6
 08 03 2013  10 35  -21.0556 26052.7 -03415.8 -07.4695 26275.7
 08 03 2013  10 36  -21.0558 26053.0 -03415.8 -07.4695 26275.9
 08 03 2013  10 37  -21.0558 26053.1 -03415.8 -07.4695 26276.1
 08 03 2013  10 38  -21.0557 26053.3 -03415.9 -07.4695 26276.3
 08 03 2013  10 39  -21.0555 26053.3 -03415.9 -07.4694 26276.3
 08 03 2013  10 40  -21.0555 26053.7 -03416.0 -07.4696 26276.6
 08 03 2013  10 41  -21.0555 26054.0 -03416.1 -07.4698 26277.0
 08 03 2013  10 42  -21.0554 26054.2 -03416.1 -07.4698 26277.2
 08 03 2013  10 43  -21.0551 26054.3 -03416.1 -07.4697 26277.3
 08 03 2013  10 44  -21.0549 26054.4 -03416.1 -07.4696 26277.4
 08 03 2013  10 45  -21.0547 26054.5 -03416.1 -07.4695 26277.5
 08 03 2013  10 46  -21.0544 26054.7 -03416.1 -07.4696 26277.7
 08 03 2013  10 47  -21.0541 26054.8 -03416.1 -07.4695 26277.8
 08 03 2013  10 48  -21.0540 26055.0 -03416.1 -07.4695 26278.0
 08 03 2013  10 49  -21.0540 26055.1 -03416.2 -07.4696 26278.1
 08 03 2013  10 50  -21.0538 26055.2 -03416.2 -07.4697 26278.2
 08 03 2013  10 51  -21.0534 26055.4 -03416.3 -07.4697 26278.4
 08 03 2013  10 52  -21.0533 26055.7 -03416.3 -07.4698 26278.7
 08 03 2013  10 53  -21.0534 26055.5 -03416.3 -07.4698 26278.6
 08 03 2013  10 54  -21.0531 26055.4 -03416.3 -07.4698 26278.4
 08 03 2013  10 55  -21.0529 26055.3 -03416.3 -07.4699 26278.3
 08 03 2013  10 56  -21.0524 26054.7 -03416.1 -07.4696 26277.7
 08 03 2013  10 57  -21.0513 26054.3 -03416.1 -07.4696 26277.3
 08 03 2013  10 58  -21.0512 26053.7 -03416.0 -07.4695 26276.7
 08 03 2013  10 59  -21.0510 26053.8 -03416.1 -07.4699 26276.8
 08 03 2013  11 00  -21.0515 26054.1 -03416.4 -07.4704 26277.2
 08 03 2013  11 01  -21.0524 26054.5 -03416.6 -07.4707 26277.5
 08 03 2013  11 02  -21.0531 26054.9 -03416.8 -07.4711 26278.0
 08 03 2013  11 03  -21.0533 26055.2 -03416.9 -07.4711 26278.3
 08 03 2013  11 04  -21.0534 26054.8 -03416.7 -07.4708 26277.9
 08 03 2013  11 05  -21.0533 26054.6 -03416.7 -07.4708 26277.7
 08 03 2013  11 06  -21.0534 26055.0 -03416.9 -07.4713 26278.1
 08 03 2013  11 07  -21.0536 26055.1 -03417.0 -07.4714 26278.2
 08 03 2013  11 08  -21.0536 26055.1 -03417.1 -07.4716 26278.2
 08 03 2013  11 09  -21.0532 26055.1 -03417.2 -07.4718 26278.3
 08 03 2013  11 10  -21.0529 26054.6 -03417.1 -07.4717 26277.7
 08 03 2013  11 11  -21.0528 26054.5 -03417.2 -07.4721 26277.6
 08 03 2013  11 12  -21.0524 26054.3 -03417.4 -07.4725 26277.5
 08 03 2013  11 13  -21.0522 26054.9 -03417.9 -07.4733 26278.1
 08 03 2013  11 14  -21.0526 26055.4 -03418.2 -07.4739 26278.6
 08 03 2013  11 15  -21.0533 26055.6 -03418.4 -07.4742 26278.9
 08 03 2013  11 16  -21.0538 26055.8 -03418.5 -07.4745 26279.1
 08 03 2013  11 17  -21.0538 26055.7 -03418.5 -07.4745 26279.0
 08 03 2013  11 18  -21.0540 26056.0 -03418.6 -07.4747 26279.3
 08 03 2013  11 19  -21.0540 26055.9 -03418.6 -07.4747 26279.2
 08 03 2013  11 20  -21.0535 26056.1 -03418.7 -07.4747 26279.4
 08 03 2013  11 21  -21.0519 26056.6 -03418.8 -07.4748 26279.9
 08 03 2013  11 22  -21.0502 26057.3 -03418.9 -07.4750 26280.6
 08 03 2013  11 23  -21.0506 26057.6 -03419.0 -07.4750 26280.9
 08 03 2013  11 24  -21.0520 26057.6 -03419.0 -07.4749 26281.0
 08 03 2013  11 25  -21.0528 26057.9 -03419.1 -07.4751 26281.2
 08 03 2013  11 26  -21.0536 26057.9 -03419.1 -07.4752 26281.2
 08 03 2013  11 27  -21.0540 26057.8 -03419.1 -07.4753 26281.2
 08 03 2013  11 28  -21.0538 26058.5 -03419.4 -07.4756 26281.9
 08 03 2013  11 29  -21.0531 26059.4 -03419.6 -07.4758 26282.8
 08 03 2013  11 30  -21.0535 26059.5 -03419.5 -07.4757 26282.9
 08 03 2013  11 31  -21.0529 26059.6 -03419.3 -07.4752 26283.0
 08 03 2013  11 32  -21.0526 26060.2 -03419.4 -07.4751 26283.6
 08 03 2013  11 33  -21.0522 26059.9 -03419.1 -07.4746 26283.3
 08 03 2013  11 34  -21.0523 26060.5 -03419.2 -07.4747 26283.8
 08 03 2013  11 35  -21.0534 26060.0 -03419.0 -07.4743 26283.4
 08 03 2013  11 36  -21.0540 26060.0 -03419.0 -07.4743 26283.3
 08 03 2013  11 37  -21.0541 26060.4 -03419.1 -07.4744 26283.7
 08 03 2013  11 38  -21.0538 26060.6 -03419.0 -07.4743 26283.9
 08 03 2013  11 39  -21.0532 26060.8 -03419.0 -07.4742 26284.1
 08 03 2013  11 40  -21.0529 26060.5 -03419.0 -07.4741 26283.9
 08 03 2013  11 41  -21.0529 26060.2 -03418.9 -07.4740 26283.5
 08 03 2013  11 42  -21.0527 26061.3 -03419.4 -07.4748 26284.6
 08 03 2013  11 43  -21.0527 26061.6 -03419.4 -07.4748 26284.9
 08 03 2013  11 44  -21.0526 26061.9 -03419.5 -07.4748 26285.2
 08 03 2013  11 45  -21.0527 26062.3 -03419.5 -07.4749 26285.6
 08 03 2013  11 46  -21.0527 26062.1 -03419.4 -07.4746 26285.5
 08 03 2013  11 47  -21.0522 26061.9 -03419.2 -07.4743 26285.2
 08 03 2013  11 48  -21.0521 26062.0 -03419.3 -07.4745 26285.3
 08 03 2013  11 49  -21.0522 26062.3 -03419.4 -07.4746 26285.6
 08 03 2013  11 50  -21.0522 26062.5 -03419.4 -07.4745 26285.9
 08 03 2013  11 51  -21.0525 26063.0 -03419.5 -07.4747 26286.4
 08 03 2013  11 52  -21.0529 26063.8 -03419.8 -07.4750 26287.2
 08 03 2013  11 53  -21.0535 26064.1 -03419.8 -07.4749 26287.5
 08 03 2013  11 54  -21.0540 26065.0 -03419.9 -07.4750 26288.4
 08 03 2013  11 55  -21.0545 26065.5 -03419.9 -07.4747 26288.9
 08 03 2013  11 56  -21.0550 26066.1 -03419.9 -07.4745 26289.5
 08 03 2013  11 57  -21.0551 26066.5 -03419.8 -07.4741 26289.9
 08 03 2013  11 58  -21.0558 26066.4 -03419.5 -07.4735 26289.7
 08 03 2013  11 59  -21.0563 26066.6 -03419.4 -07.4733 26289.9
 08 03 2013  12 00  -21.0569 26066.8 -03419.3 -07.4731 26290.1
 08 03 2013  12 01  -21.0574 26066.9 -03419.2 -07.4727 26290.2
 08 03 2013  12 02  -21.0575 26067.3 -03419.2 -07.4726 26290.6
 08 03 2013  12 03  -21.0579 26067.3 -03419.0 -07.4722 26290.6
 08 03 2013  12 04  -21.0582 26067.6 -03418.9 -07.4719 26290.8
 08 03 2013  12 05  -21.0584 26067.4 -03418.7 -07.4715 26290.6
 08 03 2013  12 06  -21.0583 26067.5 -03418.5 -07.4713 26290.7
 08 03 2013  12 07  -21.0583 26068.0 -03418.6 -07.4713 26291.2
 08 03 2013  12 08  -21.0582 26068.9 -03418.8 -07.4714 26292.1
 08 03 2013  12 09  -21.0587 26069.0 -03418.6 -07.4709 26292.2
 08 03 2013  12 10  -21.0595 26068.4 -03418.0 -07.4699 26291.5
 08 03 2013  12 11  -21.0598 26068.6 -03418.0 -07.4697 26291.7
 08 03 2013  12 12  -21.0599 26069.4 -03418.1 -07.4698 26292.5
 08 03 2013  12 13  -21.0596 26069.1 -03417.7 -07.4689 26292.1
 08 03 2013  12 14  -21.0599 26069.5 -03417.6 -07.4687 26292.6
 08 03 2013  12 15  -21.0604 26070.0 -03417.6 -07.4685 26293.0
 08 03 2013  12 16  -21.0605 26070.1 -03417.4 -07.4679 26293.1
 08 03 2013  12 17  -21.0606 26070.6 -03417.2 -07.4675 26293.6
 08 03 2013  12 18  -21.0610 26070.5 -03416.9 -07.4669 26293.5
 08 03 2013  12 19  -21.0616 26070.6 -03416.8 -07.4666 26293.5
 08 03 2013  12 20  -21.0623 26070.0 -03416.4 -07.4659 26292.9
 08 03 2013  12 21  -21.0625 26070.9 -03416.7 -07.4663 26293.8
 08 03 2013  12 22  -21.0627 26070.5 -03416.2 -07.4653 26293.4
 08 03 2013  12 23  -21.0628 26070.4 -03416.0 -07.4648 26293.3
 08 03 2013  12 24  -21.0635 26069.6 -03415.5 -07.4641 26292.4
 08 03 2013  12 25  -21.0633 26071.4 -03416.2 -07.4650 26294.2
 08 03 2013  12 26  -21.0635 26071.5 -03415.9 -07.4644 26294.3
 08 03 2013  12 27  -21.0633 26072.0 -03415.8 -07.4640 26294.8
 08 03 2013  12 28  -21.0635 26071.3 -03415.3 -07.4631 26294.0
 08 03 2013  12 29  -21.0637 26072.6 -03415.7 -07.4636 26295.4
 08 03 2013  12 30  -21.0633 26072.3 -03415.3 -07.4628 26295.1
 08 03 2013  12 31  -21.0635 26072.3 -03415.1 -07.4625 26295.0
 08 03 2013  12 32  -21.0634 26073.7 -03415.6 -07.4630 26296.4
 08 03 2013  12 33  -21.0627 26073.3 -03415.1 -07.4621 26296.0
 08 03 2013  12 34  -21.0628 26074.7 -03415.5 -07.4626 26297.4
 08 03 2013  12 35  -21.0624 26074.6 -03415.1 -07.4618 26297.3
 08 03 2013  12 36  -21.0618 26074.2 -03414.7 -07.4611 26296.9
 08 03 2013  12 37  -21.0625 26074.9 -03415.0 -07.4614 26297.6
 08 03 2013  12 38  -21.0619 26074.4 -03414.5 -07.4606 26297.0
 08 03 2013  12 39  -21.0629 26075.1 -03414.7 -07.4608 26297.7
 08 03 2013  12 40  -21.0629 26073.9 -03414.1 -07.4598 26296.5
 08 03 2013  12 41  -21.0630 26073.8 -03414.1 -07.4599 26296.4
 08 03 2013  12 42  -21.0639 26075.4 -03414.8 -07.4609 26298.1
 08 03 2013  12 43  -21.0636 26074.9 -03414.3 -07.4601 26297.5
 08 03 2013  12 44  -21.0636 26075.5 -03414.5 -07.4603 26298.1
 08 03 2013  12 45  -21.0639 26076.3 -03414.7 -07.4605 26298.9
 08 03 2013  12 46  -21.0640 26077.2 -03414.8 -07.4603 26299.8
 08 03 2013  12 47  -21.0648 26076.7 -03414.3 -07.4594 26299.2
 08 03 2013  12 48  -21.0649 26077.0 -03414.2 -07.4592 26299.5
 08 03 2013  12 49  -21.0661 26078.2 -03414.5 -07.4595 26300.8
 08 03 2013  12 50  -21.0658 26078.8 -03414.4 -07.4590 26301.4
 08 03 2013  12 51  -21.0660 26078.2 -03413.9 -07.4582 26300.7
 08 03 2013  12 52  -21.0662 26078.7 -03413.9 -07.4581 26301.2
 08 03 2013  12 53  -21.0671 26078.9 -03413.8 -07.4577 26301.3
 08 03 2013  12 54  -21.0672 26079.2 -03413.6 -07.4573 26301.7
 08 03 2013  12 55  -21.0681 26080.0 -03413.8 -07.4574 26302.4
 08 03 2013  12 56  -21.0682 26080.2 -03413.5 -07.4568 26302.6
 08 03 2013  12 57  -21.0687 26081.3 -03413.7 -07.4568 26303.7
 08 03 2013  12 58  -21.0687 26081.0 -03413.2 -07.4559 26303.4
 08 03 2013  12 59  -21.0687 26082.0 -03413.4 -07.4559 26304.4
 08 03 2013  13 00  -21.0684 26082.2 -03413.1 -07.4554 26304.6
 08 03 2013  13 01  -21.0691 26083.2 -03413.3 -07.4554 26305.6
 08 03 2013  13 02  -21.0687 26082.9 -03412.8 -07.4544 26305.2
 08 03 2013  13 03  -21.0692 26083.6 -03412.9 -07.4544 26306.0
 08 03 2013  13 04  -21.0690 26083.9 -03412.6 -07.4538 26306.2
 08 03 2013  13 05  -21.0694 26084.4 -03412.5 -07.4535 26306.7
 08 03 2013  13 06  -21.0690 26084.0 -03412.1 -07.4526 26306.2
 08 03 2013  13 07  -21.0698 26084.7 -03412.2 -07.4526 26306.9
 08 03 2013  13 08  -21.0702 26084.5 -03411.8 -07.4519 26306.6
 08 03 2013  13 09  -21.0707 26084.7 -03411.8 -07.4518 26306.9
 08 03 2013  13 10  -21.0708 26085.1 -03411.8 -07.4516 26307.3
 08 03 2013  13 11  -21.0716 26086.4 -03412.1 -07.4519 26308.6
 08 03 2013  13 12  -21.0718 26087.0 -03412.0 -07.4515 26309.2
 08 03 2013  13 13  -21.0722 26087.7 -03411.8 -07.4510 26309.9
 08 03 2013  13 14  -21.0724 26087.8 -03411.4 -07.4501 26309.9
 08 03 2013  13 15  -21.0729 26088.3 -03411.3 -07.4496 26310.4
 08 03 2013  13 16  -21.0735 26088.6 -03411.0 -07.4490 26310.7
 08 03 2013  13 17  -21.0739 26089.0 -03410.9 -07.4486 26311.0
 08 03 2013  13 18  -21.0742 26089.3 -03410.7 -07.4481 26311.3
 08 03 2013  13 19  -21.0744 26089.7 -03410.6 -07.4478 26311.6
 08 03 2013  13 20  -21.0745 26089.6 -03410.3 -07.4472 26311.5
 08 03 2013  13 21  -21.0745 26089.6 -03410.1 -07.4466 26311.5
 08 03 2013  13 22  -21.0744 26089.8 -03409.9 -07.4463 26311.7
 08 03 2013  13 23  -21.0750 26090.5 -03410.1 -07.4464 26312.4
 08 03 2013  13 24  -21.0754 26091.0 -03410.0 -07.4461 26312.9
 08 03 2013  13 25  -21.0757 26091.4 -03409.9 -07.4457 26313.2
 08 03 2013  13 26  -21.0756 26091.3 -03409.6 -07.4452 26313.2
 08 03 2013  13 27  -21.0756 26091.2 -03409.4 -07.4447 26313.0
 08 03 2013  13 28  -21.0755 26091.1 -03409.2 -07.4443 26312.9
 08 03 2013  13 29  -21.0755 26091.1 -03409.0 -07.4439 26312.8
 08 03 2013  13 30  -21.0755 26091.0 -03408.8 -07.4436 26312.7
 08 03 2013  13 31  -21.0754 26091.4 -03408.9 -07.4436 26313.2
 08 03 2013  13 32  -21.0755 26091.7 -03408.8 -07.4434 26313.4
 08 03 2013  13 33  -21.0757 26091.8 -03408.7 -07.4431 26313.6
 08 03 2013  13 34  -21.0759 26092.1 -03408.6 -07.4428 26313.8
 08 03 2013  13 35  -21.0762 26092.0 -03408.4 -07.4424 26313.7
 08 03 2013  13 36  -21.0763 26092.2 -03408.3 -07.4421 26313.8
 08 03 2013  13 37  -21.0768 26092.7 -03408.3 -07.4420 26314.3
 08 03 2013  13 38  -21.0769 26092.8 -03408.1 -07.4414 26314.4
 08 03 2013  13 39  -21.0770 26093.1 -03407.9 -07.4411 26314.7
 08 03 2013  13 40  -21.0771 26093.1 -03407.8 -07.4407 26314.7
 08 03 2013  13 41  -21.0768 26093.2 -03407.6 -07.4404 26314.8
 08 03 2013  13 42  -21.0769 26093.8 -03407.6 -07.4402 26315.4
 08 03 2013  13 43  -21.0769 26094.4 -03407.6 -07.4399 26316.0
 08 03 2013  13 44  -21.0766 26094.9 -03407.5 -07.4395 26316.4
 08 03 2013  13 45  -21.0768 26096.0 -03407.6 -07.4396 26317.5
 08 03 2013  13 46  -21.0768 26096.2 -03407.4 -07.4389 26317.7
 08 03 2013  13 47  -21.0772 26096.6 -03407.3 -07.4386 26318.1
 08 03 2013  13 48  -21.0770 26096.6 -03407.0 -07.4380 26318.0
 08 03 2013  13 49  -21.0769 26097.6 -03407.2 -07.4381 26319.1
 08 03 2013  13 50  -21.0764 26098.1 -03407.0 -07.4377 26319.5
 08 03 2013  13 51  -21.0757 26099.0 -03407.1 -07.4375 26320.5
 08 03 2013  13 52  -21.0746 26099.8 -03406.9 -07.4370 26321.2
 08 03 2013  13 53  -21.0737 26100.2 -03406.6 -07.4362 26321.5
 08 03 2013  13 54  -21.0731 26099.9 -03406.1 -07.4352 26321.2
 08 03 2013  13 55  -21.0732 26099.9 -03405.8 -07.4346 26321.2
 08 03 2013  13 56  -21.0739 26099.7 -03405.5 -07.4339 26320.9
 08 03 2013  13 57  -21.0745 26098.7 -03405.0 -07.4332 26319.9
 08 03 2013  13 58  -21.0750 26098.7 -03405.0 -07.4331 26319.9
 08 03 2013  13 59  -21.0753 26098.6 -03404.9 -07.4330 26319.8
 08 03 2013  14 00  -21.0753 26098.4 -03404.8 -07.4328 26319.6
 08 03 2013  14 01  -21.0752 26098.5 -03404.8 -07.4328 26319.6
 08 03 2013  14 02  -21.0755 26099.3 -03405.1 -07.4332 26320.5
 08 03 2013  14 03  -21.0761 26099.8 -03405.1 -07.4331 26321.0
 08 03 2013  14 04  -21.0764 26099.7 -03404.9 -07.4327 26320.9
 08 03 2013  14 05  -21.0767 26099.9 -03404.8 -07.4323 26321.0
 08 03 2013  14 06  -21.0771 26100.4 -03404.7 -07.4321 26321.5
 08 03 2013  14 07  -21.0772 26100.4 -03404.5 -07.4316 26321.5
 08 03 2013  14 08  -21.0776 26100.8 -03404.4 -07.4313 26321.9
 08 03 2013  14 09  -21.0772 26100.2 -03403.9 -07.4303 26321.3
 08 03 2013  14 10  -21.0773 26100.2 -03403.7 -07.4299 26321.2
 08 03 2013  14 11  -21.0769 26099.6 -03403.3 -07.4293 26320.6
 08 03 2013  14 12  -21.0768 26099.6 -03403.2 -07.4290 26320.6
 08 03 2013  14 13  -21.0764 26099.3 -03402.9 -07.4285 26320.2
 08 03 2013  14 14  -21.0757 26099.2 -03402.8 -07.4283 26320.1
 08 03 2013  14 15  -21.0755 26099.7 -03403.0 -07.4285 26320.6
 08 03 2013  14 16  -21.0750 26099.3 -03402.6 -07.4279 26320.2
 08 03 2013  14 17  -21.0747 26099.5 -03402.6 -07.4278 26320.4
 08 03 2013  14 18  -21.0748 26099.4 -03402.5 -07.4276 26320.3
 08 03 2013  14 19  -21.0744 26099.3 -03402.4 -07.4273 26320.1
 08 03 2013  14 20  -21.0742 26099.6 -03402.4 -07.4273 26320.5
 08 03 2013  14 21  -21.0745 26100.8 -03402.8 -07.4278 26321.7
 08 03 2013  14 22  -21.0740 26100.1 -03402.3 -07.4269 26320.9
 08 03 2013  14 23  -21.0731 26100.2 -03402.2 -07.4267 26321.0
 08 03 2013  14 24  -21.0735 26100.9 -03402.4 -07.4270 26321.7
 08 03 2013  14 25  -21.0731 26100.6 -03402.1 -07.4264 26321.4
 08 03 2013  14 26  -21.0725 26100.3 -03401.9 -07.4260 26321.0
 08 03 2013  14 27  -21.0728 26101.5 -03402.3 -07.4266 26322.3
 08 03 2013  14 28  -21.0716 26100.6 -03401.7 -07.4255 26321.3
 08 03 2013  14 29  -21.0721 26101.6 -03402.1 -07.4260 26322.4
 08 03 2013  14 30  -21.0714 26100.6 -03401.4 -07.4249 26321.3
 08 03 2013  14 31  -21.0712 26101.0 -03401.5 -07.4250 26321.7
 08 03 2013  14 32  -21.0709 26101.2 -03401.5 -07.4249 26321.9
 08 03 2013  14 33  -21.0717 26102.0 -03401.7 -07.4251 26322.8
 08 03 2013  14 34  -21.0706 26100.9 -03401.0 -07.4240 26321.6
 08 03 2013  14 35  -21.0702 26099.9 -03400.7 -07.4234 26320.6
 08 03 2013  14 36  -21.0700 26100.8 -03401.0 -07.4240 26321.4
 08 03 2013  14 37  -21.0702 26101.7 -03401.3 -07.4244 26322.4
 08 03 2013  14 38  -21.0699 26101.4 -03401.1 -07.4239 26322.0
 08 03 2013  14 39  -21.0701 26102.0 -03401.2 -07.4240 26322.6
 08 03 2013  14 40  -21.0690 26101.3 -03400.8 -07.4233 26322.0
 08 03 2013  14 41  -21.0684 26101.2 -03400.7 -07.4231 26321.8
 08 03 2013  14 42  -21.0682 26102.1 -03401.0 -07.4235 26322.8
 08 03 2013  14 43  -21.0670 26100.8 -03400.3 -07.4225 26321.4
 08 03 2013  14 44  -21.0668 26102.0 -03400.9 -07.4234 26322.7
 08 03 2013  14 45  -21.0668 26102.0 -03400.9 -07.4233 26322.6
 08 03 2013  14 46  -21.0661 26101.5 -03400.6 -07.4229 26322.1
 08 03 2013  14 47  -21.0655 26101.3 -03400.5 -07.4228 26321.8
 08 03 2013  14 48  -21.0649 26101.6 -03400.7 -07.4230 26322.2
 08 03 2013  14 49  -21.0647 26101.6 -03400.7 -07.4230 26322.2
 08 03 2013  14 50  -21.0639 26100.6 -03400.1 -07.4221 26321.1
 08 03 2013  14 51  -21.0640 26101.6 -03400.6 -07.4229 26322.1
 08 03 2013  14 52  -21.0633 26101.2 -03400.4 -07.4226 26321.8
 08 03 2013  14 53  -21.0633 26101.3 -03400.4 -07.4225 26321.9
 08 03 2013  14 54  -21.0636 26102.0 -03400.6 -07.4228 26322.5
 08 03 2013  14 55  -21.0634 26101.9 -03400.5 -07.4225 26322.5
 08 03 2013  14 56  -21.0635 26101.7 -03400.3 -07.4222 26322.3
 08 03 2013  14 57  -21.0626 26101.8 -03400.3 -07.4221 26322.3
 08 03 2013  14 58  -21.0618 26101.9 -03400.3 -07.4221 26322.5
 08 03 2013  14 59  -21.0611 26102.0 -03400.3 -07.4220 26322.5
 08 03 2013  15 00  -21.0606 26103.0 -03400.6 -07.4225 26323.5
 08 03 2013  15 01  -21.0606 26102.7 -03400.4 -07.4220 26323.2
 08 03 2013  15 02  -21.0602 26102.7 -03400.2 -07.4217 26323.2
 08 03 2013  15 03  -21.0604 26103.2 -03400.3 -07.4218 26323.7
 08 03 2013  15 04  -21.0598 26102.3 -03399.9 -07.4210 26322.8
 08 03 2013  15 05  -21.0594 26102.1 -03399.7 -07.4208 26322.5
 08 03 2013  15 06  -21.0596 26102.4 -03399.9 -07.4211 26322.9
 08 03 2013  15 07  -21.0602 26103.0 -03400.2 -07.4215 26323.5
 08 03 2013  15 08  -21.0606 26103.3 -03400.1 -07.4213 26323.8
 08 03 2013  15 09  -21.0613 26102.9 -03399.9 -07.4209 26323.4
 08 03 2013  15 10  -21.0614 26102.4 -03399.5 -07.4202 26322.9
 08 03 2013  15 11  -21.0619 26102.4 -03399.5 -07.4202 26322.8
 08 03 2013  15 12  -21.0620 26102.2 -03399.3 -07.4199 26322.6
 08 03 2013  15 13  -21.0621 26102.6 -03399.4 -07.4200 26323.0
 08 03 2013  15 14  -21.0622 26103.0 -03399.4 -07.4200 26323.4
 08 03 2013  15 15  -21.0621 26102.7 -03399.1 -07.4194 26323.1
 08 03 2013  15 16  -21.0621 26102.7 -03399.0 -07.4192 26323.1
 08 03 2013  15 17  -21.0623 26103.3 -03399.2 -07.4192 26323.7
 08 03 2013  15 18  -21.0625 26103.1 -03398.9 -07.4187 26323.5
 08 03 2013  15 19  -21.0627 26103.3 -03398.8 -07.4184 26323.6
 08 03 2013  15 20  -21.0628 26103.1 -03398.5 -07.4179 26323.4
 08 03 2013  15 21  -21.0629 26103.0 -03398.3 -07.4176 26323.3
 08 03 2013  15 22  -21.0630 26102.7 -03398.0 -07.4170 26323.0
 08 03 2013  15 23  -21.0632 26102.8 -03397.9 -07.4167 26323.1
 08 03 2013  15 24  -21.0635 26102.4 -03397.6 -07.4162 26322.6
 08 03 2013  15 25  -21.0636 26102.4 -03397.5 -07.4160 26322.5
 08 03 2013  15 26  -21.0640 26102.5 -03397.5 -07.4160 26322.7
 08 03 2013  15 27  -21.0643 26102.1 -03397.3 -07.4156 26322.3
 08 03 2013  15 28  -21.0644 26102.0 -03397.2 -07.4153 26322.1
 08 03 2013  15 29  -21.0642 26102.2 -03397.2 -07.4153 26322.3
 08 03 2013  15 30  -21.0643 26102.2 -03397.1 -07.4151 26322.3
 08 03 2013  15 31  -21.0644 26102.2 -03397.0 -07.4150 26322.3
 08 03 2013  15 32  -21.0646 26102.1 -03396.9 -07.4148 26322.2
 08 03 2013  15 33  -21.0650 26102.0 -03396.8 -07.4146 26322.1
 08 03 2013  15 34  -21.0654 26101.7 -03396.6 -07.4143 26321.7
 08 03 2013  15 35  -21.0658 26101.6 -03396.5 -07.4140 26321.7
 08 03 2013  15 36  -21.0664 26102.3 -03396.7 -07.4142 26322.4
 08 03 2013  15 37  -21.0669 26102.3 -03396.5 -07.4138 26322.3
 08 03 2013  15 38  -21.0669 26101.4 -03395.9 -07.4128 26321.4
 08 03 2013  15 39  -21.0672 26101.2 -03395.7 -07.4123 26321.2
 08 03 2013  15 40  -21.0680 26101.2 -03395.6 -07.4122 26321.1
 08 03 2013  15 41  -21.0682 26100.6 -03395.3 -07.4116 26320.5
 08 03 2013  15 42  -21.0683 26100.4 -03395.1 -07.4113 26320.3
 08 03 2013  15 43  -21.0689 26100.5 -03395.1 -07.4112 26320.3
 08 03 2013  15 44  -21.0690 26100.2 -03394.8 -07.4108 26320.0
 08 03 2013  15 45  -21.0694 26099.8 -03394.6 -07.4105 26319.6
 08 03 2013  15 46  -21.0696 26099.4 -03394.4 -07.4101 26319.2
 08 03 2013  15 47  -21.0697 26099.0 -03394.2 -07.4097 26318.8
 08 03 2013  15 48  -21.0703 26099.0 -03394.1 -07.4096 26318.8
 08 03 2013  15 49  -21.0706 26098.8 -03393.9 -07.4091 26318.5
 08 03 2013  15 50  -21.0706 26098.3 -03393.5 -07.4085 26318.0
 08 03 2013  15 51  -21.0710 26098.1 -03393.4 -07.4082 26317.8
 08 03 2013  15 52  -21.0710 26097.8 -03393.1 -07.4078 26317.4
 08 03 2013  15 53  -21.0713 26097.9 -03393.1 -07.4076 26317.5
 08 03 2013  15 54  -21.0715 26097.6 -03392.8 -07.4072 26317.2
 08 03 2013  15 55  -21.0717 26097.2 -03392.5 -07.4067 26316.8
 08 03 2013  15 56  -21.0714 26097.1 -03392.4 -07.4063 26316.6
 08 03 2013  15 57  -21.0712 26097.1 -03392.3 -07.4061 26316.7
 08 03 2013  15 58  -21.0714 26097.1 -03392.2 -07.4059 26316.6
 08 03 2013  15 59  -21.0716 26097.2 -03392.1 -07.4057 26316.7
 08 03 2013  16 00  -21.0714 26097.2 -03391.8 -07.4052 26316.7
 08 03 2013  16 01  -21.0717 26097.1 -03391.7 -07.4049 26316.5
 08 03 2013  16 02  -21.0713 26096.5 -03391.3 -07.4041 26315.9
 08 03 2013  16 03  -21.0714 26096.5 -03391.2 -07.4040 26316.0
 08 03 2013  16 04  -21.0714 26096.2 -03391.0 -07.4036 26315.6
 08 03 2013  16 05  -21.0715 26096.6 -03391.0 -07.4036 26316.0
 08 03 2013  16 06  -21.0715 26096.5 -03390.8 -07.4032 26315.8
 08 03 2013  16 07  -21.0713 26096.5 -03390.6 -07.4028 26315.8
 08 03 2013  16 08  -21.0707 26095.7 -03390.1 -07.4019 26315.0
 08 03 2013  16 09  -21.0707 26096.1 -03390.2 -07.4020 26315.4
 08 03 2013  16 10  -21.0708 26096.1 -03390.1 -07.4018 26315.4
 08 03 2013  16 11  -21.0698 26095.5 -03389.7 -07.4011 26314.7
 08 03 2013  16 12  -21.0695 26095.7 -03389.8 -07.4012 26315.0
 08 03 2013  16 13  -21.0690 26095.5 -03389.7 -07.4010 26314.7
 08 03 2013  16 14  -21.0684 26095.6 -03389.7 -07.4010 26314.9
 08 03 2013  16 15  -21.0684 26095.9 -03389.8 -07.4011 26315.1
 08 03 2013  16 16  -21.0675 26095.0 -03389.3 -07.4004 26314.2
 08 03 2013  16 17  -21.0672 26095.8 -03389.7 -07.4009 26315.0
 08 03 2013  16 18  -21.0673 26095.7 -03389.6 -07.4007 26315.0
 08 03 2013  16 19  -21.0671 26095.8 -03389.5 -07.4005 26315.0
 08 03 2013  16 20  -21.0664 26095.0 -03389.1 -07.3998 26314.2
 08 03 2013  16 21  -21.0656 26094.4 -03388.8 -07.3995 26313.5
 08 03 2013  16 22  -21.0647 26094.4 -03388.8 -07.3995 26313.5
 08 03 2013  16 23  -21.0640 26094.0 -03388.7 -07.3994 26313.1
 08 03 2013  16 24  -21.0629 26093.5 -03388.5 -07.3991 26312.6
 08 03 2013  16 25  -21.0619 26092.7 -03388.3 -07.3988 26311.8
 08 03 2013  16 26  -21.0606 26091.5 -03388.0 -07.3985 26310.5
 08 03 2013  16 27  -21.0594 26091.3 -03388.2 -07.3989 26310.4
 08 03 2013  16 28  -21.0590 26091.6 -03388.6 -07.3998 26310.8
 08 03 2013  16 29  -21.0587 26091.4 -03388.7 -07.4001 26310.6
 08 03 2013  16 30  -21.0580 26091.3 -03388.8 -07.4003 26310.4
 08 03 2013  16 31  -21.0575 26091.3 -03389.0 -07.4007 26310.5
 08 03 2013  16 32  -21.0571 26091.1 -03389.0 -07.4008 26310.3
 08 03 2013  16 33  -21.0563 26090.9 -03389.0 -07.4008 26310.1
 08 03 2013  16 34  -21.0558 26090.8 -03389.1 -07.4011 26310.0
 08 03 2013  16 35  -21.0552 26090.9 -03389.3 -07.4014 26310.2
 08 03 2013  16 36  -21.0549 26090.8 -03389.3 -07.4015 26310.0
 08 03 2013  16 37  -21.0548 26090.6 -03389.3 -07.4015 26309.8
 08 03 2013  16 38  -21.0545 26090.9 -03389.4 -07.4017 26310.1
 08 03 2013  16 39  -21.0540 26090.9 -03389.4 -07.4017 26310.1
 08 03 2013  16 40  -21.0533 26090.5 -03389.3 -07.4015 26309.7
 08 03 2013  16 41  -21.0527 26090.5 -03389.3 -07.4015 26309.7
 08 03 2013  16 42  -21.0524 26090.3 -03389.3 -07.4015 26309.6
 08 03 2013  16 43  -21.0519 26090.2 -03389.1 -07.4013 26309.4
 08 03 2013  16 44  -21.0512 26089.7 -03388.9 -07.4010 26308.8
 08 03 2013  16 45  -21.0510 26089.5 -03389.0 -07.4011 26308.7
 08 03 2013  16 46  -21.0504 26088.9 -03388.8 -07.4009 26308.0
 08 03 2013  16 47  -21.0496 26088.6 -03388.8 -07.4010 26307.8
 08 03 2013  16 48  -21.0487 26088.4 -03388.7 -07.4009 26307.5
 08 03 2013  16 49  -21.0485 26088.0 -03388.7 -07.4010 26307.2
 08 03 2013  16 50  -21.0475 26087.7 -03388.7 -07.4010 26306.9
 08 03 2013  16 51  -21.0464 26087.1 -03388.6 -07.4010 26306.2
 08 03 2013  16 52  -21.0462 26087.4 -03388.9 -07.4016 26306.6
 08 03 2013  16 53  -21.0450 26087.0 -03388.8 -07.4015 26306.2
 08 03 2013  16 54  -21.0445 26087.1 -03389.0 -07.4019 26306.3
 08 03 2013  16 55  -21.0442 26087.2 -03389.2 -07.4023 26306.4
 08 03 2013  16 56  -21.0434 26087.0 -03389.2 -07.4023 26306.2
 08 03 2013  16 57  -21.0428 26086.9 -03389.3 -07.4025 26306.2
 08 03 2013  16 58  -21.0421 26086.9 -03389.3 -07.4026 26306.2
 08 03 2013  16 59  -21.0414 26087.0 -03389.5 -07.4029 26306.3
 08 03 2013  17 00  -21.0409 26087.3 -03389.6 -07.4031 26306.6
 08 03 2013  17 01  -21.0398 26087.2 -03389.6 -07.4032 26306.5
 08 03 2013  17 02  -21.0392 26086.7 -03389.5 -07.4031 26306.0
 08 03 2013  17 03  -21.0386 26086.5 -03389.6 -07.4033 26305.8
 08 03 2013  17 04  -21.0378 26086.5 -03389.8 -07.4037 26305.8
 08 03 2013  17 05  -21.0371 26086.5 -03390.0 -07.4041 26305.8
 08 03 2013  17 06  -21.0367 26086.2 -03390.0 -07.4044 26305.5
 08 03 2013  17 07  -21.0363 26085.9 -03390.2 -07.4048 26305.3
 08 03 2013  17 08  -21.0360 26085.9 -03390.3 -07.4051 26305.3
 08 03 2013  17 09  -21.0354 26085.7 -03390.4 -07.4054 26305.1
 08 03 2013  17 10  -21.0354 26085.8 -03390.7 -07.4060 26305.3
 08 03 2013  17 11  -21.0352 26085.4 -03390.8 -07.4061 26304.9
 08 03 2013  17 12  -21.0343 26085.0 -03390.8 -07.4063 26304.4
 08 03 2013  17 13  -21.0337 26085.0 -03391.1 -07.4070 26304.5
 08 03 2013  17 14  -21.0342 26085.1 -03391.5 -07.4078 26304.6
 08 03 2013  17 15  -21.0332 26084.7 -03391.5 -07.4079 26304.3
 08 03 2013  17 16  -21.0328 26084.3 -03391.6 -07.4084 26303.9
 08 03 2013  17 17  -21.0326 26084.5 -03392.1 -07.4093 26304.2
 08 03 2013  17 18  -21.0320 26084.2 -03392.2 -07.4097 26303.8
 08 03 2013  17 19  -21.0310 26083.9 -03392.4 -07.4102 26303.5
 08 03 2013  17 20  -21.0305 26084.0 -03392.9 -07.4112 26303.8
 08 03 2013  17 21  -21.0306 26083.9 -03393.2 -07.4119 26303.7
 08 03 2013  17 22  -21.0307 26084.2 -03393.6 -07.4125 26304.0
 08 03 2013  17 23  -21.0314 26084.3 -03393.8 -07.4130 26304.1
 08 03 2013  17 24  -21.0309 26083.9 -03393.8 -07.4131 26303.8
 08 03 2013  17 25  -21.0301 26083.8 -03394.0 -07.4136 26303.7
 08 03 2013  17 26  -21.0304 26084.3 -03394.6 -07.4148 26304.3
 08 03 2013  17 27  -21.0308 26084.6 -03395.0 -07.4155 26304.6
 08 03 2013  17 28  -21.0305 26084.9 -03395.3 -07.4161 26304.9
 08 03 2013  17 29  -21.0311 26085.3 -03395.7 -07.4169 26305.4
 08 03 2013  17 30  -21.0312 26085.7 -03396.0 -07.4174 26305.8
 08 03 2013  17 31  -21.0320 26085.6 -03396.0 -07.4175 26305.8
 08 03 2013  17 32  -21.0323 26085.1 -03395.9 -07.4172 26305.2
 08 03 2013  17 33  -21.0320 26084.9 -03396.0 -07.4177 26305.1
 08 03 2013  17 34  -21.0321 26084.8 -03396.1 -07.4179 26304.9
 08 03 2013  17 35  -21.0321 26084.5 -03396.1 -07.4178 26304.7
 08 03 2013  17 36  -21.0320 26084.4 -03396.2 -07.4181 26304.5
 08 03 2013  17 37  -21.0321 26084.1 -03396.2 -07.4183 26304.3
 08 03 2013  17 38  -21.0320 26083.2 -03396.0 -07.4180 26303.3
 08 03 2013  17 39  -21.0320 26082.9 -03396.0 -07.4182 26303.1
 08 03 2013  17 40  -21.0322 26082.4 -03396.0 -07.4183 26302.5
 08 03 2013  17 41  -21.0321 26082.1 -03396.2 -07.4187 26302.3
 08 03 2013  17 42  -21.0329 26082.8 -03396.7 -07.4197 26303.1
 08 03 2013  17 43  -21.0336 26082.9 -03396.9 -07.4201 26303.1
 08 03 2013  17 44  -21.0340 26082.3 -03396.8 -07.4200 26302.5
 08 03 2013  17 45  -21.0346 26082.9 -03397.2 -07.4207 26303.2
 08 03 2013  17 46  -21.0350 26082.9 -03397.2 -07.4207 26303.2
 08 03 2013  17 47  -21.0348 26082.9 -03397.1 -07.4206 26303.2
 08 03 2013  17 48  -21.0353 26082.8 -03397.1 -07.4206 26303.1
 08 03 2013  17 49  -21.0360 26082.5 -03397.0 -07.4205 26302.7
 08 03 2013  17 50  -21.0362 26082.3 -03396.9 -07.4204 26302.6
 08 03 2013  17 51  -21.0364 26081.7 -03396.8 -07.4202 26302.0
 08 03 2013  17 52  -21.0366 26081.9 -03396.9 -07.4203 26302.2
 08 03 2013  17 53  -21.0368 26081.3 -03396.7 -07.4201 26301.6
 08 03 2013  17 54  -21.0371 26081.4 -03396.8 -07.4203 26301.6
 08 03 2013  17 55  -21.0378 26081.8 -03397.0 -07.4207 26302.1
 08 03 2013  17 56  -21.0383 26081.4 -03396.9 -07.4205 26301.7
 08 03 2013  17 57  -21.0387 26081.3 -03396.8 -07.4204 26301.5
 08 03 2013  17 58  -21.0393 26081.3 -03396.9 -07.4205 26301.5
 08 03 2013  17 59  -21.0395 26081.0 -03396.7 -07.4203 26301.3
 08 03 2013  18 00  -21.0396 26081.1 -03396.9 -07.4205 26301.4
 08 03 2013  18 01  -21.0402 26080.7 -03396.8 -07.4205 26301.0
 08 03 2013  18 02  -21.0405 26080.5 -03396.7 -07.4203 26300.8
 08 03 2013  18 03  -21.0412 26080.3 -03396.6 -07.4201 26300.6
 08 03 2013  18 04  -21.0420 26079.9 -03396.3 -07.4198 26300.1
 08 03 2013  18 05  -21.0423 26079.4 -03396.1 -07.4194 26299.6
 08 03 2013  18 06  -21.0427 26078.8 -03395.8 -07.4190 26299.0
 08 03 2013  18 07  -21.0432 26078.4 -03395.7 -07.4188 26298.5
 08 03 2013  18 08  -21.0435 26077.9 -03395.5 -07.4185 26298.1
 08 03 2013  18 09  -21.0434 26077.6 -03395.4 -07.4185 26297.7
 08 03 2013  18 10  -21.0433 26077.7 -03395.6 -07.4187 26297.8
 08 03 2013  18 11  -21.0435 26077.7 -03395.6 -07.4188 26297.9
 08 03 2013  18 12  -21.0437 26078.1 -03395.8 -07.4191 26298.3
 08 03 2013  18 13  -21.0442 26078.3 -03395.9 -07.4192 26298.5
 08 03 2013  18 14  -21.0446 26078.4 -03395.8 -07.4191 26298.6
 08 03 2013  18 15  -21.0447 26078.6 -03395.8 -07.4190 26298.8
 08 03 2013  18 16  -21.0452 26078.6 -03395.7 -07.4187 26298.8
 08 03 2013  18 17  -21.0456 26078.4 -03395.5 -07.4183 26298.5
 08 03 2013  18 18  -21.0451 26078.0 -03395.2 -07.4179 26298.1
 08 03 2013  18 19  -21.0454 26078.3 -03395.3 -07.4180 26298.4
 08 03 2013  18 20  -21.0462 26078.2 -03395.2 -07.4178 26298.3
 08 03 2013  18 21  -21.0462 26077.6 -03394.7 -07.4169 26297.6
 08 03 2013  18 22  -21.0463 26077.3 -03394.5 -07.4165 26297.3
 08 03 2013  18 23  -21.0467 26077.2 -03394.4 -07.4164 26297.2
 08 03 2013  18 24  -21.0471 26076.8 -03394.1 -07.4159 26296.7
 08 03 2013  18 25  -21.0471 26076.4 -03393.9 -07.4154 26296.3
 08 03 2013  18 26  -21.0473 26076.1 -03393.7 -07.4151 26296.0
 08 03 2013  18 27  -21.0476 26075.6 -03393.4 -07.4146 26295.4
 08 03 2013  18 28  -21.0476 26074.9 -03393.0 -07.4140 26294.8
 08 03 2013  18 29  -21.0475 26074.9 -03393.0 -07.4139 26294.7
 08 03 2013  18 30  -21.0476 26074.8 -03392.9 -07.4138 26294.6
 08 03 2013  18 31  -21.0475 26074.5 -03392.7 -07.4135 26294.3
 08 03 2013  18 32  -21.0476 26074.9 -03392.9 -07.4136 26294.7
 08 03 2013  18 33  -21.0478 26074.7 -03392.7 -07.4134 26294.5
 08 03 2013  18 34  -21.0474 26075.2 -03392.9 -07.4136 26295.0
 08 03 2013  18 35  -21.0475 26076.0 -03393.2 -07.4141 26295.8
 08 03 2013  18 36  -21.0483 26076.2 -03393.2 -07.4139 26296.0
 08 03 2013  18 37  -21.0482 26076.5 -03393.0 -07.4136 26296.3
 08 03 2013  18 38  -21.0483 26077.0 -03393.0 -07.4134 26296.8
 08 03 2013  18 39  -21.0487 26076.2 -03392.5 -07.4125 26296.0
 08 03 2013  18 40  -21.0484 26076.3 -03392.4 -07.4122 26296.0
 08 03 2013  18 41  -21.0486 26076.5 -03392.3 -07.4120 26296.2
 08 03 2013  18 42  -21.0489 26075.8 -03391.8 -07.4112 26295.5
 08 03 2013  18 43  -21.0484 26075.7 -03391.6 -07.4108 26295.3
 08 03 2013  18 44  -21.0484 26075.5 -03391.5 -07.4105 26295.2
 08 03 2013  18 45  -21.0484 26074.8 -03391.1 -07.4098 26294.4
 08 03 2013  18 46  -21.0480 26075.0 -03391.1 -07.4098 26294.6
 08 03 2013  18 47  -21.0479 26074.7 -03390.9 -07.4095 26294.3
 08 03 2013  18 48  -21.0478 26074.5 -03390.8 -07.4093 26294.0
 08 03 2013  18 49  -21.0476 26074.1 -03390.6 -07.4090 26293.6
 08 03 2013  18 50  -21.0478 26074.1 -03390.6 -07.4090 26293.7
 08 03 2013  18 51  -21.0479 26073.9 -03390.5 -07.4088 26293.4
 08 03 2013  18 52  -21.0475 26073.3 -03390.2 -07.4084 26292.8
 08 03 2013  18 53  -21.0473 26073.1 -03390.2 -07.4083 26292.6
 08 03 2013  18 54  -21.0471 26073.1 -03390.3 -07.4085 26292.6
 08 03 2013  18 55  -21.0470 26072.6 -03390.1 -07.4083 26292.0
 08 03 2013  18 56  -21.0466 26072.1 -03389.9 -07.4080 26291.6
 08 03 2013  18 57  -21.0462 26071.9 -03389.8 -07.4080 26291.3
 08 03 2013  18 58  -21.0459 26071.8 -03389.9 -07.4080 26291.2
 08 03 2013  18 59  -21.0457 26071.5 -03389.8 -07.4079 26291.0
 08 03 2013  19 00  -21.0454 26071.5 -03389.8 -07.4080 26290.9
 08 03 2013  19 01  -21.0453 26071.6 -03389.9 -07.4082 26291.0
 08 03 2013  19 02  -21.0450 26071.4 -03389.9 -07.4081 26290.8
 08 03 2013  19 03  -21.0443 26071.2 -03389.9 -07.4082 26290.6
 08 03 2013  19 04  -21.0439 26071.3 -03390.0 -07.4084 26290.7
 08 03 2013  19 05  -21.0431 26071.3 -03390.0 -07.4086 26290.8
 08 03 2013  19 06  -21.0426 26071.2 -03390.1 -07.4087 26290.6
 08 03 2013  19 07  -21.0420 26071.1 -03390.1 -07.4087 26290.6
 08 03 2013  19 08  -21.0413 26071.1 -03390.1 -07.4088 26290.6
 08 03 2013  19 09  -21.0410 26071.1 -03390.2 -07.4090 26290.6
 08 03 2013  19 10  -21.0408 26071.1 -03390.3 -07.4092 26290.6
 08 03 2013  19 11  -21.0414 26070.8 -03390.2 -07.4090 26290.3
 08 03 2013  19 12  -21.0410 26069.9 -03389.7 -07.4081 26289.3
 08 03 2013  19 13  -21.0406 26069.1 -03389.5 -07.4080 26288.6
 08 03 2013  19 14  -21.0407 26068.3 -03389.3 -07.4078 26287.7
 08 03 2013  19 15  -21.0404 26067.3 -03389.0 -07.4074 26286.7
 08 03 2013  19 16  -21.0401 26066.6 -03388.8 -07.4072 26285.9
 08 03 2013  19 17  -21.0398 26065.9 -03388.7 -07.4071 26285.2
 08 03 2013  19 18  -21.0392 26065.3 -03388.7 -07.4074 26284.7
 08 03 2013  19 19  -21.0385 26064.7 -03388.8 -07.4077 26284.1
 08 03 2013  19 20  -21.0379 26064.5 -03388.9 -07.4081 26283.9
 08 03 2013  19 21  -21.0374 26064.4 -03389.1 -07.4085 26283.8
 08 03 2013  19 22  -21.0365 26064.1 -03389.2 -07.4087 26283.5
 08 03 2013  19 23  -21.0360 26064.0 -03389.3 -07.4091 26283.4
 08 03 2013  19 24  -21.0353 26063.7 -03389.4 -07.4094 26283.2
 08 03 2013  19 25  -21.0347 26063.5 -03389.6 -07.4098 26282.9
 08 03 2013  19 26  -21.0342 26063.5 -03389.8 -07.4103 26283.0
 08 03 2013  19 27  -21.0342 26063.4 -03390.1 -07.4108 26283.0
 08 03 2013  19 28  -21.0339 26063.3 -03390.2 -07.4112 26282.9
 08 03 2013  19 29  -21.0335 26063.1 -03390.3 -07.4114 26282.7
 08 03 2013  19 30  -21.0330 26062.8 -03390.3 -07.4116 26282.4
 08 03 2013  19 31  -21.0326 26062.7 -03390.5 -07.4120 26282.3
 08 03 2013  19 32  -21.0323 26062.8 -03390.8 -07.4125 26282.4
 08 03 2013  19 33  -21.0321 26062.3 -03390.7 -07.4126 26281.9
 08 03 2013  19 34  -21.0312 26061.8 -03390.7 -07.4127 26281.5
 08 03 2013  19 35  -21.0306 26061.4 -03390.8 -07.4130 26281.1
 08 03 2013  19 36  -21.0304 26061.4 -03391.1 -07.4136 26281.1
 08 03 2013  19 37  -21.0300 26061.2 -03391.3 -07.4142 26280.9
 08 03 2013  19 38  -21.0294 26061.5 -03391.8 -07.4151 26281.3
 08 03 2013  19 39  -21.0299 26061.3 -03392.0 -07.4157 26281.1
 08 03 2013  19 40  -21.0297 26061.1 -03392.1 -07.4160 26280.9
 08 03 2013  19 41  -21.0294 26060.7 -03392.2 -07.4162 26280.5
 08 03 2013  19 42  -21.0290 26060.8 -03392.5 -07.4168 26280.7
 08 03 2013  19 43  -21.0287 26060.6 -03392.7 -07.4174 26280.5
 08 03 2013  19 44  -21.0281 26060.4 -03392.9 -07.4179 26280.3
 08 03 2013  19 45  -21.0280 26059.6 -03392.9 -07.4180 26279.5
 08 03 2013  19 46  -21.0279 26059.5 -03393.1 -07.4184 26279.5
 08 03 2013  19 47  -21.0279 26059.1 -03393.1 -07.4187 26279.0
 08 03 2013  19 48  -21.0278 26058.9 -03393.4 -07.4193 26278.9
 08 03 2013  19 49  -21.0274 26058.9 -03393.7 -07.4200 26278.9
 08 03 2013  19 50  -21.0272 26058.5 -03393.9 -07.4205 26278.5
 08 03 2013  19 51  -21.0272 26058.4 -03394.2 -07.4211 26278.5
 08 03 2013  19 52  -21.0273 26058.2 -03394.3 -07.4216 26278.3
 08 03 2013  19 53  -21.0273 26057.5 -03394.4 -07.4219 26277.7
 08 03 2013  19 54  -21.0269 26057.8 -03394.8 -07.4228 26278.0
 08 03 2013  19 55  -21.0268 26057.3 -03395.0 -07.4232 26277.5
 08 03 2013  19 56  -21.0268 26057.0 -03395.2 -07.4237 26277.3
 08 03 2013  19 57  -21.0269 26056.8 -03395.4 -07.4242 26277.1
 08 03 2013  19 58  -21.0269 26056.4 -03395.5 -07.4246 26276.7
 08 03 2013  19 59  -21.0269 26055.8 -03395.7 -07.4251 26276.1
 08 03 2013  20 00  -21.0267 26055.3 -03395.8 -07.4256 26275.7
 08 03 2013  20 01  -21.0267 26055.2 -03396.1 -07.4262 26275.6
 08 03 2013  20 02  -21.0268 26055.1 -03396.4 -07.4268 26275.5
 08 03 2013  20 03  -21.0268 26054.7 -03396.6 -07.4274 26275.2
 08 03 2013  20 04  -21.0267 26054.4 -03396.8 -07.4278 26274.9
 08 03 2013  20 05  -21.0268 26054.0 -03396.9 -07.4283 26274.5
 08 03 2013  20 06  -21.0266 26053.7 -03397.1 -07.4287 26274.3
 08 03 2013  20 07  -21.0266 26053.5 -03397.4 -07.4295 26274.1
 08 03 2013  20 08  -21.0265 26053.1 -03397.6 -07.4299 26273.7
 08 03 2013  20 09  -21.0263 26052.9 -03397.8 -07.4306 26273.6
 08 03 2013  20 10  -21.0263 26052.5 -03398.0 -07.4311 26273.1
 08 03 2013  20 11  -21.0261 26052.4 -03398.3 -07.4316 26273.1
 08 03 2013  20 12  -21.0261 26052.2 -03398.5 -07.4322 26272.9
 08 03 2013  20 13  -21.0259 26052.1 -03398.8 -07.4328 26272.8
 08 03 2013  20 14  -21.0259 26052.0 -03399.0 -07.4335 26272.8
 08 03 2013  20 15  -21.0258 26051.9 -03399.3 -07.4340 26272.7
 08 03 2013  20 16  -21.0257 26051.8 -03399.6 -07.4346 26272.7
 08 03 2013  20 17  -21.0255 26051.7 -03399.8 -07.4351 26272.6
 08 03 2013  20 18  -21.0252 26051.7 -03400.0 -07.4356 26272.7
 08 03 2013  20 19  -21.0249 26051.7 -03400.4 -07.4364 26272.7
 08 03 2013  20 20  -21.0245 26051.9 -03400.7 -07.4372 26272.9
 08 03 2013  20 21  -21.0243 26051.7 -03401.0 -07.4378 26272.8
 08 03 2013  20 22  -21.0239 26051.9 -03401.3 -07.4384 26273.0
 08 03 2013  20 23  -21.0237 26051.8 -03401.5 -07.4388 26273.0
 08 03 2013  20 24  -21.0234 26051.9 -03401.8 -07.4394 26273.0
 08 03 2013  20 25  -21.0232 26051.9 -03402.1 -07.4401 26273.1
 08 03 2013  20 26  -21.0231 26051.8 -03402.3 -07.4406 26273.1
 08 03 2013  20 27  -21.0232 26051.4 -03402.4 -07.4409 26272.7
 08 03 2013  20 28  -21.0233 26051.3 -03402.6 -07.4413 26272.6
 08 03 2013  20 29  -21.0234 26051.1 -03402.7 -07.4417 26272.4
 08 03 2013  20 30  -21.0234 26050.7 -03402.8 -07.4420 26272.0
 08 03 2013  20 31  -21.0233 26050.6 -03403.0 -07.4424 26271.9
 08 03 2013  20 32  -21.0232 26050.3 -03403.1 -07.4428 26271.7
 08 03 2013  20 33  -21.0232 26050.4 -03403.4 -07.4433 26271.8
 08 03 2013  20 34  -21.0232 26050.5 -03403.7 -07.4440 26271.9
 08 03 2013  20 35  -21.0231 26050.6 -03404.0 -07.4445 26272.1
 08 03 2013  20 36  -21.0229 26050.8 -03404.3 -07.4452 26272.2
 08 03 2013  20 37  -21.0229 26050.5 -03404.5 -07.4456 26272.1
 08 03 2013  20 38  -21.0228 26050.4 -03404.6 -07.4459 26272.0
 08 03 2013  20 39  -21.0226 26050.6 -03404.9 -07.4465 26272.2
 08 03 2013  20 40  -21.0227 26050.8 -03405.2 -07.4471 26272.4
 08 03 2013  20 41  -21.0229 26050.7 -03405.3 -07.4474 26272.3
 08 03 2013  20 42  -21.0228 26050.8 -03405.6 -07.4480 26272.5
 08 03 2013  20 43  -21.0229 26050.7 -03405.8 -07.4484 26272.3
 08 03 2013  20 44  -21.0230 26050.8 -03406.0 -07.4489 26272.5
 08 03 2013  20 45  -21.0233 26050.4 -03406.0 -07.4490 26272.1
 08 03 2013  20 46  -21.0232 26050.6 -03406.3 -07.4495 26272.4
 08 03 2013  20 47  -21.0232 26050.7 -03406.5 -07.4499 26272.4
 08 03 2013  20 48  -21.0233 26050.5 -03406.6 -07.4502 26272.3
 08 03 2013  20 49  -21.0232 26050.6 -03406.7 -07.4505 26272.4
 08 03 2013  20 50  -21.0233 26050.6 -03406.8 -07.4507 26272.4
 08 03 2013  20 51  -21.0234 26050.7 -03407.1 -07.4512 26272.6
 08 03 2013  20 52  -21.0235 26050.8 -03407.2 -07.4515 26272.7
 08 03 2013  20 53  -21.0234 26051.0 -03407.5 -07.4520 26272.9
 08 03 2013  20 54  -21.0236 26051.0 -03407.6 -07.4523 26273.0
 08 03 2013  20 55  -21.0238 26051.0 -03407.7 -07.4524 26272.9
 08 03 2013  20 56  -21.0239 26051.0 -03407.8 -07.4527 26273.0
 08 03 2013  20 57  -21.0242 26050.9 -03407.9 -07.4530 26272.8
 08 03 2013  20 58  -21.0242 26050.9 -03408.0 -07.4532 26272.9
 08 03 2013  20 59  -21.0245 26050.6 -03408.0 -07.4533 26272.6
 08 03 2013  21 00  -21.0248 26050.5 -03408.1 -07.4535 26272.5
 08 03 2013  21 01  -21.0250 26050.4 -03408.2 -07.4537 26272.4
 08 03 2013  21 02  -21.0251 26050.2 -03408.2 -07.4538 26272.2
 08 03 2013  21 03  -21.0251 26050.3 -03408.3 -07.4541 26272.3
 08 03 2013  21 04  -21.0252 26050.2 -03408.4 -07.4542 26272.2
 08 03 2013  21 05  -21.0253 26050.1 -03408.5 -07.4544 26272.2
 08 03 2013  21 06  -21.0253 26050.1 -03408.5 -07.4545 26272.1
 08 03 2013  21 07  -21.0255 26050.0 -03408.6 -07.4547 26272.1
 08 03 2013  21 08  -21.0255 26050.1 -03408.7 -07.4549 26272.1
 08 03 2013  21 09  -21.0254 26050.2 -03408.9 -07.4553 26272.2
 08 03 2013  21 10  -21.0256 26050.0 -03409.0 -07.4555 26272.1
 08 03 2013  21 11  -21.0255 26050.0 -03409.1 -07.4558 26272.1
 08 03 2013  21 12  -21.0256 26050.0 -03409.2 -07.4560 26272.1
 08 03 2013  21 13  -21.0255 26050.0 -03409.3 -07.4563 26272.2
 08 03 2013  21 14  -21.0256 26050.0 -03409.5 -07.4566 26272.2
 08 03 2013  21 15  -21.0258 26050.0 -03409.6 -07.4569 26272.2
 08 03 2013  21 16  -21.0258 26050.1 -03409.8 -07.4573 26272.3
 08 03 2013  21 17  -21.0260 26049.9 -03409.9 -07.4574 26272.1
 08 03 2013  21 18  -21.0263 26049.8 -03409.9 -07.4577 26272.0
 08 03 2013  21 19  -21.0265 26049.6 -03410.0 -07.4578 26271.8
 08 03 2013  21 20  -21.0269 26049.4 -03410.0 -07.4579 26271.6
 08 03 2013  21 21  -21.0270 26049.3 -03410.1 -07.4581 26271.6
 08 03 2013  21 22  -21.0271 26049.3 -03410.2 -07.4583 26271.6
 08 03 2013  21 23  -21.0271 26049.5 -03410.3 -07.4585 26271.8
 08 03 2013  21 24  -21.0273 26049.5 -03410.4 -07.4587 26271.8
 08 03 2013  21 25  -21.0276 26049.5 -03410.6 -07.4591 26271.8
 08 03 2013  21 26  -21.0277 26049.3 -03410.5 -07.4591 26271.6
 08 03 2013  21 27  -21.0279 26049.3 -03410.6 -07.4592 26271.6
 08 03 2013  21 28  -21.0281 26049.2 -03410.6 -07.4593 26271.5
 08 03 2013  21 29  -21.0281 26049.2 -03410.7 -07.4595 26271.6
 08 03 2013  21 30  -21.0284 26049.2 -03410.8 -07.4597 26271.6
 08 03 2013  21 31  -21.0285 26049.2 -03410.9 -07.4599 26271.6
 08 03 2013  21 32  -21.0284 26049.3 -03411.0 -07.4600 26271.7
 08 03 2013  21 33  -21.0284 26049.4 -03411.0 -07.4601 26271.8
 08 03 2013  21 34  -21.0283 26049.4 -03411.1 -07.4602 26271.8
 08 03 2013  21 35  -21.0283 26049.4 -03411.2 -07.4605 26271.8
 08 03 2013  21 36  -21.0284 26049.5 -03411.3 -07.4607 26271.9
 08 03 2013  21 37  -21.0284 26049.6 -03411.4 -07.4609 26272.0
 08 03 2013  21 38  -21.0285 26049.6 -03411.5 -07.4612 26272.0
 08 03 2013  21 39  -21.0285 26049.7 -03411.6 -07.4613 26272.2
 08 03 2013  21 40  -21.0285 26049.7 -03411.7 -07.4615 26272.2
 08 03 2013  21 41  -21.0285 26049.8 -03411.8 -07.4617 26272.3
 08 03 2013  21 42  -21.0285 26050.0 -03412.0 -07.4620 26272.5
 08 03 2013  21 43  -21.0285 26050.2 -03412.1 -07.4623 26272.7
 08 03 2013  21 44  -21.0285 26050.2 -03412.2 -07.4624 26272.7
 08 03 2013  21 45  -21.0286 26050.2 -03412.3 -07.4626 26272.7
 08 03 2013  21 46  -21.0287 26050.1 -03412.3 -07.4627 26272.7
 08 03 2013  21 47  -21.0288 26050.2 -03412.4 -07.4629 26272.7
 08 03 2013  21 48  -21.0289 26050.3 -03412.6 -07.4632 26272.8
 08 03 2013  21 49  -21.0290 26050.4 -03412.7 -07.4634 26272.9
 08 03 2013  21 50  -21.0290 26050.3 -03412.8 -07.4636 26272.9
 08 03 2013  21 51  -21.0290 26050.3 -03412.8 -07.4638 26272.9
 08 03 2013  21 52  -21.0291 26050.4 -03412.9 -07.4640 26273.0
 08 03 2013  21 53  -21.0292 26050.4 -03413.0 -07.4641 26273.0
 08 03 2013  21 54  -21.0293 26050.4 -03413.1 -07.4643 26273.0
 08 03 2013  21 55  -21.0293 26050.2 -03413.1 -07.4645 26272.9
 08 03 2013  21 56  -21.0293 26050.2 -03413.2 -07.4646 26272.9
 08 03 2013  21 57  -21.0293 26050.3 -03413.3 -07.4648 26273.0
 08 03 2013  21 58  -21.0293 26050.4 -03413.4 -07.4651 26273.0
 08 03 2013  21 59  -21.0293 26050.4 -03413.5 -07.4652 26273.1
 08 03 2013  22 00  -21.0293 26050.3 -03413.6 -07.4654 26273.0
 08 03 2013  22 01  -21.0293 26050.2 -03413.6 -07.4654 26273.0
 08 03 2013  22 02  -21.0294 26050.1 -03413.6 -07.4655 26272.8
 08 03 2013  22 03  -21.0293 26049.9 -03413.6 -07.4655 26272.6
 08 03 2013  22 04  -21.0293 26049.8 -03413.6 -07.4655 26272.5
 08 03 2013  22 05  -21.0294 26049.8 -03413.6 -07.4656 26272.5
 08 03 2013  22 06  -21.0295 26049.7 -03413.7 -07.4657 26272.4
 08 03 2013  22 07  -21.0296 26049.6 -03413.7 -07.4659 26272.3
 08 03 2013  22 08  -21.0296 26049.6 -03413.8 -07.4661 26272.4
 08 03 2013  22 09  -21.0297 26049.7 -03413.9 -07.4663 26272.4
 08 03 2013  22 10  -21.0297 26049.6 -03414.0 -07.4664 26272.4
 08 03 2013  22 11  -21.0298 26049.6 -03414.0 -07.4665 26272.4
 08 03 2013  22 12  -21.0299 26049.6 -03414.1 -07.4666 26272.3
 08 03 2013  22 13  -21.0299 26049.6 -03414.1 -07.4668 26272.3
 08 03 2013  22 14  -21.0299 26049.6 -03414.2 -07.4670 26272.4
 08 03 2013  22 15  -21.0300 26049.6 -03414.3 -07.4671 26272.4
 08 03 2013  22 16  -21.0301 26049.6 -03414.4 -07.4673 26272.4
 08 03 2013  22 17  -21.0301 26049.6 -03414.5 -07.4675 26272.4
 08 03 2013  22 18  -21.0302 26049.6 -03414.5 -07.4676 26272.4
 08 03 2013  22 19  -21.0303 26049.6 -03414.6 -07.4677 26272.5
 08 03 2013  22 20  -21.0305 26049.7 -03414.7 -07.4679 26272.5
 08 03 2013  22 21  -21.0306 26049.7 -03414.8 -07.4681 26272.6
 08 03 2013  22 22  -21.0308 26049.8 -03414.9 -07.4683 26272.6
 08 03 2013  22 23  -21.0309 26049.9 -03414.9 -07.4685 26272.7
 08 03 2013  22 24  -21.0309 26050.0 -03415.1 -07.4687 26272.9
 08 03 2013  22 25  -21.0310 26050.3 -03415.2 -07.4690 26273.2
 08 03 2013  22 26  -21.0312 26050.4 -03415.3 -07.4691 26273.3
 08 03 2013  22 27  -21.0313 26050.4 -03415.4 -07.4693 26273.4
 08 03 2013  22 28  -21.0314 26050.6 -03415.5 -07.4695 26273.5
 08 03 2013  22 29  -21.0315 26050.5 -03415.5 -07.4695 26273.5
 08 03 2013  22 30  -21.0315 26050.5 -03415.6 -07.4696 26273.4
 08 03 2013  22 31  -21.0317 26050.5 -03415.6 -07.4697 26273.4
 08 03 2013  22 32  -21.0319 26050.5 -03415.7 -07.4698 26273.5
 08 03 2013  22 33  -21.0320 26050.5 -03415.7 -07.4699 26273.5
 08 03 2013  22 34  -21.0322 26050.4 -03415.7 -07.4698 26273.3
 08 03 2013  22 35  -21.0322 26050.3 -03415.6 -07.4698 26273.3
 08 03 2013  22 36  -21.0323 26050.1 -03415.6 -07.4698 26273.1
 08 03 2013  22 37  -21.0322 26050.0 -03415.5 -07.4697 26272.9
 08 03 2013  22 38  -21.0323 26049.9 -03415.5 -07.4696 26272.8
 08 03 2013  22 39  -21.0323 26049.7 -03415.4 -07.4696 26272.6
 08 03 2013  22 40  -21.0324 26049.5 -03415.4 -07.4695 26272.4
 08 03 2013  22 41  -21.0324 26049.3 -03415.4 -07.4695 26272.2
 08 03 2013  22 42  -21.0324 26049.1 -03415.3 -07.4694 26272.1
 08 03 2013  22 43  -21.0326 26048.8 -03415.2 -07.4694 26271.8
 08 03 2013  22 44  -21.0326 26048.8 -03415.2 -07.4694 26271.7
 08 03 2013  22 45  -21.0326 26048.8 -03415.3 -07.4695 26271.8
 08 03 2013  22 46  -21.0326 26048.8 -03415.4 -07.4697 26271.8
 08 03 2013  22 47  -21.0325 26048.9 -03415.5 -07.4698 26271.9
 08 03 2013  22 48  -21.0324 26049.1 -03415.6 -07.4701 26272.0
 08 03 2013  22 49  -21.0323 26049.1 -03415.7 -07.4703 26272.1
 08 03 2013  22 50  -21.0323 26049.2 -03415.8 -07.4705 26272.2
 08 03 2013  22 51  -21.0321 26049.3 -03415.9 -07.4707 26272.3
 08 03 2013  22 52  -21.0320 26049.5 -03416.1 -07.4710 26272.5
 08 03 2013  22 53  -21.0319 26049.5 -03416.1 -07.4711 26272.5
 08 03 2013  22 54  -21.0318 26049.5 -03416.2 -07.4712 26272.6
 08 03 2013  22 55  -21.0319 26049.5 -03416.2 -07.4713 26272.5
 08 03 2013  22 56  -21.0320 26049.4 -03416.2 -07.4713 26272.4
 08 03 2013  22 57  -21.0319 26049.3 -03416.2 -07.4713 26272.4
 08 03 2013  22 58  -21.0320 26049.4 -03416.2 -07.4714 26272.5
 08 03 2013  22 59  -21.0323 26049.2 -03416.2 -07.4714 26272.3
 08 03 2013  23 00  -21.0326 26049.0 -03416.1 -07.4713 26272.1
 08 03 2013  23 01  -21.0328 26048.8 -03416.1 -07.4712 26271.9
 08 03 2013  23 02  -21.0329 26048.6 -03416.0 -07.4710 26271.6
 08 03 2013  23 03  -21.0331 26048.3 -03415.8 -07.4708 26271.3
 08 03 2013  23 04  -21.0334 26047.9 -03415.7 -07.4706 26270.9
 08 03 2013  23 05  -21.0336 26047.8 -03415.6 -07.4705 26270.7
 08 03 2013  23 06  -21.0336 26047.5 -03415.5 -07.4703 26270.5
 08 03 2013  23 07  -21.0335 26047.3 -03415.4 -07.4702 26270.3
 08 03 2013  23 08  -21.0334 26047.3 -03415.4 -07.4702 26270.2
 08 03 2013  23 09  -21.0334 26047.1 -03415.4 -07.4702 26270.1
 08 03 2013  23 10  -21.0334 26047.1 -03415.4 -07.4702 26270.0
 08 03 2013  23 11  -21.0333 26047.0 -03415.4 -07.4702 26269.9
 08 03 2013  23 12  -21.0332 26046.9 -03415.4 -07.4703 26269.9
 08 03 2013  23 13  -21.0330 26046.8 -03415.4 -07.4704 26269.8
 08 03 2013  23 14  -21.0329 26046.8 -03415.4 -07.4704 26269.8
 08 03 2013  23 15  -21.0328 26047.0 -03415.6 -07.4706 26270.0
 08 03 2013  23 16  -21.0327 26047.0 -03415.6 -07.4708 26270.0
 08 03 2013  23 17  -21.0325 26047.3 -03415.8 -07.4710 26270.3
 08 03 2013  23 18  -21.0322 26047.4 -03415.9 -07.4712 26270.4
 08 03 2013  23 19  -21.0320 26047.5 -03416.0 -07.4713 26270.5
 08 03 2013  23 20  -21.0319 26047.6 -03416.0 -07.4714 26270.6
 08 03 2013  23 21  -21.0317 26047.9 -03416.2 -07.4717 26271.0
 08 03 2013  23 22  -21.0311 26048.2 -03416.3 -07.4719 26271.3
 08 03 2013  23 23  -21.0308 26048.4 -03416.4 -07.4720 26271.5
 08 03 2013  23 24  -21.0309 26048.6 -03416.5 -07.4723 26271.7
 08 03 2013  23 25  -21.0310 26048.5 -03416.5 -07.4722 26271.6
 08 03 2013  23 26  -21.0309 26048.7 -03416.5 -07.4723 26271.8
 08 03 2013  23 27  -21.0311 26048.8 -03416.6 -07.4724 26271.9
 08 03 2013  23 28  -21.0313 26048.5 -03416.6 -07.4723 26271.7
 08 03 2013  23 29  -21.0319 26048.3 -03416.5 -07.4722 26271.4
 08 03 2013  23 30  -21.0324 26048.4 -03416.5 -07.4722 26271.5
 08 03 2013  23 31  -21.0329 26048.4 -03416.5 -07.4723 26271.5
 08 03 2013  23 32  -21.0331 26048.4 -03416.5 -07.4722 26271.5
 08 03 2013  23 33  -21.0333 26048.1 -03416.3 -07.4720 26271.2
 08 03 2013  23 34  -21.0335 26048.1 -03416.3 -07.4719 26271.2
 08 03 2013  23 35  -21.0337 26048.3 -03416.4 -07.4720 26271.4
 08 03 2013  23 36  -21.0335 26048.2 -03416.4 -07.4720 26271.3
 08 03 2013  23 37  -21.0333 26048.6 -03416.5 -07.4722 26271.7
 08 03 2013  23 38  -21.0331 26048.6 -03416.6 -07.4723 26271.7
 08 03 2013  23 39  -21.0328 26048.4 -03416.4 -07.4720 26271.5
 08 03 2013  23 40  -21.0328 26048.1 -03416.3 -07.4718 26271.2
 08 03 2013  23 41  -21.0331 26047.5 -03416.0 -07.4714 26270.6
 08 03 2013  23 42  -21.0337 26047.3 -03415.9 -07.4712 26270.4
 08 03 2013  23 43  -21.0342 26047.1 -03415.8 -07.4711 26270.1
 08 03 2013  23 44  -21.0347 26046.9 -03415.7 -07.4710 26269.9
 08 03 2013  23 45  -21.0351 26046.8 -03415.7 -07.4710 26269.8
 08 03 2013  23 46  -21.0355 26046.7 -03415.7 -07.4709 26269.7
 08 03 2013  23 47  -21.0359 26046.7 -03415.7 -07.4709 26269.7
 08 03 2013  23 48  -21.0362 26046.5 -03415.6 -07.4708 26269.5
 08 03 2013  23 49  -21.0363 26046.1 -03415.4 -07.4706 26269.1
 08 03 2013  23 50  -21.0363 26045.6 -03415.2 -07.4702 26268.5
 08 03 2013  23 51  -21.0361 26045.3 -03415.0 -07.4699 26268.3
 08 03 2013  23 52  -21.0364 26045.3 -03415.1 -07.4700 26268.2
 08 03 2013  23 53  -21.0367 26045.4 -03415.2 -07.4703 26268.4
 08 03 2013  23 54  -21.0369 26044.6 -03414.9 -07.4698 26267.5
 08 03 2013  23 55  -21.0370 26045.1 -03415.1 -07.4701 26268.0
 08 03 2013  23 56  -21.0372 26044.8 -03415.1 -07.4702 26267.8
 08 03 2013  23 57  -21.0370 26044.8 -03415.0 -07.4701 26267.7
 08 03 2013  23 58  -21.0368 26045.0 -03415.2 -07.4704 26267.9
