SAO LUIS EMBRACE-03 <094> 1 Min. Reported data

 DD MM YYYY  HH MM   D(Deg)  H(nT)   Z(nT)   I(Deg)   F(nT)

 04 04 2013  00 00  -21.0528 26038.2 -03424.6 -07.4927 26262.4
 04 04 2013  00 01  -21.0528 26038.0 -03424.5 -07.4925 26262.2
 04 04 2013  00 02  -21.0527 26038.1 -03424.6 -07.4926 26262.3
 04 04 2013  00 03  -21.0528 26038.2 -03424.6 -07.4927 26262.4
 04 04 2013  00 04  -21.0526 26038.4 -03424.8 -07.4929 26262.7
 04 04 2013  00 05  -21.0527 26038.4 -03424.8 -07.4930 26262.7
 04 04 2013  00 06  -21.0525 26038.6 -03424.9 -07.4931 26262.9
 04 04 2013  00 07  -21.0525 26038.7 -03424.9 -07.4932 26263.0
 04 04 2013  00 08  -21.0522 26038.9 -03425.0 -07.4933 26263.2
 04 04 2013  00 09  -21.0520 26039.1 -03425.1 -07.4934 26263.4
 04 04 2013  00 10  -21.0520 26039.2 -03425.1 -07.4935 26263.5
 04 04 2013  00 11  -21.0521 26039.3 -03425.2 -07.4935 26263.6
 04 04 2013  00 12  -21.0521 26039.2 -03425.1 -07.4934 26263.5
 04 04 2013  00 13  -21.0519 26039.2 -03425.1 -07.4934 26263.5
 04 04 2013  00 14  -21.0518 26039.2 -03425.0 -07.4933 26263.5
 04 04 2013  00 15  -21.0516 26039.1 -03425.0 -07.4932 26263.4
 04 04 2013  00 16  -21.0515 26038.9 -03424.9 -07.4931 26263.2
 04 04 2013  00 17  -21.0514 26038.9 -03424.9 -07.4930 26263.1
 04 04 2013  00 18  -21.0511 26038.9 -03424.9 -07.4930 26263.1
 04 04 2013  00 19  -21.0509 26038.7 -03424.8 -07.4930 26263.0
 04 04 2013  00 20  -21.0508 26038.5 -03424.8 -07.4929 26262.8
 04 04 2013  00 21  -21.0508 26038.4 -03424.7 -07.4928 26262.7
 04 04 2013  00 22  -21.0506 26038.4 -03424.7 -07.4929 26262.6
 04 04 2013  00 23  -21.0506 26038.2 -03424.7 -07.4929 26262.5
 04 04 2013  00 24  -21.0504 26038.1 -03424.7 -07.4928 26262.3
 04 04 2013  00 25  -21.0503 26037.9 -03424.6 -07.4927 26262.1
 04 04 2013  00 26  -21.0502 26037.7 -03424.5 -07.4927 26261.9
 04 04 2013  00 27  -21.0502 26037.4 -03424.5 -07.4926 26261.7
 04 04 2013  00 28  -21.0502 26037.2 -03424.4 -07.4924 26261.4
 04 04 2013  00 29  -21.0501 26037.0 -03424.3 -07.4924 26261.2
 04 04 2013  00 30  -21.0501 26036.8 -03424.3 -07.4924 26261.0
 04 04 2013  00 31  -21.0501 26036.6 -03424.3 -07.4925 26260.9
 04 04 2013  00 32  -21.0501 26036.5 -03424.3 -07.4925 26260.7
 04 04 2013  00 33  -21.0502 26036.4 -03424.3 -07.4925 26260.6
 04 04 2013  00 34  -21.0502 26036.2 -03424.3 -07.4925 26260.4
 04 04 2013  00 35  -21.0503 26036.0 -03424.3 -07.4926 26260.2
 04 04 2013  00 36  -21.0504 26035.8 -03424.2 -07.4925 26260.0
 04 04 2013  00 37  -21.0504 26035.7 -03424.2 -07.4926 26259.9
 04 04 2013  00 38  -21.0504 26035.5 -03424.2 -07.4926 26259.8
 04 04 2013  00 39  -21.0504 26035.4 -03424.2 -07.4926 26259.6
 04 04 2013  00 40  -21.0504 26035.3 -03424.2 -07.4927 26259.5
 04 04 2013  00 41  -21.0504 26035.2 -03424.3 -07.4928 26259.4
 04 04 2013  00 42  -21.0504 26035.1 -03424.3 -07.4928 26259.3
 04 04 2013  00 43  -21.0504 26034.9 -03424.3 -07.4929 26259.2
 04 04 2013  00 44  -21.0505 26034.8 -03424.3 -07.4930 26259.1
 04 04 2013  00 45  -21.0505 26034.7 -03424.3 -07.4930 26258.9
 04 04 2013  00 46  -21.0505 26034.6 -03424.3 -07.4931 26258.8
 04 04 2013  00 47  -21.0505 26034.6 -03424.4 -07.4932 26258.8
 04 04 2013  00 48  -21.0505 26034.5 -03424.4 -07.4934 26258.8
 04 04 2013  00 49  -21.0505 26034.6 -03424.5 -07.4935 26258.8
 04 04 2013  00 50  -21.0504 26034.6 -03424.6 -07.4936 26258.8
 04 04 2013  00 51  -21.0504 26034.5 -03424.6 -07.4938 26258.8
 04 04 2013  00 52  -21.0503 26034.5 -03424.7 -07.4939 26258.8
 04 04 2013  00 53  -21.0502 26034.6 -03424.8 -07.4940 26258.9
 04 04 2013  00 54  -21.0501 26034.5 -03424.8 -07.4941 26258.8
 04 04 2013  00 55  -21.0501 26034.6 -03424.9 -07.4943 26258.9
 04 04 2013  00 56  -21.0501 26034.6 -03424.9 -07.4944 26258.9
 04 04 2013  00 57  -21.0501 26034.6 -03425.0 -07.4946 26259.0
 04 04 2013  00 58  -21.0501 26034.6 -03425.1 -07.4947 26259.0
 04 04 2013  00 59  -21.0500 26034.7 -03425.1 -07.4948 26259.0
 04 04 2013  01 00  -21.0499 26034.8 -03425.2 -07.4950 26259.1
 04 04 2013  01 01  -21.0498 26034.8 -03425.3 -07.4951 26259.1
 04 04 2013  01 02  -21.0498 26034.8 -03425.3 -07.4952 26259.1
 04 04 2013  01 03  -21.0498 26034.7 -03425.4 -07.4953 26259.1
 04 04 2013  01 04  -21.0497 26034.8 -03425.4 -07.4954 26259.1
 04 04 2013  01 05  -21.0497 26034.7 -03425.4 -07.4954 26259.1
 04 04 2013  01 06  -21.0497 26034.7 -03425.5 -07.4955 26259.1
 04 04 2013  01 07  -21.0496 26034.7 -03425.6 -07.4958 26259.1
 04 04 2013  01 08  -21.0496 26034.8 -03425.7 -07.4959 26259.2
 04 04 2013  01 09  -21.0495 26034.9 -03425.7 -07.4960 26259.3
 04 04 2013  01 10  -21.0494 26034.9 -03425.8 -07.4962 26259.3
 04 04 2013  01 11  -21.0494 26034.9 -03425.8 -07.4963 26259.4
 04 04 2013  01 12  -21.0494 26035.0 -03425.9 -07.4964 26259.4
 04 04 2013  01 13  -21.0492 26035.0 -03425.9 -07.4964 26259.5
 04 04 2013  01 14  -21.0491 26035.0 -03426.0 -07.4965 26259.5
 04 04 2013  01 15  -21.0491 26035.1 -03426.0 -07.4966 26259.5
 04 04 2013  01 16  -21.0489 26035.2 -03426.0 -07.4966 26259.6
 04 04 2013  01 17  -21.0488 26035.2 -03426.1 -07.4967 26259.7
 04 04 2013  01 18  -21.0487 26035.2 -03426.1 -07.4968 26259.7
 04 04 2013  01 19  -21.0487 26035.2 -03426.1 -07.4968 26259.7
 04 04 2013  01 20  -21.0486 26035.2 -03426.2 -07.4969 26259.7
 04 04 2013  01 21  -21.0486 26035.3 -03426.2 -07.4969 26259.7
 04 04 2013  01 22  -21.0485 26035.3 -03426.2 -07.4970 26259.8
 04 04 2013  01 23  -21.0483 26035.3 -03426.2 -07.4970 26259.8
 04 04 2013  01 24  -21.0481 26035.3 -03426.3 -07.4970 26259.8
 04 04 2013  01 25  -21.0480 26035.3 -03426.3 -07.4971 26259.8
 04 04 2013  01 26  -21.0479 26035.3 -03426.3 -07.4971 26259.8
 04 04 2013  01 27  -21.0476 26035.3 -03426.3 -07.4971 26259.8
 04 04 2013  01 28  -21.0474 26035.3 -03426.3 -07.4971 26259.8
 04 04 2013  01 29  -21.0473 26035.3 -03426.3 -07.4972 26259.8
 04 04 2013  01 30  -21.0474 26035.3 -03426.3 -07.4972 26259.8
 04 04 2013  01 31  -21.0474 26035.3 -03426.3 -07.4972 26259.8
 04 04 2013  01 32  -21.0473 26035.3 -03426.3 -07.4972 26259.8
 04 04 2013  01 33  -21.0472 26035.3 -03426.3 -07.4972 26259.7
 04 04 2013  01 34  -21.0471 26035.3 -03426.3 -07.4972 26259.8
 04 04 2013  01 35  -21.0471 26035.2 -03426.3 -07.4972 26259.7
 04 04 2013  01 36  -21.0470 26035.3 -03426.4 -07.4973 26259.8
 04 04 2013  01 37  -21.0468 26035.2 -03426.4 -07.4973 26259.7
 04 04 2013  01 38  -21.0467 26035.2 -03426.3 -07.4972 26259.7
 04 04 2013  01 39  -21.0465 26035.1 -03426.3 -07.4972 26259.6
 04 04 2013  01 40  -21.0465 26035.1 -03426.3 -07.4972 26259.6
 04 04 2013  01 41  -21.0465 26035.0 -03426.3 -07.4972 26259.5
 04 04 2013  01 42  -21.0463 26035.0 -03426.3 -07.4972 26259.5
 04 04 2013  01 43  -21.0462 26035.0 -03426.3 -07.4972 26259.4
 04 04 2013  01 44  -21.0460 26035.0 -03426.3 -07.4973 26259.4
 04 04 2013  01 45  -21.0458 26035.0 -03426.3 -07.4973 26259.5
 04 04 2013  01 46  -21.0457 26034.9 -03426.3 -07.4973 26259.4
 04 04 2013  01 47  -21.0455 26034.9 -03426.3 -07.4973 26259.4
 04 04 2013  01 48  -21.0455 26034.8 -03426.3 -07.4973 26259.3
 04 04 2013  01 49  -21.0455 26034.8 -03426.3 -07.4973 26259.3
 04 04 2013  01 50  -21.0455 26034.9 -03426.4 -07.4974 26259.4
 04 04 2013  01 51  -21.0452 26034.8 -03426.4 -07.4974 26259.3
 04 04 2013  01 52  -21.0451 26034.8 -03426.3 -07.4974 26259.3
 04 04 2013  01 53  -21.0451 26034.9 -03426.4 -07.4975 26259.4
 04 04 2013  01 54  -21.0450 26034.9 -03426.4 -07.4975 26259.4
 04 04 2013  01 55  -21.0451 26034.9 -03426.4 -07.4976 26259.4
 04 04 2013  01 56  -21.0451 26034.9 -03426.5 -07.4976 26259.4
 04 04 2013  01 57  -21.0452 26034.9 -03426.5 -07.4977 26259.4
 04 04 2013  01 58  -21.0453 26034.7 -03426.4 -07.4975 26259.2
 04 04 2013  01 59  -21.0454 26034.7 -03426.4 -07.4975 26259.2
 04 04 2013  02 00  -21.0454 26034.7 -03426.4 -07.4975 26259.2
 04 04 2013  02 01  -21.0453 26034.6 -03426.3 -07.4974 26259.1
 04 04 2013  02 02  -21.0451 26034.4 -03426.3 -07.4973 26258.9
 04 04 2013  02 03  -21.0449 26034.5 -03426.3 -07.4973 26258.9
 04 04 2013  02 04  -21.0448 26034.4 -03426.2 -07.4973 26258.9
 04 04 2013  02 05  -21.0447 26034.4 -03426.3 -07.4973 26258.9
 04 04 2013  02 06  -21.0445 26034.4 -03426.3 -07.4974 26258.9
 04 04 2013  02 07  -21.0444 26034.4 -03426.3 -07.4974 26258.9
 04 04 2013  02 08  -21.0444 26034.4 -03426.3 -07.4973 26258.9
 04 04 2013  02 09  -21.0442 26034.5 -03426.3 -07.4974 26259.0
 04 04 2013  02 10  -21.0439 26034.5 -03426.3 -07.4974 26259.0
 04 04 2013  02 11  -21.0438 26034.5 -03426.3 -07.4974 26259.0
 04 04 2013  02 12  -21.0438 26034.6 -03426.3 -07.4974 26259.1
 04 04 2013  02 13  -21.0437 26034.7 -03426.4 -07.4976 26259.2
 04 04 2013  02 14  -21.0437 26034.8 -03426.4 -07.4976 26259.3
 04 04 2013  02 15  -21.0435 26034.8 -03426.5 -07.4977 26259.4
 04 04 2013  02 16  -21.0435 26034.9 -03426.5 -07.4977 26259.4
 04 04 2013  02 17  -21.0432 26035.1 -03426.6 -07.4978 26259.6
 04 04 2013  02 18  -21.0430 26035.1 -03426.6 -07.4978 26259.6
 04 04 2013  02 19  -21.0427 26035.1 -03426.5 -07.4977 26259.6
 04 04 2013  02 20  -21.0423 26035.1 -03426.6 -07.4978 26259.6
 04 04 2013  02 21  -21.0422 26035.2 -03426.6 -07.4978 26259.7
 04 04 2013  02 22  -21.0420 26035.2 -03426.6 -07.4979 26259.8
 04 04 2013  02 23  -21.0419 26035.3 -03426.7 -07.4980 26259.8
 04 04 2013  02 24  -21.0419 26035.3 -03426.7 -07.4979 26259.8
 04 04 2013  02 25  -21.0418 26035.2 -03426.7 -07.4979 26259.8
 04 04 2013  02 26  -21.0416 26035.3 -03426.7 -07.4979 26259.8
 04 04 2013  02 27  -21.0416 26035.3 -03426.6 -07.4979 26259.8
 04 04 2013  02 28  -21.0414 26035.2 -03426.6 -07.4978 26259.7
 04 04 2013  02 29  -21.0412 26035.0 -03426.5 -07.4977 26259.6
 04 04 2013  02 30  -21.0410 26035.0 -03426.5 -07.4977 26259.5
 04 04 2013  02 31  -21.0410 26034.9 -03426.5 -07.4977 26259.5
 04 04 2013  02 32  -21.0410 26034.9 -03426.5 -07.4977 26259.4
 04 04 2013  02 33  -21.0409 26034.9 -03426.5 -07.4977 26259.4
 04 04 2013  02 34  -21.0409 26034.8 -03426.5 -07.4977 26259.3
 04 04 2013  02 35  -21.0409 26034.7 -03426.4 -07.4976 26259.2
 04 04 2013  02 36  -21.0406 26034.7 -03426.4 -07.4976 26259.2
 04 04 2013  02 37  -21.0406 26034.6 -03426.4 -07.4975 26259.1
 04 04 2013  02 38  -21.0406 26034.5 -03426.3 -07.4974 26259.0
 04 04 2013  02 39  -21.0405 26034.5 -03426.3 -07.4974 26259.0
 04 04 2013  02 40  -21.0405 26034.5 -03426.4 -07.4976 26259.0
 04 04 2013  02 41  -21.0404 26034.5 -03426.4 -07.4976 26259.0
 04 04 2013  02 42  -21.0403 26034.4 -03426.4 -07.4975 26258.9
 04 04 2013  02 43  -21.0402 26034.4 -03426.4 -07.4975 26258.9
 04 04 2013  02 44  -21.0401 26034.4 -03426.4 -07.4975 26258.9
 04 04 2013  02 45  -21.0401 26034.3 -03426.4 -07.4976 26258.8
 04 04 2013  02 46  -21.0401 26034.2 -03426.4 -07.4976 26258.7
 04 04 2013  02 47  -21.0402 26034.1 -03426.4 -07.4976 26258.6
 04 04 2013  02 48  -21.0402 26034.0 -03426.3 -07.4976 26258.5
 04 04 2013  02 49  -21.0401 26034.0 -03426.3 -07.4975 26258.5
 04 04 2013  02 50  -21.0400 26033.9 -03426.3 -07.4975 26258.4
 04 04 2013  02 51  -21.0401 26033.9 -03426.2 -07.4974 26258.4
 04 04 2013  02 52  -21.0401 26033.9 -03426.3 -07.4974 26258.3
 04 04 2013  02 53  -21.0401 26033.8 -03426.2 -07.4974 26258.3
 04 04 2013  02 54  -21.0399 26033.7 -03426.2 -07.4974 26258.2
 04 04 2013  02 55  -21.0399 26033.5 -03426.1 -07.4973 26258.0
 04 04 2013  02 56  -21.0399 26033.4 -03426.1 -07.4972 26257.9
 04 04 2013  02 57  -21.0400 26033.3 -03426.0 -07.4972 26257.8
 04 04 2013  02 58  -21.0401 26033.1 -03426.0 -07.4970 26257.6
 04 04 2013  02 59  -21.0401 26033.0 -03425.9 -07.4970 26257.5
 04 04 2013  03 00  -21.0400 26032.9 -03425.8 -07.4969 26257.3
 04 04 2013  03 01  -21.0397 26032.7 -03425.8 -07.4968 26257.1
 04 04 2013  03 02  -21.0396 26032.5 -03425.7 -07.4967 26257.0
 04 04 2013  03 03  -21.0396 26032.4 -03425.7 -07.4967 26256.9
 04 04 2013  03 04  -21.0396 26032.5 -03425.8 -07.4968 26256.9
 04 04 2013  03 05  -21.0396 26032.5 -03425.8 -07.4969 26257.0
 04 04 2013  03 06  -21.0397 26032.4 -03425.8 -07.4969 26256.9
 04 04 2013  03 07  -21.0398 26032.4 -03425.7 -07.4968 26256.8
 04 04 2013  03 08  -21.0398 26032.3 -03425.7 -07.4967 26256.7
 04 04 2013  03 09  -21.0398 26032.2 -03425.7 -07.4967 26256.7
 04 04 2013  03 10  -21.0398 26032.1 -03425.7 -07.4966 26256.6
 04 04 2013  03 11  -21.0399 26032.0 -03425.6 -07.4965 26256.4
 04 04 2013  03 12  -21.0399 26031.8 -03425.6 -07.4965 26256.3
 04 04 2013  03 13  -21.0400 26031.7 -03425.5 -07.4965 26256.1
 04 04 2013  03 14  -21.0401 26031.6 -03425.5 -07.4964 26256.0
 04 04 2013  03 15  -21.0402 26031.4 -03425.4 -07.4964 26255.8
 04 04 2013  03 16  -21.0402 26031.3 -03425.4 -07.4963 26255.7
 04 04 2013  03 17  -21.0402 26031.2 -03425.3 -07.4962 26255.6
 04 04 2013  03 18  -21.0403 26031.1 -03425.3 -07.4962 26255.5
 04 04 2013  03 19  -21.0403 26031.0 -03425.3 -07.4961 26255.4
 04 04 2013  03 20  -21.0404 26030.9 -03425.3 -07.4962 26255.3
 04 04 2013  03 21  -21.0404 26030.9 -03425.3 -07.4961 26255.3
 04 04 2013  03 22  -21.0406 26030.9 -03425.3 -07.4962 26255.3
 04 04 2013  03 23  -21.0408 26030.9 -03425.3 -07.4962 26255.3
 04 04 2013  03 24  -21.0409 26030.9 -03425.3 -07.4962 26255.3
 04 04 2013  03 25  -21.0408 26030.8 -03425.3 -07.4963 26255.2
 04 04 2013  03 26  -21.0408 26030.8 -03425.3 -07.4963 26255.2
 04 04 2013  03 27  -21.0407 26030.9 -03425.3 -07.4963 26255.3
 04 04 2013  03 28  -21.0407 26030.9 -03425.3 -07.4962 26255.3
 04 04 2013  03 29  -21.0408 26030.8 -03425.3 -07.4962 26255.1
 04 04 2013  03 30  -21.0409 26030.7 -03425.2 -07.4961 26255.0
 04 04 2013  03 31  -21.0409 26030.6 -03425.2 -07.4961 26255.0
 04 04 2013  03 32  -21.0410 26030.5 -03425.1 -07.4959 26254.8
 04 04 2013  03 33  -21.0410 26030.3 -03425.1 -07.4959 26254.7
 04 04 2013  03 34  -21.0410 26030.2 -03425.0 -07.4959 26254.6
 04 04 2013  03 35  -21.0409 26030.1 -03425.0 -07.4959 26254.5
 04 04 2013  03 36  -21.0410 26030.1 -03425.0 -07.4959 26254.5
 04 04 2013  03 37  -21.0410 26030.1 -03425.0 -07.4959 26254.5
 04 04 2013  03 38  -21.0410 26030.1 -03425.1 -07.4960 26254.5
 04 04 2013  03 39  -21.0410 26030.2 -03425.1 -07.4961 26254.6
 04 04 2013  03 40  -21.0409 26030.4 -03425.2 -07.4963 26254.8
 04 04 2013  03 41  -21.0411 26030.5 -03425.3 -07.4964 26254.9
 04 04 2013  03 42  -21.0411 26030.6 -03425.4 -07.4965 26255.0
 04 04 2013  03 43  -21.0408 26030.9 -03425.5 -07.4967 26255.4
 04 04 2013  03 44  -21.0409 26031.2 -03425.7 -07.4969 26255.6
 04 04 2013  03 45  -21.0402 26032.0 -03426.0 -07.4974 26256.5
 04 04 2013  03 46  -21.0408 26032.5 -03426.3 -07.4980 26257.1
 04 04 2013  03 47  -21.0395 26034.3 -03427.0 -07.4989 26258.8
 04 04 2013  03 48  -21.0396 26034.4 -03427.1 -07.4991 26259.0
 04 04 2013  03 49  -21.0384 26035.4 -03427.5 -07.4996 26260.0
 04 04 2013  03 50  -21.0384 26036.4 -03427.9 -07.5003 26261.1
 04 04 2013  03 51  -21.0381 26036.7 -03428.0 -07.5004 26261.4
 04 04 2013  03 52  -21.0374 26037.4 -03428.2 -07.5006 26262.1
 04 04 2013  03 53  -21.0372 26037.7 -03428.2 -07.5007 26262.4
 04 04 2013  03 54  -21.0372 26038.0 -03428.3 -07.5008 26262.7
 04 04 2013  03 55  -21.0369 26038.2 -03428.3 -07.5007 26262.9
 04 04 2013  03 56  -21.0370 26038.1 -03428.2 -07.5005 26262.8
 04 04 2013  03 57  -21.0368 26038.1 -03428.1 -07.5002 26262.8
 04 04 2013  03 58  -21.0370 26037.7 -03427.9 -07.4998 26262.4
 04 04 2013  03 59  -21.0369 26037.6 -03427.7 -07.4996 26262.3
 04 04 2013  04 00  -21.0373 26037.6 -03427.7 -07.4995 26262.2
 04 04 2013  04 01  -21.0377 26037.4 -03427.6 -07.4993 26262.0
 04 04 2013  04 02  -21.0379 26037.3 -03427.5 -07.4992 26261.9
 04 04 2013  04 03  -21.0381 26037.0 -03427.3 -07.4988 26261.6
 04 04 2013  04 04  -21.0381 26037.4 -03427.4 -07.4990 26262.0
 04 04 2013  04 05  -21.0382 26037.3 -03427.5 -07.4991 26262.0
 04 04 2013  04 06  -21.0379 26037.5 -03427.4 -07.4990 26262.1
 04 04 2013  04 07  -21.0381 26037.4 -03427.4 -07.4990 26262.0
 04 04 2013  04 08  -21.0382 26037.4 -03427.3 -07.4988 26262.0
 04 04 2013  04 09  -21.0381 26037.4 -03427.4 -07.4988 26262.0
 04 04 2013  04 10  -21.0379 26037.7 -03427.4 -07.4989 26262.3
 04 04 2013  04 11  -21.0380 26037.7 -03427.5 -07.4991 26262.3
 04 04 2013  04 12  -21.0376 26038.0 -03427.5 -07.4990 26262.6
 04 04 2013  04 13  -21.0380 26038.2 -03427.7 -07.4993 26262.8
 04 04 2013  04 14  -21.0378 26038.0 -03427.6 -07.4992 26262.7
 04 04 2013  04 15  -21.0379 26038.1 -03427.6 -07.4991 26262.7
 04 04 2013  04 16  -21.0381 26038.1 -03427.6 -07.4992 26262.7
 04 04 2013  04 17  -21.0382 26037.8 -03427.4 -07.4989 26262.4
 04 04 2013  04 18  -21.0385 26037.6 -03427.3 -07.4988 26262.2
 04 04 2013  04 19  -21.0387 26037.4 -03427.2 -07.4985 26262.0
 04 04 2013  04 20  -21.0390 26037.3 -03427.2 -07.4985 26261.9
 04 04 2013  04 21  -21.0394 26037.2 -03427.1 -07.4984 26261.8
 04 04 2013  04 22  -21.0396 26037.3 -03427.1 -07.4983 26261.8
 04 04 2013  04 23  -21.0398 26037.1 -03427.0 -07.4982 26261.7
 04 04 2013  04 24  -21.0399 26037.0 -03427.0 -07.4981 26261.6
 04 04 2013  04 25  -21.0403 26036.9 -03426.9 -07.4980 26261.5
 04 04 2013  04 26  -21.0405 26036.6 -03426.7 -07.4977 26261.1
 04 04 2013  04 27  -21.0406 26036.5 -03426.6 -07.4975 26261.0
 04 04 2013  04 28  -21.0407 26036.3 -03426.6 -07.4974 26260.8
 04 04 2013  04 29  -21.0408 26036.0 -03426.4 -07.4972 26260.5
 04 04 2013  04 30  -21.0411 26036.0 -03426.4 -07.4971 26260.4
 04 04 2013  04 31  -21.0411 26035.7 -03426.3 -07.4970 26260.2
 04 04 2013  04 32  -21.0411 26035.6 -03426.2 -07.4968 26260.0
 04 04 2013  04 33  -21.0412 26035.3 -03426.1 -07.4968 26259.8
 04 04 2013  04 34  -21.0415 26035.1 -03426.1 -07.4967 26259.6
 04 04 2013  04 35  -21.0415 26035.0 -03426.0 -07.4966 26259.5
 04 04 2013  04 36  -21.0411 26034.7 -03425.8 -07.4963 26259.1
 04 04 2013  04 37  -21.0409 26034.5 -03425.7 -07.4962 26258.9
 04 04 2013  04 38  -21.0406 26034.4 -03425.8 -07.4962 26258.9
 04 04 2013  04 39  -21.0403 26034.4 -03425.8 -07.4963 26258.8
 04 04 2013  04 40  -21.0400 26034.3 -03425.8 -07.4963 26258.8
 04 04 2013  04 41  -21.0399 26034.3 -03425.8 -07.4964 26258.7
 04 04 2013  04 42  -21.0400 26034.3 -03425.9 -07.4965 26258.7
 04 04 2013  04 43  -21.0401 26034.2 -03425.9 -07.4965 26258.6
 04 04 2013  04 44  -21.0399 26034.2 -03425.9 -07.4966 26258.6
 04 04 2013  04 45  -21.0396 26034.3 -03425.9 -07.4967 26258.7
 04 04 2013  04 46  -21.0392 26034.5 -03426.1 -07.4968 26259.0
 04 04 2013  04 47  -21.0385 26034.8 -03426.2 -07.4970 26259.3
 04 04 2013  04 48  -21.0380 26035.0 -03426.3 -07.4972 26259.5
 04 04 2013  04 49  -21.0374 26035.2 -03426.3 -07.4973 26259.6
 04 04 2013  04 50  -21.0369 26035.3 -03426.4 -07.4974 26259.8
 04 04 2013  04 51  -21.0365 26035.4 -03426.5 -07.4974 26259.9
 04 04 2013  04 52  -21.0360 26035.5 -03426.5 -07.4975 26260.0
 04 04 2013  04 53  -21.0356 26035.5 -03426.5 -07.4975 26260.0
 04 04 2013  04 54  -21.0353 26035.6 -03426.5 -07.4975 26260.1
 04 04 2013  04 55  -21.0348 26035.7 -03426.6 -07.4976 26260.2
 04 04 2013  04 56  -21.0344 26035.7 -03426.6 -07.4976 26260.2
 04 04 2013  04 57  -21.0342 26035.7 -03426.6 -07.4977 26260.3
 04 04 2013  04 58  -21.0344 26035.8 -03426.7 -07.4979 26260.4
 04 04 2013  04 59  -21.0349 26036.0 -03426.8 -07.4981 26260.5
 04 04 2013  05 00  -21.0354 26036.1 -03426.9 -07.4982 26260.7
 04 04 2013  05 01  -21.0360 26036.2 -03426.9 -07.4983 26260.8
 04 04 2013  05 02  -21.0366 26036.2 -03427.0 -07.4983 26260.8
 04 04 2013  05 03  -21.0371 26036.2 -03426.9 -07.4983 26260.7
 04 04 2013  05 04  -21.0375 26036.1 -03426.9 -07.4982 26260.7
 04 04 2013  05 05  -21.0378 26036.1 -03426.8 -07.4981 26260.7
 04 04 2013  05 06  -21.0382 26036.1 -03426.8 -07.4980 26260.7
 04 04 2013  05 07  -21.0387 26036.2 -03426.8 -07.4980 26260.7
 04 04 2013  05 08  -21.0391 26036.1 -03426.8 -07.4980 26260.7
 04 04 2013  05 09  -21.0396 26036.1 -03426.8 -07.4979 26260.6
 04 04 2013  05 10  -21.0400 26036.1 -03426.7 -07.4979 26260.6
 04 04 2013  05 11  -21.0404 26036.0 -03426.7 -07.4977 26260.6
 04 04 2013  05 12  -21.0406 26036.1 -03426.6 -07.4977 26260.6
 04 04 2013  05 13  -21.0406 26036.1 -03426.6 -07.4976 26260.7
 04 04 2013  05 14  -21.0406 26036.2 -03426.6 -07.4976 26260.7
 04 04 2013  05 15  -21.0406 26036.2 -03426.6 -07.4976 26260.7
 04 04 2013  05 16  -21.0407 26036.2 -03426.6 -07.4975 26260.7
 04 04 2013  05 17  -21.0406 26036.2 -03426.6 -07.4975 26260.7
 04 04 2013  05 18  -21.0406 26036.2 -03426.5 -07.4974 26260.7
 04 04 2013  05 19  -21.0406 26036.2 -03426.5 -07.4974 26260.7
 04 04 2013  05 20  -21.0408 26036.3 -03426.6 -07.4974 26260.8
 04 04 2013  05 21  -21.0410 26036.3 -03426.6 -07.4975 26260.8
 04 04 2013  05 22  -21.0410 26036.2 -03426.6 -07.4974 26260.8
 04 04 2013  05 23  -21.0409 26036.2 -03426.5 -07.4973 26260.7
 04 04 2013  05 24  -21.0408 26036.2 -03426.4 -07.4972 26260.6
 04 04 2013  05 25  -21.0406 26036.2 -03426.5 -07.4973 26260.7
 04 04 2013  05 26  -21.0406 26036.1 -03426.4 -07.4972 26260.6
 04 04 2013  05 27  -21.0405 26036.0 -03426.3 -07.4970 26260.5
 04 04 2013  05 28  -21.0405 26035.9 -03426.3 -07.4970 26260.4
 04 04 2013  05 29  -21.0406 26035.8 -03426.3 -07.4969 26260.3
 04 04 2013  05 30  -21.0407 26035.7 -03426.3 -07.4969 26260.2
 04 04 2013  05 31  -21.0407 26035.7 -03426.3 -07.4969 26260.2
 04 04 2013  05 32  -21.0407 26035.8 -03426.3 -07.4971 26260.3
 04 04 2013  05 33  -21.0406 26035.8 -03426.3 -07.4971 26260.3
 04 04 2013  05 34  -21.0404 26035.9 -03426.4 -07.4971 26260.4
 04 04 2013  05 35  -21.0401 26035.9 -03426.4 -07.4972 26260.4
 04 04 2013  05 36  -21.0398 26036.0 -03426.4 -07.4972 26260.5
 04 04 2013  05 37  -21.0396 26036.0 -03426.5 -07.4973 26260.5
 04 04 2013  05 38  -21.0396 26036.1 -03426.5 -07.4974 26260.6
 04 04 2013  05 39  -21.0397 26036.2 -03426.6 -07.4976 26260.7
 04 04 2013  05 40  -21.0398 26036.3 -03426.7 -07.4977 26260.9
 04 04 2013  05 41  -21.0397 26036.3 -03426.7 -07.4977 26260.9
 04 04 2013  05 42  -21.0399 26036.4 -03426.7 -07.4978 26260.9
 04 04 2013  05 43  -21.0400 26036.5 -03426.7 -07.4978 26261.0
 04 04 2013  05 44  -21.0400 26036.4 -03426.7 -07.4978 26261.0
 04 04 2013  05 45  -21.0402 26036.5 -03426.8 -07.4978 26261.0
 04 04 2013  05 46  -21.0403 26036.5 -03426.7 -07.4978 26261.0
 04 04 2013  05 47  -21.0404 26036.5 -03426.8 -07.4978 26261.0
 04 04 2013  05 48  -21.0404 26036.4 -03426.7 -07.4977 26260.9
 04 04 2013  05 49  -21.0403 26036.3 -03426.6 -07.4976 26260.8
 04 04 2013  05 50  -21.0403 26036.1 -03426.6 -07.4975 26260.7
 04 04 2013  05 51  -21.0404 26036.0 -03426.5 -07.4974 26260.5
 04 04 2013  05 52  -21.0405 26035.8 -03426.4 -07.4972 26260.3
 04 04 2013  05 53  -21.0407 26035.5 -03426.3 -07.4971 26260.0
 04 04 2013  05 54  -21.0411 26035.3 -03426.2 -07.4969 26259.8
 04 04 2013  05 55  -21.0415 26035.3 -03426.2 -07.4970 26259.8
 04 04 2013  05 56  -21.0418 26035.3 -03426.2 -07.4970 26259.8
 04 04 2013  05 57  -21.0421 26035.4 -03426.3 -07.4971 26259.9
 04 04 2013  05 58  -21.0419 26035.4 -03426.3 -07.4971 26259.9
 04 04 2013  05 59  -21.0418 26035.3 -03426.3 -07.4971 26259.8
 04 04 2013  06 00  -21.0417 26035.3 -03426.3 -07.4971 26259.8
 04 04 2013  06 01  -21.0414 26035.2 -03426.3 -07.4971 26259.7
 04 04 2013  06 02  -21.0414 26035.2 -03426.2 -07.4971 26259.6
 04 04 2013  06 03  -21.0412 26035.1 -03426.3 -07.4971 26259.6
 04 04 2013  06 04  -21.0411 26035.1 -03426.3 -07.4971 26259.6
 04 04 2013  06 05  -21.0409 26035.2 -03426.3 -07.4972 26259.7
 04 04 2013  06 06  -21.0407 26035.2 -03426.4 -07.4973 26259.7
 04 04 2013  06 07  -21.0405 26035.3 -03426.4 -07.4974 26259.8
 04 04 2013  06 08  -21.0403 26035.3 -03426.5 -07.4975 26259.8
 04 04 2013  06 09  -21.0402 26035.3 -03426.5 -07.4976 26259.8
 04 04 2013  06 10  -21.0401 26035.3 -03426.5 -07.4977 26259.8
 04 04 2013  06 11  -21.0400 26035.3 -03426.6 -07.4977 26259.8
 04 04 2013  06 12  -21.0398 26035.3 -03426.5 -07.4977 26259.8
 04 04 2013  06 13  -21.0394 26035.1 -03426.5 -07.4976 26259.6
 04 04 2013  06 14  -21.0390 26035.0 -03426.5 -07.4976 26259.5
 04 04 2013  06 15  -21.0386 26034.9 -03426.5 -07.4976 26259.5
 04 04 2013  06 16  -21.0383 26034.9 -03426.5 -07.4977 26259.5
 04 04 2013  06 17  -21.0381 26034.9 -03426.5 -07.4978 26259.4
 04 04 2013  06 18  -21.0379 26034.9 -03426.6 -07.4979 26259.4
 04 04 2013  06 19  -21.0376 26034.9 -03426.7 -07.4980 26259.5
 04 04 2013  06 20  -21.0373 26035.0 -03426.7 -07.4981 26259.5
 04 04 2013  06 21  -21.0371 26035.0 -03426.8 -07.4983 26259.5
 04 04 2013  06 22  -21.0368 26035.0 -03426.8 -07.4984 26259.5
 04 04 2013  06 23  -21.0367 26035.0 -03426.9 -07.4984 26259.6
 04 04 2013  06 24  -21.0364 26035.0 -03426.9 -07.4985 26259.6
 04 04 2013  06 25  -21.0363 26035.0 -03426.9 -07.4986 26259.6
 04 04 2013  06 26  -21.0361 26035.1 -03427.0 -07.4987 26259.7
 04 04 2013  06 27  -21.0359 26035.1 -03427.0 -07.4987 26259.7
 04 04 2013  06 28  -21.0356 26035.1 -03427.1 -07.4989 26259.7
 04 04 2013  06 29  -21.0355 26035.2 -03427.1 -07.4990 26259.8
 04 04 2013  06 30  -21.0353 26035.3 -03427.2 -07.4991 26259.9
 04 04 2013  06 31  -21.0352 26035.4 -03427.3 -07.4992 26260.0
 04 04 2013  06 32  -21.0351 26035.4 -03427.3 -07.4993 26260.1
 04 04 2013  06 33  -21.0352 26035.5 -03427.4 -07.4994 26260.1
 04 04 2013  06 34  -21.0353 26035.5 -03427.4 -07.4995 26260.1
 04 04 2013  06 35  -21.0353 26035.5 -03427.4 -07.4995 26260.1
 04 04 2013  06 36  -21.0353 26035.5 -03427.4 -07.4995 26260.1
 04 04 2013  06 37  -21.0354 26035.5 -03427.4 -07.4995 26260.1
 04 04 2013  06 38  -21.0354 26035.4 -03427.4 -07.4994 26260.1
 04 04 2013  06 39  -21.0353 26035.3 -03427.3 -07.4994 26259.9
 04 04 2013  06 40  -21.0353 26035.3 -03427.3 -07.4993 26259.9
 04 04 2013  06 41  -21.0353 26035.2 -03427.3 -07.4993 26259.8
 04 04 2013  06 42  -21.0355 26035.2 -03427.3 -07.4992 26259.8
 04 04 2013  06 43  -21.0355 26035.2 -03427.3 -07.4992 26259.8
 04 04 2013  06 44  -21.0354 26035.2 -03427.3 -07.4992 26259.8
 04 04 2013  06 45  -21.0352 26035.2 -03427.2 -07.4992 26259.8
 04 04 2013  06 46  -21.0349 26035.1 -03427.2 -07.4991 26259.7
 04 04 2013  06 47  -21.0349 26035.1 -03427.2 -07.4992 26259.8
 04 04 2013  06 48  -21.0346 26035.1 -03427.2 -07.4992 26259.7
 04 04 2013  06 49  -21.0345 26035.1 -03427.3 -07.4993 26259.7
 04 04 2013  06 50  -21.0343 26035.1 -03427.2 -07.4992 26259.7
 04 04 2013  06 51  -21.0343 26035.1 -03427.2 -07.4992 26259.7
 04 04 2013  06 52  -21.0341 26035.2 -03427.3 -07.4993 26259.8
 04 04 2013  06 53  -21.0340 26035.2 -03427.3 -07.4994 26259.8
 04 04 2013  06 54  -21.0339 26035.1 -03427.3 -07.4994 26259.8
 04 04 2013  06 55  -21.0339 26035.0 -03427.3 -07.4993 26259.7
 04 04 2013  06 56  -21.0341 26034.9 -03427.2 -07.4993 26259.5
 04 04 2013  06 57  -21.0344 26034.8 -03427.2 -07.4992 26259.5
 04 04 2013  06 58  -21.0347 26034.8 -03427.2 -07.4992 26259.4
 04 04 2013  06 59  -21.0348 26034.8 -03427.2 -07.4992 26259.4
 04 04 2013  07 00  -21.0347 26034.7 -03427.2 -07.4992 26259.3
 04 04 2013  07 01  -21.0347 26034.7 -03427.1 -07.4991 26259.3
 04 04 2013  07 02  -21.0346 26034.6 -03427.1 -07.4991 26259.3
 04 04 2013  07 03  -21.0345 26034.8 -03427.2 -07.4992 26259.4
 04 04 2013  07 04  -21.0345 26034.9 -03427.2 -07.4993 26259.5
 04 04 2013  07 05  -21.0344 26034.9 -03427.3 -07.4994 26259.5
 04 04 2013  07 06  -21.0341 26034.9 -03427.3 -07.4994 26259.5
 04 04 2013  07 07  -21.0339 26034.8 -03427.3 -07.4994 26259.4
 04 04 2013  07 08  -21.0336 26034.8 -03427.3 -07.4994 26259.5
 04 04 2013  07 09  -21.0334 26034.9 -03427.3 -07.4995 26259.5
 04 04 2013  07 10  -21.0330 26034.9 -03427.3 -07.4995 26259.5
 04 04 2013  07 11  -21.0326 26034.8 -03427.4 -07.4996 26259.5
 04 04 2013  07 12  -21.0324 26034.8 -03427.4 -07.4996 26259.4
 04 04 2013  07 13  -21.0323 26034.8 -03427.4 -07.4997 26259.5
 04 04 2013  07 14  -21.0323 26034.9 -03427.5 -07.4999 26259.6
 04 04 2013  07 15  -21.0323 26035.1 -03427.7 -07.5002 26259.8
 04 04 2013  07 16  -21.0324 26035.2 -03427.7 -07.5003 26259.8
 04 04 2013  07 17  -21.0323 26035.3 -03427.8 -07.5004 26260.0
 04 04 2013  07 18  -21.0321 26035.5 -03427.9 -07.5006 26260.1
 04 04 2013  07 19  -21.0320 26035.5 -03427.9 -07.5006 26260.2
 04 04 2013  07 20  -21.0320 26035.5 -03427.9 -07.5006 26260.2
 04 04 2013  07 21  -21.0322 26035.5 -03428.0 -07.5007 26260.2
 04 04 2013  07 22  -21.0321 26035.6 -03428.0 -07.5007 26260.3
 04 04 2013  07 23  -21.0322 26035.6 -03428.0 -07.5008 26260.3
 04 04 2013  07 24  -21.0323 26035.6 -03428.0 -07.5007 26260.3
 04 04 2013  07 25  -21.0324 26035.6 -03427.9 -07.5006 26260.3
 04 04 2013  07 26  -21.0327 26035.6 -03428.0 -07.5006 26260.3
 04 04 2013  07 27  -21.0330 26035.7 -03428.0 -07.5007 26260.4
 04 04 2013  07 28  -21.0331 26035.7 -03428.0 -07.5007 26260.4
 04 04 2013  07 29  -21.0333 26035.8 -03428.0 -07.5007 26260.5
 04 04 2013  07 30  -21.0334 26035.9 -03428.0 -07.5008 26260.6
 04 04 2013  07 31  -21.0335 26035.9 -03428.0 -07.5008 26260.6
 04 04 2013  07 32  -21.0337 26036.0 -03428.1 -07.5008 26260.7
 04 04 2013  07 33  -21.0338 26036.1 -03428.1 -07.5008 26260.8
 04 04 2013  07 34  -21.0336 26036.2 -03428.1 -07.5008 26260.9
 04 04 2013  07 35  -21.0335 26036.3 -03428.1 -07.5008 26261.0
 04 04 2013  07 36  -21.0334 26036.1 -03428.0 -07.5006 26260.8
 04 04 2013  07 37  -21.0335 26036.2 -03428.0 -07.5007 26260.9
 04 04 2013  07 38  -21.0333 26036.3 -03428.1 -07.5007 26261.0
 04 04 2013  07 39  -21.0333 26036.1 -03428.0 -07.5006 26260.8
 04 04 2013  07 40  -21.0330 26036.0 -03428.0 -07.5005 26260.7
 04 04 2013  07 41  -21.0332 26036.1 -03428.0 -07.5006 26260.8
 04 04 2013  07 42  -21.0332 26036.0 -03428.0 -07.5006 26260.7
 04 04 2013  07 43  -21.0332 26036.0 -03428.0 -07.5005 26260.7
 04 04 2013  07 44  -21.0333 26036.0 -03428.0 -07.5006 26260.7
 04 04 2013  07 45  -21.0332 26036.0 -03428.0 -07.5005 26260.7
 04 04 2013  07 46  -21.0331 26036.1 -03428.0 -07.5007 26260.8
 04 04 2013  07 47  -21.0332 26036.0 -03427.9 -07.5005 26260.6
 04 04 2013  07 48  -21.0330 26036.0 -03428.0 -07.5005 26260.7
 04 04 2013  07 49  -21.0326 26036.0 -03427.9 -07.5005 26260.7
 04 04 2013  07 50  -21.0323 26035.8 -03427.8 -07.5003 26260.5
 04 04 2013  07 51  -21.0319 26036.0 -03427.9 -07.5004 26260.6
 04 04 2013  07 52  -21.0314 26035.9 -03427.9 -07.5004 26260.6
 04 04 2013  07 53  -21.0311 26035.8 -03427.9 -07.5004 26260.5
 04 04 2013  07 54  -21.0309 26035.7 -03427.9 -07.5005 26260.4
 04 04 2013  07 55  -21.0307 26035.8 -03428.0 -07.5006 26260.5
 04 04 2013  07 56  -21.0306 26035.7 -03428.0 -07.5006 26260.4
 04 04 2013  07 57  -21.0306 26035.8 -03428.0 -07.5007 26260.5
 04 04 2013  07 58  -21.0304 26035.9 -03428.1 -07.5009 26260.6
 04 04 2013  07 59  -21.0300 26036.0 -03428.2 -07.5010 26260.8
 04 04 2013  08 00  -21.0296 26036.0 -03428.1 -07.5009 26260.7
 04 04 2013  08 01  -21.0295 26035.8 -03428.1 -07.5009 26260.5
 04 04 2013  08 02  -21.0291 26035.8 -03428.1 -07.5010 26260.6
 04 04 2013  08 03  -21.0287 26035.8 -03428.2 -07.5010 26260.5
 04 04 2013  08 04  -21.0283 26035.9 -03428.2 -07.5011 26260.7
 04 04 2013  08 05  -21.0282 26036.1 -03428.3 -07.5013 26260.8
 04 04 2013  08 06  -21.0277 26036.1 -03428.4 -07.5014 26260.9
 04 04 2013  08 07  -21.0274 26035.9 -03428.3 -07.5012 26260.6
 04 04 2013  08 08  -21.0272 26036.0 -03428.3 -07.5013 26260.7
 04 04 2013  08 09  -21.0268 26036.1 -03428.4 -07.5016 26260.9
 04 04 2013  08 10  -21.0264 26036.1 -03428.5 -07.5016 26260.9
 04 04 2013  08 11  -21.0260 26036.2 -03428.5 -07.5017 26261.0
 04 04 2013  08 12  -21.0257 26036.0 -03428.5 -07.5017 26260.8
 04 04 2013  08 13  -21.0253 26035.8 -03428.5 -07.5017 26260.6
 04 04 2013  08 14  -21.0248 26035.7 -03428.4 -07.5016 26260.4
 04 04 2013  08 15  -21.0244 26035.7 -03428.5 -07.5017 26260.5
 04 04 2013  08 16  -21.0239 26035.9 -03428.6 -07.5019 26260.6
 04 04 2013  08 17  -21.0237 26035.8 -03428.7 -07.5021 26260.6
 04 04 2013  08 18  -21.0233 26035.8 -03428.7 -07.5023 26260.6
 04 04 2013  08 19  -21.0231 26035.9 -03428.8 -07.5024 26260.7
 04 04 2013  08 20  -21.0231 26036.1 -03429.0 -07.5027 26260.9
 04 04 2013  08 21  -21.0231 26036.2 -03429.1 -07.5029 26261.0
 04 04 2013  08 22  -21.0233 26036.2 -03429.1 -07.5030 26261.0
 04 04 2013  08 23  -21.0237 26036.1 -03429.2 -07.5032 26260.9
 04 04 2013  08 24  -21.0235 26036.1 -03429.2 -07.5032 26260.9
 04 04 2013  08 25  -21.0236 26035.9 -03429.2 -07.5033 26260.8
 04 04 2013  08 26  -21.0237 26036.2 -03429.4 -07.5035 26261.0
 04 04 2013  08 27  -21.0236 26036.4 -03429.5 -07.5037 26261.3
 04 04 2013  08 28  -21.0232 26036.5 -03429.6 -07.5039 26261.4
 04 04 2013  08 29  -21.0228 26036.2 -03429.4 -07.5037 26261.1
 04 04 2013  08 30  -21.0226 26036.1 -03429.4 -07.5037 26261.0
 04 04 2013  08 31  -21.0224 26036.1 -03429.4 -07.5037 26261.0
 04 04 2013  08 32  -21.0223 26036.2 -03429.5 -07.5038 26261.1
 04 04 2013  08 33  -21.0220 26036.3 -03429.6 -07.5041 26261.2
 04 04 2013  08 34  -21.0218 26036.3 -03429.6 -07.5041 26261.2
 04 04 2013  08 35  -21.0219 26036.2 -03429.6 -07.5041 26261.1
 04 04 2013  08 36  -21.0223 26036.0 -03429.6 -07.5041 26260.9
 04 04 2013  08 37  -21.0227 26036.0 -03429.7 -07.5043 26260.9
 04 04 2013  08 38  -21.0226 26035.9 -03429.7 -07.5043 26260.9
 04 04 2013  08 39  -21.0225 26036.0 -03429.7 -07.5043 26260.9
 04 04 2013  08 40  -21.0223 26035.8 -03429.7 -07.5043 26260.7
 04 04 2013  08 41  -21.0217 26035.6 -03429.6 -07.5042 26260.5
 04 04 2013  08 42  -21.0213 26035.6 -03429.6 -07.5042 26260.5
 04 04 2013  08 43  -21.0213 26035.8 -03429.8 -07.5045 26260.7
 04 04 2013  08 44  -21.0214 26035.7 -03429.9 -07.5047 26260.7
 04 04 2013  08 45  -21.0215 26035.7 -03430.0 -07.5049 26260.7
 04 04 2013  08 46  -21.0213 26035.8 -03430.1 -07.5052 26260.7
 04 04 2013  08 47  -21.0211 26035.8 -03430.2 -07.5053 26260.8
 04 04 2013  08 48  -21.0209 26035.8 -03430.3 -07.5056 26260.8
 04 04 2013  08 49  -21.0206 26035.8 -03430.4 -07.5059 26260.8
 04 04 2013  08 50  -21.0207 26035.8 -03430.6 -07.5062 26260.8
 04 04 2013  08 51  -21.0213 26035.7 -03430.7 -07.5065 26260.8
 04 04 2013  08 52  -21.0219 26035.7 -03430.8 -07.5068 26260.7
 04 04 2013  08 53  -21.0222 26035.7 -03430.9 -07.5070 26260.8
 04 04 2013  08 54  -21.0217 26035.6 -03430.9 -07.5071 26260.6
 04 04 2013  08 55  -21.0218 26035.5 -03431.0 -07.5073 26260.6
 04 04 2013  08 56  -21.0222 26035.4 -03431.1 -07.5075 26260.5
 04 04 2013  08 57  -21.0224 26035.4 -03431.2 -07.5077 26260.5
 04 04 2013  08 58  -21.0229 26035.4 -03431.3 -07.5079 26260.6
 04 04 2013  08 59  -21.0234 26035.4 -03431.4 -07.5081 26260.6
 04 04 2013  09 00  -21.0235 26035.3 -03431.4 -07.5082 26260.4
 04 04 2013  09 01  -21.0241 26035.3 -03431.5 -07.5083 26260.5
 04 04 2013  09 02  -21.0247 26035.5 -03431.7 -07.5087 26260.7
 04 04 2013  09 03  -21.0239 26035.5 -03431.7 -07.5088 26260.7
 04 04 2013  09 04  -21.0239 26035.6 -03431.7 -07.5088 26260.8
 04 04 2013  09 05  -21.0245 26035.8 -03431.9 -07.5091 26261.0
 04 04 2013  09 06  -21.0255 26035.9 -03432.0 -07.5093 26261.2
 04 04 2013  09 07  -21.0258 26036.0 -03432.1 -07.5094 26261.2
 04 04 2013  09 08  -21.0261 26036.0 -03432.1 -07.5095 26261.3
 04 04 2013  09 09  -21.0268 26036.2 -03432.2 -07.5096 26261.4
 04 04 2013  09 10  -21.0273 26036.4 -03432.3 -07.5098 26261.7
 04 04 2013  09 11  -21.0274 26036.6 -03432.4 -07.5099 26261.9
 04 04 2013  09 12  -21.0276 26036.7 -03432.4 -07.5100 26261.9
 04 04 2013  09 13  -21.0282 26036.7 -03432.5 -07.5101 26262.0
 04 04 2013  09 14  -21.0290 26036.7 -03432.5 -07.5102 26262.0
 04 04 2013  09 15  -21.0297 26036.7 -03432.6 -07.5103 26262.0
 04 04 2013  09 16  -21.0304 26036.7 -03432.6 -07.5103 26262.0
 04 04 2013  09 17  -21.0311 26036.7 -03432.6 -07.5103 26262.0
 04 04 2013  09 18  -21.0315 26036.7 -03432.5 -07.5102 26262.0
 04 04 2013  09 19  -21.0319 26036.7 -03432.5 -07.5101 26262.0
 04 04 2013  09 20  -21.0321 26036.7 -03432.4 -07.5100 26262.0
 04 04 2013  09 21  -21.0324 26036.8 -03432.4 -07.5099 26262.0
 04 04 2013  09 22  -21.0326 26036.7 -03432.3 -07.5097 26262.0
 04 04 2013  09 23  -21.0330 26036.7 -03432.2 -07.5096 26262.0
 04 04 2013  09 24  -21.0334 26036.7 -03432.2 -07.5096 26261.9
 04 04 2013  09 25  -21.0336 26036.6 -03432.1 -07.5094 26261.8
 04 04 2013  09 26  -21.0340 26036.5 -03432.1 -07.5093 26261.8
 04 04 2013  09 27  -21.0345 26036.4 -03432.0 -07.5092 26261.7
 04 04 2013  09 28  -21.0350 26036.4 -03432.0 -07.5091 26261.6
 04 04 2013  09 29  -21.0357 26036.4 -03432.0 -07.5091 26261.6
 04 04 2013  09 30  -21.0366 26036.5 -03432.0 -07.5091 26261.7
 04 04 2013  09 31  -21.0370 26036.4 -03432.0 -07.5091 26261.6
 04 04 2013  09 32  -21.0373 26036.4 -03432.0 -07.5091 26261.6
 04 04 2013  09 33  -21.0376 26036.5 -03432.0 -07.5091 26261.7
 04 04 2013  09 34  -21.0379 26036.4 -03432.0 -07.5091 26261.6
 04 04 2013  09 35  -21.0383 26036.3 -03431.9 -07.5090 26261.5
 04 04 2013  09 36  -21.0388 26036.3 -03432.0 -07.5091 26261.5
 04 04 2013  09 37  -21.0394 26036.4 -03432.0 -07.5091 26261.6
 04 04 2013  09 38  -21.0400 26036.4 -03432.0 -07.5091 26261.6
 04 04 2013  09 39  -21.0408 26036.4 -03432.0 -07.5092 26261.7
 04 04 2013  09 40  -21.0416 26036.6 -03432.1 -07.5094 26261.8
 04 04 2013  09 41  -21.0421 26036.7 -03432.2 -07.5095 26262.0
 04 04 2013  09 42  -21.0424 26036.7 -03432.2 -07.5095 26262.0
 04 04 2013  09 43  -21.0427 26036.8 -03432.2 -07.5095 26262.0
 04 04 2013  09 44  -21.0433 26036.8 -03432.2 -07.5096 26262.0
 04 04 2013  09 45  -21.0439 26036.8 -03432.2 -07.5096 26262.0
 04 04 2013  09 46  -21.0440 26036.8 -03432.2 -07.5094 26262.0
 04 04 2013  09 47  -21.0444 26036.8 -03432.2 -07.5094 26262.1
 04 04 2013  09 48  -21.0446 26036.9 -03432.2 -07.5094 26262.1
 04 04 2013  09 49  -21.0449 26036.9 -03432.2 -07.5094 26262.2
 04 04 2013  09 50  -21.0453 26037.1 -03432.3 -07.5095 26262.3
 04 04 2013  09 51  -21.0464 26037.3 -03432.4 -07.5097 26262.6
 04 04 2013  09 52  -21.0471 26037.4 -03432.4 -07.5098 26262.7
 04 04 2013  09 53  -21.0474 26037.5 -03432.5 -07.5098 26262.8
 04 04 2013  09 54  -21.0473 26037.4 -03432.4 -07.5097 26262.6
 04 04 2013  09 55  -21.0482 26037.3 -03432.3 -07.5096 26262.6
 04 04 2013  09 56  -21.0494 26037.1 -03432.3 -07.5096 26262.4
 04 04 2013  09 57  -21.0506 26037.0 -03432.3 -07.5095 26262.3
 04 04 2013  09 58  -21.0518 26036.9 -03432.2 -07.5094 26262.1
 04 04 2013  09 59  -21.0525 26036.9 -03432.2 -07.5095 26262.2
 04 04 2013  10 00  -21.0533 26037.1 -03432.3 -07.5095 26262.3
 04 04 2013  10 01  -21.0540 26037.0 -03432.3 -07.5095 26262.3
 04 04 2013  10 02  -21.0545 26037.0 -03432.2 -07.5095 26262.2
 04 04 2013  10 03  -21.0549 26037.0 -03432.2 -07.5095 26262.3
 04 04 2013  10 04  -21.0551 26037.1 -03432.3 -07.5096 26262.3
 04 04 2013  10 05  -21.0544 26037.1 -03432.2 -07.5094 26262.3
 04 04 2013  10 06  -21.0548 26037.0 -03432.1 -07.5093 26262.2
 04 04 2013  10 07  -21.0564 26037.1 -03432.2 -07.5094 26262.3
 04 04 2013  10 08  -21.0571 26037.4 -03432.3 -07.5095 26262.7
 04 04 2013  10 09  -21.0571 26037.6 -03432.3 -07.5095 26262.9
 04 04 2013  10 10  -21.0568 26037.5 -03432.2 -07.5092 26262.7
 04 04 2013  10 11  -21.0571 26037.6 -03432.2 -07.5092 26262.9
 04 04 2013  10 12  -21.0575 26037.9 -03432.2 -07.5092 26263.1
 04 04 2013  10 13  -21.0582 26038.2 -03432.3 -07.5094 26263.5
 04 04 2013  10 14  -21.0586 26038.5 -03432.4 -07.5094 26263.8
 04 04 2013  10 15  -21.0589 26038.7 -03432.4 -07.5093 26264.0
 04 04 2013  10 16  -21.0593 26038.9 -03432.4 -07.5093 26264.1
 04 04 2013  10 17  -21.0598 26039.1 -03432.4 -07.5093 26264.3
 04 04 2013  10 18  -21.0602 26039.0 -03432.3 -07.5091 26264.3
 04 04 2013  10 19  -21.0609 26039.1 -03432.3 -07.5090 26264.3
 04 04 2013  10 20  -21.0617 26039.1 -03432.3 -07.5090 26264.3
 04 04 2013  10 21  -21.0622 26038.9 -03432.2 -07.5088 26264.2
 04 04 2013  10 22  -21.0626 26039.0 -03432.2 -07.5088 26264.2
 04 04 2013  10 23  -21.0635 26039.1 -03432.1 -07.5086 26264.3
 04 04 2013  10 24  -21.0642 26039.2 -03432.1 -07.5086 26264.4
 04 04 2013  10 25  -21.0659 26039.3 -03432.1 -07.5085 26264.5
 04 04 2013  10 26  -21.0673 26039.2 -03432.0 -07.5083 26264.4
 04 04 2013  10 27  -21.0682 26039.2 -03431.8 -07.5080 26264.4
 04 04 2013  10 28  -21.0686 26039.2 -03431.7 -07.5076 26264.4
 04 04 2013  10 29  -21.0696 26039.2 -03431.5 -07.5073 26264.3
 04 04 2013  10 30  -21.0704 26039.2 -03431.4 -07.5070 26264.3
 04 04 2013  10 31  -21.0708 26039.2 -03431.3 -07.5067 26264.3
 04 04 2013  10 32  -21.0711 26039.3 -03431.2 -07.5065 26264.4
 04 04 2013  10 33  -21.0714 26039.1 -03431.0 -07.5061 26264.2
 04 04 2013  10 34  -21.0718 26039.1 -03430.9 -07.5059 26264.1
 04 04 2013  10 35  -21.0723 26038.9 -03430.7 -07.5056 26264.0
 04 04 2013  10 36  -21.0717 26039.1 -03430.7 -07.5055 26264.1
 04 04 2013  10 37  -21.0716 26039.3 -03430.6 -07.5054 26264.3
 04 04 2013  10 38  -21.0720 26039.5 -03430.6 -07.5053 26264.5
 04 04 2013  10 39  -21.0721 26039.7 -03430.6 -07.5052 26264.7
 04 04 2013  10 40  -21.0724 26039.6 -03430.4 -07.5048 26264.6
 04 04 2013  10 41  -21.0734 26039.8 -03430.4 -07.5047 26264.7
 04 04 2013  10 42  -21.0740 26039.9 -03430.3 -07.5044 26264.8
 04 04 2013  10 43  -21.0741 26039.9 -03430.1 -07.5040 26264.9
 04 04 2013  10 44  -21.0746 26040.2 -03430.0 -07.5038 26265.1
 04 04 2013  10 45  -21.0754 26040.1 -03429.8 -07.5034 26265.1
 04 04 2013  10 46  -21.0760 26040.4 -03429.7 -07.5031 26265.3
 04 04 2013  10 47  -21.0768 26040.5 -03429.6 -07.5028 26265.3
 04 04 2013  10 48  -21.0777 26040.6 -03429.5 -07.5025 26265.4
 04 04 2013  10 49  -21.0780 26040.7 -03429.3 -07.5022 26265.6
 04 04 2013  10 50  -21.0779 26040.8 -03429.1 -07.5017 26265.6
 04 04 2013  10 51  -21.0779 26041.0 -03429.0 -07.5014 26265.8
 04 04 2013  10 52  -21.0785 26041.3 -03429.0 -07.5012 26266.1
 04 04 2013  10 53  -21.0783 26041.6 -03428.9 -07.5011 26266.4
 04 04 2013  10 54  -21.0783 26041.7 -03428.8 -07.5008 26266.5
 04 04 2013  10 55  -21.0782 26041.9 -03428.7 -07.5005 26266.6
 04 04 2013  10 56  -21.0782 26042.1 -03428.7 -07.5003 26266.8
 04 04 2013  10 57  -21.0779 26042.4 -03428.6 -07.5001 26267.1
 04 04 2013  10 58  -21.0776 26042.8 -03428.5 -07.4998 26267.5
 04 04 2013  10 59  -21.0769 26043.1 -03428.4 -07.4995 26267.8
 04 04 2013  11 00  -21.0776 26043.4 -03428.3 -07.4991 26268.0
 04 04 2013  11 01  -21.0792 26043.6 -03428.1 -07.4988 26268.2
 04 04 2013  11 02  -21.0798 26043.7 -03428.0 -07.4984 26268.3
 04 04 2013  11 03  -21.0799 26044.0 -03427.9 -07.4982 26268.6
 04 04 2013  11 04  -21.0795 26044.4 -03427.8 -07.4978 26269.0
 04 04 2013  11 05  -21.0801 26044.6 -03427.7 -07.4976 26269.2
 04 04 2013  11 06  -21.0807 26044.7 -03427.6 -07.4973 26269.3
 04 04 2013  11 07  -21.0814 26044.7 -03427.5 -07.4971 26269.3
 04 04 2013  11 08  -21.0829 26044.7 -03427.3 -07.4966 26269.2
 04 04 2013  11 09  -21.0843 26044.7 -03427.1 -07.4963 26269.2
 04 04 2013  11 10  -21.0853 26044.7 -03426.9 -07.4957 26269.2
 04 04 2013  11 11  -21.0868 26044.6 -03426.6 -07.4952 26269.1
 04 04 2013  11 12  -21.0886 26045.0 -03426.4 -07.4947 26269.4
 04 04 2013  11 13  -21.0897 26045.3 -03426.2 -07.4940 26269.6
 04 04 2013  11 14  -21.0910 26045.4 -03425.9 -07.4933 26269.8
 04 04 2013  11 15  -21.0923 26045.3 -03425.5 -07.4927 26269.6
 04 04 2013  11 16  -21.0924 26045.9 -03425.6 -07.4927 26270.2
 04 04 2013  11 17  -21.0925 26045.6 -03425.3 -07.4921 26269.9
 04 04 2013  11 18  -21.0927 26045.4 -03425.0 -07.4915 26269.6
 04 04 2013  11 19  -21.0920 26045.8 -03425.1 -07.4916 26270.0
 04 04 2013  11 20  -21.0911 26045.7 -03425.0 -07.4914 26269.9
 04 04 2013  11 21  -21.0901 26045.4 -03424.9 -07.4912 26269.6
 04 04 2013  11 22  -21.0899 26045.7 -03424.9 -07.4912 26269.9
 04 04 2013  11 23  -21.0898 26046.4 -03425.2 -07.4916 26270.7
 04 04 2013  11 24  -21.0894 26047.2 -03425.3 -07.4916 26271.5
 04 04 2013  11 25  -21.0887 26047.7 -03425.2 -07.4913 26271.9
 04 04 2013  11 26  -21.0881 26048.0 -03425.1 -07.4908 26272.2
 04 04 2013  11 27  -21.0883 26048.3 -03425.0 -07.4906 26272.5
 04 04 2013  11 28  -21.0890 26048.5 -03424.8 -07.4902 26272.7
 04 04 2013  11 29  -21.0897 26048.5 -03424.6 -07.4898 26272.6
 04 04 2013  11 30  -21.0901 26048.4 -03424.4 -07.4893 26272.5
 04 04 2013  11 31  -21.0904 26048.4 -03424.3 -07.4890 26272.5
 04 04 2013  11 32  -21.0907 26048.3 -03424.1 -07.4886 26272.4
 04 04 2013  11 33  -21.0910 26048.4 -03423.9 -07.4883 26272.4
 04 04 2013  11 34  -21.0914 26048.4 -03423.8 -07.4881 26272.5
 04 04 2013  11 35  -21.0915 26048.5 -03423.7 -07.4877 26272.5
 04 04 2013  11 36  -21.0919 26048.1 -03423.4 -07.4872 26272.1
 04 04 2013  11 37  -21.0919 26047.8 -03423.1 -07.4868 26271.7
 04 04 2013  11 38  -21.0915 26048.2 -03423.2 -07.4867 26272.1
 04 04 2013  11 39  -21.0923 26049.2 -03423.5 -07.4872 26273.2
 04 04 2013  11 40  -21.0927 26048.8 -03423.3 -07.4867 26272.8
 04 04 2013  11 41  -21.0926 26048.6 -03423.0 -07.4863 26272.6
 04 04 2013  11 42  -21.0925 26048.4 -03422.8 -07.4859 26272.3
 04 04 2013  11 43  -21.0925 26048.6 -03422.8 -07.4858 26272.6
 04 04 2013  11 44  -21.0924 26048.7 -03422.7 -07.4856 26272.6
 04 04 2013  11 45  -21.0919 26049.0 -03422.7 -07.4854 26272.9
 04 04 2013  11 46  -21.0921 26049.4 -03422.7 -07.4853 26273.3
 04 04 2013  11 47  -21.0924 26049.8 -03422.7 -07.4853 26273.7
 04 04 2013  11 48  -21.0929 26050.0 -03422.7 -07.4851 26273.9
 04 04 2013  11 49  -21.0930 26050.4 -03422.7 -07.4851 26274.3
 04 04 2013  11 50  -21.0932 26050.6 -03422.6 -07.4849 26274.5
 04 04 2013  11 51  -21.0933 26050.4 -03422.5 -07.4846 26274.3
 04 04 2013  11 52  -21.0932 26050.9 -03422.6 -07.4847 26274.8
 04 04 2013  11 53  -21.0929 26051.5 -03422.7 -07.4848 26275.4
 04 04 2013  11 54  -21.0930 26051.9 -03422.8 -07.4848 26275.8
 04 04 2013  11 55  -21.0932 26052.6 -03422.9 -07.4848 26276.5
 04 04 2013  11 56  -21.0933 26053.0 -03422.9 -07.4847 26276.9
 04 04 2013  11 57  -21.0932 26053.6 -03422.9 -07.4847 26277.5
 04 04 2013  11 58  -21.0931 26054.2 -03423.0 -07.4845 26278.1
 04 04 2013  11 59  -21.0934 26054.3 -03422.9 -07.4843 26278.2
 04 04 2013  12 00  -21.0937 26054.6 -03422.8 -07.4841 26278.5
 04 04 2013  12 01  -21.0939 26055.1 -03422.9 -07.4841 26278.9
 04 04 2013  12 02  -21.0941 26055.2 -03422.8 -07.4839 26279.1
 04 04 2013  12 03  -21.0943 26056.0 -03423.0 -07.4841 26279.8
 04 04 2013  12 04  -21.0944 26056.9 -03423.2 -07.4842 26280.7
 04 04 2013  12 05  -21.0942 26057.1 -03423.0 -07.4839 26281.0
 04 04 2013  12 06  -21.0938 26057.6 -03423.0 -07.4837 26281.4
 04 04 2013  12 07  -21.0938 26057.9 -03422.9 -07.4834 26281.7
 04 04 2013  12 08  -21.0941 26058.4 -03423.0 -07.4835 26282.3
 04 04 2013  12 09  -21.0942 26058.7 -03422.9 -07.4832 26282.5
 04 04 2013  12 10  -21.0945 26058.8 -03422.8 -07.4829 26282.6
 04 04 2013  12 11  -21.0952 26058.9 -03422.7 -07.4827 26282.7
 04 04 2013  12 12  -21.0959 26058.9 -03422.6 -07.4824 26282.7
 04 04 2013  12 13  -21.0966 26059.1 -03422.6 -07.4823 26282.9
 04 04 2013  12 14  -21.0971 26059.4 -03422.6 -07.4822 26283.2
 04 04 2013  12 15  -21.0977 26059.7 -03422.5 -07.4821 26283.5
 04 04 2013  12 16  -21.0983 26060.2 -03422.6 -07.4821 26284.0
 04 04 2013  12 17  -21.0986 26060.4 -03422.6 -07.4819 26284.2
 04 04 2013  12 18  -21.0993 26060.4 -03422.4 -07.4816 26284.1
 04 04 2013  12 19  -21.0995 26060.2 -03422.3 -07.4813 26284.0
 04 04 2013  12 20  -21.0994 26060.3 -03422.2 -07.4811 26284.1
 04 04 2013  12 21  -21.0994 26060.4 -03422.2 -07.4810 26284.2
 04 04 2013  12 22  -21.0994 26060.6 -03422.1 -07.4810 26284.3
 04 04 2013  12 23  -21.0994 26060.5 -03422.0 -07.4808 26284.3
 04 04 2013  12 24  -21.0993 26060.8 -03422.0 -07.4807 26284.5
 04 04 2013  12 25  -21.0995 26061.1 -03422.0 -07.4806 26284.8
 04 04 2013  12 26  -21.0994 26061.5 -03422.1 -07.4805 26285.2
 04 04 2013  12 27  -21.0997 26062.0 -03422.0 -07.4803 26285.7
 04 04 2013  12 28  -21.1001 26061.9 -03421.8 -07.4799 26285.6
 04 04 2013  12 29  -21.1006 26061.6 -03421.5 -07.4794 26285.2
 04 04 2013  12 30  -21.1009 26061.4 -03421.3 -07.4790 26285.0
 04 04 2013  12 31  -21.1009 26061.2 -03421.2 -07.4788 26284.8
 04 04 2013  12 32  -21.1012 26061.3 -03421.2 -07.4788 26284.9
 04 04 2013  12 33  -21.1012 26061.4 -03421.3 -07.4788 26285.0
 04 04 2013  12 34  -21.1013 26061.2 -03421.2 -07.4786 26284.8
 04 04 2013  12 35  -21.1013 26061.1 -03421.1 -07.4785 26284.7
 04 04 2013  12 36  -21.1015 26061.0 -03421.0 -07.4783 26284.6
 04 04 2013  12 37  -21.1019 26061.2 -03421.0 -07.4782 26284.8
 04 04 2013  12 38  -21.1025 26060.9 -03420.7 -07.4778 26284.4
 04 04 2013  12 39  -21.1026 26060.5 -03420.5 -07.4774 26284.1
 04 04 2013  12 40  -21.1029 26060.3 -03420.3 -07.4770 26283.8
 04 04 2013  12 41  -21.1032 26060.2 -03420.1 -07.4767 26283.7
 04 04 2013  12 42  -21.1039 26060.2 -03420.0 -07.4764 26283.6
 04 04 2013  12 43  -21.1045 26060.0 -03419.8 -07.4761 26283.4
 04 04 2013  12 44  -21.1050 26059.9 -03419.7 -07.4760 26283.3
 04 04 2013  12 45  -21.1052 26059.8 -03419.7 -07.4759 26283.2
 04 04 2013  12 46  -21.1053 26059.3 -03419.5 -07.4756 26282.7
 04 04 2013  12 47  -21.1055 26058.8 -03419.4 -07.4755 26282.2
 04 04 2013  12 48  -21.1055 26058.4 -03419.3 -07.4754 26281.7
 04 04 2013  12 49  -21.1054 26057.9 -03419.2 -07.4754 26281.3
 04 04 2013  12 50  -21.1050 26057.6 -03419.2 -07.4755 26281.0
 04 04 2013  12 51  -21.1047 26057.3 -03419.2 -07.4756 26280.7
 04 04 2013  12 52  -21.1044 26057.4 -03419.4 -07.4759 26280.8
 04 04 2013  12 53  -21.1042 26057.6 -03419.5 -07.4761 26281.0
 04 04 2013  12 54  -21.1039 26058.0 -03419.7 -07.4765 26281.5
 04 04 2013  12 55  -21.1036 26058.4 -03419.9 -07.4767 26281.9
 04 04 2013  12 56  -21.1033 26058.9 -03420.0 -07.4768 26282.4
 04 04 2013  12 57  -21.1030 26059.5 -03420.1 -07.4768 26282.9
 04 04 2013  12 58  -21.1031 26060.0 -03420.2 -07.4769 26283.5
 04 04 2013  12 59  -21.1030 26060.6 -03420.3 -07.4769 26284.0
 04 04 2013  13 00  -21.1032 26061.1 -03420.3 -07.4768 26284.6
 04 04 2013  13 01  -21.1032 26061.3 -03420.2 -07.4765 26284.7
 04 04 2013  13 02  -21.1031 26061.4 -03420.1 -07.4762 26284.9
 04 04 2013  13 03  -21.1032 26062.0 -03420.1 -07.4762 26285.4
 04 04 2013  13 04  -21.1030 26062.4 -03420.1 -07.4760 26285.8
 04 04 2013  13 05  -21.1029 26062.9 -03420.1 -07.4759 26286.4
 04 04 2013  13 06  -21.1032 26063.4 -03420.1 -07.4757 26286.9
 04 04 2013  13 07  -21.1035 26063.7 -03420.0 -07.4754 26287.2
 04 04 2013  13 08  -21.1035 26064.0 -03419.9 -07.4751 26287.4
 04 04 2013  13 09  -21.1037 26064.3 -03419.7 -07.4746 26287.7
 04 04 2013  13 10  -21.1039 26064.8 -03419.6 -07.4744 26288.1
 04 04 2013  13 11  -21.1041 26065.3 -03419.6 -07.4741 26288.7
 04 04 2013  13 12  -21.1044 26065.9 -03419.5 -07.4738 26289.3
 04 04 2013  13 13  -21.1045 26066.1 -03419.3 -07.4733 26289.4
 04 04 2013  13 14  -21.1046 26066.3 -03419.1 -07.4728 26289.6
 04 04 2013  13 15  -21.1048 26066.5 -03419.0 -07.4725 26289.8
 04 04 2013  13 16  -21.1050 26066.7 -03418.8 -07.4721 26290.0
 04 04 2013  13 17  -21.1052 26067.0 -03418.7 -07.4717 26290.2
 04 04 2013  13 18  -21.1055 26067.2 -03418.5 -07.4713 26290.4
 04 04 2013  13 19  -21.1054 26067.4 -03418.3 -07.4708 26290.6
 04 04 2013  13 20  -21.1056 26067.7 -03418.2 -07.4704 26290.9
 04 04 2013  13 21  -21.1059 26067.6 -03418.0 -07.4699 26290.7
 04 04 2013  13 22  -21.1062 26067.7 -03417.8 -07.4696 26290.8
 04 04 2013  13 23  -21.1064 26067.9 -03417.7 -07.4694 26291.0
 04 04 2013  13 24  -21.1065 26067.8 -03417.5 -07.4689 26290.9
 04 04 2013  13 25  -21.1065 26067.5 -03417.2 -07.4683 26290.5
 04 04 2013  13 26  -21.1065 26067.4 -03417.0 -07.4679 26290.4
 04 04 2013  13 27  -21.1064 26067.4 -03416.9 -07.4677 26290.3
 04 04 2013  13 28  -21.1063 26067.5 -03416.9 -07.4676 26290.5
 04 04 2013  13 29  -21.1065 26067.3 -03416.7 -07.4673 26290.3
 04 04 2013  13 30  -21.1067 26067.1 -03416.6 -07.4671 26290.0
 04 04 2013  13 31  -21.1081 26066.9 -03416.4 -07.4667 26289.8
 04 04 2013  13 32  -21.1114 26066.7 -03416.1 -07.4661 26289.6
 04 04 2013  13 33  -21.1124 26066.9 -03416.1 -07.4662 26289.8
 04 04 2013  13 34  -21.1132 26066.9 -03416.2 -07.4662 26289.8
 04 04 2013  13 35  -21.1136 26067.0 -03416.1 -07.4660 26289.9
 04 04 2013  13 36  -21.1134 26066.8 -03415.9 -07.4658 26289.6
 04 04 2013  13 37  -21.1151 26066.3 -03415.6 -07.4653 26289.1
 04 04 2013  13 38  -21.1166 26066.0 -03415.5 -07.4650 26288.8
 04 04 2013  13 39  -21.1139 26065.6 -03415.3 -07.4647 26288.4
 04 04 2013  13 40  -21.1096 26065.3 -03415.2 -07.4647 26288.1
 04 04 2013  13 41  -21.1086 26065.3 -03415.4 -07.4650 26288.1
 04 04 2013  13 42  -21.1085 26064.9 -03415.3 -07.4649 26287.7
 04 04 2013  13 43  -21.1087 26064.9 -03415.5 -07.4653 26287.8
 04 04 2013  13 44  -21.1091 26064.9 -03415.6 -07.4655 26287.7
 04 04 2013  13 45  -21.1096 26065.3 -03415.8 -07.4659 26288.1
 04 04 2013  13 46  -21.1102 26065.8 -03416.0 -07.4662 26288.7
 04 04 2013  13 47  -21.1107 26065.7 -03415.9 -07.4661 26288.6
 04 04 2013  13 48  -21.1106 26065.4 -03415.7 -07.4657 26288.2
 04 04 2013  13 49  -21.1109 26065.5 -03415.7 -07.4657 26288.3
 04 04 2013  13 50  -21.1111 26065.3 -03415.7 -07.4656 26288.2
 04 04 2013  13 51  -21.1118 26065.4 -03415.6 -07.4656 26288.2
 04 04 2013  13 52  -21.1122 26065.4 -03415.6 -07.4656 26288.2
 04 04 2013  13 53  -21.1121 26065.1 -03415.4 -07.4652 26287.9
 04 04 2013  13 54  -21.1125 26065.5 -03415.5 -07.4653 26288.3
 04 04 2013  13 55  -21.1129 26065.4 -03415.5 -07.4652 26288.2
 04 04 2013  13 56  -21.1132 26065.1 -03415.2 -07.4648 26287.9
 04 04 2013  13 57  -21.1135 26065.0 -03415.2 -07.4647 26287.8
 04 04 2013  13 58  -21.1135 26064.8 -03415.1 -07.4645 26287.6
 04 04 2013  13 59  -21.1132 26064.6 -03414.9 -07.4643 26287.3
 04 04 2013  14 00  -21.1128 26064.5 -03414.9 -07.4642 26287.3
 04 04 2013  14 01  -21.1125 26064.4 -03414.8 -07.4641 26287.2
 04 04 2013  14 02  -21.1122 26064.2 -03414.8 -07.4641 26286.9
 04 04 2013  14 03  -21.1121 26064.0 -03414.8 -07.4642 26286.8
 04 04 2013  14 04  -21.1117 26064.2 -03415.0 -07.4645 26287.0
 04 04 2013  14 05  -21.1118 26064.2 -03415.1 -07.4648 26287.0
 04 04 2013  14 06  -21.1118 26063.9 -03415.1 -07.4648 26286.7
 04 04 2013  14 07  -21.1120 26064.1 -03415.3 -07.4652 26287.0
 04 04 2013  14 08  -21.1124 26064.5 -03415.5 -07.4656 26287.3
 04 04 2013  14 09  -21.1126 26064.6 -03415.5 -07.4656 26287.4
 04 04 2013  14 10  -21.1128 26064.5 -03415.4 -07.4654 26287.3
 04 04 2013  14 11  -21.1129 26064.3 -03415.3 -07.4651 26287.1
 04 04 2013  14 12  -21.1129 26064.2 -03415.2 -07.4650 26287.0
 04 04 2013  14 13  -21.1127 26064.4 -03415.2 -07.4650 26287.2
 04 04 2013  14 14  -21.1126 26064.5 -03415.3 -07.4650 26287.3
 04 04 2013  14 15  -21.1126 26064.3 -03415.2 -07.4648 26287.1
 04 04 2013  14 16  -21.1132 26064.2 -03415.2 -07.4649 26287.0
 04 04 2013  14 17  -21.1139 26064.0 -03415.1 -07.4649 26286.7
 04 04 2013  14 18  -21.1147 26063.7 -03415.1 -07.4649 26286.5
 04 04 2013  14 19  -21.1152 26063.6 -03415.2 -07.4650 26286.4
 04 04 2013  14 20  -21.1154 26063.6 -03415.2 -07.4652 26286.4
 04 04 2013  14 21  -21.1152 26063.2 -03415.1 -07.4650 26286.0
 04 04 2013  14 22  -21.1149 26063.2 -03415.2 -07.4651 26286.0
 04 04 2013  14 23  -21.1143 26063.3 -03415.2 -07.4652 26286.1
 04 04 2013  14 24  -21.1139 26063.2 -03415.3 -07.4654 26286.0
 04 04 2013  14 25  -21.1132 26062.6 -03415.1 -07.4652 26285.4
 04 04 2013  14 26  -21.1126 26062.7 -03415.2 -07.4654 26285.5
 04 04 2013  14 27  -21.1127 26062.3 -03415.2 -07.4656 26285.1
 04 04 2013  14 28  -21.1126 26061.8 -03415.2 -07.4656 26284.6
 04 04 2013  14 29  -21.1126 26061.6 -03415.3 -07.4658 26284.4
 04 04 2013  14 30  -21.1125 26061.5 -03415.4 -07.4661 26284.3
 04 04 2013  14 31  -21.1121 26061.2 -03415.4 -07.4663 26284.0
 04 04 2013  14 32  -21.1118 26060.8 -03415.4 -07.4664 26283.7
 04 04 2013  14 33  -21.1114 26060.7 -03415.5 -07.4667 26283.5
 04 04 2013  14 34  -21.1123 26060.7 -03415.6 -07.4669 26283.6
 04 04 2013  14 35  -21.1148 26060.2 -03415.5 -07.4668 26283.1
 04 04 2013  14 36  -21.1141 26060.3 -03415.6 -07.4670 26283.2
 04 04 2013  14 37  -21.1136 26060.4 -03415.7 -07.4672 26283.3
 04 04 2013  14 38  -21.1130 26060.6 -03415.9 -07.4674 26283.5
 04 04 2013  14 39  -21.1126 26060.7 -03416.0 -07.4676 26283.7
 04 04 2013  14 40  -21.1123 26060.8 -03416.1 -07.4677 26283.8
 04 04 2013  14 41  -21.1120 26060.8 -03416.1 -07.4678 26283.8
 04 04 2013  14 42  -21.1113 26060.7 -03416.1 -07.4678 26283.7
 04 04 2013  14 43  -21.1108 26060.6 -03416.1 -07.4679 26283.5
 04 04 2013  14 44  -21.1104 26060.4 -03416.1 -07.4680 26283.4
 04 04 2013  14 45  -21.1100 26060.1 -03416.1 -07.4680 26283.1
 04 04 2013  14 46  -21.1095 26060.3 -03416.1 -07.4681 26283.2
 04 04 2013  14 47  -21.1095 26060.4 -03416.3 -07.4683 26283.4
 04 04 2013  14 48  -21.1095 26060.4 -03416.3 -07.4684 26283.4
 04 04 2013  14 49  -21.1095 26060.4 -03416.4 -07.4685 26283.3
 04 04 2013  14 50  -21.1093 26060.3 -03416.4 -07.4686 26283.3
 04 04 2013  14 51  -21.1091 26060.3 -03416.5 -07.4688 26283.3
 04 04 2013  14 52  -21.1089 26060.3 -03416.6 -07.4691 26283.3
 04 04 2013  14 53  -21.1087 26060.2 -03416.7 -07.4693 26283.3
 04 04 2013  14 54  -21.1086 26060.3 -03416.8 -07.4695 26283.3
 04 04 2013  14 55  -21.1085 26060.3 -03416.9 -07.4697 26283.3
 04 04 2013  14 56  -21.1082 26060.0 -03416.9 -07.4698 26283.1
 04 04 2013  14 57  -21.1080 26060.0 -03416.9 -07.4698 26283.0
 04 04 2013  14 58  -21.1079 26059.9 -03417.0 -07.4701 26282.9
 04 04 2013  14 59  -21.1077 26059.9 -03417.2 -07.4705 26283.0
 04 04 2013  15 00  -21.1074 26059.6 -03417.3 -07.4708 26282.7
 04 04 2013  15 01  -21.1072 26059.4 -03417.4 -07.4710 26282.5
 04 04 2013  15 02  -21.1071 26059.2 -03417.5 -07.4714 26282.4
 04 04 2013  15 03  -21.1073 26059.3 -03417.9 -07.4721 26282.5
 04 04 2013  15 04  -21.1072 26059.1 -03418.0 -07.4725 26282.3
 04 04 2013  15 05  -21.1070 26059.0 -03418.2 -07.4728 26282.3
 04 04 2013  15 06  -21.1068 26058.9 -03418.3 -07.4731 26282.1
 04 04 2013  15 07  -21.1067 26058.9 -03418.5 -07.4736 26282.2
 04 04 2013  15 08  -21.1070 26059.0 -03418.9 -07.4743 26282.3
 04 04 2013  15 09  -21.1068 26059.1 -03419.1 -07.4748 26282.5
 04 04 2013  15 10  -21.1031 26059.5 -03419.6 -07.4758 26282.9
 04 04 2013  15 11  -21.1031 26059.6 -03419.9 -07.4764 26283.1
 04 04 2013  15 12  -21.1033 26059.7 -03420.2 -07.4770 26283.2
 04 04 2013  15 13  -21.1034 26059.7 -03420.4 -07.4775 26283.3
 04 04 2013  15 14  -21.1036 26059.7 -03420.6 -07.4779 26283.2
 04 04 2013  15 15  -21.1039 26059.8 -03420.9 -07.4785 26283.3
 04 04 2013  15 16  -21.1043 26060.0 -03421.2 -07.4790 26283.6
 04 04 2013  15 17  -21.1048 26060.2 -03421.4 -07.4795 26283.9
 04 04 2013  15 18  -21.1053 26060.5 -03421.6 -07.4799 26284.1
 04 04 2013  15 19  -21.1059 26060.6 -03421.9 -07.4803 26284.3
 04 04 2013  15 20  -21.1064 26060.7 -03422.0 -07.4806 26284.4
 04 04 2013  15 21  -21.1071 26061.0 -03422.2 -07.4811 26284.7
 04 04 2013  15 22  -21.1078 26061.3 -03422.4 -07.4814 26285.0
 04 04 2013  15 23  -21.1086 26061.5 -03422.6 -07.4816 26285.3
 04 04 2013  15 24  -21.1091 26061.5 -03422.6 -07.4817 26285.3
 04 04 2013  15 25  -21.1097 26061.4 -03422.6 -07.4818 26285.1
 04 04 2013  15 26  -21.1103 26061.2 -03422.7 -07.4820 26285.0
 04 04 2013  15 27  -21.1105 26061.1 -03422.7 -07.4820 26284.9
 04 04 2013  15 28  -21.1108 26061.1 -03422.8 -07.4822 26284.9
 04 04 2013  15 29  -21.1111 26061.1 -03422.9 -07.4824 26284.9
 04 04 2013  15 30  -21.1113 26061.1 -03422.9 -07.4825 26285.0
 04 04 2013  15 31  -21.1114 26061.2 -03423.0 -07.4825 26285.0
 04 04 2013  15 32  -21.1117 26061.1 -03422.9 -07.4825 26284.9
 04 04 2013  15 33  -21.1124 26061.2 -03423.0 -07.4827 26285.0
 04 04 2013  15 34  -21.1129 26061.3 -03423.1 -07.4829 26285.2
 04 04 2013  15 35  -21.1136 26061.8 -03423.3 -07.4831 26285.6
 04 04 2013  15 36  -21.1141 26061.8 -03423.2 -07.4830 26285.7
 04 04 2013  15 37  -21.1146 26061.8 -03423.2 -07.4829 26285.7
 04 04 2013  15 38  -21.1149 26061.7 -03423.1 -07.4827 26285.6
 04 04 2013  15 39  -21.1152 26061.7 -03423.0 -07.4826 26285.5
 04 04 2013  15 40  -21.1159 26061.8 -03423.1 -07.4826 26285.6
 04 04 2013  15 41  -21.1162 26061.9 -03423.1 -07.4826 26285.7
 04 04 2013  15 42  -21.1169 26062.3 -03423.2 -07.4827 26286.1
 04 04 2013  15 43  -21.1176 26062.5 -03423.2 -07.4827 26286.3
 04 04 2013  15 44  -21.1181 26062.5 -03423.1 -07.4826 26286.4
 04 04 2013  15 45  -21.1186 26062.6 -03423.1 -07.4824 26286.4
 04 04 2013  15 46  -21.1193 26062.8 -03423.1 -07.4824 26286.7
 04 04 2013  15 47  -21.1200 26063.0 -03423.1 -07.4823 26286.8
 04 04 2013  15 48  -21.1204 26063.1 -03423.0 -07.4821 26287.0
 04 04 2013  15 49  -21.1212 26063.6 -03423.0 -07.4820 26287.4
 04 04 2013  15 50  -21.1212 26063.3 -03422.8 -07.4816 26287.1
 04 04 2013  15 51  -21.1211 26063.3 -03422.6 -07.4813 26287.0
 04 04 2013  15 52  -21.1211 26063.2 -03422.5 -07.4810 26286.9
 04 04 2013  15 53  -21.1212 26063.3 -03422.4 -07.4808 26287.0
 04 04 2013  15 54  -21.1210 26063.0 -03422.3 -07.4805 26286.7
 04 04 2013  15 55  -21.1208 26062.8 -03422.1 -07.4803 26286.5
 04 04 2013  15 56  -21.1207 26062.8 -03422.1 -07.4802 26286.5
 04 04 2013  15 57  -21.1208 26062.7 -03422.0 -07.4801 26286.4
 04 04 2013  15 58  -21.1209 26062.8 -03422.0 -07.4801 26286.5
 04 04 2013  15 59  -21.1211 26062.8 -03422.0 -07.4800 26286.5
 04 04 2013  16 00  -21.1211 26062.8 -03421.9 -07.4798 26286.5
 04 04 2013  16 01  -21.1217 26063.0 -03421.9 -07.4797 26286.6
 04 04 2013  16 02  -21.1225 26063.1 -03421.9 -07.4796 26286.8
 04 04 2013  16 03  -21.1229 26063.1 -03421.7 -07.4793 26286.7
 04 04 2013  16 04  -21.1233 26063.2 -03421.6 -07.4790 26286.8
 04 04 2013  16 05  -21.1236 26063.1 -03421.4 -07.4786 26286.7
 04 04 2013  16 06  -21.1241 26063.2 -03421.2 -07.4783 26286.8
 04 04 2013  16 07  -21.1243 26063.3 -03421.1 -07.4779 26286.9
 04 04 2013  16 08  -21.1244 26063.3 -03420.8 -07.4774 26286.8
 04 04 2013  16 09  -21.1245 26063.2 -03420.6 -07.4768 26286.7
 04 04 2013  16 10  -21.1245 26063.0 -03420.3 -07.4762 26286.5
 04 04 2013  16 11  -21.1246 26062.8 -03420.0 -07.4758 26286.3
 04 04 2013  16 12  -21.1250 26062.8 -03419.9 -07.4754 26286.2
 04 04 2013  16 13  -21.1254 26062.6 -03419.6 -07.4750 26286.0
 04 04 2013  16 14  -21.1255 26062.3 -03419.3 -07.4744 26285.6
 04 04 2013  16 15  -21.1258 26062.2 -03419.2 -07.4741 26285.5
 04 04 2013  16 16  -21.1262 26062.1 -03419.0 -07.4737 26285.4
 04 04 2013  16 17  -21.1265 26061.8 -03418.7 -07.4732 26285.0
 04 04 2013  16 18  -21.1267 26061.4 -03418.4 -07.4727 26284.7
 04 04 2013  16 19  -21.1269 26061.2 -03418.2 -07.4723 26284.4
 04 04 2013  16 20  -21.1270 26060.9 -03417.9 -07.4718 26284.1
 04 04 2013  16 21  -21.1271 26060.7 -03417.7 -07.4714 26283.8
 04 04 2013  16 22  -21.1276 26060.8 -03417.6 -07.4712 26283.9
 04 04 2013  16 23  -21.1280 26060.8 -03417.5 -07.4708 26283.9
 04 04 2013  16 24  -21.1279 26060.8 -03417.2 -07.4703 26283.9
 04 04 2013  16 25  -21.1280 26060.7 -03417.0 -07.4698 26283.7
 04 04 2013  16 26  -21.1281 26060.6 -03416.7 -07.4693 26283.6
 04 04 2013  16 27  -21.1283 26060.5 -03416.4 -07.4687 26283.5
 04 04 2013  16 28  -21.1283 26060.3 -03416.1 -07.4680 26283.3
 04 04 2013  16 29  -21.1284 26060.3 -03415.9 -07.4677 26283.2
 04 04 2013  16 30  -21.1283 26060.1 -03415.6 -07.4670 26282.9
 04 04 2013  16 31  -21.1277 26059.7 -03415.3 -07.4663 26282.5
 04 04 2013  16 32  -21.1272 26059.3 -03414.9 -07.4657 26282.1
 04 04 2013  16 33  -21.1269 26059.0 -03414.6 -07.4651 26281.7
 04 04 2013  16 34  -21.1265 26058.8 -03414.4 -07.4648 26281.5
 04 04 2013  16 35  -21.1261 26058.4 -03414.2 -07.4644 26281.1
 04 04 2013  16 36  -21.1257 26058.2 -03414.0 -07.4641 26280.9
 04 04 2013  16 37  -21.1255 26058.0 -03413.9 -07.4638 26280.6
 04 04 2013  16 38  -21.1251 26057.8 -03413.7 -07.4636 26280.4
 04 04 2013  16 39  -21.1247 26057.5 -03413.6 -07.4633 26280.2
 04 04 2013  16 40  -21.1244 26057.3 -03413.5 -07.4631 26280.0
 04 04 2013  16 41  -21.1243 26057.0 -03413.3 -07.4628 26279.7
 04 04 2013  16 42  -21.1242 26056.8 -03413.1 -07.4626 26279.4
 04 04 2013  16 43  -21.1240 26056.5 -03413.0 -07.4623 26279.1
 04 04 2013  16 44  -21.1237 26056.1 -03412.8 -07.4620 26278.6
 04 04 2013  16 45  -21.1234 26055.5 -03412.5 -07.4616 26278.1
 04 04 2013  16 46  -21.1232 26055.1 -03412.4 -07.4615 26277.7
 04 04 2013  16 47  -21.1229 26054.8 -03412.3 -07.4613 26277.3
 04 04 2013  16 48  -21.1228 26054.4 -03412.2 -07.4612 26276.9
 04 04 2013  16 49  -21.1228 26054.3 -03412.1 -07.4611 26276.8
 04 04 2013  16 50  -21.1229 26054.2 -03412.0 -07.4609 26276.6
 04 04 2013  16 51  -21.1233 26054.2 -03412.0 -07.4608 26276.7
 04 04 2013  16 52  -21.1234 26054.1 -03411.8 -07.4604 26276.6
 04 04 2013  16 53  -21.1234 26054.2 -03411.7 -07.4601 26276.6
 04 04 2013  16 54  -21.1231 26054.1 -03411.5 -07.4597 26276.5
 04 04 2013  16 55  -21.1228 26054.0 -03411.2 -07.4593 26276.4
 04 04 2013  16 56  -21.1223 26053.7 -03410.9 -07.4587 26276.0
 04 04 2013  16 57  -21.1216 26053.2 -03410.6 -07.4582 26275.5
 04 04 2013  16 58  -21.1212 26053.2 -03410.5 -07.4579 26275.5
 04 04 2013  16 59  -21.1207 26053.0 -03410.3 -07.4576 26275.2
 04 04 2013  17 00  -21.1202 26052.9 -03410.2 -07.4574 26275.2
 04 04 2013  17 01  -21.1198 26052.6 -03410.0 -07.4570 26274.8
 04 04 2013  17 02  -21.1192 26052.5 -03409.8 -07.4567 26274.7
 04 04 2013  17 03  -21.1187 26052.3 -03409.7 -07.4564 26274.5
 04 04 2013  17 04  -21.1179 26052.0 -03409.5 -07.4560 26274.1
 04 04 2013  17 05  -21.1170 26051.9 -03409.4 -07.4559 26274.0
 04 04 2013  17 06  -21.1165 26051.8 -03409.3 -07.4558 26274.0
 04 04 2013  17 07  -21.1157 26051.7 -03409.2 -07.4555 26273.8
 04 04 2013  17 08  -21.1151 26051.7 -03409.1 -07.4554 26273.8
 04 04 2013  17 09  -21.1145 26051.7 -03409.1 -07.4553 26273.8
 04 04 2013  17 10  -21.1139 26051.7 -03409.0 -07.4551 26273.8
 04 04 2013  17 11  -21.1131 26051.6 -03408.9 -07.4549 26273.6
 04 04 2013  17 12  -21.1123 26051.5 -03408.8 -07.4547 26273.5
 04 04 2013  17 13  -21.1116 26051.4 -03408.7 -07.4546 26273.4
 04 04 2013  17 14  -21.1109 26051.4 -03408.7 -07.4545 26273.4
 04 04 2013  17 15  -21.1107 26051.4 -03408.6 -07.4543 26273.4
 04 04 2013  17 16  -21.1138 26050.9 -03408.3 -07.4537 26272.9
 04 04 2013  17 17  -21.1132 26050.8 -03408.3 -07.4537 26272.9
 04 04 2013  17 18  -21.1128 26050.7 -03408.2 -07.4537 26272.7
 04 04 2013  17 19  -21.1121 26050.5 -03408.2 -07.4536 26272.5
 04 04 2013  17 20  -21.1114 26050.3 -03408.1 -07.4535 26272.3
 04 04 2013  17 21  -21.1110 26050.2 -03408.1 -07.4536 26272.2
 04 04 2013  17 22  -21.1101 26050.1 -03408.1 -07.4536 26272.1
 04 04 2013  17 23  -21.1095 26050.0 -03408.1 -07.4536 26272.0
 04 04 2013  17 24  -21.1087 26049.8 -03408.1 -07.4536 26271.8
 04 04 2013  17 25  -21.1078 26049.7 -03408.1 -07.4537 26271.7
 04 04 2013  17 26  -21.1072 26049.5 -03408.1 -07.4537 26271.5
 04 04 2013  17 27  -21.1068 26049.5 -03408.1 -07.4538 26271.5
 04 04 2013  17 28  -21.1064 26049.4 -03408.1 -07.4538 26271.4
 04 04 2013  17 29  -21.1060 26049.4 -03408.2 -07.4539 26271.4
 04 04 2013  17 30  -21.1056 26049.2 -03408.1 -07.4539 26271.2
 04 04 2013  17 31  -21.1051 26049.1 -03408.1 -07.4539 26271.1
 04 04 2013  17 32  -21.1046 26048.9 -03408.1 -07.4539 26270.9
 04 04 2013  17 33  -21.1042 26048.7 -03408.0 -07.4539 26270.7
 04 04 2013  17 34  -21.1039 26048.6 -03408.0 -07.4538 26270.6
 04 04 2013  17 35  -21.1036 26048.6 -03408.0 -07.4539 26270.6
 04 04 2013  17 36  -21.1033 26048.5 -03408.1 -07.4540 26270.5
 04 04 2013  17 37  -21.1030 26048.4 -03408.1 -07.4540 26270.4
 04 04 2013  17 38  -21.1028 26048.5 -03408.1 -07.4540 26270.5
 04 04 2013  17 39  -21.1025 26048.5 -03408.1 -07.4540 26270.5
 04 04 2013  17 40  -21.1022 26048.5 -03408.1 -07.4539 26270.5
 04 04 2013  17 41  -21.1019 26048.5 -03408.0 -07.4539 26270.5
 04 04 2013  17 42  -21.1016 26048.5 -03407.9 -07.4537 26270.5
 04 04 2013  17 43  -21.1012 26048.4 -03407.8 -07.4534 26270.3
 04 04 2013  17 44  -21.1008 26048.1 -03407.7 -07.4532 26270.1
 04 04 2013  17 45  -21.1001 26048.1 -03407.6 -07.4530 26270.0
 04 04 2013  17 46  -21.0996 26048.0 -03407.6 -07.4530 26270.0
 04 04 2013  17 47  -21.0992 26048.0 -03407.5 -07.4529 26270.0
 04 04 2013  17 48  -21.0988 26048.1 -03407.5 -07.4529 26270.0
 04 04 2013  17 49  -21.0984 26048.1 -03407.5 -07.4528 26270.0
 04 04 2013  17 50  -21.0978 26047.9 -03407.4 -07.4526 26269.8
 04 04 2013  17 51  -21.0973 26047.8 -03407.3 -07.4525 26269.7
 04 04 2013  17 52  -21.0968 26047.6 -03407.2 -07.4523 26269.5
 04 04 2013  17 53  -21.0963 26047.5 -03407.2 -07.4523 26269.4
 04 04 2013  17 54  -21.0959 26047.4 -03407.2 -07.4523 26269.3
 04 04 2013  17 55  -21.0951 26047.2 -03407.1 -07.4522 26269.0
 04 04 2013  17 56  -21.0943 26047.1 -03407.0 -07.4520 26268.9
 04 04 2013  17 57  -21.0940 26047.0 -03407.1 -07.4522 26268.9
 04 04 2013  17 58  -21.0917 26047.0 -03407.1 -07.4523 26268.9
 04 04 2013  17 59  -21.0885 26047.1 -03407.3 -07.4528 26269.0
 04 04 2013  18 00  -21.0879 26046.9 -03407.3 -07.4528 26268.8
 04 04 2013  18 01  -21.0874 26046.9 -03407.4 -07.4530 26268.8
 04 04 2013  18 02  -21.0871 26046.7 -03407.4 -07.4531 26268.7
 04 04 2013  18 03  -21.0868 26046.6 -03407.4 -07.4532 26268.5
 04 04 2013  18 04  -21.0862 26046.5 -03407.5 -07.4532 26268.5
 04 04 2013  18 05  -21.0859 26046.6 -03407.6 -07.4535 26268.5
 04 04 2013  18 06  -21.0862 26046.7 -03407.7 -07.4536 26268.6
 04 04 2013  18 07  -21.0858 26046.5 -03407.6 -07.4536 26268.5
 04 04 2013  18 08  -21.0852 26046.6 -03407.7 -07.4537 26268.5
 04 04 2013  18 09  -21.0848 26046.5 -03407.7 -07.4537 26268.4
 04 04 2013  18 10  -21.0848 26046.4 -03407.7 -07.4537 26268.4
 04 04 2013  18 11  -21.0845 26046.5 -03407.7 -07.4537 26268.4
 04 04 2013  18 12  -21.0844 26046.5 -03407.7 -07.4538 26268.5
 04 04 2013  18 13  -21.0838 26046.3 -03407.8 -07.4540 26268.3
 04 04 2013  18 14  -21.0835 26046.2 -03407.8 -07.4541 26268.2
 04 04 2013  18 15  -21.0832 26046.1 -03407.9 -07.4542 26268.1
 04 04 2013  18 16  -21.0830 26046.1 -03408.0 -07.4544 26268.1
 04 04 2013  18 17  -21.0828 26046.0 -03408.0 -07.4546 26268.0
 04 04 2013  18 18  -21.0826 26046.0 -03408.1 -07.4548 26268.1
 04 04 2013  18 19  -21.0822 26045.9 -03408.2 -07.4549 26267.9
 04 04 2013  18 20  -21.0818 26045.7 -03408.2 -07.4550 26267.8
 04 04 2013  18 21  -21.0814 26045.6 -03408.2 -07.4551 26267.6
 04 04 2013  18 22  -21.0810 26045.4 -03408.3 -07.4553 26267.5
 04 04 2013  18 23  -21.0809 26045.4 -03408.4 -07.4555 26267.5
 04 04 2013  18 24  -21.0807 26045.3 -03408.5 -07.4557 26267.4
 04 04 2013  18 25  -21.0804 26045.4 -03408.6 -07.4559 26267.5
 04 04 2013  18 26  -21.0803 26045.5 -03408.7 -07.4562 26267.6
 04 04 2013  18 27  -21.0799 26045.4 -03408.7 -07.4563 26267.5
 04 04 2013  18 28  -21.0797 26045.4 -03408.8 -07.4565 26267.5
 04 04 2013  18 29  -21.0795 26045.4 -03409.0 -07.4568 26267.5
 04 04 2013  18 30  -21.0793 26045.3 -03409.0 -07.4569 26267.4
 04 04 2013  18 31  -21.0790 26045.2 -03409.0 -07.4570 26267.3
 04 04 2013  18 32  -21.0785 26045.0 -03409.1 -07.4571 26267.2
 04 04 2013  18 33  -21.0782 26045.0 -03409.1 -07.4572 26267.2
 04 04 2013  18 34  -21.0777 26044.9 -03409.1 -07.4573 26267.1
 04 04 2013  18 35  -21.0772 26044.7 -03409.2 -07.4574 26266.9
 04 04 2013  18 36  -21.0766 26044.6 -03409.2 -07.4576 26266.8
 04 04 2013  18 37  -21.0760 26044.4 -03409.2 -07.4577 26266.6
 04 04 2013  18 38  -21.0755 26044.3 -03409.3 -07.4578 26266.5
 04 04 2013  18 39  -21.0750 26044.3 -03409.4 -07.4580 26266.5
 04 04 2013  18 40  -21.0747 26044.4 -03409.5 -07.4582 26266.6
 04 04 2013  18 41  -21.0742 26044.2 -03409.5 -07.4583 26266.4
 04 04 2013  18 42  -21.0738 26044.2 -03409.6 -07.4585 26266.5
 04 04 2013  18 43  -21.0732 26044.2 -03409.7 -07.4586 26266.5
 04 04 2013  18 44  -21.0728 26044.2 -03409.7 -07.4588 26266.5
 04 04 2013  18 45  -21.0722 26044.0 -03409.7 -07.4589 26266.3
 04 04 2013  18 46  -21.0716 26043.9 -03409.8 -07.4590 26266.2
 04 04 2013  18 47  -21.0709 26043.8 -03409.9 -07.4592 26266.1
 04 04 2013  18 48  -21.0703 26043.8 -03410.0 -07.4595 26266.1
 04 04 2013  18 49  -21.0697 26043.8 -03410.1 -07.4597 26266.1
 04 04 2013  18 50  -21.0689 26043.6 -03410.2 -07.4599 26265.9
 04 04 2013  18 51  -21.0684 26043.6 -03410.3 -07.4601 26265.9
 04 04 2013  18 52  -21.0680 26043.5 -03410.4 -07.4604 26265.8
 04 04 2013  18 53  -21.0673 26043.3 -03410.5 -07.4606 26265.7
 04 04 2013  18 54  -21.0668 26043.3 -03410.6 -07.4610 26265.7
 04 04 2013  18 55  -21.0663 26043.4 -03410.8 -07.4613 26265.7
 04 04 2013  18 56  -21.0659 26043.4 -03410.9 -07.4616 26265.8
 04 04 2013  18 57  -21.0655 26043.4 -03411.1 -07.4619 26265.8
 04 04 2013  18 58  -21.0650 26043.3 -03411.2 -07.4621 26265.8
 04 04 2013  18 59  -21.0645 26043.3 -03411.2 -07.4623 26265.7
 04 04 2013  19 00  -21.0640 26043.3 -03411.4 -07.4626 26265.7
 04 04 2013  19 01  -21.0635 26043.1 -03411.5 -07.4628 26265.5
 04 04 2013  19 02  -21.0631 26043.0 -03411.6 -07.4631 26265.5
 04 04 2013  19 03  -21.0628 26043.1 -03411.8 -07.4635 26265.6
 04 04 2013  19 04  -21.0624 26043.1 -03411.9 -07.4638 26265.7
 04 04 2013  19 05  -21.0620 26043.1 -03412.0 -07.4641 26265.6
 04 04 2013  19 06  -21.0619 26043.1 -03412.2 -07.4644 26265.7
 04 04 2013  19 07  -21.0616 26043.1 -03412.3 -07.4646 26265.7
 04 04 2013  19 08  -21.0613 26043.2 -03412.4 -07.4649 26265.8
 04 04 2013  19 09  -21.0612 26043.2 -03412.5 -07.4651 26265.9
 04 04 2013  19 10  -21.0610 26043.3 -03412.6 -07.4653 26265.9
 04 04 2013  19 11  -21.0607 26043.3 -03412.8 -07.4656 26266.0
 04 04 2013  19 12  -21.0605 26043.5 -03412.9 -07.4659 26266.1
 04 04 2013  19 13  -21.0601 26043.5 -03413.1 -07.4662 26266.2
 04 04 2013  19 14  -21.0599 26043.7 -03413.2 -07.4665 26266.4
 04 04 2013  19 15  -21.0596 26043.8 -03413.4 -07.4668 26266.5
 04 04 2013  19 16  -21.0598 26043.8 -03413.5 -07.4670 26266.6
 04 04 2013  19 17  -21.0637 26043.4 -03413.2 -07.4666 26266.1
 04 04 2013  19 18  -21.0636 26043.4 -03413.4 -07.4669 26266.1
 04 04 2013  19 19  -21.0633 26043.5 -03413.5 -07.4672 26266.3
 04 04 2013  19 20  -21.0635 26043.7 -03413.7 -07.4674 26266.5
 04 04 2013  19 21  -21.0637 26043.9 -03413.8 -07.4678 26266.7
 04 04 2013  19 22  -21.0638 26044.0 -03413.9 -07.4679 26266.8
 04 04 2013  19 23  -21.0639 26044.2 -03414.0 -07.4681 26267.0
 04 04 2013  19 24  -21.0639 26044.3 -03414.1 -07.4683 26267.1
 04 04 2013  19 25  -21.0639 26044.3 -03414.1 -07.4683 26267.1
 04 04 2013  19 26  -21.0639 26044.3 -03414.2 -07.4683 26267.2
 04 04 2013  19 27  -21.0640 26044.3 -03414.2 -07.4685 26267.1
 04 04 2013  19 28  -21.0640 26044.3 -03414.3 -07.4686 26267.1
 04 04 2013  19 29  -21.0639 26044.2 -03414.4 -07.4688 26267.0
 04 04 2013  19 30  -21.0637 26044.1 -03414.4 -07.4689 26266.9
 04 04 2013  19 31  -21.0634 26043.9 -03414.4 -07.4690 26266.8
 04 04 2013  19 32  -21.0634 26043.7 -03414.5 -07.4691 26266.6
 04 04 2013  19 33  -21.0623 26043.8 -03414.5 -07.4692 26266.7
 04 04 2013  19 34  -21.0594 26043.7 -03414.7 -07.4697 26266.6
 04 04 2013  19 35  -21.0583 26043.5 -03414.8 -07.4700 26266.4
 04 04 2013  19 36  -21.0580 26043.2 -03414.8 -07.4701 26266.1
 04 04 2013  19 37  -21.0577 26042.9 -03414.9 -07.4702 26265.9
 04 04 2013  19 38  -21.0572 26042.6 -03414.9 -07.4703 26265.6
 04 04 2013  19 39  -21.0569 26042.4 -03414.9 -07.4705 26265.3
 04 04 2013  19 40  -21.0564 26042.1 -03415.0 -07.4707 26265.1
 04 04 2013  19 41  -21.0561 26041.9 -03415.0 -07.4709 26264.9
 04 04 2013  19 42  -21.0558 26041.8 -03415.1 -07.4711 26264.8
 04 04 2013  19 43  -21.0556 26041.6 -03415.2 -07.4713 26264.6
 04 04 2013  19 44  -21.0553 26041.4 -03415.3 -07.4716 26264.4
 04 04 2013  19 45  -21.0552 26041.4 -03415.4 -07.4719 26264.4
 04 04 2013  19 46  -21.0551 26041.4 -03415.6 -07.4723 26264.4
 04 04 2013  19 47  -21.0550 26041.4 -03415.7 -07.4726 26264.4
 04 04 2013  19 48  -21.0549 26041.3 -03415.8 -07.4728 26264.4
 04 04 2013  19 49  -21.0547 26041.2 -03415.9 -07.4730 26264.3
 04 04 2013  19 50  -21.0545 26041.1 -03416.0 -07.4733 26264.2
 04 04 2013  19 51  -21.0544 26041.1 -03416.2 -07.4736 26264.2
 04 04 2013  19 52  -21.0542 26041.0 -03416.2 -07.4738 26264.2
 04 04 2013  19 53  -21.0541 26041.0 -03416.4 -07.4740 26264.1
 04 04 2013  19 54  -21.0539 26040.8 -03416.5 -07.4743 26264.0
 04 04 2013  19 55  -21.0539 26040.8 -03416.6 -07.4745 26264.0
 04 04 2013  19 56  -21.0540 26040.8 -03416.7 -07.4748 26264.0
 04 04 2013  19 57  -21.0539 26040.7 -03416.7 -07.4749 26263.9
 04 04 2013  19 58  -21.0539 26040.7 -03416.8 -07.4752 26263.9
 04 04 2013  19 59  -21.0540 26040.7 -03416.9 -07.4754 26263.9
 04 04 2013  20 00  -21.0540 26040.6 -03417.0 -07.4756 26263.8
 04 04 2013  20 01  -21.0540 26040.5 -03417.0 -07.4756 26263.7
 04 04 2013  20 02  -21.0540 26040.3 -03417.1 -07.4757 26263.6
 04 04 2013  20 03  -21.0538 26040.2 -03417.2 -07.4760 26263.4
 04 04 2013  20 04  -21.0537 26040.1 -03417.2 -07.4762 26263.3
 04 04 2013  20 05  -21.0537 26040.0 -03417.3 -07.4764 26263.3
 04 04 2013  20 06  -21.0535 26039.9 -03417.4 -07.4765 26263.2
 04 04 2013  20 07  -21.0535 26039.8 -03417.4 -07.4767 26263.1
 04 04 2013  20 08  -21.0534 26039.7 -03417.5 -07.4768 26263.0
 04 04 2013  20 09  -21.0534 26039.7 -03417.6 -07.4770 26263.0
 04 04 2013  20 10  -21.0533 26039.7 -03417.7 -07.4773 26263.0
 04 04 2013  20 11  -21.0534 26039.7 -03417.8 -07.4775 26263.0
 04 04 2013  20 12  -21.0534 26039.6 -03417.9 -07.4777 26263.0
 04 04 2013  20 13  -21.0534 26039.6 -03418.0 -07.4779 26262.9
 04 04 2013  20 14  -21.0535 26039.6 -03418.1 -07.4781 26263.0
 04 04 2013  20 15  -21.0535 26039.6 -03418.2 -07.4783 26263.0
 04 04 2013  20 16  -21.0536 26039.6 -03418.3 -07.4786 26263.0
 04 04 2013  20 17  -21.0536 26039.6 -03418.4 -07.4788 26263.0
 04 04 2013  20 18  -21.0537 26039.6 -03418.5 -07.4790 26263.0
 04 04 2013  20 19  -21.0538 26039.5 -03418.6 -07.4792 26263.0
 04 04 2013  20 20  -21.0538 26039.5 -03418.7 -07.4795 26263.0
 04 04 2013  20 21  -21.0540 26039.5 -03418.8 -07.4797 26262.9
 04 04 2013  20 22  -21.0539 26039.4 -03418.9 -07.4799 26262.9
 04 04 2013  20 23  -21.0539 26039.4 -03419.0 -07.4802 26262.9
 04 04 2013  20 24  -21.0539 26039.4 -03419.1 -07.4804 26262.9
 04 04 2013  20 25  -21.0539 26039.4 -03419.2 -07.4807 26263.0
 04 04 2013  20 26  -21.0539 26039.4 -03419.3 -07.4809 26262.9
 04 04 2013  20 27  -21.0538 26039.4 -03419.5 -07.4812 26263.0
 04 04 2013  20 28  -21.0537 26039.5 -03419.6 -07.4814 26263.1
 04 04 2013  20 29  -21.0537 26039.4 -03419.7 -07.4816 26263.0
 04 04 2013  20 30  -21.0536 26039.5 -03419.8 -07.4819 26263.1
 04 04 2013  20 31  -21.0535 26039.6 -03419.9 -07.4822 26263.2
 04 04 2013  20 32  -21.0535 26039.6 -03420.1 -07.4824 26263.2
 04 04 2013  20 33  -21.0536 26039.6 -03420.2 -07.4827 26263.2
 04 04 2013  20 34  -21.0534 26039.6 -03420.3 -07.4829 26263.3
 04 04 2013  20 35  -21.0533 26039.7 -03420.4 -07.4831 26263.4
 04 04 2013  20 36  -21.0534 26039.6 -03420.5 -07.4834 26263.3
 04 04 2013  20 37  -21.0533 26039.6 -03420.6 -07.4835 26263.3
 04 04 2013  20 38  -21.0532 26039.6 -03420.6 -07.4837 26263.3
 04 04 2013  20 39  -21.0530 26039.6 -03420.7 -07.4838 26263.3
 04 04 2013  20 40  -21.0530 26039.5 -03420.8 -07.4840 26263.2
 04 04 2013  20 41  -21.0528 26039.4 -03420.8 -07.4841 26263.2
 04 04 2013  20 42  -21.0527 26039.4 -03420.9 -07.4842 26263.1
 04 04 2013  20 43  -21.0525 26039.4 -03421.0 -07.4845 26263.2
 04 04 2013  20 44  -21.0524 26039.4 -03421.0 -07.4846 26263.2
 04 04 2013  20 45  -21.0524 26039.4 -03421.1 -07.4848 26263.2
 04 04 2013  20 46  -21.0523 26039.4 -03421.2 -07.4850 26263.2
 04 04 2013  20 47  -21.0522 26039.4 -03421.3 -07.4851 26263.2
 04 04 2013  20 48  -21.0522 26039.3 -03421.3 -07.4853 26263.1
 04 04 2013  20 49  -21.0521 26039.5 -03421.4 -07.4854 26263.3
 04 04 2013  20 50  -21.0521 26039.3 -03421.4 -07.4855 26263.1
 04 04 2013  20 51  -21.0520 26039.2 -03421.5 -07.4856 26263.1
 04 04 2013  20 52  -21.0518 26039.2 -03421.5 -07.4857 26263.0
 04 04 2013  20 53  -21.0517 26039.2 -03421.5 -07.4857 26263.0
 04 04 2013  20 54  -21.0515 26039.2 -03421.5 -07.4857 26263.0
 04 04 2013  20 55  -21.0514 26039.2 -03421.6 -07.4858 26263.0
 04 04 2013  20 56  -21.0513 26039.1 -03421.6 -07.4860 26262.9
 04 04 2013  20 57  -21.0512 26039.0 -03421.6 -07.4860 26262.8
 04 04 2013  20 58  -21.0511 26038.8 -03421.6 -07.4860 26262.7
 04 04 2013  20 59  -21.0508 26038.8 -03421.7 -07.4862 26262.7
 04 04 2013  21 00  -21.0505 26038.8 -03421.8 -07.4863 26262.7
 04 04 2013  21 01  -21.0501 26038.8 -03421.8 -07.4864 26262.7
 04 04 2013  21 02  -21.0498 26038.8 -03421.8 -07.4865 26262.6
 04 04 2013  21 03  -21.0493 26038.9 -03421.9 -07.4867 26262.8
 04 04 2013  21 04  -21.0491 26038.7 -03421.9 -07.4866 26262.6
 04 04 2013  21 05  -21.0486 26038.8 -03422.0 -07.4868 26262.7
 04 04 2013  21 06  -21.0482 26038.7 -03422.0 -07.4869 26262.6
 04 04 2013  21 07  -21.0480 26038.6 -03422.1 -07.4870 26262.5
 04 04 2013  21 08  -21.0476 26038.6 -03422.1 -07.4872 26262.5
 04 04 2013  21 09  -21.0472 26038.4 -03422.1 -07.4872 26262.3
 04 04 2013  21 10  -21.0469 26038.4 -03422.2 -07.4874 26262.4
 04 04 2013  21 11  -21.0468 26038.3 -03422.3 -07.4875 26262.2
 04 04 2013  21 12  -21.0466 26038.1 -03422.3 -07.4876 26262.0
 04 04 2013  21 13  -21.0465 26038.0 -03422.4 -07.4879 26262.0
 04 04 2013  21 14  -21.0465 26037.9 -03422.5 -07.4881 26261.9
 04 04 2013  21 15  -21.0463 26037.8 -03422.5 -07.4883 26261.8
 04 04 2013  21 16  -21.0461 26037.7 -03422.6 -07.4885 26261.7
 04 04 2013  21 17  -21.0459 26037.7 -03422.7 -07.4887 26261.7
 04 04 2013  21 18  -21.0458 26037.6 -03422.8 -07.4889 26261.6
 04 04 2013  21 19  -21.0458 26037.6 -03422.9 -07.4891 26261.6
 04 04 2013  21 20  -21.0457 26037.4 -03423.0 -07.4893 26261.5
 04 04 2013  21 21  -21.0459 26037.2 -03423.0 -07.4894 26261.3
 04 04 2013  21 22  -21.0460 26037.0 -03423.0 -07.4895 26261.1
 04 04 2013  21 23  -21.0460 26036.9 -03423.0 -07.4895 26260.9
 04 04 2013  21 24  -21.0462 26036.7 -03423.0 -07.4897 26260.7
 04 04 2013  21 25  -21.0460 26036.8 -03423.1 -07.4899 26260.8
 04 04 2013  21 26  -21.0458 26036.1 -03422.8 -07.4894 26260.1
 04 04 2013  21 27  -21.0457 26036.3 -03423.1 -07.4899 26260.4
 04 04 2013  21 28  -21.0454 26036.3 -03423.2 -07.4901 26260.4
 04 04 2013  21 29  -21.0455 26036.0 -03423.2 -07.4902 26260.1
 04 04 2013  21 30  -21.0453 26035.8 -03423.2 -07.4903 26259.9
 04 04 2013  21 31  -21.0455 26035.8 -03423.3 -07.4905 26259.8
 04 04 2013  21 32  -21.0458 26035.7 -03423.4 -07.4907 26259.8
 04 04 2013  21 33  -21.0458 26035.5 -03423.4 -07.4909 26259.6
 04 04 2013  21 34  -21.0458 26035.4 -03423.5 -07.4910 26259.6
 04 04 2013  21 35  -21.0461 26035.4 -03423.5 -07.4911 26259.5
 04 04 2013  21 36  -21.0459 26035.4 -03423.6 -07.4913 26259.5
 04 04 2013  21 37  -21.0461 26035.3 -03423.6 -07.4913 26259.4
 04 04 2013  21 38  -21.0462 26035.2 -03423.7 -07.4916 26259.4
 04 04 2013  21 39  -21.0463 26035.1 -03423.8 -07.4917 26259.3
 04 04 2013  21 40  -21.0466 26035.1 -03423.8 -07.4918 26259.2
 04 04 2013  21 41  -21.0466 26034.9 -03423.8 -07.4919 26259.1
 04 04 2013  21 42  -21.0467 26034.9 -03423.9 -07.4921 26259.1
 04 04 2013  21 43  -21.0469 26034.8 -03423.9 -07.4921 26259.0
 04 04 2013  21 44  -21.0471 26034.8 -03424.0 -07.4923 26259.0
 04 04 2013  21 45  -21.0472 26034.7 -03424.1 -07.4925 26258.9
 04 04 2013  21 46  -21.0474 26034.7 -03424.1 -07.4926 26258.9
 04 04 2013  21 47  -21.0475 26034.6 -03424.1 -07.4927 26258.8
 04 04 2013  21 48  -21.0476 26034.6 -03424.2 -07.4928 26258.8
 04 04 2013  21 49  -21.0478 26034.5 -03424.2 -07.4928 26258.7
 04 04 2013  21 50  -21.0479 26034.4 -03424.2 -07.4929 26258.7
 04 04 2013  21 51  -21.0482 26034.4 -03424.3 -07.4930 26258.7
 04 04 2013  21 52  -21.0484 26034.3 -03424.3 -07.4931 26258.6
 04 04 2013  21 53  -21.0486 26034.3 -03424.3 -07.4931 26258.6
 04 04 2013  21 54  -21.0488 26034.3 -03424.4 -07.4932 26258.6
 04 04 2013  21 55  -21.0491 26034.3 -03424.4 -07.4933 26258.5
 04 04 2013  21 56  -21.0493 26034.3 -03424.4 -07.4933 26258.5
 04 04 2013  21 57  -21.0494 26034.2 -03424.4 -07.4933 26258.4
 04 04 2013  21 58  -21.0495 26034.1 -03424.4 -07.4933 26258.3
 04 04 2013  21 59  -21.0496 26034.0 -03424.4 -07.4933 26258.2
 04 04 2013  22 00  -21.0496 26033.9 -03424.3 -07.4933 26258.1
 04 04 2013  22 01  -21.0498 26033.8 -03424.3 -07.4932 26258.0
 04 04 2013  22 02  -21.0499 26033.6 -03424.2 -07.4932 26257.9
 04 04 2013  22 03  -21.0499 26033.6 -03424.3 -07.4932 26257.8
 04 04 2013  22 04  -21.0500 26033.6 -03424.3 -07.4933 26257.8
 04 04 2013  22 05  -21.0501 26033.5 -03424.3 -07.4934 26257.8
 04 04 2013  22 06  -21.0503 26033.3 -03424.3 -07.4933 26257.6
 04 04 2013  22 07  -21.0503 26033.4 -03424.3 -07.4934 26257.6
 04 04 2013  22 08  -21.0505 26033.1 -03424.2 -07.4932 26257.3
 04 04 2013  22 09  -21.0505 26033.0 -03424.2 -07.4932 26257.2
 04 04 2013  22 10  -21.0507 26033.0 -03424.3 -07.4934 26257.2
 04 04 2013  22 11  -21.0507 26033.1 -03424.3 -07.4934 26257.3
 04 04 2013  22 12  -21.0506 26032.7 -03424.1 -07.4932 26256.9
 04 04 2013  22 13  -21.0509 26032.6 -03424.1 -07.4932 26256.8
 04 04 2013  22 14  -21.0508 26032.5 -03424.1 -07.4932 26256.7
 04 04 2013  22 15  -21.0509 26032.3 -03424.1 -07.4932 26256.5
 04 04 2013  22 16  -21.0510 26032.3 -03424.1 -07.4932 26256.5
 04 04 2013  22 17  -21.0510 26032.3 -03424.1 -07.4933 26256.5
 04 04 2013  22 18  -21.0510 26032.2 -03424.1 -07.4933 26256.4
 04 04 2013  22 19  -21.0510 26032.2 -03424.1 -07.4933 26256.4
 04 04 2013  22 20  -21.0511 26032.3 -03424.2 -07.4936 26256.5
 04 04 2013  22 21  -21.0510 26032.0 -03424.2 -07.4935 26256.2
 04 04 2013  22 22  -21.0511 26032.0 -03424.2 -07.4935 26256.2
 04 04 2013  22 23  -21.0511 26032.0 -03424.2 -07.4936 26256.2
 04 04 2013  22 24  -21.0510 26031.9 -03424.2 -07.4936 26256.1
 04 04 2013  22 25  -21.0510 26031.8 -03424.2 -07.4936 26256.0
 04 04 2013  22 26  -21.0510 26031.7 -03424.2 -07.4936 26256.0
 04 04 2013  22 27  -21.0509 26031.6 -03424.2 -07.4936 26255.9
 04 04 2013  22 28  -21.0508 26031.7 -03424.2 -07.4937 26255.9
 04 04 2013  22 29  -21.0508 26031.7 -03424.3 -07.4938 26255.9
 04 04 2013  22 30  -21.0507 26031.6 -03424.2 -07.4938 26255.8
 04 04 2013  22 31  -21.0508 26031.5 -03424.3 -07.4938 26255.8
 04 04 2013  22 32  -21.0508 26031.5 -03424.3 -07.4939 26255.8
 04 04 2013  22 33  -21.0508 26031.5 -03424.3 -07.4939 26255.7
 04 04 2013  22 34  -21.0508 26031.5 -03424.3 -07.4940 26255.7
 04 04 2013  22 35  -21.0508 26031.4 -03424.3 -07.4940 26255.7
 04 04 2013  22 36  -21.0509 26031.4 -03424.3 -07.4940 26255.6
 04 04 2013  22 37  -21.0510 26031.4 -03424.4 -07.4941 26255.7
 04 04 2013  22 38  -21.0510 26031.3 -03424.4 -07.4942 26255.6
 04 04 2013  22 39  -21.0511 26031.3 -03424.4 -07.4942 26255.6
 04 04 2013  22 40  -21.0511 26031.3 -03424.4 -07.4943 26255.6
 04 04 2013  22 41  -21.0512 26031.3 -03424.5 -07.4944 26255.6
 04 04 2013  22 42  -21.0512 26031.3 -03424.5 -07.4945 26255.6
 04 04 2013  22 43  -21.0512 26031.3 -03424.6 -07.4945 26255.6
 04 04 2013  22 44  -21.0511 26031.3 -03424.6 -07.4945 26255.6
 04 04 2013  22 45  -21.0510 26031.2 -03424.6 -07.4946 26255.5
 04 04 2013  22 46  -21.0508 26031.2 -03424.6 -07.4946 26255.5
 04 04 2013  22 47  -21.0508 26031.2 -03424.6 -07.4947 26255.5
 04 04 2013  22 48  -21.0508 26031.2 -03424.7 -07.4948 26255.5
 04 04 2013  22 49  -21.0507 26031.3 -03424.7 -07.4949 26255.6
 04 04 2013  22 50  -21.0507 26031.2 -03424.7 -07.4949 26255.5
 04 04 2013  22 51  -21.0507 26031.1 -03424.7 -07.4949 26255.4
 04 04 2013  22 52  -21.0507 26031.1 -03424.7 -07.4950 26255.4
 04 04 2013  22 53  -21.0509 26031.0 -03424.7 -07.4950 26255.3
 04 04 2013  22 54  -21.0509 26030.9 -03424.7 -07.4950 26255.3
 04 04 2013  22 55  -21.0510 26030.9 -03424.7 -07.4950 26255.2
 04 04 2013  22 56  -21.0509 26030.9 -03424.7 -07.4950 26255.2
 04 04 2013  22 57  -21.0508 26030.9 -03424.7 -07.4950 26255.2
 04 04 2013  22 58  -21.0507 26030.8 -03424.8 -07.4951 26255.2
 04 04 2013  22 59  -21.0507 26030.9 -03424.8 -07.4952 26255.2
 04 04 2013  23 00  -21.0507 26030.9 -03424.9 -07.4954 26255.3
 04 04 2013  23 01  -21.0507 26030.7 -03424.9 -07.4953 26255.1
 04 04 2013  23 02  -21.0508 26030.7 -03424.8 -07.4952 26255.0
 04 04 2013  23 03  -21.0508 26030.9 -03424.9 -07.4954 26255.2
 04 04 2013  23 04  -21.0508 26030.5 -03424.8 -07.4953 26254.8
 04 04 2013  23 05  -21.0507 26030.7 -03424.9 -07.4954 26255.0
 04 04 2013  23 06  -21.0505 26030.7 -03424.9 -07.4955 26255.0
 04 04 2013  23 07  -21.0506 26030.7 -03424.9 -07.4955 26255.0
 04 04 2013  23 08  -21.0503 26030.7 -03425.0 -07.4957 26255.1
 04 04 2013  23 09  -21.0503 26030.7 -03425.0 -07.4957 26255.0
 04 04 2013  23 10  -21.0502 26030.7 -03425.0 -07.4957 26255.0
 04 04 2013  23 11  -21.0501 26030.6 -03425.1 -07.4958 26255.0
 04 04 2013  23 12  -21.0499 26030.6 -03425.1 -07.4958 26254.9
 04 04 2013  23 13  -21.0499 26030.5 -03425.1 -07.4959 26254.9
 04 04 2013  23 14  -21.0499 26030.6 -03425.1 -07.4960 26254.9
 04 04 2013  23 15  -21.0499 26030.5 -03425.1 -07.4960 26254.9
 04 04 2013  23 16  -21.0499 26030.5 -03425.2 -07.4960 26254.9
 04 04 2013  23 17  -21.0498 26030.6 -03425.2 -07.4961 26255.0
 04 04 2013  23 18  -21.0498 26030.6 -03425.2 -07.4962 26255.0
 04 04 2013  23 19  -21.0498 26030.6 -03425.3 -07.4963 26255.0
 04 04 2013  23 20  -21.0498 26030.7 -03425.3 -07.4964 26255.1
 04 04 2013  23 21  -21.0496 26030.7 -03425.3 -07.4964 26255.1
 04 04 2013  23 22  -21.0495 26030.7 -03425.4 -07.4965 26255.1
 04 04 2013  23 23  -21.0495 26030.8 -03425.5 -07.4966 26255.2
 04 04 2013  23 24  -21.0494 26030.8 -03425.5 -07.4967 26255.2
 04 04 2013  23 25  -21.0493 26030.8 -03425.5 -07.4967 26255.3
 04 04 2013  23 26  -21.0491 26030.9 -03425.5 -07.4968 26255.3
 04 04 2013  23 27  -21.0490 26030.8 -03425.5 -07.4968 26255.2
 04 04 2013  23 28  -21.0490 26030.8 -03425.5 -07.4968 26255.2
 04 04 2013  23 29  -21.0490 26030.7 -03425.5 -07.4968 26255.2
 04 04 2013  23 30  -21.0491 26030.7 -03425.5 -07.4968 26255.2
 04 04 2013  23 31  -21.0492 26030.8 -03425.6 -07.4969 26255.2
 04 04 2013  23 32  -21.0492 26030.7 -03425.6 -07.4969 26255.2
 04 04 2013  23 33  -21.0493 26030.7 -03425.6 -07.4969 26255.1
 04 04 2013  23 34  -21.0493 26030.7 -03425.6 -07.4969 26255.1
 04 04 2013  23 35  -21.0492 26030.7 -03425.6 -07.4969 26255.1
 04 04 2013  23 36  -21.0492 26030.6 -03425.6 -07.4969 26255.1
 04 04 2013  23 37  -21.0491 26030.6 -03425.5 -07.4968 26255.0
 04 04 2013  23 38  -21.0490 26030.5 -03425.5 -07.4969 26254.9
 04 04 2013  23 39  -21.0490 26030.5 -03425.6 -07.4969 26254.9
 04 04 2013  23 40  -21.0490 26030.6 -03425.6 -07.4970 26255.0
 04 04 2013  23 41  -21.0491 26030.6 -03425.7 -07.4971 26255.1
 04 04 2013  23 42  -21.0491 26030.6 -03425.7 -07.4971 26255.1
 04 04 2013  23 43  -21.0492 26030.6 -03425.7 -07.4972 26255.0
 04 04 2013  23 44  -21.0491 26030.7 -03425.7 -07.4972 26255.1
 04 04 2013  23 45  -21.0491 26030.6 -03425.7 -07.4972 26255.1
 04 04 2013  23 46  -21.0490 26030.6 -03425.7 -07.4972 26255.0
 04 04 2013  23 47  -21.0490 26030.5 -03425.7 -07.4972 26255.0
 04 04 2013  23 48  -21.0490 26030.5 -03425.7 -07.4972 26254.9
 04 04 2013  23 49  -21.0490 26030.5 -03425.7 -07.4972 26254.9
 04 04 2013  23 50  -21.0489 26030.5 -03425.7 -07.4972 26254.9
 04 04 2013  23 51  -21.0487 26030.5 -03425.7 -07.4973 26254.9
 04 04 2013  23 52  -21.0486 26030.4 -03425.7 -07.4973 26254.9
 04 04 2013  23 53  -21.0486 26030.4 -03425.7 -07.4973 26254.8
 04 04 2013  23 54  -21.0486 26030.4 -03425.7 -07.4973 26254.8
 04 04 2013  23 55  -21.0485 26030.3 -03425.7 -07.4974 26254.8
 04 04 2013  23 56  -21.0484 26030.4 -03425.8 -07.4974 26254.8
 04 04 2013  23 57  -21.0483 26030.4 -03425.8 -07.4974 26254.8
