SAO LUIS EMBRACE-03 <246> 1 Min. Reported data

 DD MM YYYY  HH MM   D(Deg)  H(nT)   Z(nT)   I(Deg)   F(nT)

 03 09 2013  00 00  -21.0215 26028.4 -03483.4 -07.6227 26260.5
 03 09 2013  00 01  -21.0214 26028.4 -03483.4 -07.6226 26260.5
 03 09 2013  00 02  -21.0214 26028.2 -03483.3 -07.6224 26260.3
 03 09 2013  00 03  -21.0213 26027.9 -03483.0 -07.6220 26259.9
 03 09 2013  00 04  -21.0211 26027.6 -03482.8 -07.6216 26259.6
 03 09 2013  00 05  -21.0209 26027.4 -03482.7 -07.6214 26259.4
 03 09 2013  00 06  -21.0207 26027.4 -03482.7 -07.6214 26259.4
 03 09 2013  00 07  -21.0205 26027.4 -03482.7 -07.6214 26259.4
 03 09 2013  00 08  -21.0204 26027.4 -03482.8 -07.6215 26259.4
 03 09 2013  00 09  -21.0202 26027.3 -03482.7 -07.6214 26259.3
 03 09 2013  00 10  -21.0201 26027.3 -03482.7 -07.6215 26259.2
 03 09 2013  00 11  -21.0199 26027.4 -03482.8 -07.6215 26259.3
 03 09 2013  00 12  -21.0198 26027.4 -03482.8 -07.6216 26259.4
 03 09 2013  00 13  -21.0197 26027.4 -03482.8 -07.6217 26259.4
 03 09 2013  00 14  -21.0198 26027.3 -03482.8 -07.6217 26259.3
 03 09 2013  00 15  -21.0198 26027.2 -03482.7 -07.6216 26259.2
 03 09 2013  00 16  -21.0199 26027.3 -03482.8 -07.6217 26259.3
 03 09 2013  00 17  -21.0201 26027.4 -03482.9 -07.6218 26259.4
 03 09 2013  00 18  -21.0201 26027.7 -03483.0 -07.6219 26259.7
 03 09 2013  00 19  -21.0203 26027.8 -03483.0 -07.6220 26259.9
 03 09 2013  00 20  -21.0206 26027.9 -03483.1 -07.6221 26259.9
 03 09 2013  00 21  -21.0209 26027.8 -03483.0 -07.6219 26259.8
 03 09 2013  00 22  -21.0212 26027.7 -03482.9 -07.6218 26259.7
 03 09 2013  00 23  -21.0215 26027.5 -03482.8 -07.6216 26259.5
 03 09 2013  00 24  -21.0217 26027.3 -03482.6 -07.6213 26259.2
 03 09 2013  00 25  -21.0221 26027.1 -03482.5 -07.6212 26259.1
 03 09 2013  00 26  -21.0223 26027.0 -03482.4 -07.6210 26258.9
 03 09 2013  00 27  -21.0225 26026.8 -03482.4 -07.6209 26258.8
 03 09 2013  00 28  -21.0228 26026.7 -03482.3 -07.6208 26258.6
 03 09 2013  00 29  -21.0229 26026.5 -03482.2 -07.6206 26258.4
 03 09 2013  00 30  -21.0230 26026.3 -03482.1 -07.6205 26258.2
 03 09 2013  00 31  -21.0231 26026.2 -03482.1 -07.6204 26258.1
 03 09 2013  00 32  -21.0232 26026.1 -03482.0 -07.6203 26258.0
 03 09 2013  00 33  -21.0231 26026.1 -03482.0 -07.6203 26258.0
 03 09 2013  00 34  -21.0231 26026.1 -03482.0 -07.6204 26258.0
 03 09 2013  00 35  -21.0231 26026.1 -03482.1 -07.6204 26258.0
 03 09 2013  00 36  -21.0230 26026.2 -03482.1 -07.6205 26258.1
 03 09 2013  00 37  -21.0229 26026.3 -03482.2 -07.6206 26258.2
 03 09 2013  00 38  -21.0229 26026.5 -03482.3 -07.6208 26258.4
 03 09 2013  00 39  -21.0227 26026.6 -03482.3 -07.6208 26258.5
 03 09 2013  00 40  -21.0227 26026.7 -03482.4 -07.6209 26258.6
 03 09 2013  00 41  -21.0226 26026.7 -03482.4 -07.6210 26258.7
 03 09 2013  00 42  -21.0227 26026.7 -03482.4 -07.6210 26258.7
 03 09 2013  00 43  -21.0227 26026.6 -03482.4 -07.6209 26258.5
 03 09 2013  00 44  -21.0227 26026.4 -03482.3 -07.6208 26258.4
 03 09 2013  00 45  -21.0227 26026.3 -03482.2 -07.6206 26258.2
 03 09 2013  00 46  -21.0227 26026.2 -03482.1 -07.6205 26258.1
 03 09 2013  00 47  -21.0228 26026.0 -03482.0 -07.6204 26257.9
 03 09 2013  00 48  -21.0227 26025.8 -03482.0 -07.6203 26257.7
 03 09 2013  00 49  -21.0227 26025.7 -03481.9 -07.6202 26257.6
 03 09 2013  00 50  -21.0226 26025.6 -03481.9 -07.6203 26257.5
 03 09 2013  00 51  -21.0224 26025.7 -03482.0 -07.6203 26257.6
 03 09 2013  00 52  -21.0222 26025.8 -03482.1 -07.6205 26257.7
 03 09 2013  00 53  -21.0219 26026.1 -03482.2 -07.6207 26258.0
 03 09 2013  00 54  -21.0218 26026.4 -03482.4 -07.6210 26258.3
 03 09 2013  00 55  -21.0217 26026.5 -03482.5 -07.6212 26258.5
 03 09 2013  00 56  -21.0216 26026.7 -03482.6 -07.6213 26258.6
 03 09 2013  00 57  -21.0216 26026.7 -03482.6 -07.6214 26258.7
 03 09 2013  00 58  -21.0216 26026.8 -03482.6 -07.6214 26258.8
 03 09 2013  00 59  -21.0216 26026.8 -03482.6 -07.6214 26258.8
 03 09 2013  01 00  -21.0216 26026.8 -03482.6 -07.6214 26258.8
 03 09 2013  01 01  -21.0216 26026.9 -03482.7 -07.6215 26258.9
 03 09 2013  01 02  -21.0215 26027.0 -03482.7 -07.6215 26259.0
 03 09 2013  01 03  -21.0215 26027.1 -03482.7 -07.6216 26259.0
 03 09 2013  01 04  -21.0214 26027.2 -03482.8 -07.6216 26259.2
 03 09 2013  01 05  -21.0214 26027.2 -03482.8 -07.6217 26259.2
 03 09 2013  01 06  -21.0214 26027.2 -03482.8 -07.6216 26259.2
 03 09 2013  01 07  -21.0213 26027.2 -03482.8 -07.6216 26259.2
 03 09 2013  01 08  -21.0213 26027.2 -03482.8 -07.6216 26259.2
 03 09 2013  01 09  -21.0212 26027.1 -03482.7 -07.6215 26259.1
 03 09 2013  01 10  -21.0214 26027.0 -03482.7 -07.6215 26259.0
 03 09 2013  01 11  -21.0215 26026.9 -03482.7 -07.6215 26258.9
 03 09 2013  01 12  -21.0215 26026.7 -03482.5 -07.6213 26258.6
 03 09 2013  01 13  -21.0216 26026.4 -03482.5 -07.6211 26258.4
 03 09 2013  01 14  -21.0216 26026.2 -03482.4 -07.6210 26258.2
 03 09 2013  01 15  -21.0215 26026.1 -03482.3 -07.6209 26258.1
 03 09 2013  01 16  -21.0214 26026.2 -03482.4 -07.6210 26258.1
 03 09 2013  01 17  -21.0214 26026.4 -03482.5 -07.6213 26258.3
 03 09 2013  01 18  -21.0213 26026.6 -03482.6 -07.6215 26258.5
 03 09 2013  01 19  -21.0211 26026.9 -03482.8 -07.6218 26258.8
 03 09 2013  01 20  -21.0207 26027.4 -03483.0 -07.6221 26259.4
 03 09 2013  01 21  -21.0203 26027.9 -03483.3 -07.6225 26259.9
 03 09 2013  01 22  -21.0201 26028.3 -03483.5 -07.6229 26260.4
 03 09 2013  01 23  -21.0200 26028.7 -03483.7 -07.6233 26260.8
 03 09 2013  01 24  -21.0198 26029.0 -03483.8 -07.6234 26261.1
 03 09 2013  01 25  -21.0197 26029.0 -03483.8 -07.6234 26261.1
 03 09 2013  01 26  -21.0197 26028.9 -03483.7 -07.6232 26261.0
 03 09 2013  01 27  -21.0197 26028.7 -03483.6 -07.6230 26260.8
 03 09 2013  01 28  -21.0196 26028.7 -03483.6 -07.6229 26260.7
 03 09 2013  01 29  -21.0195 26028.7 -03483.6 -07.6229 26260.7
 03 09 2013  01 30  -21.0195 26028.7 -03483.6 -07.6229 26260.7
 03 09 2013  01 31  -21.0194 26028.6 -03483.5 -07.6228 26260.6
 03 09 2013  01 32  -21.0194 26028.3 -03483.4 -07.6227 26260.4
 03 09 2013  01 33  -21.0194 26028.1 -03483.3 -07.6225 26260.1
 03 09 2013  01 34  -21.0195 26027.9 -03483.2 -07.6224 26259.9
 03 09 2013  01 35  -21.0195 26027.8 -03483.2 -07.6224 26259.8
 03 09 2013  01 36  -21.0194 26027.9 -03483.2 -07.6224 26259.9
 03 09 2013  01 37  -21.0193 26027.9 -03483.3 -07.6225 26260.0
 03 09 2013  01 38  -21.0193 26028.0 -03483.3 -07.6226 26260.0
 03 09 2013  01 39  -21.0193 26028.0 -03483.3 -07.6226 26260.0
 03 09 2013  01 40  -21.0194 26027.8 -03483.2 -07.6225 26259.8
 03 09 2013  01 41  -21.0196 26027.5 -03483.1 -07.6223 26259.6
 03 09 2013  01 42  -21.0197 26027.2 -03483.0 -07.6221 26259.2
 03 09 2013  01 43  -21.0199 26026.9 -03482.8 -07.6219 26258.9
 03 09 2013  01 44  -21.0198 26026.7 -03482.7 -07.6217 26258.6
 03 09 2013  01 45  -21.0198 26026.6 -03482.7 -07.6216 26258.6
 03 09 2013  01 46  -21.0197 26026.6 -03482.7 -07.6216 26258.6
 03 09 2013  01 47  -21.0195 26026.5 -03482.7 -07.6217 26258.5
 03 09 2013  01 48  -21.0194 26026.5 -03482.7 -07.6217 26258.5
 03 09 2013  01 49  -21.0194 26026.4 -03482.7 -07.6218 26258.4
 03 09 2013  01 50  -21.0193 26026.4 -03482.8 -07.6218 26258.4
 03 09 2013  01 51  -21.0191 26026.4 -03482.8 -07.6219 26258.4
 03 09 2013  01 52  -21.0189 26026.5 -03482.9 -07.6220 26258.5
 03 09 2013  01 53  -21.0186 26026.7 -03483.0 -07.6222 26258.8
 03 09 2013  01 54  -21.0182 26027.1 -03483.2 -07.6225 26259.1
 03 09 2013  01 55  -21.0179 26027.5 -03483.4 -07.6228 26259.5
 03 09 2013  01 56  -21.0177 26027.8 -03483.6 -07.6232 26259.9
 03 09 2013  01 57  -21.0175 26028.1 -03483.8 -07.6235 26260.3
 03 09 2013  01 58  -21.0175 26028.3 -03483.9 -07.6237 26260.4
 03 09 2013  01 59  -21.0173 26028.5 -03483.9 -07.6237 26260.6
 03 09 2013  02 00  -21.0173 26028.6 -03484.0 -07.6238 26260.7
 03 09 2013  02 01  -21.0171 26028.7 -03484.0 -07.6239 26260.8
 03 09 2013  02 02  -21.0168 26028.9 -03484.1 -07.6239 26261.0
 03 09 2013  02 03  -21.0164 26029.3 -03484.2 -07.6242 26261.4
 03 09 2013  02 04  -21.0163 26029.7 -03484.5 -07.6245 26261.9
 03 09 2013  02 05  -21.0163 26030.0 -03484.6 -07.6248 26262.2
 03 09 2013  02 06  -21.0163 26030.0 -03484.6 -07.6247 26262.2
 03 09 2013  02 07  -21.0166 26029.8 -03484.5 -07.6246 26262.0
 03 09 2013  02 08  -21.0168 26029.5 -03484.3 -07.6243 26261.7
 03 09 2013  02 09  -21.0170 26029.2 -03484.1 -07.6239 26261.3
 03 09 2013  02 10  -21.0171 26028.9 -03483.9 -07.6236 26261.0
 03 09 2013  02 11  -21.0173 26028.8 -03483.9 -07.6235 26260.9
 03 09 2013  02 12  -21.0175 26028.6 -03483.8 -07.6234 26260.7
 03 09 2013  02 13  -21.0177 26028.3 -03483.6 -07.6231 26260.4
 03 09 2013  02 14  -21.0177 26028.0 -03483.5 -07.6229 26260.0
 03 09 2013  02 15  -21.0177 26027.8 -03483.4 -07.6228 26259.8
 03 09 2013  02 16  -21.0178 26027.7 -03483.4 -07.6227 26259.7
 03 09 2013  02 17  -21.0178 26027.7 -03483.4 -07.6227 26259.8
 03 09 2013  02 18  -21.0179 26027.8 -03483.5 -07.6229 26259.9
 03 09 2013  02 19  -21.0179 26027.9 -03483.6 -07.6231 26260.0
 03 09 2013  02 20  -21.0179 26027.9 -03483.6 -07.6231 26260.0
 03 09 2013  02 21  -21.0179 26027.9 -03483.6 -07.6232 26260.0
 03 09 2013  02 22  -21.0179 26028.0 -03483.6 -07.6232 26260.1
 03 09 2013  02 23  -21.0179 26028.0 -03483.6 -07.6232 26260.1
 03 09 2013  02 24  -21.0179 26028.1 -03483.6 -07.6232 26260.2
 03 09 2013  02 25  -21.0179 26028.1 -03483.7 -07.6233 26260.2
 03 09 2013  02 26  -21.0177 26028.1 -03483.6 -07.6232 26260.2
 03 09 2013  02 27  -21.0178 26028.2 -03483.7 -07.6233 26260.3
 03 09 2013  02 28  -21.0178 26028.2 -03483.7 -07.6234 26260.3
 03 09 2013  02 29  -21.0178 26028.3 -03483.7 -07.6234 26260.4
 03 09 2013  02 30  -21.0178 26028.3 -03483.7 -07.6234 26260.4
 03 09 2013  02 31  -21.0178 26028.3 -03483.7 -07.6233 26260.4
 03 09 2013  02 32  -21.0178 26028.2 -03483.7 -07.6233 26260.3
 03 09 2013  02 33  -21.0176 26028.2 -03483.7 -07.6232 26260.3
 03 09 2013  02 34  -21.0175 26028.3 -03483.7 -07.6233 26260.3
 03 09 2013  02 35  -21.0175 26028.3 -03483.7 -07.6233 26260.4
 03 09 2013  02 36  -21.0175 26028.2 -03483.7 -07.6233 26260.3
 03 09 2013  02 37  -21.0174 26028.3 -03483.7 -07.6232 26260.3
 03 09 2013  02 38  -21.0175 26028.3 -03483.7 -07.6233 26260.4
 03 09 2013  02 39  -21.0175 26028.3 -03483.7 -07.6233 26260.4
 03 09 2013  02 40  -21.0174 26028.3 -03483.7 -07.6233 26260.4
 03 09 2013  02 41  -21.0173 26028.3 -03483.7 -07.6233 26260.4
 03 09 2013  02 42  -21.0172 26028.5 -03483.8 -07.6234 26260.6
 03 09 2013  02 43  -21.0172 26028.7 -03483.9 -07.6235 26260.8
 03 09 2013  02 44  -21.0172 26028.8 -03483.9 -07.6236 26260.9
 03 09 2013  02 45  -21.0170 26028.8 -03483.9 -07.6236 26260.9
 03 09 2013  02 46  -21.0170 26028.9 -03484.0 -07.6237 26261.1
 03 09 2013  02 47  -21.0170 26029.2 -03484.1 -07.6239 26261.3
 03 09 2013  02 48  -21.0170 26029.4 -03484.2 -07.6240 26261.5
 03 09 2013  02 49  -21.0169 26029.5 -03484.2 -07.6241 26261.7
 03 09 2013  02 50  -21.0168 26029.5 -03484.2 -07.6241 26261.7
 03 09 2013  02 51  -21.0169 26029.4 -03484.1 -07.6240 26261.5
 03 09 2013  02 52  -21.0170 26029.2 -03484.0 -07.6237 26261.3
 03 09 2013  02 53  -21.0172 26029.0 -03483.9 -07.6235 26261.1
 03 09 2013  02 54  -21.0173 26028.9 -03483.8 -07.6234 26261.0
 03 09 2013  02 55  -21.0174 26028.8 -03483.8 -07.6234 26260.9
 03 09 2013  02 56  -21.0174 26028.8 -03483.8 -07.6234 26260.9
 03 09 2013  02 57  -21.0174 26028.9 -03483.8 -07.6234 26261.0
 03 09 2013  02 58  -21.0174 26029.0 -03483.9 -07.6235 26261.1
 03 09 2013  02 59  -21.0172 26029.2 -03484.0 -07.6237 26261.3
 03 09 2013  03 00  -21.0170 26029.5 -03484.1 -07.6239 26261.6
 03 09 2013  03 01  -21.0169 26029.7 -03484.3 -07.6241 26261.9
 03 09 2013  03 02  -21.0168 26029.9 -03484.3 -07.6242 26262.1
 03 09 2013  03 03  -21.0166 26030.0 -03484.4 -07.6243 26262.2
 03 09 2013  03 04  -21.0166 26030.1 -03484.4 -07.6243 26262.2
 03 09 2013  03 05  -21.0166 26030.1 -03484.4 -07.6243 26262.3
 03 09 2013  03 06  -21.0167 26030.1 -03484.4 -07.6242 26262.2
 03 09 2013  03 07  -21.0168 26030.0 -03484.3 -07.6242 26262.1
 03 09 2013  03 08  -21.0170 26029.8 -03484.2 -07.6240 26261.9
 03 09 2013  03 09  -21.0170 26029.5 -03484.1 -07.6238 26261.6
 03 09 2013  03 10  -21.0170 26029.3 -03484.0 -07.6236 26261.5
 03 09 2013  03 11  -21.0170 26029.4 -03484.0 -07.6236 26261.5
 03 09 2013  03 12  -21.0168 26029.5 -03484.1 -07.6238 26261.6
 03 09 2013  03 13  -21.0167 26029.9 -03484.3 -07.6241 26262.1
 03 09 2013  03 14  -21.0165 26030.5 -03484.6 -07.6245 26262.6
 03 09 2013  03 15  -21.0163 26031.0 -03484.8 -07.6250 26263.2
 03 09 2013  03 16  -21.0162 26031.3 -03485.0 -07.6253 26263.6
 03 09 2013  03 17  -21.0161 26031.6 -03485.1 -07.6254 26263.8
 03 09 2013  03 18  -21.0159 26031.9 -03485.1 -07.6254 26264.1
 03 09 2013  03 19  -21.0159 26032.2 -03485.3 -07.6256 26264.5
 03 09 2013  03 20  -21.0159 26032.4 -03485.4 -07.6257 26264.7
 03 09 2013  03 21  -21.0158 26032.5 -03485.3 -07.6256 26264.8
 03 09 2013  03 22  -21.0157 26032.5 -03485.3 -07.6255 26264.8
 03 09 2013  03 23  -21.0157 26032.5 -03485.2 -07.6254 26264.7
 03 09 2013  03 24  -21.0156 26032.3 -03485.1 -07.6251 26264.6
 03 09 2013  03 25  -21.0158 26032.0 -03484.9 -07.6249 26264.3
 03 09 2013  03 26  -21.0159 26031.6 -03484.7 -07.6245 26263.9
 03 09 2013  03 27  -21.0159 26031.3 -03484.5 -07.6242 26263.5
 03 09 2013  03 28  -21.0160 26031.2 -03484.4 -07.6240 26263.4
 03 09 2013  03 29  -21.0162 26031.3 -03484.5 -07.6241 26263.5
 03 09 2013  03 30  -21.0163 26031.6 -03484.6 -07.6243 26263.8
 03 09 2013  03 31  -21.0163 26032.0 -03484.8 -07.6246 26264.2
 03 09 2013  03 32  -21.0162 26032.3 -03484.9 -07.6248 26264.6
 03 09 2013  03 33  -21.0162 26032.7 -03485.1 -07.6250 26264.9
 03 09 2013  03 34  -21.0163 26033.0 -03485.2 -07.6251 26265.2
 03 09 2013  03 35  -21.0161 26033.1 -03485.1 -07.6250 26265.3
 03 09 2013  03 36  -21.0161 26033.1 -03485.1 -07.6250 26265.4
 03 09 2013  03 37  -21.0162 26033.2 -03485.1 -07.6249 26265.4
 03 09 2013  03 38  -21.0162 26033.0 -03484.9 -07.6246 26265.2
 03 09 2013  03 39  -21.0163 26032.5 -03484.6 -07.6241 26264.7
 03 09 2013  03 40  -21.0162 26032.2 -03484.4 -07.6237 26264.3
 03 09 2013  03 41  -21.0163 26032.3 -03484.4 -07.6236 26264.4
 03 09 2013  03 42  -21.0164 26032.4 -03484.5 -07.6237 26264.6
 03 09 2013  03 43  -21.0163 26032.5 -03484.5 -07.6237 26264.7
 03 09 2013  03 44  -21.0163 26032.4 -03484.4 -07.6236 26264.6
 03 09 2013  03 45  -21.0163 26032.5 -03484.4 -07.6236 26264.7
 03 09 2013  03 46  -21.0161 26032.7 -03484.4 -07.6236 26264.8
 03 09 2013  03 47  -21.0161 26033.0 -03484.6 -07.6239 26265.2
 03 09 2013  03 48  -21.0159 26033.3 -03484.7 -07.6241 26265.5
 03 09 2013  03 49  -21.0158 26033.6 -03484.8 -07.6242 26265.8
 03 09 2013  03 50  -21.0156 26033.7 -03484.8 -07.6242 26265.9
 03 09 2013  03 51  -21.0155 26033.7 -03484.8 -07.6241 26265.9
 03 09 2013  03 52  -21.0153 26033.6 -03484.7 -07.6240 26265.8
 03 09 2013  03 53  -21.0151 26033.6 -03484.7 -07.6239 26265.8
 03 09 2013  03 54  -21.0150 26033.5 -03484.6 -07.6237 26265.7
 03 09 2013  03 55  -21.0150 26033.4 -03484.5 -07.6236 26265.6
 03 09 2013  03 56  -21.0151 26033.3 -03484.4 -07.6235 26265.4
 03 09 2013  03 57  -21.0152 26033.1 -03484.3 -07.6233 26265.2
 03 09 2013  03 58  -21.0153 26033.1 -03484.3 -07.6232 26265.2
 03 09 2013  03 59  -21.0153 26033.2 -03484.3 -07.6233 26265.3
 03 09 2013  04 00  -21.0153 26033.3 -03484.4 -07.6234 26265.5
 03 09 2013  04 01  -21.0154 26033.4 -03484.4 -07.6235 26265.5
 03 09 2013  04 02  -21.0155 26033.3 -03484.4 -07.6234 26265.5
 03 09 2013  04 03  -21.0155 26033.2 -03484.4 -07.6233 26265.3
 03 09 2013  04 04  -21.0154 26033.2 -03484.3 -07.6232 26265.4
 03 09 2013  04 05  -21.0153 26033.3 -03484.3 -07.6232 26265.4
 03 09 2013  04 06  -21.0153 26033.4 -03484.4 -07.6234 26265.6
 03 09 2013  04 07  -21.0153 26033.6 -03484.5 -07.6235 26265.7
 03 09 2013  04 08  -21.0153 26033.6 -03484.5 -07.6235 26265.8
 03 09 2013  04 09  -21.0153 26033.7 -03484.5 -07.6235 26265.9
 03 09 2013  04 10  -21.0151 26033.8 -03484.6 -07.6235 26266.0
 03 09 2013  04 11  -21.0149 26033.9 -03484.6 -07.6236 26266.0
 03 09 2013  04 12  -21.0147 26034.0 -03484.6 -07.6235 26266.1
 03 09 2013  04 13  -21.0147 26034.1 -03484.6 -07.6236 26266.2
 03 09 2013  04 14  -21.0147 26034.1 -03484.6 -07.6236 26266.3
 03 09 2013  04 15  -21.0145 26034.1 -03484.6 -07.6236 26266.3
 03 09 2013  04 16  -21.0143 26034.1 -03484.6 -07.6235 26266.3
 03 09 2013  04 17  -21.0143 26034.0 -03484.5 -07.6234 26266.2
 03 09 2013  04 18  -21.0143 26033.9 -03484.4 -07.6233 26266.1
 03 09 2013  04 19  -21.0143 26033.8 -03484.4 -07.6232 26266.0
 03 09 2013  04 20  -21.0142 26033.8 -03484.4 -07.6231 26266.0
 03 09 2013  04 21  -21.0142 26034.0 -03484.5 -07.6233 26266.2
 03 09 2013  04 22  -21.0139 26034.2 -03484.5 -07.6234 26266.4
 03 09 2013  04 23  -21.0138 26034.5 -03484.7 -07.6236 26266.7
 03 09 2013  04 24  -21.0136 26034.7 -03484.7 -07.6237 26266.9
 03 09 2013  04 25  -21.0133 26034.9 -03484.8 -07.6238 26267.0
 03 09 2013  04 26  -21.0130 26034.8 -03484.7 -07.6236 26267.0
 03 09 2013  04 27  -21.0130 26034.8 -03484.7 -07.6236 26266.9
 03 09 2013  04 28  -21.0129 26034.7 -03484.6 -07.6234 26266.8
 03 09 2013  04 29  -21.0129 26034.6 -03484.6 -07.6234 26266.7
 03 09 2013  04 30  -21.0129 26034.5 -03484.5 -07.6233 26266.6
 03 09 2013  04 31  -21.0129 26034.4 -03484.5 -07.6232 26266.6
 03 09 2013  04 32  -21.0129 26034.4 -03484.5 -07.6232 26266.6
 03 09 2013  04 33  -21.0130 26034.5 -03484.5 -07.6233 26266.6
 03 09 2013  04 34  -21.0129 26034.6 -03484.6 -07.6234 26266.7
 03 09 2013  04 35  -21.0128 26034.8 -03484.7 -07.6235 26266.9
 03 09 2013  04 36  -21.0128 26035.0 -03484.8 -07.6237 26267.2
 03 09 2013  04 37  -21.0128 26035.2 -03484.9 -07.6238 26267.4
 03 09 2013  04 38  -21.0127 26035.2 -03484.9 -07.6238 26267.4
 03 09 2013  04 39  -21.0127 26035.2 -03484.8 -07.6238 26267.4
 03 09 2013  04 40  -21.0127 26035.2 -03484.8 -07.6237 26267.4
 03 09 2013  04 41  -21.0127 26035.2 -03484.8 -07.6236 26267.4
 03 09 2013  04 42  -21.0126 26035.3 -03484.8 -07.6236 26267.4
 03 09 2013  04 43  -21.0125 26035.3 -03484.8 -07.6236 26267.4
 03 09 2013  04 44  -21.0124 26035.2 -03484.7 -07.6235 26267.4
 03 09 2013  04 45  -21.0124 26035.1 -03484.6 -07.6234 26267.3
 03 09 2013  04 46  -21.0124 26035.0 -03484.6 -07.6233 26267.2
 03 09 2013  04 47  -21.0124 26035.0 -03484.6 -07.6233 26267.2
 03 09 2013  04 48  -21.0125 26035.0 -03484.6 -07.6233 26267.2
 03 09 2013  04 49  -21.0125 26034.9 -03484.5 -07.6232 26267.0
 03 09 2013  04 50  -21.0126 26034.7 -03484.4 -07.6230 26266.8
 03 09 2013  04 51  -21.0128 26034.5 -03484.3 -07.6229 26266.6
 03 09 2013  04 52  -21.0128 26034.5 -03484.3 -07.6228 26266.6
 03 09 2013  04 53  -21.0126 26034.6 -03484.3 -07.6229 26266.7
 03 09 2013  04 54  -21.0126 26034.7 -03484.4 -07.6230 26266.9
 03 09 2013  04 55  -21.0125 26034.8 -03484.5 -07.6231 26266.9
 03 09 2013  04 56  -21.0125 26034.7 -03484.4 -07.6230 26266.8
 03 09 2013  04 57  -21.0124 26034.7 -03484.4 -07.6229 26266.8
 03 09 2013  04 58  -21.0123 26034.6 -03484.4 -07.6229 26266.8
 03 09 2013  04 59  -21.0122 26034.7 -03484.4 -07.6229 26266.8
 03 09 2013  05 00  -21.0121 26034.7 -03484.4 -07.6230 26266.9
 03 09 2013  05 01  -21.0120 26034.7 -03484.4 -07.6230 26266.8
 03 09 2013  05 02  -21.0118 26034.7 -03484.4 -07.6230 26266.9
 03 09 2013  05 03  -21.0117 26034.7 -03484.4 -07.6230 26266.9
 03 09 2013  05 04  -21.0116 26034.7 -03484.4 -07.6230 26266.9
 03 09 2013  05 05  -21.0115 26034.9 -03484.5 -07.6231 26267.0
 03 09 2013  05 06  -21.0114 26034.9 -03484.5 -07.6232 26267.1
 03 09 2013  05 07  -21.0114 26035.0 -03484.6 -07.6233 26267.2
 03 09 2013  05 08  -21.0112 26035.1 -03484.6 -07.6233 26267.3
 03 09 2013  05 09  -21.0110 26035.2 -03484.7 -07.6234 26267.4
 03 09 2013  05 10  -21.0109 26035.3 -03484.8 -07.6235 26267.5
 03 09 2013  05 11  -21.0107 26035.3 -03484.7 -07.6235 26267.4
 03 09 2013  05 12  -21.0107 26035.1 -03484.6 -07.6233 26267.3
 03 09 2013  05 13  -21.0109 26035.1 -03484.6 -07.6233 26267.3
 03 09 2013  05 14  -21.0110 26035.0 -03484.6 -07.6233 26267.2
 03 09 2013  05 15  -21.0110 26035.0 -03484.6 -07.6233 26267.2
 03 09 2013  05 16  -21.0109 26035.1 -03484.6 -07.6233 26267.2
 03 09 2013  05 17  -21.0107 26035.1 -03484.6 -07.6233 26267.3
 03 09 2013  05 18  -21.0105 26035.2 -03484.7 -07.6234 26267.4
 03 09 2013  05 19  -21.0103 26035.3 -03484.7 -07.6235 26267.5
 03 09 2013  05 20  -21.0103 26035.3 -03484.8 -07.6235 26267.5
 03 09 2013  05 21  -21.0104 26035.4 -03484.8 -07.6236 26267.5
 03 09 2013  05 22  -21.0104 26035.3 -03484.8 -07.6236 26267.4
 03 09 2013  05 23  -21.0105 26035.2 -03484.7 -07.6235 26267.4
 03 09 2013  05 24  -21.0107 26035.1 -03484.7 -07.6235 26267.3
 03 09 2013  05 25  -21.0107 26035.0 -03484.6 -07.6234 26267.2
 03 09 2013  05 26  -21.0108 26035.0 -03484.7 -07.6234 26267.2
 03 09 2013  05 27  -21.0107 26035.0 -03484.7 -07.6235 26267.2
 03 09 2013  05 28  -21.0107 26035.1 -03484.7 -07.6235 26267.3
 03 09 2013  05 29  -21.0106 26035.2 -03484.8 -07.6237 26267.4
 03 09 2013  05 30  -21.0104 26035.3 -03484.9 -07.6238 26267.5
 03 09 2013  05 31  -21.0103 26035.3 -03484.9 -07.6238 26267.5
 03 09 2013  05 32  -21.0103 26035.4 -03484.9 -07.6239 26267.6
 03 09 2013  05 33  -21.0103 26035.4 -03485.0 -07.6240 26267.6
 03 09 2013  05 34  -21.0103 26035.4 -03485.0 -07.6241 26267.6
 03 09 2013  05 35  -21.0102 26035.5 -03485.0 -07.6241 26267.7
 03 09 2013  05 36  -21.0102 26035.5 -03485.1 -07.6242 26267.8
 03 09 2013  05 37  -21.0102 26035.6 -03485.1 -07.6243 26267.8
 03 09 2013  05 38  -21.0103 26035.7 -03485.2 -07.6244 26267.9
 03 09 2013  05 39  -21.0102 26035.7 -03485.2 -07.6243 26267.9
 03 09 2013  05 40  -21.0103 26035.6 -03485.2 -07.6244 26267.9
 03 09 2013  05 41  -21.0103 26035.6 -03485.2 -07.6243 26267.8
 03 09 2013  05 42  -21.0103 26035.5 -03485.1 -07.6242 26267.7
 03 09 2013  05 43  -21.0105 26035.5 -03485.1 -07.6243 26267.7
 03 09 2013  05 44  -21.0104 26035.5 -03485.1 -07.6243 26267.7
 03 09 2013  05 45  -21.0104 26035.5 -03485.1 -07.6243 26267.7
 03 09 2013  05 46  -21.0103 26035.5 -03485.2 -07.6244 26267.7
 03 09 2013  05 47  -21.0102 26035.5 -03485.2 -07.6244 26267.8
 03 09 2013  05 48  -21.0101 26035.5 -03485.2 -07.6244 26267.7
 03 09 2013  05 49  -21.0103 26035.4 -03485.1 -07.6243 26267.6
 03 09 2013  05 50  -21.0104 26035.4 -03485.1 -07.6244 26267.6
 03 09 2013  05 51  -21.0103 26035.3 -03485.1 -07.6243 26267.5
 03 09 2013  05 52  -21.0101 26035.2 -03485.1 -07.6242 26267.5
 03 09 2013  05 53  -21.0102 26035.1 -03485.0 -07.6242 26267.3
 03 09 2013  05 54  -21.0103 26034.9 -03485.0 -07.6241 26267.1
 03 09 2013  05 55  -21.0103 26034.8 -03484.9 -07.6239 26267.0
 03 09 2013  05 56  -21.0102 26034.7 -03484.8 -07.6238 26266.8
 03 09 2013  05 57  -21.0102 26034.4 -03484.7 -07.6236 26266.5
 03 09 2013  05 58  -21.0103 26034.1 -03484.6 -07.6235 26266.3
 03 09 2013  05 59  -21.0104 26033.8 -03484.4 -07.6233 26266.0
 03 09 2013  06 00  -21.0105 26033.3 -03484.2 -07.6230 26265.4
 03 09 2013  06 01  -21.0111 26032.2 -03483.8 -07.6224 26264.3
 03 09 2013  06 02  -21.0122 26031.2 -03483.3 -07.6217 26263.2
 03 09 2013  06 03  -21.0132 26030.3 -03482.9 -07.6211 26262.3
 03 09 2013  06 04  -21.0139 26029.9 -03482.7 -07.6208 26261.8
 03 09 2013  06 05  -21.0142 26029.8 -03482.7 -07.6207 26261.7
 03 09 2013  06 06  -21.0140 26029.9 -03482.8 -07.6209 26261.9
 03 09 2013  06 07  -21.0137 26030.1 -03483.0 -07.6213 26262.1
 03 09 2013  06 08  -21.0131 26030.3 -03483.2 -07.6216 26262.4
 03 09 2013  06 09  -21.0128 26030.6 -03483.4 -07.6220 26262.6
 03 09 2013  06 10  -21.0124 26030.7 -03483.5 -07.6222 26262.8
 03 09 2013  06 11  -21.0119 26030.8 -03483.6 -07.6223 26262.9
 03 09 2013  06 12  -21.0117 26030.9 -03483.7 -07.6226 26263.0
 03 09 2013  06 13  -21.0113 26031.1 -03483.9 -07.6229 26263.2
 03 09 2013  06 14  -21.0110 26031.3 -03484.0 -07.6232 26263.4
 03 09 2013  06 15  -21.0105 26031.4 -03484.1 -07.6233 26263.6
 03 09 2013  06 16  -21.0103 26031.5 -03484.2 -07.6234 26263.6
 03 09 2013  06 17  -21.0101 26031.4 -03484.2 -07.6235 26263.6
 03 09 2013  06 18  -21.0100 26031.5 -03484.3 -07.6236 26263.6
 03 09 2013  06 19  -21.0099 26031.6 -03484.3 -07.6238 26263.7
 03 09 2013  06 20  -21.0095 26031.7 -03484.4 -07.6239 26263.9
 03 09 2013  06 21  -21.0091 26031.9 -03484.6 -07.6241 26264.1
 03 09 2013  06 22  -21.0088 26032.1 -03484.7 -07.6243 26264.3
 03 09 2013  06 23  -21.0085 26032.2 -03484.8 -07.6245 26264.5
 03 09 2013  06 24  -21.0082 26032.3 -03484.9 -07.6247 26264.6
 03 09 2013  06 25  -21.0080 26032.4 -03484.9 -07.6248 26264.7
 03 09 2013  06 26  -21.0077 26032.5 -03485.0 -07.6249 26264.7
 03 09 2013  06 27  -21.0076 26032.6 -03485.0 -07.6249 26264.8
 03 09 2013  06 28  -21.0074 26032.8 -03485.2 -07.6251 26265.0
 03 09 2013  06 29  -21.0071 26033.0 -03485.3 -07.6254 26265.3
 03 09 2013  06 30  -21.0069 26033.1 -03485.4 -07.6255 26265.4
 03 09 2013  06 31  -21.0065 26033.3 -03485.4 -07.6256 26265.5
 03 09 2013  06 32  -21.0062 26033.4 -03485.5 -07.6256 26265.7
 03 09 2013  06 33  -21.0060 26033.5 -03485.6 -07.6258 26265.8
 03 09 2013  06 34  -21.0058 26033.4 -03485.5 -07.6258 26265.7
 03 09 2013  06 35  -21.0059 26033.1 -03485.4 -07.6256 26265.3
 03 09 2013  06 36  -21.0063 26032.7 -03485.2 -07.6253 26265.0
 03 09 2013  06 37  -21.0069 26032.5 -03485.1 -07.6252 26264.8
 03 09 2013  06 38  -21.0073 26032.4 -03485.1 -07.6251 26264.7
 03 09 2013  06 39  -21.0073 26032.5 -03485.1 -07.6251 26264.8
 03 09 2013  06 40  -21.0071 26032.7 -03485.2 -07.6252 26264.9
 03 09 2013  06 41  -21.0070 26032.8 -03485.2 -07.6253 26265.0
 03 09 2013  06 42  -21.0068 26032.8 -03485.2 -07.6252 26265.0
 03 09 2013  06 43  -21.0068 26032.7 -03485.2 -07.6252 26264.9
 03 09 2013  06 44  -21.0070 26032.5 -03485.1 -07.6250 26264.7
 03 09 2013  06 45  -21.0071 26032.4 -03485.0 -07.6250 26264.7
 03 09 2013  06 46  -21.0071 26032.4 -03485.0 -07.6249 26264.6
 03 09 2013  06 47  -21.0071 26032.4 -03485.0 -07.6249 26264.6
 03 09 2013  06 48  -21.0069 26032.4 -03485.0 -07.6249 26264.6
 03 09 2013  06 49  -21.0066 26032.5 -03485.0 -07.6249 26264.7
 03 09 2013  06 50  -21.0062 26032.5 -03485.0 -07.6250 26264.8
 03 09 2013  06 51  -21.0057 26032.6 -03485.0 -07.6249 26264.8
 03 09 2013  06 52  -21.0054 26032.6 -03485.1 -07.6250 26264.8
 03 09 2013  06 53  -21.0050 26032.6 -03485.1 -07.6250 26264.9
 03 09 2013  06 54  -21.0048 26032.7 -03485.2 -07.6252 26265.0
 03 09 2013  06 55  -21.0047 26032.8 -03485.2 -07.6253 26265.0
 03 09 2013  06 56  -21.0044 26032.8 -03485.2 -07.6253 26265.0
 03 09 2013  06 57  -21.0043 26032.7 -03485.2 -07.6253 26265.0
 03 09 2013  06 58  -21.0043 26032.6 -03485.2 -07.6253 26264.9
 03 09 2013  06 59  -21.0043 26032.5 -03485.2 -07.6253 26264.8
 03 09 2013  07 00  -21.0045 26032.5 -03485.2 -07.6253 26264.7
 03 09 2013  07 01  -21.0046 26032.5 -03485.2 -07.6253 26264.7
 03 09 2013  07 02  -21.0046 26032.6 -03485.2 -07.6254 26264.8
 03 09 2013  07 03  -21.0045 26032.7 -03485.3 -07.6255 26265.0
 03 09 2013  07 04  -21.0043 26032.9 -03485.4 -07.6257 26265.2
 03 09 2013  07 05  -21.0041 26033.0 -03485.5 -07.6258 26265.3
 03 09 2013  07 06  -21.0038 26033.1 -03485.5 -07.6259 26265.4
 03 09 2013  07 07  -21.0036 26033.1 -03485.5 -07.6258 26265.4
 03 09 2013  07 08  -21.0035 26033.1 -03485.5 -07.6258 26265.4
 03 09 2013  07 09  -21.0036 26033.1 -03485.5 -07.6258 26265.4
 03 09 2013  07 10  -21.0036 26033.0 -03485.5 -07.6259 26265.3
 03 09 2013  07 11  -21.0036 26033.0 -03485.5 -07.6258 26265.3
 03 09 2013  07 12  -21.0037 26032.9 -03485.5 -07.6258 26265.2
 03 09 2013  07 13  -21.0038 26032.9 -03485.5 -07.6258 26265.2
 03 09 2013  07 14  -21.0039 26032.8 -03485.4 -07.6257 26265.1
 03 09 2013  07 15  -21.0040 26032.8 -03485.4 -07.6257 26265.1
 03 09 2013  07 16  -21.0040 26032.7 -03485.3 -07.6256 26264.9
 03 09 2013  07 17  -21.0040 26032.7 -03485.3 -07.6255 26264.9
 03 09 2013  07 18  -21.0039 26032.6 -03485.3 -07.6255 26264.9
 03 09 2013  07 19  -21.0038 26032.6 -03485.3 -07.6255 26264.9
 03 09 2013  07 20  -21.0038 26032.7 -03485.3 -07.6255 26265.0
 03 09 2013  07 21  -21.0037 26032.8 -03485.4 -07.6256 26265.1
 03 09 2013  07 22  -21.0035 26033.0 -03485.5 -07.6258 26265.3
 03 09 2013  07 23  -21.0031 26033.1 -03485.5 -07.6259 26265.4
 03 09 2013  07 24  -21.0028 26033.2 -03485.6 -07.6260 26265.5
 03 09 2013  07 25  -21.0025 26033.2 -03485.6 -07.6260 26265.5
 03 09 2013  07 26  -21.0023 26033.2 -03485.6 -07.6260 26265.5
 03 09 2013  07 27  -21.0022 26033.2 -03485.6 -07.6260 26265.5
 03 09 2013  07 28  -21.0021 26033.2 -03485.6 -07.6261 26265.6
 03 09 2013  07 29  -21.0019 26033.2 -03485.7 -07.6261 26265.6
 03 09 2013  07 30  -21.0018 26033.3 -03485.7 -07.6262 26265.6
 03 09 2013  07 31  -21.0015 26033.4 -03485.7 -07.6262 26265.7
 03 09 2013  07 32  -21.0012 26033.5 -03485.8 -07.6263 26265.8
 03 09 2013  07 33  -21.0008 26033.5 -03485.8 -07.6263 26265.9
 03 09 2013  07 34  -21.0006 26033.6 -03485.9 -07.6264 26266.0
 03 09 2013  07 35  -21.0003 26033.7 -03485.9 -07.6265 26266.1
 03 09 2013  07 36  -21.0003 26033.6 -03485.9 -07.6266 26266.0
 03 09 2013  07 37  -21.0002 26033.5 -03485.9 -07.6265 26265.9
 03 09 2013  07 38  -21.0003 26033.5 -03485.8 -07.6264 26265.8
 03 09 2013  07 39  -21.0003 26033.4 -03485.8 -07.6264 26265.8
 03 09 2013  07 40  -21.0002 26033.3 -03485.8 -07.6263 26265.6
 03 09 2013  07 41  -21.0002 26033.2 -03485.7 -07.6262 26265.5
 03 09 2013  07 42  -21.0001 26033.3 -03485.8 -07.6263 26265.7
 03 09 2013  07 43  -21.0000 26033.5 -03485.9 -07.6265 26265.9
 03 09 2013  07 44  -20.9997 26033.7 -03485.9 -07.6266 26266.0
 03 09 2013  07 45  -20.9994 26033.8 -03486.0 -07.6267 26266.1
 03 09 2013  07 46  -20.9994 26033.9 -03486.1 -07.6268 26266.2
 03 09 2013  07 47  -20.9993 26033.8 -03486.0 -07.6268 26266.2
 03 09 2013  07 48  -20.9993 26033.8 -03486.0 -07.6267 26266.1
 03 09 2013  07 49  -20.9992 26033.7 -03486.0 -07.6266 26266.1
 03 09 2013  07 50  -20.9992 26033.8 -03486.0 -07.6267 26266.1
 03 09 2013  07 51  -20.9992 26033.9 -03486.0 -07.6267 26266.2
 03 09 2013  07 52  -20.9992 26034.0 -03486.1 -07.6268 26266.4
 03 09 2013  07 53  -20.9990 26034.2 -03486.2 -07.6270 26266.6
 03 09 2013  07 54  -20.9987 26034.4 -03486.3 -07.6271 26266.8
 03 09 2013  07 55  -20.9984 26034.5 -03486.3 -07.6272 26266.9
 03 09 2013  07 56  -20.9979 26034.5 -03486.3 -07.6271 26266.9
 03 09 2013  07 57  -20.9973 26034.5 -03486.3 -07.6271 26266.9
 03 09 2013  07 58  -20.9960 26034.7 -03486.3 -07.6271 26267.1
 03 09 2013  07 59  -20.9949 26034.9 -03486.4 -07.6273 26267.3
 03 09 2013  08 00  -20.9940 26035.3 -03486.7 -07.6277 26267.7
 03 09 2013  08 01  -20.9932 26035.7 -03486.9 -07.6281 26268.1
 03 09 2013  08 02  -20.9925 26036.0 -03487.1 -07.6284 26268.4
 03 09 2013  08 03  -20.9919 26036.2 -03487.2 -07.6287 26268.7
 03 09 2013  08 04  -20.9913 26036.3 -03487.3 -07.6287 26268.9
 03 09 2013  08 05  -20.9911 26036.3 -03487.3 -07.6287 26268.8
 03 09 2013  08 06  -20.9911 26036.2 -03487.2 -07.6287 26268.7
 03 09 2013  08 07  -20.9912 26036.0 -03487.2 -07.6285 26268.5
 03 09 2013  08 08  -20.9916 26035.8 -03487.0 -07.6284 26268.3
 03 09 2013  08 09  -20.9919 26035.7 -03486.9 -07.6281 26268.2
 03 09 2013  08 10  -20.9922 26035.7 -03486.9 -07.6280 26268.1
 03 09 2013  08 11  -20.9922 26035.7 -03486.8 -07.6279 26268.1
 03 09 2013  08 12  -20.9922 26035.7 -03486.9 -07.6280 26268.2
 03 09 2013  08 13  -20.9921 26035.8 -03486.9 -07.6281 26268.3
 03 09 2013  08 14  -20.9918 26035.9 -03486.9 -07.6280 26268.4
 03 09 2013  08 15  -20.9914 26036.0 -03486.9 -07.6280 26268.4
 03 09 2013  08 16  -20.9909 26036.0 -03486.8 -07.6278 26268.4
 03 09 2013  08 17  -20.9905 26035.7 -03486.7 -07.6276 26268.1
 03 09 2013  08 18  -20.9903 26035.1 -03486.4 -07.6272 26267.5
 03 09 2013  08 19  -20.9905 26035.0 -03486.3 -07.6270 26267.4
 03 09 2013  08 20  -20.9910 26035.2 -03486.4 -07.6272 26267.6
 03 09 2013  08 21  -20.9913 26035.6 -03486.6 -07.6275 26268.0
 03 09 2013  08 22  -20.9905 26036.0 -03486.7 -07.6276 26268.4
 03 09 2013  08 23  -20.9894 26036.2 -03486.7 -07.6276 26268.6
 03 09 2013  08 24  -20.9884 26036.2 -03486.7 -07.6276 26268.6
 03 09 2013  08 25  -20.9879 26035.7 -03486.6 -07.6274 26268.1
 03 09 2013  08 26  -20.9883 26034.9 -03486.3 -07.6269 26267.3
 03 09 2013  08 27  -20.9889 26034.6 -03486.1 -07.6266 26266.9
 03 09 2013  08 28  -20.9891 26034.5 -03486.0 -07.6265 26266.8
 03 09 2013  08 29  -20.9887 26034.7 -03486.0 -07.6264 26267.0
 03 09 2013  08 30  -20.9879 26034.8 -03486.0 -07.6264 26267.1
 03 09 2013  08 31  -20.9870 26034.9 -03486.0 -07.6264 26267.2
 03 09 2013  08 32  -20.9857 26035.0 -03486.1 -07.6265 26267.4
 03 09 2013  08 33  -20.9848 26035.3 -03486.2 -07.6267 26267.6
 03 09 2013  08 34  -20.9840 26035.4 -03486.3 -07.6268 26267.8
 03 09 2013  08 35  -20.9828 26035.6 -03486.4 -07.6270 26268.0
 03 09 2013  08 36  -20.9816 26035.9 -03486.6 -07.6273 26268.3
 03 09 2013  08 37  -20.9803 26036.4 -03486.8 -07.6277 26268.8
 03 09 2013  08 38  -20.9795 26036.6 -03486.9 -07.6278 26269.1
 03 09 2013  08 39  -20.9786 26036.6 -03487.0 -07.6280 26269.1
 03 09 2013  08 40  -20.9782 26036.5 -03487.0 -07.6280 26269.0
 03 09 2013  08 41  -20.9780 26036.3 -03486.9 -07.6279 26268.7
 03 09 2013  08 42  -20.9779 26036.2 -03486.9 -07.6278 26268.6
 03 09 2013  08 43  -20.9776 26036.0 -03486.8 -07.6277 26268.4
 03 09 2013  08 44  -20.9774 26035.7 -03486.7 -07.6276 26268.1
 03 09 2013  08 45  -20.9774 26035.6 -03486.7 -07.6276 26268.0
 03 09 2013  08 46  -20.9772 26035.6 -03486.7 -07.6277 26268.0
 03 09 2013  08 47  -20.9768 26035.6 -03486.8 -07.6279 26268.0
 03 09 2013  08 48  -20.9764 26035.6 -03486.9 -07.6281 26268.1
 03 09 2013  08 49  -20.9759 26035.6 -03487.0 -07.6283 26268.1
 03 09 2013  08 50  -20.9754 26035.4 -03487.0 -07.6283 26267.9
 03 09 2013  08 51  -20.9751 26035.1 -03486.9 -07.6283 26267.6
 03 09 2013  08 52  -20.9750 26034.6 -03486.8 -07.6281 26267.1
 03 09 2013  08 53  -20.9749 26034.1 -03486.6 -07.6279 26266.5
 03 09 2013  08 54  -20.9747 26033.9 -03486.5 -07.6278 26266.4
 03 09 2013  08 55  -20.9729 26034.1 -03486.7 -07.6281 26266.6
 03 09 2013  08 56  -20.9714 26034.2 -03486.9 -07.6285 26266.7
 03 09 2013  08 57  -20.9703 26034.0 -03487.0 -07.6288 26266.5
 03 09 2013  08 58  -20.9700 26033.6 -03487.0 -07.6289 26266.1
 03 09 2013  08 59  -20.9703 26033.2 -03487.0 -07.6291 26265.7
 03 09 2013  09 00  -20.9707 26032.9 -03487.1 -07.6294 26265.4
 03 09 2013  09 01  -20.9709 26032.8 -03487.3 -07.6297 26265.4
 03 09 2013  09 02  -20.9713 26032.8 -03487.4 -07.6300 26265.3
 03 09 2013  09 03  -20.9719 26032.7 -03487.5 -07.6303 26265.3
 03 09 2013  09 04  -20.9727 26032.8 -03487.8 -07.6308 26265.4
 03 09 2013  09 05  -20.9720 26032.1 -03487.6 -07.6307 26264.7
 03 09 2013  09 06  -20.9707 26031.3 -03487.3 -07.6302 26263.9
 03 09 2013  09 07  -20.9697 26030.7 -03487.1 -07.6300 26263.2
 03 09 2013  09 08  -20.9690 26029.8 -03486.9 -07.6298 26262.3
 03 09 2013  09 09  -20.9690 26029.0 -03486.8 -07.6298 26261.5
 03 09 2013  09 10  -20.9692 26028.4 -03486.8 -07.6301 26260.9
 03 09 2013  09 11  -20.9688 26028.0 -03487.0 -07.6304 26260.5
 03 09 2013  09 12  -20.9680 26027.9 -03487.2 -07.6309 26260.4
 03 09 2013  09 13  -20.9675 26027.8 -03487.4 -07.6315 26260.4
 03 09 2013  09 14  -20.9670 26027.5 -03487.7 -07.6321 26260.1
 03 09 2013  09 15  -20.9668 26027.2 -03487.8 -07.6326 26259.8
 03 09 2013  09 16  -20.9665 26027.0 -03487.9 -07.6329 26259.6
 03 09 2013  09 17  -20.9658 26026.8 -03488.4 -07.6338 26259.5
 03 09 2013  09 18  -20.9653 26026.7 -03488.6 -07.6344 26259.5
 03 09 2013  09 19  -20.9648 26026.5 -03488.9 -07.6350 26259.4
 03 09 2013  09 20  -20.9645 26026.4 -03489.1 -07.6356 26259.2
 03 09 2013  09 21  -20.9647 26026.3 -03489.4 -07.6362 26259.1
 03 09 2013  09 22  -20.9651 26026.3 -03489.8 -07.6370 26259.2
 03 09 2013  09 23  -20.9649 26026.1 -03490.0 -07.6375 26259.0
 03 09 2013  09 24  -20.9645 26025.9 -03490.0 -07.6376 26258.9
 03 09 2013  09 25  -20.9644 26025.7 -03490.3 -07.6383 26258.7
 03 09 2013  09 26  -20.9640 26025.7 -03490.5 -07.6388 26258.7
 03 09 2013  09 27  -20.9635 26025.7 -03490.7 -07.6393 26258.7
 03 09 2013  09 28  -20.9638 26025.9 -03491.2 -07.6401 26259.0
 03 09 2013  09 29  -20.9642 26026.0 -03491.5 -07.6408 26259.1
 03 09 2013  09 30  -20.9643 26025.7 -03491.6 -07.6411 26258.9
 03 09 2013  09 31  -20.9647 26025.4 -03491.6 -07.6413 26258.6
 03 09 2013  09 32  -20.9652 26025.3 -03491.8 -07.6417 26258.5
 03 09 2013  09 33  -20.9652 26025.1 -03492.0 -07.6421 26258.3
 03 09 2013  09 34  -20.9651 26025.0 -03492.1 -07.6424 26258.3
 03 09 2013  09 35  -20.9653 26024.9 -03492.2 -07.6428 26258.1
 03 09 2013  09 36  -20.9658 26024.8 -03492.4 -07.6431 26258.1
 03 09 2013  09 37  -20.9661 26024.5 -03492.5 -07.6434 26257.8
 03 09 2013  09 38  -20.9663 26024.4 -03492.6 -07.6437 26257.7
 03 09 2013  09 39  -20.9666 26024.4 -03492.8 -07.6442 26257.8
 03 09 2013  09 40  -20.9672 26024.5 -03493.1 -07.6447 26257.9
 03 09 2013  09 41  -20.9676 26024.7 -03493.3 -07.6452 26258.1
 03 09 2013  09 42  -20.9682 26024.8 -03493.6 -07.6456 26258.3
 03 09 2013  09 43  -20.9685 26024.8 -03493.7 -07.6459 26258.2
 03 09 2013  09 44  -20.9684 26024.7 -03493.7 -07.6460 26258.1
 03 09 2013  09 45  -20.9688 26024.5 -03493.8 -07.6462 26258.0
 03 09 2013  09 46  -20.9696 26024.4 -03493.9 -07.6465 26257.9
 03 09 2013  09 47  -20.9697 26024.3 -03494.0 -07.6467 26257.8
 03 09 2013  09 48  -20.9701 26024.0 -03494.0 -07.6468 26257.5
 03 09 2013  09 49  -20.9708 26024.0 -03494.2 -07.6473 26257.5
 03 09 2013  09 50  -20.9709 26023.9 -03494.3 -07.6476 26257.5
 03 09 2013  09 51  -20.9707 26023.8 -03494.4 -07.6478 26257.4
 03 09 2013  09 52  -20.9708 26023.8 -03494.6 -07.6481 26257.4
 03 09 2013  09 53  -20.9710 26023.8 -03494.7 -07.6485 26257.4
 03 09 2013  09 54  -20.9711 26023.9 -03494.9 -07.6489 26257.5
 03 09 2013  09 55  -20.9708 26023.8 -03495.0 -07.6491 26257.5
 03 09 2013  09 56  -20.9708 26023.8 -03495.2 -07.6495 26257.5
 03 09 2013  09 57  -20.9712 26024.0 -03495.4 -07.6499 26257.7
 03 09 2013  09 58  -20.9713 26024.0 -03495.6 -07.6502 26257.7
 03 09 2013  09 59  -20.9715 26024.0 -03495.7 -07.6505 26257.8
 03 09 2013  10 00  -20.9717 26024.2 -03495.9 -07.6509 26257.9
 03 09 2013  10 01  -20.9724 26024.3 -03496.1 -07.6513 26258.1
 03 09 2013  10 02  -20.9727 26024.5 -03496.3 -07.6516 26258.3
 03 09 2013  10 03  -20.9725 26024.7 -03496.5 -07.6519 26258.5
 03 09 2013  10 04  -20.9718 26024.7 -03496.5 -07.6520 26258.6
 03 09 2013  10 05  -20.9719 26025.0 -03496.7 -07.6523 26258.9
 03 09 2013  10 06  -20.9721 26025.3 -03496.9 -07.6527 26259.2
 03 09 2013  10 07  -20.9719 26025.3 -03497.0 -07.6529 26259.2
 03 09 2013  10 08  -20.9717 26025.3 -03497.0 -07.6530 26259.2
 03 09 2013  10 09  -20.9717 26025.5 -03497.2 -07.6532 26259.4
 03 09 2013  10 10  -20.9719 26025.6 -03497.2 -07.6533 26259.5
 03 09 2013  10 11  -20.9719 26025.6 -03497.3 -07.6535 26259.5
 03 09 2013  10 12  -20.9720 26025.7 -03497.4 -07.6537 26259.7
 03 09 2013  10 13  -20.9723 26025.9 -03497.5 -07.6539 26259.8
 03 09 2013  10 14  -20.9728 26026.0 -03497.7 -07.6542 26260.0
 03 09 2013  10 15  -20.9732 26026.1 -03497.8 -07.6544 26260.0
 03 09 2013  10 16  -20.9733 26026.0 -03497.8 -07.6544 26260.0
 03 09 2013  10 17  -20.9738 26025.9 -03497.8 -07.6546 26259.9
 03 09 2013  10 18  -20.9749 26026.1 -03498.1 -07.6550 26260.1
 03 09 2013  10 19  -20.9759 26026.5 -03498.4 -07.6556 26260.6
 03 09 2013  10 20  -20.9763 26026.9 -03498.6 -07.6559 26260.9
 03 09 2013  10 21  -20.9769 26027.2 -03498.7 -07.6561 26261.3
 03 09 2013  10 22  -20.9774 26027.6 -03498.9 -07.6564 26261.7
 03 09 2013  10 23  -20.9770 26027.8 -03498.9 -07.6564 26261.9
 03 09 2013  10 24  -20.9770 26027.9 -03498.9 -07.6562 26262.0
 03 09 2013  10 25  -20.9774 26027.9 -03498.8 -07.6561 26262.0
 03 09 2013  10 26  -20.9777 26027.9 -03498.8 -07.6560 26262.0
 03 09 2013  10 27  -20.9780 26028.1 -03498.7 -07.6559 26262.2
 03 09 2013  10 28  -20.9776 26028.2 -03498.7 -07.6557 26262.3
 03 09 2013  10 29  -20.9777 26028.4 -03498.6 -07.6556 26262.5
 03 09 2013  10 30  -20.9783 26028.7 -03498.8 -07.6558 26262.8
 03 09 2013  10 31  -20.9793 26029.0 -03498.9 -07.6560 26263.1
 03 09 2013  10 32  -20.9803 26029.1 -03499.0 -07.6561 26263.2
 03 09 2013  10 33  -20.9812 26029.0 -03498.9 -07.6561 26263.2
 03 09 2013  10 34  -20.9817 26029.0 -03499.0 -07.6561 26263.1
 03 09 2013  10 35  -20.9817 26029.3 -03499.1 -07.6563 26263.4
 03 09 2013  10 36  -20.9817 26029.4 -03499.1 -07.6563 26263.5
 03 09 2013  10 37  -20.9815 26029.6 -03499.2 -07.6564 26263.8
 03 09 2013  10 38  -20.9815 26030.1 -03499.3 -07.6565 26264.3
 03 09 2013  10 39  -20.9824 26030.6 -03499.3 -07.6565 26264.8
 03 09 2013  10 40  -20.9833 26031.3 -03499.4 -07.6565 26265.5
 03 09 2013  10 41  -20.9830 26031.6 -03499.3 -07.6560 26265.7
 03 09 2013  10 42  -20.9834 26031.5 -03499.0 -07.6555 26265.6
 03 09 2013  10 43  -20.9845 26032.0 -03499.1 -07.6555 26266.1
 03 09 2013  10 44  -20.9858 26032.3 -03499.1 -07.6555 26266.5
 03 09 2013  10 45  -20.9864 26032.7 -03499.1 -07.6553 26266.8
 03 09 2013  10 46  -20.9873 26033.0 -03499.1 -07.6552 26267.1
 03 09 2013  10 47  -20.9886 26033.3 -03499.2 -07.6554 26267.4
 03 09 2013  10 48  -20.9903 26033.7 -03499.5 -07.6558 26267.9
 03 09 2013  10 49  -20.9913 26034.3 -03499.7 -07.6562 26268.5
 03 09 2013  10 50  -20.9915 26034.8 -03499.8 -07.6561 26268.9
 03 09 2013  10 51  -20.9914 26034.7 -03499.6 -07.6558 26268.9
 03 09 2013  10 52  -20.9916 26034.5 -03499.4 -07.6555 26268.7
 03 09 2013  10 53  -20.9920 26034.6 -03499.4 -07.6555 26268.7
 03 09 2013  10 54  -20.9928 26034.8 -03499.5 -07.6556 26269.0
 03 09 2013  10 55  -20.9937 26035.2 -03499.5 -07.6556 26269.3
 03 09 2013  10 56  -20.9941 26035.3 -03499.5 -07.6555 26269.4
 03 09 2013  10 57  -20.9952 26035.2 -03499.4 -07.6553 26269.3
 03 09 2013  10 58  -20.9959 26035.5 -03499.5 -07.6553 26269.6
 03 09 2013  10 59  -20.9968 26035.8 -03499.6 -07.6555 26270.0
 03 09 2013  11 00  -20.9977 26036.2 -03499.7 -07.6556 26270.3
 03 09 2013  11 01  -20.9984 26036.3 -03499.7 -07.6555 26270.5
 03 09 2013  11 02  -20.9994 26036.6 -03499.7 -07.6555 26270.8
 03 09 2013  11 03  -21.0004 26036.6 -03499.6 -07.6552 26270.8
 03 09 2013  11 04  -21.0007 26036.2 -03499.2 -07.6545 26270.3
 03 09 2013  11 05  -21.0017 26035.7 -03498.9 -07.6539 26269.8
 03 09 2013  11 06  -21.0026 26034.9 -03498.4 -07.6533 26268.9
 03 09 2013  11 07  -21.0038 26033.7 -03498.0 -07.6526 26267.7
 03 09 2013  11 08  -21.0051 26032.5 -03497.6 -07.6522 26266.4
 03 09 2013  11 09  -21.0056 26031.9 -03497.6 -07.6524 26265.8
 03 09 2013  11 10  -21.0068 26031.7 -03498.0 -07.6532 26265.6
 03 09 2013  11 11  -21.0082 26032.3 -03498.5 -07.6542 26266.4
 03 09 2013  11 12  -21.0092 26032.6 -03498.9 -07.6549 26266.7
 03 09 2013  11 13  -21.0097 26033.5 -03499.4 -07.6557 26267.7
 03 09 2013  11 14  -21.0096 26034.3 -03499.7 -07.6561 26268.5
 03 09 2013  11 15  -21.0089 26035.0 -03499.8 -07.6562 26269.2
 03 09 2013  11 16  -21.0085 26035.8 -03500.0 -07.6564 26270.0
 03 09 2013  11 17  -21.0086 26036.5 -03500.2 -07.6565 26270.7
 03 09 2013  11 18  -21.0091 26037.2 -03500.2 -07.6565 26271.4
 03 09 2013  11 19  -21.0102 26037.5 -03500.2 -07.6562 26271.7
 03 09 2013  11 20  -21.0119 26037.7 -03500.1 -07.6561 26271.9
 03 09 2013  11 21  -21.0128 26038.1 -03500.1 -07.6560 26272.3
 03 09 2013  11 22  -21.0126 26038.6 -03500.3 -07.6562 26272.8
 03 09 2013  11 23  -21.0128 26039.4 -03500.5 -07.6565 26273.6
 03 09 2013  11 24  -21.0135 26039.6 -03500.5 -07.6564 26273.9
 03 09 2013  11 25  -21.0141 26040.0 -03500.4 -07.6561 26274.2
 03 09 2013  11 26  -21.0144 26040.4 -03500.3 -07.6558 26274.6
 03 09 2013  11 27  -21.0149 26040.9 -03500.4 -07.6557 26275.1
 03 09 2013  11 28  -21.0157 26041.4 -03500.4 -07.6556 26275.6
 03 09 2013  11 29  -21.0164 26041.8 -03500.3 -07.6552 26276.0
 03 09 2013  11 30  -21.0170 26042.1 -03500.1 -07.6547 26276.2
 03 09 2013  11 31  -21.0178 26042.0 -03499.7 -07.6539 26276.1
 03 09 2013  11 32  -21.0184 26042.2 -03499.6 -07.6536 26276.3
 03 09 2013  11 33  -21.0193 26042.7 -03499.5 -07.6533 26276.7
 03 09 2013  11 34  -21.0202 26043.0 -03499.4 -07.6530 26277.1
 03 09 2013  11 35  -21.0210 26043.0 -03499.1 -07.6524 26277.0
 03 09 2013  11 36  -21.0220 26043.2 -03499.0 -07.6520 26277.2
 03 09 2013  11 37  -21.0233 26043.0 -03498.7 -07.6515 26277.0
 03 09 2013  11 38  -21.0245 26043.3 -03498.8 -07.6515 26277.3
 03 09 2013  11 39  -21.0250 26043.6 -03498.8 -07.6515 26277.6
 03 09 2013  11 40  -21.0256 26044.1 -03498.9 -07.6515 26278.0
 03 09 2013  11 41  -21.0260 26044.6 -03499.0 -07.6516 26278.6
 03 09 2013  11 42  -21.0260 26045.4 -03499.1 -07.6517 26279.4
 03 09 2013  11 43  -21.0262 26046.2 -03499.3 -07.6517 26280.2
 03 09 2013  11 44  -21.0266 26046.8 -03499.1 -07.6513 26280.7
 03 09 2013  11 45  -21.0271 26047.1 -03499.0 -07.6509 26281.1
 03 09 2013  11 46  -21.0273 26047.5 -03498.7 -07.6502 26281.4
 03 09 2013  11 47  -21.0274 26047.7 -03498.5 -07.6497 26281.6
 03 09 2013  11 48  -21.0278 26047.8 -03498.3 -07.6492 26281.7
 03 09 2013  11 49  -21.0285 26047.9 -03498.1 -07.6488 26281.7
 03 09 2013  11 50  -21.0298 26048.0 -03497.9 -07.6482 26281.8
 03 09 2013  11 51  -21.0312 26048.3 -03497.7 -07.6478 26282.1
 03 09 2013  11 52  -21.0326 26048.5 -03497.5 -07.6472 26282.2
 03 09 2013  11 53  -21.0339 26048.8 -03497.3 -07.6467 26282.6
 03 09 2013  11 54  -21.0352 26049.4 -03497.2 -07.6465 26283.1
 03 09 2013  11 55  -21.0366 26049.2 -03496.9 -07.6457 26282.9
 03 09 2013  11 56  -21.0373 26049.7 -03496.8 -07.6455 26283.3
 03 09 2013  11 57  -21.0388 26050.5 -03496.8 -07.6451 26284.1
 03 09 2013  11 58  -21.0393 26050.0 -03496.1 -07.6438 26283.6
 03 09 2013  11 59  -21.0396 26049.5 -03495.6 -07.6428 26283.0
 03 09 2013  12 00  -21.0404 26049.2 -03495.3 -07.6423 26282.7
 03 09 2013  12 01  -21.0413 26049.1 -03495.2 -07.6420 26282.6
 03 09 2013  12 02  -21.0421 26049.4 -03495.2 -07.6421 26282.8
 03 09 2013  12 03  -21.0427 26049.7 -03495.3 -07.6421 26283.1
 03 09 2013  12 04  -21.0432 26050.0 -03495.2 -07.6420 26283.4
 03 09 2013  12 05  -21.0435 26050.4 -03495.3 -07.6419 26283.9
 03 09 2013  12 06  -21.0437 26050.7 -03495.2 -07.6417 26284.1
 03 09 2013  12 07  -21.0444 26050.8 -03495.0 -07.6413 26284.2
 03 09 2013  12 08  -21.0451 26050.9 -03494.9 -07.6410 26284.3
 03 09 2013  12 09  -21.0463 26050.9 -03494.9 -07.6409 26284.3
 03 09 2013  12 10  -21.0474 26051.3 -03494.9 -07.6408 26284.7
 03 09 2013  12 11  -21.0484 26052.0 -03495.0 -07.6409 26285.4
 03 09 2013  12 12  -21.0493 26052.6 -03495.0 -07.6407 26286.0
 03 09 2013  12 13  -21.0506 26053.1 -03494.8 -07.6402 26286.5
 03 09 2013  12 14  -21.0520 26053.1 -03494.5 -07.6394 26286.4
 03 09 2013  12 15  -21.0528 26053.8 -03494.5 -07.6392 26287.1
 03 09 2013  12 16  -21.0531 26054.0 -03494.3 -07.6388 26287.3
 03 09 2013  12 17  -21.0537 26054.1 -03494.0 -07.6382 26287.3
 03 09 2013  12 18  -21.0551 26053.8 -03493.7 -07.6375 26287.0
 03 09 2013  12 19  -21.0565 26053.3 -03493.2 -07.6367 26286.5
 03 09 2013  12 20  -21.0576 26053.2 -03493.0 -07.6362 26286.4
 03 09 2013  12 21  -21.0587 26053.2 -03492.9 -07.6359 26286.3
 03 09 2013  12 22  -21.0596 26052.6 -03492.5 -07.6352 26285.6
 03 09 2013  12 23  -21.0606 26052.4 -03492.3 -07.6349 26285.4
 03 09 2013  12 24  -21.0618 26052.2 -03492.2 -07.6348 26285.2
 03 09 2013  12 25  -21.0630 26052.4 -03492.3 -07.6349 26285.4
 03 09 2013  12 26  -21.0641 26053.0 -03492.5 -07.6351 26286.1
 03 09 2013  12 27  -21.0655 26053.9 -03492.6 -07.6352 26286.9
 03 09 2013  12 28  -21.0666 26054.6 -03492.6 -07.6349 26287.7
 03 09 2013  12 29  -21.0674 26055.2 -03492.4 -07.6344 26288.2
 03 09 2013  12 30  -21.0684 26055.8 -03492.3 -07.6339 26288.8
 03 09 2013  12 31  -21.0693 26056.0 -03492.0 -07.6332 26289.0
 03 09 2013  12 32  -21.0703 26056.5 -03491.8 -07.6327 26289.5
 03 09 2013  12 33  -21.0716 26057.3 -03491.7 -07.6323 26290.2
 03 09 2013  12 34  -21.0727 26058.3 -03491.7 -07.6320 26291.2
 03 09 2013  12 35  -21.0727 26059.4 -03491.7 -07.6316 26292.3
 03 09 2013  12 36  -21.0729 26061.5 -03492.2 -07.6321 26294.5
 03 09 2013  12 37  -21.0746 26063.9 -03492.5 -07.6320 26296.9
 03 09 2013  12 38  -21.0750 26065.0 -03491.9 -07.6305 26297.8
 03 09 2013  12 39  -21.0752 26066.1 -03491.4 -07.6291 26298.9
 03 09 2013  12 40  -21.0754 26066.7 -03490.9 -07.6277 26299.4
 03 09 2013  12 41  -21.0759 26066.8 -03490.2 -07.6262 26299.4
 03 09 2013  12 42  -21.0767 26066.5 -03489.5 -07.6248 26299.1
 03 09 2013  12 43  -21.0774 26066.3 -03488.9 -07.6236 26298.8
 03 09 2013  12 44  -21.0788 26066.6 -03488.6 -07.6229 26299.1
 03 09 2013  12 45  -21.0800 26066.7 -03488.3 -07.6221 26299.1
 03 09 2013  12 46  -21.0812 26066.2 -03487.7 -07.6210 26298.5
 03 09 2013  12 47  -21.0824 26065.1 -03487.0 -07.6197 26297.4
 03 09 2013  12 48  -21.0831 26064.0 -03486.4 -07.6187 26296.2
 03 09 2013  12 49  -21.0840 26063.2 -03486.0 -07.6182 26295.3
 03 09 2013  12 50  -21.0852 26062.3 -03485.7 -07.6178 26294.4
 03 09 2013  12 51  -21.0865 26062.1 -03485.6 -07.6177 26294.1
 03 09 2013  12 52  -21.0877 26062.6 -03485.9 -07.6181 26294.7
 03 09 2013  12 53  -21.0889 26063.0 -03486.0 -07.6182 26295.1
 03 09 2013  12 54  -21.0901 26063.3 -03485.9 -07.6179 26295.4
 03 09 2013  12 55  -21.0913 26063.1 -03485.5 -07.6172 26295.2
 03 09 2013  12 56  -21.0926 26063.2 -03485.4 -07.6168 26295.2
 03 09 2013  12 57  -21.0936 26063.6 -03485.3 -07.6165 26295.6
 03 09 2013  12 58  -21.0945 26064.9 -03485.5 -07.6166 26296.9
 03 09 2013  12 59  -21.0960 26066.2 -03485.6 -07.6164 26298.2
 03 09 2013  13 00  -21.0967 26067.1 -03485.3 -07.6156 26299.1
 03 09 2013  13 01  -21.0980 26068.5 -03485.2 -07.6150 26300.4
 03 09 2013  13 02  -21.0988 26069.6 -03484.9 -07.6141 26301.5
 03 09 2013  13 03  -21.0991 26069.9 -03484.3 -07.6127 26301.7
 03 09 2013  13 04  -21.0990 26071.0 -03484.1 -07.6119 26302.8
 03 09 2013  13 05  -21.0992 26071.5 -03483.6 -07.6107 26303.2
 03 09 2013  13 06  -21.0998 26071.5 -03483.1 -07.6096 26303.1
 03 09 2013  13 07  -21.1001 26071.8 -03482.8 -07.6088 26303.4
 03 09 2013  13 08  -21.1004 26071.5 -03482.3 -07.6078 26303.0
 03 09 2013  13 09  -21.1002 26071.4 -03482.0 -07.6072 26302.9
 03 09 2013  13 10  -21.1002 26071.3 -03481.8 -07.6068 26302.8
 03 09 2013  13 11  -21.1008 26071.2 -03481.6 -07.6065 26302.7
 03 09 2013  13 12  -21.1011 26071.1 -03481.5 -07.6061 26302.5
 03 09 2013  13 13  -21.1007 26071.2 -03481.4 -07.6060 26302.6
 03 09 2013  13 14  -21.1012 26072.9 -03482.1 -07.6069 26304.4
 03 09 2013  13 15  -21.1022 26072.7 -03481.7 -07.6061 26304.2
 03 09 2013  13 16  -21.1027 26072.3 -03481.3 -07.6054 26303.7
 03 09 2013  13 17  -21.1031 26072.4 -03481.3 -07.6054 26303.8
 03 09 2013  13 18  -21.1030 26072.8 -03481.3 -07.6053 26304.1
 03 09 2013  13 19  -21.1033 26073.2 -03481.4 -07.6054 26304.6
 03 09 2013  13 20  -21.1035 26074.0 -03481.5 -07.6054 26305.4
 03 09 2013  13 21  -21.1037 26074.1 -03481.3 -07.6049 26305.5
 03 09 2013  13 22  -21.1035 26073.6 -03481.0 -07.6043 26304.9
 03 09 2013  13 23  -21.1033 26073.0 -03480.7 -07.6038 26304.3
 03 09 2013  13 24  -21.1031 26072.5 -03480.5 -07.6036 26303.8
 03 09 2013  13 25  -21.1035 26072.2 -03480.5 -07.6037 26303.5
 03 09 2013  13 26  -21.1040 26072.2 -03480.6 -07.6039 26303.5
 03 09 2013  13 27  -21.1046 26072.1 -03480.5 -07.6038 26303.4
 03 09 2013  13 28  -21.1055 26071.9 -03480.5 -07.6039 26303.2
 03 09 2013  13 29  -21.1066 26072.2 -03480.7 -07.6041 26303.5
 03 09 2013  13 30  -21.1069 26072.8 -03480.9 -07.6044 26304.2
 03 09 2013  13 31  -21.1075 26073.4 -03481.0 -07.6045 26304.8
 03 09 2013  13 32  -21.1082 26072.8 -03480.7 -07.6040 26304.1
 03 09 2013  13 33  -21.1087 26072.4 -03480.5 -07.6037 26303.7
 03 09 2013  13 34  -21.1090 26071.9 -03480.4 -07.6035 26303.2
 03 09 2013  13 35  -21.1095 26072.1 -03480.4 -07.6036 26303.4
 03 09 2013  13 36  -21.1102 26071.4 -03480.0 -07.6030 26302.6
 03 09 2013  13 37  -21.1100 26069.8 -03479.5 -07.6022 26301.0
 03 09 2013  13 38  -21.1100 26069.5 -03479.6 -07.6026 26300.7
 03 09 2013  13 39  -21.1102 26068.5 -03479.4 -07.6023 26299.7
 03 09 2013  13 40  -21.1101 26067.3 -03479.2 -07.6022 26298.4
 03 09 2013  13 41  -21.1101 26067.0 -03479.4 -07.6029 26298.2
 03 09 2013  13 42  -21.1102 26066.9 -03479.8 -07.6036 26298.2
 03 09 2013  13 43  -21.1100 26066.8 -03480.0 -07.6041 26298.0
 03 09 2013  13 44  -21.1101 26067.1 -03480.4 -07.6050 26298.4
 03 09 2013  13 45  -21.1103 26067.6 -03480.8 -07.6057 26299.0
 03 09 2013  13 46  -21.1108 26068.0 -03481.0 -07.6060 26299.4
 03 09 2013  13 47  -21.1116 26068.6 -03481.3 -07.6065 26300.0
 03 09 2013  13 48  -21.1118 26069.2 -03481.4 -07.6066 26300.6
 03 09 2013  13 49  -21.1120 26069.7 -03481.5 -07.6066 26301.2
 03 09 2013  13 50  -21.1125 26070.3 -03481.6 -07.6066 26301.7
 03 09 2013  13 51  -21.1135 26071.2 -03481.8 -07.6067 26302.7
 03 09 2013  13 52  -21.1142 26072.2 -03481.8 -07.6066 26303.6
 03 09 2013  13 53  -21.1145 26072.4 -03481.5 -07.6059 26303.8
 03 09 2013  13 54  -21.1146 26072.4 -03481.2 -07.6052 26303.8
 03 09 2013  13 55  -21.1149 26073.3 -03481.4 -07.6053 26304.7
 03 09 2013  13 56  -21.1155 26074.2 -03481.4 -07.6051 26305.6
 03 09 2013  13 57  -21.1160 26074.2 -03481.1 -07.6043 26305.6
 03 09 2013  13 58  -21.1164 26074.3 -03480.8 -07.6037 26305.6
 03 09 2013  13 59  -21.1164 26074.2 -03480.5 -07.6031 26305.4
 03 09 2013  14 00  -21.1165 26073.9 -03480.2 -07.6026 26305.2
 03 09 2013  14 01  -21.1169 26073.7 -03480.1 -07.6024 26304.9
 03 09 2013  14 02  -21.1169 26073.3 -03479.9 -07.6022 26304.5
 03 09 2013  14 03  -21.1168 26073.2 -03479.9 -07.6021 26304.3
 03 09 2013  14 04  -21.1170 26073.2 -03479.9 -07.6020 26304.4
 03 09 2013  14 05  -21.1171 26072.8 -03479.6 -07.6017 26304.0
 03 09 2013  14 06  -21.1173 26072.6 -03479.5 -07.6015 26303.8
 03 09 2013  14 07  -21.1173 26072.3 -03479.4 -07.6014 26303.4
 03 09 2013  14 08  -21.1172 26071.6 -03479.2 -07.6011 26302.7
 03 09 2013  14 09  -21.1174 26071.4 -03479.3 -07.6014 26302.5
 03 09 2013  14 10  -21.1174 26071.5 -03479.4 -07.6016 26302.7
 03 09 2013  14 11  -21.1172 26071.7 -03479.5 -07.6018 26302.8
 03 09 2013  14 12  -21.1169 26071.4 -03479.5 -07.6017 26302.6
 03 09 2013  14 13  -21.1167 26071.2 -03479.5 -07.6017 26302.4
 03 09 2013  14 14  -21.1166 26071.5 -03479.6 -07.6020 26302.7
 03 09 2013  14 15  -21.1168 26071.5 -03479.7 -07.6021 26302.7
 03 09 2013  14 16  -21.1166 26071.3 -03479.6 -07.6020 26302.4
 03 09 2013  14 17  -21.1158 26071.1 -03479.7 -07.6023 26302.3
 03 09 2013  14 18  -21.1163 26072.0 -03480.2 -07.6031 26303.2
 03 09 2013  14 19  -21.1178 26072.9 -03480.5 -07.6034 26304.2
 03 09 2013  14 20  -21.1188 26072.7 -03480.1 -07.6028 26304.0
 03 09 2013  14 21  -21.1184 26071.9 -03479.6 -07.6019 26303.0
 03 09 2013  14 22  -21.1179 26071.1 -03479.3 -07.6014 26302.2
 03 09 2013  14 23  -21.1173 26069.7 -03478.7 -07.6006 26300.8
 03 09 2013  14 24  -21.1166 26068.8 -03478.5 -07.6003 26299.8
 03 09 2013  14 25  -21.1163 26068.1 -03478.4 -07.6004 26299.1
 03 09 2013  14 26  -21.1161 26067.5 -03478.5 -07.6007 26298.6
 03 09 2013  14 27  -21.1161 26067.4 -03478.6 -07.6011 26298.5
 03 09 2013  14 28  -21.1160 26067.2 -03478.7 -07.6013 26298.3
 03 09 2013  14 29  -21.1159 26066.9 -03478.8 -07.6015 26298.0
 03 09 2013  14 30  -21.1157 26066.7 -03478.8 -07.6016 26297.9
 03 09 2013  14 31  -21.1154 26066.7 -03478.9 -07.6018 26297.8
 03 09 2013  14 32  -21.1155 26066.5 -03478.9 -07.6019 26297.6
 03 09 2013  14 33  -21.1152 26066.3 -03478.8 -07.6018 26297.4
 03 09 2013  14 34  -21.1149 26066.1 -03478.8 -07.6017 26297.2
 03 09 2013  14 35  -21.1144 26065.8 -03478.6 -07.6015 26296.9
 03 09 2013  14 36  -21.1139 26065.3 -03478.4 -07.6012 26296.4
 03 09 2013  14 37  -21.1134 26065.3 -03478.4 -07.6012 26296.3
 03 09 2013  14 38  -21.1129 26065.5 -03478.5 -07.6013 26296.5
 03 09 2013  14 39  -21.1122 26065.6 -03478.6 -07.6014 26296.7
 03 09 2013  14 40  -21.1121 26066.7 -03479.0 -07.6020 26297.9
 03 09 2013  14 41  -21.1128 26066.4 -03478.5 -07.6011 26297.5
 03 09 2013  14 42  -21.1127 26065.8 -03478.0 -07.6001 26296.8
 03 09 2013  14 43  -21.1118 26065.5 -03477.7 -07.5996 26296.5
 03 09 2013  14 44  -21.1108 26065.1 -03477.4 -07.5990 26296.0
 03 09 2013  14 45  -21.1102 26064.8 -03477.2 -07.5988 26295.8
 03 09 2013  14 46  -21.1094 26064.9 -03477.1 -07.5986 26295.8
 03 09 2013  14 47  -21.1085 26065.4 -03477.3 -07.5987 26296.4
 03 09 2013  14 48  -21.1081 26066.1 -03477.4 -07.5987 26297.0
 03 09 2013  14 49  -21.1080 26067.2 -03477.6 -07.5989 26298.1
 03 09 2013  14 50  -21.1077 26067.9 -03477.6 -07.5987 26298.9
 03 09 2013  14 51  -21.1066 26068.2 -03477.4 -07.5981 26299.1
 03 09 2013  14 52  -21.1053 26068.6 -03477.3 -07.5978 26299.5
 03 09 2013  14 53  -21.1044 26069.0 -03477.2 -07.5975 26299.8
 03 09 2013  14 54  -21.1037 26069.1 -03477.0 -07.5970 26299.9
 03 09 2013  14 55  -21.1026 26069.1 -03476.7 -07.5965 26299.9
 03 09 2013  14 56  -21.1013 26069.1 -03476.6 -07.5962 26299.9
 03 09 2013  14 57  -21.0999 26069.2 -03476.5 -07.5959 26299.9
 03 09 2013  14 58  -21.0981 26068.8 -03476.2 -07.5954 26299.5
 03 09 2013  14 59  -21.0966 26068.5 -03476.1 -07.5952 26299.2
 03 09 2013  15 00  -21.0952 26068.5 -03476.1 -07.5953 26299.3
 03 09 2013  15 01  -21.0943 26068.4 -03476.1 -07.5953 26299.2
 03 09 2013  15 02  -21.0929 26068.0 -03475.9 -07.5951 26298.7
 03 09 2013  15 03  -21.0919 26067.9 -03476.0 -07.5952 26298.6
 03 09 2013  15 04  -21.0914 26068.1 -03476.2 -07.5956 26298.9
 03 09 2013  15 05  -21.0909 26068.4 -03476.4 -07.5959 26299.2
 03 09 2013  15 06  -21.0903 26068.6 -03476.4 -07.5960 26299.4
 03 09 2013  15 07  -21.0893 26068.6 -03476.4 -07.5960 26299.4
 03 09 2013  15 08  -21.0877 26068.6 -03476.4 -07.5959 26299.3
 03 09 2013  15 09  -21.0865 26068.5 -03476.3 -07.5958 26299.2
 03 09 2013  15 10  -21.0854 26068.4 -03476.4 -07.5960 26299.2
 03 09 2013  15 11  -21.0837 26068.4 -03476.5 -07.5961 26299.2
 03 09 2013  15 12  -21.0825 26068.9 -03476.8 -07.5967 26299.7
 03 09 2013  15 13  -21.0813 26068.9 -03476.8 -07.5967 26299.7
 03 09 2013  15 14  -21.0798 26068.9 -03476.8 -07.5967 26299.7
 03 09 2013  15 15  -21.0787 26069.2 -03477.0 -07.5969 26300.0
 03 09 2013  15 16  -21.0777 26069.0 -03476.9 -07.5968 26299.9
 03 09 2013  15 17  -21.0758 26068.4 -03476.6 -07.5964 26299.2
 03 09 2013  15 18  -21.0742 26068.1 -03476.6 -07.5964 26298.9
 03 09 2013  15 19  -21.0726 26067.6 -03476.5 -07.5964 26298.4
 03 09 2013  15 20  -21.0713 26067.4 -03476.7 -07.5968 26298.3
 03 09 2013  15 21  -21.0698 26067.1 -03476.7 -07.5970 26298.0
 03 09 2013  15 22  -21.0680 26067.3 -03477.0 -07.5976 26298.1
 03 09 2013  15 23  -21.0668 26067.5 -03477.3 -07.5982 26298.4
 03 09 2013  15 24  -21.0658 26067.7 -03477.6 -07.5988 26298.7
 03 09 2013  15 25  -21.0647 26067.7 -03477.8 -07.5991 26298.7
 03 09 2013  15 26  -21.0636 26067.8 -03478.0 -07.5995 26298.8
 03 09 2013  15 27  -21.0623 26068.1 -03478.2 -07.5999 26299.1
 03 09 2013  15 28  -21.0611 26068.3 -03478.4 -07.6003 26299.3
 03 09 2013  15 29  -21.0599 26068.5 -03478.6 -07.6007 26299.5
 03 09 2013  15 30  -21.0587 26068.6 -03478.8 -07.6011 26299.7
 03 09 2013  15 31  -21.0577 26068.8 -03479.0 -07.6014 26299.9
 03 09 2013  15 32  -21.0566 26068.9 -03479.2 -07.6018 26300.0
 03 09 2013  15 33  -21.0552 26068.7 -03479.2 -07.6019 26299.8
 03 09 2013  15 34  -21.0539 26068.7 -03479.4 -07.6023 26299.8
 03 09 2013  15 35  -21.0526 26068.6 -03479.5 -07.6026 26299.8
 03 09 2013  15 36  -21.0516 26068.7 -03479.8 -07.6032 26299.9
 03 09 2013  15 37  -21.0503 26068.4 -03479.8 -07.6034 26299.7
 03 09 2013  15 38  -21.0491 26068.5 -03480.1 -07.6039 26299.8
 03 09 2013  15 39  -21.0481 26068.5 -03480.3 -07.6044 26299.8
 03 09 2013  15 40  -21.0471 26068.4 -03480.5 -07.6047 26299.7
 03 09 2013  15 41  -21.0458 26068.1 -03480.6 -07.6050 26299.4
 03 09 2013  15 42  -21.0447 26068.0 -03480.8 -07.6056 26299.4
 03 09 2013  15 43  -21.0436 26068.0 -03481.1 -07.6062 26299.4
 03 09 2013  15 44  -21.0427 26068.1 -03481.4 -07.6069 26299.5
 03 09 2013  15 45  -21.0416 26068.1 -03481.7 -07.6075 26299.5
 03 09 2013  15 46  -21.0406 26068.3 -03482.1 -07.6082 26299.8
 03 09 2013  15 47  -21.0396 26068.5 -03482.4 -07.6089 26300.1
 03 09 2013  15 48  -21.0389 26068.7 -03482.8 -07.6096 26300.3
 03 09 2013  15 49  -21.0382 26068.8 -03483.1 -07.6103 26300.4
 03 09 2013  15 50  -21.0376 26068.8 -03483.3 -07.6108 26300.5
 03 09 2013  15 51  -21.0370 26068.7 -03483.6 -07.6114 26300.4
 03 09 2013  15 52  -21.0363 26068.6 -03483.8 -07.6118 26300.3
 03 09 2013  15 53  -21.0357 26068.7 -03484.1 -07.6126 26300.5
 03 09 2013  15 54  -21.0353 26068.9 -03484.5 -07.6134 26300.8
 03 09 2013  15 55  -21.0349 26069.1 -03484.9 -07.6141 26301.0
 03 09 2013  15 56  -21.0346 26069.2 -03485.1 -07.6146 26301.1
 03 09 2013  15 57  -21.0339 26069.1 -03485.3 -07.6151 26301.1
 03 09 2013  15 58  -21.0334 26069.1 -03485.6 -07.6156 26301.0
 03 09 2013  15 59  -21.0330 26069.1 -03485.9 -07.6163 26301.2
 03 09 2013  16 00  -21.0325 26069.4 -03486.3 -07.6170 26301.5
 03 09 2013  16 01  -21.0324 26069.7 -03486.6 -07.6177 26301.8
 03 09 2013  16 02  -21.0321 26069.5 -03486.7 -07.6179 26301.6
 03 09 2013  16 03  -21.0315 26069.2 -03486.8 -07.6182 26301.4
 03 09 2013  16 04  -21.0310 26069.0 -03486.9 -07.6185 26301.2
 03 09 2013  16 05  -21.0306 26068.9 -03487.1 -07.6190 26301.1
 03 09 2013  16 06  -21.0304 26068.8 -03487.3 -07.6194 26301.0
 03 09 2013  16 07  -21.0303 26068.5 -03487.4 -07.6198 26300.8
 03 09 2013  16 08  -21.0296 26068.3 -03487.6 -07.6201 26300.5
 03 09 2013  16 09  -21.0294 26068.3 -03487.8 -07.6206 26300.6
 03 09 2013  16 10  -21.0296 26068.1 -03488.0 -07.6210 26300.4
 03 09 2013  16 11  -21.0291 26068.0 -03488.1 -07.6212 26300.3
 03 09 2013  16 12  -21.0291 26068.0 -03488.2 -07.6216 26300.3
 03 09 2013  16 13  -21.0290 26067.9 -03488.3 -07.6219 26300.2
 03 09 2013  16 14  -21.0289 26067.7 -03488.4 -07.6221 26300.1
 03 09 2013  16 15  -21.0287 26067.5 -03488.5 -07.6223 26299.9
 03 09 2013  16 16  -21.0287 26067.4 -03488.6 -07.6226 26299.8
 03 09 2013  16 17  -21.0284 26067.3 -03488.6 -07.6227 26299.7
 03 09 2013  16 18  -21.0282 26067.1 -03488.7 -07.6229 26299.5
 03 09 2013  16 19  -21.0279 26066.6 -03488.6 -07.6229 26299.0
 03 09 2013  16 20  -21.0272 26066.2 -03488.6 -07.6230 26298.6
 03 09 2013  16 21  -21.0269 26066.0 -03488.8 -07.6234 26298.5
 03 09 2013  16 22  -21.0262 26065.6 -03488.8 -07.6235 26298.0
 03 09 2013  16 23  -21.0259 26065.3 -03488.9 -07.6238 26297.8
 03 09 2013  16 24  -21.0250 26065.3 -03489.1 -07.6242 26297.8
 03 09 2013  16 25  -21.0246 26065.6 -03489.5 -07.6249 26298.2
 03 09 2013  16 26  -21.0243 26065.9 -03489.8 -07.6255 26298.5
 03 09 2013  16 27  -21.0242 26066.3 -03490.1 -07.6261 26298.9
 03 09 2013  16 28  -21.0237 26066.3 -03490.1 -07.6262 26298.9
 03 09 2013  16 29  -21.0232 26066.5 -03490.3 -07.6265 26299.1
 03 09 2013  16 30  -21.0227 26066.4 -03490.4 -07.6268 26299.1
 03 09 2013  16 31  -21.0222 26066.3 -03490.5 -07.6270 26299.0
 03 09 2013  16 32  -21.0216 26066.1 -03490.6 -07.6273 26298.8
 03 09 2013  16 33  -21.0210 26065.8 -03490.6 -07.6275 26298.5
 03 09 2013  16 34  -21.0205 26065.5 -03490.8 -07.6278 26298.2
 03 09 2013  16 35  -21.0202 26065.4 -03491.0 -07.6284 26298.2
 03 09 2013  16 36  -21.0198 26065.2 -03491.2 -07.6288 26297.9
 03 09 2013  16 37  -21.0196 26064.9 -03491.3 -07.6292 26297.7
 03 09 2013  16 38  -21.0195 26064.8 -03491.6 -07.6297 26297.6
 03 09 2013  16 39  -21.0195 26064.7 -03491.8 -07.6302 26297.6
 03 09 2013  16 40  -21.0196 26064.6 -03492.0 -07.6307 26297.4
 03 09 2013  16 41  -21.0198 26064.3 -03492.1 -07.6311 26297.2
 03 09 2013  16 42  -21.0200 26064.0 -03492.3 -07.6315 26297.0
 03 09 2013  16 43  -21.0202 26063.6 -03492.3 -07.6318 26296.5
 03 09 2013  16 44  -21.0203 26063.1 -03492.4 -07.6321 26296.1
 03 09 2013  16 45  -21.0205 26062.8 -03492.6 -07.6326 26295.8
 03 09 2013  16 46  -21.0207 26062.5 -03492.8 -07.6331 26295.6
 03 09 2013  16 47  -21.0205 26062.2 -03493.0 -07.6336 26295.2
 03 09 2013  16 48  -21.0204 26061.9 -03493.2 -07.6342 26295.0
 03 09 2013  16 49  -21.0203 26061.8 -03493.5 -07.6348 26294.9
 03 09 2013  16 50  -21.0201 26061.6 -03493.7 -07.6353 26294.7
 03 09 2013  16 51  -21.0201 26061.5 -03493.9 -07.6358 26294.6
 03 09 2013  16 52  -21.0202 26061.4 -03494.2 -07.6364 26294.6
 03 09 2013  16 53  -21.0206 26061.4 -03494.4 -07.6368 26294.6
 03 09 2013  16 54  -21.0207 26061.3 -03494.5 -07.6371 26294.6
 03 09 2013  16 55  -21.0212 26061.5 -03494.7 -07.6375 26294.7
 03 09 2013  16 56  -21.0217 26061.4 -03494.8 -07.6377 26294.7
 03 09 2013  16 57  -21.0219 26061.3 -03494.8 -07.6378 26294.6
 03 09 2013  16 58  -21.0221 26061.0 -03494.8 -07.6378 26294.3
 03 09 2013  16 59  -21.0223 26060.7 -03494.8 -07.6379 26294.0
 03 09 2013  17 00  -21.0226 26060.7 -03494.9 -07.6381 26294.0
 03 09 2013  17 01  -21.0233 26060.7 -03495.0 -07.6384 26294.1
 03 09 2013  17 02  -21.0238 26060.8 -03495.1 -07.6386 26294.1
 03 09 2013  17 03  -21.0241 26060.6 -03495.0 -07.6385 26293.9
 03 09 2013  17 04  -21.0242 26060.4 -03495.0 -07.6384 26293.7
 03 09 2013  17 05  -21.0243 26060.1 -03494.9 -07.6383 26293.4
 03 09 2013  17 06  -21.0246 26059.9 -03494.9 -07.6384 26293.2
 03 09 2013  17 07  -21.0252 26059.9 -03495.0 -07.6386 26293.2
 03 09 2013  17 08  -21.0257 26059.8 -03495.0 -07.6386 26293.1
 03 09 2013  17 09  -21.0264 26059.8 -03495.0 -07.6386 26293.1
 03 09 2013  17 10  -21.0269 26059.6 -03494.9 -07.6385 26292.9
 03 09 2013  17 11  -21.0272 26059.2 -03494.8 -07.6383 26292.5
 03 09 2013  17 12  -21.0276 26058.8 -03494.7 -07.6381 26292.1
 03 09 2013  17 13  -21.0279 26058.5 -03494.5 -07.6379 26291.7
 03 09 2013  17 14  -21.0281 26058.0 -03494.4 -07.6378 26291.3
 03 09 2013  17 15  -21.0285 26057.7 -03494.3 -07.6378 26290.9
 03 09 2013  17 16  -21.0288 26057.4 -03494.3 -07.6378 26290.7
 03 09 2013  17 17  -21.0291 26057.2 -03494.2 -07.6377 26290.4
 03 09 2013  17 18  -21.0295 26057.0 -03494.2 -07.6377 26290.3
 03 09 2013  17 19  -21.0296 26056.8 -03494.1 -07.6376 26290.0
 03 09 2013  17 20  -21.0296 26056.5 -03494.0 -07.6374 26289.7
 03 09 2013  17 21  -21.0296 26056.3 -03494.0 -07.6374 26289.5
 03 09 2013  17 22  -21.0297 26056.3 -03494.0 -07.6374 26289.5
 03 09 2013  17 23  -21.0297 26056.2 -03493.9 -07.6374 26289.4
 03 09 2013  17 24  -21.0298 26056.1 -03493.9 -07.6372 26289.3
 03 09 2013  17 25  -21.0298 26056.0 -03493.8 -07.6371 26289.2
 03 09 2013  17 26  -21.0296 26055.8 -03493.7 -07.6369 26289.0
 03 09 2013  17 27  -21.0295 26055.6 -03493.6 -07.6367 26288.8
 03 09 2013  17 28  -21.0294 26055.4 -03493.5 -07.6366 26288.5
 03 09 2013  17 29  -21.0293 26055.2 -03493.4 -07.6366 26288.3
 03 09 2013  17 30  -21.0294 26055.0 -03493.4 -07.6365 26288.2
 03 09 2013  17 31  -21.0294 26054.8 -03493.3 -07.6363 26288.0
 03 09 2013  17 32  -21.0291 26054.7 -03493.2 -07.6362 26287.8
 03 09 2013  17 33  -21.0291 26054.5 -03493.1 -07.6361 26287.7
 03 09 2013  17 34  -21.0289 26054.3 -03493.0 -07.6359 26287.4
 03 09 2013  17 35  -21.0288 26054.0 -03492.9 -07.6357 26287.1
 03 09 2013  17 36  -21.0285 26053.7 -03492.8 -07.6355 26286.8
 03 09 2013  17 37  -21.0281 26053.4 -03492.7 -07.6355 26286.5
 03 09 2013  17 38  -21.0278 26053.4 -03492.7 -07.6355 26286.4
 03 09 2013  17 39  -21.0277 26053.4 -03492.7 -07.6355 26286.4
 03 09 2013  17 40  -21.0277 26053.2 -03492.7 -07.6354 26286.2
 03 09 2013  17 41  -21.0274 26052.8 -03492.5 -07.6352 26285.9
 03 09 2013  17 42  -21.0269 26052.5 -03492.3 -07.6349 26285.5
 03 09 2013  17 43  -21.0262 26052.4 -03492.3 -07.6350 26285.4
 03 09 2013  17 44  -21.0250 26052.9 -03492.6 -07.6355 26285.9
 03 09 2013  17 45  -21.0252 26054.6 -03493.5 -07.6369 26287.8
 03 09 2013  17 46  -21.0266 26056.2 -03494.1 -07.6377 26289.5
 03 09 2013  17 47  -21.0267 26056.7 -03493.8 -07.6370 26289.9
 03 09 2013  17 48  -21.0268 26056.9 -03493.5 -07.6363 26290.1
 03 09 2013  17 49  -21.0266 26056.5 -03493.0 -07.6353 26289.6
 03 09 2013  17 50  -21.0262 26056.0 -03492.6 -07.6344 26289.0
 03 09 2013  17 51  -21.0255 26054.9 -03492.0 -07.6335 26287.8
 03 09 2013  17 52  -21.0244 26053.6 -03491.4 -07.6327 26286.5
 03 09 2013  17 53  -21.0236 26052.5 -03491.1 -07.6323 26285.4
 03 09 2013  17 54  -21.0229 26051.6 -03490.9 -07.6322 26284.5
 03 09 2013  17 55  -21.0228 26051.0 -03490.8 -07.6321 26283.8
 03 09 2013  17 56  -21.0231 26050.7 -03490.8 -07.6321 26283.6
 03 09 2013  17 57  -21.0232 26050.8 -03490.8 -07.6322 26283.6
 03 09 2013  17 58  -21.0227 26050.5 -03490.6 -07.6319 26283.3
 03 09 2013  17 59  -21.0222 26050.3 -03490.5 -07.6317 26283.2
 03 09 2013  18 00  -21.0222 26050.3 -03490.5 -07.6317 26283.2
 03 09 2013  18 01  -21.0224 26050.4 -03490.5 -07.6316 26283.2
 03 09 2013  18 02  -21.0225 26050.3 -03490.5 -07.6315 26283.1
 03 09 2013  18 03  -21.0227 26050.4 -03490.5 -07.6315 26283.2
 03 09 2013  18 04  -21.0224 26050.2 -03490.3 -07.6312 26283.0
 03 09 2013  18 05  -21.0221 26049.8 -03490.0 -07.6308 26282.6
 03 09 2013  18 06  -21.0218 26049.7 -03489.9 -07.6306 26282.4
 03 09 2013  18 07  -21.0217 26049.7 -03489.9 -07.6306 26282.5
 03 09 2013  18 08  -21.0218 26049.8 -03489.9 -07.6305 26282.5
 03 09 2013  18 09  -21.0220 26049.7 -03489.7 -07.6302 26282.5
 03 09 2013  18 10  -21.0228 26049.9 -03489.7 -07.6299 26282.6
 03 09 2013  18 11  -21.0229 26049.6 -03489.3 -07.6292 26282.3
 03 09 2013  18 12  -21.0226 26049.4 -03489.0 -07.6286 26282.0
 03 09 2013  18 13  -21.0221 26049.3 -03488.8 -07.6282 26281.8
 03 09 2013  18 14  -21.0221 26049.4 -03488.7 -07.6280 26281.9
 03 09 2013  18 15  -21.0220 26049.3 -03488.5 -07.6275 26281.8
 03 09 2013  18 16  -21.0215 26048.8 -03488.1 -07.6269 26281.3
 03 09 2013  18 17  -21.0214 26049.1 -03488.1 -07.6268 26281.6
 03 09 2013  18 18  -21.0211 26049.2 -03487.9 -07.6264 26281.6
 03 09 2013  18 19  -21.0207 26049.1 -03487.7 -07.6259 26281.6
 03 09 2013  18 20  -21.0200 26049.0 -03487.5 -07.6255 26281.4
 03 09 2013  18 21  -21.0196 26048.7 -03487.3 -07.6251 26281.1
 03 09 2013  18 22  -21.0194 26048.4 -03487.1 -07.6248 26280.8
 03 09 2013  18 23  -21.0188 26047.7 -03486.7 -07.6242 26280.1
 03 09 2013  18 24  -21.0184 26047.2 -03486.5 -07.6239 26279.5
 03 09 2013  18 25  -21.0178 26046.8 -03486.4 -07.6237 26279.1
 03 09 2013  18 26  -21.0173 26046.5 -03486.3 -07.6237 26278.8
 03 09 2013  18 27  -21.0168 26046.1 -03486.2 -07.6236 26278.4
 03 09 2013  18 28  -21.0159 26045.6 -03486.1 -07.6234 26277.8
 03 09 2013  18 29  -21.0153 26045.1 -03486.0 -07.6234 26277.4
 03 09 2013  18 30  -21.0147 26044.6 -03485.9 -07.6234 26276.8
 03 09 2013  18 31  -21.0141 26044.0 -03485.8 -07.6234 26276.3
 03 09 2013  18 32  -21.0135 26043.3 -03485.8 -07.6234 26275.6
 03 09 2013  18 33  -21.0132 26043.0 -03485.8 -07.6237 26275.2
 03 09 2013  18 34  -21.0128 26042.6 -03485.9 -07.6239 26274.9
 03 09 2013  18 35  -21.0125 26042.0 -03485.8 -07.6239 26274.3
 03 09 2013  18 36  -21.0122 26041.4 -03485.7 -07.6238 26273.6
 03 09 2013  18 37  -21.0116 26040.6 -03485.6 -07.6239 26272.9
 03 09 2013  18 38  -21.0112 26040.0 -03485.6 -07.6241 26272.3
 03 09 2013  18 39  -21.0111 26039.6 -03485.7 -07.6244 26271.9
 03 09 2013  18 40  -21.0112 26039.2 -03485.8 -07.6247 26271.4
 03 09 2013  18 41  -21.0110 26038.8 -03485.8 -07.6249 26271.1
 03 09 2013  18 42  -21.0108 26038.4 -03485.9 -07.6251 26270.7
 03 09 2013  18 43  -21.0106 26038.1 -03485.9 -07.6252 26270.4
 03 09 2013  18 44  -21.0105 26037.7 -03485.9 -07.6253 26270.1
 03 09 2013  18 45  -21.0103 26037.3 -03485.9 -07.6254 26269.6
 03 09 2013  18 46  -21.0104 26036.9 -03485.9 -07.6256 26269.3
 03 09 2013  18 47  -21.0105 26036.7 -03486.0 -07.6258 26269.0
 03 09 2013  18 48  -21.0107 26036.6 -03486.1 -07.6260 26268.9
 03 09 2013  18 49  -21.0109 26036.5 -03486.2 -07.6262 26268.9
 03 09 2013  18 50  -21.0112 26036.3 -03486.2 -07.6263 26268.6
 03 09 2013  18 51  -21.0114 26035.9 -03486.1 -07.6262 26268.2
 03 09 2013  18 52  -21.0118 26035.7 -03486.1 -07.6263 26268.1
 03 09 2013  18 53  -21.0121 26035.4 -03486.0 -07.6261 26267.7
 03 09 2013  18 54  -21.0122 26035.0 -03485.9 -07.6262 26267.4
 03 09 2013  18 55  -21.0122 26034.6 -03485.8 -07.6261 26266.9
 03 09 2013  18 56  -21.0123 26034.4 -03485.8 -07.6261 26266.7
 03 09 2013  18 57  -21.0124 26034.3 -03485.8 -07.6262 26266.6
 03 09 2013  18 58  -21.0125 26034.0 -03485.7 -07.6261 26266.3
 03 09 2013  18 59  -21.0124 26033.5 -03485.6 -07.6258 26265.8
 03 09 2013  19 00  -21.0125 26033.3 -03485.5 -07.6258 26265.6
 03 09 2013  19 01  -21.0127 26033.3 -03485.6 -07.6259 26265.6
 03 09 2013  19 02  -21.0129 26033.2 -03485.6 -07.6260 26265.5
 03 09 2013  19 03  -21.0132 26032.9 -03485.5 -07.6259 26265.2
 03 09 2013  19 04  -21.0132 26032.6 -03485.4 -07.6257 26264.9
 03 09 2013  19 05  -21.0136 26032.4 -03485.4 -07.6257 26264.7
 03 09 2013  19 06  -21.0140 26032.4 -03485.3 -07.6257 26264.6
 03 09 2013  19 07  -21.0145 26032.3 -03485.3 -07.6257 26264.6
 03 09 2013  19 08  -21.0146 26032.3 -03485.3 -07.6256 26264.6
 03 09 2013  19 09  -21.0149 26032.3 -03485.3 -07.6255 26264.6
 03 09 2013  19 10  -21.0152 26032.2 -03485.2 -07.6254 26264.5
 03 09 2013  19 11  -21.0152 26032.0 -03485.1 -07.6252 26264.3
 03 09 2013  19 12  -21.0152 26031.8 -03484.9 -07.6249 26264.0
 03 09 2013  19 13  -21.0154 26031.7 -03484.9 -07.6248 26263.9
 03 09 2013  19 14  -21.0156 26031.4 -03484.8 -07.6248 26263.7
 03 09 2013  19 15  -21.0157 26031.2 -03484.7 -07.6247 26263.4
 03 09 2013  19 16  -21.0160 26031.2 -03484.8 -07.6248 26263.5
 03 09 2013  19 17  -21.0162 26031.2 -03484.8 -07.6248 26263.5
 03 09 2013  19 18  -21.0163 26031.1 -03484.7 -07.6248 26263.3
 03 09 2013  19 19  -21.0164 26031.0 -03484.6 -07.6246 26263.2
 03 09 2013  19 20  -21.0163 26030.8 -03484.6 -07.6245 26263.0
 03 09 2013  19 21  -21.0163 26030.5 -03484.5 -07.6244 26262.7
 03 09 2013  19 22  -21.0162 26030.2 -03484.4 -07.6243 26262.4
 03 09 2013  19 23  -21.0161 26030.0 -03484.4 -07.6243 26262.2
 03 09 2013  19 24  -21.0161 26029.8 -03484.4 -07.6244 26262.0
 03 09 2013  19 25  -21.0162 26029.7 -03484.5 -07.6246 26261.9
 03 09 2013  19 26  -21.0162 26029.8 -03484.6 -07.6248 26262.0
 03 09 2013  19 27  -21.0162 26029.8 -03484.7 -07.6250 26262.0
 03 09 2013  19 28  -21.0162 26029.7 -03484.7 -07.6252 26262.0
 03 09 2013  19 29  -21.0163 26029.7 -03484.8 -07.6253 26261.9
 03 09 2013  19 30  -21.0164 26029.7 -03484.9 -07.6254 26261.9
 03 09 2013  19 31  -21.0165 26029.7 -03485.0 -07.6256 26261.9
 03 09 2013  19 32  -21.0164 26029.6 -03485.0 -07.6256 26261.8
 03 09 2013  19 33  -21.0164 26029.4 -03484.9 -07.6256 26261.7
 03 09 2013  19 34  -21.0164 26029.3 -03484.9 -07.6257 26261.5
 03 09 2013  19 35  -21.0164 26029.2 -03485.0 -07.6258 26261.4
 03 09 2013  19 36  -21.0164 26029.0 -03485.0 -07.6259 26261.3
 03 09 2013  19 37  -21.0165 26029.1 -03485.1 -07.6260 26261.3
 03 09 2013  19 38  -21.0166 26029.1 -03485.1 -07.6262 26261.4
 03 09 2013  19 39  -21.0168 26029.0 -03485.2 -07.6263 26261.3
 03 09 2013  19 40  -21.0169 26028.9 -03485.2 -07.6263 26261.2
 03 09 2013  19 41  -21.0170 26028.9 -03485.1 -07.6262 26261.2
 03 09 2013  19 42  -21.0173 26028.8 -03485.1 -07.6262 26261.1
 03 09 2013  19 43  -21.0175 26028.7 -03485.0 -07.6261 26261.0
 03 09 2013  19 44  -21.0175 26028.5 -03485.0 -07.6260 26260.7
 03 09 2013  19 45  -21.0173 26028.3 -03485.0 -07.6260 26260.6
 03 09 2013  19 46  -21.0172 26028.2 -03485.0 -07.6261 26260.5
 03 09 2013  19 47  -21.0171 26028.2 -03485.0 -07.6262 26260.5
 03 09 2013  19 48  -21.0171 26028.2 -03485.0 -07.6262 26260.4
 03 09 2013  19 49  -21.0171 26028.0 -03484.9 -07.6261 26260.2
 03 09 2013  19 50  -21.0171 26027.8 -03484.9 -07.6260 26260.1
 03 09 2013  19 51  -21.0171 26027.7 -03484.9 -07.6260 26259.9
 03 09 2013  19 52  -21.0170 26027.5 -03484.8 -07.6260 26259.7
 03 09 2013  19 53  -21.0171 26027.4 -03484.8 -07.6260 26259.7
 03 09 2013  19 54  -21.0174 26027.4 -03484.8 -07.6260 26259.7
 03 09 2013  19 55  -21.0172 26027.3 -03484.7 -07.6258 26259.5
 03 09 2013  19 56  -21.0172 26027.2 -03484.7 -07.6258 26259.4
 03 09 2013  19 57  -21.0171 26027.0 -03484.6 -07.6256 26259.2
 03 09 2013  19 58  -21.0170 26026.9 -03484.5 -07.6255 26259.1
 03 09 2013  19 59  -21.0169 26026.9 -03484.5 -07.6254 26259.1
 03 09 2013  20 00  -21.0169 26026.8 -03484.5 -07.6254 26259.0
 03 09 2013  20 01  -21.0168 26026.8 -03484.4 -07.6253 26259.0
 03 09 2013  20 02  -21.0168 26026.6 -03484.4 -07.6252 26258.8
 03 09 2013  20 03  -21.0168 26026.7 -03484.3 -07.6252 26258.9
 03 09 2013  20 04  -21.0169 26026.8 -03484.4 -07.6252 26259.0
 03 09 2013  20 05  -21.0168 26026.8 -03484.3 -07.6250 26259.0
 03 09 2013  20 06  -21.0168 26026.9 -03484.3 -07.6250 26259.0
 03 09 2013  20 07  -21.0167 26026.9 -03484.2 -07.6248 26259.1
 03 09 2013  20 08  -21.0166 26027.0 -03484.2 -07.6247 26259.2
 03 09 2013  20 09  -21.0164 26027.0 -03484.1 -07.6246 26259.2
 03 09 2013  20 10  -21.0162 26027.0 -03484.1 -07.6245 26259.2
 03 09 2013  20 11  -21.0159 26027.0 -03484.0 -07.6243 26259.2
 03 09 2013  20 12  -21.0157 26027.0 -03483.9 -07.6242 26259.2
 03 09 2013  20 13  -21.0154 26027.1 -03483.9 -07.6241 26259.3
 03 09 2013  20 14  -21.0152 26027.2 -03483.9 -07.6240 26259.3
 03 09 2013  20 15  -21.0148 26027.0 -03483.7 -07.6238 26259.2
 03 09 2013  20 16  -21.0146 26027.0 -03483.7 -07.6237 26259.2
 03 09 2013  20 17  -21.0144 26027.0 -03483.7 -07.6237 26259.1
 03 09 2013  20 18  -21.0143 26027.1 -03483.7 -07.6237 26259.2
 03 09 2013  20 19  -21.0139 26027.1 -03483.6 -07.6235 26259.2
 03 09 2013  20 20  -21.0136 26027.2 -03483.6 -07.6234 26259.3
 03 09 2013  20 21  -21.0134 26027.3 -03483.6 -07.6235 26259.4
 03 09 2013  20 22  -21.0133 26027.3 -03483.6 -07.6234 26259.4
 03 09 2013  20 23  -21.0132 26027.3 -03483.6 -07.6234 26259.4
 03 09 2013  20 24  -21.0132 26027.3 -03483.5 -07.6232 26259.4
 03 09 2013  20 25  -21.0130 26027.3 -03483.5 -07.6232 26259.4
 03 09 2013  20 26  -21.0127 26027.4 -03483.5 -07.6231 26259.4
 03 09 2013  20 27  -21.0125 26027.3 -03483.4 -07.6230 26259.4
 03 09 2013  20 28  -21.0123 26027.3 -03483.4 -07.6229 26259.4
 03 09 2013  20 29  -21.0120 26027.3 -03483.3 -07.6228 26259.4
 03 09 2013  20 30  -21.0118 26027.3 -03483.3 -07.6227 26259.3
 03 09 2013  20 31  -21.0116 26027.2 -03483.2 -07.6226 26259.3
 03 09 2013  20 32  -21.0113 26027.2 -03483.2 -07.6224 26259.2
 03 09 2013  20 33  -21.0112 26027.1 -03483.1 -07.6224 26259.1
 03 09 2013  20 34  -21.0111 26027.1 -03483.1 -07.6223 26259.1
 03 09 2013  20 35  -21.0111 26027.1 -03483.1 -07.6223 26259.2
 03 09 2013  20 36  -21.0111 26027.2 -03483.1 -07.6224 26259.2
 03 09 2013  20 37  -21.0110 26027.2 -03483.2 -07.6224 26259.3
 03 09 2013  20 38  -21.0110 26027.3 -03483.2 -07.6225 26259.4
 03 09 2013  20 39  -21.0110 26027.4 -03483.2 -07.6225 26259.4
 03 09 2013  20 40  -21.0109 26027.5 -03483.2 -07.6225 26259.5
 03 09 2013  20 41  -21.0107 26027.5 -03483.2 -07.6225 26259.6
 03 09 2013  20 42  -21.0104 26027.6 -03483.3 -07.6225 26259.7
 03 09 2013  20 43  -21.0102 26027.7 -03483.3 -07.6226 26259.8
 03 09 2013  20 44  -21.0099 26027.8 -03483.3 -07.6226 26259.8
 03 09 2013  20 45  -21.0098 26027.8 -03483.3 -07.6226 26259.8
 03 09 2013  20 46  -21.0098 26027.9 -03483.4 -07.6228 26260.0
 03 09 2013  20 47  -21.0097 26028.0 -03483.5 -07.6229 26260.0
 03 09 2013  20 48  -21.0096 26028.1 -03483.5 -07.6230 26260.2
 03 09 2013  20 49  -21.0096 26028.1 -03483.5 -07.6230 26260.1
 03 09 2013  20 50  -21.0096 26028.0 -03483.5 -07.6230 26260.1
 03 09 2013  20 51  -21.0096 26027.9 -03483.5 -07.6230 26260.0
 03 09 2013  20 52  -21.0097 26027.7 -03483.4 -07.6229 26259.8
 03 09 2013  20 53  -21.0098 26027.6 -03483.4 -07.6228 26259.6
 03 09 2013  20 54  -21.0098 26027.5 -03483.4 -07.6230 26259.6
 03 09 2013  20 55  -21.0099 26027.5 -03483.5 -07.6231 26259.5
 03 09 2013  20 56  -21.0101 26027.4 -03483.5 -07.6231 26259.5
 03 09 2013  20 57  -21.0102 26027.3 -03483.5 -07.6231 26259.4
 03 09 2013  20 58  -21.0104 26027.3 -03483.5 -07.6232 26259.4
 03 09 2013  20 59  -21.0105 26027.3 -03483.5 -07.6232 26259.4
 03 09 2013  21 00  -21.0107 26027.4 -03483.6 -07.6233 26259.5
 03 09 2013  21 01  -21.0108 26027.4 -03483.5 -07.6231 26259.5
 03 09 2013  21 02  -21.0109 26027.5 -03483.5 -07.6232 26259.5
 03 09 2013  21 03  -21.0110 26027.5 -03483.6 -07.6233 26259.6
 03 09 2013  21 04  -21.0112 26027.6 -03483.6 -07.6234 26259.7
 03 09 2013  21 05  -21.0112 26027.7 -03483.7 -07.6235 26259.8
 03 09 2013  21 06  -21.0113 26027.9 -03483.8 -07.6236 26260.0
 03 09 2013  21 07  -21.0114 26027.9 -03483.7 -07.6235 26260.0
 03 09 2013  21 08  -21.0117 26027.9 -03483.7 -07.6233 26260.0
 03 09 2013  21 09  -21.0119 26028.0 -03483.7 -07.6235 26260.1
 03 09 2013  21 10  -21.0119 26028.3 -03483.8 -07.6236 26260.4
 03 09 2013  21 11  -21.0116 26028.6 -03483.9 -07.6236 26260.7
 03 09 2013  21 12  -21.0115 26028.9 -03483.9 -07.6236 26261.0
 03 09 2013  21 13  -21.0115 26029.2 -03484.0 -07.6236 26261.3
 03 09 2013  21 14  -21.0116 26029.4 -03484.1 -07.6238 26261.5
 03 09 2013  21 15  -21.0118 26029.5 -03484.1 -07.6239 26261.7
 03 09 2013  21 16  -21.0121 26029.7 -03484.2 -07.6239 26261.9
 03 09 2013  21 17  -21.0123 26029.8 -03484.2 -07.6239 26261.9
 03 09 2013  21 18  -21.0126 26029.9 -03484.1 -07.6238 26262.0
 03 09 2013  21 19  -21.0130 26029.8 -03484.0 -07.6234 26261.9
 03 09 2013  21 20  -21.0131 26030.0 -03484.0 -07.6234 26262.1
 03 09 2013  21 21  -21.0132 26030.2 -03484.0 -07.6234 26262.3
 03 09 2013  21 22  -21.0132 26030.3 -03484.1 -07.6235 26262.4
 03 09 2013  21 23  -21.0132 26030.4 -03484.1 -07.6235 26262.6
 03 09 2013  21 24  -21.0132 26030.8 -03484.1 -07.6235 26262.9
 03 09 2013  21 25  -21.0132 26031.0 -03484.2 -07.6236 26263.1
 03 09 2013  21 26  -21.0134 26031.1 -03484.2 -07.6236 26263.2
 03 09 2013  21 27  -21.0137 26031.1 -03484.2 -07.6235 26263.2
 03 09 2013  21 28  -21.0141 26031.0 -03484.1 -07.6234 26263.2
 03 09 2013  21 29  -21.0146 26030.8 -03484.0 -07.6233 26262.9
 03 09 2013  21 30  -21.0150 26030.5 -03483.8 -07.6229 26262.6
 03 09 2013  21 31  -21.0154 26030.6 -03483.8 -07.6229 26262.7
 03 09 2013  21 32  -21.0156 26030.6 -03483.8 -07.6228 26262.7
 03 09 2013  21 33  -21.0157 26030.7 -03483.7 -07.6227 26262.7
 03 09 2013  21 34  -21.0158 26030.7 -03483.7 -07.6225 26262.8
 03 09 2013  21 35  -21.0158 26030.9 -03483.7 -07.6225 26262.9
 03 09 2013  21 36  -21.0158 26031.1 -03483.7 -07.6224 26263.1
 03 09 2013  21 37  -21.0159 26031.3 -03483.7 -07.6225 26263.4
 03 09 2013  21 38  -21.0159 26031.5 -03483.7 -07.6224 26263.6
 03 09 2013  21 39  -21.0160 26031.8 -03483.8 -07.6225 26263.9
 03 09 2013  21 40  -21.0161 26031.9 -03483.8 -07.6225 26264.0
 03 09 2013  21 41  -21.0164 26032.1 -03483.9 -07.6225 26264.2
 03 09 2013  21 42  -21.0169 26032.1 -03483.8 -07.6224 26264.2
 03 09 2013  21 43  -21.0173 26032.2 -03483.8 -07.6223 26264.3
 03 09 2013  21 44  -21.0178 26032.3 -03483.7 -07.6222 26264.4
 03 09 2013  21 45  -21.0181 26032.4 -03483.7 -07.6221 26264.5
 03 09 2013  21 46  -21.0183 26032.4 -03483.6 -07.6219 26264.4
 03 09 2013  21 47  -21.0185 26032.4 -03483.5 -07.6217 26264.4
 03 09 2013  21 48  -21.0189 26032.5 -03483.5 -07.6217 26264.5
 03 09 2013  21 49  -21.0189 26032.5 -03483.4 -07.6215 26264.5
 03 09 2013  21 50  -21.0191 26032.4 -03483.3 -07.6213 26264.4
 03 09 2013  21 51  -21.0191 26032.3 -03483.1 -07.6209 26264.3
 03 09 2013  21 52  -21.0192 26032.3 -03483.0 -07.6207 26264.2
 03 09 2013  21 53  -21.0193 26032.0 -03482.8 -07.6204 26263.9
 03 09 2013  21 54  -21.0193 26031.7 -03482.7 -07.6201 26263.7
 03 09 2013  21 55  -21.0193 26031.7 -03482.6 -07.6199 26263.6
 03 09 2013  21 56  -21.0190 26031.8 -03482.5 -07.6198 26263.7
 03 09 2013  21 57  -21.0189 26032.1 -03482.6 -07.6199 26264.0
 03 09 2013  21 58  -21.0189 26032.2 -03482.7 -07.6199 26264.2
 03 09 2013  21 59  -21.0190 26032.4 -03482.7 -07.6200 26264.3
 03 09 2013  22 00  -21.0192 26032.2 -03482.6 -07.6198 26264.1
 03 09 2013  22 01  -21.0193 26031.8 -03482.3 -07.6193 26263.7
 03 09 2013  22 02  -21.0195 26031.4 -03482.1 -07.6189 26263.2
 03 09 2013  22 03  -21.0197 26031.0 -03481.9 -07.6186 26262.8
 03 09 2013  22 04  -21.0200 26030.8 -03481.8 -07.6184 26262.6
 03 09 2013  22 05  -21.0202 26030.9 -03481.8 -07.6184 26262.7
 03 09 2013  22 06  -21.0202 26031.0 -03481.8 -07.6184 26262.8
 03 09 2013  22 07  -21.0204 26030.8 -03481.7 -07.6183 26262.7
 03 09 2013  22 08  -21.0206 26030.5 -03481.5 -07.6179 26262.3
 03 09 2013  22 09  -21.0209 26030.3 -03481.4 -07.6177 26262.1
 03 09 2013  22 10  -21.0211 26030.2 -03481.3 -07.6176 26262.0
 03 09 2013  22 11  -21.0210 26030.3 -03481.3 -07.6175 26262.0
 03 09 2013  22 12  -21.0210 26030.2 -03481.2 -07.6174 26262.0
 03 09 2013  22 13  -21.0212 26030.3 -03481.3 -07.6175 26262.0
 03 09 2013  22 14  -21.0213 26030.3 -03481.3 -07.6174 26262.0
 03 09 2013  22 15  -21.0214 26029.9 -03481.0 -07.6171 26261.6
 03 09 2013  22 16  -21.0216 26029.5 -03480.8 -07.6168 26261.2
 03 09 2013  22 17  -21.0217 26029.3 -03480.7 -07.6165 26260.9
 03 09 2013  22 18  -21.0218 26028.9 -03480.6 -07.6163 26260.6
 03 09 2013  22 19  -21.0218 26028.8 -03480.5 -07.6162 26260.5
 03 09 2013  22 20  -21.0218 26028.8 -03480.5 -07.6162 26260.5
 03 09 2013  22 21  -21.0219 26028.9 -03480.6 -07.6164 26260.6
 03 09 2013  22 22  -21.0220 26028.9 -03480.6 -07.6164 26260.6
 03 09 2013  22 23  -21.0220 26029.0 -03480.6 -07.6165 26260.7
 03 09 2013  22 24  -21.0222 26028.8 -03480.6 -07.6164 26260.5
 03 09 2013  22 25  -21.0224 26028.6 -03480.4 -07.6162 26260.2
 03 09 2013  22 26  -21.0227 26028.4 -03480.4 -07.6161 26260.0
 03 09 2013  22 27  -21.0229 26028.1 -03480.2 -07.6158 26259.7
 03 09 2013  22 28  -21.0233 26027.8 -03480.1 -07.6157 26259.4
 03 09 2013  22 29  -21.0236 26027.6 -03479.9 -07.6154 26259.2
 03 09 2013  22 30  -21.0240 26027.3 -03479.9 -07.6153 26258.9
 03 09 2013  22 31  -21.0243 26027.2 -03479.8 -07.6152 26258.7
 03 09 2013  22 32  -21.0244 26026.8 -03479.6 -07.6149 26258.4
 03 09 2013  22 33  -21.0247 26026.3 -03479.4 -07.6146 26257.8
 03 09 2013  22 34  -21.0250 26025.5 -03479.1 -07.6141 26257.1
 03 09 2013  22 35  -21.0255 26024.9 -03478.8 -07.6137 26256.4
 03 09 2013  22 36  -21.0259 26024.4 -03478.6 -07.6134 26255.8
 03 09 2013  22 37  -21.0261 26024.2 -03478.6 -07.6134 26255.7
 03 09 2013  22 38  -21.0261 26024.3 -03478.7 -07.6136 26255.8
 03 09 2013  22 39  -21.0260 26024.5 -03478.8 -07.6137 26256.0
 03 09 2013  22 40  -21.0261 26024.4 -03478.8 -07.6138 26255.9
 03 09 2013  22 41  -21.0264 26024.3 -03478.8 -07.6138 26255.8
 03 09 2013  22 42  -21.0266 26024.0 -03478.7 -07.6137 26255.5
 03 09 2013  22 43  -21.0269 26023.8 -03478.6 -07.6137 26255.3
 03 09 2013  22 44  -21.0269 26024.0 -03478.8 -07.6139 26255.5
 03 09 2013  22 45  -21.0275 26023.5 -03478.6 -07.6136 26254.9
 03 09 2013  22 46  -21.0277 26023.7 -03478.7 -07.6138 26255.2
 03 09 2013  22 47  -21.0281 26023.7 -03478.7 -07.6139 26255.2
 03 09 2013  22 48  -21.0286 26023.3 -03478.6 -07.6137 26254.8
 03 09 2013  22 49  -21.0288 26023.4 -03478.7 -07.6139 26254.9
 03 09 2013  22 50  -21.0293 26023.0 -03478.5 -07.6137 26254.5
 03 09 2013  22 51  -21.0297 26023.0 -03478.6 -07.6138 26254.4
 03 09 2013  22 52  -21.0302 26022.7 -03478.5 -07.6137 26254.2
 03 09 2013  22 53  -21.0308 26022.5 -03478.4 -07.6136 26253.9
 03 09 2013  22 54  -21.0313 26022.1 -03478.2 -07.6133 26253.5
 03 09 2013  22 55  -21.0317 26022.1 -03478.2 -07.6133 26253.5
 03 09 2013  22 56  -21.0322 26021.6 -03478.1 -07.6131 26253.0
 03 09 2013  22 57  -21.0327 26021.5 -03478.0 -07.6130 26252.9
 03 09 2013  22 58  -21.0331 26021.7 -03478.2 -07.6133 26253.2
 03 09 2013  22 59  -21.0337 26021.3 -03478.0 -07.6131 26252.7
 03 09 2013  23 00  -21.0339 26021.1 -03477.9 -07.6128 26252.5
 03 09 2013  23 01  -21.0344 26020.9 -03477.9 -07.6129 26252.3
 03 09 2013  23 02  -21.0348 26020.2 -03477.6 -07.6124 26251.5
 03 09 2013  23 03  -21.0351 26020.0 -03477.5 -07.6123 26251.3
 03 09 2013  23 04  -21.0359 26019.0 -03477.3 -07.6121 26250.4
 03 09 2013  23 05  -21.0361 26019.1 -03477.3 -07.6120 26250.5
 03 09 2013  23 06  -21.0362 26018.9 -03477.1 -07.6118 26250.2
 03 09 2013  23 07  -21.0365 26018.3 -03477.0 -07.6117 26249.6
 03 09 2013  23 08  -21.0373 26017.4 -03476.6 -07.6112 26248.6
 03 09 2013  23 09  -21.0378 26017.2 -03476.5 -07.6110 26248.4
 03 09 2013  23 10  -21.0382 26016.5 -03476.4 -07.6108 26247.7
 03 09 2013  23 11  -21.0384 26016.3 -03476.3 -07.6108 26247.5
 03 09 2013  23 12  -21.0386 26016.3 -03476.3 -07.6108 26247.5
 03 09 2013  23 13  -21.0390 26016.0 -03476.3 -07.6109 26247.2
 03 09 2013  23 14  -21.0391 26015.9 -03476.2 -07.6107 26247.1
 03 09 2013  23 15  -21.0394 26015.6 -03476.2 -07.6107 26246.8
 03 09 2013  23 16  -21.0393 26015.6 -03476.2 -07.6107 26246.8
 03 09 2013  23 17  -21.0395 26015.2 -03476.1 -07.6106 26246.4
 03 09 2013  23 18  -21.0398 26014.7 -03475.9 -07.6104 26245.9
 03 09 2013  23 19  -21.0399 26014.4 -03475.8 -07.6103 26245.6
 03 09 2013  23 20  -21.0400 26014.2 -03475.7 -07.6102 26245.3
 03 09 2013  23 21  -21.0402 26014.1 -03475.8 -07.6103 26245.3
 03 09 2013  23 22  -21.0399 26014.0 -03475.8 -07.6104 26245.2
 03 09 2013  23 23  -21.0395 26013.6 -03475.7 -07.6103 26244.8
 03 09 2013  23 24  -21.0391 26013.3 -03475.6 -07.6102 26244.4
 03 09 2013  23 25  -21.0389 26013.3 -03475.7 -07.6104 26244.5
 03 09 2013  23 26  -21.0387 26013.3 -03475.8 -07.6106 26244.5
 03 09 2013  23 27  -21.0385 26013.2 -03475.9 -07.6108 26244.4
 03 09 2013  23 28  -21.0384 26013.1 -03476.0 -07.6110 26244.3
 03 09 2013  23 29  -21.0384 26013.0 -03476.0 -07.6110 26244.2
 03 09 2013  23 30  -21.0383 26013.0 -03476.1 -07.6112 26244.2
 03 09 2013  23 31  -21.0382 26013.1 -03476.2 -07.6115 26244.3
 03 09 2013  23 32  -21.0378 26013.2 -03476.4 -07.6119 26244.5
 03 09 2013  23 33  -21.0373 26013.4 -03476.6 -07.6121 26244.7
 03 09 2013  23 34  -21.0369 26013.9 -03476.9 -07.6127 26245.2
 03 09 2013  23 35  -21.0367 26014.4 -03477.2 -07.6132 26245.7
 03 09 2013  23 36  -21.0366 26014.8 -03477.4 -07.6137 26246.2
 03 09 2013  23 37  -21.0362 26015.2 -03477.7 -07.6141 26246.6
 03 09 2013  23 38  -21.0358 26015.6 -03477.9 -07.6144 26247.0
 03 09 2013  23 39  -21.0352 26015.7 -03478.0 -07.6146 26247.1
 03 09 2013  23 40  -21.0347 26015.7 -03478.0 -07.6147 26247.2
 03 09 2013  23 41  -21.0349 26015.9 -03478.1 -07.6149 26247.3
 03 09 2013  23 42  -21.0350 26016.0 -03478.2 -07.6151 26247.5
 03 09 2013  23 43  -21.0351 26016.1 -03478.3 -07.6152 26247.6
 03 09 2013  23 44  -21.0349 26016.1 -03478.4 -07.6153 26247.6
 03 09 2013  23 45  -21.0347 26016.3 -03478.4 -07.6154 26247.8
 03 09 2013  23 46  -21.0346 26016.5 -03478.6 -07.6156 26248.0
 03 09 2013  23 47  -21.0345 26016.7 -03478.7 -07.6158 26248.2
 03 09 2013  23 48  -21.0343 26016.9 -03478.8 -07.6159 26248.4
 03 09 2013  23 49  -21.0341 26017.0 -03478.8 -07.6160 26248.5
 03 09 2013  23 50  -21.0340 26016.9 -03478.8 -07.6160 26248.5
 03 09 2013  23 51  -21.0338 26016.9 -03478.8 -07.6159 26248.4
 03 09 2013  23 52  -21.0338 26016.9 -03478.8 -07.6160 26248.4
 03 09 2013  23 53  -21.0338 26016.9 -03478.8 -07.6160 26248.4
 03 09 2013  23 54  -21.0336 26016.9 -03478.9 -07.6162 26248.4
 03 09 2013  23 55  -21.0334 26016.9 -03478.9 -07.6163 26248.5
 03 09 2013  23 56  -21.0333 26016.8 -03478.9 -07.6163 26248.4
 03 09 2013  23 57  -21.0332 26016.8 -03478.9 -07.6163 26248.4
