SAO LUIS EMBRACE-03 <037> 1 Min. Reported data

 DD MM YYYY  HH MM   D(Deg)  H(nT)   Z(nT)   I(Deg)   F(nT)

 06 02 2013  00 00  -21.0059 26048.1 -03397.8 -07.4318 26268.7
 06 02 2013  00 01  -21.0061 26047.8 -03397.7 -07.4317 26268.5
 06 02 2013  00 02  -21.0063 26047.6 -03397.6 -07.4316 26268.3
 06 02 2013  00 03  -21.0064 26047.4 -03397.6 -07.4315 26268.0
 06 02 2013  00 04  -21.0064 26047.1 -03397.4 -07.4314 26267.8
 06 02 2013  00 05  -21.0066 26046.9 -03397.4 -07.4313 26267.5
 06 02 2013  00 06  -21.0066 26046.7 -03397.4 -07.4313 26267.3
 06 02 2013  00 07  -21.0067 26046.6 -03397.3 -07.4313 26267.2
 06 02 2013  00 08  -21.0071 26046.3 -03397.3 -07.4313 26267.0
 06 02 2013  00 09  -21.0074 26045.9 -03397.2 -07.4311 26266.5
 06 02 2013  00 10  -21.0073 26045.5 -03397.0 -07.4308 26266.1
 06 02 2013  00 11  -21.0072 26045.3 -03396.9 -07.4307 26265.8
 06 02 2013  00 12  -21.0072 26045.3 -03397.0 -07.4309 26265.9
 06 02 2013  00 13  -21.0072 26045.5 -03397.2 -07.4312 26266.1
 06 02 2013  00 14  -21.0073 26045.7 -03397.4 -07.4316 26266.3
 06 02 2013  00 15  -21.0074 26045.9 -03397.6 -07.4320 26266.6
 06 02 2013  00 16  -21.0075 26046.1 -03397.7 -07.4323 26266.8
 06 02 2013  00 17  -21.0077 26046.3 -03397.9 -07.4325 26267.0
 06 02 2013  00 18  -21.0082 26046.1 -03397.9 -07.4326 26266.9
 06 02 2013  00 19  -21.0083 26045.9 -03397.8 -07.4324 26266.6
 06 02 2013  00 20  -21.0081 26045.7 -03397.6 -07.4322 26266.4
 06 02 2013  00 21  -21.0079 26045.7 -03397.6 -07.4321 26266.3
 06 02 2013  00 22  -21.0079 26045.7 -03397.6 -07.4322 26266.4
 06 02 2013  00 23  -21.0080 26045.7 -03397.7 -07.4324 26266.4
 06 02 2013  00 24  -21.0081 26045.8 -03397.8 -07.4325 26266.5
 06 02 2013  00 25  -21.0079 26045.5 -03397.7 -07.4324 26266.2
 06 02 2013  00 26  -21.0081 26045.6 -03397.7 -07.4325 26266.3
 06 02 2013  00 27  -21.0079 26045.6 -03397.8 -07.4325 26266.3
 06 02 2013  00 28  -21.0080 26045.7 -03397.8 -07.4326 26266.4
 06 02 2013  00 29  -21.0081 26045.9 -03398.0 -07.4329 26266.6
 06 02 2013  00 30  -21.0081 26046.0 -03398.0 -07.4330 26266.7
 06 02 2013  00 31  -21.0085 26046.3 -03398.3 -07.4334 26267.0
 06 02 2013  00 32  -21.0085 26046.2 -03398.2 -07.4333 26266.9
 06 02 2013  00 33  -21.0087 26046.4 -03398.3 -07.4335 26267.2
 06 02 2013  00 34  -21.0088 26046.1 -03398.2 -07.4334 26266.9
 06 02 2013  00 35  -21.0091 26046.1 -03398.2 -07.4333 26266.9
 06 02 2013  00 36  -21.0090 26046.1 -03398.2 -07.4333 26266.8
 06 02 2013  00 37  -21.0093 26045.8 -03398.1 -07.4332 26266.6
 06 02 2013  00 38  -21.0093 26045.9 -03398.1 -07.4331 26266.7
 06 02 2013  00 39  -21.0093 26046.0 -03398.1 -07.4332 26266.7
 06 02 2013  00 40  -21.0094 26045.7 -03398.0 -07.4331 26266.4
 06 02 2013  00 41  -21.0096 26045.7 -03398.0 -07.4330 26266.4
 06 02 2013  00 42  -21.0095 26045.6 -03398.0 -07.4330 26266.3
 06 02 2013  00 43  -21.0094 26045.6 -03398.0 -07.4329 26266.3
 06 02 2013  00 44  -21.0095 26045.6 -03398.0 -07.4330 26266.3
 06 02 2013  00 45  -21.0095 26045.6 -03398.0 -07.4331 26266.3
 06 02 2013  00 46  -21.0097 26045.6 -03398.1 -07.4331 26266.3
 06 02 2013  00 47  -21.0097 26045.6 -03398.1 -07.4332 26266.4
 06 02 2013  00 48  -21.0096 26045.6 -03398.1 -07.4332 26266.3
 06 02 2013  00 49  -21.0097 26045.7 -03398.1 -07.4333 26266.4
 06 02 2013  00 50  -21.0098 26045.6 -03398.1 -07.4333 26266.3
 06 02 2013  00 51  -21.0098 26045.6 -03398.1 -07.4333 26266.4
 06 02 2013  00 52  -21.0099 26045.6 -03398.2 -07.4334 26266.4
 06 02 2013  00 53  -21.0098 26045.6 -03398.2 -07.4334 26266.4
 06 02 2013  00 54  -21.0098 26045.5 -03398.2 -07.4334 26266.3
 06 02 2013  00 55  -21.0098 26045.6 -03398.2 -07.4334 26266.3
 06 02 2013  00 56  -21.0100 26045.7 -03398.2 -07.4335 26266.4
 06 02 2013  00 57  -21.0101 26045.8 -03398.3 -07.4337 26266.5
 06 02 2013  00 58  -21.0102 26045.5 -03398.2 -07.4334 26266.2
 06 02 2013  00 59  -21.0103 26045.8 -03398.3 -07.4336 26266.5
 06 02 2013  01 00  -21.0101 26045.7 -03398.3 -07.4336 26266.4
 06 02 2013  01 01  -21.0101 26045.6 -03398.3 -07.4336 26266.4
 06 02 2013  01 02  -21.0102 26045.7 -03398.3 -07.4337 26266.5
 06 02 2013  01 03  -21.0102 26045.6 -03398.3 -07.4336 26266.4
 06 02 2013  01 04  -21.0103 26045.6 -03398.3 -07.4336 26266.3
 06 02 2013  01 05  -21.0105 26045.6 -03398.3 -07.4336 26266.3
 06 02 2013  01 06  -21.0107 26045.6 -03398.3 -07.4336 26266.4
 06 02 2013  01 07  -21.0107 26045.6 -03398.3 -07.4337 26266.4
 06 02 2013  01 08  -21.0107 26045.7 -03398.4 -07.4338 26266.5
 06 02 2013  01 09  -21.0108 26045.8 -03398.4 -07.4339 26266.5
 06 02 2013  01 10  -21.0107 26045.6 -03398.4 -07.4338 26266.4
 06 02 2013  01 11  -21.0106 26045.6 -03398.3 -07.4337 26266.3
 06 02 2013  01 12  -21.0105 26045.5 -03398.3 -07.4337 26266.2
 06 02 2013  01 13  -21.0104 26045.5 -03398.3 -07.4337 26266.2
 06 02 2013  01 14  -21.0108 26045.6 -03398.4 -07.4338 26266.3
 06 02 2013  01 15  -21.0111 26045.6 -03398.4 -07.4339 26266.3
 06 02 2013  01 16  -21.0110 26045.5 -03398.4 -07.4338 26266.3
 06 02 2013  01 17  -21.0112 26045.5 -03398.3 -07.4338 26266.3
 06 02 2013  01 18  -21.0112 26045.5 -03398.4 -07.4338 26266.3
 06 02 2013  01 19  -21.0112 26045.5 -03398.4 -07.4338 26266.3
 06 02 2013  01 20  -21.0112 26045.5 -03398.4 -07.4338 26266.2
 06 02 2013  01 21  -21.0112 26045.4 -03398.3 -07.4338 26266.2
 06 02 2013  01 22  -21.0112 26045.5 -03398.4 -07.4338 26266.2
 06 02 2013  01 23  -21.0112 26045.5 -03398.3 -07.4338 26266.2
 06 02 2013  01 24  -21.0111 26045.4 -03398.3 -07.4338 26266.1
 06 02 2013  01 25  -21.0112 26045.3 -03398.3 -07.4338 26266.1
 06 02 2013  01 26  -21.0112 26045.2 -03398.3 -07.4337 26266.0
 06 02 2013  01 27  -21.0113 26045.2 -03398.3 -07.4337 26265.9
 06 02 2013  01 28  -21.0114 26045.1 -03398.3 -07.4337 26265.9
 06 02 2013  01 29  -21.0115 26045.0 -03398.2 -07.4336 26265.7
 06 02 2013  01 30  -21.0117 26044.9 -03398.2 -07.4337 26265.7
 06 02 2013  01 31  -21.0117 26044.9 -03398.2 -07.4337 26265.6
 06 02 2013  01 32  -21.0117 26044.9 -03398.2 -07.4337 26265.7
 06 02 2013  01 33  -21.0117 26044.9 -03398.3 -07.4338 26265.7
 06 02 2013  01 34  -21.0117 26045.0 -03398.3 -07.4338 26265.7
 06 02 2013  01 35  -21.0116 26045.0 -03398.3 -07.4339 26265.8
 06 02 2013  01 36  -21.0117 26045.2 -03398.4 -07.4341 26266.0
 06 02 2013  01 37  -21.0118 26045.4 -03398.5 -07.4342 26266.2
 06 02 2013  01 38  -21.0115 26045.5 -03398.6 -07.4343 26266.3
 06 02 2013  01 39  -21.0117 26045.8 -03398.7 -07.4346 26266.6
 06 02 2013  01 40  -21.0119 26046.1 -03398.9 -07.4349 26266.9
 06 02 2013  01 41  -21.0120 26046.3 -03399.0 -07.4350 26267.1
 06 02 2013  01 42  -21.0122 26046.3 -03399.0 -07.4350 26267.2
 06 02 2013  01 43  -21.0122 26046.2 -03399.0 -07.4349 26267.1
 06 02 2013  01 44  -21.0119 26046.0 -03398.8 -07.4347 26266.9
 06 02 2013  01 45  -21.0118 26045.8 -03398.7 -07.4344 26266.6
 06 02 2013  01 46  -21.0115 26045.6 -03398.6 -07.4342 26266.4
 06 02 2013  01 47  -21.0115 26045.4 -03398.5 -07.4341 26266.2
 06 02 2013  01 48  -21.0114 26045.3 -03398.4 -07.4340 26266.0
 06 02 2013  01 49  -21.0115 26045.1 -03398.4 -07.4339 26265.9
 06 02 2013  01 50  -21.0115 26044.9 -03398.3 -07.4338 26265.7
 06 02 2013  01 51  -21.0115 26044.8 -03398.2 -07.4337 26265.5
 06 02 2013  01 52  -21.0117 26044.6 -03398.2 -07.4337 26265.4
 06 02 2013  01 53  -21.0118 26044.5 -03398.2 -07.4337 26265.3
 06 02 2013  01 54  -21.0119 26044.5 -03398.2 -07.4337 26265.3
 06 02 2013  01 55  -21.0121 26044.6 -03398.3 -07.4339 26265.4
 06 02 2013  01 56  -21.0123 26044.8 -03398.4 -07.4341 26265.5
 06 02 2013  01 57  -21.0124 26044.9 -03398.5 -07.4342 26265.7
 06 02 2013  01 58  -21.0126 26045.2 -03398.6 -07.4344 26266.0
 06 02 2013  01 59  -21.0129 26045.4 -03398.7 -07.4346 26266.2
 06 02 2013  02 00  -21.0129 26045.7 -03398.8 -07.4348 26266.5
 06 02 2013  02 01  -21.0132 26045.9 -03399.0 -07.4350 26266.7
 06 02 2013  02 02  -21.0133 26046.0 -03399.0 -07.4351 26266.9
 06 02 2013  02 03  -21.0133 26046.0 -03399.0 -07.4350 26266.9
 06 02 2013  02 04  -21.0132 26046.0 -03398.9 -07.4349 26266.9
 06 02 2013  02 05  -21.0132 26045.9 -03398.8 -07.4347 26266.7
 06 02 2013  02 06  -21.0132 26045.8 -03398.8 -07.4346 26266.6
 06 02 2013  02 07  -21.0131 26045.7 -03398.7 -07.4345 26266.5
 06 02 2013  02 08  -21.0130 26045.7 -03398.6 -07.4344 26266.5
 06 02 2013  02 09  -21.0129 26045.7 -03398.6 -07.4344 26266.5
 06 02 2013  02 10  -21.0129 26045.5 -03398.6 -07.4343 26266.3
 06 02 2013  02 11  -21.0129 26045.4 -03398.5 -07.4342 26266.2
 06 02 2013  02 12  -21.0129 26045.4 -03398.5 -07.4342 26266.1
 06 02 2013  02 13  -21.0129 26045.4 -03398.6 -07.4343 26266.2
 06 02 2013  02 14  -21.0129 26045.3 -03398.5 -07.4342 26266.0
 06 02 2013  02 15  -21.0131 26045.2 -03398.5 -07.4342 26266.0
 06 02 2013  02 16  -21.0132 26045.2 -03398.5 -07.4342 26266.0
 06 02 2013  02 17  -21.0132 26045.2 -03398.5 -07.4342 26266.0
 06 02 2013  02 18  -21.0133 26045.1 -03398.5 -07.4342 26265.9
 06 02 2013  02 19  -21.0134 26045.2 -03398.5 -07.4343 26266.0
 06 02 2013  02 20  -21.0133 26045.2 -03398.6 -07.4343 26266.0
 06 02 2013  02 21  -21.0133 26045.4 -03398.7 -07.4345 26266.2
 06 02 2013  02 22  -21.0132 26045.5 -03398.7 -07.4346 26266.3
 06 02 2013  02 23  -21.0132 26045.6 -03398.8 -07.4348 26266.5
 06 02 2013  02 24  -21.0132 26045.8 -03398.9 -07.4349 26266.6
 06 02 2013  02 25  -21.0132 26046.0 -03399.0 -07.4351 26266.9
 06 02 2013  02 26  -21.0130 26046.3 -03399.2 -07.4353 26267.2
 06 02 2013  02 27  -21.0128 26046.5 -03399.3 -07.4355 26267.4
 06 02 2013  02 28  -21.0128 26046.5 -03399.3 -07.4355 26267.4
 06 02 2013  02 29  -21.0129 26046.3 -03399.2 -07.4353 26267.2
 06 02 2013  02 30  -21.0128 26045.9 -03399.0 -07.4350 26266.8
 06 02 2013  02 31  -21.0127 26045.6 -03398.8 -07.4347 26266.4
 06 02 2013  02 32  -21.0127 26045.3 -03398.6 -07.4344 26266.1
 06 02 2013  02 33  -21.0127 26045.1 -03398.5 -07.4343 26265.9
 06 02 2013  02 34  -21.0130 26044.8 -03398.4 -07.4342 26265.6
 06 02 2013  02 35  -21.0133 26044.6 -03398.4 -07.4341 26265.3
 06 02 2013  02 36  -21.0135 26044.3 -03398.3 -07.4340 26265.1
 06 02 2013  02 37  -21.0134 26044.3 -03398.3 -07.4340 26265.1
 06 02 2013  02 38  -21.0138 26044.6 -03398.5 -07.4344 26265.4
 06 02 2013  02 39  -21.0146 26045.2 -03398.9 -07.4350 26266.0
 06 02 2013  02 40  -21.0151 26045.7 -03399.2 -07.4355 26266.6
 06 02 2013  02 41  -21.0154 26046.4 -03399.5 -07.4360 26267.3
 06 02 2013  02 42  -21.0154 26046.3 -03399.5 -07.4361 26267.2
 06 02 2013  02 43  -21.0155 26046.6 -03399.5 -07.4360 26267.5
 06 02 2013  02 44  -21.0155 26047.2 -03399.8 -07.4365 26268.2
 06 02 2013  02 45  -21.0157 26047.3 -03399.9 -07.4365 26268.3
 06 02 2013  02 46  -21.0155 26047.3 -03399.8 -07.4363 26268.2
 06 02 2013  02 47  -21.0151 26047.2 -03399.6 -07.4360 26268.1
 06 02 2013  02 48  -21.0149 26047.0 -03399.5 -07.4358 26267.9
 06 02 2013  02 49  -21.0147 26046.8 -03399.3 -07.4355 26267.6
 06 02 2013  02 50  -21.0145 26046.7 -03399.2 -07.4353 26267.5
 06 02 2013  02 51  -21.0142 26046.5 -03399.1 -07.4352 26267.3
 06 02 2013  02 52  -21.0141 26046.6 -03399.1 -07.4352 26267.4
 06 02 2013  02 53  -21.0140 26046.8 -03399.3 -07.4355 26267.7
 06 02 2013  02 54  -21.0139 26046.9 -03399.4 -07.4356 26267.8
 06 02 2013  02 55  -21.0138 26047.0 -03399.4 -07.4356 26267.8
 06 02 2013  02 56  -21.0137 26046.9 -03399.4 -07.4356 26267.8
 06 02 2013  02 57  -21.0137 26046.9 -03399.4 -07.4356 26267.8
 06 02 2013  02 58  -21.0137 26046.8 -03399.3 -07.4356 26267.6
 06 02 2013  02 59  -21.0137 26046.5 -03399.2 -07.4354 26267.4
 06 02 2013  03 00  -21.0137 26046.3 -03399.1 -07.4352 26267.2
 06 02 2013  03 01  -21.0137 26046.1 -03399.0 -07.4350 26267.0
 06 02 2013  03 02  -21.0137 26046.1 -03399.0 -07.4350 26266.9
 06 02 2013  03 03  -21.0137 26046.0 -03399.0 -07.4350 26266.9
 06 02 2013  03 04  -21.0138 26046.1 -03399.1 -07.4351 26267.0
 06 02 2013  03 05  -21.0140 26046.3 -03399.2 -07.4354 26267.2
 06 02 2013  03 06  -21.0140 26046.4 -03399.3 -07.4355 26267.3
 06 02 2013  03 07  -21.0140 26046.5 -03399.3 -07.4356 26267.4
 06 02 2013  03 08  -21.0141 26046.5 -03399.3 -07.4356 26267.4
 06 02 2013  03 09  -21.0141 26046.5 -03399.3 -07.4356 26267.4
 06 02 2013  03 10  -21.0139 26046.5 -03399.3 -07.4355 26267.4
 06 02 2013  03 11  -21.0139 26046.6 -03399.3 -07.4356 26267.5
 06 02 2013  03 12  -21.0142 26046.9 -03399.5 -07.4358 26267.8
 06 02 2013  03 13  -21.0140 26047.0 -03399.5 -07.4359 26268.0
 06 02 2013  03 14  -21.0140 26046.8 -03399.4 -07.4358 26267.7
 06 02 2013  03 15  -21.0142 26046.7 -03399.4 -07.4356 26267.6
 06 02 2013  03 16  -21.0141 26047.0 -03399.5 -07.4358 26267.9
 06 02 2013  03 17  -21.0141 26047.0 -03399.5 -07.4358 26267.9
 06 02 2013  03 18  -21.0141 26046.8 -03399.4 -07.4356 26267.7
 06 02 2013  03 19  -21.0141 26046.7 -03399.3 -07.4354 26267.5
 06 02 2013  03 20  -21.0142 26046.6 -03399.2 -07.4353 26267.4
 06 02 2013  03 21  -21.0142 26046.5 -03399.1 -07.4352 26267.4
 06 02 2013  03 22  -21.0144 26046.4 -03399.1 -07.4352 26267.3
 06 02 2013  03 23  -21.0145 26046.3 -03399.1 -07.4351 26267.2
 06 02 2013  03 24  -21.0145 26046.1 -03399.0 -07.4349 26266.9
 06 02 2013  03 25  -21.0148 26046.2 -03399.0 -07.4350 26267.0
 06 02 2013  03 26  -21.0147 26046.1 -03399.0 -07.4349 26266.9
 06 02 2013  03 27  -21.0149 26046.0 -03398.9 -07.4348 26266.8
 06 02 2013  03 28  -21.0149 26046.0 -03398.9 -07.4348 26266.8
 06 02 2013  03 29  -21.0150 26046.0 -03398.9 -07.4349 26266.8
 06 02 2013  03 30  -21.0152 26046.1 -03399.0 -07.4350 26267.0
 06 02 2013  03 31  -21.0153 26046.2 -03399.0 -07.4350 26267.1
 06 02 2013  03 32  -21.0152 26046.3 -03399.1 -07.4351 26267.2
 06 02 2013  03 33  -21.0154 26046.4 -03399.1 -07.4352 26267.3
 06 02 2013  03 34  -21.0155 26046.4 -03399.1 -07.4352 26267.3
 06 02 2013  03 35  -21.0155 26046.4 -03399.1 -07.4352 26267.2
 06 02 2013  03 36  -21.0155 26046.4 -03399.1 -07.4352 26267.3
 06 02 2013  03 37  -21.0156 26046.4 -03399.1 -07.4351 26267.3
 06 02 2013  03 38  -21.0157 26046.4 -03399.1 -07.4352 26267.3
 06 02 2013  03 39  -21.0158 26046.4 -03399.1 -07.4351 26267.3
 06 02 2013  03 40  -21.0158 26046.5 -03399.1 -07.4352 26267.3
 06 02 2013  03 41  -21.0159 26046.5 -03399.2 -07.4352 26267.4
 06 02 2013  03 42  -21.0161 26046.6 -03399.2 -07.4353 26267.4
 06 02 2013  03 43  -21.0160 26046.5 -03399.1 -07.4352 26267.4
 06 02 2013  03 44  -21.0161 26046.5 -03399.1 -07.4352 26267.4
 06 02 2013  03 45  -21.0162 26046.6 -03399.2 -07.4353 26267.5
 06 02 2013  03 46  -21.0163 26046.7 -03399.2 -07.4353 26267.5
 06 02 2013  03 47  -21.0164 26046.7 -03399.2 -07.4354 26267.6
 06 02 2013  03 48  -21.0164 26046.7 -03399.2 -07.4353 26267.6
 06 02 2013  03 49  -21.0164 26046.8 -03399.2 -07.4353 26267.6
 06 02 2013  03 50  -21.0165 26046.8 -03399.2 -07.4353 26267.6
 06 02 2013  03 51  -21.0165 26046.8 -03399.2 -07.4353 26267.6
 06 02 2013  03 52  -21.0164 26046.7 -03399.2 -07.4353 26267.6
 06 02 2013  03 53  -21.0165 26046.8 -03399.2 -07.4353 26267.7
 06 02 2013  03 54  -21.0166 26046.8 -03399.2 -07.4353 26267.7
 06 02 2013  03 55  -21.0167 26046.9 -03399.2 -07.4353 26267.8
 06 02 2013  03 56  -21.0169 26046.9 -03399.2 -07.4353 26267.8
 06 02 2013  03 57  -21.0170 26046.9 -03399.2 -07.4353 26267.8
 06 02 2013  03 58  -21.0172 26046.9 -03399.2 -07.4352 26267.7
 06 02 2013  03 59  -21.0172 26046.9 -03399.2 -07.4352 26267.8
 06 02 2013  04 00  -21.0172 26046.9 -03399.2 -07.4351 26267.8
 06 02 2013  04 01  -21.0172 26046.9 -03399.1 -07.4351 26267.8
 06 02 2013  04 02  -21.0172 26047.0 -03399.1 -07.4351 26267.9
 06 02 2013  04 03  -21.0173 26047.1 -03399.2 -07.4351 26267.9
 06 02 2013  04 04  -21.0173 26047.1 -03399.2 -07.4351 26268.0
 06 02 2013  04 05  -21.0173 26047.1 -03399.2 -07.4351 26268.0
 06 02 2013  04 06  -21.0174 26047.2 -03399.2 -07.4351 26268.0
 06 02 2013  04 07  -21.0174 26047.2 -03399.1 -07.4350 26268.0
 06 02 2013  04 08  -21.0174 26047.2 -03399.1 -07.4349 26268.0
 06 02 2013  04 09  -21.0175 26047.2 -03399.1 -07.4349 26268.0
 06 02 2013  04 10  -21.0175 26047.3 -03399.1 -07.4349 26268.1
 06 02 2013  04 11  -21.0175 26047.4 -03399.1 -07.4349 26268.3
 06 02 2013  04 12  -21.0176 26047.5 -03399.1 -07.4349 26268.4
 06 02 2013  04 13  -21.0176 26047.6 -03399.2 -07.4350 26268.4
 06 02 2013  04 14  -21.0176 26047.7 -03399.2 -07.4349 26268.5
 06 02 2013  04 15  -21.0176 26047.7 -03399.1 -07.4349 26268.5
 06 02 2013  04 16  -21.0176 26047.7 -03399.1 -07.4348 26268.6
 06 02 2013  04 17  -21.0176 26047.8 -03399.1 -07.4348 26268.6
 06 02 2013  04 18  -21.0176 26047.8 -03399.1 -07.4348 26268.7
 06 02 2013  04 19  -21.0176 26047.9 -03399.1 -07.4347 26268.7
 06 02 2013  04 20  -21.0177 26047.9 -03399.1 -07.4347 26268.7
 06 02 2013  04 21  -21.0177 26047.7 -03399.0 -07.4345 26268.5
 06 02 2013  04 22  -21.0176 26047.7 -03398.9 -07.4343 26268.5
 06 02 2013  04 23  -21.0175 26047.5 -03398.8 -07.4341 26268.4
 06 02 2013  04 24  -21.0174 26047.4 -03398.7 -07.4339 26268.2
 06 02 2013  04 25  -21.0173 26047.3 -03398.6 -07.4338 26268.0
 06 02 2013  04 26  -21.0173 26047.1 -03398.5 -07.4337 26267.9
 06 02 2013  04 27  -21.0173 26047.0 -03398.4 -07.4335 26267.8
 06 02 2013  04 28  -21.0173 26046.9 -03398.4 -07.4335 26267.6
 06 02 2013  04 29  -21.0173 26046.8 -03398.4 -07.4334 26267.6
 06 02 2013  04 30  -21.0175 26046.8 -03398.4 -07.4334 26267.6
 06 02 2013  04 31  -21.0177 26046.9 -03398.4 -07.4335 26267.7
 06 02 2013  04 32  -21.0178 26046.9 -03398.4 -07.4335 26267.7
 06 02 2013  04 33  -21.0179 26047.0 -03398.4 -07.4335 26267.8
 06 02 2013  04 34  -21.0180 26047.1 -03398.4 -07.4335 26267.9
 06 02 2013  04 35  -21.0181 26047.1 -03398.4 -07.4335 26267.9
 06 02 2013  04 36  -21.0181 26047.2 -03398.5 -07.4336 26267.9
 06 02 2013  04 37  -21.0180 26047.2 -03398.4 -07.4335 26267.9
 06 02 2013  04 38  -21.0180 26047.3 -03398.5 -07.4335 26268.0
 06 02 2013  04 39  -21.0179 26047.4 -03398.5 -07.4336 26268.1
 06 02 2013  04 40  -21.0179 26047.5 -03398.5 -07.4336 26268.3
 06 02 2013  04 41  -21.0179 26047.7 -03398.6 -07.4337 26268.4
 06 02 2013  04 42  -21.0179 26047.8 -03398.6 -07.4338 26268.6
 06 02 2013  04 43  -21.0178 26048.0 -03398.7 -07.4338 26268.7
 06 02 2013  04 44  -21.0178 26048.1 -03398.7 -07.4339 26268.9
 06 02 2013  04 45  -21.0179 26048.2 -03398.8 -07.4339 26269.0
 06 02 2013  04 46  -21.0178 26048.3 -03398.8 -07.4340 26269.1
 06 02 2013  04 47  -21.0177 26048.3 -03398.8 -07.4339 26269.1
 06 02 2013  04 48  -21.0176 26048.4 -03398.8 -07.4339 26269.2
 06 02 2013  04 49  -21.0174 26048.4 -03398.7 -07.4338 26269.2
 06 02 2013  04 50  -21.0172 26048.4 -03398.7 -07.4337 26269.2
 06 02 2013  04 51  -21.0170 26048.4 -03398.7 -07.4337 26269.1
 06 02 2013  04 52  -21.0168 26048.3 -03398.6 -07.4336 26269.1
 06 02 2013  04 53  -21.0167 26048.3 -03398.6 -07.4336 26269.1
 06 02 2013  04 54  -21.0165 26048.3 -03398.6 -07.4336 26269.1
 06 02 2013  04 55  -21.0164 26048.4 -03398.6 -07.4336 26269.2
 06 02 2013  04 56  -21.0162 26048.3 -03398.6 -07.4336 26269.1
 06 02 2013  04 57  -21.0161 26048.3 -03398.6 -07.4336 26269.0
 06 02 2013  04 58  -21.0161 26048.2 -03398.6 -07.4335 26269.0
 06 02 2013  04 59  -21.0160 26048.2 -03398.6 -07.4335 26269.0
 06 02 2013  05 00  -21.0160 26048.2 -03398.6 -07.4336 26269.0
 06 02 2013  05 01  -21.0160 26048.2 -03398.6 -07.4336 26269.0
 06 02 2013  05 02  -21.0159 26048.1 -03398.6 -07.4335 26268.9
 06 02 2013  05 03  -21.0159 26048.1 -03398.6 -07.4335 26268.9
 06 02 2013  05 04  -21.0160 26048.1 -03398.6 -07.4336 26268.9
 06 02 2013  05 05  -21.0161 26048.1 -03398.6 -07.4336 26268.8
 06 02 2013  05 06  -21.0160 26048.1 -03398.6 -07.4336 26268.9
 06 02 2013  05 07  -21.0160 26048.1 -03398.6 -07.4337 26268.9
 06 02 2013  05 08  -21.0160 26048.0 -03398.6 -07.4337 26268.8
 06 02 2013  05 09  -21.0159 26048.0 -03398.6 -07.4337 26268.8
 06 02 2013  05 10  -21.0159 26048.0 -03398.6 -07.4337 26268.8
 06 02 2013  05 11  -21.0159 26048.0 -03398.6 -07.4337 26268.8
 06 02 2013  05 12  -21.0159 26048.0 -03398.7 -07.4337 26268.8
 06 02 2013  05 13  -21.0160 26048.0 -03398.7 -07.4338 26268.8
 06 02 2013  05 14  -21.0161 26048.0 -03398.7 -07.4338 26268.8
 06 02 2013  05 15  -21.0161 26048.0 -03398.7 -07.4339 26268.8
 06 02 2013  05 16  -21.0161 26048.1 -03398.8 -07.4340 26268.9
 06 02 2013  05 17  -21.0161 26048.1 -03398.8 -07.4340 26268.9
 06 02 2013  05 18  -21.0162 26048.2 -03398.8 -07.4341 26269.0
 06 02 2013  05 19  -21.0162 26048.2 -03398.9 -07.4341 26269.1
 06 02 2013  05 20  -21.0163 26048.3 -03398.9 -07.4342 26269.2
 06 02 2013  05 21  -21.0164 26048.4 -03398.9 -07.4343 26269.2
 06 02 2013  05 22  -21.0165 26048.4 -03399.0 -07.4343 26269.2
 06 02 2013  05 23  -21.0165 26048.4 -03398.9 -07.4343 26269.2
 06 02 2013  05 24  -21.0166 26048.4 -03398.9 -07.4343 26269.2
 06 02 2013  05 25  -21.0167 26048.4 -03398.9 -07.4342 26269.2
 06 02 2013  05 26  -21.0169 26048.4 -03399.0 -07.4343 26269.2
 06 02 2013  05 27  -21.0170 26048.4 -03399.0 -07.4343 26269.3
 06 02 2013  05 28  -21.0171 26048.5 -03399.0 -07.4343 26269.3
 06 02 2013  05 29  -21.0172 26048.5 -03399.0 -07.4343 26269.3
 06 02 2013  05 30  -21.0171 26048.5 -03398.9 -07.4342 26269.3
 06 02 2013  05 31  -21.0171 26048.5 -03398.9 -07.4342 26269.3
 06 02 2013  05 32  -21.0172 26048.5 -03398.9 -07.4342 26269.3
 06 02 2013  05 33  -21.0172 26048.5 -03398.9 -07.4342 26269.4
 06 02 2013  05 34  -21.0171 26048.5 -03398.9 -07.4342 26269.4
 06 02 2013  05 35  -21.0172 26048.6 -03398.9 -07.4342 26269.4
 06 02 2013  05 36  -21.0172 26048.6 -03398.9 -07.4342 26269.4
 06 02 2013  05 37  -21.0171 26048.6 -03398.9 -07.4342 26269.4
 06 02 2013  05 38  -21.0171 26048.7 -03398.9 -07.4342 26269.5
 06 02 2013  05 39  -21.0171 26048.7 -03398.9 -07.4342 26269.5
 06 02 2013  05 40  -21.0170 26048.6 -03398.9 -07.4342 26269.5
 06 02 2013  05 41  -21.0170 26048.6 -03398.9 -07.4342 26269.4
 06 02 2013  05 42  -21.0169 26048.6 -03398.9 -07.4341 26269.4
 06 02 2013  05 43  -21.0170 26048.6 -03398.9 -07.4341 26269.4
 06 02 2013  05 44  -21.0169 26048.6 -03398.9 -07.4341 26269.4
 06 02 2013  05 45  -21.0170 26048.6 -03398.9 -07.4341 26269.4
 06 02 2013  05 46  -21.0170 26048.6 -03398.9 -07.4341 26269.4
 06 02 2013  05 47  -21.0171 26048.5 -03398.9 -07.4341 26269.3
 06 02 2013  05 48  -21.0172 26048.5 -03398.9 -07.4341 26269.3
 06 02 2013  05 49  -21.0172 26048.5 -03398.9 -07.4341 26269.3
 06 02 2013  05 50  -21.0173 26048.6 -03398.9 -07.4341 26269.4
 06 02 2013  05 51  -21.0173 26048.6 -03398.9 -07.4342 26269.4
 06 02 2013  05 52  -21.0173 26048.6 -03398.9 -07.4342 26269.4
 06 02 2013  05 53  -21.0174 26048.6 -03398.9 -07.4342 26269.4
 06 02 2013  05 54  -21.0175 26048.6 -03398.9 -07.4342 26269.4
 06 02 2013  05 55  -21.0175 26048.6 -03399.0 -07.4342 26269.4
 06 02 2013  05 56  -21.0175 26048.6 -03399.0 -07.4342 26269.5
 06 02 2013  05 57  -21.0174 26048.7 -03399.0 -07.4342 26269.5
 06 02 2013  05 58  -21.0173 26048.7 -03399.0 -07.4342 26269.5
 06 02 2013  05 59  -21.0173 26048.7 -03399.0 -07.4343 26269.5
 06 02 2013  06 00  -21.0173 26048.7 -03399.0 -07.4343 26269.5
 06 02 2013  06 01  -21.0173 26048.7 -03399.0 -07.4342 26269.5
 06 02 2013  06 02  -21.0172 26048.6 -03399.0 -07.4342 26269.5
 06 02 2013  06 03  -21.0172 26048.6 -03399.0 -07.4342 26269.5
 06 02 2013  06 04  -21.0172 26048.6 -03399.0 -07.4342 26269.5
 06 02 2013  06 05  -21.0173 26048.6 -03399.0 -07.4342 26269.4
 06 02 2013  06 06  -21.0173 26048.6 -03399.0 -07.4343 26269.4
 06 02 2013  06 07  -21.0175 26048.6 -03399.0 -07.4344 26269.4
 06 02 2013  06 08  -21.0175 26048.6 -03399.0 -07.4344 26269.5
 06 02 2013  06 09  -21.0175 26048.7 -03399.1 -07.4344 26269.5
 06 02 2013  06 10  -21.0174 26048.7 -03399.1 -07.4344 26269.5
 06 02 2013  06 11  -21.0175 26048.7 -03399.1 -07.4344 26269.5
 06 02 2013  06 12  -21.0175 26048.7 -03399.1 -07.4345 26269.5
 06 02 2013  06 13  -21.0175 26048.7 -03399.1 -07.4345 26269.5
 06 02 2013  06 14  -21.0176 26048.7 -03399.1 -07.4345 26269.5
 06 02 2013  06 15  -21.0175 26048.7 -03399.1 -07.4345 26269.5
 06 02 2013  06 16  -21.0176 26048.7 -03399.1 -07.4345 26269.5
 06 02 2013  06 17  -21.0175 26048.6 -03399.1 -07.4345 26269.5
 06 02 2013  06 18  -21.0175 26048.6 -03399.1 -07.4345 26269.5
 06 02 2013  06 19  -21.0175 26048.6 -03399.1 -07.4345 26269.5
 06 02 2013  06 20  -21.0177 26048.7 -03399.1 -07.4346 26269.5
 06 02 2013  06 21  -21.0177 26048.7 -03399.1 -07.4346 26269.5
 06 02 2013  06 22  -21.0178 26048.7 -03399.2 -07.4347 26269.5
 06 02 2013  06 23  -21.0178 26048.7 -03399.2 -07.4347 26269.6
 06 02 2013  06 24  -21.0177 26048.8 -03399.2 -07.4347 26269.6
 06 02 2013  06 25  -21.0177 26048.8 -03399.2 -07.4347 26269.6
 06 02 2013  06 26  -21.0176 26048.8 -03399.2 -07.4348 26269.7
 06 02 2013  06 27  -21.0174 26048.9 -03399.2 -07.4348 26269.7
 06 02 2013  06 28  -21.0173 26048.8 -03399.2 -07.4348 26269.7
 06 02 2013  06 29  -21.0172 26048.8 -03399.2 -07.4348 26269.6
 06 02 2013  06 30  -21.0171 26048.8 -03399.2 -07.4347 26269.6
 06 02 2013  06 31  -21.0170 26048.8 -03399.2 -07.4348 26269.6
 06 02 2013  06 32  -21.0170 26048.8 -03399.3 -07.4349 26269.7
 06 02 2013  06 33  -21.0169 26048.9 -03399.3 -07.4350 26269.7
 06 02 2013  06 34  -21.0168 26048.9 -03399.4 -07.4350 26269.8
 06 02 2013  06 35  -21.0167 26048.9 -03399.4 -07.4351 26269.8
 06 02 2013  06 36  -21.0167 26049.0 -03399.4 -07.4351 26269.8
 06 02 2013  06 37  -21.0167 26048.9 -03399.4 -07.4352 26269.8
 06 02 2013  06 38  -21.0167 26049.0 -03399.5 -07.4352 26269.9
 06 02 2013  06 39  -21.0166 26049.0 -03399.5 -07.4353 26269.9
 06 02 2013  06 40  -21.0167 26049.0 -03399.5 -07.4353 26269.9
 06 02 2013  06 41  -21.0166 26049.0 -03399.5 -07.4353 26269.9
 06 02 2013  06 42  -21.0167 26049.0 -03399.6 -07.4354 26269.9
 06 02 2013  06 43  -21.0169 26049.1 -03399.6 -07.4355 26270.0
 06 02 2013  06 44  -21.0169 26049.1 -03399.6 -07.4355 26270.0
 06 02 2013  06 45  -21.0169 26049.2 -03399.6 -07.4356 26270.1
 06 02 2013  06 46  -21.0168 26049.2 -03399.6 -07.4355 26270.1
 06 02 2013  06 47  -21.0169 26049.2 -03399.6 -07.4355 26270.1
 06 02 2013  06 48  -21.0168 26049.2 -03399.6 -07.4355 26270.1
 06 02 2013  06 49  -21.0169 26049.2 -03399.6 -07.4356 26270.1
 06 02 2013  06 50  -21.0169 26049.2 -03399.6 -07.4355 26270.1
 06 02 2013  06 51  -21.0171 26049.1 -03399.6 -07.4355 26270.0
 06 02 2013  06 52  -21.0171 26049.0 -03399.6 -07.4354 26269.9
 06 02 2013  06 53  -21.0171 26049.0 -03399.5 -07.4353 26269.9
 06 02 2013  06 54  -21.0172 26049.0 -03399.5 -07.4353 26269.9
 06 02 2013  06 55  -21.0173 26048.9 -03399.5 -07.4353 26269.8
 06 02 2013  06 56  -21.0173 26049.0 -03399.5 -07.4353 26269.9
 06 02 2013  06 57  -21.0172 26049.0 -03399.5 -07.4353 26269.9
 06 02 2013  06 58  -21.0171 26049.0 -03399.5 -07.4353 26269.9
 06 02 2013  06 59  -21.0171 26049.1 -03399.5 -07.4353 26269.9
 06 02 2013  07 00  -21.0178 26048.9 -03399.5 -07.4354 26269.8
 06 02 2013  07 01  -21.0174 26049.0 -03399.5 -07.4354 26269.9
 06 02 2013  07 02  -21.0171 26049.0 -03399.5 -07.4353 26269.9
 06 02 2013  07 03  -21.0175 26048.8 -03399.4 -07.4351 26269.7
 06 02 2013  07 04  -21.0175 26048.9 -03399.4 -07.4352 26269.8
 06 02 2013  07 05  -21.0172 26048.9 -03399.4 -07.4352 26269.8
 06 02 2013  07 06  -21.0173 26048.9 -03399.4 -07.4352 26269.7
 06 02 2013  07 07  -21.0174 26048.8 -03399.4 -07.4352 26269.7
 06 02 2013  07 08  -21.0176 26048.9 -03399.4 -07.4352 26269.7
 06 02 2013  07 09  -21.0169 26049.0 -03399.5 -07.4353 26269.9
 06 02 2013  07 10  -21.0167 26048.9 -03399.5 -07.4353 26269.8
 06 02 2013  07 11  -21.0172 26048.8 -03399.5 -07.4353 26269.7
 06 02 2013  07 12  -21.0170 26048.9 -03399.5 -07.4353 26269.8
 06 02 2013  07 13  -21.0167 26048.9 -03399.5 -07.4353 26269.8
 06 02 2013  07 14  -21.0167 26048.9 -03399.5 -07.4354 26269.8
 06 02 2013  07 15  -21.0166 26049.0 -03399.6 -07.4355 26269.9
 06 02 2013  07 16  -21.0168 26048.9 -03399.5 -07.4354 26269.7
 06 02 2013  07 17  -21.0166 26048.7 -03399.5 -07.4353 26269.6
 06 02 2013  07 18  -21.0163 26048.8 -03399.5 -07.4353 26269.6
 06 02 2013  07 19  -21.0163 26048.8 -03399.5 -07.4354 26269.6
 06 02 2013  07 20  -21.0164 26048.6 -03399.5 -07.4354 26269.5
 06 02 2013  07 21  -21.0163 26048.5 -03399.4 -07.4352 26269.4
 06 02 2013  07 22  -21.0160 26048.5 -03399.4 -07.4352 26269.4
 06 02 2013  07 23  -21.0160 26048.4 -03399.4 -07.4352 26269.3
 06 02 2013  07 24  -21.0161 26048.4 -03399.4 -07.4353 26269.3
 06 02 2013  07 25  -21.0161 26048.5 -03399.5 -07.4354 26269.4
 06 02 2013  07 26  -21.0162 26048.4 -03399.5 -07.4354 26269.3
 06 02 2013  07 27  -21.0163 26048.4 -03399.5 -07.4354 26269.3
 06 02 2013  07 28  -21.0159 26048.5 -03399.5 -07.4354 26269.4
 06 02 2013  07 29  -21.0166 26048.3 -03399.5 -07.4355 26269.2
 06 02 2013  07 30  -21.0163 26048.5 -03399.5 -07.4355 26269.4
 06 02 2013  07 31  -21.0160 26048.5 -03399.6 -07.4356 26269.4
 06 02 2013  07 32  -21.0160 26048.5 -03399.6 -07.4357 26269.4
 06 02 2013  07 33  -21.0161 26048.5 -03399.6 -07.4357 26269.4
 06 02 2013  07 34  -21.0159 26048.6 -03399.7 -07.4357 26269.6
 06 02 2013  07 35  -21.0156 26048.7 -03399.7 -07.4358 26269.6
 06 02 2013  07 36  -21.0157 26048.7 -03399.7 -07.4359 26269.6
 06 02 2013  07 37  -21.0155 26048.6 -03399.7 -07.4359 26269.6
 06 02 2013  07 38  -21.0154 26048.5 -03399.7 -07.4358 26269.4
 06 02 2013  07 39  -21.0152 26048.5 -03399.7 -07.4359 26269.5
 06 02 2013  07 40  -21.0153 26048.6 -03399.8 -07.4360 26269.5
 06 02 2013  07 41  -21.0152 26048.6 -03399.8 -07.4361 26269.6
 06 02 2013  07 42  -21.0150 26048.6 -03399.8 -07.4361 26269.5
 06 02 2013  07 43  -21.0152 26048.4 -03399.8 -07.4360 26269.4
 06 02 2013  07 44  -21.0151 26048.4 -03399.8 -07.4360 26269.4
 06 02 2013  07 45  -21.0150 26048.4 -03399.8 -07.4360 26269.4
 06 02 2013  07 46  -21.0150 26048.5 -03399.8 -07.4361 26269.4
 06 02 2013  07 47  -21.0152 26048.5 -03399.8 -07.4362 26269.4
 06 02 2013  07 48  -21.0150 26048.5 -03399.8 -07.4361 26269.4
 06 02 2013  07 49  -21.0150 26048.5 -03399.9 -07.4362 26269.4
 06 02 2013  07 50  -21.0150 26048.3 -03399.7 -07.4360 26269.2
 06 02 2013  07 51  -21.0150 26048.4 -03399.8 -07.4361 26269.3
 06 02 2013  07 52  -21.0152 26048.3 -03399.8 -07.4362 26269.3
 06 02 2013  07 53  -21.0151 26048.4 -03399.9 -07.4363 26269.3
 06 02 2013  07 54  -21.0150 26048.4 -03399.9 -07.4364 26269.4
 06 02 2013  07 55  -21.0150 26048.4 -03399.9 -07.4364 26269.4
 06 02 2013  07 56  -21.0148 26048.4 -03399.9 -07.4364 26269.3
 06 02 2013  07 57  -21.0148 26048.4 -03400.0 -07.4365 26269.4
 06 02 2013  07 58  -21.0150 26048.4 -03400.0 -07.4366 26269.4
 06 02 2013  07 59  -21.0150 26048.4 -03400.0 -07.4366 26269.4
 06 02 2013  08 00  -21.0149 26048.5 -03400.0 -07.4366 26269.4
 06 02 2013  08 01  -21.0149 26048.5 -03400.1 -07.4367 26269.4
 06 02 2013  08 02  -21.0149 26048.5 -03400.1 -07.4367 26269.5
 06 02 2013  08 03  -21.0151 26048.4 -03400.1 -07.4367 26269.4
 06 02 2013  08 04  -21.0151 26048.4 -03400.1 -07.4367 26269.4
 06 02 2013  08 05  -21.0152 26048.4 -03400.1 -07.4367 26269.4
 06 02 2013  08 06  -21.0153 26048.5 -03400.1 -07.4368 26269.4
 06 02 2013  08 07  -21.0153 26048.5 -03400.2 -07.4369 26269.5
 06 02 2013  08 08  -21.0153 26048.5 -03400.2 -07.4369 26269.5
 06 02 2013  08 09  -21.0152 26048.6 -03400.2 -07.4370 26269.6
 06 02 2013  08 10  -21.0150 26048.7 -03400.3 -07.4370 26269.7
 06 02 2013  08 11  -21.0147 26048.7 -03400.3 -07.4371 26269.7
 06 02 2013  08 12  -21.0144 26048.8 -03400.3 -07.4371 26269.8
 06 02 2013  08 13  -21.0138 26049.0 -03400.4 -07.4372 26270.0
 06 02 2013  08 14  -21.0133 26049.1 -03400.4 -07.4373 26270.1
 06 02 2013  08 15  -21.0131 26049.2 -03400.5 -07.4374 26270.2
 06 02 2013  08 16  -21.0126 26049.2 -03400.6 -07.4375 26270.3
 06 02 2013  08 17  -21.0122 26049.2 -03400.5 -07.4375 26270.2
 06 02 2013  08 18  -21.0118 26049.2 -03400.5 -07.4374 26270.2
 06 02 2013  08 19  -21.0120 26049.0 -03400.4 -07.4373 26270.0
 06 02 2013  08 20  -21.0122 26049.0 -03400.4 -07.4373 26270.0
 06 02 2013  08 21  -21.0118 26049.1 -03400.5 -07.4374 26270.1
 06 02 2013  08 22  -21.0116 26049.0 -03400.6 -07.4376 26270.0
 06 02 2013  08 23  -21.0115 26049.0 -03400.6 -07.4376 26270.1
 06 02 2013  08 24  -21.0114 26049.2 -03400.7 -07.4377 26270.3
 06 02 2013  08 25  -21.0115 26049.3 -03400.8 -07.4379 26270.4
 06 02 2013  08 26  -21.0113 26049.5 -03400.9 -07.4381 26270.5
 06 02 2013  08 27  -21.0110 26049.6 -03401.0 -07.4383 26270.7
 06 02 2013  08 28  -21.0107 26049.7 -03401.0 -07.4384 26270.8
 06 02 2013  08 29  -21.0108 26049.7 -03401.0 -07.4383 26270.8
 06 02 2013  08 30  -21.0108 26049.8 -03401.0 -07.4384 26270.8
 06 02 2013  08 31  -21.0106 26049.8 -03401.0 -07.4383 26270.8
 06 02 2013  08 32  -21.0105 26049.7 -03400.9 -07.4380 26270.7
 06 02 2013  08 33  -21.0106 26049.6 -03400.8 -07.4380 26270.6
 06 02 2013  08 34  -21.0108 26049.6 -03400.9 -07.4381 26270.7
 06 02 2013  08 35  -21.0106 26049.7 -03400.9 -07.4380 26270.7
 06 02 2013  08 36  -21.0106 26049.6 -03400.8 -07.4379 26270.7
 06 02 2013  08 37  -21.0106 26049.6 -03400.7 -07.4377 26270.6
 06 02 2013  08 38  -21.0106 26049.5 -03400.7 -07.4377 26270.5
 06 02 2013  08 39  -21.0106 26049.6 -03400.7 -07.4376 26270.7
 06 02 2013  08 40  -21.0104 26049.7 -03400.6 -07.4376 26270.7
 06 02 2013  08 41  -21.0107 26049.5 -03400.6 -07.4374 26270.5
 06 02 2013  08 42  -21.0104 26049.6 -03400.5 -07.4373 26270.6
 06 02 2013  08 43  -21.0100 26049.5 -03400.4 -07.4372 26270.6
 06 02 2013  08 44  -21.0101 26049.3 -03400.3 -07.4370 26270.3
 06 02 2013  08 45  -21.0095 26049.5 -03400.3 -07.4369 26270.4
 06 02 2013  08 46  -21.0094 26049.2 -03400.2 -07.4367 26270.1
 06 02 2013  08 47  -21.0093 26048.9 -03400.0 -07.4364 26269.9
 06 02 2013  08 48  -21.0089 26049.0 -03399.9 -07.4363 26269.9
 06 02 2013  08 49  -21.0086 26048.9 -03399.9 -07.4361 26269.8
 06 02 2013  08 50  -21.0082 26048.7 -03399.8 -07.4359 26269.6
 06 02 2013  08 51  -21.0082 26048.6 -03399.7 -07.4358 26269.5
 06 02 2013  08 52  -21.0078 26048.4 -03399.6 -07.4356 26269.3
 06 02 2013  08 53  -21.0075 26048.3 -03399.5 -07.4355 26269.2
 06 02 2013  08 54  -21.0071 26048.4 -03399.5 -07.4354 26269.3
 06 02 2013  08 55  -21.0067 26048.2 -03399.4 -07.4352 26269.1
 06 02 2013  08 56  -21.0061 26048.0 -03399.4 -07.4353 26268.9
 06 02 2013  08 57  -21.0055 26047.8 -03399.4 -07.4354 26268.7
 06 02 2013  08 58  -21.0050 26047.6 -03399.4 -07.4354 26268.5
 06 02 2013  08 59  -21.0042 26047.5 -03399.4 -07.4356 26268.4
 06 02 2013  09 00  -21.0038 26047.4 -03399.5 -07.4358 26268.3
 06 02 2013  09 01  -21.0035 26047.2 -03399.6 -07.4361 26268.1
 06 02 2013  09 02  -21.0030 26047.2 -03399.8 -07.4364 26268.1
 06 02 2013  09 03  -21.0027 26047.0 -03399.9 -07.4367 26268.0
 06 02 2013  09 04  -21.0022 26046.9 -03400.0 -07.4371 26267.9
 06 02 2013  09 05  -21.0018 26047.0 -03400.3 -07.4375 26268.0
 06 02 2013  09 06  -21.0017 26046.9 -03400.4 -07.4379 26267.9
 06 02 2013  09 07  -21.0016 26046.9 -03400.6 -07.4384 26267.9
 06 02 2013  09 08  -21.0016 26047.0 -03400.9 -07.4389 26268.1
 06 02 2013  09 09  -21.0018 26047.0 -03401.1 -07.4393 26268.1
 06 02 2013  09 10  -21.0017 26047.1 -03401.3 -07.4398 26268.2
 06 02 2013  09 11  -21.0016 26047.0 -03401.5 -07.4402 26268.2
 06 02 2013  09 12  -21.0019 26046.9 -03401.6 -07.4405 26268.1
 06 02 2013  09 13  -21.0021 26046.9 -03401.8 -07.4409 26268.1
 06 02 2013  09 14  -21.0026 26046.9 -03402.0 -07.4413 26268.1
 06 02 2013  09 15  -21.0031 26046.9 -03402.2 -07.4416 26268.1
 06 02 2013  09 16  -21.0034 26046.8 -03402.3 -07.4420 26268.1
 06 02 2013  09 17  -21.0039 26046.9 -03402.5 -07.4423 26268.2
 06 02 2013  09 18  -21.0045 26047.1 -03402.7 -07.4426 26268.4
 06 02 2013  09 19  -21.0049 26047.2 -03402.8 -07.4430 26268.5
 06 02 2013  09 20  -21.0054 26047.2 -03402.9 -07.4433 26268.5
 06 02 2013  09 21  -21.0059 26047.3 -03403.1 -07.4435 26268.7
 06 02 2013  09 22  -21.0064 26047.5 -03403.2 -07.4438 26268.8
 06 02 2013  09 23  -21.0069 26047.5 -03403.3 -07.4439 26268.9
 06 02 2013  09 24  -21.0072 26047.5 -03403.3 -07.4440 26268.9
 06 02 2013  09 25  -21.0075 26047.5 -03403.4 -07.4442 26268.9
 06 02 2013  09 26  -21.0075 26047.1 -03403.3 -07.4441 26268.5
 06 02 2013  09 27  -21.0080 26047.2 -03403.4 -07.4442 26268.6
 06 02 2013  09 28  -21.0089 26047.5 -03403.6 -07.4446 26268.9
 06 02 2013  09 29  -21.0095 26047.7 -03403.8 -07.4449 26269.2
 06 02 2013  09 30  -21.0100 26047.8 -03403.9 -07.4450 26269.2
 06 02 2013  09 31  -21.0102 26047.7 -03403.8 -07.4450 26269.1
 06 02 2013  09 32  -21.0105 26047.5 -03403.8 -07.4451 26269.0
 06 02 2013  09 33  -21.0113 26047.6 -03403.9 -07.4453 26269.1
 06 02 2013  09 34  -21.0122 26047.7 -03404.1 -07.4456 26269.2
 06 02 2013  09 35  -21.0127 26047.8 -03404.1 -07.4457 26269.3
 06 02 2013  09 36  -21.0132 26047.7 -03404.1 -07.4457 26269.2
 06 02 2013  09 37  -21.0136 26047.6 -03404.2 -07.4458 26269.1
 06 02 2013  09 38  -21.0140 26047.6 -03404.2 -07.4458 26269.1
 06 02 2013  09 39  -21.0144 26047.6 -03404.3 -07.4460 26269.1
 06 02 2013  09 40  -21.0151 26047.5 -03404.3 -07.4461 26269.1
 06 02 2013  09 41  -21.0154 26047.5 -03404.3 -07.4461 26269.0
 06 02 2013  09 42  -21.0159 26047.5 -03404.4 -07.4463 26269.0
 06 02 2013  09 43  -21.0163 26047.5 -03404.4 -07.4464 26269.1
 06 02 2013  09 44  -21.0170 26047.7 -03404.6 -07.4467 26269.3
 06 02 2013  09 45  -21.0176 26047.8 -03404.7 -07.4468 26269.4
 06 02 2013  09 46  -21.0179 26047.7 -03404.7 -07.4469 26269.3
 06 02 2013  09 47  -21.0182 26047.7 -03404.7 -07.4469 26269.3
 06 02 2013  09 48  -21.0186 26047.8 -03404.7 -07.4470 26269.4
 06 02 2013  09 49  -21.0191 26047.9 -03404.8 -07.4471 26269.5
 06 02 2013  09 50  -21.0197 26048.1 -03404.9 -07.4473 26269.7
 06 02 2013  09 51  -21.0203 26048.3 -03405.1 -07.4475 26269.9
 06 02 2013  09 52  -21.0207 26048.5 -03405.1 -07.4476 26270.1
 06 02 2013  09 53  -21.0211 26048.6 -03405.2 -07.4477 26270.2
 06 02 2013  09 54  -21.0217 26048.8 -03405.3 -07.4478 26270.4
 06 02 2013  09 55  -21.0222 26048.8 -03405.3 -07.4479 26270.4
 06 02 2013  09 56  -21.0227 26048.9 -03405.3 -07.4478 26270.5
 06 02 2013  09 57  -21.0232 26048.9 -03405.3 -07.4478 26270.6
 06 02 2013  09 58  -21.0238 26049.0 -03405.3 -07.4478 26270.6
 06 02 2013  09 59  -21.0239 26048.8 -03405.2 -07.4477 26270.5
 06 02 2013  10 00  -21.0239 26048.9 -03405.2 -07.4477 26270.5
 06 02 2013  10 01  -21.0244 26049.1 -03405.3 -07.4479 26270.8
 06 02 2013  10 02  -21.0247 26049.2 -03405.4 -07.4479 26270.8
 06 02 2013  10 03  -21.0250 26049.2 -03405.4 -07.4480 26270.9
 06 02 2013  10 04  -21.0259 26049.5 -03405.5 -07.4481 26271.1
 06 02 2013  10 05  -21.0264 26049.6 -03405.5 -07.4482 26271.3
 06 02 2013  10 06  -21.0267 26049.7 -03405.6 -07.4483 26271.4
 06 02 2013  10 07  -21.0268 26049.7 -03405.6 -07.4483 26271.4
 06 02 2013  10 08  -21.0269 26049.8 -03405.6 -07.4482 26271.4
 06 02 2013  10 09  -21.0278 26050.1 -03405.7 -07.4484 26271.8
 06 02 2013  10 10  -21.0285 26050.3 -03405.7 -07.4484 26271.9
 06 02 2013  10 11  -21.0287 26050.5 -03405.8 -07.4484 26272.2
 06 02 2013  10 12  -21.0288 26050.4 -03405.7 -07.4483 26272.1
 06 02 2013  10 13  -21.0288 26050.3 -03405.6 -07.4481 26272.0
 06 02 2013  10 14  -21.0289 26050.3 -03405.6 -07.4481 26272.0
 06 02 2013  10 15  -21.0290 26050.2 -03405.6 -07.4482 26271.9
 06 02 2013  10 16  -21.0294 26050.3 -03405.7 -07.4484 26272.0
 06 02 2013  10 17  -21.0300 26050.4 -03405.8 -07.4485 26272.1
 06 02 2013  10 18  -21.0305 26050.6 -03405.9 -07.4487 26272.3
 06 02 2013  10 19  -21.0311 26050.7 -03406.0 -07.4488 26272.4
 06 02 2013  10 20  -21.0314 26050.8 -03406.0 -07.4488 26272.5
 06 02 2013  10 21  -21.0317 26050.7 -03406.0 -07.4488 26272.4
 06 02 2013  10 22  -21.0321 26050.8 -03406.0 -07.4489 26272.5
 06 02 2013  10 23  -21.0325 26050.9 -03406.1 -07.4489 26272.6
 06 02 2013  10 24  -21.0328 26051.0 -03406.1 -07.4489 26272.7
 06 02 2013  10 25  -21.0333 26051.2 -03406.1 -07.4490 26272.9
 06 02 2013  10 26  -21.0341 26051.4 -03406.2 -07.4491 26273.2
 06 02 2013  10 27  -21.0349 26051.5 -03406.2 -07.4490 26273.2
 06 02 2013  10 28  -21.0356 26051.5 -03406.1 -07.4489 26273.3
 06 02 2013  10 29  -21.0354 26051.3 -03405.9 -07.4486 26273.0
 06 02 2013  10 30  -21.0356 26051.1 -03405.8 -07.4484 26272.8
 06 02 2013  10 31  -21.0361 26051.1 -03405.8 -07.4483 26272.8
 06 02 2013  10 32  -21.0364 26051.0 -03405.8 -07.4483 26272.6
 06 02 2013  10 33  -21.0366 26051.0 -03405.8 -07.4483 26272.6
 06 02 2013  10 34  -21.0371 26051.1 -03405.8 -07.4484 26272.8
 06 02 2013  10 35  -21.0376 26051.2 -03405.9 -07.4485 26272.9
 06 02 2013  10 36  -21.0379 26051.4 -03405.9 -07.4485 26273.1
 06 02 2013  10 37  -21.0384 26051.5 -03405.9 -07.4485 26273.2
 06 02 2013  10 38  -21.0386 26051.8 -03405.9 -07.4485 26273.5
 06 02 2013  10 39  -21.0386 26051.9 -03405.9 -07.4483 26273.6
 06 02 2013  10 40  -21.0392 26052.1 -03405.9 -07.4483 26273.8
 06 02 2013  10 41  -21.0396 26052.5 -03406.0 -07.4483 26274.2
 06 02 2013  10 42  -21.0400 26052.8 -03405.9 -07.4481 26274.5
 06 02 2013  10 43  -21.0406 26053.1 -03405.9 -07.4479 26274.8
 06 02 2013  10 44  -21.0410 26053.4 -03405.8 -07.4477 26275.1
 06 02 2013  10 45  -21.0414 26053.5 -03405.7 -07.4475 26275.2
 06 02 2013  10 46  -21.0416 26053.6 -03405.6 -07.4472 26275.2
 06 02 2013  10 47  -21.0415 26053.7 -03405.5 -07.4469 26275.3
 06 02 2013  10 48  -21.0415 26053.8 -03405.4 -07.4467 26275.4
 06 02 2013  10 49  -21.0418 26054.1 -03405.4 -07.4465 26275.7
 06 02 2013  10 50  -21.0418 26054.4 -03405.3 -07.4464 26276.0
 06 02 2013  10 51  -21.0419 26054.6 -03405.2 -07.4461 26276.2
 06 02 2013  10 52  -21.0421 26054.8 -03405.1 -07.4458 26276.4
 06 02 2013  10 53  -21.0420 26054.9 -03405.0 -07.4455 26276.4
 06 02 2013  10 54  -21.0421 26055.0 -03404.9 -07.4453 26276.5
 06 02 2013  10 55  -21.0421 26055.2 -03404.8 -07.4450 26276.7
 06 02 2013  10 56  -21.0421 26055.3 -03404.7 -07.4448 26276.8
 06 02 2013  10 57  -21.0421 26055.3 -03404.6 -07.4445 26276.8
 06 02 2013  10 58  -21.0422 26055.4 -03404.5 -07.4442 26276.8
 06 02 2013  10 59  -21.0425 26055.4 -03404.4 -07.4441 26276.9
 06 02 2013  11 00  -21.0424 26055.4 -03404.3 -07.4439 26276.9
 06 02 2013  11 01  -21.0422 26055.5 -03404.2 -07.4437 26276.9
 06 02 2013  11 02  -21.0424 26055.5 -03404.2 -07.4436 26276.9
 06 02 2013  11 03  -21.0425 26055.6 -03404.1 -07.4434 26277.0
 06 02 2013  11 04  -21.0428 26055.8 -03404.1 -07.4433 26277.2
 06 02 2013  11 05  -21.0428 26055.9 -03404.0 -07.4431 26277.3
 06 02 2013  11 06  -21.0428 26056.0 -03404.0 -07.4430 26277.4
 06 02 2013  11 07  -21.0427 26056.1 -03404.0 -07.4429 26277.5
 06 02 2013  11 08  -21.0427 26056.5 -03404.0 -07.4429 26277.9
 06 02 2013  11 09  -21.0425 26056.8 -03404.0 -07.4428 26278.2
 06 02 2013  11 10  -21.0424 26057.0 -03403.9 -07.4425 26278.4
 06 02 2013  11 11  -21.0428 26057.4 -03403.8 -07.4423 26278.7
 06 02 2013  11 12  -21.0431 26057.5 -03403.7 -07.4420 26278.9
 06 02 2013  11 13  -21.0431 26057.7 -03403.6 -07.4417 26279.0
 06 02 2013  11 14  -21.0431 26057.8 -03403.5 -07.4413 26279.2
 06 02 2013  11 15  -21.0430 26057.8 -03403.2 -07.4409 26279.1
 06 02 2013  11 16  -21.0432 26057.8 -03403.1 -07.4405 26279.1
 06 02 2013  11 17  -21.0430 26057.7 -03402.8 -07.4400 26279.0
 06 02 2013  11 18  -21.0428 26057.7 -03402.6 -07.4396 26278.9
 06 02 2013  11 19  -21.0429 26057.7 -03402.5 -07.4394 26278.9
 06 02 2013  11 20  -21.0425 26057.6 -03402.4 -07.4391 26278.8
 06 02 2013  11 21  -21.0422 26057.6 -03402.2 -07.4388 26278.8
 06 02 2013  11 22  -21.0420 26057.7 -03402.2 -07.4386 26278.9
 06 02 2013  11 23  -21.0416 26057.7 -03402.0 -07.4383 26278.8
 06 02 2013  11 24  -21.0414 26058.0 -03402.0 -07.4383 26279.1
 06 02 2013  11 25  -21.0409 26058.3 -03402.0 -07.4381 26279.4
 06 02 2013  11 26  -21.0406 26058.5 -03402.0 -07.4379 26279.6
 06 02 2013  11 27  -21.0406 26058.9 -03401.9 -07.4377 26280.0
 06 02 2013  11 28  -21.0404 26059.2 -03401.9 -07.4375 26280.3
 06 02 2013  11 29  -21.0403 26059.5 -03401.8 -07.4373 26280.5
 06 02 2013  11 30  -21.0402 26059.7 -03401.7 -07.4370 26280.7
 06 02 2013  11 31  -21.0401 26059.8 -03401.6 -07.4367 26280.9
 06 02 2013  11 32  -21.0397 26060.0 -03401.5 -07.4365 26281.1
 06 02 2013  11 33  -21.0396 26060.1 -03401.4 -07.4362 26281.2
 06 02 2013  11 34  -21.0393 26060.3 -03401.3 -07.4360 26281.3
 06 02 2013  11 35  -21.0388 26060.5 -03401.2 -07.4358 26281.5
 06 02 2013  11 36  -21.0386 26060.6 -03401.1 -07.4356 26281.6
 06 02 2013  11 37  -21.0385 26060.8 -03401.1 -07.4354 26281.8
 06 02 2013  11 38  -21.0384 26061.0 -03401.1 -07.4353 26282.0
 06 02 2013  11 39  -21.0382 26061.2 -03401.0 -07.4351 26282.1
 06 02 2013  11 40  -21.0381 26061.3 -03400.9 -07.4349 26282.3
 06 02 2013  11 41  -21.0380 26061.5 -03400.8 -07.4347 26282.4
 06 02 2013  11 42  -21.0380 26061.6 -03400.8 -07.4345 26282.6
 06 02 2013  11 43  -21.0380 26061.8 -03400.7 -07.4344 26282.7
 06 02 2013  11 44  -21.0379 26061.9 -03400.6 -07.4340 26282.9
 06 02 2013  11 45  -21.0378 26062.1 -03400.6 -07.4339 26283.0
 06 02 2013  11 46  -21.0377 26062.2 -03400.5 -07.4338 26283.1
 06 02 2013  11 47  -21.0376 26062.3 -03400.5 -07.4336 26283.2
 06 02 2013  11 48  -21.0375 26062.6 -03400.4 -07.4335 26283.5
 06 02 2013  11 49  -21.0375 26063.0 -03400.5 -07.4335 26283.9
 06 02 2013  11 50  -21.0373 26063.3 -03400.5 -07.4334 26284.2
 06 02 2013  11 51  -21.0371 26063.5 -03400.4 -07.4332 26284.4
 06 02 2013  11 52  -21.0378 26063.9 -03400.4 -07.4329 26284.8
 06 02 2013  11 53  -21.0391 26064.0 -03400.1 -07.4323 26284.9
 06 02 2013  11 54  -21.0368 26064.3 -03400.2 -07.4325 26285.1
 06 02 2013  11 55  -21.0367 26064.4 -03400.1 -07.4322 26285.2
 06 02 2013  11 56  -21.0401 26064.3 -03399.7 -07.4314 26285.1
 06 02 2013  11 57  -21.0406 26064.5 -03399.6 -07.4311 26285.3
 06 02 2013  11 58  -21.0401 26064.6 -03399.5 -07.4308 26285.4
 06 02 2013  11 59  -21.0398 26064.7 -03399.4 -07.4307 26285.4
 06 02 2013  12 00  -21.0395 26064.9 -03399.4 -07.4306 26285.6
 06 02 2013  12 01  -21.0392 26065.1 -03399.4 -07.4305 26285.9
 06 02 2013  12 02  -21.0388 26065.5 -03399.5 -07.4305 26286.3
 06 02 2013  12 03  -21.0389 26066.0 -03399.5 -07.4304 26286.8
 06 02 2013  12 04  -21.0364 26066.8 -03399.7 -07.4306 26287.6
 06 02 2013  12 05  -21.0344 26067.0 -03399.8 -07.4308 26287.8
 06 02 2013  12 06  -21.0340 26067.1 -03399.7 -07.4307 26287.9
 06 02 2013  12 07  -21.0335 26067.3 -03399.7 -07.4306 26288.1
 06 02 2013  12 08  -21.0332 26067.6 -03399.7 -07.4305 26288.4
 06 02 2013  12 09  -21.0331 26068.0 -03399.8 -07.4305 26288.8
 06 02 2013  12 10  -21.0328 26068.3 -03399.8 -07.4305 26289.0
 06 02 2013  12 11  -21.0324 26068.6 -03399.8 -07.4304 26289.4
 06 02 2013  12 12  -21.0320 26068.9 -03399.8 -07.4304 26289.6
 06 02 2013  12 13  -21.0316 26069.2 -03399.9 -07.4304 26290.0
 06 02 2013  12 14  -21.0313 26069.4 -03399.8 -07.4303 26290.2
 06 02 2013  12 15  -21.0310 26069.7 -03399.8 -07.4302 26290.4
 06 02 2013  12 16  -21.0308 26070.0 -03399.9 -07.4303 26290.8
 06 02 2013  12 17  -21.0307 26070.2 -03400.0 -07.4303 26291.0
 06 02 2013  12 18  -21.0305 26070.4 -03399.9 -07.4302 26291.2
 06 02 2013  12 19  -21.0302 26070.6 -03400.0 -07.4302 26291.4
 06 02 2013  12 20  -21.0299 26070.8 -03400.0 -07.4302 26291.6
 06 02 2013  12 21  -21.0295 26071.0 -03400.0 -07.4301 26291.7
 06 02 2013  12 22  -21.0293 26071.1 -03400.0 -07.4301 26291.9
 06 02 2013  12 23  -21.0291 26071.4 -03400.1 -07.4302 26292.2
 06 02 2013  12 24  -21.0289 26071.9 -03400.2 -07.4305 26292.7
 06 02 2013  12 25  -21.0285 26072.3 -03400.3 -07.4305 26293.1
 06 02 2013  12 26  -21.0279 26072.6 -03400.4 -07.4306 26293.4
 06 02 2013  12 27  -21.0271 26073.0 -03400.4 -07.4305 26293.8
 06 02 2013  12 28  -21.0267 26073.4 -03400.5 -07.4307 26294.2
 06 02 2013  12 29  -21.0263 26073.8 -03400.7 -07.4309 26294.7
 06 02 2013  12 30  -21.0260 26074.3 -03400.9 -07.4311 26295.2
 06 02 2013  12 31  -21.0257 26074.7 -03401.0 -07.4313 26295.6
 06 02 2013  12 32  -21.0254 26075.2 -03401.2 -07.4315 26296.1
 06 02 2013  12 33  -21.0251 26075.5 -03401.3 -07.4316 26296.4
 06 02 2013  12 34  -21.0247 26075.9 -03401.4 -07.4318 26296.8
 06 02 2013  12 35  -21.0243 26076.1 -03401.5 -07.4319 26297.1
 06 02 2013  12 36  -21.0240 26076.4 -03401.5 -07.4320 26297.3
 06 02 2013  12 37  -21.0239 26076.7 -03401.7 -07.4322 26297.6
 06 02 2013  12 38  -21.0238 26076.9 -03401.8 -07.4324 26297.9
 06 02 2013  12 39  -21.0235 26077.2 -03401.9 -07.4326 26298.1
 06 02 2013  12 40  -21.0234 26077.4 -03402.1 -07.4328 26298.4
 06 02 2013  12 41  -21.0231 26077.9 -03402.3 -07.4331 26298.9
 06 02 2013  12 42  -21.0230 26078.0 -03402.3 -07.4333 26299.0
 06 02 2013  12 43  -21.0229 26078.0 -03402.4 -07.4333 26299.1
 06 02 2013  12 44  -21.0227 26078.3 -03402.6 -07.4337 26299.3
 06 02 2013  12 45  -21.0227 26078.7 -03402.8 -07.4341 26299.8
 06 02 2013  12 46  -21.0223 26079.1 -03403.0 -07.4344 26300.2
 06 02 2013  12 47  -21.0222 26079.4 -03403.2 -07.4346 26300.5
 06 02 2013  12 48  -21.0221 26079.7 -03403.3 -07.4348 26300.8
 06 02 2013  12 49  -21.0220 26079.9 -03403.4 -07.4350 26301.1
 06 02 2013  12 50  -21.0220 26080.3 -03403.6 -07.4352 26301.4
 06 02 2013  12 51  -21.0220 26080.6 -03403.7 -07.4354 26301.8
 06 02 2013  12 52  -21.0221 26080.9 -03403.7 -07.4354 26302.0
 06 02 2013  12 53  -21.0223 26081.1 -03403.8 -07.4355 26302.3
 06 02 2013  12 54  -21.0225 26081.4 -03403.9 -07.4356 26302.6
 06 02 2013  12 55  -21.0226 26081.6 -03403.9 -07.4356 26302.8
 06 02 2013  12 56  -21.0226 26081.9 -03404.0 -07.4357 26303.0
 06 02 2013  12 57  -21.0227 26082.1 -03404.0 -07.4358 26303.3
 06 02 2013  12 58  -21.0227 26082.3 -03404.0 -07.4357 26303.5
 06 02 2013  12 59  -21.0228 26082.4 -03404.0 -07.4356 26303.6
 06 02 2013  13 00  -21.0229 26082.7 -03404.1 -07.4357 26303.9
 06 02 2013  13 01  -21.0229 26082.9 -03404.1 -07.4357 26304.1
 06 02 2013  13 02  -21.0228 26083.2 -03404.1 -07.4356 26304.3
 06 02 2013  13 03  -21.0226 26083.3 -03404.1 -07.4356 26304.5
 06 02 2013  13 04  -21.0225 26083.5 -03404.1 -07.4356 26304.7
 06 02 2013  13 05  -21.0223 26083.7 -03404.1 -07.4355 26304.9
 06 02 2013  13 06  -21.0220 26083.8 -03404.1 -07.4354 26305.0
 06 02 2013  13 07  -21.0218 26084.0 -03404.1 -07.4354 26305.1
 06 02 2013  13 08  -21.0214 26084.1 -03404.1 -07.4353 26305.3
 06 02 2013  13 09  -21.0209 26084.4 -03404.1 -07.4353 26305.6
 06 02 2013  13 10  -21.0206 26084.6 -03404.1 -07.4353 26305.8
 06 02 2013  13 11  -21.0203 26084.8 -03404.1 -07.4351 26306.0
 06 02 2013  13 12  -21.0199 26085.0 -03404.1 -07.4350 26306.1
 06 02 2013  13 13  -21.0195 26085.0 -03404.0 -07.4349 26306.2
 06 02 2013  13 14  -21.0192 26085.2 -03404.0 -07.4349 26306.3
 06 02 2013  13 15  -21.0187 26085.3 -03404.0 -07.4348 26306.5
 06 02 2013  13 16  -21.0184 26085.5 -03404.0 -07.4348 26306.7
 06 02 2013  13 17  -21.0181 26085.6 -03404.0 -07.4347 26306.8
 06 02 2013  13 18  -21.0177 26085.8 -03404.0 -07.4347 26307.0
 06 02 2013  13 19  -21.0175 26086.0 -03404.0 -07.4347 26307.2
 06 02 2013  13 20  -21.0170 26086.1 -03404.0 -07.4346 26307.3
 06 02 2013  13 21  -21.0168 26086.4 -03404.0 -07.4345 26307.6
 06 02 2013  13 22  -21.0166 26086.6 -03404.0 -07.4344 26307.8
 06 02 2013  13 23  -21.0163 26086.7 -03403.9 -07.4341 26307.8
 06 02 2013  13 24  -21.0159 26086.6 -03403.8 -07.4339 26307.8
 06 02 2013  13 25  -21.0158 26086.7 -03403.7 -07.4338 26307.8
 06 02 2013  13 26  -21.0156 26086.7 -03403.7 -07.4336 26307.8
 06 02 2013  13 27  -21.0152 26086.8 -03403.6 -07.4334 26307.9
 06 02 2013  13 28  -21.0149 26086.7 -03403.5 -07.4332 26307.8
 06 02 2013  13 29  -21.0148 26086.6 -03403.4 -07.4331 26307.7
 06 02 2013  13 30  -21.0148 26086.9 -03403.4 -07.4331 26307.9
 06 02 2013  13 31  -21.0145 26086.9 -03403.5 -07.4331 26308.0
 06 02 2013  13 32  -21.0138 26086.9 -03403.4 -07.4330 26308.0
 06 02 2013  13 33  -21.0133 26087.4 -03403.6 -07.4333 26308.5
 06 02 2013  13 34  -21.0128 26087.8 -03403.7 -07.4334 26308.9
 06 02 2013  13 35  -21.0123 26088.1 -03403.7 -07.4334 26309.2
 06 02 2013  13 36  -21.0120 26088.4 -03403.8 -07.4334 26309.5
 06 02 2013  13 37  -21.0118 26088.8 -03403.9 -07.4335 26310.0
 06 02 2013  13 38  -21.0115 26089.3 -03403.9 -07.4334 26310.4
 06 02 2013  13 39  -21.0114 26089.8 -03404.0 -07.4334 26310.9
 06 02 2013  13 40  -21.0113 26090.4 -03404.0 -07.4333 26311.5
 06 02 2013  13 41  -21.0112 26090.9 -03404.0 -07.4331 26312.0
 06 02 2013  13 42  -21.0110 26091.1 -03403.8 -07.4326 26312.2
 06 02 2013  13 43  -21.0108 26091.0 -03403.4 -07.4320 26312.1
 06 02 2013  13 44  -21.0106 26090.9 -03403.2 -07.4315 26312.0
 06 02 2013  13 45  -21.0105 26090.9 -03403.0 -07.4311 26311.9
 06 02 2013  13 46  -21.0103 26090.7 -03402.7 -07.4305 26311.6
 06 02 2013  13 47  -21.0100 26090.4 -03402.5 -07.4301 26311.4
 06 02 2013  13 48  -21.0098 26090.3 -03402.3 -07.4297 26311.2
 06 02 2013  13 49  -21.0098 26090.2 -03402.2 -07.4295 26311.1
 06 02 2013  13 50  -21.0099 26090.2 -03402.1 -07.4292 26311.0
 06 02 2013  13 51  -21.0099 26090.1 -03401.9 -07.4290 26311.0
 06 02 2013  13 52  -21.0098 26090.1 -03401.8 -07.4287 26310.9
 06 02 2013  13 53  -21.0097 26090.4 -03401.8 -07.4286 26311.2
 06 02 2013  13 54  -21.0096 26090.7 -03401.7 -07.4284 26311.5
 06 02 2013  13 55  -21.0095 26090.9 -03401.6 -07.4280 26311.7
 06 02 2013  13 56  -21.0092 26090.8 -03401.3 -07.4275 26311.6
 06 02 2013  13 57  -21.0089 26091.0 -03401.1 -07.4270 26311.7
 06 02 2013  13 58  -21.0087 26091.1 -03400.9 -07.4266 26311.8
 06 02 2013  13 59  -21.0084 26091.0 -03400.7 -07.4260 26311.7
 06 02 2013  14 00  -21.0076 26090.7 -03400.3 -07.4253 26311.3
 06 02 2013  14 01  -21.0069 26090.7 -03400.2 -07.4251 26311.3
 06 02 2013  14 02  -21.0065 26090.8 -03400.1 -07.4248 26311.5
 06 02 2013  14 03  -21.0060 26090.8 -03399.9 -07.4243 26311.4
 06 02 2013  14 04  -21.0055 26090.6 -03399.6 -07.4238 26311.1
 06 02 2013  14 05  -21.0050 26090.3 -03399.4 -07.4235 26310.8
 06 02 2013  14 06  -21.0047 26090.2 -03399.4 -07.4234 26310.7
 06 02 2013  14 07  -21.0042 26090.0 -03399.3 -07.4233 26310.6
 06 02 2013  14 08  -21.0036 26090.0 -03399.2 -07.4232 26310.5
 06 02 2013  14 09  -21.0033 26090.1 -03399.3 -07.4232 26310.6
 06 02 2013  14 10  -21.0029 26090.0 -03399.2 -07.4231 26310.5
 06 02 2013  14 11  -21.0025 26090.0 -03399.2 -07.4231 26310.5
 06 02 2013  14 12  -21.0023 26090.2 -03399.3 -07.4232 26310.7
 06 02 2013  14 13  -21.0021 26090.1 -03399.2 -07.4231 26310.6
 06 02 2013  14 14  -21.0019 26090.0 -03399.2 -07.4230 26310.5
 06 02 2013  14 15  -21.0017 26090.0 -03399.2 -07.4230 26310.5
 06 02 2013  14 16  -21.0015 26090.0 -03399.2 -07.4230 26310.5
 06 02 2013  14 17  -21.0015 26090.0 -03399.1 -07.4230 26310.5
 06 02 2013  14 18  -21.0014 26090.0 -03399.1 -07.4229 26310.5
 06 02 2013  14 19  -21.0014 26090.0 -03399.1 -07.4228 26310.5
 06 02 2013  14 20  -21.0013 26090.1 -03399.1 -07.4228 26310.6
 06 02 2013  14 21  -21.0014 26090.4 -03399.1 -07.4227 26310.9
 06 02 2013  14 22  -21.0014 26090.7 -03399.1 -07.4226 26311.1
 06 02 2013  14 23  -21.0011 26090.7 -03398.9 -07.4223 26311.2
 06 02 2013  14 24  -21.0009 26091.1 -03399.0 -07.4223 26311.5
 06 02 2013  14 25  -21.0009 26091.5 -03398.9 -07.4221 26311.9
 06 02 2013  14 26  -21.0007 26091.6 -03398.8 -07.4217 26312.1
 06 02 2013  14 27  -21.0006 26091.5 -03398.5 -07.4212 26311.9
 06 02 2013  14 28  -21.0005 26091.2 -03398.2 -07.4206 26311.6
 06 02 2013  14 29  -21.0005 26091.0 -03398.0 -07.4202 26311.4
 06 02 2013  14 30  -21.0003 26090.8 -03397.8 -07.4198 26311.1
 06 02 2013  14 31  -21.0001 26090.6 -03397.6 -07.4195 26310.9
 06 02 2013  14 32  -21.0001 26090.7 -03397.6 -07.4194 26311.0
 06 02 2013  14 33  -21.0001 26090.7 -03397.5 -07.4192 26311.0
 06 02 2013  14 34  -20.9999 26090.6 -03397.3 -07.4189 26310.9
 06 02 2013  14 35  -20.9996 26090.5 -03397.2 -07.4186 26310.8
 06 02 2013  14 36  -20.9994 26090.5 -03397.1 -07.4184 26310.7
 06 02 2013  14 37  -20.9990 26090.5 -03397.0 -07.4181 26310.7
 06 02 2013  14 38  -20.9987 26090.4 -03396.8 -07.4178 26310.6
 06 02 2013  14 39  -20.9984 26090.4 -03396.7 -07.4176 26310.6
 06 02 2013  14 40  -20.9980 26090.3 -03396.6 -07.4173 26310.5
 06 02 2013  14 41  -20.9975 26090.1 -03396.4 -07.4170 26310.2
 06 02 2013  14 42  -20.9969 26089.8 -03396.2 -07.4168 26309.9
 06 02 2013  14 43  -20.9963 26089.8 -03396.3 -07.4168 26309.9
 06 02 2013  14 44  -20.9959 26089.9 -03396.3 -07.4169 26310.1
 06 02 2013  14 45  -20.9952 26089.9 -03396.3 -07.4169 26310.1
 06 02 2013  14 46  -20.9946 26089.9 -03396.3 -07.4168 26310.0
 06 02 2013  14 47  -20.9941 26089.8 -03396.2 -07.4167 26309.9
 06 02 2013  14 48  -20.9938 26089.8 -03396.3 -07.4168 26309.9
 06 02 2013  14 49  -20.9936 26089.9 -03396.3 -07.4169 26310.0
 06 02 2013  14 50  -20.9932 26089.8 -03396.3 -07.4168 26310.0
 06 02 2013  14 51  -20.9927 26089.6 -03396.2 -07.4166 26309.7
 06 02 2013  14 52  -20.9919 26089.3 -03396.0 -07.4165 26309.4
 06 02 2013  14 53  -20.9913 26089.1 -03396.0 -07.4165 26309.2
 06 02 2013  14 54  -20.9908 26089.1 -03396.1 -07.4166 26309.2
 06 02 2013  14 55  -20.9903 26088.9 -03396.1 -07.4167 26309.1
 06 02 2013  14 56  -20.9898 26089.0 -03396.2 -07.4169 26309.1
 06 02 2013  14 57  -20.9893 26089.2 -03396.3 -07.4171 26309.3
 06 02 2013  14 58  -20.9888 26089.3 -03396.4 -07.4173 26309.5
 06 02 2013  14 59  -20.9882 26089.4 -03396.5 -07.4174 26309.5
 06 02 2013  15 00  -20.9876 26089.4 -03396.5 -07.4175 26309.6
 06 02 2013  15 01  -20.9871 26089.2 -03396.5 -07.4175 26309.4
 06 02 2013  15 02  -20.9866 26089.1 -03396.5 -07.4176 26309.2
 06 02 2013  15 03  -20.9863 26088.9 -03396.6 -07.4177 26309.1
 06 02 2013  15 04  -20.9860 26088.8 -03396.6 -07.4179 26309.0
 06 02 2013  15 05  -20.9857 26088.6 -03396.6 -07.4180 26308.8
 06 02 2013  15 06  -20.9853 26088.5 -03396.7 -07.4182 26308.7
 06 02 2013  15 07  -20.9851 26088.6 -03396.9 -07.4185 26308.8
 06 02 2013  15 08  -20.9850 26088.5 -03396.9 -07.4186 26308.7
 06 02 2013  15 09  -20.9850 26088.3 -03396.8 -07.4184 26308.5
 06 02 2013  15 10  -20.9846 26087.5 -03396.6 -07.4181 26307.7
 06 02 2013  15 11  -20.9844 26087.1 -03396.6 -07.4183 26307.3
 06 02 2013  15 12  -20.9844 26087.0 -03396.7 -07.4185 26307.2
 06 02 2013  15 13  -20.9842 26087.0 -03396.8 -07.4189 26307.3
 06 02 2013  15 14  -20.9839 26087.2 -03397.0 -07.4192 26307.4
 06 02 2013  15 15  -20.9838 26087.2 -03397.2 -07.4195 26307.5
 06 02 2013  15 16  -20.9836 26087.2 -03397.2 -07.4196 26307.5
 06 02 2013  15 17  -20.9836 26087.3 -03397.3 -07.4198 26307.5
 06 02 2013  15 18  -20.9834 26087.2 -03397.3 -07.4198 26307.5
 06 02 2013  15 19  -20.9831 26087.3 -03397.3 -07.4198 26307.6
 06 02 2013  15 20  -20.9822 26087.0 -03397.3 -07.4198 26307.3
 06 02 2013  15 21  -20.9817 26087.7 -03397.7 -07.4205 26308.0
 06 02 2013  15 22  -20.9819 26088.5 -03398.0 -07.4209 26308.9
 06 02 2013  15 23  -20.9816 26088.8 -03397.9 -07.4207 26309.1
 06 02 2013  15 24  -20.9810 26088.4 -03397.7 -07.4202 26308.7
 06 02 2013  15 25  -20.9804 26088.4 -03397.7 -07.4203 26308.7
 06 02 2013  15 26  -20.9804 26088.6 -03397.9 -07.4206 26309.0
 06 02 2013  15 27  -20.9801 26088.8 -03397.9 -07.4206 26309.1
 06 02 2013  15 28  -20.9798 26088.8 -03397.8 -07.4205 26309.1
 06 02 2013  15 29  -20.9795 26088.9 -03397.9 -07.4205 26309.2
 06 02 2013  15 30  -20.9793 26088.7 -03397.8 -07.4204 26309.1
 06 02 2013  15 31  -20.9791 26088.4 -03397.6 -07.4202 26308.7
 06 02 2013  15 32  -20.9791 26088.1 -03397.6 -07.4201 26308.4
 06 02 2013  15 33  -20.9792 26088.0 -03397.5 -07.4201 26308.3
 06 02 2013  15 34  -20.9791 26087.9 -03397.5 -07.4200 26308.2
 06 02 2013  15 35  -20.9792 26087.9 -03397.4 -07.4199 26308.2
 06 02 2013  15 36  -20.9791 26087.9 -03397.4 -07.4197 26308.1
 06 02 2013  15 37  -20.9788 26087.7 -03397.2 -07.4195 26308.0
 06 02 2013  15 38  -20.9786 26087.6 -03397.1 -07.4193 26307.8
 06 02 2013  15 39  -20.9782 26087.5 -03397.0 -07.4190 26307.7
 06 02 2013  15 40  -20.9779 26087.4 -03396.9 -07.4189 26307.7
 06 02 2013  15 41  -20.9777 26087.3 -03396.9 -07.4188 26307.6
 06 02 2013  15 42  -20.9774 26087.2 -03396.8 -07.4186 26307.4
 06 02 2013  15 43  -20.9771 26087.3 -03396.7 -07.4186 26307.5
 06 02 2013  15 44  -20.9768 26087.3 -03396.7 -07.4185 26307.5
 06 02 2013  15 45  -20.9763 26087.1 -03396.5 -07.4181 26307.3
 06 02 2013  15 46  -20.9757 26086.8 -03396.3 -07.4178 26307.0
 06 02 2013  15 47  -20.9752 26086.6 -03396.2 -07.4176 26306.7
 06 02 2013  15 48  -20.9749 26086.5 -03396.1 -07.4174 26306.7
 06 02 2013  15 49  -20.9746 26086.4 -03396.0 -07.4172 26306.5
 06 02 2013  15 50  -20.9742 26086.0 -03395.8 -07.4170 26306.1
 06 02 2013  15 51  -20.9738 26085.9 -03395.8 -07.4169 26306.0
 06 02 2013  15 52  -20.9732 26085.8 -03395.7 -07.4168 26305.9
 06 02 2013  15 53  -20.9726 26085.6 -03395.6 -07.4166 26305.7
 06 02 2013  15 54  -20.9721 26085.3 -03395.5 -07.4164 26305.4
 06 02 2013  15 55  -20.9713 26084.9 -03395.3 -07.4162 26305.0
 06 02 2013  15 56  -20.9707 26084.6 -03395.2 -07.4160 26304.6
 06 02 2013  15 57  -20.9703 26084.4 -03395.2 -07.4160 26304.4
 06 02 2013  15 58  -20.9699 26084.3 -03395.2 -07.4160 26304.3
 06 02 2013  15 59  -20.9695 26084.1 -03395.1 -07.4158 26304.1
 06 02 2013  16 00  -20.9688 26083.8 -03394.9 -07.4156 26303.8
 06 02 2013  16 01  -20.9680 26083.4 -03394.8 -07.4154 26303.4
 06 02 2013  16 02  -20.9671 26083.1 -03394.7 -07.4153 26303.1
 06 02 2013  16 03  -20.9665 26083.0 -03394.8 -07.4155 26303.0
 06 02 2013  16 04  -20.9658 26082.9 -03394.8 -07.4155 26302.9
 06 02 2013  16 05  -20.9651 26082.7 -03394.8 -07.4155 26302.7
 06 02 2013  16 06  -20.9645 26082.7 -03394.8 -07.4156 26302.7
 06 02 2013  16 07  -20.9638 26082.5 -03394.7 -07.4156 26302.5
 06 02 2013  16 08  -20.9634 26082.4 -03394.7 -07.4156 26302.4
 06 02 2013  16 09  -20.9627 26082.4 -03394.7 -07.4156 26302.4
 06 02 2013  16 10  -20.9621 26082.3 -03394.7 -07.4155 26302.3
 06 02 2013  16 11  -20.9615 26082.3 -03394.7 -07.4155 26302.2
 06 02 2013  16 12  -20.9610 26082.2 -03394.6 -07.4154 26302.1
 06 02 2013  16 13  -20.9605 26082.0 -03394.5 -07.4153 26302.0
 06 02 2013  16 14  -20.9600 26081.7 -03394.4 -07.4151 26301.6
 06 02 2013  16 15  -20.9593 26081.4 -03394.3 -07.4150 26301.4
 06 02 2013  16 16  -20.9589 26081.3 -03394.4 -07.4151 26301.2
 06 02 2013  16 17  -20.9584 26081.2 -03394.4 -07.4152 26301.2
 06 02 2013  16 18  -20.9579 26081.4 -03394.5 -07.4153 26301.3
 06 02 2013  16 19  -20.9572 26081.4 -03394.4 -07.4152 26301.4
 06 02 2013  16 20  -20.9564 26081.0 -03394.2 -07.4148 26301.0
 06 02 2013  16 21  -20.9557 26080.9 -03394.3 -07.4150 26300.9
 06 02 2013  16 22  -20.9551 26081.2 -03394.4 -07.4152 26301.2
 06 02 2013  16 23  -20.9546 26080.8 -03394.3 -07.4151 26300.8
 06 02 2013  16 24  -20.9539 26081.1 -03394.4 -07.4152 26301.1
 06 02 2013  16 25  -20.9537 26081.3 -03394.5 -07.4154 26301.3
 06 02 2013  16 26  -20.9531 26080.9 -03394.4 -07.4152 26300.9
 06 02 2013  16 27  -20.9525 26080.6 -03394.2 -07.4150 26300.5
 06 02 2013  16 28  -20.9520 26081.0 -03394.4 -07.4154 26300.9
 06 02 2013  16 29  -20.9516 26080.7 -03394.4 -07.4154 26300.7
 06 02 2013  16 30  -20.9511 26080.8 -03394.5 -07.4155 26300.7
 06 02 2013  16 31  -20.9511 26081.0 -03394.7 -07.4158 26301.0
 06 02 2013  16 32  -20.9506 26081.1 -03394.7 -07.4159 26301.1
 06 02 2013  16 33  -20.9501 26081.1 -03394.7 -07.4160 26301.1
 06 02 2013  16 34  -20.9498 26080.8 -03394.7 -07.4159 26300.8
 06 02 2013  16 35  -20.9492 26080.5 -03394.6 -07.4159 26300.4
 06 02 2013  16 36  -20.9489 26080.3 -03394.6 -07.4160 26300.3
 06 02 2013  16 37  -20.9488 26080.1 -03394.7 -07.4161 26300.1
 06 02 2013  16 38  -20.9488 26079.9 -03394.7 -07.4163 26300.0
 06 02 2013  16 39  -20.9486 26079.8 -03394.8 -07.4164 26299.8
 06 02 2013  16 40  -20.9485 26079.5 -03394.8 -07.4165 26299.6
 06 02 2013  16 41  -20.9481 26079.2 -03394.7 -07.4164 26299.2
 06 02 2013  16 42  -20.9479 26079.2 -03394.9 -07.4168 26299.3
 06 02 2013  16 43  -20.9480 26079.2 -03395.1 -07.4172 26299.3
 06 02 2013  16 44  -20.9481 26079.4 -03395.2 -07.4175 26299.5
 06 02 2013  16 45  -20.9482 26079.5 -03395.3 -07.4176 26299.5
 06 02 2013  16 46  -20.9481 26079.6 -03395.3 -07.4176 26299.7
 06 02 2013  16 47  -20.9481 26079.3 -03395.2 -07.4174 26299.4
 06 02 2013  16 48  -20.9478 26079.4 -03395.2 -07.4175 26299.5
 06 02 2013  16 49  -20.9481 26079.4 -03395.2 -07.4174 26299.5
 06 02 2013  16 50  -20.9481 26078.9 -03395.0 -07.4171 26298.9
 06 02 2013  16 51  -20.9481 26079.1 -03395.1 -07.4172 26299.2
 06 02 2013  16 52  -20.9482 26079.0 -03395.0 -07.4171 26299.0
 06 02 2013  16 53  -20.9479 26078.7 -03394.8 -07.4168 26298.7
 06 02 2013  16 54  -20.9479 26078.7 -03394.8 -07.4168 26298.7
 06 02 2013  16 55  -20.9479 26078.7 -03394.8 -07.4167 26298.7
 06 02 2013  16 56  -20.9480 26078.4 -03394.6 -07.4164 26298.4
 06 02 2013  16 57  -20.9480 26078.3 -03394.5 -07.4162 26298.3
 06 02 2013  16 58  -20.9479 26078.0 -03394.4 -07.4160 26298.0
 06 02 2013  16 59  -20.9477 26078.0 -03394.3 -07.4159 26297.9
 06 02 2013  17 00  -20.9478 26077.9 -03394.3 -07.4159 26297.9
 06 02 2013  17 01  -20.9476 26077.6 -03394.2 -07.4157 26297.6
 06 02 2013  17 02  -20.9472 26077.5 -03394.1 -07.4156 26297.5
 06 02 2013  17 03  -20.9474 26077.3 -03394.1 -07.4156 26297.3
 06 02 2013  17 04  -20.9476 26077.3 -03394.1 -07.4156 26297.2
 06 02 2013  17 05  -20.9477 26077.1 -03394.0 -07.4155 26297.1
 06 02 2013  17 06  -20.9476 26077.0 -03393.9 -07.4154 26296.9
 06 02 2013  17 07  -20.9473 26076.8 -03393.9 -07.4153 26296.7
 06 02 2013  17 08  -20.9471 26076.4 -03393.8 -07.4151 26296.4
 06 02 2013  17 09  -20.9470 26076.5 -03393.9 -07.4154 26296.5
 06 02 2013  17 10  -20.9475 26076.4 -03393.9 -07.4155 26296.3
 06 02 2013  17 11  -20.9476 26076.3 -03393.9 -07.4154 26296.2
 06 02 2013  17 12  -20.9478 26076.2 -03393.9 -07.4154 26296.1
 06 02 2013  17 13  -20.9479 26075.7 -03393.6 -07.4151 26295.6
 06 02 2013  17 14  -20.9477 26075.7 -03393.7 -07.4152 26295.6
 06 02 2013  17 15  -20.9479 26075.5 -03393.7 -07.4152 26295.4
 06 02 2013  17 16  -20.9479 26075.3 -03393.6 -07.4151 26295.2
 06 02 2013  17 17  -20.9481 26075.4 -03393.7 -07.4152 26295.3
 06 02 2013  17 18  -20.9482 26075.0 -03393.5 -07.4151 26294.9
 06 02 2013  17 19  -20.9482 26074.9 -03393.5 -07.4150 26294.8
 06 02 2013  17 20  -20.9485 26074.6 -03393.4 -07.4150 26294.5
 06 02 2013  17 21  -20.9483 26074.3 -03393.3 -07.4149 26294.2
 06 02 2013  17 22  -20.9483 26074.5 -03393.5 -07.4151 26294.4
 06 02 2013  17 23  -20.9485 26074.3 -03393.5 -07.4151 26294.2
 06 02 2013  17 24  -20.9487 26074.1 -03393.4 -07.4150 26294.0
 06 02 2013  17 25  -20.9487 26073.9 -03393.3 -07.4149 26293.8
 06 02 2013  17 26  -20.9483 26073.6 -03393.2 -07.4148 26293.5
 06 02 2013  17 27  -20.9484 26073.7 -03393.3 -07.4150 26293.6
 06 02 2013  17 28  -20.9489 26073.7 -03393.4 -07.4152 26293.6
 06 02 2013  17 29  -20.9493 26073.7 -03393.4 -07.4152 26293.6
 06 02 2013  17 30  -20.9496 26073.7 -03393.5 -07.4153 26293.6
 06 02 2013  17 31  -20.9496 26073.3 -03393.2 -07.4149 26293.2
 06 02 2013  17 32  -20.9495 26073.2 -03393.2 -07.4149 26293.1
 06 02 2013  17 33  -20.9495 26073.2 -03393.3 -07.4150 26293.0
 06 02 2013  17 34  -20.9495 26072.9 -03393.3 -07.4150 26292.8
 06 02 2013  17 35  -20.9496 26072.8 -03393.2 -07.4150 26292.6
 06 02 2013  17 36  -20.9497 26072.5 -03393.2 -07.4150 26292.3
 06 02 2013  17 37  -20.9498 26072.4 -03393.2 -07.4151 26292.3
 06 02 2013  17 38  -20.9498 26072.3 -03393.2 -07.4151 26292.2
 06 02 2013  17 39  -20.9496 26072.3 -03393.2 -07.4152 26292.2
 06 02 2013  17 40  -20.9496 26072.1 -03393.2 -07.4153 26292.0
 06 02 2013  17 41  -20.9494 26071.9 -03393.2 -07.4152 26291.8
 06 02 2013  17 42  -20.9494 26071.7 -03393.2 -07.4153 26291.6
 06 02 2013  17 43  -20.9496 26071.4 -03393.1 -07.4152 26291.2
 06 02 2013  17 44  -20.9493 26071.1 -03393.0 -07.4151 26291.0
 06 02 2013  17 45  -20.9490 26070.9 -03393.1 -07.4153 26290.8
 06 02 2013  17 46  -20.9491 26071.0 -03393.3 -07.4157 26290.9
 06 02 2013  17 47  -20.9496 26071.0 -03393.4 -07.4159 26290.9
 06 02 2013  17 48  -20.9493 26070.5 -03393.2 -07.4157 26290.4
 06 02 2013  17 49  -20.9492 26070.4 -03393.3 -07.4159 26290.3
 06 02 2013  17 50  -20.9493 26070.2 -03393.4 -07.4161 26290.1
 06 02 2013  17 51  -20.9491 26070.1 -03393.5 -07.4163 26290.0
 06 02 2013  17 52  -20.9492 26070.0 -03393.6 -07.4167 26289.9
 06 02 2013  17 53  -20.9495 26069.9 -03393.8 -07.4170 26289.9
 06 02 2013  17 54  -20.9497 26069.8 -03393.8 -07.4171 26289.8
 06 02 2013  17 55  -20.9498 26069.8 -03393.9 -07.4173 26289.7
 06 02 2013  17 56  -20.9500 26069.6 -03393.9 -07.4173 26289.6
 06 02 2013  17 57  -20.9497 26069.1 -03393.7 -07.4172 26289.1
 06 02 2013  17 58  -20.9504 26068.8 -03393.8 -07.4173 26288.8
 06 02 2013  17 59  -20.9509 26068.5 -03393.7 -07.4174 26288.5
 06 02 2013  18 00  -20.9512 26068.5 -03393.9 -07.4176 26288.5
 06 02 2013  18 01  -20.9516 26068.4 -03394.0 -07.4179 26288.4
 06 02 2013  18 02  -20.9521 26068.2 -03394.0 -07.4180 26288.2
 06 02 2013  18 03  -20.9524 26067.8 -03393.9 -07.4179 26287.8
 06 02 2013  18 04  -20.9523 26067.7 -03393.9 -07.4180 26287.7
 06 02 2013  18 05  -20.9532 26068.0 -03394.2 -07.4185 26288.0
 06 02 2013  18 06  -20.9541 26067.7 -03394.0 -07.4182 26287.7
 06 02 2013  18 07  -20.9539 26067.2 -03393.8 -07.4178 26287.2
 06 02 2013  18 08  -20.9542 26067.2 -03393.8 -07.4179 26287.2
 06 02 2013  18 09  -20.9546 26067.1 -03393.8 -07.4180 26287.1
 06 02 2013  18 10  -20.9552 26066.7 -03393.8 -07.4179 26286.7
 06 02 2013  18 11  -20.9551 26066.5 -03393.7 -07.4177 26286.5
 06 02 2013  18 12  -20.9554 26066.4 -03393.8 -07.4180 26286.4
 06 02 2013  18 13  -20.9560 26065.7 -03393.6 -07.4177 26285.7
 06 02 2013  18 14  -20.9557 26065.2 -03393.3 -07.4174 26285.1
 06 02 2013  18 15  -20.9556 26065.2 -03393.5 -07.4178 26285.2
 06 02 2013  18 16  -20.9557 26064.8 -03393.6 -07.4180 26284.8
 06 02 2013  18 17  -20.9560 26064.7 -03393.6 -07.4182 26284.7
 06 02 2013  18 18  -20.9565 26064.7 -03393.8 -07.4185 26284.7
 06 02 2013  18 19  -20.9568 26064.8 -03394.0 -07.4189 26284.8
 06 02 2013  18 20  -20.9569 26064.6 -03393.9 -07.4189 26284.6
 06 02 2013  18 21  -20.9571 26064.3 -03393.9 -07.4188 26284.4
 06 02 2013  18 22  -20.9575 26064.1 -03393.9 -07.4189 26284.1
 06 02 2013  18 23  -20.9577 26063.8 -03393.8 -07.4188 26283.8
 06 02 2013  18 24  -20.9579 26063.6 -03393.8 -07.4188 26283.6
 06 02 2013  18 25  -20.9582 26063.7 -03393.9 -07.4190 26283.7
 06 02 2013  18 26  -20.9587 26063.7 -03394.0 -07.4192 26283.7
 06 02 2013  18 27  -20.9591 26063.6 -03394.0 -07.4193 26283.7
 06 02 2013  18 28  -20.9597 26063.7 -03394.0 -07.4194 26283.7
 06 02 2013  18 29  -20.9600 26063.5 -03394.0 -07.4193 26283.6
 06 02 2013  18 30  -20.9602 26063.4 -03393.9 -07.4192 26283.4
 06 02 2013  18 31  -20.9603 26063.2 -03393.9 -07.4191 26283.2
 06 02 2013  18 32  -20.9605 26063.0 -03393.8 -07.4191 26283.0
 06 02 2013  18 33  -20.9607 26062.8 -03393.8 -07.4191 26282.8
 06 02 2013  18 34  -20.9608 26062.8 -03393.9 -07.4192 26282.8
 06 02 2013  18 35  -20.9609 26062.8 -03393.9 -07.4194 26282.8
 06 02 2013  18 36  -20.9610 26062.9 -03394.1 -07.4196 26283.0
 06 02 2013  18 37  -20.9615 26062.8 -03394.1 -07.4198 26282.9
 06 02 2013  18 38  -20.9617 26063.0 -03394.3 -07.4201 26283.1
 06 02 2013  18 39  -20.9618 26063.0 -03394.3 -07.4201 26283.1
 06 02 2013  18 40  -20.9623 26062.9 -03394.3 -07.4201 26283.0
 06 02 2013  18 41  -20.9630 26062.7 -03394.3 -07.4201 26282.8
 06 02 2013  18 42  -20.9631 26062.4 -03394.2 -07.4200 26282.5
 06 02 2013  18 43  -20.9635 26062.4 -03394.2 -07.4201 26282.5
 06 02 2013  18 44  -20.9636 26062.3 -03394.3 -07.4203 26282.4
 06 02 2013  18 45  -20.9641 26062.2 -03394.4 -07.4205 26282.3
 06 02 2013  18 46  -20.9645 26062.2 -03394.4 -07.4206 26282.4
 06 02 2013  18 47  -20.9650 26062.1 -03394.5 -07.4207 26282.3
 06 02 2013  18 48  -20.9652 26061.9 -03394.4 -07.4207 26282.0
 06 02 2013  18 49  -20.9651 26061.9 -03394.6 -07.4210 26282.1
 06 02 2013  18 50  -20.9656 26061.7 -03394.6 -07.4212 26281.9
 06 02 2013  18 51  -20.9660 26061.5 -03394.6 -07.4212 26281.6
 06 02 2013  18 52  -20.9660 26061.5 -03394.7 -07.4214 26281.6
 06 02 2013  18 53  -20.9662 26061.6 -03394.9 -07.4218 26281.8
 06 02 2013  18 54  -20.9662 26061.8 -03395.1 -07.4221 26282.0
 06 02 2013  18 55  -20.9659 26062.2 -03395.4 -07.4227 26282.5
 06 02 2013  18 56  -20.9663 26062.8 -03395.8 -07.4234 26283.1
 06 02 2013  18 57  -20.9668 26062.7 -03395.7 -07.4233 26283.0
 06 02 2013  18 58  -20.9672 26062.6 -03395.6 -07.4231 26282.9
 06 02 2013  18 59  -20.9676 26062.6 -03395.6 -07.4231 26282.9
 06 02 2013  19 00  -20.9676 26062.7 -03395.7 -07.4232 26282.9
 06 02 2013  19 01  -20.9676 26062.6 -03395.7 -07.4232 26282.9
 06 02 2013  19 02  -20.9678 26062.7 -03395.7 -07.4233 26282.9
 06 02 2013  19 03  -20.9679 26062.8 -03395.8 -07.4235 26283.1
 06 02 2013  19 04  -20.9681 26062.8 -03395.9 -07.4236 26283.1
 06 02 2013  19 05  -20.9684 26062.3 -03395.7 -07.4232 26282.6
 06 02 2013  19 06  -20.9688 26062.0 -03395.5 -07.4229 26282.2
 06 02 2013  19 07  -20.9689 26061.9 -03395.4 -07.4229 26282.1
 06 02 2013  19 08  -20.9689 26061.9 -03395.5 -07.4230 26282.2
 06 02 2013  19 09  -20.9693 26061.9 -03395.6 -07.4232 26282.2
 06 02 2013  19 10  -20.9695 26062.0 -03395.6 -07.4232 26282.3
 06 02 2013  19 11  -20.9699 26061.9 -03395.6 -07.4233 26282.2
 06 02 2013  19 12  -20.9703 26061.6 -03395.5 -07.4230 26281.9
 06 02 2013  19 13  -20.9704 26061.5 -03395.4 -07.4230 26281.7
 06 02 2013  19 14  -20.9705 26061.4 -03395.4 -07.4229 26281.6
 06 02 2013  19 15  -20.9707 26061.0 -03395.3 -07.4229 26281.3
 06 02 2013  19 16  -20.9708 26060.9 -03395.3 -07.4229 26281.2
 06 02 2013  19 17  -20.9710 26061.1 -03395.4 -07.4230 26281.3
 06 02 2013  19 18  -20.9712 26061.1 -03395.4 -07.4231 26281.4
 06 02 2013  19 19  -20.9714 26061.0 -03395.5 -07.4232 26281.3
 06 02 2013  19 20  -20.9716 26061.1 -03395.5 -07.4232 26281.4
 06 02 2013  19 21  -20.9719 26061.2 -03395.5 -07.4232 26281.4
 06 02 2013  19 22  -20.9722 26061.1 -03395.5 -07.4232 26281.3
 06 02 2013  19 23  -20.9726 26060.7 -03395.3 -07.4229 26281.0
 06 02 2013  19 24  -20.9728 26060.3 -03395.1 -07.4225 26280.5
 06 02 2013  19 25  -20.9731 26060.2 -03395.0 -07.4224 26280.4
 06 02 2013  19 26  -20.9734 26060.1 -03395.0 -07.4224 26280.3
 06 02 2013  19 27  -20.9736 26060.3 -03395.1 -07.4226 26280.5
 06 02 2013  19 28  -20.9738 26060.5 -03395.2 -07.4228 26280.7
 06 02 2013  19 29  -20.9742 26060.5 -03395.2 -07.4228 26280.7
 06 02 2013  19 30  -20.9743 26060.6 -03395.2 -07.4228 26280.9
 06 02 2013  19 31  -20.9745 26060.8 -03395.3 -07.4229 26281.0
 06 02 2013  19 32  -20.9749 26060.7 -03395.3 -07.4229 26281.0
 06 02 2013  19 33  -20.9750 26060.8 -03395.3 -07.4228 26281.1
 06 02 2013  19 34  -20.9754 26060.8 -03395.3 -07.4228 26281.1
 06 02 2013  19 35  -20.9758 26060.5 -03395.1 -07.4225 26280.7
 06 02 2013  19 36  -20.9760 26060.4 -03395.0 -07.4223 26280.6
 06 02 2013  19 37  -20.9763 26060.5 -03395.0 -07.4223 26280.7
 06 02 2013  19 38  -20.9766 26060.3 -03394.9 -07.4222 26280.5
 06 02 2013  19 39  -20.9767 26060.2 -03394.9 -07.4221 26280.4
 06 02 2013  19 40  -20.9768 26060.3 -03394.9 -07.4221 26280.5
 06 02 2013  19 41  -20.9772 26060.4 -03394.9 -07.4222 26280.6
 06 02 2013  19 42  -20.9777 26060.4 -03394.9 -07.4221 26280.6
 06 02 2013  19 43  -20.9782 26060.3 -03394.8 -07.4220 26280.5
 06 02 2013  19 44  -20.9787 26060.1 -03394.6 -07.4217 26280.2
 06 02 2013  19 45  -20.9789 26060.1 -03394.6 -07.4216 26280.3
 06 02 2013  19 46  -20.9792 26060.4 -03394.7 -07.4218 26280.5
 06 02 2013  19 47  -20.9796 26060.2 -03394.7 -07.4217 26280.4
 06 02 2013  19 48  -20.9798 26060.2 -03394.6 -07.4216 26280.3
 06 02 2013  19 49  -20.9800 26060.3 -03394.6 -07.4216 26280.4
 06 02 2013  19 50  -20.9802 26060.3 -03394.7 -07.4216 26280.5
 06 02 2013  19 51  -20.9804 26060.3 -03394.6 -07.4215 26280.4
 06 02 2013  19 52  -20.9807 26060.3 -03394.6 -07.4214 26280.4
 06 02 2013  19 53  -20.9809 26060.3 -03394.6 -07.4214 26280.5
 06 02 2013  19 54  -20.9811 26060.3 -03394.5 -07.4213 26280.5
 06 02 2013  19 55  -20.9812 26060.4 -03394.5 -07.4213 26280.6
 06 02 2013  19 56  -20.9813 26060.5 -03394.5 -07.4213 26280.6
 06 02 2013  19 57  -20.9813 26060.5 -03394.5 -07.4213 26280.7
 06 02 2013  19 58  -20.9813 26060.6 -03394.5 -07.4212 26280.8
 06 02 2013  19 59  -20.9814 26060.8 -03394.6 -07.4213 26281.0
 06 02 2013  20 00  -20.9817 26061.0 -03394.6 -07.4214 26281.2
 06 02 2013  20 01  -20.9818 26061.1 -03394.6 -07.4213 26281.3
 06 02 2013  20 02  -20.9819 26061.1 -03394.6 -07.4213 26281.3
 06 02 2013  20 03  -20.9819 26061.4 -03394.7 -07.4213 26281.5
 06 02 2013  20 04  -20.9824 26061.2 -03394.6 -07.4212 26281.4
 06 02 2013  20 05  -20.9825 26061.1 -03394.4 -07.4209 26281.2
 06 02 2013  20 06  -20.9825 26061.4 -03394.6 -07.4211 26281.6
 06 02 2013  20 07  -20.9826 26061.5 -03394.7 -07.4213 26281.7
 06 02 2013  20 08  -20.9829 26061.3 -03394.5 -07.4211 26281.5
 06 02 2013  20 09  -20.9831 26061.2 -03394.4 -07.4208 26281.3
 06 02 2013  20 10  -20.9832 26061.2 -03394.4 -07.4207 26281.3
 06 02 2013  20 11  -20.9832 26061.3 -03394.4 -07.4208 26281.4
 06 02 2013  20 12  -20.9832 26061.4 -03394.4 -07.4208 26281.5
 06 02 2013  20 13  -20.9833 26061.2 -03394.3 -07.4206 26281.3
 06 02 2013  20 14  -20.9834 26061.1 -03394.2 -07.4205 26281.2
 06 02 2013  20 15  -20.9835 26061.1 -03394.2 -07.4205 26281.2
 06 02 2013  20 16  -20.9836 26061.2 -03394.3 -07.4205 26281.3
 06 02 2013  20 17  -20.9838 26061.0 -03394.2 -07.4205 26281.1
 06 02 2013  20 18  -20.9838 26061.0 -03394.2 -07.4204 26281.1
 06 02 2013  20 19  -20.9837 26061.3 -03394.3 -07.4206 26281.4
 06 02 2013  20 20  -20.9835 26061.5 -03394.4 -07.4208 26281.6
 06 02 2013  20 21  -20.9835 26061.7 -03394.6 -07.4211 26281.9
 06 02 2013  20 22  -20.9835 26061.9 -03394.7 -07.4212 26282.0
 06 02 2013  20 23  -20.9835 26061.9 -03394.7 -07.4212 26282.0
 06 02 2013  20 24  -20.9834 26062.0 -03394.7 -07.4213 26282.2
 06 02 2013  20 25  -20.9833 26062.1 -03394.8 -07.4214 26282.3
 06 02 2013  20 26  -20.9833 26062.3 -03394.9 -07.4216 26282.5
 06 02 2013  20 27  -20.9832 26062.4 -03395.0 -07.4217 26282.6
 06 02 2013  20 28  -20.9834 26062.2 -03394.9 -07.4216 26282.4
 06 02 2013  20 29  -20.9834 26062.1 -03394.8 -07.4215 26282.3
 06 02 2013  20 30  -20.9834 26062.3 -03394.9 -07.4216 26282.4
 06 02 2013  20 31  -20.9835 26062.4 -03395.0 -07.4218 26282.6
 06 02 2013  20 32  -20.9836 26062.4 -03395.1 -07.4220 26282.6
 06 02 2013  20 33  -20.9839 26062.4 -03395.1 -07.4220 26282.6
 06 02 2013  20 34  -20.9841 26062.6 -03395.2 -07.4222 26282.9
 06 02 2013  20 35  -20.9843 26062.6 -03395.2 -07.4222 26282.8
 06 02 2013  20 36  -20.9862 26062.2 -03395.0 -07.4218 26282.4
 06 02 2013  20 37  -20.9887 26061.8 -03394.7 -07.4214 26282.0
 06 02 2013  20 38  -20.9875 26061.8 -03394.8 -07.4215 26282.0
 06 02 2013  20 39  -20.9853 26062.0 -03395.0 -07.4219 26282.2
 06 02 2013  20 40  -20.9858 26061.8 -03394.9 -07.4217 26282.0
 06 02 2013  20 41  -20.9862 26061.6 -03394.8 -07.4216 26281.8
 06 02 2013  20 42  -20.9865 26061.4 -03394.7 -07.4215 26281.6
 06 02 2013  20 43  -20.9869 26060.9 -03394.5 -07.4212 26281.1
 06 02 2013  20 44  -20.9872 26060.7 -03394.4 -07.4210 26280.8
 06 02 2013  20 45  -20.9870 26061.0 -03394.5 -07.4212 26281.1
 06 02 2013  20 46  -20.9871 26061.0 -03394.7 -07.4214 26281.2
 06 02 2013  20 47  -20.9871 26061.1 -03394.7 -07.4216 26281.3
 06 02 2013  20 48  -20.9873 26060.8 -03394.6 -07.4214 26281.0
 06 02 2013  20 49  -20.9876 26060.6 -03394.5 -07.4212 26280.7
 06 02 2013  20 50  -20.9878 26060.6 -03394.5 -07.4213 26280.7
 06 02 2013  20 51  -20.9881 26060.5 -03394.5 -07.4213 26280.6
 06 02 2013  20 52  -20.9882 26060.4 -03394.5 -07.4213 26280.6
 06 02 2013  20 53  -20.9884 26060.3 -03394.5 -07.4213 26280.4
 06 02 2013  20 54  -20.9884 26060.2 -03394.5 -07.4214 26280.4
 06 02 2013  20 55  -20.9884 26060.3 -03394.6 -07.4215 26280.5
 06 02 2013  20 56  -20.9881 26060.7 -03394.8 -07.4218 26280.9
 06 02 2013  20 57  -20.9877 26061.3 -03395.1 -07.4223 26281.6
 06 02 2013  20 58  -20.9875 26061.6 -03395.3 -07.4227 26281.9
 06 02 2013  20 59  -20.9875 26061.7 -03395.4 -07.4228 26281.9
 06 02 2013  21 00  -20.9876 26061.8 -03395.5 -07.4230 26282.1
 06 02 2013  21 01  -20.9877 26061.8 -03395.5 -07.4230 26282.0
 06 02 2013  21 02  -20.9877 26061.8 -03395.5 -07.4231 26282.0
 06 02 2013  21 03  -20.9880 26061.8 -03395.6 -07.4232 26282.0
 06 02 2013  21 04  -20.9882 26061.7 -03395.5 -07.4231 26282.0
 06 02 2013  21 05  -20.9883 26061.9 -03395.7 -07.4234 26282.2
 06 02 2013  21 06  -20.9884 26062.2 -03395.8 -07.4237 26282.5
 06 02 2013  21 07  -20.9886 26062.2 -03395.8 -07.4237 26282.5
 06 02 2013  21 08  -20.9888 26062.0 -03395.8 -07.4236 26282.3
 06 02 2013  21 09  -20.9890 26061.8 -03395.7 -07.4236 26282.0
 06 02 2013  21 10  -20.9891 26061.8 -03395.8 -07.4236 26282.1
 06 02 2013  21 11  -20.9892 26061.6 -03395.7 -07.4235 26281.9
 06 02 2013  21 12  -20.9894 26061.2 -03395.6 -07.4234 26281.5
 06 02 2013  21 13  -20.9897 26061.0 -03395.5 -07.4233 26281.2
 06 02 2013  21 14  -20.9897 26060.9 -03395.5 -07.4233 26281.2
 06 02 2013  21 15  -20.9899 26060.8 -03395.5 -07.4234 26281.1
 06 02 2013  21 16  -20.9901 26060.6 -03395.5 -07.4234 26280.9
 06 02 2013  21 17  -20.9902 26060.6 -03395.6 -07.4236 26280.9
 06 02 2013  21 18  -20.9905 26060.4 -03395.6 -07.4237 26280.7
 06 02 2013  21 19  -20.9906 26060.4 -03395.7 -07.4238 26280.7
 06 02 2013  21 20  -20.9907 26060.4 -03395.9 -07.4243 26280.8
 06 02 2013  21 21  -20.9907 26060.8 -03396.2 -07.4248 26281.1
 06 02 2013  21 22  -20.9909 26060.9 -03396.4 -07.4252 26281.3
 06 02 2013  21 23  -20.9913 26060.8 -03396.4 -07.4253 26281.2
 06 02 2013  21 24  -20.9916 26060.7 -03396.4 -07.4254 26281.1
 06 02 2013  21 25  -20.9920 26060.6 -03396.5 -07.4255 26281.0
 06 02 2013  21 26  -20.9923 26060.5 -03396.5 -07.4256 26280.9
 06 02 2013  21 27  -20.9927 26060.5 -03396.6 -07.4258 26280.9
 06 02 2013  21 28  -20.9930 26060.4 -03396.6 -07.4259 26280.9
 06 02 2013  21 29  -20.9933 26060.4 -03396.7 -07.4261 26280.9
 06 02 2013  21 30  -20.9935 26060.4 -03396.8 -07.4262 26280.9
 06 02 2013  21 31  -20.9937 26060.5 -03396.9 -07.4264 26281.0
 06 02 2013  21 32  -20.9940 26060.5 -03397.0 -07.4266 26281.0
 06 02 2013  21 33  -20.9943 26060.4 -03397.0 -07.4266 26280.9
 06 02 2013  21 34  -20.9946 26060.4 -03397.0 -07.4266 26280.9
 06 02 2013  21 35  -20.9948 26060.3 -03397.0 -07.4266 26280.8
 06 02 2013  21 36  -20.9949 26060.3 -03397.0 -07.4267 26280.7
 06 02 2013  21 37  -20.9951 26060.2 -03397.0 -07.4266 26280.6
 06 02 2013  21 38  -20.9951 26060.2 -03397.0 -07.4267 26280.6
 06 02 2013  21 39  -20.9953 26060.1 -03397.0 -07.4268 26280.6
 06 02 2013  21 40  -20.9954 26060.1 -03397.0 -07.4269 26280.5
 06 02 2013  21 41  -20.9955 26059.9 -03397.0 -07.4269 26280.3
 06 02 2013  21 42  -20.9959 26059.6 -03396.9 -07.4268 26280.0
 06 02 2013  21 43  -20.9961 26059.3 -03396.8 -07.4267 26279.7
 06 02 2013  21 44  -20.9963 26059.2 -03396.9 -07.4267 26279.7
 06 02 2013  21 45  -20.9964 26059.3 -03397.0 -07.4269 26279.8
 06 02 2013  21 46  -20.9964 26059.4 -03397.1 -07.4272 26279.9
 06 02 2013  21 47  -20.9965 26059.5 -03397.2 -07.4274 26280.0
 06 02 2013  21 48  -20.9967 26059.5 -03397.3 -07.4276 26280.0
 06 02 2013  21 49  -20.9969 26059.4 -03397.3 -07.4276 26279.9
 06 02 2013  21 50  -20.9970 26059.3 -03397.3 -07.4277 26279.8
 06 02 2013  21 51  -20.9970 26059.3 -03397.4 -07.4278 26279.8
 06 02 2013  21 52  -20.9971 26059.2 -03397.4 -07.4278 26279.8
 06 02 2013  21 53  -20.9973 26059.1 -03397.3 -07.4278 26279.6
 06 02 2013  21 54  -20.9978 26058.6 -03397.2 -07.4276 26279.1
 06 02 2013  21 55  -20.9983 26058.0 -03397.0 -07.4273 26278.4
 06 02 2013  21 56  -20.9988 26057.5 -03396.8 -07.4270 26278.0
 06 02 2013  21 57  -20.9990 26057.4 -03396.8 -07.4270 26277.9
 06 02 2013  21 58  -20.9990 26057.5 -03396.9 -07.4273 26278.0
 06 02 2013  21 59  -20.9991 26057.6 -03397.0 -07.4275 26278.1
 06 02 2013  22 00  -20.9992 26057.6 -03397.1 -07.4277 26278.2
 06 02 2013  22 01  -20.9991 26057.8 -03397.2 -07.4279 26278.3
 06 02 2013  22 02  -20.9991 26058.0 -03397.4 -07.4282 26278.5
 06 02 2013  22 03  -20.9991 26058.0 -03397.5 -07.4284 26278.5
 06 02 2013  22 04  -20.9992 26057.8 -03397.5 -07.4284 26278.4
 06 02 2013  22 05  -20.9994 26057.8 -03397.5 -07.4285 26278.4
 06 02 2013  22 06  -20.9999 26057.5 -03397.5 -07.4285 26278.1
 06 02 2013  22 07  -21.0003 26057.2 -03397.4 -07.4284 26277.7
 06 02 2013  22 08  -21.0007 26056.9 -03397.3 -07.4282 26277.4
 06 02 2013  22 09  -21.0013 26056.6 -03397.2 -07.4282 26277.1
 06 02 2013  22 10  -21.0016 26056.4 -03397.1 -07.4281 26277.0
 06 02 2013  22 11  -21.0018 26056.5 -03397.2 -07.4282 26277.1
 06 02 2013  22 12  -21.0019 26056.6 -03397.3 -07.4284 26277.2
 06 02 2013  22 13  -21.0021 26056.5 -03397.3 -07.4285 26277.1
 06 02 2013  22 14  -21.0022 26056.5 -03397.3 -07.4285 26277.0
 06 02 2013  22 15  -21.0022 26056.3 -03397.3 -07.4285 26276.9
 06 02 2013  22 16  -21.0024 26056.2 -03397.2 -07.4284 26276.7
 06 02 2013  22 17  -21.0025 26056.0 -03397.2 -07.4284 26276.6
 06 02 2013  22 18  -21.0025 26056.0 -03397.2 -07.4284 26276.6
 06 02 2013  22 19  -21.0025 26056.0 -03397.3 -07.4285 26276.6
 06 02 2013  22 20  -21.0023 26056.0 -03397.3 -07.4285 26276.5
 06 02 2013  22 21  -21.0025 26056.0 -03397.3 -07.4287 26276.5
 06 02 2013  22 22  -21.0027 26055.7 -03397.3 -07.4286 26276.3
 06 02 2013  22 23  -21.0033 26055.3 -03397.2 -07.4285 26275.8
 06 02 2013  22 24  -21.0036 26054.8 -03397.0 -07.4283 26275.3
 06 02 2013  22 25  -21.0036 26054.7 -03397.0 -07.4283 26275.2
 06 02 2013  22 26  -21.0032 26055.2 -03397.2 -07.4286 26275.7
 06 02 2013  22 27  -21.0030 26055.7 -03397.5 -07.4292 26276.3
 06 02 2013  22 28  -21.0029 26055.9 -03397.7 -07.4295 26276.5
 06 02 2013  22 29  -21.0031 26055.7 -03397.7 -07.4295 26276.3
 06 02 2013  22 30  -21.0034 26055.7 -03397.8 -07.4296 26276.3
 06 02 2013  22 31  -21.0038 26055.6 -03397.7 -07.4297 26276.2
 06 02 2013  22 32  -21.0041 26055.2 -03397.6 -07.4295 26275.8
 06 02 2013  22 33  -21.0044 26054.9 -03397.5 -07.4293 26275.5
 06 02 2013  22 34  -21.0047 26054.4 -03397.3 -07.4290 26275.0
 06 02 2013  22 35  -21.0049 26054.2 -03397.2 -07.4288 26274.7
 06 02 2013  22 36  -21.0052 26053.8 -03397.1 -07.4287 26274.4
 06 02 2013  22 37  -21.0056 26053.4 -03396.9 -07.4285 26274.0
 06 02 2013  22 38  -21.0058 26053.0 -03396.8 -07.4283 26273.6
 06 02 2013  22 39  -21.0058 26052.9 -03396.7 -07.4282 26273.4
 06 02 2013  22 40  -21.0057 26052.8 -03396.7 -07.4282 26273.2
 06 02 2013  22 41  -21.0058 26052.5 -03396.7 -07.4282 26273.0
 06 02 2013  22 42  -21.0057 26052.3 -03396.6 -07.4282 26272.8
 06 02 2013  22 43  -21.0058 26052.1 -03396.6 -07.4282 26272.6
 06 02 2013  22 44  -21.0059 26051.9 -03396.6 -07.4282 26272.4
 06 02 2013  22 45  -21.0060 26051.6 -03396.6 -07.4282 26272.1
 06 02 2013  22 46  -21.0061 26051.3 -03396.5 -07.4282 26271.8
 06 02 2013  22 47  -21.0061 26051.1 -03396.5 -07.4281 26271.6
 06 02 2013  22 48  -21.0059 26051.1 -03396.5 -07.4283 26271.5
 06 02 2013  22 49  -21.0058 26051.0 -03396.6 -07.4284 26271.5
 06 02 2013  22 50  -21.0059 26050.9 -03396.6 -07.4286 26271.4
 06 02 2013  22 51  -21.0060 26050.8 -03396.7 -07.4287 26271.3
 06 02 2013  22 52  -21.0062 26050.8 -03396.8 -07.4289 26271.3
 06 02 2013  22 53  -21.0062 26050.7 -03396.8 -07.4289 26271.2
 06 02 2013  22 54  -21.0061 26050.5 -03396.7 -07.4289 26271.0
 06 02 2013  22 55  -21.0060 26050.4 -03396.8 -07.4290 26270.9
 06 02 2013  22 56  -21.0061 26050.3 -03396.8 -07.4291 26270.8
 06 02 2013  22 57  -21.0061 26050.3 -03396.8 -07.4292 26270.8
 06 02 2013  22 58  -21.0061 26050.2 -03396.9 -07.4293 26270.7
 06 02 2013  22 59  -21.0062 26049.9 -03396.8 -07.4293 26270.5
 06 02 2013  23 00  -21.0062 26049.6 -03396.7 -07.4292 26270.1
 06 02 2013  23 01  -21.0062 26049.2 -03396.6 -07.4290 26269.8
 06 02 2013  23 02  -21.0061 26049.2 -03396.6 -07.4291 26269.7
 06 02 2013  23 03  -21.0060 26049.3 -03396.8 -07.4293 26269.8
 06 02 2013  23 04  -21.0060 26049.3 -03396.8 -07.4294 26269.8
 06 02 2013  23 05  -21.0061 26049.1 -03396.9 -07.4295 26269.7
 06 02 2013  23 06  -21.0061 26049.1 -03396.9 -07.4296 26269.6
 06 02 2013  23 07  -21.0059 26049.3 -03397.0 -07.4299 26269.9
 06 02 2013  23 08  -21.0056 26049.5 -03397.2 -07.4302 26270.1
 06 02 2013  23 09  -21.0057 26049.6 -03397.3 -07.4304 26270.2
 06 02 2013  23 10  -21.0059 26049.5 -03397.4 -07.4306 26270.1
 06 02 2013  23 11  -21.0061 26049.5 -03397.4 -07.4306 26270.1
 06 02 2013  23 12  -21.0060 26049.6 -03397.5 -07.4308 26270.2
 06 02 2013  23 13  -21.0060 26049.7 -03397.5 -07.4309 26270.3
 06 02 2013  23 14  -21.0061 26049.6 -03397.5 -07.4309 26270.2
 06 02 2013  23 15  -21.0061 26049.4 -03397.5 -07.4308 26270.0
 06 02 2013  23 16  -21.0062 26049.3 -03397.4 -07.4307 26269.9
 06 02 2013  23 17  -21.0063 26048.8 -03397.2 -07.4304 26269.4
 06 02 2013  23 18  -21.0066 26048.5 -03397.1 -07.4302 26269.1
 06 02 2013  23 19  -21.0066 26048.2 -03397.0 -07.4301 26268.8
 06 02 2013  23 20  -21.0067 26048.1 -03396.9 -07.4300 26268.6
 06 02 2013  23 21  -21.0066 26047.9 -03396.9 -07.4300 26268.5
 06 02 2013  23 22  -21.0064 26048.1 -03397.0 -07.4302 26268.7
 06 02 2013  23 23  -21.0062 26048.2 -03397.1 -07.4303 26268.8
 06 02 2013  23 24  -21.0063 26048.1 -03397.2 -07.4305 26268.7
 06 02 2013  23 25  -21.0063 26048.2 -03397.3 -07.4307 26268.8
 06 02 2013  23 26  -21.0064 26048.0 -03397.2 -07.4306 26268.6
 06 02 2013  23 27  -21.0065 26048.1 -03397.3 -07.4308 26268.7
 06 02 2013  23 28  -21.0064 26048.1 -03397.3 -07.4309 26268.7
 06 02 2013  23 29  -21.0064 26047.9 -03397.3 -07.4308 26268.5
 06 02 2013  23 30  -21.0063 26047.6 -03397.2 -07.4307 26268.2
 06 02 2013  23 31  -21.0063 26047.8 -03397.3 -07.4308 26268.4
 06 02 2013  23 32  -21.0064 26048.1 -03397.5 -07.4312 26268.7
 06 02 2013  23 33  -21.0064 26048.3 -03397.7 -07.4316 26269.0
 06 02 2013  23 34  -21.0062 26048.5 -03397.8 -07.4316 26269.2
 06 02 2013  23 35  -21.0059 26048.8 -03397.9 -07.4320 26269.5
 06 02 2013  23 36  -21.0059 26049.1 -03398.1 -07.4322 26269.8
 06 02 2013  23 37  -21.0061 26048.9 -03398.1 -07.4323 26269.6
 06 02 2013  23 38  -21.0063 26048.9 -03398.1 -07.4323 26269.6
 06 02 2013  23 39  -21.0062 26048.9 -03398.1 -07.4322 26269.6
 06 02 2013  23 40  -21.0060 26048.7 -03397.9 -07.4320 26269.4
 06 02 2013  23 41  -21.0057 26048.5 -03397.9 -07.4319 26269.2
 06 02 2013  23 42  -21.0057 26048.2 -03397.7 -07.4316 26268.9
 06 02 2013  23 43  -21.0054 26047.9 -03397.5 -07.4314 26268.5
 06 02 2013  23 44  -21.0052 26047.7 -03397.4 -07.4312 26268.3
 06 02 2013  23 45  -21.0051 26047.3 -03397.3 -07.4311 26268.0
 06 02 2013  23 46  -21.0051 26047.1 -03397.2 -07.4309 26267.7
 06 02 2013  23 47  -21.0050 26046.9 -03397.2 -07.4309 26267.5
 06 02 2013  23 48  -21.0050 26046.6 -03397.1 -07.4308 26267.2
 06 02 2013  23 49  -21.0051 26046.5 -03397.2 -07.4309 26267.1
 06 02 2013  23 50  -21.0052 26046.6 -03397.3 -07.4312 26267.2
 06 02 2013  23 51  -21.0049 26046.8 -03397.4 -07.4314 26267.4
 06 02 2013  23 52  -21.0049 26046.9 -03397.5 -07.4316 26267.5
 06 02 2013  23 53  -21.0048 26046.9 -03397.6 -07.4317 26267.6
 06 02 2013  23 54  -21.0047 26047.0 -03397.7 -07.4319 26267.7
 06 02 2013  23 55  -21.0044 26047.2 -03397.8 -07.4321 26267.9
 06 02 2013  23 56  -21.0043 26047.3 -03397.9 -07.4322 26268.0
 06 02 2013  23 57  -21.0044 26047.2 -03397.9 -07.4322 26267.9
