SAO LUIS EMBRACE-03 <220> 1 Min. Reported data

 DD MM YYYY  HH MM   D(Deg)  H(nT)   Z(nT)   I(Deg)   F(nT)

 08 08 2013  00 00  -21.0304 26026.1 -03470.6 -07.5956 26256.5
 08 08 2013  00 01  -21.0303 26026.1 -03470.6 -07.5957 26256.4
 08 08 2013  00 02  -21.0302 26026.0 -03470.6 -07.5955 26256.4
 08 08 2013  00 03  -21.0302 26026.0 -03470.6 -07.5956 26256.4
 08 08 2013  00 04  -21.0303 26025.9 -03470.6 -07.5956 26256.2
 08 08 2013  00 05  -21.0306 26025.7 -03470.5 -07.5955 26256.1
 08 08 2013  00 06  -21.0307 26025.6 -03470.5 -07.5954 26256.0
 08 08 2013  00 07  -21.0308 26025.6 -03470.5 -07.5955 26256.0
 08 08 2013  00 08  -21.0309 26025.6 -03470.5 -07.5955 26256.0
 08 08 2013  00 09  -21.0310 26025.6 -03470.5 -07.5955 26256.0
 08 08 2013  00 10  -21.0309 26025.5 -03470.5 -07.5955 26255.9
 08 08 2013  00 11  -21.0310 26025.4 -03470.4 -07.5954 26255.7
 08 08 2013  00 12  -21.0309 26025.3 -03470.4 -07.5953 26255.7
 08 08 2013  00 13  -21.0307 26025.5 -03470.4 -07.5954 26255.8
 08 08 2013  00 14  -21.0307 26025.4 -03470.4 -07.5954 26255.8
 08 08 2013  00 15  -21.0305 26025.7 -03470.6 -07.5957 26256.1
 08 08 2013  00 16  -21.0302 26025.7 -03470.6 -07.5957 26256.1
 08 08 2013  00 17  -21.0300 26025.5 -03470.5 -07.5956 26255.9
 08 08 2013  00 18  -21.0296 26025.8 -03470.7 -07.5958 26256.2
 08 08 2013  00 19  -21.0293 26026.0 -03470.8 -07.5960 26256.4
 08 08 2013  00 20  -21.0292 26025.9 -03470.8 -07.5961 26256.3
 08 08 2013  00 21  -21.0290 26026.1 -03470.9 -07.5962 26256.5
 08 08 2013  00 22  -21.0285 26026.4 -03471.0 -07.5965 26256.9
 08 08 2013  00 23  -21.0286 26026.2 -03471.0 -07.5963 26256.7
 08 08 2013  00 24  -21.0286 26026.1 -03470.9 -07.5963 26256.5
 08 08 2013  00 25  -21.0281 26026.4 -03471.0 -07.5965 26256.9
 08 08 2013  00 26  -21.0281 26026.3 -03471.0 -07.5965 26256.7
 08 08 2013  00 27  -21.0281 26026.1 -03470.9 -07.5963 26256.5
 08 08 2013  00 28  -21.0278 26026.2 -03471.0 -07.5964 26256.6
 08 08 2013  00 29  -21.0279 26026.0 -03470.9 -07.5963 26256.5
 08 08 2013  00 30  -21.0277 26026.2 -03471.0 -07.5964 26256.6
 08 08 2013  00 31  -21.0274 26026.3 -03471.0 -07.5965 26256.8
 08 08 2013  00 32  -21.0274 26026.2 -03471.1 -07.5966 26256.7
 08 08 2013  00 33  -21.0274 26026.1 -03471.0 -07.5964 26256.5
 08 08 2013  00 34  -21.0273 26026.2 -03471.0 -07.5965 26256.7
 08 08 2013  00 35  -21.0272 26026.4 -03471.1 -07.5967 26256.9
 08 08 2013  00 36  -21.0271 26026.6 -03471.3 -07.5969 26257.1
 08 08 2013  00 37  -21.0270 26026.8 -03471.4 -07.5971 26257.3
 08 08 2013  00 38  -21.0270 26026.8 -03471.4 -07.5971 26257.2
 08 08 2013  00 39  -21.0271 26026.9 -03471.4 -07.5971 26257.4
 08 08 2013  00 40  -21.0271 26027.0 -03471.5 -07.5972 26257.5
 08 08 2013  00 41  -21.0272 26027.0 -03471.5 -07.5972 26257.5
 08 08 2013  00 42  -21.0273 26026.9 -03471.4 -07.5972 26257.4
 08 08 2013  00 43  -21.0274 26026.8 -03471.4 -07.5971 26257.3
 08 08 2013  00 44  -21.0277 26026.7 -03471.3 -07.5970 26257.2
 08 08 2013  00 45  -21.0278 26026.8 -03471.3 -07.5970 26257.3
 08 08 2013  00 46  -21.0277 26026.9 -03471.3 -07.5970 26257.3
 08 08 2013  00 47  -21.0277 26026.9 -03471.3 -07.5970 26257.3
 08 08 2013  00 48  -21.0279 26026.6 -03471.3 -07.5969 26257.1
 08 08 2013  00 49  -21.0280 26026.6 -03471.2 -07.5968 26257.0
 08 08 2013  00 50  -21.0283 26026.5 -03471.2 -07.5967 26257.0
 08 08 2013  00 51  -21.0285 26026.5 -03471.2 -07.5968 26257.0
 08 08 2013  00 52  -21.0285 26026.5 -03471.2 -07.5968 26257.0
 08 08 2013  00 53  -21.0287 26026.6 -03471.2 -07.5968 26257.1
 08 08 2013  00 54  -21.0288 26026.6 -03471.2 -07.5968 26257.1
 08 08 2013  00 55  -21.0290 26026.7 -03471.2 -07.5968 26257.1
 08 08 2013  00 56  -21.0291 26026.6 -03471.2 -07.5968 26257.1
 08 08 2013  00 57  -21.0293 26026.6 -03471.2 -07.5968 26257.0
 08 08 2013  00 58  -21.0295 26026.5 -03471.2 -07.5967 26256.9
 08 08 2013  00 59  -21.0296 26026.4 -03471.1 -07.5966 26256.9
 08 08 2013  01 00  -21.0296 26026.4 -03471.1 -07.5965 26256.8
 08 08 2013  01 01  -21.0295 26026.6 -03471.2 -07.5967 26257.0
 08 08 2013  01 02  -21.0296 26026.6 -03471.1 -07.5966 26257.0
 08 08 2013  01 03  -21.0295 26026.7 -03471.2 -07.5967 26257.1
 08 08 2013  01 04  -21.0293 26026.8 -03471.2 -07.5967 26257.2
 08 08 2013  01 05  -21.0294 26026.7 -03471.2 -07.5967 26257.2
 08 08 2013  01 06  -21.0294 26026.7 -03471.2 -07.5968 26257.2
 08 08 2013  01 07  -21.0293 26026.9 -03471.2 -07.5968 26257.3
 08 08 2013  01 08  -21.0291 26027.0 -03471.3 -07.5969 26257.4
 08 08 2013  01 09  -21.0291 26027.0 -03471.3 -07.5969 26257.5
 08 08 2013  01 10  -21.0291 26027.1 -03471.4 -07.5970 26257.6
 08 08 2013  01 11  -21.0290 26027.3 -03471.4 -07.5971 26257.8
 08 08 2013  01 12  -21.0290 26027.3 -03471.5 -07.5971 26257.7
 08 08 2013  01 13  -21.0290 26027.3 -03471.5 -07.5972 26257.8
 08 08 2013  01 14  -21.0290 26027.5 -03471.5 -07.5972 26258.0
 08 08 2013  01 15  -21.0288 26027.5 -03471.5 -07.5972 26258.0
 08 08 2013  01 16  -21.0289 26027.5 -03471.5 -07.5972 26258.0
 08 08 2013  01 17  -21.0290 26027.4 -03471.5 -07.5972 26257.9
 08 08 2013  01 18  -21.0293 26027.3 -03471.5 -07.5971 26257.8
 08 08 2013  01 19  -21.0295 26027.4 -03471.5 -07.5972 26257.9
 08 08 2013  01 20  -21.0295 26027.3 -03471.5 -07.5971 26257.8
 08 08 2013  01 21  -21.0294 26027.4 -03471.4 -07.5970 26257.8
 08 08 2013  01 22  -21.0292 26027.3 -03471.4 -07.5970 26257.8
 08 08 2013  01 23  -21.0291 26027.2 -03471.3 -07.5969 26257.7
 08 08 2013  01 24  -21.0291 26027.2 -03471.4 -07.5970 26257.7
 08 08 2013  01 25  -21.0291 26027.3 -03471.4 -07.5970 26257.7
 08 08 2013  01 26  -21.0291 26027.3 -03471.4 -07.5970 26257.7
 08 08 2013  01 27  -21.0291 26027.3 -03471.5 -07.5971 26257.8
 08 08 2013  01 28  -21.0292 26027.3 -03471.4 -07.5971 26257.8
 08 08 2013  01 29  -21.0292 26027.3 -03471.4 -07.5971 26257.8
 08 08 2013  01 30  -21.0293 26027.1 -03471.4 -07.5970 26257.6
 08 08 2013  01 31  -21.0295 26027.0 -03471.3 -07.5969 26257.5
 08 08 2013  01 32  -21.0297 26026.9 -03471.3 -07.5969 26257.4
 08 08 2013  01 33  -21.0295 26027.0 -03471.2 -07.5966 26257.5
 08 08 2013  01 34  -21.0295 26026.9 -03471.1 -07.5965 26257.3
 08 08 2013  01 35  -21.0295 26026.8 -03471.1 -07.5965 26257.2
 08 08 2013  01 36  -21.0296 26026.6 -03471.1 -07.5965 26257.0
 08 08 2013  01 37  -21.0297 26026.5 -03471.0 -07.5964 26256.9
 08 08 2013  01 38  -21.0297 26026.4 -03471.0 -07.5964 26256.8
 08 08 2013  01 39  -21.0297 26026.3 -03470.9 -07.5963 26256.7
 08 08 2013  01 40  -21.0295 26026.2 -03470.9 -07.5963 26256.7
 08 08 2013  01 41  -21.0295 26026.2 -03470.9 -07.5963 26256.6
 08 08 2013  01 42  -21.0294 26026.2 -03470.9 -07.5963 26256.6
 08 08 2013  01 43  -21.0292 26026.4 -03471.0 -07.5965 26256.8
 08 08 2013  01 44  -21.0291 26026.6 -03471.2 -07.5967 26257.0
 08 08 2013  01 45  -21.0288 26026.6 -03471.2 -07.5968 26257.1
 08 08 2013  01 46  -21.0287 26026.6 -03471.3 -07.5969 26257.1
 08 08 2013  01 47  -21.0286 26026.8 -03471.3 -07.5969 26257.2
 08 08 2013  01 48  -21.0287 26026.8 -03471.3 -07.5970 26257.2
 08 08 2013  01 49  -21.0288 26026.8 -03471.4 -07.5970 26257.3
 08 08 2013  01 50  -21.0290 26026.8 -03471.4 -07.5971 26257.3
 08 08 2013  01 51  -21.0290 26026.9 -03471.4 -07.5972 26257.3
 08 08 2013  01 52  -21.0290 26026.9 -03471.4 -07.5972 26257.4
 08 08 2013  01 53  -21.0291 26026.9 -03471.4 -07.5971 26257.4
 08 08 2013  01 54  -21.0291 26026.9 -03471.4 -07.5971 26257.4
 08 08 2013  01 55  -21.0291 26026.9 -03471.4 -07.5971 26257.4
 08 08 2013  01 56  -21.0291 26026.9 -03471.4 -07.5970 26257.3
 08 08 2013  01 57  -21.0291 26026.9 -03471.4 -07.5971 26257.4
 08 08 2013  01 58  -21.0290 26026.9 -03471.4 -07.5971 26257.4
 08 08 2013  01 59  -21.0291 26026.9 -03471.4 -07.5971 26257.4
 08 08 2013  02 00  -21.0290 26026.9 -03471.4 -07.5971 26257.4
 08 08 2013  02 01  -21.0291 26026.9 -03471.4 -07.5971 26257.3
 08 08 2013  02 02  -21.0291 26026.9 -03471.4 -07.5971 26257.3
 08 08 2013  02 03  -21.0292 26026.9 -03471.4 -07.5971 26257.4
 08 08 2013  02 04  -21.0293 26026.9 -03471.4 -07.5971 26257.4
 08 08 2013  02 05  -21.0293 26026.9 -03471.4 -07.5971 26257.4
 08 08 2013  02 06  -21.0293 26026.9 -03471.4 -07.5971 26257.4
 08 08 2013  02 07  -21.0293 26026.9 -03471.4 -07.5971 26257.4
 08 08 2013  02 08  -21.0294 26026.8 -03471.4 -07.5970 26257.3
 08 08 2013  02 09  -21.0294 26026.8 -03471.3 -07.5969 26257.2
 08 08 2013  02 10  -21.0293 26026.7 -03471.3 -07.5969 26257.1
 08 08 2013  02 11  -21.0293 26026.6 -03471.3 -07.5969 26257.0
 08 08 2013  02 12  -21.0293 26026.5 -03471.2 -07.5969 26257.0
 08 08 2013  02 13  -21.0294 26026.5 -03471.2 -07.5968 26257.0
 08 08 2013  02 14  -21.0295 26026.5 -03471.2 -07.5968 26257.0
 08 08 2013  02 15  -21.0295 26026.5 -03471.2 -07.5969 26257.0
 08 08 2013  02 16  -21.0295 26026.5 -03471.3 -07.5969 26257.0
 08 08 2013  02 17  -21.0296 26026.5 -03471.3 -07.5970 26257.0
 08 08 2013  02 18  -21.0296 26026.5 -03471.3 -07.5969 26257.0
 08 08 2013  02 19  -21.0296 26026.5 -03471.3 -07.5969 26256.9
 08 08 2013  02 20  -21.0295 26026.4 -03471.3 -07.5969 26256.9
 08 08 2013  02 21  -21.0294 26026.4 -03471.2 -07.5969 26256.9
 08 08 2013  02 22  -21.0292 26026.4 -03471.2 -07.5969 26256.9
 08 08 2013  02 23  -21.0292 26026.4 -03471.3 -07.5970 26256.9
 08 08 2013  02 24  -21.0292 26026.4 -03471.3 -07.5971 26256.9
 08 08 2013  02 25  -21.0291 26026.4 -03471.4 -07.5971 26256.9
 08 08 2013  02 26  -21.0291 26026.4 -03471.4 -07.5972 26256.9
 08 08 2013  02 27  -21.0290 26026.4 -03471.4 -07.5972 26256.9
 08 08 2013  02 28  -21.0290 26026.4 -03471.4 -07.5972 26256.9
 08 08 2013  02 29  -21.0289 26026.4 -03471.4 -07.5972 26256.9
 08 08 2013  02 30  -21.0288 26026.4 -03471.4 -07.5972 26256.9
 08 08 2013  02 31  -21.0289 26026.4 -03471.5 -07.5974 26256.9
 08 08 2013  02 32  -21.0289 26026.5 -03471.5 -07.5974 26257.0
 08 08 2013  02 33  -21.0290 26026.5 -03471.5 -07.5975 26257.0
 08 08 2013  02 34  -21.0289 26026.6 -03471.6 -07.5976 26257.1
 08 08 2013  02 35  -21.0289 26026.6 -03471.6 -07.5976 26257.1
 08 08 2013  02 36  -21.0290 26026.6 -03471.6 -07.5976 26257.1
 08 08 2013  02 37  -21.0290 26026.6 -03471.6 -07.5976 26257.2
 08 08 2013  02 38  -21.0290 26026.7 -03471.6 -07.5976 26257.2
 08 08 2013  02 39  -21.0290 26026.6 -03471.6 -07.5977 26257.2
 08 08 2013  02 40  -21.0290 26026.6 -03471.6 -07.5977 26257.2
 08 08 2013  02 41  -21.0290 26026.6 -03471.6 -07.5977 26257.1
 08 08 2013  02 42  -21.0291 26026.5 -03471.6 -07.5977 26257.0
 08 08 2013  02 43  -21.0292 26026.5 -03471.6 -07.5976 26257.0
 08 08 2013  02 44  -21.0293 26026.5 -03471.6 -07.5977 26257.0
 08 08 2013  02 45  -21.0293 26026.4 -03471.6 -07.5977 26256.9
 08 08 2013  02 46  -21.0292 26026.4 -03471.6 -07.5976 26256.9
 08 08 2013  02 47  -21.0293 26026.4 -03471.6 -07.5976 26256.9
 08 08 2013  02 48  -21.0293 26026.3 -03471.6 -07.5977 26256.8
 08 08 2013  02 49  -21.0293 26026.3 -03471.6 -07.5977 26256.8
 08 08 2013  02 50  -21.0293 26026.3 -03471.6 -07.5977 26256.8
 08 08 2013  02 51  -21.0293 26026.2 -03471.6 -07.5978 26256.7
 08 08 2013  02 52  -21.0293 26026.2 -03471.6 -07.5978 26256.7
 08 08 2013  02 53  -21.0293 26026.2 -03471.6 -07.5978 26256.7
 08 08 2013  02 54  -21.0293 26026.2 -03471.6 -07.5978 26256.7
 08 08 2013  02 55  -21.0294 26026.2 -03471.7 -07.5979 26256.7
 08 08 2013  02 56  -21.0295 26026.2 -03471.7 -07.5979 26256.8
 08 08 2013  02 57  -21.0295 26026.2 -03471.7 -07.5980 26256.8
 08 08 2013  02 58  -21.0296 26026.2 -03471.7 -07.5979 26256.8
 08 08 2013  02 59  -21.0295 26026.3 -03471.7 -07.5979 26256.8
 08 08 2013  03 00  -21.0295 26026.3 -03471.7 -07.5980 26256.8
 08 08 2013  03 01  -21.0294 26026.3 -03471.8 -07.5981 26256.9
 08 08 2013  03 02  -21.0293 26026.4 -03471.8 -07.5982 26256.9
 08 08 2013  03 03  -21.0292 26026.5 -03471.9 -07.5983 26257.0
 08 08 2013  03 04  -21.0292 26026.5 -03471.9 -07.5983 26257.1
 08 08 2013  03 05  -21.0291 26026.6 -03471.9 -07.5983 26257.1
 08 08 2013  03 06  -21.0291 26026.6 -03471.9 -07.5984 26257.2
 08 08 2013  03 07  -21.0291 26026.6 -03472.0 -07.5984 26257.2
 08 08 2013  03 08  -21.0291 26026.6 -03472.0 -07.5984 26257.2
 08 08 2013  03 09  -21.0291 26026.7 -03472.0 -07.5985 26257.3
 08 08 2013  03 10  -21.0291 26026.8 -03472.0 -07.5985 26257.3
 08 08 2013  03 11  -21.0291 26026.8 -03472.0 -07.5985 26257.3
 08 08 2013  03 12  -21.0291 26026.8 -03472.0 -07.5985 26257.4
 08 08 2013  03 13  -21.0291 26026.8 -03472.0 -07.5985 26257.4
 08 08 2013  03 14  -21.0291 26026.8 -03472.0 -07.5985 26257.4
 08 08 2013  03 15  -21.0290 26026.8 -03472.0 -07.5985 26257.4
 08 08 2013  03 16  -21.0289 26026.7 -03472.0 -07.5985 26257.3
 08 08 2013  03 17  -21.0289 26026.7 -03472.0 -07.5985 26257.2
 08 08 2013  03 18  -21.0288 26026.7 -03472.0 -07.5984 26257.3
 08 08 2013  03 19  -21.0289 26026.8 -03472.0 -07.5985 26257.3
 08 08 2013  03 20  -21.0289 26026.8 -03472.1 -07.5986 26257.4
 08 08 2013  03 21  -21.0288 26026.9 -03472.1 -07.5987 26257.5
 08 08 2013  03 22  -21.0288 26027.0 -03472.2 -07.5988 26257.6
 08 08 2013  03 23  -21.0289 26027.0 -03472.2 -07.5988 26257.6
 08 08 2013  03 24  -21.0289 26027.1 -03472.2 -07.5988 26257.7
 08 08 2013  03 25  -21.0290 26027.0 -03472.2 -07.5988 26257.6
 08 08 2013  03 26  -21.0291 26027.0 -03472.2 -07.5988 26257.6
 08 08 2013  03 27  -21.0292 26027.0 -03472.2 -07.5988 26257.6
 08 08 2013  03 28  -21.0292 26026.9 -03472.1 -07.5987 26257.5
 08 08 2013  03 29  -21.0292 26026.9 -03472.1 -07.5987 26257.5
 08 08 2013  03 30  -21.0292 26026.8 -03472.1 -07.5986 26257.4
 08 08 2013  03 31  -21.0293 26026.8 -03472.1 -07.5986 26257.4
 08 08 2013  03 32  -21.0293 26026.8 -03472.0 -07.5985 26257.3
 08 08 2013  03 33  -21.0294 26026.7 -03472.0 -07.5985 26257.3
 08 08 2013  03 34  -21.0295 26026.7 -03472.1 -07.5986 26257.3
 08 08 2013  03 35  -21.0296 26026.7 -03472.1 -07.5986 26257.3
 08 08 2013  03 36  -21.0295 26026.8 -03472.1 -07.5986 26257.3
 08 08 2013  03 37  -21.0295 26026.7 -03472.1 -07.5986 26257.3
 08 08 2013  03 38  -21.0295 26026.8 -03472.1 -07.5987 26257.4
 08 08 2013  03 39  -21.0295 26026.8 -03472.1 -07.5987 26257.3
 08 08 2013  03 40  -21.0295 26026.8 -03472.1 -07.5986 26257.3
 08 08 2013  03 41  -21.0295 26026.8 -03472.1 -07.5986 26257.3
 08 08 2013  03 42  -21.0295 26026.8 -03472.1 -07.5987 26257.3
 08 08 2013  03 43  -21.0294 26026.7 -03472.1 -07.5987 26257.3
 08 08 2013  03 44  -21.0294 26026.6 -03472.1 -07.5986 26257.2
 08 08 2013  03 45  -21.0295 26026.6 -03472.1 -07.5986 26257.2
 08 08 2013  03 46  -21.0295 26026.6 -03472.1 -07.5986 26257.2
 08 08 2013  03 47  -21.0295 26026.6 -03472.1 -07.5987 26257.2
 08 08 2013  03 48  -21.0295 26026.7 -03472.1 -07.5987 26257.2
 08 08 2013  03 49  -21.0294 26026.7 -03472.1 -07.5987 26257.3
 08 08 2013  03 50  -21.0293 26026.7 -03472.1 -07.5988 26257.3
 08 08 2013  03 51  -21.0293 26026.8 -03472.2 -07.5988 26257.4
 08 08 2013  03 52  -21.0292 26026.8 -03472.2 -07.5989 26257.4
 08 08 2013  03 53  -21.0291 26026.9 -03472.2 -07.5989 26257.4
 08 08 2013  03 54  -21.0290 26026.9 -03472.2 -07.5989 26257.5
 08 08 2013  03 55  -21.0290 26026.9 -03472.3 -07.5990 26257.5
 08 08 2013  03 56  -21.0289 26026.9 -03472.3 -07.5990 26257.5
 08 08 2013  03 57  -21.0287 26027.0 -03472.3 -07.5990 26257.6
 08 08 2013  03 58  -21.0286 26027.0 -03472.3 -07.5991 26257.6
 08 08 2013  03 59  -21.0286 26027.0 -03472.3 -07.5991 26257.6
 08 08 2013  04 00  -21.0286 26027.0 -03472.3 -07.5991 26257.6
 08 08 2013  04 01  -21.0286 26026.9 -03472.3 -07.5991 26257.5
 08 08 2013  04 02  -21.0286 26026.8 -03472.3 -07.5991 26257.4
 08 08 2013  04 03  -21.0286 26026.9 -03472.3 -07.5991 26257.5
 08 08 2013  04 04  -21.0285 26026.8 -03472.3 -07.5991 26257.4
 08 08 2013  04 05  -21.0286 26026.8 -03472.3 -07.5991 26257.4
 08 08 2013  04 06  -21.0286 26026.7 -03472.3 -07.5992 26257.3
 08 08 2013  04 07  -21.0286 26026.7 -03472.3 -07.5991 26257.3
 08 08 2013  04 08  -21.0287 26026.6 -03472.3 -07.5991 26257.2
 08 08 2013  04 09  -21.0286 26026.6 -03472.3 -07.5991 26257.2
 08 08 2013  04 10  -21.0286 26026.6 -03472.3 -07.5991 26257.2
 08 08 2013  04 11  -21.0287 26026.5 -03472.3 -07.5991 26257.1
 08 08 2013  04 12  -21.0287 26026.6 -03472.3 -07.5991 26257.2
 08 08 2013  04 13  -21.0287 26026.5 -03472.3 -07.5992 26257.2
 08 08 2013  04 14  -21.0287 26026.5 -03472.3 -07.5992 26257.1
 08 08 2013  04 15  -21.0288 26026.5 -03472.3 -07.5992 26257.1
 08 08 2013  04 16  -21.0287 26026.5 -03472.4 -07.5993 26257.1
 08 08 2013  04 17  -21.0287 26026.6 -03472.4 -07.5993 26257.2
 08 08 2013  04 18  -21.0287 26026.7 -03472.4 -07.5994 26257.3
 08 08 2013  04 19  -21.0287 26026.6 -03472.4 -07.5994 26257.3
 08 08 2013  04 20  -21.0286 26026.6 -03472.5 -07.5995 26257.3
 08 08 2013  04 21  -21.0285 26026.7 -03472.4 -07.5994 26257.3
 08 08 2013  04 22  -21.0285 26026.7 -03472.4 -07.5994 26257.3
 08 08 2013  04 23  -21.0284 26026.6 -03472.4 -07.5994 26257.2
 08 08 2013  04 24  -21.0284 26026.6 -03472.4 -07.5994 26257.2
 08 08 2013  04 25  -21.0284 26026.6 -03472.5 -07.5995 26257.2
 08 08 2013  04 26  -21.0284 26026.6 -03472.5 -07.5995 26257.2
 08 08 2013  04 27  -21.0284 26026.5 -03472.4 -07.5994 26257.1
 08 08 2013  04 28  -21.0285 26026.5 -03472.4 -07.5994 26257.1
 08 08 2013  04 29  -21.0284 26026.5 -03472.4 -07.5994 26257.1
 08 08 2013  04 30  -21.0284 26026.4 -03472.4 -07.5994 26257.0
 08 08 2013  04 31  -21.0284 26026.3 -03472.4 -07.5994 26256.9
 08 08 2013  04 32  -21.0283 26026.3 -03472.3 -07.5993 26256.9
 08 08 2013  04 33  -21.0282 26026.2 -03472.3 -07.5994 26256.8
 08 08 2013  04 34  -21.0281 26026.1 -03472.3 -07.5994 26256.7
 08 08 2013  04 35  -21.0280 26026.0 -03472.3 -07.5994 26256.6
 08 08 2013  04 36  -21.0279 26025.9 -03472.3 -07.5994 26256.6
 08 08 2013  04 37  -21.0276 26025.9 -03472.4 -07.5995 26256.6
 08 08 2013  04 38  -21.0274 26026.0 -03472.4 -07.5995 26256.6
 08 08 2013  04 39  -21.0272 26026.1 -03472.5 -07.5997 26256.7
 08 08 2013  04 40  -21.0272 26026.0 -03472.5 -07.5997 26256.7
 08 08 2013  04 41  -21.0269 26026.4 -03472.6 -07.5999 26257.0
 08 08 2013  04 42  -21.0268 26026.3 -03472.7 -07.6001 26256.9
 08 08 2013  04 43  -21.0265 26026.5 -03472.8 -07.6002 26257.2
 08 08 2013  04 44  -21.0264 26026.5 -03472.8 -07.6002 26257.2
 08 08 2013  04 45  -21.0260 26026.8 -03472.9 -07.6004 26257.5
 08 08 2013  04 46  -21.0260 26026.6 -03472.9 -07.6004 26257.2
 08 08 2013  04 47  -21.0259 26026.6 -03472.9 -07.6004 26257.3
 08 08 2013  04 48  -21.0258 26026.8 -03473.0 -07.6005 26257.5
 08 08 2013  04 49  -21.0260 26026.8 -03473.0 -07.6006 26257.5
 08 08 2013  04 50  -21.0260 26026.7 -03472.9 -07.6005 26257.3
 08 08 2013  04 51  -21.0260 26026.8 -03473.0 -07.6006 26257.5
 08 08 2013  04 52  -21.0260 26026.8 -03473.0 -07.6006 26257.5
 08 08 2013  04 53  -21.0259 26026.7 -03473.0 -07.6007 26257.4
 08 08 2013  04 54  -21.0259 26026.5 -03472.9 -07.6005 26257.2
 08 08 2013  04 55  -21.0258 26026.5 -03472.9 -07.6004 26257.2
 08 08 2013  04 56  -21.0257 26026.6 -03472.9 -07.6005 26257.2
 08 08 2013  04 57  -21.0257 26026.4 -03472.9 -07.6006 26257.1
 08 08 2013  04 58  -21.0258 26026.3 -03472.9 -07.6004 26257.0
 08 08 2013  04 59  -21.0255 26026.4 -03472.9 -07.6006 26257.1
 08 08 2013  05 00  -21.0255 26026.3 -03472.9 -07.6006 26257.0
 08 08 2013  05 01  -21.0253 26026.4 -03473.0 -07.6006 26257.1
 08 08 2013  05 02  -21.0252 26026.5 -03473.0 -07.6007 26257.2
 08 08 2013  05 03  -21.0252 26026.4 -03473.0 -07.6007 26257.1
 08 08 2013  05 04  -21.0251 26026.6 -03473.1 -07.6009 26257.4
 08 08 2013  05 05  -21.0250 26026.7 -03473.2 -07.6011 26257.4
 08 08 2013  05 06  -21.0251 26026.6 -03473.1 -07.6010 26257.3
 08 08 2013  05 07  -21.0250 26027.0 -03473.3 -07.6013 26257.7
 08 08 2013  05 08  -21.0252 26026.7 -03473.3 -07.6012 26257.4
 08 08 2013  05 09  -21.0251 26026.6 -03473.2 -07.6011 26257.4
 08 08 2013  05 10  -21.0250 26027.0 -03473.4 -07.6014 26257.7
 08 08 2013  05 11  -21.0251 26026.8 -03473.3 -07.6013 26257.6
 08 08 2013  05 12  -21.0248 26027.1 -03473.4 -07.6015 26257.8
 08 08 2013  05 13  -21.0247 26027.2 -03473.5 -07.6016 26258.0
 08 08 2013  05 14  -21.0245 26027.2 -03473.5 -07.6015 26257.9
 08 08 2013  05 15  -21.0242 26027.0 -03473.4 -07.6014 26257.8
 08 08 2013  05 16  -21.0240 26026.9 -03473.3 -07.6013 26257.6
 08 08 2013  05 17  -21.0239 26027.0 -03473.4 -07.6014 26257.7
 08 08 2013  05 18  -21.0238 26026.9 -03473.4 -07.6014 26257.7
 08 08 2013  05 19  -21.0236 26027.1 -03473.5 -07.6015 26257.8
 08 08 2013  05 20  -21.0236 26027.1 -03473.5 -07.6016 26257.8
 08 08 2013  05 21  -21.0235 26027.0 -03473.5 -07.6016 26257.8
 08 08 2013  05 22  -21.0234 26027.3 -03473.7 -07.6019 26258.1
 08 08 2013  05 23  -21.0235 26027.2 -03473.7 -07.6019 26258.0
 08 08 2013  05 24  -21.0234 26027.3 -03473.7 -07.6019 26258.1
 08 08 2013  05 25  -21.0234 26027.4 -03473.7 -07.6020 26258.2
 08 08 2013  05 26  -21.0234 26027.3 -03473.6 -07.6018 26258.0
 08 08 2013  05 27  -21.0232 26027.4 -03473.7 -07.6019 26258.1
 08 08 2013  05 28  -21.0230 26027.2 -03473.6 -07.6017 26258.0
 08 08 2013  05 29  -21.0228 26027.1 -03473.5 -07.6016 26257.8
 08 08 2013  05 30  -21.0226 26027.3 -03473.6 -07.6018 26258.0
 08 08 2013  05 31  -21.0226 26027.2 -03473.6 -07.6019 26257.9
 08 08 2013  05 32  -21.0224 26027.0 -03473.6 -07.6018 26257.8
 08 08 2013  05 33  -21.0223 26027.1 -03473.6 -07.6019 26257.9
 08 08 2013  05 34  -21.0223 26026.9 -03473.6 -07.6018 26257.7
 08 08 2013  05 35  -21.0221 26027.1 -03473.6 -07.6019 26257.9
 08 08 2013  05 36  -21.0219 26027.0 -03473.7 -07.6019 26257.8
 08 08 2013  05 37  -21.0218 26026.9 -03473.6 -07.6019 26257.7
 08 08 2013  05 38  -21.0216 26026.9 -03473.6 -07.6019 26257.7
 08 08 2013  05 39  -21.0216 26026.9 -03473.6 -07.6020 26257.7
 08 08 2013  05 40  -21.0215 26026.9 -03473.7 -07.6021 26257.7
 08 08 2013  05 41  -21.0215 26026.9 -03473.7 -07.6021 26257.7
 08 08 2013  05 42  -21.0215 26027.0 -03473.8 -07.6023 26257.8
 08 08 2013  05 43  -21.0215 26027.1 -03473.9 -07.6024 26258.0
 08 08 2013  05 44  -21.0215 26027.1 -03473.9 -07.6024 26257.9
 08 08 2013  05 45  -21.0215 26027.1 -03473.8 -07.6023 26257.9
 08 08 2013  05 46  -21.0214 26027.1 -03473.9 -07.6024 26257.9
 08 08 2013  05 47  -21.0213 26027.2 -03473.9 -07.6024 26258.0
 08 08 2013  05 48  -21.0213 26027.2 -03473.9 -07.6024 26258.0
 08 08 2013  05 49  -21.0212 26027.2 -03473.9 -07.6025 26258.0
 08 08 2013  05 50  -21.0213 26027.1 -03473.9 -07.6025 26258.0
 08 08 2013  05 51  -21.0213 26027.3 -03474.0 -07.6026 26258.1
 08 08 2013  05 52  -21.0213 26027.3 -03474.0 -07.6027 26258.1
 08 08 2013  05 53  -21.0213 26027.3 -03474.0 -07.6026 26258.1
 08 08 2013  05 54  -21.0212 26027.3 -03474.0 -07.6026 26258.1
 08 08 2013  05 55  -21.0212 26027.2 -03474.0 -07.6026 26258.0
 08 08 2013  05 56  -21.0212 26027.2 -03474.0 -07.6026 26258.0
 08 08 2013  05 57  -21.0213 26027.2 -03474.0 -07.6026 26258.1
 08 08 2013  05 58  -21.0212 26027.2 -03474.0 -07.6026 26258.0
 08 08 2013  05 59  -21.0209 26027.2 -03474.0 -07.6026 26258.0
 08 08 2013  06 00  -21.0208 26027.1 -03473.9 -07.6025 26257.9
 08 08 2013  06 01  -21.0208 26027.0 -03473.9 -07.6025 26257.8
 08 08 2013  06 02  -21.0206 26027.1 -03474.0 -07.6026 26258.0
 08 08 2013  06 03  -21.0206 26027.1 -03474.0 -07.6026 26257.9
 08 08 2013  06 04  -21.0205 26027.1 -03474.0 -07.6027 26257.9
 08 08 2013  06 05  -21.0204 26027.1 -03474.0 -07.6027 26257.9
 08 08 2013  06 06  -21.0203 26027.0 -03474.0 -07.6026 26257.9
 08 08 2013  06 07  -21.0200 26027.1 -03474.0 -07.6027 26257.9
 08 08 2013  06 08  -21.0198 26027.1 -03474.1 -07.6028 26257.9
 08 08 2013  06 09  -21.0195 26027.0 -03474.0 -07.6028 26257.8
 08 08 2013  06 10  -21.0192 26027.0 -03474.1 -07.6029 26257.9
 08 08 2013  06 11  -21.0190 26026.9 -03474.0 -07.6028 26257.8
 08 08 2013  06 12  -21.0188 26027.0 -03474.1 -07.6028 26257.8
 08 08 2013  06 13  -21.0186 26027.0 -03474.1 -07.6029 26257.8
 08 08 2013  06 14  -21.0184 26026.8 -03474.1 -07.6029 26257.6
 08 08 2013  06 15  -21.0183 26026.7 -03474.0 -07.6028 26257.5
 08 08 2013  06 16  -21.0184 26026.6 -03474.0 -07.6029 26257.4
 08 08 2013  06 17  -21.0183 26026.4 -03474.0 -07.6030 26257.3
 08 08 2013  06 18  -21.0181 26026.4 -03474.0 -07.6029 26257.2
 08 08 2013  06 19  -21.0179 26026.3 -03474.0 -07.6029 26257.2
 08 08 2013  06 20  -21.0175 26026.3 -03474.0 -07.6030 26257.1
 08 08 2013  06 21  -21.0173 26026.2 -03474.0 -07.6030 26257.1
 08 08 2013  06 22  -21.0171 26026.2 -03474.0 -07.6030 26257.1
 08 08 2013  06 23  -21.0168 26026.2 -03474.1 -07.6031 26257.1
 08 08 2013  06 24  -21.0167 26026.3 -03474.1 -07.6032 26257.1
 08 08 2013  06 25  -21.0168 26026.2 -03474.1 -07.6032 26257.1
 08 08 2013  06 26  -21.0169 26026.2 -03474.2 -07.6033 26257.1
 08 08 2013  06 27  -21.0168 26026.2 -03474.2 -07.6033 26257.1
 08 08 2013  06 28  -21.0168 26026.1 -03474.2 -07.6033 26257.0
 08 08 2013  06 29  -21.0169 26026.1 -03474.2 -07.6033 26257.0
 08 08 2013  06 30  -21.0169 26026.1 -03474.2 -07.6034 26256.9
 08 08 2013  06 31  -21.0168 26026.0 -03474.2 -07.6034 26256.8
 08 08 2013  06 32  -21.0168 26025.8 -03474.2 -07.6034 26256.7
 08 08 2013  06 33  -21.0167 26025.9 -03474.3 -07.6036 26256.7
 08 08 2013  06 34  -21.0167 26025.9 -03474.3 -07.6037 26256.8
 08 08 2013  06 35  -21.0168 26025.9 -03474.3 -07.6038 26256.8
 08 08 2013  06 36  -21.0170 26026.0 -03474.4 -07.6038 26256.9
 08 08 2013  06 37  -21.0170 26026.0 -03474.4 -07.6039 26256.9
 08 08 2013  06 38  -21.0170 26026.1 -03474.5 -07.6040 26257.0
 08 08 2013  06 39  -21.0169 26026.0 -03474.4 -07.6039 26256.9
 08 08 2013  06 40  -21.0167 26026.0 -03474.4 -07.6040 26256.9
 08 08 2013  06 41  -21.0166 26026.3 -03474.6 -07.6042 26257.2
 08 08 2013  06 42  -21.0165 26026.3 -03474.6 -07.6043 26257.2
 08 08 2013  06 43  -21.0164 26026.3 -03474.6 -07.6043 26257.2
 08 08 2013  06 44  -21.0165 26026.1 -03474.6 -07.6042 26257.0
 08 08 2013  06 45  -21.0164 26026.3 -03474.6 -07.6043 26257.2
 08 08 2013  06 46  -21.0164 26026.2 -03474.6 -07.6043 26257.1
 08 08 2013  06 47  -21.0165 26026.1 -03474.5 -07.6041 26257.0
 08 08 2013  06 48  -21.0166 26026.0 -03474.5 -07.6041 26256.9
 08 08 2013  06 49  -21.0167 26026.0 -03474.5 -07.6041 26256.9
 08 08 2013  06 50  -21.0167 26025.9 -03474.5 -07.6041 26256.8
 08 08 2013  06 51  -21.0168 26025.9 -03474.5 -07.6041 26256.8
 08 08 2013  06 52  -21.0167 26025.8 -03474.5 -07.6040 26256.7
 08 08 2013  06 53  -21.0166 26025.7 -03474.4 -07.6040 26256.6
 08 08 2013  06 54  -21.0165 26025.7 -03474.4 -07.6040 26256.6
 08 08 2013  06 55  -21.0165 26025.7 -03474.4 -07.6040 26256.6
 08 08 2013  06 56  -21.0165 26025.6 -03474.4 -07.6039 26256.5
 08 08 2013  06 57  -21.0164 26025.5 -03474.4 -07.6039 26256.4
 08 08 2013  06 58  -21.0164 26025.5 -03474.4 -07.6039 26256.4
 08 08 2013  06 59  -21.0164 26025.5 -03474.4 -07.6039 26256.4
 08 08 2013  07 00  -21.0163 26025.5 -03474.4 -07.6039 26256.4
 08 08 2013  07 01  -21.0164 26025.5 -03474.4 -07.6040 26256.4
 08 08 2013  07 02  -21.0163 26025.5 -03474.4 -07.6040 26256.4
 08 08 2013  07 03  -21.0164 26025.6 -03474.4 -07.6041 26256.5
 08 08 2013  07 04  -21.0163 26025.6 -03474.5 -07.6041 26256.5
 08 08 2013  07 05  -21.0163 26025.7 -03474.5 -07.6042 26256.6
 08 08 2013  07 06  -21.0163 26025.7 -03474.5 -07.6042 26256.6
 08 08 2013  07 07  -21.0162 26025.6 -03474.5 -07.6042 26256.5
 08 08 2013  07 08  -21.0161 26025.6 -03474.5 -07.6042 26256.5
 08 08 2013  07 09  -21.0159 26025.6 -03474.5 -07.6042 26256.5
 08 08 2013  07 10  -21.0159 26025.5 -03474.4 -07.6041 26256.4
 08 08 2013  07 11  -21.0157 26025.5 -03474.4 -07.6040 26256.4
 08 08 2013  07 12  -21.0155 26025.4 -03474.4 -07.6040 26256.3
 08 08 2013  07 13  -21.0154 26025.5 -03474.4 -07.6041 26256.4
 08 08 2013  07 14  -21.0153 26025.5 -03474.5 -07.6042 26256.4
 08 08 2013  07 15  -21.0152 26025.6 -03474.5 -07.6042 26256.5
 08 08 2013  07 16  -21.0149 26025.6 -03474.5 -07.6042 26256.5
 08 08 2013  07 17  -21.0147 26025.7 -03474.6 -07.6043 26256.6
 08 08 2013  07 18  -21.0144 26025.8 -03474.6 -07.6044 26256.7
 08 08 2013  07 19  -21.0143 26025.8 -03474.7 -07.6045 26256.8
 08 08 2013  07 20  -21.0142 26025.9 -03474.7 -07.6046 26256.8
 08 08 2013  07 21  -21.0141 26025.8 -03474.7 -07.6046 26256.8
 08 08 2013  07 22  -21.0141 26025.8 -03474.7 -07.6045 26256.8
 08 08 2013  07 23  -21.0140 26025.7 -03474.7 -07.6045 26256.7
 08 08 2013  07 24  -21.0139 26025.8 -03474.7 -07.6046 26256.7
 08 08 2013  07 25  -21.0138 26025.8 -03474.7 -07.6046 26256.7
 08 08 2013  07 26  -21.0138 26025.8 -03474.7 -07.6045 26256.7
 08 08 2013  07 27  -21.0137 26025.7 -03474.7 -07.6045 26256.6
 08 08 2013  07 28  -21.0136 26025.6 -03474.6 -07.6044 26256.6
 08 08 2013  07 29  -21.0135 26025.6 -03474.6 -07.6044 26256.5
 08 08 2013  07 30  -21.0133 26025.5 -03474.6 -07.6044 26256.5
 08 08 2013  07 31  -21.0132 26025.5 -03474.6 -07.6044 26256.4
 08 08 2013  07 32  -21.0130 26025.4 -03474.6 -07.6044 26256.4
 08 08 2013  07 33  -21.0128 26025.4 -03474.5 -07.6043 26256.3
 08 08 2013  07 34  -21.0128 26025.3 -03474.5 -07.6042 26256.2
 08 08 2013  07 35  -21.0128 26025.2 -03474.5 -07.6042 26256.1
 08 08 2013  07 36  -21.0129 26025.2 -03474.5 -07.6043 26256.1
 08 08 2013  07 37  -21.0129 26025.2 -03474.5 -07.6043 26256.1
 08 08 2013  07 38  -21.0130 26025.1 -03474.5 -07.6042 26256.0
 08 08 2013  07 39  -21.0130 26025.2 -03474.5 -07.6043 26256.1
 08 08 2013  07 40  -21.0129 26025.1 -03474.5 -07.6043 26256.0
 08 08 2013  07 41  -21.0127 26025.1 -03474.4 -07.6042 26256.0
 08 08 2013  07 42  -21.0125 26025.1 -03474.4 -07.6042 26256.0
 08 08 2013  07 43  -21.0123 26025.0 -03474.4 -07.6042 26255.9
 08 08 2013  07 44  -21.0121 26025.0 -03474.4 -07.6041 26255.9
 08 08 2013  07 45  -21.0119 26024.9 -03474.3 -07.6040 26255.8
 08 08 2013  07 46  -21.0118 26025.0 -03474.4 -07.6041 26255.9
 08 08 2013  07 47  -21.0116 26025.1 -03474.5 -07.6042 26256.0
 08 08 2013  07 48  -21.0114 26025.2 -03474.5 -07.6043 26256.1
 08 08 2013  07 49  -21.0113 26025.2 -03474.5 -07.6043 26256.1
 08 08 2013  07 50  -21.0109 26025.3 -03474.6 -07.6044 26256.2
 08 08 2013  07 51  -21.0108 26025.3 -03474.6 -07.6045 26256.2
 08 08 2013  07 52  -21.0105 26025.3 -03474.6 -07.6045 26256.2
 08 08 2013  07 53  -21.0102 26025.3 -03474.6 -07.6045 26256.3
 08 08 2013  07 54  -21.0099 26025.4 -03474.6 -07.6045 26256.3
 08 08 2013  07 55  -21.0096 26025.4 -03474.6 -07.6045 26256.3
 08 08 2013  07 56  -21.0095 26025.4 -03474.6 -07.6045 26256.3
 08 08 2013  07 57  -21.0095 26025.2 -03474.6 -07.6044 26256.1
 08 08 2013  07 58  -21.0092 26025.1 -03474.5 -07.6042 26256.0
 08 08 2013  07 59  -21.0090 26025.0 -03474.4 -07.6042 26255.9
 08 08 2013  08 00  -21.0088 26025.0 -03474.4 -07.6042 26255.9
 08 08 2013  08 01  -21.0087 26024.9 -03474.4 -07.6041 26255.8
 08 08 2013  08 02  -21.0086 26024.9 -03474.4 -07.6041 26255.8
 08 08 2013  08 03  -21.0086 26025.0 -03474.4 -07.6042 26255.9
 08 08 2013  08 04  -21.0084 26024.9 -03474.4 -07.6041 26255.8
 08 08 2013  08 05  -21.0084 26024.9 -03474.4 -07.6041 26255.8
 08 08 2013  08 06  -21.0085 26024.9 -03474.4 -07.6042 26255.8
 08 08 2013  08 07  -21.0086 26024.8 -03474.3 -07.6041 26255.6
 08 08 2013  08 08  -21.0085 26024.8 -03474.4 -07.6042 26255.7
 08 08 2013  08 09  -21.0084 26024.9 -03474.4 -07.6042 26255.8
 08 08 2013  08 10  -21.0081 26024.9 -03474.4 -07.6041 26255.8
 08 08 2013  08 11  -21.0077 26025.1 -03474.4 -07.6042 26256.0
 08 08 2013  08 12  -21.0074 26025.1 -03474.4 -07.6042 26256.0
 08 08 2013  08 13  -21.0071 26025.2 -03474.5 -07.6043 26256.1
 08 08 2013  08 14  -21.0068 26025.4 -03474.6 -07.6045 26256.3
 08 08 2013  08 15  -21.0065 26025.5 -03474.7 -07.6046 26256.4
 08 08 2013  08 16  -21.0063 26025.4 -03474.6 -07.6045 26256.3
 08 08 2013  08 17  -21.0057 26025.5 -03474.6 -07.6045 26256.4
 08 08 2013  08 18  -21.0056 26025.7 -03474.7 -07.6046 26256.6
 08 08 2013  08 19  -21.0056 26025.7 -03474.8 -07.6047 26256.6
 08 08 2013  08 20  -21.0055 26025.8 -03474.8 -07.6048 26256.8
 08 08 2013  08 21  -21.0054 26025.9 -03474.8 -07.6048 26256.9
 08 08 2013  08 22  -21.0055 26026.1 -03474.9 -07.6048 26257.0
 08 08 2013  08 23  -21.0055 26026.3 -03474.9 -07.6050 26257.3
 08 08 2013  08 24  -21.0054 26026.3 -03474.9 -07.6048 26257.2
 08 08 2013  08 25  -21.0054 26026.4 -03474.9 -07.6048 26257.3
 08 08 2013  08 26  -21.0053 26026.6 -03475.0 -07.6050 26257.5
 08 08 2013  08 27  -21.0051 26026.6 -03474.9 -07.6048 26257.5
 08 08 2013  08 28  -21.0048 26026.6 -03474.9 -07.6047 26257.6
 08 08 2013  08 29  -21.0045 26026.7 -03474.9 -07.6047 26257.6
 08 08 2013  08 30  -21.0041 26026.7 -03474.8 -07.6045 26257.7
 08 08 2013  08 31  -21.0037 26026.8 -03474.8 -07.6044 26257.7
 08 08 2013  08 32  -21.0034 26026.7 -03474.7 -07.6043 26257.7
 08 08 2013  08 33  -21.0031 26026.6 -03474.6 -07.6041 26257.5
 08 08 2013  08 34  -21.0027 26026.6 -03474.6 -07.6041 26257.5
 08 08 2013  08 35  -21.0022 26026.5 -03474.5 -07.6040 26257.4
 08 08 2013  08 36  -21.0017 26026.6 -03474.5 -07.6039 26257.5
 08 08 2013  08 37  -21.0013 26026.7 -03474.5 -07.6038 26257.6
 08 08 2013  08 38  -21.0010 26026.8 -03474.5 -07.6039 26257.7
 08 08 2013  08 39  -21.0007 26026.8 -03474.6 -07.6040 26257.7
 08 08 2013  08 40  -21.0004 26026.8 -03474.6 -07.6040 26257.7
 08 08 2013  08 41  -21.0002 26026.9 -03474.6 -07.6041 26257.8
 08 08 2013  08 42  -21.0001 26026.9 -03474.7 -07.6042 26257.8
 08 08 2013  08 43  -20.9997 26026.8 -03474.6 -07.6040 26257.7
 08 08 2013  08 44  -20.9994 26026.6 -03474.5 -07.6039 26257.5
 08 08 2013  08 45  -20.9990 26026.6 -03474.5 -07.6039 26257.5
 08 08 2013  08 46  -20.9987 26026.5 -03474.5 -07.6039 26257.4
 08 08 2013  08 47  -20.9983 26026.5 -03474.5 -07.6039 26257.4
 08 08 2013  08 48  -20.9976 26026.5 -03474.5 -07.6038 26257.4
 08 08 2013  08 49  -20.9970 26026.4 -03474.4 -07.6038 26257.3
 08 08 2013  08 50  -20.9964 26026.3 -03474.3 -07.6036 26257.1
 08 08 2013  08 51  -20.9963 26026.2 -03474.4 -07.6038 26257.1
 08 08 2013  08 52  -20.9959 26026.3 -03474.5 -07.6039 26257.2
 08 08 2013  08 53  -20.9953 26026.2 -03474.4 -07.6039 26257.1
 08 08 2013  08 54  -20.9945 26026.2 -03474.4 -07.6038 26257.1
 08 08 2013  08 55  -20.9937 26026.0 -03474.4 -07.6038 26256.9
 08 08 2013  08 56  -20.9930 26026.0 -03474.4 -07.6040 26256.8
 08 08 2013  08 57  -20.9924 26025.9 -03474.5 -07.6040 26256.8
 08 08 2013  08 58  -20.9917 26025.9 -03474.5 -07.6041 26256.8
 08 08 2013  08 59  -20.9914 26026.0 -03474.6 -07.6044 26256.9
 08 08 2013  09 00  -20.9913 26026.0 -03474.8 -07.6047 26257.0
 08 08 2013  09 01  -20.9912 26026.0 -03474.9 -07.6050 26257.0
 08 08 2013  09 02  -20.9909 26026.1 -03475.0 -07.6052 26257.1
 08 08 2013  09 03  -20.9906 26026.0 -03475.1 -07.6053 26256.9
 08 08 2013  09 04  -20.9901 26025.9 -03475.1 -07.6054 26256.9
 08 08 2013  09 05  -20.9896 26025.9 -03475.2 -07.6055 26256.9
 08 08 2013  09 06  -20.9889 26025.8 -03475.2 -07.6056 26256.8
 08 08 2013  09 07  -20.9882 26025.8 -03475.2 -07.6056 26256.8
 08 08 2013  09 08  -20.9876 26025.8 -03475.2 -07.6057 26256.8
 08 08 2013  09 09  -20.9870 26025.9 -03475.3 -07.6059 26256.9
 08 08 2013  09 10  -20.9862 26026.0 -03475.4 -07.6060 26257.0
 08 08 2013  09 11  -20.9857 26026.0 -03475.3 -07.6059 26257.0
 08 08 2013  09 12  -20.9852 26026.0 -03475.4 -07.6061 26257.0
 08 08 2013  09 13  -20.9846 26026.1 -03475.5 -07.6063 26257.1
 08 08 2013  09 14  -20.9843 26026.1 -03475.7 -07.6066 26257.2
 08 08 2013  09 15  -20.9842 26026.1 -03475.8 -07.6068 26257.2
 08 08 2013  09 16  -20.9841 26026.2 -03475.9 -07.6070 26257.3
 08 08 2013  09 17  -20.9837 26026.3 -03476.0 -07.6073 26257.4
 08 08 2013  09 18  -20.9833 26026.3 -03476.1 -07.6074 26257.4
 08 08 2013  09 19  -20.9830 26026.2 -03476.1 -07.6075 26257.3
 08 08 2013  09 20  -20.9827 26026.2 -03476.2 -07.6077 26257.3
 08 08 2013  09 21  -20.9822 26026.1 -03476.2 -07.6077 26257.2
 08 08 2013  09 22  -20.9817 26026.0 -03476.2 -07.6078 26257.2
 08 08 2013  09 23  -20.9819 26025.9 -03476.3 -07.6080 26257.1
 08 08 2013  09 24  -20.9818 26025.9 -03476.4 -07.6083 26257.0
 08 08 2013  09 25  -20.9813 26025.9 -03476.6 -07.6085 26257.1
 08 08 2013  09 26  -20.9807 26026.0 -03476.6 -07.6087 26257.2
 08 08 2013  09 27  -20.9804 26026.0 -03476.6 -07.6087 26257.2
 08 08 2013  09 28  -20.9804 26026.0 -03476.8 -07.6089 26257.2
 08 08 2013  09 29  -20.9800 26026.1 -03477.0 -07.6093 26257.3
 08 08 2013  09 30  -20.9795 26026.2 -03477.1 -07.6096 26257.5
 08 08 2013  09 31  -20.9789 26026.2 -03477.2 -07.6098 26257.5
 08 08 2013  09 32  -20.9788 26026.2 -03477.3 -07.6100 26257.5
 08 08 2013  09 33  -20.9784 26026.3 -03477.4 -07.6103 26257.5
 08 08 2013  09 34  -20.9779 26026.3 -03477.6 -07.6106 26257.6
 08 08 2013  09 35  -20.9774 26026.4 -03477.7 -07.6108 26257.7
 08 08 2013  09 36  -20.9769 26026.3 -03477.8 -07.6111 26257.6
 08 08 2013  09 37  -20.9764 26026.3 -03477.9 -07.6114 26257.6
 08 08 2013  09 38  -20.9763 26026.4 -03478.1 -07.6118 26257.8
 08 08 2013  09 39  -20.9763 26026.4 -03478.3 -07.6121 26257.8
 08 08 2013  09 40  -20.9761 26026.4 -03478.4 -07.6124 26257.9
 08 08 2013  09 41  -20.9755 26026.4 -03478.5 -07.6127 26257.9
 08 08 2013  09 42  -20.9750 26026.4 -03478.6 -07.6129 26257.8
 08 08 2013  09 43  -20.9747 26026.4 -03478.7 -07.6131 26257.9
 08 08 2013  09 44  -20.9746 26026.5 -03478.9 -07.6134 26257.9
 08 08 2013  09 45  -20.9742 26026.5 -03479.0 -07.6137 26258.0
 08 08 2013  09 46  -20.9739 26026.4 -03479.1 -07.6139 26257.9
 08 08 2013  09 47  -20.9739 26026.2 -03479.2 -07.6141 26257.7
 08 08 2013  09 48  -20.9738 26026.2 -03479.3 -07.6144 26257.7
 08 08 2013  09 49  -20.9736 26026.2 -03479.4 -07.6147 26257.7
 08 08 2013  09 50  -20.9733 26026.2 -03479.6 -07.6150 26257.8
 08 08 2013  09 51  -20.9731 26026.4 -03479.8 -07.6154 26258.0
 08 08 2013  09 52  -20.9734 26026.5 -03480.0 -07.6158 26258.2
 08 08 2013  09 53  -20.9738 26026.8 -03480.2 -07.6163 26258.4
 08 08 2013  09 54  -20.9736 26027.0 -03480.5 -07.6167 26258.6
 08 08 2013  09 55  -20.9737 26027.2 -03480.7 -07.6171 26259.0
 08 08 2013  09 56  -20.9739 26027.5 -03480.9 -07.6175 26259.2
 08 08 2013  09 57  -20.9743 26027.5 -03481.1 -07.6178 26259.3
 08 08 2013  09 58  -20.9744 26027.7 -03481.2 -07.6181 26259.4
 08 08 2013  09 59  -20.9746 26027.8 -03481.3 -07.6184 26259.6
 08 08 2013  10 00  -20.9746 26027.9 -03481.4 -07.6186 26259.7
 08 08 2013  10 01  -20.9743 26027.9 -03481.5 -07.6187 26259.7
 08 08 2013  10 02  -20.9744 26028.0 -03481.7 -07.6190 26259.8
 08 08 2013  10 03  -20.9747 26028.0 -03481.8 -07.6192 26259.9
 08 08 2013  10 04  -20.9748 26028.0 -03481.9 -07.6195 26259.9
 08 08 2013  10 05  -20.9745 26028.0 -03481.9 -07.6195 26259.8
 08 08 2013  10 06  -20.9742 26028.0 -03482.0 -07.6197 26259.9
 08 08 2013  10 07  -20.9739 26028.2 -03482.1 -07.6198 26260.1
 08 08 2013  10 08  -20.9739 26028.4 -03482.2 -07.6200 26260.3
 08 08 2013  10 09  -20.9744 26028.6 -03482.4 -07.6203 26260.5
 08 08 2013  10 10  -20.9745 26028.8 -03482.5 -07.6205 26260.7
 08 08 2013  10 11  -20.9743 26028.9 -03482.6 -07.6207 26260.9
 08 08 2013  10 12  -20.9743 26029.1 -03482.7 -07.6210 26261.0
 08 08 2013  10 13  -20.9743 26029.4 -03482.9 -07.6213 26261.4
 08 08 2013  10 14  -20.9746 26029.6 -03483.1 -07.6216 26261.6
 08 08 2013  10 15  -20.9749 26029.7 -03483.3 -07.6219 26261.7
 08 08 2013  10 16  -20.9752 26029.8 -03483.4 -07.6222 26261.8
 08 08 2013  10 17  -20.9755 26029.9 -03483.5 -07.6225 26262.0
 08 08 2013  10 18  -20.9755 26030.2 -03483.8 -07.6229 26262.3
 08 08 2013  10 19  -20.9755 26030.4 -03484.0 -07.6233 26262.5
 08 08 2013  10 20  -20.9757 26030.6 -03484.1 -07.6235 26262.8
 08 08 2013  10 21  -20.9759 26030.9 -03484.3 -07.6238 26263.1
 08 08 2013  10 22  -20.9760 26031.1 -03484.4 -07.6241 26263.3
 08 08 2013  10 23  -20.9760 26031.4 -03484.6 -07.6243 26263.5
 08 08 2013  10 24  -20.9759 26031.6 -03484.7 -07.6245 26263.8
 08 08 2013  10 25  -20.9760 26031.8 -03484.8 -07.6246 26264.0
 08 08 2013  10 26  -20.9760 26032.0 -03484.9 -07.6248 26264.2
 08 08 2013  10 27  -20.9760 26032.1 -03485.0 -07.6251 26264.4
 08 08 2013  10 28  -20.9764 26032.4 -03485.2 -07.6253 26264.7
 08 08 2013  10 29  -20.9766 26032.7 -03485.3 -07.6255 26264.9
 08 08 2013  10 30  -20.9766 26033.0 -03485.5 -07.6258 26265.3
 08 08 2013  10 31  -20.9767 26033.3 -03485.6 -07.6260 26265.6
 08 08 2013  10 32  -20.9767 26033.5 -03485.8 -07.6263 26265.8
 08 08 2013  10 33  -20.9771 26033.7 -03485.9 -07.6265 26266.0
 08 08 2013  10 34  -20.9774 26033.9 -03486.0 -07.6267 26266.3
 08 08 2013  10 35  -20.9775 26034.2 -03486.2 -07.6269 26266.6
 08 08 2013  10 36  -20.9776 26034.6 -03486.3 -07.6272 26267.0
 08 08 2013  10 37  -20.9779 26034.9 -03486.4 -07.6273 26267.3
 08 08 2013  10 38  -20.9786 26035.2 -03486.6 -07.6276 26267.6
 08 08 2013  10 39  -20.9790 26035.4 -03486.7 -07.6277 26267.9
 08 08 2013  10 40  -20.9795 26035.5 -03486.7 -07.6277 26268.0
 08 08 2013  10 41  -20.9803 26035.7 -03486.8 -07.6278 26268.1
 08 08 2013  10 42  -20.9809 26036.0 -03486.9 -07.6280 26268.4
 08 08 2013  10 43  -20.9811 26036.3 -03487.0 -07.6281 26268.8
 08 08 2013  10 44  -20.9812 26036.6 -03487.0 -07.6280 26269.1
 08 08 2013  10 45  -20.9814 26036.9 -03487.0 -07.6280 26269.4
 08 08 2013  10 46  -20.9817 26037.2 -03487.0 -07.6280 26269.6
 08 08 2013  10 47  -20.9820 26037.4 -03487.0 -07.6279 26269.9
 08 08 2013  10 48  -20.9822 26037.8 -03487.0 -07.6278 26270.2
 08 08 2013  10 49  -20.9824 26038.0 -03487.0 -07.6277 26270.4
 08 08 2013  10 50  -20.9827 26038.3 -03487.0 -07.6276 26270.8
 08 08 2013  10 51  -20.9832 26038.7 -03487.1 -07.6276 26271.2
 08 08 2013  10 52  -20.9837 26039.1 -03487.1 -07.6275 26271.6
 08 08 2013  10 53  -20.9843 26039.5 -03487.1 -07.6273 26271.9
 08 08 2013  10 54  -20.9848 26039.9 -03487.1 -07.6273 26272.3
 08 08 2013  10 55  -20.9854 26040.3 -03487.1 -07.6272 26272.8
 08 08 2013  10 56  -20.9863 26040.7 -03487.2 -07.6272 26273.2
 08 08 2013  10 57  -20.9871 26041.1 -03487.1 -07.6270 26273.6
 08 08 2013  10 58  -20.9877 26041.3 -03487.0 -07.6267 26273.8
 08 08 2013  10 59  -20.9881 26041.5 -03486.9 -07.6265 26274.0
 08 08 2013  11 00  -20.9886 26041.8 -03486.9 -07.6263 26274.2
 08 08 2013  11 01  -20.9893 26042.1 -03486.9 -07.6262 26274.5
 08 08 2013  11 02  -20.9898 26042.4 -03486.9 -07.6260 26274.8
 08 08 2013  11 03  -20.9902 26042.8 -03486.8 -07.6258 26275.1
 08 08 2013  11 04  -20.9906 26043.2 -03486.8 -07.6256 26275.6
 08 08 2013  11 05  -20.9912 26043.7 -03486.7 -07.6254 26276.0
 08 08 2013  11 06  -20.9919 26044.0 -03486.8 -07.6254 26276.4
 08 08 2013  11 07  -20.9923 26044.4 -03486.7 -07.6252 26276.7
 08 08 2013  11 08  -20.9926 26044.7 -03486.6 -07.6249 26277.1
 08 08 2013  11 09  -20.9931 26045.1 -03486.6 -07.6246 26277.5
 08 08 2013  11 10  -20.9936 26045.5 -03486.5 -07.6244 26277.8
 08 08 2013  11 11  -20.9941 26045.9 -03486.4 -07.6240 26278.2
 08 08 2013  11 12  -20.9946 26046.4 -03486.3 -07.6237 26278.7
 08 08 2013  11 13  -20.9951 26046.8 -03486.2 -07.6233 26279.0
 08 08 2013  11 14  -20.9955 26047.0 -03486.0 -07.6228 26279.3
 08 08 2013  11 15  -20.9960 26047.4 -03485.8 -07.6224 26279.6
 08 08 2013  11 16  -20.9962 26047.7 -03485.7 -07.6219 26279.9
 08 08 2013  11 17  -20.9964 26048.1 -03485.5 -07.6214 26280.2
 08 08 2013  11 18  -20.9968 26048.4 -03485.3 -07.6210 26280.6
 08 08 2013  11 19  -20.9975 26048.6 -03485.2 -07.6207 26280.8
 08 08 2013  11 20  -20.9982 26048.9 -03485.0 -07.6202 26281.0
 08 08 2013  11 21  -20.9985 26049.3 -03484.9 -07.6198 26281.3
 08 08 2013  11 22  -20.9990 26049.7 -03484.7 -07.6194 26281.7
 08 08 2013  11 23  -20.9995 26050.0 -03484.6 -07.6189 26282.1
 08 08 2013  11 24  -20.9999 26050.5 -03484.4 -07.6185 26282.5
 08 08 2013  11 25  -21.0003 26050.9 -03484.2 -07.6180 26282.8
 08 08 2013  11 26  -21.0005 26051.3 -03484.1 -07.6175 26283.2
 08 08 2013  11 27  -21.0006 26051.6 -03483.8 -07.6169 26283.5
 08 08 2013  11 28  -21.0008 26051.9 -03483.6 -07.6162 26283.7
 08 08 2013  11 29  -21.0012 26052.2 -03483.4 -07.6157 26284.0
 08 08 2013  11 30  -21.0017 26052.6 -03483.2 -07.6151 26284.4
 08 08 2013  11 31  -21.0022 26052.8 -03482.9 -07.6146 26284.6
 08 08 2013  11 32  -21.0028 26052.9 -03482.6 -07.6139 26284.7
 08 08 2013  11 33  -21.0037 26053.2 -03482.4 -07.6134 26284.9
 08 08 2013  11 34  -21.0046 26053.4 -03482.2 -07.6128 26285.1
 08 08 2013  11 35  -21.0053 26053.8 -03482.0 -07.6123 26285.4
 08 08 2013  11 36  -21.0060 26054.1 -03481.8 -07.6118 26285.8
 08 08 2013  11 37  -21.0064 26054.4 -03481.6 -07.6111 26286.0
 08 08 2013  11 38  -21.0069 26054.7 -03481.3 -07.6105 26286.2
 08 08 2013  11 39  -21.0074 26054.9 -03481.1 -07.6099 26286.5
 08 08 2013  11 40  -21.0077 26055.2 -03480.8 -07.6093 26286.7
 08 08 2013  11 41  -21.0081 26055.5 -03480.6 -07.6088 26287.0
 08 08 2013  11 42  -21.0085 26055.8 -03480.4 -07.6081 26287.2
 08 08 2013  11 43  -21.0088 26056.1 -03480.2 -07.6076 26287.5
 08 08 2013  11 44  -21.0089 26056.5 -03479.9 -07.6070 26287.8
 08 08 2013  11 45  -21.0094 26056.8 -03479.7 -07.6065 26288.1
 08 08 2013  11 46  -21.0096 26057.1 -03479.5 -07.6058 26288.4
 08 08 2013  11 47  -21.0099 26057.4 -03479.2 -07.6053 26288.6
 08 08 2013  11 48  -21.0101 26057.8 -03479.1 -07.6048 26289.0
 08 08 2013  11 49  -21.0104 26058.1 -03478.9 -07.6042 26289.3
 08 08 2013  11 50  -21.0104 26058.5 -03478.6 -07.6036 26289.7
 08 08 2013  11 51  -21.0107 26058.8 -03478.4 -07.6031 26290.0
 08 08 2013  11 52  -21.0112 26059.1 -03478.2 -07.6025 26290.2
 08 08 2013  11 53  -21.0116 26059.4 -03478.0 -07.6020 26290.5
 08 08 2013  11 54  -21.0119 26059.8 -03477.8 -07.6014 26290.8
 08 08 2013  11 55  -21.0122 26060.1 -03477.5 -07.6008 26291.1
 08 08 2013  11 56  -21.0124 26060.5 -03477.3 -07.6002 26291.4
 08 08 2013  11 57  -21.0125 26060.9 -03477.1 -07.5996 26291.8
 08 08 2013  11 58  -21.0127 26061.3 -03476.8 -07.5990 26292.2
 08 08 2013  11 59  -21.0129 26061.6 -03476.6 -07.5984 26292.4
 08 08 2013  12 00  -21.0129 26061.8 -03476.3 -07.5977 26292.7
 08 08 2013  12 01  -21.0129 26062.1 -03476.1 -07.5970 26292.9
 08 08 2013  12 02  -21.0130 26062.4 -03475.8 -07.5965 26293.2
 08 08 2013  12 03  -21.0131 26062.8 -03475.6 -07.5959 26293.5
 08 08 2013  12 04  -21.0132 26063.1 -03475.4 -07.5952 26293.8
 08 08 2013  12 05  -21.0137 26063.3 -03475.1 -07.5946 26294.0
 08 08 2013  12 06  -21.0144 26063.7 -03474.9 -07.5941 26294.3
 08 08 2013  12 07  -21.0149 26064.0 -03474.8 -07.5937 26294.6
 08 08 2013  12 08  -21.0153 26064.3 -03474.5 -07.5930 26294.9
 08 08 2013  12 09  -21.0157 26064.6 -03474.3 -07.5924 26295.1
 08 08 2013  12 10  -21.0160 26064.8 -03474.0 -07.5917 26295.3
 08 08 2013  12 11  -21.0164 26065.1 -03473.8 -07.5912 26295.5
 08 08 2013  12 12  -21.0168 26065.3 -03473.5 -07.5906 26295.7
 08 08 2013  12 13  -21.0173 26065.5 -03473.3 -07.5901 26295.9
 08 08 2013  12 14  -21.0178 26065.7 -03473.1 -07.5896 26296.0
 08 08 2013  12 15  -21.0180 26065.8 -03472.9 -07.5891 26296.2
 08 08 2013  12 16  -21.0182 26066.0 -03472.7 -07.5886 26296.3
 08 08 2013  12 17  -21.0186 26066.3 -03472.5 -07.5882 26296.6
 08 08 2013  12 18  -21.0189 26066.5 -03472.4 -07.5877 26296.8
 08 08 2013  12 19  -21.0191 26066.8 -03472.2 -07.5873 26297.0
 08 08 2013  12 20  -21.0194 26067.0 -03472.0 -07.5869 26297.2
 08 08 2013  12 21  -21.0196 26067.3 -03471.9 -07.5866 26297.5
 08 08 2013  12 22  -21.0200 26067.6 -03471.8 -07.5863 26297.8
 08 08 2013  12 23  -21.0203 26068.0 -03471.7 -07.5859 26298.1
 08 08 2013  12 24  -21.0208 26068.3 -03471.6 -07.5855 26298.4
 08 08 2013  12 25  -21.0213 26068.5 -03471.4 -07.5851 26298.7
 08 08 2013  12 26  -21.0221 26068.9 -03471.3 -07.5849 26299.0
 08 08 2013  12 27  -21.0228 26069.3 -03471.2 -07.5845 26299.4
 08 08 2013  12 28  -21.0232 26069.3 -03470.9 -07.5839 26299.4
 08 08 2013  12 29  -21.0236 26069.4 -03470.7 -07.5834 26299.4
 08 08 2013  12 30  -21.0239 26069.5 -03470.5 -07.5829 26299.5
 08 08 2013  12 31  -21.0244 26069.6 -03470.3 -07.5824 26299.6
 08 08 2013  12 32  -21.0251 26069.7 -03470.1 -07.5820 26299.6
 08 08 2013  12 33  -21.0258 26070.0 -03470.0 -07.5817 26299.9
 08 08 2013  12 34  -21.0265 26070.2 -03469.9 -07.5814 26300.1
 08 08 2013  12 35  -21.0274 26070.5 -03469.8 -07.5811 26300.4
 08 08 2013  12 36  -21.0281 26070.7 -03469.7 -07.5807 26300.6
 08 08 2013  12 37  -21.0288 26071.0 -03469.5 -07.5804 26300.9
 08 08 2013  12 38  -21.0292 26071.3 -03469.4 -07.5800 26301.1
 08 08 2013  12 39  -21.0299 26071.5 -03469.3 -07.5796 26301.3
 08 08 2013  12 40  -21.0304 26071.7 -03469.1 -07.5791 26301.4
 08 08 2013  12 41  -21.0308 26071.7 -03468.8 -07.5786 26301.5
 08 08 2013  12 42  -21.0312 26071.9 -03468.7 -07.5782 26301.6
 08 08 2013  12 43  -21.0315 26072.1 -03468.5 -07.5778 26301.8
 08 08 2013  12 44  -21.0318 26072.1 -03468.3 -07.5773 26301.8
 08 08 2013  12 45  -21.0325 26072.3 -03468.2 -07.5770 26301.9
 08 08 2013  12 46  -21.0332 26072.5 -03468.1 -07.5767 26302.2
 08 08 2013  12 47  -21.0338 26072.8 -03467.9 -07.5763 26302.4
 08 08 2013  12 48  -21.0343 26073.0 -03467.8 -07.5759 26302.6
 08 08 2013  12 49  -21.0349 26073.2 -03467.5 -07.5755 26302.8
 08 08 2013  12 50  -21.0355 26073.2 -03467.3 -07.5750 26302.8
 08 08 2013  12 51  -21.0362 26073.3 -03467.2 -07.5746 26302.8
 08 08 2013  12 52  -21.0369 26073.3 -03467.0 -07.5742 26302.8
 08 08 2013  12 53  -21.0377 26073.5 -03466.9 -07.5739 26303.0
 08 08 2013  12 54  -21.0385 26073.7 -03466.7 -07.5736 26303.1
 08 08 2013  12 55  -21.0393 26073.8 -03466.6 -07.5732 26303.2
 08 08 2013  12 56  -21.0401 26073.9 -03466.5 -07.5729 26303.3
 08 08 2013  12 57  -21.0407 26074.0 -03466.3 -07.5725 26303.4
 08 08 2013  12 58  -21.0413 26074.3 -03466.2 -07.5723 26303.7
 08 08 2013  12 59  -21.0418 26074.4 -03466.1 -07.5720 26303.8
 08 08 2013  13 00  -21.0423 26074.4 -03465.9 -07.5716 26303.7
 08 08 2013  13 01  -21.0431 26074.5 -03465.8 -07.5713 26303.8
 08 08 2013  13 02  -21.0436 26074.5 -03465.6 -07.5709 26303.8
 08 08 2013  13 03  -21.0443 26074.5 -03465.5 -07.5706 26303.8
 08 08 2013  13 04  -21.0448 26074.4 -03465.3 -07.5702 26303.7
 08 08 2013  13 05  -21.0453 26074.2 -03465.1 -07.5698 26303.5
 08 08 2013  13 06  -21.0457 26074.4 -03465.0 -07.5697 26303.6
 08 08 2013  13 07  -21.0462 26074.6 -03465.0 -07.5695 26303.8
 08 08 2013  13 08  -21.0468 26074.8 -03464.9 -07.5694 26304.0
 08 08 2013  13 09  -21.0476 26075.0 -03464.9 -07.5692 26304.1
 08 08 2013  13 10  -21.0484 26075.0 -03464.8 -07.5690 26304.2
 08 08 2013  13 11  -21.0490 26075.1 -03464.7 -07.5688 26304.3
 08 08 2013  13 12  -21.0498 26075.2 -03464.6 -07.5686 26304.4
 08 08 2013  13 13  -21.0504 26075.4 -03464.6 -07.5684 26304.6
 08 08 2013  13 14  -21.0509 26075.5 -03464.4 -07.5680 26304.6
 08 08 2013  13 15  -21.0513 26075.5 -03464.3 -07.5677 26304.6
 08 08 2013  13 16  -21.0517 26075.6 -03464.2 -07.5675 26304.7
 08 08 2013  13 17  -21.0520 26075.7 -03464.1 -07.5672 26304.8
 08 08 2013  13 18  -21.0522 26075.7 -03464.0 -07.5670 26304.7
 08 08 2013  13 19  -21.0526 26075.6 -03463.8 -07.5667 26304.6
 08 08 2013  13 20  -21.0530 26075.4 -03463.7 -07.5664 26304.4
 08 08 2013  13 21  -21.0535 26075.4 -03463.6 -07.5663 26304.4
 08 08 2013  13 22  -21.0540 26075.4 -03463.6 -07.5663 26304.4
 08 08 2013  13 23  -21.0546 26075.6 -03463.6 -07.5663 26304.7
 08 08 2013  13 24  -21.0550 26075.7 -03463.6 -07.5662 26304.7
 08 08 2013  13 25  -21.0555 26075.7 -03463.5 -07.5660 26304.7
 08 08 2013  13 26  -21.0560 26075.7 -03463.5 -07.5659 26304.7
 08 08 2013  13 27  -21.0566 26075.7 -03463.4 -07.5658 26304.7
 08 08 2013  13 28  -21.0571 26075.9 -03463.4 -07.5658 26304.9
 08 08 2013  13 29  -21.0575 26076.2 -03463.4 -07.5657 26305.2
 08 08 2013  13 30  -21.0579 26076.3 -03463.4 -07.5656 26305.3
 08 08 2013  13 31  -21.0584 26076.5 -03463.3 -07.5654 26305.4
 08 08 2013  13 32  -21.0589 26076.6 -03463.3 -07.5652 26305.6
 08 08 2013  13 33  -21.0593 26076.7 -03463.2 -07.5650 26305.6
 08 08 2013  13 34  -21.0598 26076.8 -03463.1 -07.5649 26305.7
 08 08 2013  13 35  -21.0605 26076.8 -03463.0 -07.5647 26305.7
 08 08 2013  13 36  -21.0608 26077.0 -03463.0 -07.5645 26306.0
 08 08 2013  13 37  -21.0611 26077.2 -03462.9 -07.5644 26306.1
 08 08 2013  13 38  -21.0615 26077.5 -03462.9 -07.5642 26306.4
 08 08 2013  13 39  -21.0617 26077.8 -03462.8 -07.5640 26306.7
 08 08 2013  13 40  -21.0617 26078.0 -03462.8 -07.5637 26306.9
 08 08 2013  13 41  -21.0618 26077.9 -03462.6 -07.5634 26306.8
 08 08 2013  13 42  -21.0620 26078.1 -03462.5 -07.5632 26307.0
 08 08 2013  13 43  -21.0623 26078.3 -03462.5 -07.5631 26307.2
 08 08 2013  13 44  -21.0627 26078.5 -03462.5 -07.5629 26307.4
 08 08 2013  13 45  -21.0629 26078.9 -03462.4 -07.5627 26307.7
 08 08 2013  13 46  -21.0631 26079.2 -03462.4 -07.5626 26308.0
 08 08 2013  13 47  -21.0633 26079.3 -03462.3 -07.5623 26308.1
 08 08 2013  13 48  -21.0635 26079.3 -03462.2 -07.5621 26308.2
 08 08 2013  13 49  -21.0640 26079.3 -03462.1 -07.5618 26308.1
 08 08 2013  13 50  -21.0644 26079.6 -03462.0 -07.5617 26308.4
 08 08 2013  13 51  -21.0645 26079.5 -03461.9 -07.5614 26308.3
 08 08 2013  13 52  -21.0649 26079.3 -03461.7 -07.5611 26308.1
 08 08 2013  13 53  -21.0651 26079.2 -03461.6 -07.5608 26307.9
 08 08 2013  13 54  -21.0655 26079.0 -03461.4 -07.5606 26307.7
 08 08 2013  13 55  -21.0659 26078.9 -03461.3 -07.5604 26307.6
 08 08 2013  13 56  -21.0662 26078.9 -03461.3 -07.5604 26307.6
 08 08 2013  13 57  -21.0665 26078.8 -03461.3 -07.5603 26307.5
 08 08 2013  13 58  -21.0667 26078.6 -03461.2 -07.5601 26307.3
 08 08 2013  13 59  -21.0670 26078.6 -03461.2 -07.5601 26307.3
 08 08 2013  14 00  -21.0673 26078.7 -03461.1 -07.5601 26307.4
 08 08 2013  14 01  -21.0671 26078.7 -03461.1 -07.5599 26307.3
 08 08 2013  14 02  -21.0671 26078.6 -03461.0 -07.5598 26307.3
 08 08 2013  14 03  -21.0673 26078.4 -03461.0 -07.5597 26307.1
 08 08 2013  14 04  -21.0674 26078.3 -03460.9 -07.5596 26306.9
 08 08 2013  14 05  -21.0675 26078.2 -03460.9 -07.5597 26306.8
 08 08 2013  14 06  -21.0679 26078.0 -03460.9 -07.5597 26306.6
 08 08 2013  14 07  -21.0682 26077.7 -03460.9 -07.5598 26306.4
 08 08 2013  14 08  -21.0686 26077.4 -03460.9 -07.5599 26306.1
 08 08 2013  14 09  -21.0690 26077.3 -03461.0 -07.5601 26306.0
 08 08 2013  14 10  -21.0694 26077.3 -03461.0 -07.5602 26305.9
 08 08 2013  14 11  -21.0699 26077.2 -03461.1 -07.5604 26305.9
 08 08 2013  14 12  -21.0703 26077.0 -03461.1 -07.5604 26305.7
 08 08 2013  14 13  -21.0705 26076.7 -03461.0 -07.5604 26305.4
 08 08 2013  14 14  -21.0708 26076.6 -03461.1 -07.5605 26305.3
 08 08 2013  14 15  -21.0710 26076.7 -03461.1 -07.5606 26305.4
 08 08 2013  14 16  -21.0714 26076.9 -03461.2 -07.5608 26305.6
 08 08 2013  14 17  -21.0716 26077.1 -03461.3 -07.5609 26305.8
 08 08 2013  14 18  -21.0720 26077.3 -03461.4 -07.5610 26306.1
 08 08 2013  14 19  -21.0724 26077.6 -03461.4 -07.5610 26306.4
 08 08 2013  14 20  -21.0726 26077.9 -03461.3 -07.5606 26306.6
 08 08 2013  14 21  -21.0727 26077.7 -03461.1 -07.5602 26306.3
 08 08 2013  14 22  -21.0728 26077.4 -03460.9 -07.5600 26306.0
 08 08 2013  14 23  -21.0728 26077.2 -03460.8 -07.5598 26305.8
 08 08 2013  14 24  -21.0732 26076.9 -03460.8 -07.5598 26305.6
 08 08 2013  14 25  -21.0742 26076.7 -03460.8 -07.5599 26305.4
 08 08 2013  14 26  -21.0744 26076.8 -03460.9 -07.5600 26305.5
 08 08 2013  14 27  -21.0753 26076.8 -03461.1 -07.5605 26305.5
 08 08 2013  14 28  -21.0755 26076.9 -03461.2 -07.5608 26305.6
 08 08 2013  14 29  -21.0761 26077.0 -03461.3 -07.5609 26305.7
 08 08 2013  14 30  -21.0764 26077.0 -03461.4 -07.5610 26305.7
 08 08 2013  14 31  -21.0768 26077.0 -03461.4 -07.5611 26305.8
 08 08 2013  14 32  -21.0773 26077.0 -03461.5 -07.5613 26305.8
 08 08 2013  14 33  -21.0778 26077.1 -03461.6 -07.5615 26305.8
 08 08 2013  14 34  -21.0783 26077.0 -03461.6 -07.5616 26305.7
 08 08 2013  14 35  -21.0791 26076.9 -03461.7 -07.5618 26305.7
 08 08 2013  14 36  -21.0799 26077.0 -03461.8 -07.5619 26305.7
 08 08 2013  14 37  -21.0808 26076.9 -03461.8 -07.5620 26305.7
 08 08 2013  14 38  -21.0814 26076.9 -03461.8 -07.5621 26305.7
 08 08 2013  14 39  -21.0821 26076.8 -03461.8 -07.5621 26305.6
 08 08 2013  14 40  -21.0828 26076.7 -03461.8 -07.5621 26305.5
 08 08 2013  14 41  -21.0835 26076.8 -03461.9 -07.5622 26305.6
 08 08 2013  14 42  -21.0840 26076.9 -03461.9 -07.5622 26305.7
 08 08 2013  14 43  -21.0846 26077.0 -03461.9 -07.5622 26305.8
 08 08 2013  14 44  -21.0854 26077.1 -03461.9 -07.5622 26305.9
 08 08 2013  14 45  -21.0862 26077.1 -03461.9 -07.5621 26305.9
 08 08 2013  14 46  -21.0869 26077.2 -03461.8 -07.5620 26306.0
 08 08 2013  14 47  -21.0877 26077.3 -03461.8 -07.5620 26306.1
 08 08 2013  14 48  -21.0886 26077.3 -03461.8 -07.5619 26306.1
 08 08 2013  14 49  -21.0891 26077.0 -03461.6 -07.5615 26305.7
 08 08 2013  14 50  -21.0893 26076.6 -03461.4 -07.5613 26305.4
 08 08 2013  14 51  -21.0900 26076.4 -03461.4 -07.5612 26305.1
 08 08 2013  14 52  -21.0908 26076.1 -03461.3 -07.5611 26304.8
 08 08 2013  14 53  -21.0915 26075.9 -03461.2 -07.5610 26304.6
 08 08 2013  14 54  -21.0920 26075.7 -03461.2 -07.5610 26304.4
 08 08 2013  14 55  -21.0925 26075.6 -03461.2 -07.5609 26304.3
 08 08 2013  14 56  -21.0930 26075.5 -03461.1 -07.5608 26304.2
 08 08 2013  14 57  -21.0936 26075.4 -03461.0 -07.5608 26304.1
 08 08 2013  14 58  -21.0941 26075.2 -03460.9 -07.5605 26303.9
 08 08 2013  14 59  -21.0949 26075.1 -03460.8 -07.5604 26303.8
 08 08 2013  15 00  -21.0953 26075.0 -03460.7 -07.5601 26303.6
 08 08 2013  15 01  -21.0957 26074.7 -03460.5 -07.5598 26303.3
 08 08 2013  15 02  -21.0958 26074.4 -03460.3 -07.5594 26303.0
 08 08 2013  15 03  -21.0958 26074.2 -03460.1 -07.5591 26302.7
 08 08 2013  15 04  -21.0957 26073.8 -03459.9 -07.5588 26302.4
 08 08 2013  15 05  -21.0959 26073.7 -03459.8 -07.5586 26302.2
 08 08 2013  15 06  -21.0959 26073.5 -03459.6 -07.5583 26302.0
 08 08 2013  15 07  -21.0958 26073.2 -03459.4 -07.5579 26301.7
 08 08 2013  15 08  -21.0957 26073.1 -03459.3 -07.5576 26301.5
 08 08 2013  15 09  -21.0956 26072.9 -03459.1 -07.5574 26301.4
 08 08 2013  15 10  -21.0953 26072.7 -03459.0 -07.5572 26301.2
 08 08 2013  15 11  -21.0951 26072.6 -03458.8 -07.5568 26301.0
 08 08 2013  15 12  -21.0949 26072.5 -03458.7 -07.5564 26300.9
 08 08 2013  15 13  -21.0944 26072.3 -03458.5 -07.5561 26300.7
 08 08 2013  15 14  -21.0939 26072.3 -03458.3 -07.5558 26300.6
 08 08 2013  15 15  -21.0932 26072.3 -03458.2 -07.5555 26300.6
 08 08 2013  15 16  -21.0930 26072.7 -03458.1 -07.5552 26301.0
 08 08 2013  15 17  -21.0927 26072.9 -03457.9 -07.5547 26301.2
 08 08 2013  15 18  -21.0924 26072.9 -03457.6 -07.5541 26301.2
 08 08 2013  15 19  -21.0916 26072.7 -03457.3 -07.5534 26300.9
 08 08 2013  15 20  -21.0908 26072.5 -03456.9 -07.5527 26300.6
 08 08 2013  15 21  -21.0898 26072.3 -03456.6 -07.5521 26300.5
 08 08 2013  15 22  -21.0886 26072.0 -03456.3 -07.5515 26300.1
 08 08 2013  15 23  -21.0873 26071.5 -03455.9 -07.5508 26299.5
 08 08 2013  15 24  -21.0859 26071.0 -03455.6 -07.5504 26299.0
 08 08 2013  15 25  -21.0846 26070.8 -03455.5 -07.5501 26298.8
 08 08 2013  15 26  -21.0834 26070.6 -03455.3 -07.5497 26298.5
 08 08 2013  15 27  -21.0823 26070.2 -03455.0 -07.5493 26298.1
 08 08 2013  15 28  -21.0809 26069.7 -03454.8 -07.5489 26297.6
 08 08 2013  15 29  -21.0794 26069.5 -03454.7 -07.5488 26297.4
 08 08 2013  15 30  -21.0780 26069.3 -03454.6 -07.5486 26297.2
 08 08 2013  15 31  -21.0766 26068.9 -03454.4 -07.5484 26296.8
 08 08 2013  15 32  -21.0750 26068.6 -03454.4 -07.5483 26296.5
 08 08 2013  15 33  -21.0734 26068.4 -03454.3 -07.5483 26296.3
 08 08 2013  15 34  -21.0721 26068.1 -03454.3 -07.5483 26296.0
 08 08 2013  15 35  -21.0706 26067.7 -03454.2 -07.5482 26295.6
 08 08 2013  15 36  -21.0693 26067.4 -03454.2 -07.5482 26295.2
 08 08 2013  15 37  -21.0681 26067.1 -03454.2 -07.5483 26295.0
 08 08 2013  15 38  -21.0668 26066.9 -03454.2 -07.5485 26294.8
 08 08 2013  15 39  -21.0657 26066.7 -03454.3 -07.5486 26294.6
 08 08 2013  15 40  -21.0648 26066.3 -03454.2 -07.5487 26294.2
 08 08 2013  15 41  -21.0637 26066.0 -03454.3 -07.5488 26293.9
 08 08 2013  15 42  -21.0628 26065.9 -03454.3 -07.5490 26293.7
 08 08 2013  15 43  -21.0618 26065.7 -03454.4 -07.5492 26293.6
 08 08 2013  15 44  -21.0608 26065.4 -03454.4 -07.5493 26293.3
 08 08 2013  15 45  -21.0597 26065.1 -03454.4 -07.5494 26293.0
 08 08 2013  15 46  -21.0587 26064.8 -03454.4 -07.5496 26292.7
 08 08 2013  15 47  -21.0578 26064.7 -03454.6 -07.5500 26292.7
 08 08 2013  15 48  -21.0569 26064.6 -03454.7 -07.5502 26292.6
 08 08 2013  15 49  -21.0560 26064.5 -03454.8 -07.5504 26292.4
 08 08 2013  15 50  -21.0550 26064.1 -03454.8 -07.5505 26292.1
 08 08 2013  15 51  -21.0541 26063.9 -03454.9 -07.5507 26291.8
 08 08 2013  15 52  -21.0533 26063.7 -03455.0 -07.5512 26291.7
 08 08 2013  15 53  -21.0525 26063.5 -03455.2 -07.5515 26291.5
 08 08 2013  15 54  -21.0518 26063.3 -03455.2 -07.5517 26291.3
 08 08 2013  15 55  -21.0510 26063.0 -03455.4 -07.5521 26291.0
 08 08 2013  15 56  -21.0504 26062.9 -03455.7 -07.5527 26291.0
 08 08 2013  15 57  -21.0501 26062.9 -03455.9 -07.5533 26291.1
 08 08 2013  15 58  -21.0498 26063.0 -03456.2 -07.5539 26291.1
 08 08 2013  15 59  -21.0495 26062.8 -03456.3 -07.5542 26291.0
 08 08 2013  16 00  -21.0492 26062.7 -03456.5 -07.5545 26290.9
 08 08 2013  16 01  -21.0488 26062.6 -03456.6 -07.5548 26290.8
 08 08 2013  16 02  -21.0483 26062.3 -03456.6 -07.5550 26290.5
 08 08 2013  16 03  -21.0478 26061.9 -03456.7 -07.5553 26290.1
 08 08 2013  16 04  -21.0474 26061.5 -03456.8 -07.5555 26289.8
 08 08 2013  16 05  -21.0470 26061.2 -03456.9 -07.5558 26289.5
 08 08 2013  16 06  -21.0464 26060.8 -03457.0 -07.5562 26289.1
 08 08 2013  16 07  -21.0461 26060.6 -03457.2 -07.5568 26289.0
 08 08 2013  16 08  -21.0458 26060.6 -03457.5 -07.5574 26288.9
 08 08 2013  16 09  -21.0458 26060.4 -03457.7 -07.5578 26288.8
 08 08 2013  16 10  -21.0457 26060.4 -03457.9 -07.5583 26288.8
 08 08 2013  16 11  -21.0457 26060.5 -03458.1 -07.5587 26288.9
 08 08 2013  16 12  -21.0453 26060.4 -03458.3 -07.5591 26288.9
 08 08 2013  16 13  -21.0451 26060.4 -03458.5 -07.5595 26288.9
 08 08 2013  16 14  -21.0451 26060.4 -03458.6 -07.5599 26288.9
 08 08 2013  16 15  -21.0450 26060.1 -03458.7 -07.5601 26288.6
 08 08 2013  16 16  -21.0446 26059.4 -03458.5 -07.5599 26287.9
 08 08 2013  16 17  -21.0439 26058.8 -03458.5 -07.5600 26287.3
 08 08 2013  16 18  -21.0436 26058.6 -03458.7 -07.5605 26287.1
 08 08 2013  16 19  -21.0435 26058.6 -03458.9 -07.5610 26287.2
 08 08 2013  16 20  -21.0432 26058.2 -03459.1 -07.5614 26286.8
 08 08 2013  16 21  -21.0429 26057.6 -03459.1 -07.5617 26286.2
 08 08 2013  16 22  -21.0428 26057.2 -03459.2 -07.5620 26285.8
 08 08 2013  16 23  -21.0427 26056.9 -03459.4 -07.5625 26285.5
 08 08 2013  16 24  -21.0425 26056.5 -03459.5 -07.5630 26285.2
 08 08 2013  16 25  -21.0421 26056.1 -03459.7 -07.5634 26284.8
 08 08 2013  16 26  -21.0419 26055.8 -03459.9 -07.5639 26284.5
 08 08 2013  16 27  -21.0416 26055.5 -03460.1 -07.5644 26284.3
 08 08 2013  16 28  -21.0416 26055.3 -03460.3 -07.5649 26284.1
 08 08 2013  16 29  -21.0414 26054.9 -03460.3 -07.5651 26283.7
 08 08 2013  16 30  -21.0410 26054.5 -03460.4 -07.5654 26283.3
 08 08 2013  16 31  -21.0408 26054.2 -03460.5 -07.5658 26283.0
 08 08 2013  16 32  -21.0407 26053.9 -03460.7 -07.5662 26282.8
 08 08 2013  16 33  -21.0405 26053.4 -03460.8 -07.5665 26282.3
 08 08 2013  16 34  -21.0400 26052.7 -03460.7 -07.5666 26281.6
 08 08 2013  16 35  -21.0396 26052.4 -03460.9 -07.5670 26281.3
 08 08 2013  16 36  -21.0397 26052.4 -03461.2 -07.5677 26281.3
 08 08 2013  16 37  -21.0402 26052.5 -03461.5 -07.5684 26281.4
 08 08 2013  16 38  -21.0404 26052.4 -03461.6 -07.5686 26281.3
 08 08 2013  16 39  -21.0403 26051.9 -03461.5 -07.5685 26280.8
 08 08 2013  16 40  -21.0398 26051.3 -03461.4 -07.5685 26280.3
 08 08 2013  16 41  -21.0398 26051.2 -03461.6 -07.5689 26280.2
 08 08 2013  16 42  -21.0398 26051.0 -03461.6 -07.5691 26280.0
 08 08 2013  16 43  -21.0395 26050.2 -03461.5 -07.5689 26279.2
 08 08 2013  16 44  -21.0387 26049.5 -03461.4 -07.5689 26278.5
 08 08 2013  16 45  -21.0381 26049.1 -03461.5 -07.5692 26278.1
 08 08 2013  16 46  -21.0378 26048.7 -03461.6 -07.5696 26277.7
 08 08 2013  16 47  -21.0376 26048.5 -03461.8 -07.5700 26277.6
 08 08 2013  16 48  -21.0375 26048.5 -03461.9 -07.5704 26277.5
 08 08 2013  16 49  -21.0373 26048.2 -03462.0 -07.5706 26277.3
 08 08 2013  16 50  -21.0370 26047.9 -03462.0 -07.5707 26276.9
 08 08 2013  16 51  -21.0367 26047.5 -03462.0 -07.5708 26276.5
 08 08 2013  16 52  -21.0362 26047.1 -03461.9 -07.5708 26276.1
 08 08 2013  16 53  -21.0359 26046.8 -03462.0 -07.5710 26275.8
 08 08 2013  16 54  -21.0358 26046.6 -03462.0 -07.5712 26275.7
 08 08 2013  16 55  -21.0354 26046.3 -03462.0 -07.5713 26275.4
 08 08 2013  16 56  -21.0351 26046.0 -03462.0 -07.5713 26275.1
 08 08 2013  16 57  -21.0346 26045.5 -03461.9 -07.5713 26274.6
 08 08 2013  16 58  -21.0339 26045.0 -03461.8 -07.5712 26274.1
 08 08 2013  16 59  -21.0333 26044.8 -03461.8 -07.5713 26273.8
 08 08 2013  17 00  -21.0330 26044.5 -03461.9 -07.5714 26273.5
 08 08 2013  17 01  -21.0325 26044.1 -03461.8 -07.5714 26273.2
 08 08 2013  17 02  -21.0320 26043.7 -03461.8 -07.5715 26272.8
 08 08 2013  17 03  -21.0313 26043.4 -03461.8 -07.5716 26272.4
 08 08 2013  17 04  -21.0309 26043.2 -03461.9 -07.5718 26272.3
 08 08 2013  17 05  -21.0304 26042.9 -03461.9 -07.5719 26272.0
 08 08 2013  17 06  -21.0297 26042.5 -03461.8 -07.5719 26271.6
 08 08 2013  17 07  -21.0290 26042.0 -03461.7 -07.5718 26271.1
 08 08 2013  17 08  -21.0282 26041.5 -03461.7 -07.5718 26270.6
 08 08 2013  17 09  -21.0274 26041.0 -03461.7 -07.5720 26270.1
 08 08 2013  17 10  -21.0267 26040.7 -03461.7 -07.5722 26269.8
 08 08 2013  17 11  -21.0263 26040.4 -03461.8 -07.5724 26269.5
 08 08 2013  17 12  -21.0259 26040.2 -03461.8 -07.5725 26269.3
 08 08 2013  17 13  -21.0252 26039.8 -03461.8 -07.5726 26268.9
 08 08 2013  17 14  -21.0248 26039.5 -03461.8 -07.5728 26268.7
 08 08 2013  17 15  -21.0245 26039.5 -03461.9 -07.5730 26268.6
 08 08 2013  17 16  -21.0241 26039.4 -03462.0 -07.5732 26268.6
 08 08 2013  17 17  -21.0236 26039.3 -03462.0 -07.5732 26268.4
 08 08 2013  17 18  -21.0231 26039.1 -03462.1 -07.5734 26268.3
 08 08 2013  17 19  -21.0226 26038.8 -03462.0 -07.5734 26268.0
 08 08 2013  17 20  -21.0220 26038.5 -03462.0 -07.5734 26267.6
 08 08 2013  17 21  -21.0215 26038.2 -03462.0 -07.5736 26267.3
 08 08 2013  17 22  -21.0212 26038.0 -03462.0 -07.5737 26267.1
 08 08 2013  17 23  -21.0209 26037.8 -03462.1 -07.5739 26267.0
 08 08 2013  17 24  -21.0206 26037.7 -03462.2 -07.5741 26266.9
 08 08 2013  17 25  -21.0204 26037.5 -03462.2 -07.5743 26266.7
 08 08 2013  17 26  -21.0203 26037.2 -03462.3 -07.5744 26266.4
 08 08 2013  17 27  -21.0201 26036.9 -03462.3 -07.5745 26266.1
 08 08 2013  17 28  -21.0200 26036.8 -03462.4 -07.5748 26266.0
 08 08 2013  17 29  -21.0199 26036.5 -03462.4 -07.5749 26265.7
 08 08 2013  17 30  -21.0197 26036.3 -03462.5 -07.5752 26265.5
 08 08 2013  17 31  -21.0198 26036.1 -03462.6 -07.5754 26265.4
 08 08 2013  17 32  -21.0198 26035.9 -03462.6 -07.5755 26265.1
 08 08 2013  17 33  -21.0198 26035.6 -03462.6 -07.5756 26264.9
 08 08 2013  17 34  -21.0198 26035.4 -03462.6 -07.5757 26264.6
 08 08 2013  17 35  -21.0198 26035.1 -03462.6 -07.5758 26264.4
 08 08 2013  17 36  -21.0198 26034.8 -03462.7 -07.5759 26264.1
 08 08 2013  17 37  -21.0198 26034.7 -03462.7 -07.5761 26264.0
 08 08 2013  17 38  -21.0198 26034.6 -03462.8 -07.5762 26263.9
 08 08 2013  17 39  -21.0201 26034.7 -03462.9 -07.5765 26264.0
 08 08 2013  17 40  -21.0205 26034.7 -03463.0 -07.5766 26264.0
 08 08 2013  17 41  -21.0205 26034.5 -03462.9 -07.5766 26263.8
 08 08 2013  17 42  -21.0204 26034.4 -03462.9 -07.5766 26263.7
 08 08 2013  17 43  -21.0204 26034.2 -03462.9 -07.5766 26263.5
 08 08 2013  17 44  -21.0203 26034.1 -03462.9 -07.5767 26263.4
 08 08 2013  17 45  -21.0202 26034.0 -03463.0 -07.5769 26263.3
 08 08 2013  17 46  -21.0202 26034.0 -03463.1 -07.5771 26263.3
 08 08 2013  17 47  -21.0200 26033.9 -03463.2 -07.5774 26263.2
 08 08 2013  17 48  -21.0203 26034.0 -03463.4 -07.5777 26263.4
 08 08 2013  17 49  -21.0207 26034.2 -03463.6 -07.5780 26263.6
 08 08 2013  17 50  -21.0207 26034.2 -03463.6 -07.5780 26263.6
 08 08 2013  17 51  -21.0205 26034.2 -03463.7 -07.5782 26263.6
 08 08 2013  17 52  -21.0207 26034.4 -03463.8 -07.5786 26263.8
 08 08 2013  17 53  -21.0210 26034.2 -03463.9 -07.5787 26263.6
 08 08 2013  17 54  -21.0209 26033.9 -03463.8 -07.5786 26263.3
 08 08 2013  17 55  -21.0206 26033.7 -03463.8 -07.5787 26263.1
 08 08 2013  17 56  -21.0205 26033.6 -03463.9 -07.5790 26263.1
 08 08 2013  17 57  -21.0206 26033.7 -03464.1 -07.5794 26263.1
 08 08 2013  17 58  -21.0209 26033.8 -03464.3 -07.5797 26263.2
 08 08 2013  17 59  -21.0210 26033.6 -03464.3 -07.5798 26263.1
 08 08 2013  18 00  -21.0210 26033.2 -03464.2 -07.5797 26262.7
 08 08 2013  18 01  -21.0207 26032.9 -03464.2 -07.5797 26262.4
 08 08 2013  18 02  -21.0202 26032.7 -03464.2 -07.5799 26262.1
 08 08 2013  18 03  -21.0201 26032.9 -03464.5 -07.5804 26262.4
 08 08 2013  18 04  -21.0207 26033.4 -03464.9 -07.5811 26263.0
 08 08 2013  18 05  -21.0212 26033.7 -03465.0 -07.5813 26263.2
 08 08 2013  18 06  -21.0213 26033.4 -03464.9 -07.5811 26262.9
 08 08 2013  18 07  -21.0211 26032.9 -03464.6 -07.5807 26262.5
 08 08 2013  18 08  -21.0208 26032.5 -03464.6 -07.5808 26262.1
 08 08 2013  18 09  -21.0209 26032.5 -03464.8 -07.5813 26262.0
 08 08 2013  18 10  -21.0211 26032.3 -03465.0 -07.5816 26261.9
 08 08 2013  18 11  -21.0215 26032.0 -03465.0 -07.5817 26261.6
 08 08 2013  18 12  -21.0215 26031.5 -03464.9 -07.5816 26261.1
 08 08 2013  18 13  -21.0213 26031.1 -03464.9 -07.5818 26260.7
 08 08 2013  18 14  -21.0216 26031.3 -03465.2 -07.5825 26260.9
 08 08 2013  18 15  -21.0220 26031.4 -03465.5 -07.5831 26261.0
 08 08 2013  18 16  -21.0222 26031.3 -03465.6 -07.5833 26261.0
 08 08 2013  18 17  -21.0223 26031.2 -03465.7 -07.5835 26260.8
 08 08 2013  18 18  -21.0224 26031.0 -03465.7 -07.5836 26260.7
 08 08 2013  18 19  -21.0228 26030.8 -03465.8 -07.5839 26260.6
 08 08 2013  18 20  -21.0230 26030.6 -03465.8 -07.5839 26260.3
 08 08 2013  18 21  -21.0230 26030.3 -03465.8 -07.5840 26260.0
 08 08 2013  18 22  -21.0233 26030.3 -03466.0 -07.5844 26260.0
 08 08 2013  18 23  -21.0232 26030.0 -03466.0 -07.5845 26259.7
 08 08 2013  18 24  -21.0230 26029.8 -03466.1 -07.5848 26259.6
 08 08 2013  18 25  -21.0234 26030.2 -03466.4 -07.5854 26260.0
 08 08 2013  18 26  -21.0239 26030.5 -03466.7 -07.5859 26260.3
 08 08 2013  18 27  -21.0251 26030.7 -03466.8 -07.5861 26260.5
 08 08 2013  18 28  -21.0255 26030.1 -03466.5 -07.5855 26259.9
 08 08 2013  18 29  -21.0251 26029.3 -03466.1 -07.5849 26259.0
 08 08 2013  18 30  -21.0250 26028.7 -03466.0 -07.5848 26258.4
 08 08 2013  18 31  -21.0250 26028.3 -03466.1 -07.5853 26258.1
 08 08 2013  18 32  -21.0254 26028.0 -03466.3 -07.5857 26257.8
 08 08 2013  18 33  -21.0256 26027.5 -03466.2 -07.5857 26257.3
 08 08 2013  18 34  -21.0260 26027.1 -03466.2 -07.5859 26256.9
 08 08 2013  18 35  -21.0264 26026.7 -03466.3 -07.5860 26256.6
 08 08 2013  18 36  -21.0263 26026.3 -03466.3 -07.5862 26256.1
 08 08 2013  18 37  -21.0266 26026.1 -03466.4 -07.5866 26255.9
 08 08 2013  18 38  -21.0272 26026.1 -03466.6 -07.5870 26256.0
 08 08 2013  18 39  -21.0273 26025.6 -03466.5 -07.5869 26255.4
 08 08 2013  18 40  -21.0276 26025.5 -03466.6 -07.5872 26255.4
 08 08 2013  18 41  -21.0277 26025.3 -03466.7 -07.5874 26255.2
 08 08 2013  18 42  -21.0282 26025.2 -03466.7 -07.5875 26255.0
 08 08 2013  18 43  -21.0283 26024.8 -03466.7 -07.5875 26254.7
 08 08 2013  18 44  -21.0287 26024.6 -03466.7 -07.5876 26254.5
 08 08 2013  18 45  -21.0290 26024.4 -03466.7 -07.5876 26254.3
 08 08 2013  18 46  -21.0293 26024.1 -03466.6 -07.5876 26254.0
 08 08 2013  18 47  -21.0294 26023.8 -03466.6 -07.5876 26253.7
 08 08 2013  18 48  -21.0296 26023.6 -03466.6 -07.5877 26253.5
 08 08 2013  18 49  -21.0300 26023.4 -03466.6 -07.5878 26253.3
 08 08 2013  18 50  -21.0303 26023.2 -03466.6 -07.5877 26253.1
 08 08 2013  18 51  -21.0304 26022.9 -03466.5 -07.5878 26252.8
 08 08 2013  18 52  -21.0308 26022.9 -03466.6 -07.5879 26252.8
 08 08 2013  18 53  -21.0310 26022.5 -03466.6 -07.5879 26252.4
 08 08 2013  18 54  -21.0314 26022.4 -03466.6 -07.5880 26252.2
 08 08 2013  18 55  -21.0317 26022.1 -03466.6 -07.5881 26252.0
 08 08 2013  18 56  -21.0320 26022.0 -03466.6 -07.5882 26251.9
 08 08 2013  18 57  -21.0323 26021.6 -03466.3 -07.5877 26251.4
 08 08 2013  18 58  -21.0326 26021.5 -03466.4 -07.5879 26251.3
 08 08 2013  18 59  -21.0332 26021.5 -03466.7 -07.5884 26251.4
 08 08 2013  19 00  -21.0334 26021.5 -03466.6 -07.5884 26251.4
 08 08 2013  19 01  -21.0349 26021.4 -03466.7 -07.5885 26251.3
 08 08 2013  19 02  -21.0375 26021.5 -03466.7 -07.5886 26251.4
 08 08 2013  19 03  -21.0381 26021.4 -03466.9 -07.5888 26251.4
 08 08 2013  19 04  -21.0382 26021.1 -03466.8 -07.5888 26251.0
 08 08 2013  19 05  -21.0385 26020.7 -03466.7 -07.5887 26250.6
 08 08 2013  19 06  -21.0357 26020.2 -03466.6 -07.5887 26250.1
 08 08 2013  19 07  -21.0351 26019.9 -03466.6 -07.5888 26249.8
 08 08 2013  19 08  -21.0352 26019.7 -03466.7 -07.5889 26249.6
 08 08 2013  19 09  -21.0355 26019.4 -03466.7 -07.5892 26249.4
 08 08 2013  19 10  -21.0356 26019.2 -03466.8 -07.5894 26249.2
 08 08 2013  19 11  -21.0359 26019.1 -03466.9 -07.5896 26249.1
 08 08 2013  19 12  -21.0363 26019.1 -03467.0 -07.5898 26249.1
 08 08 2013  19 13  -21.0364 26018.9 -03467.0 -07.5898 26248.8
 08 08 2013  19 14  -21.0366 26018.7 -03467.0 -07.5900 26248.6
 08 08 2013  19 15  -21.0370 26018.5 -03467.1 -07.5902 26248.5
 08 08 2013  19 16  -21.0373 26018.3 -03467.1 -07.5903 26248.3
 08 08 2013  19 17  -21.0375 26018.2 -03467.2 -07.5904 26248.2
 08 08 2013  19 18  -21.0378 26018.2 -03467.3 -07.5907 26248.2
 08 08 2013  19 19  -21.0382 26018.2 -03467.4 -07.5909 26248.2
 08 08 2013  19 20  -21.0385 26018.0 -03467.3 -07.5909 26248.0
 08 08 2013  19 21  -21.0386 26017.9 -03467.4 -07.5910 26248.0
 08 08 2013  19 22  -21.0388 26017.9 -03467.4 -07.5911 26248.0
 08 08 2013  19 23  -21.0387 26017.8 -03467.4 -07.5910 26247.9
 08 08 2013  19 24  -21.0387 26017.7 -03467.4 -07.5911 26247.7
 08 08 2013  19 25  -21.0388 26017.5 -03467.4 -07.5912 26247.6
 08 08 2013  19 26  -21.0390 26017.5 -03467.5 -07.5913 26247.5
 08 08 2013  19 27  -21.0389 26017.4 -03467.4 -07.5913 26247.4
 08 08 2013  19 28  -21.0391 26017.2 -03467.4 -07.5913 26247.3
 08 08 2013  19 29  -21.0392 26017.2 -03467.5 -07.5914 26247.3
 08 08 2013  19 30  -21.0394 26017.2 -03467.5 -07.5915 26247.3
 08 08 2013  19 31  -21.0392 26017.2 -03467.6 -07.5916 26247.3
 08 08 2013  19 32  -21.0390 26017.2 -03467.6 -07.5918 26247.2
 08 08 2013  19 33  -21.0387 26017.2 -03467.7 -07.5919 26247.2
 08 08 2013  19 34  -21.0385 26017.2 -03467.7 -07.5919 26247.3
 08 08 2013  19 35  -21.0382 26017.1 -03467.8 -07.5921 26247.2
 08 08 2013  19 36  -21.0380 26017.1 -03467.8 -07.5921 26247.1
 08 08 2013  19 37  -21.0378 26016.9 -03467.8 -07.5922 26247.0
 08 08 2013  19 38  -21.0376 26017.0 -03467.9 -07.5924 26247.1
 08 08 2013  19 39  -21.0374 26017.0 -03468.0 -07.5927 26247.1
 08 08 2013  19 40  -21.0372 26017.0 -03468.1 -07.5929 26247.1
 08 08 2013  19 41  -21.0370 26017.0 -03468.2 -07.5931 26247.2
 08 08 2013  19 42  -21.0369 26017.0 -03468.3 -07.5933 26247.2
 08 08 2013  19 43  -21.0369 26017.1 -03468.5 -07.5936 26247.3
 08 08 2013  19 44  -21.0366 26017.1 -03468.5 -07.5937 26247.3
 08 08 2013  19 45  -21.0364 26017.1 -03468.6 -07.5939 26247.3
 08 08 2013  19 46  -21.0363 26017.1 -03468.7 -07.5941 26247.3
 08 08 2013  19 47  -21.0360 26017.1 -03468.8 -07.5944 26247.4
 08 08 2013  19 48  -21.0357 26017.2 -03468.9 -07.5946 26247.5
 08 08 2013  19 49  -21.0356 26017.4 -03469.1 -07.5949 26247.6
 08 08 2013  19 50  -21.0354 26017.5 -03469.2 -07.5951 26247.7
 08 08 2013  19 51  -21.0351 26017.5 -03469.3 -07.5953 26247.8
 08 08 2013  19 52  -21.0349 26017.6 -03469.4 -07.5954 26247.9
 08 08 2013  19 53  -21.0346 26017.8 -03469.5 -07.5956 26248.1
 08 08 2013  19 54  -21.0345 26017.9 -03469.6 -07.5959 26248.2
 08 08 2013  19 55  -21.0341 26017.9 -03469.7 -07.5961 26248.2
 08 08 2013  19 56  -21.0338 26017.9 -03469.8 -07.5961 26248.2
 08 08 2013  19 57  -21.0335 26017.9 -03469.8 -07.5963 26248.2
 08 08 2013  19 58  -21.0332 26017.9 -03469.9 -07.5964 26248.3
 08 08 2013  19 59  -21.0330 26017.9 -03470.0 -07.5966 26248.2
 08 08 2013  20 00  -21.0327 26017.9 -03470.1 -07.5968 26248.3
 08 08 2013  20 01  -21.0324 26017.9 -03470.2 -07.5971 26248.3
 08 08 2013  20 02  -21.0320 26018.0 -03470.2 -07.5971 26248.4
 08 08 2013  20 03  -21.0318 26018.0 -03470.3 -07.5972 26248.4
 08 08 2013  20 04  -21.0316 26018.1 -03470.4 -07.5974 26248.5
 08 08 2013  20 05  -21.0313 26018.2 -03470.4 -07.5975 26248.6
 08 08 2013  20 06  -21.0310 26018.2 -03470.5 -07.5977 26248.7
 08 08 2013  20 07  -21.0308 26018.3 -03470.6 -07.5978 26248.8
 08 08 2013  20 08  -21.0306 26018.4 -03470.7 -07.5980 26248.9
 08 08 2013  20 09  -21.0304 26018.5 -03470.7 -07.5981 26249.0
 08 08 2013  20 10  -21.0302 26018.6 -03470.8 -07.5982 26249.1
 08 08 2013  20 11  -21.0299 26018.8 -03470.9 -07.5984 26249.3
 08 08 2013  20 12  -21.0296 26018.9 -03471.0 -07.5985 26249.4
 08 08 2013  20 13  -21.0296 26019.1 -03471.2 -07.5988 26249.6
 08 08 2013  20 14  -21.0296 26019.3 -03471.2 -07.5989 26249.8
 08 08 2013  20 15  -21.0295 26019.3 -03471.2 -07.5989 26249.8
 08 08 2013  20 16  -21.0292 26019.5 -03471.3 -07.5991 26250.0
 08 08 2013  20 17  -21.0291 26019.5 -03471.4 -07.5992 26250.1
 08 08 2013  20 18  -21.0289 26019.6 -03471.4 -07.5992 26250.1
 08 08 2013  20 19  -21.0288 26019.8 -03471.5 -07.5994 26250.3
 08 08 2013  20 20  -21.0286 26020.0 -03471.6 -07.5996 26250.5
 08 08 2013  20 21  -21.0285 26020.0 -03471.6 -07.5996 26250.6
 08 08 2013  20 22  -21.0284 26020.1 -03471.7 -07.5996 26250.6
 08 08 2013  20 23  -21.0283 26020.2 -03471.7 -07.5998 26250.7
 08 08 2013  20 24  -21.0282 26020.3 -03471.8 -07.5999 26250.8
 08 08 2013  20 25  -21.0281 26020.4 -03471.9 -07.6000 26251.0
 08 08 2013  20 26  -21.0280 26020.5 -03471.9 -07.6001 26251.1
 08 08 2013  20 27  -21.0280 26020.5 -03472.0 -07.6002 26251.2
 08 08 2013  20 28  -21.0279 26020.5 -03472.0 -07.6002 26251.2
 08 08 2013  20 29  -21.0277 26020.6 -03472.0 -07.6002 26251.2
 08 08 2013  20 30  -21.0276 26020.6 -03472.1 -07.6003 26251.2
 08 08 2013  20 31  -21.0275 26020.7 -03472.1 -07.6004 26251.3
 08 08 2013  20 32  -21.0275 26020.8 -03472.2 -07.6006 26251.4
 08 08 2013  20 33  -21.0274 26020.9 -03472.3 -07.6008 26251.6
 08 08 2013  20 34  -21.0274 26021.1 -03472.4 -07.6010 26251.8
 08 08 2013  20 35  -21.0275 26021.3 -03472.5 -07.6011 26251.9
 08 08 2013  20 36  -21.0276 26021.4 -03472.5 -07.6011 26252.1
 08 08 2013  20 37  -21.0277 26021.6 -03472.6 -07.6012 26252.3
 08 08 2013  20 38  -21.0276 26021.8 -03472.6 -07.6013 26252.5
 08 08 2013  20 39  -21.0274 26022.1 -03472.7 -07.6013 26252.8
 08 08 2013  20 40  -21.0274 26022.1 -03472.7 -07.6014 26252.8
 08 08 2013  20 41  -21.0272 26022.1 -03472.7 -07.6013 26252.8
 08 08 2013  20 42  -21.0272 26022.3 -03472.7 -07.6013 26253.0
 08 08 2013  20 43  -21.0270 26022.4 -03472.8 -07.6013 26253.1
 08 08 2013  20 44  -21.0268 26022.6 -03472.8 -07.6013 26253.3
 08 08 2013  20 45  -21.0266 26022.7 -03472.7 -07.6012 26253.4
 08 08 2013  20 46  -21.0264 26022.8 -03472.8 -07.6012 26253.5
 08 08 2013  20 47  -21.0261 26023.1 -03472.9 -07.6014 26253.8
 08 08 2013  20 48  -21.0258 26023.6 -03473.2 -07.6019 26254.3
 08 08 2013  20 49  -21.0258 26024.0 -03473.4 -07.6022 26254.8
 08 08 2013  20 50  -21.0258 26024.3 -03473.3 -07.6021 26255.1
 08 08 2013  20 51  -21.0256 26025.0 -03473.5 -07.6022 26255.8
 08 08 2013  20 52  -21.0255 26025.5 -03473.6 -07.6024 26256.3
 08 08 2013  20 53  -21.0251 26025.9 -03473.7 -07.6024 26256.7
 08 08 2013  20 54  -21.0249 26026.2 -03473.8 -07.6024 26257.0
 08 08 2013  20 55  -21.0246 26026.3 -03473.7 -07.6023 26257.1
 08 08 2013  20 56  -21.0243 26026.5 -03473.7 -07.6022 26257.3
 08 08 2013  20 57  -21.0239 26026.8 -03473.8 -07.6022 26257.6
 08 08 2013  20 58  -21.0236 26027.4 -03473.9 -07.6024 26258.2
 08 08 2013  20 59  -21.0232 26028.1 -03474.2 -07.6027 26258.9
 08 08 2013  21 00  -21.0229 26028.6 -03474.4 -07.6030 26259.5
 08 08 2013  21 01  -21.0227 26028.9 -03474.4 -07.6030 26259.8
 08 08 2013  21 02  -21.0225 26029.3 -03474.4 -07.6029 26260.1
 08 08 2013  21 03  -21.0225 26029.6 -03474.4 -07.6029 26260.5
 08 08 2013  21 04  -21.0224 26030.1 -03474.6 -07.6031 26261.0
 08 08 2013  21 05  -21.0222 26030.6 -03474.9 -07.6035 26261.5
 08 08 2013  21 06  -21.0220 26030.9 -03474.9 -07.6036 26261.8
 08 08 2013  21 07  -21.0220 26031.0 -03474.8 -07.6034 26261.9
 08 08 2013  21 08  -21.0219 26031.0 -03474.8 -07.6032 26261.9
 08 08 2013  21 09  -21.0219 26031.3 -03474.9 -07.6033 26262.2
 08 08 2013  21 10  -21.0220 26031.8 -03475.1 -07.6036 26262.8
 08 08 2013  21 11  -21.0221 26032.3 -03475.3 -07.6039 26263.3
 08 08 2013  21 12  -21.0223 26032.5 -03475.3 -07.6038 26263.5
 08 08 2013  21 13  -21.0227 26032.9 -03475.3 -07.6038 26263.8
 08 08 2013  21 14  -21.0232 26033.3 -03475.3 -07.6038 26264.2
 08 08 2013  21 15  -21.0235 26033.4 -03475.2 -07.6035 26264.3
 08 08 2013  21 16  -21.0237 26033.3 -03475.1 -07.6032 26264.2
 08 08 2013  21 17  -21.0240 26033.2 -03474.9 -07.6029 26264.1
 08 08 2013  21 18  -21.0242 26033.3 -03474.9 -07.6027 26264.2
 08 08 2013  21 19  -21.0243 26033.4 -03474.8 -07.6026 26264.3
 08 08 2013  21 20  -21.0244 26033.3 -03474.7 -07.6023 26264.2
 08 08 2013  21 21  -21.0244 26033.2 -03474.5 -07.6020 26264.0
 08 08 2013  21 22  -21.0245 26033.0 -03474.3 -07.6016 26263.8
 08 08 2013  21 23  -21.0248 26032.7 -03474.1 -07.6012 26263.5
 08 08 2013  21 24  -21.0250 26032.5 -03474.0 -07.6011 26263.3
 08 08 2013  21 25  -21.0254 26032.4 -03473.9 -07.6010 26263.2
 08 08 2013  21 26  -21.0257 26032.5 -03473.9 -07.6010 26263.2
 08 08 2013  21 27  -21.0259 26032.5 -03473.9 -07.6010 26263.3
 08 08 2013  21 28  -21.0259 26032.4 -03473.9 -07.6008 26263.1
 08 08 2013  21 29  -21.0261 26032.2 -03473.7 -07.6006 26263.0
 08 08 2013  21 30  -21.0264 26032.2 -03473.7 -07.6005 26262.9
 08 08 2013  21 31  -21.0266 26032.2 -03473.7 -07.6005 26263.0
 08 08 2013  21 32  -21.0269 26032.2 -03473.7 -07.6005 26263.0
 08 08 2013  21 33  -21.0270 26032.1 -03473.6 -07.6003 26262.9
 08 08 2013  21 34  -21.0269 26031.9 -03473.4 -07.6000 26262.6
 08 08 2013  21 35  -21.0268 26031.7 -03473.2 -07.5997 26262.3
 08 08 2013  21 36  -21.0269 26031.6 -03473.2 -07.5995 26262.2
 08 08 2013  21 37  -21.0269 26031.6 -03473.2 -07.5996 26262.3
 08 08 2013  21 38  -21.0270 26031.8 -03473.3 -07.5997 26262.5
 08 08 2013  21 39  -21.0270 26032.0 -03473.3 -07.5998 26262.7
 08 08 2013  21 40  -21.0270 26031.9 -03473.3 -07.5997 26262.6
 08 08 2013  21 41  -21.0269 26031.9 -03473.2 -07.5996 26262.6
 08 08 2013  21 42  -21.0270 26031.8 -03473.2 -07.5995 26262.5
 08 08 2013  21 43  -21.0272 26032.0 -03473.2 -07.5995 26262.7
 08 08 2013  21 44  -21.0273 26032.2 -03473.2 -07.5995 26262.8
 08 08 2013  21 45  -21.0274 26032.3 -03473.3 -07.5996 26263.0
 08 08 2013  21 46  -21.0273 26032.2 -03473.2 -07.5994 26262.9
 08 08 2013  21 47  -21.0273 26032.1 -03473.1 -07.5992 26262.7
 08 08 2013  21 48  -21.0273 26032.0 -03473.0 -07.5991 26262.7
 08 08 2013  21 49  -21.0275 26032.2 -03473.1 -07.5992 26262.9
 08 08 2013  21 50  -21.0275 26032.4 -03473.1 -07.5992 26263.0
 08 08 2013  21 51  -21.0275 26032.3 -03473.0 -07.5991 26262.9
 08 08 2013  21 52  -21.0273 26032.2 -03472.9 -07.5989 26262.8
 08 08 2013  21 53  -21.0274 26032.1 -03472.8 -07.5987 26262.7
 08 08 2013  21 54  -21.0273 26032.1 -03472.8 -07.5987 26262.7
 08 08 2013  21 55  -21.0274 26032.1 -03472.8 -07.5986 26262.7
 08 08 2013  21 56  -21.0275 26032.1 -03472.8 -07.5986 26262.7
 08 08 2013  21 57  -21.0273 26032.1 -03472.7 -07.5985 26262.8
 08 08 2013  21 58  -21.0273 26032.1 -03472.7 -07.5984 26262.7
 08 08 2013  21 59  -21.0271 26032.2 -03472.7 -07.5984 26262.8
 08 08 2013  22 00  -21.0271 26032.3 -03472.7 -07.5983 26262.9
 08 08 2013  22 01  -21.0271 26032.3 -03472.7 -07.5983 26262.9
 08 08 2013  22 02  -21.0272 26032.2 -03472.6 -07.5982 26262.8
 08 08 2013  22 03  -21.0270 26032.1 -03472.5 -07.5981 26262.7
 08 08 2013  22 04  -21.0269 26031.9 -03472.4 -07.5979 26262.5
 08 08 2013  22 05  -21.0267 26031.8 -03472.3 -07.5977 26262.4
 08 08 2013  22 06  -21.0267 26031.9 -03472.4 -07.5977 26262.4
 08 08 2013  22 07  -21.0267 26031.9 -03472.4 -07.5978 26262.4
 08 08 2013  22 08  -21.0267 26031.8 -03472.3 -07.5977 26262.3
 08 08 2013  22 09  -21.0268 26031.8 -03472.3 -07.5976 26262.3
 08 08 2013  22 10  -21.0269 26031.8 -03472.3 -07.5976 26262.4
 08 08 2013  22 11  -21.0269 26031.9 -03472.3 -07.5976 26262.4
 08 08 2013  22 12  -21.0268 26032.0 -03472.3 -07.5977 26262.5
 08 08 2013  22 13  -21.0269 26032.0 -03472.3 -07.5976 26262.6
 08 08 2013  22 14  -21.0266 26031.9 -03472.3 -07.5975 26262.5
 08 08 2013  22 15  -21.0263 26031.9 -03472.2 -07.5974 26262.4
 08 08 2013  22 16  -21.0265 26032.1 -03472.3 -07.5975 26262.7
 08 08 2013  22 17  -21.0264 26032.2 -03472.3 -07.5976 26262.7
 08 08 2013  22 18  -21.0267 26032.1 -03472.3 -07.5976 26262.7
 08 08 2013  22 19  -21.0267 26032.1 -03472.3 -07.5975 26262.7
 08 08 2013  22 20  -21.0267 26032.1 -03472.2 -07.5974 26262.6
 08 08 2013  22 21  -21.0267 26032.2 -03472.2 -07.5974 26262.7
 08 08 2013  22 22  -21.0265 26032.2 -03472.2 -07.5974 26262.7
 08 08 2013  22 23  -21.0264 26032.1 -03472.1 -07.5971 26262.6
 08 08 2013  22 24  -21.0265 26032.0 -03472.1 -07.5971 26262.5
 08 08 2013  22 25  -21.0265 26031.9 -03472.0 -07.5970 26262.4
 08 08 2013  22 26  -21.0265 26031.7 -03471.9 -07.5967 26262.2
 08 08 2013  22 27  -21.0263 26031.5 -03471.8 -07.5966 26261.9
 08 08 2013  22 28  -21.0262 26031.4 -03471.7 -07.5964 26261.9
 08 08 2013  22 29  -21.0261 26031.5 -03471.7 -07.5964 26262.0
 08 08 2013  22 30  -21.0261 26031.5 -03471.7 -07.5965 26262.0
 08 08 2013  22 31  -21.0259 26031.4 -03471.7 -07.5964 26261.9
 08 08 2013  22 32  -21.0259 26031.4 -03471.7 -07.5964 26261.9
 08 08 2013  22 33  -21.0259 26031.5 -03471.7 -07.5965 26262.0
 08 08 2013  22 34  -21.0259 26031.5 -03471.8 -07.5966 26262.0
 08 08 2013  22 35  -21.0259 26031.5 -03471.8 -07.5966 26262.0
 08 08 2013  22 36  -21.0259 26031.5 -03471.8 -07.5966 26262.0
 08 08 2013  22 37  -21.0259 26031.6 -03471.8 -07.5966 26262.1
 08 08 2013  22 38  -21.0259 26031.5 -03471.7 -07.5965 26262.0
 08 08 2013  22 39  -21.0259 26031.5 -03471.7 -07.5965 26261.9
 08 08 2013  22 40  -21.0260 26031.6 -03471.8 -07.5966 26262.1
 08 08 2013  22 41  -21.0260 26031.6 -03471.8 -07.5966 26262.1
 08 08 2013  22 42  -21.0260 26031.7 -03471.8 -07.5966 26262.2
 08 08 2013  22 43  -21.0260 26031.9 -03471.9 -07.5966 26262.4
 08 08 2013  22 44  -21.0259 26032.0 -03471.9 -07.5968 26262.5
 08 08 2013  22 45  -21.0260 26032.1 -03472.0 -07.5968 26262.6
 08 08 2013  22 46  -21.0260 26031.9 -03471.9 -07.5967 26262.4
 08 08 2013  22 47  -21.0260 26031.8 -03471.8 -07.5965 26262.3
 08 08 2013  22 48  -21.0261 26031.8 -03471.7 -07.5964 26262.3
 08 08 2013  22 49  -21.0262 26031.9 -03471.8 -07.5965 26262.4
 08 08 2013  22 50  -21.0262 26031.8 -03471.7 -07.5964 26262.3
 08 08 2013  22 51  -21.0263 26031.8 -03471.7 -07.5963 26262.3
 08 08 2013  22 52  -21.0263 26031.9 -03471.7 -07.5963 26262.4
 08 08 2013  22 53  -21.0262 26031.9 -03471.7 -07.5964 26262.4
 08 08 2013  22 54  -21.0261 26031.8 -03471.6 -07.5962 26262.2
 08 08 2013  22 55  -21.0261 26031.7 -03471.6 -07.5961 26262.2
 08 08 2013  22 56  -21.0260 26031.9 -03471.7 -07.5962 26262.4
 08 08 2013  22 57  -21.0262 26032.0 -03471.7 -07.5963 26262.4
 08 08 2013  22 58  -21.0262 26032.0 -03471.7 -07.5964 26262.5
 08 08 2013  22 59  -21.0262 26032.0 -03471.7 -07.5963 26262.5
 08 08 2013  23 00  -21.0263 26032.0 -03471.7 -07.5963 26262.5
 08 08 2013  23 01  -21.0261 26032.2 -03471.8 -07.5963 26262.7
 08 08 2013  23 02  -21.0259 26032.2 -03471.7 -07.5963 26262.7
 08 08 2013  23 03  -21.0259 26032.2 -03471.7 -07.5962 26262.7
 08 08 2013  23 04  -21.0259 26032.3 -03471.8 -07.5963 26262.8
 08 08 2013  23 05  -21.0259 26032.4 -03471.8 -07.5963 26262.9
 08 08 2013  23 06  -21.0258 26032.6 -03471.8 -07.5964 26263.1
 08 08 2013  23 07  -21.0255 26032.9 -03471.9 -07.5966 26263.4
 08 08 2013  23 08  -21.0254 26032.9 -03471.9 -07.5966 26263.4
 08 08 2013  23 09  -21.0252 26033.0 -03472.0 -07.5966 26263.5
 08 08 2013  23 10  -21.0251 26033.0 -03471.9 -07.5965 26263.5
 08 08 2013  23 11  -21.0251 26032.9 -03471.9 -07.5964 26263.4
 08 08 2013  23 12  -21.0249 26032.9 -03471.8 -07.5963 26263.4
 08 08 2013  23 13  -21.0249 26032.8 -03471.8 -07.5963 26263.3
 08 08 2013  23 14  -21.0249 26032.8 -03471.8 -07.5963 26263.3
 08 08 2013  23 15  -21.0250 26032.7 -03471.7 -07.5962 26263.2
 08 08 2013  23 16  -21.0250 26033.0 -03471.9 -07.5964 26263.5
 08 08 2013  23 17  -21.0249 26033.3 -03472.0 -07.5966 26263.8
 08 08 2013  23 18  -21.0248 26033.5 -03472.1 -07.5967 26264.0
 08 08 2013  23 19  -21.0248 26033.6 -03472.1 -07.5968 26264.1
 08 08 2013  23 20  -21.0248 26033.4 -03472.0 -07.5965 26263.9
 08 08 2013  23 21  -21.0247 26033.4 -03472.0 -07.5965 26263.9
 08 08 2013  23 22  -21.0249 26033.3 -03472.0 -07.5965 26263.8
 08 08 2013  23 23  -21.0252 26033.3 -03471.9 -07.5963 26263.8
 08 08 2013  23 24  -21.0253 26033.4 -03471.9 -07.5963 26263.9
 08 08 2013  23 25  -21.0252 26033.2 -03471.8 -07.5962 26263.6
 08 08 2013  23 26  -21.0254 26033.1 -03471.8 -07.5961 26263.6
 08 08 2013  23 27  -21.0254 26033.2 -03471.8 -07.5961 26263.7
 08 08 2013  23 28  -21.0253 26033.4 -03471.9 -07.5962 26263.9
 08 08 2013  23 29  -21.0252 26033.4 -03471.9 -07.5963 26263.9
 08 08 2013  23 30  -21.0252 26033.4 -03471.9 -07.5963 26263.9
 08 08 2013  23 31  -21.0251 26033.5 -03471.9 -07.5963 26264.0
 08 08 2013  23 32  -21.0251 26033.6 -03471.9 -07.5963 26264.1
 08 08 2013  23 33  -21.0251 26033.7 -03472.0 -07.5964 26264.2
 08 08 2013  23 34  -21.0251 26033.8 -03472.0 -07.5964 26264.3
 08 08 2013  23 35  -21.0253 26033.8 -03472.0 -07.5964 26264.3
 08 08 2013  23 36  -21.0253 26033.9 -03472.0 -07.5964 26264.4
 08 08 2013  23 37  -21.0253 26033.9 -03472.0 -07.5964 26264.4
 08 08 2013  23 38  -21.0252 26034.1 -03472.1 -07.5964 26264.6
 08 08 2013  23 39  -21.0252 26034.5 -03472.2 -07.5966 26265.0
 08 08 2013  23 40  -21.0250 26034.7 -03472.3 -07.5968 26265.2
 08 08 2013  23 41  -21.0249 26034.8 -03472.3 -07.5968 26265.4
 08 08 2013  23 42  -21.0247 26035.0 -03472.3 -07.5968 26265.5
 08 08 2013  23 43  -21.0245 26035.2 -03472.4 -07.5969 26265.7
 08 08 2013  23 44  -21.0244 26035.3 -03472.4 -07.5969 26265.9
 08 08 2013  23 45  -21.0243 26035.3 -03472.4 -07.5968 26265.9
 08 08 2013  23 46  -21.0242 26035.3 -03472.3 -07.5967 26265.8
 08 08 2013  23 47  -21.0243 26035.2 -03472.3 -07.5966 26265.8
 08 08 2013  23 48  -21.0242 26035.3 -03472.3 -07.5966 26265.8
 08 08 2013  23 49  -21.0241 26035.2 -03472.2 -07.5964 26265.7
 08 08 2013  23 50  -21.0241 26035.3 -03472.2 -07.5964 26265.8
 08 08 2013  23 51  -21.0240 26035.2 -03472.2 -07.5963 26265.7
 08 08 2013  23 52  -21.0241 26035.1 -03472.1 -07.5963 26265.6
 08 08 2013  23 53  -21.0240 26035.1 -03472.1 -07.5962 26265.6
 08 08 2013  23 54  -21.0239 26035.0 -03472.0 -07.5961 26265.4
 08 08 2013  23 55  -21.0239 26035.0 -03472.0 -07.5961 26265.4
 08 08 2013  23 56  -21.0239 26034.8 -03471.9 -07.5959 26265.3
 08 08 2013  23 57  -21.0240 26034.7 -03471.8 -07.5958 26265.1
 08 08 2013  23 58  -21.0239 26034.6 -03471.8 -07.5958 26265.0
