SAO LUIS EMBRACE-03 <004> 1 Min. Reported data

 DD MM YYYY  HH MM   D(Deg)  H(nT)   Z(nT)   I(Deg)   F(nT)

 04 01 2013  00 00  -21.0024 26058.7 -03384.8 -07.4007 26277.6
 04 01 2013  00 01  -21.0025 26058.7 -03384.8 -07.4008 26277.6
 04 01 2013  00 02  -21.0027 26058.6 -03384.8 -07.4008 26277.5
 04 01 2013  00 03  -21.0028 26058.6 -03384.8 -07.4009 26277.5
 04 01 2013  00 04  -21.0028 26058.6 -03384.8 -07.4009 26277.5
 04 01 2013  00 05  -21.0028 26058.4 -03384.8 -07.4008 26277.3
 04 01 2013  00 06  -21.0027 26058.4 -03384.8 -07.4008 26277.3
 04 01 2013  00 07  -21.0026 26058.3 -03384.8 -07.4009 26277.2
 04 01 2013  00 08  -21.0026 26058.2 -03384.8 -07.4009 26277.2
 04 01 2013  00 09  -21.0026 26058.3 -03384.8 -07.4010 26277.2
 04 01 2013  00 10  -21.0026 26058.2 -03384.9 -07.4010 26277.2
 04 01 2013  00 11  -21.0026 26058.2 -03384.9 -07.4011 26277.2
 04 01 2013  00 12  -21.0024 26058.3 -03385.0 -07.4012 26277.2
 04 01 2013  00 13  -21.0023 26058.4 -03385.0 -07.4014 26277.3
 04 01 2013  00 14  -21.0022 26058.6 -03385.2 -07.4017 26277.6
 04 01 2013  00 15  -21.0019 26058.8 -03385.3 -07.4019 26277.7
 04 01 2013  00 16  -21.0017 26058.8 -03385.4 -07.4020 26277.8
 04 01 2013  00 17  -21.0020 26058.8 -03385.4 -07.4021 26277.8
 04 01 2013  00 18  -21.0026 26058.8 -03385.4 -07.4021 26277.8
 04 01 2013  00 19  -21.0029 26058.6 -03385.4 -07.4021 26277.6
 04 01 2013  00 20  -21.0030 26058.5 -03385.3 -07.4019 26277.5
 04 01 2013  00 21  -21.0034 26058.4 -03385.3 -07.4018 26277.3
 04 01 2013  00 22  -21.0039 26058.2 -03385.2 -07.4017 26277.2
 04 01 2013  00 23  -21.0042 26058.3 -03385.2 -07.4017 26277.2
 04 01 2013  00 24  -21.0041 26058.3 -03385.2 -07.4018 26277.3
 04 01 2013  00 25  -21.0038 26058.3 -03385.2 -07.4017 26277.3
 04 01 2013  00 26  -21.0046 26058.4 -03385.2 -07.4018 26277.3
 04 01 2013  00 27  -21.0052 26058.2 -03385.2 -07.4018 26277.2
 04 01 2013  00 28  -21.0049 26057.9 -03385.0 -07.4015 26276.9
 04 01 2013  00 29  -21.0044 26057.8 -03384.9 -07.4013 26276.7
 04 01 2013  00 30  -21.0042 26057.6 -03384.9 -07.4012 26276.5
 04 01 2013  00 31  -21.0038 26057.6 -03384.9 -07.4012 26276.5
 04 01 2013  00 32  -21.0036 26057.6 -03384.9 -07.4013 26276.5
 04 01 2013  00 33  -21.0036 26057.6 -03385.0 -07.4014 26276.6
 04 01 2013  00 34  -21.0036 26057.5 -03385.0 -07.4015 26276.5
 04 01 2013  00 35  -21.0036 26057.5 -03385.0 -07.4016 26276.4
 04 01 2013  00 36  -21.0035 26057.4 -03385.0 -07.4016 26276.4
 04 01 2013  00 37  -21.0035 26057.4 -03385.0 -07.4016 26276.3
 04 01 2013  00 38  -21.0035 26057.4 -03385.0 -07.4016 26276.3
 04 01 2013  00 39  -21.0034 26057.4 -03385.1 -07.4018 26276.4
 04 01 2013  00 40  -21.0034 26057.6 -03385.2 -07.4020 26276.6
 04 01 2013  00 41  -21.0036 26057.8 -03385.4 -07.4022 26276.8
 04 01 2013  00 42  -21.0040 26057.9 -03385.5 -07.4024 26276.9
 04 01 2013  00 43  -21.0044 26058.0 -03385.5 -07.4026 26277.0
 04 01 2013  00 44  -21.0044 26058.1 -03385.5 -07.4026 26277.1
 04 01 2013  00 45  -21.0045 26058.1 -03385.5 -07.4025 26277.1
 04 01 2013  00 46  -21.0046 26058.0 -03385.5 -07.4025 26277.0
 04 01 2013  00 47  -21.0047 26058.1 -03385.5 -07.4024 26277.1
 04 01 2013  00 48  -21.0051 26058.1 -03385.5 -07.4025 26277.1
 04 01 2013  00 49  -21.0054 26058.0 -03385.4 -07.4024 26277.0
 04 01 2013  00 50  -21.0057 26057.8 -03385.4 -07.4022 26276.8
 04 01 2013  00 51  -21.0059 26057.9 -03385.4 -07.4022 26276.9
 04 01 2013  00 52  -21.0059 26057.8 -03385.3 -07.4022 26276.8
 04 01 2013  00 53  -21.0061 26057.8 -03385.3 -07.4022 26276.8
 04 01 2013  00 54  -21.0061 26057.9 -03385.4 -07.4022 26276.9
 04 01 2013  00 55  -21.0058 26057.6 -03385.2 -07.4020 26276.6
 04 01 2013  00 56  -21.0054 26057.6 -03385.2 -07.4019 26276.6
 04 01 2013  00 57  -21.0052 26057.3 -03385.1 -07.4018 26276.2
 04 01 2013  00 58  -21.0051 26057.2 -03385.0 -07.4016 26276.1
 04 01 2013  00 59  -21.0049 26057.0 -03385.0 -07.4016 26276.0
 04 01 2013  01 00  -21.0050 26056.7 -03384.9 -07.4015 26275.7
 04 01 2013  01 01  -21.0051 26056.8 -03384.9 -07.4016 26275.7
 04 01 2013  01 02  -21.0053 26056.8 -03385.0 -07.4018 26275.7
 04 01 2013  01 03  -21.0056 26056.7 -03385.0 -07.4018 26275.7
 04 01 2013  01 04  -21.0055 26056.9 -03385.1 -07.4019 26275.8
 04 01 2013  01 05  -21.0055 26056.8 -03385.2 -07.4021 26275.8
 04 01 2013  01 06  -21.0054 26056.6 -03385.0 -07.4018 26275.5
 04 01 2013  01 07  -21.0056 26056.8 -03385.1 -07.4020 26275.8
 04 01 2013  01 08  -21.0053 26057.1 -03385.3 -07.4024 26276.1
 04 01 2013  01 09  -21.0053 26056.9 -03385.2 -07.4022 26275.9
 04 01 2013  01 10  -21.0053 26057.4 -03385.5 -07.4027 26276.4
 04 01 2013  01 11  -21.0054 26057.4 -03385.6 -07.4028 26276.4
 04 01 2013  01 12  -21.0052 26057.4 -03385.6 -07.4028 26276.4
 04 01 2013  01 13  -21.0054 26057.2 -03385.4 -07.4025 26276.2
 04 01 2013  01 14  -21.0058 26057.2 -03385.5 -07.4027 26276.2
 04 01 2013  01 15  -21.0059 26057.3 -03385.5 -07.4027 26276.3
 04 01 2013  01 16  -21.0059 26057.3 -03385.5 -07.4028 26276.4
 04 01 2013  01 17  -21.0059 26057.1 -03385.5 -07.4027 26276.1
 04 01 2013  01 18  -21.0062 26056.9 -03385.4 -07.4025 26275.9
 04 01 2013  01 19  -21.0064 26057.1 -03385.5 -07.4027 26276.1
 04 01 2013  01 20  -21.0064 26057.3 -03385.6 -07.4029 26276.3
 04 01 2013  01 21  -21.0064 26057.0 -03385.4 -07.4027 26276.0
 04 01 2013  01 22  -21.0065 26057.2 -03385.5 -07.4027 26276.2
 04 01 2013  01 23  -21.0065 26057.0 -03385.5 -07.4027 26276.0
 04 01 2013  01 24  -21.0064 26057.7 -03385.7 -07.4031 26276.7
 04 01 2013  01 25  -21.0064 26057.5 -03385.8 -07.4032 26276.6
 04 01 2013  01 26  -21.0063 26057.6 -03385.7 -07.4031 26276.7
 04 01 2013  01 27  -21.0063 26058.0 -03385.9 -07.4034 26277.1
 04 01 2013  01 28  -21.0063 26057.7 -03385.8 -07.4032 26276.8
 04 01 2013  01 29  -21.0067 26057.9 -03385.8 -07.4033 26276.9
 04 01 2013  01 30  -21.0069 26058.3 -03386.1 -07.4037 26277.4
 04 01 2013  01 31  -21.0069 26058.1 -03386.0 -07.4035 26277.2
 04 01 2013  01 32  -21.0069 26058.4 -03386.1 -07.4036 26277.5
 04 01 2013  01 33  -21.0066 26059.1 -03386.4 -07.4041 26278.2
 04 01 2013  01 34  -21.0066 26058.6 -03386.2 -07.4038 26277.7
 04 01 2013  01 35  -21.0070 26059.2 -03386.4 -07.4041 26278.3
 04 01 2013  01 36  -21.0071 26059.2 -03386.4 -07.4042 26278.3
 04 01 2013  01 37  -21.0071 26059.6 -03386.5 -07.4043 26278.7
 04 01 2013  01 38  -21.0069 26060.4 -03386.9 -07.4048 26279.6
 04 01 2013  01 39  -21.0068 26060.1 -03386.8 -07.4047 26279.3
 04 01 2013  01 40  -21.0071 26060.3 -03386.8 -07.4046 26279.4
 04 01 2013  01 41  -21.0071 26060.7 -03387.0 -07.4049 26279.9
 04 01 2013  01 42  -21.0069 26061.3 -03387.2 -07.4052 26280.5
 04 01 2013  01 43  -21.0069 26061.4 -03387.2 -07.4052 26280.6
 04 01 2013  01 44  -21.0071 26061.5 -03387.2 -07.4052 26280.7
 04 01 2013  01 45  -21.0073 26061.6 -03387.2 -07.4051 26280.8
 04 01 2013  01 46  -21.0077 26061.6 -03387.2 -07.4051 26280.8
 04 01 2013  01 47  -21.0081 26061.5 -03387.1 -07.4049 26280.7
 04 01 2013  01 48  -21.0083 26061.5 -03387.0 -07.4047 26280.7
 04 01 2013  01 49  -21.0084 26061.4 -03386.9 -07.4045 26280.6
 04 01 2013  01 50  -21.0086 26061.2 -03386.7 -07.4042 26280.3
 04 01 2013  01 51  -21.0087 26061.2 -03386.7 -07.4042 26280.3
 04 01 2013  01 52  -21.0089 26060.8 -03386.5 -07.4038 26279.9
 04 01 2013  01 53  -21.0089 26061.1 -03386.5 -07.4038 26280.2
 04 01 2013  01 54  -21.0089 26061.2 -03386.6 -07.4039 26280.3
 04 01 2013  01 55  -21.0091 26061.1 -03386.5 -07.4038 26280.2
 04 01 2013  01 56  -21.0091 26061.3 -03386.6 -07.4040 26280.5
 04 01 2013  01 57  -21.0091 26061.0 -03386.4 -07.4037 26280.1
 04 01 2013  01 58  -21.0092 26061.2 -03386.5 -07.4038 26280.3
 04 01 2013  01 59  -21.0092 26061.3 -03386.6 -07.4038 26280.5
 04 01 2013  02 00  -21.0092 26061.5 -03386.6 -07.4039 26280.6
 04 01 2013  02 01  -21.0093 26061.6 -03386.6 -07.4040 26280.7
 04 01 2013  02 02  -21.0093 26061.5 -03386.6 -07.4039 26280.6
 04 01 2013  02 03  -21.0096 26061.4 -03386.5 -07.4038 26280.5
 04 01 2013  02 04  -21.0100 26061.7 -03386.7 -07.4040 26280.8
 04 01 2013  02 05  -21.0103 26061.5 -03386.6 -07.4039 26280.6
 04 01 2013  02 06  -21.0104 26061.8 -03386.6 -07.4039 26280.9
 04 01 2013  02 07  -21.0103 26061.8 -03386.6 -07.4039 26280.9
 04 01 2013  02 08  -21.0104 26061.8 -03386.6 -07.4038 26280.9
 04 01 2013  02 09  -21.0105 26061.9 -03386.6 -07.4038 26281.0
 04 01 2013  02 10  -21.0106 26061.8 -03386.6 -07.4037 26280.9
 04 01 2013  02 11  -21.0107 26062.0 -03386.6 -07.4037 26281.1
 04 01 2013  02 12  -21.0107 26061.8 -03386.5 -07.4036 26281.0
 04 01 2013  02 13  -21.0107 26061.9 -03386.5 -07.4036 26281.0
 04 01 2013  02 14  -21.0107 26061.9 -03386.5 -07.4035 26281.0
 04 01 2013  02 15  -21.0106 26062.0 -03386.5 -07.4035 26281.1
 04 01 2013  02 16  -21.0103 26062.0 -03386.5 -07.4035 26281.1
 04 01 2013  02 17  -21.0103 26061.7 -03386.3 -07.4033 26280.8
 04 01 2013  02 18  -21.0103 26062.0 -03386.5 -07.4034 26281.1
 04 01 2013  02 19  -21.0103 26062.0 -03386.5 -07.4035 26281.1
 04 01 2013  02 20  -21.0104 26062.3 -03386.6 -07.4037 26281.4
 04 01 2013  02 21  -21.0104 26062.4 -03386.6 -07.4037 26281.5
 04 01 2013  02 22  -21.0104 26062.2 -03386.6 -07.4036 26281.4
 04 01 2013  02 23  -21.0104 26062.4 -03386.6 -07.4036 26281.5
 04 01 2013  02 24  -21.0101 26062.3 -03386.5 -07.4034 26281.4
 04 01 2013  02 25  -21.0099 26062.5 -03386.5 -07.4035 26281.6
 04 01 2013  02 26  -21.0100 26062.3 -03386.5 -07.4034 26281.3
 04 01 2013  02 27  -21.0099 26062.4 -03386.5 -07.4034 26281.5
 04 01 2013  02 28  -21.0097 26062.3 -03386.4 -07.4033 26281.4
 04 01 2013  02 29  -21.0098 26062.4 -03386.5 -07.4033 26281.5
 04 01 2013  02 30  -21.0097 26062.3 -03386.4 -07.4033 26281.4
 04 01 2013  02 31  -21.0099 26062.3 -03386.4 -07.4032 26281.4
 04 01 2013  02 32  -21.0099 26062.1 -03386.3 -07.4031 26281.2
 04 01 2013  02 33  -21.0102 26062.0 -03386.2 -07.4030 26281.1
 04 01 2013  02 34  -21.0101 26061.9 -03386.2 -07.4029 26281.0
 04 01 2013  02 35  -21.0102 26061.8 -03386.1 -07.4028 26280.9
 04 01 2013  02 36  -21.0102 26061.6 -03386.0 -07.4026 26280.6
 04 01 2013  02 37  -21.0101 26061.4 -03385.9 -07.4024 26280.4
 04 01 2013  02 38  -21.0098 26061.4 -03385.9 -07.4023 26280.4
 04 01 2013  02 39  -21.0097 26061.3 -03385.9 -07.4023 26280.3
 04 01 2013  02 40  -21.0099 26061.3 -03385.9 -07.4024 26280.4
 04 01 2013  02 41  -21.0103 26061.5 -03386.0 -07.4026 26280.5
 04 01 2013  02 42  -21.0105 26061.6 -03386.1 -07.4028 26280.6
 04 01 2013  02 43  -21.0106 26061.6 -03386.1 -07.4028 26280.6
 04 01 2013  02 44  -21.0106 26061.7 -03386.1 -07.4028 26280.8
 04 01 2013  02 45  -21.0104 26061.8 -03386.2 -07.4028 26280.9
 04 01 2013  02 46  -21.0104 26061.8 -03386.1 -07.4028 26280.8
 04 01 2013  02 47  -21.0103 26061.7 -03386.1 -07.4028 26280.8
 04 01 2013  02 48  -21.0103 26061.8 -03386.1 -07.4027 26280.8
 04 01 2013  02 49  -21.0103 26061.7 -03386.1 -07.4027 26280.7
 04 01 2013  02 50  -21.0105 26061.6 -03386.0 -07.4026 26280.6
 04 01 2013  02 51  -21.0106 26061.5 -03386.0 -07.4025 26280.5
 04 01 2013  02 52  -21.0108 26061.5 -03386.0 -07.4025 26280.5
 04 01 2013  02 53  -21.0106 26061.4 -03385.9 -07.4024 26280.5
 04 01 2013  02 54  -21.0106 26061.2 -03385.8 -07.4023 26280.3
 04 01 2013  02 55  -21.0107 26061.0 -03385.7 -07.4021 26280.0
 04 01 2013  02 56  -21.0109 26061.0 -03385.7 -07.4021 26280.0
 04 01 2013  02 57  -21.0110 26061.0 -03385.7 -07.4020 26280.0
 04 01 2013  02 58  -21.0111 26061.0 -03385.7 -07.4021 26280.0
 04 01 2013  02 59  -21.0110 26061.0 -03385.7 -07.4022 26280.0
 04 01 2013  03 00  -21.0110 26060.9 -03385.7 -07.4021 26279.9
 04 01 2013  03 01  -21.0112 26061.0 -03385.7 -07.4022 26280.0
 04 01 2013  03 02  -21.0113 26061.0 -03385.8 -07.4023 26280.1
 04 01 2013  03 03  -21.0110 26061.0 -03385.8 -07.4023 26280.1
 04 01 2013  03 04  -21.0106 26061.1 -03385.8 -07.4023 26280.1
 04 01 2013  03 05  -21.0104 26061.2 -03385.9 -07.4024 26280.2
 04 01 2013  03 06  -21.0103 26061.2 -03386.0 -07.4026 26280.3
 04 01 2013  03 07  -21.0104 26061.4 -03386.0 -07.4027 26280.4
 04 01 2013  03 08  -21.0108 26061.4 -03386.1 -07.4028 26280.5
 04 01 2013  03 09  -21.0112 26061.5 -03386.1 -07.4029 26280.5
 04 01 2013  03 10  -21.0117 26061.5 -03386.2 -07.4029 26280.6
 04 01 2013  03 11  -21.0122 26061.5 -03386.1 -07.4029 26280.5
 04 01 2013  03 12  -21.0127 26061.5 -03386.1 -07.4028 26280.5
 04 01 2013  03 13  -21.0129 26061.6 -03386.1 -07.4028 26280.7
 04 01 2013  03 14  -21.0131 26061.5 -03386.1 -07.4028 26280.6
 04 01 2013  03 15  -21.0130 26061.7 -03386.1 -07.4027 26280.7
 04 01 2013  03 16  -21.0129 26061.5 -03386.0 -07.4026 26280.6
 04 01 2013  03 17  -21.0126 26061.4 -03385.9 -07.4024 26280.5
 04 01 2013  03 18  -21.0123 26061.4 -03385.9 -07.4023 26280.5
 04 01 2013  03 19  -21.0124 26061.3 -03385.8 -07.4023 26280.3
 04 01 2013  03 20  -21.0125 26061.4 -03385.9 -07.4023 26280.4
 04 01 2013  03 21  -21.0124 26061.5 -03385.9 -07.4024 26280.5
 04 01 2013  03 22  -21.0124 26061.4 -03385.9 -07.4024 26280.5
 04 01 2013  03 23  -21.0122 26061.5 -03385.9 -07.4024 26280.5
 04 01 2013  03 24  -21.0123 26061.5 -03385.9 -07.4024 26280.6
 04 01 2013  03 25  -21.0124 26061.6 -03386.0 -07.4025 26280.7
 04 01 2013  03 26  -21.0124 26061.7 -03386.0 -07.4026 26280.8
 04 01 2013  03 27  -21.0126 26061.9 -03386.1 -07.4027 26280.9
 04 01 2013  03 28  -21.0126 26061.9 -03386.1 -07.4027 26281.0
 04 01 2013  03 29  -21.0125 26062.0 -03386.1 -07.4027 26281.0
 04 01 2013  03 30  -21.0126 26062.0 -03386.1 -07.4027 26281.1
 04 01 2013  03 31  -21.0125 26062.0 -03386.1 -07.4027 26281.1
 04 01 2013  03 32  -21.0126 26062.0 -03386.1 -07.4027 26281.1
 04 01 2013  03 33  -21.0126 26062.1 -03386.1 -07.4027 26281.2
 04 01 2013  03 34  -21.0126 26062.2 -03386.2 -07.4027 26281.2
 04 01 2013  03 35  -21.0126 26062.2 -03386.1 -07.4027 26281.2
 04 01 2013  03 36  -21.0126 26062.2 -03386.1 -07.4026 26281.3
 04 01 2013  03 37  -21.0125 26062.2 -03386.1 -07.4026 26281.3
 04 01 2013  03 38  -21.0125 26062.2 -03386.1 -07.4026 26281.3
 04 01 2013  03 39  -21.0125 26062.2 -03386.1 -07.4026 26281.3
 04 01 2013  03 40  -21.0125 26062.2 -03386.0 -07.4025 26281.2
 04 01 2013  03 41  -21.0125 26062.2 -03386.1 -07.4025 26281.2
 04 01 2013  03 42  -21.0126 26062.3 -03386.1 -07.4026 26281.3
 04 01 2013  03 43  -21.0126 26062.4 -03386.1 -07.4026 26281.4
 04 01 2013  03 44  -21.0127 26062.4 -03386.2 -07.4027 26281.5
 04 01 2013  03 45  -21.0128 26062.5 -03386.2 -07.4027 26281.5
 04 01 2013  03 46  -21.0129 26062.5 -03386.1 -07.4026 26281.5
 04 01 2013  03 47  -21.0129 26062.5 -03386.2 -07.4026 26281.6
 04 01 2013  03 48  -21.0130 26062.6 -03386.2 -07.4026 26281.6
 04 01 2013  03 49  -21.0130 26062.6 -03386.1 -07.4026 26281.6
 04 01 2013  03 50  -21.0131 26062.5 -03386.1 -07.4025 26281.6
 04 01 2013  03 51  -21.0132 26062.4 -03386.1 -07.4024 26281.5
 04 01 2013  03 52  -21.0133 26062.4 -03386.0 -07.4024 26281.4
 04 01 2013  03 53  -21.0135 26062.4 -03386.0 -07.4024 26281.4
 04 01 2013  03 54  -21.0135 26062.4 -03386.0 -07.4023 26281.4
 04 01 2013  03 55  -21.0135 26062.3 -03386.0 -07.4023 26281.3
 04 01 2013  03 56  -21.0135 26062.4 -03386.0 -07.4023 26281.4
 04 01 2013  03 57  -21.0133 26062.5 -03386.0 -07.4024 26281.5
 04 01 2013  03 58  -21.0132 26062.5 -03386.0 -07.4024 26281.5
 04 01 2013  03 59  -21.0132 26062.6 -03386.1 -07.4025 26281.6
 04 01 2013  04 00  -21.0131 26062.7 -03386.1 -07.4026 26281.7
 04 01 2013  04 01  -21.0132 26062.7 -03386.2 -07.4026 26281.8
 04 01 2013  04 02  -21.0133 26062.8 -03386.2 -07.4026 26281.8
 04 01 2013  04 03  -21.0135 26062.8 -03386.2 -07.4027 26281.9
 04 01 2013  04 04  -21.0135 26062.9 -03386.3 -07.4028 26282.0
 04 01 2013  04 05  -21.0136 26063.0 -03386.3 -07.4028 26282.1
 04 01 2013  04 06  -21.0137 26063.2 -03386.4 -07.4029 26282.3
 04 01 2013  04 07  -21.0136 26063.3 -03386.4 -07.4030 26282.4
 04 01 2013  04 08  -21.0135 26063.1 -03386.3 -07.4028 26282.2
 04 01 2013  04 09  -21.0135 26063.0 -03386.3 -07.4027 26282.1
 04 01 2013  04 10  -21.0136 26063.0 -03386.2 -07.4027 26282.0
 04 01 2013  04 11  -21.0136 26062.9 -03386.2 -07.4027 26282.0
 04 01 2013  04 12  -21.0137 26063.0 -03386.3 -07.4027 26282.0
 04 01 2013  04 13  -21.0139 26062.9 -03386.3 -07.4028 26282.0
 04 01 2013  04 14  -21.0139 26062.8 -03386.2 -07.4027 26281.9
 04 01 2013  04 15  -21.0139 26062.7 -03386.2 -07.4026 26281.7
 04 01 2013  04 16  -21.0140 26062.5 -03386.1 -07.4024 26281.6
 04 01 2013  04 17  -21.0142 26062.4 -03386.0 -07.4024 26281.5
 04 01 2013  04 18  -21.0144 26062.5 -03386.1 -07.4024 26281.5
 04 01 2013  04 19  -21.0145 26062.5 -03386.1 -07.4025 26281.5
 04 01 2013  04 20  -21.0146 26062.4 -03386.1 -07.4025 26281.5
 04 01 2013  04 21  -21.0147 26062.4 -03386.1 -07.4025 26281.4
 04 01 2013  04 22  -21.0148 26062.3 -03386.1 -07.4026 26281.4
 04 01 2013  04 23  -21.0149 26062.3 -03386.1 -07.4026 26281.4
 04 01 2013  04 24  -21.0151 26062.4 -03386.2 -07.4027 26281.5
 04 01 2013  04 25  -21.0152 26062.5 -03386.2 -07.4027 26281.5
 04 01 2013  04 26  -21.0152 26062.5 -03386.2 -07.4028 26281.6
 04 01 2013  04 27  -21.0152 26062.5 -03386.3 -07.4029 26281.6
 04 01 2013  04 28  -21.0153 26062.7 -03386.3 -07.4030 26281.8
 04 01 2013  04 29  -21.0153 26062.8 -03386.4 -07.4031 26281.9
 04 01 2013  04 30  -21.0153 26062.9 -03386.5 -07.4032 26282.0
 04 01 2013  04 31  -21.0153 26063.0 -03386.6 -07.4034 26282.1
 04 01 2013  04 32  -21.0153 26063.0 -03386.6 -07.4034 26282.1
 04 01 2013  04 33  -21.0152 26063.1 -03386.6 -07.4034 26282.2
 04 01 2013  04 34  -21.0151 26063.0 -03386.6 -07.4034 26282.1
 04 01 2013  04 35  -21.0151 26062.9 -03386.5 -07.4033 26282.0
 04 01 2013  04 36  -21.0152 26062.8 -03386.5 -07.4033 26281.9
 04 01 2013  04 37  -21.0152 26062.5 -03386.4 -07.4032 26281.6
 04 01 2013  04 38  -21.0155 26062.5 -03386.4 -07.4031 26281.5
 04 01 2013  04 39  -21.0156 26062.4 -03386.4 -07.4031 26281.5
 04 01 2013  04 40  -21.0157 26062.3 -03386.3 -07.4030 26281.3
 04 01 2013  04 41  -21.0159 26062.2 -03386.3 -07.4031 26281.3
 04 01 2013  04 42  -21.0162 26062.2 -03386.4 -07.4031 26281.3
 04 01 2013  04 43  -21.0166 26062.3 -03386.4 -07.4032 26281.4
 04 01 2013  04 44  -21.0168 26062.4 -03386.5 -07.4034 26281.5
 04 01 2013  04 45  -21.0171 26062.5 -03386.5 -07.4034 26281.6
 04 01 2013  04 46  -21.0175 26062.6 -03386.5 -07.4034 26281.7
 04 01 2013  04 47  -21.0176 26062.6 -03386.5 -07.4034 26281.7
 04 01 2013  04 48  -21.0178 26062.5 -03386.5 -07.4034 26281.6
 04 01 2013  04 49  -21.0179 26062.5 -03386.5 -07.4033 26281.6
 04 01 2013  04 50  -21.0181 26062.6 -03386.5 -07.4034 26281.7
 04 01 2013  04 51  -21.0182 26062.6 -03386.5 -07.4034 26281.7
 04 01 2013  04 52  -21.0183 26062.7 -03386.5 -07.4034 26281.8
 04 01 2013  04 53  -21.0184 26062.8 -03386.6 -07.4035 26281.9
 04 01 2013  04 54  -21.0185 26062.7 -03386.5 -07.4034 26281.8
 04 01 2013  04 55  -21.0186 26062.6 -03386.5 -07.4033 26281.7
 04 01 2013  04 56  -21.0188 26062.6 -03386.4 -07.4032 26281.6
 04 01 2013  04 57  -21.0190 26062.5 -03386.4 -07.4031 26281.6
 04 01 2013  04 58  -21.0192 26062.4 -03386.3 -07.4030 26281.5
 04 01 2013  04 59  -21.0193 26062.4 -03386.3 -07.4029 26281.5
 04 01 2013  05 00  -21.0195 26062.4 -03386.3 -07.4029 26281.5
 04 01 2013  05 01  -21.0197 26062.4 -03386.3 -07.4029 26281.5
 04 01 2013  05 02  -21.0198 26062.5 -03386.3 -07.4030 26281.6
 04 01 2013  05 03  -21.0200 26062.6 -03386.3 -07.4030 26281.7
 04 01 2013  05 04  -21.0201 26062.7 -03386.3 -07.4030 26281.7
 04 01 2013  05 05  -21.0201 26062.8 -03386.4 -07.4030 26281.8
 04 01 2013  05 06  -21.0202 26062.8 -03386.4 -07.4030 26281.9
 04 01 2013  05 07  -21.0203 26062.8 -03386.4 -07.4030 26281.9
 04 01 2013  05 08  -21.0206 26062.9 -03386.4 -07.4030 26282.0
 04 01 2013  05 09  -21.0206 26062.8 -03386.3 -07.4029 26281.9
 04 01 2013  05 10  -21.0206 26062.9 -03386.3 -07.4028 26281.9
 04 01 2013  05 11  -21.0207 26063.0 -03386.3 -07.4029 26282.0
 04 01 2013  05 12  -21.0208 26063.0 -03386.4 -07.4029 26282.1
 04 01 2013  05 13  -21.0207 26063.1 -03386.4 -07.4030 26282.1
 04 01 2013  05 14  -21.0207 26063.2 -03386.4 -07.4030 26282.2
 04 01 2013  05 15  -21.0207 26063.2 -03386.4 -07.4030 26282.3
 04 01 2013  05 16  -21.0207 26063.3 -03386.4 -07.4030 26282.3
 04 01 2013  05 17  -21.0207 26063.3 -03386.4 -07.4030 26282.4
 04 01 2013  05 18  -21.0207 26063.3 -03386.4 -07.4030 26282.4
 04 01 2013  05 19  -21.0207 26063.3 -03386.4 -07.4030 26282.4
 04 01 2013  05 20  -21.0207 26063.2 -03386.4 -07.4029 26282.3
 04 01 2013  05 21  -21.0207 26063.2 -03386.3 -07.4028 26282.3
 04 01 2013  05 22  -21.0208 26063.2 -03386.3 -07.4028 26282.3
 04 01 2013  05 23  -21.0209 26063.2 -03386.3 -07.4028 26282.3
 04 01 2013  05 24  -21.0210 26063.2 -03386.3 -07.4027 26282.3
 04 01 2013  05 25  -21.0212 26063.2 -03386.3 -07.4027 26282.3
 04 01 2013  05 26  -21.0213 26063.2 -03386.3 -07.4027 26282.3
 04 01 2013  05 27  -21.0214 26063.3 -03386.3 -07.4028 26282.3
 04 01 2013  05 28  -21.0214 26063.3 -03386.3 -07.4028 26282.3
 04 01 2013  05 29  -21.0215 26063.3 -03386.3 -07.4028 26282.3
 04 01 2013  05 30  -21.0216 26063.3 -03386.3 -07.4028 26282.3
 04 01 2013  05 31  -21.0216 26063.3 -03386.3 -07.4028 26282.3
 04 01 2013  05 32  -21.0217 26063.3 -03386.3 -07.4027 26282.4
 04 01 2013  05 33  -21.0218 26063.4 -03386.3 -07.4028 26282.4
 04 01 2013  05 34  -21.0217 26063.3 -03386.3 -07.4028 26282.4
 04 01 2013  05 35  -21.0218 26063.3 -03386.3 -07.4027 26282.3
 04 01 2013  05 36  -21.0217 26063.2 -03386.2 -07.4026 26282.3
 04 01 2013  05 37  -21.0217 26063.1 -03386.2 -07.4025 26282.1
 04 01 2013  05 38  -21.0218 26063.1 -03386.2 -07.4025 26282.2
 04 01 2013  05 39  -21.0219 26063.3 -03386.3 -07.4026 26282.3
 04 01 2013  05 40  -21.0219 26063.3 -03386.3 -07.4027 26282.4
 04 01 2013  05 41  -21.0220 26063.3 -03386.3 -07.4027 26282.4
 04 01 2013  05 42  -21.0220 26063.4 -03386.3 -07.4028 26282.4
 04 01 2013  05 43  -21.0221 26063.4 -03386.4 -07.4028 26282.5
 04 01 2013  05 44  -21.0222 26063.5 -03386.4 -07.4029 26282.6
 04 01 2013  05 45  -21.0223 26063.6 -03386.4 -07.4029 26282.7
 04 01 2013  05 46  -21.0222 26063.6 -03386.4 -07.4028 26282.6
 04 01 2013  05 47  -21.0223 26063.6 -03386.4 -07.4028 26282.7
 04 01 2013  05 48  -21.0223 26063.6 -03386.4 -07.4028 26282.7
 04 01 2013  05 49  -21.0224 26063.6 -03386.4 -07.4028 26282.7
 04 01 2013  05 50  -21.0224 26063.6 -03386.4 -07.4028 26282.7
 04 01 2013  05 51  -21.0224 26063.6 -03386.3 -07.4027 26282.6
 04 01 2013  05 52  -21.0225 26063.6 -03386.3 -07.4027 26282.7
 04 01 2013  05 53  -21.0225 26063.6 -03386.3 -07.4026 26282.7
 04 01 2013  05 54  -21.0225 26063.6 -03386.3 -07.4026 26282.7
 04 01 2013  05 55  -21.0226 26063.6 -03386.3 -07.4026 26282.7
 04 01 2013  05 56  -21.0226 26063.6 -03386.3 -07.4026 26282.7
 04 01 2013  05 57  -21.0226 26063.6 -03386.3 -07.4026 26282.7
 04 01 2013  05 58  -21.0226 26063.6 -03386.3 -07.4026 26282.7
 04 01 2013  05 59  -21.0225 26063.6 -03386.2 -07.4025 26282.6
 04 01 2013  06 00  -21.0225 26063.5 -03386.2 -07.4024 26282.6
 04 01 2013  06 01  -21.0224 26063.4 -03386.1 -07.4024 26282.5
 04 01 2013  06 02  -21.0224 26063.5 -03386.1 -07.4023 26282.5
 04 01 2013  06 03  -21.0223 26063.4 -03386.1 -07.4023 26282.5
 04 01 2013  06 04  -21.0223 26063.4 -03386.1 -07.4023 26282.4
 04 01 2013  06 05  -21.0224 26063.4 -03386.2 -07.4024 26282.4
 04 01 2013  06 06  -21.0225 26063.5 -03386.2 -07.4025 26282.6
 04 01 2013  06 07  -21.0224 26063.6 -03386.3 -07.4025 26282.7
 04 01 2013  06 08  -21.0224 26063.7 -03386.3 -07.4026 26282.8
 04 01 2013  06 09  -21.0224 26063.7 -03386.3 -07.4026 26282.7
 04 01 2013  06 10  -21.0223 26063.6 -03386.2 -07.4025 26282.6
 04 01 2013  06 11  -21.0223 26063.5 -03386.2 -07.4024 26282.5
 04 01 2013  06 12  -21.0224 26063.5 -03386.2 -07.4024 26282.5
 04 01 2013  06 13  -21.0224 26063.4 -03386.1 -07.4023 26282.5
 04 01 2013  06 14  -21.0225 26063.4 -03386.1 -07.4022 26282.4
 04 01 2013  06 15  -21.0226 26063.4 -03386.1 -07.4023 26282.5
 04 01 2013  06 16  -21.0227 26063.4 -03386.1 -07.4023 26282.4
 04 01 2013  06 17  -21.0227 26063.4 -03386.1 -07.4023 26282.5
 04 01 2013  06 18  -21.0227 26063.5 -03386.2 -07.4024 26282.6
 04 01 2013  06 19  -21.0227 26063.6 -03386.2 -07.4024 26282.6
 04 01 2013  06 20  -21.0229 26063.7 -03386.2 -07.4025 26282.7
 04 01 2013  06 21  -21.0229 26063.8 -03386.3 -07.4025 26282.8
 04 01 2013  06 22  -21.0230 26063.9 -03386.3 -07.4026 26282.9
 04 01 2013  06 23  -21.0231 26063.9 -03386.3 -07.4026 26283.0
 04 01 2013  06 24  -21.0230 26063.9 -03386.3 -07.4026 26283.0
 04 01 2013  06 25  -21.0229 26064.0 -03386.3 -07.4026 26283.0
 04 01 2013  06 26  -21.0229 26064.0 -03386.3 -07.4025 26283.1
 04 01 2013  06 27  -21.0229 26064.1 -03386.3 -07.4026 26283.1
 04 01 2013  06 28  -21.0228 26064.1 -03386.4 -07.4027 26283.2
 04 01 2013  06 29  -21.0226 26064.2 -03386.4 -07.4027 26283.2
 04 01 2013  06 30  -21.0226 26064.1 -03386.3 -07.4026 26283.1
 04 01 2013  06 31  -21.0224 26064.2 -03386.4 -07.4026 26283.3
 04 01 2013  06 32  -21.0224 26064.2 -03386.3 -07.4026 26283.2
 04 01 2013  06 33  -21.0224 26064.1 -03386.3 -07.4025 26283.2
 04 01 2013  06 34  -21.0225 26064.2 -03386.4 -07.4026 26283.3
 04 01 2013  06 35  -21.0225 26064.2 -03386.4 -07.4027 26283.3
 04 01 2013  06 36  -21.0225 26064.2 -03386.4 -07.4026 26283.2
 04 01 2013  06 37  -21.0224 26064.1 -03386.2 -07.4024 26283.1
 04 01 2013  06 38  -21.0224 26064.0 -03386.2 -07.4024 26283.1
 04 01 2013  06 39  -21.0224 26063.9 -03386.2 -07.4023 26283.0
 04 01 2013  06 40  -21.0224 26063.8 -03386.2 -07.4023 26282.9
 04 01 2013  06 41  -21.0224 26063.7 -03386.1 -07.4023 26282.8
 04 01 2013  06 42  -21.0226 26063.7 -03386.1 -07.4022 26282.7
 04 01 2013  06 43  -21.0226 26063.7 -03386.1 -07.4023 26282.8
 04 01 2013  06 44  -21.0227 26063.7 -03386.1 -07.4023 26282.7
 04 01 2013  06 45  -21.0229 26063.7 -03386.2 -07.4023 26282.8
 04 01 2013  06 46  -21.0230 26063.7 -03386.2 -07.4024 26282.8
 04 01 2013  06 47  -21.0230 26063.7 -03386.1 -07.4023 26282.7
 04 01 2013  06 48  -21.0231 26063.7 -03386.2 -07.4023 26282.8
 04 01 2013  06 49  -21.0230 26063.7 -03386.2 -07.4023 26282.8
 04 01 2013  06 50  -21.0231 26063.7 -03386.1 -07.4023 26282.7
 04 01 2013  06 51  -21.0231 26063.7 -03386.1 -07.4023 26282.8
 04 01 2013  06 52  -21.0230 26063.8 -03386.1 -07.4022 26282.8
 04 01 2013  06 53  -21.0229 26063.8 -03386.2 -07.4023 26282.9
 04 01 2013  06 54  -21.0230 26063.9 -03386.2 -07.4023 26282.9
 04 01 2013  06 55  -21.0230 26063.9 -03386.2 -07.4024 26283.0
 04 01 2013  06 56  -21.0229 26064.0 -03386.2 -07.4024 26283.0
 04 01 2013  06 57  -21.0230 26064.1 -03386.3 -07.4025 26283.1
 04 01 2013  06 58  -21.0230 26064.1 -03386.3 -07.4025 26283.2
 04 01 2013  06 59  -21.0230 26064.2 -03386.3 -07.4026 26283.2
 04 01 2013  07 00  -21.0231 26064.3 -03386.4 -07.4026 26283.4
 04 01 2013  07 01  -21.0229 26064.4 -03386.4 -07.4027 26283.4
 04 01 2013  07 02  -21.0229 26064.4 -03386.4 -07.4027 26283.5
 04 01 2013  07 03  -21.0229 26064.5 -03386.4 -07.4027 26283.6
 04 01 2013  07 04  -21.0228 26064.5 -03386.4 -07.4027 26283.5
 04 01 2013  07 05  -21.0228 26064.5 -03386.4 -07.4027 26283.5
 04 01 2013  07 06  -21.0226 26064.4 -03386.4 -07.4026 26283.5
 04 01 2013  07 07  -21.0225 26064.3 -03386.3 -07.4025 26283.4
 04 01 2013  07 08  -21.0225 26064.3 -03386.3 -07.4025 26283.4
 04 01 2013  07 09  -21.0226 26064.4 -03386.4 -07.4025 26283.5
 04 01 2013  07 10  -21.0224 26064.3 -03386.3 -07.4025 26283.4
 04 01 2013  07 11  -21.0224 26064.1 -03386.2 -07.4023 26283.2
 04 01 2013  07 12  -21.0224 26064.0 -03386.1 -07.4022 26283.0
 04 01 2013  07 13  -21.0224 26063.8 -03386.0 -07.4020 26282.8
 04 01 2013  07 14  -21.0223 26063.7 -03386.0 -07.4020 26282.7
 04 01 2013  07 15  -21.0223 26063.7 -03386.0 -07.4020 26282.7
 04 01 2013  07 16  -21.0223 26063.7 -03386.0 -07.4020 26282.8
 04 01 2013  07 17  -21.0222 26063.8 -03386.1 -07.4021 26282.8
 04 01 2013  07 18  -21.0220 26064.0 -03386.1 -07.4022 26283.0
 04 01 2013  07 19  -21.0219 26064.1 -03386.2 -07.4024 26283.2
 04 01 2013  07 20  -21.0218 26064.3 -03386.4 -07.4026 26283.3
 04 01 2013  07 21  -21.0216 26064.3 -03386.4 -07.4027 26283.4
 04 01 2013  07 22  -21.0213 26064.3 -03386.4 -07.4026 26283.4
 04 01 2013  07 23  -21.0212 26064.4 -03386.4 -07.4027 26283.4
 04 01 2013  07 24  -21.0209 26064.4 -03386.5 -07.4028 26283.5
 04 01 2013  07 25  -21.0207 26064.4 -03386.5 -07.4028 26283.4
 04 01 2013  07 26  -21.0207 26064.3 -03386.4 -07.4027 26283.4
 04 01 2013  07 27  -21.0205 26064.3 -03386.5 -07.4028 26283.4
 04 01 2013  07 28  -21.0204 26064.3 -03386.5 -07.4028 26283.4
 04 01 2013  07 29  -21.0204 26064.4 -03386.5 -07.4029 26283.5
 04 01 2013  07 30  -21.0205 26064.5 -03386.6 -07.4030 26283.6
 04 01 2013  07 31  -21.0207 26064.5 -03386.6 -07.4030 26283.6
 04 01 2013  07 32  -21.0210 26064.5 -03386.6 -07.4031 26283.6
 04 01 2013  07 33  -21.0212 26064.4 -03386.6 -07.4030 26283.4
 04 01 2013  07 34  -21.0214 26064.3 -03386.5 -07.4029 26283.4
 04 01 2013  07 35  -21.0217 26064.4 -03386.6 -07.4030 26283.5
 04 01 2013  07 36  -21.0218 26064.4 -03386.6 -07.4030 26283.5
 04 01 2013  07 37  -21.0219 26064.3 -03386.5 -07.4029 26283.4
 04 01 2013  07 38  -21.0220 26064.2 -03386.4 -07.4028 26283.3
 04 01 2013  07 39  -21.0220 26064.0 -03386.4 -07.4027 26283.1
 04 01 2013  07 40  -21.0220 26064.0 -03386.4 -07.4027 26283.1
 04 01 2013  07 41  -21.0219 26064.1 -03386.4 -07.4027 26283.1
 04 01 2013  07 42  -21.0219 26064.1 -03386.4 -07.4028 26283.2
 04 01 2013  07 43  -21.0219 26064.2 -03386.5 -07.4029 26283.3
 04 01 2013  07 44  -21.0218 26064.2 -03386.5 -07.4029 26283.3
 04 01 2013  07 45  -21.0215 26064.2 -03386.5 -07.4029 26283.3
 04 01 2013  07 46  -21.0214 26064.2 -03386.5 -07.4029 26283.2
 04 01 2013  07 47  -21.0212 26064.0 -03386.5 -07.4029 26283.1
 04 01 2013  07 48  -21.0210 26063.9 -03386.4 -07.4028 26283.0
 04 01 2013  07 49  -21.0208 26063.9 -03386.4 -07.4029 26283.0
 04 01 2013  07 50  -21.0205 26063.9 -03386.5 -07.4029 26283.0
 04 01 2013  07 51  -21.0203 26064.0 -03386.5 -07.4030 26283.1
 04 01 2013  07 52  -21.0200 26064.0 -03386.6 -07.4031 26283.1
 04 01 2013  07 53  -21.0199 26064.0 -03386.6 -07.4032 26283.1
 04 01 2013  07 54  -21.0199 26064.1 -03386.7 -07.4034 26283.2
 04 01 2013  07 55  -21.0199 26064.2 -03386.7 -07.4034 26283.3
 04 01 2013  07 56  -21.0199 26064.2 -03386.8 -07.4035 26283.3
 04 01 2013  07 57  -21.0199 26064.2 -03386.8 -07.4035 26283.3
 04 01 2013  07 58  -21.0199 26064.2 -03386.8 -07.4035 26283.3
 04 01 2013  07 59  -21.0201 26064.2 -03386.8 -07.4035 26283.3
 04 01 2013  08 00  -21.0202 26064.2 -03386.8 -07.4036 26283.4
 04 01 2013  08 01  -21.0201 26064.0 -03386.7 -07.4034 26283.1
 04 01 2013  08 02  -21.0204 26063.9 -03386.6 -07.4033 26283.0
 04 01 2013  08 03  -21.0207 26064.0 -03386.7 -07.4033 26283.1
 04 01 2013  08 04  -21.0209 26064.0 -03386.7 -07.4034 26283.1
 04 01 2013  08 05  -21.0210 26063.9 -03386.6 -07.4032 26283.0
 04 01 2013  08 06  -21.0209 26063.8 -03386.6 -07.4031 26282.9
 04 01 2013  08 07  -21.0210 26063.9 -03386.6 -07.4031 26283.0
 04 01 2013  08 08  -21.0211 26064.1 -03386.6 -07.4032 26283.2
 04 01 2013  08 09  -21.0211 26064.2 -03386.7 -07.4033 26283.3
 04 01 2013  08 10  -21.0211 26064.4 -03386.8 -07.4034 26283.5
 04 01 2013  08 11  -21.0211 26064.5 -03386.8 -07.4035 26283.7
 04 01 2013  08 12  -21.0211 26064.7 -03386.8 -07.4035 26283.8
 04 01 2013  08 13  -21.0210 26064.6 -03386.8 -07.4034 26283.7
 04 01 2013  08 14  -21.0209 26064.4 -03386.7 -07.4032 26283.5
 04 01 2013  08 15  -21.0209 26064.2 -03386.5 -07.4030 26283.3
 04 01 2013  08 16  -21.0210 26064.0 -03386.4 -07.4028 26283.1
 04 01 2013  08 17  -21.0213 26063.9 -03386.4 -07.4027 26283.0
 04 01 2013  08 18  -21.0214 26063.8 -03386.3 -07.4026 26282.9
 04 01 2013  08 19  -21.0217 26063.9 -03386.3 -07.4026 26283.0
 04 01 2013  08 20  -21.0216 26064.1 -03386.4 -07.4027 26283.2
 04 01 2013  08 21  -21.0214 26064.1 -03386.4 -07.4027 26283.2
 04 01 2013  08 22  -21.0212 26064.0 -03386.3 -07.4025 26283.0
 04 01 2013  08 23  -21.0211 26063.9 -03386.2 -07.4024 26282.9
 04 01 2013  08 24  -21.0209 26063.9 -03386.2 -07.4023 26282.9
 04 01 2013  08 25  -21.0207 26063.8 -03386.1 -07.4022 26282.9
 04 01 2013  08 26  -21.0204 26063.8 -03386.1 -07.4021 26282.8
 04 01 2013  08 27  -21.0200 26063.6 -03386.0 -07.4019 26282.6
 04 01 2013  08 28  -21.0198 26063.5 -03385.9 -07.4017 26282.5
 04 01 2013  08 29  -21.0200 26063.7 -03386.0 -07.4019 26282.7
 04 01 2013  08 30  -21.0198 26063.8 -03386.0 -07.4020 26282.8
 04 01 2013  08 31  -21.0195 26063.6 -03385.9 -07.4017 26282.6
 04 01 2013  08 32  -21.0193 26063.5 -03385.8 -07.4017 26282.5
 04 01 2013  08 33  -21.0195 26063.6 -03385.8 -07.4017 26282.6
 04 01 2013  08 34  -21.0195 26063.5 -03385.8 -07.4016 26282.5
 04 01 2013  08 35  -21.0193 26063.2 -03385.6 -07.4012 26282.2
 04 01 2013  08 36  -21.0194 26063.1 -03385.5 -07.4010 26282.0
 04 01 2013  08 37  -21.0194 26062.8 -03385.3 -07.4008 26281.8
 04 01 2013  08 38  -21.0193 26062.6 -03385.1 -07.4004 26281.5
 04 01 2013  08 39  -21.0193 26062.4 -03385.1 -07.4003 26281.3
 04 01 2013  08 40  -21.0192 26062.2 -03385.0 -07.4002 26281.1
 04 01 2013  08 41  -21.0191 26062.0 -03384.9 -07.4000 26280.9
 04 01 2013  08 42  -21.0188 26061.9 -03384.8 -07.3999 26280.8
 04 01 2013  08 43  -21.0184 26061.8 -03384.8 -07.3999 26280.7
 04 01 2013  08 44  -21.0182 26061.7 -03384.8 -07.3999 26280.5
 04 01 2013  08 45  -21.0179 26061.7 -03384.9 -07.4001 26280.6
 04 01 2013  08 46  -21.0175 26061.8 -03385.0 -07.4003 26280.7
 04 01 2013  08 47  -21.0172 26061.9 -03385.1 -07.4006 26280.9
 04 01 2013  08 48  -21.0167 26062.1 -03385.3 -07.4009 26281.0
 04 01 2013  08 49  -21.0162 26062.2 -03385.4 -07.4012 26281.1
 04 01 2013  08 50  -21.0158 26062.0 -03385.5 -07.4013 26281.0
 04 01 2013  08 51  -21.0159 26061.9 -03385.5 -07.4014 26280.9
 04 01 2013  08 52  -21.0161 26061.7 -03385.5 -07.4015 26280.6
 04 01 2013  08 53  -21.0160 26061.5 -03385.5 -07.4016 26280.4
 04 01 2013  08 54  -21.0157 26061.4 -03385.6 -07.4017 26280.3
 04 01 2013  08 55  -21.0161 26061.2 -03385.6 -07.4018 26280.2
 04 01 2013  08 56  -21.0165 26061.3 -03385.7 -07.4020 26280.3
 04 01 2013  08 57  -21.0162 26061.6 -03386.0 -07.4025 26280.6
 04 01 2013  08 58  -21.0161 26061.4 -03386.1 -07.4028 26280.5
 04 01 2013  08 59  -21.0168 26061.2 -03386.1 -07.4028 26280.3
 04 01 2013  09 00  -21.0173 26060.9 -03386.0 -07.4028 26280.0
 04 01 2013  09 01  -21.0180 26060.8 -03386.0 -07.4028 26279.9
 04 01 2013  09 02  -21.0180 26061.0 -03386.1 -07.4030 26280.1
 04 01 2013  09 03  -21.0176 26060.8 -03386.1 -07.4029 26279.9
 04 01 2013  09 04  -21.0177 26060.5 -03386.0 -07.4029 26279.6
 04 01 2013  09 05  -21.0179 26060.6 -03386.1 -07.4030 26279.7
 04 01 2013  09 06  -21.0182 26060.5 -03386.1 -07.4030 26279.6
 04 01 2013  09 07  -21.0185 26060.3 -03386.0 -07.4029 26279.4
 04 01 2013  09 08  -21.0188 26060.3 -03385.9 -07.4028 26279.3
 04 01 2013  09 09  -21.0191 26060.2 -03385.9 -07.4027 26279.2
 04 01 2013  09 10  -21.0190 26060.1 -03385.9 -07.4027 26279.1
 04 01 2013  09 11  -21.0188 26059.9 -03385.8 -07.4026 26278.9
 04 01 2013  09 12  -21.0186 26059.7 -03385.8 -07.4026 26278.8
 04 01 2013  09 13  -21.0188 26059.6 -03385.8 -07.4026 26278.6
 04 01 2013  09 14  -21.0192 26059.5 -03385.8 -07.4027 26278.5
 04 01 2013  09 15  -21.0194 26059.2 -03385.7 -07.4025 26278.2
 04 01 2013  09 16  -21.0195 26058.9 -03385.6 -07.4024 26277.9
 04 01 2013  09 17  -21.0194 26058.9 -03385.7 -07.4026 26277.9
 04 01 2013  09 18  -21.0192 26058.7 -03385.7 -07.4028 26277.7
 04 01 2013  09 19  -21.0193 26058.4 -03385.7 -07.4028 26277.4
 04 01 2013  09 20  -21.0194 26058.2 -03385.7 -07.4028 26277.2
 04 01 2013  09 21  -21.0199 26058.0 -03385.7 -07.4029 26277.0
 04 01 2013  09 22  -21.0202 26057.8 -03385.7 -07.4029 26276.8
 04 01 2013  09 23  -21.0202 26057.6 -03385.7 -07.4029 26276.6
 04 01 2013  09 24  -21.0206 26057.4 -03385.7 -07.4030 26276.4
 04 01 2013  09 25  -21.0210 26057.2 -03385.7 -07.4031 26276.3
 04 01 2013  09 26  -21.0214 26057.1 -03385.7 -07.4031 26276.2
 04 01 2013  09 27  -21.0218 26057.1 -03385.7 -07.4031 26276.1
 04 01 2013  09 28  -21.0221 26057.0 -03385.6 -07.4030 26276.0
 04 01 2013  09 29  -21.0224 26056.9 -03385.6 -07.4031 26276.0
 04 01 2013  09 30  -21.0229 26057.0 -03385.7 -07.4031 26276.0
 04 01 2013  09 31  -21.0235 26056.9 -03385.7 -07.4031 26276.0
 04 01 2013  09 32  -21.0240 26057.1 -03385.6 -07.4030 26276.1
 04 01 2013  09 33  -21.0236 26057.1 -03385.6 -07.4031 26276.1
 04 01 2013  09 34  -21.0245 26057.1 -03385.7 -07.4031 26276.2
 04 01 2013  09 35  -21.0249 26057.2 -03385.6 -07.4030 26276.2
 04 01 2013  09 36  -21.0251 26057.2 -03385.5 -07.4028 26276.2
 04 01 2013  09 37  -21.0258 26057.3 -03385.5 -07.4026 26276.3
 04 01 2013  09 38  -21.0261 26057.2 -03385.4 -07.4024 26276.2
 04 01 2013  09 39  -21.0265 26057.1 -03385.2 -07.4021 26276.0
 04 01 2013  09 40  -21.0269 26057.0 -03385.1 -07.4019 26276.0
 04 01 2013  09 41  -21.0271 26056.9 -03385.0 -07.4016 26275.9
 04 01 2013  09 42  -21.0275 26056.8 -03384.9 -07.4014 26275.8
 04 01 2013  09 43  -21.0279 26056.8 -03384.8 -07.4013 26275.8
 04 01 2013  09 44  -21.0279 26056.8 -03384.8 -07.4012 26275.7
 04 01 2013  09 45  -21.0277 26056.7 -03384.7 -07.4010 26275.6
 04 01 2013  09 46  -21.0277 26056.6 -03384.6 -07.4010 26275.5
 04 01 2013  09 47  -21.0280 26056.9 -03384.7 -07.4011 26275.8
 04 01 2013  09 48  -21.0283 26057.2 -03384.8 -07.4013 26276.1
 04 01 2013  09 49  -21.0284 26057.2 -03384.8 -07.4012 26276.1
 04 01 2013  09 50  -21.0281 26056.9 -03384.6 -07.4009 26275.8
 04 01 2013  09 51  -21.0279 26056.6 -03384.5 -07.4006 26275.5
 04 01 2013  09 52  -21.0284 26056.6 -03384.4 -07.4004 26275.5
 04 01 2013  09 53  -21.0295 26057.2 -03384.5 -07.4005 26276.0
 04 01 2013  09 54  -21.0294 26057.1 -03384.3 -07.4000 26275.9
 04 01 2013  09 55  -21.0295 26057.1 -03384.1 -07.3997 26275.9
 04 01 2013  09 56  -21.0302 26057.3 -03384.0 -07.3994 26276.1
 04 01 2013  09 57  -21.0305 26057.1 -03383.8 -07.3990 26275.9
 04 01 2013  09 58  -21.0303 26056.9 -03383.5 -07.3986 26275.7
 04 01 2013  09 59  -21.0300 26056.7 -03383.4 -07.3983 26275.4
 04 01 2013  10 00  -21.0296 26056.6 -03383.3 -07.3982 26275.3
 04 01 2013  10 01  -21.0295 26056.5 -03383.3 -07.3981 26275.3
 04 01 2013  10 02  -21.0298 26056.6 -03383.3 -07.3982 26275.4
 04 01 2013  10 03  -21.0298 26056.6 -03383.3 -07.3982 26275.4
 04 01 2013  10 04  -21.0296 26056.5 -03383.2 -07.3980 26275.2
 04 01 2013  10 05  -21.0297 26056.6 -03383.3 -07.3982 26275.3
 04 01 2013  10 06  -21.0299 26056.9 -03383.4 -07.3983 26275.7
 04 01 2013  10 07  -21.0302 26057.1 -03383.5 -07.3984 26275.9
 04 01 2013  10 08  -21.0304 26057.2 -03383.5 -07.3983 26276.0
 04 01 2013  10 09  -21.0300 26057.3 -03383.4 -07.3982 26276.0
 04 01 2013  10 10  -21.0298 26057.3 -03383.4 -07.3981 26276.1
 04 01 2013  10 11  -21.0297 26056.8 -03383.1 -07.3977 26275.5
 04 01 2013  10 12  -21.0295 26056.6 -03383.1 -07.3976 26275.3
 04 01 2013  10 13  -21.0293 26056.8 -03383.2 -07.3979 26275.5
 04 01 2013  10 14  -21.0295 26057.2 -03383.4 -07.3981 26275.9
 04 01 2013  10 15  -21.0299 26057.7 -03383.5 -07.3983 26276.4
 04 01 2013  10 16  -21.0297 26057.6 -03383.5 -07.3982 26276.3
 04 01 2013  10 17  -21.0290 26056.8 -03383.2 -07.3977 26275.5
 04 01 2013  10 18  -21.0292 26057.0 -03383.3 -07.3979 26275.8
 04 01 2013  10 19  -21.0293 26057.6 -03383.5 -07.3983 26276.4
 04 01 2013  10 20  -21.0296 26058.2 -03383.8 -07.3987 26277.0
 04 01 2013  10 21  -21.0292 26057.9 -03383.6 -07.3984 26276.7
 04 01 2013  10 22  -21.0286 26057.9 -03383.5 -07.3983 26276.7
 04 01 2013  10 23  -21.0283 26057.0 -03383.2 -07.3978 26275.7
 04 01 2013  10 24  -21.0279 26056.7 -03383.1 -07.3977 26275.4
 04 01 2013  10 25  -21.0277 26056.7 -03383.2 -07.3979 26275.5
 04 01 2013  10 26  -21.0276 26056.7 -03383.3 -07.3980 26275.5
 04 01 2013  10 27  -21.0278 26057.2 -03383.5 -07.3984 26276.0
 04 01 2013  10 28  -21.0278 26056.5 -03383.3 -07.3981 26275.3
 04 01 2013  10 29  -21.0278 26056.5 -03383.4 -07.3984 26275.2
 04 01 2013  10 30  -21.0273 26057.3 -03383.8 -07.3990 26276.1
 04 01 2013  10 31  -21.0279 26058.0 -03384.0 -07.3993 26276.8
 04 01 2013  10 32  -21.0282 26058.4 -03384.0 -07.3991 26277.2
 04 01 2013  10 33  -21.0282 26057.2 -03383.4 -07.3981 26275.9
 04 01 2013  10 34  -21.0278 26056.4 -03383.0 -07.3975 26275.1
 04 01 2013  10 35  -21.0273 26056.3 -03383.1 -07.3978 26275.1
 04 01 2013  10 36  -21.0269 26056.3 -03383.2 -07.3981 26275.0
 04 01 2013  10 37  -21.0275 26056.5 -03383.5 -07.3986 26275.3
 04 01 2013  10 38  -21.0277 26056.2 -03383.5 -07.3986 26274.9
 04 01 2013  10 39  -21.0270 26056.1 -03383.6 -07.3988 26274.8
 04 01 2013  10 40  -21.0262 26056.1 -03383.7 -07.3992 26274.9
 04 01 2013  10 41  -21.0263 26056.1 -03383.9 -07.3995 26274.9
 04 01 2013  10 42  -21.0270 26056.6 -03384.2 -07.4002 26275.4
 04 01 2013  10 43  -21.0274 26057.1 -03384.5 -07.4005 26276.0
 04 01 2013  10 44  -21.0270 26057.5 -03384.6 -07.4006 26276.4
 04 01 2013  10 45  -21.0270 26057.9 -03384.7 -07.4007 26276.8
 04 01 2013  10 46  -21.0274 26057.9 -03384.6 -07.4007 26276.8
 04 01 2013  10 47  -21.0275 26057.7 -03384.6 -07.4005 26276.6
 04 01 2013  10 48  -21.0271 26057.6 -03384.5 -07.4005 26276.5
 04 01 2013  10 49  -21.0269 26057.8 -03384.6 -07.4006 26276.7
 04 01 2013  10 50  -21.0271 26058.1 -03384.7 -07.4008 26277.0
 04 01 2013  10 51  -21.0276 26057.9 -03384.6 -07.4005 26276.8
 04 01 2013  10 52  -21.0277 26057.5 -03384.4 -07.4002 26276.3
 04 01 2013  10 53  -21.0275 26057.1 -03384.3 -07.4001 26275.9
 04 01 2013  10 54  -21.0273 26057.0 -03384.4 -07.4005 26275.9
 04 01 2013  10 55  -21.0278 26057.0 -03384.6 -07.4009 26275.9
 04 01 2013  10 56  -21.0283 26057.2 -03384.8 -07.4012 26276.2
 04 01 2013  10 57  -21.0285 26057.6 -03385.0 -07.4016 26276.6
 04 01 2013  10 58  -21.0283 26058.0 -03385.1 -07.4017 26276.9
 04 01 2013  10 59  -21.0286 26058.2 -03385.2 -07.4018 26277.2
 04 01 2013  11 00  -21.0294 26058.3 -03385.3 -07.4019 26277.3
 04 01 2013  11 01  -21.0295 26058.7 -03385.5 -07.4022 26277.7
 04 01 2013  11 02  -21.0294 26059.1 -03385.6 -07.4023 26278.1
 04 01 2013  11 03  -21.0296 26059.4 -03385.6 -07.4024 26278.4
 04 01 2013  11 04  -21.0294 26059.6 -03385.7 -07.4024 26278.7
 04 01 2013  11 05  -21.0296 26059.6 -03385.6 -07.4023 26278.6
 04 01 2013  11 06  -21.0300 26059.9 -03385.6 -07.4022 26278.9
 04 01 2013  11 07  -21.0297 26060.2 -03385.7 -07.4022 26279.2
 04 01 2013  11 08  -21.0296 26060.2 -03385.6 -07.4020 26279.2
 04 01 2013  11 09  -21.0298 26060.2 -03385.5 -07.4018 26279.2
 04 01 2013  11 10  -21.0303 26060.1 -03385.4 -07.4016 26279.1
 04 01 2013  11 11  -21.0304 26060.1 -03385.3 -07.4015 26279.1
 04 01 2013  11 12  -21.0304 26060.2 -03385.3 -07.4014 26279.1
 04 01 2013  11 13  -21.0307 26060.3 -03385.3 -07.4015 26279.3
 04 01 2013  11 14  -21.0310 26060.4 -03385.3 -07.4014 26279.4
 04 01 2013  11 15  -21.0315 26060.5 -03385.3 -07.4013 26279.5
 04 01 2013  11 16  -21.0315 26060.6 -03385.2 -07.4011 26279.5
 04 01 2013  11 17  -21.0317 26060.7 -03385.2 -07.4011 26279.6
 04 01 2013  11 18  -21.0318 26060.8 -03385.2 -07.4011 26279.8
 04 01 2013  11 19  -21.0319 26060.8 -03385.2 -07.4011 26279.8
 04 01 2013  11 20  -21.0324 26061.2 -03385.4 -07.4013 26280.2
 04 01 2013  11 21  -21.0326 26061.8 -03385.6 -07.4015 26280.8
 04 01 2013  11 22  -21.0326 26062.1 -03385.5 -07.4013 26281.1
 04 01 2013  11 23  -21.0327 26062.3 -03385.4 -07.4011 26281.3
 04 01 2013  11 24  -21.0328 26062.4 -03385.3 -07.4008 26281.4
 04 01 2013  11 25  -21.0328 26062.4 -03385.2 -07.4005 26281.4
 04 01 2013  11 26  -21.0327 26062.5 -03385.1 -07.4003 26281.4
 04 01 2013  11 27  -21.0328 26062.6 -03385.0 -07.4001 26281.5
 04 01 2013  11 28  -21.0330 26062.7 -03385.0 -07.4000 26281.6
 04 01 2013  11 29  -21.0328 26062.9 -03385.0 -07.4000 26281.8
 04 01 2013  11 30  -21.0329 26063.1 -03385.0 -07.3999 26282.0
 04 01 2013  11 31  -21.0329 26063.4 -03385.0 -07.3999 26282.3
 04 01 2013  11 32  -21.0327 26063.6 -03385.0 -07.3997 26282.5
 04 01 2013  11 33  -21.0323 26063.7 -03384.9 -07.3995 26282.5
 04 01 2013  11 34  -21.0318 26063.8 -03384.8 -07.3994 26282.7
 04 01 2013  11 35  -21.0317 26064.0 -03384.9 -07.3995 26282.9
 04 01 2013  11 36  -21.0315 26064.2 -03384.9 -07.3995 26283.1
 04 01 2013  11 37  -21.0312 26064.5 -03385.0 -07.3995 26283.4
 04 01 2013  11 38  -21.0307 26064.8 -03385.0 -07.3995 26283.7
 04 01 2013  11 39  -21.0307 26065.4 -03385.1 -07.3997 26284.3
 04 01 2013  11 40  -21.0308 26065.8 -03385.1 -07.3995 26284.7
 04 01 2013  11 41  -21.0307 26066.0 -03385.0 -07.3992 26284.8
 04 01 2013  11 42  -21.0306 26066.2 -03384.9 -07.3989 26285.0
 04 01 2013  11 43  -21.0307 26066.3 -03384.8 -07.3985 26285.1
 04 01 2013  11 44  -21.0306 26066.1 -03384.5 -07.3981 26284.9
 04 01 2013  11 45  -21.0309 26066.1 -03384.4 -07.3979 26284.9
 04 01 2013  11 46  -21.0311 26066.2 -03384.3 -07.3976 26285.0
 04 01 2013  11 47  -21.0314 26066.3 -03384.2 -07.3973 26285.1
 04 01 2013  11 48  -21.0321 26066.6 -03384.2 -07.3972 26285.4
 04 01 2013  11 49  -21.0320 26066.5 -03384.0 -07.3968 26285.2
 04 01 2013  11 50  -21.0320 26066.4 -03383.8 -07.3964 26285.1
 04 01 2013  11 51  -21.0321 26066.4 -03383.7 -07.3962 26285.1
 04 01 2013  11 52  -21.0322 26066.6 -03383.7 -07.3961 26285.3
 04 01 2013  11 53  -21.0322 26066.9 -03383.6 -07.3959 26285.6
 04 01 2013  11 54  -21.0325 26067.0 -03383.4 -07.3955 26285.6
 04 01 2013  11 55  -21.0327 26067.1 -03383.3 -07.3952 26285.7
 04 01 2013  11 56  -21.0328 26067.3 -03383.2 -07.3949 26285.9
 04 01 2013  11 57  -21.0331 26067.5 -03383.1 -07.3947 26286.1
 04 01 2013  11 58  -21.0334 26067.7 -03383.0 -07.3944 26286.3
 04 01 2013  11 59  -21.0339 26067.9 -03382.9 -07.3941 26286.5
 04 01 2013  12 00  -21.0341 26068.2 -03382.8 -07.3938 26286.8
 04 01 2013  12 01  -21.0342 26068.5 -03382.7 -07.3934 26287.0
 04 01 2013  12 02  -21.0342 26068.7 -03382.5 -07.3930 26287.2
 04 01 2013  12 03  -21.0342 26068.9 -03382.3 -07.3926 26287.4
 04 01 2013  12 04  -21.0344 26069.2 -03382.3 -07.3923 26287.7
 04 01 2013  12 05  -21.0346 26069.5 -03382.1 -07.3920 26288.0
 04 01 2013  12 06  -21.0348 26069.7 -03382.0 -07.3916 26288.1
 04 01 2013  12 07  -21.0350 26070.0 -03381.9 -07.3913 26288.4
 04 01 2013  12 08  -21.0351 26070.4 -03381.8 -07.3911 26288.8
 04 01 2013  12 09  -21.0351 26070.8 -03381.7 -07.3907 26289.2
 04 01 2013  12 10  -21.0348 26070.9 -03381.5 -07.3902 26289.3
 04 01 2013  12 11  -21.0346 26071.0 -03381.3 -07.3898 26289.4
 04 01 2013  12 12  -21.0347 26071.3 -03381.2 -07.3894 26289.6
 04 01 2013  12 13  -21.0348 26071.7 -03381.1 -07.3892 26290.1
 04 01 2013  12 14  -21.0348 26072.1 -03381.0 -07.3888 26290.4
 04 01 2013  12 15  -21.0350 26072.3 -03380.8 -07.3883 26290.6
 04 01 2013  12 16  -21.0350 26072.7 -03380.6 -07.3879 26290.9
 04 01 2013  12 17  -21.0349 26073.0 -03380.5 -07.3875 26291.3
 04 01 2013  12 18  -21.0349 26073.3 -03380.4 -07.3871 26291.6
 04 01 2013  12 19  -21.0349 26073.6 -03380.2 -07.3866 26291.8
 04 01 2013  12 20  -21.0348 26073.8 -03379.9 -07.3860 26292.0
 04 01 2013  12 21  -21.0347 26074.0 -03379.7 -07.3855 26292.1
 04 01 2013  12 22  -21.0348 26074.2 -03379.5 -07.3850 26292.3
 04 01 2013  12 23  -21.0347 26074.5 -03379.3 -07.3844 26292.6
 04 01 2013  12 24  -21.0349 26074.7 -03379.1 -07.3839 26292.7
 04 01 2013  12 25  -21.0348 26074.9 -03378.9 -07.3834 26292.9
 04 01 2013  12 26  -21.0351 26075.2 -03378.7 -07.3830 26293.2
 04 01 2013  12 27  -21.0353 26075.5 -03378.5 -07.3825 26293.5
 04 01 2013  12 28  -21.0353 26075.6 -03378.3 -07.3820 26293.6
 04 01 2013  12 29  -21.0350 26075.7 -03378.0 -07.3814 26293.6
 04 01 2013  12 30  -21.0348 26075.9 -03377.9 -07.3810 26293.7
 04 01 2013  12 31  -21.0347 26076.1 -03377.7 -07.3806 26293.9
 04 01 2013  12 32  -21.0344 26076.3 -03377.6 -07.3802 26294.2
 04 01 2013  12 33  -21.0341 26076.5 -03377.4 -07.3798 26294.3
 04 01 2013  12 34  -21.0339 26077.0 -03377.3 -07.3795 26294.8
 04 01 2013  12 35  -21.0339 26077.5 -03377.3 -07.3792 26295.3
 04 01 2013  12 36  -21.0337 26077.8 -03377.0 -07.3786 26295.6
 04 01 2013  12 37  -21.0335 26078.1 -03376.8 -07.3781 26295.8
 04 01 2013  12 38  -21.0332 26078.3 -03376.6 -07.3776 26296.0
 04 01 2013  12 39  -21.0328 26078.6 -03376.4 -07.3771 26296.3
 04 01 2013  12 40  -21.0324 26078.9 -03376.3 -07.3767 26296.6
 04 01 2013  12 41  -21.0321 26079.2 -03376.1 -07.3762 26296.8
 04 01 2013  12 42  -21.0317 26079.3 -03375.9 -07.3757 26296.9
 04 01 2013  12 43  -21.0314 26079.6 -03375.7 -07.3753 26297.2
 04 01 2013  12 44  -21.0312 26079.8 -03375.6 -07.3749 26297.3
 04 01 2013  12 45  -21.0307 26080.0 -03375.4 -07.3746 26297.5
 04 01 2013  12 46  -21.0304 26080.3 -03375.3 -07.3742 26297.8
 04 01 2013  12 47  -21.0301 26080.6 -03375.2 -07.3739 26298.1
 04 01 2013  12 48  -21.0298 26080.9 -03375.1 -07.3735 26298.4
 04 01 2013  12 49  -21.0295 26081.2 -03374.9 -07.3731 26298.6
 04 01 2013  12 50  -21.0291 26081.5 -03374.8 -07.3729 26299.0
 04 01 2013  12 51  -21.0289 26082.0 -03374.7 -07.3725 26299.4
 04 01 2013  12 52  -21.0286 26082.0 -03374.5 -07.3719 26299.4
 04 01 2013  12 53  -21.0282 26082.0 -03374.2 -07.3713 26299.3
 04 01 2013  12 54  -21.0282 26082.2 -03374.1 -07.3710 26299.5
 04 01 2013  12 55  -21.0281 26082.2 -03373.9 -07.3706 26299.5
 04 01 2013  12 56  -21.0277 26082.1 -03373.7 -07.3702 26299.4
 04 01 2013  12 57  -21.0273 26082.2 -03373.6 -07.3700 26299.5
 04 01 2013  12 58  -21.0269 26082.4 -03373.6 -07.3698 26299.7
 04 01 2013  12 59  -21.0266 26082.6 -03373.5 -07.3696 26299.8
 04 01 2013  13 00  -21.0263 26082.9 -03373.5 -07.3695 26300.2
 04 01 2013  13 01  -21.0260 26083.5 -03373.4 -07.3693 26300.7
 04 01 2013  13 02  -21.0255 26083.9 -03373.4 -07.3690 26301.1
 04 01 2013  13 03  -21.0251 26084.2 -03373.2 -07.3687 26301.4
 04 01 2013  13 04  -21.0247 26084.5 -03373.1 -07.3683 26301.7
 04 01 2013  13 05  -21.0244 26084.9 -03373.0 -07.3680 26302.1
 04 01 2013  13 06  -21.0240 26085.2 -03372.9 -07.3676 26302.4
 04 01 2013  13 07  -21.0234 26085.4 -03372.7 -07.3671 26302.5
 04 01 2013  13 08  -21.0229 26085.6 -03372.5 -07.3667 26302.7
 04 01 2013  13 09  -21.0222 26085.6 -03372.4 -07.3664 26302.7
 04 01 2013  13 10  -21.0217 26086.0 -03372.4 -07.3663 26303.1
 04 01 2013  13 11  -21.0216 26086.9 -03372.6 -07.3665 26304.0
 04 01 2013  13 12  -21.0209 26087.3 -03372.5 -07.3662 26304.4
 04 01 2013  13 13  -21.0205 26087.7 -03372.5 -07.3660 26304.8
 04 01 2013  13 14  -21.0200 26088.3 -03372.5 -07.3659 26305.4
 04 01 2013  13 15  -21.0193 26089.4 -03372.6 -07.3659 26306.4
 04 01 2013  13 16  -21.0189 26090.0 -03372.5 -07.3655 26307.0
 04 01 2013  13 17  -21.0182 26089.9 -03372.1 -07.3647 26307.0
 04 01 2013  13 18  -21.0181 26090.4 -03372.1 -07.3644 26307.4
 04 01 2013  13 19  -21.0173 26090.4 -03371.8 -07.3638 26307.3
 04 01 2013  13 20  -21.0169 26091.1 -03371.9 -07.3638 26308.1
 04 01 2013  13 21  -21.0163 26091.9 -03372.0 -07.3638 26308.9
 04 01 2013  13 22  -21.0155 26092.3 -03371.9 -07.3635 26309.3
 04 01 2013  13 23  -21.0148 26092.4 -03371.7 -07.3631 26309.4
 04 01 2013  13 24  -21.0144 26092.8 -03371.7 -07.3629 26309.7
 04 01 2013  13 25  -21.0144 26093.4 -03371.8 -07.3629 26310.4
 04 01 2013  13 26  -21.0136 26093.7 -03371.6 -07.3626 26310.6
 04 01 2013  13 27  -21.0131 26094.1 -03371.6 -07.3624 26311.0
 04 01 2013  13 28  -21.0130 26094.7 -03371.7 -07.3624 26311.6
 04 01 2013  13 29  -21.0128 26095.0 -03371.6 -07.3622 26311.9
 04 01 2013  13 30  -21.0125 26095.3 -03371.6 -07.3620 26312.2
 04 01 2013  13 31  -21.0123 26096.0 -03371.7 -07.3620 26312.9
 04 01 2013  13 32  -21.0126 26096.5 -03371.8 -07.3620 26313.5
 04 01 2013  13 33  -21.0121 26096.4 -03371.5 -07.3615 26313.3
 04 01 2013  13 34  -21.0121 26096.9 -03371.6 -07.3616 26313.8
 04 01 2013  13 35  -21.0119 26097.3 -03371.6 -07.3615 26314.2
 04 01 2013  13 36  -21.0118 26097.7 -03371.7 -07.3616 26314.6
 04 01 2013  13 37  -21.0114 26098.1 -03371.7 -07.3614 26315.0
 04 01 2013  13 38  -21.0110 26098.1 -03371.6 -07.3612 26315.0
 04 01 2013  13 39  -21.0109 26098.2 -03371.5 -07.3610 26315.0
 04 01 2013  13 40  -21.0111 26098.5 -03371.6 -07.3611 26315.4
 04 01 2013  13 41  -21.0108 26098.9 -03371.7 -07.3611 26315.8
 04 01 2013  13 42  -21.0107 26099.4 -03371.8 -07.3612 26316.3
 04 01 2013  13 43  -21.0106 26100.0 -03371.9 -07.3613 26316.9
 04 01 2013  13 44  -21.0105 26100.4 -03371.9 -07.3612 26317.3
 04 01 2013  13 45  -21.0102 26100.7 -03371.8 -07.3610 26317.6
 04 01 2013  13 46  -21.0100 26101.0 -03371.8 -07.3609 26317.8
 04 01 2013  13 47  -21.0100 26101.4 -03371.9 -07.3610 26318.3
 04 01 2013  13 48  -21.0100 26101.8 -03371.9 -07.3609 26318.7
 04 01 2013  13 49  -21.0097 26102.0 -03371.9 -07.3607 26318.9
 04 01 2013  13 50  -21.0095 26102.2 -03371.9 -07.3606 26319.1
 04 01 2013  13 51  -21.0094 26102.6 -03371.9 -07.3607 26319.5
 04 01 2013  13 52  -21.0095 26103.2 -03372.1 -07.3608 26320.1
 04 01 2013  13 53  -21.0095 26103.6 -03372.1 -07.3608 26320.5
 04 01 2013  13 54  -21.0094 26103.9 -03372.1 -07.3606 26320.8
 04 01 2013  13 55  -21.0093 26104.3 -03372.1 -07.3606 26321.2
 04 01 2013  13 56  -21.0097 26104.9 -03372.2 -07.3606 26321.8
 04 01 2013  13 57  -21.0099 26105.3 -03372.1 -07.3604 26322.2
 04 01 2013  13 58  -21.0100 26105.5 -03372.1 -07.3602 26322.4
 04 01 2013  13 59  -21.0098 26105.8 -03372.0 -07.3599 26322.6
 04 01 2013  14 00  -21.0096 26105.9 -03371.9 -07.3597 26322.7
 04 01 2013  14 01  -21.0098 26106.1 -03371.9 -07.3597 26323.0
 04 01 2013  14 02  -21.0098 26106.2 -03371.9 -07.3595 26323.1
 04 01 2013  14 03  -21.0097 26107.0 -03372.1 -07.3598 26323.9
 04 01 2013  14 04  -21.0099 26107.7 -03372.3 -07.3601 26324.6
 04 01 2013  14 05  -21.0097 26108.1 -03372.3 -07.3599 26325.0
 04 01 2013  14 06  -21.0098 26108.4 -03372.3 -07.3599 26325.3
 04 01 2013  14 07  -21.0095 26108.9 -03372.4 -07.3599 26325.8
 04 01 2013  14 08  -21.0102 26109.9 -03372.8 -07.3605 26326.9
 04 01 2013  14 09  -21.0111 26110.6 -03372.9 -07.3605 26327.5
 04 01 2013  14 10  -21.0105 26110.4 -03372.6 -07.3599 26327.3
 04 01 2013  14 11  -21.0101 26111.2 -03372.8 -07.3601 26328.1
 04 01 2013  14 12  -21.0107 26112.2 -03373.1 -07.3606 26329.2
 04 01 2013  14 13  -21.0107 26112.5 -03373.1 -07.3603 26329.5
 04 01 2013  14 14  -21.0103 26112.3 -03372.8 -07.3598 26329.3
 04 01 2013  14 15  -21.0105 26112.6 -03372.8 -07.3598 26329.5
 04 01 2013  14 16  -21.0110 26112.8 -03372.9 -07.3599 26329.8
 04 01 2013  14 17  -21.0118 26113.4 -03373.1 -07.3602 26330.3
 04 01 2013  14 18  -21.0126 26114.2 -03373.4 -07.3607 26331.1
 04 01 2013  14 19  -21.0132 26115.0 -03373.7 -07.3611 26332.0
 04 01 2013  14 20  -21.0129 26115.5 -03373.8 -07.3610 26332.6
 04 01 2013  14 21  -21.0128 26116.2 -03373.9 -07.3611 26333.2
 04 01 2013  14 22  -21.0125 26116.7 -03373.9 -07.3610 26333.7
 04 01 2013  14 23  -21.0126 26116.8 -03373.8 -07.3608 26333.8
 04 01 2013  14 24  -21.0129 26116.9 -03373.7 -07.3606 26333.9
 04 01 2013  14 25  -21.0135 26117.1 -03373.8 -07.3606 26334.1
 04 01 2013  14 26  -21.0143 26117.5 -03373.9 -07.3608 26334.5
 04 01 2013  14 27  -21.0151 26118.0 -03374.1 -07.3610 26335.0
 04 01 2013  14 28  -21.0160 26118.5 -03374.2 -07.3611 26335.6
 04 01 2013  14 29  -21.0168 26119.0 -03374.3 -07.3612 26336.1
 04 01 2013  14 30  -21.0176 26119.6 -03374.4 -07.3612 26336.6
 04 01 2013  14 31  -21.0184 26120.2 -03374.4 -07.3612 26337.2
 04 01 2013  14 32  -21.0192 26120.8 -03374.5 -07.3611 26337.9
 04 01 2013  14 33  -21.0199 26121.4 -03374.5 -07.3609 26338.5
 04 01 2013  14 34  -21.0205 26121.9 -03374.4 -07.3605 26338.9
 04 01 2013  14 35  -21.0211 26122.1 -03374.1 -07.3600 26339.1
 04 01 2013  14 36  -21.0218 26122.3 -03374.0 -07.3596 26339.3
 04 01 2013  14 37  -21.0225 26122.5 -03373.8 -07.3592 26339.5
 04 01 2013  14 38  -21.0234 26122.8 -03373.7 -07.3589 26339.8
 04 01 2013  14 39  -21.0244 26123.1 -03373.6 -07.3586 26340.0
 04 01 2013  14 40  -21.0252 26123.4 -03373.5 -07.3583 26340.3
 04 01 2013  14 41  -21.0259 26123.7 -03373.3 -07.3578 26340.6
 04 01 2013  14 42  -21.0267 26124.0 -03373.2 -07.3574 26340.9
 04 01 2013  14 43  -21.0278 26124.4 -03373.1 -07.3570 26341.3
 04 01 2013  14 44  -21.0286 26124.8 -03372.9 -07.3566 26341.6
 04 01 2013  14 45  -21.0293 26125.1 -03372.7 -07.3560 26341.9
 04 01 2013  14 46  -21.0301 26125.3 -03372.5 -07.3555 26342.1
 04 01 2013  14 47  -21.0309 26125.7 -03372.3 -07.3550 26342.4
 04 01 2013  14 48  -21.0318 26126.1 -03372.1 -07.3544 26342.8
 04 01 2013  14 49  -21.0327 26126.6 -03371.9 -07.3539 26343.3
 04 01 2013  14 50  -21.0336 26127.0 -03371.6 -07.3532 26343.6
 04 01 2013  14 51  -21.0344 26127.2 -03371.3 -07.3525 26343.8
 04 01 2013  14 52  -21.0352 26127.4 -03371.0 -07.3517 26344.0
 04 01 2013  14 53  -21.0359 26127.8 -03370.6 -07.3509 26344.3
 04 01 2013  14 54  -21.0367 26128.2 -03370.4 -07.3502 26344.7
 04 01 2013  14 55  -21.0376 26128.6 -03370.1 -07.3495 26345.1
 04 01 2013  14 56  -21.0384 26129.0 -03369.8 -07.3488 26345.5
 04 01 2013  14 57  -21.0392 26129.4 -03369.4 -07.3478 26345.7
 04 01 2013  14 58  -21.0399 26129.7 -03369.0 -07.3469 26346.0
 04 01 2013  14 59  -21.0407 26130.1 -03368.6 -07.3459 26346.3
 04 01 2013  15 00  -21.0414 26130.3 -03368.2 -07.3449 26346.5
 04 01 2013  15 01  -21.0420 26130.5 -03367.7 -07.3438 26346.6
 04 01 2013  15 02  -21.0426 26130.7 -03367.2 -07.3427 26346.7
 04 01 2013  15 03  -21.0431 26130.8 -03366.7 -07.3415 26346.8
 04 01 2013  15 04  -21.0438 26131.0 -03366.2 -07.3404 26346.9
 04 01 2013  15 05  -21.0443 26131.2 -03365.7 -07.3394 26347.0
 04 01 2013  15 06  -21.0449 26131.4 -03365.3 -07.3384 26347.2
 04 01 2013  15 07  -21.0455 26131.6 -03364.9 -07.3374 26347.4
 04 01 2013  15 08  -21.0459 26131.7 -03364.3 -07.3362 26347.4
 04 01 2013  15 09  -21.0462 26131.7 -03363.8 -07.3350 26347.3
 04 01 2013  15 10  -21.0467 26131.9 -03363.3 -07.3339 26347.5
 04 01 2013  15 11  -21.0470 26132.0 -03362.8 -07.3327 26347.5
 04 01 2013  15 12  -21.0471 26132.0 -03362.2 -07.3315 26347.4
 04 01 2013  15 13  -21.0472 26132.0 -03361.7 -07.3303 26347.3
 04 01 2013  15 14  -21.0472 26131.9 -03361.1 -07.3291 26347.1
 04 01 2013  15 15  -21.0474 26131.8 -03360.5 -07.3279 26347.0
 04 01 2013  15 16  -21.0477 26131.9 -03360.0 -07.3269 26347.1
 04 01 2013  15 17  -21.0477 26132.0 -03359.5 -07.3257 26347.0
 04 01 2013  15 18  -21.0478 26131.9 -03359.0 -07.3245 26346.9
 04 01 2013  15 19  -21.0478 26132.0 -03358.4 -07.3233 26346.9
 04 01 2013  15 20  -21.0477 26131.9 -03357.8 -07.3221 26346.8
 04 01 2013  15 21  -21.0476 26131.9 -03357.3 -07.3209 26346.7
 04 01 2013  15 22  -21.0475 26132.0 -03356.8 -07.3198 26346.7
 04 01 2013  15 23  -21.0476 26131.9 -03356.2 -07.3186 26346.6
 04 01 2013  15 24  -21.0473 26131.8 -03355.6 -07.3174 26346.4
 04 01 2013  15 25  -21.0469 26131.8 -03355.1 -07.3163 26346.3
 04 01 2013  15 26  -21.0466 26131.9 -03354.7 -07.3154 26346.4
 04 01 2013  15 27  -21.0464 26132.1 -03354.3 -07.3145 26346.5
 04 01 2013  15 28  -21.0460 26132.1 -03353.9 -07.3135 26346.4
 04 01 2013  15 29  -21.0457 26132.3 -03353.4 -07.3125 26346.5
 04 01 2013  15 30  -21.0454 26132.5 -03353.0 -07.3115 26346.7
 04 01 2013  15 31  -21.0451 26132.7 -03352.5 -07.3105 26346.9
 04 01 2013  15 32  -21.0447 26132.8 -03352.1 -07.3094 26346.9
 04 01 2013  15 33  -21.0443 26132.8 -03351.5 -07.3083 26346.9
 04 01 2013  15 34  -21.0439 26132.7 -03351.0 -07.3071 26346.7
 04 01 2013  15 35  -21.0434 26132.5 -03350.4 -07.3060 26346.4
 04 01 2013  15 36  -21.0428 26132.4 -03349.9 -07.3048 26346.2
 04 01 2013  15 37  -21.0423 26132.2 -03349.4 -07.3038 26346.0
 04 01 2013  15 38  -21.0418 26132.0 -03348.8 -07.3027 26345.7
 04 01 2013  15 39  -21.0415 26131.8 -03348.4 -07.3017 26345.5
 04 01 2013  15 40  -21.0409 26131.8 -03347.9 -07.3006 26345.3
 04 01 2013  15 41  -21.0402 26131.6 -03347.4 -07.2997 26345.2
 04 01 2013  15 42  -21.0396 26131.6 -03347.0 -07.2988 26345.1
 04 01 2013  15 43  -21.0391 26131.5 -03346.5 -07.2979 26344.9
 04 01 2013  15 44  -21.0386 26131.3 -03346.0 -07.2969 26344.7
 04 01 2013  15 45  -21.0380 26131.2 -03345.6 -07.2960 26344.5
 04 01 2013  15 46  -21.0372 26131.1 -03345.3 -07.2952 26344.4
 04 01 2013  15 47  -21.0365 26131.2 -03344.9 -07.2945 26344.5
 04 01 2013  15 48  -21.0359 26131.2 -03344.5 -07.2936 26344.4
 04 01 2013  15 49  -21.0352 26131.1 -03344.1 -07.2927 26344.2
 04 01 2013  15 50  -21.0344 26131.0 -03343.8 -07.2920 26344.1
 04 01 2013  15 51  -21.0337 26131.0 -03343.4 -07.2913 26344.0
 04 01 2013  15 52  -21.0330 26131.0 -03343.1 -07.2905 26343.9
 04 01 2013  15 53  -21.0322 26130.7 -03342.7 -07.2897 26343.7
 04 01 2013  15 54  -21.0313 26130.5 -03342.3 -07.2890 26343.4
 04 01 2013  15 55  -21.0304 26130.8 -03342.2 -07.2887 26343.7
 04 01 2013  15 56  -21.0299 26131.0 -03342.0 -07.2882 26343.9
 04 01 2013  15 57  -21.0291 26131.0 -03341.7 -07.2875 26343.8
 04 01 2013  15 58  -21.0283 26130.9 -03341.3 -07.2868 26343.7
 04 01 2013  15 59  -21.0274 26130.9 -03341.0 -07.2861 26343.6
 04 01 2013  16 00  -21.0266 26130.8 -03340.7 -07.2854 26343.4
 04 01 2013  16 01  -21.0257 26130.6 -03340.3 -07.2846 26343.2
 04 01 2013  16 02  -21.0246 26130.4 -03340.0 -07.2840 26343.0
 04 01 2013  16 03  -21.0236 26130.3 -03339.6 -07.2833 26342.8
 04 01 2013  16 04  -21.0224 26129.9 -03339.3 -07.2827 26342.5
 04 01 2013  16 05  -21.0210 26129.6 -03339.0 -07.2821 26342.1
 04 01 2013  16 06  -21.0199 26129.5 -03338.8 -07.2817 26342.0
 04 01 2013  16 07  -21.0185 26129.4 -03338.6 -07.2814 26341.8
 04 01 2013  16 08  -21.0173 26129.3 -03338.5 -07.2810 26341.7
 04 01 2013  16 09  -21.0161 26129.2 -03338.3 -07.2807 26341.6
 04 01 2013  16 10  -21.0149 26129.0 -03338.1 -07.2804 26341.4
 04 01 2013  16 11  -21.0137 26128.9 -03338.0 -07.2801 26341.2
 04 01 2013  16 12  -21.0126 26128.9 -03337.9 -07.2800 26341.2
 04 01 2013  16 13  -21.0116 26128.8 -03337.8 -07.2799 26341.1
 04 01 2013  16 14  -21.0103 26128.6 -03337.7 -07.2796 26340.9
 04 01 2013  16 15  -21.0092 26128.4 -03337.6 -07.2795 26340.7
 04 01 2013  16 16  -21.0080 26128.2 -03337.5 -07.2794 26340.5
 04 01 2013  16 17  -21.0067 26127.9 -03337.5 -07.2793 26340.2
 04 01 2013  16 18  -21.0056 26127.6 -03337.4 -07.2792 26339.9
 04 01 2013  16 19  -21.0045 26127.3 -03337.4 -07.2793 26339.5
 04 01 2013  16 20  -21.0034 26126.9 -03337.4 -07.2793 26339.2
 04 01 2013  16 21  -21.0024 26126.7 -03337.4 -07.2795 26339.0
 04 01 2013  16 22  -21.0014 26126.6 -03337.5 -07.2798 26338.9
 04 01 2013  16 23  -21.0004 26126.3 -03337.6 -07.2800 26338.7
 04 01 2013  16 24  -20.9992 26126.0 -03337.6 -07.2802 26338.4
 04 01 2013  16 25  -20.9982 26125.8 -03337.8 -07.2805 26338.1
 04 01 2013  16 26  -20.9973 26125.6 -03337.9 -07.2810 26337.9
 04 01 2013  16 27  -20.9968 26125.4 -03338.1 -07.2814 26337.8
 04 01 2013  16 28  -20.9962 26125.1 -03338.2 -07.2817 26337.5
 04 01 2013  16 29  -20.9955 26124.8 -03338.3 -07.2820 26337.2
 04 01 2013  16 30  -20.9948 26124.6 -03338.5 -07.2824 26337.0
 04 01 2013  16 31  -20.9939 26124.3 -03338.6 -07.2827 26336.7
 04 01 2013  16 32  -20.9932 26123.9 -03338.7 -07.2831 26336.4
 04 01 2013  16 33  -20.9924 26123.6 -03338.9 -07.2835 26336.1
 04 01 2013  16 34  -20.9916 26123.2 -03339.0 -07.2840 26335.7
 04 01 2013  16 35  -20.9908 26122.8 -03339.2 -07.2844 26335.4
 04 01 2013  16 36  -20.9899 26122.5 -03339.4 -07.2849 26335.1
 04 01 2013  16 37  -20.9889 26122.2 -03339.6 -07.2855 26334.8
 04 01 2013  16 38  -20.9878 26121.9 -03339.9 -07.2861 26334.6
 04 01 2013  16 39  -20.9870 26121.7 -03340.1 -07.2867 26334.4
 04 01 2013  16 40  -20.9861 26121.4 -03340.4 -07.2873 26334.1
 04 01 2013  16 41  -20.9853 26121.2 -03340.6 -07.2880 26334.0
 04 01 2013  16 42  -20.9843 26121.1 -03340.9 -07.2885 26333.8
 04 01 2013  16 43  -20.9832 26120.9 -03341.2 -07.2892 26333.7
 04 01 2013  16 44  -20.9822 26120.7 -03341.4 -07.2898 26333.5
 04 01 2013  16 45  -20.9813 26120.4 -03341.6 -07.2904 26333.3
 04 01 2013  16 46  -20.9805 26120.1 -03341.9 -07.2910 26333.1
 04 01 2013  16 47  -20.9798 26119.9 -03342.1 -07.2915 26332.8
 04 01 2013  16 48  -20.9791 26119.5 -03342.3 -07.2920 26332.5
 04 01 2013  16 49  -20.9781 26119.1 -03342.5 -07.2925 26332.1
 04 01 2013  16 50  -20.9771 26118.6 -03342.6 -07.2929 26331.6
 04 01 2013  16 51  -20.9763 26118.3 -03342.8 -07.2935 26331.3
 04 01 2013  16 52  -20.9754 26117.9 -03343.0 -07.2940 26331.0
 04 01 2013  16 53  -20.9745 26117.4 -03343.2 -07.2945 26330.5
 04 01 2013  16 54  -20.9736 26117.0 -03343.4 -07.2951 26330.1
 04 01 2013  16 55  -20.9727 26116.6 -03343.6 -07.2957 26329.7
 04 01 2013  16 56  -20.9721 26116.3 -03344.0 -07.2965 26329.5
 04 01 2013  16 57  -20.9714 26115.9 -03344.3 -07.2972 26329.2
 04 01 2013  16 58  -20.9708 26115.5 -03344.5 -07.2978 26328.8
 04 01 2013  16 59  -20.9701 26115.1 -03344.7 -07.2985 26328.4
 04 01 2013  17 00  -20.9694 26114.7 -03345.0 -07.2993 26328.1
 04 01 2013  17 01  -20.9687 26114.3 -03345.3 -07.3000 26327.7
 04 01 2013  17 02  -20.9679 26113.9 -03345.7 -07.3008 26327.4
 04 01 2013  17 03  -20.9673 26113.5 -03346.0 -07.3017 26327.0
 04 01 2013  17 04  -20.9666 26113.1 -03346.3 -07.3025 26326.6
 04 01 2013  17 05  -20.9662 26112.7 -03346.7 -07.3034 26326.3
 04 01 2013  17 06  -20.9660 26112.4 -03347.1 -07.3043 26326.1
 04 01 2013  17 07  -20.9657 26112.0 -03347.3 -07.3050 26325.6
 04 01 2013  17 08  -20.9653 26111.4 -03347.6 -07.3058 26325.1
 04 01 2013  17 09  -20.9648 26111.0 -03348.0 -07.3067 26324.7
 04 01 2013  17 10  -20.9645 26110.5 -03348.3 -07.3076 26324.3
 04 01 2013  17 11  -20.9638 26109.9 -03348.6 -07.3083 26323.7
 04 01 2013  17 12  -20.9634 26109.3 -03349.0 -07.3092 26323.2
 04 01 2013  17 13  -20.9628 26108.7 -03349.3 -07.3102 26322.6
 04 01 2013  17 14  -20.9622 26108.0 -03349.7 -07.3112 26322.0
 04 01 2013  17 15  -20.9618 26107.5 -03350.2 -07.3124 26321.6
 04 01 2013  17 16  -20.9615 26107.0 -03350.6 -07.3135 26321.1
 04 01 2013  17 17  -20.9611 26106.4 -03351.1 -07.3146 26320.6
 04 01 2013  17 18  -20.9607 26106.0 -03351.6 -07.3159 26320.3
 04 01 2013  17 19  -20.9607 26105.7 -03352.2 -07.3172 26320.1
 04 01 2013  17 20  -20.9607 26105.4 -03352.7 -07.3184 26319.8
 04 01 2013  17 21  -20.9608 26105.2 -03353.3 -07.3197 26319.6
 04 01 2013  17 22  -20.9607 26104.8 -03353.7 -07.3208 26319.4
 04 01 2013  17 23  -20.9606 26104.5 -03354.2 -07.3219 26319.2
 04 01 2013  17 24  -20.9606 26104.3 -03354.7 -07.3231 26319.0
 04 01 2013  17 25  -20.9606 26104.0 -03355.2 -07.3241 26318.8
 04 01 2013  17 26  -20.9608 26103.9 -03355.7 -07.3253 26318.7
 04 01 2013  17 27  -20.9610 26103.7 -03356.1 -07.3263 26318.5
 04 01 2013  17 28  -20.9611 26103.4 -03356.5 -07.3272 26318.3
 04 01 2013  17 29  -20.9612 26103.0 -03356.9 -07.3280 26318.0
 04 01 2013  17 30  -20.9613 26102.7 -03357.3 -07.3290 26317.7
 04 01 2013  17 31  -20.9614 26102.4 -03357.7 -07.3300 26317.5
 04 01 2013  17 32  -20.9615 26102.2 -03358.1 -07.3310 26317.3
 04 01 2013  17 33  -20.9618 26101.8 -03358.5 -07.3318 26317.0
 04 01 2013  17 34  -20.9617 26101.4 -03358.8 -07.3326 26316.6
 04 01 2013  17 35  -20.9617 26101.0 -03359.3 -07.3337 26316.3
 04 01 2013  17 36  -20.9619 26100.7 -03359.7 -07.3348 26316.0
 04 01 2013  17 37  -20.9621 26100.4 -03360.2 -07.3359 26315.8
 04 01 2013  17 38  -20.9624 26100.1 -03360.6 -07.3370 26315.6
 04 01 2013  17 39  -20.9628 26099.8 -03361.1 -07.3381 26315.4
 04 01 2013  17 40  -20.9633 26099.6 -03361.6 -07.3392 26315.2
 04 01 2013  17 41  -20.9637 26099.2 -03362.0 -07.3402 26314.9
 04 01 2013  17 42  -20.9640 26098.9 -03362.5 -07.3413 26314.6
 04 01 2013  17 43  -20.9646 26098.6 -03362.9 -07.3424 26314.3
 04 01 2013  17 44  -20.9649 26098.3 -03363.4 -07.3434 26314.1
 04 01 2013  17 45  -20.9652 26097.9 -03363.8 -07.3444 26313.8
 04 01 2013  17 46  -20.9656 26097.5 -03364.2 -07.3454 26313.5
 04 01 2013  17 47  -20.9660 26097.3 -03364.7 -07.3464 26313.3
 04 01 2013  17 48  -20.9664 26097.1 -03365.1 -07.3474 26313.1
 04 01 2013  17 49  -20.9666 26096.8 -03365.5 -07.3484 26312.9
 04 01 2013  17 50  -20.9668 26096.6 -03365.9 -07.3494 26312.8
 04 01 2013  17 51  -20.9671 26096.4 -03366.4 -07.3504 26312.6
 04 01 2013  17 52  -20.9674 26096.2 -03366.8 -07.3513 26312.5
 04 01 2013  17 53  -20.9675 26096.0 -03367.1 -07.3522 26312.3
 04 01 2013  17 54  -20.9676 26095.8 -03367.5 -07.3531 26312.2
 04 01 2013  17 55  -20.9677 26095.6 -03367.9 -07.3539 26312.0
 04 01 2013  17 56  -20.9677 26095.3 -03368.2 -07.3547 26311.8
 04 01 2013  17 57  -20.9679 26095.1 -03368.6 -07.3556 26311.6
 04 01 2013  17 58  -20.9681 26094.8 -03368.9 -07.3564 26311.4
 04 01 2013  17 59  -20.9682 26094.6 -03369.3 -07.3573 26311.2
 04 01 2013  18 00  -20.9682 26094.4 -03369.7 -07.3581 26311.0
 04 01 2013  18 01  -20.9685 26094.1 -03370.0 -07.3589 26310.8
 04 01 2013  18 02  -20.9687 26093.8 -03370.3 -07.3597 26310.6
 04 01 2013  18 03  -20.9691 26093.6 -03370.7 -07.3605 26310.4
 04 01 2013  18 04  -20.9694 26093.4 -03371.0 -07.3613 26310.3
 04 01 2013  18 05  -20.9697 26093.3 -03371.4 -07.3622 26310.2
 04 01 2013  18 06  -20.9700 26093.0 -03371.7 -07.3629 26310.0
 04 01 2013  18 07  -20.9706 26092.8 -03372.0 -07.3636 26309.8
 04 01 2013  18 08  -20.9711 26092.7 -03372.4 -07.3644 26309.7
 04 01 2013  18 09  -20.9716 26092.5 -03372.7 -07.3652 26309.6
 04 01 2013  18 10  -20.9751 26092.0 -03372.7 -07.3654 26309.1
 04 01 2013  18 11  -20.9767 26091.7 -03372.9 -07.3658 26308.8
 04 01 2013  18 12  -20.9772 26091.4 -03373.1 -07.3663 26308.5
 04 01 2013  18 13  -20.9776 26091.1 -03373.3 -07.3668 26308.2
 04 01 2013  18 14  -20.9757 26091.1 -03373.7 -07.3677 26308.3
 04 01 2013  18 15  -20.9751 26091.2 -03374.1 -07.3686 26308.5
 04 01 2013  18 16  -20.9757 26091.0 -03374.3 -07.3691 26308.3
 04 01 2013  18 17  -20.9763 26090.9 -03374.5 -07.3695 26308.2
 04 01 2013  18 18  -20.9769 26090.6 -03374.7 -07.3699 26308.0
 04 01 2013  18 19  -20.9773 26090.3 -03374.8 -07.3703 26307.7
 04 01 2013  18 20  -20.9777 26090.2 -03375.0 -07.3708 26307.6
 04 01 2013  18 21  -20.9783 26090.0 -03375.2 -07.3713 26307.4
 04 01 2013  18 22  -20.9790 26089.7 -03375.3 -07.3716 26307.1
 04 01 2013  18 23  -20.9795 26089.4 -03375.4 -07.3719 26306.8
 04 01 2013  18 24  -20.9800 26089.2 -03375.6 -07.3723 26306.7
 04 01 2013  18 25  -20.9805 26089.0 -03375.7 -07.3727 26306.5
 04 01 2013  18 26  -20.9810 26088.8 -03375.9 -07.3730 26306.4
 04 01 2013  18 27  -20.9817 26088.6 -03376.0 -07.3733 26306.1
 04 01 2013  18 28  -20.9823 26088.4 -03376.1 -07.3736 26305.9
 04 01 2013  18 29  -20.9828 26088.2 -03376.1 -07.3738 26305.7
 04 01 2013  18 30  -20.9833 26088.0 -03376.2 -07.3740 26305.6
 04 01 2013  18 31  -20.9838 26087.8 -03376.2 -07.3741 26305.3
 04 01 2013  18 32  -20.9842 26087.5 -03376.3 -07.3742 26305.1
 04 01 2013  18 33  -20.9846 26087.4 -03376.3 -07.3744 26304.9
 04 01 2013  18 34  -20.9851 26087.2 -03376.4 -07.3746 26304.8
 04 01 2013  18 35  -20.9855 26087.0 -03376.4 -07.3748 26304.6
 04 01 2013  18 36  -20.9859 26086.8 -03376.5 -07.3749 26304.4
 04 01 2013  18 37  -20.9863 26086.5 -03376.5 -07.3751 26304.1
 04 01 2013  18 38  -20.9865 26086.3 -03376.6 -07.3753 26304.0
 04 01 2013  18 39  -20.9869 26086.1 -03376.7 -07.3755 26303.7
 04 01 2013  18 40  -20.9873 26085.9 -03376.7 -07.3757 26303.5
 04 01 2013  18 41  -20.9877 26085.7 -03376.8 -07.3759 26303.3
 04 01 2013  18 42  -20.9881 26085.5 -03376.9 -07.3761 26303.1
 04 01 2013  18 43  -20.9884 26085.3 -03376.9 -07.3763 26303.0
 04 01 2013  18 44  -20.9888 26085.0 -03377.0 -07.3764 26302.7
 04 01 2013  18 45  -20.9891 26084.8 -03377.0 -07.3766 26302.5
 04 01 2013  18 46  -20.9894 26084.7 -03377.1 -07.3768 26302.4
 04 01 2013  18 47  -20.9897 26084.4 -03377.2 -07.3770 26302.1
 04 01 2013  18 48  -20.9900 26084.2 -03377.2 -07.3772 26301.9
 04 01 2013  18 49  -20.9903 26084.0 -03377.3 -07.3774 26301.7
 04 01 2013  18 50  -20.9907 26083.8 -03377.4 -07.3777 26301.6
 04 01 2013  18 51  -20.9911 26083.6 -03377.5 -07.3779 26301.4
 04 01 2013  18 52  -20.9915 26083.5 -03377.5 -07.3781 26301.2
 04 01 2013  18 53  -20.9919 26083.2 -03377.6 -07.3783 26301.0
 04 01 2013  18 54  -20.9923 26083.1 -03377.7 -07.3785 26300.8
 04 01 2013  18 55  -20.9928 26082.9 -03377.8 -07.3788 26300.7
 04 01 2013  18 56  -20.9931 26082.6 -03377.8 -07.3790 26300.4
 04 01 2013  18 57  -20.9934 26082.4 -03377.9 -07.3792 26300.3
 04 01 2013  18 58  -20.9940 26082.3 -03378.0 -07.3794 26300.1
 04 01 2013  18 59  -20.9944 26082.1 -03378.1 -07.3797 26300.0
 04 01 2013  19 00  -20.9950 26081.9 -03378.1 -07.3798 26299.8
 04 01 2013  19 01  -20.9955 26081.7 -03378.1 -07.3799 26299.6
 04 01 2013  19 02  -20.9959 26081.6 -03378.2 -07.3802 26299.4
 04 01 2013  19 03  -20.9964 26081.4 -03378.3 -07.3804 26299.3
 04 01 2013  19 04  -20.9969 26081.4 -03378.4 -07.3806 26299.3
 04 01 2013  19 05  -20.9972 26081.7 -03378.7 -07.3810 26299.6
 04 01 2013  19 06  -20.9980 26080.9 -03378.5 -07.3809 26298.8
 04 01 2013  19 07  -20.9984 26080.6 -03378.5 -07.3810 26298.5
 04 01 2013  19 08  -20.9990 26081.1 -03378.8 -07.3815 26299.1
 04 01 2013  19 09  -20.9994 26081.1 -03378.9 -07.3818 26299.1
 04 01 2013  19 10  -21.0001 26080.6 -03378.8 -07.3818 26298.5
 04 01 2013  19 11  -21.0004 26080.0 -03378.7 -07.3817 26297.9
 04 01 2013  19 12  -21.0008 26080.2 -03378.9 -07.3821 26298.1
 04 01 2013  19 13  -21.0014 26080.6 -03379.3 -07.3827 26298.6
 04 01 2013  19 14  -21.0021 26080.2 -03379.3 -07.3828 26298.3
 04 01 2013  19 15  -21.0027 26079.9 -03379.2 -07.3828 26297.9
 04 01 2013  19 16  -21.0032 26079.9 -03379.4 -07.3831 26297.9
 04 01 2013  19 17  -21.0038 26080.0 -03379.5 -07.3834 26298.0
 04 01 2013  19 18  -21.0045 26079.5 -03379.5 -07.3835 26297.6
 04 01 2013  19 19  -21.0050 26079.3 -03379.6 -07.3837 26297.4
 04 01 2013  19 20  -21.0056 26079.3 -03379.7 -07.3841 26297.3
 04 01 2013  19 21  -21.0063 26079.1 -03379.8 -07.3843 26297.2
 04 01 2013  19 22  -21.0070 26078.8 -03379.9 -07.3845 26296.9
 04 01 2013  19 23  -21.0078 26078.6 -03379.9 -07.3846 26296.7
 04 01 2013  19 24  -21.0085 26078.6 -03380.0 -07.3849 26296.7
 04 01 2013  19 25  -21.0093 26078.4 -03380.1 -07.3851 26296.5
 04 01 2013  19 26  -21.0100 26077.9 -03380.1 -07.3852 26296.1
 04 01 2013  19 27  -21.0109 26077.6 -03380.1 -07.3853 26295.8
 04 01 2013  19 28  -21.0117 26077.5 -03380.2 -07.3855 26295.6
 04 01 2013  19 29  -21.0125 26077.2 -03380.2 -07.3857 26295.4
 04 01 2013  19 30  -21.0134 26076.9 -03380.2 -07.3858 26295.0
 04 01 2013  19 31  -21.0141 26076.6 -03380.3 -07.3859 26294.8
 04 01 2013  19 32  -21.0150 26076.2 -03380.2 -07.3860 26294.4
 04 01 2013  19 33  -21.0158 26075.8 -03380.2 -07.3860 26294.0
 04 01 2013  19 34  -21.0166 26075.4 -03380.2 -07.3861 26293.6
 04 01 2013  19 35  -21.0172 26075.2 -03380.2 -07.3862 26293.4
 04 01 2013  19 36  -21.0182 26074.9 -03380.2 -07.3863 26293.1
 04 01 2013  19 37  -21.0189 26074.4 -03380.1 -07.3862 26292.6
 04 01 2013  19 38  -21.0196 26074.0 -03380.0 -07.3861 26292.2
 04 01 2013  19 39  -21.0205 26073.5 -03379.9 -07.3861 26291.7
 04 01 2013  19 40  -21.0210 26073.3 -03379.9 -07.3860 26291.4
 04 01 2013  19 41  -21.0217 26073.0 -03379.9 -07.3862 26291.1
 04 01 2013  19 42  -21.0224 26072.4 -03379.7 -07.3860 26290.5
 04 01 2013  19 43  -21.0229 26072.0 -03379.7 -07.3860 26290.2
 04 01 2013  19 44  -21.0235 26071.9 -03379.7 -07.3862 26290.0
 04 01 2013  19 45  -21.0241 26071.5 -03379.7 -07.3862 26289.6
 04 01 2013  19 46  -21.0246 26071.1 -03379.7 -07.3862 26289.3
 04 01 2013  19 47  -21.0251 26070.8 -03379.7 -07.3863 26289.0
 04 01 2013  19 48  -21.0258 26070.6 -03379.7 -07.3863 26288.7
 04 01 2013  19 49  -21.0263 26070.4 -03379.7 -07.3864 26288.5
 04 01 2013  19 50  -21.0270 26070.2 -03379.7 -07.3866 26288.3
 04 01 2013  19 51  -21.0274 26069.9 -03379.7 -07.3866 26288.1
 04 01 2013  19 52  -21.0278 26069.8 -03379.8 -07.3868 26288.0
 04 01 2013  19 53  -21.0280 26069.8 -03379.9 -07.3870 26287.9
 04 01 2013  19 54  -21.0284 26069.7 -03379.9 -07.3872 26287.9
 04 01 2013  19 55  -21.0287 26069.5 -03380.0 -07.3873 26287.7
 04 01 2013  19 56  -21.0289 26069.2 -03379.9 -07.3873 26287.4
 04 01 2013  19 57  -21.0291 26069.1 -03380.0 -07.3874 26287.3
 04 01 2013  19 58  -21.0293 26068.9 -03380.0 -07.3875 26287.1
 04 01 2013  19 59  -21.0294 26068.7 -03380.1 -07.3877 26287.0
 04 01 2013  20 00  -21.0295 26068.6 -03380.1 -07.3879 26286.8
 04 01 2013  20 01  -21.0296 26068.4 -03380.2 -07.3880 26286.6
 04 01 2013  20 02  -21.0297 26068.3 -03380.2 -07.3882 26286.5
 04 01 2013  20 03  -21.0297 26068.3 -03380.3 -07.3884 26286.5
 04 01 2013  20 04  -21.0299 26068.2 -03380.4 -07.3886 26286.4
 04 01 2013  20 05  -21.0301 26067.8 -03380.3 -07.3886 26286.1
 04 01 2013  20 06  -21.0302 26067.8 -03380.4 -07.3887 26286.1
 04 01 2013  20 07  -21.0304 26067.6 -03380.5 -07.3889 26285.9
 04 01 2013  20 08  -21.0306 26067.5 -03380.5 -07.3890 26285.8
 04 01 2013  20 09  -21.0308 26067.3 -03380.5 -07.3891 26285.6
 04 01 2013  20 10  -21.0310 26067.2 -03380.6 -07.3893 26285.5
 04 01 2013  20 11  -21.0313 26066.9 -03380.5 -07.3892 26285.2
 04 01 2013  20 12  -21.0313 26067.0 -03380.7 -07.3895 26285.3
 04 01 2013  20 13  -21.0315 26066.8 -03380.7 -07.3896 26285.1
 04 01 2013  20 14  -21.0317 26066.6 -03380.7 -07.3896 26284.9
 04 01 2013  20 15  -21.0317 26066.6 -03380.8 -07.3898 26285.0
 04 01 2013  20 16  -21.0319 26066.5 -03380.8 -07.3900 26284.8
 04 01 2013  20 17  -21.0319 26066.4 -03380.9 -07.3901 26284.8
 04 01 2013  20 18  -21.0320 26066.3 -03380.9 -07.3902 26284.6
 04 01 2013  20 19  -21.0322 26066.1 -03380.9 -07.3903 26284.4
 04 01 2013  20 20  -21.0321 26066.1 -03381.0 -07.3905 26284.5
 04 01 2013  20 21  -21.0321 26066.1 -03381.1 -07.3906 26284.5
 04 01 2013  20 22  -21.0321 26066.0 -03381.1 -07.3908 26284.4
 04 01 2013  20 23  -21.0322 26066.0 -03381.2 -07.3910 26284.4
 04 01 2013  20 24  -21.0323 26065.9 -03381.2 -07.3911 26284.3
 04 01 2013  20 25  -21.0324 26065.9 -03381.3 -07.3912 26284.3
 04 01 2013  20 26  -21.0324 26065.9 -03381.4 -07.3913 26284.3
 04 01 2013  20 27  -21.0325 26065.8 -03381.4 -07.3914 26284.3
 04 01 2013  20 28  -21.0325 26065.9 -03381.5 -07.3915 26284.3
 04 01 2013  20 29  -21.0326 26065.9 -03381.5 -07.3917 26284.3
 04 01 2013  20 30  -21.0327 26065.8 -03381.5 -07.3917 26284.2
 04 01 2013  20 31  -21.0329 26065.8 -03381.6 -07.3918 26284.2
 04 01 2013  20 32  -21.0330 26065.6 -03381.5 -07.3918 26284.0
 04 01 2013  20 33  -21.0331 26065.5 -03381.5 -07.3918 26283.9
 04 01 2013  20 34  -21.0332 26065.5 -03381.6 -07.3920 26284.0
 04 01 2013  20 35  -21.0331 26065.7 -03381.7 -07.3922 26284.1
 04 01 2013  20 36  -21.0331 26065.6 -03381.8 -07.3923 26284.0
 04 01 2013  20 37  -21.0332 26064.9 -03381.5 -07.3919 26283.4
 04 01 2013  20 38  -21.0332 26065.1 -03381.6 -07.3920 26283.6
 04 01 2013  20 39  -21.0333 26065.1 -03381.7 -07.3922 26283.5
 04 01 2013  20 40  -21.0334 26064.5 -03381.4 -07.3919 26282.9
 04 01 2013  20 41  -21.0333 26064.7 -03381.5 -07.3919 26283.1
 04 01 2013  20 42  -21.0333 26064.9 -03381.6 -07.3922 26283.4
 04 01 2013  20 43  -21.0333 26064.5 -03381.5 -07.3920 26282.9
 04 01 2013  20 44  -21.0331 26064.6 -03381.6 -07.3921 26283.1
 04 01 2013  20 45  -21.0331 26064.6 -03381.6 -07.3923 26283.1
 04 01 2013  20 46  -21.0331 26064.4 -03381.6 -07.3922 26282.8
 04 01 2013  20 47  -21.0332 26064.1 -03381.5 -07.3921 26282.6
 04 01 2013  20 48  -21.0332 26063.7 -03381.4 -07.3919 26282.1
 04 01 2013  20 49  -21.0331 26063.7 -03381.4 -07.3919 26282.2
 04 01 2013  20 50  -21.0331 26063.6 -03381.3 -07.3919 26282.0
 04 01 2013  20 51  -21.0330 26063.4 -03381.3 -07.3918 26281.8
 04 01 2013  20 52  -21.0328 26063.3 -03381.3 -07.3919 26281.7
 04 01 2013  20 53  -21.0328 26063.2 -03381.3 -07.3920 26281.6
 04 01 2013  20 54  -21.0326 26062.9 -03381.2 -07.3918 26281.3
 04 01 2013  20 55  -21.0325 26062.7 -03381.2 -07.3919 26281.2
 04 01 2013  20 56  -21.0324 26062.4 -03381.1 -07.3918 26280.8
 04 01 2013  20 57  -21.0322 26062.4 -03381.2 -07.3919 26280.8
 04 01 2013  20 58  -21.0322 26062.3 -03381.2 -07.3920 26280.8
 04 01 2013  20 59  -21.0320 26062.2 -03381.2 -07.3920 26280.6
 04 01 2013  21 00  -21.0318 26062.1 -03381.2 -07.3920 26280.5
 04 01 2013  21 01  -21.0317 26062.1 -03381.2 -07.3921 26280.5
 04 01 2013  21 02  -21.0316 26061.9 -03381.2 -07.3921 26280.3
 04 01 2013  21 03  -21.0315 26061.8 -03381.2 -07.3921 26280.2
 04 01 2013  21 04  -21.0315 26061.6 -03381.1 -07.3921 26280.1
 04 01 2013  21 05  -21.0314 26061.5 -03381.1 -07.3920 26279.9
 04 01 2013  21 06  -21.0312 26061.5 -03381.1 -07.3920 26279.9
 04 01 2013  21 07  -21.0310 26061.4 -03381.1 -07.3920 26279.8
 04 01 2013  21 08  -21.0307 26061.3 -03381.1 -07.3920 26279.7
 04 01 2013  21 09  -21.0304 26061.4 -03381.2 -07.3922 26279.8
 04 01 2013  21 10  -21.0302 26061.3 -03381.2 -07.3923 26279.7
 04 01 2013  21 11  -21.0298 26061.0 -03381.1 -07.3922 26279.5
 04 01 2013  21 12  -21.0295 26061.0 -03381.1 -07.3922 26279.5
 04 01 2013  21 13  -21.0290 26061.2 -03381.3 -07.3924 26279.6
 04 01 2013  21 14  -21.0285 26061.0 -03381.3 -07.3925 26279.5
 04 01 2013  21 15  -21.0282 26060.7 -03381.2 -07.3924 26279.1
 04 01 2013  21 16  -21.0277 26060.8 -03381.3 -07.3926 26279.3
 04 01 2013  21 17  -21.0274 26060.7 -03381.4 -07.3928 26279.2
 04 01 2013  21 18  -21.0271 26060.6 -03381.4 -07.3929 26279.1
 04 01 2013  21 19  -21.0269 26060.6 -03381.5 -07.3931 26279.1
 04 01 2013  21 20  -21.0267 26060.5 -03381.6 -07.3933 26279.0
 04 01 2013  21 21  -21.0265 26060.5 -03381.6 -07.3934 26278.9
 04 01 2013  21 22  -21.0264 26060.3 -03381.6 -07.3935 26278.8
 04 01 2013  21 23  -21.0262 26060.1 -03381.6 -07.3935 26278.6
 04 01 2013  21 24  -21.0260 26060.1 -03381.6 -07.3935 26278.6
 04 01 2013  21 25  -21.0259 26060.0 -03381.6 -07.3935 26278.5
 04 01 2013  21 26  -21.0256 26059.9 -03381.5 -07.3934 26278.3
 04 01 2013  21 27  -21.0253 26059.9 -03381.7 -07.3937 26278.4
 04 01 2013  21 28  -21.0248 26059.9 -03381.7 -07.3937 26278.4
 04 01 2013  21 29  -21.0247 26059.8 -03381.7 -07.3938 26278.3
 04 01 2013  21 30  -21.0243 26059.6 -03381.6 -07.3937 26278.1
 04 01 2013  21 31  -21.0239 26059.6 -03381.7 -07.3938 26278.1
 04 01 2013  21 32  -21.0235 26059.6 -03381.7 -07.3938 26278.1
 04 01 2013  21 33  -21.0231 26059.5 -03381.7 -07.3939 26278.0
 04 01 2013  21 34  -21.0226 26059.4 -03381.7 -07.3939 26277.9
 04 01 2013  21 35  -21.0222 26059.3 -03381.8 -07.3940 26277.8
 04 01 2013  21 36  -21.0216 26059.2 -03381.8 -07.3941 26277.8
 04 01 2013  21 37  -21.0212 26059.3 -03381.9 -07.3943 26277.8
 04 01 2013  21 38  -21.0205 26059.2 -03381.8 -07.3942 26277.8
 04 01 2013  21 39  -21.0198 26059.1 -03381.9 -07.3945 26277.7
 04 01 2013  21 40  -21.0194 26059.3 -03382.1 -07.3948 26277.9
 04 01 2013  21 41  -21.0188 26059.2 -03382.2 -07.3949 26277.8
 04 01 2013  21 42  -21.0184 26059.1 -03382.2 -07.3950 26277.6
 04 01 2013  21 43  -21.0180 26059.1 -03382.3 -07.3953 26277.7
 04 01 2013  21 44  -21.0175 26059.0 -03382.4 -07.3955 26277.6
 04 01 2013  21 45  -21.0172 26059.1 -03382.6 -07.3958 26277.7
 04 01 2013  21 46  -21.0169 26058.9 -03382.6 -07.3960 26277.5
 04 01 2013  21 47  -21.0165 26058.8 -03382.6 -07.3960 26277.4
 04 01 2013  21 48  -21.0162 26058.8 -03382.7 -07.3963 26277.4
 04 01 2013  21 49  -21.0159 26058.6 -03382.8 -07.3964 26277.3
 04 01 2013  21 50  -21.0156 26058.7 -03382.9 -07.3966 26277.4
 04 01 2013  21 51  -21.0153 26058.6 -03383.0 -07.3968 26277.2
 04 01 2013  21 52  -21.0152 26058.5 -03383.0 -07.3970 26277.2
 04 01 2013  21 53  -21.0149 26058.6 -03383.2 -07.3973 26277.3
 04 01 2013  21 54  -21.0145 26058.4 -03383.2 -07.3973 26277.1
 04 01 2013  21 55  -21.0142 26058.4 -03383.2 -07.3975 26277.1
 04 01 2013  21 56  -21.0140 26058.4 -03383.4 -07.3977 26277.1
 04 01 2013  21 57  -21.0138 26058.3 -03383.4 -07.3979 26277.0
 04 01 2013  21 58  -21.0136 26058.3 -03383.5 -07.3980 26277.0
 04 01 2013  21 59  -21.0137 26058.5 -03383.7 -07.3984 26277.2
 04 01 2013  22 00  -21.0136 26058.2 -03383.7 -07.3984 26277.0
 04 01 2013  22 01  -21.0136 26058.3 -03383.7 -07.3985 26277.1
 04 01 2013  22 02  -21.0136 26058.4 -03383.9 -07.3989 26277.2
 04 01 2013  22 03  -21.0134 26058.3 -03383.9 -07.3990 26277.1
 04 01 2013  22 04  -21.0131 26058.4 -03384.0 -07.3991 26277.2
 04 01 2013  22 05  -21.0130 26058.3 -03384.1 -07.3993 26277.2
 04 01 2013  22 06  -21.0129 26058.3 -03384.1 -07.3993 26277.1
 04 01 2013  22 07  -21.0129 26058.2 -03384.1 -07.3995 26277.1
 04 01 2013  22 08  -21.0127 26058.2 -03384.2 -07.3996 26277.0
 04 01 2013  22 09  -21.0125 26058.3 -03384.3 -07.3998 26277.1
 04 01 2013  22 10  -21.0128 26058.2 -03384.3 -07.3999 26277.0
 04 01 2013  22 11  -21.0130 26058.2 -03384.4 -07.4001 26277.1
 04 01 2013  22 12  -21.0131 26058.3 -03384.5 -07.4002 26277.2
 04 01 2013  22 13  -21.0131 26058.4 -03384.6 -07.4004 26277.3
 04 01 2013  22 14  -21.0133 26058.4 -03384.6 -07.4005 26277.3
 04 01 2013  22 15  -21.0134 26058.4 -03384.7 -07.4006 26277.3
 04 01 2013  22 16  -21.0131 26058.5 -03384.7 -07.4007 26277.4
 04 01 2013  22 17  -21.0130 26058.5 -03384.8 -07.4009 26277.4
 04 01 2013  22 18  -21.0127 26058.4 -03384.8 -07.4008 26277.3
 04 01 2013  22 19  -21.0125 26058.4 -03384.8 -07.4009 26277.3
 04 01 2013  22 20  -21.0123 26058.5 -03384.9 -07.4010 26277.4
 04 01 2013  22 21  -21.0120 26058.2 -03384.8 -07.4009 26277.1
 04 01 2013  22 22  -21.0118 26058.1 -03384.8 -07.4009 26277.1
 04 01 2013  22 23  -21.0120 26058.3 -03384.9 -07.4012 26277.3
 04 01 2013  22 24  -21.0117 26058.2 -03384.9 -07.4012 26277.1
 04 01 2013  22 25  -21.0115 26058.1 -03384.9 -07.4012 26277.1
 04 01 2013  22 26  -21.0111 26058.2 -03385.0 -07.4013 26277.1
 04 01 2013  22 27  -21.0109 26058.0 -03385.0 -07.4013 26277.0
 04 01 2013  22 28  -21.0106 26057.9 -03384.9 -07.4013 26276.8
 04 01 2013  22 29  -21.0103 26058.0 -03385.0 -07.4015 26276.9
 04 01 2013  22 30  -21.0095 26058.2 -03385.2 -07.4018 26277.2
 04 01 2013  22 31  -21.0092 26058.1 -03385.2 -07.4019 26277.1
 04 01 2013  22 32  -21.0092 26058.1 -03385.3 -07.4020 26277.1
 04 01 2013  22 33  -21.0093 26058.1 -03385.3 -07.4021 26277.1
 04 01 2013  22 34  -21.0094 26058.1 -03385.4 -07.4023 26277.1
 04 01 2013  22 35  -21.0092 26058.2 -03385.5 -07.4024 26277.2
 04 01 2013  22 36  -21.0088 26058.2 -03385.5 -07.4024 26277.2
 04 01 2013  22 37  -21.0082 26058.1 -03385.5 -07.4024 26277.1
 04 01 2013  22 38  -21.0078 26058.1 -03385.5 -07.4024 26277.1
 04 01 2013  22 39  -21.0075 26058.2 -03385.6 -07.4026 26277.2
 04 01 2013  22 40  -21.0071 26058.0 -03385.5 -07.4025 26277.0
 04 01 2013  22 41  -21.0066 26058.0 -03385.6 -07.4026 26277.0
 04 01 2013  22 42  -21.0067 26058.2 -03385.7 -07.4029 26277.2
 04 01 2013  22 43  -21.0069 26057.9 -03385.7 -07.4029 26276.9
 04 01 2013  22 44  -21.0070 26057.8 -03385.6 -07.4028 26276.8
 04 01 2013  22 45  -21.0069 26057.6 -03385.6 -07.4028 26276.6
 04 01 2013  22 46  -21.0064 26057.5 -03385.6 -07.4027 26276.5
 04 01 2013  22 47  -21.0058 26057.6 -03385.6 -07.4029 26276.7
 04 01 2013  22 48  -21.0055 26057.6 -03385.7 -07.4030 26276.7
 04 01 2013  22 49  -21.0053 26057.5 -03385.7 -07.4031 26276.6
 04 01 2013  22 50  -21.0052 26057.5 -03385.8 -07.4032 26276.6
 04 01 2013  22 51  -21.0048 26057.6 -03385.8 -07.4033 26276.6
 04 01 2013  22 52  -21.0042 26057.7 -03385.9 -07.4034 26276.8
 04 01 2013  22 53  -21.0041 26058.0 -03386.1 -07.4037 26277.1
 04 01 2013  22 54  -21.0043 26058.2 -03386.3 -07.4041 26277.3
 04 01 2013  22 55  -21.0046 26058.1 -03386.3 -07.4042 26277.3
 04 01 2013  22 56  -21.0047 26058.1 -03386.3 -07.4042 26277.2
 04 01 2013  22 57  -21.0051 26058.2 -03386.4 -07.4043 26277.3
 04 01 2013  22 58  -21.0053 26058.0 -03386.3 -07.4042 26277.1
 04 01 2013  22 59  -21.0053 26057.8 -03386.2 -07.4040 26276.9
 04 01 2013  23 00  -21.0050 26057.5 -03386.0 -07.4037 26276.6
 04 01 2013  23 01  -21.0046 26057.6 -03386.0 -07.4037 26276.7
 04 01 2013  23 02  -21.0046 26057.8 -03386.1 -07.4039 26276.9
 04 01 2013  23 03  -21.0047 26057.9 -03386.2 -07.4041 26277.0
 04 01 2013  23 04  -21.0051 26058.0 -03386.3 -07.4042 26277.1
 04 01 2013  23 05  -21.0057 26058.0 -03386.4 -07.4044 26277.1
 04 01 2013  23 06  -21.0062 26058.0 -03386.4 -07.4044 26277.1
 04 01 2013  23 07  -21.0063 26058.1 -03386.4 -07.4043 26277.2
 04 01 2013  23 08  -21.0065 26058.0 -03386.3 -07.4043 26277.1
 04 01 2013  23 09  -21.0065 26057.9 -03386.2 -07.4041 26277.0
 04 01 2013  23 10  -21.0062 26057.8 -03386.2 -07.4040 26276.9
 04 01 2013  23 11  -21.0062 26057.8 -03386.2 -07.4040 26276.9
 04 01 2013  23 12  -21.0059 26058.0 -03386.2 -07.4041 26277.1
 04 01 2013  23 13  -21.0053 26058.2 -03386.3 -07.4042 26277.3
 04 01 2013  23 14  -21.0055 26058.4 -03386.5 -07.4045 26277.6
 04 01 2013  23 15  -21.0057 26058.6 -03386.6 -07.4048 26277.8
 04 01 2013  23 16  -21.0058 26058.6 -03386.6 -07.4048 26277.8
 04 01 2013  23 17  -21.0056 26058.7 -03386.7 -07.4048 26277.9
 04 01 2013  23 18  -21.0062 26058.9 -03386.8 -07.4051 26278.1
 04 01 2013  23 19  -21.0068 26058.7 -03386.7 -07.4050 26277.9
 04 01 2013  23 20  -21.0065 26058.7 -03386.7 -07.4048 26277.9
 04 01 2013  23 21  -21.0056 26058.7 -03386.6 -07.4047 26277.9
 04 01 2013  23 22  -21.0054 26058.8 -03386.6 -07.4047 26277.9
 04 01 2013  23 23  -21.0057 26058.9 -03386.7 -07.4048 26278.0
 04 01 2013  23 24  -21.0061 26058.8 -03386.7 -07.4048 26278.0
 04 01 2013  23 25  -21.0067 26058.7 -03386.6 -07.4048 26277.8
 04 01 2013  23 26  -21.0071 26058.5 -03386.5 -07.4046 26277.6
 04 01 2013  23 27  -21.0063 26058.6 -03386.5 -07.4044 26277.7
 04 01 2013  23 28  -21.0062 26058.5 -03386.4 -07.4043 26277.6
 04 01 2013  23 29  -21.0069 26058.5 -03386.4 -07.4044 26277.6
 04 01 2013  23 30  -21.0076 26058.5 -03386.5 -07.4046 26277.7
 04 01 2013  23 31  -21.0078 26058.7 -03386.6 -07.4046 26277.8
 04 01 2013  23 32  -21.0076 26058.7 -03386.5 -07.4045 26277.8
 04 01 2013  23 33  -21.0069 26058.6 -03386.5 -07.4044 26277.7
 04 01 2013  23 34  -21.0060 26058.4 -03386.3 -07.4041 26277.6
 04 01 2013  23 35  -21.0056 26058.1 -03386.2 -07.4039 26277.2
 04 01 2013  23 36  -21.0054 26058.1 -03386.2 -07.4039 26277.2
 04 01 2013  23 37  -21.0053 26058.2 -03386.3 -07.4041 26277.3
 04 01 2013  23 38  -21.0050 26058.3 -03386.4 -07.4043 26277.4
 04 01 2013  23 39  -21.0049 26058.4 -03386.5 -07.4045 26277.5
 04 01 2013  23 40  -21.0049 26058.4 -03386.5 -07.4046 26277.6
 04 01 2013  23 41  -21.0047 26058.4 -03386.6 -07.4047 26277.5
 04 01 2013  23 42  -21.0048 26058.5 -03386.6 -07.4048 26277.6
 04 01 2013  23 43  -21.0051 26058.6 -03386.7 -07.4049 26277.7
 04 01 2013  23 44  -21.0053 26058.4 -03386.7 -07.4049 26277.6
 04 01 2013  23 45  -21.0055 26058.4 -03386.7 -07.4049 26277.5
 04 01 2013  23 46  -21.0057 26058.4 -03386.7 -07.4049 26277.6
 04 01 2013  23 47  -21.0058 26058.4 -03386.7 -07.4049 26277.5
 04 01 2013  23 48  -21.0057 26058.4 -03386.7 -07.4049 26277.5
 04 01 2013  23 49  -21.0057 26058.5 -03386.7 -07.4050 26277.7
 04 01 2013  23 50  -21.0054 26058.4 -03386.7 -07.4050 26277.6
 04 01 2013  23 51  -21.0053 26058.5 -03386.7 -07.4050 26277.6
 04 01 2013  23 52  -21.0055 26058.4 -03386.7 -07.4051 26277.6
 04 01 2013  23 53  -21.0056 26058.2 -03386.6 -07.4049 26277.3
 04 01 2013  23 54  -21.0057 26058.1 -03386.6 -07.4048 26277.3
 04 01 2013  23 55  -21.0058 26058.1 -03386.6 -07.4049 26277.3
 04 01 2013  23 56  -21.0060 26058.1 -03386.7 -07.4049 26277.3
 04 01 2013  23 57  -21.0063 26058.1 -03386.7 -07.4050 26277.2
 04 01 2013  23 58  -21.0065 26058.0 -03386.6 -07.4049 26277.1
