SAO LUIS EMBRACE-03 <340> 1 Min. Reported data

 DD MM YYYY  HH MM   D(Deg)  H(nT)   Z(nT)   I(Deg)   F(nT)

 06 12 2013  00 00  -21.0093 26023.9 -03514.1 -07.6903 26260.0
 06 12 2013  00 01  -21.0093 26023.8 -03514.1 -07.6904 26260.0
 06 12 2013  00 02  -21.0093 26023.8 -03514.1 -07.6903 26260.0
 06 12 2013  00 03  -21.0094 26023.8 -03514.1 -07.6904 26260.0
 06 12 2013  00 04  -21.0094 26023.8 -03514.1 -07.6904 26260.0
 06 12 2013  00 05  -21.0093 26023.9 -03514.1 -07.6904 26260.1
 06 12 2013  00 06  -21.0093 26023.9 -03514.2 -07.6905 26260.1
 06 12 2013  00 07  -21.0093 26023.9 -03514.2 -07.6905 26260.1
 06 12 2013  00 08  -21.0092 26023.9 -03514.2 -07.6905 26260.1
 06 12 2013  00 09  -21.0092 26023.8 -03514.2 -07.6906 26260.0
 06 12 2013  00 10  -21.0092 26023.9 -03514.2 -07.6906 26260.1
 06 12 2013  00 11  -21.0091 26023.9 -03514.2 -07.6906 26260.1
 06 12 2013  00 12  -21.0090 26023.9 -03514.2 -07.6906 26260.1
 06 12 2013  00 13  -21.0090 26023.9 -03514.3 -07.6907 26260.1
 06 12 2013  00 14  -21.0088 26023.9 -03514.3 -07.6907 26260.1
 06 12 2013  00 15  -21.0089 26023.9 -03514.3 -07.6908 26260.1
 06 12 2013  00 16  -21.0089 26023.9 -03514.3 -07.6907 26260.1
 06 12 2013  00 17  -21.0090 26023.9 -03514.3 -07.6907 26260.1
 06 12 2013  00 18  -21.0090 26023.9 -03514.3 -07.6907 26260.1
 06 12 2013  00 19  -21.0090 26023.9 -03514.3 -07.6908 26260.1
 06 12 2013  00 20  -21.0090 26023.9 -03514.3 -07.6908 26260.1
 06 12 2013  00 21  -21.0090 26023.9 -03514.4 -07.6909 26260.2
 06 12 2013  00 22  -21.0090 26024.0 -03514.4 -07.6909 26260.2
 06 12 2013  00 23  -21.0089 26023.9 -03514.4 -07.6909 26260.2
 06 12 2013  00 24  -21.0088 26024.0 -03514.4 -07.6909 26260.2
 06 12 2013  00 25  -21.0088 26024.0 -03514.4 -07.6910 26260.2
 06 12 2013  00 26  -21.0088 26024.0 -03514.4 -07.6910 26260.2
 06 12 2013  00 27  -21.0087 26024.0 -03514.4 -07.6910 26260.3
 06 12 2013  00 28  -21.0088 26024.1 -03514.4 -07.6910 26260.3
 06 12 2013  00 29  -21.0088 26024.1 -03514.5 -07.6911 26260.3
 06 12 2013  00 30  -21.0087 26024.1 -03514.5 -07.6911 26260.4
 06 12 2013  00 31  -21.0086 26024.2 -03514.5 -07.6910 26260.4
 06 12 2013  00 32  -21.0085 26024.3 -03514.5 -07.6911 26260.5
 06 12 2013  00 33  -21.0085 26024.3 -03514.5 -07.6911 26260.6
 06 12 2013  00 34  -21.0085 26024.4 -03514.5 -07.6911 26260.6
 06 12 2013  00 35  -21.0084 26024.4 -03514.6 -07.6912 26260.7
 06 12 2013  00 36  -21.0085 26024.5 -03514.6 -07.6912 26260.7
 06 12 2013  00 37  -21.0085 26024.5 -03514.6 -07.6912 26260.7
 06 12 2013  00 38  -21.0085 26024.5 -03514.6 -07.6912 26260.7
 06 12 2013  00 39  -21.0085 26024.5 -03514.6 -07.6912 26260.8
 06 12 2013  00 40  -21.0084 26024.6 -03514.6 -07.6912 26260.8
 06 12 2013  00 41  -21.0083 26024.6 -03514.6 -07.6912 26260.9
 06 12 2013  00 42  -21.0081 26024.7 -03514.6 -07.6912 26261.0
 06 12 2013  00 43  -21.0080 26024.8 -03514.7 -07.6913 26261.1
 06 12 2013  00 44  -21.0079 26024.9 -03514.7 -07.6914 26261.2
 06 12 2013  00 45  -21.0076 26025.0 -03514.7 -07.6914 26261.2
 06 12 2013  00 46  -21.0075 26025.1 -03514.8 -07.6915 26261.4
 06 12 2013  00 47  -21.0073 26025.2 -03514.8 -07.6915 26261.5
 06 12 2013  00 48  -21.0071 26025.3 -03514.8 -07.6915 26261.6
 06 12 2013  00 49  -21.0070 26025.4 -03514.9 -07.6916 26261.7
 06 12 2013  00 50  -21.0067 26025.5 -03514.9 -07.6916 26261.8
 06 12 2013  00 51  -21.0064 26025.6 -03514.9 -07.6916 26261.9
 06 12 2013  00 52  -21.0061 26025.7 -03515.0 -07.6917 26262.0
 06 12 2013  00 53  -21.0058 26025.7 -03515.0 -07.6917 26262.0
 06 12 2013  00 54  -21.0054 26025.9 -03515.0 -07.6917 26262.2
 06 12 2013  00 55  -21.0052 26026.0 -03515.1 -07.6918 26262.3
 06 12 2013  00 56  -21.0049 26026.1 -03515.1 -07.6918 26262.4
 06 12 2013  00 57  -21.0046 26026.1 -03515.1 -07.6919 26262.4
 06 12 2013  00 58  -21.0044 26026.2 -03515.1 -07.6919 26262.5
 06 12 2013  00 59  -21.0042 26026.2 -03515.1 -07.6919 26262.5
 06 12 2013  01 00  -21.0041 26026.2 -03515.1 -07.6919 26262.5
 06 12 2013  01 01  -21.0040 26026.2 -03515.1 -07.6919 26262.5
 06 12 2013  01 02  -21.0039 26026.1 -03515.1 -07.6918 26262.5
 06 12 2013  01 03  -21.0038 26026.1 -03515.1 -07.6917 26262.4
 06 12 2013  01 04  -21.0039 26026.0 -03515.0 -07.6916 26262.3
 06 12 2013  01 05  -21.0039 26025.8 -03514.9 -07.6915 26262.1
 06 12 2013  01 06  -21.0038 26025.7 -03514.9 -07.6914 26262.0
 06 12 2013  01 07  -21.0037 26025.7 -03514.8 -07.6913 26262.0
 06 12 2013  01 08  -21.0037 26025.6 -03514.8 -07.6913 26261.8
 06 12 2013  01 09  -21.0035 26025.5 -03514.7 -07.6911 26261.8
 06 12 2013  01 10  -21.0035 26025.4 -03514.7 -07.6911 26261.7
 06 12 2013  01 11  -21.0033 26025.3 -03514.7 -07.6911 26261.6
 06 12 2013  01 12  -21.0032 26025.2 -03514.6 -07.6909 26261.4
 06 12 2013  01 13  -21.0031 26025.0 -03514.5 -07.6908 26261.2
 06 12 2013  01 14  -21.0031 26024.9 -03514.4 -07.6908 26261.1
 06 12 2013  01 15  -21.0029 26024.7 -03514.4 -07.6906 26260.9
 06 12 2013  01 16  -21.0029 26024.6 -03514.3 -07.6906 26260.8
 06 12 2013  01 17  -21.0028 26024.5 -03514.3 -07.6906 26260.7
 06 12 2013  01 18  -21.0028 26024.4 -03514.3 -07.6906 26260.6
 06 12 2013  01 19  -21.0030 26024.2 -03514.2 -07.6905 26260.4
 06 12 2013  01 20  -21.0030 26024.1 -03514.2 -07.6905 26260.3
 06 12 2013  01 21  -21.0033 26024.1 -03514.2 -07.6906 26260.3
 06 12 2013  01 22  -21.0035 26024.2 -03514.3 -07.6907 26260.4
 06 12 2013  01 23  -21.0037 26024.2 -03514.4 -07.6908 26260.4
 06 12 2013  01 24  -21.0040 26024.4 -03514.5 -07.6909 26260.6
 06 12 2013  01 25  -21.0040 26024.5 -03514.5 -07.6910 26260.8
 06 12 2013  01 26  -21.0042 26024.7 -03514.6 -07.6911 26261.0
 06 12 2013  01 27  -21.0043 26025.0 -03514.7 -07.6913 26261.3
 06 12 2013  01 28  -21.0046 26025.4 -03514.8 -07.6915 26261.6
 06 12 2013  01 29  -21.0048 26025.7 -03515.0 -07.6918 26262.0
 06 12 2013  01 30  -21.0050 26026.1 -03515.1 -07.6919 26262.4
 06 12 2013  01 31  -21.0051 26026.5 -03515.3 -07.6921 26262.8
 06 12 2013  01 32  -21.0050 26026.9 -03515.4 -07.6922 26263.2
 06 12 2013  01 33  -21.0051 26027.3 -03515.5 -07.6924 26263.6
 06 12 2013  01 34  -21.0049 26027.9 -03515.7 -07.6925 26264.2
 06 12 2013  01 35  -21.0048 26028.5 -03515.9 -07.6928 26264.9
 06 12 2013  01 36  -21.0044 26028.9 -03516.0 -07.6930 26265.3
 06 12 2013  01 37  -21.0042 26029.3 -03516.1 -07.6930 26265.7
 06 12 2013  01 38  -21.0037 26029.6 -03516.1 -07.6930 26266.0
 06 12 2013  01 39  -21.0034 26029.8 -03516.0 -07.6928 26266.1
 06 12 2013  01 40  -21.0027 26029.9 -03516.0 -07.6926 26266.2
 06 12 2013  01 41  -21.0021 26029.9 -03515.9 -07.6924 26266.3
 06 12 2013  01 42  -21.0015 26029.9 -03515.8 -07.6922 26266.3
 06 12 2013  01 43  -21.0009 26029.9 -03515.7 -07.6921 26266.3
 06 12 2013  01 44  -21.0001 26030.0 -03515.7 -07.6920 26266.3
 06 12 2013  01 45  -20.9995 26029.8 -03515.6 -07.6918 26266.2
 06 12 2013  01 46  -20.9991 26029.5 -03515.4 -07.6915 26265.8
 06 12 2013  01 47  -20.9988 26029.2 -03515.3 -07.6913 26265.5
 06 12 2013  01 48  -20.9984 26029.0 -03515.2 -07.6911 26265.3
 06 12 2013  01 49  -20.9981 26028.9 -03515.1 -07.6910 26265.1
 06 12 2013  01 50  -20.9980 26028.8 -03515.1 -07.6910 26265.0
 06 12 2013  01 51  -20.9978 26028.6 -03515.0 -07.6910 26264.9
 06 12 2013  01 52  -20.9978 26028.5 -03515.0 -07.6910 26264.7
 06 12 2013  01 53  -20.9979 26028.3 -03515.0 -07.6909 26264.5
 06 12 2013  01 54  -20.9980 26028.1 -03514.9 -07.6909 26264.4
 06 12 2013  01 55  -20.9984 26028.0 -03514.9 -07.6908 26264.3
 06 12 2013  01 56  -20.9987 26028.0 -03515.0 -07.6910 26264.3
 06 12 2013  01 57  -20.9991 26027.9 -03514.9 -07.6910 26264.2
 06 12 2013  01 58  -20.9993 26027.9 -03515.0 -07.6910 26264.2
 06 12 2013  01 59  -20.9997 26027.9 -03515.0 -07.6911 26264.1
 06 12 2013  02 00  -20.9999 26027.9 -03515.0 -07.6911 26264.1
 06 12 2013  02 01  -21.0000 26027.9 -03515.0 -07.6911 26264.1
 06 12 2013  02 02  -21.0002 26027.8 -03515.0 -07.6911 26264.1
 06 12 2013  02 03  -21.0003 26027.7 -03514.9 -07.6910 26264.0
 06 12 2013  02 04  -21.0002 26027.6 -03514.9 -07.6910 26263.8
 06 12 2013  02 05  -21.0002 26027.5 -03514.8 -07.6908 26263.7
 06 12 2013  02 06  -21.0002 26027.3 -03514.8 -07.6908 26263.6
 06 12 2013  02 07  -21.0002 26027.3 -03514.8 -07.6908 26263.5
 06 12 2013  02 08  -21.0002 26027.2 -03514.8 -07.6908 26263.5
 06 12 2013  02 09  -21.0003 26027.2 -03514.8 -07.6908 26263.4
 06 12 2013  02 10  -21.0005 26027.1 -03514.8 -07.6909 26263.3
 06 12 2013  02 11  -21.0008 26027.1 -03514.8 -07.6910 26263.4
 06 12 2013  02 12  -21.0011 26027.1 -03514.9 -07.6910 26263.4
 06 12 2013  02 13  -21.0015 26027.2 -03514.9 -07.6911 26263.4
 06 12 2013  02 14  -21.0018 26027.1 -03514.9 -07.6912 26263.4
 06 12 2013  02 15  -21.0020 26027.1 -03514.9 -07.6910 26263.4
 06 12 2013  02 16  -21.0023 26027.1 -03514.9 -07.6911 26263.3
 06 12 2013  02 17  -21.0026 26027.1 -03514.9 -07.6910 26263.4
 06 12 2013  02 18  -21.0028 26027.1 -03514.8 -07.6910 26263.3
 06 12 2013  02 19  -21.0030 26027.0 -03514.8 -07.6910 26263.3
 06 12 2013  02 20  -21.0034 26027.0 -03514.8 -07.6909 26263.2
 06 12 2013  02 21  -21.0037 26026.9 -03514.8 -07.6910 26263.2
 06 12 2013  02 22  -21.0040 26026.8 -03514.7 -07.6908 26263.1
 06 12 2013  02 23  -21.0042 26026.8 -03514.7 -07.6907 26263.0
 06 12 2013  02 24  -21.0044 26026.7 -03514.6 -07.6906 26262.9
 06 12 2013  02 25  -21.0046 26026.6 -03514.6 -07.6905 26262.9
 06 12 2013  02 26  -21.0046 26026.7 -03514.6 -07.6906 26262.9
 06 12 2013  02 27  -21.0047 26026.7 -03514.5 -07.6905 26262.9
 06 12 2013  02 28  -21.0048 26026.6 -03514.5 -07.6905 26262.8
 06 12 2013  02 29  -21.0050 26026.6 -03514.6 -07.6905 26262.9
 06 12 2013  02 30  -21.0049 26026.6 -03514.5 -07.6904 26262.8
 06 12 2013  02 31  -21.0049 26026.6 -03514.5 -07.6905 26262.8
 06 12 2013  02 32  -21.0049 26026.8 -03514.6 -07.6906 26263.0
 06 12 2013  02 33  -21.0050 26026.9 -03514.7 -07.6908 26263.1
 06 12 2013  02 34  -21.0049 26026.9 -03514.8 -07.6908 26263.2
 06 12 2013  02 35  -21.0049 26027.0 -03514.8 -07.6909 26263.2
 06 12 2013  02 36  -21.0049 26027.1 -03514.8 -07.6910 26263.4
 06 12 2013  02 37  -21.0050 26027.0 -03514.8 -07.6909 26263.2
 06 12 2013  02 38  -21.0051 26026.9 -03514.7 -07.6908 26263.1
 06 12 2013  02 39  -21.0052 26026.8 -03514.7 -07.6907 26263.0
 06 12 2013  02 40  -21.0054 26026.6 -03514.6 -07.6906 26262.8
 06 12 2013  02 41  -21.0053 26026.5 -03514.5 -07.6905 26262.7
 06 12 2013  02 42  -21.0053 26026.5 -03514.5 -07.6905 26262.8
 06 12 2013  02 43  -21.0053 26026.6 -03514.6 -07.6905 26262.8
 06 12 2013  02 44  -21.0054 26026.4 -03514.5 -07.6905 26262.6
 06 12 2013  02 45  -21.0057 26026.1 -03514.4 -07.6903 26262.3
 06 12 2013  02 46  -21.0059 26025.8 -03514.3 -07.6901 26262.0
 06 12 2013  02 47  -21.0058 26025.5 -03514.1 -07.6899 26261.7
 06 12 2013  02 48  -21.0059 26025.3 -03514.0 -07.6897 26261.4
 06 12 2013  02 49  -21.0058 26025.1 -03513.9 -07.6896 26261.2
 06 12 2013  02 50  -21.0059 26024.9 -03513.9 -07.6895 26261.1
 06 12 2013  02 51  -21.0059 26024.9 -03513.8 -07.6894 26261.0
 06 12 2013  02 52  -21.0061 26024.9 -03513.9 -07.6896 26261.0
 06 12 2013  02 53  -21.0063 26025.0 -03514.0 -07.6898 26261.2
 06 12 2013  02 54  -21.0064 26025.1 -03514.1 -07.6899 26261.3
 06 12 2013  02 55  -21.0064 26025.1 -03514.1 -07.6901 26261.3
 06 12 2013  02 56  -21.0065 26025.1 -03514.1 -07.6900 26261.3
 06 12 2013  02 57  -21.0067 26025.1 -03514.2 -07.6901 26261.3
 06 12 2013  02 58  -21.0068 26025.1 -03514.2 -07.6901 26261.3
 06 12 2013  02 59  -21.0070 26025.2 -03514.2 -07.6902 26261.4
 06 12 2013  03 00  -21.0073 26025.2 -03514.3 -07.6903 26261.4
 06 12 2013  03 01  -21.0073 26025.4 -03514.3 -07.6903 26261.6
 06 12 2013  03 02  -21.0074 26025.4 -03514.3 -07.6903 26261.6
 06 12 2013  03 03  -21.0076 26025.4 -03514.3 -07.6903 26261.6
 06 12 2013  03 04  -21.0076 26025.4 -03514.3 -07.6903 26261.6
 06 12 2013  03 05  -21.0076 26025.4 -03514.3 -07.6903 26261.6
 06 12 2013  03 06  -21.0077 26025.5 -03514.3 -07.6903 26261.7
 06 12 2013  03 07  -21.0076 26025.6 -03514.3 -07.6904 26261.8
 06 12 2013  03 08  -21.0078 26025.6 -03514.4 -07.6904 26261.8
 06 12 2013  03 09  -21.0078 26025.6 -03514.4 -07.6904 26261.8
 06 12 2013  03 10  -21.0078 26025.6 -03514.3 -07.6904 26261.8
 06 12 2013  03 11  -21.0077 26025.6 -03514.3 -07.6903 26261.8
 06 12 2013  03 12  -21.0078 26025.6 -03514.4 -07.6904 26261.8
 06 12 2013  03 13  -21.0077 26025.6 -03514.3 -07.6903 26261.8
 06 12 2013  03 14  -21.0079 26025.6 -03514.4 -07.6904 26261.8
 06 12 2013  03 15  -21.0079 26025.6 -03514.4 -07.6904 26261.8
 06 12 2013  03 16  -21.0078 26025.6 -03514.4 -07.6904 26261.8
 06 12 2013  03 17  -21.0077 26025.6 -03514.4 -07.6904 26261.9
 06 12 2013  03 18  -21.0077 26025.7 -03514.4 -07.6905 26261.9
 06 12 2013  03 19  -21.0078 26025.7 -03514.5 -07.6906 26262.0
 06 12 2013  03 20  -21.0078 26025.8 -03514.5 -07.6907 26262.0
 06 12 2013  03 21  -21.0079 26025.8 -03514.5 -07.6907 26262.0
 06 12 2013  03 22  -21.0077 26025.7 -03514.5 -07.6907 26262.0
 06 12 2013  03 23  -21.0076 26025.6 -03514.5 -07.6906 26261.9
 06 12 2013  03 24  -21.0075 26025.5 -03514.4 -07.6906 26261.8
 06 12 2013  03 25  -21.0077 26025.6 -03514.4 -07.6905 26261.8
 06 12 2013  03 26  -21.0077 26025.6 -03514.5 -07.6906 26261.8
 06 12 2013  03 27  -21.0077 26025.7 -03514.5 -07.6908 26261.9
 06 12 2013  03 28  -21.0078 26025.7 -03514.6 -07.6909 26262.0
 06 12 2013  03 29  -21.0077 26025.7 -03514.6 -07.6908 26261.9
 06 12 2013  03 30  -21.0076 26025.8 -03514.6 -07.6908 26262.1
 06 12 2013  03 31  -21.0075 26025.9 -03514.7 -07.6910 26262.2
 06 12 2013  03 32  -21.0073 26026.0 -03514.7 -07.6910 26262.3
 06 12 2013  03 33  -21.0074 26026.2 -03514.8 -07.6912 26262.5
 06 12 2013  03 34  -21.0074 26026.3 -03514.9 -07.6913 26262.5
 06 12 2013  03 35  -21.0073 26026.4 -03514.9 -07.6914 26262.7
 06 12 2013  03 36  -21.0073 26026.4 -03514.9 -07.6914 26262.7
 06 12 2013  03 37  -21.0075 26026.5 -03515.0 -07.6915 26262.8
 06 12 2013  03 38  -21.0073 26026.7 -03515.1 -07.6916 26263.0
 06 12 2013  03 39  -21.0073 26026.8 -03515.1 -07.6917 26263.1
 06 12 2013  03 40  -21.0073 26027.0 -03515.2 -07.6918 26263.3
 06 12 2013  03 41  -21.0073 26027.1 -03515.2 -07.6918 26263.4
 06 12 2013  03 42  -21.0072 26027.3 -03515.3 -07.6918 26263.6
 06 12 2013  03 43  -21.0074 26027.5 -03515.3 -07.6920 26263.8
 06 12 2013  03 44  -21.0075 26027.6 -03515.4 -07.6921 26263.9
 06 12 2013  03 45  -21.0074 26027.7 -03515.4 -07.6920 26264.0
 06 12 2013  03 46  -21.0076 26027.7 -03515.4 -07.6920 26264.0
 06 12 2013  03 47  -21.0074 26028.0 -03515.5 -07.6922 26264.3
 06 12 2013  03 48  -21.0070 26027.9 -03515.5 -07.6921 26264.3
 06 12 2013  03 49  -21.0068 26027.9 -03515.4 -07.6920 26264.2
 06 12 2013  03 50  -21.0067 26027.9 -03515.5 -07.6921 26264.3
 06 12 2013  03 51  -21.0067 26028.0 -03515.5 -07.6921 26264.3
 06 12 2013  03 52  -21.0066 26028.1 -03515.5 -07.6921 26264.4
 06 12 2013  03 53  -21.0066 26028.2 -03515.6 -07.6922 26264.5
 06 12 2013  03 54  -21.0067 26028.4 -03515.7 -07.6924 26264.7
 06 12 2013  03 55  -21.0066 26028.5 -03515.7 -07.6924 26264.9
 06 12 2013  03 56  -21.0064 26028.5 -03515.7 -07.6925 26264.9
 06 12 2013  03 57  -21.0065 26028.5 -03515.7 -07.6924 26264.9
 06 12 2013  03 58  -21.0062 26028.5 -03515.7 -07.6924 26264.9
 06 12 2013  03 59  -21.0063 26028.5 -03515.7 -07.6924 26264.9
 06 12 2013  04 00  -21.0061 26028.6 -03515.7 -07.6923 26265.0
 06 12 2013  04 01  -21.0063 26028.7 -03515.7 -07.6924 26265.0
 06 12 2013  04 02  -21.0062 26028.6 -03515.6 -07.6922 26264.9
 06 12 2013  04 03  -21.0063 26028.4 -03515.5 -07.6921 26264.7
 06 12 2013  04 04  -21.0063 26028.3 -03515.5 -07.6920 26264.7
 06 12 2013  04 05  -21.0060 26028.1 -03515.3 -07.6917 26264.4
 06 12 2013  04 06  -21.0055 26027.9 -03515.2 -07.6915 26264.2
 06 12 2013  04 07  -21.0049 26027.6 -03515.1 -07.6913 26263.9
 06 12 2013  04 08  -21.0046 26027.5 -03515.0 -07.6913 26263.8
 06 12 2013  04 09  -21.0042 26027.5 -03515.1 -07.6913 26263.8
 06 12 2013  04 10  -21.0037 26027.5 -03515.1 -07.6913 26263.8
 06 12 2013  04 11  -21.0035 26027.6 -03515.1 -07.6915 26263.9
 06 12 2013  04 12  -21.0035 26027.6 -03515.3 -07.6917 26264.0
 06 12 2013  04 13  -21.0035 26027.8 -03515.4 -07.6919 26264.1
 06 12 2013  04 14  -21.0034 26027.9 -03515.4 -07.6920 26264.2
 06 12 2013  04 15  -21.0035 26028.1 -03515.6 -07.6924 26264.5
 06 12 2013  04 16  -21.0034 26028.3 -03515.8 -07.6926 26264.7
 06 12 2013  04 17  -21.0036 26028.4 -03515.9 -07.6928 26264.8
 06 12 2013  04 18  -21.0041 26028.3 -03515.8 -07.6928 26264.7
 06 12 2013  04 19  -21.0043 26028.3 -03515.8 -07.6927 26264.6
 06 12 2013  04 20  -21.0043 26028.2 -03515.7 -07.6926 26264.6
 06 12 2013  04 21  -21.0045 26028.3 -03515.8 -07.6926 26264.7
 06 12 2013  04 22  -21.0045 26028.4 -03515.8 -07.6927 26264.8
 06 12 2013  04 23  -21.0046 26028.5 -03515.8 -07.6927 26264.9
 06 12 2013  04 24  -21.0046 26028.6 -03515.8 -07.6927 26265.0
 06 12 2013  04 25  -21.0045 26028.5 -03515.9 -07.6928 26264.9
 06 12 2013  04 26  -21.0044 26028.5 -03515.8 -07.6926 26264.9
 06 12 2013  04 27  -21.0043 26028.3 -03515.7 -07.6925 26264.7
 06 12 2013  04 28  -21.0042 26028.2 -03515.6 -07.6924 26264.6
 06 12 2013  04 29  -21.0040 26028.2 -03515.6 -07.6923 26264.6
 06 12 2013  04 30  -21.0041 26028.2 -03515.7 -07.6924 26264.6
 06 12 2013  04 31  -21.0041 26028.2 -03515.7 -07.6924 26264.5
 06 12 2013  04 32  -21.0043 26028.1 -03515.6 -07.6923 26264.4
 06 12 2013  04 33  -21.0042 26028.1 -03515.6 -07.6924 26264.4
 06 12 2013  04 34  -21.0044 26028.0 -03515.6 -07.6923 26264.3
 06 12 2013  04 35  -21.0045 26027.9 -03515.6 -07.6923 26264.3
 06 12 2013  04 36  -21.0049 26027.9 -03515.5 -07.6923 26264.2
 06 12 2013  04 37  -21.0051 26027.8 -03515.6 -07.6924 26264.1
 06 12 2013  04 38  -21.0052 26027.8 -03515.5 -07.6923 26264.1
 06 12 2013  04 39  -21.0054 26027.6 -03515.5 -07.6922 26264.0
 06 12 2013  04 40  -21.0055 26027.6 -03515.5 -07.6923 26264.0
 06 12 2013  04 41  -21.0052 26027.8 -03515.5 -07.6923 26264.2
 06 12 2013  04 42  -21.0050 26028.0 -03515.6 -07.6925 26264.4
 06 12 2013  04 43  -21.0051 26028.3 -03515.8 -07.6928 26264.7
 06 12 2013  04 44  -21.0051 26028.6 -03516.0 -07.6930 26265.0
 06 12 2013  04 45  -21.0050 26028.7 -03516.0 -07.6931 26265.1
 06 12 2013  04 46  -21.0054 26028.9 -03516.2 -07.6933 26265.3
 06 12 2013  04 47  -21.0062 26029.1 -03516.3 -07.6935 26265.5
 06 12 2013  04 48  -21.0071 26029.3 -03516.4 -07.6936 26265.7
 06 12 2013  04 49  -21.0076 26029.4 -03516.3 -07.6936 26265.8
 06 12 2013  04 50  -21.0081 26029.3 -03516.2 -07.6933 26265.8
 06 12 2013  04 51  -21.0084 26029.1 -03516.1 -07.6931 26265.6
 06 12 2013  04 52  -21.0087 26028.8 -03515.8 -07.6926 26265.2
 06 12 2013  04 53  -21.0090 26028.5 -03515.6 -07.6923 26264.9
 06 12 2013  04 54  -21.0093 26028.5 -03515.6 -07.6921 26264.8
 06 12 2013  04 55  -21.0094 26028.2 -03515.4 -07.6918 26264.6
 06 12 2013  04 56  -21.0095 26028.0 -03515.2 -07.6915 26264.3
 06 12 2013  04 57  -21.0095 26027.8 -03515.1 -07.6914 26264.1
 06 12 2013  04 58  -21.0095 26027.8 -03515.1 -07.6913 26264.1
 06 12 2013  04 59  -21.0097 26027.8 -03515.1 -07.6913 26264.1
 06 12 2013  05 00  -21.0098 26027.9 -03515.1 -07.6913 26264.2
 06 12 2013  05 01  -21.0098 26027.9 -03515.2 -07.6915 26264.2
 06 12 2013  05 02  -21.0097 26028.0 -03515.2 -07.6915 26264.3
 06 12 2013  05 03  -21.0097 26028.0 -03515.2 -07.6915 26264.3
 06 12 2013  05 04  -21.0099 26028.2 -03515.3 -07.6917 26264.5
 06 12 2013  05 05  -21.0100 26028.3 -03515.4 -07.6918 26264.7
 06 12 2013  05 06  -21.0102 26028.5 -03515.5 -07.6920 26264.8
 06 12 2013  05 07  -21.0104 26028.4 -03515.5 -07.6920 26264.7
 06 12 2013  05 08  -21.0107 26028.4 -03515.5 -07.6920 26264.8
 06 12 2013  05 09  -21.0109 26028.4 -03515.5 -07.6920 26264.8
 06 12 2013  05 10  -21.0109 26028.3 -03515.4 -07.6918 26264.6
 06 12 2013  05 11  -21.0110 26028.3 -03515.3 -07.6916 26264.6
 06 12 2013  05 12  -21.0109 26028.2 -03515.3 -07.6916 26264.5
 06 12 2013  05 13  -21.0109 26028.2 -03515.2 -07.6915 26264.5
 06 12 2013  05 14  -21.0108 26028.2 -03515.2 -07.6915 26264.5
 06 12 2013  05 15  -21.0110 26028.2 -03515.3 -07.6916 26264.5
 06 12 2013  05 16  -21.0111 26028.3 -03515.3 -07.6915 26264.6
 06 12 2013  05 17  -21.0113 26028.4 -03515.3 -07.6917 26264.7
 06 12 2013  05 18  -21.0115 26028.4 -03515.4 -07.6917 26264.8
 06 12 2013  05 19  -21.0116 26028.4 -03515.3 -07.6917 26264.7
 06 12 2013  05 20  -21.0116 26028.3 -03515.3 -07.6917 26264.6
 06 12 2013  05 21  -21.0117 26028.4 -03515.3 -07.6916 26264.7
 06 12 2013  05 22  -21.0117 26028.3 -03515.2 -07.6915 26264.6
 06 12 2013  05 23  -21.0120 26028.4 -03515.3 -07.6916 26264.7
 06 12 2013  05 24  -21.0119 26028.4 -03515.3 -07.6916 26264.8
 06 12 2013  05 25  -21.0121 26028.4 -03515.3 -07.6916 26264.7
 06 12 2013  05 26  -21.0122 26028.4 -03515.3 -07.6917 26264.7
 06 12 2013  05 27  -21.0123 26028.4 -03515.3 -07.6916 26264.7
 06 12 2013  05 28  -21.0122 26028.3 -03515.3 -07.6917 26264.6
 06 12 2013  05 29  -21.0122 26028.2 -03515.3 -07.6916 26264.5
 06 12 2013  05 30  -21.0120 26028.3 -03515.3 -07.6916 26264.6
 06 12 2013  05 31  -21.0120 26028.2 -03515.3 -07.6915 26264.5
 06 12 2013  05 32  -21.0118 26028.2 -03515.3 -07.6917 26264.5
 06 12 2013  05 33  -21.0121 26028.3 -03515.4 -07.6918 26264.6
 06 12 2013  05 34  -21.0125 26028.4 -03515.4 -07.6919 26264.7
 06 12 2013  05 35  -21.0127 26028.4 -03515.5 -07.6920 26264.8
 06 12 2013  05 36  -21.0128 26028.5 -03515.5 -07.6921 26264.8
 06 12 2013  05 37  -21.0131 26028.4 -03515.5 -07.6920 26264.7
 06 12 2013  05 38  -21.0132 26028.5 -03515.5 -07.6920 26264.8
 06 12 2013  05 39  -21.0134 26028.4 -03515.5 -07.6920 26264.7
 06 12 2013  05 40  -21.0132 26028.3 -03515.4 -07.6919 26264.7
 06 12 2013  05 41  -21.0133 26028.2 -03515.4 -07.6919 26264.5
 06 12 2013  05 42  -21.0133 26028.1 -03515.3 -07.6917 26264.4
 06 12 2013  05 43  -21.0130 26027.8 -03515.2 -07.6915 26264.1
 06 12 2013  05 44  -21.0132 26027.6 -03515.1 -07.6913 26263.9
 06 12 2013  05 45  -21.0130 26027.4 -03515.0 -07.6913 26263.7
 06 12 2013  05 46  -21.0132 26027.3 -03514.9 -07.6912 26263.6
 06 12 2013  05 47  -21.0133 26027.4 -03515.1 -07.6914 26263.7
 06 12 2013  05 48  -21.0135 26027.3 -03515.1 -07.6915 26263.6
 06 12 2013  05 49  -21.0136 26027.4 -03515.2 -07.6916 26263.7
 06 12 2013  05 50  -21.0138 26027.6 -03515.3 -07.6918 26264.0
 06 12 2013  05 51  -21.0139 26028.1 -03515.6 -07.6923 26264.4
 06 12 2013  05 52  -21.0138 26028.4 -03515.8 -07.6926 26264.8
 06 12 2013  05 53  -21.0141 26028.7 -03515.9 -07.6929 26265.1
 06 12 2013  05 54  -21.0140 26028.8 -03515.9 -07.6929 26265.1
 06 12 2013  05 55  -21.0136 26028.6 -03515.8 -07.6927 26265.0
 06 12 2013  05 56  -21.0132 26028.5 -03515.8 -07.6926 26264.9
 06 12 2013  05 57  -21.0128 26028.7 -03515.8 -07.6926 26265.1
 06 12 2013  05 58  -21.0128 26028.7 -03515.8 -07.6927 26265.0
 06 12 2013  05 59  -21.0127 26028.8 -03515.9 -07.6928 26265.2
 06 12 2013  06 00  -21.0126 26028.8 -03516.0 -07.6929 26265.2
 06 12 2013  06 01  -21.0130 26029.0 -03516.1 -07.6931 26265.4
 06 12 2013  06 02  -21.0131 26029.0 -03516.1 -07.6931 26265.4
 06 12 2013  06 03  -21.0133 26029.0 -03516.1 -07.6931 26265.4
 06 12 2013  06 04  -21.0136 26029.1 -03516.1 -07.6932 26265.5
 06 12 2013  06 05  -21.0141 26029.3 -03516.2 -07.6932 26265.7
 06 12 2013  06 06  -21.0143 26029.3 -03516.2 -07.6933 26265.7
 06 12 2013  06 07  -21.0149 26029.4 -03516.2 -07.6933 26265.8
 06 12 2013  06 08  -21.0151 26029.5 -03516.2 -07.6932 26265.9
 06 12 2013  06 09  -21.0155 26029.7 -03516.3 -07.6934 26266.1
 06 12 2013  06 10  -21.0155 26029.6 -03516.2 -07.6932 26266.0
 06 12 2013  06 11  -21.0159 26029.7 -03516.2 -07.6932 26266.1
 06 12 2013  06 12  -21.0159 26029.7 -03516.2 -07.6931 26266.2
 06 12 2013  06 13  -21.0163 26029.6 -03516.1 -07.6929 26266.0
 06 12 2013  06 14  -21.0166 26029.6 -03516.0 -07.6927 26266.0
 06 12 2013  06 15  -21.0170 26029.5 -03515.9 -07.6927 26265.9
 06 12 2013  06 16  -21.0173 26029.5 -03515.9 -07.6925 26265.8
 06 12 2013  06 17  -21.0175 26029.6 -03515.9 -07.6925 26266.0
 06 12 2013  06 18  -21.0178 26029.5 -03515.8 -07.6924 26265.9
 06 12 2013  06 19  -21.0180 26029.6 -03515.8 -07.6924 26266.0
 06 12 2013  06 20  -21.0185 26029.6 -03515.9 -07.6925 26266.0
 06 12 2013  06 21  -21.0187 26029.7 -03515.8 -07.6924 26266.1
 06 12 2013  06 22  -21.0189 26029.8 -03515.8 -07.6923 26266.2
 06 12 2013  06 23  -21.0190 26029.9 -03515.9 -07.6924 26266.2
 06 12 2013  06 24  -21.0190 26029.7 -03515.8 -07.6922 26266.1
 06 12 2013  06 25  -21.0191 26029.7 -03515.7 -07.6922 26266.0
 06 12 2013  06 26  -21.0193 26029.6 -03515.7 -07.6921 26266.0
 06 12 2013  06 27  -21.0196 26029.5 -03515.7 -07.6921 26265.9
 06 12 2013  06 28  -21.0198 26029.5 -03515.6 -07.6920 26265.9
 06 12 2013  06 29  -21.0201 26029.6 -03515.7 -07.6921 26266.0
 06 12 2013  06 30  -21.0202 26029.6 -03515.7 -07.6921 26266.0
 06 12 2013  06 31  -21.0204 26029.8 -03515.7 -07.6922 26266.1
 06 12 2013  06 32  -21.0204 26029.9 -03515.8 -07.6922 26266.3
 06 12 2013  06 33  -21.0205 26029.9 -03515.8 -07.6922 26266.3
 06 12 2013  06 34  -21.0204 26029.9 -03515.7 -07.6921 26266.3
 06 12 2013  06 35  -21.0203 26030.0 -03515.8 -07.6921 26266.4
 06 12 2013  06 36  -21.0203 26030.0 -03515.7 -07.6920 26266.3
 06 12 2013  06 37  -21.0202 26030.2 -03515.8 -07.6921 26266.5
 06 12 2013  06 38  -21.0204 26030.2 -03515.8 -07.6922 26266.5
 06 12 2013  06 39  -21.0203 26030.4 -03515.8 -07.6922 26266.7
 06 12 2013  06 40  -21.0203 26030.6 -03515.9 -07.6924 26266.9
 06 12 2013  06 41  -21.0203 26030.7 -03516.0 -07.6924 26267.1
 06 12 2013  06 42  -21.0202 26030.9 -03516.0 -07.6925 26267.3
 06 12 2013  06 43  -21.0201 26031.1 -03516.1 -07.6924 26267.4
 06 12 2013  06 44  -21.0200 26031.2 -03516.1 -07.6925 26267.6
 06 12 2013  06 45  -21.0199 26031.3 -03516.1 -07.6925 26267.7
 06 12 2013  06 46  -21.0198 26031.3 -03516.1 -07.6926 26267.7
 06 12 2013  06 47  -21.0197 26031.4 -03516.1 -07.6925 26267.8
 06 12 2013  06 48  -21.0197 26031.4 -03516.1 -07.6925 26267.8
 06 12 2013  06 49  -21.0197 26031.5 -03516.1 -07.6925 26267.9
 06 12 2013  06 50  -21.0196 26031.6 -03516.1 -07.6925 26268.0
 06 12 2013  06 51  -21.0196 26031.7 -03516.2 -07.6926 26268.1
 06 12 2013  06 52  -21.0195 26031.7 -03516.2 -07.6925 26268.1
 06 12 2013  06 53  -21.0195 26031.8 -03516.1 -07.6924 26268.1
 06 12 2013  06 54  -21.0196 26031.8 -03516.2 -07.6925 26268.2
 06 12 2013  06 55  -21.0197 26031.9 -03516.2 -07.6925 26268.3
 06 12 2013  06 56  -21.0197 26031.9 -03516.2 -07.6925 26268.3
 06 12 2013  06 57  -21.0198 26031.9 -03516.2 -07.6924 26268.3
 06 12 2013  06 58  -21.0199 26032.0 -03516.1 -07.6924 26268.3
 06 12 2013  06 59  -21.0199 26032.0 -03516.1 -07.6923 26268.4
 06 12 2013  07 00  -21.0201 26032.1 -03516.2 -07.6924 26268.5
 06 12 2013  07 01  -21.0201 26032.1 -03516.1 -07.6923 26268.5
 06 12 2013  07 02  -21.0201 26032.3 -03516.2 -07.6924 26268.7
 06 12 2013  07 03  -21.0201 26032.5 -03516.3 -07.6925 26268.9
 06 12 2013  07 04  -21.0200 26032.6 -03516.3 -07.6926 26269.0
 06 12 2013  07 05  -21.0202 26032.5 -03516.3 -07.6926 26269.0
 06 12 2013  07 06  -21.0204 26032.5 -03516.3 -07.6925 26268.9
 06 12 2013  07 07  -21.0202 26032.7 -03516.3 -07.6925 26269.1
 06 12 2013  07 08  -21.0207 26032.9 -03516.4 -07.6926 26269.3
 06 12 2013  07 09  -21.0203 26033.6 -03516.7 -07.6930 26270.0
 06 12 2013  07 10  -21.0206 26033.4 -03516.6 -07.6930 26269.8
 06 12 2013  07 11  -21.0202 26033.7 -03516.7 -07.6930 26270.2
 06 12 2013  07 12  -21.0206 26033.5 -03516.6 -07.6928 26269.9
 06 12 2013  07 13  -21.0203 26033.8 -03516.6 -07.6929 26270.2
 06 12 2013  07 14  -21.0206 26033.7 -03516.6 -07.6928 26270.1
 06 12 2013  07 15  -21.0205 26033.9 -03516.7 -07.6930 26270.3
 06 12 2013  07 16  -21.0206 26034.0 -03516.7 -07.6930 26270.5
 06 12 2013  07 17  -21.0205 26034.2 -03516.7 -07.6930 26270.6
 06 12 2013  07 18  -21.0202 26034.2 -03516.7 -07.6929 26270.6
 06 12 2013  07 19  -21.0203 26034.2 -03516.7 -07.6929 26270.6
 06 12 2013  07 20  -21.0203 26034.2 -03516.6 -07.6928 26270.6
 06 12 2013  07 21  -21.0202 26034.0 -03516.5 -07.6926 26270.5
 06 12 2013  07 22  -21.0200 26034.0 -03516.5 -07.6925 26270.4
 06 12 2013  07 23  -21.0198 26034.1 -03516.5 -07.6926 26270.5
 06 12 2013  07 24  -21.0196 26034.1 -03516.5 -07.6926 26270.5
 06 12 2013  07 25  -21.0192 26034.0 -03516.5 -07.6925 26270.5
 06 12 2013  07 26  -21.0188 26033.9 -03516.4 -07.6924 26270.3
 06 12 2013  07 27  -21.0185 26034.0 -03516.4 -07.6924 26270.4
 06 12 2013  07 28  -21.0182 26034.0 -03516.4 -07.6924 26270.4
 06 12 2013  07 29  -21.0179 26034.0 -03516.5 -07.6925 26270.4
 06 12 2013  07 30  -21.0179 26034.0 -03516.5 -07.6925 26270.4
 06 12 2013  07 31  -21.0178 26034.0 -03516.5 -07.6926 26270.4
 06 12 2013  07 32  -21.0176 26034.2 -03516.6 -07.6927 26270.6
 06 12 2013  07 33  -21.0176 26034.1 -03516.6 -07.6927 26270.6
 06 12 2013  07 34  -21.0175 26034.3 -03516.6 -07.6928 26270.7
 06 12 2013  07 35  -21.0177 26034.3 -03516.6 -07.6928 26270.7
 06 12 2013  07 36  -21.0177 26034.4 -03516.7 -07.6929 26270.8
 06 12 2013  07 37  -21.0178 26034.3 -03516.7 -07.6928 26270.8
 06 12 2013  07 38  -21.0178 26034.4 -03516.7 -07.6929 26270.9
 06 12 2013  07 39  -21.0179 26034.5 -03516.8 -07.6930 26271.0
 06 12 2013  07 40  -21.0180 26034.4 -03516.7 -07.6929 26270.9
 06 12 2013  07 41  -21.0179 26034.5 -03516.8 -07.6930 26270.9
 06 12 2013  07 42  -21.0179 26034.6 -03516.8 -07.6931 26271.0
 06 12 2013  07 43  -21.0179 26034.7 -03516.9 -07.6932 26271.1
 06 12 2013  07 44  -21.0177 26034.5 -03516.7 -07.6929 26270.9
 06 12 2013  07 45  -21.0177 26034.3 -03516.7 -07.6929 26270.8
 06 12 2013  07 46  -21.0177 26034.2 -03516.6 -07.6927 26270.7
 06 12 2013  07 47  -21.0176 26034.2 -03516.6 -07.6927 26270.6
 06 12 2013  07 48  -21.0176 26034.2 -03516.6 -07.6927 26270.6
 06 12 2013  07 49  -21.0175 26034.2 -03516.5 -07.6926 26270.6
 06 12 2013  07 50  -21.0175 26034.1 -03516.5 -07.6926 26270.5
 06 12 2013  07 51  -21.0174 26034.1 -03516.5 -07.6925 26270.5
 06 12 2013  07 52  -21.0174 26034.1 -03516.5 -07.6925 26270.5
 06 12 2013  07 53  -21.0173 26034.1 -03516.5 -07.6925 26270.5
 06 12 2013  07 54  -21.0173 26034.1 -03516.5 -07.6926 26270.5
 06 12 2013  07 55  -21.0174 26034.2 -03516.5 -07.6926 26270.6
 06 12 2013  07 56  -21.0175 26034.2 -03516.6 -07.6927 26270.7
 06 12 2013  07 57  -21.0176 26034.3 -03516.6 -07.6928 26270.8
 06 12 2013  07 58  -21.0175 26034.5 -03516.7 -07.6928 26270.9
 06 12 2013  07 59  -21.0175 26034.6 -03516.7 -07.6928 26271.0
 06 12 2013  08 00  -21.0172 26034.8 -03516.8 -07.6929 26271.2
 06 12 2013  08 01  -21.0174 26034.9 -03516.8 -07.6930 26271.3
 06 12 2013  08 02  -21.0174 26035.2 -03516.9 -07.6931 26271.7
 06 12 2013  08 03  -21.0173 26035.2 -03516.9 -07.6932 26271.7
 06 12 2013  08 04  -21.0171 26035.2 -03516.9 -07.6930 26271.7
 06 12 2013  08 05  -21.0172 26035.1 -03516.8 -07.6929 26271.6
 06 12 2013  08 06  -21.0172 26035.1 -03516.7 -07.6927 26271.5
 06 12 2013  08 07  -21.0172 26035.0 -03516.6 -07.6925 26271.4
 06 12 2013  08 08  -21.0173 26035.0 -03516.6 -07.6925 26271.4
 06 12 2013  08 09  -21.0175 26035.0 -03516.6 -07.6924 26271.4
 06 12 2013  08 10  -21.0176 26035.0 -03516.5 -07.6924 26271.4
 06 12 2013  08 11  -21.0177 26035.1 -03516.5 -07.6923 26271.5
 06 12 2013  08 12  -21.0176 26035.1 -03516.5 -07.6922 26271.5
 06 12 2013  08 13  -21.0176 26034.7 -03516.2 -07.6918 26271.1
 06 12 2013  08 14  -21.0181 26034.4 -03516.1 -07.6915 26270.8
 06 12 2013  08 15  -21.0184 26034.3 -03516.0 -07.6913 26270.7
 06 12 2013  08 16  -21.0186 26034.2 -03515.9 -07.6911 26270.5
 06 12 2013  08 17  -21.0190 26034.1 -03515.8 -07.6910 26270.4
 06 12 2013  08 18  -21.0196 26034.3 -03515.8 -07.6910 26270.6
 06 12 2013  08 19  -21.0192 26034.6 -03515.9 -07.6911 26270.9
 06 12 2013  08 20  -21.0192 26034.6 -03515.9 -07.6910 26270.9
 06 12 2013  08 21  -21.0194 26034.7 -03515.8 -07.6909 26271.0
 06 12 2013  08 22  -21.0192 26034.8 -03515.8 -07.6909 26271.1
 06 12 2013  08 23  -21.0191 26034.8 -03515.8 -07.6907 26271.2
 06 12 2013  08 24  -21.0191 26034.8 -03515.7 -07.6906 26271.2
 06 12 2013  08 25  -21.0192 26034.8 -03515.7 -07.6905 26271.1
 06 12 2013  08 26  -21.0191 26035.0 -03515.6 -07.6904 26271.3
 06 12 2013  08 27  -21.0189 26035.2 -03515.7 -07.6904 26271.5
 06 12 2013  08 28  -21.0188 26035.3 -03515.7 -07.6904 26271.6
 06 12 2013  08 29  -21.0187 26035.4 -03515.6 -07.6903 26271.7
 06 12 2013  08 30  -21.0187 26035.5 -03515.7 -07.6903 26271.8
 06 12 2013  08 31  -21.0185 26035.4 -03515.6 -07.6902 26271.7
 06 12 2013  08 32  -21.0185 26035.4 -03515.6 -07.6901 26271.7
 06 12 2013  08 33  -21.0186 26035.2 -03515.4 -07.6899 26271.5
 06 12 2013  08 34  -21.0186 26035.0 -03515.3 -07.6897 26271.2
 06 12 2013  08 35  -21.0185 26034.8 -03515.2 -07.6895 26271.0
 06 12 2013  08 36  -21.0184 26034.6 -03515.1 -07.6893 26270.8
 06 12 2013  08 37  -21.0184 26034.5 -03515.0 -07.6891 26270.8
 06 12 2013  08 38  -21.0184 26034.4 -03514.9 -07.6890 26270.6
 06 12 2013  08 39  -21.0187 26034.4 -03515.0 -07.6891 26270.6
 06 12 2013  08 40  -21.0188 26034.4 -03514.9 -07.6890 26270.6
 06 12 2013  08 41  -21.0189 26034.5 -03515.0 -07.6892 26270.7
 06 12 2013  08 42  -21.0192 26034.6 -03515.1 -07.6893 26270.8
 06 12 2013  08 43  -21.0195 26034.6 -03515.1 -07.6894 26270.9
 06 12 2013  08 44  -21.0198 26034.6 -03515.1 -07.6894 26270.9
 06 12 2013  08 45  -21.0202 26034.6 -03515.1 -07.6894 26270.9
 06 12 2013  08 46  -21.0202 26034.7 -03515.1 -07.6894 26270.9
 06 12 2013  08 47  -21.0204 26034.4 -03515.0 -07.6891 26270.6
 06 12 2013  08 48  -21.0211 26034.1 -03514.8 -07.6889 26270.2
 06 12 2013  08 49  -21.0216 26033.7 -03514.6 -07.6886 26269.8
 06 12 2013  08 50  -21.0216 26033.1 -03514.4 -07.6882 26269.3
 06 12 2013  08 51  -21.0220 26032.6 -03514.1 -07.6879 26268.7
 06 12 2013  08 52  -21.0223 26032.2 -03514.0 -07.6876 26268.3
 06 12 2013  08 53  -21.0224 26031.8 -03513.8 -07.6874 26267.9
 06 12 2013  08 54  -21.0227 26031.4 -03513.7 -07.6872 26267.4
 06 12 2013  08 55  -21.0231 26031.2 -03513.6 -07.6872 26267.2
 06 12 2013  08 56  -21.0236 26031.0 -03513.6 -07.6871 26267.1
 06 12 2013  08 57  -21.0239 26031.0 -03513.7 -07.6873 26267.1
 06 12 2013  08 58  -21.0244 26031.0 -03513.7 -07.6874 26267.0
 06 12 2013  08 59  -21.0248 26030.9 -03513.7 -07.6873 26267.0
 06 12 2013  09 00  -21.0253 26030.8 -03513.7 -07.6873 26266.9
 06 12 2013  09 01  -21.0257 26030.8 -03513.6 -07.6873 26266.9
 06 12 2013  09 02  -21.0260 26030.8 -03513.6 -07.6873 26266.9
 06 12 2013  09 03  -21.0261 26030.8 -03513.6 -07.6872 26266.9
 06 12 2013  09 04  -21.0262 26030.8 -03513.6 -07.6872 26266.9
 06 12 2013  09 05  -21.0264 26030.9 -03513.5 -07.6870 26266.9
 06 12 2013  09 06  -21.0266 26031.0 -03513.7 -07.6873 26267.1
 06 12 2013  09 07  -21.0271 26031.2 -03513.8 -07.6875 26267.3
 06 12 2013  09 08  -21.0274 26031.3 -03513.8 -07.6875 26267.4
 06 12 2013  09 09  -21.0274 26031.5 -03513.8 -07.6874 26267.6
 06 12 2013  09 10  -21.0280 26031.7 -03513.8 -07.6874 26267.7
 06 12 2013  09 11  -21.0281 26031.8 -03513.8 -07.6875 26267.9
 06 12 2013  09 12  -21.0280 26032.1 -03513.9 -07.6875 26268.2
 06 12 2013  09 13  -21.0284 26032.6 -03514.0 -07.6875 26268.7
 06 12 2013  09 14  -21.0286 26032.9 -03514.2 -07.6879 26269.0
 06 12 2013  09 15  -21.0293 26032.9 -03514.1 -07.6876 26269.0
 06 12 2013  09 16  -21.0297 26032.7 -03513.6 -07.6866 26268.8
 06 12 2013  09 17  -21.0299 26032.7 -03513.7 -07.6869 26268.7
 06 12 2013  09 18  -21.0304 26032.7 -03513.7 -07.6869 26268.8
 06 12 2013  09 19  -21.0304 26033.2 -03513.9 -07.6871 26269.3
 06 12 2013  09 20  -21.0312 26033.7 -03514.1 -07.6875 26269.8
 06 12 2013  09 21  -21.0315 26034.1 -03514.1 -07.6874 26270.2
 06 12 2013  09 22  -21.0322 26034.1 -03514.0 -07.6872 26270.2
 06 12 2013  09 23  -21.0325 26034.1 -03513.9 -07.6870 26270.2
 06 12 2013  09 24  -21.0331 26034.2 -03513.8 -07.6868 26270.3
 06 12 2013  09 25  -21.0339 26034.2 -03513.8 -07.6866 26270.3
 06 12 2013  09 26  -21.0344 26034.0 -03513.5 -07.6862 26270.1
 06 12 2013  09 27  -21.0350 26033.6 -03513.2 -07.6856 26269.6
 06 12 2013  09 28  -21.0351 26033.1 -03512.9 -07.6850 26269.1
 06 12 2013  09 29  -21.0351 26032.7 -03512.6 -07.6846 26268.6
 06 12 2013  09 30  -21.0355 26032.5 -03512.5 -07.6843 26268.4
 06 12 2013  09 31  -21.0357 26032.4 -03512.4 -07.6842 26268.3
 06 12 2013  09 32  -21.0361 26032.4 -03512.5 -07.6843 26268.3
 06 12 2013  09 33  -21.0359 26032.7 -03512.5 -07.6843 26268.6
 06 12 2013  09 34  -21.0364 26033.0 -03512.6 -07.6845 26268.9
 06 12 2013  09 35  -21.0365 26033.3 -03512.7 -07.6846 26269.2
 06 12 2013  09 36  -21.0369 26033.8 -03512.8 -07.6847 26269.7
 06 12 2013  09 37  -21.0372 26034.3 -03513.0 -07.6848 26270.2
 06 12 2013  09 38  -21.0378 26034.8 -03513.1 -07.6849 26270.7
 06 12 2013  09 39  -21.0383 26035.2 -03513.2 -07.6850 26271.2
 06 12 2013  09 40  -21.0390 26035.6 -03513.2 -07.6849 26271.6
 06 12 2013  09 41  -21.0392 26035.9 -03513.1 -07.6847 26271.8
 06 12 2013  09 42  -21.0395 26036.2 -03513.1 -07.6845 26272.1
 06 12 2013  09 43  -21.0402 26036.7 -03513.1 -07.6844 26272.6
 06 12 2013  09 44  -21.0408 26037.1 -03513.1 -07.6842 26273.0
 06 12 2013  09 45  -21.0413 26037.3 -03512.9 -07.6839 26273.2
 06 12 2013  09 46  -21.0416 26037.5 -03512.8 -07.6835 26273.3
 06 12 2013  09 47  -21.0423 26037.5 -03512.7 -07.6832 26273.4
 06 12 2013  09 48  -21.0422 26037.8 -03512.5 -07.6829 26273.6
 06 12 2013  09 49  -21.0428 26038.2 -03512.5 -07.6827 26274.0
 06 12 2013  09 50  -21.0434 26038.6 -03512.6 -07.6827 26274.5
 06 12 2013  09 51  -21.0439 26039.2 -03512.6 -07.6826 26275.0
 06 12 2013  09 52  -21.0443 26039.6 -03512.5 -07.6824 26275.4
 06 12 2013  09 53  -21.0448 26040.0 -03512.5 -07.6822 26275.9
 06 12 2013  09 54  -21.0453 26040.4 -03512.5 -07.6820 26276.2
 06 12 2013  09 55  -21.0459 26040.8 -03512.4 -07.6817 26276.6
 06 12 2013  09 56  -21.0464 26041.0 -03512.3 -07.6813 26276.8
 06 12 2013  09 57  -21.0469 26041.1 -03512.0 -07.6808 26276.8
 06 12 2013  09 58  -21.0472 26041.1 -03511.8 -07.6803 26276.8
 06 12 2013  09 59  -21.0472 26040.9 -03511.5 -07.6798 26276.6
 06 12 2013  10 00  -21.0474 26040.8 -03511.3 -07.6793 26276.5
 06 12 2013  10 01  -21.0477 26040.8 -03511.1 -07.6789 26276.4
 06 12 2013  10 02  -21.0481 26040.8 -03511.0 -07.6786 26276.4
 06 12 2013  10 03  -21.0482 26040.7 -03510.8 -07.6782 26276.3
 06 12 2013  10 04  -21.0485 26040.6 -03510.6 -07.6778 26276.2
 06 12 2013  10 05  -21.0493 26040.5 -03510.3 -07.6774 26276.0
 06 12 2013  10 06  -21.0498 26040.2 -03510.1 -07.6769 26275.7
 06 12 2013  10 07  -21.0503 26039.8 -03509.8 -07.6764 26275.3
 06 12 2013  10 08  -21.0508 26039.7 -03509.6 -07.6760 26275.1
 06 12 2013  10 09  -21.0514 26039.7 -03509.5 -07.6757 26275.1
 06 12 2013  10 10  -21.0517 26039.7 -03509.4 -07.6756 26275.2
 06 12 2013  10 11  -21.0519 26039.9 -03509.4 -07.6755 26275.3
 06 12 2013  10 12  -21.0524 26040.1 -03509.4 -07.6754 26275.5
 06 12 2013  10 13  -21.0525 26040.3 -03509.3 -07.6753 26275.7
 06 12 2013  10 14  -21.0525 26040.6 -03509.3 -07.6751 26276.0
 06 12 2013  10 15  -21.0526 26040.9 -03509.4 -07.6751 26276.3
 06 12 2013  10 16  -21.0528 26041.4 -03509.4 -07.6751 26276.8
 06 12 2013  10 17  -21.0561 26042.0 -03509.5 -07.6752 26277.4
 06 12 2013  10 18  -21.0569 26042.2 -03509.4 -07.6749 26277.6
 06 12 2013  10 19  -21.0579 26042.7 -03509.5 -07.6749 26278.1
 06 12 2013  10 20  -21.0570 26042.8 -03509.4 -07.6745 26278.2
 06 12 2013  10 21  -21.0540 26042.8 -03509.1 -07.6741 26278.2
 06 12 2013  10 22  -21.0542 26042.8 -03509.0 -07.6737 26278.2
 06 12 2013  10 23  -21.0544 26042.9 -03508.9 -07.6734 26278.2
 06 12 2013  10 24  -21.0545 26042.8 -03508.7 -07.6731 26278.1
 06 12 2013  10 25  -21.0544 26042.8 -03508.5 -07.6728 26278.0
 06 12 2013  10 26  -21.0544 26042.7 -03508.4 -07.6725 26278.0
 06 12 2013  10 27  -21.0543 26042.8 -03508.3 -07.6723 26278.0
 06 12 2013  10 28  -21.0545 26042.8 -03508.2 -07.6721 26278.1
 06 12 2013  10 29  -21.0546 26042.9 -03508.2 -07.6720 26278.2
 06 12 2013  10 30  -21.0546 26043.0 -03508.1 -07.6718 26278.2
 06 12 2013  10 31  -21.0546 26043.0 -03508.0 -07.6715 26278.2
 06 12 2013  10 32  -21.0545 26043.0 -03507.9 -07.6713 26278.2
 06 12 2013  10 33  -21.0546 26043.0 -03507.8 -07.6712 26278.2
 06 12 2013  10 34  -21.0547 26043.1 -03507.8 -07.6711 26278.3
 06 12 2013  10 35  -21.0547 26043.4 -03507.8 -07.6710 26278.6
 06 12 2013  10 36  -21.0546 26043.6 -03507.9 -07.6711 26278.8
 06 12 2013  10 37  -21.0544 26043.8 -03507.9 -07.6710 26279.0
 06 12 2013  10 38  -21.0544 26044.2 -03507.9 -07.6710 26279.4
 06 12 2013  10 39  -21.0545 26044.6 -03508.0 -07.6711 26279.7
 06 12 2013  10 40  -21.0547 26044.9 -03508.0 -07.6710 26280.1
 06 12 2013  10 41  -21.0550 26045.2 -03507.9 -07.6708 26280.3
 06 12 2013  10 42  -21.0551 26045.2 -03507.8 -07.6704 26280.4
 06 12 2013  10 43  -21.0558 26045.2 -03507.7 -07.6702 26280.3
 06 12 2013  10 44  -21.0553 26045.3 -03507.5 -07.6698 26280.4
 06 12 2013  10 45  -21.0552 26045.3 -03507.4 -07.6696 26280.4
 06 12 2013  10 46  -21.0551 26045.5 -03507.3 -07.6693 26280.5
 06 12 2013  10 47  -21.0552 26045.6 -03507.3 -07.6692 26280.7
 06 12 2013  10 48  -21.0552 26045.8 -03507.2 -07.6690 26280.8
 06 12 2013  10 49  -21.0554 26045.9 -03507.1 -07.6689 26281.0
 06 12 2013  10 50  -21.0555 26046.2 -03507.1 -07.6688 26281.3
 06 12 2013  10 51  -21.0556 26046.6 -03507.2 -07.6687 26281.6
 06 12 2013  10 52  -21.0555 26046.9 -03507.1 -07.6686 26281.9
 06 12 2013  10 53  -21.0558 26047.3 -03507.1 -07.6684 26282.3
 06 12 2013  10 54  -21.0559 26047.7 -03507.0 -07.6681 26282.7
 06 12 2013  10 55  -21.0559 26048.1 -03507.0 -07.6680 26283.1
 06 12 2013  10 56  -21.0562 26048.5 -03507.0 -07.6679 26283.5
 06 12 2013  10 57  -21.0563 26048.8 -03506.9 -07.6675 26283.8
 06 12 2013  10 58  -21.0566 26049.1 -03506.8 -07.6672 26284.1
 06 12 2013  10 59  -21.0567 26049.4 -03506.7 -07.6668 26284.4
 06 12 2013  11 00  -21.0569 26049.7 -03506.5 -07.6664 26284.7
 06 12 2013  11 01  -21.0570 26049.9 -03506.3 -07.6659 26284.8
 06 12 2013  11 02  -21.0571 26050.0 -03506.2 -07.6656 26284.9
 06 12 2013  11 03  -21.0571 26050.0 -03506.0 -07.6652 26284.9
 06 12 2013  11 04  -21.0568 26050.2 -03505.9 -07.6649 26285.0
 06 12 2013  11 05  -21.0569 26050.4 -03505.8 -07.6647 26285.2
 06 12 2013  11 06  -21.0570 26050.6 -03505.7 -07.6644 26285.4
 06 12 2013  11 07  -21.0567 26050.7 -03505.5 -07.6640 26285.5
 06 12 2013  11 08  -21.0566 26050.9 -03505.4 -07.6637 26285.6
 06 12 2013  11 09  -21.0564 26051.1 -03505.4 -07.6635 26285.8
 06 12 2013  11 10  -21.0559 26051.3 -03505.3 -07.6633 26286.1
 06 12 2013  11 11  -21.0559 26051.8 -03505.3 -07.6632 26286.6
 06 12 2013  11 12  -21.0561 26052.3 -03505.3 -07.6630 26287.1
 06 12 2013  11 13  -21.0561 26052.7 -03505.2 -07.6628 26287.4
 06 12 2013  11 14  -21.0557 26052.9 -03505.1 -07.6624 26287.6
 06 12 2013  11 15  -21.0555 26053.1 -03505.0 -07.6621 26287.8
 06 12 2013  11 16  -21.0552 26053.5 -03504.9 -07.6618 26288.2
 06 12 2013  11 17  -21.0547 26054.0 -03504.9 -07.6616 26288.7
 06 12 2013  11 18  -21.0549 26054.6 -03504.9 -07.6616 26289.3
 06 12 2013  11 19  -21.0548 26055.3 -03505.0 -07.6614 26290.0
 06 12 2013  11 20  -21.0551 26056.0 -03505.0 -07.6614 26290.7
 06 12 2013  11 21  -21.0551 26056.5 -03505.0 -07.6611 26291.2
 06 12 2013  11 22  -21.0550 26057.2 -03504.9 -07.6607 26291.8
 06 12 2013  11 23  -21.0550 26057.5 -03504.8 -07.6604 26292.2
 06 12 2013  11 24  -21.0553 26058.0 -03504.6 -07.6599 26292.6
 06 12 2013  11 25  -21.0552 26058.3 -03504.5 -07.6595 26292.9
 06 12 2013  11 26  -21.0551 26058.6 -03504.3 -07.6591 26293.2
 06 12 2013  11 27  -21.0551 26058.9 -03504.2 -07.6586 26293.5
 06 12 2013  11 28  -21.0547 26059.1 -03504.0 -07.6582 26293.6
 06 12 2013  11 29  -21.0549 26059.3 -03503.8 -07.6577 26293.8
 06 12 2013  11 30  -21.0547 26059.3 -03503.5 -07.6572 26293.8
 06 12 2013  11 31  -21.0543 26059.5 -03503.3 -07.6567 26294.0
 06 12 2013  11 32  -21.0542 26059.5 -03503.1 -07.6562 26293.9
 06 12 2013  11 33  -21.0540 26059.8 -03503.0 -07.6559 26294.2
 06 12 2013  11 34  -21.0540 26060.1 -03503.0 -07.6557 26294.5
 06 12 2013  11 35  -21.0532 26060.6 -03503.0 -07.6557 26295.0
 06 12 2013  11 36  -21.0530 26061.2 -03503.1 -07.6557 26295.6
 06 12 2013  11 37  -21.0524 26062.0 -03503.1 -07.6555 26296.4
 06 12 2013  11 38  -21.0521 26062.5 -03503.1 -07.6553 26296.9
 06 12 2013  11 39  -21.0523 26062.9 -03503.0 -07.6549 26297.3
 06 12 2013  11 40  -21.0522 26063.4 -03502.9 -07.6546 26297.7
 06 12 2013  11 41  -21.0522 26063.5 -03502.6 -07.6540 26297.8
 06 12 2013  11 42  -21.0522 26063.2 -03502.2 -07.6532 26297.5
 06 12 2013  11 43  -21.0522 26063.0 -03501.9 -07.6525 26297.2
 06 12 2013  11 44  -21.0518 26062.7 -03501.5 -07.6518 26296.8
 06 12 2013  11 45  -21.0516 26062.2 -03501.2 -07.6512 26296.3
 06 12 2013  11 46  -21.0504 26062.5 -03501.2 -07.6513 26296.6
 06 12 2013  11 47  -21.0496 26062.7 -03501.3 -07.6514 26296.9
 06 12 2013  11 48  -21.0489 26063.3 -03501.4 -07.6515 26297.4
 06 12 2013  11 49  -21.0485 26064.3 -03501.7 -07.6518 26298.4
 06 12 2013  11 50  -21.0482 26065.0 -03501.8 -07.6518 26299.1
 06 12 2013  11 51  -21.0485 26065.3 -03501.7 -07.6515 26299.4
 06 12 2013  11 52  -21.0486 26065.7 -03501.6 -07.6512 26299.8
 06 12 2013  11 53  -21.0488 26065.9 -03501.4 -07.6507 26300.1
 06 12 2013  11 54  -21.0490 26066.0 -03501.1 -07.6501 26300.0
 06 12 2013  11 55  -21.0492 26066.0 -03500.9 -07.6495 26300.0
 06 12 2013  11 56  -21.0493 26066.0 -03500.6 -07.6490 26300.0
 06 12 2013  11 57  -21.0491 26066.0 -03500.3 -07.6484 26300.0
 06 12 2013  11 58  -21.0490 26065.9 -03500.1 -07.6478 26299.8
 06 12 2013  11 59  -21.0486 26066.0 -03499.9 -07.6473 26299.9
 06 12 2013  12 00  -21.0483 26066.1 -03499.7 -07.6470 26299.9
 06 12 2013  12 01  -21.0479 26066.1 -03499.5 -07.6466 26299.9
 06 12 2013  12 02  -21.0476 26066.1 -03499.3 -07.6461 26299.9
 06 12 2013  12 03  -21.0477 26066.1 -03499.2 -07.6458 26300.0
 06 12 2013  12 04  -21.0476 26066.2 -03499.0 -07.6453 26300.0
 06 12 2013  12 05  -21.0475 26066.2 -03498.7 -07.6448 26299.9
 06 12 2013  12 06  -21.0473 26066.2 -03498.5 -07.6444 26299.9
 06 12 2013  12 07  -21.0472 26066.2 -03498.3 -07.6439 26299.9
 06 12 2013  12 08  -21.0471 26066.2 -03498.2 -07.6436 26299.9
 06 12 2013  12 09  -21.0468 26066.3 -03498.0 -07.6431 26299.9
 06 12 2013  12 10  -21.0464 26066.2 -03497.8 -07.6427 26299.9
 06 12 2013  12 11  -21.0458 26066.3 -03497.6 -07.6424 26299.9
 06 12 2013  12 12  -21.0454 26066.4 -03497.5 -07.6422 26300.0
 06 12 2013  12 13  -21.0453 26066.8 -03497.5 -07.6421 26300.4
 06 12 2013  12 14  -21.0449 26067.1 -03497.5 -07.6419 26300.7
 06 12 2013  12 15  -21.0447 26067.6 -03497.6 -07.6419 26301.2
 06 12 2013  12 16  -21.0445 26067.9 -03497.5 -07.6416 26301.5
 06 12 2013  12 17  -21.0442 26068.0 -03497.4 -07.6413 26301.6
 06 12 2013  12 18  -21.0441 26068.4 -03497.3 -07.6411 26302.0
 06 12 2013  12 19  -21.0438 26068.9 -03497.3 -07.6410 26302.5
 06 12 2013  12 20  -21.0435 26069.1 -03497.2 -07.6406 26302.7
 06 12 2013  12 21  -21.0432 26069.3 -03497.1 -07.6403 26302.9
 06 12 2013  12 22  -21.0431 26069.4 -03496.9 -07.6399 26302.9
 06 12 2013  12 23  -21.0433 26069.5 -03496.8 -07.6396 26303.0
 06 12 2013  12 24  -21.0432 26069.6 -03496.6 -07.6392 26303.1
 06 12 2013  12 25  -21.0433 26070.0 -03496.6 -07.6390 26303.4
 06 12 2013  12 26  -21.0433 26070.2 -03496.5 -07.6388 26303.7
 06 12 2013  12 27  -21.0432 26070.3 -03496.3 -07.6383 26303.7
 06 12 2013  12 28  -21.0430 26070.1 -03496.0 -07.6378 26303.4
 06 12 2013  12 29  -21.0429 26070.0 -03495.8 -07.6375 26303.3
 06 12 2013  12 30  -21.0428 26069.9 -03495.7 -07.6373 26303.2
 06 12 2013  12 31  -21.0426 26069.8 -03495.6 -07.6370 26303.1
 06 12 2013  12 32  -21.0427 26069.9 -03495.6 -07.6370 26303.2
 06 12 2013  12 33  -21.0429 26070.1 -03495.6 -07.6369 26303.4
 06 12 2013  12 34  -21.0429 26070.1 -03495.5 -07.6367 26303.4
 06 12 2013  12 35  -21.0429 26070.1 -03495.3 -07.6363 26303.3
 06 12 2013  12 36  -21.0429 26069.9 -03495.2 -07.6360 26303.2
 06 12 2013  12 37  -21.0429 26070.0 -03495.1 -07.6358 26303.2
 06 12 2013  12 38  -21.0429 26070.2 -03495.1 -07.6358 26303.5
 06 12 2013  12 39  -21.0429 26070.3 -03495.0 -07.6355 26303.5
 06 12 2013  12 40  -21.0432 26070.3 -03494.9 -07.6353 26303.5
 06 12 2013  12 41  -21.0433 26070.3 -03494.8 -07.6351 26303.5
 06 12 2013  12 42  -21.0436 26070.9 -03494.9 -07.6351 26304.1
 06 12 2013  12 43  -21.0440 26071.4 -03494.9 -07.6351 26304.6
 06 12 2013  12 44  -21.0443 26071.6 -03494.8 -07.6347 26304.8
 06 12 2013  12 45  -21.0446 26071.9 -03494.6 -07.6343 26305.0
 06 12 2013  12 46  -21.0448 26072.2 -03494.5 -07.6340 26305.4
 06 12 2013  12 47  -21.0449 26072.4 -03494.3 -07.6335 26305.6
 06 12 2013  12 48  -21.0448 26072.5 -03494.1 -07.6331 26305.6
 06 12 2013  12 49  -21.0446 26072.5 -03493.8 -07.6324 26305.6
 06 12 2013  12 50  -21.0441 26072.4 -03493.6 -07.6318 26305.4
 06 12 2013  12 51  -21.0437 26072.4 -03493.3 -07.6314 26305.4
 06 12 2013  12 52  -21.0434 26072.5 -03493.2 -07.6310 26305.5
 06 12 2013  12 53  -21.0431 26072.5 -03493.0 -07.6306 26305.4
 06 12 2013  12 54  -21.0428 26072.5 -03492.9 -07.6303 26305.4
 06 12 2013  12 55  -21.0425 26072.4 -03492.6 -07.6298 26305.3
 06 12 2013  12 56  -21.0421 26072.5 -03492.5 -07.6295 26305.3
 06 12 2013  12 57  -21.0416 26072.6 -03492.3 -07.6291 26305.4
 06 12 2013  12 58  -21.0410 26072.5 -03492.1 -07.6287 26305.3
 06 12 2013  12 59  -21.0404 26072.4 -03491.9 -07.6282 26305.2
 06 12 2013  13 00  -21.0398 26072.4 -03491.8 -07.6280 26305.2
 06 12 2013  13 01  -21.0395 26072.3 -03491.6 -07.6276 26305.1
 06 12 2013  13 02  -21.0393 26072.4 -03491.5 -07.6274 26305.1
 06 12 2013  13 03  -21.0393 26072.5 -03491.4 -07.6272 26305.3
 06 12 2013  13 04  -21.0393 26072.7 -03491.4 -07.6271 26305.5
 06 12 2013  13 05  -21.0390 26072.9 -03491.3 -07.6268 26305.6
 06 12 2013  13 06  -21.0389 26073.1 -03491.2 -07.6266 26305.8
 06 12 2013  13 07  -21.0389 26073.4 -03491.2 -07.6264 26306.1
 06 12 2013  13 08  -21.0388 26073.7 -03491.1 -07.6261 26306.4
 06 12 2013  13 09  -21.0387 26073.8 -03490.9 -07.6256 26306.5
 06 12 2013  13 10  -21.0385 26073.9 -03490.7 -07.6252 26306.6
 06 12 2013  13 11  -21.0384 26074.0 -03490.5 -07.6247 26306.6
 06 12 2013  13 12  -21.0380 26074.1 -03490.2 -07.6242 26306.6
 06 12 2013  13 13  -21.0384 26074.4 -03490.1 -07.6238 26306.9
 06 12 2013  13 14  -21.0385 26074.4 -03489.9 -07.6233 26306.9
 06 12 2013  13 15  -21.0385 26074.6 -03489.7 -07.6228 26307.1
 06 12 2013  13 16  -21.0383 26074.6 -03489.4 -07.6223 26307.1
 06 12 2013  13 17  -21.0381 26074.6 -03489.2 -07.6218 26307.1
 06 12 2013  13 18  -21.0378 26074.6 -03489.0 -07.6213 26307.0
 06 12 2013  13 19  -21.0375 26074.7 -03488.8 -07.6209 26307.0
 06 12 2013  13 20  -21.0371 26074.6 -03488.5 -07.6203 26306.9
 06 12 2013  13 21  -21.0367 26074.6 -03488.3 -07.6198 26306.9
 06 12 2013  13 22  -21.0363 26074.5 -03488.1 -07.6194 26306.8
 06 12 2013  13 23  -21.0351 26074.7 -03487.9 -07.6190 26307.0
 06 12 2013  13 24  -21.0348 26074.7 -03487.7 -07.6185 26306.9
 06 12 2013  13 25  -21.0343 26074.7 -03487.5 -07.6181 26306.9
 06 12 2013  13 26  -21.0337 26074.8 -03487.3 -07.6177 26307.0
 06 12 2013  13 27  -21.0330 26074.9 -03487.2 -07.6173 26307.0
 06 12 2013  13 28  -21.0324 26074.9 -03487.0 -07.6169 26307.0
 06 12 2013  13 29  -21.0320 26074.8 -03486.7 -07.6164 26306.9
 06 12 2013  13 30  -21.0314 26074.6 -03486.5 -07.6159 26306.7
 06 12 2013  13 31  -21.0310 26074.8 -03486.4 -07.6158 26306.8
 06 12 2013  13 32  -21.0301 26074.8 -03486.3 -07.6154 26306.8
 06 12 2013  13 33  -21.0293 26075.0 -03486.2 -07.6152 26307.0
 06 12 2013  13 34  -21.0284 26075.1 -03486.1 -07.6150 26307.1
 06 12 2013  13 35  -21.0275 26075.2 -03486.0 -07.6148 26307.1
 06 12 2013  13 36  -21.0267 26075.2 -03486.0 -07.6147 26307.2
 06 12 2013  13 37  -21.0258 26075.4 -03486.0 -07.6146 26307.4
 06 12 2013  13 38  -21.0250 26075.6 -03486.0 -07.6146 26307.6
 06 12 2013  13 39  -21.0244 26075.9 -03486.0 -07.6145 26307.9
 06 12 2013  13 40  -21.0235 26076.0 -03486.0 -07.6144 26308.0
 06 12 2013  13 41  -21.0229 26076.1 -03485.9 -07.6142 26308.1
 06 12 2013  13 42  -21.0223 26076.2 -03485.9 -07.6142 26308.1
 06 12 2013  13 43  -21.0217 26076.2 -03485.8 -07.6140 26308.1
 06 12 2013  13 44  -21.0213 26076.2 -03485.7 -07.6138 26308.1
 06 12 2013  13 45  -21.0242 26076.0 -03485.4 -07.6131 26307.9
 06 12 2013  13 46  -21.0238 26076.1 -03485.3 -07.6130 26308.0
 06 12 2013  13 47  -21.0236 26076.2 -03485.3 -07.6129 26308.1
 06 12 2013  13 48  -21.0231 26076.4 -03485.3 -07.6128 26308.3
 06 12 2013  13 49  -21.0227 26076.6 -03485.2 -07.6127 26308.4
 06 12 2013  13 50  -21.0222 26076.5 -03485.1 -07.6125 26308.3
 06 12 2013  13 51  -21.0217 26076.5 -03485.0 -07.6122 26308.3
 06 12 2013  13 52  -21.0200 26076.5 -03485.0 -07.6121 26308.3
 06 12 2013  13 53  -21.0172 26076.8 -03485.2 -07.6125 26308.6
 06 12 2013  13 54  -21.0169 26077.0 -03485.1 -07.6123 26308.8
 06 12 2013  13 55  -21.0167 26077.2 -03485.0 -07.6121 26309.0
 06 12 2013  13 56  -21.0164 26077.5 -03485.0 -07.6119 26309.3
 06 12 2013  13 57  -21.0159 26077.6 -03484.8 -07.6115 26309.4
 06 12 2013  13 58  -21.0152 26077.7 -03484.6 -07.6110 26309.5
 06 12 2013  13 59  -21.0143 26077.8 -03484.5 -07.6106 26309.6
 06 12 2013  14 00  -21.0134 26077.9 -03484.3 -07.6102 26309.6
 06 12 2013  14 01  -21.0126 26077.9 -03484.1 -07.6098 26309.6
 06 12 2013  14 02  -21.0119 26078.0 -03484.0 -07.6095 26309.7
 06 12 2013  14 03  -21.0111 26078.0 -03483.8 -07.6092 26309.7
 06 12 2013  14 04  -21.0104 26078.1 -03483.7 -07.6089 26309.8
 06 12 2013  14 05  -21.0099 26078.2 -03483.6 -07.6086 26309.8
 06 12 2013  14 06  -21.0093 26078.1 -03483.4 -07.6082 26309.7
 06 12 2013  14 07  -21.0085 26078.0 -03483.2 -07.6078 26309.6
 06 12 2013  14 08  -21.0075 26077.7 -03482.8 -07.6072 26309.2
 06 12 2013  14 09  -21.0067 26077.3 -03482.6 -07.6068 26308.8
 06 12 2013  14 10  -21.0059 26076.9 -03482.4 -07.6064 26308.4
 06 12 2013  14 11  -21.0049 26076.3 -03482.1 -07.6059 26307.7
 06 12 2013  14 12  -21.0041 26076.0 -03482.0 -07.6058 26307.4
 06 12 2013  14 13  -21.0036 26075.8 -03482.0 -07.6058 26307.3
 06 12 2013  14 14  -21.0031 26075.8 -03482.0 -07.6059 26307.3
 06 12 2013  14 15  -21.0026 26076.0 -03482.1 -07.6062 26307.5
 06 12 2013  14 16  -21.0022 26076.2 -03482.2 -07.6063 26307.7
 06 12 2013  14 17  -21.0017 26076.4 -03482.3 -07.6063 26307.8
 06 12 2013  14 18  -21.0012 26076.5 -03482.3 -07.6063 26308.0
 06 12 2013  14 19  -21.0005 26076.5 -03482.2 -07.6062 26308.0
 06 12 2013  14 20  -21.0000 26076.8 -03482.3 -07.6063 26308.3
 06 12 2013  14 21  -20.9993 26076.2 -03482.0 -07.6058 26307.7
 06 12 2013  14 22  -20.9986 26076.5 -03482.1 -07.6058 26308.0
 06 12 2013  14 23  -20.9981 26076.3 -03482.0 -07.6057 26307.8
 06 12 2013  14 24  -20.9977 26076.4 -03482.0 -07.6056 26307.8
 06 12 2013  14 25  -20.9973 26076.4 -03481.9 -07.6055 26307.8
 06 12 2013  14 26  -20.9966 26076.5 -03481.9 -07.6054 26307.9
 06 12 2013  14 27  -20.9960 26076.4 -03481.7 -07.6051 26307.8
 06 12 2013  14 28  -20.9953 26076.3 -03481.6 -07.6050 26307.7
 06 12 2013  14 29  -20.9945 26076.1 -03481.5 -07.6047 26307.5
 06 12 2013  14 30  -20.9937 26076.1 -03481.5 -07.6047 26307.5
 06 12 2013  14 31  -20.9931 26076.3 -03481.5 -07.6047 26307.6
 06 12 2013  14 32  -20.9926 26076.5 -03481.6 -07.6048 26307.9
 06 12 2013  14 33  -20.9919 26076.5 -03481.5 -07.6046 26307.9
 06 12 2013  14 34  -20.9910 26076.7 -03481.5 -07.6046 26308.0
 06 12 2013  14 35  -20.9902 26076.6 -03481.4 -07.6044 26308.0
 06 12 2013  14 36  -20.9894 26076.6 -03481.4 -07.6043 26308.0
 06 12 2013  14 37  -20.9885 26076.6 -03481.3 -07.6042 26308.0
 06 12 2013  14 38  -20.9878 26076.5 -03481.2 -07.6041 26307.8
 06 12 2013  14 39  -20.9872 26076.6 -03481.3 -07.6041 26307.9
 06 12 2013  14 40  -20.9863 26076.6 -03481.3 -07.6042 26308.0
 06 12 2013  14 41  -20.9855 26076.7 -03481.3 -07.6042 26308.0
 06 12 2013  14 42  -20.9847 26076.7 -03481.3 -07.6042 26308.1
 06 12 2013  14 43  -20.9842 26076.5 -03481.3 -07.6041 26307.9
 06 12 2013  14 44  -20.9833 26076.9 -03481.4 -07.6044 26308.2
 06 12 2013  14 45  -20.9828 26076.7 -03481.4 -07.6043 26308.1
 06 12 2013  14 46  -20.9822 26076.7 -03481.3 -07.6041 26308.0
 06 12 2013  14 47  -20.9814 26076.5 -03481.2 -07.6040 26307.9
 06 12 2013  14 48  -20.9808 26076.6 -03481.2 -07.6040 26308.0
 06 12 2013  14 49  -20.9803 26076.6 -03481.2 -07.6040 26307.9
 06 12 2013  14 50  -20.9797 26076.6 -03481.3 -07.6041 26308.0
 06 12 2013  14 51  -20.9790 26076.5 -03481.2 -07.6039 26307.8
 06 12 2013  14 52  -20.9783 26076.4 -03481.2 -07.6041 26307.8
 06 12 2013  14 53  -20.9775 26076.3 -03481.2 -07.6041 26307.7
 06 12 2013  14 54  -20.9770 26075.9 -03481.1 -07.6040 26307.2
 06 12 2013  14 55  -20.9760 26076.0 -03481.3 -07.6043 26307.4
 06 12 2013  14 56  -20.9753 26075.2 -03481.0 -07.6040 26306.6
 06 12 2013  14 57  -20.9750 26075.7 -03481.4 -07.6047 26307.1
 06 12 2013  14 58  -20.9745 26075.2 -03481.4 -07.6047 26306.6
 06 12 2013  14 59  -20.9740 26075.3 -03481.4 -07.6049 26306.7
 06 12 2013  15 00  -20.9734 26075.3 -03481.7 -07.6053 26306.7
 06 12 2013  15 01  -20.9728 26075.2 -03481.7 -07.6055 26306.7
 06 12 2013  15 02  -20.9724 26075.2 -03481.8 -07.6057 26306.7
 06 12 2013  15 03  -20.9719 26075.0 -03481.9 -07.6059 26306.4
 06 12 2013  15 04  -20.9715 26075.2 -03482.1 -07.6063 26306.6
 06 12 2013  15 05  -20.9711 26074.9 -03482.1 -07.6065 26306.4
 06 12 2013  15 06  -20.9703 26074.7 -03482.2 -07.6066 26306.2
 06 12 2013  15 07  -20.9696 26074.8 -03482.4 -07.6070 26306.3
 06 12 2013  15 08  -20.9691 26074.5 -03482.4 -07.6070 26306.0
 06 12 2013  15 09  -20.9685 26074.4 -03482.4 -07.6072 26305.9
 06 12 2013  15 10  -20.9678 26074.1 -03482.4 -07.6073 26305.6
 06 12 2013  15 11  -20.9672 26073.9 -03482.5 -07.6075 26305.4
 06 12 2013  15 12  -20.9666 26073.7 -03482.6 -07.6077 26305.3
 06 12 2013  15 13  -20.9659 26073.6 -03482.7 -07.6080 26305.1
 06 12 2013  15 14  -20.9654 26073.3 -03482.7 -07.6082 26304.9
 06 12 2013  15 15  -20.9649 26073.1 -03482.8 -07.6084 26304.7
 06 12 2013  15 16  -20.9641 26073.1 -03483.0 -07.6088 26304.7
 06 12 2013  15 17  -20.9637 26073.1 -03483.2 -07.6093 26304.7
 06 12 2013  15 18  -20.9630 26073.2 -03483.4 -07.6098 26304.9
 06 12 2013  15 19  -20.9626 26072.9 -03483.5 -07.6100 26304.5
 06 12 2013  15 20  -20.9619 26072.7 -03483.6 -07.6104 26304.4
 06 12 2013  15 21  -20.9610 26072.6 -03483.8 -07.6108 26304.3
 06 12 2013  15 22  -20.9606 26072.9 -03484.3 -07.6116 26304.7
 06 12 2013  15 23  -20.9606 26073.4 -03484.7 -07.6124 26305.2
 06 12 2013  15 24  -20.9601 26073.4 -03484.9 -07.6128 26305.3
 06 12 2013  15 25  -20.9597 26073.5 -03485.0 -07.6131 26305.4
 06 12 2013  15 26  -20.9588 26073.2 -03485.1 -07.6133 26305.1
 06 12 2013  15 27  -20.9583 26073.2 -03485.3 -07.6137 26305.1
 06 12 2013  15 28  -20.9577 26072.8 -03485.4 -07.6140 26304.8
 06 12 2013  15 29  -20.9573 26072.4 -03485.4 -07.6143 26304.4
 06 12 2013  15 30  -20.9568 26072.1 -03485.6 -07.6147 26304.0
 06 12 2013  15 31  -20.9565 26071.7 -03485.8 -07.6153 26303.7
 06 12 2013  15 32  -20.9560 26071.4 -03486.0 -07.6158 26303.4
 06 12 2013  15 33  -20.9559 26071.2 -03486.3 -07.6165 26303.3
 06 12 2013  15 34  -20.9557 26070.6 -03486.4 -07.6169 26302.7
 06 12 2013  15 35  -20.9554 26070.5 -03486.7 -07.6175 26302.6
 06 12 2013  15 36  -20.9552 26070.1 -03486.9 -07.6181 26302.3
 06 12 2013  15 37  -20.9554 26070.0 -03487.2 -07.6188 26302.2
 06 12 2013  15 38  -20.9555 26069.6 -03487.4 -07.6193 26301.8
 06 12 2013  15 39  -20.9551 26069.6 -03487.7 -07.6200 26301.8
 06 12 2013  15 40  -20.9548 26069.3 -03487.9 -07.6205 26301.6
 06 12 2013  15 41  -20.9547 26069.5 -03488.3 -07.6214 26301.8
 06 12 2013  15 42  -20.9547 26069.5 -03488.6 -07.6220 26301.9
 06 12 2013  15 43  -20.9549 26069.9 -03489.1 -07.6229 26302.4
 06 12 2013  15 44  -20.9547 26068.9 -03488.9 -07.6229 26301.3
 06 12 2013  15 45  -20.9546 26069.8 -03489.6 -07.6241 26302.3
 06 12 2013  15 46  -20.9548 26069.2 -03489.7 -07.6244 26301.7
 06 12 2013  15 47  -20.9551 26069.7 -03490.1 -07.6252 26302.3
 06 12 2013  15 48  -20.9550 26069.0 -03490.1 -07.6254 26301.6
 06 12 2013  15 49  -20.9546 26069.0 -03490.3 -07.6259 26301.6
 06 12 2013  15 50  -20.9544 26068.5 -03490.5 -07.6263 26301.1
 06 12 2013  15 51  -20.9544 26068.0 -03490.6 -07.6268 26300.6
 06 12 2013  15 52  -20.9546 26068.0 -03491.0 -07.6276 26300.7
 06 12 2013  15 53  -20.9546 26067.3 -03491.1 -07.6280 26300.0
 06 12 2013  15 54  -20.9550 26067.5 -03491.6 -07.6291 26300.3
 06 12 2013  15 55  -20.9556 26066.7 -03491.7 -07.6295 26299.6
 06 12 2013  15 56  -20.9562 26066.9 -03492.2 -07.6304 26299.8
 06 12 2013  15 57  -20.9570 26066.6 -03492.4 -07.6310 26299.5
 06 12 2013  15 58  -20.9576 26066.0 -03492.5 -07.6314 26298.9
 06 12 2013  15 59  -20.9583 26065.5 -03492.6 -07.6319 26298.4
 06 12 2013  16 00  -20.9589 26065.4 -03493.0 -07.6326 26298.4
 06 12 2013  16 01  -20.9596 26065.0 -03493.2 -07.6332 26298.0
 06 12 2013  16 02  -20.9597 26064.9 -03493.4 -07.6338 26298.0
 06 12 2013  16 03  -20.9608 26064.8 -03493.8 -07.6345 26297.9
 06 12 2013  16 04  -20.9618 26064.8 -03494.1 -07.6351 26298.0
 06 12 2013  16 05  -20.9630 26064.8 -03494.4 -07.6358 26298.0
 06 12 2013  16 06  -20.9639 26064.9 -03494.6 -07.6363 26298.1
 06 12 2013  16 07  -20.9648 26064.7 -03494.7 -07.6366 26297.9
 06 12 2013  16 08  -20.9655 26064.9 -03495.0 -07.6370 26298.2
 06 12 2013  16 09  -20.9664 26064.8 -03495.1 -07.6373 26298.1
 06 12 2013  16 10  -20.9672 26064.8 -03495.2 -07.6375 26298.1
 06 12 2013  16 11  -20.9680 26064.7 -03495.3 -07.6377 26298.0
 06 12 2013  16 12  -20.9684 26064.6 -03495.3 -07.6380 26297.9
 06 12 2013  16 13  -20.9689 26064.4 -03495.4 -07.6382 26297.7
 06 12 2013  16 14  -20.9696 26064.3 -03495.6 -07.6385 26297.7
 06 12 2013  16 15  -20.9701 26064.3 -03495.7 -07.6388 26297.7
 06 12 2013  16 16  -20.9706 26064.1 -03495.8 -07.6391 26297.5
 06 12 2013  16 17  -20.9712 26063.8 -03495.9 -07.6394 26297.2
 06 12 2013  16 18  -20.9719 26063.5 -03496.0 -07.6396 26296.9
 06 12 2013  16 19  -20.9724 26062.9 -03496.0 -07.6398 26296.4
 06 12 2013  16 20  -20.9727 26062.6 -03496.1 -07.6402 26296.0
 06 12 2013  16 21  -20.9735 26062.4 -03496.3 -07.6406 26295.9
 06 12 2013  16 22  -20.9745 26062.3 -03496.6 -07.6413 26295.9
 06 12 2013  16 23  -20.9751 26062.1 -03496.8 -07.6418 26295.7
 06 12 2013  16 24  -20.9754 26061.8 -03496.9 -07.6421 26295.4
 06 12 2013  16 25  -20.9763 26061.7 -03497.1 -07.6426 26295.2
 06 12 2013  16 26  -20.9774 26061.8 -03497.4 -07.6432 26295.4
 06 12 2013  16 27  -20.9782 26061.5 -03497.5 -07.6436 26295.1
 06 12 2013  16 28  -20.9784 26061.1 -03497.6 -07.6438 26294.8
 06 12 2013  16 29  -20.9787 26060.5 -03497.6 -07.6440 26294.1
 06 12 2013  16 30  -20.9794 26060.3 -03497.7 -07.6444 26294.0
 06 12 2013  16 31  -20.9804 26060.2 -03498.0 -07.6449 26294.0
 06 12 2013  16 32  -20.9813 26060.0 -03498.1 -07.6452 26293.7
 06 12 2013  16 33  -20.9818 26059.8 -03498.2 -07.6455 26293.5
 06 12 2013  16 34  -20.9826 26059.6 -03498.3 -07.6457 26293.3
 06 12 2013  16 35  -20.9834 26059.3 -03498.4 -07.6460 26293.1
 06 12 2013  16 36  -20.9842 26059.2 -03498.5 -07.6463 26293.0
 06 12 2013  16 37  -20.9851 26059.0 -03498.6 -07.6465 26292.8
 06 12 2013  16 38  -20.9857 26058.6 -03498.6 -07.6467 26292.4
 06 12 2013  16 39  -20.9862 26058.4 -03498.6 -07.6469 26292.2
 06 12 2013  16 40  -20.9869 26058.2 -03498.8 -07.6473 26292.0
 06 12 2013  16 41  -20.9876 26058.2 -03499.0 -07.6477 26292.0
 06 12 2013  16 42  -20.9883 26058.2 -03499.2 -07.6481 26292.1
 06 12 2013  16 43  -20.9890 26058.0 -03499.2 -07.6482 26291.8
 06 12 2013  16 44  -20.9900 26057.9 -03499.3 -07.6485 26291.9
 06 12 2013  16 45  -20.9905 26057.5 -03499.3 -07.6485 26291.4
 06 12 2013  16 46  -20.9909 26057.1 -03499.3 -07.6487 26291.0
 06 12 2013  16 47  -20.9913 26056.8 -03499.3 -07.6487 26290.7
 06 12 2013  16 48  -20.9920 26056.4 -03499.4 -07.6490 26290.3
 06 12 2013  16 49  -20.9924 26056.0 -03499.4 -07.6492 26290.0
 06 12 2013  16 50  -20.9927 26055.3 -03499.3 -07.6491 26289.2
 06 12 2013  16 51  -20.9931 26055.0 -03499.4 -07.6494 26288.9
 06 12 2013  16 52  -20.9934 26054.5 -03499.5 -07.6498 26288.5
 06 12 2013  16 53  -20.9941 26054.2 -03499.6 -07.6501 26288.2
 06 12 2013  16 54  -20.9949 26054.0 -03499.7 -07.6505 26288.0
 06 12 2013  16 55  -20.9955 26054.0 -03500.0 -07.6510 26288.0
 06 12 2013  16 56  -20.9963 26053.9 -03500.1 -07.6514 26288.0
 06 12 2013  16 57  -20.9969 26053.8 -03500.3 -07.6518 26287.9
 06 12 2013  16 58  -20.9978 26053.8 -03500.5 -07.6523 26287.9
 06 12 2013  16 59  -20.9985 26053.7 -03500.6 -07.6525 26287.8
 06 12 2013  17 00  -20.9991 26053.4 -03500.6 -07.6526 26287.5
 06 12 2013  17 01  -20.9997 26053.0 -03500.6 -07.6528 26287.2
 06 12 2013  17 02  -21.0001 26052.8 -03500.7 -07.6530 26287.0
 06 12 2013  17 03  -21.0005 26052.4 -03500.7 -07.6531 26286.6
 06 12 2013  17 04  -21.0008 26052.1 -03500.8 -07.6534 26286.3
 06 12 2013  17 05  -21.0010 26051.6 -03500.8 -07.6535 26285.8
 06 12 2013  17 06  -21.0013 26051.3 -03500.9 -07.6538 26285.5
 06 12 2013  17 07  -21.0017 26051.0 -03501.0 -07.6542 26285.2
 06 12 2013  17 08  -21.0023 26051.0 -03501.3 -07.6547 26285.2
 06 12 2013  17 09  -21.0028 26050.9 -03501.4 -07.6550 26285.2
 06 12 2013  17 10  -21.0035 26050.8 -03501.5 -07.6553 26285.1
 06 12 2013  17 11  -21.0042 26050.9 -03501.6 -07.6555 26285.1
 06 12 2013  17 12  -21.0046 26050.8 -03501.7 -07.6557 26285.1
 06 12 2013  17 13  -21.0052 26050.7 -03501.7 -07.6557 26285.0
 06 12 2013  17 14  -21.0056 26050.6 -03501.8 -07.6559 26284.9
 06 12 2013  17 15  -21.0062 26050.4 -03501.8 -07.6560 26284.7
 06 12 2013  17 16  -21.0068 26050.5 -03501.9 -07.6561 26284.8
 06 12 2013  17 17  -21.0074 26050.4 -03501.9 -07.6562 26284.7
 06 12 2013  17 18  -21.0076 26050.3 -03501.9 -07.6563 26284.6
 06 12 2013  17 19  -21.0081 26050.2 -03501.9 -07.6564 26284.6
 06 12 2013  17 20  -21.0085 26050.3 -03502.0 -07.6564 26284.6
 06 12 2013  17 21  -21.0090 26050.2 -03502.0 -07.6565 26284.5
 06 12 2013  17 22  -21.0090 26050.1 -03501.9 -07.6563 26284.5
 06 12 2013  17 23  -21.0094 26050.0 -03501.9 -07.6564 26284.3
 06 12 2013  17 24  -21.0096 26049.8 -03501.9 -07.6564 26284.1
 06 12 2013  17 25  -21.0099 26049.8 -03501.9 -07.6564 26284.1
 06 12 2013  17 26  -21.0102 26049.7 -03501.9 -07.6564 26284.0
 06 12 2013  17 27  -21.0103 26049.6 -03501.9 -07.6564 26283.9
 06 12 2013  17 28  -21.0106 26049.5 -03501.9 -07.6565 26283.9
 06 12 2013  17 29  -21.0106 26049.5 -03501.9 -07.6564 26283.8
 06 12 2013  17 30  -21.0106 26049.4 -03501.9 -07.6564 26283.8
 06 12 2013  17 31  -21.0105 26049.4 -03501.9 -07.6564 26283.7
 06 12 2013  17 32  -21.0106 26049.3 -03501.9 -07.6566 26283.6
 06 12 2013  17 33  -21.0107 26049.4 -03502.0 -07.6567 26283.7
 06 12 2013  17 34  -21.0107 26049.2 -03502.0 -07.6567 26283.5
 06 12 2013  17 35  -21.0107 26049.1 -03501.9 -07.6567 26283.4
 06 12 2013  17 36  -21.0108 26049.0 -03502.0 -07.6568 26283.4
 06 12 2013  17 37  -21.0110 26048.9 -03502.0 -07.6569 26283.2
 06 12 2013  17 38  -21.0112 26048.9 -03502.1 -07.6571 26283.2
 06 12 2013  17 39  -21.0115 26048.7 -03502.1 -07.6571 26283.1
 06 12 2013  17 40  -21.0118 26048.6 -03502.1 -07.6571 26282.9
 06 12 2013  17 41  -21.0120 26048.4 -03502.0 -07.6571 26282.8
 06 12 2013  17 42  -21.0125 26048.2 -03502.1 -07.6572 26282.5
 06 12 2013  17 43  -21.0129 26047.9 -03502.0 -07.6573 26282.3
 06 12 2013  17 44  -21.0134 26047.6 -03502.1 -07.6574 26282.0
 06 12 2013  17 45  -21.0140 26047.5 -03502.2 -07.6577 26281.9
 06 12 2013  17 46  -21.0145 26047.4 -03502.3 -07.6580 26281.8
 06 12 2013  17 47  -21.0150 26047.4 -03502.4 -07.6582 26281.8
 06 12 2013  17 48  -21.0155 26047.3 -03502.5 -07.6584 26281.8
 06 12 2013  17 49  -21.0160 26047.3 -03502.6 -07.6586 26281.8
 06 12 2013  17 50  -21.0165 26047.2 -03502.6 -07.6588 26281.7
 06 12 2013  17 51  -21.0171 26047.1 -03502.7 -07.6589 26281.6
 06 12 2013  17 52  -21.0174 26047.1 -03502.7 -07.6589 26281.5
 06 12 2013  17 53  -21.0179 26047.0 -03502.8 -07.6591 26281.5
 06 12 2013  17 54  -21.0182 26046.9 -03502.8 -07.6591 26281.3
 06 12 2013  17 55  -21.0185 26046.8 -03502.8 -07.6592 26281.2
 06 12 2013  17 56  -21.0190 26046.7 -03502.8 -07.6594 26281.2
 06 12 2013  17 57  -21.0195 26046.6 -03502.9 -07.6594 26281.1
 06 12 2013  17 58  -21.0198 26046.4 -03502.8 -07.6594 26280.9
 06 12 2013  17 59  -21.0200 26046.3 -03502.8 -07.6594 26280.8
 06 12 2013  18 00  -21.0203 26046.3 -03502.9 -07.6596 26280.8
 06 12 2013  18 01  -21.0205 26046.3 -03503.0 -07.6598 26280.8
 06 12 2013  18 02  -21.0208 26046.4 -03503.1 -07.6601 26280.9
 06 12 2013  18 03  -21.0209 26046.2 -03503.2 -07.6602 26280.8
 06 12 2013  18 04  -21.0212 26046.0 -03503.1 -07.6602 26280.6
 06 12 2013  18 05  -21.0213 26045.9 -03503.2 -07.6603 26280.5
 06 12 2013  18 06  -21.0218 26045.9 -03503.2 -07.6604 26280.4
 06 12 2013  18 07  -21.0223 26045.9 -03503.3 -07.6606 26280.4
 06 12 2013  18 08  -21.0224 26045.8 -03503.3 -07.6605 26280.3
 06 12 2013  18 09  -21.0224 26045.6 -03503.2 -07.6605 26280.1
 06 12 2013  18 10  -21.0224 26045.4 -03503.2 -07.6605 26280.0
 06 12 2013  18 11  -21.0224 26045.4 -03503.3 -07.6607 26280.0
 06 12 2013  18 12  -21.0227 26045.5 -03503.4 -07.6609 26280.1
 06 12 2013  18 13  -21.0228 26045.6 -03503.5 -07.6610 26280.2
 06 12 2013  18 14  -21.0230 26045.6 -03503.5 -07.6611 26280.2
 06 12 2013  18 15  -21.0231 26045.6 -03503.5 -07.6612 26280.2
 06 12 2013  18 16  -21.0232 26045.5 -03503.6 -07.6612 26280.1
 06 12 2013  18 17  -21.0233 26045.3 -03503.6 -07.6613 26279.9
 06 12 2013  18 18  -21.0233 26045.4 -03503.6 -07.6614 26280.0
 06 12 2013  18 19  -21.0234 26045.4 -03503.7 -07.6616 26280.0
 06 12 2013  18 20  -21.0234 26045.3 -03503.7 -07.6617 26280.0
 06 12 2013  18 21  -21.0232 26045.3 -03503.8 -07.6618 26279.9
 06 12 2013  18 22  -21.0229 26045.4 -03503.9 -07.6621 26280.1
 06 12 2013  18 23  -21.0227 26045.4 -03504.0 -07.6621 26280.1
 06 12 2013  18 24  -21.0226 26045.3 -03504.0 -07.6622 26279.9
 06 12 2013  18 25  -21.0224 26045.2 -03504.0 -07.6623 26279.9
 06 12 2013  18 26  -21.0222 26045.0 -03504.0 -07.6624 26279.7
 06 12 2013  18 27  -21.0222 26044.8 -03504.0 -07.6624 26279.4
 06 12 2013  18 28  -21.0221 26044.7 -03504.0 -07.6625 26279.3
 06 12 2013  18 29  -21.0220 26044.7 -03504.1 -07.6627 26279.4
 06 12 2013  18 30  -21.0219 26044.4 -03504.0 -07.6626 26279.0
 06 12 2013  18 31  -21.0216 26044.0 -03504.0 -07.6626 26278.7
 06 12 2013  18 32  -21.0214 26043.9 -03504.0 -07.6627 26278.6
 06 12 2013  18 33  -21.0214 26043.9 -03504.2 -07.6630 26278.5
 06 12 2013  18 34  -21.0213 26044.0 -03504.4 -07.6634 26278.7
 06 12 2013  18 35  -21.0232 26043.8 -03504.5 -07.6639 26278.6
 06 12 2013  18 36  -21.0224 26043.7 -03504.5 -07.6639 26278.5
 06 12 2013  18 37  -21.0209 26043.8 -03504.6 -07.6639 26278.5
 06 12 2013  18 38  -21.0209 26043.9 -03504.7 -07.6642 26278.7
 06 12 2013  18 39  -21.0210 26043.7 -03504.7 -07.6642 26278.5
 06 12 2013  18 40  -21.0209 26043.5 -03504.6 -07.6641 26278.2
 06 12 2013  18 41  -21.0209 26043.3 -03504.6 -07.6641 26278.1
 06 12 2013  18 42  -21.0209 26043.4 -03504.7 -07.6643 26278.2
 06 12 2013  18 43  -21.0211 26043.6 -03504.9 -07.6646 26278.4
 06 12 2013  18 44  -21.0213 26043.6 -03504.9 -07.6648 26278.4
 06 12 2013  18 45  -21.0214 26043.7 -03505.0 -07.6648 26278.5
 06 12 2013  18 46  -21.0213 26043.7 -03505.0 -07.6649 26278.5
 06 12 2013  18 47  -21.0214 26043.8 -03505.1 -07.6650 26278.6
 06 12 2013  18 48  -21.0214 26043.8 -03505.0 -07.6649 26278.6
 06 12 2013  18 49  -21.0212 26043.7 -03505.0 -07.6649 26278.5
 06 12 2013  18 50  -21.0211 26043.7 -03505.1 -07.6650 26278.5
 06 12 2013  18 51  -21.0210 26043.6 -03505.0 -07.6649 26278.4
 06 12 2013  18 52  -21.0210 26043.5 -03505.0 -07.6649 26278.3
 06 12 2013  18 53  -21.0209 26043.5 -03505.0 -07.6650 26278.3
 06 12 2013  18 54  -21.0210 26043.4 -03505.1 -07.6651 26278.2
 06 12 2013  18 55  -21.0210 26043.3 -03505.1 -07.6652 26278.1
 06 12 2013  18 56  -21.0211 26043.3 -03505.2 -07.6653 26278.1
 06 12 2013  18 57  -21.0212 26043.2 -03505.2 -07.6654 26278.0
 06 12 2013  18 58  -21.0212 26043.0 -03505.2 -07.6655 26277.9
 06 12 2013  18 59  -21.0214 26042.8 -03505.2 -07.6655 26277.6
 06 12 2013  19 00  -21.0214 26042.4 -03505.1 -07.6654 26277.2
 06 12 2013  19 01  -21.0214 26041.8 -03504.9 -07.6653 26276.6
 06 12 2013  19 02  -21.0213 26041.4 -03504.8 -07.6651 26276.2
 06 12 2013  19 03  -21.0214 26041.1 -03504.8 -07.6652 26275.9
 06 12 2013  19 04  -21.0215 26040.8 -03504.8 -07.6653 26275.6
 06 12 2013  19 05  -21.0215 26040.6 -03504.9 -07.6656 26275.4
 06 12 2013  19 06  -21.0216 26040.6 -03505.1 -07.6660 26275.5
 06 12 2013  19 07  -21.0216 26040.5 -03505.2 -07.6663 26275.4
 06 12 2013  19 08  -21.0215 26040.5 -03505.3 -07.6665 26275.3
 06 12 2013  19 09  -21.0214 26040.5 -03505.5 -07.6669 26275.4
 06 12 2013  19 10  -21.0214 26040.5 -03505.7 -07.6673 26275.4
 06 12 2013  19 11  -21.0214 26040.5 -03505.8 -07.6676 26275.4
 06 12 2013  19 12  -21.0214 26040.4 -03505.9 -07.6679 26275.3
 06 12 2013  19 13  -21.0216 26040.2 -03506.0 -07.6681 26275.2
 06 12 2013  19 14  -21.0217 26040.2 -03506.1 -07.6683 26275.2
 06 12 2013  19 15  -21.0216 26040.3 -03506.3 -07.6686 26275.2
 06 12 2013  19 16  -21.0217 26040.3 -03506.4 -07.6689 26275.3
 06 12 2013  19 17  -21.0219 26040.1 -03506.5 -07.6691 26275.2
 06 12 2013  19 18  -21.0220 26040.1 -03506.6 -07.6694 26275.2
 06 12 2013  19 19  -21.0223 26040.1 -03506.7 -07.6697 26275.2
 06 12 2013  19 20  -21.0224 26040.1 -03506.9 -07.6700 26275.2
 06 12 2013  19 21  -21.0226 26040.1 -03507.0 -07.6702 26275.2
 06 12 2013  19 22  -21.0229 26040.1 -03507.1 -07.6704 26275.3
 06 12 2013  19 23  -21.0230 26040.2 -03507.2 -07.6706 26275.3
 06 12 2013  19 24  -21.0234 26040.3 -03507.3 -07.6709 26275.4
 06 12 2013  19 25  -21.0237 26040.3 -03507.5 -07.6712 26275.5
 06 12 2013  19 26  -21.0240 26040.4 -03507.5 -07.6713 26275.5
 06 12 2013  19 27  -21.0244 26040.3 -03507.6 -07.6714 26275.5
 06 12 2013  19 28  -21.0248 26040.2 -03507.6 -07.6715 26275.4
 06 12 2013  19 29  -21.0253 26040.1 -03507.6 -07.6716 26275.3
 06 12 2013  19 30  -21.0258 26040.1 -03507.7 -07.6718 26275.3
 06 12 2013  19 31  -21.0263 26040.1 -03507.8 -07.6720 26275.3
 06 12 2013  19 32  -21.0268 26039.9 -03507.8 -07.6720 26275.1
 06 12 2013  19 33  -21.0272 26039.8 -03507.9 -07.6722 26275.1
 06 12 2013  19 34  -21.0277 26039.8 -03507.9 -07.6723 26275.0
 06 12 2013  19 35  -21.0282 26039.6 -03507.9 -07.6724 26274.8
 06 12 2013  19 36  -21.0288 26039.5 -03508.0 -07.6726 26274.8
 06 12 2013  19 37  -21.0293 26039.5 -03508.0 -07.6727 26274.7
 06 12 2013  19 38  -21.0296 26039.4 -03508.1 -07.6729 26274.7
 06 12 2013  19 39  -21.0299 26039.5 -03508.2 -07.6731 26274.8
 06 12 2013  19 40  -21.0302 26039.4 -03508.2 -07.6732 26274.6
 06 12 2013  19 41  -21.0305 26039.2 -03508.3 -07.6733 26274.5
 06 12 2013  19 42  -21.0309 26039.0 -03508.3 -07.6733 26274.3
 06 12 2013  19 43  -21.0313 26039.0 -03508.3 -07.6734 26274.3
 06 12 2013  19 44  -21.0316 26038.9 -03508.4 -07.6736 26274.2
 06 12 2013  19 45  -21.0319 26038.9 -03508.5 -07.6738 26274.2
 06 12 2013  19 46  -21.0323 26038.8 -03508.6 -07.6740 26274.1
 06 12 2013  19 47  -21.0327 26038.7 -03508.6 -07.6740 26274.0
 06 12 2013  19 48  -21.0331 26038.6 -03508.6 -07.6742 26273.9
 06 12 2013  19 49  -21.0334 26038.4 -03508.6 -07.6742 26273.7
 06 12 2013  19 50  -21.0339 26038.2 -03508.6 -07.6743 26273.5
 06 12 2013  19 51  -21.0342 26038.0 -03508.6 -07.6742 26273.3
 06 12 2013  19 52  -21.0346 26038.0 -03508.6 -07.6744 26273.3
 06 12 2013  19 53  -21.0349 26037.8 -03508.6 -07.6745 26273.1
 06 12 2013  19 54  -21.0351 26037.6 -03508.6 -07.6745 26272.9
 06 12 2013  19 55  -21.0354 26037.4 -03508.7 -07.6746 26272.8
 06 12 2013  19 56  -21.0356 26037.3 -03508.7 -07.6747 26272.6
 06 12 2013  19 57  -21.0358 26037.0 -03508.6 -07.6747 26272.3
 06 12 2013  19 58  -21.0360 26036.7 -03508.6 -07.6746 26272.0
 06 12 2013  19 59  -21.0362 26036.4 -03508.5 -07.6746 26271.7
 06 12 2013  20 00  -21.0363 26036.1 -03508.5 -07.6746 26271.5
 06 12 2013  20 01  -21.0363 26036.0 -03508.5 -07.6748 26271.3
 06 12 2013  20 02  -21.0363 26035.8 -03508.6 -07.6749 26271.2
 06 12 2013  20 03  -21.0364 26035.7 -03508.6 -07.6750 26271.0
 06 12 2013  20 04  -21.0364 26035.5 -03508.6 -07.6751 26270.9
 06 12 2013  20 05  -21.0363 26035.5 -03508.7 -07.6752 26270.9
 06 12 2013  20 06  -21.0362 26035.5 -03508.8 -07.6755 26270.9
 06 12 2013  20 07  -21.0361 26035.4 -03508.8 -07.6756 26270.8
 06 12 2013  20 08  -21.0362 26035.2 -03508.9 -07.6757 26270.6
 06 12 2013  20 09  -21.0362 26035.0 -03508.9 -07.6758 26270.4
 06 12 2013  20 10  -21.0363 26034.8 -03508.9 -07.6758 26270.2
 06 12 2013  20 11  -21.0362 26034.7 -03508.9 -07.6758 26270.1
 06 12 2013  20 12  -21.0362 26034.6 -03509.0 -07.6761 26270.0
 06 12 2013  20 13  -21.0359 26034.6 -03509.0 -07.6763 26270.0
 06 12 2013  20 14  -21.0357 26034.5 -03509.1 -07.6764 26269.9
 06 12 2013  20 15  -21.0354 26034.4 -03509.1 -07.6764 26269.8
 06 12 2013  20 16  -21.0354 26034.2 -03509.1 -07.6766 26269.7
 06 12 2013  20 17  -21.0352 26034.0 -03509.2 -07.6767 26269.5
 06 12 2013  20 18  -21.0352 26033.8 -03509.1 -07.6767 26269.2
 06 12 2013  20 19  -21.0350 26033.6 -03509.1 -07.6767 26269.1
 06 12 2013  20 20  -21.0349 26033.5 -03509.2 -07.6769 26269.0
 06 12 2013  20 21  -21.0347 26033.4 -03509.3 -07.6771 26268.9
 06 12 2013  20 22  -21.0345 26033.4 -03509.4 -07.6773 26268.8
 06 12 2013  20 23  -21.0343 26033.3 -03509.4 -07.6774 26268.7
 06 12 2013  20 24  -21.0341 26033.2 -03509.5 -07.6777 26268.7
 06 12 2013  20 25  -21.0339 26033.1 -03509.6 -07.6778 26268.6
 06 12 2013  20 26  -21.0335 26033.0 -03509.7 -07.6781 26268.5
 06 12 2013  20 27  -21.0333 26033.0 -03509.8 -07.6783 26268.6
 06 12 2013  20 28  -21.0332 26032.9 -03509.9 -07.6785 26268.5
 06 12 2013  20 29  -21.0330 26032.9 -03509.9 -07.6786 26268.4
 06 12 2013  20 30  -21.0328 26032.8 -03510.0 -07.6788 26268.3
 06 12 2013  20 31  -21.0325 26032.7 -03510.0 -07.6789 26268.2
 06 12 2013  20 32  -21.0321 26032.6 -03510.1 -07.6791 26268.2
 06 12 2013  20 33  -21.0319 26032.6 -03510.1 -07.6792 26268.1
 06 12 2013  20 34  -21.0317 26032.6 -03510.2 -07.6794 26268.2
 06 12 2013  20 35  -21.0314 26032.6 -03510.3 -07.6796 26268.2
 06 12 2013  20 36  -21.0311 26032.6 -03510.4 -07.6798 26268.2
 06 12 2013  20 37  -21.0308 26032.6 -03510.5 -07.6799 26268.2
 06 12 2013  20 38  -21.0306 26032.6 -03510.5 -07.6801 26268.2
 06 12 2013  20 39  -21.0303 26032.5 -03510.6 -07.6802 26268.1
 06 12 2013  20 40  -21.0299 26032.5 -03510.6 -07.6803 26268.1
 06 12 2013  20 41  -21.0294 26032.5 -03510.7 -07.6804 26268.2
 06 12 2013  20 42  -21.0289 26032.7 -03510.8 -07.6805 26268.4
 06 12 2013  20 43  -21.0284 26033.0 -03511.0 -07.6809 26268.7
 06 12 2013  20 44  -21.0279 26033.3 -03511.2 -07.6813 26269.1
 06 12 2013  20 45  -21.0273 26033.5 -03511.3 -07.6814 26269.3
 06 12 2013  20 46  -21.0269 26033.6 -03511.3 -07.6814 26269.4
 06 12 2013  20 47  -21.0267 26033.6 -03511.2 -07.6813 26269.4
 06 12 2013  20 48  -21.0262 26033.7 -03511.2 -07.6811 26269.4
 06 12 2013  20 49  -21.0257 26033.7 -03511.2 -07.6812 26269.5
 06 12 2013  20 50  -21.0253 26033.8 -03511.2 -07.6812 26269.5
 06 12 2013  20 51  -21.0250 26033.7 -03511.2 -07.6811 26269.4
 06 12 2013  20 52  -21.0246 26033.5 -03511.0 -07.6809 26269.2
 06 12 2013  20 53  -21.0242 26033.4 -03510.9 -07.6807 26269.0
 06 12 2013  20 54  -21.0238 26033.3 -03510.9 -07.6806 26268.9
 06 12 2013  20 55  -21.0235 26033.1 -03510.8 -07.6805 26268.7
 06 12 2013  20 56  -21.0233 26032.8 -03510.7 -07.6803 26268.4
 06 12 2013  20 57  -21.0231 26032.3 -03510.4 -07.6800 26267.9
 06 12 2013  20 58  -21.0230 26032.0 -03510.3 -07.6798 26267.6
 06 12 2013  20 59  -21.0225 26032.0 -03510.3 -07.6798 26267.6
 06 12 2013  21 00  -21.0219 26032.0 -03510.5 -07.6801 26267.6
 06 12 2013  21 01  -21.0214 26031.9 -03510.5 -07.6802 26267.6
 06 12 2013  21 02  -21.0208 26031.8 -03510.5 -07.6803 26267.4
 06 12 2013  21 03  -21.0202 26031.7 -03510.6 -07.6806 26267.4
 06 12 2013  21 04  -21.0196 26031.7 -03510.7 -07.6808 26267.3
 06 12 2013  21 05  -21.0191 26031.5 -03510.9 -07.6811 26267.2
 06 12 2013  21 06  -21.0187 26031.4 -03510.9 -07.6813 26267.1
 06 12 2013  21 07  -21.0185 26031.3 -03511.0 -07.6815 26267.0
 06 12 2013  21 08  -21.0185 26031.1 -03511.1 -07.6818 26266.9
 06 12 2013  21 09  -21.0185 26031.0 -03511.2 -07.6821 26266.8
 06 12 2013  21 10  -21.0185 26031.2 -03511.4 -07.6825 26267.0
 06 12 2013  21 11  -21.0184 26031.5 -03511.7 -07.6829 26267.3
 06 12 2013  21 12  -21.0181 26031.8 -03511.9 -07.6832 26267.6
 06 12 2013  21 13  -21.0180 26031.9 -03512.0 -07.6834 26267.8
 06 12 2013  21 14  -21.0177 26032.0 -03512.1 -07.6835 26267.9
 06 12 2013  21 15  -21.0173 26032.1 -03512.1 -07.6836 26268.0
 06 12 2013  21 16  -21.0168 26032.5 -03512.2 -07.6838 26268.3
 06 12 2013  21 17  -21.0160 26033.1 -03512.5 -07.6843 26269.0
 06 12 2013  21 18  -21.0149 26034.2 -03513.0 -07.6850 26270.1
 06 12 2013  21 19  -21.0144 26034.4 -03513.2 -07.6853 26270.4
 06 12 2013  21 20  -21.0141 26034.3 -03513.2 -07.6852 26270.3
 06 12 2013  21 21  -21.0140 26034.0 -03513.0 -07.6850 26270.0
 06 12 2013  21 22  -21.0140 26033.6 -03512.8 -07.6846 26269.5
 06 12 2013  21 23  -21.0141 26033.2 -03512.6 -07.6843 26269.1
 06 12 2013  21 24  -21.0141 26032.9 -03512.4 -07.6841 26268.7
 06 12 2013  21 25  -21.0142 26032.8 -03512.4 -07.6841 26268.7
 06 12 2013  21 26  -21.0140 26032.7 -03512.4 -07.6841 26268.6
 06 12 2013  21 27  -21.0137 26032.8 -03512.5 -07.6843 26268.7
 06 12 2013  21 28  -21.0133 26032.9 -03512.6 -07.6845 26268.8
 06 12 2013  21 29  -21.0128 26032.9 -03512.7 -07.6847 26268.8
 06 12 2013  21 30  -21.0123 26032.9 -03512.8 -07.6849 26268.9
 06 12 2013  21 31  -21.0121 26033.0 -03513.0 -07.6852 26269.0
 06 12 2013  21 32  -21.0121 26033.0 -03513.0 -07.6854 26268.9
 06 12 2013  21 33  -21.0122 26032.8 -03513.1 -07.6855 26268.7
 06 12 2013  21 34  -21.0122 26032.4 -03513.0 -07.6855 26268.4
 06 12 2013  21 35  -21.0120 26032.0 -03512.9 -07.6853 26268.0
 06 12 2013  21 36  -21.0119 26031.9 -03512.9 -07.6855 26267.9
 06 12 2013  21 37  -21.0117 26031.7 -03513.0 -07.6857 26267.7
 06 12 2013  21 38  -21.0115 26031.6 -03513.1 -07.6858 26267.6
 06 12 2013  21 39  -21.0114 26031.4 -03513.1 -07.6860 26267.4
 06 12 2013  21 40  -21.0109 26031.3 -03513.2 -07.6861 26267.3
 06 12 2013  21 41  -21.0104 26031.1 -03513.2 -07.6863 26267.2
 06 12 2013  21 42  -21.0100 26031.1 -03513.3 -07.6865 26267.1
 06 12 2013  21 43  -21.0096 26031.0 -03513.4 -07.6868 26267.1
 06 12 2013  21 44  -21.0091 26030.9 -03513.5 -07.6870 26267.0
 06 12 2013  21 45  -21.0088 26030.8 -03513.6 -07.6872 26266.8
 06 12 2013  21 46  -21.0084 26030.5 -03513.5 -07.6872 26266.5
 06 12 2013  21 47  -21.0080 26030.3 -03513.6 -07.6874 26266.4
 06 12 2013  21 48  -21.0076 26030.1 -03513.6 -07.6875 26266.2
 06 12 2013  21 49  -21.0073 26030.1 -03513.8 -07.6878 26266.1
 06 12 2013  21 50  -21.0071 26029.9 -03513.8 -07.6879 26265.9
 06 12 2013  21 51  -21.0074 26029.4 -03513.8 -07.6880 26265.5
 06 12 2013  21 52  -21.0076 26028.9 -03513.6 -07.6878 26265.0
 06 12 2013  21 53  -21.0078 26028.4 -03513.5 -07.6876 26264.5
 06 12 2013  21 54  -21.0081 26028.0 -03513.4 -07.6875 26264.1
 06 12 2013  21 55  -21.0083 26027.9 -03513.4 -07.6876 26263.9
 06 12 2013  21 56  -21.0086 26027.7 -03513.5 -07.6879 26263.8
 06 12 2013  21 57  -21.0087 26027.5 -03513.6 -07.6881 26263.6
 06 12 2013  21 58  -21.0087 26027.4 -03513.6 -07.6882 26263.5
 06 12 2013  21 59  -21.0083 26027.3 -03513.6 -07.6882 26263.4
 06 12 2013  22 00  -21.0078 26027.2 -03513.6 -07.6884 26263.3
 06 12 2013  22 01  -21.0075 26027.1 -03513.7 -07.6885 26263.2
 06 12 2013  22 02  -21.0075 26027.2 -03513.8 -07.6888 26263.3
 06 12 2013  22 03  -21.0074 26027.1 -03514.0 -07.6891 26263.3
 06 12 2013  22 04  -21.0072 26027.2 -03514.1 -07.6893 26263.3
 06 12 2013  22 05  -21.0070 26027.2 -03514.2 -07.6895 26263.4
 06 12 2013  22 06  -21.0066 26027.3 -03514.3 -07.6897 26263.5
 06 12 2013  22 07  -21.0064 26027.5 -03514.4 -07.6900 26263.7
 06 12 2013  22 08  -21.0063 26027.6 -03514.6 -07.6903 26263.8
 06 12 2013  22 09  -21.0063 26027.7 -03514.7 -07.6905 26263.9
 06 12 2013  22 10  -21.0065 26027.8 -03514.8 -07.6908 26264.1
 06 12 2013  22 11  -21.0067 26027.9 -03514.9 -07.6909 26264.2
 06 12 2013  22 12  -21.0068 26028.0 -03515.0 -07.6911 26264.3
 06 12 2013  22 13  -21.0068 26027.9 -03515.0 -07.6912 26264.2
 06 12 2013  22 14  -21.0066 26027.7 -03515.0 -07.6910 26264.0
 06 12 2013  22 15  -21.0064 26027.6 -03514.9 -07.6910 26263.9
 06 12 2013  22 16  -21.0062 26027.5 -03514.9 -07.6910 26263.8
 06 12 2013  22 17  -21.0060 26027.4 -03514.9 -07.6909 26263.7
 06 12 2013  22 18  -21.0060 26027.5 -03514.9 -07.6911 26263.7
 06 12 2013  22 19  -21.0060 26027.4 -03515.0 -07.6912 26263.7
 06 12 2013  22 20  -21.0060 26027.3 -03515.0 -07.6912 26263.5
 06 12 2013  22 21  -21.0061 26027.2 -03515.0 -07.6913 26263.5
 06 12 2013  22 22  -21.0060 26027.1 -03514.9 -07.6912 26263.4
 06 12 2013  22 23  -21.0060 26027.0 -03514.9 -07.6912 26263.3
 06 12 2013  22 24  -21.0061 26027.0 -03515.0 -07.6914 26263.3
 06 12 2013  22 25  -21.0061 26026.9 -03515.0 -07.6914 26263.2
 06 12 2013  22 26  -21.0063 26026.7 -03515.0 -07.6914 26263.0
 06 12 2013  22 27  -21.0065 26026.5 -03514.9 -07.6914 26262.8
 06 12 2013  22 28  -21.0065 26026.2 -03514.8 -07.6911 26262.5
 06 12 2013  22 29  -21.0066 26026.1 -03514.7 -07.6910 26262.3
 06 12 2013  22 30  -21.0066 26025.9 -03514.7 -07.6910 26262.2
 06 12 2013  22 31  -21.0066 26025.8 -03514.6 -07.6909 26262.1
 06 12 2013  22 32  -21.0067 26025.6 -03514.6 -07.6909 26261.9
 06 12 2013  22 33  -21.0067 26025.5 -03514.6 -07.6909 26261.8
 06 12 2013  22 34  -21.0066 26025.4 -03514.6 -07.6910 26261.7
 06 12 2013  22 35  -21.0066 26025.3 -03514.6 -07.6910 26261.6
 06 12 2013  22 36  -21.0066 26025.3 -03514.7 -07.6911 26261.6
 06 12 2013  22 37  -21.0065 26025.4 -03514.7 -07.6912 26261.6
 06 12 2013  22 38  -21.0064 26025.3 -03514.8 -07.6913 26261.6
 06 12 2013  22 39  -21.0062 26025.3 -03514.8 -07.6913 26261.5
 06 12 2013  22 40  -21.0059 26025.2 -03514.8 -07.6914 26261.5
 06 12 2013  22 41  -21.0057 26025.2 -03514.9 -07.6916 26261.4
 06 12 2013  22 42  -21.0056 26025.2 -03514.9 -07.6917 26261.5
 06 12 2013  22 43  -21.0056 26025.3 -03515.0 -07.6919 26261.6
 06 12 2013  22 44  -21.0057 26025.3 -03515.1 -07.6921 26261.6
 06 12 2013  22 45  -21.0058 26025.4 -03515.2 -07.6924 26261.7
 06 12 2013  22 46  -21.0058 26025.4 -03515.3 -07.6924 26261.7
 06 12 2013  22 47  -21.0056 26025.3 -03515.3 -07.6926 26261.7
 06 12 2013  22 48  -21.0053 26025.3 -03515.4 -07.6926 26261.7
 06 12 2013  22 49  -21.0052 26025.4 -03515.5 -07.6929 26261.7
 06 12 2013  22 50  -21.0049 26025.4 -03515.6 -07.6931 26261.8
 06 12 2013  22 51  -21.0048 26025.4 -03515.6 -07.6932 26261.8
 06 12 2013  22 52  -21.0049 26025.4 -03515.7 -07.6933 26261.8
 06 12 2013  22 53  -21.0051 26025.3 -03515.7 -07.6934 26261.7
 06 12 2013  22 54  -21.0055 26025.1 -03515.7 -07.6934 26261.5
 06 12 2013  22 55  -21.0058 26025.0 -03515.7 -07.6934 26261.4
 06 12 2013  22 56  -21.0059 26024.9 -03515.7 -07.6934 26261.3
 06 12 2013  22 57  -21.0058 26024.8 -03515.6 -07.6933 26261.1
 06 12 2013  22 58  -21.0057 26024.7 -03515.6 -07.6934 26261.1
 06 12 2013  22 59  -21.0056 26024.7 -03515.7 -07.6935 26261.1
 06 12 2013  23 00  -21.0055 26024.8 -03515.8 -07.6937 26261.2
 06 12 2013  23 01  -21.0053 26024.9 -03515.8 -07.6938 26261.3
 06 12 2013  23 02  -21.0050 26025.0 -03515.9 -07.6940 26261.4
 06 12 2013  23 03  -21.0047 26025.1 -03516.0 -07.6940 26261.5
 06 12 2013  23 04  -21.0044 26025.2 -03516.1 -07.6942 26261.6
 06 12 2013  23 05  -21.0042 26025.2 -03516.1 -07.6942 26261.6
 06 12 2013  23 06  -21.0041 26025.2 -03516.1 -07.6943 26261.6
 06 12 2013  23 07  -21.0041 26025.4 -03516.2 -07.6945 26261.8
 06 12 2013  23 08  -21.0040 26025.3 -03516.2 -07.6945 26261.8
 06 12 2013  23 09  -21.0040 26025.4 -03516.2 -07.6945 26261.8
 06 12 2013  23 10  -21.0040 26025.2 -03516.2 -07.6944 26261.7
 06 12 2013  23 11  -21.0038 26025.2 -03516.2 -07.6944 26261.6
 06 12 2013  23 12  -21.0036 26025.2 -03516.2 -07.6945 26261.7
 06 12 2013  23 13  -21.0034 26025.3 -03516.2 -07.6945 26261.7
 06 12 2013  23 14  -21.0033 26025.3 -03516.2 -07.6946 26261.7
 06 12 2013  23 15  -21.0031 26025.3 -03516.3 -07.6946 26261.7
 06 12 2013  23 16  -21.0028 26025.5 -03516.3 -07.6946 26261.9
 06 12 2013  23 17  -21.0025 26025.2 -03516.2 -07.6946 26261.7
 06 12 2013  23 18  -21.0023 26025.3 -03516.2 -07.6945 26261.7
 06 12 2013  23 19  -21.0021 26025.1 -03516.2 -07.6944 26261.6
 06 12 2013  23 20  -21.0021 26025.3 -03516.2 -07.6945 26261.7
 06 12 2013  23 21  -21.0019 26025.2 -03516.2 -07.6945 26261.7
 06 12 2013  23 22  -21.0017 26025.3 -03516.2 -07.6946 26261.7
 06 12 2013  23 23  -21.0014 26025.4 -03516.3 -07.6946 26261.8
 06 12 2013  23 24  -21.0011 26025.4 -03516.3 -07.6947 26261.9
 06 12 2013  23 25  -21.0009 26025.4 -03516.3 -07.6947 26261.9
 06 12 2013  23 26  -21.0007 26025.4 -03516.3 -07.6947 26261.9
 06 12 2013  23 27  -21.0006 26025.5 -03516.3 -07.6947 26262.0
 06 12 2013  23 28  -21.0005 26025.5 -03516.4 -07.6948 26262.0
 06 12 2013  23 29  -21.0004 26025.7 -03516.5 -07.6949 26262.2
 06 12 2013  23 30  -21.0002 26025.4 -03516.4 -07.6948 26261.9
 06 12 2013  23 31  -21.0004 26025.5 -03516.4 -07.6949 26262.0
 06 12 2013  23 32  -21.0003 26025.5 -03516.4 -07.6948 26262.0
 06 12 2013  23 33  -21.0003 26025.4 -03516.4 -07.6948 26261.9
 06 12 2013  23 34  -21.0004 26025.5 -03516.5 -07.6949 26262.0
 06 12 2013  23 35  -21.0005 26025.5 -03516.4 -07.6949 26262.0
 06 12 2013  23 36  -21.0005 26025.5 -03516.4 -07.6949 26262.0
 06 12 2013  23 37  -21.0007 26025.6 -03516.5 -07.6950 26262.1
 06 12 2013  23 38  -21.0007 26025.7 -03516.6 -07.6952 26262.2
 06 12 2013  23 39  -21.0007 26025.8 -03516.6 -07.6951 26262.3
 06 12 2013  23 40  -21.0009 26026.0 -03516.7 -07.6953 26262.5
 06 12 2013  23 41  -21.0012 26026.0 -03516.6 -07.6952 26262.5
 06 12 2013  23 42  -21.0015 26026.0 -03516.6 -07.6952 26262.5
 06 12 2013  23 43  -21.0016 26026.0 -03516.6 -07.6951 26262.5
 06 12 2013  23 44  -21.0017 26026.0 -03516.5 -07.6949 26262.4
 06 12 2013  23 45  -21.0018 26026.2 -03516.6 -07.6951 26262.7
 06 12 2013  23 46  -21.0017 26026.2 -03516.6 -07.6950 26262.7
 06 12 2013  23 47  -21.0016 26026.2 -03516.5 -07.6949 26262.7
 06 12 2013  23 48  -21.0015 26026.4 -03516.6 -07.6950 26262.9
 06 12 2013  23 49  -21.0013 26026.5 -03516.6 -07.6951 26263.0
 06 12 2013  23 50  -21.0011 26026.5 -03516.6 -07.6950 26263.0
 06 12 2013  23 51  -21.0009 26026.7 -03516.7 -07.6951 26263.2
 06 12 2013  23 52  -21.0011 26026.7 -03516.6 -07.6950 26263.2
 06 12 2013  23 53  -21.0012 26026.7 -03516.7 -07.6950 26263.2
 06 12 2013  23 54  -21.0015 26026.8 -03516.7 -07.6951 26263.3
 06 12 2013  23 55  -21.0016 26026.8 -03516.7 -07.6950 26263.3
 06 12 2013  23 56  -21.0019 26026.9 -03516.7 -07.6951 26263.4
 06 12 2013  23 57  -21.0022 26027.0 -03516.7 -07.6950 26263.5
 06 12 2013  23 58  -21.0022 26027.0 -03516.6 -07.6949 26263.5
