SAO LUIS EMBRACE-03 <218> 1 Min. Reported data

 DD MM YYYY  HH MM   D(Deg)  H(nT)   Z(nT)   I(Deg)   F(nT)

 06 08 2013  00 00  -21.0378 26003.2 -03468.6 -07.5978 26233.5
 06 08 2013  00 01  -21.0380 26003.0 -03468.6 -07.5979 26233.3
 06 08 2013  00 02  -21.0385 26002.9 -03468.6 -07.5979 26233.2
 06 08 2013  00 03  -21.0390 26002.8 -03468.6 -07.5980 26233.1
 06 08 2013  00 04  -21.0395 26002.6 -03468.5 -07.5979 26232.9
 06 08 2013  00 05  -21.0399 26002.5 -03468.5 -07.5979 26232.8
 06 08 2013  00 06  -21.0401 26002.4 -03468.5 -07.5979 26232.7
 06 08 2013  00 07  -21.0402 26002.3 -03468.4 -07.5977 26232.6
 06 08 2013  00 08  -21.0403 26002.1 -03468.3 -07.5976 26232.4
 06 08 2013  00 09  -21.0403 26002.0 -03468.3 -07.5976 26232.3
 06 08 2013  00 10  -21.0401 26001.8 -03468.2 -07.5975 26232.1
 06 08 2013  00 11  -21.0402 26001.7 -03468.2 -07.5974 26232.0
 06 08 2013  00 12  -21.0404 26001.7 -03468.2 -07.5974 26231.9
 06 08 2013  00 13  -21.0406 26001.5 -03468.2 -07.5975 26231.8
 06 08 2013  00 14  -21.0407 26001.4 -03468.1 -07.5974 26231.6
 06 08 2013  00 15  -21.0408 26001.2 -03468.1 -07.5973 26231.5
 06 08 2013  00 16  -21.0408 26001.0 -03468.0 -07.5973 26231.3
 06 08 2013  00 17  -21.0409 26000.9 -03468.0 -07.5972 26231.1
 06 08 2013  00 18  -21.0411 26000.8 -03468.0 -07.5972 26231.0
 06 08 2013  00 19  -21.0411 26000.7 -03468.0 -07.5973 26231.0
 06 08 2013  00 20  -21.0411 26000.6 -03467.9 -07.5972 26230.8
 06 08 2013  00 21  -21.0412 26000.4 -03467.9 -07.5972 26230.7
 06 08 2013  00 22  -21.0411 26000.4 -03467.9 -07.5972 26230.7
 06 08 2013  00 23  -21.0408 26000.4 -03467.9 -07.5972 26230.6
 06 08 2013  00 24  -21.0407 26000.3 -03467.9 -07.5973 26230.6
 06 08 2013  00 25  -21.0404 26000.4 -03468.0 -07.5974 26230.7
 06 08 2013  00 26  -21.0402 26000.5 -03468.1 -07.5976 26230.8
 06 08 2013  00 27  -21.0398 26000.6 -03468.2 -07.5977 26230.9
 06 08 2013  00 28  -21.0396 26000.7 -03468.3 -07.5979 26231.0
 06 08 2013  00 29  -21.0393 26000.8 -03468.3 -07.5980 26231.1
 06 08 2013  00 30  -21.0390 26000.9 -03468.4 -07.5982 26231.2
 06 08 2013  00 31  -21.0387 26001.0 -03468.5 -07.5983 26231.3
 06 08 2013  00 32  -21.0384 26001.0 -03468.5 -07.5984 26231.3
 06 08 2013  00 33  -21.0380 26001.0 -03468.6 -07.5985 26231.4
 06 08 2013  00 34  -21.0376 26001.0 -03468.6 -07.5985 26231.3
 06 08 2013  00 35  -21.0374 26001.0 -03468.6 -07.5986 26231.4
 06 08 2013  00 36  -21.0374 26001.1 -03468.7 -07.5988 26231.4
 06 08 2013  00 37  -21.0373 26001.2 -03468.9 -07.5990 26231.5
 06 08 2013  00 38  -21.0370 26001.2 -03468.9 -07.5992 26231.6
 06 08 2013  00 39  -21.0368 26001.4 -03469.0 -07.5993 26231.8
 06 08 2013  00 40  -21.0368 26001.5 -03469.1 -07.5994 26231.9
 06 08 2013  00 41  -21.0369 26001.6 -03469.2 -07.5997 26232.1
 06 08 2013  00 42  -21.0370 26001.8 -03469.3 -07.5999 26232.2
 06 08 2013  00 43  -21.0370 26001.9 -03469.4 -07.6000 26232.3
 06 08 2013  00 44  -21.0368 26002.0 -03469.5 -07.6001 26232.5
 06 08 2013  00 45  -21.0365 26002.2 -03469.5 -07.6002 26232.6
 06 08 2013  00 46  -21.0364 26002.3 -03469.6 -07.6003 26232.8
 06 08 2013  00 47  -21.0365 26002.5 -03469.7 -07.6005 26232.9
 06 08 2013  00 48  -21.0366 26002.6 -03469.8 -07.6006 26233.1
 06 08 2013  00 49  -21.0367 26002.8 -03469.9 -07.6008 26233.3
 06 08 2013  00 50  -21.0368 26003.1 -03470.0 -07.6010 26233.6
 06 08 2013  00 51  -21.0368 26003.4 -03470.2 -07.6012 26233.9
 06 08 2013  00 52  -21.0369 26003.6 -03470.2 -07.6013 26234.1
 06 08 2013  00 53  -21.0370 26003.7 -03470.3 -07.6014 26234.3
 06 08 2013  00 54  -21.0372 26003.9 -03470.3 -07.6015 26234.4
 06 08 2013  00 55  -21.0372 26003.9 -03470.4 -07.6015 26234.5
 06 08 2013  00 56  -21.0372 26003.9 -03470.3 -07.6014 26234.4
 06 08 2013  00 57  -21.0373 26003.8 -03470.2 -07.6012 26234.3
 06 08 2013  00 58  -21.0372 26003.7 -03470.2 -07.6011 26234.3
 06 08 2013  00 59  -21.0371 26003.8 -03470.2 -07.6011 26234.3
 06 08 2013  01 00  -21.0369 26003.8 -03470.2 -07.6011 26234.4
 06 08 2013  01 01  -21.0367 26004.0 -03470.2 -07.6012 26234.5
 06 08 2013  01 02  -21.0364 26004.1 -03470.3 -07.6012 26234.6
 06 08 2013  01 03  -21.0362 26004.1 -03470.3 -07.6013 26234.6
 06 08 2013  01 04  -21.0359 26004.1 -03470.2 -07.6012 26234.6
 06 08 2013  01 05  -21.0356 26004.1 -03470.3 -07.6012 26234.7
 06 08 2013  01 06  -21.0355 26004.2 -03470.3 -07.6013 26234.7
 06 08 2013  01 07  -21.0354 26004.2 -03470.3 -07.6013 26234.8
 06 08 2013  01 08  -21.0355 26004.3 -03470.4 -07.6014 26234.9
 06 08 2013  01 09  -21.0353 26004.4 -03470.4 -07.6014 26235.0
 06 08 2013  01 10  -21.0351 26004.4 -03470.4 -07.6015 26235.0
 06 08 2013  01 11  -21.0350 26004.6 -03470.5 -07.6016 26235.1
 06 08 2013  01 12  -21.0351 26004.7 -03470.5 -07.6016 26235.2
 06 08 2013  01 13  -21.0351 26004.9 -03470.6 -07.6018 26235.5
 06 08 2013  01 14  -21.0355 26005.2 -03470.8 -07.6021 26235.7
 06 08 2013  01 15  -21.0358 26005.5 -03471.0 -07.6024 26236.1
 06 08 2013  01 16  -21.0358 26005.7 -03471.0 -07.6025 26236.3
 06 08 2013  01 17  -21.0357 26005.7 -03471.0 -07.6024 26236.3
 06 08 2013  01 18  -21.0356 26005.8 -03471.0 -07.6023 26236.4
 06 08 2013  01 19  -21.0356 26005.9 -03471.0 -07.6023 26236.5
 06 08 2013  01 20  -21.0356 26006.0 -03471.0 -07.6023 26236.7
 06 08 2013  01 21  -21.0358 26006.3 -03471.1 -07.6024 26236.9
 06 08 2013  01 22  -21.0361 26006.5 -03471.2 -07.6026 26237.1
 06 08 2013  01 23  -21.0363 26006.8 -03471.4 -07.6028 26237.5
 06 08 2013  01 24  -21.0365 26007.3 -03471.5 -07.6030 26238.0
 06 08 2013  01 25  -21.0365 26007.5 -03471.6 -07.6031 26238.2
 06 08 2013  01 26  -21.0366 26007.8 -03471.6 -07.6032 26238.5
 06 08 2013  01 27  -21.0366 26008.0 -03471.7 -07.6032 26238.7
 06 08 2013  01 28  -21.0364 26008.2 -03471.7 -07.6032 26238.9
 06 08 2013  01 29  -21.0364 26008.4 -03471.8 -07.6032 26239.1
 06 08 2013  01 30  -21.0365 26008.6 -03471.8 -07.6032 26239.3
 06 08 2013  01 31  -21.0369 26008.6 -03471.8 -07.6032 26239.3
 06 08 2013  01 32  -21.0373 26008.5 -03471.7 -07.6031 26239.2
 06 08 2013  01 33  -21.0375 26008.4 -03471.6 -07.6028 26239.1
 06 08 2013  01 34  -21.0376 26008.3 -03471.4 -07.6026 26238.9
 06 08 2013  01 35  -21.0379 26008.2 -03471.4 -07.6024 26238.8
 06 08 2013  01 36  -21.0381 26008.1 -03471.3 -07.6023 26238.7
 06 08 2013  01 37  -21.0383 26008.0 -03471.1 -07.6020 26238.6
 06 08 2013  01 38  -21.0383 26008.0 -03471.1 -07.6019 26238.6
 06 08 2013  01 39  -21.0385 26008.0 -03471.1 -07.6019 26238.6
 06 08 2013  01 40  -21.0385 26008.1 -03471.1 -07.6019 26238.7
 06 08 2013  01 41  -21.0385 26008.2 -03471.1 -07.6019 26238.8
 06 08 2013  01 42  -21.0384 26008.3 -03471.1 -07.6019 26238.9
 06 08 2013  01 43  -21.0381 26008.4 -03471.1 -07.6018 26239.0
 06 08 2013  01 44  -21.0379 26008.5 -03471.2 -07.6019 26239.1
 06 08 2013  01 45  -21.0377 26008.6 -03471.2 -07.6020 26239.2
 06 08 2013  01 46  -21.0377 26008.7 -03471.3 -07.6021 26239.4
 06 08 2013  01 47  -21.0376 26009.0 -03471.4 -07.6022 26239.6
 06 08 2013  01 48  -21.0372 26009.4 -03471.6 -07.6025 26240.1
 06 08 2013  01 49  -21.0371 26009.7 -03471.7 -07.6027 26240.4
 06 08 2013  01 50  -21.0371 26009.9 -03471.7 -07.6028 26240.5
 06 08 2013  01 51  -21.0368 26010.1 -03471.9 -07.6029 26240.8
 06 08 2013  01 52  -21.0366 26010.2 -03471.8 -07.6028 26240.9
 06 08 2013  01 53  -21.0363 26010.2 -03471.8 -07.6028 26240.9
 06 08 2013  01 54  -21.0361 26010.2 -03471.8 -07.6027 26240.9
 06 08 2013  01 55  -21.0359 26010.2 -03471.7 -07.6026 26240.9
 06 08 2013  01 56  -21.0358 26010.2 -03471.7 -07.6026 26240.9
 06 08 2013  01 57  -21.0359 26010.2 -03471.7 -07.6026 26240.9
 06 08 2013  01 58  -21.0361 26010.2 -03471.7 -07.6025 26240.8
 06 08 2013  01 59  -21.0363 26010.1 -03471.6 -07.6024 26240.8
 06 08 2013  02 00  -21.0363 26010.1 -03471.6 -07.6024 26240.8
 06 08 2013  02 01  -21.0362 26010.0 -03471.5 -07.6022 26240.7
 06 08 2013  02 02  -21.0361 26009.9 -03471.4 -07.6021 26240.5
 06 08 2013  02 03  -21.0359 26009.8 -03471.3 -07.6019 26240.4
 06 08 2013  02 04  -21.0358 26009.6 -03471.3 -07.6018 26240.2
 06 08 2013  02 05  -21.0357 26009.4 -03471.2 -07.6017 26240.1
 06 08 2013  02 06  -21.0357 26009.3 -03471.1 -07.6016 26239.9
 06 08 2013  02 07  -21.0357 26009.2 -03471.1 -07.6015 26239.8
 06 08 2013  02 08  -21.0357 26009.0 -03471.0 -07.6014 26239.6
 06 08 2013  02 09  -21.0357 26008.9 -03471.0 -07.6014 26239.5
 06 08 2013  02 10  -21.0357 26008.9 -03471.0 -07.6014 26239.5
 06 08 2013  02 11  -21.0357 26008.8 -03471.0 -07.6014 26239.4
 06 08 2013  02 12  -21.0359 26008.8 -03471.0 -07.6014 26239.3
 06 08 2013  02 13  -21.0362 26008.7 -03470.9 -07.6013 26239.3
 06 08 2013  02 14  -21.0364 26008.7 -03471.0 -07.6014 26239.3
 06 08 2013  02 15  -21.0366 26008.7 -03471.0 -07.6015 26239.3
 06 08 2013  02 16  -21.0367 26008.7 -03471.0 -07.6015 26239.3
 06 08 2013  02 17  -21.0369 26008.9 -03471.1 -07.6017 26239.5
 06 08 2013  02 18  -21.0370 26009.1 -03471.1 -07.6017 26239.7
 06 08 2013  02 19  -21.0372 26009.1 -03471.2 -07.6019 26239.7
 06 08 2013  02 20  -21.0374 26009.3 -03471.3 -07.6019 26239.9
 06 08 2013  02 21  -21.0375 26009.4 -03471.3 -07.6020 26240.0
 06 08 2013  02 22  -21.0376 26009.4 -03471.3 -07.6019 26240.0
 06 08 2013  02 23  -21.0376 26009.3 -03471.3 -07.6019 26239.9
 06 08 2013  02 24  -21.0377 26009.4 -03471.3 -07.6020 26240.0
 06 08 2013  02 25  -21.0378 26009.3 -03471.2 -07.6018 26239.9
 06 08 2013  02 26  -21.0378 26009.3 -03471.2 -07.6018 26239.9
 06 08 2013  02 27  -21.0378 26009.4 -03471.3 -07.6018 26240.0
 06 08 2013  02 28  -21.0377 26009.3 -03471.2 -07.6017 26239.9
 06 08 2013  02 29  -21.0377 26009.3 -03471.2 -07.6017 26239.9
 06 08 2013  02 30  -21.0376 26009.2 -03471.1 -07.6017 26239.8
 06 08 2013  02 31  -21.0374 26009.2 -03471.1 -07.6016 26239.8
 06 08 2013  02 32  -21.0373 26009.1 -03471.1 -07.6015 26239.7
 06 08 2013  02 33  -21.0374 26008.9 -03471.0 -07.6014 26239.5
 06 08 2013  02 34  -21.0377 26008.5 -03470.8 -07.6012 26239.0
 06 08 2013  02 35  -21.0378 26008.2 -03470.7 -07.6010 26238.8
 06 08 2013  02 36  -21.0379 26008.0 -03470.6 -07.6008 26238.6
 06 08 2013  02 37  -21.0378 26008.0 -03470.6 -07.6008 26238.6
 06 08 2013  02 38  -21.0377 26008.1 -03470.6 -07.6009 26238.7
 06 08 2013  02 39  -21.0378 26008.1 -03470.7 -07.6010 26238.7
 06 08 2013  02 40  -21.0379 26008.1 -03470.7 -07.6010 26238.6
 06 08 2013  02 41  -21.0380 26008.1 -03470.7 -07.6010 26238.7
 06 08 2013  02 42  -21.0381 26008.1 -03470.8 -07.6012 26238.7
 06 08 2013  02 43  -21.0383 26008.1 -03470.8 -07.6011 26238.7
 06 08 2013  02 44  -21.0385 26008.2 -03470.8 -07.6013 26238.8
 06 08 2013  02 45  -21.0386 26008.3 -03470.9 -07.6013 26238.9
 06 08 2013  02 46  -21.0387 26008.4 -03470.9 -07.6014 26239.0
 06 08 2013  02 47  -21.0386 26008.4 -03470.9 -07.6014 26239.0
 06 08 2013  02 48  -21.0386 26008.4 -03470.9 -07.6014 26239.0
 06 08 2013  02 49  -21.0387 26008.4 -03470.9 -07.6014 26239.0
 06 08 2013  02 50  -21.0388 26008.5 -03470.9 -07.6014 26239.0
 06 08 2013  02 51  -21.0388 26008.5 -03470.9 -07.6014 26239.1
 06 08 2013  02 52  -21.0390 26008.4 -03470.9 -07.6013 26239.0
 06 08 2013  02 53  -21.0393 26008.4 -03470.8 -07.6012 26238.9
 06 08 2013  02 54  -21.0393 26008.3 -03470.8 -07.6012 26238.9
 06 08 2013  02 55  -21.0394 26008.3 -03470.8 -07.6011 26238.9
 06 08 2013  02 56  -21.0395 26008.4 -03470.8 -07.6012 26238.9
 06 08 2013  02 57  -21.0397 26008.5 -03470.9 -07.6012 26239.1
 06 08 2013  02 58  -21.0396 26008.7 -03470.9 -07.6013 26239.3
 06 08 2013  02 59  -21.0395 26008.9 -03471.0 -07.6014 26239.5
 06 08 2013  03 00  -21.0393 26009.0 -03471.0 -07.6014 26239.6
 06 08 2013  03 01  -21.0391 26009.1 -03471.0 -07.6014 26239.7
 06 08 2013  03 02  -21.0390 26009.1 -03471.0 -07.6015 26239.7
 06 08 2013  03 03  -21.0391 26009.1 -03471.0 -07.6015 26239.7
 06 08 2013  03 04  -21.0390 26009.1 -03471.0 -07.6014 26239.7
 06 08 2013  03 05  -21.0389 26009.2 -03471.0 -07.6014 26239.8
 06 08 2013  03 06  -21.0389 26009.2 -03471.0 -07.6014 26239.8
 06 08 2013  03 07  -21.0390 26009.3 -03471.1 -07.6014 26239.9
 06 08 2013  03 08  -21.0392 26009.2 -03471.0 -07.6014 26239.8
 06 08 2013  03 09  -21.0392 26009.2 -03471.0 -07.6013 26239.8
 06 08 2013  03 10  -21.0393 26009.3 -03471.0 -07.6014 26239.8
 06 08 2013  03 11  -21.0391 26009.4 -03471.0 -07.6013 26239.9
 06 08 2013  03 12  -21.0388 26009.5 -03471.1 -07.6014 26240.1
 06 08 2013  03 13  -21.0387 26009.6 -03471.1 -07.6015 26240.2
 06 08 2013  03 14  -21.0388 26009.5 -03471.1 -07.6014 26240.1
 06 08 2013  03 15  -21.0388 26009.6 -03471.1 -07.6015 26240.2
 06 08 2013  03 16  -21.0387 26009.6 -03471.1 -07.6015 26240.2
 06 08 2013  03 17  -21.0386 26009.7 -03471.1 -07.6015 26240.2
 06 08 2013  03 18  -21.0386 26009.9 -03471.2 -07.6016 26240.5
 06 08 2013  03 19  -21.0387 26010.1 -03471.3 -07.6018 26240.7
 06 08 2013  03 20  -21.0385 26010.1 -03471.3 -07.6018 26240.8
 06 08 2013  03 21  -21.0384 26010.3 -03471.4 -07.6019 26240.9
 06 08 2013  03 22  -21.0384 26010.4 -03471.5 -07.6020 26241.1
 06 08 2013  03 23  -21.0385 26010.7 -03471.6 -07.6022 26241.3
 06 08 2013  03 24  -21.0384 26010.9 -03471.7 -07.6023 26241.6
 06 08 2013  03 25  -21.0384 26011.1 -03471.8 -07.6024 26241.8
 06 08 2013  03 26  -21.0382 26011.0 -03471.7 -07.6023 26241.7
 06 08 2013  03 27  -21.0381 26011.1 -03471.7 -07.6023 26241.7
 06 08 2013  03 28  -21.0381 26011.0 -03471.7 -07.6022 26241.7
 06 08 2013  03 29  -21.0382 26011.0 -03471.6 -07.6022 26241.7
 06 08 2013  03 30  -21.0382 26011.1 -03471.7 -07.6022 26241.7
 06 08 2013  03 31  -21.0380 26011.0 -03471.6 -07.6021 26241.7
 06 08 2013  03 32  -21.0378 26010.9 -03471.6 -07.6020 26241.6
 06 08 2013  03 33  -21.0379 26010.8 -03471.5 -07.6020 26241.5
 06 08 2013  03 34  -21.0382 26010.8 -03471.5 -07.6020 26241.4
 06 08 2013  03 35  -21.0385 26010.7 -03471.5 -07.6019 26241.3
 06 08 2013  03 36  -21.0387 26010.7 -03471.5 -07.6019 26241.3
 06 08 2013  03 37  -21.0388 26010.7 -03471.4 -07.6019 26241.3
 06 08 2013  03 38  -21.0391 26010.7 -03471.4 -07.6019 26241.3
 06 08 2013  03 39  -21.0392 26010.6 -03471.4 -07.6019 26241.3
 06 08 2013  03 40  -21.0392 26010.6 -03471.4 -07.6018 26241.2
 06 08 2013  03 41  -21.0391 26010.5 -03471.3 -07.6017 26241.2
 06 08 2013  03 42  -21.0389 26010.5 -03471.3 -07.6016 26241.1
 06 08 2013  03 43  -21.0389 26010.5 -03471.3 -07.6016 26241.1
 06 08 2013  03 44  -21.0392 26010.5 -03471.3 -07.6016 26241.1
 06 08 2013  03 45  -21.0395 26010.4 -03471.3 -07.6017 26241.1
 06 08 2013  03 46  -21.0396 26010.4 -03471.3 -07.6016 26241.0
 06 08 2013  03 47  -21.0397 26010.3 -03471.3 -07.6016 26240.9
 06 08 2013  03 48  -21.0398 26010.3 -03471.2 -07.6015 26240.9
 06 08 2013  03 49  -21.0400 26010.1 -03471.1 -07.6014 26240.7
 06 08 2013  03 50  -21.0403 26010.1 -03471.1 -07.6014 26240.7
 06 08 2013  03 51  -21.0405 26010.0 -03471.1 -07.6013 26240.6
 06 08 2013  03 52  -21.0405 26010.0 -03471.1 -07.6012 26240.6
 06 08 2013  03 53  -21.0401 26009.9 -03471.0 -07.6011 26240.5
 06 08 2013  03 54  -21.0397 26009.8 -03470.9 -07.6010 26240.3
 06 08 2013  03 55  -21.0395 26009.8 -03470.9 -07.6010 26240.4
 06 08 2013  03 56  -21.0396 26009.7 -03470.9 -07.6010 26240.2
 06 08 2013  03 57  -21.0396 26009.6 -03470.9 -07.6010 26240.1
 06 08 2013  03 58  -21.0397 26009.6 -03470.9 -07.6011 26240.2
 06 08 2013  03 59  -21.0399 26009.7 -03471.0 -07.6012 26240.3
 06 08 2013  04 00  -21.0401 26009.7 -03471.0 -07.6013 26240.3
 06 08 2013  04 01  -21.0402 26009.7 -03471.0 -07.6013 26240.3
 06 08 2013  04 02  -21.0404 26009.8 -03471.1 -07.6015 26240.4
 06 08 2013  04 03  -21.0405 26009.8 -03471.1 -07.6014 26240.4
 06 08 2013  04 04  -21.0404 26009.9 -03471.1 -07.6014 26240.5
 06 08 2013  04 05  -21.0403 26010.2 -03471.2 -07.6015 26240.8
 06 08 2013  04 06  -21.0404 26010.3 -03471.3 -07.6017 26241.0
 06 08 2013  04 07  -21.0405 26010.7 -03471.5 -07.6020 26241.3
 06 08 2013  04 08  -21.0408 26010.6 -03471.5 -07.6020 26241.3
 06 08 2013  04 09  -21.0407 26010.8 -03471.5 -07.6020 26241.4
 06 08 2013  04 10  -21.0407 26010.9 -03471.5 -07.6020 26241.5
 06 08 2013  04 11  -21.0407 26011.3 -03471.7 -07.6022 26241.9
 06 08 2013  04 12  -21.0409 26011.3 -03471.7 -07.6022 26242.0
 06 08 2013  04 13  -21.0412 26011.5 -03471.7 -07.6023 26242.1
 06 08 2013  04 14  -21.0415 26011.5 -03471.7 -07.6023 26242.1
 06 08 2013  04 15  -21.0414 26011.5 -03471.7 -07.6021 26242.1
 06 08 2013  04 16  -21.0412 26011.4 -03471.6 -07.6019 26242.1
 06 08 2013  04 17  -21.0416 26011.5 -03471.6 -07.6019 26242.2
 06 08 2013  04 18  -21.0421 26011.6 -03471.6 -07.6019 26242.2
 06 08 2013  04 19  -21.0421 26011.5 -03471.5 -07.6018 26242.1
 06 08 2013  04 20  -21.0421 26011.5 -03471.4 -07.6016 26242.1
 06 08 2013  04 21  -21.0421 26011.6 -03471.4 -07.6016 26242.2
 06 08 2013  04 22  -21.0421 26011.7 -03471.5 -07.6016 26242.3
 06 08 2013  04 23  -21.0423 26011.9 -03471.5 -07.6017 26242.5
 06 08 2013  04 24  -21.0425 26012.0 -03471.6 -07.6017 26242.6
 06 08 2013  04 25  -21.0426 26012.2 -03471.6 -07.6018 26242.8
 06 08 2013  04 26  -21.0424 26012.7 -03471.8 -07.6021 26243.3
 06 08 2013  04 27  -21.0422 26013.0 -03472.0 -07.6023 26243.7
 06 08 2013  04 28  -21.0421 26013.7 -03472.2 -07.6026 26244.4
 06 08 2013  04 29  -21.0418 26014.0 -03472.3 -07.6028 26244.7
 06 08 2013  04 30  -21.0416 26014.4 -03472.4 -07.6029 26245.1
 06 08 2013  04 31  -21.0415 26014.6 -03472.5 -07.6031 26245.4
 06 08 2013  04 32  -21.0413 26015.2 -03472.7 -07.6034 26246.0
 06 08 2013  04 33  -21.0413 26015.5 -03472.8 -07.6034 26246.2
 06 08 2013  04 34  -21.0415 26015.7 -03472.9 -07.6035 26246.5
 06 08 2013  04 35  -21.0416 26016.0 -03472.9 -07.6035 26246.7
 06 08 2013  04 36  -21.0413 26016.1 -03472.8 -07.6033 26246.9
 06 08 2013  04 37  -21.0408 26016.3 -03472.8 -07.6032 26247.0
 06 08 2013  04 38  -21.0404 26016.7 -03472.9 -07.6034 26247.5
 06 08 2013  04 39  -21.0401 26017.1 -03473.1 -07.6035 26247.9
 06 08 2013  04 40  -21.0396 26017.3 -03473.1 -07.6036 26248.1
 06 08 2013  04 41  -21.0391 26017.5 -03473.1 -07.6035 26248.3
 06 08 2013  04 42  -21.0390 26017.6 -03473.1 -07.6035 26248.4
 06 08 2013  04 43  -21.0393 26017.6 -03473.1 -07.6034 26248.4
 06 08 2013  04 44  -21.0397 26017.5 -03473.0 -07.6033 26248.3
 06 08 2013  04 45  -21.0401 26017.6 -03472.9 -07.6031 26248.4
 06 08 2013  04 46  -21.0401 26017.6 -03472.9 -07.6030 26248.3
 06 08 2013  04 47  -21.0402 26017.5 -03472.8 -07.6028 26248.3
 06 08 2013  04 48  -21.0403 26017.6 -03472.7 -07.6027 26248.3
 06 08 2013  04 49  -21.0400 26017.6 -03472.7 -07.6025 26248.4
 06 08 2013  04 50  -21.0395 26017.8 -03472.7 -07.6025 26248.5
 06 08 2013  04 51  -21.0394 26017.8 -03472.7 -07.6025 26248.5
 06 08 2013  04 52  -21.0391 26017.7 -03472.6 -07.6024 26248.5
 06 08 2013  04 53  -21.0389 26017.8 -03472.6 -07.6023 26248.5
 06 08 2013  04 54  -21.0386 26017.8 -03472.6 -07.6023 26248.5
 06 08 2013  04 55  -21.0382 26017.7 -03472.5 -07.6022 26248.4
 06 08 2013  04 56  -21.0377 26017.4 -03472.3 -07.6018 26248.1
 06 08 2013  04 57  -21.0373 26017.1 -03472.1 -07.6015 26247.8
 06 08 2013  04 58  -21.0368 26016.9 -03472.0 -07.6014 26247.5
 06 08 2013  04 59  -21.0364 26016.7 -03471.9 -07.6013 26247.3
 06 08 2013  05 00  -21.0361 26016.3 -03471.8 -07.6011 26247.0
 06 08 2013  05 01  -21.0357 26016.1 -03471.8 -07.6010 26246.7
 06 08 2013  05 02  -21.0353 26015.8 -03471.6 -07.6008 26246.4
 06 08 2013  05 03  -21.0351 26015.6 -03471.6 -07.6008 26246.2
 06 08 2013  05 04  -21.0349 26015.4 -03471.6 -07.6008 26246.0
 06 08 2013  05 05  -21.0347 26015.2 -03471.6 -07.6008 26245.8
 06 08 2013  05 06  -21.0346 26015.2 -03471.6 -07.6009 26245.8
 06 08 2013  05 07  -21.0347 26015.1 -03471.7 -07.6011 26245.7
 06 08 2013  05 08  -21.0350 26015.0 -03471.7 -07.6012 26245.6
 06 08 2013  05 09  -21.0353 26014.9 -03471.7 -07.6013 26245.5
 06 08 2013  05 10  -21.0356 26014.8 -03471.7 -07.6013 26245.4
 06 08 2013  05 11  -21.0358 26014.7 -03471.7 -07.6013 26245.4
 06 08 2013  05 12  -21.0361 26014.7 -03471.7 -07.6013 26245.3
 06 08 2013  05 13  -21.0363 26014.6 -03471.7 -07.6013 26245.2
 06 08 2013  05 14  -21.0362 26014.5 -03471.7 -07.6013 26245.1
 06 08 2013  05 15  -21.0361 26014.5 -03471.7 -07.6013 26245.2
 06 08 2013  05 16  -21.0362 26014.7 -03471.8 -07.6015 26245.3
 06 08 2013  05 17  -21.0361 26014.7 -03471.9 -07.6016 26245.4
 06 08 2013  05 18  -21.0360 26014.8 -03471.9 -07.6016 26245.5
 06 08 2013  05 19  -21.0358 26014.9 -03471.9 -07.6018 26245.5
 06 08 2013  05 20  -21.0358 26014.8 -03471.9 -07.6017 26245.5
 06 08 2013  05 21  -21.0357 26014.9 -03472.0 -07.6018 26245.6
 06 08 2013  05 22  -21.0353 26014.8 -03471.9 -07.6018 26245.5
 06 08 2013  05 23  -21.0351 26014.8 -03471.9 -07.6018 26245.4
 06 08 2013  05 24  -21.0352 26014.8 -03472.0 -07.6018 26245.4
 06 08 2013  05 25  -21.0353 26014.8 -03472.0 -07.6019 26245.4
 06 08 2013  05 26  -21.0351 26014.7 -03472.0 -07.6018 26245.4
 06 08 2013  05 27  -21.0348 26014.6 -03471.9 -07.6018 26245.3
 06 08 2013  05 28  -21.0347 26014.6 -03471.9 -07.6018 26245.2
 06 08 2013  05 29  -21.0346 26014.5 -03471.9 -07.6018 26245.1
 06 08 2013  05 30  -21.0345 26014.4 -03471.9 -07.6018 26245.1
 06 08 2013  05 31  -21.0345 26014.5 -03471.9 -07.6019 26245.1
 06 08 2013  05 32  -21.0345 26014.5 -03472.0 -07.6020 26245.2
 06 08 2013  05 33  -21.0345 26014.5 -03472.1 -07.6021 26245.2
 06 08 2013  05 34  -21.0345 26014.6 -03472.1 -07.6021 26245.3
 06 08 2013  05 35  -21.0346 26014.7 -03472.1 -07.6022 26245.4
 06 08 2013  05 36  -21.0348 26014.9 -03472.3 -07.6024 26245.6
 06 08 2013  05 37  -21.0347 26014.8 -03472.2 -07.6024 26245.5
 06 08 2013  05 38  -21.0346 26014.8 -03472.2 -07.6024 26245.5
 06 08 2013  05 39  -21.0347 26014.7 -03472.2 -07.6023 26245.4
 06 08 2013  05 40  -21.0349 26014.8 -03472.2 -07.6024 26245.5
 06 08 2013  05 41  -21.0350 26014.5 -03472.1 -07.6022 26245.2
 06 08 2013  05 42  -21.0352 26014.4 -03472.1 -07.6021 26245.1
 06 08 2013  05 43  -21.0354 26014.3 -03472.0 -07.6021 26245.0
 06 08 2013  05 44  -21.0355 26014.3 -03472.0 -07.6021 26244.9
 06 08 2013  05 45  -21.0355 26014.2 -03472.0 -07.6020 26244.8
 06 08 2013  05 46  -21.0358 26014.1 -03472.0 -07.6020 26244.8
 06 08 2013  05 47  -21.0359 26014.1 -03471.9 -07.6020 26244.7
 06 08 2013  05 48  -21.0358 26014.1 -03471.9 -07.6019 26244.8
 06 08 2013  05 49  -21.0356 26014.1 -03471.9 -07.6019 26244.8
 06 08 2013  05 50  -21.0350 26014.1 -03471.9 -07.6019 26244.8
 06 08 2013  05 51  -21.0345 26014.0 -03471.9 -07.6018 26244.7
 06 08 2013  05 52  -21.0342 26013.9 -03471.8 -07.6017 26244.6
 06 08 2013  05 53  -21.0342 26013.9 -03471.9 -07.6018 26244.6
 06 08 2013  05 54  -21.0341 26013.8 -03471.8 -07.6018 26244.5
 06 08 2013  05 55  -21.0339 26013.7 -03471.8 -07.6017 26244.3
 06 08 2013  05 56  -21.0342 26013.5 -03471.8 -07.6018 26244.2
 06 08 2013  05 57  -21.0347 26013.5 -03471.8 -07.6018 26244.2
 06 08 2013  05 58  -21.0351 26013.5 -03471.8 -07.6019 26244.2
 06 08 2013  05 59  -21.0352 26013.4 -03471.8 -07.6018 26244.1
 06 08 2013  06 00  -21.0351 26013.2 -03471.7 -07.6017 26243.9
 06 08 2013  06 01  -21.0348 26013.1 -03471.6 -07.6015 26243.7
 06 08 2013  06 02  -21.0345 26012.8 -03471.5 -07.6013 26243.5
 06 08 2013  06 03  -21.0343 26012.8 -03471.5 -07.6013 26243.4
 06 08 2013  06 04  -21.0342 26012.7 -03471.5 -07.6013 26243.3
 06 08 2013  06 05  -21.0340 26012.6 -03471.5 -07.6013 26243.2
 06 08 2013  06 06  -21.0339 26012.6 -03471.5 -07.6014 26243.2
 06 08 2013  06 07  -21.0339 26012.5 -03471.5 -07.6014 26243.2
 06 08 2013  06 08  -21.0338 26012.5 -03471.5 -07.6014 26243.1
 06 08 2013  06 09  -21.0338 26012.3 -03471.5 -07.6014 26242.9
 06 08 2013  06 10  -21.0337 26012.3 -03471.5 -07.6015 26242.9
 06 08 2013  06 11  -21.0336 26012.3 -03471.5 -07.6015 26242.9
 06 08 2013  06 12  -21.0335 26012.3 -03471.5 -07.6016 26242.9
 06 08 2013  06 13  -21.0334 26012.3 -03471.5 -07.6016 26242.9
 06 08 2013  06 14  -21.0332 26012.3 -03471.6 -07.6018 26243.0
 06 08 2013  06 15  -21.0330 26012.4 -03471.7 -07.6019 26243.0
 06 08 2013  06 16  -21.0328 26012.4 -03471.7 -07.6020 26243.0
 06 08 2013  06 17  -21.0325 26012.4 -03471.7 -07.6020 26243.1
 06 08 2013  06 18  -21.0322 26012.4 -03471.7 -07.6020 26243.1
 06 08 2013  06 19  -21.0318 26012.4 -03471.7 -07.6019 26243.1
 06 08 2013  06 20  -21.0316 26012.3 -03471.7 -07.6020 26243.0
 06 08 2013  06 21  -21.0313 26012.4 -03471.8 -07.6021 26243.0
 06 08 2013  06 22  -21.0313 26012.5 -03471.9 -07.6023 26243.2
 06 08 2013  06 23  -21.0315 26012.6 -03472.0 -07.6025 26243.3
 06 08 2013  06 24  -21.0316 26012.6 -03472.0 -07.6026 26243.3
 06 08 2013  06 25  -21.0315 26012.6 -03472.0 -07.6026 26243.3
 06 08 2013  06 26  -21.0316 26012.6 -03472.1 -07.6027 26243.3
 06 08 2013  06 27  -21.0317 26012.7 -03472.1 -07.6028 26243.4
 06 08 2013  06 28  -21.0317 26012.6 -03472.1 -07.6027 26243.3
 06 08 2013  06 29  -21.0317 26012.6 -03472.1 -07.6028 26243.3
 06 08 2013  06 30  -21.0317 26012.7 -03472.1 -07.6028 26243.4
 06 08 2013  06 31  -21.0316 26012.7 -03472.2 -07.6029 26243.4
 06 08 2013  06 32  -21.0316 26012.9 -03472.3 -07.6030 26243.6
 06 08 2013  06 33  -21.0315 26013.1 -03472.4 -07.6033 26243.9
 06 08 2013  06 34  -21.0314 26013.4 -03472.5 -07.6035 26244.2
 06 08 2013  06 35  -21.0313 26013.6 -03472.6 -07.6036 26244.4
 06 08 2013  06 36  -21.0315 26013.8 -03472.7 -07.6037 26244.6
 06 08 2013  06 37  -21.0317 26013.9 -03472.7 -07.6038 26244.7
 06 08 2013  06 38  -21.0317 26013.8 -03472.7 -07.6037 26244.6
 06 08 2013  06 39  -21.0318 26013.8 -03472.7 -07.6037 26244.5
 06 08 2013  06 40  -21.0319 26013.6 -03472.6 -07.6034 26244.4
 06 08 2013  06 41  -21.0322 26013.5 -03472.5 -07.6033 26244.3
 06 08 2013  06 42  -21.0325 26013.4 -03472.4 -07.6032 26244.1
 06 08 2013  06 43  -21.0327 26013.3 -03472.3 -07.6030 26244.0
 06 08 2013  06 44  -21.0329 26013.3 -03472.3 -07.6029 26244.0
 06 08 2013  06 45  -21.0331 26013.3 -03472.3 -07.6029 26244.0
 06 08 2013  06 46  -21.0333 26013.4 -03472.3 -07.6030 26244.1
 06 08 2013  06 47  -21.0335 26013.4 -03472.3 -07.6030 26244.2
 06 08 2013  06 48  -21.0335 26013.5 -03472.3 -07.6029 26244.2
 06 08 2013  06 49  -21.0335 26013.5 -03472.3 -07.6029 26244.3
 06 08 2013  06 50  -21.0334 26013.5 -03472.2 -07.6028 26244.2
 06 08 2013  06 51  -21.0332 26013.6 -03472.3 -07.6028 26244.3
 06 08 2013  06 52  -21.0330 26013.6 -03472.3 -07.6028 26244.4
 06 08 2013  06 53  -21.0328 26013.7 -03472.3 -07.6029 26244.4
 06 08 2013  06 54  -21.0328 26013.7 -03472.4 -07.6030 26244.5
 06 08 2013  06 55  -21.0328 26013.7 -03472.3 -07.6029 26244.4
 06 08 2013  06 56  -21.0329 26013.7 -03472.3 -07.6029 26244.4
 06 08 2013  06 57  -21.0330 26013.6 -03472.3 -07.6029 26244.4
 06 08 2013  06 58  -21.0328 26013.6 -03472.3 -07.6029 26244.3
 06 08 2013  06 59  -21.0326 26013.6 -03472.2 -07.6028 26244.3
 06 08 2013  07 00  -21.0326 26013.6 -03472.3 -07.6028 26244.3
 06 08 2013  07 01  -21.0327 26013.6 -03472.3 -07.6028 26244.3
 06 08 2013  07 02  -21.0328 26013.6 -03472.3 -07.6028 26244.3
 06 08 2013  07 03  -21.0329 26013.6 -03472.3 -07.6029 26244.3
 06 08 2013  07 04  -21.0331 26013.6 -03472.3 -07.6029 26244.3
 06 08 2013  07 05  -21.0331 26013.6 -03472.3 -07.6029 26244.3
 06 08 2013  07 06  -21.0330 26013.6 -03472.3 -07.6029 26244.3
 06 08 2013  07 07  -21.0330 26013.6 -03472.3 -07.6028 26244.3
 06 08 2013  07 08  -21.0328 26013.4 -03472.2 -07.6027 26244.1
 06 08 2013  07 09  -21.0324 26013.4 -03472.1 -07.6026 26244.1
 06 08 2013  07 10  -21.0321 26013.2 -03472.0 -07.6024 26243.9
 06 08 2013  07 11  -21.0319 26013.2 -03472.0 -07.6024 26243.9
 06 08 2013  07 12  -21.0318 26013.2 -03472.1 -07.6025 26243.9
 06 08 2013  07 13  -21.0319 26013.3 -03472.1 -07.6026 26244.0
 06 08 2013  07 14  -21.0319 26013.3 -03472.1 -07.6026 26244.0
 06 08 2013  07 15  -21.0321 26013.4 -03472.2 -07.6028 26244.1
 06 08 2013  07 16  -21.0322 26013.4 -03472.2 -07.6028 26244.1
 06 08 2013  07 17  -21.0321 26013.3 -03472.1 -07.6026 26244.0
 06 08 2013  07 18  -21.0318 26013.1 -03472.0 -07.6025 26243.8
 06 08 2013  07 19  -21.0318 26012.9 -03472.0 -07.6023 26243.6
 06 08 2013  07 20  -21.0318 26012.9 -03471.9 -07.6023 26243.6
 06 08 2013  07 21  -21.0316 26012.8 -03471.8 -07.6021 26243.4
 06 08 2013  07 22  -21.0315 26012.6 -03471.8 -07.6021 26243.3
 06 08 2013  07 23  -21.0313 26012.5 -03471.7 -07.6019 26243.1
 06 08 2013  07 24  -21.0310 26012.3 -03471.6 -07.6018 26242.9
 06 08 2013  07 25  -21.0309 26012.2 -03471.6 -07.6017 26242.8
 06 08 2013  07 26  -21.0308 26012.0 -03471.6 -07.6017 26242.6
 06 08 2013  07 27  -21.0308 26011.9 -03471.5 -07.6017 26242.5
 06 08 2013  07 28  -21.0309 26011.9 -03471.5 -07.6017 26242.5
 06 08 2013  07 29  -21.0311 26011.8 -03471.5 -07.6018 26242.4
 06 08 2013  07 30  -21.0311 26011.9 -03471.6 -07.6019 26242.6
 06 08 2013  07 31  -21.0309 26011.7 -03471.5 -07.6017 26242.4
 06 08 2013  07 32  -21.0309 26011.9 -03471.6 -07.6019 26242.5
 06 08 2013  07 33  -21.0313 26011.8 -03471.6 -07.6020 26242.5
 06 08 2013  07 34  -21.0314 26011.7 -03471.6 -07.6019 26242.3
 06 08 2013  07 35  -21.0313 26011.7 -03471.6 -07.6019 26242.3
 06 08 2013  07 36  -21.0314 26011.6 -03471.5 -07.6018 26242.2
 06 08 2013  07 37  -21.0313 26011.3 -03471.4 -07.6016 26242.0
 06 08 2013  07 38  -21.0312 26011.2 -03471.3 -07.6014 26241.8
 06 08 2013  07 39  -21.0309 26011.0 -03471.2 -07.6012 26241.6
 06 08 2013  07 40  -21.0306 26011.0 -03471.2 -07.6012 26241.5
 06 08 2013  07 41  -21.0305 26010.9 -03471.2 -07.6012 26241.5
 06 08 2013  07 42  -21.0305 26010.8 -03471.1 -07.6012 26241.4
 06 08 2013  07 43  -21.0302 26010.9 -03471.2 -07.6013 26241.5
 06 08 2013  07 44  -21.0297 26010.9 -03471.2 -07.6013 26241.5
 06 08 2013  07 45  -21.0294 26011.0 -03471.2 -07.6013 26241.6
 06 08 2013  07 46  -21.0290 26011.0 -03471.3 -07.6014 26241.6
 06 08 2013  07 47  -21.0285 26011.1 -03471.3 -07.6015 26241.7
 06 08 2013  07 48  -21.0281 26011.2 -03471.4 -07.6017 26241.8
 06 08 2013  07 49  -21.0276 26011.3 -03471.5 -07.6018 26241.9
 06 08 2013  07 50  -21.0271 26011.4 -03471.6 -07.6020 26242.0
 06 08 2013  07 51  -21.0267 26011.5 -03471.6 -07.6021 26242.1
 06 08 2013  07 52  -21.0265 26011.6 -03471.7 -07.6023 26242.3
 06 08 2013  07 53  -21.0263 26011.6 -03471.8 -07.6023 26242.3
 06 08 2013  07 54  -21.0258 26011.7 -03471.8 -07.6024 26242.3
 06 08 2013  07 55  -21.0254 26011.6 -03471.8 -07.6024 26242.3
 06 08 2013  07 56  -21.0250 26011.6 -03471.8 -07.6024 26242.2
 06 08 2013  07 57  -21.0249 26011.5 -03471.8 -07.6025 26242.2
 06 08 2013  07 58  -21.0250 26011.4 -03471.8 -07.6025 26242.1
 06 08 2013  07 59  -21.0251 26011.4 -03471.9 -07.6026 26242.1
 06 08 2013  08 00  -21.0253 26011.4 -03471.9 -07.6026 26242.1
 06 08 2013  08 01  -21.0253 26011.5 -03471.9 -07.6026 26242.2
 06 08 2013  08 02  -21.0251 26011.4 -03471.8 -07.6025 26242.1
 06 08 2013  08 03  -21.0246 26011.4 -03471.8 -07.6024 26242.1
 06 08 2013  08 04  -21.0242 26011.4 -03471.8 -07.6024 26242.1
 06 08 2013  08 05  -21.0239 26011.4 -03471.8 -07.6024 26242.0
 06 08 2013  08 06  -21.0240 26011.4 -03471.8 -07.6025 26242.0
 06 08 2013  08 07  -21.0240 26011.4 -03471.8 -07.6025 26242.0
 06 08 2013  08 08  -21.0238 26011.5 -03471.9 -07.6026 26242.2
 06 08 2013  08 09  -21.0239 26011.5 -03471.9 -07.6027 26242.2
 06 08 2013  08 10  -21.0235 26011.5 -03471.9 -07.6026 26242.2
 06 08 2013  08 11  -21.0233 26011.4 -03471.9 -07.6026 26242.1
 06 08 2013  08 12  -21.0228 26011.4 -03471.9 -07.6026 26242.1
 06 08 2013  08 13  -21.0221 26011.4 -03471.8 -07.6024 26242.1
 06 08 2013  08 14  -21.0216 26011.4 -03471.7 -07.6023 26242.0
 06 08 2013  08 15  -21.0214 26011.5 -03471.8 -07.6024 26242.1
 06 08 2013  08 16  -21.0211 26011.6 -03471.9 -07.6026 26242.3
 06 08 2013  08 17  -21.0207 26011.8 -03472.0 -07.6028 26242.5
 06 08 2013  08 18  -21.0203 26011.8 -03472.0 -07.6028 26242.5
 06 08 2013  08 19  -21.0197 26012.0 -03472.1 -07.6028 26242.7
 06 08 2013  08 20  -21.0190 26012.1 -03472.1 -07.6029 26242.8
 06 08 2013  08 21  -21.0186 26012.2 -03472.2 -07.6031 26242.9
 06 08 2013  08 22  -21.0182 26012.1 -03472.2 -07.6031 26242.8
 06 08 2013  08 23  -21.0179 26012.2 -03472.3 -07.6032 26242.9
 06 08 2013  08 24  -21.0176 26012.2 -03472.3 -07.6033 26243.0
 06 08 2013  08 25  -21.0176 26012.3 -03472.4 -07.6034 26243.0
 06 08 2013  08 26  -21.0177 26012.4 -03472.4 -07.6035 26243.2
 06 08 2013  08 27  -21.0175 26012.5 -03472.4 -07.6035 26243.2
 06 08 2013  08 28  -21.0172 26012.3 -03472.3 -07.6034 26243.1
 06 08 2013  08 29  -21.0169 26012.4 -03472.4 -07.6034 26243.2
 06 08 2013  08 30  -21.0167 26012.5 -03472.4 -07.6035 26243.3
 06 08 2013  08 31  -21.0164 26012.4 -03472.4 -07.6035 26243.2
 06 08 2013  08 32  -21.0159 26012.4 -03472.4 -07.6034 26243.2
 06 08 2013  08 33  -21.0158 26012.6 -03472.5 -07.6035 26243.4
 06 08 2013  08 34  -21.0155 26012.4 -03472.4 -07.6034 26243.2
 06 08 2013  08 35  -21.0149 26012.2 -03472.2 -07.6031 26242.9
 06 08 2013  08 36  -21.0143 26012.1 -03472.1 -07.6029 26242.8
 06 08 2013  08 37  -21.0138 26012.1 -03472.1 -07.6028 26242.8
 06 08 2013  08 38  -21.0135 26012.1 -03472.0 -07.6028 26242.8
 06 08 2013  08 39  -21.0131 26012.0 -03472.0 -07.6027 26242.7
 06 08 2013  08 40  -21.0126 26012.0 -03472.0 -07.6027 26242.6
 06 08 2013  08 41  -21.0120 26011.9 -03472.0 -07.6027 26242.6
 06 08 2013  08 42  -21.0116 26012.0 -03472.0 -07.6028 26242.7
 06 08 2013  08 43  -21.0112 26012.1 -03472.1 -07.6029 26242.9
 06 08 2013  08 44  -21.0108 26012.3 -03472.3 -07.6032 26243.1
 06 08 2013  08 45  -21.0105 26012.5 -03472.3 -07.6033 26243.2
 06 08 2013  08 46  -21.0102 26012.4 -03472.3 -07.6032 26243.1
 06 08 2013  08 47  -21.0096 26012.3 -03472.2 -07.6031 26243.0
 06 08 2013  08 48  -21.0089 26012.3 -03472.1 -07.6029 26243.0
 06 08 2013  08 49  -21.0083 26012.3 -03472.1 -07.6029 26243.0
 06 08 2013  08 50  -21.0082 26012.3 -03472.2 -07.6030 26243.0
 06 08 2013  08 51  -21.0080 26012.4 -03472.2 -07.6030 26243.1
 06 08 2013  08 52  -21.0075 26012.3 -03472.2 -07.6030 26243.0
 06 08 2013  08 53  -21.0071 26012.5 -03472.3 -07.6031 26243.3
 06 08 2013  08 54  -21.0067 26012.5 -03472.3 -07.6032 26243.3
 06 08 2013  08 55  -21.0060 26012.5 -03472.3 -07.6032 26243.3
 06 08 2013  08 56  -21.0053 26012.6 -03472.3 -07.6032 26243.3
 06 08 2013  08 57  -21.0046 26012.5 -03472.4 -07.6034 26243.3
 06 08 2013  08 58  -21.0039 26012.4 -03472.3 -07.6033 26243.1
 06 08 2013  08 59  -21.0032 26012.3 -03472.3 -07.6032 26243.0
 06 08 2013  09 00  -21.0028 26012.2 -03472.3 -07.6033 26243.0
 06 08 2013  09 01  -21.0026 26012.3 -03472.4 -07.6035 26243.0
 06 08 2013  09 02  -21.0026 26012.4 -03472.6 -07.6038 26243.1
 06 08 2013  09 03  -21.0030 26012.5 -03472.8 -07.6043 26243.3
 06 08 2013  09 04  -21.0032 26012.5 -03472.9 -07.6045 26243.3
 06 08 2013  09 05  -21.0029 26012.5 -03473.0 -07.6047 26243.3
 06 08 2013  09 06  -21.0022 26012.4 -03473.0 -07.6047 26243.2
 06 08 2013  09 07  -21.0018 26012.4 -03473.0 -07.6049 26243.2
 06 08 2013  09 08  -21.0011 26012.3 -03473.1 -07.6050 26243.1
 06 08 2013  09 09  -21.0003 26012.4 -03473.1 -07.6051 26243.2
 06 08 2013  09 10  -20.9998 26012.4 -03473.2 -07.6053 26243.3
 06 08 2013  09 11  -20.9993 26012.4 -03473.3 -07.6055 26243.3
 06 08 2013  09 12  -20.9992 26012.5 -03473.5 -07.6058 26243.4
 06 08 2013  09 13  -20.9992 26012.6 -03473.6 -07.6061 26243.5
 06 08 2013  09 14  -20.9993 26012.7 -03473.8 -07.6065 26243.6
 06 08 2013  09 15  -20.9995 26012.8 -03474.0 -07.6069 26243.8
 06 08 2013  09 16  -20.9995 26013.0 -03474.2 -07.6072 26243.9
 06 08 2013  09 17  -20.9992 26013.0 -03474.3 -07.6073 26244.0
 06 08 2013  09 18  -20.9988 26013.0 -03474.3 -07.6074 26244.0
 06 08 2013  09 19  -20.9986 26013.0 -03474.3 -07.6074 26244.0
 06 08 2013  09 20  -20.9983 26013.2 -03474.4 -07.6075 26244.2
 06 08 2013  09 21  -20.9981 26013.2 -03474.4 -07.6075 26244.2
 06 08 2013  09 22  -20.9979 26013.2 -03474.4 -07.6076 26244.2
 06 08 2013  09 23  -20.9980 26013.2 -03474.6 -07.6079 26244.3
 06 08 2013  09 24  -20.9980 26013.3 -03474.6 -07.6081 26244.3
 06 08 2013  09 25  -20.9980 26013.3 -03474.7 -07.6082 26244.3
 06 08 2013  09 26  -20.9981 26013.3 -03474.8 -07.6084 26244.4
 06 08 2013  09 27  -20.9980 26013.4 -03474.9 -07.6086 26244.4
 06 08 2013  09 28  -20.9980 26013.3 -03475.0 -07.6088 26244.4
 06 08 2013  09 29  -20.9982 26013.3 -03475.0 -07.6088 26244.3
 06 08 2013  09 30  -20.9986 26013.3 -03475.1 -07.6090 26244.4
 06 08 2013  09 31  -20.9987 26013.4 -03475.1 -07.6091 26244.5
 06 08 2013  09 32  -20.9984 26013.4 -03475.2 -07.6092 26244.5
 06 08 2013  09 33  -20.9978 26013.5 -03475.2 -07.6092 26244.6
 06 08 2013  09 34  -20.9975 26013.5 -03475.2 -07.6093 26244.6
 06 08 2013  09 35  -20.9972 26013.5 -03475.3 -07.6094 26244.6
 06 08 2013  09 36  -20.9969 26013.5 -03475.3 -07.6095 26244.6
 06 08 2013  09 37  -20.9967 26013.5 -03475.4 -07.6096 26244.7
 06 08 2013  09 38  -20.9964 26013.5 -03475.4 -07.6097 26244.6
 06 08 2013  09 39  -20.9960 26013.4 -03475.5 -07.6098 26244.6
 06 08 2013  09 40  -20.9958 26013.4 -03475.5 -07.6099 26244.5
 06 08 2013  09 41  -20.9956 26013.3 -03475.5 -07.6100 26244.5
 06 08 2013  09 42  -20.9952 26013.3 -03475.6 -07.6101 26244.4
 06 08 2013  09 43  -20.9950 26013.2 -03475.6 -07.6102 26244.4
 06 08 2013  09 44  -20.9948 26013.2 -03475.7 -07.6104 26244.4
 06 08 2013  09 45  -20.9946 26013.2 -03475.8 -07.6106 26244.4
 06 08 2013  09 46  -20.9948 26013.3 -03475.9 -07.6108 26244.5
 06 08 2013  09 47  -20.9948 26013.3 -03476.0 -07.6109 26244.5
 06 08 2013  09 48  -20.9949 26013.2 -03476.1 -07.6111 26244.5
 06 08 2013  09 49  -20.9948 26013.3 -03476.1 -07.6112 26244.5
 06 08 2013  09 50  -20.9947 26013.4 -03476.2 -07.6114 26244.7
 06 08 2013  09 51  -20.9949 26013.4 -03476.3 -07.6116 26244.7
 06 08 2013  09 52  -20.9955 26013.5 -03476.5 -07.6119 26244.8
 06 08 2013  09 53  -20.9960 26013.6 -03476.5 -07.6120 26244.8
 06 08 2013  09 54  -20.9965 26013.6 -03476.6 -07.6122 26244.9
 06 08 2013  09 55  -20.9964 26013.7 -03476.6 -07.6121 26245.0
 06 08 2013  09 56  -20.9965 26013.8 -03476.7 -07.6123 26245.1
 06 08 2013  09 57  -20.9971 26013.8 -03476.7 -07.6125 26245.1
 06 08 2013  09 58  -20.9978 26013.9 -03476.8 -07.6126 26245.2
 06 08 2013  09 59  -20.9983 26013.9 -03476.9 -07.6127 26245.2
 06 08 2013  10 00  -20.9985 26013.9 -03476.9 -07.6128 26245.3
 06 08 2013  10 01  -20.9985 26014.0 -03477.0 -07.6129 26245.3
 06 08 2013  10 02  -20.9983 26014.1 -03477.1 -07.6131 26245.4
 06 08 2013  10 03  -20.9985 26014.3 -03477.3 -07.6134 26245.7
 06 08 2013  10 04  -20.9985 26014.6 -03477.4 -07.6137 26246.0
 06 08 2013  10 05  -20.9985 26014.8 -03477.6 -07.6139 26246.2
 06 08 2013  10 06  -20.9983 26015.1 -03477.7 -07.6141 26246.5
 06 08 2013  10 07  -20.9978 26015.3 -03477.7 -07.6142 26246.7
 06 08 2013  10 08  -20.9975 26015.6 -03477.8 -07.6142 26247.0
 06 08 2013  10 09  -20.9977 26015.8 -03477.8 -07.6143 26247.2
 06 08 2013  10 10  -20.9977 26016.0 -03477.9 -07.6142 26247.5
 06 08 2013  10 11  -20.9981 26016.3 -03477.9 -07.6142 26247.8
 06 08 2013  10 12  -20.9988 26016.5 -03477.9 -07.6141 26247.9
 06 08 2013  10 13  -20.9996 26016.4 -03477.8 -07.6139 26247.8
 06 08 2013  10 14  -21.0002 26016.1 -03477.6 -07.6137 26247.5
 06 08 2013  10 15  -21.0007 26016.0 -03477.6 -07.6136 26247.4
 06 08 2013  10 16  -21.0014 26016.0 -03477.6 -07.6137 26247.4
 06 08 2013  10 17  -21.0027 26016.1 -03477.7 -07.6138 26247.5
 06 08 2013  10 18  -21.0041 26016.3 -03477.8 -07.6140 26247.7
 06 08 2013  10 19  -21.0055 26016.5 -03477.9 -07.6142 26247.9
 06 08 2013  10 20  -21.0064 26016.4 -03477.8 -07.6140 26247.8
 06 08 2013  10 21  -21.0069 26016.5 -03477.8 -07.6140 26247.9
 06 08 2013  10 22  -21.0075 26016.5 -03477.7 -07.6138 26247.9
 06 08 2013  10 23  -21.0080 26016.3 -03477.7 -07.6137 26247.7
 06 08 2013  10 24  -21.0087 26016.3 -03477.6 -07.6135 26247.7
 06 08 2013  10 25  -21.0096 26016.5 -03477.7 -07.6137 26247.9
 06 08 2013  10 26  -21.0105 26016.8 -03477.7 -07.6137 26248.2
 06 08 2013  10 27  -21.0112 26016.9 -03477.7 -07.6137 26248.3
 06 08 2013  10 28  -21.0115 26016.9 -03477.7 -07.6136 26248.3
 06 08 2013  10 29  -21.0117 26017.1 -03477.6 -07.6134 26248.5
 06 08 2013  10 30  -21.0121 26017.2 -03477.6 -07.6134 26248.6
 06 08 2013  10 31  -21.0122 26017.5 -03477.7 -07.6134 26248.8
 06 08 2013  10 32  -21.0128 26017.6 -03477.6 -07.6133 26249.0
 06 08 2013  10 33  -21.0132 26017.7 -03477.6 -07.6132 26249.1
 06 08 2013  10 34  -21.0137 26018.1 -03477.6 -07.6132 26249.5
 06 08 2013  10 35  -21.0146 26018.4 -03477.7 -07.6132 26249.8
 06 08 2013  10 36  -21.0155 26018.6 -03477.6 -07.6130 26250.0
 06 08 2013  10 37  -21.0162 26018.9 -03477.7 -07.6130 26250.3
 06 08 2013  10 38  -21.0171 26019.2 -03477.7 -07.6130 26250.6
 06 08 2013  10 39  -21.0178 26019.6 -03477.7 -07.6129 26251.0
 06 08 2013  10 40  -21.0182 26019.9 -03477.7 -07.6128 26251.2
 06 08 2013  10 41  -21.0186 26020.1 -03477.7 -07.6126 26251.5
 06 08 2013  10 42  -21.0186 26020.6 -03477.7 -07.6126 26251.9
 06 08 2013  10 43  -21.0187 26021.1 -03477.8 -07.6126 26252.5
 06 08 2013  10 44  -21.0192 26021.5 -03477.8 -07.6125 26252.8
 06 08 2013  10 45  -21.0196 26021.6 -03477.7 -07.6123 26253.0
 06 08 2013  10 46  -21.0199 26021.8 -03477.6 -07.6121 26253.2
 06 08 2013  10 47  -21.0203 26022.2 -03477.6 -07.6120 26253.5
 06 08 2013  10 48  -21.0207 26022.5 -03477.7 -07.6119 26253.9
 06 08 2013  10 49  -21.0212 26022.8 -03477.6 -07.6117 26254.2
 06 08 2013  10 50  -21.0214 26023.3 -03477.6 -07.6116 26254.6
 06 08 2013  10 51  -21.0210 26023.9 -03477.6 -07.6114 26255.2
 06 08 2013  10 52  -21.0207 26024.3 -03477.6 -07.6112 26255.7
 06 08 2013  10 53  -21.0203 26025.1 -03477.6 -07.6111 26256.4
 06 08 2013  10 54  -21.0199 26025.8 -03477.7 -07.6110 26257.1
 06 08 2013  10 55  -21.0205 26026.1 -03477.6 -07.6108 26257.4
 06 08 2013  10 56  -21.0217 26026.2 -03477.6 -07.6106 26257.5
 06 08 2013  10 57  -21.0229 26026.4 -03477.5 -07.6105 26257.7
 06 08 2013  10 58  -21.0245 26026.2 -03477.4 -07.6103 26257.5
 06 08 2013  10 59  -21.0261 26026.0 -03477.3 -07.6101 26257.3
 06 08 2013  11 00  -21.0274 26025.8 -03477.1 -07.6098 26257.1
 06 08 2013  11 01  -21.0282 26025.9 -03477.1 -07.6097 26257.1
 06 08 2013  11 02  -21.0285 26026.4 -03477.2 -07.6098 26257.7
 06 08 2013  11 03  -21.0286 26026.8 -03477.2 -07.6096 26258.1
 06 08 2013  11 04  -21.0291 26026.9 -03477.0 -07.6093 26258.1
 06 08 2013  11 05  -21.0300 26027.0 -03476.9 -07.6090 26258.2
 06 08 2013  11 06  -21.0311 26027.1 -03476.8 -07.6087 26258.3
 06 08 2013  11 07  -21.0316 26027.1 -03476.6 -07.6083 26258.3
 06 08 2013  11 08  -21.0325 26027.0 -03476.4 -07.6078 26258.1
 06 08 2013  11 09  -21.0342 26026.9 -03476.3 -07.6077 26258.1
 06 08 2013  11 10  -21.0361 26026.7 -03476.2 -07.6075 26257.8
 06 08 2013  11 11  -21.0376 26026.6 -03476.1 -07.6074 26257.7
 06 08 2013  11 12  -21.0386 26026.6 -03476.0 -07.6072 26257.7
 06 08 2013  11 13  -21.0396 26026.7 -03476.0 -07.6071 26257.8
 06 08 2013  11 14  -21.0408 26026.9 -03476.0 -07.6070 26258.0
 06 08 2013  11 15  -21.0420 26026.8 -03475.9 -07.6068 26257.9
 06 08 2013  11 16  -21.0429 26026.8 -03475.7 -07.6065 26257.8
 06 08 2013  11 17  -21.0433 26026.8 -03475.6 -07.6062 26257.8
 06 08 2013  11 18  -21.0437 26026.9 -03475.5 -07.6059 26257.9
 06 08 2013  11 19  -21.0436 26026.9 -03475.4 -07.6056 26258.0
 06 08 2013  11 20  -21.0431 26027.2 -03475.3 -07.6054 26258.2
 06 08 2013  11 21  -21.0428 26027.5 -03475.2 -07.6052 26258.4
 06 08 2013  11 22  -21.0427 26027.8 -03475.2 -07.6051 26258.8
 06 08 2013  11 23  -21.0431 26028.0 -03475.1 -07.6048 26258.9
 06 08 2013  11 24  -21.0435 26028.1 -03475.0 -07.6046 26259.1
 06 08 2013  11 25  -21.0440 26028.2 -03474.9 -07.6042 26259.1
 06 08 2013  11 26  -21.0444 26028.3 -03474.7 -07.6039 26259.2
 06 08 2013  11 27  -21.0447 26028.6 -03474.7 -07.6037 26259.5
 06 08 2013  11 28  -21.0453 26028.8 -03474.6 -07.6034 26259.7
 06 08 2013  11 29  -21.0461 26028.9 -03474.4 -07.6031 26259.7
 06 08 2013  11 30  -21.0470 26029.2 -03474.4 -07.6028 26260.0
 06 08 2013  11 31  -21.0478 26029.5 -03474.3 -07.6026 26260.3
 06 08 2013  11 32  -21.0484 26029.7 -03474.2 -07.6022 26260.6
 06 08 2013  11 33  -21.0488 26029.9 -03474.0 -07.6018 26260.7
 06 08 2013  11 34  -21.0492 26030.0 -03473.8 -07.6014 26260.8
 06 08 2013  11 35  -21.0497 26030.2 -03473.7 -07.6011 26261.0
 06 08 2013  11 36  -21.0507 26030.5 -03473.6 -07.6009 26261.2
 06 08 2013  11 37  -21.0516 26030.8 -03473.6 -07.6006 26261.5
 06 08 2013  11 38  -21.0525 26031.0 -03473.4 -07.6003 26261.7
 06 08 2013  11 39  -21.0532 26031.4 -03473.3 -07.6000 26262.1
 06 08 2013  11 40  -21.0541 26031.7 -03473.2 -07.5996 26262.4
 06 08 2013  11 41  -21.0546 26032.0 -03473.0 -07.5992 26262.6
 06 08 2013  11 42  -21.0550 26032.3 -03472.9 -07.5987 26262.9
 06 08 2013  11 43  -21.0550 26032.5 -03472.7 -07.5982 26263.1
 06 08 2013  11 44  -21.0551 26032.7 -03472.5 -07.5977 26263.3
 06 08 2013  11 45  -21.0554 26032.8 -03472.3 -07.5973 26263.4
 06 08 2013  11 46  -21.0556 26033.0 -03472.1 -07.5969 26263.6
 06 08 2013  11 47  -21.0561 26033.3 -03472.0 -07.5965 26263.8
 06 08 2013  11 48  -21.0564 26033.7 -03471.9 -07.5961 26264.1
 06 08 2013  11 49  -21.0567 26033.8 -03471.7 -07.5957 26264.3
 06 08 2013  11 50  -21.0572 26034.0 -03471.4 -07.5951 26264.4
 06 08 2013  11 51  -21.0576 26034.4 -03471.3 -07.5947 26264.8
 06 08 2013  11 52  -21.0580 26034.7 -03471.1 -07.5943 26265.1
 06 08 2013  11 53  -21.0580 26034.9 -03470.9 -07.5938 26265.3
 06 08 2013  11 54  -21.0581 26035.3 -03470.8 -07.5933 26265.6
 06 08 2013  11 55  -21.0585 26035.8 -03470.6 -07.5928 26266.1
 06 08 2013  11 56  -21.0591 26036.5 -03470.5 -07.5925 26266.7
 06 08 2013  11 57  -21.0592 26036.8 -03470.3 -07.5919 26267.0
 06 08 2013  11 58  -21.0622 26036.6 -03469.7 -07.5906 26266.7
 06 08 2013  11 59  -21.0637 26036.4 -03469.3 -07.5898 26266.5
 06 08 2013  12 00  -21.0644 26036.7 -03469.1 -07.5892 26266.8
 06 08 2013  12 01  -21.0648 26037.3 -03469.0 -07.5889 26267.3
 06 08 2013  12 02  -21.0649 26037.8 -03468.8 -07.5884 26267.9
 06 08 2013  12 03  -21.0648 26038.1 -03468.6 -07.5878 26268.1
 06 08 2013  12 04  -21.0647 26038.2 -03468.3 -07.5871 26268.2
 06 08 2013  12 05  -21.0646 26038.3 -03468.0 -07.5864 26268.2
 06 08 2013  12 06  -21.0647 26038.4 -03467.7 -07.5858 26268.3
 06 08 2013  12 07  -21.0649 26038.6 -03467.5 -07.5852 26268.5
 06 08 2013  12 08  -21.0652 26038.9 -03467.3 -07.5847 26268.7
 06 08 2013  12 09  -21.0614 26039.5 -03467.3 -07.5846 26269.3
 06 08 2013  12 10  -21.0606 26040.0 -03467.2 -07.5843 26269.8
 06 08 2013  12 11  -21.0605 26040.4 -03467.1 -07.5838 26270.2
 06 08 2013  12 12  -21.0605 26040.6 -03466.8 -07.5832 26270.4
 06 08 2013  12 13  -21.0609 26040.7 -03466.5 -07.5824 26270.4
 06 08 2013  12 14  -21.0612 26040.8 -03466.2 -07.5819 26270.5
 06 08 2013  12 15  -21.0616 26041.3 -03466.1 -07.5815 26270.9
 06 08 2013  12 16  -21.0618 26041.5 -03465.8 -07.5809 26271.1
 06 08 2013  12 17  -21.0616 26041.6 -03465.5 -07.5802 26271.2
 06 08 2013  12 18  -21.0614 26041.7 -03465.3 -07.5796 26271.2
 06 08 2013  12 19  -21.0613 26041.9 -03465.0 -07.5790 26271.4
 06 08 2013  12 20  -21.0612 26042.1 -03464.9 -07.5786 26271.6
 06 08 2013  12 21  -21.0611 26042.3 -03464.6 -07.5781 26271.8
 06 08 2013  12 22  -21.0611 26042.5 -03464.4 -07.5775 26271.9
 06 08 2013  12 23  -21.0613 26043.0 -03464.3 -07.5772 26272.4
 06 08 2013  12 24  -21.0610 26043.4 -03464.2 -07.5768 26272.7
 06 08 2013  12 25  -21.0608 26043.5 -03463.9 -07.5762 26272.8
 06 08 2013  12 26  -21.0607 26043.5 -03463.7 -07.5756 26272.8
 06 08 2013  12 27  -21.0607 26043.5 -03463.4 -07.5750 26272.8
 06 08 2013  12 28  -21.0608 26043.3 -03463.1 -07.5745 26272.6
 06 08 2013  12 29  -21.0609 26043.4 -03463.0 -07.5742 26272.6
 06 08 2013  12 30  -21.0612 26043.8 -03463.0 -07.5740 26273.0
 06 08 2013  12 31  -21.0613 26043.6 -03462.7 -07.5735 26272.8
 06 08 2013  12 32  -21.0612 26043.8 -03462.6 -07.5732 26272.9
 06 08 2013  12 33  -21.0613 26043.4 -03462.4 -07.5728 26272.6
 06 08 2013  12 34  -21.0617 26043.6 -03462.3 -07.5727 26272.7
 06 08 2013  12 35  -21.0618 26043.5 -03462.2 -07.5724 26272.6
 06 08 2013  12 36  -21.0618 26043.7 -03462.1 -07.5722 26272.8
 06 08 2013  12 37  -21.0615 26043.9 -03462.1 -07.5721 26273.0
 06 08 2013  12 38  -21.0611 26043.7 -03461.8 -07.5716 26272.8
 06 08 2013  12 39  -21.0609 26044.1 -03461.9 -07.5717 26273.2
 06 08 2013  12 40  -21.0610 26044.2 -03461.8 -07.5715 26273.2
 06 08 2013  12 41  -21.0607 26044.2 -03461.7 -07.5712 26273.2
 06 08 2013  12 42  -21.0605 26044.3 -03461.6 -07.5710 26273.4
 06 08 2013  12 43  -21.0600 26044.9 -03461.7 -07.5710 26274.0
 06 08 2013  12 44  -21.0597 26045.5 -03461.8 -07.5709 26274.5
 06 08 2013  12 45  -21.0598 26046.1 -03461.9 -07.5709 26275.1
 06 08 2013  12 46  -21.0601 26046.7 -03461.9 -07.5709 26275.8
 06 08 2013  12 47  -21.0607 26047.2 -03462.0 -07.5708 26276.3
 06 08 2013  12 48  -21.0615 26047.7 -03461.9 -07.5707 26276.7
 06 08 2013  12 49  -21.0625 26048.2 -03462.0 -07.5706 26277.2
 06 08 2013  12 50  -21.0636 26049.0 -03462.2 -07.5708 26278.1
 06 08 2013  12 51  -21.0646 26050.0 -03462.5 -07.5711 26279.1
 06 08 2013  12 52  -21.0656 26051.3 -03462.8 -07.5714 26280.4
 06 08 2013  12 53  -21.0660 26051.3 -03462.6 -07.5710 26280.4
 06 08 2013  12 54  -21.0668 26050.9 -03462.1 -07.5702 26279.9
 06 08 2013  12 55  -21.0679 26050.3 -03461.7 -07.5695 26279.3
 06 08 2013  12 56  -21.0687 26050.0 -03461.6 -07.5693 26279.0
 06 08 2013  12 57  -21.0692 26050.0 -03461.6 -07.5693 26278.9
 06 08 2013  12 58  -21.0704 26050.6 -03462.0 -07.5700 26279.7
 06 08 2013  12 59  -21.0717 26050.8 -03462.1 -07.5702 26279.8
 06 08 2013  13 00  -21.0728 26051.0 -03462.2 -07.5703 26280.0
 06 08 2013  13 01  -21.0733 26051.1 -03462.2 -07.5702 26280.1
 06 08 2013  13 02  -21.0737 26051.5 -03462.2 -07.5702 26280.5
 06 08 2013  13 03  -21.0741 26051.8 -03462.2 -07.5701 26280.8
 06 08 2013  13 04  -21.0745 26051.6 -03462.1 -07.5700 26280.7
 06 08 2013  13 05  -21.0749 26051.0 -03461.9 -07.5696 26280.0
 06 08 2013  13 06  -21.0754 26049.9 -03461.6 -07.5692 26278.9
 06 08 2013  13 07  -21.0759 26049.2 -03461.5 -07.5693 26278.1
 06 08 2013  13 08  -21.0766 26048.8 -03461.6 -07.5696 26277.8
 06 08 2013  13 09  -21.0774 26049.0 -03461.9 -07.5703 26278.0
 06 08 2013  13 10  -21.0784 26049.4 -03462.3 -07.5710 26278.5
 06 08 2013  13 11  -21.0796 26050.0 -03462.7 -07.5716 26279.1
 06 08 2013  13 12  -21.0808 26050.6 -03463.0 -07.5721 26279.8
 06 08 2013  13 13  -21.0821 26051.1 -03463.1 -07.5723 26280.3
 06 08 2013  13 14  -21.0830 26051.5 -03463.2 -07.5723 26280.7
 06 08 2013  13 15  -21.0837 26051.8 -03463.2 -07.5723 26281.0
 06 08 2013  13 16  -21.0843 26051.9 -03463.2 -07.5722 26281.1
 06 08 2013  13 17  -21.0847 26052.0 -03463.1 -07.5720 26281.2
 06 08 2013  13 18  -21.0851 26051.9 -03463.0 -07.5718 26281.1
 06 08 2013  13 19  -21.0859 26052.1 -03463.1 -07.5719 26281.3
 06 08 2013  13 20  -21.0865 26052.0 -03463.1 -07.5718 26281.2
 06 08 2013  13 21  -21.0871 26051.9 -03463.0 -07.5717 26281.1
 06 08 2013  13 22  -21.0877 26051.8 -03462.9 -07.5716 26280.9
 06 08 2013  13 23  -21.0883 26051.5 -03462.8 -07.5715 26280.7
 06 08 2013  13 24  -21.0888 26051.5 -03462.8 -07.5715 26280.6
 06 08 2013  13 25  -21.0890 26051.3 -03462.8 -07.5715 26280.5
 06 08 2013  13 26  -21.0892 26051.3 -03462.8 -07.5716 26280.4
 06 08 2013  13 27  -21.0892 26051.3 -03462.9 -07.5717 26280.4
 06 08 2013  13 28  -21.0894 26050.9 -03462.8 -07.5716 26280.1
 06 08 2013  13 29  -21.0893 26050.8 -03462.8 -07.5716 26280.0
 06 08 2013  13 30  -21.0896 26050.8 -03462.8 -07.5716 26280.0
 06 08 2013  13 31  -21.0899 26050.8 -03462.8 -07.5717 26279.9
 06 08 2013  13 32  -21.0903 26050.8 -03462.9 -07.5718 26280.0
 06 08 2013  13 33  -21.0906 26051.0 -03462.9 -07.5718 26280.2
 06 08 2013  13 34  -21.0905 26051.3 -03462.9 -07.5718 26280.4
 06 08 2013  13 35  -21.0908 26051.5 -03463.0 -07.5718 26280.7
 06 08 2013  13 36  -21.0909 26051.8 -03463.0 -07.5718 26281.0
 06 08 2013  13 37  -21.0910 26052.0 -03462.9 -07.5715 26281.1
 06 08 2013  13 38  -21.0910 26052.4 -03462.9 -07.5714 26281.5
 06 08 2013  13 39  -21.0912 26052.9 -03462.9 -07.5713 26282.0
 06 08 2013  13 40  -21.0913 26053.3 -03462.8 -07.5710 26282.4
 06 08 2013  13 41  -21.0915 26053.5 -03462.7 -07.5706 26282.6
 06 08 2013  13 42  -21.0916 26053.7 -03462.4 -07.5700 26282.8
 06 08 2013  13 43  -21.0914 26053.7 -03462.1 -07.5693 26282.8
 06 08 2013  13 44  -21.0913 26053.8 -03461.8 -07.5687 26282.8
 06 08 2013  13 45  -21.0912 26054.1 -03461.7 -07.5682 26283.0
 06 08 2013  13 46  -21.0911 26054.1 -03461.4 -07.5676 26283.1
 06 08 2013  13 47  -21.0910 26054.3 -03461.2 -07.5671 26283.2
 06 08 2013  13 48  -21.0909 26054.0 -03460.7 -07.5663 26282.8
 06 08 2013  13 49  -21.0908 26053.8 -03460.4 -07.5655 26282.6
 06 08 2013  13 50  -21.0909 26053.7 -03460.1 -07.5650 26282.4
 06 08 2013  13 51  -21.0908 26053.8 -03459.9 -07.5645 26282.6
 06 08 2013  13 52  -21.0909 26053.9 -03459.7 -07.5640 26282.6
 06 08 2013  13 53  -21.0909 26053.9 -03459.3 -07.5633 26282.6
 06 08 2013  13 54  -21.0906 26053.7 -03459.0 -07.5625 26282.3
 06 08 2013  13 55  -21.0906 26053.6 -03458.6 -07.5618 26282.1
 06 08 2013  13 56  -21.0903 26053.6 -03458.3 -07.5612 26282.1
 06 08 2013  13 57  -21.0900 26053.6 -03458.0 -07.5605 26282.1
 06 08 2013  13 58  -21.0896 26053.8 -03457.8 -07.5599 26282.2
 06 08 2013  13 59  -21.0893 26054.0 -03457.6 -07.5594 26282.4
 06 08 2013  14 00  -21.0889 26054.1 -03457.3 -07.5587 26282.5
 06 08 2013  14 01  -21.0885 26054.2 -03456.9 -07.5580 26282.5
 06 08 2013  14 02  -21.0878 26053.9 -03456.5 -07.5570 26282.2
 06 08 2013  14 03  -21.0872 26053.8 -03456.1 -07.5563 26282.0
 06 08 2013  14 04  -21.0863 26053.5 -03455.7 -07.5555 26281.6
 06 08 2013  14 05  -21.0855 26053.2 -03455.3 -07.5548 26281.4
 06 08 2013  14 06  -21.0848 26053.2 -03455.1 -07.5544 26281.3
 06 08 2013  14 07  -21.0840 26053.0 -03454.8 -07.5537 26281.0
 06 08 2013  14 08  -21.0831 26052.8 -03454.5 -07.5532 26280.8
 06 08 2013  14 09  -21.0823 26052.7 -03454.2 -07.5526 26280.7
 06 08 2013  14 10  -21.0816 26052.7 -03454.1 -07.5522 26280.6
 06 08 2013  14 11  -21.0810 26052.8 -03453.9 -07.5519 26280.8
 06 08 2013  14 12  -21.0802 26052.8 -03453.7 -07.5514 26280.7
 06 08 2013  14 13  -21.0793 26052.7 -03453.5 -07.5509 26280.6
 06 08 2013  14 14  -21.0787 26052.8 -03453.3 -07.5506 26280.7
 06 08 2013  14 15  -21.0780 26052.7 -03453.1 -07.5501 26280.6
 06 08 2013  14 16  -21.0771 26052.4 -03452.8 -07.5496 26280.3
 06 08 2013  14 17  -21.0762 26052.1 -03452.6 -07.5491 26279.8
 06 08 2013  14 18  -21.0757 26052.0 -03452.5 -07.5490 26279.8
 06 08 2013  14 19  -21.0751 26052.0 -03452.4 -07.5489 26279.8
 06 08 2013  14 20  -21.0746 26052.1 -03452.4 -07.5488 26279.8
 06 08 2013  14 21  -21.0739 26052.0 -03452.3 -07.5486 26279.8
 06 08 2013  14 22  -21.0730 26052.0 -03452.2 -07.5484 26279.7
 06 08 2013  14 23  -21.0724 26051.9 -03452.1 -07.5482 26279.6
 06 08 2013  14 24  -21.0715 26051.8 -03452.1 -07.5481 26279.6
 06 08 2013  14 25  -21.0706 26051.6 -03451.9 -07.5479 26279.3
 06 08 2013  14 26  -21.0700 26051.7 -03452.0 -07.5480 26279.4
 06 08 2013  14 27  -21.0698 26051.9 -03452.0 -07.5480 26279.6
 06 08 2013  14 28  -21.0692 26052.1 -03452.0 -07.5480 26279.8
 06 08 2013  14 29  -21.0689 26052.3 -03452.1 -07.5480 26280.0
 06 08 2013  14 30  -21.0683 26052.3 -03452.0 -07.5478 26280.0
 06 08 2013  14 31  -21.0677 26052.0 -03451.8 -07.5476 26279.7
 06 08 2013  14 32  -21.0669 26051.7 -03451.7 -07.5473 26279.3
 06 08 2013  14 33  -21.0662 26051.5 -03451.6 -07.5472 26279.1
 06 08 2013  14 34  -21.0653 26051.2 -03451.5 -07.5471 26278.9
 06 08 2013  14 35  -21.0645 26051.1 -03451.5 -07.5472 26278.8
 06 08 2013  14 36  -21.0638 26051.1 -03451.6 -07.5473 26278.8
 06 08 2013  14 37  -21.0633 26051.1 -03451.6 -07.5473 26278.7
 06 08 2013  14 38  -21.0627 26051.0 -03451.6 -07.5473 26278.7
 06 08 2013  14 39  -21.0622 26050.9 -03451.5 -07.5472 26278.6
 06 08 2013  14 40  -21.0618 26050.9 -03451.5 -07.5472 26278.5
 06 08 2013  14 41  -21.0615 26050.8 -03451.5 -07.5472 26278.5
 06 08 2013  14 42  -21.0607 26050.4 -03451.3 -07.5469 26278.1
 06 08 2013  14 43  -21.0600 26050.2 -03451.2 -07.5468 26277.8
 06 08 2013  14 44  -21.0596 26049.9 -03451.2 -07.5467 26277.5
 06 08 2013  14 45  -21.0590 26049.7 -03451.1 -07.5466 26277.3
 06 08 2013  14 46  -21.0584 26049.5 -03451.1 -07.5466 26277.1
 06 08 2013  14 47  -21.0578 26049.1 -03451.0 -07.5465 26276.7
 06 08 2013  14 48  -21.0568 26048.8 -03450.9 -07.5464 26276.4
 06 08 2013  14 49  -21.0560 26048.5 -03450.8 -07.5464 26276.1
 06 08 2013  14 50  -21.0553 26048.5 -03450.9 -07.5466 26276.1
 06 08 2013  14 51  -21.0545 26048.2 -03450.8 -07.5465 26275.8
 06 08 2013  14 52  -21.0535 26047.8 -03450.7 -07.5464 26275.4
 06 08 2013  14 53  -21.0526 26047.5 -03450.7 -07.5464 26275.1
 06 08 2013  14 54  -21.0518 26047.4 -03450.7 -07.5465 26275.0
 06 08 2013  14 55  -21.0510 26047.4 -03450.8 -07.5466 26275.0
 06 08 2013  14 56  -21.0504 26047.4 -03450.8 -07.5467 26275.0
 06 08 2013  14 57  -21.0500 26047.5 -03450.9 -07.5469 26275.1
 06 08 2013  14 58  -21.0496 26047.7 -03451.0 -07.5470 26275.3
 06 08 2013  14 59  -21.0490 26047.4 -03450.9 -07.5469 26275.0
 06 08 2013  15 00  -21.0482 26047.2 -03450.8 -07.5467 26274.7
 06 08 2013  15 01  -21.0477 26046.9 -03450.8 -07.5468 26274.5
 06 08 2013  15 02  -21.0470 26046.6 -03450.7 -07.5467 26274.2
 06 08 2013  15 03  -21.0464 26046.4 -03450.7 -07.5468 26274.0
 06 08 2013  15 04  -21.0459 26045.9 -03450.6 -07.5468 26273.4
 06 08 2013  15 05  -21.0453 26045.4 -03450.6 -07.5467 26273.0
 06 08 2013  15 06  -21.0446 26045.0 -03450.6 -07.5469 26272.6
 06 08 2013  15 07  -21.0440 26044.6 -03450.6 -07.5471 26272.2
 06 08 2013  15 08  -21.0436 26044.3 -03450.7 -07.5474 26271.9
 06 08 2013  15 09  -21.0432 26043.8 -03450.8 -07.5478 26271.4
 06 08 2013  15 10  -21.0429 26043.5 -03451.0 -07.5482 26271.1
 06 08 2013  15 11  -21.0423 26042.9 -03451.0 -07.5483 26270.5
 06 08 2013  15 12  -21.0418 26042.6 -03451.1 -07.5487 26270.2
 06 08 2013  15 13  -21.0413 26042.2 -03451.2 -07.5491 26269.9
 06 08 2013  15 14  -21.0407 26042.0 -03451.5 -07.5497 26269.8
 06 08 2013  15 15  -21.0406 26041.9 -03451.7 -07.5503 26269.7
 06 08 2013  15 16  -21.0402 26041.7 -03451.9 -07.5507 26269.5
 06 08 2013  15 17  -21.0399 26041.6 -03452.2 -07.5513 26269.5
 06 08 2013  15 18  -21.0397 26041.5 -03452.4 -07.5517 26269.3
 06 08 2013  15 19  -21.0392 26041.1 -03452.4 -07.5520 26268.9
 06 08 2013  15 20  -21.0387 26040.9 -03452.6 -07.5525 26268.8
 06 08 2013  15 21  -21.0387 26040.7 -03452.9 -07.5530 26268.6
 06 08 2013  15 22  -21.0382 26040.5 -03453.1 -07.5536 26268.5
 06 08 2013  15 23  -21.0383 26040.6 -03453.4 -07.5543 26268.6
 06 08 2013  15 24  -21.0379 26040.6 -03453.7 -07.5548 26268.6
 06 08 2013  15 25  -21.0381 26041.0 -03454.1 -07.5556 26269.1
 06 08 2013  15 26  -21.0382 26041.0 -03454.3 -07.5561 26269.1
 06 08 2013  15 27  -21.0378 26040.8 -03454.4 -07.5564 26268.9
 06 08 2013  15 28  -21.0374 26040.6 -03454.6 -07.5568 26268.8
 06 08 2013  15 29  -21.0374 26040.4 -03454.8 -07.5573 26268.6
 06 08 2013  15 30  -21.0370 26040.0 -03455.0 -07.5578 26268.2
 06 08 2013  15 31  -21.0367 26039.7 -03455.1 -07.5583 26267.9
 06 08 2013  15 32  -21.0364 26039.4 -03455.3 -07.5587 26267.6
 06 08 2013  15 33  -21.0363 26039.1 -03455.6 -07.5594 26267.4
 06 08 2013  15 34  -21.0361 26038.7 -03455.8 -07.5599 26267.0
 06 08 2013  15 35  -21.0360 26038.5 -03456.1 -07.5606 26266.9
 06 08 2013  15 36  -21.0361 26038.5 -03456.4 -07.5614 26266.9
 06 08 2013  15 37  -21.0363 26038.5 -03456.7 -07.5621 26266.9
 06 08 2013  15 38  -21.0362 26038.3 -03457.0 -07.5626 26266.8
 06 08 2013  15 39  -21.0365 26038.3 -03457.3 -07.5633 26266.8
 06 08 2013  15 40  -21.0366 26038.2 -03457.5 -07.5638 26266.7
 06 08 2013  15 41  -21.0367 26038.1 -03457.7 -07.5643 26266.7
 06 08 2013  15 42  -21.0368 26038.1 -03458.0 -07.5648 26266.7
 06 08 2013  15 43  -21.0369 26038.0 -03458.2 -07.5653 26266.7
 06 08 2013  15 44  -21.0370 26038.1 -03458.5 -07.5659 26266.8
 06 08 2013  15 45  -21.0371 26038.1 -03458.7 -07.5663 26266.8
 06 08 2013  15 46  -21.0372 26038.0 -03458.8 -07.5667 26266.7
 06 08 2013  15 47  -21.0372 26037.9 -03459.0 -07.5670 26266.7
 06 08 2013  15 48  -21.0370 26037.8 -03459.1 -07.5674 26266.6
 06 08 2013  15 49  -21.0371 26037.8 -03459.3 -07.5678 26266.6
 06 08 2013  15 50  -21.0369 26037.6 -03459.4 -07.5681 26266.4
 06 08 2013  15 51  -21.0370 26037.7 -03459.7 -07.5686 26266.5
 06 08 2013  15 52  -21.0370 26037.6 -03459.8 -07.5690 26266.4
 06 08 2013  15 53  -21.0370 26037.7 -03460.0 -07.5694 26266.5
 06 08 2013  15 54  -21.0372 26037.6 -03460.2 -07.5699 26266.5
 06 08 2013  15 55  -21.0374 26037.5 -03460.3 -07.5701 26266.5
 06 08 2013  15 56  -21.0374 26037.4 -03460.4 -07.5704 26266.4
 06 08 2013  15 57  -21.0374 26037.2 -03460.5 -07.5706 26266.1
 06 08 2013  15 58  -21.0373 26037.0 -03460.6 -07.5709 26266.0
 06 08 2013  15 59  -21.0372 26036.9 -03460.7 -07.5712 26265.9
 06 08 2013  16 00  -21.0374 26037.0 -03461.0 -07.5716 26266.0
 06 08 2013  16 01  -21.0375 26037.1 -03461.1 -07.5720 26266.1
 06 08 2013  16 02  -21.0374 26037.1 -03461.2 -07.5722 26266.1
 06 08 2013  16 03  -21.0374 26037.1 -03461.4 -07.5724 26266.2
 06 08 2013  16 04  -21.0373 26037.1 -03461.4 -07.5725 26266.2
 06 08 2013  16 05  -21.0371 26037.1 -03461.5 -07.5727 26266.2
 06 08 2013  16 06  -21.0370 26037.1 -03461.5 -07.5728 26266.1
 06 08 2013  16 07  -21.0369 26037.0 -03461.6 -07.5729 26266.1
 06 08 2013  16 08  -21.0368 26036.9 -03461.6 -07.5729 26266.0
 06 08 2013  16 09  -21.0366 26036.8 -03461.6 -07.5731 26265.9
 06 08 2013  16 10  -21.0366 26036.7 -03461.6 -07.5731 26265.8
 06 08 2013  16 11  -21.0366 26036.5 -03461.6 -07.5732 26265.6
 06 08 2013  16 12  -21.0368 26036.2 -03461.5 -07.5731 26265.3
 06 08 2013  16 13  -21.0366 26035.9 -03461.4 -07.5730 26265.0
 06 08 2013  16 14  -21.0365 26035.4 -03461.3 -07.5728 26264.4
 06 08 2013  16 15  -21.0362 26034.9 -03461.2 -07.5727 26264.0
 06 08 2013  16 16  -21.0359 26034.5 -03461.2 -07.5728 26263.6
 06 08 2013  16 17  -21.0357 26034.0 -03461.1 -07.5729 26263.1
 06 08 2013  16 18  -21.0352 26033.6 -03461.1 -07.5730 26262.6
 06 08 2013  16 19  -21.0346 26033.1 -03461.2 -07.5732 26262.2
 06 08 2013  16 20  -21.0347 26032.8 -03461.3 -07.5736 26261.9
 06 08 2013  16 21  -21.0347 26032.7 -03461.5 -07.5740 26261.8
 06 08 2013  16 22  -21.0349 26032.6 -03461.7 -07.5745 26261.7
 06 08 2013  16 23  -21.0352 26032.3 -03461.8 -07.5748 26261.5
 06 08 2013  16 24  -21.0356 26032.1 -03461.9 -07.5751 26261.3
 06 08 2013  16 25  -21.0356 26031.8 -03462.0 -07.5754 26261.0
 06 08 2013  16 26  -21.0355 26031.4 -03462.0 -07.5756 26260.7
 06 08 2013  16 27  -21.0354 26031.1 -03462.1 -07.5758 26260.3
 06 08 2013  16 28  -21.0354 26030.8 -03462.2 -07.5761 26260.0
 06 08 2013  16 29  -21.0351 26030.4 -03462.2 -07.5763 26259.7
 06 08 2013  16 30  -21.0346 26030.1 -03462.4 -07.5767 26259.4
 06 08 2013  16 31  -21.0344 26029.8 -03462.5 -07.5771 26259.1
 06 08 2013  16 32  -21.0342 26029.7 -03462.7 -07.5776 26259.0
 06 08 2013  16 33  -21.0341 26029.6 -03463.0 -07.5781 26259.0
 06 08 2013  16 34  -21.0338 26029.5 -03463.2 -07.5785 26258.9
 06 08 2013  16 35  -21.0334 26029.4 -03463.3 -07.5789 26258.8
 06 08 2013  16 36  -21.0329 26029.1 -03463.5 -07.5794 26258.6
 06 08 2013  16 37  -21.0325 26028.9 -03463.7 -07.5798 26258.4
 06 08 2013  16 38  -21.0320 26028.8 -03463.8 -07.5802 26258.2
 06 08 2013  16 39  -21.0317 26028.6 -03464.1 -07.5808 26258.1
 06 08 2013  16 40  -21.0314 26028.4 -03464.3 -07.5813 26257.9
 06 08 2013  16 41  -21.0312 26028.2 -03464.5 -07.5818 26257.7
 06 08 2013  16 42  -21.0310 26028.1 -03464.8 -07.5824 26257.7
 06 08 2013  16 43  -21.0309 26027.9 -03464.9 -07.5827 26257.5
 06 08 2013  16 44  -21.0306 26027.7 -03465.0 -07.5830 26257.3
 06 08 2013  16 45  -21.0306 26027.5 -03465.2 -07.5835 26257.2
 06 08 2013  16 46  -21.0307 26027.5 -03465.4 -07.5840 26257.2
 06 08 2013  16 47  -21.0306 26027.3 -03465.5 -07.5843 26257.0
 06 08 2013  16 48  -21.0306 26027.2 -03465.7 -07.5848 26257.0
 06 08 2013  16 49  -21.0308 26027.0 -03465.9 -07.5851 26256.8
 06 08 2013  16 50  -21.0306 26026.8 -03466.0 -07.5854 26256.5
 06 08 2013  16 51  -21.0307 26026.5 -03466.1 -07.5857 26256.3
 06 08 2013  16 52  -21.0309 26026.2 -03466.2 -07.5861 26256.0
 06 08 2013  16 53  -21.0310 26026.1 -03466.4 -07.5865 26255.9
 06 08 2013  16 54  -21.0312 26025.8 -03466.5 -07.5868 26255.7
 06 08 2013  16 55  -21.0315 26025.6 -03466.6 -07.5871 26255.5
 06 08 2013  16 56  -21.0316 26025.4 -03466.7 -07.5874 26255.3
 06 08 2013  16 57  -21.0318 26025.2 -03466.8 -07.5877 26255.1
 06 08 2013  16 58  -21.0321 26025.0 -03466.9 -07.5880 26254.9
 06 08 2013  16 59  -21.0325 26024.9 -03467.1 -07.5884 26254.8
 06 08 2013  17 00  -21.0328 26024.7 -03467.2 -07.5886 26254.6
 06 08 2013  17 01  -21.0329 26024.4 -03467.1 -07.5886 26254.3
 06 08 2013  17 02  -21.0332 26024.1 -03467.2 -07.5889 26254.1
 06 08 2013  17 03  -21.0332 26023.8 -03467.2 -07.5890 26253.8
 06 08 2013  17 04  -21.0335 26023.5 -03467.2 -07.5891 26253.4
 06 08 2013  17 05  -21.0337 26023.2 -03467.3 -07.5892 26253.2
 06 08 2013  17 06  -21.0337 26022.9 -03467.3 -07.5893 26252.9
 06 08 2013  17 07  -21.0337 26022.7 -03467.3 -07.5893 26252.7
 06 08 2013  17 08  -21.0336 26022.5 -03467.3 -07.5895 26252.5
 06 08 2013  17 09  -21.0338 26022.5 -03467.4 -07.5896 26252.4
 06 08 2013  17 10  -21.0336 26022.2 -03467.3 -07.5896 26252.2
 06 08 2013  17 11  -21.0336 26022.1 -03467.3 -07.5896 26252.1
 06 08 2013  17 12  -21.0335 26021.9 -03467.3 -07.5896 26251.9
 06 08 2013  17 13  -21.0335 26021.7 -03467.3 -07.5897 26251.7
 06 08 2013  17 14  -21.0333 26021.4 -03467.2 -07.5896 26251.4
 06 08 2013  17 15  -21.0334 26021.4 -03467.3 -07.5898 26251.4
 06 08 2013  17 16  -21.0332 26021.1 -03467.2 -07.5897 26251.0
 06 08 2013  17 17  -21.0331 26020.8 -03467.2 -07.5898 26250.8
 06 08 2013  17 18  -21.0331 26020.6 -03467.2 -07.5899 26250.6
 06 08 2013  17 19  -21.0330 26020.4 -03467.2 -07.5899 26250.4
 06 08 2013  17 20  -21.0328 26020.2 -03467.2 -07.5900 26250.2
 06 08 2013  17 21  -21.0326 26020.0 -03467.2 -07.5901 26249.9
 06 08 2013  17 22  -21.0324 26019.7 -03467.2 -07.5902 26249.7
 06 08 2013  17 23  -21.0322 26019.5 -03467.3 -07.5903 26249.5
 06 08 2013  17 24  -21.0321 26019.4 -03467.4 -07.5905 26249.4
 06 08 2013  17 25  -21.0320 26019.2 -03467.4 -07.5907 26249.2
 06 08 2013  17 26  -21.0321 26019.0 -03467.5 -07.5909 26249.1
 06 08 2013  17 27  -21.0321 26018.8 -03467.5 -07.5910 26248.8
 06 08 2013  17 28  -21.0321 26018.5 -03467.6 -07.5913 26248.6
 06 08 2013  17 29  -21.0321 26018.3 -03467.7 -07.5915 26248.4
 06 08 2013  17 30  -21.0321 26018.0 -03467.7 -07.5918 26248.1
 06 08 2013  17 31  -21.0322 26017.7 -03467.9 -07.5921 26247.8
 06 08 2013  17 32  -21.0324 26017.5 -03468.0 -07.5925 26247.7
 06 08 2013  17 33  -21.0327 26017.3 -03468.1 -07.5928 26247.4
 06 08 2013  17 34  -21.0330 26017.2 -03468.3 -07.5932 26247.3
 06 08 2013  17 35  -21.0335 26017.1 -03468.5 -07.5936 26247.3
 06 08 2013  17 36  -21.0338 26016.9 -03468.5 -07.5938 26247.1
 06 08 2013  17 37  -21.0341 26016.7 -03468.6 -07.5940 26246.9
 06 08 2013  17 38  -21.0344 26016.6 -03468.8 -07.5944 26246.9
 06 08 2013  17 39  -21.0351 26016.5 -03468.9 -07.5947 26246.7
 06 08 2013  17 40  -21.0353 26016.4 -03469.0 -07.5949 26246.7
 06 08 2013  17 41  -21.0356 26016.3 -03469.1 -07.5952 26246.6
 06 08 2013  17 42  -21.0360 26016.2 -03469.2 -07.5955 26246.5
 06 08 2013  17 43  -21.0365 26016.1 -03469.4 -07.5958 26246.4
 06 08 2013  17 44  -21.0368 26016.0 -03469.5 -07.5961 26246.3
 06 08 2013  17 45  -21.0372 26015.9 -03469.5 -07.5963 26246.2
 06 08 2013  17 46  -21.0375 26015.9 -03469.7 -07.5966 26246.2
 06 08 2013  17 47  -21.0380 26015.8 -03469.8 -07.5968 26246.2
 06 08 2013  17 48  -21.0383 26015.7 -03469.8 -07.5970 26246.1
 06 08 2013  17 49  -21.0387 26015.5 -03469.9 -07.5971 26245.9
 06 08 2013  17 50  -21.0388 26015.2 -03469.9 -07.5972 26245.6
 06 08 2013  17 51  -21.0389 26015.0 -03470.0 -07.5975 26245.4
 06 08 2013  17 52  -21.0391 26014.8 -03470.1 -07.5977 26245.2
 06 08 2013  17 53  -21.0394 26014.7 -03470.2 -07.5980 26245.2
 06 08 2013  17 54  -21.0395 26014.6 -03470.3 -07.5982 26245.0
 06 08 2013  17 55  -21.0398 26014.5 -03470.3 -07.5984 26245.0
 06 08 2013  17 56  -21.0400 26014.4 -03470.4 -07.5986 26244.9
 06 08 2013  17 57  -21.0400 26014.4 -03470.5 -07.5988 26244.8
 06 08 2013  17 58  -21.0402 26014.3 -03470.6 -07.5990 26244.8
 06 08 2013  17 59  -21.0404 26014.2 -03470.6 -07.5991 26244.6
 06 08 2013  18 00  -21.0405 26014.0 -03470.7 -07.5992 26244.5
 06 08 2013  18 01  -21.0405 26013.8 -03470.7 -07.5994 26244.3
 06 08 2013  18 02  -21.0406 26013.7 -03470.8 -07.5995 26244.2
 06 08 2013  18 03  -21.0405 26013.5 -03470.8 -07.5997 26244.0
 06 08 2013  18 04  -21.0404 26013.4 -03470.9 -07.5998 26244.0
 06 08 2013  18 05  -21.0404 26013.4 -03471.0 -07.6000 26243.9
 06 08 2013  18 06  -21.0403 26013.3 -03471.0 -07.6002 26243.9
 06 08 2013  18 07  -21.0401 26013.1 -03471.1 -07.6003 26243.7
 06 08 2013  18 08  -21.0398 26013.1 -03471.1 -07.6005 26243.6
 06 08 2013  18 09  -21.0397 26012.9 -03471.2 -07.6006 26243.5
 06 08 2013  18 10  -21.0395 26012.9 -03471.2 -07.6008 26243.4
 06 08 2013  18 11  -21.0392 26012.7 -03471.3 -07.6010 26243.3
 06 08 2013  18 12  -21.0390 26012.6 -03471.4 -07.6012 26243.2
 06 08 2013  18 13  -21.0388 26012.5 -03471.5 -07.6014 26243.1
 06 08 2013  18 14  -21.0386 26012.4 -03471.5 -07.6016 26243.1
 06 08 2013  18 15  -21.0383 26012.4 -03471.6 -07.6018 26243.0
 06 08 2013  18 16  -21.0380 26012.3 -03471.7 -07.6020 26243.0
 06 08 2013  18 17  -21.0377 26012.2 -03471.8 -07.6022 26242.8
 06 08 2013  18 18  -21.0374 26012.0 -03471.9 -07.6024 26242.7
 06 08 2013  18 19  -21.0372 26012.0 -03472.0 -07.6026 26242.7
 06 08 2013  18 20  -21.0369 26011.9 -03472.0 -07.6028 26242.6
 06 08 2013  18 21  -21.0367 26011.9 -03472.1 -07.6030 26242.6
 06 08 2013  18 22  -21.0363 26011.7 -03472.2 -07.6033 26242.5
 06 08 2013  18 23  -21.0359 26011.6 -03472.3 -07.6035 26242.4
 06 08 2013  18 24  -21.0356 26011.6 -03472.5 -07.6038 26242.4
 06 08 2013  18 25  -21.0352 26011.5 -03472.5 -07.6040 26242.3
 06 08 2013  18 26  -21.0347 26011.5 -03472.6 -07.6042 26242.3
 06 08 2013  18 27  -21.0343 26011.5 -03472.8 -07.6046 26242.3
 06 08 2013  18 28  -21.0340 26011.5 -03472.9 -07.6048 26242.3
 06 08 2013  18 29  -21.0336 26011.4 -03473.0 -07.6050 26242.2
 06 08 2013  18 30  -21.0333 26011.4 -03473.1 -07.6052 26242.2
 06 08 2013  18 31  -21.0329 26011.3 -03473.2 -07.6054 26242.1
 06 08 2013  18 32  -21.0325 26011.1 -03473.2 -07.6055 26241.9
 06 08 2013  18 33  -21.0322 26010.9 -03473.2 -07.6057 26241.8
 06 08 2013  18 34  -21.0318 26010.8 -03473.3 -07.6059 26241.7
 06 08 2013  18 35  -21.0316 26010.6 -03473.3 -07.6060 26241.5
 06 08 2013  18 36  -21.0312 26010.5 -03473.3 -07.6061 26241.3
 06 08 2013  18 37  -21.0309 26010.4 -03473.4 -07.6063 26241.3
 06 08 2013  18 38  -21.0307 26010.3 -03473.5 -07.6064 26241.2
 06 08 2013  18 39  -21.0304 26010.2 -03473.5 -07.6065 26241.1
 06 08 2013  18 40  -21.0299 26010.0 -03473.5 -07.6066 26240.9
 06 08 2013  18 41  -21.0297 26010.0 -03473.6 -07.6068 26240.9
 06 08 2013  18 42  -21.0295 26009.9 -03473.6 -07.6069 26240.8
 06 08 2013  18 43  -21.0292 26009.6 -03473.6 -07.6069 26240.5
 06 08 2013  18 44  -21.0286 26009.4 -03473.6 -07.6069 26240.4
 06 08 2013  18 45  -21.0281 26009.2 -03473.7 -07.6071 26240.2
 06 08 2013  18 46  -21.0276 26009.2 -03473.8 -07.6073 26240.1
 06 08 2013  18 47  -21.0272 26009.1 -03473.9 -07.6076 26240.1
 06 08 2013  18 48  -21.0269 26009.1 -03474.0 -07.6079 26240.1
 06 08 2013  18 49  -21.0268 26009.4 -03474.2 -07.6082 26240.4
 06 08 2013  18 50  -21.0266 26009.7 -03474.4 -07.6085 26240.8
 06 08 2013  18 51  -21.0263 26009.9 -03474.5 -07.6087 26241.0
 06 08 2013  18 52  -21.0261 26010.1 -03474.6 -07.6089 26241.2
 06 08 2013  18 53  -21.0258 26010.4 -03474.7 -07.6090 26241.4
 06 08 2013  18 54  -21.0255 26010.7 -03474.8 -07.6091 26241.8
 06 08 2013  18 55  -21.0253 26010.9 -03474.9 -07.6092 26242.0
 06 08 2013  18 56  -21.0248 26011.1 -03474.8 -07.6091 26242.1
 06 08 2013  18 57  -21.0245 26011.2 -03474.9 -07.6091 26242.2
 06 08 2013  18 58  -21.0243 26011.2 -03474.9 -07.6091 26242.3
 06 08 2013  18 59  -21.0241 26011.3 -03474.8 -07.6090 26242.4
 06 08 2013  19 00  -21.0240 26011.4 -03474.8 -07.6090 26242.5
 06 08 2013  19 01  -21.0237 26011.3 -03474.7 -07.6088 26242.3
 06 08 2013  19 02  -21.0234 26011.2 -03474.7 -07.6088 26242.2
 06 08 2013  19 03  -21.0232 26011.0 -03474.6 -07.6087 26242.0
 06 08 2013  19 04  -21.0232 26010.8 -03474.6 -07.6087 26241.9
 06 08 2013  19 05  -21.0230 26010.6 -03474.5 -07.6086 26241.6
 06 08 2013  19 06  -21.0230 26010.4 -03474.5 -07.6087 26241.4
 06 08 2013  19 07  -21.0230 26010.2 -03474.6 -07.6088 26241.2
 06 08 2013  19 08  -21.0232 26010.1 -03474.7 -07.6090 26241.2
 06 08 2013  19 09  -21.0232 26010.1 -03474.7 -07.6091 26241.1
 06 08 2013  19 10  -21.0233 26010.1 -03474.8 -07.6093 26241.1
 06 08 2013  19 11  -21.0232 26010.0 -03474.9 -07.6095 26241.1
 06 08 2013  19 12  -21.0234 26010.2 -03475.0 -07.6098 26241.3
 06 08 2013  19 13  -21.0236 26010.3 -03475.1 -07.6100 26241.4
 06 08 2013  19 14  -21.0237 26010.4 -03475.3 -07.6103 26241.6
 06 08 2013  19 15  -21.0237 26010.5 -03475.4 -07.6105 26241.7
 06 08 2013  19 16  -21.0237 26010.6 -03475.5 -07.6107 26241.7
 06 08 2013  19 17  -21.0237 26010.6 -03475.6 -07.6109 26241.8
 06 08 2013  19 18  -21.0238 26010.7 -03475.7 -07.6110 26241.9
 06 08 2013  19 19  -21.0239 26010.7 -03475.8 -07.6112 26241.9
 06 08 2013  19 20  -21.0239 26010.8 -03475.8 -07.6114 26242.0
 06 08 2013  19 21  -21.0240 26010.7 -03475.9 -07.6116 26242.0
 06 08 2013  19 22  -21.0241 26010.7 -03476.0 -07.6117 26242.0
 06 08 2013  19 23  -21.0242 26010.7 -03476.1 -07.6119 26241.9
 06 08 2013  19 24  -21.0243 26010.7 -03476.1 -07.6120 26241.9
 06 08 2013  19 25  -21.0243 26010.6 -03476.1 -07.6121 26241.9
 06 08 2013  19 26  -21.0243 26010.5 -03476.2 -07.6122 26241.8
 06 08 2013  19 27  -21.0244 26010.5 -03476.2 -07.6123 26241.8
 06 08 2013  19 28  -21.0246 26010.5 -03476.3 -07.6125 26241.8
 06 08 2013  19 29  -21.0247 26010.5 -03476.4 -07.6126 26241.7
 06 08 2013  19 30  -21.0250 26010.4 -03476.4 -07.6127 26241.7
 06 08 2013  19 31  -21.0254 26010.3 -03476.5 -07.6128 26241.6
 06 08 2013  19 32  -21.0259 26010.3 -03476.4 -07.6128 26241.6
 06 08 2013  19 33  -21.0263 26010.3 -03476.5 -07.6129 26241.6
 06 08 2013  19 34  -21.0266 26010.2 -03476.4 -07.6128 26241.5
 06 08 2013  19 35  -21.0269 26010.1 -03476.4 -07.6128 26241.4
 06 08 2013  19 36  -21.0269 26009.9 -03476.3 -07.6127 26241.1
 06 08 2013  19 37  -21.0271 26009.8 -03476.3 -07.6126 26241.1
 06 08 2013  19 38  -21.0272 26009.7 -03476.2 -07.6126 26241.0
 06 08 2013  19 39  -21.0274 26009.7 -03476.3 -07.6127 26241.0
 06 08 2013  19 40  -21.0276 26009.7 -03476.3 -07.6128 26241.0
 06 08 2013  19 41  -21.0280 26009.8 -03476.4 -07.6129 26241.1
 06 08 2013  19 42  -21.0284 26009.9 -03476.4 -07.6128 26241.2
 06 08 2013  19 43  -21.0287 26010.0 -03476.4 -07.6127 26241.3
 06 08 2013  19 44  -21.0289 26010.1 -03476.3 -07.6126 26241.4
 06 08 2013  19 45  -21.0293 26010.3 -03476.3 -07.6126 26241.5
 06 08 2013  19 46  -21.0294 26010.3 -03476.3 -07.6124 26241.6
 06 08 2013  19 47  -21.0296 26010.4 -03476.2 -07.6123 26241.7
 06 08 2013  19 48  -21.0296 26010.4 -03476.1 -07.6120 26241.7
 06 08 2013  19 49  -21.0296 26010.5 -03476.0 -07.6118 26241.7
 06 08 2013  19 50  -21.0296 26010.7 -03476.0 -07.6117 26241.9
 06 08 2013  19 51  -21.0299 26010.8 -03475.9 -07.6114 26242.1
 06 08 2013  19 52  -21.0301 26011.0 -03475.8 -07.6112 26242.2
 06 08 2013  19 53  -21.0304 26011.1 -03475.6 -07.6108 26242.3
 06 08 2013  19 54  -21.0309 26011.3 -03475.5 -07.6106 26242.5
 06 08 2013  19 55  -21.0311 26011.4 -03475.3 -07.6101 26242.5
 06 08 2013  19 56  -21.0312 26011.2 -03475.0 -07.6094 26242.3
 06 08 2013  19 57  -21.0311 26011.2 -03474.7 -07.6089 26242.2
 06 08 2013  19 58  -21.0308 26010.8 -03474.4 -07.6083 26241.8
 06 08 2013  19 59  -21.0306 26010.6 -03474.2 -07.6079 26241.6
 06 08 2013  20 00  -21.0305 26010.6 -03474.2 -07.6079 26241.6
 06 08 2013  20 01  -21.0307 26010.8 -03474.3 -07.6079 26241.8
 06 08 2013  20 02  -21.0310 26011.1 -03474.3 -07.6080 26242.1
 06 08 2013  20 03  -21.0314 26011.4 -03474.4 -07.6080 26242.4
 06 08 2013  20 04  -21.0317 26011.5 -03474.3 -07.6079 26242.5
 06 08 2013  20 05  -21.0320 26011.6 -03474.2 -07.6076 26242.6
 06 08 2013  20 06  -21.0320 26011.6 -03474.1 -07.6073 26242.6
 06 08 2013  20 07  -21.0323 26011.6 -03474.0 -07.6071 26242.6
 06 08 2013  20 08  -21.0325 26011.5 -03473.8 -07.6068 26242.5
 06 08 2013  20 09  -21.0325 26011.5 -03473.7 -07.6066 26242.4
 06 08 2013  20 10  -21.0326 26011.5 -03473.7 -07.6064 26242.4
 06 08 2013  20 11  -21.0327 26011.6 -03473.6 -07.6063 26242.5
 06 08 2013  20 12  -21.0328 26011.7 -03473.6 -07.6062 26242.6
 06 08 2013  20 13  -21.0329 26011.8 -03473.6 -07.6061 26242.7
 06 08 2013  20 14  -21.0328 26011.8 -03473.5 -07.6059 26242.7
 06 08 2013  20 15  -21.0329 26011.8 -03473.4 -07.6059 26242.7
 06 08 2013  20 16  -21.0330 26011.6 -03473.3 -07.6056 26242.5
 06 08 2013  20 17  -21.0330 26011.6 -03473.2 -07.6055 26242.4
 06 08 2013  20 18  -21.0329 26011.5 -03473.1 -07.6053 26242.3
 06 08 2013  20 19  -21.0329 26011.4 -03473.1 -07.6052 26242.2
 06 08 2013  20 20  -21.0328 26011.3 -03473.0 -07.6051 26242.1
 06 08 2013  20 21  -21.0328 26011.2 -03473.0 -07.6050 26242.1
 06 08 2013  20 22  -21.0329 26011.2 -03472.9 -07.6049 26242.1
 06 08 2013  20 23  -21.0328 26011.2 -03472.9 -07.6048 26242.0
 06 08 2013  20 24  -21.0327 26011.2 -03472.9 -07.6048 26242.1
 06 08 2013  20 25  -21.0325 26011.3 -03472.9 -07.6048 26242.1
 06 08 2013  20 26  -21.0325 26011.5 -03472.9 -07.6049 26242.3
 06 08 2013  20 27  -21.0325 26011.7 -03473.0 -07.6049 26242.5
 06 08 2013  20 28  -21.0325 26011.8 -03473.0 -07.6048 26242.6
 06 08 2013  20 29  -21.0325 26011.9 -03472.9 -07.6046 26242.7
 06 08 2013  20 30  -21.0325 26011.9 -03472.7 -07.6044 26242.7
 06 08 2013  20 31  -21.0327 26011.9 -03472.7 -07.6041 26242.7
 06 08 2013  20 32  -21.0327 26011.9 -03472.5 -07.6038 26242.7
 06 08 2013  20 33  -21.0327 26011.9 -03472.4 -07.6036 26242.6
 06 08 2013  20 34  -21.0326 26011.8 -03472.3 -07.6033 26242.5
 06 08 2013  20 35  -21.0326 26011.9 -03472.3 -07.6033 26242.7
 06 08 2013  20 36  -21.0327 26012.1 -03472.2 -07.6032 26242.8
 06 08 2013  20 37  -21.0326 26012.3 -03472.2 -07.6031 26243.0
 06 08 2013  20 38  -21.0327 26012.4 -03472.2 -07.6029 26243.1
 06 08 2013  20 39  -21.0327 26012.6 -03472.1 -07.6028 26243.3
 06 08 2013  20 40  -21.0326 26012.7 -03472.1 -07.6027 26243.4
 06 08 2013  20 41  -21.0325 26012.7 -03472.0 -07.6025 26243.4
 06 08 2013  20 42  -21.0326 26012.8 -03472.0 -07.6025 26243.5
 06 08 2013  20 43  -21.0328 26013.1 -03472.0 -07.6025 26243.8
 06 08 2013  20 44  -21.0333 26013.3 -03472.1 -07.6025 26244.0
 06 08 2013  20 45  -21.0335 26013.4 -03471.9 -07.6022 26244.1
 06 08 2013  20 46  -21.0338 26013.5 -03471.9 -07.6020 26244.2
 06 08 2013  20 47  -21.0339 26013.9 -03471.9 -07.6020 26244.6
 06 08 2013  20 48  -21.0343 26013.6 -03471.7 -07.6016 26244.3
 06 08 2013  20 49  -21.0344 26014.2 -03471.7 -07.6015 26244.8
 06 08 2013  20 50  -21.0345 26013.7 -03471.4 -07.6009 26244.3
 06 08 2013  20 51  -21.0344 26014.0 -03471.4 -07.6008 26244.6
 06 08 2013  20 52  -21.0345 26013.7 -03471.2 -07.6004 26244.2
 06 08 2013  20 53  -21.0345 26013.7 -03471.1 -07.6003 26244.2
 06 08 2013  20 54  -21.0350 26013.6 -03471.1 -07.6003 26244.1
 06 08 2013  20 55  -21.0353 26013.2 -03471.0 -07.6001 26243.7
 06 08 2013  20 56  -21.0355 26013.2 -03471.0 -07.6001 26243.8
 06 08 2013  20 57  -21.0358 26013.0 -03470.9 -07.6000 26243.5
 06 08 2013  20 58  -21.0360 26013.1 -03470.9 -07.6000 26243.6
 06 08 2013  20 59  -21.0363 26013.1 -03470.9 -07.6000 26243.7
 06 08 2013  21 00  -21.0366 26013.3 -03471.0 -07.6001 26243.8
 06 08 2013  21 01  -21.0369 26013.4 -03471.0 -07.6001 26243.9
 06 08 2013  21 02  -21.0374 26013.1 -03470.9 -07.5999 26243.6
 06 08 2013  21 03  -21.0376 26013.0 -03470.8 -07.5997 26243.6
 06 08 2013  21 04  -21.0383 26012.7 -03470.6 -07.5995 26243.2
 06 08 2013  21 05  -21.0385 26013.1 -03470.7 -07.5996 26243.6
 06 08 2013  21 06  -21.0390 26013.0 -03470.7 -07.5995 26243.5
 06 08 2013  21 07  -21.0394 26013.0 -03470.6 -07.5994 26243.5
 06 08 2013  21 08  -21.0397 26013.0 -03470.6 -07.5994 26243.5
 06 08 2013  21 09  -21.0398 26013.1 -03470.6 -07.5993 26243.6
 06 08 2013  21 10  -21.0400 26013.2 -03470.5 -07.5992 26243.7
 06 08 2013  21 11  -21.0399 26013.5 -03470.6 -07.5993 26244.0
 06 08 2013  21 12  -21.0400 26013.8 -03470.7 -07.5994 26244.3
 06 08 2013  21 13  -21.0401 26014.0 -03470.7 -07.5993 26244.5
 06 08 2013  21 14  -21.0401 26014.1 -03470.6 -07.5992 26244.6
 06 08 2013  21 15  -21.0401 26014.0 -03470.5 -07.5988 26244.5
 06 08 2013  21 16  -21.0401 26013.8 -03470.3 -07.5986 26244.2
 06 08 2013  21 17  -21.0401 26013.7 -03470.3 -07.5985 26244.2
 06 08 2013  21 18  -21.0397 26013.8 -03470.2 -07.5983 26244.3
 06 08 2013  21 19  -21.0396 26013.6 -03470.0 -07.5980 26244.0
 06 08 2013  21 20  -21.0394 26013.5 -03469.9 -07.5978 26243.9
 06 08 2013  21 21  -21.0393 26013.6 -03469.9 -07.5977 26244.0
 06 08 2013  21 22  -21.0392 26013.5 -03469.8 -07.5975 26243.9
 06 08 2013  21 23  -21.0390 26013.4 -03469.7 -07.5973 26243.8
 06 08 2013  21 24  -21.0388 26013.5 -03469.7 -07.5974 26243.8
 06 08 2013  21 25  -21.0385 26013.4 -03469.7 -07.5973 26243.8
 06 08 2013  21 26  -21.0384 26013.2 -03469.6 -07.5971 26243.6
 06 08 2013  21 27  -21.0382 26012.9 -03469.4 -07.5968 26243.3
 06 08 2013  21 28  -21.0383 26012.8 -03469.3 -07.5967 26243.2
 06 08 2013  21 29  -21.0382 26012.8 -03469.4 -07.5968 26243.2
 06 08 2013  21 30  -21.0381 26012.7 -03469.3 -07.5966 26243.0
 06 08 2013  21 31  -21.0380 26012.5 -03469.2 -07.5965 26242.9
 06 08 2013  21 32  -21.0381 26012.4 -03469.2 -07.5965 26242.7
 06 08 2013  21 33  -21.0381 26012.4 -03469.2 -07.5965 26242.7
 06 08 2013  21 34  -21.0382 26012.4 -03469.2 -07.5966 26242.7
 06 08 2013  21 35  -21.0383 26012.3 -03469.2 -07.5965 26242.7
 06 08 2013  21 36  -21.0381 26012.4 -03469.2 -07.5966 26242.7
 06 08 2013  21 37  -21.0380 26012.4 -03469.2 -07.5966 26242.7
 06 08 2013  21 38  -21.0379 26012.4 -03469.2 -07.5965 26242.7
 06 08 2013  21 39  -21.0379 26012.3 -03469.2 -07.5965 26242.6
 06 08 2013  21 40  -21.0379 26012.1 -03469.1 -07.5963 26242.4
 06 08 2013  21 41  -21.0379 26012.1 -03469.0 -07.5963 26242.4
 06 08 2013  21 42  -21.0378 26012.1 -03469.0 -07.5963 26242.4
 06 08 2013  21 43  -21.0375 26012.2 -03469.0 -07.5962 26242.5
 06 08 2013  21 44  -21.0373 26012.2 -03469.0 -07.5962 26242.5
 06 08 2013  21 45  -21.0373 26012.2 -03469.1 -07.5963 26242.5
 06 08 2013  21 46  -21.0373 26012.2 -03469.0 -07.5962 26242.5
 06 08 2013  21 47  -21.0373 26012.2 -03469.0 -07.5962 26242.5
 06 08 2013  21 48  -21.0371 26012.2 -03469.0 -07.5962 26242.5
 06 08 2013  21 49  -21.0370 26012.2 -03469.0 -07.5961 26242.5
 06 08 2013  21 50  -21.0370 26012.2 -03469.0 -07.5961 26242.4
 06 08 2013  21 51  -21.0371 26012.0 -03468.9 -07.5960 26242.3
 06 08 2013  21 52  -21.0373 26011.9 -03468.9 -07.5959 26242.2
 06 08 2013  21 53  -21.0372 26011.8 -03468.8 -07.5957 26242.1
 06 08 2013  21 54  -21.0371 26011.8 -03468.7 -07.5957 26242.0
 06 08 2013  21 55  -21.0371 26011.7 -03468.7 -07.5956 26241.9
 06 08 2013  21 56  -21.0370 26011.7 -03468.7 -07.5956 26242.0
 06 08 2013  21 57  -21.0370 26011.7 -03468.7 -07.5956 26242.0
 06 08 2013  21 58  -21.0370 26011.7 -03468.7 -07.5956 26241.9
 06 08 2013  21 59  -21.0370 26011.7 -03468.7 -07.5956 26242.0
 06 08 2013  22 00  -21.0372 26011.7 -03468.7 -07.5957 26242.0
 06 08 2013  22 01  -21.0373 26011.7 -03468.8 -07.5958 26242.0
 06 08 2013  22 02  -21.0374 26011.7 -03468.8 -07.5958 26241.9
 06 08 2013  22 03  -21.0376 26011.7 -03468.8 -07.5958 26242.0
 06 08 2013  22 04  -21.0377 26011.7 -03468.8 -07.5958 26242.0
 06 08 2013  22 05  -21.0379 26011.7 -03468.8 -07.5958 26242.0
 06 08 2013  22 06  -21.0380 26011.7 -03468.8 -07.5958 26241.9
 06 08 2013  22 07  -21.0382 26011.7 -03468.8 -07.5958 26241.9
 06 08 2013  22 08  -21.0383 26011.8 -03468.8 -07.5959 26242.1
 06 08 2013  22 09  -21.0385 26011.8 -03468.8 -07.5959 26242.1
 06 08 2013  22 10  -21.0387 26011.8 -03468.8 -07.5959 26242.1
 06 08 2013  22 11  -21.0389 26011.9 -03468.9 -07.5959 26242.2
 06 08 2013  22 12  -21.0390 26011.9 -03468.9 -07.5960 26242.2
 06 08 2013  22 13  -21.0392 26012.0 -03468.9 -07.5960 26242.3
 06 08 2013  22 14  -21.0395 26012.1 -03468.9 -07.5960 26242.4
 06 08 2013  22 15  -21.0397 26012.4 -03469.0 -07.5962 26242.6
 06 08 2013  22 16  -21.0399 26012.5 -03469.0 -07.5962 26242.8
 06 08 2013  22 17  -21.0400 26012.6 -03469.1 -07.5962 26242.9
 06 08 2013  22 18  -21.0401 26012.7 -03469.1 -07.5962 26243.0
 06 08 2013  22 19  -21.0401 26012.9 -03469.1 -07.5962 26243.2
 06 08 2013  22 20  -21.0401 26013.0 -03469.1 -07.5962 26243.3
 06 08 2013  22 21  -21.0402 26013.1 -03469.2 -07.5962 26243.4
 06 08 2013  22 22  -21.0403 26013.2 -03469.2 -07.5962 26243.5
 06 08 2013  22 23  -21.0405 26013.3 -03469.2 -07.5962 26243.6
 06 08 2013  22 24  -21.0407 26013.5 -03469.2 -07.5963 26243.8
 06 08 2013  22 25  -21.0410 26013.7 -03469.3 -07.5964 26244.0
 06 08 2013  22 26  -21.0412 26013.8 -03469.3 -07.5964 26244.1
 06 08 2013  22 27  -21.0414 26013.9 -03469.3 -07.5963 26244.2
 06 08 2013  22 28  -21.0415 26014.0 -03469.3 -07.5963 26244.3
 06 08 2013  22 29  -21.0415 26014.1 -03469.3 -07.5963 26244.4
 06 08 2013  22 30  -21.0414 26014.3 -03469.3 -07.5962 26244.6
 06 08 2013  22 31  -21.0413 26014.2 -03469.2 -07.5961 26244.6
 06 08 2013  22 32  -21.0413 26014.3 -03469.2 -07.5960 26244.6
 06 08 2013  22 33  -21.0412 26014.4 -03469.2 -07.5960 26244.7
 06 08 2013  22 34  -21.0412 26014.5 -03469.3 -07.5961 26244.8
 06 08 2013  22 35  -21.0412 26014.6 -03469.3 -07.5962 26244.9
 06 08 2013  22 36  -21.0413 26014.7 -03469.3 -07.5962 26245.0
 06 08 2013  22 37  -21.0413 26014.7 -03469.3 -07.5961 26245.0
 06 08 2013  22 38  -21.0411 26014.7 -03469.3 -07.5960 26245.0
 06 08 2013  22 39  -21.0410 26014.8 -03469.2 -07.5959 26245.1
 06 08 2013  22 40  -21.0408 26014.7 -03469.2 -07.5958 26245.0
 06 08 2013  22 41  -21.0406 26014.6 -03469.1 -07.5956 26244.9
 06 08 2013  22 42  -21.0403 26014.6 -03469.0 -07.5954 26244.8
 06 08 2013  22 43  -21.0401 26014.5 -03468.9 -07.5953 26244.7
 06 08 2013  22 44  -21.0401 26014.4 -03468.9 -07.5952 26244.6
 06 08 2013  22 45  -21.0401 26014.3 -03468.9 -07.5953 26244.6
 06 08 2013  22 46  -21.0400 26014.3 -03468.9 -07.5952 26244.6
 06 08 2013  22 47  -21.0399 26014.3 -03468.9 -07.5952 26244.6
 06 08 2013  22 48  -21.0400 26014.3 -03468.9 -07.5952 26244.6
 06 08 2013  22 49  -21.0398 26014.3 -03468.8 -07.5951 26244.6
 06 08 2013  22 50  -21.0396 26014.4 -03468.8 -07.5952 26244.6
 06 08 2013  22 51  -21.0393 26014.4 -03468.9 -07.5952 26244.7
 06 08 2013  22 52  -21.0392 26014.4 -03468.8 -07.5952 26244.6
 06 08 2013  22 53  -21.0392 26014.5 -03468.9 -07.5953 26244.8
 06 08 2013  22 54  -21.0394 26014.7 -03469.0 -07.5955 26245.0
 06 08 2013  22 55  -21.0395 26014.9 -03469.1 -07.5956 26245.1
 06 08 2013  22 56  -21.0396 26015.0 -03469.1 -07.5957 26245.3
 06 08 2013  22 57  -21.0395 26015.1 -03469.2 -07.5957 26245.4
 06 08 2013  22 58  -21.0392 26015.3 -03469.2 -07.5957 26245.6
 06 08 2013  22 59  -21.0390 26015.5 -03469.3 -07.5959 26245.8
 06 08 2013  23 00  -21.0388 26015.8 -03469.4 -07.5960 26246.1
 06 08 2013  23 01  -21.0387 26016.1 -03469.6 -07.5962 26246.4
 06 08 2013  23 02  -21.0386 26016.4 -03469.7 -07.5964 26246.8
 06 08 2013  23 03  -21.0385 26016.6 -03469.8 -07.5966 26246.9
 06 08 2013  23 04  -21.0386 26016.7 -03469.8 -07.5966 26247.0
 06 08 2013  23 05  -21.0388 26016.8 -03469.8 -07.5966 26247.2
 06 08 2013  23 06  -21.0389 26016.9 -03469.8 -07.5966 26247.3
 06 08 2013  23 07  -21.0390 26016.9 -03469.8 -07.5966 26247.3
 06 08 2013  23 08  -21.0394 26016.8 -03469.8 -07.5965 26247.2
 06 08 2013  23 09  -21.0398 26016.8 -03469.7 -07.5964 26247.1
 06 08 2013  23 10  -21.0401 26016.8 -03469.7 -07.5963 26247.1
 06 08 2013  23 11  -21.0402 26016.7 -03469.6 -07.5961 26247.1
 06 08 2013  23 12  -21.0401 26016.6 -03469.5 -07.5959 26246.9
 06 08 2013  23 13  -21.0399 26016.5 -03469.4 -07.5957 26246.8
 06 08 2013  23 14  -21.0394 26016.4 -03469.3 -07.5956 26246.7
 06 08 2013  23 15  -21.0389 26016.4 -03469.2 -07.5954 26246.6
 06 08 2013  23 16  -21.0386 26016.3 -03469.2 -07.5953 26246.6
 06 08 2013  23 17  -21.0385 26016.3 -03469.2 -07.5954 26246.6
 06 08 2013  23 18  -21.0383 26016.3 -03469.2 -07.5954 26246.6
 06 08 2013  23 19  -21.0384 26016.4 -03469.3 -07.5956 26246.7
 06 08 2013  23 20  -21.0384 26016.4 -03469.3 -07.5956 26246.7
 06 08 2013  23 21  -21.0385 26016.4 -03469.3 -07.5957 26246.7
 06 08 2013  23 22  -21.0385 26016.4 -03469.3 -07.5956 26246.7
 06 08 2013  23 23  -21.0383 26016.3 -03469.3 -07.5955 26246.6
 06 08 2013  23 24  -21.0383 26016.2 -03469.2 -07.5955 26246.4
 06 08 2013  23 25  -21.0384 26016.1 -03469.1 -07.5953 26246.4
 06 08 2013  23 26  -21.0384 26016.0 -03469.1 -07.5954 26246.3
 06 08 2013  23 27  -21.0382 26016.0 -03469.1 -07.5953 26246.3
 06 08 2013  23 28  -21.0381 26016.0 -03469.1 -07.5953 26246.2
 06 08 2013  23 29  -21.0380 26015.9 -03469.1 -07.5952 26246.1
 06 08 2013  23 30  -21.0379 26015.9 -03469.1 -07.5953 26246.1
 06 08 2013  23 31  -21.0379 26015.8 -03469.1 -07.5952 26246.1
 06 08 2013  23 32  -21.0378 26015.7 -03469.1 -07.5953 26246.0
 06 08 2013  23 33  -21.0377 26015.7 -03469.1 -07.5953 26246.0
 06 08 2013  23 34  -21.0377 26015.7 -03469.1 -07.5953 26246.0
 06 08 2013  23 35  -21.0378 26015.7 -03469.1 -07.5954 26246.0
 06 08 2013  23 36  -21.0382 26015.7 -03469.1 -07.5954 26246.0
 06 08 2013  23 37  -21.0385 26015.9 -03469.2 -07.5956 26246.2
 06 08 2013  23 38  -21.0388 26015.9 -03469.3 -07.5956 26246.2
 06 08 2013  23 39  -21.0391 26015.9 -03469.2 -07.5956 26246.2
 06 08 2013  23 40  -21.0394 26015.7 -03469.1 -07.5955 26246.0
 06 08 2013  23 41  -21.0396 26015.5 -03469.0 -07.5953 26245.8
 06 08 2013  23 42  -21.0396 26015.5 -03469.0 -07.5952 26245.7
 06 08 2013  23 43  -21.0394 26015.5 -03469.0 -07.5951 26245.7
 06 08 2013  23 44  -21.0394 26015.5 -03469.0 -07.5952 26245.8
 06 08 2013  23 45  -21.0391 26015.3 -03468.9 -07.5950 26245.5
 06 08 2013  23 46  -21.0390 26015.2 -03468.8 -07.5949 26245.4
 06 08 2013  23 47  -21.0386 26015.3 -03468.9 -07.5950 26245.6
 06 08 2013  23 48  -21.0384 26015.5 -03469.0 -07.5952 26245.8
 06 08 2013  23 49  -21.0381 26015.6 -03469.0 -07.5953 26245.8
 06 08 2013  23 50  -21.0378 26015.6 -03469.1 -07.5953 26245.9
 06 08 2013  23 51  -21.0376 26015.5 -03469.1 -07.5953 26245.8
 06 08 2013  23 52  -21.0375 26015.2 -03469.0 -07.5952 26245.5
 06 08 2013  23 53  -21.0373 26015.1 -03468.9 -07.5951 26245.4
 06 08 2013  23 54  -21.0369 26015.0 -03468.8 -07.5950 26245.2
 06 08 2013  23 55  -21.0364 26015.0 -03468.8 -07.5950 26245.2
 06 08 2013  23 56  -21.0359 26015.1 -03468.9 -07.5951 26245.3
 06 08 2013  23 57  -21.0354 26015.4 -03469.1 -07.5955 26245.7
 06 08 2013  23 58  -21.0352 26015.0 -03469.0 -07.5954 26245.2
