SAO LUIS EMBRACE-03 <252> 1 Min. Reported data

 DD MM YYYY  HH MM   D(Deg)  H(nT)   Z(nT)   I(Deg)   F(nT)

 09 09 2013  00 00  -21.0123 26030.2 -03484.1 -07.6237 26262.3
 09 09 2013  00 01  -21.0123 26030.2 -03484.2 -07.6238 26262.3
 09 09 2013  00 02  -21.0123 26030.2 -03484.2 -07.6238 26262.3
 09 09 2013  00 03  -21.0123 26030.2 -03484.2 -07.6238 26262.4
 09 09 2013  00 04  -21.0124 26030.3 -03484.2 -07.6238 26262.4
 09 09 2013  00 05  -21.0124 26030.3 -03484.2 -07.6239 26262.4
 09 09 2013  00 06  -21.0124 26030.3 -03484.3 -07.6239 26262.5
 09 09 2013  00 07  -21.0123 26030.4 -03484.3 -07.6239 26262.5
 09 09 2013  00 08  -21.0123 26030.4 -03484.3 -07.6239 26262.6
 09 09 2013  00 09  -21.0123 26030.5 -03484.3 -07.6240 26262.6
 09 09 2013  00 10  -21.0123 26030.5 -03484.3 -07.6240 26262.7
 09 09 2013  00 11  -21.0122 26030.5 -03484.3 -07.6240 26262.7
 09 09 2013  00 12  -21.0120 26030.5 -03484.3 -07.6239 26262.7
 09 09 2013  00 13  -21.0120 26030.5 -03484.3 -07.6239 26262.7
 09 09 2013  00 14  -21.0120 26030.5 -03484.3 -07.6239 26262.7
 09 09 2013  00 15  -21.0119 26030.5 -03484.2 -07.6239 26262.6
 09 09 2013  00 16  -21.0119 26030.5 -03484.3 -07.6239 26262.6
 09 09 2013  00 17  -21.0119 26030.5 -03484.2 -07.6238 26262.6
 09 09 2013  00 18  -21.0118 26030.4 -03484.2 -07.6239 26262.6
 09 09 2013  00 19  -21.0118 26030.4 -03484.2 -07.6239 26262.6
 09 09 2013  00 20  -21.0118 26030.4 -03484.2 -07.6239 26262.6
 09 09 2013  00 21  -21.0117 26030.4 -03484.2 -07.6239 26262.6
 09 09 2013  00 22  -21.0116 26030.5 -03484.3 -07.6239 26262.6
 09 09 2013  00 23  -21.0116 26030.5 -03484.3 -07.6240 26262.6
 09 09 2013  00 24  -21.0115 26030.5 -03484.3 -07.6239 26262.6
 09 09 2013  00 25  -21.0115 26030.5 -03484.3 -07.6239 26262.6
 09 09 2013  00 26  -21.0115 26030.5 -03484.3 -07.6239 26262.6
 09 09 2013  00 27  -21.0115 26030.4 -03484.3 -07.6239 26262.6
 09 09 2013  00 28  -21.0114 26030.5 -03484.3 -07.6239 26262.6
 09 09 2013  00 29  -21.0113 26030.5 -03484.2 -07.6239 26262.6
 09 09 2013  00 30  -21.0114 26030.5 -03484.3 -07.6240 26262.7
 09 09 2013  00 31  -21.0113 26030.5 -03484.3 -07.6240 26262.7
 09 09 2013  00 32  -21.0113 26030.5 -03484.3 -07.6240 26262.7
 09 09 2013  00 33  -21.0113 26030.6 -03484.4 -07.6241 26262.7
 09 09 2013  00 34  -21.0113 26030.6 -03484.4 -07.6241 26262.8
 09 09 2013  00 35  -21.0113 26030.6 -03484.4 -07.6241 26262.8
 09 09 2013  00 36  -21.0112 26030.6 -03484.4 -07.6241 26262.8
 09 09 2013  00 37  -21.0111 26030.6 -03484.3 -07.6240 26262.8
 09 09 2013  00 38  -21.0111 26030.7 -03484.4 -07.6241 26262.9
 09 09 2013  00 39  -21.0110 26030.7 -03484.4 -07.6241 26262.8
 09 09 2013  00 40  -21.0110 26030.7 -03484.3 -07.6240 26262.8
 09 09 2013  00 41  -21.0109 26030.7 -03484.4 -07.6240 26262.8
 09 09 2013  00 42  -21.0109 26030.7 -03484.4 -07.6240 26262.8
 09 09 2013  00 43  -21.0108 26030.7 -03484.4 -07.6241 26262.8
 09 09 2013  00 44  -21.0108 26030.6 -03484.3 -07.6240 26262.8
 09 09 2013  00 45  -21.0108 26030.6 -03484.3 -07.6240 26262.8
 09 09 2013  00 46  -21.0108 26030.6 -03484.3 -07.6240 26262.8
 09 09 2013  00 47  -21.0106 26030.6 -03484.3 -07.6239 26262.7
 09 09 2013  00 48  -21.0106 26030.5 -03484.3 -07.6239 26262.7
 09 09 2013  00 49  -21.0106 26030.5 -03484.3 -07.6239 26262.6
 09 09 2013  00 50  -21.0107 26030.4 -03484.2 -07.6239 26262.5
 09 09 2013  00 51  -21.0106 26030.3 -03484.2 -07.6238 26262.5
 09 09 2013  00 52  -21.0106 26030.2 -03484.1 -07.6237 26262.4
 09 09 2013  00 53  -21.0106 26030.1 -03484.1 -07.6237 26262.3
 09 09 2013  00 54  -21.0106 26030.1 -03484.1 -07.6237 26262.2
 09 09 2013  00 55  -21.0106 26030.0 -03484.1 -07.6236 26262.2
 09 09 2013  00 56  -21.0106 26030.0 -03484.1 -07.6236 26262.1
 09 09 2013  00 57  -21.0107 26029.9 -03484.1 -07.6236 26262.0
 09 09 2013  00 58  -21.0107 26029.8 -03484.1 -07.6236 26262.0
 09 09 2013  00 59  -21.0107 26029.8 -03484.0 -07.6236 26261.9
 09 09 2013  01 00  -21.0106 26029.8 -03484.0 -07.6236 26261.9
 09 09 2013  01 01  -21.0106 26029.8 -03484.0 -07.6236 26261.9
 09 09 2013  01 02  -21.0106 26029.8 -03484.1 -07.6237 26261.9
 09 09 2013  01 03  -21.0105 26029.8 -03484.1 -07.6237 26261.9
 09 09 2013  01 04  -21.0105 26029.8 -03484.1 -07.6238 26261.9
 09 09 2013  01 05  -21.0104 26029.8 -03484.2 -07.6239 26262.0
 09 09 2013  01 06  -21.0103 26029.9 -03484.2 -07.6240 26262.0
 09 09 2013  01 07  -21.0103 26029.9 -03484.2 -07.6239 26262.1
 09 09 2013  01 08  -21.0102 26029.9 -03484.2 -07.6240 26262.1
 09 09 2013  01 09  -21.0102 26029.9 -03484.2 -07.6240 26262.1
 09 09 2013  01 10  -21.0101 26029.9 -03484.3 -07.6241 26262.0
 09 09 2013  01 11  -21.0100 26029.9 -03484.3 -07.6241 26262.1
 09 09 2013  01 12  -21.0099 26029.9 -03484.3 -07.6241 26262.1
 09 09 2013  01 13  -21.0099 26029.9 -03484.3 -07.6241 26262.1
 09 09 2013  01 14  -21.0099 26029.9 -03484.4 -07.6243 26262.1
 09 09 2013  01 15  -21.0099 26029.9 -03484.3 -07.6242 26262.1
 09 09 2013  01 16  -21.0099 26029.9 -03484.3 -07.6242 26262.1
 09 09 2013  01 17  -21.0101 26029.9 -03484.4 -07.6243 26262.1
 09 09 2013  01 18  -21.0102 26030.0 -03484.4 -07.6244 26262.2
 09 09 2013  01 19  -21.0103 26030.0 -03484.5 -07.6245 26262.2
 09 09 2013  01 20  -21.0103 26030.1 -03484.5 -07.6245 26262.3
 09 09 2013  01 21  -21.0104 26030.2 -03484.5 -07.6246 26262.4
 09 09 2013  01 22  -21.0103 26030.3 -03484.5 -07.6246 26262.5
 09 09 2013  01 23  -21.0103 26030.3 -03484.6 -07.6246 26262.5
 09 09 2013  01 24  -21.0104 26030.3 -03484.6 -07.6246 26262.5
 09 09 2013  01 25  -21.0104 26030.3 -03484.6 -07.6246 26262.5
 09 09 2013  01 26  -21.0103 26030.3 -03484.5 -07.6245 26262.5
 09 09 2013  01 27  -21.0103 26030.3 -03484.5 -07.6245 26262.5
 09 09 2013  01 28  -21.0103 26030.4 -03484.5 -07.6245 26262.5
 09 09 2013  01 29  -21.0103 26030.3 -03484.5 -07.6245 26262.5
 09 09 2013  01 30  -21.0103 26030.2 -03484.5 -07.6245 26262.4
 09 09 2013  01 31  -21.0103 26030.2 -03484.4 -07.6244 26262.4
 09 09 2013  01 32  -21.0103 26030.1 -03484.4 -07.6243 26262.3
 09 09 2013  01 33  -21.0103 26030.1 -03484.4 -07.6243 26262.3
 09 09 2013  01 34  -21.0103 26030.1 -03484.4 -07.6244 26262.3
 09 09 2013  01 35  -21.0103 26030.1 -03484.4 -07.6243 26262.3
 09 09 2013  01 36  -21.0103 26030.1 -03484.4 -07.6243 26262.3
 09 09 2013  01 37  -21.0104 26030.0 -03484.4 -07.6243 26262.2
 09 09 2013  01 38  -21.0105 26030.0 -03484.4 -07.6244 26262.2
 09 09 2013  01 39  -21.0105 26030.0 -03484.4 -07.6244 26262.2
 09 09 2013  01 40  -21.0106 26030.1 -03484.4 -07.6244 26262.2
 09 09 2013  01 41  -21.0107 26030.1 -03484.4 -07.6244 26262.3
 09 09 2013  01 42  -21.0107 26030.1 -03484.4 -07.6244 26262.2
 09 09 2013  01 43  -21.0107 26030.0 -03484.4 -07.6243 26262.2
 09 09 2013  01 44  -21.0108 26030.0 -03484.4 -07.6243 26262.2
 09 09 2013  01 45  -21.0110 26030.0 -03484.4 -07.6243 26262.2
 09 09 2013  01 46  -21.0111 26029.9 -03484.3 -07.6242 26262.1
 09 09 2013  01 47  -21.0112 26029.8 -03484.3 -07.6242 26262.0
 09 09 2013  01 48  -21.0113 26029.7 -03484.3 -07.6241 26261.9
 09 09 2013  01 49  -21.0114 26029.6 -03484.2 -07.6240 26261.8
 09 09 2013  01 50  -21.0115 26029.5 -03484.2 -07.6240 26261.7
 09 09 2013  01 51  -21.0116 26029.4 -03484.1 -07.6239 26261.6
 09 09 2013  01 52  -21.0117 26029.4 -03484.1 -07.6238 26261.5
 09 09 2013  01 53  -21.0117 26029.3 -03484.1 -07.6238 26261.5
 09 09 2013  01 54  -21.0118 26029.3 -03484.0 -07.6238 26261.5
 09 09 2013  01 55  -21.0120 26029.3 -03484.1 -07.6238 26261.4
 09 09 2013  01 56  -21.0122 26029.3 -03484.1 -07.6238 26261.4
 09 09 2013  01 57  -21.0123 26029.2 -03484.0 -07.6237 26261.3
 09 09 2013  01 58  -21.0124 26029.1 -03484.0 -07.6237 26261.3
 09 09 2013  01 59  -21.0124 26029.1 -03483.9 -07.6235 26261.2
 09 09 2013  02 00  -21.0126 26029.1 -03484.0 -07.6236 26261.3
 09 09 2013  02 01  -21.0125 26029.2 -03484.0 -07.6236 26261.3
 09 09 2013  02 02  -21.0125 26029.3 -03484.0 -07.6237 26261.4
 09 09 2013  02 03  -21.0124 26029.4 -03484.0 -07.6237 26261.5
 09 09 2013  02 04  -21.0124 26029.5 -03484.1 -07.6238 26261.7
 09 09 2013  02 05  -21.0124 26029.6 -03484.2 -07.6239 26261.8
 09 09 2013  02 06  -21.0123 26029.6 -03484.2 -07.6239 26261.8
 09 09 2013  02 07  -21.0122 26029.6 -03484.1 -07.6238 26261.8
 09 09 2013  02 08  -21.0122 26029.6 -03484.1 -07.6237 26261.7
 09 09 2013  02 09  -21.0120 26029.5 -03484.0 -07.6237 26261.7
 09 09 2013  02 10  -21.0119 26029.5 -03484.1 -07.6237 26261.7
 09 09 2013  02 11  -21.0118 26029.6 -03484.1 -07.6237 26261.7
 09 09 2013  02 12  -21.0118 26029.5 -03484.1 -07.6237 26261.7
 09 09 2013  02 13  -21.0117 26029.5 -03484.0 -07.6236 26261.6
 09 09 2013  02 14  -21.0116 26029.5 -03484.0 -07.6237 26261.7
 09 09 2013  02 15  -21.0117 26029.1 -03483.8 -07.6234 26261.2
 09 09 2013  02 16  -21.0115 26029.3 -03483.8 -07.6233 26261.4
 09 09 2013  02 17  -21.0115 26029.5 -03484.0 -07.6235 26261.6
 09 09 2013  02 18  -21.0118 26029.5 -03484.1 -07.6237 26261.7
 09 09 2013  02 19  -21.0119 26029.4 -03484.0 -07.6236 26261.5
 09 09 2013  02 20  -21.0119 26029.5 -03484.0 -07.6237 26261.7
 09 09 2013  02 21  -21.0118 26029.6 -03484.1 -07.6238 26261.8
 09 09 2013  02 22  -21.0119 26029.6 -03484.1 -07.6238 26261.8
 09 09 2013  02 23  -21.0118 26029.5 -03484.1 -07.6237 26261.6
 09 09 2013  02 24  -21.0118 26029.5 -03484.1 -07.6237 26261.7
 09 09 2013  02 25  -21.0117 26029.5 -03484.1 -07.6237 26261.7
 09 09 2013  02 26  -21.0118 26029.5 -03484.1 -07.6237 26261.7
 09 09 2013  02 27  -21.0116 26029.5 -03484.0 -07.6237 26261.6
 09 09 2013  02 28  -21.0116 26029.5 -03484.1 -07.6238 26261.7
 09 09 2013  02 29  -21.0116 26029.4 -03484.0 -07.6237 26261.6
 09 09 2013  02 30  -21.0117 26029.4 -03484.0 -07.6237 26261.5
 09 09 2013  02 31  -21.0117 26029.4 -03484.0 -07.6237 26261.6
 09 09 2013  02 32  -21.0119 26029.5 -03484.1 -07.6239 26261.7
 09 09 2013  02 33  -21.0120 26029.5 -03484.1 -07.6239 26261.7
 09 09 2013  02 34  -21.0121 26029.5 -03484.2 -07.6239 26261.7
 09 09 2013  02 35  -21.0122 26029.5 -03484.2 -07.6240 26261.7
 09 09 2013  02 36  -21.0124 26029.5 -03484.2 -07.6240 26261.7
 09 09 2013  02 37  -21.0125 26029.4 -03484.1 -07.6239 26261.5
 09 09 2013  02 38  -21.0125 26029.4 -03484.1 -07.6238 26261.5
 09 09 2013  02 39  -21.0125 26029.4 -03484.1 -07.6239 26261.6
 09 09 2013  02 40  -21.0124 26029.5 -03484.2 -07.6239 26261.6
 09 09 2013  02 41  -21.0124 26029.4 -03484.1 -07.6239 26261.5
 09 09 2013  02 42  -21.0126 26029.3 -03484.1 -07.6239 26261.5
 09 09 2013  02 43  -21.0126 26029.2 -03484.1 -07.6239 26261.3
 09 09 2013  02 44  -21.0126 26029.1 -03484.0 -07.6238 26261.2
 09 09 2013  02 45  -21.0125 26029.1 -03484.0 -07.6238 26261.2
 09 09 2013  02 46  -21.0125 26029.0 -03484.0 -07.6238 26261.2
 09 09 2013  02 47  -21.0126 26029.0 -03484.0 -07.6238 26261.1
 09 09 2013  02 48  -21.0128 26028.9 -03484.0 -07.6238 26261.0
 09 09 2013  02 49  -21.0128 26028.8 -03484.0 -07.6238 26261.0
 09 09 2013  02 50  -21.0129 26028.9 -03484.0 -07.6238 26261.0
 09 09 2013  02 51  -21.0130 26029.1 -03484.1 -07.6239 26261.2
 09 09 2013  02 52  -21.0132 26028.9 -03484.1 -07.6240 26261.0
 09 09 2013  02 53  -21.0132 26028.7 -03484.0 -07.6237 26260.8
 09 09 2013  02 54  -21.0131 26028.8 -03484.0 -07.6238 26261.0
 09 09 2013  02 55  -21.0133 26028.9 -03484.1 -07.6240 26261.0
 09 09 2013  02 56  -21.0134 26028.8 -03484.1 -07.6240 26260.9
 09 09 2013  02 57  -21.0135 26028.5 -03484.0 -07.6238 26260.7
 09 09 2013  02 58  -21.0133 26028.7 -03484.0 -07.6239 26260.9
 09 09 2013  02 59  -21.0135 26028.5 -03484.0 -07.6239 26260.7
 09 09 2013  03 00  -21.0133 26028.6 -03484.0 -07.6239 26260.7
 09 09 2013  03 01  -21.0134 26028.8 -03484.2 -07.6242 26261.0
 09 09 2013  03 02  -21.0138 26028.2 -03484.0 -07.6239 26260.4
 09 09 2013  03 03  -21.0136 26028.5 -03484.0 -07.6240 26260.7
 09 09 2013  03 04  -21.0138 26029.4 -03484.5 -07.6248 26261.6
 09 09 2013  03 05  -21.0143 26028.5 -03484.2 -07.6243 26260.7
 09 09 2013  03 06  -21.0137 26029.2 -03484.4 -07.6245 26261.4
 09 09 2013  03 07  -21.0141 26029.0 -03484.4 -07.6247 26261.2
 09 09 2013  03 08  -21.0140 26028.7 -03484.2 -07.6243 26260.8
 09 09 2013  03 09  -21.0139 26029.2 -03484.5 -07.6247 26261.4
 09 09 2013  03 10  -21.0140 26029.1 -03484.5 -07.6247 26261.3
 09 09 2013  03 11  -21.0139 26029.0 -03484.4 -07.6247 26261.2
 09 09 2013  03 12  -21.0140 26029.1 -03484.5 -07.6248 26261.3
 09 09 2013  03 13  -21.0141 26028.9 -03484.4 -07.6247 26261.1
 09 09 2013  03 14  -21.0141 26028.8 -03484.4 -07.6246 26261.0
 09 09 2013  03 15  -21.0140 26029.0 -03484.5 -07.6248 26261.1
 09 09 2013  03 16  -21.0141 26029.2 -03484.6 -07.6250 26261.4
 09 09 2013  03 17  -21.0144 26028.6 -03484.3 -07.6246 26260.7
 09 09 2013  03 18  -21.0143 26028.9 -03484.4 -07.6246 26261.0
 09 09 2013  03 19  -21.0147 26028.9 -03484.5 -07.6248 26261.1
 09 09 2013  03 20  -21.0149 26028.6 -03484.4 -07.6246 26260.8
 09 09 2013  03 21  -21.0147 26028.6 -03484.3 -07.6245 26260.8
 09 09 2013  03 22  -21.0147 26028.5 -03484.3 -07.6245 26260.7
 09 09 2013  03 23  -21.0149 26028.1 -03484.1 -07.6242 26260.2
 09 09 2013  03 24  -21.0149 26028.0 -03484.0 -07.6240 26260.1
 09 09 2013  03 25  -21.0151 26027.9 -03484.1 -07.6242 26260.1
 09 09 2013  03 26  -21.0154 26027.9 -03484.1 -07.6242 26260.0
 09 09 2013  03 27  -21.0155 26027.7 -03483.9 -07.6240 26259.8
 09 09 2013  03 28  -21.0156 26027.5 -03483.9 -07.6240 26259.7
 09 09 2013  03 29  -21.0156 26027.6 -03483.9 -07.6240 26259.7
 09 09 2013  03 30  -21.0158 26027.5 -03483.9 -07.6240 26259.7
 09 09 2013  03 31  -21.0159 26027.5 -03483.9 -07.6240 26259.6
 09 09 2013  03 32  -21.0160 26027.7 -03484.0 -07.6242 26259.9
 09 09 2013  03 33  -21.0164 26027.3 -03483.8 -07.6238 26259.4
 09 09 2013  03 34  -21.0165 26027.7 -03484.0 -07.6242 26259.9
 09 09 2013  03 35  -21.0171 26027.4 -03483.9 -07.6241 26259.6
 09 09 2013  03 36  -21.0173 26027.6 -03483.9 -07.6240 26259.7
 09 09 2013  03 37  -21.0176 26027.8 -03484.0 -07.6242 26260.0
 09 09 2013  03 38  -21.0179 26027.4 -03483.8 -07.6238 26259.5
 09 09 2013  03 39  -21.0178 26027.7 -03483.9 -07.6239 26259.8
 09 09 2013  03 40  -21.0180 26027.6 -03483.8 -07.6238 26259.7
 09 09 2013  03 41  -21.0178 26027.5 -03483.8 -07.6237 26259.6
 09 09 2013  03 42  -21.0178 26027.6 -03483.8 -07.6238 26259.7
 09 09 2013  03 43  -21.0180 26027.4 -03483.7 -07.6236 26259.5
 09 09 2013  03 44  -21.0179 26027.4 -03483.7 -07.6236 26259.5
 09 09 2013  03 45  -21.0178 26027.3 -03483.6 -07.6234 26259.4
 09 09 2013  03 46  -21.0176 26027.3 -03483.6 -07.6234 26259.4
 09 09 2013  03 47  -21.0175 26027.3 -03483.6 -07.6234 26259.4
 09 09 2013  03 48  -21.0173 26027.2 -03483.6 -07.6234 26259.3
 09 09 2013  03 49  -21.0171 26027.2 -03483.6 -07.6234 26259.3
 09 09 2013  03 50  -21.0172 26027.1 -03483.6 -07.6234 26259.2
 09 09 2013  03 51  -21.0171 26027.1 -03483.6 -07.6235 26259.2
 09 09 2013  03 52  -21.0171 26027.2 -03483.7 -07.6236 26259.3
 09 09 2013  03 53  -21.0170 26027.1 -03483.7 -07.6236 26259.2
 09 09 2013  03 54  -21.0169 26027.3 -03483.7 -07.6237 26259.4
 09 09 2013  03 55  -21.0169 26027.2 -03483.7 -07.6237 26259.3
 09 09 2013  03 56  -21.0167 26027.3 -03483.8 -07.6237 26259.4
 09 09 2013  03 57  -21.0167 26027.2 -03483.8 -07.6237 26259.4
 09 09 2013  03 58  -21.0165 26027.4 -03483.8 -07.6239 26259.5
 09 09 2013  03 59  -21.0164 26027.3 -03483.8 -07.6239 26259.5
 09 09 2013  04 00  -21.0162 26027.4 -03483.8 -07.6239 26259.5
 09 09 2013  04 01  -21.0161 26027.4 -03483.9 -07.6239 26259.5
 09 09 2013  04 02  -21.0160 26027.3 -03483.8 -07.6239 26259.4
 09 09 2013  04 03  -21.0159 26027.4 -03483.9 -07.6239 26259.5
 09 09 2013  04 04  -21.0158 26027.3 -03483.8 -07.6239 26259.4
 09 09 2013  04 05  -21.0158 26027.3 -03483.9 -07.6239 26259.4
 09 09 2013  04 06  -21.0159 26027.3 -03483.9 -07.6240 26259.4
 09 09 2013  04 07  -21.0160 26027.3 -03483.9 -07.6240 26259.4
 09 09 2013  04 08  -21.0160 26027.3 -03483.9 -07.6241 26259.4
 09 09 2013  04 09  -21.0161 26027.5 -03484.0 -07.6242 26259.6
 09 09 2013  04 10  -21.0161 26027.5 -03484.1 -07.6243 26259.7
 09 09 2013  04 11  -21.0162 26027.6 -03484.1 -07.6244 26259.7
 09 09 2013  04 12  -21.0162 26027.8 -03484.2 -07.6246 26260.0
 09 09 2013  04 13  -21.0161 26028.0 -03484.3 -07.6248 26260.2
 09 09 2013  04 14  -21.0159 26028.3 -03484.4 -07.6249 26260.5
 09 09 2013  04 15  -21.0159 26028.4 -03484.6 -07.6252 26260.7
 09 09 2013  04 16  -21.0157 26028.6 -03484.6 -07.6252 26260.8
 09 09 2013  04 17  -21.0157 26028.7 -03484.6 -07.6252 26260.9
 09 09 2013  04 18  -21.0155 26028.8 -03484.7 -07.6253 26261.0
 09 09 2013  04 19  -21.0154 26028.9 -03484.7 -07.6253 26261.2
 09 09 2013  04 20  -21.0152 26029.1 -03484.8 -07.6255 26261.4
 09 09 2013  04 21  -21.0153 26029.2 -03484.9 -07.6256 26261.4
 09 09 2013  04 22  -21.0151 26028.9 -03484.7 -07.6253 26261.1
 09 09 2013  04 23  -21.0148 26029.0 -03484.8 -07.6254 26261.3
 09 09 2013  04 24  -21.0147 26028.6 -03484.5 -07.6251 26260.8
 09 09 2013  04 25  -21.0144 26028.9 -03484.7 -07.6252 26261.1
 09 09 2013  04 26  -21.0144 26028.7 -03484.6 -07.6251 26260.9
 09 09 2013  04 27  -21.0141 26028.8 -03484.6 -07.6251 26261.0
 09 09 2013  04 28  -21.0141 26028.6 -03484.6 -07.6251 26260.8
 09 09 2013  04 29  -21.0141 26028.7 -03484.6 -07.6252 26260.9
 09 09 2013  04 30  -21.0142 26028.6 -03484.6 -07.6253 26260.9
 09 09 2013  04 31  -21.0141 26028.7 -03484.7 -07.6253 26260.9
 09 09 2013  04 32  -21.0143 26028.6 -03484.6 -07.6253 26260.8
 09 09 2013  04 33  -21.0146 26028.5 -03484.6 -07.6252 26260.7
 09 09 2013  04 34  -21.0148 26028.7 -03484.7 -07.6254 26260.9
 09 09 2013  04 35  -21.0150 26028.7 -03484.7 -07.6253 26260.9
 09 09 2013  04 36  -21.0150 26028.7 -03484.7 -07.6254 26261.0
 09 09 2013  04 37  -21.0152 26028.9 -03484.8 -07.6256 26261.1
 09 09 2013  04 38  -21.0155 26028.7 -03484.8 -07.6255 26261.0
 09 09 2013  04 39  -21.0155 26029.1 -03484.9 -07.6257 26261.3
 09 09 2013  04 40  -21.0159 26028.8 -03484.8 -07.6256 26261.0
 09 09 2013  04 41  -21.0157 26029.0 -03484.8 -07.6255 26261.2
 09 09 2013  04 42  -21.0158 26028.9 -03484.8 -07.6255 26261.1
 09 09 2013  04 43  -21.0155 26029.0 -03484.7 -07.6254 26261.2
 09 09 2013  04 44  -21.0154 26029.1 -03484.8 -07.6255 26261.4
 09 09 2013  04 45  -21.0152 26029.3 -03484.9 -07.6256 26261.5
 09 09 2013  04 46  -21.0150 26029.5 -03485.0 -07.6257 26261.7
 09 09 2013  04 47  -21.0148 26029.5 -03485.0 -07.6258 26261.8
 09 09 2013  04 48  -21.0146 26029.5 -03485.0 -07.6257 26261.8
 09 09 2013  04 49  -21.0145 26029.6 -03485.1 -07.6259 26261.9
 09 09 2013  04 50  -21.0143 26029.7 -03485.1 -07.6259 26262.0
 09 09 2013  04 51  -21.0144 26029.8 -03485.2 -07.6261 26262.1
 09 09 2013  04 52  -21.0144 26029.8 -03485.2 -07.6260 26262.1
 09 09 2013  04 53  -21.0144 26029.8 -03485.2 -07.6260 26262.0
 09 09 2013  04 54  -21.0144 26029.7 -03485.1 -07.6260 26262.0
 09 09 2013  04 55  -21.0142 26029.7 -03485.1 -07.6260 26262.0
 09 09 2013  04 56  -21.0140 26029.7 -03485.1 -07.6259 26261.9
 09 09 2013  04 57  -21.0140 26029.5 -03485.0 -07.6258 26261.8
 09 09 2013  04 58  -21.0137 26029.6 -03485.0 -07.6258 26261.9
 09 09 2013  04 59  -21.0136 26029.6 -03485.0 -07.6258 26261.9
 09 09 2013  05 00  -21.0138 26029.6 -03485.1 -07.6259 26261.9
 09 09 2013  05 01  -21.0139 26029.5 -03485.1 -07.6259 26261.8
 09 09 2013  05 02  -21.0140 26029.5 -03485.1 -07.6259 26261.8
 09 09 2013  05 03  -21.0141 26029.6 -03485.1 -07.6260 26261.8
 09 09 2013  05 04  -21.0140 26029.6 -03485.1 -07.6260 26261.9
 09 09 2013  05 05  -21.0141 26029.6 -03485.1 -07.6260 26261.9
 09 09 2013  05 06  -21.0142 26029.6 -03485.1 -07.6260 26261.9
 09 09 2013  05 07  -21.0143 26029.5 -03485.1 -07.6259 26261.8
 09 09 2013  05 08  -21.0144 26029.6 -03485.1 -07.6259 26261.8
 09 09 2013  05 09  -21.0145 26029.6 -03485.1 -07.6260 26261.9
 09 09 2013  05 10  -21.0146 26029.6 -03485.1 -07.6260 26261.9
 09 09 2013  05 11  -21.0147 26029.6 -03485.2 -07.6261 26261.9
 09 09 2013  05 12  -21.0147 26029.6 -03485.1 -07.6259 26261.8
 09 09 2013  05 13  -21.0147 26029.5 -03485.0 -07.6258 26261.7
 09 09 2013  05 14  -21.0147 26029.5 -03485.0 -07.6258 26261.8
 09 09 2013  05 15  -21.0147 26029.5 -03485.0 -07.6258 26261.7
 09 09 2013  05 16  -21.0148 26029.4 -03485.0 -07.6258 26261.7
 09 09 2013  05 17  -21.0149 26029.6 -03485.1 -07.6259 26261.9
 09 09 2013  05 18  -21.0152 26029.8 -03485.2 -07.6261 26262.1
 09 09 2013  05 19  -21.0153 26029.9 -03485.2 -07.6262 26262.2
 09 09 2013  05 20  -21.0155 26030.0 -03485.3 -07.6262 26262.3
 09 09 2013  05 21  -21.0156 26030.0 -03485.3 -07.6262 26262.3
 09 09 2013  05 22  -21.0156 26030.0 -03485.2 -07.6261 26262.3
 09 09 2013  05 23  -21.0155 26030.1 -03485.2 -07.6261 26262.4
 09 09 2013  05 24  -21.0153 26030.1 -03485.2 -07.6261 26262.4
 09 09 2013  05 25  -21.0153 26030.0 -03485.2 -07.6260 26262.3
 09 09 2013  05 26  -21.0151 26030.0 -03485.1 -07.6259 26262.2
 09 09 2013  05 27  -21.0151 26029.8 -03485.0 -07.6258 26262.1
 09 09 2013  05 28  -21.0150 26029.7 -03485.0 -07.6257 26261.9
 09 09 2013  05 29  -21.0149 26029.5 -03484.9 -07.6255 26261.8
 09 09 2013  05 30  -21.0148 26029.4 -03484.8 -07.6254 26261.6
 09 09 2013  05 31  -21.0147 26029.4 -03484.9 -07.6255 26261.6
 09 09 2013  05 32  -21.0147 26029.4 -03484.9 -07.6256 26261.7
 09 09 2013  05 33  -21.0147 26029.4 -03484.9 -07.6256 26261.6
 09 09 2013  05 34  -21.0146 26029.4 -03485.0 -07.6257 26261.7
 09 09 2013  05 35  -21.0146 26029.3 -03485.0 -07.6257 26261.6
 09 09 2013  05 36  -21.0147 26029.3 -03485.0 -07.6257 26261.6
 09 09 2013  05 37  -21.0148 26029.4 -03485.0 -07.6258 26261.7
 09 09 2013  05 38  -21.0149 26029.6 -03485.1 -07.6259 26261.8
 09 09 2013  05 39  -21.0150 26029.6 -03485.1 -07.6261 26261.8
 09 09 2013  05 40  -21.0152 26029.6 -03485.1 -07.6260 26261.9
 09 09 2013  05 41  -21.0151 26029.5 -03485.1 -07.6260 26261.8
 09 09 2013  05 42  -21.0149 26029.4 -03485.0 -07.6259 26261.7
 09 09 2013  05 43  -21.0147 26029.4 -03485.0 -07.6258 26261.7
 09 09 2013  05 44  -21.0146 26029.3 -03485.0 -07.6258 26261.5
 09 09 2013  05 45  -21.0143 26029.1 -03484.9 -07.6256 26261.4
 09 09 2013  05 46  -21.0141 26028.9 -03484.8 -07.6255 26261.1
 09 09 2013  05 47  -21.0138 26028.7 -03484.7 -07.6253 26260.9
 09 09 2013  05 48  -21.0137 26028.5 -03484.6 -07.6253 26260.7
 09 09 2013  05 49  -21.0136 26028.3 -03484.6 -07.6253 26260.5
 09 09 2013  05 50  -21.0137 26028.4 -03484.7 -07.6254 26260.6
 09 09 2013  05 51  -21.0138 26028.5 -03484.8 -07.6256 26260.7
 09 09 2013  05 52  -21.0141 26028.7 -03484.9 -07.6259 26261.0
 09 09 2013  05 53  -21.0145 26028.9 -03485.1 -07.6261 26261.2
 09 09 2013  05 54  -21.0146 26029.0 -03485.2 -07.6263 26261.2
 09 09 2013  05 55  -21.0145 26029.0 -03485.2 -07.6263 26261.3
 09 09 2013  05 56  -21.0145 26029.2 -03485.2 -07.6264 26261.4
 09 09 2013  05 57  -21.0146 26029.2 -03485.3 -07.6264 26261.5
 09 09 2013  05 58  -21.0145 26029.2 -03485.2 -07.6264 26261.5
 09 09 2013  05 59  -21.0146 26029.2 -03485.3 -07.6264 26261.5
 09 09 2013  06 00  -21.0145 26029.1 -03485.2 -07.6263 26261.4
 09 09 2013  06 01  -21.0144 26029.1 -03485.2 -07.6263 26261.3
 09 09 2013  06 02  -21.0142 26028.9 -03485.1 -07.6261 26261.2
 09 09 2013  06 03  -21.0142 26028.9 -03485.1 -07.6262 26261.2
 09 09 2013  06 04  -21.0140 26028.9 -03485.1 -07.6261 26261.2
 09 09 2013  06 05  -21.0140 26029.0 -03485.2 -07.6263 26261.3
 09 09 2013  06 06  -21.0141 26029.0 -03485.2 -07.6264 26261.3
 09 09 2013  06 07  -21.0142 26029.1 -03485.3 -07.6264 26261.4
 09 09 2013  06 08  -21.0143 26029.2 -03485.3 -07.6265 26261.5
 09 09 2013  06 09  -21.0143 26029.3 -03485.4 -07.6266 26261.6
 09 09 2013  06 10  -21.0141 26029.3 -03485.4 -07.6266 26261.7
 09 09 2013  06 11  -21.0140 26029.4 -03485.4 -07.6267 26261.7
 09 09 2013  06 12  -21.0140 26029.4 -03485.5 -07.6268 26261.7
 09 09 2013  06 13  -21.0139 26029.2 -03485.3 -07.6266 26261.5
 09 09 2013  06 14  -21.0138 26029.0 -03485.2 -07.6264 26261.2
 09 09 2013  06 15  -21.0136 26028.7 -03485.1 -07.6262 26261.0
 09 09 2013  06 16  -21.0133 26028.7 -03485.1 -07.6262 26261.0
 09 09 2013  06 17  -21.0133 26028.9 -03485.2 -07.6265 26261.2
 09 09 2013  06 18  -21.0134 26029.0 -03485.3 -07.6267 26261.3
 09 09 2013  06 19  -21.0138 26029.0 -03485.4 -07.6268 26261.3
 09 09 2013  06 20  -21.0139 26028.8 -03485.3 -07.6266 26261.1
 09 09 2013  06 21  -21.0140 26028.8 -03485.3 -07.6266 26261.1
 09 09 2013  06 22  -21.0140 26028.8 -03485.3 -07.6266 26261.2
 09 09 2013  06 23  -21.0142 26029.0 -03485.4 -07.6268 26261.3
 09 09 2013  06 24  -21.0144 26029.1 -03485.5 -07.6270 26261.4
 09 09 2013  06 25  -21.0145 26029.1 -03485.5 -07.6269 26261.4
 09 09 2013  06 26  -21.0146 26028.9 -03485.4 -07.6268 26261.2
 09 09 2013  06 27  -21.0145 26028.8 -03485.4 -07.6267 26261.2
 09 09 2013  06 28  -21.0144 26028.8 -03485.3 -07.6267 26261.1
 09 09 2013  06 29  -21.0143 26028.8 -03485.3 -07.6267 26261.1
 09 09 2013  06 30  -21.0142 26028.7 -03485.3 -07.6267 26261.1
 09 09 2013  06 31  -21.0141 26028.7 -03485.3 -07.6267 26261.0
 09 09 2013  06 32  -21.0140 26028.6 -03485.3 -07.6266 26260.9
 09 09 2013  06 33  -21.0139 26028.5 -03485.3 -07.6266 26260.8
 09 09 2013  06 34  -21.0138 26028.4 -03485.2 -07.6266 26260.7
 09 09 2013  06 35  -21.0137 26028.4 -03485.3 -07.6266 26260.7
 09 09 2013  06 36  -21.0136 26028.4 -03485.3 -07.6267 26260.7
 09 09 2013  06 37  -21.0135 26028.4 -03485.3 -07.6268 26260.7
 09 09 2013  06 38  -21.0135 26028.4 -03485.4 -07.6268 26260.7
 09 09 2013  06 39  -21.0135 26028.4 -03485.4 -07.6269 26260.8
 09 09 2013  06 40  -21.0133 26028.4 -03485.4 -07.6269 26260.7
 09 09 2013  06 41  -21.0132 26028.4 -03485.4 -07.6270 26260.7
 09 09 2013  06 42  -21.0132 26028.4 -03485.4 -07.6270 26260.7
 09 09 2013  06 43  -21.0132 26028.4 -03485.5 -07.6271 26260.7
 09 09 2013  06 44  -21.0132 26028.5 -03485.5 -07.6272 26260.8
 09 09 2013  06 45  -21.0131 26028.5 -03485.6 -07.6273 26260.9
 09 09 2013  06 46  -21.0131 26028.5 -03485.6 -07.6274 26260.9
 09 09 2013  06 47  -21.0132 26028.5 -03485.6 -07.6274 26260.8
 09 09 2013  06 48  -21.0132 26028.4 -03485.6 -07.6273 26260.7
 09 09 2013  06 49  -21.0132 26028.3 -03485.6 -07.6273 26260.7
 09 09 2013  06 50  -21.0131 26028.3 -03485.5 -07.6273 26260.6
 09 09 2013  06 51  -21.0131 26028.2 -03485.5 -07.6273 26260.6
 09 09 2013  06 52  -21.0132 26028.2 -03485.6 -07.6274 26260.5
 09 09 2013  06 53  -21.0133 26028.1 -03485.5 -07.6273 26260.4
 09 09 2013  06 54  -21.0133 26028.0 -03485.5 -07.6274 26260.4
 09 09 2013  06 55  -21.0132 26027.9 -03485.5 -07.6273 26260.3
 09 09 2013  06 56  -21.0131 26028.0 -03485.5 -07.6274 26260.3
 09 09 2013  06 57  -21.0132 26028.0 -03485.6 -07.6274 26260.3
 09 09 2013  06 58  -21.0131 26027.9 -03485.6 -07.6275 26260.3
 09 09 2013  06 59  -21.0130 26027.9 -03485.6 -07.6275 26260.2
 09 09 2013  07 00  -21.0128 26027.8 -03485.6 -07.6275 26260.2
 09 09 2013  07 01  -21.0128 26027.8 -03485.6 -07.6276 26260.1
 09 09 2013  07 02  -21.0130 26027.8 -03485.6 -07.6276 26260.2
 09 09 2013  07 03  -21.0132 26028.0 -03485.8 -07.6279 26260.3
 09 09 2013  07 04  -21.0133 26028.0 -03485.8 -07.6280 26260.4
 09 09 2013  07 05  -21.0131 26028.2 -03485.9 -07.6281 26260.6
 09 09 2013  07 06  -21.0131 26028.2 -03485.9 -07.6280 26260.6
 09 09 2013  07 07  -21.0129 26028.2 -03485.9 -07.6280 26260.6
 09 09 2013  07 08  -21.0128 26028.2 -03485.9 -07.6281 26260.6
 09 09 2013  07 09  -21.0125 26028.2 -03485.9 -07.6281 26260.6
 09 09 2013  07 10  -21.0124 26028.0 -03485.9 -07.6280 26260.4
 09 09 2013  07 11  -21.0121 26028.1 -03485.9 -07.6281 26260.5
 09 09 2013  07 12  -21.0120 26028.0 -03485.9 -07.6281 26260.4
 09 09 2013  07 13  -21.0118 26028.1 -03485.9 -07.6282 26260.5
 09 09 2013  07 14  -21.0117 26028.1 -03486.0 -07.6283 26260.5
 09 09 2013  07 15  -21.0116 26028.1 -03486.0 -07.6283 26260.5
 09 09 2013  07 16  -21.0117 26028.0 -03486.0 -07.6283 26260.4
 09 09 2013  07 17  -21.0117 26028.0 -03486.0 -07.6284 26260.4
 09 09 2013  07 18  -21.0117 26028.1 -03486.1 -07.6285 26260.5
 09 09 2013  07 19  -21.0117 26028.1 -03486.1 -07.6285 26260.5
 09 09 2013  07 20  -21.0120 26028.0 -03486.1 -07.6285 26260.5
 09 09 2013  07 21  -21.0122 26028.0 -03486.0 -07.6285 26260.4
 09 09 2013  07 22  -21.0123 26027.9 -03486.0 -07.6284 26260.3
 09 09 2013  07 23  -21.0121 26027.8 -03485.9 -07.6283 26260.2
 09 09 2013  07 24  -21.0120 26027.7 -03485.9 -07.6283 26260.1
 09 09 2013  07 25  -21.0120 26027.9 -03486.0 -07.6285 26260.3
 09 09 2013  07 26  -21.0119 26027.5 -03485.9 -07.6282 26259.9
 09 09 2013  07 27  -21.0117 26027.8 -03486.0 -07.6285 26260.2
 09 09 2013  07 28  -21.0114 26027.7 -03486.0 -07.6285 26260.1
 09 09 2013  07 29  -21.0113 26027.8 -03486.1 -07.6287 26260.2
 09 09 2013  07 30  -21.0109 26028.0 -03486.2 -07.6288 26260.4
 09 09 2013  07 31  -21.0110 26028.0 -03486.3 -07.6290 26260.4
 09 09 2013  07 32  -21.0108 26028.2 -03486.4 -07.6291 26260.6
 09 09 2013  07 33  -21.0110 26027.5 -03486.1 -07.6287 26260.0
 09 09 2013  07 34  -21.0105 26028.2 -03486.4 -07.6291 26260.7
 09 09 2013  07 35  -21.0106 26027.9 -03486.3 -07.6290 26260.3
 09 09 2013  07 36  -21.0101 26028.1 -03486.4 -07.6291 26260.5
 09 09 2013  07 37  -21.0099 26028.0 -03486.4 -07.6291 26260.5
 09 09 2013  07 38  -21.0097 26028.1 -03486.4 -07.6293 26260.6
 09 09 2013  07 39  -21.0095 26028.1 -03486.5 -07.6293 26260.6
 09 09 2013  07 40  -21.0096 26028.1 -03486.5 -07.6294 26260.6
 09 09 2013  07 41  -21.0096 26028.2 -03486.5 -07.6295 26260.7
 09 09 2013  07 42  -21.0098 26028.3 -03486.6 -07.6297 26260.8
 09 09 2013  07 43  -21.0099 26028.2 -03486.6 -07.6296 26260.7
 09 09 2013  07 44  -21.0101 26028.2 -03486.6 -07.6296 26260.7
 09 09 2013  07 45  -21.0103 26028.3 -03486.6 -07.6297 26260.8
 09 09 2013  07 46  -21.0104 26028.4 -03486.7 -07.6298 26260.9
 09 09 2013  07 47  -21.0103 26028.4 -03486.7 -07.6297 26260.9
 09 09 2013  07 48  -21.0102 26028.6 -03486.8 -07.6299 26261.1
 09 09 2013  07 49  -21.0101 26028.6 -03486.7 -07.6298 26261.1
 09 09 2013  07 50  -21.0100 26028.7 -03486.8 -07.6299 26261.2
 09 09 2013  07 51  -21.0099 26028.9 -03486.9 -07.6300 26261.4
 09 09 2013  07 52  -21.0098 26028.9 -03486.9 -07.6301 26261.4
 09 09 2013  07 53  -21.0095 26029.1 -03487.0 -07.6302 26261.6
 09 09 2013  07 54  -21.0093 26029.2 -03487.0 -07.6303 26261.8
 09 09 2013  07 55  -21.0092 26029.2 -03487.1 -07.6303 26261.7
 09 09 2013  07 56  -21.0088 26029.3 -03487.1 -07.6304 26261.9
 09 09 2013  07 57  -21.0087 26029.3 -03487.1 -07.6303 26261.8
 09 09 2013  07 58  -21.0084 26029.3 -03487.0 -07.6302 26261.8
 09 09 2013  07 59  -21.0079 26029.5 -03487.1 -07.6303 26262.1
 09 09 2013  08 00  -21.0075 26029.5 -03487.1 -07.6304 26262.0
 09 09 2013  08 01  -21.0071 26029.5 -03487.1 -07.6304 26262.1
 09 09 2013  08 02  -21.0067 26029.6 -03487.2 -07.6305 26262.2
 09 09 2013  08 03  -21.0064 26029.6 -03487.2 -07.6304 26262.2
 09 09 2013  08 04  -21.0060 26029.6 -03487.1 -07.6304 26262.2
 09 09 2013  08 05  -21.0058 26029.5 -03487.2 -07.6304 26262.1
 09 09 2013  08 06  -21.0055 26029.9 -03487.3 -07.6307 26262.5
 09 09 2013  08 07  -21.0054 26029.9 -03487.3 -07.6307 26262.4
 09 09 2013  08 08  -21.0051 26029.9 -03487.4 -07.6307 26262.5
 09 09 2013  08 09  -21.0048 26029.9 -03487.3 -07.6307 26262.5
 09 09 2013  08 10  -21.0044 26030.1 -03487.4 -07.6309 26262.7
 09 09 2013  08 11  -21.0042 26030.3 -03487.5 -07.6309 26262.9
 09 09 2013  08 12  -21.0038 26030.3 -03487.5 -07.6309 26262.9
 09 09 2013  08 13  -21.0034 26030.3 -03487.4 -07.6308 26262.9
 09 09 2013  08 14  -21.0029 26030.3 -03487.4 -07.6307 26262.9
 09 09 2013  08 15  -21.0025 26030.2 -03487.4 -07.6307 26262.8
 09 09 2013  08 16  -21.0020 26030.5 -03487.5 -07.6309 26263.0
 09 09 2013  08 17  -21.0015 26030.6 -03487.6 -07.6310 26263.2
 09 09 2013  08 18  -21.0011 26030.6 -03487.6 -07.6311 26263.2
 09 09 2013  08 19  -21.0006 26030.6 -03487.6 -07.6311 26263.2
 09 09 2013  08 20  -21.0000 26030.8 -03487.7 -07.6311 26263.4
 09 09 2013  08 21  -20.9995 26030.9 -03487.7 -07.6312 26263.5
 09 09 2013  08 22  -20.9991 26030.9 -03487.7 -07.6313 26263.5
 09 09 2013  08 23  -20.9986 26031.0 -03487.7 -07.6313 26263.6
 09 09 2013  08 24  -20.9982 26031.0 -03487.7 -07.6313 26263.6
 09 09 2013  08 25  -20.9978 26031.1 -03487.8 -07.6313 26263.7
 09 09 2013  08 26  -20.9975 26031.2 -03487.9 -07.6315 26263.8
 09 09 2013  08 27  -20.9971 26031.3 -03487.9 -07.6316 26263.9
 09 09 2013  08 28  -20.9965 26031.4 -03487.9 -07.6316 26264.0
 09 09 2013  08 29  -20.9959 26031.4 -03487.9 -07.6315 26264.0
 09 09 2013  08 30  -20.9954 26031.4 -03487.9 -07.6315 26264.1
 09 09 2013  08 31  -20.9948 26031.6 -03488.0 -07.6316 26264.2
 09 09 2013  08 32  -20.9941 26031.6 -03488.0 -07.6316 26264.3
 09 09 2013  08 33  -20.9933 26031.6 -03487.9 -07.6315 26264.3
 09 09 2013  08 34  -20.9924 26031.7 -03487.9 -07.6314 26264.3
 09 09 2013  08 35  -20.9916 26031.6 -03487.9 -07.6314 26264.2
 09 09 2013  08 36  -20.9908 26031.6 -03487.9 -07.6314 26264.3
 09 09 2013  08 37  -20.9897 26031.6 -03487.8 -07.6312 26264.2
 09 09 2013  08 38  -20.9887 26031.5 -03487.8 -07.6312 26264.1
 09 09 2013  08 39  -20.9878 26031.5 -03487.8 -07.6312 26264.1
 09 09 2013  08 40  -20.9871 26031.3 -03487.8 -07.6313 26264.0
 09 09 2013  08 41  -20.9861 26031.2 -03487.8 -07.6313 26263.9
 09 09 2013  08 42  -20.9851 26031.1 -03487.8 -07.6313 26263.7
 09 09 2013  08 43  -20.9841 26030.9 -03487.8 -07.6314 26263.5
 09 09 2013  08 44  -20.9831 26030.7 -03487.8 -07.6315 26263.4
 09 09 2013  08 45  -20.9823 26030.8 -03488.0 -07.6319 26263.4
 09 09 2013  08 46  -20.9814 26030.9 -03488.2 -07.6323 26263.6
 09 09 2013  08 47  -20.9804 26030.9 -03488.4 -07.6327 26263.6
 09 09 2013  08 48  -20.9796 26030.8 -03488.6 -07.6331 26263.6
 09 09 2013  08 49  -20.9790 26030.7 -03488.7 -07.6334 26263.5
 09 09 2013  08 50  -20.9782 26030.7 -03488.9 -07.6338 26263.5
 09 09 2013  08 51  -20.9775 26030.6 -03489.0 -07.6341 26263.4
 09 09 2013  08 52  -20.9770 26030.5 -03489.2 -07.6345 26263.3
 09 09 2013  08 53  -20.9763 26030.4 -03489.3 -07.6348 26263.2
 09 09 2013  08 54  -20.9757 26030.3 -03489.5 -07.6352 26263.2
 09 09 2013  08 55  -20.9752 26030.2 -03489.7 -07.6357 26263.1
 09 09 2013  08 56  -20.9747 26030.2 -03489.9 -07.6361 26263.1
 09 09 2013  08 57  -20.9743 26030.0 -03490.0 -07.6364 26262.9
 09 09 2013  08 58  -20.9738 26029.8 -03490.1 -07.6367 26262.7
 09 09 2013  08 59  -20.9735 26029.5 -03490.2 -07.6370 26262.5
 09 09 2013  09 00  -20.9735 26029.4 -03490.4 -07.6374 26262.4
 09 09 2013  09 01  -20.9734 26029.3 -03490.5 -07.6377 26262.3
 09 09 2013  09 02  -20.9729 26029.2 -03490.7 -07.6382 26262.3
 09 09 2013  09 03  -20.9726 26029.1 -03490.9 -07.6387 26262.1
 09 09 2013  09 04  -20.9723 26028.9 -03491.0 -07.6389 26262.0
 09 09 2013  09 05  -20.9718 26028.7 -03491.1 -07.6392 26261.7
 09 09 2013  09 06  -20.9716 26028.5 -03491.3 -07.6396 26261.6
 09 09 2013  09 07  -20.9713 26028.3 -03491.4 -07.6400 26261.4
 09 09 2013  09 08  -20.9712 26028.2 -03491.6 -07.6404 26261.3
 09 09 2013  09 09  -20.9705 26028.0 -03491.7 -07.6407 26261.1
 09 09 2013  09 10  -20.9705 26027.9 -03491.9 -07.6411 26261.1
 09 09 2013  09 11  -20.9704 26027.8 -03492.1 -07.6417 26261.0
 09 09 2013  09 12  -20.9702 26027.5 -03492.3 -07.6421 26260.8
 09 09 2013  09 13  -20.9700 26027.4 -03492.5 -07.6425 26260.7
 09 09 2013  09 14  -20.9698 26027.2 -03492.6 -07.6428 26260.5
 09 09 2013  09 15  -20.9699 26027.1 -03492.7 -07.6431 26260.4
 09 09 2013  09 16  -20.9701 26027.0 -03492.9 -07.6436 26260.3
 09 09 2013  09 17  -20.9700 26026.9 -03493.1 -07.6440 26260.2
 09 09 2013  09 18  -20.9700 26026.7 -03493.2 -07.6443 26260.1
 09 09 2013  09 19  -20.9700 26026.5 -03493.3 -07.6447 26259.9
 09 09 2013  09 20  -20.9699 26026.3 -03493.4 -07.6450 26259.7
 09 09 2013  09 21  -20.9699 26026.0 -03493.5 -07.6452 26259.5
 09 09 2013  09 22  -20.9702 26025.7 -03493.5 -07.6453 26259.2
 09 09 2013  09 23  -20.9703 26025.6 -03493.8 -07.6459 26259.0
 09 09 2013  09 24  -20.9703 26025.4 -03493.9 -07.6463 26258.8
 09 09 2013  09 25  -20.9707 26025.1 -03494.0 -07.6466 26258.6
 09 09 2013  09 26  -20.9707 26024.9 -03494.2 -07.6470 26258.4
 09 09 2013  09 27  -20.9711 26024.6 -03494.3 -07.6473 26258.1
 09 09 2013  09 28  -20.9711 26024.5 -03494.5 -07.6477 26258.1
 09 09 2013  09 29  -20.9709 26024.2 -03494.6 -07.6480 26257.8
 09 09 2013  09 30  -20.9714 26024.0 -03494.7 -07.6483 26257.6
 09 09 2013  09 31  -20.9719 26024.0 -03494.9 -07.6488 26257.6
 09 09 2013  09 32  -20.9720 26023.8 -03495.0 -07.6491 26257.4
 09 09 2013  09 33  -20.9726 26023.7 -03495.2 -07.6494 26257.3
 09 09 2013  09 34  -20.9729 26023.4 -03495.2 -07.6496 26257.1
 09 09 2013  09 35  -20.9727 26023.0 -03495.2 -07.6498 26256.7
 09 09 2013  09 36  -20.9729 26022.7 -03495.3 -07.6500 26256.4
 09 09 2013  09 37  -20.9735 26022.5 -03495.4 -07.6504 26256.2
 09 09 2013  09 38  -20.9739 26022.3 -03495.5 -07.6507 26256.0
 09 09 2013  09 39  -20.9740 26022.1 -03495.7 -07.6510 26255.8
 09 09 2013  09 40  -20.9744 26022.1 -03495.8 -07.6513 26255.8
 09 09 2013  09 41  -20.9747 26022.2 -03496.1 -07.6518 26256.0
 09 09 2013  09 42  -20.9748 26022.2 -03496.2 -07.6522 26256.0
 09 09 2013  09 43  -20.9753 26022.1 -03496.4 -07.6525 26255.9
 09 09 2013  09 44  -20.9759 26022.0 -03496.5 -07.6529 26255.9
 09 09 2013  09 45  -20.9761 26021.8 -03496.6 -07.6531 26255.7
 09 09 2013  09 46  -20.9764 26021.6 -03496.7 -07.6534 26255.5
 09 09 2013  09 47  -20.9767 26021.5 -03496.9 -07.6537 26255.4
 09 09 2013  09 48  -20.9771 26021.4 -03497.1 -07.6542 26255.4
 09 09 2013  09 49  -20.9774 26021.5 -03497.3 -07.6546 26255.4
 09 09 2013  09 50  -20.9784 26021.5 -03497.5 -07.6551 26255.5
 09 09 2013  09 51  -20.9787 26021.4 -03497.6 -07.6553 26255.4
 09 09 2013  09 52  -20.9792 26021.4 -03497.7 -07.6556 26255.4
 09 09 2013  09 53  -20.9799 26021.3 -03497.8 -07.6559 26255.4
 09 09 2013  09 54  -20.9801 26021.3 -03498.0 -07.6562 26255.4
 09 09 2013  09 55  -20.9804 26021.1 -03498.1 -07.6564 26255.2
 09 09 2013  09 56  -20.9807 26021.1 -03498.2 -07.6568 26255.1
 09 09 2013  09 57  -20.9812 26021.0 -03498.3 -07.6571 26255.1
 09 09 2013  09 58  -20.9816 26021.1 -03498.5 -07.6575 26255.2
 09 09 2013  09 59  -20.9818 26021.2 -03498.7 -07.6579 26255.3
 09 09 2013  10 00  -20.9820 26021.2 -03498.8 -07.6581 26255.3
 09 09 2013  10 01  -20.9825 26021.0 -03498.9 -07.6583 26255.2
 09 09 2013  10 02  -20.9834 26021.1 -03499.1 -07.6586 26255.3
 09 09 2013  10 03  -20.9837 26021.3 -03499.3 -07.6591 26255.5
 09 09 2013  10 04  -20.9838 26021.2 -03499.4 -07.6593 26255.5
 09 09 2013  10 05  -20.9846 26021.3 -03499.5 -07.6596 26255.6
 09 09 2013  10 06  -20.9852 26021.3 -03499.7 -07.6599 26255.6
 09 09 2013  10 07  -20.9854 26021.2 -03499.8 -07.6602 26255.5
 09 09 2013  10 08  -20.9855 26021.1 -03499.9 -07.6604 26255.5
 09 09 2013  10 09  -20.9859 26021.1 -03500.0 -07.6607 26255.4
 09 09 2013  10 10  -20.9863 26021.2 -03500.2 -07.6611 26255.6
 09 09 2013  10 11  -20.9866 26021.2 -03500.4 -07.6614 26255.6
 09 09 2013  10 12  -20.9870 26021.3 -03500.5 -07.6617 26255.7
 09 09 2013  10 13  -20.9877 26021.3 -03500.7 -07.6620 26255.7
 09 09 2013  10 14  -20.9884 26021.5 -03500.9 -07.6625 26256.0
 09 09 2013  10 15  -20.9888 26021.6 -03501.0 -07.6628 26256.1
 09 09 2013  10 16  -20.9891 26021.6 -03501.1 -07.6630 26256.0
 09 09 2013  10 17  -20.9895 26021.6 -03501.2 -07.6632 26256.0
 09 09 2013  10 18  -20.9901 26021.7 -03501.4 -07.6634 26256.2
 09 09 2013  10 19  -20.9911 26021.8 -03501.5 -07.6638 26256.3
 09 09 2013  10 20  -20.9917 26021.8 -03501.6 -07.6639 26256.3
 09 09 2013  10 21  -20.9919 26021.7 -03501.7 -07.6640 26256.2
 09 09 2013  10 22  -20.9924 26021.7 -03501.7 -07.6642 26256.3
 09 09 2013  10 23  -20.9932 26021.8 -03501.9 -07.6645 26256.3
 09 09 2013  10 24  -20.9936 26021.8 -03502.0 -07.6647 26256.3
 09 09 2013  10 25  -20.9940 26022.0 -03502.1 -07.6650 26256.6
 09 09 2013  10 26  -20.9944 26022.1 -03502.2 -07.6652 26256.7
 09 09 2013  10 27  -20.9944 26022.1 -03502.3 -07.6653 26256.7
 09 09 2013  10 28  -20.9948 26022.1 -03502.4 -07.6655 26256.7
 09 09 2013  10 29  -20.9952 26021.9 -03502.4 -07.6656 26256.6
 09 09 2013  10 30  -20.9957 26022.0 -03502.5 -07.6658 26256.6
 09 09 2013  10 31  -20.9960 26022.0 -03502.6 -07.6661 26256.7
 09 09 2013  10 32  -20.9965 26022.0 -03502.8 -07.6663 26256.7
 09 09 2013  10 33  -20.9968 26022.3 -03503.0 -07.6667 26257.0
 09 09 2013  10 34  -20.9977 26022.4 -03503.1 -07.6670 26257.1
 09 09 2013  10 35  -20.9983 26022.3 -03503.2 -07.6672 26257.1
 09 09 2013  10 36  -20.9988 26022.3 -03503.2 -07.6673 26257.0
 09 09 2013  10 37  -20.9988 26022.4 -03503.4 -07.6676 26257.2
 09 09 2013  10 38  -20.9994 26022.4 -03503.5 -07.6679 26257.2
 09 09 2013  10 39  -21.0000 26022.4 -03503.7 -07.6682 26257.2
 09 09 2013  10 40  -21.0007 26022.4 -03503.7 -07.6683 26257.2
 09 09 2013  10 41  -21.0012 26022.6 -03503.9 -07.6686 26257.4
 09 09 2013  10 42  -21.0017 26022.6 -03504.0 -07.6688 26257.5
 09 09 2013  10 43  -21.0021 26022.4 -03503.9 -07.6687 26257.3
 09 09 2013  10 44  -21.0027 26022.3 -03504.0 -07.6689 26257.2
 09 09 2013  10 45  -21.0035 26022.3 -03504.1 -07.6691 26257.1
 09 09 2013  10 46  -21.0040 26022.3 -03504.2 -07.6694 26257.2
 09 09 2013  10 47  -21.0046 26022.4 -03504.4 -07.6697 26257.3
 09 09 2013  10 48  -21.0047 26022.6 -03504.5 -07.6699 26257.6
 09 09 2013  10 49  -21.0045 26022.6 -03504.5 -07.6700 26257.6
 09 09 2013  10 50  -21.0055 26022.7 -03504.7 -07.6703 26257.7
 09 09 2013  10 51  -21.0067 26022.8 -03504.8 -07.6705 26257.8
 09 09 2013  10 52  -21.0075 26022.9 -03504.9 -07.6708 26257.8
 09 09 2013  10 53  -21.0076 26023.0 -03505.0 -07.6709 26258.0
 09 09 2013  10 54  -21.0079 26023.1 -03505.1 -07.6710 26258.1
 09 09 2013  10 55  -21.0081 26023.3 -03505.1 -07.6710 26258.3
 09 09 2013  10 56  -21.0088 26023.2 -03505.0 -07.6709 26258.2
 09 09 2013  10 57  -21.0098 26023.4 -03505.1 -07.6710 26258.4
 09 09 2013  10 58  -21.0108 26023.7 -03505.2 -07.6711 26258.7
 09 09 2013  10 59  -21.0114 26023.8 -03505.1 -07.6710 26258.8
 09 09 2013  11 00  -21.0119 26023.9 -03505.2 -07.6710 26258.9
 09 09 2013  11 01  -21.0124 26024.3 -03505.3 -07.6711 26259.3
 09 09 2013  11 02  -21.0129 26024.4 -03505.3 -07.6710 26259.4
 09 09 2013  11 03  -21.0131 26024.6 -03505.2 -07.6709 26259.6
 09 09 2013  11 04  -21.0134 26024.7 -03505.2 -07.6709 26259.7
 09 09 2013  11 05  -21.0138 26024.9 -03505.2 -07.6707 26259.9
 09 09 2013  11 06  -21.0144 26024.8 -03505.1 -07.6705 26259.8
 09 09 2013  11 07  -21.0150 26024.9 -03505.0 -07.6704 26259.8
 09 09 2013  11 08  -21.0154 26024.8 -03504.9 -07.6702 26259.7
 09 09 2013  11 09  -21.0160 26024.8 -03504.9 -07.6702 26259.8
 09 09 2013  11 10  -21.0166 26025.0 -03505.0 -07.6702 26259.9
 09 09 2013  11 11  -21.0171 26025.2 -03505.1 -07.6704 26260.2
 09 09 2013  11 12  -21.0177 26025.5 -03505.1 -07.6705 26260.5
 09 09 2013  11 13  -21.0184 26025.8 -03505.2 -07.6705 26260.8
 09 09 2013  11 14  -21.0186 26026.0 -03505.2 -07.6705 26261.0
 09 09 2013  11 15  -21.0189 26026.3 -03505.3 -07.6705 26261.2
 09 09 2013  11 16  -21.0193 26026.5 -03505.3 -07.6705 26261.5
 09 09 2013  11 17  -21.0197 26026.8 -03505.3 -07.6705 26261.8
 09 09 2013  11 18  -21.0200 26027.1 -03505.4 -07.6706 26262.1
 09 09 2013  11 19  -21.0206 26027.4 -03505.4 -07.6706 26262.4
 09 09 2013  11 20  -21.0212 26027.4 -03505.4 -07.6705 26262.4
 09 09 2013  11 21  -21.0216 26027.5 -03505.3 -07.6703 26262.5
 09 09 2013  11 22  -21.0221 26027.8 -03505.4 -07.6704 26262.8
 09 09 2013  11 23  -21.0224 26028.3 -03505.5 -07.6705 26263.3
 09 09 2013  11 24  -21.0227 26028.7 -03505.6 -07.6704 26263.7
 09 09 2013  11 25  -21.0228 26029.0 -03505.5 -07.6703 26264.0
 09 09 2013  11 26  -21.0231 26029.3 -03505.5 -07.6701 26264.3
 09 09 2013  11 27  -21.0236 26029.5 -03505.4 -07.6699 26264.5
 09 09 2013  11 28  -21.0239 26030.1 -03505.5 -07.6699 26265.1
 09 09 2013  11 29  -21.0243 26030.4 -03505.5 -07.6697 26265.4
 09 09 2013  11 30  -21.0244 26030.7 -03505.3 -07.6694 26265.7
 09 09 2013  11 31  -21.0245 26030.8 -03505.2 -07.6690 26265.7
 09 09 2013  11 32  -21.0249 26031.1 -03505.1 -07.6688 26266.0
 09 09 2013  11 33  -21.0253 26031.4 -03505.1 -07.6686 26266.3
 09 09 2013  11 34  -21.0257 26031.4 -03504.9 -07.6683 26266.3
 09 09 2013  11 35  -21.0262 26031.5 -03504.8 -07.6680 26266.4
 09 09 2013  11 36  -21.0266 26031.9 -03504.8 -07.6679 26266.8
 09 09 2013  11 37  -21.0269 26032.4 -03504.8 -07.6678 26267.2
 09 09 2013  11 38  -21.0270 26032.3 -03504.6 -07.6673 26267.2
 09 09 2013  11 39  -21.0272 26032.8 -03504.5 -07.6671 26267.6
 09 09 2013  11 40  -21.0277 26032.9 -03504.4 -07.6667 26267.7
 09 09 2013  11 41  -21.0283 26033.0 -03504.2 -07.6664 26267.8
 09 09 2013  11 42  -21.0287 26033.4 -03504.2 -07.6661 26268.2
 09 09 2013  11 43  -21.0289 26033.9 -03504.1 -07.6659 26268.6
 09 09 2013  11 44  -21.0290 26034.2 -03504.1 -07.6656 26268.9
 09 09 2013  11 45  -21.0293 26034.3 -03503.9 -07.6652 26269.1
 09 09 2013  11 46  -21.0296 26034.6 -03503.8 -07.6650 26269.4
 09 09 2013  11 47  -21.0297 26034.9 -03503.7 -07.6647 26269.6
 09 09 2013  11 48  -21.0300 26035.2 -03503.7 -07.6645 26269.9
 09 09 2013  11 49  -21.0303 26035.5 -03503.6 -07.6643 26270.2
 09 09 2013  11 50  -21.0307 26035.8 -03503.6 -07.6641 26270.5
 09 09 2013  11 51  -21.0315 26036.1 -03503.5 -07.6639 26270.8
 09 09 2013  11 52  -21.0323 26036.5 -03503.5 -07.6637 26271.1
 09 09 2013  11 53  -21.0329 26036.8 -03503.4 -07.6635 26271.4
 09 09 2013  11 54  -21.0337 26036.9 -03503.3 -07.6631 26271.5
 09 09 2013  11 55  -21.0345 26037.0 -03503.1 -07.6628 26271.6
 09 09 2013  11 56  -21.0352 26037.0 -03502.9 -07.6624 26271.6
 09 09 2013  11 57  -21.0358 26036.9 -03502.7 -07.6619 26271.5
 09 09 2013  11 58  -21.0364 26037.0 -03502.6 -07.6617 26271.5
 09 09 2013  11 59  -21.0367 26037.4 -03502.6 -07.6616 26271.9
 09 09 2013  12 00  -21.0370 26037.8 -03502.6 -07.6614 26272.3
 09 09 2013  12 01  -21.0374 26037.9 -03502.5 -07.6611 26272.5
 09 09 2013  12 02  -21.0379 26038.5 -03502.5 -07.6610 26273.0
 09 09 2013  12 03  -21.0383 26039.1 -03502.5 -07.6608 26273.6
 09 09 2013  12 04  -21.0389 26039.6 -03502.4 -07.6604 26274.1
 09 09 2013  12 05  -21.0397 26039.9 -03502.2 -07.6599 26274.3
 09 09 2013  12 06  -21.0408 26040.0 -03502.0 -07.6594 26274.4
 09 09 2013  12 07  -21.0419 26040.3 -03501.8 -07.6590 26274.7
 09 09 2013  12 08  -21.0430 26040.7 -03501.7 -07.6587 26275.1
 09 09 2013  12 09  -21.0438 26041.0 -03501.6 -07.6582 26275.4
 09 09 2013  12 10  -21.0443 26041.3 -03501.3 -07.6577 26275.6
 09 09 2013  12 11  -21.0448 26041.5 -03501.1 -07.6571 26275.8
 09 09 2013  12 12  -21.0453 26042.0 -03501.0 -07.6567 26276.3
 09 09 2013  12 13  -21.0455 26042.1 -03500.7 -07.6561 26276.3
 09 09 2013  12 14  -21.0458 26042.1 -03500.4 -07.6554 26276.3
 09 09 2013  12 15  -21.0462 26042.2 -03500.2 -07.6550 26276.4
 09 09 2013  12 16  -21.0464 26042.3 -03500.1 -07.6546 26276.4
 09 09 2013  12 17  -21.0466 26042.3 -03499.9 -07.6543 26276.5
 09 09 2013  12 18  -21.0468 26042.6 -03499.9 -07.6541 26276.7
 09 09 2013  12 19  -21.0470 26043.1 -03500.0 -07.6542 26277.2
 09 09 2013  12 20  -21.0475 26043.6 -03500.1 -07.6542 26277.7
 09 09 2013  12 21  -21.0478 26044.0 -03500.0 -07.6541 26278.1
 09 09 2013  12 22  -21.0482 26044.5 -03500.1 -07.6541 26278.7
 09 09 2013  12 23  -21.0488 26044.8 -03500.1 -07.6539 26279.0
 09 09 2013  12 24  -21.0494 26045.1 -03500.0 -07.6537 26279.2
 09 09 2013  12 25  -21.0499 26045.2 -03499.9 -07.6534 26279.3
 09 09 2013  12 26  -21.0505 26045.6 -03499.9 -07.6533 26279.7
 09 09 2013  12 27  -21.0512 26045.9 -03499.9 -07.6533 26280.0
 09 09 2013  12 28  -21.0519 26046.2 -03499.9 -07.6531 26280.3
 09 09 2013  12 29  -21.0525 26046.3 -03499.8 -07.6528 26280.4
 09 09 2013  12 30  -21.0530 26046.5 -03499.7 -07.6526 26280.6
 09 09 2013  12 31  -21.0533 26046.9 -03499.7 -07.6525 26281.0
 09 09 2013  12 32  -21.0536 26047.6 -03499.8 -07.6525 26281.7
 09 09 2013  12 33  -21.0538 26048.2 -03499.8 -07.6523 26282.3
 09 09 2013  12 34  -21.0539 26048.7 -03499.7 -07.6519 26282.8
 09 09 2013  12 35  -21.0539 26049.1 -03499.5 -07.6514 26283.2
 09 09 2013  12 36  -21.0538 26049.5 -03499.3 -07.6509 26283.5
 09 09 2013  12 37  -21.0537 26050.0 -03499.2 -07.6505 26284.0
 09 09 2013  12 38  -21.0535 26050.5 -03499.0 -07.6500 26284.4
 09 09 2013  12 39  -21.0533 26051.0 -03498.9 -07.6496 26284.9
 09 09 2013  12 40  -21.0533 26051.5 -03498.8 -07.6493 26285.4
 09 09 2013  12 41  -21.0530 26052.0 -03498.7 -07.6488 26285.9
 09 09 2013  12 42  -21.0527 26052.7 -03498.5 -07.6483 26286.6
 09 09 2013  12 43  -21.0522 26053.4 -03498.4 -07.6479 26287.2
 09 09 2013  12 44  -21.0517 26053.8 -03498.2 -07.6472 26287.6
 09 09 2013  12 45  -21.0512 26054.9 -03498.2 -07.6469 26288.7
 09 09 2013  12 46  -21.0507 26055.5 -03497.9 -07.6462 26289.2
 09 09 2013  12 47  -21.0504 26055.9 -03497.7 -07.6455 26289.6
 09 09 2013  12 48  -21.0507 26055.9 -03497.3 -07.6447 26289.5
 09 09 2013  12 49  -21.0513 26055.6 -03497.0 -07.6441 26289.2
 09 09 2013  12 50  -21.0517 26055.6 -03496.8 -07.6437 26289.2
 09 09 2013  12 51  -21.0519 26055.8 -03496.7 -07.6434 26289.4
 09 09 2013  12 52  -21.0518 26055.9 -03496.6 -07.6432 26289.5
 09 09 2013  12 53  -21.0518 26056.1 -03496.6 -07.6432 26289.7
 09 09 2013  12 54  -21.0519 26056.1 -03496.5 -07.6430 26289.7
 09 09 2013  12 55  -21.0523 26056.0 -03496.5 -07.6429 26289.6
 09 09 2013  12 56  -21.0529 26056.0 -03496.5 -07.6430 26289.6
 09 09 2013  12 57  -21.0538 26056.1 -03496.6 -07.6432 26289.7
 09 09 2013  12 58  -21.0545 26056.4 -03496.8 -07.6434 26290.0
 09 09 2013  12 59  -21.0548 26056.5 -03496.8 -07.6435 26290.1
 09 09 2013  13 00  -21.0553 26056.6 -03496.8 -07.6434 26290.2
 09 09 2013  13 01  -21.0555 26056.6 -03496.8 -07.6433 26290.2
 09 09 2013  13 02  -21.0557 26056.5 -03496.7 -07.6432 26290.1
 09 09 2013  13 03  -21.0559 26056.5 -03496.7 -07.6432 26290.1
 09 09 2013  13 04  -21.0562 26056.7 -03496.7 -07.6432 26290.2
 09 09 2013  13 05  -21.0565 26056.8 -03496.7 -07.6432 26290.3
 09 09 2013  13 06  -21.0568 26057.0 -03496.8 -07.6433 26290.6
 09 09 2013  13 07  -21.0571 26057.2 -03496.8 -07.6433 26290.8
 09 09 2013  13 08  -21.0573 26057.2 -03496.7 -07.6431 26290.8
 09 09 2013  13 09  -21.0575 26057.3 -03496.7 -07.6430 26290.9
 09 09 2013  13 10  -21.0576 26057.5 -03496.7 -07.6430 26291.0
 09 09 2013  13 11  -21.0578 26057.7 -03496.8 -07.6430 26291.2
 09 09 2013  13 12  -21.0579 26058.0 -03496.8 -07.6430 26291.6
 09 09 2013  13 13  -21.0580 26058.3 -03496.8 -07.6430 26291.9
 09 09 2013  13 14  -21.0580 26058.5 -03496.8 -07.6429 26292.1
 09 09 2013  13 15  -21.0580 26058.6 -03496.7 -07.6427 26292.2
 09 09 2013  13 16  -21.0578 26058.7 -03496.6 -07.6424 26292.3
 09 09 2013  13 17  -21.0575 26058.9 -03496.6 -07.6423 26292.5
 09 09 2013  13 18  -21.0573 26059.3 -03496.6 -07.6423 26292.8
 09 09 2013  13 19  -21.0571 26059.4 -03496.6 -07.6421 26292.9
 09 09 2013  13 20  -21.0572 26059.6 -03496.5 -07.6420 26293.2
 09 09 2013  13 21  -21.0571 26059.8 -03496.5 -07.6418 26293.3
 09 09 2013  13 22  -21.0570 26060.0 -03496.4 -07.6416 26293.5
 09 09 2013  13 23  -21.0567 26060.3 -03496.3 -07.6414 26293.8
 09 09 2013  13 24  -21.0565 26060.6 -03496.3 -07.6412 26294.1
 09 09 2013  13 25  -21.0562 26060.9 -03496.3 -07.6411 26294.4
 09 09 2013  13 26  -21.0561 26061.2 -03496.2 -07.6408 26294.6
 09 09 2013  13 27  -21.0557 26061.5 -03496.2 -07.6406 26294.9
 09 09 2013  13 28  -21.0554 26062.0 -03496.2 -07.6405 26295.5
 09 09 2013  13 29  -21.0549 26062.5 -03496.2 -07.6403 26295.9
 09 09 2013  13 30  -21.0546 26063.0 -03496.1 -07.6401 26296.4
 09 09 2013  13 31  -21.0544 26063.4 -03496.0 -07.6398 26296.8
 09 09 2013  13 32  -21.0541 26063.7 -03496.0 -07.6395 26297.1
 09 09 2013  13 33  -21.0537 26064.1 -03495.8 -07.6392 26297.5
 09 09 2013  13 34  -21.0533 26064.3 -03495.7 -07.6388 26297.7
 09 09 2013  13 35  -21.0532 26064.7 -03495.7 -07.6386 26298.1
 09 09 2013  13 36  -21.0530 26065.1 -03495.6 -07.6384 26298.5
 09 09 2013  13 37  -21.0527 26065.3 -03495.4 -07.6380 26298.6
 09 09 2013  13 38  -21.0525 26065.3 -03495.3 -07.6377 26298.7
 09 09 2013  13 39  -21.0522 26065.6 -03495.3 -07.6376 26299.0
 09 09 2013  13 40  -21.0519 26065.9 -03495.3 -07.6374 26299.2
 09 09 2013  13 41  -21.0515 26066.1 -03495.2 -07.6372 26299.4
 09 09 2013  13 42  -21.0511 26066.4 -03495.2 -07.6371 26299.6
 09 09 2013  13 43  -21.0506 26066.5 -03495.1 -07.6369 26299.8
 09 09 2013  13 44  -21.0501 26066.8 -03495.1 -07.6368 26300.1
 09 09 2013  13 45  -21.0497 26067.0 -03495.1 -07.6368 26300.3
 09 09 2013  13 46  -21.0494 26067.4 -03495.2 -07.6368 26300.7
 09 09 2013  13 47  -21.0493 26067.8 -03495.3 -07.6369 26301.1
 09 09 2013  13 48  -21.0491 26068.1 -03495.2 -07.6367 26301.4
 09 09 2013  13 49  -21.0489 26068.3 -03495.2 -07.6365 26301.6
 09 09 2013  13 50  -21.0487 26068.6 -03495.1 -07.6363 26301.8
 09 09 2013  13 51  -21.0485 26069.0 -03495.1 -07.6362 26302.2
 09 09 2013  13 52  -21.0482 26069.3 -03495.1 -07.6360 26302.6
 09 09 2013  13 53  -21.0479 26069.8 -03495.1 -07.6358 26303.0
 09 09 2013  13 54  -21.0477 26070.3 -03495.0 -07.6355 26303.5
 09 09 2013  13 55  -21.0475 26070.5 -03494.9 -07.6352 26303.7
 09 09 2013  13 56  -21.0473 26070.7 -03494.7 -07.6349 26303.9
 09 09 2013  13 57  -21.0471 26070.9 -03494.6 -07.6346 26304.1
 09 09 2013  13 58  -21.0466 26071.1 -03494.5 -07.6343 26304.2
 09 09 2013  13 59  -21.0464 26071.3 -03494.5 -07.6341 26304.5
 09 09 2013  14 00  -21.0462 26071.5 -03494.4 -07.6340 26304.6
 09 09 2013  14 01  -21.0462 26071.7 -03494.4 -07.6339 26304.9
 09 09 2013  14 02  -21.0461 26071.8 -03494.3 -07.6337 26304.9
 09 09 2013  14 03  -21.0459 26071.8 -03494.2 -07.6335 26305.0
 09 09 2013  14 04  -21.0457 26071.9 -03494.2 -07.6333 26305.0
 09 09 2013  14 05  -21.0457 26072.0 -03494.1 -07.6332 26305.1
 09 09 2013  14 06  -21.0456 26072.3 -03494.1 -07.6331 26305.4
 09 09 2013  14 07  -21.0458 26072.4 -03494.1 -07.6330 26305.5
 09 09 2013  14 08  -21.0460 26072.6 -03494.0 -07.6328 26305.7
 09 09 2013  14 09  -21.0461 26072.7 -03493.9 -07.6326 26305.7
 09 09 2013  14 10  -21.0465 26072.7 -03493.8 -07.6323 26305.7
 09 09 2013  14 11  -21.0467 26072.9 -03493.8 -07.6322 26306.0
 09 09 2013  14 12  -21.0468 26073.2 -03493.8 -07.6321 26306.3
 09 09 2013  14 13  -21.0470 26073.6 -03493.7 -07.6319 26306.6
 09 09 2013  14 14  -21.0474 26073.7 -03493.6 -07.6316 26306.7
 09 09 2013  14 15  -21.0479 26073.7 -03493.5 -07.6313 26306.7
 09 09 2013  14 16  -21.0482 26073.8 -03493.3 -07.6309 26306.7
 09 09 2013  14 17  -21.0485 26073.7 -03493.1 -07.6305 26306.6
 09 09 2013  14 18  -21.0491 26073.8 -03493.1 -07.6304 26306.8
 09 09 2013  14 19  -21.0498 26074.3 -03493.1 -07.6302 26307.2
 09 09 2013  14 20  -21.0504 26074.6 -03493.0 -07.6300 26307.5
 09 09 2013  14 21  -21.0510 26074.8 -03492.8 -07.6296 26307.7
 09 09 2013  14 22  -21.0514 26074.7 -03492.6 -07.6290 26307.6
 09 09 2013  14 23  -21.0516 26074.8 -03492.4 -07.6286 26307.7
 09 09 2013  14 24  -21.0521 26075.0 -03492.3 -07.6283 26307.9
 09 09 2013  14 25  -21.0526 26075.2 -03492.2 -07.6280 26308.0
 09 09 2013  14 26  -21.0529 26075.5 -03492.1 -07.6278 26308.3
 09 09 2013  14 27  -21.0531 26075.8 -03492.0 -07.6275 26308.6
 09 09 2013  14 28  -21.0533 26076.1 -03491.9 -07.6272 26308.9
 09 09 2013  14 29  -21.0535 26076.4 -03491.7 -07.6267 26309.1
 09 09 2013  14 30  -21.0537 26076.6 -03491.5 -07.6263 26309.3
 09 09 2013  14 31  -21.0538 26076.7 -03491.4 -07.6258 26309.4
 09 09 2013  14 32  -21.0538 26076.5 -03491.1 -07.6252 26309.2
 09 09 2013  14 33  -21.0538 26076.5 -03490.9 -07.6249 26309.1
 09 09 2013  14 34  -21.0539 26076.3 -03490.6 -07.6244 26308.9
 09 09 2013  14 35  -21.0540 26076.3 -03490.6 -07.6242 26308.9
 09 09 2013  14 36  -21.0540 26076.3 -03490.4 -07.6239 26308.8
 09 09 2013  14 37  -21.0541 26076.4 -03490.4 -07.6238 26308.9
 09 09 2013  14 38  -21.0541 26076.2 -03490.2 -07.6235 26308.7
 09 09 2013  14 39  -21.0540 26076.1 -03490.0 -07.6232 26308.6
 09 09 2013  14 40  -21.0539 26075.9 -03489.9 -07.6229 26308.4
 09 09 2013  14 41  -21.0540 26075.7 -03489.8 -07.6228 26308.1
 09 09 2013  14 42  -21.0542 26075.6 -03489.8 -07.6228 26308.1
 09 09 2013  14 43  -21.0542 26075.5 -03489.8 -07.6228 26308.0
 09 09 2013  14 44  -21.0543 26075.6 -03489.8 -07.6228 26308.1
 09 09 2013  14 45  -21.0545 26075.8 -03489.9 -07.6230 26308.3
 09 09 2013  14 46  -21.0545 26075.8 -03489.9 -07.6229 26308.3
 09 09 2013  14 47  -21.0546 26076.0 -03489.9 -07.6229 26308.5
 09 09 2013  14 48  -21.0546 26075.9 -03489.8 -07.6228 26308.4
 09 09 2013  14 49  -21.0545 26075.8 -03489.7 -07.6226 26308.3
 09 09 2013  14 50  -21.0544 26075.8 -03489.7 -07.6225 26308.2
 09 09 2013  14 51  -21.0543 26075.6 -03489.6 -07.6223 26308.1
 09 09 2013  14 52  -21.0543 26075.6 -03489.5 -07.6223 26308.0
 09 09 2013  14 53  -21.0544 26075.6 -03489.5 -07.6222 26308.0
 09 09 2013  14 54  -21.0546 26075.7 -03489.5 -07.6222 26308.2
 09 09 2013  14 55  -21.0548 26075.8 -03489.5 -07.6220 26308.3
 09 09 2013  14 56  -21.0551 26076.0 -03489.4 -07.6218 26308.4
 09 09 2013  14 57  -21.0554 26076.0 -03489.2 -07.6215 26308.5
 09 09 2013  14 58  -21.0557 26076.3 -03489.2 -07.6213 26308.7
 09 09 2013  14 59  -21.0560 26076.4 -03489.0 -07.6209 26308.8
 09 09 2013  15 00  -21.0562 26076.5 -03488.9 -07.6205 26308.9
 09 09 2013  15 01  -21.0564 26076.5 -03488.6 -07.6199 26308.8
 09 09 2013  15 02  -21.0566 26076.5 -03488.4 -07.6196 26308.8
 09 09 2013  15 03  -21.0566 26076.8 -03488.3 -07.6193 26309.1
 09 09 2013  15 04  -21.0567 26077.0 -03488.2 -07.6189 26309.2
 09 09 2013  15 05  -21.0567 26077.1 -03487.9 -07.6184 26309.3
 09 09 2013  15 06  -21.0567 26077.2 -03487.8 -07.6180 26309.4
 09 09 2013  15 07  -21.0567 26077.3 -03487.6 -07.6177 26309.5
 09 09 2013  15 08  -21.0568 26077.5 -03487.6 -07.6174 26309.7
 09 09 2013  15 09  -21.0566 26077.7 -03487.4 -07.6171 26309.9
 09 09 2013  15 10  -21.0565 26077.7 -03487.2 -07.6166 26309.9
 09 09 2013  15 11  -21.0564 26077.6 -03487.0 -07.6162 26309.7
 09 09 2013  15 12  -21.0563 26077.6 -03486.8 -07.6158 26309.7
 09 09 2013  15 13  -21.0564 26077.7 -03486.7 -07.6156 26309.8
 09 09 2013  15 14  -21.0566 26077.8 -03486.6 -07.6153 26309.9
 09 09 2013  15 15  -21.0566 26077.9 -03486.5 -07.6151 26309.9
 09 09 2013  15 16  -21.0568 26077.9 -03486.4 -07.6148 26309.9
 09 09 2013  15 17  -21.0569 26077.7 -03486.2 -07.6144 26309.7
 09 09 2013  15 18  -21.0571 26077.6 -03486.1 -07.6142 26309.6
 09 09 2013  15 19  -21.0574 26077.8 -03486.1 -07.6141 26309.7
 09 09 2013  15 20  -21.0576 26077.9 -03486.0 -07.6139 26309.9
 09 09 2013  15 21  -21.0580 26077.9 -03485.8 -07.6136 26309.8
 09 09 2013  15 22  -21.0584 26077.9 -03485.7 -07.6134 26309.9
 09 09 2013  15 23  -21.0588 26077.9 -03485.6 -07.6131 26309.9
 09 09 2013  15 24  -21.0591 26078.1 -03485.5 -07.6128 26310.0
 09 09 2013  15 25  -21.0594 26078.0 -03485.3 -07.6124 26309.9
 09 09 2013  15 26  -21.0597 26077.9 -03485.1 -07.6121 26309.7
 09 09 2013  15 27  -21.0599 26078.1 -03485.1 -07.6120 26309.9
 09 09 2013  15 28  -21.0602 26077.9 -03484.9 -07.6116 26309.8
 09 09 2013  15 29  -21.0604 26078.0 -03484.8 -07.6112 26309.8
 09 09 2013  15 30  -21.0610 26078.0 -03484.6 -07.6110 26309.8
 09 09 2013  15 31  -21.0612 26078.0 -03484.5 -07.6107 26309.7
 09 09 2013  15 32  -21.0612 26077.8 -03484.3 -07.6102 26309.6
 09 09 2013  15 33  -21.0613 26077.9 -03484.2 -07.6100 26309.7
 09 09 2013  15 34  -21.0616 26078.3 -03484.2 -07.6100 26310.0
 09 09 2013  15 35  -21.0618 26078.4 -03484.1 -07.6097 26310.1
 09 09 2013  15 36  -21.0620 26078.3 -03483.9 -07.6093 26310.0
 09 09 2013  15 37  -21.0623 26078.5 -03483.9 -07.6091 26310.2
 09 09 2013  15 38  -21.0625 26078.6 -03483.7 -07.6088 26310.3
 09 09 2013  15 39  -21.0628 26078.7 -03483.6 -07.6085 26310.3
 09 09 2013  15 40  -21.0630 26078.6 -03483.4 -07.6080 26310.2
 09 09 2013  15 41  -21.0630 26078.6 -03483.2 -07.6077 26310.2
 09 09 2013  15 42  -21.0632 26078.1 -03482.9 -07.6071 26309.7
 09 09 2013  15 43  -21.0633 26078.2 -03482.7 -07.6068 26309.7
 09 09 2013  15 44  -21.0636 26078.1 -03482.5 -07.6064 26309.6
 09 09 2013  15 45  -21.0641 26078.0 -03482.4 -07.6061 26309.5
 09 09 2013  15 46  -21.0644 26077.8 -03482.1 -07.6056 26309.2
 09 09 2013  15 47  -21.0648 26077.7 -03481.9 -07.6052 26309.1
 09 09 2013  15 48  -21.0653 26077.6 -03481.8 -07.6049 26309.0
 09 09 2013  15 49  -21.0657 26077.3 -03481.5 -07.6044 26308.7
 09 09 2013  15 50  -21.0662 26077.4 -03481.4 -07.6041 26308.8
 09 09 2013  15 51  -21.0666 26077.4 -03481.2 -07.6038 26308.8
 09 09 2013  15 52  -21.0669 26077.2 -03481.0 -07.6033 26308.5
 09 09 2013  15 53  -21.0671 26077.0 -03480.8 -07.6029 26308.3
 09 09 2013  15 54  -21.0675 26076.8 -03480.5 -07.6025 26308.0
 09 09 2013  15 55  -21.0679 26076.5 -03480.3 -07.6021 26307.7
 09 09 2013  15 56  -21.0683 26076.4 -03480.2 -07.6018 26307.6
 09 09 2013  15 57  -21.0686 26076.3 -03480.0 -07.6014 26307.5
 09 09 2013  15 58  -21.0690 26076.3 -03479.8 -07.6011 26307.4
 09 09 2013  15 59  -21.0695 26076.4 -03479.7 -07.6007 26307.5
 09 09 2013  16 00  -21.0702 26075.9 -03479.3 -07.6000 26307.0
 09 09 2013  16 01  -21.0703 26075.8 -03479.0 -07.5994 26306.8
 09 09 2013  16 02  -21.0706 26075.3 -03478.6 -07.5987 26306.4
 09 09 2013  16 03  -21.0706 26075.0 -03478.2 -07.5980 26306.0
 09 09 2013  16 04  -21.0707 26074.4 -03477.7 -07.5971 26305.3
 09 09 2013  16 05  -21.0707 26073.8 -03477.3 -07.5964 26304.6
 09 09 2013  16 06  -21.0707 26073.7 -03477.1 -07.5959 26304.5
 09 09 2013  16 07  -21.0708 26073.5 -03476.8 -07.5953 26304.3
 09 09 2013  16 08  -21.0707 26073.6 -03476.5 -07.5948 26304.3
 09 09 2013  16 09  -21.0703 26073.3 -03476.2 -07.5941 26304.0
 09 09 2013  16 10  -21.0700 26072.9 -03475.8 -07.5934 26303.5
 09 09 2013  16 11  -21.0699 26072.8 -03475.6 -07.5929 26303.4
 09 09 2013  16 12  -21.0697 26072.7 -03475.3 -07.5923 26303.3
 09 09 2013  16 13  -21.0694 26072.8 -03475.1 -07.5919 26303.4
 09 09 2013  16 14  -21.0688 26072.5 -03474.8 -07.5912 26303.1
 09 09 2013  16 15  -21.0683 26072.3 -03474.5 -07.5907 26302.8
 09 09 2013  16 16  -21.0681 26072.3 -03474.4 -07.5904 26302.8
 09 09 2013  16 17  -21.0679 26072.3 -03474.2 -07.5901 26302.8
 09 09 2013  16 18  -21.0677 26072.3 -03474.0 -07.5895 26302.7
 09 09 2013  16 19  -21.0674 26072.2 -03473.8 -07.5891 26302.6
 09 09 2013  16 20  -21.0673 26072.3 -03473.6 -07.5889 26302.6
 09 09 2013  16 21  -21.0669 26071.9 -03473.3 -07.5883 26302.2
 09 09 2013  16 22  -21.0663 26071.4 -03473.0 -07.5877 26301.7
 09 09 2013  16 23  -21.0660 26071.2 -03472.9 -07.5875 26301.5
 09 09 2013  16 24  -21.0659 26070.8 -03472.7 -07.5872 26301.0
 09 09 2013  16 25  -21.0657 26070.8 -03472.6 -07.5871 26301.1
 09 09 2013  16 26  -21.0653 26070.4 -03472.4 -07.5867 26300.6
 09 09 2013  16 27  -21.0650 26070.3 -03472.3 -07.5866 26300.5
 09 09 2013  16 28  -21.0645 26069.9 -03472.2 -07.5864 26300.1
 09 09 2013  16 29  -21.0642 26069.7 -03472.1 -07.5863 26299.9
 09 09 2013  16 30  -21.0638 26069.6 -03472.0 -07.5861 26299.8
 09 09 2013  16 31  -21.0633 26069.5 -03472.0 -07.5861 26299.7
 09 09 2013  16 32  -21.0629 26069.3 -03471.9 -07.5861 26299.5
 09 09 2013  16 33  -21.0624 26068.7 -03471.8 -07.5858 26298.8
 09 09 2013  16 34  -21.0620 26068.3 -03471.7 -07.5858 26298.5
 09 09 2013  16 35  -21.0618 26067.9 -03471.6 -07.5857 26298.1
 09 09 2013  16 36  -21.0617 26067.7 -03471.6 -07.5857 26297.9
 09 09 2013  16 37  -21.0616 26067.6 -03471.6 -07.5857 26297.8
 09 09 2013  16 38  -21.0615 26067.3 -03471.4 -07.5855 26297.4
 09 09 2013  16 39  -21.0613 26067.1 -03471.3 -07.5853 26297.3
 09 09 2013  16 40  -21.0612 26067.1 -03471.3 -07.5852 26297.3
 09 09 2013  16 41  -21.0611 26067.0 -03471.1 -07.5850 26297.1
 09 09 2013  16 42  -21.0609 26066.9 -03471.0 -07.5847 26297.0
 09 09 2013  16 43  -21.0606 26066.5 -03470.8 -07.5845 26296.6
 09 09 2013  16 44  -21.0602 26066.0 -03470.6 -07.5841 26296.1
 09 09 2013  16 45  -21.0599 26065.9 -03470.5 -07.5838 26295.9
 09 09 2013  16 46  -21.0595 26066.1 -03470.5 -07.5838 26296.1
 09 09 2013  16 47  -21.0589 26066.1 -03470.4 -07.5836 26296.1
 09 09 2013  16 48  -21.0582 26065.8 -03470.1 -07.5832 26295.7
 09 09 2013  16 49  -21.0576 26065.6 -03470.0 -07.5830 26295.5
 09 09 2013  16 50  -21.0572 26065.5 -03470.0 -07.5829 26295.5
 09 09 2013  16 51  -21.0565 26065.2 -03469.8 -07.5826 26295.1
 09 09 2013  16 52  -21.0559 26065.0 -03469.7 -07.5824 26294.9
 09 09 2013  16 53  -21.0552 26064.8 -03469.6 -07.5822 26294.7
 09 09 2013  16 54  -21.0545 26064.7 -03469.5 -07.5821 26294.6
 09 09 2013  16 55  -21.0538 26064.5 -03469.4 -07.5820 26294.3
 09 09 2013  16 56  -21.0531 26064.2 -03469.3 -07.5819 26294.1
 09 09 2013  16 57  -21.0522 26063.8 -03469.2 -07.5817 26293.7
 09 09 2013  16 58  -21.0514 26063.6 -03469.2 -07.5817 26293.5
 09 09 2013  16 59  -21.0507 26063.6 -03469.2 -07.5818 26293.4
 09 09 2013  17 00  -21.0500 26063.5 -03469.2 -07.5819 26293.4
 09 09 2013  17 01  -21.0490 26063.5 -03469.2 -07.5819 26293.4
 09 09 2013  17 02  -21.0478 26063.3 -03469.2 -07.5818 26293.1
 09 09 2013  17 03  -21.0470 26063.0 -03469.2 -07.5819 26292.9
 09 09 2013  17 04  -21.0460 26062.8 -03469.2 -07.5820 26292.6
 09 09 2013  17 05  -21.0451 26062.7 -03469.3 -07.5822 26292.6
 09 09 2013  17 06  -21.0444 26062.8 -03469.4 -07.5825 26292.7
 09 09 2013  17 07  -21.0436 26062.8 -03469.5 -07.5827 26292.7
 09 09 2013  17 08  -21.0429 26062.6 -03469.6 -07.5829 26292.6
 09 09 2013  17 09  -21.0424 26062.5 -03469.7 -07.5831 26292.5
 09 09 2013  17 10  -21.0420 26062.5 -03469.7 -07.5833 26292.4
 09 09 2013  17 11  -21.0416 26062.4 -03469.8 -07.5834 26292.4
 09 09 2013  17 12  -21.0410 26062.4 -03469.9 -07.5835 26292.4
 09 09 2013  17 13  -21.0404 26062.4 -03469.9 -07.5837 26292.3
 09 09 2013  17 14  -21.0399 26062.3 -03470.0 -07.5838 26292.3
 09 09 2013  17 15  -21.0390 26062.0 -03469.9 -07.5837 26292.0
 09 09 2013  17 16  -21.0382 26061.8 -03469.9 -07.5838 26291.7
 09 09 2013  17 17  -21.0374 26061.5 -03469.9 -07.5839 26291.5
 09 09 2013  17 18  -21.0367 26061.4 -03470.0 -07.5841 26291.4
 09 09 2013  17 19  -21.0359 26061.2 -03470.0 -07.5843 26291.2
 09 09 2013  17 20  -21.0351 26061.0 -03470.1 -07.5845 26291.1
 09 09 2013  17 21  -21.0343 26060.9 -03470.2 -07.5848 26290.9
 09 09 2013  17 22  -21.0334 26060.7 -03470.3 -07.5851 26290.7
 09 09 2013  17 23  -21.0324 26060.4 -03470.4 -07.5854 26290.5
 09 09 2013  17 24  -21.0317 26060.1 -03470.6 -07.5857 26290.2
 09 09 2013  17 25  -21.0310 26059.8 -03470.7 -07.5861 26289.9
 09 09 2013  17 26  -21.0305 26059.5 -03470.8 -07.5865 26289.6
 09 09 2013  17 27  -21.0301 26059.3 -03471.0 -07.5869 26289.4
 09 09 2013  17 28  -21.0297 26059.1 -03471.2 -07.5874 26289.3
 09 09 2013  17 29  -21.0295 26058.9 -03471.4 -07.5878 26289.1
 09 09 2013  17 30  -21.0294 26058.8 -03471.6 -07.5883 26289.0
 09 09 2013  17 31  -21.0293 26058.6 -03471.8 -07.5887 26288.9
 09 09 2013  17 32  -21.0292 26058.4 -03471.9 -07.5890 26288.6
 09 09 2013  17 33  -21.0291 26058.2 -03472.0 -07.5894 26288.5
 09 09 2013  17 34  -21.0292 26057.9 -03472.2 -07.5898 26288.2
 09 09 2013  17 35  -21.0292 26057.7 -03472.3 -07.5901 26288.0
 09 09 2013  17 36  -21.0293 26057.6 -03472.4 -07.5905 26287.9
 09 09 2013  17 37  -21.0295 26057.5 -03472.5 -07.5907 26287.9
 09 09 2013  17 38  -21.0295 26057.3 -03472.6 -07.5909 26287.7
 09 09 2013  17 39  -21.0293 26057.0 -03472.6 -07.5911 26287.4
 09 09 2013  17 40  -21.0292 26056.7 -03472.7 -07.5913 26287.1
 09 09 2013  17 41  -21.0290 26056.5 -03472.7 -07.5915 26286.8
 09 09 2013  17 42  -21.0290 26056.3 -03472.8 -07.5917 26286.7
 09 09 2013  17 43  -21.0289 26056.1 -03472.9 -07.5919 26286.5
 09 09 2013  17 44  -21.0289 26055.8 -03472.9 -07.5920 26286.3
 09 09 2013  17 45  -21.0288 26055.6 -03473.0 -07.5923 26286.0
 09 09 2013  17 46  -21.0287 26055.3 -03473.0 -07.5924 26285.8
 09 09 2013  17 47  -21.0285 26055.0 -03473.1 -07.5926 26285.5
 09 09 2013  17 48  -21.0285 26054.7 -03473.2 -07.5929 26285.2
 09 09 2013  17 49  -21.0282 26054.4 -03473.3 -07.5932 26284.9
 09 09 2013  17 50  -21.0282 26054.3 -03473.4 -07.5935 26284.8
 09 09 2013  17 51  -21.0282 26054.0 -03473.5 -07.5938 26284.6
 09 09 2013  17 52  -21.0281 26053.7 -03473.6 -07.5940 26284.3
 09 09 2013  17 53  -21.0280 26053.5 -03473.6 -07.5943 26284.0
 09 09 2013  17 54  -21.0280 26053.2 -03473.7 -07.5945 26283.8
 09 09 2013  17 55  -21.0278 26053.0 -03473.8 -07.5948 26283.6
 09 09 2013  17 56  -21.0278 26052.8 -03473.9 -07.5950 26283.4
 09 09 2013  17 57  -21.0278 26052.7 -03474.0 -07.5952 26283.3
 09 09 2013  17 58  -21.0276 26052.6 -03474.0 -07.5953 26283.2
 09 09 2013  17 59  -21.0276 26052.6 -03474.1 -07.5955 26283.2
 09 09 2013  18 00  -21.0274 26052.4 -03474.1 -07.5956 26283.0
 09 09 2013  18 01  -21.0270 26052.2 -03474.1 -07.5956 26282.8
 09 09 2013  18 02  -21.0266 26052.0 -03474.0 -07.5955 26282.6
 09 09 2013  18 03  -21.0261 26051.7 -03474.0 -07.5955 26282.3
 09 09 2013  18 04  -21.0255 26051.4 -03474.0 -07.5956 26282.0
 09 09 2013  18 05  -21.0248 26051.0 -03473.9 -07.5955 26281.6
 09 09 2013  18 06  -21.0240 26050.7 -03473.9 -07.5956 26281.3
 09 09 2013  18 07  -21.0235 26050.6 -03474.0 -07.5959 26281.2
 09 09 2013  18 08  -21.0230 26050.5 -03474.1 -07.5960 26281.1
 09 09 2013  18 09  -21.0226 26050.4 -03474.1 -07.5962 26281.1
 09 09 2013  18 10  -21.0221 26050.3 -03474.2 -07.5965 26281.0
 09 09 2013  18 11  -21.0215 26050.2 -03474.3 -07.5966 26280.9
 09 09 2013  18 12  -21.0211 26050.2 -03474.4 -07.5969 26280.8
 09 09 2013  18 13  -21.0206 26050.2 -03474.6 -07.5973 26280.9
 09 09 2013  18 14  -21.0202 26050.2 -03474.7 -07.5976 26281.0
 09 09 2013  18 15  -21.0199 26050.1 -03474.8 -07.5979 26280.9
 09 09 2013  18 16  -21.0197 26050.0 -03474.9 -07.5980 26280.8
 09 09 2013  18 17  -21.0195 26049.8 -03475.0 -07.5982 26280.6
 09 09 2013  18 18  -21.0192 26049.6 -03475.0 -07.5983 26280.4
 09 09 2013  18 19  -21.0187 26049.2 -03475.0 -07.5984 26279.9
 09 09 2013  18 20  -21.0182 26048.8 -03475.0 -07.5986 26279.6
 09 09 2013  18 21  -21.0178 26048.6 -03475.1 -07.5989 26279.4
 09 09 2013  18 22  -21.0174 26048.4 -03475.2 -07.5992 26279.2
 09 09 2013  18 23  -21.0172 26048.1 -03475.4 -07.5995 26278.9
 09 09 2013  18 24  -21.0171 26047.9 -03475.5 -07.5999 26278.8
 09 09 2013  18 25  -21.0171 26047.7 -03475.6 -07.6002 26278.5
 09 09 2013  18 26  -21.0171 26047.4 -03475.7 -07.6004 26278.3
 09 09 2013  18 27  -21.0171 26047.2 -03475.7 -07.6006 26278.0
 09 09 2013  18 28  -21.0173 26047.0 -03475.8 -07.6008 26277.9
 09 09 2013  18 29  -21.0175 26046.9 -03475.8 -07.6009 26277.8
 09 09 2013  18 30  -21.0176 26046.7 -03475.9 -07.6011 26277.6
 09 09 2013  18 31  -21.0177 26046.5 -03475.9 -07.6012 26277.4
 09 09 2013  18 32  -21.0176 26046.3 -03476.0 -07.6014 26277.2
 09 09 2013  18 33  -21.0176 26046.2 -03476.1 -07.6017 26277.1
 09 09 2013  18 34  -21.0178 26046.1 -03476.2 -07.6019 26277.0
 09 09 2013  18 35  -21.0178 26045.9 -03476.2 -07.6021 26276.9
 09 09 2013  18 36  -21.0178 26045.9 -03476.3 -07.6023 26276.9
 09 09 2013  18 37  -21.0179 26045.9 -03476.5 -07.6026 26276.8
 09 09 2013  18 38  -21.0177 26045.8 -03476.6 -07.6029 26276.8
 09 09 2013  18 39  -21.0175 26045.7 -03476.6 -07.6030 26276.7
 09 09 2013  18 40  -21.0176 26045.7 -03476.8 -07.6033 26276.8
 09 09 2013  18 41  -21.0177 26045.8 -03476.9 -07.6036 26276.8
 09 09 2013  18 42  -21.0176 26045.6 -03477.0 -07.6037 26276.7
 09 09 2013  18 43  -21.0175 26045.3 -03476.9 -07.6037 26276.3
 09 09 2013  18 44  -21.0173 26044.9 -03476.8 -07.6036 26275.9
 09 09 2013  18 45  -21.0172 26044.5 -03476.8 -07.6036 26275.5
 09 09 2013  18 46  -21.0170 26044.2 -03476.8 -07.6037 26275.2
 09 09 2013  18 47  -21.0169 26044.0 -03476.8 -07.6039 26275.0
 09 09 2013  18 48  -21.0168 26043.9 -03476.9 -07.6041 26274.9
 09 09 2013  18 49  -21.0164 26043.7 -03477.0 -07.6043 26274.7
 09 09 2013  18 50  -21.0164 26043.6 -03477.1 -07.6047 26274.7
 09 09 2013  18 51  -21.0165 26043.7 -03477.3 -07.6050 26274.8
 09 09 2013  18 52  -21.0165 26043.8 -03477.4 -07.6052 26274.9
 09 09 2013  18 53  -21.0165 26043.7 -03477.5 -07.6054 26274.8
 09 09 2013  18 54  -21.0164 26043.5 -03477.5 -07.6055 26274.6
 09 09 2013  18 55  -21.0165 26043.4 -03477.6 -07.6057 26274.5
 09 09 2013  18 56  -21.0166 26043.3 -03477.6 -07.6059 26274.4
 09 09 2013  18 57  -21.0168 26043.2 -03477.7 -07.6061 26274.4
 09 09 2013  18 58  -21.0171 26043.1 -03477.8 -07.6063 26274.2
 09 09 2013  18 59  -21.0174 26042.9 -03477.8 -07.6063 26274.1
 09 09 2013  19 00  -21.0177 26042.8 -03477.8 -07.6065 26274.0
 09 09 2013  19 01  -21.0179 26042.6 -03477.8 -07.6065 26273.8
 09 09 2013  19 02  -21.0180 26042.3 -03477.8 -07.6064 26273.5
 09 09 2013  19 03  -21.0180 26042.1 -03477.8 -07.6065 26273.3
 09 09 2013  19 04  -21.0182 26042.0 -03477.8 -07.6065 26273.2
 09 09 2013  19 05  -21.0184 26041.9 -03477.8 -07.6066 26273.1
 09 09 2013  19 06  -21.0188 26041.9 -03477.9 -07.6068 26273.1
 09 09 2013  19 07  -21.0189 26041.9 -03477.9 -07.6069 26273.1
 09 09 2013  19 08  -21.0191 26041.8 -03477.9 -07.6069 26273.0
 09 09 2013  19 09  -21.0193 26041.6 -03477.9 -07.6069 26272.8
 09 09 2013  19 10  -21.0194 26041.4 -03477.9 -07.6069 26272.6
 09 09 2013  19 11  -21.0197 26041.2 -03477.9 -07.6070 26272.5
 09 09 2013  19 12  -21.0198 26041.0 -03477.9 -07.6070 26272.2
 09 09 2013  19 13  -21.0201 26040.9 -03477.9 -07.6072 26272.1
 09 09 2013  19 14  -21.0203 26040.7 -03478.0 -07.6073 26271.9
 09 09 2013  19 15  -21.0206 26040.5 -03478.1 -07.6076 26271.8
 09 09 2013  19 16  -21.0210 26040.4 -03478.2 -07.6079 26271.7
 09 09 2013  19 17  -21.0211 26040.2 -03478.2 -07.6080 26271.5
 09 09 2013  19 18  -21.0213 26040.0 -03478.3 -07.6081 26271.3
 09 09 2013  19 19  -21.0215 26039.9 -03478.3 -07.6083 26271.2
 09 09 2013  19 20  -21.0217 26039.6 -03478.3 -07.6084 26270.9
 09 09 2013  19 21  -21.0218 26039.4 -03478.3 -07.6084 26270.7
 09 09 2013  19 22  -21.0218 26039.2 -03478.3 -07.6085 26270.5
 09 09 2013  19 23  -21.0221 26039.1 -03478.4 -07.6087 26270.4
 09 09 2013  19 24  -21.0224 26038.8 -03478.4 -07.6088 26270.1
 09 09 2013  19 25  -21.0226 26038.6 -03478.4 -07.6088 26269.9
 09 09 2013  19 26  -21.0228 26038.2 -03478.4 -07.6090 26269.6
 09 09 2013  19 27  -21.0231 26038.0 -03478.5 -07.6092 26269.3
 09 09 2013  19 28  -21.0235 26037.9 -03478.6 -07.6095 26269.2
 09 09 2013  19 29  -21.0240 26037.6 -03478.7 -07.6097 26269.0
 09 09 2013  19 30  -21.0244 26037.4 -03478.7 -07.6099 26268.8
 09 09 2013  19 31  -21.0247 26037.2 -03478.8 -07.6102 26268.6
 09 09 2013  19 32  -21.0252 26037.1 -03478.9 -07.6104 26268.5
 09 09 2013  19 33  -21.0255 26036.9 -03478.9 -07.6105 26268.3
 09 09 2013  19 34  -21.0256 26036.7 -03479.0 -07.6106 26268.1
 09 09 2013  19 35  -21.0259 26036.7 -03479.1 -07.6109 26268.1
 09 09 2013  19 36  -21.0261 26036.6 -03479.1 -07.6110 26268.0
 09 09 2013  19 37  -21.0262 26036.5 -03479.1 -07.6111 26267.9
 09 09 2013  19 38  -21.0262 26036.3 -03479.1 -07.6111 26267.7
 09 09 2013  19 39  -21.0263 26036.3 -03479.2 -07.6113 26267.7
 09 09 2013  19 40  -21.0265 26036.4 -03479.4 -07.6117 26267.8
 09 09 2013  19 41  -21.0264 26036.3 -03479.4 -07.6117 26267.7
 09 09 2013  19 42  -21.0265 26036.2 -03479.5 -07.6119 26267.6
 09 09 2013  19 43  -21.0265 26035.9 -03479.5 -07.6120 26267.4
 09 09 2013  19 44  -21.0267 26035.9 -03479.6 -07.6123 26267.3
 09 09 2013  19 45  -21.0267 26035.6 -03479.7 -07.6125 26267.1
 09 09 2013  19 46  -21.0268 26035.4 -03479.8 -07.6127 26266.9
 09 09 2013  19 47  -21.0268 26035.3 -03479.8 -07.6128 26266.8
 09 09 2013  19 48  -21.0267 26035.1 -03479.8 -07.6130 26266.6
 09 09 2013  19 49  -21.0268 26035.1 -03480.0 -07.6133 26266.6
 09 09 2013  19 50  -21.0269 26035.1 -03480.2 -07.6137 26266.7
 09 09 2013  19 51  -21.0269 26035.1 -03480.3 -07.6140 26266.7
 09 09 2013  19 52  -21.0269 26035.0 -03480.4 -07.6141 26266.6
 09 09 2013  19 53  -21.0268 26034.9 -03480.5 -07.6144 26266.6
 09 09 2013  19 54  -21.0266 26034.9 -03480.6 -07.6147 26266.6
 09 09 2013  19 55  -21.0266 26035.0 -03480.7 -07.6149 26266.6
 09 09 2013  19 56  -21.0264 26034.9 -03480.8 -07.6151 26266.5
 09 09 2013  19 57  -21.0263 26034.8 -03480.8 -07.6152 26266.5
 09 09 2013  19 58  -21.0262 26034.8 -03480.9 -07.6153 26266.5
 09 09 2013  19 59  -21.0259 26034.7 -03480.9 -07.6155 26266.4
 09 09 2013  20 00  -21.0257 26034.6 -03481.1 -07.6158 26266.3
 09 09 2013  20 01  -21.0255 26034.7 -03481.2 -07.6161 26266.5
 09 09 2013  20 02  -21.0254 26034.8 -03481.4 -07.6164 26266.6
 09 09 2013  20 03  -21.0253 26034.9 -03481.5 -07.6166 26266.7
 09 09 2013  20 04  -21.0252 26035.1 -03481.7 -07.6169 26266.9
 09 09 2013  20 05  -21.0251 26035.1 -03481.7 -07.6171 26266.9
 09 09 2013  20 06  -21.0251 26035.1 -03481.7 -07.6171 26266.8
 09 09 2013  20 07  -21.0251 26035.0 -03481.8 -07.6171 26266.8
 09 09 2013  20 08  -21.0250 26034.9 -03481.8 -07.6173 26266.7
 09 09 2013  20 09  -21.0249 26034.9 -03481.9 -07.6174 26266.7
 09 09 2013  20 10  -21.0248 26034.7 -03481.9 -07.6175 26266.5
 09 09 2013  20 11  -21.0248 26034.8 -03482.0 -07.6177 26266.6
 09 09 2013  20 12  -21.0248 26034.7 -03482.0 -07.6179 26266.5
 09 09 2013  20 13  -21.0248 26034.7 -03482.1 -07.6179 26266.5
 09 09 2013  20 14  -21.0247 26034.6 -03482.1 -07.6180 26266.4
 09 09 2013  20 15  -21.0248 26034.5 -03482.1 -07.6180 26266.4
 09 09 2013  20 16  -21.0247 26034.4 -03482.1 -07.6180 26266.2
 09 09 2013  20 17  -21.0246 26034.3 -03482.1 -07.6181 26266.2
 09 09 2013  20 18  -21.0244 26034.4 -03482.1 -07.6182 26266.2
 09 09 2013  20 19  -21.0244 26034.4 -03482.2 -07.6183 26266.2
 09 09 2013  20 20  -21.0242 26034.4 -03482.2 -07.6183 26266.2
 09 09 2013  20 21  -21.0241 26034.3 -03482.2 -07.6183 26266.1
 09 09 2013  20 22  -21.0238 26034.3 -03482.1 -07.6182 26266.1
 09 09 2013  20 23  -21.0236 26034.4 -03482.3 -07.6184 26266.2
 09 09 2013  20 24  -21.0235 26034.3 -03482.4 -07.6188 26266.2
 09 09 2013  20 25  -21.0233 26034.4 -03482.5 -07.6189 26266.3
 09 09 2013  20 26  -21.0231 26034.5 -03482.5 -07.6190 26266.3
 09 09 2013  20 27  -21.0229 26034.4 -03482.6 -07.6191 26266.3
 09 09 2013  20 28  -21.0228 26034.4 -03482.6 -07.6191 26266.3
 09 09 2013  20 29  -21.0226 26034.3 -03482.5 -07.6191 26266.2
 09 09 2013  20 30  -21.0224 26034.2 -03482.6 -07.6191 26266.1
 09 09 2013  20 31  -21.0222 26034.1 -03482.6 -07.6191 26266.0
 09 09 2013  20 32  -21.0220 26034.1 -03482.6 -07.6192 26266.0
 09 09 2013  20 33  -21.0219 26034.0 -03482.6 -07.6193 26265.9
 09 09 2013  20 34  -21.0215 26033.9 -03482.6 -07.6194 26265.8
 09 09 2013  20 35  -21.0215 26034.0 -03482.7 -07.6195 26265.9
 09 09 2013  20 36  -21.0214 26033.9 -03482.8 -07.6198 26265.9
 09 09 2013  20 37  -21.0213 26034.0 -03482.9 -07.6198 26265.9
 09 09 2013  20 38  -21.0212 26034.0 -03482.9 -07.6198 26265.9
 09 09 2013  20 39  -21.0211 26034.0 -03482.9 -07.6199 26265.9
 09 09 2013  20 40  -21.0211 26033.9 -03482.9 -07.6200 26265.9
 09 09 2013  20 41  -21.0210 26034.0 -03483.0 -07.6201 26265.9
 09 09 2013  20 42  -21.0209 26034.0 -03483.0 -07.6202 26266.0
 09 09 2013  20 43  -21.0208 26034.1 -03483.1 -07.6203 26266.1
 09 09 2013  20 44  -21.0206 26034.1 -03483.1 -07.6204 26266.1
 09 09 2013  20 45  -21.0205 26034.2 -03483.2 -07.6205 26266.1
 09 09 2013  20 46  -21.0203 26034.2 -03483.2 -07.6206 26266.2
 09 09 2013  20 47  -21.0201 26034.3 -03483.3 -07.6207 26266.3
 09 09 2013  20 48  -21.0199 26034.4 -03483.4 -07.6208 26266.4
 09 09 2013  20 49  -21.0197 26034.4 -03483.4 -07.6208 26266.4
 09 09 2013  20 50  -21.0196 26034.4 -03483.3 -07.6208 26266.4
 09 09 2013  20 51  -21.0195 26034.4 -03483.4 -07.6208 26266.4
 09 09 2013  20 52  -21.0193 26034.4 -03483.4 -07.6208 26266.4
 09 09 2013  20 53  -21.0192 26034.3 -03483.4 -07.6208 26266.3
 09 09 2013  20 54  -21.0191 26034.2 -03483.4 -07.6209 26266.2
 09 09 2013  20 55  -21.0190 26034.1 -03483.3 -07.6208 26266.1
 09 09 2013  20 56  -21.0188 26033.9 -03483.2 -07.6207 26265.9
 09 09 2013  20 57  -21.0187 26033.8 -03483.2 -07.6207 26265.8
 09 09 2013  20 58  -21.0186 26033.7 -03483.2 -07.6207 26265.7
 09 09 2013  20 59  -21.0184 26033.6 -03483.2 -07.6207 26265.6
 09 09 2013  21 00  -21.0183 26033.6 -03483.2 -07.6207 26265.6
 09 09 2013  21 01  -21.0181 26033.5 -03483.2 -07.6208 26265.5
 09 09 2013  21 02  -21.0180 26033.5 -03483.3 -07.6208 26265.5
 09 09 2013  21 03  -21.0178 26033.6 -03483.3 -07.6209 26265.6
 09 09 2013  21 04  -21.0175 26033.7 -03483.3 -07.6209 26265.7
 09 09 2013  21 05  -21.0174 26033.7 -03483.3 -07.6210 26265.7
 09 09 2013  21 06  -21.0172 26033.5 -03483.3 -07.6209 26265.5
 09 09 2013  21 07  -21.0170 26033.5 -03483.4 -07.6210 26265.6
 09 09 2013  21 08  -21.0167 26033.5 -03483.4 -07.6211 26265.5
 09 09 2013  21 09  -21.0166 26033.4 -03483.4 -07.6211 26265.4
 09 09 2013  21 10  -21.0164 26033.3 -03483.4 -07.6211 26265.3
 09 09 2013  21 11  -21.0160 26033.2 -03483.4 -07.6212 26265.2
 09 09 2013  21 12  -21.0159 26033.1 -03483.4 -07.6212 26265.2
 09 09 2013  21 13  -21.0158 26033.1 -03483.4 -07.6213 26265.1
 09 09 2013  21 14  -21.0156 26033.1 -03483.4 -07.6213 26265.1
 09 09 2013  21 15  -21.0155 26033.1 -03483.5 -07.6215 26265.2
 09 09 2013  21 16  -21.0154 26033.1 -03483.6 -07.6217 26265.1
 09 09 2013  21 17  -21.0154 26033.1 -03483.6 -07.6218 26265.2
 09 09 2013  21 18  -21.0154 26033.1 -03483.7 -07.6219 26265.1
 09 09 2013  21 19  -21.0154 26033.1 -03483.8 -07.6221 26265.2
 09 09 2013  21 20  -21.0154 26033.2 -03483.8 -07.6221 26265.3
 09 09 2013  21 21  -21.0152 26033.3 -03483.9 -07.6223 26265.4
 09 09 2013  21 22  -21.0151 26033.4 -03484.0 -07.6225 26265.4
 09 09 2013  21 23  -21.0150 26033.4 -03484.0 -07.6225 26265.5
 09 09 2013  21 24  -21.0150 26033.4 -03484.1 -07.6227 26265.5
 09 09 2013  21 25  -21.0149 26033.5 -03484.2 -07.6229 26265.7
 09 09 2013  21 26  -21.0147 26033.6 -03484.2 -07.6229 26265.7
 09 09 2013  21 27  -21.0147 26033.7 -03484.4 -07.6232 26265.9
 09 09 2013  21 28  -21.0145 26033.8 -03484.4 -07.6232 26265.9
 09 09 2013  21 29  -21.0144 26033.8 -03484.4 -07.6232 26265.9
 09 09 2013  21 30  -21.0142 26034.0 -03484.5 -07.6234 26266.1
 09 09 2013  21 31  -21.0141 26034.0 -03484.6 -07.6236 26266.2
 09 09 2013  21 32  -21.0139 26034.1 -03484.7 -07.6237 26266.3
 09 09 2013  21 33  -21.0138 26034.2 -03484.7 -07.6238 26266.4
 09 09 2013  21 34  -21.0137 26034.3 -03484.8 -07.6239 26266.5
 09 09 2013  21 35  -21.0136 26034.6 -03484.9 -07.6241 26266.8
 09 09 2013  21 36  -21.0136 26034.8 -03485.0 -07.6243 26267.0
 09 09 2013  21 37  -21.0135 26034.8 -03485.0 -07.6242 26267.0
 09 09 2013  21 38  -21.0134 26034.7 -03484.9 -07.6240 26266.9
 09 09 2013  21 39  -21.0133 26034.6 -03484.8 -07.6239 26266.8
 09 09 2013  21 40  -21.0132 26034.5 -03484.8 -07.6238 26266.7
 09 09 2013  21 41  -21.0130 26034.5 -03484.7 -07.6236 26266.6
 09 09 2013  21 42  -21.0130 26034.4 -03484.7 -07.6236 26266.5
 09 09 2013  21 43  -21.0129 26034.3 -03484.6 -07.6236 26266.4
 09 09 2013  21 44  -21.0131 26034.2 -03484.6 -07.6236 26266.4
 09 09 2013  21 45  -21.0132 26034.3 -03484.7 -07.6237 26266.4
 09 09 2013  21 46  -21.0133 26034.2 -03484.7 -07.6237 26266.4
 09 09 2013  21 47  -21.0134 26034.2 -03484.7 -07.6237 26266.3
 09 09 2013  21 48  -21.0134 26034.1 -03484.7 -07.6237 26266.3
 09 09 2013  21 49  -21.0134 26034.1 -03484.7 -07.6237 26266.3
 09 09 2013  21 50  -21.0133 26034.0 -03484.6 -07.6236 26266.2
 09 09 2013  21 51  -21.0134 26034.0 -03484.6 -07.6236 26266.1
 09 09 2013  21 52  -21.0134 26033.9 -03484.6 -07.6236 26266.1
 09 09 2013  21 53  -21.0134 26033.8 -03484.6 -07.6236 26266.0
 09 09 2013  21 54  -21.0134 26033.7 -03484.5 -07.6235 26265.9
 09 09 2013  21 55  -21.0134 26033.7 -03484.5 -07.6235 26265.8
 09 09 2013  21 56  -21.0135 26033.6 -03484.5 -07.6235 26265.8
 09 09 2013  21 57  -21.0136 26033.6 -03484.5 -07.6235 26265.7
 09 09 2013  21 58  -21.0138 26033.5 -03484.5 -07.6235 26265.6
 09 09 2013  21 59  -21.0138 26033.4 -03484.4 -07.6234 26265.5
 09 09 2013  22 00  -21.0139 26033.3 -03484.4 -07.6234 26265.4
 09 09 2013  22 01  -21.0140 26033.1 -03484.4 -07.6234 26265.3
 09 09 2013  22 02  -21.0140 26033.0 -03484.3 -07.6233 26265.2
 09 09 2013  22 03  -21.0140 26032.9 -03484.3 -07.6233 26265.0
 09 09 2013  22 04  -21.0141 26032.8 -03484.3 -07.6233 26264.9
 09 09 2013  22 05  -21.0142 26032.7 -03484.3 -07.6233 26264.8
 09 09 2013  22 06  -21.0143 26032.6 -03484.2 -07.6232 26264.7
 09 09 2013  22 07  -21.0144 26032.5 -03484.2 -07.6233 26264.6
 09 09 2013  22 08  -21.0145 26032.4 -03484.2 -07.6231 26264.5
 09 09 2013  22 09  -21.0146 26032.3 -03484.2 -07.6232 26264.4
 09 09 2013  22 10  -21.0147 26032.2 -03484.1 -07.6231 26264.3
 09 09 2013  22 11  -21.0148 26031.9 -03484.0 -07.6230 26264.0
 09 09 2013  22 12  -21.0148 26031.7 -03484.0 -07.6229 26263.8
 09 09 2013  22 13  -21.0149 26031.6 -03484.0 -07.6229 26263.7
 09 09 2013  22 14  -21.0149 26031.5 -03483.9 -07.6229 26263.6
 09 09 2013  22 15  -21.0149 26031.4 -03483.9 -07.6229 26263.5
 09 09 2013  22 16  -21.0149 26031.3 -03483.9 -07.6229 26263.4
 09 09 2013  22 17  -21.0148 26031.2 -03483.9 -07.6228 26263.3
 09 09 2013  22 18  -21.0148 26031.1 -03483.9 -07.6228 26263.2
 09 09 2013  22 19  -21.0147 26031.0 -03483.8 -07.6228 26263.1
 09 09 2013  22 20  -21.0146 26030.9 -03483.8 -07.6229 26263.0
 09 09 2013  22 21  -21.0146 26030.8 -03483.9 -07.6229 26262.9
 09 09 2013  22 22  -21.0146 26030.8 -03483.9 -07.6230 26262.9
 09 09 2013  22 23  -21.0146 26030.6 -03483.9 -07.6230 26262.7
 09 09 2013  22 24  -21.0145 26030.6 -03483.9 -07.6230 26262.7
 09 09 2013  22 25  -21.0144 26030.6 -03483.9 -07.6231 26262.7
 09 09 2013  22 26  -21.0144 26030.6 -03484.0 -07.6232 26262.7
 09 09 2013  22 27  -21.0142 26030.6 -03484.0 -07.6233 26262.7
 09 09 2013  22 28  -21.0141 26030.6 -03484.0 -07.6234 26262.7
 09 09 2013  22 29  -21.0140 26030.5 -03484.0 -07.6234 26262.6
 09 09 2013  22 30  -21.0140 26030.5 -03484.1 -07.6235 26262.7
 09 09 2013  22 31  -21.0139 26030.6 -03484.1 -07.6236 26262.7
 09 09 2013  22 32  -21.0139 26030.6 -03484.2 -07.6238 26262.7
 09 09 2013  22 33  -21.0138 26030.5 -03484.2 -07.6238 26262.7
 09 09 2013  22 34  -21.0137 26030.6 -03484.3 -07.6239 26262.7
 09 09 2013  22 35  -21.0138 26030.6 -03484.3 -07.6240 26262.7
 09 09 2013  22 36  -21.0137 26030.5 -03484.4 -07.6241 26262.7
 09 09 2013  22 37  -21.0137 26030.5 -03484.4 -07.6241 26262.7
 09 09 2013  22 38  -21.0137 26030.6 -03484.5 -07.6243 26262.7
 09 09 2013  22 39  -21.0136 26030.6 -03484.5 -07.6244 26262.8
 09 09 2013  22 40  -21.0136 26030.7 -03484.6 -07.6245 26262.9
 09 09 2013  22 41  -21.0134 26030.8 -03484.6 -07.6246 26263.0
 09 09 2013  22 42  -21.0133 26030.8 -03484.6 -07.6246 26263.0
 09 09 2013  22 43  -21.0133 26030.8 -03484.6 -07.6246 26263.0
 09 09 2013  22 44  -21.0133 26030.8 -03484.6 -07.6246 26263.0
 09 09 2013  22 45  -21.0134 26030.8 -03484.7 -07.6247 26263.0
 09 09 2013  22 46  -21.0136 26030.7 -03484.7 -07.6247 26262.9
 09 09 2013  22 47  -21.0137 26030.7 -03484.7 -07.6247 26262.9
 09 09 2013  22 48  -21.0138 26030.6 -03484.6 -07.6247 26262.8
 09 09 2013  22 49  -21.0139 26030.5 -03484.7 -07.6247 26262.8
 09 09 2013  22 50  -21.0140 26030.5 -03484.6 -07.6247 26262.7
 09 09 2013  22 51  -21.0141 26030.4 -03484.6 -07.6246 26262.6
 09 09 2013  22 52  -21.0142 26030.3 -03484.5 -07.6245 26262.5
 09 09 2013  22 53  -21.0143 26030.1 -03484.5 -07.6245 26262.3
 09 09 2013  22 54  -21.0143 26030.1 -03484.5 -07.6245 26262.3
 09 09 2013  22 55  -21.0143 26030.0 -03484.5 -07.6244 26262.2
 09 09 2013  22 56  -21.0144 26030.1 -03484.5 -07.6245 26262.3
 09 09 2013  22 57  -21.0144 26030.1 -03484.5 -07.6245 26262.3
 09 09 2013  22 58  -21.0144 26030.1 -03484.5 -07.6245 26262.3
 09 09 2013  22 59  -21.0144 26030.1 -03484.5 -07.6245 26262.3
 09 09 2013  23 00  -21.0145 26030.0 -03484.5 -07.6245 26262.2
 09 09 2013  23 01  -21.0146 26030.0 -03484.5 -07.6245 26262.2
 09 09 2013  23 02  -21.0146 26029.9 -03484.5 -07.6245 26262.1
 09 09 2013  23 03  -21.0147 26029.9 -03484.5 -07.6245 26262.1
 09 09 2013  23 04  -21.0148 26029.9 -03484.5 -07.6246 26262.1
 09 09 2013  23 05  -21.0148 26029.9 -03484.5 -07.6246 26262.1
 09 09 2013  23 06  -21.0148 26029.9 -03484.5 -07.6246 26262.1
 09 09 2013  23 07  -21.0149 26030.0 -03484.5 -07.6246 26262.2
 09 09 2013  23 08  -21.0151 26029.9 -03484.5 -07.6247 26262.1
 09 09 2013  23 09  -21.0152 26029.9 -03484.6 -07.6248 26262.1
 09 09 2013  23 10  -21.0152 26029.8 -03484.5 -07.6247 26262.0
 09 09 2013  23 11  -21.0153 26029.8 -03484.6 -07.6247 26262.0
 09 09 2013  23 12  -21.0153 26029.8 -03484.5 -07.6247 26262.0
 09 09 2013  23 13  -21.0153 26029.9 -03484.6 -07.6247 26262.1
 09 09 2013  23 14  -21.0154 26029.8 -03484.6 -07.6248 26262.0
 09 09 2013  23 15  -21.0154 26029.9 -03484.6 -07.6248 26262.1
 09 09 2013  23 16  -21.0155 26029.9 -03484.6 -07.6249 26262.1
 09 09 2013  23 17  -21.0155 26029.9 -03484.6 -07.6249 26262.1
 09 09 2013  23 18  -21.0157 26029.8 -03484.7 -07.6249 26262.0
 09 09 2013  23 19  -21.0158 26029.8 -03484.7 -07.6249 26262.1
 09 09 2013  23 20  -21.0158 26029.8 -03484.7 -07.6249 26262.0
 09 09 2013  23 21  -21.0157 26029.8 -03484.6 -07.6249 26262.0
 09 09 2013  23 22  -21.0157 26029.6 -03484.6 -07.6248 26261.8
 09 09 2013  23 23  -21.0158 26029.6 -03484.6 -07.6248 26261.8
 09 09 2013  23 24  -21.0159 26029.6 -03484.6 -07.6248 26261.8
 09 09 2013  23 25  -21.0159 26029.6 -03484.6 -07.6249 26261.8
 09 09 2013  23 26  -21.0160 26029.6 -03484.6 -07.6249 26261.8
 09 09 2013  23 27  -21.0160 26029.6 -03484.6 -07.6249 26261.8
 09 09 2013  23 28  -21.0161 26029.6 -03484.6 -07.6248 26261.8
 09 09 2013  23 29  -21.0162 26029.6 -03484.6 -07.6248 26261.8
 09 09 2013  23 30  -21.0162 26029.5 -03484.6 -07.6248 26261.7
 09 09 2013  23 31  -21.0163 26029.5 -03484.6 -07.6249 26261.7
 09 09 2013  23 32  -21.0162 26029.6 -03484.6 -07.6248 26261.8
 09 09 2013  23 33  -21.0163 26029.6 -03484.6 -07.6248 26261.8
 09 09 2013  23 34  -21.0163 26029.6 -03484.6 -07.6248 26261.8
 09 09 2013  23 35  -21.0163 26029.6 -03484.5 -07.6247 26261.8
 09 09 2013  23 36  -21.0163 26029.6 -03484.6 -07.6248 26261.8
 09 09 2013  23 37  -21.0163 26029.6 -03484.6 -07.6248 26261.9
 09 09 2013  23 38  -21.0164 26029.6 -03484.6 -07.6249 26261.8
 09 09 2013  23 39  -21.0164 26029.6 -03484.6 -07.6249 26261.8
 09 09 2013  23 40  -21.0164 26029.6 -03484.6 -07.6248 26261.8
 09 09 2013  23 41  -21.0166 26029.6 -03484.6 -07.6248 26261.8
 09 09 2013  23 42  -21.0166 26029.5 -03484.6 -07.6248 26261.7
 09 09 2013  23 43  -21.0168 26029.5 -03484.5 -07.6247 26261.7
 09 09 2013  23 44  -21.0168 26029.5 -03484.5 -07.6247 26261.7
 09 09 2013  23 45  -21.0169 26029.5 -03484.5 -07.6247 26261.6
 09 09 2013  23 46  -21.0169 26029.4 -03484.5 -07.6246 26261.6
 09 09 2013  23 47  -21.0169 26029.5 -03484.5 -07.6246 26261.7
 09 09 2013  23 48  -21.0169 26029.8 -03484.7 -07.6249 26262.0
 09 09 2013  23 49  -21.0173 26029.2 -03484.5 -07.6247 26261.4
 09 09 2013  23 50  -21.0173 26029.3 -03484.4 -07.6245 26261.5
 09 09 2013  23 51  -21.0171 26029.6 -03484.5 -07.6247 26261.8
 09 09 2013  23 52  -21.0170 26029.9 -03484.6 -07.6249 26262.1
 09 09 2013  23 53  -21.0171 26029.8 -03484.6 -07.6249 26262.0
 09 09 2013  23 54  -21.0171 26029.7 -03484.6 -07.6248 26261.9
 09 09 2013  23 55  -21.0171 26029.8 -03484.6 -07.6248 26262.0
 09 09 2013  23 56  -21.0172 26029.8 -03484.5 -07.6247 26262.0
 09 09 2013  23 57  -21.0171 26029.8 -03484.6 -07.6248 26262.0
