SAO LUIS EMBRACE-03 <008> 1 Min. Reported data

 DD MM YYYY  HH MM   D(Deg)  H(nT)   Z(nT)   I(Deg)   F(nT)

 08 01 2013  00 00  -21.0049 26057.0 -03388.0 -07.4081 26276.3
 08 01 2013  00 01  -21.0050 26057.0 -03388.0 -07.4082 26276.3
 08 01 2013  00 02  -21.0050 26056.9 -03387.9 -07.4081 26276.3
 08 01 2013  00 03  -21.0048 26056.8 -03387.9 -07.4080 26276.2
 08 01 2013  00 04  -21.0049 26056.7 -03387.8 -07.4078 26276.0
 08 01 2013  00 05  -21.0049 26056.5 -03387.7 -07.4077 26275.9
 08 01 2013  00 06  -21.0048 26056.5 -03387.7 -07.4076 26275.8
 08 01 2013  00 07  -21.0049 26056.5 -03387.7 -07.4077 26275.8
 08 01 2013  00 08  -21.0052 26056.4 -03387.6 -07.4076 26275.7
 08 01 2013  00 09  -21.0054 26056.4 -03387.7 -07.4076 26275.7
 08 01 2013  00 10  -21.0057 26056.4 -03387.7 -07.4076 26275.7
 08 01 2013  00 11  -21.0056 26056.3 -03387.6 -07.4075 26275.6
 08 01 2013  00 12  -21.0055 26056.3 -03387.6 -07.4075 26275.6
 08 01 2013  00 13  -21.0061 26056.5 -03387.7 -07.4077 26275.8
 08 01 2013  00 14  -21.0064 26056.4 -03387.7 -07.4077 26275.7
 08 01 2013  00 15  -21.0063 26056.5 -03387.7 -07.4077 26275.8
 08 01 2013  00 16  -21.0063 26056.5 -03387.7 -07.4076 26275.8
 08 01 2013  00 17  -21.0061 26056.6 -03387.7 -07.4077 26276.0
 08 01 2013  00 18  -21.0063 26056.6 -03387.7 -07.4077 26275.9
 08 01 2013  00 19  -21.0064 26056.4 -03387.6 -07.4075 26275.7
 08 01 2013  00 20  -21.0066 26056.4 -03387.6 -07.4075 26275.7
 08 01 2013  00 21  -21.0070 26056.4 -03387.6 -07.4076 26275.7
 08 01 2013  00 22  -21.0071 26056.4 -03387.6 -07.4075 26275.7
 08 01 2013  00 23  -21.0069 26056.7 -03387.7 -07.4076 26276.0
 08 01 2013  00 24  -21.0069 26056.6 -03387.7 -07.4076 26275.9
 08 01 2013  00 25  -21.0072 26056.8 -03387.8 -07.4077 26276.1
 08 01 2013  00 26  -21.0078 26057.0 -03387.9 -07.4080 26276.3
 08 01 2013  00 27  -21.0080 26057.0 -03387.9 -07.4079 26276.3
 08 01 2013  00 28  -21.0077 26057.3 -03388.0 -07.4080 26276.6
 08 01 2013  00 29  -21.0075 26057.5 -03388.0 -07.4081 26276.9
 08 01 2013  00 30  -21.0078 26057.9 -03388.2 -07.4084 26277.2
 08 01 2013  00 31  -21.0081 26058.1 -03388.4 -07.4086 26277.5
 08 01 2013  00 32  -21.0078 26058.0 -03388.3 -07.4085 26277.4
 08 01 2013  00 33  -21.0078 26058.2 -03388.3 -07.4085 26277.6
 08 01 2013  00 34  -21.0081 26058.4 -03388.4 -07.4086 26277.7
 08 01 2013  00 35  -21.0083 26058.2 -03388.3 -07.4085 26277.6
 08 01 2013  00 36  -21.0083 26058.3 -03388.2 -07.4083 26277.6
 08 01 2013  00 37  -21.0083 26058.0 -03388.1 -07.4081 26277.4
 08 01 2013  00 38  -21.0079 26057.8 -03387.9 -07.4077 26277.1
 08 01 2013  00 39  -21.0077 26057.6 -03387.8 -07.4076 26277.0
 08 01 2013  00 40  -21.0074 26057.5 -03387.7 -07.4074 26276.8
 08 01 2013  00 41  -21.0073 26057.4 -03387.7 -07.4074 26276.7
 08 01 2013  00 42  -21.0074 26057.4 -03387.7 -07.4075 26276.6
 08 01 2013  00 43  -21.0071 26057.2 -03387.7 -07.4074 26276.5
 08 01 2013  00 44  -21.0069 26057.1 -03387.7 -07.4074 26276.4
 08 01 2013  00 45  -21.0067 26057.0 -03387.6 -07.4073 26276.3
 08 01 2013  00 46  -21.0069 26057.1 -03387.8 -07.4076 26276.4
 08 01 2013  00 47  -21.0069 26056.9 -03387.7 -07.4076 26276.2
 08 01 2013  00 48  -21.0070 26057.0 -03387.8 -07.4076 26276.3
 08 01 2013  00 49  -21.0069 26056.9 -03387.7 -07.4075 26276.2
 08 01 2013  00 50  -21.0068 26056.8 -03387.6 -07.4075 26276.1
 08 01 2013  00 51  -21.0067 26056.6 -03387.6 -07.4074 26275.9
 08 01 2013  00 52  -21.0067 26056.4 -03387.6 -07.4075 26275.7
 08 01 2013  00 53  -21.0067 26056.3 -03387.6 -07.4074 26275.6
 08 01 2013  00 54  -21.0066 26056.3 -03387.6 -07.4074 26275.6
 08 01 2013  00 55  -21.0065 26056.2 -03387.5 -07.4074 26275.4
 08 01 2013  00 56  -21.0068 26056.1 -03387.5 -07.4074 26275.4
 08 01 2013  00 57  -21.0070 26056.2 -03387.6 -07.4075 26275.5
 08 01 2013  00 58  -21.0071 26056.0 -03387.6 -07.4075 26275.3
 08 01 2013  00 59  -21.0071 26055.9 -03387.5 -07.4074 26275.2
 08 01 2013  01 00  -21.0071 26055.9 -03387.5 -07.4073 26275.1
 08 01 2013  01 01  -21.0073 26055.7 -03387.4 -07.4073 26275.0
 08 01 2013  01 02  -21.0078 26055.7 -03387.4 -07.4072 26274.9
 08 01 2013  01 03  -21.0080 26055.5 -03387.3 -07.4071 26274.7
 08 01 2013  01 04  -21.0081 26055.5 -03387.3 -07.4070 26274.7
 08 01 2013  01 05  -21.0083 26055.2 -03387.2 -07.4070 26274.5
 08 01 2013  01 06  -21.0083 26055.1 -03387.1 -07.4068 26274.4
 08 01 2013  01 07  -21.0084 26055.1 -03387.1 -07.4068 26274.3
 08 01 2013  01 08  -21.0084 26055.1 -03387.1 -07.4068 26274.4
 08 01 2013  01 09  -21.0084 26055.2 -03387.1 -07.4068 26274.4
 08 01 2013  01 10  -21.0084 26055.1 -03387.2 -07.4069 26274.4
 08 01 2013  01 11  -21.0084 26055.2 -03387.2 -07.4069 26274.4
 08 01 2013  01 12  -21.0085 26055.2 -03387.2 -07.4070 26274.4
 08 01 2013  01 13  -21.0087 26055.1 -03387.2 -07.4069 26274.4
 08 01 2013  01 14  -21.0088 26055.1 -03387.2 -07.4070 26274.4
 08 01 2013  01 15  -21.0089 26055.0 -03387.2 -07.4070 26274.3
 08 01 2013  01 16  -21.0091 26055.0 -03387.2 -07.4069 26274.3
 08 01 2013  01 17  -21.0094 26055.0 -03387.2 -07.4069 26274.3
 08 01 2013  01 18  -21.0095 26055.0 -03387.2 -07.4069 26274.3
 08 01 2013  01 19  -21.0095 26054.9 -03387.1 -07.4069 26274.2
 08 01 2013  01 20  -21.0095 26054.9 -03387.1 -07.4068 26274.1
 08 01 2013  01 21  -21.0099 26054.9 -03387.1 -07.4068 26274.1
 08 01 2013  01 22  -21.0098 26054.9 -03387.1 -07.4069 26274.1
 08 01 2013  01 23  -21.0093 26054.8 -03387.0 -07.4067 26274.0
 08 01 2013  01 24  -21.0099 26054.8 -03387.1 -07.4068 26274.1
 08 01 2013  01 25  -21.0104 26054.7 -03387.1 -07.4069 26274.0
 08 01 2013  01 26  -21.0103 26054.7 -03387.1 -07.4069 26274.0
 08 01 2013  01 27  -21.0101 26054.7 -03387.1 -07.4069 26274.0
 08 01 2013  01 28  -21.0103 26054.6 -03387.1 -07.4068 26273.9
 08 01 2013  01 29  -21.0105 26054.5 -03387.0 -07.4067 26273.7
 08 01 2013  01 30  -21.0108 26054.4 -03387.0 -07.4067 26273.6
 08 01 2013  01 31  -21.0109 26054.3 -03387.0 -07.4067 26273.5
 08 01 2013  01 32  -21.0109 26054.2 -03387.0 -07.4067 26273.5
 08 01 2013  01 33  -21.0110 26054.2 -03386.9 -07.4067 26273.4
 08 01 2013  01 34  -21.0113 26054.1 -03387.0 -07.4068 26273.4
 08 01 2013  01 35  -21.0116 26054.2 -03387.0 -07.4069 26273.4
 08 01 2013  01 36  -21.0117 26054.0 -03387.0 -07.4068 26273.2
 08 01 2013  01 37  -21.0120 26054.0 -03387.0 -07.4069 26273.3
 08 01 2013  01 38  -21.0123 26053.9 -03387.0 -07.4069 26273.2
 08 01 2013  01 39  -21.0124 26053.9 -03387.0 -07.4069 26273.1
 08 01 2013  01 40  -21.0127 26053.9 -03387.0 -07.4069 26273.1
 08 01 2013  01 41  -21.0128 26053.8 -03387.0 -07.4070 26273.1
 08 01 2013  01 42  -21.0129 26053.7 -03387.0 -07.4070 26273.0
 08 01 2013  01 43  -21.0132 26053.7 -03387.0 -07.4070 26273.0
 08 01 2013  01 44  -21.0132 26053.6 -03387.0 -07.4070 26272.9
 08 01 2013  01 45  -21.0132 26053.7 -03387.0 -07.4071 26272.9
 08 01 2013  01 46  -21.0132 26053.7 -03387.1 -07.4072 26272.9
 08 01 2013  01 47  -21.0132 26053.6 -03387.1 -07.4072 26272.8
 08 01 2013  01 48  -21.0133 26053.5 -03387.1 -07.4072 26272.8
 08 01 2013  01 49  -21.0132 26053.5 -03387.2 -07.4073 26272.8
 08 01 2013  01 50  -21.0132 26053.4 -03387.1 -07.4073 26272.7
 08 01 2013  01 51  -21.0133 26053.5 -03387.2 -07.4074 26272.8
 08 01 2013  01 52  -21.0134 26053.5 -03387.3 -07.4076 26272.8
 08 01 2013  01 53  -21.0135 26053.6 -03387.3 -07.4077 26272.9
 08 01 2013  01 54  -21.0138 26053.6 -03387.5 -07.4080 26272.9
 08 01 2013  01 55  -21.0141 26053.8 -03387.6 -07.4082 26273.1
 08 01 2013  01 56  -21.0143 26053.7 -03387.6 -07.4082 26273.1
 08 01 2013  01 57  -21.0145 26053.7 -03387.6 -07.4082 26273.0
 08 01 2013  01 58  -21.0146 26053.5 -03387.5 -07.4081 26272.8
 08 01 2013  01 59  -21.0148 26053.5 -03387.5 -07.4082 26272.8
 08 01 2013  02 00  -21.0149 26053.4 -03387.5 -07.4082 26272.7
 08 01 2013  02 01  -21.0148 26053.4 -03387.5 -07.4082 26272.7
 08 01 2013  02 02  -21.0148 26053.5 -03387.6 -07.4083 26272.8
 08 01 2013  02 03  -21.0149 26053.4 -03387.6 -07.4084 26272.7
 08 01 2013  02 04  -21.0149 26053.4 -03387.6 -07.4084 26272.7
 08 01 2013  02 05  -21.0150 26053.4 -03387.7 -07.4085 26272.7
 08 01 2013  02 06  -21.0152 26053.3 -03387.7 -07.4085 26272.6
 08 01 2013  02 07  -21.0153 26053.2 -03387.6 -07.4084 26272.5
 08 01 2013  02 08  -21.0155 26053.1 -03387.6 -07.4085 26272.5
 08 01 2013  02 09  -21.0156 26053.0 -03387.6 -07.4084 26272.3
 08 01 2013  02 10  -21.0155 26053.0 -03387.6 -07.4084 26272.3
 08 01 2013  02 11  -21.0156 26053.1 -03387.7 -07.4086 26272.4
 08 01 2013  02 12  -21.0155 26052.9 -03387.6 -07.4086 26272.3
 08 01 2013  02 13  -21.0154 26052.9 -03387.7 -07.4086 26272.2
 08 01 2013  02 14  -21.0153 26052.9 -03387.6 -07.4086 26272.2
 08 01 2013  02 15  -21.0153 26052.8 -03387.7 -07.4086 26272.2
 08 01 2013  02 16  -21.0152 26052.8 -03387.7 -07.4086 26272.1
 08 01 2013  02 17  -21.0152 26052.8 -03387.7 -07.4087 26272.1
 08 01 2013  02 18  -21.0152 26052.7 -03387.6 -07.4086 26272.0
 08 01 2013  02 19  -21.0151 26052.6 -03387.6 -07.4086 26271.9
 08 01 2013  02 20  -21.0151 26052.6 -03387.7 -07.4087 26272.0
 08 01 2013  02 21  -21.0153 26052.7 -03387.7 -07.4088 26272.0
 08 01 2013  02 22  -21.0152 26052.6 -03387.7 -07.4088 26271.9
 08 01 2013  02 23  -21.0151 26052.7 -03387.7 -07.4088 26272.0
 08 01 2013  02 24  -21.0151 26052.5 -03387.7 -07.4088 26271.9
 08 01 2013  02 25  -21.0152 26052.6 -03387.7 -07.4088 26271.9
 08 01 2013  02 26  -21.0152 26052.6 -03387.7 -07.4088 26271.9
 08 01 2013  02 27  -21.0152 26052.5 -03387.7 -07.4088 26271.9
 08 01 2013  02 28  -21.0153 26052.7 -03387.8 -07.4089 26272.0
 08 01 2013  02 29  -21.0154 26052.6 -03387.8 -07.4089 26271.9
 08 01 2013  02 30  -21.0153 26052.5 -03387.7 -07.4088 26271.8
 08 01 2013  02 31  -21.0154 26052.5 -03387.7 -07.4089 26271.8
 08 01 2013  02 32  -21.0151 26052.3 -03387.7 -07.4087 26271.6
 08 01 2013  02 33  -21.0148 26052.1 -03387.5 -07.4086 26271.4
 08 01 2013  02 34  -21.0151 26052.3 -03387.7 -07.4087 26271.6
 08 01 2013  02 35  -21.0156 26052.4 -03387.8 -07.4091 26271.8
 08 01 2013  02 36  -21.0153 26052.3 -03387.8 -07.4090 26271.6
 08 01 2013  02 37  -21.0152 26052.4 -03387.8 -07.4090 26271.7
 08 01 2013  02 38  -21.0153 26052.4 -03387.8 -07.4091 26271.7
 08 01 2013  02 39  -21.0153 26052.5 -03387.9 -07.4092 26271.8
 08 01 2013  02 40  -21.0157 26052.5 -03387.9 -07.4093 26271.9
 08 01 2013  02 41  -21.0159 26052.5 -03387.9 -07.4093 26271.9
 08 01 2013  02 42  -21.0159 26052.7 -03388.0 -07.4094 26272.1
 08 01 2013  02 43  -21.0159 26052.9 -03388.1 -07.4095 26272.2
 08 01 2013  02 44  -21.0162 26053.0 -03388.1 -07.4096 26272.3
 08 01 2013  02 45  -21.0164 26053.0 -03388.1 -07.4096 26272.4
 08 01 2013  02 46  -21.0164 26052.8 -03388.1 -07.4095 26272.2
 08 01 2013  02 47  -21.0164 26052.9 -03388.0 -07.4094 26272.2
 08 01 2013  02 48  -21.0163 26052.8 -03388.0 -07.4094 26272.2
 08 01 2013  02 49  -21.0160 26052.7 -03387.9 -07.4092 26272.0
 08 01 2013  02 50  -21.0158 26052.5 -03387.8 -07.4090 26271.8
 08 01 2013  02 51  -21.0156 26052.2 -03387.6 -07.4088 26271.5
 08 01 2013  02 52  -21.0155 26052.2 -03387.7 -07.4088 26271.5
 08 01 2013  02 53  -21.0156 26052.0 -03387.6 -07.4088 26271.3
 08 01 2013  02 54  -21.0159 26052.0 -03387.7 -07.4088 26271.3
 08 01 2013  02 55  -21.0159 26051.9 -03387.6 -07.4088 26271.2
 08 01 2013  02 56  -21.0159 26051.8 -03387.6 -07.4088 26271.2
 08 01 2013  02 57  -21.0157 26051.9 -03387.6 -07.4088 26271.2
 08 01 2013  02 58  -21.0156 26052.0 -03387.7 -07.4089 26271.4
 08 01 2013  02 59  -21.0156 26052.0 -03387.7 -07.4090 26271.3
 08 01 2013  03 00  -21.0155 26052.0 -03387.8 -07.4091 26271.3
 08 01 2013  03 01  -21.0155 26052.0 -03387.8 -07.4091 26271.4
 08 01 2013  03 02  -21.0155 26052.0 -03387.8 -07.4091 26271.4
 08 01 2013  03 03  -21.0154 26052.0 -03387.8 -07.4091 26271.3
 08 01 2013  03 04  -21.0153 26051.9 -03387.7 -07.4090 26271.3
 08 01 2013  03 05  -21.0152 26051.9 -03387.7 -07.4090 26271.2
 08 01 2013  03 06  -21.0152 26052.0 -03387.8 -07.4091 26271.3
 08 01 2013  03 07  -21.0152 26051.9 -03387.8 -07.4091 26271.3
 08 01 2013  03 08  -21.0152 26051.9 -03387.8 -07.4091 26271.3
 08 01 2013  03 09  -21.0151 26051.8 -03387.7 -07.4091 26271.1
 08 01 2013  03 10  -21.0150 26051.7 -03387.7 -07.4091 26271.1
 08 01 2013  03 11  -21.0150 26051.8 -03387.8 -07.4091 26271.1
 08 01 2013  03 12  -21.0149 26051.8 -03387.8 -07.4092 26271.1
 08 01 2013  03 13  -21.0149 26051.7 -03387.8 -07.4092 26271.1
 08 01 2013  03 14  -21.0149 26051.7 -03387.8 -07.4092 26271.0
 08 01 2013  03 15  -21.0149 26051.7 -03387.8 -07.4093 26271.1
 08 01 2013  03 16  -21.0150 26051.7 -03387.9 -07.4094 26271.1
 08 01 2013  03 17  -21.0151 26051.8 -03387.9 -07.4095 26271.1
 08 01 2013  03 18  -21.0150 26051.8 -03387.9 -07.4095 26271.1
 08 01 2013  03 19  -21.0152 26051.8 -03388.0 -07.4096 26271.2
 08 01 2013  03 20  -21.0152 26051.8 -03388.0 -07.4096 26271.2
 08 01 2013  03 21  -21.0153 26051.9 -03388.0 -07.4096 26271.3
 08 01 2013  03 22  -21.0152 26051.8 -03388.0 -07.4096 26271.2
 08 01 2013  03 23  -21.0152 26051.8 -03388.0 -07.4097 26271.2
 08 01 2013  03 24  -21.0151 26051.8 -03388.0 -07.4096 26271.1
 08 01 2013  03 25  -21.0152 26051.9 -03388.0 -07.4097 26271.3
 08 01 2013  03 26  -21.0151 26051.9 -03388.1 -07.4097 26271.3
 08 01 2013  03 27  -21.0151 26051.9 -03388.1 -07.4098 26271.3
 08 01 2013  03 28  -21.0150 26052.0 -03388.1 -07.4099 26271.4
 08 01 2013  03 29  -21.0150 26052.0 -03388.2 -07.4099 26271.4
 08 01 2013  03 30  -21.0148 26052.2 -03388.3 -07.4101 26271.6
 08 01 2013  03 31  -21.0144 26052.4 -03388.4 -07.4103 26271.9
 08 01 2013  03 32  -21.0143 26052.7 -03388.5 -07.4105 26272.1
 08 01 2013  03 33  -21.0137 26052.6 -03388.5 -07.4105 26272.1
 08 01 2013  03 34  -21.0138 26052.8 -03388.6 -07.4106 26272.3
 08 01 2013  03 35  -21.0139 26053.0 -03388.7 -07.4108 26272.5
 08 01 2013  03 36  -21.0136 26053.6 -03389.0 -07.4113 26273.1
 08 01 2013  03 37  -21.0130 26053.3 -03388.8 -07.4111 26272.7
 08 01 2013  03 38  -21.0135 26053.8 -03389.1 -07.4115 26273.3
 08 01 2013  03 39  -21.0133 26053.4 -03389.0 -07.4113 26272.9
 08 01 2013  03 40  -21.0134 26053.8 -03389.1 -07.4114 26273.3
 08 01 2013  03 41  -21.0132 26053.7 -03389.1 -07.4115 26273.2
 08 01 2013  03 42  -21.0130 26053.6 -03389.0 -07.4113 26273.1
 08 01 2013  03 43  -21.0130 26053.5 -03389.0 -07.4112 26273.0
 08 01 2013  03 44  -21.0129 26053.5 -03389.0 -07.4112 26273.0
 08 01 2013  03 45  -21.0130 26053.6 -03389.0 -07.4112 26273.1
 08 01 2013  03 46  -21.0130 26053.6 -03389.0 -07.4114 26273.1
 08 01 2013  03 47  -21.0131 26053.5 -03389.0 -07.4113 26273.0
 08 01 2013  03 48  -21.0132 26053.6 -03389.1 -07.4114 26273.1
 08 01 2013  03 49  -21.0131 26053.6 -03389.0 -07.4114 26273.1
 08 01 2013  03 50  -21.0130 26053.5 -03389.0 -07.4114 26273.0
 08 01 2013  03 51  -21.0132 26053.4 -03389.0 -07.4113 26272.9
 08 01 2013  03 52  -21.0132 26053.3 -03389.0 -07.4113 26272.8
 08 01 2013  03 53  -21.0133 26053.4 -03389.0 -07.4113 26272.9
 08 01 2013  03 54  -21.0130 26053.3 -03388.9 -07.4112 26272.8
 08 01 2013  03 55  -21.0130 26053.1 -03388.9 -07.4111 26272.6
 08 01 2013  03 56  -21.0130 26053.0 -03388.8 -07.4111 26272.5
 08 01 2013  03 57  -21.0129 26052.9 -03388.8 -07.4110 26272.4
 08 01 2013  03 58  -21.0129 26052.9 -03388.8 -07.4110 26272.4
 08 01 2013  03 59  -21.0130 26052.9 -03388.8 -07.4111 26272.4
 08 01 2013  04 00  -21.0130 26052.8 -03388.8 -07.4110 26272.3
 08 01 2013  04 01  -21.0131 26052.8 -03388.8 -07.4110 26272.3
 08 01 2013  04 02  -21.0132 26052.7 -03388.7 -07.4110 26272.1
 08 01 2013  04 03  -21.0132 26052.6 -03388.7 -07.4109 26272.1
 08 01 2013  04 04  -21.0134 26052.7 -03388.7 -07.4110 26272.1
 08 01 2013  04 05  -21.0135 26052.7 -03388.8 -07.4111 26272.2
 08 01 2013  04 06  -21.0135 26052.7 -03388.8 -07.4111 26272.2
 08 01 2013  04 07  -21.0135 26052.7 -03388.8 -07.4111 26272.2
 08 01 2013  04 08  -21.0135 26053.2 -03389.0 -07.4114 26272.7
 08 01 2013  04 09  -21.0132 26053.0 -03389.0 -07.4114 26272.5
 08 01 2013  04 10  -21.0141 26053.4 -03389.1 -07.4116 26272.9
 08 01 2013  04 11  -21.0141 26053.4 -03389.1 -07.4117 26272.9
 08 01 2013  04 12  -21.0143 26053.9 -03389.4 -07.4120 26273.5
 08 01 2013  04 13  -21.0147 26053.9 -03389.4 -07.4120 26273.4
 08 01 2013  04 14  -21.0151 26054.2 -03389.5 -07.4121 26273.7
 08 01 2013  04 15  -21.0151 26054.3 -03389.5 -07.4122 26273.9
 08 01 2013  04 16  -21.0155 26054.8 -03389.6 -07.4123 26274.4
 08 01 2013  04 17  -21.0158 26055.0 -03389.7 -07.4125 26274.6
 08 01 2013  04 18  -21.0159 26055.2 -03389.7 -07.4125 26274.8
 08 01 2013  04 19  -21.0157 26055.4 -03389.7 -07.4124 26274.9
 08 01 2013  04 20  -21.0155 26055.4 -03389.7 -07.4123 26274.9
 08 01 2013  04 21  -21.0154 26055.3 -03389.6 -07.4121 26274.9
 08 01 2013  04 22  -21.0152 26055.1 -03389.5 -07.4119 26274.6
 08 01 2013  04 23  -21.0149 26055.1 -03389.4 -07.4118 26274.7
 08 01 2013  04 24  -21.0149 26055.1 -03389.4 -07.4117 26274.6
 08 01 2013  04 25  -21.0150 26055.0 -03389.4 -07.4117 26274.5
 08 01 2013  04 26  -21.0151 26055.0 -03389.3 -07.4115 26274.5
 08 01 2013  04 27  -21.0149 26054.9 -03389.2 -07.4115 26274.4
 08 01 2013  04 28  -21.0148 26054.9 -03389.2 -07.4114 26274.4
 08 01 2013  04 29  -21.0148 26054.8 -03389.2 -07.4113 26274.3
 08 01 2013  04 30  -21.0144 26054.5 -03389.1 -07.4111 26274.0
 08 01 2013  04 31  -21.0145 26054.7 -03389.1 -07.4112 26274.1
 08 01 2013  04 32  -21.0142 26054.5 -03389.1 -07.4112 26274.0
 08 01 2013  04 33  -21.0141 26054.3 -03389.0 -07.4110 26273.8
 08 01 2013  04 34  -21.0141 26054.4 -03389.0 -07.4111 26273.9
 08 01 2013  04 35  -21.0144 26054.6 -03389.1 -07.4112 26274.1
 08 01 2013  04 36  -21.0143 26054.5 -03389.1 -07.4113 26274.0
 08 01 2013  04 37  -21.0142 26054.4 -03389.0 -07.4111 26273.8
 08 01 2013  04 38  -21.0143 26054.5 -03389.1 -07.4112 26274.0
 08 01 2013  04 39  -21.0141 26054.5 -03389.1 -07.4113 26274.0
 08 01 2013  04 40  -21.0139 26054.4 -03389.0 -07.4111 26273.9
 08 01 2013  04 41  -21.0140 26054.5 -03389.1 -07.4112 26274.0
 08 01 2013  04 42  -21.0137 26054.4 -03389.1 -07.4112 26273.9
 08 01 2013  04 43  -21.0139 26054.4 -03389.1 -07.4112 26273.9
 08 01 2013  04 44  -21.0139 26054.3 -03389.0 -07.4112 26273.8
 08 01 2013  04 45  -21.0140 26054.3 -03389.0 -07.4112 26273.8
 08 01 2013  04 46  -21.0147 26054.7 -03389.2 -07.4115 26274.2
 08 01 2013  04 47  -21.0147 26054.6 -03389.2 -07.4115 26274.1
 08 01 2013  04 48  -21.0146 26054.5 -03389.1 -07.4112 26274.0
 08 01 2013  04 49  -21.0149 26054.8 -03389.2 -07.4114 26274.3
 08 01 2013  04 50  -21.0149 26054.9 -03389.3 -07.4115 26274.4
 08 01 2013  04 51  -21.0148 26054.7 -03389.1 -07.4113 26274.2
 08 01 2013  04 52  -21.0149 26054.9 -03389.2 -07.4113 26274.4
 08 01 2013  04 53  -21.0149 26054.9 -03389.2 -07.4113 26274.4
 08 01 2013  04 54  -21.0149 26054.9 -03389.1 -07.4112 26274.4
 08 01 2013  04 55  -21.0149 26055.1 -03389.2 -07.4113 26274.6
 08 01 2013  04 56  -21.0150 26054.9 -03389.1 -07.4112 26274.4
 08 01 2013  04 57  -21.0153 26055.1 -03389.2 -07.4113 26274.6
 08 01 2013  04 58  -21.0151 26055.0 -03389.1 -07.4112 26274.5
 08 01 2013  04 59  -21.0151 26055.0 -03389.1 -07.4111 26274.5
 08 01 2013  05 00  -21.0153 26055.0 -03389.1 -07.4111 26274.5
 08 01 2013  05 01  -21.0149 26054.8 -03388.9 -07.4108 26274.2
 08 01 2013  05 02  -21.0150 26054.9 -03389.0 -07.4109 26274.4
 08 01 2013  05 03  -21.0150 26054.9 -03389.0 -07.4109 26274.4
 08 01 2013  05 04  -21.0149 26055.2 -03389.1 -07.4110 26274.7
 08 01 2013  05 05  -21.0151 26055.4 -03389.2 -07.4113 26274.9
 08 01 2013  05 06  -21.0150 26056.1 -03389.5 -07.4117 26275.6
 08 01 2013  05 07  -21.0152 26056.0 -03389.5 -07.4117 26275.5
 08 01 2013  05 08  -21.0152 26056.2 -03389.5 -07.4117 26275.7
 08 01 2013  05 09  -21.0152 26056.3 -03389.6 -07.4118 26275.9
 08 01 2013  05 10  -21.0155 26056.6 -03389.7 -07.4120 26276.2
 08 01 2013  05 11  -21.0158 26056.7 -03389.7 -07.4120 26276.3
 08 01 2013  05 12  -21.0159 26056.8 -03389.7 -07.4119 26276.4
 08 01 2013  05 13  -21.0158 26057.0 -03389.7 -07.4119 26276.6
 08 01 2013  05 14  -21.0156 26057.2 -03389.8 -07.4120 26276.7
 08 01 2013  05 15  -21.0159 26057.3 -03389.8 -07.4120 26276.9
 08 01 2013  05 16  -21.0157 26057.3 -03389.8 -07.4120 26276.9
 08 01 2013  05 17  -21.0156 26057.6 -03389.8 -07.4120 26277.1
 08 01 2013  05 18  -21.0155 26057.8 -03389.9 -07.4121 26277.4
 08 01 2013  05 19  -21.0153 26057.8 -03389.9 -07.4120 26277.3
 08 01 2013  05 20  -21.0148 26058.0 -03389.9 -07.4121 26277.6
 08 01 2013  05 21  -21.0146 26058.1 -03389.9 -07.4120 26277.7
 08 01 2013  05 22  -21.0143 26058.4 -03390.0 -07.4122 26277.9
 08 01 2013  05 23  -21.0140 26058.6 -03390.1 -07.4123 26278.2
 08 01 2013  05 24  -21.0140 26059.1 -03390.4 -07.4127 26278.8
 08 01 2013  05 25  -21.0138 26059.2 -03390.5 -07.4129 26278.9
 08 01 2013  05 26  -21.0139 26059.5 -03390.5 -07.4130 26279.1
 08 01 2013  05 27  -21.0135 26059.8 -03390.7 -07.4132 26279.5
 08 01 2013  05 28  -21.0131 26059.8 -03390.6 -07.4131 26279.5
 08 01 2013  05 29  -21.0131 26059.8 -03390.6 -07.4130 26279.5
 08 01 2013  05 30  -21.0129 26059.8 -03390.6 -07.4129 26279.5
 08 01 2013  05 31  -21.0126 26059.6 -03390.4 -07.4126 26279.2
 08 01 2013  05 32  -21.0124 26059.5 -03390.3 -07.4124 26279.1
 08 01 2013  05 33  -21.0119 26059.2 -03390.1 -07.4121 26278.8
 08 01 2013  05 34  -21.0115 26059.0 -03390.0 -07.4118 26278.5
 08 01 2013  05 35  -21.0110 26058.9 -03389.9 -07.4117 26278.4
 08 01 2013  05 36  -21.0107 26058.6 -03389.8 -07.4116 26278.2
 08 01 2013  05 37  -21.0106 26058.6 -03389.8 -07.4115 26278.1
 08 01 2013  05 38  -21.0104 26058.5 -03389.8 -07.4115 26278.1
 08 01 2013  05 39  -21.0103 26058.5 -03389.8 -07.4116 26278.0
 08 01 2013  05 40  -21.0101 26058.3 -03389.7 -07.4115 26277.9
 08 01 2013  05 41  -21.0099 26058.2 -03389.7 -07.4114 26277.8
 08 01 2013  05 42  -21.0097 26058.1 -03389.6 -07.4114 26277.7
 08 01 2013  05 43  -21.0096 26058.1 -03389.6 -07.4114 26277.6
 08 01 2013  05 44  -21.0095 26058.0 -03389.6 -07.4113 26277.5
 08 01 2013  05 45  -21.0094 26057.9 -03389.6 -07.4114 26277.5
 08 01 2013  05 46  -21.0093 26057.9 -03389.6 -07.4114 26277.5
 08 01 2013  05 47  -21.0092 26057.9 -03389.6 -07.4114 26277.5
 08 01 2013  05 48  -21.0092 26057.9 -03389.6 -07.4114 26277.5
 08 01 2013  05 49  -21.0092 26057.9 -03389.7 -07.4115 26277.5
 08 01 2013  05 50  -21.0093 26058.0 -03389.7 -07.4116 26277.6
 08 01 2013  05 51  -21.0094 26058.1 -03389.8 -07.4117 26277.7
 08 01 2013  05 52  -21.0096 26058.2 -03389.8 -07.4117 26277.8
 08 01 2013  05 53  -21.0097 26058.3 -03389.8 -07.4118 26277.8
 08 01 2013  05 54  -21.0098 26058.3 -03389.8 -07.4118 26277.8
 08 01 2013  05 55  -21.0099 26058.4 -03389.9 -07.4118 26278.0
 08 01 2013  05 56  -21.0102 26058.5 -03389.9 -07.4118 26278.1
 08 01 2013  05 57  -21.0104 26058.7 -03389.9 -07.4119 26278.3
 08 01 2013  05 58  -21.0106 26058.7 -03389.9 -07.4119 26278.3
 08 01 2013  05 59  -21.0111 26058.6 -03389.8 -07.4117 26278.2
 08 01 2013  06 00  -21.0114 26058.8 -03389.9 -07.4118 26278.4
 08 01 2013  06 01  -21.0118 26058.9 -03389.9 -07.4118 26278.5
 08 01 2013  06 02  -21.0123 26058.9 -03389.9 -07.4117 26278.5
 08 01 2013  06 03  -21.0124 26058.9 -03389.8 -07.4115 26278.5
 08 01 2013  06 04  -21.0126 26058.9 -03389.7 -07.4114 26278.4
 08 01 2013  06 05  -21.0127 26059.0 -03389.7 -07.4113 26278.5
 08 01 2013  06 06  -21.0127 26059.0 -03389.6 -07.4111 26278.5
 08 01 2013  06 07  -21.0126 26059.0 -03389.6 -07.4110 26278.5
 08 01 2013  06 08  -21.0126 26058.9 -03389.5 -07.4109 26278.5
 08 01 2013  06 09  -21.0127 26059.0 -03389.5 -07.4108 26278.5
 08 01 2013  06 10  -21.0126 26059.0 -03389.5 -07.4108 26278.5
 08 01 2013  06 11  -21.0126 26059.0 -03389.4 -07.4107 26278.5
 08 01 2013  06 12  -21.0126 26059.0 -03389.4 -07.4106 26278.5
 08 01 2013  06 13  -21.0126 26059.0 -03389.4 -07.4105 26278.5
 08 01 2013  06 14  -21.0126 26059.1 -03389.3 -07.4105 26278.5
 08 01 2013  06 15  -21.0125 26059.0 -03389.3 -07.4104 26278.5
 08 01 2013  06 16  -21.0125 26059.0 -03389.3 -07.4103 26278.5
 08 01 2013  06 17  -21.0125 26059.1 -03389.3 -07.4103 26278.5
 08 01 2013  06 18  -21.0125 26059.1 -03389.3 -07.4103 26278.6
 08 01 2013  06 19  -21.0125 26059.1 -03389.3 -07.4103 26278.6
 08 01 2013  06 20  -21.0125 26059.2 -03389.3 -07.4103 26278.6
 08 01 2013  06 21  -21.0124 26059.2 -03389.3 -07.4103 26278.7
 08 01 2013  06 22  -21.0124 26059.3 -03389.3 -07.4102 26278.7
 08 01 2013  06 23  -21.0125 26059.3 -03389.2 -07.4102 26278.8
 08 01 2013  06 24  -21.0125 26059.3 -03389.2 -07.4102 26278.8
 08 01 2013  06 25  -21.0126 26059.3 -03389.2 -07.4102 26278.8
 08 01 2013  06 26  -21.0127 26059.3 -03389.2 -07.4101 26278.8
 08 01 2013  06 27  -21.0127 26059.4 -03389.2 -07.4101 26278.9
 08 01 2013  06 28  -21.0126 26059.4 -03389.2 -07.4100 26278.8
 08 01 2013  06 29  -21.0125 26059.4 -03389.1 -07.4099 26278.8
 08 01 2013  06 30  -21.0123 26059.4 -03389.1 -07.4099 26278.8
 08 01 2013  06 31  -21.0121 26059.4 -03389.1 -07.4099 26278.8
 08 01 2013  06 32  -21.0121 26059.4 -03389.1 -07.4099 26278.9
 08 01 2013  06 33  -21.0120 26059.5 -03389.1 -07.4099 26278.9
 08 01 2013  06 34  -21.0120 26059.5 -03389.1 -07.4099 26279.0
 08 01 2013  06 35  -21.0119 26059.6 -03389.2 -07.4100 26279.1
 08 01 2013  06 36  -21.0118 26059.7 -03389.2 -07.4101 26279.2
 08 01 2013  06 37  -21.0119 26059.8 -03389.3 -07.4101 26279.3
 08 01 2013  06 38  -21.0119 26059.7 -03389.3 -07.4101 26279.2
 08 01 2013  06 39  -21.0119 26059.6 -03389.2 -07.4101 26279.1
 08 01 2013  06 40  -21.0118 26059.6 -03389.2 -07.4100 26279.1
 08 01 2013  06 41  -21.0118 26059.8 -03389.3 -07.4101 26279.3
 08 01 2013  06 42  -21.0117 26060.1 -03389.4 -07.4103 26279.6
 08 01 2013  06 43  -21.0117 26060.3 -03389.5 -07.4105 26279.8
 08 01 2013  06 44  -21.0118 26060.4 -03389.5 -07.4106 26279.9
 08 01 2013  06 45  -21.0118 26060.3 -03389.5 -07.4105 26279.8
 08 01 2013  06 46  -21.0118 26060.3 -03389.4 -07.4103 26279.8
 08 01 2013  06 47  -21.0117 26060.2 -03389.4 -07.4102 26279.6
 08 01 2013  06 48  -21.0117 26060.0 -03389.3 -07.4100 26279.5
 08 01 2013  06 49  -21.0117 26059.9 -03389.2 -07.4100 26279.3
 08 01 2013  06 50  -21.0115 26059.7 -03389.1 -07.4098 26279.2
 08 01 2013  06 51  -21.0114 26059.6 -03389.0 -07.4097 26279.1
 08 01 2013  06 52  -21.0113 26059.5 -03388.9 -07.4095 26278.9
 08 01 2013  06 53  -21.0113 26059.5 -03388.9 -07.4095 26278.9
 08 01 2013  06 54  -21.0110 26059.4 -03388.9 -07.4095 26278.9
 08 01 2013  06 55  -21.0110 26059.4 -03388.9 -07.4095 26278.9
 08 01 2013  06 56  -21.0109 26059.5 -03389.0 -07.4097 26279.0
 08 01 2013  06 57  -21.0109 26059.6 -03389.1 -07.4098 26279.1
 08 01 2013  06 58  -21.0111 26059.8 -03389.2 -07.4100 26279.3
 08 01 2013  06 59  -21.0112 26059.8 -03389.3 -07.4101 26279.3
 08 01 2013  07 00  -21.0114 26059.9 -03389.3 -07.4103 26279.4
 08 01 2013  07 01  -21.0114 26059.9 -03389.4 -07.4103 26279.4
 08 01 2013  07 02  -21.0113 26059.9 -03389.3 -07.4102 26279.3
 08 01 2013  07 03  -21.0112 26059.8 -03389.3 -07.4101 26279.3
 08 01 2013  07 04  -21.0112 26059.7 -03389.2 -07.4100 26279.2
 08 01 2013  07 05  -21.0110 26059.7 -03389.2 -07.4100 26279.2
 08 01 2013  07 06  -21.0109 26059.7 -03389.1 -07.4099 26279.1
 08 01 2013  07 07  -21.0108 26059.6 -03389.1 -07.4099 26279.1
 08 01 2013  07 08  -21.0108 26059.6 -03389.1 -07.4099 26279.1
 08 01 2013  07 09  -21.0108 26059.7 -03389.2 -07.4100 26279.2
 08 01 2013  07 10  -21.0108 26059.8 -03389.3 -07.4101 26279.3
 08 01 2013  07 11  -21.0108 26059.9 -03389.3 -07.4102 26279.4
 08 01 2013  07 12  -21.0107 26060.0 -03389.4 -07.4103 26279.5
 08 01 2013  07 13  -21.0106 26060.1 -03389.4 -07.4104 26279.6
 08 01 2013  07 14  -21.0106 26060.3 -03389.5 -07.4105 26279.8
 08 01 2013  07 15  -21.0105 26060.4 -03389.6 -07.4106 26279.9
 08 01 2013  07 16  -21.0104 26060.4 -03389.6 -07.4106 26279.9
 08 01 2013  07 17  -21.0104 26060.5 -03389.6 -07.4106 26280.0
 08 01 2013  07 18  -21.0102 26060.5 -03389.5 -07.4105 26280.0
 08 01 2013  07 19  -21.0100 26060.4 -03389.5 -07.4105 26279.9
 08 01 2013  07 20  -21.0099 26060.4 -03389.5 -07.4104 26279.9
 08 01 2013  07 21  -21.0097 26060.4 -03389.5 -07.4103 26279.9
 08 01 2013  07 22  -21.0095 26060.4 -03389.4 -07.4103 26279.9
 08 01 2013  07 23  -21.0093 26060.3 -03389.4 -07.4102 26279.8
 08 01 2013  07 24  -21.0092 26060.3 -03389.4 -07.4102 26279.8
 08 01 2013  07 25  -21.0092 26060.2 -03389.3 -07.4101 26279.7
 08 01 2013  07 26  -21.0091 26060.2 -03389.3 -07.4101 26279.7
 08 01 2013  07 27  -21.0090 26060.0 -03389.2 -07.4099 26279.5
 08 01 2013  07 28  -21.0092 26060.0 -03389.2 -07.4100 26279.5
 08 01 2013  07 29  -21.0092 26060.0 -03389.2 -07.4099 26279.5
 08 01 2013  07 30  -21.0092 26059.8 -03389.1 -07.4098 26279.3
 08 01 2013  07 31  -21.0092 26059.8 -03389.1 -07.4097 26279.3
 08 01 2013  07 32  -21.0093 26059.8 -03389.0 -07.4096 26279.2
 08 01 2013  07 33  -21.0094 26059.8 -03389.0 -07.4097 26279.2
 08 01 2013  07 34  -21.0095 26059.7 -03389.0 -07.4097 26279.2
 08 01 2013  07 35  -21.0096 26059.8 -03389.1 -07.4097 26279.2
 08 01 2013  07 36  -21.0095 26059.7 -03389.0 -07.4097 26279.1
 08 01 2013  07 37  -21.0095 26059.8 -03389.1 -07.4097 26279.2
 08 01 2013  07 38  -21.0095 26060.0 -03389.1 -07.4098 26279.4
 08 01 2013  07 39  -21.0099 26060.3 -03389.3 -07.4100 26279.8
 08 01 2013  07 40  -21.0099 26060.5 -03389.4 -07.4102 26280.0
 08 01 2013  07 41  -21.0103 26060.8 -03389.5 -07.4104 26280.3
 08 01 2013  07 42  -21.0104 26061.1 -03389.7 -07.4106 26280.6
 08 01 2013  07 43  -21.0107 26061.4 -03389.8 -07.4108 26280.9
 08 01 2013  07 44  -21.0107 26061.5 -03389.9 -07.4111 26281.1
 08 01 2013  07 45  -21.0105 26061.5 -03389.9 -07.4110 26281.0
 08 01 2013  07 46  -21.0102 26061.4 -03389.8 -07.4109 26280.9
 08 01 2013  07 47  -21.0097 26061.3 -03389.8 -07.4108 26280.8
 08 01 2013  07 48  -21.0091 26061.1 -03389.6 -07.4105 26280.6
 08 01 2013  07 49  -21.0087 26061.0 -03389.5 -07.4103 26280.5
 08 01 2013  07 50  -21.0085 26060.9 -03389.4 -07.4101 26280.4
 08 01 2013  07 51  -21.0081 26060.9 -03389.4 -07.4101 26280.4
 08 01 2013  07 52  -21.0080 26060.9 -03389.4 -07.4101 26280.3
 08 01 2013  07 53  -21.0080 26060.8 -03389.4 -07.4101 26280.3
 08 01 2013  07 54  -21.0079 26060.9 -03389.4 -07.4101 26280.4
 08 01 2013  07 55  -21.0078 26060.9 -03389.4 -07.4102 26280.4
 08 01 2013  07 56  -21.0076 26060.9 -03389.4 -07.4101 26280.4
 08 01 2013  07 57  -21.0076 26060.9 -03389.4 -07.4101 26280.4
 08 01 2013  07 58  -21.0076 26060.9 -03389.4 -07.4102 26280.4
 08 01 2013  07 59  -21.0076 26061.0 -03389.5 -07.4102 26280.4
 08 01 2013  08 00  -21.0077 26061.1 -03389.5 -07.4103 26280.6
 08 01 2013  08 01  -21.0079 26061.1 -03389.6 -07.4104 26280.6
 08 01 2013  08 02  -21.0081 26061.2 -03389.6 -07.4104 26280.7
 08 01 2013  08 03  -21.0081 26061.1 -03389.6 -07.4104 26280.6
 08 01 2013  08 04  -21.0085 26061.2 -03389.6 -07.4105 26280.7
 08 01 2013  08 05  -21.0087 26061.3 -03389.6 -07.4105 26280.8
 08 01 2013  08 06  -21.0091 26061.3 -03389.6 -07.4105 26280.8
 08 01 2013  08 07  -21.0094 26061.3 -03389.6 -07.4105 26280.8
 08 01 2013  08 08  -21.0096 26061.3 -03389.6 -07.4105 26280.9
 08 01 2013  08 09  -21.0097 26061.4 -03389.6 -07.4105 26280.9
 08 01 2013  08 10  -21.0096 26061.3 -03389.6 -07.4104 26280.8
 08 01 2013  08 11  -21.0096 26061.4 -03389.6 -07.4105 26280.9
 08 01 2013  08 12  -21.0095 26061.5 -03389.7 -07.4106 26281.0
 08 01 2013  08 13  -21.0094 26061.3 -03389.6 -07.4104 26280.8
 08 01 2013  08 14  -21.0094 26061.1 -03389.5 -07.4103 26280.6
 08 01 2013  08 15  -21.0093 26061.1 -03389.5 -07.4103 26280.6
 08 01 2013  08 16  -21.0089 26061.0 -03389.4 -07.4101 26280.5
 08 01 2013  08 17  -21.0089 26061.0 -03389.4 -07.4101 26280.5
 08 01 2013  08 18  -21.0087 26061.0 -03389.4 -07.4102 26280.5
 08 01 2013  08 19  -21.0087 26061.2 -03389.5 -07.4103 26280.7
 08 01 2013  08 20  -21.0088 26061.1 -03389.5 -07.4103 26280.6
 08 01 2013  08 21  -21.0088 26061.2 -03389.6 -07.4104 26280.7
 08 01 2013  08 22  -21.0087 26061.0 -03389.5 -07.4102 26280.5
 08 01 2013  08 23  -21.0087 26061.0 -03389.4 -07.4100 26280.5
 08 01 2013  08 24  -21.0087 26060.9 -03389.3 -07.4099 26280.4
 08 01 2013  08 25  -21.0086 26060.8 -03389.2 -07.4097 26280.2
 08 01 2013  08 26  -21.0086 26060.7 -03389.1 -07.4096 26280.1
 08 01 2013  08 27  -21.0085 26060.6 -03389.1 -07.4095 26280.1
 08 01 2013  08 28  -21.0086 26060.6 -03389.1 -07.4095 26280.0
 08 01 2013  08 29  -21.0085 26060.7 -03389.1 -07.4095 26280.1
 08 01 2013  08 30  -21.0083 26060.6 -03389.0 -07.4094 26280.0
 08 01 2013  08 31  -21.0084 26060.6 -03389.1 -07.4095 26280.0
 08 01 2013  08 32  -21.0082 26060.5 -03389.0 -07.4094 26280.0
 08 01 2013  08 33  -21.0080 26060.4 -03388.9 -07.4093 26279.9
 08 01 2013  08 34  -21.0080 26060.3 -03388.9 -07.4092 26279.7
 08 01 2013  08 35  -21.0080 26060.3 -03388.9 -07.4092 26279.7
 08 01 2013  08 36  -21.0080 26060.3 -03388.9 -07.4092 26279.8
 08 01 2013  08 37  -21.0078 26060.2 -03388.8 -07.4091 26279.6
 08 01 2013  08 38  -21.0079 26060.2 -03388.8 -07.4091 26279.7
 08 01 2013  08 39  -21.0079 26060.2 -03388.8 -07.4091 26279.6
 08 01 2013  08 40  -21.0080 26060.2 -03388.8 -07.4090 26279.6
 08 01 2013  08 41  -21.0079 26060.1 -03388.8 -07.4089 26279.5
 08 01 2013  08 42  -21.0078 26060.0 -03388.7 -07.4088 26279.3
 08 01 2013  08 43  -21.0076 26059.8 -03388.6 -07.4087 26279.2
 08 01 2013  08 44  -21.0074 26059.7 -03388.6 -07.4087 26279.1
 08 01 2013  08 45  -21.0072 26059.7 -03388.6 -07.4087 26279.1
 08 01 2013  08 46  -21.0070 26059.6 -03388.6 -07.4088 26278.9
 08 01 2013  08 47  -21.0067 26059.4 -03388.6 -07.4087 26278.8
 08 01 2013  08 48  -21.0063 26059.4 -03388.7 -07.4089 26278.8
 08 01 2013  08 49  -21.0060 26059.2 -03388.7 -07.4091 26278.6
 08 01 2013  08 50  -21.0053 26059.2 -03388.8 -07.4094 26278.6
 08 01 2013  08 51  -21.0047 26059.0 -03388.9 -07.4095 26278.4
 08 01 2013  08 52  -21.0039 26059.0 -03389.0 -07.4099 26278.4
 08 01 2013  08 53  -21.0033 26058.9 -03389.2 -07.4102 26278.4
 08 01 2013  08 54  -21.0029 26058.8 -03389.4 -07.4106 26278.3
 08 01 2013  08 55  -21.0026 26058.7 -03389.5 -07.4110 26278.2
 08 01 2013  08 56  -21.0024 26058.7 -03389.8 -07.4116 26278.3
 08 01 2013  08 57  -21.0019 26058.7 -03390.0 -07.4121 26278.3
 08 01 2013  08 58  -21.0018 26058.8 -03390.3 -07.4126 26278.4
 08 01 2013  08 59  -21.0018 26058.8 -03390.5 -07.4131 26278.4
 08 01 2013  09 00  -21.0016 26058.8 -03390.7 -07.4136 26278.5
 08 01 2013  09 01  -21.0017 26058.8 -03390.9 -07.4139 26278.5
 08 01 2013  09 02  -21.0021 26058.8 -03391.2 -07.4145 26278.6
 08 01 2013  09 03  -21.0023 26058.8 -03391.4 -07.4149 26278.6
 08 01 2013  09 04  -21.0024 26058.9 -03391.6 -07.4154 26278.7
 08 01 2013  09 05  -21.0027 26059.0 -03391.8 -07.4158 26278.8
 08 01 2013  09 06  -21.0033 26059.0 -03392.0 -07.4162 26278.8
 08 01 2013  09 07  -21.0040 26059.1 -03392.2 -07.4167 26279.0
 08 01 2013  09 08  -21.0046 26059.2 -03392.3 -07.4168 26279.0
 08 01 2013  09 09  -21.0053 26059.2 -03392.5 -07.4172 26279.1
 08 01 2013  09 10  -21.0058 26059.3 -03392.6 -07.4175 26279.2
 08 01 2013  09 11  -21.0064 26059.3 -03392.8 -07.4178 26279.3
 08 01 2013  09 12  -21.0071 26059.5 -03392.9 -07.4181 26279.4
 08 01 2013  09 13  -21.0073 26059.5 -03393.0 -07.4183 26279.4
 08 01 2013  09 14  -21.0079 26059.6 -03393.2 -07.4186 26279.6
 08 01 2013  09 15  -21.0084 26059.7 -03393.3 -07.4189 26279.7
 08 01 2013  09 16  -21.0090 26059.7 -03393.4 -07.4190 26279.7
 08 01 2013  09 17  -21.0089 26059.6 -03393.4 -07.4191 26279.6
 08 01 2013  09 18  -21.0092 26059.7 -03393.6 -07.4194 26279.8
 08 01 2013  09 19  -21.0098 26059.9 -03393.8 -07.4199 26280.0
 08 01 2013  09 20  -21.0105 26060.0 -03393.9 -07.4201 26280.1
 08 01 2013  09 21  -21.0113 26060.2 -03394.1 -07.4204 26280.3
 08 01 2013  09 22  -21.0115 26060.5 -03394.2 -07.4205 26280.6
 08 01 2013  09 23  -21.0124 26060.5 -03394.2 -07.4206 26280.6
 08 01 2013  09 24  -21.0129 26060.4 -03394.1 -07.4204 26280.5
 08 01 2013  09 25  -21.0136 26060.4 -03394.0 -07.4203 26280.5
 08 01 2013  09 26  -21.0140 26060.4 -03394.0 -07.4202 26280.5
 08 01 2013  09 27  -21.0147 26060.5 -03394.0 -07.4202 26280.6
 08 01 2013  09 28  -21.0150 26060.4 -03394.0 -07.4201 26280.5
 08 01 2013  09 29  -21.0157 26060.6 -03394.1 -07.4203 26280.7
 08 01 2013  09 30  -21.0165 26060.8 -03394.2 -07.4205 26280.9
 08 01 2013  09 31  -21.0173 26060.8 -03394.2 -07.4205 26280.9
 08 01 2013  09 32  -21.0181 26060.9 -03394.2 -07.4205 26281.0
 08 01 2013  09 33  -21.0188 26060.9 -03394.2 -07.4204 26281.0
 08 01 2013  09 34  -21.0198 26061.0 -03394.1 -07.4203 26281.1
 08 01 2013  09 35  -21.0204 26060.9 -03394.0 -07.4201 26281.0
 08 01 2013  09 36  -21.0208 26060.9 -03393.9 -07.4198 26281.0
 08 01 2013  09 37  -21.0214 26060.8 -03393.8 -07.4196 26280.8
 08 01 2013  09 38  -21.0218 26060.6 -03393.7 -07.4195 26280.6
 08 01 2013  09 39  -21.0221 26060.5 -03393.6 -07.4194 26280.5
 08 01 2013  09 40  -21.0223 26060.4 -03393.6 -07.4194 26280.4
 08 01 2013  09 41  -21.0228 26060.4 -03393.6 -07.4194 26280.4
 08 01 2013  09 42  -21.0233 26060.3 -03393.7 -07.4195 26280.4
 08 01 2013  09 43  -21.0236 26060.4 -03393.7 -07.4195 26280.4
 08 01 2013  09 44  -21.0240 26060.4 -03393.7 -07.4196 26280.4
 08 01 2013  09 45  -21.0242 26060.3 -03393.7 -07.4195 26280.3
 08 01 2013  09 46  -21.0247 26060.3 -03393.7 -07.4196 26280.4
 08 01 2013  09 47  -21.0254 26060.6 -03393.8 -07.4196 26280.6
 08 01 2013  09 48  -21.0263 26060.8 -03393.8 -07.4196 26280.9
 08 01 2013  09 49  -21.0271 26061.1 -03393.8 -07.4195 26281.1
 08 01 2013  09 50  -21.0280 26061.3 -03393.7 -07.4192 26281.3
 08 01 2013  09 51  -21.0289 26061.5 -03393.5 -07.4189 26281.5
 08 01 2013  09 52  -21.0296 26061.5 -03393.4 -07.4185 26281.5
 08 01 2013  09 53  -21.0297 26061.4 -03393.2 -07.4181 26281.3
 08 01 2013  09 54  -21.0298 26061.1 -03392.9 -07.4177 26281.0
 08 01 2013  09 55  -21.0303 26060.9 -03392.8 -07.4174 26280.8
 08 01 2013  09 56  -21.0306 26060.9 -03392.7 -07.4173 26280.8
 08 01 2013  09 57  -21.0311 26060.9 -03392.7 -07.4173 26280.8
 08 01 2013  09 58  -21.0314 26060.9 -03392.7 -07.4173 26280.8
 08 01 2013  09 59  -21.0320 26061.0 -03392.7 -07.4173 26280.9
 08 01 2013  10 00  -21.0325 26061.1 -03392.8 -07.4173 26281.0
 08 01 2013  10 01  -21.0327 26061.1 -03392.7 -07.4172 26281.0
 08 01 2013  10 02  -21.0334 26061.3 -03392.7 -07.4172 26281.3
 08 01 2013  10 03  -21.0336 26061.4 -03392.7 -07.4171 26281.3
 08 01 2013  10 04  -21.0344 26061.5 -03392.7 -07.4171 26281.4
 08 01 2013  10 05  -21.0349 26061.7 -03392.6 -07.4169 26281.6
 08 01 2013  10 06  -21.0354 26061.8 -03392.6 -07.4168 26281.7
 08 01 2013  10 07  -21.0357 26061.9 -03392.5 -07.4166 26281.7
 08 01 2013  10 08  -21.0363 26062.0 -03392.5 -07.4164 26281.9
 08 01 2013  10 09  -21.0366 26062.1 -03392.4 -07.4163 26281.9
 08 01 2013  10 10  -21.0369 26062.0 -03392.3 -07.4161 26281.9
 08 01 2013  10 11  -21.0372 26062.1 -03392.2 -07.4158 26281.9
 08 01 2013  10 12  -21.0372 26062.1 -03392.2 -07.4157 26281.9
 08 01 2013  10 13  -21.0373 26062.1 -03392.1 -07.4156 26282.0
 08 01 2013  10 14  -21.0376 26062.4 -03392.2 -07.4157 26282.2
 08 01 2013  10 15  -21.0378 26062.5 -03392.1 -07.4155 26282.3
 08 01 2013  10 16  -21.0385 26062.8 -03392.2 -07.4156 26282.6
 08 01 2013  10 17  -21.0385 26063.0 -03392.1 -07.4154 26282.8
 08 01 2013  10 18  -21.0391 26063.2 -03392.1 -07.4152 26283.0
 08 01 2013  10 19  -21.0396 26063.3 -03392.0 -07.4150 26283.1
 08 01 2013  10 20  -21.0394 26063.3 -03391.8 -07.4147 26283.1
 08 01 2013  10 21  -21.0398 26063.3 -03391.7 -07.4145 26283.1
 08 01 2013  10 22  -21.0399 26063.5 -03391.7 -07.4144 26283.2
 08 01 2013  10 23  -21.0395 26063.3 -03391.5 -07.4140 26283.1
 08 01 2013  10 24  -21.0399 26063.6 -03391.6 -07.4140 26283.3
 08 01 2013  10 25  -21.0399 26063.7 -03391.5 -07.4139 26283.4
 08 01 2013  10 26  -21.0399 26063.9 -03391.5 -07.4138 26283.6
 08 01 2013  10 27  -21.0400 26063.8 -03391.3 -07.4135 26283.5
 08 01 2013  10 28  -21.0400 26063.9 -03391.3 -07.4133 26283.6
 08 01 2013  10 29  -21.0404 26064.1 -03391.3 -07.4132 26283.8
 08 01 2013  10 30  -21.0405 26064.3 -03391.3 -07.4132 26284.0
 08 01 2013  10 31  -21.0402 26064.2 -03391.1 -07.4129 26283.9
 08 01 2013  10 32  -21.0402 26064.1 -03391.0 -07.4127 26283.7
 08 01 2013  10 33  -21.0400 26064.2 -03391.0 -07.4127 26283.8
 08 01 2013  10 34  -21.0395 26064.2 -03391.0 -07.4126 26283.9
 08 01 2013  10 35  -21.0399 26064.7 -03391.2 -07.4128 26284.4
 08 01 2013  10 36  -21.0406 26065.6 -03391.3 -07.4130 26285.3
 08 01 2013  10 37  -21.0412 26066.3 -03391.4 -07.4130 26286.0
 08 01 2013  10 38  -21.0413 26066.6 -03391.3 -07.4126 26286.3
 08 01 2013  10 39  -21.0409 26066.5 -03391.0 -07.4120 26286.1
 08 01 2013  10 40  -21.0410 26066.7 -03390.9 -07.4117 26286.3
 08 01 2013  10 41  -21.0408 26066.8 -03390.8 -07.4114 26286.4
 08 01 2013  10 42  -21.0405 26066.7 -03390.5 -07.4109 26286.3
 08 01 2013  10 43  -21.0408 26066.9 -03390.4 -07.4107 26286.5
 08 01 2013  10 44  -21.0406 26067.0 -03390.3 -07.4104 26286.6
 08 01 2013  10 45  -21.0404 26067.2 -03390.2 -07.4102 26286.8
 08 01 2013  10 46  -21.0407 26067.4 -03390.1 -07.4099 26286.9
 08 01 2013  10 47  -21.0407 26067.7 -03390.1 -07.4097 26287.2
 08 01 2013  10 48  -21.0410 26067.9 -03389.9 -07.4093 26287.4
 08 01 2013  10 49  -21.0408 26068.1 -03389.8 -07.4089 26287.6
 08 01 2013  10 50  -21.0406 26068.1 -03389.6 -07.4085 26287.5
 08 01 2013  10 51  -21.0406 26068.0 -03389.4 -07.4082 26287.5
 08 01 2013  10 52  -21.0400 26067.6 -03389.1 -07.4076 26287.0
 08 01 2013  10 53  -21.0398 26067.5 -03389.1 -07.4075 26286.9
 08 01 2013  10 54  -21.0398 26067.9 -03389.2 -07.4077 26287.3
 08 01 2013  10 55  -21.0405 26069.0 -03389.6 -07.4082 26288.4
 08 01 2013  10 56  -21.0409 26069.5 -03389.6 -07.4081 26289.0
 08 01 2013  10 57  -21.0414 26070.6 -03389.8 -07.4083 26290.1
 08 01 2013  10 58  -21.0409 26071.0 -03389.6 -07.4078 26290.4
 08 01 2013  10 59  -21.0415 26071.8 -03389.7 -07.4077 26291.2
 08 01 2013  11 00  -21.0405 26071.3 -03389.2 -07.4067 26290.6
 08 01 2013  11 01  -21.0414 26071.4 -03389.0 -07.4064 26290.8
 08 01 2013  11 02  -21.0403 26071.5 -03389.1 -07.4064 26290.9
 08 01 2013  11 03  -21.0410 26072.0 -03389.2 -07.4065 26291.3
 08 01 2013  11 04  -21.0404 26072.1 -03389.2 -07.4065 26291.5
 08 01 2013  11 05  -21.0400 26072.2 -03389.0 -07.4060 26291.5
 08 01 2013  11 06  -21.0402 26072.9 -03389.2 -07.4062 26292.2
 08 01 2013  11 07  -21.0405 26073.4 -03389.2 -07.4061 26292.8
 08 01 2013  11 08  -21.0411 26074.3 -03389.3 -07.4062 26293.6
 08 01 2013  11 09  -21.0407 26074.7 -03389.1 -07.4057 26294.0
 08 01 2013  11 10  -21.0408 26075.3 -03389.0 -07.4052 26294.6
 08 01 2013  11 11  -21.0405 26075.4 -03388.6 -07.4044 26294.7
 08 01 2013  11 12  -21.0411 26075.4 -03388.2 -07.4035 26294.7
 08 01 2013  11 13  -21.0413 26075.0 -03387.9 -07.4028 26294.2
 08 01 2013  11 14  -21.0407 26074.0 -03387.3 -07.4019 26293.2
 08 01 2013  11 15  -21.0401 26072.6 -03386.8 -07.4013 26291.7
 08 01 2013  11 16  -21.0392 26071.3 -03386.5 -07.4010 26290.3
 08 01 2013  11 17  -21.0388 26070.4 -03386.6 -07.4014 26289.5
 08 01 2013  11 18  -21.0387 26069.9 -03386.9 -07.4021 26289.0
 08 01 2013  11 19  -21.0393 26070.2 -03387.4 -07.4032 26289.4
 08 01 2013  11 20  -21.0406 26072.0 -03388.4 -07.4049 26291.2
 08 01 2013  11 21  -21.0422 26074.5 -03389.4 -07.4063 26293.9
 08 01 2013  11 22  -21.0426 26076.3 -03389.7 -07.4063 26295.7
 08 01 2013  11 23  -21.0419 26076.9 -03389.3 -07.4053 26296.3
 08 01 2013  11 24  -21.0411 26076.9 -03388.6 -07.4039 26296.1
 08 01 2013  11 25  -21.0407 26076.7 -03388.0 -07.4027 26295.8
 08 01 2013  11 26  -21.0406 26076.1 -03387.5 -07.4018 26295.2
 08 01 2013  11 27  -21.0404 26075.2 -03387.0 -07.4009 26294.3
 08 01 2013  11 28  -21.0409 26074.6 -03386.8 -07.4006 26293.6
 08 01 2013  11 29  -21.0408 26074.1 -03386.7 -07.4005 26293.1
 08 01 2013  11 30  -21.0410 26074.0 -03386.8 -07.4007 26293.0
 08 01 2013  11 31  -21.0412 26074.5 -03387.1 -07.4013 26293.6
 08 01 2013  11 32  -21.0408 26075.2 -03387.4 -07.4017 26294.3
 08 01 2013  11 33  -21.0407 26075.6 -03387.3 -07.4015 26294.7
 08 01 2013  11 34  -21.0411 26075.6 -03387.0 -07.4009 26294.7
 08 01 2013  11 35  -21.0414 26075.6 -03386.8 -07.4003 26294.6
 08 01 2013  11 36  -21.0408 26075.5 -03386.5 -07.3998 26294.5
 08 01 2013  11 37  -21.0407 26075.3 -03386.3 -07.3994 26294.3
 08 01 2013  11 38  -21.0409 26075.5 -03386.3 -07.3993 26294.5
 08 01 2013  11 39  -21.0406 26075.7 -03386.3 -07.3991 26294.6
 08 01 2013  11 40  -21.0404 26075.7 -03386.1 -07.3989 26294.6
 08 01 2013  11 41  -21.0400 26075.5 -03385.9 -07.3985 26294.5
 08 01 2013  11 42  -21.0402 26075.7 -03385.8 -07.3983 26294.6
 08 01 2013  11 43  -21.0404 26076.0 -03385.8 -07.3981 26294.9
 08 01 2013  11 44  -21.0401 26076.2 -03385.7 -07.3979 26295.1
 08 01 2013  11 45  -21.0397 26076.5 -03385.6 -07.3976 26295.4
 08 01 2013  11 46  -21.0393 26076.9 -03385.6 -07.3974 26295.8
 08 01 2013  11 47  -21.0390 26077.3 -03385.5 -07.3971 26296.2
 08 01 2013  11 48  -21.0388 26077.6 -03385.4 -07.3967 26296.4
 08 01 2013  11 49  -21.0386 26077.7 -03385.1 -07.3961 26296.4
 08 01 2013  11 50  -21.0381 26077.7 -03384.9 -07.3956 26296.5
 08 01 2013  11 51  -21.0377 26077.9 -03384.7 -07.3952 26296.6
 08 01 2013  11 52  -21.0372 26078.1 -03384.7 -07.3950 26296.8
 08 01 2013  11 53  -21.0370 26078.3 -03384.6 -07.3949 26297.0
 08 01 2013  11 54  -21.0361 26079.1 -03384.8 -07.3951 26297.8
 08 01 2013  11 55  -21.0348 26080.0 -03385.1 -07.3954 26298.8
 08 01 2013  11 56  -21.0338 26081.4 -03385.5 -07.3958 26300.2
 08 01 2013  11 57  -21.0330 26082.6 -03385.6 -07.3957 26301.4
 08 01 2013  11 58  -21.0325 26083.3 -03385.4 -07.3951 26302.0
 08 01 2013  11 59  -21.0319 26083.5 -03385.1 -07.3944 26302.3
 08 01 2013  12 00  -21.0321 26083.6 -03384.8 -07.3937 26302.3
 08 01 2013  12 01  -21.0322 26084.0 -03384.6 -07.3933 26302.6
 08 01 2013  12 02  -21.0320 26084.2 -03384.5 -07.3930 26302.9
 08 01 2013  12 03  -21.0320 26084.9 -03384.6 -07.3930 26303.5
 08 01 2013  12 04  -21.0317 26085.6 -03384.6 -07.3929 26304.2
 08 01 2013  12 05  -21.0312 26086.1 -03384.6 -07.3926 26304.7
 08 01 2013  12 06  -21.0303 26086.5 -03384.4 -07.3922 26305.1
 08 01 2013  12 07  -21.0298 26086.6 -03384.1 -07.3915 26305.2
 08 01 2013  12 08  -21.0292 26086.5 -03383.8 -07.3907 26305.0
 08 01 2013  12 09  -21.0286 26086.3 -03383.4 -07.3899 26304.8
 08 01 2013  12 10  -21.0291 26086.0 -03383.0 -07.3892 26304.4
 08 01 2013  12 11  -21.0299 26085.6 -03382.6 -07.3886 26304.0
 08 01 2013  12 12  -21.0303 26085.2 -03382.4 -07.3882 26303.6
 08 01 2013  12 13  -21.0301 26085.3 -03382.5 -07.3884 26303.7
 08 01 2013  12 14  -21.0292 26085.6 -03382.7 -07.3887 26304.0
 08 01 2013  12 15  -21.0280 26086.4 -03383.1 -07.3893 26304.9
 08 01 2013  12 16  -21.0262 26087.6 -03383.5 -07.3898 26306.1
 08 01 2013  12 17  -21.0253 26088.6 -03383.7 -07.3899 26307.1
 08 01 2013  12 18  -21.0250 26089.2 -03383.6 -07.3896 26307.7
 08 01 2013  12 19  -21.0248 26089.3 -03383.3 -07.3889 26307.7
 08 01 2013  12 20  -21.0251 26089.1 -03383.0 -07.3883 26307.5
 08 01 2013  12 21  -21.0253 26089.1 -03382.8 -07.3880 26307.5
 08 01 2013  12 22  -21.0257 26089.4 -03382.9 -07.3882 26307.8
 08 01 2013  12 23  -21.0256 26090.0 -03383.1 -07.3884 26308.4
 08 01 2013  12 24  -21.0252 26090.5 -03383.3 -07.3885 26308.9
 08 01 2013  12 25  -21.0244 26090.8 -03383.2 -07.3883 26309.2
 08 01 2013  12 26  -21.0238 26090.9 -03383.0 -07.3879 26309.3
 08 01 2013  12 27  -21.0231 26091.1 -03383.0 -07.3877 26309.5
 08 01 2013  12 28  -21.0228 26091.5 -03383.1 -07.3878 26309.9
 08 01 2013  12 29  -21.0228 26091.8 -03383.1 -07.3879 26310.2
 08 01 2013  12 30  -21.0228 26091.9 -03383.1 -07.3877 26310.3
 08 01 2013  12 31  -21.0224 26092.1 -03383.1 -07.3878 26310.5
 08 01 2013  12 32  -21.0223 26092.2 -03383.1 -07.3878 26310.7
 08 01 2013  12 33  -21.0222 26092.4 -03383.1 -07.3876 26310.8
 08 01 2013  12 34  -21.0221 26092.5 -03383.1 -07.3876 26310.9
 08 01 2013  12 35  -21.0213 26092.6 -03383.1 -07.3876 26311.0
 08 01 2013  12 36  -21.0206 26092.9 -03383.2 -07.3878 26311.3
 08 01 2013  12 37  -21.0203 26093.3 -03383.4 -07.3880 26311.8
 08 01 2013  12 38  -21.0202 26093.7 -03383.5 -07.3882 26312.2
 08 01 2013  12 39  -21.0199 26094.3 -03383.7 -07.3885 26312.8
 08 01 2013  12 40  -21.0199 26094.8 -03383.9 -07.3887 26313.3
 08 01 2013  12 41  -21.0199 26095.6 -03384.1 -07.3890 26314.1
 08 01 2013  12 42  -21.0197 26095.9 -03384.1 -07.3888 26314.4
 08 01 2013  12 43  -21.0193 26096.2 -03384.1 -07.3887 26314.7
 08 01 2013  12 44  -21.0190 26096.4 -03384.1 -07.3887 26314.9
 08 01 2013  12 45  -21.0187 26096.8 -03384.3 -07.3889 26315.3
 08 01 2013  12 46  -21.0187 26097.3 -03384.4 -07.3890 26315.8
 08 01 2013  12 47  -21.0187 26097.7 -03384.4 -07.3890 26316.2
 08 01 2013  12 48  -21.0184 26098.0 -03384.5 -07.3890 26316.5
 08 01 2013  12 49  -21.0183 26098.3 -03384.6 -07.3891 26316.9
 08 01 2013  12 50  -21.0183 26098.6 -03384.6 -07.3892 26317.2
 08 01 2013  12 51  -21.0182 26099.0 -03384.7 -07.3892 26317.6
 08 01 2013  12 52  -21.0180 26099.6 -03384.8 -07.3893 26318.1
 08 01 2013  12 53  -21.0180 26100.0 -03384.9 -07.3893 26318.6
 08 01 2013  12 54  -21.0181 26100.4 -03384.8 -07.3892 26319.0
 08 01 2013  12 55  -21.0176 26100.6 -03384.8 -07.3890 26319.2
 08 01 2013  12 56  -21.0178 26100.8 -03384.8 -07.3889 26319.3
 08 01 2013  12 57  -21.0179 26100.9 -03384.7 -07.3888 26319.4
 08 01 2013  12 58  -21.0179 26101.1 -03384.8 -07.3888 26319.7
 08 01 2013  12 59  -21.0177 26101.5 -03384.8 -07.3889 26320.0
 08 01 2013  13 00  -21.0177 26101.9 -03385.0 -07.3890 26320.5
 08 01 2013  13 01  -21.0179 26102.3 -03385.0 -07.3890 26320.9
 08 01 2013  13 02  -21.0178 26102.5 -03385.0 -07.3889 26321.1
 08 01 2013  13 03  -21.0177 26103.0 -03385.1 -07.3890 26321.6
 08 01 2013  13 04  -21.0175 26103.7 -03385.2 -07.3891 26322.3
 08 01 2013  13 05  -21.0178 26104.2 -03385.2 -07.3889 26322.8
 08 01 2013  13 06  -21.0193 26104.2 -03384.9 -07.3882 26322.8
 08 01 2013  13 07  -21.0204 26103.9 -03384.5 -07.3875 26322.4
 08 01 2013  13 08  -21.0206 26103.6 -03384.3 -07.3872 26322.1
 08 01 2013  13 09  -21.0206 26103.5 -03384.3 -07.3871 26322.0
 08 01 2013  13 10  -21.0208 26103.9 -03384.4 -07.3873 26322.4
 08 01 2013  13 11  -21.0210 26104.5 -03384.6 -07.3874 26323.0
 08 01 2013  13 12  -21.0214 26104.8 -03384.4 -07.3871 26323.3
 08 01 2013  13 13  -21.0219 26104.9 -03384.3 -07.3867 26323.4
 08 01 2013  13 14  -21.0226 26105.2 -03384.2 -07.3864 26323.6
 08 01 2013  13 15  -21.0234 26105.4 -03384.1 -07.3863 26323.8
 08 01 2013  13 16  -21.0238 26105.6 -03384.1 -07.3861 26324.1
 08 01 2013  13 17  -21.0236 26106.2 -03384.2 -07.3861 26324.7
 08 01 2013  13 18  -21.0235 26106.8 -03384.3 -07.3861 26325.2
 08 01 2013  13 19  -21.0237 26107.5 -03384.3 -07.3861 26326.0
 08 01 2013  13 20  -21.0239 26108.3 -03384.3 -07.3859 26326.7
 08 01 2013  13 21  -21.0242 26108.9 -03384.3 -07.3856 26327.3
 08 01 2013  13 22  -21.0247 26109.3 -03384.1 -07.3851 26327.7
 08 01 2013  13 23  -21.0255 26109.7 -03383.9 -07.3845 26328.1
 08 01 2013  13 24  -21.0263 26110.0 -03383.7 -07.3840 26328.4
 08 01 2013  13 25  -21.0271 26110.4 -03383.4 -07.3833 26328.7
 08 01 2013  13 26  -21.0282 26110.3 -03383.0 -07.3824 26328.6
 08 01 2013  13 27  -21.0292 26110.4 -03382.6 -07.3816 26328.6
 08 01 2013  13 28  -21.0303 26109.8 -03382.1 -07.3806 26328.0
 08 01 2013  13 29  -21.0305 26109.6 -03381.8 -07.3800 26327.7
 08 01 2013  13 30  -21.0307 26110.6 -03382.1 -07.3804 26328.7
 08 01 2013  13 31  -21.0310 26111.6 -03382.2 -07.3803 26329.7
 08 01 2013  13 32  -21.0308 26112.7 -03382.2 -07.3801 26330.8
 08 01 2013  13 33  -21.0306 26113.5 -03382.0 -07.3795 26331.6
 08 01 2013  13 34  -21.0308 26113.6 -03381.4 -07.3782 26331.6
 08 01 2013  13 35  -21.0318 26113.2 -03380.7 -07.3767 26331.1
 08 01 2013  13 36  -21.0328 26112.8 -03380.1 -07.3754 26330.6
 08 01 2013  13 37  -21.0337 26112.2 -03379.5 -07.3744 26329.9
 08 01 2013  13 38  -21.0345 26111.9 -03379.1 -07.3735 26329.6
 08 01 2013  13 39  -21.0355 26111.5 -03378.6 -07.3727 26329.2
 08 01 2013  13 40  -21.0360 26111.3 -03378.3 -07.3720 26328.9
 08 01 2013  13 41  -21.0361 26111.2 -03378.0 -07.3715 26328.8
 08 01 2013  13 42  -21.0359 26111.5 -03377.9 -07.3712 26329.1
 08 01 2013  13 43  -21.0362 26112.2 -03378.0 -07.3711 26329.8
 08 01 2013  13 44  -21.0368 26112.7 -03377.8 -07.3706 26330.2
 08 01 2013  13 45  -21.0369 26113.2 -03377.7 -07.3701 26330.8
 08 01 2013  13 46  -21.0372 26114.0 -03377.6 -07.3698 26331.5
 08 01 2013  13 47  -21.0377 26114.8 -03377.5 -07.3694 26332.3
 08 01 2013  13 48  -21.0382 26115.5 -03377.4 -07.3688 26333.0
 08 01 2013  13 49  -21.0389 26116.4 -03377.2 -07.3683 26333.9
 08 01 2013  13 50  -21.0399 26116.9 -03376.8 -07.3672 26334.3
 08 01 2013  13 51  -21.0407 26116.9 -03376.2 -07.3659 26334.2
 08 01 2013  13 52  -21.0416 26116.4 -03375.5 -07.3645 26333.7
 08 01 2013  13 53  -21.0423 26116.5 -03375.2 -07.3638 26333.7
 08 01 2013  13 54  -21.0435 26116.9 -03375.0 -07.3632 26334.1
 08 01 2013  13 55  -21.0447 26117.2 -03374.6 -07.3624 26334.3
 08 01 2013  13 56  -21.0453 26117.3 -03374.2 -07.3616 26334.4
 08 01 2013  13 57  -21.0457 26118.0 -03374.2 -07.3612 26335.1
 08 01 2013  13 58  -21.0463 26118.8 -03374.1 -07.3607 26335.8
 08 01 2013  13 59  -21.0470 26119.6 -03373.9 -07.3601 26336.6
 08 01 2013  14 00  -21.0477 26120.2 -03373.5 -07.3592 26337.2
 08 01 2013  14 01  -21.0485 26120.6 -03373.0 -07.3581 26337.5
 08 01 2013  14 02  -21.0494 26120.7 -03372.5 -07.3569 26337.5
 08 01 2013  14 03  -21.0504 26120.7 -03372.0 -07.3557 26337.5
 08 01 2013  14 04  -21.0513 26120.8 -03371.6 -07.3548 26337.5
 08 01 2013  14 05  -21.0524 26121.1 -03371.3 -07.3541 26337.8
 08 01 2013  14 06  -21.0533 26121.5 -03371.0 -07.3533 26338.1
 08 01 2013  14 07  -21.0542 26121.9 -03370.6 -07.3525 26338.5
 08 01 2013  14 08  -21.0548 26122.3 -03370.3 -07.3517 26338.8
 08 01 2013  14 09  -21.0554 26122.5 -03369.9 -07.3507 26338.9
 08 01 2013  14 10  -21.0559 26122.8 -03369.6 -07.3500 26339.2
 08 01 2013  14 11  -21.0568 26123.2 -03369.3 -07.3493 26339.6
 08 01 2013  14 12  -21.0578 26123.5 -03368.9 -07.3484 26339.9
 08 01 2013  14 13  -21.0586 26123.9 -03368.6 -07.3475 26340.1
 08 01 2013  14 14  -21.0595 26124.4 -03368.3 -07.3467 26340.6
 08 01 2013  14 15  -21.0604 26124.6 -03367.9 -07.3458 26340.8
 08 01 2013  14 16  -21.0611 26124.7 -03367.4 -07.3447 26340.9
 08 01 2013  14 17  -21.0618 26124.6 -03366.8 -07.3435 26340.7
 08 01 2013  14 18  -21.0624 26124.4 -03366.2 -07.3422 26340.3
 08 01 2013  14 19  -21.0631 26124.4 -03365.8 -07.3413 26340.3
 08 01 2013  14 20  -21.0640 26124.7 -03365.4 -07.3405 26340.6
 08 01 2013  14 21  -21.0645 26124.8 -03365.0 -07.3396 26340.6
 08 01 2013  14 22  -21.0648 26125.1 -03364.7 -07.3387 26340.9
 08 01 2013  14 23  -21.0656 26125.2 -03364.1 -07.3376 26340.9
 08 01 2013  14 24  -21.0658 26125.0 -03363.5 -07.3363 26340.6
 08 01 2013  14 25  -21.0655 26124.8 -03363.1 -07.3354 26340.4
 08 01 2013  14 26  -21.0653 26125.1 -03362.9 -07.3349 26340.7
 08 01 2013  14 27  -21.0658 26125.9 -03362.9 -07.3346 26341.4
 08 01 2013  14 28  -21.0664 26126.9 -03362.8 -07.3342 26342.5
 08 01 2013  14 29  -21.0669 26127.5 -03362.4 -07.3333 26342.9
 08 01 2013  14 30  -21.0670 26127.6 -03361.9 -07.3321 26343.0
 08 01 2013  14 31  -21.0672 26127.6 -03361.3 -07.3308 26342.9
 08 01 2013  14 32  -21.0674 26127.3 -03360.7 -07.3295 26342.5
 08 01 2013  14 33  -21.0675 26126.9 -03360.1 -07.3283 26342.1
 08 01 2013  14 34  -21.0678 26126.6 -03359.5 -07.3272 26341.7
 08 01 2013  14 35  -21.0679 26126.3 -03359.0 -07.3262 26341.3
 08 01 2013  14 36  -21.0675 26125.8 -03358.4 -07.3251 26340.7
 08 01 2013  14 37  -21.0671 26125.8 -03358.2 -07.3245 26340.7
 08 01 2013  14 38  -21.0673 26126.0 -03358.0 -07.3241 26341.0
 08 01 2013  14 39  -21.0672 26126.3 -03357.7 -07.3234 26341.2
 08 01 2013  14 40  -21.0668 26126.9 -03357.6 -07.3231 26341.8
 08 01 2013  14 41  -21.0664 26127.2 -03357.3 -07.3223 26342.0
 08 01 2013  14 42  -21.0658 26126.8 -03356.8 -07.3212 26341.6
 08 01 2013  14 43  -21.0649 26126.6 -03356.4 -07.3204 26341.3
 08 01 2013  14 44  -21.0641 26126.3 -03356.0 -07.3197 26340.9
 08 01 2013  14 45  -21.0635 26126.3 -03355.8 -07.3192 26340.9
 08 01 2013  14 46  -21.0630 26126.6 -03355.7 -07.3189 26341.2
 08 01 2013  14 47  -21.0625 26126.9 -03355.5 -07.3185 26341.5
 08 01 2013  14 48  -21.0616 26127.0 -03355.2 -07.3179 26341.5
 08 01 2013  14 49  -21.0607 26126.7 -03354.9 -07.3172 26341.2
 08 01 2013  14 50  -21.0600 26126.5 -03354.6 -07.3166 26340.9
 08 01 2013  14 51  -21.0594 26126.3 -03354.3 -07.3161 26340.8
 08 01 2013  14 52  -21.0590 26126.1 -03354.1 -07.3156 26340.5
 08 01 2013  14 53  -21.0585 26126.2 -03354.0 -07.3153 26340.6
 08 01 2013  14 54  -21.0578 26126.5 -03353.9 -07.3152 26340.9
 08 01 2013  14 55  -21.0570 26126.4 -03353.7 -07.3147 26340.8
 08 01 2013  14 56  -21.0562 26126.3 -03353.5 -07.3142 26340.6
 08 01 2013  14 57  -21.0556 26126.1 -03353.3 -07.3139 26340.5
 08 01 2013  14 58  -21.0549 26125.9 -03353.1 -07.3136 26340.2
 08 01 2013  14 59  -21.0541 26125.7 -03352.9 -07.3133 26340.0
 08 01 2013  15 00  -21.0534 26125.6 -03352.8 -07.3130 26339.9
 08 01 2013  15 01  -21.0529 26125.4 -03352.6 -07.3127 26339.6
 08 01 2013  15 02  -21.0524 26125.0 -03352.4 -07.3124 26339.3
 08 01 2013  15 03  -21.0519 26124.8 -03352.3 -07.3122 26339.0
 08 01 2013  15 04  -21.0514 26124.6 -03352.2 -07.3121 26338.8
 08 01 2013  15 05  -21.0508 26124.4 -03352.2 -07.3120 26338.6
 08 01 2013  15 06  -21.0505 26124.2 -03352.1 -07.3120 26338.4
 08 01 2013  15 07  -21.0504 26124.2 -03352.2 -07.3121 26338.4
 08 01 2013  15 08  -21.0503 26124.2 -03352.2 -07.3121 26338.4
 08 01 2013  15 09  -21.0497 26123.7 -03352.0 -07.3118 26337.9
 08 01 2013  15 10  -21.0491 26123.2 -03351.8 -07.3116 26337.4
 08 01 2013  15 11  -21.0487 26123.0 -03351.9 -07.3118 26337.2
 08 01 2013  15 12  -21.0485 26123.1 -03352.1 -07.3121 26337.3
 08 01 2013  15 13  -21.0485 26123.4 -03352.2 -07.3123 26337.6
 08 01 2013  15 14  -21.0487 26123.4 -03352.3 -07.3125 26337.7
 08 01 2013  15 15  -21.0477 26122.7 -03351.9 -07.3120 26336.8
 08 01 2013  15 16  -21.0470 26121.9 -03351.7 -07.3118 26336.0
 08 01 2013  15 17  -21.0467 26121.5 -03351.8 -07.3121 26335.7
 08 01 2013  15 18  -21.0464 26121.1 -03351.9 -07.3123 26335.3
 08 01 2013  15 19  -21.0460 26120.7 -03351.9 -07.3124 26334.8
 08 01 2013  15 20  -21.0458 26120.4 -03352.0 -07.3127 26334.6
 08 01 2013  15 21  -21.0460 26120.3 -03352.1 -07.3130 26334.5
 08 01 2013  15 22  -21.0466 26120.3 -03352.2 -07.3132 26334.5
 08 01 2013  15 23  -21.0465 26119.6 -03351.9 -07.3128 26333.8
 08 01 2013  15 24  -21.0460 26118.5 -03351.5 -07.3121 26332.6
 08 01 2013  15 25  -21.0453 26117.5 -03351.3 -07.3119 26331.6
 08 01 2013  15 26  -21.0448 26116.7 -03351.2 -07.3120 26330.9
 08 01 2013  15 27  -21.0449 26116.4 -03351.3 -07.3124 26330.5
 08 01 2013  15 28  -21.0449 26116.3 -03351.5 -07.3128 26330.5
 08 01 2013  15 29  -21.0445 26116.2 -03351.6 -07.3131 26330.4
 08 01 2013  15 30  -21.0439 26115.8 -03351.6 -07.3132 26330.0
 08 01 2013  15 31  -21.0434 26115.4 -03351.6 -07.3133 26329.6
 08 01 2013  15 32  -21.0432 26115.5 -03351.9 -07.3138 26329.7
 08 01 2013  15 33  -21.0428 26115.4 -03352.0 -07.3141 26329.6
 08 01 2013  15 34  -21.0424 26115.2 -03352.0 -07.3142 26329.4
 08 01 2013  15 35  -21.0414 26114.6 -03351.9 -07.3140 26328.8
 08 01 2013  15 36  -21.0400 26113.2 -03351.4 -07.3134 26327.4
 08 01 2013  15 37  -21.0392 26112.1 -03351.3 -07.3135 26326.3
 08 01 2013  15 38  -21.0385 26111.3 -03351.4 -07.3139 26325.5
 08 01 2013  15 39  -21.0378 26111.0 -03351.7 -07.3147 26325.3
 08 01 2013  15 40  -21.0366 26110.9 -03352.1 -07.3155 26325.2
 08 01 2013  15 41  -21.0354 26110.6 -03352.3 -07.3161 26324.9
 08 01 2013  15 42  -21.0347 26110.4 -03352.6 -07.3168 26324.7
 08 01 2013  15 43  -21.0342 26110.1 -03352.9 -07.3176 26324.5
 08 01 2013  15 44  -21.0337 26110.1 -03353.2 -07.3182 26324.5
 08 01 2013  15 45  -21.0331 26109.9 -03353.4 -07.3187 26324.4
 08 01 2013  15 46  -21.0321 26109.6 -03353.6 -07.3191 26324.1
 08 01 2013  15 47  -21.0316 26109.4 -03353.8 -07.3197 26323.9
 08 01 2013  15 48  -21.0313 26109.2 -03354.1 -07.3203 26323.7
 08 01 2013  15 49  -21.0304 26108.9 -03354.2 -07.3207 26323.4
 08 01 2013  15 50  -21.0295 26108.4 -03354.3 -07.3210 26323.0
 08 01 2013  15 51  -21.0285 26107.7 -03354.3 -07.3212 26322.3
 08 01 2013  15 52  -21.0280 26107.1 -03354.5 -07.3217 26321.8
 08 01 2013  15 53  -21.0277 26106.8 -03354.7 -07.3223 26321.5
 08 01 2013  15 54  -21.0275 26106.7 -03354.9 -07.3228 26321.4
 08 01 2013  15 55  -21.0272 26106.4 -03355.1 -07.3233 26321.1
 08 01 2013  15 56  -21.0262 26105.8 -03355.1 -07.3234 26320.5
 08 01 2013  15 57  -21.0250 26105.1 -03355.0 -07.3235 26319.8
 08 01 2013  15 58  -21.0235 26104.3 -03355.0 -07.3236 26319.0
 08 01 2013  15 59  -21.0224 26103.8 -03355.1 -07.3241 26318.6
 08 01 2013  16 00  -21.0218 26103.0 -03355.2 -07.3245 26317.7
 08 01 2013  16 01  -21.0213 26102.3 -03355.3 -07.3249 26317.0
 08 01 2013  16 02  -21.0213 26102.6 -03355.9 -07.3260 26317.4
 08 01 2013  16 03  -21.0212 26102.6 -03356.2 -07.3268 26317.5
 08 01 2013  16 04  -21.0211 26102.2 -03356.3 -07.3270 26317.1
 08 01 2013  16 05  -21.0206 26102.3 -03356.5 -07.3275 26317.2
 08 01 2013  16 06  -21.0200 26102.1 -03356.6 -07.3277 26317.1
 08 01 2013  16 07  -21.0197 26101.8 -03356.7 -07.3279 26316.8
 08 01 2013  16 08  -21.0191 26100.9 -03356.5 -07.3279 26315.9
 08 01 2013  16 09  -21.0180 26101.0 -03356.8 -07.3284 26316.0
 08 01 2013  16 10  -21.0180 26100.3 -03356.8 -07.3287 26315.3
 08 01 2013  16 11  -21.0176 26100.3 -03357.1 -07.3293 26315.3
 08 01 2013  16 12  -21.0169 26099.8 -03357.1 -07.3294 26314.8
 08 01 2013  16 13  -21.0159 26099.5 -03357.2 -07.3297 26314.6
 08 01 2013  16 14  -21.0151 26098.7 -03357.0 -07.3296 26313.7
 08 01 2013  16 15  -21.0147 26098.2 -03357.1 -07.3300 26313.2
 08 01 2013  16 16  -21.0141 26096.9 -03357.0 -07.3300 26311.9
 08 01 2013  16 17  -21.0132 26096.7 -03357.3 -07.3307 26311.8
 08 01 2013  16 18  -21.0131 26096.7 -03357.7 -07.3316 26311.8
 08 01 2013  16 19  -21.0127 26096.6 -03358.0 -07.3323 26311.7
 08 01 2013  16 20  -21.0121 26096.0 -03358.0 -07.3325 26311.2
 08 01 2013  16 21  -21.0115 26095.8 -03358.3 -07.3332 26311.0
 08 01 2013  16 22  -21.0108 26095.9 -03358.8 -07.3341 26311.2
 08 01 2013  16 23  -21.0105 26095.7 -03359.1 -07.3348 26311.0
 08 01 2013  16 24  -21.0104 26095.7 -03359.3 -07.3354 26311.0
 08 01 2013  16 25  -21.0100 26095.5 -03359.5 -07.3357 26310.9
 08 01 2013  16 26  -21.0095 26095.4 -03359.7 -07.3362 26310.8
 08 01 2013  16 27  -21.0088 26095.1 -03359.8 -07.3366 26310.5
 08 01 2013  16 28  -21.0084 26094.6 -03359.9 -07.3369 26310.0
 08 01 2013  16 29  -21.0077 26093.2 -03359.6 -07.3368 26308.6
 08 01 2013  16 30  -21.0066 26092.5 -03359.9 -07.3375 26307.9
 08 01 2013  16 31  -21.0061 26092.4 -03360.3 -07.3385 26307.9
 08 01 2013  16 32  -21.0059 26091.7 -03360.5 -07.3390 26307.2
 08 01 2013  16 33  -21.0058 26091.3 -03360.7 -07.3396 26306.8
 08 01 2013  16 34  -21.0063 26090.7 -03360.9 -07.3402 26306.2
 08 01 2013  16 35  -21.0062 26089.8 -03360.9 -07.3405 26305.4
 08 01 2013  16 36  -21.0056 26089.2 -03361.0 -07.3409 26304.8
 08 01 2013  16 37  -21.0054 26088.4 -03361.3 -07.3416 26304.0
 08 01 2013  16 38  -21.0053 26088.1 -03361.8 -07.3428 26303.8
 08 01 2013  16 39  -21.0057 26087.4 -03362.2 -07.3438 26303.2
 08 01 2013  16 40  -21.0060 26086.4 -03362.3 -07.3445 26302.2
 08 01 2013  16 41  -21.0057 26087.0 -03363.1 -07.3460 26302.9
 08 01 2013  16 42  -21.0058 26087.1 -03363.7 -07.3472 26303.0
 08 01 2013  16 43  -21.0058 26086.1 -03363.8 -07.3477 26302.1
 08 01 2013  16 44  -21.0056 26086.5 -03364.5 -07.3491 26302.6
 08 01 2013  16 45  -21.0058 26086.7 -03365.0 -07.3501 26302.8
 08 01 2013  16 46  -21.0061 26086.5 -03365.3 -07.3509 26302.6
 08 01 2013  16 47  -21.0065 26086.2 -03365.6 -07.3516 26302.4
 08 01 2013  16 48  -21.0067 26086.2 -03366.0 -07.3525 26302.5
 08 01 2013  16 49  -21.0065 26086.3 -03366.5 -07.3534 26302.6
 08 01 2013  16 50  -21.0072 26085.5 -03366.5 -07.3538 26301.8
 08 01 2013  16 51  -21.0082 26085.5 -03366.9 -07.3546 26301.9
 08 01 2013  16 52  -21.0089 26085.6 -03367.3 -07.3553 26302.1
 08 01 2013  16 53  -21.0093 26085.2 -03367.3 -07.3556 26301.6
 08 01 2013  16 54  -21.0099 26084.7 -03367.5 -07.3560 26301.2
 08 01 2013  16 55  -21.0103 26084.4 -03367.6 -07.3565 26300.9
 08 01 2013  16 56  -21.0107 26084.5 -03368.0 -07.3573 26301.1
 08 01 2013  16 57  -21.0115 26084.1 -03368.2 -07.3577 26300.7
 08 01 2013  16 58  -21.0115 26083.9 -03368.3 -07.3582 26300.5
 08 01 2013  16 59  -21.0118 26084.3 -03368.8 -07.3590 26301.0
 08 01 2013  17 00  -21.0125 26083.8 -03368.8 -07.3592 26300.4
 08 01 2013  17 01  -21.0127 26083.1 -03368.8 -07.3594 26299.7
 08 01 2013  17 02  -21.0124 26083.5 -03369.3 -07.3603 26300.3
 08 01 2013  17 03  -21.0126 26083.5 -03369.6 -07.3610 26300.2
 08 01 2013  17 04  -21.0130 26082.9 -03369.7 -07.3613 26299.7
 08 01 2013  17 05  -21.0132 26083.1 -03370.0 -07.3620 26299.9
 08 01 2013  17 06  -21.0134 26083.2 -03370.3 -07.3626 26300.0
 08 01 2013  17 07  -21.0134 26082.6 -03370.4 -07.3628 26299.5
 08 01 2013  17 08  -21.0137 26082.4 -03370.6 -07.3634 26299.3
 08 01 2013  17 09  -21.0137 26082.5 -03370.9 -07.3641 26299.4
 08 01 2013  17 10  -21.0139 26082.4 -03371.1 -07.3646 26299.3
 08 01 2013  17 11  -21.0140 26081.8 -03371.2 -07.3649 26298.8
 08 01 2013  17 12  -21.0142 26081.9 -03371.5 -07.3655 26298.9
 08 01 2013  17 13  -21.0143 26081.6 -03371.7 -07.3661 26298.7
 08 01 2013  17 14  -21.0141 26081.3 -03371.8 -07.3664 26298.4
 08 01 2013  17 15  -21.0147 26081.7 -03372.3 -07.3673 26298.8
 08 01 2013  17 16  -21.0151 26082.1 -03372.7 -07.3681 26299.3
 08 01 2013  17 17  -21.0154 26082.2 -03372.9 -07.3684 26299.3
 08 01 2013  17 18  -21.0154 26082.3 -03373.0 -07.3687 26299.5
 08 01 2013  17 19  -21.0158 26082.9 -03373.4 -07.3693 26300.1
 08 01 2013  17 20  -21.0162 26083.0 -03373.5 -07.3695 26300.3
 08 01 2013  17 21  -21.0168 26083.1 -03373.6 -07.3697 26300.4
 08 01 2013  17 22  -21.0172 26083.3 -03373.7 -07.3699 26300.5
 08 01 2013  17 23  -21.0173 26082.8 -03373.5 -07.3697 26300.1
 08 01 2013  17 24  -21.0172 26082.4 -03373.5 -07.3696 26299.6
 08 01 2013  17 25  -21.0176 26082.3 -03373.6 -07.3699 26299.6
 08 01 2013  17 26  -21.0178 26082.1 -03373.6 -07.3701 26299.4
 08 01 2013  17 27  -21.0180 26081.8 -03373.6 -07.3701 26299.1
 08 01 2013  17 28  -21.0181 26081.7 -03373.7 -07.3702 26298.9
 08 01 2013  17 29  -21.0183 26081.6 -03373.7 -07.3704 26298.9
 08 01 2013  17 30  -21.0185 26081.5 -03373.7 -07.3704 26298.8
 08 01 2013  17 31  -21.0184 26081.4 -03373.7 -07.3704 26298.7
 08 01 2013  17 32  -21.0191 26081.4 -03373.7 -07.3704 26298.6
 08 01 2013  17 33  -21.0197 26081.4 -03373.7 -07.3704 26298.7
 08 01 2013  17 34  -21.0196 26081.4 -03373.7 -07.3704 26298.7
 08 01 2013  17 35  -21.0192 26081.3 -03373.7 -07.3705 26298.5
 08 01 2013  17 36  -21.0196 26081.1 -03373.8 -07.3707 26298.4
 08 01 2013  17 37  -21.0198 26080.9 -03373.8 -07.3708 26298.2
 08 01 2013  17 38  -21.0206 26080.9 -03374.0 -07.3711 26298.2
 08 01 2013  17 39  -21.0237 26080.8 -03374.2 -07.3716 26298.2
 08 01 2013  17 40  -21.0239 26080.7 -03374.2 -07.3718 26298.1
 08 01 2013  17 41  -21.0244 26080.7 -03374.4 -07.3720 26298.1
 08 01 2013  17 42  -21.0249 26080.7 -03374.5 -07.3722 26298.1
 08 01 2013  17 43  -21.0253 26080.7 -03374.5 -07.3723 26298.1
 08 01 2013  17 44  -21.0236 26080.6 -03374.4 -07.3722 26298.0
 08 01 2013  17 45  -21.0237 26080.4 -03374.4 -07.3723 26297.8
 08 01 2013  17 46  -21.0239 26080.3 -03374.4 -07.3723 26297.7
 08 01 2013  17 47  -21.0253 26080.1 -03374.4 -07.3724 26297.5
 08 01 2013  17 48  -21.0253 26080.1 -03374.5 -07.3725 26297.5
 08 01 2013  17 49  -21.0250 26080.2 -03374.6 -07.3727 26297.6
 08 01 2013  17 50  -21.0276 26080.2 -03374.7 -07.3729 26297.6
 08 01 2013  17 51  -21.0268 26080.0 -03374.6 -07.3729 26297.4
 08 01 2013  17 52  -21.0269 26079.8 -03374.6 -07.3728 26297.2
 08 01 2013  17 53  -21.0272 26079.5 -03374.5 -07.3728 26296.9
 08 01 2013  17 54  -21.0276 26079.4 -03374.6 -07.3728 26296.8
 08 01 2013  17 55  -21.0279 26079.4 -03374.6 -07.3730 26296.8
 08 01 2013  17 56  -21.0281 26079.4 -03374.7 -07.3732 26296.8
 08 01 2013  17 57  -21.0286 26079.5 -03374.8 -07.3734 26296.9
 08 01 2013  17 58  -21.0293 26079.6 -03374.9 -07.3735 26297.1
 08 01 2013  17 59  -21.0297 26079.7 -03374.9 -07.3736 26297.2
 08 01 2013  18 00  -21.0298 26079.8 -03375.0 -07.3736 26297.3
 08 01 2013  18 01  -21.0304 26079.9 -03375.0 -07.3737 26297.4
 08 01 2013  18 02  -21.0309 26080.0 -03375.0 -07.3737 26297.5
 08 01 2013  18 03  -21.0312 26080.0 -03375.0 -07.3735 26297.4
 08 01 2013  18 04  -21.0316 26080.0 -03374.9 -07.3734 26297.4
 08 01 2013  18 05  -21.0319 26080.0 -03374.9 -07.3734 26297.5
 08 01 2013  18 06  -21.0324 26079.9 -03374.8 -07.3733 26297.3
 08 01 2013  18 07  -21.0327 26079.8 -03374.8 -07.3732 26297.2
 08 01 2013  18 08  -21.0329 26079.6 -03374.6 -07.3730 26297.1
 08 01 2013  18 09  -21.0330 26079.3 -03374.5 -07.3727 26296.7
 08 01 2013  18 10  -21.0333 26079.3 -03374.4 -07.3726 26296.7
 08 01 2013  18 11  -21.0335 26079.3 -03374.4 -07.3726 26296.7
 08 01 2013  18 12  -21.0336 26079.3 -03374.4 -07.3725 26296.7
 08 01 2013  18 13  -21.0338 26079.3 -03374.3 -07.3724 26296.7
 08 01 2013  18 14  -21.0341 26079.3 -03374.3 -07.3722 26296.7
 08 01 2013  18 15  -21.0341 26079.4 -03374.2 -07.3721 26296.8
 08 01 2013  18 16  -21.0341 26079.4 -03374.2 -07.3720 26296.8
 08 01 2013  18 17  -21.0340 26079.4 -03374.1 -07.3718 26296.8
 08 01 2013  18 18  -21.0340 26079.4 -03374.0 -07.3716 26296.7
 08 01 2013  18 19  -21.0339 26079.3 -03373.9 -07.3714 26296.7
 08 01 2013  18 20  -21.0338 26079.4 -03373.8 -07.3711 26296.7
 08 01 2013  18 21  -21.0337 26079.4 -03373.6 -07.3708 26296.7
 08 01 2013  18 22  -21.0337 26079.4 -03373.5 -07.3706 26296.7
 08 01 2013  18 23  -21.0335 26079.5 -03373.4 -07.3703 26296.7
 08 01 2013  18 24  -21.0335 26079.5 -03373.3 -07.3701 26296.8
 08 01 2013  18 25  -21.0335 26079.7 -03373.2 -07.3699 26296.9
 08 01 2013  18 26  -21.0335 26079.7 -03373.1 -07.3696 26297.0
 08 01 2013  18 27  -21.0336 26079.8 -03372.9 -07.3692 26297.0
 08 01 2013  18 28  -21.0337 26079.8 -03372.8 -07.3689 26297.0
 08 01 2013  18 29  -21.0337 26079.8 -03372.6 -07.3686 26296.9
 08 01 2013  18 30  -21.0337 26079.6 -03372.4 -07.3682 26296.8
 08 01 2013  18 31  -21.0333 26079.5 -03372.2 -07.3677 26296.6
 08 01 2013  18 32  -21.0331 26079.3 -03372.0 -07.3673 26296.4
 08 01 2013  18 33  -21.0329 26079.2 -03371.8 -07.3669 26296.2
 08 01 2013  18 34  -21.0323 26079.0 -03371.6 -07.3666 26296.1
 08 01 2013  18 35  -21.0317 26078.8 -03371.4 -07.3663 26295.8
 08 01 2013  18 36  -21.0312 26078.6 -03371.3 -07.3660 26295.6
 08 01 2013  18 37  -21.0307 26078.6 -03371.2 -07.3658 26295.6
 08 01 2013  18 38  -21.0303 26078.6 -03371.2 -07.3657 26295.6
 08 01 2013  18 39  -21.0300 26078.5 -03371.1 -07.3656 26295.5
 08 01 2013  18 40  -21.0297 26078.5 -03371.0 -07.3654 26295.4
 08 01 2013  18 41  -21.0292 26078.4 -03370.9 -07.3651 26295.3
 08 01 2013  18 42  -21.0287 26078.2 -03370.8 -07.3650 26295.1
 08 01 2013  18 43  -21.0284 26078.0 -03370.6 -07.3648 26294.9
 08 01 2013  18 44  -21.0284 26078.0 -03370.6 -07.3646 26295.0
 08 01 2013  18 45  -21.0281 26077.9 -03370.4 -07.3644 26294.8
 08 01 2013  18 46  -21.0279 26077.8 -03370.3 -07.3640 26294.7
 08 01 2013  18 47  -21.0274 26077.8 -03370.2 -07.3639 26294.7
 08 01 2013  18 48  -21.0269 26077.9 -03370.2 -07.3639 26294.7
 08 01 2013  18 49  -21.0265 26077.7 -03370.1 -07.3637 26294.5
 08 01 2013  18 50  -21.0263 26077.4 -03370.0 -07.3635 26294.3
 08 01 2013  18 51  -21.0260 26077.4 -03369.9 -07.3634 26294.2
 08 01 2013  18 52  -21.0255 26077.3 -03369.8 -07.3632 26294.1
 08 01 2013  18 53  -21.0249 26077.2 -03369.8 -07.3632 26294.1
 08 01 2013  18 54  -21.0242 26077.3 -03369.9 -07.3633 26294.2
 08 01 2013  18 55  -21.0237 26077.3 -03370.0 -07.3635 26294.2
 08 01 2013  18 56  -21.0234 26077.1 -03369.8 -07.3633 26293.9
 08 01 2013  18 57  -21.0230 26077.0 -03369.8 -07.3632 26293.8
 08 01 2013  18 58  -21.0223 26076.8 -03369.7 -07.3630 26293.6
 08 01 2013  18 59  -21.0218 26076.7 -03369.7 -07.3630 26293.5
 08 01 2013  19 00  -21.0216 26076.7 -03369.7 -07.3631 26293.5
 08 01 2013  19 01  -21.0215 26076.6 -03369.8 -07.3632 26293.4
 08 01 2013  19 02  -21.0211 26076.4 -03369.8 -07.3633 26293.2
 08 01 2013  19 03  -21.0209 26076.4 -03369.9 -07.3635 26293.3
 08 01 2013  19 04  -21.0239 26076.0 -03369.6 -07.3632 26292.8
 08 01 2013  19 05  -21.0241 26075.6 -03369.6 -07.3631 26292.4
 08 01 2013  19 06  -21.0239 26075.3 -03369.5 -07.3630 26292.1
 08 01 2013  19 07  -21.0236 26075.2 -03369.5 -07.3631 26292.0
 08 01 2013  19 08  -21.0216 26075.3 -03369.7 -07.3635 26292.1
 08 01 2013  19 09  -21.0202 26075.6 -03370.0 -07.3640 26292.5
 08 01 2013  19 10  -21.0202 26075.6 -03370.1 -07.3642 26292.5
 08 01 2013  19 11  -21.0202 26075.6 -03370.1 -07.3643 26292.5
 08 01 2013  19 12  -21.0201 26075.6 -03370.2 -07.3644 26292.5
 08 01 2013  19 13  -21.0201 26075.5 -03370.2 -07.3646 26292.4
 08 01 2013  19 14  -21.0198 26075.3 -03370.2 -07.3646 26292.2
 08 01 2013  19 15  -21.0197 26075.0 -03370.2 -07.3647 26291.9
 08 01 2013  19 16  -21.0195 26074.7 -03370.2 -07.3648 26291.6
 08 01 2013  19 17  -21.0192 26074.4 -03370.3 -07.3650 26291.3
 08 01 2013  19 18  -21.0189 26074.3 -03370.4 -07.3653 26291.3
 08 01 2013  19 19  -21.0189 26074.4 -03370.7 -07.3658 26291.3
 08 01 2013  19 20  -21.0190 26074.1 -03370.8 -07.3662 26291.1
 08 01 2013  19 21  -21.0191 26073.8 -03370.9 -07.3665 26290.8
 08 01 2013  19 22  -21.0190 26073.6 -03371.0 -07.3669 26290.7
 08 01 2013  19 23  -21.0191 26073.5 -03371.2 -07.3673 26290.6
 08 01 2013  19 24  -21.0193 26073.5 -03371.5 -07.3678 26290.5
 08 01 2013  19 25  -21.0194 26073.5 -03371.7 -07.3683 26290.6
 08 01 2013  19 26  -21.0196 26073.5 -03371.9 -07.3688 26290.6
 08 01 2013  19 27  -21.0196 26073.5 -03372.2 -07.3693 26290.7
 08 01 2013  19 28  -21.0198 26073.5 -03372.4 -07.3698 26290.7
 08 01 2013  19 29  -21.0200 26073.4 -03372.6 -07.3702 26290.6
 08 01 2013  19 30  -21.0202 26073.1 -03372.7 -07.3705 26290.4
 08 01 2013  19 31  -21.0203 26072.9 -03372.7 -07.3707 26290.1
 08 01 2013  19 32  -21.0205 26072.8 -03372.9 -07.3711 26290.1
 08 01 2013  19 33  -21.0206 26072.8 -03373.1 -07.3715 26290.0
 08 01 2013  19 34  -21.0208 26072.5 -03373.2 -07.3718 26289.8
 08 01 2013  19 35  -21.0211 26072.3 -03373.3 -07.3720 26289.6
 08 01 2013  19 36  -21.0213 26072.2 -03373.4 -07.3723 26289.5
 08 01 2013  19 37  -21.0217 26071.9 -03373.4 -07.3725 26289.3
 08 01 2013  19 38  -21.0219 26071.6 -03373.4 -07.3726 26288.9
 08 01 2013  19 39  -21.0220 26071.4 -03373.5 -07.3728 26288.8
 08 01 2013  19 40  -21.0221 26071.3 -03373.6 -07.3730 26288.7
 08 01 2013  19 41  -21.0221 26071.2 -03373.7 -07.3733 26288.6
 08 01 2013  19 42  -21.0223 26071.0 -03373.8 -07.3735 26288.4
 08 01 2013  19 43  -21.0224 26070.9 -03373.8 -07.3737 26288.3
 08 01 2013  19 44  -21.0222 26070.8 -03373.9 -07.3739 26288.2
 08 01 2013  19 45  -21.0223 26070.5 -03374.0 -07.3740 26287.9
 08 01 2013  19 46  -21.0222 26070.2 -03374.0 -07.3742 26287.7
 08 01 2013  19 47  -21.0219 26070.2 -03374.1 -07.3745 26287.6
 08 01 2013  19 48  -21.0216 26070.0 -03374.3 -07.3748 26287.5
 08 01 2013  19 49  -21.0215 26069.8 -03374.3 -07.3751 26287.3
 08 01 2013  19 50  -21.0214 26069.6 -03374.4 -07.3752 26287.1
 08 01 2013  19 51  -21.0213 26069.4 -03374.5 -07.3754 26286.9
 08 01 2013  19 52  -21.0211 26069.2 -03374.5 -07.3756 26286.7
 08 01 2013  19 53  -21.0210 26068.9 -03374.6 -07.3758 26286.4
 08 01 2013  19 54  -21.0208 26068.8 -03374.7 -07.3761 26286.3
 08 01 2013  19 55  -21.0205 26068.6 -03374.8 -07.3764 26286.2
 08 01 2013  19 56  -21.0204 26068.4 -03374.9 -07.3767 26286.0
 08 01 2013  19 57  -21.0202 26068.3 -03375.0 -07.3769 26285.8
 08 01 2013  19 58  -21.0200 26068.0 -03375.1 -07.3772 26285.6
 08 01 2013  19 59  -21.0199 26067.8 -03375.1 -07.3773 26285.4
 08 01 2013  20 00  -21.0196 26067.7 -03375.3 -07.3776 26285.3
 08 01 2013  20 01  -21.0195 26067.5 -03375.4 -07.3779 26285.1
 08 01 2013  20 02  -21.0192 26067.3 -03375.4 -07.3781 26284.9
 08 01 2013  20 03  -21.0191 26067.2 -03375.6 -07.3784 26284.8
 08 01 2013  20 04  -21.0186 26067.2 -03375.7 -07.3788 26284.8
 08 01 2013  20 05  -21.0181 26067.2 -03376.0 -07.3793 26284.9
 08 01 2013  20 06  -21.0175 26067.4 -03376.3 -07.3799 26285.2
 08 01 2013  20 07  -21.0170 26067.6 -03376.5 -07.3804 26285.3
 08 01 2013  20 08  -21.0166 26067.5 -03376.7 -07.3807 26285.3
 08 01 2013  20 09  -21.0164 26067.4 -03376.7 -07.3809 26285.2
 08 01 2013  20 10  -21.0159 26067.2 -03376.8 -07.3811 26285.0
 08 01 2013  20 11  -21.0152 26067.1 -03376.9 -07.3813 26284.9
 08 01 2013  20 12  -21.0147 26067.2 -03377.1 -07.3817 26285.0
 08 01 2013  20 13  -21.0143 26067.2 -03377.3 -07.3821 26285.1
 08 01 2013  20 14  -21.0137 26067.3 -03377.5 -07.3826 26285.2
 08 01 2013  20 15  -21.0131 26067.3 -03377.7 -07.3830 26285.2
 08 01 2013  20 16  -21.0127 26067.6 -03378.0 -07.3835 26285.5
 08 01 2013  20 17  -21.0123 26067.6 -03378.2 -07.3839 26285.6
 08 01 2013  20 18  -21.0121 26067.6 -03378.3 -07.3842 26285.6
 08 01 2013  20 19  -21.0121 26067.5 -03378.4 -07.3844 26285.5
 08 01 2013  20 20  -21.0120 26067.3 -03378.4 -07.3845 26285.3
 08 01 2013  20 21  -21.0121 26067.1 -03378.4 -07.3846 26285.1
 08 01 2013  20 22  -21.0121 26066.8 -03378.4 -07.3848 26284.9
 08 01 2013  20 23  -21.0122 26066.7 -03378.5 -07.3849 26284.7
 08 01 2013  20 24  -21.0122 26066.6 -03378.6 -07.3852 26284.6
 08 01 2013  20 25  -21.0122 26066.5 -03378.7 -07.3854 26284.5
 08 01 2013  20 26  -21.0121 26066.5 -03378.8 -07.3857 26284.6
 08 01 2013  20 27  -21.0120 26066.4 -03378.9 -07.3860 26284.5
 08 01 2013  20 28  -21.0120 26066.3 -03379.0 -07.3862 26284.4
 08 01 2013  20 29  -21.0119 26066.2 -03379.1 -07.3864 26284.4
 08 01 2013  20 30  -21.0117 26066.4 -03379.3 -07.3868 26284.5
 08 01 2013  20 31  -21.0115 26066.4 -03379.5 -07.3872 26284.6
 08 01 2013  20 32  -21.0114 26066.2 -03379.6 -07.3875 26284.4
 08 01 2013  20 33  -21.0112 26066.1 -03379.7 -07.3876 26284.3
 08 01 2013  20 34  -21.0110 26066.1 -03379.9 -07.3880 26284.3
 08 01 2013  20 35  -21.0107 26066.0 -03379.9 -07.3882 26284.2
 08 01 2013  20 36  -21.0106 26065.9 -03380.1 -07.3886 26284.1
 08 01 2013  20 37  -21.0104 26065.8 -03380.2 -07.3888 26284.0
 08 01 2013  20 38  -21.0105 26065.5 -03380.2 -07.3890 26283.7
 08 01 2013  20 39  -21.0106 26065.3 -03380.3 -07.3892 26283.6
 08 01 2013  20 40  -21.0107 26065.0 -03380.3 -07.3893 26283.3
 08 01 2013  20 41  -21.0107 26064.8 -03380.4 -07.3895 26283.1
 08 01 2013  20 42  -21.0108 26064.7 -03380.5 -07.3898 26283.0
 08 01 2013  20 43  -21.0107 26064.5 -03380.6 -07.3900 26282.9
 08 01 2013  20 44  -21.0105 26064.6 -03380.8 -07.3905 26282.9
 08 01 2013  20 45  -21.0104 26064.4 -03381.0 -07.3909 26282.8
 08 01 2013  20 46  -21.0102 26064.2 -03381.0 -07.3910 26282.6
 08 01 2013  20 47  -21.0102 26063.8 -03381.0 -07.3911 26282.2
 08 01 2013  20 48  -21.0101 26063.6 -03380.9 -07.3910 26281.9
 08 01 2013  20 49  -21.0101 26063.2 -03381.0 -07.3913 26281.5
 08 01 2013  20 50  -21.0099 26063.1 -03381.1 -07.3915 26281.5
 08 01 2013  20 51  -21.0099 26062.7 -03381.1 -07.3917 26281.1
 08 01 2013  20 52  -21.0098 26062.3 -03381.1 -07.3919 26280.7
 08 01 2013  20 53  -21.0098 26062.0 -03381.2 -07.3920 26280.4
 08 01 2013  20 54  -21.0099 26061.5 -03381.1 -07.3921 26280.0
 08 01 2013  20 55  -21.0101 26061.1 -03381.1 -07.3921 26279.5
 08 01 2013  20 56  -21.0105 26060.9 -03381.2 -07.3924 26279.4
 08 01 2013  20 57  -21.0109 26060.4 -03381.2 -07.3925 26278.9
 08 01 2013  20 58  -21.0110 26060.3 -03381.2 -07.3926 26278.7
 08 01 2013  20 59  -21.0113 26060.2 -03381.4 -07.3929 26278.6
 08 01 2013  21 00  -21.0115 26059.8 -03381.4 -07.3930 26278.3
 08 01 2013  21 01  -21.0118 26059.8 -03381.5 -07.3933 26278.3
 08 01 2013  21 02  -21.0119 26059.8 -03381.7 -07.3937 26278.3
 08 01 2013  21 03  -21.0121 26059.3 -03381.6 -07.3936 26277.8
 08 01 2013  21 04  -21.0124 26059.2 -03381.7 -07.3938 26277.7
 08 01 2013  21 05  -21.0125 26059.0 -03381.7 -07.3940 26277.5
 08 01 2013  21 06  -21.0127 26058.5 -03381.5 -07.3938 26277.0
 08 01 2013  21 07  -21.0127 26058.4 -03381.6 -07.3940 26276.9
 08 01 2013  21 08  -21.0127 26058.1 -03381.7 -07.3942 26276.6
 08 01 2013  21 09  -21.0126 26057.8 -03381.6 -07.3942 26276.3
 08 01 2013  21 10  -21.0124 26058.0 -03381.8 -07.3945 26276.5
 08 01 2013  21 11  -21.0125 26057.7 -03381.9 -07.3947 26276.3
 08 01 2013  21 12  -21.0126 26057.5 -03381.9 -07.3948 26276.1
 08 01 2013  21 13  -21.0126 26057.4 -03382.0 -07.3950 26276.0
 08 01 2013  21 14  -21.0126 26057.3 -03382.0 -07.3951 26275.8
 08 01 2013  21 15  -21.0127 26057.2 -03382.2 -07.3956 26275.8
 08 01 2013  21 16  -21.0129 26057.0 -03382.4 -07.3960 26275.6
 08 01 2013  21 17  -21.0129 26056.9 -03382.5 -07.3962 26275.5
 08 01 2013  21 18  -21.0121 26056.9 -03382.7 -07.3967 26275.5
 08 01 2013  21 19  -21.0119 26057.0 -03382.8 -07.3970 26275.7
 08 01 2013  21 20  -21.0120 26057.1 -03383.0 -07.3974 26275.8
 08 01 2013  21 21  -21.0119 26057.2 -03383.3 -07.3980 26276.0
 08 01 2013  21 22  -21.0116 26057.4 -03383.5 -07.3984 26276.2
 08 01 2013  21 23  -21.0115 26057.4 -03383.6 -07.3986 26276.2
 08 01 2013  21 24  -21.0113 26057.7 -03383.9 -07.3991 26276.5
 08 01 2013  21 25  -21.0116 26057.8 -03384.1 -07.3996 26276.6
 08 01 2013  21 26  -21.0120 26057.7 -03384.2 -07.3998 26276.5
 08 01 2013  21 27  -21.0125 26057.5 -03384.2 -07.3999 26276.3
 08 01 2013  21 28  -21.0127 26057.2 -03384.1 -07.3998 26276.0
 08 01 2013  21 29  -21.0131 26057.0 -03384.1 -07.3997 26275.8
 08 01 2013  21 30  -21.0132 26056.7 -03384.0 -07.3997 26275.6
 08 01 2013  21 31  -21.0132 26056.1 -03383.8 -07.3993 26274.9
 08 01 2013  21 32  -21.0133 26055.8 -03383.6 -07.3990 26274.6
 08 01 2013  21 33  -21.0135 26055.7 -03383.7 -07.3991 26274.5
 08 01 2013  21 34  -21.0136 26055.4 -03383.6 -07.3992 26274.1
 08 01 2013  21 35  -21.0135 26055.0 -03383.5 -07.3989 26273.8
 08 01 2013  21 36  -21.0132 26055.0 -03383.5 -07.3990 26273.8
 08 01 2013  21 37  -21.0127 26054.9 -03383.5 -07.3991 26273.6
 08 01 2013  21 38  -21.0124 26055.2 -03383.7 -07.3995 26274.0
 08 01 2013  21 39  -21.0117 26055.3 -03383.9 -07.3998 26274.1
 08 01 2013  21 40  -21.0114 26055.1 -03383.9 -07.3999 26273.9
 08 01 2013  21 41  -21.0113 26054.9 -03383.9 -07.3998 26273.7
 08 01 2013  21 42  -21.0110 26054.8 -03384.0 -07.4000 26273.6
 08 01 2013  21 43  -21.0105 26055.3 -03384.3 -07.4006 26274.2
 08 01 2013  21 44  -21.0096 26054.6 -03384.1 -07.4003 26273.5
 08 01 2013  21 45  -21.0094 26055.1 -03384.3 -07.4007 26273.9
 08 01 2013  21 46  -21.0091 26054.7 -03384.3 -07.4008 26273.6
 08 01 2013  21 47  -21.0088 26054.6 -03384.3 -07.4009 26273.5
 08 01 2013  21 48  -21.0086 26054.3 -03384.3 -07.4009 26273.2
 08 01 2013  21 49  -21.0085 26053.4 -03383.9 -07.4004 26272.2
 08 01 2013  21 50  -21.0083 26053.7 -03384.2 -07.4008 26272.6
 08 01 2013  21 51  -21.0077 26053.7 -03384.3 -07.4011 26272.6
 08 01 2013  21 52  -21.0071 26053.4 -03384.2 -07.4010 26272.3
 08 01 2013  21 53  -21.0064 26052.9 -03384.1 -07.4010 26271.8
 08 01 2013  21 54  -21.0067 26051.9 -03383.8 -07.4005 26270.8
 08 01 2013  21 55  -21.0072 26051.6 -03383.7 -07.4005 26270.4
 08 01 2013  21 56  -21.0071 26051.6 -03383.9 -07.4008 26270.4
 08 01 2013  21 57  -21.0070 26051.5 -03384.0 -07.4011 26270.4
 08 01 2013  21 58  -21.0063 26051.3 -03384.0 -07.4012 26270.2
 08 01 2013  21 59  -21.0058 26050.8 -03383.9 -07.4011 26269.7
 08 01 2013  22 00  -21.0056 26050.4 -03383.8 -07.4010 26269.2
 08 01 2013  22 01  -21.0055 26050.2 -03383.8 -07.4011 26269.0
 08 01 2013  22 02  -21.0058 26049.9 -03383.9 -07.4012 26268.7
 08 01 2013  22 03  -21.0061 26049.6 -03383.9 -07.4013 26268.4
 08 01 2013  22 04  -21.0062 26049.1 -03383.8 -07.4013 26268.0
 08 01 2013  22 05  -21.0063 26048.9 -03383.8 -07.4014 26267.8
 08 01 2013  22 06  -21.0062 26048.8 -03383.9 -07.4015 26267.7
 08 01 2013  22 07  -21.0060 26048.8 -03384.0 -07.4018 26267.7
 08 01 2013  22 08  -21.0060 26048.7 -03384.1 -07.4020 26267.6
 08 01 2013  22 09  -21.0063 26048.7 -03384.1 -07.4022 26267.6
 08 01 2013  22 10  -21.0066 26048.6 -03384.3 -07.4025 26267.5
 08 01 2013  22 11  -21.0068 26048.5 -03384.3 -07.4026 26267.4
 08 01 2013  22 12  -21.0069 26048.7 -03384.5 -07.4029 26267.6
 08 01 2013  22 13  -21.0067 26048.8 -03384.6 -07.4031 26267.7
 08 01 2013  22 14  -21.0068 26048.9 -03384.8 -07.4034 26267.9
 08 01 2013  22 15  -21.0070 26048.9 -03384.8 -07.4036 26267.9
 08 01 2013  22 16  -21.0072 26048.8 -03384.9 -07.4037 26267.8
 08 01 2013  22 17  -21.0074 26048.7 -03384.9 -07.4037 26267.7
 08 01 2013  22 18  -21.0078 26048.5 -03384.8 -07.4037 26267.5
 08 01 2013  22 19  -21.0080 26048.5 -03384.8 -07.4038 26267.5
 08 01 2013  22 20  -21.0081 26048.4 -03384.9 -07.4038 26267.4
 08 01 2013  22 21  -21.0081 26048.4 -03384.9 -07.4038 26267.4
 08 01 2013  22 22  -21.0082 26048.3 -03384.9 -07.4038 26267.3
 08 01 2013  22 23  -21.0084 26048.2 -03384.8 -07.4038 26267.2
 08 01 2013  22 24  -21.0086 26048.2 -03384.9 -07.4040 26267.3
 08 01 2013  22 25  -21.0088 26048.3 -03385.0 -07.4042 26267.4
 08 01 2013  22 26  -21.0089 26048.7 -03385.2 -07.4045 26267.7
 08 01 2013  22 27  -21.0091 26049.0 -03385.4 -07.4048 26268.0
 08 01 2013  22 28  -21.0093 26049.0 -03385.5 -07.4049 26268.1
 08 01 2013  22 29  -21.0095 26049.1 -03385.5 -07.4050 26268.2
 08 01 2013  22 30  -21.0097 26049.1 -03385.5 -07.4050 26268.2
 08 01 2013  22 31  -21.0095 26049.2 -03385.5 -07.4050 26268.2
 08 01 2013  22 32  -21.0093 26049.4 -03385.6 -07.4051 26268.5
 08 01 2013  22 33  -21.0093 26049.4 -03385.6 -07.4052 26268.5
 08 01 2013  22 34  -21.0092 26049.7 -03385.7 -07.4053 26268.8
 08 01 2013  22 35  -21.0091 26050.0 -03385.9 -07.4056 26269.2
 08 01 2013  22 36  -21.0091 26050.4 -03386.1 -07.4059 26269.6
 08 01 2013  22 37  -21.0090 26050.9 -03386.3 -07.4063 26270.1
 08 01 2013  22 38  -21.0090 26051.2 -03386.5 -07.4066 26270.4
 08 01 2013  22 39  -21.0090 26051.5 -03386.6 -07.4067 26270.7
 08 01 2013  22 40  -21.0087 26051.5 -03386.7 -07.4068 26270.7
 08 01 2013  22 41  -21.0081 26051.8 -03386.7 -07.4067 26271.0
 08 01 2013  22 42  -21.0085 26051.8 -03386.7 -07.4068 26271.0
 08 01 2013  22 43  -21.0086 26051.9 -03386.7 -07.4068 26271.2
 08 01 2013  22 44  -21.0086 26052.0 -03386.7 -07.4069 26271.2
 08 01 2013  22 45  -21.0087 26052.1 -03386.8 -07.4069 26271.3
 08 01 2013  22 46  -21.0086 26052.2 -03386.8 -07.4069 26271.5
 08 01 2013  22 47  -21.0085 26052.3 -03386.8 -07.4069 26271.5
 08 01 2013  22 48  -21.0084 26052.3 -03386.8 -07.4069 26271.5
 08 01 2013  22 49  -21.0084 26052.3 -03386.8 -07.4069 26271.5
 08 01 2013  22 50  -21.0083 26052.3 -03386.8 -07.4069 26271.5
 08 01 2013  22 51  -21.0083 26052.4 -03386.8 -07.4069 26271.6
 08 01 2013  22 52  -21.0082 26052.5 -03386.9 -07.4070 26271.7
 08 01 2013  22 53  -21.0080 26052.6 -03386.9 -07.4070 26271.8
 08 01 2013  22 54  -21.0078 26052.7 -03387.0 -07.4072 26272.0
 08 01 2013  22 55  -21.0076 26052.8 -03387.0 -07.4073 26272.0
 08 01 2013  22 56  -21.0073 26052.8 -03387.1 -07.4073 26272.1
 08 01 2013  22 57  -21.0072 26053.0 -03387.1 -07.4074 26272.2
 08 01 2013  22 58  -21.0071 26052.9 -03387.2 -07.4075 26272.2
 08 01 2013  22 59  -21.0070 26052.9 -03387.2 -07.4075 26272.2
 08 01 2013  23 00  -21.0069 26053.0 -03387.2 -07.4076 26272.2
 08 01 2013  23 01  -21.0068 26053.0 -03387.2 -07.4076 26272.2
 08 01 2013  23 02  -21.0066 26052.9 -03387.2 -07.4076 26272.2
 08 01 2013  23 03  -21.0064 26053.0 -03387.3 -07.4077 26272.2
 08 01 2013  23 04  -21.0062 26053.1 -03387.3 -07.4079 26272.4
 08 01 2013  23 05  -21.0060 26053.3 -03387.4 -07.4080 26272.6
 08 01 2013  23 06  -21.0060 26053.5 -03387.6 -07.4083 26272.8
 08 01 2013  23 07  -21.0060 26053.6 -03387.7 -07.4085 26273.0
 08 01 2013  23 08  -21.0060 26053.7 -03387.8 -07.4086 26273.1
 08 01 2013  23 09  -21.0060 26053.7 -03387.8 -07.4086 26273.0
 08 01 2013  23 10  -21.0061 26053.6 -03387.7 -07.4086 26272.9
 08 01 2013  23 11  -21.0059 26053.3 -03387.6 -07.4084 26272.6
 08 01 2013  23 12  -21.0058 26053.1 -03387.5 -07.4082 26272.4
 08 01 2013  23 13  -21.0054 26053.2 -03387.5 -07.4082 26272.5
 08 01 2013  23 14  -21.0048 26053.2 -03387.5 -07.4082 26272.5
 08 01 2013  23 15  -21.0046 26053.1 -03387.5 -07.4082 26272.4
 08 01 2013  23 16  -21.0048 26053.0 -03387.6 -07.4083 26272.3
 08 01 2013  23 17  -21.0048 26053.0 -03387.6 -07.4085 26272.4
 08 01 2013  23 18  -21.0048 26053.0 -03387.7 -07.4086 26272.4
 08 01 2013  23 19  -21.0048 26053.0 -03387.7 -07.4086 26272.3
 08 01 2013  23 20  -21.0047 26053.1 -03387.7 -07.4087 26272.4
 08 01 2013  23 21  -21.0045 26053.0 -03387.7 -07.4087 26272.3
 08 01 2013  23 22  -21.0045 26052.9 -03387.7 -07.4087 26272.2
 08 01 2013  23 23  -21.0044 26052.6 -03387.6 -07.4085 26272.0
 08 01 2013  23 24  -21.0042 26052.5 -03387.5 -07.4084 26271.8
 08 01 2013  23 25  -21.0040 26052.4 -03387.5 -07.4084 26271.7
 08 01 2013  23 26  -21.0038 26052.4 -03387.5 -07.4085 26271.7
 08 01 2013  23 27  -21.0037 26052.4 -03387.6 -07.4085 26271.7
 08 01 2013  23 28  -21.0037 26052.3 -03387.6 -07.4086 26271.7
 08 01 2013  23 29  -21.0036 26052.4 -03387.7 -07.4088 26271.7
 08 01 2013  23 30  -21.0033 26052.4 -03387.7 -07.4088 26271.8
 08 01 2013  23 31  -21.0029 26052.6 -03387.8 -07.4090 26271.9
 08 01 2013  23 32  -21.0027 26052.6 -03387.9 -07.4091 26271.9
 08 01 2013  23 33  -21.0027 26052.5 -03387.8 -07.4091 26271.8
 08 01 2013  23 34  -21.0026 26052.4 -03387.8 -07.4091 26271.8
 08 01 2013  23 35  -21.0024 26052.6 -03387.9 -07.4092 26271.9
 08 01 2013  23 36  -21.0024 26052.6 -03388.0 -07.4094 26272.0
 08 01 2013  23 37  -21.0024 26052.7 -03388.1 -07.4096 26272.1
 08 01 2013  23 38  -21.0023 26052.7 -03388.1 -07.4096 26272.1
 08 01 2013  23 39  -21.0023 26052.7 -03388.1 -07.4096 26272.1
 08 01 2013  23 40  -21.0024 26052.7 -03388.1 -07.4095 26272.0
 08 01 2013  23 41  -21.0022 26052.6 -03388.1 -07.4095 26272.0
 08 01 2013  23 42  -21.0021 26052.6 -03388.1 -07.4095 26272.0
 08 01 2013  23 43  -21.0019 26052.6 -03388.1 -07.4096 26272.0
 08 01 2013  23 44  -21.0017 26052.6 -03388.1 -07.4096 26272.0
 08 01 2013  23 45  -21.0017 26052.5 -03388.1 -07.4096 26271.9
 08 01 2013  23 46  -21.0018 26052.3 -03388.0 -07.4095 26271.6
 08 01 2013  23 47  -21.0018 26052.1 -03387.9 -07.4094 26271.5
 08 01 2013  23 48  -21.0017 26052.0 -03387.9 -07.4093 26271.4
 08 01 2013  23 49  -21.0019 26051.9 -03387.9 -07.4093 26271.2
 08 01 2013  23 50  -21.0019 26051.8 -03387.8 -07.4093 26271.1
 08 01 2013  23 51  -21.0020 26051.7 -03387.8 -07.4093 26271.1
 08 01 2013  23 52  -21.0022 26051.6 -03387.8 -07.4093 26271.0
 08 01 2013  23 53  -21.0024 26051.6 -03387.9 -07.4094 26271.0
 08 01 2013  23 54  -21.0025 26051.6 -03387.9 -07.4094 26271.0
 08 01 2013  23 55  -21.0025 26051.6 -03387.9 -07.4094 26270.9
 08 01 2013  23 56  -21.0024 26051.4 -03387.8 -07.4093 26270.8
 08 01 2013  23 57  -21.0024 26051.3 -03387.7 -07.4092 26270.6
 08 01 2013  23 58  -21.0024 26051.1 -03387.7 -07.4092 26270.5
