SAO LUIS EMBRACE-03 <099> 1 Min. Reported data

 DD MM YYYY  HH MM   D(Deg)  H(nT)   Z(nT)   I(Deg)   F(nT)

 09 04 2013  00 00  -21.0378 26037.4 -03427.1 -07.4982 26262.0
 09 04 2013  00 01  -21.0375 26037.7 -03427.2 -07.4984 26262.3
 09 04 2013  00 02  -21.0374 26037.4 -03427.1 -07.4983 26262.0
 09 04 2013  00 03  -21.0374 26037.8 -03427.2 -07.4984 26262.3
 09 04 2013  00 04  -21.0373 26038.0 -03427.3 -07.4986 26262.6
 09 04 2013  00 05  -21.0372 26037.7 -03427.2 -07.4983 26262.2
 09 04 2013  00 06  -21.0371 26038.0 -03427.2 -07.4984 26262.6
 09 04 2013  00 07  -21.0370 26038.0 -03427.3 -07.4986 26262.6
 09 04 2013  00 08  -21.0373 26037.6 -03427.1 -07.4982 26262.2
 09 04 2013  00 09  -21.0373 26038.2 -03427.3 -07.4985 26262.8
 09 04 2013  00 10  -21.0374 26037.8 -03427.2 -07.4984 26262.4
 09 04 2013  00 11  -21.0375 26037.8 -03427.1 -07.4982 26262.4
 09 04 2013  00 12  -21.0373 26038.0 -03427.2 -07.4983 26262.6
 09 04 2013  00 13  -21.0374 26037.8 -03427.1 -07.4982 26262.4
 09 04 2013  00 14  -21.0376 26037.8 -03427.0 -07.4980 26262.3
 09 04 2013  00 15  -21.0375 26038.1 -03427.2 -07.4982 26262.7
 09 04 2013  00 16  -21.0374 26037.9 -03427.1 -07.4981 26262.5
 09 04 2013  00 17  -21.0374 26038.1 -03427.1 -07.4982 26262.7
 09 04 2013  00 18  -21.0374 26038.3 -03427.3 -07.4984 26262.9
 09 04 2013  00 19  -21.0373 26038.4 -03427.2 -07.4983 26262.9
 09 04 2013  00 20  -21.0372 26038.4 -03427.3 -07.4984 26263.0
 09 04 2013  00 21  -21.0372 26038.4 -03427.2 -07.4983 26263.0
 09 04 2013  00 22  -21.0371 26038.4 -03427.2 -07.4982 26263.0
 09 04 2013  00 23  -21.0371 26038.5 -03427.2 -07.4982 26263.0
 09 04 2013  00 24  -21.0370 26038.4 -03427.2 -07.4982 26263.0
 09 04 2013  00 25  -21.0370 26038.3 -03427.2 -07.4981 26262.9
 09 04 2013  00 26  -21.0370 26038.2 -03427.1 -07.4980 26262.8
 09 04 2013  00 27  -21.0369 26038.2 -03427.0 -07.4979 26262.8
 09 04 2013  00 28  -21.0368 26038.2 -03427.1 -07.4980 26262.8
 09 04 2013  00 29  -21.0368 26038.0 -03427.0 -07.4978 26262.5
 09 04 2013  00 30  -21.0367 26037.9 -03426.9 -07.4977 26262.4
 09 04 2013  00 31  -21.0367 26037.9 -03426.9 -07.4978 26262.5
 09 04 2013  00 32  -21.0367 26037.6 -03426.8 -07.4975 26262.1
 09 04 2013  00 33  -21.0367 26037.4 -03426.7 -07.4973 26261.9
 09 04 2013  00 34  -21.0367 26037.1 -03426.6 -07.4972 26261.6
 09 04 2013  00 35  -21.0367 26036.7 -03426.4 -07.4969 26261.2
 09 04 2013  00 36  -21.0368 26036.4 -03426.3 -07.4968 26260.9
 09 04 2013  00 37  -21.0369 26036.2 -03426.2 -07.4967 26260.7
 09 04 2013  00 38  -21.0371 26036.0 -03426.1 -07.4966 26260.5
 09 04 2013  00 39  -21.0373 26035.9 -03426.1 -07.4966 26260.3
 09 04 2013  00 40  -21.0375 26035.7 -03426.1 -07.4965 26260.1
 09 04 2013  00 41  -21.0377 26035.7 -03426.1 -07.4966 26260.1
 09 04 2013  00 42  -21.0378 26035.4 -03426.0 -07.4965 26259.9
 09 04 2013  00 43  -21.0380 26035.5 -03426.1 -07.4966 26260.0
 09 04 2013  00 44  -21.0380 26035.6 -03426.2 -07.4967 26260.1
 09 04 2013  00 45  -21.0381 26035.5 -03426.1 -07.4967 26260.0
 09 04 2013  00 46  -21.0380 26035.8 -03426.3 -07.4970 26260.3
 09 04 2013  00 47  -21.0379 26035.9 -03426.4 -07.4972 26260.4
 09 04 2013  00 48  -21.0378 26035.9 -03426.4 -07.4972 26260.4
 09 04 2013  00 49  -21.0377 26036.3 -03426.6 -07.4975 26260.8
 09 04 2013  00 50  -21.0375 26036.0 -03426.5 -07.4974 26260.5
 09 04 2013  00 51  -21.0375 26036.1 -03426.5 -07.4974 26260.6
 09 04 2013  00 52  -21.0374 26036.1 -03426.5 -07.4974 26260.6
 09 04 2013  00 53  -21.0374 26035.9 -03426.5 -07.4974 26260.5
 09 04 2013  00 54  -21.0374 26036.1 -03426.6 -07.4976 26260.7
 09 04 2013  00 55  -21.0374 26035.9 -03426.5 -07.4974 26260.4
 09 04 2013  00 56  -21.0374 26036.1 -03426.5 -07.4974 26260.6
 09 04 2013  00 57  -21.0373 26036.1 -03426.6 -07.4976 26260.6
 09 04 2013  00 58  -21.0372 26036.1 -03426.6 -07.4976 26260.6
 09 04 2013  00 59  -21.0372 26036.2 -03426.7 -07.4977 26260.7
 09 04 2013  01 00  -21.0371 26036.2 -03426.7 -07.4977 26260.7
 09 04 2013  01 01  -21.0371 26036.4 -03426.8 -07.4978 26260.9
 09 04 2013  01 02  -21.0370 26036.4 -03426.8 -07.4979 26260.9
 09 04 2013  01 03  -21.0370 26036.2 -03426.7 -07.4977 26260.8
 09 04 2013  01 04  -21.0370 26036.3 -03426.7 -07.4977 26260.8
 09 04 2013  01 05  -21.0369 26036.3 -03426.7 -07.4978 26260.9
 09 04 2013  01 06  -21.0368 26036.2 -03426.7 -07.4977 26260.7
 09 04 2013  01 07  -21.0368 26036.3 -03426.7 -07.4978 26260.8
 09 04 2013  01 08  -21.0367 26036.4 -03426.8 -07.4979 26260.9
 09 04 2013  01 09  -21.0368 26036.3 -03426.7 -07.4978 26260.8
 09 04 2013  01 10  -21.0368 26036.5 -03426.8 -07.4979 26261.0
 09 04 2013  01 11  -21.0368 26036.4 -03426.8 -07.4979 26261.0
 09 04 2013  01 12  -21.0368 26036.2 -03426.7 -07.4977 26260.8
 09 04 2013  01 13  -21.0368 26036.3 -03426.7 -07.4977 26260.8
 09 04 2013  01 14  -21.0368 26036.2 -03426.7 -07.4976 26260.7
 09 04 2013  01 15  -21.0367 26036.2 -03426.6 -07.4976 26260.7
 09 04 2013  01 16  -21.0366 26036.3 -03426.6 -07.4976 26260.8
 09 04 2013  01 17  -21.0365 26036.2 -03426.6 -07.4976 26260.8
 09 04 2013  01 18  -21.0364 26036.4 -03426.7 -07.4978 26261.0
 09 04 2013  01 19  -21.0362 26036.3 -03426.7 -07.4977 26260.9
 09 04 2013  01 20  -21.0362 26036.5 -03426.8 -07.4978 26261.0
 09 04 2013  01 21  -21.0360 26036.5 -03426.8 -07.4979 26261.1
 09 04 2013  01 22  -21.0360 26036.6 -03426.9 -07.4980 26261.2
 09 04 2013  01 23  -21.0359 26036.8 -03426.9 -07.4981 26261.3
 09 04 2013  01 24  -21.0358 26036.9 -03427.0 -07.4982 26261.5
 09 04 2013  01 25  -21.0358 26036.9 -03427.0 -07.4982 26261.4
 09 04 2013  01 26  -21.0357 26036.7 -03426.9 -07.4981 26261.3
 09 04 2013  01 27  -21.0358 26036.5 -03426.8 -07.4979 26261.1
 09 04 2013  01 28  -21.0357 26036.7 -03426.9 -07.4980 26261.2
 09 04 2013  01 29  -21.0358 26036.5 -03426.8 -07.4979 26261.1
 09 04 2013  01 30  -21.0358 26036.6 -03426.9 -07.4980 26261.2
 09 04 2013  01 31  -21.0358 26036.6 -03426.9 -07.4980 26261.1
 09 04 2013  01 32  -21.0358 26036.4 -03426.7 -07.4978 26260.9
 09 04 2013  01 33  -21.0356 26036.4 -03426.8 -07.4978 26260.9
 09 04 2013  01 34  -21.0356 26036.1 -03426.6 -07.4977 26260.6
 09 04 2013  01 35  -21.0355 26036.1 -03426.6 -07.4976 26260.6
 09 04 2013  01 36  -21.0356 26035.7 -03426.5 -07.4974 26260.3
 09 04 2013  01 37  -21.0356 26035.5 -03426.4 -07.4973 26260.0
 09 04 2013  01 38  -21.0357 26035.3 -03426.4 -07.4973 26259.8
 09 04 2013  01 39  -21.0358 26035.1 -03426.2 -07.4971 26259.5
 09 04 2013  01 40  -21.0359 26034.8 -03426.1 -07.4969 26259.3
 09 04 2013  01 41  -21.0361 26034.5 -03426.0 -07.4967 26258.9
 09 04 2013  01 42  -21.0364 26034.2 -03425.9 -07.4965 26258.6
 09 04 2013  01 43  -21.0367 26033.9 -03425.8 -07.4964 26258.3
 09 04 2013  01 44  -21.0371 26033.7 -03425.7 -07.4964 26258.1
 09 04 2013  01 45  -21.0373 26033.6 -03425.7 -07.4964 26258.0
 09 04 2013  01 46  -21.0375 26033.6 -03425.7 -07.4964 26258.0
 09 04 2013  01 47  -21.0377 26033.6 -03425.8 -07.4966 26258.0
 09 04 2013  01 48  -21.0378 26033.6 -03425.8 -07.4966 26258.0
 09 04 2013  01 49  -21.0379 26033.7 -03425.9 -07.4968 26258.1
 09 04 2013  01 50  -21.0378 26033.6 -03425.9 -07.4968 26258.1
 09 04 2013  01 51  -21.0378 26033.7 -03426.0 -07.4969 26258.2
 09 04 2013  01 52  -21.0376 26034.0 -03426.1 -07.4971 26258.4
 09 04 2013  01 53  -21.0375 26033.8 -03426.1 -07.4970 26258.3
 09 04 2013  01 54  -21.0375 26033.6 -03425.9 -07.4968 26258.0
 09 04 2013  01 55  -21.0375 26033.4 -03425.9 -07.4968 26257.9
 09 04 2013  01 56  -21.0374 26033.0 -03425.7 -07.4966 26257.5
 09 04 2013  01 57  -21.0375 26032.6 -03425.5 -07.4963 26257.0
 09 04 2013  01 58  -21.0374 26032.3 -03425.4 -07.4961 26256.6
 09 04 2013  01 59  -21.0374 26031.9 -03425.3 -07.4959 26256.3
 09 04 2013  02 00  -21.0375 26031.7 -03425.2 -07.4958 26256.1
 09 04 2013  02 01  -21.0377 26031.5 -03425.2 -07.4958 26255.9
 09 04 2013  02 02  -21.0378 26031.3 -03425.2 -07.4958 26255.6
 09 04 2013  02 03  -21.0381 26031.2 -03425.2 -07.4959 26255.5
 09 04 2013  02 04  -21.0383 26031.1 -03425.2 -07.4959 26255.4
 09 04 2013  02 05  -21.0386 26031.0 -03425.2 -07.4959 26255.3
 09 04 2013  02 06  -21.0388 26030.9 -03425.2 -07.4961 26255.3
 09 04 2013  02 07  -21.0391 26030.9 -03425.2 -07.4961 26255.3
 09 04 2013  02 08  -21.0393 26031.0 -03425.3 -07.4962 26255.4
 09 04 2013  02 09  -21.0395 26031.0 -03425.4 -07.4964 26255.4
 09 04 2013  02 10  -21.0395 26031.1 -03425.4 -07.4965 26255.5
 09 04 2013  02 11  -21.0395 26031.2 -03425.5 -07.4965 26255.6
 09 04 2013  02 12  -21.0395 26031.2 -03425.5 -07.4966 26255.6
 09 04 2013  02 13  -21.0393 26031.2 -03425.5 -07.4967 26255.7
 09 04 2013  02 14  -21.0392 26031.3 -03425.5 -07.4967 26255.7
 09 04 2013  02 15  -21.0392 26031.3 -03425.6 -07.4968 26255.7
 09 04 2013  02 16  -21.0392 26031.3 -03425.6 -07.4967 26255.7
 09 04 2013  02 17  -21.0390 26031.2 -03425.5 -07.4966 26255.6
 09 04 2013  02 18  -21.0389 26031.2 -03425.5 -07.4966 26255.6
 09 04 2013  02 19  -21.0388 26031.2 -03425.5 -07.4966 26255.6
 09 04 2013  02 20  -21.0387 26031.2 -03425.6 -07.4967 26255.6
 09 04 2013  02 21  -21.0387 26031.2 -03425.6 -07.4967 26255.6
 09 04 2013  02 22  -21.0386 26031.2 -03425.6 -07.4967 26255.6
 09 04 2013  02 23  -21.0386 26031.2 -03425.6 -07.4968 26255.6
 09 04 2013  02 24  -21.0386 26031.2 -03425.6 -07.4969 26255.6
 09 04 2013  02 25  -21.0386 26031.2 -03425.6 -07.4969 26255.6
 09 04 2013  02 26  -21.0387 26031.2 -03425.6 -07.4968 26255.6
 09 04 2013  02 27  -21.0387 26031.2 -03425.7 -07.4969 26255.6
 09 04 2013  02 28  -21.0385 26031.3 -03425.8 -07.4971 26255.7
 09 04 2013  02 29  -21.0385 26031.4 -03425.8 -07.4972 26255.8
 09 04 2013  02 30  -21.0386 26031.4 -03425.8 -07.4972 26255.9
 09 04 2013  02 31  -21.0386 26031.5 -03425.9 -07.4973 26255.9
 09 04 2013  02 32  -21.0386 26031.5 -03425.9 -07.4974 26256.0
 09 04 2013  02 33  -21.0384 26031.6 -03425.9 -07.4973 26256.1
 09 04 2013  02 34  -21.0383 26031.7 -03425.9 -07.4974 26256.2
 09 04 2013  02 35  -21.0381 26031.7 -03426.0 -07.4975 26256.2
 09 04 2013  02 36  -21.0381 26031.7 -03426.0 -07.4974 26256.2
 09 04 2013  02 37  -21.0380 26031.7 -03426.0 -07.4975 26256.2
 09 04 2013  02 38  -21.0380 26031.6 -03426.0 -07.4974 26256.1
 09 04 2013  02 39  -21.0378 26031.8 -03426.0 -07.4975 26256.3
 09 04 2013  02 40  -21.0377 26032.0 -03426.1 -07.4977 26256.5
 09 04 2013  02 41  -21.0379 26032.0 -03426.1 -07.4977 26256.5
 09 04 2013  02 42  -21.0378 26032.0 -03426.1 -07.4976 26256.5
 09 04 2013  02 43  -21.0376 26032.1 -03426.0 -07.4975 26256.6
 09 04 2013  02 44  -21.0375 26032.0 -03426.0 -07.4975 26256.4
 09 04 2013  02 45  -21.0375 26032.0 -03426.1 -07.4976 26256.5
 09 04 2013  02 46  -21.0373 26032.1 -03426.1 -07.4977 26256.6
 09 04 2013  02 47  -21.0374 26032.2 -03426.2 -07.4977 26256.6
 09 04 2013  02 48  -21.0375 26032.0 -03426.1 -07.4977 26256.5
 09 04 2013  02 49  -21.0375 26031.9 -03426.0 -07.4975 26256.4
 09 04 2013  02 50  -21.0374 26032.0 -03426.0 -07.4975 26256.4
 09 04 2013  02 51  -21.0375 26031.8 -03426.0 -07.4975 26256.3
 09 04 2013  02 52  -21.0375 26031.8 -03426.0 -07.4975 26256.3
 09 04 2013  02 53  -21.0374 26031.7 -03425.9 -07.4973 26256.2
 09 04 2013  02 54  -21.0373 26031.6 -03425.8 -07.4972 26256.1
 09 04 2013  02 55  -21.0372 26031.5 -03425.8 -07.4972 26256.0
 09 04 2013  02 56  -21.0370 26031.4 -03425.8 -07.4972 26255.9
 09 04 2013  02 57  -21.0369 26031.4 -03425.8 -07.4972 26255.9
 09 04 2013  02 58  -21.0369 26031.3 -03425.8 -07.4972 26255.8
 09 04 2013  02 59  -21.0370 26031.2 -03425.8 -07.4972 26255.7
 09 04 2013  03 00  -21.0370 26031.2 -03425.8 -07.4972 26255.6
 09 04 2013  03 01  -21.0371 26031.1 -03425.8 -07.4972 26255.5
 09 04 2013  03 02  -21.0371 26030.9 -03425.7 -07.4971 26255.4
 09 04 2013  03 03  -21.0371 26030.9 -03425.7 -07.4971 26255.3
 09 04 2013  03 04  -21.0372 26030.8 -03425.7 -07.4971 26255.2
 09 04 2013  03 05  -21.0372 26030.7 -03425.7 -07.4971 26255.1
 09 04 2013  03 06  -21.0374 26030.7 -03425.7 -07.4971 26255.1
 09 04 2013  03 07  -21.0375 26030.6 -03425.7 -07.4972 26255.1
 09 04 2013  03 08  -21.0374 26030.6 -03425.7 -07.4972 26255.0
 09 04 2013  03 09  -21.0374 26030.5 -03425.7 -07.4972 26255.0
 09 04 2013  03 10  -21.0374 26030.5 -03425.7 -07.4972 26254.9
 09 04 2013  03 11  -21.0374 26030.4 -03425.7 -07.4973 26254.9
 09 04 2013  03 12  -21.0374 26030.3 -03425.7 -07.4972 26254.8
 09 04 2013  03 13  -21.0375 26030.3 -03425.7 -07.4973 26254.7
 09 04 2013  03 14  -21.0377 26030.3 -03425.8 -07.4974 26254.7
 09 04 2013  03 15  -21.0379 26030.2 -03425.8 -07.4975 26254.7
 09 04 2013  03 16  -21.0380 26030.2 -03425.8 -07.4975 26254.7
 09 04 2013  03 17  -21.0380 26030.2 -03425.8 -07.4976 26254.6
 09 04 2013  03 18  -21.0381 26030.2 -03425.9 -07.4977 26254.7
 09 04 2013  03 19  -21.0381 26030.2 -03425.9 -07.4978 26254.7
 09 04 2013  03 20  -21.0381 26030.2 -03426.0 -07.4979 26254.7
 09 04 2013  03 21  -21.0382 26030.1 -03426.0 -07.4979 26254.6
 09 04 2013  03 22  -21.0381 26030.1 -03425.9 -07.4978 26254.6
 09 04 2013  03 23  -21.0381 26030.1 -03426.0 -07.4980 26254.6
 09 04 2013  03 24  -21.0382 26030.0 -03426.0 -07.4980 26254.5
 09 04 2013  03 25  -21.0383 26029.9 -03426.0 -07.4980 26254.4
 09 04 2013  03 26  -21.0384 26029.9 -03426.0 -07.4981 26254.4
 09 04 2013  03 27  -21.0386 26029.8 -03426.1 -07.4983 26254.3
 09 04 2013  03 28  -21.0386 26029.8 -03426.1 -07.4983 26254.3
 09 04 2013  03 29  -21.0387 26029.7 -03426.1 -07.4983 26254.2
 09 04 2013  03 30  -21.0387 26029.6 -03426.1 -07.4984 26254.1
 09 04 2013  03 31  -21.0388 26029.5 -03426.1 -07.4984 26254.1
 09 04 2013  03 32  -21.0389 26029.5 -03426.1 -07.4985 26254.0
 09 04 2013  03 33  -21.0390 26029.5 -03426.2 -07.4986 26254.0
 09 04 2013  03 34  -21.0392 26029.4 -03426.3 -07.4988 26254.0
 09 04 2013  03 35  -21.0394 26029.5 -03426.3 -07.4989 26254.0
 09 04 2013  03 36  -21.0396 26029.4 -03426.4 -07.4990 26254.0
 09 04 2013  03 37  -21.0397 26029.5 -03426.4 -07.4991 26254.0
 09 04 2013  03 38  -21.0398 26029.4 -03426.5 -07.4991 26254.0
 09 04 2013  03 39  -21.0399 26029.4 -03426.5 -07.4992 26254.0
 09 04 2013  03 40  -21.0400 26029.4 -03426.5 -07.4992 26253.9
 09 04 2013  03 41  -21.0401 26029.4 -03426.5 -07.4993 26253.9
 09 04 2013  03 42  -21.0402 26029.4 -03426.6 -07.4994 26254.0
 09 04 2013  03 43  -21.0404 26029.5 -03426.6 -07.4995 26254.1
 09 04 2013  03 44  -21.0404 26029.6 -03426.7 -07.4996 26254.2
 09 04 2013  03 45  -21.0404 26029.6 -03426.8 -07.4998 26254.2
 09 04 2013  03 46  -21.0404 26029.6 -03426.8 -07.4998 26254.2
 09 04 2013  03 47  -21.0403 26029.6 -03426.8 -07.4998 26254.2
 09 04 2013  03 48  -21.0403 26029.5 -03426.8 -07.4998 26254.1
 09 04 2013  03 49  -21.0403 26029.4 -03426.7 -07.4998 26254.0
 09 04 2013  03 50  -21.0403 26029.3 -03426.7 -07.4998 26253.9
 09 04 2013  03 51  -21.0402 26029.2 -03426.7 -07.4998 26253.8
 09 04 2013  03 52  -21.0402 26029.0 -03426.7 -07.4997 26253.6
 09 04 2013  03 53  -21.0402 26028.9 -03426.6 -07.4997 26253.5
 09 04 2013  03 54  -21.0403 26028.9 -03426.7 -07.4998 26253.5
 09 04 2013  03 55  -21.0405 26028.8 -03426.7 -07.4998 26253.4
 09 04 2013  03 56  -21.0406 26028.7 -03426.7 -07.4999 26253.3
 09 04 2013  03 57  -21.0407 26028.7 -03426.8 -07.5000 26253.3
 09 04 2013  03 58  -21.0408 26028.7 -03426.8 -07.5001 26253.3
 09 04 2013  03 59  -21.0408 26028.6 -03426.8 -07.5001 26253.2
 09 04 2013  04 00  -21.0408 26028.6 -03426.8 -07.5002 26253.2
 09 04 2013  04 01  -21.0408 26028.5 -03426.9 -07.5003 26253.2
 09 04 2013  04 02  -21.0407 26028.6 -03426.9 -07.5004 26253.2
 09 04 2013  04 03  -21.0407 26028.6 -03426.9 -07.5004 26253.2
 09 04 2013  04 04  -21.0407 26028.6 -03427.0 -07.5005 26253.2
 09 04 2013  04 05  -21.0408 26028.6 -03427.0 -07.5006 26253.2
 09 04 2013  04 06  -21.0409 26028.5 -03427.0 -07.5007 26253.2
 09 04 2013  04 07  -21.0410 26028.5 -03427.0 -07.5007 26253.1
 09 04 2013  04 08  -21.0410 26028.5 -03427.1 -07.5008 26253.1
 09 04 2013  04 09  -21.0411 26028.4 -03427.1 -07.5008 26253.1
 09 04 2013  04 10  -21.0412 26028.4 -03427.2 -07.5009 26253.1
 09 04 2013  04 11  -21.0414 26028.5 -03427.2 -07.5010 26253.1
 09 04 2013  04 12  -21.0417 26028.5 -03427.2 -07.5011 26253.1
 09 04 2013  04 13  -21.0419 26028.4 -03427.2 -07.5011 26253.1
 09 04 2013  04 14  -21.0419 26028.4 -03427.2 -07.5011 26253.1
 09 04 2013  04 15  -21.0421 26028.3 -03427.3 -07.5012 26253.0
 09 04 2013  04 16  -21.0422 26028.3 -03427.3 -07.5012 26253.0
 09 04 2013  04 17  -21.0422 26028.3 -03427.3 -07.5012 26252.9
 09 04 2013  04 18  -21.0423 26028.3 -03427.3 -07.5014 26253.0
 09 04 2013  04 19  -21.0424 26028.4 -03427.4 -07.5015 26253.0
 09 04 2013  04 20  -21.0425 26028.5 -03427.4 -07.5016 26253.2
 09 04 2013  04 21  -21.0425 26028.5 -03427.5 -07.5017 26253.2
 09 04 2013  04 22  -21.0426 26028.7 -03427.6 -07.5019 26253.4
 09 04 2013  04 23  -21.0425 26029.0 -03427.8 -07.5021 26253.7
 09 04 2013  04 24  -21.0425 26029.1 -03427.9 -07.5023 26253.9
 09 04 2013  04 25  -21.0425 26029.3 -03428.0 -07.5024 26254.0
 09 04 2013  04 26  -21.0425 26029.4 -03428.0 -07.5026 26254.2
 09 04 2013  04 27  -21.0425 26029.4 -03428.0 -07.5026 26254.2
 09 04 2013  04 28  -21.0424 26029.2 -03428.0 -07.5024 26254.0
 09 04 2013  04 29  -21.0424 26029.3 -03427.9 -07.5024 26254.0
 09 04 2013  04 30  -21.0424 26029.3 -03428.0 -07.5024 26254.1
 09 04 2013  04 31  -21.0424 26029.3 -03428.0 -07.5025 26254.1
 09 04 2013  04 32  -21.0423 26029.4 -03428.0 -07.5026 26254.2
 09 04 2013  04 33  -21.0423 26029.4 -03428.0 -07.5026 26254.1
 09 04 2013  04 34  -21.0424 26029.2 -03427.9 -07.5024 26253.9
 09 04 2013  04 35  -21.0424 26029.2 -03427.9 -07.5024 26254.0
 09 04 2013  04 36  -21.0424 26029.2 -03427.9 -07.5024 26253.9
 09 04 2013  04 37  -21.0423 26029.3 -03428.0 -07.5024 26254.1
 09 04 2013  04 38  -21.0418 26029.7 -03428.1 -07.5027 26254.5
 09 04 2013  04 39  -21.0417 26029.8 -03428.2 -07.5028 26254.6
 09 04 2013  04 40  -21.0416 26030.1 -03428.3 -07.5030 26254.9
 09 04 2013  04 41  -21.0414 26030.5 -03428.5 -07.5033 26255.3
 09 04 2013  04 42  -21.0412 26030.6 -03428.6 -07.5034 26255.4
 09 04 2013  04 43  -21.0408 26030.7 -03428.6 -07.5034 26255.5
 09 04 2013  04 44  -21.0405 26030.7 -03428.6 -07.5034 26255.5
 09 04 2013  04 45  -21.0403 26030.9 -03428.7 -07.5035 26255.8
 09 04 2013  04 46  -21.0401 26031.4 -03428.9 -07.5038 26256.3
 09 04 2013  04 47  -21.0400 26031.8 -03429.1 -07.5041 26256.7
 09 04 2013  04 48  -21.0403 26031.4 -03428.9 -07.5039 26256.3
 09 04 2013  04 49  -21.0402 26031.8 -03429.0 -07.5039 26256.7
 09 04 2013  04 50  -21.0407 26031.6 -03428.9 -07.5038 26256.5
 09 04 2013  04 51  -21.0408 26031.2 -03428.6 -07.5034 26256.0
 09 04 2013  04 52  -21.0408 26031.0 -03428.5 -07.5032 26255.8
 09 04 2013  04 53  -21.0410 26030.7 -03428.4 -07.5029 26255.5
 09 04 2013  04 54  -21.0412 26030.5 -03428.2 -07.5026 26255.3
 09 04 2013  04 55  -21.0413 26030.5 -03428.2 -07.5025 26255.2
 09 04 2013  04 56  -21.0413 26030.4 -03428.1 -07.5025 26255.1
 09 04 2013  04 57  -21.0415 26030.4 -03428.1 -07.5025 26255.1
 09 04 2013  04 58  -21.0415 26030.4 -03428.2 -07.5026 26255.2
 09 04 2013  04 59  -21.0415 26030.4 -03428.2 -07.5026 26255.1
 09 04 2013  05 00  -21.0415 26030.5 -03428.2 -07.5027 26255.3
 09 04 2013  05 01  -21.0412 26030.7 -03428.3 -07.5028 26255.5
 09 04 2013  05 02  -21.0411 26030.8 -03428.4 -07.5029 26255.6
 09 04 2013  05 03  -21.0408 26031.4 -03428.6 -07.5033 26256.2
 09 04 2013  05 04  -21.0406 26031.5 -03428.8 -07.5036 26256.4
 09 04 2013  05 05  -21.0405 26032.1 -03429.0 -07.5040 26256.9
 09 04 2013  05 06  -21.0409 26032.3 -03429.2 -07.5043 26257.2
 09 04 2013  05 07  -21.0408 26032.3 -03429.1 -07.5041 26257.1
 09 04 2013  05 08  -21.0407 26032.0 -03429.0 -07.5039 26256.9
 09 04 2013  05 09  -21.0406 26031.8 -03428.8 -07.5035 26256.6
 09 04 2013  05 10  -21.0405 26031.9 -03428.8 -07.5036 26256.8
 09 04 2013  05 11  -21.0404 26031.8 -03428.8 -07.5035 26256.6
 09 04 2013  05 12  -21.0401 26031.9 -03428.8 -07.5035 26256.7
 09 04 2013  05 13  -21.0400 26031.8 -03428.8 -07.5035 26256.6
 09 04 2013  05 14  -21.0397 26031.8 -03428.8 -07.5035 26256.6
 09 04 2013  05 15  -21.0397 26031.7 -03428.8 -07.5035 26256.6
 09 04 2013  05 16  -21.0396 26031.9 -03428.9 -07.5037 26256.7
 09 04 2013  05 17  -21.0395 26032.1 -03429.0 -07.5038 26257.0
 09 04 2013  05 18  -21.0392 26032.4 -03429.1 -07.5041 26257.2
 09 04 2013  05 19  -21.0389 26032.6 -03429.3 -07.5044 26257.5
 09 04 2013  05 20  -21.0388 26032.8 -03429.4 -07.5045 26257.7
 09 04 2013  05 21  -21.0387 26033.2 -03429.6 -07.5048 26258.1
 09 04 2013  05 22  -21.0386 26033.2 -03429.6 -07.5048 26258.2
 09 04 2013  05 23  -21.0383 26033.5 -03429.7 -07.5051 26258.5
 09 04 2013  05 24  -21.0381 26033.5 -03429.8 -07.5051 26258.5
 09 04 2013  05 25  -21.0376 26033.4 -03429.7 -07.5050 26258.3
 09 04 2013  05 26  -21.0372 26033.5 -03429.7 -07.5051 26258.5
 09 04 2013  05 27  -21.0371 26033.7 -03429.8 -07.5052 26258.6
 09 04 2013  05 28  -21.0370 26033.7 -03429.8 -07.5052 26258.7
 09 04 2013  05 29  -21.0367 26033.7 -03429.8 -07.5052 26258.7
 09 04 2013  05 30  -21.0364 26033.7 -03429.8 -07.5051 26258.7
 09 04 2013  05 31  -21.0362 26033.8 -03429.8 -07.5052 26258.7
 09 04 2013  05 32  -21.0360 26033.7 -03429.8 -07.5052 26258.7
 09 04 2013  05 33  -21.0359 26033.7 -03429.8 -07.5051 26258.6
 09 04 2013  05 34  -21.0357 26033.6 -03429.8 -07.5051 26258.6
 09 04 2013  05 35  -21.0357 26033.6 -03429.7 -07.5050 26258.5
 09 04 2013  05 36  -21.0355 26033.5 -03429.7 -07.5050 26258.5
 09 04 2013  05 37  -21.0353 26033.5 -03429.7 -07.5050 26258.4
 09 04 2013  05 38  -21.0352 26033.4 -03429.6 -07.5049 26258.3
 09 04 2013  05 39  -21.0350 26033.3 -03429.6 -07.5049 26258.3
 09 04 2013  05 40  -21.0349 26033.3 -03429.6 -07.5048 26258.3
 09 04 2013  05 41  -21.0349 26033.4 -03429.7 -07.5049 26258.4
 09 04 2013  05 42  -21.0350 26033.4 -03429.7 -07.5050 26258.4
 09 04 2013  05 43  -21.0348 26033.4 -03429.7 -07.5050 26258.4
 09 04 2013  05 44  -21.0347 26033.4 -03429.7 -07.5050 26258.4
 09 04 2013  05 45  -21.0345 26033.5 -03429.7 -07.5050 26258.4
 09 04 2013  05 46  -21.0343 26033.5 -03429.8 -07.5051 26258.5
 09 04 2013  05 47  -21.0341 26033.5 -03429.7 -07.5051 26258.5
 09 04 2013  05 48  -21.0339 26033.4 -03429.7 -07.5051 26258.4
 09 04 2013  05 49  -21.0338 26033.2 -03429.7 -07.5050 26258.1
 09 04 2013  05 50  -21.0339 26033.2 -03429.7 -07.5050 26258.1
 09 04 2013  05 51  -21.0338 26033.5 -03429.8 -07.5051 26258.4
 09 04 2013  05 52  -21.0334 26033.5 -03429.8 -07.5052 26258.5
 09 04 2013  05 53  -21.0334 26033.7 -03429.9 -07.5054 26258.7
 09 04 2013  05 54  -21.0336 26033.7 -03430.0 -07.5055 26258.7
 09 04 2013  05 55  -21.0336 26033.3 -03429.8 -07.5053 26258.3
 09 04 2013  05 56  -21.0341 26033.1 -03429.7 -07.5050 26258.0
 09 04 2013  05 57  -21.0343 26033.2 -03429.6 -07.5050 26258.1
 09 04 2013  05 58  -21.0343 26033.3 -03429.7 -07.5051 26258.3
 09 04 2013  05 59  -21.0345 26033.5 -03429.8 -07.5052 26258.4
 09 04 2013  06 00  -21.0350 26033.6 -03429.9 -07.5054 26258.6
 09 04 2013  06 01  -21.0352 26033.6 -03429.8 -07.5053 26258.5
 09 04 2013  06 02  -21.0352 26033.4 -03429.7 -07.5051 26258.4
 09 04 2013  06 03  -21.0353 26033.4 -03429.7 -07.5050 26258.4
 09 04 2013  06 04  -21.0355 26033.5 -03429.7 -07.5050 26258.4
 09 04 2013  06 05  -21.0357 26033.6 -03429.7 -07.5050 26258.5
 09 04 2013  06 06  -21.0359 26033.8 -03429.8 -07.5052 26258.7
 09 04 2013  06 07  -21.0359 26033.8 -03429.8 -07.5052 26258.7
 09 04 2013  06 08  -21.0363 26033.7 -03429.8 -07.5051 26258.7
 09 04 2013  06 09  -21.0365 26033.7 -03429.7 -07.5049 26258.6
 09 04 2013  06 10  -21.0366 26033.5 -03429.5 -07.5047 26258.4
 09 04 2013  06 11  -21.0366 26033.3 -03429.4 -07.5045 26258.2
 09 04 2013  06 12  -21.0365 26033.1 -03429.3 -07.5042 26258.0
 09 04 2013  06 13  -21.0365 26033.0 -03429.2 -07.5041 26257.9
 09 04 2013  06 14  -21.0365 26032.8 -03429.1 -07.5040 26257.7
 09 04 2013  06 15  -21.0367 26032.7 -03429.1 -07.5039 26257.6
 09 04 2013  06 16  -21.0368 26032.7 -03429.1 -07.5039 26257.6
 09 04 2013  06 17  -21.0372 26032.7 -03429.1 -07.5038 26257.6
 09 04 2013  06 18  -21.0374 26032.8 -03429.1 -07.5039 26257.7
 09 04 2013  06 19  -21.0375 26033.0 -03429.2 -07.5040 26257.9
 09 04 2013  06 20  -21.0376 26033.0 -03429.2 -07.5040 26257.8
 09 04 2013  06 21  -21.0376 26032.9 -03429.1 -07.5040 26257.8
 09 04 2013  06 22  -21.0376 26032.9 -03429.1 -07.5039 26257.8
 09 04 2013  06 23  -21.0375 26032.9 -03429.1 -07.5039 26257.8
 09 04 2013  06 24  -21.0375 26032.9 -03429.1 -07.5039 26257.7
 09 04 2013  06 25  -21.0376 26033.0 -03429.1 -07.5039 26257.8
 09 04 2013  06 26  -21.0377 26033.0 -03429.2 -07.5040 26257.9
 09 04 2013  06 27  -21.0378 26033.0 -03429.2 -07.5040 26257.9
 09 04 2013  06 28  -21.0378 26033.0 -03429.2 -07.5040 26257.9
 09 04 2013  06 29  -21.0376 26033.0 -03429.1 -07.5039 26257.9
 09 04 2013  06 30  -21.0374 26033.0 -03429.1 -07.5039 26257.9
 09 04 2013  06 31  -21.0374 26033.1 -03429.1 -07.5038 26257.9
 09 04 2013  06 32  -21.0374 26033.1 -03429.1 -07.5039 26258.0
 09 04 2013  06 33  -21.0373 26033.1 -03429.1 -07.5039 26258.0
 09 04 2013  06 34  -21.0370 26033.1 -03429.1 -07.5039 26258.0
 09 04 2013  06 35  -21.0369 26033.0 -03429.1 -07.5039 26257.9
 09 04 2013  06 36  -21.0368 26033.1 -03429.1 -07.5039 26258.0
 09 04 2013  06 37  -21.0369 26033.1 -03429.2 -07.5040 26258.0
 09 04 2013  06 38  -21.0368 26033.1 -03429.2 -07.5041 26258.0
 09 04 2013  06 39  -21.0368 26033.2 -03429.2 -07.5040 26258.1
 09 04 2013  06 40  -21.0367 26033.3 -03429.3 -07.5041 26258.2
 09 04 2013  06 41  -21.0366 26033.3 -03429.3 -07.5042 26258.2
 09 04 2013  06 42  -21.0365 26033.5 -03429.3 -07.5042 26258.4
 09 04 2013  06 43  -21.0364 26033.7 -03429.4 -07.5044 26258.6
 09 04 2013  06 44  -21.0363 26034.0 -03429.6 -07.5047 26258.9
 09 04 2013  06 45  -21.0361 26034.1 -03429.7 -07.5049 26259.0
 09 04 2013  06 46  -21.0362 26034.3 -03429.8 -07.5051 26259.3
 09 04 2013  06 47  -21.0361 26034.5 -03429.9 -07.5052 26259.4
 09 04 2013  06 48  -21.0359 26034.5 -03429.9 -07.5052 26259.5
 09 04 2013  06 49  -21.0358 26034.6 -03429.9 -07.5052 26259.5
 09 04 2013  06 50  -21.0358 26034.6 -03429.9 -07.5052 26259.6
 09 04 2013  06 51  -21.0357 26034.5 -03429.9 -07.5052 26259.5
 09 04 2013  06 52  -21.0358 26034.5 -03429.8 -07.5050 26259.5
 09 04 2013  06 53  -21.0358 26034.3 -03429.7 -07.5049 26259.3
 09 04 2013  06 54  -21.0358 26034.2 -03429.6 -07.5046 26259.1
 09 04 2013  06 55  -21.0357 26034.0 -03429.5 -07.5044 26258.9
 09 04 2013  06 56  -21.0356 26033.9 -03429.4 -07.5043 26258.8
 09 04 2013  06 57  -21.0356 26033.8 -03429.4 -07.5042 26258.7
 09 04 2013  06 58  -21.0355 26033.6 -03429.3 -07.5040 26258.5
 09 04 2013  06 59  -21.0355 26033.6 -03429.3 -07.5040 26258.5
 09 04 2013  07 00  -21.0353 26033.6 -03429.2 -07.5040 26258.5
 09 04 2013  07 01  -21.0350 26033.6 -03429.3 -07.5040 26258.5
 09 04 2013  07 02  -21.0348 26033.7 -03429.3 -07.5042 26258.6
 09 04 2013  07 03  -21.0346 26033.8 -03429.4 -07.5043 26258.7
 09 04 2013  07 04  -21.0345 26033.9 -03429.5 -07.5044 26258.8
 09 04 2013  07 05  -21.0344 26033.9 -03429.5 -07.5045 26258.8
 09 04 2013  07 06  -21.0343 26034.0 -03429.6 -07.5046 26258.9
 09 04 2013  07 07  -21.0342 26034.1 -03429.6 -07.5046 26259.0
 09 04 2013  07 08  -21.0342 26034.1 -03429.6 -07.5047 26259.1
 09 04 2013  07 09  -21.0343 26034.1 -03429.7 -07.5047 26259.0
 09 04 2013  07 10  -21.0344 26034.1 -03429.6 -07.5047 26259.0
 09 04 2013  07 11  -21.0344 26034.0 -03429.5 -07.5045 26258.9
 09 04 2013  07 12  -21.0342 26033.9 -03429.5 -07.5044 26258.9
 09 04 2013  07 13  -21.0341 26033.9 -03429.4 -07.5043 26258.8
 09 04 2013  07 14  -21.0339 26033.8 -03429.3 -07.5042 26258.7
 09 04 2013  07 15  -21.0339 26033.7 -03429.3 -07.5041 26258.6
 09 04 2013  07 16  -21.0339 26033.7 -03429.3 -07.5041 26258.6
 09 04 2013  07 17  -21.0340 26033.6 -03429.3 -07.5041 26258.5
 09 04 2013  07 18  -21.0341 26033.5 -03429.2 -07.5040 26258.4
 09 04 2013  07 19  -21.0341 26033.4 -03429.2 -07.5039 26258.3
 09 04 2013  07 20  -21.0341 26033.4 -03429.1 -07.5038 26258.3
 09 04 2013  07 21  -21.0341 26033.4 -03429.1 -07.5037 26258.2
 09 04 2013  07 22  -21.0340 26033.4 -03429.1 -07.5038 26258.2
 09 04 2013  07 23  -21.0340 26033.4 -03429.1 -07.5038 26258.2
 09 04 2013  07 24  -21.0341 26033.4 -03429.1 -07.5038 26258.3
 09 04 2013  07 25  -21.0342 26033.4 -03429.2 -07.5039 26258.2
 09 04 2013  07 26  -21.0343 26033.4 -03429.2 -07.5039 26258.3
 09 04 2013  07 27  -21.0345 26033.4 -03429.2 -07.5039 26258.3
 09 04 2013  07 28  -21.0348 26033.4 -03429.2 -07.5039 26258.3
 09 04 2013  07 29  -21.0349 26033.4 -03429.2 -07.5039 26258.3
 09 04 2013  07 30  -21.0350 26033.4 -03429.1 -07.5038 26258.3
 09 04 2013  07 31  -21.0352 26033.4 -03429.1 -07.5038 26258.3
 09 04 2013  07 32  -21.0354 26033.4 -03429.2 -07.5039 26258.3
 09 04 2013  07 33  -21.0356 26033.5 -03429.2 -07.5039 26258.4
 09 04 2013  07 34  -21.0358 26033.5 -03429.2 -07.5039 26258.4
 09 04 2013  07 35  -21.0359 26033.5 -03429.2 -07.5039 26258.4
 09 04 2013  07 36  -21.0360 26033.5 -03429.2 -07.5039 26258.4
 09 04 2013  07 37  -21.0358 26033.6 -03429.2 -07.5038 26258.4
 09 04 2013  07 38  -21.0358 26033.5 -03429.1 -07.5038 26258.4
 09 04 2013  07 39  -21.0358 26033.6 -03429.1 -07.5037 26258.4
 09 04 2013  07 40  -21.0359 26033.6 -03429.1 -07.5036 26258.4
 09 04 2013  07 41  -21.0358 26033.6 -03429.1 -07.5037 26258.4
 09 04 2013  07 42  -21.0357 26033.6 -03429.1 -07.5036 26258.5
 09 04 2013  07 43  -21.0356 26033.6 -03429.0 -07.5036 26258.4
 09 04 2013  07 44  -21.0356 26033.6 -03429.1 -07.5036 26258.5
 09 04 2013  07 45  -21.0356 26033.6 -03429.1 -07.5036 26258.5
 09 04 2013  07 46  -21.0356 26033.5 -03429.0 -07.5036 26258.4
 09 04 2013  07 47  -21.0356 26033.6 -03429.1 -07.5036 26258.5
 09 04 2013  07 48  -21.0355 26033.6 -03429.1 -07.5036 26258.4
 09 04 2013  07 49  -21.0354 26033.6 -03429.0 -07.5035 26258.4
 09 04 2013  07 50  -21.0355 26033.6 -03429.0 -07.5036 26258.5
 09 04 2013  07 51  -21.0355 26033.6 -03429.0 -07.5035 26258.4
 09 04 2013  07 52  -21.0356 26033.6 -03429.0 -07.5036 26258.5
 09 04 2013  07 53  -21.0356 26033.6 -03429.0 -07.5035 26258.5
 09 04 2013  07 54  -21.0356 26033.6 -03429.0 -07.5035 26258.5
 09 04 2013  07 55  -21.0357 26033.7 -03429.0 -07.5035 26258.5
 09 04 2013  07 56  -21.0357 26033.7 -03429.0 -07.5035 26258.5
 09 04 2013  07 57  -21.0357 26033.6 -03429.0 -07.5035 26258.5
 09 04 2013  07 58  -21.0356 26033.6 -03429.0 -07.5035 26258.4
 09 04 2013  07 59  -21.0356 26033.6 -03429.0 -07.5034 26258.5
 09 04 2013  08 00  -21.0355 26033.6 -03429.0 -07.5035 26258.4
 09 04 2013  08 01  -21.0355 26033.6 -03429.0 -07.5035 26258.4
 09 04 2013  08 02  -21.0354 26033.7 -03429.0 -07.5035 26258.6
 09 04 2013  08 03  -21.0358 26033.6 -03429.0 -07.5034 26258.4
 09 04 2013  08 04  -21.0355 26033.7 -03429.0 -07.5035 26258.6
 09 04 2013  08 05  -21.0356 26033.8 -03429.1 -07.5036 26258.7
 09 04 2013  08 06  -21.0357 26033.7 -03429.1 -07.5036 26258.5
 09 04 2013  08 07  -21.0356 26033.9 -03429.2 -07.5037 26258.7
 09 04 2013  08 08  -21.0357 26034.0 -03429.2 -07.5038 26258.9
 09 04 2013  08 09  -21.0354 26034.1 -03429.2 -07.5038 26259.0
 09 04 2013  08 10  -21.0356 26034.1 -03429.3 -07.5039 26259.0
 09 04 2013  08 11  -21.0352 26034.1 -03429.2 -07.5038 26258.9
 09 04 2013  08 12  -21.0351 26034.3 -03429.3 -07.5039 26259.2
 09 04 2013  08 13  -21.0351 26034.2 -03429.3 -07.5039 26259.1
 09 04 2013  08 14  -21.0349 26034.2 -03429.2 -07.5038 26259.0
 09 04 2013  08 15  -21.0348 26034.2 -03429.2 -07.5038 26259.1
 09 04 2013  08 16  -21.0347 26034.2 -03429.2 -07.5038 26259.1
 09 04 2013  08 17  -21.0347 26034.1 -03429.2 -07.5037 26259.0
 09 04 2013  08 18  -21.0347 26034.3 -03429.2 -07.5038 26259.2
 09 04 2013  08 19  -21.0348 26034.3 -03429.2 -07.5038 26259.2
 09 04 2013  08 20  -21.0345 26034.3 -03429.3 -07.5038 26259.2
 09 04 2013  08 21  -21.0344 26034.2 -03429.2 -07.5037 26259.1
 09 04 2013  08 22  -21.0339 26034.2 -03429.1 -07.5036 26259.0
 09 04 2013  08 23  -21.0337 26034.1 -03429.1 -07.5035 26258.9
 09 04 2013  08 24  -21.0333 26034.1 -03429.1 -07.5036 26258.9
 09 04 2013  08 25  -21.0330 26034.2 -03429.2 -07.5038 26259.0
 09 04 2013  08 26  -21.0329 26034.3 -03429.3 -07.5039 26259.2
 09 04 2013  08 27  -21.0330 26034.4 -03429.4 -07.5040 26259.3
 09 04 2013  08 28  -21.0333 26034.5 -03429.5 -07.5043 26259.4
 09 04 2013  08 29  -21.0336 26034.6 -03429.6 -07.5044 26259.5
 09 04 2013  08 30  -21.0337 26034.6 -03429.6 -07.5044 26259.5
 09 04 2013  08 31  -21.0338 26034.5 -03429.5 -07.5042 26259.4
 09 04 2013  08 32  -21.0339 26034.6 -03429.4 -07.5041 26259.5
 09 04 2013  08 33  -21.0338 26034.5 -03429.3 -07.5039 26259.4
 09 04 2013  08 34  -21.0338 26034.4 -03429.2 -07.5037 26259.2
 09 04 2013  08 35  -21.0338 26034.3 -03429.2 -07.5037 26259.1
 09 04 2013  08 36  -21.0336 26034.2 -03429.1 -07.5035 26259.0
 09 04 2013  08 37  -21.0335 26034.0 -03429.0 -07.5033 26258.9
 09 04 2013  08 38  -21.0333 26033.9 -03428.9 -07.5032 26258.7
 09 04 2013  08 39  -21.0332 26033.8 -03428.8 -07.5030 26258.6
 09 04 2013  08 40  -21.0331 26033.7 -03428.8 -07.5030 26258.5
 09 04 2013  08 41  -21.0330 26033.6 -03428.8 -07.5029 26258.4
 09 04 2013  08 42  -21.0330 26033.5 -03428.7 -07.5029 26258.3
 09 04 2013  08 43  -21.0327 26033.5 -03428.7 -07.5029 26258.3
 09 04 2013  08 44  -21.0324 26033.5 -03428.8 -07.5030 26258.3
 09 04 2013  08 45  -21.0320 26033.5 -03428.7 -07.5030 26258.3
 09 04 2013  08 46  -21.0316 26033.4 -03428.7 -07.5030 26258.2
 09 04 2013  08 47  -21.0312 26033.4 -03428.7 -07.5030 26258.2
 09 04 2013  08 48  -21.0307 26033.4 -03428.8 -07.5031 26258.2
 09 04 2013  08 49  -21.0304 26033.4 -03428.8 -07.5032 26258.2
 09 04 2013  08 50  -21.0300 26033.4 -03428.9 -07.5033 26258.2
 09 04 2013  08 51  -21.0294 26033.3 -03428.9 -07.5034 26258.2
 09 04 2013  08 52  -21.0289 26033.3 -03429.0 -07.5035 26258.1
 09 04 2013  08 53  -21.0286 26033.4 -03429.0 -07.5035 26258.2
 09 04 2013  08 54  -21.0281 26033.3 -03429.1 -07.5037 26258.1
 09 04 2013  08 55  -21.0276 26033.5 -03429.2 -07.5040 26258.3
 09 04 2013  08 56  -21.0272 26033.5 -03429.3 -07.5041 26258.4
 09 04 2013  08 57  -21.0268 26033.6 -03429.4 -07.5044 26258.5
 09 04 2013  08 58  -21.0264 26033.8 -03429.6 -07.5047 26258.7
 09 04 2013  08 59  -21.0263 26034.0 -03429.8 -07.5050 26259.0
 09 04 2013  09 00  -21.0263 26033.9 -03429.9 -07.5053 26258.9
 09 04 2013  09 01  -21.0263 26033.9 -03430.0 -07.5055 26258.9
 09 04 2013  09 02  -21.0264 26034.1 -03430.1 -07.5056 26259.1
 09 04 2013  09 03  -21.0262 26034.1 -03430.0 -07.5056 26259.1
 09 04 2013  09 04  -21.0262 26033.9 -03429.9 -07.5052 26258.9
 09 04 2013  09 05  -21.0262 26034.0 -03429.8 -07.5052 26259.0
 09 04 2013  09 06  -21.0265 26033.9 -03429.8 -07.5052 26258.9
 09 04 2013  09 07  -21.0266 26034.0 -03429.9 -07.5052 26258.9
 09 04 2013  09 08  -21.0268 26034.0 -03429.9 -07.5052 26258.9
 09 04 2013  09 09  -21.0269 26033.8 -03429.8 -07.5051 26258.8
 09 04 2013  09 10  -21.0268 26033.8 -03429.7 -07.5050 26258.7
 09 04 2013  09 11  -21.0265 26033.8 -03429.6 -07.5048 26258.7
 09 04 2013  09 12  -21.0262 26033.6 -03429.6 -07.5047 26258.6
 09 04 2013  09 13  -21.0260 26033.6 -03429.5 -07.5047 26258.5
 09 04 2013  09 14  -21.0258 26033.4 -03429.5 -07.5046 26258.3
 09 04 2013  09 15  -21.0258 26033.2 -03429.5 -07.5047 26258.2
 09 04 2013  09 16  -21.0257 26033.3 -03429.6 -07.5049 26258.2
 09 04 2013  09 17  -21.0261 26033.2 -03429.7 -07.5051 26258.1
 09 04 2013  09 18  -21.0260 26033.3 -03429.8 -07.5053 26258.2
 09 04 2013  09 19  -21.0263 26033.4 -03429.8 -07.5054 26258.3
 09 04 2013  09 20  -21.0268 26033.5 -03429.9 -07.5055 26258.5
 09 04 2013  09 21  -21.0275 26033.8 -03430.1 -07.5058 26258.8
 09 04 2013  09 22  -21.0281 26033.9 -03430.2 -07.5060 26258.9
 09 04 2013  09 23  -21.0287 26034.0 -03430.2 -07.5060 26259.0
 09 04 2013  09 24  -21.0290 26034.2 -03430.3 -07.5060 26259.2
 09 04 2013  09 25  -21.0290 26034.2 -03430.2 -07.5059 26259.2
 09 04 2013  09 26  -21.0291 26034.1 -03430.1 -07.5057 26259.1
 09 04 2013  09 27  -21.0294 26034.3 -03430.2 -07.5058 26259.3
 09 04 2013  09 28  -21.0293 26034.2 -03430.1 -07.5056 26259.2
 09 04 2013  09 29  -21.0293 26034.1 -03430.0 -07.5055 26259.1
 09 04 2013  09 30  -21.0292 26034.1 -03429.9 -07.5053 26259.1
 09 04 2013  09 31  -21.0291 26034.5 -03430.1 -07.5055 26259.5
 09 04 2013  09 32  -21.0297 26034.8 -03430.2 -07.5058 26259.8
 09 04 2013  09 33  -21.0305 26034.8 -03430.4 -07.5061 26259.8
 09 04 2013  09 34  -21.0306 26035.3 -03430.6 -07.5065 26260.4
 09 04 2013  09 35  -21.0302 26036.0 -03430.9 -07.5068 26261.1
 09 04 2013  09 36  -21.0297 26036.4 -03431.0 -07.5069 26261.5
 09 04 2013  09 37  -21.0300 26036.9 -03431.1 -07.5071 26262.0
 09 04 2013  09 38  -21.0305 26037.3 -03431.2 -07.5072 26262.5
 09 04 2013  09 39  -21.0307 26038.1 -03431.5 -07.5076 26263.2
 09 04 2013  09 40  -21.0301 26038.6 -03431.5 -07.5075 26263.7
 09 04 2013  09 41  -21.0301 26038.9 -03431.4 -07.5072 26264.0
 09 04 2013  09 42  -21.0300 26039.2 -03431.3 -07.5069 26264.3
 09 04 2013  09 43  -21.0299 26039.3 -03431.2 -07.5066 26264.4
 09 04 2013  09 44  -21.0297 26039.4 -03430.9 -07.5060 26264.4
 09 04 2013  09 45  -21.0296 26039.4 -03430.8 -07.5056 26264.5
 09 04 2013  09 46  -21.0296 26039.5 -03430.6 -07.5052 26264.5
 09 04 2013  09 47  -21.0297 26039.5 -03430.5 -07.5049 26264.5
 09 04 2013  09 48  -21.0296 26039.6 -03430.4 -07.5047 26264.6
 09 04 2013  09 49  -21.0297 26039.8 -03430.4 -07.5047 26264.8
 09 04 2013  09 50  -21.0298 26039.9 -03430.3 -07.5046 26264.8
 09 04 2013  09 51  -21.0298 26040.0 -03430.3 -07.5045 26264.9
 09 04 2013  09 52  -21.0298 26040.1 -03430.3 -07.5045 26265.1
 09 04 2013  09 53  -21.0292 26040.3 -03430.3 -07.5044 26265.3
 09 04 2013  09 54  -21.0289 26040.5 -03430.3 -07.5043 26265.4
 09 04 2013  09 55  -21.0289 26040.7 -03430.3 -07.5043 26265.6
 09 04 2013  09 56  -21.0293 26040.8 -03430.4 -07.5044 26265.8
 09 04 2013  09 57  -21.0294 26041.0 -03430.4 -07.5043 26266.0
 09 04 2013  09 58  -21.0294 26041.2 -03430.4 -07.5042 26266.1
 09 04 2013  09 59  -21.0295 26041.4 -03430.3 -07.5041 26266.3
 09 04 2013  10 00  -21.0297 26041.4 -03430.2 -07.5039 26266.3
 09 04 2013  10 01  -21.0296 26041.5 -03430.1 -07.5037 26266.5
 09 04 2013  10 02  -21.0296 26041.7 -03430.0 -07.5034 26266.6
 09 04 2013  10 03  -21.0297 26041.6 -03429.9 -07.5031 26266.5
 09 04 2013  10 04  -21.0300 26041.5 -03429.7 -07.5028 26266.4
 09 04 2013  10 05  -21.0301 26041.5 -03429.7 -07.5027 26266.4
 09 04 2013  10 06  -21.0297 26041.6 -03429.7 -07.5026 26266.5
 09 04 2013  10 07  -21.0294 26041.8 -03429.6 -07.5025 26266.7
 09 04 2013  10 08  -21.0297 26041.9 -03429.6 -07.5024 26266.8
 09 04 2013  10 09  -21.0299 26042.0 -03429.6 -07.5024 26266.9
 09 04 2013  10 10  -21.0304 26041.9 -03429.5 -07.5021 26266.7
 09 04 2013  10 11  -21.0309 26042.1 -03429.4 -07.5020 26266.9
 09 04 2013  10 12  -21.0307 26042.3 -03429.3 -07.5017 26267.1
 09 04 2013  10 13  -21.0306 26042.0 -03429.1 -07.5013 26266.8
 09 04 2013  10 14  -21.0310 26041.7 -03428.9 -07.5010 26266.5
 09 04 2013  10 15  -21.0312 26041.8 -03428.9 -07.5009 26266.5
 09 04 2013  10 16  -21.0311 26042.0 -03428.9 -07.5009 26266.7
 09 04 2013  10 17  -21.0315 26042.2 -03429.0 -07.5010 26267.0
 09 04 2013  10 18  -21.0320 26042.1 -03429.0 -07.5011 26266.9
 09 04 2013  10 19  -21.0326 26042.4 -03429.2 -07.5013 26267.2
 09 04 2013  10 20  -21.0322 26042.9 -03429.3 -07.5015 26267.7
 09 04 2013  10 21  -21.0319 26043.3 -03429.4 -07.5015 26268.1
 09 04 2013  10 22  -21.0318 26043.5 -03429.5 -07.5016 26268.4
 09 04 2013  10 23  -21.0317 26043.7 -03429.5 -07.5017 26268.5
 09 04 2013  10 24  -21.0319 26043.9 -03429.6 -07.5018 26268.8
 09 04 2013  10 25  -21.0320 26044.4 -03429.7 -07.5019 26269.2
 09 04 2013  10 26  -21.0315 26044.9 -03429.8 -07.5019 26269.7
 09 04 2013  10 27  -21.0313 26045.3 -03429.8 -07.5019 26270.1
 09 04 2013  10 28  -21.0318 26045.6 -03429.9 -07.5019 26270.5
 09 04 2013  10 29  -21.0325 26045.9 -03430.0 -07.5020 26270.8
 09 04 2013  10 30  -21.0334 26046.4 -03430.1 -07.5022 26271.3
 09 04 2013  10 31  -21.0338 26047.0 -03430.3 -07.5024 26271.9
 09 04 2013  10 32  -21.0337 26047.5 -03430.3 -07.5022 26272.4
 09 04 2013  10 33  -21.0338 26047.9 -03430.3 -07.5022 26272.8
 09 04 2013  10 34  -21.0340 26048.4 -03430.3 -07.5022 26273.3
 09 04 2013  10 35  -21.0344 26049.1 -03430.5 -07.5022 26274.0
 09 04 2013  10 36  -21.0341 26049.9 -03430.6 -07.5023 26274.8
 09 04 2013  10 37  -21.0335 26050.4 -03430.6 -07.5020 26275.3
 09 04 2013  10 38  -21.0332 26050.9 -03430.5 -07.5019 26275.8
 09 04 2013  10 39  -21.0328 26051.3 -03430.5 -07.5017 26276.2
 09 04 2013  10 40  -21.0322 26051.8 -03430.4 -07.5013 26276.7
 09 04 2013  10 41  -21.0321 26052.3 -03430.4 -07.5012 26277.1
 09 04 2013  10 42  -21.0326 26052.6 -03430.3 -07.5009 26277.5
 09 04 2013  10 43  -21.0333 26053.0 -03430.3 -07.5007 26277.9
 09 04 2013  10 44  -21.0344 26053.6 -03430.3 -07.5006 26278.4
 09 04 2013  10 45  -21.0353 26053.7 -03430.2 -07.5003 26278.5
 09 04 2013  10 46  -21.0363 26054.1 -03430.1 -07.5001 26278.9
 09 04 2013  10 47  -21.0367 26054.6 -03430.1 -07.4998 26279.4
 09 04 2013  10 48  -21.0372 26055.0 -03430.0 -07.4995 26279.7
 09 04 2013  10 49  -21.0378 26055.1 -03429.8 -07.4990 26279.8
 09 04 2013  10 50  -21.0384 26055.3 -03429.6 -07.4986 26280.1
 09 04 2013  10 51  -21.0389 26055.5 -03429.5 -07.4983 26280.3
 09 04 2013  10 52  -21.0389 26056.0 -03429.4 -07.4979 26280.7
 09 04 2013  10 53  -21.0391 26056.3 -03429.2 -07.4975 26281.0
 09 04 2013  10 54  -21.0389 26056.5 -03429.0 -07.4969 26281.1
 09 04 2013  10 55  -21.0392 26056.7 -03428.8 -07.4965 26281.3
 09 04 2013  10 56  -21.0393 26056.8 -03428.7 -07.4962 26281.5
 09 04 2013  10 57  -21.0397 26056.9 -03428.6 -07.4960 26281.5
 09 04 2013  10 58  -21.0403 26057.3 -03428.6 -07.4959 26281.9
 09 04 2013  10 59  -21.0402 26057.6 -03428.6 -07.4957 26282.1
 09 04 2013  11 00  -21.0405 26057.6 -03428.4 -07.4954 26282.2
 09 04 2013  11 01  -21.0406 26057.8 -03428.3 -07.4951 26282.3
 09 04 2013  11 02  -21.0406 26057.9 -03428.2 -07.4949 26282.5
 09 04 2013  11 03  -21.0404 26058.1 -03428.2 -07.4947 26282.6
 09 04 2013  11 04  -21.0400 26058.3 -03428.1 -07.4945 26282.8
 09 04 2013  11 05  -21.0397 26058.6 -03428.1 -07.4944 26283.1
 09 04 2013  11 06  -21.0397 26058.9 -03428.1 -07.4944 26283.5
 09 04 2013  11 07  -21.0397 26059.4 -03428.2 -07.4944 26283.9
 09 04 2013  11 08  -21.0394 26059.9 -03428.2 -07.4943 26284.4
 09 04 2013  11 09  -21.0390 26060.2 -03428.2 -07.4941 26284.7
 09 04 2013  11 10  -21.0386 26060.5 -03428.2 -07.4940 26285.0
 09 04 2013  11 11  -21.0385 26060.9 -03428.2 -07.4939 26285.4
 09 04 2013  11 12  -21.0385 26061.4 -03428.2 -07.4939 26285.9
 09 04 2013  11 13  -21.0385 26061.9 -03428.3 -07.4939 26286.4
 09 04 2013  11 14  -21.0385 26062.5 -03428.3 -07.4938 26287.0
 09 04 2013  11 15  -21.0388 26063.0 -03428.4 -07.4938 26287.5
 09 04 2013  11 16  -21.0389 26063.5 -03428.5 -07.4938 26288.1
 09 04 2013  11 17  -21.0390 26064.1 -03428.5 -07.4938 26288.6
 09 04 2013  11 18  -21.0390 26064.7 -03428.6 -07.4937 26289.2
 09 04 2013  11 19  -21.0389 26065.2 -03428.6 -07.4937 26289.8
 09 04 2013  11 20  -21.0388 26065.8 -03428.7 -07.4935 26290.4
 09 04 2013  11 21  -21.0390 26066.4 -03428.6 -07.4934 26290.9
 09 04 2013  11 22  -21.0389 26067.1 -03428.7 -07.4933 26291.6
 09 04 2013  11 23  -21.0390 26067.7 -03428.7 -07.4931 26292.3
 09 04 2013  11 24  -21.0394 26068.3 -03428.7 -07.4929 26292.9
 09 04 2013  11 25  -21.0399 26068.9 -03428.6 -07.4926 26293.4
 09 04 2013  11 26  -21.0401 26069.6 -03428.6 -07.4924 26294.1
 09 04 2013  11 27  -21.0403 26070.2 -03428.6 -07.4922 26294.7
 09 04 2013  11 28  -21.0403 26070.6 -03428.4 -07.4917 26295.1
 09 04 2013  11 29  -21.0403 26071.3 -03428.4 -07.4914 26295.8
 09 04 2013  11 30  -21.0406 26071.8 -03428.3 -07.4910 26296.2
 09 04 2013  11 31  -21.0411 26072.5 -03428.2 -07.4907 26296.9
 09 04 2013  11 32  -21.0415 26073.0 -03428.1 -07.4902 26297.4
 09 04 2013  11 33  -21.0415 26073.3 -03427.8 -07.4896 26297.7
 09 04 2013  11 34  -21.0417 26073.7 -03427.6 -07.4891 26298.0
 09 04 2013  11 35  -21.0419 26074.3 -03427.6 -07.4888 26298.7
 09 04 2013  11 36  -21.0421 26075.0 -03427.5 -07.4884 26299.3
 09 04 2013  11 37  -21.0426 26075.7 -03427.5 -07.4882 26300.0
 09 04 2013  11 38  -21.0432 26076.5 -03427.5 -07.4880 26300.8
 09 04 2013  11 39  -21.0437 26077.1 -03427.4 -07.4875 26301.4
 09 04 2013  11 40  -21.0444 26077.7 -03427.2 -07.4870 26301.9
 09 04 2013  11 41  -21.0448 26078.4 -03427.1 -07.4866 26302.6
 09 04 2013  11 42  -21.0450 26079.1 -03427.0 -07.4862 26303.3
 09 04 2013  11 43  -21.0450 26079.8 -03426.8 -07.4856 26304.0
 09 04 2013  11 44  -21.0450 26080.6 -03426.7 -07.4851 26304.8
 09 04 2013  11 45  -21.0452 26081.3 -03426.5 -07.4846 26305.4
 09 04 2013  11 46  -21.0452 26081.6 -03426.2 -07.4838 26305.7
 09 04 2013  11 47  -21.0457 26081.9 -03426.0 -07.4832 26305.9
 09 04 2013  11 48  -21.0460 26082.4 -03425.8 -07.4827 26306.4
 09 04 2013  11 49  -21.0465 26082.8 -03425.6 -07.4822 26306.8
 09 04 2013  11 50  -21.0467 26082.9 -03425.3 -07.4815 26306.8
 09 04 2013  11 51  -21.0470 26083.0 -03425.0 -07.4808 26306.9
 09 04 2013  11 52  -21.0475 26083.2 -03424.8 -07.4802 26307.1
 09 04 2013  11 53  -21.0476 26083.5 -03424.5 -07.4796 26307.3
 09 04 2013  11 54  -21.0479 26083.9 -03424.4 -07.4793 26307.8
 09 04 2013  11 55  -21.0485 26084.2 -03424.2 -07.4788 26308.0
 09 04 2013  11 56  -21.0488 26084.5 -03424.1 -07.4783 26308.3
 09 04 2013  11 57  -21.0496 26084.5 -03423.8 -07.4777 26308.3
 09 04 2013  11 58  -21.0500 26084.6 -03423.6 -07.4772 26308.3
 09 04 2013  11 59  -21.0504 26084.9 -03423.4 -07.4768 26308.5
 09 04 2013  12 00  -21.0508 26085.0 -03423.2 -07.4762 26308.7
 09 04 2013  12 01  -21.0514 26085.2 -03423.0 -07.4758 26308.8
 09 04 2013  12 02  -21.0523 26085.3 -03422.9 -07.4756 26308.9
 09 04 2013  12 03  -21.0528 26085.6 -03422.8 -07.4752 26309.2
 09 04 2013  12 04  -21.0532 26086.0 -03422.6 -07.4748 26309.6
 09 04 2013  12 05  -21.0535 26086.4 -03422.5 -07.4744 26310.0
 09 04 2013  12 06  -21.0540 26086.7 -03422.3 -07.4738 26310.2
 09 04 2013  12 07  -21.0545 26087.1 -03422.1 -07.4733 26310.6
 09 04 2013  12 08  -21.0548 26087.5 -03421.9 -07.4728 26310.9
 09 04 2013  12 09  -21.0551 26087.9 -03421.7 -07.4723 26311.3
 09 04 2013  12 10  -21.0554 26088.2 -03421.5 -07.4717 26311.6
 09 04 2013  12 11  -21.0558 26088.7 -03421.4 -07.4713 26312.1
 09 04 2013  12 12  -21.0561 26089.1 -03421.2 -07.4708 26312.5
 09 04 2013  12 13  -21.0564 26089.5 -03421.0 -07.4702 26312.9
 09 04 2013  12 14  -21.0566 26090.0 -03420.7 -07.4696 26313.3
 09 04 2013  12 15  -21.0569 26090.5 -03420.6 -07.4691 26313.8
 09 04 2013  12 16  -21.0572 26090.9 -03420.3 -07.4684 26314.1
 09 04 2013  12 17  -21.0576 26091.2 -03420.0 -07.4677 26314.4
 09 04 2013  12 18  -21.0581 26091.5 -03419.8 -07.4671 26314.6
 09 04 2013  12 19  -21.0586 26091.8 -03419.5 -07.4664 26315.0
 09 04 2013  12 20  -21.0590 26092.3 -03419.3 -07.4658 26315.3
 09 04 2013  12 21  -21.0593 26092.6 -03419.0 -07.4651 26315.7
 09 04 2013  12 22  -21.0598 26093.0 -03418.7 -07.4644 26316.0
 09 04 2013  12 23  -21.0603 26093.5 -03418.5 -07.4638 26316.5
 09 04 2013  12 24  -21.0607 26093.9 -03418.3 -07.4631 26316.9
 09 04 2013  12 25  -21.0611 26094.2 -03418.0 -07.4624 26317.1
 09 04 2013  12 26  -21.0614 26094.6 -03417.7 -07.4617 26317.4
 09 04 2013  12 27  -21.0618 26094.9 -03417.4 -07.4610 26317.8
 09 04 2013  12 28  -21.0621 26095.3 -03417.2 -07.4604 26318.1
 09 04 2013  12 29  -21.0623 26095.7 -03416.9 -07.4597 26318.5
 09 04 2013  12 30  -21.0626 26096.2 -03416.7 -07.4591 26319.0
 09 04 2013  12 31  -21.0629 26096.8 -03416.5 -07.4586 26319.5
 09 04 2013  12 32  -21.0628 26097.4 -03416.2 -07.4578 26320.0
 09 04 2013  12 33  -21.0628 26097.7 -03415.9 -07.4571 26320.3
 09 04 2013  12 34  -21.0629 26098.0 -03415.7 -07.4564 26320.6
 09 04 2013  12 35  -21.0633 26098.5 -03415.5 -07.4558 26321.1
 09 04 2013  12 36  -21.0637 26099.0 -03415.3 -07.4552 26321.5
 09 04 2013  12 37  -21.0638 26099.6 -03415.1 -07.4546 26322.1
 09 04 2013  12 38  -21.0638 26100.1 -03414.8 -07.4540 26322.6
 09 04 2013  12 39  -21.0639 26100.5 -03414.6 -07.4533 26322.9
 09 04 2013  12 40  -21.0640 26101.0 -03414.4 -07.4528 26323.4
 09 04 2013  12 41  -21.0642 26101.4 -03414.1 -07.4521 26323.8
 09 04 2013  12 42  -21.0643 26101.7 -03413.8 -07.4514 26324.0
 09 04 2013  12 43  -21.0643 26102.1 -03413.6 -07.4508 26324.4
 09 04 2013  12 44  -21.0644 26102.5 -03413.4 -07.4502 26324.8
 09 04 2013  12 45  -21.0644 26102.8 -03413.1 -07.4495 26325.0
 09 04 2013  12 46  -21.0643 26102.9 -03412.8 -07.4488 26325.0
 09 04 2013  12 47  -21.0645 26103.0 -03412.5 -07.4482 26325.1
 09 04 2013  12 48  -21.0646 26103.2 -03412.3 -07.4476 26325.3
 09 04 2013  12 49  -21.0646 26103.4 -03412.1 -07.4472 26325.5
 09 04 2013  12 50  -21.0647 26103.5 -03411.9 -07.4466 26325.6
 09 04 2013  12 51  -21.0647 26103.7 -03411.6 -07.4461 26325.7
 09 04 2013  12 52  -21.0648 26103.7 -03411.4 -07.4456 26325.7
 09 04 2013  12 53  -21.0648 26103.7 -03411.2 -07.4451 26325.6
 09 04 2013  12 54  -21.0648 26103.9 -03411.0 -07.4447 26325.8
 09 04 2013  12 55  -21.0649 26104.0 -03410.9 -07.4443 26325.9
 09 04 2013  12 56  -21.0652 26104.3 -03410.7 -07.4440 26326.2
 09 04 2013  12 57  -21.0655 26104.6 -03410.6 -07.4436 26326.4
 09 04 2013  12 58  -21.0658 26104.7 -03410.4 -07.4432 26326.5
 09 04 2013  12 59  -21.0659 26104.8 -03410.2 -07.4427 26326.6
 09 04 2013  13 00  -21.0660 26104.9 -03410.1 -07.4423 26326.7
 09 04 2013  13 01  -21.0662 26105.1 -03409.9 -07.4420 26326.9
 09 04 2013  13 02  -21.0662 26105.4 -03409.8 -07.4417 26327.1
 09 04 2013  13 03  -21.0661 26105.6 -03409.7 -07.4414 26327.3
 09 04 2013  13 04  -21.0660 26105.8 -03409.5 -07.4410 26327.5
 09 04 2013  13 05  -21.0658 26106.1 -03409.4 -07.4406 26327.8
 09 04 2013  13 06  -21.0655 26106.3 -03409.3 -07.4402 26328.0
 09 04 2013  13 07  -21.0652 26106.6 -03409.1 -07.4399 26328.2
 09 04 2013  13 08  -21.0649 26106.8 -03409.0 -07.4395 26328.4
 09 04 2013  13 09  -21.0647 26107.1 -03408.9 -07.4391 26328.7
 09 04 2013  13 10  -21.0644 26107.3 -03408.7 -07.4387 26328.9
 09 04 2013  13 11  -21.0640 26107.5 -03408.5 -07.4382 26329.0
 09 04 2013  13 12  -21.0636 26107.7 -03408.3 -07.4378 26329.3
 09 04 2013  13 13  -21.0633 26108.1 -03408.2 -07.4374 26329.6
 09 04 2013  13 14  -21.0629 26108.2 -03408.0 -07.4369 26329.7
 09 04 2013  13 15  -21.0626 26108.4 -03407.8 -07.4365 26329.8
 09 04 2013  13 16  -21.0623 26108.6 -03407.7 -07.4361 26330.0
 09 04 2013  13 17  -21.0618 26108.9 -03407.5 -07.4358 26330.3
 09 04 2013  13 18  -21.0614 26109.2 -03407.4 -07.4354 26330.6
 09 04 2013  13 19  -21.0612 26109.4 -03407.2 -07.4349 26330.7
 09 04 2013  13 20  -21.0606 26109.6 -03407.0 -07.4344 26330.9
 09 04 2013  13 21  -21.0599 26109.6 -03406.8 -07.4339 26330.9
 09 04 2013  13 22  -21.0591 26109.6 -03406.6 -07.4335 26330.9
 09 04 2013  13 23  -21.0582 26109.7 -03406.4 -07.4331 26331.0
 09 04 2013  13 24  -21.0574 26109.8 -03406.3 -07.4328 26331.0
 09 04 2013  13 25  -21.0565 26109.8 -03406.2 -07.4326 26331.1
 09 04 2013  13 26  -21.0557 26110.0 -03406.1 -07.4324 26331.2
 09 04 2013  13 27  -21.0550 26110.3 -03406.1 -07.4323 26331.5
 09 04 2013  13 28  -21.0543 26110.4 -03406.0 -07.4321 26331.6
 09 04 2013  13 29  -21.0538 26110.7 -03406.0 -07.4320 26331.9
 09 04 2013  13 30  -21.0532 26110.9 -03406.0 -07.4318 26332.1
 09 04 2013  13 31  -21.0526 26111.3 -03406.0 -07.4317 26332.5
 09 04 2013  13 32  -21.0520 26111.4 -03405.9 -07.4315 26332.6
 09 04 2013  13 33  -21.0514 26111.7 -03405.8 -07.4313 26332.9
 09 04 2013  13 34  -21.0505 26112.0 -03405.8 -07.4311 26333.2
 09 04 2013  13 35  -21.0494 26112.2 -03405.7 -07.4308 26333.4
 09 04 2013  13 36  -21.0483 26112.5 -03405.6 -07.4305 26333.6
 09 04 2013  13 37  -21.0473 26112.7 -03405.6 -07.4304 26333.9
 09 04 2013  13 38  -21.0463 26113.1 -03405.6 -07.4304 26334.2
 09 04 2013  13 39  -21.0454 26113.3 -03405.6 -07.4303 26334.4
 09 04 2013  13 40  -21.0446 26113.4 -03405.5 -07.4302 26334.5
 09 04 2013  13 41  -21.0438 26113.4 -03405.5 -07.4301 26334.5
 09 04 2013  13 42  -21.0430 26113.4 -03405.5 -07.4301 26334.6
 09 04 2013  13 43  -21.0424 26113.4 -03405.5 -07.4301 26334.6
 09 04 2013  13 44  -21.0417 26113.4 -03405.5 -07.4302 26334.5
 09 04 2013  13 45  -21.0411 26113.3 -03405.5 -07.4302 26334.4
 09 04 2013  13 46  -21.0403 26113.1 -03405.5 -07.4302 26334.2
 09 04 2013  13 47  -21.0396 26112.9 -03405.5 -07.4302 26334.0
 09 04 2013  13 48  -21.0389 26112.7 -03405.5 -07.4303 26333.9
 09 04 2013  13 49  -21.0383 26112.7 -03405.6 -07.4305 26333.9
 09 04 2013  13 50  -21.0378 26112.6 -03405.7 -07.4308 26333.8
 09 04 2013  13 51  -21.0371 26112.4 -03405.7 -07.4309 26333.6
 09 04 2013  13 52  -21.0366 26112.4 -03405.9 -07.4312 26333.6
 09 04 2013  13 53  -21.0360 26112.4 -03406.0 -07.4315 26333.6
 09 04 2013  13 54  -21.0355 26112.4 -03406.1 -07.4317 26333.6
 09 04 2013  13 55  -21.0350 26112.3 -03406.2 -07.4320 26333.5
 09 04 2013  13 56  -21.0346 26112.1 -03406.3 -07.4322 26333.3
 09 04 2013  13 57  -21.0341 26112.0 -03406.5 -07.4326 26333.3
 09 04 2013  13 58  -21.0339 26112.2 -03406.7 -07.4331 26333.5
 09 04 2013  13 59  -21.0338 26112.4 -03406.9 -07.4335 26333.7
 09 04 2013  14 00  -21.0337 26112.4 -03407.0 -07.4337 26333.8
 09 04 2013  14 01  -21.0337 26112.5 -03407.2 -07.4339 26333.8
 09 04 2013  14 02  -21.0337 26112.4 -03407.2 -07.4341 26333.7
 09 04 2013  14 03  -21.0338 26112.3 -03407.3 -07.4343 26333.7
 09 04 2013  14 04  -21.0339 26112.3 -03407.4 -07.4345 26333.6
 09 04 2013  14 05  -21.0340 26112.2 -03407.5 -07.4347 26333.6
 09 04 2013  14 06  -21.0341 26112.1 -03407.5 -07.4348 26333.5
 09 04 2013  14 07  -21.0343 26112.0 -03407.6 -07.4350 26333.4
 09 04 2013  14 08  -21.0344 26112.0 -03407.7 -07.4352 26333.4
 09 04 2013  14 09  -21.0346 26111.8 -03407.7 -07.4353 26333.2
 09 04 2013  14 10  -21.0349 26111.7 -03407.7 -07.4354 26333.1
 09 04 2013  14 11  -21.0351 26111.6 -03407.8 -07.4355 26333.0
 09 04 2013  14 12  -21.0353 26111.4 -03407.8 -07.4356 26332.9
 09 04 2013  14 13  -21.0354 26111.3 -03407.8 -07.4357 26332.8
 09 04 2013  14 14  -21.0354 26111.1 -03407.8 -07.4358 26332.6
 09 04 2013  14 15  -21.0352 26110.9 -03407.8 -07.4358 26332.3
 09 04 2013  14 16  -21.0349 26110.6 -03407.8 -07.4358 26332.1
 09 04 2013  14 17  -21.0349 26110.5 -03407.9 -07.4361 26332.0
 09 04 2013  14 18  -21.0348 26110.4 -03408.0 -07.4363 26331.9
 09 04 2013  14 19  -21.0346 26110.2 -03408.0 -07.4364 26331.7
 09 04 2013  14 20  -21.0344 26110.1 -03408.1 -07.4366 26331.6
 09 04 2013  14 21  -21.0341 26110.0 -03408.2 -07.4368 26331.5
 09 04 2013  14 22  -21.0337 26109.9 -03408.2 -07.4370 26331.4
 09 04 2013  14 23  -21.0333 26109.8 -03408.4 -07.4373 26331.4
 09 04 2013  14 24  -21.0330 26109.8 -03408.5 -07.4377 26331.4
 09 04 2013  14 25  -21.0328 26109.8 -03408.7 -07.4381 26331.4
 09 04 2013  14 26  -21.0329 26109.9 -03408.9 -07.4385 26331.5
 09 04 2013  14 27  -21.0332 26110.2 -03409.1 -07.4389 26331.8
 09 04 2013  14 28  -21.0336 26110.4 -03409.3 -07.4392 26332.0
 09 04 2013  14 29  -21.0337 26110.2 -03409.2 -07.4390 26331.8
 09 04 2013  14 30  -21.0337 26109.9 -03409.2 -07.4390 26331.5
 09 04 2013  14 31  -21.0338 26109.6 -03409.2 -07.4391 26331.3
 09 04 2013  14 32  -21.0336 26109.3 -03409.1 -07.4391 26330.9
 09 04 2013  14 33  -21.0336 26109.0 -03409.2 -07.4392 26330.6
 09 04 2013  14 34  -21.0335 26108.8 -03409.2 -07.4394 26330.4
 09 04 2013  14 35  -21.0335 26108.3 -03409.2 -07.4395 26330.0
 09 04 2013  14 36  -21.0335 26108.0 -03409.2 -07.4396 26329.6
 09 04 2013  14 37  -21.0333 26107.5 -03409.2 -07.4398 26329.2
 09 04 2013  14 38  -21.0330 26107.3 -03409.3 -07.4401 26329.0
 09 04 2013  14 39  -21.0328 26106.8 -03409.3 -07.4402 26328.5
 09 04 2013  14 40  -21.0327 26106.8 -03409.6 -07.4408 26328.5
 09 04 2013  14 41  -21.0328 26106.7 -03409.8 -07.4412 26328.4
 09 04 2013  14 42  -21.0330 26106.7 -03410.0 -07.4417 26328.4
 09 04 2013  14 43  -21.0331 26106.6 -03410.2 -07.4421 26328.4
 09 04 2013  14 44  -21.0331 26106.5 -03410.3 -07.4424 26328.3
 09 04 2013  14 45  -21.0334 26106.7 -03410.5 -07.4429 26328.6
 09 04 2013  14 46  -21.0336 26106.9 -03410.7 -07.4432 26328.8
 09 04 2013  14 47  -21.0334 26107.0 -03410.8 -07.4433 26328.9
 09 04 2013  14 48  -21.0334 26107.2 -03410.9 -07.4436 26329.0
 09 04 2013  14 49  -21.0335 26107.4 -03411.2 -07.4440 26329.3
 09 04 2013  14 50  -21.0337 26108.0 -03411.5 -07.4446 26329.9
 09 04 2013  14 51  -21.0345 26109.1 -03412.0 -07.4453 26331.1
 09 04 2013  14 52  -21.0354 26109.4 -03412.0 -07.4453 26331.4
 09 04 2013  14 53  -21.0360 26108.5 -03411.5 -07.4443 26330.5
 09 04 2013  14 54  -21.0355 26107.4 -03410.9 -07.4435 26329.3
 09 04 2013  14 55  -21.0356 26106.9 -03410.9 -07.4435 26328.8
 09 04 2013  14 56  -21.0360 26106.1 -03410.7 -07.4433 26328.0
 09 04 2013  14 57  -21.0361 26105.4 -03410.6 -07.4433 26327.2
 09 04 2013  14 58  -21.0366 26104.5 -03410.5 -07.4433 26326.3
 09 04 2013  14 59  -21.0367 26103.7 -03410.5 -07.4437 26325.6
 09 04 2013  15 00  -21.0371 26103.4 -03410.8 -07.4443 26325.3
 09 04 2013  15 01  -21.0376 26103.2 -03411.1 -07.4450 26325.1
 09 04 2013  15 02  -21.0382 26103.1 -03411.4 -07.4457 26325.0
 09 04 2013  15 03  -21.0389 26103.1 -03411.7 -07.4463 26325.1
 09 04 2013  15 04  -21.0395 26103.1 -03411.9 -07.4468 26325.1
 09 04 2013  15 05  -21.0399 26102.6 -03411.9 -07.4469 26324.6
 09 04 2013  15 06  -21.0400 26101.9 -03411.8 -07.4469 26324.0
 09 04 2013  15 07  -21.0403 26101.7 -03411.9 -07.4473 26323.8
 09 04 2013  15 08  -21.0405 26101.3 -03412.0 -07.4475 26323.3
 09 04 2013  15 09  -21.0405 26100.5 -03411.9 -07.4477 26322.5
 09 04 2013  15 10  -21.0408 26100.1 -03412.1 -07.4481 26322.2
 09 04 2013  15 11  -21.0412 26099.8 -03412.3 -07.4486 26321.9
 09 04 2013  15 12  -21.0416 26099.5 -03412.5 -07.4491 26321.6
 09 04 2013  15 13  -21.0422 26099.0 -03412.6 -07.4495 26321.2
 09 04 2013  15 14  -21.0426 26098.3 -03412.6 -07.4497 26320.5
 09 04 2013  15 15  -21.0431 26098.5 -03413.0 -07.4505 26320.7
 09 04 2013  15 16  -21.0437 26097.7 -03412.9 -07.4506 26319.9
 09 04 2013  15 17  -21.0439 26097.2 -03413.0 -07.4509 26319.5
 09 04 2013  15 18  -21.0447 26097.1 -03413.3 -07.4516 26319.3
 09 04 2013  15 19  -21.0456 26097.2 -03413.7 -07.4524 26319.5
 09 04 2013  15 20  -21.0465 26097.2 -03413.9 -07.4529 26319.5
 09 04 2013  15 21  -21.0470 26096.8 -03414.0 -07.4531 26319.1
 09 04 2013  15 22  -21.0475 26096.5 -03414.1 -07.4534 26318.9
 09 04 2013  15 23  -21.0480 26096.3 -03414.3 -07.4540 26318.7
 09 04 2013  15 24  -21.0488 26096.3 -03414.6 -07.4546 26318.8
 09 04 2013  15 25  -21.0495 26096.2 -03414.8 -07.4549 26318.7
 09 04 2013  15 26  -21.0500 26095.9 -03414.8 -07.4551 26318.4
 09 04 2013  15 27  -21.0505 26095.5 -03414.8 -07.4552 26318.0
 09 04 2013  15 28  -21.0512 26095.1 -03414.8 -07.4554 26317.6
 09 04 2013  15 29  -21.0517 26094.5 -03414.8 -07.4555 26317.0
 09 04 2013  15 30  -21.0525 26094.1 -03415.0 -07.4560 26316.6
 09 04 2013  15 31  -21.0534 26094.0 -03415.2 -07.4565 26316.5
 09 04 2013  15 32  -21.0543 26094.0 -03415.4 -07.4570 26316.6
 09 04 2013  15 33  -21.0552 26093.8 -03415.5 -07.4573 26316.4
 09 04 2013  15 34  -21.0557 26093.4 -03415.5 -07.4574 26316.0
 09 04 2013  15 35  -21.0567 26093.5 -03415.8 -07.4580 26316.2
 09 04 2013  15 36  -21.0582 26093.8 -03416.1 -07.4585 26316.5
 09 04 2013  15 37  -21.0591 26093.5 -03416.0 -07.4583 26316.1
 09 04 2013  15 38  -21.0596 26092.6 -03415.6 -07.4579 26315.2
 09 04 2013  15 39  -21.0602 26091.8 -03415.5 -07.4578 26314.5
 09 04 2013  15 40  -21.0610 26091.7 -03415.7 -07.4582 26314.3
 09 04 2013  15 41  -21.0619 26091.4 -03415.8 -07.4584 26314.1
 09 04 2013  15 42  -21.0627 26091.1 -03415.7 -07.4584 26313.7
 09 04 2013  15 43  -21.0634 26090.4 -03415.6 -07.4583 26313.1
 09 04 2013  15 44  -21.0639 26089.7 -03415.4 -07.4582 26312.3
 09 04 2013  15 45  -21.0645 26089.2 -03415.4 -07.4583 26311.8
 09 04 2013  15 46  -21.0652 26088.7 -03415.4 -07.4585 26311.4
 09 04 2013  15 47  -21.0658 26088.2 -03415.4 -07.4586 26310.8
 09 04 2013  15 48  -21.0664 26087.8 -03415.5 -07.4589 26310.4
 09 04 2013  15 49  -21.0672 26087.5 -03415.6 -07.4591 26310.1
 09 04 2013  15 50  -21.0678 26087.1 -03415.6 -07.4593 26309.8
 09 04 2013  15 51  -21.0683 26086.7 -03415.6 -07.4595 26309.4
 09 04 2013  15 52  -21.0687 26086.6 -03415.8 -07.4599 26309.3
 09 04 2013  15 53  -21.0695 26086.8 -03416.0 -07.4604 26309.5
 09 04 2013  15 54  -21.0699 26086.8 -03416.1 -07.4606 26309.5
 09 04 2013  15 55  -21.0703 26086.6 -03416.1 -07.4607 26309.3
 09 04 2013  15 56  -21.0708 26086.4 -03416.2 -07.4608 26309.1
 09 04 2013  15 57  -21.0713 26086.7 -03416.4 -07.4611 26309.4
 09 04 2013  15 58  -21.0719 26086.5 -03416.4 -07.4611 26309.3
 09 04 2013  15 59  -21.0722 26086.3 -03416.3 -07.4611 26309.1
 09 04 2013  16 00  -21.0724 26086.2 -03416.3 -07.4611 26308.9
 09 04 2013  16 01  -21.0728 26086.0 -03416.3 -07.4611 26308.8
 09 04 2013  16 02  -21.0730 26085.7 -03416.2 -07.4610 26308.4
 09 04 2013  16 03  -21.0731 26085.4 -03416.2 -07.4610 26308.1
 09 04 2013  16 04  -21.0736 26085.4 -03416.2 -07.4612 26308.1
 09 04 2013  16 05  -21.0742 26085.2 -03416.2 -07.4612 26308.0
 09 04 2013  16 06  -21.0751 26085.1 -03416.1 -07.4610 26307.8
 09 04 2013  16 07  -21.0753 26084.5 -03415.8 -07.4604 26307.2
 09 04 2013  16 08  -21.0754 26084.0 -03415.5 -07.4601 26306.6
 09 04 2013  16 09  -21.0757 26083.6 -03415.5 -07.4601 26306.3
 09 04 2013  16 10  -21.0758 26083.3 -03415.4 -07.4600 26305.9
 09 04 2013  16 11  -21.0764 26083.0 -03415.3 -07.4599 26305.7
 09 04 2013  16 12  -21.0767 26082.5 -03415.1 -07.4595 26305.1
 09 04 2013  16 13  -21.0770 26082.3 -03415.2 -07.4597 26305.0
 09 04 2013  16 14  -21.0776 26082.4 -03415.3 -07.4599 26305.0
 09 04 2013  16 15  -21.0780 26082.1 -03415.1 -07.4597 26304.8
 09 04 2013  16 16  -21.0785 26081.9 -03415.0 -07.4594 26304.5
 09 04 2013  16 17  -21.0791 26081.9 -03414.9 -07.4594 26304.5
 09 04 2013  16 18  -21.0798 26082.0 -03415.0 -07.4594 26304.6
 09 04 2013  16 19  -21.0804 26081.7 -03414.8 -07.4590 26304.3
 09 04 2013  16 20  -21.0809 26081.2 -03414.5 -07.4587 26303.8
 09 04 2013  16 21  -21.0813 26080.8 -03414.4 -07.4584 26303.3
 09 04 2013  16 22  -21.0818 26080.5 -03414.3 -07.4583 26303.0
 09 04 2013  16 23  -21.0821 26080.2 -03414.2 -07.4582 26302.7
 09 04 2013  16 24  -21.0824 26080.2 -03414.2 -07.4583 26302.8
 09 04 2013  16 25  -21.0829 26080.5 -03414.3 -07.4584 26303.1
 09 04 2013  16 26  -21.0833 26080.5 -03414.2 -07.4581 26303.1
 09 04 2013  16 27  -21.0836 26080.3 -03413.9 -07.4577 26302.8
 09 04 2013  16 28  -21.0840 26080.1 -03413.8 -07.4573 26302.5
 09 04 2013  16 29  -21.0844 26080.0 -03413.6 -07.4571 26302.4
 09 04 2013  16 30  -21.0849 26079.3 -03413.3 -07.4566 26301.7
 09 04 2013  16 31  -21.0850 26078.5 -03412.9 -07.4560 26300.9
 09 04 2013  16 32  -21.0854 26078.6 -03413.0 -07.4561 26301.0
 09 04 2013  16 33  -21.0858 26078.8 -03413.0 -07.4561 26301.2
 09 04 2013  16 34  -21.0860 26078.5 -03412.8 -07.4557 26300.9
 09 04 2013  16 35  -21.0862 26078.1 -03412.5 -07.4552 26300.4
 09 04 2013  16 36  -21.0864 26077.9 -03412.4 -07.4550 26300.2
 09 04 2013  16 37  -21.0865 26077.7 -03412.3 -07.4548 26300.0
 09 04 2013  16 38  -21.0866 26077.3 -03412.1 -07.4545 26299.5
 09 04 2013  16 39  -21.0864 26076.5 -03411.7 -07.4540 26298.8
 09 04 2013  16 40  -21.0867 26076.3 -03411.7 -07.4539 26298.5
 09 04 2013  16 41  -21.0868 26076.1 -03411.6 -07.4539 26298.3
 09 04 2013  16 42  -21.0866 26075.5 -03411.4 -07.4536 26297.7
 09 04 2013  16 43  -21.0870 26075.2 -03411.4 -07.4536 26297.4
 09 04 2013  16 44  -21.0873 26074.6 -03411.1 -07.4532 26296.7
 09 04 2013  16 45  -21.0875 26074.2 -03411.0 -07.4530 26296.4
 09 04 2013  16 46  -21.0877 26073.9 -03410.8 -07.4528 26296.0
 09 04 2013  16 47  -21.0874 26073.7 -03410.9 -07.4529 26295.8
 09 04 2013  16 48  -21.0873 26073.5 -03410.9 -07.4530 26295.7
 09 04 2013  16 49  -21.0872 26072.8 -03410.7 -07.4528 26295.0
 09 04 2013  16 50  -21.0872 26072.4 -03410.6 -07.4527 26294.5
 09 04 2013  16 51  -21.0873 26072.7 -03410.7 -07.4529 26294.8
 09 04 2013  16 52  -21.0873 26072.8 -03410.8 -07.4530 26295.0
 09 04 2013  16 53  -21.0870 26072.3 -03410.6 -07.4527 26294.5
 09 04 2013  16 54  -21.0864 26072.0 -03410.4 -07.4523 26294.1
 09 04 2013  16 55  -21.0862 26071.7 -03410.3 -07.4521 26293.8
 09 04 2013  16 56  -21.0858 26070.7 -03409.9 -07.4517 26292.8
 09 04 2013  16 57  -21.0855 26070.1 -03409.8 -07.4515 26292.1
 09 04 2013  16 58  -21.0854 26069.9 -03409.8 -07.4517 26292.0
 09 04 2013  16 59  -21.0853 26070.0 -03409.9 -07.4519 26292.0
 09 04 2013  17 00  -21.0853 26069.8 -03409.9 -07.4518 26291.9
 09 04 2013  17 01  -21.0851 26069.5 -03409.8 -07.4517 26291.5
 09 04 2013  17 02  -21.0846 26069.0 -03409.6 -07.4515 26291.0
 09 04 2013  17 03  -21.0844 26068.6 -03409.5 -07.4514 26290.6
 09 04 2013  17 04  -21.0842 26068.0 -03409.3 -07.4512 26290.0
 09 04 2013  17 05  -21.0838 26067.2 -03409.1 -07.4508 26289.2
 09 04 2013  17 06  -21.0831 26066.8 -03409.0 -07.4509 26288.8
 09 04 2013  17 07  -21.0827 26066.9 -03409.2 -07.4513 26288.9
 09 04 2013  17 08  -21.0822 26066.6 -03409.1 -07.4512 26288.6
 09 04 2013  17 09  -21.0816 26066.3 -03409.0 -07.4510 26288.2
 09 04 2013  17 10  -21.0811 26066.0 -03408.9 -07.4508 26288.0
 09 04 2013  17 11  -21.0803 26065.6 -03408.7 -07.4506 26287.6
 09 04 2013  17 12  -21.0795 26065.0 -03408.5 -07.4502 26286.9
 09 04 2013  17 13  -21.0786 26064.4 -03408.3 -07.4501 26286.3
 09 04 2013  17 14  -21.0775 26064.0 -03408.3 -07.4500 26285.9
 09 04 2013  17 15  -21.0767 26063.6 -03408.3 -07.4501 26285.5
 09 04 2013  17 16  -21.0758 26063.2 -03408.2 -07.4500 26285.1
 09 04 2013  17 17  -21.0749 26062.8 -03408.1 -07.4501 26284.7
 09 04 2013  17 18  -21.0742 26062.5 -03408.2 -07.4502 26284.4
 09 04 2013  17 19  -21.0735 26062.4 -03408.2 -07.4504 26284.3
 09 04 2013  17 20  -21.0725 26062.2 -03408.3 -07.4505 26284.1
 09 04 2013  17 21  -21.0718 26062.0 -03408.3 -07.4507 26283.9
 09 04 2013  17 22  -21.0709 26061.7 -03408.3 -07.4508 26283.6
 09 04 2013  17 23  -21.0700 26061.4 -03408.4 -07.4510 26283.4
 09 04 2013  17 24  -21.0692 26061.2 -03408.5 -07.4512 26283.2
 09 04 2013  17 25  -21.0685 26060.8 -03408.4 -07.4513 26282.8
 09 04 2013  17 26  -21.0677 26060.4 -03408.4 -07.4514 26282.3
 09 04 2013  17 27  -21.0670 26059.9 -03408.4 -07.4515 26281.9
 09 04 2013  17 28  -21.0664 26059.5 -03408.4 -07.4517 26281.4
 09 04 2013  17 29  -21.0657 26059.1 -03408.5 -07.4520 26281.1
 09 04 2013  17 30  -21.0652 26058.8 -03408.6 -07.4522 26280.8
 09 04 2013  17 31  -21.0646 26058.7 -03408.8 -07.4526 26280.7
 09 04 2013  17 32  -21.0640 26058.5 -03408.8 -07.4528 26280.6
 09 04 2013  17 33  -21.0634 26058.3 -03408.9 -07.4529 26280.3
 09 04 2013  17 34  -21.0629 26058.1 -03408.9 -07.4530 26280.1
 09 04 2013  17 35  -21.0622 26057.9 -03408.9 -07.4532 26280.0
 09 04 2013  17 36  -21.0617 26057.8 -03409.0 -07.4533 26279.8
 09 04 2013  17 37  -21.0612 26057.7 -03409.1 -07.4536 26279.7
 09 04 2013  17 38  -21.0606 26057.5 -03409.1 -07.4536 26279.6
 09 04 2013  17 39  -21.0600 26057.3 -03409.1 -07.4537 26279.3
 09 04 2013  17 40  -21.0592 26057.1 -03409.1 -07.4538 26279.1
 09 04 2013  17 41  -21.0586 26056.9 -03409.2 -07.4539 26278.9
 09 04 2013  17 42  -21.0579 26056.7 -03409.2 -07.4540 26278.8
 09 04 2013  17 43  -21.0572 26056.6 -03409.2 -07.4542 26278.6
 09 04 2013  17 44  -21.0564 26056.2 -03409.2 -07.4542 26278.3
 09 04 2013  17 45  -21.0556 26056.0 -03409.2 -07.4543 26278.1
 09 04 2013  17 46  -21.0549 26055.8 -03409.2 -07.4544 26277.9
 09 04 2013  17 47  -21.0541 26055.5 -03409.3 -07.4546 26277.6
 09 04 2013  17 48  -21.0532 26055.2 -03409.3 -07.4547 26277.3
 09 04 2013  17 49  -21.0524 26054.9 -03409.3 -07.4549 26277.0
 09 04 2013  17 50  -21.0515 26054.6 -03409.4 -07.4551 26276.7
 09 04 2013  17 51  -21.0507 26054.3 -03409.5 -07.4553 26276.4
 09 04 2013  17 52  -21.0500 26054.2 -03409.6 -07.4558 26276.3
 09 04 2013  17 53  -21.0494 26054.0 -03409.8 -07.4561 26276.1
 09 04 2013  17 54  -21.0487 26053.9 -03409.9 -07.4565 26276.1
 09 04 2013  17 55  -21.0479 26053.8 -03410.1 -07.4569 26276.1
 09 04 2013  17 56  -21.0472 26053.5 -03410.2 -07.4572 26275.8
 09 04 2013  17 57  -21.0465 26053.3 -03410.3 -07.4574 26275.5
 09 04 2013  17 58  -21.0461 26053.2 -03410.5 -07.4579 26275.5
 09 04 2013  17 59  -21.0455 26053.0 -03410.6 -07.4581 26275.3
 09 04 2013  18 00  -21.0447 26052.5 -03410.6 -07.4583 26274.8
 09 04 2013  18 01  -21.0441 26052.2 -03410.7 -07.4586 26274.5
 09 04 2013  18 02  -21.0437 26051.8 -03410.8 -07.4589 26274.1
 09 04 2013  18 03  -21.0430 26051.4 -03410.9 -07.4592 26273.7
 09 04 2013  18 04  -21.0424 26051.0 -03410.9 -07.4595 26273.3
 09 04 2013  18 05  -21.0417 26050.4 -03410.9 -07.4596 26272.7
 09 04 2013  18 06  -21.0410 26050.0 -03411.1 -07.4601 26272.4
 09 04 2013  18 07  -21.0405 26050.0 -03411.5 -07.4609 26272.4
 09 04 2013  18 08  -21.0399 26049.9 -03411.8 -07.4616 26272.3
 09 04 2013  18 09  -21.0399 26049.8 -03412.1 -07.4622 26272.4
 09 04 2013  18 10  -21.0399 26049.8 -03412.2 -07.4626 26272.3
 09 04 2013  18 11  -21.0399 26049.6 -03412.3 -07.4628 26272.1
 09 04 2013  18 12  -21.0397 26049.4 -03412.4 -07.4631 26272.0
 09 04 2013  18 13  -21.0395 26049.2 -03412.5 -07.4634 26271.7
 09 04 2013  18 14  -21.0395 26049.1 -03412.7 -07.4638 26271.7
 09 04 2013  18 15  -21.0393 26049.0 -03412.9 -07.4642 26271.6
 09 04 2013  18 16  -21.0391 26048.9 -03413.0 -07.4645 26271.5
 09 04 2013  18 17  -21.0388 26048.5 -03413.0 -07.4647 26271.2
 09 04 2013  18 18  -21.0384 26048.0 -03413.0 -07.4647 26270.7
 09 04 2013  18 19  -21.0379 26047.6 -03413.0 -07.4649 26270.2
 09 04 2013  18 20  -21.0373 26047.2 -03413.1 -07.4652 26269.9
 09 04 2013  18 21  -21.0369 26047.0 -03413.3 -07.4657 26269.7
 09 04 2013  18 22  -21.0364 26046.6 -03413.4 -07.4660 26269.3
 09 04 2013  18 23  -21.0359 26046.3 -03413.5 -07.4664 26269.0
 09 04 2013  18 24  -21.0356 26046.2 -03413.8 -07.4670 26268.9
 09 04 2013  18 25  -21.0354 26046.1 -03414.1 -07.4676 26268.9
 09 04 2013  18 26  -21.0353 26045.8 -03414.2 -07.4680 26268.6
 09 04 2013  18 27  -21.0351 26045.4 -03414.3 -07.4682 26268.3
 09 04 2013  18 28  -21.0349 26045.1 -03414.4 -07.4686 26268.0
 09 04 2013  18 29  -21.0346 26045.0 -03414.7 -07.4692 26267.9
 09 04 2013  18 30  -21.0347 26045.0 -03414.9 -07.4698 26267.9
 09 04 2013  18 31  -21.0345 26044.7 -03415.1 -07.4702 26267.6
 09 04 2013  18 32  -21.0341 26044.4 -03415.2 -07.4706 26267.4
 09 04 2013  18 33  -21.0342 26044.3 -03415.4 -07.4711 26267.2
 09 04 2013  18 34  -21.0339 26044.1 -03415.6 -07.4716 26267.1
 09 04 2013  18 35  -21.0337 26044.0 -03415.9 -07.4721 26267.1
 09 04 2013  18 36  -21.0336 26044.0 -03416.1 -07.4727 26267.1
 09 04 2013  18 37  -21.0334 26044.0 -03416.3 -07.4731 26267.1
 09 04 2013  18 38  -21.0334 26044.0 -03416.5 -07.4736 26267.2
 09 04 2013  18 39  -21.0334 26044.0 -03416.7 -07.4739 26267.1
 09 04 2013  18 40  -21.0331 26043.6 -03416.7 -07.4740 26266.8
 09 04 2013  18 41  -21.0328 26043.5 -03416.9 -07.4745 26266.7
 09 04 2013  18 42  -21.0326 26043.5 -03417.1 -07.4750 26266.7
 09 04 2013  18 43  -21.0323 26043.5 -03417.4 -07.4755 26266.7
 09 04 2013  18 44  -21.0321 26043.6 -03417.7 -07.4761 26266.9
 09 04 2013  18 45  -21.0319 26043.8 -03418.0 -07.4767 26267.2
 09 04 2013  18 46  -21.0318 26044.0 -03418.2 -07.4772 26267.4
 09 04 2013  18 47  -21.0317 26044.0 -03418.4 -07.4776 26267.4
 09 04 2013  18 48  -21.0314 26043.9 -03418.5 -07.4778 26267.3
 09 04 2013  18 49  -21.0312 26043.9 -03418.7 -07.4783 26267.4
 09 04 2013  18 50  -21.0312 26043.9 -03418.9 -07.4787 26267.3
 09 04 2013  18 51  -21.0311 26043.7 -03419.0 -07.4790 26267.1
 09 04 2013  18 52  -21.0312 26043.5 -03419.1 -07.4793 26267.0
 09 04 2013  18 53  -21.0311 26043.4 -03419.3 -07.4797 26266.9
 09 04 2013  18 54  -21.0311 26043.1 -03419.3 -07.4798 26266.6
 09 04 2013  18 55  -21.0309 26042.9 -03419.5 -07.4802 26266.4
 09 04 2013  18 56  -21.0309 26042.9 -03419.7 -07.4807 26266.4
 09 04 2013  18 57  -21.0311 26042.9 -03419.9 -07.4812 26266.5
 09 04 2013  18 58  -21.0312 26043.0 -03420.1 -07.4815 26266.6
 09 04 2013  18 59  -21.0314 26042.7 -03420.1 -07.4817 26266.3
 09 04 2013  19 00  -21.0313 26042.1 -03420.0 -07.4816 26265.7
 09 04 2013  19 01  -21.0313 26041.7 -03420.0 -07.4817 26265.3
 09 04 2013  19 02  -21.0314 26041.3 -03420.0 -07.4819 26264.9
 09 04 2013  19 03  -21.0313 26040.9 -03420.1 -07.4822 26264.5
 09 04 2013  19 04  -21.0313 26040.6 -03420.3 -07.4826 26264.3
 09 04 2013  19 05  -21.0319 26040.4 -03420.4 -07.4829 26264.1
 09 04 2013  19 06  -21.0335 26039.7 -03420.3 -07.4828 26263.4
 09 04 2013  19 07  -21.0335 26039.3 -03420.2 -07.4829 26263.0
 09 04 2013  19 08  -21.0338 26039.0 -03420.4 -07.4832 26262.7
 09 04 2013  19 09  -21.0340 26038.7 -03420.5 -07.4836 26262.4
 09 04 2013  19 10  -21.0343 26038.5 -03420.5 -07.4838 26262.2
 09 04 2013  19 11  -21.0344 26037.7 -03420.4 -07.4836 26261.4
 09 04 2013  19 12  -21.0341 26037.1 -03420.3 -07.4836 26260.8
 09 04 2013  19 13  -21.0341 26036.7 -03420.4 -07.4840 26260.4
 09 04 2013  19 14  -21.0342 26036.6 -03420.6 -07.4845 26260.3
 09 04 2013  19 15  -21.0341 26036.4 -03420.8 -07.4849 26260.2
 09 04 2013  19 16  -21.0339 26036.5 -03421.0 -07.4853 26260.3
 09 04 2013  19 17  -21.0341 26036.9 -03421.3 -07.4858 26260.7
 09 04 2013  19 18  -21.0343 26036.9 -03421.4 -07.4860 26260.8
 09 04 2013  19 19  -21.0343 26036.8 -03421.4 -07.4861 26260.6
 09 04 2013  19 20  -21.0345 26036.7 -03421.5 -07.4863 26260.6
 09 04 2013  19 21  -21.0346 26036.7 -03421.6 -07.4865 26260.6
 09 04 2013  19 22  -21.0345 26036.8 -03421.7 -07.4868 26260.6
 09 04 2013  19 23  -21.0346 26036.8 -03421.8 -07.4870 26260.7
 09 04 2013  19 24  -21.0348 26036.9 -03422.0 -07.4873 26260.8
 09 04 2013  19 25  -21.0347 26036.9 -03422.0 -07.4874 26260.8
 09 04 2013  19 26  -21.0327 26037.4 -03422.3 -07.4879 26261.4
 09 04 2013  19 27  -21.0326 26037.9 -03422.7 -07.4885 26261.9
 09 04 2013  19 28  -21.0327 26038.2 -03422.8 -07.4888 26262.2
 09 04 2013  19 29  -21.0326 26038.2 -03422.8 -07.4887 26262.2
 09 04 2013  19 30  -21.0322 26038.1 -03422.7 -07.4886 26262.1
 09 04 2013  19 31  -21.0320 26038.2 -03422.9 -07.4889 26262.2
 09 04 2013  19 32  -21.0318 26038.3 -03423.0 -07.4891 26262.3
 09 04 2013  19 33  -21.0317 26038.5 -03423.1 -07.4894 26262.5
 09 04 2013  19 34  -21.0317 26038.4 -03423.1 -07.4894 26262.4
 09 04 2013  19 35  -21.0316 26038.0 -03423.0 -07.4892 26262.1
 09 04 2013  19 36  -21.0315 26037.8 -03423.0 -07.4893 26261.8
 09 04 2013  19 37  -21.0315 26037.7 -03423.1 -07.4895 26261.7
 09 04 2013  19 38  -21.0314 26037.8 -03423.3 -07.4899 26261.9
 09 04 2013  19 39  -21.0312 26038.0 -03423.5 -07.4903 26262.1
 09 04 2013  19 40  -21.0313 26038.2 -03423.7 -07.4907 26262.3
 09 04 2013  19 41  -21.0313 26038.3 -03423.7 -07.4908 26262.5
 09 04 2013  19 42  -21.0311 26038.4 -03423.7 -07.4907 26262.5
 09 04 2013  19 43  -21.0311 26038.5 -03423.8 -07.4908 26262.6
 09 04 2013  19 44  -21.0310 26038.7 -03423.9 -07.4910 26262.8
 09 04 2013  19 45  -21.0311 26038.6 -03423.9 -07.4909 26262.8
 09 04 2013  19 46  -21.0308 26038.2 -03423.6 -07.4906 26262.3
 09 04 2013  19 47  -21.0307 26037.8 -03423.5 -07.4904 26261.9
 09 04 2013  19 48  -21.0302 26037.8 -03423.7 -07.4907 26261.9
 09 04 2013  19 49  -21.0304 26038.4 -03424.1 -07.4916 26262.6
 09 04 2013  19 50  -21.0305 26039.0 -03424.4 -07.4919 26263.2
 09 04 2013  19 51  -21.0306 26039.3 -03424.4 -07.4918 26263.5
 09 04 2013  19 52  -21.0306 26039.1 -03424.1 -07.4914 26263.2
 09 04 2013  19 53  -21.0302 26038.8 -03423.9 -07.4911 26262.9
 09 04 2013  19 54  -21.0302 26038.9 -03424.1 -07.4913 26263.1
 09 04 2013  19 55  -21.0301 26039.3 -03424.3 -07.4916 26263.4
 09 04 2013  19 56  -21.0300 26039.7 -03424.4 -07.4919 26263.9
 09 04 2013  19 57  -21.0299 26039.9 -03424.5 -07.4919 26264.1
 09 04 2013  19 58  -21.0297 26039.7 -03424.3 -07.4916 26263.9
 09 04 2013  19 59  -21.0295 26039.6 -03424.2 -07.4915 26263.7
 09 04 2013  20 00  -21.0294 26039.6 -03424.3 -07.4916 26263.8
 09 04 2013  20 01  -21.0292 26039.9 -03424.4 -07.4917 26264.1
 09 04 2013  20 02  -21.0291 26039.9 -03424.4 -07.4918 26264.1
 09 04 2013  20 03  -21.0288 26039.8 -03424.3 -07.4915 26264.0
 09 04 2013  20 04  -21.0287 26039.7 -03424.3 -07.4915 26263.9
 09 04 2013  20 05  -21.0286 26039.7 -03424.3 -07.4916 26263.9
 09 04 2013  20 06  -21.0285 26039.7 -03424.3 -07.4916 26263.9
 09 04 2013  20 07  -21.0283 26039.8 -03424.3 -07.4916 26264.0
 09 04 2013  20 08  -21.0281 26039.8 -03424.3 -07.4916 26264.0
 09 04 2013  20 09  -21.0278 26039.9 -03424.4 -07.4917 26264.1
 09 04 2013  20 10  -21.0277 26040.0 -03424.4 -07.4916 26264.2
 09 04 2013  20 11  -21.0275 26040.2 -03424.4 -07.4917 26264.4
 09 04 2013  20 12  -21.0273 26040.3 -03424.4 -07.4917 26264.5
 09 04 2013  20 13  -21.0271 26040.5 -03424.5 -07.4917 26264.7
 09 04 2013  20 14  -21.0269 26040.6 -03424.5 -07.4918 26264.8
 09 04 2013  20 15  -21.0268 26040.8 -03424.6 -07.4920 26265.0
 09 04 2013  20 16  -21.0266 26041.0 -03424.6 -07.4919 26265.2
 09 04 2013  20 17  -21.0265 26041.0 -03424.6 -07.4918 26265.2
 09 04 2013  20 18  -21.0262 26041.0 -03424.6 -07.4917 26265.3
 09 04 2013  20 19  -21.0261 26041.1 -03424.5 -07.4917 26265.3
 09 04 2013  20 20  -21.0260 26041.1 -03424.5 -07.4916 26265.3
 09 04 2013  20 21  -21.0260 26041.0 -03424.4 -07.4915 26265.2
 09 04 2013  20 22  -21.0258 26041.0 -03424.4 -07.4913 26265.2
 09 04 2013  20 23  -21.0257 26040.9 -03424.4 -07.4913 26265.1
 09 04 2013  20 24  -21.0255 26040.9 -03424.3 -07.4912 26265.0
 09 04 2013  20 25  -21.0254 26040.7 -03424.2 -07.4911 26264.8
 09 04 2013  20 26  -21.0253 26040.5 -03424.1 -07.4909 26264.7
 09 04 2013  20 27  -21.0252 26040.5 -03424.1 -07.4910 26264.6
 09 04 2013  20 28  -21.0252 26040.6 -03424.2 -07.4910 26264.7
 09 04 2013  20 29  -21.0251 26040.7 -03424.2 -07.4912 26264.9
 09 04 2013  20 30  -21.0249 26040.9 -03424.3 -07.4911 26265.0
 09 04 2013  20 31  -21.0248 26040.9 -03424.3 -07.4912 26265.1
 09 04 2013  20 32  -21.0249 26041.1 -03424.3 -07.4912 26265.3
 09 04 2013  20 33  -21.0249 26041.2 -03424.3 -07.4912 26265.4
 09 04 2013  20 34  -21.0249 26041.3 -03424.3 -07.4912 26265.4
 09 04 2013  20 35  -21.0250 26041.5 -03424.3 -07.4912 26265.6
 09 04 2013  20 36  -21.0251 26041.5 -03424.4 -07.4912 26265.7
 09 04 2013  20 37  -21.0251 26041.7 -03424.4 -07.4912 26265.9
 09 04 2013  20 38  -21.0250 26042.0 -03424.5 -07.4913 26266.1
 09 04 2013  20 39  -21.0251 26042.3 -03424.6 -07.4915 26266.5
 09 04 2013  20 40  -21.0251 26042.6 -03424.7 -07.4916 26266.8
 09 04 2013  20 41  -21.0251 26042.8 -03424.7 -07.4916 26267.0
 09 04 2013  20 42  -21.0250 26043.1 -03424.8 -07.4916 26267.3
 09 04 2013  20 43  -21.0251 26043.5 -03424.9 -07.4917 26267.7
 09 04 2013  20 44  -21.0249 26043.8 -03424.9 -07.4918 26268.0
 09 04 2013  20 45  -21.0249 26043.9 -03424.9 -07.4916 26268.1
 09 04 2013  20 46  -21.0249 26043.5 -03424.6 -07.4911 26267.7
 09 04 2013  20 47  -21.0250 26042.9 -03424.2 -07.4904 26267.0
 09 04 2013  20 48  -21.0251 26042.1 -03423.8 -07.4898 26266.2
 09 04 2013  20 49  -21.0253 26041.4 -03423.5 -07.4893 26265.5
 09 04 2013  20 50  -21.0253 26041.0 -03423.3 -07.4891 26265.0
 09 04 2013  20 51  -21.0253 26040.7 -03423.3 -07.4891 26264.7
 09 04 2013  20 52  -21.0252 26040.6 -03423.2 -07.4890 26264.6
 09 04 2013  20 53  -21.0250 26040.7 -03423.3 -07.4891 26264.8
 09 04 2013  20 54  -21.0249 26040.9 -03423.4 -07.4893 26264.9
 09 04 2013  20 55  -21.0247 26041.1 -03423.4 -07.4893 26265.2
 09 04 2013  20 56  -21.0247 26041.4 -03423.5 -07.4894 26265.5
 09 04 2013  20 57  -21.0245 26041.8 -03423.8 -07.4898 26265.9
 09 04 2013  20 58  -21.0245 26042.1 -03424.0 -07.4901 26266.2
 09 04 2013  20 59  -21.0243 26042.4 -03424.1 -07.4905 26266.5
 09 04 2013  21 00  -21.0242 26042.8 -03424.3 -07.4908 26267.0
 09 04 2013  21 01  -21.0241 26043.2 -03424.6 -07.4911 26267.4
 09 04 2013  21 02  -21.0241 26043.5 -03424.7 -07.4913 26267.7
 09 04 2013  21 03  -21.0241 26043.6 -03424.7 -07.4913 26267.8
 09 04 2013  21 04  -21.0243 26043.4 -03424.6 -07.4912 26267.6
 09 04 2013  21 05  -21.0246 26043.0 -03424.5 -07.4910 26267.2
 09 04 2013  21 06  -21.0249 26042.7 -03424.3 -07.4907 26266.8
 09 04 2013  21 07  -21.0249 26042.4 -03424.2 -07.4905 26266.6
 09 04 2013  21 08  -21.0249 26042.0 -03424.0 -07.4903 26266.2
 09 04 2013  21 09  -21.0249 26041.8 -03424.0 -07.4902 26265.9
 09 04 2013  21 10  -21.0246 26041.4 -03423.8 -07.4900 26265.5
 09 04 2013  21 11  -21.0242 26041.1 -03423.6 -07.4897 26265.2
 09 04 2013  21 12  -21.0239 26040.8 -03423.5 -07.4896 26264.9
 09 04 2013  21 13  -21.0236 26040.6 -03423.6 -07.4897 26264.7
 09 04 2013  21 14  -21.0235 26040.6 -03423.7 -07.4900 26264.7
 09 04 2013  21 15  -21.0233 26040.9 -03423.9 -07.4904 26265.0
 09 04 2013  21 16  -21.0232 26041.0 -03424.1 -07.4907 26265.1
 09 04 2013  21 17  -21.0231 26040.8 -03424.2 -07.4910 26265.0
 09 04 2013  21 18  -21.0231 26040.7 -03424.2 -07.4911 26264.9
 09 04 2013  21 19  -21.0232 26040.5 -03424.2 -07.4910 26264.7
 09 04 2013  21 20  -21.0235 26040.5 -03424.3 -07.4914 26264.7
 09 04 2013  21 21  -21.0237 26040.5 -03424.5 -07.4917 26264.8
 09 04 2013  21 22  -21.0238 26040.7 -03424.6 -07.4920 26264.9
 09 04 2013  21 23  -21.0239 26040.7 -03424.7 -07.4922 26264.9
 09 04 2013  21 24  -21.0241 26040.6 -03424.7 -07.4923 26264.8
 09 04 2013  21 25  -21.0247 26040.5 -03424.8 -07.4924 26264.8
 09 04 2013  21 26  -21.0254 26040.6 -03424.9 -07.4926 26264.8
 09 04 2013  21 27  -21.0259 26040.6 -03425.0 -07.4928 26264.9
 09 04 2013  21 28  -21.0262 26040.6 -03425.0 -07.4929 26264.9
 09 04 2013  21 29  -21.0266 26040.5 -03425.0 -07.4928 26264.8
 09 04 2013  21 30  -21.0269 26040.6 -03425.0 -07.4928 26264.9
 09 04 2013  21 31  -21.0272 26040.7 -03425.1 -07.4930 26265.0
 09 04 2013  21 32  -21.0273 26040.7 -03425.1 -07.4930 26264.9
 09 04 2013  21 33  -21.0273 26040.6 -03425.1 -07.4930 26264.9
 09 04 2013  21 34  -21.0275 26040.6 -03425.1 -07.4931 26264.9
 09 04 2013  21 35  -21.0277 26040.6 -03425.1 -07.4931 26264.9
 09 04 2013  21 36  -21.0279 26040.6 -03425.2 -07.4932 26264.9
 09 04 2013  21 37  -21.0282 26040.6 -03425.2 -07.4933 26264.9
 09 04 2013  21 38  -21.0284 26040.6 -03425.2 -07.4933 26264.9
 09 04 2013  21 39  -21.0289 26040.5 -03425.3 -07.4935 26264.8
 09 04 2013  21 40  -21.0292 26040.5 -03425.3 -07.4935 26264.8
 09 04 2013  21 41  -21.0298 26040.6 -03425.4 -07.4936 26264.9
 09 04 2013  21 42  -21.0302 26040.5 -03425.4 -07.4937 26264.9
 09 04 2013  21 43  -21.0301 26040.5 -03425.4 -07.4937 26264.8
 09 04 2013  21 44  -21.0303 26040.5 -03425.4 -07.4938 26264.8
 09 04 2013  21 45  -21.0305 26040.4 -03425.4 -07.4937 26264.7
 09 04 2013  21 46  -21.0305 26040.4 -03425.4 -07.4938 26264.8
 09 04 2013  21 47  -21.0310 26040.4 -03425.5 -07.4939 26264.7
 09 04 2013  21 48  -21.0314 26040.4 -03425.5 -07.4940 26264.8
 09 04 2013  21 49  -21.0316 26040.4 -03425.5 -07.4940 26264.8
 09 04 2013  21 50  -21.0318 26040.4 -03425.5 -07.4940 26264.7
 09 04 2013  21 51  -21.0321 26040.4 -03425.6 -07.4942 26264.8
 09 04 2013  21 52  -21.0323 26040.4 -03425.7 -07.4943 26264.8
 09 04 2013  21 53  -21.0325 26040.4 -03425.7 -07.4944 26264.7
 09 04 2013  21 54  -21.0328 26040.3 -03425.7 -07.4944 26264.7
 09 04 2013  21 55  -21.0333 26040.2 -03425.7 -07.4944 26264.5
 09 04 2013  21 56  -21.0337 26040.2 -03425.7 -07.4944 26264.6
 09 04 2013  21 57  -21.0341 26040.1 -03425.7 -07.4945 26264.5
 09 04 2013  21 58  -21.0345 26040.1 -03425.7 -07.4945 26264.4
 09 04 2013  21 59  -21.0348 26040.0 -03425.7 -07.4945 26264.4
 09 04 2013  22 00  -21.0351 26039.9 -03425.7 -07.4945 26264.3
 09 04 2013  22 01  -21.0354 26039.8 -03425.6 -07.4944 26264.2
 09 04 2013  22 02  -21.0355 26039.7 -03425.6 -07.4944 26264.1
 09 04 2013  22 03  -21.0355 26039.7 -03425.6 -07.4944 26264.1
 09 04 2013  22 04  -21.0356 26039.6 -03425.6 -07.4944 26264.0
 09 04 2013  22 05  -21.0354 26039.6 -03425.6 -07.4943 26263.9
 09 04 2013  22 06  -21.0351 26039.5 -03425.6 -07.4944 26263.9
 09 04 2013  22 07  -21.0349 26039.5 -03425.6 -07.4944 26263.9
 09 04 2013  22 08  -21.0351 26039.4 -03425.6 -07.4946 26263.7
 09 04 2013  22 09  -21.0358 26039.3 -03425.6 -07.4945 26263.7
 09 04 2013  22 10  -21.0359 26039.4 -03425.7 -07.4946 26263.8
 09 04 2013  22 11  -21.0357 26039.6 -03425.8 -07.4948 26264.0
 09 04 2013  22 12  -21.0358 26039.6 -03425.8 -07.4949 26264.0
 09 04 2013  22 13  -21.0358 26039.4 -03425.8 -07.4949 26263.8
 09 04 2013  22 14  -21.0358 26039.3 -03425.8 -07.4948 26263.7
 09 04 2013  22 15  -21.0359 26039.2 -03425.7 -07.4948 26263.6
 09 04 2013  22 16  -21.0359 26039.1 -03425.7 -07.4948 26263.5
 09 04 2013  22 17  -21.0359 26039.1 -03425.7 -07.4948 26263.5
 09 04 2013  22 18  -21.0360 26039.1 -03425.7 -07.4948 26263.5
 09 04 2013  22 19  -21.0359 26039.1 -03425.8 -07.4949 26263.4
 09 04 2013  22 20  -21.0358 26038.9 -03425.7 -07.4948 26263.3
 09 04 2013  22 21  -21.0356 26038.7 -03425.6 -07.4948 26263.1
 09 04 2013  22 22  -21.0355 26038.6 -03425.6 -07.4947 26263.0
 09 04 2013  22 23  -21.0355 26038.5 -03425.5 -07.4946 26262.8
 09 04 2013  22 24  -21.0355 26038.3 -03425.5 -07.4945 26262.7
 09 04 2013  22 25  -21.0356 26038.3 -03425.5 -07.4946 26262.6
 09 04 2013  22 26  -21.0356 26038.3 -03425.6 -07.4947 26262.6
 09 04 2013  22 27  -21.0356 26038.3 -03425.6 -07.4948 26262.7
 09 04 2013  22 28  -21.0355 26038.3 -03425.7 -07.4949 26262.7
 09 04 2013  22 29  -21.0354 26038.3 -03425.7 -07.4950 26262.7
 09 04 2013  22 30  -21.0353 26038.3 -03425.7 -07.4950 26262.7
 09 04 2013  22 31  -21.0353 26038.4 -03425.8 -07.4952 26262.8
 09 04 2013  22 32  -21.0353 26038.4 -03425.8 -07.4952 26262.8
 09 04 2013  22 33  -21.0353 26038.4 -03425.9 -07.4953 26262.8
 09 04 2013  22 34  -21.0353 26038.3 -03425.8 -07.4952 26262.7
 09 04 2013  22 35  -21.0354 26038.3 -03425.9 -07.4953 26262.7
 09 04 2013  22 36  -21.0355 26038.4 -03425.9 -07.4954 26262.8
 09 04 2013  22 37  -21.0355 26038.4 -03425.9 -07.4954 26262.8
 09 04 2013  22 38  -21.0355 26038.4 -03425.9 -07.4954 26262.8
 09 04 2013  22 39  -21.0354 26038.5 -03425.9 -07.4955 26262.9
 09 04 2013  22 40  -21.0353 26038.6 -03426.0 -07.4956 26263.0
 09 04 2013  22 41  -21.0354 26038.7 -03426.1 -07.4957 26263.1
 09 04 2013  22 42  -21.0353 26038.7 -03426.1 -07.4957 26263.2
 09 04 2013  22 43  -21.0353 26038.8 -03426.1 -07.4958 26263.2
 09 04 2013  22 44  -21.0355 26038.8 -03426.1 -07.4958 26263.2
 09 04 2013  22 45  -21.0355 26038.6 -03426.0 -07.4956 26263.0
 09 04 2013  22 46  -21.0358 26038.4 -03425.9 -07.4955 26262.8
 09 04 2013  22 47  -21.0360 26038.2 -03425.8 -07.4953 26262.6
 09 04 2013  22 48  -21.0361 26037.9 -03425.7 -07.4951 26262.3
 09 04 2013  22 49  -21.0365 26037.6 -03425.6 -07.4949 26262.0
 09 04 2013  22 50  -21.0367 26037.3 -03425.4 -07.4946 26261.7
 09 04 2013  22 51  -21.0368 26037.0 -03425.3 -07.4944 26261.4
 09 04 2013  22 52  -21.0370 26036.7 -03425.2 -07.4943 26261.1
 09 04 2013  22 53  -21.0372 26036.5 -03425.1 -07.4942 26260.9
 09 04 2013  22 54  -21.0372 26036.4 -03425.1 -07.4942 26260.7
 09 04 2013  22 55  -21.0372 26036.3 -03425.0 -07.4941 26260.6
 09 04 2013  22 56  -21.0372 26036.3 -03425.1 -07.4943 26260.6
 09 04 2013  22 57  -21.0371 26036.3 -03425.1 -07.4943 26260.6
 09 04 2013  22 58  -21.0369 26036.4 -03425.2 -07.4945 26260.7
 09 04 2013  22 59  -21.0368 26036.4 -03425.3 -07.4946 26260.8
 09 04 2013  23 00  -21.0367 26036.5 -03425.3 -07.4948 26260.8
 09 04 2013  23 01  -21.0367 26036.5 -03425.4 -07.4949 26260.9
 09 04 2013  23 02  -21.0367 26036.6 -03425.5 -07.4951 26261.0
 09 04 2013  23 03  -21.0367 26036.8 -03425.6 -07.4953 26261.2
 09 04 2013  23 04  -21.0367 26036.9 -03425.7 -07.4954 26261.3
 09 04 2013  23 05  -21.0367 26037.0 -03425.8 -07.4956 26261.4
 09 04 2013  23 06  -21.0367 26037.0 -03425.8 -07.4956 26261.5
 09 04 2013  23 07  -21.0368 26037.0 -03425.8 -07.4956 26261.4
 09 04 2013  23 08  -21.0370 26037.0 -03425.8 -07.4955 26261.4
 09 04 2013  23 09  -21.0370 26037.0 -03425.8 -07.4956 26261.4
 09 04 2013  23 10  -21.0371 26037.1 -03425.8 -07.4956 26261.5
 09 04 2013  23 11  -21.0371 26037.0 -03425.8 -07.4956 26261.4
 09 04 2013  23 12  -21.0371 26036.9 -03425.8 -07.4955 26261.3
 09 04 2013  23 13  -21.0371 26036.9 -03425.7 -07.4954 26261.3
 09 04 2013  23 14  -21.0372 26036.9 -03425.7 -07.4954 26261.3
 09 04 2013  23 15  -21.0373 26036.9 -03425.8 -07.4956 26261.3
 09 04 2013  23 16  -21.0373 26036.9 -03425.8 -07.4956 26261.3
 09 04 2013  23 17  -21.0373 26036.9 -03425.8 -07.4956 26261.3
 09 04 2013  23 18  -21.0373 26036.9 -03425.8 -07.4957 26261.3
 09 04 2013  23 19  -21.0373 26036.9 -03425.8 -07.4956 26261.3
 09 04 2013  23 20  -21.0373 26036.9 -03425.8 -07.4956 26261.3
 09 04 2013  23 21  -21.0373 26036.9 -03425.8 -07.4956 26261.3
 09 04 2013  23 22  -21.0374 26036.9 -03425.8 -07.4957 26261.3
 09 04 2013  23 23  -21.0374 26036.9 -03425.8 -07.4957 26261.3
 09 04 2013  23 24  -21.0374 26036.9 -03425.9 -07.4957 26261.3
 09 04 2013  23 25  -21.0374 26036.8 -03425.8 -07.4957 26261.2
 09 04 2013  23 26  -21.0373 26036.7 -03425.8 -07.4957 26261.1
 09 04 2013  23 27  -21.0374 26036.7 -03425.8 -07.4956 26261.1
 09 04 2013  23 28  -21.0374 26036.7 -03425.8 -07.4956 26261.1
 09 04 2013  23 29  -21.0374 26036.8 -03425.8 -07.4957 26261.2
 09 04 2013  23 30  -21.0375 26036.8 -03425.8 -07.4957 26261.2
 09 04 2013  23 31  -21.0375 26036.7 -03425.8 -07.4957 26261.1
 09 04 2013  23 32  -21.0376 26036.7 -03425.8 -07.4958 26261.1
 09 04 2013  23 33  -21.0377 26036.7 -03425.8 -07.4957 26261.1
 09 04 2013  23 34  -21.0378 26036.6 -03425.8 -07.4957 26261.0
 09 04 2013  23 35  -21.0379 26036.6 -03425.8 -07.4957 26261.0
 09 04 2013  23 36  -21.0379 26036.6 -03425.8 -07.4957 26261.0
 09 04 2013  23 37  -21.0379 26036.6 -03425.8 -07.4958 26261.0
 09 04 2013  23 38  -21.0379 26036.6 -03425.8 -07.4958 26261.0
 09 04 2013  23 39  -21.0378 26036.5 -03425.8 -07.4957 26260.9
 09 04 2013  23 40  -21.0378 26036.5 -03425.8 -07.4957 26260.9
 09 04 2013  23 41  -21.0377 26036.5 -03425.8 -07.4957 26260.9
 09 04 2013  23 42  -21.0376 26036.4 -03425.8 -07.4956 26260.8
 09 04 2013  23 43  -21.0375 26036.4 -03425.8 -07.4956 26260.8
 09 04 2013  23 44  -21.0374 26036.4 -03425.8 -07.4957 26260.8
 09 04 2013  23 45  -21.0374 26036.4 -03425.8 -07.4957 26260.8
 09 04 2013  23 46  -21.0373 26036.3 -03425.8 -07.4957 26260.7
 09 04 2013  23 47  -21.0374 26036.2 -03425.8 -07.4957 26260.7
 09 04 2013  23 48  -21.0374 26036.3 -03425.8 -07.4958 26260.7
 09 04 2013  23 49  -21.0373 26036.2 -03425.7 -07.4957 26260.6
 09 04 2013  23 50  -21.0372 26036.2 -03425.7 -07.4957 26260.6
 09 04 2013  23 51  -21.0371 26036.2 -03425.8 -07.4957 26260.6
 09 04 2013  23 52  -21.0370 26036.3 -03425.8 -07.4959 26260.7
 09 04 2013  23 53  -21.0369 26036.5 -03425.9 -07.4960 26260.9
 09 04 2013  23 54  -21.0369 26036.6 -03426.0 -07.4962 26261.0
 09 04 2013  23 55  -21.0369 26036.7 -03426.0 -07.4962 26261.1
 09 04 2013  23 56  -21.0370 26036.8 -03426.1 -07.4964 26261.3
 09 04 2013  23 57  -21.0369 26036.9 -03426.2 -07.4965 26261.3
