SAO LUIS EMBRACE-03 <278> 1 Min. Reported data

 DD MM YYYY  HH MM   D(Deg)  H(nT)   Z(nT)   I(Deg)   F(nT)

 05 10 2013  00 00  -21.0156 26015.2 -03491.3 -07.6436 26248.4
 05 10 2013  00 01  -21.0156 26015.2 -03491.3 -07.6436 26248.5
 05 10 2013  00 02  -21.0155 26015.3 -03491.4 -07.6437 26248.5
 05 10 2013  00 03  -21.0155 26015.3 -03491.4 -07.6437 26248.5
 05 10 2013  00 04  -21.0154 26015.3 -03491.4 -07.6437 26248.5
 05 10 2013  00 05  -21.0154 26015.3 -03491.4 -07.6437 26248.5
 05 10 2013  00 06  -21.0154 26015.3 -03491.4 -07.6438 26248.6
 05 10 2013  00 07  -21.0154 26015.4 -03491.4 -07.6438 26248.6
 05 10 2013  00 08  -21.0154 26015.3 -03491.4 -07.6437 26248.6
 05 10 2013  00 09  -21.0153 26015.3 -03491.4 -07.6436 26248.5
 05 10 2013  00 10  -21.0154 26015.2 -03491.3 -07.6435 26248.4
 05 10 2013  00 11  -21.0153 26015.1 -03491.3 -07.6435 26248.4
 05 10 2013  00 12  -21.0154 26015.1 -03491.3 -07.6435 26248.4
 05 10 2013  00 13  -21.0154 26015.1 -03491.3 -07.6435 26248.3
 05 10 2013  00 14  -21.0154 26015.1 -03491.3 -07.6435 26248.3
 05 10 2013  00 15  -21.0154 26015.0 -03491.3 -07.6435 26248.3
 05 10 2013  00 16  -21.0154 26015.1 -03491.2 -07.6435 26248.3
 05 10 2013  00 17  -21.0152 26015.1 -03491.3 -07.6435 26248.3
 05 10 2013  00 18  -21.0151 26015.2 -03491.3 -07.6435 26248.4
 05 10 2013  00 19  -21.0152 26015.2 -03491.3 -07.6435 26248.4
 05 10 2013  00 20  -21.0151 26015.1 -03491.3 -07.6435 26248.4
 05 10 2013  00 21  -21.0151 26015.1 -03491.3 -07.6435 26248.4
 05 10 2013  00 22  -21.0149 26015.2 -03491.3 -07.6435 26248.4
 05 10 2013  00 23  -21.0150 26015.2 -03491.3 -07.6436 26248.5
 05 10 2013  00 24  -21.0151 26015.2 -03491.3 -07.6436 26248.4
 05 10 2013  00 25  -21.0151 26015.1 -03491.3 -07.6435 26248.3
 05 10 2013  00 26  -21.0151 26015.0 -03491.2 -07.6435 26248.2
 05 10 2013  00 27  -21.0150 26015.0 -03491.2 -07.6434 26248.2
 05 10 2013  00 28  -21.0149 26015.0 -03491.2 -07.6434 26248.3
 05 10 2013  00 29  -21.0148 26015.0 -03491.3 -07.6435 26248.3
 05 10 2013  00 30  -21.0148 26015.1 -03491.3 -07.6436 26248.3
 05 10 2013  00 31  -21.0147 26015.1 -03491.3 -07.6436 26248.4
 05 10 2013  00 32  -21.0147 26015.2 -03491.4 -07.6437 26248.5
 05 10 2013  00 33  -21.0146 26015.3 -03491.4 -07.6438 26248.5
 05 10 2013  00 34  -21.0146 26015.4 -03491.5 -07.6438 26248.6
 05 10 2013  00 35  -21.0146 26015.4 -03491.5 -07.6439 26248.6
 05 10 2013  00 36  -21.0146 26015.5 -03491.5 -07.6439 26248.7
 05 10 2013  00 37  -21.0146 26015.5 -03491.5 -07.6440 26248.7
 05 10 2013  00 38  -21.0147 26015.4 -03491.5 -07.6439 26248.6
 05 10 2013  00 39  -21.0147 26015.3 -03491.4 -07.6438 26248.6
 05 10 2013  00 40  -21.0148 26015.2 -03491.4 -07.6437 26248.4
 05 10 2013  00 41  -21.0149 26015.0 -03491.3 -07.6436 26248.3
 05 10 2013  00 42  -21.0149 26015.0 -03491.3 -07.6436 26248.2
 05 10 2013  00 43  -21.0148 26015.0 -03491.3 -07.6436 26248.2
 05 10 2013  00 44  -21.0147 26015.0 -03491.3 -07.6437 26248.3
 05 10 2013  00 45  -21.0146 26015.1 -03491.4 -07.6438 26248.3
 05 10 2013  00 46  -21.0146 26015.2 -03491.5 -07.6439 26248.5
 05 10 2013  00 47  -21.0146 26015.3 -03491.6 -07.6441 26248.5
 05 10 2013  00 48  -21.0145 26015.3 -03491.6 -07.6441 26248.6
 05 10 2013  00 49  -21.0146 26015.3 -03491.6 -07.6441 26248.6
 05 10 2013  00 50  -21.0145 26015.2 -03491.6 -07.6441 26248.5
 05 10 2013  00 51  -21.0145 26015.2 -03491.6 -07.6441 26248.5
 05 10 2013  00 52  -21.0145 26015.2 -03491.6 -07.6442 26248.5
 05 10 2013  00 53  -21.0145 26015.2 -03491.6 -07.6442 26248.4
 05 10 2013  00 54  -21.0144 26015.1 -03491.6 -07.6442 26248.4
 05 10 2013  00 55  -21.0143 26015.1 -03491.6 -07.6443 26248.4
 05 10 2013  00 56  -21.0142 26015.1 -03491.6 -07.6443 26248.4
 05 10 2013  00 57  -21.0142 26015.1 -03491.6 -07.6443 26248.3
 05 10 2013  00 58  -21.0142 26015.1 -03491.7 -07.6444 26248.3
 05 10 2013  00 59  -21.0141 26015.1 -03491.7 -07.6444 26248.4
 05 10 2013  01 00  -21.0141 26015.1 -03491.7 -07.6444 26248.4
 05 10 2013  01 01  -21.0141 26015.0 -03491.7 -07.6445 26248.3
 05 10 2013  01 02  -21.0140 26015.0 -03491.7 -07.6445 26248.3
 05 10 2013  01 03  -21.0140 26014.9 -03491.7 -07.6444 26248.2
 05 10 2013  01 04  -21.0140 26014.8 -03491.6 -07.6444 26248.1
 05 10 2013  01 05  -21.0140 26014.7 -03491.6 -07.6444 26248.0
 05 10 2013  01 06  -21.0141 26014.7 -03491.6 -07.6444 26247.9
 05 10 2013  01 07  -21.0141 26014.6 -03491.6 -07.6444 26247.8
 05 10 2013  01 08  -21.0139 26014.5 -03491.6 -07.6444 26247.8
 05 10 2013  01 09  -21.0137 26014.6 -03491.6 -07.6445 26247.8
 05 10 2013  01 10  -21.0136 26014.7 -03491.7 -07.6446 26248.0
 05 10 2013  01 11  -21.0136 26014.8 -03491.8 -07.6448 26248.1
 05 10 2013  01 12  -21.0136 26014.9 -03491.9 -07.6449 26248.2
 05 10 2013  01 13  -21.0135 26014.9 -03491.9 -07.6450 26248.2
 05 10 2013  01 14  -21.0134 26014.9 -03491.9 -07.6450 26248.2
 05 10 2013  01 15  -21.0132 26014.9 -03491.9 -07.6450 26248.2
 05 10 2013  01 16  -21.0130 26014.8 -03491.9 -07.6451 26248.1
 05 10 2013  01 17  -21.0129 26014.9 -03492.0 -07.6451 26248.2
 05 10 2013  01 18  -21.0128 26014.9 -03492.0 -07.6451 26248.2
 05 10 2013  01 19  -21.0127 26014.9 -03492.0 -07.6452 26248.2
 05 10 2013  01 20  -21.0128 26014.8 -03492.1 -07.6453 26248.2
 05 10 2013  01 21  -21.0128 26014.8 -03492.0 -07.6453 26248.1
 05 10 2013  01 22  -21.0130 26014.7 -03492.0 -07.6453 26248.1
 05 10 2013  01 23  -21.0132 26014.7 -03492.1 -07.6453 26248.1
 05 10 2013  01 24  -21.0134 26014.7 -03492.1 -07.6454 26248.0
 05 10 2013  01 25  -21.0136 26014.6 -03492.0 -07.6453 26247.9
 05 10 2013  01 26  -21.0138 26014.5 -03492.0 -07.6453 26247.8
 05 10 2013  01 27  -21.0139 26014.5 -03492.0 -07.6453 26247.8
 05 10 2013  01 28  -21.0139 26014.4 -03492.0 -07.6453 26247.8
 05 10 2013  01 29  -21.0140 26014.5 -03492.0 -07.6453 26247.8
 05 10 2013  01 30  -21.0140 26014.5 -03492.0 -07.6453 26247.8
 05 10 2013  01 31  -21.0139 26014.5 -03492.1 -07.6454 26247.9
 05 10 2013  01 32  -21.0139 26014.6 -03492.1 -07.6454 26247.9
 05 10 2013  01 33  -21.0137 26014.6 -03492.1 -07.6455 26248.0
 05 10 2013  01 34  -21.0138 26014.7 -03492.1 -07.6455 26248.0
 05 10 2013  01 35  -21.0137 26014.7 -03492.2 -07.6456 26248.0
 05 10 2013  01 36  -21.0138 26014.6 -03492.1 -07.6455 26248.0
 05 10 2013  01 37  -21.0141 26014.6 -03492.1 -07.6456 26247.9
 05 10 2013  01 38  -21.0145 26014.5 -03492.1 -07.6455 26247.8
 05 10 2013  01 39  -21.0147 26014.3 -03492.0 -07.6454 26247.7
 05 10 2013  01 40  -21.0150 26014.3 -03492.0 -07.6454 26247.6
 05 10 2013  01 41  -21.0150 26014.2 -03492.0 -07.6454 26247.5
 05 10 2013  01 42  -21.0150 26014.2 -03492.0 -07.6454 26247.6
 05 10 2013  01 43  -21.0150 26014.3 -03492.1 -07.6455 26247.7
 05 10 2013  01 44  -21.0149 26014.5 -03492.1 -07.6456 26247.8
 05 10 2013  01 45  -21.0148 26014.6 -03492.2 -07.6457 26247.9
 05 10 2013  01 46  -21.0146 26014.6 -03492.2 -07.6457 26248.0
 05 10 2013  01 47  -21.0146 26014.7 -03492.2 -07.6457 26248.1
 05 10 2013  01 48  -21.0145 26014.7 -03492.3 -07.6458 26248.1
 05 10 2013  01 49  -21.0147 26014.7 -03492.3 -07.6459 26248.1
 05 10 2013  01 50  -21.0150 26014.8 -03492.4 -07.6460 26248.1
 05 10 2013  01 51  -21.0153 26014.7 -03492.3 -07.6460 26248.0
 05 10 2013  01 52  -21.0156 26014.5 -03492.3 -07.6459 26247.9
 05 10 2013  01 53  -21.0160 26014.4 -03492.2 -07.6458 26247.8
 05 10 2013  01 54  -21.0161 26014.3 -03492.2 -07.6457 26247.6
 05 10 2013  01 55  -21.0160 26014.2 -03492.1 -07.6457 26247.6
 05 10 2013  01 56  -21.0160 26014.2 -03492.1 -07.6456 26247.5
 05 10 2013  01 57  -21.0161 26014.1 -03492.1 -07.6456 26247.5
 05 10 2013  01 58  -21.0160 26014.1 -03492.1 -07.6456 26247.5
 05 10 2013  01 59  -21.0161 26014.2 -03492.1 -07.6457 26247.5
 05 10 2013  02 00  -21.0162 26014.3 -03492.2 -07.6458 26247.6
 05 10 2013  02 01  -21.0162 26014.4 -03492.3 -07.6460 26247.8
 05 10 2013  02 02  -21.0163 26014.6 -03492.4 -07.6461 26248.0
 05 10 2013  02 03  -21.0165 26014.7 -03492.5 -07.6462 26248.1
 05 10 2013  02 04  -21.0165 26014.8 -03492.5 -07.6463 26248.2
 05 10 2013  02 05  -21.0166 26014.9 -03492.5 -07.6463 26248.2
 05 10 2013  02 06  -21.0167 26014.8 -03492.5 -07.6462 26248.2
 05 10 2013  02 07  -21.0169 26014.8 -03492.5 -07.6462 26248.2
 05 10 2013  02 08  -21.0171 26014.8 -03492.5 -07.6462 26248.2
 05 10 2013  02 09  -21.0172 26014.7 -03492.4 -07.6461 26248.1
 05 10 2013  02 10  -21.0173 26014.6 -03492.3 -07.6460 26247.9
 05 10 2013  02 11  -21.0173 26014.4 -03492.3 -07.6458 26247.8
 05 10 2013  02 12  -21.0175 26014.2 -03492.2 -07.6457 26247.6
 05 10 2013  02 13  -21.0177 26014.0 -03492.1 -07.6456 26247.3
 05 10 2013  02 14  -21.0180 26013.9 -03492.1 -07.6456 26247.2
 05 10 2013  02 15  -21.0182 26013.8 -03492.0 -07.6456 26247.1
 05 10 2013  02 16  -21.0184 26013.8 -03492.0 -07.6455 26247.1
 05 10 2013  02 17  -21.0184 26013.7 -03492.0 -07.6455 26247.1
 05 10 2013  02 18  -21.0184 26013.8 -03492.0 -07.6455 26247.1
 05 10 2013  02 19  -21.0185 26013.8 -03492.0 -07.6455 26247.1
 05 10 2013  02 20  -21.0185 26013.8 -03492.0 -07.6455 26247.1
 05 10 2013  02 21  -21.0185 26013.7 -03492.0 -07.6455 26247.1
 05 10 2013  02 22  -21.0186 26013.7 -03492.1 -07.6457 26247.1
 05 10 2013  02 23  -21.0187 26013.8 -03492.1 -07.6457 26247.1
 05 10 2013  02 24  -21.0187 26013.8 -03492.1 -07.6458 26247.2
 05 10 2013  02 25  -21.0187 26013.8 -03492.2 -07.6458 26247.2
 05 10 2013  02 26  -21.0188 26013.8 -03492.2 -07.6458 26247.1
 05 10 2013  02 27  -21.0188 26013.8 -03492.2 -07.6459 26247.2
 05 10 2013  02 28  -21.0188 26013.8 -03492.2 -07.6459 26247.2
 05 10 2013  02 29  -21.0189 26013.9 -03492.2 -07.6460 26247.2
 05 10 2013  02 30  -21.0189 26013.9 -03492.3 -07.6460 26247.2
 05 10 2013  02 31  -21.0189 26013.9 -03492.3 -07.6461 26247.3
 05 10 2013  02 32  -21.0190 26013.9 -03492.3 -07.6461 26247.3
 05 10 2013  02 33  -21.0192 26013.9 -03492.3 -07.6461 26247.3
 05 10 2013  02 34  -21.0194 26013.8 -03492.3 -07.6460 26247.2
 05 10 2013  02 35  -21.0196 26013.7 -03492.2 -07.6460 26247.1
 05 10 2013  02 36  -21.0198 26013.7 -03492.2 -07.6459 26247.1
 05 10 2013  02 37  -21.0201 26013.7 -03492.2 -07.6459 26247.1
 05 10 2013  02 38  -21.0202 26013.7 -03492.2 -07.6459 26247.1
 05 10 2013  02 39  -21.0203 26013.7 -03492.2 -07.6458 26247.0
 05 10 2013  02 40  -21.0203 26013.6 -03492.1 -07.6458 26247.0
 05 10 2013  02 41  -21.0204 26013.6 -03492.2 -07.6459 26247.0
 05 10 2013  02 42  -21.0206 26013.7 -03492.2 -07.6460 26247.0
 05 10 2013  02 43  -21.0206 26013.7 -03492.2 -07.6460 26247.1
 05 10 2013  02 44  -21.0207 26013.8 -03492.3 -07.6461 26247.1
 05 10 2013  02 45  -21.0207 26013.8 -03492.3 -07.6461 26247.1
 05 10 2013  02 46  -21.0208 26013.8 -03492.3 -07.6461 26247.1
 05 10 2013  02 47  -21.0209 26013.8 -03492.3 -07.6462 26247.2
 05 10 2013  02 48  -21.0210 26013.9 -03492.4 -07.6462 26247.2
 05 10 2013  02 49  -21.0212 26013.9 -03492.4 -07.6463 26247.2
 05 10 2013  02 50  -21.0214 26013.9 -03492.4 -07.6464 26247.2
 05 10 2013  02 51  -21.0217 26013.9 -03492.4 -07.6464 26247.2
 05 10 2013  02 52  -21.0218 26013.8 -03492.4 -07.6464 26247.2
 05 10 2013  02 53  -21.0221 26013.8 -03492.4 -07.6464 26247.2
 05 10 2013  02 54  -21.0222 26013.8 -03492.4 -07.6464 26247.1
 05 10 2013  02 55  -21.0223 26013.7 -03492.4 -07.6463 26247.1
 05 10 2013  02 56  -21.0224 26013.7 -03492.4 -07.6463 26247.1
 05 10 2013  02 57  -21.0225 26013.7 -03492.4 -07.6463 26247.1
 05 10 2013  02 58  -21.0225 26013.7 -03492.4 -07.6464 26247.0
 05 10 2013  02 59  -21.0225 26013.6 -03492.4 -07.6463 26247.0
 05 10 2013  03 00  -21.0225 26013.7 -03492.4 -07.6464 26247.1
 05 10 2013  03 01  -21.0225 26013.7 -03492.4 -07.6464 26247.1
 05 10 2013  03 02  -21.0226 26013.8 -03492.5 -07.6465 26247.2
 05 10 2013  03 03  -21.0230 26013.7 -03492.5 -07.6465 26247.1
 05 10 2013  03 04  -21.0233 26013.6 -03492.5 -07.6465 26247.0
 05 10 2013  03 05  -21.0234 26013.6 -03492.5 -07.6465 26247.0
 05 10 2013  03 06  -21.0235 26013.5 -03492.5 -07.6465 26246.9
 05 10 2013  03 07  -21.0234 26013.4 -03492.4 -07.6465 26246.8
 05 10 2013  03 08  -21.0234 26013.4 -03492.4 -07.6464 26246.8
 05 10 2013  03 09  -21.0233 26013.5 -03492.4 -07.6465 26246.8
 05 10 2013  03 10  -21.0233 26013.5 -03492.5 -07.6466 26246.9
 05 10 2013  03 11  -21.0233 26013.5 -03492.5 -07.6466 26246.9
 05 10 2013  03 12  -21.0232 26013.6 -03492.5 -07.6467 26247.0
 05 10 2013  03 13  -21.0230 26013.6 -03492.6 -07.6467 26247.0
 05 10 2013  03 14  -21.0229 26013.5 -03492.5 -07.6467 26246.9
 05 10 2013  03 15  -21.0229 26013.6 -03492.6 -07.6468 26247.0
 05 10 2013  03 16  -21.0227 26013.5 -03492.6 -07.6468 26246.9
 05 10 2013  03 17  -21.0224 26013.5 -03492.6 -07.6468 26247.0
 05 10 2013  03 18  -21.0222 26013.6 -03492.6 -07.6469 26247.0
 05 10 2013  03 19  -21.0223 26013.7 -03492.7 -07.6470 26247.1
 05 10 2013  03 20  -21.0224 26013.8 -03492.8 -07.6473 26247.3
 05 10 2013  03 21  -21.0225 26013.9 -03492.9 -07.6474 26247.4
 05 10 2013  03 22  -21.0228 26014.0 -03492.9 -07.6474 26247.5
 05 10 2013  03 23  -21.0229 26014.1 -03492.9 -07.6474 26247.5
 05 10 2013  03 24  -21.0229 26014.1 -03493.0 -07.6475 26247.5
 05 10 2013  03 25  -21.0228 26014.1 -03493.0 -07.6475 26247.6
 05 10 2013  03 26  -21.0224 26014.1 -03492.9 -07.6473 26247.5
 05 10 2013  03 27  -21.0223 26014.0 -03492.9 -07.6473 26247.5
 05 10 2013  03 28  -21.0224 26014.1 -03492.9 -07.6474 26247.6
 05 10 2013  03 29  -21.0228 26014.2 -03493.0 -07.6475 26247.7
 05 10 2013  03 30  -21.0230 26014.2 -03493.0 -07.6475 26247.7
 05 10 2013  03 31  -21.0232 26014.1 -03493.0 -07.6475 26247.6
 05 10 2013  03 32  -21.0232 26014.0 -03492.9 -07.6474 26247.5
 05 10 2013  03 33  -21.0232 26014.0 -03492.8 -07.6472 26247.4
 05 10 2013  03 34  -21.0233 26014.0 -03492.8 -07.6472 26247.4
 05 10 2013  03 35  -21.0235 26014.0 -03492.8 -07.6472 26247.4
 05 10 2013  03 36  -21.0234 26014.0 -03492.8 -07.6471 26247.4
 05 10 2013  03 37  -21.0233 26014.1 -03492.9 -07.6473 26247.5
 05 10 2013  03 38  -21.0231 26014.2 -03492.9 -07.6474 26247.7
 05 10 2013  03 39  -21.0231 26014.4 -03493.0 -07.6475 26247.8
 05 10 2013  03 40  -21.0229 26014.4 -03493.0 -07.6475 26247.9
 05 10 2013  03 41  -21.0228 26014.5 -03493.0 -07.6475 26248.0
 05 10 2013  03 42  -21.0227 26014.5 -03493.0 -07.6475 26248.0
 05 10 2013  03 43  -21.0227 26014.5 -03493.1 -07.6476 26248.0
 05 10 2013  03 44  -21.0226 26014.6 -03493.1 -07.6475 26248.0
 05 10 2013  03 45  -21.0225 26014.6 -03493.1 -07.6475 26248.1
 05 10 2013  03 46  -21.0226 26014.6 -03493.1 -07.6475 26248.1
 05 10 2013  03 47  -21.0226 26014.6 -03493.0 -07.6475 26248.0
 05 10 2013  03 48  -21.0226 26014.6 -03493.0 -07.6474 26248.1
 05 10 2013  03 49  -21.0226 26014.6 -03493.1 -07.6475 26248.1
 05 10 2013  03 50  -21.0224 26014.6 -03493.0 -07.6475 26248.1
 05 10 2013  03 51  -21.0223 26014.7 -03493.1 -07.6475 26248.1
 05 10 2013  03 52  -21.0222 26014.7 -03493.1 -07.6476 26248.2
 05 10 2013  03 53  -21.0222 26014.8 -03493.1 -07.6476 26248.2
 05 10 2013  03 54  -21.0221 26014.8 -03493.2 -07.6477 26248.3
 05 10 2013  03 55  -21.0220 26014.9 -03493.2 -07.6477 26248.3
 05 10 2013  03 56  -21.0220 26014.9 -03493.2 -07.6477 26248.4
 05 10 2013  03 57  -21.0219 26015.0 -03493.2 -07.6477 26248.4
 05 10 2013  03 58  -21.0219 26015.0 -03493.2 -07.6478 26248.5
 05 10 2013  03 59  -21.0218 26015.0 -03493.2 -07.6478 26248.5
 05 10 2013  04 00  -21.0216 26015.1 -03493.3 -07.6478 26248.6
 05 10 2013  04 01  -21.0215 26015.1 -03493.3 -07.6478 26248.6
 05 10 2013  04 02  -21.0214 26015.1 -03493.3 -07.6479 26248.6
 05 10 2013  04 03  -21.0213 26015.1 -03493.3 -07.6479 26248.6
 05 10 2013  04 04  -21.0212 26015.2 -03493.3 -07.6479 26248.7
 05 10 2013  04 05  -21.0210 26015.2 -03493.3 -07.6479 26248.7
 05 10 2013  04 06  -21.0208 26015.2 -03493.4 -07.6480 26248.7
 05 10 2013  04 07  -21.0207 26015.3 -03493.4 -07.6480 26248.8
 05 10 2013  04 08  -21.0206 26015.3 -03493.4 -07.6480 26248.8
 05 10 2013  04 09  -21.0205 26015.4 -03493.4 -07.6480 26248.9
 05 10 2013  04 10  -21.0205 26015.5 -03493.4 -07.6481 26249.0
 05 10 2013  04 11  -21.0204 26015.5 -03493.4 -07.6481 26249.0
 05 10 2013  04 12  -21.0204 26015.5 -03493.5 -07.6482 26249.0
 05 10 2013  04 13  -21.0203 26015.6 -03493.5 -07.6481 26249.1
 05 10 2013  04 14  -21.0203 26015.6 -03493.5 -07.6482 26249.1
 05 10 2013  04 15  -21.0202 26015.7 -03493.5 -07.6482 26249.2
 05 10 2013  04 16  -21.0201 26015.8 -03493.5 -07.6482 26249.3
 05 10 2013  04 17  -21.0201 26015.8 -03493.5 -07.6482 26249.3
 05 10 2013  04 18  -21.0200 26015.9 -03493.6 -07.6483 26249.4
 05 10 2013  04 19  -21.0199 26015.9 -03493.6 -07.6483 26249.4
 05 10 2013  04 20  -21.0199 26016.0 -03493.6 -07.6483 26249.5
 05 10 2013  04 21  -21.0198 26016.0 -03493.6 -07.6484 26249.5
 05 10 2013  04 22  -21.0197 26016.1 -03493.6 -07.6484 26249.6
 05 10 2013  04 23  -21.0196 26016.1 -03493.6 -07.6483 26249.6
 05 10 2013  04 24  -21.0196 26016.2 -03493.7 -07.6484 26249.7
 05 10 2013  04 25  -21.0196 26016.2 -03493.7 -07.6484 26249.8
 05 10 2013  04 26  -21.0195 26016.3 -03493.7 -07.6484 26249.8
 05 10 2013  04 27  -21.0194 26016.3 -03493.7 -07.6484 26249.8
 05 10 2013  04 28  -21.0193 26016.4 -03493.7 -07.6484 26249.9
 05 10 2013  04 29  -21.0193 26016.4 -03493.7 -07.6484 26250.0
 05 10 2013  04 30  -21.0193 26016.5 -03493.8 -07.6485 26250.0
 05 10 2013  04 31  -21.0193 26016.5 -03493.8 -07.6485 26250.1
 05 10 2013  04 32  -21.0193 26016.5 -03493.8 -07.6485 26250.1
 05 10 2013  04 33  -21.0193 26016.6 -03493.8 -07.6486 26250.2
 05 10 2013  04 34  -21.0193 26016.7 -03493.8 -07.6486 26250.2
 05 10 2013  04 35  -21.0193 26016.7 -03493.8 -07.6486 26250.3
 05 10 2013  04 36  -21.0193 26016.8 -03493.9 -07.6486 26250.3
 05 10 2013  04 37  -21.0192 26016.8 -03493.9 -07.6486 26250.4
 05 10 2013  04 38  -21.0191 26016.8 -03493.9 -07.6486 26250.4
 05 10 2013  04 39  -21.0191 26017.0 -03493.9 -07.6487 26250.5
 05 10 2013  04 40  -21.0191 26017.1 -03494.0 -07.6487 26250.6
 05 10 2013  04 41  -21.0191 26017.1 -03494.0 -07.6488 26250.7
 05 10 2013  04 42  -21.0191 26017.2 -03494.0 -07.6488 26250.8
 05 10 2013  04 43  -21.0191 26017.2 -03494.0 -07.6489 26250.8
 05 10 2013  04 44  -21.0190 26017.3 -03494.0 -07.6489 26250.8
 05 10 2013  04 45  -21.0190 26017.3 -03494.1 -07.6489 26250.9
 05 10 2013  04 46  -21.0190 26017.3 -03494.1 -07.6489 26250.9
 05 10 2013  04 47  -21.0188 26017.3 -03494.0 -07.6488 26250.8
 05 10 2013  04 48  -21.0187 26017.2 -03494.0 -07.6488 26250.8
 05 10 2013  04 49  -21.0186 26017.2 -03494.0 -07.6488 26250.8
 05 10 2013  04 50  -21.0186 26017.2 -03494.0 -07.6487 26250.7
 05 10 2013  04 51  -21.0185 26017.2 -03494.0 -07.6488 26250.8
 05 10 2013  04 52  -21.0186 26017.2 -03494.0 -07.6488 26250.8
 05 10 2013  04 53  -21.0187 26017.2 -03494.0 -07.6489 26250.8
 05 10 2013  04 54  -21.0187 26017.3 -03494.1 -07.6489 26250.9
 05 10 2013  04 55  -21.0188 26017.4 -03494.1 -07.6490 26251.0
 05 10 2013  04 56  -21.0189 26017.4 -03494.1 -07.6490 26251.0
 05 10 2013  04 57  -21.0190 26017.5 -03494.2 -07.6491 26251.1
 05 10 2013  04 58  -21.0190 26017.5 -03494.1 -07.6490 26251.1
 05 10 2013  04 59  -21.0190 26017.5 -03494.2 -07.6491 26251.1
 05 10 2013  05 00  -21.0190 26017.5 -03494.1 -07.6490 26251.1
 05 10 2013  05 01  -21.0190 26017.6 -03494.1 -07.6490 26251.2
 05 10 2013  05 02  -21.0190 26017.5 -03494.1 -07.6490 26251.1
 05 10 2013  05 03  -21.0190 26017.5 -03494.1 -07.6490 26251.1
 05 10 2013  05 04  -21.0190 26017.5 -03494.1 -07.6489 26251.1
 05 10 2013  05 05  -21.0192 26017.5 -03494.1 -07.6489 26251.0
 05 10 2013  05 06  -21.0193 26017.5 -03494.1 -07.6489 26251.0
 05 10 2013  05 07  -21.0193 26017.5 -03494.1 -07.6489 26251.1
 05 10 2013  05 08  -21.0193 26017.5 -03494.1 -07.6490 26251.1
 05 10 2013  05 09  -21.0195 26017.6 -03494.1 -07.6490 26251.1
 05 10 2013  05 10  -21.0195 26017.6 -03494.1 -07.6490 26251.2
 05 10 2013  05 11  -21.0196 26017.6 -03494.2 -07.6490 26251.2
 05 10 2013  05 12  -21.0197 26017.7 -03494.2 -07.6490 26251.3
 05 10 2013  05 13  -21.0197 26017.7 -03494.2 -07.6490 26251.3
 05 10 2013  05 14  -21.0199 26017.8 -03494.2 -07.6491 26251.4
 05 10 2013  05 15  -21.0198 26017.9 -03494.2 -07.6490 26251.4
 05 10 2013  05 16  -21.0199 26017.9 -03494.2 -07.6491 26251.5
 05 10 2013  05 17  -21.0199 26017.9 -03494.2 -07.6490 26251.5
 05 10 2013  05 18  -21.0200 26017.9 -03494.2 -07.6491 26251.5
 05 10 2013  05 19  -21.0200 26017.8 -03494.1 -07.6489 26251.4
 05 10 2013  05 20  -21.0202 26017.8 -03494.1 -07.6489 26251.4
 05 10 2013  05 21  -21.0203 26017.9 -03494.1 -07.6489 26251.4
 05 10 2013  05 22  -21.0204 26017.9 -03494.2 -07.6489 26251.5
 05 10 2013  05 23  -21.0204 26018.0 -03494.2 -07.6490 26251.5
 05 10 2013  05 24  -21.0206 26018.0 -03494.2 -07.6490 26251.6
 05 10 2013  05 25  -21.0205 26018.1 -03494.2 -07.6490 26251.6
 05 10 2013  05 26  -21.0205 26018.1 -03494.2 -07.6491 26251.7
 05 10 2013  05 27  -21.0204 26018.2 -03494.2 -07.6490 26251.7
 05 10 2013  05 28  -21.0205 26018.2 -03494.2 -07.6490 26251.8
 05 10 2013  05 29  -21.0205 26018.2 -03494.3 -07.6490 26251.8
 05 10 2013  05 30  -21.0205 26018.3 -03494.2 -07.6490 26251.9
 05 10 2013  05 31  -21.0206 26018.3 -03494.3 -07.6490 26251.9
 05 10 2013  05 32  -21.0206 26018.3 -03494.3 -07.6490 26251.9
 05 10 2013  05 33  -21.0207 26018.4 -03494.2 -07.6490 26252.0
 05 10 2013  05 34  -21.0206 26018.4 -03494.3 -07.6490 26252.0
 05 10 2013  05 35  -21.0206 26018.4 -03494.2 -07.6490 26252.0
 05 10 2013  05 36  -21.0207 26018.4 -03494.2 -07.6490 26252.0
 05 10 2013  05 37  -21.0207 26018.3 -03494.2 -07.6489 26251.9
 05 10 2013  05 38  -21.0207 26018.3 -03494.2 -07.6489 26251.9
 05 10 2013  05 39  -21.0208 26018.3 -03494.1 -07.6488 26251.8
 05 10 2013  05 40  -21.0209 26018.2 -03494.2 -07.6489 26251.8
 05 10 2013  05 41  -21.0209 26018.2 -03494.2 -07.6488 26251.8
 05 10 2013  05 42  -21.0210 26018.3 -03494.2 -07.6489 26251.8
 05 10 2013  05 43  -21.0211 26018.3 -03494.2 -07.6489 26251.8
 05 10 2013  05 44  -21.0211 26018.3 -03494.2 -07.6489 26251.8
 05 10 2013  05 45  -21.0211 26018.3 -03494.1 -07.6488 26251.9
 05 10 2013  05 46  -21.0211 26018.3 -03494.2 -07.6489 26251.9
 05 10 2013  05 47  -21.0212 26018.3 -03494.2 -07.6489 26251.9
 05 10 2013  05 48  -21.0211 26018.3 -03494.2 -07.6489 26251.9
 05 10 2013  05 49  -21.0212 26018.3 -03494.2 -07.6489 26251.9
 05 10 2013  05 50  -21.0212 26018.3 -03494.2 -07.6489 26251.9
 05 10 2013  05 51  -21.0212 26018.4 -03494.2 -07.6490 26251.9
 05 10 2013  05 52  -21.0213 26018.4 -03494.2 -07.6489 26252.0
 05 10 2013  05 53  -21.0213 26018.4 -03494.3 -07.6490 26252.0
 05 10 2013  05 54  -21.0212 26018.4 -03494.3 -07.6490 26252.0
 05 10 2013  05 55  -21.0212 26018.4 -03494.2 -07.6489 26252.0
 05 10 2013  05 56  -21.0211 26018.4 -03494.2 -07.6489 26252.0
 05 10 2013  05 57  -21.0211 26018.4 -03494.2 -07.6489 26252.0
 05 10 2013  05 58  -21.0211 26018.4 -03494.2 -07.6489 26252.0
 05 10 2013  05 59  -21.0211 26018.5 -03494.2 -07.6490 26252.0
 05 10 2013  06 00  -21.0211 26018.4 -03494.2 -07.6489 26252.0
 05 10 2013  06 01  -21.0211 26018.4 -03494.2 -07.6490 26252.0
 05 10 2013  06 02  -21.0211 26018.5 -03494.3 -07.6490 26252.0
 05 10 2013  06 03  -21.0211 26018.5 -03494.3 -07.6490 26252.1
 05 10 2013  06 04  -21.0211 26018.5 -03494.3 -07.6490 26252.1
 05 10 2013  06 05  -21.0211 26018.5 -03494.3 -07.6490 26252.1
 05 10 2013  06 06  -21.0211 26018.5 -03494.3 -07.6490 26252.1
 05 10 2013  06 07  -21.0211 26018.5 -03494.3 -07.6490 26252.1
 05 10 2013  06 08  -21.0210 26018.4 -03494.3 -07.6490 26252.0
 05 10 2013  06 09  -21.0210 26018.4 -03494.3 -07.6490 26252.0
 05 10 2013  06 10  -21.0209 26018.5 -03494.3 -07.6491 26252.1
 05 10 2013  06 11  -21.0210 26018.5 -03494.3 -07.6492 26252.1
 05 10 2013  06 12  -21.0209 26018.6 -03494.3 -07.6491 26252.2
 05 10 2013  06 13  -21.0209 26018.6 -03494.3 -07.6491 26252.2
 05 10 2013  06 14  -21.0209 26018.6 -03494.3 -07.6491 26252.2
 05 10 2013  06 15  -21.0208 26018.7 -03494.4 -07.6492 26252.3
 05 10 2013  06 16  -21.0208 26018.7 -03494.4 -07.6492 26252.3
 05 10 2013  06 17  -21.0208 26018.8 -03494.4 -07.6492 26252.4
 05 10 2013  06 18  -21.0208 26018.8 -03494.4 -07.6493 26252.4
 05 10 2013  06 19  -21.0206 26018.9 -03494.4 -07.6492 26252.5
 05 10 2013  06 20  -21.0206 26018.9 -03494.5 -07.6493 26252.5
 05 10 2013  06 21  -21.0205 26018.9 -03494.5 -07.6493 26252.5
 05 10 2013  06 22  -21.0204 26018.9 -03494.5 -07.6493 26252.6
 05 10 2013  06 23  -21.0203 26018.9 -03494.5 -07.6494 26252.5
 05 10 2013  06 24  -21.0202 26018.9 -03494.5 -07.6493 26252.5
 05 10 2013  06 25  -21.0201 26018.9 -03494.5 -07.6494 26252.5
 05 10 2013  06 26  -21.0199 26018.9 -03494.5 -07.6493 26252.5
 05 10 2013  06 27  -21.0199 26018.9 -03494.5 -07.6494 26252.5
 05 10 2013  06 28  -21.0198 26018.9 -03494.5 -07.6493 26252.5
 05 10 2013  06 29  -21.0197 26018.9 -03494.5 -07.6494 26252.5
 05 10 2013  06 30  -21.0197 26018.9 -03494.5 -07.6494 26252.5
 05 10 2013  06 31  -21.0197 26018.9 -03494.5 -07.6495 26252.5
 05 10 2013  06 32  -21.0196 26018.8 -03494.5 -07.6494 26252.4
 05 10 2013  06 33  -21.0197 26018.8 -03494.6 -07.6495 26252.4
 05 10 2013  06 34  -21.0197 26018.8 -03494.6 -07.6496 26252.5
 05 10 2013  06 35  -21.0195 26018.9 -03494.6 -07.6496 26252.5
 05 10 2013  06 36  -21.0194 26018.9 -03494.6 -07.6496 26252.5
 05 10 2013  06 37  -21.0195 26018.9 -03494.7 -07.6497 26252.5
 05 10 2013  06 38  -21.0195 26018.9 -03494.7 -07.6497 26252.5
 05 10 2013  06 39  -21.0195 26019.0 -03494.7 -07.6498 26252.6
 05 10 2013  06 40  -21.0194 26019.0 -03494.7 -07.6498 26252.6
 05 10 2013  06 41  -21.0194 26019.0 -03494.7 -07.6498 26252.7
 05 10 2013  06 42  -21.0193 26019.1 -03494.7 -07.6498 26252.7
 05 10 2013  06 43  -21.0191 26019.0 -03494.7 -07.6497 26252.7
 05 10 2013  06 44  -21.0191 26019.0 -03494.7 -07.6498 26252.7
 05 10 2013  06 45  -21.0189 26019.0 -03494.7 -07.6499 26252.7
 05 10 2013  06 46  -21.0188 26019.0 -03494.7 -07.6499 26252.6
 05 10 2013  06 47  -21.0188 26019.0 -03494.8 -07.6499 26252.7
 05 10 2013  06 48  -21.0187 26019.0 -03494.8 -07.6499 26252.7
 05 10 2013  06 49  -21.0186 26019.1 -03494.8 -07.6500 26252.7
 05 10 2013  06 50  -21.0185 26019.2 -03494.8 -07.6500 26252.8
 05 10 2013  06 51  -21.0185 26019.2 -03494.9 -07.6501 26252.9
 05 10 2013  06 52  -21.0184 26019.3 -03494.9 -07.6502 26252.9
 05 10 2013  06 53  -21.0182 26019.3 -03494.9 -07.6502 26253.0
 05 10 2013  06 54  -21.0180 26019.3 -03495.0 -07.6503 26253.0
 05 10 2013  06 55  -21.0179 26019.3 -03495.0 -07.6503 26253.0
 05 10 2013  06 56  -21.0179 26019.3 -03495.0 -07.6503 26253.0
 05 10 2013  06 57  -21.0179 26019.3 -03495.0 -07.6503 26253.0
 05 10 2013  06 58  -21.0178 26019.3 -03495.0 -07.6504 26253.0
 05 10 2013  06 59  -21.0178 26019.3 -03495.0 -07.6503 26253.0
 05 10 2013  07 00  -21.0177 26019.4 -03495.0 -07.6503 26253.0
 05 10 2013  07 01  -21.0176 26019.4 -03495.0 -07.6504 26253.0
 05 10 2013  07 02  -21.0175 26019.3 -03495.0 -07.6504 26253.0
 05 10 2013  07 03  -21.0174 26019.3 -03495.0 -07.6503 26253.0
 05 10 2013  07 04  -21.0173 26019.4 -03495.0 -07.6504 26253.0
 05 10 2013  07 05  -21.0173 26019.3 -03495.0 -07.6503 26253.0
 05 10 2013  07 06  -21.0173 26019.4 -03495.0 -07.6503 26253.1
 05 10 2013  07 07  -21.0172 26019.4 -03495.0 -07.6504 26253.1
 05 10 2013  07 08  -21.0170 26019.5 -03495.0 -07.6504 26253.1
 05 10 2013  07 09  -21.0169 26019.5 -03495.0 -07.6504 26253.1
 05 10 2013  07 10  -21.0168 26019.4 -03495.0 -07.6503 26253.1
 05 10 2013  07 11  -21.0166 26019.4 -03495.0 -07.6503 26253.1
 05 10 2013  07 12  -21.0164 26019.5 -03495.0 -07.6504 26253.2
 05 10 2013  07 13  -21.0163 26019.4 -03495.0 -07.6503 26253.1
 05 10 2013  07 14  -21.0162 26019.4 -03495.0 -07.6504 26253.1
 05 10 2013  07 15  -21.0162 26019.4 -03495.0 -07.6504 26253.1
 05 10 2013  07 16  -21.0161 26019.4 -03495.1 -07.6505 26253.1
 05 10 2013  07 17  -21.0161 26019.4 -03495.1 -07.6505 26253.1
 05 10 2013  07 18  -21.0160 26019.4 -03495.1 -07.6506 26253.1
 05 10 2013  07 19  -21.0159 26019.4 -03495.1 -07.6506 26253.1
 05 10 2013  07 20  -21.0158 26019.4 -03495.1 -07.6506 26253.1
 05 10 2013  07 21  -21.0158 26019.3 -03495.1 -07.6506 26253.0
 05 10 2013  07 22  -21.0158 26019.3 -03495.1 -07.6506 26253.0
 05 10 2013  07 23  -21.0157 26019.2 -03495.1 -07.6506 26252.9
 05 10 2013  07 24  -21.0156 26019.2 -03495.1 -07.6507 26252.9
 05 10 2013  07 25  -21.0156 26019.2 -03495.1 -07.6507 26252.9
 05 10 2013  07 26  -21.0156 26019.3 -03495.2 -07.6507 26253.0
 05 10 2013  07 27  -21.0155 26019.3 -03495.2 -07.6507 26253.0
 05 10 2013  07 28  -21.0154 26019.3 -03495.2 -07.6507 26253.0
 05 10 2013  07 29  -21.0154 26019.3 -03495.2 -07.6508 26253.0
 05 10 2013  07 30  -21.0153 26019.3 -03495.2 -07.6507 26253.0
 05 10 2013  07 31  -21.0152 26019.4 -03495.2 -07.6507 26253.1
 05 10 2013  07 32  -21.0152 26019.4 -03495.2 -07.6508 26253.1
 05 10 2013  07 33  -21.0151 26019.3 -03495.2 -07.6508 26253.0
 05 10 2013  07 34  -21.0150 26019.3 -03495.2 -07.6507 26253.0
 05 10 2013  07 35  -21.0149 26019.3 -03495.2 -07.6508 26253.0
 05 10 2013  07 36  -21.0149 26019.2 -03495.1 -07.6507 26252.9
 05 10 2013  07 37  -21.0149 26019.2 -03495.1 -07.6506 26252.9
 05 10 2013  07 38  -21.0148 26019.1 -03495.1 -07.6507 26252.8
 05 10 2013  07 39  -21.0149 26019.1 -03495.1 -07.6507 26252.8
 05 10 2013  07 40  -21.0149 26019.1 -03495.1 -07.6507 26252.8
 05 10 2013  07 41  -21.0150 26019.1 -03495.1 -07.6507 26252.8
 05 10 2013  07 42  -21.0151 26019.1 -03495.2 -07.6508 26252.8
 05 10 2013  07 43  -21.0151 26019.1 -03495.2 -07.6508 26252.8
 05 10 2013  07 44  -21.0151 26019.1 -03495.2 -07.6509 26252.8
 05 10 2013  07 45  -21.0151 26019.1 -03495.3 -07.6510 26252.8
 05 10 2013  07 46  -21.0150 26019.1 -03495.3 -07.6510 26252.8
 05 10 2013  07 47  -21.0148 26019.0 -03495.2 -07.6510 26252.7
 05 10 2013  07 48  -21.0147 26018.9 -03495.1 -07.6508 26252.6
 05 10 2013  07 49  -21.0147 26018.7 -03495.1 -07.6508 26252.4
 05 10 2013  07 50  -21.0147 26018.6 -03495.1 -07.6507 26252.3
 05 10 2013  07 51  -21.0149 26018.5 -03495.1 -07.6507 26252.2
 05 10 2013  07 52  -21.0150 26018.4 -03495.1 -07.6508 26252.1
 05 10 2013  07 53  -21.0151 26018.4 -03495.1 -07.6508 26252.1
 05 10 2013  07 54  -21.0153 26018.4 -03495.1 -07.6509 26252.1
 05 10 2013  07 55  -21.0153 26018.5 -03495.2 -07.6510 26252.2
 05 10 2013  07 56  -21.0152 26018.5 -03495.2 -07.6511 26252.3
 05 10 2013  07 57  -21.0152 26018.6 -03495.3 -07.6511 26252.3
 05 10 2013  07 58  -21.0149 26018.6 -03495.2 -07.6511 26252.3
 05 10 2013  07 59  -21.0148 26018.6 -03495.3 -07.6511 26252.3
 05 10 2013  08 00  -21.0147 26018.7 -03495.3 -07.6512 26252.4
 05 10 2013  08 01  -21.0145 26018.6 -03495.3 -07.6512 26252.4
 05 10 2013  08 02  -21.0143 26018.6 -03495.3 -07.6511 26252.3
 05 10 2013  08 03  -21.0143 26018.5 -03495.2 -07.6511 26252.2
 05 10 2013  08 04  -21.0143 26018.5 -03495.3 -07.6511 26252.2
 05 10 2013  08 05  -21.0142 26018.5 -03495.3 -07.6512 26252.2
 05 10 2013  08 06  -21.0143 26018.4 -03495.3 -07.6512 26252.1
 05 10 2013  08 07  -21.0144 26018.4 -03495.3 -07.6513 26252.1
 05 10 2013  08 08  -21.0143 26018.3 -03495.3 -07.6512 26252.0
 05 10 2013  08 09  -21.0144 26018.3 -03495.3 -07.6512 26252.0
 05 10 2013  08 10  -21.0143 26018.3 -03495.3 -07.6513 26252.0
 05 10 2013  08 11  -21.0144 26018.3 -03495.3 -07.6513 26252.0
 05 10 2013  08 12  -21.0143 26018.3 -03495.3 -07.6512 26252.0
 05 10 2013  08 13  -21.0143 26018.2 -03495.3 -07.6513 26252.0
 05 10 2013  08 14  -21.0142 26018.2 -03495.3 -07.6512 26251.9
 05 10 2013  08 15  -21.0141 26018.2 -03495.3 -07.6512 26251.9
 05 10 2013  08 16  -21.0141 26018.2 -03495.3 -07.6513 26252.0
 05 10 2013  08 17  -21.0140 26018.2 -03495.3 -07.6513 26251.9
 05 10 2013  08 18  -21.0139 26018.2 -03495.3 -07.6513 26251.9
 05 10 2013  08 19  -21.0137 26018.1 -03495.3 -07.6513 26251.9
 05 10 2013  08 20  -21.0136 26018.2 -03495.2 -07.6512 26251.9
 05 10 2013  08 21  -21.0136 26018.2 -03495.3 -07.6513 26251.9
 05 10 2013  08 22  -21.0135 26018.1 -03495.3 -07.6513 26251.8
 05 10 2013  08 23  -21.0135 26018.1 -03495.3 -07.6513 26251.8
 05 10 2013  08 24  -21.0134 26018.1 -03495.3 -07.6513 26251.8
 05 10 2013  08 25  -21.0132 26018.1 -03495.2 -07.6512 26251.8
 05 10 2013  08 26  -21.0130 26018.0 -03495.2 -07.6511 26251.8
 05 10 2013  08 27  -21.0129 26018.0 -03495.1 -07.6511 26251.7
 05 10 2013  08 28  -21.0128 26017.9 -03495.1 -07.6510 26251.7
 05 10 2013  08 29  -21.0126 26017.9 -03495.1 -07.6509 26251.6
 05 10 2013  08 30  -21.0125 26017.8 -03495.0 -07.6509 26251.5
 05 10 2013  08 31  -21.0122 26017.8 -03495.0 -07.6509 26251.5
 05 10 2013  08 32  -21.0119 26017.8 -03495.1 -07.6509 26251.5
 05 10 2013  08 33  -21.0115 26017.7 -03495.1 -07.6510 26251.4
 05 10 2013  08 34  -21.0111 26017.7 -03495.1 -07.6509 26251.4
 05 10 2013  08 35  -21.0108 26017.7 -03495.1 -07.6510 26251.4
 05 10 2013  08 36  -21.0106 26017.6 -03495.1 -07.6511 26251.4
 05 10 2013  08 37  -21.0103 26017.6 -03495.2 -07.6513 26251.3
 05 10 2013  08 38  -21.0101 26017.5 -03495.3 -07.6514 26251.3
 05 10 2013  08 39  -21.0098 26017.5 -03495.3 -07.6516 26251.2
 05 10 2013  08 40  -21.0097 26017.5 -03495.2 -07.6514 26251.2
 05 10 2013  08 41  -21.0094 26017.4 -03495.4 -07.6519 26251.1
 05 10 2013  08 42  -21.0092 26017.3 -03495.5 -07.6520 26251.1
 05 10 2013  08 43  -21.0089 26017.3 -03495.6 -07.6522 26251.1
 05 10 2013  08 44  -21.0087 26017.3 -03495.7 -07.6525 26251.1
 05 10 2013  08 45  -21.0084 26017.2 -03495.8 -07.6526 26251.0
 05 10 2013  08 46  -21.0082 26017.2 -03495.9 -07.6529 26251.1
 05 10 2013  08 47  -21.0080 26017.3 -03496.0 -07.6531 26251.1
 05 10 2013  08 48  -21.0077 26017.3 -03496.1 -07.6533 26251.1
 05 10 2013  08 49  -21.0076 26017.3 -03496.2 -07.6536 26251.1
 05 10 2013  08 50  -21.0076 26017.3 -03496.4 -07.6540 26251.2
 05 10 2013  08 51  -21.0075 26017.4 -03496.5 -07.6542 26251.3
 05 10 2013  08 52  -21.0075 26017.4 -03496.6 -07.6544 26251.3
 05 10 2013  08 53  -21.0075 26017.4 -03496.8 -07.6547 26251.4
 05 10 2013  08 54  -21.0074 26017.5 -03496.8 -07.6548 26251.4
 05 10 2013  08 55  -21.0075 26017.5 -03497.0 -07.6551 26251.5
 05 10 2013  08 56  -21.0075 26017.6 -03497.1 -07.6554 26251.6
 05 10 2013  08 57  -21.0074 26017.7 -03497.3 -07.6557 26251.7
 05 10 2013  08 58  -21.0074 26018.0 -03497.4 -07.6560 26252.0
 05 10 2013  08 59  -21.0073 26018.1 -03497.6 -07.6563 26252.2
 05 10 2013  09 00  -21.0073 26018.2 -03497.6 -07.6564 26252.3
 05 10 2013  09 01  -21.0081 26018.5 -03497.8 -07.6568 26252.6
 05 10 2013  09 02  -21.0083 26018.6 -03497.9 -07.6569 26252.7
 05 10 2013  09 03  -21.0083 26018.7 -03498.0 -07.6570 26252.8
 05 10 2013  09 04  -21.0085 26018.8 -03498.0 -07.6570 26252.9
 05 10 2013  09 05  -21.0086 26018.9 -03498.1 -07.6572 26253.0
 05 10 2013  09 06  -21.0087 26018.9 -03498.1 -07.6572 26253.0
 05 10 2013  09 07  -21.0087 26018.7 -03498.1 -07.6572 26252.8
 05 10 2013  09 08  -21.0091 26018.7 -03498.1 -07.6572 26252.8
 05 10 2013  09 09  -21.0099 26018.8 -03498.1 -07.6573 26252.9
 05 10 2013  09 10  -21.0106 26018.9 -03498.2 -07.6574 26253.0
 05 10 2013  09 11  -21.0111 26018.9 -03498.2 -07.6573 26253.0
 05 10 2013  09 12  -21.0115 26018.9 -03498.1 -07.6573 26253.0
 05 10 2013  09 13  -21.0119 26018.9 -03498.1 -07.6573 26253.0
 05 10 2013  09 14  -21.0121 26018.8 -03498.1 -07.6573 26252.9
 05 10 2013  09 15  -21.0121 26018.8 -03498.1 -07.6572 26252.9
 05 10 2013  09 16  -21.0119 26018.8 -03498.1 -07.6573 26252.9
 05 10 2013  09 17  -21.0118 26018.7 -03498.2 -07.6573 26252.8
 05 10 2013  09 18  -21.0120 26018.9 -03498.3 -07.6575 26253.0
 05 10 2013  09 19  -21.0119 26019.0 -03498.4 -07.6577 26253.1
 05 10 2013  09 20  -21.0120 26019.1 -03498.4 -07.6579 26253.3
 05 10 2013  09 21  -21.0121 26019.3 -03498.6 -07.6580 26253.5
 05 10 2013  09 22  -21.0124 26019.5 -03498.7 -07.6582 26253.7
 05 10 2013  09 23  -21.0127 26019.8 -03498.8 -07.6584 26253.9
 05 10 2013  09 24  -21.0131 26020.0 -03498.8 -07.6585 26254.1
 05 10 2013  09 25  -21.0135 26020.2 -03498.9 -07.6586 26254.4
 05 10 2013  09 26  -21.0139 26020.3 -03498.9 -07.6585 26254.5
 05 10 2013  09 27  -21.0144 26020.5 -03498.9 -07.6585 26254.7
 05 10 2013  09 28  -21.0149 26020.6 -03499.0 -07.6586 26254.8
 05 10 2013  09 29  -21.0154 26020.7 -03499.0 -07.6586 26254.9
 05 10 2013  09 30  -21.0157 26020.8 -03499.0 -07.6585 26255.0
 05 10 2013  09 31  -21.0160 26020.9 -03499.0 -07.6585 26255.1
 05 10 2013  09 32  -21.0162 26021.0 -03499.0 -07.6585 26255.2
 05 10 2013  09 33  -21.0160 26021.1 -03499.0 -07.6585 26255.3
 05 10 2013  09 34  -21.0161 26021.1 -03499.0 -07.6585 26255.3
 05 10 2013  09 35  -21.0164 26021.3 -03499.1 -07.6585 26255.5
 05 10 2013  09 36  -21.0169 26021.6 -03499.1 -07.6586 26255.8
 05 10 2013  09 37  -21.0173 26021.9 -03499.2 -07.6586 26256.1
 05 10 2013  09 38  -21.0178 26022.1 -03499.2 -07.6585 26256.3
 05 10 2013  09 39  -21.0185 26022.4 -03499.1 -07.6584 26256.6
 05 10 2013  09 40  -21.0190 26022.5 -03499.1 -07.6583 26256.7
 05 10 2013  09 41  -21.0194 26022.6 -03499.0 -07.6581 26256.8
 05 10 2013  09 42  -21.0196 26022.6 -03498.9 -07.6579 26256.8
 05 10 2013  09 43  -21.0198 26022.5 -03498.8 -07.6577 26256.7
 05 10 2013  09 44  -21.0200 26022.5 -03498.8 -07.6576 26256.7
 05 10 2013  09 45  -21.0200 26022.4 -03498.7 -07.6574 26256.5
 05 10 2013  09 46  -21.0198 26022.2 -03498.6 -07.6573 26256.3
 05 10 2013  09 47  -21.0195 26022.0 -03498.5 -07.6572 26256.1
 05 10 2013  09 48  -21.0196 26022.0 -03498.5 -07.6572 26256.1
 05 10 2013  09 49  -21.0197 26022.1 -03498.6 -07.6573 26256.3
 05 10 2013  09 50  -21.0200 26022.4 -03498.7 -07.6575 26256.5
 05 10 2013  09 51  -21.0204 26022.7 -03498.8 -07.6577 26256.9
 05 10 2013  09 52  -21.0210 26023.1 -03499.0 -07.6578 26257.3
 05 10 2013  09 53  -21.0213 26023.5 -03499.0 -07.6578 26257.6
 05 10 2013  09 54  -21.0217 26023.7 -03499.0 -07.6577 26257.9
 05 10 2013  09 55  -21.0220 26023.9 -03498.9 -07.6575 26258.1
 05 10 2013  09 56  -21.0225 26024.1 -03499.0 -07.6575 26258.3
 05 10 2013  09 57  -21.0226 26024.4 -03499.0 -07.6575 26258.5
 05 10 2013  09 58  -21.0228 26024.6 -03499.0 -07.6574 26258.7
 05 10 2013  09 59  -21.0229 26024.9 -03499.0 -07.6574 26259.0
 05 10 2013  10 00  -21.0229 26025.0 -03499.0 -07.6573 26259.2
 05 10 2013  10 01  -21.0229 26025.0 -03498.9 -07.6571 26259.2
 05 10 2013  10 02  -21.0232 26025.2 -03498.8 -07.6569 26259.3
 05 10 2013  10 03  -21.0237 26025.3 -03498.8 -07.6569 26259.5
 05 10 2013  10 04  -21.0241 26025.5 -03498.8 -07.6568 26259.6
 05 10 2013  10 05  -21.0245 26025.6 -03498.8 -07.6567 26259.7
 05 10 2013  10 06  -21.0247 26025.7 -03498.7 -07.6565 26259.9
 05 10 2013  10 07  -21.0252 26026.0 -03498.7 -07.6564 26260.1
 05 10 2013  10 08  -21.0255 26026.2 -03498.7 -07.6563 26260.3
 05 10 2013  10 09  -21.0258 26026.4 -03498.6 -07.6561 26260.5
 05 10 2013  10 10  -21.0262 26026.5 -03498.6 -07.6560 26260.6
 05 10 2013  10 11  -21.0266 26026.7 -03498.5 -07.6559 26260.7
 05 10 2013  10 12  -21.0270 26026.8 -03498.5 -07.6557 26260.9
 05 10 2013  10 13  -21.0273 26026.8 -03498.4 -07.6556 26260.9
 05 10 2013  10 14  -21.0276 26026.9 -03498.4 -07.6555 26261.0
 05 10 2013  10 15  -21.0280 26027.1 -03498.4 -07.6555 26261.1
 05 10 2013  10 16  -21.0281 26027.2 -03498.4 -07.6555 26261.3
 05 10 2013  10 17  -21.0283 26027.4 -03498.4 -07.6554 26261.4
 05 10 2013  10 18  -21.0286 26027.6 -03498.5 -07.6554 26261.7
 05 10 2013  10 19  -21.0289 26027.9 -03498.5 -07.6554 26261.9
 05 10 2013  10 20  -21.0289 26028.1 -03498.4 -07.6552 26262.1
 05 10 2013  10 21  -21.0294 26028.4 -03498.4 -07.6552 26262.4
 05 10 2013  10 22  -21.0300 26028.7 -03498.5 -07.6551 26262.8
 05 10 2013  10 23  -21.0306 26029.1 -03498.4 -07.6550 26263.1
 05 10 2013  10 24  -21.0311 26029.4 -03498.4 -07.6547 26263.4
 05 10 2013  10 25  -21.0317 26029.7 -03498.3 -07.6545 26263.7
 05 10 2013  10 26  -21.0322 26030.0 -03498.3 -07.6544 26264.0
 05 10 2013  10 27  -21.0325 26030.3 -03498.2 -07.6540 26264.3
 05 10 2013  10 28  -21.0326 26030.5 -03498.1 -07.6538 26264.5
 05 10 2013  10 29  -21.0328 26030.8 -03498.0 -07.6534 26264.8
 05 10 2013  10 30  -21.0331 26031.0 -03497.9 -07.6531 26265.0
 05 10 2013  10 31  -21.0333 26031.3 -03497.7 -07.6528 26265.3
 05 10 2013  10 32  -21.0335 26031.5 -03497.6 -07.6524 26265.4
 05 10 2013  10 33  -21.0338 26031.8 -03497.5 -07.6521 26265.7
 05 10 2013  10 34  -21.0342 26032.1 -03497.4 -07.6518 26266.0
 05 10 2013  10 35  -21.0345 26032.4 -03497.3 -07.6515 26266.2
 05 10 2013  10 36  -21.0349 26032.7 -03497.2 -07.6512 26266.5
 05 10 2013  10 37  -21.0352 26033.0 -03497.1 -07.6510 26266.9
 05 10 2013  10 38  -21.0353 26033.4 -03497.0 -07.6507 26267.2
 05 10 2013  10 39  -21.0355 26033.7 -03497.0 -07.6505 26267.5
 05 10 2013  10 40  -21.0355 26034.1 -03496.9 -07.6502 26267.9
 05 10 2013  10 41  -21.0356 26034.4 -03496.8 -07.6498 26268.2
 05 10 2013  10 42  -21.0355 26034.8 -03496.7 -07.6495 26268.6
 05 10 2013  10 43  -21.0357 26035.0 -03496.6 -07.6492 26268.8
 05 10 2013  10 44  -21.0358 26035.4 -03496.4 -07.6488 26269.1
 05 10 2013  10 45  -21.0358 26035.7 -03496.4 -07.6485 26269.4
 05 10 2013  10 46  -21.0359 26036.1 -03496.2 -07.6482 26269.8
 05 10 2013  10 47  -21.0360 26036.4 -03496.2 -07.6479 26270.1
 05 10 2013  10 48  -21.0361 26036.8 -03496.1 -07.6476 26270.5
 05 10 2013  10 49  -21.0364 26037.1 -03496.0 -07.6472 26270.8
 05 10 2013  10 50  -21.0368 26037.5 -03495.9 -07.6470 26271.1
 05 10 2013  10 51  -21.0371 26038.0 -03495.8 -07.6467 26271.6
 05 10 2013  10 52  -21.0373 26038.4 -03495.8 -07.6465 26272.0
 05 10 2013  10 53  -21.0373 26038.9 -03495.7 -07.6461 26272.5
 05 10 2013  10 54  -21.0373 26039.4 -03495.6 -07.6458 26273.0
 05 10 2013  10 55  -21.0372 26040.0 -03495.6 -07.6456 26273.5
 05 10 2013  10 56  -21.0372 26040.5 -03495.5 -07.6452 26274.1
 05 10 2013  10 57  -21.0374 26041.2 -03495.5 -07.6450 26274.7
 05 10 2013  10 58  -21.0372 26041.9 -03495.4 -07.6447 26275.5
 05 10 2013  10 59  -21.0372 26042.5 -03495.2 -07.6441 26276.0
 05 10 2013  11 00  -21.0371 26042.9 -03495.0 -07.6435 26276.4
 05 10 2013  11 01  -21.0370 26043.3 -03494.8 -07.6428 26276.8
 05 10 2013  11 02  -21.0371 26043.6 -03494.5 -07.6422 26277.0
 05 10 2013  11 03  -21.0374 26043.9 -03494.3 -07.6417 26277.3
 05 10 2013  11 04  -21.0376 26044.2 -03494.1 -07.6412 26277.6
 05 10 2013  11 05  -21.0378 26044.6 -03493.9 -07.6407 26278.0
 05 10 2013  11 06  -21.0376 26045.1 -03493.7 -07.6401 26278.4
 05 10 2013  11 07  -21.0382 26045.2 -03493.4 -07.6393 26278.4
 05 10 2013  11 08  -21.0391 26045.2 -03493.0 -07.6385 26278.4
 05 10 2013  11 09  -21.0398 26045.2 -03492.7 -07.6378 26278.3
 05 10 2013  11 10  -21.0403 26045.4 -03492.4 -07.6372 26278.5
 05 10 2013  11 11  -21.0405 26045.7 -03492.2 -07.6367 26278.8
 05 10 2013  11 12  -21.0407 26046.0 -03492.1 -07.6363 26279.1
 05 10 2013  11 13  -21.0407 26046.5 -03492.0 -07.6359 26279.5
 05 10 2013  11 14  -21.0404 26046.9 -03491.8 -07.6354 26279.9
 05 10 2013  11 15  -21.0403 26047.5 -03491.7 -07.6351 26280.5
 05 10 2013  11 16  -21.0399 26048.2 -03491.6 -07.6347 26281.1
 05 10 2013  11 17  -21.0398 26048.6 -03491.4 -07.6341 26281.5
 05 10 2013  11 18  -21.0396 26049.3 -03491.3 -07.6336 26282.2
 05 10 2013  11 19  -21.0397 26050.0 -03491.1 -07.6331 26282.9
 05 10 2013  11 20  -21.0395 26050.7 -03491.0 -07.6326 26283.6
 05 10 2013  11 21  -21.0396 26051.2 -03490.7 -07.6319 26284.1
 05 10 2013  11 22  -21.0398 26051.5 -03490.4 -07.6311 26284.3
 05 10 2013  11 23  -21.0401 26051.8 -03490.1 -07.6303 26284.5
 05 10 2013  11 24  -21.0404 26052.1 -03489.8 -07.6296 26284.8
 05 10 2013  11 25  -21.0405 26052.4 -03489.5 -07.6288 26285.0
 05 10 2013  11 26  -21.0411 26052.5 -03489.2 -07.6281 26285.1
 05 10 2013  11 27  -21.0413 26052.9 -03489.0 -07.6276 26285.4
 05 10 2013  11 28  -21.0412 26053.3 -03488.8 -07.6270 26285.9
 05 10 2013  11 29  -21.0412 26053.8 -03488.6 -07.6265 26286.4
 05 10 2013  11 30  -21.0413 26054.5 -03488.5 -07.6260 26287.0
 05 10 2013  11 31  -21.0416 26054.6 -03488.1 -07.6252 26287.1
 05 10 2013  11 32  -21.0420 26054.9 -03487.8 -07.6245 26287.3
 05 10 2013  11 33  -21.0423 26055.2 -03487.6 -07.6239 26287.6
 05 10 2013  11 34  -21.0427 26055.6 -03487.3 -07.6233 26287.9
 05 10 2013  11 35  -21.0427 26056.2 -03487.2 -07.6227 26288.5
 05 10 2013  11 36  -21.0428 26056.8 -03487.0 -07.6222 26289.1
 05 10 2013  11 37  -21.0429 26057.3 -03486.8 -07.6216 26289.6
 05 10 2013  11 38  -21.0430 26057.9 -03486.6 -07.6210 26290.2
 05 10 2013  11 39  -21.0431 26058.4 -03486.4 -07.6203 26290.6
 05 10 2013  11 40  -21.0432 26059.0 -03486.1 -07.6196 26291.2
 05 10 2013  11 41  -21.0432 26059.6 -03485.8 -07.6189 26291.7
 05 10 2013  11 42  -21.0431 26059.9 -03485.4 -07.6179 26292.0
 05 10 2013  11 43  -21.0433 26060.1 -03485.0 -07.6169 26292.1
 05 10 2013  11 44  -21.0433 26060.3 -03484.6 -07.6160 26292.2
 05 10 2013  11 45  -21.0430 26060.6 -03484.3 -07.6152 26292.5
 05 10 2013  11 46  -21.0428 26061.0 -03484.0 -07.6146 26292.9
 05 10 2013  11 47  -21.0426 26061.6 -03483.8 -07.6139 26293.4
 05 10 2013  11 48  -21.0424 26062.1 -03483.6 -07.6133 26293.9
 05 10 2013  11 49  -21.0422 26062.6 -03483.4 -07.6126 26294.4
 05 10 2013  11 50  -21.0421 26063.2 -03483.1 -07.6120 26294.9
 05 10 2013  11 51  -21.0420 26063.7 -03482.9 -07.6114 26295.4
 05 10 2013  11 52  -21.0419 26064.2 -03482.7 -07.6108 26295.8
 05 10 2013  11 53  -21.0418 26064.7 -03482.5 -07.6101 26296.3
 05 10 2013  11 54  -21.0416 26065.3 -03482.2 -07.6095 26296.9
 05 10 2013  11 55  -21.0412 26065.8 -03482.0 -07.6088 26297.4
 05 10 2013  11 56  -21.0411 26066.3 -03481.8 -07.6081 26297.8
 05 10 2013  11 57  -21.0410 26066.7 -03481.5 -07.6074 26298.1
 05 10 2013  11 58  -21.0407 26067.1 -03481.2 -07.6067 26298.5
 05 10 2013  11 59  -21.0403 26067.6 -03481.0 -07.6060 26299.0
 05 10 2013  12 00  -21.0401 26068.2 -03480.8 -07.6056 26299.6
 05 10 2013  12 01  -21.0398 26069.0 -03480.7 -07.6051 26300.3
 05 10 2013  12 02  -21.0395 26069.7 -03480.5 -07.6045 26301.0
 05 10 2013  12 03  -21.0391 26070.2 -03480.2 -07.6037 26301.4
 05 10 2013  12 04  -21.0389 26070.4 -03479.9 -07.6030 26301.6
 05 10 2013  12 05  -21.0386 26070.9 -03479.7 -07.6024 26302.1
 05 10 2013  12 06  -21.0383 26071.4 -03479.6 -07.6019 26302.6
 05 10 2013  12 07  -21.0380 26071.8 -03479.3 -07.6013 26302.9
 05 10 2013  12 08  -21.0378 26072.0 -03479.0 -07.6006 26303.1
 05 10 2013  12 09  -21.0376 26072.3 -03478.8 -07.5999 26303.3
 05 10 2013  12 10  -21.0375 26072.6 -03478.6 -07.5994 26303.6
 05 10 2013  12 11  -21.0373 26073.0 -03478.4 -07.5989 26304.0
 05 10 2013  12 12  -21.0370 26073.6 -03478.3 -07.5985 26304.5
 05 10 2013  12 13  -21.0368 26074.2 -03478.1 -07.5980 26305.1
 05 10 2013  12 14  -21.0365 26074.9 -03478.0 -07.5976 26305.8
 05 10 2013  12 15  -21.0362 26075.4 -03477.8 -07.5970 26306.3
 05 10 2013  12 16  -21.0359 26075.9 -03477.6 -07.5964 26306.8
 05 10 2013  12 17  -21.0355 26076.6 -03477.5 -07.5959 26307.5
 05 10 2013  12 18  -21.0351 26077.3 -03477.3 -07.5954 26308.1
 05 10 2013  12 19  -21.0347 26078.0 -03477.2 -07.5950 26308.8
 05 10 2013  12 20  -21.0344 26078.6 -03477.1 -07.5944 26309.4
 05 10 2013  12 21  -21.0340 26079.1 -03476.9 -07.5939 26309.9
 05 10 2013  12 22  -21.0336 26079.8 -03476.8 -07.5934 26310.5
 05 10 2013  12 23  -21.0332 26080.4 -03476.6 -07.5929 26311.1
 05 10 2013  12 24  -21.0328 26080.7 -03476.4 -07.5924 26311.4
 05 10 2013  12 25  -21.0325 26081.0 -03476.2 -07.5919 26311.7
 05 10 2013  12 26  -21.0322 26081.3 -03476.0 -07.5914 26311.9
 05 10 2013  12 27  -21.0320 26081.8 -03476.0 -07.5912 26312.4
 05 10 2013  12 28  -21.0319 26082.3 -03475.9 -07.5910 26312.9
 05 10 2013  12 29  -21.0318 26082.8 -03475.9 -07.5907 26313.4
 05 10 2013  12 30  -21.0316 26083.3 -03475.8 -07.5905 26313.9
 05 10 2013  12 31  -21.0318 26083.9 -03475.8 -07.5902 26314.4
 05 10 2013  12 32  -21.0318 26084.4 -03475.7 -07.5899 26315.0
 05 10 2013  12 33  -21.0317 26084.7 -03475.6 -07.5895 26315.2
 05 10 2013  12 34  -21.0317 26085.0 -03475.5 -07.5892 26315.5
 05 10 2013  12 35  -21.0317 26085.6 -03475.5 -07.5890 26316.1
 05 10 2013  12 36  -21.0318 26086.1 -03475.4 -07.5887 26316.6
 05 10 2013  12 37  -21.0319 26086.3 -03475.2 -07.5883 26316.7
 05 10 2013  12 38  -21.0320 26086.3 -03475.0 -07.5878 26316.7
 05 10 2013  12 39  -21.0320 26086.5 -03474.9 -07.5875 26316.9
 05 10 2013  12 40  -21.0321 26086.7 -03474.8 -07.5872 26317.1
 05 10 2013  12 41  -21.0323 26086.9 -03474.7 -07.5870 26317.3
 05 10 2013  12 42  -21.0324 26087.3 -03474.7 -07.5868 26317.7
 05 10 2013  12 43  -21.0325 26087.8 -03474.8 -07.5868 26318.2
 05 10 2013  12 44  -21.0325 26088.5 -03474.8 -07.5867 26318.9
 05 10 2013  12 45  -21.0325 26089.0 -03474.8 -07.5865 26319.4
 05 10 2013  12 46  -21.0326 26089.4 -03474.7 -07.5862 26319.8
 05 10 2013  12 47  -21.0327 26089.6 -03474.6 -07.5859 26320.0
 05 10 2013  12 48  -21.0326 26089.9 -03474.5 -07.5856 26320.3
 05 10 2013  12 49  -21.0327 26090.2 -03474.4 -07.5853 26320.6
 05 10 2013  12 50  -21.0328 26090.5 -03474.3 -07.5850 26320.8
 05 10 2013  12 51  -21.0328 26090.7 -03474.2 -07.5847 26321.0
 05 10 2013  12 52  -21.0328 26091.0 -03474.1 -07.5844 26321.2
 05 10 2013  12 53  -21.0328 26091.2 -03474.0 -07.5842 26321.4
 05 10 2013  12 54  -21.0328 26091.5 -03473.9 -07.5840 26321.7
 05 10 2013  12 55  -21.0328 26091.9 -03473.9 -07.5838 26322.1
 05 10 2013  12 56  -21.0329 26092.0 -03473.8 -07.5835 26322.3
 05 10 2013  12 57  -21.0329 26092.3 -03473.7 -07.5833 26322.5
 05 10 2013  12 58  -21.0329 26092.6 -03473.6 -07.5830 26322.8
 05 10 2013  12 59  -21.0330 26092.9 -03473.6 -07.5829 26323.1
 05 10 2013  13 00  -21.0330 26093.2 -03473.6 -07.5827 26323.4
 05 10 2013  13 01  -21.0329 26093.6 -03473.5 -07.5825 26323.8
 05 10 2013  13 02  -21.0327 26094.0 -03473.6 -07.5824 26324.2
 05 10 2013  13 03  -21.0326 26094.6 -03473.6 -07.5824 26324.8
 05 10 2013  13 04  -21.0325 26095.2 -03473.6 -07.5823 26325.4
 05 10 2013  13 05  -21.0325 26095.8 -03473.7 -07.5822 26326.0
 05 10 2013  13 06  -21.0325 26096.2 -03473.6 -07.5820 26326.4
 05 10 2013  13 07  -21.0326 26096.6 -03473.6 -07.5817 26326.8
 05 10 2013  13 08  -21.0327 26096.9 -03473.4 -07.5814 26327.1
 05 10 2013  13 09  -21.0328 26097.1 -03473.3 -07.5811 26327.2
 05 10 2013  13 10  -21.0330 26097.2 -03473.2 -07.5807 26327.3
 05 10 2013  13 11  -21.0333 26097.3 -03473.0 -07.5803 26327.4
 05 10 2013  13 12  -21.0333 26097.4 -03472.8 -07.5799 26327.4
 05 10 2013  13 13  -21.0336 26097.3 -03472.6 -07.5795 26327.3
 05 10 2013  13 14  -21.0336 26097.2 -03472.4 -07.5790 26327.2
 05 10 2013  13 15  -21.0338 26097.2 -03472.3 -07.5788 26327.1
 05 10 2013  13 16  -21.0339 26097.2 -03472.2 -07.5786 26327.2
 05 10 2013  13 17  -21.0340 26097.3 -03472.0 -07.5782 26327.3
 05 10 2013  13 18  -21.0341 26097.5 -03472.0 -07.5780 26327.5
 05 10 2013  13 19  -21.0342 26097.8 -03471.9 -07.5778 26327.8
 05 10 2013  13 20  -21.0342 26098.3 -03471.9 -07.5776 26328.2
 05 10 2013  13 21  -21.0343 26098.6 -03471.8 -07.5774 26328.5
 05 10 2013  13 22  -21.0342 26098.8 -03471.6 -07.5769 26328.7
 05 10 2013  13 23  -21.0342 26098.9 -03471.4 -07.5765 26328.8
 05 10 2013  13 24  -21.0340 26098.9 -03471.2 -07.5760 26328.7
 05 10 2013  13 25  -21.0338 26099.1 -03471.1 -07.5756 26328.9
 05 10 2013  13 26  -21.0338 26099.5 -03471.0 -07.5755 26329.3
 05 10 2013  13 27  -21.0338 26099.7 -03470.9 -07.5751 26329.5
 05 10 2013  13 28  -21.0336 26099.8 -03470.7 -07.5746 26329.6
 05 10 2013  13 29  -21.0333 26099.8 -03470.4 -07.5740 26329.5
 05 10 2013  13 30  -21.0330 26099.7 -03470.2 -07.5735 26329.4
 05 10 2013  13 31  -21.0327 26099.5 -03469.9 -07.5730 26329.2
 05 10 2013  13 32  -21.0324 26099.5 -03469.7 -07.5726 26329.2
 05 10 2013  13 33  -21.0321 26099.5 -03469.6 -07.5723 26329.1
 05 10 2013  13 34  -21.0316 26099.6 -03469.5 -07.5721 26329.2
 05 10 2013  13 35  -21.0313 26099.8 -03469.4 -07.5719 26329.4
 05 10 2013  13 36  -21.0310 26100.1 -03469.4 -07.5717 26329.7
 05 10 2013  13 37  -21.0307 26100.2 -03469.3 -07.5714 26329.8
 05 10 2013  13 38  -21.0304 26100.4 -03469.2 -07.5712 26330.0
 05 10 2013  13 39  -21.0301 26100.7 -03469.2 -07.5711 26330.2
 05 10 2013  13 40  -21.0299 26100.9 -03469.0 -07.5708 26330.4
 05 10 2013  13 41  -21.0297 26101.1 -03469.0 -07.5705 26330.6
 05 10 2013  13 42  -21.0294 26101.3 -03468.9 -07.5702 26330.8
 05 10 2013  13 43  -21.0293 26101.6 -03468.8 -07.5699 26331.0
 05 10 2013  13 44  -21.0291 26101.7 -03468.6 -07.5695 26331.1
 05 10 2013  13 45  -21.0290 26101.7 -03468.4 -07.5691 26331.1
 05 10 2013  13 46  -21.0289 26101.7 -03468.2 -07.5688 26331.1
 05 10 2013  13 47  -21.0288 26101.7 -03468.1 -07.5685 26331.1
 05 10 2013  13 48  -21.0286 26101.8 -03468.0 -07.5683 26331.2
 05 10 2013  13 49  -21.0286 26101.8 -03467.9 -07.5681 26331.2
 05 10 2013  13 50  -21.0285 26101.8 -03467.8 -07.5678 26331.2
 05 10 2013  13 51  -21.0284 26101.8 -03467.7 -07.5677 26331.2
 05 10 2013  13 52  -21.0283 26101.8 -03467.7 -07.5676 26331.1
 05 10 2013  13 53  -21.0283 26101.9 -03467.7 -07.5675 26331.2
 05 10 2013  13 54  -21.0283 26102.1 -03467.7 -07.5674 26331.4
 05 10 2013  13 55  -21.0284 26102.1 -03467.7 -07.5674 26331.4
 05 10 2013  13 56  -21.0283 26102.1 -03467.6 -07.5673 26331.4
 05 10 2013  13 57  -21.0283 26102.1 -03467.6 -07.5673 26331.4
 05 10 2013  13 58  -21.0284 26102.1 -03467.6 -07.5673 26331.4
 05 10 2013  13 59  -21.0285 26102.1 -03467.6 -07.5672 26331.4
 05 10 2013  14 00  -21.0286 26102.1 -03467.5 -07.5672 26331.4
 05 10 2013  14 01  -21.0287 26102.0 -03467.6 -07.5672 26331.3
 05 10 2013  14 02  -21.0288 26101.8 -03467.5 -07.5672 26331.2
 05 10 2013  14 03  -21.0289 26101.6 -03467.4 -07.5671 26330.9
 05 10 2013  14 04  -21.0289 26101.4 -03467.4 -07.5672 26330.7
 05 10 2013  14 05  -21.0290 26101.4 -03467.5 -07.5673 26330.7
 05 10 2013  14 06  -21.0292 26101.5 -03467.6 -07.5675 26330.8
 05 10 2013  14 07  -21.0294 26101.6 -03467.7 -07.5676 26330.9
 05 10 2013  14 08  -21.0297 26101.5 -03467.7 -07.5676 26330.8
 05 10 2013  14 09  -21.0298 26101.4 -03467.6 -07.5675 26330.8
 05 10 2013  14 10  -21.0301 26101.4 -03467.6 -07.5675 26330.7
 05 10 2013  14 11  -21.0304 26101.3 -03467.6 -07.5674 26330.7
 05 10 2013  14 12  -21.0307 26101.4 -03467.6 -07.5674 26330.7
 05 10 2013  14 13  -21.0309 26101.4 -03467.5 -07.5673 26330.7
 05 10 2013  14 14  -21.0312 26101.3 -03467.4 -07.5671 26330.6
 05 10 2013  14 15  -21.0313 26101.3 -03467.3 -07.5670 26330.6
 05 10 2013  14 16  -21.0315 26101.3 -03467.3 -07.5669 26330.6
 05 10 2013  14 17  -21.0317 26101.3 -03467.2 -07.5667 26330.6
 05 10 2013  14 18  -21.0319 26101.3 -03467.1 -07.5665 26330.5
 05 10 2013  14 19  -21.0319 26101.0 -03467.0 -07.5662 26330.3
 05 10 2013  14 20  -21.0318 26100.9 -03466.8 -07.5660 26330.1
 05 10 2013  14 21  -21.0317 26100.8 -03466.8 -07.5659 26330.0
 05 10 2013  14 22  -21.0316 26100.6 -03466.7 -07.5657 26329.9
 05 10 2013  14 23  -21.0315 26100.5 -03466.6 -07.5655 26329.7
 05 10 2013  14 24  -21.0314 26100.3 -03466.5 -07.5654 26329.5
 05 10 2013  14 25  -21.0313 26100.2 -03466.5 -07.5655 26329.4
 05 10 2013  14 26  -21.0312 26100.0 -03466.4 -07.5654 26329.2
 05 10 2013  14 27  -21.0310 26099.9 -03466.4 -07.5653 26329.0
 05 10 2013  14 28  -21.0307 26099.7 -03466.4 -07.5653 26328.9
 05 10 2013  14 29  -21.0304 26099.6 -03466.4 -07.5653 26328.7
 05 10 2013  14 30  -21.0302 26099.4 -03466.4 -07.5654 26328.6
 05 10 2013  14 31  -21.0300 26099.3 -03466.4 -07.5655 26328.5
 05 10 2013  14 32  -21.0297 26099.2 -03466.4 -07.5655 26328.4
 05 10 2013  14 33  -21.0296 26099.1 -03466.5 -07.5657 26328.3
 05 10 2013  14 34  -21.0293 26098.9 -03466.5 -07.5658 26328.1
 05 10 2013  14 35  -21.0291 26098.7 -03466.5 -07.5658 26327.9
 05 10 2013  14 36  -21.0289 26098.5 -03466.5 -07.5660 26327.7
 05 10 2013  14 37  -21.0288 26098.4 -03466.6 -07.5662 26327.6
 05 10 2013  14 38  -21.0288 26098.2 -03466.7 -07.5663 26327.4
 05 10 2013  14 39  -21.0287 26098.0 -03466.7 -07.5664 26327.2
 05 10 2013  14 40  -21.0286 26097.8 -03466.7 -07.5666 26327.0
 05 10 2013  14 41  -21.0285 26097.5 -03466.7 -07.5667 26326.8
 05 10 2013  14 42  -21.0284 26097.3 -03466.8 -07.5668 26326.6
 05 10 2013  14 43  -21.0283 26097.1 -03466.8 -07.5670 26326.4
 05 10 2013  14 44  -21.0284 26096.9 -03466.9 -07.5672 26326.2
 05 10 2013  14 45  -21.0283 26096.7 -03466.9 -07.5674 26326.0
 05 10 2013  14 46  -21.0284 26096.5 -03467.0 -07.5675 26325.7
 05 10 2013  14 47  -21.0284 26096.2 -03467.0 -07.5677 26325.5
 05 10 2013  14 48  -21.0284 26096.0 -03467.0 -07.5677 26325.3
 05 10 2013  14 49  -21.0285 26095.6 -03467.0 -07.5679 26324.9
 05 10 2013  14 50  -21.0285 26095.3 -03467.0 -07.5680 26324.6
 05 10 2013  14 51  -21.0286 26095.0 -03467.1 -07.5682 26324.4
 05 10 2013  14 52  -21.0287 26094.8 -03467.1 -07.5684 26324.2
 05 10 2013  14 53  -21.0288 26094.6 -03467.1 -07.5684 26323.9
 05 10 2013  14 54  -21.0289 26094.4 -03467.1 -07.5685 26323.7
 05 10 2013  14 55  -21.0290 26094.1 -03467.2 -07.5686 26323.4
 05 10 2013  14 56  -21.0292 26093.8 -03467.2 -07.5687 26323.1
 05 10 2013  14 57  -21.0293 26093.5 -03467.2 -07.5688 26322.9
 05 10 2013  14 58  -21.0294 26093.2 -03467.1 -07.5688 26322.6
 05 10 2013  14 59  -21.0294 26093.0 -03467.1 -07.5689 26322.3
 05 10 2013  15 00  -21.0295 26092.6 -03467.1 -07.5689 26322.0
 05 10 2013  15 01  -21.0295 26092.3 -03467.0 -07.5689 26321.6
 05 10 2013  15 02  -21.0295 26091.9 -03467.0 -07.5690 26321.3
 05 10 2013  15 03  -21.0295 26091.6 -03467.0 -07.5690 26321.0
 05 10 2013  15 04  -21.0295 26091.3 -03467.0 -07.5691 26320.6
 05 10 2013  15 05  -21.0293 26090.9 -03467.0 -07.5691 26320.2
 05 10 2013  15 06  -21.0292 26090.7 -03467.0 -07.5693 26320.1
 05 10 2013  15 07  -21.0293 26090.4 -03467.0 -07.5694 26319.8
 05 10 2013  15 08  -21.0292 26090.1 -03467.0 -07.5694 26319.5
 05 10 2013  15 09  -21.0293 26089.9 -03467.0 -07.5694 26319.2
 05 10 2013  15 10  -21.0292 26089.5 -03466.9 -07.5694 26318.9
 05 10 2013  15 11  -21.0291 26089.3 -03466.9 -07.5694 26318.6
 05 10 2013  15 12  -21.0288 26089.0 -03466.9 -07.5695 26318.3
 05 10 2013  15 13  -21.0287 26088.9 -03466.9 -07.5695 26318.2
 05 10 2013  15 14  -21.0286 26088.7 -03466.9 -07.5696 26318.0
 05 10 2013  15 15  -21.0285 26088.4 -03466.8 -07.5695 26317.7
 05 10 2013  15 16  -21.0283 26087.9 -03466.7 -07.5694 26317.3
 05 10 2013  15 17  -21.0281 26087.4 -03466.6 -07.5693 26316.8
 05 10 2013  15 18  -21.0279 26087.0 -03466.5 -07.5693 26316.3
 05 10 2013  15 19  -21.0277 26086.5 -03466.5 -07.5693 26315.9
 05 10 2013  15 20  -21.0277 26086.1 -03466.4 -07.5693 26315.4
 05 10 2013  15 21  -21.0277 26085.8 -03466.4 -07.5694 26315.1
 05 10 2013  15 22  -21.0276 26085.3 -03466.4 -07.5694 26314.6
 05 10 2013  15 23  -21.0277 26084.9 -03466.3 -07.5695 26314.2
 05 10 2013  15 24  -21.0275 26084.4 -03466.3 -07.5696 26313.7
 05 10 2013  15 25  -21.0274 26084.0 -03466.3 -07.5697 26313.3
 05 10 2013  15 26  -21.0274 26083.7 -03466.3 -07.5698 26313.0
 05 10 2013  15 27  -21.0273 26083.4 -03466.4 -07.5700 26312.7
 05 10 2013  15 28  -21.0272 26083.0 -03466.3 -07.5701 26312.3
 05 10 2013  15 29  -21.0271 26082.6 -03466.4 -07.5702 26312.0
 05 10 2013  15 30  -21.0269 26082.4 -03466.4 -07.5704 26311.7
 05 10 2013  15 31  -21.0267 26082.1 -03466.4 -07.5704 26311.4
 05 10 2013  15 32  -21.0267 26081.8 -03466.5 -07.5706 26311.2
 05 10 2013  15 33  -21.0264 26081.5 -03466.4 -07.5706 26310.8
 05 10 2013  15 34  -21.0263 26081.3 -03466.5 -07.5708 26310.6
 05 10 2013  15 35  -21.0261 26081.0 -03466.5 -07.5709 26310.4
 05 10 2013  15 36  -21.0259 26080.7 -03466.5 -07.5710 26310.1
 05 10 2013  15 37  -21.0256 26080.5 -03466.5 -07.5711 26309.8
 05 10 2013  15 38  -21.0254 26080.1 -03466.5 -07.5711 26309.5
 05 10 2013  15 39  -21.0252 26079.7 -03466.4 -07.5712 26309.1
 05 10 2013  15 40  -21.0249 26079.3 -03466.4 -07.5713 26308.7
 05 10 2013  15 41  -21.0246 26078.9 -03466.4 -07.5714 26308.3
 05 10 2013  15 42  -21.0243 26078.5 -03466.4 -07.5714 26307.8
 05 10 2013  15 43  -21.0241 26078.1 -03466.4 -07.5715 26307.5
 05 10 2013  15 44  -21.0237 26077.7 -03466.4 -07.5716 26307.1
 05 10 2013  15 45  -21.0235 26077.4 -03466.4 -07.5718 26306.8
 05 10 2013  15 46  -21.0231 26077.0 -03466.4 -07.5719 26306.3
 05 10 2013  15 47  -21.0228 26076.7 -03466.5 -07.5721 26306.1
 05 10 2013  15 48  -21.0222 26076.3 -03466.4 -07.5722 26305.7
 05 10 2013  15 49  -21.0220 26076.0 -03466.5 -07.5724 26305.4
 05 10 2013  15 50  -21.0216 26075.7 -03466.6 -07.5726 26305.1
 05 10 2013  15 51  -21.0211 26075.3 -03466.6 -07.5727 26304.7
 05 10 2013  15 52  -21.0207 26074.9 -03466.6 -07.5730 26304.4
 05 10 2013  15 53  -21.0202 26074.7 -03466.8 -07.5733 26304.1
 05 10 2013  15 54  -21.0199 26074.3 -03466.8 -07.5735 26303.7
 05 10 2013  15 55  -21.0195 26073.9 -03466.9 -07.5738 26303.4
 05 10 2013  15 56  -21.0191 26073.6 -03467.0 -07.5741 26303.1
 05 10 2013  15 57  -21.0188 26073.4 -03467.1 -07.5745 26302.9
 05 10 2013  15 58  -21.0185 26073.0 -03467.2 -07.5747 26302.5
 05 10 2013  15 59  -21.0183 26072.7 -03467.3 -07.5751 26302.3
 05 10 2013  16 00  -21.0180 26072.1 -03467.4 -07.5754 26301.7
 05 10 2013  16 01  -21.0179 26071.9 -03467.5 -07.5758 26301.4
 05 10 2013  16 02  -21.0176 26071.4 -03467.6 -07.5761 26301.0
 05 10 2013  16 03  -21.0175 26071.0 -03467.7 -07.5765 26300.6
 05 10 2013  16 04  -21.0172 26070.6 -03467.9 -07.5769 26300.2
 05 10 2013  16 05  -21.0173 26070.3 -03468.1 -07.5774 26300.0
 05 10 2013  16 06  -21.0173 26070.0 -03468.2 -07.5778 26299.7
 05 10 2013  16 07  -21.0173 26069.7 -03468.4 -07.5782 26299.4
 05 10 2013  16 08  -21.0173 26069.4 -03468.5 -07.5786 26299.1
 05 10 2013  16 09  -21.0175 26069.0 -03468.7 -07.5791 26298.8
 05 10 2013  16 10  -21.0175 26068.7 -03468.8 -07.5794 26298.5
 05 10 2013  16 11  -21.0178 26068.4 -03468.9 -07.5798 26298.2
 05 10 2013  16 12  -21.0179 26068.1 -03469.0 -07.5802 26297.9
 05 10 2013  16 13  -21.0184 26067.9 -03469.3 -07.5807 26297.8
 05 10 2013  16 14  -21.0186 26067.5 -03469.3 -07.5810 26297.3
 05 10 2013  16 15  -21.0188 26067.1 -03469.4 -07.5812 26297.0
 05 10 2013  16 16  -21.0188 26066.5 -03469.5 -07.5815 26296.4
 05 10 2013  16 17  -21.0188 26066.1 -03469.6 -07.5819 26296.0
 05 10 2013  16 18  -21.0194 26065.9 -03469.9 -07.5826 26295.9
 05 10 2013  16 19  -21.0194 26065.4 -03469.9 -07.5829 26295.3
 05 10 2013  16 20  -21.0196 26065.0 -03470.1 -07.5833 26294.9
 05 10 2013  16 21  -21.0198 26064.5 -03470.2 -07.5837 26294.5
 05 10 2013  16 22  -21.0201 26064.2 -03470.4 -07.5842 26294.2
 05 10 2013  16 23  -21.0204 26064.0 -03470.6 -07.5846 26294.1
 05 10 2013  16 24  -21.0208 26063.7 -03470.7 -07.5851 26293.8
 05 10 2013  16 25  -21.0211 26063.5 -03470.9 -07.5855 26293.6
 05 10 2013  16 26  -21.0212 26063.2 -03471.0 -07.5858 26293.3
 05 10 2013  16 27  -21.0215 26063.1 -03471.2 -07.5863 26293.3
 05 10 2013  16 28  -21.0216 26062.8 -03471.3 -07.5866 26293.0
 05 10 2013  16 29  -21.0218 26062.6 -03471.5 -07.5871 26292.8
 05 10 2013  16 30  -21.0222 26062.4 -03471.7 -07.5875 26292.6
 05 10 2013  16 31  -21.0222 26062.2 -03471.8 -07.5878 26292.4
 05 10 2013  16 32  -21.0223 26061.8 -03471.9 -07.5881 26292.0
 05 10 2013  16 33  -21.0226 26061.5 -03472.1 -07.5886 26291.8
 05 10 2013  16 34  -21.0228 26061.2 -03472.2 -07.5890 26291.5
 05 10 2013  16 35  -21.0230 26060.9 -03472.4 -07.5894 26291.2
 05 10 2013  16 36  -21.0230 26060.4 -03472.4 -07.5896 26290.7
 05 10 2013  16 37  -21.0230 26060.0 -03472.5 -07.5900 26290.3
 05 10 2013  16 38  -21.0232 26059.5 -03472.7 -07.5904 26289.9
 05 10 2013  16 39  -21.0232 26059.1 -03472.8 -07.5909 26289.5
 05 10 2013  16 40  -21.0237 26058.8 -03473.1 -07.5915 26289.2
 05 10 2013  16 41  -21.0240 26058.4 -03473.3 -07.5920 26288.9
 05 10 2013  16 42  -21.0244 26058.0 -03473.4 -07.5926 26288.5
 05 10 2013  16 43  -21.0247 26057.6 -03473.7 -07.5932 26288.1
 05 10 2013  16 44  -21.0249 26057.2 -03473.9 -07.5937 26287.7
 05 10 2013  16 45  -21.0252 26056.8 -03474.0 -07.5942 26287.4
 05 10 2013  16 46  -21.0254 26056.4 -03474.2 -07.5948 26287.0
 05 10 2013  16 47  -21.0257 26055.9 -03474.4 -07.5952 26286.5
 05 10 2013  16 48  -21.0260 26055.5 -03474.6 -07.5959 26286.2
 05 10 2013  16 49  -21.0265 26055.1 -03474.9 -07.5965 26285.8
 05 10 2013  16 50  -21.0268 26054.6 -03475.0 -07.5970 26285.3
 05 10 2013  16 51  -21.0273 26054.2 -03475.3 -07.5977 26285.0
 05 10 2013  16 52  -21.0277 26053.7 -03475.5 -07.5983 26284.5
 05 10 2013  16 53  -21.0280 26053.3 -03475.8 -07.5990 26284.1
 05 10 2013  16 54  -21.0287 26052.9 -03476.1 -07.5997 26283.8
 05 10 2013  16 55  -21.0289 26052.5 -03476.3 -07.6002 26283.4
 05 10 2013  16 56  -21.0293 26052.1 -03476.5 -07.6008 26283.0
 05 10 2013  16 57  -21.0295 26051.8 -03476.7 -07.6014 26282.7
 05 10 2013  16 58  -21.0301 26051.6 -03477.0 -07.6022 26282.6
 05 10 2013  16 59  -21.0303 26051.3 -03477.2 -07.6027 26282.4
 05 10 2013  17 00  -21.0308 26051.4 -03477.6 -07.6034 26282.5
 05 10 2013  17 01  -21.0312 26051.0 -03477.7 -07.6037 26282.1
 05 10 2013  17 02  -21.0313 26050.9 -03477.9 -07.6043 26282.1
 05 10 2013  17 03  -21.0320 26050.8 -03478.2 -07.6049 26281.9
 05 10 2013  17 04  -21.0323 26050.4 -03478.3 -07.6053 26281.6
 05 10 2013  17 05  -21.0327 26050.4 -03478.6 -07.6059 26281.6
 05 10 2013  17 06  -21.0332 26050.2 -03478.8 -07.6064 26281.4
 05 10 2013  17 07  -21.0336 26050.0 -03479.0 -07.6068 26281.3
 05 10 2013  17 08  -21.0338 26049.9 -03479.1 -07.6072 26281.2
 05 10 2013  17 09  -21.0341 26049.6 -03479.3 -07.6075 26281.0
 05 10 2013  17 10  -21.0345 26049.4 -03479.4 -07.6079 26280.8
 05 10 2013  17 11  -21.0346 26049.1 -03479.5 -07.6081 26280.4
 05 10 2013  17 12  -21.0346 26048.9 -03479.6 -07.6085 26280.3
 05 10 2013  17 13  -21.0347 26048.7 -03479.8 -07.6089 26280.1
 05 10 2013  17 14  -21.0348 26048.4 -03479.8 -07.6092 26279.8
 05 10 2013  17 15  -21.0351 26048.1 -03480.0 -07.6095 26279.6
 05 10 2013  17 16  -21.0348 26047.7 -03479.9 -07.6096 26279.1
 05 10 2013  17 17  -21.0350 26047.4 -03480.1 -07.6101 26278.8
 05 10 2013  17 18  -21.0349 26046.9 -03480.2 -07.6104 26278.4
 05 10 2013  17 19  -21.0350 26046.6 -03480.4 -07.6108 26278.1
 05 10 2013  17 20  -21.0349 26046.2 -03480.5 -07.6112 26277.7
 05 10 2013  17 21  -21.0347 26045.8 -03480.6 -07.6115 26277.3
 05 10 2013  17 22  -21.0347 26045.5 -03480.8 -07.6120 26277.1
 05 10 2013  17 23  -21.0349 26045.3 -03481.0 -07.6126 26276.9
 05 10 2013  17 24  -21.0347 26045.0 -03481.2 -07.6131 26276.6
 05 10 2013  17 25  -21.0349 26044.9 -03481.5 -07.6137 26276.5
 05 10 2013  17 26  -21.0349 26044.6 -03481.6 -07.6141 26276.3
 05 10 2013  17 27  -21.0353 26044.5 -03481.9 -07.6147 26276.2
 05 10 2013  17 28  -21.0353 26044.1 -03482.0 -07.6150 26275.9
 05 10 2013  17 29  -21.0354 26044.0 -03482.2 -07.6156 26275.7
 05 10 2013  17 30  -21.0357 26043.6 -03482.4 -07.6160 26275.4
 05 10 2013  17 31  -21.0357 26043.4 -03482.6 -07.6165 26275.2
 05 10 2013  17 32  -21.0361 26043.2 -03482.8 -07.6170 26275.1
 05 10 2013  17 33  -21.0360 26043.0 -03482.9 -07.6174 26274.8
 05 10 2013  17 34  -21.0364 26042.9 -03483.2 -07.6180 26274.8
 05 10 2013  17 35  -21.0362 26042.6 -03483.3 -07.6182 26274.5
 05 10 2013  17 36  -21.0364 26042.5 -03483.5 -07.6187 26274.4
 05 10 2013  17 37  -21.0367 26042.3 -03483.6 -07.6191 26274.3
 05 10 2013  17 38  -21.0368 26042.1 -03483.8 -07.6194 26274.1
 05 10 2013  17 39  -21.0370 26042.0 -03483.9 -07.6199 26274.0
 05 10 2013  17 40  -21.0372 26041.6 -03484.0 -07.6201 26273.6
 05 10 2013  17 41  -21.0373 26041.5 -03484.2 -07.6205 26273.6
 05 10 2013  17 42  -21.0378 26041.3 -03484.3 -07.6208 26273.3
 05 10 2013  17 43  -21.0375 26041.1 -03484.4 -07.6211 26273.1
 05 10 2013  17 44  -21.0381 26040.9 -03484.6 -07.6216 26273.0
 05 10 2013  17 45  -21.0380 26040.7 -03484.7 -07.6218 26272.8
 05 10 2013  17 46  -21.0383 26040.6 -03484.9 -07.6222 26272.8
 05 10 2013  17 47  -21.0388 26040.5 -03485.0 -07.6225 26272.6
 05 10 2013  17 48  -21.0387 26040.3 -03485.0 -07.6227 26272.5
 05 10 2013  17 49  -21.0393 26040.2 -03485.2 -07.6231 26272.4
 05 10 2013  17 50  -21.0396 26040.0 -03485.3 -07.6233 26272.2
 05 10 2013  17 51  -21.0398 26039.7 -03485.3 -07.6236 26271.9
 05 10 2013  17 52  -21.0403 26039.6 -03485.5 -07.6239 26271.9
 05 10 2013  17 53  -21.0404 26039.3 -03485.5 -07.6240 26271.6
 05 10 2013  17 54  -21.0406 26039.1 -03485.6 -07.6243 26271.4
 05 10 2013  17 55  -21.0409 26038.9 -03485.7 -07.6246 26271.1
 05 10 2013  17 56  -21.0410 26038.6 -03485.8 -07.6248 26270.9
 05 10 2013  17 57  -21.0414 26038.5 -03485.9 -07.6251 26270.8
 05 10 2013  17 58  -21.0417 26038.4 -03486.0 -07.6254 26270.7
 05 10 2013  17 59  -21.0417 26038.0 -03486.0 -07.6254 26270.3
 05 10 2013  18 00  -21.0415 26037.8 -03486.0 -07.6256 26270.1
 05 10 2013  18 01  -21.0419 26037.6 -03486.1 -07.6259 26269.9
 05 10 2013  18 02  -21.0419 26037.4 -03486.3 -07.6262 26269.8
 05 10 2013  18 03  -21.0421 26037.3 -03486.4 -07.6265 26269.7
 05 10 2013  18 04  -21.0425 26037.3 -03486.5 -07.6268 26269.7
 05 10 2013  18 05  -21.0426 26037.1 -03486.6 -07.6269 26269.5
 05 10 2013  18 06  -21.0428 26037.1 -03486.7 -07.6272 26269.5
 05 10 2013  18 07  -21.0430 26036.9 -03486.8 -07.6274 26269.4
 05 10 2013  18 08  -21.0434 26037.0 -03486.9 -07.6278 26269.5
 05 10 2013  18 09  -21.0435 26036.9 -03487.0 -07.6279 26269.4
 05 10 2013  18 10  -21.0440 26036.9 -03487.1 -07.6281 26269.4
 05 10 2013  18 11  -21.0442 26036.9 -03487.1 -07.6282 26269.3
 05 10 2013  18 12  -21.0443 26036.7 -03487.2 -07.6284 26269.2
 05 10 2013  18 13  -21.0447 26036.7 -03487.2 -07.6285 26269.2
 05 10 2013  18 14  -21.0448 26036.5 -03487.2 -07.6286 26269.0
 05 10 2013  18 15  -21.0451 26036.2 -03487.2 -07.6286 26268.7
 05 10 2013  18 16  -21.0453 26036.1 -03487.2 -07.6286 26268.6
 05 10 2013  18 17  -21.0453 26035.6 -03487.0 -07.6284 26268.1
 05 10 2013  18 18  -21.0453 26035.3 -03487.1 -07.6286 26267.8
 05 10 2013  18 19  -21.0452 26035.2 -03487.2 -07.6288 26267.7
 05 10 2013  18 20  -21.0452 26035.1 -03487.3 -07.6290 26267.7
 05 10 2013  18 21  -21.0454 26035.2 -03487.4 -07.6293 26267.8
 05 10 2013  18 22  -21.0455 26035.1 -03487.4 -07.6293 26267.6
 05 10 2013  18 23  -21.0453 26034.9 -03487.4 -07.6294 26267.4
 05 10 2013  18 24  -21.0452 26034.8 -03487.4 -07.6295 26267.4
 05 10 2013  18 25  -21.0453 26035.1 -03487.6 -07.6298 26267.6
 05 10 2013  18 26  -21.0455 26035.1 -03487.7 -07.6299 26267.7
 05 10 2013  18 27  -21.0455 26034.7 -03487.5 -07.6297 26267.3
 05 10 2013  18 28  -21.0452 26034.3 -03487.4 -07.6295 26266.9
 05 10 2013  18 29  -21.0451 26034.6 -03487.6 -07.6300 26267.2
 05 10 2013  18 30  -21.0450 26034.4 -03487.7 -07.6301 26267.0
 05 10 2013  18 31  -21.0452 26034.2 -03487.7 -07.6302 26266.8
 05 10 2013  18 32  -21.0450 26034.3 -03487.7 -07.6303 26266.8
 05 10 2013  18 33  -21.0452 26034.0 -03487.7 -07.6304 26266.6
 05 10 2013  18 34  -21.0450 26033.9 -03487.8 -07.6305 26266.5
 05 10 2013  18 35  -21.0451 26033.8 -03487.8 -07.6306 26266.4
 05 10 2013  18 36  -21.0451 26033.6 -03487.8 -07.6307 26266.2
 05 10 2013  18 37  -21.0451 26033.7 -03487.9 -07.6308 26266.3
 05 10 2013  18 38  -21.0451 26033.6 -03487.9 -07.6309 26266.2
 05 10 2013  18 39  -21.0450 26033.4 -03487.9 -07.6310 26266.0
 05 10 2013  18 40  -21.0448 26033.3 -03488.0 -07.6310 26265.9
 05 10 2013  18 41  -21.0447 26033.2 -03488.0 -07.6312 26265.8
 05 10 2013  18 42  -21.0446 26033.1 -03488.1 -07.6313 26265.7
 05 10 2013  18 43  -21.0442 26033.1 -03488.1 -07.6315 26265.8
 05 10 2013  18 44  -21.0441 26033.0 -03488.2 -07.6317 26265.7
 05 10 2013  18 45  -21.0441 26032.9 -03488.3 -07.6319 26265.6
 05 10 2013  18 46  -21.0438 26032.8 -03488.3 -07.6320 26265.5
 05 10 2013  18 47  -21.0437 26032.8 -03488.4 -07.6322 26265.4
 05 10 2013  18 48  -21.0435 26032.7 -03488.5 -07.6324 26265.4
 05 10 2013  18 49  -21.0435 26032.7 -03488.6 -07.6326 26265.4
 05 10 2013  18 50  -21.0432 26032.5 -03488.5 -07.6326 26265.2
 05 10 2013  18 51  -21.0431 26032.5 -03488.6 -07.6327 26265.3
 05 10 2013  18 52  -21.0430 26032.5 -03488.7 -07.6328 26265.2
 05 10 2013  18 53  -21.0430 26032.4 -03488.7 -07.6329 26265.1
 05 10 2013  18 54  -21.0430 26032.4 -03488.7 -07.6330 26265.2
 05 10 2013  18 55  -21.0429 26032.4 -03488.7 -07.6330 26265.1
 05 10 2013  18 56  -21.0429 26032.4 -03488.8 -07.6331 26265.2
 05 10 2013  18 57  -21.0428 26032.4 -03488.8 -07.6331 26265.1
 05 10 2013  18 58  -21.0429 26032.4 -03488.8 -07.6331 26265.1
 05 10 2013  18 59  -21.0430 26032.3 -03488.7 -07.6330 26265.0
 05 10 2013  19 00  -21.0430 26032.1 -03488.7 -07.6330 26264.8
 05 10 2013  19 01  -21.0431 26032.0 -03488.7 -07.6329 26264.8
 05 10 2013  19 02  -21.0431 26031.9 -03488.5 -07.6327 26264.6
 05 10 2013  19 03  -21.0432 26031.7 -03488.5 -07.6326 26264.4
 05 10 2013  19 04  -21.0432 26031.7 -03488.4 -07.6325 26264.4
 05 10 2013  19 05  -21.0432 26031.6 -03488.4 -07.6324 26264.3
 05 10 2013  19 06  -21.0432 26031.5 -03488.3 -07.6323 26264.2
 05 10 2013  19 07  -21.0433 26031.5 -03488.3 -07.6323 26264.2
 05 10 2013  19 08  -21.0432 26031.6 -03488.3 -07.6323 26264.3
 05 10 2013  19 09  -21.0433 26031.6 -03488.3 -07.6322 26264.2
 05 10 2013  19 10  -21.0433 26031.4 -03488.1 -07.6320 26264.1
 05 10 2013  19 11  -21.0433 26031.3 -03488.1 -07.6319 26264.0
 05 10 2013  19 12  -21.0432 26031.3 -03488.0 -07.6318 26263.9
 05 10 2013  19 13  -21.0432 26031.2 -03487.9 -07.6317 26263.8
 05 10 2013  19 14  -21.0429 26031.2 -03487.9 -07.6316 26263.9
 05 10 2013  19 15  -21.0432 26031.1 -03487.9 -07.6315 26263.7
 05 10 2013  19 16  -21.0428 26031.0 -03487.8 -07.6313 26263.6
 05 10 2013  19 17  -21.0428 26031.0 -03487.7 -07.6312 26263.6
 05 10 2013  19 18  -21.0426 26031.0 -03487.7 -07.6312 26263.6
 05 10 2013  19 19  -21.0422 26031.0 -03487.7 -07.6311 26263.6
 05 10 2013  19 20  -21.0422 26031.1 -03487.7 -07.6312 26263.7
 05 10 2013  19 21  -21.0419 26031.0 -03487.7 -07.6311 26263.6
 05 10 2013  19 22  -21.0417 26031.1 -03487.7 -07.6311 26263.7
 05 10 2013  19 23  -21.0415 26031.2 -03487.7 -07.6312 26263.8
 05 10 2013  19 24  -21.0415 26031.0 -03487.7 -07.6311 26263.6
 05 10 2013  19 25  -21.0412 26031.0 -03487.6 -07.6311 26263.6
 05 10 2013  19 26  -21.0410 26030.9 -03487.7 -07.6312 26263.5
 05 10 2013  19 27  -21.0407 26030.8 -03487.7 -07.6312 26263.4
 05 10 2013  19 28  -21.0406 26030.5 -03487.6 -07.6311 26263.1
 05 10 2013  19 29  -21.0402 26030.4 -03487.6 -07.6312 26263.0
 05 10 2013  19 30  -21.0401 26030.4 -03487.7 -07.6314 26263.0
 05 10 2013  19 31  -21.0398 26030.5 -03487.8 -07.6316 26263.1
 05 10 2013  19 32  -21.0395 26030.8 -03487.9 -07.6318 26263.4
 05 10 2013  19 33  -21.0394 26030.6 -03488.0 -07.6319 26263.2
 05 10 2013  19 34  -21.0393 26030.4 -03487.9 -07.6319 26263.0
 05 10 2013  19 35  -21.0392 26030.5 -03488.1 -07.6321 26263.2
 05 10 2013  19 36  -21.0390 26030.3 -03488.0 -07.6321 26263.0
 05 10 2013  19 37  -21.0387 26030.2 -03488.1 -07.6322 26262.9
 05 10 2013  19 38  -21.0386 26030.2 -03488.1 -07.6322 26262.8
 05 10 2013  19 39  -21.0382 26030.2 -03488.2 -07.6324 26262.9
 05 10 2013  19 40  -21.0381 26030.2 -03488.2 -07.6325 26262.9
 05 10 2013  19 41  -21.0378 26030.3 -03488.2 -07.6325 26263.0
 05 10 2013  19 42  -21.0376 26030.2 -03488.2 -07.6326 26262.8
 05 10 2013  19 43  -21.0374 26030.3 -03488.3 -07.6326 26262.9
 05 10 2013  19 44  -21.0370 26030.3 -03488.3 -07.6326 26263.0
 05 10 2013  19 45  -21.0368 26030.2 -03488.3 -07.6327 26262.9
 05 10 2013  19 46  -21.0365 26030.1 -03488.3 -07.6328 26262.8
 05 10 2013  19 47  -21.0365 26030.1 -03488.4 -07.6329 26262.8
 05 10 2013  19 48  -21.0365 26029.7 -03488.1 -07.6325 26262.3
 05 10 2013  19 49  -21.0361 26029.7 -03488.1 -07.6325 26262.4
 05 10 2013  19 50  -21.0356 26029.9 -03488.3 -07.6328 26262.6
 05 10 2013  19 51  -21.0353 26029.8 -03488.3 -07.6329 26262.5
 05 10 2013  19 52  -21.0349 26029.8 -03488.4 -07.6330 26262.5
 05 10 2013  19 53  -21.0347 26029.7 -03488.3 -07.6329 26262.4
 05 10 2013  19 54  -21.0343 26029.7 -03488.3 -07.6329 26262.4
 05 10 2013  19 55  -21.0339 26029.6 -03488.3 -07.6328 26262.3
 05 10 2013  19 56  -21.0336 26029.6 -03488.3 -07.6329 26262.3
 05 10 2013  19 57  -21.0332 26029.6 -03488.4 -07.6330 26262.3
 05 10 2013  19 58  -21.0329 26029.6 -03488.4 -07.6330 26262.3
 05 10 2013  19 59  -21.0325 26029.6 -03488.4 -07.6332 26262.3
 05 10 2013  20 00  -21.0323 26029.4 -03488.4 -07.6331 26262.2
 05 10 2013  20 01  -21.0319 26029.4 -03488.4 -07.6331 26262.2
 05 10 2013  20 02  -21.0315 26029.3 -03488.4 -07.6331 26262.0
 05 10 2013  20 03  -21.0312 26029.3 -03488.4 -07.6332 26262.0
 05 10 2013  20 04  -21.0308 26029.1 -03488.4 -07.6333 26261.9
 05 10 2013  20 05  -21.0304 26029.1 -03488.4 -07.6333 26261.8
 05 10 2013  20 06  -21.0300 26029.1 -03488.5 -07.6334 26261.9
 05 10 2013  20 07  -21.0296 26029.1 -03488.5 -07.6334 26261.8
 05 10 2013  20 08  -21.0295 26029.0 -03488.5 -07.6335 26261.7
 05 10 2013  20 09  -21.0291 26029.0 -03488.5 -07.6335 26261.7
 05 10 2013  20 10  -21.0285 26029.0 -03488.4 -07.6332 26261.8
 05 10 2013  20 11  -21.0285 26029.0 -03488.6 -07.6337 26261.7
 05 10 2013  20 12  -21.0282 26028.8 -03488.6 -07.6337 26261.5
 05 10 2013  20 13  -21.0279 26028.8 -03488.6 -07.6338 26261.5
 05 10 2013  20 14  -21.0277 26028.6 -03488.6 -07.6338 26261.4
 05 10 2013  20 15  -21.0274 26028.6 -03488.6 -07.6339 26261.3
 05 10 2013  20 16  -21.0271 26028.7 -03488.7 -07.6340 26261.5
 05 10 2013  20 17  -21.0268 26028.7 -03488.8 -07.6341 26261.4
 05 10 2013  20 18  -21.0266 26028.7 -03488.8 -07.6342 26261.4
 05 10 2013  20 19  -21.0263 26028.6 -03488.8 -07.6343 26261.4
 05 10 2013  20 20  -21.0261 26028.6 -03488.8 -07.6343 26261.3
 05 10 2013  20 21  -21.0258 26028.6 -03488.9 -07.6344 26261.4
 05 10 2013  20 22  -21.0256 26028.6 -03488.9 -07.6345 26261.4
 05 10 2013  20 23  -21.0254 26028.5 -03489.0 -07.6346 26261.3
 05 10 2013  20 24  -21.0252 26028.5 -03489.0 -07.6347 26261.3
 05 10 2013  20 25  -21.0249 26028.6 -03489.1 -07.6349 26261.4
 05 10 2013  20 26  -21.0246 26028.6 -03489.1 -07.6350 26261.4
 05 10 2013  20 27  -21.0243 26028.6 -03489.2 -07.6351 26261.4
 05 10 2013  20 28  -21.0241 26028.6 -03489.2 -07.6351 26261.4
 05 10 2013  20 29  -21.0239 26028.5 -03489.2 -07.6351 26261.3
 05 10 2013  20 30  -21.0237 26028.3 -03489.2 -07.6352 26261.2
 05 10 2013  20 31  -21.0235 26028.3 -03489.2 -07.6353 26261.1
 05 10 2013  20 32  -21.0232 26028.2 -03489.3 -07.6353 26261.0
 05 10 2013  20 33  -21.0231 26028.2 -03489.3 -07.6355 26261.0
 05 10 2013  20 34  -21.0228 26028.1 -03489.3 -07.6355 26260.9
 05 10 2013  20 35  -21.0226 26028.0 -03489.4 -07.6357 26260.9
 05 10 2013  20 36  -21.0223 26028.0 -03489.4 -07.6358 26260.8
 05 10 2013  20 37  -21.0221 26027.9 -03489.5 -07.6358 26260.8
 05 10 2013  20 38  -21.0219 26027.9 -03489.5 -07.6359 26260.7
 05 10 2013  20 39  -21.0218 26027.7 -03489.5 -07.6359 26260.6
 05 10 2013  20 40  -21.0215 26027.6 -03489.5 -07.6360 26260.5
 05 10 2013  20 41  -21.0211 26027.7 -03489.5 -07.6361 26260.6
 05 10 2013  20 42  -21.0209 26027.7 -03489.6 -07.6362 26260.6
 05 10 2013  20 43  -21.0207 26027.7 -03489.7 -07.6364 26260.6
 05 10 2013  20 44  -21.0204 26027.6 -03489.7 -07.6364 26260.5
 05 10 2013  20 45  -21.0202 26027.5 -03489.7 -07.6365 26260.4
 05 10 2013  20 46  -21.0200 26027.5 -03489.7 -07.6366 26260.4
 05 10 2013  20 47  -21.0198 26027.4 -03489.8 -07.6367 26260.3
 05 10 2013  20 48  -21.0196 26027.3 -03489.8 -07.6367 26260.2
 05 10 2013  20 49  -21.0193 26027.2 -03489.8 -07.6368 26260.1
 05 10 2013  20 50  -21.0191 26027.1 -03489.8 -07.6368 26260.0
 05 10 2013  20 51  -21.0190 26026.9 -03489.8 -07.6369 26259.9
 05 10 2013  20 52  -21.0188 26026.9 -03489.8 -07.6370 26259.8
 05 10 2013  20 53  -21.0185 26026.8 -03489.9 -07.6371 26259.8
 05 10 2013  20 54  -21.0183 26026.8 -03490.0 -07.6373 26259.7
 05 10 2013  20 55  -21.0180 26026.7 -03490.0 -07.6374 26259.7
 05 10 2013  20 56  -21.0179 26026.6 -03490.1 -07.6376 26259.6
 05 10 2013  20 57  -21.0177 26026.6 -03490.2 -07.6378 26259.6
 05 10 2013  20 58  -21.0175 26026.6 -03490.3 -07.6380 26259.6
 05 10 2013  20 59  -21.0174 26026.6 -03490.4 -07.6383 26259.6
 05 10 2013  21 00  -21.0173 26026.7 -03490.5 -07.6385 26259.7
 05 10 2013  21 01  -21.0172 26026.7 -03490.6 -07.6387 26259.7
 05 10 2013  21 02  -21.0171 26026.6 -03490.7 -07.6389 26259.7
 05 10 2013  21 03  -21.0171 26026.6 -03490.8 -07.6391 26259.7
 05 10 2013  21 04  -21.0171 26026.6 -03490.9 -07.6393 26259.7
 05 10 2013  21 05  -21.0171 26026.6 -03490.9 -07.6394 26259.7
 05 10 2013  21 06  -21.0172 26026.6 -03491.0 -07.6396 26259.7
 05 10 2013  21 07  -21.0172 26026.6 -03491.1 -07.6397 26259.7
 05 10 2013  21 08  -21.0172 26026.6 -03491.1 -07.6399 26259.7
 05 10 2013  21 09  -21.0172 26026.5 -03491.2 -07.6400 26259.6
 05 10 2013  21 10  -21.0173 26026.5 -03491.2 -07.6401 26259.6
 05 10 2013  21 11  -21.0172 26026.5 -03491.2 -07.6401 26259.6
 05 10 2013  21 12  -21.0173 26026.5 -03491.3 -07.6402 26259.6
 05 10 2013  21 13  -21.0174 26026.5 -03491.3 -07.6403 26259.6
 05 10 2013  21 14  -21.0174 26026.5 -03491.3 -07.6404 26259.6
 05 10 2013  21 15  -21.0174 26026.5 -03491.4 -07.6405 26259.7
 05 10 2013  21 16  -21.0174 26026.6 -03491.5 -07.6407 26259.7
 05 10 2013  21 17  -21.0174 26026.6 -03491.5 -07.6408 26259.7
 05 10 2013  21 18  -21.0174 26026.6 -03491.6 -07.6408 26259.7
 05 10 2013  21 19  -21.0174 26026.5 -03491.6 -07.6409 26259.7
 05 10 2013  21 20  -21.0175 26026.5 -03491.7 -07.6411 26259.7
 05 10 2013  21 21  -21.0176 26026.5 -03491.7 -07.6412 26259.7
 05 10 2013  21 22  -21.0176 26026.5 -03491.8 -07.6413 26259.7
 05 10 2013  21 23  -21.0177 26026.4 -03491.8 -07.6413 26259.6
 05 10 2013  21 24  -21.0178 26026.4 -03491.8 -07.6414 26259.6
 05 10 2013  21 25  -21.0178 26026.3 -03491.8 -07.6414 26259.5
 05 10 2013  21 26  -21.0179 26026.3 -03491.8 -07.6415 26259.5
 05 10 2013  21 27  -21.0179 26026.3 -03491.9 -07.6416 26259.5
 05 10 2013  21 28  -21.0179 26026.2 -03491.9 -07.6416 26259.4
 05 10 2013  21 29  -21.0180 26026.1 -03491.9 -07.6417 26259.3
 05 10 2013  21 30  -21.0181 26026.0 -03491.9 -07.6417 26259.2
 05 10 2013  21 31  -21.0181 26025.9 -03491.9 -07.6417 26259.1
 05 10 2013  21 32  -21.0182 26025.9 -03491.9 -07.6418 26259.1
 05 10 2013  21 33  -21.0183 26025.8 -03492.0 -07.6419 26259.0
 05 10 2013  21 34  -21.0183 26025.7 -03492.0 -07.6420 26259.0
 05 10 2013  21 35  -21.0183 26025.7 -03492.0 -07.6420 26258.9
 05 10 2013  21 36  -21.0184 26025.6 -03492.0 -07.6420 26258.8
 05 10 2013  21 37  -21.0185 26025.5 -03492.0 -07.6421 26258.7
 05 10 2013  21 38  -21.0185 26025.5 -03492.0 -07.6421 26258.7
 05 10 2013  21 39  -21.0185 26025.4 -03492.0 -07.6422 26258.6
 05 10 2013  21 40  -21.0185 26025.4 -03492.1 -07.6423 26258.6
 05 10 2013  21 41  -21.0184 26025.4 -03492.1 -07.6423 26258.6
 05 10 2013  21 42  -21.0185 26025.4 -03492.1 -07.6424 26258.6
 05 10 2013  21 43  -21.0185 26025.3 -03492.2 -07.6425 26258.6
 05 10 2013  21 44  -21.0186 26025.2 -03492.2 -07.6425 26258.5
 05 10 2013  21 45  -21.0186 26025.2 -03492.2 -07.6425 26258.4
 05 10 2013  21 46  -21.0186 26025.1 -03492.2 -07.6426 26258.4
 05 10 2013  21 47  -21.0185 26025.0 -03492.2 -07.6426 26258.3
 05 10 2013  21 48  -21.0185 26025.0 -03492.2 -07.6426 26258.3
 05 10 2013  21 49  -21.0185 26025.0 -03492.2 -07.6427 26258.2
 05 10 2013  21 50  -21.0186 26024.9 -03492.3 -07.6428 26258.2
 05 10 2013  21 51  -21.0185 26024.9 -03492.2 -07.6427 26258.1
 05 10 2013  21 52  -21.0185 26024.9 -03492.2 -07.6428 26258.1
 05 10 2013  21 53  -21.0185 26024.8 -03492.3 -07.6429 26258.1
 05 10 2013  21 54  -21.0185 26024.7 -03492.3 -07.6428 26258.0
 05 10 2013  21 55  -21.0186 26024.6 -03492.2 -07.6428 26257.9
 05 10 2013  21 56  -21.0186 26024.6 -03492.2 -07.6429 26257.8
 05 10 2013  21 57  -21.0186 26024.5 -03492.2 -07.6429 26257.8
 05 10 2013  21 58  -21.0186 26024.6 -03492.3 -07.6429 26257.8
 05 10 2013  21 59  -21.0186 26024.6 -03492.3 -07.6430 26257.9
 05 10 2013  22 00  -21.0186 26024.7 -03492.4 -07.6432 26258.0
 05 10 2013  22 01  -21.0187 26024.4 -03492.3 -07.6431 26257.7
 05 10 2013  22 02  -21.0187 26024.1 -03492.2 -07.6428 26257.4
 05 10 2013  22 03  -21.0187 26024.4 -03492.3 -07.6429 26257.6
 05 10 2013  22 04  -21.0186 26024.6 -03492.4 -07.6431 26257.9
 05 10 2013  22 05  -21.0187 26024.4 -03492.4 -07.6432 26257.7
 05 10 2013  22 06  -21.0187 26024.4 -03492.4 -07.6431 26257.7
 05 10 2013  22 07  -21.0186 26024.5 -03492.4 -07.6432 26257.8
 05 10 2013  22 08  -21.0187 26024.3 -03492.3 -07.6430 26257.6
 05 10 2013  22 09  -21.0187 26024.2 -03492.2 -07.6429 26257.5
 05 10 2013  22 10  -21.0187 26024.2 -03492.2 -07.6429 26257.5
 05 10 2013  22 11  -21.0186 26024.3 -03492.2 -07.6429 26257.5
 05 10 2013  22 12  -21.0186 26024.3 -03492.2 -07.6430 26257.5
 05 10 2013  22 13  -21.0186 26024.2 -03492.3 -07.6430 26257.5
 05 10 2013  22 14  -21.0185 26024.2 -03492.2 -07.6429 26257.4
 05 10 2013  22 15  -21.0185 26024.1 -03492.2 -07.6429 26257.4
 05 10 2013  22 16  -21.0185 26024.1 -03492.2 -07.6428 26257.4
 05 10 2013  22 17  -21.0185 26024.1 -03492.2 -07.6429 26257.4
 05 10 2013  22 18  -21.0185 26024.1 -03492.2 -07.6428 26257.4
 05 10 2013  22 19  -21.0184 26024.1 -03492.2 -07.6429 26257.4
 05 10 2013  22 20  -21.0184 26024.2 -03492.2 -07.6429 26257.4
 05 10 2013  22 21  -21.0183 26024.1 -03492.2 -07.6429 26257.4
 05 10 2013  22 22  -21.0183 26024.2 -03492.2 -07.6429 26257.5
 05 10 2013  22 23  -21.0183 26024.2 -03492.2 -07.6428 26257.5
 05 10 2013  22 24  -21.0183 26024.1 -03492.1 -07.6427 26257.3
 05 10 2013  22 25  -21.0182 26024.1 -03492.1 -07.6427 26257.4
 05 10 2013  22 26  -21.0183 26024.1 -03492.1 -07.6427 26257.4
 05 10 2013  22 27  -21.0182 26024.0 -03492.0 -07.6425 26257.2
 05 10 2013  22 28  -21.0182 26024.1 -03492.0 -07.6425 26257.4
 05 10 2013  22 29  -21.0181 26024.1 -03492.0 -07.6425 26257.3
 05 10 2013  22 30  -21.0182 26024.0 -03491.9 -07.6423 26257.2
 05 10 2013  22 31  -21.0183 26023.9 -03491.9 -07.6422 26257.1
 05 10 2013  22 32  -21.0182 26023.8 -03491.8 -07.6421 26257.0
 05 10 2013  22 33  -21.0184 26023.7 -03491.8 -07.6421 26256.9
 05 10 2013  22 34  -21.0183 26023.7 -03491.7 -07.6419 26256.9
 05 10 2013  22 35  -21.0183 26023.7 -03491.7 -07.6419 26256.9
 05 10 2013  22 36  -21.0184 26023.6 -03491.7 -07.6419 26256.8
 05 10 2013  22 37  -21.0185 26023.5 -03491.6 -07.6418 26256.7
 05 10 2013  22 38  -21.0186 26023.4 -03491.6 -07.6417 26256.6
 05 10 2013  22 39  -21.0186 26023.4 -03491.5 -07.6416 26256.6
 05 10 2013  22 40  -21.0187 26023.4 -03491.5 -07.6416 26256.6
 05 10 2013  22 41  -21.0187 26023.4 -03491.5 -07.6416 26256.6
 05 10 2013  22 42  -21.0187 26023.7 -03491.6 -07.6417 26256.9
 05 10 2013  22 43  -21.0188 26023.5 -03491.6 -07.6418 26256.7
 05 10 2013  22 44  -21.0189 26023.4 -03491.5 -07.6415 26256.5
 05 10 2013  22 45  -21.0187 26023.8 -03491.6 -07.6418 26257.0
 05 10 2013  22 46  -21.0188 26024.0 -03491.8 -07.6421 26257.2
 05 10 2013  22 47  -21.0188 26023.8 -03491.7 -07.6419 26257.0
 05 10 2013  22 48  -21.0189 26024.0 -03491.7 -07.6420 26257.2
 05 10 2013  22 49  -21.0191 26024.2 -03491.9 -07.6422 26257.4
 05 10 2013  22 50  -21.0191 26024.0 -03491.8 -07.6420 26257.2
 05 10 2013  22 51  -21.0190 26024.1 -03491.7 -07.6419 26257.3
 05 10 2013  22 52  -21.0191 26024.3 -03491.9 -07.6421 26257.5
 05 10 2013  22 53  -21.0190 26024.2 -03491.9 -07.6422 26257.5
 05 10 2013  22 54  -21.0190 26024.0 -03491.8 -07.6420 26257.2
 05 10 2013  22 55  -21.0190 26024.1 -03491.8 -07.6420 26257.3
 05 10 2013  22 56  -21.0190 26024.3 -03491.8 -07.6421 26257.5
 05 10 2013  22 57  -21.0190 26024.2 -03491.9 -07.6421 26257.4
 05 10 2013  22 58  -21.0191 26024.3 -03491.9 -07.6421 26257.5
 05 10 2013  22 59  -21.0192 26024.1 -03491.8 -07.6421 26257.3
 05 10 2013  23 00  -21.0193 26024.1 -03491.8 -07.6421 26257.4
 05 10 2013  23 01  -21.0194 26024.0 -03491.8 -07.6420 26257.2
 05 10 2013  23 02  -21.0194 26023.8 -03491.7 -07.6419 26257.0
 05 10 2013  23 03  -21.0195 26023.7 -03491.7 -07.6419 26256.9
 05 10 2013  23 04  -21.0196 26023.7 -03491.6 -07.6418 26256.9
 05 10 2013  23 05  -21.0196 26023.6 -03491.6 -07.6418 26256.8
 05 10 2013  23 06  -21.0196 26023.5 -03491.6 -07.6418 26256.7
 05 10 2013  23 07  -21.0195 26023.5 -03491.6 -07.6419 26256.7
 05 10 2013  23 08  -21.0195 26023.5 -03491.7 -07.6419 26256.6
 05 10 2013  23 09  -21.0195 26023.5 -03491.7 -07.6420 26256.7
 05 10 2013  23 10  -21.0194 26023.5 -03491.7 -07.6421 26256.7
 05 10 2013  23 11  -21.0193 26023.5 -03491.8 -07.6422 26256.7
 05 10 2013  23 12  -21.0193 26023.5 -03491.8 -07.6423 26256.7
 05 10 2013  23 13  -21.0192 26023.5 -03491.8 -07.6423 26256.7
 05 10 2013  23 14  -21.0191 26023.5 -03491.9 -07.6424 26256.7
 05 10 2013  23 15  -21.0190 26023.5 -03491.9 -07.6425 26256.8
 05 10 2013  23 16  -21.0190 26023.4 -03492.0 -07.6426 26256.7
 05 10 2013  23 17  -21.0189 26023.4 -03491.9 -07.6425 26256.6
 05 10 2013  23 18  -21.0187 26023.4 -03492.0 -07.6426 26256.6
 05 10 2013  23 19  -21.0187 26023.4 -03492.0 -07.6426 26256.6
 05 10 2013  23 20  -21.0186 26023.4 -03492.0 -07.6427 26256.6
 05 10 2013  23 21  -21.0186 26023.4 -03492.0 -07.6428 26256.6
 05 10 2013  23 22  -21.0184 26023.3 -03492.0 -07.6428 26256.6
 05 10 2013  23 23  -21.0184 26023.3 -03492.1 -07.6429 26256.5
 05 10 2013  23 24  -21.0183 26023.3 -03492.1 -07.6429 26256.5
 05 10 2013  23 25  -21.0182 26023.3 -03492.1 -07.6430 26256.5
 05 10 2013  23 26  -21.0180 26023.2 -03492.1 -07.6430 26256.5
 05 10 2013  23 27  -21.0180 26023.2 -03492.1 -07.6430 26256.4
 05 10 2013  23 28  -21.0178 26023.1 -03492.1 -07.6430 26256.4
 05 10 2013  23 29  -21.0177 26023.1 -03492.1 -07.6431 26256.4
 05 10 2013  23 30  -21.0176 26023.0 -03492.1 -07.6431 26256.3
 05 10 2013  23 31  -21.0174 26023.0 -03492.1 -07.6431 26256.3
 05 10 2013  23 32  -21.0173 26023.0 -03492.2 -07.6432 26256.3
 05 10 2013  23 33  -21.0172 26023.0 -03492.2 -07.6432 26256.3
 05 10 2013  23 34  -21.0171 26023.0 -03492.2 -07.6432 26256.3
 05 10 2013  23 35  -21.0170 26023.0 -03492.2 -07.6432 26256.3
 05 10 2013  23 36  -21.0169 26022.9 -03492.2 -07.6433 26256.2
 05 10 2013  23 37  -21.0168 26022.9 -03492.2 -07.6433 26256.2
 05 10 2013  23 38  -21.0167 26022.9 -03492.2 -07.6433 26256.2
 05 10 2013  23 39  -21.0166 26022.9 -03492.2 -07.6433 26256.2
 05 10 2013  23 40  -21.0166 26022.9 -03492.3 -07.6434 26256.2
 05 10 2013  23 41  -21.0165 26022.9 -03492.3 -07.6434 26256.2
 05 10 2013  23 42  -21.0165 26022.9 -03492.3 -07.6434 26256.2
 05 10 2013  23 43  -21.0164 26022.9 -03492.3 -07.6434 26256.2
 05 10 2013  23 44  -21.0163 26022.9 -03492.3 -07.6434 26256.2
 05 10 2013  23 45  -21.0163 26022.9 -03492.3 -07.6435 26256.2
 05 10 2013  23 46  -21.0161 26022.9 -03492.3 -07.6434 26256.1
 05 10 2013  23 47  -21.0160 26022.9 -03492.3 -07.6434 26256.2
 05 10 2013  23 48  -21.0159 26022.9 -03492.3 -07.6434 26256.1
 05 10 2013  23 49  -21.0159 26022.9 -03492.3 -07.6434 26256.1
 05 10 2013  23 50  -21.0158 26022.8 -03492.2 -07.6434 26256.1
 05 10 2013  23 51  -21.0157 26022.8 -03492.3 -07.6434 26256.1
 05 10 2013  23 52  -21.0156 26022.9 -03492.2 -07.6434 26256.2
 05 10 2013  23 53  -21.0155 26022.9 -03492.3 -07.6434 26256.1
 05 10 2013  23 54  -21.0155 26022.9 -03492.3 -07.6434 26256.2
 05 10 2013  23 55  -21.0154 26022.9 -03492.3 -07.6435 26256.2
 05 10 2013  23 56  -21.0153 26022.9 -03492.3 -07.6434 26256.2
 05 10 2013  23 57  -21.0152 26022.9 -03492.3 -07.6435 26256.2
