SAO LUIS EMBRACE-03 <061> 1 Min. Reported data

 DD MM YYYY  HH MM   D(Deg)  H(nT)   Z(nT)   I(Deg)   F(nT)

 02 03 2013  00 00  -21.0754 26005.4 -03411.5 -07.4736 26228.2
 02 03 2013  00 01  -21.0742 26006.0 -03411.9 -07.4742 26228.8
 02 03 2013  00 02  -21.0732 26006.6 -03412.2 -07.4749 26229.5
 02 03 2013  00 03  -21.0726 26007.5 -03412.8 -07.4758 26230.4
 02 03 2013  00 04  -21.0720 26008.4 -03413.3 -07.4767 26231.4
 02 03 2013  00 05  -21.0718 26009.7 -03414.0 -07.4778 26232.8
 02 03 2013  00 06  -21.0718 26010.9 -03414.6 -07.4788 26234.0
 02 03 2013  00 07  -21.0722 26011.9 -03415.2 -07.4797 26235.1
 02 03 2013  00 08  -21.0728 26013.0 -03415.6 -07.4804 26236.3
 02 03 2013  00 09  -21.0737 26014.5 -03416.3 -07.4813 26237.9
 02 03 2013  00 10  -21.0744 26015.9 -03416.8 -07.4821 26239.4
 02 03 2013  00 11  -21.0752 26017.0 -03417.1 -07.4825 26240.5
 02 03 2013  00 12  -21.0760 26017.7 -03417.3 -07.4826 26241.2
 02 03 2013  00 13  -21.0770 26017.9 -03417.1 -07.4821 26241.4
 02 03 2013  00 14  -21.0775 26018.4 -03417.0 -07.4817 26241.8
 02 03 2013  00 15  -21.0781 26018.2 -03416.6 -07.4810 26241.6
 02 03 2013  00 16  -21.0784 26018.1 -03416.2 -07.4802 26241.4
 02 03 2013  00 17  -21.0783 26018.1 -03415.9 -07.4796 26241.4
 02 03 2013  00 18  -21.0780 26018.0 -03415.6 -07.4789 26241.2
 02 03 2013  00 19  -21.0774 26017.9 -03415.3 -07.4784 26241.1
 02 03 2013  00 20  -21.0763 26017.9 -03415.1 -07.4779 26241.1
 02 03 2013  00 21  -21.0753 26017.6 -03414.8 -07.4773 26240.8
 02 03 2013  00 22  -21.0745 26017.4 -03414.6 -07.4770 26240.5
 02 03 2013  00 23  -21.0743 26017.5 -03414.6 -07.4769 26240.6
 02 03 2013  00 24  -21.0737 26017.7 -03414.7 -07.4770 26240.8
 02 03 2013  00 25  -21.0727 26018.2 -03414.9 -07.4772 26241.3
 02 03 2013  00 26  -21.0718 26018.6 -03415.0 -07.4775 26241.7
 02 03 2013  00 27  -21.0710 26018.7 -03415.1 -07.4775 26241.9
 02 03 2013  00 28  -21.0700 26018.6 -03415.0 -07.4774 26241.8
 02 03 2013  00 29  -21.0688 26018.8 -03415.0 -07.4774 26242.0
 02 03 2013  00 30  -21.0677 26019.1 -03415.1 -07.4776 26242.3
 02 03 2013  00 31  -21.0665 26019.5 -03415.3 -07.4779 26242.7
 02 03 2013  00 32  -21.0654 26019.6 -03415.4 -07.4780 26242.8
 02 03 2013  00 33  -21.0638 26020.1 -03415.6 -07.4783 26243.3
 02 03 2013  00 34  -21.0622 26021.0 -03416.0 -07.4789 26244.3
 02 03 2013  00 35  -21.0615 26022.2 -03416.6 -07.4798 26245.5
 02 03 2013  00 36  -21.0614 26023.4 -03417.2 -07.4809 26246.8
 02 03 2013  00 37  -21.0614 26024.5 -03417.8 -07.4818 26247.9
 02 03 2013  00 38  -21.0608 26025.2 -03418.1 -07.4823 26248.7
 02 03 2013  00 39  -21.0595 26025.8 -03418.2 -07.4824 26249.4
 02 03 2013  00 40  -21.0576 26026.4 -03418.4 -07.4826 26250.0
 02 03 2013  00 41  -21.0561 26026.8 -03418.4 -07.4825 26250.3
 02 03 2013  00 42  -21.0550 26027.5 -03418.7 -07.4828 26251.0
 02 03 2013  00 43  -21.0544 26028.6 -03419.2 -07.4836 26252.3
 02 03 2013  00 44  -21.0539 26029.4 -03419.6 -07.4843 26253.1
 02 03 2013  00 45  -21.0533 26029.9 -03419.7 -07.4845 26253.6
 02 03 2013  00 46  -21.0527 26030.2 -03419.8 -07.4845 26253.8
 02 03 2013  00 47  -21.0519 26029.9 -03419.5 -07.4840 26253.6
 02 03 2013  00 48  -21.0510 26029.1 -03419.0 -07.4830 26252.7
 02 03 2013  00 49  -21.0502 26028.5 -03418.5 -07.4823 26252.0
 02 03 2013  00 50  -21.0496 26028.0 -03418.3 -07.4819 26251.5
 02 03 2013  00 51  -21.0490 26027.8 -03418.1 -07.4816 26251.3
 02 03 2013  00 52  -21.0488 26027.5 -03418.0 -07.4815 26251.0
 02 03 2013  00 53  -21.0486 26027.0 -03417.9 -07.4813 26250.5
 02 03 2013  00 54  -21.0484 26026.7 -03417.7 -07.4811 26250.1
 02 03 2013  00 55  -21.0481 26026.1 -03417.5 -07.4807 26249.5
 02 03 2013  00 56  -21.0478 26025.3 -03417.2 -07.4802 26248.7
 02 03 2013  00 57  -21.0476 26024.5 -03416.8 -07.4797 26247.8
 02 03 2013  00 58  -21.0475 26023.5 -03416.4 -07.4790 26246.8
 02 03 2013  00 59  -21.0476 26022.6 -03416.0 -07.4785 26245.9
 02 03 2013  01 00  -21.0481 26022.2 -03416.0 -07.4785 26245.5
 02 03 2013  01 01  -21.0486 26021.7 -03415.8 -07.4783 26244.9
 02 03 2013  01 02  -21.0487 26021.3 -03415.7 -07.4782 26244.6
 02 03 2013  01 03  -21.0490 26020.9 -03415.6 -07.4781 26244.1
 02 03 2013  01 04  -21.0494 26020.7 -03415.6 -07.4782 26243.9
 02 03 2013  01 05  -21.0503 26020.3 -03415.6 -07.4782 26243.6
 02 03 2013  01 06  -21.0513 26019.7 -03415.4 -07.4780 26242.9
 02 03 2013  01 07  -21.0523 26018.9 -03415.1 -07.4775 26242.0
 02 03 2013  01 08  -21.0528 26018.5 -03414.9 -07.4773 26241.7
 02 03 2013  01 09  -21.0530 26018.1 -03414.7 -07.4770 26241.2
 02 03 2013  01 10  -21.0529 26017.8 -03414.6 -07.4769 26240.9
 02 03 2013  01 11  -21.0530 26017.8 -03414.7 -07.4770 26241.0
 02 03 2013  01 12  -21.0532 26017.9 -03414.8 -07.4773 26241.0
 02 03 2013  01 13  -21.0533 26017.8 -03414.9 -07.4775 26241.0
 02 03 2013  01 14  -21.0538 26017.5 -03414.9 -07.4774 26240.7
 02 03 2013  01 15  -21.0542 26017.3 -03414.8 -07.4774 26240.4
 02 03 2013  01 16  -21.0545 26017.1 -03414.7 -07.4773 26240.2
 02 03 2013  01 17  -21.0547 26017.0 -03414.7 -07.4773 26240.1
 02 03 2013  01 18  -21.0549 26017.0 -03414.8 -07.4774 26240.1
 02 03 2013  01 19  -21.0548 26017.1 -03414.9 -07.4776 26240.2
 02 03 2013  01 20  -21.0545 26017.2 -03414.9 -07.4777 26240.3
 02 03 2013  01 21  -21.0539 26017.0 -03414.9 -07.4777 26240.1
 02 03 2013  01 22  -21.0533 26016.7 -03414.8 -07.4776 26239.8
 02 03 2013  01 23  -21.0528 26016.2 -03414.6 -07.4774 26239.4
 02 03 2013  01 24  -21.0520 26015.7 -03414.5 -07.4771 26238.8
 02 03 2013  01 25  -21.0519 26015.1 -03414.2 -07.4768 26238.2
 02 03 2013  01 26  -21.0521 26015.4 -03414.4 -07.4771 26238.5
 02 03 2013  01 27  -21.0523 26015.8 -03414.7 -07.4776 26238.9
 02 03 2013  01 28  -21.0528 26016.2 -03415.0 -07.4781 26239.4
 02 03 2013  01 29  -21.0530 26017.1 -03415.5 -07.4788 26240.3
 02 03 2013  01 30  -21.0536 26018.0 -03416.0 -07.4797 26241.3
 02 03 2013  01 31  -21.0536 26017.7 -03415.9 -07.4795 26241.0
 02 03 2013  01 32  -21.0534 26017.1 -03415.5 -07.4789 26240.4
 02 03 2013  01 33  -21.0536 26016.9 -03415.3 -07.4786 26240.1
 02 03 2013  01 34  -21.0535 26017.4 -03415.6 -07.4790 26240.6
 02 03 2013  01 35  -21.0533 26017.9 -03415.8 -07.4794 26241.1
 02 03 2013  01 36  -21.0533 26017.9 -03415.9 -07.4795 26241.2
 02 03 2013  01 37  -21.0532 26017.6 -03415.7 -07.4793 26240.9
 02 03 2013  01 38  -21.0533 26017.3 -03415.6 -07.4790 26240.5
 02 03 2013  01 39  -21.0536 26016.8 -03415.3 -07.4786 26240.0
 02 03 2013  01 40  -21.0538 26016.4 -03415.1 -07.4783 26239.5
 02 03 2013  01 41  -21.0537 26016.1 -03414.9 -07.4780 26239.3
 02 03 2013  01 42  -21.0533 26016.3 -03415.0 -07.4781 26239.5
 02 03 2013  01 43  -21.0528 26016.6 -03415.2 -07.4785 26239.8
 02 03 2013  01 44  -21.0524 26016.9 -03415.5 -07.4790 26240.1
 02 03 2013  01 45  -21.0524 26016.9 -03415.6 -07.4792 26240.2
 02 03 2013  01 46  -21.0529 26016.9 -03415.7 -07.4794 26240.1
 02 03 2013  01 47  -21.0535 26016.7 -03415.6 -07.4793 26239.9
 02 03 2013  01 48  -21.0540 26016.6 -03415.6 -07.4793 26239.8
 02 03 2013  01 49  -21.0543 26016.4 -03415.5 -07.4792 26239.7
 02 03 2013  01 50  -21.0549 26016.3 -03415.5 -07.4791 26239.5
 02 03 2013  01 51  -21.0556 26016.3 -03415.5 -07.4791 26239.5
 02 03 2013  01 52  -21.0563 26016.3 -03415.5 -07.4792 26239.6
 02 03 2013  01 53  -21.0570 26016.6 -03415.7 -07.4794 26239.9
 02 03 2013  01 54  -21.0578 26016.9 -03415.8 -07.4797 26240.2
 02 03 2013  01 55  -21.0585 26017.1 -03415.9 -07.4798 26240.4
 02 03 2013  01 56  -21.0594 26017.3 -03416.0 -07.4800 26240.6
 02 03 2013  01 57  -21.0600 26017.6 -03416.1 -07.4801 26240.9
 02 03 2013  01 58  -21.0601 26017.9 -03416.2 -07.4802 26241.2
 02 03 2013  01 59  -21.0598 26018.1 -03416.2 -07.4801 26241.4
 02 03 2013  02 00  -21.0590 26018.1 -03416.1 -07.4800 26241.4
 02 03 2013  02 01  -21.0581 26018.1 -03416.0 -07.4798 26241.3
 02 03 2013  02 02  -21.0569 26018.0 -03415.9 -07.4796 26241.3
 02 03 2013  02 03  -21.0557 26017.7 -03415.8 -07.4793 26241.0
 02 03 2013  02 04  -21.0548 26017.2 -03415.5 -07.4789 26240.5
 02 03 2013  02 05  -21.0544 26016.7 -03415.3 -07.4786 26239.9
 02 03 2013  02 06  -21.0542 26016.1 -03415.1 -07.4784 26239.3
 02 03 2013  02 07  -21.0539 26015.7 -03414.9 -07.4781 26238.8
 02 03 2013  02 08  -21.0537 26015.4 -03414.9 -07.4781 26238.5
 02 03 2013  02 09  -21.0540 26015.3 -03415.0 -07.4784 26238.5
 02 03 2013  02 10  -21.0547 26015.5 -03415.2 -07.4788 26238.8
 02 03 2013  02 11  -21.0552 26015.7 -03415.5 -07.4793 26239.0
 02 03 2013  02 12  -21.0551 26016.0 -03415.7 -07.4796 26239.3
 02 03 2013  02 13  -21.0549 26016.0 -03415.7 -07.4798 26239.3
 02 03 2013  02 14  -21.0550 26016.0 -03415.7 -07.4798 26239.2
 02 03 2013  02 15  -21.0554 26015.9 -03415.7 -07.4798 26239.1
 02 03 2013  02 16  -21.0559 26015.8 -03415.7 -07.4797 26239.0
 02 03 2013  02 17  -21.0564 26015.7 -03415.7 -07.4797 26238.9
 02 03 2013  02 18  -21.0565 26015.5 -03415.6 -07.4796 26238.8
 02 03 2013  02 19  -21.0566 26015.4 -03415.5 -07.4795 26238.7
 02 03 2013  02 20  -21.0566 26015.4 -03415.5 -07.4794 26238.6
 02 03 2013  02 21  -21.0567 26015.5 -03415.5 -07.4795 26238.7
 02 03 2013  02 22  -21.0572 26015.6 -03415.6 -07.4797 26238.9
 02 03 2013  02 23  -21.0579 26015.4 -03415.6 -07.4796 26238.7
 02 03 2013  02 24  -21.0587 26015.4 -03415.6 -07.4796 26238.6
 02 03 2013  02 25  -21.0592 26015.3 -03415.5 -07.4795 26238.6
 02 03 2013  02 26  -21.0595 26015.5 -03415.5 -07.4794 26238.7
 02 03 2013  02 27  -21.0596 26015.8 -03415.6 -07.4796 26239.0
 02 03 2013  02 28  -21.0599 26016.2 -03415.8 -07.4799 26239.5
 02 03 2013  02 29  -21.0603 26016.3 -03415.9 -07.4800 26239.6
 02 03 2013  02 30  -21.0606 26016.2 -03415.8 -07.4799 26239.5
 02 03 2013  02 31  -21.0607 26016.1 -03415.6 -07.4796 26239.3
 02 03 2013  02 32  -21.0604 26015.9 -03415.5 -07.4792 26239.1
 02 03 2013  02 33  -21.0603 26015.8 -03415.3 -07.4790 26239.0
 02 03 2013  02 34  -21.0604 26015.5 -03415.2 -07.4787 26238.8
 02 03 2013  02 35  -21.0605 26015.6 -03415.1 -07.4786 26238.8
 02 03 2013  02 36  -21.0609 26015.6 -03415.2 -07.4787 26238.8
 02 03 2013  02 37  -21.0614 26015.7 -03415.3 -07.4788 26238.9
 02 03 2013  02 38  -21.0613 26016.0 -03415.3 -07.4788 26239.2
 02 03 2013  02 39  -21.0609 26016.6 -03415.5 -07.4792 26239.8
 02 03 2013  02 40  -21.0604 26017.5 -03415.9 -07.4797 26240.7
 02 03 2013  02 41  -21.0598 26018.3 -03416.3 -07.4804 26241.6
 02 03 2013  02 42  -21.0586 26018.7 -03416.5 -07.4806 26242.0
 02 03 2013  02 43  -21.0582 26018.3 -03416.2 -07.4802 26241.6
 02 03 2013  02 44  -21.0579 26017.5 -03415.7 -07.4793 26240.8
 02 03 2013  02 45  -21.0576 26016.9 -03415.3 -07.4786 26240.1
 02 03 2013  02 46  -21.0581 26017.1 -03415.4 -07.4788 26240.4
 02 03 2013  02 47  -21.0584 26017.5 -03415.6 -07.4791 26240.8
 02 03 2013  02 48  -21.0582 26017.8 -03415.8 -07.4793 26241.0
 02 03 2013  02 49  -21.0579 26017.6 -03415.6 -07.4791 26240.8
 02 03 2013  02 50  -21.0573 26017.3 -03415.4 -07.4787 26240.5
 02 03 2013  02 51  -21.0564 26017.1 -03415.2 -07.4782 26240.3
 02 03 2013  02 52  -21.0557 26017.1 -03415.1 -07.4781 26240.3
 02 03 2013  02 53  -21.0557 26017.1 -03415.2 -07.4782 26240.3
 02 03 2013  02 54  -21.0558 26017.5 -03415.4 -07.4785 26240.8
 02 03 2013  02 55  -21.0559 26017.8 -03415.5 -07.4788 26241.0
 02 03 2013  02 56  -21.0555 26017.9 -03415.5 -07.4787 26241.1
 02 03 2013  02 57  -21.0549 26018.2 -03415.6 -07.4789 26241.5
 02 03 2013  02 58  -21.0541 26018.6 -03415.7 -07.4789 26241.8
 02 03 2013  02 59  -21.0537 26018.3 -03415.6 -07.4788 26241.6
 02 03 2013  03 00  -21.0533 26018.0 -03415.4 -07.4784 26241.2
 02 03 2013  03 01  -21.0530 26017.8 -03415.2 -07.4781 26241.0
 02 03 2013  03 02  -21.0527 26018.0 -03415.2 -07.4781 26241.2
 02 03 2013  03 03  -21.0531 26018.1 -03415.3 -07.4783 26241.3
 02 03 2013  03 04  -21.0540 26018.3 -03415.5 -07.4786 26241.5
 02 03 2013  03 05  -21.0550 26018.5 -03415.6 -07.4788 26241.7
 02 03 2013  03 06  -21.0560 26018.6 -03415.6 -07.4788 26241.8
 02 03 2013  03 07  -21.0567 26018.8 -03415.7 -07.4789 26242.0
 02 03 2013  03 08  -21.0572 26019.1 -03415.7 -07.4789 26242.3
 02 03 2013  03 09  -21.0573 26019.0 -03415.6 -07.4785 26242.2
 02 03 2013  03 10  -21.0572 26018.8 -03415.3 -07.4781 26242.0
 02 03 2013  03 11  -21.0572 26018.7 -03415.2 -07.4779 26241.9
 02 03 2013  03 12  -21.0576 26018.5 -03415.0 -07.4775 26241.6
 02 03 2013  03 13  -21.0580 26018.5 -03415.0 -07.4774 26241.6
 02 03 2013  03 14  -21.0582 26018.6 -03415.0 -07.4774 26241.7
 02 03 2013  03 15  -21.0582 26018.5 -03414.9 -07.4772 26241.6
 02 03 2013  03 16  -21.0582 26018.4 -03414.8 -07.4770 26241.5
 02 03 2013  03 17  -21.0579 26018.3 -03414.6 -07.4767 26241.4
 02 03 2013  03 18  -21.0575 26018.3 -03414.5 -07.4766 26241.4
 02 03 2013  03 19  -21.0570 26018.3 -03414.5 -07.4765 26241.4
 02 03 2013  03 20  -21.0565 26018.4 -03414.5 -07.4765 26241.5
 02 03 2013  03 21  -21.0562 26018.3 -03414.5 -07.4764 26241.4
 02 03 2013  03 22  -21.0558 26018.3 -03414.5 -07.4763 26241.4
 02 03 2013  03 23  -21.0553 26018.1 -03414.4 -07.4762 26241.2
 02 03 2013  03 24  -21.0547 26017.9 -03414.2 -07.4760 26240.9
 02 03 2013  03 25  -21.0541 26017.7 -03414.1 -07.4758 26240.8
 02 03 2013  03 26  -21.0536 26017.8 -03414.2 -07.4759 26240.8
 02 03 2013  03 27  -21.0531 26017.7 -03414.2 -07.4759 26240.8
 02 03 2013  03 28  -21.0530 26017.7 -03414.2 -07.4760 26240.8
 02 03 2013  03 29  -21.0529 26017.7 -03414.3 -07.4761 26240.8
 02 03 2013  03 30  -21.0531 26017.6 -03414.3 -07.4761 26240.7
 02 03 2013  03 31  -21.0531 26017.6 -03414.3 -07.4761 26240.7
 02 03 2013  03 32  -21.0530 26017.4 -03414.2 -07.4760 26240.5
 02 03 2013  03 33  -21.0530 26017.0 -03414.0 -07.4758 26240.1
 02 03 2013  03 34  -21.0528 26016.6 -03413.8 -07.4755 26239.6
 02 03 2013  03 35  -21.0526 26016.3 -03413.7 -07.4752 26239.3
 02 03 2013  03 36  -21.0525 26016.1 -03413.6 -07.4751 26239.1
 02 03 2013  03 37  -21.0524 26016.0 -03413.6 -07.4752 26239.0
 02 03 2013  03 38  -21.0525 26016.0 -03413.7 -07.4754 26239.0
 02 03 2013  03 39  -21.0528 26016.0 -03413.8 -07.4756 26239.0
 02 03 2013  03 40  -21.0531 26015.9 -03413.9 -07.4757 26239.0
 02 03 2013  03 41  -21.0535 26015.9 -03413.9 -07.4758 26238.9
 02 03 2013  03 42  -21.0535 26015.7 -03413.9 -07.4759 26238.8
 02 03 2013  03 43  -21.0536 26015.6 -03413.9 -07.4758 26238.6
 02 03 2013  03 44  -21.0539 26015.5 -03413.9 -07.4759 26238.5
 02 03 2013  03 45  -21.0543 26015.3 -03413.9 -07.4759 26238.3
 02 03 2013  03 46  -21.0546 26015.0 -03413.8 -07.4758 26238.0
 02 03 2013  03 47  -21.0548 26014.6 -03413.6 -07.4755 26237.6
 02 03 2013  03 48  -21.0547 26014.4 -03413.5 -07.4754 26237.4
 02 03 2013  03 49  -21.0549 26014.3 -03413.5 -07.4755 26237.3
 02 03 2013  03 50  -21.0553 26014.3 -03413.6 -07.4757 26237.3
 02 03 2013  03 51  -21.0558 26014.4 -03413.8 -07.4759 26237.5
 02 03 2013  03 52  -21.0564 26014.4 -03413.8 -07.4761 26237.5
 02 03 2013  03 53  -21.0568 26014.5 -03413.9 -07.4763 26237.6
 02 03 2013  03 54  -21.0572 26014.6 -03414.0 -07.4764 26237.7
 02 03 2013  03 55  -21.0577 26014.6 -03414.1 -07.4766 26237.7
 02 03 2013  03 56  -21.0579 26014.7 -03414.1 -07.4767 26237.8
 02 03 2013  03 57  -21.0582 26014.7 -03414.1 -07.4767 26237.8
 02 03 2013  03 58  -21.0580 26015.1 -03414.3 -07.4769 26238.2
 02 03 2013  03 59  -21.0574 26016.0 -03414.7 -07.4775 26239.2
 02 03 2013  04 00  -21.0572 26016.8 -03415.0 -07.4780 26239.9
 02 03 2013  04 01  -21.0567 26017.9 -03415.6 -07.4789 26241.1
 02 03 2013  04 02  -21.0556 26018.7 -03416.0 -07.4795 26242.0
 02 03 2013  04 03  -21.0542 26019.8 -03416.4 -07.4801 26243.1
 02 03 2013  04 04  -21.0533 26020.8 -03416.8 -07.4808 26244.1
 02 03 2013  04 05  -21.0519 26021.5 -03417.1 -07.4812 26244.9
 02 03 2013  04 06  -21.0505 26022.2 -03417.4 -07.4816 26245.6
 02 03 2013  04 07  -21.0495 26022.6 -03417.5 -07.4817 26246.1
 02 03 2013  04 08  -21.0493 26023.0 -03417.6 -07.4819 26246.5
 02 03 2013  04 09  -21.0493 26022.8 -03417.6 -07.4819 26246.3
 02 03 2013  04 10  -21.0489 26022.5 -03417.4 -07.4815 26246.0
 02 03 2013  04 11  -21.0484 26022.4 -03417.2 -07.4811 26245.8
 02 03 2013  04 12  -21.0480 26022.2 -03417.1 -07.4810 26245.6
 02 03 2013  04 13  -21.0482 26022.0 -03417.0 -07.4808 26245.4
 02 03 2013  04 14  -21.0488 26022.1 -03417.1 -07.4809 26245.5
 02 03 2013  04 15  -21.0488 26022.3 -03417.1 -07.4810 26245.7
 02 03 2013  04 16  -21.0489 26022.0 -03417.0 -07.4808 26245.4
 02 03 2013  04 17  -21.0491 26022.0 -03416.9 -07.4806 26245.3
 02 03 2013  04 18  -21.0490 26022.0 -03416.9 -07.4806 26245.3
 02 03 2013  04 19  -21.0493 26022.1 -03417.0 -07.4807 26245.5
 02 03 2013  04 20  -21.0497 26022.5 -03417.2 -07.4810 26245.9
 02 03 2013  04 21  -21.0497 26022.9 -03417.4 -07.4813 26246.4
 02 03 2013  04 22  -21.0496 26023.1 -03417.5 -07.4815 26246.6
 02 03 2013  04 23  -21.0497 26023.2 -03417.5 -07.4815 26246.7
 02 03 2013  04 24  -21.0501 26023.1 -03417.5 -07.4815 26246.6
 02 03 2013  04 25  -21.0504 26023.1 -03417.4 -07.4814 26246.6
 02 03 2013  04 26  -21.0510 26023.0 -03417.4 -07.4813 26246.5
 02 03 2013  04 27  -21.0515 26023.0 -03417.3 -07.4811 26246.4
 02 03 2013  04 28  -21.0521 26023.0 -03417.2 -07.4810 26246.4
 02 03 2013  04 29  -21.0525 26023.0 -03417.2 -07.4809 26246.4
 02 03 2013  04 30  -21.0524 26022.9 -03417.1 -07.4807 26246.3
 02 03 2013  04 31  -21.0521 26022.9 -03417.0 -07.4806 26246.3
 02 03 2013  04 32  -21.0517 26022.8 -03416.9 -07.4804 26246.2
 02 03 2013  04 33  -21.0513 26022.8 -03416.9 -07.4804 26246.2
 02 03 2013  04 34  -21.0510 26022.6 -03416.9 -07.4803 26246.0
 02 03 2013  04 35  -21.0507 26022.6 -03416.8 -07.4803 26245.9
 02 03 2013  04 36  -21.0506 26022.6 -03416.9 -07.4804 26246.0
 02 03 2013  04 37  -21.0508 26022.7 -03417.0 -07.4806 26246.1
 02 03 2013  04 38  -21.0511 26023.0 -03417.2 -07.4808 26246.4
 02 03 2013  04 39  -21.0515 26023.3 -03417.3 -07.4812 26246.7
 02 03 2013  04 40  -21.0518 26023.6 -03417.5 -07.4815 26247.1
 02 03 2013  04 41  -21.0520 26023.9 -03417.6 -07.4816 26247.4
 02 03 2013  04 42  -21.0515 26024.2 -03417.8 -07.4818 26247.7
 02 03 2013  04 43  -21.0510 26024.7 -03418.0 -07.4822 26248.2
 02 03 2013  04 44  -21.0506 26024.9 -03418.1 -07.4823 26248.4
 02 03 2013  04 45  -21.0505 26024.7 -03418.0 -07.4821 26248.2
 02 03 2013  04 46  -21.0506 26024.3 -03417.8 -07.4818 26247.8
 02 03 2013  04 47  -21.0510 26024.0 -03417.6 -07.4815 26247.4
 02 03 2013  04 48  -21.0517 26024.0 -03417.6 -07.4815 26247.5
 02 03 2013  04 49  -21.0526 26024.3 -03417.7 -07.4818 26247.8
 02 03 2013  04 50  -21.0532 26024.6 -03417.9 -07.4819 26248.0
 02 03 2013  04 51  -21.0538 26024.7 -03417.9 -07.4820 26248.2
 02 03 2013  04 52  -21.0541 26024.4 -03417.8 -07.4818 26247.9
 02 03 2013  04 53  -21.0548 26024.1 -03417.6 -07.4814 26247.6
 02 03 2013  04 54  -21.0552 26024.0 -03417.4 -07.4811 26247.4
 02 03 2013  04 55  -21.0553 26024.1 -03417.4 -07.4810 26247.6
 02 03 2013  04 56  -21.0553 26024.4 -03417.4 -07.4811 26247.8
 02 03 2013  04 57  -21.0555 26024.5 -03417.5 -07.4812 26247.9
 02 03 2013  04 58  -21.0556 26024.8 -03417.6 -07.4813 26248.2
 02 03 2013  04 59  -21.0555 26024.8 -03417.6 -07.4813 26248.2
 02 03 2013  05 00  -21.0551 26024.8 -03417.5 -07.4811 26248.2
 02 03 2013  05 01  -21.0542 26024.8 -03417.5 -07.4810 26248.3
 02 03 2013  05 02  -21.0531 26024.2 -03417.2 -07.4805 26247.6
 02 03 2013  05 03  -21.0524 26023.6 -03416.8 -07.4799 26246.9
 02 03 2013  05 04  -21.0523 26023.5 -03416.8 -07.4799 26246.8
 02 03 2013  05 05  -21.0527 26024.0 -03417.2 -07.4806 26247.4
 02 03 2013  05 06  -21.0537 26024.7 -03417.6 -07.4813 26248.1
 02 03 2013  05 07  -21.0538 26025.5 -03418.0 -07.4819 26249.0
 02 03 2013  05 08  -21.0537 26025.5 -03418.1 -07.4821 26249.0
 02 03 2013  05 09  -21.0533 26025.1 -03417.8 -07.4817 26248.6
 02 03 2013  05 10  -21.0521 26025.0 -03417.6 -07.4812 26248.5
 02 03 2013  05 11  -21.0508 26025.0 -03417.4 -07.4809 26248.4
 02 03 2013  05 12  -21.0503 26025.4 -03417.6 -07.4812 26248.9
 02 03 2013  05 13  -21.0500 26025.7 -03417.8 -07.4815 26249.2
 02 03 2013  05 14  -21.0495 26025.7 -03417.9 -07.4816 26249.2
 02 03 2013  05 15  -21.0491 26025.2 -03417.6 -07.4813 26248.7
 02 03 2013  05 16  -21.0491 26024.8 -03417.4 -07.4808 26248.2
 02 03 2013  05 17  -21.0487 26024.6 -03417.2 -07.4805 26248.0
 02 03 2013  05 18  -21.0483 26024.6 -03417.2 -07.4805 26248.0
 02 03 2013  05 19  -21.0482 26024.6 -03417.3 -07.4807 26248.0
 02 03 2013  05 20  -21.0482 26024.5 -03417.2 -07.4806 26247.9
 02 03 2013  05 21  -21.0484 26024.5 -03417.3 -07.4807 26247.9
 02 03 2013  05 22  -21.0489 26024.8 -03417.4 -07.4809 26248.2
 02 03 2013  05 23  -21.0496 26025.2 -03417.7 -07.4813 26248.7
 02 03 2013  05 24  -21.0498 26025.7 -03417.9 -07.4817 26249.1
 02 03 2013  05 25  -21.0499 26026.0 -03417.9 -07.4817 26249.4
 02 03 2013  05 26  -21.0502 26026.3 -03418.1 -07.4819 26249.8
 02 03 2013  05 27  -21.0503 26026.5 -03418.1 -07.4819 26250.0
 02 03 2013  05 28  -21.0500 26026.1 -03417.8 -07.4814 26249.5
 02 03 2013  05 29  -21.0493 26025.4 -03417.4 -07.4807 26248.9
 02 03 2013  05 30  -21.0489 26025.3 -03417.2 -07.4804 26248.7
 02 03 2013  05 31  -21.0485 26025.0 -03417.1 -07.4802 26248.4
 02 03 2013  05 32  -21.0480 26024.7 -03417.0 -07.4800 26248.1
 02 03 2013  05 33  -21.0474 26024.5 -03416.9 -07.4799 26247.8
 02 03 2013  05 34  -21.0470 26024.2 -03416.8 -07.4798 26247.5
 02 03 2013  05 35  -21.0467 26023.9 -03416.7 -07.4797 26247.2
 02 03 2013  05 36  -21.0465 26023.6 -03416.7 -07.4796 26246.9
 02 03 2013  05 37  -21.0468 26023.7 -03416.8 -07.4799 26247.1
 02 03 2013  05 38  -21.0474 26024.0 -03417.0 -07.4802 26247.4
 02 03 2013  05 39  -21.0478 26024.6 -03417.3 -07.4808 26248.0
 02 03 2013  05 40  -21.0486 26025.2 -03417.7 -07.4815 26248.7
 02 03 2013  05 41  -21.0493 26025.9 -03418.1 -07.4820 26249.4
 02 03 2013  05 42  -21.0495 26026.2 -03418.2 -07.4823 26249.8
 02 03 2013  05 43  -21.0495 26026.5 -03418.3 -07.4823 26250.0
 02 03 2013  05 44  -21.0494 26026.4 -03418.1 -07.4820 26249.9
 02 03 2013  05 45  -21.0493 26026.3 -03418.0 -07.4817 26249.8
 02 03 2013  05 46  -21.0492 26026.3 -03417.9 -07.4815 26249.7
 02 03 2013  05 47  -21.0492 26026.2 -03417.8 -07.4814 26249.7
 02 03 2013  05 48  -21.0493 26026.2 -03417.8 -07.4813 26249.6
 02 03 2013  05 49  -21.0492 26026.3 -03417.8 -07.4813 26249.7
 02 03 2013  05 50  -21.0493 26026.3 -03417.8 -07.4813 26249.7
 02 03 2013  05 51  -21.0495 26026.3 -03417.8 -07.4814 26249.8
 02 03 2013  05 52  -21.0497 26026.3 -03417.8 -07.4814 26249.7
 02 03 2013  05 53  -21.0500 26026.3 -03417.8 -07.4813 26249.7
 02 03 2013  05 54  -21.0503 26026.3 -03417.8 -07.4813 26249.8
 02 03 2013  05 55  -21.0505 26026.5 -03417.9 -07.4814 26250.0
 02 03 2013  05 56  -21.0507 26026.6 -03417.9 -07.4814 26250.1
 02 03 2013  05 57  -21.0504 26026.6 -03417.9 -07.4814 26250.1
 02 03 2013  05 58  -21.0505 26026.5 -03417.8 -07.4813 26250.0
 02 03 2013  05 59  -21.0506 26026.3 -03417.7 -07.4812 26249.8
 02 03 2013  06 00  -21.0505 26026.2 -03417.7 -07.4811 26249.7
 02 03 2013  06 01  -21.0502 26026.3 -03417.7 -07.4811 26249.7
 02 03 2013  06 02  -21.0499 26026.4 -03417.7 -07.4811 26249.9
 02 03 2013  06 03  -21.0497 26026.6 -03417.8 -07.4813 26250.0
 02 03 2013  06 04  -21.0496 26026.5 -03417.8 -07.4813 26249.9
 02 03 2013  06 05  -21.0496 26026.4 -03417.7 -07.4812 26249.8
 02 03 2013  06 06  -21.0494 26026.2 -03417.7 -07.4810 26249.6
 02 03 2013  06 07  -21.0493 26025.9 -03417.5 -07.4808 26249.4
 02 03 2013  06 08  -21.0491 26025.8 -03417.4 -07.4807 26249.2
 02 03 2013  06 09  -21.0487 26025.9 -03417.5 -07.4808 26249.3
 02 03 2013  06 10  -21.0487 26026.0 -03417.6 -07.4810 26249.5
 02 03 2013  06 11  -21.0488 26026.1 -03417.8 -07.4813 26249.6
 02 03 2013  06 12  -21.0489 26026.1 -03417.8 -07.4814 26249.6
 02 03 2013  06 13  -21.0486 26026.1 -03417.9 -07.4815 26249.6
 02 03 2013  06 14  -21.0486 26026.1 -03417.9 -07.4815 26249.5
 02 03 2013  06 15  -21.0486 26026.1 -03417.9 -07.4815 26249.5
 02 03 2013  06 16  -21.0487 26026.0 -03417.9 -07.4815 26249.4
 02 03 2013  06 17  -21.0481 26025.9 -03417.8 -07.4814 26249.3
 02 03 2013  06 18  -21.0474 26025.7 -03417.7 -07.4813 26249.2
 02 03 2013  06 19  -21.0471 26025.7 -03417.7 -07.4813 26249.1
 02 03 2013  06 20  -21.0470 26025.6 -03417.8 -07.4814 26249.1
 02 03 2013  06 21  -21.0470 26025.6 -03417.8 -07.4815 26249.1
 02 03 2013  06 22  -21.0471 26025.6 -03417.8 -07.4815 26249.0
 02 03 2013  06 23  -21.0473 26025.5 -03417.8 -07.4816 26249.0
 02 03 2013  06 24  -21.0475 26025.5 -03417.8 -07.4815 26249.0
 02 03 2013  06 25  -21.0476 26025.4 -03417.7 -07.4814 26248.8
 02 03 2013  06 26  -21.0479 26025.3 -03417.7 -07.4814 26248.8
 02 03 2013  06 27  -21.0483 26025.4 -03417.7 -07.4814 26248.9
 02 03 2013  06 28  -21.0489 26025.6 -03417.8 -07.4816 26249.1
 02 03 2013  06 29  -21.0498 26025.7 -03417.9 -07.4817 26249.2
 02 03 2013  06 30  -21.0505 26025.8 -03417.9 -07.4818 26249.3
 02 03 2013  06 31  -21.0506 26025.9 -03417.9 -07.4817 26249.3
 02 03 2013  06 32  -21.0506 26025.9 -03417.9 -07.4817 26249.4
 02 03 2013  06 33  -21.0506 26026.1 -03418.0 -07.4818 26249.6
 02 03 2013  06 34  -21.0505 26026.2 -03418.0 -07.4819 26249.7
 02 03 2013  06 35  -21.0507 26026.2 -03418.1 -07.4819 26249.7
 02 03 2013  06 36  -21.0508 26026.1 -03418.0 -07.4818 26249.6
 02 03 2013  06 37  -21.0508 26026.0 -03417.9 -07.4817 26249.5
 02 03 2013  06 38  -21.0508 26026.0 -03417.9 -07.4815 26249.4
 02 03 2013  06 39  -21.0511 26026.0 -03417.9 -07.4815 26249.5
 02 03 2013  06 40  -21.0511 26026.0 -03417.8 -07.4815 26249.5
 02 03 2013  06 41  -21.0511 26026.0 -03417.8 -07.4814 26249.4
 02 03 2013  06 42  -21.0505 26026.0 -03417.7 -07.4813 26249.4
 02 03 2013  06 43  -21.0501 26026.1 -03417.8 -07.4813 26249.6
 02 03 2013  06 44  -21.0499 26026.2 -03417.9 -07.4815 26249.7
 02 03 2013  06 45  -21.0499 26026.3 -03417.9 -07.4816 26249.8
 02 03 2013  06 46  -21.0499 26026.3 -03418.0 -07.4817 26249.8
 02 03 2013  06 47  -21.0498 26026.4 -03418.0 -07.4817 26249.9
 02 03 2013  06 48  -21.0499 26026.3 -03418.0 -07.4817 26249.8
 02 03 2013  06 49  -21.0500 26026.3 -03418.0 -07.4817 26249.8
 02 03 2013  06 50  -21.0504 26026.5 -03418.1 -07.4819 26250.0
 02 03 2013  06 51  -21.0506 26026.3 -03418.0 -07.4818 26249.8
 02 03 2013  06 52  -21.0505 26026.4 -03418.0 -07.4818 26249.9
 02 03 2013  06 53  -21.0505 26026.4 -03418.0 -07.4818 26249.9
 02 03 2013  06 54  -21.0509 26026.5 -03418.1 -07.4819 26250.0
 02 03 2013  06 55  -21.0512 26026.6 -03418.2 -07.4820 26250.1
 02 03 2013  06 56  -21.0512 26026.7 -03418.2 -07.4820 26250.2
 02 03 2013  06 57  -21.0506 26026.8 -03418.2 -07.4819 26250.3
 02 03 2013  06 58  -21.0501 26027.0 -03418.2 -07.4820 26250.5
 02 03 2013  06 59  -21.0500 26027.1 -03418.3 -07.4822 26250.6
 02 03 2013  07 00  -21.0498 26027.0 -03418.3 -07.4822 26250.5
 02 03 2013  07 01  -21.0495 26026.9 -03418.3 -07.4822 26250.4
 02 03 2013  07 02  -21.0494 26026.7 -03418.2 -07.4820 26250.2
 02 03 2013  07 03  -21.0498 26026.5 -03418.1 -07.4818 26250.0
 02 03 2013  07 04  -21.0503 26026.4 -03418.0 -07.4818 26249.9
 02 03 2013  07 05  -21.0507 26026.3 -03418.0 -07.4817 26249.7
 02 03 2013  07 06  -21.0506 26026.9 -03418.2 -07.4820 26250.4
 02 03 2013  07 07  -21.0508 26027.5 -03418.5 -07.4825 26251.0
 02 03 2013  07 08  -21.0508 26028.1 -03418.8 -07.4830 26251.7
 02 03 2013  07 09  -21.0508 26028.5 -03419.0 -07.4833 26252.1
 02 03 2013  07 10  -21.0506 26028.6 -03419.0 -07.4834 26252.2
 02 03 2013  07 11  -21.0502 26028.4 -03418.9 -07.4831 26252.0
 02 03 2013  07 12  -21.0503 26028.5 -03418.8 -07.4829 26252.1
 02 03 2013  07 13  -21.0505 26028.4 -03418.8 -07.4829 26252.0
 02 03 2013  07 14  -21.0505 26028.1 -03418.6 -07.4826 26251.7
 02 03 2013  07 15  -21.0505 26027.9 -03418.4 -07.4822 26251.4
 02 03 2013  07 16  -21.0501 26028.0 -03418.4 -07.4822 26251.5
 02 03 2013  07 17  -21.0500 26028.4 -03418.6 -07.4824 26251.9
 02 03 2013  07 18  -21.0498 26028.5 -03418.7 -07.4826 26252.0
 02 03 2013  07 19  -21.0495 26028.4 -03418.6 -07.4825 26251.9
 02 03 2013  07 20  -21.0496 26028.2 -03418.5 -07.4823 26251.8
 02 03 2013  07 21  -21.0496 26028.2 -03418.5 -07.4822 26251.7
 02 03 2013  07 22  -21.0496 26028.6 -03418.6 -07.4825 26252.2
 02 03 2013  07 23  -21.0496 26029.0 -03418.8 -07.4828 26252.6
 02 03 2013  07 24  -21.0497 26029.3 -03419.0 -07.4830 26252.9
 02 03 2013  07 25  -21.0496 26029.4 -03419.0 -07.4830 26253.0
 02 03 2013  07 26  -21.0495 26029.3 -03418.9 -07.4829 26252.9
 02 03 2013  07 27  -21.0493 26029.4 -03418.9 -07.4828 26253.0
 02 03 2013  07 28  -21.0493 26029.1 -03418.7 -07.4824 26252.7
 02 03 2013  07 29  -21.0487 26029.0 -03418.5 -07.4821 26252.6
 02 03 2013  07 30  -21.0483 26028.9 -03418.4 -07.4819 26252.4
 02 03 2013  07 31  -21.0478 26028.6 -03418.3 -07.4817 26252.1
 02 03 2013  07 32  -21.0474 26028.5 -03418.2 -07.4817 26252.0
 02 03 2013  07 33  -21.0470 26028.5 -03418.3 -07.4818 26252.0
 02 03 2013  07 34  -21.0469 26028.6 -03418.4 -07.4820 26252.1
 02 03 2013  07 35  -21.0463 26028.5 -03418.4 -07.4820 26252.0
 02 03 2013  07 36  -21.0456 26028.5 -03418.4 -07.4821 26252.0
 02 03 2013  07 37  -21.0449 26028.6 -03418.5 -07.4822 26252.1
 02 03 2013  07 38  -21.0446 26028.7 -03418.6 -07.4823 26252.3
 02 03 2013  07 39  -21.0438 26028.7 -03418.6 -07.4825 26252.3
 02 03 2013  07 40  -21.0429 26028.3 -03418.5 -07.4822 26251.8
 02 03 2013  07 41  -21.0422 26027.7 -03418.2 -07.4818 26251.2
 02 03 2013  07 42  -21.0415 26027.5 -03418.1 -07.4817 26251.0
 02 03 2013  07 43  -21.0409 26027.2 -03418.1 -07.4817 26250.7
 02 03 2013  07 44  -21.0406 26027.1 -03418.1 -07.4817 26250.6
 02 03 2013  07 45  -21.0401 26027.5 -03418.3 -07.4821 26251.0
 02 03 2013  07 46  -21.0400 26028.0 -03418.7 -07.4828 26251.5
 02 03 2013  07 47  -21.0401 26028.4 -03419.1 -07.4835 26252.0
 02 03 2013  07 48  -21.0401 26029.1 -03419.4 -07.4841 26252.7
 02 03 2013  07 49  -21.0406 26029.2 -03419.6 -07.4844 26252.9
 02 03 2013  07 50  -21.0408 26028.9 -03419.4 -07.4841 26252.5
 02 03 2013  07 51  -21.0409 26028.6 -03419.2 -07.4837 26252.3
 02 03 2013  07 52  -21.0407 26028.9 -03419.3 -07.4838 26252.5
 02 03 2013  07 53  -21.0408 26029.1 -03419.4 -07.4840 26252.7
 02 03 2013  07 54  -21.0409 26029.2 -03419.5 -07.4842 26252.9
 02 03 2013  07 55  -21.0411 26029.5 -03419.6 -07.4843 26253.2
 02 03 2013  07 56  -21.0412 26029.8 -03419.7 -07.4845 26253.5
 02 03 2013  07 57  -21.0412 26029.6 -03419.7 -07.4845 26253.3
 02 03 2013  07 58  -21.0412 26029.4 -03419.5 -07.4842 26253.1
 02 03 2013  07 59  -21.0418 26029.2 -03419.4 -07.4840 26252.9
 02 03 2013  08 00  -21.0422 26029.2 -03419.4 -07.4839 26252.8
 02 03 2013  08 01  -21.0418 26029.3 -03419.4 -07.4840 26253.0
 02 03 2013  08 02  -21.0414 26029.3 -03419.4 -07.4838 26252.9
 02 03 2013  08 03  -21.0414 26029.1 -03419.3 -07.4838 26252.8
 02 03 2013  08 04  -21.0413 26028.5 -03419.1 -07.4834 26252.1
 02 03 2013  08 05  -21.0406 26028.3 -03418.8 -07.4829 26251.8
 02 03 2013  08 06  -21.0400 26028.3 -03418.9 -07.4830 26251.9
 02 03 2013  08 07  -21.0396 26028.4 -03419.0 -07.4833 26252.0
 02 03 2013  08 08  -21.0395 26028.7 -03419.2 -07.4837 26252.3
 02 03 2013  08 09  -21.0392 26028.9 -03419.4 -07.4840 26252.6
 02 03 2013  08 10  -21.0386 26029.1 -03419.5 -07.4843 26252.8
 02 03 2013  08 11  -21.0385 26029.2 -03419.6 -07.4844 26252.8
 02 03 2013  08 12  -21.0384 26029.4 -03419.7 -07.4846 26253.1
 02 03 2013  08 13  -21.0386 26030.0 -03420.0 -07.4851 26253.7
 02 03 2013  08 14  -21.0390 26030.1 -03420.2 -07.4854 26253.8
 02 03 2013  08 15  -21.0393 26030.3 -03420.2 -07.4855 26254.1
 02 03 2013  08 16  -21.0396 26030.6 -03420.4 -07.4856 26254.4
 02 03 2013  08 17  -21.0404 26030.9 -03420.5 -07.4858 26254.7
 02 03 2013  08 18  -21.0406 26031.0 -03420.5 -07.4857 26254.8
 02 03 2013  08 19  -21.0413 26030.8 -03420.3 -07.4855 26254.5
 02 03 2013  08 20  -21.0417 26030.5 -03420.1 -07.4850 26254.3
 02 03 2013  08 21  -21.0417 26030.6 -03420.0 -07.4848 26254.3
 02 03 2013  08 22  -21.0421 26030.4 -03419.8 -07.4846 26254.1
 02 03 2013  08 23  -21.0424 26030.4 -03419.8 -07.4845 26254.1
 02 03 2013  08 24  -21.0428 26030.8 -03420.0 -07.4848 26254.5
 02 03 2013  08 25  -21.0431 26031.2 -03420.2 -07.4851 26254.9
 02 03 2013  08 26  -21.0434 26031.8 -03420.4 -07.4854 26255.5
 02 03 2013  08 27  -21.0436 26032.1 -03420.5 -07.4856 26255.9
 02 03 2013  08 28  -21.0441 26031.9 -03420.4 -07.4854 26255.6
 02 03 2013  08 29  -21.0444 26031.6 -03420.2 -07.4850 26255.3
 02 03 2013  08 30  -21.0443 26032.2 -03420.4 -07.4853 26256.0
 02 03 2013  08 31  -21.0443 26032.7 -03420.5 -07.4854 26256.5
 02 03 2013  08 32  -21.0442 26032.9 -03420.5 -07.4854 26256.6
 02 03 2013  08 33  -21.0445 26032.7 -03420.4 -07.4851 26256.5
 02 03 2013  08 34  -21.0450 26032.4 -03420.2 -07.4848 26256.1
 02 03 2013  08 35  -21.0457 26032.0 -03420.0 -07.4844 26255.7
 02 03 2013  08 36  -21.0462 26031.4 -03419.7 -07.4839 26255.1
 02 03 2013  08 37  -21.0465 26031.0 -03419.4 -07.4833 26254.6
 02 03 2013  08 38  -21.0468 26031.1 -03419.2 -07.4831 26254.7
 02 03 2013  08 39  -21.0472 26031.1 -03419.2 -07.4831 26254.7
 02 03 2013  08 40  -21.0472 26031.3 -03419.3 -07.4831 26254.9
 02 03 2013  08 41  -21.0476 26031.3 -03419.4 -07.4833 26254.9
 02 03 2013  08 42  -21.0484 26031.4 -03419.4 -07.4833 26255.0
 02 03 2013  08 43  -21.0488 26031.7 -03419.5 -07.4835 26255.3
 02 03 2013  08 44  -21.0491 26032.0 -03419.6 -07.4837 26255.7
 02 03 2013  08 45  -21.0490 26032.3 -03419.7 -07.4837 26255.9
 02 03 2013  08 46  -21.0491 26032.4 -03419.7 -07.4836 26256.0
 02 03 2013  08 47  -21.0492 26032.4 -03419.6 -07.4835 26256.1
 02 03 2013  08 48  -21.0493 26032.5 -03419.6 -07.4835 26256.2
 02 03 2013  08 49  -21.0492 26032.7 -03419.6 -07.4834 26256.3
 02 03 2013  08 50  -21.0492 26032.7 -03419.6 -07.4834 26256.3
 02 03 2013  08 51  -21.0491 26032.7 -03419.6 -07.4833 26256.4
 02 03 2013  08 52  -21.0489 26032.8 -03419.5 -07.4832 26256.4
 02 03 2013  08 53  -21.0487 26032.8 -03419.5 -07.4832 26256.4
 02 03 2013  08 54  -21.0482 26033.1 -03419.6 -07.4834 26256.8
 02 03 2013  08 55  -21.0479 26033.2 -03419.7 -07.4835 26256.9
 02 03 2013  08 56  -21.0475 26033.0 -03419.6 -07.4833 26256.6
 02 03 2013  08 57  -21.0470 26033.0 -03419.6 -07.4833 26256.7
 02 03 2013  08 58  -21.0466 26032.9 -03419.6 -07.4834 26256.5
 02 03 2013  08 59  -21.0463 26032.9 -03419.7 -07.4835 26256.5
 02 03 2013  09 00  -21.0462 26032.9 -03419.7 -07.4836 26256.6
 02 03 2013  09 01  -21.0460 26032.9 -03419.9 -07.4839 26256.6
 02 03 2013  09 02  -21.0457 26032.7 -03419.9 -07.4841 26256.4
 02 03 2013  09 03  -21.0455 26032.6 -03420.0 -07.4842 26256.3
 02 03 2013  09 04  -21.0455 26032.2 -03420.0 -07.4843 26255.9
 02 03 2013  09 05  -21.0455 26031.6 -03419.8 -07.4842 26255.3
 02 03 2013  09 06  -21.0451 26031.6 -03419.8 -07.4842 26255.3
 02 03 2013  09 07  -21.0449 26031.6 -03420.0 -07.4846 26255.3
 02 03 2013  09 08  -21.0447 26031.4 -03420.1 -07.4849 26255.1
 02 03 2013  09 09  -21.0447 26031.1 -03420.2 -07.4850 26254.8
 02 03 2013  09 10  -21.0452 26031.1 -03420.3 -07.4854 26254.8
 02 03 2013  09 11  -21.0456 26031.0 -03420.5 -07.4858 26254.8
 02 03 2013  09 12  -21.0463 26031.0 -03420.6 -07.4861 26254.8
 02 03 2013  09 13  -21.0470 26031.1 -03420.8 -07.4864 26254.9
 02 03 2013  09 14  -21.0476 26031.2 -03420.9 -07.4867 26255.0
 02 03 2013  09 15  -21.0482 26031.2 -03421.0 -07.4868 26255.0
 02 03 2013  09 16  -21.0485 26031.1 -03421.0 -07.4869 26255.0
 02 03 2013  09 17  -21.0489 26030.9 -03421.0 -07.4868 26254.8
 02 03 2013  09 18  -21.0498 26031.1 -03421.0 -07.4870 26254.9
 02 03 2013  09 19  -21.0506 26031.2 -03421.1 -07.4871 26255.0
 02 03 2013  09 20  -21.0510 26031.4 -03421.2 -07.4872 26255.2
 02 03 2013  09 21  -21.0516 26031.5 -03421.3 -07.4874 26255.4
 02 03 2013  09 22  -21.0523 26031.6 -03421.3 -07.4875 26255.5
 02 03 2013  09 23  -21.0531 26031.6 -03421.3 -07.4875 26255.5
 02 03 2013  09 24  -21.0538 26031.7 -03421.4 -07.4876 26255.6
 02 03 2013  09 25  -21.0543 26031.9 -03421.5 -07.4877 26255.8
 02 03 2013  09 26  -21.0552 26032.2 -03421.6 -07.4878 26256.1
 02 03 2013  09 27  -21.0566 26032.3 -03421.5 -07.4877 26256.2
 02 03 2013  09 28  -21.0569 26032.5 -03421.5 -07.4876 26256.4
 02 03 2013  09 29  -21.0567 26032.5 -03421.4 -07.4874 26256.4
 02 03 2013  09 30  -21.0571 26032.5 -03421.4 -07.4873 26256.4
 02 03 2013  09 31  -21.0578 26032.4 -03421.3 -07.4872 26256.3
 02 03 2013  09 32  -21.0583 26032.3 -03421.2 -07.4869 26256.1
 02 03 2013  09 33  -21.0593 26032.0 -03421.0 -07.4866 26255.8
 02 03 2013  09 34  -21.0603 26032.2 -03421.0 -07.4866 26256.0
 02 03 2013  09 35  -21.0610 26032.6 -03421.2 -07.4868 26256.5
 02 03 2013  09 36  -21.0617 26033.2 -03421.4 -07.4872 26257.0
 02 03 2013  09 37  -21.0626 26033.4 -03421.6 -07.4875 26257.3
 02 03 2013  09 38  -21.0632 26033.3 -03421.5 -07.4873 26257.2
 02 03 2013  09 39  -21.0638 26033.1 -03421.3 -07.4870 26257.0
 02 03 2013  09 40  -21.0639 26033.4 -03421.3 -07.4869 26257.2
 02 03 2013  09 41  -21.0640 26033.4 -03421.3 -07.4869 26257.3
 02 03 2013  09 42  -21.0639 26033.4 -03421.3 -07.4869 26257.3
 02 03 2013  09 43  -21.0643 26033.4 -03421.3 -07.4869 26257.3
 02 03 2013  09 44  -21.0648 26033.5 -03421.3 -07.4869 26257.4
 02 03 2013  09 45  -21.0649 26033.5 -03421.3 -07.4868 26257.3
 02 03 2013  09 46  -21.0650 26033.4 -03421.2 -07.4867 26257.3
 02 03 2013  09 47  -21.0652 26033.3 -03421.1 -07.4865 26257.2
 02 03 2013  09 48  -21.0656 26033.2 -03421.1 -07.4865 26257.1
 02 03 2013  09 49  -21.0658 26033.3 -03421.1 -07.4864 26257.1
 02 03 2013  09 50  -21.0661 26033.3 -03421.1 -07.4864 26257.1
 02 03 2013  09 51  -21.0668 26033.3 -03421.1 -07.4864 26257.1
 02 03 2013  09 52  -21.0674 26033.3 -03421.0 -07.4862 26257.1
 02 03 2013  09 53  -21.0682 26033.2 -03420.9 -07.4861 26257.0
 02 03 2013  09 54  -21.0687 26033.2 -03420.9 -07.4860 26257.0
 02 03 2013  09 55  -21.0689 26033.1 -03420.8 -07.4858 26256.9
 02 03 2013  09 56  -21.0697 26032.9 -03420.7 -07.4857 26256.7
 02 03 2013  09 57  -21.0705 26032.7 -03420.6 -07.4855 26256.5
 02 03 2013  09 58  -21.0712 26032.7 -03420.5 -07.4853 26256.4
 02 03 2013  09 59  -21.0717 26032.7 -03420.4 -07.4852 26256.4
 02 03 2013  10 00  -21.0720 26032.6 -03420.4 -07.4851 26256.3
 02 03 2013  10 01  -21.0724 26032.6 -03420.4 -07.4851 26256.4
 02 03 2013  10 02  -21.0725 26032.5 -03420.4 -07.4851 26256.3
 02 03 2013  10 03  -21.0724 26032.4 -03420.3 -07.4850 26256.1
 02 03 2013  10 04  -21.0727 26032.5 -03420.4 -07.4851 26256.3
 02 03 2013  10 05  -21.0733 26032.8 -03420.5 -07.4853 26256.6
 02 03 2013  10 06  -21.0737 26033.1 -03420.5 -07.4853 26256.8
 02 03 2013  10 07  -21.0742 26033.4 -03420.6 -07.4853 26257.1
 02 03 2013  10 08  -21.0748 26033.6 -03420.5 -07.4852 26257.3
 02 03 2013  10 09  -21.0753 26033.7 -03420.5 -07.4850 26257.4
 02 03 2013  10 10  -21.0758 26033.9 -03420.4 -07.4849 26257.6
 02 03 2013  10 11  -21.0762 26033.9 -03420.4 -07.4847 26257.6
 02 03 2013  10 12  -21.0765 26034.0 -03420.2 -07.4844 26257.7
 02 03 2013  10 13  -21.0770 26034.1 -03420.2 -07.4842 26257.8
 02 03 2013  10 14  -21.0771 26034.2 -03420.1 -07.4840 26257.9
 02 03 2013  10 15  -21.0770 26034.1 -03419.9 -07.4837 26257.8
 02 03 2013  10 16  -21.0770 26034.1 -03419.8 -07.4835 26257.8
 02 03 2013  10 17  -21.0773 26034.3 -03419.8 -07.4834 26257.9
 02 03 2013  10 18  -21.0776 26034.4 -03419.8 -07.4834 26258.1
 02 03 2013  10 19  -21.0778 26034.5 -03419.8 -07.4832 26258.1
 02 03 2013  10 20  -21.0778 26034.6 -03419.7 -07.4831 26258.2
 02 03 2013  10 21  -21.0777 26034.6 -03419.7 -07.4830 26258.2
 02 03 2013  10 22  -21.0778 26034.9 -03419.7 -07.4831 26258.5
 02 03 2013  10 23  -21.0777 26035.0 -03419.8 -07.4831 26258.7
 02 03 2013  10 24  -21.0777 26035.2 -03419.7 -07.4830 26258.8
 02 03 2013  10 25  -21.0778 26035.3 -03419.7 -07.4830 26258.9
 02 03 2013  10 26  -21.0778 26035.3 -03419.7 -07.4828 26259.0
 02 03 2013  10 27  -21.0779 26035.6 -03419.7 -07.4829 26259.2
 02 03 2013  10 28  -21.0781 26035.7 -03419.8 -07.4829 26259.4
 02 03 2013  10 29  -21.0779 26035.7 -03419.6 -07.4827 26259.3
 02 03 2013  10 30  -21.0777 26035.6 -03419.5 -07.4824 26259.2
 02 03 2013  10 31  -21.0780 26035.9 -03419.6 -07.4825 26259.5
 02 03 2013  10 32  -21.0782 26035.9 -03419.6 -07.4825 26259.5
 02 03 2013  10 33  -21.0780 26035.9 -03419.5 -07.4823 26259.5
 02 03 2013  10 34  -21.0779 26035.7 -03419.3 -07.4819 26259.3
 02 03 2013  10 35  -21.0779 26035.6 -03419.3 -07.4819 26259.2
 02 03 2013  10 36  -21.0777 26035.6 -03419.3 -07.4819 26259.2
 02 03 2013  10 37  -21.0776 26035.9 -03419.4 -07.4820 26259.4
 02 03 2013  10 38  -21.0780 26036.2 -03419.6 -07.4823 26259.8
 02 03 2013  10 39  -21.0782 26036.5 -03419.7 -07.4825 26260.1
 02 03 2013  10 40  -21.0788 26036.8 -03419.8 -07.4826 26260.4
 02 03 2013  10 41  -21.0784 26037.1 -03419.8 -07.4825 26260.8
 02 03 2013  10 42  -21.0779 26037.6 -03419.8 -07.4824 26261.2
 02 03 2013  10 43  -21.0788 26038.0 -03419.8 -07.4823 26261.6
 02 03 2013  10 44  -21.0791 26038.3 -03419.7 -07.4820 26261.9
 02 03 2013  10 45  -21.0793 26038.1 -03419.3 -07.4813 26261.7
 02 03 2013  10 46  -21.0795 26038.3 -03419.1 -07.4808 26261.8
 02 03 2013  10 47  -21.0800 26038.4 -03419.1 -07.4806 26261.9
 02 03 2013  10 48  -21.0803 26038.2 -03418.9 -07.4804 26261.7
 02 03 2013  10 49  -21.0805 26037.9 -03418.8 -07.4802 26261.3
 02 03 2013  10 50  -21.0803 26037.5 -03418.6 -07.4800 26261.0
 02 03 2013  10 51  -21.0802 26037.5 -03418.6 -07.4799 26260.9
 02 03 2013  10 52  -21.0799 26037.5 -03418.6 -07.4800 26261.0
 02 03 2013  10 53  -21.0800 26037.7 -03418.8 -07.4802 26261.2
 02 03 2013  10 54  -21.0794 26038.1 -03418.9 -07.4803 26261.6
 02 03 2013  10 55  -21.0792 26038.3 -03418.9 -07.4803 26261.8
 02 03 2013  10 56  -21.0790 26038.8 -03419.0 -07.4803 26262.3
 02 03 2013  10 57  -21.0791 26039.4 -03419.1 -07.4805 26263.0
 02 03 2013  10 58  -21.0795 26040.1 -03419.3 -07.4806 26263.6
 02 03 2013  10 59  -21.0797 26040.3 -03419.2 -07.4804 26263.8
 02 03 2013  11 00  -21.0790 26040.4 -03419.1 -07.4801 26263.9
 02 03 2013  11 01  -21.0790 26040.5 -03419.0 -07.4798 26264.0
 02 03 2013  11 02  -21.0791 26040.7 -03418.9 -07.4797 26264.1
 02 03 2013  11 03  -21.0790 26040.9 -03418.9 -07.4796 26264.4
 02 03 2013  11 04  -21.0787 26041.3 -03419.0 -07.4796 26264.8
 02 03 2013  11 05  -21.0785 26041.4 -03418.8 -07.4792 26264.9
 02 03 2013  11 06  -21.0787 26041.5 -03418.8 -07.4791 26265.0
 02 03 2013  11 07  -21.0790 26041.6 -03418.7 -07.4790 26265.1
 02 03 2013  11 08  -21.0792 26041.8 -03418.8 -07.4790 26265.3
 02 03 2013  11 09  -21.0792 26041.8 -03418.7 -07.4789 26265.2
 02 03 2013  11 10  -21.0787 26041.9 -03418.6 -07.4787 26265.4
 02 03 2013  11 11  -21.0787 26042.1 -03418.6 -07.4786 26265.5
 02 03 2013  11 12  -21.0787 26042.2 -03418.7 -07.4786 26265.7
 02 03 2013  11 13  -21.0791 26042.7 -03418.8 -07.4788 26266.1
 02 03 2013  11 14  -21.0793 26042.9 -03418.9 -07.4789 26266.4
 02 03 2013  11 15  -21.0796 26043.2 -03418.9 -07.4790 26266.7
 02 03 2013  11 16  -21.0795 26043.4 -03418.9 -07.4789 26266.8
 02 03 2013  11 17  -21.0792 26043.7 -03418.9 -07.4789 26267.1
 02 03 2013  11 18  -21.0789 26044.2 -03419.0 -07.4789 26267.6
 02 03 2013  11 19  -21.0789 26044.6 -03419.0 -07.4788 26268.0
 02 03 2013  11 20  -21.0788 26045.0 -03419.0 -07.4787 26268.5
 02 03 2013  11 21  -21.0783 26045.3 -03419.0 -07.4785 26268.7
 02 03 2013  11 22  -21.0785 26045.5 -03419.0 -07.4784 26269.0
 02 03 2013  11 23  -21.0786 26045.9 -03419.0 -07.4783 26269.4
 02 03 2013  11 24  -21.0787 26046.2 -03419.0 -07.4783 26269.6
 02 03 2013  11 25  -21.0785 26046.5 -03418.9 -07.4781 26269.9
 02 03 2013  11 26  -21.0778 26046.7 -03418.9 -07.4779 26270.1
 02 03 2013  11 27  -21.0779 26047.0 -03418.9 -07.4778 26270.4
 02 03 2013  11 28  -21.0782 26047.4 -03419.0 -07.4780 26270.8
 02 03 2013  11 29  -21.0784 26047.8 -03419.1 -07.4780 26271.3
 02 03 2013  11 30  -21.0780 26048.4 -03419.2 -07.4781 26271.9
 02 03 2013  11 31  -21.0780 26048.6 -03419.1 -07.4779 26272.1
 02 03 2013  11 32  -21.0778 26048.9 -03419.1 -07.4777 26272.3
 02 03 2013  11 33  -21.0779 26049.4 -03419.2 -07.4778 26272.8
 02 03 2013  11 34  -21.0779 26049.8 -03419.3 -07.4779 26273.2
 02 03 2013  11 35  -21.0777 26050.1 -03419.3 -07.4778 26273.5
 02 03 2013  11 36  -21.0778 26050.2 -03419.3 -07.4777 26273.7
 02 03 2013  11 37  -21.0780 26050.3 -03419.2 -07.4776 26273.7
 02 03 2013  11 38  -21.0783 26050.6 -03419.3 -07.4777 26274.1
 02 03 2013  11 39  -21.0782 26051.2 -03419.5 -07.4779 26274.6
 02 03 2013  11 40  -21.0779 26051.6 -03419.5 -07.4779 26275.1
 02 03 2013  11 41  -21.0780 26051.8 -03419.5 -07.4777 26275.2
 02 03 2013  11 42  -21.0782 26051.9 -03419.4 -07.4776 26275.4
 02 03 2013  11 43  -21.0784 26052.3 -03419.5 -07.4775 26275.8
 02 03 2013  11 44  -21.0789 26052.8 -03419.5 -07.4776 26276.2
 02 03 2013  11 45  -21.0791 26053.1 -03419.6 -07.4775 26276.6
 02 03 2013  11 46  -21.0790 26053.2 -03419.5 -07.4773 26276.7
 02 03 2013  11 47  -21.0792 26053.7 -03419.5 -07.4773 26277.1
 02 03 2013  11 48  -21.0793 26054.2 -03419.6 -07.4773 26277.6
 02 03 2013  11 49  -21.0792 26054.6 -03419.6 -07.4773 26278.0
 02 03 2013  11 50  -21.0794 26055.0 -03419.7 -07.4773 26278.5
 02 03 2013  11 51  -21.0796 26055.4 -03419.8 -07.4774 26278.9
 02 03 2013  11 52  -21.0798 26055.8 -03419.9 -07.4775 26279.3
 02 03 2013  11 53  -21.0800 26056.3 -03420.0 -07.4775 26279.8
 02 03 2013  11 54  -21.0799 26056.8 -03420.0 -07.4774 26280.3
 02 03 2013  11 55  -21.0804 26057.1 -03420.0 -07.4773 26280.6
 02 03 2013  11 56  -21.0806 26057.6 -03420.0 -07.4773 26281.1
 02 03 2013  11 57  -21.0809 26057.9 -03420.0 -07.4772 26281.4
 02 03 2013  11 58  -21.0811 26058.3 -03420.1 -07.4771 26281.8
 02 03 2013  11 59  -21.0811 26058.7 -03420.0 -07.4770 26282.2
 02 03 2013  12 00  -21.0813 26059.1 -03420.1 -07.4769 26282.6
 02 03 2013  12 01  -21.0815 26059.3 -03420.0 -07.4768 26282.7
 02 03 2013  12 02  -21.0818 26059.4 -03419.9 -07.4765 26282.8
 02 03 2013  12 03  -21.0824 26059.7 -03419.9 -07.4763 26283.2
 02 03 2013  12 04  -21.0833 26059.7 -03419.6 -07.4757 26283.1
 02 03 2013  12 05  -21.0854 26057.1 -03418.2 -07.4735 26280.3
 02 03 2013  12 06  -21.0879 26055.8 -03417.8 -07.4728 26279.0
 02 03 2013  12 07  -21.0886 26054.9 -03417.5 -07.4724 26278.1
 02 03 2013  12 08  -21.0884 26055.1 -03417.7 -07.4728 26278.3
 02 03 2013  12 09  -21.0877 26055.3 -03417.8 -07.4730 26278.5
 02 03 2013  12 10  -21.0870 26055.9 -03418.0 -07.4734 26279.1
 02 03 2013  12 11  -21.0866 26056.9 -03418.4 -07.4739 26280.1
 02 03 2013  12 12  -21.0863 26058.6 -03418.9 -07.4745 26281.9
 02 03 2013  12 13  -21.0859 26060.7 -03419.4 -07.4749 26284.0
 02 03 2013  12 14  -21.0865 26063.0 -03419.8 -07.4752 26286.4
 02 03 2013  12 15  -21.0868 26064.7 -03419.9 -07.4749 26288.1
 02 03 2013  12 16  -21.0869 26066.5 -03419.9 -07.4744 26289.9
 02 03 2013  12 17  -21.0870 26068.6 -03420.0 -07.4741 26292.0
 02 03 2013  12 18  -21.0870 26069.7 -03419.7 -07.4731 26293.0
 02 03 2013  12 19  -21.0868 26070.8 -03419.4 -07.4722 26294.1
 02 03 2013  12 20  -21.0859 26071.8 -03419.1 -07.4713 26295.0
 02 03 2013  12 21  -21.0850 26072.4 -03418.7 -07.4702 26295.6
 02 03 2013  12 22  -21.0846 26073.0 -03418.4 -07.4693 26296.1
 02 03 2013  12 23  -21.0841 26072.8 -03417.8 -07.4681 26295.9
 02 03 2013  12 24  -21.0838 26072.6 -03417.3 -07.4670 26295.6
 02 03 2013  12 25  -21.0839 26072.2 -03416.8 -07.4661 26295.1
 02 03 2013  12 26  -21.0843 26071.7 -03416.3 -07.4653 26294.6
 02 03 2013  12 27  -21.0846 26071.4 -03416.1 -07.4649 26294.3
 02 03 2013  12 28  -21.0848 26071.5 -03416.0 -07.4646 26294.3
 02 03 2013  12 29  -21.0851 26071.2 -03415.8 -07.4642 26294.0
 02 03 2013  12 30  -21.0852 26071.0 -03415.5 -07.4637 26293.8
 02 03 2013  12 31  -21.0856 26071.2 -03415.5 -07.4636 26293.9
 02 03 2013  12 32  -21.0861 26070.7 -03415.2 -07.4630 26293.4
 02 03 2013  12 33  -21.0866 26070.5 -03415.0 -07.4627 26293.2
 02 03 2013  12 34  -21.0868 26070.3 -03414.8 -07.4623 26293.0
 02 03 2013  12 35  -21.0869 26070.4 -03414.7 -07.4622 26293.1
 02 03 2013  12 36  -21.0869 26070.8 -03414.7 -07.4621 26293.5
 02 03 2013  12 37  -21.0875 26071.3 -03414.8 -07.4620 26294.0
 02 03 2013  12 38  -21.0881 26071.9 -03414.9 -07.4620 26294.6
 02 03 2013  12 39  -21.0887 26072.2 -03414.8 -07.4618 26294.9
 02 03 2013  12 40  -21.0895 26072.6 -03414.7 -07.4616 26295.3
 02 03 2013  12 41  -21.0898 26072.9 -03414.6 -07.4612 26295.5
 02 03 2013  12 42  -21.0901 26072.3 -03414.2 -07.4605 26294.9
 02 03 2013  12 43  -21.0911 26072.0 -03414.0 -07.4601 26294.6
 02 03 2013  12 44  -21.0918 26071.3 -03413.7 -07.4597 26293.8
 02 03 2013  12 45  -21.0924 26071.6 -03413.8 -07.4599 26294.1
 02 03 2013  12 46  -21.0929 26072.4 -03414.2 -07.4604 26295.0
 02 03 2013  12 47  -21.0933 26072.9 -03414.3 -07.4605 26295.5
 02 03 2013  12 48  -21.0942 26073.5 -03414.4 -07.4606 26296.1
 02 03 2013  12 49  -21.0945 26073.5 -03414.2 -07.4601 26296.1
 02 03 2013  12 50  -21.0946 26074.0 -03414.1 -07.4598 26296.6
 02 03 2013  12 51  -21.0948 26074.7 -03414.1 -07.4595 26297.2
 02 03 2013  12 52  -21.0950 26074.8 -03413.7 -07.4588 26297.3
 02 03 2013  12 53  -21.0954 26074.9 -03413.5 -07.4582 26297.4
 02 03 2013  12 54  -21.0959 26075.2 -03413.4 -07.4578 26297.6
 02 03 2013  12 55  -21.0961 26075.3 -03413.1 -07.4573 26297.7
 02 03 2013  12 56  -21.0976 26074.6 -03412.6 -07.4563 26297.0
 02 03 2013  12 57  -21.0991 26074.2 -03412.2 -07.4556 26296.5
 02 03 2013  12 58  -21.0993 26075.0 -03412.4 -07.4559 26297.3
 02 03 2013  12 59  -21.0992 26075.3 -03412.2 -07.4554 26297.6
 02 03 2013  13 00  -21.0989 26076.4 -03412.4 -07.4555 26298.7
 02 03 2013  13 01  -21.0989 26075.8 -03411.8 -07.4543 26298.1
 02 03 2013  13 02  -21.0991 26075.3 -03411.3 -07.4534 26297.5
 02 03 2013  13 03  -21.0995 26074.9 -03411.0 -07.4529 26297.0
 02 03 2013  13 04  -21.1000 26075.7 -03411.2 -07.4531 26297.9
 02 03 2013  13 05  -21.1009 26077.1 -03411.6 -07.4535 26299.3
 02 03 2013  13 06  -21.1013 26076.6 -03411.2 -07.4527 26298.8
 02 03 2013  13 07  -21.1005 26075.2 -03410.3 -07.4514 26297.2
 02 03 2013  13 08  -21.1002 26075.2 -03410.4 -07.4514 26297.3
 02 03 2013  13 09  -21.1003 26075.4 -03410.4 -07.4515 26297.5
 02 03 2013  13 10  -21.0998 26075.3 -03410.3 -07.4511 26297.3
 02 03 2013  13 11  -21.0992 26076.5 -03410.6 -07.4515 26298.6
 02 03 2013  13 12  -21.0996 26077.3 -03410.7 -07.4515 26299.4
 02 03 2013  13 13  -21.0996 26077.4 -03410.5 -07.4510 26299.4
 02 03 2013  13 14  -21.0989 26076.9 -03410.0 -07.4500 26298.9
 02 03 2013  13 15  -21.0983 26077.4 -03409.9 -07.4497 26299.4
 02 03 2013  13 16  -21.0976 26077.6 -03409.6 -07.4491 26299.5
 02 03 2013  13 17  -21.0971 26076.8 -03409.1 -07.4481 26298.7
 02 03 2013  13 18  -21.0968 26076.0 -03408.6 -07.4474 26297.8
 02 03 2013  13 19  -21.0961 26075.2 -03408.3 -07.4469 26297.0
 02 03 2013  13 20  -21.0961 26075.6 -03408.5 -07.4472 26297.4
 02 03 2013  13 21  -21.0959 26077.4 -03409.3 -07.4484 26299.3
 02 03 2013  13 22  -21.0958 26078.8 -03409.7 -07.4488 26300.7
 02 03 2013  13 23  -21.0959 26079.5 -03409.8 -07.4488 26301.5
 02 03 2013  13 24  -21.0961 26080.4 -03409.9 -07.4488 26302.4
 02 03 2013  13 25  -21.0960 26081.2 -03410.0 -07.4489 26303.2
 02 03 2013  13 26  -21.0957 26081.8 -03410.0 -07.4487 26303.8
 02 03 2013  13 27  -21.0944 26082.2 -03409.9 -07.4483 26304.2
 02 03 2013  13 28  -21.0935 26082.4 -03409.7 -07.4479 26304.3
 02 03 2013  13 29  -21.0931 26082.4 -03409.5 -07.4475 26304.3
 02 03 2013  13 30  -21.0925 26083.2 -03409.7 -07.4476 26305.1
 02 03 2013  13 31  -21.0927 26084.1 -03409.9 -07.4479 26306.1
 02 03 2013  13 32  -21.0924 26084.8 -03410.0 -07.4479 26306.8
 02 03 2013  13 33  -21.0917 26085.3 -03410.0 -07.4477 26307.2
 02 03 2013  13 34  -21.0908 26086.0 -03410.0 -07.4476 26308.0
 02 03 2013  13 35  -21.0906 26087.7 -03410.4 -07.4479 26309.7
 02 03 2013  13 36  -21.0908 26089.5 -03410.8 -07.4483 26311.5
 02 03 2013  13 37  -21.0906 26090.1 -03410.6 -07.4476 26312.1
 02 03 2013  13 38  -21.0899 26090.1 -03410.0 -07.4465 26312.0
 02 03 2013  13 39  -21.0894 26090.3 -03409.7 -07.4457 26312.2
 02 03 2013  13 40  -21.0896 26090.4 -03409.5 -07.4453 26312.3
 02 03 2013  13 41  -21.0898 26090.4 -03409.3 -07.4448 26312.2
 02 03 2013  13 42  -21.0901 26089.8 -03409.0 -07.4442 26311.6
 02 03 2013  13 43  -21.0907 26089.3 -03408.7 -07.4438 26311.0
 02 03 2013  13 44  -21.0901 26089.3 -03408.6 -07.4437 26311.1
 02 03 2013  13 45  -21.0894 26090.4 -03409.0 -07.4440 26312.1
 02 03 2013  13 46  -21.0896 26092.1 -03409.5 -07.4448 26313.9
 02 03 2013  13 47  -21.0901 26092.5 -03409.4 -07.4444 26314.3
 02 03 2013  13 48  -21.0900 26092.3 -03408.9 -07.4434 26314.0
 02 03 2013  13 49  -21.0894 26091.1 -03408.1 -07.4420 26312.7
 02 03 2013  13 50  -21.0889 26090.3 -03407.6 -07.4412 26311.9
 02 03 2013  13 51  -21.0892 26089.8 -03407.5 -07.4410 26311.3
 02 03 2013  13 52  -21.0891 26089.5 -03407.5 -07.4411 26311.1
 02 03 2013  13 53  -21.0890 26089.8 -03407.7 -07.4416 26311.4
 02 03 2013  13 54  -21.0889 26090.1 -03407.9 -07.4419 26311.7
 02 03 2013  13 55  -21.0885 26090.2 -03408.0 -07.4421 26311.8
 02 03 2013  13 56  -21.0882 26090.1 -03408.0 -07.4420 26311.8
 02 03 2013  13 57  -21.0883 26089.9 -03407.9 -07.4420 26311.5
 02 03 2013  13 58  -21.0886 26089.7 -03407.9 -07.4421 26311.3
 02 03 2013  13 59  -21.0889 26090.0 -03408.1 -07.4423 26311.6
 02 03 2013  14 00  -21.0887 26090.2 -03408.2 -07.4425 26311.9
 02 03 2013  14 01  -21.0886 26090.5 -03408.3 -07.4427 26312.2
 02 03 2013  14 02  -21.0887 26091.1 -03408.5 -07.4429 26312.8
 02 03 2013  14 03  -21.0887 26091.7 -03408.6 -07.4430 26313.4
 02 03 2013  14 04  -21.0886 26092.4 -03408.7 -07.4430 26314.1
 02 03 2013  14 05  -21.0886 26093.0 -03408.7 -07.4427 26314.7
 02 03 2013  14 06  -21.0888 26093.3 -03408.6 -07.4424 26315.0
 02 03 2013  14 07  -21.0892 26094.0 -03408.5 -07.4421 26315.6
 02 03 2013  14 08  -21.0889 26094.5 -03408.4 -07.4417 26316.2
 02 03 2013  14 09  -21.0884 26095.2 -03408.4 -07.4414 26316.9
 02 03 2013  14 10  -21.0880 26095.6 -03408.2 -07.4409 26317.2
 02 03 2013  14 11  -21.0878 26095.6 -03407.9 -07.4402 26317.2
 02 03 2013  14 12  -21.0877 26095.7 -03407.6 -07.4397 26317.3
 02 03 2013  14 13  -21.0879 26096.5 -03407.6 -07.4395 26318.0
 02 03 2013  14 14  -21.0882 26097.5 -03407.7 -07.4394 26319.0
 02 03 2013  14 15  -21.0877 26097.5 -03407.4 -07.4386 26319.0
 02 03 2013  14 16  -21.0866 26097.2 -03406.9 -07.4376 26318.6
 02 03 2013  14 17  -21.0857 26097.0 -03406.5 -07.4370 26318.4
 02 03 2013  14 18  -21.0851 26097.0 -03406.4 -07.4367 26318.4
 02 03 2013  14 19  -21.0846 26096.8 -03406.2 -07.4364 26318.1
 02 03 2013  14 20  -21.0843 26096.8 -03406.2 -07.4364 26318.2
 02 03 2013  14 21  -21.0839 26096.9 -03406.2 -07.4362 26318.3
 02 03 2013  14 22  -21.0836 26097.6 -03406.4 -07.4364 26319.0
 02 03 2013  14 23  -21.0832 26098.5 -03406.6 -07.4367 26319.9
 02 03 2013  14 24  -21.0834 26099.3 -03406.8 -07.4368 26320.7
 02 03 2013  14 25  -21.0832 26099.3 -03406.5 -07.4363 26320.7
 02 03 2013  14 26  -21.0831 26098.5 -03406.0 -07.4355 26319.8
 02 03 2013  14 27  -21.0828 26098.3 -03405.9 -07.4352 26319.6
 02 03 2013  14 28  -21.0826 26098.5 -03405.9 -07.4352 26319.9
 02 03 2013  14 29  -21.0828 26098.7 -03405.9 -07.4351 26320.0
 02 03 2013  14 30  -21.0830 26098.2 -03405.6 -07.4346 26319.5
 02 03 2013  14 31  -21.0832 26097.9 -03405.4 -07.4342 26319.1
 02 03 2013  14 32  -21.0838 26098.2 -03405.5 -07.4343 26319.4
 02 03 2013  14 33  -21.0834 26097.9 -03405.2 -07.4338 26319.1
 02 03 2013  14 34  -21.0836 26097.3 -03404.9 -07.4333 26318.5
 02 03 2013  14 35  -21.0839 26096.8 -03404.7 -07.4330 26318.0
 02 03 2013  14 36  -21.0840 26096.9 -03404.7 -07.4330 26318.1
 02 03 2013  14 37  -21.0837 26096.8 -03404.6 -07.4328 26318.0
 02 03 2013  14 38  -21.0833 26096.3 -03404.3 -07.4323 26317.4
 02 03 2013  14 39  -21.0834 26096.1 -03404.1 -07.4320 26317.2
 02 03 2013  14 40  -21.0838 26096.0 -03404.1 -07.4320 26317.1
 02 03 2013  14 41  -21.0846 26096.7 -03404.4 -07.4325 26317.8
 02 03 2013  14 42  -21.0853 26098.2 -03404.9 -07.4331 26319.3
 02 03 2013  14 43  -21.0869 26099.0 -03405.0 -07.4332 26320.2
 02 03 2013  14 44  -21.0881 26098.3 -03404.6 -07.4324 26319.5
 02 03 2013  14 45  -21.0879 26096.3 -03403.6 -07.4307 26317.3
 02 03 2013  14 46  -21.0876 26094.8 -03403.0 -07.4300 26315.8
 02 03 2013  14 47  -21.0883 26094.9 -03403.3 -07.4306 26315.9
 02 03 2013  14 48  -21.0888 26095.9 -03403.9 -07.4315 26317.0
 02 03 2013  14 49  -21.0895 26094.9 -03403.5 -07.4310 26315.9
 02 03 2013  14 50  -21.0894 26092.7 -03402.7 -07.4298 26313.7
 02 03 2013  14 51  -21.0911 26092.4 -03402.9 -07.4303 26313.3
 02 03 2013  14 52  -21.0904 26091.6 -03402.8 -07.4305 26312.6
 02 03 2013  14 53  -21.0883 26090.5 -03402.6 -07.4303 26311.5
 02 03 2013  14 54  -21.0872 26090.0 -03402.8 -07.4309 26310.9
 02 03 2013  14 55  -21.0874 26091.0 -03403.7 -07.4325 26312.0
 02 03 2013  14 56  -21.0881 26092.1 -03404.6 -07.4341 26313.3
 02 03 2013  14 57  -21.0890 26092.9 -03405.1 -07.4349 26314.1
 02 03 2013  14 58  -21.0893 26093.1 -03405.2 -07.4351 26314.4
 02 03 2013  14 59  -21.0893 26092.4 -03404.9 -07.4347 26313.7
 02 03 2013  15 00  -21.0901 26092.3 -03404.9 -07.4347 26313.5
 02 03 2013  15 01  -21.0920 26092.8 -03405.1 -07.4350 26314.0
 02 03 2013  15 02  -21.0938 26094.9 -03405.8 -07.4359 26316.2
 02 03 2013  15 03  -21.0947 26096.2 -03405.8 -07.4356 26317.5
 02 03 2013  15 04  -21.0955 26097.4 -03405.7 -07.4351 26318.6
 02 03 2013  15 05  -21.0951 26097.7 -03405.3 -07.4340 26319.0
 02 03 2013  15 06  -21.0953 26098.4 -03405.0 -07.4333 26319.6
 02 03 2013  15 07  -21.0954 26097.7 -03404.3 -07.4320 26318.8
 02 03 2013  15 08  -21.0944 26096.4 -03403.5 -07.4306 26317.4
 02 03 2013  15 09  -21.0941 26096.1 -03403.4 -07.4304 26317.1
 02 03 2013  15 10  -21.0936 26094.9 -03403.0 -07.4299 26315.9
 02 03 2013  15 11  -21.0929 26094.3 -03402.9 -07.4298 26315.2
 02 03 2013  15 12  -21.0930 26094.1 -03402.9 -07.4299 26315.0
 02 03 2013  15 13  -21.0935 26093.9 -03402.9 -07.4301 26314.9
 02 03 2013  15 14  -21.0933 26094.0 -03402.9 -07.4300 26314.9
 02 03 2013  15 15  -21.0930 26093.0 -03402.7 -07.4297 26314.0
 02 03 2013  15 16  -21.0917 26091.9 -03402.3 -07.4293 26312.8
 02 03 2013  15 17  -21.0909 26091.3 -03402.4 -07.4297 26312.2
 02 03 2013  15 18  -21.0898 26089.8 -03402.1 -07.4294 26310.7
 02 03 2013  15 19  -21.0888 26088.9 -03402.1 -07.4297 26309.8
 02 03 2013  15 20  -21.0890 26088.6 -03402.6 -07.4307 26309.6
 02 03 2013  15 21  -21.0894 26089.0 -03403.1 -07.4318 26310.1
 02 03 2013  15 22  -21.0893 26088.7 -03403.2 -07.4321 26309.7
 02 03 2013  15 23  -21.0888 26087.6 -03403.0 -07.4320 26308.6
 02 03 2013  15 24  -21.0881 26087.4 -03403.1 -07.4323 26308.4
 02 03 2013  15 25  -21.0877 26088.1 -03403.6 -07.4332 26309.2
 02 03 2013  15 26  -21.0877 26087.9 -03403.8 -07.4335 26309.0
 02 03 2013  15 27  -21.0880 26089.2 -03404.4 -07.4345 26310.4
 02 03 2013  15 28  -21.0880 26090.2 -03404.8 -07.4351 26311.4
 02 03 2013  15 29  -21.0871 26090.3 -03404.6 -07.4347 26311.5
 02 03 2013  15 30  -21.0861 26090.9 -03404.7 -07.4348 26312.1
 02 03 2013  15 31  -21.0849 26091.0 -03404.7 -07.4346 26312.2
 02 03 2013  15 32  -21.0852 26090.9 -03404.8 -07.4348 26312.2
 02 03 2013  15 33  -21.0837 26090.0 -03404.3 -07.4342 26311.1
 02 03 2013  15 34  -21.0831 26090.4 -03404.6 -07.4346 26311.6
 02 03 2013  15 35  -21.0832 26089.7 -03404.4 -07.4344 26310.8
 02 03 2013  15 36  -21.0818 26090.2 -03404.6 -07.4348 26311.4
 02 03 2013  15 37  -21.0810 26091.2 -03405.1 -07.4356 26312.5
 02 03 2013  15 38  -21.0805 26092.5 -03405.6 -07.4361 26313.9
 02 03 2013  15 39  -21.0802 26093.0 -03405.5 -07.4359 26314.3
 02 03 2013  15 40  -21.0786 26091.9 -03404.7 -07.4344 26313.1
 02 03 2013  15 41  -21.0776 26091.3 -03404.3 -07.4338 26312.4
 02 03 2013  15 42  -21.0770 26090.3 -03404.1 -07.4335 26311.4
 02 03 2013  15 43  -21.0763 26089.3 -03403.9 -07.4334 26310.4
 02 03 2013  15 44  -21.0755 26088.6 -03404.0 -07.4338 26309.7
 02 03 2013  15 45  -21.0742 26087.3 -03403.8 -07.4338 26308.5
 02 03 2013  15 46  -21.0731 26086.6 -03404.0 -07.4344 26307.7
 02 03 2013  15 47  -21.0720 26086.2 -03404.3 -07.4352 26307.4
 02 03 2013  15 48  -21.0715 26085.6 -03404.5 -07.4358 26306.8
 02 03 2013  15 49  -21.0700 26084.2 -03404.4 -07.4360 26305.4
 02 03 2013  15 50  -21.0685 26082.6 -03404.3 -07.4362 26303.9
 02 03 2013  15 51  -21.0677 26081.6 -03404.6 -07.4371 26302.9
 02 03 2013  15 52  -21.0682 26081.5 -03405.2 -07.4385 26302.9
 02 03 2013  15 53  -21.0682 26081.7 -03405.8 -07.4397 26303.2
 02 03 2013  15 54  -21.0679 26082.1 -03406.3 -07.4406 26303.6
 02 03 2013  15 55  -21.0676 26082.4 -03406.7 -07.4414 26303.9
 02 03 2013  15 56  -21.0674 26083.1 -03407.2 -07.4423 26304.7
 02 03 2013  15 57  -21.0671 26083.2 -03407.3 -07.4426 26304.8
 02 03 2013  15 58  -21.0671 26083.6 -03407.6 -07.4430 26305.2
 02 03 2013  15 59  -21.0680 26084.4 -03408.0 -07.4436 26306.1
 02 03 2013  16 00  -21.0685 26084.7 -03408.0 -07.4436 26306.4
 02 03 2013  16 01  -21.0684 26085.1 -03408.0 -07.4434 26306.7
 02 03 2013  16 02  -21.0677 26084.9 -03407.7 -07.4428 26306.6
 02 03 2013  16 03  -21.0672 26084.7 -03407.4 -07.4423 26306.3
 02 03 2013  16 04  -21.0661 26084.1 -03407.0 -07.4416 26305.7
 02 03 2013  16 05  -21.0644 26083.4 -03406.7 -07.4411 26304.9
 02 03 2013  16 06  -21.0632 26082.8 -03406.6 -07.4410 26304.3
 02 03 2013  16 07  -21.0626 26082.1 -03406.5 -07.4411 26303.6
 02 03 2013  16 08  -21.0620 26081.2 -03406.4 -07.4412 26302.7
 02 03 2013  16 09  -21.0616 26080.4 -03406.4 -07.4414 26301.9
 02 03 2013  16 10  -21.0608 26079.1 -03406.1 -07.4412 26300.6
 02 03 2013  16 11  -21.0598 26078.2 -03406.0 -07.4412 26299.7
 02 03 2013  16 12  -21.0593 26077.8 -03406.1 -07.4415 26299.3
 02 03 2013  16 13  -21.0588 26077.6 -03406.3 -07.4419 26299.1
 02 03 2013  16 14  -21.0582 26076.3 -03405.9 -07.4415 26297.8
 02 03 2013  16 15  -21.0580 26076.0 -03406.1 -07.4419 26297.5
 02 03 2013  16 16  -21.0579 26076.6 -03406.6 -07.4429 26298.2
 02 03 2013  16 17  -21.0575 26077.4 -03407.1 -07.4436 26299.0
 02 03 2013  16 18  -21.0569 26076.9 -03406.8 -07.4432 26298.5
 02 03 2013  16 19  -21.0562 26076.2 -03406.5 -07.4428 26297.7
 02 03 2013  16 20  -21.0554 26075.9 -03406.6 -07.4432 26297.4
 02 03 2013  16 21  -21.0550 26075.8 -03407.0 -07.4439 26297.4
 02 03 2013  16 22  -21.0539 26075.7 -03407.2 -07.4445 26297.3
 02 03 2013  16 23  -21.0538 26075.8 -03407.6 -07.4452 26297.5
 02 03 2013  16 24  -21.0540 26075.4 -03407.7 -07.4455 26297.1
 02 03 2013  16 25  -21.0536 26075.1 -03407.8 -07.4458 26296.8
 02 03 2013  16 26  -21.0532 26075.0 -03408.0 -07.4463 26296.8
 02 03 2013  16 27  -21.0526 26075.0 -03408.2 -07.4467 26296.8
 02 03 2013  16 28  -21.0528 26075.7 -03408.7 -07.4477 26297.6
 02 03 2013  16 29  -21.0530 26075.6 -03408.9 -07.4481 26297.5
 02 03 2013  16 30  -21.0521 26074.5 -03408.6 -07.4478 26296.3
 02 03 2013  16 31  -21.0516 26073.3 -03408.4 -07.4478 26295.1
 02 03 2013  16 32  -21.0513 26072.6 -03408.6 -07.4484 26294.5
 02 03 2013  16 33  -21.0507 26071.6 -03408.7 -07.4488 26293.5
 02 03 2013  16 34  -21.0505 26071.0 -03409.1 -07.4498 26292.9
 02 03 2013  16 35  -21.0510 26070.5 -03409.5 -07.4508 26292.5
 02 03 2013  16 36  -21.0515 26069.2 -03409.4 -07.4511 26291.2
 02 03 2013  16 37  -21.0521 26068.4 -03409.6 -07.4515 26290.4
 02 03 2013  16 38  -21.0531 26068.3 -03409.9 -07.4523 26290.3
 02 03 2013  16 39  -21.0542 26068.5 -03410.3 -07.4530 26290.7
 02 03 2013  16 40  -21.0547 26069.0 -03410.6 -07.4537 26291.2
 02 03 2013  16 41  -21.0543 26068.8 -03410.6 -07.4537 26291.0
 02 03 2013  16 42  -21.0536 26068.5 -03410.7 -07.4541 26290.7
 02 03 2013  16 43  -21.0536 26068.5 -03411.1 -07.4549 26290.7
 02 03 2013  16 44  -21.0547 26069.2 -03411.7 -07.4559 26291.5
 02 03 2013  16 45  -21.0553 26069.4 -03411.9 -07.4562 26291.7
 02 03 2013  16 46  -21.0552 26069.1 -03411.7 -07.4560 26291.4
 02 03 2013  16 47  -21.0553 26069.0 -03411.7 -07.4560 26291.3
 02 03 2013  16 48  -21.0559 26069.4 -03411.9 -07.4563 26291.7
 02 03 2013  16 49  -21.0562 26069.1 -03411.7 -07.4560 26291.4
 02 03 2013  16 50  -21.0558 26068.3 -03411.4 -07.4556 26290.5
 02 03 2013  16 51  -21.0555 26067.3 -03411.2 -07.4554 26289.6
 02 03 2013  16 52  -21.0557 26066.6 -03411.1 -07.4554 26288.8
 02 03 2013  16 53  -21.0561 26066.2 -03411.2 -07.4558 26288.4
 02 03 2013  16 54  -21.0571 26066.2 -03411.5 -07.4563 26288.5
 02 03 2013  16 55  -21.0582 26066.2 -03411.6 -07.4566 26288.5
 02 03 2013  16 56  -21.0596 26066.2 -03411.7 -07.4567 26288.5
 02 03 2013  16 57  -21.0605 26066.0 -03411.6 -07.4566 26288.3
 02 03 2013  16 58  -21.0608 26065.6 -03411.3 -07.4562 26287.8
 02 03 2013  16 59  -21.0611 26064.5 -03410.8 -07.4554 26286.7
 02 03 2013  17 00  -21.0611 26063.7 -03410.5 -07.4550 26285.9
 02 03 2013  17 01  -21.0613 26063.4 -03410.6 -07.4551 26285.6
 02 03 2013  17 02  -21.0620 26063.3 -03410.7 -07.4554 26285.5
 02 03 2013  17 03  -21.0625 26063.4 -03410.9 -07.4558 26285.6
 02 03 2013  17 04  -21.0622 26063.7 -03411.1 -07.4562 26286.0
 02 03 2013  17 05  -21.0617 26063.7 -03411.2 -07.4564 26285.9
 02 03 2013  17 06  -21.0609 26063.2 -03411.1 -07.4564 26285.5
 02 03 2013  17 07  -21.0596 26062.5 -03411.0 -07.4563 26284.7
 02 03 2013  17 08  -21.0582 26061.7 -03410.9 -07.4565 26283.9
 02 03 2013  17 09  -21.0573 26061.0 -03411.1 -07.4569 26283.3
 02 03 2013  17 10  -21.0566 26059.9 -03411.1 -07.4573 26282.2
 02 03 2013  17 11  -21.0556 26058.8 -03411.1 -07.4577 26281.1
 02 03 2013  17 12  -21.0544 26057.6 -03411.2 -07.4581 26280.0
 02 03 2013  17 13  -21.0542 26056.9 -03411.6 -07.4591 26279.3
 02 03 2013  17 14  -21.0535 26056.3 -03412.0 -07.4602 26278.7
 02 03 2013  17 15  -21.0536 26056.2 -03412.6 -07.4616 26278.8
 02 03 2013  17 16  -21.0539 26056.3 -03413.2 -07.4628 26278.9
 02 03 2013  17 17  -21.0549 26056.2 -03413.6 -07.4637 26278.9
 02 03 2013  17 18  -21.0557 26056.4 -03413.9 -07.4644 26279.1
 02 03 2013  17 19  -21.0564 26056.8 -03414.2 -07.4650 26279.5
 02 03 2013  17 20  -21.0562 26056.7 -03414.3 -07.4651 26279.4
 02 03 2013  17 21  -21.0562 26056.3 -03414.2 -07.4650 26279.0
 02 03 2013  17 22  -21.0565 26056.2 -03414.2 -07.4651 26278.9
 02 03 2013  17 23  -21.0563 26056.3 -03414.4 -07.4654 26279.0
 02 03 2013  17 24  -21.0553 26056.1 -03414.4 -07.4655 26278.8
 02 03 2013  17 25  -21.0549 26055.9 -03414.6 -07.4660 26278.7
 02 03 2013  17 26  -21.0548 26055.8 -03414.8 -07.4665 26278.6
 02 03 2013  17 27  -21.0543 26055.2 -03414.9 -07.4668 26278.0
 02 03 2013  17 28  -21.0538 26054.3 -03414.8 -07.4668 26277.2
 02 03 2013  17 29  -21.0535 26053.2 -03414.6 -07.4668 26276.0
 02 03 2013  17 30  -21.0532 26053.4 -03415.1 -07.4679 26276.2
 02 03 2013  17 31  -21.0541 26053.6 -03415.7 -07.4689 26276.6
 02 03 2013  17 32  -21.0546 26053.8 -03416.0 -07.4696 26276.8
 02 03 2013  17 33  -21.0545 26053.6 -03416.1 -07.4698 26276.6
 02 03 2013  17 34  -21.0546 26053.2 -03416.1 -07.4700 26276.2
 02 03 2013  17 35  -21.0547 26052.9 -03416.2 -07.4703 26275.9
 02 03 2013  17 36  -21.0549 26052.6 -03416.3 -07.4706 26275.7
 02 03 2013  17 37  -21.0555 26052.4 -03416.4 -07.4708 26275.5
 02 03 2013  17 38  -21.0565 26052.7 -03416.6 -07.4713 26275.8
 02 03 2013  17 39  -21.0571 26052.7 -03416.7 -07.4714 26275.8
 02 03 2013  17 40  -21.0573 26052.7 -03416.7 -07.4714 26275.8
 02 03 2013  17 41  -21.0579 26052.5 -03416.5 -07.4711 26275.6
 02 03 2013  17 42  -21.0579 26052.2 -03416.3 -07.4707 26275.3
 02 03 2013  17 43  -21.0579 26052.0 -03416.1 -07.4704 26275.0
 02 03 2013  17 44  -21.0578 26051.9 -03416.1 -07.4704 26274.9
 02 03 2013  17 45  -21.0575 26051.6 -03416.0 -07.4702 26274.6
 02 03 2013  17 46  -21.0569 26051.4 -03415.9 -07.4701 26274.4
 02 03 2013  17 47  -21.0569 26051.4 -03416.0 -07.4702 26274.4
 02 03 2013  17 48  -21.0572 26051.7 -03416.2 -07.4706 26274.7
 02 03 2013  17 49  -21.0568 26051.4 -03416.0 -07.4704 26274.4
 02 03 2013  17 50  -21.0564 26050.9 -03415.9 -07.4701 26273.9
 02 03 2013  17 51  -21.0564 26050.5 -03415.8 -07.4702 26273.5
 02 03 2013  17 52  -21.0569 26050.3 -03415.9 -07.4704 26273.4
 02 03 2013  17 53  -21.0569 26050.1 -03415.9 -07.4704 26273.1
 02 03 2013  17 54  -21.0563 26050.0 -03415.9 -07.4704 26273.0
 02 03 2013  17 55  -21.0563 26049.9 -03415.9 -07.4705 26272.9
 02 03 2013  17 56  -21.0564 26050.0 -03416.1 -07.4708 26273.1
 02 03 2013  17 57  -21.0562 26050.0 -03416.2 -07.4710 26273.0
 02 03 2013  17 58  -21.0553 26049.5 -03416.0 -07.4709 26272.5
 02 03 2013  17 59  -21.0548 26049.1 -03416.0 -07.4709 26272.1
 02 03 2013  18 00  -21.0554 26048.9 -03416.1 -07.4712 26271.9
 02 03 2013  18 01  -21.0560 26048.8 -03416.2 -07.4715 26271.8
 02 03 2013  18 02  -21.0556 26048.1 -03416.1 -07.4714 26271.2
 02 03 2013  18 03  -21.0553 26047.3 -03415.9 -07.4712 26270.3
 02 03 2013  18 04  -21.0556 26047.4 -03416.2 -07.4718 26270.4
 02 03 2013  18 05  -21.0567 26047.8 -03416.6 -07.4726 26271.0
 02 03 2013  18 06  -21.0576 26048.7 -03417.0 -07.4732 26271.9
 02 03 2013  18 07  -21.0580 26049.0 -03417.0 -07.4731 26272.1
 02 03 2013  18 08  -21.0584 26048.6 -03416.6 -07.4724 26271.7
 02 03 2013  18 09  -21.0591 26048.5 -03416.4 -07.4720 26271.6
 02 03 2013  18 10  -21.0597 26048.0 -03416.0 -07.4713 26271.0
 02 03 2013  18 11  -21.0602 26047.7 -03415.8 -07.4708 26270.7
 02 03 2013  18 12  -21.0617 26047.8 -03415.8 -07.4709 26270.8
 02 03 2013  18 13  -21.0627 26048.0 -03415.9 -07.4710 26271.0
 02 03 2013  18 14  -21.0633 26048.5 -03415.9 -07.4710 26271.6
 02 03 2013  18 15  -21.0640 26048.9 -03415.9 -07.4708 26271.9
 02 03 2013  18 16  -21.0643 26048.7 -03415.6 -07.4703 26271.7
 02 03 2013  18 17  -21.0646 26048.2 -03415.3 -07.4697 26271.1
 02 03 2013  18 18  -21.0648 26047.6 -03414.9 -07.4690 26270.5
 02 03 2013  18 19  -21.0653 26047.8 -03414.9 -07.4690 26270.7
 02 03 2013  18 20  -21.0651 26047.7 -03414.8 -07.4688 26270.6
 02 03 2013  18 21  -21.0647 26046.8 -03414.3 -07.4679 26269.6
 02 03 2013  18 22  -21.0644 26046.2 -03414.0 -07.4675 26269.0
 02 03 2013  18 23  -21.0646 26045.5 -03413.8 -07.4671 26268.3
 02 03 2013  18 24  -21.0644 26044.9 -03413.5 -07.4668 26267.7
 02 03 2013  18 25  -21.0644 26044.4 -03413.4 -07.4666 26267.1
 02 03 2013  18 26  -21.0645 26043.8 -03413.2 -07.4663 26266.5
 02 03 2013  18 27  -21.0649 26043.0 -03412.9 -07.4660 26265.7
 02 03 2013  18 28  -21.0652 26042.7 -03412.7 -07.4657 26265.3
 02 03 2013  18 29  -21.0650 26042.4 -03412.6 -07.4655 26265.0
 02 03 2013  18 30  -21.0649 26042.4 -03412.5 -07.4653 26265.0
 02 03 2013  18 31  -21.0652 26042.4 -03412.5 -07.4652 26265.0
 02 03 2013  18 32  -21.0655 26042.6 -03412.5 -07.4653 26265.2
 02 03 2013  18 33  -21.0655 26042.3 -03412.4 -07.4651 26264.9
 02 03 2013  18 34  -21.0651 26042.2 -03412.3 -07.4649 26264.8
 02 03 2013  18 35  -21.0645 26041.6 -03412.1 -07.4645 26264.2
 02 03 2013  18 36  -21.0640 26041.0 -03411.8 -07.4642 26263.5
 02 03 2013  18 37  -21.0637 26040.8 -03411.8 -07.4643 26263.3
 02 03 2013  18 38  -21.0636 26040.6 -03411.8 -07.4643 26263.1
 02 03 2013  18 39  -21.0637 26040.8 -03412.0 -07.4645 26263.4
 02 03 2013  18 40  -21.0633 26040.8 -03411.9 -07.4645 26263.4
 02 03 2013  18 41  -21.0628 26040.6 -03411.9 -07.4644 26263.2
 02 03 2013  18 42  -21.0623 26040.5 -03411.8 -07.4644 26263.0
 02 03 2013  18 43  -21.0621 26040.6 -03412.0 -07.4647 26263.2
 02 03 2013  18 44  -21.0625 26041.2 -03412.4 -07.4653 26263.8
 02 03 2013  18 45  -21.0632 26042.2 -03412.9 -07.4661 26264.9
 02 03 2013  18 46  -21.0636 26042.6 -03413.0 -07.4662 26265.3
 02 03 2013  18 47  -21.0630 26042.3 -03412.6 -07.4655 26264.9
 02 03 2013  18 48  -21.0620 26041.5 -03412.1 -07.4647 26264.1
 02 03 2013  18 49  -21.0621 26041.6 -03412.2 -07.4648 26264.2
 02 03 2013  18 50  -21.0625 26041.8 -03412.3 -07.4650 26264.4
 02 03 2013  18 51  -21.0630 26042.2 -03412.4 -07.4651 26264.8
 02 03 2013  18 52  -21.0632 26042.4 -03412.5 -07.4653 26265.1
 02 03 2013  18 53  -21.0636 26042.4 -03412.5 -07.4653 26265.1
 02 03 2013  18 54  -21.0639 26042.5 -03412.5 -07.4652 26265.2
 02 03 2013  18 55  -21.0640 26042.5 -03412.4 -07.4650 26265.1
 02 03 2013  18 56  -21.0642 26042.5 -03412.3 -07.4648 26265.1
 02 03 2013  18 57  -21.0641 26042.8 -03412.3 -07.4647 26265.4
 02 03 2013  18 58  -21.0644 26042.9 -03412.3 -07.4646 26265.5
 02 03 2013  18 59  -21.0645 26043.1 -03412.2 -07.4644 26265.7
 02 03 2013  19 00  -21.0645 26043.0 -03412.0 -07.4641 26265.5
 02 03 2013  19 01  -21.0644 26042.8 -03411.8 -07.4636 26265.3
 02 03 2013  19 02  -21.0642 26042.7 -03411.6 -07.4632 26265.2
 02 03 2013  19 03  -21.0643 26042.5 -03411.4 -07.4628 26265.0
 02 03 2013  19 04  -21.0640 26042.0 -03411.0 -07.4621 26264.4
 02 03 2013  19 05  -21.0635 26041.8 -03410.8 -07.4618 26264.2
 02 03 2013  19 06  -21.0633 26042.0 -03410.9 -07.4619 26264.5
 02 03 2013  19 07  -21.0628 26041.8 -03410.8 -07.4617 26264.2
 02 03 2013  19 08  -21.0625 26041.3 -03410.5 -07.4612 26263.7
 02 03 2013  19 09  -21.0620 26040.9 -03410.2 -07.4607 26263.3
 02 03 2013  19 10  -21.0614 26040.6 -03410.0 -07.4604 26262.9
 02 03 2013  19 11  -21.0613 26040.4 -03409.9 -07.4602 26262.7
 02 03 2013  19 12  -21.0610 26040.1 -03409.7 -07.4599 26262.4
 02 03 2013  19 13  -21.0607 26039.9 -03409.5 -07.4595 26262.1
 02 03 2013  19 14  -21.0600 26039.7 -03409.4 -07.4593 26262.0
 02 03 2013  19 15  -21.0592 26039.5 -03409.3 -07.4592 26261.8
 02 03 2013  19 16  -21.0584 26039.4 -03409.3 -07.4592 26261.6
 02 03 2013  19 17  -21.0578 26038.5 -03409.0 -07.4588 26260.8
 02 03 2013  19 18  -21.0569 26037.9 -03408.8 -07.4585 26260.1
 02 03 2013  19 19  -21.0561 26037.1 -03408.5 -07.4582 26259.2
 02 03 2013  19 20  -21.0558 26036.7 -03408.5 -07.4581 26258.8
 02 03 2013  19 21  -21.0553 26036.4 -03408.3 -07.4579 26258.5
 02 03 2013  19 22  -21.0548 26035.9 -03408.2 -07.4577 26258.0
 02 03 2013  19 23  -21.0541 26035.6 -03408.0 -07.4575 26257.7
 02 03 2013  19 24  -21.0535 26035.1 -03407.8 -07.4572 26257.2
 02 03 2013  19 25  -21.0529 26034.4 -03407.6 -07.4570 26256.5
 02 03 2013  19 26  -21.0525 26033.9 -03407.5 -07.4569 26256.0
 02 03 2013  19 27  -21.0523 26033.6 -03407.4 -07.4568 26255.7
 02 03 2013  19 28  -21.0528 26033.7 -03407.5 -07.4570 26255.8
 02 03 2013  19 29  -21.0525 26033.4 -03407.4 -07.4568 26255.4
 02 03 2013  19 30  -21.0522 26033.2 -03407.4 -07.4568 26255.2
 02 03 2013  19 31  -21.0522 26033.0 -03407.3 -07.4566 26255.0
 02 03 2013  19 32  -21.0515 26033.6 -03407.6 -07.4571 26255.7
 02 03 2013  19 33  -21.0521 26034.4 -03408.0 -07.4578 26256.5
 02 03 2013  19 34  -21.0527 26035.4 -03408.4 -07.4585 26257.5
 02 03 2013  19 35  -21.0537 26036.1 -03408.8 -07.4590 26258.3
 02 03 2013  19 36  -21.0544 26036.8 -03409.1 -07.4594 26259.1
 02 03 2013  19 37  -21.0544 26037.0 -03409.0 -07.4593 26259.2
 02 03 2013  19 38  -21.0544 26036.7 -03408.8 -07.4588 26258.9
 02 03 2013  19 39  -21.0545 26036.9 -03408.8 -07.4589 26259.1
 02 03 2013  19 40  -21.0547 26037.4 -03409.0 -07.4592 26259.7
 02 03 2013  19 41  -21.0549 26038.2 -03409.3 -07.4596 26260.4
 02 03 2013  19 42  -21.0551 26038.5 -03409.5 -07.4598 26260.7
 02 03 2013  19 43  -21.0551 26038.4 -03409.4 -07.4597 26260.7
 02 03 2013  19 44  -21.0557 26039.1 -03409.7 -07.4602 26261.4
 02 03 2013  19 45  -21.0561 26039.0 -03409.7 -07.4602 26261.3
 02 03 2013  19 46  -21.0563 26038.9 -03409.6 -07.4600 26261.2
 02 03 2013  19 47  -21.0567 26038.6 -03409.5 -07.4598 26260.9
 02 03 2013  19 48  -21.0571 26038.4 -03409.4 -07.4597 26260.7
 02 03 2013  19 49  -21.0575 26038.5 -03409.4 -07.4598 26260.8
 02 03 2013  19 50  -21.0577 26038.7 -03409.5 -07.4599 26260.9
 02 03 2013  19 51  -21.0585 26038.8 -03409.6 -07.4600 26261.0
 02 03 2013  19 52  -21.0586 26038.4 -03409.4 -07.4596 26260.7
 02 03 2013  19 53  -21.0587 26038.3 -03409.3 -07.4595 26260.5
 02 03 2013  19 54  -21.0588 26038.5 -03409.4 -07.4596 26260.8
 02 03 2013  19 55  -21.0587 26038.9 -03409.5 -07.4598 26261.1
 02 03 2013  19 56  -21.0587 26038.8 -03409.5 -07.4599 26261.1
 02 03 2013  19 57  -21.0588 26038.7 -03409.5 -07.4597 26261.0
 02 03 2013  19 58  -21.0588 26038.8 -03409.5 -07.4599 26261.1
 02 03 2013  19 59  -21.0586 26038.9 -03409.6 -07.4599 26261.2
 02 03 2013  20 00  -21.0582 26039.0 -03409.7 -07.4602 26261.3
 02 03 2013  20 01  -21.0582 26039.2 -03409.8 -07.4604 26261.6
 02 03 2013  20 02  -21.0580 26039.4 -03409.9 -07.4605 26261.7
 02 03 2013  20 03  -21.0580 26040.0 -03410.2 -07.4610 26262.3
 02 03 2013  20 04  -21.0583 26040.0 -03410.3 -07.4611 26262.4
 02 03 2013  20 05  -21.0589 26040.1 -03410.3 -07.4611 26262.4
 02 03 2013  20 06  -21.0596 26039.5 -03410.0 -07.4607 26261.8
 02 03 2013  20 07  -21.0593 26038.8 -03409.6 -07.4600 26261.0
 02 03 2013  20 08  -21.0592 26039.1 -03409.7 -07.4602 26261.4
 02 03 2013  20 09  -21.0594 26039.3 -03409.9 -07.4605 26261.6
 02 03 2013  20 10  -21.0594 26039.5 -03409.9 -07.4606 26261.8
 02 03 2013  20 11  -21.0598 26039.4 -03410.0 -07.4606 26261.7
 02 03 2013  20 12  -21.0598 26038.7 -03409.6 -07.4600 26260.9
 02 03 2013  20 13  -21.0600 26038.6 -03409.5 -07.4600 26260.9
 02 03 2013  20 14  -21.0601 26038.3 -03409.5 -07.4598 26260.6
 02 03 2013  20 15  -21.0600 26038.5 -03409.5 -07.4599 26260.8
 02 03 2013  20 16  -21.0599 26038.5 -03409.5 -07.4599 26260.8
 02 03 2013  20 17  -21.0599 26038.1 -03409.3 -07.4596 26260.4
 02 03 2013  20 18  -21.0595 26037.9 -03409.2 -07.4595 26260.2
 02 03 2013  20 19  -21.0592 26037.9 -03409.3 -07.4596 26260.2
 02 03 2013  20 20  -21.0591 26037.7 -03409.2 -07.4596 26259.9
 02 03 2013  20 21  -21.0588 26037.3 -03409.1 -07.4594 26259.6
 02 03 2013  20 22  -21.0588 26036.9 -03409.0 -07.4592 26259.1
 02 03 2013  20 23  -21.0588 26036.5 -03408.8 -07.4590 26258.7
 02 03 2013  20 24  -21.0587 26036.3 -03408.8 -07.4590 26258.5
 02 03 2013  20 25  -21.0587 26036.3 -03408.8 -07.4591 26258.5
 02 03 2013  20 26  -21.0586 26036.4 -03408.9 -07.4593 26258.6
 02 03 2013  20 27  -21.0584 26036.6 -03409.1 -07.4596 26258.9
 02 03 2013  20 28  -21.0583 26036.7 -03409.2 -07.4598 26258.9
 02 03 2013  20 29  -21.0579 26036.6 -03409.2 -07.4598 26258.8
 02 03 2013  20 30  -21.0577 26036.5 -03409.2 -07.4599 26258.8
 02 03 2013  20 31  -21.0574 26036.4 -03409.2 -07.4598 26258.6
 02 03 2013  20 32  -21.0569 26036.2 -03409.2 -07.4598 26258.4
 02 03 2013  20 33  -21.0564 26036.0 -03409.2 -07.4599 26258.3
 02 03 2013  20 34  -21.0559 26036.0 -03409.2 -07.4600 26258.3
 02 03 2013  20 35  -21.0554 26036.4 -03409.5 -07.4604 26258.7
 02 03 2013  20 36  -21.0549 26036.9 -03409.7 -07.4608 26259.2
 02 03 2013  20 37  -21.0542 26036.9 -03409.8 -07.4610 26259.2
 02 03 2013  20 38  -21.0537 26036.6 -03409.8 -07.4610 26259.0
 02 03 2013  20 39  -21.0533 26036.5 -03409.8 -07.4611 26258.9
 02 03 2013  20 40  -21.0528 26036.4 -03409.8 -07.4611 26258.7
 02 03 2013  20 41  -21.0526 26036.3 -03409.8 -07.4611 26258.7
 02 03 2013  20 42  -21.0522 26036.4 -03409.9 -07.4613 26258.7
 02 03 2013  20 43  -21.0521 26036.5 -03410.0 -07.4615 26258.8
 02 03 2013  20 44  -21.0519 26036.9 -03410.2 -07.4618 26259.2
 02 03 2013  20 45  -21.0520 26037.2 -03410.4 -07.4622 26259.6
 02 03 2013  20 46  -21.0520 26037.4 -03410.6 -07.4625 26259.8
 02 03 2013  20 47  -21.0519 26037.5 -03410.6 -07.4626 26260.0
 02 03 2013  20 48  -21.0519 26037.8 -03410.8 -07.4629 26260.2
 02 03 2013  20 49  -21.0518 26037.9 -03410.9 -07.4631 26260.4
 02 03 2013  20 50  -21.0516 26038.1 -03411.0 -07.4632 26260.5
 02 03 2013  20 51  -21.0514 26038.4 -03411.1 -07.4635 26260.9
 02 03 2013  20 52  -21.0511 26038.8 -03411.4 -07.4638 26261.4
 02 03 2013  20 53  -21.0507 26039.3 -03411.6 -07.4643 26261.8
 02 03 2013  20 54  -21.0502 26039.4 -03411.7 -07.4644 26261.9
 02 03 2013  20 55  -21.0498 26038.8 -03411.5 -07.4641 26261.3
 02 03 2013  20 56  -21.0494 26038.7 -03411.4 -07.4639 26261.2
 02 03 2013  20 57  -21.0490 26039.0 -03411.6 -07.4642 26261.6
 02 03 2013  20 58  -21.0487 26039.1 -03411.7 -07.4644 26261.7
 02 03 2013  20 59  -21.0484 26039.4 -03411.9 -07.4648 26262.0
 02 03 2013  21 00  -21.0481 26039.6 -03412.0 -07.4651 26262.2
 02 03 2013  21 01  -21.0480 26039.7 -03412.2 -07.4653 26262.3
 02 03 2013  21 02  -21.0479 26039.7 -03412.2 -07.4655 26262.3
 02 03 2013  21 03  -21.0479 26039.7 -03412.3 -07.4657 26262.3
 02 03 2013  21 04  -21.0479 26039.8 -03412.4 -07.4659 26262.5
 02 03 2013  21 05  -21.0480 26040.0 -03412.6 -07.4662 26262.6
 02 03 2013  21 06  -21.0480 26039.8 -03412.6 -07.4662 26262.5
 02 03 2013  21 07  -21.0483 26039.4 -03412.5 -07.4661 26262.1
 02 03 2013  21 08  -21.0485 26039.2 -03412.4 -07.4660 26261.9
 02 03 2013  21 09  -21.0487 26039.2 -03412.5 -07.4662 26261.9
 02 03 2013  21 10  -21.0486 26039.2 -03412.5 -07.4663 26261.9
 02 03 2013  21 11  -21.0486 26039.4 -03412.7 -07.4666 26262.1
 02 03 2013  21 12  -21.0488 26039.3 -03412.8 -07.4667 26262.0
 02 03 2013  21 13  -21.0488 26039.1 -03412.7 -07.4666 26261.8
 02 03 2013  21 14  -21.0488 26038.8 -03412.6 -07.4665 26261.5
 02 03 2013  21 15  -21.0487 26038.7 -03412.6 -07.4666 26261.4
 02 03 2013  21 16  -21.0488 26038.8 -03412.8 -07.4669 26261.5
 02 03 2013  21 17  -21.0489 26038.9 -03412.9 -07.4672 26261.6
 02 03 2013  21 18  -21.0489 26038.8 -03413.0 -07.4673 26261.5
 02 03 2013  21 19  -21.0490 26038.5 -03412.9 -07.4672 26261.2
 02 03 2013  21 20  -21.0493 26038.3 -03412.9 -07.4673 26261.0
 02 03 2013  21 21  -21.0495 26038.3 -03413.0 -07.4675 26261.1
 02 03 2013  21 22  -21.0499 26038.3 -03413.1 -07.4677 26261.0
 02 03 2013  21 23  -21.0503 26038.3 -03413.2 -07.4680 26261.0
 02 03 2013  21 24  -21.0509 26038.1 -03413.2 -07.4681 26260.9
 02 03 2013  21 25  -21.0517 26038.0 -03413.3 -07.4682 26260.7
 02 03 2013  21 26  -21.0521 26037.8 -03413.3 -07.4683 26260.5
 02 03 2013  21 27  -21.0526 26037.4 -03413.2 -07.4681 26260.1
 02 03 2013  21 28  -21.0531 26037.1 -03413.1 -07.4680 26259.9
 02 03 2013  21 29  -21.0535 26036.8 -03413.0 -07.4680 26259.5
 02 03 2013  21 30  -21.0539 26036.8 -03413.1 -07.4681 26259.5
 02 03 2013  21 31  -21.0542 26036.5 -03413.1 -07.4682 26259.3
 02 03 2013  21 32  -21.0544 26035.9 -03412.8 -07.4678 26258.6
 02 03 2013  21 33  -21.0547 26035.5 -03412.6 -07.4676 26258.2
 02 03 2013  21 34  -21.0548 26035.1 -03412.6 -07.4675 26257.8
 02 03 2013  21 35  -21.0547 26034.9 -03412.5 -07.4675 26257.6
 02 03 2013  21 36  -21.0547 26034.9 -03412.6 -07.4677 26257.6
 02 03 2013  21 37  -21.0545 26034.8 -03412.7 -07.4679 26257.5
 02 03 2013  21 38  -21.0542 26034.9 -03412.9 -07.4682 26257.7
 02 03 2013  21 39  -21.0540 26034.7 -03412.9 -07.4684 26257.5
 02 03 2013  21 40  -21.0537 26034.4 -03412.8 -07.4683 26257.1
 02 03 2013  21 41  -21.0536 26034.2 -03412.8 -07.4683 26256.9
 02 03 2013  21 42  -21.0537 26033.8 -03412.8 -07.4683 26256.5
 02 03 2013  21 43  -21.0536 26033.5 -03412.7 -07.4683 26256.2
 02 03 2013  21 44  -21.0535 26033.8 -03412.9 -07.4687 26256.6
 02 03 2013  21 45  -21.0534 26034.2 -03413.3 -07.4694 26257.0
 02 03 2013  21 46  -21.0532 26034.2 -03413.5 -07.4697 26257.0
 02 03 2013  21 47  -21.0533 26033.8 -03413.4 -07.4696 26256.7
 02 03 2013  21 48  -21.0535 26033.2 -03413.2 -07.4694 26256.0
 02 03 2013  21 49  -21.0538 26032.7 -03413.0 -07.4692 26255.5
 02 03 2013  21 50  -21.0541 26032.6 -03413.0 -07.4692 26255.4
 02 03 2013  21 51  -21.0543 26032.5 -03413.1 -07.4694 26255.3
 02 03 2013  21 52  -21.0543 26032.5 -03413.2 -07.4697 26255.3
 02 03 2013  21 53  -21.0546 26032.5 -03413.3 -07.4699 26255.3
 02 03 2013  21 54  -21.0546 26032.6 -03413.5 -07.4702 26255.4
 02 03 2013  21 55  -21.0546 26032.6 -03413.6 -07.4704 26255.4
 02 03 2013  21 56  -21.0547 26032.6 -03413.7 -07.4706 26255.4
 02 03 2013  21 57  -21.0548 26032.5 -03413.7 -07.4708 26255.4
 02 03 2013  21 58  -21.0550 26032.4 -03413.8 -07.4709 26255.3
 02 03 2013  21 59  -21.0549 26032.5 -03413.9 -07.4711 26255.4
 02 03 2013  22 00  -21.0551 26032.5 -03414.0 -07.4713 26255.4
 02 03 2013  22 01  -21.0553 26032.3 -03414.0 -07.4714 26255.2
 02 03 2013  22 02  -21.0556 26032.1 -03414.0 -07.4714 26255.0
 02 03 2013  22 03  -21.0558 26031.8 -03413.9 -07.4713 26254.7
 02 03 2013  22 04  -21.0561 26031.6 -03413.9 -07.4713 26254.5
 02 03 2013  22 05  -21.0565 26031.2 -03413.8 -07.4712 26254.1
 02 03 2013  22 06  -21.0567 26030.7 -03413.6 -07.4709 26253.6
 02 03 2013  22 07  -21.0570 26030.3 -03413.5 -07.4708 26253.1
 02 03 2013  22 08  -21.0571 26029.8 -03413.3 -07.4707 26252.7
 02 03 2013  22 09  -21.0571 26029.4 -03413.2 -07.4705 26252.3
 02 03 2013  22 10  -21.0573 26029.2 -03413.2 -07.4706 26252.1
 02 03 2013  22 11  -21.0574 26029.1 -03413.3 -07.4708 26251.9
 02 03 2013  22 12  -21.0576 26028.7 -03413.2 -07.4708 26251.6
 02 03 2013  22 13  -21.0577 26028.4 -03413.2 -07.4707 26251.2
 02 03 2013  22 14  -21.0578 26028.1 -03413.1 -07.4707 26250.9
 02 03 2013  22 15  -21.0578 26027.9 -03413.1 -07.4708 26250.8
 02 03 2013  22 16  -21.0578 26027.9 -03413.2 -07.4709 26250.8
 02 03 2013  22 17  -21.0580 26028.0 -03413.4 -07.4713 26250.9
 02 03 2013  22 18  -21.0582 26027.7 -03413.4 -07.4714 26250.6
 02 03 2013  22 19  -21.0583 26027.2 -03413.2 -07.4711 26250.1
 02 03 2013  22 20  -21.0584 26026.8 -03413.1 -07.4709 26249.7
 02 03 2013  22 21  -21.0582 26026.5 -03412.9 -07.4707 26249.3
 02 03 2013  22 22  -21.0580 26026.6 -03413.0 -07.4709 26249.4
 02 03 2013  22 23  -21.0578 26026.6 -03413.2 -07.4713 26249.5
 02 03 2013  22 24  -21.0576 26026.9 -03413.4 -07.4717 26249.7
 02 03 2013  22 25  -21.0574 26027.0 -03413.6 -07.4720 26249.9
 02 03 2013  22 26  -21.0571 26027.3 -03413.8 -07.4724 26250.2
 02 03 2013  22 27  -21.0568 26027.4 -03413.9 -07.4726 26250.4
 02 03 2013  22 28  -21.0567 26027.6 -03414.1 -07.4730 26250.6
 02 03 2013  22 29  -21.0567 26027.7 -03414.2 -07.4731 26250.6
 02 03 2013  22 30  -21.0567 26027.6 -03414.2 -07.4732 26250.6
 02 03 2013  22 31  -21.0568 26027.7 -03414.3 -07.4733 26250.7
 02 03 2013  22 32  -21.0571 26027.7 -03414.3 -07.4733 26250.7
 02 03 2013  22 33  -21.0573 26027.5 -03414.2 -07.4732 26250.5
 02 03 2013  22 34  -21.0574 26027.5 -03414.2 -07.4731 26250.4
 02 03 2013  22 35  -21.0575 26027.4 -03414.1 -07.4731 26250.3
 02 03 2013  22 36  -21.0578 26027.2 -03414.1 -07.4730 26250.2
 02 03 2013  22 37  -21.0578 26027.3 -03414.1 -07.4731 26250.3
 02 03 2013  22 38  -21.0578 26027.3 -03414.1 -07.4730 26250.2
 02 03 2013  22 39  -21.0576 26027.4 -03414.1 -07.4731 26250.3
 02 03 2013  22 40  -21.0575 26027.4 -03414.1 -07.4730 26250.3
 02 03 2013  22 41  -21.0577 26027.2 -03414.1 -07.4729 26250.2
 02 03 2013  22 42  -21.0578 26026.9 -03413.9 -07.4728 26249.9
 02 03 2013  22 43  -21.0578 26026.5 -03413.8 -07.4725 26249.5
 02 03 2013  22 44  -21.0579 26026.3 -03413.6 -07.4723 26249.2
 02 03 2013  22 45  -21.0583 26025.9 -03413.5 -07.4722 26248.8
 02 03 2013  22 46  -21.0585 26025.5 -03413.4 -07.4719 26248.4
 02 03 2013  22 47  -21.0587 26025.2 -03413.3 -07.4719 26248.1
 02 03 2013  22 48  -21.0590 26025.0 -03413.3 -07.4719 26247.9
 02 03 2013  22 49  -21.0594 26025.0 -03413.3 -07.4720 26247.9
 02 03 2013  22 50  -21.0596 26024.9 -03413.3 -07.4719 26247.8
 02 03 2013  22 51  -21.0598 26024.6 -03413.2 -07.4719 26247.5
 02 03 2013  22 52  -21.0599 26024.3 -03413.1 -07.4717 26247.2
 02 03 2013  22 53  -21.0601 26023.9 -03412.9 -07.4715 26246.8
 02 03 2013  22 54  -21.0602 26023.6 -03412.8 -07.4713 26246.5
 02 03 2013  22 55  -21.0603 26023.3 -03412.7 -07.4711 26246.1
 02 03 2013  22 56  -21.0603 26023.1 -03412.6 -07.4709 26245.9
 02 03 2013  22 57  -21.0604 26022.9 -03412.5 -07.4709 26245.7
 02 03 2013  22 58  -21.0601 26022.6 -03412.5 -07.4708 26245.4
 02 03 2013  22 59  -21.0599 26022.2 -03412.3 -07.4706 26245.0
 02 03 2013  23 00  -21.0595 26021.9 -03412.2 -07.4704 26244.7
 02 03 2013  23 01  -21.0589 26022.0 -03412.3 -07.4705 26244.8
 02 03 2013  23 02  -21.0578 26022.4 -03412.5 -07.4709 26245.2
 02 03 2013  23 03  -21.0574 26022.6 -03412.7 -07.4714 26245.4
 02 03 2013  23 04  -21.0564 26022.6 -03412.9 -07.4717 26245.5
 02 03 2013  23 05  -21.0552 26023.0 -03413.1 -07.4722 26245.9
 02 03 2013  23 06  -21.0543 26023.1 -03413.2 -07.4723 26246.0
 02 03 2013  23 07  -21.0531 26024.0 -03413.7 -07.4731 26246.9
 02 03 2013  23 08  -21.0528 26024.3 -03414.1 -07.4738 26247.3
 02 03 2013  23 09  -21.0525 26024.8 -03414.4 -07.4743 26247.8
 02 03 2013  23 10  -21.0521 26025.5 -03414.8 -07.4752 26248.5
 02 03 2013  23 11  -21.0518 26025.8 -03415.0 -07.4754 26248.9
 02 03 2013  23 12  -21.0512 26026.5 -03415.3 -07.4758 26249.6
 02 03 2013  23 13  -21.0510 26027.5 -03415.8 -07.4767 26250.7
 02 03 2013  23 14  -21.0511 26028.5 -03416.3 -07.4775 26251.7
 02 03 2013  23 15  -21.0510 26029.3 -03416.7 -07.4782 26252.6
 02 03 2013  23 16  -21.0510 26029.4 -03416.8 -07.4782 26252.7
 02 03 2013  23 17  -21.0510 26029.9 -03416.8 -07.4781 26253.2
 02 03 2013  23 18  -21.0513 26030.6 -03417.0 -07.4785 26253.9
 02 03 2013  23 19  -21.0515 26031.3 -03417.3 -07.4788 26254.7
 02 03 2013  23 20  -21.0514 26031.7 -03417.4 -07.4789 26255.0
 02 03 2013  23 21  -21.0514 26031.8 -03417.3 -07.4786 26255.2
 02 03 2013  23 22  -21.0512 26031.9 -03417.1 -07.4783 26255.2
 02 03 2013  23 23  -21.0510 26031.7 -03416.9 -07.4778 26255.0
 02 03 2013  23 24  -21.0508 26031.3 -03416.5 -07.4772 26254.5
 02 03 2013  23 25  -21.0506 26030.9 -03416.2 -07.4766 26254.1
 02 03 2013  23 26  -21.0508 26030.5 -03416.0 -07.4761 26253.7
 02 03 2013  23 27  -21.0511 26030.4 -03415.8 -07.4759 26253.5
 02 03 2013  23 28  -21.0513 26030.4 -03415.8 -07.4758 26253.6
 02 03 2013  23 29  -21.0514 26030.2 -03415.6 -07.4756 26253.3
 02 03 2013  23 30  -21.0518 26029.6 -03415.3 -07.4750 26252.7
 02 03 2013  23 31  -21.0519 26029.3 -03415.1 -07.4746 26252.4
 02 03 2013  23 32  -21.0523 26028.9 -03414.9 -07.4743 26252.0
 02 03 2013  23 33  -21.0523 26028.7 -03414.7 -07.4740 26251.7
 02 03 2013  23 34  -21.0519 26029.3 -03415.0 -07.4745 26252.4
 02 03 2013  23 35  -21.0511 26029.7 -03415.2 -07.4748 26252.8
 02 03 2013  23 36  -21.0504 26030.0 -03415.3 -07.4749 26253.1
 02 03 2013  23 37  -21.0497 26030.2 -03415.4 -07.4751 26253.3
 02 03 2013  23 38  -21.0493 26030.4 -03415.6 -07.4753 26253.5
 02 03 2013  23 39  -21.0489 26030.3 -03415.5 -07.4753 26253.4
 02 03 2013  23 40  -21.0487 26030.3 -03415.5 -07.4753 26253.4
 02 03 2013  23 41  -21.0485 26030.5 -03415.6 -07.4754 26253.6
 02 03 2013  23 42  -21.0482 26030.7 -03415.8 -07.4757 26253.9
 02 03 2013  23 43  -21.0480 26031.0 -03415.9 -07.4759 26254.1
 02 03 2013  23 44  -21.0478 26031.2 -03416.0 -07.4761 26254.4
 02 03 2013  23 45  -21.0478 26031.3 -03416.1 -07.4762 26254.5
 02 03 2013  23 46  -21.0477 26031.3 -03416.1 -07.4762 26254.5
 02 03 2013  23 47  -21.0476 26031.3 -03416.1 -07.4761 26254.5
 02 03 2013  23 48  -21.0478 26031.3 -03416.0 -07.4761 26254.5
 02 03 2013  23 49  -21.0479 26031.0 -03415.9 -07.4759 26254.2
 02 03 2013  23 50  -21.0480 26030.6 -03415.7 -07.4755 26253.8
 02 03 2013  23 51  -21.0481 26030.3 -03415.5 -07.4752 26253.4
 02 03 2013  23 52  -21.0480 26030.1 -03415.3 -07.4748 26253.2
 02 03 2013  23 53  -21.0479 26030.0 -03415.3 -07.4748 26253.1
 02 03 2013  23 54  -21.0478 26030.2 -03415.3 -07.4749 26253.3
 02 03 2013  23 55  -21.0478 26030.2 -03415.4 -07.4750 26253.3
 02 03 2013  23 56  -21.0478 26030.2 -03415.4 -07.4751 26253.3
 02 03 2013  23 57  -21.0478 26030.2 -03415.4 -07.4750 26253.4
 02 03 2013  23 58  -21.0480 26030.2 -03415.4 -07.4750 26253.3
