SAO LUIS EMBRACE-03 <338> 1 Min. Reported data

 DD MM YYYY  HH MM   D(Deg)  H(nT)   Z(nT)   I(Deg)   F(nT)

 04 12 2013  00 00  -21.0082 26020.6 -03515.1 -07.6935 26257.0
 04 12 2013  00 01  -21.0077 26020.5 -03515.0 -07.6933 26256.9
 04 12 2013  00 02  -21.0074 26020.8 -03515.2 -07.6935 26257.1
 04 12 2013  00 03  -21.0068 26020.9 -03515.2 -07.6936 26257.2
 04 12 2013  00 04  -21.0061 26021.2 -03515.4 -07.6938 26257.6
 04 12 2013  00 05  -21.0058 26021.2 -03515.3 -07.6938 26257.6
 04 12 2013  00 06  -21.0054 26021.4 -03515.5 -07.6941 26257.8
 04 12 2013  00 07  -21.0051 26021.5 -03515.6 -07.6942 26258.0
 04 12 2013  00 08  -21.0050 26021.7 -03515.7 -07.6944 26258.2
 04 12 2013  00 09  -21.0048 26021.9 -03515.8 -07.6946 26258.3
 04 12 2013  00 10  -21.0044 26022.2 -03515.9 -07.6947 26258.6
 04 12 2013  00 11  -21.0041 26022.3 -03515.9 -07.6948 26258.7
 04 12 2013  00 12  -21.0040 26022.4 -03516.0 -07.6949 26258.9
 04 12 2013  00 13  -21.0039 26022.5 -03516.0 -07.6949 26258.9
 04 12 2013  00 14  -21.0043 26022.4 -03516.0 -07.6948 26258.8
 04 12 2013  00 15  -21.0046 26022.4 -03516.0 -07.6948 26258.8
 04 12 2013  00 16  -21.0050 26022.5 -03516.0 -07.6949 26259.0
 04 12 2013  00 17  -21.0054 26022.5 -03516.0 -07.6948 26258.9
 04 12 2013  00 18  -21.0057 26022.6 -03516.0 -07.6948 26259.1
 04 12 2013  00 19  -21.0057 26022.8 -03516.0 -07.6948 26259.3
 04 12 2013  00 20  -21.0059 26022.8 -03516.0 -07.6948 26259.2
 04 12 2013  00 21  -21.0060 26023.0 -03516.1 -07.6948 26259.5
 04 12 2013  00 22  -21.0062 26023.1 -03516.0 -07.6948 26259.5
 04 12 2013  00 23  -21.0063 26023.2 -03516.0 -07.6947 26259.7
 04 12 2013  00 24  -21.0064 26023.4 -03516.1 -07.6948 26259.9
 04 12 2013  00 25  -21.0065 26023.6 -03516.1 -07.6947 26260.0
 04 12 2013  00 26  -21.0068 26023.7 -03516.1 -07.6947 26260.1
 04 12 2013  00 27  -21.0072 26023.7 -03516.0 -07.6946 26260.1
 04 12 2013  00 28  -21.0076 26023.5 -03515.9 -07.6943 26259.9
 04 12 2013  00 29  -21.0079 26023.1 -03515.6 -07.6938 26259.5
 04 12 2013  00 30  -21.0085 26022.7 -03515.4 -07.6935 26259.1
 04 12 2013  00 31  -21.0085 26022.5 -03515.1 -07.6930 26258.8
 04 12 2013  00 32  -21.0086 26022.3 -03515.0 -07.6927 26258.6
 04 12 2013  00 33  -21.0087 26022.0 -03514.8 -07.6924 26258.3
 04 12 2013  00 34  -21.0088 26021.8 -03514.6 -07.6920 26258.0
 04 12 2013  00 35  -21.0090 26021.5 -03514.5 -07.6919 26257.8
 04 12 2013  00 36  -21.0092 26021.4 -03514.4 -07.6918 26257.7
 04 12 2013  00 37  -21.0094 26021.3 -03514.4 -07.6917 26257.6
 04 12 2013  00 38  -21.0096 26021.2 -03514.3 -07.6916 26257.5
 04 12 2013  00 39  -21.0098 26021.1 -03514.3 -07.6915 26257.3
 04 12 2013  00 40  -21.0099 26021.0 -03514.2 -07.6914 26257.3
 04 12 2013  00 41  -21.0101 26021.0 -03514.2 -07.6914 26257.2
 04 12 2013  00 42  -21.0101 26021.1 -03514.2 -07.6915 26257.3
 04 12 2013  00 43  -21.0096 26021.4 -03514.4 -07.6916 26257.6
 04 12 2013  00 44  -21.0093 26021.9 -03514.6 -07.6920 26258.2
 04 12 2013  00 45  -21.0089 26022.4 -03514.8 -07.6924 26258.7
 04 12 2013  00 46  -21.0083 26022.5 -03514.9 -07.6925 26258.8
 04 12 2013  00 47  -21.0077 26022.5 -03514.8 -07.6923 26258.8
 04 12 2013  00 48  -21.0071 26022.2 -03514.7 -07.6921 26258.5
 04 12 2013  00 49  -21.0066 26022.2 -03514.7 -07.6920 26258.4
 04 12 2013  00 50  -21.0062 26021.9 -03514.5 -07.6918 26258.1
 04 12 2013  00 51  -21.0058 26021.5 -03514.4 -07.6916 26257.8
 04 12 2013  00 52  -21.0054 26021.2 -03514.2 -07.6914 26257.4
 04 12 2013  00 53  -21.0054 26020.9 -03514.1 -07.6913 26257.1
 04 12 2013  00 54  -21.0056 26020.8 -03514.1 -07.6913 26257.0
 04 12 2013  00 55  -21.0056 26020.5 -03514.1 -07.6912 26256.7
 04 12 2013  00 56  -21.0055 26020.3 -03514.0 -07.6911 26256.5
 04 12 2013  00 57  -21.0055 26020.2 -03514.0 -07.6911 26256.4
 04 12 2013  00 58  -21.0055 26020.0 -03514.0 -07.6912 26256.3
 04 12 2013  00 59  -21.0056 26019.9 -03514.0 -07.6912 26256.1
 04 12 2013  01 00  -21.0054 26019.8 -03513.9 -07.6911 26256.0
 04 12 2013  01 01  -21.0052 26019.7 -03513.9 -07.6911 26255.9
 04 12 2013  01 02  -21.0051 26019.5 -03513.9 -07.6911 26255.7
 04 12 2013  01 03  -21.0050 26019.6 -03514.0 -07.6913 26255.9
 04 12 2013  01 04  -21.0047 26019.6 -03514.0 -07.6913 26255.8
 04 12 2013  01 05  -21.0044 26019.6 -03514.0 -07.6913 26255.8
 04 12 2013  01 06  -21.0041 26019.6 -03514.0 -07.6914 26255.8
 04 12 2013  01 07  -21.0039 26019.6 -03514.1 -07.6915 26255.8
 04 12 2013  01 08  -21.0036 26019.6 -03514.1 -07.6916 26255.8
 04 12 2013  01 09  -21.0033 26019.5 -03514.1 -07.6916 26255.8
 04 12 2013  01 10  -21.0029 26019.5 -03514.1 -07.6916 26255.8
 04 12 2013  01 11  -21.0023 26019.5 -03514.1 -07.6916 26255.8
 04 12 2013  01 12  -21.0020 26019.6 -03514.2 -07.6918 26255.8
 04 12 2013  01 13  -21.0021 26019.6 -03514.3 -07.6920 26255.9
 04 12 2013  01 14  -21.0023 26019.7 -03514.4 -07.6921 26256.0
 04 12 2013  01 15  -21.0024 26019.7 -03514.4 -07.6922 26256.0
 04 12 2013  01 16  -21.0027 26019.8 -03514.5 -07.6923 26256.1
 04 12 2013  01 17  -21.0031 26020.0 -03514.5 -07.6924 26256.2
 04 12 2013  01 18  -21.0036 26020.0 -03514.6 -07.6926 26256.3
 04 12 2013  01 19  -21.0041 26020.0 -03514.6 -07.6926 26256.3
 04 12 2013  01 20  -21.0045 26019.9 -03514.6 -07.6926 26256.2
 04 12 2013  01 21  -21.0048 26019.9 -03514.5 -07.6924 26256.2
 04 12 2013  01 22  -21.0049 26019.8 -03514.5 -07.6923 26256.0
 04 12 2013  01 23  -21.0052 26019.8 -03514.4 -07.6923 26256.1
 04 12 2013  01 24  -21.0054 26019.8 -03514.4 -07.6922 26256.1
 04 12 2013  01 25  -21.0054 26019.9 -03514.4 -07.6922 26256.1
 04 12 2013  01 26  -21.0053 26019.9 -03514.5 -07.6923 26256.2
 04 12 2013  01 27  -21.0054 26019.9 -03514.4 -07.6922 26256.2
 04 12 2013  01 28  -21.0052 26020.0 -03514.5 -07.6922 26256.2
 04 12 2013  01 29  -21.0053 26020.0 -03514.4 -07.6922 26256.3
 04 12 2013  01 30  -21.0055 26020.0 -03514.4 -07.6922 26256.3
 04 12 2013  01 31  -21.0058 26019.9 -03514.4 -07.6922 26256.2
 04 12 2013  01 32  -21.0061 26020.0 -03514.4 -07.6921 26256.2
 04 12 2013  01 33  -21.0065 26020.0 -03514.4 -07.6921 26256.2
 04 12 2013  01 34  -21.0066 26019.9 -03514.3 -07.6920 26256.2
 04 12 2013  01 35  -21.0067 26019.8 -03514.2 -07.6918 26256.0
 04 12 2013  01 36  -21.0067 26019.7 -03514.1 -07.6916 26256.0
 04 12 2013  01 37  -21.0065 26019.7 -03514.1 -07.6915 26255.9
 04 12 2013  01 38  -21.0061 26019.4 -03513.9 -07.6913 26255.6
 04 12 2013  01 39  -21.0060 26019.1 -03513.8 -07.6910 26255.3
 04 12 2013  01 40  -21.0058 26018.8 -03513.7 -07.6909 26255.0
 04 12 2013  01 41  -21.0056 26018.6 -03513.6 -07.6907 26254.8
 04 12 2013  01 42  -21.0055 26018.5 -03513.5 -07.6907 26254.6
 04 12 2013  01 43  -21.0056 26018.4 -03513.5 -07.6907 26254.6
 04 12 2013  01 44  -21.0055 26018.4 -03513.6 -07.6908 26254.5
 04 12 2013  01 45  -21.0053 26018.4 -03513.6 -07.6908 26254.5
 04 12 2013  01 46  -21.0055 26018.3 -03513.7 -07.6910 26254.5
 04 12 2013  01 47  -21.0054 26018.4 -03513.7 -07.6910 26254.6
 04 12 2013  01 48  -21.0053 26018.1 -03513.6 -07.6909 26254.3
 04 12 2013  01 49  -21.0053 26018.0 -03513.6 -07.6909 26254.1
 04 12 2013  01 50  -21.0059 26017.7 -03513.5 -07.6908 26253.9
 04 12 2013  01 51  -21.0058 26017.5 -03513.4 -07.6907 26253.6
 04 12 2013  01 52  -21.0056 26017.3 -03513.3 -07.6906 26253.5
 04 12 2013  01 53  -21.0055 26017.5 -03513.5 -07.6908 26253.6
 04 12 2013  01 54  -21.0053 26017.6 -03513.6 -07.6911 26253.8
 04 12 2013  01 55  -21.0052 26017.7 -03513.7 -07.6913 26253.9
 04 12 2013  01 56  -21.0053 26017.8 -03513.8 -07.6914 26254.0
 04 12 2013  01 57  -21.0053 26017.9 -03513.9 -07.6916 26254.1
 04 12 2013  01 58  -21.0052 26018.0 -03514.0 -07.6918 26254.2
 04 12 2013  01 59  -21.0050 26018.1 -03514.0 -07.6918 26254.3
 04 12 2013  02 00  -21.0046 26018.4 -03514.2 -07.6921 26254.7
 04 12 2013  02 01  -21.0042 26018.8 -03514.3 -07.6923 26255.0
 04 12 2013  02 02  -21.0038 26019.1 -03514.6 -07.6927 26255.4
 04 12 2013  02 03  -21.0035 26019.5 -03514.7 -07.6930 26255.8
 04 12 2013  02 04  -21.0033 26019.8 -03514.9 -07.6933 26256.2
 04 12 2013  02 05  -21.0032 26020.1 -03515.1 -07.6936 26256.5
 04 12 2013  02 06  -21.0030 26020.4 -03515.2 -07.6938 26256.8
 04 12 2013  02 07  -21.0030 26020.4 -03515.2 -07.6938 26256.8
 04 12 2013  02 08  -21.0031 26020.4 -03515.2 -07.6938 26256.8
 04 12 2013  02 09  -21.0034 26020.1 -03515.1 -07.6936 26256.4
 04 12 2013  02 10  -21.0036 26019.8 -03515.0 -07.6934 26256.2
 04 12 2013  02 11  -21.0039 26019.7 -03514.9 -07.6932 26256.0
 04 12 2013  02 12  -21.0041 26019.5 -03514.8 -07.6931 26255.8
 04 12 2013  02 13  -21.0043 26019.3 -03514.7 -07.6930 26255.6
 04 12 2013  02 14  -21.0043 26019.0 -03514.6 -07.6927 26255.3
 04 12 2013  02 15  -21.0046 26018.9 -03514.5 -07.6927 26255.2
 04 12 2013  02 16  -21.0048 26018.8 -03514.5 -07.6928 26255.1
 04 12 2013  02 17  -21.0048 26018.7 -03514.5 -07.6928 26255.0
 04 12 2013  02 18  -21.0049 26018.7 -03514.5 -07.6928 26255.0
 04 12 2013  02 19  -21.0051 26018.5 -03514.5 -07.6927 26254.8
 04 12 2013  02 20  -21.0053 26018.4 -03514.5 -07.6927 26254.7
 04 12 2013  02 21  -21.0055 26018.4 -03514.5 -07.6928 26254.7
 04 12 2013  02 22  -21.0056 26018.4 -03514.5 -07.6928 26254.7
 04 12 2013  02 23  -21.0057 26018.4 -03514.6 -07.6929 26254.7
 04 12 2013  02 24  -21.0056 26018.5 -03514.6 -07.6929 26254.8
 04 12 2013  02 25  -21.0056 26018.6 -03514.7 -07.6931 26254.9
 04 12 2013  02 26  -21.0055 26018.8 -03514.8 -07.6933 26255.1
 04 12 2013  02 27  -21.0053 26018.9 -03514.8 -07.6933 26255.2
 04 12 2013  02 28  -21.0053 26019.0 -03514.9 -07.6934 26255.4
 04 12 2013  02 29  -21.0050 26019.1 -03514.9 -07.6934 26255.4
 04 12 2013  02 30  -21.0049 26019.2 -03514.9 -07.6935 26255.5
 04 12 2013  02 31  -21.0051 26019.3 -03515.0 -07.6937 26255.6
 04 12 2013  02 32  -21.0053 26019.4 -03515.1 -07.6938 26255.7
 04 12 2013  02 33  -21.0055 26019.4 -03515.1 -07.6938 26255.8
 04 12 2013  02 34  -21.0057 26019.4 -03515.1 -07.6938 26255.7
 04 12 2013  02 35  -21.0060 26019.3 -03515.1 -07.6937 26255.7
 04 12 2013  02 36  -21.0062 26019.2 -03515.0 -07.6936 26255.5
 04 12 2013  02 37  -21.0063 26019.0 -03514.9 -07.6934 26255.3
 04 12 2013  02 38  -21.0064 26018.8 -03514.7 -07.6932 26255.1
 04 12 2013  02 39  -21.0063 26018.6 -03514.6 -07.6929 26254.9
 04 12 2013  02 40  -21.0060 26018.5 -03514.5 -07.6928 26254.8
 04 12 2013  02 41  -21.0059 26018.4 -03514.5 -07.6929 26254.7
 04 12 2013  02 42  -21.0060 26018.4 -03514.5 -07.6929 26254.7
 04 12 2013  02 43  -21.0059 26018.4 -03514.6 -07.6929 26254.7
 04 12 2013  02 44  -21.0059 26018.4 -03514.6 -07.6930 26254.7
 04 12 2013  02 45  -21.0059 26018.4 -03514.6 -07.6930 26254.7
 04 12 2013  02 46  -21.0060 26018.3 -03514.6 -07.6931 26254.6
 04 12 2013  02 47  -21.0060 26018.3 -03514.6 -07.6931 26254.6
 04 12 2013  02 48  -21.0059 26018.4 -03514.7 -07.6933 26254.7
 04 12 2013  02 49  -21.0058 26018.5 -03514.7 -07.6933 26254.8
 04 12 2013  02 50  -21.0057 26018.6 -03514.8 -07.6935 26254.9
 04 12 2013  02 51  -21.0056 26018.7 -03514.9 -07.6936 26255.0
 04 12 2013  02 52  -21.0053 26018.7 -03514.9 -07.6936 26255.1
 04 12 2013  02 53  -21.0051 26018.7 -03514.9 -07.6936 26255.0
 04 12 2013  02 54  -21.0049 26018.7 -03514.9 -07.6937 26255.0
 04 12 2013  02 55  -21.0049 26018.8 -03515.0 -07.6937 26255.1
 04 12 2013  02 56  -21.0051 26018.8 -03515.0 -07.6938 26255.1
 04 12 2013  02 57  -21.0054 26018.9 -03515.1 -07.6940 26255.3
 04 12 2013  02 58  -21.0058 26019.0 -03515.2 -07.6942 26255.4
 04 12 2013  02 59  -21.0063 26019.1 -03515.3 -07.6943 26255.5
 04 12 2013  03 00  -21.0066 26019.2 -03515.3 -07.6943 26255.6
 04 12 2013  03 01  -21.0070 26019.1 -03515.2 -07.6942 26255.5
 04 12 2013  03 02  -21.0074 26019.1 -03515.3 -07.6942 26255.5
 04 12 2013  03 03  -21.0076 26019.2 -03515.2 -07.6942 26255.6
 04 12 2013  03 04  -21.0077 26019.2 -03515.2 -07.6941 26255.6
 04 12 2013  03 05  -21.0077 26019.3 -03515.2 -07.6941 26255.6
 04 12 2013  03 06  -21.0076 26019.2 -03515.1 -07.6939 26255.6
 04 12 2013  03 07  -21.0073 26019.3 -03515.1 -07.6939 26255.7
 04 12 2013  03 08  -21.0069 26019.2 -03515.0 -07.6937 26255.5
 04 12 2013  03 09  -21.0064 26019.2 -03515.0 -07.6937 26255.5
 04 12 2013  03 10  -21.0060 26019.2 -03515.0 -07.6936 26255.6
 04 12 2013  03 11  -21.0056 26019.2 -03515.0 -07.6936 26255.5
 04 12 2013  03 12  -21.0049 26019.3 -03515.1 -07.6938 26255.7
 04 12 2013  03 13  -21.0044 26019.4 -03515.1 -07.6939 26255.8
 04 12 2013  03 14  -21.0040 26019.6 -03515.3 -07.6942 26256.0
 04 12 2013  03 15  -21.0039 26019.7 -03515.3 -07.6942 26256.1
 04 12 2013  03 16  -21.0039 26019.7 -03515.4 -07.6943 26256.1
 04 12 2013  03 17  -21.0039 26019.9 -03515.5 -07.6945 26256.3
 04 12 2013  03 18  -21.0040 26020.1 -03515.6 -07.6948 26256.5
 04 12 2013  03 19  -21.0040 26020.2 -03515.7 -07.6948 26256.6
 04 12 2013  03 20  -21.0040 26020.2 -03515.7 -07.6949 26256.7
 04 12 2013  03 21  -21.0042 26020.4 -03515.8 -07.6950 26256.8
 04 12 2013  03 22  -21.0044 26020.6 -03515.9 -07.6951 26257.1
 04 12 2013  03 23  -21.0045 26020.7 -03515.9 -07.6952 26257.2
 04 12 2013  03 24  -21.0045 26020.9 -03516.0 -07.6952 26257.3
 04 12 2013  03 25  -21.0044 26020.9 -03516.0 -07.6952 26257.4
 04 12 2013  03 26  -21.0042 26020.9 -03515.9 -07.6951 26257.3
 04 12 2013  03 27  -21.0039 26020.8 -03515.8 -07.6950 26257.3
 04 12 2013  03 28  -21.0038 26020.8 -03515.8 -07.6950 26257.2
 04 12 2013  03 29  -21.0036 26020.7 -03515.8 -07.6948 26257.2
 04 12 2013  03 30  -21.0035 26020.7 -03515.8 -07.6949 26257.2
 04 12 2013  03 31  -21.0036 26020.9 -03515.8 -07.6949 26257.3
 04 12 2013  03 32  -21.0039 26020.9 -03515.8 -07.6950 26257.4
 04 12 2013  03 33  -21.0040 26021.0 -03515.9 -07.6950 26257.4
 04 12 2013  03 34  -21.0041 26021.1 -03515.9 -07.6950 26257.6
 04 12 2013  03 35  -21.0042 26021.3 -03516.0 -07.6952 26257.7
 04 12 2013  03 36  -21.0044 26021.3 -03516.0 -07.6951 26257.8
 04 12 2013  03 37  -21.0046 26021.3 -03516.0 -07.6951 26257.8
 04 12 2013  03 38  -21.0047 26021.4 -03516.0 -07.6951 26257.8
 04 12 2013  03 39  -21.0048 26021.4 -03516.0 -07.6950 26257.9
 04 12 2013  03 40  -21.0047 26021.5 -03515.9 -07.6950 26257.9
 04 12 2013  03 41  -21.0046 26021.6 -03515.9 -07.6949 26258.0
 04 12 2013  03 42  -21.0046 26021.5 -03515.9 -07.6949 26258.0
 04 12 2013  03 43  -21.0044 26021.5 -03515.8 -07.6947 26257.9
 04 12 2013  03 44  -21.0044 26021.5 -03515.8 -07.6947 26258.0
 04 12 2013  03 45  -21.0045 26021.6 -03515.8 -07.6947 26258.0
 04 12 2013  03 46  -21.0046 26021.6 -03515.8 -07.6947 26258.1
 04 12 2013  03 47  -21.0043 26021.7 -03515.8 -07.6947 26258.1
 04 12 2013  03 48  -21.0041 26021.6 -03515.7 -07.6945 26258.0
 04 12 2013  03 49  -21.0040 26021.6 -03515.7 -07.6945 26258.0
 04 12 2013  03 50  -21.0038 26021.7 -03515.7 -07.6945 26258.1
 04 12 2013  03 51  -21.0036 26021.5 -03515.7 -07.6944 26258.0
 04 12 2013  03 52  -21.0036 26021.6 -03515.7 -07.6944 26258.0
 04 12 2013  03 53  -21.0036 26021.5 -03515.7 -07.6944 26258.0
 04 12 2013  03 54  -21.0036 26021.4 -03515.6 -07.6943 26257.8
 04 12 2013  03 55  -21.0035 26021.4 -03515.6 -07.6943 26257.8
 04 12 2013  03 56  -21.0035 26021.4 -03515.6 -07.6944 26257.9
 04 12 2013  03 57  -21.0035 26021.7 -03515.8 -07.6946 26258.1
 04 12 2013  03 58  -21.0037 26021.9 -03515.9 -07.6948 26258.4
 04 12 2013  03 59  -21.0040 26022.4 -03516.2 -07.6952 26258.9
 04 12 2013  04 00  -21.0044 26022.5 -03516.2 -07.6954 26259.0
 04 12 2013  04 01  -21.0047 26022.5 -03516.2 -07.6952 26259.0
 04 12 2013  04 02  -21.0051 26022.7 -03516.3 -07.6953 26259.2
 04 12 2013  04 03  -21.0055 26022.9 -03516.3 -07.6954 26259.4
 04 12 2013  04 04  -21.0057 26022.9 -03516.3 -07.6953 26259.4
 04 12 2013  04 05  -21.0058 26022.8 -03516.2 -07.6951 26259.3
 04 12 2013  04 06  -21.0059 26022.9 -03516.1 -07.6950 26259.3
 04 12 2013  04 07  -21.0059 26022.8 -03516.1 -07.6949 26259.3
 04 12 2013  04 08  -21.0058 26022.7 -03516.0 -07.6947 26259.1
 04 12 2013  04 09  -21.0054 26022.7 -03515.9 -07.6946 26259.1
 04 12 2013  04 10  -21.0050 26022.6 -03515.8 -07.6944 26259.1
 04 12 2013  04 11  -21.0043 26022.6 -03515.8 -07.6944 26259.1
 04 12 2013  04 12  -21.0038 26022.5 -03515.7 -07.6942 26258.9
 04 12 2013  04 13  -21.0034 26022.4 -03515.6 -07.6941 26258.8
 04 12 2013  04 14  -21.0031 26022.4 -03515.6 -07.6941 26258.8
 04 12 2013  04 15  -21.0028 26022.5 -03515.8 -07.6944 26258.9
 04 12 2013  04 16  -21.0026 26022.6 -03515.9 -07.6945 26259.0
 04 12 2013  04 17  -21.0025 26022.6 -03515.9 -07.6946 26259.0
 04 12 2013  04 18  -21.0024 26022.5 -03515.9 -07.6947 26259.0
 04 12 2013  04 19  -21.0024 26022.5 -03515.9 -07.6947 26259.0
 04 12 2013  04 20  -21.0025 26022.5 -03515.9 -07.6947 26258.9
 04 12 2013  04 21  -21.0026 26022.4 -03515.9 -07.6946 26258.8
 04 12 2013  04 22  -21.0028 26022.4 -03515.9 -07.6947 26258.8
 04 12 2013  04 23  -21.0029 26022.3 -03515.9 -07.6947 26258.8
 04 12 2013  04 24  -21.0030 26022.3 -03515.9 -07.6946 26258.8
 04 12 2013  04 25  -21.0032 26022.4 -03515.9 -07.6947 26258.8
 04 12 2013  04 26  -21.0035 26022.4 -03515.9 -07.6947 26258.8
 04 12 2013  04 27  -21.0038 26022.3 -03515.9 -07.6948 26258.8
 04 12 2013  04 28  -21.0042 26022.4 -03515.9 -07.6948 26258.8
 04 12 2013  04 29  -21.0047 26022.5 -03516.0 -07.6948 26258.9
 04 12 2013  04 30  -21.0052 26022.6 -03516.0 -07.6949 26259.0
 04 12 2013  04 31  -21.0057 26022.7 -03516.1 -07.6949 26259.1
 04 12 2013  04 32  -21.0061 26022.8 -03516.1 -07.6949 26259.3
 04 12 2013  04 33  -21.0064 26023.0 -03516.1 -07.6950 26259.4
 04 12 2013  04 34  -21.0066 26023.0 -03516.1 -07.6949 26259.5
 04 12 2013  04 35  -21.0067 26023.0 -03516.1 -07.6948 26259.5
 04 12 2013  04 36  -21.0067 26023.1 -03516.1 -07.6948 26259.5
 04 12 2013  04 37  -21.0067 26023.2 -03516.1 -07.6948 26259.7
 04 12 2013  04 38  -21.0066 26023.2 -03516.1 -07.6947 26259.7
 04 12 2013  04 39  -21.0064 26023.3 -03516.1 -07.6947 26259.8
 04 12 2013  04 40  -21.0060 26023.4 -03516.0 -07.6947 26259.8
 04 12 2013  04 41  -21.0056 26023.6 -03516.1 -07.6948 26260.1
 04 12 2013  04 42  -21.0052 26023.8 -03516.2 -07.6950 26260.3
 04 12 2013  04 43  -21.0049 26024.0 -03516.3 -07.6951 26260.4
 04 12 2013  04 44  -21.0048 26024.0 -03516.3 -07.6951 26260.5
 04 12 2013  04 45  -21.0048 26024.0 -03516.4 -07.6952 26260.5
 04 12 2013  04 46  -21.0051 26024.0 -03516.4 -07.6952 26260.5
 04 12 2013  04 47  -21.0054 26023.9 -03516.3 -07.6951 26260.4
 04 12 2013  04 48  -21.0057 26023.9 -03516.3 -07.6951 26260.4
 04 12 2013  04 49  -21.0061 26023.9 -03516.3 -07.6950 26260.4
 04 12 2013  04 50  -21.0063 26023.9 -03516.2 -07.6949 26260.3
 04 12 2013  04 51  -21.0063 26023.9 -03516.2 -07.6949 26260.4
 04 12 2013  04 52  -21.0062 26023.8 -03516.1 -07.6947 26260.3
 04 12 2013  04 53  -21.0060 26023.8 -03516.1 -07.6946 26260.3
 04 12 2013  04 54  -21.0057 26023.9 -03516.1 -07.6946 26260.3
 04 12 2013  04 55  -21.0052 26023.9 -03516.1 -07.6946 26260.3
 04 12 2013  04 56  -21.0047 26024.0 -03516.1 -07.6946 26260.4
 04 12 2013  04 57  -21.0042 26024.0 -03516.2 -07.6947 26260.5
 04 12 2013  04 58  -21.0039 26024.0 -03516.2 -07.6947 26260.5
 04 12 2013  04 59  -21.0037 26024.0 -03516.2 -07.6947 26260.5
 04 12 2013  05 00  -21.0033 26024.0 -03516.2 -07.6948 26260.5
 04 12 2013  05 01  -21.0030 26024.1 -03516.2 -07.6948 26260.6
 04 12 2013  05 02  -21.0029 26024.1 -03516.3 -07.6950 26260.6
 04 12 2013  05 03  -21.0029 26024.1 -03516.3 -07.6950 26260.6
 04 12 2013  05 04  -21.0029 26024.1 -03516.3 -07.6950 26260.6
 04 12 2013  05 05  -21.0029 26024.0 -03516.3 -07.6950 26260.5
 04 12 2013  05 06  -21.0030 26024.0 -03516.2 -07.6949 26260.4
 04 12 2013  05 07  -21.0031 26023.9 -03516.2 -07.6948 26260.4
 04 12 2013  05 08  -21.0032 26023.8 -03516.1 -07.6947 26260.3
 04 12 2013  05 09  -21.0033 26023.7 -03516.1 -07.6947 26260.2
 04 12 2013  05 10  -21.0035 26023.6 -03516.1 -07.6947 26260.1
 04 12 2013  05 11  -21.0036 26023.7 -03516.1 -07.6946 26260.1
 04 12 2013  05 12  -21.0037 26023.7 -03516.1 -07.6948 26260.2
 04 12 2013  05 13  -21.0038 26023.7 -03516.1 -07.6948 26260.2
 04 12 2013  05 14  -21.0040 26023.8 -03516.1 -07.6948 26260.2
 04 12 2013  05 15  -21.0041 26023.8 -03516.1 -07.6948 26260.3
 04 12 2013  05 16  -21.0042 26023.9 -03516.2 -07.6948 26260.4
 04 12 2013  05 17  -21.0043 26024.0 -03516.2 -07.6949 26260.5
 04 12 2013  05 18  -21.0045 26024.0 -03516.3 -07.6950 26260.5
 04 12 2013  05 19  -21.0046 26024.1 -03516.3 -07.6950 26260.6
 04 12 2013  05 20  -21.0045 26024.1 -03516.2 -07.6949 26260.6
 04 12 2013  05 21  -21.0045 26024.1 -03516.2 -07.6949 26260.6
 04 12 2013  05 22  -21.0043 26024.1 -03516.2 -07.6948 26260.6
 04 12 2013  05 23  -21.0041 26024.1 -03516.2 -07.6948 26260.6
 04 12 2013  05 24  -21.0042 26024.2 -03516.3 -07.6949 26260.7
 04 12 2013  05 25  -21.0044 26024.3 -03516.3 -07.6950 26260.8
 04 12 2013  05 26  -21.0046 26024.4 -03516.4 -07.6951 26260.9
 04 12 2013  05 27  -21.0048 26024.5 -03516.4 -07.6951 26261.0
 04 12 2013  05 28  -21.0049 26024.5 -03516.4 -07.6951 26261.0
 04 12 2013  05 29  -21.0049 26024.5 -03516.4 -07.6950 26261.0
 04 12 2013  05 30  -21.0050 26024.5 -03516.4 -07.6951 26261.0
 04 12 2013  05 31  -21.0050 26024.5 -03516.4 -07.6950 26261.0
 04 12 2013  05 32  -21.0050 26024.6 -03516.4 -07.6951 26261.1
 04 12 2013  05 33  -21.0051 26024.6 -03516.4 -07.6951 26261.1
 04 12 2013  05 34  -21.0051 26024.7 -03516.4 -07.6951 26261.2
 04 12 2013  05 35  -21.0052 26024.7 -03516.4 -07.6951 26261.2
 04 12 2013  05 36  -21.0053 26024.7 -03516.4 -07.6951 26261.1
 04 12 2013  05 37  -21.0052 26024.6 -03516.4 -07.6950 26261.1
 04 12 2013  05 38  -21.0052 26024.6 -03516.3 -07.6950 26261.1
 04 12 2013  05 39  -21.0053 26024.6 -03516.3 -07.6949 26261.1
 04 12 2013  05 40  -21.0055 26024.7 -03516.4 -07.6950 26261.1
 04 12 2013  05 41  -21.0055 26024.7 -03516.4 -07.6950 26261.2
 04 12 2013  05 42  -21.0055 26024.7 -03516.4 -07.6951 26261.2
 04 12 2013  05 43  -21.0056 26024.8 -03516.4 -07.6951 26261.3
 04 12 2013  05 44  -21.0057 26024.9 -03516.5 -07.6951 26261.4
 04 12 2013  05 45  -21.0058 26024.9 -03516.5 -07.6951 26261.4
 04 12 2013  05 46  -21.0059 26024.9 -03516.5 -07.6952 26261.4
 04 12 2013  05 47  -21.0059 26025.0 -03516.5 -07.6951 26261.5
 04 12 2013  05 48  -21.0060 26025.0 -03516.5 -07.6951 26261.5
 04 12 2013  05 49  -21.0060 26024.8 -03516.4 -07.6950 26261.3
 04 12 2013  05 50  -21.0061 26024.8 -03516.3 -07.6949 26261.2
 04 12 2013  05 51  -21.0063 26024.7 -03516.3 -07.6949 26261.2
 04 12 2013  05 52  -21.0065 26024.7 -03516.3 -07.6949 26261.1
 04 12 2013  05 53  -21.0066 26024.7 -03516.3 -07.6948 26261.2
 04 12 2013  05 54  -21.0066 26024.7 -03516.3 -07.6949 26261.2
 04 12 2013  05 55  -21.0065 26024.7 -03516.3 -07.6948 26261.1
 04 12 2013  05 56  -21.0065 26024.6 -03516.3 -07.6948 26261.1
 04 12 2013  05 57  -21.0065 26024.6 -03516.2 -07.6947 26261.0
 04 12 2013  05 58  -21.0065 26024.5 -03516.2 -07.6947 26261.0
 04 12 2013  05 59  -21.0065 26024.5 -03516.2 -07.6947 26261.0
 04 12 2013  06 00  -21.0065 26024.5 -03516.2 -07.6948 26261.0
 04 12 2013  06 01  -21.0064 26024.6 -03516.3 -07.6948 26261.1
 04 12 2013  06 02  -21.0062 26024.6 -03516.3 -07.6948 26261.1
 04 12 2013  06 03  -21.0061 26024.6 -03516.3 -07.6949 26261.1
 04 12 2013  06 04  -21.0061 26024.7 -03516.3 -07.6949 26261.2
 04 12 2013  06 05  -21.0061 26024.7 -03516.4 -07.6950 26261.2
 04 12 2013  06 06  -21.0062 26024.6 -03516.4 -07.6950 26261.1
 04 12 2013  06 07  -21.0063 26024.5 -03516.3 -07.6950 26261.0
 04 12 2013  06 08  -21.0063 26024.5 -03516.3 -07.6950 26261.0
 04 12 2013  06 09  -21.0064 26024.5 -03516.3 -07.6950 26261.0
 04 12 2013  06 10  -21.0064 26024.6 -03516.4 -07.6951 26261.1
 04 12 2013  06 11  -21.0064 26024.9 -03516.6 -07.6953 26261.5
 04 12 2013  06 12  -21.0062 26025.4 -03516.8 -07.6956 26261.9
 04 12 2013  06 13  -21.0060 26025.7 -03516.9 -07.6959 26262.2
 04 12 2013  06 14  -21.0057 26025.9 -03517.0 -07.6960 26262.4
 04 12 2013  06 15  -21.0054 26026.1 -03517.1 -07.6962 26262.6
 04 12 2013  06 16  -21.0052 26026.3 -03517.2 -07.6964 26262.9
 04 12 2013  06 17  -21.0053 26026.6 -03517.4 -07.6966 26263.2
 04 12 2013  06 18  -21.0057 26026.8 -03517.5 -07.6968 26263.4
 04 12 2013  06 19  -21.0060 26026.9 -03517.5 -07.6968 26263.6
 04 12 2013  06 20  -21.0065 26027.1 -03517.6 -07.6969 26263.7
 04 12 2013  06 21  -21.0069 26027.2 -03517.7 -07.6970 26263.9
 04 12 2013  06 22  -21.0072 26027.4 -03517.6 -07.6970 26264.0
 04 12 2013  06 23  -21.0075 26027.4 -03517.6 -07.6969 26264.0
 04 12 2013  06 24  -21.0077 26027.4 -03517.6 -07.6968 26264.0
 04 12 2013  06 25  -21.0077 26027.3 -03517.5 -07.6968 26263.9
 04 12 2013  06 26  -21.0075 26027.1 -03517.4 -07.6965 26263.7
 04 12 2013  06 27  -21.0074 26026.9 -03517.3 -07.6963 26263.5
 04 12 2013  06 28  -21.0076 26026.7 -03517.2 -07.6962 26263.3
 04 12 2013  06 29  -21.0078 26026.4 -03517.0 -07.6959 26262.9
 04 12 2013  06 30  -21.0079 26026.1 -03516.9 -07.6957 26262.6
 04 12 2013  06 31  -21.0078 26025.8 -03516.8 -07.6955 26262.3
 04 12 2013  06 32  -21.0077 26025.5 -03516.6 -07.6953 26262.0
 04 12 2013  06 33  -21.0075 26025.4 -03516.5 -07.6951 26261.9
 04 12 2013  06 34  -21.0072 26025.4 -03516.6 -07.6953 26261.9
 04 12 2013  06 35  -21.0069 26025.3 -03516.6 -07.6953 26261.8
 04 12 2013  06 36  -21.0067 26025.2 -03516.6 -07.6953 26261.7
 04 12 2013  06 37  -21.0066 26025.0 -03516.5 -07.6953 26261.5
 04 12 2013  06 38  -21.0066 26025.0 -03516.6 -07.6953 26261.5
 04 12 2013  06 39  -21.0065 26025.0 -03516.6 -07.6954 26261.5
 04 12 2013  06 40  -21.0065 26024.9 -03516.6 -07.6955 26261.4
 04 12 2013  06 41  -21.0068 26024.9 -03516.6 -07.6955 26261.4
 04 12 2013  06 42  -21.0072 26024.9 -03516.7 -07.6956 26261.4
 04 12 2013  06 43  -21.0075 26025.0 -03516.7 -07.6957 26261.5
 04 12 2013  06 44  -21.0079 26024.9 -03516.8 -07.6958 26261.5
 04 12 2013  06 45  -21.0083 26024.9 -03516.8 -07.6958 26261.5
 04 12 2013  06 46  -21.0085 26024.9 -03516.7 -07.6957 26261.4
 04 12 2013  06 47  -21.0088 26024.8 -03516.7 -07.6956 26261.4
 04 12 2013  06 48  -21.0089 26024.8 -03516.7 -07.6956 26261.3
 04 12 2013  06 49  -21.0088 26024.8 -03516.6 -07.6955 26261.3
 04 12 2013  06 50  -21.0089 26024.9 -03516.7 -07.6956 26261.5
 04 12 2013  06 51  -21.0090 26025.0 -03516.7 -07.6956 26261.5
 04 12 2013  06 52  -21.0093 26025.1 -03516.7 -07.6957 26261.6
 04 12 2013  06 53  -21.0095 26025.1 -03516.8 -07.6957 26261.7
 04 12 2013  06 54  -21.0096 26025.1 -03516.7 -07.6956 26261.6
 04 12 2013  06 55  -21.0098 26025.2 -03516.7 -07.6956 26261.7
 04 12 2013  06 56  -21.0098 26025.1 -03516.7 -07.6955 26261.7
 04 12 2013  06 57  -21.0098 26025.1 -03516.7 -07.6955 26261.7
 04 12 2013  06 58  -21.0100 26025.2 -03516.7 -07.6955 26261.7
 04 12 2013  06 59  -21.0103 26025.2 -03516.7 -07.6955 26261.7
 04 12 2013  07 00  -21.0104 26025.1 -03516.6 -07.6954 26261.6
 04 12 2013  07 01  -21.0103 26025.0 -03516.5 -07.6952 26261.5
 04 12 2013  07 02  -21.0101 26024.9 -03516.5 -07.6951 26261.4
 04 12 2013  07 03  -21.0102 26025.0 -03516.5 -07.6951 26261.5
 04 12 2013  07 04  -21.0101 26025.0 -03516.5 -07.6952 26261.5
 04 12 2013  07 05  -21.0100 26025.1 -03516.5 -07.6951 26261.6
 04 12 2013  07 06  -21.0101 26025.0 -03516.5 -07.6951 26261.5
 04 12 2013  07 07  -21.0104 26025.0 -03516.4 -07.6951 26261.5
 04 12 2013  07 08  -21.0105 26025.0 -03516.4 -07.6950 26261.5
 04 12 2013  07 09  -21.0106 26025.0 -03516.4 -07.6950 26261.5
 04 12 2013  07 10  -21.0107 26025.0 -03516.4 -07.6949 26261.5
 04 12 2013  07 11  -21.0108 26025.0 -03516.4 -07.6949 26261.5
 04 12 2013  07 12  -21.0107 26025.0 -03516.3 -07.6948 26261.5
 04 12 2013  07 13  -21.0105 26025.1 -03516.4 -07.6948 26261.6
 04 12 2013  07 14  -21.0105 26025.1 -03516.3 -07.6948 26261.6
 04 12 2013  07 15  -21.0104 26025.1 -03516.3 -07.6948 26261.6
 04 12 2013  07 16  -21.0102 26025.2 -03516.3 -07.6948 26261.6
 04 12 2013  07 17  -21.0101 26025.2 -03516.3 -07.6948 26261.7
 04 12 2013  07 18  -21.0102 26025.3 -03516.4 -07.6948 26261.8
 04 12 2013  07 19  -21.0103 26025.4 -03516.4 -07.6948 26261.8
 04 12 2013  07 20  -21.0104 26025.5 -03516.4 -07.6948 26261.9
 04 12 2013  07 21  -21.0105 26025.6 -03516.5 -07.6949 26262.1
 04 12 2013  07 22  -21.0109 26025.6 -03516.5 -07.6950 26262.1
 04 12 2013  07 23  -21.0109 26025.7 -03516.5 -07.6949 26262.2
 04 12 2013  07 24  -21.0109 26025.9 -03516.5 -07.6949 26262.4
 04 12 2013  07 25  -21.0111 26025.9 -03516.5 -07.6949 26262.4
 04 12 2013  07 26  -21.0115 26026.1 -03516.5 -07.6950 26262.6
 04 12 2013  07 27  -21.0120 26026.2 -03516.6 -07.6951 26262.7
 04 12 2013  07 28  -21.0124 26026.3 -03516.6 -07.6951 26262.9
 04 12 2013  07 29  -21.0128 26026.4 -03516.6 -07.6950 26262.9
 04 12 2013  07 30  -21.0131 26026.4 -03516.6 -07.6951 26262.9
 04 12 2013  07 31  -21.0134 26026.4 -03516.6 -07.6949 26262.9
 04 12 2013  07 32  -21.0139 26026.4 -03516.5 -07.6948 26262.9
 04 12 2013  07 33  -21.0144 26026.3 -03516.4 -07.6947 26262.8
 04 12 2013  07 34  -21.0146 26026.1 -03516.3 -07.6944 26262.5
 04 12 2013  07 35  -21.0150 26025.7 -03516.1 -07.6940 26262.2
 04 12 2013  07 36  -21.0150 26025.5 -03515.9 -07.6937 26261.9
 04 12 2013  07 37  -21.0148 26025.2 -03515.8 -07.6935 26261.6
 04 12 2013  07 38  -21.0144 26025.1 -03515.7 -07.6934 26261.5
 04 12 2013  07 39  -21.0142 26024.9 -03515.6 -07.6932 26261.3
 04 12 2013  07 40  -21.0139 26024.8 -03515.5 -07.6932 26261.2
 04 12 2013  07 41  -21.0137 26024.6 -03515.5 -07.6931 26261.0
 04 12 2013  07 42  -21.0135 26024.5 -03515.5 -07.6931 26260.9
 04 12 2013  07 43  -21.0133 26024.3 -03515.4 -07.6930 26260.7
 04 12 2013  07 44  -21.0133 26024.2 -03515.3 -07.6929 26260.6
 04 12 2013  07 45  -21.0131 26024.1 -03515.3 -07.6929 26260.5
 04 12 2013  07 46  -21.0131 26024.1 -03515.4 -07.6930 26260.5
 04 12 2013  07 47  -21.0130 26024.1 -03515.4 -07.6930 26260.5
 04 12 2013  07 48  -21.0130 26024.0 -03515.3 -07.6929 26260.3
 04 12 2013  07 49  -21.0132 26023.9 -03515.3 -07.6930 26260.3
 04 12 2013  07 50  -21.0133 26023.9 -03515.4 -07.6930 26260.3
 04 12 2013  07 51  -21.0136 26024.0 -03515.4 -07.6931 26260.4
 04 12 2013  07 52  -21.0136 26024.2 -03515.5 -07.6932 26260.6
 04 12 2013  07 53  -21.0137 26024.4 -03515.6 -07.6933 26260.8
 04 12 2013  07 54  -21.0138 26024.6 -03515.6 -07.6934 26261.0
 04 12 2013  07 55  -21.0136 26024.8 -03515.7 -07.6935 26261.2
 04 12 2013  07 56  -21.0137 26025.0 -03515.8 -07.6936 26261.4
 04 12 2013  07 57  -21.0134 26025.2 -03515.8 -07.6937 26261.6
 04 12 2013  07 58  -21.0133 26025.4 -03515.9 -07.6937 26261.8
 04 12 2013  07 59  -21.0130 26025.4 -03515.9 -07.6937 26261.8
 04 12 2013  08 00  -21.0125 26025.5 -03515.9 -07.6936 26261.9
 04 12 2013  08 01  -21.0121 26025.5 -03515.8 -07.6935 26261.9
 04 12 2013  08 02  -21.0119 26025.5 -03515.8 -07.6935 26261.9
 04 12 2013  08 03  -21.0114 26025.4 -03515.7 -07.6933 26261.8
 04 12 2013  08 04  -21.0113 26025.4 -03515.6 -07.6932 26261.7
 04 12 2013  08 05  -21.0112 26025.4 -03515.6 -07.6931 26261.8
 04 12 2013  08 06  -21.0111 26025.6 -03515.7 -07.6933 26262.0
 04 12 2013  08 07  -21.0110 26025.8 -03515.7 -07.6933 26262.2
 04 12 2013  08 08  -21.0109 26026.0 -03515.8 -07.6934 26262.4
 04 12 2013  08 09  -21.0107 26026.1 -03515.8 -07.6933 26262.5
 04 12 2013  08 10  -21.0104 26026.2 -03515.7 -07.6931 26262.6
 04 12 2013  08 11  -21.0101 26026.2 -03515.6 -07.6930 26262.6
 04 12 2013  08 12  -21.0098 26026.1 -03515.5 -07.6927 26262.5
 04 12 2013  08 13  -21.0096 26026.0 -03515.4 -07.6925 26262.4
 04 12 2013  08 14  -21.0093 26026.0 -03515.3 -07.6924 26262.3
 04 12 2013  08 15  -21.0091 26026.1 -03515.3 -07.6923 26262.4
 04 12 2013  08 16  -21.0090 26026.1 -03515.3 -07.6922 26262.4
 04 12 2013  08 17  -21.0087 26026.1 -03515.2 -07.6921 26262.4
 04 12 2013  08 18  -21.0086 26026.1 -03515.1 -07.6919 26262.4
 04 12 2013  08 19  -21.0082 26026.0 -03515.1 -07.6918 26262.3
 04 12 2013  08 20  -21.0079 26026.0 -03515.0 -07.6916 26262.3
 04 12 2013  08 21  -21.0075 26026.0 -03514.9 -07.6914 26262.2
 04 12 2013  08 22  -21.0071 26025.9 -03514.8 -07.6912 26262.2
 04 12 2013  08 23  -21.0067 26025.8 -03514.7 -07.6910 26262.1
 04 12 2013  08 24  -21.0062 26025.7 -03514.6 -07.6908 26261.9
 04 12 2013  08 25  -21.0056 26025.6 -03514.5 -07.6907 26261.8
 04 12 2013  08 26  -21.0051 26025.5 -03514.4 -07.6905 26261.7
 04 12 2013  08 27  -21.0045 26025.3 -03514.3 -07.6904 26261.5
 04 12 2013  08 28  -21.0042 26025.2 -03514.3 -07.6904 26261.4
 04 12 2013  08 29  -21.0036 26025.2 -03514.3 -07.6905 26261.4
 04 12 2013  08 30  -21.0032 26025.2 -03514.4 -07.6907 26261.4
 04 12 2013  08 31  -21.0027 26025.2 -03514.5 -07.6908 26261.4
 04 12 2013  08 32  -21.0022 26025.1 -03514.6 -07.6910 26261.3
 04 12 2013  08 33  -21.0017 26025.1 -03514.6 -07.6911 26261.3
 04 12 2013  08 34  -21.0012 26025.0 -03514.7 -07.6913 26261.2
 04 12 2013  08 35  -21.0008 26024.8 -03514.7 -07.6914 26261.1
 04 12 2013  08 36  -21.0005 26024.7 -03514.8 -07.6915 26260.9
 04 12 2013  08 37  -21.0003 26024.5 -03514.9 -07.6918 26260.8
 04 12 2013  08 38  -21.0003 26024.5 -03515.0 -07.6921 26260.8
 04 12 2013  08 39  -21.0003 26024.4 -03515.1 -07.6923 26260.7
 04 12 2013  08 40  -21.0001 26024.4 -03515.2 -07.6925 26260.7
 04 12 2013  08 41  -21.0000 26024.2 -03515.2 -07.6926 26260.6
 04 12 2013  08 42  -21.0001 26024.1 -03515.3 -07.6928 26260.5
 04 12 2013  08 43  -20.9999 26024.1 -03515.3 -07.6929 26260.5
 04 12 2013  08 44  -21.0000 26024.2 -03515.4 -07.6932 26260.5
 04 12 2013  08 45  -20.9999 26024.2 -03515.6 -07.6934 26260.6
 04 12 2013  08 46  -20.9999 26024.3 -03515.7 -07.6937 26260.7
 04 12 2013  08 47  -20.9998 26024.3 -03515.8 -07.6938 26260.7
 04 12 2013  08 48  -20.9997 26024.3 -03515.9 -07.6940 26260.7
 04 12 2013  08 49  -20.9993 26024.4 -03516.0 -07.6944 26260.9
 04 12 2013  08 50  -20.9990 26024.5 -03516.2 -07.6947 26260.9
 04 12 2013  08 51  -20.9985 26024.4 -03516.3 -07.6948 26260.9
 04 12 2013  08 52  -20.9982 26024.4 -03516.4 -07.6951 26260.9
 04 12 2013  08 53  -20.9980 26024.5 -03516.5 -07.6954 26261.0
 04 12 2013  08 54  -20.9981 26024.5 -03516.7 -07.6959 26261.1
 04 12 2013  08 55  -20.9980 26024.5 -03516.9 -07.6961 26261.1
 04 12 2013  08 56  -20.9981 26024.6 -03517.0 -07.6964 26261.2
 04 12 2013  08 57  -20.9982 26024.5 -03517.2 -07.6968 26261.1
 04 12 2013  08 58  -20.9984 26024.5 -03517.2 -07.6969 26261.0
 04 12 2013  08 59  -20.9982 26024.4 -03517.3 -07.6972 26261.0
 04 12 2013  09 00  -20.9983 26024.3 -03517.5 -07.6975 26261.0
 04 12 2013  09 01  -20.9983 26024.3 -03517.6 -07.6978 26260.9
 04 12 2013  09 02  -20.9984 26024.2 -03517.7 -07.6980 26260.9
 04 12 2013  09 03  -20.9985 26024.1 -03517.8 -07.6983 26260.8
 04 12 2013  09 04  -20.9986 26024.0 -03517.9 -07.6985 26260.7
 04 12 2013  09 05  -20.9987 26023.9 -03518.0 -07.6988 26260.7
 04 12 2013  09 06  -20.9990 26024.0 -03518.1 -07.6990 26260.7
 04 12 2013  09 07  -20.9994 26024.1 -03518.3 -07.6993 26260.8
 04 12 2013  09 08  -20.9998 26024.2 -03518.5 -07.6997 26261.0
 04 12 2013  09 09  -21.0004 26024.3 -03518.6 -07.7000 26261.1
 04 12 2013  09 10  -21.0007 26024.4 -03518.7 -07.7002 26261.2
 04 12 2013  09 11  -21.0012 26024.5 -03518.8 -07.7004 26261.3
 04 12 2013  09 12  -21.0017 26024.7 -03518.9 -07.7004 26261.5
 04 12 2013  09 13  -21.0020 26024.8 -03519.0 -07.7007 26261.6
 04 12 2013  09 14  -21.0023 26024.9 -03518.8 -07.7002 26261.7
 04 12 2013  09 15  -21.0025 26024.8 -03519.1 -07.7008 26261.7
 04 12 2013  09 16  -21.0028 26024.9 -03519.2 -07.7010 26261.7
 04 12 2013  09 17  -21.0031 26024.9 -03519.3 -07.7012 26261.8
 04 12 2013  09 18  -21.0034 26025.1 -03519.4 -07.7014 26262.0
 04 12 2013  09 19  -21.0040 26025.2 -03519.5 -07.7017 26262.2
 04 12 2013  09 20  -21.0042 26025.2 -03519.6 -07.7018 26262.2
 04 12 2013  09 21  -21.0046 26025.3 -03519.6 -07.7019 26262.2
 04 12 2013  09 22  -21.0049 26025.3 -03519.7 -07.7020 26262.2
 04 12 2013  09 23  -21.0052 26025.4 -03519.8 -07.7022 26262.3
 04 12 2013  09 24  -21.0053 26025.4 -03519.8 -07.7023 26262.3
 04 12 2013  09 25  -21.0057 26025.4 -03519.9 -07.7025 26262.4
 04 12 2013  09 26  -21.0060 26025.5 -03520.0 -07.7026 26262.5
 04 12 2013  09 27  -21.0063 26025.5 -03520.1 -07.7028 26262.5
 04 12 2013  09 28  -21.0066 26025.6 -03520.2 -07.7030 26262.6
 04 12 2013  09 29  -21.0071 26025.6 -03520.3 -07.7032 26262.6
 04 12 2013  09 30  -21.0074 26025.7 -03520.3 -07.7033 26262.7
 04 12 2013  09 31  -21.0080 26025.9 -03520.5 -07.7036 26262.9
 04 12 2013  09 32  -21.0084 26026.0 -03520.6 -07.7038 26263.0
 04 12 2013  09 33  -21.0088 26026.1 -03520.7 -07.7040 26263.2
 04 12 2013  09 34  -21.0091 26026.2 -03520.8 -07.7042 26263.3
 04 12 2013  09 35  -21.0095 26026.3 -03521.0 -07.7044 26263.4
 04 12 2013  09 36  -21.0098 26026.4 -03521.1 -07.7046 26263.5
 04 12 2013  09 37  -21.0102 26026.6 -03521.2 -07.7049 26263.7
 04 12 2013  09 38  -21.0106 26026.8 -03521.3 -07.7051 26263.9
 04 12 2013  09 39  -21.0111 26027.0 -03521.5 -07.7054 26264.1
 04 12 2013  09 40  -21.0115 26027.1 -03521.5 -07.7055 26264.2
 04 12 2013  09 41  -21.0120 26027.3 -03521.7 -07.7057 26264.4
 04 12 2013  09 42  -21.0126 26027.4 -03521.8 -07.7059 26264.6
 04 12 2013  09 43  -21.0133 26027.6 -03521.9 -07.7061 26264.8
 04 12 2013  09 44  -21.0139 26027.7 -03522.0 -07.7063 26264.9
 04 12 2013  09 45  -21.0145 26027.8 -03522.0 -07.7064 26265.0
 04 12 2013  09 46  -21.0151 26027.9 -03522.1 -07.7064 26265.1
 04 12 2013  09 47  -21.0156 26028.0 -03522.2 -07.7066 26265.2
 04 12 2013  09 48  -21.0160 26028.0 -03522.2 -07.7067 26265.3
 04 12 2013  09 49  -21.0165 26028.1 -03522.3 -07.7068 26265.4
 04 12 2013  09 50  -21.0168 26028.1 -03522.4 -07.7070 26265.4
 04 12 2013  09 51  -21.0172 26028.2 -03522.5 -07.7072 26265.5
 04 12 2013  09 52  -21.0175 26028.3 -03522.5 -07.7073 26265.6
 04 12 2013  09 53  -21.0178 26028.3 -03522.6 -07.7074 26265.6
 04 12 2013  09 54  -21.0183 26028.3 -03522.7 -07.7075 26265.6
 04 12 2013  09 55  -21.0189 26028.4 -03522.7 -07.7077 26265.7
 04 12 2013  09 56  -21.0194 26028.7 -03522.8 -07.7078 26266.0
 04 12 2013  09 57  -21.0227 26028.6 -03523.0 -07.7082 26266.0
 04 12 2013  09 58  -21.0232 26028.8 -03523.1 -07.7082 26266.1
 04 12 2013  09 59  -21.0211 26029.1 -03523.1 -07.7082 26266.4
 04 12 2013  10 00  -21.0214 26029.1 -03523.1 -07.7083 26266.5
 04 12 2013  10 01  -21.0217 26029.2 -03523.1 -07.7083 26266.5
 04 12 2013  10 02  -21.0219 26029.2 -03523.2 -07.7084 26266.5
 04 12 2013  10 03  -21.0221 26029.2 -03523.2 -07.7085 26266.6
 04 12 2013  10 04  -21.0224 26029.4 -03523.3 -07.7086 26266.8
 04 12 2013  10 05  -21.0227 26029.5 -03523.4 -07.7087 26266.9
 04 12 2013  10 06  -21.0230 26029.7 -03523.4 -07.7088 26267.1
 04 12 2013  10 07  -21.0233 26029.9 -03523.6 -07.7091 26267.3
 04 12 2013  10 08  -21.0236 26030.1 -03523.7 -07.7092 26267.5
 04 12 2013  10 09  -21.0241 26030.4 -03523.8 -07.7094 26267.9
 04 12 2013  10 10  -21.0245 26030.7 -03523.8 -07.7094 26268.2
 04 12 2013  10 11  -21.0249 26031.0 -03523.9 -07.7094 26268.4
 04 12 2013  10 12  -21.0253 26031.2 -03523.9 -07.7094 26268.7
 04 12 2013  10 13  -21.0258 26031.4 -03524.0 -07.7094 26268.9
 04 12 2013  10 14  -21.0260 26031.6 -03523.9 -07.7093 26269.0
 04 12 2013  10 15  -21.0263 26031.7 -03523.9 -07.7091 26269.2
 04 12 2013  10 16  -21.0265 26031.9 -03523.8 -07.7091 26269.3
 04 12 2013  10 17  -21.0267 26032.0 -03523.8 -07.7089 26269.4
 04 12 2013  10 18  -21.0269 26032.2 -03523.8 -07.7089 26269.6
 04 12 2013  10 19  -21.0271 26032.5 -03523.8 -07.7089 26269.9
 04 12 2013  10 20  -21.0273 26032.7 -03523.9 -07.7089 26270.1
 04 12 2013  10 21  -21.0275 26033.0 -03523.9 -07.7089 26270.4
 04 12 2013  10 22  -21.0277 26033.3 -03524.0 -07.7089 26270.7
 04 12 2013  10 23  -21.0278 26033.6 -03524.0 -07.7089 26271.1
 04 12 2013  10 24  -21.0277 26033.8 -03524.0 -07.7089 26271.3
 04 12 2013  10 25  -21.0277 26034.1 -03524.1 -07.7089 26271.6
 04 12 2013  10 26  -21.0279 26034.5 -03524.2 -07.7090 26271.9
 04 12 2013  10 27  -21.0279 26034.7 -03524.2 -07.7089 26272.1
 04 12 2013  10 28  -21.0278 26035.1 -03524.2 -07.7089 26272.5
 04 12 2013  10 29  -21.0280 26035.2 -03524.3 -07.7090 26272.7
 04 12 2013  10 30  -21.0285 26035.5 -03524.3 -07.7090 26273.0
 04 12 2013  10 31  -21.0290 26036.0 -03524.5 -07.7092 26273.5
 04 12 2013  10 32  -21.0288 26036.1 -03524.4 -07.7090 26273.5
 04 12 2013  10 33  -21.0286 26036.3 -03524.4 -07.7089 26273.7
 04 12 2013  10 34  -21.0291 26036.5 -03524.5 -07.7091 26274.0
 04 12 2013  10 35  -21.0292 26036.5 -03524.4 -07.7089 26274.0
 04 12 2013  10 36  -21.0296 26036.2 -03524.2 -07.7086 26273.6
 04 12 2013  10 37  -21.0303 26036.4 -03524.2 -07.7085 26273.9
 04 12 2013  10 38  -21.0309 26036.6 -03524.2 -07.7085 26274.0
 04 12 2013  10 39  -21.0312 26036.6 -03524.1 -07.7083 26274.0
 04 12 2013  10 40  -21.0314 26036.5 -03524.0 -07.7081 26273.9
 04 12 2013  10 41  -21.0314 26036.3 -03523.9 -07.7079 26273.7
 04 12 2013  10 42  -21.0312 26036.0 -03523.8 -07.7078 26273.4
 04 12 2013  10 43  -21.0306 26035.6 -03523.7 -07.7077 26273.0
 04 12 2013  10 44  -21.0301 26035.6 -03523.7 -07.7077 26273.0
 04 12 2013  10 45  -21.0300 26035.6 -03523.9 -07.7080 26273.0
 04 12 2013  10 46  -21.0297 26035.7 -03524.0 -07.7082 26273.1
 04 12 2013  10 47  -21.0295 26035.8 -03524.1 -07.7085 26273.3
 04 12 2013  10 48  -21.0294 26036.2 -03524.4 -07.7089 26273.7
 04 12 2013  10 49  -21.0295 26036.7 -03524.6 -07.7093 26274.2
 04 12 2013  10 50  -21.0293 26037.1 -03524.8 -07.7096 26274.6
 04 12 2013  10 51  -21.0294 26037.4 -03524.9 -07.7097 26275.0
 04 12 2013  10 52  -21.0295 26037.8 -03525.0 -07.7098 26275.4
 04 12 2013  10 53  -21.0296 26038.2 -03525.1 -07.7098 26275.7
 04 12 2013  10 54  -21.0298 26038.4 -03525.1 -07.7099 26276.0
 04 12 2013  10 55  -21.0297 26038.7 -03525.1 -07.7099 26276.3
 04 12 2013  10 56  -21.0298 26039.0 -03525.2 -07.7099 26276.5
 04 12 2013  10 57  -21.0296 26039.2 -03525.2 -07.7098 26276.8
 04 12 2013  10 58  -21.0295 26039.4 -03525.2 -07.7098 26276.9
 04 12 2013  10 59  -21.0294 26039.5 -03525.2 -07.7098 26277.0
 04 12 2013  11 00  -21.0291 26039.5 -03525.2 -07.7097 26277.1
 04 12 2013  11 01  -21.0289 26039.6 -03525.2 -07.7098 26277.1
 04 12 2013  11 02  -21.0285 26039.6 -03525.3 -07.7100 26277.2
 04 12 2013  11 03  -21.0281 26039.8 -03525.4 -07.7101 26277.3
 04 12 2013  11 04  -21.0279 26040.0 -03525.5 -07.7103 26277.5
 04 12 2013  11 05  -21.0277 26040.1 -03525.6 -07.7105 26277.7
 04 12 2013  11 06  -21.0276 26040.3 -03525.7 -07.7107 26277.9
 04 12 2013  11 07  -21.0274 26040.5 -03525.9 -07.7109 26278.1
 04 12 2013  11 08  -21.0274 26040.6 -03525.9 -07.7110 26278.2
 04 12 2013  11 09  -21.0277 26041.0 -03526.1 -07.7113 26278.6
 04 12 2013  11 10  -21.0278 26041.2 -03526.2 -07.7114 26278.9
 04 12 2013  11 11  -21.0278 26041.5 -03526.3 -07.7115 26279.2
 04 12 2013  11 12  -21.0279 26041.8 -03526.3 -07.7116 26279.4
 04 12 2013  11 13  -21.0279 26041.9 -03526.3 -07.7115 26279.6
 04 12 2013  11 14  -21.0280 26041.9 -03526.3 -07.7115 26279.6
 04 12 2013  11 15  -21.0281 26042.0 -03526.4 -07.7116 26279.7
 04 12 2013  11 16  -21.0283 26042.3 -03526.5 -07.7118 26280.0
 04 12 2013  11 17  -21.0285 26042.6 -03526.6 -07.7120 26280.3
 04 12 2013  11 18  -21.0285 26042.9 -03526.7 -07.7120 26280.6
 04 12 2013  11 19  -21.0284 26043.1 -03526.8 -07.7121 26280.9
 04 12 2013  11 20  -21.0282 26043.5 -03526.9 -07.7123 26281.2
 04 12 2013  11 21  -21.0279 26043.7 -03527.0 -07.7124 26281.5
 04 12 2013  11 22  -21.0279 26044.0 -03527.0 -07.7124 26281.7
 04 12 2013  11 23  -21.0278 26044.3 -03527.2 -07.7126 26282.0
 04 12 2013  11 24  -21.0277 26044.5 -03527.2 -07.7125 26282.3
 04 12 2013  11 25  -21.0276 26044.8 -03527.3 -07.7126 26282.5
 04 12 2013  11 26  -21.0275 26045.0 -03527.3 -07.7127 26282.7
 04 12 2013  11 27  -21.0275 26045.3 -03527.4 -07.7128 26283.1
 04 12 2013  11 28  -21.0277 26045.6 -03527.5 -07.7128 26283.4
 04 12 2013  11 29  -21.0277 26045.9 -03527.5 -07.7128 26283.6
 04 12 2013  11 30  -21.0279 26045.8 -03527.4 -07.7127 26283.6
 04 12 2013  11 31  -21.0280 26046.0 -03527.4 -07.7126 26283.8
 04 12 2013  11 32  -21.0282 26046.2 -03527.5 -07.7127 26284.0
 04 12 2013  11 33  -21.0280 26046.3 -03527.5 -07.7128 26284.1
 04 12 2013  11 34  -21.0278 26046.4 -03527.6 -07.7128 26284.2
 04 12 2013  11 35  -21.0275 26046.4 -03527.6 -07.7129 26284.2
 04 12 2013  11 36  -21.0273 26046.4 -03527.7 -07.7131 26284.2
 04 12 2013  11 37  -21.0271 26046.4 -03527.8 -07.7133 26284.2
 04 12 2013  11 38  -21.0268 26046.4 -03527.9 -07.7136 26284.3
 04 12 2013  11 39  -21.0266 26046.5 -03528.1 -07.7139 26284.3
 04 12 2013  11 40  -21.0262 26046.4 -03528.1 -07.7141 26284.3
 04 12 2013  11 41  -21.0259 26046.5 -03528.3 -07.7144 26284.4
 04 12 2013  11 42  -21.0261 26046.7 -03528.5 -07.7148 26284.6
 04 12 2013  11 43  -21.0261 26046.9 -03528.7 -07.7152 26284.8
 04 12 2013  11 44  -21.0262 26047.2 -03528.9 -07.7155 26285.1
 04 12 2013  11 45  -21.0264 26047.6 -03529.0 -07.7157 26285.6
 04 12 2013  11 46  -21.0264 26047.9 -03529.2 -07.7160 26285.9
 04 12 2013  11 47  -21.0265 26048.2 -03529.3 -07.7161 26286.2
 04 12 2013  11 48  -21.0271 26048.3 -03529.4 -07.7162 26286.3
 04 12 2013  11 49  -21.0269 26048.5 -03529.4 -07.7163 26286.5
 04 12 2013  11 50  -21.0268 26048.6 -03529.4 -07.7163 26286.6
 04 12 2013  11 51  -21.0270 26048.7 -03529.5 -07.7164 26286.7
 04 12 2013  11 52  -21.0270 26048.8 -03529.6 -07.7165 26286.8
 04 12 2013  11 53  -21.0271 26048.9 -03529.6 -07.7166 26286.9
 04 12 2013  11 54  -21.0273 26048.9 -03529.7 -07.7167 26287.0
 04 12 2013  11 55  -21.0276 26049.2 -03529.8 -07.7169 26287.2
 04 12 2013  11 56  -21.0278 26049.3 -03529.9 -07.7170 26287.4
 04 12 2013  11 57  -21.0281 26049.5 -03530.0 -07.7172 26287.6
 04 12 2013  11 58  -21.0283 26049.6 -03530.0 -07.7173 26287.7
 04 12 2013  11 59  -21.0284 26049.8 -03530.1 -07.7174 26288.0
 04 12 2013  12 00  -21.0286 26049.9 -03530.1 -07.7173 26288.0
 04 12 2013  12 01  -21.0286 26050.0 -03530.1 -07.7172 26288.1
 04 12 2013  12 02  -21.0287 26050.1 -03530.1 -07.7173 26288.2
 04 12 2013  12 03  -21.0286 26050.4 -03530.2 -07.7173 26288.5
 04 12 2013  12 04  -21.0288 26050.6 -03530.2 -07.7173 26288.7
 04 12 2013  12 05  -21.0291 26050.5 -03530.1 -07.7172 26288.6
 04 12 2013  12 06  -21.0291 26050.8 -03530.2 -07.7172 26288.9
 04 12 2013  12 07  -21.0289 26051.0 -03530.2 -07.7172 26289.1
 04 12 2013  12 08  -21.0288 26051.1 -03530.2 -07.7171 26289.2
 04 12 2013  12 09  -21.0285 26051.3 -03530.1 -07.7170 26289.4
 04 12 2013  12 10  -21.0286 26051.5 -03530.2 -07.7169 26289.6
 04 12 2013  12 11  -21.0285 26051.6 -03530.1 -07.7168 26289.7
 04 12 2013  12 12  -21.0281 26051.7 -03530.0 -07.7166 26289.8
 04 12 2013  12 13  -21.0281 26051.9 -03530.0 -07.7166 26289.9
 04 12 2013  12 14  -21.0280 26052.0 -03530.0 -07.7164 26290.0
 04 12 2013  12 15  -21.0277 26052.1 -03529.9 -07.7163 26290.1
 04 12 2013  12 16  -21.0277 26052.2 -03529.9 -07.7161 26290.2
 04 12 2013  12 17  -21.0282 26052.3 -03529.8 -07.7160 26290.3
 04 12 2013  12 18  -21.0281 26052.5 -03529.8 -07.7159 26290.6
 04 12 2013  12 19  -21.0280 26052.7 -03529.7 -07.7157 26290.7
 04 12 2013  12 20  -21.0281 26052.7 -03529.6 -07.7154 26290.7
 04 12 2013  12 21  -21.0279 26052.7 -03529.6 -07.7153 26290.7
 04 12 2013  12 22  -21.0278 26052.6 -03529.5 -07.7151 26290.6
 04 12 2013  12 23  -21.0278 26052.7 -03529.4 -07.7150 26290.7
 04 12 2013  12 24  -21.0278 26052.7 -03529.4 -07.7150 26290.6
 04 12 2013  12 25  -21.0278 26052.7 -03529.4 -07.7150 26290.6
 04 12 2013  12 26  -21.0278 26052.6 -03529.4 -07.7150 26290.6
 04 12 2013  12 27  -21.0278 26052.9 -03529.5 -07.7151 26290.9
 04 12 2013  12 28  -21.0277 26053.1 -03529.5 -07.7151 26291.1
 04 12 2013  12 29  -21.0277 26053.3 -03529.5 -07.7150 26291.2
 04 12 2013  12 30  -21.0278 26053.4 -03529.5 -07.7149 26291.3
 04 12 2013  12 31  -21.0285 26053.7 -03529.4 -07.7148 26291.6
 04 12 2013  12 32  -21.0295 26053.8 -03529.4 -07.7146 26291.8
 04 12 2013  12 33  -21.0306 26054.0 -03529.4 -07.7145 26292.0
 04 12 2013  12 34  -21.0313 26054.2 -03529.3 -07.7142 26292.1
 04 12 2013  12 35  -21.0317 26054.2 -03529.2 -07.7140 26292.1
 04 12 2013  12 36  -21.0317 26054.0 -03529.0 -07.7137 26291.9
 04 12 2013  12 37  -21.0319 26053.7 -03528.8 -07.7133 26291.6
 04 12 2013  12 38  -21.0323 26053.7 -03528.6 -07.7130 26291.6
 04 12 2013  12 39  -21.0324 26053.7 -03528.6 -07.7129 26291.6
 04 12 2013  12 40  -21.0327 26054.0 -03528.6 -07.7129 26291.9
 04 12 2013  12 41  -21.0327 26054.0 -03528.5 -07.7127 26291.9
 04 12 2013  12 42  -21.0329 26054.1 -03528.4 -07.7124 26291.9
 04 12 2013  12 43  -21.0333 26054.2 -03528.3 -07.7121 26292.0
 04 12 2013  12 44  -21.0335 26054.4 -03528.2 -07.7118 26292.2
 04 12 2013  12 45  -21.0338 26054.6 -03528.1 -07.7116 26292.4
 04 12 2013  12 46  -21.0340 26054.4 -03527.8 -07.7110 26292.1
 04 12 2013  12 47  -21.0342 26054.4 -03527.6 -07.7107 26292.1
 04 12 2013  12 48  -21.0345 26054.5 -03527.6 -07.7105 26292.2
 04 12 2013  12 49  -21.0345 26054.8 -03527.5 -07.7102 26292.5
 04 12 2013  12 50  -21.0348 26055.3 -03527.5 -07.7101 26293.0
 04 12 2013  12 51  -21.0353 26055.6 -03527.4 -07.7097 26293.2
 04 12 2013  12 52  -21.0357 26055.8 -03527.1 -07.7092 26293.4
 04 12 2013  12 53  -21.0361 26055.9 -03526.9 -07.7087 26293.6
 04 12 2013  12 54  -21.0362 26056.1 -03526.7 -07.7081 26293.7
 04 12 2013  12 55  -21.0363 26056.2 -03526.4 -07.7076 26293.7
 04 12 2013  12 56  -21.0366 26056.3 -03526.2 -07.7070 26293.8
 04 12 2013  12 57  -21.0368 26056.1 -03525.9 -07.7064 26293.6
 04 12 2013  12 58  -21.0370 26055.9 -03525.6 -07.7058 26293.3
 04 12 2013  12 59  -21.0372 26055.7 -03525.3 -07.7052 26293.1
 04 12 2013  13 00  -21.0373 26055.4 -03525.0 -07.7046 26292.8
 04 12 2013  13 01  -21.0372 26055.2 -03524.7 -07.7041 26292.5
 04 12 2013  13 02  -21.0373 26055.0 -03524.5 -07.7037 26292.3
 04 12 2013  13 03  -21.0372 26055.1 -03524.4 -07.7034 26292.3
 04 12 2013  13 04  -21.0372 26055.0 -03524.2 -07.7030 26292.2
 04 12 2013  13 05  -21.0371 26054.9 -03524.0 -07.7026 26292.1
 04 12 2013  13 06  -21.0371 26054.9 -03523.9 -07.7024 26292.2
 04 12 2013  13 07  -21.0369 26054.8 -03523.7 -07.7020 26292.0
 04 12 2013  13 08  -21.0365 26054.6 -03523.4 -07.7015 26291.7
 04 12 2013  13 09  -21.0358 26054.3 -03523.2 -07.7010 26291.4
 04 12 2013  13 10  -21.0353 26054.1 -03523.0 -07.7008 26291.2
 04 12 2013  13 11  -21.0348 26053.8 -03522.8 -07.7005 26290.9
 04 12 2013  13 12  -21.0344 26053.4 -03522.6 -07.7002 26290.5
 04 12 2013  13 13  -21.0336 26053.1 -03522.5 -07.7000 26290.2
 04 12 2013  13 14  -21.0329 26053.1 -03522.5 -07.6999 26290.1
 04 12 2013  13 15  -21.0323 26052.8 -03522.3 -07.6997 26289.8
 04 12 2013  13 16  -21.0322 26052.7 -03522.3 -07.6996 26289.7
 04 12 2013  13 17  -21.0332 26052.5 -03522.3 -07.6996 26289.5
 04 12 2013  13 18  -21.0328 26052.5 -03522.2 -07.6994 26289.5
 04 12 2013  13 19  -21.0326 26052.4 -03522.1 -07.6992 26289.4
 04 12 2013  13 20  -21.0323 26052.3 -03521.9 -07.6990 26289.3
 04 12 2013  13 21  -21.0302 26052.1 -03521.7 -07.6985 26289.1
 04 12 2013  13 22  -21.0295 26051.8 -03521.5 -07.6982 26288.7
 04 12 2013  13 23  -21.0292 26051.8 -03521.5 -07.6981 26288.7
 04 12 2013  13 24  -21.0289 26051.8 -03521.4 -07.6980 26288.7
 04 12 2013  13 25  -21.0287 26051.7 -03521.3 -07.6977 26288.6
 04 12 2013  13 26  -21.0286 26051.4 -03521.1 -07.6974 26288.3
 04 12 2013  13 27  -21.0284 26051.2 -03520.9 -07.6970 26288.1
 04 12 2013  13 28  -21.0281 26051.2 -03520.8 -07.6967 26288.1
 04 12 2013  13 29  -21.0276 26051.2 -03520.6 -07.6965 26288.0
 04 12 2013  13 30  -21.0268 26051.2 -03520.4 -07.6961 26288.0
 04 12 2013  13 31  -21.0260 26051.0 -03520.3 -07.6957 26287.8
 04 12 2013  13 32  -21.0256 26051.1 -03520.2 -07.6955 26287.8
 04 12 2013  13 33  -21.0250 26050.8 -03520.0 -07.6951 26287.6
 04 12 2013  13 34  -21.0255 26050.3 -03519.5 -07.6944 26287.0
 04 12 2013  13 35  -21.0252 26050.1 -03519.3 -07.6940 26286.7
 04 12 2013  13 36  -21.0243 26050.0 -03519.3 -07.6939 26286.7
 04 12 2013  13 37  -21.0233 26050.1 -03519.2 -07.6937 26286.7
 04 12 2013  13 38  -21.0225 26049.5 -03518.9 -07.6933 26286.1
 04 12 2013  13 39  -21.0215 26049.3 -03518.8 -07.6931 26285.9
 04 12 2013  13 40  -21.0209 26049.2 -03518.7 -07.6930 26285.7
 04 12 2013  13 41  -21.0202 26048.9 -03518.6 -07.6928 26285.5
 04 12 2013  13 42  -21.0197 26048.6 -03518.5 -07.6926 26285.2
 04 12 2013  13 43  -21.0191 26048.7 -03518.5 -07.6926 26285.3
 04 12 2013  13 44  -21.0183 26048.7 -03518.5 -07.6926 26285.2
 04 12 2013  13 45  -21.0173 26048.4 -03518.3 -07.6922 26284.9
 04 12 2013  13 46  -21.0164 26048.2 -03518.2 -07.6921 26284.7
 04 12 2013  13 47  -21.0155 26047.9 -03518.1 -07.6920 26284.4
 04 12 2013  13 48  -21.0145 26047.5 -03518.0 -07.6918 26284.0
 04 12 2013  13 49  -21.0135 26047.5 -03518.0 -07.6919 26284.0
 04 12 2013  13 50  -21.0128 26047.7 -03518.1 -07.6921 26284.2
 04 12 2013  13 51  -21.0119 26048.0 -03518.2 -07.6923 26284.5
 04 12 2013  13 52  -21.0110 26048.1 -03518.2 -07.6922 26284.6
 04 12 2013  13 53  -21.0100 26047.8 -03518.1 -07.6919 26284.3
 04 12 2013  13 54  -21.0090 26047.7 -03518.0 -07.6918 26284.1
 04 12 2013  13 55  -21.0079 26047.3 -03517.9 -07.6917 26283.8
 04 12 2013  13 56  -21.0073 26047.2 -03517.9 -07.6918 26283.7
 04 12 2013  13 57  -21.0061 26047.1 -03518.0 -07.6919 26283.6
 04 12 2013  13 58  -21.0053 26046.9 -03518.0 -07.6920 26283.4
 04 12 2013  13 59  -21.0044 26046.8 -03518.1 -07.6922 26283.3
 04 12 2013  14 00  -21.0034 26046.7 -03518.1 -07.6924 26283.2
 04 12 2013  14 01  -21.0009 26046.9 -03518.4 -07.6929 26283.5
 04 12 2013  14 02  -20.9997 26047.0 -03518.6 -07.6933 26283.6
 04 12 2013  14 03  -20.9990 26046.9 -03518.6 -07.6934 26283.5
 04 12 2013  14 04  -20.9983 26046.8 -03518.5 -07.6932 26283.4
 04 12 2013  14 05  -20.9970 26046.7 -03518.7 -07.6935 26283.3
 04 12 2013  14 06  -20.9961 26046.7 -03518.8 -07.6938 26283.3
 04 12 2013  14 07  -20.9953 26046.7 -03518.9 -07.6940 26283.3
 04 12 2013  14 08  -20.9944 26046.5 -03518.9 -07.6941 26283.2
 04 12 2013  14 09  -20.9937 26046.4 -03518.9 -07.6942 26283.0
 04 12 2013  14 10  -20.9929 26046.3 -03519.0 -07.6943 26282.9
 04 12 2013  14 11  -20.9923 26046.1 -03519.0 -07.6944 26282.8
 04 12 2013  14 12  -20.9914 26045.8 -03519.0 -07.6944 26282.4
 04 12 2013  14 13  -20.9907 26045.6 -03519.0 -07.6946 26282.2
 04 12 2013  14 14  -20.9901 26045.6 -03519.2 -07.6950 26282.3
 04 12 2013  14 15  -20.9892 26045.8 -03519.4 -07.6954 26282.5
 04 12 2013  14 16  -20.9880 26045.8 -03519.5 -07.6956 26282.5
 04 12 2013  14 17  -20.9869 26045.7 -03519.7 -07.6961 26282.5
 04 12 2013  14 18  -20.9865 26046.0 -03519.9 -07.6965 26282.7
 04 12 2013  14 19  -20.9860 26046.1 -03520.0 -07.6967 26282.9
 04 12 2013  14 20  -20.9858 26046.2 -03520.2 -07.6969 26283.0
 04 12 2013  14 21  -20.9859 26046.3 -03520.3 -07.6972 26283.1
 04 12 2013  14 22  -20.9854 26046.8 -03520.5 -07.6976 26283.6
 04 12 2013  14 23  -20.9852 26045.9 -03520.2 -07.6971 26282.7
 04 12 2013  14 24  -20.9849 26046.3 -03520.5 -07.6976 26283.2
 04 12 2013  14 25  -20.9848 26046.1 -03520.5 -07.6977 26282.9
 04 12 2013  14 26  -20.9845 26045.7 -03520.5 -07.6977 26282.5
 04 12 2013  14 27  -20.9838 26045.5 -03520.5 -07.6978 26282.3
 04 12 2013  14 28  -20.9834 26045.2 -03520.5 -07.6979 26282.0
 04 12 2013  14 29  -20.9830 26045.1 -03520.6 -07.6981 26282.0
 04 12 2013  14 30  -20.9828 26045.0 -03520.6 -07.6983 26281.9
 04 12 2013  14 31  -20.9827 26044.8 -03520.6 -07.6983 26281.6
 04 12 2013  14 32  -20.9828 26044.7 -03520.7 -07.6985 26281.6
 04 12 2013  14 33  -20.9829 26044.4 -03520.6 -07.6985 26281.3
 04 12 2013  14 34  -20.9830 26044.4 -03520.7 -07.6985 26281.2
 04 12 2013  14 35  -20.9833 26044.4 -03520.7 -07.6987 26281.2
 04 12 2013  14 36  -20.9833 26044.1 -03520.6 -07.6986 26280.9
 04 12 2013  14 37  -20.9828 26043.7 -03520.5 -07.6985 26280.6
 04 12 2013  14 38  -20.9824 26043.4 -03520.5 -07.6984 26280.3
 04 12 2013  14 39  -20.9824 26043.3 -03520.5 -07.6985 26280.2
 04 12 2013  14 40  -20.9821 26043.0 -03520.4 -07.6984 26279.9
 04 12 2013  14 41  -20.9820 26042.7 -03520.3 -07.6983 26279.5
 04 12 2013  14 42  -20.9816 26042.4 -03520.2 -07.6982 26279.3
 04 12 2013  14 43  -20.9815 26042.2 -03520.2 -07.6982 26279.1
 04 12 2013  14 44  -20.9814 26042.1 -03520.2 -07.6982 26278.9
 04 12 2013  14 45  -20.9812 26042.1 -03520.2 -07.6983 26278.9
 04 12 2013  14 46  -20.9810 26042.0 -03520.2 -07.6983 26278.9
 04 12 2013  14 47  -20.9807 26041.9 -03520.3 -07.6984 26278.7
 04 12 2013  14 48  -20.9801 26041.5 -03520.1 -07.6982 26278.3
 04 12 2013  14 49  -20.9794 26041.3 -03520.1 -07.6983 26278.1
 04 12 2013  14 50  -20.9782 26040.9 -03520.1 -07.6984 26277.7
 04 12 2013  14 51  -20.9771 26040.5 -03520.2 -07.6987 26277.4
 04 12 2013  14 52  -20.9764 26040.5 -03520.4 -07.6992 26277.4
 04 12 2013  14 53  -20.9760 26040.5 -03520.7 -07.6998 26277.4
 04 12 2013  14 54  -20.9754 26040.5 -03521.0 -07.7004 26277.4
 04 12 2013  14 55  -20.9749 26040.4 -03521.2 -07.7008 26277.4
 04 12 2013  14 56  -20.9745 26040.5 -03521.5 -07.7014 26277.5
 04 12 2013  14 57  -20.9739 26040.3 -03521.6 -07.7018 26277.4
 04 12 2013  14 58  -20.9736 26040.3 -03521.9 -07.7023 26277.4
 04 12 2013  14 59  -20.9733 26040.1 -03522.1 -07.7028 26277.2
 04 12 2013  15 00  -20.9729 26039.9 -03522.3 -07.7033 26277.1
 04 12 2013  15 01  -20.9730 26039.7 -03522.5 -07.7038 26276.9
 04 12 2013  15 02  -20.9728 26039.6 -03522.7 -07.7044 26276.8
 04 12 2013  15 03  -20.9728 26039.5 -03523.0 -07.7050 26276.7
 04 12 2013  15 04  -20.9726 26039.2 -03523.2 -07.7055 26276.5
 04 12 2013  15 05  -20.9725 26039.0 -03523.4 -07.7061 26276.3
 04 12 2013  15 06  -20.9725 26038.9 -03523.7 -07.7066 26276.2
 04 12 2013  15 07  -20.9726 26038.8 -03523.9 -07.7073 26276.1
 04 12 2013  15 08  -20.9730 26038.8 -03524.3 -07.7080 26276.2
 04 12 2013  15 09  -20.9736 26038.8 -03524.6 -07.7086 26276.2
 04 12 2013  15 10  -20.9742 26038.7 -03524.8 -07.7092 26276.2
 04 12 2013  15 11  -20.9749 26038.7 -03525.1 -07.7098 26276.3
 04 12 2013  15 12  -20.9757 26038.7 -03525.3 -07.7103 26276.2
 04 12 2013  15 13  -20.9762 26038.6 -03525.5 -07.7106 26276.2
 04 12 2013  15 14  -20.9768 26038.5 -03525.7 -07.7111 26276.1
 04 12 2013  15 15  -20.9774 26038.3 -03525.8 -07.7114 26275.9
 04 12 2013  15 16  -20.9778 26038.2 -03525.9 -07.7117 26275.9
 04 12 2013  15 17  -20.9782 26038.3 -03526.1 -07.7122 26275.9
 04 12 2013  15 18  -20.9788 26038.2 -03526.3 -07.7125 26275.9
 04 12 2013  15 19  -20.9793 26038.2 -03526.4 -07.7128 26275.9
 04 12 2013  15 20  -20.9799 26038.3 -03526.6 -07.7132 26276.0
 04 12 2013  15 21  -20.9804 26038.4 -03526.7 -07.7134 26276.2
 04 12 2013  15 22  -20.9809 26038.5 -03526.8 -07.7136 26276.3
 04 12 2013  15 23  -20.9813 26038.6 -03526.9 -07.7137 26276.4
 04 12 2013  15 24  -20.9817 26038.6 -03527.0 -07.7138 26276.4
 04 12 2013  15 25  -20.9820 26038.5 -03527.0 -07.7139 26276.3
 04 12 2013  15 26  -20.9822 26038.4 -03527.0 -07.7140 26276.2
 04 12 2013  15 27  -20.9824 26038.3 -03527.1 -07.7142 26276.1
 04 12 2013  15 28  -20.9827 26038.4 -03527.2 -07.7144 26276.2
 04 12 2013  15 29  -20.9829 26038.3 -03527.3 -07.7145 26276.2
 04 12 2013  15 30  -20.9833 26038.3 -03527.3 -07.7147 26276.2
 04 12 2013  15 31  -20.9836 26038.4 -03527.5 -07.7150 26276.2
 04 12 2013  15 32  -20.9836 26038.3 -03527.5 -07.7150 26276.1
 04 12 2013  15 33  -20.9838 26038.3 -03527.6 -07.7152 26276.2
 04 12 2013  15 34  -20.9838 26038.3 -03527.6 -07.7153 26276.1
 04 12 2013  15 35  -20.9836 26038.2 -03527.6 -07.7154 26276.1
 04 12 2013  15 36  -20.9837 26038.3 -03527.8 -07.7156 26276.2
 04 12 2013  15 37  -20.9836 26038.3 -03527.8 -07.7157 26276.2
 04 12 2013  15 38  -20.9834 26038.4 -03527.8 -07.7157 26276.2
 04 12 2013  15 39  -20.9832 26038.4 -03527.9 -07.7158 26276.3
 04 12 2013  15 40  -20.9831 26038.5 -03527.9 -07.7160 26276.4
 04 12 2013  15 41  -20.9829 26038.6 -03527.9 -07.7159 26276.5
 04 12 2013  15 42  -20.9829 26038.8 -03528.0 -07.7159 26276.7
 04 12 2013  15 43  -20.9828 26039.0 -03528.0 -07.7159 26277.0
 04 12 2013  15 44  -20.9827 26039.3 -03528.0 -07.7158 26277.2
 04 12 2013  15 45  -20.9826 26039.5 -03527.9 -07.7156 26277.4
 04 12 2013  15 46  -20.9823 26039.6 -03527.8 -07.7153 26277.4
 04 12 2013  15 47  -20.9820 26039.7 -03527.7 -07.7150 26277.6
 04 12 2013  15 48  -20.9819 26039.7 -03527.5 -07.7147 26277.5
 04 12 2013  15 49  -20.9816 26039.6 -03527.3 -07.7142 26277.4
 04 12 2013  15 50  -20.9814 26039.5 -03527.2 -07.7140 26277.3
 04 12 2013  15 51  -20.9817 26039.7 -03527.2 -07.7140 26277.5
 04 12 2013  15 52  -20.9816 26039.7 -03527.0 -07.7136 26277.5
 04 12 2013  15 53  -20.9811 26039.5 -03526.8 -07.7133 26277.3
 04 12 2013  15 54  -20.9810 26039.3 -03526.7 -07.7130 26277.1
 04 12 2013  15 55  -20.9808 26039.2 -03526.5 -07.7127 26276.9
 04 12 2013  15 56  -20.9810 26039.0 -03526.5 -07.7126 26276.7
 04 12 2013  15 57  -20.9811 26039.1 -03526.4 -07.7125 26276.8
 04 12 2013  15 58  -20.9814 26039.1 -03526.4 -07.7124 26276.8
 04 12 2013  15 59  -20.9817 26039.0 -03526.3 -07.7122 26276.7
 04 12 2013  16 00  -20.9819 26038.9 -03526.2 -07.7120 26276.6
 04 12 2013  16 01  -20.9822 26038.8 -03526.0 -07.7118 26276.4
 04 12 2013  16 02  -20.9825 26038.6 -03525.9 -07.7116 26276.3
 04 12 2013  16 03  -20.9828 26038.4 -03525.9 -07.7115 26276.1
 04 12 2013  16 04  -20.9830 26038.4 -03525.8 -07.7113 26276.0
 04 12 2013  16 05  -20.9833 26038.3 -03525.7 -07.7113 26275.9
 04 12 2013  16 06  -20.9837 26038.3 -03525.7 -07.7112 26275.9
 04 12 2013  16 07  -20.9840 26038.2 -03525.6 -07.7109 26275.8
 04 12 2013  16 08  -20.9841 26038.0 -03525.4 -07.7107 26275.6
 04 12 2013  16 09  -20.9842 26037.9 -03525.3 -07.7105 26275.5
 04 12 2013  16 10  -20.9845 26038.0 -03525.3 -07.7105 26275.6
 04 12 2013  16 11  -20.9850 26038.1 -03525.3 -07.7103 26275.7
 04 12 2013  16 12  -20.9853 26038.1 -03525.2 -07.7101 26275.6
 04 12 2013  16 13  -20.9854 26038.0 -03525.0 -07.7098 26275.5
 04 12 2013  16 14  -20.9857 26038.0 -03524.9 -07.7095 26275.5
 04 12 2013  16 15  -20.9858 26037.8 -03524.7 -07.7092 26275.3
 04 12 2013  16 16  -20.9863 26037.9 -03524.6 -07.7090 26275.3
 04 12 2013  16 17  -20.9867 26037.9 -03524.5 -07.7088 26275.3
 04 12 2013  16 18  -20.9870 26037.8 -03524.4 -07.7086 26275.2
 04 12 2013  16 19  -20.9872 26037.8 -03524.3 -07.7083 26275.2
 04 12 2013  16 20  -20.9876 26037.7 -03524.2 -07.7081 26275.1
 04 12 2013  16 21  -20.9878 26037.6 -03524.1 -07.7078 26275.0
 04 12 2013  16 22  -20.9882 26037.6 -03524.0 -07.7077 26275.0
 04 12 2013  16 23  -20.9886 26037.6 -03523.9 -07.7075 26275.0
 04 12 2013  16 24  -20.9890 26037.7 -03523.8 -07.7073 26275.1
 04 12 2013  16 25  -20.9893 26037.9 -03523.8 -07.7072 26275.3
 04 12 2013  16 26  -20.9895 26038.1 -03523.7 -07.7070 26275.5
 04 12 2013  16 27  -20.9899 26038.1 -03523.5 -07.7066 26275.4
 04 12 2013  16 28  -20.9901 26038.0 -03523.4 -07.7062 26275.3
 04 12 2013  16 29  -20.9904 26037.9 -03523.2 -07.7059 26275.2
 04 12 2013  16 30  -20.9907 26037.8 -03523.1 -07.7057 26275.0
 04 12 2013  16 31  -20.9911 26037.7 -03523.0 -07.7055 26274.9
 04 12 2013  16 32  -20.9917 26037.7 -03522.9 -07.7053 26275.0
 04 12 2013  16 33  -20.9921 26037.7 -03522.8 -07.7050 26275.0
 04 12 2013  16 34  -20.9926 26037.8 -03522.7 -07.7048 26275.0
 04 12 2013  16 35  -20.9929 26037.7 -03522.4 -07.7043 26274.9
 04 12 2013  16 36  -20.9928 26037.8 -03522.2 -07.7038 26274.9
 04 12 2013  16 37  -20.9931 26037.6 -03522.1 -07.7035 26274.8
 04 12 2013  16 38  -20.9933 26037.5 -03521.9 -07.7032 26274.6
 04 12 2013  16 39  -20.9937 26037.5 -03521.9 -07.7031 26274.6
 04 12 2013  16 40  -20.9941 26037.6 -03521.8 -07.7029 26274.7
 04 12 2013  16 41  -20.9946 26037.9 -03521.8 -07.7029 26275.0
 04 12 2013  16 42  -20.9952 26038.1 -03521.7 -07.7025 26275.1
 04 12 2013  16 43  -20.9954 26038.2 -03521.5 -07.7021 26275.2
 04 12 2013  16 44  -20.9957 26038.3 -03521.3 -07.7018 26275.3
 04 12 2013  16 45  -20.9956 26038.1 -03521.1 -07.7013 26275.1
 04 12 2013  16 46  -20.9960 26038.2 -03521.0 -07.7010 26275.2
 04 12 2013  16 47  -20.9982 26038.3 -03520.9 -07.7009 26275.2
 04 12 2013  16 48  -20.9968 26038.4 -03520.8 -07.7005 26275.3
 04 12 2013  16 49  -20.9970 26038.5 -03520.6 -07.7001 26275.4
 04 12 2013  16 50  -20.9974 26038.5 -03520.4 -07.6997 26275.4
 04 12 2013  16 51  -20.9979 26038.3 -03520.2 -07.6993 26275.2
 04 12 2013  16 52  -20.9981 26038.1 -03520.0 -07.6989 26274.9
 04 12 2013  16 53  -20.9982 26037.9 -03519.8 -07.6986 26274.7
 04 12 2013  16 54  -20.9986 26037.7 -03519.7 -07.6983 26274.5
 04 12 2013  16 55  -20.9992 26037.4 -03519.5 -07.6980 26274.2
 04 12 2013  16 56  -20.9996 26037.3 -03519.2 -07.6975 26274.0
 04 12 2013  16 57  -21.0001 26037.3 -03519.1 -07.6973 26274.0
 04 12 2013  16 58  -21.0006 26037.2 -03519.0 -07.6970 26273.9
 04 12 2013  16 59  -21.0010 26037.4 -03518.9 -07.6967 26274.1
 04 12 2013  17 00  -21.0018 26037.7 -03518.8 -07.6965 26274.4
 04 12 2013  17 01  -21.0024 26038.0 -03518.7 -07.6961 26274.7
 04 12 2013  17 02  -21.0028 26038.2 -03518.5 -07.6957 26274.9
 04 12 2013  17 03  -21.0036 26038.3 -03518.3 -07.6951 26275.0
 04 12 2013  17 04  -21.0044 26038.4 -03518.0 -07.6945 26275.0
 04 12 2013  17 05  -21.0052 26038.6 -03517.7 -07.6939 26275.1
 04 12 2013  17 06  -21.0060 26038.7 -03517.5 -07.6933 26275.2
 04 12 2013  17 07  -21.0062 26038.7 -03517.2 -07.6926 26275.2
 04 12 2013  17 08  -21.0067 26038.9 -03517.0 -07.6922 26275.3
 04 12 2013  17 09  -21.0073 26039.0 -03516.8 -07.6918 26275.4
 04 12 2013  17 10  -21.0078 26038.9 -03516.5 -07.6911 26275.3
 04 12 2013  17 11  -21.0082 26038.8 -03516.2 -07.6905 26275.1
 04 12 2013  17 12  -21.0084 26038.7 -03515.9 -07.6900 26275.0
 04 12 2013  17 13  -21.0092 26038.6 -03515.8 -07.6896 26274.9
 04 12 2013  17 14  -21.0099 26038.6 -03515.5 -07.6891 26274.9
 04 12 2013  17 15  -21.0104 26038.5 -03515.3 -07.6886 26274.7
 04 12 2013  17 16  -21.0109 26038.4 -03515.0 -07.6881 26274.6
 04 12 2013  17 17  -21.0117 26038.2 -03514.8 -07.6876 26274.4
 04 12 2013  17 18  -21.0123 26038.0 -03514.5 -07.6871 26274.1
 04 12 2013  17 19  -21.0124 26037.9 -03514.4 -07.6868 26274.0
 04 12 2013  17 20  -21.0129 26037.9 -03514.2 -07.6865 26274.0
 04 12 2013  17 21  -21.0138 26037.9 -03514.1 -07.6863 26273.9
 04 12 2013  17 22  -21.0139 26037.7 -03514.0 -07.6861 26273.7
 04 12 2013  17 23  -21.0144 26037.8 -03513.9 -07.6858 26273.8
 04 12 2013  17 24  -21.0149 26038.0 -03513.8 -07.6855 26274.0
 04 12 2013  17 25  -21.0156 26038.0 -03513.6 -07.6851 26274.0
 04 12 2013  17 26  -21.0161 26038.0 -03513.4 -07.6846 26273.9
 04 12 2013  17 27  -21.0165 26037.6 -03513.0 -07.6839 26273.6
 04 12 2013  17 28  -21.0169 26037.6 -03512.8 -07.6834 26273.5
 04 12 2013  17 29  -21.0174 26037.4 -03512.5 -07.6830 26273.2
 04 12 2013  17 30  -21.0176 26037.1 -03512.3 -07.6825 26272.9
 04 12 2013  17 31  -21.0179 26036.6 -03511.9 -07.6818 26272.4
 04 12 2013  17 32  -21.0183 26036.4 -03511.7 -07.6815 26272.1
 04 12 2013  17 33  -21.0183 26036.5 -03511.7 -07.6815 26272.3
 04 12 2013  17 34  -21.0190 26036.4 -03511.6 -07.6813 26272.2
 04 12 2013  17 35  -21.0197 26036.7 -03511.6 -07.6812 26272.5
 04 12 2013  17 36  -21.0203 26036.9 -03511.3 -07.6806 26272.6
 04 12 2013  17 37  -21.0209 26036.6 -03511.1 -07.6801 26272.3
 04 12 2013  17 38  -21.0212 26036.4 -03510.8 -07.6795 26272.0
 04 12 2013  17 39  -21.0214 26036.5 -03510.7 -07.6793 26272.1
 04 12 2013  17 40  -21.0220 26036.4 -03510.6 -07.6790 26272.0
 04 12 2013  17 41  -21.0224 26036.2 -03510.3 -07.6786 26271.7
 04 12 2013  17 42  -21.0228 26036.3 -03510.2 -07.6783 26271.9
 04 12 2013  17 43  -21.0231 26036.5 -03510.1 -07.6780 26272.0
 04 12 2013  17 44  -21.0234 26036.3 -03509.8 -07.6774 26271.8
 04 12 2013  17 45  -21.0238 26036.1 -03509.6 -07.6770 26271.5
 04 12 2013  17 46  -21.0245 26035.9 -03509.4 -07.6766 26271.4
 04 12 2013  17 47  -21.0251 26036.1 -03509.3 -07.6764 26271.5
 04 12 2013  17 48  -21.0255 26035.7 -03509.0 -07.6758 26271.1
 04 12 2013  17 49  -21.0261 26035.5 -03508.8 -07.6755 26270.9
 04 12 2013  17 50  -21.0267 26035.4 -03508.7 -07.6753 26270.7
 04 12 2013  17 51  -21.0274 26035.3 -03508.5 -07.6749 26270.6
 04 12 2013  17 52  -21.0283 26035.1 -03508.2 -07.6744 26270.4
 04 12 2013  17 53  -21.0292 26034.9 -03508.0 -07.6739 26270.2
 04 12 2013  17 54  -21.0298 26034.5 -03507.7 -07.6733 26269.8
 04 12 2013  17 55  -21.0300 26034.3 -03507.4 -07.6727 26269.5
 04 12 2013  17 56  -21.0301 26034.1 -03507.2 -07.6724 26269.3
 04 12 2013  17 57  -21.0310 26034.0 -03507.0 -07.6721 26269.1
 04 12 2013  17 58  -21.0316 26033.8 -03506.8 -07.6717 26268.9
 04 12 2013  17 59  -21.0322 26033.7 -03506.6 -07.6713 26268.8
 04 12 2013  18 00  -21.0327 26033.7 -03506.5 -07.6710 26268.7
 04 12 2013  18 01  -21.0333 26033.8 -03506.4 -07.6709 26268.9
 04 12 2013  18 02  -21.0340 26033.9 -03506.4 -07.6707 26269.0
 04 12 2013  18 03  -21.0345 26033.9 -03506.2 -07.6704 26268.9
 04 12 2013  18 04  -21.0354 26033.8 -03506.1 -07.6702 26268.8
 04 12 2013  18 05  -21.0376 26033.9 -03505.9 -07.6696 26268.9
 04 12 2013  18 06  -21.0377 26033.7 -03505.7 -07.6693 26268.7
 04 12 2013  18 07  -21.0377 26033.5 -03505.7 -07.6693 26268.5
 04 12 2013  18 08  -21.0381 26033.2 -03505.5 -07.6691 26268.2
 04 12 2013  18 09  -21.0388 26033.1 -03505.5 -07.6690 26268.1
 04 12 2013  18 10  -21.0394 26032.8 -03505.4 -07.6688 26267.8
 04 12 2013  18 11  -21.0402 26032.6 -03505.3 -07.6687 26267.5
 04 12 2013  18 12  -21.0410 26032.3 -03505.2 -07.6686 26267.2
 04 12 2013  18 13  -21.0416 26032.3 -03505.2 -07.6687 26267.2
 04 12 2013  18 14  -21.0427 26032.0 -03505.2 -07.6687 26267.0
 04 12 2013  18 15  -21.0415 26031.9 -03505.2 -07.6687 26266.8
 04 12 2013  18 16  -21.0435 26031.5 -03505.2 -07.6688 26266.4
 04 12 2013  18 17  -21.0428 26031.2 -03505.0 -07.6685 26266.1
 04 12 2013  18 18  -21.0423 26030.9 -03505.0 -07.6685 26265.8
 04 12 2013  18 19  -21.0426 26031.0 -03505.1 -07.6688 26265.9
 04 12 2013  18 20  -21.0432 26031.1 -03505.2 -07.6690 26266.1
 04 12 2013  18 21  -21.0432 26031.2 -03505.2 -07.6690 26266.1
 04 12 2013  18 22  -21.0439 26031.5 -03505.4 -07.6693 26266.5
 04 12 2013  18 23  -21.0444 26031.6 -03505.4 -07.6693 26266.5
 04 12 2013  18 24  -21.0450 26031.6 -03505.4 -07.6693 26266.6
 04 12 2013  18 25  -21.0455 26031.8 -03505.5 -07.6694 26266.8
 04 12 2013  18 26  -21.0459 26031.9 -03505.5 -07.6694 26266.8
 04 12 2013  18 27  -21.0462 26032.0 -03505.6 -07.6695 26267.0
 04 12 2013  18 28  -21.0467 26032.1 -03505.6 -07.6696 26267.1
 04 12 2013  18 29  -21.0471 26031.9 -03505.6 -07.6695 26266.9
 04 12 2013  18 30  -21.0473 26032.1 -03505.6 -07.6696 26267.0
 04 12 2013  18 31  -21.0478 26032.1 -03505.7 -07.6698 26267.1
 04 12 2013  18 32  -21.0483 26032.1 -03505.7 -07.6698 26267.1
 04 12 2013  18 33  -21.0492 26032.1 -03505.8 -07.6699 26267.1
 04 12 2013  18 34  -21.0498 26031.8 -03505.6 -07.6696 26266.8
 04 12 2013  18 35  -21.0502 26031.7 -03505.5 -07.6695 26266.6
 04 12 2013  18 36  -21.0512 26031.5 -03505.5 -07.6694 26266.5
 04 12 2013  18 37  -21.0513 26031.6 -03505.4 -07.6693 26266.5
 04 12 2013  18 38  -21.0514 26031.7 -03505.5 -07.6694 26266.7
 04 12 2013  18 39  -21.0516 26031.8 -03505.6 -07.6697 26266.8
 04 12 2013  18 40  -21.0517 26031.7 -03505.6 -07.6698 26266.7
 04 12 2013  18 41  -21.0519 26031.7 -03505.6 -07.6697 26266.7
 04 12 2013  18 42  -21.0521 26032.0 -03505.7 -07.6698 26267.0
 04 12 2013  18 43  -21.0526 26032.1 -03505.7 -07.6698 26267.1
 04 12 2013  18 44  -21.0531 26032.2 -03505.7 -07.6698 26267.2
 04 12 2013  18 45  -21.0533 26032.3 -03505.7 -07.6698 26267.3
 04 12 2013  18 46  -21.0535 26032.3 -03505.7 -07.6697 26267.3
 04 12 2013  18 47  -21.0538 26032.3 -03505.7 -07.6697 26267.3
 04 12 2013  18 48  -21.0540 26032.3 -03505.7 -07.6696 26267.3
 04 12 2013  18 49  -21.0545 26032.1 -03505.5 -07.6694 26267.1
 04 12 2013  18 50  -21.0547 26032.0 -03505.5 -07.6693 26267.0
 04 12 2013  18 51  -21.0549 26032.1 -03505.5 -07.6693 26267.0
 04 12 2013  18 52  -21.0548 26032.2 -03505.5 -07.6693 26267.1
 04 12 2013  18 53  -21.0551 26032.1 -03505.4 -07.6691 26267.0
 04 12 2013  18 54  -21.0553 26032.2 -03505.4 -07.6691 26267.1
 04 12 2013  18 55  -21.0552 26032.2 -03505.4 -07.6690 26267.1
 04 12 2013  18 56  -21.0555 26032.3 -03505.4 -07.6690 26267.2
 04 12 2013  18 57  -21.0558 26032.4 -03505.4 -07.6691 26267.3
 04 12 2013  18 58  -21.0560 26032.3 -03505.3 -07.6689 26267.3
 04 12 2013  18 59  -21.0564 26032.3 -03505.3 -07.6689 26267.2
 04 12 2013  19 00  -21.0568 26032.2 -03505.3 -07.6688 26267.2
 04 12 2013  19 01  -21.0571 26032.2 -03505.2 -07.6686 26267.2
 04 12 2013  19 02  -21.0589 26032.0 -03504.9 -07.6681 26266.9
 04 12 2013  19 03  -21.0592 26031.9 -03504.8 -07.6680 26266.8
 04 12 2013  19 04  -21.0598 26031.6 -03504.7 -07.6678 26266.5
 04 12 2013  19 05  -21.0602 26031.9 -03504.8 -07.6678 26266.7
 04 12 2013  19 06  -21.0606 26032.2 -03504.9 -07.6681 26267.1
 04 12 2013  19 07  -21.0607 26032.3 -03504.9 -07.6681 26267.2
 04 12 2013  19 08  -21.0610 26032.3 -03504.9 -07.6679 26267.1
 04 12 2013  19 09  -21.0612 26032.1 -03504.7 -07.6676 26267.0
 04 12 2013  19 10  -21.0614 26032.1 -03504.6 -07.6675 26266.9
 04 12 2013  19 11  -21.0614 26032.2 -03504.6 -07.6674 26267.0
 04 12 2013  19 12  -21.0615 26032.3 -03504.6 -07.6673 26267.2
 04 12 2013  19 13  -21.0615 26032.4 -03504.6 -07.6673 26267.2
 04 12 2013  19 14  -21.0617 26032.4 -03504.6 -07.6672 26267.3
 04 12 2013  19 15  -21.0619 26032.4 -03504.5 -07.6670 26267.2
 04 12 2013  19 16  -21.0621 26032.6 -03504.5 -07.6670 26267.4
 04 12 2013  19 17  -21.0623 26032.6 -03504.4 -07.6668 26267.5
 04 12 2013  19 18  -21.0624 26032.5 -03504.2 -07.6664 26267.3
 04 12 2013  19 19  -21.0624 26032.6 -03504.1 -07.6662 26267.3
 04 12 2013  19 20  -21.0626 26032.6 -03504.0 -07.6660 26267.3
 04 12 2013  19 21  -21.0625 26032.6 -03504.0 -07.6659 26267.4
 04 12 2013  19 22  -21.0625 26032.5 -03503.9 -07.6657 26267.3
 04 12 2013  19 23  -21.0624 26032.8 -03503.9 -07.6657 26267.5
 04 12 2013  19 24  -21.0623 26033.1 -03504.0 -07.6657 26267.8
 04 12 2013  19 25  -21.0622 26033.3 -03504.0 -07.6657 26268.1
 04 12 2013  19 26  -21.0620 26033.4 -03503.9 -07.6654 26268.1
 04 12 2013  19 27  -21.0618 26033.6 -03503.8 -07.6653 26268.3
 04 12 2013  19 28  -21.0615 26033.6 -03503.8 -07.6651 26268.3
 04 12 2013  19 29  -21.0614 26033.4 -03503.6 -07.6649 26268.1
 04 12 2013  19 30  -21.0613 26033.1 -03503.3 -07.6643 26267.8
 04 12 2013  19 31  -21.0614 26033.0 -03503.2 -07.6640 26267.7
 04 12 2013  19 32  -21.0614 26033.0 -03503.0 -07.6637 26267.6
 04 12 2013  19 33  -21.0612 26032.9 -03502.9 -07.6635 26267.5
 04 12 2013  19 34  -21.0612 26033.0 -03502.9 -07.6634 26267.6
 04 12 2013  19 35  -21.0613 26032.9 -03502.8 -07.6632 26267.5
 04 12 2013  19 36  -21.0608 26033.0 -03502.7 -07.6631 26267.6
 04 12 2013  19 37  -21.0605 26032.9 -03502.6 -07.6628 26267.4
 04 12 2013  19 38  -21.0602 26032.8 -03502.5 -07.6626 26267.3
 04 12 2013  19 39  -21.0600 26032.7 -03502.4 -07.6624 26267.2
 04 12 2013  19 40  -21.0598 26032.7 -03502.3 -07.6623 26267.3
 04 12 2013  19 41  -21.0596 26032.8 -03502.3 -07.6622 26267.3
 04 12 2013  19 42  -21.0585 26032.8 -03502.3 -07.6623 26267.4
 04 12 2013  19 43  -21.0576 26032.9 -03502.4 -07.6624 26267.5
 04 12 2013  19 44  -21.0575 26032.8 -03502.4 -07.6624 26267.4
 04 12 2013  19 45  -21.0572 26032.7 -03502.3 -07.6622 26267.2
 04 12 2013  19 46  -21.0568 26032.6 -03502.2 -07.6621 26267.1
 04 12 2013  19 47  -21.0566 26032.3 -03502.1 -07.6620 26266.9
 04 12 2013  19 48  -21.0563 26032.1 -03502.0 -07.6618 26266.6
 04 12 2013  19 49  -21.0561 26031.9 -03501.9 -07.6617 26266.4
 04 12 2013  19 50  -21.0560 26031.7 -03501.9 -07.6616 26266.2
 04 12 2013  19 51  -21.0557 26031.6 -03501.8 -07.6615 26266.0
 04 12 2013  19 52  -21.0555 26031.4 -03501.8 -07.6614 26265.9
 04 12 2013  19 53  -21.0552 26031.2 -03501.7 -07.6613 26265.7
 04 12 2013  19 54  -21.0551 26031.1 -03501.7 -07.6613 26265.5
 04 12 2013  19 55  -21.0550 26030.9 -03501.6 -07.6613 26265.4
 04 12 2013  19 56  -21.0549 26030.8 -03501.6 -07.6614 26265.3
 04 12 2013  19 57  -21.0548 26030.6 -03501.6 -07.6613 26265.0
 04 12 2013  19 58  -21.0547 26030.3 -03501.5 -07.6612 26264.7
 04 12 2013  19 59  -21.0545 26029.9 -03501.4 -07.6611 26264.4
 04 12 2013  20 00  -21.0544 26029.7 -03501.3 -07.6610 26264.1
 04 12 2013  20 01  -21.0540 26029.7 -03501.3 -07.6610 26264.2
 04 12 2013  20 02  -21.0538 26029.4 -03501.4 -07.6612 26263.8
 04 12 2013  20 03  -21.0535 26029.0 -03501.3 -07.6612 26263.4
 04 12 2013  20 04  -21.0534 26028.8 -03501.3 -07.6613 26263.3
 04 12 2013  20 05  -21.0535 26028.6 -03501.4 -07.6614 26263.1
 04 12 2013  20 06  -21.0558 26028.4 -03501.4 -07.6616 26262.8
 04 12 2013  20 07  -21.0536 26028.1 -03501.4 -07.6616 26262.6
 04 12 2013  20 08  -21.0537 26027.9 -03501.4 -07.6617 26262.3
 04 12 2013  20 09  -21.0536 26027.7 -03501.5 -07.6619 26262.2
 04 12 2013  20 10  -21.0535 26027.6 -03501.5 -07.6620 26262.0
 04 12 2013  20 11  -21.0533 26027.5 -03501.6 -07.6623 26262.0
 04 12 2013  20 12  -21.0531 26027.3 -03501.7 -07.6625 26261.8
 04 12 2013  20 13  -21.0531 26027.2 -03501.7 -07.6626 26261.7
 04 12 2013  20 14  -21.0560 26026.7 -03501.7 -07.6628 26261.2
 04 12 2013  20 15  -21.0526 26026.5 -03501.6 -07.6627 26261.0
 04 12 2013  20 16  -21.0523 26026.5 -03501.9 -07.6631 26261.1
 04 12 2013  20 17  -21.0523 26026.3 -03501.9 -07.6633 26260.8
 04 12 2013  20 18  -21.0521 26026.1 -03502.0 -07.6635 26260.6
 04 12 2013  20 19  -21.0521 26025.8 -03502.0 -07.6637 26260.4
 04 12 2013  20 20  -21.0522 26025.7 -03502.1 -07.6639 26260.3
 04 12 2013  20 21  -21.0521 26025.7 -03502.2 -07.6641 26260.3
 04 12 2013  20 22  -21.0521 26025.6 -03502.4 -07.6645 26260.2
 04 12 2013  20 23  -21.0519 26025.5 -03502.4 -07.6646 26260.1
 04 12 2013  20 24  -21.0518 26025.3 -03502.5 -07.6649 26259.9
 04 12 2013  20 25  -21.0518 26025.1 -03502.6 -07.6652 26259.7
 04 12 2013  20 26  -21.0516 26024.8 -03502.7 -07.6654 26259.4
 04 12 2013  20 27  -21.0515 26024.3 -03502.7 -07.6655 26259.0
 04 12 2013  20 28  -21.0513 26024.0 -03502.7 -07.6657 26258.7
 04 12 2013  20 29  -21.0511 26023.8 -03502.9 -07.6660 26258.5
 04 12 2013  20 30  -21.0510 26023.5 -03503.0 -07.6664 26258.2
 04 12 2013  20 31  -21.0510 26023.3 -03503.1 -07.6667 26258.0
 04 12 2013  20 32  -21.0510 26023.1 -03503.3 -07.6671 26257.9
 04 12 2013  20 33  -21.0510 26022.9 -03503.4 -07.6675 26257.7
 04 12 2013  20 34  -21.0508 26022.7 -03503.5 -07.6678 26257.4
 04 12 2013  20 35  -21.0506 26022.4 -03503.7 -07.6682 26257.2
 04 12 2013  20 36  -21.0504 26022.1 -03503.7 -07.6684 26256.9
 04 12 2013  20 37  -21.0501 26022.0 -03503.9 -07.6687 26256.9
 04 12 2013  20 38  -21.0498 26021.9 -03504.1 -07.6692 26256.8
 04 12 2013  20 39  -21.0495 26021.6 -03504.2 -07.6695 26256.5
 04 12 2013  20 40  -21.0491 26021.4 -03504.3 -07.6699 26256.3
 04 12 2013  20 41  -21.0487 26021.2 -03504.4 -07.6702 26256.1
 04 12 2013  20 42  -21.0484 26021.0 -03504.6 -07.6705 26256.0
 04 12 2013  20 43  -21.0481 26020.6 -03504.6 -07.6708 26255.6
 04 12 2013  20 44  -21.0480 26020.0 -03504.5 -07.6708 26255.0
 04 12 2013  20 45  -21.0480 26019.7 -03504.5 -07.6708 26254.6
 04 12 2013  20 46  -21.0476 26019.6 -03504.7 -07.6712 26254.5
 04 12 2013  20 47  -21.0475 26019.3 -03504.8 -07.6716 26254.3
 04 12 2013  20 48  -21.0473 26019.0 -03504.9 -07.6719 26254.0
 04 12 2013  20 49  -21.0472 26018.8 -03505.1 -07.6723 26253.8
 04 12 2013  20 50  -21.0470 26018.7 -03505.2 -07.6726 26253.7
 04 12 2013  20 51  -21.0469 26018.7 -03505.5 -07.6732 26253.8
 04 12 2013  20 52  -21.0469 26018.6 -03505.7 -07.6737 26253.7
 04 12 2013  20 53  -21.0467 26018.4 -03505.8 -07.6741 26253.6
 04 12 2013  20 54  -21.0467 26018.4 -03506.0 -07.6745 26253.6
 04 12 2013  20 55  -21.0467 26018.5 -03506.3 -07.6750 26253.6
 04 12 2013  20 56  -21.0466 26018.3 -03506.5 -07.6755 26253.6
 04 12 2013  20 57  -21.0462 26018.2 -03506.7 -07.6759 26253.5
 04 12 2013  20 58  -21.0459 26018.1 -03506.8 -07.6762 26253.3
 04 12 2013  20 59  -21.0456 26017.9 -03506.9 -07.6765 26253.1
 04 12 2013  21 00  -21.0454 26017.6 -03507.1 -07.6769 26252.9
 04 12 2013  21 01  -21.0451 26017.6 -03507.3 -07.6774 26252.9
 04 12 2013  21 02  -21.0449 26017.5 -03507.5 -07.6778 26252.8
 04 12 2013  21 03  -21.0447 26017.1 -03507.5 -07.6780 26252.4
 04 12 2013  21 04  -21.0444 26016.7 -03507.6 -07.6783 26252.1
 04 12 2013  21 05  -21.0441 26016.8 -03507.8 -07.6788 26252.2
 04 12 2013  21 06  -21.0437 26017.0 -03508.2 -07.6795 26252.5
 04 12 2013  21 07  -21.0434 26017.1 -03508.5 -07.6801 26252.6
 04 12 2013  21 08  -21.0431 26017.1 -03508.7 -07.6806 26252.6
 04 12 2013  21 09  -21.0430 26017.1 -03508.8 -07.6810 26252.6
 04 12 2013  21 10  -21.0430 26017.1 -03509.1 -07.6814 26252.7
 04 12 2013  21 11  -21.0426 26017.2 -03509.2 -07.6816 26252.7
 04 12 2013  21 12  -21.0423 26017.0 -03509.3 -07.6819 26252.7
 04 12 2013  21 13  -21.0420 26016.9 -03509.4 -07.6822 26252.5
 04 12 2013  21 14  -21.0416 26017.0 -03509.5 -07.6824 26252.6
 04 12 2013  21 15  -21.0409 26017.0 -03509.6 -07.6826 26252.6
 04 12 2013  21 16  -21.0404 26017.0 -03509.8 -07.6830 26252.7
 04 12 2013  21 17  -21.0398 26017.0 -03509.9 -07.6833 26252.7
 04 12 2013  21 18  -21.0393 26016.9 -03510.0 -07.6835 26252.6
 04 12 2013  21 19  -21.0388 26016.9 -03510.2 -07.6838 26252.6
 04 12 2013  21 20  -21.0382 26016.8 -03510.2 -07.6840 26252.6
 04 12 2013  21 21  -21.0376 26016.8 -03510.4 -07.6843 26252.5
 04 12 2013  21 22  -21.0372 26016.5 -03510.4 -07.6844 26252.3
 04 12 2013  21 23  -21.0367 26016.3 -03510.4 -07.6846 26252.1
 04 12 2013  21 24  -21.0362 26016.3 -03510.5 -07.6847 26252.0
 04 12 2013  21 25  -21.0358 26016.1 -03510.6 -07.6850 26251.9
 04 12 2013  21 26  -21.0354 26016.0 -03510.7 -07.6853 26251.8
 04 12 2013  21 27  -21.0350 26016.0 -03510.8 -07.6855 26251.8
 04 12 2013  21 28  -21.0349 26015.9 -03511.0 -07.6859 26251.8
 04 12 2013  21 29  -21.0346 26015.8 -03511.0 -07.6861 26251.7
 04 12 2013  21 30  -21.0344 26015.6 -03511.1 -07.6862 26251.5
 04 12 2013  21 31  -21.0341 26015.3 -03511.0 -07.6862 26251.2
 04 12 2013  21 32  -21.0337 26015.2 -03511.1 -07.6864 26251.1
 04 12 2013  21 33  -21.0334 26015.1 -03511.1 -07.6865 26251.0
 04 12 2013  21 34  -21.0331 26015.0 -03511.2 -07.6867 26250.9
 04 12 2013  21 35  -21.0328 26014.8 -03511.2 -07.6868 26250.7
 04 12 2013  21 36  -21.0326 26014.5 -03511.2 -07.6868 26250.4
 04 12 2013  21 37  -21.0325 26014.2 -03511.2 -07.6869 26250.1
 04 12 2013  21 38  -21.0324 26014.0 -03511.2 -07.6869 26249.9
 04 12 2013  21 39  -21.0323 26013.8 -03511.3 -07.6871 26249.7
 04 12 2013  21 40  -21.0321 26013.6 -03511.3 -07.6872 26249.5
 04 12 2013  21 41  -21.0320 26013.3 -03511.3 -07.6872 26249.2
 04 12 2013  21 42  -21.0319 26013.2 -03511.3 -07.6875 26249.1
 04 12 2013  21 43  -21.0318 26013.2 -03511.4 -07.6877 26249.2
 04 12 2013  21 44  -21.0318 26013.2 -03511.6 -07.6880 26249.2
 04 12 2013  21 45  -21.0316 26013.3 -03511.7 -07.6882 26249.2
 04 12 2013  21 46  -21.0315 26013.3 -03511.8 -07.6884 26249.3
 04 12 2013  21 47  -21.0314 26013.5 -03512.0 -07.6888 26249.4
 04 12 2013  21 48  -21.0315 26013.6 -03512.1 -07.6890 26249.6
 04 12 2013  21 49  -21.0314 26013.7 -03512.3 -07.6893 26249.8
 04 12 2013  21 50  -21.0313 26013.8 -03512.4 -07.6895 26249.8
 04 12 2013  21 51  -21.0311 26013.9 -03512.5 -07.6897 26249.9
 04 12 2013  21 52  -21.0308 26014.0 -03512.6 -07.6900 26250.1
 04 12 2013  21 53  -21.0306 26014.0 -03512.6 -07.6901 26250.1
 04 12 2013  21 54  -21.0303 26014.1 -03512.7 -07.6902 26250.2
 04 12 2013  21 55  -21.0300 26014.2 -03512.8 -07.6903 26250.3
 04 12 2013  21 56  -21.0297 26014.4 -03513.0 -07.6906 26250.5
 04 12 2013  21 57  -21.0294 26014.5 -03513.1 -07.6908 26250.6
 04 12 2013  21 58  -21.0292 26014.6 -03513.2 -07.6910 26250.7
 04 12 2013  21 59  -21.0288 26014.7 -03513.2 -07.6911 26250.8
 04 12 2013  22 00  -21.0286 26014.8 -03513.3 -07.6912 26250.9
 04 12 2013  22 01  -21.0284 26014.9 -03513.4 -07.6914 26251.0
 04 12 2013  22 02  -21.0282 26015.0 -03513.5 -07.6916 26251.1
 04 12 2013  22 03  -21.0279 26015.0 -03513.5 -07.6917 26251.2
 04 12 2013  22 04  -21.0278 26015.0 -03513.6 -07.6918 26251.2
 04 12 2013  22 05  -21.0277 26015.0 -03513.6 -07.6919 26251.2
 04 12 2013  22 06  -21.0275 26015.1 -03513.7 -07.6920 26251.4
 04 12 2013  22 07  -21.0271 26015.3 -03513.8 -07.6922 26251.5
 04 12 2013  22 08  -21.0267 26015.4 -03513.9 -07.6923 26251.7
 04 12 2013  22 09  -21.0263 26015.5 -03514.0 -07.6925 26251.8
 04 12 2013  22 10  -21.0260 26015.6 -03514.0 -07.6925 26251.8
 04 12 2013  22 11  -21.0257 26015.6 -03514.0 -07.6926 26251.9
 04 12 2013  22 12  -21.0252 26015.7 -03514.1 -07.6927 26252.0
 04 12 2013  22 13  -21.0249 26015.7 -03514.2 -07.6929 26252.0
 04 12 2013  22 14  -21.0247 26015.7 -03514.2 -07.6929 26252.0
 04 12 2013  22 15  -21.0245 26015.7 -03514.2 -07.6929 26252.0
 04 12 2013  22 16  -21.0243 26015.6 -03514.2 -07.6930 26251.9
 04 12 2013  22 17  -21.0240 26015.6 -03514.2 -07.6931 26251.9
 04 12 2013  22 18  -21.0237 26015.6 -03514.3 -07.6931 26251.9
 04 12 2013  22 19  -21.0235 26015.6 -03514.3 -07.6931 26251.9
 04 12 2013  22 20  -21.0233 26015.7 -03514.3 -07.6932 26252.0
 04 12 2013  22 21  -21.0233 26015.7 -03514.4 -07.6933 26252.0
 04 12 2013  22 22  -21.0233 26015.7 -03514.4 -07.6934 26252.0
 04 12 2013  22 23  -21.0232 26015.7 -03514.5 -07.6935 26252.0
 04 12 2013  22 24  -21.0232 26015.8 -03514.5 -07.6936 26252.1
 04 12 2013  22 25  -21.0233 26015.8 -03514.5 -07.6936 26252.1
 04 12 2013  22 26  -21.0233 26015.9 -03514.6 -07.6937 26252.2
 04 12 2013  22 27  -21.0235 26016.0 -03514.7 -07.6939 26252.3
 04 12 2013  22 28  -21.0236 26016.1 -03514.7 -07.6939 26252.4
 04 12 2013  22 29  -21.0236 26016.2 -03514.8 -07.6941 26252.6
 04 12 2013  22 30  -21.0235 26016.3 -03514.9 -07.6942 26252.7
 04 12 2013  22 31  -21.0233 26016.4 -03514.9 -07.6942 26252.8
 04 12 2013  22 32  -21.0230 26016.5 -03514.9 -07.6942 26252.9
 04 12 2013  22 33  -21.0228 26016.6 -03514.9 -07.6942 26253.0
 04 12 2013  22 34  -21.0227 26016.6 -03514.9 -07.6943 26253.0
 04 12 2013  22 35  -21.0224 26016.7 -03514.9 -07.6942 26253.0
 04 12 2013  22 36  -21.0222 26016.7 -03515.0 -07.6943 26253.1
 04 12 2013  22 37  -21.0219 26016.7 -03514.9 -07.6942 26253.1
 04 12 2013  22 38  -21.0216 26016.8 -03515.0 -07.6943 26253.2
 04 12 2013  22 39  -21.0212 26016.9 -03515.0 -07.6943 26253.2
 04 12 2013  22 40  -21.0210 26016.9 -03515.0 -07.6943 26253.3
 04 12 2013  22 41  -21.0207 26016.9 -03515.0 -07.6944 26253.3
 04 12 2013  22 42  -21.0203 26016.9 -03515.0 -07.6944 26253.3
 04 12 2013  22 43  -21.0202 26016.8 -03515.0 -07.6943 26253.1
 04 12 2013  22 44  -21.0202 26016.7 -03514.9 -07.6942 26253.0
 04 12 2013  22 45  -21.0200 26016.6 -03514.9 -07.6942 26253.0
 04 12 2013  22 46  -21.0199 26016.5 -03514.9 -07.6942 26252.9
 04 12 2013  22 47  -21.0198 26016.5 -03514.9 -07.6942 26252.9
 04 12 2013  22 48  -21.0197 26016.6 -03514.9 -07.6943 26252.9
 04 12 2013  22 49  -21.0198 26016.6 -03515.0 -07.6944 26253.0
 04 12 2013  22 50  -21.0198 26016.7 -03515.0 -07.6945 26253.0
 04 12 2013  22 51  -21.0198 26016.7 -03515.1 -07.6945 26253.1
 04 12 2013  22 52  -21.0197 26016.8 -03515.1 -07.6946 26253.2
 04 12 2013  22 53  -21.0197 26016.9 -03515.2 -07.6947 26253.3
 04 12 2013  22 54  -21.0196 26017.0 -03515.2 -07.6947 26253.4
 04 12 2013  22 55  -21.0196 26017.1 -03515.3 -07.6948 26253.5
 04 12 2013  22 56  -21.0195 26017.2 -03515.3 -07.6949 26253.6
 04 12 2013  22 57  -21.0194 26017.2 -03515.3 -07.6948 26253.6
 04 12 2013  22 58  -21.0194 26017.3 -03515.3 -07.6949 26253.7
 04 12 2013  22 59  -21.0192 26017.4 -03515.3 -07.6949 26253.8
 04 12 2013  23 00  -21.0189 26017.5 -03515.4 -07.6949 26253.9
 04 12 2013  23 01  -21.0188 26017.5 -03515.4 -07.6950 26253.9
 04 12 2013  23 02  -21.0188 26017.5 -03515.4 -07.6950 26253.9
 04 12 2013  23 03  -21.0188 26017.5 -03515.4 -07.6951 26253.9
 04 12 2013  23 04  -21.0188 26017.6 -03515.5 -07.6951 26254.0
 04 12 2013  23 05  -21.0188 26017.7 -03515.6 -07.6953 26254.1
 04 12 2013  23 06  -21.0187 26017.8 -03515.6 -07.6953 26254.2
 04 12 2013  23 07  -21.0188 26017.8 -03515.6 -07.6954 26254.2
 04 12 2013  23 08  -21.0188 26017.9 -03515.6 -07.6954 26254.3
 04 12 2013  23 09  -21.0189 26017.9 -03515.7 -07.6955 26254.4
 04 12 2013  23 10  -21.0189 26017.9 -03515.7 -07.6954 26254.3
 04 12 2013  23 11  -21.0189 26017.8 -03515.6 -07.6953 26254.2
 04 12 2013  23 12  -21.0189 26017.8 -03515.6 -07.6953 26254.2
 04 12 2013  23 13  -21.0187 26017.7 -03515.5 -07.6952 26254.1
 04 12 2013  23 14  -21.0188 26017.6 -03515.5 -07.6952 26254.1
 04 12 2013  23 15  -21.0188 26017.6 -03515.5 -07.6951 26254.0
 04 12 2013  23 16  -21.0189 26017.5 -03515.5 -07.6951 26253.9
 04 12 2013  23 17  -21.0190 26017.5 -03515.4 -07.6951 26253.9
 04 12 2013  23 18  -21.0191 26017.5 -03515.4 -07.6951 26253.9
 04 12 2013  23 19  -21.0191 26017.5 -03515.4 -07.6950 26253.9
 04 12 2013  23 20  -21.0190 26017.4 -03515.4 -07.6950 26253.9
 04 12 2013  23 21  -21.0190 26017.4 -03515.3 -07.6949 26253.8
 04 12 2013  23 22  -21.0189 26017.4 -03515.3 -07.6949 26253.8
 04 12 2013  23 23  -21.0189 26017.4 -03515.3 -07.6949 26253.8
 04 12 2013  23 24  -21.0189 26017.3 -03515.3 -07.6948 26253.7
 04 12 2013  23 25  -21.0188 26017.3 -03515.3 -07.6948 26253.7
 04 12 2013  23 26  -21.0188 26017.3 -03515.3 -07.6948 26253.7
 04 12 2013  23 27  -21.0188 26017.2 -03515.3 -07.6948 26253.7
 04 12 2013  23 28  -21.0188 26017.3 -03515.3 -07.6948 26253.7
 04 12 2013  23 29  -21.0187 26017.4 -03515.3 -07.6948 26253.8
 04 12 2013  23 30  -21.0186 26017.4 -03515.3 -07.6949 26253.8
 04 12 2013  23 31  -21.0185 26017.4 -03515.4 -07.6949 26253.9
 04 12 2013  23 32  -21.0186 26017.5 -03515.4 -07.6949 26253.9
 04 12 2013  23 33  -21.0186 26017.5 -03515.4 -07.6949 26253.9
 04 12 2013  23 34  -21.0186 26017.5 -03515.4 -07.6949 26253.9
 04 12 2013  23 35  -21.0186 26017.5 -03515.4 -07.6949 26253.9
 04 12 2013  23 36  -21.0186 26017.5 -03515.4 -07.6950 26254.0
 04 12 2013  23 37  -21.0186 26017.5 -03515.4 -07.6950 26254.0
 04 12 2013  23 38  -21.0187 26017.6 -03515.5 -07.6951 26254.0
 04 12 2013  23 39  -21.0186 26017.6 -03515.5 -07.6951 26254.0
 04 12 2013  23 40  -21.0186 26017.6 -03515.4 -07.6950 26254.1
 04 12 2013  23 41  -21.0184 26017.6 -03515.4 -07.6950 26254.0
 04 12 2013  23 42  -21.0183 26017.6 -03515.4 -07.6950 26254.0
 04 12 2013  23 43  -21.0183 26017.5 -03515.4 -07.6949 26254.0
 04 12 2013  23 44  -21.0181 26017.5 -03515.3 -07.6948 26253.9
 04 12 2013  23 45  -21.0180 26017.4 -03515.3 -07.6948 26253.8
 04 12 2013  23 46  -21.0180 26017.4 -03515.3 -07.6948 26253.8
 04 12 2013  23 47  -21.0180 26017.4 -03515.3 -07.6947 26253.8
 04 12 2013  23 48  -21.0180 26017.5 -03515.3 -07.6948 26253.9
 04 12 2013  23 49  -21.0179 26017.5 -03515.3 -07.6948 26253.9
 04 12 2013  23 50  -21.0178 26017.5 -03515.4 -07.6949 26253.9
 04 12 2013  23 51  -21.0177 26017.6 -03515.4 -07.6950 26254.0
 04 12 2013  23 52  -21.0177 26017.8 -03515.5 -07.6951 26254.2
 04 12 2013  23 53  -21.0177 26017.9 -03515.6 -07.6953 26254.3
 04 12 2013  23 54  -21.0179 26017.9 -03515.6 -07.6953 26254.4
 04 12 2013  23 55  -21.0180 26018.0 -03515.6 -07.6953 26254.4
 04 12 2013  23 56  -21.0179 26017.9 -03515.6 -07.6952 26254.4
 04 12 2013  23 57  -21.0178 26017.9 -03515.5 -07.6951 26254.3
 04 12 2013  23 58  -21.0177 26017.9 -03515.5 -07.6951 26254.3
