SAO LUIS EMBRACE-03 <005> 1 Min. Reported data

 DD MM YYYY  HH MM   D(Deg)  H(nT)   Z(nT)   I(Deg)   F(nT)

 05 01 2013  00 00  -21.0068 26058.0 -03386.7 -07.4050 26277.1
 05 01 2013  00 01  -21.0065 26058.2 -03386.7 -07.4050 26277.4
 05 01 2013  00 02  -21.0065 26058.6 -03386.9 -07.4054 26277.8
 05 01 2013  00 03  -21.0063 26058.8 -03387.0 -07.4056 26278.0
 05 01 2013  00 04  -21.0062 26058.9 -03387.1 -07.4056 26278.1
 05 01 2013  00 05  -21.0064 26059.2 -03387.2 -07.4058 26278.4
 05 01 2013  00 06  -21.0065 26059.1 -03387.2 -07.4058 26278.3
 05 01 2013  00 07  -21.0066 26058.9 -03387.1 -07.4056 26278.1
 05 01 2013  00 08  -21.0068 26058.9 -03387.0 -07.4056 26278.1
 05 01 2013  00 09  -21.0070 26058.7 -03386.9 -07.4054 26277.9
 05 01 2013  00 10  -21.0070 26058.5 -03386.8 -07.4052 26277.7
 05 01 2013  00 11  -21.0070 26058.4 -03386.8 -07.4051 26277.6
 05 01 2013  00 12  -21.0068 26058.5 -03386.8 -07.4051 26277.7
 05 01 2013  00 13  -21.0067 26058.6 -03386.8 -07.4052 26277.7
 05 01 2013  00 14  -21.0066 26058.5 -03386.8 -07.4052 26277.7
 05 01 2013  00 15  -21.0065 26058.5 -03386.8 -07.4052 26277.6
 05 01 2013  00 16  -21.0065 26058.4 -03386.8 -07.4052 26277.6
 05 01 2013  00 17  -21.0066 26058.3 -03386.8 -07.4051 26277.4
 05 01 2013  00 18  -21.0066 26058.2 -03386.7 -07.4051 26277.4
 05 01 2013  00 19  -21.0068 26058.1 -03386.7 -07.4051 26277.3
 05 01 2013  00 20  -21.0067 26058.0 -03386.7 -07.4050 26277.2
 05 01 2013  00 21  -21.0067 26057.9 -03386.6 -07.4050 26277.1
 05 01 2013  00 22  -21.0067 26057.9 -03386.7 -07.4050 26277.0
 05 01 2013  00 23  -21.0066 26057.9 -03386.7 -07.4050 26277.1
 05 01 2013  00 24  -21.0067 26057.9 -03386.7 -07.4051 26277.0
 05 01 2013  00 25  -21.0068 26057.8 -03386.7 -07.4051 26277.0
 05 01 2013  00 26  -21.0068 26057.7 -03386.7 -07.4051 26276.9
 05 01 2013  00 27  -21.0068 26057.6 -03386.6 -07.4050 26276.8
 05 01 2013  00 28  -21.0067 26057.5 -03386.6 -07.4050 26276.6
 05 01 2013  00 29  -21.0067 26057.4 -03386.6 -07.4050 26276.5
 05 01 2013  00 30  -21.0068 26057.3 -03386.5 -07.4049 26276.5
 05 01 2013  00 31  -21.0070 26057.3 -03386.6 -07.4051 26276.5
 05 01 2013  00 32  -21.0070 26057.4 -03386.6 -07.4051 26276.5
 05 01 2013  00 33  -21.0071 26057.4 -03386.7 -07.4053 26276.6
 05 01 2013  00 34  -21.0074 26057.5 -03386.8 -07.4055 26276.7
 05 01 2013  00 35  -21.0076 26057.6 -03386.9 -07.4055 26276.7
 05 01 2013  00 36  -21.0077 26057.7 -03386.9 -07.4056 26276.9
 05 01 2013  00 37  -21.0076 26057.8 -03387.0 -07.4058 26277.0
 05 01 2013  00 38  -21.0078 26057.7 -03387.0 -07.4057 26276.9
 05 01 2013  00 39  -21.0080 26057.8 -03387.0 -07.4058 26277.0
 05 01 2013  00 40  -21.0083 26057.9 -03387.1 -07.4059 26277.1
 05 01 2013  00 41  -21.0079 26057.8 -03387.0 -07.4058 26277.0
 05 01 2013  00 42  -21.0079 26058.0 -03387.1 -07.4060 26277.2
 05 01 2013  00 43  -21.0077 26058.1 -03387.2 -07.4061 26277.3
 05 01 2013  00 44  -21.0075 26058.1 -03387.2 -07.4061 26277.3
 05 01 2013  00 45  -21.0074 26058.2 -03387.2 -07.4062 26277.4
 05 01 2013  00 46  -21.0075 26058.3 -03387.4 -07.4064 26277.6
 05 01 2013  00 47  -21.0073 26058.3 -03387.4 -07.4065 26277.6
 05 01 2013  00 48  -21.0073 26058.4 -03387.4 -07.4065 26277.7
 05 01 2013  00 49  -21.0076 26058.6 -03387.6 -07.4068 26277.9
 05 01 2013  00 50  -21.0076 26058.6 -03387.6 -07.4068 26277.9
 05 01 2013  00 51  -21.0075 26058.7 -03387.6 -07.4068 26277.9
 05 01 2013  00 52  -21.0076 26058.8 -03387.7 -07.4069 26278.1
 05 01 2013  00 53  -21.0076 26058.8 -03387.7 -07.4070 26278.1
 05 01 2013  00 54  -21.0076 26059.0 -03387.8 -07.4071 26278.3
 05 01 2013  00 55  -21.0078 26059.3 -03387.9 -07.4074 26278.6
 05 01 2013  00 56  -21.0078 26059.4 -03388.0 -07.4075 26278.7
 05 01 2013  00 57  -21.0075 26059.5 -03388.0 -07.4075 26278.8
 05 01 2013  00 58  -21.0073 26059.7 -03388.1 -07.4076 26279.0
 05 01 2013  00 59  -21.0072 26059.7 -03388.1 -07.4076 26279.1
 05 01 2013  01 00  -21.0074 26059.7 -03388.1 -07.4076 26279.1
 05 01 2013  01 01  -21.0071 26059.7 -03388.1 -07.4075 26279.1
 05 01 2013  01 02  -21.0069 26059.7 -03388.0 -07.4075 26279.0
 05 01 2013  01 03  -21.0070 26059.7 -03388.0 -07.4074 26279.0
 05 01 2013  01 04  -21.0075 26059.7 -03388.0 -07.4075 26279.1
 05 01 2013  01 05  -21.0081 26059.8 -03388.1 -07.4076 26279.1
 05 01 2013  01 06  -21.0085 26059.7 -03388.0 -07.4074 26279.0
 05 01 2013  01 07  -21.0085 26059.5 -03387.9 -07.4072 26278.8
 05 01 2013  01 08  -21.0085 26059.5 -03387.9 -07.4072 26278.8
 05 01 2013  01 09  -21.0087 26059.4 -03387.8 -07.4071 26278.7
 05 01 2013  01 10  -21.0090 26059.3 -03387.7 -07.4069 26278.5
 05 01 2013  01 11  -21.0092 26059.2 -03387.6 -07.4068 26278.5
 05 01 2013  01 12  -21.0092 26059.1 -03387.5 -07.4066 26278.3
 05 01 2013  01 13  -21.0093 26059.0 -03387.5 -07.4065 26278.2
 05 01 2013  01 14  -21.0091 26058.9 -03387.4 -07.4064 26278.1
 05 01 2013  01 15  -21.0086 26058.7 -03387.3 -07.4062 26278.0
 05 01 2013  01 16  -21.0090 26058.8 -03387.4 -07.4063 26278.0
 05 01 2013  01 17  -21.0099 26058.9 -03387.5 -07.4066 26278.2
 05 01 2013  01 18  -21.0103 26059.1 -03387.6 -07.4067 26278.3
 05 01 2013  01 19  -21.0103 26059.2 -03387.6 -07.4068 26278.5
 05 01 2013  01 20  -21.0103 26059.3 -03387.7 -07.4068 26278.5
 05 01 2013  01 21  -21.0101 26059.3 -03387.6 -07.4067 26278.5
 05 01 2013  01 22  -21.0100 26059.2 -03387.6 -07.4066 26278.5
 05 01 2013  01 23  -21.0101 26059.0 -03387.5 -07.4064 26278.3
 05 01 2013  01 24  -21.0103 26059.0 -03387.4 -07.4064 26278.2
 05 01 2013  01 25  -21.0106 26058.9 -03387.4 -07.4064 26278.2
 05 01 2013  01 26  -21.0109 26058.8 -03387.4 -07.4063 26278.1
 05 01 2013  01 27  -21.0110 26058.8 -03387.3 -07.4062 26278.0
 05 01 2013  01 28  -21.0109 26058.8 -03387.3 -07.4062 26278.1
 05 01 2013  01 29  -21.0110 26058.8 -03387.3 -07.4062 26278.1
 05 01 2013  01 30  -21.0109 26058.7 -03387.3 -07.4061 26277.9
 05 01 2013  01 31  -21.0106 26058.7 -03387.2 -07.4060 26277.9
 05 01 2013  01 32  -21.0106 26058.9 -03387.3 -07.4062 26278.1
 05 01 2013  01 33  -21.0112 26059.2 -03387.5 -07.4065 26278.5
 05 01 2013  01 34  -21.0113 26059.2 -03387.5 -07.4066 26278.4
 05 01 2013  01 35  -21.0110 26059.1 -03387.4 -07.4064 26278.4
 05 01 2013  01 36  -21.0110 26059.4 -03387.5 -07.4065 26278.6
 05 01 2013  01 37  -21.0113 26059.4 -03387.6 -07.4065 26278.6
 05 01 2013  01 38  -21.0113 26059.0 -03387.4 -07.4062 26278.3
 05 01 2013  01 39  -21.0111 26059.0 -03387.3 -07.4060 26278.2
 05 01 2013  01 40  -21.0113 26059.1 -03387.3 -07.4061 26278.3
 05 01 2013  01 41  -21.0113 26058.9 -03387.3 -07.4060 26278.1
 05 01 2013  01 42  -21.0109 26058.7 -03387.1 -07.4057 26277.9
 05 01 2013  01 43  -21.0107 26058.7 -03387.1 -07.4057 26277.9
 05 01 2013  01 44  -21.0106 26058.4 -03387.0 -07.4055 26277.6
 05 01 2013  01 45  -21.0104 26058.0 -03386.7 -07.4052 26277.2
 05 01 2013  01 46  -21.0104 26058.0 -03386.7 -07.4051 26277.2
 05 01 2013  01 47  -21.0108 26058.1 -03386.8 -07.4053 26277.3
 05 01 2013  01 48  -21.0110 26058.1 -03386.8 -07.4054 26277.3
 05 01 2013  01 49  -21.0107 26057.9 -03386.7 -07.4051 26277.0
 05 01 2013  01 50  -21.0106 26057.9 -03386.7 -07.4051 26277.1
 05 01 2013  01 51  -21.0107 26058.0 -03386.8 -07.4053 26277.2
 05 01 2013  01 52  -21.0107 26057.7 -03386.7 -07.4051 26276.9
 05 01 2013  01 53  -21.0107 26057.8 -03386.6 -07.4050 26276.9
 05 01 2013  01 54  -21.0109 26057.9 -03386.7 -07.4052 26277.1
 05 01 2013  01 55  -21.0109 26057.8 -03386.7 -07.4051 26277.0
 05 01 2013  01 56  -21.0110 26057.8 -03386.7 -07.4051 26277.0
 05 01 2013  01 57  -21.0109 26058.0 -03386.7 -07.4052 26277.1
 05 01 2013  01 58  -21.0109 26058.1 -03386.8 -07.4053 26277.3
 05 01 2013  01 59  -21.0110 26058.2 -03386.9 -07.4054 26277.4
 05 01 2013  02 00  -21.0111 26058.4 -03386.9 -07.4054 26277.5
 05 01 2013  02 01  -21.0112 26058.3 -03386.9 -07.4054 26277.5
 05 01 2013  02 02  -21.0114 26058.1 -03386.8 -07.4053 26277.3
 05 01 2013  02 03  -21.0114 26058.0 -03386.7 -07.4051 26277.2
 05 01 2013  02 04  -21.0115 26058.0 -03386.7 -07.4051 26277.1
 05 01 2013  02 05  -21.0116 26057.9 -03386.7 -07.4051 26277.1
 05 01 2013  02 06  -21.0118 26057.9 -03386.7 -07.4051 26277.0
 05 01 2013  02 07  -21.0118 26057.7 -03386.6 -07.4049 26276.8
 05 01 2013  02 08  -21.0120 26057.6 -03386.6 -07.4049 26276.8
 05 01 2013  02 09  -21.0124 26057.7 -03386.6 -07.4050 26276.8
 05 01 2013  02 10  -21.0121 26057.5 -03386.5 -07.4049 26276.7
 05 01 2013  02 11  -21.0120 26057.6 -03386.6 -07.4049 26276.8
 05 01 2013  02 12  -21.0121 26057.8 -03386.7 -07.4051 26277.0
 05 01 2013  02 13  -21.0120 26057.9 -03386.7 -07.4052 26277.0
 05 01 2013  02 14  -21.0120 26057.9 -03386.7 -07.4052 26277.0
 05 01 2013  02 15  -21.0123 26058.1 -03386.9 -07.4054 26277.3
 05 01 2013  02 16  -21.0124 26058.1 -03386.9 -07.4055 26277.3
 05 01 2013  02 17  -21.0125 26058.0 -03386.8 -07.4053 26277.1
 05 01 2013  02 18  -21.0125 26058.0 -03386.8 -07.4053 26277.2
 05 01 2013  02 19  -21.0127 26058.1 -03386.9 -07.4054 26277.3
 05 01 2013  02 20  -21.0129 26058.1 -03386.8 -07.4054 26277.2
 05 01 2013  02 21  -21.0129 26058.1 -03386.8 -07.4054 26277.3
 05 01 2013  02 22  -21.0129 26058.2 -03386.9 -07.4055 26277.4
 05 01 2013  02 23  -21.0126 26058.2 -03386.9 -07.4054 26277.4
 05 01 2013  02 24  -21.0124 26058.2 -03386.8 -07.4053 26277.4
 05 01 2013  02 25  -21.0126 26058.4 -03386.9 -07.4055 26277.6
 05 01 2013  02 26  -21.0127 26058.5 -03387.0 -07.4056 26277.7
 05 01 2013  02 27  -21.0126 26058.4 -03387.0 -07.4056 26277.6
 05 01 2013  02 28  -21.0130 26058.4 -03387.0 -07.4056 26277.6
 05 01 2013  02 29  -21.0133 26058.4 -03387.0 -07.4055 26277.5
 05 01 2013  02 30  -21.0133 26058.4 -03386.9 -07.4054 26277.5
 05 01 2013  02 31  -21.0134 26058.5 -03387.0 -07.4055 26277.7
 05 01 2013  02 32  -21.0135 26058.5 -03387.0 -07.4055 26277.7
 05 01 2013  02 33  -21.0136 26058.4 -03386.9 -07.4054 26277.6
 05 01 2013  02 34  -21.0140 26058.6 -03387.0 -07.4055 26277.7
 05 01 2013  02 35  -21.0143 26058.6 -03387.0 -07.4056 26277.8
 05 01 2013  02 36  -21.0142 26058.7 -03387.0 -07.4055 26277.9
 05 01 2013  02 37  -21.0143 26058.8 -03387.1 -07.4056 26278.0
 05 01 2013  02 38  -21.0142 26058.9 -03387.1 -07.4056 26278.1
 05 01 2013  02 39  -21.0141 26058.9 -03387.0 -07.4055 26278.0
 05 01 2013  02 40  -21.0141 26059.0 -03387.1 -07.4056 26278.2
 05 01 2013  02 41  -21.0140 26059.0 -03387.0 -07.4055 26278.2
 05 01 2013  02 42  -21.0139 26058.8 -03387.0 -07.4054 26278.0
 05 01 2013  02 43  -21.0138 26058.8 -03386.9 -07.4053 26277.9
 05 01 2013  02 44  -21.0136 26058.7 -03386.9 -07.4052 26277.9
 05 01 2013  02 45  -21.0134 26058.6 -03386.8 -07.4051 26277.8
 05 01 2013  02 46  -21.0135 26058.6 -03386.8 -07.4052 26277.8
 05 01 2013  02 47  -21.0139 26058.6 -03386.9 -07.4053 26277.8
 05 01 2013  02 48  -21.0142 26058.6 -03386.9 -07.4053 26277.8
 05 01 2013  02 49  -21.0143 26058.5 -03386.8 -07.4051 26277.7
 05 01 2013  02 50  -21.0144 26058.6 -03386.8 -07.4051 26277.8
 05 01 2013  02 51  -21.0144 26058.6 -03386.9 -07.4052 26277.8
 05 01 2013  02 52  -21.0143 26058.6 -03386.9 -07.4053 26277.8
 05 01 2013  02 53  -21.0142 26058.8 -03387.0 -07.4054 26278.0
 05 01 2013  02 54  -21.0140 26058.7 -03387.0 -07.4054 26277.9
 05 01 2013  02 55  -21.0140 26058.7 -03386.9 -07.4054 26277.9
 05 01 2013  02 56  -21.0146 26059.0 -03387.1 -07.4057 26278.2
 05 01 2013  02 57  -21.0149 26059.1 -03387.2 -07.4059 26278.3
 05 01 2013  02 58  -21.0149 26059.3 -03387.3 -07.4059 26278.5
 05 01 2013  02 59  -21.0150 26059.7 -03387.4 -07.4061 26278.9
 05 01 2013  03 00  -21.0148 26059.7 -03387.4 -07.4062 26279.0
 05 01 2013  03 01  -21.0145 26059.7 -03387.4 -07.4061 26279.0
 05 01 2013  03 02  -21.0142 26060.0 -03387.5 -07.4062 26279.2
 05 01 2013  03 03  -21.0140 26060.1 -03387.5 -07.4063 26279.3
 05 01 2013  03 04  -21.0136 26059.9 -03387.4 -07.4061 26279.1
 05 01 2013  03 05  -21.0137 26059.9 -03387.4 -07.4060 26279.2
 05 01 2013  03 06  -21.0137 26059.9 -03387.4 -07.4060 26279.1
 05 01 2013  03 07  -21.0135 26059.7 -03387.3 -07.4058 26278.9
 05 01 2013  03 08  -21.0132 26059.7 -03387.2 -07.4057 26278.9
 05 01 2013  03 09  -21.0132 26059.7 -03387.2 -07.4058 26278.9
 05 01 2013  03 10  -21.0133 26059.5 -03387.2 -07.4057 26278.7
 05 01 2013  03 11  -21.0129 26059.7 -03387.2 -07.4058 26278.9
 05 01 2013  03 12  -21.0130 26059.5 -03387.2 -07.4057 26278.7
 05 01 2013  03 13  -21.0128 26059.6 -03387.2 -07.4057 26278.8
 05 01 2013  03 14  -21.0126 26059.6 -03387.2 -07.4057 26278.8
 05 01 2013  03 15  -21.0128 26059.4 -03387.1 -07.4056 26278.6
 05 01 2013  03 16  -21.0127 26059.7 -03387.2 -07.4058 26278.9
 05 01 2013  03 17  -21.0130 26059.5 -03387.2 -07.4058 26278.7
 05 01 2013  03 18  -21.0134 26059.4 -03387.2 -07.4057 26278.6
 05 01 2013  03 19  -21.0134 26059.5 -03387.2 -07.4057 26278.7
 05 01 2013  03 20  -21.0134 26059.3 -03387.1 -07.4057 26278.5
 05 01 2013  03 21  -21.0135 26059.4 -03387.2 -07.4057 26278.7
 05 01 2013  03 22  -21.0134 26059.4 -03387.2 -07.4058 26278.6
 05 01 2013  03 23  -21.0134 26059.1 -03387.1 -07.4055 26278.3
 05 01 2013  03 24  -21.0134 26059.2 -03387.1 -07.4056 26278.4
 05 01 2013  03 25  -21.0134 26059.1 -03387.1 -07.4055 26278.3
 05 01 2013  03 26  -21.0135 26059.0 -03387.0 -07.4054 26278.1
 05 01 2013  03 27  -21.0135 26059.0 -03387.0 -07.4055 26278.2
 05 01 2013  03 28  -21.0135 26059.0 -03387.0 -07.4055 26278.2
 05 01 2013  03 29  -21.0137 26058.9 -03387.0 -07.4055 26278.0
 05 01 2013  03 30  -21.0139 26058.9 -03387.0 -07.4056 26278.1
 05 01 2013  03 31  -21.0140 26058.9 -03387.1 -07.4057 26278.1
 05 01 2013  03 32  -21.0140 26058.9 -03387.1 -07.4057 26278.1
 05 01 2013  03 33  -21.0141 26059.0 -03387.1 -07.4057 26278.2
 05 01 2013  03 34  -21.0142 26058.9 -03387.1 -07.4057 26278.1
 05 01 2013  03 35  -21.0143 26058.9 -03387.1 -07.4056 26278.1
 05 01 2013  03 36  -21.0145 26058.9 -03387.1 -07.4057 26278.1
 05 01 2013  03 37  -21.0147 26059.0 -03387.1 -07.4058 26278.2
 05 01 2013  03 38  -21.0148 26059.0 -03387.2 -07.4058 26278.2
 05 01 2013  03 39  -21.0150 26059.0 -03387.2 -07.4058 26278.2
 05 01 2013  03 40  -21.0152 26059.1 -03387.2 -07.4058 26278.3
 05 01 2013  03 41  -21.0154 26059.2 -03387.2 -07.4059 26278.4
 05 01 2013  03 42  -21.0155 26059.2 -03387.2 -07.4059 26278.4
 05 01 2013  03 43  -21.0155 26059.2 -03387.2 -07.4058 26278.4
 05 01 2013  03 44  -21.0154 26059.2 -03387.2 -07.4058 26278.4
 05 01 2013  03 45  -21.0155 26059.2 -03387.2 -07.4058 26278.4
 05 01 2013  03 46  -21.0155 26059.2 -03387.2 -07.4057 26278.4
 05 01 2013  03 47  -21.0156 26059.2 -03387.1 -07.4057 26278.4
 05 01 2013  03 48  -21.0157 26059.2 -03387.2 -07.4057 26278.4
 05 01 2013  03 49  -21.0157 26059.1 -03387.1 -07.4056 26278.3
 05 01 2013  03 50  -21.0158 26059.0 -03387.1 -07.4056 26278.2
 05 01 2013  03 51  -21.0159 26059.1 -03387.1 -07.4057 26278.3
 05 01 2013  03 52  -21.0159 26059.1 -03387.1 -07.4057 26278.3
 05 01 2013  03 53  -21.0159 26059.1 -03387.1 -07.4056 26278.3
 05 01 2013  03 54  -21.0160 26059.1 -03387.1 -07.4057 26278.3
 05 01 2013  03 55  -21.0162 26059.2 -03387.2 -07.4058 26278.4
 05 01 2013  03 56  -21.0163 26059.2 -03387.2 -07.4059 26278.4
 05 01 2013  03 57  -21.0163 26059.1 -03387.2 -07.4058 26278.3
 05 01 2013  03 58  -21.0164 26059.1 -03387.2 -07.4058 26278.4
 05 01 2013  03 59  -21.0164 26059.1 -03387.2 -07.4058 26278.3
 05 01 2013  04 00  -21.0164 26059.0 -03387.1 -07.4057 26278.2
 05 01 2013  04 01  -21.0165 26059.0 -03387.1 -07.4057 26278.2
 05 01 2013  04 02  -21.0165 26059.0 -03387.1 -07.4057 26278.2
 05 01 2013  04 03  -21.0164 26058.8 -03387.0 -07.4056 26278.0
 05 01 2013  04 04  -21.0165 26058.8 -03387.0 -07.4056 26278.0
 05 01 2013  04 05  -21.0165 26058.8 -03387.1 -07.4057 26278.0
 05 01 2013  04 06  -21.0167 26058.4 -03386.9 -07.4054 26277.6
 05 01 2013  04 07  -21.0168 26058.6 -03387.0 -07.4055 26277.8
 05 01 2013  04 08  -21.0170 26058.6 -03387.0 -07.4056 26277.8
 05 01 2013  04 09  -21.0169 26058.5 -03386.9 -07.4055 26277.6
 05 01 2013  04 10  -21.0170 26058.6 -03387.0 -07.4055 26277.8
 05 01 2013  04 11  -21.0171 26058.7 -03387.1 -07.4057 26277.9
 05 01 2013  04 12  -21.0171 26058.5 -03387.0 -07.4056 26277.7
 05 01 2013  04 13  -21.0172 26058.6 -03387.0 -07.4055 26277.8
 05 01 2013  04 14  -21.0173 26058.7 -03387.1 -07.4057 26277.9
 05 01 2013  04 15  -21.0173 26058.7 -03387.0 -07.4056 26277.9
 05 01 2013  04 16  -21.0174 26058.6 -03387.0 -07.4056 26277.8
 05 01 2013  04 17  -21.0175 26058.6 -03387.0 -07.4056 26277.8
 05 01 2013  04 18  -21.0175 26058.6 -03387.0 -07.4056 26277.8
 05 01 2013  04 19  -21.0176 26058.6 -03387.0 -07.4056 26277.8
 05 01 2013  04 20  -21.0177 26058.6 -03387.0 -07.4056 26277.8
 05 01 2013  04 21  -21.0177 26058.6 -03387.0 -07.4056 26277.8
 05 01 2013  04 22  -21.0178 26058.6 -03387.0 -07.4056 26277.8
 05 01 2013  04 23  -21.0179 26058.5 -03387.0 -07.4056 26277.7
 05 01 2013  04 24  -21.0180 26058.5 -03387.0 -07.4056 26277.7
 05 01 2013  04 25  -21.0181 26058.5 -03387.0 -07.4055 26277.7
 05 01 2013  04 26  -21.0182 26058.5 -03386.9 -07.4055 26277.7
 05 01 2013  04 27  -21.0183 26058.5 -03387.0 -07.4055 26277.7
 05 01 2013  04 28  -21.0183 26058.7 -03387.0 -07.4056 26277.9
 05 01 2013  04 29  -21.0182 26058.7 -03387.1 -07.4057 26278.0
 05 01 2013  04 30  -21.0183 26058.7 -03387.1 -07.4056 26277.9
 05 01 2013  04 31  -21.0185 26058.6 -03387.0 -07.4056 26277.8
 05 01 2013  04 32  -21.0187 26058.8 -03387.1 -07.4057 26278.0
 05 01 2013  04 33  -21.0189 26058.9 -03387.1 -07.4057 26278.1
 05 01 2013  04 34  -21.0189 26058.9 -03387.1 -07.4056 26278.1
 05 01 2013  04 35  -21.0189 26058.9 -03387.1 -07.4057 26278.1
 05 01 2013  04 36  -21.0190 26058.9 -03387.1 -07.4057 26278.1
 05 01 2013  04 37  -21.0190 26058.8 -03387.0 -07.4056 26278.0
 05 01 2013  04 38  -21.0191 26058.8 -03387.0 -07.4055 26278.0
 05 01 2013  04 39  -21.0191 26058.9 -03387.0 -07.4056 26278.1
 05 01 2013  04 40  -21.0191 26058.9 -03387.1 -07.4056 26278.1
 05 01 2013  04 41  -21.0192 26058.8 -03387.0 -07.4055 26278.0
 05 01 2013  04 42  -21.0190 26058.7 -03386.9 -07.4054 26277.8
 05 01 2013  04 43  -21.0191 26058.7 -03387.0 -07.4054 26277.9
 05 01 2013  04 44  -21.0190 26058.8 -03387.0 -07.4055 26278.0
 05 01 2013  04 45  -21.0188 26058.7 -03386.9 -07.4054 26277.9
 05 01 2013  04 46  -21.0187 26058.6 -03386.9 -07.4053 26277.8
 05 01 2013  04 47  -21.0187 26058.6 -03386.9 -07.4053 26277.7
 05 01 2013  04 48  -21.0186 26058.6 -03386.9 -07.4054 26277.7
 05 01 2013  04 49  -21.0186 26058.5 -03386.9 -07.4053 26277.7
 05 01 2013  04 50  -21.0186 26058.5 -03386.9 -07.4053 26277.7
 05 01 2013  04 51  -21.0186 26058.5 -03386.9 -07.4054 26277.6
 05 01 2013  04 52  -21.0183 26058.3 -03386.8 -07.4053 26277.5
 05 01 2013  04 53  -21.0184 26058.3 -03386.8 -07.4052 26277.5
 05 01 2013  04 54  -21.0186 26058.4 -03386.9 -07.4054 26277.6
 05 01 2013  04 55  -21.0188 26058.5 -03387.0 -07.4056 26277.7
 05 01 2013  04 56  -21.0188 26058.5 -03387.0 -07.4055 26277.7
 05 01 2013  04 57  -21.0187 26058.5 -03387.0 -07.4055 26277.7
 05 01 2013  04 58  -21.0188 26058.5 -03387.0 -07.4056 26277.7
 05 01 2013  04 59  -21.0190 26058.4 -03387.0 -07.4055 26277.6
 05 01 2013  05 00  -21.0193 26058.4 -03387.0 -07.4055 26277.6
 05 01 2013  05 01  -21.0192 26058.5 -03387.0 -07.4055 26277.7
 05 01 2013  05 02  -21.0190 26058.4 -03386.9 -07.4055 26277.6
 05 01 2013  05 03  -21.0192 26058.4 -03386.9 -07.4055 26277.5
 05 01 2013  05 04  -21.0192 26058.4 -03386.9 -07.4055 26277.6
 05 01 2013  05 05  -21.0194 26058.4 -03386.9 -07.4055 26277.5
 05 01 2013  05 06  -21.0197 26058.2 -03386.9 -07.4054 26277.4
 05 01 2013  05 07  -21.0198 26058.3 -03386.9 -07.4054 26277.5
 05 01 2013  05 08  -21.0200 26058.3 -03386.9 -07.4055 26277.5
 05 01 2013  05 09  -21.0200 26058.2 -03386.9 -07.4055 26277.4
 05 01 2013  05 10  -21.0202 26058.2 -03386.9 -07.4054 26277.4
 05 01 2013  05 11  -21.0204 26058.3 -03386.9 -07.4055 26277.5
 05 01 2013  05 12  -21.0203 26058.3 -03386.9 -07.4055 26277.5
 05 01 2013  05 13  -21.0202 26058.3 -03386.9 -07.4054 26277.4
 05 01 2013  05 14  -21.0203 26058.2 -03386.9 -07.4054 26277.4
 05 01 2013  05 15  -21.0203 26058.3 -03386.9 -07.4054 26277.5
 05 01 2013  05 16  -21.0203 26058.3 -03386.9 -07.4055 26277.5
 05 01 2013  05 17  -21.0204 26058.3 -03386.9 -07.4055 26277.5
 05 01 2013  05 18  -21.0205 26058.3 -03386.9 -07.4055 26277.5
 05 01 2013  05 19  -21.0203 26058.4 -03386.9 -07.4055 26277.6
 05 01 2013  05 20  -21.0204 26058.4 -03387.0 -07.4055 26277.6
 05 01 2013  05 21  -21.0203 26058.3 -03387.0 -07.4055 26277.5
 05 01 2013  05 22  -21.0202 26058.3 -03386.9 -07.4055 26277.5
 05 01 2013  05 23  -21.0203 26058.3 -03386.9 -07.4055 26277.5
 05 01 2013  05 24  -21.0203 26058.2 -03386.9 -07.4055 26277.4
 05 01 2013  05 25  -21.0205 26058.1 -03386.8 -07.4054 26277.3
 05 01 2013  05 26  -21.0205 26058.1 -03386.8 -07.4053 26277.3
 05 01 2013  05 27  -21.0205 26058.2 -03386.9 -07.4055 26277.4
 05 01 2013  05 28  -21.0203 26058.2 -03386.9 -07.4055 26277.4
 05 01 2013  05 29  -21.0202 26058.2 -03386.9 -07.4055 26277.4
 05 01 2013  05 30  -21.0203 26058.0 -03386.9 -07.4055 26277.2
 05 01 2013  05 31  -21.0202 26058.1 -03386.9 -07.4055 26277.3
 05 01 2013  05 32  -21.0202 26058.2 -03387.0 -07.4056 26277.3
 05 01 2013  05 33  -21.0205 26058.1 -03387.0 -07.4056 26277.3
 05 01 2013  05 34  -21.0204 26058.1 -03386.9 -07.4056 26277.3
 05 01 2013  05 35  -21.0199 26058.1 -03386.9 -07.4055 26277.3
 05 01 2013  05 36  -21.0200 26057.9 -03386.9 -07.4055 26277.1
 05 01 2013  05 37  -21.0199 26058.0 -03386.9 -07.4055 26277.2
 05 01 2013  05 38  -21.0201 26058.0 -03387.0 -07.4057 26277.2
 05 01 2013  05 39  -21.0203 26057.9 -03386.9 -07.4055 26277.0
 05 01 2013  05 40  -21.0201 26058.1 -03387.0 -07.4057 26277.3
 05 01 2013  05 41  -21.0203 26058.3 -03387.1 -07.4059 26277.5
 05 01 2013  05 42  -21.0203 26058.5 -03387.2 -07.4060 26277.7
 05 01 2013  05 43  -21.0207 26058.4 -03387.2 -07.4060 26277.6
 05 01 2013  05 44  -21.0209 26058.8 -03387.3 -07.4062 26278.0
 05 01 2013  05 45  -21.0213 26059.0 -03387.4 -07.4064 26278.2
 05 01 2013  05 46  -21.0216 26059.1 -03387.5 -07.4064 26278.3
 05 01 2013  05 47  -21.0219 26059.3 -03387.5 -07.4064 26278.5
 05 01 2013  05 48  -21.0220 26059.4 -03387.5 -07.4065 26278.7
 05 01 2013  05 49  -21.0220 26059.7 -03387.6 -07.4066 26278.9
 05 01 2013  05 50  -21.0221 26059.5 -03387.5 -07.4064 26278.7
 05 01 2013  05 51  -21.0217 26059.5 -03387.4 -07.4062 26278.8
 05 01 2013  05 52  -21.0213 26059.6 -03387.4 -07.4062 26278.8
 05 01 2013  05 53  -21.0211 26059.5 -03387.4 -07.4061 26278.8
 05 01 2013  05 54  -21.0213 26059.4 -03387.3 -07.4060 26278.7
 05 01 2013  05 55  -21.0214 26059.6 -03387.3 -07.4060 26278.8
 05 01 2013  05 56  -21.0216 26059.8 -03387.5 -07.4063 26279.0
 05 01 2013  05 57  -21.0217 26059.6 -03387.4 -07.4061 26278.9
 05 01 2013  05 58  -21.0213 26059.8 -03387.4 -07.4061 26279.0
 05 01 2013  05 59  -21.0210 26059.9 -03387.5 -07.4062 26279.2
 05 01 2013  06 00  -21.0210 26059.7 -03387.3 -07.4060 26278.9
 05 01 2013  06 01  -21.0208 26059.6 -03387.3 -07.4058 26278.8
 05 01 2013  06 02  -21.0205 26059.8 -03387.4 -07.4060 26279.0
 05 01 2013  06 03  -21.0203 26059.7 -03387.4 -07.4060 26279.0
 05 01 2013  06 04  -21.0201 26059.5 -03387.2 -07.4058 26278.7
 05 01 2013  06 05  -21.0199 26059.3 -03387.1 -07.4056 26278.6
 05 01 2013  06 06  -21.0196 26059.4 -03387.2 -07.4057 26278.6
 05 01 2013  06 07  -21.0194 26059.3 -03387.2 -07.4057 26278.5
 05 01 2013  06 08  -21.0187 26058.9 -03386.9 -07.4054 26278.1
 05 01 2013  06 09  -21.0187 26058.9 -03387.0 -07.4054 26278.1
 05 01 2013  06 10  -21.0188 26059.1 -03387.2 -07.4058 26278.3
 05 01 2013  06 11  -21.0189 26059.0 -03387.2 -07.4058 26278.2
 05 01 2013  06 12  -21.0190 26059.2 -03387.2 -07.4059 26278.4
 05 01 2013  06 13  -21.0190 26059.3 -03387.3 -07.4061 26278.6
 05 01 2013  06 14  -21.0197 26059.5 -03387.5 -07.4064 26278.8
 05 01 2013  06 15  -21.0198 26059.7 -03387.6 -07.4065 26278.9
 05 01 2013  06 16  -21.0200 26059.8 -03387.6 -07.4065 26279.1
 05 01 2013  06 17  -21.0205 26060.3 -03387.9 -07.4069 26279.6
 05 01 2013  06 18  -21.0210 26060.5 -03388.0 -07.4072 26279.8
 05 01 2013  06 19  -21.0210 26060.5 -03388.0 -07.4071 26279.8
 05 01 2013  06 20  -21.0213 26060.9 -03388.1 -07.4073 26280.2
 05 01 2013  06 21  -21.0211 26061.3 -03388.2 -07.4075 26280.6
 05 01 2013  06 22  -21.0214 26061.2 -03388.2 -07.4073 26280.5
 05 01 2013  06 23  -21.0214 26061.1 -03388.0 -07.4071 26280.4
 05 01 2013  06 24  -21.0212 26061.2 -03388.0 -07.4071 26280.5
 05 01 2013  06 25  -21.0208 26061.3 -03388.0 -07.4071 26280.6
 05 01 2013  06 26  -21.0207 26061.0 -03387.9 -07.4069 26280.3
 05 01 2013  06 27  -21.0206 26060.8 -03387.8 -07.4066 26280.0
 05 01 2013  06 28  -21.0201 26060.7 -03387.7 -07.4064 26280.0
 05 01 2013  06 29  -21.0198 26060.6 -03387.7 -07.4064 26279.9
 05 01 2013  06 30  -21.0198 26060.4 -03387.6 -07.4063 26279.6
 05 01 2013  06 31  -21.0197 26060.2 -03387.5 -07.4061 26279.4
 05 01 2013  06 32  -21.0194 26060.0 -03387.4 -07.4061 26279.2
 05 01 2013  06 33  -21.0191 26060.0 -03387.4 -07.4061 26279.3
 05 01 2013  06 34  -21.0190 26060.0 -03387.5 -07.4062 26279.2
 05 01 2013  06 35  -21.0191 26059.8 -03387.4 -07.4061 26279.0
 05 01 2013  06 36  -21.0190 26059.7 -03387.4 -07.4061 26278.9
 05 01 2013  06 37  -21.0189 26059.8 -03387.5 -07.4063 26279.1
 05 01 2013  06 38  -21.0188 26059.8 -03387.5 -07.4063 26279.0
 05 01 2013  06 39  -21.0189 26059.7 -03387.5 -07.4063 26278.9
 05 01 2013  06 40  -21.0187 26059.7 -03387.5 -07.4064 26279.0
 05 01 2013  06 41  -21.0187 26059.7 -03387.5 -07.4064 26278.9
 05 01 2013  06 42  -21.0189 26059.7 -03387.6 -07.4065 26278.9
 05 01 2013  06 43  -21.0189 26059.7 -03387.6 -07.4066 26279.0
 05 01 2013  06 44  -21.0189 26059.6 -03387.6 -07.4066 26278.9
 05 01 2013  06 45  -21.0190 26059.5 -03387.6 -07.4066 26278.8
 05 01 2013  06 46  -21.0189 26059.6 -03387.6 -07.4066 26278.8
 05 01 2013  06 47  -21.0191 26059.6 -03387.6 -07.4067 26278.8
 05 01 2013  06 48  -21.0194 26059.5 -03387.6 -07.4066 26278.7
 05 01 2013  06 49  -21.0195 26059.4 -03387.6 -07.4066 26278.7
 05 01 2013  06 50  -21.0196 26059.5 -03387.6 -07.4066 26278.7
 05 01 2013  06 51  -21.0196 26059.5 -03387.6 -07.4067 26278.7
 05 01 2013  06 52  -21.0198 26059.3 -03387.6 -07.4066 26278.6
 05 01 2013  06 53  -21.0197 26059.2 -03387.5 -07.4065 26278.5
 05 01 2013  06 54  -21.0195 26059.2 -03387.5 -07.4066 26278.5
 05 01 2013  06 55  -21.0195 26059.3 -03387.6 -07.4066 26278.5
 05 01 2013  06 56  -21.0199 26059.3 -03387.6 -07.4067 26278.5
 05 01 2013  06 57  -21.0200 26059.3 -03387.6 -07.4067 26278.5
 05 01 2013  06 58  -21.0199 26059.3 -03387.7 -07.4068 26278.6
 05 01 2013  06 59  -21.0201 26059.3 -03387.7 -07.4069 26278.6
 05 01 2013  07 00  -21.0203 26059.4 -03387.7 -07.4069 26278.7
 05 01 2013  07 01  -21.0203 26059.4 -03387.7 -07.4069 26278.7
 05 01 2013  07 02  -21.0202 26059.4 -03387.7 -07.4069 26278.7
 05 01 2013  07 03  -21.0202 26059.3 -03387.7 -07.4068 26278.5
 05 01 2013  07 04  -21.0203 26059.2 -03387.7 -07.4068 26278.5
 05 01 2013  07 05  -21.0203 26059.2 -03387.7 -07.4069 26278.5
 05 01 2013  07 06  -21.0203 26059.1 -03387.7 -07.4069 26278.4
 05 01 2013  07 07  -21.0203 26059.1 -03387.7 -07.4069 26278.4
 05 01 2013  07 08  -21.0204 26059.2 -03387.7 -07.4070 26278.4
 05 01 2013  07 09  -21.0205 26059.1 -03387.7 -07.4070 26278.4
 05 01 2013  07 10  -21.0206 26059.1 -03387.8 -07.4071 26278.4
 05 01 2013  07 11  -21.0209 26059.2 -03387.8 -07.4072 26278.5
 05 01 2013  07 12  -21.0211 26059.2 -03387.8 -07.4072 26278.5
 05 01 2013  07 13  -21.0214 26059.2 -03387.9 -07.4072 26278.5
 05 01 2013  07 14  -21.0216 26059.3 -03387.9 -07.4073 26278.6
 05 01 2013  07 15  -21.0218 26059.2 -03387.9 -07.4073 26278.5
 05 01 2013  07 16  -21.0219 26059.3 -03387.9 -07.4073 26278.6
 05 01 2013  07 17  -21.0220 26059.4 -03387.9 -07.4073 26278.7
 05 01 2013  07 18  -21.0221 26059.3 -03387.9 -07.4073 26278.7
 05 01 2013  07 19  -21.0221 26059.3 -03387.9 -07.4073 26278.6
 05 01 2013  07 20  -21.0221 26059.2 -03387.9 -07.4072 26278.5
 05 01 2013  07 21  -21.0221 26059.2 -03387.8 -07.4071 26278.5
 05 01 2013  07 22  -21.0222 26059.1 -03387.8 -07.4071 26278.4
 05 01 2013  07 23  -21.0222 26059.2 -03387.8 -07.4072 26278.5
 05 01 2013  07 24  -21.0222 26059.3 -03387.9 -07.4073 26278.6
 05 01 2013  07 25  -21.0223 26059.4 -03387.9 -07.4073 26278.7
 05 01 2013  07 26  -21.0224 26059.4 -03387.9 -07.4073 26278.7
 05 01 2013  07 27  -21.0224 26059.5 -03388.0 -07.4074 26278.8
 05 01 2013  07 28  -21.0223 26059.5 -03388.0 -07.4075 26278.8
 05 01 2013  07 29  -21.0221 26059.4 -03387.9 -07.4073 26278.7
 05 01 2013  07 30  -21.0218 26059.2 -03387.8 -07.4072 26278.5
 05 01 2013  07 31  -21.0217 26059.2 -03387.8 -07.4071 26278.5
 05 01 2013  07 32  -21.0215 26059.2 -03387.8 -07.4071 26278.5
 05 01 2013  07 33  -21.0213 26059.2 -03387.8 -07.4071 26278.5
 05 01 2013  07 34  -21.0210 26059.1 -03387.8 -07.4071 26278.4
 05 01 2013  07 35  -21.0209 26059.1 -03387.8 -07.4072 26278.4
 05 01 2013  07 36  -21.0209 26059.0 -03387.8 -07.4072 26278.3
 05 01 2013  07 37  -21.0207 26059.0 -03387.8 -07.4072 26278.3
 05 01 2013  07 38  -21.0205 26059.1 -03387.8 -07.4072 26278.4
 05 01 2013  07 39  -21.0204 26059.1 -03387.9 -07.4074 26278.5
 05 01 2013  07 40  -21.0202 26059.1 -03387.9 -07.4073 26278.4
 05 01 2013  07 41  -21.0202 26059.1 -03387.9 -07.4073 26278.4
 05 01 2013  07 42  -21.0203 26059.0 -03387.9 -07.4073 26278.3
 05 01 2013  07 43  -21.0204 26058.9 -03387.8 -07.4073 26278.2
 05 01 2013  07 44  -21.0205 26058.9 -03387.8 -07.4072 26278.2
 05 01 2013  07 45  -21.0206 26058.9 -03387.9 -07.4073 26278.2
 05 01 2013  07 46  -21.0207 26059.0 -03387.9 -07.4074 26278.4
 05 01 2013  07 47  -21.0209 26059.1 -03388.0 -07.4075 26278.4
 05 01 2013  07 48  -21.0210 26059.1 -03388.0 -07.4075 26278.4
 05 01 2013  07 49  -21.0212 26059.2 -03388.0 -07.4076 26278.5
 05 01 2013  07 50  -21.0213 26059.3 -03388.0 -07.4076 26278.6
 05 01 2013  07 51  -21.0215 26059.4 -03388.1 -07.4078 26278.7
 05 01 2013  07 52  -21.0215 26059.5 -03388.2 -07.4078 26278.8
 05 01 2013  07 53  -21.0215 26059.5 -03388.1 -07.4078 26278.8
 05 01 2013  07 54  -21.0215 26059.5 -03388.1 -07.4078 26278.8
 05 01 2013  07 55  -21.0216 26059.5 -03388.1 -07.4078 26278.8
 05 01 2013  07 56  -21.0216 26059.4 -03388.1 -07.4077 26278.8
 05 01 2013  07 57  -21.0216 26059.4 -03388.1 -07.4076 26278.8
 05 01 2013  07 58  -21.0214 26059.4 -03388.0 -07.4075 26278.7
 05 01 2013  07 59  -21.0214 26059.2 -03387.9 -07.4073 26278.5
 05 01 2013  08 00  -21.0215 26059.2 -03387.8 -07.4072 26278.5
 05 01 2013  08 01  -21.0215 26059.1 -03387.8 -07.4071 26278.4
 05 01 2013  08 02  -21.0214 26059.1 -03387.8 -07.4071 26278.4
 05 01 2013  08 03  -21.0212 26059.1 -03387.8 -07.4071 26278.4
 05 01 2013  08 04  -21.0212 26059.2 -03387.8 -07.4071 26278.4
 05 01 2013  08 05  -21.0212 26059.2 -03387.8 -07.4071 26278.5
 05 01 2013  08 06  -21.0212 26059.2 -03387.8 -07.4072 26278.5
 05 01 2013  08 07  -21.0211 26059.2 -03387.8 -07.4072 26278.5
 05 01 2013  08 08  -21.0209 26059.3 -03387.8 -07.4072 26278.6
 05 01 2013  08 09  -21.0208 26059.3 -03387.8 -07.4071 26278.5
 05 01 2013  08 10  -21.0206 26059.2 -03387.8 -07.4070 26278.5
 05 01 2013  08 11  -21.0204 26059.1 -03387.7 -07.4069 26278.4
 05 01 2013  08 12  -21.0202 26059.0 -03387.6 -07.4068 26278.3
 05 01 2013  08 13  -21.0201 26059.0 -03387.6 -07.4068 26278.3
 05 01 2013  08 14  -21.0200 26059.1 -03387.6 -07.4068 26278.3
 05 01 2013  08 15  -21.0198 26059.1 -03387.6 -07.4068 26278.4
 05 01 2013  08 16  -21.0196 26059.1 -03387.7 -07.4069 26278.3
 05 01 2013  08 17  -21.0195 26059.0 -03387.7 -07.4069 26278.3
 05 01 2013  08 18  -21.0195 26059.0 -03387.6 -07.4068 26278.3
 05 01 2013  08 19  -21.0195 26059.1 -03387.7 -07.4068 26278.3
 05 01 2013  08 20  -21.0193 26059.1 -03387.6 -07.4068 26278.3
 05 01 2013  08 21  -21.0193 26059.0 -03387.6 -07.4067 26278.2
 05 01 2013  08 22  -21.0192 26058.9 -03387.6 -07.4067 26278.2
 05 01 2013  08 23  -21.0191 26058.8 -03387.5 -07.4066 26278.1
 05 01 2013  08 24  -21.0189 26058.8 -03387.5 -07.4065 26278.0
 05 01 2013  08 25  -21.0187 26058.7 -03387.4 -07.4064 26277.9
 05 01 2013  08 26  -21.0185 26058.5 -03387.3 -07.4063 26277.7
 05 01 2013  08 27  -21.0183 26058.4 -03387.2 -07.4061 26277.7
 05 01 2013  08 28  -21.0181 26058.4 -03387.2 -07.4060 26277.6
 05 01 2013  08 29  -21.0177 26058.4 -03387.2 -07.4060 26277.7
 05 01 2013  08 30  -21.0175 26058.4 -03387.2 -07.4060 26277.6
 05 01 2013  08 31  -21.0175 26058.3 -03387.1 -07.4059 26277.5
 05 01 2013  08 32  -21.0174 26058.4 -03387.1 -07.4059 26277.6
 05 01 2013  08 33  -21.0172 26058.3 -03387.1 -07.4058 26277.5
 05 01 2013  08 34  -21.0170 26058.1 -03386.9 -07.4055 26277.3
 05 01 2013  08 35  -21.0169 26058.1 -03386.9 -07.4054 26277.3
 05 01 2013  08 36  -21.0169 26058.1 -03386.8 -07.4053 26277.3
 05 01 2013  08 37  -21.0166 26058.0 -03386.8 -07.4052 26277.2
 05 01 2013  08 38  -21.0164 26058.0 -03386.7 -07.4050 26277.1
 05 01 2013  08 39  -21.0160 26057.9 -03386.5 -07.4047 26277.1
 05 01 2013  08 40  -21.0155 26057.8 -03386.5 -07.4046 26276.9
 05 01 2013  08 41  -21.0153 26057.7 -03386.4 -07.4046 26276.9
 05 01 2013  08 42  -21.0148 26057.6 -03386.3 -07.4044 26276.7
 05 01 2013  08 43  -21.0142 26057.5 -03386.3 -07.4043 26276.6
 05 01 2013  08 44  -21.0136 26057.4 -03386.3 -07.4043 26276.5
 05 01 2013  08 45  -21.0130 26057.2 -03386.2 -07.4043 26276.3
 05 01 2013  08 46  -21.0125 26057.0 -03386.2 -07.4043 26276.1
 05 01 2013  08 47  -21.0119 26056.9 -03386.3 -07.4045 26276.0
 05 01 2013  08 48  -21.0114 26056.7 -03386.3 -07.4046 26275.8
 05 01 2013  08 49  -21.0108 26056.5 -03386.4 -07.4048 26275.7
 05 01 2013  08 50  -21.0104 26056.4 -03386.4 -07.4049 26275.5
 05 01 2013  08 51  -21.0101 26056.3 -03386.6 -07.4052 26275.5
 05 01 2013  08 52  -21.0096 26056.2 -03386.7 -07.4055 26275.4
 05 01 2013  08 53  -21.0092 26056.1 -03386.8 -07.4057 26275.3
 05 01 2013  08 54  -21.0088 26056.1 -03386.9 -07.4060 26275.3
 05 01 2013  08 55  -21.0087 26056.0 -03387.0 -07.4064 26275.2
 05 01 2013  08 56  -21.0086 26056.0 -03387.2 -07.4067 26275.3
 05 01 2013  08 57  -21.0084 26056.0 -03387.3 -07.4070 26275.2
 05 01 2013  08 58  -21.0083 26055.9 -03387.5 -07.4073 26275.2
 05 01 2013  08 59  -21.0083 26055.9 -03387.6 -07.4076 26275.2
 05 01 2013  09 00  -21.0086 26055.8 -03387.7 -07.4079 26275.1
 05 01 2013  09 01  -21.0088 26055.8 -03387.8 -07.4081 26275.2
 05 01 2013  09 02  -21.0091 26055.8 -03388.0 -07.4084 26275.1
 05 01 2013  09 03  -21.0092 26055.8 -03388.1 -07.4087 26275.1
 05 01 2013  09 04  -21.0096 26055.7 -03388.1 -07.4088 26275.1
 05 01 2013  09 05  -21.0101 26055.7 -03388.2 -07.4090 26275.1
 05 01 2013  09 06  -21.0104 26055.7 -03388.3 -07.4092 26275.1
 05 01 2013  09 07  -21.0106 26055.7 -03388.3 -07.4093 26275.1
 05 01 2013  09 08  -21.0109 26055.7 -03388.4 -07.4093 26275.1
 05 01 2013  09 09  -21.0114 26055.7 -03388.4 -07.4095 26275.1
 05 01 2013  09 10  -21.0117 26055.6 -03388.4 -07.4095 26275.0
 05 01 2013  09 11  -21.0122 26055.6 -03388.5 -07.4096 26275.0
 05 01 2013  09 12  -21.0124 26055.7 -03388.5 -07.4097 26275.1
 05 01 2013  09 13  -21.0127 26055.6 -03388.5 -07.4097 26275.0
 05 01 2013  09 14  -21.0128 26055.6 -03388.5 -07.4097 26275.0
 05 01 2013  09 15  -21.0129 26055.5 -03388.6 -07.4098 26274.9
 05 01 2013  09 16  -21.0134 26055.4 -03388.6 -07.4098 26274.8
 05 01 2013  09 17  -21.0137 26055.4 -03388.6 -07.4099 26274.9
 05 01 2013  09 18  -21.0141 26055.4 -03388.6 -07.4099 26274.9
 05 01 2013  09 19  -21.0144 26055.4 -03388.6 -07.4099 26274.9
 05 01 2013  09 20  -21.0146 26055.4 -03388.6 -07.4099 26274.8
 05 01 2013  09 21  -21.0147 26055.3 -03388.6 -07.4099 26274.8
 05 01 2013  09 22  -21.0149 26055.3 -03388.6 -07.4099 26274.7
 05 01 2013  09 23  -21.0150 26055.2 -03388.6 -07.4100 26274.6
 05 01 2013  09 24  -21.0150 26055.1 -03388.6 -07.4100 26274.5
 05 01 2013  09 25  -21.0151 26055.1 -03388.6 -07.4100 26274.5
 05 01 2013  09 26  -21.0154 26055.1 -03388.6 -07.4100 26274.6
 05 01 2013  09 27  -21.0155 26055.1 -03388.6 -07.4100 26274.5
 05 01 2013  09 28  -21.0157 26055.0 -03388.6 -07.4099 26274.5
 05 01 2013  09 29  -21.0157 26055.0 -03388.6 -07.4101 26274.4
 05 01 2013  09 30  -21.0153 26054.6 -03388.6 -07.4100 26274.1
 05 01 2013  09 31  -21.0146 26053.9 -03388.3 -07.4096 26273.3
 05 01 2013  09 32  -21.0140 26053.2 -03388.1 -07.4095 26272.6
 05 01 2013  09 33  -21.0138 26053.1 -03388.3 -07.4098 26272.5
 05 01 2013  09 34  -21.0141 26053.3 -03388.6 -07.4104 26272.8
 05 01 2013  09 35  -21.0150 26053.7 -03388.9 -07.4111 26273.2
 05 01 2013  09 36  -21.0155 26054.1 -03389.2 -07.4115 26273.6
 05 01 2013  09 37  -21.0156 26054.2 -03389.3 -07.4117 26273.7
 05 01 2013  09 38  -21.0160 26054.4 -03389.4 -07.4118 26273.9
 05 01 2013  09 39  -21.0165 26054.6 -03389.4 -07.4120 26274.1
 05 01 2013  09 40  -21.0170 26054.8 -03389.5 -07.4120 26274.3
 05 01 2013  09 41  -21.0170 26054.9 -03389.5 -07.4120 26274.4
 05 01 2013  09 42  -21.0170 26054.9 -03389.5 -07.4120 26274.5
 05 01 2013  09 43  -21.0172 26054.9 -03389.5 -07.4120 26274.5
 05 01 2013  09 44  -21.0173 26054.9 -03389.6 -07.4121 26274.5
 05 01 2013  09 45  -21.0173 26054.9 -03389.6 -07.4121 26274.4
 05 01 2013  09 46  -21.0176 26054.9 -03389.6 -07.4122 26274.4
 05 01 2013  09 47  -21.0179 26055.0 -03389.7 -07.4123 26274.5
 05 01 2013  09 48  -21.0184 26055.1 -03389.7 -07.4125 26274.7
 05 01 2013  09 49  -21.0189 26055.3 -03389.8 -07.4126 26274.8
 05 01 2013  09 50  -21.0192 26055.3 -03389.8 -07.4126 26274.9
 05 01 2013  09 51  -21.0195 26055.4 -03389.9 -07.4127 26275.0
 05 01 2013  09 52  -21.0197 26055.4 -03389.9 -07.4127 26275.0
 05 01 2013  09 53  -21.0200 26055.3 -03389.8 -07.4126 26274.9
 05 01 2013  09 54  -21.0203 26055.3 -03389.9 -07.4127 26274.9
 05 01 2013  09 55  -21.0203 26055.1 -03389.9 -07.4127 26274.7
 05 01 2013  09 56  -21.0203 26055.1 -03389.9 -07.4128 26274.7
 05 01 2013  09 57  -21.0205 26055.1 -03389.9 -07.4129 26274.7
 05 01 2013  09 58  -21.0208 26055.2 -03390.1 -07.4132 26274.8
 05 01 2013  09 59  -21.0210 26055.4 -03390.2 -07.4134 26275.0
 05 01 2013  10 00  -21.0211 26055.5 -03390.3 -07.4135 26275.1
 05 01 2013  10 01  -21.0214 26055.7 -03390.3 -07.4136 26275.3
 05 01 2013  10 02  -21.0217 26055.9 -03390.4 -07.4137 26275.6
 05 01 2013  10 03  -21.0217 26056.0 -03390.4 -07.4137 26275.6
 05 01 2013  10 04  -21.0219 26056.1 -03390.5 -07.4138 26275.8
 05 01 2013  10 05  -21.0222 26056.3 -03390.6 -07.4139 26276.0
 05 01 2013  10 06  -21.0225 26056.5 -03390.6 -07.4140 26276.2
 05 01 2013  10 07  -21.0227 26056.8 -03390.7 -07.4141 26276.5
 05 01 2013  10 08  -21.0227 26056.9 -03390.7 -07.4140 26276.6
 05 01 2013  10 09  -21.0229 26057.1 -03390.7 -07.4140 26276.8
 05 01 2013  10 10  -21.0231 26057.4 -03390.7 -07.4140 26277.0
 05 01 2013  10 11  -21.0234 26057.6 -03390.8 -07.4140 26277.3
 05 01 2013  10 12  -21.0235 26057.7 -03390.7 -07.4138 26277.4
 05 01 2013  10 13  -21.0234 26057.8 -03390.7 -07.4137 26277.5
 05 01 2013  10 14  -21.0235 26058.0 -03390.6 -07.4136 26277.6
 05 01 2013  10 15  -21.0239 26058.3 -03390.7 -07.4137 26277.9
 05 01 2013  10 16  -21.0238 26058.4 -03390.7 -07.4135 26278.0
 05 01 2013  10 17  -21.0238 26058.5 -03390.6 -07.4134 26278.1
 05 01 2013  10 18  -21.0237 26058.6 -03390.6 -07.4134 26278.3
 05 01 2013  10 19  -21.0236 26058.7 -03390.6 -07.4133 26278.4
 05 01 2013  10 20  -21.0236 26058.8 -03390.6 -07.4133 26278.5
 05 01 2013  10 21  -21.0237 26059.0 -03390.7 -07.4134 26278.6
 05 01 2013  10 22  -21.0236 26059.0 -03390.7 -07.4134 26278.7
 05 01 2013  10 23  -21.0234 26059.1 -03390.7 -07.4134 26278.8
 05 01 2013  10 24  -21.0232 26059.2 -03390.7 -07.4134 26278.8
 05 01 2013  10 25  -21.0229 26059.3 -03390.7 -07.4135 26278.9
 05 01 2013  10 26  -21.0228 26059.4 -03390.8 -07.4136 26279.1
 05 01 2013  10 27  -21.0227 26059.6 -03390.9 -07.4138 26279.3
 05 01 2013  10 28  -21.0226 26059.7 -03391.0 -07.4139 26279.4
 05 01 2013  10 29  -21.0226 26059.7 -03391.1 -07.4140 26279.4
 05 01 2013  10 30  -21.0225 26059.8 -03391.1 -07.4142 26279.5
 05 01 2013  10 31  -21.0224 26060.0 -03391.2 -07.4143 26279.7
 05 01 2013  10 32  -21.0222 26060.1 -03391.3 -07.4145 26279.9
 05 01 2013  10 33  -21.0223 26060.4 -03391.4 -07.4146 26280.1
 05 01 2013  10 34  -21.0220 26060.4 -03391.4 -07.4147 26280.2
 05 01 2013  10 35  -21.0217 26060.4 -03391.4 -07.4147 26280.2
 05 01 2013  10 36  -21.0215 26060.5 -03391.5 -07.4147 26280.2
 05 01 2013  10 37  -21.0215 26060.7 -03391.6 -07.4149 26280.4
 05 01 2013  10 38  -21.0216 26060.9 -03391.7 -07.4151 26280.7
 05 01 2013  10 39  -21.0217 26061.1 -03391.8 -07.4152 26280.9
 05 01 2013  10 40  -21.0216 26061.2 -03391.8 -07.4153 26281.0
 05 01 2013  10 41  -21.0216 26061.4 -03391.9 -07.4154 26281.2
 05 01 2013  10 42  -21.0214 26061.6 -03391.9 -07.4154 26281.4
 05 01 2013  10 43  -21.0212 26061.7 -03391.9 -07.4154 26281.5
 05 01 2013  10 44  -21.0214 26061.9 -03392.0 -07.4155 26281.7
 05 01 2013  10 45  -21.0211 26062.1 -03392.0 -07.4155 26281.9
 05 01 2013  10 46  -21.0205 26061.9 -03392.0 -07.4154 26281.7
 05 01 2013  10 47  -21.0206 26062.1 -03392.1 -07.4155 26281.9
 05 01 2013  10 48  -21.0207 26062.5 -03392.3 -07.4158 26282.4
 05 01 2013  10 49  -21.0207 26062.8 -03392.3 -07.4159 26282.6
 05 01 2013  10 50  -21.0206 26063.0 -03392.4 -07.4159 26282.8
 05 01 2013  10 51  -21.0207 26063.3 -03392.4 -07.4160 26283.2
 05 01 2013  10 52  -21.0212 26063.9 -03392.6 -07.4161 26283.8
 05 01 2013  10 53  -21.0212 26064.6 -03392.6 -07.4160 26284.4
 05 01 2013  10 54  -21.0210 26065.0 -03392.6 -07.4158 26284.8
 05 01 2013  10 55  -21.0212 26065.5 -03392.6 -07.4156 26285.3
 05 01 2013  10 56  -21.0213 26065.8 -03392.5 -07.4155 26285.7
 05 01 2013  10 57  -21.0209 26065.8 -03392.4 -07.4152 26285.7
 05 01 2013  10 58  -21.0206 26065.9 -03392.3 -07.4150 26285.7
 05 01 2013  10 59  -21.0203 26066.0 -03392.3 -07.4149 26285.8
 05 01 2013  11 00  -21.0200 26066.3 -03392.4 -07.4150 26286.1
 05 01 2013  11 01  -21.0201 26066.9 -03392.6 -07.4153 26286.8
 05 01 2013  11 02  -21.0201 26067.4 -03392.6 -07.4153 26287.3
 05 01 2013  11 03  -21.0198 26067.6 -03392.5 -07.4150 26287.4
 05 01 2013  11 04  -21.0194 26067.9 -03392.4 -07.4147 26287.7
 05 01 2013  11 05  -21.0191 26068.0 -03392.3 -07.4144 26287.8
 05 01 2013  11 06  -21.0190 26068.1 -03392.1 -07.4140 26287.9
 05 01 2013  11 07  -21.0185 26068.1 -03391.9 -07.4136 26287.9
 05 01 2013  11 08  -21.0176 26068.1 -03391.7 -07.4130 26287.8
 05 01 2013  11 09  -21.0170 26068.2 -03391.6 -07.4129 26287.9
 05 01 2013  11 10  -21.0166 26068.2 -03391.6 -07.4128 26288.0
 05 01 2013  11 11  -21.0163 26068.4 -03391.6 -07.4128 26288.1
 05 01 2013  11 12  -21.0156 26068.3 -03391.5 -07.4125 26288.0
 05 01 2013  11 13  -21.0147 26068.1 -03391.3 -07.4122 26287.7
 05 01 2013  11 14  -21.0142 26068.2 -03391.3 -07.4122 26287.9
 05 01 2013  11 15  -21.0140 26068.2 -03391.3 -07.4121 26287.8
 05 01 2013  11 16  -21.0134 26068.2 -03391.2 -07.4120 26287.9
 05 01 2013  11 17  -21.0130 26068.1 -03391.2 -07.4120 26287.8
 05 01 2013  11 18  -21.0126 26068.5 -03391.3 -07.4121 26288.2
 05 01 2013  11 19  -21.0125 26068.8 -03391.3 -07.4120 26288.4
 05 01 2013  11 20  -21.0120 26068.9 -03391.2 -07.4117 26288.6
 05 01 2013  11 21  -21.0117 26069.1 -03391.1 -07.4115 26288.7
 05 01 2013  11 22  -21.0116 26069.1 -03391.0 -07.4112 26288.7
 05 01 2013  11 23  -21.0116 26069.3 -03391.0 -07.4111 26289.0
 05 01 2013  11 24  -21.0117 26069.7 -03391.0 -07.4110 26289.3
 05 01 2013  11 25  -21.0114 26070.1 -03390.9 -07.4108 26289.7
 05 01 2013  11 26  -21.0116 26070.4 -03390.8 -07.4105 26290.0
 05 01 2013  11 27  -21.0115 26070.5 -03390.7 -07.4101 26290.1
 05 01 2013  11 28  -21.0109 26070.5 -03390.4 -07.4097 26290.1
 05 01 2013  11 29  -21.0110 26070.6 -03390.3 -07.4093 26290.1
 05 01 2013  11 30  -21.0112 26070.9 -03390.2 -07.4090 26290.4
 05 01 2013  11 31  -21.0109 26070.9 -03390.0 -07.4086 26290.4
 05 01 2013  11 32  -21.0106 26070.7 -03389.7 -07.4080 26290.2
 05 01 2013  11 33  -21.0106 26070.8 -03389.6 -07.4078 26290.3
 05 01 2013  11 34  -21.0104 26071.1 -03389.6 -07.4076 26290.6
 05 01 2013  11 35  -21.0102 26071.1 -03389.3 -07.4071 26290.5
 05 01 2013  11 36  -21.0093 26070.9 -03389.1 -07.4067 26290.2
 05 01 2013  11 37  -21.0086 26070.5 -03388.8 -07.4062 26289.9
 05 01 2013  11 38  -21.0084 26070.8 -03388.9 -07.4062 26290.1
 05 01 2013  11 39  -21.0076 26071.1 -03388.9 -07.4062 26290.4
 05 01 2013  11 40  -21.0070 26071.0 -03388.8 -07.4059 26290.3
 05 01 2013  11 41  -21.0074 26070.9 -03388.6 -07.4056 26290.1
 05 01 2013  11 42  -21.0077 26071.0 -03388.6 -07.4054 26290.2
 05 01 2013  11 43  -21.0069 26071.4 -03388.6 -07.4054 26290.7
 05 01 2013  11 44  -21.0066 26071.5 -03388.5 -07.4051 26290.8
 05 01 2013  11 45  -21.0065 26071.3 -03388.2 -07.4046 26290.6
 05 01 2013  11 46  -21.0066 26071.4 -03388.1 -07.4043 26290.6
 05 01 2013  11 47  -21.0053 26071.3 -03387.9 -07.4039 26290.5
 05 01 2013  11 48  -21.0043 26071.0 -03387.7 -07.4035 26290.2
 05 01 2013  11 49  -21.0044 26071.2 -03387.7 -07.4035 26290.4
 05 01 2013  11 50  -21.0039 26071.5 -03387.7 -07.4034 26290.7
 05 01 2013  11 51  -21.0027 26071.8 -03387.6 -07.4032 26290.9
 05 01 2013  11 52  -21.0018 26071.6 -03387.4 -07.4027 26290.7
 05 01 2013  11 53  -21.0016 26071.8 -03387.3 -07.4025 26290.9
 05 01 2013  11 54  -21.0011 26072.2 -03387.3 -07.4023 26291.3
 05 01 2013  11 55  -20.9998 26072.7 -03387.2 -07.4021 26291.8
 05 01 2013  11 56  -20.9989 26072.8 -03387.1 -07.4017 26291.9
 05 01 2013  11 57  -20.9984 26072.8 -03386.9 -07.4013 26291.9
 05 01 2013  11 58  -20.9977 26073.3 -03386.9 -07.4012 26292.4
 05 01 2013  11 59  -20.9967 26073.9 -03387.0 -07.4012 26293.0
 05 01 2013  12 00  -20.9957 26074.1 -03386.8 -07.4008 26293.2
 05 01 2013  12 01  -20.9950 26074.1 -03386.6 -07.4004 26293.1
 05 01 2013  12 02  -20.9937 26074.4 -03386.6 -07.4002 26293.4
 05 01 2013  12 03  -20.9924 26074.9 -03386.6 -07.4002 26293.9
 05 01 2013  12 04  -20.9916 26075.1 -03386.6 -07.4000 26294.1
 05 01 2013  12 05  -20.9908 26075.5 -03386.6 -07.3999 26294.5
 05 01 2013  12 06  -20.9899 26075.9 -03386.6 -07.3998 26294.9
 05 01 2013  12 07  -20.9888 26076.4 -03386.6 -07.3996 26295.4
 05 01 2013  12 08  -20.9873 26076.3 -03386.3 -07.3991 26295.2
 05 01 2013  12 09  -20.9864 26076.5 -03386.3 -07.3990 26295.4
 05 01 2013  12 10  -20.9860 26077.1 -03386.4 -07.3991 26296.0
 05 01 2013  12 11  -20.9848 26077.5 -03386.4 -07.3990 26296.5
 05 01 2013  12 12  -20.9843 26077.8 -03386.4 -07.3989 26296.8
 05 01 2013  12 13  -20.9832 26078.1 -03386.4 -07.3987 26297.0
 05 01 2013  12 14  -20.9819 26078.4 -03386.4 -07.3986 26297.3
 05 01 2013  12 15  -20.9814 26078.7 -03386.4 -07.3985 26297.6
 05 01 2013  12 16  -20.9807 26079.3 -03386.5 -07.3986 26298.2
 05 01 2013  12 17  -20.9798 26079.2 -03386.3 -07.3982 26298.1
 05 01 2013  12 18  -20.9796 26079.6 -03386.4 -07.3983 26298.6
 05 01 2013  12 19  -20.9789 26079.9 -03386.4 -07.3982 26298.9
 05 01 2013  12 20  -20.9780 26080.5 -03386.4 -07.3982 26299.5
 05 01 2013  12 21  -20.9766 26080.5 -03386.3 -07.3978 26299.4
 05 01 2013  12 22  -20.9757 26080.4 -03386.2 -07.3976 26299.3
 05 01 2013  12 23  -20.9757 26080.6 -03386.3 -07.3978 26299.5
 05 01 2013  12 24  -20.9748 26081.2 -03386.4 -07.3980 26300.1
 05 01 2013  12 25  -20.9734 26081.7 -03386.5 -07.3981 26300.6
 05 01 2013  12 26  -20.9728 26082.1 -03386.6 -07.3981 26301.1
 05 01 2013  12 27  -20.9724 26082.3 -03386.5 -07.3979 26301.2
 05 01 2013  12 28  -20.9718 26082.6 -03386.5 -07.3978 26301.5
 05 01 2013  12 29  -20.9707 26082.9 -03386.6 -07.3978 26301.8
 05 01 2013  12 30  -20.9698 26083.4 -03386.7 -07.3980 26302.3
 05 01 2013  12 31  -20.9691 26083.5 -03386.7 -07.3978 26302.4
 05 01 2013  12 32  -20.9681 26083.7 -03386.7 -07.3979 26302.6
 05 01 2013  12 33  -20.9670 26084.2 -03386.9 -07.3981 26303.2
 05 01 2013  12 34  -20.9662 26084.2 -03386.9 -07.3980 26303.2
 05 01 2013  12 35  -20.9659 26084.9 -03387.1 -07.3984 26303.8
 05 01 2013  12 36  -20.9651 26085.1 -03387.1 -07.3984 26304.1
 05 01 2013  12 37  -20.9641 26085.2 -03387.1 -07.3984 26304.2
 05 01 2013  12 38  -20.9636 26085.3 -03387.2 -07.3984 26304.3
 05 01 2013  12 39  -20.9627 26085.9 -03387.4 -07.3987 26304.9
 05 01 2013  12 40  -20.9618 26086.2 -03387.4 -07.3988 26305.2
 05 01 2013  12 41  -20.9615 26086.2 -03387.5 -07.3988 26305.3
 05 01 2013  12 42  -20.9609 26086.7 -03387.7 -07.3992 26305.7
 05 01 2013  12 43  -20.9605 26087.3 -03387.9 -07.3994 26306.4
 05 01 2013  12 44  -20.9600 26087.5 -03387.9 -07.3993 26306.6
 05 01 2013  12 45  -20.9595 26087.8 -03388.0 -07.3994 26306.9
 05 01 2013  12 46  -20.9588 26088.3 -03388.0 -07.3995 26307.3
 05 01 2013  12 47  -20.9589 26089.1 -03388.3 -07.3998 26308.2
 05 01 2013  12 48  -20.9587 26089.0 -03388.1 -07.3995 26308.1
 05 01 2013  12 49  -20.9585 26089.4 -03388.3 -07.3997 26308.5
 05 01 2013  12 50  -20.9582 26089.8 -03388.3 -07.3997 26308.9
 05 01 2013  12 51  -20.9584 26090.3 -03388.4 -07.3997 26309.4
 05 01 2013  12 52  -20.9583 26090.9 -03388.5 -07.3997 26310.1
 05 01 2013  12 53  -20.9581 26091.4 -03388.5 -07.3996 26310.5
 05 01 2013  12 54  -20.9579 26091.5 -03388.3 -07.3992 26310.6
 05 01 2013  12 55  -20.9577 26091.7 -03388.3 -07.3990 26310.7
 05 01 2013  12 56  -20.9577 26092.5 -03388.5 -07.3993 26311.6
 05 01 2013  12 57  -20.9574 26092.3 -03388.2 -07.3987 26311.4
 05 01 2013  12 58  -20.9575 26092.5 -03388.2 -07.3986 26311.6
 05 01 2013  12 59  -20.9575 26093.2 -03388.3 -07.3988 26312.2
 05 01 2013  13 00  -20.9575 26093.2 -03388.2 -07.3984 26312.3
 05 01 2013  13 01  -20.9577 26093.5 -03388.1 -07.3982 26312.6
 05 01 2013  13 02  -20.9574 26093.8 -03388.1 -07.3981 26312.9
 05 01 2013  13 03  -20.9579 26094.3 -03388.2 -07.3981 26313.3
 05 01 2013  13 04  -20.9582 26094.8 -03388.2 -07.3979 26313.8
 05 01 2013  13 05  -20.9578 26094.9 -03388.0 -07.3975 26313.9
 05 01 2013  13 06  -20.9575 26095.4 -03388.0 -07.3974 26314.5
 05 01 2013  13 07  -20.9578 26096.0 -03388.0 -07.3973 26315.0
 05 01 2013  13 08  -20.9577 26096.3 -03387.9 -07.3969 26315.3
 05 01 2013  13 09  -20.9578 26096.8 -03387.9 -07.3967 26315.8
 05 01 2013  13 10  -20.9580 26097.7 -03388.0 -07.3967 26316.7
 05 01 2013  13 11  -20.9582 26097.8 -03387.7 -07.3961 26316.8
 05 01 2013  13 12  -20.9585 26098.3 -03387.7 -07.3959 26317.3
 05 01 2013  13 13  -20.9584 26099.0 -03387.7 -07.3957 26317.9
 05 01 2013  13 14  -20.9584 26099.2 -03387.5 -07.3951 26318.1
 05 01 2013  13 15  -20.9587 26099.5 -03387.3 -07.3947 26318.4
 05 01 2013  13 16  -20.9589 26099.6 -03387.1 -07.3942 26318.4
 05 01 2013  13 17  -20.9589 26099.8 -03386.9 -07.3938 26318.7
 05 01 2013  13 18  -20.9591 26100.4 -03386.9 -07.3937 26319.3
 05 01 2013  13 19  -20.9592 26100.6 -03386.8 -07.3933 26319.4
 05 01 2013  13 20  -20.9597 26101.0 -03386.7 -07.3930 26319.8
 05 01 2013  13 21  -20.9596 26101.5 -03386.6 -07.3927 26320.2
 05 01 2013  13 22  -20.9598 26101.6 -03386.4 -07.3922 26320.3
 05 01 2013  13 23  -20.9600 26102.0 -03386.3 -07.3919 26320.8
 05 01 2013  13 24  -20.9604 26102.3 -03386.2 -07.3916 26321.0
 05 01 2013  13 25  -20.9606 26102.8 -03386.2 -07.3913 26321.5
 05 01 2013  13 26  -20.9606 26102.9 -03385.9 -07.3908 26321.6
 05 01 2013  13 27  -20.9609 26103.5 -03386.0 -07.3908 26322.2
 05 01 2013  13 28  -20.9610 26103.7 -03385.8 -07.3903 26322.4
 05 01 2013  13 29  -20.9615 26104.4 -03385.8 -07.3901 26323.0
 05 01 2013  13 30  -20.9618 26104.6 -03385.6 -07.3896 26323.2
 05 01 2013  13 31  -20.9621 26105.1 -03385.5 -07.3894 26323.7
 05 01 2013  13 32  -20.9625 26105.3 -03385.3 -07.3889 26323.9
 05 01 2013  13 33  -20.9627 26106.0 -03385.3 -07.3887 26324.6
 05 01 2013  13 34  -20.9627 26106.2 -03385.1 -07.3882 26324.8
 05 01 2013  13 35  -20.9630 26106.5 -03385.0 -07.3878 26325.1
 05 01 2013  13 36  -20.9631 26106.5 -03384.8 -07.3873 26325.0
 05 01 2013  13 37  -20.9635 26107.1 -03384.8 -07.3872 26325.6
 05 01 2013  13 38  -20.9635 26107.1 -03384.5 -07.3866 26325.6
 05 01 2013  13 39  -20.9637 26107.4 -03384.5 -07.3864 26325.9
 05 01 2013  13 40  -20.9638 26108.2 -03384.5 -07.3863 26326.7
 05 01 2013  13 41  -20.9639 26108.7 -03384.4 -07.3860 26327.2
 05 01 2013  13 42  -20.9643 26109.3 -03384.4 -07.3857 26327.7
 05 01 2013  13 43  -20.9644 26109.6 -03384.2 -07.3852 26328.0
 05 01 2013  13 44  -20.9647 26110.0 -03384.1 -07.3849 26328.4
 05 01 2013  13 45  -20.9652 26110.6 -03384.0 -07.3846 26329.0
 05 01 2013  13 46  -20.9654 26111.0 -03383.9 -07.3842 26329.3
 05 01 2013  13 47  -20.9654 26110.8 -03383.6 -07.3835 26329.1
 05 01 2013  13 48  -20.9656 26111.1 -03383.5 -07.3832 26329.4
 05 01 2013  13 49  -20.9659 26111.3 -03383.4 -07.3829 26329.6
 05 01 2013  13 50  -20.9662 26112.0 -03383.5 -07.3829 26330.3
 05 01 2013  13 51  -20.9669 26112.6 -03383.5 -07.3828 26330.9
 05 01 2013  13 52  -20.9671 26112.9 -03383.3 -07.3824 26331.1
 05 01 2013  13 53  -20.9675 26113.2 -03383.2 -07.3820 26331.4
 05 01 2013  13 54  -20.9679 26113.5 -03383.1 -07.3817 26331.7
 05 01 2013  13 55  -20.9682 26113.8 -03383.0 -07.3814 26332.0
 05 01 2013  13 56  -20.9688 26114.3 -03383.0 -07.3812 26332.5
 05 01 2013  13 57  -20.9691 26114.6 -03382.8 -07.3808 26332.8
 05 01 2013  13 58  -20.9697 26114.6 -03382.6 -07.3803 26332.8
 05 01 2013  13 59  -20.9697 26114.8 -03382.5 -07.3800 26332.9
 05 01 2013  14 00  -20.9704 26115.2 -03382.5 -07.3799 26333.3
 05 01 2013  14 01  -20.9713 26115.6 -03382.5 -07.3798 26333.7
 05 01 2013  14 02  -20.9721 26115.8 -03382.4 -07.3795 26333.9
 05 01 2013  14 03  -20.9729 26116.2 -03382.4 -07.3794 26334.3
 05 01 2013  14 04  -20.9734 26116.4 -03382.3 -07.3791 26334.5
 05 01 2013  14 05  -20.9744 26116.7 -03382.2 -07.3790 26334.8
 05 01 2013  14 06  -20.9751 26116.7 -03382.1 -07.3787 26334.8
 05 01 2013  14 07  -20.9760 26117.1 -03382.1 -07.3785 26335.2
 05 01 2013  14 08  -20.9770 26117.6 -03382.1 -07.3785 26335.7
 05 01 2013  14 09  -20.9780 26117.8 -03382.0 -07.3781 26335.9
 05 01 2013  14 10  -20.9785 26117.9 -03381.8 -07.3777 26335.9
 05 01 2013  14 11  -20.9794 26118.3 -03381.8 -07.3777 26336.3
 05 01 2013  14 12  -20.9804 26118.8 -03381.9 -07.3776 26336.8
 05 01 2013  14 13  -20.9814 26118.8 -03381.6 -07.3771 26336.8
 05 01 2013  14 14  -20.9821 26118.7 -03381.4 -07.3767 26336.7
 05 01 2013  14 15  -20.9830 26119.0 -03381.5 -07.3767 26337.0
 05 01 2013  14 16  -20.9837 26119.3 -03381.5 -07.3767 26337.3
 05 01 2013  14 17  -20.9845 26119.6 -03381.5 -07.3765 26337.6
 05 01 2013  14 18  -20.9853 26119.8 -03381.4 -07.3763 26337.7
 05 01 2013  14 19  -20.9862 26119.9 -03381.3 -07.3761 26337.9
 05 01 2013  14 20  -20.9871 26120.1 -03381.3 -07.3759 26338.1
 05 01 2013  14 21  -20.9880 26120.5 -03381.3 -07.3759 26338.4
 05 01 2013  14 22  -20.9889 26120.7 -03381.3 -07.3758 26338.6
 05 01 2013  14 23  -20.9896 26121.1 -03381.3 -07.3757 26339.0
 05 01 2013  14 24  -20.9904 26121.1 -03381.1 -07.3754 26339.0
 05 01 2013  14 25  -20.9913 26121.5 -03381.2 -07.3754 26339.4
 05 01 2013  14 26  -20.9923 26121.7 -03381.2 -07.3753 26339.6
 05 01 2013  14 27  -20.9934 26122.1 -03381.2 -07.3753 26340.1
 05 01 2013  14 28  -20.9942 26122.2 -03381.1 -07.3750 26340.1
 05 01 2013  14 29  -20.9952 26122.5 -03381.1 -07.3750 26340.5
 05 01 2013  14 30  -20.9960 26122.8 -03381.1 -07.3748 26340.7
 05 01 2013  14 31  -20.9967 26123.0 -03381.0 -07.3746 26340.9
 05 01 2013  14 32  -20.9973 26122.9 -03380.8 -07.3742 26340.8
 05 01 2013  14 33  -20.9981 26123.1 -03380.8 -07.3741 26340.9
 05 01 2013  14 34  -20.9989 26123.2 -03380.7 -07.3739 26341.0
 05 01 2013  14 35  -21.0001 26123.6 -03380.8 -07.3739 26341.5
 05 01 2013  14 36  -21.0009 26124.0 -03380.8 -07.3739 26341.8
 05 01 2013  14 37  -21.0020 26124.0 -03380.7 -07.3736 26341.8
 05 01 2013  14 38  -21.0027 26124.0 -03380.5 -07.3733 26341.8
 05 01 2013  14 39  -21.0036 26124.0 -03380.5 -07.3732 26341.8
 05 01 2013  14 40  -21.0048 26124.3 -03380.5 -07.3732 26342.1
 05 01 2013  14 41  -21.0060 26124.4 -03380.5 -07.3730 26342.2
 05 01 2013  14 42  -21.0071 26124.3 -03380.3 -07.3728 26342.1
 05 01 2013  14 43  -21.0081 26124.2 -03380.2 -07.3725 26342.0
 05 01 2013  14 44  -21.0091 26124.3 -03380.1 -07.3724 26342.1
 05 01 2013  14 45  -21.0100 26124.3 -03380.1 -07.3723 26342.1
 05 01 2013  14 46  -21.0109 26124.1 -03380.0 -07.3720 26341.9
 05 01 2013  14 47  -21.0120 26124.1 -03380.0 -07.3720 26341.9
 05 01 2013  14 48  -21.0128 26123.9 -03379.8 -07.3717 26341.7
 05 01 2013  14 49  -21.0135 26123.9 -03379.8 -07.3716 26341.7
 05 01 2013  14 50  -21.0146 26124.2 -03379.9 -07.3718 26341.9
 05 01 2013  14 51  -21.0154 26124.2 -03379.8 -07.3716 26341.9
 05 01 2013  14 52  -21.0162 26124.2 -03379.7 -07.3715 26341.9
 05 01 2013  14 53  -21.0172 26124.4 -03379.8 -07.3716 26342.2
 05 01 2013  14 54  -21.0179 26124.5 -03379.8 -07.3715 26342.2
 05 01 2013  14 55  -21.0188 26124.7 -03379.8 -07.3715 26342.4
 05 01 2013  14 56  -21.0196 26124.7 -03379.7 -07.3714 26342.5
 05 01 2013  14 57  -21.0204 26124.8 -03379.7 -07.3713 26342.5
 05 01 2013  14 58  -21.0214 26124.9 -03379.7 -07.3712 26342.6
 05 01 2013  14 59  -21.0221 26124.8 -03379.6 -07.3711 26342.5
 05 01 2013  15 00  -21.0231 26125.0 -03379.7 -07.3712 26342.7
 05 01 2013  15 01  -21.0239 26124.9 -03379.6 -07.3710 26342.6
 05 01 2013  15 02  -21.0246 26124.7 -03379.5 -07.3707 26342.4
 05 01 2013  15 03  -21.0253 26124.7 -03379.4 -07.3707 26342.4
 05 01 2013  15 04  -21.0258 26124.6 -03379.4 -07.3706 26342.3
 05 01 2013  15 05  -21.0265 26124.6 -03379.4 -07.3706 26342.2
 05 01 2013  15 06  -21.0271 26124.6 -03379.4 -07.3707 26342.3
 05 01 2013  15 07  -21.0279 26124.7 -03379.4 -07.3707 26342.3
 05 01 2013  15 08  -21.0288 26124.6 -03379.4 -07.3707 26342.3
 05 01 2013  15 09  -21.0296 26124.5 -03379.4 -07.3706 26342.2
 05 01 2013  15 10  -21.0303 26124.5 -03379.3 -07.3706 26342.2
 05 01 2013  15 11  -21.0310 26124.4 -03379.3 -07.3705 26342.1
 05 01 2013  15 12  -21.0315 26124.4 -03379.2 -07.3703 26342.1
 05 01 2013  15 13  -21.0324 26124.6 -03379.2 -07.3703 26342.3
 05 01 2013  15 14  -21.0329 26124.7 -03379.1 -07.3700 26342.3
 05 01 2013  15 15  -21.0332 26124.7 -03379.0 -07.3698 26342.4
 05 01 2013  15 16  -21.0337 26124.8 -03378.9 -07.3696 26342.4
 05 01 2013  15 17  -21.0343 26124.9 -03378.8 -07.3694 26342.5
 05 01 2013  15 18  -21.0349 26125.1 -03378.7 -07.3690 26342.6
 05 01 2013  15 19  -21.0354 26125.2 -03378.5 -07.3686 26342.8
 05 01 2013  15 20  -21.0360 26125.2 -03378.3 -07.3681 26342.8
 05 01 2013  15 21  -21.0365 26125.4 -03378.1 -07.3677 26342.9
 05 01 2013  15 22  -21.0371 26125.8 -03378.0 -07.3674 26343.3
 05 01 2013  15 23  -21.0376 26126.0 -03377.8 -07.3669 26343.5
 05 01 2013  15 24  -21.0381 26125.7 -03377.5 -07.3662 26343.1
 05 01 2013  15 25  -21.0383 26125.5 -03377.1 -07.3655 26342.9
 05 01 2013  15 26  -21.0386 26125.8 -03377.0 -07.3652 26343.2
 05 01 2013  15 27  -21.0392 26125.7 -03376.8 -07.3647 26343.1
 05 01 2013  15 28  -21.0398 26125.6 -03376.4 -07.3640 26342.9
 05 01 2013  15 29  -21.0404 26125.9 -03376.3 -07.3636 26343.1
 05 01 2013  15 30  -21.0409 26125.8 -03376.0 -07.3630 26343.0
 05 01 2013  15 31  -21.0410 26125.5 -03375.6 -07.3623 26342.7
 05 01 2013  15 32  -21.0414 26125.5 -03375.4 -07.3617 26342.6
 05 01 2013  15 33  -21.0417 26125.4 -03375.1 -07.3612 26342.5
 05 01 2013  15 34  -21.0418 26125.4 -03374.9 -07.3607 26342.4
 05 01 2013  15 35  -21.0422 26125.2 -03374.5 -07.3600 26342.2
 05 01 2013  15 36  -21.0424 26124.9 -03374.2 -07.3594 26341.9
 05 01 2013  15 37  -21.0426 26125.0 -03374.0 -07.3589 26342.0
 05 01 2013  15 38  -21.0427 26124.7 -03373.7 -07.3583 26341.7
 05 01 2013  15 39  -21.0431 26124.3 -03373.3 -07.3576 26341.2
 05 01 2013  15 40  -21.0432 26124.2 -03373.0 -07.3570 26341.1
 05 01 2013  15 41  -21.0433 26124.4 -03372.9 -07.3567 26341.2
 05 01 2013  15 42  -21.0434 26123.7 -03372.4 -07.3559 26340.5
 05 01 2013  15 43  -21.0432 26123.2 -03372.0 -07.3552 26340.0
 05 01 2013  15 44  -21.0430 26123.6 -03372.1 -07.3551 26340.4
 05 01 2013  15 45  -21.0431 26123.4 -03371.8 -07.3546 26340.1
 05 01 2013  15 46  -21.0432 26123.1 -03371.4 -07.3539 26339.7
 05 01 2013  15 47  -21.0431 26123.3 -03371.3 -07.3535 26340.0
 05 01 2013  15 48  -21.0430 26122.9 -03370.9 -07.3529 26339.5
 05 01 2013  15 49  -21.0427 26122.6 -03370.5 -07.3521 26339.1
 05 01 2013  15 50  -21.0424 26122.5 -03370.3 -07.3515 26339.1
 05 01 2013  15 51  -21.0420 26122.5 -03370.0 -07.3510 26339.0
 05 01 2013  15 52  -21.0415 26122.1 -03369.6 -07.3503 26338.6
 05 01 2013  15 53  -21.0407 26121.6 -03369.2 -07.3495 26338.0
 05 01 2013  15 54  -21.0401 26121.3 -03369.0 -07.3491 26337.7
 05 01 2013  15 55  -21.0393 26121.5 -03368.9 -07.3488 26337.8
 05 01 2013  15 56  -21.0390 26121.5 -03368.7 -07.3485 26337.8
 05 01 2013  15 57  -21.0385 26121.2 -03368.4 -07.3479 26337.4
 05 01 2013  15 58  -21.0374 26120.7 -03368.0 -07.3472 26336.9
 05 01 2013  15 59  -21.0368 26120.6 -03367.9 -07.3470 26336.8
 05 01 2013  16 00  -21.0357 26120.2 -03367.7 -07.3466 26336.4
 05 01 2013  16 01  -21.0345 26119.9 -03367.4 -07.3462 26336.1
 05 01 2013  16 02  -21.0335 26119.7 -03367.3 -07.3460 26335.8
 05 01 2013  16 03  -21.0322 26119.3 -03367.2 -07.3458 26335.5
 05 01 2013  16 04  -21.0309 26119.1 -03367.1 -07.3457 26335.2
 05 01 2013  16 05  -21.0298 26118.5 -03366.9 -07.3454 26334.7
 05 01 2013  16 06  -21.0287 26118.2 -03366.8 -07.3453 26334.3
 05 01 2013  16 07  -21.0278 26118.2 -03366.9 -07.3454 26334.3
 05 01 2013  16 08  -21.0270 26118.4 -03367.0 -07.3456 26334.5
 05 01 2013  16 09  -21.0262 26118.0 -03366.8 -07.3454 26334.2
 05 01 2013  16 10  -21.0250 26117.6 -03366.7 -07.3451 26333.7
 05 01 2013  16 11  -21.0239 26117.3 -03366.6 -07.3451 26333.4
 05 01 2013  16 12  -21.0229 26116.7 -03366.5 -07.3450 26332.7
 05 01 2013  16 13  -21.0219 26116.5 -03366.5 -07.3452 26332.6
 05 01 2013  16 14  -21.0212 26116.4 -03366.7 -07.3454 26332.5
 05 01 2013  16 15  -21.0202 26116.2 -03366.7 -07.3455 26332.3
 05 01 2013  16 16  -21.0192 26115.7 -03366.7 -07.3456 26331.8
 05 01 2013  16 17  -21.0183 26115.3 -03366.7 -07.3459 26331.4
 05 01 2013  16 18  -21.0173 26115.2 -03366.9 -07.3463 26331.4
 05 01 2013  16 19  -21.0166 26115.1 -03367.0 -07.3466 26331.2
 05 01 2013  16 20  -21.0161 26114.9 -03367.1 -07.3469 26331.1
 05 01 2013  16 21  -21.0154 26114.4 -03367.2 -07.3471 26330.6
 05 01 2013  16 22  -21.0146 26114.0 -03367.2 -07.3472 26330.2
 05 01 2013  16 23  -21.0141 26113.9 -03367.3 -07.3475 26330.1
 05 01 2013  16 24  -21.0135 26113.3 -03367.3 -07.3476 26329.5
 05 01 2013  16 25  -21.0128 26113.1 -03367.4 -07.3481 26329.3
 05 01 2013  16 26  -21.0123 26113.1 -03367.7 -07.3485 26329.3
 05 01 2013  16 27  -21.0117 26112.9 -03367.8 -07.3488 26329.2
 05 01 2013  16 28  -21.0110 26112.6 -03367.8 -07.3490 26328.9
 05 01 2013  16 29  -21.0102 26112.3 -03367.9 -07.3493 26328.6
 05 01 2013  16 30  -21.0095 26112.2 -03368.1 -07.3497 26328.5
 05 01 2013  16 31  -21.0089 26112.0 -03368.2 -07.3501 26328.3
 05 01 2013  16 32  -21.0082 26111.9 -03368.4 -07.3506 26328.2
 05 01 2013  16 33  -21.0076 26111.8 -03368.7 -07.3511 26328.2
 05 01 2013  16 34  -21.0071 26111.6 -03368.9 -07.3516 26328.0
 05 01 2013  16 35  -21.0066 26111.5 -03369.2 -07.3522 26327.9
 05 01 2013  16 36  -21.0060 26111.3 -03369.4 -07.3528 26327.8
 05 01 2013  16 37  -21.0054 26110.9 -03369.6 -07.3533 26327.4
 05 01 2013  16 38  -21.0052 26110.8 -03369.9 -07.3540 26327.3
 05 01 2013  16 39  -21.0053 26111.1 -03370.3 -07.3548 26327.7
 05 01 2013  16 40  -21.0055 26111.1 -03370.6 -07.3554 26327.8
 05 01 2013  16 41  -21.0054 26110.8 -03370.7 -07.3557 26327.5
 05 01 2013  16 42  -21.0051 26110.6 -03370.9 -07.3562 26327.3
 05 01 2013  16 43  -21.0048 26110.3 -03371.1 -07.3567 26327.0
 05 01 2013  16 44  -21.0043 26110.1 -03371.3 -07.3573 26326.8
 05 01 2013  16 45  -21.0042 26109.8 -03371.6 -07.3579 26326.6
 05 01 2013  16 46  -21.0041 26109.5 -03371.8 -07.3585 26326.4
 05 01 2013  16 47  -21.0041 26109.4 -03372.1 -07.3591 26326.3
 05 01 2013  16 48  -21.0042 26109.3 -03372.3 -07.3595 26326.2
 05 01 2013  16 49  -21.0042 26109.1 -03372.4 -07.3598 26326.0
 05 01 2013  16 50  -21.0041 26108.8 -03372.5 -07.3602 26325.7
 05 01 2013  16 51  -21.0039 26108.6 -03372.6 -07.3605 26325.5
 05 01 2013  16 52  -21.0042 26108.5 -03372.8 -07.3609 26325.4
 05 01 2013  16 53  -21.0044 26108.3 -03372.9 -07.3612 26325.3
 05 01 2013  16 54  -21.0047 26108.1 -03373.0 -07.3614 26325.1
 05 01 2013  16 55  -21.0048 26108.0 -03373.1 -07.3616 26325.0
 05 01 2013  16 56  -21.0050 26107.7 -03373.0 -07.3616 26324.7
 05 01 2013  16 57  -21.0053 26107.5 -03373.1 -07.3617 26324.5
 05 01 2013  16 58  -21.0056 26107.4 -03373.1 -07.3619 26324.5
 05 01 2013  16 59  -21.0059 26107.3 -03373.1 -07.3620 26324.3
 05 01 2013  17 00  -21.0060 26107.2 -03373.1 -07.3620 26324.2
 05 01 2013  17 01  -21.0063 26107.0 -03373.1 -07.3620 26324.0
 05 01 2013  17 02  -21.0068 26106.9 -03373.1 -07.3620 26323.9
 05 01 2013  17 03  -21.0071 26106.8 -03373.0 -07.3619 26323.8
 05 01 2013  17 04  -21.0074 26106.6 -03373.0 -07.3618 26323.6
 05 01 2013  17 05  -21.0079 26106.4 -03372.9 -07.3616 26323.3
 05 01 2013  17 06  -21.0083 26106.2 -03372.8 -07.3615 26323.1
 05 01 2013  17 07  -21.0085 26105.9 -03372.6 -07.3612 26322.9
 05 01 2013  17 08  -21.0088 26105.6 -03372.5 -07.3610 26322.6
 05 01 2013  17 09  -21.0091 26105.4 -03372.4 -07.3609 26322.3
 05 01 2013  17 10  -21.0095 26105.3 -03372.3 -07.3607 26322.2
 05 01 2013  17 11  -21.0098 26105.0 -03372.2 -07.3606 26321.9
 05 01 2013  17 12  -21.0099 26104.6 -03372.0 -07.3602 26321.5
 05 01 2013  17 13  -21.0102 26104.3 -03371.8 -07.3600 26321.1
 05 01 2013  17 14  -21.0102 26104.0 -03371.7 -07.3598 26320.9
 05 01 2013  17 15  -21.0103 26103.8 -03371.6 -07.3596 26320.6
 05 01 2013  17 16  -21.0102 26103.4 -03371.4 -07.3593 26320.2
 05 01 2013  17 17  -21.0101 26103.0 -03371.2 -07.3590 26319.8
 05 01 2013  17 18  -21.0101 26102.7 -03371.1 -07.3589 26319.5
 05 01 2013  17 19  -21.0100 26102.4 -03371.0 -07.3587 26319.1
 05 01 2013  17 20  -21.0100 26102.0 -03370.9 -07.3585 26318.8
 05 01 2013  17 21  -21.0099 26101.7 -03370.8 -07.3584 26318.5
 05 01 2013  17 22  -21.0097 26101.3 -03370.6 -07.3582 26318.0
 05 01 2013  17 23  -21.0096 26101.0 -03370.5 -07.3581 26317.7
 05 01 2013  17 24  -21.0095 26100.8 -03370.5 -07.3581 26317.5
 05 01 2013  17 25  -21.0095 26100.6 -03370.4 -07.3580 26317.3
 05 01 2013  17 26  -21.0094 26100.4 -03370.4 -07.3580 26317.1
 05 01 2013  17 27  -21.0093 26100.2 -03370.4 -07.3579 26316.9
 05 01 2013  17 28  -21.0091 26099.9 -03370.3 -07.3579 26316.7
 05 01 2013  17 29  -21.0089 26099.7 -03370.2 -07.3579 26316.4
 05 01 2013  17 30  -21.0088 26099.3 -03370.2 -07.3578 26316.0
 05 01 2013  17 31  -21.0088 26099.1 -03370.2 -07.3579 26315.8
 05 01 2013  17 32  -21.0087 26098.8 -03370.2 -07.3579 26315.5
 05 01 2013  17 33  -21.0086 26098.5 -03370.1 -07.3580 26315.2
 05 01 2013  17 34  -21.0086 26098.2 -03370.1 -07.3580 26314.9
 05 01 2013  17 35  -21.0085 26097.9 -03370.1 -07.3580 26314.6
 05 01 2013  17 36  -21.0083 26097.6 -03370.1 -07.3580 26314.3
 05 01 2013  17 37  -21.0082 26097.3 -03370.1 -07.3581 26314.0
 05 01 2013  17 38  -21.0082 26096.9 -03370.1 -07.3582 26313.6
 05 01 2013  17 39  -21.0081 26096.7 -03370.1 -07.3584 26313.4
 05 01 2013  17 40  -21.0082 26096.4 -03370.2 -07.3586 26313.2
 05 01 2013  17 41  -21.0083 26096.2 -03370.2 -07.3587 26312.9
 05 01 2013  17 42  -21.0084 26095.9 -03370.2 -07.3588 26312.6
 05 01 2013  17 43  -21.0084 26095.6 -03370.3 -07.3591 26312.4
 05 01 2013  17 44  -21.0085 26095.5 -03370.4 -07.3593 26312.2
 05 01 2013  17 45  -21.0085 26095.2 -03370.4 -07.3595 26312.0
 05 01 2013  17 46  -21.0085 26095.0 -03370.5 -07.3597 26311.8
 05 01 2013  17 47  -21.0086 26094.7 -03370.5 -07.3599 26311.5
 05 01 2013  17 48  -21.0085 26094.3 -03370.5 -07.3600 26311.1
 05 01 2013  17 49  -21.0084 26094.1 -03370.7 -07.3604 26310.9
 05 01 2013  17 50  -21.0086 26094.0 -03370.9 -07.3608 26310.8
 05 01 2013  17 51  -21.0089 26093.7 -03371.0 -07.3612 26310.6
 05 01 2013  17 52  -21.0092 26093.5 -03371.1 -07.3614 26310.4
 05 01 2013  17 53  -21.0094 26093.3 -03371.2 -07.3617 26310.2
 05 01 2013  17 54  -21.0097 26093.1 -03371.3 -07.3620 26310.0
 05 01 2013  17 55  -21.0101 26092.9 -03371.5 -07.3624 26309.8
 05 01 2013  17 56  -21.0104 26092.7 -03371.6 -07.3628 26309.6
 05 01 2013  17 57  -21.0108 26092.5 -03371.8 -07.3632 26309.4
 05 01 2013  17 58  -21.0109 26092.3 -03371.9 -07.3636 26309.2
 05 01 2013  17 59  -21.0113 26091.9 -03372.1 -07.3639 26308.9
 05 01 2013  18 00  -21.0115 26091.5 -03372.1 -07.3642 26308.5
 05 01 2013  18 01  -21.0118 26091.2 -03372.3 -07.3646 26308.3
 05 01 2013  18 02  -21.0124 26091.2 -03372.6 -07.3652 26308.2
 05 01 2013  18 03  -21.0130 26091.0 -03372.8 -07.3657 26308.1
 05 01 2013  18 04  -21.0135 26090.8 -03372.9 -07.3661 26307.9
 05 01 2013  18 05  -21.0141 26090.6 -03373.1 -07.3665 26307.8
 05 01 2013  18 06  -21.0144 26090.4 -03373.3 -07.3670 26307.5
 05 01 2013  18 07  -21.0150 26090.0 -03373.4 -07.3674 26307.2
 05 01 2013  18 08  -21.0159 26089.7 -03373.6 -07.3679 26307.0
 05 01 2013  18 09  -21.0167 26089.5 -03373.8 -07.3683 26306.8
 05 01 2013  18 10  -21.0175 26089.3 -03373.9 -07.3687 26306.5
 05 01 2013  18 11  -21.0182 26089.0 -03374.1 -07.3691 26306.3
 05 01 2013  18 12  -21.0192 26088.7 -03374.3 -07.3696 26306.1
 05 01 2013  18 13  -21.0202 26088.4 -03374.4 -07.3699 26305.7
 05 01 2013  18 14  -21.0210 26087.8 -03374.4 -07.3701 26305.2
 05 01 2013  18 15  -21.0219 26087.5 -03374.5 -07.3704 26304.8
 05 01 2013  18 16  -21.0230 26087.1 -03374.7 -07.3709 26304.5
 05 01 2013  18 17  -21.0238 26086.8 -03374.8 -07.3713 26304.2
 05 01 2013  18 18  -21.0249 26086.6 -03375.1 -07.3719 26304.0
 05 01 2013  18 19  -21.0259 26086.4 -03375.3 -07.3724 26303.8
 05 01 2013  18 20  -21.0269 26086.1 -03375.5 -07.3729 26303.6
 05 01 2013  18 21  -21.0277 26085.9 -03375.7 -07.3734 26303.4
 05 01 2013  18 22  -21.0287 26085.7 -03375.9 -07.3739 26303.2
 05 01 2013  18 23  -21.0296 26085.4 -03376.0 -07.3744 26303.0
 05 01 2013  18 24  -21.0304 26085.1 -03376.2 -07.3748 26302.7
 05 01 2013  18 25  -21.0312 26084.9 -03376.5 -07.3754 26302.6
 05 01 2013  18 26  -21.0320 26084.7 -03376.8 -07.3761 26302.4
 05 01 2013  18 27  -21.0327 26084.3 -03376.9 -07.3766 26302.0
 05 01 2013  18 28  -21.0334 26083.8 -03377.1 -07.3770 26301.5
 05 01 2013  18 29  -21.0343 26083.5 -03377.3 -07.3777 26301.3
 05 01 2013  18 30  -21.0351 26083.4 -03377.6 -07.3784 26301.2
 05 01 2013  18 31  -21.0359 26082.8 -03377.8 -07.3788 26300.6
 05 01 2013  18 32  -21.0366 26082.8 -03378.1 -07.3795 26300.7
 05 01 2013  18 33  -21.0374 26082.4 -03378.3 -07.3801 26300.3
 05 01 2013  18 34  -21.0382 26082.1 -03378.5 -07.3806 26300.0
 05 01 2013  18 35  -21.0390 26081.9 -03378.8 -07.3813 26299.8
 05 01 2013  18 36  -21.0399 26081.5 -03379.0 -07.3818 26299.5
 05 01 2013  18 37  -21.0407 26081.2 -03379.2 -07.3823 26299.2
 05 01 2013  18 38  -21.0415 26081.1 -03379.5 -07.3830 26299.1
 05 01 2013  18 39  -21.0422 26080.8 -03379.7 -07.3835 26298.9
 05 01 2013  18 40  -21.0428 26080.5 -03379.9 -07.3840 26298.5
 05 01 2013  18 41  -21.0436 26080.2 -03380.1 -07.3846 26298.3
 05 01 2013  18 42  -21.0443 26079.9 -03380.3 -07.3851 26298.1
 05 01 2013  18 43  -21.0450 26079.7 -03380.5 -07.3857 26297.9
 05 01 2013  18 44  -21.0458 26079.6 -03380.7 -07.3862 26297.8
 05 01 2013  18 45  -21.0465 26079.4 -03380.9 -07.3866 26297.6
 05 01 2013  18 46  -21.0471 26079.2 -03381.1 -07.3870 26297.4
 05 01 2013  18 47  -21.0477 26079.0 -03381.3 -07.3874 26297.3
 05 01 2013  18 48  -21.0482 26078.7 -03381.4 -07.3878 26297.0
 05 01 2013  18 49  -21.0489 26078.6 -03381.5 -07.3881 26296.9
 05 01 2013  18 50  -21.0495 26078.5 -03381.7 -07.3885 26296.8
 05 01 2013  18 51  -21.0500 26078.4 -03381.8 -07.3888 26296.7
 05 01 2013  18 52  -21.0505 26078.1 -03381.9 -07.3890 26296.5
 05 01 2013  18 53  -21.0510 26077.9 -03382.0 -07.3892 26296.3
 05 01 2013  18 54  -21.0514 26077.7 -03382.0 -07.3894 26296.1
 05 01 2013  18 55  -21.0518 26077.4 -03382.0 -07.3895 26295.7
 05 01 2013  18 56  -21.0521 26077.1 -03382.0 -07.3896 26295.5
 05 01 2013  18 57  -21.0523 26076.9 -03382.1 -07.3897 26295.3
 05 01 2013  18 58  -21.0527 26076.7 -03382.1 -07.3899 26295.1
 05 01 2013  18 59  -21.0529 26076.5 -03382.1 -07.3900 26295.0
 05 01 2013  19 00  -21.0532 26076.4 -03382.2 -07.3902 26294.8
 05 01 2013  19 01  -21.0535 26076.2 -03382.2 -07.3903 26294.6
 05 01 2013  19 02  -21.0538 26076.0 -03382.3 -07.3904 26294.4
 05 01 2013  19 03  -21.0541 26075.9 -03382.3 -07.3905 26294.3
 05 01 2013  19 04  -21.0545 26075.7 -03382.3 -07.3906 26294.1
 05 01 2013  19 05  -21.0546 26075.5 -03382.3 -07.3907 26293.9
 05 01 2013  19 06  -21.0550 26075.3 -03382.3 -07.3908 26293.8
 05 01 2013  19 07  -21.0553 26075.1 -03382.3 -07.3908 26293.5
 05 01 2013  19 08  -21.0554 26074.8 -03382.3 -07.3908 26293.2
 05 01 2013  19 09  -21.0554 26074.5 -03382.3 -07.3909 26292.9
 05 01 2013  19 10  -21.0556 26074.4 -03382.4 -07.3911 26292.8
 05 01 2013  19 11  -21.0558 26074.1 -03382.3 -07.3911 26292.6
 05 01 2013  19 12  -21.0560 26073.8 -03382.3 -07.3911 26292.3
 05 01 2013  19 13  -21.0561 26073.9 -03382.4 -07.3914 26292.4
 05 01 2013  19 14  -21.0562 26073.6 -03382.4 -07.3914 26292.1
 05 01 2013  19 15  -21.0563 26073.3 -03382.4 -07.3915 26291.8
 05 01 2013  19 16  -21.0563 26073.1 -03382.5 -07.3917 26291.6
 05 01 2013  19 17  -21.0565 26073.0 -03382.5 -07.3919 26291.5
 05 01 2013  19 18  -21.0567 26072.7 -03382.5 -07.3920 26291.2
 05 01 2013  19 19  -21.0569 26072.6 -03382.6 -07.3922 26291.1
 05 01 2013  19 20  -21.0570 26072.5 -03382.7 -07.3923 26291.0
 05 01 2013  19 21  -21.0570 26072.2 -03382.6 -07.3923 26290.7
 05 01 2013  19 22  -21.0569 26072.0 -03382.7 -07.3925 26290.6
 05 01 2013  19 23  -21.0569 26072.0 -03382.8 -07.3927 26290.6
 05 01 2013  19 24  -21.0568 26071.9 -03382.9 -07.3929 26290.5
 05 01 2013  19 25  -21.0568 26071.3 -03382.7 -07.3926 26289.8
 05 01 2013  19 26  -21.0568 26071.6 -03382.8 -07.3929 26290.1
 05 01 2013  19 27  -21.0567 26071.5 -03382.9 -07.3930 26290.0
 05 01 2013  19 28  -21.0566 26071.0 -03382.7 -07.3928 26289.5
 05 01 2013  19 29  -21.0565 26071.0 -03382.8 -07.3929 26289.5
 05 01 2013  19 30  -21.0564 26071.2 -03382.9 -07.3932 26289.7
 05 01 2013  19 31  -21.0562 26070.5 -03382.7 -07.3930 26289.1
 05 01 2013  19 32  -21.0559 26070.5 -03382.8 -07.3931 26289.1
 05 01 2013  19 33  -21.0558 26070.5 -03382.8 -07.3932 26289.1
 05 01 2013  19 34  -21.0555 26070.3 -03382.8 -07.3931 26288.8
 05 01 2013  19 35  -21.0552 26070.3 -03382.8 -07.3933 26288.9
 05 01 2013  19 36  -21.0550 26070.4 -03382.9 -07.3934 26289.0
 05 01 2013  19 37  -21.0550 26070.1 -03382.8 -07.3934 26288.6
 05 01 2013  19 38  -21.0549 26070.0 -03382.8 -07.3934 26288.6
 05 01 2013  19 39  -21.0548 26069.8 -03382.8 -07.3933 26288.4
 05 01 2013  19 40  -21.0546 26069.7 -03382.7 -07.3932 26288.2
 05 01 2013  19 41  -21.0545 26069.7 -03382.8 -07.3933 26288.3
 05 01 2013  19 42  -21.0545 26069.6 -03382.8 -07.3933 26288.2
 05 01 2013  19 43  -21.0545 26069.4 -03382.7 -07.3932 26287.9
 05 01 2013  19 44  -21.0545 26069.2 -03382.6 -07.3931 26287.7
 05 01 2013  19 45  -21.0543 26068.9 -03382.5 -07.3928 26287.4
 05 01 2013  19 46  -21.0543 26068.7 -03382.4 -07.3928 26287.2
 05 01 2013  19 47  -21.0541 26068.6 -03382.4 -07.3928 26287.2
 05 01 2013  19 48  -21.0540 26068.4 -03382.3 -07.3927 26286.9
 05 01 2013  19 49  -21.0539 26068.2 -03382.2 -07.3926 26286.7
 05 01 2013  19 50  -21.0540 26068.1 -03382.2 -07.3926 26286.6
 05 01 2013  19 51  -21.0539 26067.8 -03382.2 -07.3925 26286.3
 05 01 2013  19 52  -21.0538 26067.5 -03382.1 -07.3923 26286.0
 05 01 2013  19 53  -21.0536 26067.5 -03382.0 -07.3924 26286.0
 05 01 2013  19 54  -21.0535 26067.3 -03382.0 -07.3923 26285.8
 05 01 2013  19 55  -21.0533 26067.0 -03381.9 -07.3922 26285.5
 05 01 2013  19 56  -21.0532 26066.9 -03381.9 -07.3922 26285.4
 05 01 2013  19 57  -21.0531 26066.9 -03381.9 -07.3922 26285.3
 05 01 2013  19 58  -21.0530 26066.7 -03381.8 -07.3922 26285.1
 05 01 2013  19 59  -21.0529 26066.6 -03381.9 -07.3922 26285.1
 05 01 2013  20 00  -21.0528 26066.6 -03381.9 -07.3922 26285.0
 05 01 2013  20 01  -21.0527 26066.4 -03381.8 -07.3922 26284.8
 05 01 2013  20 02  -21.0524 26066.1 -03381.8 -07.3921 26284.6
 05 01 2013  20 03  -21.0521 26066.2 -03381.8 -07.3923 26284.6
 05 01 2013  20 04  -21.0518 26066.0 -03381.8 -07.3923 26284.5
 05 01 2013  20 05  -21.0516 26066.0 -03381.9 -07.3924 26284.4
 05 01 2013  20 06  -21.0514 26066.0 -03382.0 -07.3926 26284.5
 05 01 2013  20 07  -21.0512 26065.8 -03382.0 -07.3926 26284.3
 05 01 2013  20 08  -21.0511 26065.7 -03381.9 -07.3926 26284.1
 05 01 2013  20 09  -21.0510 26065.6 -03382.0 -07.3927 26284.1
 05 01 2013  20 10  -21.0509 26065.5 -03382.0 -07.3928 26283.9
 05 01 2013  20 11  -21.0507 26065.3 -03382.0 -07.3928 26283.8
 05 01 2013  20 12  -21.0504 26065.2 -03382.0 -07.3929 26283.7
 05 01 2013  20 13  -21.0503 26065.0 -03382.0 -07.3929 26283.5
 05 01 2013  20 14  -21.0501 26064.9 -03382.0 -07.3930 26283.4
 05 01 2013  20 15  -21.0498 26064.7 -03382.0 -07.3930 26283.2
 05 01 2013  20 16  -21.0496 26064.6 -03382.0 -07.3930 26283.1
 05 01 2013  20 17  -21.0493 26064.5 -03382.0 -07.3930 26283.0
 05 01 2013  20 18  -21.0491 26064.4 -03382.0 -07.3932 26282.9
 05 01 2013  20 19  -21.0488 26064.4 -03382.1 -07.3933 26282.9
 05 01 2013  20 20  -21.0484 26064.2 -03382.1 -07.3933 26282.8
 05 01 2013  20 21  -21.0481 26064.2 -03382.1 -07.3934 26282.7
 05 01 2013  20 22  -21.0477 26064.0 -03382.1 -07.3934 26282.5
 05 01 2013  20 23  -21.0474 26063.9 -03382.0 -07.3933 26282.4
 05 01 2013  20 24  -21.0470 26063.9 -03382.1 -07.3935 26282.4
 05 01 2013  20 25  -21.0466 26063.9 -03382.2 -07.3937 26282.4
 05 01 2013  20 26  -21.0463 26063.8 -03382.2 -07.3938 26282.3
 05 01 2013  20 27  -21.0461 26063.8 -03382.3 -07.3940 26282.3
 05 01 2013  20 28  -21.0457 26063.7 -03382.4 -07.3941 26282.3
 05 01 2013  20 29  -21.0453 26063.7 -03382.4 -07.3942 26282.2
 05 01 2013  20 30  -21.0451 26063.5 -03382.4 -07.3942 26282.1
 05 01 2013  20 31  -21.0448 26063.5 -03382.4 -07.3943 26282.1
 05 01 2013  20 32  -21.0445 26063.4 -03382.5 -07.3944 26281.9
 05 01 2013  20 33  -21.0443 26063.3 -03382.5 -07.3945 26281.9
 05 01 2013  20 34  -21.0441 26063.2 -03382.5 -07.3945 26281.8
 05 01 2013  20 35  -21.0438 26063.1 -03382.5 -07.3946 26281.7
 05 01 2013  20 36  -21.0435 26063.1 -03382.6 -07.3947 26281.7
 05 01 2013  20 37  -21.0434 26063.1 -03382.6 -07.3948 26281.7
 05 01 2013  20 38  -21.0432 26063.0 -03382.7 -07.3949 26281.6
 05 01 2013  20 39  -21.0431 26063.0 -03382.7 -07.3950 26281.6
 05 01 2013  20 40  -21.0428 26062.9 -03382.7 -07.3950 26281.5
 05 01 2013  20 41  -21.0427 26062.7 -03382.7 -07.3950 26281.3
 05 01 2013  20 42  -21.0424 26062.7 -03382.7 -07.3950 26281.3
 05 01 2013  20 43  -21.0423 26062.7 -03382.7 -07.3951 26281.3
 05 01 2013  20 44  -21.0422 26062.6 -03382.7 -07.3951 26281.2
 05 01 2013  20 45  -21.0420 26062.6 -03382.7 -07.3952 26281.2
 05 01 2013  20 46  -21.0418 26062.6 -03382.7 -07.3952 26281.2
 05 01 2013  20 47  -21.0417 26062.5 -03382.7 -07.3952 26281.1
 05 01 2013  20 48  -21.0415 26062.4 -03382.7 -07.3952 26281.0
 05 01 2013  20 49  -21.0413 26062.4 -03382.7 -07.3953 26281.0
 05 01 2013  20 50  -21.0412 26062.3 -03382.7 -07.3953 26280.9
 05 01 2013  20 51  -21.0410 26062.3 -03382.7 -07.3953 26280.9
 05 01 2013  20 52  -21.0409 26062.1 -03382.7 -07.3953 26280.7
 05 01 2013  20 53  -21.0406 26062.1 -03382.7 -07.3952 26280.7
 05 01 2013  20 54  -21.0405 26061.9 -03382.7 -07.3952 26280.5
 05 01 2013  20 55  -21.0402 26061.8 -03382.6 -07.3951 26280.4
 05 01 2013  20 56  -21.0399 26061.7 -03382.6 -07.3953 26280.4
 05 01 2013  20 57  -21.0397 26061.7 -03382.7 -07.3953 26280.3
 05 01 2013  20 58  -21.0394 26061.6 -03382.6 -07.3953 26280.2
 05 01 2013  20 59  -21.0390 26061.7 -03382.7 -07.3953 26280.3
 05 01 2013  21 00  -21.0386 26061.6 -03382.7 -07.3954 26280.2
 05 01 2013  21 01  -21.0383 26061.6 -03382.7 -07.3954 26280.2
 05 01 2013  21 02  -21.0379 26061.6 -03382.7 -07.3955 26280.2
 05 01 2013  21 03  -21.0376 26061.5 -03382.7 -07.3955 26280.1
 05 01 2013  21 04  -21.0372 26061.5 -03382.7 -07.3955 26280.1
 05 01 2013  21 05  -21.0368 26061.5 -03382.8 -07.3956 26280.1
 05 01 2013  21 06  -21.0364 26061.5 -03382.8 -07.3957 26280.1
 05 01 2013  21 07  -21.0360 26061.5 -03382.9 -07.3958 26280.2
 05 01 2013  21 08  -21.0356 26061.5 -03382.9 -07.3959 26280.1
 05 01 2013  21 09  -21.0352 26061.4 -03382.9 -07.3960 26280.1
 05 01 2013  21 10  -21.0348 26061.4 -03383.0 -07.3962 26280.0
 05 01 2013  21 11  -21.0344 26061.4 -03383.1 -07.3964 26280.1
 05 01 2013  21 12  -21.0340 26061.5 -03383.2 -07.3965 26280.2
 05 01 2013  21 13  -21.0339 26061.5 -03383.3 -07.3967 26280.1
 05 01 2013  21 14  -21.0337 26061.4 -03383.3 -07.3968 26280.1
 05 01 2013  21 15  -21.0335 26061.4 -03383.4 -07.3970 26280.1
 05 01 2013  21 16  -21.0332 26061.4 -03383.4 -07.3971 26280.1
 05 01 2013  21 17  -21.0330 26061.3 -03383.5 -07.3972 26280.0
 05 01 2013  21 18  -21.0330 26061.3 -03383.6 -07.3974 26280.0
 05 01 2013  21 19  -21.0330 26061.3 -03383.7 -07.3976 26280.1
 05 01 2013  21 20  -21.0330 26061.4 -03383.7 -07.3977 26280.1
 05 01 2013  21 21  -21.0328 26061.3 -03383.7 -07.3977 26280.0
 05 01 2013  21 22  -21.0327 26061.3 -03383.7 -07.3977 26280.0
 05 01 2013  21 23  -21.0327 26061.3 -03383.8 -07.3978 26280.1
 05 01 2013  21 24  -21.0326 26061.3 -03383.8 -07.3978 26280.0
 05 01 2013  21 25  -21.0324 26061.3 -03383.8 -07.3978 26280.1
 05 01 2013  21 26  -21.0323 26061.3 -03383.8 -07.3978 26280.1
 05 01 2013  21 27  -21.0320 26061.3 -03383.7 -07.3978 26280.0
 05 01 2013  21 28  -21.0317 26061.3 -03383.7 -07.3977 26280.0
 05 01 2013  21 29  -21.0313 26061.3 -03383.7 -07.3976 26280.1
 05 01 2013  21 30  -21.0310 26061.3 -03383.7 -07.3977 26280.0
 05 01 2013  21 31  -21.0304 26061.3 -03383.7 -07.3976 26280.0
 05 01 2013  21 32  -21.0301 26061.3 -03383.7 -07.3976 26280.0
 05 01 2013  21 33  -21.0298 26061.2 -03383.7 -07.3977 26280.0
 05 01 2013  21 34  -21.0295 26061.2 -03383.7 -07.3977 26279.9
 05 01 2013  21 35  -21.0291 26061.2 -03383.7 -07.3978 26280.0
 05 01 2013  21 36  -21.0286 26061.3 -03383.7 -07.3978 26280.0
 05 01 2013  21 37  -21.0281 26061.3 -03383.8 -07.3978 26280.1
 05 01 2013  21 38  -21.0277 26061.3 -03383.8 -07.3979 26280.0
 05 01 2013  21 39  -21.0273 26061.2 -03383.8 -07.3979 26280.0
 05 01 2013  21 40  -21.0270 26061.0 -03383.8 -07.3980 26279.8
 05 01 2013  21 41  -21.0265 26061.1 -03383.8 -07.3980 26279.9
 05 01 2013  21 42  -21.0261 26061.1 -03383.9 -07.3982 26279.9
 05 01 2013  21 43  -21.0256 26061.1 -03384.0 -07.3983 26279.9
 05 01 2013  21 44  -21.0253 26061.1 -03384.1 -07.3985 26279.9
 05 01 2013  21 45  -21.0249 26061.0 -03384.1 -07.3986 26279.7
 05 01 2013  21 46  -21.0245 26060.9 -03384.1 -07.3986 26279.7
 05 01 2013  21 47  -21.0241 26060.8 -03384.2 -07.3988 26279.6
 05 01 2013  21 48  -21.0237 26060.7 -03384.2 -07.3989 26279.5
 05 01 2013  21 49  -21.0233 26060.7 -03384.3 -07.3990 26279.5
 05 01 2013  21 50  -21.0230 26060.6 -03384.3 -07.3992 26279.5
 05 01 2013  21 51  -21.0227 26060.5 -03384.4 -07.3994 26279.4
 05 01 2013  21 52  -21.0224 26060.5 -03384.5 -07.3996 26279.4
 05 01 2013  21 53  -21.0221 26060.5 -03384.6 -07.3998 26279.3
 05 01 2013  21 54  -21.0219 26060.4 -03384.7 -07.4000 26279.2
 05 01 2013  21 55  -21.0216 26060.4 -03384.7 -07.4001 26279.3
 05 01 2013  21 56  -21.0214 26060.3 -03384.8 -07.4003 26279.2
 05 01 2013  21 57  -21.0212 26060.3 -03384.9 -07.4005 26279.2
 05 01 2013  21 58  -21.0209 26060.3 -03385.0 -07.4007 26279.2
 05 01 2013  21 59  -21.0208 26060.2 -03385.1 -07.4009 26279.1
 05 01 2013  22 00  -21.0203 26060.2 -03385.1 -07.4010 26279.1
 05 01 2013  22 01  -21.0200 26060.2 -03385.1 -07.4011 26279.1
 05 01 2013  22 02  -21.0198 26060.1 -03385.2 -07.4012 26279.0
 05 01 2013  22 03  -21.0197 26059.9 -03385.3 -07.4014 26278.9
 05 01 2013  22 04  -21.0195 26059.9 -03385.3 -07.4014 26278.8
 05 01 2013  22 05  -21.0193 26059.8 -03385.3 -07.4016 26278.8
 05 01 2013  22 06  -21.0190 26059.8 -03385.4 -07.4017 26278.8
 05 01 2013  22 07  -21.0188 26059.8 -03385.4 -07.4018 26278.7
 05 01 2013  22 08  -21.0185 26059.7 -03385.5 -07.4020 26278.7
 05 01 2013  22 09  -21.0181 26059.7 -03385.5 -07.4021 26278.7
 05 01 2013  22 10  -21.0178 26059.6 -03385.5 -07.4021 26278.6
 05 01 2013  22 11  -21.0176 26059.5 -03385.6 -07.4022 26278.5
 05 01 2013  22 12  -21.0175 26059.4 -03385.6 -07.4023 26278.5
 05 01 2013  22 13  -21.0172 26059.4 -03385.7 -07.4025 26278.5
 05 01 2013  22 14  -21.0169 26059.4 -03385.7 -07.4026 26278.4
 05 01 2013  22 15  -21.0166 26059.4 -03385.8 -07.4027 26278.4
 05 01 2013  22 16  -21.0163 26059.3 -03385.9 -07.4029 26278.3
 05 01 2013  22 17  -21.0162 26059.3 -03385.9 -07.4030 26278.4
 05 01 2013  22 18  -21.0160 26059.3 -03386.0 -07.4032 26278.3
 05 01 2013  22 19  -21.0158 26059.3 -03386.1 -07.4033 26278.3
 05 01 2013  22 20  -21.0157 26059.3 -03386.1 -07.4035 26278.4
 05 01 2013  22 21  -21.0155 26059.3 -03386.2 -07.4036 26278.4
 05 01 2013  22 22  -21.0153 26059.2 -03386.2 -07.4037 26278.3
 05 01 2013  22 23  -21.0151 26059.3 -03386.3 -07.4039 26278.4
 05 01 2013  22 24  -21.0151 26059.3 -03386.4 -07.4041 26278.4
 05 01 2013  22 25  -21.0148 26059.3 -03386.5 -07.4042 26278.4
 05 01 2013  22 26  -21.0146 26059.3 -03386.5 -07.4043 26278.5
 05 01 2013  22 27  -21.0144 26059.4 -03386.6 -07.4045 26278.5
 05 01 2013  22 28  -21.0143 26059.4 -03386.7 -07.4046 26278.5
 05 01 2013  22 29  -21.0142 26059.4 -03386.7 -07.4047 26278.5
 05 01 2013  22 30  -21.0141 26059.3 -03386.7 -07.4047 26278.4
 05 01 2013  22 31  -21.0139 26059.2 -03386.7 -07.4047 26278.4
 05 01 2013  22 32  -21.0137 26059.2 -03386.7 -07.4048 26278.4
 05 01 2013  22 33  -21.0135 26059.2 -03386.8 -07.4049 26278.4
 05 01 2013  22 34  -21.0135 26059.1 -03386.8 -07.4050 26278.3
 05 01 2013  22 35  -21.0134 26059.1 -03386.8 -07.4051 26278.3
 05 01 2013  22 36  -21.0131 26059.1 -03386.9 -07.4052 26278.3
 05 01 2013  22 37  -21.0128 26059.1 -03386.9 -07.4051 26278.3
 05 01 2013  22 38  -21.0126 26059.0 -03386.9 -07.4053 26278.2
 05 01 2013  22 39  -21.0125 26059.1 -03386.9 -07.4053 26278.3
 05 01 2013  22 40  -21.0123 26059.0 -03387.0 -07.4053 26278.2
 05 01 2013  22 41  -21.0123 26059.0 -03387.0 -07.4055 26278.2
 05 01 2013  22 42  -21.0122 26059.0 -03387.1 -07.4056 26278.2
 05 01 2013  22 43  -21.0121 26059.0 -03387.1 -07.4057 26278.2
 05 01 2013  22 44  -21.0119 26059.0 -03387.2 -07.4058 26278.3
 05 01 2013  22 45  -21.0119 26059.0 -03387.2 -07.4059 26278.3
 05 01 2013  22 46  -21.0118 26059.1 -03387.2 -07.4059 26278.3
 05 01 2013  22 47  -21.0117 26059.1 -03387.3 -07.4060 26278.3
 05 01 2013  22 48  -21.0116 26059.2 -03387.3 -07.4061 26278.4
 05 01 2013  22 49  -21.0116 26059.1 -03387.3 -07.4061 26278.3
 05 01 2013  22 50  -21.0116 26059.0 -03387.3 -07.4061 26278.3
 05 01 2013  22 51  -21.0115 26059.0 -03387.3 -07.4062 26278.3
 05 01 2013  22 52  -21.0115 26059.0 -03387.3 -07.4062 26278.2
 05 01 2013  22 53  -21.0113 26059.0 -03387.3 -07.4062 26278.2
 05 01 2013  22 54  -21.0113 26059.0 -03387.4 -07.4063 26278.2
 05 01 2013  22 55  -21.0113 26058.9 -03387.4 -07.4063 26278.2
 05 01 2013  22 56  -21.0112 26058.9 -03387.4 -07.4063 26278.2
 05 01 2013  22 57  -21.0110 26058.9 -03387.4 -07.4064 26278.1
 05 01 2013  22 58  -21.0109 26058.8 -03387.4 -07.4064 26278.1
 05 01 2013  22 59  -21.0108 26058.8 -03387.4 -07.4064 26278.1
 05 01 2013  23 00  -21.0107 26058.8 -03387.4 -07.4064 26278.1
 05 01 2013  23 01  -21.0107 26058.7 -03387.4 -07.4064 26278.0
 05 01 2013  23 02  -21.0106 26058.7 -03387.4 -07.4064 26277.9
 05 01 2013  23 03  -21.0104 26058.7 -03387.4 -07.4065 26277.9
 05 01 2013  23 04  -21.0102 26058.7 -03387.4 -07.4064 26277.9
 05 01 2013  23 05  -21.0100 26058.6 -03387.4 -07.4065 26277.9
 05 01 2013  23 06  -21.0100 26058.7 -03387.4 -07.4065 26277.9
 05 01 2013  23 07  -21.0100 26058.7 -03387.5 -07.4066 26278.0
 05 01 2013  23 08  -21.0099 26058.7 -03387.5 -07.4067 26277.9
 05 01 2013  23 09  -21.0098 26058.7 -03387.6 -07.4067 26278.0
 05 01 2013  23 10  -21.0098 26058.7 -03387.6 -07.4068 26277.9
 05 01 2013  23 11  -21.0098 26058.6 -03387.6 -07.4068 26277.9
 05 01 2013  23 12  -21.0099 26058.6 -03387.6 -07.4068 26277.8
 05 01 2013  23 13  -21.0100 26058.6 -03387.6 -07.4068 26277.8
 05 01 2013  23 14  -21.0100 26058.6 -03387.6 -07.4068 26277.8
 05 01 2013  23 15  -21.0100 26058.6 -03387.6 -07.4069 26277.8
 05 01 2013  23 16  -21.0099 26058.6 -03387.6 -07.4068 26277.8
 05 01 2013  23 17  -21.0100 26058.5 -03387.6 -07.4069 26277.8
 05 01 2013  23 18  -21.0099 26058.5 -03387.6 -07.4069 26277.8
 05 01 2013  23 19  -21.0099 26058.5 -03387.6 -07.4069 26277.8
 05 01 2013  23 20  -21.0099 26058.4 -03387.6 -07.4069 26277.7
 05 01 2013  23 21  -21.0099 26058.4 -03387.6 -07.4069 26277.6
 05 01 2013  23 22  -21.0098 26058.4 -03387.6 -07.4069 26277.7
 05 01 2013  23 23  -21.0097 26058.4 -03387.6 -07.4069 26277.6
 05 01 2013  23 24  -21.0097 26058.3 -03387.6 -07.4069 26277.6
 05 01 2013  23 25  -21.0097 26058.3 -03387.6 -07.4069 26277.6
 05 01 2013  23 26  -21.0097 26058.2 -03387.6 -07.4069 26277.5
 05 01 2013  23 27  -21.0096 26058.2 -03387.6 -07.4069 26277.5
 05 01 2013  23 28  -21.0096 26058.2 -03387.6 -07.4069 26277.5
 05 01 2013  23 29  -21.0095 26058.2 -03387.6 -07.4070 26277.5
 05 01 2013  23 30  -21.0095 26058.2 -03387.6 -07.4070 26277.5
 05 01 2013  23 31  -21.0095 26058.2 -03387.6 -07.4071 26277.5
 05 01 2013  23 32  -21.0095 26058.1 -03387.7 -07.4071 26277.4
 05 01 2013  23 33  -21.0096 26058.1 -03387.7 -07.4072 26277.4
 05 01 2013  23 34  -21.0096 26058.1 -03387.7 -07.4072 26277.4
 05 01 2013  23 35  -21.0096 26058.1 -03387.7 -07.4072 26277.4
 05 01 2013  23 36  -21.0097 26058.2 -03387.8 -07.4073 26277.4
 05 01 2013  23 37  -21.0097 26058.2 -03387.8 -07.4074 26277.5
 05 01 2013  23 38  -21.0096 26058.2 -03387.8 -07.4074 26277.5
 05 01 2013  23 39  -21.0097 26058.2 -03387.8 -07.4075 26277.5
 05 01 2013  23 40  -21.0096 26058.2 -03387.9 -07.4075 26277.5
 05 01 2013  23 41  -21.0095 26058.2 -03387.9 -07.4075 26277.6
 05 01 2013  23 42  -21.0095 26058.3 -03387.9 -07.4076 26277.6
 05 01 2013  23 43  -21.0095 26058.2 -03387.9 -07.4076 26277.6
 05 01 2013  23 44  -21.0095 26058.3 -03387.9 -07.4076 26277.6
 05 01 2013  23 45  -21.0094 26058.3 -03387.9 -07.4077 26277.6
 05 01 2013  23 46  -21.0092 26058.4 -03388.0 -07.4077 26277.7
 05 01 2013  23 47  -21.0091 26058.3 -03388.0 -07.4077 26277.7
 05 01 2013  23 48  -21.0091 26058.4 -03388.0 -07.4078 26277.7
 05 01 2013  23 49  -21.0091 26058.4 -03388.0 -07.4079 26277.7
 05 01 2013  23 50  -21.0092 26058.4 -03388.0 -07.4079 26277.7
 05 01 2013  23 51  -21.0091 26058.4 -03388.1 -07.4079 26277.7
 05 01 2013  23 52  -21.0091 26058.4 -03388.1 -07.4079 26277.7
 05 01 2013  23 53  -21.0092 26058.5 -03388.1 -07.4080 26277.8
 05 01 2013  23 54  -21.0093 26058.4 -03388.1 -07.4080 26277.8
 05 01 2013  23 55  -21.0093 26058.4 -03388.1 -07.4080 26277.8
 05 01 2013  23 56  -21.0093 26058.5 -03388.1 -07.4081 26277.8
 05 01 2013  23 57  -21.0093 26058.4 -03388.1 -07.4081 26277.8
 05 01 2013  23 58  -21.0092 26058.4 -03388.1 -07.4080 26277.8
