SAO LUIS EMBRACE-03 <065> 1 Min. Reported data

 DD MM YYYY  HH MM   D(Deg)  H(nT)   Z(nT)   I(Deg)   F(nT)

 06 03 2013  00 00  -21.0433 26029.4 -03414.4 -07.4731 26252.3
 06 03 2013  00 01  -21.0432 26029.3 -03414.4 -07.4731 26252.3
 06 03 2013  00 02  -21.0429 26029.1 -03414.3 -07.4730 26252.1
 06 03 2013  00 03  -21.0426 26029.0 -03414.2 -07.4729 26251.9
 06 03 2013  00 04  -21.0425 26028.9 -03414.2 -07.4728 26251.9
 06 03 2013  00 05  -21.0424 26028.8 -03414.2 -07.4728 26251.8
 06 03 2013  00 06  -21.0422 26028.6 -03414.1 -07.4727 26251.6
 06 03 2013  00 07  -21.0424 26028.4 -03414.1 -07.4727 26251.4
 06 03 2013  00 08  -21.0423 26028.2 -03414.0 -07.4725 26251.1
 06 03 2013  00 09  -21.0425 26028.0 -03413.9 -07.4724 26251.0
 06 03 2013  00 10  -21.0432 26027.8 -03413.9 -07.4725 26250.8
 06 03 2013  00 11  -21.0437 26027.8 -03413.9 -07.4725 26250.7
 06 03 2013  00 12  -21.0441 26027.7 -03413.9 -07.4726 26250.7
 06 03 2013  00 13  -21.0444 26027.7 -03414.0 -07.4726 26250.6
 06 03 2013  00 14  -21.0445 26027.8 -03414.0 -07.4727 26250.7
 06 03 2013  00 15  -21.0446 26027.8 -03414.0 -07.4727 26250.8
 06 03 2013  00 16  -21.0449 26027.9 -03414.1 -07.4728 26250.9
 06 03 2013  00 17  -21.0452 26028.0 -03414.1 -07.4728 26251.0
 06 03 2013  00 18  -21.0454 26027.9 -03414.1 -07.4727 26250.9
 06 03 2013  00 19  -21.0452 26027.8 -03413.9 -07.4725 26250.7
 06 03 2013  00 20  -21.0448 26027.7 -03413.9 -07.4724 26250.7
 06 03 2013  00 21  -21.0445 26027.8 -03413.9 -07.4725 26250.7
 06 03 2013  00 22  -21.0445 26027.8 -03414.0 -07.4727 26250.8
 06 03 2013  00 23  -21.0445 26027.9 -03414.1 -07.4728 26250.8
 06 03 2013  00 24  -21.0446 26027.9 -03414.1 -07.4729 26250.9
 06 03 2013  00 25  -21.0445 26028.0 -03414.2 -07.4730 26251.0
 06 03 2013  00 26  -21.0444 26028.1 -03414.2 -07.4731 26251.1
 06 03 2013  00 27  -21.0444 26028.2 -03414.3 -07.4731 26251.2
 06 03 2013  00 28  -21.0443 26028.1 -03414.2 -07.4731 26251.1
 06 03 2013  00 29  -21.0442 26028.1 -03414.3 -07.4732 26251.1
 06 03 2013  00 30  -21.0441 26028.1 -03414.3 -07.4732 26251.1
 06 03 2013  00 31  -21.0439 26028.4 -03414.4 -07.4734 26251.3
 06 03 2013  00 32  -21.0436 26028.6 -03414.5 -07.4735 26251.6
 06 03 2013  00 33  -21.0434 26028.8 -03414.6 -07.4738 26251.8
 06 03 2013  00 34  -21.0433 26028.8 -03414.6 -07.4738 26251.8
 06 03 2013  00 35  -21.0431 26028.9 -03414.7 -07.4738 26251.9
 06 03 2013  00 36  -21.0430 26028.8 -03414.7 -07.4738 26251.9
 06 03 2013  00 37  -21.0429 26028.9 -03414.7 -07.4739 26252.0
 06 03 2013  00 38  -21.0428 26029.0 -03414.8 -07.4740 26252.1
 06 03 2013  00 39  -21.0427 26029.0 -03414.8 -07.4740 26252.1
 06 03 2013  00 40  -21.0428 26029.1 -03414.8 -07.4741 26252.1
 06 03 2013  00 41  -21.0428 26029.0 -03414.8 -07.4740 26252.1
 06 03 2013  00 42  -21.0426 26029.0 -03414.7 -07.4739 26252.0
 06 03 2013  00 43  -21.0426 26028.9 -03414.7 -07.4739 26252.0
 06 03 2013  00 44  -21.0424 26028.8 -03414.6 -07.4738 26251.8
 06 03 2013  00 45  -21.0421 26028.6 -03414.5 -07.4736 26251.6
 06 03 2013  00 46  -21.0419 26028.5 -03414.5 -07.4736 26251.5
 06 03 2013  00 47  -21.0415 26028.4 -03414.5 -07.4736 26251.4
 06 03 2013  00 48  -21.0412 26028.4 -03414.5 -07.4736 26251.5
 06 03 2013  00 49  -21.0410 26028.4 -03414.6 -07.4737 26251.5
 06 03 2013  00 50  -21.0410 26028.4 -03414.7 -07.4739 26251.5
 06 03 2013  00 51  -21.0410 26028.4 -03414.7 -07.4740 26251.5
 06 03 2013  00 52  -21.0408 26028.5 -03414.8 -07.4742 26251.6
 06 03 2013  00 53  -21.0408 26028.6 -03414.8 -07.4743 26251.7
 06 03 2013  00 54  -21.0408 26028.6 -03414.9 -07.4744 26251.7
 06 03 2013  00 55  -21.0407 26028.7 -03415.0 -07.4745 26251.7
 06 03 2013  00 56  -21.0406 26028.8 -03415.0 -07.4747 26251.8
 06 03 2013  00 57  -21.0404 26028.8 -03415.1 -07.4747 26251.9
 06 03 2013  00 58  -21.0402 26029.0 -03415.2 -07.4749 26252.1
 06 03 2013  00 59  -21.0401 26029.1 -03415.3 -07.4750 26252.2
 06 03 2013  01 00  -21.0399 26029.2 -03415.3 -07.4751 26252.3
 06 03 2013  01 01  -21.0399 26029.1 -03415.3 -07.4751 26252.2
 06 03 2013  01 02  -21.0399 26029.3 -03415.4 -07.4752 26252.4
 06 03 2013  01 03  -21.0399 26029.2 -03415.4 -07.4752 26252.4
 06 03 2013  01 04  -21.0400 26029.3 -03415.4 -07.4753 26252.4
 06 03 2013  01 05  -21.0399 26029.2 -03415.4 -07.4753 26252.4
 06 03 2013  01 06  -21.0399 26029.2 -03415.4 -07.4752 26252.3
 06 03 2013  01 07  -21.0398 26029.1 -03415.3 -07.4752 26252.2
 06 03 2013  01 08  -21.0396 26029.0 -03415.3 -07.4751 26252.1
 06 03 2013  01 09  -21.0395 26029.1 -03415.3 -07.4752 26252.2
 06 03 2013  01 10  -21.0395 26029.1 -03415.4 -07.4752 26252.2
 06 03 2013  01 11  -21.0395 26029.1 -03415.4 -07.4753 26252.2
 06 03 2013  01 12  -21.0395 26029.1 -03415.4 -07.4753 26252.2
 06 03 2013  01 13  -21.0396 26029.1 -03415.4 -07.4754 26252.2
 06 03 2013  01 14  -21.0397 26028.8 -03415.4 -07.4753 26252.0
 06 03 2013  01 15  -21.0399 26028.8 -03415.3 -07.4752 26251.9
 06 03 2013  01 16  -21.0400 26028.7 -03415.3 -07.4752 26251.8
 06 03 2013  01 17  -21.0403 26028.6 -03415.3 -07.4752 26251.7
 06 03 2013  01 18  -21.0404 26028.5 -03415.2 -07.4751 26251.6
 06 03 2013  01 19  -21.0405 26028.5 -03415.2 -07.4751 26251.6
 06 03 2013  01 20  -21.0406 26028.5 -03415.3 -07.4752 26251.6
 06 03 2013  01 21  -21.0407 26028.5 -03415.3 -07.4753 26251.6
 06 03 2013  01 22  -21.0408 26028.5 -03415.3 -07.4753 26251.6
 06 03 2013  01 23  -21.0409 26028.5 -03415.4 -07.4754 26251.7
 06 03 2013  01 24  -21.0409 26028.6 -03415.4 -07.4755 26251.7
 06 03 2013  01 25  -21.0409 26028.7 -03415.5 -07.4756 26251.8
 06 03 2013  01 26  -21.0409 26028.7 -03415.5 -07.4756 26251.8
 06 03 2013  01 27  -21.0409 26028.7 -03415.5 -07.4757 26251.8
 06 03 2013  01 28  -21.0409 26028.7 -03415.5 -07.4756 26251.8
 06 03 2013  01 29  -21.0406 26028.7 -03415.5 -07.4756 26251.9
 06 03 2013  01 30  -21.0404 26028.8 -03415.5 -07.4756 26251.9
 06 03 2013  01 31  -21.0402 26028.8 -03415.5 -07.4757 26251.9
 06 03 2013  01 32  -21.0402 26028.7 -03415.5 -07.4756 26251.8
 06 03 2013  01 33  -21.0399 26028.6 -03415.5 -07.4756 26251.7
 06 03 2013  01 34  -21.0397 26028.5 -03415.4 -07.4755 26251.6
 06 03 2013  01 35  -21.0397 26028.3 -03415.3 -07.4754 26251.4
 06 03 2013  01 36  -21.0398 26028.3 -03415.3 -07.4754 26251.4
 06 03 2013  01 37  -21.0398 26028.3 -03415.4 -07.4755 26251.4
 06 03 2013  01 38  -21.0399 26028.3 -03415.4 -07.4756 26251.4
 06 03 2013  01 39  -21.0401 26028.2 -03415.4 -07.4756 26251.3
 06 03 2013  01 40  -21.0403 26028.2 -03415.4 -07.4757 26251.3
 06 03 2013  01 41  -21.0406 26028.2 -03415.4 -07.4756 26251.3
 06 03 2013  01 42  -21.0407 26028.1 -03415.4 -07.4757 26251.3
 06 03 2013  01 43  -21.0411 26028.0 -03415.4 -07.4756 26251.1
 06 03 2013  01 44  -21.0412 26027.9 -03415.3 -07.4755 26251.0
 06 03 2013  01 45  -21.0415 26027.9 -03415.3 -07.4756 26251.0
 06 03 2013  01 46  -21.0418 26027.8 -03415.4 -07.4756 26250.9
 06 03 2013  01 47  -21.0417 26027.7 -03415.3 -07.4755 26250.9
 06 03 2013  01 48  -21.0417 26027.8 -03415.3 -07.4755 26250.9
 06 03 2013  01 49  -21.0418 26027.7 -03415.3 -07.4755 26250.8
 06 03 2013  01 50  -21.0419 26027.6 -03415.3 -07.4755 26250.7
 06 03 2013  01 51  -21.0420 26027.6 -03415.3 -07.4754 26250.7
 06 03 2013  01 52  -21.0422 26027.5 -03415.3 -07.4756 26250.6
 06 03 2013  01 53  -21.0422 26027.4 -03415.3 -07.4756 26250.6
 06 03 2013  01 54  -21.0424 26027.4 -03415.3 -07.4756 26250.5
 06 03 2013  01 55  -21.0425 26027.4 -03415.3 -07.4756 26250.5
 06 03 2013  01 56  -21.0426 26027.3 -03415.3 -07.4756 26250.4
 06 03 2013  01 57  -21.0427 26027.3 -03415.3 -07.4756 26250.4
 06 03 2013  01 58  -21.0427 26027.3 -03415.3 -07.4757 26250.4
 06 03 2013  01 59  -21.0428 26027.3 -03415.3 -07.4757 26250.4
 06 03 2013  02 00  -21.0429 26027.3 -03415.4 -07.4758 26250.5
 06 03 2013  02 01  -21.0431 26027.4 -03415.4 -07.4758 26250.5
 06 03 2013  02 02  -21.0431 26027.4 -03415.4 -07.4758 26250.5
 06 03 2013  02 03  -21.0431 26027.3 -03415.4 -07.4758 26250.5
 06 03 2013  02 04  -21.0430 26027.3 -03415.4 -07.4758 26250.4
 06 03 2013  02 05  -21.0430 26027.2 -03415.4 -07.4758 26250.4
 06 03 2013  02 06  -21.0429 26027.2 -03415.3 -07.4757 26250.3
 06 03 2013  02 07  -21.0428 26027.1 -03415.3 -07.4757 26250.2
 06 03 2013  02 08  -21.0427 26027.1 -03415.3 -07.4757 26250.2
 06 03 2013  02 09  -21.0424 26027.0 -03415.2 -07.4756 26250.1
 06 03 2013  02 10  -21.0422 26026.9 -03415.3 -07.4756 26250.0
 06 03 2013  02 11  -21.0419 26026.9 -03415.3 -07.4756 26250.0
 06 03 2013  02 12  -21.0418 26026.9 -03415.3 -07.4757 26250.0
 06 03 2013  02 13  -21.0417 26026.9 -03415.3 -07.4758 26250.0
 06 03 2013  02 14  -21.0416 26026.8 -03415.3 -07.4758 26249.9
 06 03 2013  02 15  -21.0415 26026.7 -03415.3 -07.4758 26249.8
 06 03 2013  02 16  -21.0415 26026.6 -03415.3 -07.4758 26249.7
 06 03 2013  02 17  -21.0414 26026.5 -03415.3 -07.4758 26249.7
 06 03 2013  02 18  -21.0412 26026.5 -03415.3 -07.4758 26249.6
 06 03 2013  02 19  -21.0410 26026.4 -03415.3 -07.4758 26249.5
 06 03 2013  02 20  -21.0408 26026.4 -03415.3 -07.4759 26249.5
 06 03 2013  02 21  -21.0407 26026.3 -03415.3 -07.4758 26249.4
 06 03 2013  02 22  -21.0401 26026.3 -03415.3 -07.4758 26249.4
 06 03 2013  02 23  -21.0402 26026.2 -03415.3 -07.4759 26249.4
 06 03 2013  02 24  -21.0403 26026.2 -03415.3 -07.4760 26249.4
 06 03 2013  02 25  -21.0403 26026.2 -03415.4 -07.4762 26249.4
 06 03 2013  02 26  -21.0403 26026.2 -03415.4 -07.4762 26249.3
 06 03 2013  02 27  -21.0404 26026.2 -03415.4 -07.4762 26249.3
 06 03 2013  02 28  -21.0403 26026.1 -03415.4 -07.4762 26249.3
 06 03 2013  02 29  -21.0402 26026.1 -03415.4 -07.4762 26249.2
 06 03 2013  02 30  -21.0403 26026.0 -03415.4 -07.4762 26249.1
 06 03 2013  02 31  -21.0405 26026.0 -03415.4 -07.4763 26249.1
 06 03 2013  02 32  -21.0408 26026.0 -03415.5 -07.4763 26249.2
 06 03 2013  02 33  -21.0409 26026.1 -03415.5 -07.4764 26249.2
 06 03 2013  02 34  -21.0410 26025.9 -03415.5 -07.4764 26249.1
 06 03 2013  02 35  -21.0408 26025.9 -03415.4 -07.4763 26249.0
 06 03 2013  02 36  -21.0407 26025.7 -03415.3 -07.4762 26248.8
 06 03 2013  02 37  -21.0405 26025.6 -03415.3 -07.4761 26248.8
 06 03 2013  02 38  -21.0404 26025.5 -03415.3 -07.4760 26248.6
 06 03 2013  02 39  -21.0403 26025.4 -03415.3 -07.4761 26248.6
 06 03 2013  02 40  -21.0404 26025.4 -03415.3 -07.4761 26248.5
 06 03 2013  02 41  -21.0404 26025.3 -03415.3 -07.4761 26248.5
 06 03 2013  02 42  -21.0403 26025.2 -03415.3 -07.4761 26248.4
 06 03 2013  02 43  -21.0402 26025.3 -03415.3 -07.4762 26248.4
 06 03 2013  02 44  -21.0403 26025.3 -03415.4 -07.4763 26248.5
 06 03 2013  02 45  -21.0402 26025.5 -03415.5 -07.4765 26248.6
 06 03 2013  02 46  -21.0405 26025.5 -03415.5 -07.4766 26248.6
 06 03 2013  02 47  -21.0402 26025.8 -03415.7 -07.4769 26249.0
 06 03 2013  02 48  -21.0401 26026.0 -03415.8 -07.4771 26249.2
 06 03 2013  02 49  -21.0401 26026.0 -03415.8 -07.4771 26249.2
 06 03 2013  02 50  -21.0399 26026.2 -03415.9 -07.4771 26249.4
 06 03 2013  02 51  -21.0397 26026.2 -03415.9 -07.4773 26249.5
 06 03 2013  02 52  -21.0395 26026.4 -03416.0 -07.4774 26249.6
 06 03 2013  02 53  -21.0395 26026.4 -03416.0 -07.4774 26249.7
 06 03 2013  02 54  -21.0396 26026.4 -03416.0 -07.4774 26249.6
 06 03 2013  02 55  -21.0394 26026.4 -03416.0 -07.4773 26249.6
 06 03 2013  02 56  -21.0392 26026.3 -03415.9 -07.4772 26249.5
 06 03 2013  02 57  -21.0390 26026.3 -03415.9 -07.4772 26249.5
 06 03 2013  02 58  -21.0389 26026.5 -03416.0 -07.4773 26249.7
 06 03 2013  02 59  -21.0384 26026.8 -03416.2 -07.4776 26250.1
 06 03 2013  03 00  -21.0382 26026.8 -03416.1 -07.4775 26250.0
 06 03 2013  03 01  -21.0378 26027.1 -03416.3 -07.4779 26250.4
 06 03 2013  03 02  -21.0377 26027.4 -03416.5 -07.4781 26250.7
 06 03 2013  03 03  -21.0375 26027.8 -03416.7 -07.4784 26251.1
 06 03 2013  03 04  -21.0375 26028.3 -03416.9 -07.4788 26251.6
 06 03 2013  03 05  -21.0376 26028.9 -03417.3 -07.4794 26252.3
 06 03 2013  03 06  -21.0382 26029.3 -03417.4 -07.4797 26252.7
 06 03 2013  03 07  -21.0379 26030.2 -03417.8 -07.4802 26253.6
 06 03 2013  03 08  -21.0384 26030.4 -03417.9 -07.4804 26253.9
 06 03 2013  03 09  -21.0388 26030.8 -03418.0 -07.4804 26254.3
 06 03 2013  03 10  -21.0393 26031.2 -03418.1 -07.4806 26254.6
 06 03 2013  03 11  -21.0396 26031.4 -03418.1 -07.4805 26254.9
 06 03 2013  03 12  -21.0396 26031.8 -03418.1 -07.4805 26255.2
 06 03 2013  03 13  -21.0396 26031.8 -03418.1 -07.4803 26255.3
 06 03 2013  03 14  -21.0396 26032.0 -03418.0 -07.4801 26255.4
 06 03 2013  03 15  -21.0396 26032.0 -03417.9 -07.4799 26255.4
 06 03 2013  03 16  -21.0393 26032.1 -03417.8 -07.4797 26255.5
 06 03 2013  03 17  -21.0392 26032.1 -03417.7 -07.4795 26255.5
 06 03 2013  03 18  -21.0392 26032.0 -03417.6 -07.4793 26255.4
 06 03 2013  03 19  -21.0393 26032.1 -03417.6 -07.4792 26255.5
 06 03 2013  03 20  -21.0395 26032.3 -03417.6 -07.4792 26255.6
 06 03 2013  03 21  -21.0395 26032.6 -03417.6 -07.4792 26255.9
 06 03 2013  03 22  -21.0393 26032.6 -03417.6 -07.4791 26256.0
 06 03 2013  03 23  -21.0391 26032.7 -03417.6 -07.4791 26256.1
 06 03 2013  03 24  -21.0387 26032.8 -03417.6 -07.4789 26256.2
 06 03 2013  03 25  -21.0382 26032.9 -03417.5 -07.4788 26256.2
 06 03 2013  03 26  -21.0380 26032.8 -03417.4 -07.4787 26256.2
 06 03 2013  03 27  -21.0376 26032.8 -03417.4 -07.4786 26256.2
 06 03 2013  03 28  -21.0374 26032.7 -03417.3 -07.4784 26256.0
 06 03 2013  03 29  -21.0372 26032.4 -03417.1 -07.4781 26255.7
 06 03 2013  03 30  -21.0374 26032.3 -03417.0 -07.4779 26255.6
 06 03 2013  03 31  -21.0377 26032.1 -03417.0 -07.4779 26255.4
 06 03 2013  03 32  -21.0381 26032.0 -03416.9 -07.4778 26255.3
 06 03 2013  03 33  -21.0386 26031.9 -03416.8 -07.4776 26255.2
 06 03 2013  03 34  -21.0391 26032.1 -03416.9 -07.4778 26255.4
 06 03 2013  03 35  -21.0395 26032.1 -03417.0 -07.4778 26255.4
 06 03 2013  03 36  -21.0398 26032.1 -03416.9 -07.4777 26255.4
 06 03 2013  03 37  -21.0401 26032.0 -03416.8 -07.4776 26255.3
 06 03 2013  03 38  -21.0402 26032.0 -03416.8 -07.4775 26255.3
 06 03 2013  03 39  -21.0399 26032.0 -03416.7 -07.4773 26255.3
 06 03 2013  03 40  -21.0396 26032.0 -03416.7 -07.4772 26255.3
 06 03 2013  03 41  -21.0393 26031.9 -03416.6 -07.4771 26255.1
 06 03 2013  03 42  -21.0391 26031.8 -03416.5 -07.4769 26255.0
 06 03 2013  03 43  -21.0388 26031.6 -03416.4 -07.4768 26254.8
 06 03 2013  03 44  -21.0383 26031.5 -03416.3 -07.4767 26254.7
 06 03 2013  03 45  -21.0380 26031.4 -03416.3 -07.4766 26254.6
 06 03 2013  03 46  -21.0376 26031.4 -03416.3 -07.4765 26254.6
 06 03 2013  03 47  -21.0374 26031.3 -03416.3 -07.4766 26254.5
 06 03 2013  03 48  -21.0372 26031.1 -03416.2 -07.4765 26254.3
 06 03 2013  03 49  -21.0369 26031.0 -03416.2 -07.4764 26254.2
 06 03 2013  03 50  -21.0365 26030.9 -03416.1 -07.4764 26254.1
 06 03 2013  03 51  -21.0362 26030.7 -03416.1 -07.4763 26253.9
 06 03 2013  03 52  -21.0359 26030.6 -03416.1 -07.4764 26253.8
 06 03 2013  03 53  -21.0358 26030.6 -03416.1 -07.4765 26253.8
 06 03 2013  03 54  -21.0357 26030.6 -03416.2 -07.4766 26253.8
 06 03 2013  03 55  -21.0357 26030.5 -03416.2 -07.4766 26253.7
 06 03 2013  03 56  -21.0357 26030.4 -03416.2 -07.4766 26253.6
 06 03 2013  03 57  -21.0356 26030.7 -03416.4 -07.4769 26254.0
 06 03 2013  03 58  -21.0356 26030.9 -03416.5 -07.4772 26254.2
 06 03 2013  03 59  -21.0356 26030.9 -03416.5 -07.4773 26254.2
 06 03 2013  04 00  -21.0356 26031.1 -03416.6 -07.4774 26254.3
 06 03 2013  04 01  -21.0356 26031.3 -03416.7 -07.4776 26254.5
 06 03 2013  04 02  -21.0356 26031.4 -03416.8 -07.4776 26254.6
 06 03 2013  04 03  -21.0355 26031.5 -03416.8 -07.4777 26254.7
 06 03 2013  04 04  -21.0354 26031.4 -03416.8 -07.4777 26254.7
 06 03 2013  04 05  -21.0354 26031.4 -03416.8 -07.4776 26254.7
 06 03 2013  04 06  -21.0354 26031.4 -03416.8 -07.4776 26254.7
 06 03 2013  04 07  -21.0353 26031.3 -03416.7 -07.4775 26254.6
 06 03 2013  04 08  -21.0353 26031.3 -03416.7 -07.4775 26254.6
 06 03 2013  04 09  -21.0354 26031.5 -03416.8 -07.4776 26254.8
 06 03 2013  04 10  -21.0356 26031.5 -03416.8 -07.4777 26254.8
 06 03 2013  04 11  -21.0357 26031.4 -03416.7 -07.4775 26254.7
 06 03 2013  04 12  -21.0356 26031.4 -03416.7 -07.4775 26254.7
 06 03 2013  04 13  -21.0355 26031.5 -03416.7 -07.4775 26254.8
 06 03 2013  04 14  -21.0354 26031.6 -03416.7 -07.4775 26254.8
 06 03 2013  04 15  -21.0353 26031.6 -03416.7 -07.4775 26254.9
 06 03 2013  04 16  -21.0353 26031.7 -03416.8 -07.4776 26255.0
 06 03 2013  04 17  -21.0353 26031.7 -03416.8 -07.4776 26255.0
 06 03 2013  04 18  -21.0351 26031.7 -03416.8 -07.4775 26255.0
 06 03 2013  04 19  -21.0347 26031.7 -03416.7 -07.4774 26255.0
 06 03 2013  04 20  -21.0342 26031.8 -03416.7 -07.4773 26255.0
 06 03 2013  04 21  -21.0338 26031.7 -03416.6 -07.4773 26255.0
 06 03 2013  04 22  -21.0333 26031.8 -03416.7 -07.4774 26255.0
 06 03 2013  04 23  -21.0330 26031.9 -03416.8 -07.4775 26255.1
 06 03 2013  04 24  -21.0327 26031.9 -03416.8 -07.4776 26255.2
 06 03 2013  04 25  -21.0326 26032.1 -03416.9 -07.4778 26255.4
 06 03 2013  04 26  -21.0325 26032.2 -03417.0 -07.4779 26255.5
 06 03 2013  04 27  -21.0321 26032.3 -03417.0 -07.4780 26255.6
 06 03 2013  04 28  -21.0319 26032.4 -03417.1 -07.4780 26255.7
 06 03 2013  04 29  -21.0317 26032.5 -03417.1 -07.4781 26255.8
 06 03 2013  04 30  -21.0315 26032.7 -03417.2 -07.4782 26256.0
 06 03 2013  04 31  -21.0315 26032.6 -03417.2 -07.4782 26256.0
 06 03 2013  04 32  -21.0315 26032.6 -03417.2 -07.4782 26256.0
 06 03 2013  04 33  -21.0315 26032.7 -03417.2 -07.4783 26256.1
 06 03 2013  04 34  -21.0316 26032.7 -03417.2 -07.4782 26256.0
 06 03 2013  04 35  -21.0318 26032.8 -03417.3 -07.4783 26256.1
 06 03 2013  04 36  -21.0321 26032.8 -03417.2 -07.4782 26256.1
 06 03 2013  04 37  -21.0322 26032.8 -03417.2 -07.4782 26256.2
 06 03 2013  04 38  -21.0321 26032.8 -03417.2 -07.4782 26256.2
 06 03 2013  04 39  -21.0322 26032.9 -03417.2 -07.4782 26256.2
 06 03 2013  04 40  -21.0322 26032.9 -03417.2 -07.4781 26256.2
 06 03 2013  04 41  -21.0322 26033.0 -03417.2 -07.4782 26256.3
 06 03 2013  04 42  -21.0322 26033.1 -03417.3 -07.4782 26256.4
 06 03 2013  04 43  -21.0321 26033.2 -03417.3 -07.4782 26256.5
 06 03 2013  04 44  -21.0320 26033.2 -03417.2 -07.4781 26256.5
 06 03 2013  04 45  -21.0319 26033.3 -03417.3 -07.4782 26256.6
 06 03 2013  04 46  -21.0317 26033.3 -03417.2 -07.4781 26256.6
 06 03 2013  04 47  -21.0316 26033.4 -03417.3 -07.4782 26256.7
 06 03 2013  04 48  -21.0316 26033.3 -03417.3 -07.4782 26256.7
 06 03 2013  04 49  -21.0316 26033.4 -03417.2 -07.4781 26256.7
 06 03 2013  04 50  -21.0316 26033.4 -03417.3 -07.4781 26256.7
 06 03 2013  04 51  -21.0315 26033.5 -03417.3 -07.4781 26256.8
 06 03 2013  04 52  -21.0313 26033.6 -03417.3 -07.4781 26256.9
 06 03 2013  04 53  -21.0311 26033.7 -03417.3 -07.4782 26257.0
 06 03 2013  04 54  -21.0309 26033.8 -03417.3 -07.4782 26257.1
 06 03 2013  04 55  -21.0307 26033.8 -03417.3 -07.4782 26257.1
 06 03 2013  04 56  -21.0304 26033.9 -03417.4 -07.4782 26257.2
 06 03 2013  04 57  -21.0303 26034.0 -03417.4 -07.4782 26257.3
 06 03 2013  04 58  -21.0303 26034.0 -03417.4 -07.4783 26257.3
 06 03 2013  04 59  -21.0299 26033.9 -03417.4 -07.4782 26257.3
 06 03 2013  05 00  -21.0298 26034.0 -03417.3 -07.4781 26257.3
 06 03 2013  05 01  -21.0297 26033.9 -03417.3 -07.4781 26257.2
 06 03 2013  05 02  -21.0296 26033.9 -03417.3 -07.4781 26257.2
 06 03 2013  05 03  -21.0295 26033.9 -03417.3 -07.4781 26257.2
 06 03 2013  05 04  -21.0295 26033.8 -03417.3 -07.4780 26257.2
 06 03 2013  05 05  -21.0295 26033.8 -03417.3 -07.4780 26257.1
 06 03 2013  05 06  -21.0295 26033.8 -03417.2 -07.4780 26257.1
 06 03 2013  05 07  -21.0294 26033.7 -03417.2 -07.4779 26257.1
 06 03 2013  05 08  -21.0294 26033.7 -03417.2 -07.4779 26257.0
 06 03 2013  05 09  -21.0294 26033.7 -03417.2 -07.4779 26257.0
 06 03 2013  05 10  -21.0295 26033.6 -03417.1 -07.4778 26256.9
 06 03 2013  05 11  -21.0297 26033.7 -03417.2 -07.4779 26257.0
 06 03 2013  05 12  -21.0298 26033.7 -03417.2 -07.4779 26257.0
 06 03 2013  05 13  -21.0298 26033.8 -03417.2 -07.4779 26257.1
 06 03 2013  05 14  -21.0298 26033.8 -03417.2 -07.4779 26257.2
 06 03 2013  05 15  -21.0298 26033.9 -03417.2 -07.4779 26257.2
 06 03 2013  05 16  -21.0298 26033.9 -03417.2 -07.4779 26257.2
 06 03 2013  05 17  -21.0298 26033.9 -03417.2 -07.4779 26257.3
 06 03 2013  05 18  -21.0297 26034.1 -03417.3 -07.4780 26257.4
 06 03 2013  05 19  -21.0295 26034.2 -03417.3 -07.4781 26257.5
 06 03 2013  05 20  -21.0294 26034.3 -03417.3 -07.4780 26257.6
 06 03 2013  05 21  -21.0291 26034.3 -03417.3 -07.4781 26257.7
 06 03 2013  05 22  -21.0289 26034.4 -03417.4 -07.4781 26257.7
 06 03 2013  05 23  -21.0288 26034.4 -03417.4 -07.4781 26257.8
 06 03 2013  05 24  -21.0286 26034.5 -03417.4 -07.4782 26257.9
 06 03 2013  05 25  -21.0286 26034.4 -03417.4 -07.4781 26257.8
 06 03 2013  05 26  -21.0285 26034.3 -03417.3 -07.4780 26257.6
 06 03 2013  05 27  -21.0284 26033.9 -03417.1 -07.4777 26257.2
 06 03 2013  05 28  -21.0281 26033.5 -03416.9 -07.4774 26256.8
 06 03 2013  05 29  -21.0281 26033.1 -03416.7 -07.4770 26256.3
 06 03 2013  05 30  -21.0282 26032.8 -03416.6 -07.4768 26256.0
 06 03 2013  05 31  -21.0286 26032.5 -03416.5 -07.4767 26255.7
 06 03 2013  05 32  -21.0290 26032.4 -03416.4 -07.4767 26255.6
 06 03 2013  05 33  -21.0294 26032.3 -03416.5 -07.4768 26255.5
 06 03 2013  05 34  -21.0298 26032.3 -03416.5 -07.4768 26255.6
 06 03 2013  05 35  -21.0301 26032.5 -03416.6 -07.4770 26255.7
 06 03 2013  05 36  -21.0303 26032.6 -03416.7 -07.4771 26255.8
 06 03 2013  05 37  -21.0306 26032.6 -03416.7 -07.4772 26255.9
 06 03 2013  05 38  -21.0308 26032.7 -03416.8 -07.4774 26256.0
 06 03 2013  05 39  -21.0310 26032.8 -03416.8 -07.4774 26256.1
 06 03 2013  05 40  -21.0312 26032.8 -03416.8 -07.4774 26256.0
 06 03 2013  05 41  -21.0314 26032.8 -03416.8 -07.4774 26256.1
 06 03 2013  05 42  -21.0315 26032.8 -03416.8 -07.4774 26256.1
 06 03 2013  05 43  -21.0315 26032.8 -03416.8 -07.4773 26256.1
 06 03 2013  05 44  -21.0316 26032.7 -03416.8 -07.4773 26256.0
 06 03 2013  05 45  -21.0317 26032.7 -03416.7 -07.4772 26255.9
 06 03 2013  05 46  -21.0318 26032.6 -03416.7 -07.4771 26255.9
 06 03 2013  05 47  -21.0319 26032.5 -03416.7 -07.4771 26255.8
 06 03 2013  05 48  -21.0320 26032.5 -03416.7 -07.4771 26255.7
 06 03 2013  05 49  -21.0322 26032.5 -03416.7 -07.4772 26255.8
 06 03 2013  05 50  -21.0324 26032.6 -03416.7 -07.4772 26255.8
 06 03 2013  05 51  -21.0324 26032.6 -03416.7 -07.4772 26255.9
 06 03 2013  05 52  -21.0325 26032.7 -03416.8 -07.4773 26256.0
 06 03 2013  05 53  -21.0324 26032.8 -03416.8 -07.4774 26256.1
 06 03 2013  05 54  -21.0324 26033.0 -03416.9 -07.4776 26256.3
 06 03 2013  05 55  -21.0324 26033.1 -03417.0 -07.4777 26256.4
 06 03 2013  05 56  -21.0324 26033.2 -03417.1 -07.4777 26256.5
 06 03 2013  05 57  -21.0323 26033.3 -03417.1 -07.4779 26256.6
 06 03 2013  05 58  -21.0322 26033.4 -03417.2 -07.4780 26256.7
 06 03 2013  05 59  -21.0322 26033.5 -03417.2 -07.4780 26256.8
 06 03 2013  06 00  -21.0320 26033.5 -03417.2 -07.4780 26256.9
 06 03 2013  06 01  -21.0318 26033.5 -03417.2 -07.4779 26256.9
 06 03 2013  06 02  -21.0316 26033.5 -03417.2 -07.4780 26256.9
 06 03 2013  06 03  -21.0315 26033.5 -03417.2 -07.4780 26256.9
 06 03 2013  06 04  -21.0314 26033.6 -03417.2 -07.4780 26256.9
 06 03 2013  06 05  -21.0314 26033.8 -03417.3 -07.4782 26257.1
 06 03 2013  06 06  -21.0314 26034.0 -03417.5 -07.4784 26257.3
 06 03 2013  06 07  -21.0313 26034.2 -03417.6 -07.4786 26257.6
 06 03 2013  06 08  -21.0312 26034.4 -03417.7 -07.4787 26257.7
 06 03 2013  06 09  -21.0310 26034.6 -03417.7 -07.4788 26257.9
 06 03 2013  06 10  -21.0308 26034.7 -03417.8 -07.4789 26258.0
 06 03 2013  06 11  -21.0307 26034.7 -03417.8 -07.4790 26258.1
 06 03 2013  06 12  -21.0306 26034.8 -03417.8 -07.4790 26258.2
 06 03 2013  06 13  -21.0306 26034.8 -03417.8 -07.4789 26258.2
 06 03 2013  06 14  -21.0306 26034.8 -03417.8 -07.4790 26258.2
 06 03 2013  06 15  -21.0305 26034.8 -03417.8 -07.4789 26258.2
 06 03 2013  06 16  -21.0303 26034.8 -03417.8 -07.4788 26258.2
 06 03 2013  06 17  -21.0302 26034.8 -03417.7 -07.4788 26258.2
 06 03 2013  06 18  -21.0301 26034.8 -03417.7 -07.4788 26258.2
 06 03 2013  06 19  -21.0300 26034.8 -03417.8 -07.4788 26258.2
 06 03 2013  06 20  -21.0300 26034.9 -03417.8 -07.4789 26258.3
 06 03 2013  06 21  -21.0301 26035.0 -03417.8 -07.4789 26258.4
 06 03 2013  06 22  -21.0302 26035.1 -03417.9 -07.4790 26258.5
 06 03 2013  06 23  -21.0303 26035.2 -03417.9 -07.4791 26258.6
 06 03 2013  06 24  -21.0305 26035.2 -03418.0 -07.4791 26258.6
 06 03 2013  06 25  -21.0304 26035.3 -03418.0 -07.4791 26258.7
 06 03 2013  06 26  -21.0304 26035.4 -03418.0 -07.4791 26258.8
 06 03 2013  06 27  -21.0303 26035.4 -03418.0 -07.4792 26258.8
 06 03 2013  06 28  -21.0302 26035.4 -03418.0 -07.4791 26258.8
 06 03 2013  06 29  -21.0301 26035.4 -03417.9 -07.4790 26258.8
 06 03 2013  06 30  -21.0302 26035.2 -03417.8 -07.4789 26258.6
 06 03 2013  06 31  -21.0302 26035.1 -03417.7 -07.4787 26258.4
 06 03 2013  06 32  -21.0301 26034.9 -03417.6 -07.4785 26258.3
 06 03 2013  06 33  -21.0302 26034.7 -03417.5 -07.4784 26258.0
 06 03 2013  06 34  -21.0303 26034.6 -03417.4 -07.4782 26257.9
 06 03 2013  06 35  -21.0303 26034.4 -03417.4 -07.4781 26257.8
 06 03 2013  06 36  -21.0304 26034.4 -03417.4 -07.4781 26257.7
 06 03 2013  06 37  -21.0304 26034.3 -03417.3 -07.4780 26257.6
 06 03 2013  06 38  -21.0305 26034.3 -03417.3 -07.4780 26257.6
 06 03 2013  06 39  -21.0305 26034.3 -03417.3 -07.4781 26257.6
 06 03 2013  06 40  -21.0306 26034.2 -03417.3 -07.4781 26257.6
 06 03 2013  06 41  -21.0306 26034.2 -03417.3 -07.4780 26257.6
 06 03 2013  06 42  -21.0306 26034.3 -03417.4 -07.4781 26257.6
 06 03 2013  06 43  -21.0307 26034.3 -03417.4 -07.4781 26257.7
 06 03 2013  06 44  -21.0308 26034.4 -03417.4 -07.4782 26257.8
 06 03 2013  06 45  -21.0307 26034.5 -03417.5 -07.4783 26257.8
 06 03 2013  06 46  -21.0305 26034.5 -03417.5 -07.4783 26257.9
 06 03 2013  06 47  -21.0303 26034.6 -03417.5 -07.4783 26257.9
 06 03 2013  06 48  -21.0303 26034.5 -03417.5 -07.4784 26257.9
 06 03 2013  06 49  -21.0301 26034.5 -03417.5 -07.4784 26257.9
 06 03 2013  06 50  -21.0300 26034.5 -03417.5 -07.4784 26257.9
 06 03 2013  06 51  -21.0298 26034.5 -03417.5 -07.4784 26257.8
 06 03 2013  06 52  -21.0296 26034.5 -03417.6 -07.4785 26257.8
 06 03 2013  06 53  -21.0295 26034.4 -03417.5 -07.4784 26257.7
 06 03 2013  06 54  -21.0292 26034.4 -03417.6 -07.4785 26257.7
 06 03 2013  06 55  -21.0290 26034.3 -03417.6 -07.4785 26257.7
 06 03 2013  06 56  -21.0288 26034.3 -03417.6 -07.4785 26257.7
 06 03 2013  06 57  -21.0286 26034.3 -03417.6 -07.4786 26257.7
 06 03 2013  06 58  -21.0284 26034.4 -03417.6 -07.4786 26257.7
 06 03 2013  06 59  -21.0282 26034.4 -03417.6 -07.4786 26257.8
 06 03 2013  07 00  -21.0281 26034.4 -03417.6 -07.4787 26257.8
 06 03 2013  07 01  -21.0280 26034.5 -03417.7 -07.4788 26257.8
 06 03 2013  07 02  -21.0278 26034.5 -03417.7 -07.4788 26257.9
 06 03 2013  07 03  -21.0277 26034.6 -03417.8 -07.4789 26258.0
 06 03 2013  07 04  -21.0276 26034.6 -03417.8 -07.4790 26258.0
 06 03 2013  07 05  -21.0275 26034.6 -03417.9 -07.4791 26258.0
 06 03 2013  07 06  -21.0273 26034.7 -03417.9 -07.4792 26258.1
 06 03 2013  07 07  -21.0273 26034.8 -03418.0 -07.4792 26258.2
 06 03 2013  07 08  -21.0271 26034.9 -03418.0 -07.4794 26258.3
 06 03 2013  07 09  -21.0270 26035.0 -03418.1 -07.4795 26258.4
 06 03 2013  07 10  -21.0268 26035.1 -03418.1 -07.4795 26258.5
 06 03 2013  07 11  -21.0268 26035.1 -03418.1 -07.4794 26258.5
 06 03 2013  07 12  -21.0267 26035.0 -03418.0 -07.4794 26258.5
 06 03 2013  07 13  -21.0266 26035.0 -03418.0 -07.4793 26258.4
 06 03 2013  07 14  -21.0265 26034.9 -03418.0 -07.4792 26258.3
 06 03 2013  07 15  -21.0263 26034.9 -03417.9 -07.4791 26258.3
 06 03 2013  07 16  -21.0262 26034.9 -03417.9 -07.4791 26258.2
 06 03 2013  07 17  -21.0262 26034.8 -03417.9 -07.4790 26258.2
 06 03 2013  07 18  -21.0261 26034.8 -03417.9 -07.4790 26258.2
 06 03 2013  07 19  -21.0261 26034.8 -03417.9 -07.4790 26258.2
 06 03 2013  07 20  -21.0260 26034.9 -03417.9 -07.4791 26258.3
 06 03 2013  07 21  -21.0261 26034.9 -03417.9 -07.4792 26258.3
 06 03 2013  07 22  -21.0262 26035.0 -03418.0 -07.4793 26258.4
 06 03 2013  07 23  -21.0262 26035.0 -03418.0 -07.4793 26258.4
 06 03 2013  07 24  -21.0263 26035.0 -03418.0 -07.4793 26258.4
 06 03 2013  07 25  -21.0263 26035.0 -03418.1 -07.4794 26258.4
 06 03 2013  07 26  -21.0263 26035.0 -03418.1 -07.4794 26258.4
 06 03 2013  07 27  -21.0263 26035.1 -03418.1 -07.4795 26258.5
 06 03 2013  07 28  -21.0262 26035.1 -03418.1 -07.4795 26258.5
 06 03 2013  07 29  -21.0262 26035.1 -03418.1 -07.4794 26258.6
 06 03 2013  07 30  -21.0263 26035.2 -03418.1 -07.4795 26258.6
 06 03 2013  07 31  -21.0262 26035.3 -03418.2 -07.4796 26258.7
 06 03 2013  07 32  -21.0262 26035.4 -03418.2 -07.4797 26258.8
 06 03 2013  07 33  -21.0262 26035.4 -03418.3 -07.4797 26258.9
 06 03 2013  07 34  -21.0262 26035.5 -03418.3 -07.4797 26258.9
 06 03 2013  07 35  -21.0262 26035.4 -03418.3 -07.4798 26258.9
 06 03 2013  07 36  -21.0261 26035.5 -03418.3 -07.4798 26258.9
 06 03 2013  07 37  -21.0261 26035.4 -03418.3 -07.4798 26258.9
 06 03 2013  07 38  -21.0261 26035.5 -03418.3 -07.4798 26258.9
 06 03 2013  07 39  -21.0260 26035.5 -03418.3 -07.4797 26259.0
 06 03 2013  07 40  -21.0260 26035.5 -03418.3 -07.4797 26259.0
 06 03 2013  07 41  -21.0258 26035.5 -03418.2 -07.4797 26259.0
 06 03 2013  07 42  -21.0258 26035.5 -03418.2 -07.4797 26259.0
 06 03 2013  07 43  -21.0259 26035.5 -03418.2 -07.4797 26258.9
 06 03 2013  07 44  -21.0259 26035.6 -03418.3 -07.4797 26259.0
 06 03 2013  07 45  -21.0261 26035.6 -03418.3 -07.4798 26259.0
 06 03 2013  07 46  -21.0262 26035.7 -03418.4 -07.4799 26259.1
 06 03 2013  07 47  -21.0261 26035.8 -03418.4 -07.4800 26259.3
 06 03 2013  07 48  -21.0260 26036.0 -03418.5 -07.4802 26259.5
 06 03 2013  07 49  -21.0258 26036.2 -03418.6 -07.4803 26259.7
 06 03 2013  07 50  -21.0258 26036.5 -03418.8 -07.4805 26259.9
 06 03 2013  07 51  -21.0258 26036.7 -03418.9 -07.4807 26260.2
 06 03 2013  07 52  -21.0258 26036.9 -03419.0 -07.4808 26260.4
 06 03 2013  07 53  -21.0259 26037.0 -03419.0 -07.4809 26260.5
 06 03 2013  07 54  -21.0259 26037.2 -03419.1 -07.4810 26260.7
 06 03 2013  07 55  -21.0257 26037.3 -03419.0 -07.4809 26260.8
 06 03 2013  07 56  -21.0257 26037.4 -03419.1 -07.4809 26260.9
 06 03 2013  07 57  -21.0255 26037.5 -03419.1 -07.4808 26261.0
 06 03 2013  07 58  -21.0253 26037.5 -03419.0 -07.4808 26261.0
 06 03 2013  07 59  -21.0252 26037.6 -03419.1 -07.4809 26261.1
 06 03 2013  08 00  -21.0251 26037.6 -03419.1 -07.4808 26261.1
 06 03 2013  08 01  -21.0250 26037.6 -03419.1 -07.4809 26261.2
 06 03 2013  08 02  -21.0250 26037.7 -03419.2 -07.4810 26261.3
 06 03 2013  08 03  -21.0250 26037.9 -03419.3 -07.4812 26261.4
 06 03 2013  08 04  -21.0249 26038.1 -03419.3 -07.4813 26261.6
 06 03 2013  08 05  -21.0248 26038.2 -03419.4 -07.4815 26261.8
 06 03 2013  08 06  -21.0249 26038.3 -03419.5 -07.4815 26261.8
 06 03 2013  08 07  -21.0249 26038.3 -03419.4 -07.4814 26261.9
 06 03 2013  08 08  -21.0247 26038.3 -03419.3 -07.4812 26261.8
 06 03 2013  08 09  -21.0246 26038.1 -03419.3 -07.4812 26261.7
 06 03 2013  08 10  -21.0247 26038.0 -03419.3 -07.4811 26261.6
 06 03 2013  08 11  -21.0247 26038.0 -03419.2 -07.4811 26261.6
 06 03 2013  08 12  -21.0247 26038.1 -03419.3 -07.4811 26261.6
 06 03 2013  08 13  -21.0247 26038.1 -03419.3 -07.4812 26261.6
 06 03 2013  08 14  -21.0247 26038.1 -03419.3 -07.4812 26261.7
 06 03 2013  08 15  -21.0248 26038.2 -03419.4 -07.4813 26261.7
 06 03 2013  08 16  -21.0249 26038.2 -03419.4 -07.4814 26261.8
 06 03 2013  08 17  -21.0250 26038.2 -03419.5 -07.4815 26261.8
 06 03 2013  08 18  -21.0250 26038.2 -03419.5 -07.4816 26261.8
 06 03 2013  08 19  -21.0252 26038.2 -03419.5 -07.4816 26261.8
 06 03 2013  08 20  -21.0253 26038.2 -03419.5 -07.4816 26261.7
 06 03 2013  08 21  -21.0254 26038.2 -03419.5 -07.4816 26261.7
 06 03 2013  08 22  -21.0256 26038.1 -03419.5 -07.4817 26261.7
 06 03 2013  08 23  -21.0257 26038.1 -03419.6 -07.4818 26261.7
 06 03 2013  08 24  -21.0259 26038.1 -03419.5 -07.4817 26261.7
 06 03 2013  08 25  -21.0261 26038.1 -03419.6 -07.4818 26261.7
 06 03 2013  08 26  -21.0262 26038.1 -03419.6 -07.4819 26261.7
 06 03 2013  08 27  -21.0265 26038.0 -03419.6 -07.4819 26261.6
 06 03 2013  08 28  -21.0267 26038.0 -03419.6 -07.4819 26261.6
 06 03 2013  08 29  -21.0271 26037.9 -03419.6 -07.4820 26261.5
 06 03 2013  08 30  -21.0273 26037.9 -03419.6 -07.4820 26261.5
 06 03 2013  08 31  -21.0276 26037.9 -03419.7 -07.4820 26261.5
 06 03 2013  08 32  -21.0278 26037.9 -03419.7 -07.4820 26261.5
 06 03 2013  08 33  -21.0281 26037.8 -03419.6 -07.4820 26261.4
 06 03 2013  08 34  -21.0282 26037.8 -03419.6 -07.4819 26261.4
 06 03 2013  08 35  -21.0283 26037.8 -03419.6 -07.4819 26261.4
 06 03 2013  08 36  -21.0285 26037.8 -03419.6 -07.4820 26261.4
 06 03 2013  08 37  -21.0288 26037.8 -03419.6 -07.4820 26261.4
 06 03 2013  08 38  -21.0290 26037.8 -03419.6 -07.4819 26261.4
 06 03 2013  08 39  -21.0291 26037.7 -03419.5 -07.4818 26261.3
 06 03 2013  08 40  -21.0293 26037.6 -03419.4 -07.4816 26261.2
 06 03 2013  08 41  -21.0295 26037.6 -03419.4 -07.4815 26261.2
 06 03 2013  08 42  -21.0296 26037.6 -03419.4 -07.4815 26261.2
 06 03 2013  08 43  -21.0299 26037.6 -03419.3 -07.4814 26261.2
 06 03 2013  08 44  -21.0300 26037.7 -03419.3 -07.4813 26261.2
 06 03 2013  08 45  -21.0302 26037.6 -03419.3 -07.4813 26261.2
 06 03 2013  08 46  -21.0302 26037.7 -03419.2 -07.4812 26261.3
 06 03 2013  08 47  -21.0302 26037.8 -03419.2 -07.4811 26261.3
 06 03 2013  08 48  -21.0302 26037.8 -03419.2 -07.4810 26261.4
 06 03 2013  08 49  -21.0302 26037.9 -03419.1 -07.4809 26261.4
 06 03 2013  08 50  -21.0301 26037.9 -03419.1 -07.4808 26261.4
 06 03 2013  08 51  -21.0299 26038.0 -03419.1 -07.4807 26261.5
 06 03 2013  08 52  -21.0295 26038.1 -03419.1 -07.4807 26261.6
 06 03 2013  08 53  -21.0294 26038.2 -03419.0 -07.4806 26261.7
 06 03 2013  08 54  -21.0293 26038.3 -03419.1 -07.4807 26261.8
 06 03 2013  08 55  -21.0293 26038.3 -03419.1 -07.4807 26261.8
 06 03 2013  08 56  -21.0292 26038.3 -03419.1 -07.4807 26261.8
 06 03 2013  08 57  -21.0292 26038.3 -03419.1 -07.4807 26261.8
 06 03 2013  08 58  -21.0292 26038.3 -03419.1 -07.4808 26261.8
 06 03 2013  08 59  -21.0292 26038.3 -03419.2 -07.4809 26261.8
 06 03 2013  09 00  -21.0294 26038.3 -03419.2 -07.4810 26261.8
 06 03 2013  09 01  -21.0295 26038.4 -03419.3 -07.4811 26261.9
 06 03 2013  09 02  -21.0297 26038.5 -03419.4 -07.4813 26262.0
 06 03 2013  09 03  -21.0298 26038.6 -03419.5 -07.4815 26262.2
 06 03 2013  09 04  -21.0297 26038.8 -03419.6 -07.4817 26262.4
 06 03 2013  09 05  -21.0300 26039.1 -03419.7 -07.4818 26262.7
 06 03 2013  09 06  -21.0303 26039.3 -03419.9 -07.4821 26263.0
 06 03 2013  09 07  -21.0306 26039.5 -03420.0 -07.4823 26263.2
 06 03 2013  09 08  -21.0309 26039.8 -03420.1 -07.4825 26263.4
 06 03 2013  09 09  -21.0311 26040.0 -03420.1 -07.4825 26263.6
 06 03 2013  09 10  -21.0316 26040.2 -03420.2 -07.4825 26263.8
 06 03 2013  09 11  -21.0320 26040.4 -03420.2 -07.4826 26264.1
 06 03 2013  09 12  -21.0324 26040.5 -03420.2 -07.4825 26264.2
 06 03 2013  09 13  -21.0328 26040.6 -03420.1 -07.4823 26264.2
 06 03 2013  09 14  -21.0331 26040.6 -03420.1 -07.4822 26264.2
 06 03 2013  09 15  -21.0334 26040.7 -03420.0 -07.4820 26264.3
 06 03 2013  09 16  -21.0336 26040.8 -03420.0 -07.4819 26264.4
 06 03 2013  09 17  -21.0338 26040.9 -03420.0 -07.4819 26264.5
 06 03 2013  09 18  -21.0342 26041.1 -03420.0 -07.4819 26264.7
 06 03 2013  09 19  -21.0346 26041.2 -03420.0 -07.4819 26264.8
 06 03 2013  09 20  -21.0350 26041.2 -03420.0 -07.4817 26264.9
 06 03 2013  09 21  -21.0353 26041.4 -03419.9 -07.4817 26265.0
 06 03 2013  09 22  -21.0357 26041.5 -03419.9 -07.4816 26265.1
 06 03 2013  09 23  -21.0361 26041.7 -03419.9 -07.4815 26265.3
 06 03 2013  09 24  -21.0366 26041.9 -03419.8 -07.4813 26265.5
 06 03 2013  09 25  -21.0371 26042.1 -03419.9 -07.4814 26265.7
 06 03 2013  09 26  -21.0377 26042.2 -03419.9 -07.4814 26265.8
 06 03 2013  09 27  -21.0383 26042.3 -03419.9 -07.4813 26265.9
 06 03 2013  09 28  -21.0388 26042.4 -03419.9 -07.4812 26266.0
 06 03 2013  09 29  -21.0393 26042.6 -03419.8 -07.4810 26266.1
 06 03 2013  09 30  -21.0398 26042.7 -03419.7 -07.4809 26266.2
 06 03 2013  09 31  -21.0403 26042.7 -03419.7 -07.4808 26266.3
 06 03 2013  09 32  -21.0408 26042.8 -03419.7 -07.4806 26266.4
 06 03 2013  09 33  -21.0413 26042.9 -03419.6 -07.4805 26266.4
 06 03 2013  09 34  -21.0418 26043.0 -03419.5 -07.4803 26266.5
 06 03 2013  09 35  -21.0423 26043.0 -03419.5 -07.4801 26266.6
 06 03 2013  09 36  -21.0429 26043.2 -03419.4 -07.4799 26266.7
 06 03 2013  09 37  -21.0433 26043.2 -03419.3 -07.4797 26266.7
 06 03 2013  09 38  -21.0439 26043.2 -03419.2 -07.4794 26266.7
 06 03 2013  09 39  -21.0444 26043.3 -03419.1 -07.4793 26266.8
 06 03 2013  09 40  -21.0450 26043.5 -03419.0 -07.4791 26266.9
 06 03 2013  09 41  -21.0455 26043.6 -03419.0 -07.4790 26267.1
 06 03 2013  09 42  -21.0460 26043.8 -03418.9 -07.4788 26267.3
 06 03 2013  09 43  -21.0467 26044.0 -03418.9 -07.4786 26267.4
 06 03 2013  09 44  -21.0472 26044.2 -03418.8 -07.4784 26267.6
 06 03 2013  09 45  -21.0478 26044.4 -03418.7 -07.4782 26267.8
 06 03 2013  09 46  -21.0483 26044.5 -03418.6 -07.4780 26267.9
 06 03 2013  09 47  -21.0491 26044.7 -03418.6 -07.4777 26268.1
 06 03 2013  09 48  -21.0495 26044.9 -03418.5 -07.4775 26268.3
 06 03 2013  09 49  -21.0501 26045.1 -03418.4 -07.4772 26268.4
 06 03 2013  09 50  -21.0507 26045.2 -03418.3 -07.4770 26268.6
 06 03 2013  09 51  -21.0512 26045.3 -03418.2 -07.4767 26268.7
 06 03 2013  09 52  -21.0518 26045.5 -03418.1 -07.4764 26268.8
 06 03 2013  09 53  -21.0524 26045.6 -03418.0 -07.4762 26268.9
 06 03 2013  09 54  -21.0529 26045.7 -03417.8 -07.4759 26269.0
 06 03 2013  09 55  -21.0534 26045.9 -03417.7 -07.4756 26269.1
 06 03 2013  09 56  -21.0539 26046.0 -03417.6 -07.4753 26269.2
 06 03 2013  09 57  -21.0545 26046.1 -03417.5 -07.4751 26269.3
 06 03 2013  09 58  -21.0549 26046.2 -03417.4 -07.4748 26269.4
 06 03 2013  09 59  -21.0554 26046.4 -03417.3 -07.4746 26269.6
 06 03 2013  10 00  -21.0558 26046.5 -03417.2 -07.4744 26269.7
 06 03 2013  10 01  -21.0563 26046.5 -03417.1 -07.4742 26269.7
 06 03 2013  10 02  -21.0568 26046.6 -03417.1 -07.4739 26269.8
 06 03 2013  10 03  -21.0574 26046.7 -03417.0 -07.4737 26269.9
 06 03 2013  10 04  -21.0579 26046.8 -03416.9 -07.4735 26270.0
 06 03 2013  10 05  -21.0584 26046.9 -03416.8 -07.4734 26270.1
 06 03 2013  10 06  -21.0588 26047.1 -03416.8 -07.4731 26270.3
 06 03 2013  10 07  -21.0593 26047.3 -03416.7 -07.4730 26270.4
 06 03 2013  10 08  -21.0598 26047.5 -03416.7 -07.4729 26270.6
 06 03 2013  10 09  -21.0602 26047.7 -03416.6 -07.4727 26270.8
 06 03 2013  10 10  -21.0606 26047.8 -03416.6 -07.4726 26270.9
 06 03 2013  10 11  -21.0612 26048.1 -03416.6 -07.4725 26271.2
 06 03 2013  10 12  -21.0617 26048.3 -03416.5 -07.4723 26271.4
 06 03 2013  10 13  -21.0621 26048.5 -03416.5 -07.4721 26271.5
 06 03 2013  10 14  -21.0626 26048.6 -03416.4 -07.4719 26271.7
 06 03 2013  10 15  -21.0632 26048.8 -03416.3 -07.4718 26271.9
 06 03 2013  10 16  -21.0639 26048.8 -03416.2 -07.4714 26271.9
 06 03 2013  10 17  -21.0647 26049.0 -03416.1 -07.4713 26272.1
 06 03 2013  10 18  -21.0654 26049.2 -03416.1 -07.4710 26272.3
 06 03 2013  10 19  -21.0661 26049.2 -03415.9 -07.4707 26272.2
 06 03 2013  10 20  -21.0667 26049.2 -03415.8 -07.4704 26272.2
 06 03 2013  10 21  -21.0672 26049.2 -03415.6 -07.4701 26272.1
 06 03 2013  10 22  -21.0680 26049.1 -03415.4 -07.4698 26272.0
 06 03 2013  10 23  -21.0685 26049.0 -03415.3 -07.4694 26271.9
 06 03 2013  10 24  -21.0692 26048.8 -03415.2 -07.4692 26271.8
 06 03 2013  10 25  -21.0699 26048.9 -03415.1 -07.4691 26271.8
 06 03 2013  10 26  -21.0703 26048.9 -03415.0 -07.4689 26271.8
 06 03 2013  10 27  -21.0705 26048.8 -03414.9 -07.4687 26271.7
 06 03 2013  10 28  -21.0709 26048.9 -03414.9 -07.4686 26271.8
 06 03 2013  10 29  -21.0714 26049.0 -03414.9 -07.4685 26271.9
 06 03 2013  10 30  -21.0718 26049.2 -03414.9 -07.4685 26272.0
 06 03 2013  10 31  -21.0721 26049.4 -03414.9 -07.4685 26272.3
 06 03 2013  10 32  -21.0725 26049.7 -03415.0 -07.4686 26272.6
 06 03 2013  10 33  -21.0728 26050.0 -03415.1 -07.4687 26272.9
 06 03 2013  10 34  -21.0730 26050.3 -03415.1 -07.4686 26273.2
 06 03 2013  10 35  -21.0732 26050.6 -03415.1 -07.4687 26273.5
 06 03 2013  10 36  -21.0738 26050.9 -03415.2 -07.4686 26273.8
 06 03 2013  10 37  -21.0744 26051.2 -03415.2 -07.4686 26274.1
 06 03 2013  10 38  -21.0748 26051.5 -03415.2 -07.4686 26274.4
 06 03 2013  10 39  -21.0752 26051.8 -03415.2 -07.4685 26274.7
 06 03 2013  10 40  -21.0758 26052.0 -03415.2 -07.4684 26274.9
 06 03 2013  10 41  -21.0764 26052.1 -03415.1 -07.4682 26275.0
 06 03 2013  10 42  -21.0770 26052.2 -03415.0 -07.4680 26275.1
 06 03 2013  10 43  -21.0777 26052.3 -03415.0 -07.4679 26275.2
 06 03 2013  10 44  -21.0782 26052.4 -03415.0 -07.4677 26275.3
 06 03 2013  10 45  -21.0783 26052.6 -03414.9 -07.4677 26275.4
 06 03 2013  10 46  -21.0786 26052.8 -03415.0 -07.4676 26275.7
 06 03 2013  10 47  -21.0790 26053.1 -03415.0 -07.4676 26275.9
 06 03 2013  10 48  -21.0794 26053.5 -03415.1 -07.4677 26276.3
 06 03 2013  10 49  -21.0796 26053.9 -03415.2 -07.4678 26276.8
 06 03 2013  10 50  -21.0797 26054.3 -03415.2 -07.4678 26277.2
 06 03 2013  10 51  -21.0796 26054.7 -03415.3 -07.4679 26277.6
 06 03 2013  10 52  -21.0798 26055.3 -03415.4 -07.4680 26278.2
 06 03 2013  10 53  -21.0802 26055.8 -03415.5 -07.4680 26278.7
 06 03 2013  10 54  -21.0807 26056.3 -03415.6 -07.4680 26279.2
 06 03 2013  10 55  -21.0811 26056.9 -03415.7 -07.4680 26279.8
 06 03 2013  10 56  -21.0814 26057.5 -03415.7 -07.4679 26280.4
 06 03 2013  10 57  -21.0816 26057.9 -03415.7 -07.4678 26280.8
 06 03 2013  10 58  -21.0820 26058.1 -03415.6 -07.4675 26281.0
 06 03 2013  10 59  -21.0824 26058.4 -03415.5 -07.4672 26281.2
 06 03 2013  11 00  -21.0829 26058.6 -03415.4 -07.4670 26281.4
 06 03 2013  11 01  -21.0836 26058.7 -03415.3 -07.4667 26281.5
 06 03 2013  11 02  -21.0841 26058.7 -03415.1 -07.4664 26281.5
 06 03 2013  11 03  -21.0845 26058.7 -03415.0 -07.4661 26281.5
 06 03 2013  11 04  -21.0850 26058.7 -03414.9 -07.4659 26281.5
 06 03 2013  11 05  -21.0852 26058.7 -03414.8 -07.4657 26281.5
 06 03 2013  11 06  -21.0854 26058.6 -03414.7 -07.4654 26281.4
 06 03 2013  11 07  -21.0857 26058.7 -03414.6 -07.4653 26281.4
 06 03 2013  11 08  -21.0861 26058.6 -03414.6 -07.4652 26281.4
 06 03 2013  11 09  -21.0864 26058.7 -03414.5 -07.4651 26281.4
 06 03 2013  11 10  -21.0866 26058.8 -03414.5 -07.4650 26281.6
 06 03 2013  11 11  -21.0869 26058.9 -03414.5 -07.4650 26281.7
 06 03 2013  11 12  -21.0871 26059.1 -03414.6 -07.4650 26281.8
 06 03 2013  11 13  -21.0874 26059.3 -03414.6 -07.4650 26282.0
 06 03 2013  11 14  -21.0876 26059.5 -03414.6 -07.4651 26282.2
 06 03 2013  11 15  -21.0879 26059.8 -03414.7 -07.4652 26282.6
 06 03 2013  11 16  -21.0880 26060.2 -03414.8 -07.4652 26282.9
 06 03 2013  11 17  -21.0881 26060.4 -03414.8 -07.4651 26283.2
 06 03 2013  11 18  -21.0882 26060.8 -03414.8 -07.4651 26283.6
 06 03 2013  11 19  -21.0885 26061.1 -03414.9 -07.4651 26283.9
 06 03 2013  11 20  -21.0888 26061.4 -03414.9 -07.4650 26284.2
 06 03 2013  11 21  -21.0892 26061.6 -03414.9 -07.4649 26284.4
 06 03 2013  11 22  -21.0895 26061.9 -03414.8 -07.4648 26284.7
 06 03 2013  11 23  -21.0900 26062.1 -03414.8 -07.4646 26284.8
 06 03 2013  11 24  -21.0904 26062.2 -03414.7 -07.4645 26285.0
 06 03 2013  11 25  -21.0908 26062.4 -03414.7 -07.4643 26285.1
 06 03 2013  11 26  -21.0912 26062.5 -03414.6 -07.4642 26285.3
 06 03 2013  11 27  -21.0914 26062.7 -03414.7 -07.4642 26285.5
 06 03 2013  11 28  -21.0916 26063.0 -03414.7 -07.4641 26285.8
 06 03 2013  11 29  -21.0919 26063.2 -03414.7 -07.4640 26286.0
 06 03 2013  11 30  -21.0922 26063.4 -03414.6 -07.4639 26286.2
 06 03 2013  11 31  -21.0925 26063.7 -03414.6 -07.4639 26286.4
 06 03 2013  11 32  -21.0929 26063.9 -03414.6 -07.4638 26286.7
 06 03 2013  11 33  -21.0931 26064.1 -03414.6 -07.4636 26286.9
 06 03 2013  11 34  -21.0933 26064.3 -03414.5 -07.4635 26287.0
 06 03 2013  11 35  -21.0937 26064.5 -03414.5 -07.4634 26287.2
 06 03 2013  11 36  -21.0940 26064.8 -03414.5 -07.4632 26287.5
 06 03 2013  11 37  -21.0942 26064.9 -03414.4 -07.4631 26287.6
 06 03 2013  11 38  -21.0946 26065.0 -03414.4 -07.4629 26287.7
 06 03 2013  11 39  -21.0948 26065.1 -03414.3 -07.4628 26287.8
 06 03 2013  11 40  -21.0950 26065.3 -03414.3 -07.4626 26288.0
 06 03 2013  11 41  -21.0952 26065.5 -03414.3 -07.4626 26288.2
 06 03 2013  11 42  -21.0955 26065.7 -03414.2 -07.4624 26288.4
 06 03 2013  11 43  -21.0957 26066.0 -03414.2 -07.4623 26288.6
 06 03 2013  11 44  -21.0960 26066.3 -03414.2 -07.4622 26288.9
 06 03 2013  11 45  -21.0963 26066.5 -03414.2 -07.4620 26289.1
 06 03 2013  11 46  -21.0966 26066.7 -03414.1 -07.4619 26289.3
 06 03 2013  11 47  -21.0967 26066.9 -03414.1 -07.4617 26289.5
 06 03 2013  11 48  -21.0968 26067.1 -03414.0 -07.4616 26289.7
 06 03 2013  11 49  -21.0969 26067.3 -03414.0 -07.4615 26290.0
 06 03 2013  11 50  -21.0970 26067.7 -03414.0 -07.4614 26290.3
 06 03 2013  11 51  -21.0970 26068.0 -03414.0 -07.4612 26290.6
 06 03 2013  11 52  -21.0969 26068.4 -03414.0 -07.4612 26291.0
 06 03 2013  11 53  -21.0970 26068.7 -03414.0 -07.4610 26291.3
 06 03 2013  11 54  -21.0970 26069.0 -03414.0 -07.4609 26291.6
 06 03 2013  11 55  -21.0972 26069.4 -03413.9 -07.4607 26291.9
 06 03 2013  11 56  -21.0974 26069.7 -03413.9 -07.4605 26292.2
 06 03 2013  11 57  -21.0975 26070.1 -03413.8 -07.4602 26292.6
 06 03 2013  11 58  -21.0976 26070.4 -03413.7 -07.4600 26292.9
 06 03 2013  11 59  -21.0977 26070.6 -03413.6 -07.4596 26293.1
 06 03 2013  12 00  -21.0979 26070.7 -03413.4 -07.4593 26293.2
 06 03 2013  12 01  -21.0981 26070.8 -03413.3 -07.4590 26293.2
 06 03 2013  12 02  -21.0981 26070.9 -03413.2 -07.4588 26293.3
 06 03 2013  12 03  -21.0983 26070.8 -03413.1 -07.4585 26293.3
 06 03 2013  12 04  -21.0986 26070.9 -03413.0 -07.4584 26293.4
 06 03 2013  12 05  -21.0988 26071.2 -03413.1 -07.4584 26293.7
 06 03 2013  12 06  -21.0989 26071.6 -03413.2 -07.4585 26294.1
 06 03 2013  12 07  -21.0990 26072.1 -03413.3 -07.4586 26294.6
 06 03 2013  12 08  -21.0990 26072.5 -03413.4 -07.4586 26295.0
 06 03 2013  12 09  -21.0992 26073.0 -03413.4 -07.4585 26295.4
 06 03 2013  12 10  -21.0994 26073.5 -03413.4 -07.4585 26296.0
 06 03 2013  12 11  -21.0996 26074.1 -03413.5 -07.4585 26296.6
 06 03 2013  12 12  -21.0998 26074.6 -03413.5 -07.4583 26297.1
 06 03 2013  12 13  -21.1002 26075.0 -03413.4 -07.4580 26297.5
 06 03 2013  12 14  -21.1007 26075.5 -03413.4 -07.4578 26297.9
 06 03 2013  12 15  -21.1011 26075.9 -03413.3 -07.4575 26298.3
 06 03 2013  12 16  -21.1015 26076.3 -03413.2 -07.4572 26298.7
 06 03 2013  12 17  -21.1017 26076.5 -03413.0 -07.4567 26298.9
 06 03 2013  12 18  -21.1020 26076.7 -03412.8 -07.4562 26299.1
 06 03 2013  12 19  -21.1023 26077.0 -03412.7 -07.4559 26299.3
 06 03 2013  12 20  -21.1025 26077.0 -03412.5 -07.4555 26299.3
 06 03 2013  12 21  -21.1027 26077.2 -03412.4 -07.4552 26299.5
 06 03 2013  12 22  -21.1030 26077.4 -03412.2 -07.4548 26299.7
 06 03 2013  12 23  -21.1034 26077.4 -03412.0 -07.4543 26299.7
 06 03 2013  12 24  -21.1045 26077.1 -03411.6 -07.4535 26299.3
 06 03 2013  12 25  -21.1058 26076.2 -03411.0 -07.4524 26298.4
 06 03 2013  12 26  -21.1068 26075.3 -03410.5 -07.4515 26297.4
 06 03 2013  12 27  -21.1077 26074.4 -03410.1 -07.4510 26296.4
 06 03 2013  12 28  -21.1082 26073.8 -03409.9 -07.4508 26295.8
 06 03 2013  12 29  -21.1085 26073.6 -03409.9 -07.4509 26295.6
 06 03 2013  12 30  -21.1087 26073.7 -03410.1 -07.4512 26295.8
 06 03 2013  12 31  -21.1087 26073.9 -03410.2 -07.4514 26296.0
 06 03 2013  12 32  -21.1087 26074.3 -03410.3 -07.4516 26296.4
 06 03 2013  12 33  -21.1088 26074.9 -03410.5 -07.4517 26296.9
 06 03 2013  12 34  -21.1089 26075.5 -03410.6 -07.4518 26297.6
 06 03 2013  12 35  -21.1091 26076.1 -03410.7 -07.4518 26298.3
 06 03 2013  12 36  -21.1093 26076.8 -03410.8 -07.4519 26298.9
 06 03 2013  12 37  -21.1094 26077.4 -03410.8 -07.4517 26299.5
 06 03 2013  12 38  -21.1096 26077.9 -03410.8 -07.4515 26300.0
 06 03 2013  12 39  -21.1097 26078.2 -03410.7 -07.4513 26300.3
 06 03 2013  12 40  -21.1099 26078.7 -03410.6 -07.4510 26300.7
 06 03 2013  12 41  -21.1102 26079.0 -03410.6 -07.4507 26301.1
 06 03 2013  12 42  -21.1105 26079.4 -03410.5 -07.4504 26301.4
 06 03 2013  12 43  -21.1109 26079.6 -03410.4 -07.4501 26301.7
 06 03 2013  12 44  -21.1112 26079.8 -03410.3 -07.4498 26301.8
 06 03 2013  12 45  -21.1114 26080.1 -03410.2 -07.4496 26302.1
 06 03 2013  12 46  -21.1117 26080.4 -03410.1 -07.4493 26302.4
 06 03 2013  12 47  -21.1120 26080.7 -03409.9 -07.4489 26302.6
 06 03 2013  12 48  -21.1123 26080.9 -03409.8 -07.4485 26302.9
 06 03 2013  12 49  -21.1125 26081.2 -03409.7 -07.4482 26303.2
 06 03 2013  12 50  -21.1124 26081.5 -03409.6 -07.4479 26303.4
 06 03 2013  12 51  -21.1125 26081.8 -03409.5 -07.4476 26303.7
 06 03 2013  12 52  -21.1125 26082.0 -03409.4 -07.4473 26303.9
 06 03 2013  12 53  -21.1125 26082.3 -03409.2 -07.4469 26304.2
 06 03 2013  12 54  -21.1125 26082.6 -03409.1 -07.4467 26304.4
 06 03 2013  12 55  -21.1124 26082.8 -03409.0 -07.4464 26304.6
 06 03 2013  12 56  -21.1124 26083.1 -03408.9 -07.4461 26304.9
 06 03 2013  12 57  -21.1122 26083.3 -03408.8 -07.4458 26305.1
 06 03 2013  12 58  -21.1121 26083.5 -03408.8 -07.4456 26305.3
 06 03 2013  12 59  -21.1119 26083.8 -03408.7 -07.4453 26305.6
 06 03 2013  13 00  -21.1119 26084.2 -03408.7 -07.4452 26306.0
 06 03 2013  13 01  -21.1118 26084.6 -03408.6 -07.4450 26306.4
 06 03 2013  13 02  -21.1117 26084.9 -03408.6 -07.4448 26306.7
 06 03 2013  13 03  -21.1113 26085.3 -03408.5 -07.4445 26307.0
 06 03 2013  13 04  -21.1111 26085.8 -03408.5 -07.4445 26307.5
 06 03 2013  13 05  -21.1108 26086.2 -03408.5 -07.4442 26307.9
 06 03 2013  13 06  -21.1107 26086.5 -03408.4 -07.4440 26308.2
 06 03 2013  13 07  -21.1106 26086.8 -03408.4 -07.4438 26308.5
 06 03 2013  13 08  -21.1104 26086.9 -03408.2 -07.4435 26308.6
 06 03 2013  13 09  -21.1103 26087.2 -03408.2 -07.4434 26308.8
 06 03 2013  13 10  -21.1103 26087.3 -03408.1 -07.4431 26309.0
 06 03 2013  13 11  -21.1104 26087.5 -03408.0 -07.4429 26309.2
 06 03 2013  13 12  -21.1105 26087.6 -03407.9 -07.4426 26309.3
 06 03 2013  13 13  -21.1107 26087.7 -03407.8 -07.4423 26309.4
 06 03 2013  13 14  -21.1107 26087.9 -03407.7 -07.4421 26309.5
 06 03 2013  13 15  -21.1107 26088.0 -03407.6 -07.4418 26309.6
 06 03 2013  13 16  -21.1107 26088.0 -03407.4 -07.4415 26309.6
 06 03 2013  13 17  -21.1106 26088.2 -03407.3 -07.4412 26309.7
 06 03 2013  13 18  -21.1105 26088.5 -03407.3 -07.4410 26310.0
 06 03 2013  13 19  -21.1102 26088.8 -03407.3 -07.4409 26310.3
 06 03 2013  13 20  -21.1101 26088.9 -03407.2 -07.4406 26310.5
 06 03 2013  13 21  -21.1100 26089.2 -03407.1 -07.4404 26310.7
 06 03 2013  13 22  -21.1097 26089.5 -03407.1 -07.4402 26311.1
 06 03 2013  13 23  -21.1095 26089.9 -03407.0 -07.4400 26311.4
 06 03 2013  13 24  -21.1093 26090.1 -03406.9 -07.4398 26311.6
 06 03 2013  13 25  -21.1090 26090.3 -03406.8 -07.4394 26311.8
 06 03 2013  13 26  -21.1088 26090.5 -03406.7 -07.4391 26312.0
 06 03 2013  13 27  -21.1083 26090.6 -03406.5 -07.4387 26312.0
 06 03 2013  13 28  -21.1078 26090.7 -03406.4 -07.4384 26312.1
 06 03 2013  13 29  -21.1074 26090.8 -03406.2 -07.4381 26312.2
 06 03 2013  13 30  -21.1071 26091.0 -03406.2 -07.4379 26312.4
 06 03 2013  13 31  -21.1068 26091.1 -03406.0 -07.4375 26312.5
 06 03 2013  13 32  -21.1063 26091.1 -03405.9 -07.4373 26312.5
 06 03 2013  13 33  -21.1060 26091.2 -03405.8 -07.4370 26312.6
 06 03 2013  13 34  -21.1055 26091.3 -03405.7 -07.4368 26312.6
 06 03 2013  13 35  -21.1050 26091.4 -03405.7 -07.4366 26312.7
 06 03 2013  13 36  -21.1046 26091.5 -03405.6 -07.4365 26312.9
 06 03 2013  13 37  -21.1041 26091.7 -03405.6 -07.4364 26313.0
 06 03 2013  13 38  -21.1036 26091.9 -03405.5 -07.4363 26313.2
 06 03 2013  13 39  -21.1031 26092.0 -03405.5 -07.4361 26313.3
 06 03 2013  13 40  -21.1027 26092.2 -03405.4 -07.4360 26313.5
 06 03 2013  13 41  -21.1022 26092.4 -03405.4 -07.4358 26313.6
 06 03 2013  13 42  -21.1017 26092.5 -03405.4 -07.4357 26313.8
 06 03 2013  13 43  -21.1013 26092.6 -03405.3 -07.4355 26313.9
 06 03 2013  13 44  -21.1009 26092.8 -03405.3 -07.4355 26314.0
 06 03 2013  13 45  -21.1006 26092.9 -03405.3 -07.4354 26314.2
 06 03 2013  13 46  -21.1002 26093.2 -03405.3 -07.4354 26314.4
 06 03 2013  13 47  -21.0998 26093.4 -03405.3 -07.4353 26314.6
 06 03 2013  13 48  -21.0994 26093.5 -03405.3 -07.4352 26314.8
 06 03 2013  13 49  -21.0991 26093.7 -03405.3 -07.4351 26315.0
 06 03 2013  13 50  -21.0987 26093.9 -03405.2 -07.4350 26315.1
 06 03 2013  13 51  -21.0982 26094.0 -03405.1 -07.4348 26315.2
 06 03 2013  13 52  -21.0977 26094.0 -03405.1 -07.4347 26315.3
 06 03 2013  13 53  -21.0973 26094.0 -03405.0 -07.4345 26315.3
 06 03 2013  13 54  -21.0968 26094.1 -03405.0 -07.4344 26315.3
 06 03 2013  13 55  -21.0966 26094.0 -03404.9 -07.4343 26315.2
 06 03 2013  13 56  -21.0964 26094.0 -03404.8 -07.4342 26315.2
 06 03 2013  13 57  -21.0957 26093.9 -03404.8 -07.4341 26315.1
 06 03 2013  13 58  -21.0953 26094.0 -03404.8 -07.4341 26315.2
 06 03 2013  13 59  -21.0948 26094.0 -03404.7 -07.4339 26315.1
 06 03 2013  14 00  -21.0943 26094.0 -03404.7 -07.4339 26315.2
 06 03 2013  14 01  -21.0937 26094.0 -03404.7 -07.4338 26315.2
 06 03 2013  14 02  -21.0932 26094.1 -03404.7 -07.4338 26315.3
 06 03 2013  14 03  -21.0927 26094.2 -03404.7 -07.4338 26315.4
 06 03 2013  14 04  -21.0921 26094.4 -03404.8 -07.4339 26315.5
 06 03 2013  14 05  -21.0914 26094.5 -03404.8 -07.4339 26315.7
 06 03 2013  14 06  -21.0908 26094.7 -03404.9 -07.4340 26315.9
 06 03 2013  14 07  -21.0901 26094.8 -03404.9 -07.4340 26316.0
 06 03 2013  14 08  -21.0895 26095.0 -03404.9 -07.4341 26316.2
 06 03 2013  14 09  -21.0889 26095.1 -03405.0 -07.4341 26316.3
 06 03 2013  14 10  -21.0881 26095.2 -03405.0 -07.4341 26316.4
 06 03 2013  14 11  -21.0876 26095.2 -03405.0 -07.4341 26316.4
 06 03 2013  14 12  -21.0869 26095.2 -03405.0 -07.4342 26316.4
 06 03 2013  14 13  -21.0861 26095.2 -03405.1 -07.4343 26316.4
 06 03 2013  14 14  -21.0854 26095.2 -03405.1 -07.4344 26316.4
 06 03 2013  14 15  -21.0849 26095.3 -03405.2 -07.4347 26316.5
 06 03 2013  14 16  -21.0845 26095.3 -03405.4 -07.4349 26316.5
 06 03 2013  14 17  -21.0840 26095.2 -03405.5 -07.4351 26316.5
 06 03 2013  14 18  -21.0835 26095.4 -03405.6 -07.4354 26316.6
 06 03 2013  14 19  -21.0831 26095.5 -03405.8 -07.4358 26316.8
 06 03 2013  14 20  -21.0827 26095.5 -03405.9 -07.4361 26316.8
 06 03 2013  14 21  -21.0824 26095.5 -03406.1 -07.4363 26316.9
 06 03 2013  14 22  -21.0820 26095.5 -03406.2 -07.4366 26316.9
 06 03 2013  14 23  -21.0818 26095.6 -03406.3 -07.4370 26317.0
 06 03 2013  14 24  -21.0820 26095.8 -03406.6 -07.4374 26317.2
 06 03 2013  14 25  -21.0820 26095.8 -03406.6 -07.4375 26317.2
 06 03 2013  14 26  -21.0820 26095.8 -03406.7 -07.4377 26317.2
 06 03 2013  14 27  -21.0820 26095.7 -03406.8 -07.4379 26317.1
 06 03 2013  14 28  -21.0819 26095.6 -03406.8 -07.4380 26317.0
 06 03 2013  14 29  -21.0819 26095.4 -03406.9 -07.4381 26316.9
 06 03 2013  14 30  -21.0820 26095.2 -03406.9 -07.4382 26316.7
 06 03 2013  14 31  -21.0820 26095.0 -03406.9 -07.4384 26316.5
 06 03 2013  14 32  -21.0821 26094.9 -03407.0 -07.4385 26316.3
 06 03 2013  14 33  -21.0820 26094.7 -03407.0 -07.4387 26316.2
 06 03 2013  14 34  -21.0821 26094.6 -03407.1 -07.4389 26316.1
 06 03 2013  14 35  -21.0821 26094.4 -03407.2 -07.4391 26315.9
 06 03 2013  14 36  -21.0820 26094.2 -03407.2 -07.4392 26315.7
 06 03 2013  14 37  -21.0819 26094.0 -03407.3 -07.4394 26315.5
 06 03 2013  14 38  -21.0818 26093.9 -03407.3 -07.4396 26315.4
 06 03 2013  14 39  -21.0817 26093.9 -03407.5 -07.4398 26315.4
 06 03 2013  14 40  -21.0818 26093.9 -03407.5 -07.4400 26315.4
 06 03 2013  14 41  -21.0818 26093.9 -03407.7 -07.4403 26315.4
 06 03 2013  14 42  -21.0817 26093.9 -03407.8 -07.4405 26315.5
 06 03 2013  14 43  -21.0816 26093.8 -03407.8 -07.4406 26315.4
 06 03 2013  14 44  -21.0816 26093.8 -03407.8 -07.4407 26315.4
 06 03 2013  14 45  -21.0815 26093.7 -03407.8 -07.4407 26315.2
 06 03 2013  14 46  -21.0812 26093.5 -03407.8 -07.4407 26315.1
 06 03 2013  14 47  -21.0809 26093.4 -03407.9 -07.4408 26315.0
 06 03 2013  14 48  -21.0808 26093.4 -03408.0 -07.4411 26315.0
 06 03 2013  14 49  -21.0806 26093.4 -03408.1 -07.4413 26315.1
 06 03 2013  14 50  -21.0804 26093.6 -03408.2 -07.4416 26315.2
 06 03 2013  14 51  -21.0805 26093.9 -03408.4 -07.4419 26315.6
 06 03 2013  14 52  -21.0805 26093.8 -03408.4 -07.4418 26315.5
 06 03 2013  14 53  -21.0802 26093.5 -03408.2 -07.4416 26315.1
 06 03 2013  14 54  -21.0800 26093.1 -03408.1 -07.4414 26314.7
 06 03 2013  14 55  -21.0798 26092.7 -03408.0 -07.4414 26314.4
 06 03 2013  14 56  -21.0797 26092.4 -03408.0 -07.4414 26314.0
 06 03 2013  14 57  -21.0798 26092.2 -03408.0 -07.4415 26313.9
 06 03 2013  14 58  -21.0798 26092.0 -03408.1 -07.4417 26313.7
 06 03 2013  14 59  -21.0798 26091.9 -03408.2 -07.4419 26313.5
 06 03 2013  15 00  -21.0800 26092.0 -03408.3 -07.4421 26313.6
 06 03 2013  15 01  -21.0802 26092.1 -03408.4 -07.4423 26313.7
 06 03 2013  15 02  -21.0804 26092.2 -03408.5 -07.4425 26313.9
 06 03 2013  15 03  -21.0806 26092.3 -03408.5 -07.4426 26314.0
 06 03 2013  15 04  -21.0805 26092.4 -03408.6 -07.4426 26314.1
 06 03 2013  15 05  -21.0805 26092.4 -03408.5 -07.4426 26314.1
 06 03 2013  15 06  -21.0806 26092.5 -03408.6 -07.4426 26314.2
 06 03 2013  15 07  -21.0805 26092.4 -03408.5 -07.4425 26314.1
 06 03 2013  15 08  -21.0804 26092.3 -03408.5 -07.4425 26314.0
 06 03 2013  15 09  -21.0804 26092.3 -03408.5 -07.4425 26313.9
 06 03 2013  15 10  -21.0804 26092.0 -03408.5 -07.4425 26313.7
 06 03 2013  15 11  -21.0804 26091.6 -03408.5 -07.4427 26313.3
 06 03 2013  15 12  -21.0805 26091.3 -03408.5 -07.4428 26313.0
 06 03 2013  15 13  -21.0804 26090.9 -03408.5 -07.4429 26312.6
 06 03 2013  15 14  -21.0805 26090.6 -03408.5 -07.4431 26312.4
 06 03 2013  15 15  -21.0807 26090.8 -03408.6 -07.4432 26312.5
 06 03 2013  15 16  -21.0809 26090.9 -03408.7 -07.4435 26312.6
 06 03 2013  15 17  -21.0810 26090.9 -03408.8 -07.4436 26312.7
 06 03 2013  15 18  -21.0812 26090.7 -03408.9 -07.4439 26312.5
 06 03 2013  15 19  -21.0815 26090.8 -03409.0 -07.4441 26312.6
 06 03 2013  15 20  -21.0818 26090.6 -03409.1 -07.4443 26312.4
 06 03 2013  15 21  -21.0820 26090.4 -03409.2 -07.4446 26312.2
 06 03 2013  15 22  -21.0825 26090.1 -03409.4 -07.4450 26312.0
 06 03 2013  15 23  -21.0830 26090.3 -03409.5 -07.4452 26312.2
 06 03 2013  15 24  -21.0835 26090.7 -03409.5 -07.4452 26312.5
 06 03 2013  15 25  -21.0840 26090.8 -03409.5 -07.4452 26312.6
 06 03 2013  15 26  -21.0848 26090.8 -03409.6 -07.4453 26312.6
 06 03 2013  15 27  -21.0854 26090.7 -03409.6 -07.4453 26312.5
 06 03 2013  15 28  -21.0859 26090.3 -03409.6 -07.4454 26312.1
 06 03 2013  15 29  -21.0865 26090.4 -03409.5 -07.4453 26312.2
 06 03 2013  15 30  -21.0870 26090.3 -03409.5 -07.4452 26312.2
 06 03 2013  15 31  -21.0876 26090.2 -03409.4 -07.4451 26312.0
 06 03 2013  15 32  -21.0882 26090.0 -03409.4 -07.4451 26311.9
 06 03 2013  15 33  -21.0889 26090.5 -03409.3 -07.4447 26312.3
 06 03 2013  15 34  -21.0894 26090.6 -03409.1 -07.4443 26312.3
 06 03 2013  15 35  -21.0897 26090.4 -03408.9 -07.4439 26312.1
 06 03 2013  15 36  -21.0901 26090.1 -03408.8 -07.4437 26311.9
 06 03 2013  15 37  -21.0907 26089.9 -03408.7 -07.4435 26311.7
 06 03 2013  15 38  -21.0910 26090.0 -03408.4 -07.4430 26311.7
 06 03 2013  15 39  -21.0912 26090.0 -03408.3 -07.4427 26311.7
 06 03 2013  15 40  -21.0915 26089.8 -03408.2 -07.4425 26311.5
 06 03 2013  15 41  -21.0918 26089.4 -03408.1 -07.4424 26311.0
 06 03 2013  15 42  -21.0920 26088.9 -03407.9 -07.4422 26310.5
 06 03 2013  15 43  -21.0922 26088.6 -03407.7 -07.4418 26310.2
 06 03 2013  15 44  -21.0922 26088.3 -03407.5 -07.4415 26309.9
 06 03 2013  15 45  -21.0922 26088.3 -03407.3 -07.4410 26309.8
 06 03 2013  15 46  -21.0922 26088.2 -03407.1 -07.4407 26309.7
 06 03 2013  15 47  -21.0923 26088.0 -03407.0 -07.4405 26309.6
 06 03 2013  15 48  -21.0924 26087.6 -03406.9 -07.4405 26309.2
 06 03 2013  15 49  -21.0924 26087.2 -03406.9 -07.4404 26308.8
 06 03 2013  15 50  -21.0924 26087.4 -03406.8 -07.4403 26308.9
 06 03 2013  15 51  -21.0924 26088.0 -03406.8 -07.4401 26309.5
 06 03 2013  15 52  -21.0924 26088.4 -03406.7 -07.4397 26309.9
 06 03 2013  15 53  -21.0924 26088.6 -03406.6 -07.4396 26310.0
 06 03 2013  15 54  -21.0922 26088.3 -03406.5 -07.4394 26309.7
 06 03 2013  15 55  -21.0920 26088.1 -03406.5 -07.4393 26309.5
 06 03 2013  15 56  -21.0919 26088.1 -03406.3 -07.4390 26309.5
 06 03 2013  15 57  -21.0918 26087.9 -03406.2 -07.4389 26309.3
 06 03 2013  15 58  -21.0916 26087.5 -03406.1 -07.4388 26308.9
 06 03 2013  15 59  -21.0913 26087.0 -03406.1 -07.4387 26308.4
 06 03 2013  16 00  -21.0911 26087.0 -03405.9 -07.4385 26308.4
 06 03 2013  16 01  -21.0909 26086.9 -03405.8 -07.4382 26308.3
 06 03 2013  16 02  -21.0907 26086.7 -03405.7 -07.4380 26308.1
 06 03 2013  16 03  -21.0905 26086.8 -03405.6 -07.4377 26308.1
 06 03 2013  16 04  -21.0903 26086.6 -03405.5 -07.4376 26308.0
 06 03 2013  16 05  -21.0902 26086.7 -03405.4 -07.4374 26308.0
 06 03 2013  16 06  -21.0899 26086.2 -03405.3 -07.4373 26307.5
 06 03 2013  16 07  -21.0895 26085.9 -03405.2 -07.4372 26307.2
 06 03 2013  16 08  -21.0889 26085.8 -03405.1 -07.4370 26307.1
 06 03 2013  16 09  -21.0884 26085.4 -03405.1 -07.4371 26306.8
 06 03 2013  16 10  -21.0880 26084.9 -03405.1 -07.4373 26306.2
 06 03 2013  16 11  -21.0875 26084.6 -03405.0 -07.4372 26305.9
 06 03 2013  16 12  -21.0869 26085.5 -03405.1 -07.4370 26306.8
 06 03 2013  16 13  -21.0862 26085.9 -03405.1 -07.4370 26307.2
 06 03 2013  16 14  -21.0858 26086.2 -03405.3 -07.4373 26307.5
 06 03 2013  16 15  -21.0855 26086.2 -03405.4 -07.4376 26307.6
 06 03 2013  16 16  -21.0852 26086.6 -03405.6 -07.4378 26307.9
 06 03 2013  16 17  -21.0851 26086.9 -03405.7 -07.4380 26308.2
 06 03 2013  16 18  -21.0850 26086.8 -03405.7 -07.4381 26308.2
 06 03 2013  16 19  -21.0849 26086.9 -03405.8 -07.4381 26308.2
 06 03 2013  16 20  -21.0849 26086.9 -03405.7 -07.4381 26308.3
 06 03 2013  16 21  -21.0849 26087.0 -03405.7 -07.4379 26308.4
 06 03 2013  16 22  -21.0849 26086.8 -03405.5 -07.4376 26308.2
 06 03 2013  16 23  -21.0842 26086.6 -03405.2 -07.4370 26307.9
 06 03 2013  16 24  -21.0836 26085.9 -03404.9 -07.4366 26307.2
 06 03 2013  16 25  -21.0830 26085.3 -03404.9 -07.4366 26306.6
 06 03 2013  16 26  -21.0827 26085.1 -03404.9 -07.4369 26306.4
 06 03 2013  16 27  -21.0823 26084.8 -03405.0 -07.4372 26306.1
 06 03 2013  16 28  -21.0820 26084.4 -03405.1 -07.4374 26305.7
 06 03 2013  16 29  -21.0817 26084.1 -03405.1 -07.4376 26305.4
 06 03 2013  16 30  -21.0814 26083.8 -03405.2 -07.4377 26305.1
 06 03 2013  16 31  -21.0810 26083.4 -03405.2 -07.4378 26304.8
 06 03 2013  16 32  -21.0806 26083.2 -03405.2 -07.4379 26304.6
 06 03 2013  16 33  -21.0802 26083.0 -03405.2 -07.4381 26304.3
 06 03 2013  16 34  -21.0796 26082.6 -03405.2 -07.4381 26303.9
 06 03 2013  16 35  -21.0792 26082.4 -03405.2 -07.4382 26303.8
 06 03 2013  16 36  -21.0787 26082.5 -03405.3 -07.4383 26303.9
 06 03 2013  16 37  -21.0783 26082.6 -03405.4 -07.4385 26303.9
 06 03 2013  16 38  -21.0780 26082.4 -03405.5 -07.4388 26303.8
 06 03 2013  16 39  -21.0776 26082.3 -03405.6 -07.4392 26303.7
 06 03 2013  16 40  -21.0774 26082.1 -03405.8 -07.4395 26303.5
 06 03 2013  16 41  -21.0772 26081.8 -03405.8 -07.4396 26303.2
 06 03 2013  16 42  -21.0768 26081.3 -03405.8 -07.4397 26302.8
 06 03 2013  16 43  -21.0764 26080.9 -03405.8 -07.4399 26302.3
 06 03 2013  16 44  -21.0760 26080.7 -03405.8 -07.4401 26302.1
 06 03 2013  16 45  -21.0759 26080.5 -03406.0 -07.4403 26302.0
 06 03 2013  16 46  -21.0757 26080.4 -03406.1 -07.4407 26301.8
 06 03 2013  16 47  -21.0755 26080.1 -03406.3 -07.4412 26301.6
 06 03 2013  16 48  -21.0755 26080.0 -03406.5 -07.4417 26301.5
 06 03 2013  16 49  -21.0756 26080.3 -03406.7 -07.4421 26301.9
 06 03 2013  16 50  -21.0757 26080.5 -03406.9 -07.4424 26302.1
 06 03 2013  16 51  -21.0756 26080.3 -03407.0 -07.4426 26301.9
 06 03 2013  16 52  -21.0756 26080.1 -03407.0 -07.4428 26301.7
 06 03 2013  16 53  -21.0755 26080.0 -03407.2 -07.4431 26301.7
 06 03 2013  16 54  -21.0754 26080.0 -03407.2 -07.4432 26301.7
 06 03 2013  16 55  -21.0754 26080.0 -03407.3 -07.4434 26301.6
 06 03 2013  16 56  -21.0751 26079.9 -03407.3 -07.4435 26301.6
 06 03 2013  16 57  -21.0750 26080.0 -03407.3 -07.4435 26301.6
 06 03 2013  16 58  -21.0749 26079.9 -03407.4 -07.4436 26301.5
 06 03 2013  16 59  -21.0749 26079.7 -03407.5 -07.4439 26301.3
 06 03 2013  17 00  -21.0750 26079.5 -03407.6 -07.4442 26301.2
 06 03 2013  17 01  -21.0749 26079.4 -03407.7 -07.4445 26301.0
 06 03 2013  17 02  -21.0751 26079.3 -03407.8 -07.4448 26301.1
 06 03 2013  17 03  -21.0752 26079.1 -03408.0 -07.4451 26300.9
 06 03 2013  17 04  -21.0753 26078.9 -03408.1 -07.4454 26300.6
 06 03 2013  17 05  -21.0754 26078.6 -03408.1 -07.4456 26300.3
 06 03 2013  17 06  -21.0754 26078.3 -03408.2 -07.4459 26300.1
 06 03 2013  17 07  -21.0754 26078.3 -03408.4 -07.4462 26300.1
 06 03 2013  17 08  -21.0756 26078.4 -03408.5 -07.4465 26300.2
 06 03 2013  17 09  -21.0757 26078.5 -03408.6 -07.4467 26300.3
 06 03 2013  17 10  -21.0758 26078.6 -03408.7 -07.4469 26300.4
 06 03 2013  17 11  -21.0759 26078.7 -03408.8 -07.4471 26300.6
 06 03 2013  17 12  -21.0760 26078.8 -03408.9 -07.4472 26300.7
 06 03 2013  17 13  -21.0761 26078.8 -03409.0 -07.4473 26300.7
 06 03 2013  17 14  -21.0763 26078.8 -03409.0 -07.4474 26300.7
 06 03 2013  17 15  -21.0762 26078.9 -03409.0 -07.4474 26300.7
 06 03 2013  17 16  -21.0763 26078.8 -03409.0 -07.4473 26300.6
 06 03 2013  17 17  -21.0762 26078.5 -03408.9 -07.4472 26300.4
 06 03 2013  17 18  -21.0761 26078.3 -03408.8 -07.4472 26300.1
 06 03 2013  17 19  -21.0760 26078.1 -03408.8 -07.4473 26300.0
 06 03 2013  17 20  -21.0760 26077.9 -03408.8 -07.4472 26299.7
 06 03 2013  17 21  -21.0758 26077.5 -03408.8 -07.4472 26299.4
 06 03 2013  17 22  -21.0758 26077.3 -03408.7 -07.4473 26299.1
 06 03 2013  17 23  -21.0758 26077.0 -03408.6 -07.4471 26298.9
 06 03 2013  17 24  -21.0757 26076.6 -03408.5 -07.4469 26298.5
 06 03 2013  17 25  -21.0754 26076.2 -03408.4 -07.4469 26298.0
 06 03 2013  17 26  -21.0752 26076.0 -03408.4 -07.4469 26297.8
 06 03 2013  17 27  -21.0752 26075.9 -03408.5 -07.4472 26297.7
 06 03 2013  17 28  -21.0751 26075.7 -03408.6 -07.4474 26297.6
 06 03 2013  17 29  -21.0750 26075.7 -03408.7 -07.4475 26297.6
 06 03 2013  17 30  -21.0748 26075.6 -03408.7 -07.4477 26297.5
 06 03 2013  17 31  -21.0746 26075.4 -03408.7 -07.4478 26297.2
 06 03 2013  17 32  -21.0745 26075.4 -03408.8 -07.4479 26297.2
 06 03 2013  17 33  -21.0743 26075.2 -03408.8 -07.4481 26297.1
 06 03 2013  17 34  -21.0740 26075.3 -03408.8 -07.4480 26297.2
 06 03 2013  17 35  -21.0738 26075.2 -03408.8 -07.4480 26297.1
 06 03 2013  17 36  -21.0735 26075.2 -03408.7 -07.4478 26297.0
 06 03 2013  17 37  -21.0732 26075.1 -03408.6 -07.4476 26297.0
 06 03 2013  17 38  -21.0730 26074.9 -03408.6 -07.4477 26296.7
 06 03 2013  17 39  -21.0729 26074.7 -03408.6 -07.4477 26296.6
 06 03 2013  17 40  -21.0728 26074.5 -03408.5 -07.4476 26296.4
 06 03 2013  17 41  -21.0725 26074.2 -03408.5 -07.4475 26296.0
 06 03 2013  17 42  -21.0723 26073.9 -03408.4 -07.4475 26295.7
 06 03 2013  17 43  -21.0720 26073.6 -03408.4 -07.4475 26295.5
 06 03 2013  17 44  -21.0718 26073.7 -03408.4 -07.4475 26295.5
 06 03 2013  17 45  -21.0716 26073.8 -03408.3 -07.4473 26295.6
 06 03 2013  17 46  -21.0714 26073.8 -03408.3 -07.4473 26295.6
 06 03 2013  17 47  -21.0712 26073.9 -03408.3 -07.4473 26295.7
 06 03 2013  17 48  -21.0710 26073.7 -03408.3 -07.4474 26295.5
 06 03 2013  17 49  -21.0710 26073.6 -03408.4 -07.4476 26295.5
 06 03 2013  17 50  -21.0710 26073.7 -03408.4 -07.4475 26295.5
 06 03 2013  17 51  -21.0708 26073.7 -03408.3 -07.4473 26295.5
 06 03 2013  17 52  -21.0706 26073.6 -03408.2 -07.4471 26295.4
 06 03 2013  17 53  -21.0704 26073.4 -03408.1 -07.4470 26295.2
 06 03 2013  17 54  -21.0702 26073.0 -03407.9 -07.4466 26294.8
 06 03 2013  17 55  -21.0700 26072.8 -03407.7 -07.4463 26294.5
 06 03 2013  17 56  -21.0697 26072.6 -03407.5 -07.4460 26294.3
 06 03 2013  17 57  -21.0694 26072.4 -03407.4 -07.4458 26294.1
 06 03 2013  17 58  -21.0690 26072.3 -03407.3 -07.4456 26294.0
 06 03 2013  17 59  -21.0685 26072.4 -03407.3 -07.4456 26294.1
 06 03 2013  18 00  -21.0680 26072.8 -03407.4 -07.4456 26294.5
 06 03 2013  18 01  -21.0675 26073.1 -03407.5 -07.4457 26294.8
 06 03 2013  18 02  -21.0671 26073.4 -03407.5 -07.4457 26295.1
 06 03 2013  18 03  -21.0666 26073.7 -03407.5 -07.4457 26295.4
 06 03 2013  18 04  -21.0661 26073.9 -03407.5 -07.4456 26295.6
 06 03 2013  18 05  -21.0655 26074.1 -03407.5 -07.4455 26295.8
 06 03 2013  18 06  -21.0651 26074.4 -03407.5 -07.4453 26296.1
 06 03 2013  18 07  -21.0647 26074.6 -03407.4 -07.4451 26296.3
 06 03 2013  18 08  -21.0643 26074.7 -03407.3 -07.4449 26296.4
 06 03 2013  18 09  -21.0637 26074.8 -03407.2 -07.4446 26296.5
 06 03 2013  18 10  -21.0633 26074.8 -03407.0 -07.4443 26296.5
 06 03 2013  18 11  -21.0628 26074.7 -03406.8 -07.4438 26296.4
 06 03 2013  18 12  -21.0621 26074.6 -03406.6 -07.4435 26296.2
 06 03 2013  18 13  -21.0616 26074.5 -03406.5 -07.4432 26296.1
 06 03 2013  18 14  -21.0610 26074.3 -03406.3 -07.4429 26295.9
 06 03 2013  18 15  -21.0606 26074.1 -03406.2 -07.4426 26295.6
 06 03 2013  18 16  -21.0599 26073.8 -03406.0 -07.4424 26295.3
 06 03 2013  18 17  -21.0593 26073.6 -03405.9 -07.4421 26295.1
 06 03 2013  18 18  -21.0586 26073.3 -03405.7 -07.4419 26294.8
 06 03 2013  18 19  -21.0578 26072.9 -03405.5 -07.4416 26294.4
 06 03 2013  18 20  -21.0572 26072.7 -03405.5 -07.4415 26294.1
 06 03 2013  18 21  -21.0566 26072.5 -03405.4 -07.4413 26293.9
 06 03 2013  18 22  -21.0559 26072.4 -03405.4 -07.4414 26293.8
 06 03 2013  18 23  -21.0553 26072.4 -03405.3 -07.4413 26293.8
 06 03 2013  18 24  -21.0548 26072.4 -03405.3 -07.4413 26293.9
 06 03 2013  18 25  -21.0543 26072.5 -03405.3 -07.4412 26293.9
 06 03 2013  18 26  -21.0537 26072.5 -03405.2 -07.4410 26293.9
 06 03 2013  18 27  -21.0531 26072.4 -03405.1 -07.4408 26293.8
 06 03 2013  18 28  -21.0525 26072.3 -03405.0 -07.4406 26293.7
 06 03 2013  18 29  -21.0520 26072.0 -03404.9 -07.4404 26293.4
 06 03 2013  18 30  -21.0514 26071.8 -03404.7 -07.4402 26293.2
 06 03 2013  18 31  -21.0508 26071.7 -03404.6 -07.4400 26293.0
 06 03 2013  18 32  -21.0503 26071.5 -03404.6 -07.4399 26292.9
 06 03 2013  18 33  -21.0498 26071.2 -03404.4 -07.4396 26292.5
 06 03 2013  18 34  -21.0490 26070.8 -03404.1 -07.4392 26292.1
 06 03 2013  18 35  -21.0483 26070.5 -03404.0 -07.4389 26291.8
 06 03 2013  18 36  -21.0477 26070.1 -03403.9 -07.4388 26291.4
 06 03 2013  18 37  -21.0470 26069.8 -03403.7 -07.4386 26291.1
 06 03 2013  18 38  -21.0464 26069.5 -03403.6 -07.4384 26290.8
 06 03 2013  18 39  -21.0459 26069.4 -03403.6 -07.4383 26290.6
 06 03 2013  18 40  -21.0453 26069.2 -03403.5 -07.4382 26290.4
 06 03 2013  18 41  -21.0447 26069.0 -03403.4 -07.4380 26290.2
 06 03 2013  18 42  -21.0441 26068.9 -03403.3 -07.4379 26290.1
 06 03 2013  18 43  -21.0432 26068.7 -03403.2 -07.4377 26289.9
 06 03 2013  18 44  -21.0426 26068.5 -03403.2 -07.4377 26289.7
 06 03 2013  18 45  -21.0418 26068.5 -03403.2 -07.4378 26289.7
 06 03 2013  18 46  -21.0412 26068.5 -03403.2 -07.4378 26289.7
 06 03 2013  18 47  -21.0405 26068.4 -03403.2 -07.4378 26289.6
 06 03 2013  18 48  -21.0398 26068.4 -03403.1 -07.4377 26289.5
 06 03 2013  18 49  -21.0392 26068.3 -03403.1 -07.4376 26289.5
 06 03 2013  18 50  -21.0385 26068.2 -03403.1 -07.4377 26289.4
 06 03 2013  18 51  -21.0377 26068.1 -03403.1 -07.4377 26289.3
 06 03 2013  18 52  -21.0371 26067.9 -03403.1 -07.4377 26289.1
 06 03 2013  18 53  -21.0365 26067.6 -03403.0 -07.4376 26288.8
 06 03 2013  18 54  -21.0359 26067.3 -03402.9 -07.4375 26288.5
 06 03 2013  18 55  -21.0352 26066.9 -03402.8 -07.4374 26288.1
 06 03 2013  18 56  -21.0344 26066.6 -03402.8 -07.4374 26287.7
 06 03 2013  18 57  -21.0337 26066.2 -03402.7 -07.4373 26287.3
 06 03 2013  18 58  -21.0331 26065.8 -03402.6 -07.4372 26286.9
 06 03 2013  18 59  -21.0325 26065.5 -03402.6 -07.4373 26286.6
 06 03 2013  19 00  -21.0320 26065.2 -03402.6 -07.4374 26286.4
 06 03 2013  19 01  -21.0316 26065.1 -03402.6 -07.4376 26286.2
 06 03 2013  19 02  -21.0311 26064.9 -03402.7 -07.4377 26286.1
 06 03 2013  19 03  -21.0306 26064.7 -03402.7 -07.4378 26285.9
 06 03 2013  19 04  -21.0301 26064.6 -03402.7 -07.4379 26285.7
 06 03 2013  19 05  -21.0295 26064.4 -03402.8 -07.4380 26285.6
 06 03 2013  19 06  -21.0292 26064.3 -03402.8 -07.4381 26285.4
 06 03 2013  19 07  -21.0285 26064.1 -03402.8 -07.4382 26285.3
 06 03 2013  19 08  -21.0279 26064.0 -03402.9 -07.4383 26285.2
 06 03 2013  19 09  -21.0274 26064.0 -03402.9 -07.4385 26285.2
 06 03 2013  19 10  -21.0268 26064.0 -03402.9 -07.4385 26285.2
 06 03 2013  19 11  -21.0262 26063.9 -03403.0 -07.4386 26285.1
 06 03 2013  19 12  -21.0257 26063.8 -03403.0 -07.4388 26285.0
 06 03 2013  19 13  -21.0252 26063.6 -03403.1 -07.4388 26284.8
 06 03 2013  19 14  -21.0247 26063.4 -03403.0 -07.4389 26284.6
 06 03 2013  19 15  -21.0242 26063.1 -03403.1 -07.4390 26284.3
 06 03 2013  19 16  -21.0236 26062.9 -03403.1 -07.4392 26284.2
 06 03 2013  19 17  -21.0231 26062.7 -03403.2 -07.4394 26284.0
 06 03 2013  19 18  -21.0226 26062.7 -03403.3 -07.4396 26283.9
 06 03 2013  19 19  -21.0221 26062.5 -03403.3 -07.4397 26283.7
 06 03 2013  19 20  -21.0217 26062.3 -03403.3 -07.4398 26283.6
 06 03 2013  19 21  -21.0212 26062.1 -03403.4 -07.4400 26283.4
 06 03 2013  19 22  -21.0209 26062.0 -03403.5 -07.4402 26283.3
 06 03 2013  19 23  -21.0204 26061.8 -03403.5 -07.4404 26283.1
 06 03 2013  19 24  -21.0199 26061.7 -03403.6 -07.4406 26283.0
 06 03 2013  19 25  -21.0195 26061.6 -03403.7 -07.4409 26283.0
 06 03 2013  19 26  -21.0190 26061.5 -03403.8 -07.4411 26282.9
 06 03 2013  19 27  -21.0186 26061.5 -03403.9 -07.4413 26282.8
 06 03 2013  19 28  -21.0183 26061.4 -03404.0 -07.4416 26282.8
 06 03 2013  19 29  -21.0181 26061.3 -03404.1 -07.4418 26282.6
 06 03 2013  19 30  -21.0177 26061.1 -03404.2 -07.4420 26282.5
 06 03 2013  19 31  -21.0176 26060.9 -03404.2 -07.4421 26282.3
 06 03 2013  19 32  -21.0173 26060.6 -03404.2 -07.4422 26282.0
 06 03 2013  19 33  -21.0171 26060.4 -03404.2 -07.4423 26281.8
 06 03 2013  19 34  -21.0169 26060.1 -03404.2 -07.4424 26281.5
 06 03 2013  19 35  -21.0165 26059.8 -03404.3 -07.4425 26281.2
 06 03 2013  19 36  -21.0162 26059.4 -03404.2 -07.4426 26280.8
 06 03 2013  19 37  -21.0159 26059.1 -03404.3 -07.4428 26280.5
 06 03 2013  19 38  -21.0155 26058.8 -03404.3 -07.4430 26280.2
 06 03 2013  19 39  -21.0151 26058.5 -03404.4 -07.4433 26280.0
 06 03 2013  19 40  -21.0146 26058.3 -03404.5 -07.4435 26279.8
 06 03 2013  19 41  -21.0145 26058.1 -03404.7 -07.4439 26279.6
 06 03 2013  19 42  -21.0142 26058.0 -03404.8 -07.4442 26279.5
 06 03 2013  19 43  -21.0140 26057.9 -03405.0 -07.4446 26279.4
 06 03 2013  19 44  -21.0140 26057.9 -03405.2 -07.4451 26279.4
 06 03 2013  19 45  -21.0145 26057.8 -03405.4 -07.4455 26279.4
 06 03 2013  19 46  -21.0144 26057.5 -03405.4 -07.4456 26279.1
 06 03 2013  19 47  -21.0143 26057.5 -03405.6 -07.4460 26279.1
 06 03 2013  19 48  -21.0144 26057.3 -03405.7 -07.4463 26278.9
 06 03 2013  19 49  -21.0145 26057.1 -03405.8 -07.4466 26278.8
 06 03 2013  19 50  -21.0144 26057.0 -03405.9 -07.4468 26278.6
 06 03 2013  19 51  -21.0145 26056.9 -03406.0 -07.4471 26278.6
 06 03 2013  19 52  -21.0146 26056.7 -03406.1 -07.4473 26278.4
 06 03 2013  19 53  -21.0146 26056.5 -03406.1 -07.4475 26278.2
 06 03 2013  19 54  -21.0147 26056.4 -03406.2 -07.4478 26278.1
 06 03 2013  19 55  -21.0148 26056.3 -03406.4 -07.4481 26278.1
 06 03 2013  19 56  -21.0149 26056.3 -03406.5 -07.4484 26278.0
 06 03 2013  19 57  -21.0150 26056.1 -03406.6 -07.4487 26277.9
 06 03 2013  19 58  -21.0150 26055.9 -03406.6 -07.4488 26277.6
 06 03 2013  19 59  -21.0150 26055.6 -03406.7 -07.4490 26277.3
 06 03 2013  20 00  -21.0150 26055.3 -03406.8 -07.4492 26277.1
 06 03 2013  20 01  -21.0152 26055.1 -03406.9 -07.4495 26276.9
 06 03 2013  20 02  -21.0150 26054.9 -03406.9 -07.4497 26276.7
 06 03 2013  20 03  -21.0150 26054.9 -03407.1 -07.4502 26276.7
 06 03 2013  20 04  -21.0151 26055.0 -03407.4 -07.4507 26276.9
 06 03 2013  20 05  -21.0152 26055.0 -03407.6 -07.4511 26276.9
 06 03 2013  20 06  -21.0155 26055.0 -03407.8 -07.4516 26276.9
 06 03 2013  20 07  -21.0156 26055.0 -03408.0 -07.4519 26277.0
 06 03 2013  20 08  -21.0155 26055.4 -03408.3 -07.4525 26277.4
 06 03 2013  20 09  -21.0160 26055.7 -03408.6 -07.4530 26277.7
 06 03 2013  20 10  -21.0161 26055.8 -03408.8 -07.4534 26277.9
 06 03 2013  20 11  -21.0164 26055.9 -03408.9 -07.4537 26277.9
 06 03 2013  20 12  -21.0164 26055.8 -03409.0 -07.4539 26277.9
 06 03 2013  20 13  -21.0165 26055.9 -03409.1 -07.4542 26278.0
 06 03 2013  20 14  -21.0167 26055.9 -03409.2 -07.4544 26278.0
 06 03 2013  20 15  -21.0166 26055.8 -03409.4 -07.4547 26278.0
 06 03 2013  20 16  -21.0165 26056.0 -03409.6 -07.4551 26278.1
 06 03 2013  20 17  -21.0168 26056.4 -03410.0 -07.4558 26278.5
 06 03 2013  20 18  -21.0173 26056.4 -03410.1 -07.4561 26278.6
 06 03 2013  20 19  -21.0176 26056.4 -03410.2 -07.4564 26278.6
 06 03 2013  20 20  -21.0180 26056.3 -03410.2 -07.4565 26278.5
 06 03 2013  20 21  -21.0183 26056.4 -03410.3 -07.4567 26278.6
 06 03 2013  20 22  -21.0185 26056.3 -03410.4 -07.4567 26278.5
 06 03 2013  20 23  -21.0188 26056.2 -03410.5 -07.4570 26278.5
 06 03 2013  20 24  -21.0188 26056.2 -03410.5 -07.4570 26278.4
 06 03 2013  20 25  -21.0186 26056.2 -03410.6 -07.4573 26278.5
 06 03 2013  20 26  -21.0189 26056.2 -03410.8 -07.4576 26278.5
 06 03 2013  20 27  -21.0188 26056.5 -03410.9 -07.4578 26278.8
 06 03 2013  20 28  -21.0191 26056.5 -03411.1 -07.4582 26278.8
 06 03 2013  20 29  -21.0191 26056.6 -03411.2 -07.4584 26279.0
 06 03 2013  20 30  -21.0191 26056.8 -03411.3 -07.4586 26279.1
 06 03 2013  20 31  -21.0190 26056.9 -03411.3 -07.4587 26279.3
 06 03 2013  20 32  -21.0190 26056.9 -03411.5 -07.4590 26279.3
 06 03 2013  20 33  -21.0192 26056.9 -03411.6 -07.4593 26279.3
 06 03 2013  20 34  -21.0195 26056.9 -03411.7 -07.4595 26279.3
 06 03 2013  20 35  -21.0197 26056.9 -03411.8 -07.4597 26279.3
 06 03 2013  20 36  -21.0199 26056.9 -03411.9 -07.4599 26279.3
 06 03 2013  20 37  -21.0200 26056.9 -03412.0 -07.4600 26279.3
 06 03 2013  20 38  -21.0202 26056.7 -03412.0 -07.4602 26279.1
 06 03 2013  20 39  -21.0205 26056.4 -03412.0 -07.4601 26278.8
 06 03 2013  20 40  -21.0207 26056.2 -03411.9 -07.4602 26278.6
 06 03 2013  20 41  -21.0210 26055.9 -03411.9 -07.4602 26278.3
 06 03 2013  20 42  -21.0213 26055.7 -03411.9 -07.4602 26278.2
 06 03 2013  20 43  -21.0215 26055.7 -03412.0 -07.4603 26278.1
 06 03 2013  20 44  -21.0217 26055.7 -03412.0 -07.4605 26278.2
 06 03 2013  20 45  -21.0220 26055.7 -03412.1 -07.4605 26278.2
 06 03 2013  20 46  -21.0222 26055.7 -03412.1 -07.4606 26278.2
 06 03 2013  20 47  -21.0225 26055.5 -03412.1 -07.4607 26278.0
 06 03 2013  20 48  -21.0228 26055.4 -03412.1 -07.4607 26277.9
 06 03 2013  20 49  -21.0229 26055.2 -03412.1 -07.4607 26277.7
 06 03 2013  20 50  -21.0232 26055.1 -03412.1 -07.4608 26277.6
 06 03 2013  20 51  -21.0234 26055.0 -03412.0 -07.4606 26277.5
 06 03 2013  20 52  -21.0236 26054.9 -03412.0 -07.4607 26277.4
 06 03 2013  20 53  -21.0237 26054.8 -03412.1 -07.4608 26277.3
 06 03 2013  20 54  -21.0237 26054.7 -03412.1 -07.4609 26277.2
 06 03 2013  20 55  -21.0238 26054.7 -03412.2 -07.4611 26277.1
 06 03 2013  20 56  -21.0240 26054.5 -03412.2 -07.4611 26277.0
 06 03 2013  20 57  -21.0240 26054.5 -03412.2 -07.4613 26277.0
 06 03 2013  20 58  -21.0245 26054.1 -03412.1 -07.4612 26276.6
 06 03 2013  20 59  -21.0249 26053.4 -03411.9 -07.4608 26275.8
 06 03 2013  21 00  -21.0252 26053.0 -03411.8 -07.4607 26275.4
 06 03 2013  21 01  -21.0257 26052.5 -03411.6 -07.4606 26275.0
 06 03 2013  21 02  -21.0261 26052.1 -03411.6 -07.4605 26274.5
 06 03 2013  21 03  -21.0265 26051.9 -03411.6 -07.4606 26274.3
 06 03 2013  21 04  -21.0267 26051.7 -03411.6 -07.4607 26274.1
 06 03 2013  21 05  -21.0268 26051.5 -03411.6 -07.4608 26273.9
 06 03 2013  21 06  -21.0269 26051.3 -03411.7 -07.4610 26273.8
 06 03 2013  21 07  -21.0270 26051.3 -03411.8 -07.4612 26273.7
 06 03 2013  21 08  -21.0270 26051.4 -03411.9 -07.4614 26273.9
 06 03 2013  21 09  -21.0272 26051.3 -03412.0 -07.4617 26273.8
 06 03 2013  21 10  -21.0273 26051.4 -03412.1 -07.4619 26273.9
 06 03 2013  21 11  -21.0274 26051.3 -03412.2 -07.4621 26273.9
 06 03 2013  21 12  -21.0275 26051.3 -03412.3 -07.4623 26273.8
 06 03 2013  21 13  -21.0278 26051.1 -03412.3 -07.4624 26273.7
 06 03 2013  21 14  -21.0278 26051.1 -03412.3 -07.4624 26273.6
 06 03 2013  21 15  -21.0280 26051.0 -03412.4 -07.4626 26273.5
 06 03 2013  21 16  -21.0281 26050.9 -03412.5 -07.4628 26273.5
 06 03 2013  21 17  -21.0282 26050.8 -03412.5 -07.4629 26273.3
 06 03 2013  21 18  -21.0284 26050.7 -03412.6 -07.4631 26273.3
 06 03 2013  21 19  -21.0285 26050.4 -03412.6 -07.4632 26273.0
 06 03 2013  21 20  -21.0287 26050.3 -03412.6 -07.4633 26272.8
 06 03 2013  21 21  -21.0289 26050.1 -03412.7 -07.4635 26272.7
 06 03 2013  21 22  -21.0289 26050.0 -03412.8 -07.4637 26272.6
 06 03 2013  21 23  -21.0290 26050.0 -03412.7 -07.4636 26272.6
 06 03 2013  21 24  -21.0292 26049.8 -03412.9 -07.4640 26272.5
 06 03 2013  21 25  -21.0291 26050.0 -03413.1 -07.4644 26272.6
 06 03 2013  21 26  -21.0293 26050.0 -03413.2 -07.4647 26272.7
 06 03 2013  21 27  -21.0295 26049.9 -03413.3 -07.4648 26272.6
 06 03 2013  21 28  -21.0298 26049.8 -03413.3 -07.4650 26272.4
 06 03 2013  21 29  -21.0300 26049.7 -03413.4 -07.4652 26272.4
 06 03 2013  21 30  -21.0303 26049.6 -03413.4 -07.4651 26272.3
 06 03 2013  21 31  -21.0306 26049.5 -03413.4 -07.4653 26272.2
 06 03 2013  21 32  -21.0308 26049.5 -03413.5 -07.4654 26272.2
 06 03 2013  21 33  -21.0309 26049.5 -03413.5 -07.4654 26272.2
 06 03 2013  21 34  -21.0311 26049.3 -03413.5 -07.4654 26272.0
 06 03 2013  21 35  -21.0313 26049.2 -03413.5 -07.4654 26271.9
 06 03 2013  21 36  -21.0315 26049.1 -03413.4 -07.4654 26271.8
 06 03 2013  21 37  -21.0316 26049.0 -03413.4 -07.4655 26271.7
 06 03 2013  21 38  -21.0316 26048.9 -03413.4 -07.4655 26271.6
 06 03 2013  21 39  -21.0317 26048.7 -03413.4 -07.4653 26271.4
 06 03 2013  21 40  -21.0319 26048.4 -03413.3 -07.4652 26271.0
 06 03 2013  21 41  -21.0320 26048.1 -03413.2 -07.4651 26270.8
 06 03 2013  21 42  -21.0322 26048.1 -03413.2 -07.4652 26270.8
 06 03 2013  21 43  -21.0321 26048.2 -03413.3 -07.4654 26270.9
 06 03 2013  21 44  -21.0323 26048.0 -03413.3 -07.4655 26270.7
 06 03 2013  21 45  -21.0323 26047.9 -03413.3 -07.4655 26270.6
 06 03 2013  21 46  -21.0321 26048.1 -03413.4 -07.4657 26270.8
 06 03 2013  21 47  -21.0320 26048.0 -03413.5 -07.4658 26270.7
 06 03 2013  21 48  -21.0319 26048.0 -03413.5 -07.4658 26270.7
 06 03 2013  21 49  -21.0318 26048.0 -03413.6 -07.4660 26270.7
 06 03 2013  21 50  -21.0318 26047.9 -03413.6 -07.4661 26270.6
 06 03 2013  21 51  -21.0318 26047.9 -03413.7 -07.4663 26270.6
 06 03 2013  21 52  -21.0318 26047.8 -03413.7 -07.4664 26270.6
 06 03 2013  21 53  -21.0316 26047.9 -03413.8 -07.4666 26270.7
 06 03 2013  21 54  -21.0314 26048.1 -03413.9 -07.4668 26270.8
 06 03 2013  21 55  -21.0313 26048.1 -03414.0 -07.4670 26270.9
 06 03 2013  21 56  -21.0312 26048.2 -03414.1 -07.4672 26270.9
 06 03 2013  21 57  -21.0311 26048.1 -03414.2 -07.4673 26270.9
 06 03 2013  21 58  -21.0308 26048.2 -03414.3 -07.4675 26271.1
 06 03 2013  21 59  -21.0307 26048.4 -03414.4 -07.4678 26271.3
 06 03 2013  22 00  -21.0305 26048.6 -03414.6 -07.4680 26271.4
 06 03 2013  22 01  -21.0304 26048.7 -03414.7 -07.4682 26271.6
 06 03 2013  22 02  -21.0302 26048.8 -03414.8 -07.4684 26271.6
 06 03 2013  22 03  -21.0302 26048.8 -03414.8 -07.4685 26271.6
 06 03 2013  22 04  -21.0302 26048.8 -03414.8 -07.4685 26271.7
 06 03 2013  22 05  -21.0300 26048.8 -03414.9 -07.4687 26271.7
 06 03 2013  22 06  -21.0301 26048.7 -03414.9 -07.4686 26271.5
 06 03 2013  22 07  -21.0301 26048.5 -03414.8 -07.4686 26271.4
 06 03 2013  22 08  -21.0300 26048.5 -03414.8 -07.4686 26271.4
 06 03 2013  22 09  -21.0298 26048.4 -03414.8 -07.4686 26271.3
 06 03 2013  22 10  -21.0298 26048.3 -03414.8 -07.4687 26271.2
 06 03 2013  22 11  -21.0296 26048.3 -03414.9 -07.4687 26271.2
 06 03 2013  22 12  -21.0295 26048.3 -03414.9 -07.4688 26271.2
 06 03 2013  22 13  -21.0293 26048.3 -03415.0 -07.4690 26271.2
 06 03 2013  22 14  -21.0292 26048.3 -03415.0 -07.4690 26271.2
 06 03 2013  22 15  -21.0291 26048.4 -03415.1 -07.4692 26271.3
 06 03 2013  22 16  -21.0289 26048.3 -03415.1 -07.4693 26271.2
 06 03 2013  22 17  -21.0288 26048.3 -03415.2 -07.4694 26271.2
 06 03 2013  22 18  -21.0287 26048.3 -03415.2 -07.4695 26271.2
 06 03 2013  22 19  -21.0287 26048.2 -03415.2 -07.4695 26271.1
 06 03 2013  22 20  -21.0287 26048.0 -03415.2 -07.4695 26271.0
 06 03 2013  22 21  -21.0286 26048.0 -03415.2 -07.4696 26270.9
 06 03 2013  22 22  -21.0286 26048.0 -03415.2 -07.4696 26270.9
 06 03 2013  22 23  -21.0286 26047.9 -03415.2 -07.4696 26270.8
 06 03 2013  22 24  -21.0286 26047.8 -03415.2 -07.4696 26270.7
 06 03 2013  22 25  -21.0287 26047.8 -03415.3 -07.4698 26270.8
 06 03 2013  22 26  -21.0286 26047.6 -03415.2 -07.4697 26270.5
 06 03 2013  22 27  -21.0286 26047.6 -03415.3 -07.4698 26270.6
 06 03 2013  22 28  -21.0286 26047.9 -03415.4 -07.4701 26270.9
 06 03 2013  22 29  -21.0285 26048.1 -03415.6 -07.4703 26271.0
 06 03 2013  22 30  -21.0285 26048.0 -03415.6 -07.4704 26271.0
 06 03 2013  22 31  -21.0285 26048.0 -03415.6 -07.4704 26271.0
 06 03 2013  22 32  -21.0283 26048.1 -03415.7 -07.4705 26271.1
 06 03 2013  22 33  -21.0283 26048.2 -03415.8 -07.4707 26271.2
 06 03 2013  22 34  -21.0284 26048.3 -03415.8 -07.4708 26271.3
 06 03 2013  22 35  -21.0284 26048.4 -03415.9 -07.4710 26271.4
 06 03 2013  22 36  -21.0284 26048.3 -03415.9 -07.4710 26271.4
 06 03 2013  22 37  -21.0285 26048.2 -03415.9 -07.4710 26271.2
 06 03 2013  22 38  -21.0286 26048.2 -03415.9 -07.4710 26271.2
 06 03 2013  22 39  -21.0287 26048.1 -03415.9 -07.4710 26271.1
 06 03 2013  22 40  -21.0287 26048.1 -03415.8 -07.4709 26271.1
 06 03 2013  22 41  -21.0288 26048.1 -03415.9 -07.4710 26271.1
 06 03 2013  22 42  -21.0288 26048.0 -03415.9 -07.4710 26271.0
 06 03 2013  22 43  -21.0289 26047.9 -03415.8 -07.4709 26270.9
 06 03 2013  22 44  -21.0290 26047.9 -03415.9 -07.4710 26270.9
 06 03 2013  22 45  -21.0292 26047.7 -03415.8 -07.4709 26270.7
 06 03 2013  22 46  -21.0295 26047.3 -03415.6 -07.4707 26270.3
 06 03 2013  22 47  -21.0297 26047.0 -03415.5 -07.4704 26270.0
 06 03 2013  22 48  -21.0300 26046.7 -03415.4 -07.4703 26269.7
 06 03 2013  22 49  -21.0302 26046.4 -03415.2 -07.4700 26269.4
 06 03 2013  22 50  -21.0303 26046.2 -03415.2 -07.4700 26269.2
 06 03 2013  22 51  -21.0305 26046.1 -03415.1 -07.4699 26269.0
 06 03 2013  22 52  -21.0307 26045.7 -03415.0 -07.4697 26268.6
 06 03 2013  22 53  -21.0307 26045.4 -03414.9 -07.4696 26268.4
 06 03 2013  22 54  -21.0311 26045.0 -03414.8 -07.4694 26267.9
 06 03 2013  22 55  -21.0314 26044.7 -03414.7 -07.4693 26267.6
 06 03 2013  22 56  -21.0316 26044.4 -03414.6 -07.4692 26267.3
 06 03 2013  22 57  -21.0318 26044.1 -03414.5 -07.4691 26267.0
 06 03 2013  22 58  -21.0320 26044.0 -03414.4 -07.4690 26266.9
 06 03 2013  22 59  -21.0322 26044.0 -03414.5 -07.4692 26266.9
 06 03 2013  23 00  -21.0322 26044.1 -03414.6 -07.4693 26267.0
 06 03 2013  23 01  -21.0323 26044.3 -03414.8 -07.4696 26267.2
 06 03 2013  23 02  -21.0327 26044.3 -03414.8 -07.4698 26267.2
 06 03 2013  23 03  -21.0328 26044.4 -03414.9 -07.4700 26267.3
 06 03 2013  23 04  -21.0331 26044.4 -03415.0 -07.4701 26267.3
 06 03 2013  23 05  -21.0333 26044.4 -03415.0 -07.4702 26267.3
 06 03 2013  23 06  -21.0334 26044.4 -03415.0 -07.4702 26267.3
 06 03 2013  23 07  -21.0335 26044.4 -03415.0 -07.4702 26267.3
 06 03 2013  23 08  -21.0336 26044.5 -03415.1 -07.4703 26267.5
 06 03 2013  23 09  -21.0336 26044.6 -03415.2 -07.4704 26267.6
 06 03 2013  23 10  -21.0337 26044.6 -03415.2 -07.4705 26267.6
 06 03 2013  23 11  -21.0336 26044.7 -03415.2 -07.4705 26267.6
 06 03 2013  23 12  -21.0337 26044.7 -03415.3 -07.4706 26267.7
 06 03 2013  23 13  -21.0337 26044.8 -03415.4 -07.4708 26267.8
 06 03 2013  23 14  -21.0337 26044.9 -03415.4 -07.4708 26267.9
 06 03 2013  23 15  -21.0338 26044.9 -03415.4 -07.4709 26267.9
 06 03 2013  23 16  -21.0339 26044.9 -03415.4 -07.4709 26267.8
 06 03 2013  23 17  -21.0340 26044.8 -03415.4 -07.4709 26267.8
 06 03 2013  23 18  -21.0340 26044.8 -03415.4 -07.4710 26267.8
 06 03 2013  23 19  -21.0340 26044.7 -03415.4 -07.4710 26267.7
 06 03 2013  23 20  -21.0340 26044.8 -03415.5 -07.4710 26267.8
 06 03 2013  23 21  -21.0342 26044.7 -03415.5 -07.4710 26267.6
 06 03 2013  23 22  -21.0344 26044.5 -03415.4 -07.4710 26267.5
 06 03 2013  23 23  -21.0345 26044.3 -03415.3 -07.4708 26267.3
 06 03 2013  23 24  -21.0346 26044.1 -03415.3 -07.4708 26267.1
 06 03 2013  23 25  -21.0346 26044.1 -03415.3 -07.4709 26267.0
 06 03 2013  23 26  -21.0346 26044.1 -03415.3 -07.4709 26267.1
 06 03 2013  23 27  -21.0347 26044.2 -03415.4 -07.4711 26267.2
 06 03 2013  23 28  -21.0348 26044.2 -03415.5 -07.4713 26267.2
 06 03 2013  23 29  -21.0348 26044.2 -03415.5 -07.4713 26267.2
 06 03 2013  23 30  -21.0347 26044.3 -03415.6 -07.4714 26267.3
 06 03 2013  23 31  -21.0346 26044.3 -03415.6 -07.4715 26267.3
 06 03 2013  23 32  -21.0344 26044.3 -03415.6 -07.4715 26267.4
 06 03 2013  23 33  -21.0345 26044.4 -03415.7 -07.4717 26267.4
 06 03 2013  23 34  -21.0345 26044.4 -03415.8 -07.4718 26267.5
 06 03 2013  23 35  -21.0345 26044.4 -03415.8 -07.4719 26267.4
 06 03 2013  23 36  -21.0345 26044.3 -03415.8 -07.4719 26267.3
 06 03 2013  23 37  -21.0342 26044.3 -03415.8 -07.4718 26267.3
 06 03 2013  23 38  -21.0341 26044.4 -03415.8 -07.4719 26267.4
 06 03 2013  23 39  -21.0341 26044.4 -03415.9 -07.4720 26267.5
 06 03 2013  23 40  -21.0341 26044.5 -03416.0 -07.4722 26267.6
 06 03 2013  23 41  -21.0341 26044.6 -03416.1 -07.4724 26267.7
 06 03 2013  23 42  -21.0339 26044.7 -03416.1 -07.4724 26267.8
 06 03 2013  23 43  -21.0339 26044.7 -03416.2 -07.4725 26267.8
 06 03 2013  23 44  -21.0338 26044.7 -03416.1 -07.4724 26267.8
 06 03 2013  23 45  -21.0337 26044.6 -03416.1 -07.4724 26267.7
 06 03 2013  23 46  -21.0336 26044.6 -03416.0 -07.4723 26267.6
 06 03 2013  23 47  -21.0334 26044.5 -03416.0 -07.4722 26267.5
 06 03 2013  23 48  -21.0333 26044.4 -03415.9 -07.4722 26267.4
 06 03 2013  23 49  -21.0331 26044.4 -03416.0 -07.4722 26267.5
 06 03 2013  23 50  -21.0331 26044.4 -03416.0 -07.4723 26267.5
 06 03 2013  23 51  -21.0330 26044.5 -03416.1 -07.4724 26267.6
 06 03 2013  23 52  -21.0331 26044.6 -03416.2 -07.4726 26267.7
 06 03 2013  23 53  -21.0332 26044.6 -03416.2 -07.4727 26267.7
 06 03 2013  23 54  -21.0332 26044.6 -03416.2 -07.4727 26267.7
 06 03 2013  23 55  -21.0332 26044.6 -03416.2 -07.4727 26267.7
 06 03 2013  23 56  -21.0330 26044.5 -03416.2 -07.4726 26267.6
 06 03 2013  23 57  -21.0330 26044.5 -03416.2 -07.4726 26267.6
 06 03 2013  23 58  -21.0330 26044.5 -03416.1 -07.4726 26267.5
