SAO LUIS EMBRACE-03 <060> 1 Min. Reported data

 DD MM YYYY  HH MM   D(Deg)  H(nT)   Z(nT)   I(Deg)   F(nT)

 01 03 2013  00 00  -21.0544 26013.9 -03406.7 -07.4609 26236.0
 01 03 2013  00 01  -21.0547 26014.1 -03407.0 -07.4613 26236.2
 01 03 2013  00 02  -21.0552 26014.1 -03407.1 -07.4615 26236.2
 01 03 2013  00 03  -21.0555 26014.1 -03407.3 -07.4619 26236.3
 01 03 2013  00 04  -21.0556 26014.2 -03407.3 -07.4621 26236.4
 01 03 2013  00 05  -21.0550 26014.1 -03407.4 -07.4622 26236.3
 01 03 2013  00 06  -21.0542 26013.9 -03407.3 -07.4621 26236.1
 01 03 2013  00 07  -21.0540 26013.8 -03407.3 -07.4622 26236.0
 01 03 2013  00 08  -21.0543 26013.7 -03407.4 -07.4623 26235.9
 01 03 2013  00 09  -21.0541 26013.5 -03407.4 -07.4624 26235.7
 01 03 2013  00 10  -21.0539 26013.3 -03407.4 -07.4624 26235.5
 01 03 2013  00 11  -21.0539 26013.1 -03407.3 -07.4624 26235.3
 01 03 2013  00 12  -21.0539 26012.7 -03407.3 -07.4624 26234.9
 01 03 2013  00 13  -21.0535 26012.4 -03407.2 -07.4622 26234.5
 01 03 2013  00 14  -21.0534 26012.3 -03407.2 -07.4623 26234.5
 01 03 2013  00 15  -21.0535 26012.4 -03407.3 -07.4626 26234.6
 01 03 2013  00 16  -21.0538 26012.5 -03407.5 -07.4630 26234.8
 01 03 2013  00 17  -21.0539 26012.5 -03407.6 -07.4631 26234.7
 01 03 2013  00 18  -21.0539 26012.5 -03407.6 -07.4632 26234.8
 01 03 2013  00 19  -21.0537 26012.3 -03407.6 -07.4633 26234.5
 01 03 2013  00 20  -21.0535 26012.2 -03407.6 -07.4633 26234.4
 01 03 2013  00 21  -21.0537 26012.1 -03407.7 -07.4634 26234.4
 01 03 2013  00 22  -21.0541 26012.1 -03407.8 -07.4636 26234.4
 01 03 2013  00 23  -21.0548 26012.1 -03407.8 -07.4637 26234.3
 01 03 2013  00 24  -21.0553 26012.1 -03407.9 -07.4638 26234.4
 01 03 2013  00 25  -21.0562 26012.3 -03408.0 -07.4641 26234.6
 01 03 2013  00 26  -21.0566 26012.6 -03408.2 -07.4644 26234.9
 01 03 2013  00 27  -21.0565 26012.7 -03408.2 -07.4645 26235.0
 01 03 2013  00 28  -21.0560 26012.5 -03408.2 -07.4644 26234.9
 01 03 2013  00 29  -21.0564 26012.4 -03408.2 -07.4644 26234.7
 01 03 2013  00 30  -21.0572 26012.3 -03408.2 -07.4644 26234.6
 01 03 2013  00 31  -21.0574 26012.5 -03408.3 -07.4646 26234.8
 01 03 2013  00 32  -21.0571 26012.7 -03408.3 -07.4647 26235.0
 01 03 2013  00 33  -21.0571 26013.0 -03408.5 -07.4650 26235.4
 01 03 2013  00 34  -21.0575 26013.4 -03408.8 -07.4655 26235.8
 01 03 2013  00 35  -21.0579 26013.4 -03408.9 -07.4657 26235.8
 01 03 2013  00 36  -21.0585 26012.9 -03408.7 -07.4655 26235.3
 01 03 2013  00 37  -21.0585 26012.2 -03408.4 -07.4649 26234.6
 01 03 2013  00 38  -21.0585 26011.6 -03408.0 -07.4644 26233.9
 01 03 2013  00 39  -21.0583 26011.2 -03407.8 -07.4640 26233.4
 01 03 2013  00 40  -21.0580 26010.8 -03407.7 -07.4638 26233.1
 01 03 2013  00 41  -21.0584 26010.5 -03407.7 -07.4638 26232.8
 01 03 2013  00 42  -21.0588 26010.1 -03407.6 -07.4638 26232.4
 01 03 2013  00 43  -21.0594 26009.7 -03407.4 -07.4636 26231.9
 01 03 2013  00 44  -21.0602 26009.3 -03407.4 -07.4635 26231.6
 01 03 2013  00 45  -21.0610 26009.0 -03407.3 -07.4635 26231.3
 01 03 2013  00 46  -21.0620 26008.8 -03407.3 -07.4636 26231.0
 01 03 2013  00 47  -21.0624 26008.7 -03407.3 -07.4637 26230.9
 01 03 2013  00 48  -21.0626 26008.5 -03407.3 -07.4637 26230.7
 01 03 2013  00 49  -21.0627 26008.3 -03407.3 -07.4637 26230.6
 01 03 2013  00 50  -21.0634 26008.3 -03407.4 -07.4639 26230.6
 01 03 2013  00 51  -21.0640 26008.3 -03407.5 -07.4640 26230.5
 01 03 2013  00 52  -21.0649 26008.2 -03407.5 -07.4642 26230.5
 01 03 2013  00 53  -21.0649 26008.0 -03407.5 -07.4641 26230.3
 01 03 2013  00 54  -21.0642 26007.9 -03407.4 -07.4640 26230.1
 01 03 2013  00 55  -21.0634 26007.9 -03407.5 -07.4641 26230.2
 01 03 2013  00 56  -21.0626 26008.1 -03407.6 -07.4644 26230.3
 01 03 2013  00 57  -21.0624 26008.3 -03407.8 -07.4648 26230.6
 01 03 2013  00 58  -21.0624 26008.4 -03408.0 -07.4652 26230.7
 01 03 2013  00 59  -21.0625 26008.5 -03408.2 -07.4655 26230.9
 01 03 2013  01 00  -21.0622 26008.8 -03408.4 -07.4659 26231.2
 01 03 2013  01 01  -21.0620 26009.2 -03408.6 -07.4663 26231.6
 01 03 2013  01 02  -21.0615 26009.5 -03408.8 -07.4667 26231.9
 01 03 2013  01 03  -21.0610 26009.8 -03409.1 -07.4671 26232.2
 01 03 2013  01 04  -21.0607 26009.8 -03409.1 -07.4672 26232.3
 01 03 2013  01 05  -21.0602 26009.9 -03409.2 -07.4674 26232.4
 01 03 2013  01 06  -21.0599 26010.0 -03409.3 -07.4676 26232.5
 01 03 2013  01 07  -21.0597 26010.0 -03409.4 -07.4678 26232.5
 01 03 2013  01 08  -21.0601 26010.2 -03409.6 -07.4681 26232.7
 01 03 2013  01 09  -21.0606 26010.3 -03409.7 -07.4684 26232.8
 01 03 2013  01 10  -21.0609 26010.3 -03409.8 -07.4685 26232.9
 01 03 2013  01 11  -21.0611 26010.2 -03409.8 -07.4685 26232.8
 01 03 2013  01 12  -21.0611 26010.1 -03409.7 -07.4683 26232.6
 01 03 2013  01 13  -21.0614 26010.0 -03409.6 -07.4682 26232.5
 01 03 2013  01 14  -21.0614 26009.7 -03409.5 -07.4681 26232.2
 01 03 2013  01 15  -21.0617 26009.6 -03409.5 -07.4680 26232.1
 01 03 2013  01 16  -21.0622 26009.6 -03409.5 -07.4681 26232.1
 01 03 2013  01 17  -21.0625 26009.7 -03409.6 -07.4683 26232.2
 01 03 2013  01 18  -21.0626 26009.9 -03409.7 -07.4685 26232.4
 01 03 2013  01 19  -21.0625 26009.8 -03409.7 -07.4684 26232.3
 01 03 2013  01 20  -21.0623 26009.9 -03409.7 -07.4685 26232.5
 01 03 2013  01 21  -21.0619 26009.9 -03409.8 -07.4686 26232.5
 01 03 2013  01 22  -21.0618 26010.1 -03409.9 -07.4687 26232.6
 01 03 2013  01 23  -21.0615 26010.4 -03410.0 -07.4690 26233.0
 01 03 2013  01 24  -21.0616 26010.5 -03410.1 -07.4692 26233.0
 01 03 2013  01 25  -21.0611 26010.9 -03410.4 -07.4696 26233.5
 01 03 2013  01 26  -21.0610 26011.0 -03410.5 -07.4698 26233.6
 01 03 2013  01 27  -21.0610 26011.2 -03410.6 -07.4701 26233.8
 01 03 2013  01 28  -21.0606 26011.2 -03410.6 -07.4701 26233.8
 01 03 2013  01 29  -21.0603 26011.0 -03410.6 -07.4700 26233.7
 01 03 2013  01 30  -21.0600 26011.0 -03410.6 -07.4701 26233.6
 01 03 2013  01 31  -21.0600 26011.2 -03410.8 -07.4704 26233.9
 01 03 2013  01 32  -21.0602 26011.9 -03411.1 -07.4710 26234.6
 01 03 2013  01 33  -21.0605 26011.6 -03411.0 -07.4708 26234.3
 01 03 2013  01 34  -21.0604 26011.1 -03410.8 -07.4706 26233.8
 01 03 2013  01 35  -21.0594 26010.8 -03410.7 -07.4703 26233.5
 01 03 2013  01 36  -21.0585 26011.3 -03410.9 -07.4706 26234.0
 01 03 2013  01 37  -21.0577 26012.1 -03411.3 -07.4713 26234.8
 01 03 2013  01 38  -21.0573 26013.5 -03412.1 -07.4726 26236.3
 01 03 2013  01 39  -21.0573 26014.2 -03412.6 -07.4736 26237.0
 01 03 2013  01 40  -21.0566 26014.2 -03412.7 -07.4737 26237.1
 01 03 2013  01 41  -21.0559 26014.4 -03412.8 -07.4738 26237.3
 01 03 2013  01 42  -21.0553 26014.8 -03412.9 -07.4740 26237.7
 01 03 2013  01 43  -21.0555 26015.1 -03413.1 -07.4744 26238.1
 01 03 2013  01 44  -21.0556 26015.2 -03413.2 -07.4745 26238.2
 01 03 2013  01 45  -21.0555 26015.0 -03413.1 -07.4744 26238.0
 01 03 2013  01 46  -21.0554 26014.8 -03413.0 -07.4741 26237.8
 01 03 2013  01 47  -21.0552 26014.9 -03412.9 -07.4740 26237.8
 01 03 2013  01 48  -21.0554 26015.1 -03413.1 -07.4742 26238.1
 01 03 2013  01 49  -21.0558 26015.3 -03413.2 -07.4744 26238.3
 01 03 2013  01 50  -21.0561 26015.3 -03413.2 -07.4745 26238.3
 01 03 2013  01 51  -21.0566 26015.2 -03413.2 -07.4745 26238.2
 01 03 2013  01 52  -21.0567 26015.1 -03413.1 -07.4744 26238.1
 01 03 2013  01 53  -21.0568 26014.9 -03413.0 -07.4741 26237.9
 01 03 2013  01 54  -21.0568 26014.8 -03412.9 -07.4740 26237.7
 01 03 2013  01 55  -21.0564 26014.9 -03412.9 -07.4739 26237.8
 01 03 2013  01 56  -21.0565 26015.3 -03413.2 -07.4744 26238.3
 01 03 2013  01 57  -21.0566 26015.4 -03413.3 -07.4746 26238.4
 01 03 2013  01 58  -21.0570 26015.6 -03413.4 -07.4747 26238.6
 01 03 2013  01 59  -21.0571 26015.7 -03413.4 -07.4749 26238.7
 01 03 2013  02 00  -21.0572 26015.8 -03413.4 -07.4749 26238.8
 01 03 2013  02 01  -21.0569 26016.1 -03413.6 -07.4751 26239.1
 01 03 2013  02 02  -21.0564 26016.3 -03413.6 -07.4751 26239.3
 01 03 2013  02 03  -21.0567 26016.4 -03413.7 -07.4753 26239.4
 01 03 2013  02 04  -21.0570 26016.8 -03413.9 -07.4756 26239.8
 01 03 2013  02 05  -21.0571 26016.8 -03413.9 -07.4756 26239.8
 01 03 2013  02 06  -21.0568 26017.6 -03414.3 -07.4761 26240.7
 01 03 2013  02 07  -21.0567 26017.5 -03414.2 -07.4760 26240.6
 01 03 2013  02 08  -21.0567 26017.7 -03414.3 -07.4762 26240.8
 01 03 2013  02 09  -21.0565 26018.3 -03414.5 -07.4765 26241.4
 01 03 2013  02 10  -21.0565 26018.4 -03414.5 -07.4765 26241.5
 01 03 2013  02 11  -21.0567 26018.6 -03414.6 -07.4766 26241.7
 01 03 2013  02 12  -21.0570 26018.7 -03414.6 -07.4766 26241.8
 01 03 2013  02 13  -21.0569 26018.8 -03414.6 -07.4766 26241.9
 01 03 2013  02 14  -21.0568 26019.1 -03414.7 -07.4767 26242.2
 01 03 2013  02 15  -21.0568 26018.9 -03414.7 -07.4766 26242.0
 01 03 2013  02 16  -21.0564 26019.3 -03414.8 -07.4768 26242.4
 01 03 2013  02 17  -21.0563 26019.3 -03414.7 -07.4766 26242.4
 01 03 2013  02 18  -21.0556 26019.7 -03414.9 -07.4769 26242.8
 01 03 2013  02 19  -21.0541 26020.6 -03415.3 -07.4774 26243.8
 01 03 2013  02 20  -21.0532 26021.5 -03415.6 -07.4779 26244.7
 01 03 2013  02 21  -21.0521 26022.3 -03416.1 -07.4787 26245.6
 01 03 2013  02 22  -21.0511 26023.3 -03416.4 -07.4792 26246.6
 01 03 2013  02 23  -21.0503 26024.3 -03417.0 -07.4801 26247.7
 01 03 2013  02 24  -21.0499 26025.3 -03417.5 -07.4809 26248.7
 01 03 2013  02 25  -21.0496 26026.2 -03417.9 -07.4815 26249.7
 01 03 2013  02 26  -21.0497 26027.2 -03418.3 -07.4822 26250.7
 01 03 2013  02 27  -21.0499 26028.7 -03418.9 -07.4830 26252.2
 01 03 2013  02 28  -21.0506 26030.3 -03419.7 -07.4842 26254.0
 01 03 2013  02 29  -21.0515 26031.7 -03420.2 -07.4850 26255.4
 01 03 2013  02 30  -21.0517 26032.9 -03420.6 -07.4854 26256.7
 01 03 2013  02 31  -21.0521 26034.0 -03420.8 -07.4857 26257.8
 01 03 2013  02 32  -21.0522 26035.0 -03421.0 -07.4859 26258.8
 01 03 2013  02 33  -21.0522 26035.8 -03421.2 -07.4859 26259.6
 01 03 2013  02 34  -21.0521 26036.8 -03421.3 -07.4859 26260.7
 01 03 2013  02 35  -21.0521 26038.2 -03421.7 -07.4863 26262.1
 01 03 2013  02 36  -21.0526 26039.5 -03422.0 -07.4868 26263.4
 01 03 2013  02 37  -21.0528 26040.7 -03422.3 -07.4871 26264.6
 01 03 2013  02 38  -21.0525 26041.6 -03422.4 -07.4870 26265.5
 01 03 2013  02 39  -21.0521 26042.4 -03422.5 -07.4868 26266.3
 01 03 2013  02 40  -21.0522 26043.2 -03422.6 -07.4868 26267.2
 01 03 2013  02 41  -21.0522 26043.7 -03422.4 -07.4864 26267.6
 01 03 2013  02 42  -21.0519 26044.2 -03422.4 -07.4861 26268.1
 01 03 2013  02 43  -21.0518 26044.6 -03422.3 -07.4858 26268.5
 01 03 2013  02 44  -21.0517 26044.9 -03422.1 -07.4854 26268.7
 01 03 2013  02 45  -21.0516 26045.0 -03421.9 -07.4849 26268.9
 01 03 2013  02 46  -21.0516 26045.1 -03421.7 -07.4844 26268.9
 01 03 2013  02 47  -21.0517 26045.0 -03421.4 -07.4837 26268.8
 01 03 2013  02 48  -21.0517 26044.9 -03421.1 -07.4831 26268.6
 01 03 2013  02 49  -21.0515 26044.6 -03420.7 -07.4824 26268.3
 01 03 2013  02 50  -21.0510 26044.6 -03420.4 -07.4818 26268.2
 01 03 2013  02 51  -21.0506 26044.5 -03420.2 -07.4813 26268.1
 01 03 2013  02 52  -21.0503 26044.3 -03420.0 -07.4809 26267.9
 01 03 2013  02 53  -21.0501 26044.1 -03419.7 -07.4805 26267.6
 01 03 2013  02 54  -21.0498 26044.2 -03419.6 -07.4802 26267.7
 01 03 2013  02 55  -21.0495 26044.3 -03419.6 -07.4801 26267.9
 01 03 2013  02 56  -21.0493 26044.3 -03419.5 -07.4800 26267.9
 01 03 2013  02 57  -21.0492 26044.3 -03419.5 -07.4798 26267.9
 01 03 2013  02 58  -21.0491 26044.1 -03419.3 -07.4795 26267.6
 01 03 2013  02 59  -21.0492 26043.8 -03419.1 -07.4791 26267.3
 01 03 2013  03 00  -21.0491 26043.5 -03418.9 -07.4788 26266.9
 01 03 2013  03 01  -21.0494 26042.5 -03418.4 -07.4780 26265.9
 01 03 2013  03 02  -21.0506 26041.4 -03417.8 -07.4771 26264.8
 01 03 2013  03 03  -21.0525 26040.4 -03417.4 -07.4764 26263.6
 01 03 2013  03 04  -21.0541 26039.3 -03416.9 -07.4757 26262.5
 01 03 2013  03 05  -21.0557 26038.0 -03416.3 -07.4747 26261.1
 01 03 2013  03 06  -21.0575 26036.2 -03415.5 -07.4735 26259.3
 01 03 2013  03 07  -21.0588 26034.6 -03414.6 -07.4721 26257.6
 01 03 2013  03 08  -21.0598 26032.9 -03413.8 -07.4708 26255.8
 01 03 2013  03 09  -21.0602 26031.5 -03413.1 -07.4697 26254.3
 01 03 2013  03 10  -21.0603 26030.3 -03412.6 -07.4688 26253.1
 01 03 2013  03 11  -21.0601 26029.4 -03412.2 -07.4683 26252.1
 01 03 2013  03 12  -21.0595 26028.5 -03411.8 -07.4678 26251.2
 01 03 2013  03 13  -21.0582 26027.8 -03411.6 -07.4675 26250.5
 01 03 2013  03 14  -21.0567 26027.3 -03411.5 -07.4674 26250.0
 01 03 2013  03 15  -21.0554 26027.0 -03411.5 -07.4675 26249.6
 01 03 2013  03 16  -21.0541 26026.7 -03411.6 -07.4678 26249.4
 01 03 2013  03 17  -21.0529 26026.4 -03411.7 -07.4680 26249.1
 01 03 2013  03 18  -21.0514 26026.0 -03411.6 -07.4681 26248.6
 01 03 2013  03 19  -21.0501 26025.5 -03411.6 -07.4681 26248.1
 01 03 2013  03 20  -21.0486 26025.0 -03411.6 -07.4683 26247.7
 01 03 2013  03 21  -21.0477 26024.7 -03411.7 -07.4686 26247.4
 01 03 2013  03 22  -21.0473 26024.5 -03411.8 -07.4689 26247.2
 01 03 2013  03 23  -21.0472 26024.3 -03412.0 -07.4694 26247.1
 01 03 2013  03 24  -21.0471 26024.2 -03412.2 -07.4698 26246.9
 01 03 2013  03 25  -21.0469 26024.0 -03412.3 -07.4701 26246.8
 01 03 2013  03 26  -21.0470 26023.8 -03412.4 -07.4704 26246.6
 01 03 2013  03 27  -21.0471 26023.6 -03412.5 -07.4706 26246.4
 01 03 2013  03 28  -21.0472 26023.5 -03412.6 -07.4708 26246.2
 01 03 2013  03 29  -21.0472 26023.3 -03412.6 -07.4710 26246.1
 01 03 2013  03 30  -21.0475 26023.1 -03412.7 -07.4711 26245.9
 01 03 2013  03 31  -21.0477 26022.9 -03412.7 -07.4712 26245.7
 01 03 2013  03 32  -21.0478 26022.5 -03412.6 -07.4712 26245.3
 01 03 2013  03 33  -21.0476 26022.0 -03412.5 -07.4709 26244.8
 01 03 2013  03 34  -21.0473 26021.7 -03412.4 -07.4709 26244.5
 01 03 2013  03 35  -21.0471 26021.3 -03412.4 -07.4709 26244.1
 01 03 2013  03 36  -21.0467 26021.0 -03412.3 -07.4709 26243.8
 01 03 2013  03 37  -21.0462 26020.8 -03412.3 -07.4709 26243.6
 01 03 2013  03 38  -21.0461 26020.6 -03412.4 -07.4712 26243.4
 01 03 2013  03 39  -21.0461 26020.5 -03412.5 -07.4715 26243.4
 01 03 2013  03 40  -21.0462 26020.5 -03412.6 -07.4717 26243.3
 01 03 2013  03 41  -21.0466 26020.5 -03412.7 -07.4720 26243.3
 01 03 2013  03 42  -21.0470 26020.3 -03412.8 -07.4722 26243.1
 01 03 2013  03 43  -21.0473 26020.1 -03412.8 -07.4723 26243.0
 01 03 2013  03 44  -21.0477 26020.1 -03412.9 -07.4724 26242.9
 01 03 2013  03 45  -21.0480 26020.0 -03412.9 -07.4725 26242.8
 01 03 2013  03 46  -21.0480 26019.9 -03412.9 -07.4726 26242.7
 01 03 2013  03 47  -21.0480 26019.7 -03412.9 -07.4726 26242.5
 01 03 2013  03 48  -21.0479 26019.5 -03412.9 -07.4726 26242.4
 01 03 2013  03 49  -21.0477 26019.3 -03412.8 -07.4726 26242.2
 01 03 2013  03 50  -21.0476 26019.3 -03412.9 -07.4726 26242.1
 01 03 2013  03 51  -21.0477 26019.2 -03412.9 -07.4728 26242.0
 01 03 2013  03 52  -21.0479 26019.1 -03413.0 -07.4730 26242.0
 01 03 2013  03 53  -21.0474 26019.0 -03413.1 -07.4731 26241.9
 01 03 2013  03 54  -21.0469 26019.0 -03413.1 -07.4732 26241.9
 01 03 2013  03 55  -21.0465 26018.9 -03413.1 -07.4733 26241.9
 01 03 2013  03 56  -21.0465 26018.9 -03413.2 -07.4735 26241.9
 01 03 2013  03 57  -21.0464 26019.0 -03413.3 -07.4738 26241.9
 01 03 2013  03 58  -21.0466 26019.1 -03413.5 -07.4740 26242.1
 01 03 2013  03 59  -21.0469 26019.3 -03413.7 -07.4743 26242.3
 01 03 2013  04 00  -21.0470 26019.5 -03413.8 -07.4747 26242.5
 01 03 2013  04 01  -21.0474 26019.8 -03414.0 -07.4750 26242.8
 01 03 2013  04 02  -21.0481 26019.9 -03414.2 -07.4753 26243.0
 01 03 2013  04 03  -21.0486 26020.0 -03414.2 -07.4754 26243.0
 01 03 2013  04 04  -21.0488 26020.0 -03414.3 -07.4754 26243.1
 01 03 2013  04 05  -21.0488 26020.1 -03414.3 -07.4755 26243.1
 01 03 2013  04 06  -21.0486 26020.1 -03414.3 -07.4755 26243.2
 01 03 2013  04 07  -21.0483 26020.2 -03414.3 -07.4754 26243.2
 01 03 2013  04 08  -21.0479 26020.2 -03414.3 -07.4754 26243.2
 01 03 2013  04 09  -21.0477 26020.2 -03414.3 -07.4755 26243.3
 01 03 2013  04 10  -21.0476 26020.2 -03414.4 -07.4756 26243.3
 01 03 2013  04 11  -21.0472 26020.3 -03414.4 -07.4757 26243.4
 01 03 2013  04 12  -21.0469 26020.4 -03414.5 -07.4759 26243.5
 01 03 2013  04 13  -21.0470 26020.5 -03414.6 -07.4760 26243.6
 01 03 2013  04 14  -21.0473 26020.9 -03414.8 -07.4764 26244.0
 01 03 2013  04 15  -21.0478 26021.1 -03415.0 -07.4767 26244.3
 01 03 2013  04 16  -21.0483 26021.4 -03415.2 -07.4770 26244.6
 01 03 2013  04 17  -21.0490 26021.7 -03415.3 -07.4772 26244.8
 01 03 2013  04 18  -21.0496 26021.9 -03415.4 -07.4773 26245.1
 01 03 2013  04 19  -21.0503 26022.1 -03415.5 -07.4775 26245.3
 01 03 2013  04 20  -21.0510 26022.4 -03415.6 -07.4776 26245.6
 01 03 2013  04 21  -21.0512 26022.4 -03415.5 -07.4775 26245.6
 01 03 2013  04 22  -21.0511 26022.5 -03415.4 -07.4773 26245.7
 01 03 2013  04 23  -21.0508 26022.4 -03415.4 -07.4771 26245.6
 01 03 2013  04 24  -21.0505 26022.4 -03415.3 -07.4770 26245.6
 01 03 2013  04 25  -21.0502 26022.5 -03415.3 -07.4769 26245.6
 01 03 2013  04 26  -21.0497 26022.5 -03415.3 -07.4770 26245.7
 01 03 2013  04 27  -21.0495 26022.7 -03415.3 -07.4770 26245.8
 01 03 2013  04 28  -21.0491 26022.7 -03415.4 -07.4771 26245.9
 01 03 2013  04 29  -21.0487 26022.8 -03415.4 -07.4771 26246.0
 01 03 2013  04 30  -21.0487 26022.8 -03415.4 -07.4772 26246.0
 01 03 2013  04 31  -21.0485 26022.9 -03415.5 -07.4772 26246.1
 01 03 2013  04 32  -21.0485 26022.9 -03415.5 -07.4773 26246.1
 01 03 2013  04 33  -21.0484 26022.9 -03415.5 -07.4773 26246.1
 01 03 2013  04 34  -21.0483 26023.0 -03415.5 -07.4773 26246.2
 01 03 2013  04 35  -21.0483 26023.1 -03415.6 -07.4774 26246.3
 01 03 2013  04 36  -21.0484 26023.2 -03415.6 -07.4774 26246.3
 01 03 2013  04 37  -21.0487 26023.2 -03415.6 -07.4775 26246.4
 01 03 2013  04 38  -21.0494 26023.4 -03415.7 -07.4776 26246.6
 01 03 2013  04 39  -21.0499 26023.5 -03415.8 -07.4777 26246.7
 01 03 2013  04 40  -21.0495 26023.5 -03415.7 -07.4775 26246.7
 01 03 2013  04 41  -21.0491 26023.5 -03415.6 -07.4774 26246.7
 01 03 2013  04 42  -21.0490 26023.8 -03415.7 -07.4775 26247.0
 01 03 2013  04 43  -21.0491 26024.0 -03415.8 -07.4777 26247.2
 01 03 2013  04 44  -21.0495 26024.1 -03415.9 -07.4778 26247.4
 01 03 2013  04 45  -21.0495 26024.3 -03415.9 -07.4779 26247.5
 01 03 2013  04 46  -21.0494 26024.5 -03416.0 -07.4779 26247.7
 01 03 2013  04 47  -21.0491 26024.6 -03416.0 -07.4780 26247.8
 01 03 2013  04 48  -21.0486 26024.6 -03416.0 -07.4779 26247.9
 01 03 2013  04 49  -21.0482 26024.7 -03416.0 -07.4779 26247.9
 01 03 2013  04 50  -21.0479 26024.6 -03416.0 -07.4779 26247.8
 01 03 2013  04 51  -21.0476 26024.5 -03416.0 -07.4778 26247.7
 01 03 2013  04 52  -21.0472 26024.4 -03415.9 -07.4777 26247.6
 01 03 2013  04 53  -21.0466 26024.3 -03415.8 -07.4776 26247.5
 01 03 2013  04 54  -21.0456 26024.2 -03415.8 -07.4775 26247.4
 01 03 2013  04 55  -21.0446 26024.1 -03415.7 -07.4774 26247.3
 01 03 2013  04 56  -21.0438 26024.0 -03415.7 -07.4775 26247.2
 01 03 2013  04 57  -21.0435 26024.1 -03415.9 -07.4777 26247.3
 01 03 2013  04 58  -21.0435 26024.3 -03416.0 -07.4780 26247.5
 01 03 2013  04 59  -21.0437 26024.3 -03416.1 -07.4782 26247.6
 01 03 2013  05 00  -21.0437 26024.2 -03416.1 -07.4782 26247.4
 01 03 2013  05 01  -21.0437 26024.1 -03416.1 -07.4782 26247.4
 01 03 2013  05 02  -21.0435 26023.9 -03416.0 -07.4781 26247.2
 01 03 2013  05 03  -21.0429 26023.8 -03415.9 -07.4779 26247.0
 01 03 2013  05 04  -21.0422 26023.7 -03415.9 -07.4778 26246.9
 01 03 2013  05 05  -21.0419 26023.6 -03415.8 -07.4779 26246.8
 01 03 2013  05 06  -21.0421 26023.5 -03415.9 -07.4780 26246.8
 01 03 2013  05 07  -21.0423 26023.5 -03416.0 -07.4782 26246.8
 01 03 2013  05 08  -21.0421 26023.5 -03416.0 -07.4782 26246.7
 01 03 2013  05 09  -21.0415 26023.4 -03415.9 -07.4781 26246.6
 01 03 2013  05 10  -21.0410 26023.3 -03415.9 -07.4781 26246.5
 01 03 2013  05 11  -21.0407 26023.4 -03416.0 -07.4782 26246.6
 01 03 2013  05 12  -21.0405 26023.5 -03416.1 -07.4784 26246.7
 01 03 2013  05 13  -21.0406 26023.6 -03416.2 -07.4787 26246.9
 01 03 2013  05 14  -21.0408 26023.9 -03416.4 -07.4790 26247.2
 01 03 2013  05 15  -21.0411 26024.2 -03416.6 -07.4793 26247.5
 01 03 2013  05 16  -21.0413 26024.5 -03416.8 -07.4796 26247.9
 01 03 2013  05 17  -21.0414 26024.7 -03416.9 -07.4799 26248.1
 01 03 2013  05 18  -21.0414 26024.9 -03417.0 -07.4799 26248.2
 01 03 2013  05 19  -21.0413 26025.0 -03417.0 -07.4799 26248.4
 01 03 2013  05 20  -21.0413 26025.1 -03417.0 -07.4799 26248.5
 01 03 2013  05 21  -21.0414 26025.1 -03417.1 -07.4800 26248.5
 01 03 2013  05 22  -21.0419 26025.1 -03417.0 -07.4799 26248.5
 01 03 2013  05 23  -21.0425 26025.2 -03417.0 -07.4799 26248.6
 01 03 2013  05 24  -21.0428 26025.4 -03417.1 -07.4800 26248.8
 01 03 2013  05 25  -21.0433 26025.7 -03417.2 -07.4801 26249.0
 01 03 2013  05 26  -21.0433 26025.8 -03417.2 -07.4802 26249.2
 01 03 2013  05 27  -21.0433 26026.1 -03417.3 -07.4804 26249.5
 01 03 2013  05 28  -21.0433 26026.3 -03417.4 -07.4804 26249.7
 01 03 2013  05 29  -21.0433 26026.5 -03417.5 -07.4806 26249.9
 01 03 2013  05 30  -21.0433 26026.8 -03417.6 -07.4807 26250.2
 01 03 2013  05 31  -21.0434 26027.0 -03417.7 -07.4809 26250.5
 01 03 2013  05 32  -21.0435 26027.3 -03417.8 -07.4810 26250.7
 01 03 2013  05 33  -21.0433 26027.5 -03417.9 -07.4811 26251.0
 01 03 2013  05 34  -21.0430 26027.7 -03417.9 -07.4811 26251.1
 01 03 2013  05 35  -21.0426 26027.8 -03417.9 -07.4811 26251.3
 01 03 2013  05 36  -21.0421 26028.1 -03418.0 -07.4812 26251.6
 01 03 2013  05 37  -21.0420 26028.4 -03418.1 -07.4814 26251.9
 01 03 2013  05 38  -21.0418 26028.8 -03418.3 -07.4816 26252.3
 01 03 2013  05 39  -21.0418 26029.0 -03418.4 -07.4818 26252.5
 01 03 2013  05 40  -21.0418 26029.0 -03418.4 -07.4818 26252.5
 01 03 2013  05 41  -21.0422 26028.9 -03418.3 -07.4817 26252.4
 01 03 2013  05 42  -21.0424 26028.9 -03418.3 -07.4816 26252.4
 01 03 2013  05 43  -21.0427 26028.9 -03418.2 -07.4815 26252.4
 01 03 2013  05 44  -21.0430 26028.8 -03418.1 -07.4813 26252.3
 01 03 2013  05 45  -21.0433 26028.6 -03418.0 -07.4810 26252.1
 01 03 2013  05 46  -21.0435 26028.5 -03417.9 -07.4808 26251.9
 01 03 2013  05 47  -21.0438 26028.4 -03417.8 -07.4807 26251.8
 01 03 2013  05 48  -21.0439 26028.4 -03417.8 -07.4807 26251.8
 01 03 2013  05 49  -21.0440 26028.5 -03417.8 -07.4808 26251.9
 01 03 2013  05 50  -21.0440 26028.6 -03417.8 -07.4807 26252.0
 01 03 2013  05 51  -21.0436 26028.7 -03417.9 -07.4808 26252.2
 01 03 2013  05 52  -21.0435 26028.9 -03417.9 -07.4808 26252.4
 01 03 2013  05 53  -21.0435 26029.1 -03418.0 -07.4809 26252.5
 01 03 2013  05 54  -21.0435 26029.2 -03418.0 -07.4810 26252.6
 01 03 2013  05 55  -21.0433 26029.2 -03418.1 -07.4811 26252.7
 01 03 2013  05 56  -21.0434 26029.2 -03418.1 -07.4810 26252.7
 01 03 2013  05 57  -21.0435 26029.3 -03418.1 -07.4811 26252.7
 01 03 2013  05 58  -21.0438 26029.3 -03418.1 -07.4811 26252.8
 01 03 2013  05 59  -21.0442 26029.4 -03418.2 -07.4812 26252.9
 01 03 2013  06 00  -21.0446 26029.6 -03418.2 -07.4813 26253.1
 01 03 2013  06 01  -21.0453 26029.8 -03418.3 -07.4815 26253.3
 01 03 2013  06 02  -21.0460 26029.9 -03418.4 -07.4816 26253.4
 01 03 2013  06 03  -21.0465 26030.0 -03418.4 -07.4815 26253.5
 01 03 2013  06 04  -21.0466 26030.1 -03418.3 -07.4814 26253.6
 01 03 2013  06 05  -21.0465 26030.1 -03418.2 -07.4812 26253.5
 01 03 2013  06 06  -21.0458 26030.0 -03418.1 -07.4810 26253.5
 01 03 2013  06 07  -21.0452 26030.0 -03418.0 -07.4807 26253.5
 01 03 2013  06 08  -21.0447 26030.0 -03418.0 -07.4807 26253.5
 01 03 2013  06 09  -21.0442 26030.0 -03418.0 -07.4807 26253.5
 01 03 2013  06 10  -21.0436 26030.0 -03418.0 -07.4807 26253.5
 01 03 2013  06 11  -21.0433 26030.0 -03418.0 -07.4807 26253.4
 01 03 2013  06 12  -21.0427 26030.0 -03418.0 -07.4808 26253.4
 01 03 2013  06 13  -21.0423 26029.9 -03418.0 -07.4808 26253.4
 01 03 2013  06 14  -21.0418 26029.9 -03418.0 -07.4808 26253.3
 01 03 2013  06 15  -21.0414 26029.8 -03418.0 -07.4808 26253.3
 01 03 2013  06 16  -21.0407 26029.8 -03418.0 -07.4808 26253.3
 01 03 2013  06 17  -21.0403 26029.8 -03418.1 -07.4809 26253.3
 01 03 2013  06 18  -21.0401 26030.0 -03418.2 -07.4811 26253.4
 01 03 2013  06 19  -21.0400 26030.1 -03418.3 -07.4813 26253.5
 01 03 2013  06 20  -21.0398 26030.3 -03418.4 -07.4815 26253.8
 01 03 2013  06 21  -21.0397 26030.5 -03418.6 -07.4818 26254.0
 01 03 2013  06 22  -21.0396 26030.7 -03418.7 -07.4821 26254.3
 01 03 2013  06 23  -21.0396 26030.8 -03418.8 -07.4822 26254.4
 01 03 2013  06 24  -21.0395 26030.9 -03418.8 -07.4822 26254.4
 01 03 2013  06 25  -21.0395 26031.0 -03418.8 -07.4822 26254.5
 01 03 2013  06 26  -21.0394 26031.1 -03418.9 -07.4824 26254.7
 01 03 2013  06 27  -21.0393 26031.2 -03419.0 -07.4824 26254.8
 01 03 2013  06 28  -21.0392 26031.2 -03419.0 -07.4824 26254.8
 01 03 2013  06 29  -21.0391 26031.3 -03418.9 -07.4824 26254.9
 01 03 2013  06 30  -21.0393 26031.4 -03419.0 -07.4825 26255.0
 01 03 2013  06 31  -21.0398 26031.7 -03419.1 -07.4826 26255.2
 01 03 2013  06 32  -21.0400 26032.0 -03419.2 -07.4828 26255.6
 01 03 2013  06 33  -21.0401 26032.2 -03419.3 -07.4830 26255.8
 01 03 2013  06 34  -21.0397 26032.5 -03419.5 -07.4832 26256.1
 01 03 2013  06 35  -21.0390 26032.7 -03419.5 -07.4831 26256.3
 01 03 2013  06 36  -21.0383 26032.9 -03419.6 -07.4832 26256.6
 01 03 2013  06 37  -21.0374 26033.1 -03419.7 -07.4834 26256.8
 01 03 2013  06 38  -21.0363 26033.1 -03419.6 -07.4833 26256.7
 01 03 2013  06 39  -21.0354 26032.9 -03419.6 -07.4832 26256.6
 01 03 2013  06 40  -21.0347 26032.7 -03419.4 -07.4830 26256.3
 01 03 2013  06 41  -21.0345 26032.7 -03419.4 -07.4830 26256.3
 01 03 2013  06 42  -21.0346 26032.7 -03419.5 -07.4832 26256.4
 01 03 2013  06 43  -21.0347 26033.1 -03419.7 -07.4835 26256.7
 01 03 2013  06 44  -21.0350 26033.4 -03419.9 -07.4838 26257.1
 01 03 2013  06 45  -21.0349 26033.8 -03420.1 -07.4841 26257.5
 01 03 2013  06 46  -21.0351 26033.8 -03420.1 -07.4841 26257.5
 01 03 2013  06 47  -21.0356 26033.6 -03420.0 -07.4839 26257.2
 01 03 2013  06 48  -21.0365 26033.2 -03419.8 -07.4836 26256.9
 01 03 2013  06 49  -21.0373 26033.1 -03419.6 -07.4833 26256.7
 01 03 2013  06 50  -21.0378 26033.2 -03419.5 -07.4831 26256.8
 01 03 2013  06 51  -21.0383 26033.4 -03419.5 -07.4831 26257.0
 01 03 2013  06 52  -21.0388 26033.9 -03419.7 -07.4833 26257.5
 01 03 2013  06 53  -21.0392 26034.4 -03419.9 -07.4836 26258.1
 01 03 2013  06 54  -21.0395 26035.0 -03420.2 -07.4841 26258.7
 01 03 2013  06 55  -21.0398 26035.6 -03420.5 -07.4845 26259.3
 01 03 2013  06 56  -21.0400 26035.7 -03420.6 -07.4846 26259.4
 01 03 2013  06 57  -21.0395 26035.6 -03420.4 -07.4843 26259.3
 01 03 2013  06 58  -21.0388 26035.5 -03420.2 -07.4840 26259.2
 01 03 2013  06 59  -21.0381 26035.4 -03420.1 -07.4837 26259.1
 01 03 2013  07 00  -21.0375 26035.0 -03419.8 -07.4832 26258.7
 01 03 2013  07 01  -21.0367 26034.6 -03419.5 -07.4827 26258.2
 01 03 2013  07 02  -21.0357 26034.3 -03419.3 -07.4823 26257.9
 01 03 2013  07 03  -21.0351 26034.1 -03419.1 -07.4820 26257.6
 01 03 2013  07 04  -21.0347 26033.9 -03419.1 -07.4820 26257.5
 01 03 2013  07 05  -21.0346 26033.9 -03419.2 -07.4822 26257.5
 01 03 2013  07 06  -21.0351 26034.1 -03419.4 -07.4825 26257.7
 01 03 2013  07 07  -21.0355 26034.3 -03419.5 -07.4827 26257.9
 01 03 2013  07 08  -21.0360 26034.5 -03419.6 -07.4829 26258.1
 01 03 2013  07 09  -21.0368 26034.6 -03419.7 -07.4830 26258.3
 01 03 2013  07 10  -21.0375 26034.8 -03419.7 -07.4830 26258.4
 01 03 2013  07 11  -21.0381 26035.0 -03419.7 -07.4830 26258.7
 01 03 2013  07 12  -21.0386 26035.2 -03419.8 -07.4831 26258.8
 01 03 2013  07 13  -21.0393 26035.3 -03419.8 -07.4831 26259.0
 01 03 2013  07 14  -21.0397 26035.5 -03419.8 -07.4830 26259.1
 01 03 2013  07 15  -21.0400 26035.6 -03419.8 -07.4830 26259.2
 01 03 2013  07 16  -21.0401 26035.6 -03419.8 -07.4829 26259.3
 01 03 2013  07 17  -21.0402 26035.9 -03419.8 -07.4829 26259.5
 01 03 2013  07 18  -21.0403 26036.1 -03419.9 -07.4830 26259.7
 01 03 2013  07 19  -21.0403 26036.2 -03419.9 -07.4830 26259.8
 01 03 2013  07 20  -21.0397 26036.3 -03419.8 -07.4829 26259.9
 01 03 2013  07 21  -21.0391 26036.3 -03419.8 -07.4828 26259.9
 01 03 2013  07 22  -21.0385 26036.2 -03419.7 -07.4827 26259.8
 01 03 2013  07 23  -21.0377 26036.2 -03419.7 -07.4826 26259.8
 01 03 2013  07 24  -21.0366 26036.0 -03419.6 -07.4825 26259.6
 01 03 2013  07 25  -21.0356 26035.9 -03419.5 -07.4823 26259.5
 01 03 2013  07 26  -21.0348 26035.8 -03419.6 -07.4824 26259.4
 01 03 2013  07 27  -21.0338 26035.8 -03419.6 -07.4825 26259.5
 01 03 2013  07 28  -21.0329 26035.8 -03419.7 -07.4827 26259.4
 01 03 2013  07 29  -21.0326 26035.7 -03419.8 -07.4829 26259.4
 01 03 2013  07 30  -21.0320 26035.5 -03419.7 -07.4827 26259.1
 01 03 2013  07 31  -21.0317 26035.2 -03419.6 -07.4826 26258.8
 01 03 2013  07 32  -21.0315 26034.9 -03419.5 -07.4825 26258.5
 01 03 2013  07 33  -21.0308 26034.8 -03419.5 -07.4825 26258.4
 01 03 2013  07 34  -21.0304 26034.9 -03419.6 -07.4827 26258.5
 01 03 2013  07 35  -21.0299 26034.9 -03419.7 -07.4829 26258.5
 01 03 2013  07 36  -21.0292 26034.8 -03419.7 -07.4830 26258.5
 01 03 2013  07 37  -21.0285 26034.7 -03419.7 -07.4830 26258.4
 01 03 2013  07 38  -21.0280 26034.7 -03419.8 -07.4832 26258.3
 01 03 2013  07 39  -21.0276 26034.7 -03419.8 -07.4834 26258.3
 01 03 2013  07 40  -21.0276 26034.7 -03419.9 -07.4835 26258.3
 01 03 2013  07 41  -21.0278 26034.7 -03420.0 -07.4836 26258.4
 01 03 2013  07 42  -21.0287 26034.9 -03420.1 -07.4838 26258.6
 01 03 2013  07 43  -21.0296 26035.1 -03420.3 -07.4842 26258.8
 01 03 2013  07 44  -21.0304 26035.4 -03420.4 -07.4844 26259.1
 01 03 2013  07 45  -21.0311 26036.1 -03420.7 -07.4849 26259.8
 01 03 2013  07 46  -21.0315 26036.9 -03421.2 -07.4856 26260.7
 01 03 2013  07 47  -21.0316 26037.8 -03421.6 -07.4862 26261.6
 01 03 2013  07 48  -21.0314 26038.4 -03421.9 -07.4867 26262.3
 01 03 2013  07 49  -21.0313 26038.8 -03422.0 -07.4868 26262.7
 01 03 2013  07 50  -21.0309 26039.1 -03422.0 -07.4867 26263.0
 01 03 2013  07 51  -21.0312 26039.2 -03421.9 -07.4864 26263.1
 01 03 2013  07 52  -21.0316 26039.4 -03421.8 -07.4862 26263.3
 01 03 2013  07 53  -21.0319 26039.8 -03421.7 -07.4860 26263.6
 01 03 2013  07 54  -21.0321 26040.1 -03421.8 -07.4860 26264.0
 01 03 2013  07 55  -21.0317 26040.5 -03421.8 -07.4859 26264.3
 01 03 2013  07 56  -21.0318 26041.1 -03421.9 -07.4861 26265.0
 01 03 2013  07 57  -21.0318 26041.3 -03422.0 -07.4861 26265.2
 01 03 2013  07 58  -21.0316 26041.6 -03422.0 -07.4860 26265.4
 01 03 2013  07 59  -21.0317 26041.7 -03421.9 -07.4858 26265.5
 01 03 2013  08 00  -21.0321 26042.0 -03421.9 -07.4857 26265.8
 01 03 2013  08 01  -21.0328 26042.2 -03421.9 -07.4856 26266.0
 01 03 2013  08 02  -21.0336 26042.4 -03421.9 -07.4855 26266.2
 01 03 2013  08 03  -21.0343 26042.6 -03421.9 -07.4855 26266.5
 01 03 2013  08 04  -21.0353 26042.7 -03421.8 -07.4853 26266.5
 01 03 2013  08 05  -21.0363 26042.8 -03421.8 -07.4852 26266.7
 01 03 2013  08 06  -21.0369 26042.7 -03421.6 -07.4848 26266.5
 01 03 2013  08 07  -21.0374 26042.5 -03421.3 -07.4843 26266.3
 01 03 2013  08 08  -21.0374 26042.6 -03421.1 -07.4839 26266.4
 01 03 2013  08 09  -21.0371 26042.7 -03421.0 -07.4835 26266.4
 01 03 2013  08 10  -21.0364 26042.7 -03420.8 -07.4832 26266.4
 01 03 2013  08 11  -21.0363 26042.8 -03420.8 -07.4832 26266.6
 01 03 2013  08 12  -21.0359 26042.8 -03420.8 -07.4831 26266.5
 01 03 2013  08 13  -21.0355 26043.0 -03420.9 -07.4832 26266.7
 01 03 2013  08 14  -21.0348 26043.1 -03420.9 -07.4832 26266.8
 01 03 2013  08 15  -21.0344 26043.0 -03420.9 -07.4832 26266.7
 01 03 2013  08 16  -21.0333 26043.4 -03421.0 -07.4834 26267.1
 01 03 2013  08 17  -21.0318 26043.7 -03421.1 -07.4836 26267.4
 01 03 2013  08 18  -21.0304 26043.5 -03421.1 -07.4835 26267.2
 01 03 2013  08 19  -21.0289 26043.3 -03421.1 -07.4835 26267.1
 01 03 2013  08 20  -21.0270 26043.7 -03421.3 -07.4839 26267.5
 01 03 2013  08 21  -21.0251 26044.2 -03421.6 -07.4844 26268.0
 01 03 2013  08 22  -21.0239 26044.6 -03421.9 -07.4849 26268.4
 01 03 2013  08 23  -21.0227 26044.9 -03422.1 -07.4853 26268.7
 01 03 2013  08 24  -21.0220 26044.9 -03422.1 -07.4854 26268.8
 01 03 2013  08 25  -21.0217 26044.9 -03422.2 -07.4856 26268.8
 01 03 2013  08 26  -21.0217 26045.0 -03422.2 -07.4856 26268.8
 01 03 2013  08 27  -21.0220 26045.3 -03422.4 -07.4858 26269.1
 01 03 2013  08 28  -21.0224 26046.0 -03422.7 -07.4862 26269.9
 01 03 2013  08 29  -21.0227 26046.4 -03422.9 -07.4867 26270.4
 01 03 2013  08 30  -21.0237 26046.6 -03423.0 -07.4867 26270.6
 01 03 2013  08 31  -21.0243 26046.4 -03422.9 -07.4865 26270.4
 01 03 2013  08 32  -21.0252 26046.0 -03422.5 -07.4859 26269.9
 01 03 2013  08 33  -21.0257 26046.0 -03422.4 -07.4857 26269.9
 01 03 2013  08 34  -21.0265 26046.0 -03422.3 -07.4855 26269.9
 01 03 2013  08 35  -21.0272 26046.0 -03422.4 -07.4856 26269.9
 01 03 2013  08 36  -21.0287 26045.7 -03422.2 -07.4853 26269.5
 01 03 2013  08 37  -21.0298 26045.9 -03422.2 -07.4853 26269.8
 01 03 2013  08 38  -21.0307 26046.1 -03422.3 -07.4854 26270.0
 01 03 2013  08 39  -21.0313 26046.2 -03422.2 -07.4853 26270.1
 01 03 2013  08 40  -21.0319 26046.2 -03422.2 -07.4851 26270.1
 01 03 2013  08 41  -21.0321 26046.3 -03422.1 -07.4850 26270.1
 01 03 2013  08 42  -21.0321 26046.4 -03422.1 -07.4848 26270.3
 01 03 2013  08 43  -21.0323 26046.4 -03422.0 -07.4846 26270.2
 01 03 2013  08 44  -21.0325 26046.1 -03421.8 -07.4843 26269.9
 01 03 2013  08 45  -21.0339 26045.3 -03421.4 -07.4836 26269.0
 01 03 2013  08 46  -21.0350 26044.1 -03420.8 -07.4828 26267.8
 01 03 2013  08 47  -21.0359 26043.2 -03420.2 -07.4816 26266.8
 01 03 2013  08 48  -21.0337 26044.5 -03420.5 -07.4819 26268.2
 01 03 2013  08 49  -21.0358 26044.4 -03420.7 -07.4825 26268.1
 01 03 2013  08 50  -21.0375 26043.2 -03420.2 -07.4817 26266.8
 01 03 2013  08 51  -21.0379 26042.8 -03419.8 -07.4810 26266.3
 01 03 2013  08 52  -21.0374 26043.1 -03419.8 -07.4808 26266.7
 01 03 2013  08 53  -21.0384 26043.0 -03419.9 -07.4810 26266.6
 01 03 2013  08 54  -21.0391 26042.8 -03419.7 -07.4807 26266.3
 01 03 2013  08 55  -21.0393 26042.1 -03419.3 -07.4801 26265.6
 01 03 2013  08 56  -21.0392 26041.1 -03418.8 -07.4793 26264.5
 01 03 2013  08 57  -21.0392 26040.4 -03418.5 -07.4788 26263.9
 01 03 2013  08 58  -21.0396 26039.2 -03418.1 -07.4782 26262.6
 01 03 2013  08 59  -21.0397 26037.7 -03417.5 -07.4773 26261.1
 01 03 2013  09 00  -21.0387 26037.5 -03417.3 -07.4771 26260.8
 01 03 2013  09 01  -21.0389 26037.4 -03417.6 -07.4777 26260.7
 01 03 2013  09 02  -21.0386 26037.0 -03417.6 -07.4779 26260.3
 01 03 2013  09 03  -21.0395 26036.9 -03417.8 -07.4784 26260.3
 01 03 2013  09 04  -21.0393 26036.5 -03417.9 -07.4786 26259.9
 01 03 2013  09 05  -21.0398 26036.1 -03417.9 -07.4788 26259.5
 01 03 2013  09 06  -21.0399 26036.1 -03418.1 -07.4792 26259.5
 01 03 2013  09 07  -21.0403 26036.4 -03418.5 -07.4799 26259.8
 01 03 2013  09 08  -21.0409 26036.4 -03418.7 -07.4803 26259.9
 01 03 2013  09 09  -21.0429 26036.3 -03418.8 -07.4807 26259.8
 01 03 2013  09 10  -21.0445 26035.5 -03418.5 -07.4803 26259.0
 01 03 2013  09 11  -21.0469 26035.2 -03418.4 -07.4801 26258.7
 01 03 2013  09 12  -21.0497 26035.4 -03418.6 -07.4804 26258.9
 01 03 2013  09 13  -21.0511 26035.5 -03418.5 -07.4803 26259.0
 01 03 2013  09 14  -21.0522 26036.0 -03418.5 -07.4800 26259.4
 01 03 2013  09 15  -21.0528 26036.1 -03418.4 -07.4799 26259.6
 01 03 2013  09 16  -21.0535 26035.9 -03418.3 -07.4796 26259.3
 01 03 2013  09 17  -21.0554 26036.2 -03418.4 -07.4798 26259.6
 01 03 2013  09 18  -21.0567 26036.7 -03418.6 -07.4801 26260.2
 01 03 2013  09 19  -21.0588 26037.0 -03418.8 -07.4804 26260.5
 01 03 2013  09 20  -21.0600 26037.6 -03418.8 -07.4804 26261.1
 01 03 2013  09 21  -21.0612 26038.0 -03418.9 -07.4803 26261.5
 01 03 2013  09 22  -21.0616 26038.4 -03418.8 -07.4800 26261.9
 01 03 2013  09 23  -21.0623 26038.9 -03418.7 -07.4797 26262.3
 01 03 2013  09 24  -21.0621 26039.1 -03418.5 -07.4792 26262.6
 01 03 2013  09 25  -21.0626 26039.7 -03418.4 -07.4789 26263.1
 01 03 2013  09 26  -21.0633 26039.5 -03418.1 -07.4782 26262.8
 01 03 2013  09 27  -21.0627 26039.5 -03417.8 -07.4775 26262.8
 01 03 2013  09 28  -21.0629 26039.9 -03417.8 -07.4775 26263.2
 01 03 2013  09 29  -21.0631 26040.0 -03417.7 -07.4772 26263.3
 01 03 2013  09 30  -21.0619 26040.0 -03417.5 -07.4767 26263.3
 01 03 2013  09 31  -21.0613 26040.3 -03417.4 -07.4765 26263.6
 01 03 2013  09 32  -21.0619 26040.7 -03417.5 -07.4767 26264.0
 01 03 2013  09 33  -21.0638 26041.5 -03417.8 -07.4770 26264.8
 01 03 2013  09 34  -21.0654 26042.1 -03418.1 -07.4774 26265.4
 01 03 2013  09 35  -21.0660 26042.0 -03417.7 -07.4768 26265.3
 01 03 2013  09 36  -21.0667 26041.9 -03417.4 -07.4761 26265.2
 01 03 2013  09 37  -21.0665 26041.2 -03417.0 -07.4752 26264.4
 01 03 2013  09 38  -21.0661 26040.8 -03416.6 -07.4745 26263.9
 01 03 2013  09 39  -21.0648 26040.6 -03416.4 -07.4742 26263.7
 01 03 2013  09 40  -21.0648 26041.2 -03416.7 -07.4748 26264.4
 01 03 2013  09 41  -21.0620 26041.0 -03416.5 -07.4744 26264.1
 01 03 2013  09 42  -21.0603 26041.2 -03416.6 -07.4745 26264.3
 01 03 2013  09 43  -21.0593 26041.7 -03416.9 -07.4749 26264.9
 01 03 2013  09 44  -21.0579 26041.8 -03416.9 -07.4750 26265.0
 01 03 2013  09 45  -21.0567 26042.3 -03417.2 -07.4755 26265.6
 01 03 2013  09 46  -21.0550 26043.0 -03417.5 -07.4760 26266.3
 01 03 2013  09 47  -21.0555 26043.8 -03418.0 -07.4768 26267.1
 01 03 2013  09 48  -21.0563 26044.0 -03418.1 -07.4769 26267.4
 01 03 2013  09 49  -21.0562 26043.5 -03417.8 -07.4763 26266.8
 01 03 2013  09 50  -21.0560 26043.2 -03417.4 -07.4758 26266.4
 01 03 2013  09 51  -21.0572 26043.0 -03417.3 -07.4755 26266.2
 01 03 2013  09 52  -21.0571 26043.1 -03417.2 -07.4753 26266.3
 01 03 2013  09 53  -21.0561 26042.2 -03416.7 -07.4745 26265.4
 01 03 2013  09 54  -21.0547 26042.0 -03416.5 -07.4740 26265.1
 01 03 2013  09 55  -21.0565 26043.3 -03417.4 -07.4755 26266.6
 01 03 2013  09 56  -21.0590 26045.0 -03418.3 -07.4771 26268.4
 01 03 2013  09 57  -21.0622 26046.6 -03418.9 -07.4779 26270.1
 01 03 2013  09 58  -21.0642 26046.6 -03418.6 -07.4773 26270.0
 01 03 2013  09 59  -21.0664 26046.6 -03418.2 -07.4763 26269.9
 01 03 2013  10 00  -21.0671 26046.3 -03417.5 -07.4750 26269.5
 01 03 2013  10 01  -21.0667 26046.2 -03417.0 -07.4740 26269.3
 01 03 2013  10 02  -21.0663 26045.6 -03416.5 -07.4731 26268.8
 01 03 2013  10 03  -21.0669 26045.4 -03416.3 -07.4727 26268.5
 01 03 2013  10 04  -21.0670 26044.8 -03416.0 -07.4721 26267.9
 01 03 2013  10 05  -21.0668 26044.4 -03415.6 -07.4715 26267.4
 01 03 2013  10 06  -21.0655 26043.6 -03415.2 -07.4708 26266.6
 01 03 2013  10 07  -21.0645 26042.5 -03414.7 -07.4701 26265.4
 01 03 2013  10 08  -21.0633 26041.2 -03414.3 -07.4695 26264.1
 01 03 2013  10 09  -21.0624 26040.4 -03414.1 -07.4693 26263.2
 01 03 2013  10 10  -21.0606 26038.9 -03413.6 -07.4687 26261.7
 01 03 2013  10 11  -21.0599 26038.3 -03413.6 -07.4689 26261.1
 01 03 2013  10 12  -21.0622 26038.3 -03414.0 -07.4698 26261.1
 01 03 2013  10 13  -21.0638 26037.3 -03413.9 -07.4698 26260.2
 01 03 2013  10 14  -21.0632 26037.2 -03413.9 -07.4699 26260.0
 01 03 2013  10 15  -21.0637 26038.6 -03414.7 -07.4711 26261.6
 01 03 2013  10 16  -21.0638 26038.9 -03414.9 -07.4715 26261.8
 01 03 2013  10 17  -21.0638 26038.6 -03414.5 -07.4708 26261.6
 01 03 2013  10 18  -21.0656 26040.0 -03415.0 -07.4713 26262.9
 01 03 2013  10 19  -21.0682 26041.9 -03415.7 -07.4723 26264.9
 01 03 2013  10 20  -21.0720 26043.1 -03415.8 -07.4722 26266.1
 01 03 2013  10 21  -21.0747 26043.7 -03415.6 -07.4716 26266.8
 01 03 2013  10 22  -21.0762 26044.4 -03415.2 -07.4706 26267.4
 01 03 2013  10 23  -21.0779 26044.4 -03414.6 -07.4693 26267.3
 01 03 2013  10 24  -21.0779 26044.3 -03414.0 -07.4679 26267.1
 01 03 2013  10 25  -21.0763 26044.7 -03413.7 -07.4673 26267.4
 01 03 2013  10 26  -21.0771 26046.2 -03414.4 -07.4683 26269.1
 01 03 2013  10 27  -21.0797 26047.7 -03415.0 -07.4691 26270.6
 01 03 2013  10 28  -21.0815 26047.8 -03414.5 -07.4681 26270.6
 01 03 2013  10 29  -21.0820 26048.4 -03414.2 -07.4673 26271.2
 01 03 2013  10 30  -21.0854 26049.0 -03414.0 -07.4667 26271.7
 01 03 2013  10 31  -21.0890 26049.3 -03413.6 -07.4658 26272.0
 01 03 2013  10 32  -21.0912 26050.0 -03413.3 -07.4648 26272.6
 01 03 2013  10 33  -21.0929 26051.2 -03413.1 -07.4641 26273.8
 01 03 2013  10 34  -21.0949 26051.7 -03412.8 -07.4632 26274.3
 01 03 2013  10 35  -21.0962 26052.1 -03412.1 -07.4617 26274.6
 01 03 2013  10 36  -21.0960 26050.1 -03410.2 -07.4580 26272.3
 01 03 2013  10 37  -21.0965 26045.8 -03407.7 -07.4539 26267.8
 01 03 2013  10 38  -21.0942 26043.4 -03406.5 -07.4521 26265.2
 01 03 2013  10 39  -21.0924 26043.0 -03406.9 -07.4529 26264.9
 01 03 2013  10 40  -21.0924 26043.2 -03407.6 -07.4545 26265.2
 01 03 2013  10 41  -21.0922 26042.7 -03408.0 -07.4554 26264.8
 01 03 2013  10 42  -21.0931 26042.8 -03408.5 -07.4566 26264.9
 01 03 2013  10 43  -21.0937 26042.6 -03408.9 -07.4573 26264.8
 01 03 2013  10 44  -21.0940 26042.0 -03408.9 -07.4575 26264.1
 01 03 2013  10 45  -21.0948 26041.9 -03409.1 -07.4581 26264.1
 01 03 2013  10 46  -21.0949 26042.3 -03409.5 -07.4589 26264.5
 01 03 2013  10 47  -21.0943 26043.1 -03409.9 -07.4595 26265.4
 01 03 2013  10 48  -21.0946 26043.6 -03410.1 -07.4598 26265.9
 01 03 2013  10 49  -21.0958 26043.9 -03410.1 -07.4597 26266.2
 01 03 2013  10 50  -21.0957 26044.3 -03410.1 -07.4595 26266.6
 01 03 2013  10 51  -21.0936 26045.9 -03410.6 -07.4601 26268.3
 01 03 2013  10 52  -21.0908 26046.9 -03411.0 -07.4608 26269.3
 01 03 2013  10 53  -21.0893 26046.9 -03411.0 -07.4607 26269.3
 01 03 2013  10 54  -21.0892 26046.1 -03410.5 -07.4599 26268.5
 01 03 2013  10 55  -21.0872 26045.1 -03409.9 -07.4590 26267.4
 01 03 2013  10 56  -21.0851 26044.2 -03409.6 -07.4585 26266.5
 01 03 2013  10 57  -21.0840 26043.4 -03409.3 -07.4582 26265.6
 01 03 2013  10 58  -21.0822 26043.3 -03409.2 -07.4578 26265.5
 01 03 2013  10 59  -21.0803 26043.4 -03408.9 -07.4572 26265.5
 01 03 2013  11 00  -21.0803 26044.1 -03409.0 -07.4571 26266.3
 01 03 2013  11 01  -21.0803 26045.3 -03409.1 -07.4572 26267.4
 01 03 2013  11 02  -21.0792 26046.8 -03409.6 -07.4578 26269.0
 01 03 2013  11 03  -21.0792 26049.4 -03410.6 -07.4593 26271.8
 01 03 2013  11 04  -21.0795 26052.2 -03411.7 -07.4607 26274.6
 01 03 2013  11 05  -21.0785 26053.1 -03411.6 -07.4603 26275.5
 01 03 2013  11 06  -21.0775 26053.1 -03410.9 -07.4589 26275.5
 01 03 2013  11 07  -21.0766 26052.5 -03410.1 -07.4573 26274.8
 01 03 2013  11 08  -21.0747 26051.9 -03409.5 -07.4562 26274.0
 01 03 2013  11 09  -21.0713 26050.5 -03408.8 -07.4549 26272.6
 01 03 2013  11 10  -21.0696 26049.1 -03408.2 -07.4541 26271.2
 01 03 2013  11 11  -21.0696 26048.9 -03408.2 -07.4541 26270.9
 01 03 2013  11 12  -21.0697 26048.8 -03408.2 -07.4542 26270.9
 01 03 2013  11 13  -21.0701 26049.7 -03408.8 -07.4551 26271.7
 01 03 2013  11 14  -21.0704 26050.0 -03409.1 -07.4557 26272.1
 01 03 2013  11 15  -21.0695 26050.0 -03409.0 -07.4555 26272.1
 01 03 2013  11 16  -21.0679 26048.9 -03408.4 -07.4545 26270.9
 01 03 2013  11 17  -21.0672 26048.0 -03408.0 -07.4540 26270.0
 01 03 2013  11 18  -21.0669 26047.2 -03407.8 -07.4538 26269.2
 01 03 2013  11 19  -21.0652 26046.3 -03407.5 -07.4534 26268.3
 01 03 2013  11 20  -21.0643 26045.5 -03407.4 -07.4534 26267.5
 01 03 2013  11 21  -21.0632 26044.7 -03407.4 -07.4535 26266.7
 01 03 2013  11 22  -21.0618 26043.8 -03407.3 -07.4537 26265.7
 01 03 2013  11 23  -21.0600 26043.4 -03407.6 -07.4543 26265.4
 01 03 2013  11 24  -21.0594 26043.8 -03408.1 -07.4553 26265.8
 01 03 2013  11 25  -21.0583 26042.9 -03407.9 -07.4551 26264.9
 01 03 2013  11 26  -21.0573 26042.4 -03407.7 -07.4550 26264.4
 01 03 2013  11 27  -21.0551 26041.4 -03407.6 -07.4549 26263.4
 01 03 2013  11 28  -21.0529 26040.9 -03407.7 -07.4552 26262.9
 01 03 2013  11 29  -21.0515 26039.8 -03407.6 -07.4555 26261.8
 01 03 2013  11 30  -21.0503 26039.5 -03408.1 -07.4565 26261.6
 01 03 2013  11 31  -21.0500 26038.6 -03408.3 -07.4574 26260.7
 01 03 2013  11 32  -21.0494 26038.9 -03408.5 -07.4577 26261.0
 01 03 2013  11 33  -21.0497 26037.5 -03407.9 -07.4568 26259.6
 01 03 2013  11 34  -21.0501 26035.3 -03406.9 -07.4552 26257.2
 01 03 2013  11 35  -21.0489 26033.9 -03406.5 -07.4548 26255.9
 01 03 2013  11 36  -21.0473 26033.1 -03406.6 -07.4553 26255.0
 01 03 2013  11 37  -21.0462 26032.8 -03407.1 -07.4563 26254.8
 01 03 2013  11 38  -21.0453 26033.2 -03407.7 -07.4574 26255.3
 01 03 2013  11 39  -21.0451 26033.9 -03408.4 -07.4588 26256.0
 01 03 2013  11 40  -21.0450 26034.3 -03408.9 -07.4597 26256.6
 01 03 2013  11 41  -21.0437 26034.7 -03409.2 -07.4602 26257.0
 01 03 2013  11 42  -21.0419 26034.5 -03409.1 -07.4602 26256.8
 01 03 2013  11 43  -21.0402 26034.0 -03408.9 -07.4599 26256.2
 01 03 2013  11 44  -21.0385 26033.7 -03408.8 -07.4598 26255.9
 01 03 2013  11 45  -21.0377 26033.8 -03408.9 -07.4600 26256.1
 01 03 2013  11 46  -21.0374 26034.1 -03409.1 -07.4603 26256.4
 01 03 2013  11 47  -21.0369 26034.2 -03409.1 -07.4603 26256.4
 01 03 2013  11 48  -21.0360 26034.1 -03409.0 -07.4600 26256.3
 01 03 2013  11 49  -21.0349 26034.1 -03408.9 -07.4598 26256.4
 01 03 2013  11 50  -21.0333 26034.1 -03408.7 -07.4595 26256.3
 01 03 2013  11 51  -21.0319 26034.7 -03408.9 -07.4597 26256.9
 01 03 2013  11 52  -21.0313 26035.6 -03409.3 -07.4603 26257.9
 01 03 2013  11 53  -21.0311 26035.7 -03409.2 -07.4601 26258.0
 01 03 2013  11 54  -21.0322 26035.3 -03408.7 -07.4591 26257.5
 01 03 2013  11 55  -21.0319 26035.6 -03408.3 -07.4581 26257.7
 01 03 2013  11 56  -21.0292 26036.2 -03408.2 -07.4577 26258.3
 01 03 2013  11 57  -21.0275 26034.8 -03407.6 -07.4569 26256.8
 01 03 2013  11 58  -21.0255 26035.3 -03408.0 -07.4576 26257.4
 01 03 2013  11 59  -21.0244 26035.9 -03408.6 -07.4586 26258.1
 01 03 2013  12 00  -21.0271 26035.0 -03408.1 -07.4578 26257.1
 01 03 2013  12 01  -21.0315 26034.8 -03407.0 -07.4555 26256.8
 01 03 2013  12 02  -21.0304 26032.8 -03405.2 -07.4523 26254.6
 01 03 2013  12 03  -21.0267 26029.1 -03403.7 -07.4500 26250.7
 01 03 2013  12 04  -21.0252 26026.1 -03403.3 -07.4500 26247.6
 01 03 2013  12 05  -21.0251 26024.3 -03403.5 -07.4510 26245.9
 01 03 2013  12 06  -21.0260 26023.8 -03404.1 -07.4523 26245.5
 01 03 2013  12 07  -21.0263 26024.8 -03405.0 -07.4541 26246.6
 01 03 2013  12 08  -21.0261 26026.2 -03406.0 -07.4557 26248.1
 01 03 2013  12 09  -21.0247 26027.4 -03406.6 -07.4568 26249.4
 01 03 2013  12 10  -21.0231 26028.1 -03406.9 -07.4571 26250.1
 01 03 2013  12 11  -21.0217 26028.5 -03406.9 -07.4572 26250.5
 01 03 2013  12 12  -21.0211 26029.6 -03407.3 -07.4577 26251.6
 01 03 2013  12 13  -21.0212 26031.9 -03408.2 -07.4589 26254.1
 01 03 2013  12 14  -21.0213 26034.3 -03408.9 -07.4597 26256.5
 01 03 2013  12 15  -21.0205 26035.9 -03409.0 -07.4595 26258.1
 01 03 2013  12 16  -21.0202 26036.7 -03408.6 -07.4585 26258.9
 01 03 2013  12 17  -21.0192 26036.1 -03407.7 -07.4567 26258.2
 01 03 2013  12 18  -21.0179 26034.7 -03406.7 -07.4549 26256.6
 01 03 2013  12 19  -21.0165 26033.4 -03405.9 -07.4536 26255.2
 01 03 2013  12 20  -21.0158 26032.8 -03405.7 -07.4533 26254.6
 01 03 2013  12 21  -21.0153 26032.8 -03405.8 -07.4536 26254.6
 01 03 2013  12 22  -21.0145 26032.6 -03406.0 -07.4539 26254.4
 01 03 2013  12 23  -21.0137 26032.5 -03406.1 -07.4543 26254.4
 01 03 2013  12 24  -21.0127 26033.1 -03406.4 -07.4548 26255.0
 01 03 2013  12 25  -21.0122 26033.5 -03406.7 -07.4552 26255.5
 01 03 2013  12 26  -21.0121 26034.6 -03407.2 -07.4561 26256.6
 01 03 2013  12 27  -21.0118 26036.0 -03407.8 -07.4569 26258.0
 01 03 2013  12 28  -21.0120 26037.1 -03408.2 -07.4574 26259.3
 01 03 2013  12 29  -21.0116 26038.1 -03408.3 -07.4575 26260.2
 01 03 2013  12 30  -21.0109 26038.9 -03408.3 -07.4573 26261.0
 01 03 2013  12 31  -21.0100 26039.6 -03408.5 -07.4573 26261.8
 01 03 2013  12 32  -21.0092 26040.3 -03408.6 -07.4575 26262.5
 01 03 2013  12 33  -21.0093 26041.0 -03408.8 -07.4576 26263.2
 01 03 2013  12 34  -21.0103 26041.8 -03409.0 -07.4578 26264.0
 01 03 2013  12 35  -21.0108 26042.5 -03409.0 -07.4576 26264.7
 01 03 2013  12 36  -21.0107 26042.8 -03408.9 -07.4574 26265.0
 01 03 2013  12 37  -21.0107 26043.4 -03409.0 -07.4573 26265.5
 01 03 2013  12 38  -21.0105 26044.2 -03409.2 -07.4577 26266.4
 01 03 2013  12 39  -21.0095 26045.2 -03409.6 -07.4582 26267.4
 01 03 2013  12 40  -21.0093 26046.1 -03409.7 -07.4582 26268.3
 01 03 2013  12 41  -21.0096 26047.3 -03410.0 -07.4584 26269.6
 01 03 2013  12 42  -21.0097 26048.6 -03410.2 -07.4586 26270.9
 01 03 2013  12 43  -21.0090 26049.0 -03410.1 -07.4582 26271.2
 01 03 2013  12 44  -21.0084 26049.9 -03410.3 -07.4584 26272.2
 01 03 2013  12 45  -21.0092 26051.5 -03410.8 -07.4590 26273.8
 01 03 2013  12 46  -21.0100 26052.3 -03410.6 -07.4583 26274.6
 01 03 2013  12 47  -21.0107 26053.4 -03410.5 -07.4579 26275.7
 01 03 2013  12 48  -21.0111 26053.7 -03410.3 -07.4573 26275.9
 01 03 2013  12 49  -21.0105 26053.6 -03409.9 -07.4565 26275.8
 01 03 2013  12 50  -21.0100 26052.0 -03409.0 -07.4550 26274.1
 01 03 2013  12 51  -21.0092 26050.8 -03408.4 -07.4539 26272.9
 01 03 2013  12 52  -21.0085 26050.0 -03407.9 -07.4533 26272.0
 01 03 2013  12 53  -21.0083 26049.4 -03407.8 -07.4530 26271.4
 01 03 2013  12 54  -21.0088 26049.1 -03407.7 -07.4530 26271.1
 01 03 2013  12 55  -21.0089 26049.5 -03407.9 -07.4534 26271.5
 01 03 2013  12 56  -21.0090 26050.6 -03408.4 -07.4541 26272.6
 01 03 2013  12 57  -21.0097 26051.7 -03408.7 -07.4545 26273.7
 01 03 2013  12 58  -21.0107 26052.5 -03408.9 -07.4546 26274.6
 01 03 2013  12 59  -21.0112 26053.6 -03409.2 -07.4550 26275.7
 01 03 2013  13 00  -21.0111 26054.4 -03409.3 -07.4550 26276.5
 01 03 2013  13 01  -21.0103 26055.3 -03409.3 -07.4548 26277.4
 01 03 2013  13 02  -21.0103 26056.0 -03409.4 -07.4547 26278.1
 01 03 2013  13 03  -21.0114 26057.8 -03409.8 -07.4550 26279.9
 01 03 2013  13 04  -21.0120 26061.4 -03410.6 -07.4559 26283.6
 01 03 2013  13 05  -21.0123 26063.6 -03410.7 -07.4553 26285.8
 01 03 2013  13 06  -21.0133 26065.7 -03410.8 -07.4549 26287.9
 01 03 2013  13 07  -21.0128 26065.5 -03409.9 -07.4531 26287.6
 01 03 2013  13 08  -21.0109 26064.9 -03409.2 -07.4517 26286.9
 01 03 2013  13 09  -21.0099 26066.1 -03409.7 -07.4524 26288.2
 01 03 2013  13 10  -21.0094 26065.3 -03409.3 -07.4519 26287.3
 01 03 2013  13 11  -21.0097 26063.5 -03408.4 -07.4504 26285.4
 01 03 2013  13 12  -21.0105 26063.9 -03408.4 -07.4504 26285.8
 01 03 2013  13 13  -21.0126 26065.4 -03408.8 -07.4508 26287.3
 01 03 2013  13 14  -21.0153 26067.4 -03409.1 -07.4508 26289.4
 01 03 2013  13 15  -21.0152 26069.1 -03408.8 -07.4497 26291.0
 01 03 2013  13 16  -21.0140 26071.9 -03408.9 -07.4492 26293.8
 01 03 2013  13 17  -21.0131 26074.2 -03408.8 -07.4483 26296.1
 01 03 2013  13 18  -21.0116 26075.8 -03408.3 -07.4468 26297.6
 01 03 2013  13 19  -21.0113 26077.9 -03408.2 -07.4460 26299.7
 01 03 2013  13 20  -21.0112 26080.0 -03408.1 -07.4452 26301.7
 01 03 2013  13 21  -21.0115 26080.9 -03407.6 -07.4438 26302.5
 01 03 2013  13 22  -21.0109 26079.8 -03406.5 -07.4418 26301.3
 01 03 2013  13 23  -21.0100 26077.9 -03405.5 -07.4401 26299.3
 01 03 2013  13 24  -21.0100 26077.4 -03405.3 -07.4398 26298.8
 01 03 2013  13 25  -21.0099 26074.3 -03404.2 -07.4382 26295.6
 01 03 2013  13 26  -21.0083 26071.0 -03403.0 -07.4367 26292.2
 01 03 2013  13 27  -21.0084 26071.8 -03403.9 -07.4383 26293.1
 01 03 2013  13 28  -21.0116 26073.4 -03404.8 -07.4399 26294.7
 01 03 2013  13 29  -21.0124 26073.0 -03404.6 -07.4396 26294.4
 01 03 2013  13 30  -21.0113 26073.5 -03404.8 -07.4398 26294.8
 01 03 2013  13 31  -21.0117 26074.8 -03405.6 -07.4412 26296.3
 01 03 2013  13 32  -21.0117 26077.8 -03407.1 -07.4437 26299.4
 01 03 2013  13 33  -21.0142 26077.5 -03406.9 -07.4432 26299.1
 01 03 2013  13 34  -21.0171 26072.7 -03404.8 -07.4400 26294.1
 01 03 2013  13 35  -21.0170 26064.6 -03401.6 -07.4355 26285.6
 01 03 2013  13 36  -21.0151 26058.1 -03400.0 -07.4338 26279.0
 01 03 2013  13 37  -21.0133 26054.2 -03400.2 -07.4354 26275.1
 01 03 2013  13 38  -21.0102 26051.5 -03401.1 -07.4381 26272.5
 01 03 2013  13 39  -21.0080 26051.8 -03403.3 -07.4428 26273.2
 01 03 2013  13 40  -21.0075 26052.9 -03405.4 -07.4469 26274.5
 01 03 2013  13 41  -21.0083 26054.2 -03407.0 -07.4501 26276.0
 01 03 2013  13 42  -21.0089 26054.7 -03407.9 -07.4518 26276.6
 01 03 2013  13 43  -21.0092 26055.1 -03408.6 -07.4533 26277.1
 01 03 2013  13 44  -21.0114 26053.8 -03408.6 -07.4535 26275.9
 01 03 2013  13 45  -21.0093 26051.0 -03408.0 -07.4530 26273.0
 01 03 2013  13 46  -21.0053 26051.5 -03409.2 -07.4556 26273.7
 01 03 2013  13 47  -21.0057 26051.9 -03410.2 -07.4577 26274.2
 01 03 2013  13 48  -21.0073 26051.2 -03410.5 -07.4584 26273.5
 01 03 2013  13 49  -21.0084 26051.4 -03411.0 -07.4594 26273.8
 01 03 2013  13 50  -21.0092 26052.2 -03411.7 -07.4608 26274.7
 01 03 2013  13 51  -21.0068 26054.2 -03412.9 -07.4628 26276.8
 01 03 2013  13 52  -21.0055 26060.7 -03416.1 -07.4679 26283.7
 01 03 2013  13 53  -21.0083 26063.4 -03416.5 -07.4679 26286.3
 01 03 2013  13 54  -21.0113 26065.0 -03416.1 -07.4666 26287.9
 01 03 2013  13 55  -21.0143 26065.5 -03415.3 -07.4647 26288.3
 01 03 2013  13 56  -21.0161 26064.8 -03414.2 -07.4627 26287.5
 01 03 2013  13 57  -21.0157 26063.6 -03413.2 -07.4607 26286.2
 01 03 2013  13 58  -21.0156 26065.8 -03413.5 -07.4609 26288.3
 01 03 2013  13 59  -21.0164 26067.7 -03413.4 -07.4601 26290.2
 01 03 2013  14 00  -21.0172 26070.0 -03413.3 -07.4592 26292.5
 01 03 2013  14 01  -21.0176 26074.3 -03414.1 -07.4598 26296.9
 01 03 2013  14 02  -21.0166 26074.6 -03413.2 -07.4577 26297.0
 01 03 2013  14 03  -21.0151 26072.6 -03411.8 -07.4551 26294.9
 01 03 2013  14 04  -21.0144 26072.2 -03411.5 -07.4547 26294.4
 01 03 2013  14 05  -21.0129 26072.3 -03411.6 -07.4549 26294.6
 01 03 2013  14 06  -21.0114 26071.1 -03411.1 -07.4541 26293.3
 01 03 2013  14 07  -21.0090 26069.3 -03410.5 -07.4533 26291.4
 01 03 2013  14 08  -21.0086 26069.8 -03411.1 -07.4545 26292.0
 01 03 2013  14 09  -21.0093 26068.5 -03410.7 -07.4540 26290.7
 01 03 2013  14 10  -21.0116 26066.8 -03410.2 -07.4534 26288.9
 01 03 2013  14 11  -21.0124 26065.6 -03410.1 -07.4535 26287.7
 01 03 2013  14 12  -21.0129 26066.9 -03411.1 -07.4552 26289.1
 01 03 2013  14 13  -21.0139 26067.4 -03411.4 -07.4557 26289.7
 01 03 2013  14 14  -21.0140 26068.4 -03411.5 -07.4558 26290.7
 01 03 2013  14 15  -21.0146 26071.9 -03412.8 -07.4576 26294.4
 01 03 2013  14 16  -21.0142 26073.2 -03412.7 -07.4569 26295.6
 01 03 2013  14 17  -21.0152 26076.3 -03413.3 -07.4574 26298.7
 01 03 2013  14 18  -21.0168 26079.0 -03413.7 -07.4575 26301.5
 01 03 2013  14 19  -21.0188 26080.7 -03413.5 -07.4566 26303.1
 01 03 2013  14 20  -21.0209 26080.2 -03412.4 -07.4544 26302.5
 01 03 2013  14 21  -21.0231 26081.1 -03412.0 -07.4533 26303.4
 01 03 2013  14 22  -21.0256 26085.0 -03412.7 -07.4537 26307.3
 01 03 2013  14 23  -21.0279 26088.5 -03412.9 -07.4530 26310.8
 01 03 2013  14 24  -21.0275 26091.8 -03412.6 -07.4515 26314.0
 01 03 2013  14 25  -21.0261 26094.4 -03412.0 -07.4494 26316.5
 01 03 2013  14 26  -21.0251 26096.8 -03411.2 -07.4470 26318.8
 01 03 2013  14 27  -21.0251 26099.5 -03410.4 -07.4447 26321.3
 01 03 2013  14 28  -21.0240 26100.0 -03408.8 -07.4410 26321.7
 01 03 2013  14 29  -21.0214 26099.3 -03406.9 -07.4370 26320.7
 01 03 2013  14 30  -21.0191 26096.7 -03404.6 -07.4329 26317.9
 01 03 2013  14 31  -21.0158 26094.0 -03402.8 -07.4298 26314.9
 01 03 2013  14 32  -21.0117 26087.8 -03400.1 -07.4257 26308.4
 01 03 2013  14 33  -21.0096 26084.7 -03399.5 -07.4253 26305.3
 01 03 2013  14 34  -21.0091 26081.4 -03399.0 -07.4250 26302.0
 01 03 2013  14 35  -21.0102 26080.9 -03399.8 -07.4270 26301.6
 01 03 2013  14 36  -21.0117 26081.7 -03400.9 -07.4291 26302.5
 01 03 2013  14 37  -21.0133 26078.8 -03400.1 -07.4282 26299.5
 01 03 2013  14 38  -21.0155 26076.8 -03400.0 -07.4284 26297.6
 01 03 2013  14 39  -21.0191 26077.3 -03400.8 -07.4300 26298.1
 01 03 2013  14 40  -21.0196 26076.4 -03400.3 -07.4294 26297.1
 01 03 2013  14 41  -21.0221 26076.7 -03400.7 -07.4300 26297.5
 01 03 2013  14 42  -21.0235 26076.4 -03400.6 -07.4299 26297.2
 01 03 2013  14 43  -21.0234 26075.9 -03400.3 -07.4294 26296.7
 01 03 2013  14 44  -21.0229 26074.8 -03399.9 -07.4288 26295.5
 01 03 2013  14 45  -21.0219 26073.0 -03399.4 -07.4283 26293.6
 01 03 2013  14 46  -21.0206 26068.8 -03398.5 -07.4275 26289.4
 01 03 2013  14 47  -21.0190 26065.6 -03398.3 -07.4281 26286.2
 01 03 2013  14 48  -21.0195 26064.3 -03399.0 -07.4300 26285.0
 01 03 2013  14 49  -21.0208 26060.9 -03398.9 -07.4306 26281.6
 01 03 2013  14 50  -21.0212 26056.1 -03398.2 -07.4306 26276.8
 01 03 2013  14 51  -21.0203 26052.8 -03398.5 -07.4321 26273.5
 01 03 2013  14 52  -21.0201 26049.4 -03399.0 -07.4340 26270.2
 01 03 2013  14 53  -21.0216 26050.1 -03401.4 -07.4391 26271.3
 01 03 2013  14 54  -21.0237 26051.1 -03403.3 -07.4429 26272.5
 01 03 2013  14 55  -21.0244 26051.8 -03404.3 -07.4448 26273.3
 01 03 2013  14 56  -21.0272 26052.4 -03404.8 -07.4458 26274.0
 01 03 2013  14 57  -21.0289 26049.6 -03403.8 -07.4443 26271.0
 01 03 2013  14 58  -21.0280 26045.5 -03402.5 -07.4429 26266.8
 01 03 2013  14 59  -21.0250 26043.1 -03402.7 -07.4438 26264.4
 01 03 2013  15 00  -21.0227 26043.9 -03404.4 -07.4474 26265.5
 01 03 2013  15 01  -21.0249 26042.7 -03405.1 -07.4492 26264.4
 01 03 2013  15 02  -21.0266 26040.8 -03405.2 -07.4499 26262.4
 01 03 2013  15 03  -21.0277 26040.0 -03405.9 -07.4516 26261.8
 01 03 2013  15 04  -21.0277 26039.5 -03406.8 -07.4537 26261.4
 01 03 2013  15 05  -21.0270 26039.9 -03407.9 -07.4561 26261.9
 01 03 2013  15 06  -21.0274 26040.5 -03409.0 -07.4582 26262.7
 01 03 2013  15 07  -21.0285 26041.0 -03409.7 -07.4595 26263.2
 01 03 2013  15 08  -21.0299 26040.5 -03409.9 -07.4602 26262.8
 01 03 2013  15 09  -21.0301 26039.8 -03410.0 -07.4606 26262.1
 01 03 2013  15 10  -21.0311 26040.2 -03410.7 -07.4619 26262.6
 01 03 2013  15 11  -21.0313 26040.8 -03411.3 -07.4632 26263.3
 01 03 2013  15 12  -21.0318 26041.5 -03412.0 -07.4644 26264.1
 01 03 2013  15 13  -21.0321 26041.1 -03412.1 -07.4649 26263.7
 01 03 2013  15 14  -21.0331 26040.8 -03412.4 -07.4655 26263.5
 01 03 2013  15 15  -21.0347 26040.4 -03412.6 -07.4660 26263.1
 01 03 2013  15 16  -21.0347 26040.2 -03412.8 -07.4665 26262.9
 01 03 2013  15 17  -21.0362 26041.0 -03413.3 -07.4674 26263.8
 01 03 2013  15 18  -21.0376 26041.5 -03413.6 -07.4679 26264.3
 01 03 2013  15 19  -21.0375 26042.5 -03414.0 -07.4685 26265.3
 01 03 2013  15 20  -21.0380 26043.5 -03414.3 -07.4690 26266.4
 01 03 2013  15 21  -21.0390 26043.4 -03414.2 -07.4687 26266.3
 01 03 2013  15 22  -21.0389 26042.8 -03413.9 -07.4683 26265.6
 01 03 2013  15 23  -21.0396 26042.5 -03413.8 -07.4680 26265.3
 01 03 2013  15 24  -21.0409 26042.6 -03414.0 -07.4684 26265.4
 01 03 2013  15 25  -21.0409 26042.3 -03413.9 -07.4683 26265.2
 01 03 2013  15 26  -21.0410 26042.2 -03413.9 -07.4683 26265.0
 01 03 2013  15 27  -21.0405 26042.3 -03414.1 -07.4688 26265.1
 01 03 2013  15 28  -21.0404 26043.2 -03414.6 -07.4696 26266.1
 01 03 2013  15 29  -21.0409 26045.0 -03415.2 -07.4705 26268.0
 01 03 2013  15 30  -21.0423 26047.4 -03416.0 -07.4715 26270.5
 01 03 2013  15 31  -21.0430 26050.8 -03416.9 -07.4724 26273.9
 01 03 2013  15 32  -21.0446 26052.9 -03417.2 -07.4724 26276.0
 01 03 2013  15 33  -21.0458 26053.3 -03416.6 -07.4712 26276.4
 01 03 2013  15 34  -21.0460 26052.7 -03415.7 -07.4693 26275.7
 01 03 2013  15 35  -21.0463 26051.7 -03414.8 -07.4677 26274.6
 01 03 2013  15 36  -21.0452 26050.0 -03413.9 -07.4662 26272.7
 01 03 2013  15 37  -21.0452 26049.6 -03413.9 -07.4662 26272.3
 01 03 2013  15 38  -21.0462 26049.4 -03414.1 -07.4667 26272.1
 01 03 2013  15 39  -21.0473 26049.0 -03414.2 -07.4671 26271.8
 01 03 2013  15 40  -21.0503 26050.6 -03415.1 -07.4685 26273.5
 01 03 2013  15 41  -21.0520 26051.2 -03415.3 -07.4688 26274.2
 01 03 2013  15 42  -21.0522 26050.4 -03414.8 -07.4680 26273.2
 01 03 2013  15 43  -21.0529 26050.2 -03414.7 -07.4679 26273.0
 01 03 2013  15 44  -21.0541 26049.7 -03414.5 -07.4676 26272.5
 01 03 2013  15 45  -21.0549 26049.4 -03414.5 -07.4676 26272.2
 01 03 2013  15 46  -21.0550 26048.6 -03414.1 -07.4670 26271.4
 01 03 2013  15 47  -21.0551 26048.2 -03414.1 -07.4671 26271.0
 01 03 2013  15 48  -21.0559 26048.2 -03414.3 -07.4676 26271.0
 01 03 2013  15 49  -21.0575 26049.4 -03415.0 -07.4688 26272.3
 01 03 2013  15 50  -21.0610 26049.9 -03415.3 -07.4693 26272.8
 01 03 2013  15 51  -21.0627 26052.5 -03416.2 -07.4704 26275.5
 01 03 2013  15 52  -21.0618 26055.9 -03416.8 -07.4707 26278.9
 01 03 2013  15 53  -21.0633 26058.5 -03416.9 -07.4703 26281.6
 01 03 2013  15 54  -21.0644 26060.1 -03416.8 -07.4696 26283.1
 01 03 2013  15 55  -21.0653 26060.1 -03415.9 -07.4676 26283.0
 01 03 2013  15 56  -21.0658 26060.0 -03414.9 -07.4654 26282.8
 01 03 2013  15 57  -21.0644 26060.0 -03413.9 -07.4634 26282.6
 01 03 2013  15 58  -21.0641 26061.6 -03413.8 -07.4626 26284.2
 01 03 2013  15 59  -21.0651 26062.5 -03413.2 -07.4611 26285.0
 01 03 2013  16 00  -21.0632 26061.9 -03412.1 -07.4589 26284.3
 01 03 2013  16 01  -21.0615 26061.0 -03411.4 -07.4575 26283.4
 01 03 2013  16 02  -21.0610 26060.1 -03410.9 -07.4568 26282.4
 01 03 2013  16 03  -21.0600 26058.0 -03410.1 -07.4556 26280.2
 01 03 2013  16 04  -21.0567 26055.0 -03409.1 -07.4545 26277.0
 01 03 2013  16 05  -21.0538 26053.1 -03409.0 -07.4548 26275.2
 01 03 2013  16 06  -21.0549 26052.3 -03409.7 -07.4565 26274.5
 01 03 2013  16 07  -21.0562 26051.4 -03410.2 -07.4577 26273.7
 01 03 2013  16 08  -21.0568 26050.3 -03410.4 -07.4584 26272.6
 01 03 2013  16 09  -21.0566 26050.3 -03410.9 -07.4597 26272.7
 01 03 2013  16 10  -21.0561 26049.5 -03411.1 -07.4601 26271.9
 01 03 2013  16 11  -21.0556 26048.7 -03411.2 -07.4607 26271.1
 01 03 2013  16 12  -21.0555 26048.2 -03411.4 -07.4613 26270.6
 01 03 2013  16 13  -21.0563 26047.3 -03411.6 -07.4620 26269.8
 01 03 2013  16 14  -21.0574 26047.2 -03412.1 -07.4631 26269.8
 01 03 2013  16 15  -21.0585 26048.3 -03412.7 -07.4641 26270.9
 01 03 2013  16 16  -21.0600 26048.5 -03412.9 -07.4644 26271.1
 01 03 2013  16 17  -21.0619 26048.5 -03412.9 -07.4643 26271.2
 01 03 2013  16 18  -21.0635 26050.4 -03413.6 -07.4654 26273.1
 01 03 2013  16 19  -21.0648 26053.2 -03414.4 -07.4663 26275.9
 01 03 2013  16 20  -21.0683 26055.9 -03414.8 -07.4664 26278.7
 01 03 2013  16 21  -21.0701 26056.4 -03413.7 -07.4639 26279.0
 01 03 2013  16 22  -21.0691 26055.5 -03412.1 -07.4607 26277.9
 01 03 2013  16 23  -21.0679 26056.0 -03411.5 -07.4592 26278.4
 01 03 2013  16 24  -21.0679 26058.4 -03411.8 -07.4592 26280.8
 01 03 2013  16 25  -21.0685 26059.4 -03411.4 -07.4581 26281.7
 01 03 2013  16 26  -21.0678 26058.1 -03410.0 -07.4555 26280.3
 01 03 2013  16 27  -21.0663 26056.2 -03408.8 -07.4534 26278.2
 01 03 2013  16 28  -21.0652 26053.4 -03407.8 -07.4521 26275.3
 01 03 2013  16 29  -21.0634 26051.9 -03407.6 -07.4520 26273.8
 01 03 2013  16 30  -21.0630 26051.1 -03407.9 -07.4528 26273.1
 01 03 2013  16 31  -21.0627 26049.0 -03407.5 -07.4526 26270.9
 01 03 2013  16 32  -21.0618 26046.7 -03407.2 -07.4526 26268.6
 01 03 2013  16 33  -21.0612 26044.8 -03407.3 -07.4533 26266.7
 01 03 2013  16 34  -21.0605 26043.6 -03407.7 -07.4546 26265.6
 01 03 2013  16 35  -21.0639 26045.0 -03409.0 -07.4571 26267.1
 01 03 2013  16 36  -21.0665 26045.4 -03409.4 -07.4578 26267.6
 01 03 2013  16 37  -21.0666 26045.6 -03409.3 -07.4574 26267.8
 01 03 2013  16 38  -21.0667 26045.4 -03409.0 -07.4568 26267.6
 01 03 2013  16 39  -21.0667 26045.4 -03408.8 -07.4563 26267.6
 01 03 2013  16 40  -21.0669 26045.9 -03408.8 -07.4563 26268.0
 01 03 2013  16 41  -21.0677 26046.0 -03408.9 -07.4564 26268.1
 01 03 2013  16 42  -21.0668 26044.8 -03408.5 -07.4560 26266.8
 01 03 2013  16 43  -21.0653 26042.6 -03407.9 -07.4552 26264.6
 01 03 2013  16 44  -21.0648 26040.0 -03407.4 -07.4550 26262.0
 01 03 2013  16 45  -21.0643 26038.5 -03407.5 -07.4557 26260.5
 01 03 2013  16 46  -21.0643 26038.3 -03407.9 -07.4565 26260.4
 01 03 2013  16 47  -21.0649 26039.0 -03408.3 -07.4571 26261.1
 01 03 2013  16 48  -21.0669 26040.6 -03408.9 -07.4579 26262.8
 01 03 2013  16 49  -21.0673 26041.3 -03409.0 -07.4579 26263.5
 01 03 2013  16 50  -21.0672 26041.7 -03408.9 -07.4577 26263.9
 01 03 2013  16 51  -21.0662 26041.3 -03408.5 -07.4569 26263.4
 01 03 2013  16 52  -21.0645 26041.1 -03408.5 -07.4570 26263.2
 01 03 2013  16 53  -21.0636 26040.9 -03408.6 -07.4572 26263.0
 01 03 2013  16 54  -21.0621 26040.0 -03408.3 -07.4568 26262.1
 01 03 2013  16 55  -21.0597 26038.7 -03407.9 -07.4564 26260.8
 01 03 2013  16 56  -21.0573 26037.1 -03407.6 -07.4563 26259.1
 01 03 2013  16 57  -21.0563 26035.2 -03407.5 -07.4565 26257.3
 01 03 2013  16 58  -21.0548 26031.8 -03406.9 -07.4561 26253.8
 01 03 2013  16 59  -21.0544 26029.4 -03407.1 -07.4573 26251.5
 01 03 2013  17 00  -21.0543 26029.3 -03408.4 -07.4600 26251.5
 01 03 2013  17 01  -21.0539 26028.3 -03408.8 -07.4612 26250.5
 01 03 2013  17 02  -21.0551 26029.1 -03410.0 -07.4637 26251.5
 01 03 2013  17 03  -21.0559 26030.5 -03411.0 -07.4655 26253.1
 01 03 2013  17 04  -21.0559 26031.6 -03411.5 -07.4662 26254.2
 01 03 2013  17 05  -21.0557 26031.5 -03411.5 -07.4663 26254.1
 01 03 2013  17 06  -21.0541 26030.4 -03411.1 -07.4656 26253.0
 01 03 2013  17 07  -21.0529 26029.7 -03411.1 -07.4658 26252.3
 01 03 2013  17 08  -21.0521 26028.3 -03410.8 -07.4655 26250.9
 01 03 2013  17 09  -21.0517 26027.3 -03410.8 -07.4659 26249.9
 01 03 2013  17 10  -21.0522 26027.8 -03411.7 -07.4676 26250.5
 01 03 2013  17 11  -21.0512 26029.4 -03412.7 -07.4695 26252.1
 01 03 2013  17 12  -21.0507 26030.6 -03413.4 -07.4706 26253.4
 01 03 2013  17 13  -21.0493 26030.6 -03413.5 -07.4707 26253.5
 01 03 2013  17 14  -21.0481 26030.5 -03413.5 -07.4709 26253.4
 01 03 2013  17 15  -21.0481 26029.2 -03413.1 -07.4703 26252.0
 01 03 2013  17 16  -21.0482 26026.4 -03412.0 -07.4688 26249.1
 01 03 2013  17 17  -21.0491 26024.3 -03411.6 -07.4684 26246.9
 01 03 2013  17 18  -21.0481 26022.9 -03411.6 -07.4689 26245.6
 01 03 2013  17 19  -21.0488 26021.6 -03412.0 -07.4701 26244.3
 01 03 2013  17 20  -21.0493 26021.8 -03412.9 -07.4721 26244.7
 01 03 2013  17 21  -21.0513 26022.3 -03413.6 -07.4734 26245.2
 01 03 2013  17 22  -21.0539 26023.5 -03414.2 -07.4744 26246.5
 01 03 2013  17 23  -21.0555 26024.3 -03414.3 -07.4744 26247.3
 01 03 2013  17 24  -21.0567 26025.6 -03414.5 -07.4744 26248.7
 01 03 2013  17 25  -21.0585 26027.6 -03415.1 -07.4750 26250.7
 01 03 2013  17 26  -21.0606 26030.7 -03415.8 -07.4758 26253.9
 01 03 2013  17 27  -21.0583 26032.1 -03414.9 -07.4735 26255.1
 01 03 2013  17 28  -21.0574 26030.5 -03413.0 -07.4696 26253.3
 01 03 2013  17 29  -21.0564 26030.0 -03412.2 -07.4681 26252.7
 01 03 2013  17 30  -21.0564 26030.2 -03412.1 -07.4679 26252.9
 01 03 2013  17 31  -21.0562 26029.2 -03411.6 -07.4671 26251.9
 01 03 2013  17 32  -21.0562 26028.3 -03411.2 -07.4666 26250.9
 01 03 2013  17 33  -21.0557 26027.4 -03411.1 -07.4665 26250.0
 01 03 2013  17 34  -21.0548 26026.8 -03411.1 -07.4667 26249.4
 01 03 2013  17 35  -21.0558 26027.1 -03411.6 -07.4678 26249.7
 01 03 2013  17 36  -21.0576 26027.5 -03412.0 -07.4684 26250.1
 01 03 2013  17 37  -21.0598 26027.5 -03412.1 -07.4685 26250.2
 01 03 2013  17 38  -21.0614 26027.2 -03411.8 -07.4681 26249.9
 01 03 2013  17 39  -21.0600 26026.0 -03411.0 -07.4667 26248.6
 01 03 2013  17 40  -21.0602 26024.2 -03410.3 -07.4657 26246.7
 01 03 2013  17 41  -21.0572 26021.9 -03409.6 -07.4648 26244.4
 01 03 2013  17 42  -21.0533 26019.7 -03409.1 -07.4644 26242.1
 01 03 2013  17 43  -21.0495 26018.2 -03409.3 -07.4652 26240.6
 01 03 2013  17 44  -21.0497 26018.3 -03410.3 -07.4675 26240.8
 01 03 2013  17 45  -21.0522 26020.2 -03412.1 -07.4707 26242.9
 01 03 2013  17 46  -21.0524 26020.9 -03412.7 -07.4718 26243.7
 01 03 2013  17 47  -21.0506 26020.7 -03412.8 -07.4721 26243.6
 01 03 2013  17 48  -21.0510 26020.7 -03413.1 -07.4726 26243.6
 01 03 2013  17 49  -21.0525 26020.1 -03413.1 -07.4729 26243.0
 01 03 2013  17 50  -21.0530 26019.2 -03413.1 -07.4731 26242.1
 01 03 2013  17 51  -21.0528 26019.8 -03413.7 -07.4744 26242.8
 01 03 2013  17 52  -21.0522 26022.3 -03415.3 -07.4771 26245.5
 01 03 2013  17 53  -21.0524 26022.9 -03415.7 -07.4777 26246.1
 01 03 2013  17 54  -21.0530 26024.2 -03416.1 -07.4782 26247.5
 01 03 2013  17 55  -21.0549 26025.9 -03416.5 -07.4787 26249.2
 01 03 2013  17 56  -21.0547 26025.7 -03416.2 -07.4779 26249.0
 01 03 2013  17 57  -21.0537 26024.7 -03415.7 -07.4771 26247.9
 01 03 2013  17 58  -21.0552 26023.3 -03415.1 -07.4764 26246.4
 01 03 2013  17 59  -21.0550 26021.6 -03414.5 -07.4754 26244.7
 01 03 2013  18 00  -21.0551 26019.4 -03413.7 -07.4745 26242.4
 01 03 2013  18 01  -21.0557 26017.5 -03413.3 -07.4740 26240.5
 01 03 2013  18 02  -21.0561 26015.5 -03412.7 -07.4734 26238.4
 01 03 2013  18 03  -21.0556 26013.6 -03412.3 -07.4730 26236.5
 01 03 2013  18 04  -21.0539 26012.1 -03412.0 -07.4728 26234.9
 01 03 2013  18 05  -21.0530 26011.0 -03412.1 -07.4733 26233.8
 01 03 2013  18 06  -21.0526 26010.0 -03412.3 -07.4741 26232.9
 01 03 2013  18 07  -21.0536 26010.4 -03413.2 -07.4758 26233.4
 01 03 2013  18 08  -21.0540 26011.7 -03414.1 -07.4774 26234.8
 01 03 2013  18 09  -21.0532 26012.3 -03414.2 -07.4775 26235.4
 01 03 2013  18 10  -21.0551 26014.2 -03415.0 -07.4788 26237.4
 01 03 2013  18 11  -21.0587 26016.2 -03415.7 -07.4797 26239.5
 01 03 2013  18 12  -21.0599 26017.9 -03415.6 -07.4789 26241.1
 01 03 2013  18 13  -21.0611 26018.9 -03415.0 -07.4773 26242.1
 01 03 2013  18 14  -21.0608 26018.3 -03413.5 -07.4742 26241.3
 01 03 2013  18 15  -21.0602 26017.3 -03412.2 -07.4717 26240.1
 01 03 2013  18 16  -21.0605 26017.5 -03411.8 -07.4709 26240.3
 01 03 2013  18 17  -21.0625 26019.1 -03412.1 -07.4710 26241.8
 01 03 2013  18 18  -21.0644 26021.1 -03412.4 -07.4711 26243.9
 01 03 2013  18 19  -21.0653 26022.0 -03412.0 -07.4700 26244.7
 01 03 2013  18 20  -21.0650 26021.5 -03411.1 -07.4681 26244.1
 01 03 2013  18 21  -21.0647 26021.1 -03410.4 -07.4667 26243.7
 01 03 2013  18 22  -21.0654 26021.3 -03410.2 -07.4662 26243.8
 01 03 2013  18 23  -21.0653 26021.2 -03409.9 -07.4657 26243.7
 01 03 2013  18 24  -21.0642 26020.9 -03409.6 -07.4652 26243.3
 01 03 2013  18 25  -21.0635 26020.6 -03409.5 -07.4651 26243.0
 01 03 2013  18 26  -21.0626 26020.0 -03409.5 -07.4651 26242.5
 01 03 2013  18 27  -21.0627 26020.1 -03409.8 -07.4658 26242.6
 01 03 2013  18 28  -21.0623 26019.1 -03409.6 -07.4655 26241.6
 01 03 2013  18 29  -21.0614 26018.6 -03409.6 -07.4656 26241.1
 01 03 2013  18 30  -21.0613 26018.7 -03409.8 -07.4663 26241.2
 01 03 2013  18 31  -21.0604 26018.0 -03409.8 -07.4663 26240.5
 01 03 2013  18 32  -21.0595 26017.1 -03409.7 -07.4664 26239.6
 01 03 2013  18 33  -21.0594 26017.1 -03410.1 -07.4672 26239.6
 01 03 2013  18 34  -21.0603 26017.2 -03410.6 -07.4682 26239.8
 01 03 2013  18 35  -21.0607 26017.2 -03410.8 -07.4688 26239.8
 01 03 2013  18 36  -21.0615 26017.5 -03411.1 -07.4693 26240.1
 01 03 2013  18 37  -21.0628 26017.3 -03411.1 -07.4695 26239.9
 01 03 2013  18 38  -21.0639 26017.0 -03411.0 -07.4692 26239.6
 01 03 2013  18 39  -21.0643 26016.4 -03410.6 -07.4685 26239.0
 01 03 2013  18 40  -21.0651 26016.1 -03410.3 -07.4680 26238.7
 01 03 2013  18 41  -21.0646 26015.8 -03410.0 -07.4674 26238.3
 01 03 2013  18 42  -21.0635 26015.1 -03409.7 -07.4669 26237.6
 01 03 2013  18 43  -21.0631 26015.3 -03409.9 -07.4674 26237.8
 01 03 2013  18 44  -21.0630 26015.1 -03410.0 -07.4676 26237.6
 01 03 2013  18 45  -21.0625 26014.9 -03410.0 -07.4676 26237.4
 01 03 2013  18 46  -21.0625 26015.6 -03410.3 -07.4681 26238.2
 01 03 2013  18 47  -21.0624 26015.8 -03410.4 -07.4683 26238.3
 01 03 2013  18 48  -21.0602 26015.6 -03410.5 -07.4685 26238.2
 01 03 2013  18 49  -21.0592 26015.1 -03410.6 -07.4689 26237.8
 01 03 2013  18 50  -21.0583 26013.6 -03410.4 -07.4689 26236.2
 01 03 2013  18 51  -21.0573 26012.6 -03410.3 -07.4690 26235.2
 01 03 2013  18 52  -21.0573 26012.2 -03410.7 -07.4700 26234.8
 01 03 2013  18 53  -21.0579 26012.3 -03411.2 -07.4711 26235.0
 01 03 2013  18 54  -21.0585 26011.3 -03411.1 -07.4711 26234.0
 01 03 2013  18 55  -21.0577 26010.1 -03410.8 -07.4707 26232.8
 01 03 2013  18 56  -21.0568 26009.2 -03410.6 -07.4705 26231.9
 01 03 2013  18 57  -21.0567 26009.1 -03410.9 -07.4712 26231.8
 01 03 2013  18 58  -21.0547 26008.4 -03410.8 -07.4712 26231.1
 01 03 2013  18 59  -21.0540 26008.5 -03411.1 -07.4718 26231.2
 01 03 2013  19 00  -21.0541 26008.5 -03411.3 -07.4724 26231.2
 01 03 2013  19 01  -21.0543 26007.8 -03411.2 -07.4722 26230.5
 01 03 2013  19 02  -21.0534 26007.4 -03411.1 -07.4721 26230.1
 01 03 2013  19 03  -21.0525 26007.4 -03411.2 -07.4724 26230.2
 01 03 2013  19 04  -21.0527 26007.3 -03411.2 -07.4724 26230.0
 01 03 2013  19 05  -21.0528 26007.6 -03411.4 -07.4728 26230.4
 01 03 2013  19 06  -21.0522 26007.3 -03411.3 -07.4725 26230.1
 01 03 2013  19 07  -21.0510 26007.4 -03411.3 -07.4726 26230.1
 01 03 2013  19 08  -21.0514 26007.9 -03411.6 -07.4732 26230.7
 01 03 2013  19 09  -21.0522 26008.3 -03411.8 -07.4734 26231.2
 01 03 2013  19 10  -21.0531 26009.0 -03412.0 -07.4737 26231.8
 01 03 2013  19 11  -21.0537 26009.9 -03412.2 -07.4739 26232.8
 01 03 2013  19 12  -21.0547 26011.0 -03412.6 -07.4743 26233.9
 01 03 2013  19 13  -21.0555 26012.2 -03412.9 -07.4747 26235.1
 01 03 2013  19 14  -21.0559 26013.3 -03413.1 -07.4749 26236.3
 01 03 2013  19 15  -21.0548 26013.7 -03413.0 -07.4745 26236.6
 01 03 2013  19 16  -21.0547 26014.2 -03413.1 -07.4746 26237.1
 01 03 2013  19 17  -21.0550 26014.8 -03413.2 -07.4746 26237.8
 01 03 2013  19 18  -21.0553 26015.9 -03413.4 -07.4748 26238.8
 01 03 2013  19 19  -21.0554 26016.3 -03413.4 -07.4747 26239.3
 01 03 2013  19 20  -21.0551 26017.2 -03413.6 -07.4747 26240.2
 01 03 2013  19 21  -21.0555 26017.4 -03413.5 -07.4746 26240.4
 01 03 2013  19 22  -21.0554 26017.3 -03413.1 -07.4738 26240.2
 01 03 2013  19 23  -21.0551 26017.2 -03412.9 -07.4733 26240.1
 01 03 2013  19 24  -21.0545 26016.9 -03412.6 -07.4727 26239.7
 01 03 2013  19 25  -21.0547 26017.2 -03412.7 -07.4728 26240.1
 01 03 2013  19 26  -21.0543 26017.8 -03412.9 -07.4731 26240.7
 01 03 2013  19 27  -21.0528 26018.6 -03413.2 -07.4736 26241.5
 01 03 2013  19 28  -21.0520 26020.0 -03413.8 -07.4745 26243.0
 01 03 2013  19 29  -21.0517 26022.1 -03414.8 -07.4760 26245.2
 01 03 2013  19 30  -21.0506 26021.9 -03414.6 -07.4757 26245.0
 01 03 2013  19 31  -21.0503 26019.9 -03413.4 -07.4736 26242.8
 01 03 2013  19 32  -21.0509 26019.9 -03413.1 -07.4730 26242.8
 01 03 2013  19 33  -21.0514 26020.5 -03413.2 -07.4730 26243.4
 01 03 2013  19 34  -21.0511 26020.0 -03412.8 -07.4722 26242.9
 01 03 2013  19 35  -21.0506 26020.2 -03412.7 -07.4719 26243.0
 01 03 2013  19 36  -21.0507 26020.9 -03413.0 -07.4725 26243.8
 01 03 2013  19 37  -21.0510 26021.1 -03413.1 -07.4726 26244.0
 01 03 2013  19 38  -21.0511 26021.6 -03413.3 -07.4728 26244.5
 01 03 2013  19 39  -21.0513 26022.1 -03413.5 -07.4732 26245.1
 01 03 2013  19 40  -21.0510 26022.0 -03413.4 -07.4729 26244.9
 01 03 2013  19 41  -21.0505 26021.3 -03412.9 -07.4722 26244.2
 01 03 2013  19 42  -21.0503 26020.4 -03412.4 -07.4713 26243.2
 01 03 2013  19 43  -21.0504 26019.6 -03411.9 -07.4704 26242.4
 01 03 2013  19 44  -21.0501 26019.0 -03411.5 -07.4697 26241.7
 01 03 2013  19 45  -21.0505 26018.4 -03411.2 -07.4692 26241.0
 01 03 2013  19 46  -21.0508 26017.8 -03410.9 -07.4687 26240.4
 01 03 2013  19 47  -21.0512 26017.0 -03410.5 -07.4682 26239.6
 01 03 2013  19 48  -21.0515 26016.8 -03410.4 -07.4680 26239.4
 01 03 2013  19 49  -21.0520 26017.2 -03410.6 -07.4683 26239.8
 01 03 2013  19 50  -21.0524 26017.4 -03410.7 -07.4684 26240.0
 01 03 2013  19 51  -21.0523 26017.6 -03410.7 -07.4684 26240.2
 01 03 2013  19 52  -21.0527 26017.6 -03410.7 -07.4684 26240.2
 01 03 2013  19 53  -21.0525 26017.6 -03410.6 -07.4683 26240.2
 01 03 2013  19 54  -21.0523 26017.0 -03410.3 -07.4677 26239.6
 01 03 2013  19 55  -21.0529 26017.4 -03410.4 -07.4678 26240.0
 01 03 2013  19 56  -21.0546 26017.8 -03410.6 -07.4681 26240.4
 01 03 2013  19 57  -21.0561 26017.7 -03410.5 -07.4679 26240.2
 01 03 2013  19 58  -21.0574 26017.5 -03410.3 -07.4675 26240.0
 01 03 2013  19 59  -21.0590 26016.2 -03409.6 -07.4663 26238.7
 01 03 2013  20 00  -21.0607 26015.1 -03408.9 -07.4652 26237.5
 01 03 2013  20 01  -21.0633 26014.0 -03408.3 -07.4643 26236.3
 01 03 2013  20 02  -21.0632 26013.8 -03408.1 -07.4638 26236.1
 01 03 2013  20 03  -21.0611 26013.9 -03408.0 -07.4637 26236.2
 01 03 2013  20 04  -21.0594 26014.2 -03408.3 -07.4642 26236.6
 01 03 2013  20 05  -21.0586 26014.7 -03408.6 -07.4647 26237.1
 01 03 2013  20 06  -21.0571 26014.8 -03408.8 -07.4651 26237.2
 01 03 2013  20 07  -21.0559 26014.8 -03408.9 -07.4654 26237.2
 01 03 2013  20 08  -21.0548 26014.5 -03409.0 -07.4656 26236.9
 01 03 2013  20 09  -21.0536 26014.6 -03409.2 -07.4661 26237.1
 01 03 2013  20 10  -21.0524 26015.1 -03409.7 -07.4669 26237.6
 01 03 2013  20 11  -21.0516 26015.6 -03410.1 -07.4678 26238.1
 01 03 2013  20 12  -21.0514 26016.0 -03410.5 -07.4684 26238.6
 01 03 2013  20 13  -21.0514 26016.4 -03410.8 -07.4689 26239.0
 01 03 2013  20 14  -21.0509 26016.5 -03410.8 -07.4690 26239.1
 01 03 2013  20 15  -21.0501 26016.5 -03410.9 -07.4692 26239.2
 01 03 2013  20 16  -21.0494 26016.8 -03411.2 -07.4696 26239.5
 01 03 2013  20 17  -21.0492 26017.1 -03411.4 -07.4701 26239.8
 01 03 2013  20 18  -21.0490 26017.5 -03411.6 -07.4705 26240.2
 01 03 2013  20 19  -21.0491 26017.7 -03411.8 -07.4707 26240.5
 01 03 2013  20 20  -21.0494 26017.7 -03411.8 -07.4708 26240.4
 01 03 2013  20 21  -21.0496 26017.5 -03411.8 -07.4708 26240.3
 01 03 2013  20 22  -21.0495 26017.7 -03411.9 -07.4709 26240.4
 01 03 2013  20 23  -21.0493 26018.2 -03412.2 -07.4714 26241.0
 01 03 2013  20 24  -21.0490 26018.5 -03412.4 -07.4719 26241.3
 01 03 2013  20 25  -21.0484 26019.1 -03412.8 -07.4725 26242.0
 01 03 2013  20 26  -21.0483 26019.8 -03413.2 -07.4732 26242.7
 01 03 2013  20 27  -21.0481 26020.5 -03413.6 -07.4738 26243.5
 01 03 2013  20 28  -21.0478 26020.5 -03413.6 -07.4739 26243.5
 01 03 2013  20 29  -21.0478 26020.8 -03413.7 -07.4741 26243.8
 01 03 2013  20 30  -21.0479 26020.0 -03413.4 -07.4737 26243.0
 01 03 2013  20 31  -21.0474 26020.4 -03413.5 -07.4737 26243.4
 01 03 2013  20 32  -21.0469 26021.5 -03414.0 -07.4745 26244.5
 01 03 2013  20 33  -21.0468 26022.1 -03414.4 -07.4751 26245.1
 01 03 2013  20 34  -21.0470 26021.7 -03414.2 -07.4748 26244.8
 01 03 2013  20 35  -21.0467 26021.3 -03413.9 -07.4744 26244.3
 01 03 2013  20 36  -21.0469 26021.0 -03413.8 -07.4742 26244.0
 01 03 2013  20 37  -21.0467 26021.1 -03413.9 -07.4743 26244.1
 01 03 2013  20 38  -21.0468 26021.4 -03414.1 -07.4746 26244.4
 01 03 2013  20 39  -21.0466 26021.5 -03414.1 -07.4746 26244.5
 01 03 2013  20 40  -21.0466 26022.7 -03414.6 -07.4753 26245.7
 01 03 2013  20 41  -21.0468 26022.9 -03414.6 -07.4754 26245.9
 01 03 2013  20 42  -21.0471 26022.8 -03414.4 -07.4751 26245.8
 01 03 2013  20 43  -21.0480 26022.8 -03414.3 -07.4748 26245.8
 01 03 2013  20 44  -21.0487 26023.2 -03414.5 -07.4750 26246.3
 01 03 2013  20 45  -21.0495 26024.3 -03414.9 -07.4756 26247.4
 01 03 2013  20 46  -21.0505 26024.9 -03415.1 -07.4759 26248.0
 01 03 2013  20 47  -21.0516 26025.0 -03415.0 -07.4757 26248.1
 01 03 2013  20 48  -21.0528 26024.8 -03414.8 -07.4753 26247.9
 01 03 2013  20 49  -21.0540 26024.5 -03414.5 -07.4748 26247.5
 01 03 2013  20 50  -21.0553 26024.2 -03414.2 -07.4742 26247.2
 01 03 2013  20 51  -21.0565 26024.0 -03414.0 -07.4737 26247.0
 01 03 2013  20 52  -21.0574 26023.5 -03413.6 -07.4730 26246.4
 01 03 2013  20 53  -21.0582 26023.2 -03413.2 -07.4723 26246.1
 01 03 2013  20 54  -21.0592 26023.0 -03413.0 -07.4718 26245.8
 01 03 2013  20 55  -21.0602 26022.6 -03412.7 -07.4712 26245.5
 01 03 2013  20 56  -21.0609 26022.0 -03412.2 -07.4705 26244.7
 01 03 2013  20 57  -21.0613 26021.6 -03412.0 -07.4700 26244.4
 01 03 2013  20 58  -21.0619 26021.8 -03411.9 -07.4698 26244.5
 01 03 2013  20 59  -21.0626 26022.1 -03411.9 -07.4698 26244.8
 01 03 2013  21 00  -21.0630 26022.0 -03411.8 -07.4696 26244.7
 01 03 2013  21 01  -21.0635 26021.8 -03411.7 -07.4694 26244.5
 01 03 2013  21 02  -21.0638 26021.6 -03411.6 -07.4692 26244.3
 01 03 2013  21 03  -21.0638 26021.6 -03411.5 -07.4691 26244.3
 01 03 2013  21 04  -21.0638 26020.7 -03411.1 -07.4684 26243.4
 01 03 2013  21 05  -21.0639 26020.3 -03410.9 -07.4680 26242.9
 01 03 2013  21 06  -21.0638 26020.0 -03410.8 -07.4679 26242.6
 01 03 2013  21 07  -21.0639 26019.5 -03410.6 -07.4676 26242.1
 01 03 2013  21 08  -21.0643 26019.4 -03410.5 -07.4675 26242.0
 01 03 2013  21 09  -21.0644 26018.6 -03410.2 -07.4670 26241.1
 01 03 2013  21 10  -21.0646 26018.1 -03410.0 -07.4668 26240.6
 01 03 2013  21 11  -21.0646 26018.0 -03410.0 -07.4668 26240.5
 01 03 2013  21 12  -21.0645 26017.8 -03410.0 -07.4669 26240.3
 01 03 2013  21 13  -21.0645 26017.6 -03410.0 -07.4668 26240.1
 01 03 2013  21 14  -21.0645 26017.6 -03410.0 -07.4669 26240.1
 01 03 2013  21 15  -21.0645 26017.1 -03409.9 -07.4668 26239.6
 01 03 2013  21 16  -21.0643 26016.7 -03409.7 -07.4665 26239.2
 01 03 2013  21 17  -21.0641 26016.4 -03409.6 -07.4665 26238.9
 01 03 2013  21 18  -21.0641 26016.3 -03409.7 -07.4666 26238.8
 01 03 2013  21 19  -21.0639 26016.2 -03409.8 -07.4668 26238.7
 01 03 2013  21 20  -21.0638 26016.1 -03409.9 -07.4672 26238.7
 01 03 2013  21 21  -21.0636 26016.5 -03410.2 -07.4677 26239.1
 01 03 2013  21 22  -21.0638 26016.7 -03410.5 -07.4683 26239.3
 01 03 2013  21 23  -21.0639 26016.7 -03410.7 -07.4686 26239.3
 01 03 2013  21 24  -21.0642 26016.9 -03410.9 -07.4690 26239.5
 01 03 2013  21 25  -21.0648 26016.1 -03410.7 -07.4687 26238.8
 01 03 2013  21 26  -21.0655 26016.5 -03410.8 -07.4690 26239.1
 01 03 2013  21 27  -21.0663 26016.6 -03411.0 -07.4694 26239.3
 01 03 2013  21 28  -21.0672 26016.7 -03411.1 -07.4695 26239.4
 01 03 2013  21 29  -21.0683 26016.8 -03411.1 -07.4696 26239.5
 01 03 2013  21 30  -21.0693 26016.6 -03411.0 -07.4693 26239.2
 01 03 2013  21 31  -21.0700 26016.8 -03410.9 -07.4691 26239.4
 01 03 2013  21 32  -21.0705 26016.9 -03411.0 -07.4692 26239.5
 01 03 2013  21 33  -21.0714 26016.8 -03410.9 -07.4691 26239.5
 01 03 2013  21 34  -21.0719 26016.6 -03410.7 -07.4687 26239.2
 01 03 2013  21 35  -21.0724 26016.5 -03410.6 -07.4685 26239.1
 01 03 2013  21 36  -21.0731 26016.4 -03410.5 -07.4684 26239.0
 01 03 2013  21 37  -21.0738 26016.3 -03410.4 -07.4682 26238.8
 01 03 2013  21 38  -21.0744 26016.4 -03410.5 -07.4682 26239.0
 01 03 2013  21 39  -21.0750 26016.5 -03410.5 -07.4682 26239.1
 01 03 2013  21 40  -21.0757 26016.7 -03410.5 -07.4683 26239.3
 01 03 2013  21 41  -21.0761 26016.7 -03410.5 -07.4681 26239.2
 01 03 2013  21 42  -21.0765 26016.4 -03410.4 -07.4681 26239.0
 01 03 2013  21 43  -21.0770 26016.3 -03410.3 -07.4680 26238.9
 01 03 2013  21 44  -21.0772 26016.0 -03410.2 -07.4677 26238.6
 01 03 2013  21 45  -21.0772 26016.2 -03410.2 -07.4678 26238.8
 01 03 2013  21 46  -21.0768 26016.3 -03410.2 -07.4678 26238.8
 01 03 2013  21 47  -21.0765 26016.0 -03410.2 -07.4677 26238.5
 01 03 2013  21 48  -21.0759 26015.6 -03410.0 -07.4674 26238.1
 01 03 2013  21 49  -21.0754 26016.0 -03410.2 -07.4677 26238.6
 01 03 2013  21 50  -21.0751 26016.5 -03410.5 -07.4684 26239.1
 01 03 2013  21 51  -21.0752 26016.2 -03410.5 -07.4685 26238.8
 01 03 2013  21 52  -21.0754 26015.7 -03410.3 -07.4682 26238.3
 01 03 2013  21 53  -21.0757 26015.3 -03410.2 -07.4681 26237.8
 01 03 2013  21 54  -21.0758 26014.6 -03410.1 -07.4679 26237.2
 01 03 2013  21 55  -21.0754 26014.5 -03410.0 -07.4678 26237.1
 01 03 2013  21 56  -21.0744 26014.9 -03410.2 -07.4681 26237.5
 01 03 2013  21 57  -21.0734 26015.0 -03410.3 -07.4684 26237.6
 01 03 2013  21 58  -21.0724 26014.8 -03410.4 -07.4685 26237.4
 01 03 2013  21 59  -21.0718 26014.3 -03410.2 -07.4682 26236.8
 01 03 2013  22 00  -21.0713 26014.3 -03410.2 -07.4683 26236.8
 01 03 2013  22 01  -21.0711 26014.2 -03410.4 -07.4686 26236.8
 01 03 2013  22 02  -21.0710 26013.9 -03410.3 -07.4687 26236.5
 01 03 2013  22 03  -21.0709 26013.2 -03410.1 -07.4684 26235.8
 01 03 2013  22 04  -21.0707 26012.4 -03409.7 -07.4678 26234.9
 01 03 2013  22 05  -21.0707 26011.9 -03409.6 -07.4677 26234.4
 01 03 2013  22 06  -21.0702 26011.8 -03409.6 -07.4677 26234.3
 01 03 2013  22 07  -21.0695 26012.1 -03409.8 -07.4681 26234.6
 01 03 2013  22 08  -21.0692 26012.1 -03410.0 -07.4685 26234.7
 01 03 2013  22 09  -21.0687 26012.0 -03410.0 -07.4685 26234.5
 01 03 2013  22 10  -21.0687 26012.2 -03410.3 -07.4690 26234.8
 01 03 2013  22 11  -21.0689 26012.3 -03410.5 -07.4694 26234.9
 01 03 2013  22 12  -21.0688 26012.4 -03410.7 -07.4698 26235.1
 01 03 2013  22 13  -21.0689 26013.1 -03411.1 -07.4705 26235.8
 01 03 2013  22 14  -21.0688 26013.4 -03411.3 -07.4710 26236.2
 01 03 2013  22 15  -21.0690 26013.8 -03411.6 -07.4714 26236.6
 01 03 2013  22 16  -21.0692 26014.2 -03411.8 -07.4719 26237.0
 01 03 2013  22 17  -21.0694 26014.5 -03412.1 -07.4722 26237.3
 01 03 2013  22 18  -21.0699 26014.8 -03412.2 -07.4725 26237.6
 01 03 2013  22 19  -21.0703 26014.7 -03412.2 -07.4725 26237.5
 01 03 2013  22 20  -21.0703 26014.7 -03412.2 -07.4725 26237.5
 01 03 2013  22 21  -21.0702 26014.9 -03412.3 -07.4726 26237.7
 01 03 2013  22 22  -21.0703 26014.9 -03412.3 -07.4726 26237.7
 01 03 2013  22 23  -21.0705 26014.9 -03412.2 -07.4725 26237.7
 01 03 2013  22 24  -21.0710 26014.7 -03412.2 -07.4726 26237.5
 01 03 2013  22 25  -21.0715 26014.4 -03412.1 -07.4723 26237.2
 01 03 2013  22 26  -21.0718 26013.9 -03411.9 -07.4721 26236.7
 01 03 2013  22 27  -21.0721 26013.7 -03411.7 -07.4717 26236.5
 01 03 2013  22 28  -21.0725 26013.5 -03411.7 -07.4717 26236.3
 01 03 2013  22 29  -21.0727 26013.5 -03411.7 -07.4717 26236.2
 01 03 2013  22 30  -21.0729 26013.5 -03411.7 -07.4718 26236.3
 01 03 2013  22 31  -21.0730 26013.6 -03411.8 -07.4720 26236.4
 01 03 2013  22 32  -21.0728 26013.8 -03412.0 -07.4723 26236.6
 01 03 2013  22 33  -21.0728 26013.7 -03412.0 -07.4723 26236.5
 01 03 2013  22 34  -21.0727 26013.5 -03411.9 -07.4722 26236.3
 01 03 2013  22 35  -21.0729 26013.7 -03412.0 -07.4724 26236.5
 01 03 2013  22 36  -21.0735 26013.6 -03412.1 -07.4726 26236.4
 01 03 2013  22 37  -21.0741 26013.3 -03412.0 -07.4724 26236.1
 01 03 2013  22 38  -21.0744 26012.9 -03411.8 -07.4721 26235.7
 01 03 2013  22 39  -21.0748 26012.8 -03411.8 -07.4721 26235.6
 01 03 2013  22 40  -21.0752 26012.5 -03411.7 -07.4720 26235.3
 01 03 2013  22 41  -21.0752 26012.1 -03411.4 -07.4716 26234.8
 01 03 2013  22 42  -21.0751 26012.8 -03411.7 -07.4719 26235.5
 01 03 2013  22 43  -21.0756 26013.5 -03412.1 -07.4727 26236.3
 01 03 2013  22 44  -21.0760 26013.5 -03412.2 -07.4728 26236.3
 01 03 2013  22 45  -21.0762 26013.0 -03411.9 -07.4724 26235.8
 01 03 2013  22 46  -21.0764 26012.5 -03411.6 -07.4719 26235.3
 01 03 2013  22 47  -21.0765 26012.2 -03411.4 -07.4716 26234.9
 01 03 2013  22 48  -21.0766 26011.8 -03411.3 -07.4713 26234.6
 01 03 2013  22 49  -21.0768 26011.6 -03411.2 -07.4712 26234.3
 01 03 2013  22 50  -21.0765 26011.5 -03411.1 -07.4711 26234.2
 01 03 2013  22 51  -21.0760 26010.9 -03410.8 -07.4706 26233.6
 01 03 2013  22 52  -21.0755 26010.3 -03410.6 -07.4702 26233.0
 01 03 2013  22 53  -21.0750 26009.7 -03410.3 -07.4698 26232.3
 01 03 2013  22 54  -21.0744 26009.0 -03410.1 -07.4695 26231.6
 01 03 2013  22 55  -21.0741 26008.4 -03409.8 -07.4691 26231.0
 01 03 2013  22 56  -21.0737 26008.1 -03409.8 -07.4691 26230.6
 01 03 2013  22 57  -21.0734 26007.9 -03409.8 -07.4693 26230.5
 01 03 2013  22 58  -21.0732 26008.0 -03410.0 -07.4697 26230.6
 01 03 2013  22 59  -21.0730 26008.0 -03410.2 -07.4700 26230.6
 01 03 2013  23 00  -21.0728 26007.8 -03410.2 -07.4701 26230.4
 01 03 2013  23 01  -21.0729 26007.7 -03410.2 -07.4702 26230.3
 01 03 2013  23 02  -21.0733 26007.6 -03410.3 -07.4704 26230.3
 01 03 2013  23 03  -21.0737 26007.7 -03410.5 -07.4708 26230.4
 01 03 2013  23 04  -21.0741 26007.7 -03410.6 -07.4709 26230.3
 01 03 2013  23 05  -21.0746 26007.6 -03410.6 -07.4710 26230.3
 01 03 2013  23 06  -21.0749 26007.4 -03410.6 -07.4710 26230.1
 01 03 2013  23 07  -21.0748 26006.9 -03410.3 -07.4706 26229.5
 01 03 2013  23 08  -21.0748 26006.4 -03410.1 -07.4702 26229.0
 01 03 2013  23 09  -21.0749 26006.4 -03410.1 -07.4703 26229.0
 01 03 2013  23 10  -21.0752 26006.2 -03410.1 -07.4703 26228.8
 01 03 2013  23 11  -21.0752 26006.1 -03410.1 -07.4705 26228.8
 01 03 2013  23 12  -21.0749 26006.1 -03410.1 -07.4705 26228.7
 01 03 2013  23 13  -21.0746 26006.2 -03410.3 -07.4708 26228.9
 01 03 2013  23 14  -21.0743 26006.4 -03410.4 -07.4710 26229.0
 01 03 2013  23 15  -21.0741 26006.3 -03410.5 -07.4711 26229.0
 01 03 2013  23 16  -21.0741 26006.2 -03410.5 -07.4712 26228.8
 01 03 2013  23 17  -21.0743 26005.9 -03410.5 -07.4712 26228.6
 01 03 2013  23 18  -21.0748 26005.8 -03410.5 -07.4713 26228.5
 01 03 2013  23 19  -21.0752 26006.1 -03410.7 -07.4716 26228.8
 01 03 2013  23 20  -21.0751 26006.6 -03410.9 -07.4721 26229.3
 01 03 2013  23 21  -21.0749 26007.3 -03411.4 -07.4728 26230.1
 01 03 2013  23 22  -21.0750 26007.6 -03411.6 -07.4732 26230.4
 01 03 2013  23 23  -21.0749 26007.2 -03411.4 -07.4729 26230.0
 01 03 2013  23 24  -21.0749 26006.9 -03411.2 -07.4726 26229.7
 01 03 2013  23 25  -21.0748 26006.9 -03411.2 -07.4726 26229.7
 01 03 2013  23 26  -21.0746 26006.9 -03411.2 -07.4726 26229.6
 01 03 2013  23 27  -21.0744 26007.1 -03411.3 -07.4728 26229.9
 01 03 2013  23 28  -21.0744 26007.5 -03411.6 -07.4732 26230.3
 01 03 2013  23 29  -21.0745 26007.7 -03411.7 -07.4735 26230.5
 01 03 2013  23 30  -21.0747 26007.8 -03411.8 -07.4737 26230.7
 01 03 2013  23 31  -21.0748 26008.1 -03412.0 -07.4739 26231.0
 01 03 2013  23 32  -21.0746 26008.4 -03412.2 -07.4743 26231.3
 01 03 2013  23 33  -21.0740 26008.5 -03412.2 -07.4742 26231.4
 01 03 2013  23 34  -21.0735 26008.7 -03412.2 -07.4743 26231.5
 01 03 2013  23 35  -21.0732 26008.6 -03412.2 -07.4743 26231.4
 01 03 2013  23 36  -21.0731 26008.4 -03412.2 -07.4742 26231.3
 01 03 2013  23 37  -21.0734 26008.2 -03412.1 -07.4742 26231.1
 01 03 2013  23 38  -21.0738 26007.9 -03412.0 -07.4740 26230.7
 01 03 2013  23 39  -21.0744 26007.5 -03411.9 -07.4738 26230.4
 01 03 2013  23 40  -21.0747 26007.2 -03411.7 -07.4735 26230.0
 01 03 2013  23 41  -21.0750 26006.9 -03411.6 -07.4733 26229.7
 01 03 2013  23 42  -21.0753 26006.6 -03411.5 -07.4732 26229.4
 01 03 2013  23 43  -21.0751 26006.8 -03411.5 -07.4733 26229.6
 01 03 2013  23 44  -21.0752 26006.4 -03411.4 -07.4731 26229.1
 01 03 2013  23 45  -21.0760 26005.6 -03411.1 -07.4727 26228.4
 01 03 2013  23 46  -21.0770 26005.3 -03411.0 -07.4725 26228.0
 01 03 2013  23 47  -21.0779 26004.6 -03410.7 -07.4720 26227.3
 01 03 2013  23 48  -21.0793 26004.2 -03410.6 -07.4720 26226.9
 01 03 2013  23 49  -21.0806 26004.3 -03410.7 -07.4723 26227.0
 01 03 2013  23 50  -21.0818 26004.1 -03410.7 -07.4722 26226.8
 01 03 2013  23 51  -21.0825 26004.1 -03410.7 -07.4722 26226.8
 01 03 2013  23 52  -21.0830 26004.0 -03410.7 -07.4722 26226.7
 01 03 2013  23 53  -21.0829 26003.6 -03410.4 -07.4718 26226.3
 01 03 2013  23 54  -21.0820 26004.0 -03410.6 -07.4720 26226.7
 01 03 2013  23 55  -21.0809 26004.2 -03410.6 -07.4721 26226.9
 01 03 2013  23 56  -21.0800 26004.0 -03410.6 -07.4720 26226.7
 01 03 2013  23 57  -21.0789 26004.1 -03410.6 -07.4721 26226.8
 01 03 2013  23 58  -21.0778 26004.5 -03410.9 -07.4725 26227.2
