SAO LUIS EMBRACE-03 <040> 1 Min. Reported data

 DD MM YYYY  HH MM   D(Deg)  H(nT)   Z(nT)   I(Deg)   F(nT)

 09 02 2013  00 00  -21.0151 26039.8 -03398.9 -07.4366 26260.7
 09 02 2013  00 01  -21.0152 26039.9 -03398.9 -07.4366 26260.7
 09 02 2013  00 02  -21.0152 26039.8 -03398.9 -07.4366 26260.7
 09 02 2013  00 03  -21.0152 26039.8 -03398.9 -07.4366 26260.7
 09 02 2013  00 04  -21.0153 26039.7 -03398.9 -07.4366 26260.6
 09 02 2013  00 05  -21.0156 26039.8 -03398.9 -07.4367 26260.7
 09 02 2013  00 06  -21.0159 26039.7 -03398.9 -07.4367 26260.6
 09 02 2013  00 07  -21.0161 26039.7 -03398.9 -07.4366 26260.5
 09 02 2013  00 08  -21.0161 26039.6 -03398.9 -07.4367 26260.5
 09 02 2013  00 09  -21.0162 26039.6 -03398.9 -07.4367 26260.5
 09 02 2013  00 10  -21.0162 26039.5 -03398.9 -07.4367 26260.4
 09 02 2013  00 11  -21.0163 26039.4 -03398.8 -07.4366 26260.2
 09 02 2013  00 12  -21.0165 26039.3 -03398.8 -07.4365 26260.2
 09 02 2013  00 13  -21.0165 26039.1 -03398.8 -07.4365 26260.0
 09 02 2013  00 14  -21.0164 26039.1 -03398.7 -07.4364 26260.0
 09 02 2013  00 15  -21.0163 26039.0 -03398.7 -07.4364 26259.9
 09 02 2013  00 16  -21.0162 26038.9 -03398.7 -07.4364 26259.8
 09 02 2013  00 17  -21.0162 26038.8 -03398.7 -07.4364 26259.6
 09 02 2013  00 18  -21.0161 26038.7 -03398.7 -07.4365 26259.6
 09 02 2013  00 19  -21.0160 26038.6 -03398.7 -07.4365 26259.5
 09 02 2013  00 20  -21.0159 26038.6 -03398.7 -07.4366 26259.5
 09 02 2013  00 21  -21.0160 26038.6 -03398.8 -07.4367 26259.5
 09 02 2013  00 22  -21.0161 26038.7 -03398.9 -07.4368 26259.6
 09 02 2013  00 23  -21.0162 26038.8 -03399.0 -07.4370 26259.7
 09 02 2013  00 24  -21.0165 26038.9 -03399.1 -07.4372 26259.8
 09 02 2013  00 25  -21.0168 26038.8 -03399.1 -07.4372 26259.8
 09 02 2013  00 26  -21.0171 26038.9 -03399.1 -07.4373 26259.8
 09 02 2013  00 27  -21.0173 26038.9 -03399.1 -07.4374 26259.9
 09 02 2013  00 28  -21.0175 26038.9 -03399.1 -07.4374 26259.9
 09 02 2013  00 29  -21.0178 26039.0 -03399.2 -07.4374 26259.9
 09 02 2013  00 30  -21.0180 26038.9 -03399.1 -07.4373 26259.9
 09 02 2013  00 31  -21.0180 26038.9 -03399.1 -07.4373 26259.9
 09 02 2013  00 32  -21.0178 26039.0 -03399.1 -07.4373 26259.9
 09 02 2013  00 33  -21.0176 26038.9 -03399.1 -07.4372 26259.8
 09 02 2013  00 34  -21.0175 26039.1 -03399.2 -07.4374 26260.0
 09 02 2013  00 35  -21.0178 26038.8 -03399.1 -07.4373 26259.7
 09 02 2013  00 36  -21.0181 26039.0 -03399.2 -07.4374 26259.9
 09 02 2013  00 37  -21.0183 26038.9 -03399.2 -07.4375 26259.9
 09 02 2013  00 38  -21.0185 26038.9 -03399.2 -07.4374 26259.8
 09 02 2013  00 39  -21.0186 26038.8 -03399.1 -07.4374 26259.8
 09 02 2013  00 40  -21.0185 26038.9 -03399.2 -07.4374 26259.8
 09 02 2013  00 41  -21.0184 26038.8 -03399.2 -07.4374 26259.7
 09 02 2013  00 42  -21.0184 26039.0 -03399.2 -07.4375 26260.0
 09 02 2013  00 43  -21.0186 26038.9 -03399.3 -07.4376 26259.9
 09 02 2013  00 44  -21.0187 26038.8 -03399.1 -07.4374 26259.7
 09 02 2013  00 45  -21.0189 26038.7 -03399.1 -07.4374 26259.6
 09 02 2013  00 46  -21.0192 26038.6 -03399.1 -07.4374 26259.6
 09 02 2013  00 47  -21.0195 26038.6 -03399.1 -07.4374 26259.5
 09 02 2013  00 48  -21.0193 26038.9 -03399.2 -07.4376 26259.9
 09 02 2013  00 49  -21.0190 26039.2 -03399.4 -07.4379 26260.2
 09 02 2013  00 50  -21.0190 26039.5 -03399.6 -07.4381 26260.5
 09 02 2013  00 51  -21.0192 26039.9 -03399.8 -07.4385 26260.9
 09 02 2013  00 52  -21.0195 26040.1 -03399.9 -07.4387 26261.2
 09 02 2013  00 53  -21.0198 26040.4 -03400.0 -07.4389 26261.4
 09 02 2013  00 54  -21.0201 26040.2 -03399.9 -07.4387 26261.2
 09 02 2013  00 55  -21.0202 26039.8 -03399.7 -07.4383 26260.8
 09 02 2013  00 56  -21.0205 26039.5 -03399.5 -07.4380 26260.5
 09 02 2013  00 57  -21.0206 26039.4 -03399.4 -07.4378 26260.4
 09 02 2013  00 58  -21.0208 26039.4 -03399.4 -07.4377 26260.3
 09 02 2013  00 59  -21.0208 26039.3 -03399.3 -07.4377 26260.2
 09 02 2013  01 00  -21.0197 26040.2 -03399.7 -07.4382 26261.2
 09 02 2013  01 01  -21.0193 26040.4 -03399.8 -07.4385 26261.4
 09 02 2013  01 02  -21.0187 26041.1 -03400.2 -07.4391 26262.2
 09 02 2013  01 03  -21.0186 26041.3 -03400.3 -07.4392 26262.3
 09 02 2013  01 04  -21.0183 26041.7 -03400.5 -07.4395 26262.8
 09 02 2013  01 05  -21.0182 26042.1 -03400.7 -07.4398 26263.2
 09 02 2013  01 06  -21.0180 26042.2 -03400.7 -07.4399 26263.3
 09 02 2013  01 07  -21.0178 26042.5 -03400.9 -07.4401 26263.6
 09 02 2013  01 08  -21.0177 26042.5 -03400.8 -07.4400 26263.6
 09 02 2013  01 09  -21.0172 26042.4 -03400.7 -07.4398 26263.5
 09 02 2013  01 10  -21.0173 26042.3 -03400.7 -07.4398 26263.4
 09 02 2013  01 11  -21.0173 26042.3 -03400.7 -07.4397 26263.4
 09 02 2013  01 12  -21.0173 26042.4 -03400.7 -07.4398 26263.5
 09 02 2013  01 13  -21.0173 26042.8 -03400.9 -07.4400 26263.9
 09 02 2013  01 14  -21.0177 26042.7 -03400.8 -07.4399 26263.8
 09 02 2013  01 15  -21.0178 26043.1 -03401.0 -07.4402 26264.3
 09 02 2013  01 16  -21.0182 26043.2 -03401.0 -07.4403 26264.4
 09 02 2013  01 17  -21.0184 26043.8 -03401.3 -07.4405 26265.0
 09 02 2013  01 18  -21.0188 26044.1 -03401.4 -07.4408 26265.3
 09 02 2013  01 19  -21.0193 26044.4 -03401.5 -07.4409 26265.6
 09 02 2013  01 20  -21.0195 26044.8 -03401.6 -07.4411 26266.0
 09 02 2013  01 21  -21.0195 26045.0 -03401.7 -07.4412 26266.3
 09 02 2013  01 22  -21.0199 26045.0 -03401.6 -07.4410 26266.2
 09 02 2013  01 23  -21.0199 26044.8 -03401.5 -07.4407 26266.0
 09 02 2013  01 24  -21.0197 26044.6 -03401.3 -07.4404 26265.8
 09 02 2013  01 25  -21.0197 26044.3 -03401.1 -07.4401 26265.4
 09 02 2013  01 26  -21.0197 26043.9 -03400.9 -07.4397 26265.0
 09 02 2013  01 27  -21.0195 26043.7 -03400.8 -07.4395 26264.8
 09 02 2013  01 28  -21.0195 26043.4 -03400.6 -07.4392 26264.5
 09 02 2013  01 29  -21.0198 26043.4 -03400.6 -07.4392 26264.5
 09 02 2013  01 30  -21.0206 26043.3 -03400.6 -07.4394 26264.4
 09 02 2013  01 31  -21.0210 26043.1 -03400.5 -07.4392 26264.1
 09 02 2013  01 32  -21.0210 26043.1 -03400.5 -07.4392 26264.2
 09 02 2013  01 33  -21.0212 26043.0 -03400.5 -07.4391 26264.0
 09 02 2013  01 34  -21.0210 26042.6 -03400.3 -07.4388 26263.7
 09 02 2013  01 35  -21.0209 26042.3 -03400.2 -07.4386 26263.4
 09 02 2013  01 36  -21.0207 26042.2 -03400.1 -07.4385 26263.2
 09 02 2013  01 37  -21.0205 26042.1 -03400.1 -07.4386 26263.1
 09 02 2013  01 38  -21.0202 26042.0 -03400.1 -07.4386 26263.0
 09 02 2013  01 39  -21.0200 26041.8 -03400.1 -07.4386 26262.9
 09 02 2013  01 40  -21.0200 26041.8 -03400.1 -07.4387 26262.8
 09 02 2013  01 41  -21.0202 26041.7 -03400.2 -07.4388 26262.8
 09 02 2013  01 42  -21.0205 26041.6 -03400.2 -07.4389 26262.7
 09 02 2013  01 43  -21.0209 26041.6 -03400.3 -07.4390 26262.6
 09 02 2013  01 44  -21.0210 26041.6 -03400.3 -07.4392 26262.7
 09 02 2013  01 45  -21.0209 26041.6 -03400.4 -07.4392 26262.7
 09 02 2013  01 46  -21.0209 26041.5 -03400.3 -07.4392 26262.6
 09 02 2013  01 47  -21.0208 26041.4 -03400.3 -07.4392 26262.4
 09 02 2013  01 48  -21.0209 26041.3 -03400.3 -07.4393 26262.3
 09 02 2013  01 49  -21.0211 26041.0 -03400.3 -07.4392 26262.1
 09 02 2013  01 50  -21.0212 26040.8 -03400.2 -07.4392 26261.9
 09 02 2013  01 51  -21.0212 26040.6 -03400.2 -07.4391 26261.6
 09 02 2013  01 52  -21.0212 26040.5 -03400.2 -07.4391 26261.6
 09 02 2013  01 53  -21.0213 26040.5 -03400.2 -07.4392 26261.5
 09 02 2013  01 54  -21.0213 26040.5 -03400.3 -07.4394 26261.5
 09 02 2013  01 55  -21.0213 26040.4 -03400.3 -07.4394 26261.5
 09 02 2013  01 56  -21.0213 26040.6 -03400.4 -07.4396 26261.6
 09 02 2013  01 57  -21.0215 26040.6 -03400.5 -07.4398 26261.7
 09 02 2013  01 58  -21.0215 26040.7 -03400.6 -07.4400 26261.8
 09 02 2013  01 59  -21.0215 26040.7 -03400.6 -07.4401 26261.8
 09 02 2013  02 00  -21.0214 26040.7 -03400.7 -07.4401 26261.8
 09 02 2013  02 01  -21.0213 26040.8 -03400.7 -07.4402 26261.9
 09 02 2013  02 02  -21.0211 26040.7 -03400.7 -07.4403 26261.8
 09 02 2013  02 03  -21.0211 26040.7 -03400.8 -07.4404 26261.8
 09 02 2013  02 04  -21.0212 26040.8 -03400.8 -07.4405 26261.9
 09 02 2013  02 05  -21.0213 26040.8 -03400.9 -07.4407 26262.0
 09 02 2013  02 06  -21.0214 26040.8 -03400.9 -07.4407 26261.9
 09 02 2013  02 07  -21.0215 26040.8 -03401.0 -07.4408 26262.0
 09 02 2013  02 08  -21.0216 26040.8 -03401.0 -07.4409 26262.0
 09 02 2013  02 09  -21.0218 26040.9 -03401.1 -07.4410 26262.0
 09 02 2013  02 10  -21.0220 26040.8 -03401.1 -07.4410 26262.0
 09 02 2013  02 11  -21.0223 26040.8 -03401.1 -07.4411 26261.9
 09 02 2013  02 12  -21.0224 26040.7 -03401.1 -07.4410 26261.8
 09 02 2013  02 13  -21.0226 26040.7 -03401.1 -07.4411 26261.9
 09 02 2013  02 14  -21.0228 26040.7 -03401.1 -07.4412 26261.9
 09 02 2013  02 15  -21.0229 26040.7 -03401.1 -07.4411 26261.8
 09 02 2013  02 16  -21.0232 26040.6 -03401.1 -07.4411 26261.8
 09 02 2013  02 17  -21.0235 26040.7 -03401.1 -07.4412 26261.9
 09 02 2013  02 18  -21.0237 26040.8 -03401.2 -07.4413 26262.0
 09 02 2013  02 19  -21.0238 26040.9 -03401.2 -07.4414 26262.0
 09 02 2013  02 20  -21.0237 26040.9 -03401.3 -07.4415 26262.1
 09 02 2013  02 21  -21.0237 26041.0 -03401.3 -07.4415 26262.2
 09 02 2013  02 22  -21.0236 26041.1 -03401.4 -07.4416 26262.3
 09 02 2013  02 23  -21.0237 26041.2 -03401.5 -07.4417 26262.4
 09 02 2013  02 24  -21.0238 26041.3 -03401.5 -07.4418 26262.5
 09 02 2013  02 25  -21.0239 26041.2 -03401.5 -07.4418 26262.4
 09 02 2013  02 26  -21.0243 26041.2 -03401.5 -07.4419 26262.5
 09 02 2013  02 27  -21.0246 26041.3 -03401.6 -07.4420 26262.5
 09 02 2013  02 28  -21.0249 26041.4 -03401.6 -07.4421 26262.6
 09 02 2013  02 29  -21.0252 26041.5 -03401.7 -07.4421 26262.7
 09 02 2013  02 30  -21.0254 26041.6 -03401.7 -07.4422 26262.9
 09 02 2013  02 31  -21.0256 26041.8 -03401.8 -07.4423 26263.1
 09 02 2013  02 32  -21.0258 26041.9 -03401.8 -07.4423 26263.2
 09 02 2013  02 33  -21.0262 26041.9 -03401.8 -07.4423 26263.2
 09 02 2013  02 34  -21.0267 26042.0 -03401.8 -07.4423 26263.2
 09 02 2013  02 35  -21.0272 26041.9 -03401.8 -07.4422 26263.2
 09 02 2013  02 36  -21.0275 26041.8 -03401.7 -07.4420 26263.0
 09 02 2013  02 37  -21.0279 26041.6 -03401.6 -07.4419 26262.9
 09 02 2013  02 38  -21.0281 26041.5 -03401.5 -07.4417 26262.7
 09 02 2013  02 39  -21.0283 26041.4 -03401.4 -07.4415 26262.6
 09 02 2013  02 40  -21.0284 26041.2 -03401.3 -07.4414 26262.4
 09 02 2013  02 41  -21.0285 26041.1 -03401.2 -07.4412 26262.3
 09 02 2013  02 42  -21.0285 26040.9 -03401.1 -07.4410 26262.1
 09 02 2013  02 43  -21.0284 26040.7 -03401.0 -07.4408 26261.8
 09 02 2013  02 44  -21.0283 26040.5 -03400.9 -07.4407 26261.6
 09 02 2013  02 45  -21.0282 26040.3 -03400.8 -07.4405 26261.4
 09 02 2013  02 46  -21.0282 26040.2 -03400.8 -07.4405 26261.3
 09 02 2013  02 47  -21.0282 26040.2 -03400.8 -07.4406 26261.3
 09 02 2013  02 48  -21.0282 26040.3 -03400.9 -07.4407 26261.4
 09 02 2013  02 49  -21.0283 26040.2 -03400.9 -07.4407 26261.3
 09 02 2013  02 50  -21.0281 26040.1 -03400.8 -07.4407 26261.3
 09 02 2013  02 51  -21.0281 26040.1 -03400.8 -07.4407 26261.3
 09 02 2013  02 52  -21.0284 26040.2 -03400.9 -07.4408 26261.3
 09 02 2013  02 53  -21.0288 26040.2 -03400.9 -07.4408 26261.3
 09 02 2013  02 54  -21.0292 26040.2 -03400.9 -07.4408 26261.3
 09 02 2013  02 55  -21.0294 26040.2 -03400.9 -07.4408 26261.4
 09 02 2013  02 56  -21.0296 26040.0 -03400.8 -07.4407 26261.2
 09 02 2013  02 57  -21.0296 26039.9 -03400.7 -07.4405 26261.1
 09 02 2013  02 58  -21.0297 26039.8 -03400.6 -07.4403 26260.9
 09 02 2013  02 59  -21.0298 26039.7 -03400.6 -07.4402 26260.8
 09 02 2013  03 00  -21.0300 26039.7 -03400.5 -07.4401 26260.8
 09 02 2013  03 01  -21.0300 26039.6 -03400.5 -07.4401 26260.7
 09 02 2013  03 02  -21.0300 26039.6 -03400.4 -07.4400 26260.7
 09 02 2013  03 03  -21.0298 26039.5 -03400.4 -07.4399 26260.6
 09 02 2013  03 04  -21.0298 26039.4 -03400.3 -07.4398 26260.5
 09 02 2013  03 05  -21.0298 26039.4 -03400.3 -07.4398 26260.5
 09 02 2013  03 06  -21.0298 26039.3 -03400.3 -07.4397 26260.4
 09 02 2013  03 07  -21.0298 26039.4 -03400.3 -07.4397 26260.4
 09 02 2013  03 08  -21.0300 26039.5 -03400.3 -07.4398 26260.5
 09 02 2013  03 09  -21.0302 26039.5 -03400.4 -07.4399 26260.6
 09 02 2013  03 10  -21.0305 26039.6 -03400.4 -07.4400 26260.7
 09 02 2013  03 11  -21.0308 26039.6 -03400.4 -07.4400 26260.7
 09 02 2013  03 12  -21.0310 26039.6 -03400.4 -07.4399 26260.7
 09 02 2013  03 13  -21.0311 26039.5 -03400.3 -07.4398 26260.6
 09 02 2013  03 14  -21.0312 26039.4 -03400.3 -07.4397 26260.5
 09 02 2013  03 15  -21.0311 26039.3 -03400.2 -07.4395 26260.4
 09 02 2013  03 16  -21.0310 26039.1 -03400.0 -07.4392 26260.1
 09 02 2013  03 17  -21.0311 26038.9 -03399.9 -07.4390 26259.9
 09 02 2013  03 18  -21.0314 26038.7 -03399.9 -07.4390 26259.7
 09 02 2013  03 19  -21.0316 26038.5 -03399.8 -07.4389 26259.5
 09 02 2013  03 20  -21.0318 26038.4 -03399.7 -07.4388 26259.4
 09 02 2013  03 21  -21.0319 26038.3 -03399.7 -07.4387 26259.3
 09 02 2013  03 22  -21.0320 26038.3 -03399.7 -07.4387 26259.3
 09 02 2013  03 23  -21.0320 26038.3 -03399.7 -07.4388 26259.3
 09 02 2013  03 24  -21.0320 26038.3 -03399.7 -07.4388 26259.3
 09 02 2013  03 25  -21.0319 26038.3 -03399.7 -07.4388 26259.3
 09 02 2013  03 26  -21.0318 26038.4 -03399.8 -07.4389 26259.4
 09 02 2013  03 27  -21.0319 26038.5 -03399.9 -07.4390 26259.5
 09 02 2013  03 28  -21.0320 26038.6 -03399.9 -07.4392 26259.6
 09 02 2013  03 29  -21.0321 26038.7 -03400.0 -07.4393 26259.8
 09 02 2013  03 30  -21.0321 26039.0 -03400.1 -07.4395 26260.0
 09 02 2013  03 31  -21.0321 26039.2 -03400.2 -07.4397 26260.3
 09 02 2013  03 32  -21.0319 26039.5 -03400.4 -07.4398 26260.6
 09 02 2013  03 33  -21.0317 26039.6 -03400.4 -07.4399 26260.7
 09 02 2013  03 34  -21.0316 26039.8 -03400.5 -07.4400 26260.8
 09 02 2013  03 35  -21.0316 26039.6 -03400.4 -07.4398 26260.7
 09 02 2013  03 36  -21.0316 26039.6 -03400.4 -07.4398 26260.7
 09 02 2013  03 37  -21.0316 26039.5 -03400.3 -07.4397 26260.5
 09 02 2013  03 38  -21.0316 26039.3 -03400.2 -07.4396 26260.4
 09 02 2013  03 39  -21.0315 26039.4 -03400.2 -07.4395 26260.4
 09 02 2013  03 40  -21.0314 26039.3 -03400.2 -07.4395 26260.3
 09 02 2013  03 41  -21.0315 26039.3 -03400.2 -07.4396 26260.4
 09 02 2013  03 42  -21.0315 26039.3 -03400.2 -07.4396 26260.4
 09 02 2013  03 43  -21.0312 26039.3 -03400.2 -07.4396 26260.4
 09 02 2013  03 44  -21.0309 26039.5 -03400.3 -07.4397 26260.5
 09 02 2013  03 45  -21.0307 26039.6 -03400.4 -07.4398 26260.7
 09 02 2013  03 46  -21.0306 26039.8 -03400.5 -07.4400 26260.9
 09 02 2013  03 47  -21.0304 26040.0 -03400.6 -07.4402 26261.1
 09 02 2013  03 48  -21.0304 26039.9 -03400.6 -07.4402 26261.0
 09 02 2013  03 49  -21.0302 26040.0 -03400.6 -07.4403 26261.1
 09 02 2013  03 50  -21.0303 26039.9 -03400.6 -07.4402 26261.0
 09 02 2013  03 51  -21.0302 26039.9 -03400.6 -07.4402 26261.0
 09 02 2013  03 52  -21.0301 26039.8 -03400.6 -07.4402 26260.9
 09 02 2013  03 53  -21.0300 26039.7 -03400.5 -07.4401 26260.8
 09 02 2013  03 54  -21.0300 26039.5 -03400.5 -07.4401 26260.6
 09 02 2013  03 55  -21.0301 26039.6 -03400.5 -07.4401 26260.7
 09 02 2013  03 56  -21.0301 26039.6 -03400.5 -07.4402 26260.7
 09 02 2013  03 57  -21.0301 26039.7 -03400.6 -07.4404 26260.9
 09 02 2013  03 58  -21.0303 26039.9 -03400.7 -07.4405 26261.0
 09 02 2013  03 59  -21.0303 26040.2 -03400.8 -07.4407 26261.3
 09 02 2013  04 00  -21.0302 26040.6 -03401.1 -07.4411 26261.8
 09 02 2013  04 01  -21.0305 26040.6 -03401.1 -07.4411 26261.8
 09 02 2013  04 02  -21.0304 26041.2 -03401.4 -07.4415 26262.4
 09 02 2013  04 03  -21.0304 26041.5 -03401.5 -07.4417 26262.7
 09 02 2013  04 04  -21.0302 26041.9 -03401.6 -07.4419 26263.1
 09 02 2013  04 05  -21.0300 26042.1 -03401.7 -07.4421 26263.3
 09 02 2013  04 06  -21.0295 26042.4 -03401.8 -07.4422 26263.6
 09 02 2013  04 07  -21.0292 26042.2 -03401.7 -07.4420 26263.4
 09 02 2013  04 08  -21.0287 26042.4 -03401.7 -07.4420 26263.6
 09 02 2013  04 09  -21.0285 26042.3 -03401.7 -07.4419 26263.6
 09 02 2013  04 10  -21.0282 26042.3 -03401.7 -07.4419 26263.5
 09 02 2013  04 11  -21.0281 26042.1 -03401.6 -07.4417 26263.3
 09 02 2013  04 12  -21.0278 26042.1 -03401.5 -07.4416 26263.3
 09 02 2013  04 13  -21.0277 26042.0 -03401.5 -07.4416 26263.2
 09 02 2013  04 14  -21.0278 26041.9 -03401.4 -07.4415 26263.1
 09 02 2013  04 15  -21.0280 26041.9 -03401.5 -07.4416 26263.1
 09 02 2013  04 16  -21.0281 26041.8 -03401.4 -07.4415 26262.9
 09 02 2013  04 17  -21.0281 26041.6 -03401.3 -07.4413 26262.7
 09 02 2013  04 18  -21.0281 26041.5 -03401.3 -07.4413 26262.6
 09 02 2013  04 19  -21.0282 26041.6 -03401.3 -07.4414 26262.7
 09 02 2013  04 20  -21.0283 26041.7 -03401.4 -07.4415 26262.9
 09 02 2013  04 21  -21.0285 26041.9 -03401.5 -07.4417 26263.1
 09 02 2013  04 22  -21.0286 26042.2 -03401.7 -07.4419 26263.4
 09 02 2013  04 23  -21.0287 26042.4 -03401.8 -07.4421 26263.6
 09 02 2013  04 24  -21.0287 26042.5 -03401.8 -07.4422 26263.7
 09 02 2013  04 25  -21.0285 26042.6 -03401.8 -07.4421 26263.9
 09 02 2013  04 26  -21.0283 26042.8 -03401.9 -07.4423 26264.0
 09 02 2013  04 27  -21.0281 26042.8 -03401.9 -07.4423 26264.1
 09 02 2013  04 28  -21.0280 26042.8 -03401.9 -07.4422 26264.0
 09 02 2013  04 29  -21.0280 26042.8 -03401.9 -07.4422 26264.0
 09 02 2013  04 30  -21.0280 26042.8 -03401.8 -07.4421 26264.0
 09 02 2013  04 31  -21.0279 26042.7 -03401.8 -07.4420 26263.9
 09 02 2013  04 32  -21.0279 26042.6 -03401.7 -07.4419 26263.8
 09 02 2013  04 33  -21.0279 26042.6 -03401.7 -07.4419 26263.9
 09 02 2013  04 34  -21.0280 26042.8 -03401.8 -07.4420 26264.0
 09 02 2013  04 35  -21.0283 26042.9 -03401.8 -07.4421 26264.1
 09 02 2013  04 36  -21.0286 26042.9 -03401.8 -07.4421 26264.1
 09 02 2013  04 37  -21.0287 26042.9 -03401.8 -07.4421 26264.2
 09 02 2013  04 38  -21.0288 26042.9 -03401.8 -07.4420 26264.1
 09 02 2013  04 39  -21.0290 26042.8 -03401.7 -07.4419 26264.1
 09 02 2013  04 40  -21.0292 26042.9 -03401.7 -07.4418 26264.1
 09 02 2013  04 41  -21.0296 26042.9 -03401.7 -07.4419 26264.1
 09 02 2013  04 42  -21.0298 26042.9 -03401.7 -07.4418 26264.2
 09 02 2013  04 43  -21.0299 26043.0 -03401.7 -07.4417 26264.2
 09 02 2013  04 44  -21.0301 26043.1 -03401.7 -07.4417 26264.3
 09 02 2013  04 45  -21.0304 26043.2 -03401.7 -07.4418 26264.4
 09 02 2013  04 46  -21.0307 26043.3 -03401.8 -07.4418 26264.6
 09 02 2013  04 47  -21.0309 26043.5 -03401.8 -07.4418 26264.7
 09 02 2013  04 48  -21.0310 26043.4 -03401.7 -07.4417 26264.6
 09 02 2013  04 49  -21.0312 26043.4 -03401.6 -07.4415 26264.7
 09 02 2013  04 50  -21.0315 26043.6 -03401.7 -07.4415 26264.8
 09 02 2013  04 51  -21.0318 26043.6 -03401.7 -07.4415 26264.8
 09 02 2013  04 52  -21.0320 26043.8 -03401.7 -07.4415 26265.0
 09 02 2013  04 53  -21.0323 26043.9 -03401.7 -07.4416 26265.1
 09 02 2013  04 54  -21.0325 26043.9 -03401.7 -07.4415 26265.1
 09 02 2013  04 55  -21.0328 26044.1 -03401.7 -07.4415 26265.4
 09 02 2013  04 56  -21.0333 26044.1 -03401.7 -07.4414 26265.3
 09 02 2013  04 57  -21.0334 26044.1 -03401.6 -07.4412 26265.3
 09 02 2013  04 58  -21.0337 26044.2 -03401.6 -07.4412 26265.4
 09 02 2013  04 59  -21.0342 26044.3 -03401.6 -07.4412 26265.5
 09 02 2013  05 00  -21.0345 26044.3 -03401.6 -07.4411 26265.5
 09 02 2013  05 01  -21.0346 26044.3 -03401.5 -07.4409 26265.4
 09 02 2013  05 02  -21.0347 26044.6 -03401.6 -07.4410 26265.8
 09 02 2013  05 03  -21.0350 26044.7 -03401.6 -07.4410 26265.9
 09 02 2013  05 04  -21.0348 26044.7 -03401.5 -07.4408 26265.9
 09 02 2013  05 05  -21.0343 26044.8 -03401.5 -07.4407 26266.0
 09 02 2013  05 06  -21.0339 26045.0 -03401.5 -07.4408 26266.2
 09 02 2013  05 07  -21.0336 26045.0 -03401.5 -07.4407 26266.2
 09 02 2013  05 08  -21.0332 26045.0 -03401.5 -07.4407 26266.2
 09 02 2013  05 09  -21.0329 26045.0 -03401.4 -07.4406 26266.1
 09 02 2013  05 10  -21.0325 26045.0 -03401.4 -07.4405 26266.1
 09 02 2013  05 11  -21.0323 26044.9 -03401.3 -07.4404 26266.0
 09 02 2013  05 12  -21.0322 26044.8 -03401.3 -07.4403 26265.9
 09 02 2013  05 13  -21.0321 26044.8 -03401.3 -07.4404 26266.0
 09 02 2013  05 14  -21.0321 26044.9 -03401.4 -07.4405 26266.1
 09 02 2013  05 15  -21.0318 26044.9 -03401.3 -07.4404 26266.1
 09 02 2013  05 16  -21.0314 26045.0 -03401.4 -07.4405 26266.2
 09 02 2013  05 17  -21.0312 26045.2 -03401.5 -07.4407 26266.4
 09 02 2013  05 18  -21.0310 26045.5 -03401.6 -07.4409 26266.7
 09 02 2013  05 19  -21.0306 26045.6 -03401.7 -07.4410 26266.8
 09 02 2013  05 20  -21.0300 26045.7 -03401.7 -07.4411 26266.9
 09 02 2013  05 21  -21.0295 26045.7 -03401.7 -07.4410 26266.9
 09 02 2013  05 22  -21.0290 26045.7 -03401.7 -07.4411 26266.9
 09 02 2013  05 23  -21.0289 26045.7 -03401.7 -07.4411 26266.9
 09 02 2013  05 24  -21.0288 26045.6 -03401.7 -07.4411 26266.8
 09 02 2013  05 25  -21.0288 26045.8 -03401.8 -07.4412 26267.0
 09 02 2013  05 26  -21.0289 26045.8 -03401.9 -07.4413 26267.1
 09 02 2013  05 27  -21.0289 26046.1 -03402.0 -07.4415 26267.3
 09 02 2013  05 28  -21.0290 26046.3 -03402.1 -07.4416 26267.5
 09 02 2013  05 29  -21.0287 26046.3 -03402.1 -07.4416 26267.6
 09 02 2013  05 30  -21.0283 26046.3 -03402.0 -07.4415 26267.5
 09 02 2013  05 31  -21.0279 26046.3 -03402.1 -07.4416 26267.6
 09 02 2013  05 32  -21.0278 26046.1 -03402.0 -07.4415 26267.4
 09 02 2013  05 33  -21.0273 26046.2 -03401.9 -07.4413 26267.4
 09 02 2013  05 34  -21.0272 26046.3 -03402.0 -07.4414 26267.5
 09 02 2013  05 35  -21.0274 26046.5 -03402.1 -07.4417 26267.8
 09 02 2013  05 36  -21.0277 26046.6 -03402.2 -07.4418 26267.9
 09 02 2013  05 37  -21.0278 26046.7 -03402.2 -07.4419 26268.0
 09 02 2013  05 38  -21.0280 26046.8 -03402.3 -07.4419 26268.1
 09 02 2013  05 39  -21.0281 26046.8 -03402.2 -07.4419 26268.0
 09 02 2013  05 40  -21.0280 26046.8 -03402.2 -07.4418 26268.1
 09 02 2013  05 41  -21.0279 26046.7 -03402.2 -07.4417 26268.0
 09 02 2013  05 42  -21.0280 26046.9 -03402.2 -07.4418 26268.2
 09 02 2013  05 43  -21.0281 26046.9 -03402.2 -07.4417 26268.1
 09 02 2013  05 44  -21.0281 26046.9 -03402.2 -07.4417 26268.2
 09 02 2013  05 45  -21.0280 26047.0 -03402.2 -07.4416 26268.2
 09 02 2013  05 46  -21.0279 26047.0 -03402.2 -07.4416 26268.2
 09 02 2013  05 47  -21.0277 26046.9 -03402.1 -07.4415 26268.2
 09 02 2013  05 48  -21.0274 26047.0 -03402.1 -07.4416 26268.2
 09 02 2013  05 49  -21.0272 26047.0 -03402.1 -07.4416 26268.2
 09 02 2013  05 50  -21.0269 26047.0 -03402.1 -07.4415 26268.2
 09 02 2013  05 51  -21.0268 26047.0 -03402.2 -07.4416 26268.3
 09 02 2013  05 52  -21.0267 26047.0 -03402.2 -07.4416 26268.3
 09 02 2013  05 53  -21.0266 26047.1 -03402.2 -07.4417 26268.4
 09 02 2013  05 54  -21.0266 26047.1 -03402.2 -07.4417 26268.4
 09 02 2013  05 55  -21.0265 26047.1 -03402.2 -07.4417 26268.4
 09 02 2013  05 56  -21.0264 26047.0 -03402.1 -07.4416 26268.2
 09 02 2013  05 57  -21.0264 26046.9 -03402.1 -07.4415 26268.1
 09 02 2013  05 58  -21.0265 26046.8 -03402.0 -07.4414 26268.0
 09 02 2013  05 59  -21.0264 26046.8 -03402.0 -07.4414 26268.0
 09 02 2013  06 00  -21.0263 26046.8 -03402.1 -07.4414 26268.1
 09 02 2013  06 01  -21.0263 26046.8 -03402.1 -07.4415 26268.1
 09 02 2013  06 02  -21.0262 26046.9 -03402.1 -07.4416 26268.2
 09 02 2013  06 03  -21.0263 26047.1 -03402.2 -07.4417 26268.3
 09 02 2013  06 04  -21.0263 26047.2 -03402.3 -07.4418 26268.5
 09 02 2013  06 05  -21.0260 26047.4 -03402.4 -07.4419 26268.7
 09 02 2013  06 06  -21.0259 26047.5 -03402.4 -07.4420 26268.8
 09 02 2013  06 07  -21.0259 26047.6 -03402.5 -07.4421 26268.9
 09 02 2013  06 08  -21.0260 26047.6 -03402.5 -07.4421 26268.9
 09 02 2013  06 09  -21.0259 26047.6 -03402.4 -07.4420 26268.9
 09 02 2013  06 10  -21.0258 26047.6 -03402.4 -07.4419 26268.8
 09 02 2013  06 11  -21.0255 26047.5 -03402.3 -07.4418 26268.8
 09 02 2013  06 12  -21.0251 26047.5 -03402.3 -07.4418 26268.8
 09 02 2013  06 13  -21.0247 26047.6 -03402.3 -07.4418 26268.8
 09 02 2013  06 14  -21.0244 26047.6 -03402.3 -07.4418 26268.8
 09 02 2013  06 15  -21.0242 26047.6 -03402.3 -07.4418 26268.8
 09 02 2013  06 16  -21.0241 26047.5 -03402.3 -07.4418 26268.7
 09 02 2013  06 17  -21.0241 26047.5 -03402.3 -07.4418 26268.7
 09 02 2013  06 18  -21.0240 26047.4 -03402.3 -07.4418 26268.7
 09 02 2013  06 19  -21.0239 26047.2 -03402.2 -07.4416 26268.4
 09 02 2013  06 20  -21.0238 26047.0 -03402.1 -07.4415 26268.3
 09 02 2013  06 21  -21.0240 26047.0 -03402.1 -07.4415 26268.3
 09 02 2013  06 22  -21.0243 26047.1 -03402.2 -07.4416 26268.4
 09 02 2013  06 23  -21.0244 26047.3 -03402.3 -07.4418 26268.6
 09 02 2013  06 24  -21.0245 26047.6 -03402.4 -07.4420 26268.8
 09 02 2013  06 25  -21.0246 26047.8 -03402.5 -07.4422 26269.1
 09 02 2013  06 26  -21.0248 26047.9 -03402.6 -07.4423 26269.2
 09 02 2013  06 27  -21.0248 26048.0 -03402.6 -07.4422 26269.3
 09 02 2013  06 28  -21.0248 26047.9 -03402.5 -07.4421 26269.2
 09 02 2013  06 29  -21.0247 26047.8 -03402.4 -07.4419 26269.0
 09 02 2013  06 30  -21.0246 26047.5 -03402.3 -07.4417 26268.8
 09 02 2013  06 31  -21.0246 26047.3 -03402.1 -07.4415 26268.6
 09 02 2013  06 32  -21.0245 26047.2 -03402.0 -07.4412 26268.4
 09 02 2013  06 33  -21.0243 26047.2 -03402.0 -07.4412 26268.4
 09 02 2013  06 34  -21.0239 26047.2 -03402.0 -07.4411 26268.4
 09 02 2013  06 35  -21.0237 26047.2 -03402.0 -07.4412 26268.4
 09 02 2013  06 36  -21.0234 26047.4 -03402.1 -07.4414 26268.7
 09 02 2013  06 37  -21.0231 26047.4 -03402.2 -07.4415 26268.7
 09 02 2013  06 38  -21.0230 26047.4 -03402.2 -07.4416 26268.7
 09 02 2013  06 39  -21.0229 26047.6 -03402.3 -07.4417 26268.8
 09 02 2013  06 40  -21.0230 26047.6 -03402.3 -07.4418 26268.8
 09 02 2013  06 41  -21.0229 26047.6 -03402.3 -07.4418 26268.9
 09 02 2013  06 42  -21.0229 26047.6 -03402.3 -07.4417 26268.8
 09 02 2013  06 43  -21.0229 26047.5 -03402.3 -07.4417 26268.8
 09 02 2013  06 44  -21.0230 26047.4 -03402.2 -07.4416 26268.6
 09 02 2013  06 45  -21.0231 26047.2 -03402.1 -07.4414 26268.5
 09 02 2013  06 46  -21.0232 26047.1 -03402.0 -07.4413 26268.4
 09 02 2013  06 47  -21.0234 26047.0 -03402.0 -07.4412 26268.2
 09 02 2013  06 48  -21.0235 26046.9 -03401.9 -07.4411 26268.1
 09 02 2013  06 49  -21.0236 26046.8 -03401.9 -07.4411 26268.0
 09 02 2013  06 50  -21.0237 26046.7 -03401.8 -07.4410 26267.9
 09 02 2013  06 51  -21.0238 26046.7 -03401.8 -07.4410 26267.9
 09 02 2013  06 52  -21.0239 26046.8 -03401.9 -07.4411 26268.0
 09 02 2013  06 53  -21.0239 26046.9 -03401.9 -07.4412 26268.1
 09 02 2013  06 54  -21.0240 26046.9 -03402.0 -07.4412 26268.2
 09 02 2013  06 55  -21.0241 26047.0 -03402.0 -07.4413 26268.2
 09 02 2013  06 56  -21.0241 26047.1 -03402.0 -07.4413 26268.3
 09 02 2013  06 57  -21.0242 26047.1 -03402.1 -07.4414 26268.4
 09 02 2013  06 58  -21.0243 26047.1 -03402.1 -07.4414 26268.4
 09 02 2013  06 59  -21.0244 26047.3 -03402.1 -07.4414 26268.5
 09 02 2013  07 00  -21.0245 26047.2 -03402.1 -07.4414 26268.5
 09 02 2013  07 01  -21.0246 26047.2 -03402.0 -07.4413 26268.4
 09 02 2013  07 02  -21.0246 26047.3 -03402.1 -07.4413 26268.5
 09 02 2013  07 03  -21.0247 26047.2 -03402.0 -07.4412 26268.4
 09 02 2013  07 04  -21.0247 26047.6 -03402.2 -07.4414 26268.8
 09 02 2013  07 05  -21.0250 26047.7 -03402.2 -07.4416 26269.0
 09 02 2013  07 06  -21.0251 26047.8 -03402.3 -07.4417 26269.1
 09 02 2013  07 07  -21.0248 26048.2 -03402.4 -07.4418 26269.4
 09 02 2013  07 08  -21.0252 26048.3 -03402.5 -07.4420 26269.6
 09 02 2013  07 09  -21.0251 26048.2 -03402.5 -07.4419 26269.5
 09 02 2013  07 10  -21.0253 26048.5 -03402.5 -07.4420 26269.8
 09 02 2013  07 11  -21.0253 26048.6 -03402.6 -07.4420 26269.9
 09 02 2013  07 12  -21.0252 26048.5 -03402.5 -07.4418 26269.7
 09 02 2013  07 13  -21.0252 26048.4 -03402.4 -07.4417 26269.6
 09 02 2013  07 14  -21.0248 26048.3 -03402.3 -07.4415 26269.6
 09 02 2013  07 15  -21.0245 26048.2 -03402.2 -07.4414 26269.5
 09 02 2013  07 16  -21.0242 26048.2 -03402.2 -07.4413 26269.4
 09 02 2013  07 17  -21.0240 26048.2 -03402.2 -07.4414 26269.5
 09 02 2013  07 18  -21.0239 26048.0 -03402.2 -07.4413 26269.3
 09 02 2013  07 19  -21.0237 26047.9 -03402.1 -07.4412 26269.2
 09 02 2013  07 20  -21.0238 26047.8 -03402.1 -07.4412 26269.0
 09 02 2013  07 21  -21.0239 26047.7 -03402.0 -07.4412 26268.9
 09 02 2013  07 22  -21.0239 26047.7 -03402.0 -07.4412 26268.9
 09 02 2013  07 23  -21.0239 26047.7 -03402.1 -07.4412 26268.9
 09 02 2013  07 24  -21.0238 26047.7 -03402.1 -07.4413 26268.9
 09 02 2013  07 25  -21.0237 26047.6 -03402.1 -07.4413 26268.9
 09 02 2013  07 26  -21.0236 26047.5 -03402.1 -07.4414 26268.8
 09 02 2013  07 27  -21.0233 26047.5 -03402.1 -07.4414 26268.8
 09 02 2013  07 28  -21.0230 26047.4 -03402.1 -07.4414 26268.7
 09 02 2013  07 29  -21.0228 26047.3 -03402.1 -07.4413 26268.5
 09 02 2013  07 30  -21.0226 26047.3 -03402.1 -07.4414 26268.5
 09 02 2013  07 31  -21.0226 26047.0 -03402.1 -07.4414 26268.3
 09 02 2013  07 32  -21.0224 26046.8 -03402.0 -07.4412 26268.0
 09 02 2013  07 33  -21.0222 26046.6 -03401.9 -07.4411 26267.8
 09 02 2013  07 34  -21.0220 26046.5 -03401.9 -07.4412 26267.8
 09 02 2013  07 35  -21.0219 26046.5 -03401.9 -07.4413 26267.8
 09 02 2013  07 36  -21.0217 26046.6 -03402.0 -07.4415 26267.8
 09 02 2013  07 37  -21.0216 26046.6 -03402.2 -07.4417 26267.9
 09 02 2013  07 38  -21.0215 26046.8 -03402.3 -07.4420 26268.0
 09 02 2013  07 39  -21.0216 26046.9 -03402.4 -07.4422 26268.2
 09 02 2013  07 40  -21.0216 26046.9 -03402.5 -07.4424 26268.2
 09 02 2013  07 41  -21.0217 26046.9 -03402.5 -07.4424 26268.2
 09 02 2013  07 42  -21.0217 26046.9 -03402.5 -07.4424 26268.2
 09 02 2013  07 43  -21.0216 26046.7 -03402.5 -07.4423 26268.0
 09 02 2013  07 44  -21.0215 26046.5 -03402.3 -07.4421 26267.8
 09 02 2013  07 45  -21.0214 26046.2 -03402.2 -07.4419 26267.5
 09 02 2013  07 46  -21.0214 26046.0 -03402.1 -07.4418 26267.3
 09 02 2013  07 47  -21.0213 26045.8 -03402.0 -07.4417 26267.0
 09 02 2013  07 48  -21.0211 26045.7 -03402.0 -07.4417 26267.0
 09 02 2013  07 49  -21.0211 26045.7 -03402.0 -07.4417 26266.9
 09 02 2013  07 50  -21.0211 26045.7 -03402.1 -07.4419 26266.9
 09 02 2013  07 51  -21.0211 26045.7 -03402.2 -07.4420 26266.9
 09 02 2013  07 52  -21.0212 26045.7 -03402.2 -07.4421 26267.0
 09 02 2013  07 53  -21.0215 26045.8 -03402.3 -07.4423 26267.1
 09 02 2013  07 54  -21.0217 26045.9 -03402.4 -07.4425 26267.2
 09 02 2013  07 55  -21.0218 26045.8 -03402.5 -07.4426 26267.1
 09 02 2013  07 56  -21.0219 26045.7 -03402.4 -07.4426 26267.0
 09 02 2013  07 57  -21.0217 26045.6 -03402.4 -07.4426 26266.9
 09 02 2013  07 58  -21.0216 26045.4 -03402.3 -07.4425 26266.7
 09 02 2013  07 59  -21.0217 26045.3 -03402.3 -07.4424 26266.6
 09 02 2013  08 00  -21.0218 26045.3 -03402.3 -07.4424 26266.5
 09 02 2013  08 01  -21.0220 26045.2 -03402.3 -07.4424 26266.5
 09 02 2013  08 02  -21.0222 26045.2 -03402.3 -07.4424 26266.5
 09 02 2013  08 03  -21.0223 26045.3 -03402.4 -07.4425 26266.5
 09 02 2013  08 04  -21.0224 26045.3 -03402.4 -07.4427 26266.6
 09 02 2013  08 05  -21.0225 26045.2 -03402.4 -07.4427 26266.5
 09 02 2013  08 06  -21.0226 26045.1 -03402.5 -07.4428 26266.4
 09 02 2013  08 07  -21.0227 26045.1 -03402.5 -07.4429 26266.4
 09 02 2013  08 08  -21.0228 26045.1 -03402.5 -07.4430 26266.4
 09 02 2013  08 09  -21.0230 26045.0 -03402.6 -07.4431 26266.4
 09 02 2013  08 10  -21.0230 26045.1 -03402.6 -07.4431 26266.4
 09 02 2013  08 11  -21.0230 26045.2 -03402.7 -07.4432 26266.5
 09 02 2013  08 12  -21.0230 26045.1 -03402.7 -07.4433 26266.5
 09 02 2013  08 13  -21.0231 26045.1 -03402.7 -07.4433 26266.4
 09 02 2013  08 14  -21.0232 26045.0 -03402.7 -07.4434 26266.4
 09 02 2013  08 15  -21.0231 26044.9 -03402.7 -07.4434 26266.3
 09 02 2013  08 16  -21.0227 26044.7 -03402.6 -07.4433 26266.1
 09 02 2013  08 17  -21.0222 26044.5 -03402.6 -07.4432 26265.9
 09 02 2013  08 18  -21.0215 26044.3 -03402.4 -07.4430 26265.6
 09 02 2013  08 19  -21.0211 26044.1 -03402.4 -07.4429 26265.4
 09 02 2013  08 20  -21.0204 26044.1 -03402.4 -07.4429 26265.4
 09 02 2013  08 21  -21.0200 26043.8 -03402.4 -07.4430 26265.1
 09 02 2013  08 22  -21.0197 26043.8 -03402.4 -07.4431 26265.1
 09 02 2013  08 23  -21.0197 26043.7 -03402.4 -07.4431 26265.0
 09 02 2013  08 24  -21.0200 26043.5 -03402.5 -07.4434 26264.9
 09 02 2013  08 25  -21.0202 26043.4 -03402.6 -07.4435 26264.8
 09 02 2013  08 26  -21.0205 26043.3 -03402.6 -07.4436 26264.7
 09 02 2013  08 27  -21.0209 26043.3 -03402.7 -07.4437 26264.7
 09 02 2013  08 28  -21.0212 26043.4 -03402.7 -07.4439 26264.7
 09 02 2013  08 29  -21.0215 26043.3 -03402.7 -07.4439 26264.7
 09 02 2013  08 30  -21.0218 26043.4 -03402.8 -07.4440 26264.7
 09 02 2013  08 31  -21.0220 26043.3 -03402.8 -07.4440 26264.6
 09 02 2013  08 32  -21.0223 26043.3 -03402.7 -07.4439 26264.6
 09 02 2013  08 33  -21.0225 26043.2 -03402.7 -07.4439 26264.6
 09 02 2013  08 34  -21.0226 26043.1 -03402.7 -07.4438 26264.5
 09 02 2013  08 35  -21.0223 26043.0 -03402.6 -07.4437 26264.4
 09 02 2013  08 36  -21.0223 26042.9 -03402.5 -07.4436 26264.2
 09 02 2013  08 37  -21.0224 26042.8 -03402.5 -07.4435 26264.1
 09 02 2013  08 38  -21.0222 26042.8 -03402.5 -07.4435 26264.2
 09 02 2013  08 39  -21.0220 26042.7 -03402.5 -07.4435 26264.0
 09 02 2013  08 40  -21.0218 26042.6 -03402.4 -07.4434 26263.9
 09 02 2013  08 41  -21.0214 26042.5 -03402.3 -07.4432 26263.9
 09 02 2013  08 42  -21.0213 26042.5 -03402.3 -07.4432 26263.8
 09 02 2013  08 43  -21.0211 26042.4 -03402.2 -07.4430 26263.7
 09 02 2013  08 44  -21.0208 26042.3 -03402.2 -07.4430 26263.6
 09 02 2013  08 45  -21.0204 26042.4 -03402.2 -07.4430 26263.7
 09 02 2013  08 46  -21.0201 26042.3 -03402.1 -07.4428 26263.5
 09 02 2013  08 47  -21.0197 26042.3 -03402.1 -07.4428 26263.5
 09 02 2013  08 48  -21.0197 26042.2 -03402.0 -07.4427 26263.4
 09 02 2013  08 49  -21.0195 26042.2 -03402.0 -07.4427 26263.5
 09 02 2013  08 50  -21.0193 26042.2 -03402.0 -07.4427 26263.5
 09 02 2013  08 51  -21.0191 26042.2 -03402.0 -07.4427 26263.5
 09 02 2013  08 52  -21.0186 26042.2 -03401.9 -07.4425 26263.4
 09 02 2013  08 53  -21.0181 26042.1 -03401.9 -07.4424 26263.4
 09 02 2013  08 54  -21.0177 26042.0 -03401.8 -07.4423 26263.3
 09 02 2013  08 55  -21.0171 26041.9 -03401.8 -07.4423 26263.1
 09 02 2013  08 56  -21.0163 26041.7 -03401.7 -07.4421 26262.9
 09 02 2013  08 57  -21.0156 26041.5 -03401.7 -07.4421 26262.7
 09 02 2013  08 58  -21.0150 26041.3 -03401.7 -07.4422 26262.5
 09 02 2013  08 59  -21.0147 26041.3 -03401.8 -07.4424 26262.5
 09 02 2013  09 00  -21.0145 26041.4 -03402.0 -07.4428 26262.6
 09 02 2013  09 01  -21.0142 26041.6 -03402.2 -07.4433 26262.9
 09 02 2013  09 02  -21.0140 26041.7 -03402.5 -07.4438 26263.0
 09 02 2013  09 03  -21.0139 26041.9 -03402.7 -07.4442 26263.3
 09 02 2013  09 04  -21.0139 26042.0 -03402.9 -07.4447 26263.3
 09 02 2013  09 05  -21.0142 26042.2 -03403.2 -07.4451 26263.6
 09 02 2013  09 06  -21.0145 26042.3 -03403.4 -07.4456 26263.7
 09 02 2013  09 07  -21.0147 26042.5 -03403.7 -07.4461 26264.0
 09 02 2013  09 08  -21.0151 26042.8 -03403.9 -07.4466 26264.3
 09 02 2013  09 09  -21.0157 26043.0 -03404.2 -07.4471 26264.6
 09 02 2013  09 10  -21.0165 26043.3 -03404.4 -07.4475 26264.8
 09 02 2013  09 11  -21.0169 26043.5 -03404.6 -07.4479 26265.1
 09 02 2013  09 12  -21.0169 26043.5 -03404.7 -07.4481 26265.1
 09 02 2013  09 13  -21.0170 26043.5 -03404.7 -07.4482 26265.1
 09 02 2013  09 14  -21.0171 26043.4 -03404.7 -07.4482 26265.0
 09 02 2013  09 15  -21.0181 26043.6 -03404.9 -07.4485 26265.2
 09 02 2013  09 16  -21.0199 26044.0 -03405.2 -07.4490 26265.7
 09 02 2013  09 17  -21.0217 26044.5 -03405.4 -07.4493 26266.2
 09 02 2013  09 18  -21.0228 26044.8 -03405.4 -07.4493 26266.5
 09 02 2013  09 19  -21.0234 26044.8 -03405.3 -07.4491 26266.5
 09 02 2013  09 20  -21.0235 26044.7 -03405.2 -07.4488 26266.4
 09 02 2013  09 21  -21.0233 26044.6 -03405.1 -07.4486 26266.2
 09 02 2013  09 22  -21.0231 26044.4 -03405.0 -07.4485 26266.1
 09 02 2013  09 23  -21.0233 26044.4 -03405.1 -07.4486 26266.1
 09 02 2013  09 24  -21.0238 26044.4 -03405.1 -07.4487 26266.1
 09 02 2013  09 25  -21.0246 26044.7 -03405.2 -07.4489 26266.3
 09 02 2013  09 26  -21.0254 26044.9 -03405.3 -07.4491 26266.5
 09 02 2013  09 27  -21.0259 26045.0 -03405.4 -07.4491 26266.7
 09 02 2013  09 28  -21.0261 26045.0 -03405.4 -07.4491 26266.7
 09 02 2013  09 29  -21.0264 26045.0 -03405.4 -07.4491 26266.7
 09 02 2013  09 30  -21.0267 26045.0 -03405.4 -07.4491 26266.7
 09 02 2013  09 31  -21.0273 26045.0 -03405.4 -07.4491 26266.6
 09 02 2013  09 32  -21.0282 26045.0 -03405.3 -07.4491 26266.6
 09 02 2013  09 33  -21.0295 26045.1 -03405.4 -07.4491 26266.8
 09 02 2013  09 34  -21.0305 26045.3 -03405.3 -07.4490 26267.0
 09 02 2013  09 35  -21.0315 26045.3 -03405.2 -07.4487 26267.0
 09 02 2013  09 36  -21.0324 26045.4 -03405.1 -07.4484 26267.0
 09 02 2013  09 37  -21.0334 26045.3 -03404.9 -07.4480 26266.9
 09 02 2013  09 38  -21.0338 26045.1 -03404.7 -07.4476 26266.7
 09 02 2013  09 39  -21.0340 26045.0 -03404.6 -07.4474 26266.6
 09 02 2013  09 40  -21.0339 26044.7 -03404.4 -07.4472 26266.3
 09 02 2013  09 41  -21.0335 26044.5 -03404.4 -07.4471 26266.0
 09 02 2013  09 42  -21.0337 26044.4 -03404.4 -07.4472 26265.9
 09 02 2013  09 43  -21.0343 26044.3 -03404.5 -07.4474 26265.9
 09 02 2013  09 44  -21.0351 26044.2 -03404.5 -07.4475 26265.7
 09 02 2013  09 45  -21.0364 26044.2 -03404.6 -07.4476 26265.8
 09 02 2013  09 46  -21.0375 26044.4 -03404.6 -07.4477 26266.0
 09 02 2013  09 47  -21.0386 26044.4 -03404.6 -07.4476 26266.0
 09 02 2013  09 48  -21.0397 26044.4 -03404.5 -07.4475 26266.0
 09 02 2013  09 49  -21.0404 26044.3 -03404.4 -07.4472 26265.8
 09 02 2013  09 50  -21.0417 26044.4 -03404.4 -07.4472 26265.9
 09 02 2013  09 51  -21.0428 26044.6 -03404.5 -07.4473 26266.2
 09 02 2013  09 52  -21.0440 26044.7 -03404.4 -07.4471 26266.2
 09 02 2013  09 53  -21.0448 26044.9 -03404.4 -07.4470 26266.5
 09 02 2013  09 54  -21.0455 26045.1 -03404.3 -07.4468 26266.7
 09 02 2013  09 55  -21.0462 26045.8 -03404.4 -07.4468 26267.3
 09 02 2013  09 56  -21.0469 26046.0 -03404.2 -07.4464 26267.5
 09 02 2013  09 57  -21.0469 26046.2 -03404.2 -07.4462 26267.7
 09 02 2013  09 58  -21.0474 26046.7 -03404.3 -07.4463 26268.2
 09 02 2013  09 59  -21.0482 26047.1 -03404.3 -07.4463 26268.6
 09 02 2013  10 00  -21.0485 26047.3 -03404.4 -07.4464 26268.9
 09 02 2013  10 01  -21.0488 26047.5 -03404.4 -07.4463 26269.0
 09 02 2013  10 02  -21.0494 26047.5 -03404.3 -07.4460 26269.0
 09 02 2013  10 03  -21.0496 26047.6 -03404.3 -07.4460 26269.1
 09 02 2013  10 04  -21.0505 26048.0 -03404.3 -07.4460 26269.6
 09 02 2013  10 05  -21.0510 26048.2 -03404.2 -07.4457 26269.7
 09 02 2013  10 06  -21.0518 26048.8 -03404.3 -07.4457 26270.3
 09 02 2013  10 07  -21.0524 26049.4 -03404.2 -07.4454 26270.9
 09 02 2013  10 08  -21.0532 26050.1 -03404.2 -07.4451 26271.6
 09 02 2013  10 09  -21.0544 26050.7 -03404.1 -07.4448 26272.1
 09 02 2013  10 10  -21.0553 26050.7 -03403.8 -07.4440 26272.2
 09 02 2013  10 11  -21.0563 26051.0 -03403.5 -07.4434 26272.4
 09 02 2013  10 12  -21.0574 26051.3 -03403.3 -07.4430 26272.6
 09 02 2013  10 13  -21.0579 26051.3 -03403.1 -07.4425 26272.7
 09 02 2013  10 14  -21.0579 26051.2 -03402.8 -07.4419 26272.5
 09 02 2013  10 15  -21.0578 26050.9 -03402.6 -07.4414 26272.2
 09 02 2013  10 16  -21.0576 26050.6 -03402.3 -07.4410 26271.8
 09 02 2013  10 17  -21.0575 26050.2 -03402.1 -07.4407 26271.4
 09 02 2013  10 18  -21.0576 26050.0 -03402.1 -07.4406 26271.2
 09 02 2013  10 19  -21.0583 26050.1 -03402.2 -07.4408 26271.3
 09 02 2013  10 20  -21.0589 26050.0 -03402.2 -07.4409 26271.2
 09 02 2013  10 21  -21.0597 26050.1 -03402.3 -07.4411 26271.4
 09 02 2013  10 22  -21.0602 26050.1 -03402.3 -07.4410 26271.3
 09 02 2013  10 23  -21.0611 26050.1 -03402.3 -07.4410 26271.4
 09 02 2013  10 24  -21.0622 26050.2 -03402.2 -07.4407 26271.5
 09 02 2013  10 25  -21.0636 26050.3 -03402.1 -07.4405 26271.5
 09 02 2013  10 26  -21.0636 26050.2 -03401.9 -07.4401 26271.4
 09 02 2013  10 27  -21.0641 26050.4 -03401.8 -07.4399 26271.5
 09 02 2013  10 28  -21.0648 26050.7 -03401.8 -07.4398 26271.8
 09 02 2013  10 29  -21.0658 26050.8 -03401.8 -07.4398 26272.0
 09 02 2013  10 30  -21.0661 26051.5 -03401.9 -07.4399 26272.7
 09 02 2013  10 31  -21.0673 26052.1 -03402.0 -07.4399 26273.3
 09 02 2013  10 32  -21.0673 26052.1 -03401.8 -07.4394 26273.3
 09 02 2013  10 33  -21.0667 26051.8 -03401.5 -07.4388 26272.9
 09 02 2013  10 34  -21.0661 26051.3 -03401.2 -07.4383 26272.4
 09 02 2013  10 35  -21.0658 26051.2 -03401.2 -07.4383 26272.3
 09 02 2013  10 36  -21.0654 26051.3 -03401.2 -07.4384 26272.4
 09 02 2013  10 37  -21.0651 26051.6 -03401.3 -07.4385 26272.7
 09 02 2013  10 38  -21.0650 26051.6 -03401.3 -07.4385 26272.7
 09 02 2013  10 39  -21.0655 26051.8 -03401.3 -07.4384 26272.9
 09 02 2013  10 40  -21.0663 26052.2 -03401.3 -07.4384 26273.3
 09 02 2013  10 41  -21.0676 26053.3 -03401.6 -07.4386 26274.4
 09 02 2013  10 42  -21.0692 26054.2 -03401.7 -07.4386 26275.3
 09 02 2013  10 43  -21.0703 26054.9 -03401.7 -07.4383 26276.0
 09 02 2013  10 44  -21.0707 26055.3 -03401.4 -07.4375 26276.4
 09 02 2013  10 45  -21.0709 26055.4 -03401.2 -07.4372 26276.5
 09 02 2013  10 46  -21.0715 26055.6 -03401.0 -07.4367 26276.7
 09 02 2013  10 47  -21.0715 26055.8 -03400.8 -07.4361 26276.8
 09 02 2013  10 48  -21.0720 26056.4 -03400.8 -07.4359 26277.4
 09 02 2013  10 49  -21.0723 26056.9 -03400.6 -07.4355 26277.9
 09 02 2013  10 50  -21.0730 26057.4 -03400.5 -07.4350 26278.4
 09 02 2013  10 51  -21.0734 26057.5 -03400.2 -07.4344 26278.4
 09 02 2013  10 52  -21.0739 26057.5 -03399.9 -07.4338 26278.4
 09 02 2013  10 53  -21.0747 26057.5 -03399.7 -07.4333 26278.4
 09 02 2013  10 54  -21.0756 26058.1 -03399.7 -07.4332 26278.9
 09 02 2013  10 55  -21.0761 26058.5 -03399.7 -07.4330 26279.3
 09 02 2013  10 56  -21.0766 26058.7 -03399.5 -07.4326 26279.5
 09 02 2013  10 57  -21.0767 26058.9 -03399.3 -07.4322 26279.6
 09 02 2013  10 58  -21.0770 26058.9 -03399.2 -07.4318 26279.6
 09 02 2013  10 59  -21.0770 26058.6 -03398.8 -07.4311 26279.4
 09 02 2013  11 00  -21.0776 26058.2 -03398.6 -07.4307 26278.9
 09 02 2013  11 01  -21.0784 26058.6 -03398.7 -07.4309 26279.3
 09 02 2013  11 02  -21.0789 26059.3 -03398.9 -07.4311 26280.0
 09 02 2013  11 03  -21.0791 26059.5 -03398.8 -07.4308 26280.2
 09 02 2013  11 04  -21.0787 26059.3 -03398.5 -07.4303 26280.0
 09 02 2013  11 05  -21.0789 26059.1 -03398.3 -07.4299 26279.8
 09 02 2013  11 06  -21.0788 26059.1 -03398.2 -07.4297 26279.8
 09 02 2013  11 07  -21.0791 26059.4 -03398.2 -07.4296 26280.1
 09 02 2013  11 08  -21.0792 26059.9 -03398.3 -07.4297 26280.6
 09 02 2013  11 09  -21.0787 26059.9 -03398.2 -07.4294 26280.6
 09 02 2013  11 10  -21.0782 26060.0 -03398.1 -07.4291 26280.6
 09 02 2013  11 11  -21.0775 26060.2 -03398.0 -07.4289 26280.8
 09 02 2013  11 12  -21.0771 26060.4 -03398.0 -07.4287 26281.0
 09 02 2013  11 13  -21.0771 26061.0 -03398.0 -07.4286 26281.6
 09 02 2013  11 14  -21.0776 26061.7 -03398.0 -07.4284 26282.2
 09 02 2013  11 15  -21.0785 26062.6 -03398.0 -07.4283 26283.2
 09 02 2013  11 16  -21.0797 26063.6 -03398.1 -07.4282 26284.2
 09 02 2013  11 17  -21.0802 26064.0 -03397.9 -07.4276 26284.6
 09 02 2013  11 18  -21.0807 26064.4 -03397.7 -07.4271 26284.9
 09 02 2013  11 19  -21.0809 26064.6 -03397.4 -07.4265 26285.1
 09 02 2013  11 20  -21.0806 26064.5 -03397.1 -07.4257 26284.9
 09 02 2013  11 21  -21.0797 26064.2 -03396.7 -07.4249 26284.6
 09 02 2013  11 22  -21.0794 26064.3 -03396.5 -07.4244 26284.7
 09 02 2013  11 23  -21.0794 26064.6 -03396.4 -07.4242 26285.0
 09 02 2013  11 24  -21.0796 26065.1 -03396.4 -07.4240 26285.5
 09 02 2013  11 25  -21.0801 26066.2 -03396.6 -07.4241 26286.6
 09 02 2013  11 26  -21.0801 26067.1 -03396.7 -07.4240 26287.5
 09 02 2013  11 27  -21.0798 26067.3 -03396.4 -07.4234 26287.6
 09 02 2013  11 28  -21.0800 26067.4 -03396.1 -07.4228 26287.7
 09 02 2013  11 29  -21.0797 26067.3 -03395.9 -07.4223 26287.6
 09 02 2013  11 30  -21.0800 26067.4 -03395.8 -07.4220 26287.7
 09 02 2013  11 31  -21.0800 26067.6 -03395.7 -07.4217 26287.8
 09 02 2013  11 32  -21.0803 26067.7 -03395.5 -07.4214 26287.9
 09 02 2013  11 33  -21.0806 26067.7 -03395.4 -07.4211 26287.9
 09 02 2013  11 34  -21.0809 26067.7 -03395.3 -07.4209 26287.9
 09 02 2013  11 35  -21.0811 26067.9 -03395.3 -07.4208 26288.0
 09 02 2013  11 36  -21.0810 26067.8 -03395.2 -07.4206 26288.0
 09 02 2013  11 37  -21.0812 26068.1 -03395.2 -07.4205 26288.3
 09 02 2013  11 38  -21.0813 26068.7 -03395.3 -07.4206 26288.9
 09 02 2013  11 39  -21.0816 26069.1 -03395.3 -07.4205 26289.3
 09 02 2013  11 40  -21.0818 26069.2 -03395.1 -07.4201 26289.3
 09 02 2013  11 41  -21.0815 26069.3 -03395.0 -07.4198 26289.5
 09 02 2013  11 42  -21.0815 26069.8 -03395.0 -07.4198 26290.0
 09 02 2013  11 43  -21.0813 26070.1 -03395.0 -07.4196 26290.2
 09 02 2013  11 44  -21.0809 26070.3 -03394.9 -07.4195 26290.4
 09 02 2013  11 45  -21.0805 26070.6 -03394.9 -07.4194 26290.7
 09 02 2013  11 46  -21.0802 26071.0 -03395.0 -07.4193 26291.1
 09 02 2013  11 47  -21.0806 26071.5 -03395.0 -07.4193 26291.6
 09 02 2013  11 48  -21.0806 26072.1 -03395.2 -07.4194 26292.2
 09 02 2013  11 49  -21.0803 26072.8 -03395.2 -07.4193 26293.0
 09 02 2013  11 50  -21.0801 26073.1 -03395.1 -07.4190 26293.2
 09 02 2013  11 51  -21.0804 26073.9 -03395.1 -07.4188 26294.0
 09 02 2013  11 52  -21.0810 26074.7 -03395.2 -07.4187 26294.8
 09 02 2013  11 53  -21.0814 26074.9 -03395.0 -07.4182 26295.0
 09 02 2013  11 54  -21.0815 26075.7 -03395.1 -07.4183 26295.8
 09 02 2013  11 55  -21.0814 26075.9 -03394.9 -07.4178 26296.0
 09 02 2013  11 56  -21.0821 26076.2 -03394.8 -07.4175 26296.3
 09 02 2013  11 57  -21.0825 26076.8 -03394.8 -07.4173 26296.8
 09 02 2013  11 58  -21.0825 26077.2 -03394.7 -07.4170 26297.2
 09 02 2013  11 59  -21.0827 26077.3 -03394.5 -07.4165 26297.4
 09 02 2013  12 00  -21.0830 26078.0 -03394.5 -07.4164 26298.0
 09 02 2013  12 01  -21.0835 26078.5 -03394.5 -07.4162 26298.5
 09 02 2013  12 02  -21.0839 26079.3 -03394.6 -07.4161 26299.3
 09 02 2013  12 03  -21.0841 26079.7 -03394.4 -07.4157 26299.7
 09 02 2013  12 04  -21.0842 26080.3 -03394.4 -07.4154 26300.2
 09 02 2013  12 05  -21.0846 26080.7 -03394.2 -07.4150 26300.6
 09 02 2013  12 06  -21.0850 26081.0 -03394.0 -07.4145 26300.9
 09 02 2013  12 07  -21.0858 26081.7 -03394.1 -07.4145 26301.6
 09 02 2013  12 08  -21.0863 26082.2 -03394.0 -07.4141 26302.1
 09 02 2013  12 09  -21.0868 26082.8 -03393.9 -07.4137 26302.7
 09 02 2013  12 10  -21.0869 26083.2 -03393.8 -07.4134 26303.1
 09 02 2013  12 11  -21.0868 26083.4 -03393.6 -07.4129 26303.2
 09 02 2013  12 12  -21.0872 26083.8 -03393.6 -07.4127 26303.6
 09 02 2013  12 13  -21.0874 26084.2 -03393.5 -07.4124 26304.0
 09 02 2013  12 14  -21.0876 26084.7 -03393.5 -07.4122 26304.5
 09 02 2013  12 15  -21.0877 26085.0 -03393.4 -07.4120 26304.8
 09 02 2013  12 16  -21.0878 26085.6 -03393.4 -07.4118 26305.4
 09 02 2013  12 17  -21.0880 26086.0 -03393.3 -07.4115 26305.8
 09 02 2013  12 18  -21.0886 26086.7 -03393.4 -07.4115 26306.5
 09 02 2013  12 19  -21.0891 26087.2 -03393.3 -07.4112 26306.9
 09 02 2013  12 20  -21.0897 26087.7 -03393.4 -07.4111 26307.5
 09 02 2013  12 21  -21.0902 26088.2 -03393.3 -07.4109 26308.0
 09 02 2013  12 22  -21.0908 26088.7 -03393.3 -07.4107 26308.5
 09 02 2013  12 23  -21.0913 26089.4 -03393.3 -07.4106 26309.2
 09 02 2013  12 24  -21.0914 26089.8 -03393.2 -07.4101 26309.5
 09 02 2013  12 25  -21.0918 26089.9 -03393.0 -07.4097 26309.6
 09 02 2013  12 26  -21.0919 26090.4 -03392.9 -07.4094 26310.1
 09 02 2013  12 27  -21.0927 26090.9 -03392.9 -07.4093 26310.6
 09 02 2013  12 28  -21.0931 26091.3 -03392.9 -07.4091 26311.0
 09 02 2013  12 29  -21.0937 26091.8 -03392.9 -07.4089 26311.5
 09 02 2013  12 30  -21.0941 26092.2 -03392.8 -07.4086 26311.9
 09 02 2013  12 31  -21.0945 26092.6 -03392.7 -07.4084 26312.3
 09 02 2013  12 32  -21.0949 26093.1 -03392.7 -07.4081 26312.7
 09 02 2013  12 33  -21.0954 26093.5 -03392.6 -07.4078 26313.1
 09 02 2013  12 34  -21.0960 26094.0 -03392.5 -07.4075 26313.6
 09 02 2013  12 35  -21.0964 26094.4 -03392.4 -07.4071 26314.0
 09 02 2013  12 36  -21.0969 26094.8 -03392.3 -07.4068 26314.3
 09 02 2013  12 37  -21.0973 26095.0 -03392.1 -07.4064 26314.6
 09 02 2013  12 38  -21.0977 26095.3 -03392.0 -07.4060 26314.9
 09 02 2013  12 39  -21.0981 26095.6 -03391.8 -07.4056 26315.1
 09 02 2013  12 40  -21.0986 26096.0 -03391.8 -07.4054 26315.5
 09 02 2013  12 41  -21.0989 26096.5 -03391.7 -07.4051 26316.0
 09 02 2013  12 42  -21.0996 26096.7 -03391.6 -07.4047 26316.2
 09 02 2013  12 43  -21.1000 26097.2 -03391.5 -07.4044 26316.7
 09 02 2013  12 44  -21.1003 26097.6 -03391.3 -07.4040 26317.0
 09 02 2013  12 45  -21.1006 26097.8 -03391.1 -07.4035 26317.2
 09 02 2013  12 46  -21.1008 26098.1 -03391.0 -07.4030 26317.4
 09 02 2013  12 47  -21.1014 26098.1 -03390.7 -07.4025 26317.5
 09 02 2013  12 48  -21.1015 26098.4 -03390.6 -07.4021 26317.7
 09 02 2013  12 49  -21.1022 26098.6 -03390.5 -07.4018 26317.9
 09 02 2013  12 50  -21.1026 26099.0 -03390.4 -07.4015 26318.2
 09 02 2013  12 51  -21.1032 26099.4 -03390.3 -07.4012 26318.6
 09 02 2013  12 52  -21.1038 26099.9 -03390.3 -07.4010 26319.2
 09 02 2013  12 53  -21.1040 26100.6 -03390.3 -07.4009 26319.9
 09 02 2013  12 54  -21.1042 26101.5 -03390.3 -07.4007 26320.8
 09 02 2013  12 55  -21.1039 26102.1 -03390.2 -07.4002 26321.3
 09 02 2013  12 56  -21.1036 26102.4 -03389.9 -07.3995 26321.6
 09 02 2013  12 57  -21.1033 26102.5 -03389.5 -07.3986 26321.7
 09 02 2013  12 58  -21.1036 26103.0 -03389.3 -07.3980 26322.1
 09 02 2013  12 59  -21.1042 26103.5 -03389.1 -07.3975 26322.6
 09 02 2013  13 00  -21.1049 26104.3 -03389.0 -07.3970 26323.4
 09 02 2013  13 01  -21.1055 26105.3 -03389.0 -07.3968 26324.4
 09 02 2013  13 02  -21.1055 26105.6 -03388.6 -07.3959 26324.6
 09 02 2013  13 03  -21.1052 26105.3 -03388.1 -07.3949 26324.2
 09 02 2013  13 04  -21.1050 26104.9 -03387.6 -07.3939 26323.8
 09 02 2013  13 05  -21.1049 26105.1 -03387.5 -07.3935 26324.0
 09 02 2013  13 06  -21.1048 26105.5 -03387.4 -07.3932 26324.4
 09 02 2013  13 07  -21.1048 26105.7 -03387.2 -07.3927 26324.5
 09 02 2013  13 08  -21.1047 26105.8 -03387.0 -07.3922 26324.6
 09 02 2013  13 09  -21.1044 26106.0 -03386.8 -07.3918 26324.8
 09 02 2013  13 10  -21.1041 26106.3 -03386.6 -07.3914 26325.0
 09 02 2013  13 11  -21.1040 26106.5 -03386.5 -07.3910 26325.2
 09 02 2013  13 12  -21.1038 26106.6 -03386.3 -07.3905 26325.3
 09 02 2013  13 13  -21.1038 26106.9 -03386.1 -07.3902 26325.6
 09 02 2013  13 14  -21.1038 26107.1 -03386.0 -07.3898 26325.8
 09 02 2013  13 15  -21.1039 26107.4 -03385.9 -07.3895 26326.1
 09 02 2013  13 16  -21.1041 26107.9 -03385.8 -07.3892 26326.5
 09 02 2013  13 17  -21.1039 26108.1 -03385.6 -07.3887 26326.7
 09 02 2013  13 18  -21.1039 26108.3 -03385.4 -07.3881 26326.9
 09 02 2013  13 19  -21.1037 26108.6 -03385.2 -07.3876 26327.1
 09 02 2013  13 20  -21.1037 26108.6 -03384.9 -07.3870 26327.1
 09 02 2013  13 21  -21.1035 26108.7 -03384.6 -07.3864 26327.1
 09 02 2013  13 22  -21.1032 26108.7 -03384.4 -07.3858 26327.2
 09 02 2013  13 23  -21.1030 26108.8 -03384.1 -07.3853 26327.2
 09 02 2013  13 24  -21.1026 26108.9 -03383.9 -07.3847 26327.3
 09 02 2013  13 25  -21.1024 26109.0 -03383.7 -07.3843 26327.4
 09 02 2013  13 26  -21.1020 26109.0 -03383.4 -07.3837 26327.4
 09 02 2013  13 27  -21.1018 26109.3 -03383.3 -07.3833 26327.6
 09 02 2013  13 28  -21.1015 26109.5 -03383.1 -07.3828 26327.7
 09 02 2013  13 29  -21.1011 26109.3 -03382.7 -07.3821 26327.6
 09 02 2013  13 30  -21.1002 26109.2 -03382.4 -07.3814 26327.4
 09 02 2013  13 31  -21.0996 26109.4 -03382.2 -07.3809 26327.5
 09 02 2013  13 32  -21.0984 26109.4 -03381.9 -07.3803 26327.5
 09 02 2013  13 33  -21.0975 26109.6 -03381.8 -07.3799 26327.7
 09 02 2013  13 34  -21.0963 26109.9 -03381.6 -07.3795 26328.0
 09 02 2013  13 35  -21.0953 26110.1 -03381.4 -07.3791 26328.1
 09 02 2013  13 36  -21.0944 26110.2 -03381.2 -07.3786 26328.2
 09 02 2013  13 37  -21.0938 26110.6 -03381.2 -07.3785 26328.6
 09 02 2013  13 38  -21.0933 26111.0 -03381.1 -07.3782 26329.0
 09 02 2013  13 39  -21.0928 26111.0 -03381.0 -07.3778 26329.0
 09 02 2013  13 40  -21.0924 26111.2 -03380.8 -07.3774 26329.2
 09 02 2013  13 41  -21.0920 26111.2 -03380.6 -07.3770 26329.2
 09 02 2013  13 42  -21.0917 26111.3 -03380.5 -07.3767 26329.2
 09 02 2013  13 43  -21.0912 26111.0 -03380.2 -07.3761 26328.8
 09 02 2013  13 44  -21.0906 26111.0 -03380.1 -07.3759 26328.9
 09 02 2013  13 45  -21.0897 26110.8 -03379.9 -07.3756 26328.7
 09 02 2013  13 46  -21.0888 26110.8 -03379.8 -07.3753 26328.7
 09 02 2013  13 47  -21.0879 26111.1 -03379.8 -07.3753 26328.9
 09 02 2013  13 48  -21.0869 26111.4 -03379.8 -07.3752 26329.2
 09 02 2013  13 49  -21.0860 26111.7 -03379.8 -07.3752 26329.6
 09 02 2013  13 50  -21.0854 26112.1 -03379.8 -07.3750 26329.9
 09 02 2013  13 51  -21.0846 26112.1 -03379.7 -07.3748 26330.0
 09 02 2013  13 52  -21.0837 26112.3 -03379.6 -07.3746 26330.1
 09 02 2013  13 53  -21.0829 26112.1 -03379.4 -07.3742 26329.9
 09 02 2013  13 54  -21.0820 26112.0 -03379.3 -07.3739 26329.7
 09 02 2013  13 55  -21.0813 26111.9 -03379.2 -07.3737 26329.7
 09 02 2013  13 56  -21.0805 26111.8 -03379.1 -07.3735 26329.5
 09 02 2013  13 57  -21.0797 26111.7 -03379.0 -07.3734 26329.4
 09 02 2013  13 58  -21.0786 26111.5 -03378.9 -07.3732 26329.2
 09 02 2013  13 59  -21.0776 26111.3 -03378.7 -07.3730 26329.0
 09 02 2013  14 00  -21.0767 26111.2 -03378.7 -07.3730 26328.9
 09 02 2013  14 01  -21.0760 26111.3 -03378.8 -07.3730 26329.0
 09 02 2013  14 02  -21.0751 26111.3 -03378.7 -07.3728 26328.9
 09 02 2013  14 03  -21.0741 26111.2 -03378.5 -07.3726 26328.8
 09 02 2013  14 04  -21.0731 26111.0 -03378.4 -07.3724 26328.6
 09 02 2013  14 05  -21.0719 26110.8 -03378.3 -07.3721 26328.4
 09 02 2013  14 06  -21.0711 26110.8 -03378.3 -07.3721 26328.4
 09 02 2013  14 07  -21.0700 26110.8 -03378.3 -07.3721 26328.4
 09 02 2013  14 08  -21.0692 26110.9 -03378.3 -07.3722 26328.5
 09 02 2013  14 09  -21.0682 26110.9 -03378.3 -07.3722 26328.6
 09 02 2013  14 10  -21.0671 26111.0 -03378.3 -07.3722 26328.7
 09 02 2013  14 11  -21.0661 26111.1 -03378.3 -07.3721 26328.7
 09 02 2013  14 12  -21.0650 26111.1 -03378.3 -07.3721 26328.8
 09 02 2013  14 13  -21.0642 26111.4 -03378.4 -07.3722 26329.0
 09 02 2013  14 14  -21.0634 26111.4 -03378.4 -07.3722 26329.0
 09 02 2013  14 15  -21.0628 26111.8 -03378.5 -07.3723 26329.4
 09 02 2013  14 16  -21.0621 26111.9 -03378.5 -07.3723 26329.6
 09 02 2013  14 17  -21.0611 26112.0 -03378.5 -07.3722 26329.7
 09 02 2013  14 18  -21.0601 26111.9 -03378.3 -07.3719 26329.5
 09 02 2013  14 19  -21.0589 26111.6 -03378.2 -07.3716 26329.2
 09 02 2013  14 20  -21.0578 26111.2 -03378.0 -07.3713 26328.8
 09 02 2013  14 21  -21.0565 26111.1 -03378.0 -07.3713 26328.7
 09 02 2013  14 22  -21.0554 26111.2 -03378.1 -07.3715 26328.8
 09 02 2013  14 23  -21.0543 26111.3 -03378.1 -07.3717 26328.9
 09 02 2013  14 24  -21.0533 26111.3 -03378.2 -07.3718 26328.9
 09 02 2013  14 25  -21.0521 26111.4 -03378.3 -07.3719 26329.0
 09 02 2013  14 26  -21.0511 26111.4 -03378.3 -07.3720 26329.0
 09 02 2013  14 27  -21.0500 26111.5 -03378.4 -07.3722 26329.1
 09 02 2013  14 28  -21.0490 26111.4 -03378.4 -07.3723 26329.0
 09 02 2013  14 29  -21.0479 26111.3 -03378.5 -07.3725 26329.0
 09 02 2013  14 30  -21.0468 26111.3 -03378.6 -07.3727 26329.0
 09 02 2013  14 31  -21.0461 26111.3 -03378.7 -07.3729 26329.0
 09 02 2013  14 32  -21.0454 26111.3 -03378.8 -07.3732 26329.0
 09 02 2013  14 33  -21.0444 26111.1 -03378.9 -07.3733 26328.8
 09 02 2013  14 34  -21.0435 26110.8 -03378.9 -07.3734 26328.5
 09 02 2013  14 35  -21.0424 26110.6 -03378.9 -07.3736 26328.3
 09 02 2013  14 36  -21.0417 26110.6 -03379.1 -07.3740 26328.4
 09 02 2013  14 37  -21.0412 26110.7 -03379.3 -07.3743 26328.5
 09 02 2013  14 38  -21.0405 26110.6 -03379.4 -07.3745 26328.4
 09 02 2013  14 39  -21.0397 26110.4 -03379.4 -07.3746 26328.2
 09 02 2013  14 40  -21.0391 26110.3 -03379.5 -07.3748 26328.1
 09 02 2013  14 41  -21.0388 26110.2 -03379.6 -07.3752 26328.0
 09 02 2013  14 42  -21.0382 26109.8 -03379.6 -07.3752 26327.7
 09 02 2013  14 43  -21.0375 26109.5 -03379.7 -07.3754 26327.4
 09 02 2013  14 44  -21.0370 26109.3 -03379.8 -07.3758 26327.1
 09 02 2013  14 45  -21.0366 26108.9 -03379.9 -07.3761 26326.8
 09 02 2013  14 46  -21.0361 26108.9 -03380.1 -07.3766 26326.8
 09 02 2013  14 47  -21.0354 26108.4 -03380.1 -07.3768 26326.3
 09 02 2013  14 48  -21.0347 26108.6 -03380.4 -07.3774 26326.5
 09 02 2013  14 49  -21.0339 26108.3 -03380.5 -07.3777 26326.2
 09 02 2013  14 50  -21.0333 26108.0 -03380.7 -07.3780 26326.0
 09 02 2013  14 51  -21.0330 26107.9 -03380.9 -07.3785 26325.9
 09 02 2013  14 52  -21.0327 26107.8 -03381.0 -07.3789 26325.8
 09 02 2013  14 53  -21.0324 26107.4 -03381.1 -07.3792 26325.4
 09 02 2013  14 54  -21.0321 26106.9 -03381.2 -07.3795 26325.0
 09 02 2013  14 55  -21.0319 26106.7 -03381.4 -07.3800 26324.8
 09 02 2013  14 56  -21.0316 26106.6 -03381.6 -07.3804 26324.7
 09 02 2013  14 57  -21.0314 26106.3 -03381.7 -07.3807 26324.4
 09 02 2013  14 58  -21.0315 26105.7 -03381.7 -07.3808 26323.8
 09 02 2013  14 59  -21.0310 26105.1 -03381.7 -07.3811 26323.2
 09 02 2013  15 00  -21.0307 26105.0 -03382.0 -07.3817 26323.2
 09 02 2013  15 01  -21.0305 26104.9 -03382.2 -07.3822 26323.1
 09 02 2013  15 02  -21.0307 26104.8 -03382.4 -07.3827 26323.0
 09 02 2013  15 03  -21.0300 26104.4 -03382.5 -07.3830 26322.7
 09 02 2013  15 04  -21.0295 26104.3 -03382.6 -07.3833 26322.5
 09 02 2013  15 05  -21.0295 26104.2 -03382.8 -07.3838 26322.4
 09 02 2013  15 06  -21.0295 26103.8 -03382.9 -07.3840 26322.1
 09 02 2013  15 07  -21.0289 26103.3 -03382.8 -07.3839 26321.5
 09 02 2013  15 08  -21.0291 26103.4 -03383.1 -07.3847 26321.7
 09 02 2013  15 09  -21.0285 26103.0 -03383.2 -07.3848 26321.3
 09 02 2013  15 10  -21.0279 26102.8 -03383.3 -07.3851 26321.1
 09 02 2013  15 11  -21.0281 26103.0 -03383.6 -07.3857 26321.4
 09 02 2013  15 12  -21.0277 26102.6 -03383.5 -07.3856 26321.0
 09 02 2013  15 13  -21.0281 26102.5 -03383.6 -07.3859 26320.9
 09 02 2013  15 14  -21.0277 26102.1 -03383.5 -07.3858 26320.5
 09 02 2013  15 15  -21.0267 26101.1 -03383.3 -07.3856 26319.5
 09 02 2013  15 16  -21.0258 26101.0 -03383.5 -07.3861 26319.4
 09 02 2013  15 17  -21.0259 26101.2 -03383.8 -07.3867 26319.6
 09 02 2013  15 18  -21.0256 26101.0 -03383.9 -07.3869 26319.5
 09 02 2013  15 19  -21.0257 26100.8 -03383.9 -07.3870 26319.3
 09 02 2013  15 20  -21.0257 26100.4 -03383.8 -07.3870 26318.8
 09 02 2013  15 21  -21.0248 26100.1 -03383.8 -07.3869 26318.6
 09 02 2013  15 22  -21.0248 26099.6 -03383.6 -07.3868 26318.0
 09 02 2013  15 23  -21.0237 26099.0 -03383.5 -07.3867 26317.5
 09 02 2013  15 24  -21.0245 26099.6 -03384.0 -07.3876 26318.1
 09 02 2013  15 25  -21.0238 26099.2 -03383.8 -07.3873 26317.7
 09 02 2013  15 26  -21.0238 26098.7 -03383.7 -07.3871 26317.1
 09 02 2013  15 27  -21.0229 26098.0 -03383.5 -07.3869 26316.4
 09 02 2013  15 28  -21.0238 26098.4 -03383.9 -07.3876 26316.8
 09 02 2013  15 29  -21.0236 26098.6 -03384.0 -07.3879 26317.0
 09 02 2013  15 30  -21.0232 26097.9 -03383.8 -07.3875 26316.3
 09 02 2013  15 31  -21.0224 26098.2 -03384.0 -07.3880 26316.7
 09 02 2013  15 32  -21.0230 26098.1 -03384.0 -07.3881 26316.6
 09 02 2013  15 33  -21.0213 26097.1 -03383.6 -07.3875 26315.6
 09 02 2013  15 34  -21.0217 26097.4 -03384.0 -07.3882 26315.9
 09 02 2013  15 35  -21.0214 26097.0 -03383.8 -07.3880 26315.5
 09 02 2013  15 36  -21.0208 26096.2 -03383.6 -07.3877 26314.6
 09 02 2013  15 37  -21.0199 26095.2 -03383.3 -07.3874 26313.6
 09 02 2013  15 38  -21.0192 26094.9 -03383.6 -07.3879 26313.3
 09 02 2013  15 39  -21.0193 26095.0 -03383.9 -07.3887 26313.5
 09 02 2013  15 40  -21.0197 26094.8 -03384.0 -07.3889 26313.3
 09 02 2013  15 41  -21.0194 26094.0 -03383.8 -07.3888 26312.5
 09 02 2013  15 42  -21.0183 26093.6 -03383.8 -07.3888 26312.1
 09 02 2013  15 43  -21.0188 26093.5 -03384.1 -07.3895 26312.0
 09 02 2013  15 44  -21.0184 26093.5 -03384.3 -07.3899 26312.0
 09 02 2013  15 45  -21.0186 26093.6 -03384.4 -07.3902 26312.1
 09 02 2013  15 46  -21.0192 26093.1 -03384.3 -07.3900 26311.7
 09 02 2013  15 47  -21.0177 26092.2 -03384.0 -07.3896 26310.8
 09 02 2013  15 48  -21.0186 26092.6 -03384.4 -07.3904 26311.2
 09 02 2013  15 49  -21.0182 26092.2 -03384.3 -07.3903 26310.8
 09 02 2013  15 50  -21.0188 26092.1 -03384.4 -07.3906 26310.7
 09 02 2013  15 51  -21.0178 26091.5 -03384.2 -07.3902 26310.0
 09 02 2013  15 52  -21.0180 26091.9 -03384.5 -07.3907 26310.4
 09 02 2013  15 53  -21.0179 26090.7 -03384.0 -07.3901 26309.2
 09 02 2013  15 54  -21.0167 26090.5 -03384.0 -07.3900 26309.0
 09 02 2013  15 55  -21.0177 26090.6 -03384.1 -07.3904 26309.1
 09 02 2013  15 56  -21.0172 26089.7 -03383.7 -07.3897 26308.3
 09 02 2013  15 57  -21.0162 26088.7 -03383.3 -07.3890 26307.2
 09 02 2013  15 58  -21.0163 26088.8 -03383.5 -07.3894 26307.2
 09 02 2013  15 59  -21.0155 26088.6 -03383.4 -07.3895 26307.1
 09 02 2013  16 00  -21.0156 26088.4 -03383.4 -07.3895 26306.9
 09 02 2013  16 01  -21.0147 26088.1 -03383.3 -07.3893 26306.6
 09 02 2013  16 02  -21.0147 26088.4 -03383.5 -07.3896 26306.9
 09 02 2013  16 03  -21.0137 26088.2 -03383.3 -07.3893 26306.7
 09 02 2013  16 04  -21.0134 26087.9 -03383.1 -07.3890 26306.3
 09 02 2013  16 05  -21.0112 26087.1 -03382.8 -07.3884 26305.5
 09 02 2013  16 06  -21.0112 26087.3 -03383.0 -07.3889 26305.8
 09 02 2013  16 07  -21.0103 26086.9 -03382.9 -07.3887 26305.4
 09 02 2013  16 08  -21.0097 26086.8 -03382.9 -07.3888 26305.2
 09 02 2013  16 09  -21.0088 26086.5 -03382.8 -07.3887 26304.9
 09 02 2013  16 10  -21.0077 26086.0 -03382.7 -07.3886 26304.4
 09 02 2013  16 11  -21.0071 26086.3 -03383.0 -07.3891 26304.8
 09 02 2013  16 12  -21.0065 26085.9 -03382.9 -07.3890 26304.3
 09 02 2013  16 13  -21.0057 26086.4 -03383.1 -07.3894 26304.9
 09 02 2013  16 14  -21.0042 26085.7 -03382.8 -07.3889 26304.1
 09 02 2013  16 15  -21.0035 26085.8 -03383.0 -07.3893 26304.3
 09 02 2013  16 16  -21.0025 26085.6 -03382.9 -07.3892 26304.0
 09 02 2013  16 17  -21.0018 26085.3 -03383.0 -07.3893 26303.8
 09 02 2013  16 18  -21.0011 26085.0 -03382.9 -07.3894 26303.5
 09 02 2013  16 19  -21.0005 26084.8 -03383.0 -07.3895 26303.2
 09 02 2013  16 20  -20.9999 26084.0 -03382.8 -07.3892 26302.5
 09 02 2013  16 21  -20.9995 26084.1 -03383.0 -07.3898 26302.6
 09 02 2013  16 22  -20.9993 26084.0 -03383.1 -07.3900 26302.5
 09 02 2013  16 23  -20.9985 26083.8 -03383.1 -07.3901 26302.3
 09 02 2013  16 24  -20.9979 26083.6 -03383.1 -07.3901 26302.0
 09 02 2013  16 25  -20.9969 26083.2 -03383.0 -07.3900 26301.6
 09 02 2013  16 26  -20.9965 26083.0 -03383.1 -07.3903 26301.5
 09 02 2013  16 27  -20.9962 26082.6 -03383.1 -07.3905 26301.1
 09 02 2013  16 28  -20.9956 26082.4 -03383.2 -07.3907 26300.9
 09 02 2013  16 29  -20.9953 26082.2 -03383.3 -07.3909 26300.7
 09 02 2013  16 30  -20.9949 26081.9 -03383.3 -07.3911 26300.5
 09 02 2013  16 31  -20.9946 26081.6 -03383.3 -07.3912 26300.1
 09 02 2013  16 32  -20.9943 26081.3 -03383.4 -07.3914 26299.8
 09 02 2013  16 33  -20.9940 26080.9 -03383.3 -07.3914 26299.4
 09 02 2013  16 34  -20.9936 26080.5 -03383.3 -07.3915 26299.0
 09 02 2013  16 35  -20.9933 26080.1 -03383.3 -07.3915 26298.6
 09 02 2013  16 36  -20.9927 26079.8 -03383.3 -07.3917 26298.3
 09 02 2013  16 37  -20.9922 26079.4 -03383.3 -07.3918 26298.0
 09 02 2013  16 38  -20.9917 26079.0 -03383.3 -07.3919 26297.6
 09 02 2013  16 39  -20.9911 26078.7 -03383.3 -07.3920 26297.3
 09 02 2013  16 40  -20.9907 26078.5 -03383.4 -07.3922 26297.0
 09 02 2013  16 41  -20.9901 26078.1 -03383.4 -07.3923 26296.7
 09 02 2013  16 42  -20.9895 26077.8 -03383.4 -07.3924 26296.4
 09 02 2013  16 43  -20.9890 26077.6 -03383.5 -07.3926 26296.2
 09 02 2013  16 44  -20.9886 26077.4 -03383.6 -07.3928 26296.0
 09 02 2013  16 45  -20.9881 26077.2 -03383.7 -07.3931 26295.8
 09 02 2013  16 46  -20.9875 26076.9 -03383.7 -07.3933 26295.5
 09 02 2013  16 47  -20.9870 26076.6 -03383.7 -07.3934 26295.2
 09 02 2013  16 48  -20.9865 26076.1 -03383.7 -07.3936 26294.8
 09 02 2013  16 49  -20.9860 26075.8 -03383.8 -07.3938 26294.4
 09 02 2013  16 50  -20.9854 26075.5 -03383.9 -07.3941 26294.2
 09 02 2013  16 51  -20.9849 26075.2 -03383.9 -07.3943 26293.8
 09 02 2013  16 52  -20.9845 26074.7 -03384.0 -07.3945 26293.4
 09 02 2013  16 53  -20.9841 26074.4 -03384.1 -07.3949 26293.1
 09 02 2013  16 54  -20.9837 26074.1 -03384.2 -07.3952 26292.8
 09 02 2013  16 55  -20.9834 26073.8 -03384.3 -07.3955 26292.5
 09 02 2013  16 56  -20.9832 26073.6 -03384.4 -07.3958 26292.3
 09 02 2013  16 57  -20.9833 26073.4 -03384.6 -07.3962 26292.1
 09 02 2013  16 58  -20.9831 26073.1 -03384.6 -07.3963 26291.8
 09 02 2013  16 59  -20.9830 26072.8 -03384.7 -07.3966 26291.5
 09 02 2013  17 00  -20.9829 26072.5 -03384.8 -07.3969 26291.3
 09 02 2013  17 01  -20.9827 26072.1 -03384.8 -07.3971 26291.0
 09 02 2013  17 02  -20.9824 26071.9 -03385.0 -07.3974 26290.7
 09 02 2013  17 03  -20.9822 26071.6 -03385.1 -07.3977 26290.4
 09 02 2013  17 04  -20.9821 26071.3 -03385.2 -07.3981 26290.2
 09 02 2013  17 05  -20.9822 26071.1 -03385.4 -07.3985 26289.9
 09 02 2013  17 06  -20.9821 26070.7 -03385.5 -07.3988 26289.6
 09 02 2013  17 07  -20.9820 26070.5 -03385.6 -07.3992 26289.4
 09 02 2013  17 08  -20.9821 26070.2 -03385.7 -07.3995 26289.1
 09 02 2013  17 09  -20.9819 26069.9 -03385.8 -07.3998 26288.8
 09 02 2013  17 10  -20.9817 26069.7 -03386.0 -07.4002 26288.7
 09 02 2013  17 11  -20.9816 26069.5 -03386.1 -07.4006 26288.5
 09 02 2013  17 12  -20.9818 26069.5 -03386.3 -07.4011 26288.5
 09 02 2013  17 13  -20.9818 26069.3 -03386.5 -07.4015 26288.4
 09 02 2013  17 14  -20.9820 26069.2 -03386.6 -07.4018 26288.3
 09 02 2013  17 15  -20.9822 26069.1 -03386.8 -07.4021 26288.2
 09 02 2013  17 16  -20.9822 26068.7 -03386.8 -07.4023 26287.8
 09 02 2013  17 17  -20.9824 26068.5 -03386.9 -07.4026 26287.6
 09 02 2013  17 18  -20.9822 26068.1 -03386.9 -07.4028 26287.2
 09 02 2013  17 19  -20.9822 26067.7 -03387.1 -07.4031 26286.9
 09 02 2013  17 20  -20.9825 26067.6 -03387.3 -07.4036 26286.7
 09 02 2013  17 21  -20.9825 26067.3 -03387.4 -07.4039 26286.4
 09 02 2013  17 22  -20.9824 26066.9 -03387.4 -07.4042 26286.1
 09 02 2013  17 23  -20.9824 26066.7 -03387.6 -07.4045 26285.9
 09 02 2013  17 24  -20.9826 26066.4 -03387.7 -07.4049 26285.6
 09 02 2013  17 25  -20.9828 26066.2 -03387.8 -07.4053 26285.4
 09 02 2013  17 26  -20.9831 26065.9 -03387.9 -07.4055 26285.1
 09 02 2013  17 27  -20.9833 26065.7 -03388.1 -07.4059 26285.0
 09 02 2013  17 28  -20.9836 26065.5 -03388.2 -07.4063 26284.8
 09 02 2013  17 29  -20.9841 26065.4 -03388.4 -07.4066 26284.7
 09 02 2013  17 30  -20.9843 26065.1 -03388.4 -07.4068 26284.5
 09 02 2013  17 31  -20.9848 26065.0 -03388.6 -07.4072 26284.4
 09 02 2013  17 32  -20.9853 26065.0 -03388.7 -07.4075 26284.3
 09 02 2013  17 33  -20.9860 26064.8 -03388.8 -07.4077 26284.2
 09 02 2013  17 34  -20.9861 26064.7 -03388.9 -07.4079 26284.1
 09 02 2013  17 35  -20.9866 26064.5 -03388.9 -07.4081 26283.9
 09 02 2013  17 36  -20.9869 26064.4 -03389.0 -07.4083 26283.8
 09 02 2013  17 37  -20.9875 26064.3 -03389.2 -07.4086 26283.7
 09 02 2013  17 38  -20.9878 26064.2 -03389.2 -07.4088 26283.6
 09 02 2013  17 39  -20.9883 26064.0 -03389.3 -07.4091 26283.5
 09 02 2013  17 40  -20.9891 26064.0 -03389.4 -07.4093 26283.5
 09 02 2013  17 41  -20.9893 26063.9 -03389.5 -07.4094 26283.3
 09 02 2013  17 42  -20.9898 26063.7 -03389.5 -07.4096 26283.2
 09 02 2013  17 43  -20.9901 26063.5 -03389.5 -07.4097 26283.0
 09 02 2013  17 44  -20.9904 26063.2 -03389.6 -07.4098 26282.7
 09 02 2013  17 45  -20.9907 26063.1 -03389.7 -07.4101 26282.6
 09 02 2013  17 46  -20.9913 26063.0 -03389.8 -07.4103 26282.5
 09 02 2013  17 47  -20.9915 26062.7 -03389.7 -07.4103 26282.2
 09 02 2013  17 48  -20.9918 26062.6 -03389.8 -07.4106 26282.1
 09 02 2013  17 49  -20.9925 26062.5 -03389.9 -07.4108 26282.1
 09 02 2013  17 50  -20.9927 26062.4 -03390.0 -07.4109 26281.9
 09 02 2013  17 51  -20.9933 26062.3 -03390.1 -07.4112 26281.9
 09 02 2013  17 52  -20.9934 26062.2 -03390.1 -07.4113 26281.8
 09 02 2013  17 53  -20.9937 26062.2 -03390.2 -07.4115 26281.8
 09 02 2013  17 54  -20.9943 26062.2 -03390.3 -07.4117 26281.8
 09 02 2013  17 55  -20.9945 26062.3 -03390.4 -07.4119 26281.9
 09 02 2013  17 56  -20.9951 26062.3 -03390.6 -07.4122 26282.0
 09 02 2013  17 57  -20.9954 26062.4 -03390.6 -07.4123 26282.0
 09 02 2013  17 58  -20.9957 26062.3 -03390.6 -07.4124 26281.9
 09 02 2013  17 59  -20.9961 26062.2 -03390.6 -07.4124 26281.8
 09 02 2013  18 00  -20.9966 26062.1 -03390.7 -07.4125 26281.7
 09 02 2013  18 01  -20.9972 26062.0 -03390.7 -07.4126 26281.7
 09 02 2013  18 02  -20.9978 26061.9 -03390.7 -07.4126 26281.5
 09 02 2013  18 03  -20.9980 26061.3 -03390.5 -07.4124 26280.9
 09 02 2013  18 04  -20.9983 26061.0 -03390.5 -07.4125 26280.6
 09 02 2013  18 05  -20.9987 26060.7 -03390.5 -07.4126 26280.4
 09 02 2013  18 06  -20.9989 26060.4 -03390.5 -07.4127 26280.0
 09 02 2013  18 07  -20.9994 26060.2 -03390.6 -07.4130 26279.8
 09 02 2013  18 08  -20.9998 26060.2 -03390.8 -07.4133 26279.9
 09 02 2013  18 09  -21.0001 26060.1 -03390.8 -07.4134 26279.7
 09 02 2013  18 10  -21.0006 26060.0 -03390.9 -07.4136 26279.7
 09 02 2013  18 11  -21.0011 26060.0 -03391.1 -07.4139 26279.8
 09 02 2013  18 12  -21.0016 26059.8 -03391.1 -07.4140 26279.5
 09 02 2013  18 13  -21.0019 26059.5 -03391.0 -07.4139 26279.2
 09 02 2013  18 14  -21.0022 26059.3 -03391.0 -07.4140 26279.0
 09 02 2013  18 15  -21.0023 26059.0 -03390.9 -07.4140 26278.7
 09 02 2013  18 16  -21.0026 26058.6 -03390.9 -07.4141 26278.4
 09 02 2013  18 17  -21.0031 26058.5 -03391.0 -07.4142 26278.2
 09 02 2013  18 18  -21.0034 26058.3 -03391.0 -07.4144 26278.1
 09 02 2013  18 19  -21.0037 26058.2 -03391.1 -07.4146 26278.0
 09 02 2013  18 20  -21.0039 26058.0 -03391.1 -07.4146 26277.8
 09 02 2013  18 21  -21.0045 26058.1 -03391.3 -07.4149 26277.9
 09 02 2013  18 22  -21.0049 26058.2 -03391.4 -07.4151 26277.9
 09 02 2013  18 23  -21.0052 26058.1 -03391.4 -07.4152 26277.8
 09 02 2013  18 24  -21.0055 26057.9 -03391.4 -07.4152 26277.7
 09 02 2013  18 25  -21.0056 26058.1 -03391.5 -07.4155 26277.9
 09 02 2013  18 26  -21.0063 26058.1 -03391.6 -07.4157 26277.9
 09 02 2013  18 27  -21.0063 26057.8 -03391.5 -07.4155 26277.6
 09 02 2013  18 28  -21.0068 26057.9 -03391.6 -07.4156 26277.6
 09 02 2013  18 29  -21.0071 26057.9 -03391.6 -07.4157 26277.7
 09 02 2013  18 30  -21.0073 26057.9 -03391.6 -07.4158 26277.7
 09 02 2013  18 31  -21.0080 26057.9 -03391.8 -07.4160 26277.7
 09 02 2013  18 32  -21.0081 26057.9 -03391.8 -07.4161 26277.7
 09 02 2013  18 33  -21.0082 26057.6 -03391.7 -07.4160 26277.5
 09 02 2013  18 34  -21.0085 26057.6 -03391.7 -07.4161 26277.4
 09 02 2013  18 35  -21.0089 26057.5 -03391.7 -07.4161 26277.3
 09 02 2013  18 36  -21.0093 26057.7 -03391.9 -07.4164 26277.6
 09 02 2013  18 37  -21.0094 26057.6 -03391.9 -07.4164 26277.5
 09 02 2013  18 38  -21.0096 26057.5 -03391.9 -07.4164 26277.4
 09 02 2013  18 39  -21.0101 26057.4 -03391.9 -07.4165 26277.3
 09 02 2013  18 40  -21.0100 26057.6 -03392.0 -07.4168 26277.4
 09 02 2013  18 41  -21.0104 26057.6 -03392.2 -07.4170 26277.5
 09 02 2013  18 42  -21.0105 26057.2 -03392.0 -07.4168 26277.1
 09 02 2013  18 43  -21.0107 26057.6 -03392.3 -07.4172 26277.4
 09 02 2013  18 44  -21.0109 26057.3 -03392.2 -07.4171 26277.2
 09 02 2013  18 45  -21.0111 26057.1 -03392.2 -07.4172 26277.0
 09 02 2013  18 46  -21.0115 26057.1 -03392.3 -07.4174 26277.0
 09 02 2013  18 47  -21.0119 26056.7 -03392.2 -07.4173 26276.6
 09 02 2013  18 48  -21.0123 26056.8 -03392.4 -07.4177 26276.7
 09 02 2013  18 49  -21.0127 26056.8 -03392.4 -07.4178 26276.8
 09 02 2013  18 50  -21.0128 26056.7 -03392.4 -07.4179 26276.6
 09 02 2013  18 51  -21.0131 26056.7 -03392.6 -07.4181 26276.6
 09 02 2013  18 52  -21.0135 26056.6 -03392.6 -07.4182 26276.5
 09 02 2013  18 53  -21.0139 26056.5 -03392.6 -07.4183 26276.5
 09 02 2013  18 54  -21.0144 26056.4 -03392.7 -07.4184 26276.4
 09 02 2013  18 55  -21.0148 26056.5 -03392.8 -07.4186 26276.5
 09 02 2013  18 56  -21.0151 26056.4 -03392.8 -07.4187 26276.4
 09 02 2013  18 57  -21.0154 26056.4 -03392.9 -07.4188 26276.4
 09 02 2013  18 58  -21.0159 26056.5 -03393.0 -07.4190 26276.5
 09 02 2013  18 59  -21.0163 26056.2 -03392.9 -07.4189 26276.2
 09 02 2013  19 00  -21.0168 26055.9 -03392.8 -07.4188 26275.9
 09 02 2013  19 01  -21.0172 26055.8 -03392.8 -07.4188 26275.7
 09 02 2013  19 02  -21.0176 26055.8 -03392.8 -07.4189 26275.8
 09 02 2013  19 03  -21.0180 26055.8 -03392.8 -07.4189 26275.8
 09 02 2013  19 04  -21.0185 26055.7 -03392.8 -07.4188 26275.6
 09 02 2013  19 05  -21.0188 26055.5 -03392.7 -07.4187 26275.4
 09 02 2013  19 06  -21.0191 26055.3 -03392.6 -07.4186 26275.2
 09 02 2013  19 07  -21.0196 26054.8 -03392.4 -07.4184 26274.7
 09 02 2013  19 08  -21.0199 26054.8 -03392.5 -07.4185 26274.7
 09 02 2013  19 09  -21.0204 26054.7 -03392.4 -07.4184 26274.6
 09 02 2013  19 10  -21.0205 26054.6 -03392.3 -07.4182 26274.5
 09 02 2013  19 11  -21.0208 26054.6 -03392.4 -07.4184 26274.6
 09 02 2013  19 12  -21.0212 26054.9 -03392.6 -07.4187 26274.9
 09 02 2013  19 13  -21.0216 26055.0 -03392.6 -07.4187 26275.0
 09 02 2013  19 14  -21.0216 26054.8 -03392.4 -07.4184 26274.7
 09 02 2013  19 15  -21.0219 26054.8 -03392.5 -07.4185 26274.7
 09 02 2013  19 16  -21.0224 26054.8 -03392.4 -07.4184 26274.7
 09 02 2013  19 17  -21.0226 26054.8 -03392.4 -07.4184 26274.7
 09 02 2013  19 18  -21.0228 26054.6 -03392.3 -07.4182 26274.5
 09 02 2013  19 19  -21.0232 26054.8 -03392.4 -07.4184 26274.7
 09 02 2013  19 20  -21.0235 26054.7 -03392.4 -07.4183 26274.6
 09 02 2013  19 21  -21.0237 26054.8 -03392.4 -07.4183 26274.8
 09 02 2013  19 22  -21.0239 26054.9 -03392.4 -07.4183 26274.8
 09 02 2013  19 23  -21.0241 26054.9 -03392.4 -07.4183 26274.8
 09 02 2013  19 24  -21.0244 26055.0 -03392.4 -07.4183 26274.9
 09 02 2013  19 25  -21.0247 26055.1 -03392.5 -07.4183 26275.1
 09 02 2013  19 26  -21.0249 26055.0 -03392.4 -07.4182 26275.0
 09 02 2013  19 27  -21.0251 26055.0 -03392.3 -07.4181 26274.9
 09 02 2013  19 28  -21.0253 26055.0 -03392.3 -07.4180 26275.0
 09 02 2013  19 29  -21.0255 26055.0 -03392.2 -07.4178 26274.9
 09 02 2013  19 30  -21.0258 26055.0 -03392.2 -07.4178 26274.9
 09 02 2013  19 31  -21.0259 26054.9 -03392.1 -07.4177 26274.8
 09 02 2013  19 32  -21.0259 26055.1 -03392.1 -07.4176 26275.0
 09 02 2013  19 33  -21.0263 26055.0 -03392.1 -07.4176 26274.8
 09 02 2013  19 34  -21.0262 26054.8 -03391.9 -07.4173 26274.7
 09 02 2013  19 35  -21.0261 26055.0 -03392.0 -07.4173 26274.8
 09 02 2013  19 36  -21.0263 26054.8 -03391.8 -07.4170 26274.7
 09 02 2013  19 37  -21.0263 26054.9 -03391.8 -07.4170 26274.7
 09 02 2013  19 38  -21.0261 26054.9 -03391.7 -07.4169 26274.7
 09 02 2013  19 39  -21.0263 26054.9 -03391.8 -07.4169 26274.7
 09 02 2013  19 40  -21.0262 26054.7 -03391.6 -07.4166 26274.5
 09 02 2013  19 41  -21.0259 26055.0 -03391.8 -07.4169 26274.9
 09 02 2013  19 42  -21.0261 26054.8 -03391.6 -07.4166 26274.6
 09 02 2013  19 43  -21.0257 26054.8 -03391.6 -07.4165 26274.6
 09 02 2013  19 44  -21.0258 26054.8 -03391.6 -07.4165 26274.6
 09 02 2013  19 45  -21.0258 26054.8 -03391.6 -07.4165 26274.6
 09 02 2013  19 46  -21.0254 26054.8 -03391.6 -07.4165 26274.7
 09 02 2013  19 47  -21.0254 26054.8 -03391.5 -07.4164 26274.6
 09 02 2013  19 48  -21.0251 26054.6 -03391.4 -07.4162 26274.4
 09 02 2013  19 49  -21.0249 26054.7 -03391.5 -07.4163 26274.5
 09 02 2013  19 50  -21.0249 26054.4 -03391.3 -07.4161 26274.2
 09 02 2013  19 51  -21.0246 26054.5 -03391.4 -07.4161 26274.3
 09 02 2013  19 52  -21.0245 26054.4 -03391.3 -07.4161 26274.2
 09 02 2013  19 53  -21.0243 26054.5 -03391.4 -07.4162 26274.3
 09 02 2013  19 54  -21.0245 26054.7 -03391.5 -07.4164 26274.5
 09 02 2013  19 55  -21.0244 26054.3 -03391.3 -07.4160 26274.1
 09 02 2013  19 56  -21.0243 26054.5 -03391.3 -07.4161 26274.2
 09 02 2013  19 57  -21.0238 26054.6 -03391.4 -07.4162 26274.4
 09 02 2013  19 58  -21.0238 26054.7 -03391.5 -07.4164 26274.5
 09 02 2013  19 59  -21.0240 26054.6 -03391.5 -07.4163 26274.4
 09 02 2013  20 00  -21.0237 26054.5 -03391.3 -07.4161 26274.3
 09 02 2013  20 01  -21.0235 26054.6 -03391.4 -07.4162 26274.4
 09 02 2013  20 02  -21.0237 26054.4 -03391.3 -07.4160 26274.2
 09 02 2013  20 03  -21.0238 26054.6 -03391.3 -07.4161 26274.3
 09 02 2013  20 04  -21.0236 26054.5 -03391.3 -07.4159 26274.3
 09 02 2013  20 05  -21.0236 26054.5 -03391.2 -07.4159 26274.3
 09 02 2013  20 06  -21.0232 26054.6 -03391.2 -07.4158 26274.4
 09 02 2013  20 07  -21.0234 26054.7 -03391.3 -07.4159 26274.4
 09 02 2013  20 08  -21.0235 26054.5 -03391.2 -07.4157 26274.3
 09 02 2013  20 09  -21.0234 26054.4 -03391.1 -07.4155 26274.2
 09 02 2013  20 10  -21.0233 26054.8 -03391.2 -07.4158 26274.5
 09 02 2013  20 11  -21.0234 26054.7 -03391.2 -07.4157 26274.5
 09 02 2013  20 12  -21.0232 26054.9 -03391.2 -07.4158 26274.7
 09 02 2013  20 13  -21.0230 26054.9 -03391.2 -07.4157 26274.7
 09 02 2013  20 14  -21.0230 26054.9 -03391.1 -07.4156 26274.6
 09 02 2013  20 15  -21.0229 26055.0 -03391.2 -07.4156 26274.8
 09 02 2013  20 16  -21.0228 26055.1 -03391.2 -07.4156 26274.9
 09 02 2013  20 17  -21.0225 26055.0 -03391.1 -07.4153 26274.8
 09 02 2013  20 18  -21.0223 26055.2 -03391.1 -07.4155 26275.0
 09 02 2013  20 19  -21.0221 26055.2 -03391.1 -07.4154 26274.9
 09 02 2013  20 20  -21.0220 26055.2 -03391.1 -07.4154 26274.9
 09 02 2013  20 21  -21.0216 26055.4 -03391.1 -07.4154 26275.1
 09 02 2013  20 22  -21.0212 26055.5 -03391.2 -07.4155 26275.3
 09 02 2013  20 23  -21.0210 26055.5 -03391.2 -07.4156 26275.3
 09 02 2013  20 24  -21.0205 26055.3 -03391.1 -07.4154 26275.1
 09 02 2013  20 25  -21.0201 26055.7 -03391.3 -07.4156 26275.5
 09 02 2013  20 26  -21.0200 26055.3 -03391.1 -07.4154 26275.1
 09 02 2013  20 27  -21.0195 26055.4 -03391.1 -07.4154 26275.1
 09 02 2013  20 28  -21.0191 26055.4 -03391.2 -07.4156 26275.2
 09 02 2013  20 29  -21.0186 26055.8 -03391.4 -07.4159 26275.6
 09 02 2013  20 30  -21.0183 26055.9 -03391.5 -07.4161 26275.7
 09 02 2013  20 31  -21.0182 26056.1 -03391.6 -07.4163 26275.9
 09 02 2013  20 32  -21.0180 26056.3 -03391.8 -07.4165 26276.1
 09 02 2013  20 33  -21.0180 26056.4 -03391.9 -07.4168 26276.3
 09 02 2013  20 34  -21.0179 26056.5 -03392.0 -07.4169 26276.4
 09 02 2013  20 35  -21.0177 26056.7 -03392.0 -07.4170 26276.5
 09 02 2013  20 36  -21.0177 26057.0 -03392.3 -07.4174 26276.8
 09 02 2013  20 37  -21.0175 26057.0 -03392.3 -07.4175 26276.9
 09 02 2013  20 38  -21.0174 26056.8 -03392.2 -07.4174 26276.7
 09 02 2013  20 39  -21.0172 26056.8 -03392.3 -07.4175 26276.7
 09 02 2013  20 40  -21.0169 26057.0 -03392.4 -07.4178 26276.9
 09 02 2013  20 41  -21.0165 26057.1 -03392.5 -07.4179 26277.0
 09 02 2013  20 42  -21.0158 26057.2 -03392.6 -07.4181 26277.2
 09 02 2013  20 43  -21.0154 26057.5 -03392.8 -07.4183 26277.4
 09 02 2013  20 44  -21.0150 26057.7 -03392.9 -07.4186 26277.6
 09 02 2013  20 45  -21.0146 26057.9 -03393.0 -07.4188 26277.8
 09 02 2013  20 46  -21.0140 26058.0 -03393.1 -07.4190 26278.0
 09 02 2013  20 47  -21.0134 26058.4 -03393.4 -07.4194 26278.5
 09 02 2013  20 48  -21.0128 26058.6 -03393.5 -07.4196 26278.6
 09 02 2013  20 49  -21.0123 26058.7 -03393.6 -07.4199 26278.7
 09 02 2013  20 50  -21.0119 26058.6 -03393.6 -07.4198 26278.6
 09 02 2013  20 51  -21.0115 26058.6 -03393.7 -07.4200 26278.7
 09 02 2013  20 52  -21.0113 26058.6 -03393.7 -07.4201 26278.7
 09 02 2013  20 53  -21.0112 26058.6 -03393.8 -07.4203 26278.7
 09 02 2013  20 54  -21.0110 26058.6 -03393.9 -07.4204 26278.7
 09 02 2013  20 55  -21.0107 26058.7 -03393.9 -07.4205 26278.8
 09 02 2013  20 56  -21.0105 26058.5 -03393.9 -07.4206 26278.6
 09 02 2013  20 57  -21.0102 26058.6 -03394.0 -07.4207 26278.7
 09 02 2013  20 58  -21.0100 26058.7 -03394.2 -07.4210 26278.8
 09 02 2013  20 59  -21.0097 26058.7 -03394.2 -07.4212 26278.8
 09 02 2013  21 00  -21.0095 26058.7 -03394.3 -07.4214 26278.9
 09 02 2013  21 01  -21.0094 26058.6 -03394.4 -07.4214 26278.8
 09 02 2013  21 02  -21.0092 26058.6 -03394.4 -07.4215 26278.7
 09 02 2013  21 03  -21.0089 26058.6 -03394.4 -07.4217 26278.7
 09 02 2013  21 04  -21.0087 26058.6 -03394.5 -07.4218 26278.8
 09 02 2013  21 05  -21.0085 26058.7 -03394.7 -07.4221 26278.8
 09 02 2013  21 06  -21.0082 26058.5 -03394.7 -07.4222 26278.7
 09 02 2013  21 07  -21.0080 26058.4 -03394.7 -07.4223 26278.6
 09 02 2013  21 08  -21.0077 26058.4 -03394.8 -07.4225 26278.6
 09 02 2013  21 09  -21.0076 26058.3 -03394.9 -07.4227 26278.6
 09 02 2013  21 10  -21.0074 26058.3 -03394.9 -07.4228 26278.5
 09 02 2013  21 11  -21.0071 26058.2 -03395.0 -07.4230 26278.4
 09 02 2013  21 12  -21.0069 26058.0 -03395.0 -07.4231 26278.2
 09 02 2013  21 13  -21.0066 26057.9 -03395.1 -07.4233 26278.2
 09 02 2013  21 14  -21.0062 26057.8 -03395.2 -07.4235 26278.1
 09 02 2013  21 15  -21.0059 26057.7 -03395.3 -07.4237 26278.0
 09 02 2013  21 16  -21.0056 26057.6 -03395.3 -07.4239 26277.9
 09 02 2013  21 17  -21.0053 26057.6 -03395.5 -07.4242 26277.9
 09 02 2013  21 18  -21.0050 26057.5 -03395.6 -07.4245 26277.9
 09 02 2013  21 19  -21.0049 26057.4 -03395.7 -07.4248 26277.8
 09 02 2013  21 20  -21.0047 26057.3 -03395.8 -07.4250 26277.6
 09 02 2013  21 21  -21.0046 26057.0 -03395.9 -07.4252 26277.4
 09 02 2013  21 22  -21.0045 26056.9 -03396.0 -07.4255 26277.3
 09 02 2013  21 23  -21.0045 26056.8 -03396.1 -07.4258 26277.2
 09 02 2013  21 24  -21.0045 26056.7 -03396.2 -07.4261 26277.1
 09 02 2013  21 25  -21.0044 26056.6 -03396.3 -07.4263 26277.0
 09 02 2013  21 26  -21.0043 26056.5 -03396.5 -07.4266 26277.0
 09 02 2013  21 27  -21.0043 26056.5 -03396.6 -07.4269 26276.9
 09 02 2013  21 28  -21.0043 26056.5 -03396.8 -07.4273 26277.0
 09 02 2013  21 29  -21.0043 26056.5 -03397.0 -07.4277 26277.0
 09 02 2013  21 30  -21.0043 26056.6 -03397.2 -07.4281 26277.1
 09 02 2013  21 31  -21.0041 26056.8 -03397.4 -07.4286 26277.4
 09 02 2013  21 32  -21.0040 26056.8 -03397.6 -07.4289 26277.4
 09 02 2013  21 33  -21.0041 26056.8 -03397.7 -07.4291 26277.4
 09 02 2013  21 34  -21.0042 26056.9 -03397.8 -07.4294 26277.5
 09 02 2013  21 35  -21.0043 26056.7 -03397.8 -07.4295 26277.3
 09 02 2013  21 36  -21.0046 26056.5 -03397.9 -07.4296 26277.1
 09 02 2013  21 37  -21.0048 26056.4 -03397.9 -07.4297 26277.0
 09 02 2013  21 38  -21.0050 26056.2 -03397.9 -07.4297 26276.8
 09 02 2013  21 39  -21.0051 26056.2 -03397.9 -07.4298 26276.9
 09 02 2013  21 40  -21.0051 26056.0 -03397.9 -07.4298 26276.6
 09 02 2013  21 41  -21.0053 26055.8 -03397.8 -07.4296 26276.4
 09 02 2013  21 42  -21.0053 26055.6 -03397.7 -07.4296 26276.2
 09 02 2013  21 43  -21.0053 26055.5 -03397.7 -07.4296 26276.1
 09 02 2013  21 44  -21.0052 26055.3 -03397.7 -07.4297 26276.0
 09 02 2013  21 45  -21.0052 26055.1 -03397.7 -07.4297 26275.7
 09 02 2013  21 46  -21.0053 26054.9 -03397.7 -07.4297 26275.5
 09 02 2013  21 47  -21.0052 26054.6 -03397.6 -07.4296 26275.2
 09 02 2013  21 48  -21.0052 26054.5 -03397.6 -07.4296 26275.1
 09 02 2013  21 49  -21.0051 26054.4 -03397.6 -07.4297 26275.0
 09 02 2013  21 50  -21.0051 26054.4 -03397.7 -07.4299 26275.0
 09 02 2013  21 51  -21.0050 26054.3 -03397.8 -07.4300 26275.0
 09 02 2013  21 52  -21.0050 26054.3 -03397.8 -07.4302 26275.0
 09 02 2013  21 53  -21.0048 26054.3 -03397.9 -07.4303 26274.9
 09 02 2013  21 54  -21.0048 26054.2 -03397.9 -07.4304 26274.8
 09 02 2013  21 55  -21.0047 26054.1 -03397.9 -07.4305 26274.7
 09 02 2013  21 56  -21.0046 26054.0 -03398.0 -07.4305 26274.6
 09 02 2013  21 57  -21.0046 26053.9 -03398.0 -07.4307 26274.6
 09 02 2013  21 58  -21.0046 26053.8 -03398.0 -07.4307 26274.5
 09 02 2013  21 59  -21.0047 26053.6 -03398.0 -07.4308 26274.3
 09 02 2013  22 00  -21.0047 26053.4 -03398.0 -07.4308 26274.1
 09 02 2013  22 01  -21.0047 26053.2 -03398.0 -07.4308 26273.8
 09 02 2013  22 02  -21.0048 26053.0 -03397.9 -07.4307 26273.6
 09 02 2013  22 03  -21.0048 26052.9 -03397.9 -07.4307 26273.5
 09 02 2013  22 04  -21.0047 26053.1 -03398.0 -07.4310 26273.7
 09 02 2013  22 05  -21.0046 26053.3 -03398.3 -07.4314 26274.0
 09 02 2013  22 06  -21.0046 26053.3 -03398.4 -07.4316 26274.0
 09 02 2013  22 07  -21.0045 26053.3 -03398.4 -07.4317 26274.0
 09 02 2013  22 08  -21.0044 26053.5 -03398.5 -07.4319 26274.2
 09 02 2013  22 09  -21.0043 26053.6 -03398.6 -07.4321 26274.3
 09 02 2013  22 10  -21.0042 26053.6 -03398.7 -07.4323 26274.4
 09 02 2013  22 11  -21.0044 26053.5 -03398.7 -07.4322 26274.2
 09 02 2013  22 12  -21.0046 26053.3 -03398.6 -07.4322 26274.0
 09 02 2013  22 13  -21.0049 26053.1 -03398.5 -07.4321 26273.8
 09 02 2013  22 14  -21.0050 26052.9 -03398.5 -07.4320 26273.7
 09 02 2013  22 15  -21.0051 26053.0 -03398.5 -07.4321 26273.7
 09 02 2013  22 16  -21.0052 26053.0 -03398.6 -07.4322 26273.8
 09 02 2013  22 17  -21.0052 26053.1 -03398.6 -07.4323 26273.8
 09 02 2013  22 18  -21.0052 26053.1 -03398.7 -07.4324 26273.8
 09 02 2013  22 19  -21.0054 26053.1 -03398.7 -07.4324 26273.8
 09 02 2013  22 20  -21.0054 26053.0 -03398.7 -07.4324 26273.7
 09 02 2013  22 21  -21.0058 26052.5 -03398.5 -07.4322 26273.3
 09 02 2013  22 22  -21.0059 26052.4 -03398.5 -07.4321 26273.2
 09 02 2013  22 23  -21.0061 26052.5 -03398.5 -07.4322 26273.3
 09 02 2013  22 24  -21.0060 26052.6 -03398.5 -07.4322 26273.3
 09 02 2013  22 25  -21.0061 26052.5 -03398.6 -07.4323 26273.2
 09 02 2013  22 26  -21.0061 26052.3 -03398.5 -07.4321 26273.0
 09 02 2013  22 27  -21.0062 26052.1 -03398.4 -07.4320 26272.8
 09 02 2013  22 28  -21.0064 26052.0 -03398.3 -07.4320 26272.7
 09 02 2013  22 29  -21.0064 26051.8 -03398.3 -07.4319 26272.5
 09 02 2013  22 30  -21.0063 26051.5 -03398.2 -07.4317 26272.2
 09 02 2013  22 31  -21.0063 26051.4 -03398.2 -07.4317 26272.1
 09 02 2013  22 32  -21.0063 26051.5 -03398.2 -07.4318 26272.2
 09 02 2013  22 33  -21.0063 26051.3 -03398.2 -07.4318 26272.0
 09 02 2013  22 34  -21.0063 26051.3 -03398.2 -07.4318 26272.0
 09 02 2013  22 35  -21.0062 26051.5 -03398.3 -07.4320 26272.2
 09 02 2013  22 36  -21.0061 26051.5 -03398.4 -07.4322 26272.2
 09 02 2013  22 37  -21.0059 26051.6 -03398.4 -07.4323 26272.3
 09 02 2013  22 38  -21.0058 26051.7 -03398.5 -07.4323 26272.4
 09 02 2013  22 39  -21.0057 26051.7 -03398.5 -07.4324 26272.4
 09 02 2013  22 40  -21.0057 26051.8 -03398.5 -07.4324 26272.5
 09 02 2013  22 41  -21.0055 26051.7 -03398.6 -07.4325 26272.4
 09 02 2013  22 42  -21.0055 26051.8 -03398.6 -07.4325 26272.5
 09 02 2013  22 43  -21.0056 26051.8 -03398.6 -07.4326 26272.5
 09 02 2013  22 44  -21.0056 26051.8 -03398.6 -07.4326 26272.5
 09 02 2013  22 45  -21.0055 26051.8 -03398.6 -07.4326 26272.5
 09 02 2013  22 46  -21.0055 26051.7 -03398.6 -07.4325 26272.4
 09 02 2013  22 47  -21.0054 26051.6 -03398.5 -07.4325 26272.3
 09 02 2013  22 48  -21.0055 26051.5 -03398.5 -07.4324 26272.3
 09 02 2013  22 49  -21.0057 26051.3 -03398.4 -07.4323 26272.1
 09 02 2013  22 50  -21.0059 26051.1 -03398.3 -07.4322 26271.8
 09 02 2013  22 51  -21.0061 26051.0 -03398.3 -07.4321 26271.7
 09 02 2013  22 52  -20.8939 26070.2 -03342.6 -07.3063 26283.6
 09 02 2013  22 53  -20.8998 26057.5 -03320.9 -07.2628 26268.3
 09 02 2013  22 54  -20.8998 26057.5 -03320.9 -07.2628 26268.3
 09 02 2013  22 55  -20.8998 26057.5 -03320.9 -07.2628 26268.3
 09 02 2013  22 56  -20.8998 26057.5 -03320.9 -07.2628 26268.3
 09 02 2013  22 57  -20.8998 26057.5 -03320.9 -07.2628 26268.3
 09 02 2013  22 58  -20.8998 26057.5 -03320.9 -07.2628 26268.3
 09 02 2013  22 59  -20.8998 26057.5 -03320.9 -07.2628 26268.3
 09 02 2013  23 00  -20.8998 26057.5 -03320.9 -07.2628 26268.3
 09 02 2013  23 01  -20.8998 26057.5 -03320.9 -07.2628 26268.3
 09 02 2013  23 02  -20.8998 26057.5 -03320.9 -07.2628 26268.3
 09 02 2013  23 03  -20.8998 26057.5 -03320.9 -07.2628 26268.3
 09 02 2013  23 04  -20.8998 26057.5 -03320.9 -07.2628 26268.3
 09 02 2013  23 05  -20.8998 26057.5 -03320.9 -07.2628 26268.3
 09 02 2013  23 06  -20.8998 26057.5 -03320.9 -07.2628 26268.3
 09 02 2013  23 07  -20.8998 26057.5 -03320.9 -07.2628 26268.3
 09 02 2013  23 08  -20.8998 26057.5 -03320.9 -07.2628 26268.3
 09 02 2013  23 09  -20.8998 26057.5 -03320.9 -07.2628 26268.3
 09 02 2013  23 10  -20.8998 26057.5 -03320.9 -07.2628 26268.3
 09 02 2013  23 11  -20.8998 26057.5 -03320.9 -07.2628 26268.3
 09 02 2013  23 12  -20.8998 26057.5 -03320.9 -07.2628 26268.3
 09 02 2013  23 13  -20.8998 26057.5 -03320.9 -07.2628 26268.3
 09 02 2013  23 14  -20.8998 26057.5 -03320.9 -07.2628 26268.3
 09 02 2013  23 15  -20.8998 26057.5 -03320.9 -07.2628 26268.3
 09 02 2013  23 16  -20.8998 26057.5 -03320.9 -07.2628 26268.3
 09 02 2013  23 17  -20.8998 26057.5 -03320.9 -07.2628 26268.3
 09 02 2013  23 18  -20.8998 26057.5 -03320.9 -07.2628 26268.3
 09 02 2013  23 19  -20.8998 26057.5 -03320.9 -07.2628 26268.3
 09 02 2013  23 20  -20.8998 26057.5 -03320.9 -07.2628 26268.3
 09 02 2013  23 21  -20.8998 26057.5 -03320.9 -07.2628 26268.3
 09 02 2013  23 22  -20.8998 26057.5 -03320.9 -07.2628 26268.3
 09 02 2013  23 23  -20.8998 26057.5 -03320.9 -07.2628 26268.3
 09 02 2013  23 24  -20.8998 26057.5 -03320.9 -07.2628 26268.3
 09 02 2013  23 25  -20.8998 26057.5 -03320.9 -07.2628 26268.3
 09 02 2013  23 26  -20.8998 26057.5 -03320.9 -07.2628 26268.3
 09 02 2013  23 27  -20.8998 26057.5 -03320.9 -07.2628 26268.3
 09 02 2013  23 28  -20.8998 26057.5 -03320.9 -07.2628 26268.3
 09 02 2013  23 29  -20.8998 26057.5 -03320.9 -07.2628 26268.3
 09 02 2013  23 30  -20.8998 26057.5 -03320.9 -07.2628 26268.3
 09 02 2013  23 31  -20.8998 26057.5 -03320.9 -07.2628 26268.3
 09 02 2013  23 32  -20.8998 26057.5 -03320.9 -07.2628 26268.3
 09 02 2013  23 33  -20.8998 26057.5 -03320.9 -07.2628 26268.3
 09 02 2013  23 34  -20.8998 26057.5 -03320.9 -07.2628 26268.3
 09 02 2013  23 35  -20.8998 26057.5 -03320.9 -07.2628 26268.3
 09 02 2013  23 36  -20.8998 26057.5 -03320.9 -07.2628 26268.3
 09 02 2013  23 37  -20.8998 26057.5 -03320.9 -07.2628 26268.3
 09 02 2013  23 38  -20.8998 26057.5 -03320.9 -07.2628 26268.3
 09 02 2013  23 39  -20.8998 26057.5 -03320.9 -07.2628 26268.3
 09 02 2013  23 40  -20.8998 26057.5 -03320.9 -07.2628 26268.3
 09 02 2013  23 41  -20.8998 26057.5 -03320.9 -07.2628 26268.3
 09 02 2013  23 42  -20.8998 26057.5 -03320.9 -07.2628 26268.3
 09 02 2013  23 43  -20.8998 26057.5 -03320.9 -07.2628 26268.3
 09 02 2013  23 44  -20.8998 26057.5 -03320.9 -07.2628 26268.3
 09 02 2013  23 45  -20.8998 26057.5 -03320.9 -07.2628 26268.3
 09 02 2013  23 46  -20.8998 26057.5 -03320.9 -07.2628 26268.3
 09 02 2013  23 47  -20.8998 26057.5 -03320.9 -07.2628 26268.3
 09 02 2013  23 48  -20.8998 26057.5 -03320.9 -07.2628 26268.3
 09 02 2013  23 49  -20.8998 26057.5 -03320.9 -07.2628 26268.3
 09 02 2013  23 50  -20.8998 26057.5 -03320.9 -07.2628 26268.3
 09 02 2013  23 51  -20.8998 26057.5 -03320.9 -07.2628 26268.3
 09 02 2013  23 52  -20.8998 26057.5 -03320.9 -07.2628 26268.3
 09 02 2013  23 53  -20.8998 26057.5 -03320.9 -07.2628 26268.3
 09 02 2013  23 54  -20.8998 26057.5 -03320.9 -07.2628 26268.3
 09 02 2013  23 55  -20.8998 26057.5 -03320.9 -07.2628 26268.3
 09 02 2013  23 56  -20.8998 26057.5 -03320.9 -07.2628 26268.3
 09 02 2013  23 57  -20.8998 26057.5 -03320.9 -07.2628 26268.3
