SAO LUIS EMBRACE-03 <095> 1 Min. Reported data

 DD MM YYYY  HH MM   D(Deg)  H(nT)   Z(nT)   I(Deg)   F(nT)

 05 04 2013  00 00  -21.0484 26030.3 -03425.8 -07.4975 26254.7
 05 04 2013  00 01  -21.0484 26030.4 -03425.8 -07.4975 26254.9
 05 04 2013  00 02  -21.0483 26030.2 -03425.8 -07.4975 26254.7
 05 04 2013  00 03  -21.0482 26030.4 -03425.9 -07.4976 26254.9
 05 04 2013  00 04  -21.0481 26030.2 -03425.8 -07.4975 26254.7
 05 04 2013  00 05  -21.0481 26030.1 -03425.8 -07.4975 26254.6
 05 04 2013  00 06  -21.0478 26030.3 -03425.9 -07.4977 26254.8
 05 04 2013  00 07  -21.0477 26030.1 -03425.8 -07.4975 26254.5
 05 04 2013  00 08  -21.0476 26030.0 -03425.8 -07.4975 26254.5
 05 04 2013  00 09  -21.0475 26030.0 -03425.8 -07.4975 26254.4
 05 04 2013  00 10  -21.0475 26029.9 -03425.8 -07.4976 26254.4
 05 04 2013  00 11  -21.0474 26030.0 -03425.9 -07.4977 26254.5
 05 04 2013  00 12  -21.0473 26029.9 -03425.8 -07.4977 26254.4
 05 04 2013  00 13  -21.0472 26029.9 -03425.8 -07.4977 26254.3
 05 04 2013  00 14  -21.0471 26029.8 -03425.8 -07.4977 26254.3
 05 04 2013  00 15  -21.0470 26029.7 -03425.8 -07.4976 26254.2
 05 04 2013  00 16  -21.0469 26029.7 -03425.8 -07.4977 26254.2
 05 04 2013  00 17  -21.0468 26029.6 -03425.8 -07.4977 26254.1
 05 04 2013  00 18  -21.0467 26029.6 -03425.8 -07.4978 26254.1
 05 04 2013  00 19  -21.0467 26029.7 -03425.9 -07.4978 26254.2
 05 04 2013  00 20  -21.0466 26029.6 -03425.9 -07.4979 26254.1
 05 04 2013  00 21  -21.0465 26029.5 -03425.9 -07.4979 26254.0
 05 04 2013  00 22  -21.0464 26029.6 -03425.9 -07.4980 26254.1
 05 04 2013  00 23  -21.0463 26029.6 -03426.0 -07.4981 26254.1
 05 04 2013  00 24  -21.0464 26029.6 -03426.0 -07.4982 26254.1
 05 04 2013  00 25  -21.0463 26029.7 -03426.0 -07.4982 26254.2
 05 04 2013  00 26  -21.0463 26029.7 -03426.1 -07.4983 26254.2
 05 04 2013  00 27  -21.0463 26029.7 -03426.1 -07.4983 26254.2
 05 04 2013  00 28  -21.0462 26029.7 -03426.1 -07.4983 26254.2
 05 04 2013  00 29  -21.0461 26029.7 -03426.1 -07.4983 26254.2
 05 04 2013  00 30  -21.0460 26029.6 -03426.1 -07.4983 26254.1
 05 04 2013  00 31  -21.0459 26029.6 -03426.1 -07.4983 26254.1
 05 04 2013  00 32  -21.0459 26029.7 -03426.2 -07.4984 26254.2
 05 04 2013  00 33  -21.0459 26029.6 -03426.2 -07.4984 26254.2
 05 04 2013  00 34  -21.0457 26029.7 -03426.1 -07.4984 26254.2
 05 04 2013  00 35  -21.0456 26029.8 -03426.2 -07.4986 26254.3
 05 04 2013  00 36  -21.0454 26029.7 -03426.2 -07.4985 26254.2
 05 04 2013  00 37  -21.0454 26029.7 -03426.2 -07.4985 26254.2
 05 04 2013  00 38  -21.0455 26029.6 -03426.3 -07.4987 26254.2
 05 04 2013  00 39  -21.0456 26029.6 -03426.2 -07.4986 26254.1
 05 04 2013  00 40  -21.0454 26029.7 -03426.3 -07.4987 26254.2
 05 04 2013  00 41  -21.0454 26029.7 -03426.3 -07.4987 26254.2
 05 04 2013  00 42  -21.0452 26029.7 -03426.3 -07.4988 26254.2
 05 04 2013  00 43  -21.0450 26029.7 -03426.3 -07.4988 26254.3
 05 04 2013  00 44  -21.0447 26029.7 -03426.4 -07.4989 26254.3
 05 04 2013  00 45  -21.0447 26029.7 -03426.4 -07.4989 26254.2
 05 04 2013  00 46  -21.0446 26029.7 -03426.4 -07.4989 26254.2
 05 04 2013  00 47  -21.0443 26029.8 -03426.4 -07.4990 26254.3
 05 04 2013  00 48  -21.0441 26029.7 -03426.4 -07.4990 26254.2
 05 04 2013  00 49  -21.0441 26029.8 -03426.5 -07.4991 26254.3
 05 04 2013  00 50  -21.0441 26029.8 -03426.5 -07.4992 26254.3
 05 04 2013  00 51  -21.0441 26029.6 -03426.5 -07.4992 26254.2
 05 04 2013  00 52  -21.0441 26029.7 -03426.5 -07.4992 26254.3
 05 04 2013  00 53  -21.0439 26029.8 -03426.6 -07.4993 26254.3
 05 04 2013  00 54  -21.0439 26029.6 -03426.6 -07.4993 26254.2
 05 04 2013  00 55  -21.0439 26029.6 -03426.6 -07.4993 26254.2
 05 04 2013  00 56  -21.0439 26029.6 -03426.5 -07.4993 26254.1
 05 04 2013  00 57  -21.0438 26029.6 -03426.6 -07.4993 26254.2
 05 04 2013  00 58  -21.0437 26029.6 -03426.6 -07.4994 26254.1
 05 04 2013  00 59  -21.0437 26029.5 -03426.6 -07.4994 26254.1
 05 04 2013  01 00  -21.0437 26029.5 -03426.5 -07.4993 26254.0
 05 04 2013  01 01  -21.0437 26029.5 -03426.6 -07.4994 26254.1
 05 04 2013  01 02  -21.0436 26029.4 -03426.6 -07.4994 26254.0
 05 04 2013  01 03  -21.0436 26029.4 -03426.6 -07.4994 26254.0
 05 04 2013  01 04  -21.0436 26029.4 -03426.6 -07.4995 26254.0
 05 04 2013  01 05  -21.0436 26029.4 -03426.6 -07.4995 26254.0
 05 04 2013  01 06  -21.0436 26029.4 -03426.6 -07.4995 26254.0
 05 04 2013  01 07  -21.0436 26029.3 -03426.6 -07.4995 26253.9
 05 04 2013  01 08  -21.0435 26029.4 -03426.6 -07.4995 26254.0
 05 04 2013  01 09  -21.0434 26029.4 -03426.6 -07.4995 26253.9
 05 04 2013  01 10  -21.0434 26029.4 -03426.6 -07.4996 26253.9
 05 04 2013  01 11  -21.0434 26029.3 -03426.7 -07.4996 26253.9
 05 04 2013  01 12  -21.0433 26029.3 -03426.7 -07.4997 26253.9
 05 04 2013  01 13  -21.0432 26029.4 -03426.7 -07.4997 26254.0
 05 04 2013  01 14  -21.0432 26029.4 -03426.7 -07.4998 26254.0
 05 04 2013  01 15  -21.0431 26029.4 -03426.7 -07.4998 26254.0
 05 04 2013  01 16  -21.0430 26029.4 -03426.8 -07.4998 26254.0
 05 04 2013  01 17  -21.0429 26029.4 -03426.8 -07.4998 26254.0
 05 04 2013  01 18  -21.0428 26029.4 -03426.8 -07.4999 26254.0
 05 04 2013  01 19  -21.0428 26029.4 -03426.8 -07.4999 26254.0
 05 04 2013  01 20  -21.0427 26029.4 -03426.8 -07.4999 26254.0
 05 04 2013  01 21  -21.0427 26029.4 -03426.8 -07.4999 26254.0
 05 04 2013  01 22  -21.0426 26029.4 -03426.8 -07.4999 26254.0
 05 04 2013  01 23  -21.0424 26029.4 -03426.8 -07.4999 26254.0
 05 04 2013  01 24  -21.0423 26029.4 -03426.8 -07.5000 26254.0
 05 04 2013  01 25  -21.0423 26029.4 -03426.8 -07.5000 26254.0
 05 04 2013  01 26  -21.0423 26029.3 -03426.8 -07.5000 26253.9
 05 04 2013  01 27  -21.0423 26029.3 -03426.9 -07.5000 26254.0
 05 04 2013  01 28  -21.0423 26029.3 -03426.9 -07.5001 26254.0
 05 04 2013  01 29  -21.0423 26029.4 -03426.9 -07.5001 26254.0
 05 04 2013  01 30  -21.0423 26029.4 -03426.9 -07.5002 26254.0
 05 04 2013  01 31  -21.0422 26029.4 -03427.0 -07.5002 26254.0
 05 04 2013  01 32  -21.0421 26029.4 -03426.9 -07.5002 26254.0
 05 04 2013  01 33  -21.0420 26029.4 -03426.9 -07.5002 26254.0
 05 04 2013  01 34  -21.0419 26029.4 -03426.9 -07.5002 26254.0
 05 04 2013  01 35  -21.0418 26029.4 -03427.0 -07.5003 26254.0
 05 04 2013  01 36  -21.0418 26029.4 -03427.0 -07.5003 26254.1
 05 04 2013  01 37  -21.0418 26029.5 -03427.0 -07.5003 26254.1
 05 04 2013  01 38  -21.0417 26029.5 -03427.0 -07.5004 26254.1
 05 04 2013  01 39  -21.0417 26029.4 -03427.0 -07.5004 26254.1
 05 04 2013  01 40  -21.0416 26029.5 -03427.1 -07.5005 26254.1
 05 04 2013  01 41  -21.0416 26029.5 -03427.1 -07.5005 26254.1
 05 04 2013  01 42  -21.0416 26029.5 -03427.1 -07.5005 26254.1
 05 04 2013  01 43  -21.0416 26029.4 -03427.1 -07.5005 26254.1
 05 04 2013  01 44  -21.0416 26029.4 -03427.1 -07.5005 26254.1
 05 04 2013  01 45  -21.0415 26029.5 -03427.1 -07.5005 26254.1
 05 04 2013  01 46  -21.0414 26029.5 -03427.1 -07.5006 26254.1
 05 04 2013  01 47  -21.0412 26029.5 -03427.2 -07.5006 26254.2
 05 04 2013  01 48  -21.0412 26029.5 -03427.2 -07.5007 26254.2
 05 04 2013  01 49  -21.0412 26029.6 -03427.2 -07.5007 26254.2
 05 04 2013  01 50  -21.0412 26029.6 -03427.2 -07.5007 26254.3
 05 04 2013  01 51  -21.0412 26029.6 -03427.2 -07.5008 26254.3
 05 04 2013  01 52  -21.0411 26029.6 -03427.2 -07.5008 26254.3
 05 04 2013  01 53  -21.0410 26029.6 -03427.2 -07.5007 26254.3
 05 04 2013  01 54  -21.0409 26029.6 -03427.2 -07.5007 26254.2
 05 04 2013  01 55  -21.0407 26029.6 -03427.2 -07.5008 26254.3
 05 04 2013  01 56  -21.0406 26029.6 -03427.2 -07.5008 26254.2
 05 04 2013  01 57  -21.0406 26029.6 -03427.2 -07.5008 26254.3
 05 04 2013  01 58  -21.0406 26029.7 -03427.3 -07.5009 26254.3
 05 04 2013  01 59  -21.0406 26029.7 -03427.3 -07.5009 26254.3
 05 04 2013  02 00  -21.0406 26029.6 -03427.3 -07.5008 26254.3
 05 04 2013  02 01  -21.0405 26029.6 -03427.2 -07.5008 26254.2
 05 04 2013  02 02  -21.0406 26029.6 -03427.2 -07.5008 26254.3
 05 04 2013  02 03  -21.0405 26029.6 -03427.3 -07.5009 26254.3
 05 04 2013  02 04  -21.0404 26029.6 -03427.3 -07.5008 26254.3
 05 04 2013  02 05  -21.0404 26029.6 -03427.2 -07.5008 26254.2
 05 04 2013  02 06  -21.0402 26029.6 -03427.2 -07.5008 26254.2
 05 04 2013  02 07  -21.0402 26029.6 -03427.2 -07.5008 26254.3
 05 04 2013  02 08  -21.0401 26029.6 -03427.2 -07.5008 26254.3
 05 04 2013  02 09  -21.0400 26029.6 -03427.2 -07.5008 26254.3
 05 04 2013  02 10  -21.0401 26029.6 -03427.2 -07.5008 26254.2
 05 04 2013  02 11  -21.0402 26029.6 -03427.2 -07.5008 26254.2
 05 04 2013  02 12  -21.0402 26029.6 -03427.2 -07.5008 26254.2
 05 04 2013  02 13  -21.0402 26029.5 -03427.2 -07.5008 26254.2
 05 04 2013  02 14  -21.0402 26029.6 -03427.2 -07.5008 26254.2
 05 04 2013  02 15  -21.0402 26029.6 -03427.2 -07.5008 26254.2
 05 04 2013  02 16  -21.0402 26029.6 -03427.2 -07.5008 26254.2
 05 04 2013  02 17  -21.0402 26029.6 -03427.2 -07.5008 26254.2
 05 04 2013  02 18  -21.0402 26029.6 -03427.2 -07.5008 26254.3
 05 04 2013  02 19  -21.0401 26029.7 -03427.3 -07.5008 26254.3
 05 04 2013  02 20  -21.0402 26029.7 -03427.2 -07.5008 26254.3
 05 04 2013  02 21  -21.0401 26029.8 -03427.3 -07.5009 26254.4
 05 04 2013  02 22  -21.0401 26029.7 -03427.3 -07.5008 26254.4
 05 04 2013  02 23  -21.0401 26029.7 -03427.2 -07.5008 26254.4
 05 04 2013  02 24  -21.0401 26029.7 -03427.3 -07.5008 26254.4
 05 04 2013  02 25  -21.0401 26029.8 -03427.3 -07.5009 26254.4
 05 04 2013  02 26  -21.0400 26029.7 -03427.3 -07.5008 26254.4
 05 04 2013  02 27  -21.0400 26029.7 -03427.2 -07.5008 26254.4
 05 04 2013  02 28  -21.0399 26029.7 -03427.2 -07.5008 26254.4
 05 04 2013  02 29  -21.0399 26029.8 -03427.3 -07.5008 26254.4
 05 04 2013  02 30  -21.0398 26029.8 -03427.3 -07.5008 26254.4
 05 04 2013  02 31  -21.0398 26029.8 -03427.3 -07.5008 26254.4
 05 04 2013  02 32  -21.0398 26029.7 -03427.2 -07.5007 26254.4
 05 04 2013  02 33  -21.0396 26029.7 -03427.3 -07.5008 26254.4
 05 04 2013  02 34  -21.0396 26029.8 -03427.2 -07.5008 26254.4
 05 04 2013  02 35  -21.0396 26029.8 -03427.2 -07.5008 26254.4
 05 04 2013  02 36  -21.0396 26029.7 -03427.2 -07.5007 26254.4
 05 04 2013  02 37  -21.0395 26029.7 -03427.2 -07.5007 26254.4
 05 04 2013  02 38  -21.0395 26029.7 -03427.2 -07.5007 26254.4
 05 04 2013  02 39  -21.0395 26029.7 -03427.2 -07.5006 26254.3
 05 04 2013  02 40  -21.0395 26029.6 -03427.1 -07.5006 26254.3
 05 04 2013  02 41  -21.0395 26029.6 -03427.2 -07.5006 26254.3
 05 04 2013  02 42  -21.0395 26029.6 -03427.2 -07.5007 26254.3
 05 04 2013  02 43  -21.0396 26029.6 -03427.2 -07.5006 26254.3
 05 04 2013  02 44  -21.0396 26029.6 -03427.1 -07.5006 26254.3
 05 04 2013  02 45  -21.0396 26029.6 -03427.2 -07.5006 26254.3
 05 04 2013  02 46  -21.0396 26029.6 -03427.1 -07.5006 26254.3
 05 04 2013  02 47  -21.0396 26029.6 -03427.1 -07.5005 26254.2
 05 04 2013  02 48  -21.0397 26029.6 -03427.1 -07.5005 26254.3
 05 04 2013  02 49  -21.0398 26029.7 -03427.1 -07.5005 26254.3
 05 04 2013  02 50  -21.0398 26029.6 -03427.1 -07.5005 26254.3
 05 04 2013  02 51  -21.0400 26029.6 -03427.1 -07.5004 26254.2
 05 04 2013  02 52  -21.0400 26029.5 -03427.0 -07.5004 26254.1
 05 04 2013  02 53  -21.0401 26029.5 -03427.0 -07.5003 26254.1
 05 04 2013  02 54  -21.0402 26029.4 -03427.0 -07.5002 26254.0
 05 04 2013  02 55  -21.0403 26029.4 -03426.9 -07.5002 26254.0
 05 04 2013  02 56  -21.0405 26029.3 -03426.9 -07.5001 26254.0
 05 04 2013  02 57  -21.0407 26029.3 -03426.9 -07.5001 26253.9
 05 04 2013  02 58  -21.0408 26029.3 -03426.8 -07.5000 26253.9
 05 04 2013  02 59  -21.0410 26029.3 -03426.8 -07.5000 26253.9
 05 04 2013  03 00  -21.0412 26029.2 -03426.8 -07.5000 26253.8
 05 04 2013  03 01  -21.0413 26029.2 -03426.8 -07.4999 26253.8
 05 04 2013  03 02  -21.0415 26029.1 -03426.7 -07.4998 26253.7
 05 04 2013  03 03  -21.0416 26029.1 -03426.7 -07.4998 26253.7
 05 04 2013  03 04  -21.0417 26029.2 -03426.7 -07.4998 26253.7
 05 04 2013  03 05  -21.0419 26029.1 -03426.7 -07.4998 26253.7
 05 04 2013  03 06  -21.0421 26029.1 -03426.7 -07.4997 26253.7
 05 04 2013  03 07  -21.0423 26029.0 -03426.6 -07.4997 26253.6
 05 04 2013  03 08  -21.0426 26029.0 -03426.6 -07.4996 26253.6
 05 04 2013  03 09  -21.0428 26029.0 -03426.6 -07.4996 26253.6
 05 04 2013  03 10  -21.0430 26028.9 -03426.5 -07.4995 26253.5
 05 04 2013  03 11  -21.0433 26028.9 -03426.5 -07.4994 26253.5
 05 04 2013  03 12  -21.0435 26028.8 -03426.5 -07.4994 26253.4
 05 04 2013  03 13  -21.0437 26028.9 -03426.5 -07.4994 26253.4
 05 04 2013  03 14  -21.0439 26028.8 -03426.4 -07.4993 26253.3
 05 04 2013  03 15  -21.0441 26028.7 -03426.4 -07.4992 26253.2
 05 04 2013  03 16  -21.0443 26028.6 -03426.3 -07.4991 26253.2
 05 04 2013  03 17  -21.0445 26028.6 -03426.3 -07.4991 26253.2
 05 04 2013  03 18  -21.0447 26028.5 -03426.3 -07.4990 26253.1
 05 04 2013  03 19  -21.0448 26028.5 -03426.2 -07.4989 26253.0
 05 04 2013  03 20  -21.0450 26028.5 -03426.2 -07.4989 26253.0
 05 04 2013  03 21  -21.0452 26028.5 -03426.2 -07.4988 26253.0
 05 04 2013  03 22  -21.0454 26028.4 -03426.1 -07.4988 26252.9
 05 04 2013  03 23  -21.0455 26028.3 -03426.1 -07.4987 26252.8
 05 04 2013  03 24  -21.0456 26028.2 -03426.0 -07.4985 26252.7
 05 04 2013  03 25  -21.0457 26028.0 -03425.9 -07.4984 26252.5
 05 04 2013  03 26  -21.0458 26028.0 -03425.9 -07.4984 26252.5
 05 04 2013  03 27  -21.0461 26027.9 -03425.8 -07.4983 26252.4
 05 04 2013  03 28  -21.0461 26027.8 -03425.8 -07.4983 26252.2
 05 04 2013  03 29  -21.0462 26027.7 -03425.8 -07.4982 26252.1
 05 04 2013  03 30  -21.0463 26027.6 -03425.8 -07.4982 26252.1
 05 04 2013  03 31  -21.0464 26027.5 -03425.7 -07.4982 26252.0
 05 04 2013  03 32  -21.0466 26027.4 -03425.7 -07.4982 26251.9
 05 04 2013  03 33  -21.0468 26027.3 -03425.7 -07.4981 26251.8
 05 04 2013  03 34  -21.0469 26027.2 -03425.7 -07.4981 26251.7
 05 04 2013  03 35  -21.0471 26027.1 -03425.7 -07.4981 26251.6
 05 04 2013  03 36  -21.0473 26027.1 -03425.6 -07.4981 26251.5
 05 04 2013  03 37  -21.0475 26027.0 -03425.7 -07.4981 26251.5
 05 04 2013  03 38  -21.0477 26027.0 -03425.7 -07.4981 26251.5
 05 04 2013  03 39  -21.0478 26027.0 -03425.7 -07.4982 26251.5
 05 04 2013  03 40  -21.0479 26027.0 -03425.7 -07.4982 26251.4
 05 04 2013  03 41  -21.0480 26026.9 -03425.7 -07.4982 26251.4
 05 04 2013  03 42  -21.0482 26026.8 -03425.7 -07.4982 26251.3
 05 04 2013  03 43  -21.0484 26026.8 -03425.6 -07.4982 26251.2
 05 04 2013  03 44  -21.0486 26026.7 -03425.6 -07.4982 26251.2
 05 04 2013  03 45  -21.0488 26026.7 -03425.6 -07.4981 26251.1
 05 04 2013  03 46  -21.0489 26026.6 -03425.6 -07.4981 26251.1
 05 04 2013  03 47  -21.0492 26026.6 -03425.6 -07.4981 26251.0
 05 04 2013  03 48  -21.0494 26026.5 -03425.6 -07.4981 26251.0
 05 04 2013  03 49  -21.0496 26026.4 -03425.6 -07.4981 26250.9
 05 04 2013  03 50  -21.0498 26026.3 -03425.5 -07.4980 26250.8
 05 04 2013  03 51  -21.0499 26026.3 -03425.5 -07.4980 26250.7
 05 04 2013  03 52  -21.0501 26026.2 -03425.5 -07.4980 26250.7
 05 04 2013  03 53  -21.0502 26026.2 -03425.5 -07.4981 26250.7
 05 04 2013  03 54  -21.0505 26026.1 -03425.5 -07.4980 26250.6
 05 04 2013  03 55  -21.0506 26026.0 -03425.5 -07.4980 26250.5
 05 04 2013  03 56  -21.0507 26026.0 -03425.5 -07.4980 26250.4
 05 04 2013  03 57  -21.0509 26026.0 -03425.5 -07.4981 26250.4
 05 04 2013  03 58  -21.0511 26025.9 -03425.5 -07.4981 26250.4
 05 04 2013  03 59  -21.0512 26025.9 -03425.5 -07.4981 26250.4
 05 04 2013  04 00  -21.0515 26025.9 -03425.5 -07.4981 26250.4
 05 04 2013  04 01  -21.0517 26025.9 -03425.5 -07.4981 26250.3
 05 04 2013  04 02  -21.0518 26025.8 -03425.5 -07.4981 26250.3
 05 04 2013  04 03  -21.0520 26025.8 -03425.5 -07.4981 26250.3
 05 04 2013  04 04  -21.0521 26025.8 -03425.5 -07.4982 26250.3
 05 04 2013  04 05  -21.0523 26025.8 -03425.5 -07.4982 26250.3
 05 04 2013  04 06  -21.0525 26025.8 -03425.6 -07.4982 26250.3
 05 04 2013  04 07  -21.0527 26025.8 -03425.6 -07.4982 26250.3
 05 04 2013  04 08  -21.0529 26025.8 -03425.5 -07.4982 26250.2
 05 04 2013  04 09  -21.0530 26025.8 -03425.5 -07.4982 26250.3
 05 04 2013  04 10  -21.0531 26025.7 -03425.5 -07.4981 26250.2
 05 04 2013  04 11  -21.0532 26025.7 -03425.5 -07.4981 26250.1
 05 04 2013  04 12  -21.0534 26025.7 -03425.4 -07.4980 26250.1
 05 04 2013  04 13  -21.0536 26025.6 -03425.4 -07.4980 26250.1
 05 04 2013  04 14  -21.0536 26025.6 -03425.4 -07.4981 26250.1
 05 04 2013  04 15  -21.0537 26025.5 -03425.4 -07.4980 26249.9
 05 04 2013  04 16  -21.0537 26025.5 -03425.4 -07.4980 26250.0
 05 04 2013  04 17  -21.0537 26025.5 -03425.4 -07.4980 26249.9
 05 04 2013  04 18  -21.0537 26025.4 -03425.4 -07.4980 26249.9
 05 04 2013  04 19  -21.0536 26025.4 -03425.4 -07.4980 26249.8
 05 04 2013  04 20  -21.0536 26025.4 -03425.4 -07.4980 26249.8
 05 04 2013  04 21  -21.0536 26025.3 -03425.4 -07.4980 26249.8
 05 04 2013  04 22  -21.0536 26025.3 -03425.4 -07.4980 26249.7
 05 04 2013  04 23  -21.0534 26025.3 -03425.4 -07.4981 26249.7
 05 04 2013  04 24  -21.0534 26025.4 -03425.4 -07.4981 26249.8
 05 04 2013  04 25  -21.0533 26025.4 -03425.5 -07.4982 26249.9
 05 04 2013  04 26  -21.0534 26025.2 -03425.4 -07.4981 26249.6
 05 04 2013  04 27  -21.0533 26025.4 -03425.5 -07.4983 26249.9
 05 04 2013  04 28  -21.0534 26025.2 -03425.4 -07.4982 26249.7
 05 04 2013  04 29  -21.0534 26025.4 -03425.5 -07.4983 26249.8
 05 04 2013  04 30  -21.0535 26025.3 -03425.5 -07.4982 26249.8
 05 04 2013  04 31  -21.0535 26025.3 -03425.5 -07.4982 26249.7
 05 04 2013  04 32  -21.0535 26025.3 -03425.5 -07.4982 26249.8
 05 04 2013  04 33  -21.0535 26025.3 -03425.5 -07.4982 26249.8
 05 04 2013  04 34  -21.0534 26025.3 -03425.5 -07.4982 26249.8
 05 04 2013  04 35  -21.0534 26025.4 -03425.5 -07.4982 26249.8
 05 04 2013  04 36  -21.0533 26025.4 -03425.5 -07.4982 26249.9
 05 04 2013  04 37  -21.0532 26025.3 -03425.5 -07.4982 26249.8
 05 04 2013  04 38  -21.0530 26025.4 -03425.5 -07.4982 26249.8
 05 04 2013  04 39  -21.0529 26025.4 -03425.5 -07.4982 26249.8
 05 04 2013  04 40  -21.0527 26025.4 -03425.5 -07.4983 26249.9
 05 04 2013  04 41  -21.0525 26025.4 -03425.5 -07.4983 26249.9
 05 04 2013  04 42  -21.0523 26025.4 -03425.5 -07.4983 26249.9
 05 04 2013  04 43  -21.0520 26025.4 -03425.5 -07.4983 26249.9
 05 04 2013  04 44  -21.0518 26025.4 -03425.5 -07.4983 26249.9
 05 04 2013  04 45  -21.0516 26025.4 -03425.5 -07.4983 26249.9
 05 04 2013  04 46  -21.0513 26025.4 -03425.6 -07.4983 26249.9
 05 04 2013  04 47  -21.0511 26025.4 -03425.6 -07.4984 26249.9
 05 04 2013  04 48  -21.0509 26025.4 -03425.6 -07.4985 26249.9
 05 04 2013  04 49  -21.0507 26025.5 -03425.7 -07.4986 26250.0
 05 04 2013  04 50  -21.0505 26025.5 -03425.7 -07.4986 26250.0
 05 04 2013  04 51  -21.0503 26025.5 -03425.7 -07.4987 26250.0
 05 04 2013  04 52  -21.0502 26025.6 -03425.7 -07.4987 26250.1
 05 04 2013  04 53  -21.0501 26025.6 -03425.8 -07.4988 26250.1
 05 04 2013  04 54  -21.0499 26025.6 -03425.7 -07.4987 26250.1
 05 04 2013  04 55  -21.0498 26025.6 -03425.8 -07.4988 26250.1
 05 04 2013  04 56  -21.0497 26025.5 -03425.8 -07.4989 26250.0
 05 04 2013  04 57  -21.0496 26025.6 -03425.8 -07.4989 26250.1
 05 04 2013  04 58  -21.0493 26025.5 -03425.8 -07.4989 26250.0
 05 04 2013  04 59  -21.0492 26025.5 -03425.8 -07.4989 26250.0
 05 04 2013  05 00  -21.0491 26025.5 -03425.8 -07.4988 26250.0
 05 04 2013  05 01  -21.0489 26025.5 -03425.8 -07.4989 26250.0
 05 04 2013  05 02  -21.0488 26025.5 -03425.8 -07.4989 26250.0
 05 04 2013  05 03  -21.0486 26025.5 -03425.8 -07.4989 26250.0
 05 04 2013  05 04  -21.0485 26025.5 -03425.8 -07.4989 26250.0
 05 04 2013  05 05  -21.0484 26025.5 -03425.8 -07.4990 26250.0
 05 04 2013  05 06  -21.0483 26025.5 -03425.8 -07.4989 26250.0
 05 04 2013  05 07  -21.0483 26025.6 -03425.8 -07.4989 26250.1
 05 04 2013  05 08  -21.0482 26025.6 -03425.9 -07.4989 26250.1
 05 04 2013  05 09  -21.0481 26025.5 -03425.9 -07.4990 26250.1
 05 04 2013  05 10  -21.0480 26025.6 -03425.9 -07.4990 26250.1
 05 04 2013  05 11  -21.0479 26025.6 -03425.9 -07.4990 26250.1
 05 04 2013  05 12  -21.0478 26025.7 -03425.9 -07.4991 26250.2
 05 04 2013  05 13  -21.0477 26026.1 -03426.1 -07.4994 26250.6
 05 04 2013  05 14  -21.0478 26025.6 -03425.9 -07.4990 26250.1
 05 04 2013  05 15  -21.0479 26025.9 -03426.0 -07.4992 26250.4
 05 04 2013  05 16  -21.0477 26026.4 -03426.2 -07.4995 26251.0
 05 04 2013  05 17  -21.0481 26026.0 -03426.1 -07.4993 26250.5
 05 04 2013  05 18  -21.0479 26026.4 -03426.2 -07.4994 26250.9
 05 04 2013  05 19  -21.0478 26026.5 -03426.2 -07.4995 26251.0
 05 04 2013  05 20  -21.0481 26026.3 -03426.2 -07.4994 26250.9
 05 04 2013  05 21  -21.0478 26026.4 -03426.1 -07.4993 26250.9
 05 04 2013  05 22  -21.0477 26026.3 -03426.1 -07.4992 26250.8
 05 04 2013  05 23  -21.0475 26026.5 -03426.1 -07.4992 26251.0
 05 04 2013  05 24  -21.0475 26026.4 -03426.0 -07.4991 26250.9
 05 04 2013  05 25  -21.0474 26026.5 -03426.0 -07.4990 26251.0
 05 04 2013  05 26  -21.0473 26026.5 -03426.0 -07.4991 26251.0
 05 04 2013  05 27  -21.0474 26026.5 -03426.1 -07.4991 26251.1
 05 04 2013  05 28  -21.0472 26026.7 -03426.1 -07.4992 26251.2
 05 04 2013  05 29  -21.0471 26026.8 -03426.2 -07.4993 26251.4
 05 04 2013  05 30  -21.0470 26026.7 -03426.1 -07.4992 26251.3
 05 04 2013  05 31  -21.0471 26026.8 -03426.1 -07.4992 26251.4
 05 04 2013  05 32  -21.0468 26027.0 -03426.2 -07.4992 26251.6
 05 04 2013  05 33  -21.0468 26027.2 -03426.3 -07.4994 26251.8
 05 04 2013  05 34  -21.0468 26027.0 -03426.2 -07.4992 26251.5
 05 04 2013  05 35  -21.0465 26027.0 -03426.1 -07.4992 26251.5
 05 04 2013  05 36  -21.0462 26027.2 -03426.2 -07.4993 26251.8
 05 04 2013  05 37  -21.0461 26027.1 -03426.1 -07.4991 26251.6
 05 04 2013  05 38  -21.0459 26027.3 -03426.2 -07.4993 26251.9
 05 04 2013  05 39  -21.0458 26027.3 -03426.2 -07.4993 26251.9
 05 04 2013  05 40  -21.0454 26027.6 -03426.3 -07.4994 26252.1
 05 04 2013  05 41  -21.0452 26027.6 -03426.4 -07.4994 26252.2
 05 04 2013  05 42  -21.0448 26027.8 -03426.4 -07.4995 26252.4
 05 04 2013  05 43  -21.0445 26027.8 -03426.4 -07.4995 26252.4
 05 04 2013  05 44  -21.0441 26028.1 -03426.5 -07.4997 26252.6
 05 04 2013  05 45  -21.0439 26028.0 -03426.5 -07.4997 26252.5
 05 04 2013  05 46  -21.0436 26028.0 -03426.5 -07.4997 26252.6
 05 04 2013  05 47  -21.0434 26028.0 -03426.5 -07.4997 26252.6
 05 04 2013  05 48  -21.0433 26028.1 -03426.6 -07.4998 26252.7
 05 04 2013  05 49  -21.0432 26028.2 -03426.6 -07.4999 26252.7
 05 04 2013  05 50  -21.0429 26028.1 -03426.6 -07.4998 26252.7
 05 04 2013  05 51  -21.0428 26028.1 -03426.6 -07.4999 26252.7
 05 04 2013  05 52  -21.0425 26028.2 -03426.6 -07.4998 26252.7
 05 04 2013  05 53  -21.0424 26028.3 -03426.7 -07.5000 26252.9
 05 04 2013  05 54  -21.0424 26028.2 -03426.7 -07.4999 26252.7
 05 04 2013  05 55  -21.0422 26028.2 -03426.6 -07.4999 26252.8
 05 04 2013  05 56  -21.0419 26028.3 -03426.7 -07.5000 26252.9
 05 04 2013  05 57  -21.0417 26028.3 -03426.7 -07.5000 26252.9
 05 04 2013  05 58  -21.0414 26028.3 -03426.8 -07.5001 26253.0
 05 04 2013  05 59  -21.0415 26028.3 -03426.8 -07.5002 26252.9
 05 04 2013  06 00  -21.0414 26028.4 -03426.8 -07.5002 26253.0
 05 04 2013  06 01  -21.0414 26028.2 -03426.7 -07.5001 26252.8
 05 04 2013  06 02  -21.0412 26028.3 -03426.8 -07.5001 26252.9
 05 04 2013  06 03  -21.0411 26028.2 -03426.7 -07.5001 26252.8
 05 04 2013  06 04  -21.0410 26028.2 -03426.8 -07.5002 26252.8
 05 04 2013  06 05  -21.0409 26028.3 -03426.8 -07.5002 26252.9
 05 04 2013  06 06  -21.0409 26028.3 -03426.8 -07.5002 26252.9
 05 04 2013  06 07  -21.0407 26028.2 -03426.8 -07.5001 26252.8
 05 04 2013  06 08  -21.0406 26028.2 -03426.7 -07.5001 26252.8
 05 04 2013  06 09  -21.0405 26028.1 -03426.7 -07.5002 26252.7
 05 04 2013  06 10  -21.0404 26028.0 -03426.7 -07.5001 26252.6
 05 04 2013  06 11  -21.0403 26028.0 -03426.7 -07.5001 26252.6
 05 04 2013  06 12  -21.0402 26028.0 -03426.7 -07.5001 26252.6
 05 04 2013  06 13  -21.0400 26028.0 -03426.7 -07.5002 26252.6
 05 04 2013  06 14  -21.0399 26027.8 -03426.7 -07.5001 26252.4
 05 04 2013  06 15  -21.0399 26027.9 -03426.7 -07.5001 26252.5
 05 04 2013  06 16  -21.0398 26027.9 -03426.7 -07.5002 26252.5
 05 04 2013  06 17  -21.0398 26028.0 -03426.8 -07.5003 26252.6
 05 04 2013  06 18  -21.0397 26028.0 -03426.8 -07.5003 26252.6
 05 04 2013  06 19  -21.0397 26028.0 -03426.8 -07.5003 26252.6
 05 04 2013  06 20  -21.0396 26027.9 -03426.8 -07.5002 26252.5
 05 04 2013  06 21  -21.0395 26027.9 -03426.8 -07.5002 26252.5
 05 04 2013  06 22  -21.0395 26027.9 -03426.8 -07.5003 26252.5
 05 04 2013  06 23  -21.0395 26027.9 -03426.8 -07.5003 26252.6
 05 04 2013  06 24  -21.0394 26028.0 -03426.9 -07.5004 26252.6
 05 04 2013  06 25  -21.0394 26027.9 -03426.9 -07.5005 26252.6
 05 04 2013  06 26  -21.0393 26027.9 -03426.8 -07.5004 26252.5
 05 04 2013  06 27  -21.0394 26027.9 -03426.9 -07.5005 26252.5
 05 04 2013  06 28  -21.0394 26027.9 -03426.8 -07.5004 26252.5
 05 04 2013  06 29  -21.0395 26027.9 -03426.8 -07.5004 26252.5
 05 04 2013  06 30  -21.0395 26027.8 -03426.8 -07.5004 26252.5
 05 04 2013  06 31  -21.0395 26027.8 -03426.8 -07.5004 26252.5
 05 04 2013  06 32  -21.0393 26027.8 -03426.8 -07.5004 26252.4
 05 04 2013  06 33  -21.0392 26027.7 -03426.8 -07.5003 26252.3
 05 04 2013  06 34  -21.0391 26027.7 -03426.7 -07.5003 26252.3
 05 04 2013  06 35  -21.0390 26027.6 -03426.8 -07.5003 26252.2
 05 04 2013  06 36  -21.0388 26027.7 -03426.8 -07.5004 26252.3
 05 04 2013  06 37  -21.0388 26027.7 -03426.8 -07.5004 26252.3
 05 04 2013  06 38  -21.0387 26027.6 -03426.8 -07.5004 26252.2
 05 04 2013  06 39  -21.0386 26027.6 -03426.8 -07.5004 26252.2
 05 04 2013  06 40  -21.0386 26027.5 -03426.8 -07.5004 26252.2
 05 04 2013  06 41  -21.0386 26027.5 -03426.8 -07.5004 26252.1
 05 04 2013  06 42  -21.0387 26027.5 -03426.8 -07.5005 26252.1
 05 04 2013  06 43  -21.0386 26027.5 -03426.8 -07.5005 26252.1
 05 04 2013  06 44  -21.0386 26027.5 -03426.9 -07.5006 26252.2
 05 04 2013  06 45  -21.0386 26027.5 -03426.9 -07.5006 26252.1
 05 04 2013  06 46  -21.0387 26027.5 -03426.9 -07.5006 26252.1
 05 04 2013  06 47  -21.0387 26027.5 -03426.9 -07.5007 26252.1
 05 04 2013  06 48  -21.0388 26027.5 -03426.9 -07.5007 26252.1
 05 04 2013  06 49  -21.0387 26027.5 -03426.9 -07.5007 26252.1
 05 04 2013  06 50  -21.0386 26027.5 -03426.9 -07.5007 26252.1
 05 04 2013  06 51  -21.0386 26027.5 -03426.9 -07.5007 26252.2
 05 04 2013  06 52  -21.0385 26027.8 -03427.1 -07.5009 26252.4
 05 04 2013  06 53  -21.0387 26027.4 -03426.9 -07.5007 26252.0
 05 04 2013  06 54  -21.0386 26027.6 -03427.0 -07.5009 26252.3
 05 04 2013  06 55  -21.0385 26027.7 -03427.1 -07.5010 26252.4
 05 04 2013  06 56  -21.0385 26027.6 -03427.1 -07.5010 26252.3
 05 04 2013  06 57  -21.0382 26027.7 -03427.1 -07.5010 26252.4
 05 04 2013  06 58  -21.0380 26027.6 -03427.1 -07.5010 26252.3
 05 04 2013  06 59  -21.0380 26027.7 -03427.1 -07.5011 26252.3
 05 04 2013  07 00  -21.0379 26027.9 -03427.2 -07.5012 26252.5
 05 04 2013  07 01  -21.0379 26027.8 -03427.2 -07.5012 26252.5
 05 04 2013  07 02  -21.0377 26027.8 -03427.2 -07.5012 26252.5
 05 04 2013  07 03  -21.0377 26027.9 -03427.2 -07.5013 26252.6
 05 04 2013  07 04  -21.0377 26028.1 -03427.3 -07.5015 26252.7
 05 04 2013  07 05  -21.0375 26028.1 -03427.3 -07.5014 26252.8
 05 04 2013  07 06  -21.0375 26028.0 -03427.3 -07.5015 26252.7
 05 04 2013  07 07  -21.0375 26028.1 -03427.4 -07.5016 26252.8
 05 04 2013  07 08  -21.0374 26028.2 -03427.5 -07.5017 26252.9
 05 04 2013  07 09  -21.0373 26028.3 -03427.5 -07.5017 26253.0
 05 04 2013  07 10  -21.0370 26028.5 -03427.6 -07.5018 26253.2
 05 04 2013  07 11  -21.0370 26028.7 -03427.7 -07.5020 26253.4
 05 04 2013  07 12  -21.0369 26028.6 -03427.6 -07.5019 26253.3
 05 04 2013  07 13  -21.0369 26028.8 -03427.7 -07.5021 26253.5
 05 04 2013  07 14  -21.0368 26029.0 -03427.8 -07.5022 26253.7
 05 04 2013  07 15  -21.0367 26029.0 -03427.8 -07.5022 26253.8
 05 04 2013  07 16  -21.0366 26029.1 -03427.9 -07.5023 26253.8
 05 04 2013  07 17  -21.0365 26029.1 -03427.9 -07.5023 26253.9
 05 04 2013  07 18  -21.0365 26029.3 -03427.9 -07.5024 26254.0
 05 04 2013  07 19  -21.0365 26029.3 -03428.0 -07.5024 26254.1
 05 04 2013  07 20  -21.0364 26029.3 -03428.0 -07.5024 26254.0
 05 04 2013  07 21  -21.0364 26029.4 -03428.0 -07.5025 26254.1
 05 04 2013  07 22  -21.0363 26029.5 -03428.0 -07.5025 26254.3
 05 04 2013  07 23  -21.0363 26029.5 -03428.0 -07.5025 26254.3
 05 04 2013  07 24  -21.0362 26029.6 -03428.1 -07.5026 26254.4
 05 04 2013  07 25  -21.0362 26029.6 -03428.1 -07.5026 26254.4
 05 04 2013  07 26  -21.0362 26029.7 -03428.1 -07.5026 26254.4
 05 04 2013  07 27  -21.0362 26029.7 -03428.1 -07.5025 26254.4
 05 04 2013  07 28  -21.0362 26029.8 -03428.1 -07.5027 26254.6
 05 04 2013  07 29  -21.0361 26029.8 -03428.1 -07.5026 26254.5
 05 04 2013  07 30  -21.0362 26029.8 -03428.1 -07.5026 26254.6
 05 04 2013  07 31  -21.0362 26029.8 -03428.1 -07.5026 26254.6
 05 04 2013  07 32  -21.0362 26029.8 -03428.1 -07.5026 26254.6
 05 04 2013  07 33  -21.0362 26029.8 -03428.1 -07.5026 26254.6
 05 04 2013  07 34  -21.0362 26029.9 -03428.1 -07.5025 26254.6
 05 04 2013  07 35  -21.0361 26029.9 -03428.1 -07.5026 26254.6
 05 04 2013  07 36  -21.0362 26029.8 -03428.0 -07.5025 26254.6
 05 04 2013  07 37  -21.0362 26029.8 -03428.1 -07.5025 26254.6
 05 04 2013  07 38  -21.0362 26029.9 -03428.1 -07.5026 26254.6
 05 04 2013  07 39  -21.0362 26029.9 -03428.1 -07.5026 26254.7
 05 04 2013  07 40  -21.0362 26030.0 -03428.2 -07.5027 26254.8
 05 04 2013  07 41  -21.0362 26030.0 -03428.1 -07.5026 26254.7
 05 04 2013  07 42  -21.0362 26030.0 -03428.1 -07.5026 26254.7
 05 04 2013  07 43  -21.0362 26029.9 -03428.1 -07.5025 26254.7
 05 04 2013  07 44  -21.0363 26029.9 -03428.1 -07.5025 26254.7
 05 04 2013  07 45  -21.0363 26029.9 -03428.1 -07.5025 26254.7
 05 04 2013  07 46  -21.0364 26029.9 -03428.1 -07.5025 26254.7
 05 04 2013  07 47  -21.0364 26029.9 -03428.1 -07.5025 26254.7
 05 04 2013  07 48  -21.0364 26029.9 -03428.1 -07.5025 26254.6
 05 04 2013  07 49  -21.0364 26029.8 -03428.0 -07.5024 26254.5
 05 04 2013  07 50  -21.0364 26029.8 -03428.0 -07.5024 26254.6
 05 04 2013  07 51  -21.0363 26029.8 -03428.0 -07.5024 26254.5
 05 04 2013  07 52  -21.0364 26029.8 -03428.0 -07.5025 26254.6
 05 04 2013  07 53  -21.0365 26029.7 -03428.0 -07.5024 26254.5
 05 04 2013  07 54  -21.0365 26029.8 -03428.0 -07.5024 26254.5
 05 04 2013  07 55  -21.0365 26029.7 -03428.0 -07.5024 26254.4
 05 04 2013  07 56  -21.0365 26029.6 -03428.0 -07.5024 26254.4
 05 04 2013  07 57  -21.0364 26029.6 -03427.9 -07.5023 26254.3
 05 04 2013  07 58  -21.0364 26029.6 -03427.9 -07.5023 26254.3
 05 04 2013  07 59  -21.0364 26029.6 -03428.0 -07.5024 26254.4
 05 04 2013  08 00  -21.0364 26029.5 -03427.9 -07.5024 26254.3
 05 04 2013  08 01  -21.0363 26029.5 -03427.9 -07.5024 26254.3
 05 04 2013  08 02  -21.0363 26029.5 -03427.9 -07.5024 26254.2
 05 04 2013  08 03  -21.0364 26029.5 -03428.0 -07.5024 26254.2
 05 04 2013  08 04  -21.0363 26029.4 -03428.0 -07.5024 26254.2
 05 04 2013  08 05  -21.0363 26029.4 -03428.0 -07.5024 26254.2
 05 04 2013  08 06  -21.0362 26029.4 -03428.0 -07.5024 26254.2
 05 04 2013  08 07  -21.0362 26029.4 -03428.0 -07.5025 26254.2
 05 04 2013  08 08  -21.0362 26029.5 -03428.1 -07.5026 26254.3
 05 04 2013  08 09  -21.0361 26029.5 -03428.1 -07.5026 26254.3
 05 04 2013  08 10  -21.0361 26029.5 -03428.1 -07.5027 26254.3
 05 04 2013  08 11  -21.0361 26029.5 -03428.1 -07.5028 26254.3
 05 04 2013  08 12  -21.0361 26029.5 -03428.2 -07.5028 26254.3
 05 04 2013  08 13  -21.0360 26029.5 -03428.2 -07.5028 26254.3
 05 04 2013  08 14  -21.0359 26029.5 -03428.2 -07.5028 26254.2
 05 04 2013  08 15  -21.0358 26029.4 -03428.2 -07.5029 26254.2
 05 04 2013  08 16  -21.0357 26029.4 -03428.2 -07.5029 26254.2
 05 04 2013  08 17  -21.0355 26029.4 -03428.2 -07.5029 26254.2
 05 04 2013  08 18  -21.0354 26029.4 -03428.2 -07.5030 26254.1
 05 04 2013  08 19  -21.0354 26029.3 -03428.2 -07.5030 26254.1
 05 04 2013  08 20  -21.0353 26029.3 -03428.3 -07.5031 26254.1
 05 04 2013  08 21  -21.0353 26029.4 -03428.2 -07.5030 26254.1
 05 04 2013  08 22  -21.0352 26029.4 -03428.3 -07.5031 26254.2
 05 04 2013  08 23  -21.0353 26029.4 -03428.3 -07.5033 26254.2
 05 04 2013  08 24  -21.0353 26029.3 -03428.3 -07.5032 26254.1
 05 04 2013  08 25  -21.0353 26029.3 -03428.3 -07.5033 26254.1
 05 04 2013  08 26  -21.0352 26029.3 -03428.4 -07.5034 26254.1
 05 04 2013  08 27  -21.0352 26029.3 -03428.4 -07.5034 26254.1
 05 04 2013  08 28  -21.0352 26029.4 -03428.4 -07.5035 26254.2
 05 04 2013  08 29  -21.0351 26029.4 -03428.5 -07.5035 26254.2
 05 04 2013  08 30  -21.0351 26029.3 -03428.4 -07.5035 26254.1
 05 04 2013  08 31  -21.0350 26029.3 -03428.4 -07.5035 26254.1
 05 04 2013  08 32  -21.0350 26029.3 -03428.4 -07.5034 26254.1
 05 04 2013  08 33  -21.0348 26029.2 -03428.4 -07.5034 26254.0
 05 04 2013  08 34  -21.0347 26029.2 -03428.4 -07.5034 26254.0
 05 04 2013  08 35  -21.0346 26029.1 -03428.4 -07.5034 26253.9
 05 04 2013  08 36  -21.0344 26029.1 -03428.4 -07.5034 26253.9
 05 04 2013  08 37  -21.0344 26029.1 -03428.4 -07.5034 26253.9
 05 04 2013  08 38  -21.0342 26029.0 -03428.4 -07.5034 26253.9
 05 04 2013  08 39  -21.0341 26029.0 -03428.4 -07.5034 26253.8
 05 04 2013  08 40  -21.0339 26029.0 -03428.3 -07.5033 26253.8
 05 04 2013  08 41  -21.0337 26028.9 -03428.3 -07.5033 26253.7
 05 04 2013  08 42  -21.0335 26028.9 -03428.3 -07.5032 26253.7
 05 04 2013  08 43  -21.0332 26028.9 -03428.3 -07.5033 26253.7
 05 04 2013  08 44  -21.0330 26028.9 -03428.3 -07.5033 26253.7
 05 04 2013  08 45  -21.0326 26028.9 -03428.4 -07.5034 26253.7
 05 04 2013  08 46  -21.0322 26028.8 -03428.4 -07.5035 26253.6
 05 04 2013  08 47  -21.0318 26028.8 -03428.4 -07.5035 26253.6
 05 04 2013  08 48  -21.0316 26028.7 -03428.4 -07.5035 26253.5
 05 04 2013  08 49  -21.0312 26028.7 -03428.4 -07.5036 26253.5
 05 04 2013  08 50  -21.0307 26028.6 -03428.4 -07.5037 26253.4
 05 04 2013  08 51  -21.0303 26028.5 -03428.5 -07.5038 26253.4
 05 04 2013  08 52  -21.0300 26028.5 -03428.5 -07.5039 26253.4
 05 04 2013  08 53  -21.0299 26028.5 -03428.6 -07.5040 26253.3
 05 04 2013  08 54  -21.0299 26028.5 -03428.7 -07.5044 26253.4
 05 04 2013  08 55  -21.0296 26028.4 -03428.8 -07.5045 26253.3
 05 04 2013  08 56  -21.0295 26028.3 -03428.9 -07.5047 26253.2
 05 04 2013  08 57  -21.0294 26028.2 -03428.9 -07.5049 26253.1
 05 04 2013  08 58  -21.0292 26028.1 -03429.0 -07.5050 26253.0
 05 04 2013  08 59  -21.0292 26028.1 -03429.1 -07.5052 26253.0
 05 04 2013  09 00  -21.0294 26028.0 -03429.2 -07.5054 26252.9
 05 04 2013  09 01  -21.0296 26027.9 -03429.3 -07.5058 26252.8
 05 04 2013  09 02  -21.0296 26027.9 -03429.5 -07.5061 26252.9
 05 04 2013  09 03  -21.0296 26027.8 -03429.5 -07.5063 26252.8
 05 04 2013  09 04  -21.0296 26027.8 -03429.6 -07.5065 26252.8
 05 04 2013  09 05  -21.0295 26027.8 -03429.7 -07.5067 26252.8
 05 04 2013  09 06  -21.0293 26027.7 -03429.9 -07.5070 26252.7
 05 04 2013  09 07  -21.0293 26027.6 -03430.0 -07.5073 26252.7
 05 04 2013  09 08  -21.0291 26027.5 -03430.1 -07.5076 26252.6
 05 04 2013  09 09  -21.0290 26027.5 -03430.3 -07.5079 26252.6
 05 04 2013  09 10  -21.0290 26027.4 -03430.4 -07.5082 26252.5
 05 04 2013  09 11  -21.0290 26027.4 -03430.5 -07.5085 26252.5
 05 04 2013  09 12  -21.0292 26027.3 -03430.7 -07.5089 26252.5
 05 04 2013  09 13  -21.0293 26027.2 -03430.8 -07.5092 26252.4
 05 04 2013  09 14  -21.0294 26027.1 -03430.9 -07.5095 26252.2
 05 04 2013  09 15  -21.0296 26027.0 -03431.0 -07.5098 26252.2
 05 04 2013  09 16  -21.0301 26027.0 -03431.2 -07.5102 26252.2
 05 04 2013  09 17  -21.0303 26026.9 -03431.3 -07.5104 26252.2
 05 04 2013  09 18  -21.0306 26026.9 -03431.4 -07.5107 26252.1
 05 04 2013  09 19  -21.0307 26026.7 -03431.5 -07.5109 26252.0
 05 04 2013  09 20  -21.0309 26026.7 -03431.6 -07.5110 26251.9
 05 04 2013  09 21  -21.0311 26026.6 -03431.7 -07.5114 26251.9
 05 04 2013  09 22  -21.0313 26026.5 -03431.8 -07.5116 26251.8
 05 04 2013  09 23  -21.0319 26026.5 -03432.0 -07.5120 26251.8
 05 04 2013  09 24  -21.0326 26026.5 -03432.1 -07.5123 26251.8
 05 04 2013  09 25  -21.0332 26026.5 -03432.3 -07.5127 26251.9
 05 04 2013  09 26  -21.0339 26026.6 -03432.5 -07.5131 26252.0
 05 04 2013  09 27  -21.0346 26026.6 -03432.7 -07.5134 26252.0
 05 04 2013  09 28  -21.0351 26026.6 -03432.8 -07.5137 26252.0
 05 04 2013  09 29  -21.0355 26026.5 -03432.8 -07.5137 26251.9
 05 04 2013  09 30  -21.0359 26026.5 -03432.8 -07.5138 26251.9
 05 04 2013  09 31  -21.0363 26026.4 -03432.9 -07.5139 26251.8
 05 04 2013  09 32  -21.0366 26026.3 -03433.0 -07.5141 26251.8
 05 04 2013  09 33  -21.0372 26026.3 -03433.0 -07.5143 26251.8
 05 04 2013  09 34  -21.0378 26026.3 -03433.1 -07.5145 26251.7
 05 04 2013  09 35  -21.0384 26026.2 -03433.2 -07.5147 26251.7
 05 04 2013  09 36  -21.0390 26026.2 -03433.3 -07.5149 26251.6
 05 04 2013  09 37  -21.0394 26026.1 -03433.4 -07.5151 26251.6
 05 04 2013  09 38  -21.0400 26026.0 -03433.5 -07.5153 26251.5
 05 04 2013  09 39  -21.0407 26026.0 -03433.6 -07.5156 26251.5
 05 04 2013  09 40  -21.0413 26026.0 -03433.7 -07.5158 26251.5
 05 04 2013  09 41  -21.0418 26025.9 -03433.8 -07.5160 26251.5
 05 04 2013  09 42  -21.0424 26025.9 -03433.9 -07.5163 26251.4
 05 04 2013  09 43  -21.0429 26025.9 -03434.0 -07.5165 26251.4
 05 04 2013  09 44  -21.0433 26025.9 -03434.1 -07.5168 26251.5
 05 04 2013  09 45  -21.0438 26025.9 -03434.3 -07.5171 26251.5
 05 04 2013  09 46  -21.0443 26025.9 -03434.3 -07.5172 26251.5
 05 04 2013  09 47  -21.0445 26025.9 -03434.5 -07.5175 26251.6
 05 04 2013  09 48  -21.0449 26025.9 -03434.5 -07.5177 26251.5
 05 04 2013  09 49  -21.0457 26026.0 -03434.7 -07.5180 26251.6
 05 04 2013  09 50  -21.0465 26026.0 -03434.8 -07.5182 26251.7
 05 04 2013  09 51  -21.0472 26026.0 -03434.9 -07.5184 26251.7
 05 04 2013  09 52  -21.0476 26026.1 -03435.0 -07.5186 26251.8
 05 04 2013  09 53  -21.0480 26026.0 -03435.0 -07.5186 26251.7
 05 04 2013  09 54  -21.0482 26025.9 -03435.1 -07.5188 26251.6
 05 04 2013  09 55  -21.0485 26025.9 -03435.1 -07.5189 26251.6
 05 04 2013  09 56  -21.0492 26025.9 -03435.2 -07.5191 26251.6
 05 04 2013  09 57  -21.0497 26025.9 -03435.3 -07.5193 26251.7
 05 04 2013  09 58  -21.0500 26025.9 -03435.4 -07.5194 26251.7
 05 04 2013  09 59  -21.0502 26026.0 -03435.4 -07.5196 26251.7
 05 04 2013  10 00  -21.0506 26025.8 -03435.5 -07.5197 26251.6
 05 04 2013  10 01  -21.0509 26025.8 -03435.6 -07.5199 26251.5
 05 04 2013  10 02  -21.0513 26025.8 -03435.7 -07.5202 26251.6
 05 04 2013  10 03  -21.0516 26025.9 -03435.9 -07.5205 26251.7
 05 04 2013  10 04  -21.0521 26025.9 -03436.0 -07.5208 26251.7
 05 04 2013  10 05  -21.0526 26025.9 -03436.1 -07.5211 26251.7
 05 04 2013  10 06  -21.0532 26026.1 -03436.4 -07.5215 26252.0
 05 04 2013  10 07  -21.0537 26026.3 -03436.5 -07.5219 26252.2
 05 04 2013  10 08  -21.0540 26026.3 -03436.6 -07.5220 26252.2
 05 04 2013  10 09  -21.0545 26026.5 -03436.8 -07.5223 26252.4
 05 04 2013  10 10  -21.0549 26026.6 -03436.9 -07.5226 26252.6
 05 04 2013  10 11  -21.0553 26026.8 -03437.1 -07.5229 26252.7
 05 04 2013  10 12  -21.0559 26027.0 -03437.2 -07.5231 26253.0
 05 04 2013  10 13  -21.0565 26027.2 -03437.4 -07.5234 26253.2
 05 04 2013  10 14  -21.0570 26027.4 -03437.4 -07.5235 26253.4
 05 04 2013  10 15  -21.0571 26027.6 -03437.5 -07.5236 26253.6
 05 04 2013  10 16  -21.0576 26027.8 -03437.6 -07.5237 26253.8
 05 04 2013  10 17  -21.0583 26027.9 -03437.7 -07.5238 26253.9
 05 04 2013  10 18  -21.0589 26028.2 -03437.8 -07.5240 26254.2
 05 04 2013  10 19  -21.0593 26028.3 -03437.8 -07.5241 26254.4
 05 04 2013  10 20  -21.0599 26028.5 -03437.9 -07.5242 26254.6
 05 04 2013  10 21  -21.0605 26028.8 -03437.9 -07.5242 26254.8
 05 04 2013  10 22  -21.0616 26029.1 -03438.1 -07.5244 26255.2
 05 04 2013  10 23  -21.0628 26029.2 -03438.1 -07.5244 26255.3
 05 04 2013  10 24  -21.0633 26029.3 -03438.1 -07.5244 26255.4
 05 04 2013  10 25  -21.0641 26029.5 -03438.1 -07.5243 26255.5
 05 04 2013  10 26  -21.0648 26029.4 -03438.1 -07.5243 26255.5
 05 04 2013  10 27  -21.0654 26029.5 -03438.1 -07.5242 26255.5
 05 04 2013  10 28  -21.0659 26029.5 -03438.1 -07.5242 26255.6
 05 04 2013  10 29  -21.0664 26029.7 -03438.1 -07.5242 26255.8
 05 04 2013  10 30  -21.0669 26029.7 -03438.1 -07.5242 26255.8
 05 04 2013  10 31  -21.0673 26029.9 -03438.1 -07.5242 26256.0
 05 04 2013  10 32  -21.0675 26030.1 -03438.1 -07.5242 26256.2
 05 04 2013  10 33  -21.0678 26030.3 -03438.1 -07.5242 26256.4
 05 04 2013  10 34  -21.0683 26030.5 -03438.1 -07.5241 26256.5
 05 04 2013  10 35  -21.0690 26030.7 -03438.1 -07.5241 26256.7
 05 04 2013  10 36  -21.0697 26030.8 -03438.2 -07.5241 26256.9
 05 04 2013  10 37  -21.0701 26031.0 -03438.1 -07.5239 26257.1
 05 04 2013  10 38  -21.0706 26031.2 -03438.1 -07.5238 26257.3
 05 04 2013  10 39  -21.0711 26031.4 -03438.1 -07.5237 26257.5
 05 04 2013  10 40  -21.0716 26031.7 -03438.0 -07.5235 26257.7
 05 04 2013  10 41  -21.0719 26031.9 -03438.0 -07.5234 26257.9
 05 04 2013  10 42  -21.0723 26032.1 -03437.9 -07.5232 26258.2
 05 04 2013  10 43  -21.0726 26032.4 -03437.9 -07.5230 26258.4
 05 04 2013  10 44  -21.0730 26032.5 -03437.8 -07.5227 26258.5
 05 04 2013  10 45  -21.0732 26032.6 -03437.7 -07.5225 26258.6
 05 04 2013  10 46  -21.0734 26032.8 -03437.6 -07.5223 26258.8
 05 04 2013  10 47  -21.0736 26032.8 -03437.5 -07.5220 26258.8
 05 04 2013  10 48  -21.0738 26033.0 -03437.4 -07.5219 26259.0
 05 04 2013  10 49  -21.0739 26033.4 -03437.4 -07.5217 26259.3
 05 04 2013  10 50  -21.0740 26033.7 -03437.4 -07.5216 26259.6
 05 04 2013  10 51  -21.0742 26033.9 -03437.3 -07.5214 26259.8
 05 04 2013  10 52  -21.0746 26034.1 -03437.3 -07.5213 26260.1
 05 04 2013  10 53  -21.0750 26034.4 -03437.3 -07.5211 26260.4
 05 04 2013  10 54  -21.0753 26034.8 -03437.2 -07.5210 26260.7
 05 04 2013  10 55  -21.0756 26035.0 -03437.2 -07.5207 26260.9
 05 04 2013  10 56  -21.0761 26035.2 -03437.0 -07.5204 26261.1
 05 04 2013  10 57  -21.0765 26035.4 -03437.0 -07.5202 26261.3
 05 04 2013  10 58  -21.0768 26035.7 -03436.9 -07.5201 26261.6
 05 04 2013  10 59  -21.0772 26036.0 -03436.9 -07.5198 26261.9
 05 04 2013  11 00  -21.0778 26036.2 -03436.8 -07.5196 26262.1
 05 04 2013  11 01  -21.0782 26036.6 -03436.8 -07.5194 26262.4
 05 04 2013  11 02  -21.0787 26036.9 -03436.7 -07.5192 26262.8
 05 04 2013  11 03  -21.0790 26037.3 -03436.6 -07.5189 26263.1
 05 04 2013  11 04  -21.0794 26037.7 -03436.6 -07.5187 26263.5
 05 04 2013  11 05  -21.0799 26038.0 -03436.5 -07.5184 26263.8
 05 04 2013  11 06  -21.0803 26038.5 -03436.4 -07.5181 26264.3
 05 04 2013  11 07  -21.0806 26038.9 -03436.3 -07.5178 26264.7
 05 04 2013  11 08  -21.0810 26039.3 -03436.2 -07.5174 26265.0
 05 04 2013  11 09  -21.0817 26039.6 -03436.0 -07.5170 26265.3
 05 04 2013  11 10  -21.0822 26039.8 -03435.9 -07.5165 26265.5
 05 04 2013  11 11  -21.0825 26040.1 -03435.7 -07.5160 26265.8
 05 04 2013  11 12  -21.0826 26040.5 -03435.6 -07.5157 26266.1
 05 04 2013  11 13  -21.0825 26040.8 -03435.5 -07.5154 26266.5
 05 04 2013  11 14  -21.0828 26041.1 -03435.3 -07.5151 26266.7
 05 04 2013  11 15  -21.0832 26041.4 -03435.3 -07.5148 26267.0
 05 04 2013  11 16  -21.0836 26041.5 -03435.1 -07.5144 26267.1
 05 04 2013  11 17  -21.0841 26041.7 -03435.0 -07.5141 26267.3
 05 04 2013  11 18  -21.0845 26041.8 -03434.9 -07.5138 26267.4
 05 04 2013  11 19  -21.0847 26042.0 -03434.8 -07.5136 26267.6
 05 04 2013  11 20  -21.0849 26042.2 -03434.7 -07.5133 26267.8
 05 04 2013  11 21  -21.0848 26042.5 -03434.7 -07.5132 26268.1
 05 04 2013  11 22  -21.0849 26042.7 -03434.6 -07.5130 26268.2
 05 04 2013  11 23  -21.0851 26042.9 -03434.5 -07.5128 26268.4
 05 04 2013  11 24  -21.0853 26043.1 -03434.4 -07.5125 26268.6
 05 04 2013  11 25  -21.0853 26043.4 -03434.4 -07.5124 26268.9
 05 04 2013  11 26  -21.0854 26043.5 -03434.3 -07.5122 26268.9
 05 04 2013  11 27  -21.0854 26043.7 -03434.3 -07.5120 26269.1
 05 04 2013  11 28  -21.0853 26043.9 -03434.2 -07.5118 26269.3
 05 04 2013  11 29  -21.0863 26044.0 -03434.1 -07.5115 26269.5
 05 04 2013  11 30  -21.0895 26043.8 -03433.8 -07.5109 26269.2
 05 04 2013  11 31  -21.0899 26044.0 -03433.7 -07.5108 26269.4
 05 04 2013  11 32  -21.0898 26044.3 -03433.7 -07.5106 26269.7
 05 04 2013  11 33  -21.0898 26044.5 -03433.6 -07.5104 26269.9
 05 04 2013  11 34  -21.0898 26044.9 -03433.6 -07.5103 26270.2
 05 04 2013  11 35  -21.0899 26045.0 -03433.5 -07.5100 26270.3
 05 04 2013  11 36  -21.0900 26045.4 -03433.5 -07.5098 26270.7
 05 04 2013  11 37  -21.0901 26045.6 -03433.3 -07.5094 26270.9
 05 04 2013  11 38  -21.0902 26045.9 -03433.3 -07.5092 26271.2
 05 04 2013  11 39  -21.0903 26046.3 -03433.2 -07.5090 26271.6
 05 04 2013  11 40  -21.0889 26046.7 -03433.2 -07.5089 26272.0
 05 04 2013  11 41  -21.0865 26047.3 -03433.4 -07.5091 26272.6
 05 04 2013  11 42  -21.0864 26047.9 -03433.4 -07.5089 26273.2
 05 04 2013  11 43  -21.0862 26048.1 -03433.2 -07.5084 26273.3
 05 04 2013  11 44  -21.0861 26048.6 -03433.1 -07.5081 26273.8
 05 04 2013  11 45  -21.0856 26049.0 -03433.0 -07.5078 26274.2
 05 04 2013  11 46  -21.0854 26049.2 -03432.9 -07.5073 26274.5
 05 04 2013  11 47  -21.0849 26049.7 -03432.7 -07.5069 26274.9
 05 04 2013  11 48  -21.0848 26050.0 -03432.5 -07.5064 26275.1
 05 04 2013  11 49  -21.0847 26050.3 -03432.4 -07.5062 26275.4
 05 04 2013  11 50  -21.0844 26050.8 -03432.4 -07.5059 26275.9
 05 04 2013  11 51  -21.0840 26051.3 -03432.3 -07.5056 26276.4
 05 04 2013  11 52  -21.0835 26051.7 -03432.2 -07.5052 26276.8
 05 04 2013  11 53  -21.0831 26052.2 -03432.1 -07.5049 26277.3
 05 04 2013  11 54  -21.0829 26052.5 -03432.0 -07.5045 26277.6
 05 04 2013  11 55  -21.0828 26052.6 -03431.7 -07.5040 26277.7
 05 04 2013  11 56  -21.0827 26053.2 -03431.7 -07.5037 26278.2
 05 04 2013  11 57  -21.0825 26053.7 -03431.7 -07.5035 26278.7
 05 04 2013  11 58  -21.0822 26053.8 -03431.4 -07.5029 26278.8
 05 04 2013  11 59  -21.0818 26054.7 -03431.4 -07.5027 26279.7
 05 04 2013  12 00  -21.0815 26055.0 -03431.3 -07.5023 26280.0
 05 04 2013  12 01  -21.0812 26055.3 -03431.0 -07.5016 26280.2
 05 04 2013  12 02  -21.0811 26055.9 -03431.0 -07.5014 26280.8
 05 04 2013  12 03  -21.0806 26056.2 -03430.8 -07.5008 26281.1
 05 04 2013  12 04  -21.0803 26056.6 -03430.6 -07.5005 26281.4
 05 04 2013  12 05  -21.0800 26056.7 -03430.4 -07.4999 26281.5
 05 04 2013  12 06  -21.0795 26057.0 -03430.3 -07.4995 26281.9
 05 04 2013  12 07  -21.0793 26057.1 -03430.1 -07.4991 26281.9
 05 04 2013  12 08  -21.0789 26057.6 -03430.0 -07.4987 26282.4
 05 04 2013  12 09  -21.0785 26058.0 -03429.9 -07.4984 26282.7
 05 04 2013  12 10  -21.0781 26058.2 -03429.7 -07.4980 26282.9
 05 04 2013  12 11  -21.0779 26058.1 -03429.5 -07.4975 26282.8
 05 04 2013  12 12  -21.0775 26058.5 -03429.4 -07.4972 26283.2
 05 04 2013  12 13  -21.0772 26058.6 -03429.3 -07.4969 26283.3
 05 04 2013  12 14  -21.0769 26058.6 -03429.1 -07.4965 26283.3
 05 04 2013  12 15  -21.0765 26059.0 -03429.0 -07.4964 26283.6
 05 04 2013  12 16  -21.0762 26059.2 -03428.9 -07.4960 26283.8
 05 04 2013  12 17  -21.0759 26059.3 -03428.8 -07.4958 26284.0
 05 04 2013  12 18  -21.0756 26059.7 -03428.8 -07.4955 26284.3
 05 04 2013  12 19  -21.0751 26060.0 -03428.7 -07.4953 26284.6
 05 04 2013  12 20  -21.0744 26060.2 -03428.5 -07.4948 26284.7
 05 04 2013  12 21  -21.0740 26060.7 -03428.5 -07.4946 26285.2
 05 04 2013  12 22  -21.0736 26060.9 -03428.3 -07.4942 26285.4
 05 04 2013  12 23  -21.0729 26060.7 -03428.0 -07.4936 26285.2
 05 04 2013  12 24  -21.0724 26061.3 -03428.0 -07.4935 26285.8
 05 04 2013  12 25  -21.0719 26061.5 -03427.9 -07.4932 26286.0
 05 04 2013  12 26  -21.0712 26061.5 -03427.7 -07.4927 26286.0
 05 04 2013  12 27  -21.0707 26061.9 -03427.6 -07.4924 26286.3
 05 04 2013  12 28  -21.0703 26061.9 -03427.4 -07.4920 26286.4
 05 04 2013  12 29  -21.0700 26062.2 -03427.3 -07.4917 26286.5
 05 04 2013  12 30  -21.0697 26062.3 -03427.2 -07.4914 26286.7
 05 04 2013  12 31  -21.0693 26062.5 -03427.1 -07.4910 26286.8
 05 04 2013  12 32  -21.0686 26062.7 -03427.0 -07.4908 26287.1
 05 04 2013  12 33  -21.0681 26063.0 -03426.9 -07.4906 26287.3
 05 04 2013  12 34  -21.0679 26063.2 -03426.8 -07.4903 26287.5
 05 04 2013  12 35  -21.0678 26063.4 -03426.7 -07.4901 26287.7
 05 04 2013  12 36  -21.0677 26063.5 -03426.6 -07.4899 26287.8
 05 04 2013  12 37  -21.0675 26063.8 -03426.6 -07.4897 26288.1
 05 04 2013  12 38  -21.0671 26064.0 -03426.6 -07.4895 26288.3
 05 04 2013  12 39  -21.0667 26064.4 -03426.5 -07.4894 26288.7
 05 04 2013  12 40  -21.0664 26064.8 -03426.5 -07.4892 26289.0
 05 04 2013  12 41  -21.0661 26064.9 -03426.4 -07.4890 26289.2
 05 04 2013  12 42  -21.0657 26065.3 -03426.4 -07.4888 26289.5
 05 04 2013  12 43  -21.0654 26065.4 -03426.3 -07.4886 26289.6
 05 04 2013  12 44  -21.0650 26065.7 -03426.3 -07.4884 26289.9
 05 04 2013  12 45  -21.0645 26065.9 -03426.2 -07.4882 26290.1
 05 04 2013  12 46  -21.0641 26066.2 -03426.2 -07.4882 26290.4
 05 04 2013  12 47  -21.0637 26066.4 -03426.2 -07.4880 26290.6
 05 04 2013  12 48  -21.0633 26066.8 -03426.2 -07.4879 26291.0
 05 04 2013  12 49  -21.0631 26067.2 -03426.2 -07.4879 26291.4
 05 04 2013  12 50  -21.0627 26067.7 -03426.3 -07.4879 26291.9
 05 04 2013  12 51  -21.0624 26068.1 -03426.3 -07.4878 26292.3
 05 04 2013  12 52  -21.0622 26068.8 -03426.4 -07.4878 26293.0
 05 04 2013  12 53  -21.0618 26069.2 -03426.3 -07.4876 26293.4
 05 04 2013  12 54  -21.0614 26069.7 -03426.3 -07.4875 26293.9
 05 04 2013  12 55  -21.0610 26070.1 -03426.3 -07.4873 26294.3
 05 04 2013  12 56  -21.0603 26070.5 -03426.3 -07.4872 26294.7
 05 04 2013  12 57  -21.0599 26070.8 -03426.3 -07.4870 26295.0
 05 04 2013  12 58  -21.0594 26071.2 -03426.2 -07.4868 26295.3
 05 04 2013  12 59  -21.0591 26071.7 -03426.3 -07.4867 26295.9
 05 04 2013  13 00  -21.0585 26072.2 -03426.3 -07.4867 26296.4
 05 04 2013  13 01  -21.0581 26072.7 -03426.3 -07.4866 26296.8
 05 04 2013  13 02  -21.0576 26073.0 -03426.3 -07.4863 26297.1
 05 04 2013  13 03  -21.0570 26073.3 -03426.2 -07.4861 26297.4
 05 04 2013  13 04  -21.0563 26073.6 -03426.2 -07.4859 26297.8
 05 04 2013  13 05  -21.0556 26074.0 -03426.1 -07.4858 26298.1
 05 04 2013  13 06  -21.0549 26074.2 -03426.0 -07.4855 26298.3
 05 04 2013  13 07  -21.0543 26074.4 -03426.0 -07.4854 26298.5
 05 04 2013  13 08  -21.0537 26074.6 -03426.0 -07.4853 26298.7
 05 04 2013  13 09  -21.0532 26074.8 -03426.0 -07.4852 26298.9
 05 04 2013  13 10  -21.0529 26074.8 -03425.9 -07.4851 26298.9
 05 04 2013  13 11  -21.0527 26074.8 -03425.9 -07.4851 26298.9
 05 04 2013  13 12  -21.0524 26074.9 -03425.9 -07.4850 26299.0
 05 04 2013  13 13  -21.0521 26075.0 -03426.0 -07.4851 26299.1
 05 04 2013  13 14  -21.0518 26075.2 -03426.0 -07.4852 26299.3
 05 04 2013  13 15  -21.0515 26075.4 -03426.1 -07.4853 26299.5
 05 04 2013  13 16  -21.0514 26075.5 -03426.1 -07.4852 26299.6
 05 04 2013  13 17  -21.0513 26075.6 -03426.0 -07.4851 26299.7
 05 04 2013  13 18  -21.0512 26075.7 -03426.0 -07.4851 26299.8
 05 04 2013  13 19  -21.0509 26075.9 -03426.0 -07.4851 26300.0
 05 04 2013  13 20  -21.0507 26076.1 -03426.1 -07.4850 26300.2
 05 04 2013  13 21  -21.0508 26076.3 -03426.1 -07.4850 26300.4
 05 04 2013  13 22  -21.0506 26076.4 -03426.0 -07.4848 26300.5
 05 04 2013  13 23  -21.0501 26076.5 -03425.9 -07.4846 26300.6
 05 04 2013  13 24  -21.0497 26076.4 -03425.9 -07.4845 26300.5
 05 04 2013  13 25  -21.0493 26076.6 -03425.9 -07.4846 26300.7
 05 04 2013  13 26  -21.0488 26076.9 -03426.0 -07.4848 26301.0
 05 04 2013  13 27  -21.0484 26077.0 -03426.1 -07.4848 26301.1
 05 04 2013  13 28  -21.0481 26077.1 -03426.1 -07.4847 26301.2
 05 04 2013  13 29  -21.0476 26077.2 -03426.0 -07.4847 26301.3
 05 04 2013  13 30  -21.0469 26077.1 -03426.0 -07.4846 26301.2
 05 04 2013  13 31  -21.0463 26077.2 -03426.1 -07.4847 26301.3
 05 04 2013  13 32  -21.0457 26077.4 -03426.2 -07.4849 26301.5
 05 04 2013  13 33  -21.0450 26077.5 -03426.2 -07.4850 26301.6
 05 04 2013  13 34  -21.0443 26077.6 -03426.3 -07.4851 26301.7
 05 04 2013  13 35  -21.0438 26077.5 -03426.3 -07.4852 26301.7
 05 04 2013  13 36  -21.0432 26077.4 -03426.3 -07.4853 26301.5
 05 04 2013  13 37  -21.0426 26077.5 -03426.4 -07.4855 26301.6
 05 04 2013  13 38  -21.0422 26077.6 -03426.6 -07.4857 26301.8
 05 04 2013  13 39  -21.0417 26077.7 -03426.7 -07.4860 26301.9
 05 04 2013  13 40  -21.0413 26077.9 -03426.9 -07.4863 26302.0
 05 04 2013  13 41  -21.0408 26077.9 -03427.0 -07.4865 26302.1
 05 04 2013  13 42  -21.0404 26078.1 -03427.1 -07.4867 26302.3
 05 04 2013  13 43  -21.0400 26078.2 -03427.2 -07.4870 26302.5
 05 04 2013  13 44  -21.0397 26078.4 -03427.4 -07.4872 26302.7
 05 04 2013  13 45  -21.0395 26078.5 -03427.5 -07.4873 26302.8
 05 04 2013  13 46  -21.0391 26078.4 -03427.4 -07.4874 26302.6
 05 04 2013  13 47  -21.0389 26078.3 -03427.5 -07.4874 26302.6
 05 04 2013  13 48  -21.0388 26078.5 -03427.6 -07.4876 26302.8
 05 04 2013  13 49  -21.0388 26078.8 -03427.7 -07.4879 26303.1
 05 04 2013  13 50  -21.0386 26079.0 -03427.8 -07.4880 26303.3
 05 04 2013  13 51  -21.0387 26079.4 -03427.9 -07.4882 26303.7
 05 04 2013  13 52  -21.0390 26079.9 -03428.1 -07.4884 26304.2
 05 04 2013  13 53  -21.0392 26080.3 -03428.2 -07.4885 26304.7
 05 04 2013  13 54  -21.0395 26080.7 -03428.2 -07.4884 26305.0
 05 04 2013  13 55  -21.0396 26081.0 -03428.2 -07.4884 26305.3
 05 04 2013  13 56  -21.0398 26081.3 -03428.3 -07.4883 26305.6
 05 04 2013  13 57  -21.0399 26081.4 -03428.2 -07.4881 26305.7
 05 04 2013  13 58  -21.0399 26081.6 -03428.1 -07.4880 26305.9
 05 04 2013  13 59  -21.0401 26081.9 -03428.2 -07.4879 26306.2
 05 04 2013  14 00  -21.0404 26082.1 -03428.1 -07.4878 26306.4
 05 04 2013  14 01  -21.0406 26082.3 -03428.1 -07.4877 26306.6
 05 04 2013  14 02  -21.0407 26082.3 -03428.0 -07.4875 26306.7
 05 04 2013  14 03  -21.0408 26082.5 -03427.9 -07.4873 26306.8
 05 04 2013  14 04  -21.0408 26082.4 -03427.8 -07.4871 26306.7
 05 04 2013  14 05  -21.0409 26082.3 -03427.7 -07.4869 26306.6
 05 04 2013  14 06  -21.0410 26082.3 -03427.7 -07.4868 26306.6
 05 04 2013  14 07  -21.0411 26082.4 -03427.7 -07.4868 26306.6
 05 04 2013  14 08  -21.0413 26082.5 -03427.7 -07.4868 26306.8
 05 04 2013  14 09  -21.0414 26082.6 -03427.7 -07.4867 26306.9
 05 04 2013  14 10  -21.0416 26082.9 -03427.7 -07.4867 26307.2
 05 04 2013  14 11  -21.0419 26083.2 -03427.8 -07.4868 26307.4
 05 04 2013  14 12  -21.0419 26083.2 -03427.7 -07.4866 26307.5
 05 04 2013  14 13  -21.0420 26083.3 -03427.6 -07.4864 26307.6
 05 04 2013  14 14  -21.0420 26083.5 -03427.6 -07.4863 26307.7
 05 04 2013  14 15  -21.0419 26083.4 -03427.5 -07.4860 26307.7
 05 04 2013  14 16  -21.0417 26083.5 -03427.4 -07.4858 26307.8
 05 04 2013  14 17  -21.0417 26083.7 -03427.4 -07.4857 26307.9
 05 04 2013  14 18  -21.0417 26083.7 -03427.3 -07.4855 26307.9
 05 04 2013  14 19  -21.0416 26083.7 -03427.2 -07.4853 26307.9
 05 04 2013  14 20  -21.0418 26083.7 -03427.1 -07.4850 26307.9
 05 04 2013  14 21  -21.0436 26083.7 -03426.8 -07.4846 26307.8
 05 04 2013  14 22  -21.0460 26083.4 -03426.5 -07.4840 26307.5
 05 04 2013  14 23  -21.0467 26083.2 -03426.4 -07.4839 26307.3
 05 04 2013  14 24  -21.0466 26083.2 -03426.3 -07.4836 26307.3
 05 04 2013  14 25  -21.0465 26083.2 -03426.2 -07.4834 26307.3
 05 04 2013  14 26  -21.0464 26083.1 -03426.1 -07.4832 26307.1
 05 04 2013  14 27  -21.0461 26082.8 -03426.0 -07.4831 26306.9
 05 04 2013  14 28  -21.0460 26082.8 -03425.9 -07.4829 26306.9
 05 04 2013  14 29  -21.0458 26082.8 -03425.9 -07.4827 26306.8
 05 04 2013  14 30  -21.0455 26082.9 -03425.8 -07.4825 26306.9
 05 04 2013  14 31  -21.0454 26083.0 -03425.7 -07.4823 26307.0
 05 04 2013  14 32  -21.0450 26082.9 -03425.5 -07.4819 26306.9
 05 04 2013  14 33  -21.0404 26083.2 -03425.6 -07.4820 26307.1
 05 04 2013  14 34  -21.0399 26083.3 -03425.6 -07.4819 26307.2
 05 04 2013  14 35  -21.0397 26083.2 -03425.5 -07.4818 26307.1
 05 04 2013  14 36  -21.0391 26082.9 -03425.3 -07.4815 26306.9
 05 04 2013  14 37  -21.0387 26082.8 -03425.2 -07.4813 26306.7
 05 04 2013  14 38  -21.0385 26082.7 -03425.2 -07.4812 26306.6
 05 04 2013  14 39  -21.0382 26082.6 -03425.1 -07.4811 26306.5
 05 04 2013  14 40  -21.0380 26082.6 -03425.0 -07.4810 26306.5
 05 04 2013  14 41  -21.0376 26082.6 -03425.0 -07.4809 26306.5
 05 04 2013  14 42  -21.0373 26082.6 -03424.9 -07.4807 26306.5
 05 04 2013  14 43  -21.0367 26082.6 -03424.9 -07.4807 26306.5
 05 04 2013  14 44  -21.0364 26082.8 -03424.9 -07.4806 26306.7
 05 04 2013  14 45  -21.0361 26082.9 -03424.9 -07.4806 26306.8
 05 04 2013  14 46  -21.0358 26083.1 -03424.8 -07.4804 26307.0
 05 04 2013  14 47  -21.0354 26083.2 -03424.8 -07.4802 26307.1
 05 04 2013  14 48  -21.0352 26083.2 -03424.6 -07.4799 26307.0
 05 04 2013  14 49  -21.0348 26082.9 -03424.4 -07.4795 26306.7
 05 04 2013  14 50  -21.0344 26082.8 -03424.3 -07.4794 26306.7
 05 04 2013  14 51  -21.0341 26082.7 -03424.2 -07.4792 26306.6
 05 04 2013  14 52  -21.0338 26082.6 -03424.2 -07.4791 26306.4
 05 04 2013  14 53  -21.0335 26082.7 -03424.1 -07.4790 26306.5
 05 04 2013  14 54  -21.0332 26082.8 -03424.1 -07.4789 26306.6
 05 04 2013  14 55  -21.0328 26082.9 -03424.1 -07.4789 26306.7
 05 04 2013  14 56  -21.0326 26082.9 -03424.1 -07.4789 26306.7
 05 04 2013  14 57  -21.0324 26082.9 -03424.1 -07.4788 26306.7
 05 04 2013  14 58  -21.0322 26082.8 -03424.0 -07.4787 26306.6
 05 04 2013  14 59  -21.0319 26082.6 -03424.0 -07.4787 26306.4
 05 04 2013  15 00  -21.0316 26082.5 -03424.0 -07.4787 26306.3
 05 04 2013  15 01  -21.0313 26082.4 -03424.0 -07.4787 26306.2
 05 04 2013  15 02  -21.0310 26082.3 -03424.0 -07.4788 26306.1
 05 04 2013  15 03  -21.0308 26082.2 -03424.0 -07.4789 26306.0
 05 04 2013  15 04  -21.0308 26082.2 -03424.1 -07.4791 26306.0
 05 04 2013  15 05  -21.0307 26082.3 -03424.2 -07.4793 26306.1
 05 04 2013  15 06  -21.0304 26082.3 -03424.3 -07.4794 26306.1
 05 04 2013  15 07  -21.0303 26082.3 -03424.3 -07.4795 26306.1
 05 04 2013  15 08  -21.0302 26082.2 -03424.4 -07.4797 26306.1
 05 04 2013  15 09  -21.0301 26082.2 -03424.4 -07.4797 26306.0
 05 04 2013  15 10  -21.0301 26082.3 -03424.6 -07.4800 26306.2
 05 04 2013  15 11  -21.0302 26082.3 -03424.6 -07.4801 26306.2
 05 04 2013  15 12  -21.0303 26082.3 -03424.7 -07.4802 26306.2
 05 04 2013  15 13  -21.0302 26082.3 -03424.7 -07.4803 26306.1
 05 04 2013  15 14  -21.0303 26082.3 -03424.7 -07.4804 26306.2
 05 04 2013  15 15  -21.0305 26082.3 -03424.8 -07.4805 26306.2
 05 04 2013  15 16  -21.0307 26082.4 -03424.8 -07.4806 26306.3
 05 04 2013  15 17  -21.0311 26082.3 -03424.8 -07.4806 26306.2
 05 04 2013  15 18  -21.0313 26082.1 -03424.7 -07.4803 26305.9
 05 04 2013  15 19  -21.0314 26081.9 -03424.6 -07.4803 26305.8
 05 04 2013  15 20  -21.0316 26081.8 -03424.6 -07.4803 26305.7
 05 04 2013  15 21  -21.0318 26081.6 -03424.6 -07.4803 26305.5
 05 04 2013  15 22  -21.0320 26081.5 -03424.6 -07.4803 26305.3
 05 04 2013  15 23  -21.0322 26081.3 -03424.6 -07.4803 26305.1
 05 04 2013  15 24  -21.0324 26081.1 -03424.5 -07.4803 26305.0
 05 04 2013  15 25  -21.0329 26081.1 -03424.6 -07.4804 26304.9
 05 04 2013  15 26  -21.0325 26080.8 -03424.5 -07.4804 26304.7
 05 04 2013  15 27  -21.0326 26080.6 -03424.5 -07.4804 26304.5
 05 04 2013  15 28  -21.0327 26080.7 -03424.6 -07.4805 26304.6
 05 04 2013  15 29  -21.0330 26080.7 -03424.6 -07.4806 26304.6
 05 04 2013  15 30  -21.0331 26080.9 -03424.7 -07.4806 26304.8
 05 04 2013  15 31  -21.0334 26081.1 -03424.7 -07.4807 26305.0
 05 04 2013  15 32  -21.0335 26081.2 -03424.7 -07.4806 26305.1
 05 04 2013  15 33  -21.0336 26081.2 -03424.6 -07.4805 26305.1
 05 04 2013  15 34  -21.0337 26081.2 -03424.6 -07.4804 26305.1
 05 04 2013  15 35  -21.0340 26081.3 -03424.6 -07.4804 26305.2
 05 04 2013  15 36  -21.0341 26081.1 -03424.5 -07.4803 26305.0
 05 04 2013  15 37  -21.0344 26081.1 -03424.5 -07.4803 26304.9
 05 04 2013  15 38  -21.0349 26081.0 -03424.5 -07.4803 26304.9
 05 04 2013  15 39  -21.0353 26081.2 -03424.6 -07.4805 26305.0
 05 04 2013  15 40  -21.0360 26081.1 -03424.6 -07.4804 26304.9
 05 04 2013  15 41  -21.0365 26080.9 -03424.5 -07.4803 26304.8
 05 04 2013  15 42  -21.0370 26080.9 -03424.5 -07.4804 26304.8
 05 04 2013  15 43  -21.0376 26080.7 -03424.5 -07.4804 26304.6
 05 04 2013  15 44  -21.0382 26080.7 -03424.6 -07.4806 26304.6
 05 04 2013  15 45  -21.0390 26080.8 -03424.7 -07.4808 26304.7
 05 04 2013  15 46  -21.0396 26080.7 -03424.7 -07.4809 26304.6
 05 04 2013  15 47  -21.0405 26080.6 -03424.8 -07.4810 26304.5
 05 04 2013  15 48  -21.0413 26080.5 -03424.8 -07.4811 26304.4
 05 04 2013  15 49  -21.0424 26080.5 -03424.9 -07.4812 26304.5
 05 04 2013  15 50  -21.0434 26080.6 -03424.9 -07.4813 26304.5
 05 04 2013  15 51  -21.0444 26080.6 -03424.9 -07.4813 26304.6
 05 04 2013  15 52  -21.0454 26080.5 -03424.9 -07.4813 26304.4
 05 04 2013  15 53  -21.0462 26080.2 -03424.7 -07.4810 26304.1
 05 04 2013  15 54  -21.0469 26080.1 -03424.7 -07.4810 26304.0
 05 04 2013  15 55  -21.0478 26080.0 -03424.7 -07.4810 26303.9
 05 04 2013  15 56  -21.0490 26080.2 -03424.8 -07.4811 26304.1
 05 04 2013  15 57  -21.0501 26080.2 -03424.8 -07.4811 26304.1
 05 04 2013  15 58  -21.0512 26080.3 -03424.8 -07.4811 26304.2
 05 04 2013  15 59  -21.0522 26080.0 -03424.6 -07.4808 26303.9
 05 04 2013  16 00  -21.0531 26079.6 -03424.5 -07.4806 26303.5
 05 04 2013  16 01  -21.0541 26079.9 -03424.6 -07.4809 26303.8
 05 04 2013  16 02  -21.0556 26080.0 -03424.6 -07.4809 26303.9
 05 04 2013  16 03  -21.0563 26079.6 -03424.4 -07.4804 26303.5
 05 04 2013  16 04  -21.0574 26079.7 -03424.3 -07.4802 26303.5
 05 04 2013  16 05  -21.0583 26079.6 -03424.2 -07.4800 26303.4
 05 04 2013  16 06  -21.0592 26079.1 -03423.9 -07.4796 26302.9
 05 04 2013  16 07  -21.0601 26079.1 -03423.9 -07.4796 26302.9
 05 04 2013  16 08  -21.0612 26079.0 -03423.9 -07.4795 26302.8
 05 04 2013  16 09  -21.0620 26078.5 -03423.6 -07.4789 26302.3
 05 04 2013  16 10  -21.0627 26078.3 -03423.4 -07.4787 26302.0
 05 04 2013  16 11  -21.0639 26078.5 -03423.5 -07.4788 26302.2
 05 04 2013  16 12  -21.0649 26078.3 -03423.3 -07.4784 26302.0
 05 04 2013  16 13  -21.0657 26078.2 -03423.1 -07.4781 26302.0
 05 04 2013  16 14  -21.0665 26077.7 -03422.8 -07.4775 26301.4
 05 04 2013  16 15  -21.0672 26077.7 -03422.7 -07.4773 26301.3
 05 04 2013  16 16  -21.0682 26077.8 -03422.6 -07.4771 26301.4
 05 04 2013  16 17  -21.0689 26077.4 -03422.3 -07.4765 26301.0
 05 04 2013  16 18  -21.0696 26077.3 -03422.1 -07.4762 26300.8
 05 04 2013  16 19  -21.0704 26077.4 -03422.0 -07.4759 26300.9
 05 04 2013  16 20  -21.0711 26077.3 -03421.8 -07.4755 26300.8
 05 04 2013  16 21  -21.0718 26077.3 -03421.6 -07.4751 26300.8
 05 04 2013  16 22  -21.0725 26077.1 -03421.3 -07.4745 26300.6
 05 04 2013  16 23  -21.0731 26076.9 -03421.1 -07.4741 26300.3
 05 04 2013  16 24  -21.0740 26076.9 -03420.9 -07.4737 26300.3
 05 04 2013  16 25  -21.0748 26076.6 -03420.6 -07.4731 26300.0
 05 04 2013  16 26  -21.0751 26076.3 -03420.3 -07.4725 26299.7
 05 04 2013  16 27  -21.0754 26076.0 -03420.0 -07.4720 26299.3
 05 04 2013  16 28  -21.0755 26075.7 -03419.8 -07.4715 26299.0
 05 04 2013  16 29  -21.0758 26075.4 -03419.5 -07.4710 26298.6
 05 04 2013  16 30  -21.0762 26075.0 -03419.2 -07.4705 26298.2
 05 04 2013  16 31  -21.0765 26074.4 -03418.9 -07.4701 26297.6
 05 04 2013  16 32  -21.0768 26074.3 -03418.8 -07.4698 26297.5
 05 04 2013  16 33  -21.0774 26074.6 -03418.9 -07.4700 26297.8
 05 04 2013  16 34  -21.0778 26074.3 -03418.6 -07.4695 26297.4
 05 04 2013  16 35  -21.0780 26074.1 -03418.4 -07.4691 26297.2
 05 04 2013  16 36  -21.0783 26074.1 -03418.3 -07.4689 26297.2
 05 04 2013  16 37  -21.0785 26073.7 -03418.1 -07.4685 26296.8
 05 04 2013  16 38  -21.0787 26073.4 -03417.9 -07.4681 26296.5
 05 04 2013  16 39  -21.0791 26073.3 -03417.8 -07.4680 26296.4
 05 04 2013  16 40  -21.0797 26073.4 -03417.8 -07.4679 26296.4
 05 04 2013  16 41  -21.0803 26073.2 -03417.6 -07.4675 26296.2
 05 04 2013  16 42  -21.0807 26073.0 -03417.4 -07.4671 26296.0
 05 04 2013  16 43  -21.0808 26072.8 -03417.2 -07.4668 26295.8
 05 04 2013  16 44  -21.0811 26072.9 -03417.1 -07.4666 26295.9
 05 04 2013  16 45  -21.0815 26072.9 -03417.0 -07.4663 26295.8
 05 04 2013  16 46  -21.0818 26072.9 -03416.8 -07.4659 26295.8
 05 04 2013  16 47  -21.0821 26072.8 -03416.5 -07.4654 26295.6
 05 04 2013  16 48  -21.0823 26072.4 -03416.2 -07.4648 26295.2
 05 04 2013  16 49  -21.0823 26072.1 -03415.9 -07.4642 26295.0
 05 04 2013  16 50  -21.0823 26071.8 -03415.6 -07.4636 26294.6
 05 04 2013  16 51  -21.0825 26071.7 -03415.3 -07.4631 26294.4
 05 04 2013  16 52  -21.0828 26071.6 -03415.1 -07.4626 26294.3
 05 04 2013  16 53  -21.0827 26071.4 -03414.7 -07.4619 26294.1
 05 04 2013  16 54  -21.0824 26071.0 -03414.3 -07.4611 26293.6
 05 04 2013  16 55  -21.0821 26070.5 -03413.9 -07.4603 26293.1
 05 04 2013  16 56  -21.0819 26070.3 -03413.6 -07.4598 26292.9
 05 04 2013  16 57  -21.0816 26070.2 -03413.4 -07.4593 26292.7
 05 04 2013  16 58  -21.0813 26069.8 -03413.1 -07.4587 26292.3
 05 04 2013  16 59  -21.0810 26069.4 -03412.7 -07.4581 26291.9
 05 04 2013  17 00  -21.0805 26069.0 -03412.4 -07.4576 26291.4
 05 04 2013  17 01  -21.0799 26068.6 -03412.1 -07.4570 26290.9
 05 04 2013  17 02  -21.0795 26068.3 -03411.9 -07.4567 26290.6
 05 04 2013  17 03  -21.0792 26068.1 -03411.8 -07.4564 26290.5
 05 04 2013  17 04  -21.0790 26067.8 -03411.6 -07.4560 26290.1
 05 04 2013  17 05  -21.0787 26067.5 -03411.4 -07.4557 26289.8
 05 04 2013  17 06  -21.0783 26067.3 -03411.2 -07.4554 26289.6
 05 04 2013  17 07  -21.0779 26066.9 -03410.9 -07.4549 26289.2
 05 04 2013  17 08  -21.0775 26066.5 -03410.7 -07.4546 26288.7
 05 04 2013  17 09  -21.0772 26066.3 -03410.6 -07.4544 26288.5
 05 04 2013  17 10  -21.0772 26066.2 -03410.4 -07.4541 26288.4
 05 04 2013  17 11  -21.0770 26066.1 -03410.3 -07.4538 26288.2
 05 04 2013  17 12  -21.0768 26065.9 -03410.1 -07.4534 26288.0
 05 04 2013  17 13  -21.0762 26065.4 -03409.8 -07.4530 26287.5
 05 04 2013  17 14  -21.0757 26064.9 -03409.6 -07.4526 26287.0
 05 04 2013  17 15  -21.0751 26064.5 -03409.4 -07.4523 26286.5
 05 04 2013  17 16  -21.0748 26064.1 -03409.2 -07.4521 26286.2
 05 04 2013  17 17  -21.0747 26064.0 -03409.2 -07.4521 26286.0
 05 04 2013  17 18  -21.0747 26064.0 -03409.1 -07.4519 26286.0
 05 04 2013  17 19  -21.0744 26063.8 -03409.0 -07.4517 26285.8
 05 04 2013  17 20  -21.0742 26063.5 -03408.8 -07.4514 26285.5
 05 04 2013  17 21  -21.0739 26063.4 -03408.7 -07.4511 26285.3
 05 04 2013  17 22  -21.0736 26063.1 -03408.6 -07.4509 26285.1
 05 04 2013  17 23  -21.0735 26062.9 -03408.4 -07.4507 26284.9
 05 04 2013  17 24  -21.0732 26062.9 -03408.3 -07.4505 26284.8
 05 04 2013  17 25  -21.0730 26062.7 -03408.2 -07.4502 26284.6
 05 04 2013  17 26  -21.0726 26062.3 -03407.9 -07.4497 26284.2
 05 04 2013  17 27  -21.0722 26062.1 -03407.7 -07.4494 26283.9
 05 04 2013  17 28  -21.0718 26061.9 -03407.6 -07.4492 26283.7
 05 04 2013  17 29  -21.0713 26061.5 -03407.4 -07.4489 26283.4
 05 04 2013  17 30  -21.0707 26061.2 -03407.3 -07.4487 26283.0
 05 04 2013  17 31  -21.0703 26061.1 -03407.2 -07.4486 26282.9
 05 04 2013  17 32  -21.0698 26061.0 -03407.1 -07.4484 26282.8
 05 04 2013  17 33  -21.0692 26060.8 -03407.0 -07.4482 26282.6
 05 04 2013  17 34  -21.0687 26060.8 -03407.0 -07.4481 26282.6
 05 04 2013  17 35  -21.0681 26060.9 -03406.9 -07.4480 26282.6
 05 04 2013  17 36  -21.0676 26060.8 -03406.8 -07.4478 26282.6
 05 04 2013  17 37  -21.0670 26060.8 -03406.7 -07.4475 26282.5
 05 04 2013  17 38  -21.0666 26060.7 -03406.5 -07.4471 26282.4
 05 04 2013  17 39  -21.0661 26060.6 -03406.3 -07.4468 26282.2
 05 04 2013  17 40  -21.0659 26060.5 -03406.2 -07.4465 26282.2
 05 04 2013  17 41  -21.0657 26060.4 -03406.0 -07.4461 26282.0
 05 04 2013  17 42  -21.0657 26060.5 -03405.8 -07.4457 26282.1
 05 04 2013  17 43  -21.0655 26060.5 -03405.6 -07.4453 26282.1
 05 04 2013  17 44  -21.0652 26060.4 -03405.5 -07.4450 26282.0
 05 04 2013  17 45  -21.0648 26060.3 -03405.4 -07.4448 26281.9
 05 04 2013  17 46  -21.0643 26060.2 -03405.2 -07.4445 26281.7
 05 04 2013  17 47  -21.0638 26060.0 -03405.1 -07.4442 26281.5
 05 04 2013  17 48  -21.0634 26060.0 -03405.0 -07.4441 26281.5
 05 04 2013  17 49  -21.0631 26060.2 -03405.0 -07.4440 26281.7
 05 04 2013  17 50  -21.0632 26060.1 -03404.7 -07.4435 26281.6
 05 04 2013  17 51  -21.0663 26059.6 -03404.2 -07.4424 26281.0
 05 04 2013  17 52  -21.0656 26059.6 -03404.0 -07.4420 26281.0
 05 04 2013  17 53  -21.0652 26059.5 -03403.7 -07.4415 26280.9
 05 04 2013  17 54  -21.0645 26059.5 -03403.6 -07.4411 26280.9
 05 04 2013  17 55  -21.0639 26059.6 -03403.4 -07.4407 26280.9
 05 04 2013  17 56  -21.0593 26060.0 -03403.4 -07.4407 26281.3
 05 04 2013  17 57  -21.0584 26059.8 -03403.3 -07.4404 26281.1
 05 04 2013  17 58  -21.0574 26059.5 -03403.0 -07.4399 26280.8
 05 04 2013  17 59  -21.0564 26059.5 -03402.9 -07.4397 26280.7
 05 04 2013  18 00  -21.0553 26059.2 -03402.7 -07.4393 26280.4
 05 04 2013  18 01  -21.0541 26058.7 -03402.5 -07.4390 26279.9
 05 04 2013  18 02  -21.0528 26058.3 -03402.3 -07.4387 26279.5
 05 04 2013  18 03  -21.0516 26058.0 -03402.2 -07.4386 26279.2
 05 04 2013  18 04  -21.0504 26057.7 -03402.1 -07.4386 26278.9
 05 04 2013  18 05  -21.0492 26057.0 -03402.0 -07.4384 26278.2
 05 04 2013  18 06  -21.0480 26057.0 -03402.0 -07.4385 26278.1
 05 04 2013  18 07  -21.0474 26057.6 -03402.4 -07.4391 26278.8
 05 04 2013  18 08  -21.0465 26057.4 -03402.4 -07.4391 26278.6
 05 04 2013  18 09  -21.0454 26057.1 -03402.2 -07.4389 26278.3
 05 04 2013  18 10  -21.0444 26057.2 -03402.3 -07.4391 26278.3
 05 04 2013  18 11  -21.0437 26057.2 -03402.4 -07.4392 26278.4
 05 04 2013  18 12  -21.0428 26057.0 -03402.4 -07.4392 26278.2
 05 04 2013  18 13  -21.0418 26056.8 -03402.4 -07.4393 26277.9
 05 04 2013  18 14  -21.0407 26056.5 -03402.3 -07.4393 26277.7
 05 04 2013  18 15  -21.0398 26056.4 -03402.4 -07.4395 26277.6
 05 04 2013  18 16  -21.0388 26056.2 -03402.5 -07.4397 26277.4
 05 04 2013  18 17  -21.0379 26055.9 -03402.5 -07.4398 26277.1
 05 04 2013  18 18  -21.0370 26055.3 -03402.4 -07.4398 26276.5
 05 04 2013  18 19  -21.0365 26055.5 -03402.6 -07.4403 26276.8
 05 04 2013  18 20  -21.0364 26055.9 -03403.0 -07.4408 26277.2
 05 04 2013  18 21  -21.0363 26056.1 -03403.1 -07.4411 26277.4
 05 04 2013  18 22  -21.0360 26056.1 -03403.2 -07.4412 26277.4
 05 04 2013  18 23  -21.0356 26056.2 -03403.3 -07.4415 26277.5
 05 04 2013  18 24  -21.0350 26055.9 -03403.3 -07.4415 26277.2
 05 04 2013  18 25  -21.0343 26055.5 -03403.2 -07.4414 26276.8
 05 04 2013  18 26  -21.0337 26055.2 -03403.2 -07.4416 26276.5
 05 04 2013  18 27  -21.0330 26055.0 -03403.3 -07.4419 26276.3
 05 04 2013  18 28  -21.0326 26054.8 -03403.4 -07.4421 26276.2
 05 04 2013  18 29  -21.0321 26054.5 -03403.5 -07.4423 26275.9
 05 04 2013  18 30  -21.0314 26054.3 -03403.6 -07.4426 26275.6
 05 04 2013  18 31  -21.0308 26054.0 -03403.7 -07.4429 26275.4
 05 04 2013  18 32  -21.0301 26053.7 -03403.8 -07.4432 26275.1
 05 04 2013  18 33  -21.0297 26053.4 -03403.9 -07.4436 26274.9
 05 04 2013  18 34  -21.0293 26053.3 -03404.1 -07.4440 26274.8
 05 04 2013  18 35  -21.0290 26053.4 -03404.3 -07.4445 26274.9
 05 04 2013  18 36  -21.0287 26053.3 -03404.5 -07.4449 26274.8
 05 04 2013  18 37  -21.0284 26053.2 -03404.6 -07.4452 26274.8
 05 04 2013  18 38  -21.0280 26053.2 -03404.8 -07.4455 26274.7
 05 04 2013  18 39  -21.0279 26053.4 -03405.0 -07.4460 26275.0
 05 04 2013  18 40  -21.0276 26053.4 -03405.2 -07.4463 26275.0
 05 04 2013  18 41  -21.0271 26053.4 -03405.3 -07.4465 26275.0
 05 04 2013  18 42  -21.0271 26053.7 -03405.6 -07.4471 26275.3
 05 04 2013  18 43  -21.0271 26054.1 -03405.9 -07.4477 26275.8
 05 04 2013  18 44  -21.0269 26054.3 -03406.1 -07.4480 26276.0
 05 04 2013  18 45  -21.0263 26053.9 -03406.0 -07.4479 26275.6
 05 04 2013  18 46  -21.0257 26053.0 -03405.7 -07.4477 26274.7
 05 04 2013  18 47  -21.0254 26052.2 -03405.5 -07.4474 26273.9
 05 04 2013  18 48  -21.0247 26051.5 -03405.4 -07.4474 26273.1
 05 04 2013  18 49  -21.0241 26050.9 -03405.4 -07.4475 26272.5
 05 04 2013  18 50  -21.0236 26050.6 -03405.5 -07.4478 26272.3
 05 04 2013  18 51  -21.0231 26050.5 -03405.6 -07.4482 26272.2
 05 04 2013  18 52  -21.0227 26050.5 -03405.8 -07.4485 26272.2
 05 04 2013  18 53  -21.0220 26050.5 -03405.9 -07.4487 26272.2
 05 04 2013  18 54  -21.0213 26050.5 -03406.0 -07.4490 26272.2
 05 04 2013  18 55  -21.0204 26050.1 -03406.1 -07.4492 26271.8
 05 04 2013  18 56  -21.0196 26049.8 -03406.1 -07.4494 26271.5
 05 04 2013  18 57  -21.0189 26049.5 -03406.2 -07.4496 26271.2
 05 04 2013  18 58  -21.0184 26049.3 -03406.3 -07.4499 26271.1
 05 04 2013  18 59  -21.0177 26048.9 -03406.3 -07.4500 26270.6
 05 04 2013  19 00  -21.0168 26048.3 -03406.3 -07.4502 26270.1
 05 04 2013  19 01  -21.0163 26048.0 -03406.5 -07.4506 26269.8
 05 04 2013  19 02  -21.0156 26047.4 -03406.5 -07.4508 26269.2
 05 04 2013  19 03  -21.0145 26046.8 -03406.4 -07.4509 26268.6
 05 04 2013  19 04  -21.0137 26046.4 -03406.6 -07.4514 26268.3
 05 04 2013  19 05  -21.0133 26046.2 -03406.9 -07.4520 26268.1
 05 04 2013  19 06  -21.0129 26046.0 -03407.1 -07.4526 26267.9
 05 04 2013  19 07  -21.0123 26045.7 -03407.3 -07.4532 26267.6
 05 04 2013  19 08  -21.0120 26045.5 -03407.5 -07.4537 26267.4
 05 04 2013  19 09  -21.0116 26045.1 -03407.7 -07.4542 26267.1
 05 04 2013  19 10  -21.0111 26044.6 -03407.9 -07.4547 26266.6
 05 04 2013  19 11  -21.0105 26044.4 -03408.2 -07.4554 26266.5
 05 04 2013  19 12  -21.0104 26044.7 -03408.7 -07.4564 26266.8
 05 04 2013  19 13  -21.0105 26045.0 -03409.2 -07.4573 26267.2
 05 04 2013  19 14  -21.0105 26045.1 -03409.5 -07.4580 26267.3
 05 04 2013  19 15  -21.0105 26045.1 -03409.7 -07.4585 26267.3
 05 04 2013  19 16  -21.0103 26045.0 -03409.9 -07.4590 26267.3
 05 04 2013  19 17  -21.0103 26044.9 -03410.2 -07.4595 26267.2
 05 04 2013  19 18  -21.0102 26044.7 -03410.3 -07.4599 26267.1
 05 04 2013  19 19  -21.0103 26044.8 -03410.6 -07.4604 26267.1
 05 04 2013  19 20  -21.0104 26044.9 -03410.9 -07.4611 26267.3
 05 04 2013  19 21  -21.0133 26044.8 -03411.0 -07.4613 26267.2
 05 04 2013  19 22  -21.0147 26044.5 -03411.0 -07.4615 26267.0
 05 04 2013  19 23  -21.0143 26044.4 -03411.2 -07.4619 26266.9
 05 04 2013  19 24  -21.0143 26044.4 -03411.4 -07.4623 26266.9
 05 04 2013  19 25  -21.0145 26044.5 -03411.6 -07.4628 26267.0
 05 04 2013  19 26  -21.0147 26044.6 -03411.9 -07.4633 26267.2
 05 04 2013  19 27  -21.0151 26044.9 -03412.2 -07.4639 26267.5
 05 04 2013  19 28  -21.0154 26045.2 -03412.4 -07.4644 26267.8
 05 04 2013  19 29  -21.0154 26045.2 -03412.6 -07.4646 26267.9
 05 04 2013  19 30  -21.0155 26045.3 -03412.7 -07.4649 26267.9
 05 04 2013  19 31  -21.0157 26045.3 -03412.8 -07.4652 26267.9
 05 04 2013  19 32  -21.0159 26045.1 -03412.9 -07.4654 26267.8
 05 04 2013  19 33  -21.0163 26045.0 -03413.0 -07.4656 26267.6
 05 04 2013  19 34  -21.0162 26044.8 -03413.0 -07.4658 26267.4
 05 04 2013  19 35  -21.0163 26044.6 -03413.1 -07.4660 26267.3
 05 04 2013  19 36  -21.0165 26044.3 -03413.2 -07.4663 26267.0
 05 04 2013  19 37  -21.0168 26044.2 -03413.4 -07.4666 26266.9
 05 04 2013  19 38  -21.0175 26044.2 -03413.6 -07.4671 26266.9
 05 04 2013  19 39  -21.0169 26044.2 -03413.8 -07.4676 26266.9
 05 04 2013  19 40  -21.0148 26044.5 -03414.3 -07.4685 26267.3
 05 04 2013  19 41  -21.0151 26044.2 -03414.3 -07.4687 26267.1
 05 04 2013  19 42  -21.0156 26044.1 -03414.4 -07.4690 26266.9
 05 04 2013  19 43  -21.0158 26043.9 -03414.6 -07.4693 26266.7
 05 04 2013  19 44  -21.0160 26043.6 -03414.6 -07.4695 26266.5
 05 04 2013  19 45  -21.0162 26043.3 -03414.6 -07.4697 26266.2
 05 04 2013  19 46  -21.0163 26043.0 -03414.7 -07.4698 26265.9
 05 04 2013  19 47  -21.0165 26042.7 -03414.8 -07.4701 26265.6
 05 04 2013  19 48  -21.0166 26042.4 -03414.8 -07.4703 26265.3
 05 04 2013  19 49  -21.0166 26042.2 -03414.9 -07.4706 26265.1
 05 04 2013  19 50  -21.0166 26042.0 -03415.1 -07.4709 26264.9
 05 04 2013  19 51  -21.0167 26041.9 -03415.2 -07.4713 26264.8
 05 04 2013  19 52  -21.0169 26041.8 -03415.4 -07.4717 26264.8
 05 04 2013  19 53  -21.0170 26041.7 -03415.5 -07.4720 26264.7
 05 04 2013  19 54  -21.0172 26041.6 -03415.7 -07.4724 26264.7
 05 04 2013  19 55  -21.0175 26041.9 -03415.9 -07.4729 26264.9
 05 04 2013  19 56  -21.0179 26041.7 -03416.1 -07.4732 26264.8
 05 04 2013  19 57  -21.0181 26041.7 -03416.2 -07.4735 26264.8
 05 04 2013  19 58  -21.0184 26041.9 -03416.4 -07.4739 26265.1
 05 04 2013  19 59  -21.0188 26041.7 -03416.5 -07.4741 26264.8
 05 04 2013  20 00  -21.0191 26041.8 -03416.6 -07.4744 26265.0
 05 04 2013  20 01  -21.0194 26041.8 -03416.8 -07.4747 26265.0
 05 04 2013  20 02  -21.0196 26041.3 -03416.7 -07.4747 26264.5
 05 04 2013  20 03  -21.0198 26041.3 -03416.8 -07.4750 26264.5
 05 04 2013  20 04  -21.0200 26041.2 -03417.0 -07.4753 26264.4
 05 04 2013  20 05  -21.0202 26040.9 -03417.0 -07.4755 26264.1
 05 04 2013  20 06  -21.0205 26041.0 -03417.3 -07.4759 26264.3
 05 04 2013  20 07  -21.0208 26041.1 -03417.4 -07.4763 26264.4
 05 04 2013  20 08  -21.0211 26041.1 -03417.5 -07.4765 26264.4
 05 04 2013  20 09  -21.0217 26041.2 -03417.7 -07.4769 26264.5
 05 04 2013  20 10  -21.0222 26041.3 -03417.9 -07.4772 26264.7
 05 04 2013  20 11  -21.0227 26041.4 -03418.0 -07.4775 26264.8
 05 04 2013  20 12  -21.0235 26041.6 -03418.2 -07.4778 26264.9
 05 04 2013  20 13  -21.0240 26042.0 -03418.4 -07.4782 26265.4
 05 04 2013  20 14  -21.0246 26042.3 -03418.7 -07.4786 26265.7
 05 04 2013  20 15  -21.0252 26042.2 -03418.7 -07.4787 26265.6
 05 04 2013  20 16  -21.0259 26042.3 -03418.8 -07.4789 26265.7
 05 04 2013  20 17  -21.0264 26042.2 -03418.8 -07.4789 26265.6
 05 04 2013  20 18  -21.0269 26042.3 -03418.9 -07.4791 26265.8
 05 04 2013  20 19  -21.0274 26042.6 -03419.0 -07.4793 26266.1
 05 04 2013  20 20  -21.0275 26042.7 -03419.1 -07.4794 26266.1
 05 04 2013  20 21  -21.0280 26042.5 -03419.0 -07.4793 26265.9
 05 04 2013  20 22  -21.0281 26042.7 -03419.1 -07.4795 26266.2
 05 04 2013  20 23  -21.0284 26042.8 -03419.3 -07.4798 26266.3
 05 04 2013  20 24  -21.0289 26042.3 -03419.2 -07.4797 26265.8
 05 04 2013  20 25  -21.0289 26042.8 -03419.4 -07.4801 26266.4
 05 04 2013  20 26  -21.0293 26042.8 -03419.4 -07.4802 26266.4
 05 04 2013  20 27  -21.0296 26042.7 -03419.4 -07.4801 26266.2
 05 04 2013  20 28  -21.0297 26043.0 -03419.6 -07.4804 26266.6
 05 04 2013  20 29  -21.0301 26042.9 -03419.6 -07.4805 26266.5
 05 04 2013  20 30  -21.0304 26042.7 -03419.6 -07.4805 26266.3
 05 04 2013  20 31  -21.0306 26042.7 -03419.7 -07.4807 26266.3
 05 04 2013  20 32  -21.0307 26042.8 -03419.8 -07.4808 26266.4
 05 04 2013  20 33  -21.0308 26043.2 -03420.0 -07.4812 26266.8
 05 04 2013  20 34  -21.0309 26043.3 -03420.1 -07.4814 26266.9
 05 04 2013  20 35  -21.0311 26043.3 -03420.1 -07.4815 26266.9
 05 04 2013  20 36  -21.0313 26043.5 -03420.3 -07.4818 26267.1
 05 04 2013  20 37  -21.0316 26043.6 -03420.3 -07.4818 26267.3
 05 04 2013  20 38  -21.0320 26043.4 -03420.2 -07.4818 26267.0
 05 04 2013  20 39  -21.0322 26043.1 -03420.1 -07.4816 26266.7
 05 04 2013  20 40  -21.0324 26042.8 -03420.0 -07.4813 26266.4
 05 04 2013  20 41  -21.0327 26042.3 -03419.9 -07.4812 26265.9
 05 04 2013  20 42  -21.0326 26042.0 -03419.8 -07.4811 26265.6
 05 04 2013  20 43  -21.0328 26041.8 -03419.8 -07.4812 26265.4
 05 04 2013  20 44  -21.0330 26042.0 -03419.9 -07.4815 26265.6
 05 04 2013  20 45  -21.0332 26042.0 -03420.1 -07.4817 26265.6
 05 04 2013  20 46  -21.0333 26041.9 -03420.1 -07.4818 26265.5
 05 04 2013  20 47  -21.0336 26041.9 -03420.1 -07.4818 26265.5
 05 04 2013  20 48  -21.0339 26042.0 -03420.2 -07.4820 26265.6
 05 04 2013  20 49  -21.0340 26042.2 -03420.3 -07.4822 26265.9
 05 04 2013  20 50  -21.0342 26042.5 -03420.4 -07.4824 26266.1
 05 04 2013  20 51  -21.0345 26042.5 -03420.5 -07.4825 26266.2
 05 04 2013  20 52  -21.0346 26042.7 -03420.6 -07.4827 26266.4
 05 04 2013  20 53  -21.0347 26042.9 -03420.7 -07.4829 26266.6
 05 04 2013  20 54  -21.0350 26043.1 -03420.8 -07.4831 26266.8
 05 04 2013  20 55  -21.0351 26043.4 -03421.0 -07.4833 26267.2
 05 04 2013  20 56  -21.0353 26043.5 -03421.0 -07.4834 26267.3
 05 04 2013  20 57  -21.0356 26043.5 -03421.0 -07.4834 26267.2
 05 04 2013  20 58  -21.0357 26043.6 -03421.1 -07.4835 26267.4
 05 04 2013  20 59  -21.0358 26043.6 -03421.1 -07.4835 26267.3
 05 04 2013  21 00  -21.0359 26043.7 -03421.1 -07.4835 26267.4
 05 04 2013  21 01  -21.0360 26043.8 -03421.1 -07.4836 26267.5
 05 04 2013  21 02  -21.0362 26043.8 -03421.1 -07.4835 26267.5
 05 04 2013  21 03  -21.0363 26043.7 -03421.1 -07.4835 26267.5
 05 04 2013  21 04  -21.0366 26043.8 -03421.2 -07.4837 26267.6
 05 04 2013  21 05  -21.0368 26043.9 -03421.3 -07.4839 26267.7
 05 04 2013  21 06  -21.0370 26044.0 -03421.4 -07.4840 26267.8
 05 04 2013  21 07  -21.0371 26044.1 -03421.4 -07.4841 26267.9
 05 04 2013  21 08  -21.0372 26044.3 -03421.5 -07.4843 26268.1
 05 04 2013  21 09  -21.0373 26044.5 -03421.6 -07.4845 26268.3
 05 04 2013  21 10  -21.0374 26044.6 -03421.7 -07.4846 26268.4
 05 04 2013  21 11  -21.0374 26044.8 -03421.8 -07.4848 26268.6
 05 04 2013  21 12  -21.0374 26045.0 -03422.0 -07.4850 26268.9
 05 04 2013  21 13  -21.0374 26045.2 -03422.1 -07.4853 26269.1
 05 04 2013  21 14  -21.0373 26045.4 -03422.2 -07.4854 26269.2
 05 04 2013  21 15  -21.0373 26045.5 -03422.3 -07.4856 26269.3
 05 04 2013  21 16  -21.0373 26045.5 -03422.4 -07.4858 26269.4
 05 04 2013  21 17  -21.0375 26045.6 -03422.5 -07.4860 26269.5
 05 04 2013  21 18  -21.0378 26045.5 -03422.5 -07.4861 26269.4
 05 04 2013  21 19  -21.0379 26045.5 -03422.6 -07.4862 26269.5
 05 04 2013  21 20  -21.0382 26045.6 -03422.6 -07.4863 26269.5
 05 04 2013  21 21  -21.0383 26045.6 -03422.7 -07.4864 26269.5
 05 04 2013  21 22  -21.0384 26045.6 -03422.7 -07.4864 26269.5
 05 04 2013  21 23  -21.0383 26045.5 -03422.7 -07.4864 26269.5
 05 04 2013  21 24  -21.0383 26045.5 -03422.7 -07.4864 26269.5
 05 04 2013  21 25  -21.0383 26045.5 -03422.7 -07.4864 26269.4
 05 04 2013  21 26  -21.0384 26045.4 -03422.7 -07.4864 26269.3
 05 04 2013  21 27  -21.0385 26045.3 -03422.7 -07.4865 26269.2
 05 04 2013  21 28  -21.0385 26045.3 -03422.7 -07.4865 26269.2
 05 04 2013  21 29  -21.0385 26045.3 -03422.8 -07.4866 26269.3
 05 04 2013  21 30  -21.0386 26045.4 -03422.8 -07.4867 26269.3
 05 04 2013  21 31  -21.0386 26045.4 -03422.9 -07.4869 26269.4
 05 04 2013  21 32  -21.0387 26045.4 -03423.0 -07.4870 26269.3
 05 04 2013  21 33  -21.0388 26045.1 -03422.9 -07.4869 26269.1
 05 04 2013  21 34  -21.0390 26045.1 -03422.9 -07.4869 26269.0
 05 04 2013  21 35  -21.0393 26044.9 -03422.8 -07.4869 26268.9
 05 04 2013  21 36  -21.0395 26044.8 -03422.8 -07.4869 26268.7
 05 04 2013  21 37  -21.0397 26044.6 -03422.8 -07.4868 26268.6
 05 04 2013  21 38  -21.0400 26044.5 -03422.8 -07.4869 26268.4
 05 04 2013  21 39  -21.0402 26044.4 -03422.8 -07.4869 26268.4
 05 04 2013  21 40  -21.0405 26044.2 -03422.8 -07.4869 26268.2
 05 04 2013  21 41  -21.0407 26044.2 -03422.7 -07.4869 26268.1
 05 04 2013  21 42  -21.0409 26044.1 -03422.8 -07.4870 26268.0
 05 04 2013  21 43  -21.0413 26044.0 -03422.8 -07.4871 26268.0
 05 04 2013  21 44  -21.0415 26044.0 -03422.8 -07.4872 26267.9
 05 04 2013  21 45  -21.0416 26043.9 -03422.9 -07.4872 26267.9
 05 04 2013  21 46  -21.0418 26043.9 -03422.9 -07.4873 26267.9
 05 04 2013  21 47  -21.0418 26044.0 -03423.0 -07.4875 26268.0
 05 04 2013  21 48  -21.0420 26044.1 -03423.0 -07.4876 26268.1
 05 04 2013  21 49  -21.0421 26044.2 -03423.1 -07.4878 26268.1
 05 04 2013  21 50  -21.0424 26044.3 -03423.3 -07.4880 26268.3
 05 04 2013  21 51  -21.0425 26044.4 -03423.4 -07.4882 26268.4
 05 04 2013  21 52  -21.0428 26044.4 -03423.4 -07.4883 26268.5
 05 04 2013  21 53  -21.0430 26044.5 -03423.4 -07.4884 26268.5
 05 04 2013  21 54  -21.0431 26044.6 -03423.5 -07.4884 26268.6
 05 04 2013  21 55  -21.0432 26044.7 -03423.6 -07.4885 26268.7
 05 04 2013  21 56  -21.0432 26044.9 -03423.7 -07.4887 26269.0
 05 04 2013  21 57  -21.0432 26045.1 -03423.8 -07.4889 26269.2
 05 04 2013  21 58  -21.0430 26045.2 -03423.9 -07.4891 26269.3
 05 04 2013  21 59  -21.0430 26045.4 -03424.0 -07.4892 26269.5
 05 04 2013  22 00  -21.0430 26045.6 -03424.1 -07.4894 26269.7
 05 04 2013  22 01  -21.0430 26045.6 -03424.1 -07.4895 26269.8
 05 04 2013  22 02  -21.0431 26045.6 -03424.1 -07.4895 26269.7
 05 04 2013  22 03  -21.0432 26045.4 -03424.0 -07.4894 26269.5
 05 04 2013  22 04  -21.0432 26045.1 -03423.9 -07.4892 26269.2
 05 04 2013  22 05  -21.0433 26044.6 -03423.7 -07.4889 26268.7
 05 04 2013  22 06  -21.0435 26044.2 -03423.5 -07.4885 26268.2
 05 04 2013  22 07  -21.0436 26043.8 -03423.3 -07.4883 26267.8
 05 04 2013  22 08  -21.0437 26043.5 -03423.2 -07.4881 26267.5
 05 04 2013  22 09  -21.0437 26043.2 -03423.1 -07.4880 26267.2
 05 04 2013  22 10  -21.0438 26043.1 -03423.1 -07.4880 26267.1
 05 04 2013  22 11  -21.0439 26042.9 -03423.1 -07.4881 26266.9
 05 04 2013  22 12  -21.0440 26042.7 -03423.1 -07.4881 26266.7
 05 04 2013  22 13  -21.0441 26042.6 -03423.1 -07.4881 26266.6
 05 04 2013  22 14  -21.0442 26042.5 -03423.1 -07.4882 26266.5
 05 04 2013  22 15  -21.0443 26042.3 -03423.1 -07.4883 26266.4
 05 04 2013  22 16  -21.0443 26042.2 -03423.1 -07.4883 26266.2
 05 04 2013  22 17  -21.0445 26042.0 -03423.1 -07.4882 26266.0
 05 04 2013  22 18  -21.0445 26042.1 -03423.1 -07.4884 26266.1
 05 04 2013  22 19  -21.0445 26042.1 -03423.2 -07.4885 26266.1
 05 04 2013  22 20  -21.0446 26042.2 -03423.3 -07.4887 26266.2
 05 04 2013  22 21  -21.0445 26042.2 -03423.4 -07.4889 26266.3
 05 04 2013  22 22  -21.0444 26042.2 -03423.5 -07.4891 26266.3
 05 04 2013  22 23  -21.0445 26042.3 -03423.5 -07.4892 26266.3
 05 04 2013  22 24  -21.0445 26042.2 -03423.5 -07.4892 26266.2
 05 04 2013  22 25  -21.0446 26042.2 -03423.6 -07.4893 26266.2
 05 04 2013  22 26  -21.0446 26042.3 -03423.7 -07.4895 26266.4
 05 04 2013  22 27  -21.0446 26042.5 -03423.8 -07.4897 26266.6
 05 04 2013  22 28  -21.0446 26042.6 -03423.9 -07.4899 26266.7
 05 04 2013  22 29  -21.0447 26042.6 -03423.9 -07.4900 26266.7
 05 04 2013  22 30  -21.0447 26042.6 -03424.0 -07.4900 26266.7
 05 04 2013  22 31  -21.0447 26042.6 -03424.0 -07.4901 26266.7
 05 04 2013  22 32  -21.0446 26042.5 -03424.0 -07.4900 26266.6
 05 04 2013  22 33  -21.0446 26042.6 -03424.0 -07.4900 26266.7
 05 04 2013  22 34  -21.0445 26042.6 -03424.1 -07.4902 26266.8
 05 04 2013  22 35  -21.0445 26042.7 -03424.1 -07.4903 26266.8
 05 04 2013  22 36  -21.0444 26042.8 -03424.2 -07.4904 26266.9
 05 04 2013  22 37  -21.0445 26042.7 -03424.2 -07.4904 26266.8
 05 04 2013  22 38  -21.0444 26042.6 -03424.1 -07.4904 26266.7
 05 04 2013  22 39  -21.0443 26042.4 -03424.0 -07.4902 26266.5
 05 04 2013  22 40  -21.0443 26042.3 -03424.0 -07.4901 26266.4
 05 04 2013  22 41  -21.0443 26042.1 -03423.9 -07.4901 26266.2
 05 04 2013  22 42  -21.0444 26041.8 -03423.8 -07.4899 26265.9
 05 04 2013  22 43  -21.0444 26041.7 -03423.8 -07.4899 26265.8
 05 04 2013  22 44  -21.0444 26041.5 -03423.7 -07.4898 26265.6
 05 04 2013  22 45  -21.0444 26041.1 -03423.6 -07.4895 26265.2
 05 04 2013  22 46  -21.0443 26040.8 -03423.5 -07.4894 26264.9
 05 04 2013  22 47  -21.0443 26040.7 -03423.4 -07.4894 26264.7
 05 04 2013  22 48  -21.0442 26040.5 -03423.4 -07.4894 26264.6
 05 04 2013  22 49  -21.0441 26040.4 -03423.4 -07.4894 26264.4
 05 04 2013  22 50  -21.0440 26040.3 -03423.4 -07.4895 26264.4
 05 04 2013  22 51  -21.0440 26040.5 -03423.6 -07.4897 26264.6
 05 04 2013  22 52  -21.0439 26040.8 -03423.8 -07.4901 26264.9
 05 04 2013  22 53  -21.0438 26041.1 -03424.0 -07.4905 26265.2
 05 04 2013  22 54  -21.0438 26041.3 -03424.1 -07.4908 26265.5
 05 04 2013  22 55  -21.0437 26041.5 -03424.3 -07.4910 26265.6
 05 04 2013  22 56  -21.0437 26041.5 -03424.4 -07.4912 26265.7
 05 04 2013  22 57  -21.0437 26041.6 -03424.4 -07.4913 26265.8
 05 04 2013  22 58  -21.0437 26041.8 -03424.5 -07.4915 26266.0
 05 04 2013  22 59  -21.0437 26041.8 -03424.5 -07.4915 26266.0
 05 04 2013  23 00  -21.0436 26042.1 -03424.7 -07.4917 26266.3
 05 04 2013  23 01  -21.0435 26042.1 -03424.7 -07.4917 26266.3
 05 04 2013  23 02  -21.0435 26042.4 -03424.8 -07.4919 26266.6
 05 04 2013  23 03  -21.0433 26042.8 -03425.0 -07.4922 26267.0
 05 04 2013  23 04  -21.0433 26042.8 -03425.0 -07.4923 26267.1
 05 04 2013  23 05  -21.0433 26043.0 -03425.1 -07.4924 26267.3
 05 04 2013  23 06  -21.0433 26043.2 -03425.2 -07.4924 26267.5
 05 04 2013  23 07  -21.0433 26043.3 -03425.2 -07.4925 26267.6
 05 04 2013  23 08  -21.0432 26043.4 -03425.2 -07.4925 26267.7
 05 04 2013  23 09  -21.0430 26043.5 -03425.2 -07.4925 26267.8
 05 04 2013  23 10  -21.0429 26043.6 -03425.2 -07.4924 26267.8
 05 04 2013  23 11  -21.0428 26043.5 -03425.2 -07.4923 26267.8
 05 04 2013  23 12  -21.0427 26043.6 -03425.2 -07.4923 26267.9
 05 04 2013  23 13  -21.0428 26043.4 -03425.1 -07.4922 26267.7
 05 04 2013  23 14  -21.0429 26043.2 -03425.0 -07.4920 26267.5
 05 04 2013  23 15  -21.0430 26042.9 -03424.8 -07.4918 26267.1
 05 04 2013  23 16  -21.0431 26042.4 -03424.6 -07.4913 26266.6
 05 04 2013  23 17  -21.0432 26042.2 -03424.4 -07.4911 26266.4
 05 04 2013  23 18  -21.0431 26042.3 -03424.5 -07.4912 26266.5
 05 04 2013  23 19  -21.0435 26041.7 -03424.3 -07.4909 26265.9
 05 04 2013  23 20  -21.0436 26041.7 -03424.2 -07.4909 26265.9
 05 04 2013  23 21  -21.0435 26041.8 -03424.3 -07.4910 26266.0
 05 04 2013  23 22  -21.0437 26041.1 -03424.0 -07.4906 26265.2
 05 04 2013  23 23  -21.0438 26041.2 -03424.0 -07.4905 26265.3
 05 04 2013  23 24  -21.0435 26041.2 -03424.1 -07.4907 26265.3
 05 04 2013  23 25  -21.0438 26040.7 -03423.9 -07.4903 26264.8
 05 04 2013  23 26  -21.0436 26041.2 -03424.1 -07.4907 26265.3
 05 04 2013  23 27  -21.0437 26041.3 -03424.2 -07.4910 26265.4
 05 04 2013  23 28  -21.0438 26041.2 -03424.2 -07.4910 26265.4
 05 04 2013  23 29  -21.0438 26041.5 -03424.3 -07.4911 26265.7
 05 04 2013  23 30  -21.0436 26041.8 -03424.6 -07.4915 26266.0
 05 04 2013  23 31  -21.0441 26041.0 -03424.3 -07.4911 26265.2
 05 04 2013  23 32  -21.0440 26041.2 -03424.3 -07.4912 26265.3
 05 04 2013  23 33  -21.0444 26040.1 -03423.9 -07.4905 26264.3
 05 04 2013  23 34  -21.0445 26040.0 -03423.7 -07.4903 26264.1
 05 04 2013  23 35  -21.0445 26039.8 -03423.7 -07.4902 26263.9
 05 04 2013  23 36  -21.0447 26038.9 -03423.3 -07.4897 26263.0
 05 04 2013  23 37  -21.0446 26039.4 -03423.5 -07.4900 26263.5
 05 04 2013  23 38  -21.0444 26039.7 -03423.8 -07.4905 26263.8
 05 04 2013  23 39  -21.0445 26040.0 -03423.9 -07.4907 26264.1
 05 04 2013  23 40  -21.0441 26041.0 -03424.5 -07.4916 26265.2
 05 04 2013  23 41  -21.0442 26041.1 -03424.6 -07.4919 26265.3
 05 04 2013  23 42  -21.0439 26041.8 -03425.0 -07.4924 26266.1
 05 04 2013  23 43  -21.0439 26041.9 -03425.0 -07.4925 26266.1
 05 04 2013  23 44  -21.0439 26042.1 -03425.1 -07.4925 26266.4
 05 04 2013  23 45  -21.0438 26041.9 -03425.0 -07.4925 26266.1
 05 04 2013  23 46  -21.0442 26041.7 -03424.9 -07.4923 26266.0
 05 04 2013  23 47  -21.0444 26041.6 -03424.8 -07.4922 26265.8
 05 04 2013  23 48  -21.0446 26041.1 -03424.6 -07.4918 26265.3
 05 04 2013  23 49  -21.0449 26040.9 -03424.5 -07.4916 26265.1
 05 04 2013  23 50  -21.0451 26040.8 -03424.4 -07.4914 26265.0
 05 04 2013  23 51  -21.0451 26041.1 -03424.5 -07.4916 26265.3
 05 04 2013  23 52  -21.0453 26040.9 -03424.4 -07.4915 26265.1
 05 04 2013  23 53  -21.0451 26041.3 -03424.6 -07.4918 26265.6
 05 04 2013  23 54  -21.0451 26041.2 -03424.6 -07.4918 26265.4
 05 04 2013  23 55  -21.0450 26041.6 -03424.8 -07.4921 26265.9
 05 04 2013  23 56  -21.0449 26041.6 -03424.8 -07.4921 26265.8
 05 04 2013  23 57  -21.0448 26041.6 -03424.8 -07.4921 26265.8
