SAO LUIS EMBRACE-03 <249> 1 Min. Reported data

 DD MM YYYY  HH MM   D(Deg)  H(nT)   Z(nT)   I(Deg)   F(nT)

 06 09 2013  00 00  -21.0202 26031.9 -03481.4 -07.6173 26263.6
 06 09 2013  00 01  -21.0203 26031.9 -03481.4 -07.6173 26263.7
 06 09 2013  00 02  -21.0204 26032.0 -03481.5 -07.6175 26263.8
 06 09 2013  00 03  -21.0203 26032.1 -03481.5 -07.6175 26263.9
 06 09 2013  00 04  -21.0203 26032.2 -03481.6 -07.6176 26264.0
 06 09 2013  00 05  -21.0204 26032.3 -03481.7 -07.6177 26264.1
 06 09 2013  00 06  -21.0205 26032.3 -03481.7 -07.6177 26264.1
 06 09 2013  00 07  -21.0205 26032.2 -03481.6 -07.6176 26264.0
 06 09 2013  00 08  -21.0205 26032.0 -03481.5 -07.6175 26263.8
 06 09 2013  00 09  -21.0207 26031.8 -03481.4 -07.6173 26263.6
 06 09 2013  00 10  -21.0207 26031.7 -03481.4 -07.6173 26263.5
 06 09 2013  00 11  -21.0208 26031.7 -03481.4 -07.6173 26263.4
 06 09 2013  00 12  -21.0210 26031.6 -03481.4 -07.6173 26263.4
 06 09 2013  00 13  -21.0212 26031.5 -03481.3 -07.6172 26263.2
 06 09 2013  00 14  -21.0213 26031.3 -03481.2 -07.6171 26263.1
 06 09 2013  00 15  -21.0215 26031.2 -03481.2 -07.6170 26262.9
 06 09 2013  00 16  -21.0217 26031.0 -03481.1 -07.6169 26262.7
 06 09 2013  00 17  -21.0218 26030.9 -03481.1 -07.6169 26262.6
 06 09 2013  00 18  -21.0218 26030.8 -03481.0 -07.6168 26262.5
 06 09 2013  00 19  -21.0221 26030.6 -03481.0 -07.6168 26262.3
 06 09 2013  00 20  -21.0224 26030.3 -03480.9 -07.6166 26262.0
 06 09 2013  00 21  -21.0227 26030.1 -03480.8 -07.6165 26261.8
 06 09 2013  00 22  -21.0230 26030.0 -03480.8 -07.6166 26261.7
 06 09 2013  00 23  -21.0230 26029.8 -03480.7 -07.6164 26261.5
 06 09 2013  00 24  -21.0228 26029.7 -03480.7 -07.6163 26261.4
 06 09 2013  00 25  -21.0228 26029.7 -03480.7 -07.6165 26261.4
 06 09 2013  00 26  -21.0226 26029.9 -03480.8 -07.6166 26261.6
 06 09 2013  00 27  -21.0226 26030.1 -03481.0 -07.6169 26261.8
 06 09 2013  00 28  -21.0228 26029.9 -03480.9 -07.6169 26261.7
 06 09 2013  00 29  -21.0226 26030.3 -03481.1 -07.6171 26262.0
 06 09 2013  00 30  -21.0222 26030.8 -03481.4 -07.6175 26262.5
 06 09 2013  00 31  -21.0220 26030.8 -03481.5 -07.6177 26262.6
 06 09 2013  00 32  -21.0218 26031.2 -03481.6 -07.6179 26263.0
 06 09 2013  00 33  -21.0221 26030.8 -03481.5 -07.6179 26262.6
 06 09 2013  00 34  -21.0222 26030.6 -03481.4 -07.6176 26262.4
 06 09 2013  00 35  -21.0222 26030.5 -03481.3 -07.6176 26262.3
 06 09 2013  00 36  -21.0219 26030.4 -03481.3 -07.6174 26262.2
 06 09 2013  00 37  -21.0215 26030.5 -03481.4 -07.6176 26262.3
 06 09 2013  00 38  -21.0210 26030.6 -03481.4 -07.6177 26262.3
 06 09 2013  00 39  -21.0204 26030.6 -03481.4 -07.6177 26262.3
 06 09 2013  00 40  -21.0197 26030.6 -03481.5 -07.6178 26262.4
 06 09 2013  00 41  -21.0188 26031.0 -03481.7 -07.6181 26262.8
 06 09 2013  00 42  -21.0179 26032.0 -03482.2 -07.6189 26263.8
 06 09 2013  00 43  -21.0173 26032.8 -03482.7 -07.6199 26264.8
 06 09 2013  00 44  -21.0170 26033.2 -03482.9 -07.6202 26265.1
 06 09 2013  00 45  -21.0165 26033.5 -03483.1 -07.6206 26265.5
 06 09 2013  00 46  -21.0161 26033.8 -03483.3 -07.6208 26265.8
 06 09 2013  00 47  -21.0157 26034.0 -03483.3 -07.6208 26266.0
 06 09 2013  00 48  -21.0154 26034.1 -03483.3 -07.6209 26266.1
 06 09 2013  00 49  -21.0155 26033.7 -03483.2 -07.6206 26265.7
 06 09 2013  00 50  -21.0153 26034.0 -03483.2 -07.6206 26265.9
 06 09 2013  00 51  -21.0154 26033.6 -03483.1 -07.6205 26265.6
 06 09 2013  00 52  -21.0158 26033.3 -03482.9 -07.6201 26265.3
 06 09 2013  00 53  -21.0159 26033.7 -03483.1 -07.6203 26265.7
 06 09 2013  00 54  -21.0164 26033.5 -03483.0 -07.6203 26265.4
 06 09 2013  00 55  -21.0168 26033.3 -03482.9 -07.6201 26265.3
 06 09 2013  00 56  -21.0170 26033.5 -03483.0 -07.6202 26265.5
 06 09 2013  00 57  -21.0173 26033.3 -03482.9 -07.6201 26265.2
 06 09 2013  00 58  -21.0175 26033.1 -03482.8 -07.6199 26265.1
 06 09 2013  00 59  -21.0176 26033.1 -03482.7 -07.6198 26265.0
 06 09 2013  01 00  -21.0177 26032.9 -03482.6 -07.6197 26264.8
 06 09 2013  01 01  -21.0177 26032.8 -03482.6 -07.6195 26264.7
 06 09 2013  01 02  -21.0177 26032.7 -03482.5 -07.6195 26264.6
 06 09 2013  01 03  -21.0178 26032.6 -03482.4 -07.6193 26264.5
 06 09 2013  01 04  -21.0180 26032.4 -03482.4 -07.6192 26264.3
 06 09 2013  01 05  -21.0183 26032.1 -03482.2 -07.6191 26264.0
 06 09 2013  01 06  -21.0184 26032.0 -03482.2 -07.6189 26263.8
 06 09 2013  01 07  -21.0185 26031.8 -03482.1 -07.6188 26263.6
 06 09 2013  01 08  -21.0185 26031.7 -03482.0 -07.6187 26263.6
 06 09 2013  01 09  -21.0184 26031.8 -03482.1 -07.6188 26263.6
 06 09 2013  01 10  -21.0184 26031.8 -03482.1 -07.6189 26263.7
 06 09 2013  01 11  -21.0184 26031.9 -03482.2 -07.6190 26263.8
 06 09 2013  01 12  -21.0183 26032.0 -03482.2 -07.6190 26263.8
 06 09 2013  01 13  -21.0183 26032.0 -03482.2 -07.6191 26263.8
 06 09 2013  01 14  -21.0182 26032.1 -03482.3 -07.6192 26264.0
 06 09 2013  01 15  -21.0183 26032.0 -03482.3 -07.6192 26263.9
 06 09 2013  01 16  -21.0183 26032.0 -03482.3 -07.6192 26263.9
 06 09 2013  01 17  -21.0183 26031.9 -03482.2 -07.6191 26263.7
 06 09 2013  01 18  -21.0182 26031.9 -03482.2 -07.6190 26263.7
 06 09 2013  01 19  -21.0181 26031.9 -03482.2 -07.6190 26263.8
 06 09 2013  01 20  -21.0180 26032.0 -03482.2 -07.6191 26263.8
 06 09 2013  01 21  -21.0180 26031.9 -03482.2 -07.6191 26263.8
 06 09 2013  01 22  -21.0179 26031.9 -03482.2 -07.6191 26263.8
 06 09 2013  01 23  -21.0177 26031.9 -03482.2 -07.6191 26263.7
 06 09 2013  01 24  -21.0176 26031.9 -03482.2 -07.6190 26263.7
 06 09 2013  01 25  -21.0176 26031.9 -03482.3 -07.6191 26263.7
 06 09 2013  01 26  -21.0175 26032.0 -03482.3 -07.6192 26263.9
 06 09 2013  01 27  -21.0177 26032.0 -03482.3 -07.6192 26263.9
 06 09 2013  01 28  -21.0180 26032.0 -03482.4 -07.6193 26263.9
 06 09 2013  01 29  -21.0183 26032.1 -03482.4 -07.6194 26264.0
 06 09 2013  01 30  -21.0186 26032.0 -03482.4 -07.6193 26263.9
 06 09 2013  01 31  -21.0189 26032.0 -03482.4 -07.6193 26263.9
 06 09 2013  01 32  -21.0190 26032.0 -03482.3 -07.6193 26263.9
 06 09 2013  01 33  -21.0191 26031.9 -03482.3 -07.6192 26263.8
 06 09 2013  01 34  -21.0192 26031.9 -03482.2 -07.6191 26263.8
 06 09 2013  01 35  -21.0194 26031.8 -03482.2 -07.6190 26263.6
 06 09 2013  01 36  -21.0195 26031.7 -03482.2 -07.6190 26263.6
 06 09 2013  01 37  -21.0195 26031.7 -03482.1 -07.6189 26263.5
 06 09 2013  01 38  -21.0195 26031.7 -03482.1 -07.6189 26263.5
 06 09 2013  01 39  -21.0194 26031.8 -03482.2 -07.6190 26263.6
 06 09 2013  01 40  -21.0195 26031.7 -03482.2 -07.6190 26263.6
 06 09 2013  01 41  -21.0196 26031.7 -03482.2 -07.6190 26263.6
 06 09 2013  01 42  -21.0196 26031.7 -03482.2 -07.6190 26263.6
 06 09 2013  01 43  -21.0197 26031.8 -03482.2 -07.6191 26263.7
 06 09 2013  01 44  -21.0200 26031.9 -03482.3 -07.6192 26263.8
 06 09 2013  01 45  -21.0200 26031.8 -03482.2 -07.6191 26263.6
 06 09 2013  01 46  -21.0199 26031.7 -03482.2 -07.6190 26263.5
 06 09 2013  01 47  -21.0198 26031.6 -03482.1 -07.6189 26263.5
 06 09 2013  01 48  -21.0196 26031.8 -03482.2 -07.6190 26263.6
 06 09 2013  01 49  -21.0196 26031.8 -03482.2 -07.6190 26263.6
 06 09 2013  01 50  -21.0196 26031.8 -03482.2 -07.6191 26263.6
 06 09 2013  01 51  -21.0197 26031.6 -03482.2 -07.6190 26263.4
 06 09 2013  01 52  -21.0197 26031.5 -03482.1 -07.6189 26263.3
 06 09 2013  01 53  -21.0198 26031.4 -03482.1 -07.6189 26263.3
 06 09 2013  01 54  -21.0197 26031.4 -03482.1 -07.6189 26263.3
 06 09 2013  01 55  -21.0197 26031.4 -03482.1 -07.6189 26263.2
 06 09 2013  01 56  -21.0197 26031.3 -03482.0 -07.6188 26263.1
 06 09 2013  01 57  -21.0197 26031.3 -03482.0 -07.6188 26263.1
 06 09 2013  01 58  -21.0197 26031.2 -03482.0 -07.6188 26263.1
 06 09 2013  01 59  -21.0198 26031.2 -03482.0 -07.6188 26263.1
 06 09 2013  02 00  -21.0199 26031.2 -03482.0 -07.6189 26263.1
 06 09 2013  02 01  -21.0200 26031.1 -03482.0 -07.6188 26263.0
 06 09 2013  02 02  -21.0202 26031.0 -03482.0 -07.6188 26262.8
 06 09 2013  02 03  -21.0202 26031.0 -03481.9 -07.6187 26262.9
 06 09 2013  02 04  -21.0202 26031.1 -03482.0 -07.6189 26263.0
 06 09 2013  02 05  -21.0201 26031.3 -03482.1 -07.6189 26263.1
 06 09 2013  02 06  -21.0201 26031.3 -03482.1 -07.6190 26263.2
 06 09 2013  02 07  -21.0200 26031.4 -03482.2 -07.6191 26263.3
 06 09 2013  02 08  -21.0199 26031.6 -03482.3 -07.6193 26263.4
 06 09 2013  02 09  -21.0198 26031.7 -03482.3 -07.6194 26263.6
 06 09 2013  02 10  -21.0196 26032.0 -03482.5 -07.6196 26263.9
 06 09 2013  02 11  -21.0195 26032.2 -03482.5 -07.6197 26264.1
 06 09 2013  02 12  -21.0193 26032.2 -03482.5 -07.6197 26264.1
 06 09 2013  02 13  -21.0187 26032.4 -03482.6 -07.6197 26264.3
 06 09 2013  02 14  -21.0183 26032.2 -03482.5 -07.6196 26264.1
 06 09 2013  02 15  -21.0181 26031.8 -03482.3 -07.6193 26263.7
 06 09 2013  02 16  -21.0180 26031.6 -03482.3 -07.6192 26263.5
 06 09 2013  02 17  -21.0176 26031.6 -03482.2 -07.6192 26263.5
 06 09 2013  02 18  -21.0175 26031.4 -03482.2 -07.6192 26263.3
 06 09 2013  02 19  -21.0175 26031.2 -03482.2 -07.6192 26263.1
 06 09 2013  02 20  -21.0175 26031.1 -03482.2 -07.6192 26263.0
 06 09 2013  02 21  -21.0176 26031.1 -03482.2 -07.6193 26263.0
 06 09 2013  02 22  -21.0175 26031.1 -03482.3 -07.6194 26263.0
 06 09 2013  02 23  -21.0175 26031.0 -03482.3 -07.6194 26262.9
 06 09 2013  02 24  -21.0175 26030.8 -03482.2 -07.6194 26262.7
 06 09 2013  02 25  -21.0174 26030.8 -03482.2 -07.6194 26262.7
 06 09 2013  02 26  -21.0173 26030.8 -03482.2 -07.6194 26262.6
 06 09 2013  02 27  -21.0172 26030.7 -03482.2 -07.6194 26262.5
 06 09 2013  02 28  -21.0171 26030.6 -03482.2 -07.6194 26262.5
 06 09 2013  02 29  -21.0171 26030.4 -03482.2 -07.6195 26262.3
 06 09 2013  02 30  -21.0171 26030.3 -03482.2 -07.6194 26262.2
 06 09 2013  02 31  -21.0170 26030.2 -03482.1 -07.6194 26262.1
 06 09 2013  02 32  -21.0169 26030.1 -03482.1 -07.6194 26261.9
 06 09 2013  02 33  -21.0168 26029.9 -03482.0 -07.6192 26261.7
 06 09 2013  02 34  -21.0169 26029.8 -03482.0 -07.6193 26261.6
 06 09 2013  02 35  -21.0169 26029.6 -03482.0 -07.6193 26261.5
 06 09 2013  02 36  -21.0170 26029.6 -03482.1 -07.6194 26261.4
 06 09 2013  02 37  -21.0170 26029.5 -03482.1 -07.6195 26261.4
 06 09 2013  02 38  -21.0171 26029.5 -03482.1 -07.6195 26261.3
 06 09 2013  02 39  -21.0173 26029.5 -03482.2 -07.6196 26261.4
 06 09 2013  02 40  -21.0173 26029.6 -03482.2 -07.6198 26261.5
 06 09 2013  02 41  -21.0174 26029.8 -03482.3 -07.6198 26261.7
 06 09 2013  02 42  -21.0172 26030.1 -03482.5 -07.6201 26262.0
 06 09 2013  02 43  -21.0171 26030.2 -03482.5 -07.6202 26262.1
 06 09 2013  02 44  -21.0168 26030.5 -03482.6 -07.6204 26262.4
 06 09 2013  02 45  -21.0165 26030.7 -03482.8 -07.6206 26262.7
 06 09 2013  02 46  -21.0162 26030.7 -03482.7 -07.6205 26262.6
 06 09 2013  02 47  -21.0161 26030.6 -03482.7 -07.6204 26262.5
 06 09 2013  02 48  -21.0159 26030.6 -03482.7 -07.6204 26262.6
 06 09 2013  02 49  -21.0160 26030.5 -03482.6 -07.6203 26262.4
 06 09 2013  02 50  -21.0162 26030.3 -03482.5 -07.6202 26262.2
 06 09 2013  02 51  -21.0163 26030.2 -03482.5 -07.6202 26262.1
 06 09 2013  02 52  -21.0166 26029.9 -03482.4 -07.6200 26261.8
 06 09 2013  02 53  -21.0169 26029.8 -03482.3 -07.6198 26261.7
 06 09 2013  02 54  -21.0172 26029.7 -03482.3 -07.6198 26261.6
 06 09 2013  02 55  -21.0172 26029.6 -03482.2 -07.6197 26261.5
 06 09 2013  02 56  -21.0174 26029.6 -03482.3 -07.6198 26261.5
 06 09 2013  02 57  -21.0176 26029.5 -03482.2 -07.6198 26261.4
 06 09 2013  02 58  -21.0177 26029.5 -03482.2 -07.6198 26261.4
 06 09 2013  02 59  -21.0178 26029.5 -03482.2 -07.6198 26261.4
 06 09 2013  03 00  -21.0179 26029.4 -03482.2 -07.6198 26261.3
 06 09 2013  03 01  -21.0178 26029.4 -03482.3 -07.6199 26261.3
 06 09 2013  03 02  -21.0175 26029.4 -03482.2 -07.6198 26261.2
 06 09 2013  03 03  -21.0176 26029.0 -03482.1 -07.6196 26260.9
 06 09 2013  03 04  -21.0175 26028.9 -03482.0 -07.6195 26260.8
 06 09 2013  03 05  -21.0176 26028.7 -03482.0 -07.6194 26260.6
 06 09 2013  03 06  -21.0176 26028.6 -03481.9 -07.6194 26260.4
 06 09 2013  03 07  -21.0177 26028.6 -03481.9 -07.6194 26260.4
 06 09 2013  03 08  -21.0178 26028.4 -03481.9 -07.6194 26260.2
 06 09 2013  03 09  -21.0179 26028.3 -03481.9 -07.6195 26260.2
 06 09 2013  03 10  -21.0180 26028.2 -03481.9 -07.6195 26260.0
 06 09 2013  03 11  -21.0180 26028.0 -03481.9 -07.6194 26259.9
 06 09 2013  03 12  -21.0179 26027.9 -03481.8 -07.6194 26259.8
 06 09 2013  03 13  -21.0179 26027.7 -03481.8 -07.6193 26259.6
 06 09 2013  03 14  -21.0179 26027.6 -03481.8 -07.6193 26259.5
 06 09 2013  03 15  -21.0180 26027.5 -03481.8 -07.6193 26259.3
 06 09 2013  03 16  -21.0181 26027.4 -03481.8 -07.6194 26259.3
 06 09 2013  03 17  -21.0182 26027.3 -03481.8 -07.6194 26259.2
 06 09 2013  03 18  -21.0183 26027.2 -03481.8 -07.6194 26259.1
 06 09 2013  03 19  -21.0184 26027.2 -03481.8 -07.6196 26259.0
 06 09 2013  03 20  -21.0184 26027.1 -03481.8 -07.6196 26259.0
 06 09 2013  03 21  -21.0183 26027.1 -03481.8 -07.6196 26258.9
 06 09 2013  03 22  -21.0183 26027.2 -03481.9 -07.6198 26259.0
 06 09 2013  03 23  -21.0183 26027.2 -03482.0 -07.6199 26259.0
 06 09 2013  03 24  -21.0183 26027.1 -03482.0 -07.6199 26258.9
 06 09 2013  03 25  -21.0182 26027.2 -03482.1 -07.6201 26259.1
 06 09 2013  03 26  -21.0183 26027.1 -03482.0 -07.6201 26258.9
 06 09 2013  03 27  -21.0182 26027.2 -03482.0 -07.6201 26259.1
 06 09 2013  03 28  -21.0184 26027.2 -03482.1 -07.6202 26259.1
 06 09 2013  03 29  -21.0185 26027.2 -03482.1 -07.6203 26259.1
 06 09 2013  03 30  -21.0186 26027.1 -03482.2 -07.6203 26259.0
 06 09 2013  03 31  -21.0185 26027.2 -03482.2 -07.6204 26259.1
 06 09 2013  03 32  -21.0185 26027.3 -03482.3 -07.6205 26259.2
 06 09 2013  03 33  -21.0185 26027.3 -03482.3 -07.6206 26259.2
 06 09 2013  03 34  -21.0185 26027.4 -03482.4 -07.6207 26259.3
 06 09 2013  03 35  -21.0184 26027.4 -03482.4 -07.6207 26259.3
 06 09 2013  03 36  -21.0181 26027.4 -03482.4 -07.6207 26259.4
 06 09 2013  03 37  -21.0178 26027.4 -03482.4 -07.6207 26259.3
 06 09 2013  03 38  -21.0174 26027.5 -03482.4 -07.6208 26259.4
 06 09 2013  03 39  -21.0171 26027.5 -03482.5 -07.6210 26259.4
 06 09 2013  03 40  -21.0171 26027.6 -03482.6 -07.6212 26259.6
 06 09 2013  03 41  -21.0170 26027.7 -03482.7 -07.6213 26259.7
 06 09 2013  03 42  -21.0168 26028.0 -03482.8 -07.6215 26259.9
 06 09 2013  03 43  -21.0169 26028.4 -03483.1 -07.6220 26260.4
 06 09 2013  03 44  -21.0173 26028.1 -03483.0 -07.6218 26260.1
 06 09 2013  03 45  -21.0170 26028.8 -03483.3 -07.6223 26260.8
 06 09 2013  03 46  -21.0170 26028.9 -03483.4 -07.6225 26261.0
 06 09 2013  03 47  -21.0171 26029.4 -03483.6 -07.6228 26261.5
 06 09 2013  03 48  -21.0173 26029.5 -03483.7 -07.6229 26261.6
 06 09 2013  03 49  -21.0174 26029.5 -03483.7 -07.6229 26261.6
 06 09 2013  03 50  -21.0172 26030.0 -03483.9 -07.6232 26262.2
 06 09 2013  03 51  -21.0172 26030.2 -03483.9 -07.6232 26262.3
 06 09 2013  03 52  -21.0168 26030.6 -03484.0 -07.6234 26262.7
 06 09 2013  03 53  -21.0166 26030.6 -03484.1 -07.6235 26262.8
 06 09 2013  03 54  -21.0163 26031.1 -03484.3 -07.6237 26263.3
 06 09 2013  03 55  -21.0162 26031.4 -03484.4 -07.6239 26263.6
 06 09 2013  03 56  -21.0163 26031.9 -03484.6 -07.6242 26264.1
 06 09 2013  03 57  -21.0162 26032.4 -03484.8 -07.6245 26264.6
 06 09 2013  03 58  -21.0162 26032.5 -03484.8 -07.6245 26264.7
 06 09 2013  03 59  -21.0161 26032.9 -03485.0 -07.6248 26265.2
 06 09 2013  04 00  -21.0163 26033.1 -03485.1 -07.6249 26265.3
 06 09 2013  04 01  -21.0162 26033.3 -03485.1 -07.6250 26265.5
 06 09 2013  04 02  -21.0169 26033.1 -03484.9 -07.6246 26265.3
 06 09 2013  04 03  -21.0172 26033.8 -03485.2 -07.6251 26266.0
 06 09 2013  04 04  -21.0172 26033.6 -03485.1 -07.6248 26265.8
 06 09 2013  04 05  -21.0170 26034.0 -03485.2 -07.6249 26266.3
 06 09 2013  04 06  -21.0170 26034.0 -03485.2 -07.6249 26266.3
 06 09 2013  04 07  -21.0168 26034.4 -03485.3 -07.6250 26266.6
 06 09 2013  04 08  -21.0167 26034.2 -03485.2 -07.6249 26266.5
 06 09 2013  04 09  -21.0165 26034.2 -03485.2 -07.6247 26266.5
 06 09 2013  04 10  -21.0162 26034.2 -03485.1 -07.6246 26266.4
 06 09 2013  04 11  -21.0161 26033.8 -03484.9 -07.6243 26266.0
 06 09 2013  04 12  -21.0159 26033.7 -03484.8 -07.6241 26265.9
 06 09 2013  04 13  -21.0159 26033.5 -03484.8 -07.6241 26265.7
 06 09 2013  04 14  -21.0157 26033.5 -03484.7 -07.6240 26265.6
 06 09 2013  04 15  -21.0154 26033.5 -03484.7 -07.6241 26265.7
 06 09 2013  04 16  -21.0153 26033.8 -03484.9 -07.6243 26266.0
 06 09 2013  04 17  -21.0155 26033.7 -03484.9 -07.6244 26265.9
 06 09 2013  04 18  -21.0155 26033.7 -03484.9 -07.6243 26265.9
 06 09 2013  04 19  -21.0156 26033.8 -03485.0 -07.6245 26266.0
 06 09 2013  04 20  -21.0158 26033.5 -03484.9 -07.6243 26265.8
 06 09 2013  04 21  -21.0158 26033.5 -03484.8 -07.6242 26265.7
 06 09 2013  04 22  -21.0157 26033.5 -03484.8 -07.6242 26265.7
 06 09 2013  04 23  -21.0156 26033.3 -03484.7 -07.6241 26265.5
 06 09 2013  04 24  -21.0154 26033.4 -03484.7 -07.6241 26265.6
 06 09 2013  04 25  -21.0153 26033.1 -03484.6 -07.6239 26265.3
 06 09 2013  04 26  -21.0150 26032.9 -03484.6 -07.6238 26265.1
 06 09 2013  04 27  -21.0148 26032.8 -03484.5 -07.6238 26265.0
 06 09 2013  04 28  -21.0146 26032.7 -03484.5 -07.6237 26264.9
 06 09 2013  04 29  -21.0145 26032.5 -03484.4 -07.6236 26264.7
 06 09 2013  04 30  -21.0145 26032.4 -03484.4 -07.6236 26264.5
 06 09 2013  04 31  -21.0145 26032.3 -03484.3 -07.6235 26264.4
 06 09 2013  04 32  -21.0145 26032.2 -03484.3 -07.6235 26264.3
 06 09 2013  04 33  -21.0145 26032.2 -03484.4 -07.6236 26264.4
 06 09 2013  04 34  -21.0143 26032.2 -03484.4 -07.6237 26264.3
 06 09 2013  04 35  -21.0141 26032.1 -03484.4 -07.6236 26264.3
 06 09 2013  04 36  -21.0139 26032.0 -03484.3 -07.6236 26264.2
 06 09 2013  04 37  -21.0137 26032.0 -03484.4 -07.6236 26264.2
 06 09 2013  04 38  -21.0135 26031.9 -03484.4 -07.6237 26264.1
 06 09 2013  04 39  -21.0133 26031.9 -03484.4 -07.6237 26264.0
 06 09 2013  04 40  -21.0130 26031.9 -03484.4 -07.6238 26264.1
 06 09 2013  04 41  -21.0126 26032.0 -03484.5 -07.6239 26264.2
 06 09 2013  04 42  -21.0124 26031.9 -03484.5 -07.6240 26264.1
 06 09 2013  04 43  -21.0123 26031.8 -03484.4 -07.6239 26264.0
 06 09 2013  04 44  -21.0121 26031.7 -03484.4 -07.6239 26263.8
 06 09 2013  04 45  -21.0120 26031.5 -03484.4 -07.6238 26263.7
 06 09 2013  04 46  -21.0119 26031.4 -03484.3 -07.6238 26263.5
 06 09 2013  04 47  -21.0118 26031.2 -03484.3 -07.6238 26263.4
 06 09 2013  04 48  -21.0119 26031.2 -03484.4 -07.6239 26263.4
 06 09 2013  04 49  -21.0122 26031.2 -03484.4 -07.6240 26263.3
 06 09 2013  04 50  -21.0122 26031.1 -03484.4 -07.6240 26263.2
 06 09 2013  04 51  -21.0123 26031.0 -03484.4 -07.6240 26263.2
 06 09 2013  04 52  -21.0123 26030.9 -03484.4 -07.6240 26263.1
 06 09 2013  04 53  -21.0122 26030.8 -03484.3 -07.6239 26263.0
 06 09 2013  04 54  -21.0123 26030.8 -03484.4 -07.6240 26263.0
 06 09 2013  04 55  -21.0123 26030.8 -03484.4 -07.6241 26263.0
 06 09 2013  04 56  -21.0122 26030.8 -03484.4 -07.6240 26263.0
 06 09 2013  04 57  -21.0122 26030.7 -03484.4 -07.6240 26262.9
 06 09 2013  04 58  -21.0121 26030.8 -03484.4 -07.6241 26262.9
 06 09 2013  04 59  -21.0119 26030.9 -03484.5 -07.6243 26263.1
 06 09 2013  05 00  -21.0117 26030.8 -03484.5 -07.6242 26263.0
 06 09 2013  05 01  -21.0115 26030.9 -03484.5 -07.6243 26263.1
 06 09 2013  05 02  -21.0111 26031.0 -03484.6 -07.6244 26263.2
 06 09 2013  05 03  -21.0106 26031.1 -03484.6 -07.6245 26263.3
 06 09 2013  05 04  -21.0101 26030.9 -03484.6 -07.6244 26263.1
 06 09 2013  05 05  -21.0094 26031.1 -03484.6 -07.6245 26263.3
 06 09 2013  05 06  -21.0090 26030.9 -03484.6 -07.6245 26263.1
 06 09 2013  05 07  -21.0084 26030.8 -03484.6 -07.6245 26263.0
 06 09 2013  05 08  -21.0080 26030.8 -03484.6 -07.6245 26263.0
 06 09 2013  05 09  -21.0076 26030.8 -03484.7 -07.6247 26263.0
 06 09 2013  05 10  -21.0075 26030.8 -03484.7 -07.6248 26263.0
 06 09 2013  05 11  -21.0074 26030.9 -03484.8 -07.6250 26263.1
 06 09 2013  05 12  -21.0074 26031.0 -03484.9 -07.6252 26263.2
 06 09 2013  05 13  -21.0074 26031.1 -03485.0 -07.6253 26263.3
 06 09 2013  05 14  -21.0074 26031.1 -03485.1 -07.6255 26263.3
 06 09 2013  05 15  -21.0075 26031.0 -03485.1 -07.6255 26263.3
 06 09 2013  05 16  -21.0075 26031.3 -03485.2 -07.6257 26263.5
 06 09 2013  05 17  -21.0076 26031.0 -03485.1 -07.6255 26263.2
 06 09 2013  05 18  -21.0074 26031.1 -03485.1 -07.6256 26263.4
 06 09 2013  05 19  -21.0075 26031.0 -03485.1 -07.6256 26263.3
 06 09 2013  05 20  -21.0073 26031.1 -03485.2 -07.6256 26263.4
 06 09 2013  05 21  -21.0074 26031.4 -03485.4 -07.6260 26263.7
 06 09 2013  05 22  -21.0073 26031.3 -03485.3 -07.6259 26263.6
 06 09 2013  05 23  -21.0072 26031.4 -03485.4 -07.6260 26263.7
 06 09 2013  05 24  -21.0074 26031.4 -03485.4 -07.6260 26263.7
 06 09 2013  05 25  -21.0075 26031.4 -03485.4 -07.6260 26263.7
 06 09 2013  05 26  -21.0076 26031.2 -03485.3 -07.6259 26263.5
 06 09 2013  05 27  -21.0075 26031.3 -03485.3 -07.6259 26263.6
 06 09 2013  05 28  -21.0074 26031.2 -03485.3 -07.6259 26263.5
 06 09 2013  05 29  -21.0072 26031.3 -03485.3 -07.6259 26263.6
 06 09 2013  05 30  -21.0071 26031.4 -03485.4 -07.6260 26263.7
 06 09 2013  05 31  -21.0069 26031.4 -03485.4 -07.6260 26263.7
 06 09 2013  05 32  -21.0069 26031.7 -03485.5 -07.6262 26264.0
 06 09 2013  05 33  -21.0071 26031.5 -03485.5 -07.6262 26263.8
 06 09 2013  05 34  -21.0072 26031.7 -03485.5 -07.6262 26264.0
 06 09 2013  05 35  -21.0073 26031.8 -03485.6 -07.6264 26264.1
 06 09 2013  05 36  -21.0074 26032.2 -03485.8 -07.6267 26264.5
 06 09 2013  05 37  -21.0076 26032.2 -03485.8 -07.6268 26264.6
 06 09 2013  05 38  -21.0076 26032.2 -03485.8 -07.6267 26264.6
 06 09 2013  05 39  -21.0075 26032.1 -03485.7 -07.6265 26264.4
 06 09 2013  05 40  -21.0075 26032.0 -03485.6 -07.6264 26264.4
 06 09 2013  05 41  -21.0073 26032.0 -03485.6 -07.6263 26264.3
 06 09 2013  05 42  -21.0071 26031.9 -03485.5 -07.6262 26264.3
 06 09 2013  05 43  -21.0069 26031.8 -03485.4 -07.6260 26264.1
 06 09 2013  05 44  -21.0067 26031.7 -03485.4 -07.6259 26264.0
 06 09 2013  05 45  -21.0064 26031.6 -03485.4 -07.6259 26263.9
 06 09 2013  05 46  -21.0061 26031.7 -03485.4 -07.6259 26264.0
 06 09 2013  05 47  -21.0059 26031.7 -03485.4 -07.6259 26263.9
 06 09 2013  05 48  -21.0058 26031.6 -03485.4 -07.6260 26263.9
 06 09 2013  05 49  -21.0057 26031.5 -03485.4 -07.6260 26263.8
 06 09 2013  05 50  -21.0054 26031.5 -03485.4 -07.6260 26263.8
 06 09 2013  05 51  -21.0053 26031.5 -03485.4 -07.6260 26263.8
 06 09 2013  05 52  -21.0052 26031.6 -03485.5 -07.6262 26263.9
 06 09 2013  05 53  -21.0051 26031.9 -03485.6 -07.6264 26264.2
 06 09 2013  05 54  -21.0051 26032.2 -03485.8 -07.6267 26264.5
 06 09 2013  05 55  -21.0050 26032.2 -03485.8 -07.6267 26264.5
 06 09 2013  05 56  -21.0049 26032.3 -03485.9 -07.6268 26264.7
 06 09 2013  05 57  -21.0048 26032.5 -03485.9 -07.6269 26264.9
 06 09 2013  05 58  -21.0047 26032.6 -03486.0 -07.6270 26265.0
 06 09 2013  05 59  -21.0046 26032.8 -03486.1 -07.6271 26265.2
 06 09 2013  06 00  -21.0046 26032.8 -03486.1 -07.6271 26265.1
 06 09 2013  06 01  -21.0047 26032.7 -03486.0 -07.6270 26265.1
 06 09 2013  06 02  -21.0046 26032.6 -03485.9 -07.6268 26265.0
 06 09 2013  06 03  -21.0044 26032.7 -03485.9 -07.6268 26265.1
 06 09 2013  06 04  -21.0043 26032.6 -03485.9 -07.6267 26264.9
 06 09 2013  06 05  -21.0042 26032.7 -03485.9 -07.6268 26265.1
 06 09 2013  06 06  -21.0041 26032.5 -03485.8 -07.6266 26264.9
 06 09 2013  06 07  -21.0037 26032.5 -03485.7 -07.6265 26264.8
 06 09 2013  06 08  -21.0033 26032.3 -03485.7 -07.6264 26264.7
 06 09 2013  06 09  -21.0027 26032.3 -03485.7 -07.6264 26264.7
 06 09 2013  06 10  -21.0024 26032.3 -03485.7 -07.6264 26264.6
 06 09 2013  06 11  -21.0019 26032.1 -03485.6 -07.6262 26264.4
 06 09 2013  06 12  -21.0016 26032.2 -03485.7 -07.6264 26264.5
 06 09 2013  06 13  -21.0013 26032.3 -03485.8 -07.6266 26264.6
 06 09 2013  06 14  -21.0009 26032.3 -03485.8 -07.6266 26264.6
 06 09 2013  06 15  -21.0005 26032.2 -03485.8 -07.6267 26264.6
 06 09 2013  06 16  -21.0000 26032.3 -03485.8 -07.6268 26264.6
 06 09 2013  06 17  -20.9995 26032.3 -03485.9 -07.6268 26264.6
 06 09 2013  06 18  -20.9989 26032.2 -03485.9 -07.6268 26264.6
 06 09 2013  06 19  -20.9984 26032.2 -03485.9 -07.6269 26264.5
 06 09 2013  06 20  -20.9979 26032.1 -03485.9 -07.6269 26264.4
 06 09 2013  06 21  -20.9976 26032.0 -03485.9 -07.6270 26264.3
 06 09 2013  06 22  -20.9973 26032.0 -03485.9 -07.6271 26264.4
 06 09 2013  06 23  -20.9972 26031.8 -03486.0 -07.6271 26264.2
 06 09 2013  06 24  -20.9972 26031.9 -03486.0 -07.6273 26264.2
 06 09 2013  06 25  -20.9972 26031.9 -03486.1 -07.6274 26264.3
 06 09 2013  06 26  -20.9973 26032.0 -03486.1 -07.6275 26264.4
 06 09 2013  06 27  -20.9974 26032.0 -03486.2 -07.6276 26264.4
 06 09 2013  06 28  -20.9976 26032.2 -03486.3 -07.6278 26264.6
 06 09 2013  06 29  -20.9978 26032.1 -03486.3 -07.6278 26264.5
 06 09 2013  06 30  -20.9981 26032.2 -03486.3 -07.6278 26264.6
 06 09 2013  06 31  -20.9983 26032.1 -03486.2 -07.6277 26264.5
 06 09 2013  06 32  -20.9986 26032.0 -03486.2 -07.6277 26264.4
 06 09 2013  06 33  -20.9986 26032.0 -03486.2 -07.6276 26264.4
 06 09 2013  06 34  -20.9985 26031.8 -03486.1 -07.6275 26264.2
 06 09 2013  06 35  -20.9983 26031.7 -03486.0 -07.6273 26264.1
 06 09 2013  06 36  -20.9983 26031.7 -03486.0 -07.6273 26264.1
 06 09 2013  06 37  -20.9983 26031.7 -03486.0 -07.6273 26264.1
 06 09 2013  06 38  -20.9983 26031.7 -03486.0 -07.6273 26264.0
 06 09 2013  06 39  -20.9984 26031.6 -03486.0 -07.6272 26263.9
 06 09 2013  06 40  -20.9983 26031.6 -03486.0 -07.6272 26264.0
 06 09 2013  06 41  -20.9985 26031.5 -03485.9 -07.6272 26263.9
 06 09 2013  06 42  -20.9985 26031.5 -03485.9 -07.6272 26263.9
 06 09 2013  06 43  -20.9986 26031.4 -03485.9 -07.6272 26263.8
 06 09 2013  06 44  -20.9987 26031.5 -03485.9 -07.6272 26263.8
 06 09 2013  06 45  -20.9987 26031.5 -03485.9 -07.6272 26263.8
 06 09 2013  06 46  -20.9989 26031.4 -03485.9 -07.6271 26263.8
 06 09 2013  06 47  -20.9989 26031.4 -03485.9 -07.6271 26263.8
 06 09 2013  06 48  -20.9989 26031.4 -03485.8 -07.6271 26263.8
 06 09 2013  06 49  -20.9989 26031.3 -03485.8 -07.6270 26263.7
 06 09 2013  06 50  -20.9990 26031.3 -03485.8 -07.6270 26263.6
 06 09 2013  06 51  -20.9990 26031.1 -03485.7 -07.6268 26263.5
 06 09 2013  06 52  -20.9990 26031.1 -03485.7 -07.6268 26263.4
 06 09 2013  06 53  -20.9989 26031.0 -03485.6 -07.6267 26263.3
 06 09 2013  06 54  -20.9987 26030.9 -03485.6 -07.6266 26263.2
 06 09 2013  06 55  -20.9985 26030.8 -03485.6 -07.6266 26263.2
 06 09 2013  06 56  -20.9984 26030.8 -03485.6 -07.6266 26263.1
 06 09 2013  06 57  -20.9983 26030.7 -03485.5 -07.6265 26263.1
 06 09 2013  06 58  -20.9981 26030.7 -03485.5 -07.6266 26263.0
 06 09 2013  06 59  -20.9979 26030.6 -03485.5 -07.6265 26263.0
 06 09 2013  07 00  -20.9976 26030.6 -03485.5 -07.6265 26262.9
 06 09 2013  07 01  -20.9972 26030.6 -03485.5 -07.6266 26262.9
 06 09 2013  07 02  -20.9969 26030.5 -03485.5 -07.6266 26262.8
 06 09 2013  07 03  -20.9965 26030.4 -03485.5 -07.6265 26262.7
 06 09 2013  07 04  -20.9963 26030.3 -03485.5 -07.6266 26262.7
 06 09 2013  07 05  -20.9959 26030.3 -03485.5 -07.6266 26262.6
 06 09 2013  07 06  -20.9955 26030.2 -03485.5 -07.6266 26262.5
 06 09 2013  07 07  -20.9952 26030.1 -03485.5 -07.6266 26262.4
 06 09 2013  07 08  -20.9949 26030.1 -03485.6 -07.6268 26262.5
 06 09 2013  07 09  -20.9946 26030.2 -03485.6 -07.6269 26262.6
 06 09 2013  07 10  -20.9944 26030.2 -03485.7 -07.6271 26262.6
 06 09 2013  07 11  -20.9942 26030.3 -03485.8 -07.6273 26262.6
 06 09 2013  07 12  -20.9938 26030.2 -03485.8 -07.6273 26262.6
 06 09 2013  07 13  -20.9936 26030.3 -03485.9 -07.6274 26262.6
 06 09 2013  07 14  -20.9934 26030.3 -03485.9 -07.6275 26262.6
 06 09 2013  07 15  -20.9932 26030.2 -03485.9 -07.6275 26262.5
 06 09 2013  07 16  -20.9930 26030.2 -03485.9 -07.6276 26262.5
 06 09 2013  07 17  -20.9928 26030.1 -03486.0 -07.6277 26262.5
 06 09 2013  07 18  -20.9926 26030.0 -03486.0 -07.6277 26262.4
 06 09 2013  07 19  -20.9925 26030.0 -03486.0 -07.6277 26262.4
 06 09 2013  07 20  -20.9924 26030.0 -03486.0 -07.6278 26262.4
 06 09 2013  07 21  -20.9922 26030.1 -03486.1 -07.6280 26262.5
 06 09 2013  07 22  -20.9921 26030.1 -03486.2 -07.6281 26262.6
 06 09 2013  07 23  -20.9920 26030.3 -03486.3 -07.6283 26262.7
 06 09 2013  07 24  -20.9917 26030.2 -03486.3 -07.6283 26262.6
 06 09 2013  07 25  -20.9914 26030.3 -03486.3 -07.6284 26262.7
 06 09 2013  07 26  -20.9911 26030.3 -03486.4 -07.6285 26262.8
 06 09 2013  07 27  -20.9908 26030.3 -03486.4 -07.6285 26262.7
 06 09 2013  07 28  -20.9906 26030.3 -03486.4 -07.6285 26262.7
 06 09 2013  07 29  -20.9903 26030.1 -03486.3 -07.6284 26262.6
 06 09 2013  07 30  -20.9898 26029.9 -03486.2 -07.6283 26262.4
 06 09 2013  07 31  -20.9896 26029.8 -03486.2 -07.6283 26262.2
 06 09 2013  07 32  -20.9894 26029.6 -03486.2 -07.6282 26262.0
 06 09 2013  07 33  -20.9893 26029.5 -03486.2 -07.6283 26262.0
 06 09 2013  07 34  -20.9893 26029.5 -03486.3 -07.6285 26262.0
 06 09 2013  07 35  -20.9893 26029.6 -03486.3 -07.6286 26262.0
 06 09 2013  07 36  -20.9892 26029.7 -03486.4 -07.6288 26262.1
 06 09 2013  07 37  -20.9891 26029.7 -03486.5 -07.6289 26262.1
 06 09 2013  07 38  -20.9891 26029.7 -03486.5 -07.6290 26262.2
 06 09 2013  07 39  -20.9891 26029.7 -03486.6 -07.6291 26262.1
 06 09 2013  07 40  -20.9893 26029.7 -03486.6 -07.6292 26262.2
 06 09 2013  07 41  -20.9893 26029.7 -03486.6 -07.6293 26262.2
 06 09 2013  07 42  -20.9893 26029.7 -03486.6 -07.6292 26262.2
 06 09 2013  07 43  -20.9892 26029.7 -03486.6 -07.6292 26262.2
 06 09 2013  07 44  -20.9892 26029.7 -03486.7 -07.6293 26262.2
 06 09 2013  07 45  -20.9892 26029.7 -03486.7 -07.6293 26262.2
 06 09 2013  07 46  -20.9893 26029.8 -03486.7 -07.6293 26262.2
 06 09 2013  07 47  -20.9895 26029.7 -03486.7 -07.6293 26262.2
 06 09 2013  07 48  -20.9896 26029.7 -03486.7 -07.6293 26262.2
 06 09 2013  07 49  -20.9896 26029.6 -03486.6 -07.6291 26262.1
 06 09 2013  07 50  -20.9894 26029.5 -03486.5 -07.6290 26262.0
 06 09 2013  07 51  -20.9893 26029.4 -03486.5 -07.6289 26261.9
 06 09 2013  07 52  -20.9891 26029.3 -03486.4 -07.6289 26261.7
 06 09 2013  07 53  -20.9886 26029.3 -03486.4 -07.6288 26261.8
 06 09 2013  07 54  -20.9881 26029.3 -03486.4 -07.6289 26261.8
 06 09 2013  07 55  -20.9877 26029.3 -03486.5 -07.6290 26261.8
 06 09 2013  07 56  -20.9873 26029.5 -03486.6 -07.6293 26262.0
 06 09 2013  07 57  -20.9871 26029.5 -03486.7 -07.6295 26262.0
 06 09 2013  07 58  -20.9868 26029.5 -03486.8 -07.6296 26262.0
 06 09 2013  07 59  -20.9865 26029.4 -03486.7 -07.6295 26261.9
 06 09 2013  08 00  -20.9863 26029.4 -03486.7 -07.6295 26261.9
 06 09 2013  08 01  -20.9863 26029.4 -03486.7 -07.6295 26261.9
 06 09 2013  08 02  -20.9862 26029.4 -03486.7 -07.6294 26261.8
 06 09 2013  08 03  -20.9863 26029.2 -03486.6 -07.6294 26261.7
 06 09 2013  08 04  -20.9865 26029.2 -03486.7 -07.6295 26261.7
 06 09 2013  08 05  -20.9868 26029.2 -03486.7 -07.6295 26261.7
 06 09 2013  08 06  -20.9869 26029.3 -03486.7 -07.6295 26261.7
 06 09 2013  08 07  -20.9872 26029.4 -03486.8 -07.6297 26261.9
 06 09 2013  08 08  -20.9874 26029.5 -03486.8 -07.6297 26262.0
 06 09 2013  08 09  -20.9877 26029.5 -03486.9 -07.6298 26262.0
 06 09 2013  08 10  -20.9878 26029.6 -03486.9 -07.6298 26262.1
 06 09 2013  08 11  -20.9878 26029.6 -03486.8 -07.6297 26262.1
 06 09 2013  08 12  -20.9877 26029.7 -03486.8 -07.6296 26262.2
 06 09 2013  08 13  -20.9875 26029.6 -03486.7 -07.6295 26262.1
 06 09 2013  08 14  -20.9873 26029.5 -03486.7 -07.6293 26262.0
 06 09 2013  08 15  -20.9868 26029.5 -03486.6 -07.6292 26261.9
 06 09 2013  08 16  -20.9864 26029.4 -03486.5 -07.6292 26261.8
 06 09 2013  08 17  -20.9862 26029.3 -03486.5 -07.6291 26261.7
 06 09 2013  08 18  -20.9858 26029.2 -03486.5 -07.6290 26261.6
 06 09 2013  08 19  -20.9855 26029.1 -03486.4 -07.6290 26261.5
 06 09 2013  08 20  -20.9853 26029.0 -03486.4 -07.6290 26261.4
 06 09 2013  08 21  -20.9851 26028.9 -03486.4 -07.6290 26261.3
 06 09 2013  08 22  -20.9849 26028.7 -03486.3 -07.6288 26261.2
 06 09 2013  08 23  -20.9846 26028.7 -03486.3 -07.6289 26261.2
 06 09 2013  08 24  -20.9844 26028.7 -03486.4 -07.6290 26261.2
 06 09 2013  08 25  -20.9841 26028.7 -03486.4 -07.6290 26261.2
 06 09 2013  08 26  -20.9837 26028.7 -03486.4 -07.6290 26261.2
 06 09 2013  08 27  -20.9833 26028.7 -03486.4 -07.6291 26261.2
 06 09 2013  08 28  -20.9828 26028.5 -03486.4 -07.6290 26261.0
 06 09 2013  08 29  -20.9823 26028.6 -03486.4 -07.6291 26261.0
 06 09 2013  08 30  -20.9821 26028.5 -03486.4 -07.6292 26261.0
 06 09 2013  08 31  -20.9821 26028.5 -03486.5 -07.6293 26261.0
 06 09 2013  08 32  -20.9820 26028.4 -03486.5 -07.6293 26260.9
 06 09 2013  08 33  -20.9819 26028.4 -03486.5 -07.6294 26260.8
 06 09 2013  08 34  -20.9817 26028.3 -03486.5 -07.6294 26260.8
 06 09 2013  08 35  -20.9817 26028.2 -03486.5 -07.6294 26260.7
 06 09 2013  08 36  -20.9816 26028.2 -03486.5 -07.6295 26260.6
 06 09 2013  08 37  -20.9815 26028.1 -03486.5 -07.6295 26260.6
 06 09 2013  08 38  -20.9814 26028.0 -03486.4 -07.6293 26260.4
 06 09 2013  08 39  -20.9813 26027.9 -03486.5 -07.6294 26260.3
 06 09 2013  08 40  -20.9811 26027.8 -03486.4 -07.6293 26260.2
 06 09 2013  08 41  -20.9809 26027.8 -03486.4 -07.6294 26260.2
 06 09 2013  08 42  -20.9805 26027.6 -03486.4 -07.6293 26260.1
 06 09 2013  08 43  -20.9801 26027.6 -03486.4 -07.6293 26260.0
 06 09 2013  08 44  -20.9799 26027.5 -03486.4 -07.6294 26259.9
 06 09 2013  08 45  -20.9797 26027.4 -03486.4 -07.6295 26259.8
 06 09 2013  08 46  -20.9795 26027.3 -03486.5 -07.6296 26259.8
 06 09 2013  08 47  -20.9790 26027.3 -03486.5 -07.6296 26259.7
 06 09 2013  08 48  -20.9786 26027.0 -03486.5 -07.6296 26259.5
 06 09 2013  08 49  -20.9784 26026.9 -03486.5 -07.6297 26259.4
 06 09 2013  08 50  -20.9780 26026.7 -03486.5 -07.6299 26259.2
 06 09 2013  08 51  -20.9773 26026.6 -03486.6 -07.6300 26259.1
 06 09 2013  08 52  -20.9771 26026.7 -03486.8 -07.6304 26259.2
 06 09 2013  08 53  -20.9770 26026.7 -03487.0 -07.6309 26259.3
 06 09 2013  08 54  -20.9770 26026.7 -03487.2 -07.6313 26259.3
 06 09 2013  08 55  -20.9768 26026.6 -03487.3 -07.6316 26259.2
 06 09 2013  08 56  -20.9768 26026.6 -03487.4 -07.6318 26259.2
 06 09 2013  08 57  -20.9766 26026.7 -03487.7 -07.6324 26259.3
 06 09 2013  08 58  -20.9767 26026.7 -03487.9 -07.6328 26259.3
 06 09 2013  08 59  -20.9769 26026.8 -03488.1 -07.6333 26259.5
 06 09 2013  09 00  -20.9770 26026.8 -03488.2 -07.6336 26259.5
 06 09 2013  09 01  -20.9773 26026.8 -03488.4 -07.6339 26259.5
 06 09 2013  09 02  -20.9774 26026.8 -03488.6 -07.6342 26259.5
 06 09 2013  09 03  -20.9776 26026.7 -03488.7 -07.6345 26259.5
 06 09 2013  09 04  -20.9775 26026.5 -03488.7 -07.6347 26259.3
 06 09 2013  09 05  -20.9776 26026.4 -03488.8 -07.6348 26259.2
 06 09 2013  09 06  -20.9778 26026.2 -03488.8 -07.6350 26259.0
 06 09 2013  09 07  -20.9782 26026.1 -03488.9 -07.6352 26258.9
 06 09 2013  09 08  -20.9787 26026.0 -03489.0 -07.6354 26258.8
 06 09 2013  09 09  -20.9792 26025.9 -03489.1 -07.6357 26258.7
 06 09 2013  09 10  -20.9798 26025.8 -03489.2 -07.6360 26258.6
 06 09 2013  09 11  -20.9804 26025.8 -03489.4 -07.6363 26258.7
 06 09 2013  09 12  -20.9811 26025.9 -03489.4 -07.6364 26258.7
 06 09 2013  09 13  -20.9817 26025.8 -03489.6 -07.6367 26258.6
 06 09 2013  09 14  -20.9820 26025.7 -03489.7 -07.6370 26258.6
 06 09 2013  09 15  -20.9823 26025.6 -03489.8 -07.6372 26258.5
 06 09 2013  09 16  -20.9828 26025.5 -03489.8 -07.6374 26258.4
 06 09 2013  09 17  -20.9834 26025.5 -03490.0 -07.6377 26258.4
 06 09 2013  09 18  -20.9841 26025.4 -03490.1 -07.6379 26258.4
 06 09 2013  09 19  -20.9842 26025.4 -03490.1 -07.6381 26258.4
 06 09 2013  09 20  -20.9845 26025.4 -03490.2 -07.6383 26258.4
 06 09 2013  09 21  -20.9849 26025.4 -03490.4 -07.6385 26258.4
 06 09 2013  09 22  -20.9852 26025.3 -03490.4 -07.6388 26258.3
 06 09 2013  09 23  -20.9857 26025.2 -03490.5 -07.6389 26258.2
 06 09 2013  09 24  -20.9863 26025.1 -03490.6 -07.6391 26258.1
 06 09 2013  09 25  -20.9866 26025.0 -03490.7 -07.6394 26258.1
 06 09 2013  09 26  -20.9868 26024.9 -03490.6 -07.6393 26257.9
 06 09 2013  09 27  -20.9867 26024.7 -03490.8 -07.6398 26257.8
 06 09 2013  09 28  -20.9871 26024.7 -03491.0 -07.6401 26257.7
 06 09 2013  09 29  -20.9877 26024.7 -03491.1 -07.6404 26257.8
 06 09 2013  09 30  -20.9885 26024.6 -03491.3 -07.6407 26257.8
 06 09 2013  09 31  -20.9888 26024.6 -03491.4 -07.6409 26257.8
 06 09 2013  09 32  -20.9890 26024.6 -03491.4 -07.6411 26257.7
 06 09 2013  09 33  -20.9896 26024.6 -03491.6 -07.6414 26257.8
 06 09 2013  09 34  -20.9903 26024.6 -03491.7 -07.6417 26257.8
 06 09 2013  09 35  -20.9909 26024.7 -03491.9 -07.6420 26257.9
 06 09 2013  09 36  -20.9916 26024.7 -03492.0 -07.6424 26257.9
 06 09 2013  09 37  -20.9920 26024.8 -03492.2 -07.6426 26258.0
 06 09 2013  09 38  -20.9924 26024.9 -03492.3 -07.6429 26258.2
 06 09 2013  09 39  -20.9929 26024.9 -03492.4 -07.6431 26258.2
 06 09 2013  09 40  -20.9934 26025.0 -03492.6 -07.6434 26258.3
 06 09 2013  09 41  -20.9936 26025.0 -03492.6 -07.6435 26258.3
 06 09 2013  09 42  -20.9941 26025.0 -03492.7 -07.6437 26258.3
 06 09 2013  09 43  -20.9947 26025.1 -03492.8 -07.6440 26258.4
 06 09 2013  09 44  -20.9952 26025.0 -03492.9 -07.6441 26258.4
 06 09 2013  09 45  -20.9953 26025.1 -03492.9 -07.6442 26258.5
 06 09 2013  09 46  -20.9958 26025.0 -03493.0 -07.6444 26258.4
 06 09 2013  09 47  -20.9966 26025.0 -03493.1 -07.6446 26258.4
 06 09 2013  09 48  -20.9975 26025.0 -03493.2 -07.6449 26258.4
 06 09 2013  09 49  -20.9982 26025.0 -03493.3 -07.6450 26258.4
 06 09 2013  09 50  -20.9987 26025.1 -03493.4 -07.6452 26258.5
 06 09 2013  09 51  -20.9993 26025.1 -03493.5 -07.6454 26258.5
 06 09 2013  09 52  -20.9997 26025.3 -03493.6 -07.6457 26258.7
 06 09 2013  09 53  -21.0006 26025.3 -03493.7 -07.6458 26258.8
 06 09 2013  09 54  -21.0013 26025.4 -03493.8 -07.6460 26258.8
 06 09 2013  09 55  -21.0021 26025.5 -03494.0 -07.6463 26258.9
 06 09 2013  09 56  -21.0025 26025.5 -03494.1 -07.6466 26259.0
 06 09 2013  09 57  -21.0028 26025.8 -03494.3 -07.6469 26259.3
 06 09 2013  09 58  -21.0032 26025.9 -03494.4 -07.6472 26259.4
 06 09 2013  09 59  -21.0042 26026.1 -03494.7 -07.6476 26259.7
 06 09 2013  10 00  -21.0047 26026.3 -03494.8 -07.6479 26259.9
 06 09 2013  10 01  -21.0052 26026.6 -03494.9 -07.6481 26260.2
 06 09 2013  10 02  -21.0058 26026.6 -03495.0 -07.6481 26260.2
 06 09 2013  10 03  -21.0066 26026.5 -03494.9 -07.6480 26260.1
 06 09 2013  10 04  -21.0071 26026.7 -03494.9 -07.6480 26260.3
 06 09 2013  10 05  -21.0072 26026.6 -03494.9 -07.6481 26260.2
 06 09 2013  10 06  -21.0080 26026.5 -03494.9 -07.6480 26260.1
 06 09 2013  10 07  -21.0089 26026.5 -03494.9 -07.6480 26260.1
 06 09 2013  10 08  -21.0095 26026.6 -03495.0 -07.6482 26260.2
 06 09 2013  10 09  -21.0106 26026.7 -03495.1 -07.6484 26260.3
 06 09 2013  10 10  -21.0112 26027.0 -03495.2 -07.6486 26260.6
 06 09 2013  10 11  -21.0118 26027.2 -03495.4 -07.6489 26260.8
 06 09 2013  10 12  -21.0125 26027.2 -03495.4 -07.6489 26260.9
 06 09 2013  10 13  -21.0127 26027.3 -03495.4 -07.6488 26261.0
 06 09 2013  10 14  -21.0132 26027.3 -03495.4 -07.6489 26261.0
 06 09 2013  10 15  -21.0140 26027.4 -03495.5 -07.6491 26261.1
 06 09 2013  10 16  -21.0143 26027.5 -03495.5 -07.6491 26261.2
 06 09 2013  10 17  -21.0148 26027.6 -03495.6 -07.6492 26261.3
 06 09 2013  10 18  -21.0152 26027.8 -03495.6 -07.6493 26261.5
 06 09 2013  10 19  -21.0158 26027.8 -03495.7 -07.6493 26261.5
 06 09 2013  10 20  -21.0162 26028.1 -03495.7 -07.6493 26261.8
 06 09 2013  10 21  -21.0164 26028.1 -03495.7 -07.6492 26261.8
 06 09 2013  10 22  -21.0172 26028.3 -03495.7 -07.6493 26262.0
 06 09 2013  10 23  -21.0180 26028.5 -03495.8 -07.6494 26262.2
 06 09 2013  10 24  -21.0191 26028.9 -03496.0 -07.6496 26262.6
 06 09 2013  10 25  -21.0200 26029.2 -03496.0 -07.6497 26262.9
 06 09 2013  10 26  -21.0208 26029.4 -03496.0 -07.6496 26263.1
 06 09 2013  10 27  -21.0214 26029.6 -03496.0 -07.6495 26263.4
 06 09 2013  10 28  -21.0222 26029.8 -03495.9 -07.6494 26263.5
 06 09 2013  10 29  -21.0226 26029.8 -03495.8 -07.6490 26263.5
 06 09 2013  10 30  -21.0234 26030.0 -03495.8 -07.6490 26263.7
 06 09 2013  10 31  -21.0242 26030.2 -03495.8 -07.6488 26263.9
 06 09 2013  10 32  -21.0250 26030.5 -03495.8 -07.6489 26264.2
 06 09 2013  10 33  -21.0261 26030.7 -03495.8 -07.6487 26264.4
 06 09 2013  10 34  -21.0271 26031.0 -03495.7 -07.6486 26264.7
 06 09 2013  10 35  -21.0281 26031.4 -03495.8 -07.6486 26265.0
 06 09 2013  10 36  -21.0292 26031.6 -03495.8 -07.6485 26265.3
 06 09 2013  10 37  -21.0297 26032.0 -03495.8 -07.6483 26265.7
 06 09 2013  10 38  -21.0303 26032.3 -03495.8 -07.6483 26266.0
 06 09 2013  10 39  -21.0311 26032.6 -03495.8 -07.6482 26266.3
 06 09 2013  10 40  -21.0320 26032.8 -03495.7 -07.6480 26266.5
 06 09 2013  10 41  -21.0328 26033.2 -03495.8 -07.6479 26266.9
 06 09 2013  10 42  -21.0337 26033.8 -03495.8 -07.6479 26267.4
 06 09 2013  10 43  -21.0344 26034.2 -03495.7 -07.6476 26267.8
 06 09 2013  10 44  -21.0351 26034.5 -03495.6 -07.6473 26268.1
 06 09 2013  10 45  -21.0356 26035.0 -03495.6 -07.6471 26268.6
 06 09 2013  10 46  -21.0362 26035.2 -03495.4 -07.6467 26268.8
 06 09 2013  10 47  -21.0372 26035.3 -03495.2 -07.6462 26268.9
 06 09 2013  10 48  -21.0375 26035.7 -03495.1 -07.6458 26269.3
 06 09 2013  10 49  -21.0379 26036.0 -03495.0 -07.6455 26269.5
 06 09 2013  10 50  -21.0388 26036.3 -03494.9 -07.6452 26269.8
 06 09 2013  10 51  -21.0393 26036.8 -03494.8 -07.6449 26270.3
 06 09 2013  10 52  -21.0396 26037.2 -03494.7 -07.6446 26270.7
 06 09 2013  10 53  -21.0401 26037.4 -03494.5 -07.6441 26270.8
 06 09 2013  10 54  -21.0406 26037.7 -03494.4 -07.6437 26271.1
 06 09 2013  10 55  -21.0410 26037.9 -03494.2 -07.6432 26271.3
 06 09 2013  10 56  -21.0416 26037.8 -03493.9 -07.6426 26271.2
 06 09 2013  10 57  -21.0422 26038.1 -03493.8 -07.6424 26271.5
 06 09 2013  10 58  -21.0424 26038.3 -03493.7 -07.6419 26271.6
 06 09 2013  10 59  -21.0429 26038.6 -03493.6 -07.6417 26271.9
 06 09 2013  11 00  -21.0431 26038.8 -03493.5 -07.6414 26272.1
 06 09 2013  11 01  -21.0435 26039.1 -03493.4 -07.6411 26272.3
 06 09 2013  11 02  -21.0437 26039.2 -03493.2 -07.6407 26272.5
 06 09 2013  11 03  -21.0439 26039.8 -03493.2 -07.6406 26273.1
 06 09 2013  11 04  -21.0442 26040.4 -03493.2 -07.6404 26273.6
 06 09 2013  11 05  -21.0441 26040.9 -03493.1 -07.6400 26274.2
 06 09 2013  11 06  -21.0442 26041.2 -03492.9 -07.6394 26274.5
 06 09 2013  11 07  -21.0448 26041.7 -03492.8 -07.6391 26274.9
 06 09 2013  11 08  -21.0450 26042.1 -03492.6 -07.6386 26275.3
 06 09 2013  11 09  -21.0450 26042.5 -03492.4 -07.6381 26275.6
 06 09 2013  11 10  -21.0451 26043.0 -03492.4 -07.6378 26276.1
 06 09 2013  11 11  -21.0452 26043.6 -03492.3 -07.6375 26276.7
 06 09 2013  11 12  -21.0457 26044.3 -03492.2 -07.6371 26277.4
 06 09 2013  11 13  -21.0459 26044.8 -03492.0 -07.6366 26277.9
 06 09 2013  11 14  -21.0463 26045.4 -03491.9 -07.6360 26278.4
 06 09 2013  11 15  -21.0470 26046.3 -03491.8 -07.6356 26279.3
 06 09 2013  11 16  -21.0474 26046.7 -03491.4 -07.6347 26279.6
 06 09 2013  11 17  -21.0479 26047.1 -03491.2 -07.6340 26280.0
 06 09 2013  11 18  -21.0482 26047.6 -03490.9 -07.6333 26280.4
 06 09 2013  11 19  -21.0483 26048.1 -03490.7 -07.6327 26280.9
 06 09 2013  11 20  -21.0486 26048.3 -03490.4 -07.6320 26281.1
 06 09 2013  11 21  -21.0489 26048.5 -03490.1 -07.6314 26281.2
 06 09 2013  11 22  -21.0489 26048.8 -03489.9 -07.6309 26281.5
 06 09 2013  11 23  -21.0489 26049.0 -03489.7 -07.6302 26281.7
 06 09 2013  11 24  -21.0485 26049.5 -03489.6 -07.6299 26282.2
 06 09 2013  11 25  -21.0482 26050.1 -03489.5 -07.6295 26282.8
 06 09 2013  11 26  -21.0480 26050.7 -03489.4 -07.6291 26283.3
 06 09 2013  11 27  -21.0479 26051.3 -03489.3 -07.6288 26283.9
 06 09 2013  11 28  -21.0474 26052.0 -03489.2 -07.6284 26284.7
 06 09 2013  11 29  -21.0475 26052.4 -03489.0 -07.6278 26284.9
 06 09 2013  11 30  -21.0476 26053.0 -03488.9 -07.6273 26285.6
 06 09 2013  11 31  -21.0473 26053.7 -03488.7 -07.6268 26286.2
 06 09 2013  11 32  -21.0471 26054.0 -03488.4 -07.6260 26286.5
 06 09 2013  11 33  -21.0467 26054.4 -03488.1 -07.6253 26286.8
 06 09 2013  11 34  -21.0464 26054.4 -03487.7 -07.6244 26286.8
 06 09 2013  11 35  -21.0464 26054.1 -03487.3 -07.6237 26286.5
 06 09 2013  11 36  -21.0463 26054.6 -03487.3 -07.6234 26287.0
 06 09 2013  11 37  -21.0459 26054.4 -03487.0 -07.6228 26286.7
 06 09 2013  11 38  -21.0460 26054.4 -03486.8 -07.6225 26286.7
 06 09 2013  11 39  -21.0463 26054.4 -03486.8 -07.6223 26286.7
 06 09 2013  11 40  -21.0466 26054.9 -03486.9 -07.6224 26287.2
 06 09 2013  11 41  -21.0467 26055.3 -03486.8 -07.6223 26287.5
 06 09 2013  11 42  -21.0468 26055.5 -03486.7 -07.6220 26287.7
 06 09 2013  11 43  -21.0469 26055.8 -03486.7 -07.6218 26288.0
 06 09 2013  11 44  -21.0471 26056.1 -03486.6 -07.6216 26288.3
 06 09 2013  11 45  -21.0473 26056.9 -03486.7 -07.6216 26289.1
 06 09 2013  11 46  -21.0474 26057.2 -03486.6 -07.6211 26289.4
 06 09 2013  11 47  -21.0476 26057.6 -03486.4 -07.6207 26289.8
 06 09 2013  11 48  -21.0479 26057.9 -03486.2 -07.6202 26290.1
 06 09 2013  11 49  -21.0482 26058.0 -03486.0 -07.6196 26290.2
 06 09 2013  11 50  -21.0484 26058.4 -03485.8 -07.6192 26290.5
 06 09 2013  11 51  -21.0485 26058.7 -03485.6 -07.6187 26290.8
 06 09 2013  11 52  -21.0484 26058.9 -03485.4 -07.6182 26291.0
 06 09 2013  11 53  -21.0483 26059.0 -03485.2 -07.6176 26291.1
 06 09 2013  11 54  -21.0485 26059.2 -03485.0 -07.6172 26291.2
 06 09 2013  11 55  -21.0489 26059.4 -03484.8 -07.6167 26291.3
 06 09 2013  11 56  -21.0494 26059.6 -03484.7 -07.6164 26291.6
 06 09 2013  11 57  -21.0498 26060.1 -03484.6 -07.6161 26292.0
 06 09 2013  11 58  -21.0500 26060.6 -03484.6 -07.6158 26292.6
 06 09 2013  11 59  -21.0504 26061.2 -03484.5 -07.6155 26293.1
 06 09 2013  12 00  -21.0506 26061.8 -03484.4 -07.6152 26293.7
 06 09 2013  12 01  -21.0510 26062.4 -03484.3 -07.6148 26294.3
 06 09 2013  12 02  -21.0512 26062.8 -03484.1 -07.6141 26294.6
 06 09 2013  12 03  -21.0513 26063.0 -03483.8 -07.6135 26294.8
 06 09 2013  12 04  -21.0512 26063.4 -03483.6 -07.6129 26295.2
 06 09 2013  12 05  -21.0512 26064.1 -03483.5 -07.6126 26295.9
 06 09 2013  12 06  -21.0511 26064.5 -03483.3 -07.6120 26296.2
 06 09 2013  12 07  -21.0511 26064.7 -03483.1 -07.6114 26296.4
 06 09 2013  12 08  -21.0513 26065.2 -03483.0 -07.6110 26296.9
 06 09 2013  12 09  -21.0517 26065.9 -03482.9 -07.6107 26297.5
 06 09 2013  12 10  -21.0521 26066.3 -03482.7 -07.6102 26297.9
 06 09 2013  12 11  -21.0527 26066.7 -03482.6 -07.6097 26298.3
 06 09 2013  12 12  -21.0532 26066.9 -03482.2 -07.6090 26298.5
 06 09 2013  12 13  -21.0537 26067.2 -03481.9 -07.6083 26298.7
 06 09 2013  12 14  -21.0544 26067.7 -03481.9 -07.6080 26299.2
 06 09 2013  12 15  -21.0549 26068.1 -03481.7 -07.6075 26299.6
 06 09 2013  12 16  -21.0553 26068.3 -03481.4 -07.6068 26299.7
 06 09 2013  12 17  -21.0559 26068.4 -03481.1 -07.6062 26299.8
 06 09 2013  12 18  -21.0565 26068.8 -03481.0 -07.6058 26300.2
 06 09 2013  12 19  -21.0569 26069.1 -03480.8 -07.6051 26300.4
 06 09 2013  12 20  -21.0572 26069.3 -03480.5 -07.6046 26300.6
 06 09 2013  12 21  -21.0576 26069.8 -03480.4 -07.6043 26301.1
 06 09 2013  12 22  -21.0579 26070.2 -03480.2 -07.6038 26301.4
 06 09 2013  12 23  -21.0582 26070.2 -03479.9 -07.6031 26301.4
 06 09 2013  12 24  -21.0586 26070.3 -03479.7 -07.6025 26301.5
 06 09 2013  12 25  -21.0593 26070.7 -03479.6 -07.6023 26301.9
 06 09 2013  12 26  -21.0599 26071.0 -03479.5 -07.6019 26302.2
 06 09 2013  12 27  -21.0601 26071.6 -03479.4 -07.6016 26302.8
 06 09 2013  12 28  -21.0600 26071.8 -03479.2 -07.6009 26302.9
 06 09 2013  12 29  -21.0600 26071.6 -03478.9 -07.6004 26302.7
 06 09 2013  12 30  -21.0605 26071.9 -03478.8 -07.6002 26303.0
 06 09 2013  12 31  -21.0606 26072.7 -03478.9 -07.6001 26303.8
 06 09 2013  12 32  -21.0609 26073.0 -03478.8 -07.5997 26304.0
 06 09 2013  12 33  -21.0615 26073.1 -03478.6 -07.5993 26304.1
 06 09 2013  12 34  -21.0621 26073.3 -03478.5 -07.5990 26304.3
 06 09 2013  12 35  -21.0625 26073.4 -03478.3 -07.5986 26304.4
 06 09 2013  12 36  -21.0630 26073.6 -03478.3 -07.5985 26304.6
 06 09 2013  12 37  -21.0633 26074.4 -03478.4 -07.5986 26305.4
 06 09 2013  12 38  -21.0636 26075.9 -03478.8 -07.5989 26307.0
 06 09 2013  12 39  -21.0644 26077.3 -03478.8 -07.5986 26308.3
 06 09 2013  12 40  -21.0654 26077.0 -03478.2 -07.5973 26307.9
 06 09 2013  12 41  -21.0656 26075.8 -03477.3 -07.5958 26306.6
 06 09 2013  12 42  -21.0650 26076.6 -03477.5 -07.5959 26307.4
 06 09 2013  12 43  -21.0655 26076.6 -03477.3 -07.5955 26307.4
 06 09 2013  12 44  -21.0664 26077.7 -03477.5 -07.5957 26308.6
 06 09 2013  12 45  -21.0667 26079.7 -03478.0 -07.5960 26310.6
 06 09 2013  12 46  -21.0677 26080.7 -03477.9 -07.5956 26311.6
 06 09 2013  12 47  -21.0686 26081.6 -03477.7 -07.5949 26312.4
 06 09 2013  12 48  -21.0694 26082.3 -03477.4 -07.5941 26313.1
 06 09 2013  12 49  -21.0701 26082.8 -03477.1 -07.5933 26313.6
 06 09 2013  12 50  -21.0706 26082.9 -03476.6 -07.5923 26313.6
 06 09 2013  12 51  -21.0713 26082.6 -03476.1 -07.5913 26313.2
 06 09 2013  12 52  -21.0718 26082.5 -03475.8 -07.5906 26313.1
 06 09 2013  12 53  -21.0724 26082.7 -03475.5 -07.5900 26313.2
 06 09 2013  12 54  -21.0731 26082.8 -03475.3 -07.5895 26313.3
 06 09 2013  12 55  -21.0736 26082.9 -03475.2 -07.5891 26313.4
 06 09 2013  12 56  -21.0740 26083.3 -03475.1 -07.5889 26313.8
 06 09 2013  12 57  -21.0747 26083.6 -03475.0 -07.5886 26314.0
 06 09 2013  12 58  -21.0756 26083.8 -03474.9 -07.5883 26314.2
 06 09 2013  12 59  -21.0764 26084.3 -03474.9 -07.5881 26314.8
 06 09 2013  13 00  -21.0772 26085.0 -03474.9 -07.5879 26315.4
 06 09 2013  13 01  -21.0780 26085.5 -03474.8 -07.5876 26315.9
 06 09 2013  13 02  -21.0786 26086.0 -03474.6 -07.5871 26316.4
 06 09 2013  13 03  -21.0793 26086.1 -03474.3 -07.5863 26316.4
 06 09 2013  13 04  -21.0801 26086.8 -03474.3 -07.5860 26317.2
 06 09 2013  13 05  -21.0807 26086.3 -03473.7 -07.5849 26316.5
 06 09 2013  13 06  -21.0813 26086.9 -03473.6 -07.5846 26317.1
 06 09 2013  13 07  -21.0819 26087.5 -03473.5 -07.5841 26317.7
 06 09 2013  13 08  -21.0826 26087.6 -03473.1 -07.5833 26317.8
 06 09 2013  13 09  -21.0834 26087.6 -03472.7 -07.5825 26317.8
 06 09 2013  13 10  -21.0842 26087.9 -03472.5 -07.5819 26318.0
 06 09 2013  13 11  -21.0848 26088.2 -03472.3 -07.5813 26318.2
 06 09 2013  13 12  -21.0853 26088.7 -03472.1 -07.5808 26318.7
 06 09 2013  13 13  -21.0856 26089.0 -03471.9 -07.5802 26319.0
 06 09 2013  13 14  -21.0860 26089.0 -03471.5 -07.5795 26318.9
 06 09 2013  13 15  -21.0864 26089.2 -03471.3 -07.5789 26319.1
 06 09 2013  13 16  -21.0870 26089.6 -03471.1 -07.5785 26319.5
 06 09 2013  13 17  -21.0873 26089.5 -03470.7 -07.5776 26319.4
 06 09 2013  13 18  -21.0876 26089.5 -03470.3 -07.5768 26319.2
 06 09 2013  13 19  -21.0880 26089.8 -03470.2 -07.5764 26319.6
 06 09 2013  13 20  -21.0886 26089.7 -03469.8 -07.5756 26319.4
 06 09 2013  13 21  -21.0889 26089.9 -03469.6 -07.5750 26319.6
 06 09 2013  13 22  -21.0891 26090.2 -03469.4 -07.5746 26319.9
 06 09 2013  13 23  -21.0892 26090.5 -03469.2 -07.5739 26320.2
 06 09 2013  13 24  -21.0893 26091.0 -03469.0 -07.5735 26320.6
 06 09 2013  13 25  -21.0895 26091.5 -03468.9 -07.5730 26321.1
 06 09 2013  13 26  -21.0896 26091.8 -03468.6 -07.5724 26321.4
 06 09 2013  13 27  -21.0897 26092.0 -03468.3 -07.5717 26321.5
 06 09 2013  13 28  -21.0896 26092.0 -03467.9 -07.5709 26321.5
 06 09 2013  13 29  -21.0893 26092.5 -03467.8 -07.5704 26321.9
 06 09 2013  13 30  -21.0891 26092.8 -03467.5 -07.5697 26322.2
 06 09 2013  13 31  -21.0889 26092.9 -03467.1 -07.5689 26322.2
 06 09 2013  13 32  -21.0886 26093.1 -03466.9 -07.5683 26322.4
 06 09 2013  13 33  -21.0884 26093.3 -03466.6 -07.5677 26322.6
 06 09 2013  13 34  -21.0880 26093.4 -03466.3 -07.5670 26322.6
 06 09 2013  13 35  -21.0876 26093.3 -03466.0 -07.5663 26322.5
 06 09 2013  13 36  -21.0873 26093.2 -03465.6 -07.5656 26322.3
 06 09 2013  13 37  -21.0869 26093.0 -03465.3 -07.5650 26322.1
 06 09 2013  13 38  -21.0866 26093.4 -03465.3 -07.5648 26322.5
 06 09 2013  13 39  -21.0863 26093.9 -03465.3 -07.5647 26323.0
 06 09 2013  13 40  -21.0860 26094.4 -03465.3 -07.5644 26323.5
 06 09 2013  13 41  -21.0855 26094.7 -03465.1 -07.5640 26323.8
 06 09 2013  13 42  -21.0851 26094.9 -03464.9 -07.5635 26323.9
 06 09 2013  13 43  -21.0845 26094.5 -03464.6 -07.5629 26323.5
 06 09 2013  13 44  -21.0839 26094.5 -03464.4 -07.5626 26323.4
 06 09 2013  13 45  -21.0835 26094.5 -03464.3 -07.5624 26323.4
 06 09 2013  13 46  -21.0829 26094.5 -03464.3 -07.5623 26323.5
 06 09 2013  13 47  -21.0825 26095.0 -03464.4 -07.5624 26324.0
 06 09 2013  13 48  -21.0823 26095.2 -03464.4 -07.5624 26324.2
 06 09 2013  13 49  -21.0818 26095.2 -03464.3 -07.5621 26324.2
 06 09 2013  13 50  -21.0815 26095.2 -03464.2 -07.5619 26324.2
 06 09 2013  13 51  -21.0810 26095.3 -03464.1 -07.5617 26324.2
 06 09 2013  13 52  -21.0804 26095.3 -03464.1 -07.5616 26324.2
 06 09 2013  13 53  -21.0798 26095.4 -03464.1 -07.5617 26324.3
 06 09 2013  13 54  -21.0794 26095.5 -03464.2 -07.5618 26324.4
 06 09 2013  13 55  -21.0790 26095.8 -03464.3 -07.5619 26324.8
 06 09 2013  13 56  -21.0791 26096.5 -03464.5 -07.5623 26325.5
 06 09 2013  13 57  -21.0786 26096.5 -03464.5 -07.5621 26325.4
 06 09 2013  13 58  -21.0782 26096.6 -03464.5 -07.5621 26325.6
 06 09 2013  13 59  -21.0784 26097.2 -03464.6 -07.5623 26326.2
 06 09 2013  14 00  -21.0786 26098.0 -03464.8 -07.5624 26326.9
 06 09 2013  14 01  -21.0788 26098.4 -03464.8 -07.5623 26327.4
 06 09 2013  14 02  -21.0792 26099.5 -03465.0 -07.5625 26328.5
 06 09 2013  14 03  -21.0792 26099.5 -03464.8 -07.5619 26328.5
 06 09 2013  14 04  -21.0784 26098.4 -03464.1 -07.5608 26327.3
 06 09 2013  14 05  -21.0783 26097.1 -03463.7 -07.5602 26326.0
 06 09 2013  14 06  -21.0782 26096.5 -03463.6 -07.5602 26325.4
 06 09 2013  14 07  -21.0781 26096.8 -03463.9 -07.5609 26325.7
 06 09 2013  14 08  -21.0780 26097.2 -03464.2 -07.5614 26326.2
 06 09 2013  14 09  -21.0781 26098.0 -03464.6 -07.5621 26326.9
 06 09 2013  14 10  -21.0786 26098.4 -03464.9 -07.5624 26327.4
 06 09 2013  14 11  -21.0791 26098.7 -03464.9 -07.5625 26327.7
 06 09 2013  14 12  -21.0796 26098.9 -03464.9 -07.5624 26327.9
 06 09 2013  14 13  -21.0798 26099.0 -03464.8 -07.5621 26328.0
 06 09 2013  14 14  -21.0801 26099.4 -03464.8 -07.5620 26328.4
 06 09 2013  14 15  -21.0806 26099.4 -03464.6 -07.5616 26328.4
 06 09 2013  14 16  -21.0808 26099.4 -03464.5 -07.5613 26328.4
 06 09 2013  14 17  -21.0808 26099.4 -03464.4 -07.5611 26328.4
 06 09 2013  14 18  -21.0807 26099.2 -03464.2 -07.5609 26328.2
 06 09 2013  14 19  -21.0808 26099.3 -03464.3 -07.5609 26328.2
 06 09 2013  14 20  -21.0811 26099.5 -03464.3 -07.5610 26328.4
 06 09 2013  14 21  -21.0814 26099.5 -03464.3 -07.5609 26328.4
 06 09 2013  14 22  -21.0816 26099.6 -03464.3 -07.5608 26328.5
 06 09 2013  14 23  -21.0819 26099.9 -03464.4 -07.5609 26328.8
 06 09 2013  14 24  -21.0817 26099.9 -03464.3 -07.5607 26328.8
 06 09 2013  14 25  -21.0817 26099.9 -03464.2 -07.5606 26328.8
 06 09 2013  14 26  -21.0817 26100.1 -03464.2 -07.5606 26329.0
 06 09 2013  14 27  -21.0815 26099.9 -03464.1 -07.5604 26328.8
 06 09 2013  14 28  -21.0818 26100.2 -03464.2 -07.5605 26329.1
 06 09 2013  14 29  -21.0821 26100.3 -03464.2 -07.5605 26329.2
 06 09 2013  14 30  -21.0822 26100.6 -03464.3 -07.5605 26329.5
 06 09 2013  14 31  -21.0823 26100.6 -03464.2 -07.5603 26329.5
 06 09 2013  14 32  -21.0824 26100.6 -03464.1 -07.5601 26329.5
 06 09 2013  14 33  -21.0826 26100.7 -03464.0 -07.5598 26329.5
 06 09 2013  14 34  -21.0828 26100.7 -03463.9 -07.5596 26329.5
 06 09 2013  14 35  -21.0828 26100.5 -03463.7 -07.5593 26329.3
 06 09 2013  14 36  -21.0826 26100.4 -03463.5 -07.5590 26329.2
 06 09 2013  14 37  -21.0826 26100.5 -03463.5 -07.5589 26329.3
 06 09 2013  14 38  -21.0828 26100.9 -03463.5 -07.5588 26329.7
 06 09 2013  14 39  -21.0831 26101.1 -03463.5 -07.5586 26329.9
 06 09 2013  14 40  -21.0830 26101.0 -03463.2 -07.5581 26329.7
 06 09 2013  14 41  -21.0827 26100.7 -03462.9 -07.5576 26329.5
 06 09 2013  14 42  -21.0827 26100.9 -03462.9 -07.5574 26329.6
 06 09 2013  14 43  -21.0826 26101.0 -03462.8 -07.5572 26329.7
 06 09 2013  14 44  -21.0825 26101.0 -03462.6 -07.5569 26329.7
 06 09 2013  14 45  -21.0824 26100.8 -03462.4 -07.5565 26329.4
 06 09 2013  14 46  -21.0820 26100.4 -03462.3 -07.5563 26329.1
 06 09 2013  14 47  -21.0813 26100.0 -03462.1 -07.5559 26328.6
 06 09 2013  14 48  -21.0809 26099.7 -03462.0 -07.5558 26328.3
 06 09 2013  14 49  -21.0803 26099.4 -03461.9 -07.5557 26328.0
 06 09 2013  14 50  -21.0799 26099.1 -03461.8 -07.5556 26327.7
 06 09 2013  14 51  -21.0798 26098.8 -03461.8 -07.5557 26327.4
 06 09 2013  14 52  -21.0795 26098.4 -03461.7 -07.5556 26326.9
 06 09 2013  14 53  -21.0792 26098.1 -03461.7 -07.5557 26326.7
 06 09 2013  14 54  -21.0791 26098.0 -03461.8 -07.5559 26326.5
 06 09 2013  14 55  -21.0789 26097.7 -03461.8 -07.5560 26326.3
 06 09 2013  14 56  -21.0785 26097.6 -03462.0 -07.5564 26326.3
 06 09 2013  14 57  -21.0784 26098.0 -03462.3 -07.5570 26326.6
 06 09 2013  14 58  -21.0785 26098.3 -03462.5 -07.5574 26326.9
 06 09 2013  14 59  -21.0786 26098.5 -03462.7 -07.5577 26327.2
 06 09 2013  15 00  -21.0787 26098.7 -03462.8 -07.5579 26327.4
 06 09 2013  15 01  -21.0788 26098.8 -03462.8 -07.5578 26327.5
 06 09 2013  15 02  -21.0786 26098.7 -03462.6 -07.5575 26327.4
 06 09 2013  15 03  -21.0782 26098.3 -03462.4 -07.5572 26327.0
 06 09 2013  15 04  -21.0779 26098.0 -03462.3 -07.5570 26326.7
 06 09 2013  15 05  -21.0776 26097.8 -03462.2 -07.5569 26326.5
 06 09 2013  15 06  -21.0773 26097.6 -03462.2 -07.5569 26326.3
 06 09 2013  15 07  -21.0772 26097.5 -03462.3 -07.5571 26326.2
 06 09 2013  15 08  -21.0772 26097.7 -03462.4 -07.5573 26326.3
 06 09 2013  15 09  -21.0772 26097.8 -03462.4 -07.5573 26326.5
 06 09 2013  15 10  -21.0769 26097.8 -03462.4 -07.5572 26326.5
 06 09 2013  15 11  -21.0764 26097.4 -03462.2 -07.5569 26326.1
 06 09 2013  15 12  -21.0762 26097.2 -03462.1 -07.5568 26325.9
 06 09 2013  15 13  -21.0761 26097.3 -03462.1 -07.5569 26325.9
 06 09 2013  15 14  -21.0757 26097.3 -03462.1 -07.5569 26325.9
 06 09 2013  15 15  -21.0757 26097.3 -03462.2 -07.5569 26325.9
 06 09 2013  15 16  -21.0757 26097.5 -03462.4 -07.5573 26326.2
 06 09 2013  15 17  -21.0757 26097.9 -03462.5 -07.5575 26326.6
 06 09 2013  15 18  -21.0755 26098.0 -03462.5 -07.5574 26326.7
 06 09 2013  15 19  -21.0752 26097.9 -03462.4 -07.5572 26326.5
 06 09 2013  15 20  -21.0752 26097.7 -03462.3 -07.5571 26326.4
 06 09 2013  15 21  -21.0755 26097.7 -03462.3 -07.5571 26326.3
 06 09 2013  15 22  -21.0757 26097.6 -03462.2 -07.5569 26326.2
 06 09 2013  15 23  -21.0752 26097.3 -03462.0 -07.5566 26325.9
 06 09 2013  15 24  -21.0749 26096.9 -03461.9 -07.5564 26325.5
 06 09 2013  15 25  -21.0747 26096.9 -03461.8 -07.5563 26325.5
 06 09 2013  15 26  -21.0743 26096.4 -03461.6 -07.5561 26325.0
 06 09 2013  15 27  -21.0739 26095.9 -03461.5 -07.5559 26324.5
 06 09 2013  15 28  -21.0737 26095.7 -03461.4 -07.5558 26324.2
 06 09 2013  15 29  -21.0738 26095.6 -03461.5 -07.5559 26324.2
 06 09 2013  15 30  -21.0735 26095.1 -03461.3 -07.5557 26323.7
 06 09 2013  15 31  -21.0729 26094.8 -03461.2 -07.5556 26323.4
 06 09 2013  15 32  -21.0725 26094.6 -03461.2 -07.5556 26323.2
 06 09 2013  15 33  -21.0724 26094.4 -03461.2 -07.5556 26322.9
 06 09 2013  15 34  -21.0724 26094.2 -03461.2 -07.5556 26322.7
 06 09 2013  15 35  -21.0723 26093.8 -03461.0 -07.5555 26322.3
 06 09 2013  15 36  -21.0723 26093.6 -03461.0 -07.5554 26322.1
 06 09 2013  15 37  -21.0724 26093.4 -03460.9 -07.5553 26322.0
 06 09 2013  15 38  -21.0725 26093.5 -03460.9 -07.5553 26322.0
 06 09 2013  15 39  -21.0722 26093.0 -03460.6 -07.5549 26321.5
 06 09 2013  15 40  -21.0716 26092.4 -03460.3 -07.5543 26320.9
 06 09 2013  15 41  -21.0714 26092.0 -03460.1 -07.5540 26320.4
 06 09 2013  15 42  -21.0714 26091.7 -03460.0 -07.5539 26320.1
 06 09 2013  15 43  -21.0712 26091.2 -03459.8 -07.5536 26319.5
 06 09 2013  15 44  -21.0711 26090.9 -03459.7 -07.5534 26319.3
 06 09 2013  15 45  -21.0704 26090.5 -03459.5 -07.5532 26318.9
 06 09 2013  15 46  -21.0703 26090.5 -03459.5 -07.5531 26318.8
 06 09 2013  15 47  -21.0700 26090.2 -03459.4 -07.5529 26318.6
 06 09 2013  15 48  -21.0696 26089.7 -03459.1 -07.5525 26318.0
 06 09 2013  15 49  -21.0686 26089.2 -03458.9 -07.5522 26317.5
 06 09 2013  15 50  -21.0682 26089.0 -03458.9 -07.5522 26317.3
 06 09 2013  15 51  -21.0681 26088.9 -03458.8 -07.5520 26317.1
 06 09 2013  15 52  -21.0674 26088.4 -03458.5 -07.5516 26316.6
 06 09 2013  15 53  -21.0667 26087.8 -03458.3 -07.5513 26316.0
 06 09 2013  15 54  -21.0656 26087.0 -03458.1 -07.5511 26315.2
 06 09 2013  15 55  -21.0649 26086.5 -03458.1 -07.5512 26314.7
 06 09 2013  15 56  -21.0641 26086.1 -03458.1 -07.5513 26314.3
 06 09 2013  15 57  -21.0637 26086.0 -03458.2 -07.5516 26314.2
 06 09 2013  15 58  -21.0631 26085.7 -03458.3 -07.5518 26314.0
 06 09 2013  15 59  -21.0622 26085.3 -03458.3 -07.5520 26313.5
 06 09 2013  16 00  -21.0615 26084.7 -03458.2 -07.5519 26312.9
 06 09 2013  16 01  -21.0609 26084.3 -03458.2 -07.5521 26312.5
 06 09 2013  16 02  -21.0606 26083.7 -03458.2 -07.5522 26311.9
 06 09 2013  16 03  -21.0601 26083.0 -03458.0 -07.5521 26311.3
 06 09 2013  16 04  -21.0599 26082.9 -03458.2 -07.5524 26311.2
 06 09 2013  16 05  -21.0597 26082.2 -03458.0 -07.5523 26310.4
 06 09 2013  16 06  -21.0591 26081.3 -03457.9 -07.5523 26309.5
 06 09 2013  16 07  -21.0584 26080.5 -03457.9 -07.5524 26308.7
 06 09 2013  16 08  -21.0579 26080.0 -03458.0 -07.5529 26308.2
 06 09 2013  16 09  -21.0580 26079.7 -03458.3 -07.5535 26308.0
 06 09 2013  16 10  -21.0577 26079.2 -03458.3 -07.5538 26307.5
 06 09 2013  16 11  -21.0580 26078.9 -03458.5 -07.5542 26307.2
 06 09 2013  16 12  -21.0585 26078.9 -03458.7 -07.5548 26307.2
 06 09 2013  16 13  -21.0590 26078.6 -03458.9 -07.5552 26307.0
 06 09 2013  16 14  -21.0594 26078.4 -03459.0 -07.5555 26306.8
 06 09 2013  16 15  -21.0604 26078.7 -03459.3 -07.5561 26307.1
 06 09 2013  16 16  -21.0606 26078.2 -03459.1 -07.5558 26306.6
 06 09 2013  16 17  -21.0605 26077.7 -03458.9 -07.5555 26306.1
 06 09 2013  16 18  -21.0607 26077.4 -03459.0 -07.5557 26305.8
 06 09 2013  16 19  -21.0610 26077.4 -03459.1 -07.5560 26305.9
 06 09 2013  16 20  -21.0613 26077.2 -03459.0 -07.5559 26305.6
 06 09 2013  16 21  -21.0609 26076.6 -03458.8 -07.5557 26305.0
 06 09 2013  16 22  -21.0602 26075.8 -03458.6 -07.5554 26304.2
 06 09 2013  16 23  -21.0594 26075.1 -03458.4 -07.5553 26303.4
 06 09 2013  16 24  -21.0594 26074.1 -03458.3 -07.5553 26302.5
 06 09 2013  16 25  -21.0589 26073.9 -03458.5 -07.5557 26302.3
 06 09 2013  16 26  -21.0590 26073.7 -03458.7 -07.5561 26302.1
 06 09 2013  16 27  -21.0589 26073.5 -03458.8 -07.5565 26301.9
 06 09 2013  16 28  -21.0588 26073.3 -03458.8 -07.5566 26301.7
 06 09 2013  16 29  -21.0585 26072.7 -03458.7 -07.5564 26301.1
 06 09 2013  16 30  -21.0580 26072.3 -03458.6 -07.5564 26300.7
 06 09 2013  16 31  -21.0576 26071.9 -03458.6 -07.5566 26300.3
 06 09 2013  16 32  -21.0569 26071.2 -03458.6 -07.5566 26299.6
 06 09 2013  16 33  -21.0564 26070.5 -03458.5 -07.5568 26298.9
 06 09 2013  16 34  -21.0561 26069.8 -03458.6 -07.5570 26298.2
 06 09 2013  16 35  -21.0560 26069.2 -03458.6 -07.5573 26297.6
 06 09 2013  16 36  -21.0556 26068.7 -03458.6 -07.5575 26297.1
 06 09 2013  16 37  -21.0551 26068.3 -03458.7 -07.5577 26296.7
 06 09 2013  16 38  -21.0544 26067.9 -03458.7 -07.5579 26296.4
 06 09 2013  16 39  -21.0536 26067.7 -03458.8 -07.5582 26296.2
 06 09 2013  16 40  -21.0532 26067.5 -03458.9 -07.5585 26295.9
 06 09 2013  16 41  -21.0525 26067.1 -03459.0 -07.5587 26295.5
 06 09 2013  16 42  -21.0516 26066.4 -03458.9 -07.5587 26294.9
 06 09 2013  16 43  -21.0509 26065.9 -03458.9 -07.5589 26294.4
 06 09 2013  16 44  -21.0501 26065.4 -03459.0 -07.5591 26293.9
 06 09 2013  16 45  -21.0496 26065.2 -03459.1 -07.5596 26293.8
 06 09 2013  16 46  -21.0498 26065.4 -03459.5 -07.5603 26294.0
 06 09 2013  16 47  -21.0496 26065.5 -03459.7 -07.5608 26294.1
 06 09 2013  16 48  -21.0490 26065.2 -03459.7 -07.5609 26293.8
 06 09 2013  16 49  -21.0485 26065.1 -03459.9 -07.5613 26293.7
 06 09 2013  16 50  -21.0477 26064.7 -03459.9 -07.5614 26293.3
 06 09 2013  16 51  -21.0473 26064.7 -03460.1 -07.5618 26293.4
 06 09 2013  16 52  -21.0467 26064.4 -03460.2 -07.5620 26293.0
 06 09 2013  16 53  -21.0466 26063.8 -03460.2 -07.5622 26292.5
 06 09 2013  16 54  -21.0460 26063.4 -03460.2 -07.5625 26292.1
 06 09 2013  16 55  -21.0453 26063.1 -03460.4 -07.5629 26291.8
 06 09 2013  16 56  -21.0450 26062.8 -03460.5 -07.5633 26291.6
 06 09 2013  16 57  -21.0445 26062.5 -03460.6 -07.5635 26291.3
 06 09 2013  16 58  -21.0442 26062.3 -03460.8 -07.5641 26291.1
 06 09 2013  16 59  -21.0438 26062.0 -03460.9 -07.5644 26290.8
 06 09 2013  17 00  -21.0432 26061.4 -03461.0 -07.5646 26290.2
 06 09 2013  17 01  -21.0427 26061.0 -03461.1 -07.5650 26289.8
 06 09 2013  17 02  -21.0424 26060.7 -03461.3 -07.5656 26289.5
 06 09 2013  17 03  -21.0422 26060.3 -03461.5 -07.5661 26289.1
 06 09 2013  17 04  -21.0418 26059.9 -03461.7 -07.5666 26288.8
 06 09 2013  17 05  -21.0414 26059.4 -03461.8 -07.5669 26288.3
 06 09 2013  17 06  -21.0412 26059.1 -03462.0 -07.5675 26288.0
 06 09 2013  17 07  -21.0410 26058.7 -03462.1 -07.5679 26287.7
 06 09 2013  17 08  -21.0407 26058.4 -03462.3 -07.5685 26287.4
 06 09 2013  17 09  -21.0405 26058.0 -03462.5 -07.5689 26287.0
 06 09 2013  17 10  -21.0403 26057.7 -03462.7 -07.5694 26286.7
 06 09 2013  17 11  -21.0402 26057.5 -03462.9 -07.5700 26286.6
 06 09 2013  17 12  -21.0402 26057.1 -03463.0 -07.5703 26286.2
 06 09 2013  17 13  -21.0398 26056.8 -03463.1 -07.5706 26286.0
 06 09 2013  17 14  -21.0397 26056.9 -03463.4 -07.5711 26286.1
 06 09 2013  17 15  -21.0396 26056.5 -03463.4 -07.5714 26285.7
 06 09 2013  17 16  -21.0395 26056.0 -03463.4 -07.5715 26285.2
 06 09 2013  17 17  -21.0391 26055.7 -03463.5 -07.5718 26284.9
 06 09 2013  17 18  -21.0393 26055.7 -03463.8 -07.5724 26284.9
 06 09 2013  17 19  -21.0393 26055.6 -03464.0 -07.5728 26284.8
 06 09 2013  17 20  -21.0389 26054.9 -03463.9 -07.5729 26284.2
 06 09 2013  17 21  -21.0386 26054.5 -03464.0 -07.5731 26283.8
 06 09 2013  17 22  -21.0385 26054.4 -03464.1 -07.5735 26283.7
 06 09 2013  17 23  -21.0384 26054.0 -03464.2 -07.5737 26283.3
 06 09 2013  17 24  -21.0380 26053.6 -03464.2 -07.5739 26282.9
 06 09 2013  17 25  -21.0380 26053.3 -03464.3 -07.5741 26282.6
 06 09 2013  17 26  -21.0377 26052.9 -03464.3 -07.5743 26282.2
 06 09 2013  17 27  -21.0373 26052.4 -03464.3 -07.5743 26281.7
 06 09 2013  17 28  -21.0373 26052.2 -03464.4 -07.5747 26281.6
 06 09 2013  17 29  -21.0372 26052.0 -03464.6 -07.5751 26281.4
 06 09 2013  17 30  -21.0367 26051.5 -03464.5 -07.5751 26280.8
 06 09 2013  17 31  -21.0363 26051.0 -03464.5 -07.5752 26280.4
 06 09 2013  17 32  -21.0360 26050.5 -03464.5 -07.5754 26279.9
 06 09 2013  17 33  -21.0352 26049.8 -03464.4 -07.5754 26279.1
 06 09 2013  17 34  -21.0343 26049.1 -03464.3 -07.5754 26278.4
 06 09 2013  17 35  -21.0335 26048.5 -03464.3 -07.5757 26277.8
 06 09 2013  17 36  -21.0331 26048.2 -03464.5 -07.5761 26277.6
 06 09 2013  17 37  -21.0325 26047.8 -03464.6 -07.5764 26277.2
 06 09 2013  17 38  -21.0319 26047.7 -03464.8 -07.5768 26277.1
 06 09 2013  17 39  -21.0313 26047.5 -03464.8 -07.5770 26276.9
 06 09 2013  17 40  -21.0303 26046.8 -03464.8 -07.5770 26276.3
 06 09 2013  17 41  -21.0290 26046.0 -03464.7 -07.5771 26275.4
 06 09 2013  17 42  -21.0280 26045.3 -03464.7 -07.5773 26274.7
 06 09 2013  17 43  -21.0277 26044.9 -03464.9 -07.5778 26274.4
 06 09 2013  17 44  -21.0273 26044.6 -03465.1 -07.5784 26274.1
 06 09 2013  17 45  -21.0265 26044.0 -03465.1 -07.5787 26273.5
 06 09 2013  17 46  -21.0257 26043.3 -03465.2 -07.5789 26272.8
 06 09 2013  17 47  -21.0248 26042.8 -03465.3 -07.5794 26272.3
 06 09 2013  17 48  -21.0241 26042.3 -03465.4 -07.5798 26271.9
 06 09 2013  17 49  -21.0233 26041.9 -03465.6 -07.5802 26271.4
 06 09 2013  17 50  -21.0228 26041.4 -03465.7 -07.5807 26271.1
 06 09 2013  17 51  -21.0223 26041.0 -03465.9 -07.5811 26270.7
 06 09 2013  17 52  -21.0215 26040.5 -03466.0 -07.5815 26270.2
 06 09 2013  17 53  -21.0209 26040.1 -03466.1 -07.5819 26269.8
 06 09 2013  17 54  -21.0208 26039.8 -03466.3 -07.5823 26269.5
 06 09 2013  17 55  -21.0202 26039.0 -03466.3 -07.5825 26268.7
 06 09 2013  17 56  -21.0198 26038.6 -03466.5 -07.5831 26268.3
 06 09 2013  17 57  -21.0195 26038.3 -03466.7 -07.5836 26268.0
 06 09 2013  17 58  -21.0190 26037.7 -03466.7 -07.5839 26267.5
 06 09 2013  17 59  -21.0185 26037.2 -03466.9 -07.5844 26267.0
 06 09 2013  18 00  -21.0177 26036.8 -03467.0 -07.5848 26266.6
 06 09 2013  18 01  -21.0172 26036.3 -03467.2 -07.5852 26266.1
 06 09 2013  18 02  -21.0165 26035.7 -03467.3 -07.5857 26265.6
 06 09 2013  18 03  -21.0164 26035.4 -03467.5 -07.5863 26265.3
 06 09 2013  18 04  -21.0164 26035.1 -03467.7 -07.5868 26265.1
 06 09 2013  18 05  -21.0164 26034.8 -03467.9 -07.5872 26264.7
 06 09 2013  18 06  -21.0161 26034.3 -03468.0 -07.5876 26264.3
 06 09 2013  18 07  -21.0158 26033.8 -03468.1 -07.5880 26263.8
 06 09 2013  18 08  -21.0153 26033.4 -03468.2 -07.5884 26263.4
 06 09 2013  18 09  -21.0149 26033.1 -03468.4 -07.5889 26263.1
 06 09 2013  18 10  -21.0150 26033.1 -03468.8 -07.5897 26263.1
 06 09 2013  18 11  -21.0149 26032.9 -03469.0 -07.5902 26263.0
 06 09 2013  18 12  -21.0149 26032.7 -03469.2 -07.5907 26262.9
 06 09 2013  18 13  -21.0149 26032.2 -03469.3 -07.5910 26262.4
 06 09 2013  18 14  -21.0147 26031.7 -03469.3 -07.5912 26261.9
 06 09 2013  18 15  -21.0150 26031.6 -03469.6 -07.5918 26261.8
 06 09 2013  18 16  -21.0148 26031.1 -03469.6 -07.5921 26261.4
 06 09 2013  18 17  -21.0144 26030.7 -03469.7 -07.5923 26260.9
 06 09 2013  18 18  -21.0144 26030.3 -03469.8 -07.5927 26260.6
 06 09 2013  18 19  -21.0141 26030.0 -03470.0 -07.5932 26260.2
 06 09 2013  18 20  -21.0140 26029.6 -03470.2 -07.5936 26259.9
 06 09 2013  18 21  -21.0144 26029.5 -03470.4 -07.5942 26259.8
 06 09 2013  18 22  -21.0148 26029.2 -03470.6 -07.5947 26259.5
 06 09 2013  18 23  -21.0147 26028.9 -03470.7 -07.5950 26259.3
 06 09 2013  18 24  -21.0146 26028.5 -03470.8 -07.5955 26258.9
 06 09 2013  18 25  -21.0146 26028.1 -03471.0 -07.5959 26258.6
 06 09 2013  18 26  -21.0148 26027.8 -03471.2 -07.5963 26258.2
 06 09 2013  18 27  -21.0150 26027.5 -03471.4 -07.5969 26258.0
 06 09 2013  18 28  -21.0150 26027.3 -03471.6 -07.5974 26257.8
 06 09 2013  18 29  -21.0151 26026.9 -03471.8 -07.5979 26257.4
 06 09 2013  18 30  -21.0151 26026.5 -03472.0 -07.5984 26257.1
 06 09 2013  18 31  -21.0153 26026.2 -03472.2 -07.5990 26256.8
 06 09 2013  18 32  -21.0152 26025.8 -03472.3 -07.5994 26256.4
 06 09 2013  18 33  -21.0154 26025.4 -03472.5 -07.5999 26256.0
 06 09 2013  18 34  -21.0157 26025.2 -03472.8 -07.6006 26255.9
 06 09 2013  18 35  -21.0157 26024.9 -03472.9 -07.6010 26255.6
 06 09 2013  18 36  -21.0159 26024.6 -03473.1 -07.6015 26255.3
 06 09 2013  18 37  -21.0159 26024.3 -03473.3 -07.6019 26255.1
 06 09 2013  18 38  -21.0159 26024.1 -03473.4 -07.6023 26254.9
 06 09 2013  18 39  -21.0160 26023.7 -03473.6 -07.6028 26254.5
 06 09 2013  18 40  -21.0158 26023.4 -03473.7 -07.6032 26254.2
 06 09 2013  18 41  -21.0161 26023.2 -03473.9 -07.6037 26254.1
 06 09 2013  18 42  -21.0165 26023.0 -03474.1 -07.6040 26253.9
 06 09 2013  18 43  -21.0167 26022.7 -03474.1 -07.6043 26253.6
 06 09 2013  18 44  -21.0167 26022.2 -03474.2 -07.6044 26253.1
 06 09 2013  18 45  -21.0169 26021.9 -03474.3 -07.6048 26252.8
 06 09 2013  18 46  -21.0171 26021.7 -03474.4 -07.6052 26252.6
 06 09 2013  18 47  -21.0174 26021.4 -03474.6 -07.6055 26252.4
 06 09 2013  18 48  -21.0174 26021.2 -03474.7 -07.6059 26252.2
 06 09 2013  18 49  -21.0175 26020.9 -03474.8 -07.6062 26251.9
 06 09 2013  18 50  -21.0176 26020.7 -03475.0 -07.6067 26251.7
 06 09 2013  18 51  -21.0178 26020.5 -03475.2 -07.6071 26251.6
 06 09 2013  18 52  -21.0181 26020.5 -03475.4 -07.6076 26251.6
 06 09 2013  18 53  -21.0185 26020.4 -03475.5 -07.6079 26251.4
 06 09 2013  18 54  -21.0189 26020.3 -03475.7 -07.6084 26251.4
 06 09 2013  18 55  -21.0191 26020.2 -03476.0 -07.6090 26251.4
 06 09 2013  18 56  -21.0193 26020.0 -03476.2 -07.6094 26251.2
 06 09 2013  18 57  -21.0195 26019.9 -03476.3 -07.6098 26251.1
 06 09 2013  18 58  -21.0197 26019.7 -03476.5 -07.6101 26250.9
 06 09 2013  18 59  -21.0201 26019.5 -03476.6 -07.6104 26250.8
 06 09 2013  19 00  -21.0201 26019.3 -03476.6 -07.6106 26250.5
 06 09 2013  19 01  -21.0199 26018.9 -03476.7 -07.6108 26250.2
 06 09 2013  19 02  -21.0198 26018.5 -03476.7 -07.6111 26249.8
 06 09 2013  19 03  -21.0198 26018.4 -03476.9 -07.6116 26249.7
 06 09 2013  19 04  -21.0203 26018.6 -03477.3 -07.6123 26249.9
 06 09 2013  19 05  -21.0205 26018.7 -03477.5 -07.6128 26250.1
 06 09 2013  19 06  -21.0206 26018.5 -03477.6 -07.6130 26249.9
 06 09 2013  19 07  -21.0208 26018.3 -03477.7 -07.6132 26249.7
 06 09 2013  19 08  -21.0210 26018.0 -03477.7 -07.6134 26249.4
 06 09 2013  19 09  -21.0211 26017.8 -03477.8 -07.6137 26249.2
 06 09 2013  19 10  -21.0215 26017.9 -03478.1 -07.6142 26249.3
 06 09 2013  19 11  -21.0218 26018.1 -03478.3 -07.6146 26249.5
 06 09 2013  19 12  -21.0222 26018.2 -03478.5 -07.6150 26249.7
 06 09 2013  19 13  -21.0223 26018.1 -03478.6 -07.6152 26249.6
 06 09 2013  19 14  -21.0225 26017.9 -03478.6 -07.6153 26249.4
 06 09 2013  19 15  -21.0227 26017.5 -03478.7 -07.6155 26249.1
 06 09 2013  19 16  -21.0230 26017.3 -03478.7 -07.6156 26248.8
 06 09 2013  19 17  -21.0235 26017.2 -03478.8 -07.6158 26248.7
 06 09 2013  19 18  -21.0238 26017.0 -03478.9 -07.6161 26248.6
 06 09 2013  19 19  -21.0240 26016.7 -03478.9 -07.6163 26248.3
 06 09 2013  19 20  -21.0240 26016.4 -03478.9 -07.6165 26247.9
 06 09 2013  19 21  -21.0244 26016.0 -03479.0 -07.6166 26247.6
 06 09 2013  19 22  -21.0244 26015.8 -03479.0 -07.6168 26247.3
 06 09 2013  19 23  -21.0247 26015.7 -03479.1 -07.6171 26247.3
 06 09 2013  19 24  -21.0248 26015.5 -03479.2 -07.6173 26247.1
 06 09 2013  19 25  -21.0252 26015.5 -03479.4 -07.6176 26247.2
 06 09 2013  19 26  -21.0255 26015.6 -03479.5 -07.6178 26247.2
 06 09 2013  19 27  -21.0259 26015.5 -03479.5 -07.6179 26247.2
 06 09 2013  19 28  -21.0262 26015.5 -03479.6 -07.6181 26247.2
 06 09 2013  19 29  -21.0265 26015.6 -03479.6 -07.6182 26247.2
 06 09 2013  19 30  -21.0270 26015.4 -03479.7 -07.6183 26247.1
 06 09 2013  19 31  -21.0273 26015.2 -03479.6 -07.6182 26246.9
 06 09 2013  19 32  -21.0275 26014.9 -03479.6 -07.6183 26246.6
 06 09 2013  19 33  -21.0280 26015.0 -03479.7 -07.6185 26246.7
 06 09 2013  19 34  -21.0285 26015.2 -03479.8 -07.6187 26246.9
 06 09 2013  19 35  -21.0289 26015.0 -03479.8 -07.6186 26246.7
 06 09 2013  19 36  -21.0292 26015.2 -03479.8 -07.6188 26246.9
 06 09 2013  19 37  -21.0295 26015.1 -03479.8 -07.6187 26246.8
 06 09 2013  19 38  -21.0297 26015.1 -03479.8 -07.6187 26246.8
 06 09 2013  19 39  -21.0300 26015.3 -03479.9 -07.6188 26247.0
 06 09 2013  19 40  -21.0306 26015.6 -03480.1 -07.6192 26247.3
 06 09 2013  19 41  -21.0309 26015.7 -03480.1 -07.6191 26247.5
 06 09 2013  19 42  -21.0315 26016.0 -03480.1 -07.6191 26247.7
 06 09 2013  19 43  -21.0321 26016.1 -03480.1 -07.6190 26247.8
 06 09 2013  19 44  -21.0323 26015.7 -03479.8 -07.6185 26247.3
 06 09 2013  19 45  -21.0324 26015.3 -03479.6 -07.6181 26247.0
 06 09 2013  19 46  -21.0328 26015.3 -03479.5 -07.6180 26247.0
 06 09 2013  19 47  -21.0332 26015.2 -03479.4 -07.6178 26246.8
 06 09 2013  19 48  -21.0332 26014.9 -03479.2 -07.6174 26246.5
 06 09 2013  19 49  -21.0336 26014.9 -03479.2 -07.6174 26246.5
 06 09 2013  19 50  -21.0339 26015.0 -03479.2 -07.6174 26246.6
 06 09 2013  19 51  -21.0344 26015.0 -03479.2 -07.6175 26246.6
 06 09 2013  19 52  -21.0348 26015.0 -03479.2 -07.6174 26246.6
 06 09 2013  19 53  -21.0352 26015.0 -03479.2 -07.6174 26246.6
 06 09 2013  19 54  -21.0355 26015.1 -03479.2 -07.6174 26246.7
 06 09 2013  19 55  -21.0359 26015.2 -03479.2 -07.6174 26246.8
 06 09 2013  19 56  -21.0362 26015.3 -03479.2 -07.6174 26246.9
 06 09 2013  19 57  -21.0363 26015.2 -03479.2 -07.6173 26246.8
 06 09 2013  19 58  -21.0364 26015.0 -03479.0 -07.6171 26246.6
 06 09 2013  19 59  -21.0367 26015.0 -03479.0 -07.6171 26246.6
 06 09 2013  20 00  -21.0367 26014.9 -03479.0 -07.6170 26246.5
 06 09 2013  20 01  -21.0368 26014.8 -03478.9 -07.6169 26246.3
 06 09 2013  20 02  -21.0367 26014.5 -03478.8 -07.6167 26246.1
 06 09 2013  20 03  -21.0366 26014.4 -03478.8 -07.6166 26246.0
 06 09 2013  20 04  -21.0365 26014.8 -03479.0 -07.6170 26246.4
 06 09 2013  20 05  -21.0368 26015.2 -03479.2 -07.6174 26246.9
 06 09 2013  20 06  -21.0369 26015.5 -03479.4 -07.6176 26247.2
 06 09 2013  20 07  -21.0374 26015.7 -03479.4 -07.6176 26247.3
 06 09 2013  20 08  -21.0375 26016.5 -03479.5 -07.6177 26248.1
 06 09 2013  20 09  -21.0379 26017.3 -03479.9 -07.6182 26249.0
 06 09 2013  20 10  -21.0376 26017.8 -03480.0 -07.6182 26249.5
 06 09 2013  20 11  -21.0379 26018.5 -03480.2 -07.6185 26250.2
 06 09 2013  20 12  -21.0377 26018.9 -03480.2 -07.6184 26250.6
 06 09 2013  20 13  -21.0366 26019.6 -03480.2 -07.6183 26251.3
 06 09 2013  20 14  -21.0358 26020.2 -03480.5 -07.6187 26252.0
 06 09 2013  20 15  -21.0354 26020.8 -03480.6 -07.6188 26252.6
 06 09 2013  20 16  -21.0346 26021.5 -03480.8 -07.6190 26253.3
 06 09 2013  20 17  -21.0340 26021.4 -03480.7 -07.6188 26253.2
 06 09 2013  20 18  -21.0328 26021.1 -03480.4 -07.6182 26252.8
 06 09 2013  20 19  -21.0322 26021.3 -03480.4 -07.6181 26253.0
 06 09 2013  20 20  -21.0319 26021.4 -03480.4 -07.6181 26253.2
 06 09 2013  20 21  -21.0319 26021.4 -03480.4 -07.6181 26253.1
 06 09 2013  20 22  -21.0320 26021.2 -03480.3 -07.6180 26252.9
 06 09 2013  20 23  -21.0317 26021.1 -03480.2 -07.6179 26252.8
 06 09 2013  20 24  -21.0315 26020.7 -03480.1 -07.6177 26252.4
 06 09 2013  20 25  -21.0312 26020.5 -03480.0 -07.6175 26252.2
 06 09 2013  20 26  -21.0308 26020.6 -03480.0 -07.6175 26252.3
 06 09 2013  20 27  -21.0307 26020.9 -03480.2 -07.6179 26252.6
 06 09 2013  20 28  -21.0305 26020.9 -03480.2 -07.6178 26252.6
 06 09 2013  20 29  -21.0306 26021.1 -03480.2 -07.6179 26252.8
 06 09 2013  20 30  -21.0308 26021.3 -03480.3 -07.6180 26253.0
 06 09 2013  20 31  -21.0307 26021.5 -03480.3 -07.6180 26253.3
 06 09 2013  20 32  -21.0303 26021.5 -03480.3 -07.6179 26253.2
 06 09 2013  20 33  -21.0297 26021.2 -03480.1 -07.6176 26252.9
 06 09 2013  20 34  -21.0295 26021.2 -03480.1 -07.6176 26252.9
 06 09 2013  20 35  -21.0296 26021.2 -03480.1 -07.6176 26252.9
 06 09 2013  20 36  -21.0294 26021.2 -03480.0 -07.6174 26252.8
 06 09 2013  20 37  -21.0291 26020.9 -03480.0 -07.6173 26252.6
 06 09 2013  20 38  -21.0288 26020.6 -03479.8 -07.6172 26252.3
 06 09 2013  20 39  -21.0285 26020.4 -03479.7 -07.6170 26252.0
 06 09 2013  20 40  -21.0281 26020.2 -03479.6 -07.6169 26251.8
 06 09 2013  20 41  -21.0277 26020.0 -03479.6 -07.6169 26251.7
 06 09 2013  20 42  -21.0275 26020.0 -03479.6 -07.6169 26251.6
 06 09 2013  20 43  -21.0273 26019.9 -03479.6 -07.6169 26251.5
 06 09 2013  20 44  -21.0271 26019.8 -03479.6 -07.6169 26251.4
 06 09 2013  20 45  -21.0271 26019.7 -03479.6 -07.6168 26251.3
 06 09 2013  20 46  -21.0269 26019.6 -03479.5 -07.6168 26251.2
 06 09 2013  20 47  -21.0269 26019.4 -03479.4 -07.6166 26251.0
 06 09 2013  20 48  -21.0268 26019.0 -03479.2 -07.6163 26250.6
 06 09 2013  20 49  -21.0269 26018.6 -03479.0 -07.6160 26250.2
 06 09 2013  20 50  -21.0267 26018.4 -03478.9 -07.6158 26249.9
 06 09 2013  20 51  -21.0263 26018.0 -03478.8 -07.6156 26249.6
 06 09 2013  20 52  -21.0260 26017.8 -03478.6 -07.6154 26249.3
 06 09 2013  20 53  -21.0259 26017.5 -03478.6 -07.6153 26249.0
 06 09 2013  20 54  -21.0258 26017.4 -03478.5 -07.6152 26248.9
 06 09 2013  20 55  -21.0256 26017.2 -03478.4 -07.6151 26248.7
 06 09 2013  20 56  -21.0257 26016.9 -03478.4 -07.6151 26248.4
 06 09 2013  20 57  -21.0255 26016.7 -03478.3 -07.6150 26248.2
 06 09 2013  20 58  -21.0252 26016.3 -03478.2 -07.6148 26247.8
 06 09 2013  20 59  -21.0247 26016.0 -03478.1 -07.6146 26247.5
 06 09 2013  21 00  -21.0244 26015.7 -03477.9 -07.6145 26247.1
 06 09 2013  21 01  -21.0241 26015.4 -03477.9 -07.6144 26246.9
 06 09 2013  21 02  -21.0238 26015.2 -03477.8 -07.6144 26246.7
 06 09 2013  21 03  -21.0236 26015.0 -03477.8 -07.6143 26246.4
 06 09 2013  21 04  -21.0234 26014.8 -03477.7 -07.6143 26246.2
 06 09 2013  21 05  -21.0233 26014.7 -03477.7 -07.6144 26246.1
 06 09 2013  21 06  -21.0231 26014.4 -03477.7 -07.6143 26245.9
 06 09 2013  21 07  -21.0230 26014.3 -03477.7 -07.6144 26245.7
 06 09 2013  21 08  -21.0229 26014.1 -03477.7 -07.6145 26245.6
 06 09 2013  21 09  -21.0230 26014.1 -03477.8 -07.6146 26245.5
 06 09 2013  21 10  -21.0229 26014.1 -03477.8 -07.6147 26245.5
 06 09 2013  21 11  -21.0227 26014.0 -03477.9 -07.6149 26245.4
 06 09 2013  21 12  -21.0225 26014.0 -03478.0 -07.6150 26245.4
 06 09 2013  21 13  -21.0222 26013.9 -03478.0 -07.6152 26245.4
 06 09 2013  21 14  -21.0220 26014.0 -03478.1 -07.6154 26245.5
 06 09 2013  21 15  -21.0216 26014.1 -03478.2 -07.6156 26245.6
 06 09 2013  21 16  -21.0214 26014.2 -03478.3 -07.6158 26245.7
 06 09 2013  21 17  -21.0213 26014.2 -03478.5 -07.6160 26245.8
 06 09 2013  21 18  -21.0211 26014.2 -03478.5 -07.6162 26245.8
 06 09 2013  21 19  -21.0210 26014.3 -03478.7 -07.6165 26245.9
 06 09 2013  21 20  -21.0209 26014.4 -03478.8 -07.6168 26246.0
 06 09 2013  21 21  -21.0210 26014.6 -03479.0 -07.6171 26246.2
 06 09 2013  21 22  -21.0210 26014.8 -03479.2 -07.6174 26246.5
 06 09 2013  21 23  -21.0210 26015.0 -03479.4 -07.6178 26246.6
 06 09 2013  21 24  -21.0211 26015.2 -03479.5 -07.6180 26246.9
 06 09 2013  21 25  -21.0213 26015.4 -03479.6 -07.6183 26247.0
 06 09 2013  21 26  -21.0216 26015.6 -03479.8 -07.6186 26247.3
 06 09 2013  21 27  -21.0218 26015.7 -03479.9 -07.6188 26247.4
 06 09 2013  21 28  -21.0220 26015.8 -03480.0 -07.6189 26247.5
 06 09 2013  21 29  -21.0223 26015.8 -03480.0 -07.6190 26247.5
 06 09 2013  21 30  -21.0224 26015.8 -03480.0 -07.6190 26247.5
 06 09 2013  21 31  -21.0228 26015.8 -03480.0 -07.6190 26247.6
 06 09 2013  21 32  -21.0230 26016.0 -03480.1 -07.6192 26247.7
 06 09 2013  21 33  -21.0233 26016.2 -03480.3 -07.6194 26247.9
 06 09 2013  21 34  -21.0237 26016.4 -03480.4 -07.6196 26248.1
 06 09 2013  21 35  -21.0241 26016.5 -03480.5 -07.6197 26248.3
 06 09 2013  21 36  -21.0245 26016.6 -03480.5 -07.6198 26248.4
 06 09 2013  21 37  -21.0248 26016.6 -03480.5 -07.6198 26248.4
 06 09 2013  21 38  -21.0250 26016.6 -03480.4 -07.6196 26248.4
 06 09 2013  21 39  -21.0251 26016.7 -03480.5 -07.6197 26248.5
 06 09 2013  21 40  -21.0253 26016.7 -03480.5 -07.6198 26248.5
 06 09 2013  21 41  -21.0255 26016.7 -03480.5 -07.6198 26248.4
 06 09 2013  21 42  -21.0258 26016.6 -03480.5 -07.6197 26248.4
 06 09 2013  21 43  -21.0261 26016.7 -03480.5 -07.6197 26248.4
 06 09 2013  21 44  -21.0263 26016.7 -03480.4 -07.6196 26248.5
 06 09 2013  21 45  -21.0266 26016.8 -03480.5 -07.6198 26248.6
 06 09 2013  21 46  -21.0269 26017.0 -03480.6 -07.6199 26248.8
 06 09 2013  21 47  -21.0270 26017.1 -03480.7 -07.6200 26248.9
 06 09 2013  21 48  -21.0271 26017.4 -03480.8 -07.6201 26249.2
 06 09 2013  21 49  -21.0273 26017.6 -03480.9 -07.6203 26249.4
 06 09 2013  21 50  -21.0275 26017.9 -03481.0 -07.6204 26249.7
 06 09 2013  21 51  -21.0278 26018.1 -03481.1 -07.6206 26250.0
 06 09 2013  21 52  -21.0280 26018.4 -03481.2 -07.6207 26250.3
 06 09 2013  21 53  -21.0281 26018.8 -03481.3 -07.6209 26250.7
 06 09 2013  21 54  -21.0284 26019.1 -03481.4 -07.6211 26251.0
 06 09 2013  21 55  -21.0287 26019.3 -03481.5 -07.6212 26251.2
 06 09 2013  21 56  -21.0290 26019.3 -03481.5 -07.6211 26251.2
 06 09 2013  21 57  -21.0293 26019.3 -03481.4 -07.6209 26251.1
 06 09 2013  21 58  -21.0293 26019.3 -03481.3 -07.6208 26251.1
 06 09 2013  21 59  -21.0294 26019.2 -03481.2 -07.6206 26251.1
 06 09 2013  22 00  -21.0293 26019.2 -03481.2 -07.6205 26251.0
 06 09 2013  22 01  -21.0292 26019.0 -03481.0 -07.6203 26250.8
 06 09 2013  22 02  -21.0293 26018.7 -03480.9 -07.6200 26250.5
 06 09 2013  22 03  -21.0292 26018.6 -03480.8 -07.6198 26250.4
 06 09 2013  22 04  -21.0291 26018.5 -03480.7 -07.6197 26250.3
 06 09 2013  22 05  -21.0291 26018.3 -03480.6 -07.6196 26250.0
 06 09 2013  22 06  -21.0292 26018.1 -03480.6 -07.6195 26249.8
 06 09 2013  22 07  -21.0292 26017.8 -03480.5 -07.6194 26249.6
 06 09 2013  22 08  -21.0291 26017.7 -03480.4 -07.6193 26249.5
 06 09 2013  22 09  -21.0292 26017.5 -03480.4 -07.6192 26249.2
 06 09 2013  22 10  -21.0292 26017.3 -03480.3 -07.6191 26249.1
 06 09 2013  22 11  -21.0293 26017.2 -03480.3 -07.6191 26248.9
 06 09 2013  22 12  -21.0293 26017.1 -03480.3 -07.6192 26248.9
 06 09 2013  22 13  -21.0293 26017.0 -03480.2 -07.6191 26248.7
 06 09 2013  22 14  -21.0293 26017.1 -03480.3 -07.6192 26248.8
 06 09 2013  22 15  -21.0294 26017.2 -03480.4 -07.6194 26249.0
 06 09 2013  22 16  -21.0295 26017.2 -03480.5 -07.6195 26249.0
 06 09 2013  22 17  -21.0296 26017.1 -03480.5 -07.6195 26248.9
 06 09 2013  22 18  -21.0298 26017.1 -03480.5 -07.6195 26248.9
 06 09 2013  22 19  -21.0298 26017.1 -03480.5 -07.6195 26248.9
 06 09 2013  22 20  -21.0300 26016.9 -03480.4 -07.6195 26248.7
 06 09 2013  22 21  -21.0302 26016.8 -03480.4 -07.6194 26248.5
 06 09 2013  22 22  -21.0304 26016.8 -03480.4 -07.6195 26248.5
 06 09 2013  22 23  -21.0305 26016.8 -03480.4 -07.6195 26248.6
 06 09 2013  22 24  -21.0304 26016.9 -03480.4 -07.6195 26248.6
 06 09 2013  22 25  -21.0304 26016.9 -03480.4 -07.6196 26248.6
 06 09 2013  22 26  -21.0304 26016.9 -03480.4 -07.6195 26248.7
 06 09 2013  22 27  -21.0306 26016.9 -03480.4 -07.6196 26248.6
 06 09 2013  22 28  -21.0307 26016.9 -03480.4 -07.6196 26248.7
 06 09 2013  22 29  -21.0308 26017.0 -03480.5 -07.6196 26248.8
 06 09 2013  22 30  -21.0309 26017.0 -03480.5 -07.6197 26248.8
 06 09 2013  22 31  -21.0310 26016.9 -03480.5 -07.6197 26248.7
 06 09 2013  22 32  -21.0310 26017.0 -03480.5 -07.6197 26248.7
 06 09 2013  22 33  -21.0308 26017.0 -03480.5 -07.6196 26248.8
 06 09 2013  22 34  -21.0309 26016.9 -03480.5 -07.6196 26248.7
 06 09 2013  22 35  -21.0310 26016.9 -03480.5 -07.6196 26248.7
 06 09 2013  22 36  -21.0311 26016.8 -03480.4 -07.6195 26248.5
 06 09 2013  22 37  -21.0313 26016.7 -03480.4 -07.6195 26248.5
 06 09 2013  22 38  -21.0312 26016.7 -03480.3 -07.6194 26248.5
 06 09 2013  22 39  -21.0313 26016.7 -03480.4 -07.6194 26248.5
 06 09 2013  22 40  -21.0312 26016.8 -03480.4 -07.6195 26248.6
 06 09 2013  22 41  -21.0311 26016.9 -03480.5 -07.6196 26248.7
 06 09 2013  22 42  -21.0311 26016.9 -03480.5 -07.6196 26248.7
 06 09 2013  22 43  -21.0310 26016.8 -03480.4 -07.6196 26248.6
 06 09 2013  22 44  -21.0308 26016.8 -03480.4 -07.6195 26248.5
 06 09 2013  22 45  -21.0309 26016.8 -03480.4 -07.6195 26248.5
 06 09 2013  22 46  -21.0309 26016.8 -03480.5 -07.6196 26248.6
 06 09 2013  22 47  -21.0309 26016.9 -03480.5 -07.6196 26248.7
 06 09 2013  22 48  -21.0309 26017.1 -03480.6 -07.6198 26248.9
 06 09 2013  22 49  -21.0311 26017.1 -03480.6 -07.6199 26248.9
 06 09 2013  22 50  -21.0312 26017.1 -03480.6 -07.6199 26248.9
 06 09 2013  22 51  -21.0313 26017.1 -03480.6 -07.6198 26248.8
 06 09 2013  22 52  -21.0315 26017.2 -03480.6 -07.6199 26249.0
 06 09 2013  22 53  -21.0318 26017.2 -03480.7 -07.6200 26249.0
 06 09 2013  22 54  -21.0321 26017.2 -03480.7 -07.6200 26249.0
 06 09 2013  22 55  -21.0325 26017.2 -03480.7 -07.6200 26249.0
 06 09 2013  22 56  -21.0328 26017.3 -03480.7 -07.6200 26249.1
 06 09 2013  22 57  -21.0329 26017.2 -03480.6 -07.6199 26249.0
 06 09 2013  22 58  -21.0332 26017.2 -03480.6 -07.6197 26249.0
 06 09 2013  22 59  -21.0334 26017.2 -03480.5 -07.6197 26248.9
 06 09 2013  23 00  -21.0334 26017.1 -03480.5 -07.6196 26248.9
 06 09 2013  23 01  -21.0336 26017.1 -03480.5 -07.6196 26248.8
 06 09 2013  23 02  -21.0338 26017.0 -03480.4 -07.6195 26248.7
 06 09 2013  23 03  -21.0339 26016.9 -03480.4 -07.6195 26248.6
 06 09 2013  23 04  -21.0340 26016.8 -03480.4 -07.6194 26248.6
 06 09 2013  23 05  -21.0339 26016.8 -03480.3 -07.6194 26248.6
 06 09 2013  23 06  -21.0338 26016.8 -03480.3 -07.6194 26248.6
 06 09 2013  23 07  -21.0338 26016.8 -03480.3 -07.6194 26248.6
 06 09 2013  23 08  -21.0337 26016.8 -03480.4 -07.6194 26248.5
 06 09 2013  23 09  -21.0336 26016.8 -03480.4 -07.6194 26248.5
 06 09 2013  23 10  -21.0333 26016.7 -03480.3 -07.6193 26248.4
 06 09 2013  23 11  -21.0330 26016.6 -03480.3 -07.6194 26248.4
 06 09 2013  23 12  -21.0325 26016.6 -03480.3 -07.6193 26248.3
 06 09 2013  23 13  -21.0323 26016.6 -03480.3 -07.6193 26248.4
 06 09 2013  23 14  -21.0318 26016.7 -03480.3 -07.6193 26248.5
 06 09 2013  23 15  -21.0316 26016.8 -03480.4 -07.6195 26248.5
 06 09 2013  23 16  -21.0315 26016.8 -03480.5 -07.6197 26248.5
 06 09 2013  23 17  -21.0313 26016.8 -03480.5 -07.6197 26248.5
 06 09 2013  23 18  -21.0311 26016.9 -03480.5 -07.6198 26248.6
 06 09 2013  23 19  -21.0310 26017.0 -03480.6 -07.6199 26248.8
 06 09 2013  23 20  -21.0311 26017.2 -03480.7 -07.6201 26249.0
 06 09 2013  23 21  -21.0310 26017.2 -03480.8 -07.6203 26249.0
 06 09 2013  23 22  -21.0311 26017.3 -03480.9 -07.6204 26249.1
 06 09 2013  23 23  -21.0310 26017.4 -03480.9 -07.6204 26249.2
 06 09 2013  23 24  -21.0309 26017.3 -03480.9 -07.6204 26249.2
 06 09 2013  23 25  -21.0307 26017.2 -03480.8 -07.6203 26249.0
 06 09 2013  23 26  -21.0305 26017.0 -03480.7 -07.6201 26248.8
 06 09 2013  23 27  -21.0305 26016.9 -03480.7 -07.6201 26248.7
 06 09 2013  23 28  -21.0304 26016.9 -03480.7 -07.6200 26248.7
 06 09 2013  23 29  -21.0303 26016.9 -03480.7 -07.6201 26248.7
 06 09 2013  23 30  -21.0303 26016.9 -03480.7 -07.6202 26248.7
 06 09 2013  23 31  -21.0300 26017.0 -03480.8 -07.6202 26248.8
 06 09 2013  23 32  -21.0299 26017.0 -03480.8 -07.6203 26248.8
 06 09 2013  23 33  -21.0297 26017.2 -03480.9 -07.6205 26249.0
 06 09 2013  23 34  -21.0296 26017.2 -03480.9 -07.6205 26249.0
 06 09 2013  23 35  -21.0293 26017.2 -03480.9 -07.6206 26249.0
 06 09 2013  23 36  -21.0291 26017.2 -03480.9 -07.6206 26249.0
 06 09 2013  23 37  -21.0288 26017.2 -03481.0 -07.6206 26249.0
 06 09 2013  23 38  -21.0285 26017.2 -03481.0 -07.6206 26249.0
 06 09 2013  23 39  -21.0283 26017.2 -03481.0 -07.6207 26249.0
 06 09 2013  23 40  -21.0282 26017.2 -03481.0 -07.6206 26249.1
 06 09 2013  23 41  -21.0280 26017.3 -03481.0 -07.6208 26249.1
 06 09 2013  23 42  -21.0279 26017.3 -03481.1 -07.6209 26249.2
 06 09 2013  23 43  -21.0278 26017.4 -03481.2 -07.6211 26249.3
 06 09 2013  23 44  -21.0278 26017.5 -03481.3 -07.6212 26249.4
 06 09 2013  23 45  -21.0277 26017.6 -03481.3 -07.6212 26249.5
 06 09 2013  23 46  -21.0277 26017.6 -03481.4 -07.6214 26249.5
 06 09 2013  23 47  -21.0276 26017.8 -03481.4 -07.6214 26249.7
 06 09 2013  23 48  -21.0275 26017.9 -03481.5 -07.6215 26249.8
 06 09 2013  23 49  -21.0276 26018.0 -03481.6 -07.6217 26249.9
 06 09 2013  23 50  -21.0276 26018.1 -03481.6 -07.6217 26250.0
 06 09 2013  23 51  -21.0275 26018.1 -03481.6 -07.6217 26250.1
 06 09 2013  23 52  -21.0275 26018.2 -03481.6 -07.6217 26250.1
 06 09 2013  23 53  -21.0274 26018.3 -03481.6 -07.6218 26250.2
 06 09 2013  23 54  -21.0273 26018.4 -03481.7 -07.6218 26250.3
 06 09 2013  23 55  -21.0273 26018.5 -03481.8 -07.6219 26250.5
 06 09 2013  23 56  -21.0273 26018.6 -03481.8 -07.6220 26250.6
 06 09 2013  23 57  -21.0274 26018.7 -03481.8 -07.6220 26250.6
