SAO LUIS EMBRACE-03 <068> 1 Min. Reported data

 DD MM YYYY  HH MM   D(Deg)  H(nT)   Z(nT)   I(Deg)   F(nT)

 09 03 2013  00 00  -21.0363 26044.6 -03415.1 -07.4702 26267.5
 09 03 2013  00 01  -21.0364 26043.2 -03414.4 -07.4692 26266.1
 09 03 2013  00 02  -21.0367 26043.3 -03414.5 -07.4692 26266.2
 09 03 2013  00 03  -21.0369 26043.0 -03414.4 -07.4693 26265.9
 09 03 2013  00 04  -21.0370 26043.0 -03414.5 -07.4693 26265.8
 09 03 2013  00 05  -21.0373 26042.9 -03414.5 -07.4695 26265.8
 09 03 2013  00 06  -21.0375 26042.4 -03414.3 -07.4692 26265.2
 09 03 2013  00 07  -21.0374 26042.8 -03414.5 -07.4695 26265.7
 09 03 2013  00 08  -21.0373 26042.3 -03414.4 -07.4695 26265.2
 09 03 2013  00 09  -21.0373 26042.3 -03414.4 -07.4694 26265.2
 09 03 2013  00 10  -21.0372 26042.5 -03414.6 -07.4698 26265.4
 09 03 2013  00 11  -21.0373 26042.0 -03414.4 -07.4696 26264.9
 09 03 2013  00 12  -21.0372 26042.1 -03414.5 -07.4697 26265.0
 09 03 2013  00 13  -21.0370 26041.8 -03414.4 -07.4696 26264.6
 09 03 2013  00 14  -21.0371 26042.1 -03414.6 -07.4698 26265.0
 09 03 2013  00 15  -21.0371 26042.4 -03414.8 -07.4703 26265.3
 09 03 2013  00 16  -21.0372 26042.0 -03414.7 -07.4702 26264.9
 09 03 2013  00 17  -21.0373 26042.2 -03414.8 -07.4704 26265.2
 09 03 2013  00 18  -21.0374 26042.4 -03415.0 -07.4707 26265.4
 09 03 2013  00 19  -21.0375 26042.4 -03415.0 -07.4707 26265.3
 09 03 2013  00 20  -21.0379 26042.2 -03415.0 -07.4707 26265.1
 09 03 2013  00 21  -21.0381 26041.9 -03414.8 -07.4704 26264.9
 09 03 2013  00 22  -21.0383 26042.3 -03415.1 -07.4708 26265.2
 09 03 2013  00 23  -21.0383 26041.3 -03414.6 -07.4701 26264.2
 09 03 2013  00 24  -21.0381 26041.7 -03414.7 -07.4703 26264.7
 09 03 2013  00 25  -21.0379 26041.3 -03414.6 -07.4702 26264.2
 09 03 2013  00 26  -21.0380 26041.5 -03414.7 -07.4702 26264.4
 09 03 2013  00 27  -21.0381 26041.8 -03414.9 -07.4707 26264.7
 09 03 2013  00 28  -21.0379 26041.4 -03414.8 -07.4704 26264.3
 09 03 2013  00 29  -21.0377 26041.6 -03414.9 -07.4707 26264.6
 09 03 2013  00 30  -21.0377 26041.7 -03415.0 -07.4709 26264.7
 09 03 2013  00 31  -21.0381 26042.0 -03415.2 -07.4712 26265.0
 09 03 2013  00 32  -21.0385 26041.8 -03415.2 -07.4713 26264.8
 09 03 2013  00 33  -21.0387 26041.3 -03414.9 -07.4708 26264.2
 09 03 2013  00 34  -21.0388 26041.7 -03415.1 -07.4711 26264.7
 09 03 2013  00 35  -21.0388 26041.2 -03415.0 -07.4709 26264.2
 09 03 2013  00 36  -21.0389 26040.8 -03414.7 -07.4705 26263.7
 09 03 2013  00 37  -21.0391 26040.4 -03414.6 -07.4704 26263.4
 09 03 2013  00 38  -21.0393 26040.3 -03414.5 -07.4702 26263.2
 09 03 2013  00 39  -21.0392 26040.2 -03414.5 -07.4702 26263.1
 09 03 2013  00 40  -21.0388 26039.4 -03414.2 -07.4697 26262.2
 09 03 2013  00 41  -21.0387 26039.7 -03414.3 -07.4700 26262.6
 09 03 2013  00 42  -21.0389 26038.9 -03414.1 -07.4697 26261.8
 09 03 2013  00 43  -21.0386 26039.6 -03414.4 -07.4701 26262.5
 09 03 2013  00 44  -21.0379 26039.2 -03414.4 -07.4702 26262.1
 09 03 2013  00 45  -21.0377 26039.2 -03414.3 -07.4701 26262.1
 09 03 2013  00 46  -21.0375 26039.6 -03414.6 -07.4707 26262.6
 09 03 2013  00 47  -21.0373 26039.2 -03414.5 -07.4705 26262.1
 09 03 2013  00 48  -21.0369 26039.4 -03414.7 -07.4708 26262.3
 09 03 2013  00 49  -21.0367 26038.8 -03414.5 -07.4705 26261.7
 09 03 2013  00 50  -21.0368 26039.0 -03414.6 -07.4708 26262.0
 09 03 2013  00 51  -21.0367 26038.5 -03414.4 -07.4706 26261.4
 09 03 2013  00 52  -21.0369 26038.6 -03414.5 -07.4707 26261.5
 09 03 2013  00 53  -21.0370 26038.5 -03414.5 -07.4708 26261.5
 09 03 2013  00 54  -21.0375 26038.6 -03414.7 -07.4711 26261.6
 09 03 2013  00 55  -21.0377 26038.2 -03414.5 -07.4708 26261.1
 09 03 2013  00 56  -21.0378 26037.8 -03414.4 -07.4706 26260.8
 09 03 2013  00 57  -21.0378 26037.6 -03414.3 -07.4705 26260.5
 09 03 2013  00 58  -21.0378 26037.5 -03414.3 -07.4705 26260.4
 09 03 2013  00 59  -21.0382 26037.5 -03414.3 -07.4706 26260.4
 09 03 2013  01 00  -21.0384 26037.2 -03414.3 -07.4706 26260.1
 09 03 2013  01 01  -21.0383 26037.2 -03414.3 -07.4706 26260.1
 09 03 2013  01 02  -21.0381 26037.2 -03414.3 -07.4707 26260.1
 09 03 2013  01 03  -21.0380 26037.2 -03414.4 -07.4709 26260.2
 09 03 2013  01 04  -21.0377 26037.3 -03414.5 -07.4710 26260.2
 09 03 2013  01 05  -21.0376 26037.4 -03414.6 -07.4712 26260.3
 09 03 2013  01 06  -21.0375 26037.3 -03414.6 -07.4712 26260.2
 09 03 2013  01 07  -21.0373 26037.2 -03414.6 -07.4713 26260.1
 09 03 2013  01 08  -21.0372 26037.1 -03414.7 -07.4714 26260.1
 09 03 2013  01 09  -21.0371 26037.0 -03414.7 -07.4715 26259.9
 09 03 2013  01 10  -21.0369 26037.0 -03414.7 -07.4715 26259.9
 09 03 2013  01 11  -21.0369 26037.0 -03414.8 -07.4717 26259.9
 09 03 2013  01 12  -21.0369 26036.9 -03414.8 -07.4717 26259.8
 09 03 2013  01 13  -21.0368 26037.1 -03414.9 -07.4720 26260.1
 09 03 2013  01 14  -21.0362 26038.2 -03415.5 -07.4730 26261.3
 09 03 2013  01 15  -21.0363 26037.3 -03415.2 -07.4725 26260.3
 09 03 2013  01 16  -21.0362 26037.5 -03415.2 -07.4725 26260.5
 09 03 2013  01 17  -21.0359 26037.4 -03415.3 -07.4728 26260.4
 09 03 2013  01 18  -21.0357 26037.3 -03415.2 -07.4726 26260.3
 09 03 2013  01 19  -21.0355 26037.3 -03415.3 -07.4728 26260.3
 09 03 2013  01 20  -21.0355 26037.3 -03415.4 -07.4729 26260.4
 09 03 2013  01 21  -21.0352 26037.0 -03415.3 -07.4728 26260.0
 09 03 2013  01 22  -21.0349 26037.1 -03415.3 -07.4729 26260.1
 09 03 2013  01 23  -21.0344 26037.7 -03415.7 -07.4735 26260.8
 09 03 2013  01 24  -21.0336 26038.6 -03416.1 -07.4741 26261.7
 09 03 2013  01 25  -21.0333 26039.0 -03416.5 -07.4750 26262.1
 09 03 2013  01 26  -21.0332 26039.4 -03416.7 -07.4752 26262.6
 09 03 2013  01 27  -21.0326 26039.9 -03417.0 -07.4757 26263.1
 09 03 2013  01 28  -21.0322 26040.0 -03417.1 -07.4758 26263.2
 09 03 2013  01 29  -21.0319 26040.2 -03417.2 -07.4760 26263.4
 09 03 2013  01 30  -21.0320 26040.4 -03417.3 -07.4762 26263.6
 09 03 2013  01 31  -21.0322 26040.4 -03417.3 -07.4763 26263.7
 09 03 2013  01 32  -21.0323 26040.1 -03417.2 -07.4761 26263.4
 09 03 2013  01 33  -21.0324 26040.0 -03417.2 -07.4761 26263.3
 09 03 2013  01 34  -21.0326 26039.5 -03416.9 -07.4757 26262.7
 09 03 2013  01 35  -21.0325 26039.6 -03417.0 -07.4759 26262.9
 09 03 2013  01 36  -21.0326 26039.7 -03417.0 -07.4758 26263.0
 09 03 2013  01 37  -21.0327 26040.3 -03417.4 -07.4764 26263.6
 09 03 2013  01 38  -21.0330 26039.9 -03417.2 -07.4762 26263.2
 09 03 2013  01 39  -21.0327 26040.4 -03417.4 -07.4765 26263.7
 09 03 2013  01 40  -21.0330 26040.0 -03417.3 -07.4764 26263.3
 09 03 2013  01 41  -21.0331 26040.2 -03417.4 -07.4765 26263.5
 09 03 2013  01 42  -21.0330 26040.1 -03417.4 -07.4765 26263.4
 09 03 2013  01 43  -21.0330 26040.0 -03417.3 -07.4764 26263.3
 09 03 2013  01 44  -21.0330 26040.0 -03417.3 -07.4764 26263.2
 09 03 2013  01 45  -21.0330 26039.9 -03417.3 -07.4764 26263.2
 09 03 2013  01 46  -21.0329 26039.7 -03417.3 -07.4763 26263.0
 09 03 2013  01 47  -21.0327 26039.7 -03417.2 -07.4763 26263.0
 09 03 2013  01 48  -21.0327 26039.6 -03417.2 -07.4762 26262.8
 09 03 2013  01 49  -21.0326 26039.4 -03417.2 -07.4763 26262.7
 09 03 2013  01 50  -21.0326 26039.1 -03417.1 -07.4762 26262.4
 09 03 2013  01 51  -21.0324 26039.0 -03417.1 -07.4762 26262.2
 09 03 2013  01 52  -21.0324 26038.8 -03417.0 -07.4761 26262.1
 09 03 2013  01 53  -21.0327 26038.9 -03417.1 -07.4763 26262.2
 09 03 2013  01 54  -21.0330 26038.8 -03417.2 -07.4764 26262.0
 09 03 2013  01 55  -21.0334 26039.0 -03417.3 -07.4766 26262.2
 09 03 2013  01 56  -21.0337 26038.8 -03417.3 -07.4766 26262.1
 09 03 2013  01 57  -21.0337 26038.9 -03417.3 -07.4767 26262.2
 09 03 2013  01 58  -21.0338 26038.7 -03417.3 -07.4767 26262.0
 09 03 2013  01 59  -21.0338 26038.7 -03417.3 -07.4768 26262.0
 09 03 2013  02 00  -21.0338 26038.6 -03417.3 -07.4768 26261.9
 09 03 2013  02 01  -21.0340 26038.6 -03417.3 -07.4768 26261.9
 09 03 2013  02 02  -21.0341 26038.4 -03417.2 -07.4767 26261.6
 09 03 2013  02 03  -21.0341 26038.6 -03417.4 -07.4769 26261.9
 09 03 2013  02 04  -21.0342 26038.7 -03417.5 -07.4771 26262.0
 09 03 2013  02 05  -21.0342 26039.0 -03417.6 -07.4774 26262.3
 09 03 2013  02 06  -21.0343 26039.1 -03417.8 -07.4776 26262.5
 09 03 2013  02 07  -21.0344 26039.4 -03417.9 -07.4778 26262.7
 09 03 2013  02 08  -21.0343 26039.5 -03418.0 -07.4780 26262.9
 09 03 2013  02 09  -21.0342 26039.6 -03418.1 -07.4781 26263.0
 09 03 2013  02 10  -21.0339 26039.7 -03418.1 -07.4782 26263.1
 09 03 2013  02 11  -21.0337 26039.6 -03418.1 -07.4782 26263.0
 09 03 2013  02 12  -21.0336 26039.7 -03418.1 -07.4783 26263.1
 09 03 2013  02 13  -21.0335 26039.5 -03418.1 -07.4782 26262.9
 09 03 2013  02 14  -21.0335 26039.2 -03418.0 -07.4780 26262.6
 09 03 2013  02 15  -21.0336 26039.0 -03417.9 -07.4779 26262.4
 09 03 2013  02 16  -21.0340 26038.8 -03417.8 -07.4778 26262.2
 09 03 2013  02 17  -21.0343 26038.6 -03417.7 -07.4777 26262.0
 09 03 2013  02 18  -21.0347 26038.3 -03417.6 -07.4775 26261.6
 09 03 2013  02 19  -21.0351 26038.1 -03417.5 -07.4774 26261.4
 09 03 2013  02 20  -21.0354 26037.7 -03417.4 -07.4772 26261.0
 09 03 2013  02 21  -21.0356 26037.4 -03417.3 -07.4770 26260.7
 09 03 2013  02 22  -21.0358 26037.1 -03417.1 -07.4768 26260.4
 09 03 2013  02 23  -21.0360 26036.9 -03417.1 -07.4768 26260.1
 09 03 2013  02 24  -21.0363 26036.6 -03417.0 -07.4767 26259.9
 09 03 2013  02 25  -21.0366 26036.5 -03417.0 -07.4767 26259.7
 09 03 2013  02 26  -21.0370 26036.2 -03416.9 -07.4766 26259.5
 09 03 2013  02 27  -21.0375 26036.1 -03416.9 -07.4767 26259.4
 09 03 2013  02 28  -21.0380 26035.9 -03416.9 -07.4766 26259.2
 09 03 2013  02 29  -21.0383 26035.7 -03416.9 -07.4766 26259.0
 09 03 2013  02 30  -21.0388 26035.5 -03416.8 -07.4766 26258.8
 09 03 2013  02 31  -21.0391 26035.3 -03416.8 -07.4765 26258.6
 09 03 2013  02 32  -21.0395 26035.2 -03416.8 -07.4765 26258.5
 09 03 2013  02 33  -21.0399 26035.1 -03416.8 -07.4766 26258.4
 09 03 2013  02 34  -21.0405 26035.1 -03416.8 -07.4767 26258.3
 09 03 2013  02 35  -21.0410 26035.0 -03416.9 -07.4768 26258.3
 09 03 2013  02 36  -21.0414 26035.0 -03416.9 -07.4768 26258.2
 09 03 2013  02 37  -21.0417 26034.9 -03416.9 -07.4769 26258.2
 09 03 2013  02 38  -21.0415 26035.1 -03417.0 -07.4771 26258.4
 09 03 2013  02 39  -21.0420 26034.8 -03416.9 -07.4770 26258.1
 09 03 2013  02 40  -21.0420 26035.3 -03417.2 -07.4775 26258.6
 09 03 2013  02 41  -21.0422 26035.2 -03417.2 -07.4775 26258.5
 09 03 2013  02 42  -21.0423 26035.4 -03417.3 -07.4777 26258.7
 09 03 2013  02 43  -21.0422 26035.3 -03417.3 -07.4777 26258.6
 09 03 2013  02 44  -21.0422 26035.2 -03417.3 -07.4778 26258.5
 09 03 2013  02 45  -21.0424 26035.3 -03417.4 -07.4779 26258.6
 09 03 2013  02 46  -21.0424 26035.2 -03417.4 -07.4779 26258.5
 09 03 2013  02 47  -21.0425 26035.1 -03417.4 -07.4780 26258.4
 09 03 2013  02 48  -21.0425 26035.0 -03417.4 -07.4780 26258.3
 09 03 2013  02 49  -21.0425 26035.1 -03417.5 -07.4782 26258.4
 09 03 2013  02 50  -21.0430 26034.9 -03417.5 -07.4782 26258.3
 09 03 2013  02 51  -21.0431 26034.9 -03417.5 -07.4782 26258.3
 09 03 2013  02 52  -21.0432 26034.8 -03417.5 -07.4782 26258.1
 09 03 2013  02 53  -21.0433 26034.6 -03417.5 -07.4782 26258.0
 09 03 2013  02 54  -21.0435 26034.5 -03417.5 -07.4783 26257.9
 09 03 2013  02 55  -21.0438 26034.5 -03417.6 -07.4785 26257.9
 09 03 2013  02 56  -21.0439 26034.5 -03417.6 -07.4785 26257.8
 09 03 2013  02 57  -21.0441 26034.3 -03417.6 -07.4786 26257.7
 09 03 2013  02 58  -21.0443 26034.3 -03417.6 -07.4786 26257.6
 09 03 2013  02 59  -21.0444 26034.1 -03417.6 -07.4786 26257.5
 09 03 2013  03 00  -21.0445 26034.0 -03417.6 -07.4787 26257.4
 09 03 2013  03 01  -21.0446 26033.9 -03417.6 -07.4787 26257.3
 09 03 2013  03 02  -21.0446 26033.9 -03417.6 -07.4788 26257.2
 09 03 2013  03 03  -21.0446 26033.7 -03417.6 -07.4788 26257.1
 09 03 2013  03 04  -21.0446 26033.7 -03417.6 -07.4788 26257.1
 09 03 2013  03 05  -21.0446 26033.6 -03417.6 -07.4788 26257.0
 09 03 2013  03 06  -21.0447 26033.7 -03417.7 -07.4790 26257.1
 09 03 2013  03 07  -21.0451 26033.8 -03417.8 -07.4792 26257.2
 09 03 2013  03 08  -21.0453 26034.1 -03418.0 -07.4795 26257.5
 09 03 2013  03 09  -21.0457 26034.2 -03418.1 -07.4796 26257.6
 09 03 2013  03 10  -21.0460 26034.5 -03418.3 -07.4800 26258.0
 09 03 2013  03 11  -21.0465 26034.7 -03418.4 -07.4802 26258.2
 09 03 2013  03 12  -21.0469 26034.9 -03418.5 -07.4804 26258.4
 09 03 2013  03 13  -21.0471 26035.0 -03418.5 -07.4803 26258.5
 09 03 2013  03 14  -21.0473 26035.0 -03418.5 -07.4803 26258.4
 09 03 2013  03 15  -21.0474 26035.1 -03418.5 -07.4802 26258.6
 09 03 2013  03 16  -21.0474 26035.0 -03418.4 -07.4801 26258.5
 09 03 2013  03 17  -21.0472 26035.1 -03418.4 -07.4801 26258.6
 09 03 2013  03 18  -21.0472 26035.1 -03418.4 -07.4800 26258.6
 09 03 2013  03 19  -21.0473 26035.2 -03418.4 -07.4800 26258.7
 09 03 2013  03 20  -21.0474 26035.3 -03418.4 -07.4801 26258.8
 09 03 2013  03 21  -21.0474 26035.3 -03418.4 -07.4800 26258.8
 09 03 2013  03 22  -21.0473 26035.5 -03418.4 -07.4801 26258.9
 09 03 2013  03 23  -21.0473 26035.7 -03418.5 -07.4802 26259.1
 09 03 2013  03 24  -21.0472 26035.9 -03418.6 -07.4804 26259.3
 09 03 2013  03 25  -21.0470 26035.9 -03418.6 -07.4804 26259.3
 09 03 2013  03 26  -21.0467 26035.8 -03418.6 -07.4803 26259.3
 09 03 2013  03 27  -21.0466 26035.9 -03418.6 -07.4803 26259.3
 09 03 2013  03 28  -21.0466 26035.8 -03418.6 -07.4802 26259.3
 09 03 2013  03 29  -21.0466 26035.8 -03418.6 -07.4803 26259.3
 09 03 2013  03 30  -21.0468 26035.6 -03418.5 -07.4802 26259.1
 09 03 2013  03 31  -21.0468 26035.6 -03418.5 -07.4801 26259.1
 09 03 2013  03 32  -21.0470 26035.5 -03418.4 -07.4800 26259.0
 09 03 2013  03 33  -21.0471 26035.6 -03418.5 -07.4801 26259.1
 09 03 2013  03 34  -21.0474 26035.6 -03418.5 -07.4801 26259.0
 09 03 2013  03 35  -21.0474 26035.6 -03418.5 -07.4802 26259.1
 09 03 2013  03 36  -21.0473 26035.5 -03418.5 -07.4802 26259.0
 09 03 2013  03 37  -21.0473 26035.5 -03418.4 -07.4801 26258.9
 09 03 2013  03 38  -21.0473 26035.3 -03418.4 -07.4800 26258.8
 09 03 2013  03 39  -21.0472 26035.1 -03418.3 -07.4798 26258.6
 09 03 2013  03 40  -21.0473 26035.0 -03418.2 -07.4798 26258.4
 09 03 2013  03 41  -21.0473 26034.9 -03418.2 -07.4798 26258.4
 09 03 2013  03 42  -21.0471 26034.8 -03418.1 -07.4797 26258.2
 09 03 2013  03 43  -21.0471 26034.8 -03418.2 -07.4798 26258.3
 09 03 2013  03 44  -21.0469 26034.8 -03418.2 -07.4798 26258.2
 09 03 2013  03 45  -21.0465 26034.8 -03418.3 -07.4799 26258.3
 09 03 2013  03 46  -21.0463 26034.8 -03418.3 -07.4799 26258.2
 09 03 2013  03 47  -21.0462 26035.0 -03418.4 -07.4802 26258.4
 09 03 2013  03 48  -21.0463 26035.1 -03418.6 -07.4805 26258.6
 09 03 2013  03 49  -21.0463 26035.2 -03418.6 -07.4806 26258.7
 09 03 2013  03 50  -21.0465 26035.4 -03418.8 -07.4808 26258.9
 09 03 2013  03 51  -21.0467 26035.5 -03418.8 -07.4810 26259.0
 09 03 2013  03 52  -21.0470 26035.7 -03418.9 -07.4811 26259.2
 09 03 2013  03 53  -21.0472 26035.7 -03418.9 -07.4811 26259.2
 09 03 2013  03 54  -21.0472 26035.8 -03418.9 -07.4811 26259.3
 09 03 2013  03 55  -21.0473 26035.8 -03418.9 -07.4810 26259.3
 09 03 2013  03 56  -21.0473 26036.0 -03419.0 -07.4811 26259.5
 09 03 2013  03 57  -21.0475 26036.0 -03419.0 -07.4811 26259.6
 09 03 2013  03 58  -21.0474 26036.0 -03418.9 -07.4810 26259.6
 09 03 2013  03 59  -21.0472 26036.0 -03418.9 -07.4809 26259.5
 09 03 2013  04 00  -21.0469 26036.0 -03418.8 -07.4808 26259.5
 09 03 2013  04 01  -21.0466 26036.1 -03418.8 -07.4807 26259.6
 09 03 2013  04 02  -21.0465 26036.1 -03418.8 -07.4807 26259.6
 09 03 2013  04 03  -21.0463 26036.3 -03418.9 -07.4809 26259.8
 09 03 2013  04 04  -21.0465 26036.4 -03418.9 -07.4809 26259.9
 09 03 2013  04 05  -21.0466 26036.4 -03419.0 -07.4809 26260.0
 09 03 2013  04 06  -21.0466 26036.5 -03419.0 -07.4810 26260.1
 09 03 2013  04 07  -21.0468 26036.6 -03419.0 -07.4809 26260.2
 09 03 2013  04 08  -21.0472 26036.9 -03419.1 -07.4810 26260.4
 09 03 2013  04 09  -21.0476 26037.0 -03419.1 -07.4811 26260.5
 09 03 2013  04 10  -21.0478 26037.0 -03419.1 -07.4810 26260.6
 09 03 2013  04 11  -21.0479 26037.1 -03419.0 -07.4809 26260.7
 09 03 2013  04 12  -21.0479 26037.1 -03419.0 -07.4807 26260.6
 09 03 2013  04 13  -21.0477 26037.1 -03418.9 -07.4806 26260.6
 09 03 2013  04 14  -21.0474 26036.9 -03418.7 -07.4803 26260.4
 09 03 2013  04 15  -21.0470 26036.5 -03418.4 -07.4798 26260.0
 09 03 2013  04 16  -21.0464 26036.1 -03418.2 -07.4794 26259.5
 09 03 2013  04 17  -21.0459 26035.8 -03418.0 -07.4791 26259.2
 09 03 2013  04 18  -21.0457 26035.6 -03417.9 -07.4789 26259.0
 09 03 2013  04 19  -21.0458 26035.6 -03417.9 -07.4790 26259.0
 09 03 2013  04 20  -21.0461 26035.6 -03418.0 -07.4790 26259.0
 09 03 2013  04 21  -21.0464 26035.8 -03418.1 -07.4792 26259.2
 09 03 2013  04 22  -21.0466 26035.8 -03418.1 -07.4792 26259.3
 09 03 2013  04 23  -21.0468 26036.2 -03418.3 -07.4795 26259.6
 09 03 2013  04 24  -21.0469 26036.3 -03418.3 -07.4796 26259.8
 09 03 2013  04 25  -21.0468 26036.5 -03418.4 -07.4797 26260.0
 09 03 2013  04 26  -21.0468 26036.8 -03418.5 -07.4798 26260.3
 09 03 2013  04 27  -21.0468 26036.9 -03418.5 -07.4798 26260.4
 09 03 2013  04 28  -21.0470 26037.2 -03418.6 -07.4799 26260.7
 09 03 2013  04 29  -21.0472 26037.3 -03418.6 -07.4799 26260.8
 09 03 2013  04 30  -21.0473 26037.5 -03418.6 -07.4799 26261.0
 09 03 2013  04 31  -21.0473 26037.7 -03418.6 -07.4799 26261.2
 09 03 2013  04 32  -21.0472 26038.0 -03418.7 -07.4800 26261.5
 09 03 2013  04 33  -21.0471 26038.2 -03418.8 -07.4800 26261.7
 09 03 2013  04 34  -21.0468 26038.3 -03418.7 -07.4799 26261.8
 09 03 2013  04 35  -21.0464 26038.4 -03418.7 -07.4798 26261.9
 09 03 2013  04 36  -21.0461 26038.5 -03418.7 -07.4798 26262.0
 09 03 2013  04 37  -21.0457 26038.6 -03418.6 -07.4797 26262.0
 09 03 2013  04 38  -21.0453 26038.6 -03418.6 -07.4796 26262.0
 09 03 2013  04 39  -21.0451 26038.8 -03418.7 -07.4796 26262.2
 09 03 2013  04 40  -21.0451 26038.8 -03418.7 -07.4797 26262.3
 09 03 2013  04 41  -21.0448 26039.0 -03418.7 -07.4797 26262.4
 09 03 2013  04 42  -21.0446 26039.0 -03418.7 -07.4796 26262.5
 09 03 2013  04 43  -21.0443 26039.1 -03418.7 -07.4796 26262.6
 09 03 2013  04 44  -21.0440 26039.1 -03418.7 -07.4795 26262.6
 09 03 2013  04 45  -21.0437 26039.2 -03418.6 -07.4795 26262.6
 09 03 2013  04 46  -21.0433 26039.2 -03418.6 -07.4794 26262.6
 09 03 2013  04 47  -21.0430 26039.4 -03418.7 -07.4795 26262.9
 09 03 2013  04 48  -21.0427 26039.6 -03418.7 -07.4796 26263.1
 09 03 2013  04 49  -21.0426 26039.7 -03418.8 -07.4796 26263.2
 09 03 2013  04 50  -21.0425 26039.8 -03418.8 -07.4796 26263.3
 09 03 2013  04 51  -21.0422 26039.8 -03418.7 -07.4795 26263.2
 09 03 2013  04 52  -21.0418 26039.6 -03418.6 -07.4792 26263.0
 09 03 2013  04 53  -21.0414 26039.5 -03418.5 -07.4790 26262.9
 09 03 2013  04 54  -21.0410 26039.5 -03418.5 -07.4790 26262.9
 09 03 2013  04 55  -21.0407 26039.6 -03418.5 -07.4790 26263.0
 09 03 2013  04 56  -21.0406 26039.6 -03418.5 -07.4790 26263.0
 09 03 2013  04 57  -21.0404 26039.6 -03418.5 -07.4790 26263.1
 09 03 2013  04 58  -21.0402 26039.6 -03418.4 -07.4789 26263.0
 09 03 2013  04 59  -21.0400 26039.4 -03418.3 -07.4787 26262.9
 09 03 2013  05 00  -21.0399 26039.2 -03418.2 -07.4785 26262.6
 09 03 2013  05 01  -21.0397 26039.0 -03418.0 -07.4782 26262.3
 09 03 2013  05 02  -21.0396 26038.7 -03417.9 -07.4780 26262.1
 09 03 2013  05 03  -21.0395 26038.5 -03417.7 -07.4777 26261.8
 09 03 2013  05 04  -21.0393 26038.3 -03417.6 -07.4776 26261.6
 09 03 2013  05 05  -21.0393 26038.3 -03417.6 -07.4775 26261.6
 09 03 2013  05 06  -21.0393 26038.3 -03417.6 -07.4776 26261.7
 09 03 2013  05 07  -21.0393 26038.5 -03417.7 -07.4777 26261.8
 09 03 2013  05 08  -21.0395 26038.6 -03417.8 -07.4778 26262.0
 09 03 2013  05 09  -21.0396 26038.8 -03417.9 -07.4779 26262.2
 09 03 2013  05 10  -21.0396 26039.0 -03418.0 -07.4781 26262.4
 09 03 2013  05 11  -21.0397 26039.1 -03418.0 -07.4782 26262.5
 09 03 2013  05 12  -21.0397 26039.2 -03418.0 -07.4782 26262.6
 09 03 2013  05 13  -21.0396 26039.3 -03418.0 -07.4781 26262.6
 09 03 2013  05 14  -21.0395 26039.3 -03418.0 -07.4780 26262.6
 09 03 2013  05 15  -21.0393 26039.2 -03417.9 -07.4778 26262.5
 09 03 2013  05 16  -21.0392 26039.1 -03417.8 -07.4777 26262.5
 09 03 2013  05 17  -21.0389 26039.0 -03417.7 -07.4775 26262.3
 09 03 2013  05 18  -21.0386 26038.7 -03417.6 -07.4773 26262.1
 09 03 2013  05 19  -21.0383 26038.5 -03417.4 -07.4771 26261.8
 09 03 2013  05 20  -21.0380 26038.4 -03417.3 -07.4768 26261.6
 09 03 2013  05 21  -21.0375 26038.1 -03417.2 -07.4767 26261.4
 09 03 2013  05 22  -21.0371 26038.1 -03417.2 -07.4767 26261.3
 09 03 2013  05 23  -21.0368 26037.9 -03417.2 -07.4767 26261.2
 09 03 2013  05 24  -21.0367 26038.0 -03417.2 -07.4768 26261.2
 09 03 2013  05 25  -21.0368 26038.0 -03417.3 -07.4769 26261.3
 09 03 2013  05 26  -21.0369 26038.2 -03417.4 -07.4771 26261.5
 09 03 2013  05 27  -21.0368 26038.3 -03417.5 -07.4772 26261.6
 09 03 2013  05 28  -21.0368 26038.4 -03417.6 -07.4774 26261.7
 09 03 2013  05 29  -21.0367 26038.4 -03417.6 -07.4775 26261.8
 09 03 2013  05 30  -21.0366 26038.5 -03417.7 -07.4776 26261.9
 09 03 2013  05 31  -21.0364 26038.5 -03417.7 -07.4776 26261.9
 09 03 2013  05 32  -21.0362 26038.6 -03417.7 -07.4776 26261.9
 09 03 2013  05 33  -21.0360 26038.6 -03417.7 -07.4777 26261.9
 09 03 2013  05 34  -21.0360 26038.6 -03417.7 -07.4776 26261.9
 09 03 2013  05 35  -21.0359 26038.6 -03417.8 -07.4777 26261.9
 09 03 2013  05 36  -21.0358 26038.6 -03417.8 -07.4778 26262.0
 09 03 2013  05 37  -21.0358 26038.7 -03417.8 -07.4778 26262.0
 09 03 2013  05 38  -21.0356 26038.7 -03417.8 -07.4779 26262.0
 09 03 2013  05 39  -21.0357 26038.7 -03417.9 -07.4779 26262.0
 09 03 2013  05 40  -21.0356 26038.6 -03417.8 -07.4779 26261.9
 09 03 2013  05 41  -21.0355 26038.5 -03417.8 -07.4779 26261.8
 09 03 2013  05 42  -21.0356 26038.4 -03417.8 -07.4779 26261.8
 09 03 2013  05 43  -21.0355 26038.4 -03417.8 -07.4778 26261.7
 09 03 2013  05 44  -21.0355 26038.3 -03417.8 -07.4779 26261.6
 09 03 2013  05 45  -21.0354 26038.2 -03417.8 -07.4780 26261.6
 09 03 2013  05 46  -21.0355 26038.2 -03417.9 -07.4780 26261.6
 09 03 2013  05 47  -21.0357 26038.3 -03418.0 -07.4783 26261.7
 09 03 2013  05 48  -21.0360 26038.4 -03418.0 -07.4784 26261.7
 09 03 2013  05 49  -21.0364 26038.4 -03418.1 -07.4785 26261.8
 09 03 2013  05 50  -21.0368 26038.6 -03418.2 -07.4787 26262.0
 09 03 2013  05 51  -21.0374 26038.8 -03418.3 -07.4789 26262.2
 09 03 2013  05 52  -21.0380 26039.0 -03418.4 -07.4790 26262.4
 09 03 2013  05 53  -21.0386 26039.1 -03418.5 -07.4791 26262.5
 09 03 2013  05 54  -21.0391 26039.2 -03418.5 -07.4792 26262.7
 09 03 2013  05 55  -21.0393 26039.3 -03418.5 -07.4791 26262.8
 09 03 2013  05 56  -21.0396 26039.5 -03418.5 -07.4792 26262.9
 09 03 2013  05 57  -21.0397 26039.5 -03418.5 -07.4791 26263.0
 09 03 2013  05 58  -21.0397 26039.6 -03418.5 -07.4791 26263.1
 09 03 2013  05 59  -21.0396 26039.7 -03418.5 -07.4790 26263.1
 09 03 2013  06 00  -21.0394 26039.7 -03418.5 -07.4790 26263.1
 09 03 2013  06 01  -21.0392 26039.6 -03418.5 -07.4789 26263.1
 09 03 2013  06 02  -21.0391 26039.7 -03418.5 -07.4790 26263.1
 09 03 2013  06 03  -21.0390 26039.6 -03418.4 -07.4789 26263.0
 09 03 2013  06 04  -21.0388 26039.6 -03418.4 -07.4789 26263.0
 09 03 2013  06 05  -21.0386 26039.5 -03418.4 -07.4789 26263.0
 09 03 2013  06 06  -21.0384 26039.4 -03418.4 -07.4788 26262.9
 09 03 2013  06 07  -21.0383 26039.3 -03418.3 -07.4788 26262.7
 09 03 2013  06 08  -21.0381 26039.3 -03418.3 -07.4787 26262.7
 09 03 2013  06 09  -21.0379 26039.3 -03418.3 -07.4788 26262.7
 09 03 2013  06 10  -21.0378 26039.4 -03418.4 -07.4790 26262.9
 09 03 2013  06 11  -21.0375 26039.4 -03418.4 -07.4789 26262.8
 09 03 2013  06 12  -21.0374 26039.5 -03418.5 -07.4791 26262.9
 09 03 2013  06 13  -21.0371 26039.5 -03418.6 -07.4792 26262.9
 09 03 2013  06 14  -21.0371 26039.6 -03418.6 -07.4793 26263.0
 09 03 2013  06 15  -21.0370 26039.6 -03418.7 -07.4794 26263.0
 09 03 2013  06 16  -21.0369 26039.7 -03418.7 -07.4795 26263.1
 09 03 2013  06 17  -21.0369 26039.7 -03418.8 -07.4796 26263.2
 09 03 2013  06 18  -21.0369 26039.7 -03418.8 -07.4796 26263.2
 09 03 2013  06 19  -21.0370 26039.8 -03418.8 -07.4797 26263.3
 09 03 2013  06 20  -21.0371 26039.8 -03418.8 -07.4797 26263.2
 09 03 2013  06 21  -21.0370 26039.8 -03418.9 -07.4798 26263.3
 09 03 2013  06 22  -21.0372 26040.0 -03419.0 -07.4800 26263.5
 09 03 2013  06 23  -21.0372 26040.1 -03419.1 -07.4801 26263.6
 09 03 2013  06 24  -21.0373 26040.3 -03419.1 -07.4802 26263.8
 09 03 2013  06 25  -21.0373 26040.4 -03419.2 -07.4803 26264.0
 09 03 2013  06 26  -21.0372 26040.5 -03419.3 -07.4804 26264.1
 09 03 2013  06 27  -21.0371 26040.6 -03419.3 -07.4805 26264.2
 09 03 2013  06 28  -21.0369 26040.7 -03419.3 -07.4805 26264.2
 09 03 2013  06 29  -21.0367 26040.7 -03419.3 -07.4805 26264.2
 09 03 2013  06 30  -21.0364 26040.7 -03419.3 -07.4804 26264.2
 09 03 2013  06 31  -21.0361 26040.7 -03419.3 -07.4804 26264.3
 09 03 2013  06 32  -21.0360 26040.8 -03419.3 -07.4805 26264.3
 09 03 2013  06 33  -21.0359 26040.7 -03419.4 -07.4806 26264.3
 09 03 2013  06 34  -21.0359 26040.6 -03419.3 -07.4806 26264.2
 09 03 2013  06 35  -21.0359 26040.7 -03419.4 -07.4806 26264.3
 09 03 2013  06 36  -21.0360 26040.7 -03419.4 -07.4807 26264.3
 09 03 2013  06 37  -21.0358 26040.7 -03419.4 -07.4807 26264.3
 09 03 2013  06 38  -21.0357 26040.7 -03419.4 -07.4808 26264.3
 09 03 2013  06 39  -21.0355 26040.7 -03419.4 -07.4807 26264.3
 09 03 2013  06 40  -21.0353 26040.7 -03419.4 -07.4807 26264.3
 09 03 2013  06 41  -21.0350 26040.8 -03419.4 -07.4806 26264.3
 09 03 2013  06 42  -21.0348 26040.8 -03419.4 -07.4807 26264.4
 09 03 2013  06 43  -21.0345 26040.8 -03419.4 -07.4808 26264.3
 09 03 2013  06 44  -21.0342 26040.7 -03419.4 -07.4807 26264.2
 09 03 2013  06 45  -21.0339 26040.7 -03419.4 -07.4807 26264.2
 09 03 2013  06 46  -21.0336 26040.7 -03419.4 -07.4808 26264.2
 09 03 2013  06 47  -21.0333 26040.7 -03419.5 -07.4808 26264.2
 09 03 2013  06 48  -21.0329 26040.6 -03419.4 -07.4808 26264.2
 09 03 2013  06 49  -21.0326 26040.6 -03419.4 -07.4808 26264.1
 09 03 2013  06 50  -21.0323 26040.6 -03419.4 -07.4807 26264.1
 09 03 2013  06 51  -21.0321 26040.6 -03419.4 -07.4808 26264.1
 09 03 2013  06 52  -21.0320 26040.5 -03419.5 -07.4808 26264.1
 09 03 2013  06 53  -21.0319 26040.6 -03419.5 -07.4809 26264.1
 09 03 2013  06 54  -21.0319 26040.7 -03419.6 -07.4810 26264.2
 09 03 2013  06 55  -21.0320 26040.7 -03419.6 -07.4811 26264.3
 09 03 2013  06 56  -21.0321 26040.8 -03419.7 -07.4813 26264.4
 09 03 2013  06 57  -21.0321 26040.9 -03419.8 -07.4814 26264.5
 09 03 2013  06 58  -21.0322 26041.0 -03419.8 -07.4815 26264.6
 09 03 2013  06 59  -21.0324 26041.2 -03419.9 -07.4816 26264.8
 09 03 2013  07 00  -21.0326 26041.3 -03420.0 -07.4817 26264.9
 09 03 2013  07 01  -21.0329 26041.4 -03420.0 -07.4818 26265.0
 09 03 2013  07 02  -21.0331 26041.4 -03420.0 -07.4818 26265.1
 09 03 2013  07 03  -21.0333 26041.4 -03420.0 -07.4817 26265.1
 09 03 2013  07 04  -21.0335 26041.4 -03419.9 -07.4816 26265.0
 09 03 2013  07 05  -21.0336 26041.5 -03419.9 -07.4816 26265.1
 09 03 2013  07 06  -21.0336 26041.6 -03420.0 -07.4816 26265.2
 09 03 2013  07 07  -21.0336 26041.7 -03419.9 -07.4815 26265.3
 09 03 2013  07 08  -21.0336 26041.8 -03419.9 -07.4815 26265.4
 09 03 2013  07 09  -21.0336 26041.9 -03420.0 -07.4816 26265.5
 09 03 2013  07 10  -21.0335 26042.0 -03420.0 -07.4816 26265.6
 09 03 2013  07 11  -21.0335 26042.1 -03420.0 -07.4816 26265.7
 09 03 2013  07 12  -21.0334 26042.2 -03420.0 -07.4816 26265.8
 09 03 2013  07 13  -21.0334 26042.0 -03419.9 -07.4815 26265.6
 09 03 2013  07 14  -21.0332 26042.0 -03419.9 -07.4813 26265.5
 09 03 2013  07 15  -21.0331 26042.1 -03419.9 -07.4814 26265.7
 09 03 2013  07 16  -21.0331 26042.0 -03419.8 -07.4813 26265.6
 09 03 2013  07 17  -21.0330 26042.1 -03419.9 -07.4813 26265.7
 09 03 2013  07 18  -21.0333 26042.1 -03419.8 -07.4812 26265.6
 09 03 2013  07 19  -21.0332 26042.3 -03419.9 -07.4814 26265.9
 09 03 2013  07 20  -21.0332 26042.2 -03419.9 -07.4813 26265.7
 09 03 2013  07 21  -21.0331 26042.2 -03419.9 -07.4813 26265.8
 09 03 2013  07 22  -21.0331 26042.3 -03419.9 -07.4814 26265.9
 09 03 2013  07 23  -21.0330 26042.6 -03420.1 -07.4816 26266.2
 09 03 2013  07 24  -21.0330 26042.4 -03420.0 -07.4815 26266.0
 09 03 2013  07 25  -21.0330 26042.6 -03420.1 -07.4816 26266.2
 09 03 2013  07 26  -21.0330 26042.7 -03420.2 -07.4818 26266.4
 09 03 2013  07 27  -21.0330 26042.9 -03420.2 -07.4818 26266.5
 09 03 2013  07 28  -21.0330 26042.9 -03420.2 -07.4818 26266.6
 09 03 2013  07 29  -21.0327 26042.9 -03420.2 -07.4818 26266.5
 09 03 2013  07 30  -21.0327 26042.9 -03420.2 -07.4818 26266.5
 09 03 2013  07 31  -21.0324 26042.8 -03420.1 -07.4816 26266.4
 09 03 2013  07 32  -21.0322 26042.9 -03420.1 -07.4816 26266.6
 09 03 2013  07 33  -21.0322 26042.9 -03420.1 -07.4815 26266.5
 09 03 2013  07 34  -21.0320 26042.8 -03420.0 -07.4814 26266.4
 09 03 2013  07 35  -21.0320 26043.0 -03420.1 -07.4815 26266.6
 09 03 2013  07 36  -21.0320 26042.9 -03420.1 -07.4815 26266.5
 09 03 2013  07 37  -21.0320 26043.2 -03420.2 -07.4816 26266.8
 09 03 2013  07 38  -21.0320 26043.2 -03420.1 -07.4816 26266.8
 09 03 2013  07 39  -21.0318 26043.2 -03420.2 -07.4816 26266.9
 09 03 2013  07 40  -21.0318 26043.4 -03420.2 -07.4817 26267.0
 09 03 2013  07 41  -21.0317 26043.2 -03420.2 -07.4816 26266.8
 09 03 2013  07 42  -21.0315 26043.1 -03420.1 -07.4815 26266.7
 09 03 2013  07 43  -21.0314 26043.2 -03420.1 -07.4816 26266.8
 09 03 2013  07 44  -21.0312 26043.3 -03420.2 -07.4816 26266.9
 09 03 2013  07 45  -21.0309 26043.5 -03420.3 -07.4818 26267.1
 09 03 2013  07 46  -21.0308 26043.8 -03420.4 -07.4820 26267.4
 09 03 2013  07 47  -21.0309 26043.7 -03420.4 -07.4820 26267.4
 09 03 2013  07 48  -21.0309 26043.7 -03420.4 -07.4819 26267.3
 09 03 2013  07 49  -21.0308 26043.6 -03420.3 -07.4819 26267.3
 09 03 2013  07 50  -21.0307 26043.8 -03420.4 -07.4820 26267.5
 09 03 2013  07 51  -21.0307 26043.9 -03420.4 -07.4820 26267.6
 09 03 2013  07 52  -21.0306 26043.8 -03420.4 -07.4820 26267.5
 09 03 2013  07 53  -21.0306 26043.8 -03420.3 -07.4818 26267.4
 09 03 2013  07 54  -21.0305 26044.0 -03420.4 -07.4820 26267.6
 09 03 2013  07 55  -21.0304 26044.2 -03420.5 -07.4820 26267.9
 09 03 2013  07 56  -21.0303 26044.3 -03420.5 -07.4821 26267.9
 09 03 2013  07 57  -21.0301 26044.3 -03420.5 -07.4821 26268.0
 09 03 2013  07 58  -21.0300 26044.3 -03420.5 -07.4821 26267.9
 09 03 2013  07 59  -21.0301 26044.2 -03420.5 -07.4820 26267.9
 09 03 2013  08 00  -21.0300 26044.5 -03420.6 -07.4822 26268.2
 09 03 2013  08 01  -21.0299 26044.8 -03420.7 -07.4824 26268.5
 09 03 2013  08 02  -21.0298 26044.8 -03420.7 -07.4823 26268.4
 09 03 2013  08 03  -21.0297 26044.7 -03420.6 -07.4821 26268.3
 09 03 2013  08 04  -21.0297 26044.6 -03420.5 -07.4820 26268.2
 09 03 2013  08 05  -21.0296 26044.6 -03420.5 -07.4820 26268.3
 09 03 2013  08 06  -21.0296 26044.6 -03420.5 -07.4819 26268.3
 09 03 2013  08 07  -21.0294 26044.7 -03420.5 -07.4819 26268.3
 09 03 2013  08 08  -21.0292 26044.8 -03420.5 -07.4819 26268.4
 09 03 2013  08 09  -21.0291 26044.9 -03420.5 -07.4819 26268.5
 09 03 2013  08 10  -21.0289 26044.9 -03420.5 -07.4819 26268.5
 09 03 2013  08 11  -21.0288 26044.9 -03420.5 -07.4819 26268.6
 09 03 2013  08 12  -21.0286 26045.0 -03420.6 -07.4820 26268.7
 09 03 2013  08 13  -21.0285 26045.1 -03420.6 -07.4821 26268.8
 09 03 2013  08 14  -21.0284 26045.1 -03420.6 -07.4821 26268.8
 09 03 2013  08 15  -21.0284 26045.2 -03420.7 -07.4822 26268.9
 09 03 2013  08 16  -21.0281 26045.4 -03420.7 -07.4823 26269.0
 09 03 2013  08 17  -21.0280 26045.4 -03420.8 -07.4823 26269.1
 09 03 2013  08 18  -21.0280 26045.4 -03420.8 -07.4823 26269.1
 09 03 2013  08 19  -21.0279 26045.3 -03420.7 -07.4823 26269.0
 09 03 2013  08 20  -21.0277 26045.4 -03420.8 -07.4823 26269.1
 09 03 2013  08 21  -21.0276 26045.4 -03420.8 -07.4823 26269.1
 09 03 2013  08 22  -21.0273 26045.5 -03420.8 -07.4823 26269.2
 09 03 2013  08 23  -21.0269 26045.6 -03420.8 -07.4824 26269.3
 09 03 2013  08 24  -21.0267 26045.7 -03420.9 -07.4825 26269.4
 09 03 2013  08 25  -21.0265 26045.7 -03420.9 -07.4826 26269.4
 09 03 2013  08 26  -21.0266 26045.7 -03420.9 -07.4826 26269.4
 09 03 2013  08 27  -21.0266 26045.7 -03421.0 -07.4826 26269.4
 09 03 2013  08 28  -21.0264 26045.8 -03421.0 -07.4826 26269.5
 09 03 2013  08 29  -21.0266 26045.6 -03420.9 -07.4825 26269.3
 09 03 2013  08 30  -21.0266 26045.5 -03420.8 -07.4824 26269.2
 09 03 2013  08 31  -21.0267 26045.4 -03420.8 -07.4824 26269.1
 09 03 2013  08 32  -21.0267 26045.4 -03420.8 -07.4823 26269.1
 09 03 2013  08 33  -21.0265 26045.3 -03420.6 -07.4821 26268.9
 09 03 2013  08 34  -21.0264 26045.3 -03420.7 -07.4821 26269.0
 09 03 2013  08 35  -21.0266 26045.2 -03420.7 -07.4821 26268.9
 09 03 2013  08 36  -21.0270 26045.4 -03420.7 -07.4823 26269.1
 09 03 2013  08 37  -21.0274 26045.5 -03420.8 -07.4824 26269.2
 09 03 2013  08 38  -21.0279 26045.7 -03421.0 -07.4828 26269.4
 09 03 2013  08 39  -21.0283 26046.0 -03421.1 -07.4829 26269.7
 09 03 2013  08 40  -21.0288 26045.9 -03421.1 -07.4829 26269.7
 09 03 2013  08 41  -21.0292 26046.0 -03421.1 -07.4828 26269.7
 09 03 2013  08 42  -21.0295 26046.0 -03421.0 -07.4826 26269.7
 09 03 2013  08 43  -21.0297 26046.0 -03420.9 -07.4824 26269.7
 09 03 2013  08 44  -21.0298 26045.9 -03420.7 -07.4821 26269.6
 09 03 2013  08 45  -21.0299 26045.7 -03420.5 -07.4817 26269.3
 09 03 2013  08 46  -21.0299 26045.5 -03420.4 -07.4814 26269.2
 09 03 2013  08 47  -21.0298 26045.5 -03420.3 -07.4813 26269.2
 09 03 2013  08 48  -21.0296 26045.5 -03420.3 -07.4812 26269.1
 09 03 2013  08 49  -21.0292 26045.5 -03420.1 -07.4809 26269.0
 09 03 2013  08 50  -21.0287 26045.4 -03420.0 -07.4806 26269.0
 09 03 2013  08 51  -21.0284 26045.3 -03419.9 -07.4805 26268.9
 09 03 2013  08 52  -21.0282 26045.3 -03419.9 -07.4804 26268.8
 09 03 2013  08 53  -21.0277 26045.2 -03419.8 -07.4803 26268.8
 09 03 2013  08 54  -21.0276 26045.1 -03419.8 -07.4802 26268.7
 09 03 2013  08 55  -21.0276 26045.2 -03419.8 -07.4804 26268.8
 09 03 2013  08 56  -21.0276 26045.2 -03419.9 -07.4804 26268.8
 09 03 2013  08 57  -21.0275 26045.3 -03420.0 -07.4806 26268.9
 09 03 2013  08 58  -21.0276 26045.3 -03420.1 -07.4808 26268.9
 09 03 2013  08 59  -21.0276 26045.4 -03420.1 -07.4810 26269.0
 09 03 2013  09 00  -21.0279 26045.4 -03420.2 -07.4810 26269.0
 09 03 2013  09 01  -21.0282 26045.6 -03420.3 -07.4812 26269.2
 09 03 2013  09 02  -21.0283 26045.8 -03420.4 -07.4813 26269.4
 09 03 2013  09 03  -21.0286 26046.0 -03420.4 -07.4813 26269.6
 09 03 2013  09 04  -21.0292 26046.2 -03420.5 -07.4815 26269.9
 09 03 2013  09 05  -21.0295 26046.0 -03420.4 -07.4813 26269.7
 09 03 2013  09 06  -21.0300 26046.6 -03420.5 -07.4815 26270.2
 09 03 2013  09 07  -21.0308 26046.5 -03420.4 -07.4812 26270.1
 09 03 2013  09 08  -21.0312 26046.4 -03420.2 -07.4808 26270.0
 09 03 2013  09 09  -21.0319 26046.5 -03420.1 -07.4805 26270.1
 09 03 2013  09 10  -21.0327 26046.7 -03419.9 -07.4801 26270.2
 09 03 2013  09 11  -21.0332 26046.7 -03419.8 -07.4798 26270.3
 09 03 2013  09 12  -21.0330 26046.9 -03419.6 -07.4794 26270.4
 09 03 2013  09 13  -21.0330 26047.0 -03419.5 -07.4792 26270.5
 09 03 2013  09 14  -21.0326 26047.1 -03419.4 -07.4789 26270.6
 09 03 2013  09 15  -21.0325 26047.4 -03419.5 -07.4789 26270.9
 09 03 2013  09 16  -21.0324 26047.5 -03419.4 -07.4787 26271.0
 09 03 2013  09 17  -21.0324 26047.8 -03419.4 -07.4786 26271.3
 09 03 2013  09 18  -21.0326 26048.1 -03419.3 -07.4784 26271.6
 09 03 2013  09 19  -21.0330 26048.3 -03419.2 -07.4781 26271.7
 09 03 2013  09 20  -21.0332 26048.6 -03419.1 -07.4778 26272.0
 09 03 2013  09 21  -21.0331 26048.8 -03419.0 -07.4774 26272.2
 09 03 2013  09 22  -21.0331 26048.9 -03418.8 -07.4770 26272.2
 09 03 2013  09 23  -21.0334 26049.0 -03418.7 -07.4767 26272.3
 09 03 2013  09 24  -21.0331 26048.7 -03418.4 -07.4762 26272.0
 09 03 2013  09 25  -21.0326 26048.7 -03418.2 -07.4758 26272.0
 09 03 2013  09 26  -21.0327 26048.9 -03418.2 -07.4757 26272.3
 09 03 2013  09 27  -21.0327 26049.3 -03418.2 -07.4756 26272.6
 09 03 2013  09 28  -21.0327 26049.5 -03418.2 -07.4756 26272.8
 09 03 2013  09 29  -21.0329 26049.8 -03418.2 -07.4754 26273.1
 09 03 2013  09 30  -21.0327 26050.0 -03418.1 -07.4753 26273.3
 09 03 2013  09 31  -21.0326 26050.1 -03418.0 -07.4750 26273.4
 09 03 2013  09 32  -21.0323 26050.4 -03418.0 -07.4748 26273.6
 09 03 2013  09 33  -21.0323 26050.6 -03418.0 -07.4748 26273.9
 09 03 2013  09 34  -21.0317 26050.7 -03417.9 -07.4745 26273.9
 09 03 2013  09 35  -21.0312 26050.8 -03417.7 -07.4743 26274.0
 09 03 2013  09 36  -21.0309 26050.8 -03417.6 -07.4739 26274.0
 09 03 2013  09 37  -21.0303 26050.7 -03417.4 -07.4735 26273.9
 09 03 2013  09 38  -21.0300 26050.8 -03417.3 -07.4732 26274.0
 09 03 2013  09 39  -21.0295 26050.5 -03417.0 -07.4728 26273.7
 09 03 2013  09 40  -21.0289 26050.3 -03416.8 -07.4723 26273.4
 09 03 2013  09 41  -21.0287 26050.1 -03416.6 -07.4720 26273.2
 09 03 2013  09 42  -21.0287 26049.9 -03416.5 -07.4718 26273.0
 09 03 2013  09 43  -21.0284 26049.7 -03416.4 -07.4716 26272.8
 09 03 2013  09 44  -21.0281 26049.6 -03416.3 -07.4714 26272.7
 09 03 2013  09 45  -21.0282 26049.5 -03416.1 -07.4711 26272.6
 09 03 2013  09 46  -21.0284 26049.4 -03415.9 -07.4707 26272.4
 09 03 2013  09 47  -21.0284 26049.2 -03415.7 -07.4703 26272.2
 09 03 2013  09 48  -21.0288 26049.0 -03415.5 -07.4699 26271.9
 09 03 2013  09 49  -21.0291 26048.7 -03415.3 -07.4696 26271.7
 09 03 2013  09 50  -21.0289 26048.4 -03415.1 -07.4692 26271.3
 09 03 2013  09 51  -21.0287 26048.0 -03414.9 -07.4689 26270.9
 09 03 2013  09 52  -21.0290 26048.0 -03415.0 -07.4690 26270.9
 09 03 2013  09 53  -21.0293 26048.3 -03415.2 -07.4694 26271.2
 09 03 2013  09 54  -21.0292 26048.4 -03415.3 -07.4696 26271.3
 09 03 2013  09 55  -21.0300 26048.3 -03415.4 -07.4698 26271.2
 09 03 2013  09 56  -21.0303 26048.3 -03415.5 -07.4700 26271.3
 09 03 2013  09 57  -21.0301 26048.3 -03415.4 -07.4699 26271.3
 09 03 2013  09 58  -21.0299 26048.5 -03415.4 -07.4699 26271.5
 09 03 2013  09 59  -21.0299 26048.5 -03415.4 -07.4698 26271.4
 09 03 2013  10 00  -21.0297 26048.3 -03415.2 -07.4695 26271.3
 09 03 2013  10 01  -21.0301 26048.3 -03415.1 -07.4693 26271.2
 09 03 2013  10 02  -21.0300 26048.2 -03415.0 -07.4690 26271.1
 09 03 2013  10 03  -21.0303 26048.1 -03414.9 -07.4688 26271.0
 09 03 2013  10 04  -21.0308 26048.5 -03415.0 -07.4689 26271.4
 09 03 2013  10 05  -21.0308 26048.8 -03414.9 -07.4686 26271.7
 09 03 2013  10 06  -21.0312 26049.0 -03414.8 -07.4685 26271.9
 09 03 2013  10 07  -21.0320 26049.4 -03414.8 -07.4683 26272.2
 09 03 2013  10 08  -21.0333 26049.7 -03414.8 -07.4682 26272.5
 09 03 2013  10 09  -21.0345 26050.1 -03414.8 -07.4680 26273.0
 09 03 2013  10 10  -21.0341 26050.2 -03414.5 -07.4673 26273.0
 09 03 2013  10 11  -21.0335 26050.1 -03414.0 -07.4664 26272.8
 09 03 2013  10 12  -21.0340 26050.0 -03413.7 -07.4658 26272.8
 09 03 2013  10 13  -21.0356 26050.4 -03413.8 -07.4657 26273.2
 09 03 2013  10 14  -21.0361 26050.9 -03413.8 -07.4656 26273.6
 09 03 2013  10 15  -21.0359 26051.0 -03413.6 -07.4651 26273.7
 09 03 2013  10 16  -21.0368 26051.4 -03413.5 -07.4649 26274.1
 09 03 2013  10 17  -21.0376 26051.9 -03413.5 -07.4648 26274.6
 09 03 2013  10 18  -21.0376 26052.2 -03413.4 -07.4645 26274.8
 09 03 2013  10 19  -21.0378 26052.2 -03413.2 -07.4640 26274.9
 09 03 2013  10 20  -21.0375 26052.4 -03413.0 -07.4636 26275.0
 09 03 2013  10 21  -21.0371 26052.5 -03412.8 -07.4631 26275.1
 09 03 2013  10 22  -21.0370 26052.6 -03412.6 -07.4626 26275.1
 09 03 2013  10 23  -21.0376 26052.6 -03412.5 -07.4623 26275.2
 09 03 2013  10 24  -21.0380 26052.6 -03412.3 -07.4620 26275.1
 09 03 2013  10 25  -21.0382 26052.6 -03412.2 -07.4618 26275.2
 09 03 2013  10 26  -21.0381 26052.7 -03412.1 -07.4615 26275.2
 09 03 2013  10 27  -21.0376 26052.7 -03411.9 -07.4612 26275.2
 09 03 2013  10 28  -21.0370 26052.7 -03411.8 -07.4608 26275.2
 09 03 2013  10 29  -21.0367 26052.8 -03411.7 -07.4605 26275.3
 09 03 2013  10 30  -21.0365 26052.9 -03411.5 -07.4603 26275.3
 09 03 2013  10 31  -21.0365 26052.8 -03411.4 -07.4599 26275.2
 09 03 2013  10 32  -21.0365 26052.8 -03411.3 -07.4598 26275.2
 09 03 2013  10 33  -21.0364 26052.9 -03411.3 -07.4596 26275.2
 09 03 2013  10 34  -21.0366 26053.0 -03411.3 -07.4596 26275.4
 09 03 2013  10 35  -21.0365 26053.4 -03411.3 -07.4596 26275.8
 09 03 2013  10 36  -21.0365 26053.7 -03411.3 -07.4595 26276.1
 09 03 2013  10 37  -21.0367 26053.8 -03411.3 -07.4594 26276.2
 09 03 2013  10 38  -21.0365 26054.1 -03411.3 -07.4593 26276.5
 09 03 2013  10 39  -21.0361 26054.4 -03411.3 -07.4593 26276.8
 09 03 2013  10 40  -21.0355 26054.6 -03411.2 -07.4590 26276.9
 09 03 2013  10 41  -21.0349 26054.6 -03411.1 -07.4588 26277.0
 09 03 2013  10 42  -21.0348 26054.6 -03411.0 -07.4585 26276.9
 09 03 2013  10 43  -21.0348 26054.6 -03410.9 -07.4583 26276.9
 09 03 2013  10 44  -21.0349 26054.7 -03410.8 -07.4582 26277.0
 09 03 2013  10 45  -21.0349 26054.8 -03410.7 -07.4580 26277.1
 09 03 2013  10 46  -21.0351 26054.9 -03410.7 -07.4579 26277.2
 09 03 2013  10 47  -21.0352 26055.0 -03410.7 -07.4578 26277.3
 09 03 2013  10 48  -21.0349 26054.9 -03410.5 -07.4574 26277.2
 09 03 2013  10 49  -21.0343 26054.6 -03410.3 -07.4570 26276.9
 09 03 2013  10 50  -21.0348 26054.5 -03410.2 -07.4568 26276.8
 09 03 2013  10 51  -21.0347 26054.7 -03410.1 -07.4566 26276.9
 09 03 2013  10 52  -21.0337 26054.7 -03410.0 -07.4563 26276.9
 09 03 2013  10 53  -21.0332 26054.9 -03409.8 -07.4560 26277.1
 09 03 2013  10 54  -21.0330 26055.4 -03410.0 -07.4561 26277.6
 09 03 2013  10 55  -21.0328 26056.1 -03410.1 -07.4562 26278.3
 09 03 2013  10 56  -21.0328 26056.7 -03410.2 -07.4562 26278.9
 09 03 2013  10 57  -21.0321 26056.9 -03410.0 -07.4558 26279.1
 09 03 2013  10 58  -21.0314 26057.4 -03409.9 -07.4555 26279.5
 09 03 2013  10 59  -21.0311 26057.9 -03410.0 -07.4554 26280.0
 09 03 2013  11 00  -21.0310 26058.5 -03410.1 -07.4555 26280.7
 09 03 2013  11 01  -21.0313 26059.0 -03410.1 -07.4554 26281.2
 09 03 2013  11 02  -21.0316 26059.4 -03410.1 -07.4553 26281.6
 09 03 2013  11 03  -21.0315 26059.5 -03410.0 -07.4550 26281.6
 09 03 2013  11 04  -21.0314 26059.3 -03409.8 -07.4547 26281.4
 09 03 2013  11 05  -21.0315 26058.9 -03409.7 -07.4544 26281.1
 09 03 2013  11 06  -21.0316 26058.7 -03409.6 -07.4543 26280.8
 09 03 2013  11 07  -21.0316 26058.4 -03409.4 -07.4542 26280.5
 09 03 2013  11 08  -21.0315 26058.1 -03409.4 -07.4542 26280.2
 09 03 2013  11 09  -21.0314 26057.8 -03409.3 -07.4541 26279.9
 09 03 2013  11 10  -21.0312 26057.4 -03409.2 -07.4540 26279.4
 09 03 2013  11 11  -21.0308 26057.0 -03409.2 -07.4540 26279.1
 09 03 2013  11 12  -21.0304 26056.7 -03409.2 -07.4541 26278.8
 09 03 2013  11 13  -21.0302 26056.8 -03409.4 -07.4544 26278.9
 09 03 2013  11 14  -21.0301 26057.1 -03409.6 -07.4549 26279.2
 09 03 2013  11 15  -21.0304 26057.4 -03409.8 -07.4552 26279.5
 09 03 2013  11 16  -21.0301 26057.0 -03409.7 -07.4550 26279.2
 09 03 2013  11 17  -21.0299 26056.7 -03409.5 -07.4548 26278.8
 09 03 2013  11 18  -21.0305 26056.7 -03409.6 -07.4549 26278.9
 09 03 2013  11 19  -21.0310 26056.8 -03409.6 -07.4550 26279.0
 09 03 2013  11 20  -21.0315 26057.0 -03409.7 -07.4552 26279.1
 09 03 2013  11 21  -21.0321 26057.3 -03409.8 -07.4553 26279.4
 09 03 2013  11 22  -21.0322 26057.6 -03409.9 -07.4553 26279.7
 09 03 2013  11 23  -21.0319 26057.6 -03409.8 -07.4552 26279.8
 09 03 2013  11 24  -21.0315 26057.8 -03409.9 -07.4553 26280.0
 09 03 2013  11 25  -21.0313 26058.1 -03409.9 -07.4553 26280.3
 09 03 2013  11 26  -21.0314 26058.7 -03410.1 -07.4555 26280.9
 09 03 2013  11 27  -21.0316 26059.6 -03410.4 -07.4560 26281.8
 09 03 2013  11 28  -21.0316 26060.0 -03410.5 -07.4561 26282.2
 09 03 2013  11 29  -21.0313 26060.5 -03410.6 -07.4561 26282.7
 09 03 2013  11 30  -21.0311 26061.1 -03410.7 -07.4561 26283.4
 09 03 2013  11 31  -21.0311 26061.6 -03410.7 -07.4560 26283.8
 09 03 2013  11 32  -21.0314 26062.1 -03410.8 -07.4559 26284.4
 09 03 2013  11 33  -21.0316 26062.4 -03410.6 -07.4556 26284.7
 09 03 2013  11 34  -21.0320 26062.5 -03410.4 -07.4551 26284.7
 09 03 2013  11 35  -21.0324 26062.4 -03410.2 -07.4546 26284.6
 09 03 2013  11 36  -21.0328 26062.1 -03410.0 -07.4543 26284.2
 09 03 2013  11 37  -21.0333 26061.9 -03409.9 -07.4541 26284.0
 09 03 2013  11 38  -21.0336 26061.8 -03409.9 -07.4541 26283.9
 09 03 2013  11 39  -21.0336 26061.8 -03409.9 -07.4542 26283.9
 09 03 2013  11 40  -21.0332 26061.7 -03409.9 -07.4542 26283.8
 09 03 2013  11 41  -21.0334 26061.3 -03409.8 -07.4541 26283.5
 09 03 2013  11 42  -21.0335 26061.0 -03409.8 -07.4541 26283.2
 09 03 2013  11 43  -21.0335 26060.7 -03409.8 -07.4542 26282.8
 09 03 2013  11 44  -21.0334 26060.5 -03409.8 -07.4543 26282.6
 09 03 2013  11 45  -21.0335 26060.5 -03409.9 -07.4545 26282.7
 09 03 2013  11 46  -21.0332 26060.6 -03410.0 -07.4546 26282.7
 09 03 2013  11 47  -21.0333 26060.8 -03410.1 -07.4548 26282.9
 09 03 2013  11 48  -21.0332 26061.0 -03410.2 -07.4550 26283.2
 09 03 2013  11 49  -21.0329 26061.1 -03410.2 -07.4550 26283.3
 09 03 2013  11 50  -21.0327 26061.2 -03410.2 -07.4550 26283.4
 09 03 2013  11 51  -21.0326 26061.2 -03410.2 -07.4550 26283.4
 09 03 2013  11 52  -21.0327 26061.1 -03410.2 -07.4550 26283.3
 09 03 2013  11 53  -21.0325 26061.3 -03410.3 -07.4552 26283.5
 09 03 2013  11 54  -21.0327 26061.1 -03410.2 -07.4550 26283.2
 09 03 2013  11 55  -21.0329 26061.4 -03410.3 -07.4551 26283.5
 09 03 2013  11 56  -21.0330 26061.6 -03410.3 -07.4552 26283.7
 09 03 2013  11 57  -21.0330 26061.9 -03410.5 -07.4554 26284.1
 09 03 2013  11 58  -21.0331 26062.3 -03410.6 -07.4555 26284.6
 09 03 2013  11 59  -21.0334 26062.7 -03410.7 -07.4556 26284.9
 09 03 2013  12 00  -21.0337 26062.9 -03410.7 -07.4556 26285.2
 09 03 2013  12 01  -21.0341 26063.3 -03410.7 -07.4556 26285.5
 09 03 2013  12 02  -21.0344 26063.8 -03410.9 -07.4557 26286.0
 09 03 2013  12 03  -21.0345 26063.8 -03410.8 -07.4555 26286.0
 09 03 2013  12 04  -21.0350 26064.2 -03410.8 -07.4555 26286.5
 09 03 2013  12 05  -21.0353 26064.1 -03410.7 -07.4552 26286.3
 09 03 2013  12 06  -21.0356 26064.5 -03410.7 -07.4552 26286.7
 09 03 2013  12 07  -21.0359 26064.1 -03410.5 -07.4547 26286.3
 09 03 2013  12 08  -21.0356 26064.6 -03410.6 -07.4549 26286.8
 09 03 2013  12 09  -21.0354 26064.9 -03410.6 -07.4548 26287.1
 09 03 2013  12 10  -21.0356 26065.3 -03410.7 -07.4548 26287.5
 09 03 2013  12 11  -21.0353 26066.0 -03410.8 -07.4549 26288.2
 09 03 2013  12 12  -21.0353 26066.6 -03410.9 -07.4549 26288.8
 09 03 2013  12 13  -21.0356 26067.1 -03410.9 -07.4548 26289.3
 09 03 2013  12 14  -21.0362 26067.4 -03410.9 -07.4548 26289.7
 09 03 2013  12 15  -21.0363 26068.1 -03411.1 -07.4549 26290.3
 09 03 2013  12 16  -21.0365 26068.4 -03411.0 -07.4547 26290.6
 09 03 2013  12 17  -21.0365 26068.9 -03411.1 -07.4546 26291.1
 09 03 2013  12 18  -21.0365 26069.4 -03411.1 -07.4545 26291.6
 09 03 2013  12 19  -21.0364 26069.8 -03411.0 -07.4544 26292.1
 09 03 2013  12 20  -21.0360 26070.2 -03410.9 -07.4540 26292.4
 09 03 2013  12 21  -21.0365 26070.4 -03410.9 -07.4539 26292.5
 09 03 2013  12 22  -21.0371 26070.2 -03410.7 -07.4536 26292.4
 09 03 2013  12 23  -21.0380 26069.9 -03410.5 -07.4532 26292.0
 09 03 2013  12 24  -21.0386 26070.2 -03410.7 -07.4534 26292.4
 09 03 2013  12 25  -21.0389 26070.6 -03410.7 -07.4534 26292.7
 09 03 2013  12 26  -21.0397 26070.6 -03410.7 -07.4534 26292.7
 09 03 2013  12 27  -21.0401 26070.4 -03410.6 -07.4532 26292.5
 09 03 2013  12 28  -21.0402 26070.6 -03410.6 -07.4531 26292.7
 09 03 2013  12 29  -21.0407 26070.5 -03410.5 -07.4530 26292.6
 09 03 2013  12 30  -21.0411 26070.3 -03410.4 -07.4529 26292.4
 09 03 2013  12 31  -21.0416 26070.3 -03410.4 -07.4529 26292.4
 09 03 2013  12 32  -21.0422 26069.9 -03410.3 -07.4527 26292.0
 09 03 2013  12 33  -21.0426 26069.3 -03410.0 -07.4523 26291.4
 09 03 2013  12 34  -21.0431 26069.4 -03410.1 -07.4525 26291.5
 09 03 2013  12 35  -21.0435 26070.2 -03410.5 -07.4531 26292.4
 09 03 2013  12 36  -21.0432 26070.9 -03410.8 -07.4535 26293.1
 09 03 2013  12 37  -21.0434 26071.8 -03411.1 -07.4540 26294.0
 09 03 2013  12 38  -21.0435 26072.0 -03411.2 -07.4541 26294.3
 09 03 2013  12 39  -21.0433 26072.4 -03411.3 -07.4542 26294.6
 09 03 2013  12 40  -21.0431 26073.1 -03411.5 -07.4544 26295.4
 09 03 2013  12 41  -21.0432 26074.4 -03411.8 -07.4548 26296.6
 09 03 2013  12 42  -21.0435 26076.0 -03412.2 -07.4552 26298.3
 09 03 2013  12 43  -21.0441 26076.5 -03412.1 -07.4548 26298.8
 09 03 2013  12 44  -21.0449 26076.7 -03411.9 -07.4542 26298.9
 09 03 2013  12 45  -21.0458 26076.6 -03411.6 -07.4537 26298.8
 09 03 2013  12 46  -21.0466 26076.5 -03411.5 -07.4535 26298.7
 09 03 2013  12 47  -21.0470 26076.3 -03411.4 -07.4534 26298.5
 09 03 2013  12 48  -21.0470 26076.1 -03411.5 -07.4535 26298.3
 09 03 2013  12 49  -21.0470 26076.1 -03411.6 -07.4538 26298.4
 09 03 2013  12 50  -21.0477 26075.9 -03411.7 -07.4540 26298.1
 09 03 2013  12 51  -21.0488 26075.8 -03411.9 -07.4545 26298.1
 09 03 2013  12 52  -21.0498 26075.8 -03412.0 -07.4549 26298.0
 09 03 2013  12 53  -21.0508 26075.3 -03412.0 -07.4549 26297.6
 09 03 2013  12 54  -21.0514 26074.7 -03412.0 -07.4550 26297.0
 09 03 2013  12 55  -21.0518 26074.1 -03412.0 -07.4552 26296.4
 09 03 2013  12 56  -21.0521 26073.5 -03412.0 -07.4554 26295.8
 09 03 2013  12 57  -21.0523 26073.2 -03412.1 -07.4557 26295.5
 09 03 2013  12 58  -21.0526 26072.8 -03412.3 -07.4562 26295.1
 09 03 2013  12 59  -21.0528 26072.4 -03412.4 -07.4566 26294.8
 09 03 2013  13 00  -21.0530 26072.0 -03412.6 -07.4570 26294.4
 09 03 2013  13 01  -21.0531 26072.0 -03412.8 -07.4576 26294.4
 09 03 2013  13 02  -21.0531 26072.1 -03413.1 -07.4581 26294.6
 09 03 2013  13 03  -21.0532 26072.9 -03413.5 -07.4589 26295.4
 09 03 2013  13 04  -21.0533 26073.6 -03413.9 -07.4594 26296.1
 09 03 2013  13 05  -21.0534 26074.3 -03414.1 -07.4598 26296.9
 09 03 2013  13 06  -21.0534 26075.1 -03414.3 -07.4600 26297.7
 09 03 2013  13 07  -21.0536 26075.6 -03414.4 -07.4599 26298.2
 09 03 2013  13 08  -21.0539 26076.1 -03414.4 -07.4599 26298.7
 09 03 2013  13 09  -21.0542 26076.6 -03414.5 -07.4599 26299.2
 09 03 2013  13 10  -21.0547 26077.3 -03414.6 -07.4599 26299.9
 09 03 2013  13 11  -21.0552 26078.5 -03414.8 -07.4600 26301.1
 09 03 2013  13 12  -21.0559 26079.0 -03414.7 -07.4596 26301.6
 09 03 2013  13 13  -21.0566 26079.2 -03414.4 -07.4590 26301.8
 09 03 2013  13 14  -21.0571 26079.8 -03414.3 -07.4586 26302.3
 09 03 2013  13 15  -21.0577 26080.3 -03414.1 -07.4581 26302.8
 09 03 2013  13 16  -21.0586 26080.8 -03414.0 -07.4577 26303.3
 09 03 2013  13 17  -21.0590 26081.2 -03413.8 -07.4571 26303.6
 09 03 2013  13 18  -21.0593 26081.5 -03413.5 -07.4564 26304.0
 09 03 2013  13 19  -21.0597 26081.9 -03413.3 -07.4559 26304.3
 09 03 2013  13 20  -21.0605 26081.9 -03413.1 -07.4553 26304.2
 09 03 2013  13 21  -21.0612 26082.3 -03413.0 -07.4550 26304.6
 09 03 2013  13 22  -21.0617 26083.0 -03413.0 -07.4548 26305.4
 09 03 2013  13 23  -21.0622 26083.7 -03412.9 -07.4545 26306.0
 09 03 2013  13 24  -21.0624 26083.6 -03412.6 -07.4537 26305.9
 09 03 2013  13 25  -21.0628 26083.6 -03412.3 -07.4532 26305.8
 09 03 2013  13 26  -21.0633 26083.6 -03412.0 -07.4526 26305.8
 09 03 2013  13 27  -21.0642 26083.8 -03411.9 -07.4524 26306.0
 09 03 2013  13 28  -21.0651 26083.9 -03411.8 -07.4521 26306.1
 09 03 2013  13 29  -21.0654 26084.6 -03411.9 -07.4520 26306.8
 09 03 2013  13 30  -21.0659 26084.8 -03411.7 -07.4515 26307.0
 09 03 2013  13 31  -21.0664 26084.8 -03411.5 -07.4511 26307.0
 09 03 2013  13 32  -21.0669 26084.8 -03411.3 -07.4507 26306.9
 09 03 2013  13 33  -21.0668 26084.5 -03411.0 -07.4501 26306.5
 09 03 2013  13 34  -21.0671 26084.4 -03410.9 -07.4499 26306.5
 09 03 2013  13 35  -21.0675 26084.4 -03410.8 -07.4497 26306.5
 09 03 2013  13 36  -21.0682 26084.3 -03410.7 -07.4494 26306.3
 09 03 2013  13 37  -21.0688 26084.1 -03410.5 -07.4491 26306.1
 09 03 2013  13 38  -21.0688 26083.7 -03410.2 -07.4487 26305.7
 09 03 2013  13 39  -21.0688 26083.6 -03410.1 -07.4485 26305.6
 09 03 2013  13 40  -21.0688 26083.7 -03410.1 -07.4485 26305.6
 09 03 2013  13 41  -21.0686 26083.5 -03410.0 -07.4483 26305.4
 09 03 2013  13 42  -21.0688 26083.5 -03410.1 -07.4484 26305.5
 09 03 2013  13 43  -21.0690 26083.7 -03410.1 -07.4485 26305.7
 09 03 2013  13 44  -21.0694 26083.7 -03410.1 -07.4483 26305.7
 09 03 2013  13 45  -21.0699 26083.9 -03410.1 -07.4483 26305.9
 09 03 2013  13 46  -21.0697 26084.3 -03410.1 -07.4482 26306.3
 09 03 2013  13 47  -21.0695 26084.5 -03409.9 -07.4478 26306.5
 09 03 2013  13 48  -21.0697 26084.1 -03409.6 -07.4472 26306.0
 09 03 2013  13 49  -21.0703 26084.3 -03409.5 -07.4470 26306.2
 09 03 2013  13 50  -21.0708 26084.3 -03409.4 -07.4467 26306.1
 09 03 2013  13 51  -21.0709 26084.4 -03409.3 -07.4464 26306.2
 09 03 2013  13 52  -21.0707 26084.6 -03409.1 -07.4461 26306.4
 09 03 2013  13 53  -21.0702 26084.8 -03409.0 -07.4458 26306.6
 09 03 2013  13 54  -21.0700 26084.8 -03408.8 -07.4452 26306.5
 09 03 2013  13 55  -21.0700 26084.5 -03408.5 -07.4448 26306.2
 09 03 2013  13 56  -21.0699 26084.4 -03408.3 -07.4444 26306.2
 09 03 2013  13 57  -21.0696 26084.5 -03408.3 -07.4442 26306.2
 09 03 2013  13 58  -21.0697 26084.2 -03408.1 -07.4439 26305.9
 09 03 2013  13 59  -21.0695 26084.2 -03408.0 -07.4438 26305.9
 09 03 2013  14 00  -21.0689 26084.2 -03407.9 -07.4435 26305.9
 09 03 2013  14 01  -21.0683 26084.5 -03407.9 -07.4435 26306.2
 09 03 2013  14 02  -21.0679 26084.8 -03407.9 -07.4434 26306.4
 09 03 2013  14 03  -21.0675 26084.3 -03407.6 -07.4428 26306.0
 09 03 2013  14 04  -21.0674 26083.7 -03407.3 -07.4423 26305.3
 09 03 2013  14 05  -21.0675 26084.1 -03407.4 -07.4425 26305.7
 09 03 2013  14 06  -21.0672 26084.1 -03407.3 -07.4423 26305.7
 09 03 2013  14 07  -21.0661 26083.5 -03406.9 -07.4416 26305.0
 09 03 2013  14 08  -21.0656 26082.5 -03406.6 -07.4411 26304.1
 09 03 2013  14 09  -21.0650 26082.9 -03406.8 -07.4414 26304.4
 09 03 2013  14 10  -21.0644 26083.6 -03407.0 -07.4418 26305.1
 09 03 2013  14 11  -21.0638 26083.3 -03406.9 -07.4416 26304.9
 09 03 2013  14 12  -21.0630 26083.0 -03406.7 -07.4413 26304.5
 09 03 2013  14 13  -21.0621 26083.0 -03406.8 -07.4414 26304.6
 09 03 2013  14 14  -21.0615 26083.1 -03406.9 -07.4416 26304.7
 09 03 2013  14 15  -21.0607 26082.7 -03406.7 -07.4414 26304.3
 09 03 2013  14 16  -21.0596 26082.5 -03406.7 -07.4414 26304.1
 09 03 2013  14 17  -21.0588 26082.8 -03406.9 -07.4418 26304.4
 09 03 2013  14 18  -21.0581 26083.5 -03407.2 -07.4422 26305.0
 09 03 2013  14 19  -21.0574 26083.6 -03407.2 -07.4422 26305.2
 09 03 2013  14 20  -21.0568 26083.3 -03407.1 -07.4420 26304.9
 09 03 2013  14 21  -21.0562 26083.2 -03407.0 -07.4419 26304.8
 09 03 2013  14 22  -21.0555 26083.4 -03407.1 -07.4420 26305.0
 09 03 2013  14 23  -21.0547 26083.4 -03407.1 -07.4420 26305.0
 09 03 2013  14 24  -21.0539 26082.9 -03406.9 -07.4417 26304.4
 09 03 2013  14 25  -21.0532 26082.6 -03406.8 -07.4416 26304.1
 09 03 2013  14 26  -21.0526 26082.5 -03406.9 -07.4418 26304.0
 09 03 2013  14 27  -21.0519 26081.8 -03406.7 -07.4416 26303.4
 09 03 2013  14 28  -21.0509 26081.3 -03406.6 -07.4416 26302.9
 09 03 2013  14 29  -21.0502 26081.4 -03406.8 -07.4419 26303.0
 09 03 2013  14 30  -21.0495 26081.9 -03407.1 -07.4424 26303.5
 09 03 2013  14 31  -21.0490 26082.0 -03407.2 -07.4426 26303.6
 09 03 2013  14 32  -21.0487 26081.5 -03407.0 -07.4423 26303.1
 09 03 2013  14 33  -21.0486 26081.3 -03407.0 -07.4424 26302.9
 09 03 2013  14 34  -21.0481 26081.5 -03407.2 -07.4427 26303.1
 09 03 2013  14 35  -21.0475 26081.2 -03407.1 -07.4426 26302.8
 09 03 2013  14 36  -21.0467 26080.7 -03406.9 -07.4424 26302.3
 09 03 2013  14 37  -21.0459 26080.7 -03407.1 -07.4427 26302.3
 09 03 2013  14 38  -21.0452 26080.7 -03407.1 -07.4429 26302.3
 09 03 2013  14 39  -21.0450 26080.3 -03407.1 -07.4429 26301.9
 09 03 2013  14 40  -21.0443 26079.5 -03406.9 -07.4427 26301.1
 09 03 2013  14 41  -21.0434 26079.8 -03407.1 -07.4431 26301.4
 09 03 2013  14 42  -21.0429 26079.7 -03407.3 -07.4435 26301.4
 09 03 2013  14 43  -21.0420 26078.6 -03407.1 -07.4434 26300.2
 09 03 2013  14 44  -21.0410 26077.9 -03407.2 -07.4437 26299.5
 09 03 2013  14 45  -21.0400 26077.3 -03407.4 -07.4443 26299.0
 09 03 2013  14 46  -21.0391 26077.5 -03407.9 -07.4454 26299.2
 09 03 2013  14 47  -21.0385 26077.9 -03408.4 -07.4465 26299.7
 09 03 2013  14 48  -21.0379 26078.2 -03408.9 -07.4473 26300.1
 09 03 2013  14 49  -21.0372 26078.9 -03409.4 -07.4483 26300.9
 09 03 2013  14 50  -21.0364 26079.0 -03409.7 -07.4489 26301.0
 09 03 2013  14 51  -21.0357 26078.0 -03409.6 -07.4489 26300.0
 09 03 2013  14 52  -21.0349 26077.5 -03409.7 -07.4492 26299.4
 09 03 2013  14 53  -21.0346 26078.2 -03410.2 -07.4502 26300.2
 09 03 2013  14 54  -21.0345 26079.4 -03410.8 -07.4512 26301.5
 09 03 2013  14 55  -21.0344 26080.6 -03411.3 -07.4518 26302.8
 09 03 2013  14 56  -21.0337 26080.9 -03411.2 -07.4515 26303.1
 09 03 2013  14 57  -21.0331 26080.6 -03410.8 -07.4509 26302.7
 09 03 2013  14 58  -21.0322 26080.5 -03410.6 -07.4505 26302.6
 09 03 2013  14 59  -21.0313 26080.6 -03410.6 -07.4504 26302.6
 09 03 2013  15 00  -21.0317 26082.6 -03411.4 -07.4515 26304.7
 09 03 2013  15 01  -21.0321 26083.6 -03411.5 -07.4515 26305.8
 09 03 2013  15 02  -21.0317 26082.6 -03410.7 -07.4500 26304.7
 09 03 2013  15 03  -21.0309 26081.3 -03410.0 -07.4489 26303.3
 09 03 2013  15 04  -21.0307 26080.6 -03409.8 -07.4487 26302.6
 09 03 2013  15 05  -21.0298 26079.3 -03409.5 -07.4483 26301.2
 09 03 2013  15 06  -21.0289 26078.1 -03409.3 -07.4482 26300.0
 09 03 2013  15 07  -21.0279 26077.6 -03409.5 -07.4488 26299.5
 09 03 2013  15 08  -21.0271 26077.2 -03409.8 -07.4496 26299.2
 09 03 2013  15 09  -21.0265 26076.7 -03410.0 -07.4502 26298.7
 09 03 2013  15 10  -21.0259 26076.1 -03410.2 -07.4507 26298.2
 09 03 2013  15 11  -21.0253 26075.8 -03410.4 -07.4514 26297.9
 09 03 2013  15 12  -21.0247 26075.7 -03410.8 -07.4523 26297.9
 09 03 2013  15 13  -21.0246 26076.2 -03411.5 -07.4536 26298.4
 09 03 2013  15 14  -21.0242 26076.5 -03411.9 -07.4544 26298.7
 09 03 2013  15 15  -21.0237 26076.8 -03412.3 -07.4552 26299.1
 09 03 2013  15 16  -21.0233 26077.0 -03412.7 -07.4558 26299.4
 09 03 2013  15 17  -21.0228 26076.7 -03412.6 -07.4559 26299.1
 09 03 2013  15 18  -21.0219 26076.1 -03412.5 -07.4557 26298.4
 09 03 2013  15 19  -21.0210 26075.3 -03412.3 -07.4556 26297.6
 09 03 2013  15 20  -21.0199 26074.6 -03412.4 -07.4558 26297.0
 09 03 2013  15 21  -21.0191 26074.1 -03412.5 -07.4563 26296.5
 09 03 2013  15 22  -21.0182 26073.4 -03412.6 -07.4566 26295.8
 09 03 2013  15 23  -21.0175 26073.3 -03412.9 -07.4573 26295.7
 09 03 2013  15 24  -21.0171 26073.1 -03413.1 -07.4579 26295.5
 09 03 2013  15 25  -21.0163 26073.1 -03413.4 -07.4585 26295.5
 09 03 2013  15 26  -21.0160 26072.9 -03413.7 -07.4592 26295.4
 09 03 2013  15 27  -21.0155 26072.5 -03413.7 -07.4595 26295.0
 09 03 2013  15 28  -21.0148 26072.4 -03414.0 -07.4601 26295.0
 09 03 2013  15 29  -21.0141 26072.6 -03414.4 -07.4609 26295.2
 09 03 2013  15 30  -21.0144 26073.6 -03415.1 -07.4620 26296.3
 09 03 2013  15 31  -21.0142 26073.8 -03415.3 -07.4624 26296.5
 09 03 2013  15 32  -21.0138 26073.7 -03415.3 -07.4625 26296.4
 09 03 2013  15 33  -21.0135 26074.2 -03415.7 -07.4631 26296.9
 09 03 2013  15 34  -21.0133 26074.4 -03415.9 -07.4635 26297.2
 09 03 2013  15 35  -21.0130 26074.5 -03416.0 -07.4637 26297.3
 09 03 2013  15 36  -21.0128 26074.6 -03416.1 -07.4640 26297.4
 09 03 2013  15 37  -21.0128 26074.5 -03416.2 -07.4641 26297.3
 09 03 2013  15 38  -21.0125 26074.1 -03416.1 -07.4641 26297.0
 09 03 2013  15 39  -21.0125 26074.0 -03416.2 -07.4643 26296.8
 09 03 2013  15 40  -21.0125 26073.8 -03416.3 -07.4645 26296.7
 09 03 2013  15 41  -21.0122 26073.8 -03416.4 -07.4648 26296.6
 09 03 2013  15 42  -21.0123 26073.8 -03416.6 -07.4653 26296.7
 09 03 2013  15 43  -21.0125 26073.8 -03416.7 -07.4655 26296.7
 09 03 2013  15 44  -21.0127 26073.5 -03416.7 -07.4656 26296.4
 09 03 2013  15 45  -21.0128 26073.2 -03416.7 -07.4656 26296.2
 09 03 2013  15 46  -21.0128 26073.1 -03416.7 -07.4656 26296.0
 09 03 2013  15 47  -21.0129 26072.8 -03416.7 -07.4657 26295.7
 09 03 2013  15 48  -21.0130 26072.6 -03416.8 -07.4660 26295.6
 09 03 2013  15 49  -21.0129 26072.5 -03416.9 -07.4663 26295.5
 09 03 2013  15 50  -21.0127 26072.5 -03417.1 -07.4667 26295.5
 09 03 2013  15 51  -21.0129 26072.8 -03417.3 -07.4671 26295.8
 09 03 2013  15 52  -21.0131 26072.9 -03417.4 -07.4672 26295.9
 09 03 2013  15 53  -21.0131 26072.9 -03417.5 -07.4673 26296.0
 09 03 2013  15 54  -21.0132 26072.9 -03417.5 -07.4674 26296.0
 09 03 2013  15 55  -21.0132 26072.9 -03417.5 -07.4674 26295.9
 09 03 2013  15 56  -21.0135 26072.8 -03417.5 -07.4675 26295.8
 09 03 2013  15 57  -21.0136 26072.7 -03417.5 -07.4676 26295.8
 09 03 2013  15 58  -21.0135 26072.8 -03417.6 -07.4677 26295.8
 09 03 2013  15 59  -21.0137 26073.1 -03417.9 -07.4682 26296.2
 09 03 2013  16 00  -21.0140 26073.1 -03417.9 -07.4682 26296.2
 09 03 2013  16 01  -21.0142 26072.8 -03417.7 -07.4680 26295.8
 09 03 2013  16 02  -21.0141 26072.3 -03417.5 -07.4677 26295.3
 09 03 2013  16 03  -21.0141 26072.1 -03417.5 -07.4678 26295.1
 09 03 2013  16 04  -21.0145 26072.4 -03417.8 -07.4682 26295.5
 09 03 2013  16 05  -21.0150 26072.7 -03418.0 -07.4685 26295.8
 09 03 2013  16 06  -21.0153 26072.9 -03418.1 -07.4686 26296.0
 09 03 2013  16 07  -21.0156 26073.2 -03418.2 -07.4688 26296.3
 09 03 2013  16 08  -21.0161 26073.4 -03418.2 -07.4688 26296.5
 09 03 2013  16 09  -21.0163 26073.5 -03418.1 -07.4687 26296.6
 09 03 2013  16 10  -21.0165 26073.3 -03418.0 -07.4684 26296.4
 09 03 2013  16 11  -21.0165 26072.9 -03417.9 -07.4682 26296.0
 09 03 2013  16 12  -21.0165 26072.7 -03417.8 -07.4681 26295.8
 09 03 2013  16 13  -21.0167 26072.6 -03417.7 -07.4681 26295.7
 09 03 2013  16 14  -21.0171 26072.7 -03417.8 -07.4681 26295.7
 09 03 2013  16 15  -21.0173 26072.6 -03417.7 -07.4680 26295.7
 09 03 2013  16 16  -21.0175 26072.6 -03417.7 -07.4680 26295.7
 09 03 2013  16 17  -21.0175 26072.5 -03417.6 -07.4678 26295.5
 09 03 2013  16 18  -21.0176 26072.4 -03417.5 -07.4677 26295.5
 09 03 2013  16 19  -21.0175 26072.3 -03417.5 -07.4676 26295.4
 09 03 2013  16 20  -21.0169 26072.1 -03417.4 -07.4675 26295.1
 09 03 2013  16 21  -21.0166 26071.7 -03417.3 -07.4674 26294.7
 09 03 2013  16 22  -21.0164 26071.7 -03417.4 -07.4675 26294.7
 09 03 2013  16 23  -21.0164 26071.8 -03417.5 -07.4677 26294.9
 09 03 2013  16 24  -21.0162 26071.8 -03417.5 -07.4677 26294.8
 09 03 2013  16 25  -21.0160 26071.7 -03417.4 -07.4677 26294.7
 09 03 2013  16 26  -21.0157 26071.8 -03417.6 -07.4679 26294.8
 09 03 2013  16 27  -21.0156 26071.9 -03417.7 -07.4681 26295.0
 09 03 2013  16 28  -21.0157 26072.1 -03417.8 -07.4683 26295.2
 09 03 2013  16 29  -21.0156 26072.2 -03417.8 -07.4684 26295.3
 09 03 2013  16 30  -21.0155 26072.2 -03417.8 -07.4683 26295.3
 09 03 2013  16 31  -21.0153 26072.2 -03417.8 -07.4683 26295.2
 09 03 2013  16 32  -21.0151 26072.1 -03417.8 -07.4683 26295.2
 09 03 2013  16 33  -21.0150 26072.1 -03417.9 -07.4684 26295.2
 09 03 2013  16 34  -21.0151 26072.3 -03418.0 -07.4686 26295.3
 09 03 2013  16 35  -21.0150 26072.3 -03418.0 -07.4687 26295.4
 09 03 2013  16 36  -21.0149 26072.2 -03418.0 -07.4686 26295.3
 09 03 2013  16 37  -21.0147 26072.2 -03418.0 -07.4686 26295.3
 09 03 2013  16 38  -21.0148 26072.2 -03418.0 -07.4688 26295.3
 09 03 2013  16 39  -21.0148 26072.0 -03417.9 -07.4686 26295.1
 09 03 2013  16 40  -21.0146 26071.8 -03417.9 -07.4686 26294.9
 09 03 2013  16 41  -21.0145 26071.7 -03417.9 -07.4687 26294.8
 09 03 2013  16 42  -21.0144 26071.8 -03418.1 -07.4690 26295.0
 09 03 2013  16 43  -21.0144 26072.0 -03418.2 -07.4693 26295.1
 09 03 2013  16 44  -21.0145 26072.3 -03418.4 -07.4696 26295.4
 09 03 2013  16 45  -21.0146 26072.5 -03418.6 -07.4699 26295.7
 09 03 2013  16 46  -21.0146 26072.7 -03418.6 -07.4700 26295.9
 09 03 2013  16 47  -21.0145 26072.7 -03418.6 -07.4700 26295.9
 09 03 2013  16 48  -21.0144 26072.8 -03418.7 -07.4700 26295.9
 09 03 2013  16 49  -21.0145 26072.9 -03418.8 -07.4702 26296.1
 09 03 2013  16 50  -21.0146 26073.2 -03418.9 -07.4704 26296.4
 09 03 2013  16 51  -21.0149 26073.3 -03418.9 -07.4705 26296.5
 09 03 2013  16 52  -21.0150 26073.3 -03418.9 -07.4704 26296.5
 09 03 2013  16 53  -21.0149 26073.2 -03418.9 -07.4704 26296.3
 09 03 2013  16 54  -21.0148 26072.8 -03418.7 -07.4701 26295.9
 09 03 2013  16 55  -21.0148 26072.4 -03418.6 -07.4699 26295.6
 09 03 2013  16 56  -21.0147 26072.1 -03418.6 -07.4700 26295.2
 09 03 2013  16 57  -21.0147 26071.8 -03418.6 -07.4701 26295.0
 09 03 2013  16 58  -21.0147 26071.8 -03418.7 -07.4704 26295.0
 09 03 2013  16 59  -21.0148 26071.9 -03418.9 -07.4708 26295.1
 09 03 2013  17 00  -21.0148 26072.0 -03419.1 -07.4711 26295.2
 09 03 2013  17 01  -21.0149 26072.0 -03419.2 -07.4714 26295.3
 09 03 2013  17 02  -21.0149 26072.1 -03419.4 -07.4717 26295.4
 09 03 2013  17 03  -21.0150 26072.3 -03419.6 -07.4721 26295.6
 09 03 2013  17 04  -21.0153 26072.4 -03419.8 -07.4725 26295.7
 09 03 2013  17 05  -21.0157 26072.5 -03419.9 -07.4727 26295.8
 09 03 2013  17 06  -21.0161 26072.5 -03420.0 -07.4729 26295.8
 09 03 2013  17 07  -21.0165 26072.4 -03420.0 -07.4730 26295.8
 09 03 2013  17 08  -21.0167 26072.3 -03420.1 -07.4733 26295.7
 09 03 2013  17 09  -21.0171 26072.2 -03420.2 -07.4735 26295.5
 09 03 2013  17 10  -21.0175 26072.1 -03420.3 -07.4737 26295.5
 09 03 2013  17 11  -21.0180 26072.1 -03420.4 -07.4739 26295.5
 09 03 2013  17 12  -21.0186 26071.9 -03420.5 -07.4742 26295.4
 09 03 2013  17 13  -21.0191 26071.9 -03420.5 -07.4743 26295.3
 09 03 2013  17 14  -21.0197 26071.6 -03420.6 -07.4744 26295.0
 09 03 2013  17 15  -21.0203 26071.4 -03420.6 -07.4746 26294.9
 09 03 2013  17 16  -21.0210 26071.3 -03420.7 -07.4749 26294.8
 09 03 2013  17 17  -21.0217 26071.1 -03420.7 -07.4750 26294.6
 09 03 2013  17 18  -21.0222 26071.0 -03420.8 -07.4751 26294.4
 09 03 2013  17 19  -21.0227 26070.8 -03420.8 -07.4752 26294.3
 09 03 2013  17 20  -21.0231 26070.7 -03420.9 -07.4754 26294.2
 09 03 2013  17 21  -21.0236 26070.7 -03421.0 -07.4756 26294.2
 09 03 2013  17 22  -21.0239 26070.9 -03421.1 -07.4759 26294.4
 09 03 2013  17 23  -21.0244 26071.1 -03421.3 -07.4761 26294.6
 09 03 2013  17 24  -21.0247 26071.3 -03421.4 -07.4763 26294.9
 09 03 2013  17 25  -21.0253 26071.8 -03421.6 -07.4767 26295.3
 09 03 2013  17 26  -21.0257 26072.0 -03421.7 -07.4769 26295.6
 09 03 2013  17 27  -21.0261 26072.3 -03421.9 -07.4770 26295.9
 09 03 2013  17 28  -21.0267 26072.4 -03421.9 -07.4771 26296.0
 09 03 2013  17 29  -21.0273 26072.5 -03422.0 -07.4772 26296.1
 09 03 2013  17 30  -21.0277 26072.7 -03422.0 -07.4772 26296.3
 09 03 2013  17 31  -21.0284 26072.9 -03422.1 -07.4773 26296.5
 09 03 2013  17 32  -21.0289 26073.0 -03422.1 -07.4773 26296.6
 09 03 2013  17 33  -21.0295 26073.1 -03422.1 -07.4773 26296.7
 09 03 2013  17 34  -21.0300 26073.0 -03422.0 -07.4772 26296.6
 09 03 2013  17 35  -21.0306 26073.1 -03422.1 -07.4772 26296.7
 09 03 2013  17 36  -21.0313 26073.1 -03422.0 -07.4771 26296.7
 09 03 2013  17 37  -21.0317 26073.2 -03422.0 -07.4770 26296.8
 09 03 2013  17 38  -21.0321 26073.0 -03421.8 -07.4768 26296.5
 09 03 2013  17 39  -21.0324 26073.0 -03421.8 -07.4767 26296.5
 09 03 2013  17 40  -21.0329 26073.2 -03421.8 -07.4767 26296.8
 09 03 2013  17 41  -21.0334 26073.4 -03421.9 -07.4767 26297.0
 09 03 2013  17 42  -21.0339 26073.5 -03421.8 -07.4765 26297.0
 09 03 2013  17 43  -21.0344 26073.5 -03421.6 -07.4762 26297.0
 09 03 2013  17 44  -21.0348 26073.4 -03421.6 -07.4761 26296.9
 09 03 2013  17 45  -21.0352 26073.4 -03421.5 -07.4759 26296.9
 09 03 2013  17 46  -21.0357 26073.6 -03421.5 -07.4758 26297.1
 09 03 2013  17 47  -21.0363 26074.0 -03421.5 -07.4759 26297.5
 09 03 2013  17 48  -21.0367 26074.2 -03421.5 -07.4756 26297.7
 09 03 2013  17 49  -21.0372 26074.4 -03421.3 -07.4753 26297.9
 09 03 2013  17 50  -21.0378 26074.8 -03421.3 -07.4752 26298.3
 09 03 2013  17 51  -21.0383 26075.1 -03421.2 -07.4749 26298.6
 09 03 2013  17 52  -21.0387 26075.4 -03421.1 -07.4745 26298.8
 09 03 2013  17 53  -21.0395 26075.5 -03420.9 -07.4740 26298.9
 09 03 2013  17 54  -21.0400 26075.5 -03420.5 -07.4732 26298.9
 09 03 2013  17 55  -21.0404 26075.7 -03420.2 -07.4726 26299.0
 09 03 2013  17 56  -21.0409 26075.8 -03419.9 -07.4718 26299.1
 09 03 2013  17 57  -21.0413 26075.7 -03419.5 -07.4710 26298.9
 09 03 2013  17 58  -21.0418 26075.7 -03419.2 -07.4702 26298.9
 09 03 2013  17 59  -21.0424 26075.8 -03418.9 -07.4696 26299.0
 09 03 2013  18 00  -21.0431 26076.1 -03418.7 -07.4690 26299.3
 09 03 2013  18 01  -21.0435 26076.2 -03418.4 -07.4684 26299.3
 09 03 2013  18 02  -21.0439 26076.5 -03418.2 -07.4679 26299.6
 09 03 2013  18 03  -21.0445 26077.1 -03418.1 -07.4675 26300.2
 09 03 2013  18 04  -21.0452 26077.4 -03417.8 -07.4668 26300.5
 09 03 2013  18 05  -21.0458 26077.6 -03417.5 -07.4660 26300.6
 09 03 2013  18 06  -21.0459 26077.8 -03417.2 -07.4654 26300.7
 09 03 2013  18 07  -21.0461 26078.1 -03417.1 -07.4650 26301.0
 09 03 2013  18 08  -21.0472 26078.6 -03417.0 -07.4648 26301.5
 09 03 2013  18 09  -21.0483 26078.8 -03416.7 -07.4641 26301.6
 09 03 2013  18 10  -21.0493 26078.4 -03416.1 -07.4629 26301.2
 09 03 2013  18 11  -21.0503 26078.2 -03415.7 -07.4620 26300.9
 09 03 2013  18 12  -21.0507 26077.7 -03415.2 -07.4610 26300.4
 09 03 2013  18 13  -21.0516 26077.5 -03414.8 -07.4604 26300.1
 09 03 2013  18 14  -21.0517 26076.9 -03414.4 -07.4596 26299.5
 09 03 2013  18 15  -21.0517 26077.0 -03414.3 -07.4594 26299.6
 09 03 2013  18 16  -21.0521 26077.1 -03414.3 -07.4593 26299.7
 09 03 2013  18 17  -21.0529 26077.2 -03414.2 -07.4591 26299.8
 09 03 2013  18 18  -21.0533 26077.0 -03414.0 -07.4586 26299.6
 09 03 2013  18 19  -21.0538 26076.5 -03413.6 -07.4581 26299.0
 09 03 2013  18 20  -21.0539 26076.2 -03413.4 -07.4577 26298.7
 09 03 2013  18 21  -21.0544 26075.9 -03413.2 -07.4573 26298.4
 09 03 2013  18 22  -21.0548 26075.4 -03412.9 -07.4567 26297.8
 09 03 2013  18 23  -21.0548 26075.3 -03412.8 -07.4566 26297.6
 09 03 2013  18 24  -21.0551 26075.5 -03412.9 -07.4567 26297.9
 09 03 2013  18 25  -21.0558 26075.6 -03412.8 -07.4564 26298.0
 09 03 2013  18 26  -21.0562 26075.4 -03412.5 -07.4559 26297.7
 09 03 2013  18 27  -21.0568 26075.4 -03412.3 -07.4556 26297.7
 09 03 2013  18 28  -21.0572 26075.4 -03412.2 -07.4553 26297.8
 09 03 2013  18 29  -21.0579 26075.4 -03411.9 -07.4547 26297.6
 09 03 2013  18 30  -21.0582 26075.2 -03411.7 -07.4542 26297.4
 09 03 2013  18 31  -21.0585 26075.2 -03411.5 -07.4538 26297.4
 09 03 2013  18 32  -21.0588 26075.3 -03411.3 -07.4534 26297.5
 09 03 2013  18 33  -21.0591 26075.4 -03411.1 -07.4529 26297.6
 09 03 2013  18 34  -21.0594 26075.6 -03411.0 -07.4526 26297.7
 09 03 2013  18 35  -21.0595 26075.8 -03410.8 -07.4522 26297.9
 09 03 2013  18 36  -21.0599 26076.1 -03410.7 -07.4518 26298.3
 09 03 2013  18 37  -21.0600 26076.5 -03410.6 -07.4515 26298.5
 09 03 2013  18 38  -21.0605 26076.7 -03410.4 -07.4511 26298.8
 09 03 2013  18 39  -21.0610 26076.9 -03410.2 -07.4505 26298.9
 09 03 2013  18 40  -21.0612 26077.0 -03409.9 -07.4498 26299.0
 09 03 2013  18 41  -21.0616 26077.2 -03409.6 -07.4492 26299.2
 09 03 2013  18 42  -21.0619 26077.2 -03409.3 -07.4486 26299.1
 09 03 2013  18 43  -21.0621 26077.2 -03409.1 -07.4480 26299.1
 09 03 2013  18 44  -21.0626 26077.5 -03408.9 -07.4476 26299.3
 09 03 2013  18 45  -21.0632 26077.7 -03408.7 -07.4470 26299.5
 09 03 2013  18 46  -21.0636 26077.6 -03408.2 -07.4461 26299.4
 09 03 2013  18 47  -21.0638 26077.5 -03407.9 -07.4454 26299.3
 09 03 2013  18 48  -21.0643 26077.4 -03407.5 -07.4447 26299.1
 09 03 2013  18 49  -21.0645 26077.0 -03407.1 -07.4437 26298.7
 09 03 2013  18 50  -21.0641 26076.5 -03406.5 -07.4427 26298.1
 09 03 2013  18 51  -21.0638 26076.1 -03406.1 -07.4420 26297.7
 09 03 2013  18 52  -21.0639 26076.1 -03406.0 -07.4416 26297.6
 09 03 2013  18 53  -21.0643 26076.1 -03405.7 -07.4411 26297.6
 09 03 2013  18 54  -21.0647 26075.6 -03405.2 -07.4401 26297.0
 09 03 2013  18 55  -21.0652 26075.2 -03404.7 -07.4392 26296.5
 09 03 2013  18 56  -21.0655 26074.7 -03404.3 -07.4383 26296.0
 09 03 2013  18 57  -21.0654 26074.0 -03403.7 -07.4373 26295.2
 09 03 2013  18 58  -21.0648 26073.4 -03403.2 -07.4364 26294.6
 09 03 2013  18 59  -21.0638 26073.7 -03403.2 -07.4363 26294.9
 09 03 2013  19 00  -21.0632 26074.6 -03403.4 -07.4365 26295.8
 09 03 2013  19 01  -21.0626 26075.0 -03403.4 -07.4363 26296.2
 09 03 2013  19 02  -21.0623 26075.9 -03403.4 -07.4362 26297.1
 09 03 2013  19 03  -21.0621 26076.6 -03403.4 -07.4360 26297.7
 09 03 2013  19 04  -21.0622 26076.9 -03403.2 -07.4353 26298.0
 09 03 2013  19 05  -21.0620 26077.0 -03402.9 -07.4347 26298.1
 09 03 2013  19 06  -21.0619 26076.9 -03402.5 -07.4340 26297.9
 09 03 2013  19 07  -21.0623 26076.2 -03401.9 -07.4328 26297.2
 09 03 2013  19 08  -21.0619 26075.4 -03401.2 -07.4316 26296.3
 09 03 2013  19 09  -21.0618 26074.8 -03400.7 -07.4306 26295.7
 09 03 2013  19 10  -21.0610 26074.1 -03400.2 -07.4297 26294.9
 09 03 2013  19 11  -21.0599 26073.4 -03399.7 -07.4289 26294.1
 09 03 2013  19 12  -21.0583 26073.8 -03399.8 -07.4290 26294.5
 09 03 2013  19 13  -21.0563 26076.0 -03400.8 -07.4305 26296.8
 09 03 2013  19 14  -21.0544 26079.5 -03402.4 -07.4329 26300.5
 09 03 2013  19 15  -21.0534 26082.8 -03403.7 -07.4348 26303.9
 09 03 2013  19 16  -21.0522 26084.8 -03404.2 -07.4353 26306.0
 09 03 2013  19 17  -21.0512 26086.2 -03404.4 -07.4354 26307.4
 09 03 2013  19 18  -21.0503 26086.4 -03404.1 -07.4347 26307.6
 09 03 2013  19 19  -21.0497 26085.8 -03403.4 -07.4334 26306.9
 09 03 2013  19 20  -21.0491 26084.7 -03402.5 -07.4318 26305.6
 09 03 2013  19 21  -21.0484 26083.5 -03401.8 -07.4304 26304.4
 09 03 2013  19 22  -21.0480 26082.3 -03401.1 -07.4293 26303.1
 09 03 2013  19 23  -21.0476 26081.2 -03400.5 -07.4283 26301.9
 09 03 2013  19 24  -21.0470 26080.4 -03400.0 -07.4276 26301.1
 09 03 2013  19 25  -21.0460 26080.0 -03399.8 -07.4272 26300.7
 09 03 2013  19 26  -21.0449 26079.9 -03399.8 -07.4271 26300.6
 09 03 2013  19 27  -21.0440 26079.9 -03399.8 -07.4272 26300.6
 09 03 2013  19 28  -21.0431 26079.8 -03399.8 -07.4273 26300.5
 09 03 2013  19 29  -21.0422 26079.7 -03399.8 -07.4272 26300.4
 09 03 2013  19 30  -21.0413 26079.6 -03399.7 -07.4272 26300.2
 09 03 2013  19 31  -21.0401 26079.6 -03399.8 -07.4273 26300.3
 09 03 2013  19 32  -21.0392 26079.6 -03399.9 -07.4274 26300.3
 09 03 2013  19 33  -21.0383 26079.4 -03399.8 -07.4275 26300.1
 09 03 2013  19 34  -21.0374 26079.1 -03399.8 -07.4275 26299.7
 09 03 2013  19 35  -21.0367 26078.5 -03399.6 -07.4272 26299.1
 09 03 2013  19 36  -21.0360 26077.9 -03399.4 -07.4270 26298.6
 09 03 2013  19 37  -21.0354 26077.3 -03399.3 -07.4269 26297.9
 09 03 2013  19 38  -21.0348 26076.6 -03399.1 -07.4267 26297.2
 09 03 2013  19 39  -21.0339 26075.9 -03398.9 -07.4264 26296.5
 09 03 2013  19 40  -21.0329 26075.3 -03398.9 -07.4265 26295.9
 09 03 2013  19 41  -21.0317 26074.9 -03399.0 -07.4268 26295.5
 09 03 2013  19 42  -21.0310 26074.5 -03399.1 -07.4271 26295.2
 09 03 2013  19 43  -21.0301 26074.5 -03399.3 -07.4277 26295.1
 09 03 2013  19 44  -21.0294 26074.5 -03399.5 -07.4282 26295.1
 09 03 2013  19 45  -21.0288 26074.5 -03399.8 -07.4288 26295.3
 09 03 2013  19 46  -21.0283 26074.4 -03400.0 -07.4292 26295.2
 09 03 2013  19 47  -21.0276 26074.3 -03400.1 -07.4295 26295.0
 09 03 2013  19 48  -21.0272 26074.1 -03400.2 -07.4298 26294.8
 09 03 2013  19 49  -21.0267 26073.9 -03400.4 -07.4302 26294.7
 09 03 2013  19 50  -21.0262 26073.6 -03400.5 -07.4305 26294.5
 09 03 2013  19 51  -21.0257 26073.2 -03400.5 -07.4307 26294.0
 09 03 2013  19 52  -21.0252 26072.7 -03400.5 -07.4307 26293.6
 09 03 2013  19 53  -21.0247 26072.6 -03400.7 -07.4311 26293.4
 09 03 2013  19 54  -21.0243 26072.5 -03400.8 -07.4315 26293.3
 09 03 2013  19 55  -21.0240 26072.2 -03400.9 -07.4318 26293.1
 09 03 2013  19 56  -21.0236 26072.0 -03401.0 -07.4321 26292.9
 09 03 2013  19 57  -21.0231 26071.7 -03401.1 -07.4324 26292.6
 09 03 2013  19 58  -21.0227 26071.4 -03401.2 -07.4326 26292.4
 09 03 2013  19 59  -21.0222 26071.2 -03401.3 -07.4330 26292.2
 09 03 2013  20 00  -21.0216 26071.0 -03401.5 -07.4334 26292.0
 09 03 2013  20 01  -21.0211 26070.8 -03401.6 -07.4337 26291.8
 09 03 2013  20 02  -21.0206 26070.6 -03401.7 -07.4340 26291.6
 09 03 2013  20 03  -21.0202 26070.7 -03402.0 -07.4346 26291.7
 09 03 2013  20 04  -21.0197 26070.8 -03402.3 -07.4352 26291.9
 09 03 2013  20 05  -21.0190 26071.0 -03402.6 -07.4359 26292.2
 09 03 2013  20 06  -21.0184 26071.4 -03403.0 -07.4366 26292.5
 09 03 2013  20 07  -21.0178 26071.4 -03403.2 -07.4370 26292.6
 09 03 2013  20 08  -21.0169 26071.5 -03403.4 -07.4375 26292.7
 09 03 2013  20 09  -21.0162 26071.7 -03403.8 -07.4381 26292.9
 09 03 2013  20 10  -21.0154 26071.8 -03404.1 -07.4387 26293.1
 09 03 2013  20 11  -21.0150 26072.1 -03404.5 -07.4395 26293.5
 09 03 2013  20 12  -21.0147 26072.2 -03404.7 -07.4401 26293.6
 09 03 2013  20 13  -21.0145 26072.2 -03404.9 -07.4405 26293.5
 09 03 2013  20 14  -21.0143 26071.9 -03405.0 -07.4408 26293.3
 09 03 2013  20 15  -21.0141 26071.7 -03405.2 -07.4411 26293.2
 09 03 2013  20 16  -21.0138 26071.6 -03405.4 -07.4416 26293.1
 09 03 2013  20 17  -21.0134 26071.5 -03405.6 -07.4421 26293.0
 09 03 2013  20 18  -21.0130 26071.6 -03405.8 -07.4426 26293.1
 09 03 2013  20 19  -21.0128 26071.5 -03406.0 -07.4431 26293.1
 09 03 2013  20 20  -21.0128 26071.0 -03406.0 -07.4432 26292.5
 09 03 2013  20 21  -21.0128 26070.2 -03405.8 -07.4430 26291.7
 09 03 2013  20 22  -21.0126 26070.0 -03406.0 -07.4434 26291.5
 09 03 2013  20 23  -21.0126 26070.0 -03406.3 -07.4440 26291.6
 09 03 2013  20 24  -21.0124 26069.9 -03406.5 -07.4445 26291.6
 09 03 2013  20 25  -21.0121 26069.9 -03406.7 -07.4450 26291.5
 09 03 2013  20 26  -21.0120 26069.8 -03407.0 -07.4456 26291.5
 09 03 2013  20 27  -21.0121 26069.8 -03407.2 -07.4460 26291.5
 09 03 2013  20 28  -21.0121 26069.8 -03407.4 -07.4466 26291.5
 09 03 2013  20 29  -21.0123 26069.7 -03407.6 -07.4471 26291.5
 09 03 2013  20 30  -21.0125 26069.3 -03407.7 -07.4474 26291.1
 09 03 2013  20 31  -21.0128 26068.9 -03407.8 -07.4476 26290.7
 09 03 2013  20 32  -21.0131 26068.5 -03407.8 -07.4478 26290.3
 09 03 2013  20 33  -21.0134 26068.1 -03407.9 -07.4480 26289.9
 09 03 2013  20 34  -21.0138 26067.7 -03408.0 -07.4483 26289.6
 09 03 2013  20 35  -21.0142 26067.4 -03408.1 -07.4486 26289.3
 09 03 2013  20 36  -21.0146 26067.2 -03408.1 -07.4489 26289.0
 09 03 2013  20 37  -21.0148 26067.0 -03408.3 -07.4492 26288.9
 09 03 2013  20 38  -21.0151 26066.8 -03408.4 -07.4496 26288.7
 09 03 2013  20 39  -21.0152 26066.9 -03408.7 -07.4501 26288.8
 09 03 2013  20 40  -21.0156 26066.7 -03408.8 -07.4504 26288.7
 09 03 2013  20 41  -21.0160 26066.2 -03408.7 -07.4504 26288.2
 09 03 2013  20 42  -21.0165 26065.8 -03408.7 -07.4504 26287.7
 09 03 2013  20 43  -21.0170 26065.5 -03408.7 -07.4505 26287.5
 09 03 2013  20 44  -21.0175 26065.2 -03408.8 -07.4509 26287.1
 09 03 2013  20 45  -21.0178 26064.8 -03408.8 -07.4509 26286.8
 09 03 2013  20 46  -21.0180 26064.8 -03409.0 -07.4513 26286.8
 09 03 2013  20 47  -21.0183 26064.3 -03408.9 -07.4514 26286.3
 09 03 2013  20 48  -21.0186 26064.1 -03409.1 -07.4517 26286.1
 09 03 2013  20 49  -21.0188 26064.2 -03409.3 -07.4521 26286.2
 09 03 2013  20 50  -21.0195 26063.6 -03409.2 -07.4520 26285.6
 09 03 2013  20 51  -21.0205 26062.3 -03408.7 -07.4514 26284.3
 09 03 2013  20 52  -21.0216 26061.3 -03408.3 -07.4509 26283.2
 09 03 2013  20 53  -21.0226 26060.5 -03408.1 -07.4506 26282.4
 09 03 2013  20 54  -21.0233 26060.0 -03408.0 -07.4506 26281.9
 09 03 2013  20 55  -21.0236 26059.8 -03408.1 -07.4509 26281.8
 09 03 2013  20 56  -21.0238 26059.8 -03408.3 -07.4512 26281.7
 09 03 2013  20 57  -21.0238 26059.7 -03408.4 -07.4515 26281.7
 09 03 2013  20 58  -21.0237 26059.8 -03408.6 -07.4520 26281.8
 09 03 2013  20 59  -21.0237 26059.9 -03408.9 -07.4525 26281.9
 09 03 2013  21 00  -21.0239 26060.1 -03409.2 -07.4531 26282.1
 09 03 2013  21 01  -21.0239 26060.3 -03409.4 -07.4536 26282.4
 09 03 2013  21 02  -21.0237 26060.7 -03409.7 -07.4540 26282.8
 09 03 2013  21 03  -21.0239 26060.1 -03409.6 -07.4540 26282.2
 09 03 2013  21 04  -21.0238 26060.0 -03409.6 -07.4540 26282.1
 09 03 2013  21 05  -21.0241 26059.7 -03409.6 -07.4542 26281.8
 09 03 2013  21 06  -21.0243 26059.2 -03409.5 -07.4541 26281.3
 09 03 2013  21 07  -21.0245 26058.8 -03409.5 -07.4542 26280.9
 09 03 2013  21 08  -21.0247 26058.5 -03409.6 -07.4544 26280.7
 09 03 2013  21 09  -21.0250 26058.4 -03409.8 -07.4548 26280.5
 09 03 2013  21 10  -21.0249 26058.3 -03409.8 -07.4550 26280.4
 09 03 2013  21 11  -21.0250 26058.0 -03409.9 -07.4552 26280.2
 09 03 2013  21 12  -21.0251 26057.8 -03409.9 -07.4554 26280.0
 09 03 2013  21 13  -21.0253 26057.9 -03410.2 -07.4559 26280.1
 09 03 2013  21 14  -21.0256 26057.9 -03410.4 -07.4563 26280.1
 09 03 2013  21 15  -21.0257 26057.9 -03410.5 -07.4566 26280.1
 09 03 2013  21 16  -21.0258 26057.9 -03410.7 -07.4569 26280.2
 09 03 2013  21 17  -21.0262 26057.6 -03410.7 -07.4570 26279.9
 09 03 2013  21 18  -21.0263 26057.7 -03410.9 -07.4575 26280.0
 09 03 2013  21 19  -21.0267 26057.6 -03411.1 -07.4579 26279.9
 09 03 2013  21 20  -21.0271 26057.4 -03411.2 -07.4581 26279.8
 09 03 2013  21 21  -21.0271 26057.6 -03411.3 -07.4584 26280.0
 09 03 2013  21 22  -21.0279 26057.2 -03411.3 -07.4586 26279.6
 09 03 2013  21 23  -21.0281 26057.3 -03411.5 -07.4588 26279.7
 09 03 2013  21 24  -21.0284 26057.2 -03411.5 -07.4590 26279.6
 09 03 2013  21 25  -21.0297 26056.1 -03411.3 -07.4588 26278.5
 09 03 2013  21 26  -21.0298 26056.2 -03411.4 -07.4589 26278.6
 09 03 2013  21 27  -21.0305 26056.0 -03411.4 -07.4590 26278.4
 09 03 2013  21 28  -21.0315 26055.6 -03411.4 -07.4591 26278.0
 09 03 2013  21 29  -21.0316 26055.9 -03411.5 -07.4593 26278.2
 09 03 2013  21 30  -21.0322 26055.4 -03411.4 -07.4592 26277.8
 09 03 2013  21 31  -21.0329 26055.2 -03411.4 -07.4593 26277.6
 09 03 2013  21 32  -21.0332 26055.5 -03411.6 -07.4596 26277.9
 09 03 2013  21 33  -21.0335 26055.3 -03411.6 -07.4597 26277.7
 09 03 2013  21 34  -21.0337 26055.1 -03411.6 -07.4596 26277.5
 09 03 2013  21 35  -21.0339 26055.2 -03411.6 -07.4597 26277.6
 09 03 2013  21 36  -21.0342 26055.2 -03411.7 -07.4599 26277.6
 09 03 2013  21 37  -21.0343 26055.4 -03411.9 -07.4602 26277.8
 09 03 2013  21 38  -21.0343 26055.5 -03411.9 -07.4603 26277.9
 09 03 2013  21 39  -21.0348 26055.3 -03411.9 -07.4604 26277.8
 09 03 2013  21 40  -21.0350 26055.5 -03412.1 -07.4606 26277.9
 09 03 2013  21 41  -21.0354 26055.3 -03412.1 -07.4607 26277.8
 09 03 2013  21 42  -21.0358 26055.1 -03412.1 -07.4607 26277.6
 09 03 2013  21 43  -21.0358 26055.3 -03412.1 -07.4608 26277.8
 09 03 2013  21 44  -21.0361 26054.9 -03412.1 -07.4608 26277.4
 09 03 2013  21 45  -21.0362 26054.9 -03412.1 -07.4609 26277.4
 09 03 2013  21 46  -21.0363 26054.7 -03412.1 -07.4609 26277.2
 09 03 2013  21 47  -21.0366 26054.5 -03412.1 -07.4609 26277.0
 09 03 2013  21 48  -21.0366 26054.6 -03412.2 -07.4611 26277.1
 09 03 2013  21 49  -21.0369 26054.6 -03412.2 -07.4613 26277.1
 09 03 2013  21 50  -21.0370 26054.8 -03412.4 -07.4616 26277.3
 09 03 2013  21 51  -21.0370 26054.9 -03412.5 -07.4618 26277.4
 09 03 2013  21 52  -21.0372 26054.9 -03412.7 -07.4621 26277.5
 09 03 2013  21 53  -21.0374 26054.8 -03412.7 -07.4621 26277.3
 09 03 2013  21 54  -21.0375 26054.7 -03412.7 -07.4622 26277.2
 09 03 2013  21 55  -21.0378 26054.4 -03412.6 -07.4622 26276.9
 09 03 2013  21 56  -21.0379 26054.1 -03412.6 -07.4622 26276.6
 09 03 2013  21 57  -21.0382 26053.6 -03412.4 -07.4620 26276.1
 09 03 2013  21 58  -21.0384 26053.2 -03412.3 -07.4619 26275.7
 09 03 2013  21 59  -21.0385 26052.7 -03412.3 -07.4618 26275.3
 09 03 2013  22 00  -21.0385 26052.5 -03412.2 -07.4618 26275.0
 09 03 2013  22 01  -21.0386 26052.2 -03412.1 -07.4617 26274.7
 09 03 2013  22 02  -21.0386 26052.0 -03412.1 -07.4618 26274.5
 09 03 2013  22 03  -21.0387 26052.0 -03412.2 -07.4620 26274.5
 09 03 2013  22 04  -21.0386 26052.3 -03412.5 -07.4624 26274.8
 09 03 2013  22 05  -21.0386 26052.4 -03412.6 -07.4627 26274.9
 09 03 2013  22 06  -21.0385 26052.5 -03412.7 -07.4629 26275.1
 09 03 2013  22 07  -21.0385 26052.4 -03412.8 -07.4631 26275.0
 09 03 2013  22 08  -21.0385 26052.7 -03413.0 -07.4634 26275.3
 09 03 2013  22 09  -21.0385 26052.7 -03413.2 -07.4638 26275.4
 09 03 2013  22 10  -21.0385 26052.9 -03413.3 -07.4641 26275.6
 09 03 2013  22 11  -21.0384 26053.0 -03413.4 -07.4643 26275.6
 09 03 2013  22 12  -21.0384 26053.0 -03413.5 -07.4644 26275.6
 09 03 2013  22 13  -21.0384 26052.8 -03413.5 -07.4645 26275.5
 09 03 2013  22 14  -21.0385 26052.6 -03413.5 -07.4646 26275.3
 09 03 2013  22 15  -21.0386 26052.6 -03413.6 -07.4647 26275.3
 09 03 2013  22 16  -21.0385 26052.5 -03413.6 -07.4648 26275.2
 09 03 2013  22 17  -21.0384 26052.5 -03413.7 -07.4650 26275.2
 09 03 2013  22 18  -21.0383 26052.4 -03413.7 -07.4651 26275.1
 09 03 2013  22 19  -21.0383 26052.8 -03414.0 -07.4655 26275.5
 09 03 2013  22 20  -21.0383 26053.2 -03414.2 -07.4659 26275.9
 09 03 2013  22 21  -21.0381 26053.5 -03414.4 -07.4662 26276.3
 09 03 2013  22 22  -21.0382 26053.8 -03414.6 -07.4666 26276.6
 09 03 2013  22 23  -21.0382 26054.0 -03414.7 -07.4668 26276.8
 09 03 2013  22 24  -21.0384 26053.8 -03414.7 -07.4668 26276.6
 09 03 2013  22 25  -21.0385 26053.4 -03414.6 -07.4667 26276.2
 09 03 2013  22 26  -21.0388 26052.8 -03414.3 -07.4663 26275.5
 09 03 2013  22 27  -21.0390 26052.9 -03414.4 -07.4663 26275.7
 09 03 2013  22 28  -21.0390 26052.5 -03414.2 -07.4662 26275.3
 09 03 2013  22 29  -21.0391 26052.5 -03414.3 -07.4663 26275.3
 09 03 2013  22 30  -21.0392 26052.3 -03414.2 -07.4662 26275.1
 09 03 2013  22 31  -21.0394 26052.2 -03414.2 -07.4662 26274.9
 09 03 2013  22 32  -21.0394 26052.3 -03414.3 -07.4665 26275.1
 09 03 2013  22 33  -21.0394 26052.1 -03414.4 -07.4666 26274.9
 09 03 2013  22 34  -21.0397 26052.3 -03414.4 -07.4667 26275.1
 09 03 2013  22 35  -21.0398 26052.4 -03414.6 -07.4670 26275.2
 09 03 2013  22 36  -21.0397 26052.2 -03414.5 -07.4669 26275.0
 09 03 2013  22 37  -21.0399 26052.8 -03414.9 -07.4674 26275.7
 09 03 2013  22 38  -21.0398 26052.7 -03414.9 -07.4676 26275.6
 09 03 2013  22 39  -21.0398 26052.9 -03415.0 -07.4677 26275.8
 09 03 2013  22 40  -21.0399 26053.1 -03415.2 -07.4681 26276.0
 09 03 2013  22 41  -21.0399 26052.9 -03415.1 -07.4678 26275.8
 09 03 2013  22 42  -21.0402 26053.1 -03415.2 -07.4681 26276.0
 09 03 2013  22 43  -21.0402 26052.7 -03415.1 -07.4680 26275.6
 09 03 2013  22 44  -21.0404 26052.7 -03415.1 -07.4680 26275.6
 09 03 2013  22 45  -21.0406 26052.6 -03415.1 -07.4679 26275.4
 09 03 2013  22 46  -21.0406 26052.4 -03415.0 -07.4679 26275.3
 09 03 2013  22 47  -21.0405 26052.3 -03415.0 -07.4679 26275.1
 09 03 2013  22 48  -21.0408 26052.1 -03414.9 -07.4677 26274.9
 09 03 2013  22 49  -21.0408 26052.3 -03415.1 -07.4680 26275.2
 09 03 2013  22 50  -21.0406 26051.9 -03414.9 -07.4678 26274.8
 09 03 2013  22 51  -21.0408 26052.4 -03415.2 -07.4682 26275.3
 09 03 2013  22 52  -21.0403 26052.2 -03415.2 -07.4683 26275.1
 09 03 2013  22 53  -21.0401 26052.3 -03415.2 -07.4683 26275.2
 09 03 2013  22 54  -21.0403 26052.1 -03415.2 -07.4684 26275.0
 09 03 2013  22 55  -21.0406 26052.2 -03415.2 -07.4684 26275.1
 09 03 2013  22 56  -21.0405 26052.2 -03415.3 -07.4685 26275.1
 09 03 2013  22 57  -21.0404 26052.2 -03415.3 -07.4685 26275.1
 09 03 2013  22 58  -21.0403 26052.2 -03415.3 -07.4686 26275.1
 09 03 2013  22 59  -21.0402 26052.1 -03415.3 -07.4686 26275.0
 09 03 2013  23 00  -21.0403 26052.2 -03415.4 -07.4688 26275.2
 09 03 2013  23 01  -21.0403 26052.0 -03415.4 -07.4688 26275.0
 09 03 2013  23 02  -21.0403 26052.0 -03415.4 -07.4688 26275.0
 09 03 2013  23 03  -21.0403 26051.9 -03415.4 -07.4689 26274.9
 09 03 2013  23 04  -21.0402 26052.0 -03415.5 -07.4690 26275.0
 09 03 2013  23 05  -21.0400 26052.1 -03415.6 -07.4692 26275.0
 09 03 2013  23 06  -21.0399 26052.1 -03415.7 -07.4694 26275.1
 09 03 2013  23 07  -21.0398 26052.3 -03415.8 -07.4695 26275.2
 09 03 2013  23 08  -21.0397 26052.3 -03415.8 -07.4696 26275.3
 09 03 2013  23 09  -21.0397 26052.3 -03415.9 -07.4697 26275.3
 09 03 2013  23 10  -21.0396 26052.3 -03415.9 -07.4699 26275.3
 09 03 2013  23 11  -21.0395 26052.2 -03415.9 -07.4699 26275.2
 09 03 2013  23 12  -21.0393 26052.3 -03416.0 -07.4700 26275.3
 09 03 2013  23 13  -21.0392 26052.2 -03416.0 -07.4701 26275.2
 09 03 2013  23 14  -21.0393 26052.2 -03416.1 -07.4702 26275.2
 09 03 2013  23 15  -21.0392 26052.3 -03416.1 -07.4704 26275.3
 09 03 2013  23 16  -21.0390 26052.2 -03416.2 -07.4704 26275.2
 09 03 2013  23 17  -21.0388 26052.2 -03416.2 -07.4705 26275.3
 09 03 2013  23 18  -21.0387 26052.2 -03416.3 -07.4706 26275.2
 09 03 2013  23 19  -21.0386 26052.4 -03416.3 -07.4707 26275.4
 09 03 2013  23 20  -21.0385 26052.5 -03416.5 -07.4710 26275.6
 09 03 2013  23 21  -21.0385 26052.5 -03416.5 -07.4711 26275.5
 09 03 2013  23 22  -21.0384 26052.3 -03416.5 -07.4711 26275.4
 09 03 2013  23 23  -21.0383 26052.1 -03416.4 -07.4710 26275.1
 09 03 2013  23 24  -21.0383 26052.0 -03416.4 -07.4709 26275.0
 09 03 2013  23 25  -21.0381 26051.9 -03416.4 -07.4710 26274.9
 09 03 2013  23 26  -21.0379 26051.8 -03416.4 -07.4710 26274.9
 09 03 2013  23 27  -21.0378 26051.8 -03416.4 -07.4711 26274.9
 09 03 2013  23 28  -21.0376 26052.0 -03416.5 -07.4712 26275.1
 09 03 2013  23 29  -21.0377 26052.2 -03416.7 -07.4716 26275.3
 09 03 2013  23 30  -21.0376 26052.2 -03416.8 -07.4717 26275.3
 09 03 2013  23 31  -21.0375 26052.3 -03416.8 -07.4719 26275.4
 09 03 2013  23 32  -21.0375 26052.3 -03416.9 -07.4720 26275.5
 09 03 2013  23 33  -21.0373 26052.3 -03416.9 -07.4721 26275.4
 09 03 2013  23 34  -21.0372 26052.3 -03417.0 -07.4722 26275.4
 09 03 2013  23 35  -21.0371 26052.3 -03417.0 -07.4723 26275.4
 09 03 2013  23 36  -21.0370 26052.2 -03417.0 -07.4723 26275.3
 09 03 2013  23 37  -21.0369 26052.0 -03417.0 -07.4722 26275.2
 09 03 2013  23 38  -21.0369 26051.8 -03416.9 -07.4721 26274.9
 09 03 2013  23 39  -21.0371 26051.4 -03416.7 -07.4719 26274.5
 09 03 2013  23 40  -21.0370 26051.0 -03416.6 -07.4717 26274.1
 09 03 2013  23 41  -21.0369 26051.0 -03416.6 -07.4717 26274.1
 09 03 2013  23 42  -21.0368 26050.9 -03416.6 -07.4718 26274.0
 09 03 2013  23 43  -21.0365 26050.7 -03416.6 -07.4717 26273.8
 09 03 2013  23 44  -21.0362 26050.8 -03416.7 -07.4720 26273.9
 09 03 2013  23 45  -21.0359 26050.9 -03416.8 -07.4721 26274.1
 09 03 2013  23 46  -21.0357 26050.9 -03416.8 -07.4722 26274.0
 09 03 2013  23 47  -21.0354 26051.1 -03416.9 -07.4723 26274.2
 09 03 2013  23 48  -21.0352 26051.1 -03417.0 -07.4725 26274.2
 09 03 2013  23 49  -21.0354 26051.0 -03417.1 -07.4727 26274.2
 09 03 2013  23 50  -21.0354 26051.0 -03417.1 -07.4728 26274.1
 09 03 2013  23 51  -21.0354 26050.9 -03417.2 -07.4730 26274.1
 09 03 2013  23 52  -21.0353 26050.8 -03417.2 -07.4730 26274.0
 09 03 2013  23 53  -21.0354 26050.6 -03417.1 -07.4730 26273.8
 09 03 2013  23 54  -21.0354 26050.5 -03417.1 -07.4729 26273.7
 09 03 2013  23 55  -21.0353 26050.5 -03417.1 -07.4729 26273.6
 09 03 2013  23 56  -21.0352 26050.4 -03417.1 -07.4729 26273.6
 09 03 2013  23 57  -21.0351 26050.4 -03417.1 -07.4730 26273.5
 09 03 2013  23 58  -21.0350 26050.3 -03417.1 -07.4731 26273.5
