SAO LUIS EMBRACE-03 <006> 1 Min. Reported data

 DD MM YYYY  HH MM   D(Deg)  H(nT)   Z(nT)   I(Deg)   F(nT)

 06 01 2013  00 00  -21.0094 26058.4 -03388.1 -07.4081 26277.7
 06 01 2013  00 01  -21.0094 26058.4 -03388.1 -07.4081 26277.7
 06 01 2013  00 02  -21.0095 26058.4 -03388.2 -07.4081 26277.8
 06 01 2013  00 03  -21.0095 26058.4 -03388.2 -07.4081 26277.8
 06 01 2013  00 04  -21.0096 26058.4 -03388.2 -07.4082 26277.8
 06 01 2013  00 05  -21.0096 26058.4 -03388.2 -07.4082 26277.8
 06 01 2013  00 06  -21.0097 26058.4 -03388.2 -07.4082 26277.8
 06 01 2013  00 07  -21.0097 26058.5 -03388.2 -07.4082 26277.8
 06 01 2013  00 08  -21.0098 26058.4 -03388.2 -07.4082 26277.8
 06 01 2013  00 09  -21.0099 26058.4 -03388.2 -07.4082 26277.7
 06 01 2013  00 10  -21.0100 26058.3 -03388.2 -07.4081 26277.7
 06 01 2013  00 11  -21.0099 26058.3 -03388.2 -07.4081 26277.7
 06 01 2013  00 12  -21.0099 26058.3 -03388.1 -07.4081 26277.6
 06 01 2013  00 13  -21.0099 26058.3 -03388.1 -07.4080 26277.6
 06 01 2013  00 14  -21.0098 26058.2 -03388.1 -07.4080 26277.5
 06 01 2013  00 15  -21.0098 26058.2 -03388.1 -07.4080 26277.5
 06 01 2013  00 16  -21.0100 26058.2 -03388.1 -07.4080 26277.5
 06 01 2013  00 17  -21.0100 26058.2 -03388.1 -07.4080 26277.5
 06 01 2013  00 18  -21.0101 26058.2 -03388.1 -07.4080 26277.5
 06 01 2013  00 19  -21.0101 26058.2 -03388.1 -07.4080 26277.5
 06 01 2013  00 20  -21.0102 26058.2 -03388.1 -07.4080 26277.5
 06 01 2013  00 21  -21.0102 26058.2 -03388.1 -07.4080 26277.6
 06 01 2013  00 22  -21.0104 26058.2 -03388.1 -07.4080 26277.6
 06 01 2013  00 23  -21.0106 26058.2 -03388.1 -07.4080 26277.6
 06 01 2013  00 24  -21.0108 26058.3 -03388.1 -07.4080 26277.6
 06 01 2013  00 25  -21.0108 26058.3 -03388.1 -07.4080 26277.7
 06 01 2013  00 26  -21.0107 26058.5 -03388.1 -07.4081 26277.8
 06 01 2013  00 27  -21.0108 26058.6 -03388.2 -07.4082 26277.9
 06 01 2013  00 28  -21.0110 26058.6 -03388.2 -07.4082 26278.0
 06 01 2013  00 29  -21.0112 26058.7 -03388.2 -07.4082 26278.0
 06 01 2013  00 30  -21.0113 26058.8 -03388.3 -07.4082 26278.2
 06 01 2013  00 31  -21.0114 26058.9 -03388.3 -07.4082 26278.3
 06 01 2013  00 32  -21.0115 26059.0 -03388.3 -07.4083 26278.4
 06 01 2013  00 33  -21.0116 26059.1 -03388.3 -07.4083 26278.5
 06 01 2013  00 34  -21.0116 26059.2 -03388.3 -07.4082 26278.5
 06 01 2013  00 35  -21.0117 26059.2 -03388.3 -07.4082 26278.6
 06 01 2013  00 36  -21.0118 26059.2 -03388.3 -07.4082 26278.6
 06 01 2013  00 37  -21.0120 26059.2 -03388.3 -07.4081 26278.6
 06 01 2013  00 38  -21.0120 26059.2 -03388.2 -07.4080 26278.5
 06 01 2013  00 39  -21.0119 26059.2 -03388.1 -07.4078 26278.6
 06 01 2013  00 40  -21.0119 26059.2 -03388.1 -07.4077 26278.5
 06 01 2013  00 41  -21.0121 26059.1 -03388.1 -07.4077 26278.4
 06 01 2013  00 42  -21.0123 26059.0 -03388.0 -07.4076 26278.3
 06 01 2013  00 43  -21.0125 26058.9 -03387.9 -07.4075 26278.3
 06 01 2013  00 44  -21.0127 26058.8 -03387.9 -07.4074 26278.1
 06 01 2013  00 45  -21.0128 26058.7 -03387.8 -07.4073 26278.0
 06 01 2013  00 46  -21.0129 26058.6 -03387.7 -07.4072 26277.9
 06 01 2013  00 47  -21.0130 26058.5 -03387.7 -07.4071 26277.7
 06 01 2013  00 48  -21.0130 26058.4 -03387.7 -07.4070 26277.7
 06 01 2013  00 49  -21.0130 26058.4 -03387.7 -07.4071 26277.7
 06 01 2013  00 50  -21.0132 26058.4 -03387.7 -07.4071 26277.7
 06 01 2013  00 51  -21.0134 26058.3 -03387.7 -07.4071 26277.6
 06 01 2013  00 52  -21.0135 26058.3 -03387.7 -07.4071 26277.5
 06 01 2013  00 53  -21.0136 26058.2 -03387.6 -07.4071 26277.5
 06 01 2013  00 54  -21.0138 26058.2 -03387.6 -07.4071 26277.4
 06 01 2013  00 55  -21.0139 26058.2 -03387.7 -07.4071 26277.5
 06 01 2013  00 56  -21.0141 26058.2 -03387.7 -07.4072 26277.5
 06 01 2013  00 57  -21.0142 26058.3 -03387.7 -07.4072 26277.5
 06 01 2013  00 58  -21.0144 26058.3 -03387.8 -07.4073 26277.6
 06 01 2013  00 59  -21.0145 26058.3 -03387.8 -07.4073 26277.6
 06 01 2013  01 00  -21.0145 26058.3 -03387.8 -07.4073 26277.6
 06 01 2013  01 01  -21.0146 26058.3 -03387.8 -07.4073 26277.6
 06 01 2013  01 02  -21.0146 26058.3 -03387.7 -07.4072 26277.6
 06 01 2013  01 03  -21.0145 26058.3 -03387.7 -07.4072 26277.5
 06 01 2013  01 04  -21.0146 26058.2 -03387.7 -07.4072 26277.5
 06 01 2013  01 05  -21.0146 26058.2 -03387.7 -07.4072 26277.5
 06 01 2013  01 06  -21.0146 26058.2 -03387.7 -07.4072 26277.5
 06 01 2013  01 07  -21.0147 26058.1 -03387.7 -07.4072 26277.4
 06 01 2013  01 08  -21.0146 26058.2 -03387.7 -07.4072 26277.4
 06 01 2013  01 09  -21.0146 26058.2 -03387.7 -07.4071 26277.4
 06 01 2013  01 10  -21.0146 26058.2 -03387.7 -07.4072 26277.5
 06 01 2013  01 11  -21.0146 26058.2 -03387.7 -07.4072 26277.5
 06 01 2013  01 12  -21.0145 26058.2 -03387.7 -07.4072 26277.5
 06 01 2013  01 13  -21.0144 26058.2 -03387.7 -07.4072 26277.5
 06 01 2013  01 14  -21.0144 26058.3 -03387.7 -07.4072 26277.6
 06 01 2013  01 15  -21.0142 26058.3 -03387.7 -07.4072 26277.6
 06 01 2013  01 16  -21.0142 26058.3 -03387.7 -07.4072 26277.6
 06 01 2013  01 17  -21.0143 26058.3 -03387.7 -07.4072 26277.6
 06 01 2013  01 18  -21.0142 26058.3 -03387.7 -07.4072 26277.6
 06 01 2013  01 19  -21.0142 26058.3 -03387.7 -07.4072 26277.6
 06 01 2013  01 20  -21.0142 26058.3 -03387.7 -07.4072 26277.6
 06 01 2013  01 21  -21.0140 26058.3 -03387.7 -07.4071 26277.6
 06 01 2013  01 22  -21.0138 26058.3 -03387.7 -07.4071 26277.6
 06 01 2013  01 23  -21.0137 26058.3 -03387.6 -07.4070 26277.6
 06 01 2013  01 24  -21.0137 26058.2 -03387.6 -07.4069 26277.5
 06 01 2013  01 25  -21.0137 26058.2 -03387.6 -07.4069 26277.5
 06 01 2013  01 26  -21.0136 26058.1 -03387.6 -07.4069 26277.4
 06 01 2013  01 27  -21.0134 26058.1 -03387.5 -07.4068 26277.3
 06 01 2013  01 28  -21.0132 26058.0 -03387.5 -07.4067 26277.3
 06 01 2013  01 29  -21.0130 26058.0 -03387.4 -07.4067 26277.2
 06 01 2013  01 30  -21.0129 26057.9 -03387.4 -07.4066 26277.1
 06 01 2013  01 31  -21.0128 26057.9 -03387.4 -07.4066 26277.1
 06 01 2013  01 32  -21.0126 26057.9 -03387.4 -07.4066 26277.1
 06 01 2013  01 33  -21.0124 26057.9 -03387.4 -07.4066 26277.2
 06 01 2013  01 34  -21.0124 26058.0 -03387.5 -07.4067 26277.2
 06 01 2013  01 35  -21.0125 26058.0 -03387.5 -07.4068 26277.2
 06 01 2013  01 36  -21.0124 26058.0 -03387.5 -07.4069 26277.3
 06 01 2013  01 37  -21.0122 26058.1 -03387.5 -07.4069 26277.4
 06 01 2013  01 38  -21.0121 26058.2 -03387.6 -07.4069 26277.5
 06 01 2013  01 39  -21.0120 26058.2 -03387.6 -07.4069 26277.5
 06 01 2013  01 40  -21.0120 26058.2 -03387.6 -07.4069 26277.5
 06 01 2013  01 41  -21.0119 26058.3 -03387.6 -07.4069 26277.5
 06 01 2013  01 42  -21.0118 26058.3 -03387.6 -07.4069 26277.6
 06 01 2013  01 43  -21.0118 26058.3 -03387.6 -07.4069 26277.6
 06 01 2013  01 44  -21.0117 26058.2 -03387.5 -07.4068 26277.5
 06 01 2013  01 45  -21.0116 26058.1 -03387.5 -07.4067 26277.4
 06 01 2013  01 46  -21.0117 26058.1 -03387.4 -07.4066 26277.3
 06 01 2013  01 47  -21.0116 26058.0 -03387.4 -07.4066 26277.2
 06 01 2013  01 48  -21.0115 26057.9 -03387.3 -07.4065 26277.2
 06 01 2013  01 49  -21.0113 26057.8 -03387.3 -07.4064 26277.1
 06 01 2013  01 50  -21.0113 26057.8 -03387.3 -07.4064 26277.1
 06 01 2013  01 51  -21.0113 26057.8 -03387.3 -07.4064 26277.1
 06 01 2013  01 52  -21.0113 26057.8 -03387.3 -07.4064 26277.1
 06 01 2013  01 53  -21.0113 26057.8 -03387.3 -07.4063 26277.1
 06 01 2013  01 54  -21.0110 26057.7 -03387.2 -07.4063 26276.9
 06 01 2013  01 55  -21.0109 26057.7 -03387.2 -07.4062 26276.9
 06 01 2013  01 56  -21.0110 26057.7 -03387.2 -07.4062 26277.0
 06 01 2013  01 57  -21.0111 26057.8 -03387.2 -07.4063 26277.0
 06 01 2013  01 58  -21.0113 26057.8 -03387.3 -07.4063 26277.1
 06 01 2013  01 59  -21.0113 26057.8 -03387.3 -07.4063 26277.1
 06 01 2013  02 00  -21.0113 26057.8 -03387.2 -07.4062 26277.1
 06 01 2013  02 01  -21.0112 26057.8 -03387.2 -07.4062 26277.1
 06 01 2013  02 02  -21.0112 26057.9 -03387.2 -07.4062 26277.1
 06 01 2013  02 03  -21.0113 26057.9 -03387.2 -07.4062 26277.1
 06 01 2013  02 04  -21.0114 26057.9 -03387.2 -07.4062 26277.2
 06 01 2013  02 05  -21.0114 26058.1 -03387.2 -07.4062 26277.3
 06 01 2013  02 06  -21.0115 26058.2 -03387.3 -07.4063 26277.4
 06 01 2013  02 07  -21.0116 26058.2 -03387.3 -07.4064 26277.5
 06 01 2013  02 08  -21.0117 26058.3 -03387.4 -07.4064 26277.6
 06 01 2013  02 09  -21.0118 26058.4 -03387.4 -07.4065 26277.7
 06 01 2013  02 10  -21.0118 26058.5 -03387.4 -07.4065 26277.7
 06 01 2013  02 11  -21.0118 26058.5 -03387.4 -07.4065 26277.8
 06 01 2013  02 12  -21.0118 26058.6 -03387.4 -07.4065 26277.8
 06 01 2013  02 13  -21.0118 26058.6 -03387.4 -07.4065 26277.9
 06 01 2013  02 14  -21.0118 26058.6 -03387.4 -07.4065 26277.9
 06 01 2013  02 15  -21.0118 26058.5 -03387.4 -07.4065 26277.8
 06 01 2013  02 16  -21.0118 26058.5 -03387.4 -07.4064 26277.7
 06 01 2013  02 17  -21.0117 26058.4 -03387.4 -07.4064 26277.7
 06 01 2013  02 18  -21.0116 26058.5 -03387.4 -07.4064 26277.7
 06 01 2013  02 19  -21.0116 26058.5 -03387.4 -07.4065 26277.8
 06 01 2013  02 20  -21.0116 26058.5 -03387.4 -07.4065 26277.8
 06 01 2013  02 21  -21.0115 26058.5 -03387.4 -07.4065 26277.8
 06 01 2013  02 22  -21.0114 26058.5 -03387.4 -07.4065 26277.8
 06 01 2013  02 23  -21.0113 26058.6 -03387.5 -07.4066 26277.9
 06 01 2013  02 24  -21.0112 26058.8 -03387.6 -07.4068 26278.0
 06 01 2013  02 25  -21.0112 26059.0 -03387.7 -07.4070 26278.3
 06 01 2013  02 26  -21.0112 26059.1 -03387.8 -07.4071 26278.4
 06 01 2013  02 27  -21.0112 26059.1 -03387.8 -07.4071 26278.4
 06 01 2013  02 28  -21.0112 26059.3 -03387.9 -07.4072 26278.6
 06 01 2013  02 29  -21.0111 26059.3 -03387.9 -07.4073 26278.6
 06 01 2013  02 30  -21.0110 26059.4 -03387.9 -07.4073 26278.7
 06 01 2013  02 31  -21.0110 26059.5 -03388.0 -07.4074 26278.9
 06 01 2013  02 32  -21.0109 26059.6 -03388.0 -07.4075 26278.9
 06 01 2013  02 33  -21.0108 26059.7 -03388.0 -07.4075 26279.0
 06 01 2013  02 34  -21.0106 26059.6 -03388.0 -07.4074 26279.0
 06 01 2013  02 35  -21.0102 26059.6 -03388.0 -07.4074 26278.9
 06 01 2013  02 36  -21.0101 26059.5 -03387.9 -07.4073 26278.9
 06 01 2013  02 37  -21.0100 26059.5 -03387.9 -07.4073 26278.8
 06 01 2013  02 38  -21.0098 26059.3 -03387.8 -07.4072 26278.6
 06 01 2013  02 39  -21.0096 26059.1 -03387.7 -07.4070 26278.3
 06 01 2013  02 40  -21.0094 26058.8 -03387.7 -07.4069 26278.1
 06 01 2013  02 41  -21.0093 26058.7 -03387.6 -07.4069 26278.0
 06 01 2013  02 42  -21.0093 26058.6 -03387.6 -07.4069 26277.9
 06 01 2013  02 43  -21.0093 26058.5 -03387.6 -07.4069 26277.8
 06 01 2013  02 44  -21.0093 26058.6 -03387.7 -07.4071 26277.8
 06 01 2013  02 45  -21.0093 26058.7 -03387.8 -07.4073 26278.0
 06 01 2013  02 46  -21.0095 26058.8 -03387.9 -07.4075 26278.1
 06 01 2013  02 47  -21.0096 26058.8 -03388.0 -07.4076 26278.1
 06 01 2013  02 48  -21.0098 26058.8 -03388.0 -07.4076 26278.1
 06 01 2013  02 49  -21.0098 26058.8 -03388.0 -07.4076 26278.1
 06 01 2013  02 50  -21.0098 26058.7 -03387.9 -07.4076 26278.1
 06 01 2013  02 51  -21.0098 26058.7 -03387.9 -07.4075 26278.0
 06 01 2013  02 52  -21.0097 26058.6 -03387.9 -07.4075 26277.9
 06 01 2013  02 53  -21.0096 26058.5 -03387.8 -07.4074 26277.8
 06 01 2013  02 54  -21.0096 26058.5 -03387.8 -07.4074 26277.8
 06 01 2013  02 55  -21.0095 26058.5 -03387.9 -07.4074 26277.8
 06 01 2013  02 56  -21.0095 26058.5 -03387.9 -07.4075 26277.8
 06 01 2013  02 57  -21.0096 26058.4 -03387.9 -07.4075 26277.7
 06 01 2013  02 58  -21.0098 26058.4 -03387.9 -07.4075 26277.7
 06 01 2013  02 59  -21.0099 26058.4 -03387.9 -07.4075 26277.7
 06 01 2013  03 00  -21.0101 26058.4 -03387.9 -07.4075 26277.7
 06 01 2013  03 01  -21.0102 26058.3 -03387.9 -07.4075 26277.6
 06 01 2013  03 02  -21.0102 26058.3 -03387.8 -07.4075 26277.6
 06 01 2013  03 03  -21.0103 26058.3 -03387.8 -07.4074 26277.6
 06 01 2013  03 04  -21.0105 26058.3 -03387.8 -07.4074 26277.6
 06 01 2013  03 05  -21.0106 26058.3 -03387.8 -07.4074 26277.6
 06 01 2013  03 06  -21.0107 26058.3 -03387.8 -07.4074 26277.6
 06 01 2013  03 07  -21.0108 26058.3 -03387.8 -07.4074 26277.6
 06 01 2013  03 08  -21.0108 26058.3 -03387.8 -07.4074 26277.6
 06 01 2013  03 09  -21.0108 26058.4 -03387.8 -07.4074 26277.7
 06 01 2013  03 10  -21.0109 26058.4 -03387.8 -07.4074 26277.7
 06 01 2013  03 11  -21.0110 26058.6 -03387.9 -07.4075 26277.9
 06 01 2013  03 12  -21.0112 26058.7 -03388.0 -07.4077 26278.0
 06 01 2013  03 13  -21.0114 26058.8 -03388.1 -07.4078 26278.2
 06 01 2013  03 14  -21.0117 26058.9 -03388.1 -07.4079 26278.2
 06 01 2013  03 15  -21.0119 26058.9 -03388.1 -07.4078 26278.3
 06 01 2013  03 16  -21.0120 26058.9 -03388.0 -07.4077 26278.2
 06 01 2013  03 17  -21.0121 26058.8 -03388.0 -07.4077 26278.2
 06 01 2013  03 18  -21.0121 26058.8 -03388.0 -07.4076 26278.1
 06 01 2013  03 19  -21.0122 26058.8 -03388.0 -07.4076 26278.1
 06 01 2013  03 20  -21.0122 26058.7 -03387.9 -07.4075 26278.0
 06 01 2013  03 21  -21.0122 26058.7 -03387.9 -07.4074 26278.0
 06 01 2013  03 22  -21.0123 26058.6 -03387.8 -07.4074 26277.9
 06 01 2013  03 23  -21.0124 26058.5 -03387.8 -07.4073 26277.8
 06 01 2013  03 24  -21.0125 26058.5 -03387.8 -07.4073 26277.8
 06 01 2013  03 25  -21.0125 26058.4 -03387.8 -07.4073 26277.7
 06 01 2013  03 26  -21.0126 26058.1 -03387.7 -07.4071 26277.4
 06 01 2013  03 27  -21.0127 26058.2 -03387.7 -07.4071 26277.5
 06 01 2013  03 28  -21.0127 26058.3 -03387.7 -07.4072 26277.6
 06 01 2013  03 29  -21.0127 26058.4 -03387.8 -07.4073 26277.7
 06 01 2013  03 30  -21.0128 26058.4 -03387.8 -07.4074 26277.7
 06 01 2013  03 31  -21.0130 26058.3 -03387.8 -07.4074 26277.6
 06 01 2013  03 32  -21.0132 26058.3 -03387.8 -07.4074 26277.6
 06 01 2013  03 33  -21.0133 26058.4 -03387.8 -07.4074 26277.7
 06 01 2013  03 34  -21.0133 26058.4 -03387.9 -07.4075 26277.7
 06 01 2013  03 35  -21.0134 26058.4 -03387.9 -07.4075 26277.7
 06 01 2013  03 36  -21.0134 26058.4 -03387.9 -07.4075 26277.7
 06 01 2013  03 37  -21.0135 26058.5 -03387.9 -07.4075 26277.8
 06 01 2013  03 38  -21.0136 26058.4 -03387.9 -07.4075 26277.7
 06 01 2013  03 39  -21.0136 26058.4 -03387.9 -07.4075 26277.8
 06 01 2013  03 40  -21.0135 26058.5 -03387.9 -07.4076 26277.8
 06 01 2013  03 41  -21.0136 26058.4 -03387.9 -07.4076 26277.8
 06 01 2013  03 42  -21.0137 26058.4 -03387.9 -07.4076 26277.7
 06 01 2013  03 43  -21.0138 26058.3 -03387.9 -07.4076 26277.6
 06 01 2013  03 44  -21.0140 26058.3 -03387.9 -07.4076 26277.7
 06 01 2013  03 45  -21.0142 26058.3 -03387.9 -07.4076 26277.6
 06 01 2013  03 46  -21.0143 26058.3 -03387.9 -07.4075 26277.6
 06 01 2013  03 47  -21.0143 26058.2 -03387.8 -07.4075 26277.5
 06 01 2013  03 48  -21.0144 26058.2 -03387.8 -07.4074 26277.5
 06 01 2013  03 49  -21.0146 26058.2 -03387.8 -07.4074 26277.5
 06 01 2013  03 50  -21.0146 26058.2 -03387.8 -07.4075 26277.5
 06 01 2013  03 51  -21.0148 26058.2 -03387.9 -07.4075 26277.5
 06 01 2013  03 52  -21.0150 26058.3 -03387.9 -07.4076 26277.6
 06 01 2013  03 53  -21.0152 26058.4 -03387.9 -07.4077 26277.7
 06 01 2013  03 54  -21.0155 26058.5 -03388.0 -07.4077 26277.8
 06 01 2013  03 55  -21.0157 26058.4 -03388.0 -07.4077 26277.8
 06 01 2013  03 56  -21.0158 26058.5 -03388.0 -07.4077 26277.8
 06 01 2013  03 57  -21.0157 26058.4 -03387.9 -07.4076 26277.7
 06 01 2013  03 58  -21.0158 26058.3 -03387.8 -07.4075 26277.6
 06 01 2013  03 59  -21.0158 26058.2 -03387.8 -07.4074 26277.5
 06 01 2013  04 00  -21.0160 26058.1 -03387.7 -07.4073 26277.4
 06 01 2013  04 01  -21.0162 26058.1 -03387.7 -07.4073 26277.4
 06 01 2013  04 02  -21.0165 26058.0 -03387.7 -07.4073 26277.3
 06 01 2013  04 03  -21.0167 26058.0 -03387.7 -07.4073 26277.3
 06 01 2013  04 04  -21.0169 26058.0 -03387.7 -07.4073 26277.3
 06 01 2013  04 05  -21.0171 26058.1 -03387.7 -07.4073 26277.4
 06 01 2013  04 06  -21.0172 26058.1 -03387.7 -07.4073 26277.4
 06 01 2013  04 07  -21.0174 26058.1 -03387.7 -07.4073 26277.4
 06 01 2013  04 08  -21.0176 26058.1 -03387.7 -07.4073 26277.4
 06 01 2013  04 09  -21.0177 26058.2 -03387.7 -07.4073 26277.4
 06 01 2013  04 10  -21.0178 26058.3 -03387.8 -07.4073 26277.6
 06 01 2013  04 11  -21.0180 26058.4 -03387.8 -07.4073 26277.7
 06 01 2013  04 12  -21.0181 26058.5 -03387.8 -07.4074 26277.8
 06 01 2013  04 13  -21.0179 26058.5 -03387.8 -07.4073 26277.8
 06 01 2013  04 14  -21.0179 26058.4 -03387.8 -07.4072 26277.7
 06 01 2013  04 15  -21.0179 26058.4 -03387.7 -07.4072 26277.7
 06 01 2013  04 16  -21.0180 26058.5 -03387.7 -07.4072 26277.8
 06 01 2013  04 17  -21.0180 26058.5 -03387.7 -07.4072 26277.8
 06 01 2013  04 18  -21.0179 26058.5 -03387.7 -07.4072 26277.8
 06 01 2013  04 19  -21.0178 26058.5 -03387.7 -07.4072 26277.8
 06 01 2013  04 20  -21.0178 26058.5 -03387.7 -07.4071 26277.8
 06 01 2013  04 21  -21.0179 26058.6 -03387.7 -07.4072 26277.8
 06 01 2013  04 22  -21.0180 26058.6 -03387.7 -07.4071 26277.9
 06 01 2013  04 23  -21.0182 26058.6 -03387.7 -07.4071 26277.9
 06 01 2013  04 24  -21.0183 26058.6 -03387.7 -07.4071 26277.9
 06 01 2013  04 25  -21.0183 26058.6 -03387.7 -07.4070 26277.9
 06 01 2013  04 26  -21.0184 26058.6 -03387.6 -07.4070 26277.9
 06 01 2013  04 27  -21.0185 26058.6 -03387.7 -07.4070 26277.9
 06 01 2013  04 28  -21.0185 26058.6 -03387.6 -07.4070 26277.9
 06 01 2013  04 29  -21.0184 26058.5 -03387.6 -07.4069 26277.8
 06 01 2013  04 30  -21.0184 26058.5 -03387.6 -07.4068 26277.7
 06 01 2013  04 31  -21.0183 26058.4 -03387.5 -07.4068 26277.7
 06 01 2013  04 32  -21.0182 26058.4 -03387.5 -07.4067 26277.7
 06 01 2013  04 33  -21.0181 26058.4 -03387.5 -07.4067 26277.6
 06 01 2013  04 34  -21.0181 26058.3 -03387.5 -07.4066 26277.6
 06 01 2013  04 35  -21.0182 26058.3 -03387.5 -07.4067 26277.6
 06 01 2013  04 36  -21.0184 26058.4 -03387.5 -07.4067 26277.6
 06 01 2013  04 37  -21.0185 26058.4 -03387.5 -07.4067 26277.7
 06 01 2013  04 38  -21.0186 26058.5 -03387.5 -07.4067 26277.7
 06 01 2013  04 39  -21.0186 26058.4 -03387.5 -07.4067 26277.7
 06 01 2013  04 40  -21.0187 26058.4 -03387.5 -07.4067 26277.6
 06 01 2013  04 41  -21.0189 26058.3 -03387.5 -07.4066 26277.6
 06 01 2013  04 42  -21.0191 26058.3 -03387.4 -07.4066 26277.5
 06 01 2013  04 43  -21.0191 26058.2 -03387.4 -07.4065 26277.5
 06 01 2013  04 44  -21.0190 26058.3 -03387.4 -07.4065 26277.5
 06 01 2013  04 45  -21.0188 26058.5 -03387.5 -07.4066 26277.7
 06 01 2013  04 46  -21.0187 26058.5 -03387.5 -07.4067 26277.8
 06 01 2013  04 47  -21.0189 26058.5 -03387.5 -07.4067 26277.8
 06 01 2013  04 48  -21.0187 26058.8 -03387.7 -07.4069 26278.1
 06 01 2013  04 49  -21.0186 26059.2 -03387.8 -07.4072 26278.5
 06 01 2013  04 50  -21.0183 26059.7 -03388.1 -07.4076 26279.0
 06 01 2013  04 51  -21.0184 26058.6 -03387.6 -07.4068 26277.9
 06 01 2013  04 52  -21.0180 26059.2 -03387.7 -07.4070 26278.5
 06 01 2013  04 53  -21.0179 26059.3 -03387.8 -07.4072 26278.6
 06 01 2013  04 54  -21.0177 26059.5 -03387.9 -07.4073 26278.9
 06 01 2013  04 55  -21.0174 26059.2 -03387.8 -07.4072 26278.5
 06 01 2013  04 56  -21.0178 26058.9 -03387.6 -07.4068 26278.1
 06 01 2013  04 57  -21.0179 26059.5 -03387.9 -07.4073 26278.8
 06 01 2013  04 58  -21.0176 26060.0 -03388.2 -07.4077 26279.3
 06 01 2013  04 59  -21.0172 26059.8 -03388.1 -07.4076 26279.1
 06 01 2013  05 00  -21.0172 26059.6 -03387.9 -07.4073 26278.9
 06 01 2013  05 01  -21.0171 26059.9 -03388.1 -07.4076 26279.2
 06 01 2013  05 02  -21.0171 26059.7 -03388.0 -07.4075 26279.0
 06 01 2013  05 03  -21.0168 26059.9 -03388.1 -07.4076 26279.3
 06 01 2013  05 04  -21.0167 26059.5 -03387.9 -07.4072 26278.8
 06 01 2013  05 05  -21.0166 26059.5 -03387.9 -07.4072 26278.8
 06 01 2013  05 06  -21.0165 26059.7 -03388.0 -07.4073 26279.0
 06 01 2013  05 07  -21.0165 26059.8 -03388.1 -07.4075 26279.2
 06 01 2013  05 08  -21.0167 26059.9 -03388.1 -07.4076 26279.3
 06 01 2013  05 09  -21.0171 26060.2 -03388.2 -07.4077 26279.5
 06 01 2013  05 10  -21.0171 26060.6 -03388.4 -07.4081 26280.0
 06 01 2013  05 11  -21.0175 26060.4 -03388.3 -07.4078 26279.7
 06 01 2013  05 12  -21.0173 26060.9 -03388.4 -07.4080 26280.2
 06 01 2013  05 13  -21.0173 26060.8 -03388.4 -07.4080 26280.2
 06 01 2013  05 14  -21.0174 26060.6 -03388.3 -07.4078 26279.9
 06 01 2013  05 15  -21.0174 26060.6 -03388.2 -07.4076 26280.0
 06 01 2013  05 16  -21.0177 26060.7 -03388.2 -07.4076 26280.0
 06 01 2013  05 17  -21.0181 26060.8 -03388.3 -07.4077 26280.1
 06 01 2013  05 18  -21.0185 26060.6 -03388.2 -07.4076 26280.0
 06 01 2013  05 19  -21.0186 26060.3 -03388.0 -07.4072 26279.7
 06 01 2013  05 20  -21.0186 26060.4 -03387.9 -07.4070 26279.7
 06 01 2013  05 21  -21.0184 26060.6 -03388.0 -07.4071 26280.0
 06 01 2013  05 22  -21.0185 26060.6 -03388.0 -07.4071 26279.9
 06 01 2013  05 23  -21.0190 26060.3 -03387.8 -07.4068 26279.6
 06 01 2013  05 24  -21.0193 26060.7 -03387.9 -07.4069 26280.0
 06 01 2013  05 25  -21.0194 26061.2 -03388.1 -07.4073 26280.5
 06 01 2013  05 26  -21.0193 26061.1 -03388.1 -07.4072 26280.4
 06 01 2013  05 27  -21.0195 26060.8 -03387.9 -07.4069 26280.1
 06 01 2013  05 28  -21.0194 26060.8 -03387.8 -07.4066 26280.1
 06 01 2013  05 29  -21.0192 26061.0 -03387.8 -07.4067 26280.3
 06 01 2013  05 30  -21.0190 26061.0 -03387.8 -07.4066 26280.2
 06 01 2013  05 31  -21.0189 26060.6 -03387.6 -07.4063 26279.9
 06 01 2013  05 32  -21.0190 26060.5 -03387.5 -07.4061 26279.8
 06 01 2013  05 33  -21.0188 26060.7 -03387.6 -07.4063 26280.0
 06 01 2013  05 34  -21.0185 26060.7 -03387.6 -07.4063 26280.0
 06 01 2013  05 35  -21.0183 26060.4 -03387.5 -07.4060 26279.7
 06 01 2013  05 36  -21.0182 26060.3 -03387.4 -07.4059 26279.6
 06 01 2013  05 37  -21.0181 26060.5 -03387.4 -07.4059 26279.7
 06 01 2013  05 38  -21.0179 26060.6 -03387.5 -07.4060 26279.8
 06 01 2013  05 39  -21.0177 26060.3 -03387.3 -07.4058 26279.5
 06 01 2013  05 40  -21.0178 26060.1 -03387.2 -07.4056 26279.3
 06 01 2013  05 41  -21.0178 26060.3 -03387.3 -07.4058 26279.5
 06 01 2013  05 42  -21.0178 26060.4 -03387.4 -07.4060 26279.7
 06 01 2013  05 43  -21.0180 26060.1 -03387.3 -07.4058 26279.4
 06 01 2013  05 44  -21.0184 26060.0 -03387.2 -07.4056 26279.2
 06 01 2013  05 45  -21.0185 26060.3 -03387.3 -07.4058 26279.5
 06 01 2013  05 46  -21.0183 26060.3 -03387.4 -07.4059 26279.5
 06 01 2013  05 47  -21.0182 26060.2 -03387.3 -07.4057 26279.4
 06 01 2013  05 48  -21.0182 26060.2 -03387.2 -07.4057 26279.4
 06 01 2013  05 49  -21.0180 26060.2 -03387.3 -07.4057 26279.4
 06 01 2013  05 50  -21.0180 26060.1 -03387.3 -07.4057 26279.3
 06 01 2013  05 51  -21.0182 26060.1 -03387.3 -07.4057 26279.3
 06 01 2013  05 52  -21.0182 26060.3 -03387.4 -07.4058 26279.5
 06 01 2013  05 53  -21.0181 26060.4 -03387.4 -07.4059 26279.7
 06 01 2013  05 54  -21.0179 26060.5 -03387.4 -07.4060 26279.8
 06 01 2013  05 55  -21.0179 26060.5 -03387.4 -07.4059 26279.7
 06 01 2013  05 56  -21.0180 26060.5 -03387.4 -07.4059 26279.7
 06 01 2013  05 57  -21.0180 26060.7 -03387.5 -07.4060 26279.9
 06 01 2013  05 58  -21.0179 26060.8 -03387.6 -07.4061 26280.1
 06 01 2013  05 59  -21.0178 26060.7 -03387.5 -07.4060 26280.0
 06 01 2013  06 00  -21.0179 26060.9 -03387.5 -07.4061 26280.1
 06 01 2013  06 01  -21.0180 26061.0 -03387.6 -07.4062 26280.2
 06 01 2013  06 02  -21.0180 26061.1 -03387.6 -07.4062 26280.3
 06 01 2013  06 03  -21.0181 26061.1 -03387.6 -07.4062 26280.4
 06 01 2013  06 04  -21.0182 26061.2 -03387.7 -07.4063 26280.5
 06 01 2013  06 05  -21.0184 26061.2 -03387.6 -07.4061 26280.4
 06 01 2013  06 06  -21.0184 26061.3 -03387.6 -07.4061 26280.5
 06 01 2013  06 07  -21.0184 26061.4 -03387.7 -07.4062 26280.7
 06 01 2013  06 08  -21.0184 26061.5 -03387.7 -07.4063 26280.8
 06 01 2013  06 09  -21.0185 26061.4 -03387.6 -07.4062 26280.6
 06 01 2013  06 10  -21.0185 26061.5 -03387.6 -07.4061 26280.7
 06 01 2013  06 11  -21.0183 26061.5 -03387.6 -07.4061 26280.8
 06 01 2013  06 12  -21.0182 26061.4 -03387.6 -07.4061 26280.7
 06 01 2013  06 13  -21.0183 26061.5 -03387.6 -07.4061 26280.8
 06 01 2013  06 14  -21.0183 26061.6 -03387.7 -07.4062 26280.9
 06 01 2013  06 15  -21.0183 26061.4 -03387.6 -07.4060 26280.6
 06 01 2013  06 16  -21.0182 26061.4 -03387.5 -07.4059 26280.6
 06 01 2013  06 17  -21.0181 26061.6 -03387.6 -07.4060 26280.8
 06 01 2013  06 18  -21.0181 26061.5 -03387.6 -07.4060 26280.8
 06 01 2013  06 19  -21.0182 26061.4 -03387.5 -07.4060 26280.6
 06 01 2013  06 20  -21.0182 26061.4 -03387.5 -07.4059 26280.6
 06 01 2013  06 21  -21.0181 26061.5 -03387.6 -07.4060 26280.7
 06 01 2013  06 22  -21.0180 26061.4 -03387.5 -07.4059 26280.7
 06 01 2013  06 23  -21.0179 26061.4 -03387.6 -07.4060 26280.7
 06 01 2013  06 24  -21.0178 26061.4 -03387.6 -07.4060 26280.7
 06 01 2013  06 25  -21.0177 26061.4 -03387.5 -07.4059 26280.6
 06 01 2013  06 26  -21.0176 26061.4 -03387.5 -07.4059 26280.6
 06 01 2013  06 27  -21.0176 26061.3 -03387.5 -07.4059 26280.5
 06 01 2013  06 28  -21.0176 26061.2 -03387.5 -07.4059 26280.5
 06 01 2013  06 29  -21.0176 26061.2 -03387.4 -07.4058 26280.4
 06 01 2013  06 30  -21.0176 26061.2 -03387.5 -07.4058 26280.4
 06 01 2013  06 31  -21.0176 26061.1 -03387.4 -07.4058 26280.3
 06 01 2013  06 32  -21.0177 26061.1 -03387.4 -07.4058 26280.3
 06 01 2013  06 33  -21.0177 26061.1 -03387.4 -07.4058 26280.3
 06 01 2013  06 34  -21.0177 26061.1 -03387.5 -07.4059 26280.4
 06 01 2013  06 35  -21.0177 26061.1 -03387.5 -07.4059 26280.3
 06 01 2013  06 36  -21.0178 26061.1 -03387.5 -07.4059 26280.3
 06 01 2013  06 37  -21.0180 26061.1 -03387.5 -07.4059 26280.4
 06 01 2013  06 38  -21.0180 26061.2 -03387.5 -07.4060 26280.4
 06 01 2013  06 39  -21.0181 26061.2 -03387.6 -07.4060 26280.5
 06 01 2013  06 40  -21.0182 26061.2 -03387.5 -07.4060 26280.5
 06 01 2013  06 41  -21.0183 26061.3 -03387.6 -07.4060 26280.5
 06 01 2013  06 42  -21.0182 26061.4 -03387.6 -07.4061 26280.6
 06 01 2013  06 43  -21.0181 26061.4 -03387.6 -07.4060 26280.6
 06 01 2013  06 44  -21.0179 26061.3 -03387.5 -07.4059 26280.6
 06 01 2013  06 45  -21.0176 26061.4 -03387.6 -07.4060 26280.6
 06 01 2013  06 46  -21.0175 26061.5 -03387.6 -07.4061 26280.7
 06 01 2013  06 47  -21.0173 26061.4 -03387.6 -07.4061 26280.6
 06 01 2013  06 48  -21.0171 26061.4 -03387.6 -07.4061 26280.7
 06 01 2013  06 49  -21.0168 26061.5 -03387.7 -07.4062 26280.7
 06 01 2013  06 50  -21.0165 26061.4 -03387.6 -07.4062 26280.6
 06 01 2013  06 51  -21.0164 26061.2 -03387.6 -07.4061 26280.5
 06 01 2013  06 52  -21.0164 26061.3 -03387.6 -07.4062 26280.5
 06 01 2013  06 53  -21.0163 26061.3 -03387.7 -07.4063 26280.6
 06 01 2013  06 54  -21.0162 26061.3 -03387.7 -07.4063 26280.5
 06 01 2013  06 55  -21.0162 26061.3 -03387.7 -07.4064 26280.5
 06 01 2013  06 56  -21.0160 26061.3 -03387.7 -07.4064 26280.5
 06 01 2013  06 57  -21.0159 26061.2 -03387.7 -07.4064 26280.5
 06 01 2013  06 58  -21.0159 26061.2 -03387.8 -07.4065 26280.5
 06 01 2013  06 59  -21.0159 26061.3 -03387.8 -07.4066 26280.6
 06 01 2013  07 00  -21.0159 26061.4 -03387.9 -07.4067 26280.7
 06 01 2013  07 01  -21.0160 26061.4 -03387.9 -07.4068 26280.7
 06 01 2013  07 02  -21.0160 26061.5 -03387.9 -07.4068 26280.8
 06 01 2013  07 03  -21.0160 26061.6 -03388.0 -07.4069 26280.9
 06 01 2013  07 04  -21.0160 26061.7 -03388.1 -07.4071 26281.0
 06 01 2013  07 05  -21.0159 26061.6 -03388.1 -07.4070 26280.9
 06 01 2013  07 06  -21.0159 26061.6 -03388.0 -07.4069 26280.9
 06 01 2013  07 07  -21.0159 26061.6 -03388.0 -07.4069 26280.9
 06 01 2013  07 08  -21.0159 26061.7 -03388.1 -07.4070 26281.0
 06 01 2013  07 09  -21.0158 26061.7 -03388.1 -07.4070 26281.0
 06 01 2013  07 10  -21.0159 26061.7 -03388.1 -07.4070 26281.0
 06 01 2013  07 11  -21.0160 26061.7 -03388.1 -07.4071 26281.0
 06 01 2013  07 12  -21.0160 26061.9 -03388.2 -07.4072 26281.2
 06 01 2013  07 13  -21.0161 26061.9 -03388.2 -07.4073 26281.3
 06 01 2013  07 14  -21.0162 26061.9 -03388.2 -07.4073 26281.3
 06 01 2013  07 15  -21.0162 26062.0 -03388.2 -07.4073 26281.3
 06 01 2013  07 16  -21.0162 26062.0 -03388.3 -07.4073 26281.3
 06 01 2013  07 17  -21.0160 26062.0 -03388.2 -07.4073 26281.3
 06 01 2013  07 18  -21.0160 26061.9 -03388.2 -07.4072 26281.2
 06 01 2013  07 19  -21.0161 26061.8 -03388.2 -07.4072 26281.2
 06 01 2013  07 20  -21.0163 26061.9 -03388.2 -07.4073 26281.2
 06 01 2013  07 21  -21.0165 26061.9 -03388.2 -07.4073 26281.2
 06 01 2013  07 22  -21.0167 26062.0 -03388.3 -07.4074 26281.3
 06 01 2013  07 23  -21.0168 26062.1 -03388.3 -07.4075 26281.4
 06 01 2013  07 24  -21.0169 26062.1 -03388.3 -07.4074 26281.4
 06 01 2013  07 25  -21.0171 26062.1 -03388.3 -07.4074 26281.5
 06 01 2013  07 26  -21.0171 26062.2 -03388.3 -07.4074 26281.5
 06 01 2013  07 27  -21.0170 26062.3 -03388.4 -07.4075 26281.7
 06 01 2013  07 28  -21.0168 26062.3 -03388.4 -07.4075 26281.6
 06 01 2013  07 29  -21.0168 26062.2 -03388.3 -07.4074 26281.6
 06 01 2013  07 30  -21.0170 26062.3 -03388.3 -07.4074 26281.6
 06 01 2013  07 31  -21.0171 26062.4 -03388.4 -07.4075 26281.8
 06 01 2013  07 32  -21.0172 26062.5 -03388.4 -07.4076 26281.9
 06 01 2013  07 33  -21.0172 26062.5 -03388.4 -07.4075 26281.8
 06 01 2013  07 34  -21.0172 26062.4 -03388.4 -07.4074 26281.7
 06 01 2013  07 35  -21.0173 26062.4 -03388.3 -07.4074 26281.7
 06 01 2013  07 36  -21.0174 26062.4 -03388.3 -07.4073 26281.7
 06 01 2013  07 37  -21.0176 26062.4 -03388.3 -07.4073 26281.7
 06 01 2013  07 38  -21.0177 26062.5 -03388.3 -07.4073 26281.8
 06 01 2013  07 39  -21.0178 26062.5 -03388.3 -07.4073 26281.8
 06 01 2013  07 40  -21.0178 26062.5 -03388.3 -07.4073 26281.8
 06 01 2013  07 41  -21.0179 26062.5 -03388.3 -07.4073 26281.9
 06 01 2013  07 42  -21.0180 26062.5 -03388.3 -07.4073 26281.9
 06 01 2013  07 43  -21.0179 26062.5 -03388.3 -07.4073 26281.9
 06 01 2013  07 44  -21.0179 26062.5 -03388.3 -07.4073 26281.9
 06 01 2013  07 45  -21.0179 26062.4 -03388.2 -07.4072 26281.8
 06 01 2013  07 46  -21.0178 26062.4 -03388.2 -07.4071 26281.7
 06 01 2013  07 47  -21.0179 26062.4 -03388.2 -07.4071 26281.7
 06 01 2013  07 48  -21.0178 26062.4 -03388.2 -07.4072 26281.8
 06 01 2013  07 49  -21.0177 26062.5 -03388.3 -07.4072 26281.8
 06 01 2013  07 50  -21.0177 26062.5 -03388.3 -07.4073 26281.9
 06 01 2013  07 51  -21.0176 26062.5 -03388.3 -07.4073 26281.9
 06 01 2013  07 52  -21.0176 26062.6 -03388.3 -07.4073 26282.0
 06 01 2013  07 53  -21.0175 26062.6 -03388.3 -07.4073 26282.0
 06 01 2013  07 54  -21.0175 26062.6 -03388.3 -07.4073 26282.0
 06 01 2013  07 55  -21.0176 26062.7 -03388.4 -07.4074 26282.0
 06 01 2013  07 56  -21.0177 26062.8 -03388.4 -07.4074 26282.1
 06 01 2013  07 57  -21.0178 26062.9 -03388.5 -07.4076 26282.3
 06 01 2013  07 58  -21.0178 26063.1 -03388.6 -07.4077 26282.5
 06 01 2013  07 59  -21.0177 26063.2 -03388.6 -07.4078 26282.6
 06 01 2013  08 00  -21.0175 26063.2 -03388.6 -07.4078 26282.6
 06 01 2013  08 01  -21.0175 26063.3 -03388.6 -07.4078 26282.6
 06 01 2013  08 02  -21.0175 26063.3 -03388.7 -07.4078 26282.7
 06 01 2013  08 03  -21.0175 26063.3 -03388.7 -07.4078 26282.7
 06 01 2013  08 04  -21.0175 26063.3 -03388.6 -07.4078 26282.7
 06 01 2013  08 05  -21.0175 26063.3 -03388.6 -07.4077 26282.7
 06 01 2013  08 06  -21.0176 26063.4 -03388.6 -07.4078 26282.7
 06 01 2013  08 07  -21.0176 26063.4 -03388.7 -07.4078 26282.8
 06 01 2013  08 08  -21.0176 26063.4 -03388.7 -07.4078 26282.8
 06 01 2013  08 09  -21.0178 26063.3 -03388.6 -07.4077 26282.7
 06 01 2013  08 10  -21.0181 26063.3 -03388.6 -07.4076 26282.7
 06 01 2013  08 11  -21.0184 26063.3 -03388.6 -07.4076 26282.7
 06 01 2013  08 12  -21.0187 26063.3 -03388.5 -07.4075 26282.7
 06 01 2013  08 13  -21.0189 26063.3 -03388.5 -07.4075 26282.6
 06 01 2013  08 14  -21.0191 26063.2 -03388.4 -07.4074 26282.6
 06 01 2013  08 15  -21.0193 26063.2 -03388.4 -07.4073 26282.5
 06 01 2013  08 16  -21.0195 26063.1 -03388.4 -07.4072 26282.5
 06 01 2013  08 17  -21.0196 26063.1 -03388.3 -07.4072 26282.5
 06 01 2013  08 18  -21.0198 26063.1 -03388.3 -07.4071 26282.5
 06 01 2013  08 19  -21.0200 26063.2 -03388.3 -07.4070 26282.5
 06 01 2013  08 20  -21.0200 26063.2 -03388.3 -07.4070 26282.6
 06 01 2013  08 21  -21.0200 26063.1 -03388.2 -07.4069 26282.5
 06 01 2013  08 22  -21.0200 26063.1 -03388.1 -07.4068 26282.4
 06 01 2013  08 23  -21.0200 26063.1 -03388.1 -07.4067 26282.4
 06 01 2013  08 24  -21.0200 26063.1 -03388.1 -07.4066 26282.4
 06 01 2013  08 25  -21.0200 26063.0 -03388.0 -07.4065 26282.3
 06 01 2013  08 26  -21.0201 26062.9 -03387.9 -07.4064 26282.2
 06 01 2013  08 27  -21.0202 26062.9 -03387.9 -07.4063 26282.2
 06 01 2013  08 28  -21.0202 26062.9 -03387.9 -07.4063 26282.2
 06 01 2013  08 29  -21.0201 26062.9 -03387.8 -07.4062 26282.1
 06 01 2013  08 30  -21.0201 26062.9 -03387.8 -07.4061 26282.2
 06 01 2013  08 31  -21.0202 26062.9 -03387.8 -07.4061 26282.2
 06 01 2013  08 32  -21.0202 26063.0 -03387.8 -07.4060 26282.2
 06 01 2013  08 33  -21.0202 26062.9 -03387.7 -07.4059 26282.2
 06 01 2013  08 34  -21.0201 26063.0 -03387.7 -07.4058 26282.2
 06 01 2013  08 35  -21.0200 26063.0 -03387.7 -07.4058 26282.3
 06 01 2013  08 36  -21.0199 26063.1 -03387.6 -07.4057 26282.3
 06 01 2013  08 37  -21.0198 26063.1 -03387.6 -07.4055 26282.4
 06 01 2013  08 38  -21.0197 26063.2 -03387.6 -07.4055 26282.4
 06 01 2013  08 39  -21.0195 26063.3 -03387.6 -07.4055 26282.5
 06 01 2013  08 40  -21.0193 26063.2 -03387.5 -07.4054 26282.5
 06 01 2013  08 41  -21.0191 26063.2 -03387.5 -07.4053 26282.4
 06 01 2013  08 42  -21.0189 26063.2 -03387.4 -07.4052 26282.4
 06 01 2013  08 43  -21.0187 26063.2 -03387.4 -07.4051 26282.4
 06 01 2013  08 44  -21.0184 26063.1 -03387.3 -07.4050 26282.3
 06 01 2013  08 45  -21.0181 26063.0 -03387.3 -07.4050 26282.2
 06 01 2013  08 46  -21.0179 26063.0 -03387.3 -07.4049 26282.2
 06 01 2013  08 47  -21.0178 26063.0 -03387.3 -07.4050 26282.1
 06 01 2013  08 48  -21.0176 26062.9 -03387.3 -07.4051 26282.1
 06 01 2013  08 49  -21.0176 26062.8 -03387.4 -07.4052 26282.1
 06 01 2013  08 50  -21.0176 26062.8 -03387.4 -07.4053 26282.0
 06 01 2013  08 51  -21.0176 26062.8 -03387.5 -07.4054 26282.0
 06 01 2013  08 52  -21.0176 26062.8 -03387.5 -07.4055 26282.0
 06 01 2013  08 53  -21.0176 26062.8 -03387.6 -07.4056 26282.0
 06 01 2013  08 54  -21.0176 26062.8 -03387.6 -07.4057 26282.1
 06 01 2013  08 55  -21.0176 26062.9 -03387.7 -07.4059 26282.2
 06 01 2013  08 56  -21.0175 26063.0 -03387.8 -07.4060 26282.3
 06 01 2013  08 57  -21.0173 26063.1 -03387.9 -07.4062 26282.3
 06 01 2013  08 58  -21.0174 26063.1 -03387.9 -07.4062 26282.3
 06 01 2013  08 59  -21.0174 26063.1 -03387.9 -07.4063 26282.4
 06 01 2013  09 00  -21.0174 26063.1 -03388.0 -07.4064 26282.4
 06 01 2013  09 01  -21.0174 26063.0 -03388.0 -07.4064 26282.3
 06 01 2013  09 02  -21.0173 26063.0 -03388.0 -07.4064 26282.3
 06 01 2013  09 03  -21.0174 26063.0 -03388.0 -07.4065 26282.3
 06 01 2013  09 04  -21.0176 26063.0 -03388.1 -07.4066 26282.3
 06 01 2013  09 05  -21.0178 26063.2 -03388.1 -07.4067 26282.5
 06 01 2013  09 06  -21.0176 26063.2 -03388.2 -07.4068 26282.5
 06 01 2013  09 07  -21.0175 26063.1 -03388.2 -07.4068 26282.4
 06 01 2013  09 08  -21.0173 26063.1 -03388.2 -07.4069 26282.4
 06 01 2013  09 09  -21.0173 26063.0 -03388.2 -07.4070 26282.4
 06 01 2013  09 10  -21.0172 26063.1 -03388.3 -07.4072 26282.5
 06 01 2013  09 11  -21.0172 26063.3 -03388.5 -07.4074 26282.6
 06 01 2013  09 12  -21.0171 26063.4 -03388.6 -07.4076 26282.7
 06 01 2013  09 13  -21.0170 26063.5 -03388.7 -07.4078 26282.8
 06 01 2013  09 14  -21.0170 26063.6 -03388.8 -07.4080 26283.0
 06 01 2013  09 15  -21.0169 26063.7 -03388.9 -07.4082 26283.1
 06 01 2013  09 16  -21.0169 26063.8 -03389.0 -07.4083 26283.2
 06 01 2013  09 17  -21.0167 26063.8 -03389.0 -07.4085 26283.2
 06 01 2013  09 18  -21.0166 26063.9 -03389.1 -07.4086 26283.3
 06 01 2013  09 19  -21.0168 26064.0 -03389.2 -07.4088 26283.4
 06 01 2013  09 20  -21.0169 26064.2 -03389.3 -07.4090 26283.6
 06 01 2013  09 21  -21.0170 26064.3 -03389.4 -07.4091 26283.7
 06 01 2013  09 22  -21.0173 26064.4 -03389.4 -07.4092 26283.9
 06 01 2013  09 23  -21.0175 26064.5 -03389.5 -07.4093 26284.0
 06 01 2013  09 24  -21.0178 26064.6 -03389.5 -07.4092 26284.0
 06 01 2013  09 25  -21.0180 26064.6 -03389.5 -07.4092 26284.1
 06 01 2013  09 26  -21.0184 26064.7 -03389.5 -07.4093 26284.1
 06 01 2013  09 27  -21.0186 26064.7 -03389.5 -07.4092 26284.2
 06 01 2013  09 28  -21.0188 26064.8 -03389.5 -07.4092 26284.3
 06 01 2013  09 29  -21.0189 26064.9 -03389.5 -07.4092 26284.3
 06 01 2013  09 30  -21.0193 26065.0 -03389.5 -07.4093 26284.5
 06 01 2013  09 31  -21.0196 26065.2 -03389.6 -07.4094 26284.7
 06 01 2013  09 32  -21.0199 26065.4 -03389.7 -07.4094 26284.8
 06 01 2013  09 33  -21.0201 26065.4 -03389.7 -07.4094 26284.9
 06 01 2013  09 34  -21.0206 26065.6 -03389.8 -07.4096 26285.1
 06 01 2013  09 35  -21.0211 26065.9 -03389.9 -07.4098 26285.4
 06 01 2013  09 36  -21.0218 26066.4 -03390.0 -07.4100 26285.9
 06 01 2013  09 37  -21.0227 26067.1 -03390.4 -07.4104 26286.7
 06 01 2013  09 38  -21.0226 26067.5 -03390.5 -07.4106 26287.1
 06 01 2013  09 39  -21.0228 26067.8 -03390.6 -07.4107 26287.4
 06 01 2013  09 40  -21.0233 26068.3 -03390.7 -07.4109 26287.9
 06 01 2013  09 41  -21.0236 26068.5 -03390.8 -07.4110 26288.1
 06 01 2013  09 42  -21.0235 26068.5 -03390.7 -07.4108 26288.1
 06 01 2013  09 43  -21.0238 26068.9 -03390.8 -07.4109 26288.5
 06 01 2013  09 44  -21.0244 26069.6 -03391.0 -07.4111 26289.2
 06 01 2013  09 45  -21.0248 26070.2 -03391.1 -07.4111 26289.9
 06 01 2013  09 46  -21.0250 26070.7 -03391.1 -07.4110 26290.3
 06 01 2013  09 47  -21.0248 26071.0 -03391.1 -07.4109 26290.6
 06 01 2013  09 48  -21.0246 26071.1 -03391.0 -07.4108 26290.7
 06 01 2013  09 49  -21.0245 26071.3 -03391.0 -07.4107 26290.9
 06 01 2013  09 50  -21.0243 26071.4 -03391.1 -07.4109 26291.1
 06 01 2013  09 51  -21.0244 26071.6 -03391.2 -07.4109 26291.2
 06 01 2013  09 52  -21.0252 26072.0 -03391.3 -07.4110 26291.7
 06 01 2013  09 53  -21.0255 26072.2 -03391.2 -07.4109 26291.8
 06 01 2013  09 54  -21.0257 26072.3 -03391.1 -07.4107 26291.9
 06 01 2013  09 55  -21.0259 26072.3 -03391.1 -07.4105 26291.9
 06 01 2013  09 56  -21.0260 26072.2 -03391.0 -07.4104 26291.8
 06 01 2013  09 57  -21.0260 26072.4 -03391.0 -07.4104 26292.0
 06 01 2013  09 58  -21.0258 26072.3 -03391.0 -07.4103 26291.9
 06 01 2013  09 59  -21.0265 26072.6 -03391.0 -07.4103 26292.2
 06 01 2013  10 00  -21.0273 26072.9 -03391.0 -07.4103 26292.5
 06 01 2013  10 01  -21.0275 26072.8 -03390.9 -07.4100 26292.4
 06 01 2013  10 02  -21.0276 26072.6 -03390.8 -07.4098 26292.1
 06 01 2013  10 03  -21.0279 26072.5 -03390.7 -07.4097 26292.1
 06 01 2013  10 04  -21.0282 26072.6 -03390.8 -07.4098 26292.2
 06 01 2013  10 05  -21.0283 26072.7 -03390.8 -07.4099 26292.2
 06 01 2013  10 06  -21.0282 26072.8 -03390.9 -07.4099 26292.4
 06 01 2013  10 07  -21.0281 26072.9 -03390.9 -07.4100 26292.4
 06 01 2013  10 08  -21.0283 26073.0 -03391.0 -07.4101 26292.6
 06 01 2013  10 09  -21.0283 26073.2 -03391.1 -07.4102 26292.8
 06 01 2013  10 10  -21.0287 26073.4 -03391.1 -07.4103 26293.0
 06 01 2013  10 11  -21.0288 26073.5 -03391.2 -07.4104 26293.2
 06 01 2013  10 12  -21.0287 26073.6 -03391.2 -07.4103 26293.2
 06 01 2013  10 13  -21.0286 26073.6 -03391.1 -07.4102 26293.2
 06 01 2013  10 14  -21.0285 26073.5 -03391.0 -07.4101 26293.1
 06 01 2013  10 15  -21.0287 26073.6 -03391.0 -07.4099 26293.1
 06 01 2013  10 16  -21.0287 26073.6 -03390.9 -07.4098 26293.2
 06 01 2013  10 17  -21.0287 26073.6 -03390.8 -07.4096 26293.2
 06 01 2013  10 18  -21.0289 26073.8 -03390.8 -07.4095 26293.4
 06 01 2013  10 19  -21.0293 26074.2 -03390.8 -07.4094 26293.7
 06 01 2013  10 20  -21.0291 26074.2 -03390.7 -07.4092 26293.7
 06 01 2013  10 21  -21.0293 26074.5 -03390.7 -07.4091 26294.0
 06 01 2013  10 22  -21.0300 26075.6 -03391.2 -07.4098 26295.2
 06 01 2013  10 23  -21.0293 26076.3 -03391.4 -07.4101 26295.9
 06 01 2013  10 24  -21.0275 26076.1 -03391.3 -07.4100 26295.7
 06 01 2013  10 25  -21.0266 26076.5 -03391.5 -07.4102 26296.1
 06 01 2013  10 26  -21.0263 26077.3 -03391.8 -07.4106 26296.9
 06 01 2013  10 27  -21.0257 26077.6 -03391.7 -07.4104 26297.3
 06 01 2013  10 28  -21.0258 26078.2 -03391.7 -07.4102 26297.9
 06 01 2013  10 29  -21.0264 26079.2 -03391.8 -07.4102 26298.9
 06 01 2013  10 30  -21.0264 26079.6 -03391.6 -07.4096 26299.2
 06 01 2013  10 31  -21.0260 26079.5 -03391.2 -07.4088 26299.0
 06 01 2013  10 32  -21.0253 26079.3 -03390.9 -07.4082 26298.8
 06 01 2013  10 33  -21.0250 26079.2 -03390.7 -07.4078 26298.7
 06 01 2013  10 34  -21.0244 26079.2 -03390.6 -07.4075 26298.6
 06 01 2013  10 35  -21.0241 26079.4 -03390.6 -07.4074 26298.9
 06 01 2013  10 36  -21.0237 26080.1 -03390.7 -07.4075 26299.6
 06 01 2013  10 37  -21.0234 26081.0 -03390.9 -07.4078 26300.5
 06 01 2013  10 38  -21.0236 26082.1 -03391.2 -07.4080 26301.6
 06 01 2013  10 39  -21.0228 26082.6 -03391.2 -07.4079 26302.1
 06 01 2013  10 40  -21.0216 26082.6 -03391.0 -07.4074 26302.1
 06 01 2013  10 41  -21.0206 26082.8 -03390.9 -07.4073 26302.3
 06 01 2013  10 42  -21.0201 26083.2 -03391.0 -07.4072 26302.7
 06 01 2013  10 43  -21.0197 26083.5 -03391.0 -07.4073 26303.0
 06 01 2013  10 44  -21.0193 26083.9 -03391.0 -07.4072 26303.4
 06 01 2013  10 45  -21.0189 26084.2 -03391.0 -07.4069 26303.7
 06 01 2013  10 46  -21.0183 26084.3 -03390.8 -07.4066 26303.7
 06 01 2013  10 47  -21.0177 26084.2 -03390.7 -07.4063 26303.7
 06 01 2013  10 48  -21.0172 26084.3 -03390.6 -07.4061 26303.8
 06 01 2013  10 49  -21.0169 26084.6 -03390.6 -07.4061 26304.0
 06 01 2013  10 50  -21.0165 26085.0 -03390.7 -07.4061 26304.4
 06 01 2013  10 51  -21.0155 26085.1 -03390.6 -07.4058 26304.5
 06 01 2013  10 52  -21.0148 26085.3 -03390.6 -07.4058 26304.7
 06 01 2013  10 53  -21.0146 26085.6 -03390.7 -07.4059 26305.1
 06 01 2013  10 54  -21.0141 26085.8 -03390.7 -07.4058 26305.2
 06 01 2013  10 55  -21.0133 26085.8 -03390.6 -07.4057 26305.2
 06 01 2013  10 56  -21.0128 26085.9 -03390.6 -07.4056 26305.3
 06 01 2013  10 57  -21.0127 26086.3 -03390.7 -07.4058 26305.7
 06 01 2013  10 58  -21.0118 26086.5 -03390.8 -07.4058 26306.0
 06 01 2013  10 59  -21.0108 26086.5 -03390.7 -07.4057 26305.9
 06 01 2013  11 00  -21.0103 26086.7 -03390.8 -07.4058 26306.1
 06 01 2013  11 01  -21.0094 26086.7 -03390.7 -07.4057 26306.1
 06 01 2013  11 02  -21.0091 26086.8 -03390.7 -07.4056 26306.2
 06 01 2013  11 03  -21.0090 26087.1 -03390.7 -07.4057 26306.5
 06 01 2013  11 04  -21.0090 26087.2 -03390.7 -07.4056 26306.6
 06 01 2013  11 05  -21.0088 26087.1 -03390.6 -07.4053 26306.5
 06 01 2013  11 06  -21.0084 26087.0 -03390.4 -07.4050 26306.4
 06 01 2013  11 07  -21.0082 26087.2 -03390.5 -07.4051 26306.6
 06 01 2013  11 08  -21.0076 26087.3 -03390.6 -07.4052 26306.7
 06 01 2013  11 09  -21.0064 26087.3 -03390.5 -07.4052 26306.7
 06 01 2013  11 10  -21.0057 26087.5 -03390.6 -07.4053 26306.9
 06 01 2013  11 11  -21.0058 26088.2 -03390.9 -07.4057 26307.6
 06 01 2013  11 12  -21.0048 26088.4 -03390.9 -07.4057 26307.9
 06 01 2013  11 13  -21.0039 26088.7 -03390.9 -07.4056 26308.1
 06 01 2013  11 14  -21.0036 26089.0 -03391.0 -07.4056 26308.5
 06 01 2013  11 15  -21.0035 26089.2 -03390.9 -07.4054 26308.6
 06 01 2013  11 16  -21.0032 26089.3 -03390.8 -07.4051 26308.7
 06 01 2013  11 17  -21.0026 26089.6 -03390.8 -07.4050 26309.0
 06 01 2013  11 18  -21.0021 26089.8 -03390.8 -07.4050 26309.2
 06 01 2013  11 19  -21.0013 26089.8 -03390.7 -07.4048 26309.2
 06 01 2013  11 20  -21.0007 26089.9 -03390.7 -07.4047 26309.3
 06 01 2013  11 21  -21.0004 26090.1 -03390.7 -07.4048 26309.6
 06 01 2013  11 22  -20.9998 26090.7 -03390.9 -07.4049 26310.1
 06 01 2013  11 23  -20.9985 26090.8 -03390.8 -07.4048 26310.2
 06 01 2013  11 24  -20.9987 26091.4 -03391.0 -07.4049 26310.9
 06 01 2013  11 25  -20.9988 26092.0 -03391.1 -07.4051 26311.4
 06 01 2013  11 26  -20.9979 26092.0 -03391.0 -07.4048 26311.4
 06 01 2013  11 27  -20.9967 26091.9 -03390.9 -07.4046 26311.3
 06 01 2013  11 28  -20.9957 26091.9 -03390.8 -07.4045 26311.3
 06 01 2013  11 29  -20.9957 26092.0 -03390.7 -07.4042 26311.4
 06 01 2013  11 30  -20.9967 26092.1 -03390.7 -07.4042 26311.5
 06 01 2013  11 31  -20.9973 26091.7 -03390.4 -07.4037 26311.1
 06 01 2013  11 32  -20.9971 26091.1 -03390.1 -07.4032 26310.4
 06 01 2013  11 33  -20.9968 26090.3 -03389.8 -07.4028 26309.6
 06 01 2013  11 34  -20.9963 26089.7 -03389.8 -07.4028 26309.0
 06 01 2013  11 35  -20.9941 26089.1 -03389.8 -07.4030 26308.4
 06 01 2013  11 36  -20.9912 26088.4 -03389.6 -07.4028 26307.7
 06 01 2013  11 37  -20.9920 26088.5 -03389.8 -07.4032 26307.8
 06 01 2013  11 38  -20.9960 26088.8 -03390.0 -07.4036 26308.1
 06 01 2013  11 39  -20.9972 26088.4 -03389.9 -07.4036 26307.7
 06 01 2013  11 40  -20.9951 26087.6 -03389.8 -07.4035 26306.9
 06 01 2013  11 41  -20.9924 26087.6 -03390.2 -07.4043 26307.0
 06 01 2013  11 42  -20.9908 26088.0 -03390.7 -07.4054 26307.4
 06 01 2013  11 43  -20.9909 26088.5 -03391.2 -07.4063 26308.0
 06 01 2013  11 44  -20.9916 26089.7 -03391.9 -07.4074 26309.3
 06 01 2013  11 45  -20.9908 26090.7 -03392.4 -07.4081 26310.3
 06 01 2013  11 46  -20.9906 26091.6 -03392.7 -07.4086 26311.2
 06 01 2013  11 47  -20.9908 26091.8 -03392.8 -07.4087 26311.5
 06 01 2013  11 48  -20.9916 26091.8 -03392.7 -07.4086 26311.4
 06 01 2013  11 49  -20.9915 26091.6 -03392.7 -07.4085 26311.3
 06 01 2013  11 50  -20.9907 26091.4 -03392.6 -07.4084 26311.0
 06 01 2013  11 51  -20.9915 26090.6 -03392.2 -07.4079 26310.2
 06 01 2013  11 52  -20.9931 26090.4 -03392.3 -07.4080 26310.0
 06 01 2013  11 53  -20.9941 26089.9 -03392.2 -07.4079 26309.5
 06 01 2013  11 54  -20.9932 26090.0 -03392.3 -07.4082 26309.6
 06 01 2013  11 55  -20.9924 26089.8 -03392.5 -07.4086 26309.4
 06 01 2013  11 56  -20.9918 26089.6 -03392.6 -07.4089 26309.3
 06 01 2013  11 57  -20.9911 26089.7 -03392.7 -07.4092 26309.4
 06 01 2013  11 58  -20.9910 26089.9 -03392.8 -07.4094 26309.6
 06 01 2013  11 59  -20.9910 26089.0 -03392.5 -07.4088 26308.7
 06 01 2013  12 00  -20.9928 26089.0 -03392.5 -07.4090 26308.7
 06 01 2013  12 01  -20.9943 26089.0 -03392.6 -07.4092 26308.7
 06 01 2013  12 02  -20.9942 26088.6 -03392.4 -07.4089 26308.2
 06 01 2013  12 03  -20.9940 26088.3 -03392.5 -07.4090 26308.0
 06 01 2013  12 04  -20.9925 26088.8 -03392.9 -07.4098 26308.5
 06 01 2013  12 05  -20.9914 26089.4 -03393.2 -07.4103 26309.1
 06 01 2013  12 06  -20.9917 26089.7 -03393.3 -07.4104 26309.5
 06 01 2013  12 07  -20.9923 26090.1 -03393.4 -07.4105 26309.8
 06 01 2013  12 08  -20.9924 26090.2 -03393.4 -07.4104 26309.9
 06 01 2013  12 09  -20.9917 26090.3 -03393.4 -07.4104 26310.1
 06 01 2013  12 10  -20.9908 26090.7 -03393.6 -07.4107 26310.4
 06 01 2013  12 11  -20.9905 26091.1 -03393.8 -07.4111 26311.0
 06 01 2013  12 12  -20.9905 26091.9 -03394.1 -07.4116 26311.8
 06 01 2013  12 13  -20.9902 26092.7 -03394.3 -07.4118 26312.6
 06 01 2013  12 14  -20.9897 26093.2 -03394.4 -07.4118 26313.1
 06 01 2013  12 15  -20.9893 26093.0 -03394.2 -07.4114 26312.8
 06 01 2013  12 16  -20.9890 26093.1 -03394.2 -07.4114 26312.9
 06 01 2013  12 17  -20.9886 26093.4 -03394.3 -07.4116 26313.3
 06 01 2013  12 18  -20.9884 26093.9 -03394.6 -07.4120 26313.7
 06 01 2013  12 19  -20.9888 26094.2 -03394.7 -07.4122 26314.1
 06 01 2013  12 20  -20.9881 26094.4 -03394.6 -07.4119 26314.2
 06 01 2013  12 21  -20.9875 26094.1 -03394.4 -07.4116 26314.0
 06 01 2013  12 22  -20.9868 26093.6 -03394.2 -07.4114 26313.5
 06 01 2013  12 23  -20.9871 26093.5 -03394.4 -07.4116 26313.4
 06 01 2013  12 24  -20.9877 26094.0 -03394.7 -07.4123 26313.9
 06 01 2013  12 25  -20.9879 26094.9 -03395.1 -07.4128 26314.8
 06 01 2013  12 26  -20.9875 26095.0 -03395.2 -07.4130 26315.0
 06 01 2013  12 27  -20.9870 26094.8 -03395.1 -07.4129 26314.8
 06 01 2013  12 28  -20.9870 26094.9 -03395.2 -07.4131 26314.8
 06 01 2013  12 29  -20.9875 26095.0 -03395.3 -07.4132 26315.0
 06 01 2013  12 30  -20.9882 26095.0 -03395.3 -07.4133 26315.0
 06 01 2013  12 31  -20.9885 26095.0 -03395.3 -07.4134 26314.9
 06 01 2013  12 32  -20.9893 26095.1 -03395.4 -07.4135 26315.0
 06 01 2013  12 33  -20.9896 26095.2 -03395.6 -07.4138 26315.2
 06 01 2013  12 34  -20.9890 26095.6 -03395.9 -07.4144 26315.6
 06 01 2013  12 35  -20.9887 26096.1 -03396.2 -07.4149 26316.2
 06 01 2013  12 36  -20.9890 26096.4 -03396.3 -07.4151 26316.5
 06 01 2013  12 37  -20.9896 26096.6 -03396.4 -07.4152 26316.7
 06 01 2013  12 38  -20.9896 26096.6 -03396.4 -07.4153 26316.7
 06 01 2013  12 39  -20.9894 26096.8 -03396.4 -07.4152 26316.8
 06 01 2013  12 40  -20.9911 26096.4 -03396.1 -07.4147 26316.4
 06 01 2013  12 41  -20.9932 26095.8 -03395.9 -07.4144 26315.8
 06 01 2013  12 42  -20.9948 26095.4 -03395.9 -07.4144 26315.5
 06 01 2013  12 43  -20.9956 26095.4 -03396.1 -07.4149 26315.5
 06 01 2013  12 44  -20.9956 26095.5 -03396.4 -07.4154 26315.6
 06 01 2013  12 45  -20.9954 26095.9 -03396.7 -07.4160 26316.0
 06 01 2013  12 46  -20.9954 26096.2 -03396.9 -07.4165 26316.3
 06 01 2013  12 47  -20.9958 26096.3 -03397.1 -07.4167 26316.5
 06 01 2013  12 48  -20.9963 26096.5 -03397.3 -07.4172 26316.7
 06 01 2013  12 49  -20.9968 26097.0 -03397.7 -07.4179 26317.3
 06 01 2013  12 50  -20.9972 26097.7 -03398.1 -07.4186 26318.0
 06 01 2013  12 51  -20.9976 26098.4 -03398.5 -07.4192 26318.7
 06 01 2013  12 52  -20.9982 26099.1 -03398.8 -07.4198 26319.5
 06 01 2013  12 53  -20.9984 26099.6 -03399.1 -07.4202 26320.0
 06 01 2013  12 54  -20.9988 26100.0 -03399.3 -07.4205 26320.4
 06 01 2013  12 55  -20.9994 26100.6 -03399.6 -07.4210 26321.1
 06 01 2013  12 56  -21.0006 26101.2 -03399.9 -07.4214 26321.7
 06 01 2013  12 57  -21.0016 26101.6 -03400.0 -07.4216 26322.1
 06 01 2013  12 58  -21.0024 26102.0 -03400.2 -07.4218 26322.5
 06 01 2013  12 59  -21.0031 26102.1 -03400.2 -07.4219 26322.7
 06 01 2013  13 00  -21.0035 26102.4 -03400.4 -07.4222 26323.0
 06 01 2013  13 01  -21.0040 26102.5 -03400.5 -07.4223 26323.1
 06 01 2013  13 02  -21.0049 26102.2 -03400.4 -07.4222 26322.8
 06 01 2013  13 03  -21.0058 26102.4 -03400.6 -07.4227 26323.0
 06 01 2013  13 04  -21.0066 26102.8 -03400.9 -07.4232 26323.4
 06 01 2013  13 05  -21.0076 26103.3 -03401.3 -07.4238 26324.0
 06 01 2013  13 06  -21.0083 26104.0 -03401.6 -07.4244 26324.7
 06 01 2013  13 07  -21.0092 26104.6 -03401.9 -07.4248 26325.4
 06 01 2013  13 08  -21.0101 26105.0 -03402.1 -07.4250 26325.8
 06 01 2013  13 09  -21.0108 26105.4 -03402.2 -07.4252 26326.2
 06 01 2013  13 10  -21.0115 26105.8 -03402.3 -07.4254 26326.6
 06 01 2013  13 11  -21.0123 26106.0 -03402.4 -07.4254 26326.8
 06 01 2013  13 12  -21.0134 26106.3 -03402.4 -07.4254 26327.0
 06 01 2013  13 13  -21.0146 26106.4 -03402.3 -07.4253 26327.2
 06 01 2013  13 14  -21.0154 26106.2 -03402.2 -07.4250 26327.0
 06 01 2013  13 15  -21.0165 26106.2 -03402.1 -07.4248 26327.0
 06 01 2013  13 16  -21.0179 26106.2 -03402.0 -07.4247 26326.9
 06 01 2013  13 17  -21.0194 26106.0 -03401.9 -07.4245 26326.7
 06 01 2013  13 18  -21.0205 26105.8 -03401.9 -07.4244 26326.5
 06 01 2013  13 19  -21.0210 26105.9 -03401.9 -07.4245 26326.6
 06 01 2013  13 20  -21.0219 26106.3 -03402.1 -07.4248 26327.0
 06 01 2013  13 21  -21.0225 26106.7 -03402.3 -07.4250 26327.5
 06 01 2013  13 22  -21.0232 26107.0 -03402.3 -07.4250 26327.8
 06 01 2013  13 23  -21.0243 26107.4 -03402.3 -07.4249 26328.1
 06 01 2013  13 24  -21.0253 26107.7 -03402.3 -07.4248 26328.5
 06 01 2013  13 25  -21.0263 26108.0 -03402.2 -07.4245 26328.7
 06 01 2013  13 26  -21.0273 26108.2 -03402.1 -07.4242 26328.9
 06 01 2013  13 27  -21.0283 26108.7 -03402.1 -07.4242 26329.4
 06 01 2013  13 28  -21.0292 26109.4 -03402.2 -07.4242 26330.1
 06 01 2013  13 29  -21.0299 26109.9 -03402.2 -07.4239 26330.6
 06 01 2013  13 30  -21.0305 26110.2 -03402.0 -07.4235 26330.9
 06 01 2013  13 31  -21.0307 26110.8 -03402.0 -07.4233 26331.4
 06 01 2013  13 32  -21.0311 26111.5 -03402.0 -07.4230 26332.2
 06 01 2013  13 33  -21.0318 26112.2 -03401.9 -07.4228 26332.9
 06 01 2013  13 34  -21.0324 26112.8 -03401.8 -07.4223 26333.4
 06 01 2013  13 35  -21.0332 26113.0 -03401.6 -07.4217 26333.6
 06 01 2013  13 36  -21.0338 26113.3 -03401.4 -07.4213 26333.9
 06 01 2013  13 37  -21.0345 26113.8 -03401.3 -07.4210 26334.3
 06 01 2013  13 38  -21.0348 26114.1 -03401.2 -07.4206 26334.6
 06 01 2013  13 39  -21.0353 26114.6 -03401.1 -07.4203 26335.1
 06 01 2013  13 40  -21.0363 26115.2 -03401.1 -07.4201 26335.8
 06 01 2013  13 41  -21.0374 26115.8 -03400.9 -07.4196 26336.4
 06 01 2013  13 42  -21.0386 26116.0 -03400.5 -07.4187 26336.4
 06 01 2013  13 43  -21.0396 26115.8 -03400.1 -07.4177 26336.2
 06 01 2013  13 44  -21.0406 26115.7 -03399.8 -07.4171 26336.1
 06 01 2013  13 45  -21.0413 26116.0 -03399.7 -07.4168 26336.3
 06 01 2013  13 46  -21.0420 26116.5 -03399.8 -07.4169 26336.9
 06 01 2013  13 47  -21.0427 26117.2 -03399.8 -07.4168 26337.6
 06 01 2013  13 48  -21.0432 26117.9 -03399.7 -07.4164 26338.2
 06 01 2013  13 49  -21.0438 26118.5 -03399.6 -07.4159 26338.8
 06 01 2013  13 50  -21.0444 26118.8 -03399.3 -07.4152 26339.1
 06 01 2013  13 51  -21.0451 26118.7 -03398.8 -07.4141 26338.9
 06 01 2013  13 52  -21.0463 26119.0 -03398.7 -07.4138 26339.2
 06 01 2013  13 53  -21.0472 26119.7 -03398.7 -07.4136 26339.9
 06 01 2013  13 54  -21.0486 26120.2 -03398.4 -07.4129 26340.3
 06 01 2013  13 55  -21.0498 26120.2 -03397.9 -07.4119 26340.3
 06 01 2013  13 56  -21.0511 26120.2 -03397.5 -07.4110 26340.2
 06 01 2013  13 57  -21.0518 26120.0 -03397.1 -07.4101 26339.9
 06 01 2013  13 58  -21.0527 26119.9 -03396.7 -07.4093 26339.8
 06 01 2013  13 59  -21.0535 26120.2 -03396.6 -07.4090 26340.2
 06 01 2013  14 00  -21.0545 26120.9 -03396.5 -07.4086 26340.8
 06 01 2013  14 01  -21.0554 26121.6 -03396.4 -07.4082 26341.5
 06 01 2013  14 02  -21.0553 26122.1 -03396.2 -07.4075 26341.9
 06 01 2013  14 03  -21.0558 26122.7 -03396.0 -07.4069 26342.6
 06 01 2013  14 04  -21.0562 26123.3 -03395.7 -07.4062 26343.1
 06 01 2013  14 05  -21.0566 26123.7 -03395.4 -07.4054 26343.4
 06 01 2013  14 06  -21.0570 26124.1 -03395.2 -07.4048 26343.8
 06 01 2013  14 07  -21.0576 26124.8 -03395.1 -07.4044 26344.5
 06 01 2013  14 08  -21.0585 26125.7 -03394.9 -07.4039 26345.4
 06 01 2013  14 09  -21.0592 26126.5 -03394.7 -07.4031 26346.1
 06 01 2013  14 10  -21.0599 26126.9 -03394.2 -07.4020 26346.4
 06 01 2013  14 11  -21.0610 26127.3 -03393.8 -07.4010 26346.8
 06 01 2013  14 12  -21.0608 26127.4 -03393.4 -07.4000 26346.8
 06 01 2013  14 13  -21.0612 26127.9 -03393.1 -07.3992 26347.3
 06 01 2013  14 14  -21.0619 26128.5 -03392.8 -07.3985 26347.8
 06 01 2013  14 15  -21.0626 26128.6 -03392.3 -07.3973 26347.9
 06 01 2013  14 16  -21.0633 26128.6 -03391.7 -07.3961 26347.8
 06 01 2013  14 17  -21.0638 26128.5 -03391.2 -07.3951 26347.7
 06 01 2013  14 18  -21.0643 26128.7 -03390.9 -07.3943 26347.8
 06 01 2013  14 19  -21.0645 26129.1 -03390.7 -07.3937 26348.2
 06 01 2013  14 20  -21.0643 26130.2 -03390.7 -07.3936 26349.3
 06 01 2013  14 21  -21.0645 26131.2 -03390.7 -07.3931 26350.2
 06 01 2013  14 22  -21.0643 26131.9 -03390.3 -07.3921 26350.9
 06 01 2013  14 23  -21.0641 26132.4 -03389.9 -07.3911 26351.4
 06 01 2013  14 24  -21.0643 26133.2 -03389.7 -07.3904 26352.1
 06 01 2013  14 25  -21.0635 26134.8 -03390.0 -07.3906 26353.8
 06 01 2013  14 26  -21.0625 26136.7 -03390.3 -07.3908 26355.7
 06 01 2013  14 27  -21.0619 26139.0 -03390.6 -07.3908 26357.9
 06 01 2013  14 28  -21.0618 26140.7 -03390.4 -07.3899 26359.6
 06 01 2013  14 29  -21.0621 26141.4 -03389.7 -07.3881 26360.2
 06 01 2013  14 30  -21.0622 26141.2 -03388.6 -07.3859 26359.9
 06 01 2013  14 31  -21.0627 26140.9 -03387.7 -07.3840 26359.5
 06 01 2013  14 32  -21.0637 26140.7 -03386.9 -07.3823 26359.2
 06 01 2013  14 33  -21.0646 26140.5 -03386.1 -07.3807 26358.9
 06 01 2013  14 34  -21.0654 26140.4 -03385.5 -07.3794 26358.7
 06 01 2013  14 35  -21.0658 26140.3 -03384.8 -07.3780 26358.5
 06 01 2013  14 36  -21.0652 26140.6 -03384.4 -07.3771 26358.8
 06 01 2013  14 37  -21.0649 26141.4 -03384.3 -07.3764 26359.6
 06 01 2013  14 38  -21.0650 26142.5 -03384.0 -07.3756 26360.6
 06 01 2013  14 39  -21.0647 26142.8 -03383.3 -07.3739 26360.8
 06 01 2013  14 40  -21.0658 26142.2 -03382.1 -07.3715 26360.0
 06 01 2013  14 41  -21.0667 26140.7 -03380.6 -07.3687 26358.4
 06 01 2013  14 42  -21.0670 26139.2 -03379.3 -07.3664 26356.7
 06 01 2013  14 43  -21.0672 26138.4 -03378.6 -07.3651 26355.8
 06 01 2013  14 44  -21.0675 26138.2 -03378.2 -07.3643 26355.6
 06 01 2013  14 45  -21.0677 26138.2 -03377.9 -07.3636 26355.6
 06 01 2013  14 46  -21.0672 26138.6 -03377.6 -07.3630 26356.0
 06 01 2013  14 47  -21.0664 26139.3 -03377.5 -07.3624 26356.6
 06 01 2013  14 48  -21.0657 26140.5 -03377.5 -07.3620 26357.8
 06 01 2013  14 49  -21.0642 26141.6 -03377.3 -07.3615 26358.9
 06 01 2013  14 50  -21.0641 26142.8 -03377.0 -07.3604 26360.0
 06 01 2013  14 51  -21.0643 26143.0 -03376.1 -07.3585 26360.1
 06 01 2013  14 52  -21.0642 26142.0 -03374.8 -07.3560 26358.9
 06 01 2013  14 53  -21.0641 26140.7 -03373.8 -07.3541 26357.6
 06 01 2013  14 54  -21.0644 26140.1 -03373.1 -07.3529 26356.8
 06 01 2013  14 55  -21.0649 26140.2 -03372.9 -07.3523 26356.9
 06 01 2013  14 56  -21.0651 26141.0 -03372.9 -07.3520 26357.7
 06 01 2013  14 57  -21.0649 26142.2 -03372.9 -07.3517 26358.9
 06 01 2013  14 58  -21.0642 26143.3 -03372.7 -07.3510 26360.0
 06 01 2013  14 59  -21.0629 26144.4 -03372.3 -07.3499 26361.0
 06 01 2013  15 00  -21.0632 26144.9 -03371.6 -07.3483 26361.4
 06 01 2013  15 01  -21.0625 26144.3 -03370.6 -07.3461 26360.7
 06 01 2013  15 02  -21.0612 26143.7 -03369.7 -07.3444 26360.0
 06 01 2013  15 03  -21.0604 26143.8 -03369.3 -07.3435 26360.0
 06 01 2013  15 04  -21.0612 26143.9 -03368.7 -07.3423 26360.1
 06 01 2013  15 05  -21.0616 26143.9 -03368.0 -07.3407 26359.9
 06 01 2013  15 06  -21.0616 26143.3 -03367.1 -07.3388 26359.2
 06 01 2013  15 07  -21.0614 26142.6 -03366.2 -07.3371 26358.5
 06 01 2013  15 08  -21.0607 26142.0 -03365.4 -07.3356 26357.7
 06 01 2013  15 09  -21.0601 26141.9 -03364.9 -07.3345 26357.6
 06 01 2013  15 10  -21.0594 26142.2 -03364.5 -07.3336 26357.8
 06 01 2013  15 11  -21.0588 26142.7 -03364.1 -07.3327 26358.2
 06 01 2013  15 12  -21.0578 26142.9 -03363.6 -07.3314 26358.4
 06 01 2013  15 13  -21.0568 26143.0 -03362.9 -07.3300 26358.4
 06 01 2013  15 14  -21.0557 26142.7 -03362.2 -07.3285 26358.0
 06 01 2013  15 15  -21.0547 26142.5 -03361.6 -07.3273 26357.8
 06 01 2013  15 16  -21.0537 26142.5 -03361.2 -07.3264 26357.7
 06 01 2013  15 17  -21.0528 26142.8 -03360.9 -07.3257 26357.9
 06 01 2013  15 18  -21.0524 26143.1 -03360.5 -07.3248 26358.2
 06 01 2013  15 19  -21.0519 26143.4 -03360.0 -07.3236 26358.4
 06 01 2013  15 20  -21.0510 26143.3 -03359.4 -07.3223 26358.3
 06 01 2013  15 21  -21.0499 26143.0 -03358.7 -07.3209 26357.9
 06 01 2013  15 22  -21.0489 26142.8 -03358.1 -07.3198 26357.6
 06 01 2013  15 23  -21.0474 26142.8 -03357.8 -07.3189 26357.6
 06 01 2013  15 24  -21.0459 26143.3 -03357.6 -07.3185 26358.1
 06 01 2013  15 25  -21.0451 26144.1 -03357.6 -07.3182 26358.8
 06 01 2013  15 26  -21.0440 26144.5 -03357.2 -07.3173 26359.2
 06 01 2013  15 27  -21.0431 26145.0 -03356.9 -07.3165 26359.6
 06 01 2013  15 28  -21.0422 26145.1 -03356.4 -07.3154 26359.7
 06 01 2013  15 29  -21.0411 26144.9 -03355.7 -07.3140 26359.4
 06 01 2013  15 30  -21.0399 26144.4 -03355.1 -07.3128 26358.8
 06 01 2013  15 31  -21.0391 26144.1 -03354.6 -07.3117 26358.5
 06 01 2013  15 32  -21.0388 26143.4 -03353.8 -07.3103 26357.6
 06 01 2013  15 33  -21.0381 26142.4 -03353.1 -07.3089 26356.6
 06 01 2013  15 34  -21.0368 26141.8 -03352.5 -07.3079 26355.8
 06 01 2013  15 35  -21.0355 26141.6 -03352.3 -07.3074 26355.7
 06 01 2013  15 36  -21.0353 26141.7 -03352.1 -07.3070 26355.7
 06 01 2013  15 37  -21.0335 26141.0 -03351.5 -07.3060 26355.0
 06 01 2013  15 38  -21.0316 26141.1 -03351.5 -07.3058 26355.1
 06 01 2013  15 39  -21.0308 26141.6 -03351.5 -07.3058 26355.5
 06 01 2013  15 40  -21.0300 26141.9 -03351.4 -07.3054 26355.8
 06 01 2013  15 41  -21.0291 26142.1 -03351.2 -07.3049 26356.0
 06 01 2013  15 42  -21.0284 26142.0 -03350.8 -07.3042 26355.9
 06 01 2013  15 43  -21.0275 26141.4 -03350.2 -07.3031 26355.2
 06 01 2013  15 44  -21.0265 26140.9 -03349.8 -07.3023 26354.7
 06 01 2013  15 45  -21.0246 26140.6 -03349.5 -07.3017 26354.3
 06 01 2013  15 46  -21.0234 26141.0 -03349.5 -07.3017 26354.7
 06 01 2013  15 47  -21.0235 26141.1 -03349.3 -07.3012 26354.8
 06 01 2013  15 48  -21.0225 26141.1 -03349.0 -07.3004 26354.8
 06 01 2013  15 49  -21.0217 26141.5 -03348.9 -07.3002 26355.1
 06 01 2013  15 50  -21.0202 26141.9 -03348.7 -07.2997 26355.5
 06 01 2013  15 51  -21.0183 26141.7 -03348.3 -07.2988 26355.3
 06 01 2013  15 52  -21.0168 26141.6 -03348.0 -07.2982 26355.1
 06 01 2013  15 53  -21.0156 26142.1 -03348.0 -07.2981 26355.6
 06 01 2013  15 54  -21.0142 26142.4 -03347.9 -07.2977 26355.9
 06 01 2013  15 55  -21.0128 26142.5 -03347.6 -07.2972 26356.0
 06 01 2013  15 56  -21.0109 26142.7 -03347.4 -07.2965 26356.1
 06 01 2013  15 57  -21.0089 26142.3 -03346.9 -07.2957 26355.6
 06 01 2013  15 58  -21.0074 26141.9 -03346.6 -07.2951 26355.3
 06 01 2013  15 59  -21.0053 26141.2 -03346.2 -07.2944 26354.5
 06 01 2013  16 00  -21.0035 26141.1 -03346.1 -07.2942 26354.4
 06 01 2013  16 01  -21.0019 26141.3 -03346.2 -07.2943 26354.6
 06 01 2013  16 02  -21.0008 26141.5 -03346.1 -07.2942 26354.8
 06 01 2013  16 03  -20.9985 26140.7 -03345.6 -07.2932 26353.9
 06 01 2013  16 04  -20.9964 26140.4 -03345.4 -07.2929 26353.6
 06 01 2013  16 05  -20.9952 26139.9 -03345.2 -07.2926 26353.1
 06 01 2013  16 06  -20.9931 26138.6 -03344.6 -07.2917 26351.7
 06 01 2013  16 07  -20.9906 26137.3 -03344.1 -07.2910 26350.3
 06 01 2013  16 08  -20.9881 26135.9 -03343.9 -07.2909 26349.0
 06 01 2013  16 09  -20.9857 26135.1 -03343.9 -07.2912 26348.1
 06 01 2013  16 10  -20.9845 26135.0 -03344.4 -07.2923 26348.1
 06 01 2013  16 11  -20.9832 26135.1 -03344.9 -07.2933 26348.3
 06 01 2013  16 12  -20.9820 26135.3 -03345.3 -07.2941 26348.5
 06 01 2013  16 13  -20.9802 26134.7 -03345.3 -07.2943 26348.0
 06 01 2013  16 14  -20.9775 26133.7 -03345.1 -07.2942 26346.9
 06 01 2013  16 15  -20.9760 26133.3 -03345.4 -07.2950 26346.5
 06 01 2013  16 16  -20.9747 26132.7 -03345.6 -07.2956 26346.0
 06 01 2013  16 17  -20.9740 26132.4 -03345.9 -07.2962 26345.8
 06 01 2013  16 18  -20.9737 26132.4 -03346.3 -07.2970 26345.8
 06 01 2013  16 19  -20.9735 26132.2 -03346.4 -07.2974 26345.6
 06 01 2013  16 20  -20.9710 26131.0 -03346.1 -07.2971 26344.4
 06 01 2013  16 21  -20.9694 26130.9 -03346.7 -07.2983 26344.3
 06 01 2013  16 22  -20.9688 26130.7 -03347.1 -07.2994 26344.2
 06 01 2013  16 23  -20.9693 26130.8 -03347.6 -07.3005 26344.3
 06 01 2013  16 24  -20.9685 26130.3 -03347.7 -07.3008 26343.9
 06 01 2013  16 25  -20.9678 26130.2 -03348.1 -07.3015 26343.8
 06 01 2013  16 26  -20.9670 26129.6 -03348.2 -07.3020 26343.3
 06 01 2013  16 27  -20.9666 26129.0 -03348.4 -07.3025 26342.6
 06 01 2013  16 28  -20.9655 26128.2 -03348.5 -07.3029 26341.8
 06 01 2013  16 29  -20.9640 26127.8 -03348.8 -07.3038 26341.5
 06 01 2013  16 30  -20.9635 26127.6 -03349.4 -07.3050 26341.4
 06 01 2013  16 31  -20.9628 26127.5 -03349.8 -07.3061 26341.3
 06 01 2013  16 32  -20.9640 26128.3 -03350.7 -07.3076 26342.3
 06 01 2013  16 33  -20.9649 26128.5 -03351.0 -07.3084 26342.5
 06 01 2013  16 34  -20.9653 26127.9 -03351.0 -07.3084 26341.9
 06 01 2013  16 35  -20.9642 26127.1 -03350.9 -07.3084 26341.1
 06 01 2013  16 36  -20.9628 26126.6 -03350.9 -07.3087 26340.6
 06 01 2013  16 37  -20.9623 26125.8 -03351.1 -07.3093 26339.9
 06 01 2013  16 38  -20.9615 26125.2 -03351.4 -07.3100 26339.3
 06 01 2013  16 39  -20.9612 26124.8 -03351.7 -07.3109 26338.9
 06 01 2013  16 40  -20.9615 26124.7 -03352.2 -07.3119 26338.9
 06 01 2013  16 41  -20.9619 26124.5 -03352.6 -07.3128 26338.7
 06 01 2013  16 42  -20.9620 26124.0 -03352.8 -07.3134 26338.3
 06 01 2013  16 43  -20.9619 26123.0 -03352.7 -07.3135 26337.2
 06 01 2013  16 44  -20.9621 26122.2 -03352.8 -07.3139 26336.5
 06 01 2013  16 45  -20.9634 26122.3 -03353.4 -07.3152 26336.7
 06 01 2013  16 46  -20.9653 26122.4 -03353.9 -07.3162 26336.8
 06 01 2013  16 47  -20.9676 26122.1 -03354.0 -07.3167 26336.5
 06 01 2013  16 48  -20.9686 26120.9 -03354.0 -07.3169 26335.4
 06 01 2013  16 49  -20.9688 26119.4 -03353.6 -07.3165 26333.8
 06 01 2013  16 50  -20.9692 26117.2 -03352.8 -07.3154 26331.5
 06 01 2013  16 51  -20.9690 26115.8 -03352.6 -07.3154 26330.2
 06 01 2013  16 52  -20.9700 26114.6 -03352.7 -07.3158 26329.0
 06 01 2013  16 53  -20.9717 26113.0 -03352.5 -07.3159 26327.3
 06 01 2013  16 54  -20.9739 26112.0 -03352.8 -07.3168 26326.4
 06 01 2013  16 55  -20.9754 26111.9 -03353.5 -07.3183 26326.3
 06 01 2013  16 56  -20.9773 26112.2 -03354.4 -07.3201 26326.7
 06 01 2013  16 57  -20.9789 26112.1 -03355.0 -07.3214 26326.8
 06 01 2013  16 58  -20.9804 26112.6 -03355.6 -07.3227 26327.3
 06 01 2013  16 59  -20.9816 26112.8 -03356.0 -07.3235 26327.6
 06 01 2013  17 00  -20.9825 26112.5 -03356.1 -07.3238 26327.3
 06 01 2013  17 01  -20.9841 26112.2 -03356.2 -07.3241 26327.0
 06 01 2013  17 02  -20.9851 26111.7 -03356.2 -07.3242 26326.5
 06 01 2013  17 03  -20.9859 26111.3 -03356.3 -07.3246 26326.2
 06 01 2013  17 04  -20.9868 26111.0 -03356.5 -07.3251 26325.9
 06 01 2013  17 05  -20.9876 26110.6 -03356.7 -07.3256 26325.5
 06 01 2013  17 06  -20.9887 26110.4 -03357.0 -07.3263 26325.3
 06 01 2013  17 07  -20.9897 26110.1 -03357.2 -07.3269 26325.1
 06 01 2013  17 08  -20.9906 26109.9 -03357.5 -07.3275 26324.9
 06 01 2013  17 09  -20.9925 26109.4 -03357.7 -07.3280 26324.4
 06 01 2013  17 10  -20.9940 26108.9 -03357.8 -07.3284 26323.9
 06 01 2013  17 11  -20.9944 26108.4 -03357.9 -07.3287 26323.4
 06 01 2013  17 12  -20.9951 26107.7 -03358.0 -07.3292 26322.8
 06 01 2013  17 13  -20.9963 26107.2 -03358.3 -07.3299 26322.4
 06 01 2013  17 14  -20.9976 26107.0 -03358.6 -07.3306 26322.1
 06 01 2013  17 15  -20.9989 26106.4 -03358.7 -07.3309 26321.6
 06 01 2013  17 16  -21.0004 26105.8 -03358.8 -07.3313 26321.0
 06 01 2013  17 17  -21.0013 26105.3 -03358.9 -07.3317 26320.5
 06 01 2013  17 18  -21.0021 26104.8 -03359.0 -07.3321 26320.0
 06 01 2013  17 19  -21.0033 26104.3 -03359.1 -07.3325 26319.6
 06 01 2013  17 20  -21.0043 26103.9 -03359.3 -07.3330 26319.2
 06 01 2013  17 21  -21.0045 26103.4 -03359.4 -07.3335 26318.7
 06 01 2013  17 22  -21.0054 26103.1 -03359.8 -07.3343 26318.4
 06 01 2013  17 23  -21.0054 26102.8 -03360.1 -07.3351 26318.2
 06 01 2013  17 24  -21.0061 26103.2 -03360.7 -07.3363 26318.6
 06 01 2013  17 25  -21.0077 26103.5 -03361.2 -07.3373 26319.0
 06 01 2013  17 26  -21.0091 26103.3 -03361.3 -07.3375 26318.9
 06 01 2013  17 27  -21.0105 26102.9 -03361.2 -07.3373 26318.4
 06 01 2013  17 28  -21.0110 26102.3 -03361.1 -07.3373 26317.8
 06 01 2013  17 29  -21.0115 26101.5 -03361.1 -07.3377 26317.1
 06 01 2013  17 30  -21.0136 26100.9 -03361.2 -07.3381 26316.4
 06 01 2013  17 31  -21.0140 26099.4 -03360.8 -07.3376 26314.9
 06 01 2013  17 32  -21.0146 26098.7 -03360.9 -07.3380 26314.2
 06 01 2013  17 33  -21.0152 26098.1 -03361.2 -07.3387 26313.6
 06 01 2013  17 34  -21.0163 26097.4 -03361.3 -07.3393 26312.9
 06 01 2013  17 35  -21.0170 26097.2 -03361.6 -07.3400 26312.8
 06 01 2013  17 36  -21.0180 26097.0 -03361.9 -07.3406 26312.6
 06 01 2013  17 37  -21.0192 26097.2 -03362.3 -07.3413 26312.9
 06 01 2013  17 38  -21.0191 26096.6 -03362.2 -07.3413 26312.3
 06 01 2013  17 39  -21.0185 26095.8 -03362.1 -07.3414 26311.5
 06 01 2013  17 40  -21.0193 26095.7 -03362.5 -07.3423 26311.5
 06 01 2013  17 41  -21.0198 26095.5 -03362.8 -07.3430 26311.3
 06 01 2013  17 42  -21.0198 26095.5 -03363.2 -07.3438 26311.4
 06 01 2013  17 43  -21.0206 26095.6 -03363.6 -07.3447 26311.5
 06 01 2013  17 44  -21.0209 26095.5 -03363.7 -07.3449 26311.4
 06 01 2013  17 45  -21.0209 26094.5 -03363.5 -07.3447 26310.4
 06 01 2013  17 46  -21.0214 26093.8 -03363.4 -07.3448 26309.7
 06 01 2013  17 47  -21.0214 26093.4 -03363.5 -07.3451 26309.2
 06 01 2013  17 48  -21.0217 26093.0 -03363.8 -07.3457 26309.0
 06 01 2013  17 49  -21.0233 26091.8 -03363.6 -07.3456 26307.7
 06 01 2013  17 50  -21.0236 26091.2 -03363.6 -07.3458 26307.1
 06 01 2013  17 51  -21.0225 26091.7 -03364.2 -07.3470 26307.6
 06 01 2013  17 52  -21.0225 26091.7 -03364.8 -07.3484 26307.8
 06 01 2013  17 53  -21.0231 26092.7 -03365.6 -07.3497 26308.8
 06 01 2013  17 54  -21.0237 26091.8 -03365.2 -07.3492 26307.9
 06 01 2013  17 55  -21.0234 26090.9 -03364.9 -07.3489 26307.0
 06 01 2013  17 56  -21.0235 26090.7 -03365.0 -07.3491 26306.8
 06 01 2013  17 57  -21.0239 26090.3 -03365.1 -07.3494 26306.4
 06 01 2013  17 58  -21.0234 26090.0 -03365.4 -07.3501 26306.2
 06 01 2013  17 59  -21.0230 26092.1 -03366.9 -07.3528 26308.4
 06 01 2013  18 00  -21.0242 26092.6 -03367.5 -07.3538 26309.0
 06 01 2013  18 01  -21.0248 26091.9 -03367.1 -07.3533 26308.3
 06 01 2013  18 02  -21.0249 26091.8 -03367.0 -07.3531 26308.1
 06 01 2013  18 03  -21.0248 26091.2 -03367.0 -07.3531 26307.5
 06 01 2013  18 04  -21.0251 26090.1 -03366.8 -07.3531 26306.5
 06 01 2013  18 05  -21.0259 26089.0 -03366.6 -07.3530 26305.4
 06 01 2013  18 06  -21.0263 26088.4 -03366.6 -07.3532 26304.7
 06 01 2013  18 07  -21.0271 26088.0 -03366.9 -07.3539 26304.3
 06 01 2013  18 08  -21.0277 26088.5 -03367.6 -07.3553 26305.0
 06 01 2013  18 09  -21.0302 26088.5 -03368.0 -07.3561 26305.0
 06 01 2013  18 10  -21.0320 26088.0 -03367.8 -07.3558 26304.4
 06 01 2013  18 11  -21.0325 26087.4 -03367.6 -07.3556 26303.8
 06 01 2013  18 12  -21.0333 26086.5 -03367.4 -07.3553 26302.9
 06 01 2013  18 13  -21.0316 26086.3 -03367.5 -07.3556 26302.7
 06 01 2013  18 14  -21.0293 26085.0 -03367.5 -07.3559 26301.5
 06 01 2013  18 15  -21.0300 26085.5 -03368.5 -07.3580 26302.1
 06 01 2013  18 16  -21.0304 26085.6 -03369.2 -07.3595 26302.3
 06 01 2013  18 17  -21.0313 26086.3 -03370.0 -07.3610 26303.1
 06 01 2013  18 18  -21.0332 26086.3 -03370.2 -07.3614 26303.1
 06 01 2013  18 19  -21.0345 26084.5 -03369.4 -07.3603 26301.3
 06 01 2013  18 20  -21.0338 26083.6 -03369.0 -07.3597 26300.3
 06 01 2013  18 21  -21.0355 26082.5 -03369.0 -07.3599 26299.2
 06 01 2013  18 22  -21.0357 26080.4 -03368.3 -07.3591 26297.1
 06 01 2013  18 23  -21.0362 26079.5 -03368.3 -07.3593 26296.1
 06 01 2013  18 24  -21.0360 26079.4 -03368.8 -07.3604 26296.1
 06 01 2013  18 25  -21.0361 26079.4 -03369.4 -07.3616 26296.2
 06 01 2013  18 26  -21.0365 26079.7 -03369.9 -07.3627 26296.6
 06 01 2013  18 27  -21.0370 26079.7 -03370.2 -07.3633 26296.6
 06 01 2013  18 28  -21.0371 26080.6 -03370.8 -07.3643 26297.5
 06 01 2013  18 29  -21.0381 26080.6 -03371.1 -07.3649 26297.6
 06 01 2013  18 30  -21.0395 26079.8 -03370.8 -07.3646 26296.7
 06 01 2013  18 31  -21.0402 26079.1 -03370.6 -07.3643 26296.1
 06 01 2013  18 32  -21.0414 26078.9 -03370.6 -07.3645 26295.8
 06 01 2013  18 33  -21.0427 26078.5 -03370.6 -07.3645 26295.4
 06 01 2013  18 34  -21.0436 26077.9 -03370.4 -07.3642 26294.7
 06 01 2013  18 35  -21.0443 26077.5 -03370.3 -07.3642 26294.4
 06 01 2013  18 36  -21.0449 26077.0 -03370.2 -07.3642 26293.9
 06 01 2013  18 37  -21.0454 26077.4 -03370.6 -07.3648 26294.3
 06 01 2013  18 38  -21.0462 26077.5 -03370.8 -07.3652 26294.4
 06 01 2013  18 39  -21.0467 26077.6 -03370.9 -07.3654 26294.5
 06 01 2013  18 40  -21.0475 26077.4 -03370.9 -07.3655 26294.3
 06 01 2013  18 41  -21.0483 26077.0 -03370.8 -07.3653 26294.0
 06 01 2013  18 42  -21.0484 26076.7 -03370.6 -07.3651 26293.6
 06 01 2013  18 43  -21.0487 26076.5 -03370.6 -07.3652 26293.4
 06 01 2013  18 44  -21.0493 26076.3 -03370.6 -07.3653 26293.2
 06 01 2013  18 45  -21.0491 26076.2 -03370.7 -07.3653 26293.1
 06 01 2013  18 46  -21.0495 26076.1 -03370.8 -07.3656 26293.1
 06 01 2013  18 47  -21.0492 26076.2 -03370.9 -07.3659 26293.2
 06 01 2013  18 48  -21.0498 26076.2 -03371.1 -07.3663 26293.3
 06 01 2013  18 49  -21.0496 26076.0 -03371.1 -07.3662 26293.0
 06 01 2013  18 50  -21.0499 26075.8 -03371.1 -07.3663 26292.8
 06 01 2013  18 51  -21.0501 26075.4 -03371.0 -07.3662 26292.4
 06 01 2013  18 52  -21.0503 26074.9 -03370.8 -07.3660 26291.9
 06 01 2013  18 53  -21.0503 26074.6 -03370.7 -07.3658 26291.6
 06 01 2013  18 54  -21.0507 26074.4 -03370.6 -07.3657 26291.4
 06 01 2013  18 55  -21.0510 26074.1 -03370.5 -07.3657 26291.0
 06 01 2013  18 56  -21.0506 26074.4 -03370.9 -07.3663 26291.4
 06 01 2013  18 57  -21.0506 26074.8 -03371.3 -07.3671 26291.8
 06 01 2013  18 58  -21.0507 26074.5 -03371.3 -07.3672 26291.6
 06 01 2013  18 59  -21.0511 26073.6 -03370.8 -07.3664 26290.6
 06 01 2013  19 00  -21.0513 26073.3 -03370.7 -07.3661 26290.2
 06 01 2013  19 01  -21.0514 26073.0 -03370.7 -07.3662 26290.0
 06 01 2013  19 02  -21.0510 26072.7 -03370.7 -07.3663 26289.7
 06 01 2013  19 03  -21.0507 26072.6 -03370.8 -07.3667 26289.6
 06 01 2013  19 04  -21.0506 26072.5 -03370.8 -07.3667 26289.5
 06 01 2013  19 05  -21.0507 26072.3 -03370.8 -07.3667 26289.3
 06 01 2013  19 06  -21.0506 26072.5 -03370.9 -07.3669 26289.5
 06 01 2013  19 07  -21.0499 26073.2 -03371.2 -07.3674 26290.2
 06 01 2013  19 08  -21.0496 26072.9 -03371.2 -07.3674 26290.0
 06 01 2013  19 09  -21.0491 26072.8 -03371.2 -07.3674 26289.9
 06 01 2013  19 10  -21.0481 26073.2 -03371.4 -07.3677 26290.3
 06 01 2013  19 11  -21.0474 26074.4 -03372.1 -07.3690 26291.6
 06 01 2013  19 12  -21.0470 26073.8 -03371.9 -07.3687 26290.9
 06 01 2013  19 13  -21.0461 26073.2 -03371.6 -07.3683 26290.3
 06 01 2013  19 14  -21.0453 26073.5 -03371.8 -07.3685 26290.6
 06 01 2013  19 15  -21.0448 26073.6 -03372.0 -07.3689 26290.8
 06 01 2013  19 16  -21.0449 26072.9 -03371.8 -07.3686 26290.1
 06 01 2013  19 17  -21.0449 26072.4 -03371.5 -07.3682 26289.5
 06 01 2013  19 18  -21.0443 26072.5 -03371.7 -07.3685 26289.6
 06 01 2013  19 19  -21.0436 26073.1 -03372.1 -07.3693 26290.3
 06 01 2013  19 20  -21.0432 26073.3 -03372.5 -07.3700 26290.5
 06 01 2013  19 21  -21.0428 26073.1 -03372.5 -07.3702 26290.3
 06 01 2013  19 22  -21.0425 26072.8 -03372.5 -07.3702 26290.0
 06 01 2013  19 23  -21.0420 26072.5 -03372.5 -07.3703 26289.7
 06 01 2013  19 24  -21.0416 26072.4 -03372.7 -07.3707 26289.7
 06 01 2013  19 25  -21.0413 26072.3 -03372.8 -07.3710 26289.5
 06 01 2013  19 26  -21.0410 26072.1 -03372.9 -07.3713 26289.4
 06 01 2013  19 27  -21.0405 26072.1 -03373.1 -07.3718 26289.4
 06 01 2013  19 28  -21.0399 26072.1 -03373.4 -07.3723 26289.4
 06 01 2013  19 29  -21.0397 26071.7 -03373.4 -07.3725 26289.1
 06 01 2013  19 30  -21.0396 26071.5 -03373.5 -07.3727 26288.8
 06 01 2013  19 31  -21.0394 26071.4 -03373.7 -07.3732 26288.8
 06 01 2013  19 32  -21.0392 26071.4 -03373.9 -07.3736 26288.8
 06 01 2013  19 33  -21.0392 26071.0 -03373.9 -07.3737 26288.4
 06 01 2013  19 34  -21.0389 26071.0 -03374.0 -07.3741 26288.4
 06 01 2013  19 35  -21.0385 26071.1 -03374.3 -07.3747 26288.6
 06 01 2013  19 36  -21.0381 26071.3 -03374.6 -07.3753 26288.8
 06 01 2013  19 37  -21.0379 26071.1 -03374.8 -07.3756 26288.6
 06 01 2013  19 38  -21.0377 26070.9 -03374.8 -07.3758 26288.5
 06 01 2013  19 39  -21.0369 26071.4 -03375.1 -07.3763 26289.0
 06 01 2013  19 40  -21.0365 26072.0 -03375.7 -07.3773 26289.6
 06 01 2013  19 41  -21.0364 26071.8 -03375.7 -07.3775 26289.5
 06 01 2013  19 42  -21.0362 26071.8 -03375.8 -07.3777 26289.4
 06 01 2013  19 43  -21.0356 26072.1 -03376.1 -07.3782 26289.7
 06 01 2013  19 44  -21.0351 26072.2 -03376.3 -07.3786 26289.9
 06 01 2013  19 45  -21.0348 26072.3 -03376.4 -07.3789 26290.0
 06 01 2013  19 46  -21.0347 26072.1 -03376.4 -07.3789 26289.8
 06 01 2013  19 47  -21.0343 26072.3 -03376.6 -07.3792 26290.0
 06 01 2013  19 48  -21.0342 26072.3 -03376.7 -07.3795 26290.0
 06 01 2013  19 49  -21.0341 26071.8 -03376.6 -07.3793 26289.6
 06 01 2013  19 50  -21.0338 26072.0 -03376.6 -07.3794 26289.7
 06 01 2013  19 51  -21.0335 26071.9 -03376.7 -07.3795 26289.7
 06 01 2013  19 52  -21.0330 26072.1 -03377.0 -07.3801 26289.9
 06 01 2013  19 53  -21.0327 26072.4 -03377.3 -07.3806 26290.2
 06 01 2013  19 54  -21.0323 26072.4 -03377.4 -07.3809 26290.2
 06 01 2013  19 55  -21.0319 26072.3 -03377.4 -07.3811 26290.1
 06 01 2013  19 56  -21.0316 26072.3 -03377.5 -07.3813 26290.2
 06 01 2013  19 57  -21.0311 26072.4 -03377.7 -07.3816 26290.2
 06 01 2013  19 58  -21.0306 26072.3 -03377.8 -07.3819 26290.2
 06 01 2013  19 59  -21.0306 26071.9 -03377.8 -07.3820 26289.8
 06 01 2013  20 00  -21.0303 26071.6 -03377.8 -07.3819 26289.5
 06 01 2013  20 01  -21.0299 26071.6 -03377.9 -07.3823 26289.5
 06 01 2013  20 02  -21.0292 26072.1 -03378.3 -07.3830 26290.1
 06 01 2013  20 03  -21.0279 26073.8 -03379.3 -07.3847 26291.9
 06 01 2013  20 04  -21.0279 26073.2 -03379.4 -07.3850 26291.3
 06 01 2013  20 05  -21.0276 26072.8 -03379.2 -07.3847 26290.9
 06 01 2013  20 06  -21.0273 26073.1 -03379.4 -07.3852 26291.2
 06 01 2013  20 07  -21.0271 26072.9 -03379.6 -07.3854 26291.0
 06 01 2013  20 08  -21.0269 26072.6 -03379.6 -07.3856 26290.7
 06 01 2013  20 09  -21.0268 26072.5 -03379.7 -07.3859 26290.6
 06 01 2013  20 10  -21.0265 26072.5 -03379.9 -07.3863 26290.7
 06 01 2013  20 11  -21.0264 26072.4 -03380.0 -07.3866 26290.6
 06 01 2013  20 12  -21.0265 26071.9 -03379.9 -07.3865 26290.1
 06 01 2013  20 13  -21.0263 26071.7 -03379.9 -07.3866 26289.9
 06 01 2013  20 14  -21.0261 26071.8 -03380.2 -07.3872 26290.0
 06 01 2013  20 15  -21.0258 26071.7 -03380.4 -07.3875 26290.0
 06 01 2013  20 16  -21.0256 26071.8 -03380.6 -07.3879 26290.1
 06 01 2013  20 17  -21.0253 26071.7 -03380.7 -07.3883 26290.0
 06 01 2013  20 18  -21.0254 26071.3 -03380.7 -07.3884 26289.6
 06 01 2013  20 19  -21.0257 26070.6 -03380.5 -07.3882 26288.9
 06 01 2013  20 20  -21.0258 26070.4 -03380.5 -07.3883 26288.7
 06 01 2013  20 21  -21.0257 26070.5 -03380.7 -07.3887 26288.8
 06 01 2013  20 22  -21.0255 26070.6 -03381.0 -07.3891 26288.9
 06 01 2013  20 23  -21.0256 26070.4 -03381.0 -07.3894 26288.7
 06 01 2013  20 24  -21.0259 26070.1 -03381.0 -07.3894 26288.4
 06 01 2013  20 25  -21.0259 26070.0 -03381.1 -07.3896 26288.3
 06 01 2013  20 26  -21.0258 26070.0 -03381.2 -07.3899 26288.4
 06 01 2013  20 27  -21.0258 26070.0 -03381.3 -07.3902 26288.3
 06 01 2013  20 28  -21.0257 26070.0 -03381.5 -07.3904 26288.4
 06 01 2013  20 29  -21.0254 26070.2 -03381.6 -07.3907 26288.6
 06 01 2013  20 30  -21.0251 26070.4 -03381.9 -07.3912 26288.9
 06 01 2013  20 31  -21.0247 26070.7 -03382.1 -07.3916 26289.2
 06 01 2013  20 32  -21.0246 26070.7 -03382.3 -07.3920 26289.2
 06 01 2013  20 33  -21.0249 26069.8 -03381.9 -07.3914 26288.3
 06 01 2013  20 34  -21.0249 26069.5 -03381.8 -07.3912 26287.9
 06 01 2013  20 35  -21.0245 26069.8 -03382.0 -07.3916 26288.3
 06 01 2013  20 36  -21.0243 26069.8 -03382.2 -07.3920 26288.3
 06 01 2013  20 37  -21.0242 26069.6 -03382.1 -07.3920 26288.1
 06 01 2013  20 38  -21.0240 26069.7 -03382.2 -07.3922 26288.2
 06 01 2013  20 39  -21.0238 26069.9 -03382.5 -07.3926 26288.4
 06 01 2013  20 40  -21.0237 26069.8 -03382.5 -07.3927 26288.3
 06 01 2013  20 41  -21.0238 26069.6 -03382.5 -07.3926 26288.1
 06 01 2013  20 42  -21.0240 26069.2 -03382.3 -07.3925 26287.7
 06 01 2013  20 43  -21.0236 26069.3 -03382.4 -07.3926 26287.8
 06 01 2013  20 44  -21.0233 26069.5 -03382.6 -07.3931 26288.1
 06 01 2013  20 45  -21.0233 26069.2 -03382.6 -07.3930 26287.7
 06 01 2013  20 46  -21.0233 26068.8 -03382.4 -07.3928 26287.4
 06 01 2013  20 47  -21.0231 26068.9 -03382.5 -07.3930 26287.4
 06 01 2013  20 48  -21.0230 26068.9 -03382.6 -07.3931 26287.4
 06 01 2013  20 49  -21.0231 26068.6 -03382.5 -07.3931 26287.1
 06 01 2013  20 50  -21.0233 26068.1 -03382.4 -07.3929 26286.7
 06 01 2013  20 51  -21.0232 26068.0 -03382.3 -07.3928 26286.5
 06 01 2013  20 52  -21.0230 26067.9 -03382.3 -07.3928 26286.4
 06 01 2013  20 53  -21.0228 26067.7 -03382.3 -07.3928 26286.2
 06 01 2013  20 54  -21.0227 26067.4 -03382.2 -07.3927 26285.9
 06 01 2013  20 55  -21.0227 26067.4 -03382.2 -07.3928 26285.9
 06 01 2013  20 56  -21.0227 26067.3 -03382.3 -07.3928 26285.9
 06 01 2013  20 57  -21.0225 26067.5 -03382.3 -07.3930 26286.0
 06 01 2013  20 58  -21.0224 26067.5 -03382.4 -07.3931 26286.0
 06 01 2013  20 59  -21.0220 26067.3 -03382.3 -07.3930 26285.8
 06 01 2013  21 00  -21.0214 26067.7 -03382.4 -07.3932 26286.2
 06 01 2013  21 01  -21.0209 26068.1 -03382.7 -07.3935 26286.6
 06 01 2013  21 02  -21.0207 26068.2 -03382.7 -07.3936 26286.8
 06 01 2013  21 03  -21.0206 26068.0 -03382.6 -07.3934 26286.5
 06 01 2013  21 04  -21.0200 26068.3 -03382.7 -07.3935 26286.9
 06 01 2013  21 05  -21.0192 26068.5 -03382.8 -07.3937 26287.1
 06 01 2013  21 06  -21.0189 26068.0 -03382.6 -07.3933 26286.5
 06 01 2013  21 07  -21.0185 26067.6 -03382.3 -07.3929 26286.1
 06 01 2013  21 08  -21.0173 26067.8 -03382.4 -07.3930 26286.4
 06 01 2013  21 09  -21.0165 26067.7 -03382.4 -07.3930 26286.2
 06 01 2013  21 10  -21.0162 26067.2 -03382.2 -07.3927 26285.7
 06 01 2013  21 11  -21.0154 26067.2 -03382.2 -07.3928 26285.8
 06 01 2013  21 12  -21.0146 26067.5 -03382.4 -07.3931 26286.0
 06 01 2013  21 13  -21.0138 26067.4 -03382.5 -07.3933 26286.0
 06 01 2013  21 14  -21.0128 26067.7 -03382.7 -07.3937 26286.3
 06 01 2013  21 15  -21.0119 26068.0 -03383.0 -07.3943 26286.6
 06 01 2013  21 16  -21.0111 26068.2 -03383.2 -07.3947 26286.8
 06 01 2013  21 17  -21.0106 26068.2 -03383.4 -07.3952 26286.9
 06 01 2013  21 18  -21.0102 26068.2 -03383.6 -07.3955 26286.9
 06 01 2013  21 19  -21.0104 26067.8 -03383.6 -07.3956 26286.5
 06 01 2013  21 20  -21.0106 26067.5 -03383.6 -07.3956 26286.1
 06 01 2013  21 21  -21.0108 26067.3 -03383.6 -07.3958 26286.0
 06 01 2013  21 22  -21.0110 26067.2 -03383.7 -07.3960 26285.9
 06 01 2013  21 23  -21.0106 26067.8 -03384.0 -07.3965 26286.5
 06 01 2013  21 24  -21.0103 26068.6 -03384.5 -07.3973 26287.3
 06 01 2013  21 25  -21.0100 26068.8 -03384.7 -07.3977 26287.6
 06 01 2013  21 26  -21.0097 26069.0 -03384.8 -07.3978 26287.8
 06 01 2013  21 27  -21.0093 26069.3 -03384.9 -07.3980 26288.2
 06 01 2013  21 28  -21.0089 26069.4 -03384.9 -07.3980 26288.2
 06 01 2013  21 29  -21.0088 26068.8 -03384.6 -07.3975 26287.6
 06 01 2013  21 30  -21.0084 26068.8 -03384.5 -07.3973 26287.6
 06 01 2013  21 31  -21.0078 26068.7 -03384.5 -07.3973 26287.5
 06 01 2013  21 32  -21.0072 26068.7 -03384.4 -07.3972 26287.5
 06 01 2013  21 33  -21.0069 26068.2 -03384.2 -07.3969 26287.0
 06 01 2013  21 34  -21.0064 26067.8 -03384.1 -07.3966 26286.6
 06 01 2013  21 35  -21.0057 26068.0 -03384.1 -07.3967 26286.7
 06 01 2013  21 36  -21.0051 26067.9 -03384.2 -07.3969 26286.7
 06 01 2013  21 37  -21.0045 26067.9 -03384.3 -07.3970 26286.6
 06 01 2013  21 38  -21.0040 26068.0 -03384.4 -07.3973 26286.7
 06 01 2013  21 39  -21.0034 26068.0 -03384.5 -07.3976 26286.8
 06 01 2013  21 40  -21.0029 26068.1 -03384.7 -07.3979 26286.9
 06 01 2013  21 41  -21.0026 26068.2 -03384.8 -07.3982 26287.1
 06 01 2013  21 42  -21.0023 26068.2 -03385.0 -07.3985 26287.1
 06 01 2013  21 43  -21.0020 26068.3 -03385.1 -07.3987 26287.1
 06 01 2013  21 44  -21.0016 26068.2 -03385.1 -07.3989 26287.0
 06 01 2013  21 45  -21.0017 26068.0 -03385.2 -07.3990 26286.9
 06 01 2013  21 46  -21.0015 26067.9 -03385.2 -07.3991 26286.8
 06 01 2013  21 47  -21.0013 26067.8 -03385.2 -07.3991 26286.6
 06 01 2013  21 48  -21.0011 26067.5 -03385.2 -07.3991 26286.4
 06 01 2013  21 49  -21.0010 26067.4 -03385.2 -07.3992 26286.3
 06 01 2013  21 50  -21.0008 26067.3 -03385.3 -07.3994 26286.1
 06 01 2013  21 51  -21.0006 26067.3 -03385.4 -07.3996 26286.2
 06 01 2013  21 52  -21.0005 26067.2 -03385.5 -07.3998 26286.2
 06 01 2013  21 53  -21.0004 26067.3 -03385.6 -07.4000 26286.2
 06 01 2013  21 54  -21.0004 26067.3 -03385.7 -07.4002 26286.2
 06 01 2013  21 55  -21.0005 26067.2 -03385.7 -07.4004 26286.2
 06 01 2013  21 56  -21.0005 26067.1 -03385.7 -07.4005 26286.0
 06 01 2013  21 57  -21.0005 26066.9 -03385.8 -07.4005 26285.9
 06 01 2013  21 58  -21.0005 26066.8 -03385.8 -07.4006 26285.7
 06 01 2013  21 59  -21.0005 26066.6 -03385.8 -07.4006 26285.6
 06 01 2013  22 00  -21.0003 26066.5 -03385.8 -07.4007 26285.5
 06 01 2013  22 01  -21.0005 26066.6 -03385.8 -07.4008 26285.6
 06 01 2013  22 02  -21.0006 26066.5 -03385.9 -07.4010 26285.5
 06 01 2013  22 03  -21.0004 26066.3 -03385.9 -07.4010 26285.3
 06 01 2013  22 04  -21.0004 26066.2 -03385.9 -07.4010 26285.2
 06 01 2013  22 05  -21.0005 26065.9 -03385.8 -07.4010 26284.9
 06 01 2013  22 06  -21.0006 26065.7 -03385.8 -07.4009 26284.7
 06 01 2013  22 07  -21.0007 26065.7 -03385.8 -07.4010 26284.7
 06 01 2013  22 08  -21.0008 26065.6 -03385.9 -07.4011 26284.6
 06 01 2013  22 09  -21.0010 26065.5 -03385.9 -07.4012 26284.5
 06 01 2013  22 10  -21.0011 26065.4 -03385.9 -07.4013 26284.4
 06 01 2013  22 11  -21.0011 26065.3 -03385.9 -07.4013 26284.3
 06 01 2013  22 12  -21.0012 26065.3 -03385.9 -07.4014 26284.3
 06 01 2013  22 13  -21.0012 26065.1 -03385.9 -07.4014 26284.1
 06 01 2013  22 14  -21.0012 26065.0 -03385.9 -07.4014 26284.0
 06 01 2013  22 15  -21.0013 26064.9 -03385.9 -07.4014 26283.9
 06 01 2013  22 16  -21.0015 26064.8 -03385.9 -07.4015 26283.8
 06 01 2013  22 17  -21.0018 26064.8 -03386.0 -07.4017 26283.8
 06 01 2013  22 18  -21.0022 26064.6 -03386.0 -07.4017 26283.7
 06 01 2013  22 19  -21.0023 26064.5 -03385.9 -07.4016 26283.5
 06 01 2013  22 20  -21.0024 26064.4 -03385.9 -07.4016 26283.4
 06 01 2013  22 21  -21.0025 26064.3 -03385.9 -07.4017 26283.3
 06 01 2013  22 22  -21.0025 26064.2 -03386.0 -07.4017 26283.3
 06 01 2013  22 23  -21.0025 26064.1 -03385.9 -07.4016 26283.1
 06 01 2013  22 24  -21.0024 26063.9 -03385.9 -07.4016 26282.9
 06 01 2013  22 25  -21.0029 26063.8 -03385.9 -07.4016 26282.8
 06 01 2013  22 26  -21.0028 26063.5 -03385.8 -07.4016 26282.5
 06 01 2013  22 27  -21.0030 26063.3 -03385.7 -07.4015 26282.3
 06 01 2013  22 28  -21.0030 26063.1 -03385.7 -07.4015 26282.1
 06 01 2013  22 29  -21.0032 26062.9 -03385.7 -07.4014 26281.8
 06 01 2013  22 30  -21.0035 26062.6 -03385.6 -07.4013 26281.5
 06 01 2013  22 31  -21.0035 26062.3 -03385.5 -07.4012 26281.3
 06 01 2013  22 32  -21.0037 26062.0 -03385.4 -07.4011 26280.9
 06 01 2013  22 33  -21.0038 26061.6 -03385.2 -07.4009 26280.5
 06 01 2013  22 34  -21.0037 26061.5 -03385.2 -07.4010 26280.4
 06 01 2013  22 35  -21.0036 26061.4 -03385.3 -07.4010 26280.3
 06 01 2013  22 36  -21.0036 26061.2 -03385.3 -07.4012 26280.2
 06 01 2013  22 37  -21.0036 26061.0 -03385.3 -07.4012 26279.9
 06 01 2013  22 38  -21.0036 26060.9 -03385.3 -07.4012 26279.8
 06 01 2013  22 39  -21.0036 26060.7 -03385.3 -07.4013 26279.7
 06 01 2013  22 40  -21.0033 26060.6 -03385.3 -07.4013 26279.6
 06 01 2013  22 41  -21.0031 26060.5 -03385.3 -07.4014 26279.5
 06 01 2013  22 42  -21.0029 26060.5 -03385.4 -07.4015 26279.4
 06 01 2013  22 43  -21.0027 26060.4 -03385.4 -07.4016 26279.3
 06 01 2013  22 44  -21.0026 26060.3 -03385.5 -07.4017 26279.3
 06 01 2013  22 45  -21.0027 26060.1 -03385.4 -07.4018 26279.0
 06 01 2013  22 46  -21.0027 26059.8 -03385.4 -07.4017 26278.8
 06 01 2013  22 47  -21.0026 26059.6 -03385.3 -07.4017 26278.5
 06 01 2013  22 48  -21.0024 26059.4 -03385.3 -07.4017 26278.4
 06 01 2013  22 49  -21.0022 26059.3 -03385.3 -07.4017 26278.3
 06 01 2013  22 50  -21.0017 26059.2 -03385.3 -07.4018 26278.2
 06 01 2013  22 51  -21.0015 26059.1 -03385.3 -07.4018 26278.1
 06 01 2013  22 52  -21.0016 26058.8 -03385.3 -07.4019 26277.8
 06 01 2013  22 53  -21.0016 26058.6 -03385.3 -07.4019 26277.6
 06 01 2013  22 54  -21.0016 26058.4 -03385.3 -07.4019 26277.4
 06 01 2013  22 55  -21.0015 26058.3 -03385.3 -07.4020 26277.3
 06 01 2013  22 56  -21.0014 26058.3 -03385.4 -07.4021 26277.3
 06 01 2013  22 57  -21.0012 26058.4 -03385.5 -07.4023 26277.4
 06 01 2013  22 58  -21.0011 26058.4 -03385.5 -07.4025 26277.4
 06 01 2013  22 59  -21.0012 26058.3 -03385.6 -07.4026 26277.4
 06 01 2013  23 00  -21.0014 26058.1 -03385.6 -07.4026 26277.1
 06 01 2013  23 01  -21.0016 26057.8 -03385.5 -07.4025 26276.8
 06 01 2013  23 02  -21.0019 26057.7 -03385.5 -07.4025 26276.7
 06 01 2013  23 03  -21.0023 26057.5 -03385.5 -07.4026 26276.6
 06 01 2013  23 04  -21.0026 26057.4 -03385.5 -07.4026 26276.4
 06 01 2013  23 05  -21.0029 26057.4 -03385.6 -07.4028 26276.4
 06 01 2013  23 06  -21.0030 26057.2 -03385.6 -07.4028 26276.3
 06 01 2013  23 07  -21.0029 26057.3 -03385.6 -07.4030 26276.4
 06 01 2013  23 08  -21.0029 26057.4 -03385.8 -07.4032 26276.5
 06 01 2013  23 09  -21.0028 26057.4 -03385.8 -07.4033 26276.5
 06 01 2013  23 10  -21.0028 26057.6 -03386.0 -07.4037 26276.7
 06 01 2013  23 11  -21.0026 26057.6 -03386.0 -07.4037 26276.6
 06 01 2013  23 12  -21.0025 26057.8 -03386.2 -07.4040 26276.9
 06 01 2013  23 13  -21.0025 26057.7 -03386.2 -07.4042 26276.8
 06 01 2013  23 14  -21.0023 26057.5 -03386.2 -07.4041 26276.6
 06 01 2013  23 15  -21.0022 26057.6 -03386.3 -07.4043 26276.7
 06 01 2013  23 16  -21.0020 26057.4 -03386.3 -07.4043 26276.5
 06 01 2013  23 17  -21.0021 26057.6 -03386.4 -07.4046 26276.7
 06 01 2013  23 18  -21.0016 26057.4 -03386.3 -07.4045 26276.5
 06 01 2013  23 19  -21.0013 26057.5 -03386.4 -07.4046 26276.6
 06 01 2013  23 20  -21.0012 26057.7 -03386.6 -07.4050 26276.9
 06 01 2013  23 21  -21.0010 26057.9 -03386.7 -07.4052 26277.0
 06 01 2013  23 22  -21.0008 26057.8 -03386.8 -07.4054 26277.0
 06 01 2013  23 23  -21.0004 26057.6 -03386.7 -07.4053 26276.8
 06 01 2013  23 24  -21.0001 26057.9 -03386.9 -07.4055 26277.0
 06 01 2013  23 25  -20.9999 26057.9 -03387.0 -07.4057 26277.1
 06 01 2013  23 26  -20.9997 26057.9 -03387.0 -07.4058 26277.1
 06 01 2013  23 27  -20.9995 26057.6 -03386.9 -07.4057 26276.8
 06 01 2013  23 28  -20.9996 26057.7 -03387.0 -07.4059 26277.0
 06 01 2013  23 29  -20.9996 26057.9 -03387.2 -07.4062 26277.1
 06 01 2013  23 30  -20.9994 26057.9 -03387.2 -07.4063 26277.2
 06 01 2013  23 31  -20.9993 26057.7 -03387.2 -07.4063 26277.0
 06 01 2013  23 32  -20.9991 26057.8 -03387.2 -07.4061 26277.0
 06 01 2013  23 33  -20.9993 26057.8 -03387.3 -07.4065 26277.1
 06 01 2013  23 34  -20.9992 26057.5 -03387.2 -07.4063 26276.8
 06 01 2013  23 35  -20.9993 26057.7 -03387.3 -07.4064 26276.9
 06 01 2013  23 36  -20.9996 26057.8 -03387.4 -07.4067 26277.0
 06 01 2013  23 37  -20.9995 26057.5 -03387.2 -07.4064 26276.7
 06 01 2013  23 38  -20.9996 26057.5 -03387.3 -07.4064 26276.8
 06 01 2013  23 39  -20.9995 26057.5 -03387.3 -07.4065 26276.7
 06 01 2013  23 40  -20.9997 26057.7 -03387.4 -07.4067 26277.0
 06 01 2013  23 41  -21.0000 26057.7 -03387.5 -07.4068 26277.0
 06 01 2013  23 42  -21.0007 26057.6 -03387.5 -07.4069 26276.9
 06 01 2013  23 43  -21.0013 26057.4 -03387.4 -07.4068 26276.7
 06 01 2013  23 44  -21.0011 26057.5 -03387.4 -07.4066 26276.7
 06 01 2013  23 45  -21.0005 26058.0 -03387.6 -07.4069 26277.2
 06 01 2013  23 46  -21.0001 26058.2 -03387.7 -07.4071 26277.5
 06 01 2013  23 47  -20.9999 26058.4 -03387.8 -07.4073 26277.7
 06 01 2013  23 48  -21.0001 26058.7 -03387.9 -07.4076 26278.0
 06 01 2013  23 49  -21.0008 26058.7 -03388.0 -07.4077 26278.0
 06 01 2013  23 50  -21.0013 26058.6 -03387.9 -07.4075 26277.9
 06 01 2013  23 51  -21.0018 26058.5 -03387.8 -07.4074 26277.8
 06 01 2013  23 52  -21.0020 26058.2 -03387.7 -07.4071 26277.5
 06 01 2013  23 53  -21.0021 26058.1 -03387.5 -07.4068 26277.3
 06 01 2013  23 54  -21.0021 26057.9 -03387.4 -07.4067 26277.2
 06 01 2013  23 55  -21.0022 26057.6 -03387.2 -07.4063 26276.8
 06 01 2013  23 56  -21.0025 26057.4 -03387.2 -07.4062 26276.7
 06 01 2013  23 57  -21.0022 26057.5 -03387.2 -07.4062 26276.7
 06 01 2013  23 58  -21.0016 26057.7 -03387.2 -07.4063 26276.9
