SAO LUIS EMBRACE-03 <064> 1 Min. Reported data

 DD MM YYYY  HH MM   D(Deg)  H(nT)   Z(nT)   I(Deg)   F(nT)

 05 03 2013  00 00  -21.0434 26038.2 -03414.9 -07.4716 26261.2
 05 03 2013  00 01  -21.0437 26038.3 -03414.9 -07.4717 26261.3
 05 03 2013  00 02  -21.0438 26038.4 -03415.0 -07.4718 26261.4
 05 03 2013  00 03  -21.0438 26038.2 -03414.9 -07.4717 26261.2
 05 03 2013  00 04  -21.0439 26038.2 -03414.9 -07.4716 26261.2
 05 03 2013  00 05  -21.0439 26038.1 -03414.8 -07.4716 26261.1
 05 03 2013  00 06  -21.0438 26038.0 -03414.8 -07.4715 26261.0
 05 03 2013  00 07  -21.0439 26037.8 -03414.7 -07.4714 26260.8
 05 03 2013  00 08  -21.0438 26037.8 -03414.7 -07.4714 26260.7
 05 03 2013  00 09  -21.0437 26037.7 -03414.7 -07.4715 26260.7
 05 03 2013  00 10  -21.0437 26037.6 -03414.7 -07.4714 26260.6
 05 03 2013  00 11  -21.0437 26037.6 -03414.7 -07.4714 26260.5
 05 03 2013  00 12  -21.0436 26037.5 -03414.7 -07.4714 26260.4
 05 03 2013  00 13  -21.0436 26037.3 -03414.7 -07.4714 26260.3
 05 03 2013  00 14  -21.0435 26037.3 -03414.7 -07.4714 26260.2
 05 03 2013  00 15  -21.0437 26037.2 -03414.7 -07.4714 26260.2
 05 03 2013  00 16  -21.0439 26037.2 -03414.7 -07.4715 26260.1
 05 03 2013  00 17  -21.0443 26037.2 -03414.7 -07.4716 26260.2
 05 03 2013  00 18  -21.0446 26037.2 -03414.7 -07.4716 26260.1
 05 03 2013  00 19  -21.0448 26037.1 -03414.7 -07.4716 26260.1
 05 03 2013  00 20  -21.0448 26037.2 -03414.8 -07.4717 26260.2
 05 03 2013  00 21  -21.0448 26037.1 -03414.8 -07.4717 26260.1
 05 03 2013  00 22  -21.0448 26037.0 -03414.7 -07.4717 26260.0
 05 03 2013  00 23  -21.0448 26037.0 -03414.8 -07.4717 26259.9
 05 03 2013  00 24  -21.0448 26036.9 -03414.7 -07.4716 26259.8
 05 03 2013  00 25  -21.0449 26036.9 -03414.7 -07.4716 26259.8
 05 03 2013  00 26  -21.0451 26036.8 -03414.7 -07.4717 26259.7
 05 03 2013  00 27  -21.0453 26036.7 -03414.7 -07.4717 26259.6
 05 03 2013  00 28  -21.0454 26036.6 -03414.7 -07.4717 26259.5
 05 03 2013  00 29  -21.0455 26036.5 -03414.7 -07.4717 26259.5
 05 03 2013  00 30  -21.0457 26036.4 -03414.7 -07.4717 26259.4
 05 03 2013  00 31  -21.0459 26036.4 -03414.7 -07.4717 26259.3
 05 03 2013  00 32  -21.0460 26036.3 -03414.7 -07.4718 26259.3
 05 03 2013  00 33  -21.0460 26036.3 -03414.7 -07.4718 26259.3
 05 03 2013  00 34  -21.0460 26036.3 -03414.7 -07.4718 26259.2
 05 03 2013  00 35  -21.0459 26036.2 -03414.7 -07.4717 26259.2
 05 03 2013  00 36  -21.0458 26036.1 -03414.7 -07.4717 26259.1
 05 03 2013  00 37  -21.0459 26036.0 -03414.7 -07.4718 26259.0
 05 03 2013  00 38  -21.0459 26036.0 -03414.7 -07.4718 26259.0
 05 03 2013  00 39  -21.0458 26035.9 -03414.6 -07.4717 26258.9
 05 03 2013  00 40  -21.0458 26035.9 -03414.7 -07.4718 26258.8
 05 03 2013  00 41  -21.0457 26035.7 -03414.6 -07.4718 26258.7
 05 03 2013  00 42  -21.0458 26035.6 -03414.6 -07.4718 26258.5
 05 03 2013  00 43  -21.0457 26035.5 -03414.6 -07.4718 26258.5
 05 03 2013  00 44  -21.0455 26035.6 -03414.7 -07.4719 26258.5
 05 03 2013  00 45  -21.0450 26035.9 -03414.8 -07.4722 26258.9
 05 03 2013  00 46  -21.0452 26035.3 -03414.6 -07.4718 26258.2
 05 03 2013  00 47  -21.0447 26036.0 -03414.9 -07.4723 26259.0
 05 03 2013  00 48  -21.0446 26036.0 -03415.1 -07.4727 26259.1
 05 03 2013  00 49  -21.0444 26036.1 -03415.1 -07.4727 26259.1
 05 03 2013  00 50  -21.0443 26036.3 -03415.2 -07.4728 26259.3
 05 03 2013  00 51  -21.0438 26036.6 -03415.4 -07.4732 26259.7
 05 03 2013  00 52  -21.0431 26036.6 -03415.4 -07.4733 26259.6
 05 03 2013  00 53  -21.0424 26037.2 -03415.7 -07.4736 26260.2
 05 03 2013  00 54  -21.0416 26037.8 -03416.0 -07.4742 26260.9
 05 03 2013  00 55  -21.0409 26037.9 -03416.2 -07.4745 26261.1
 05 03 2013  00 56  -21.0402 26038.2 -03416.3 -07.4746 26261.3
 05 03 2013  00 57  -21.0397 26038.3 -03416.3 -07.4748 26261.4
 05 03 2013  00 58  -21.0390 26038.5 -03416.4 -07.4749 26261.7
 05 03 2013  00 59  -21.0382 26038.8 -03416.6 -07.4752 26262.0
 05 03 2013  01 00  -21.0378 26039.0 -03416.8 -07.4755 26262.2
 05 03 2013  01 01  -21.0372 26039.6 -03417.0 -07.4759 26262.8
 05 03 2013  01 02  -21.0365 26039.9 -03417.2 -07.4762 26263.2
 05 03 2013  01 03  -21.0357 26040.4 -03417.4 -07.4766 26263.7
 05 03 2013  01 04  -21.0348 26040.9 -03417.7 -07.4770 26264.2
 05 03 2013  01 05  -21.0342 26041.2 -03417.9 -07.4773 26264.6
 05 03 2013  01 06  -21.0335 26042.0 -03418.3 -07.4778 26265.4
 05 03 2013  01 07  -21.0336 26042.1 -03418.3 -07.4780 26265.5
 05 03 2013  01 08  -21.0332 26042.5 -03418.5 -07.4782 26265.9
 05 03 2013  01 09  -21.0330 26042.8 -03418.6 -07.4784 26266.2
 05 03 2013  01 10  -21.0330 26043.1 -03418.7 -07.4784 26266.5
 05 03 2013  01 11  -21.0325 26043.4 -03418.8 -07.4785 26266.9
 05 03 2013  01 12  -21.0325 26043.3 -03418.6 -07.4783 26266.7
 05 03 2013  01 13  -21.0322 26043.5 -03418.6 -07.4782 26266.9
 05 03 2013  01 14  -21.0318 26043.6 -03418.6 -07.4782 26267.0
 05 03 2013  01 15  -21.0314 26043.6 -03418.5 -07.4780 26267.0
 05 03 2013  01 16  -21.0310 26043.7 -03418.5 -07.4780 26267.1
 05 03 2013  01 17  -21.0307 26043.8 -03418.5 -07.4779 26267.2
 05 03 2013  01 18  -21.0305 26043.7 -03418.5 -07.4778 26267.1
 05 03 2013  01 19  -21.0303 26043.8 -03418.4 -07.4778 26267.1
 05 03 2013  01 20  -21.0304 26043.8 -03418.4 -07.4777 26267.1
 05 03 2013  01 21  -21.0303 26043.9 -03418.5 -07.4778 26267.3
 05 03 2013  01 22  -21.0302 26043.9 -03418.5 -07.4778 26267.3
 05 03 2013  01 23  -21.0306 26043.9 -03418.5 -07.4778 26267.3
 05 03 2013  01 24  -21.0308 26044.0 -03418.5 -07.4777 26267.4
 05 03 2013  01 25  -21.0313 26043.9 -03418.4 -07.4776 26267.3
 05 03 2013  01 26  -21.0315 26044.0 -03418.4 -07.4775 26267.4
 05 03 2013  01 27  -21.0315 26043.9 -03418.3 -07.4774 26267.2
 05 03 2013  01 28  -21.0315 26043.8 -03418.2 -07.4772 26267.1
 05 03 2013  01 29  -21.0317 26043.5 -03418.0 -07.4768 26266.8
 05 03 2013  01 30  -21.0317 26043.5 -03417.9 -07.4766 26266.8
 05 03 2013  01 31  -21.0319 26043.1 -03417.7 -07.4763 26266.4
 05 03 2013  01 32  -21.0321 26042.9 -03417.6 -07.4762 26266.2
 05 03 2013  01 33  -21.0324 26042.6 -03417.4 -07.4759 26265.9
 05 03 2013  01 34  -21.0328 26042.4 -03417.3 -07.4756 26265.6
 05 03 2013  01 35  -21.0332 26042.1 -03417.2 -07.4755 26265.4
 05 03 2013  01 36  -21.0335 26041.9 -03417.0 -07.4753 26265.1
 05 03 2013  01 37  -21.0336 26041.7 -03416.9 -07.4751 26264.9
 05 03 2013  01 38  -21.0338 26041.6 -03416.9 -07.4750 26264.8
 05 03 2013  01 39  -21.0339 26041.5 -03416.8 -07.4749 26264.7
 05 03 2013  01 40  -21.0341 26041.3 -03416.7 -07.4748 26264.5
 05 03 2013  01 41  -21.0342 26041.2 -03416.7 -07.4747 26264.4
 05 03 2013  01 42  -21.0345 26041.0 -03416.6 -07.4746 26264.2
 05 03 2013  01 43  -21.0346 26040.9 -03416.5 -07.4745 26264.0
 05 03 2013  01 44  -21.0349 26040.7 -03416.5 -07.4744 26263.8
 05 03 2013  01 45  -21.0351 26040.5 -03416.4 -07.4743 26263.6
 05 03 2013  01 46  -21.0352 26040.2 -03416.3 -07.4741 26263.4
 05 03 2013  01 47  -21.0355 26039.9 -03416.2 -07.4739 26263.1
 05 03 2013  01 48  -21.0357 26039.8 -03416.1 -07.4738 26262.9
 05 03 2013  01 49  -21.0358 26039.6 -03416.0 -07.4737 26262.7
 05 03 2013  01 50  -21.0358 26039.4 -03416.0 -07.4737 26262.5
 05 03 2013  01 51  -21.0357 26039.3 -03415.9 -07.4736 26262.4
 05 03 2013  01 52  -21.0356 26039.3 -03415.9 -07.4736 26262.4
 05 03 2013  01 53  -21.0356 26039.2 -03415.9 -07.4735 26262.3
 05 03 2013  01 54  -21.0357 26039.1 -03415.9 -07.4736 26262.3
 05 03 2013  01 55  -21.0356 26039.2 -03416.0 -07.4737 26262.3
 05 03 2013  01 56  -21.0356 26039.2 -03416.0 -07.4738 26262.3
 05 03 2013  01 57  -21.0357 26039.3 -03416.1 -07.4740 26262.4
 05 03 2013  01 58  -21.0357 26039.6 -03416.3 -07.4742 26262.7
 05 03 2013  01 59  -21.0361 26039.7 -03416.4 -07.4746 26262.9
 05 03 2013  02 00  -21.0365 26040.0 -03416.5 -07.4747 26263.1
 05 03 2013  02 01  -21.0367 26040.0 -03416.6 -07.4749 26263.2
 05 03 2013  02 02  -21.0370 26040.1 -03416.6 -07.4749 26263.3
 05 03 2013  02 03  -21.0373 26040.0 -03416.6 -07.4748 26263.1
 05 03 2013  02 04  -21.0375 26039.9 -03416.5 -07.4746 26263.1
 05 03 2013  02 05  -21.0377 26039.8 -03416.5 -07.4746 26263.0
 05 03 2013  02 06  -21.0376 26040.0 -03416.5 -07.4746 26263.1
 05 03 2013  02 07  -21.0376 26039.9 -03416.5 -07.4746 26263.1
 05 03 2013  02 08  -21.0375 26039.8 -03416.4 -07.4745 26263.0
 05 03 2013  02 09  -21.0375 26039.6 -03416.3 -07.4743 26262.7
 05 03 2013  02 10  -21.0375 26039.2 -03416.2 -07.4741 26262.4
 05 03 2013  02 11  -21.0374 26039.0 -03416.0 -07.4739 26262.1
 05 03 2013  02 12  -21.0374 26038.8 -03416.0 -07.4738 26262.0
 05 03 2013  02 13  -21.0376 26038.5 -03415.9 -07.4737 26261.6
 05 03 2013  02 14  -21.0377 26038.4 -03415.8 -07.4736 26261.5
 05 03 2013  02 15  -21.0379 26038.3 -03415.8 -07.4736 26261.4
 05 03 2013  02 16  -21.0379 26038.1 -03415.8 -07.4735 26261.2
 05 03 2013  02 17  -21.0379 26038.1 -03415.7 -07.4735 26261.2
 05 03 2013  02 18  -21.0378 26038.0 -03415.7 -07.4735 26261.1
 05 03 2013  02 19  -21.0380 26037.9 -03415.7 -07.4736 26261.0
 05 03 2013  02 20  -21.0382 26037.9 -03415.8 -07.4737 26261.0
 05 03 2013  02 21  -21.0384 26037.8 -03415.8 -07.4737 26260.9
 05 03 2013  02 22  -21.0384 26037.8 -03415.8 -07.4737 26260.9
 05 03 2013  02 23  -21.0384 26037.6 -03415.8 -07.4737 26260.7
 05 03 2013  02 24  -21.0382 26037.6 -03415.8 -07.4738 26260.7
 05 03 2013  02 25  -21.0380 26037.6 -03415.8 -07.4738 26260.7
 05 03 2013  02 26  -21.0376 26037.6 -03415.8 -07.4738 26260.7
 05 03 2013  02 27  -21.0373 26037.5 -03415.8 -07.4739 26260.6
 05 03 2013  02 28  -21.0371 26037.6 -03415.9 -07.4740 26260.7
 05 03 2013  02 29  -21.0372 26037.5 -03415.9 -07.4741 26260.6
 05 03 2013  02 30  -21.0373 26037.4 -03415.9 -07.4741 26260.5
 05 03 2013  02 31  -21.0372 26037.3 -03415.9 -07.4740 26260.4
 05 03 2013  02 32  -21.0370 26037.1 -03415.9 -07.4741 26260.3
 05 03 2013  02 33  -21.0368 26037.1 -03415.8 -07.4740 26260.2
 05 03 2013  02 34  -21.0368 26037.0 -03415.9 -07.4741 26260.1
 05 03 2013  02 35  -21.0368 26037.0 -03415.9 -07.4742 26260.1
 05 03 2013  02 36  -21.0369 26036.9 -03415.9 -07.4742 26260.0
 05 03 2013  02 37  -21.0370 26036.9 -03415.9 -07.4743 26260.0
 05 03 2013  02 38  -21.0371 26036.7 -03415.9 -07.4742 26259.9
 05 03 2013  02 39  -21.0371 26036.7 -03415.9 -07.4743 26259.8
 05 03 2013  02 40  -21.0371 26036.7 -03415.9 -07.4743 26259.8
 05 03 2013  02 41  -21.0371 26036.6 -03415.9 -07.4742 26259.7
 05 03 2013  02 42  -21.0372 26036.5 -03415.9 -07.4742 26259.6
 05 03 2013  02 43  -21.0372 26036.3 -03415.8 -07.4742 26259.4
 05 03 2013  02 44  -21.0372 26036.1 -03415.7 -07.4740 26259.2
 05 03 2013  02 45  -21.0372 26036.0 -03415.7 -07.4740 26259.1
 05 03 2013  02 46  -21.0373 26035.9 -03415.7 -07.4740 26259.0
 05 03 2013  02 47  -21.0373 26035.8 -03415.7 -07.4741 26258.9
 05 03 2013  02 48  -21.0372 26035.6 -03415.6 -07.4740 26258.7
 05 03 2013  02 49  -21.0372 26035.5 -03415.6 -07.4740 26258.6
 05 03 2013  02 50  -21.0372 26035.5 -03415.6 -07.4740 26258.6
 05 03 2013  02 51  -21.0375 26035.4 -03415.6 -07.4740 26258.5
 05 03 2013  02 52  -21.0375 26035.2 -03415.6 -07.4740 26258.3
 05 03 2013  02 53  -21.0376 26035.0 -03415.5 -07.4739 26258.1
 05 03 2013  02 54  -21.0375 26034.8 -03415.4 -07.4738 26257.9
 05 03 2013  02 55  -21.0376 26034.6 -03415.4 -07.4737 26257.6
 05 03 2013  02 56  -21.0376 26034.4 -03415.4 -07.4737 26257.5
 05 03 2013  02 57  -21.0378 26034.3 -03415.4 -07.4738 26257.4
 05 03 2013  02 58  -21.0381 26034.2 -03415.4 -07.4738 26257.3
 05 03 2013  02 59  -21.0383 26034.1 -03415.4 -07.4739 26257.1
 05 03 2013  03 00  -21.0387 26033.9 -03415.3 -07.4738 26257.0
 05 03 2013  03 01  -21.0389 26033.9 -03415.4 -07.4739 26257.0
 05 03 2013  03 02  -21.0392 26033.9 -03415.4 -07.4740 26257.0
 05 03 2013  03 03  -21.0396 26034.1 -03415.6 -07.4743 26257.2
 05 03 2013  03 04  -21.0399 26034.2 -03415.7 -07.4745 26257.3
 05 03 2013  03 05  -21.0398 26034.2 -03415.7 -07.4745 26257.3
 05 03 2013  03 06  -21.0397 26034.1 -03415.6 -07.4743 26257.2
 05 03 2013  03 07  -21.0396 26034.0 -03415.6 -07.4743 26257.1
 05 03 2013  03 08  -21.0397 26033.8 -03415.5 -07.4743 26256.9
 05 03 2013  03 09  -21.0397 26033.6 -03415.5 -07.4742 26256.7
 05 03 2013  03 10  -21.0396 26033.5 -03415.4 -07.4742 26256.6
 05 03 2013  03 11  -21.0397 26033.4 -03415.4 -07.4742 26256.5
 05 03 2013  03 12  -21.0397 26033.4 -03415.5 -07.4743 26256.5
 05 03 2013  03 13  -21.0400 26033.4 -03415.5 -07.4744 26256.5
 05 03 2013  03 14  -21.0401 26033.4 -03415.5 -07.4744 26256.5
 05 03 2013  03 15  -21.0404 26033.3 -03415.6 -07.4745 26256.4
 05 03 2013  03 16  -21.0407 26033.2 -03415.5 -07.4745 26256.3
 05 03 2013  03 17  -21.0407 26033.1 -03415.5 -07.4744 26256.2
 05 03 2013  03 18  -21.0406 26033.1 -03415.5 -07.4744 26256.2
 05 03 2013  03 19  -21.0408 26033.2 -03415.6 -07.4745 26256.3
 05 03 2013  03 20  -21.0409 26033.3 -03415.6 -07.4746 26256.4
 05 03 2013  03 21  -21.0410 26033.4 -03415.7 -07.4747 26256.5
 05 03 2013  03 22  -21.0411 26033.3 -03415.7 -07.4748 26256.5
 05 03 2013  03 23  -21.0412 26033.4 -03415.7 -07.4747 26256.5
 05 03 2013  03 24  -21.0414 26033.3 -03415.7 -07.4748 26256.5
 05 03 2013  03 25  -21.0413 26033.3 -03415.7 -07.4748 26256.4
 05 03 2013  03 26  -21.0415 26033.5 -03415.7 -07.4748 26256.6
 05 03 2013  03 27  -21.0419 26033.5 -03415.8 -07.4750 26256.7
 05 03 2013  03 28  -21.0423 26033.6 -03415.9 -07.4750 26256.7
 05 03 2013  03 29  -21.0426 26033.8 -03415.9 -07.4751 26257.0
 05 03 2013  03 30  -21.0426 26034.0 -03416.0 -07.4752 26257.2
 05 03 2013  03 31  -21.0427 26034.1 -03416.0 -07.4752 26257.2
 05 03 2013  03 32  -21.0428 26034.2 -03416.0 -07.4752 26257.3
 05 03 2013  03 33  -21.0428 26034.3 -03416.0 -07.4752 26257.5
 05 03 2013  03 34  -21.0427 26034.3 -03416.0 -07.4751 26257.4
 05 03 2013  03 35  -21.0424 26034.4 -03416.0 -07.4751 26257.6
 05 03 2013  03 36  -21.0419 26034.4 -03416.0 -07.4750 26257.6
 05 03 2013  03 37  -21.0416 26034.5 -03416.0 -07.4751 26257.7
 05 03 2013  03 38  -21.0415 26034.5 -03416.0 -07.4750 26257.6
 05 03 2013  03 39  -21.0416 26034.5 -03416.0 -07.4750 26257.6
 05 03 2013  03 40  -21.0420 26034.3 -03415.9 -07.4749 26257.4
 05 03 2013  03 41  -21.0421 26034.2 -03415.8 -07.4748 26257.4
 05 03 2013  03 42  -21.0421 26034.2 -03415.8 -07.4747 26257.3
 05 03 2013  03 43  -21.0419 26034.1 -03415.7 -07.4745 26257.2
 05 03 2013  03 44  -21.0419 26034.1 -03415.6 -07.4744 26257.2
 05 03 2013  03 45  -21.0420 26034.0 -03415.6 -07.4744 26257.1
 05 03 2013  03 46  -21.0419 26033.8 -03415.5 -07.4742 26256.9
 05 03 2013  03 47  -21.0417 26033.7 -03415.4 -07.4741 26256.8
 05 03 2013  03 48  -21.0416 26033.6 -03415.4 -07.4740 26256.7
 05 03 2013  03 49  -21.0415 26033.7 -03415.4 -07.4740 26256.8
 05 03 2013  03 50  -21.0414 26033.7 -03415.4 -07.4741 26256.8
 05 03 2013  03 51  -21.0415 26033.8 -03415.5 -07.4742 26256.9
 05 03 2013  03 52  -21.0417 26033.8 -03415.5 -07.4742 26256.9
 05 03 2013  03 53  -21.0418 26033.7 -03415.5 -07.4742 26256.8
 05 03 2013  03 54  -21.0420 26033.8 -03415.5 -07.4742 26256.9
 05 03 2013  03 55  -21.0423 26033.8 -03415.6 -07.4743 26256.9
 05 03 2013  03 56  -21.0424 26033.8 -03415.5 -07.4742 26256.9
 05 03 2013  03 57  -21.0425 26033.8 -03415.5 -07.4742 26256.9
 05 03 2013  03 58  -21.0424 26033.7 -03415.4 -07.4741 26256.8
 05 03 2013  03 59  -21.0423 26033.7 -03415.4 -07.4740 26256.8
 05 03 2013  04 00  -21.0423 26033.7 -03415.4 -07.4740 26256.8
 05 03 2013  04 01  -21.0424 26033.7 -03415.4 -07.4740 26256.8
 05 03 2013  04 02  -21.0425 26033.9 -03415.5 -07.4741 26257.0
 05 03 2013  04 03  -21.0429 26034.1 -03415.6 -07.4743 26257.2
 05 03 2013  04 04  -21.0431 26034.2 -03415.6 -07.4743 26257.3
 05 03 2013  04 05  -21.0430 26034.2 -03415.6 -07.4743 26257.3
 05 03 2013  04 06  -21.0431 26034.3 -03415.6 -07.4743 26257.4
 05 03 2013  04 07  -21.0432 26034.3 -03415.6 -07.4743 26257.4
 05 03 2013  04 08  -21.0431 26034.3 -03415.6 -07.4743 26257.4
 05 03 2013  04 09  -21.0431 26034.3 -03415.6 -07.4742 26257.4
 05 03 2013  04 10  -21.0432 26034.5 -03415.6 -07.4743 26257.6
 05 03 2013  04 11  -21.0434 26034.6 -03415.7 -07.4744 26257.7
 05 03 2013  04 12  -21.0435 26034.7 -03415.7 -07.4744 26257.8
 05 03 2013  04 13  -21.0435 26034.7 -03415.7 -07.4743 26257.8
 05 03 2013  04 14  -21.0434 26034.6 -03415.6 -07.4742 26257.8
 05 03 2013  04 15  -21.0432 26034.7 -03415.6 -07.4742 26257.8
 05 03 2013  04 16  -21.0431 26034.7 -03415.6 -07.4741 26257.8
 05 03 2013  04 17  -21.0428 26034.7 -03415.6 -07.4741 26257.8
 05 03 2013  04 18  -21.0426 26034.8 -03415.6 -07.4741 26257.9
 05 03 2013  04 19  -21.0426 26034.9 -03415.6 -07.4742 26258.0
 05 03 2013  04 20  -21.0427 26034.9 -03415.7 -07.4742 26258.0
 05 03 2013  04 21  -21.0428 26034.9 -03415.7 -07.4742 26258.0
 05 03 2013  04 22  -21.0429 26034.9 -03415.6 -07.4741 26258.0
 05 03 2013  04 23  -21.0427 26034.8 -03415.6 -07.4740 26257.8
 05 03 2013  04 24  -21.0425 26034.6 -03415.4 -07.4739 26257.6
 05 03 2013  04 25  -21.0425 26034.5 -03415.4 -07.4738 26257.6
 05 03 2013  04 26  -21.0425 26034.4 -03415.3 -07.4737 26257.5
 05 03 2013  04 27  -21.0427 26034.4 -03415.4 -07.4738 26257.5
 05 03 2013  04 28  -21.0429 26034.5 -03415.4 -07.4738 26257.5
 05 03 2013  04 29  -21.0429 26034.5 -03415.5 -07.4739 26257.6
 05 03 2013  04 30  -21.0429 26034.6 -03415.5 -07.4739 26257.6
 05 03 2013  04 31  -21.0428 26034.6 -03415.5 -07.4739 26257.7
 05 03 2013  04 32  -21.0427 26034.7 -03415.5 -07.4739 26257.8
 05 03 2013  04 33  -21.0426 26034.8 -03415.5 -07.4740 26257.9
 05 03 2013  04 34  -21.0425 26034.9 -03415.6 -07.4740 26258.0
 05 03 2013  04 35  -21.0425 26034.9 -03415.6 -07.4741 26258.0
 05 03 2013  04 36  -21.0424 26035.0 -03415.6 -07.4740 26258.0
 05 03 2013  04 37  -21.0424 26035.0 -03415.6 -07.4741 26258.1
 05 03 2013  04 38  -21.0425 26035.0 -03415.6 -07.4740 26258.1
 05 03 2013  04 39  -21.0425 26035.0 -03415.6 -07.4740 26258.1
 05 03 2013  04 40  -21.0426 26035.0 -03415.5 -07.4739 26258.1
 05 03 2013  04 41  -21.0425 26035.1 -03415.5 -07.4740 26258.2
 05 03 2013  04 42  -21.0425 26035.1 -03415.6 -07.4739 26258.2
 05 03 2013  04 43  -21.0425 26035.0 -03415.5 -07.4738 26258.1
 05 03 2013  04 44  -21.0422 26035.0 -03415.5 -07.4738 26258.1
 05 03 2013  04 45  -21.0422 26035.0 -03415.4 -07.4737 26258.1
 05 03 2013  04 46  -21.0421 26034.9 -03415.4 -07.4736 26258.0
 05 03 2013  04 47  -21.0420 26035.0 -03415.4 -07.4737 26258.0
 05 03 2013  04 48  -21.0419 26035.0 -03415.4 -07.4737 26258.1
 05 03 2013  04 49  -21.0418 26035.1 -03415.5 -07.4738 26258.2
 05 03 2013  04 50  -21.0418 26035.1 -03415.5 -07.4738 26258.2
 05 03 2013  04 51  -21.0417 26035.2 -03415.5 -07.4738 26258.3
 05 03 2013  04 52  -21.0417 26035.3 -03415.6 -07.4740 26258.4
 05 03 2013  04 53  -21.0417 26035.3 -03415.6 -07.4740 26258.4
 05 03 2013  04 54  -21.0418 26035.3 -03415.6 -07.4740 26258.4
 05 03 2013  04 55  -21.0419 26035.3 -03415.6 -07.4740 26258.4
 05 03 2013  04 56  -21.0420 26035.4 -03415.6 -07.4740 26258.5
 05 03 2013  04 57  -21.0422 26035.4 -03415.6 -07.4740 26258.5
 05 03 2013  04 58  -21.0422 26035.4 -03415.6 -07.4739 26258.5
 05 03 2013  04 59  -21.0421 26035.4 -03415.6 -07.4739 26258.5
 05 03 2013  05 00  -21.0421 26035.4 -03415.5 -07.4738 26258.4
 05 03 2013  05 01  -21.0420 26035.4 -03415.5 -07.4738 26258.5
 05 03 2013  05 02  -21.0420 26035.5 -03415.5 -07.4737 26258.5
 05 03 2013  05 03  -21.0421 26035.4 -03415.5 -07.4737 26258.5
 05 03 2013  05 04  -21.0420 26035.4 -03415.4 -07.4736 26258.5
 05 03 2013  05 05  -21.0419 26035.4 -03415.4 -07.4735 26258.5
 05 03 2013  05 06  -21.0417 26035.4 -03415.4 -07.4735 26258.5
 05 03 2013  05 07  -21.0417 26035.4 -03415.4 -07.4735 26258.5
 05 03 2013  05 08  -21.0416 26035.4 -03415.4 -07.4735 26258.5
 05 03 2013  05 09  -21.0414 26035.4 -03415.4 -07.4735 26258.4
 05 03 2013  05 10  -21.0413 26035.4 -03415.4 -07.4735 26258.5
 05 03 2013  05 11  -21.0414 26035.5 -03415.4 -07.4734 26258.5
 05 03 2013  05 12  -21.0412 26035.5 -03415.4 -07.4735 26258.6
 05 03 2013  05 13  -21.0413 26035.5 -03415.4 -07.4734 26258.6
 05 03 2013  05 14  -21.0412 26035.5 -03415.4 -07.4734 26258.6
 05 03 2013  05 15  -21.0412 26035.5 -03415.4 -07.4734 26258.6
 05 03 2013  05 16  -21.0412 26035.6 -03415.4 -07.4735 26258.7
 05 03 2013  05 17  -21.0413 26035.7 -03415.4 -07.4735 26258.7
 05 03 2013  05 18  -21.0413 26035.7 -03415.4 -07.4735 26258.8
 05 03 2013  05 19  -21.0413 26035.8 -03415.4 -07.4735 26258.8
 05 03 2013  05 20  -21.0413 26035.9 -03415.5 -07.4735 26258.9
 05 03 2013  05 21  -21.0412 26035.9 -03415.5 -07.4735 26258.9
 05 03 2013  05 22  -21.0411 26035.9 -03415.4 -07.4735 26259.0
 05 03 2013  05 23  -21.0411 26036.0 -03415.5 -07.4736 26259.1
 05 03 2013  05 24  -21.0411 26036.0 -03415.4 -07.4734 26259.1
 05 03 2013  05 25  -21.0412 26036.0 -03415.5 -07.4735 26259.1
 05 03 2013  05 26  -21.0411 26036.0 -03415.4 -07.4734 26259.0
 05 03 2013  05 27  -21.0411 26036.0 -03415.4 -07.4734 26259.1
 05 03 2013  05 28  -21.0408 26036.0 -03415.4 -07.4733 26259.1
 05 03 2013  05 29  -21.0407 26036.0 -03415.4 -07.4733 26259.0
 05 03 2013  05 30  -21.0405 26036.0 -03415.3 -07.4732 26259.0
 05 03 2013  05 31  -21.0404 26035.9 -03415.3 -07.4732 26259.0
 05 03 2013  05 32  -21.0404 26036.0 -03415.3 -07.4732 26259.0
 05 03 2013  05 33  -21.0404 26036.0 -03415.4 -07.4733 26259.1
 05 03 2013  05 34  -21.0404 26036.1 -03415.4 -07.4734 26259.1
 05 03 2013  05 35  -21.0404 26036.0 -03415.4 -07.4734 26259.1
 05 03 2013  05 36  -21.0403 26036.1 -03415.4 -07.4734 26259.2
 05 03 2013  05 37  -21.0404 26036.1 -03415.4 -07.4734 26259.1
 05 03 2013  05 38  -21.0403 26036.1 -03415.4 -07.4734 26259.2
 05 03 2013  05 39  -21.0402 26036.1 -03415.4 -07.4734 26259.1
 05 03 2013  05 40  -21.0401 26036.2 -03415.5 -07.4735 26259.2
 05 03 2013  05 41  -21.0398 26036.2 -03415.5 -07.4735 26259.3
 05 03 2013  05 42  -21.0398 26036.2 -03415.5 -07.4735 26259.3
 05 03 2013  05 43  -21.0398 26036.2 -03415.5 -07.4735 26259.3
 05 03 2013  05 44  -21.0398 26036.4 -03415.6 -07.4737 26259.5
 05 03 2013  05 45  -21.0396 26036.5 -03415.6 -07.4738 26259.6
 05 03 2013  05 46  -21.0396 26036.5 -03415.7 -07.4738 26259.6
 05 03 2013  05 47  -21.0399 26036.5 -03415.7 -07.4739 26259.6
 05 03 2013  05 48  -21.0397 26036.5 -03415.7 -07.4739 26259.6
 05 03 2013  05 49  -21.0398 26036.6 -03415.7 -07.4739 26259.7
 05 03 2013  05 50  -21.0398 26036.6 -03415.8 -07.4740 26259.8
 05 03 2013  05 51  -21.0397 26036.7 -03415.8 -07.4740 26259.8
 05 03 2013  05 52  -21.0395 26036.7 -03415.8 -07.4740 26259.8
 05 03 2013  05 53  -21.0396 26036.7 -03415.8 -07.4741 26259.8
 05 03 2013  05 54  -21.0394 26036.9 -03415.9 -07.4742 26260.0
 05 03 2013  05 55  -21.0393 26037.0 -03416.0 -07.4744 26260.2
 05 03 2013  05 56  -21.0393 26037.2 -03416.1 -07.4746 26260.4
 05 03 2013  05 57  -21.0391 26037.4 -03416.2 -07.4747 26260.5
 05 03 2013  05 58  -21.0391 26037.6 -03416.3 -07.4749 26260.7
 05 03 2013  05 59  -21.0390 26037.8 -03416.4 -07.4751 26260.9
 05 03 2013  06 00  -21.0390 26038.0 -03416.5 -07.4753 26261.2
 05 03 2013  06 01  -21.0387 26038.2 -03416.6 -07.4754 26261.4
 05 03 2013  06 02  -21.0384 26038.5 -03416.8 -07.4757 26261.8
 05 03 2013  06 03  -21.0381 26038.7 -03416.9 -07.4758 26261.9
 05 03 2013  06 04  -21.0377 26038.9 -03417.0 -07.4760 26262.1
 05 03 2013  06 05  -21.0373 26039.0 -03417.1 -07.4761 26262.3
 05 03 2013  06 06  -21.0371 26039.0 -03417.1 -07.4761 26262.3
 05 03 2013  06 07  -21.0370 26039.2 -03417.1 -07.4762 26262.5
 05 03 2013  06 08  -21.0368 26039.2 -03417.2 -07.4763 26262.5
 05 03 2013  06 09  -21.0367 26039.2 -03417.1 -07.4762 26262.5
 05 03 2013  06 10  -21.0365 26039.2 -03417.2 -07.4763 26262.5
 05 03 2013  06 11  -21.0364 26039.2 -03417.1 -07.4762 26262.4
 05 03 2013  06 12  -21.0360 26039.0 -03417.0 -07.4761 26262.3
 05 03 2013  06 13  -21.0355 26038.9 -03416.9 -07.4759 26262.1
 05 03 2013  06 14  -21.0349 26038.7 -03416.9 -07.4758 26262.0
 05 03 2013  06 15  -21.0345 26038.6 -03416.8 -07.4758 26261.8
 05 03 2013  06 16  -21.0342 26038.6 -03416.9 -07.4758 26261.8
 05 03 2013  06 17  -21.0338 26038.7 -03417.0 -07.4760 26261.9
 05 03 2013  06 18  -21.0336 26038.8 -03417.1 -07.4762 26262.0
 05 03 2013  06 19  -21.0334 26038.8 -03417.2 -07.4764 26262.1
 05 03 2013  06 20  -21.0331 26038.9 -03417.3 -07.4766 26262.2
 05 03 2013  06 21  -21.0330 26038.9 -03417.3 -07.4768 26262.2
 05 03 2013  06 22  -21.0329 26038.9 -03417.4 -07.4768 26262.2
 05 03 2013  06 23  -21.0328 26038.9 -03417.5 -07.4770 26262.2
 05 03 2013  06 24  -21.0327 26039.0 -03417.5 -07.4771 26262.3
 05 03 2013  06 25  -21.0326 26039.0 -03417.6 -07.4772 26262.3
 05 03 2013  06 26  -21.0326 26038.9 -03417.6 -07.4773 26262.3
 05 03 2013  06 27  -21.0327 26038.9 -03417.6 -07.4774 26262.2
 05 03 2013  06 28  -21.0328 26038.9 -03417.7 -07.4774 26262.2
 05 03 2013  06 29  -21.0327 26038.8 -03417.6 -07.4774 26262.2
 05 03 2013  06 30  -21.0328 26038.7 -03417.6 -07.4774 26262.1
 05 03 2013  06 31  -21.0326 26038.7 -03417.6 -07.4774 26262.0
 05 03 2013  06 32  -21.0326 26038.7 -03417.7 -07.4775 26262.0
 05 03 2013  06 33  -21.0327 26038.7 -03417.7 -07.4775 26262.1
 05 03 2013  06 34  -21.0327 26038.8 -03417.7 -07.4776 26262.1
 05 03 2013  06 35  -21.0326 26038.8 -03417.8 -07.4777 26262.2
 05 03 2013  06 36  -21.0324 26038.9 -03417.8 -07.4778 26262.2
 05 03 2013  06 37  -21.0324 26038.8 -03417.8 -07.4779 26262.2
 05 03 2013  06 38  -21.0324 26038.8 -03417.9 -07.4779 26262.2
 05 03 2013  06 39  -21.0323 26038.7 -03417.9 -07.4779 26262.1
 05 03 2013  06 40  -21.0325 26038.6 -03417.8 -07.4779 26262.0
 05 03 2013  06 41  -21.0326 26038.6 -03417.8 -07.4779 26261.9
 05 03 2013  06 42  -21.0327 26038.5 -03417.8 -07.4779 26261.9
 05 03 2013  06 43  -21.0328 26038.5 -03417.8 -07.4779 26261.9
 05 03 2013  06 44  -21.0330 26038.5 -03417.9 -07.4780 26261.8
 05 03 2013  06 45  -21.0333 26038.4 -03417.8 -07.4780 26261.7
 05 03 2013  06 46  -21.0333 26038.3 -03417.8 -07.4780 26261.7
 05 03 2013  06 47  -21.0334 26038.3 -03417.9 -07.4780 26261.7
 05 03 2013  06 48  -21.0334 26038.3 -03417.9 -07.4781 26261.7
 05 03 2013  06 49  -21.0333 26038.4 -03418.0 -07.4782 26261.8
 05 03 2013  06 50  -21.0333 26038.5 -03418.1 -07.4784 26261.9
 05 03 2013  06 51  -21.0334 26038.7 -03418.2 -07.4786 26262.1
 05 03 2013  06 52  -21.0332 26038.8 -03418.2 -07.4786 26262.2
 05 03 2013  06 53  -21.0331 26038.8 -03418.2 -07.4787 26262.2
 05 03 2013  06 54  -21.0333 26038.8 -03418.3 -07.4788 26262.2
 05 03 2013  06 55  -21.0332 26038.8 -03418.3 -07.4788 26262.2
 05 03 2013  06 56  -21.0333 26038.7 -03418.3 -07.4789 26262.1
 05 03 2013  06 57  -21.0332 26038.6 -03418.3 -07.4788 26262.0
 05 03 2013  06 58  -21.0332 26038.5 -03418.2 -07.4787 26261.9
 05 03 2013  06 59  -21.0331 26038.4 -03418.1 -07.4786 26261.7
 05 03 2013  07 00  -21.0331 26038.3 -03418.1 -07.4786 26261.7
 05 03 2013  07 01  -21.0333 26038.3 -03418.1 -07.4787 26261.7
 05 03 2013  07 02  -21.0334 26038.3 -03418.2 -07.4787 26261.7
 05 03 2013  07 03  -21.0334 26038.3 -03418.2 -07.4787 26261.7
 05 03 2013  07 04  -21.0335 26038.3 -03418.2 -07.4788 26261.7
 05 03 2013  07 05  -21.0335 26038.3 -03418.3 -07.4789 26261.7
 05 03 2013  07 06  -21.0336 26038.3 -03418.3 -07.4790 26261.7
 05 03 2013  07 07  -21.0336 26038.4 -03418.3 -07.4790 26261.8
 05 03 2013  07 08  -21.0337 26038.5 -03418.4 -07.4791 26261.9
 05 03 2013  07 09  -21.0339 26038.6 -03418.5 -07.4793 26262.0
 05 03 2013  07 10  -21.0339 26038.5 -03418.5 -07.4793 26262.0
 05 03 2013  07 11  -21.0339 26038.5 -03418.4 -07.4792 26261.9
 05 03 2013  07 12  -21.0339 26038.4 -03418.4 -07.4792 26261.8
 05 03 2013  07 13  -21.0340 26038.5 -03418.4 -07.4792 26262.0
 05 03 2013  07 14  -21.0344 26038.7 -03418.5 -07.4793 26262.1
 05 03 2013  07 15  -21.0345 26038.6 -03418.4 -07.4792 26262.1
 05 03 2013  07 16  -21.0349 26038.7 -03418.5 -07.4793 26262.1
 05 03 2013  07 17  -21.0347 26038.6 -03418.4 -07.4792 26262.0
 05 03 2013  07 18  -21.0350 26038.6 -03418.5 -07.4793 26262.1
 05 03 2013  07 19  -21.0348 26038.6 -03418.4 -07.4791 26262.0
 05 03 2013  07 20  -21.0348 26038.6 -03418.4 -07.4791 26262.1
 05 03 2013  07 21  -21.0348 26038.7 -03418.5 -07.4792 26262.1
 05 03 2013  07 22  -21.0350 26038.7 -03418.4 -07.4792 26262.1
 05 03 2013  07 23  -21.0349 26038.7 -03418.4 -07.4791 26262.2
 05 03 2013  07 24  -21.0349 26038.8 -03418.4 -07.4791 26262.2
 05 03 2013  07 25  -21.0348 26038.8 -03418.4 -07.4791 26262.3
 05 03 2013  07 26  -21.0348 26038.9 -03418.5 -07.4792 26262.3
 05 03 2013  07 27  -21.0347 26038.8 -03418.4 -07.4791 26262.2
 05 03 2013  07 28  -21.0346 26038.9 -03418.4 -07.4791 26262.3
 05 03 2013  07 29  -21.0345 26038.9 -03418.4 -07.4791 26262.3
 05 03 2013  07 30  -21.0343 26038.8 -03418.4 -07.4791 26262.3
 05 03 2013  07 31  -21.0342 26038.8 -03418.4 -07.4790 26262.2
 05 03 2013  07 32  -21.0340 26038.7 -03418.3 -07.4789 26262.1
 05 03 2013  07 33  -21.0337 26038.4 -03418.2 -07.4787 26261.8
 05 03 2013  07 34  -21.0335 26038.3 -03418.1 -07.4786 26261.7
 05 03 2013  07 35  -21.0331 26038.0 -03418.0 -07.4784 26261.4
 05 03 2013  07 36  -21.0327 26037.9 -03418.0 -07.4784 26261.3
 05 03 2013  07 37  -21.0326 26037.8 -03418.0 -07.4785 26261.2
 05 03 2013  07 38  -21.0325 26038.0 -03418.1 -07.4786 26261.4
 05 03 2013  07 39  -21.0325 26037.9 -03418.1 -07.4787 26261.3
 05 03 2013  07 40  -21.0325 26037.9 -03418.1 -07.4787 26261.3
 05 03 2013  07 41  -21.0324 26037.9 -03418.2 -07.4788 26261.3
 05 03 2013  07 42  -21.0323 26037.9 -03418.2 -07.4789 26261.3
 05 03 2013  07 43  -21.0322 26037.9 -03418.2 -07.4790 26261.3
 05 03 2013  07 44  -21.0322 26037.9 -03418.3 -07.4791 26261.4
 05 03 2013  07 45  -21.0324 26038.1 -03418.4 -07.4793 26261.5
 05 03 2013  07 46  -21.0325 26038.0 -03418.4 -07.4794 26261.5
 05 03 2013  07 47  -21.0330 26038.1 -03418.5 -07.4795 26261.5
 05 03 2013  07 48  -21.0332 26037.9 -03418.5 -07.4795 26261.3
 05 03 2013  07 49  -21.0333 26037.9 -03418.5 -07.4795 26261.3
 05 03 2013  07 50  -21.0334 26037.8 -03418.5 -07.4795 26261.3
 05 03 2013  07 51  -21.0334 26037.6 -03418.4 -07.4794 26261.0
 05 03 2013  07 52  -21.0331 26037.5 -03418.4 -07.4794 26260.9
 05 03 2013  07 53  -21.0329 26037.4 -03418.4 -07.4794 26260.8
 05 03 2013  07 54  -21.0327 26037.4 -03418.3 -07.4793 26260.8
 05 03 2013  07 55  -21.0325 26037.2 -03418.2 -07.4792 26260.6
 05 03 2013  07 56  -21.0323 26036.9 -03418.1 -07.4791 26260.3
 05 03 2013  07 57  -21.0325 26036.8 -03418.2 -07.4792 26260.2
 05 03 2013  07 58  -21.0329 26036.9 -03418.4 -07.4795 26260.4
 05 03 2013  07 59  -21.0331 26037.3 -03418.6 -07.4800 26260.8
 05 03 2013  08 00  -21.0333 26037.8 -03418.9 -07.4804 26261.3
 05 03 2013  08 01  -21.0333 26038.3 -03419.1 -07.4808 26261.8
 05 03 2013  08 02  -21.0335 26038.6 -03419.3 -07.4811 26262.2
 05 03 2013  08 03  -21.0337 26038.8 -03419.4 -07.4813 26262.4
 05 03 2013  08 04  -21.0340 26038.8 -03419.4 -07.4812 26262.4
 05 03 2013  08 05  -21.0341 26038.7 -03419.3 -07.4811 26262.3
 05 03 2013  08 06  -21.0341 26038.7 -03419.3 -07.4810 26262.2
 05 03 2013  08 07  -21.0342 26038.6 -03419.3 -07.4809 26262.2
 05 03 2013  08 08  -21.0341 26038.6 -03419.3 -07.4810 26262.2
 05 03 2013  08 09  -21.0341 26038.8 -03419.3 -07.4810 26262.4
 05 03 2013  08 10  -21.0341 26038.9 -03419.3 -07.4810 26262.4
 05 03 2013  08 11  -21.0342 26038.9 -03419.3 -07.4810 26262.5
 05 03 2013  08 12  -21.0343 26038.9 -03419.2 -07.4809 26262.4
 05 03 2013  08 13  -21.0342 26038.8 -03419.2 -07.4807 26262.3
 05 03 2013  08 14  -21.0341 26038.7 -03419.1 -07.4805 26262.3
 05 03 2013  08 15  -21.0339 26038.7 -03419.0 -07.4804 26262.2
 05 03 2013  08 16  -21.0338 26038.7 -03419.0 -07.4804 26262.2
 05 03 2013  08 17  -21.0337 26038.7 -03419.0 -07.4803 26262.2
 05 03 2013  08 18  -21.0337 26038.7 -03419.0 -07.4805 26262.2
 05 03 2013  08 19  -21.0337 26038.8 -03419.1 -07.4806 26262.3
 05 03 2013  08 20  -21.0335 26038.8 -03419.2 -07.4808 26262.3
 05 03 2013  08 21  -21.0335 26038.7 -03419.2 -07.4809 26262.3
 05 03 2013  08 22  -21.0335 26038.7 -03419.2 -07.4809 26262.2
 05 03 2013  08 23  -21.0333 26038.6 -03419.2 -07.4809 26262.1
 05 03 2013  08 24  -21.0331 26038.8 -03419.3 -07.4811 26262.3
 05 03 2013  08 25  -21.0326 26038.9 -03419.4 -07.4812 26262.5
 05 03 2013  08 26  -21.0323 26038.7 -03419.3 -07.4811 26262.3
 05 03 2013  08 27  -21.0321 26038.6 -03419.3 -07.4811 26262.1
 05 03 2013  08 28  -21.0319 26038.6 -03419.4 -07.4813 26262.1
 05 03 2013  08 29  -21.0320 26038.6 -03419.5 -07.4815 26262.2
 05 03 2013  08 30  -21.0321 26038.6 -03419.6 -07.4816 26262.2
 05 03 2013  08 31  -21.0321 26038.6 -03419.6 -07.4817 26262.2
 05 03 2013  08 32  -21.0323 26038.6 -03419.6 -07.4818 26262.2
 05 03 2013  08 33  -21.0325 26038.5 -03419.7 -07.4819 26262.1
 05 03 2013  08 34  -21.0326 26038.6 -03419.8 -07.4821 26262.2
 05 03 2013  08 35  -21.0326 26038.6 -03419.8 -07.4821 26262.2
 05 03 2013  08 36  -21.0328 26038.7 -03419.8 -07.4821 26262.3
 05 03 2013  08 37  -21.0329 26038.8 -03419.8 -07.4822 26262.4
 05 03 2013  08 38  -21.0328 26038.7 -03419.8 -07.4821 26262.3
 05 03 2013  08 39  -21.0327 26038.8 -03419.8 -07.4821 26262.4
 05 03 2013  08 40  -21.0327 26038.8 -03419.8 -07.4820 26262.4
 05 03 2013  08 41  -21.0327 26038.8 -03419.8 -07.4820 26262.5
 05 03 2013  08 42  -21.0327 26038.9 -03419.8 -07.4820 26262.5
 05 03 2013  08 43  -21.0324 26038.9 -03419.7 -07.4819 26262.5
 05 03 2013  08 44  -21.0322 26039.0 -03419.7 -07.4819 26262.5
 05 03 2013  08 45  -21.0319 26039.1 -03419.7 -07.4819 26262.7
 05 03 2013  08 46  -21.0316 26039.1 -03419.7 -07.4819 26262.7
 05 03 2013  08 47  -21.0314 26039.0 -03419.6 -07.4817 26262.6
 05 03 2013  08 48  -21.0313 26038.9 -03419.6 -07.4815 26262.5
 05 03 2013  08 49  -21.0310 26038.9 -03419.6 -07.4815 26262.5
 05 03 2013  08 50  -21.0306 26039.0 -03419.5 -07.4814 26262.5
 05 03 2013  08 51  -21.0301 26039.0 -03419.5 -07.4813 26262.6
 05 03 2013  08 52  -21.0295 26039.0 -03419.4 -07.4811 26262.5
 05 03 2013  08 53  -21.0291 26038.9 -03419.3 -07.4810 26262.5
 05 03 2013  08 54  -21.0287 26038.9 -03419.4 -07.4811 26262.4
 05 03 2013  08 55  -21.0281 26038.8 -03419.4 -07.4812 26262.4
 05 03 2013  08 56  -21.0277 26038.8 -03419.4 -07.4812 26262.3
 05 03 2013  08 57  -21.0275 26038.7 -03419.4 -07.4813 26262.2
 05 03 2013  08 58  -21.0270 26038.7 -03419.5 -07.4816 26262.2
 05 03 2013  08 59  -21.0268 26038.6 -03419.7 -07.4819 26262.2
 05 03 2013  09 00  -21.0266 26038.7 -03419.8 -07.4822 26262.4
 05 03 2013  09 01  -21.0265 26038.7 -03420.0 -07.4826 26262.3
 05 03 2013  09 02  -21.0265 26038.7 -03420.1 -07.4829 26262.3
 05 03 2013  09 03  -21.0263 26038.7 -03420.3 -07.4832 26262.4
 05 03 2013  09 04  -21.0266 26038.8 -03420.5 -07.4836 26262.5
 05 03 2013  09 05  -21.0268 26038.8 -03420.7 -07.4840 26262.6
 05 03 2013  09 06  -21.0272 26038.8 -03420.8 -07.4843 26262.6
 05 03 2013  09 07  -21.0274 26038.9 -03421.0 -07.4846 26262.6
 05 03 2013  09 08  -21.0278 26038.9 -03421.1 -07.4848 26262.7
 05 03 2013  09 09  -21.0282 26038.9 -03421.2 -07.4850 26262.7
 05 03 2013  09 10  -21.0288 26039.0 -03421.3 -07.4852 26262.8
 05 03 2013  09 11  -21.0290 26039.0 -03421.3 -07.4853 26262.9
 05 03 2013  09 12  -21.0295 26039.0 -03421.4 -07.4855 26262.8
 05 03 2013  09 13  -21.0298 26039.0 -03421.4 -07.4856 26262.8
 05 03 2013  09 14  -21.0301 26039.0 -03421.4 -07.4856 26262.8
 05 03 2013  09 15  -21.0305 26039.0 -03421.5 -07.4856 26262.8
 05 03 2013  09 16  -21.0309 26039.0 -03421.5 -07.4857 26262.8
 05 03 2013  09 17  -21.0313 26039.0 -03421.6 -07.4858 26262.9
 05 03 2013  09 18  -21.0316 26039.1 -03421.6 -07.4859 26263.0
 05 03 2013  09 19  -21.0319 26039.1 -03421.7 -07.4860 26263.0
 05 03 2013  09 20  -21.0323 26039.1 -03421.6 -07.4860 26263.0
 05 03 2013  09 21  -21.0324 26039.1 -03421.7 -07.4860 26263.0
 05 03 2013  09 22  -21.0327 26039.1 -03421.8 -07.4864 26263.0
 05 03 2013  09 23  -21.0332 26039.1 -03421.9 -07.4866 26263.0
 05 03 2013  09 24  -21.0335 26039.1 -03422.0 -07.4867 26263.0
 05 03 2013  09 25  -21.0341 26039.2 -03422.1 -07.4869 26263.1
 05 03 2013  09 26  -21.0345 26039.4 -03422.1 -07.4870 26263.3
 05 03 2013  09 27  -21.0352 26039.4 -03422.2 -07.4871 26263.3
 05 03 2013  09 28  -21.0358 26039.4 -03422.2 -07.4871 26263.3
 05 03 2013  09 29  -21.0363 26039.6 -03422.3 -07.4872 26263.5
 05 03 2013  09 30  -21.0370 26039.6 -03422.3 -07.4872 26263.6
 05 03 2013  09 31  -21.0375 26039.8 -03422.3 -07.4872 26263.7
 05 03 2013  09 32  -21.0384 26039.9 -03422.3 -07.4873 26263.8
 05 03 2013  09 33  -21.0390 26040.0 -03422.4 -07.4873 26263.9
 05 03 2013  09 34  -21.0396 26040.0 -03422.3 -07.4872 26264.0
 05 03 2013  09 35  -21.0398 26040.1 -03422.3 -07.4871 26264.0
 05 03 2013  09 36  -21.0402 26040.1 -03422.3 -07.4871 26264.0
 05 03 2013  09 37  -21.0407 26040.1 -03422.2 -07.4870 26264.0
 05 03 2013  09 38  -21.0413 26040.2 -03422.3 -07.4870 26264.1
 05 03 2013  09 39  -21.0416 26040.3 -03422.3 -07.4870 26264.2
 05 03 2013  09 40  -21.0420 26040.4 -03422.3 -07.4870 26264.3
 05 03 2013  09 41  -21.0424 26040.5 -03422.3 -07.4870 26264.4
 05 03 2013  09 42  -21.0427 26040.5 -03422.3 -07.4870 26264.4
 05 03 2013  09 43  -21.0430 26040.6 -03422.3 -07.4870 26264.5
 05 03 2013  09 44  -21.0434 26040.7 -03422.3 -07.4870 26264.7
 05 03 2013  09 45  -21.0438 26040.9 -03422.4 -07.4871 26264.8
 05 03 2013  09 46  -21.0440 26041.0 -03422.4 -07.4871 26265.0
 05 03 2013  09 47  -21.0441 26041.1 -03422.4 -07.4871 26265.1
 05 03 2013  09 48  -21.0445 26041.3 -03422.4 -07.4871 26265.2
 05 03 2013  09 49  -21.0450 26041.4 -03422.5 -07.4871 26265.3
 05 03 2013  09 50  -21.0456 26041.5 -03422.5 -07.4871 26265.5
 05 03 2013  09 51  -21.0460 26041.7 -03422.5 -07.4871 26265.6
 05 03 2013  09 52  -21.0463 26041.8 -03422.5 -07.4871 26265.7
 05 03 2013  09 53  -21.0465 26042.0 -03422.5 -07.4871 26265.9
 05 03 2013  09 54  -21.0469 26042.1 -03422.5 -07.4870 26266.0
 05 03 2013  09 55  -21.0471 26042.2 -03422.5 -07.4870 26266.1
 05 03 2013  09 56  -21.0474 26042.3 -03422.5 -07.4870 26266.2
 05 03 2013  09 57  -21.0476 26042.5 -03422.6 -07.4870 26266.4
 05 03 2013  09 58  -21.0479 26042.6 -03422.6 -07.4870 26266.6
 05 03 2013  09 59  -21.0484 26042.8 -03422.6 -07.4870 26266.8
 05 03 2013  10 00  -21.0486 26043.0 -03422.6 -07.4870 26267.0
 05 03 2013  10 01  -21.0488 26043.2 -03422.7 -07.4870 26267.2
 05 03 2013  10 02  -21.0495 26043.4 -03422.6 -07.4869 26267.3
 05 03 2013  10 03  -21.0498 26043.3 -03422.5 -07.4867 26267.2
 05 03 2013  10 04  -21.0499 26043.3 -03422.4 -07.4865 26267.2
 05 03 2013  10 05  -21.0498 26043.2 -03422.4 -07.4864 26267.1
 05 03 2013  10 06  -21.0498 26043.3 -03422.3 -07.4863 26267.2
 05 03 2013  10 07  -21.0498 26043.3 -03422.3 -07.4862 26267.2
 05 03 2013  10 08  -21.0500 26043.4 -03422.3 -07.4861 26267.3
 05 03 2013  10 09  -21.0501 26043.5 -03422.3 -07.4862 26267.4
 05 03 2013  10 10  -21.0504 26043.6 -03422.3 -07.4862 26267.5
 05 03 2013  10 11  -21.0508 26043.8 -03422.4 -07.4862 26267.7
 05 03 2013  10 12  -21.0513 26044.0 -03422.4 -07.4862 26267.9
 05 03 2013  10 13  -21.0517 26044.1 -03422.4 -07.4861 26268.0
 05 03 2013  10 14  -21.0520 26044.0 -03422.3 -07.4861 26267.9
 05 03 2013  10 15  -21.0524 26044.1 -03422.3 -07.4860 26268.0
 05 03 2013  10 16  -21.0526 26044.3 -03422.3 -07.4859 26268.1
 05 03 2013  10 17  -21.0530 26044.5 -03422.3 -07.4859 26268.4
 05 03 2013  10 18  -21.0532 26044.8 -03422.3 -07.4858 26268.7
 05 03 2013  10 19  -21.0535 26045.1 -03422.3 -07.4857 26268.9
 05 03 2013  10 20  -21.0539 26045.4 -03422.3 -07.4857 26269.3
 05 03 2013  10 21  -21.0540 26045.7 -03422.4 -07.4857 26269.6
 05 03 2013  10 22  -21.0541 26046.0 -03422.4 -07.4856 26269.9
 05 03 2013  10 23  -21.0543 26046.4 -03422.4 -07.4855 26270.3
 05 03 2013  10 24  -21.0548 26046.8 -03422.4 -07.4854 26270.7
 05 03 2013  10 25  -21.0552 26047.2 -03422.4 -07.4853 26271.1
 05 03 2013  10 26  -21.0557 26047.6 -03422.4 -07.4853 26271.5
 05 03 2013  10 27  -21.0557 26047.8 -03422.3 -07.4850 26271.7
 05 03 2013  10 28  -21.0560 26048.0 -03422.3 -07.4848 26271.9
 05 03 2013  10 29  -21.0562 26048.3 -03422.3 -07.4847 26272.1
 05 03 2013  10 30  -21.0563 26048.5 -03422.2 -07.4846 26272.3
 05 03 2013  10 31  -21.0565 26048.6 -03422.1 -07.4843 26272.4
 05 03 2013  10 32  -21.0571 26048.7 -03422.1 -07.4842 26272.5
 05 03 2013  10 33  -21.0577 26048.9 -03422.1 -07.4842 26272.7
 05 03 2013  10 34  -21.0581 26049.0 -03422.1 -07.4841 26272.8
 05 03 2013  10 35  -21.0584 26049.1 -03422.0 -07.4839 26272.9
 05 03 2013  10 36  -21.0589 26049.0 -03421.9 -07.4837 26272.8
 05 03 2013  10 37  -21.0592 26049.0 -03421.8 -07.4836 26272.8
 05 03 2013  10 38  -21.0594 26048.8 -03421.7 -07.4833 26272.6
 05 03 2013  10 39  -21.0595 26048.6 -03421.6 -07.4831 26272.4
 05 03 2013  10 40  -21.0596 26048.5 -03421.4 -07.4829 26272.2
 05 03 2013  10 41  -21.0598 26048.5 -03421.4 -07.4829 26272.2
 05 03 2013  10 42  -21.0601 26048.7 -03421.4 -07.4828 26272.4
 05 03 2013  10 43  -21.0603 26048.9 -03421.5 -07.4829 26272.6
 05 03 2013  10 44  -21.0606 26049.0 -03421.5 -07.4828 26272.8
 05 03 2013  10 45  -21.0609 26049.1 -03421.4 -07.4826 26272.8
 05 03 2013  10 46  -21.0613 26049.3 -03421.4 -07.4825 26273.0
 05 03 2013  10 47  -21.0614 26049.5 -03421.4 -07.4824 26273.2
 05 03 2013  10 48  -21.0619 26049.7 -03421.3 -07.4823 26273.4
 05 03 2013  10 49  -21.0621 26049.9 -03421.3 -07.4822 26273.6
 05 03 2013  10 50  -21.0623 26050.3 -03421.3 -07.4820 26274.0
 05 03 2013  10 51  -21.0626 26050.6 -03421.2 -07.4819 26274.3
 05 03 2013  10 52  -21.0631 26051.0 -03421.2 -07.4817 26274.7
 05 03 2013  10 53  -21.0635 26051.2 -03421.1 -07.4815 26274.9
 05 03 2013  10 54  -21.0640 26051.4 -03421.1 -07.4812 26275.1
 05 03 2013  10 55  -21.0643 26051.5 -03420.9 -07.4809 26275.2
 05 03 2013  10 56  -21.0646 26051.6 -03420.8 -07.4807 26275.2
 05 03 2013  10 57  -21.0648 26051.6 -03420.7 -07.4803 26275.3
 05 03 2013  10 58  -21.0650 26051.7 -03420.6 -07.4801 26275.3
 05 03 2013  10 59  -21.0653 26051.8 -03420.5 -07.4800 26275.4
 05 03 2013  11 00  -21.0656 26052.1 -03420.5 -07.4799 26275.7
 05 03 2013  11 01  -21.0658 26052.4 -03420.5 -07.4796 26275.9
 05 03 2013  11 02  -21.0660 26052.5 -03420.3 -07.4794 26276.1
 05 03 2013  11 03  -21.0661 26052.7 -03420.3 -07.4792 26276.3
 05 03 2013  11 04  -21.0664 26053.0 -03420.2 -07.4789 26276.5
 05 03 2013  11 05  -21.0669 26053.2 -03420.1 -07.4787 26276.7
 05 03 2013  11 06  -21.0673 26053.3 -03420.0 -07.4784 26276.8
 05 03 2013  11 07  -21.0676 26053.5 -03419.9 -07.4781 26277.0
 05 03 2013  11 08  -21.0678 26053.7 -03419.8 -07.4779 26277.2
 05 03 2013  11 09  -21.0681 26053.9 -03419.7 -07.4777 26277.4
 05 03 2013  11 10  -21.0684 26054.0 -03419.7 -07.4774 26277.5
 05 03 2013  11 11  -21.0687 26054.2 -03419.6 -07.4773 26277.6
 05 03 2013  11 12  -21.0691 26054.4 -03419.6 -07.4771 26277.9
 05 03 2013  11 13  -21.0696 26054.6 -03419.5 -07.4770 26278.1
 05 03 2013  11 14  -21.0700 26054.8 -03419.4 -07.4768 26278.3
 05 03 2013  11 15  -21.0703 26055.0 -03419.4 -07.4766 26278.4
 05 03 2013  11 16  -21.0707 26055.1 -03419.3 -07.4763 26278.5
 05 03 2013  11 17  -21.0708 26055.0 -03419.1 -07.4760 26278.4
 05 03 2013  11 18  -21.0711 26055.0 -03419.0 -07.4758 26278.3
 05 03 2013  11 19  -21.0714 26055.0 -03419.0 -07.4757 26278.4
 05 03 2013  11 20  -21.0718 26055.3 -03419.0 -07.4757 26278.7
 05 03 2013  11 21  -21.0720 26055.7 -03419.1 -07.4757 26279.1
 05 03 2013  11 22  -21.0723 26055.9 -03419.0 -07.4755 26279.2
 05 03 2013  11 23  -21.0726 26055.9 -03418.9 -07.4752 26279.3
 05 03 2013  11 24  -21.0729 26056.1 -03418.8 -07.4751 26279.5
 05 03 2013  11 25  -21.0731 26056.3 -03418.7 -07.4748 26279.6
 05 03 2013  11 26  -21.0730 26056.5 -03418.6 -07.4745 26279.8
 05 03 2013  11 27  -21.0730 26056.7 -03418.5 -07.4742 26280.0
 05 03 2013  11 28  -21.0731 26057.0 -03418.5 -07.4740 26280.2
 05 03 2013  11 29  -21.0731 26057.1 -03418.4 -07.4738 26280.4
 05 03 2013  11 30  -21.0733 26057.3 -03418.2 -07.4735 26280.5
 05 03 2013  11 31  -21.0734 26057.4 -03418.1 -07.4732 26280.6
 05 03 2013  11 32  -21.0735 26057.5 -03418.0 -07.4730 26280.7
 05 03 2013  11 33  -21.0737 26057.7 -03418.0 -07.4728 26280.9
 05 03 2013  11 34  -21.0737 26058.0 -03418.0 -07.4727 26281.2
 05 03 2013  11 35  -21.0740 26058.4 -03418.0 -07.4726 26281.6
 05 03 2013  11 36  -21.0741 26058.9 -03418.0 -07.4725 26282.1
 05 03 2013  11 37  -21.0745 26059.1 -03417.9 -07.4722 26282.3
 05 03 2013  11 38  -21.0746 26059.5 -03417.9 -07.4720 26282.7
 05 03 2013  11 39  -21.0748 26059.9 -03417.9 -07.4719 26283.1
 05 03 2013  11 40  -21.0750 26060.5 -03417.9 -07.4718 26283.7
 05 03 2013  11 41  -21.0751 26060.9 -03417.8 -07.4715 26284.0
 05 03 2013  11 42  -21.0752 26061.2 -03417.7 -07.4712 26284.3
 05 03 2013  11 43  -21.0756 26061.4 -03417.6 -07.4710 26284.6
 05 03 2013  11 44  -21.0758 26061.8 -03417.6 -07.4708 26284.9
 05 03 2013  11 45  -21.0761 26062.1 -03417.5 -07.4706 26285.2
 05 03 2013  11 46  -21.0763 26062.3 -03417.4 -07.4703 26285.4
 05 03 2013  11 47  -21.0767 26062.4 -03417.3 -07.4700 26285.5
 05 03 2013  11 48  -21.0772 26062.5 -03417.2 -07.4697 26285.6
 05 03 2013  11 49  -21.0779 26062.8 -03417.1 -07.4695 26285.8
 05 03 2013  11 50  -21.0785 26063.0 -03417.1 -07.4693 26286.0
 05 03 2013  11 51  -21.0787 26063.0 -03416.9 -07.4690 26286.0
 05 03 2013  11 52  -21.0790 26063.0 -03416.8 -07.4687 26286.1
 05 03 2013  11 53  -21.0794 26062.9 -03416.7 -07.4685 26285.9
 05 03 2013  11 54  -21.0799 26062.9 -03416.6 -07.4683 26285.9
 05 03 2013  11 55  -21.0801 26063.1 -03416.6 -07.4682 26286.1
 05 03 2013  11 56  -21.0803 26063.6 -03416.7 -07.4683 26286.6
 05 03 2013  11 57  -21.0805 26063.9 -03416.7 -07.4682 26286.9
 05 03 2013  11 58  -21.0804 26064.3 -03416.7 -07.4681 26287.3
 05 03 2013  11 59  -21.0803 26064.4 -03416.6 -07.4678 26287.3
 05 03 2013  12 00  -21.0803 26064.4 -03416.4 -07.4676 26287.4
 05 03 2013  12 01  -21.0807 26064.2 -03416.3 -07.4674 26287.2
 05 03 2013  12 02  -21.0810 26064.3 -03416.3 -07.4673 26287.2
 05 03 2013  12 03  -21.0811 26064.4 -03416.3 -07.4673 26287.3
 05 03 2013  12 04  -21.0812 26064.7 -03416.4 -07.4674 26287.7
 05 03 2013  12 05  -21.0812 26065.0 -03416.4 -07.4674 26287.9
 05 03 2013  12 06  -21.0814 26065.0 -03416.4 -07.4673 26288.0
 05 03 2013  12 07  -21.0818 26065.2 -03416.5 -07.4675 26288.1
 05 03 2013  12 08  -21.0823 26065.3 -03416.5 -07.4675 26288.2
 05 03 2013  12 09  -21.0827 26065.1 -03416.5 -07.4674 26288.1
 05 03 2013  12 10  -21.0830 26065.4 -03416.6 -07.4677 26288.3
 05 03 2013  12 11  -21.0833 26065.7 -03416.8 -07.4679 26288.6
 05 03 2013  12 12  -21.0836 26066.1 -03416.9 -07.4681 26289.1
 05 03 2013  12 13  -21.0839 26066.8 -03417.2 -07.4684 26289.8
 05 03 2013  12 14  -21.0846 26067.4 -03417.3 -07.4686 26290.4
 05 03 2013  12 15  -21.0852 26068.0 -03417.4 -07.4687 26291.1
 05 03 2013  12 16  -21.0859 26068.5 -03417.4 -07.4686 26291.6
 05 03 2013  12 17  -21.0868 26068.9 -03417.4 -07.4684 26291.9
 05 03 2013  12 18  -21.0876 26069.3 -03417.3 -07.4681 26292.3
 05 03 2013  12 19  -21.0883 26069.5 -03417.2 -07.4677 26292.5
 05 03 2013  12 20  -21.0890 26069.5 -03417.0 -07.4673 26292.5
 05 03 2013  12 21  -21.0893 26069.8 -03417.0 -07.4672 26292.8
 05 03 2013  12 22  -21.0899 26070.2 -03417.0 -07.4672 26293.2
 05 03 2013  12 23  -21.0903 26070.4 -03417.0 -07.4670 26293.4
 05 03 2013  12 24  -21.0907 26070.5 -03416.9 -07.4669 26293.5
 05 03 2013  12 25  -21.0910 26070.8 -03417.0 -07.4669 26293.7
 05 03 2013  12 26  -21.0912 26071.3 -03417.1 -07.4670 26294.2
 05 03 2013  12 27  -21.0914 26071.9 -03417.2 -07.4670 26294.8
 05 03 2013  12 28  -21.0916 26072.4 -03417.2 -07.4669 26295.4
 05 03 2013  12 29  -21.0917 26072.8 -03417.2 -07.4668 26295.7
 05 03 2013  12 30  -21.0921 26073.1 -03417.1 -07.4665 26296.0
 05 03 2013  12 31  -21.0922 26073.4 -03417.0 -07.4663 26296.4
 05 03 2013  12 32  -21.0923 26074.2 -03417.1 -07.4663 26297.2
 05 03 2013  12 33  -21.0927 26075.1 -03417.3 -07.4663 26298.1
 05 03 2013  12 34  -21.0932 26075.2 -03417.1 -07.4659 26298.2
 05 03 2013  12 35  -21.0935 26075.1 -03416.8 -07.4653 26298.0
 05 03 2013  12 36  -21.0938 26075.2 -03416.7 -07.4650 26298.1
 05 03 2013  12 37  -21.0942 26075.5 -03416.7 -07.4649 26298.4
 05 03 2013  12 38  -21.0943 26075.8 -03416.6 -07.4648 26298.7
 05 03 2013  12 39  -21.0944 26075.9 -03416.6 -07.4646 26298.8
 05 03 2013  12 40  -21.0944 26076.1 -03416.5 -07.4645 26299.0
 05 03 2013  12 41  -21.0943 26076.3 -03416.5 -07.4644 26299.2
 05 03 2013  12 42  -21.0943 26076.4 -03416.5 -07.4643 26299.3
 05 03 2013  12 43  -21.0943 26076.5 -03416.4 -07.4641 26299.3
 05 03 2013  12 44  -21.0943 26076.6 -03416.4 -07.4640 26299.4
 05 03 2013  12 45  -21.0944 26076.8 -03416.4 -07.4640 26299.6
 05 03 2013  12 46  -21.0944 26076.9 -03416.4 -07.4639 26299.8
 05 03 2013  12 47  -21.0946 26077.2 -03416.5 -07.4640 26300.0
 05 03 2013  12 48  -21.0948 26077.4 -03416.5 -07.4640 26300.3
 05 03 2013  12 49  -21.0952 26077.7 -03416.5 -07.4640 26300.5
 05 03 2013  12 50  -21.0955 26077.9 -03416.5 -07.4640 26300.7
 05 03 2013  12 51  -21.0956 26078.2 -03416.6 -07.4640 26301.0
 05 03 2013  12 52  -21.0959 26078.4 -03416.6 -07.4640 26301.3
 05 03 2013  12 53  -21.0960 26078.7 -03416.7 -07.4640 26301.5
 05 03 2013  12 54  -21.0962 26079.0 -03416.7 -07.4641 26301.9
 05 03 2013  12 55  -21.0963 26079.2 -03416.8 -07.4641 26302.1
 05 03 2013  12 56  -21.0965 26079.5 -03416.8 -07.4641 26302.4
 05 03 2013  12 57  -21.0967 26079.7 -03416.8 -07.4640 26302.5
 05 03 2013  12 58  -21.0968 26080.0 -03416.8 -07.4640 26302.9
 05 03 2013  12 59  -21.0970 26080.2 -03416.9 -07.4640 26303.1
 05 03 2013  13 00  -21.0973 26080.6 -03416.9 -07.4641 26303.5
 05 03 2013  13 01  -21.0975 26080.8 -03417.0 -07.4640 26303.7
 05 03 2013  13 02  -21.0976 26081.1 -03417.0 -07.4640 26304.0
 05 03 2013  13 03  -21.0976 26081.0 -03416.9 -07.4638 26303.9
 05 03 2013  13 04  -21.0975 26080.8 -03416.7 -07.4636 26303.6
 05 03 2013  13 05  -21.0975 26080.9 -03416.8 -07.4636 26303.8
 05 03 2013  13 06  -21.0975 26081.4 -03416.9 -07.4638 26304.2
 05 03 2013  13 07  -21.0977 26081.8 -03417.1 -07.4640 26304.7
 05 03 2013  13 08  -21.0978 26082.3 -03417.2 -07.4642 26305.2
 05 03 2013  13 09  -21.0981 26082.8 -03417.3 -07.4641 26305.7
 05 03 2013  13 10  -21.0984 26083.1 -03417.3 -07.4641 26306.0
 05 03 2013  13 11  -21.0983 26083.4 -03417.3 -07.4640 26306.3
 05 03 2013  13 12  -21.0984 26084.0 -03417.4 -07.4640 26306.9
 05 03 2013  13 13  -21.0986 26084.0 -03417.3 -07.4638 26306.9
 05 03 2013  13 14  -21.0988 26083.9 -03417.2 -07.4636 26306.8
 05 03 2013  13 15  -21.0992 26084.3 -03417.3 -07.4638 26307.2
 05 03 2013  13 16  -21.0999 26084.0 -03417.1 -07.4634 26306.9
 05 03 2013  13 17  -21.1002 26083.7 -03416.9 -07.4631 26306.6
 05 03 2013  13 18  -21.1003 26083.8 -03416.9 -07.4630 26306.6
 05 03 2013  13 19  -21.1003 26084.0 -03416.9 -07.4629 26306.9
 05 03 2013  13 20  -21.1001 26084.0 -03416.7 -07.4626 26306.8
 05 03 2013  13 21  -21.1000 26084.3 -03416.8 -07.4627 26307.1
 05 03 2013  13 22  -21.0999 26084.5 -03416.8 -07.4626 26307.3
 05 03 2013  13 23  -21.0998 26084.3 -03416.6 -07.4622 26307.1
 05 03 2013  13 24  -21.1000 26084.8 -03416.8 -07.4625 26307.6
 05 03 2013  13 25  -21.1002 26085.0 -03416.7 -07.4624 26307.8
 05 03 2013  13 26  -21.1001 26085.3 -03416.8 -07.4624 26308.1
 05 03 2013  13 27  -21.0999 26085.6 -03416.8 -07.4623 26308.4
 05 03 2013  13 28  -21.0999 26086.1 -03416.9 -07.4624 26308.9
 05 03 2013  13 29  -21.0999 26086.6 -03416.9 -07.4624 26309.4
 05 03 2013  13 30  -21.0997 26086.9 -03416.9 -07.4622 26309.7
 05 03 2013  13 31  -21.0994 26087.4 -03416.9 -07.4621 26310.2
 05 03 2013  13 32  -21.0990 26087.6 -03416.8 -07.4617 26310.4
 05 03 2013  13 33  -21.0988 26087.9 -03416.7 -07.4615 26310.7
 05 03 2013  13 34  -21.0986 26088.2 -03416.7 -07.4614 26310.9
 05 03 2013  13 35  -21.0983 26088.5 -03416.7 -07.4613 26311.3
 05 03 2013  13 36  -21.0979 26088.7 -03416.6 -07.4610 26311.4
 05 03 2013  13 37  -21.0974 26088.9 -03416.5 -07.4608 26311.7
 05 03 2013  13 38  -21.0971 26089.2 -03416.5 -07.4606 26311.9
 05 03 2013  13 39  -21.0965 26089.2 -03416.4 -07.4604 26311.9
 05 03 2013  13 40  -21.0961 26089.2 -03416.3 -07.4602 26311.9
 05 03 2013  13 41  -21.0957 26089.3 -03416.2 -07.4601 26312.0
 05 03 2013  13 42  -21.0955 26089.6 -03416.3 -07.4601 26312.3
 05 03 2013  13 43  -21.0953 26089.8 -03416.3 -07.4601 26312.5
 05 03 2013  13 44  -21.0951 26089.9 -03416.3 -07.4600 26312.6
 05 03 2013  13 45  -21.0948 26090.0 -03416.3 -07.4600 26312.8
 05 03 2013  13 46  -21.0946 26090.1 -03416.2 -07.4598 26312.8
 05 03 2013  13 47  -21.0944 26090.1 -03416.1 -07.4596 26312.8
 05 03 2013  13 48  -21.0942 26090.4 -03416.1 -07.4595 26313.1
 05 03 2013  13 49  -21.0941 26090.4 -03416.1 -07.4594 26313.1
 05 03 2013  13 50  -21.0940 26090.6 -03416.0 -07.4593 26313.3
 05 03 2013  13 51  -21.0938 26090.7 -03416.0 -07.4591 26313.3
 05 03 2013  13 52  -21.0934 26090.7 -03415.9 -07.4590 26313.3
 05 03 2013  13 53  -21.0935 26090.7 -03415.9 -07.4589 26313.3
 05 03 2013  13 54  -21.0932 26090.6 -03415.8 -07.4587 26313.3
 05 03 2013  13 55  -21.0931 26090.7 -03415.8 -07.4587 26313.3
 05 03 2013  13 56  -21.0928 26090.6 -03415.7 -07.4586 26313.3
 05 03 2013  13 57  -21.0925 26090.6 -03415.7 -07.4585 26313.2
 05 03 2013  13 58  -21.0922 26090.9 -03415.8 -07.4586 26313.5
 05 03 2013  13 59  -21.0919 26090.8 -03415.7 -07.4585 26313.4
 05 03 2013  14 00  -21.0912 26091.2 -03415.8 -07.4586 26313.9
 05 03 2013  14 01  -21.0908 26091.2 -03415.8 -07.4585 26313.8
 05 03 2013  14 02  -21.0901 26091.9 -03416.0 -07.4588 26314.6
 05 03 2013  14 03  -21.0899 26092.2 -03416.0 -07.4587 26314.8
 05 03 2013  14 04  -21.0892 26092.1 -03415.8 -07.4584 26314.7
 05 03 2013  14 05  -21.0891 26092.6 -03416.0 -07.4585 26315.2
 05 03 2013  14 06  -21.0891 26092.7 -03415.9 -07.4584 26315.3
 05 03 2013  14 07  -21.0888 26092.6 -03415.7 -07.4580 26315.2
 05 03 2013  14 08  -21.0886 26092.9 -03415.8 -07.4582 26315.6
 05 03 2013  14 09  -21.0883 26092.6 -03415.6 -07.4577 26315.2
 05 03 2013  14 10  -21.0883 26093.0 -03415.7 -07.4579 26315.6
 05 03 2013  14 11  -21.0880 26093.1 -03415.7 -07.4579 26315.7
 05 03 2013  14 12  -21.0877 26093.4 -03415.8 -07.4579 26316.0
 05 03 2013  14 13  -21.0873 26093.4 -03415.7 -07.4578 26316.0
 05 03 2013  14 14  -21.0868 26093.3 -03415.6 -07.4576 26315.9
 05 03 2013  14 15  -21.0864 26093.3 -03415.6 -07.4575 26315.9
 05 03 2013  14 16  -21.0861 26093.1 -03415.5 -07.4573 26315.7
 05 03 2013  14 17  -21.0857 26093.2 -03415.5 -07.4573 26315.8
 05 03 2013  14 18  -21.0857 26093.2 -03415.4 -07.4573 26315.8
 05 03 2013  14 19  -21.0855 26093.0 -03415.3 -07.4571 26315.6
 05 03 2013  14 20  -21.0851 26092.7 -03415.3 -07.4570 26315.3
 05 03 2013  14 21  -21.0847 26092.6 -03415.2 -07.4569 26315.2
 05 03 2013  14 22  -21.0844 26092.7 -03415.3 -07.4572 26315.3
 05 03 2013  14 23  -21.0842 26092.7 -03415.3 -07.4571 26315.3
 05 03 2013  14 24  -21.0838 26093.2 -03415.5 -07.4575 26315.8
 05 03 2013  14 25  -21.0832 26092.8 -03415.3 -07.4571 26315.4
 05 03 2013  14 26  -21.0829 26093.1 -03415.4 -07.4573 26315.6
 05 03 2013  14 27  -21.0827 26093.0 -03415.3 -07.4571 26315.5
 05 03 2013  14 28  -21.0825 26093.0 -03415.3 -07.4571 26315.6
 05 03 2013  14 29  -21.0821 26093.2 -03415.4 -07.4571 26315.8
 05 03 2013  14 30  -21.0815 26093.5 -03415.4 -07.4571 26316.0
 05 03 2013  14 31  -21.0812 26093.6 -03415.4 -07.4571 26316.2
 05 03 2013  14 32  -21.0806 26093.6 -03415.3 -07.4569 26316.1
 05 03 2013  14 33  -21.0799 26093.5 -03415.2 -07.4567 26316.1
 05 03 2013  14 34  -21.0794 26093.3 -03415.1 -07.4564 26315.8
 05 03 2013  14 35  -21.0785 26093.1 -03415.0 -07.4563 26315.6
 05 03 2013  14 36  -21.0779 26093.4 -03415.1 -07.4564 26316.0
 05 03 2013  14 37  -21.0775 26093.4 -03415.0 -07.4563 26315.9
 05 03 2013  14 38  -21.0770 26093.5 -03415.0 -07.4563 26316.0
 05 03 2013  14 39  -21.0765 26093.6 -03415.0 -07.4563 26316.1
 05 03 2013  14 40  -21.0761 26093.7 -03415.1 -07.4563 26316.2
 05 03 2013  14 41  -21.0756 26093.7 -03415.0 -07.4562 26316.3
 05 03 2013  14 42  -21.0754 26093.8 -03415.0 -07.4561 26316.3
 05 03 2013  14 43  -21.0749 26093.7 -03414.9 -07.4560 26316.2
 05 03 2013  14 44  -21.0747 26093.8 -03414.9 -07.4559 26316.4
 05 03 2013  14 45  -21.0744 26094.0 -03414.9 -07.4559 26316.5
 05 03 2013  14 46  -21.0739 26094.1 -03414.9 -07.4558 26316.6
 05 03 2013  14 47  -21.0735 26093.9 -03414.7 -07.4555 26316.4
 05 03 2013  14 48  -21.0729 26093.5 -03414.5 -07.4551 26316.0
 05 03 2013  14 49  -21.0727 26093.5 -03414.5 -07.4552 26315.9
 05 03 2013  14 50  -21.0726 26093.4 -03414.5 -07.4551 26315.8
 05 03 2013  14 51  -21.0725 26093.1 -03414.4 -07.4550 26315.5
 05 03 2013  14 52  -21.0722 26092.9 -03414.3 -07.4548 26315.3
 05 03 2013  14 53  -21.0721 26092.9 -03414.3 -07.4549 26315.3
 05 03 2013  14 54  -21.0720 26092.7 -03414.2 -07.4548 26315.1
 05 03 2013  14 55  -21.0719 26092.7 -03414.3 -07.4549 26315.1
 05 03 2013  14 56  -21.0718 26092.4 -03414.2 -07.4547 26314.9
 05 03 2013  14 57  -21.0717 26092.4 -03414.2 -07.4547 26314.8
 05 03 2013  14 58  -21.0718 26092.3 -03414.1 -07.4547 26314.7
 05 03 2013  14 59  -21.0718 26092.2 -03414.1 -07.4547 26314.6
 05 03 2013  15 00  -21.0720 26092.2 -03414.1 -07.4547 26314.6
 05 03 2013  15 01  -21.0722 26092.4 -03414.2 -07.4548 26314.9
 05 03 2013  15 02  -21.0723 26091.9 -03414.0 -07.4545 26314.3
 05 03 2013  15 03  -21.0724 26091.9 -03414.0 -07.4544 26314.3
 05 03 2013  15 04  -21.0725 26092.2 -03414.1 -07.4546 26314.6
 05 03 2013  15 05  -21.0728 26091.7 -03413.9 -07.4543 26314.1
 05 03 2013  15 06  -21.0728 26091.5 -03413.7 -07.4540 26313.9
 05 03 2013  15 07  -21.0736 26091.3 -03413.7 -07.4540 26313.7
 05 03 2013  15 08  -21.0740 26092.1 -03413.9 -07.4542 26314.5
 05 03 2013  15 09  -21.0748 26092.2 -03413.8 -07.4540 26314.6
 05 03 2013  15 10  -21.0754 26092.6 -03413.8 -07.4538 26314.9
 05 03 2013  15 11  -21.0759 26092.4 -03413.6 -07.4534 26314.7
 05 03 2013  15 12  -21.0757 26092.3 -03413.3 -07.4529 26314.6
 05 03 2013  15 13  -21.0760 26092.3 -03413.2 -07.4527 26314.6
 05 03 2013  15 14  -21.0764 26092.5 -03413.2 -07.4527 26314.8
 05 03 2013  15 15  -21.0766 26092.5 -03413.1 -07.4523 26314.8
 05 03 2013  15 16  -21.0768 26092.9 -03413.1 -07.4524 26315.1
 05 03 2013  15 17  -21.0771 26092.6 -03412.9 -07.4519 26314.9
 05 03 2013  15 18  -21.0772 26092.5 -03412.7 -07.4516 26314.8
 05 03 2013  15 19  -21.0776 26092.4 -03412.6 -07.4513 26314.6
 05 03 2013  15 20  -21.0779 26092.2 -03412.4 -07.4511 26314.4
 05 03 2013  15 21  -21.0779 26092.0 -03412.3 -07.4508 26314.2
 05 03 2013  15 22  -21.0786 26091.8 -03412.2 -07.4507 26314.0
 05 03 2013  15 23  -21.0788 26091.7 -03412.1 -07.4505 26313.8
 05 03 2013  15 24  -21.0788 26091.0 -03411.9 -07.4502 26313.1
 05 03 2013  15 25  -21.0794 26090.9 -03412.0 -07.4504 26313.1
 05 03 2013  15 26  -21.0804 26091.4 -03412.2 -07.4508 26313.6
 05 03 2013  15 27  -21.0809 26091.4 -03412.2 -07.4508 26313.5
 05 03 2013  15 28  -21.0815 26091.0 -03412.0 -07.4505 26313.1
 05 03 2013  15 29  -21.0816 26090.6 -03411.8 -07.4501 26312.7
 05 03 2013  15 30  -21.0820 26090.6 -03411.8 -07.4502 26312.8
 05 03 2013  15 31  -21.0827 26090.3 -03411.7 -07.4501 26312.5
 05 03 2013  15 32  -21.0828 26090.1 -03411.6 -07.4498 26312.2
 05 03 2013  15 33  -21.0832 26089.8 -03411.4 -07.4496 26311.9
 05 03 2013  15 34  -21.0833 26089.6 -03411.3 -07.4494 26311.7
 05 03 2013  15 35  -21.0839 26089.4 -03411.3 -07.4494 26311.5
 05 03 2013  15 36  -21.0842 26089.4 -03411.3 -07.4494 26311.5
 05 03 2013  15 37  -21.0847 26089.4 -03411.4 -07.4496 26311.5
 05 03 2013  15 38  -21.0847 26089.2 -03411.3 -07.4494 26311.3
 05 03 2013  15 39  -21.0846 26088.9 -03411.1 -07.4491 26310.9
 05 03 2013  15 40  -21.0849 26088.5 -03411.0 -07.4490 26310.5
 05 03 2013  15 41  -21.0853 26088.4 -03411.0 -07.4491 26310.4
 05 03 2013  15 42  -21.0857 26088.1 -03411.0 -07.4491 26310.1
 05 03 2013  15 43  -21.0861 26087.6 -03410.9 -07.4490 26309.6
 05 03 2013  15 44  -21.0866 26087.2 -03410.8 -07.4489 26309.3
 05 03 2013  15 45  -21.0871 26086.8 -03410.8 -07.4490 26308.8
 05 03 2013  15 46  -21.0876 26086.5 -03410.8 -07.4491 26308.6
 05 03 2013  15 47  -21.0881 26086.1 -03410.7 -07.4491 26308.1
 05 03 2013  15 48  -21.0888 26085.7 -03410.8 -07.4493 26307.8
 05 03 2013  15 49  -21.0896 26085.5 -03410.8 -07.4495 26307.6
 05 03 2013  15 50  -21.0904 26085.1 -03410.8 -07.4496 26307.2
 05 03 2013  15 51  -21.0905 26084.8 -03410.7 -07.4495 26306.9
 05 03 2013  15 52  -21.0905 26084.8 -03410.8 -07.4495 26306.8
 05 03 2013  15 53  -21.0904 26084.6 -03410.7 -07.4495 26306.6
 05 03 2013  15 54  -21.0904 26084.3 -03410.7 -07.4495 26306.3
 05 03 2013  15 55  -21.0904 26084.3 -03410.7 -07.4496 26306.3
 05 03 2013  15 56  -21.0906 26084.1 -03410.7 -07.4496 26306.2
 05 03 2013  15 57  -21.0911 26083.8 -03410.7 -07.4496 26305.9
 05 03 2013  15 58  -21.0911 26083.5 -03410.6 -07.4494 26305.5
 05 03 2013  15 59  -21.0914 26083.2 -03410.5 -07.4494 26305.2
 05 03 2013  16 00  -21.0915 26083.1 -03410.5 -07.4494 26305.2
 05 03 2013  16 01  -21.0911 26083.2 -03410.4 -07.4492 26305.2
 05 03 2013  16 02  -21.0911 26083.0 -03410.2 -07.4488 26304.9
 05 03 2013  16 03  -21.0908 26082.4 -03409.9 -07.4483 26304.4
 05 03 2013  16 04  -21.0908 26082.0 -03409.7 -07.4481 26303.9
 05 03 2013  16 05  -21.0913 26081.7 -03409.6 -07.4480 26303.7
 05 03 2013  16 06  -21.0919 26081.7 -03409.7 -07.4481 26303.7
 05 03 2013  16 07  -21.0921 26081.8 -03409.7 -07.4481 26303.7
 05 03 2013  16 08  -21.0923 26081.7 -03409.6 -07.4479 26303.7
 05 03 2013  16 09  -21.0923 26081.6 -03409.5 -07.4477 26303.5
 05 03 2013  16 10  -21.0925 26081.5 -03409.4 -07.4475 26303.4
 05 03 2013  16 11  -21.0926 26081.4 -03409.3 -07.4473 26303.3
 05 03 2013  16 12  -21.0926 26081.4 -03409.2 -07.4471 26303.2
 05 03 2013  16 13  -21.0927 26081.3 -03409.1 -07.4469 26303.1
 05 03 2013  16 14  -21.0928 26081.3 -03409.0 -07.4468 26303.1
 05 03 2013  16 15  -21.0926 26081.1 -03408.9 -07.4465 26303.0
 05 03 2013  16 16  -21.0926 26081.1 -03408.8 -07.4464 26302.9
 05 03 2013  16 17  -21.0924 26080.9 -03408.7 -07.4462 26302.8
 05 03 2013  16 18  -21.0923 26080.8 -03408.6 -07.4460 26302.6
 05 03 2013  16 19  -21.0921 26080.7 -03408.5 -07.4459 26302.5
 05 03 2013  16 20  -21.0924 26080.5 -03408.4 -07.4456 26302.3
 05 03 2013  16 21  -21.0923 26080.0 -03408.2 -07.4453 26301.8
 05 03 2013  16 22  -21.0922 26079.5 -03408.0 -07.4450 26301.2
 05 03 2013  16 23  -21.0922 26079.2 -03407.9 -07.4450 26301.0
 05 03 2013  16 24  -21.0923 26079.1 -03408.0 -07.4451 26300.9
 05 03 2013  16 25  -21.0927 26079.1 -03408.0 -07.4451 26300.9
 05 03 2013  16 26  -21.0928 26079.1 -03408.0 -07.4452 26300.9
 05 03 2013  16 27  -21.0929 26078.9 -03407.9 -07.4449 26300.6
 05 03 2013  16 28  -21.0927 26078.6 -03407.7 -07.4447 26300.4
 05 03 2013  16 29  -21.0925 26078.5 -03407.7 -07.4446 26300.2
 05 03 2013  16 30  -21.0924 26078.2 -03407.6 -07.4445 26299.9
 05 03 2013  16 31  -21.0923 26078.0 -03407.5 -07.4445 26299.7
 05 03 2013  16 32  -21.0924 26077.8 -03407.5 -07.4444 26299.5
 05 03 2013  16 33  -21.0923 26077.6 -03407.4 -07.4444 26299.3
 05 03 2013  16 34  -21.0925 26077.6 -03407.5 -07.4445 26299.3
 05 03 2013  16 35  -21.0923 26077.6 -03407.5 -07.4445 26299.3
 05 03 2013  16 36  -21.0921 26077.4 -03407.5 -07.4445 26299.1
 05 03 2013  16 37  -21.0921 26077.2 -03407.4 -07.4443 26298.9
 05 03 2013  16 38  -21.0920 26077.1 -03407.4 -07.4443 26298.8
 05 03 2013  16 39  -21.0924 26076.8 -03407.2 -07.4442 26298.5
 05 03 2013  16 40  -21.0922 26076.5 -03407.1 -07.4439 26298.1
 05 03 2013  16 41  -21.0924 26076.2 -03406.9 -07.4437 26297.8
 05 03 2013  16 42  -21.0925 26075.8 -03406.8 -07.4435 26297.4
 05 03 2013  16 43  -21.0922 26075.4 -03406.7 -07.4433 26297.0
 05 03 2013  16 44  -21.0920 26075.2 -03406.6 -07.4432 26296.8
 05 03 2013  16 45  -21.0919 26075.1 -03406.6 -07.4433 26296.7
 05 03 2013  16 46  -21.0922 26075.0 -03406.6 -07.4433 26296.6
 05 03 2013  16 47  -21.0922 26075.0 -03406.6 -07.4432 26296.6
 05 03 2013  16 48  -21.0923 26075.1 -03406.5 -07.4431 26296.7
 05 03 2013  16 49  -21.0919 26074.7 -03406.2 -07.4426 26296.3
 05 03 2013  16 50  -21.0917 26074.5 -03406.1 -07.4423 26296.0
 05 03 2013  16 51  -21.0917 26074.4 -03406.0 -07.4422 26295.9
 05 03 2013  16 52  -21.0915 26074.2 -03405.9 -07.4421 26295.7
 05 03 2013  16 53  -21.0915 26074.1 -03405.9 -07.4420 26295.6
 05 03 2013  16 54  -21.0914 26074.1 -03405.9 -07.4420 26295.6
 05 03 2013  16 55  -21.0919 26074.3 -03405.9 -07.4421 26295.8
 05 03 2013  16 56  -21.0920 26074.3 -03405.9 -07.4420 26295.8
 05 03 2013  16 57  -21.0920 26074.1 -03405.7 -07.4417 26295.6
 05 03 2013  16 58  -21.0917 26073.8 -03405.5 -07.4412 26295.2
 05 03 2013  16 59  -21.0916 26073.5 -03405.3 -07.4408 26294.9
 05 03 2013  17 00  -21.0910 26073.0 -03405.1 -07.4406 26294.4
 05 03 2013  17 01  -21.0908 26072.7 -03405.0 -07.4405 26294.1
 05 03 2013  17 02  -21.0909 26072.5 -03405.0 -07.4405 26293.9
 05 03 2013  17 03  -21.0905 26072.2 -03404.9 -07.4404 26293.6
 05 03 2013  17 04  -21.0903 26071.8 -03404.8 -07.4403 26293.2
 05 03 2013  17 05  -21.0901 26071.5 -03404.7 -07.4403 26292.9
 05 03 2013  17 06  -21.0903 26071.2 -03404.7 -07.4403 26292.6
 05 03 2013  17 07  -21.0901 26070.8 -03404.6 -07.4402 26292.2
 05 03 2013  17 08  -21.0897 26070.3 -03404.4 -07.4399 26291.7
 05 03 2013  17 09  -21.0895 26069.9 -03404.4 -07.4400 26291.3
 05 03 2013  17 10  -21.0893 26069.6 -03404.4 -07.4401 26290.9
 05 03 2013  17 11  -21.0893 26069.5 -03404.5 -07.4403 26290.8
 05 03 2013  17 12  -21.0894 26069.2 -03404.5 -07.4403 26290.5
 05 03 2013  17 13  -21.0894 26069.1 -03404.5 -07.4405 26290.5
 05 03 2013  17 14  -21.0896 26069.1 -03404.5 -07.4405 26290.5
 05 03 2013  17 15  -21.0896 26069.0 -03404.5 -07.4404 26290.3
 05 03 2013  17 16  -21.0897 26068.6 -03404.3 -07.4401 26290.0
 05 03 2013  17 17  -21.0895 26068.6 -03404.3 -07.4401 26290.0
 05 03 2013  17 18  -21.0894 26068.6 -03404.2 -07.4400 26289.9
 05 03 2013  17 19  -21.0895 26068.4 -03404.1 -07.4398 26289.7
 05 03 2013  17 20  -21.0891 26068.3 -03404.0 -07.4395 26289.6
 05 03 2013  17 21  -21.0890 26068.2 -03403.9 -07.4394 26289.5
 05 03 2013  17 22  -21.0889 26068.2 -03403.9 -07.4393 26289.5
 05 03 2013  17 23  -21.0888 26068.2 -03403.8 -07.4392 26289.4
 05 03 2013  17 24  -21.0885 26068.1 -03403.7 -07.4389 26289.3
 05 03 2013  17 25  -21.0883 26067.8 -03403.5 -07.4386 26289.0
 05 03 2013  17 26  -21.0880 26067.6 -03403.4 -07.4384 26288.9
 05 03 2013  17 27  -21.0875 26067.4 -03403.2 -07.4381 26288.6
 05 03 2013  17 28  -21.0869 26067.2 -03403.1 -07.4379 26288.4
 05 03 2013  17 29  -21.0865 26066.6 -03402.8 -07.4375 26287.8
 05 03 2013  17 30  -21.0860 26066.4 -03402.8 -07.4375 26287.5
 05 03 2013  17 31  -21.0855 26066.1 -03402.7 -07.4374 26287.3
 05 03 2013  17 32  -21.0849 26066.0 -03402.7 -07.4374 26287.1
 05 03 2013  17 33  -21.0842 26065.7 -03402.6 -07.4373 26286.8
 05 03 2013  17 34  -21.0838 26065.8 -03402.7 -07.4376 26286.9
 05 03 2013  17 35  -21.0833 26065.6 -03402.7 -07.4375 26286.7
 05 03 2013  17 36  -21.0828 26065.5 -03402.7 -07.4375 26286.7
 05 03 2013  17 37  -21.0823 26065.4 -03402.6 -07.4374 26286.6
 05 03 2013  17 38  -21.0818 26065.3 -03402.6 -07.4375 26286.4
 05 03 2013  17 39  -21.0813 26065.2 -03402.6 -07.4374 26286.3
 05 03 2013  17 40  -21.0808 26065.1 -03402.6 -07.4374 26286.3
 05 03 2013  17 41  -21.0803 26065.1 -03402.6 -07.4374 26286.2
 05 03 2013  17 42  -21.0795 26064.9 -03402.6 -07.4374 26286.0
 05 03 2013  17 43  -21.0790 26064.9 -03402.6 -07.4375 26286.0
 05 03 2013  17 44  -21.0782 26064.8 -03402.6 -07.4374 26286.0
 05 03 2013  17 45  -21.0775 26064.7 -03402.5 -07.4375 26285.9
 05 03 2013  17 46  -21.0769 26064.5 -03402.5 -07.4374 26285.7
 05 03 2013  17 47  -21.0763 26064.5 -03402.5 -07.4375 26285.6
 05 03 2013  17 48  -21.0756 26064.3 -03402.5 -07.4375 26285.5
 05 03 2013  17 49  -21.0749 26064.1 -03402.5 -07.4374 26285.3
 05 03 2013  17 50  -21.0743 26064.0 -03402.5 -07.4375 26285.2
 05 03 2013  17 51  -21.0738 26064.0 -03402.5 -07.4376 26285.1
 05 03 2013  17 52  -21.0734 26063.9 -03402.6 -07.4377 26285.1
 05 03 2013  17 53  -21.0729 26063.7 -03402.5 -07.4376 26284.8
 05 03 2013  17 54  -21.0724 26063.7 -03402.6 -07.4378 26284.9
 05 03 2013  17 55  -21.0718 26063.7 -03402.6 -07.4378 26284.9
 05 03 2013  17 56  -21.0712 26063.7 -03402.6 -07.4379 26284.8
 05 03 2013  17 57  -21.0705 26063.7 -03402.7 -07.4380 26284.9
 05 03 2013  17 58  -21.0702 26063.6 -03402.7 -07.4382 26284.8
 05 03 2013  17 59  -21.0698 26063.5 -03402.7 -07.4382 26284.7
 05 03 2013  18 00  -21.0693 26063.6 -03402.8 -07.4383 26284.8
 05 03 2013  18 01  -21.0690 26063.9 -03402.9 -07.4385 26285.1
 05 03 2013  18 02  -21.0686 26064.0 -03402.9 -07.4385 26285.2
 05 03 2013  18 03  -21.0681 26064.1 -03402.9 -07.4385 26285.3
 05 03 2013  18 04  -21.0676 26064.2 -03402.9 -07.4385 26285.4
 05 03 2013  18 05  -21.0671 26064.4 -03403.0 -07.4385 26285.6
 05 03 2013  18 06  -21.0668 26064.5 -03403.0 -07.4385 26285.7
 05 03 2013  18 07  -21.0666 26064.6 -03403.0 -07.4385 26285.8
 05 03 2013  18 08  -21.0664 26064.7 -03403.0 -07.4385 26285.9
 05 03 2013  18 09  -21.0664 26064.9 -03403.1 -07.4386 26286.1
 05 03 2013  18 10  -21.0665 26064.9 -03403.0 -07.4384 26286.1
 05 03 2013  18 11  -21.0665 26064.7 -03402.9 -07.4382 26285.9
 05 03 2013  18 12  -21.0662 26064.5 -03402.7 -07.4378 26285.6
 05 03 2013  18 13  -21.0660 26064.2 -03402.5 -07.4375 26285.3
 05 03 2013  18 14  -21.0656 26063.9 -03402.4 -07.4373 26285.0
 05 03 2013  18 15  -21.0657 26063.6 -03402.3 -07.4372 26284.7
 05 03 2013  18 16  -21.0656 26063.4 -03402.2 -07.4371 26284.5
 05 03 2013  18 17  -21.0651 26063.5 -03402.2 -07.4371 26284.6
 05 03 2013  18 18  -21.0647 26063.6 -03402.3 -07.4372 26284.7
 05 03 2013  18 19  -21.0640 26063.5 -03402.3 -07.4372 26284.6
 05 03 2013  18 20  -21.0637 26063.6 -03402.3 -07.4373 26284.8
 05 03 2013  18 21  -21.0635 26063.7 -03402.4 -07.4374 26284.9
 05 03 2013  18 22  -21.0633 26063.7 -03402.3 -07.4373 26284.8
 05 03 2013  18 23  -21.0631 26063.5 -03402.2 -07.4370 26284.6
 05 03 2013  18 24  -21.0629 26063.3 -03402.1 -07.4368 26284.4
 05 03 2013  18 25  -21.0628 26063.3 -03402.0 -07.4367 26284.4
 05 03 2013  18 26  -21.0628 26063.3 -03402.0 -07.4367 26284.3
 05 03 2013  18 27  -21.0626 26063.0 -03401.9 -07.4364 26284.1
 05 03 2013  18 28  -21.0624 26062.5 -03401.7 -07.4361 26283.6
 05 03 2013  18 29  -21.0622 26062.3 -03401.6 -07.4360 26283.3
 05 03 2013  18 30  -21.0621 26061.8 -03401.4 -07.4358 26282.9
 05 03 2013  18 31  -21.0619 26061.6 -03401.4 -07.4358 26282.7
 05 03 2013  18 32  -21.0617 26061.3 -03401.3 -07.4357 26282.3
 05 03 2013  18 33  -21.0614 26061.3 -03401.3 -07.4358 26282.3
 05 03 2013  18 34  -21.0613 26061.2 -03401.4 -07.4358 26282.3
 05 03 2013  18 35  -21.0609 26061.1 -03401.3 -07.4358 26282.1
 05 03 2013  18 36  -21.0606 26061.1 -03401.3 -07.4358 26282.1
 05 03 2013  18 37  -21.0602 26060.9 -03401.2 -07.4357 26281.9
 05 03 2013  18 38  -21.0599 26060.8 -03401.2 -07.4357 26281.8
 05 03 2013  18 39  -21.0596 26060.5 -03401.2 -07.4356 26281.6
 05 03 2013  18 40  -21.0594 26060.6 -03401.2 -07.4358 26281.7
 05 03 2013  18 41  -21.0592 26060.6 -03401.2 -07.4357 26281.6
 05 03 2013  18 42  -21.0593 26060.7 -03401.3 -07.4359 26281.7
 05 03 2013  18 43  -21.0592 26060.7 -03401.3 -07.4359 26281.7
 05 03 2013  18 44  -21.0592 26060.6 -03401.2 -07.4357 26281.6
 05 03 2013  18 45  -21.0590 26060.5 -03401.1 -07.4356 26281.5
 05 03 2013  18 46  -21.0590 26060.5 -03401.1 -07.4355 26281.5
 05 03 2013  18 47  -21.0586 26060.3 -03400.9 -07.4352 26281.2
 05 03 2013  18 48  -21.0584 26060.1 -03400.9 -07.4352 26281.1
 05 03 2013  18 49  -21.0580 26059.8 -03400.7 -07.4349 26280.7
 05 03 2013  18 50  -21.0577 26059.6 -03400.6 -07.4348 26280.5
 05 03 2013  18 51  -21.0575 26059.4 -03400.5 -07.4346 26280.3
 05 03 2013  18 52  -21.0571 26059.3 -03400.5 -07.4346 26280.2
 05 03 2013  18 53  -21.0568 26059.2 -03400.5 -07.4345 26280.1
 05 03 2013  18 54  -21.0566 26058.9 -03400.4 -07.4344 26279.8
 05 03 2013  18 55  -21.0561 26058.9 -03400.4 -07.4344 26279.9
 05 03 2013  18 56  -21.0556 26059.0 -03400.5 -07.4346 26279.9
 05 03 2013  18 57  -21.0554 26058.5 -03400.3 -07.4343 26279.4
 05 03 2013  18 58  -21.0550 26058.9 -03400.5 -07.4346 26279.9
 05 03 2013  18 59  -21.0545 26058.9 -03400.6 -07.4348 26279.9
 05 03 2013  19 00  -21.0541 26059.4 -03400.8 -07.4352 26280.3
 05 03 2013  19 01  -21.0539 26058.7 -03400.5 -07.4348 26279.6
 05 03 2013  19 02  -21.0540 26059.0 -03400.6 -07.4349 26279.9
 05 03 2013  19 03  -21.0539 26059.3 -03400.8 -07.4352 26280.3
 05 03 2013  19 04  -21.0536 26059.4 -03400.9 -07.4353 26280.4
 05 03 2013  19 05  -21.0534 26059.0 -03400.6 -07.4349 26280.0
 05 03 2013  19 06  -21.0534 26059.0 -03400.6 -07.4347 26280.0
 05 03 2013  19 07  -21.0533 26059.1 -03400.5 -07.4346 26280.0
 05 03 2013  19 08  -21.0529 26059.0 -03400.4 -07.4345 26279.9
 05 03 2013  19 09  -21.0526 26058.7 -03400.2 -07.4342 26279.6
 05 03 2013  19 10  -21.0522 26058.4 -03400.1 -07.4339 26279.3
 05 03 2013  19 11  -21.0517 26058.3 -03400.0 -07.4337 26279.2
 05 03 2013  19 12  -21.0513 26058.3 -03399.9 -07.4336 26279.2
 05 03 2013  19 13  -21.0504 26058.0 -03399.9 -07.4335 26278.9
 05 03 2013  19 14  -21.0495 26057.7 -03399.8 -07.4334 26278.6
 05 03 2013  19 15  -21.0487 26057.4 -03399.7 -07.4333 26278.2
 05 03 2013  19 16  -21.0481 26057.2 -03399.7 -07.4333 26278.0
 05 03 2013  19 17  -21.0474 26057.2 -03399.7 -07.4334 26278.0
 05 03 2013  19 18  -21.0466 26056.9 -03399.7 -07.4334 26277.7
 05 03 2013  19 19  -21.0457 26056.5 -03399.7 -07.4335 26277.4
 05 03 2013  19 20  -21.0447 26056.5 -03399.8 -07.4338 26277.4
 05 03 2013  19 21  -21.0443 26055.8 -03399.6 -07.4336 26276.7
 05 03 2013  19 22  -21.0440 26056.0 -03399.8 -07.4339 26276.8
 05 03 2013  19 23  -21.0434 26056.0 -03399.9 -07.4343 26276.9
 05 03 2013  19 24  -21.0426 26055.9 -03400.0 -07.4345 26276.8
 05 03 2013  19 25  -21.0422 26055.8 -03400.1 -07.4347 26276.7
 05 03 2013  19 26  -21.0417 26055.9 -03400.2 -07.4349 26276.8
 05 03 2013  19 27  -21.0412 26055.7 -03400.3 -07.4351 26276.7
 05 03 2013  19 28  -21.0407 26055.7 -03400.3 -07.4352 26276.6
 05 03 2013  19 29  -21.0400 26055.6 -03400.4 -07.4353 26276.5
 05 03 2013  19 30  -21.0393 26055.4 -03400.3 -07.4353 26276.3
 05 03 2013  19 31  -21.0394 26055.2 -03400.2 -07.4351 26276.1
 05 03 2013  19 32  -21.0418 26054.5 -03400.0 -07.4348 26275.4
 05 03 2013  19 33  -21.0410 26054.3 -03400.0 -07.4349 26275.2
 05 03 2013  19 34  -21.0402 26054.0 -03400.0 -07.4350 26274.9
 05 03 2013  19 35  -21.0391 26053.9 -03400.1 -07.4351 26274.8
 05 03 2013  19 36  -21.0378 26053.8 -03400.1 -07.4353 26274.7
 05 03 2013  19 37  -21.0369 26053.7 -03400.3 -07.4356 26274.7
 05 03 2013  19 38  -21.0361 26053.5 -03400.4 -07.4359 26274.5
 05 03 2013  19 39  -21.0353 26053.3 -03400.4 -07.4360 26274.3
 05 03 2013  19 40  -21.0313 26053.7 -03400.8 -07.4367 26274.7
 05 03 2013  19 41  -21.0300 26053.7 -03401.0 -07.4373 26274.8
 05 03 2013  19 42  -21.0294 26053.6 -03401.1 -07.4376 26274.6
 05 03 2013  19 43  -21.0287 26053.5 -03401.3 -07.4378 26274.6
 05 03 2013  19 44  -21.0283 26053.4 -03401.3 -07.4380 26274.5
 05 03 2013  19 45  -21.0279 26053.3 -03401.4 -07.4382 26274.4
 05 03 2013  19 46  -21.0273 26053.1 -03401.5 -07.4384 26274.2
 05 03 2013  19 47  -21.0267 26053.0 -03401.6 -07.4388 26274.1
 05 03 2013  19 48  -21.0260 26052.8 -03401.8 -07.4391 26274.0
 05 03 2013  19 49  -21.0253 26052.8 -03401.9 -07.4394 26274.0
 05 03 2013  19 50  -21.0246 26052.8 -03402.1 -07.4398 26274.0
 05 03 2013  19 51  -21.0241 26052.7 -03402.3 -07.4403 26273.9
 05 03 2013  19 52  -21.0237 26052.5 -03402.4 -07.4407 26273.7
 05 03 2013  19 53  -21.0232 26052.4 -03402.5 -07.4409 26273.6
 05 03 2013  19 54  -21.0230 26052.4 -03402.7 -07.4412 26273.7
 05 03 2013  19 55  -21.0224 26052.3 -03402.8 -07.4416 26273.6
 05 03 2013  19 56  -21.0223 26052.2 -03403.0 -07.4420 26273.5
 05 03 2013  19 57  -21.0219 26052.0 -03403.1 -07.4423 26273.4
 05 03 2013  19 58  -21.0219 26051.5 -03403.2 -07.4426 26272.8
 05 03 2013  19 59  -21.0215 26051.2 -03403.3 -07.4428 26272.5
 05 03 2013  20 00  -21.0213 26051.1 -03403.5 -07.4433 26272.5
 05 03 2013  20 01  -21.0210 26051.1 -03403.7 -07.4437 26272.5
 05 03 2013  20 02  -21.0207 26051.1 -03403.9 -07.4442 26272.5
 05 03 2013  20 03  -21.0206 26051.0 -03404.1 -07.4448 26272.4
 05 03 2013  20 04  -21.0203 26051.0 -03404.3 -07.4452 26272.5
 05 03 2013  20 05  -21.0202 26050.9 -03404.4 -07.4454 26272.4
 05 03 2013  20 06  -21.0198 26050.5 -03404.6 -07.4458 26272.1
 05 03 2013  20 07  -21.0195 26050.2 -03404.8 -07.4463 26271.8
 05 03 2013  20 08  -21.0192 26049.9 -03404.9 -07.4468 26271.5
 05 03 2013  20 09  -21.0191 26049.8 -03405.1 -07.4472 26271.4
 05 03 2013  20 10  -21.0188 26049.8 -03405.3 -07.4475 26271.4
 05 03 2013  20 11  -21.0188 26049.4 -03405.4 -07.4480 26271.0
 05 03 2013  20 12  -21.0188 26049.1 -03405.6 -07.4485 26270.7
 05 03 2013  20 13  -21.0186 26049.4 -03405.8 -07.4488 26271.1
 05 03 2013  20 14  -21.0185 26049.3 -03405.9 -07.4491 26271.0
 05 03 2013  20 15  -21.0184 26049.2 -03406.2 -07.4496 26271.0
 05 03 2013  20 16  -21.0183 26048.9 -03406.3 -07.4501 26270.7
 05 03 2013  20 17  -21.0183 26048.9 -03406.5 -07.4505 26270.7
 05 03 2013  20 18  -21.0182 26048.6 -03406.7 -07.4511 26270.4
 05 03 2013  20 19  -21.0182 26048.2 -03406.9 -07.4514 26270.1
 05 03 2013  20 20  -21.0183 26048.3 -03406.9 -07.4516 26270.2
 05 03 2013  20 21  -21.0183 26048.4 -03407.0 -07.4517 26270.3
 05 03 2013  20 22  -21.0184 26048.7 -03407.0 -07.4517 26270.5
 05 03 2013  20 23  -21.0186 26048.3 -03407.1 -07.4519 26270.2
 05 03 2013  20 24  -21.0187 26048.1 -03407.2 -07.4523 26270.0
 05 03 2013  20 25  -21.0189 26047.7 -03407.4 -07.4527 26269.6
 05 03 2013  20 26  -21.0189 26047.7 -03407.6 -07.4531 26269.6
 05 03 2013  20 27  -21.0190 26048.0 -03407.8 -07.4534 26270.0
 05 03 2013  20 28  -21.0190 26048.1 -03407.9 -07.4538 26270.1
 05 03 2013  20 29  -21.0191 26048.2 -03408.1 -07.4541 26270.2
 05 03 2013  20 30  -21.0192 26047.8 -03408.2 -07.4545 26269.8
 05 03 2013  20 31  -21.0193 26047.8 -03408.4 -07.4548 26269.9
 05 03 2013  20 32  -21.0193 26048.0 -03408.5 -07.4551 26270.1
 05 03 2013  20 33  -21.0194 26048.1 -03408.7 -07.4554 26270.2
 05 03 2013  20 34  -21.0195 26048.1 -03408.8 -07.4557 26270.2
 05 03 2013  20 35  -21.0197 26048.2 -03409.0 -07.4560 26270.3
 05 03 2013  20 36  -21.0199 26047.6 -03409.1 -07.4564 26269.8
 05 03 2013  20 37  -21.0200 26047.4 -03409.2 -07.4567 26269.6
 05 03 2013  20 38  -21.0203 26047.3 -03409.3 -07.4570 26269.5
 05 03 2013  20 39  -21.0204 26047.2 -03409.5 -07.4573 26269.4
 05 03 2013  20 40  -21.0207 26047.0 -03409.5 -07.4576 26269.2
 05 03 2013  20 41  -21.0209 26046.5 -03409.6 -07.4579 26268.7
 05 03 2013  20 42  -21.0210 26046.5 -03409.8 -07.4583 26268.7
 05 03 2013  20 43  -21.0211 26046.4 -03409.9 -07.4586 26268.6
 05 03 2013  20 44  -21.0214 26046.9 -03410.1 -07.4588 26269.2
 05 03 2013  20 45  -21.0217 26047.1 -03410.2 -07.4590 26269.4
 05 03 2013  20 46  -21.0219 26047.4 -03410.3 -07.4592 26269.7
 05 03 2013  20 47  -21.0222 26047.7 -03410.5 -07.4594 26270.0
 05 03 2013  20 48  -21.0226 26048.1 -03410.6 -07.4596 26270.4
 05 03 2013  20 49  -21.0229 26048.1 -03410.7 -07.4598 26270.5
 05 03 2013  20 50  -21.0234 26048.0 -03410.8 -07.4601 26270.3
 05 03 2013  20 51  -21.0236 26047.8 -03410.9 -07.4602 26270.2
 05 03 2013  20 52  -21.0239 26047.7 -03411.0 -07.4605 26270.1
 05 03 2013  20 53  -21.0243 26048.1 -03411.1 -07.4607 26270.5
 05 03 2013  20 54  -21.0245 26048.6 -03411.2 -07.4607 26271.0
 05 03 2013  20 55  -21.0249 26048.7 -03411.3 -07.4609 26271.2
 05 03 2013  20 56  -21.0252 26048.7 -03411.4 -07.4611 26271.1
 05 03 2013  20 57  -21.0256 26048.4 -03411.5 -07.4613 26270.9
 05 03 2013  20 58  -21.0259 26048.1 -03411.5 -07.4616 26270.6
 05 03 2013  20 59  -21.0262 26047.8 -03411.6 -07.4617 26270.3
 05 03 2013  21 00  -21.0266 26047.8 -03411.6 -07.4619 26270.2
 05 03 2013  21 01  -21.0268 26047.8 -03411.7 -07.4620 26270.3
 05 03 2013  21 02  -21.0271 26047.8 -03411.8 -07.4622 26270.3
 05 03 2013  21 03  -21.0274 26047.6 -03411.8 -07.4623 26270.1
 05 03 2013  21 04  -21.0276 26047.7 -03411.9 -07.4624 26270.2
 05 03 2013  21 05  -21.0278 26047.9 -03411.9 -07.4625 26270.4
 05 03 2013  21 06  -21.0282 26047.9 -03412.0 -07.4627 26270.4
 05 03 2013  21 07  -21.0284 26047.8 -03412.0 -07.4627 26270.3
 05 03 2013  21 08  -21.0286 26047.9 -03412.0 -07.4627 26270.4
 05 03 2013  21 09  -21.0289 26047.7 -03412.0 -07.4628 26270.2
 05 03 2013  21 10  -21.0291 26047.4 -03412.1 -07.4629 26269.9
 05 03 2013  21 11  -21.0293 26047.4 -03412.1 -07.4631 26269.9
 05 03 2013  21 12  -21.0294 26047.7 -03412.2 -07.4632 26270.3
 05 03 2013  21 13  -21.0296 26047.7 -03412.3 -07.4634 26270.2
 05 03 2013  21 14  -21.0298 26047.4 -03412.2 -07.4632 26270.0
 05 03 2013  21 15  -21.0299 26047.0 -03412.1 -07.4631 26269.5
 05 03 2013  21 16  -21.0301 26046.8 -03412.1 -07.4632 26269.3
 05 03 2013  21 17  -21.0302 26046.4 -03412.1 -07.4632 26269.0
 05 03 2013  21 18  -21.0303 26046.3 -03412.1 -07.4633 26268.8
 05 03 2013  21 19  -21.0305 26046.1 -03412.2 -07.4635 26268.7
 05 03 2013  21 20  -21.0306 26045.9 -03412.2 -07.4636 26268.4
 05 03 2013  21 21  -21.0307 26046.0 -03412.4 -07.4640 26268.6
 05 03 2013  21 22  -21.0309 26046.1 -03412.6 -07.4644 26268.7
 05 03 2013  21 23  -21.0311 26046.0 -03412.7 -07.4648 26268.6
 05 03 2013  21 24  -21.0313 26045.7 -03412.8 -07.4650 26268.4
 05 03 2013  21 25  -21.0314 26045.4 -03412.8 -07.4651 26268.1
 05 03 2013  21 26  -21.0317 26045.1 -03412.9 -07.4653 26267.8
 05 03 2013  21 27  -21.0319 26045.0 -03412.9 -07.4655 26267.7
 05 03 2013  21 28  -21.0321 26045.1 -03413.1 -07.4658 26267.7
 05 03 2013  21 29  -21.0323 26045.0 -03413.1 -07.4658 26267.7
 05 03 2013  21 30  -21.0323 26045.0 -03413.1 -07.4659 26267.7
 05 03 2013  21 31  -21.0324 26044.9 -03413.1 -07.4659 26267.6
 05 03 2013  21 32  -21.0327 26044.9 -03413.2 -07.4660 26267.6
 05 03 2013  21 33  -21.0328 26044.9 -03413.2 -07.4660 26267.6
 05 03 2013  21 34  -21.0330 26045.0 -03413.2 -07.4660 26267.7
 05 03 2013  21 35  -21.0331 26044.8 -03413.2 -07.4660 26267.5
 05 03 2013  21 36  -21.0333 26044.8 -03413.2 -07.4660 26267.4
 05 03 2013  21 37  -21.0334 26044.8 -03413.2 -07.4660 26267.4
 05 03 2013  21 38  -21.0335 26044.8 -03413.2 -07.4662 26267.5
 05 03 2013  21 39  -21.0336 26044.9 -03413.3 -07.4663 26267.6
 05 03 2013  21 40  -21.0337 26045.0 -03413.4 -07.4665 26267.8
 05 03 2013  21 41  -21.0338 26045.2 -03413.6 -07.4669 26268.0
 05 03 2013  21 42  -21.0338 26045.3 -03413.8 -07.4672 26268.1
 05 03 2013  21 43  -21.0340 26045.3 -03413.9 -07.4675 26268.0
 05 03 2013  21 44  -21.0341 26045.0 -03414.0 -07.4677 26267.8
 05 03 2013  21 45  -21.0343 26044.5 -03414.0 -07.4678 26267.3
 05 03 2013  21 46  -21.0344 26044.2 -03413.9 -07.4678 26267.0
 05 03 2013  21 47  -21.0345 26043.8 -03413.8 -07.4677 26266.6
 05 03 2013  21 48  -21.0346 26043.6 -03413.8 -07.4678 26266.4
 05 03 2013  21 49  -21.0347 26043.4 -03413.8 -07.4679 26266.2
 05 03 2013  21 50  -21.0349 26043.2 -03413.9 -07.4681 26266.0
 05 03 2013  21 51  -21.0352 26043.0 -03414.0 -07.4684 26265.9
 05 03 2013  21 52  -21.0355 26042.9 -03414.1 -07.4687 26265.7
 05 03 2013  21 53  -21.0357 26042.8 -03414.2 -07.4689 26265.7
 05 03 2013  21 54  -21.0360 26042.8 -03414.4 -07.4692 26265.7
 05 03 2013  21 55  -21.0363 26043.0 -03414.5 -07.4695 26265.8
 05 03 2013  21 56  -21.0366 26042.9 -03414.6 -07.4697 26265.8
 05 03 2013  21 57  -21.0369 26042.8 -03414.6 -07.4698 26265.7
 05 03 2013  21 58  -21.0372 26042.9 -03414.7 -07.4700 26265.8
 05 03 2013  21 59  -21.0374 26042.8 -03414.8 -07.4702 26265.7
 05 03 2013  22 00  -21.0376 26042.7 -03414.9 -07.4704 26265.6
 05 03 2013  22 01  -21.0378 26042.5 -03414.9 -07.4705 26265.5
 05 03 2013  22 02  -21.0379 26042.4 -03415.0 -07.4707 26265.3
 05 03 2013  22 03  -21.0379 26042.2 -03415.0 -07.4708 26265.2
 05 03 2013  22 04  -21.0381 26042.0 -03415.0 -07.4708 26265.0
 05 03 2013  22 05  -21.0382 26041.9 -03415.0 -07.4709 26264.9
 05 03 2013  22 06  -21.0384 26041.8 -03415.1 -07.4710 26264.8
 05 03 2013  22 07  -21.0385 26041.6 -03415.0 -07.4710 26264.6
 05 03 2013  22 08  -21.0386 26041.5 -03415.0 -07.4710 26264.4
 05 03 2013  22 09  -21.0388 26041.3 -03415.0 -07.4711 26264.3
 05 03 2013  22 10  -21.0390 26041.1 -03415.0 -07.4711 26264.1
 05 03 2013  22 11  -21.0392 26041.0 -03415.0 -07.4712 26263.9
 05 03 2013  22 12  -21.0393 26040.9 -03415.1 -07.4712 26263.9
 05 03 2013  22 13  -21.0395 26040.8 -03415.1 -07.4714 26263.8
 05 03 2013  22 14  -21.0397 26040.7 -03415.1 -07.4714 26263.7
 05 03 2013  22 15  -21.0398 26040.7 -03415.1 -07.4715 26263.6
 05 03 2013  22 16  -21.0400 26040.5 -03415.1 -07.4715 26263.5
 05 03 2013  22 17  -21.0402 26040.5 -03415.2 -07.4716 26263.4
 05 03 2013  22 18  -21.0403 26040.4 -03415.2 -07.4717 26263.4
 05 03 2013  22 19  -21.0405 26040.4 -03415.2 -07.4718 26263.4
 05 03 2013  22 20  -21.0406 26040.4 -03415.3 -07.4719 26263.4
 05 03 2013  22 21  -21.0407 26040.3 -03415.3 -07.4720 26263.3
 05 03 2013  22 22  -21.0409 26040.3 -03415.3 -07.4720 26263.3
 05 03 2013  22 23  -21.0411 26040.1 -03415.3 -07.4721 26263.2
 05 03 2013  22 24  -21.0412 26039.9 -03415.3 -07.4720 26263.0
 05 03 2013  22 25  -21.0413 26039.7 -03415.2 -07.4719 26262.7
 05 03 2013  22 26  -21.0413 26039.4 -03415.1 -07.4718 26262.4
 05 03 2013  22 27  -21.0415 26039.4 -03415.1 -07.4718 26262.4
 05 03 2013  22 28  -21.0416 26039.4 -03415.2 -07.4720 26262.4
 05 03 2013  22 29  -21.0418 26039.2 -03415.2 -07.4720 26262.3
 05 03 2013  22 30  -21.0420 26039.2 -03415.2 -07.4720 26262.2
 05 03 2013  22 31  -21.0421 26039.2 -03415.3 -07.4722 26262.2
 05 03 2013  22 32  -21.0423 26039.0 -03415.3 -07.4723 26262.0
 05 03 2013  22 33  -21.0423 26038.9 -03415.3 -07.4724 26261.9
 05 03 2013  22 34  -21.0423 26038.8 -03415.3 -07.4723 26261.8
 05 03 2013  22 35  -21.0423 26038.7 -03415.3 -07.4724 26261.7
 05 03 2013  22 36  -21.0425 26038.6 -03415.3 -07.4725 26261.7
 05 03 2013  22 37  -21.0426 26038.5 -03415.4 -07.4726 26261.6
 05 03 2013  22 38  -21.0428 26038.5 -03415.4 -07.4728 26261.5
 05 03 2013  22 39  -21.0431 26038.3 -03415.5 -07.4729 26261.4
 05 03 2013  22 40  -21.0433 26038.2 -03415.5 -07.4729 26261.3
 05 03 2013  22 41  -21.0435 26038.2 -03415.6 -07.4731 26261.3
 05 03 2013  22 42  -21.0435 26038.1 -03415.6 -07.4732 26261.2
 05 03 2013  22 43  -21.0436 26038.0 -03415.6 -07.4731 26261.0
 05 03 2013  22 44  -21.0438 26037.9 -03415.6 -07.4732 26260.9
 05 03 2013  22 45  -21.0440 26037.7 -03415.6 -07.4733 26260.8
 05 03 2013  22 46  -21.0441 26037.6 -03415.6 -07.4733 26260.7
 05 03 2013  22 47  -21.0441 26037.5 -03415.6 -07.4733 26260.5
 05 03 2013  22 48  -21.0441 26037.4 -03415.6 -07.4734 26260.5
 05 03 2013  22 49  -21.0442 26037.3 -03415.6 -07.4735 26260.4
 05 03 2013  22 50  -21.0443 26037.3 -03415.6 -07.4735 26260.4
 05 03 2013  22 51  -21.0442 26037.2 -03415.7 -07.4736 26260.3
 05 03 2013  22 52  -21.0442 26037.1 -03415.6 -07.4736 26260.2
 05 03 2013  22 53  -21.0443 26037.0 -03415.7 -07.4736 26260.0
 05 03 2013  22 54  -21.0444 26036.8 -03415.6 -07.4736 26259.8
 05 03 2013  22 55  -21.0444 26036.5 -03415.5 -07.4735 26259.6
 05 03 2013  22 56  -21.0445 26036.3 -03415.5 -07.4734 26259.3
 05 03 2013  22 57  -21.0444 26036.0 -03415.4 -07.4733 26259.1
 05 03 2013  22 58  -21.0445 26035.9 -03415.3 -07.4733 26259.0
 05 03 2013  22 59  -21.0447 26035.7 -03415.3 -07.4733 26258.8
 05 03 2013  23 00  -21.0448 26035.5 -03415.3 -07.4732 26258.6
 05 03 2013  23 01  -21.0449 26035.4 -03415.3 -07.4732 26258.5
 05 03 2013  23 02  -21.0450 26035.2 -03415.3 -07.4733 26258.3
 05 03 2013  23 03  -21.0450 26035.0 -03415.2 -07.4732 26258.1
 05 03 2013  23 04  -21.0450 26034.9 -03415.2 -07.4732 26257.9
 05 03 2013  23 05  -21.0450 26034.8 -03415.2 -07.4733 26257.9
 05 03 2013  23 06  -21.0450 26034.8 -03415.3 -07.4734 26257.8
 05 03 2013  23 07  -21.0448 26034.8 -03415.3 -07.4736 26257.8
 05 03 2013  23 08  -21.0446 26034.7 -03415.4 -07.4737 26257.8
 05 03 2013  23 09  -21.0445 26034.7 -03415.4 -07.4737 26257.8
 05 03 2013  23 10  -21.0446 26034.7 -03415.4 -07.4738 26257.7
 05 03 2013  23 11  -21.0444 26034.5 -03415.4 -07.4738 26257.6
 05 03 2013  23 12  -21.0442 26034.4 -03415.3 -07.4737 26257.4
 05 03 2013  23 13  -21.0441 26034.3 -03415.3 -07.4737 26257.4
 05 03 2013  23 14  -21.0439 26034.1 -03415.3 -07.4736 26257.2
 05 03 2013  23 15  -21.0439 26034.0 -03415.2 -07.4735 26257.0
 05 03 2013  23 16  -21.0436 26033.7 -03415.1 -07.4734 26256.8
 05 03 2013  23 17  -21.0433 26033.6 -03415.1 -07.4734 26256.7
 05 03 2013  23 18  -21.0431 26033.7 -03415.2 -07.4736 26256.7
 05 03 2013  23 19  -21.0432 26033.7 -03415.4 -07.4739 26256.8
 05 03 2013  23 20  -21.0430 26033.7 -03415.4 -07.4740 26256.8
 05 03 2013  23 21  -21.0431 26033.6 -03415.4 -07.4741 26256.7
 05 03 2013  23 22  -21.0434 26033.7 -03415.6 -07.4745 26256.8
 05 03 2013  23 23  -21.0435 26033.7 -03415.7 -07.4746 26256.8
 05 03 2013  23 24  -21.0437 26033.6 -03415.7 -07.4747 26256.7
 05 03 2013  23 25  -21.0437 26033.5 -03415.6 -07.4746 26256.6
 05 03 2013  23 26  -21.0438 26033.4 -03415.6 -07.4745 26256.5
 05 03 2013  23 27  -21.0436 26033.2 -03415.4 -07.4742 26256.3
 05 03 2013  23 28  -21.0435 26033.0 -03415.3 -07.4739 26256.0
 05 03 2013  23 29  -21.0434 26032.7 -03415.2 -07.4738 26255.8
 05 03 2013  23 30  -21.0434 26032.6 -03415.2 -07.4738 26255.7
 05 03 2013  23 31  -21.0437 26032.5 -03415.2 -07.4740 26255.6
 05 03 2013  23 32  -21.0440 26032.2 -03415.2 -07.4739 26255.3
 05 03 2013  23 33  -21.0442 26032.0 -03415.1 -07.4738 26255.0
 05 03 2013  23 34  -21.0441 26031.7 -03414.9 -07.4736 26254.8
 05 03 2013  23 35  -21.0443 26031.6 -03414.9 -07.4735 26254.6
 05 03 2013  23 36  -21.0445 26031.3 -03414.8 -07.4734 26254.3
 05 03 2013  23 37  -21.0447 26031.1 -03414.7 -07.4732 26254.1
 05 03 2013  23 38  -21.0449 26031.0 -03414.7 -07.4732 26254.0
 05 03 2013  23 39  -21.0451 26030.7 -03414.6 -07.4732 26253.7
 05 03 2013  23 40  -21.0452 26030.3 -03414.5 -07.4730 26253.3
 05 03 2013  23 41  -21.0454 26029.9 -03414.3 -07.4728 26252.9
 05 03 2013  23 42  -21.0455 26029.6 -03414.2 -07.4726 26252.6
 05 03 2013  23 43  -21.0452 26029.6 -03414.1 -07.4724 26252.6
 05 03 2013  23 44  -21.0451 26029.9 -03414.3 -07.4727 26252.8
 05 03 2013  23 45  -21.0448 26030.1 -03414.5 -07.4730 26253.1
 05 03 2013  23 46  -21.0446 26030.1 -03414.6 -07.4733 26253.1
 05 03 2013  23 47  -21.0442 26030.1 -03414.6 -07.4734 26253.1
 05 03 2013  23 48  -21.0439 26030.1 -03414.7 -07.4734 26253.1
 05 03 2013  23 49  -21.0440 26030.1 -03414.7 -07.4735 26253.1
 05 03 2013  23 50  -21.0441 26030.0 -03414.7 -07.4735 26253.1
 05 03 2013  23 51  -21.0441 26030.0 -03414.7 -07.4735 26253.0
 05 03 2013  23 52  -21.0438 26029.9 -03414.6 -07.4734 26252.9
 05 03 2013  23 53  -21.0434 26029.7 -03414.5 -07.4732 26252.7
 05 03 2013  23 54  -21.0435 26029.8 -03414.6 -07.4734 26252.9
 05 03 2013  23 55  -21.0436 26029.8 -03414.6 -07.4735 26252.8
 05 03 2013  23 56  -21.0436 26029.7 -03414.6 -07.4734 26252.7
 05 03 2013  23 57  -21.0436 26029.5 -03414.5 -07.4733 26252.5
 05 03 2013  23 58  -21.0435 26029.4 -03414.4 -07.4731 26252.4
