SAO LUIS EMBRACE-03 <339> 1 Min. Reported data

 DD MM YYYY  HH MM   D(Deg)  H(nT)   Z(nT)   I(Deg)   F(nT)

 05 12 2013  00 00  -21.0173 26017.9 -03515.4 -07.6949 26254.3
 05 12 2013  00 01  -21.0172 26017.8 -03515.4 -07.6949 26254.2
 05 12 2013  00 02  -21.0172 26017.9 -03515.4 -07.6950 26254.3
 05 12 2013  00 03  -21.0172 26017.9 -03515.5 -07.6950 26254.3
 05 12 2013  00 04  -21.0171 26017.9 -03515.4 -07.6949 26254.3
 05 12 2013  00 05  -21.0170 26017.9 -03515.4 -07.6949 26254.3
 05 12 2013  00 06  -21.0169 26017.9 -03515.4 -07.6949 26254.3
 05 12 2013  00 07  -21.0168 26017.9 -03515.4 -07.6949 26254.3
 05 12 2013  00 08  -21.0167 26017.9 -03515.4 -07.6949 26254.3
 05 12 2013  00 09  -21.0166 26018.0 -03515.4 -07.6949 26254.4
 05 12 2013  00 10  -21.0166 26018.0 -03515.5 -07.6950 26254.4
 05 12 2013  00 11  -21.0167 26018.0 -03515.4 -07.6950 26254.4
 05 12 2013  00 12  -21.0169 26018.1 -03515.5 -07.6951 26254.5
 05 12 2013  00 13  -21.0170 26018.1 -03515.5 -07.6950 26254.5
 05 12 2013  00 14  -21.0172 26018.1 -03515.5 -07.6950 26254.5
 05 12 2013  00 15  -21.0172 26018.0 -03515.4 -07.6948 26254.4
 05 12 2013  00 16  -21.0172 26017.9 -03515.3 -07.6947 26254.3
 05 12 2013  00 17  -21.0171 26017.8 -03515.3 -07.6946 26254.2
 05 12 2013  00 18  -21.0171 26017.8 -03515.2 -07.6945 26254.2
 05 12 2013  00 19  -21.0171 26017.8 -03515.2 -07.6945 26254.2
 05 12 2013  00 20  -21.0170 26017.7 -03515.1 -07.6944 26254.1
 05 12 2013  00 21  -21.0170 26017.6 -03515.1 -07.6943 26254.0
 05 12 2013  00 22  -21.0172 26017.5 -03515.0 -07.6942 26253.9
 05 12 2013  00 23  -21.0173 26017.4 -03515.0 -07.6941 26253.8
 05 12 2013  00 24  -21.0174 26017.4 -03515.0 -07.6942 26253.8
 05 12 2013  00 25  -21.0175 26017.4 -03515.0 -07.6942 26253.8
 05 12 2013  00 26  -21.0174 26017.4 -03515.0 -07.6941 26253.8
 05 12 2013  00 27  -21.0173 26017.4 -03514.9 -07.6940 26253.8
 05 12 2013  00 28  -21.0173 26017.3 -03514.9 -07.6940 26253.7
 05 12 2013  00 29  -21.0172 26017.3 -03514.9 -07.6939 26253.6
 05 12 2013  00 30  -21.0171 26017.2 -03514.8 -07.6938 26253.5
 05 12 2013  00 31  -21.0171 26017.1 -03514.8 -07.6938 26253.5
 05 12 2013  00 32  -21.0172 26017.1 -03514.8 -07.6938 26253.4
 05 12 2013  00 33  -21.0173 26017.0 -03514.8 -07.6938 26253.3
 05 12 2013  00 34  -21.0173 26016.9 -03514.7 -07.6937 26253.3
 05 12 2013  00 35  -21.0173 26016.9 -03514.7 -07.6937 26253.2
 05 12 2013  00 36  -21.0173 26016.8 -03514.7 -07.6936 26253.1
 05 12 2013  00 37  -21.0173 26016.8 -03514.6 -07.6935 26253.1
 05 12 2013  00 38  -21.0172 26016.8 -03514.6 -07.6936 26253.1
 05 12 2013  00 39  -21.0172 26016.8 -03514.7 -07.6936 26253.1
 05 12 2013  00 40  -21.0171 26016.9 -03514.7 -07.6936 26253.2
 05 12 2013  00 41  -21.0171 26016.9 -03514.7 -07.6937 26253.2
 05 12 2013  00 42  -21.0171 26017.0 -03514.8 -07.6938 26253.3
 05 12 2013  00 43  -21.0171 26017.0 -03514.8 -07.6939 26253.4
 05 12 2013  00 44  -21.0170 26017.1 -03514.9 -07.6940 26253.4
 05 12 2013  00 45  -21.0169 26017.2 -03514.9 -07.6940 26253.5
 05 12 2013  00 46  -21.0167 26017.2 -03514.9 -07.6941 26253.5
 05 12 2013  00 47  -21.0166 26017.2 -03514.9 -07.6941 26253.6
 05 12 2013  00 48  -21.0165 26017.2 -03515.0 -07.6942 26253.6
 05 12 2013  00 49  -21.0164 26017.3 -03515.0 -07.6942 26253.6
 05 12 2013  00 50  -21.0163 26017.2 -03515.0 -07.6942 26253.6
 05 12 2013  00 51  -21.0161 26017.2 -03515.0 -07.6942 26253.6
 05 12 2013  00 52  -21.0160 26017.3 -03515.0 -07.6943 26253.6
 05 12 2013  00 53  -21.0159 26017.3 -03515.0 -07.6943 26253.6
 05 12 2013  00 54  -21.0158 26017.2 -03515.0 -07.6942 26253.6
 05 12 2013  00 55  -21.0158 26017.1 -03515.0 -07.6942 26253.5
 05 12 2013  00 56  -21.0157 26017.1 -03515.0 -07.6942 26253.5
 05 12 2013  00 57  -21.0156 26017.2 -03515.0 -07.6943 26253.6
 05 12 2013  00 58  -21.0155 26017.2 -03515.1 -07.6944 26253.6
 05 12 2013  00 59  -21.0154 26017.3 -03515.1 -07.6944 26253.7
 05 12 2013  01 00  -21.0155 26017.3 -03515.1 -07.6945 26253.7
 05 12 2013  01 01  -21.0156 26017.4 -03515.2 -07.6946 26253.8
 05 12 2013  01 02  -21.0157 26017.4 -03515.2 -07.6946 26253.8
 05 12 2013  01 03  -21.0158 26017.3 -03515.1 -07.6945 26253.7
 05 12 2013  01 04  -21.0159 26017.3 -03515.2 -07.6945 26253.7
 05 12 2013  01 05  -21.0159 26017.2 -03515.1 -07.6944 26253.6
 05 12 2013  01 06  -21.0160 26017.2 -03515.1 -07.6944 26253.6
 05 12 2013  01 07  -21.0161 26017.2 -03515.0 -07.6943 26253.5
 05 12 2013  01 08  -21.0162 26017.1 -03515.0 -07.6943 26253.5
 05 12 2013  01 09  -21.0161 26017.1 -03515.0 -07.6942 26253.5
 05 12 2013  01 10  -21.0161 26017.0 -03515.0 -07.6942 26253.4
 05 12 2013  01 11  -21.0161 26016.9 -03514.9 -07.6941 26253.3
 05 12 2013  01 12  -21.0162 26016.8 -03514.9 -07.6941 26253.2
 05 12 2013  01 13  -21.0163 26016.7 -03514.9 -07.6941 26253.1
 05 12 2013  01 14  -21.0163 26016.7 -03514.8 -07.6940 26253.0
 05 12 2013  01 15  -21.0164 26016.6 -03514.8 -07.6939 26252.9
 05 12 2013  01 16  -21.0165 26016.5 -03514.8 -07.6939 26252.9
 05 12 2013  01 17  -21.0166 26016.5 -03514.8 -07.6939 26252.9
 05 12 2013  01 18  -21.0167 26016.5 -03514.8 -07.6940 26252.9
 05 12 2013  01 19  -21.0167 26016.5 -03514.8 -07.6940 26252.9
 05 12 2013  01 20  -21.0166 26016.5 -03514.8 -07.6940 26252.9
 05 12 2013  01 21  -21.0166 26016.5 -03514.8 -07.6941 26252.9
 05 12 2013  01 22  -21.0166 26016.5 -03514.9 -07.6941 26252.9
 05 12 2013  01 23  -21.0167 26016.5 -03514.9 -07.6942 26252.9
 05 12 2013  01 24  -21.0169 26016.6 -03514.9 -07.6942 26253.0
 05 12 2013  01 25  -21.0171 26016.7 -03515.0 -07.6943 26253.1
 05 12 2013  01 26  -21.0172 26016.7 -03515.0 -07.6943 26253.0
 05 12 2013  01 27  -21.0175 26016.7 -03515.0 -07.6944 26253.1
 05 12 2013  01 28  -21.0177 26016.8 -03515.0 -07.6945 26253.1
 05 12 2013  01 29  -21.0176 26016.9 -03515.1 -07.6945 26253.2
 05 12 2013  01 30  -21.0175 26016.9 -03515.1 -07.6945 26253.3
 05 12 2013  01 31  -21.0173 26017.0 -03515.1 -07.6945 26253.4
 05 12 2013  01 32  -21.0175 26017.0 -03515.1 -07.6946 26253.4
 05 12 2013  01 33  -21.0178 26017.0 -03515.1 -07.6946 26253.4
 05 12 2013  01 34  -21.0182 26017.0 -03515.1 -07.6946 26253.4
 05 12 2013  01 35  -21.0182 26017.0 -03515.1 -07.6944 26253.4
 05 12 2013  01 36  -21.0182 26017.0 -03515.0 -07.6944 26253.3
 05 12 2013  01 37  -21.0182 26017.0 -03515.0 -07.6944 26253.4
 05 12 2013  01 38  -21.0182 26017.1 -03515.1 -07.6944 26253.4
 05 12 2013  01 39  -21.0183 26017.1 -03515.1 -07.6946 26253.5
 05 12 2013  01 40  -21.0185 26017.0 -03515.1 -07.6945 26253.4
 05 12 2013  01 41  -21.0188 26017.0 -03515.1 -07.6945 26253.4
 05 12 2013  01 42  -21.0191 26017.0 -03515.1 -07.6944 26253.4
 05 12 2013  01 43  -21.0194 26017.0 -03515.0 -07.6944 26253.3
 05 12 2013  01 44  -21.0194 26016.9 -03515.0 -07.6943 26253.3
 05 12 2013  01 45  -21.0192 26016.8 -03515.0 -07.6942 26253.2
 05 12 2013  01 46  -21.0190 26016.7 -03514.9 -07.6941 26253.1
 05 12 2013  01 47  -21.0188 26016.7 -03514.8 -07.6940 26253.0
 05 12 2013  01 48  -21.0187 26016.5 -03514.8 -07.6939 26252.9
 05 12 2013  01 49  -21.0187 26016.5 -03514.7 -07.6938 26252.8
 05 12 2013  01 50  -21.0189 26016.4 -03514.7 -07.6938 26252.8
 05 12 2013  01 51  -21.0190 26016.5 -03514.7 -07.6939 26252.8
 05 12 2013  01 52  -21.0190 26016.4 -03514.7 -07.6939 26252.8
 05 12 2013  01 53  -21.0192 26016.4 -03514.8 -07.6940 26252.7
 05 12 2013  01 54  -21.0192 26016.4 -03514.8 -07.6940 26252.8
 05 12 2013  01 55  -21.0193 26016.5 -03514.8 -07.6940 26252.9
 05 12 2013  01 56  -21.0194 26016.5 -03514.8 -07.6941 26252.9
 05 12 2013  01 57  -21.0195 26016.5 -03514.8 -07.6941 26252.8
 05 12 2013  01 58  -21.0196 26016.3 -03514.8 -07.6940 26252.7
 05 12 2013  01 59  -21.0196 26016.3 -03514.7 -07.6939 26252.6
 05 12 2013  02 00  -21.0196 26016.2 -03514.7 -07.6938 26252.6
 05 12 2013  02 01  -21.0198 26016.2 -03514.7 -07.6939 26252.5
 05 12 2013  02 02  -21.0198 26016.2 -03514.7 -07.6939 26252.5
 05 12 2013  02 03  -21.0200 26016.2 -03514.7 -07.6938 26252.5
 05 12 2013  02 04  -21.0201 26016.2 -03514.7 -07.6938 26252.5
 05 12 2013  02 05  -21.0202 26016.2 -03514.7 -07.6938 26252.5
 05 12 2013  02 06  -21.0203 26016.1 -03514.6 -07.6937 26252.4
 05 12 2013  02 07  -21.0203 26016.1 -03514.6 -07.6937 26252.4
 05 12 2013  02 08  -21.0201 26016.1 -03514.6 -07.6937 26252.4
 05 12 2013  02 09  -21.0201 26016.0 -03514.6 -07.6936 26252.3
 05 12 2013  02 10  -21.0201 26015.9 -03514.5 -07.6936 26252.2
 05 12 2013  02 11  -21.0200 26016.0 -03514.5 -07.6936 26252.3
 05 12 2013  02 12  -21.0199 26016.0 -03514.6 -07.6936 26252.3
 05 12 2013  02 13  -21.0200 26016.1 -03514.6 -07.6937 26252.4
 05 12 2013  02 14  -21.0201 26016.1 -03514.6 -07.6937 26252.5
 05 12 2013  02 15  -21.0201 26016.2 -03514.7 -07.6938 26252.6
 05 12 2013  02 16  -21.0202 26016.3 -03514.7 -07.6938 26252.7
 05 12 2013  02 17  -21.0202 26016.4 -03514.7 -07.6938 26252.7
 05 12 2013  02 18  -21.0202 26016.4 -03514.7 -07.6939 26252.8
 05 12 2013  02 19  -21.0203 26016.5 -03514.8 -07.6940 26252.9
 05 12 2013  02 20  -21.0204 26016.6 -03514.8 -07.6940 26252.9
 05 12 2013  02 21  -21.0204 26016.6 -03514.8 -07.6939 26252.9
 05 12 2013  02 22  -21.0203 26016.7 -03514.8 -07.6940 26253.0
 05 12 2013  02 23  -21.0202 26016.7 -03514.8 -07.6940 26253.0
 05 12 2013  02 24  -21.0201 26016.7 -03514.7 -07.6938 26253.0
 05 12 2013  02 25  -21.0201 26016.7 -03514.8 -07.6939 26253.0
 05 12 2013  02 26  -21.0200 26016.6 -03514.7 -07.6938 26252.9
 05 12 2013  02 27  -21.0200 26016.6 -03514.7 -07.6938 26252.9
 05 12 2013  02 28  -21.0200 26016.6 -03514.7 -07.6937 26252.9
 05 12 2013  02 29  -21.0201 26016.5 -03514.6 -07.6936 26252.9
 05 12 2013  02 30  -21.0202 26016.6 -03514.6 -07.6936 26252.9
 05 12 2013  02 31  -21.0201 26016.6 -03514.6 -07.6936 26252.9
 05 12 2013  02 32  -21.0201 26016.6 -03514.6 -07.6936 26252.9
 05 12 2013  02 33  -21.0201 26016.6 -03514.7 -07.6936 26253.0
 05 12 2013  02 34  -21.0201 26016.6 -03514.6 -07.6935 26252.9
 05 12 2013  02 35  -21.0198 26016.6 -03514.6 -07.6935 26252.9
 05 12 2013  02 36  -21.0195 26016.6 -03514.6 -07.6935 26252.9
 05 12 2013  02 37  -21.0193 26016.6 -03514.6 -07.6935 26252.9
 05 12 2013  02 38  -21.0193 26016.5 -03514.6 -07.6935 26252.9
 05 12 2013  02 39  -21.0191 26016.5 -03514.6 -07.6935 26252.8
 05 12 2013  02 40  -21.0192 26016.6 -03514.6 -07.6935 26252.9
 05 12 2013  02 41  -21.0193 26016.6 -03514.6 -07.6936 26252.9
 05 12 2013  02 42  -21.0193 26016.6 -03514.7 -07.6937 26253.0
 05 12 2013  02 43  -21.0193 26016.6 -03514.6 -07.6936 26253.0
 05 12 2013  02 44  -21.0193 26016.6 -03514.7 -07.6936 26253.0
 05 12 2013  02 45  -21.0193 26016.6 -03514.6 -07.6936 26252.9
 05 12 2013  02 46  -21.0193 26016.5 -03514.6 -07.6936 26252.9
 05 12 2013  02 47  -21.0193 26016.5 -03514.6 -07.6935 26252.8
 05 12 2013  02 48  -21.0191 26016.4 -03514.5 -07.6934 26252.7
 05 12 2013  02 49  -21.0190 26016.3 -03514.4 -07.6932 26252.6
 05 12 2013  02 50  -21.0189 26016.1 -03514.4 -07.6932 26252.4
 05 12 2013  02 51  -21.0188 26016.0 -03514.3 -07.6931 26252.3
 05 12 2013  02 52  -21.0187 26016.0 -03514.3 -07.6931 26252.3
 05 12 2013  02 53  -21.0187 26016.0 -03514.3 -07.6931 26252.2
 05 12 2013  02 54  -21.0187 26016.0 -03514.3 -07.6931 26252.3
 05 12 2013  02 55  -21.0187 26016.0 -03514.4 -07.6932 26252.3
 05 12 2013  02 56  -21.0189 26016.0 -03514.4 -07.6932 26252.3
 05 12 2013  02 57  -21.0189 26016.0 -03514.4 -07.6933 26252.3
 05 12 2013  02 58  -21.0190 26016.0 -03514.4 -07.6934 26252.3
 05 12 2013  02 59  -21.0192 26016.0 -03514.4 -07.6933 26252.3
 05 12 2013  03 00  -21.0193 26016.1 -03514.4 -07.6933 26252.4
 05 12 2013  03 01  -21.0194 26016.1 -03514.4 -07.6933 26252.4
 05 12 2013  03 02  -21.0195 26016.1 -03514.4 -07.6934 26252.4
 05 12 2013  03 03  -21.0194 26016.1 -03514.5 -07.6934 26252.4
 05 12 2013  03 04  -21.0193 26016.1 -03514.4 -07.6933 26252.4
 05 12 2013  03 05  -21.0193 26016.1 -03514.4 -07.6933 26252.5
 05 12 2013  03 06  -21.0192 26016.2 -03514.4 -07.6933 26252.5
 05 12 2013  03 07  -21.0193 26016.2 -03514.5 -07.6934 26252.5
 05 12 2013  03 08  -21.0196 26016.1 -03514.5 -07.6934 26252.4
 05 12 2013  03 09  -21.0197 26016.1 -03514.4 -07.6934 26252.4
 05 12 2013  03 10  -21.0198 26016.0 -03514.4 -07.6933 26252.3
 05 12 2013  03 11  -21.0199 26015.9 -03514.3 -07.6932 26252.2
 05 12 2013  03 12  -21.0201 26015.9 -03514.3 -07.6931 26252.2
 05 12 2013  03 13  -21.0202 26015.9 -03514.3 -07.6932 26252.1
 05 12 2013  03 14  -21.0203 26015.9 -03514.3 -07.6932 26252.2
 05 12 2013  03 15  -21.0205 26015.9 -03514.4 -07.6932 26252.2
 05 12 2013  03 16  -21.0206 26016.0 -03514.4 -07.6933 26252.3
 05 12 2013  03 17  -21.0208 26016.1 -03514.5 -07.6934 26252.4
 05 12 2013  03 18  -21.0210 26016.3 -03514.5 -07.6935 26252.6
 05 12 2013  03 19  -21.0212 26016.4 -03514.6 -07.6936 26252.7
 05 12 2013  03 20  -21.0213 26016.9 -03514.8 -07.6939 26253.2
 05 12 2013  03 21  -21.0213 26017.3 -03515.0 -07.6943 26253.7
 05 12 2013  03 22  -21.0214 26017.4 -03515.0 -07.6942 26253.8
 05 12 2013  03 23  -21.0209 26017.7 -03515.2 -07.6944 26254.1
 05 12 2013  03 24  -21.0209 26018.0 -03515.2 -07.6945 26254.4
 05 12 2013  03 25  -21.0208 26018.4 -03515.4 -07.6948 26254.8
 05 12 2013  03 26  -21.0209 26018.6 -03515.5 -07.6949 26255.0
 05 12 2013  03 27  -21.0211 26018.8 -03515.5 -07.6949 26255.2
 05 12 2013  03 28  -21.0211 26019.1 -03515.7 -07.6951 26255.5
 05 12 2013  03 29  -21.0211 26019.1 -03515.6 -07.6950 26255.5
 05 12 2013  03 30  -21.0211 26019.0 -03515.5 -07.6948 26255.5
 05 12 2013  03 31  -21.0211 26019.1 -03515.5 -07.6948 26255.6
 05 12 2013  03 32  -21.0212 26019.2 -03515.6 -07.6948 26255.7
 05 12 2013  03 33  -21.0213 26019.3 -03515.5 -07.6948 26255.7
 05 12 2013  03 34  -21.0213 26019.4 -03515.6 -07.6948 26255.9
 05 12 2013  03 35  -21.0216 26019.4 -03515.5 -07.6947 26255.8
 05 12 2013  03 36  -21.0219 26019.4 -03515.5 -07.6946 26255.8
 05 12 2013  03 37  -21.0222 26019.4 -03515.5 -07.6946 26255.9
 05 12 2013  03 38  -21.0225 26019.4 -03515.4 -07.6944 26255.8
 05 12 2013  03 39  -21.0226 26019.2 -03515.3 -07.6942 26255.6
 05 12 2013  03 40  -21.0227 26019.3 -03515.2 -07.6941 26255.6
 05 12 2013  03 41  -21.0227 26019.2 -03515.2 -07.6940 26255.5
 05 12 2013  03 42  -21.0227 26019.1 -03515.1 -07.6938 26255.4
 05 12 2013  03 43  -21.0226 26019.0 -03515.0 -07.6937 26255.4
 05 12 2013  03 44  -21.0225 26019.0 -03515.0 -07.6936 26255.4
 05 12 2013  03 45  -21.0224 26018.9 -03514.9 -07.6935 26255.3
 05 12 2013  03 46  -21.0224 26018.8 -03514.8 -07.6934 26255.2
 05 12 2013  03 47  -21.0224 26018.8 -03514.8 -07.6933 26255.1
 05 12 2013  03 48  -21.0224 26018.7 -03514.7 -07.6932 26255.1
 05 12 2013  03 49  -21.0224 26018.7 -03514.7 -07.6932 26255.0
 05 12 2013  03 50  -21.0224 26018.7 -03514.7 -07.6932 26255.0
 05 12 2013  03 51  -21.0223 26018.7 -03514.7 -07.6932 26255.0
 05 12 2013  03 52  -21.0224 26018.5 -03514.6 -07.6931 26254.8
 05 12 2013  03 53  -21.0224 26018.5 -03514.7 -07.6931 26254.8
 05 12 2013  03 54  -21.0225 26018.4 -03514.6 -07.6930 26254.7
 05 12 2013  03 55  -21.0225 26018.3 -03514.6 -07.6930 26254.6
 05 12 2013  03 56  -21.0227 26018.3 -03514.6 -07.6930 26254.6
 05 12 2013  03 57  -21.0227 26018.3 -03514.6 -07.6930 26254.6
 05 12 2013  03 58  -21.0228 26018.5 -03514.6 -07.6931 26254.8
 05 12 2013  03 59  -21.0228 26018.5 -03514.7 -07.6932 26254.8
 05 12 2013  04 00  -21.0229 26018.7 -03514.8 -07.6933 26255.1
 05 12 2013  04 01  -21.0229 26019.1 -03515.0 -07.6936 26255.5
 05 12 2013  04 02  -21.0230 26019.0 -03515.0 -07.6937 26255.4
 05 12 2013  04 03  -21.0231 26019.1 -03515.0 -07.6937 26255.5
 05 12 2013  04 04  -21.0232 26019.3 -03515.1 -07.6937 26255.7
 05 12 2013  04 05  -21.0232 26019.4 -03515.1 -07.6939 26255.8
 05 12 2013  04 06  -21.0234 26019.4 -03515.1 -07.6938 26255.8
 05 12 2013  04 07  -21.0236 26019.6 -03515.2 -07.6939 26255.9
 05 12 2013  04 08  -21.0238 26019.6 -03515.2 -07.6939 26256.0
 05 12 2013  04 09  -21.0239 26019.6 -03515.2 -07.6939 26255.9
 05 12 2013  04 10  -21.0238 26019.6 -03515.1 -07.6937 26255.9
 05 12 2013  04 11  -21.0239 26019.5 -03515.0 -07.6936 26255.8
 05 12 2013  04 12  -21.0236 26019.4 -03514.9 -07.6934 26255.7
 05 12 2013  04 13  -21.0234 26019.3 -03514.9 -07.6934 26255.7
 05 12 2013  04 14  -21.0232 26019.3 -03514.9 -07.6933 26255.6
 05 12 2013  04 15  -21.0232 26019.3 -03514.9 -07.6934 26255.6
 05 12 2013  04 16  -21.0231 26019.3 -03514.9 -07.6934 26255.7
 05 12 2013  04 17  -21.0230 26019.3 -03514.9 -07.6934 26255.7
 05 12 2013  04 18  -21.0228 26019.2 -03514.9 -07.6934 26255.6
 05 12 2013  04 19  -21.0227 26019.4 -03515.0 -07.6935 26255.7
 05 12 2013  04 20  -21.0228 26019.5 -03515.0 -07.6935 26255.8
 05 12 2013  04 21  -21.0230 26019.6 -03515.1 -07.6937 26256.0
 05 12 2013  04 22  -21.0229 26019.7 -03515.1 -07.6937 26256.0
 05 12 2013  04 23  -21.0232 26019.5 -03515.0 -07.6936 26255.9
 05 12 2013  04 24  -21.0234 26019.5 -03515.0 -07.6935 26255.8
 05 12 2013  04 25  -21.0235 26019.5 -03515.0 -07.6935 26255.8
 05 12 2013  04 26  -21.0236 26019.3 -03514.9 -07.6934 26255.6
 05 12 2013  04 27  -21.0233 26019.2 -03514.8 -07.6931 26255.5
 05 12 2013  04 28  -21.0230 26019.0 -03514.7 -07.6930 26255.4
 05 12 2013  04 29  -21.0228 26018.9 -03514.7 -07.6930 26255.2
 05 12 2013  04 30  -21.0224 26018.9 -03514.6 -07.6929 26255.2
 05 12 2013  04 31  -21.0222 26018.8 -03514.6 -07.6929 26255.1
 05 12 2013  04 32  -21.0222 26018.9 -03514.7 -07.6930 26255.2
 05 12 2013  04 33  -21.0224 26018.9 -03514.7 -07.6931 26255.3
 05 12 2013  04 34  -21.0225 26019.0 -03514.8 -07.6932 26255.3
 05 12 2013  04 35  -21.0225 26019.0 -03514.8 -07.6933 26255.4
 05 12 2013  04 36  -21.0225 26019.0 -03514.8 -07.6932 26255.3
 05 12 2013  04 37  -21.0224 26019.0 -03514.7 -07.6931 26255.3
 05 12 2013  04 38  -21.0224 26019.0 -03514.7 -07.6931 26255.3
 05 12 2013  04 39  -21.0223 26019.0 -03514.8 -07.6932 26255.4
 05 12 2013  04 40  -21.0222 26019.0 -03514.8 -07.6932 26255.3
 05 12 2013  04 41  -21.0220 26019.0 -03514.8 -07.6932 26255.4
 05 12 2013  04 42  -21.0220 26019.1 -03514.8 -07.6932 26255.4
 05 12 2013  04 43  -21.0220 26019.2 -03514.8 -07.6933 26255.5
 05 12 2013  04 44  -21.0224 26019.2 -03514.9 -07.6934 26255.6
 05 12 2013  04 45  -21.0228 26019.3 -03514.9 -07.6935 26255.6
 05 12 2013  04 46  -21.0229 26019.3 -03514.9 -07.6934 26255.7
 05 12 2013  04 47  -21.0230 26019.3 -03514.9 -07.6934 26255.6
 05 12 2013  04 48  -21.0233 26019.3 -03514.9 -07.6934 26255.7
 05 12 2013  04 49  -21.0233 26019.4 -03514.9 -07.6933 26255.7
 05 12 2013  04 50  -21.0234 26019.4 -03514.8 -07.6933 26255.7
 05 12 2013  04 51  -21.0236 26019.5 -03514.9 -07.6934 26255.8
 05 12 2013  04 52  -21.0237 26019.5 -03514.9 -07.6934 26255.8
 05 12 2013  04 53  -21.0238 26019.5 -03514.9 -07.6933 26255.8
 05 12 2013  04 54  -21.0239 26019.5 -03514.9 -07.6934 26255.8
 05 12 2013  04 55  -21.0240 26019.5 -03514.9 -07.6933 26255.9
 05 12 2013  04 56  -21.0242 26019.6 -03514.9 -07.6933 26255.9
 05 12 2013  04 57  -21.0243 26019.6 -03514.9 -07.6933 26255.9
 05 12 2013  04 58  -21.0244 26019.5 -03514.9 -07.6933 26255.9
 05 12 2013  04 59  -21.0244 26019.5 -03514.8 -07.6932 26255.9
 05 12 2013  05 00  -21.0245 26019.5 -03514.8 -07.6931 26255.8
 05 12 2013  05 01  -21.0245 26019.5 -03514.8 -07.6931 26255.8
 05 12 2013  05 02  -21.0244 26019.4 -03514.7 -07.6929 26255.7
 05 12 2013  05 03  -21.0244 26019.3 -03514.7 -07.6929 26255.6
 05 12 2013  05 04  -21.0242 26019.2 -03514.6 -07.6928 26255.5
 05 12 2013  05 05  -21.0241 26019.1 -03514.5 -07.6926 26255.4
 05 12 2013  05 06  -21.0240 26019.0 -03514.5 -07.6927 26255.3
 05 12 2013  05 07  -21.0239 26019.0 -03514.5 -07.6927 26255.3
 05 12 2013  05 08  -21.0240 26019.1 -03514.6 -07.6928 26255.4
 05 12 2013  05 09  -21.0242 26019.0 -03514.6 -07.6929 26255.3
 05 12 2013  05 10  -21.0243 26019.1 -03514.6 -07.6928 26255.4
 05 12 2013  05 11  -21.0245 26019.1 -03514.7 -07.6929 26255.4
 05 12 2013  05 12  -21.0245 26019.1 -03514.6 -07.6929 26255.4
 05 12 2013  05 13  -21.0246 26019.1 -03514.7 -07.6929 26255.4
 05 12 2013  05 14  -21.0248 26019.2 -03514.7 -07.6930 26255.5
 05 12 2013  05 15  -21.0248 26019.2 -03514.7 -07.6930 26255.6
 05 12 2013  05 16  -21.0250 26019.2 -03514.8 -07.6931 26255.6
 05 12 2013  05 17  -21.0251 26019.3 -03514.8 -07.6932 26255.6
 05 12 2013  05 18  -21.0251 26019.3 -03514.8 -07.6931 26255.6
 05 12 2013  05 19  -21.0251 26019.3 -03514.8 -07.6932 26255.6
 05 12 2013  05 20  -21.0252 26019.4 -03514.8 -07.6932 26255.7
 05 12 2013  05 21  -21.0253 26019.4 -03514.8 -07.6932 26255.7
 05 12 2013  05 22  -21.0254 26019.4 -03514.8 -07.6932 26255.8
 05 12 2013  05 23  -21.0257 26019.5 -03514.9 -07.6933 26255.9
 05 12 2013  05 24  -21.0260 26019.6 -03514.9 -07.6933 26255.9
 05 12 2013  05 25  -21.0262 26019.5 -03514.9 -07.6933 26255.9
 05 12 2013  05 26  -21.0263 26019.5 -03514.8 -07.6932 26255.8
 05 12 2013  05 27  -21.0264 26019.4 -03514.8 -07.6931 26255.7
 05 12 2013  05 28  -21.0264 26019.3 -03514.7 -07.6930 26255.6
 05 12 2013  05 29  -21.0265 26019.3 -03514.7 -07.6930 26255.6
 05 12 2013  05 30  -21.0264 26019.3 -03514.7 -07.6930 26255.6
 05 12 2013  05 31  -21.0264 26019.3 -03514.7 -07.6929 26255.6
 05 12 2013  05 32  -21.0264 26019.3 -03514.7 -07.6930 26255.6
 05 12 2013  05 33  -21.0263 26019.2 -03514.7 -07.6930 26255.5
 05 12 2013  05 34  -21.0260 26019.2 -03514.7 -07.6929 26255.5
 05 12 2013  05 35  -21.0258 26019.1 -03514.7 -07.6929 26255.4
 05 12 2013  05 36  -21.0255 26019.1 -03514.7 -07.6929 26255.4
 05 12 2013  05 37  -21.0252 26019.0 -03514.6 -07.6929 26255.3
 05 12 2013  05 38  -21.0250 26018.9 -03514.6 -07.6929 26255.2
 05 12 2013  05 39  -21.0247 26018.9 -03514.6 -07.6929 26255.2
 05 12 2013  05 40  -21.0244 26018.8 -03514.6 -07.6929 26255.1
 05 12 2013  05 41  -21.0242 26018.7 -03514.6 -07.6930 26255.0
 05 12 2013  05 42  -21.0241 26018.6 -03514.6 -07.6930 26254.9
 05 12 2013  05 43  -21.0241 26018.6 -03514.7 -07.6931 26254.9
 05 12 2013  05 44  -21.0242 26018.6 -03514.7 -07.6932 26255.0
 05 12 2013  05 45  -21.0242 26018.6 -03514.8 -07.6933 26255.0
 05 12 2013  05 46  -21.0244 26018.7 -03514.8 -07.6934 26255.0
 05 12 2013  05 47  -21.0247 26018.8 -03514.9 -07.6936 26255.1
 05 12 2013  05 48  -21.0250 26018.8 -03515.0 -07.6937 26255.2
 05 12 2013  05 49  -21.0253 26019.0 -03515.0 -07.6938 26255.3
 05 12 2013  05 50  -21.0255 26019.0 -03515.1 -07.6939 26255.4
 05 12 2013  05 51  -21.0259 26019.0 -03515.1 -07.6939 26255.4
 05 12 2013  05 52  -21.0262 26019.0 -03515.1 -07.6939 26255.3
 05 12 2013  05 53  -21.0263 26018.9 -03515.1 -07.6940 26255.3
 05 12 2013  05 54  -21.0264 26018.9 -03515.1 -07.6939 26255.2
 05 12 2013  05 55  -21.0265 26018.8 -03515.0 -07.6939 26255.2
 05 12 2013  05 56  -21.0265 26018.7 -03515.0 -07.6939 26255.1
 05 12 2013  05 57  -21.0267 26018.7 -03515.0 -07.6939 26255.0
 05 12 2013  05 58  -21.0267 26018.6 -03515.0 -07.6937 26255.0
 05 12 2013  05 59  -21.0268 26018.6 -03515.0 -07.6937 26254.9
 05 12 2013  06 00  -21.0269 26018.5 -03514.9 -07.6937 26254.9
 05 12 2013  06 01  -21.0269 26018.5 -03514.9 -07.6936 26254.8
 05 12 2013  06 02  -21.0270 26018.4 -03514.8 -07.6935 26254.7
 05 12 2013  06 03  -21.0271 26018.3 -03514.8 -07.6935 26254.6
 05 12 2013  06 04  -21.0272 26018.2 -03514.8 -07.6935 26254.6
 05 12 2013  06 05  -21.0271 26018.2 -03514.8 -07.6935 26254.5
 05 12 2013  06 06  -21.0271 26018.1 -03514.7 -07.6934 26254.4
 05 12 2013  06 07  -21.0270 26018.0 -03514.7 -07.6933 26254.3
 05 12 2013  06 08  -21.0269 26017.9 -03514.6 -07.6932 26254.2
 05 12 2013  06 09  -21.0270 26017.9 -03514.6 -07.6932 26254.2
 05 12 2013  06 10  -21.0270 26017.8 -03514.6 -07.6931 26254.1
 05 12 2013  06 11  -21.0271 26017.9 -03514.6 -07.6932 26254.2
 05 12 2013  06 12  -21.0271 26017.8 -03514.6 -07.6932 26254.2
 05 12 2013  06 13  -21.0273 26017.9 -03514.6 -07.6932 26254.2
 05 12 2013  06 14  -21.0274 26017.9 -03514.7 -07.6933 26254.3
 05 12 2013  06 15  -21.0275 26017.9 -03514.7 -07.6933 26254.3
 05 12 2013  06 16  -21.0276 26018.0 -03514.7 -07.6933 26254.3
 05 12 2013  06 17  -21.0279 26017.9 -03514.7 -07.6933 26254.2
 05 12 2013  06 18  -21.0281 26018.0 -03514.7 -07.6933 26254.3
 05 12 2013  06 19  -21.0283 26018.0 -03514.7 -07.6934 26254.3
 05 12 2013  06 20  -21.0283 26018.0 -03514.7 -07.6933 26254.3
 05 12 2013  06 21  -21.0282 26018.0 -03514.7 -07.6933 26254.4
 05 12 2013  06 22  -21.0282 26018.1 -03514.7 -07.6933 26254.4
 05 12 2013  06 23  -21.0281 26018.2 -03514.7 -07.6933 26254.5
 05 12 2013  06 24  -21.0283 26018.2 -03514.8 -07.6934 26254.6
 05 12 2013  06 25  -21.0284 26018.3 -03514.8 -07.6935 26254.6
 05 12 2013  06 26  -21.0286 26018.3 -03514.8 -07.6935 26254.6
 05 12 2013  06 27  -21.0287 26018.3 -03514.8 -07.6935 26254.6
 05 12 2013  06 28  -21.0287 26018.3 -03514.8 -07.6935 26254.6
 05 12 2013  06 29  -21.0286 26018.2 -03514.8 -07.6934 26254.6
 05 12 2013  06 30  -21.0286 26018.3 -03514.8 -07.6934 26254.6
 05 12 2013  06 31  -21.0287 26018.3 -03514.8 -07.6935 26254.6
 05 12 2013  06 32  -21.0290 26018.4 -03514.9 -07.6936 26254.7
 05 12 2013  06 33  -21.0290 26018.4 -03514.8 -07.6935 26254.7
 05 12 2013  06 34  -21.0290 26018.3 -03514.8 -07.6934 26254.6
 05 12 2013  06 35  -21.0287 26018.2 -03514.7 -07.6933 26254.5
 05 12 2013  06 36  -21.0285 26018.2 -03514.7 -07.6933 26254.5
 05 12 2013  06 37  -21.0282 26018.1 -03514.7 -07.6932 26254.4
 05 12 2013  06 38  -21.0278 26018.0 -03514.6 -07.6932 26254.3
 05 12 2013  06 39  -21.0272 26017.9 -03514.6 -07.6931 26254.2
 05 12 2013  06 40  -21.0269 26017.8 -03514.5 -07.6930 26254.1
 05 12 2013  06 41  -21.0267 26017.7 -03514.5 -07.6930 26254.0
 05 12 2013  06 42  -21.0264 26017.7 -03514.6 -07.6931 26254.0
 05 12 2013  06 43  -21.0262 26017.7 -03514.6 -07.6932 26254.0
 05 12 2013  06 44  -21.0261 26017.6 -03514.6 -07.6932 26253.9
 05 12 2013  06 45  -21.0262 26017.7 -03514.6 -07.6932 26254.0
 05 12 2013  06 46  -21.0262 26017.7 -03514.7 -07.6934 26254.0
 05 12 2013  06 47  -21.0263 26017.7 -03514.7 -07.6935 26254.1
 05 12 2013  06 48  -21.0263 26017.8 -03514.7 -07.6935 26254.1
 05 12 2013  06 49  -21.0263 26017.8 -03514.7 -07.6935 26254.1
 05 12 2013  06 50  -21.0264 26017.8 -03514.7 -07.6935 26254.1
 05 12 2013  06 51  -21.0264 26017.7 -03514.7 -07.6935 26254.0
 05 12 2013  06 52  -21.0264 26017.6 -03514.7 -07.6934 26254.0
 05 12 2013  06 53  -21.0266 26017.6 -03514.7 -07.6933 26253.9
 05 12 2013  06 54  -21.0267 26017.6 -03514.7 -07.6934 26254.0
 05 12 2013  06 55  -21.0270 26017.6 -03514.7 -07.6933 26253.9
 05 12 2013  06 56  -21.0273 26017.7 -03514.7 -07.6934 26254.0
 05 12 2013  06 57  -21.0276 26017.7 -03514.7 -07.6934 26254.0
 05 12 2013  06 58  -21.0278 26017.8 -03514.7 -07.6934 26254.1
 05 12 2013  06 59  -21.0281 26017.8 -03514.7 -07.6934 26254.1
 05 12 2013  07 00  -21.0283 26017.8 -03514.7 -07.6934 26254.1
 05 12 2013  07 01  -21.0287 26017.8 -03514.7 -07.6934 26254.1
 05 12 2013  07 02  -21.0289 26017.8 -03514.7 -07.6933 26254.1
 05 12 2013  07 03  -21.0291 26017.7 -03514.6 -07.6933 26254.0
 05 12 2013  07 04  -21.0294 26017.7 -03514.6 -07.6933 26254.0
 05 12 2013  07 05  -21.0295 26017.8 -03514.6 -07.6932 26254.1
 05 12 2013  07 06  -21.0296 26017.8 -03514.6 -07.6932 26254.1
 05 12 2013  07 07  -21.0298 26017.9 -03514.6 -07.6932 26254.2
 05 12 2013  07 08  -21.0298 26017.9 -03514.6 -07.6932 26254.2
 05 12 2013  07 09  -21.0299 26017.8 -03514.6 -07.6931 26254.2
 05 12 2013  07 10  -21.0299 26017.8 -03514.5 -07.6930 26254.1
 05 12 2013  07 11  -21.0297 26017.8 -03514.5 -07.6929 26254.1
 05 12 2013  07 12  -21.0294 26017.8 -03514.5 -07.6929 26254.0
 05 12 2013  07 13  -21.0292 26017.7 -03514.5 -07.6929 26254.0
 05 12 2013  07 14  -21.0289 26017.7 -03514.5 -07.6929 26254.0
 05 12 2013  07 15  -21.0289 26017.7 -03514.5 -07.6929 26254.0
 05 12 2013  07 16  -21.0289 26017.7 -03514.5 -07.6931 26254.0
 05 12 2013  07 17  -21.0289 26017.6 -03514.5 -07.6931 26253.9
 05 12 2013  07 18  -21.0288 26017.6 -03514.5 -07.6931 26253.9
 05 12 2013  07 19  -21.0287 26017.6 -03514.5 -07.6931 26253.9
 05 12 2013  07 20  -21.0285 26017.6 -03514.5 -07.6931 26253.9
 05 12 2013  07 21  -21.0284 26017.5 -03514.5 -07.6931 26253.8
 05 12 2013  07 22  -21.0284 26017.5 -03514.6 -07.6932 26253.9
 05 12 2013  07 23  -21.0285 26017.6 -03514.7 -07.6934 26253.9
 05 12 2013  07 24  -21.0286 26017.6 -03514.7 -07.6935 26254.0
 05 12 2013  07 25  -21.0287 26017.6 -03514.8 -07.6936 26254.0
 05 12 2013  07 26  -21.0285 26017.6 -03514.8 -07.6936 26253.9
 05 12 2013  07 27  -21.0281 26017.5 -03514.7 -07.6935 26253.8
 05 12 2013  07 28  -21.0278 26017.4 -03514.8 -07.6937 26253.8
 05 12 2013  07 29  -21.0275 26017.5 -03514.8 -07.6938 26253.8
 05 12 2013  07 30  -21.0274 26017.5 -03514.9 -07.6939 26253.8
 05 12 2013  07 31  -21.0273 26017.4 -03514.9 -07.6940 26253.8
 05 12 2013  07 32  -21.0272 26017.4 -03515.0 -07.6942 26253.8
 05 12 2013  07 33  -21.0271 26017.3 -03515.1 -07.6943 26253.7
 05 12 2013  07 34  -21.0270 26017.3 -03515.1 -07.6944 26253.7
 05 12 2013  07 35  -21.0270 26017.4 -03515.1 -07.6945 26253.8
 05 12 2013  07 36  -21.0270 26017.4 -03515.2 -07.6946 26253.8
 05 12 2013  07 37  -21.0270 26017.4 -03515.3 -07.6948 26253.8
 05 12 2013  07 38  -21.0270 26017.4 -03515.3 -07.6949 26253.9
 05 12 2013  07 39  -21.0270 26017.4 -03515.4 -07.6950 26253.8
 05 12 2013  07 40  -21.0270 26017.4 -03515.4 -07.6950 26253.8
 05 12 2013  07 41  -21.0271 26017.4 -03515.4 -07.6951 26253.8
 05 12 2013  07 42  -21.0271 26017.4 -03515.5 -07.6952 26253.8
 05 12 2013  07 43  -21.0270 26017.4 -03515.5 -07.6953 26253.8
 05 12 2013  07 44  -21.0272 26017.5 -03515.6 -07.6955 26253.9
 05 12 2013  07 45  -21.0274 26017.5 -03515.7 -07.6956 26254.0
 05 12 2013  07 46  -21.0277 26017.6 -03515.8 -07.6958 26254.1
 05 12 2013  07 47  -21.0280 26017.6 -03515.8 -07.6959 26254.1
 05 12 2013  07 48  -21.0283 26017.6 -03515.9 -07.6960 26254.1
 05 12 2013  07 49  -21.0286 26017.6 -03515.9 -07.6960 26254.1
 05 12 2013  07 50  -21.0287 26017.6 -03515.9 -07.6960 26254.1
 05 12 2013  07 51  -21.0286 26017.5 -03515.8 -07.6959 26254.0
 05 12 2013  07 52  -21.0285 26017.4 -03515.8 -07.6958 26253.9
 05 12 2013  07 53  -21.0287 26017.4 -03515.8 -07.6959 26253.8
 05 12 2013  07 54  -21.0290 26017.5 -03515.9 -07.6961 26254.0
 05 12 2013  07 55  -21.0288 26017.6 -03516.0 -07.6962 26254.1
 05 12 2013  07 56  -21.0286 26017.6 -03516.0 -07.6962 26254.1
 05 12 2013  07 57  -21.0284 26017.6 -03516.0 -07.6962 26254.1
 05 12 2013  07 58  -21.0283 26017.6 -03516.0 -07.6963 26254.1
 05 12 2013  07 59  -21.0283 26017.6 -03516.1 -07.6964 26254.1
 05 12 2013  08 00  -21.0285 26017.7 -03516.1 -07.6965 26254.2
 05 12 2013  08 01  -21.0288 26017.7 -03516.1 -07.6965 26254.3
 05 12 2013  08 02  -21.0290 26017.8 -03516.2 -07.6967 26254.3
 05 12 2013  08 03  -21.0293 26017.7 -03516.2 -07.6966 26254.2
 05 12 2013  08 04  -21.0296 26017.7 -03516.2 -07.6967 26254.2
 05 12 2013  08 05  -21.0298 26017.6 -03516.1 -07.6965 26254.2
 05 12 2013  08 06  -21.0299 26017.6 -03516.1 -07.6965 26254.1
 05 12 2013  08 07  -21.0300 26017.5 -03516.0 -07.6963 26254.0
 05 12 2013  08 08  -21.0301 26017.3 -03515.9 -07.6962 26253.8
 05 12 2013  08 09  -21.0304 26017.3 -03515.9 -07.6961 26253.8
 05 12 2013  08 10  -21.0305 26017.3 -03515.8 -07.6960 26253.8
 05 12 2013  08 11  -21.0308 26017.3 -03515.8 -07.6960 26253.8
 05 12 2013  08 12  -21.0312 26017.3 -03515.8 -07.6959 26253.8
 05 12 2013  08 13  -21.0315 26017.2 -03515.7 -07.6958 26253.7
 05 12 2013  08 14  -21.0316 26017.3 -03515.7 -07.6956 26253.7
 05 12 2013  08 15  -21.0317 26017.3 -03515.6 -07.6955 26253.7
 05 12 2013  08 16  -21.0318 26017.3 -03515.6 -07.6954 26253.7
 05 12 2013  08 17  -21.0321 26017.2 -03515.5 -07.6952 26253.7
 05 12 2013  08 18  -21.0320 26017.2 -03515.3 -07.6950 26253.6
 05 12 2013  08 19  -21.0319 26017.2 -03515.3 -07.6948 26253.6
 05 12 2013  08 20  -21.0319 26017.2 -03515.2 -07.6946 26253.6
 05 12 2013  08 21  -21.0319 26017.3 -03515.2 -07.6946 26253.7
 05 12 2013  08 22  -21.0320 26017.3 -03515.1 -07.6945 26253.7
 05 12 2013  08 23  -21.0319 26017.3 -03515.0 -07.6942 26253.7
 05 12 2013  08 24  -21.0317 26017.1 -03514.9 -07.6939 26253.5
 05 12 2013  08 25  -21.0316 26017.0 -03514.7 -07.6937 26253.4
 05 12 2013  08 26  -21.0316 26017.1 -03514.7 -07.6937 26253.4
 05 12 2013  08 27  -21.0313 26017.1 -03514.6 -07.6935 26253.4
 05 12 2013  08 28  -21.0313 26017.0 -03514.6 -07.6934 26253.3
 05 12 2013  08 29  -21.0311 26016.9 -03514.5 -07.6932 26253.2
 05 12 2013  08 30  -21.0309 26016.9 -03514.5 -07.6932 26253.2
 05 12 2013  08 31  -21.0308 26016.7 -03514.4 -07.6931 26253.0
 05 12 2013  08 32  -21.0303 26016.7 -03514.4 -07.6931 26253.0
 05 12 2013  08 33  -21.0300 26016.7 -03514.4 -07.6930 26253.0
 05 12 2013  08 34  -21.0296 26016.7 -03514.4 -07.6931 26253.0
 05 12 2013  08 35  -21.0294 26016.7 -03514.4 -07.6932 26253.0
 05 12 2013  08 36  -21.0293 26016.7 -03514.5 -07.6933 26253.0
 05 12 2013  08 37  -21.0292 26016.6 -03514.5 -07.6933 26253.0
 05 12 2013  08 38  -21.0289 26016.8 -03514.6 -07.6935 26253.1
 05 12 2013  08 39  -21.0289 26016.9 -03514.7 -07.6937 26253.2
 05 12 2013  08 40  -21.0288 26016.9 -03514.8 -07.6938 26253.2
 05 12 2013  08 41  -21.0286 26017.0 -03514.8 -07.6939 26253.3
 05 12 2013  08 42  -21.0287 26017.0 -03514.9 -07.6941 26253.4
 05 12 2013  08 43  -21.0288 26017.1 -03515.0 -07.6943 26253.5
 05 12 2013  08 44  -21.0292 26017.2 -03515.1 -07.6944 26253.6
 05 12 2013  08 45  -21.0296 26017.3 -03515.2 -07.6946 26253.7
 05 12 2013  08 46  -21.0301 26017.5 -03515.3 -07.6948 26253.9
 05 12 2013  08 47  -21.0306 26017.7 -03515.4 -07.6950 26254.1
 05 12 2013  08 48  -21.0312 26017.8 -03515.5 -07.6951 26254.3
 05 12 2013  08 49  -21.0315 26018.0 -03515.5 -07.6951 26254.4
 05 12 2013  08 50  -21.0315 26018.0 -03515.5 -07.6951 26254.5
 05 12 2013  08 51  -21.0317 26018.1 -03515.5 -07.6951 26254.6
 05 12 2013  08 52  -21.0322 26018.4 -03515.6 -07.6952 26254.8
 05 12 2013  08 53  -21.0325 26018.4 -03515.5 -07.6950 26254.8
 05 12 2013  08 54  -21.0326 26018.8 -03515.7 -07.6952 26255.2
 05 12 2013  08 55  -21.0330 26018.9 -03515.7 -07.6953 26255.4
 05 12 2013  08 56  -21.0331 26019.3 -03515.8 -07.6954 26255.7
 05 12 2013  08 57  -21.0331 26019.3 -03515.7 -07.6952 26255.7
 05 12 2013  08 58  -21.0331 26019.4 -03515.8 -07.6952 26255.9
 05 12 2013  08 59  -21.0335 26019.4 -03515.7 -07.6952 26255.8
 05 12 2013  09 00  -21.0339 26019.5 -03515.8 -07.6952 26255.9
 05 12 2013  09 01  -21.0342 26019.4 -03515.6 -07.6950 26255.8
 05 12 2013  09 02  -21.0346 26019.5 -03515.6 -07.6949 26255.9
 05 12 2013  09 03  -21.0349 26019.8 -03515.8 -07.6952 26256.2
 05 12 2013  09 04  -21.0356 26020.0 -03515.9 -07.6953 26256.4
 05 12 2013  09 05  -21.0360 26020.2 -03515.9 -07.6953 26256.7
 05 12 2013  09 06  -21.0362 26020.5 -03515.9 -07.6953 26257.0
 05 12 2013  09 07  -21.0366 26020.7 -03515.9 -07.6951 26257.2
 05 12 2013  09 08  -21.0370 26020.9 -03515.9 -07.6952 26257.4
 05 12 2013  09 09  -21.0377 26021.2 -03516.0 -07.6953 26257.6
 05 12 2013  09 10  -21.0383 26021.4 -03516.0 -07.6953 26257.9
 05 12 2013  09 11  -21.0387 26021.6 -03515.9 -07.6949 26258.0
 05 12 2013  09 12  -21.0389 26021.9 -03515.9 -07.6949 26258.3
 05 12 2013  09 13  -21.0396 26022.1 -03515.9 -07.6947 26258.5
 05 12 2013  09 14  -21.0398 26022.3 -03515.7 -07.6942 26258.7
 05 12 2013  09 15  -21.0402 26022.2 -03515.8 -07.6944 26258.7
 05 12 2013  09 16  -21.0405 26022.4 -03515.7 -07.6943 26258.8
 05 12 2013  09 17  -21.0409 26022.6 -03515.7 -07.6943 26259.0
 05 12 2013  09 18  -21.0410 26022.8 -03515.7 -07.6941 26259.2
 05 12 2013  09 19  -21.0414 26023.0 -03515.7 -07.6940 26259.4
 05 12 2013  09 20  -21.0416 26023.1 -03515.6 -07.6938 26259.5
 05 12 2013  09 21  -21.0420 26023.3 -03515.5 -07.6936 26259.7
 05 12 2013  09 22  -21.0424 26023.4 -03515.5 -07.6934 26259.8
 05 12 2013  09 23  -21.0430 26023.6 -03515.4 -07.6933 26259.9
 05 12 2013  09 24  -21.0432 26023.7 -03515.3 -07.6931 26260.0
 05 12 2013  09 25  -21.0436 26023.7 -03515.2 -07.6928 26260.0
 05 12 2013  09 26  -21.0442 26023.7 -03515.1 -07.6926 26260.0
 05 12 2013  09 27  -21.0447 26023.8 -03515.1 -07.6924 26260.1
 05 12 2013  09 28  -21.0451 26024.0 -03515.0 -07.6922 26260.3
 05 12 2013  09 29  -21.0456 26024.0 -03514.9 -07.6920 26260.3
 05 12 2013  09 30  -21.0459 26024.1 -03514.7 -07.6917 26260.4
 05 12 2013  09 31  -21.0464 26024.2 -03514.7 -07.6915 26260.5
 05 12 2013  09 32  -21.0468 26024.4 -03514.7 -07.6914 26260.7
 05 12 2013  09 33  -21.0473 26024.8 -03514.7 -07.6914 26261.0
 05 12 2013  09 34  -21.0478 26024.9 -03514.6 -07.6911 26261.1
 05 12 2013  09 35  -21.0482 26024.9 -03514.4 -07.6907 26261.1
 05 12 2013  09 36  -21.0486 26025.0 -03514.3 -07.6904 26261.2
 05 12 2013  09 37  -21.0492 26025.2 -03514.3 -07.6903 26261.4
 05 12 2013  09 38  -21.0496 26025.4 -03514.2 -07.6901 26261.6
 05 12 2013  09 39  -21.0501 26025.5 -03514.1 -07.6898 26261.7
 05 12 2013  09 40  -21.0505 26025.5 -03513.9 -07.6894 26261.6
 05 12 2013  09 41  -21.0510 26025.6 -03513.7 -07.6891 26261.7
 05 12 2013  09 42  -21.0514 26025.7 -03513.6 -07.6888 26261.8
 05 12 2013  09 43  -21.0516 26025.8 -03513.5 -07.6885 26261.9
 05 12 2013  09 44  -21.0521 26026.0 -03513.4 -07.6883 26262.1
 05 12 2013  09 45  -21.0526 26026.3 -03513.4 -07.6881 26262.4
 05 12 2013  09 46  -21.0530 26026.6 -03513.3 -07.6879 26262.6
 05 12 2013  09 47  -21.0534 26026.8 -03513.2 -07.6876 26262.8
 05 12 2013  09 48  -21.0539 26027.0 -03513.1 -07.6872 26263.0
 05 12 2013  09 49  -21.0541 26027.3 -03513.0 -07.6870 26263.3
 05 12 2013  09 50  -21.0542 26027.4 -03512.8 -07.6866 26263.4
 05 12 2013  09 51  -21.0545 26027.7 -03512.8 -07.6864 26263.7
 05 12 2013  09 52  -21.0548 26027.9 -03512.7 -07.6860 26263.9
 05 12 2013  09 53  -21.0551 26028.0 -03512.5 -07.6857 26264.0
 05 12 2013  09 54  -21.0554 26028.2 -03512.4 -07.6853 26264.1
 05 12 2013  09 55  -21.0555 26028.3 -03512.2 -07.6849 26264.1
 05 12 2013  09 56  -21.0559 26028.4 -03512.0 -07.6845 26264.3
 05 12 2013  09 57  -21.0564 26028.7 -03512.0 -07.6843 26264.6
 05 12 2013  09 58  -21.0568 26028.9 -03511.8 -07.6840 26264.8
 05 12 2013  09 59  -21.0572 26029.1 -03511.7 -07.6836 26264.9
 05 12 2013  10 00  -21.0601 26029.1 -03511.6 -07.6834 26264.9
 05 12 2013  10 01  -21.0608 26029.2 -03511.5 -07.6831 26265.0
 05 12 2013  10 02  -21.0612 26029.5 -03511.4 -07.6828 26265.2
 05 12 2013  10 03  -21.0613 26029.6 -03511.2 -07.6825 26265.4
 05 12 2013  10 04  -21.0616 26029.9 -03511.2 -07.6822 26265.6
 05 12 2013  10 05  -21.0621 26030.2 -03511.1 -07.6821 26266.0
 05 12 2013  10 06  -21.0613 26030.5 -03511.1 -07.6818 26266.3
 05 12 2013  10 07  -21.0599 26030.8 -03510.9 -07.6814 26266.5
 05 12 2013  10 08  -21.0599 26031.0 -03510.8 -07.6811 26266.7
 05 12 2013  10 09  -21.0602 26031.1 -03510.7 -07.6808 26266.8
 05 12 2013  10 10  -21.0605 26031.3 -03510.5 -07.6805 26266.9
 05 12 2013  10 11  -21.0608 26031.5 -03510.4 -07.6802 26267.1
 05 12 2013  10 12  -21.0610 26031.7 -03510.3 -07.6798 26267.3
 05 12 2013  10 13  -21.0615 26031.9 -03510.2 -07.6796 26267.5
 05 12 2013  10 14  -21.0619 26032.3 -03510.2 -07.6794 26267.8
 05 12 2013  10 15  -21.0626 26032.6 -03510.1 -07.6791 26268.2
 05 12 2013  10 16  -21.0629 26032.8 -03510.0 -07.6788 26268.4
 05 12 2013  10 17  -21.0635 26033.0 -03509.8 -07.6784 26268.5
 05 12 2013  10 18  -21.0637 26033.2 -03509.7 -07.6781 26268.8
 05 12 2013  10 19  -21.0638 26033.4 -03509.5 -07.6777 26268.9
 05 12 2013  10 20  -21.0639 26033.6 -03509.4 -07.6773 26269.1
 05 12 2013  10 21  -21.0642 26033.9 -03509.3 -07.6769 26269.3
 05 12 2013  10 22  -21.0646 26034.2 -03509.2 -07.6768 26269.6
 05 12 2013  10 23  -21.0651 26034.6 -03509.1 -07.6765 26270.0
 05 12 2013  10 24  -21.0657 26034.9 -03509.1 -07.6762 26270.4
 05 12 2013  10 25  -21.0656 26035.1 -03508.9 -07.6758 26270.5
 05 12 2013  10 26  -21.0651 26035.1 -03508.7 -07.6753 26270.5
 05 12 2013  10 27  -21.0651 26035.4 -03508.6 -07.6750 26270.7
 05 12 2013  10 28  -21.0653 26035.7 -03508.6 -07.6749 26271.0
 05 12 2013  10 29  -21.0654 26036.0 -03508.5 -07.6747 26271.3
 05 12 2013  10 30  -21.0657 26036.4 -03508.5 -07.6746 26271.7
 05 12 2013  10 31  -21.0654 26036.8 -03508.5 -07.6744 26272.1
 05 12 2013  10 32  -21.0655 26037.2 -03508.5 -07.6743 26272.6
 05 12 2013  10 33  -21.0655 26037.5 -03508.4 -07.6740 26272.8
 05 12 2013  10 34  -21.0655 26037.6 -03508.3 -07.6738 26272.9
 05 12 2013  10 35  -21.0648 26037.8 -03508.1 -07.6734 26273.0
 05 12 2013  10 36  -21.0644 26037.9 -03508.1 -07.6732 26273.2
 05 12 2013  10 37  -21.0645 26038.3 -03508.1 -07.6731 26273.5
 05 12 2013  10 38  -21.0649 26038.6 -03508.1 -07.6731 26273.9
 05 12 2013  10 39  -21.0652 26039.0 -03508.1 -07.6730 26274.3
 05 12 2013  10 40  -21.0652 26039.4 -03508.1 -07.6728 26274.7
 05 12 2013  10 41  -21.0647 26039.5 -03508.0 -07.6727 26274.7
 05 12 2013  10 42  -21.0644 26039.5 -03507.9 -07.6724 26274.8
 05 12 2013  10 43  -21.0643 26039.7 -03507.9 -07.6723 26274.9
 05 12 2013  10 44  -21.0642 26040.2 -03508.0 -07.6724 26275.4
 05 12 2013  10 45  -21.0641 26040.7 -03508.1 -07.6723 26275.9
 05 12 2013  10 46  -21.0637 26041.2 -03508.1 -07.6724 26276.5
 05 12 2013  10 47  -21.0631 26041.9 -03508.2 -07.6724 26277.1
 05 12 2013  10 48  -21.0627 26042.4 -03508.3 -07.6723 26277.7
 05 12 2013  10 49  -21.0629 26043.1 -03508.4 -07.6724 26278.4
 05 12 2013  10 50  -21.0634 26044.0 -03508.5 -07.6725 26279.2
 05 12 2013  10 51  -21.0634 26044.6 -03508.6 -07.6723 26279.9
 05 12 2013  10 52  -21.0635 26045.0 -03508.5 -07.6720 26280.3
 05 12 2013  10 53  -21.0639 26045.3 -03508.4 -07.6717 26280.6
 05 12 2013  10 54  -21.0644 26045.6 -03508.2 -07.6713 26280.8
 05 12 2013  10 55  -21.0645 26045.7 -03508.0 -07.6708 26280.9
 05 12 2013  10 56  -21.0641 26046.1 -03507.9 -07.6704 26281.3
 05 12 2013  10 57  -21.0643 26046.3 -03507.7 -07.6699 26281.5
 05 12 2013  10 58  -21.0645 26046.8 -03507.6 -07.6696 26281.9
 05 12 2013  10 59  -21.0642 26046.8 -03507.3 -07.6690 26281.8
 05 12 2013  11 00  -21.0643 26046.9 -03507.1 -07.6684 26282.0
 05 12 2013  11 01  -21.0641 26046.9 -03506.8 -07.6679 26281.9
 05 12 2013  11 02  -21.0641 26047.2 -03506.7 -07.6675 26282.1
 05 12 2013  11 03  -21.0641 26047.7 -03506.8 -07.6675 26282.7
 05 12 2013  11 04  -21.0641 26047.9 -03506.7 -07.6672 26282.9
 05 12 2013  11 05  -21.0637 26047.8 -03506.4 -07.6667 26282.8
 05 12 2013  11 06  -21.0633 26047.7 -03506.2 -07.6664 26282.7
 05 12 2013  11 07  -21.0632 26047.7 -03506.1 -07.6660 26282.6
 05 12 2013  11 08  -21.0631 26047.8 -03506.0 -07.6659 26282.7
 05 12 2013  11 09  -21.0633 26047.8 -03505.9 -07.6657 26282.7
 05 12 2013  11 10  -21.0636 26047.9 -03505.9 -07.6656 26282.8
 05 12 2013  11 11  -21.0642 26048.0 -03505.8 -07.6654 26282.9
 05 12 2013  11 12  -21.0643 26047.9 -03505.7 -07.6651 26282.8
 05 12 2013  11 13  -21.0641 26048.1 -03505.6 -07.6648 26283.0
 05 12 2013  11 14  -21.0640 26048.3 -03505.5 -07.6647 26283.2
 05 12 2013  11 15  -21.0639 26048.7 -03505.6 -07.6646 26283.6
 05 12 2013  11 16  -21.0645 26049.1 -03505.6 -07.6646 26283.9
 05 12 2013  11 17  -21.0653 26049.4 -03505.6 -07.6646 26284.2
 05 12 2013  11 18  -21.0655 26049.9 -03505.7 -07.6646 26284.7
 05 12 2013  11 19  -21.0648 26050.2 -03505.7 -07.6645 26285.0
 05 12 2013  11 20  -21.0640 26050.3 -03505.6 -07.6643 26285.1
 05 12 2013  11 21  -21.0636 26050.5 -03505.5 -07.6641 26285.3
 05 12 2013  11 22  -21.0636 26050.7 -03505.6 -07.6641 26285.5
 05 12 2013  11 23  -21.0639 26051.1 -03505.7 -07.6642 26286.0
 05 12 2013  11 24  -21.0639 26051.6 -03505.7 -07.6642 26286.4
 05 12 2013  11 25  -21.0646 26051.9 -03505.9 -07.6644 26286.8
 05 12 2013  11 26  -21.0645 26052.2 -03505.8 -07.6640 26287.0
 05 12 2013  11 27  -21.0643 26052.7 -03505.6 -07.6636 26287.5
 05 12 2013  11 28  -21.0655 26053.0 -03505.6 -07.6634 26287.8
 05 12 2013  11 29  -21.0652 26053.1 -03505.4 -07.6630 26287.9
 05 12 2013  11 30  -21.0649 26053.1 -03505.2 -07.6627 26287.8
 05 12 2013  11 31  -21.0638 26052.9 -03505.0 -07.6622 26287.7
 05 12 2013  11 32  -21.0636 26052.9 -03505.0 -07.6621 26287.6
 05 12 2013  11 33  -21.0628 26053.3 -03505.0 -07.6622 26288.1
 05 12 2013  11 34  -21.0616 26053.6 -03505.1 -07.6622 26288.3
 05 12 2013  11 35  -21.0608 26054.0 -03505.1 -07.6622 26288.7
 05 12 2013  11 36  -21.0603 26054.4 -03505.2 -07.6623 26289.1
 05 12 2013  11 37  -21.0596 26054.7 -03505.2 -07.6622 26289.4
 05 12 2013  11 38  -21.0594 26055.1 -03505.3 -07.6623 26289.9
 05 12 2013  11 39  -21.0594 26055.8 -03505.5 -07.6625 26290.5
 05 12 2013  11 40  -21.0592 26056.1 -03505.6 -07.6625 26290.9
 05 12 2013  11 41  -21.0590 26056.1 -03505.5 -07.6623 26290.9
 05 12 2013  11 42  -21.0587 26056.3 -03505.4 -07.6621 26291.1
 05 12 2013  11 43  -21.0588 26056.7 -03505.5 -07.6621 26291.4
 05 12 2013  11 44  -21.0588 26056.9 -03505.5 -07.6621 26291.6
 05 12 2013  11 45  -21.0588 26056.5 -03505.3 -07.6619 26291.2
 05 12 2013  11 46  -21.0587 26056.1 -03505.1 -07.6615 26290.8
 05 12 2013  11 47  -21.0577 26055.7 -03504.9 -07.6612 26290.4
 05 12 2013  11 48  -21.0573 26055.4 -03504.9 -07.6612 26290.1
 05 12 2013  11 49  -21.0569 26055.2 -03504.9 -07.6614 26289.9
 05 12 2013  11 50  -21.0559 26055.3 -03505.1 -07.6617 26290.0
 05 12 2013  11 51  -21.0553 26055.4 -03505.2 -07.6619 26290.1
 05 12 2013  11 52  -21.0551 26055.5 -03505.4 -07.6622 26290.2
 05 12 2013  11 53  -21.0552 26055.6 -03505.5 -07.6626 26290.3
 05 12 2013  11 54  -21.0552 26055.8 -03505.7 -07.6628 26290.5
 05 12 2013  11 55  -21.0548 26055.5 -03505.7 -07.6629 26290.3
 05 12 2013  11 56  -21.0544 26055.1 -03505.6 -07.6628 26289.9
 05 12 2013  11 57  -21.0541 26054.7 -03505.6 -07.6629 26289.5
 05 12 2013  11 58  -21.0536 26054.7 -03505.7 -07.6632 26289.4
 05 12 2013  11 59  -21.0536 26054.5 -03505.8 -07.6635 26289.4
 05 12 2013  12 00  -21.0540 26054.9 -03506.1 -07.6641 26289.7
 05 12 2013  12 01  -21.0543 26055.5 -03506.5 -07.6647 26290.4
 05 12 2013  12 02  -21.0543 26055.5 -03506.5 -07.6648 26290.4
 05 12 2013  12 03  -21.0545 26055.4 -03506.5 -07.6647 26290.3
 05 12 2013  12 04  -21.0550 26055.5 -03506.5 -07.6648 26290.4
 05 12 2013  12 05  -21.0549 26055.5 -03506.5 -07.6647 26290.4
 05 12 2013  12 06  -21.0545 26055.6 -03506.5 -07.6646 26290.5
 05 12 2013  12 07  -21.0542 26055.7 -03506.5 -07.6647 26290.6
 05 12 2013  12 08  -21.0543 26055.6 -03506.6 -07.6648 26290.5
 05 12 2013  12 09  -21.0546 26055.7 -03506.7 -07.6651 26290.6
 05 12 2013  12 10  -21.0544 26055.7 -03506.7 -07.6651 26290.6
 05 12 2013  12 11  -21.0543 26055.5 -03506.7 -07.6651 26290.4
 05 12 2013  12 12  -21.0542 26055.1 -03506.7 -07.6651 26290.1
 05 12 2013  12 13  -21.0547 26054.9 -03506.7 -07.6653 26289.8
 05 12 2013  12 14  -21.0550 26055.2 -03507.0 -07.6658 26290.1
 05 12 2013  12 15  -21.0554 26055.3 -03507.2 -07.6662 26290.3
 05 12 2013  12 16  -21.0560 26055.9 -03507.5 -07.6667 26290.9
 05 12 2013  12 17  -21.0565 26056.3 -03507.7 -07.6670 26291.3
 05 12 2013  12 18  -21.0566 26056.4 -03507.8 -07.6671 26291.5
 05 12 2013  12 19  -21.0567 26056.4 -03507.7 -07.6671 26291.4
 05 12 2013  12 20  -21.0569 26056.2 -03507.7 -07.6671 26291.2
 05 12 2013  12 21  -21.0571 26056.2 -03507.8 -07.6672 26291.3
 05 12 2013  12 22  -21.0569 26056.3 -03507.9 -07.6674 26291.4
 05 12 2013  12 23  -21.0566 26056.1 -03507.8 -07.6674 26291.2
 05 12 2013  12 24  -21.0563 26056.4 -03508.0 -07.6676 26291.5
 05 12 2013  12 25  -21.0561 26056.7 -03508.2 -07.6680 26291.8
 05 12 2013  12 26  -21.0560 26056.5 -03508.2 -07.6680 26291.6
 05 12 2013  12 27  -21.0560 26056.9 -03508.5 -07.6686 26292.1
 05 12 2013  12 28  -21.0557 26057.6 -03508.8 -07.6690 26292.8
 05 12 2013  12 29  -21.0556 26058.5 -03509.1 -07.6694 26293.7
 05 12 2013  12 30  -21.0553 26059.2 -03509.3 -07.6697 26294.5
 05 12 2013  12 31  -21.0551 26059.9 -03509.5 -07.6699 26295.2
 05 12 2013  12 32  -21.0551 26060.7 -03509.6 -07.6700 26296.0
 05 12 2013  12 33  -21.0552 26061.5 -03509.7 -07.6699 26296.7
 05 12 2013  12 34  -21.0555 26062.1 -03509.7 -07.6697 26297.4
 05 12 2013  12 35  -21.0557 26062.8 -03509.7 -07.6695 26298.1
 05 12 2013  12 36  -21.0558 26063.2 -03509.6 -07.6691 26298.4
 05 12 2013  12 37  -21.0559 26063.3 -03509.3 -07.6684 26298.5
 05 12 2013  12 38  -21.0557 26063.1 -03508.9 -07.6678 26298.2
 05 12 2013  12 39  -21.0553 26063.0 -03508.7 -07.6673 26298.1
 05 12 2013  12 40  -21.0548 26062.9 -03508.5 -07.6669 26298.0
 05 12 2013  12 41  -21.0546 26063.0 -03508.5 -07.6669 26298.1
 05 12 2013  12 42  -21.0543 26063.2 -03508.6 -07.6669 26298.3
 05 12 2013  12 43  -21.0539 26063.5 -03508.6 -07.6669 26298.6
 05 12 2013  12 44  -21.0536 26063.8 -03508.6 -07.6669 26298.9
 05 12 2013  12 45  -21.0532 26064.0 -03508.6 -07.6667 26299.1
 05 12 2013  12 46  -21.0531 26064.2 -03508.6 -07.6667 26299.3
 05 12 2013  12 47  -21.0528 26064.3 -03508.5 -07.6665 26299.4
 05 12 2013  12 48  -21.0525 26064.5 -03508.5 -07.6664 26299.5
 05 12 2013  12 49  -21.0522 26064.4 -03508.4 -07.6661 26299.5
 05 12 2013  12 50  -21.0519 26064.5 -03508.3 -07.6659 26299.6
 05 12 2013  12 51  -21.0514 26064.8 -03508.3 -07.6659 26299.9
 05 12 2013  12 52  -21.0509 26065.1 -03508.3 -07.6657 26300.2
 05 12 2013  12 53  -21.0508 26065.4 -03508.2 -07.6655 26300.4
 05 12 2013  12 54  -21.0508 26065.6 -03508.1 -07.6652 26300.6
 05 12 2013  12 55  -21.0507 26065.7 -03507.9 -07.6648 26300.7
 05 12 2013  12 56  -21.0506 26066.0 -03507.9 -07.6646 26301.0
 05 12 2013  12 57  -21.0504 26066.3 -03507.7 -07.6642 26301.2
 05 12 2013  12 58  -21.0502 26066.4 -03507.6 -07.6638 26301.4
 05 12 2013  12 59  -21.0503 26066.5 -03507.4 -07.6634 26301.4
 05 12 2013  13 00  -21.0503 26066.5 -03507.1 -07.6629 26301.3
 05 12 2013  13 01  -21.0501 26066.4 -03506.9 -07.6624 26301.2
 05 12 2013  13 02  -21.0500 26066.4 -03506.7 -07.6619 26301.2
 05 12 2013  13 03  -21.0499 26066.5 -03506.5 -07.6615 26301.3
 05 12 2013  13 04  -21.0498 26066.6 -03506.4 -07.6612 26301.4
 05 12 2013  13 05  -21.0496 26066.7 -03506.2 -07.6607 26301.5
 05 12 2013  13 06  -21.0492 26066.8 -03506.0 -07.6603 26301.6
 05 12 2013  13 07  -21.0487 26067.1 -03505.8 -07.6599 26301.8
 05 12 2013  13 08  -21.0484 26067.3 -03505.7 -07.6595 26302.0
 05 12 2013  13 09  -21.0478 26067.5 -03505.5 -07.6592 26302.1
 05 12 2013  13 10  -21.0473 26067.6 -03505.4 -07.6588 26302.3
 05 12 2013  13 11  -21.0468 26067.8 -03505.2 -07.6584 26302.4
 05 12 2013  13 12  -21.0460 26068.0 -03505.1 -07.6580 26302.6
 05 12 2013  13 13  -21.0454 26068.2 -03505.0 -07.6578 26302.8
 05 12 2013  13 14  -21.0450 26068.4 -03504.9 -07.6575 26303.0
 05 12 2013  13 15  -21.0447 26068.7 -03504.9 -07.6573 26303.3
 05 12 2013  13 16  -21.0444 26069.2 -03504.9 -07.6572 26303.7
 05 12 2013  13 17  -21.0441 26069.6 -03504.9 -07.6570 26304.2
 05 12 2013  13 18  -21.0436 26070.1 -03504.8 -07.6568 26304.6
 05 12 2013  13 19  -21.0434 26070.5 -03504.8 -07.6566 26305.0
 05 12 2013  13 20  -21.0432 26070.8 -03504.7 -07.6563 26305.3
 05 12 2013  13 21  -21.0429 26071.1 -03504.6 -07.6560 26305.6
 05 12 2013  13 22  -21.0425 26071.5 -03504.5 -07.6558 26305.9
 05 12 2013  13 23  -21.0421 26071.7 -03504.4 -07.6554 26306.2
 05 12 2013  13 24  -21.0417 26071.9 -03504.3 -07.6551 26306.3
 05 12 2013  13 25  -21.0413 26072.1 -03504.2 -07.6549 26306.5
 05 12 2013  13 26  -21.0406 26072.3 -03504.1 -07.6545 26306.7
 05 12 2013  13 27  -21.0398 26072.6 -03504.0 -07.6544 26307.0
 05 12 2013  13 28  -21.0389 26072.9 -03503.9 -07.6541 26307.3
 05 12 2013  13 29  -21.0378 26073.4 -03503.9 -07.6539 26307.8
 05 12 2013  13 30  -21.0367 26073.8 -03503.8 -07.6536 26308.2
 05 12 2013  13 31  -21.0356 26074.2 -03503.7 -07.6533 26308.6
 05 12 2013  13 32  -21.0350 26074.6 -03503.7 -07.6530 26309.0
 05 12 2013  13 33  -21.0343 26075.0 -03503.6 -07.6527 26309.3
 05 12 2013  13 34  -21.0338 26075.4 -03503.5 -07.6524 26309.7
 05 12 2013  13 35  -21.0329 26075.8 -03503.3 -07.6519 26310.0
 05 12 2013  13 36  -21.0319 26076.1 -03503.2 -07.6515 26310.4
 05 12 2013  13 37  -21.0312 26076.4 -03503.0 -07.6510 26310.7
 05 12 2013  13 38  -21.0321 26076.6 -03502.6 -07.6501 26310.8
 05 12 2013  13 39  -21.0333 26076.5 -03502.2 -07.6492 26310.6
 05 12 2013  13 40  -21.0328 26076.5 -03501.8 -07.6485 26310.5
 05 12 2013  13 41  -21.0324 26076.4 -03501.5 -07.6478 26310.4
 05 12 2013  13 42  -21.0319 26076.3 -03501.2 -07.6473 26310.3
 05 12 2013  13 43  -21.0316 26076.0 -03500.9 -07.6467 26310.0
 05 12 2013  13 44  -21.0314 26076.2 -03500.7 -07.6462 26310.1
 05 12 2013  13 45  -21.0315 26076.4 -03500.6 -07.6459 26310.3
 05 12 2013  13 46  -21.0316 26076.4 -03500.4 -07.6454 26310.3
 05 12 2013  13 47  -21.0277 26076.4 -03500.5 -07.6456 26310.3
 05 12 2013  13 48  -21.0272 26076.1 -03500.2 -07.6450 26310.0
 05 12 2013  13 49  -21.0267 26075.7 -03499.8 -07.6444 26309.6
 05 12 2013  13 50  -21.0261 26075.5 -03499.6 -07.6439 26309.3
 05 12 2013  13 51  -21.0254 26075.2 -03499.3 -07.6435 26309.0
 05 12 2013  13 52  -21.0246 26074.9 -03499.1 -07.6432 26308.6
 05 12 2013  13 53  -21.0240 26074.6 -03499.0 -07.6429 26308.3
 05 12 2013  13 54  -21.0234 26074.5 -03498.9 -07.6427 26308.2
 05 12 2013  13 55  -21.0229 26074.4 -03498.8 -07.6426 26308.1
 05 12 2013  13 56  -21.0225 26074.5 -03498.8 -07.6425 26308.2
 05 12 2013  13 57  -21.0220 26074.5 -03498.7 -07.6423 26308.2
 05 12 2013  13 58  -21.0214 26074.4 -03498.5 -07.6420 26308.1
 05 12 2013  13 59  -21.0208 26074.4 -03498.4 -07.6418 26308.0
 05 12 2013  14 00  -21.0201 26074.4 -03498.4 -07.6416 26308.1
 05 12 2013  14 01  -21.0193 26074.7 -03498.3 -07.6415 26308.3
 05 12 2013  14 02  -21.0173 26074.9 -03498.3 -07.6413 26308.6
 05 12 2013  14 03  -21.0156 26075.0 -03498.2 -07.6410 26308.6
 05 12 2013  14 04  -21.0145 26075.0 -03498.1 -07.6409 26308.6
 05 12 2013  14 05  -21.0134 26075.1 -03498.0 -07.6408 26308.7
 05 12 2013  14 06  -21.0125 26075.2 -03498.0 -07.6407 26308.8
 05 12 2013  14 07  -21.0115 26075.5 -03498.1 -07.6408 26309.1
 05 12 2013  14 08  -21.0105 26075.6 -03498.1 -07.6407 26309.2
 05 12 2013  14 09  -21.0097 26076.0 -03498.2 -07.6408 26309.6
 05 12 2013  14 10  -21.0090 26076.3 -03498.3 -07.6409 26309.9
 05 12 2013  14 11  -21.0086 26076.8 -03498.4 -07.6409 26310.4
 05 12 2013  14 12  -21.0080 26077.3 -03498.4 -07.6410 26310.9
 05 12 2013  14 13  -21.0075 26077.5 -03498.3 -07.6407 26311.1
 05 12 2013  14 14  -21.0071 26077.8 -03498.4 -07.6407 26311.4
 05 12 2013  14 15  -21.0067 26078.2 -03498.4 -07.6405 26311.8
 05 12 2013  14 16  -21.0060 26078.4 -03498.3 -07.6405 26312.0
 05 12 2013  14 17  -21.0052 26078.5 -03498.3 -07.6402 26312.1
 05 12 2013  14 18  -21.0041 26078.3 -03498.1 -07.6399 26311.9
 05 12 2013  14 19  -21.0034 26077.9 -03498.0 -07.6398 26311.4
 05 12 2013  14 20  -21.0028 26077.5 -03497.9 -07.6398 26311.1
 05 12 2013  14 21  -21.0016 26077.4 -03497.9 -07.6398 26310.9
 05 12 2013  14 22  -21.0009 26077.3 -03497.9 -07.6399 26310.8
 05 12 2013  14 23  -21.0006 26077.2 -03498.0 -07.6400 26310.8
 05 12 2013  14 24  -21.0004 26077.1 -03498.0 -07.6401 26310.7
 05 12 2013  14 25  -20.9998 26077.0 -03498.0 -07.6401 26310.6
 05 12 2013  14 26  -20.9992 26076.9 -03498.0 -07.6402 26310.5
 05 12 2013  14 27  -20.9984 26076.6 -03498.1 -07.6403 26310.1
 05 12 2013  14 28  -20.9978 26076.4 -03498.1 -07.6404 26310.0
 05 12 2013  14 29  -20.9970 26076.3 -03498.1 -07.6404 26309.9
 05 12 2013  14 30  -20.9962 26076.1 -03498.1 -07.6405 26309.7
 05 12 2013  14 31  -20.9952 26075.7 -03497.8 -07.6402 26309.2
 05 12 2013  14 32  -20.9942 26075.5 -03497.8 -07.6401 26309.0
 05 12 2013  14 33  -20.9935 26075.3 -03497.8 -07.6401 26308.9
 05 12 2013  14 34  -20.9927 26075.2 -03497.8 -07.6401 26308.7
 05 12 2013  14 35  -20.9919 26075.1 -03497.8 -07.6402 26308.7
 05 12 2013  14 36  -20.9912 26075.3 -03498.0 -07.6405 26308.9
 05 12 2013  14 37  -20.9903 26075.3 -03497.9 -07.6404 26308.9
 05 12 2013  14 38  -20.9917 26075.9 -03497.7 -07.6398 26309.4
 05 12 2013  14 39  -20.9905 26076.1 -03497.8 -07.6399 26309.6
 05 12 2013  14 40  -20.9895 26076.4 -03497.9 -07.6400 26309.9
 05 12 2013  14 41  -20.9875 26076.6 -03497.9 -07.6401 26310.1
 05 12 2013  14 42  -20.9855 26076.7 -03498.4 -07.6410 26310.3
 05 12 2013  14 43  -20.9846 26077.0 -03498.5 -07.6411 26310.7
 05 12 2013  14 44  -20.9836 26077.2 -03498.5 -07.6411 26310.8
 05 12 2013  14 45  -20.9827 26077.3 -03498.5 -07.6411 26310.9
 05 12 2013  14 46  -20.9819 26077.2 -03498.4 -07.6409 26310.8
 05 12 2013  14 47  -20.9812 26077.2 -03498.4 -07.6409 26310.8
 05 12 2013  14 48  -20.9802 26077.0 -03498.3 -07.6408 26310.6
 05 12 2013  14 49  -20.9795 26076.8 -03498.3 -07.6408 26310.4
 05 12 2013  14 50  -20.9789 26076.7 -03498.3 -07.6408 26310.3
 05 12 2013  14 51  -20.9780 26076.5 -03498.2 -07.6407 26310.1
 05 12 2013  14 52  -20.9773 26076.2 -03498.2 -07.6407 26309.8
 05 12 2013  14 53  -20.9767 26076.1 -03498.2 -07.6408 26309.7
 05 12 2013  14 54  -20.9761 26076.2 -03498.3 -07.6410 26309.8
 05 12 2013  14 55  -20.9757 26076.3 -03498.3 -07.6411 26309.9
 05 12 2013  14 56  -20.9755 26076.5 -03498.4 -07.6412 26310.1
 05 12 2013  14 57  -20.9751 26076.8 -03498.5 -07.6413 26310.4
 05 12 2013  14 58  -20.9748 26077.1 -03498.5 -07.6412 26310.7
 05 12 2013  14 59  -20.9745 26077.1 -03498.4 -07.6409 26310.7
 05 12 2013  15 00  -20.9741 26077.0 -03498.3 -07.6407 26310.6
 05 12 2013  15 01  -20.9734 26077.0 -03498.3 -07.6407 26310.6
 05 12 2013  15 02  -20.9731 26077.1 -03498.3 -07.6408 26310.7
 05 12 2013  15 03  -20.9727 26077.3 -03498.4 -07.6409 26310.9
 05 12 2013  15 04  -20.9721 26077.2 -03498.4 -07.6408 26310.8
 05 12 2013  15 05  -20.9715 26077.1 -03498.3 -07.6408 26310.7
 05 12 2013  15 06  -20.9709 26076.7 -03498.2 -07.6407 26310.3
 05 12 2013  15 07  -20.9703 26076.3 -03498.1 -07.6406 26309.9
 05 12 2013  15 08  -20.9699 26076.0 -03498.1 -07.6406 26309.6
 05 12 2013  15 09  -20.9696 26076.0 -03498.1 -07.6407 26309.6
 05 12 2013  15 10  -20.9695 26075.9 -03498.2 -07.6408 26309.5
 05 12 2013  15 11  -20.9696 26076.0 -03498.2 -07.6408 26309.6
 05 12 2013  15 12  -20.9696 26076.1 -03498.2 -07.6408 26309.7
 05 12 2013  15 13  -20.9696 26076.2 -03498.2 -07.6407 26309.8
 05 12 2013  15 14  -20.9697 26076.3 -03498.1 -07.6405 26309.9
 05 12 2013  15 15  -20.9698 26076.3 -03497.9 -07.6401 26309.8
 05 12 2013  15 16  -20.9702 26076.5 -03497.9 -07.6400 26310.1
 05 12 2013  15 17  -20.9704 26076.7 -03497.8 -07.6397 26310.2
 05 12 2013  15 18  -20.9702 26076.6 -03497.6 -07.6392 26310.1
 05 12 2013  15 19  -20.9699 26076.4 -03497.4 -07.6389 26309.9
 05 12 2013  15 20  -20.9698 26076.1 -03497.2 -07.6386 26309.6
 05 12 2013  15 21  -20.9697 26076.0 -03497.1 -07.6384 26309.4
 05 12 2013  15 22  -20.9694 26075.8 -03497.0 -07.6382 26309.3
 05 12 2013  15 23  -20.9698 26075.8 -03496.9 -07.6381 26309.2
 05 12 2013  15 24  -20.9698 26075.9 -03496.9 -07.6381 26309.3
 05 12 2013  15 25  -20.9695 26075.6 -03496.7 -07.6377 26309.0
 05 12 2013  15 26  -20.9689 26075.4 -03496.6 -07.6376 26308.8
 05 12 2013  15 27  -20.9683 26075.0 -03496.4 -07.6373 26308.4
 05 12 2013  15 28  -20.9678 26074.6 -03496.3 -07.6371 26308.0
 05 12 2013  15 29  -20.9674 26074.2 -03496.2 -07.6371 26307.6
 05 12 2013  15 30  -20.9677 26074.0 -03496.3 -07.6373 26307.4
 05 12 2013  15 31  -20.9675 26073.8 -03496.3 -07.6375 26307.1
 05 12 2013  15 32  -20.9674 26073.4 -03496.3 -07.6375 26306.7
 05 12 2013  15 33  -20.9671 26073.0 -03496.3 -07.6376 26306.4
 05 12 2013  15 34  -20.9672 26072.6 -03496.4 -07.6380 26306.0
 05 12 2013  15 35  -20.9670 26072.1 -03496.4 -07.6381 26305.5
 05 12 2013  15 36  -20.9673 26071.8 -03496.6 -07.6387 26305.2
 05 12 2013  15 37  -20.9676 26071.8 -03496.9 -07.6392 26305.3
 05 12 2013  15 38  -20.9676 26071.6 -03497.0 -07.6395 26305.1
 05 12 2013  15 39  -20.9680 26071.4 -03497.2 -07.6401 26305.0
 05 12 2013  15 40  -20.9682 26071.3 -03497.4 -07.6405 26304.8
 05 12 2013  15 41  -20.9684 26071.0 -03497.5 -07.6408 26304.6
 05 12 2013  15 42  -20.9688 26070.8 -03497.7 -07.6413 26304.4
 05 12 2013  15 43  -20.9694 26070.7 -03498.0 -07.6418 26304.3
 05 12 2013  15 44  -20.9700 26070.6 -03498.2 -07.6423 26304.2
 05 12 2013  15 45  -20.9709 26070.4 -03498.4 -07.6428 26304.1
 05 12 2013  15 46  -20.9714 26070.3 -03498.6 -07.6434 26304.0
 05 12 2013  15 47  -20.9726 26070.3 -03498.8 -07.6439 26304.0
 05 12 2013  15 48  -20.9733 26070.0 -03498.9 -07.6441 26303.8
 05 12 2013  15 49  -20.9743 26070.0 -03499.2 -07.6446 26303.8
 05 12 2013  15 50  -20.9749 26069.9 -03499.3 -07.6450 26303.7
 05 12 2013  15 51  -20.9761 26069.8 -03499.5 -07.6455 26303.6
 05 12 2013  15 52  -20.9765 26069.5 -03499.6 -07.6457 26303.4
 05 12 2013  15 53  -20.9776 26069.5 -03499.8 -07.6461 26303.4
 05 12 2013  15 54  -20.9780 26069.1 -03499.8 -07.6462 26303.0
 05 12 2013  15 55  -20.9788 26069.1 -03500.0 -07.6466 26303.0
 05 12 2013  15 56  -20.9799 26069.0 -03500.1 -07.6469 26302.9
 05 12 2013  15 57  -20.9812 26069.1 -03500.3 -07.6474 26303.0
 05 12 2013  15 58  -20.9821 26068.9 -03500.3 -07.6474 26302.9
 05 12 2013  15 59  -20.9832 26068.8 -03500.4 -07.6476 26302.7
 05 12 2013  16 00  -20.9841 26068.8 -03500.5 -07.6478 26302.8
 05 12 2013  16 01  -20.9851 26068.5 -03500.4 -07.6478 26302.4
 05 12 2013  16 02  -20.9861 26068.4 -03500.5 -07.6480 26302.4
 05 12 2013  16 03  -20.9869 26068.3 -03500.5 -07.6480 26302.2
 05 12 2013  16 04  -20.9874 26068.2 -03500.5 -07.6481 26302.2
 05 12 2013  16 05  -20.9880 26068.5 -03500.6 -07.6481 26302.4
 05 12 2013  16 06  -20.9887 26068.3 -03500.5 -07.6479 26302.3
 05 12 2013  16 07  -20.9893 26068.4 -03500.5 -07.6479 26302.3
 05 12 2013  16 08  -20.9899 26067.7 -03500.1 -07.6474 26301.7
 05 12 2013  16 09  -20.9905 26067.3 -03500.0 -07.6473 26301.3
 05 12 2013  16 10  -20.9910 26066.8 -03499.9 -07.6471 26300.7
 05 12 2013  16 11  -20.9914 26066.9 -03500.0 -07.6473 26300.8
 05 12 2013  16 12  -20.9920 26066.6 -03499.9 -07.6473 26300.6
 05 12 2013  16 13  -20.9924 26066.4 -03499.9 -07.6472 26300.4
 05 12 2013  16 14  -20.9928 26066.5 -03500.0 -07.6476 26300.4
 05 12 2013  16 15  -20.9933 26066.5 -03500.1 -07.6477 26300.5
 05 12 2013  16 16  -20.9936 26066.5 -03500.2 -07.6478 26300.5
 05 12 2013  16 17  -20.9940 26066.6 -03500.3 -07.6481 26300.6
 05 12 2013  16 18  -20.9943 26066.6 -03500.4 -07.6483 26300.6
 05 12 2013  16 19  -20.9949 26066.6 -03500.4 -07.6484 26300.6
 05 12 2013  16 20  -20.9952 26066.6 -03500.6 -07.6486 26300.6
 05 12 2013  16 21  -20.9957 26066.5 -03500.6 -07.6487 26300.5
 05 12 2013  16 22  -20.9962 26066.4 -03500.6 -07.6488 26300.4
 05 12 2013  16 23  -20.9966 26066.3 -03500.7 -07.6490 26300.3
 05 12 2013  16 24  -20.9970 26066.0 -03500.7 -07.6491 26300.1
 05 12 2013  16 25  -20.9974 26065.7 -03500.7 -07.6492 26299.8
 05 12 2013  16 26  -20.9979 26065.4 -03500.7 -07.6493 26299.5
 05 12 2013  16 27  -20.9987 26065.2 -03500.8 -07.6495 26299.3
 05 12 2013  16 28  -20.9993 26064.9 -03500.8 -07.6497 26299.0
 05 12 2013  16 29  -20.9998 26064.7 -03500.9 -07.6498 26298.8
 05 12 2013  16 30  -21.0004 26064.4 -03500.8 -07.6499 26298.5
 05 12 2013  16 31  -21.0007 26064.1 -03500.8 -07.6499 26298.1
 05 12 2013  16 32  -21.0014 26063.9 -03500.9 -07.6502 26297.9
 05 12 2013  16 33  -21.0017 26063.6 -03500.9 -07.6502 26297.7
 05 12 2013  16 34  -21.0024 26063.4 -03500.8 -07.6502 26297.4
 05 12 2013  16 35  -21.0030 26063.2 -03500.8 -07.6502 26297.2
 05 12 2013  16 36  -21.0039 26063.1 -03500.9 -07.6504 26297.2
 05 12 2013  16 37  -21.0043 26062.9 -03500.8 -07.6501 26297.0
 05 12 2013  16 38  -21.0051 26062.8 -03500.7 -07.6500 26296.8
 05 12 2013  16 39  -21.0054 26062.4 -03500.5 -07.6497 26296.4
 05 12 2013  16 40  -21.0057 26062.4 -03500.4 -07.6496 26296.4
 05 12 2013  16 41  -21.0060 26062.3 -03500.4 -07.6495 26296.3
 05 12 2013  16 42  -21.0063 26062.0 -03500.2 -07.6493 26296.0
 05 12 2013  16 43  -21.0069 26062.2 -03500.3 -07.6493 26296.2
 05 12 2013  16 44  -21.0073 26062.3 -03500.3 -07.6493 26296.3
 05 12 2013  16 45  -21.0078 26062.5 -03500.3 -07.6493 26296.5
 05 12 2013  16 46  -21.0089 26062.5 -03500.3 -07.6493 26296.5
 05 12 2013  16 47  -21.0097 26062.8 -03500.3 -07.6493 26296.8
 05 12 2013  16 48  -21.0108 26063.3 -03500.4 -07.6493 26297.3
 05 12 2013  16 49  -21.0121 26063.5 -03500.4 -07.6492 26297.5
 05 12 2013  16 50  -21.0132 26063.7 -03500.3 -07.6490 26297.7
 05 12 2013  16 51  -21.0142 26064.0 -03500.2 -07.6486 26298.0
 05 12 2013  16 52  -21.0147 26064.2 -03500.0 -07.6481 26298.1
 05 12 2013  16 53  -21.0153 26064.1 -03499.7 -07.6475 26298.0
 05 12 2013  16 54  -21.0159 26063.9 -03499.4 -07.6470 26297.8
 05 12 2013  16 55  -21.0163 26063.6 -03499.1 -07.6464 26297.4
 05 12 2013  16 56  -21.0168 26063.0 -03498.8 -07.6459 26296.7
 05 12 2013  16 57  -21.0172 26062.4 -03498.5 -07.6455 26296.2
 05 12 2013  16 58  -21.0178 26062.1 -03498.4 -07.6452 26295.8
 05 12 2013  16 59  -21.0180 26061.7 -03498.2 -07.6450 26295.4
 05 12 2013  17 00  -21.0189 26061.5 -03498.2 -07.6450 26295.2
 05 12 2013  17 01  -21.0197 26061.4 -03498.1 -07.6449 26295.1
 05 12 2013  17 02  -21.0204 26061.2 -03498.1 -07.6449 26294.9
 05 12 2013  17 03  -21.0211 26061.2 -03498.0 -07.6447 26294.9
 05 12 2013  17 04  -21.0218 26061.2 -03498.0 -07.6446 26294.9
 05 12 2013  17 05  -21.0225 26061.2 -03497.8 -07.6443 26294.8
 05 12 2013  17 06  -21.0232 26061.2 -03497.8 -07.6442 26294.9
 05 12 2013  17 07  -21.0236 26061.1 -03497.6 -07.6437 26294.7
 05 12 2013  17 08  -21.0238 26060.9 -03497.4 -07.6434 26294.5
 05 12 2013  17 09  -21.0242 26060.7 -03497.2 -07.6431 26294.3
 05 12 2013  17 10  -21.0244 26060.5 -03497.1 -07.6429 26294.1
 05 12 2013  17 11  -21.0249 26060.5 -03496.9 -07.6426 26294.0
 05 12 2013  17 12  -21.0253 26060.5 -03496.8 -07.6424 26294.1
 05 12 2013  17 13  -21.0256 26060.5 -03496.7 -07.6421 26294.0
 05 12 2013  17 14  -21.0256 26060.3 -03496.5 -07.6417 26293.8
 05 12 2013  17 15  -21.0256 26060.3 -03496.5 -07.6416 26293.8
 05 12 2013  17 16  -21.0257 26060.1 -03496.3 -07.6413 26293.6
 05 12 2013  17 17  -21.0255 26060.0 -03496.2 -07.6411 26293.5
 05 12 2013  17 18  -21.0254 26060.0 -03496.2 -07.6412 26293.5
 05 12 2013  17 19  -21.0254 26060.0 -03496.2 -07.6412 26293.4
 05 12 2013  17 20  -21.0253 26059.9 -03496.1 -07.6410 26293.4
 05 12 2013  17 21  -21.0252 26060.0 -03496.2 -07.6410 26293.4
 05 12 2013  17 22  -21.0251 26060.0 -03496.2 -07.6411 26293.5
 05 12 2013  17 23  -21.0251 26060.0 -03496.2 -07.6411 26293.5
 05 12 2013  17 24  -21.0250 26060.1 -03496.2 -07.6410 26293.5
 05 12 2013  17 25  -21.0249 26060.2 -03496.2 -07.6410 26293.7
 05 12 2013  17 26  -21.0249 26060.2 -03496.1 -07.6410 26293.6
 05 12 2013  17 27  -21.0248 26060.0 -03496.1 -07.6409 26293.5
 05 12 2013  17 28  -21.0252 26060.0 -03496.0 -07.6408 26293.5
 05 12 2013  17 29  -21.0251 26059.9 -03495.9 -07.6405 26293.3
 05 12 2013  17 30  -21.0252 26059.9 -03495.9 -07.6406 26293.3
 05 12 2013  17 31  -21.0251 26059.8 -03495.9 -07.6405 26293.3
 05 12 2013  17 32  -21.0251 26059.8 -03495.8 -07.6404 26293.2
 05 12 2013  17 33  -21.0251 26059.8 -03495.8 -07.6404 26293.3
 05 12 2013  17 34  -21.0253 26060.0 -03495.9 -07.6404 26293.4
 05 12 2013  17 35  -21.0255 26060.1 -03495.9 -07.6404 26293.5
 05 12 2013  17 36  -21.0257 26060.2 -03495.8 -07.6403 26293.6
 05 12 2013  17 37  -21.0257 26060.4 -03495.8 -07.6402 26293.8
 05 12 2013  17 38  -21.0254 26060.1 -03495.6 -07.6399 26293.5
 05 12 2013  17 39  -21.0248 26059.5 -03495.3 -07.6394 26292.8
 05 12 2013  17 40  -21.0250 26059.3 -03495.2 -07.6392 26292.6
 05 12 2013  17 41  -21.0248 26059.0 -03495.1 -07.6390 26292.3
 05 12 2013  17 42  -21.0247 26058.6 -03495.0 -07.6389 26291.9
 05 12 2013  17 43  -21.0250 26058.2 -03494.8 -07.6387 26291.5
 05 12 2013  17 44  -21.0251 26057.7 -03494.7 -07.6385 26291.0
 05 12 2013  17 45  -21.0251 26057.3 -03494.6 -07.6384 26290.6
 05 12 2013  17 46  -21.0250 26056.8 -03494.5 -07.6384 26290.1
 05 12 2013  17 47  -21.0243 26056.1 -03494.4 -07.6383 26289.4
 05 12 2013  17 48  -21.0238 26055.7 -03494.4 -07.6386 26289.0
 05 12 2013  17 49  -21.0230 26055.0 -03494.4 -07.6386 26288.2
 05 12 2013  17 50  -21.0225 26054.4 -03494.5 -07.6391 26287.7
 05 12 2013  17 51  -21.0221 26054.2 -03494.7 -07.6396 26287.5
 05 12 2013  17 52  -21.0216 26053.9 -03494.9 -07.6400 26287.2
 05 12 2013  17 53  -21.0210 26053.7 -03495.1 -07.6405 26287.1
 05 12 2013  17 54  -21.0204 26053.6 -03495.3 -07.6410 26287.0
 05 12 2013  17 55  -21.0198 26053.7 -03495.6 -07.6416 26287.1
 05 12 2013  17 56  -21.0193 26053.6 -03495.8 -07.6422 26287.1
 05 12 2013  17 57  -21.0187 26053.7 -03496.1 -07.6428 26287.2
 05 12 2013  17 58  -21.0183 26053.9 -03496.5 -07.6435 26287.5
 05 12 2013  17 59  -21.0181 26054.1 -03496.8 -07.6441 26287.7
 05 12 2013  18 00  -21.0179 26054.2 -03497.0 -07.6446 26287.9
 05 12 2013  18 01  -21.0179 26054.3 -03497.2 -07.6449 26288.0
 05 12 2013  18 02  -21.0179 26054.2 -03497.3 -07.6451 26287.9
 05 12 2013  18 03  -21.0181 26054.0 -03497.3 -07.6453 26287.7
 05 12 2013  18 04  -21.0185 26053.7 -03497.3 -07.6453 26287.4
 05 12 2013  18 05  -21.0190 26053.5 -03497.3 -07.6454 26287.2
 05 12 2013  18 06  -21.0202 26053.1 -03497.2 -07.6453 26286.8
 05 12 2013  18 07  -21.0224 26052.5 -03497.1 -07.6454 26286.2
 05 12 2013  18 08  -21.0216 26052.2 -03497.1 -07.6454 26285.9
 05 12 2013  18 09  -21.0215 26052.0 -03497.2 -07.6455 26285.7
 05 12 2013  18 10  -21.0214 26051.8 -03497.3 -07.6458 26285.5
 05 12 2013  18 11  -21.0213 26051.6 -03497.4 -07.6461 26285.3
 05 12 2013  18 12  -21.0212 26051.5 -03497.4 -07.6462 26285.2
 05 12 2013  18 13  -21.0209 26051.3 -03497.5 -07.6465 26285.1
 05 12 2013  18 14  -21.0206 26051.1 -03497.6 -07.6466 26284.9
 05 12 2013  18 15  -21.0203 26051.0 -03497.6 -07.6469 26284.7
 05 12 2013  18 16  -21.0199 26050.8 -03497.7 -07.6470 26284.6
 05 12 2013  18 17  -21.0197 26050.7 -03497.8 -07.6474 26284.5
 05 12 2013  18 18  -21.0192 26050.4 -03497.9 -07.6476 26284.2
 05 12 2013  18 19  -21.0197 26050.1 -03498.1 -07.6480 26284.0
 05 12 2013  18 20  -21.0183 26050.1 -03498.2 -07.6483 26283.9
 05 12 2013  18 21  -21.0180 26049.9 -03498.4 -07.6488 26283.8
 05 12 2013  18 22  -21.0177 26049.8 -03498.6 -07.6492 26283.7
 05 12 2013  18 23  -21.0172 26049.7 -03498.8 -07.6496 26283.6
 05 12 2013  18 24  -21.0168 26049.6 -03498.9 -07.6501 26283.5
 05 12 2013  18 25  -21.0162 26049.4 -03499.1 -07.6505 26283.4
 05 12 2013  18 26  -21.0158 26049.3 -03499.3 -07.6509 26283.3
 05 12 2013  18 27  -21.0156 26049.2 -03499.4 -07.6512 26283.2
 05 12 2013  18 28  -21.0154 26049.0 -03499.5 -07.6515 26283.0
 05 12 2013  18 29  -21.0154 26048.9 -03499.7 -07.6519 26282.9
 05 12 2013  18 30  -21.0152 26048.8 -03499.8 -07.6522 26282.9
 05 12 2013  18 31  -21.0150 26048.7 -03500.0 -07.6525 26282.7
 05 12 2013  18 32  -21.0149 26048.5 -03500.1 -07.6528 26282.6
 05 12 2013  18 33  -21.0148 26048.3 -03500.2 -07.6531 26282.5
 05 12 2013  18 34  -21.0148 26048.1 -03500.3 -07.6535 26282.3
 05 12 2013  18 35  -21.0149 26048.1 -03500.5 -07.6539 26282.2
 05 12 2013  18 36  -21.0147 26047.9 -03500.6 -07.6542 26282.0
 05 12 2013  18 37  -21.0147 26047.6 -03500.7 -07.6545 26281.8
 05 12 2013  18 38  -21.0148 26047.4 -03500.8 -07.6548 26281.6
 05 12 2013  18 39  -21.0145 26047.1 -03501.0 -07.6551 26281.3
 05 12 2013  18 40  -21.0143 26046.8 -03501.1 -07.6555 26281.1
 05 12 2013  18 41  -21.0142 26046.6 -03501.2 -07.6559 26280.9
 05 12 2013  18 42  -21.0142 26046.4 -03501.4 -07.6563 26280.7
 05 12 2013  18 43  -21.0143 26046.2 -03501.6 -07.6567 26280.5
 05 12 2013  18 44  -21.0128 26046.2 -03501.9 -07.6574 26280.6
 05 12 2013  18 45  -21.0123 26046.0 -03502.0 -07.6578 26280.4
 05 12 2013  18 46  -21.0121 26045.7 -03502.1 -07.6581 26280.1
 05 12 2013  18 47  -21.0117 26045.4 -03502.3 -07.6585 26279.8
 05 12 2013  18 48  -21.0116 26045.1 -03502.4 -07.6589 26279.6
 05 12 2013  18 49  -21.0115 26044.8 -03502.6 -07.6593 26279.3
 05 12 2013  18 50  -21.0114 26044.7 -03502.8 -07.6598 26279.2
 05 12 2013  18 51  -21.0116 26044.5 -03502.9 -07.6602 26279.0
 05 12 2013  18 52  -21.0113 26044.2 -03503.1 -07.6605 26278.7
 05 12 2013  18 53  -21.0110 26043.8 -03503.2 -07.6609 26278.4
 05 12 2013  18 54  -21.0108 26043.4 -03503.3 -07.6613 26278.0
 05 12 2013  18 55  -21.0109 26043.0 -03503.4 -07.6616 26277.6
 05 12 2013  18 56  -21.0109 26042.8 -03503.5 -07.6620 26277.4
 05 12 2013  18 57  -21.0108 26042.7 -03503.8 -07.6625 26277.3
 05 12 2013  18 58  -21.0108 26042.5 -03504.0 -07.6630 26277.2
 05 12 2013  18 59  -21.0109 26042.3 -03504.1 -07.6634 26277.0
 05 12 2013  19 00  -21.0106 26042.1 -03504.2 -07.6637 26276.8
 05 12 2013  19 01  -21.0104 26041.9 -03504.5 -07.6642 26276.7
 05 12 2013  19 02  -21.0103 26041.7 -03504.7 -07.6647 26276.5
 05 12 2013  19 03  -21.0104 26041.6 -03504.9 -07.6652 26276.4
 05 12 2013  19 04  -21.0105 26041.3 -03505.0 -07.6656 26276.1
 05 12 2013  19 05  -21.0106 26041.2 -03505.3 -07.6663 26276.0
 05 12 2013  19 06  -21.0108 26041.1 -03505.6 -07.6668 26276.0
 05 12 2013  19 07  -21.0110 26040.8 -03505.7 -07.6672 26275.7
 05 12 2013  19 08  -21.0110 26040.7 -03505.9 -07.6677 26275.6
 05 12 2013  19 09  -21.0111 26040.5 -03506.1 -07.6682 26275.4
 05 12 2013  19 10  -21.0112 26040.3 -03506.3 -07.6687 26275.3
 05 12 2013  19 11  -21.0115 26040.2 -03506.5 -07.6692 26275.2
 05 12 2013  19 12  -21.0116 26039.8 -03506.7 -07.6696 26274.9
 05 12 2013  19 13  -21.0117 26039.6 -03506.9 -07.6701 26274.7
 05 12 2013  19 14  -21.0117 26039.6 -03507.1 -07.6706 26274.7
 05 12 2013  19 15  -21.0118 26039.4 -03507.2 -07.6710 26274.5
 05 12 2013  19 16  -21.0121 26039.2 -03507.4 -07.6714 26274.3
 05 12 2013  19 17  -21.0124 26039.0 -03507.6 -07.6718 26274.2
 05 12 2013  19 18  -21.0126 26038.8 -03507.7 -07.6721 26274.0
 05 12 2013  19 19  -21.0129 26038.6 -03507.9 -07.6726 26273.8
 05 12 2013  19 20  -21.0130 26038.4 -03508.0 -07.6729 26273.7
 05 12 2013  19 21  -21.0133 26038.3 -03508.1 -07.6732 26273.6
 05 12 2013  19 22  -21.0135 26038.2 -03508.3 -07.6735 26273.5
 05 12 2013  19 23  -21.0137 26038.1 -03508.4 -07.6738 26273.4
 05 12 2013  19 24  -21.0139 26037.9 -03508.5 -07.6741 26273.2
 05 12 2013  19 25  -21.0157 26037.6 -03508.6 -07.6744 26273.0
 05 12 2013  19 26  -21.0166 26037.3 -03508.7 -07.6747 26272.7
 05 12 2013  19 27  -21.0148 26037.3 -03508.7 -07.6747 26272.6
 05 12 2013  19 28  -21.0151 26037.0 -03508.7 -07.6748 26272.3
 05 12 2013  19 29  -21.0154 26036.7 -03508.7 -07.6749 26272.0
 05 12 2013  19 30  -21.0158 26036.4 -03508.7 -07.6750 26271.8
 05 12 2013  19 31  -21.0163 26036.2 -03508.7 -07.6751 26271.6
 05 12 2013  19 32  -21.0167 26036.0 -03508.7 -07.6752 26271.3
 05 12 2013  19 33  -21.0170 26035.7 -03508.7 -07.6752 26271.0
 05 12 2013  19 34  -21.0173 26035.5 -03508.7 -07.6753 26270.9
 05 12 2013  19 35  -21.0178 26035.2 -03508.7 -07.6754 26270.6
 05 12 2013  19 36  -21.0184 26035.0 -03508.7 -07.6755 26270.4
 05 12 2013  19 37  -21.0189 26034.8 -03508.8 -07.6756 26270.2
 05 12 2013  19 38  -21.0192 26034.7 -03508.8 -07.6757 26270.1
 05 12 2013  19 39  -21.0195 26034.6 -03508.9 -07.6759 26270.0
 05 12 2013  19 40  -21.0199 26034.4 -03508.9 -07.6760 26269.8
 05 12 2013  19 41  -21.0202 26034.2 -03509.0 -07.6762 26269.7
 05 12 2013  19 42  -21.0205 26034.1 -03509.0 -07.6763 26269.5
 05 12 2013  19 43  -21.0208 26034.0 -03509.1 -07.6765 26269.4
 05 12 2013  19 44  -21.0214 26034.0 -03509.2 -07.6767 26269.4
 05 12 2013  19 45  -21.0221 26033.9 -03509.2 -07.6768 26269.4
 05 12 2013  19 46  -21.0228 26033.8 -03509.3 -07.6770 26269.3
 05 12 2013  19 47  -21.0232 26033.7 -03509.2 -07.6770 26269.1
 05 12 2013  19 48  -21.0237 26033.3 -03509.2 -07.6770 26268.8
 05 12 2013  19 49  -21.0240 26032.9 -03509.1 -07.6770 26268.3
 05 12 2013  19 50  -21.0243 26032.6 -03509.1 -07.6770 26268.0
 05 12 2013  19 51  -21.0245 26032.3 -03509.1 -07.6771 26267.8
 05 12 2013  19 52  -21.0247 26032.1 -03509.2 -07.6772 26267.6
 05 12 2013  19 53  -21.0251 26031.9 -03509.2 -07.6774 26267.4
 05 12 2013  19 54  -21.0255 26031.8 -03509.3 -07.6775 26267.2
 05 12 2013  19 55  -21.0257 26031.5 -03509.3 -07.6776 26267.0
 05 12 2013  19 56  -21.0260 26031.3 -03509.3 -07.6777 26266.8
 05 12 2013  19 57  -21.0261 26031.1 -03509.3 -07.6778 26266.6
 05 12 2013  19 58  -21.0262 26030.9 -03509.3 -07.6779 26266.3
 05 12 2013  19 59  -21.0263 26030.6 -03509.3 -07.6779 26266.1
 05 12 2013  20 00  -21.0264 26030.4 -03509.2 -07.6779 26265.9
 05 12 2013  20 01  -21.0266 26030.3 -03509.3 -07.6780 26265.8
 05 12 2013  20 02  -21.0268 26030.1 -03509.3 -07.6781 26265.6
 05 12 2013  20 03  -21.0269 26029.8 -03509.2 -07.6781 26265.3
 05 12 2013  20 04  -21.0271 26029.6 -03509.2 -07.6781 26265.1
 05 12 2013  20 05  -21.0274 26029.4 -03509.2 -07.6781 26264.9
 05 12 2013  20 06  -21.0275 26029.2 -03509.2 -07.6782 26264.7
 05 12 2013  20 07  -21.0276 26029.1 -03509.2 -07.6782 26264.5
 05 12 2013  20 08  -21.0277 26028.9 -03509.2 -07.6783 26264.4
 05 12 2013  20 09  -21.0280 26028.8 -03509.2 -07.6783 26264.3
 05 12 2013  20 10  -21.0283 26028.7 -03509.3 -07.6785 26264.2
 05 12 2013  20 11  -21.0286 26028.4 -03509.2 -07.6784 26263.9
 05 12 2013  20 12  -21.0289 26028.3 -03509.3 -07.6786 26263.8
 05 12 2013  20 13  -21.0292 26028.0 -03509.2 -07.6786 26263.5
 05 12 2013  20 14  -21.0294 26027.7 -03509.2 -07.6785 26263.2
 05 12 2013  20 15  -21.0296 26027.4 -03509.1 -07.6784 26262.9
 05 12 2013  20 16  -21.0300 26027.2 -03509.1 -07.6786 26262.7
 05 12 2013  20 17  -21.0301 26027.1 -03509.1 -07.6786 26262.6
 05 12 2013  20 18  -21.0301 26026.9 -03509.1 -07.6786 26262.4
 05 12 2013  20 19  -21.0302 26026.6 -03509.0 -07.6786 26262.1
 05 12 2013  20 20  -21.0303 26026.4 -03509.0 -07.6787 26261.9
 05 12 2013  20 21  -21.0305 26026.3 -03509.1 -07.6787 26261.8
 05 12 2013  20 22  -21.0307 26026.1 -03509.1 -07.6788 26261.6
 05 12 2013  20 23  -21.0309 26025.9 -03509.0 -07.6788 26261.4
 05 12 2013  20 24  -21.0310 26025.8 -03509.0 -07.6788 26261.3
 05 12 2013  20 25  -21.0311 26025.7 -03509.0 -07.6788 26261.2
 05 12 2013  20 26  -21.0312 26025.7 -03509.1 -07.6790 26261.2
 05 12 2013  20 27  -21.0313 26025.7 -03509.1 -07.6791 26261.2
 05 12 2013  20 28  -21.0314 26025.6 -03509.2 -07.6792 26261.1
 05 12 2013  20 29  -21.0315 26025.5 -03509.2 -07.6792 26261.0
 05 12 2013  20 30  -21.0314 26025.4 -03509.2 -07.6793 26261.0
 05 12 2013  20 31  -21.0313 26025.4 -03509.2 -07.6793 26260.9
 05 12 2013  20 32  -21.0312 26025.4 -03509.3 -07.6795 26260.9
 05 12 2013  20 33  -21.0314 26025.3 -03509.3 -07.6796 26260.9
 05 12 2013  20 34  -21.0315 26025.3 -03509.4 -07.6797 26260.9
 05 12 2013  20 35  -21.0316 26025.3 -03509.4 -07.6798 26260.8
 05 12 2013  20 36  -21.0317 26025.3 -03509.4 -07.6798 26260.9
 05 12 2013  20 37  -21.0319 26025.3 -03509.5 -07.6800 26260.8
 05 12 2013  20 38  -21.0320 26025.2 -03509.5 -07.6800 26260.8
 05 12 2013  20 39  -21.0322 26025.2 -03509.6 -07.6801 26260.8
 05 12 2013  20 40  -21.0322 26025.2 -03509.5 -07.6800 26260.7
 05 12 2013  20 41  -21.0322 26025.1 -03509.5 -07.6799 26260.6
 05 12 2013  20 42  -21.0322 26025.1 -03509.5 -07.6800 26260.7
 05 12 2013  20 43  -21.0322 26025.0 -03509.5 -07.6800 26260.6
 05 12 2013  20 44  -21.0320 26024.9 -03509.4 -07.6799 26260.5
 05 12 2013  20 45  -21.0319 26024.8 -03509.4 -07.6799 26260.4
 05 12 2013  20 46  -21.0317 26024.7 -03509.3 -07.6798 26260.3
 05 12 2013  20 47  -21.0316 26024.6 -03509.3 -07.6797 26260.2
 05 12 2013  20 48  -21.0316 26024.5 -03509.3 -07.6797 26260.0
 05 12 2013  20 49  -21.0314 26024.5 -03509.3 -07.6797 26260.0
 05 12 2013  20 50  -21.0313 26024.3 -03509.2 -07.6796 26259.8
 05 12 2013  20 51  -21.0325 26024.2 -03509.1 -07.6795 26259.7
 05 12 2013  20 52  -21.0334 26024.0 -03509.2 -07.6798 26259.6
 05 12 2013  20 53  -21.0303 26023.9 -03509.2 -07.6797 26259.5
 05 12 2013  20 54  -21.0295 26023.9 -03509.2 -07.6798 26259.5
 05 12 2013  20 55  -21.0290 26023.9 -03509.3 -07.6800 26259.5
 05 12 2013  20 56  -21.0286 26023.8 -03509.4 -07.6801 26259.4
 05 12 2013  20 57  -21.0282 26023.8 -03509.5 -07.6803 26259.4
 05 12 2013  20 58  -21.0278 26023.8 -03509.5 -07.6805 26259.4
 05 12 2013  20 59  -21.0275 26023.8 -03509.7 -07.6808 26259.4
 05 12 2013  21 00  -21.0273 26023.8 -03509.8 -07.6810 26259.4
 05 12 2013  21 01  -21.0273 26023.7 -03509.9 -07.6813 26259.3
 05 12 2013  21 02  -21.0272 26023.6 -03509.9 -07.6814 26259.2
 05 12 2013  21 03  -21.0272 26023.5 -03510.0 -07.6816 26259.1
 05 12 2013  21 04  -21.0271 26023.4 -03510.1 -07.6818 26259.0
 05 12 2013  21 05  -21.0271 26023.3 -03510.1 -07.6819 26258.9
 05 12 2013  21 06  -21.0271 26023.1 -03510.2 -07.6820 26258.8
 05 12 2013  21 07  -21.0271 26023.1 -03510.2 -07.6821 26258.7
 05 12 2013  21 08  -21.0270 26022.9 -03510.2 -07.6821 26258.6
 05 12 2013  21 09  -21.0270 26022.8 -03510.1 -07.6821 26258.5
 05 12 2013  21 10  -21.0269 26022.8 -03510.1 -07.6821 26258.4
 05 12 2013  21 11  -21.0268 26022.8 -03510.1 -07.6820 26258.4
 05 12 2013  21 12  -21.0266 26022.6 -03510.0 -07.6818 26258.3
 05 12 2013  21 13  -21.0260 26022.6 -03510.0 -07.6819 26258.3
 05 12 2013  21 14  -21.0256 26022.6 -03510.0 -07.6819 26258.2
 05 12 2013  21 15  -21.0251 26022.5 -03510.0 -07.6818 26258.1
 05 12 2013  21 16  -21.0244 26022.6 -03510.0 -07.6819 26258.2
 05 12 2013  21 17  -21.0238 26022.5 -03510.1 -07.6820 26258.2
 05 12 2013  21 18  -21.0232 26022.5 -03510.1 -07.6821 26258.2
 05 12 2013  21 19  -21.0226 26022.5 -03510.1 -07.6821 26258.2
 05 12 2013  21 20  -21.0221 26022.5 -03510.2 -07.6823 26258.2
 05 12 2013  21 21  -21.0214 26022.4 -03510.2 -07.6824 26258.1
 05 12 2013  21 22  -21.0209 26022.4 -03510.3 -07.6826 26258.1
 05 12 2013  21 23  -21.0202 26022.4 -03510.4 -07.6827 26258.1
 05 12 2013  21 24  -21.0198 26022.4 -03510.5 -07.6830 26258.1
 05 12 2013  21 25  -21.0194 26022.5 -03510.6 -07.6832 26258.2
 05 12 2013  21 26  -21.0192 26022.4 -03510.7 -07.6834 26258.2
 05 12 2013  21 27  -21.0188 26022.5 -03510.8 -07.6837 26258.3
 05 12 2013  21 28  -21.0187 26022.3 -03510.9 -07.6839 26258.1
 05 12 2013  21 29  -21.0182 26022.4 -03511.0 -07.6840 26258.2
 05 12 2013  21 30  -21.0176 26022.4 -03511.1 -07.6842 26258.2
 05 12 2013  21 31  -21.0170 26022.3 -03511.1 -07.6844 26258.1
 05 12 2013  21 32  -21.0164 26022.3 -03511.2 -07.6846 26258.1
 05 12 2013  21 33  -21.0160 26022.2 -03511.3 -07.6848 26258.0
 05 12 2013  21 34  -21.0157 26022.1 -03511.4 -07.6850 26257.9
 05 12 2013  21 35  -21.0154 26021.9 -03511.5 -07.6852 26257.8
 05 12 2013  21 36  -21.0152 26021.8 -03511.5 -07.6854 26257.7
 05 12 2013  21 37  -21.0150 26021.7 -03511.6 -07.6855 26257.6
 05 12 2013  21 38  -21.0148 26021.7 -03511.7 -07.6857 26257.5
 05 12 2013  21 39  -21.0148 26021.5 -03511.7 -07.6859 26257.4
 05 12 2013  21 40  -21.0147 26021.4 -03511.8 -07.6860 26257.3
 05 12 2013  21 41  -21.0144 26021.2 -03511.8 -07.6860 26257.1
 05 12 2013  21 42  -21.0143 26021.1 -03511.9 -07.6863 26257.0
 05 12 2013  21 43  -21.0140 26021.1 -03511.9 -07.6864 26257.0
 05 12 2013  21 44  -21.0138 26021.0 -03512.0 -07.6866 26256.9
 05 12 2013  21 45  -21.0137 26020.9 -03512.0 -07.6867 26256.9
 05 12 2013  21 46  -21.0136 26020.9 -03512.1 -07.6870 26256.9
 05 12 2013  21 47  -21.0134 26020.9 -03512.2 -07.6871 26256.8
 05 12 2013  21 48  -21.0131 26021.0 -03512.3 -07.6873 26256.9
 05 12 2013  21 49  -21.0130 26020.9 -03512.4 -07.6874 26256.9
 05 12 2013  21 50  -21.0131 26021.0 -03512.5 -07.6877 26257.0
 05 12 2013  21 51  -21.0130 26021.0 -03512.6 -07.6879 26257.0
 05 12 2013  21 52  -21.0129 26021.0 -03512.6 -07.6880 26257.0
 05 12 2013  21 53  -21.0129 26020.9 -03512.7 -07.6881 26256.9
 05 12 2013  21 54  -21.0128 26020.9 -03512.8 -07.6883 26257.0
 05 12 2013  21 55  -21.0128 26020.9 -03512.8 -07.6884 26256.9
 05 12 2013  21 56  -21.0126 26021.0 -03512.9 -07.6885 26257.1
 05 12 2013  21 57  -21.0127 26021.0 -03513.0 -07.6887 26257.1
 05 12 2013  21 58  -21.0127 26021.0 -03513.0 -07.6889 26257.1
 05 12 2013  21 59  -21.0128 26021.0 -03513.1 -07.6891 26257.1
 05 12 2013  22 00  -21.0128 26021.0 -03513.1 -07.6891 26257.1
 05 12 2013  22 01  -21.0127 26021.0 -03513.2 -07.6892 26257.1
 05 12 2013  22 02  -21.0128 26020.9 -03513.2 -07.6893 26257.0
 05 12 2013  22 03  -21.0127 26020.8 -03513.2 -07.6893 26256.9
 05 12 2013  22 04  -21.0126 26021.0 -03513.4 -07.6896 26257.1
 05 12 2013  22 05  -21.0125 26021.0 -03513.4 -07.6897 26257.1
 05 12 2013  22 06  -21.0124 26021.1 -03513.5 -07.6898 26257.3
 05 12 2013  22 07  -21.0124 26021.1 -03513.6 -07.6900 26257.3
 05 12 2013  22 08  -21.0123 26021.2 -03513.6 -07.6901 26257.3
 05 12 2013  22 09  -21.0120 26021.3 -03513.7 -07.6902 26257.4
 05 12 2013  22 10  -21.0118 26021.2 -03513.7 -07.6902 26257.4
 05 12 2013  22 11  -21.0114 26021.4 -03513.8 -07.6904 26257.5
 05 12 2013  22 12  -21.0111 26021.2 -03513.8 -07.6904 26257.4
 05 12 2013  22 13  -21.0109 26021.2 -03513.8 -07.6904 26257.3
 05 12 2013  22 14  -21.0107 26021.3 -03513.9 -07.6906 26257.4
 05 12 2013  22 15  -21.0106 26021.2 -03513.9 -07.6906 26257.4
 05 12 2013  22 16  -21.0105 26021.2 -03513.9 -07.6908 26257.4
 05 12 2013  22 17  -21.0105 26021.2 -03514.0 -07.6908 26257.4
 05 12 2013  22 18  -21.0104 26021.2 -03514.0 -07.6909 26257.4
 05 12 2013  22 19  -21.0104 26021.1 -03514.0 -07.6909 26257.3
 05 12 2013  22 20  -21.0104 26021.1 -03514.1 -07.6910 26257.3
 05 12 2013  22 21  -21.0106 26021.0 -03514.1 -07.6911 26257.3
 05 12 2013  22 22  -21.0105 26021.1 -03514.1 -07.6911 26257.3
 05 12 2013  22 23  -21.0105 26021.2 -03514.2 -07.6913 26257.4
 05 12 2013  22 24  -21.0103 26021.2 -03514.2 -07.6913 26257.5
 05 12 2013  22 25  -21.0103 26021.4 -03514.3 -07.6914 26257.6
 05 12 2013  22 26  -21.0100 26021.5 -03514.4 -07.6916 26257.7
 05 12 2013  22 27  -21.0099 26021.7 -03514.4 -07.6917 26257.9
 05 12 2013  22 28  -21.0098 26021.9 -03514.6 -07.6919 26258.2
 05 12 2013  22 29  -21.0097 26022.1 -03514.7 -07.6921 26258.4
 05 12 2013  22 30  -21.0096 26022.3 -03514.8 -07.6922 26258.6
 05 12 2013  22 31  -21.0094 26022.6 -03514.9 -07.6925 26258.9
 05 12 2013  22 32  -21.0092 26022.9 -03515.1 -07.6927 26259.2
 05 12 2013  22 33  -21.0090 26023.1 -03515.2 -07.6929 26259.4
 05 12 2013  22 34  -21.0089 26023.2 -03515.2 -07.6929 26259.5
 05 12 2013  22 35  -21.0088 26023.3 -03515.3 -07.6930 26259.7
 05 12 2013  22 36  -21.0088 26023.4 -03515.3 -07.6931 26259.8
 05 12 2013  22 37  -21.0087 26023.4 -03515.3 -07.6930 26259.7
 05 12 2013  22 38  -21.0086 26023.3 -03515.2 -07.6929 26259.7
 05 12 2013  22 39  -21.0085 26023.3 -03515.2 -07.6928 26259.7
 05 12 2013  22 40  -21.0084 26023.3 -03515.2 -07.6928 26259.7
 05 12 2013  22 41  -21.0083 26023.3 -03515.1 -07.6927 26259.6
 05 12 2013  22 42  -21.0083 26023.2 -03515.1 -07.6926 26259.6
 05 12 2013  22 43  -21.0083 26023.2 -03515.1 -07.6926 26259.5
 05 12 2013  22 44  -21.0083 26023.2 -03515.0 -07.6926 26259.5
 05 12 2013  22 45  -21.0083 26023.1 -03515.0 -07.6925 26259.4
 05 12 2013  22 46  -21.0085 26023.1 -03515.0 -07.6926 26259.4
 05 12 2013  22 47  -21.0084 26023.1 -03515.0 -07.6925 26259.4
 05 12 2013  22 48  -21.0083 26023.2 -03515.0 -07.6925 26259.5
 05 12 2013  22 49  -21.0083 26023.1 -03515.0 -07.6924 26259.4
 05 12 2013  22 50  -21.0083 26023.1 -03514.9 -07.6924 26259.4
 05 12 2013  22 51  -21.0083 26023.1 -03514.9 -07.6923 26259.4
 05 12 2013  22 52  -21.0083 26023.1 -03514.9 -07.6924 26259.4
 05 12 2013  22 53  -21.0082 26023.0 -03514.9 -07.6923 26259.3
 05 12 2013  22 54  -21.0083 26023.0 -03514.9 -07.6923 26259.3
 05 12 2013  22 55  -21.0083 26023.0 -03514.8 -07.6922 26259.2
 05 12 2013  22 56  -21.0084 26023.0 -03514.8 -07.6922 26259.3
 05 12 2013  22 57  -21.0083 26022.9 -03514.8 -07.6922 26259.2
 05 12 2013  22 58  -21.0082 26022.9 -03514.8 -07.6921 26259.2
 05 12 2013  22 59  -21.0081 26022.9 -03514.8 -07.6920 26259.2
 05 12 2013  23 00  -21.0079 26022.9 -03514.7 -07.6920 26259.2
 05 12 2013  23 01  -21.0078 26022.9 -03514.8 -07.6920 26259.2
 05 12 2013  23 02  -21.0077 26022.8 -03514.7 -07.6920 26259.1
 05 12 2013  23 03  -21.0076 26022.8 -03514.7 -07.6919 26259.1
 05 12 2013  23 04  -21.0075 26022.8 -03514.7 -07.6920 26259.1
 05 12 2013  23 05  -21.0074 26022.7 -03514.7 -07.6919 26259.0
 05 12 2013  23 06  -21.0072 26022.6 -03514.6 -07.6918 26258.9
 05 12 2013  23 07  -21.0072 26022.6 -03514.6 -07.6918 26258.9
 05 12 2013  23 08  -21.0072 26022.6 -03514.6 -07.6917 26258.9
 05 12 2013  23 09  -21.0071 26022.6 -03514.6 -07.6917 26258.9
 05 12 2013  23 10  -21.0070 26022.6 -03514.6 -07.6917 26258.9
 05 12 2013  23 11  -21.0071 26022.7 -03514.6 -07.6918 26258.9
 05 12 2013  23 12  -21.0072 26022.6 -03514.6 -07.6918 26258.9
 05 12 2013  23 13  -21.0073 26022.7 -03514.6 -07.6918 26258.9
 05 12 2013  23 14  -21.0073 26022.7 -03514.6 -07.6918 26259.0
 05 12 2013  23 15  -21.0074 26022.8 -03514.6 -07.6918 26259.0
 05 12 2013  23 16  -21.0074 26022.8 -03514.6 -07.6918 26259.1
 05 12 2013  23 17  -21.0074 26022.8 -03514.6 -07.6917 26259.0
 05 12 2013  23 18  -21.0073 26022.8 -03514.6 -07.6916 26259.1
 05 12 2013  23 19  -21.0073 26022.9 -03514.6 -07.6916 26259.1
 05 12 2013  23 20  -21.0071 26022.9 -03514.6 -07.6916 26259.1
 05 12 2013  23 21  -21.0071 26022.9 -03514.5 -07.6916 26259.2
 05 12 2013  23 22  -21.0071 26023.0 -03514.5 -07.6915 26259.2
 05 12 2013  23 23  -21.0070 26023.0 -03514.5 -07.6915 26259.2
 05 12 2013  23 24  -21.0070 26023.1 -03514.5 -07.6914 26259.3
 05 12 2013  23 25  -21.0070 26023.0 -03514.5 -07.6914 26259.3
 05 12 2013  23 26  -21.0069 26023.1 -03514.5 -07.6913 26259.3
 05 12 2013  23 27  -21.0068 26023.2 -03514.5 -07.6914 26259.4
 05 12 2013  23 28  -21.0067 26023.2 -03514.4 -07.6912 26259.5
 05 12 2013  23 29  -21.0065 26023.3 -03514.4 -07.6911 26259.5
 05 12 2013  23 30  -21.0065 26023.3 -03514.4 -07.6911 26259.5
 05 12 2013  23 31  -21.0065 26023.4 -03514.4 -07.6911 26259.6
 05 12 2013  23 32  -21.0064 26023.4 -03514.3 -07.6909 26259.6
 05 12 2013  23 33  -21.0064 26023.3 -03514.2 -07.6908 26259.5
 05 12 2013  23 34  -21.0065 26023.3 -03514.2 -07.6907 26259.6
 05 12 2013  23 35  -21.0064 26023.3 -03514.2 -07.6906 26259.5
 05 12 2013  23 36  -21.0066 26023.3 -03514.1 -07.6906 26259.5
 05 12 2013  23 37  -21.0067 26023.3 -03514.1 -07.6905 26259.5
 05 12 2013  23 38  -21.0066 26023.4 -03514.1 -07.6905 26259.6
 05 12 2013  23 39  -21.0068 26023.4 -03514.1 -07.6904 26259.6
 05 12 2013  23 40  -21.0068 26023.5 -03514.1 -07.6904 26259.7
 05 12 2013  23 41  -21.0069 26023.5 -03514.0 -07.6903 26259.7
 05 12 2013  23 42  -21.0069 26023.7 -03514.1 -07.6903 26259.9
 05 12 2013  23 43  -21.0069 26023.7 -03514.1 -07.6903 26259.9
 05 12 2013  23 44  -21.0071 26023.8 -03514.1 -07.6903 26260.0
 05 12 2013  23 45  -21.0073 26023.9 -03514.1 -07.6903 26260.1
 05 12 2013  23 46  -21.0074 26023.9 -03514.1 -07.6903 26260.1
 05 12 2013  23 47  -21.0077 26023.9 -03514.1 -07.6902 26260.1
 05 12 2013  23 48  -21.0079 26023.9 -03514.0 -07.6902 26260.1
 05 12 2013  23 49  -21.0080 26023.9 -03514.0 -07.6902 26260.1
 05 12 2013  23 50  -21.0082 26023.9 -03514.0 -07.6901 26260.1
 05 12 2013  23 51  -21.0084 26023.9 -03514.0 -07.6901 26260.1
 05 12 2013  23 52  -21.0085 26023.9 -03514.0 -07.6901 26260.0
 05 12 2013  23 53  -21.0086 26023.8 -03514.0 -07.6901 26260.0
 05 12 2013  23 54  -21.0087 26023.9 -03514.0 -07.6901 26260.0
 05 12 2013  23 55  -21.0088 26023.9 -03514.0 -07.6902 26260.1
 05 12 2013  23 56  -21.0088 26023.9 -03514.1 -07.6903 26260.1
 05 12 2013  23 57  -21.0089 26023.9 -03514.1 -07.6903 26260.1
 05 12 2013  23 58  -21.0091 26023.9 -03514.1 -07.6903 26260.1
