SAO LUIS EMBRACE-03 <092> 1 Min. Reported data

 DD MM YYYY  HH MM   D(Deg)  H(nT)   Z(nT)   I(Deg)   F(nT)

 02 04 2013  00 00  -21.0510 26026.5 -03423.3 -07.4931 26250.7
 02 04 2013  00 01  -21.0510 26026.5 -03423.2 -07.4930 26250.6
 02 04 2013  00 02  -21.0510 26026.5 -03423.2 -07.4930 26250.6
 02 04 2013  00 03  -21.0509 26026.4 -03423.2 -07.4930 26250.6
 02 04 2013  00 04  -21.0509 26026.5 -03423.2 -07.4930 26250.6
 02 04 2013  00 05  -21.0507 26026.6 -03423.3 -07.4931 26250.8
 02 04 2013  00 06  -21.0506 26026.7 -03423.4 -07.4932 26250.9
 02 04 2013  00 07  -21.0505 26026.7 -03423.3 -07.4932 26250.8
 02 04 2013  00 08  -21.0505 26026.6 -03423.3 -07.4932 26250.7
 02 04 2013  00 09  -21.0506 26026.3 -03423.2 -07.4930 26250.5
 02 04 2013  00 10  -21.0506 26026.2 -03423.1 -07.4928 26250.3
 02 04 2013  00 11  -21.0506 26026.1 -03423.0 -07.4927 26250.2
 02 04 2013  00 12  -21.0506 26025.9 -03423.0 -07.4926 26250.1
 02 04 2013  00 13  -21.0506 26025.9 -03423.0 -07.4926 26250.0
 02 04 2013  00 14  -21.0506 26025.8 -03423.0 -07.4926 26249.9
 02 04 2013  00 15  -21.0506 26025.7 -03422.9 -07.4926 26249.8
 02 04 2013  00 16  -21.0508 26025.5 -03422.9 -07.4925 26249.7
 02 04 2013  00 17  -21.0509 26025.4 -03422.8 -07.4925 26249.5
 02 04 2013  00 18  -21.0509 26025.3 -03422.8 -07.4924 26249.4
 02 04 2013  00 19  -21.0508 26025.3 -03422.8 -07.4924 26249.4
 02 04 2013  00 20  -21.0508 26025.2 -03422.8 -07.4924 26249.3
 02 04 2013  00 21  -21.0507 26025.1 -03422.7 -07.4923 26249.2
 02 04 2013  00 22  -21.0507 26024.9 -03422.7 -07.4922 26249.0
 02 04 2013  00 23  -21.0508 26024.8 -03422.6 -07.4921 26248.9
 02 04 2013  00 24  -21.0507 26024.7 -03422.6 -07.4922 26248.8
 02 04 2013  00 25  -21.0507 26024.7 -03422.6 -07.4922 26248.8
 02 04 2013  00 26  -21.0506 26024.7 -03422.6 -07.4922 26248.8
 02 04 2013  00 27  -21.0506 26024.6 -03422.6 -07.4922 26248.7
 02 04 2013  00 28  -21.0505 26024.5 -03422.6 -07.4922 26248.6
 02 04 2013  00 29  -21.0504 26024.4 -03422.5 -07.4921 26248.4
 02 04 2013  00 30  -21.0504 26024.3 -03422.5 -07.4921 26248.4
 02 04 2013  00 31  -21.0504 26024.3 -03422.5 -07.4921 26248.4
 02 04 2013  00 32  -21.0502 26024.2 -03422.5 -07.4921 26248.3
 02 04 2013  00 33  -21.0502 26024.2 -03422.5 -07.4922 26248.3
 02 04 2013  00 34  -21.0502 26024.1 -03422.5 -07.4922 26248.2
 02 04 2013  00 35  -21.0503 26024.1 -03422.6 -07.4923 26248.2
 02 04 2013  00 36  -21.0503 26024.1 -03422.6 -07.4923 26248.2
 02 04 2013  00 37  -21.0504 26024.1 -03422.6 -07.4924 26248.2
 02 04 2013  00 38  -21.0504 26024.0 -03422.6 -07.4923 26248.1
 02 04 2013  00 39  -21.0504 26023.9 -03422.6 -07.4924 26248.0
 02 04 2013  00 40  -21.0504 26023.9 -03422.6 -07.4924 26248.0
 02 04 2013  00 41  -21.0504 26023.9 -03422.6 -07.4924 26248.0
 02 04 2013  00 42  -21.0504 26023.9 -03422.6 -07.4925 26248.0
 02 04 2013  00 43  -21.0504 26023.8 -03422.6 -07.4924 26247.9
 02 04 2013  00 44  -21.0503 26023.7 -03422.6 -07.4925 26247.8
 02 04 2013  00 45  -21.0502 26023.7 -03422.6 -07.4925 26247.8
 02 04 2013  00 46  -21.0501 26023.7 -03422.7 -07.4926 26247.8
 02 04 2013  00 47  -21.0501 26023.7 -03422.7 -07.4926 26247.8
 02 04 2013  00 48  -21.0500 26023.6 -03422.7 -07.4926 26247.7
 02 04 2013  00 49  -21.0499 26023.6 -03422.7 -07.4926 26247.7
 02 04 2013  00 50  -21.0498 26023.6 -03422.7 -07.4926 26247.7
 02 04 2013  00 51  -21.0497 26023.7 -03422.8 -07.4928 26247.8
 02 04 2013  00 52  -21.0498 26023.8 -03422.8 -07.4929 26247.9
 02 04 2013  00 53  -21.0496 26024.3 -03423.1 -07.4933 26248.4
 02 04 2013  00 54  -21.0497 26024.0 -03423.0 -07.4933 26248.2
 02 04 2013  00 55  -21.0495 26024.6 -03423.3 -07.4936 26248.8
 02 04 2013  00 56  -21.0494 26024.7 -03423.4 -07.4938 26248.9
 02 04 2013  00 57  -21.0493 26024.9 -03423.4 -07.4939 26249.1
 02 04 2013  00 58  -21.0491 26025.1 -03423.5 -07.4940 26249.3
 02 04 2013  00 59  -21.0490 26025.1 -03423.5 -07.4940 26249.3
 02 04 2013  01 00  -21.0487 26025.2 -03423.5 -07.4940 26249.4
 02 04 2013  01 01  -21.0487 26025.2 -03423.5 -07.4941 26249.4
 02 04 2013  01 02  -21.0487 26025.2 -03423.5 -07.4941 26249.4
 02 04 2013  01 03  -21.0487 26025.2 -03423.5 -07.4940 26249.4
 02 04 2013  01 04  -21.0487 26025.3 -03423.6 -07.4941 26249.5
 02 04 2013  01 05  -21.0487 26025.3 -03423.6 -07.4941 26249.5
 02 04 2013  01 06  -21.0487 26025.3 -03423.6 -07.4941 26249.5
 02 04 2013  01 07  -21.0488 26025.3 -03423.5 -07.4940 26249.5
 02 04 2013  01 08  -21.0487 26025.3 -03423.5 -07.4940 26249.5
 02 04 2013  01 09  -21.0486 26025.3 -03423.5 -07.4939 26249.5
 02 04 2013  01 10  -21.0485 26025.3 -03423.5 -07.4939 26249.5
 02 04 2013  01 11  -21.0486 26025.3 -03423.5 -07.4939 26249.5
 02 04 2013  01 12  -21.0486 26025.2 -03423.4 -07.4938 26249.4
 02 04 2013  01 13  -21.0487 26025.2 -03423.4 -07.4938 26249.4
 02 04 2013  01 14  -21.0487 26025.2 -03423.4 -07.4937 26249.4
 02 04 2013  01 15  -21.0488 26024.9 -03423.2 -07.4934 26249.1
 02 04 2013  01 16  -21.0487 26024.9 -03423.2 -07.4933 26249.0
 02 04 2013  01 17  -21.0488 26024.7 -03423.1 -07.4932 26248.8
 02 04 2013  01 18  -21.0488 26024.4 -03423.0 -07.4930 26248.6
 02 04 2013  01 19  -21.0487 26024.3 -03422.8 -07.4928 26248.4
 02 04 2013  01 20  -21.0486 26024.2 -03422.8 -07.4927 26248.3
 02 04 2013  01 21  -21.0486 26024.1 -03422.7 -07.4926 26248.2
 02 04 2013  01 22  -21.0486 26023.9 -03422.6 -07.4925 26248.0
 02 04 2013  01 23  -21.0486 26023.7 -03422.6 -07.4924 26247.8
 02 04 2013  01 24  -21.0485 26023.6 -03422.5 -07.4923 26247.7
 02 04 2013  01 25  -21.0485 26023.5 -03422.5 -07.4922 26247.6
 02 04 2013  01 26  -21.0485 26023.4 -03422.5 -07.4922 26247.5
 02 04 2013  01 27  -21.0485 26023.3 -03422.4 -07.4922 26247.4
 02 04 2013  01 28  -21.0487 26023.3 -03422.5 -07.4923 26247.4
 02 04 2013  01 29  -21.0489 26023.3 -03422.5 -07.4923 26247.4
 02 04 2013  01 30  -21.0489 26023.3 -03422.5 -07.4924 26247.4
 02 04 2013  01 31  -21.0489 26023.2 -03422.4 -07.4923 26247.2
 02 04 2013  01 32  -21.0489 26023.0 -03422.4 -07.4921 26247.1
 02 04 2013  01 33  -21.0487 26022.9 -03422.4 -07.4921 26247.0
 02 04 2013  01 34  -21.0487 26022.8 -03422.4 -07.4922 26246.9
 02 04 2013  01 35  -21.0489 26022.7 -03422.3 -07.4921 26246.8
 02 04 2013  01 36  -21.0490 26022.6 -03422.3 -07.4921 26246.7
 02 04 2013  01 37  -21.0491 26022.5 -03422.3 -07.4921 26246.5
 02 04 2013  01 38  -21.0493 26022.3 -03422.2 -07.4920 26246.4
 02 04 2013  01 39  -21.0495 26022.2 -03422.1 -07.4918 26246.3
 02 04 2013  01 40  -21.0495 26022.1 -03422.1 -07.4918 26246.2
 02 04 2013  01 41  -21.0495 26022.0 -03422.0 -07.4917 26246.0
 02 04 2013  01 42  -21.0493 26021.9 -03421.9 -07.4915 26245.9
 02 04 2013  01 43  -21.0486 26022.2 -03422.1 -07.4918 26246.3
 02 04 2013  01 44  -21.0489 26022.0 -03422.1 -07.4918 26246.0
 02 04 2013  01 45  -21.0489 26022.1 -03422.2 -07.4919 26246.2
 02 04 2013  01 46  -21.0489 26022.3 -03422.3 -07.4922 26246.4
 02 04 2013  01 47  -21.0488 26022.3 -03422.3 -07.4922 26246.4
 02 04 2013  01 48  -21.0487 26022.3 -03422.3 -07.4921 26246.4
 02 04 2013  01 49  -21.0486 26022.4 -03422.3 -07.4921 26246.5
 02 04 2013  01 50  -21.0485 26022.5 -03422.3 -07.4922 26246.6
 02 04 2013  01 51  -21.0484 26022.5 -03422.3 -07.4921 26246.6
 02 04 2013  01 52  -21.0485 26022.4 -03422.2 -07.4919 26246.5
 02 04 2013  01 53  -21.0482 26022.9 -03422.4 -07.4922 26246.9
 02 04 2013  01 54  -21.0478 26023.8 -03422.8 -07.4928 26247.9
 02 04 2013  01 55  -21.0479 26023.5 -03422.8 -07.4929 26247.7
 02 04 2013  01 56  -21.0472 26024.5 -03423.1 -07.4933 26248.7
 02 04 2013  01 57  -21.0471 26024.9 -03423.3 -07.4936 26249.1
 02 04 2013  01 58  -21.0468 26025.3 -03423.4 -07.4938 26249.5
 02 04 2013  01 59  -21.0464 26025.4 -03423.4 -07.4937 26249.6
 02 04 2013  02 00  -21.0460 26025.7 -03423.4 -07.4937 26249.9
 02 04 2013  02 01  -21.0455 26026.2 -03423.6 -07.4939 26250.4
 02 04 2013  02 02  -21.0452 26026.2 -03423.6 -07.4938 26250.4
 02 04 2013  02 03  -21.0447 26026.3 -03423.5 -07.4937 26250.5
 02 04 2013  02 04  -21.0443 26026.6 -03423.6 -07.4937 26250.8
 02 04 2013  02 05  -21.0440 26026.8 -03423.6 -07.4938 26251.0
 02 04 2013  02 06  -21.0436 26027.3 -03423.8 -07.4941 26251.5
 02 04 2013  02 07  -21.0434 26027.4 -03423.9 -07.4942 26251.6
 02 04 2013  02 08  -21.0432 26027.5 -03423.8 -07.4940 26251.7
 02 04 2013  02 09  -21.0428 26027.7 -03423.9 -07.4941 26252.0
 02 04 2013  02 10  -21.0428 26027.7 -03423.9 -07.4941 26252.0
 02 04 2013  02 11  -21.0427 26028.0 -03424.0 -07.4942 26252.3
 02 04 2013  02 12  -21.0428 26028.3 -03424.1 -07.4943 26252.5
 02 04 2013  02 13  -21.0428 26028.2 -03424.0 -07.4941 26252.4
 02 04 2013  02 14  -21.0426 26028.2 -03423.9 -07.4939 26252.4
 02 04 2013  02 15  -21.0425 26028.3 -03423.9 -07.4939 26252.5
 02 04 2013  02 16  -21.0426 26028.3 -03423.9 -07.4939 26252.6
 02 04 2013  02 17  -21.0425 26028.5 -03423.9 -07.4939 26252.7
 02 04 2013  02 18  -21.0427 26028.4 -03423.8 -07.4937 26252.6
 02 04 2013  02 19  -21.0427 26028.4 -03423.8 -07.4936 26252.6
 02 04 2013  02 20  -21.0428 26028.3 -03423.7 -07.4935 26252.5
 02 04 2013  02 21  -21.0426 26028.4 -03423.6 -07.4933 26252.6
 02 04 2013  02 22  -21.0426 26028.3 -03423.5 -07.4931 26252.4
 02 04 2013  02 23  -21.0424 26028.3 -03423.4 -07.4930 26252.4
 02 04 2013  02 24  -21.0422 26028.3 -03423.4 -07.4929 26252.5
 02 04 2013  02 25  -21.0421 26028.4 -03423.5 -07.4930 26252.6
 02 04 2013  02 26  -21.0418 26028.6 -03423.5 -07.4930 26252.8
 02 04 2013  02 27  -21.0416 26028.5 -03423.5 -07.4930 26252.7
 02 04 2013  02 28  -21.0416 26028.7 -03423.5 -07.4930 26252.9
 02 04 2013  02 29  -21.0416 26028.8 -03423.6 -07.4931 26253.0
 02 04 2013  02 30  -21.0415 26029.0 -03423.6 -07.4932 26253.2
 02 04 2013  02 31  -21.0415 26029.1 -03423.6 -07.4931 26253.3
 02 04 2013  02 32  -21.0413 26029.2 -03423.6 -07.4930 26253.4
 02 04 2013  02 33  -21.0413 26029.1 -03423.5 -07.4928 26253.3
 02 04 2013  02 34  -21.0412 26029.0 -03423.4 -07.4926 26253.2
 02 04 2013  02 35  -21.0409 26029.1 -03423.3 -07.4925 26253.2
 02 04 2013  02 36  -21.0407 26029.0 -03423.2 -07.4923 26253.1
 02 04 2013  02 37  -21.0406 26028.9 -03423.1 -07.4921 26253.0
 02 04 2013  02 38  -21.0403 26028.8 -03423.0 -07.4919 26252.9
 02 04 2013  02 39  -21.0401 26028.7 -03422.9 -07.4918 26252.8
 02 04 2013  02 40  -21.0401 26028.5 -03422.8 -07.4916 26252.6
 02 04 2013  02 41  -21.0400 26028.3 -03422.7 -07.4914 26252.4
 02 04 2013  02 42  -21.0400 26028.2 -03422.6 -07.4912 26252.3
 02 04 2013  02 43  -21.0400 26028.0 -03422.5 -07.4911 26252.0
 02 04 2013  02 44  -21.0400 26027.8 -03422.5 -07.4910 26251.8
 02 04 2013  02 45  -21.0397 26027.6 -03422.4 -07.4909 26251.6
 02 04 2013  02 46  -21.0395 26027.4 -03422.3 -07.4907 26251.4
 02 04 2013  02 47  -21.0391 26027.2 -03422.2 -07.4905 26251.2
 02 04 2013  02 48  -21.0388 26027.0 -03422.1 -07.4904 26251.0
 02 04 2013  02 49  -21.0384 26026.9 -03422.1 -07.4904 26250.9
 02 04 2013  02 50  -21.0382 26026.9 -03422.1 -07.4905 26250.9
 02 04 2013  02 51  -21.0381 26026.8 -03422.2 -07.4906 26250.8
 02 04 2013  02 52  -21.0379 26026.7 -03422.2 -07.4906 26250.8
 02 04 2013  02 53  -21.0380 26026.6 -03422.2 -07.4907 26250.6
 02 04 2013  02 54  -21.0381 26026.6 -03422.2 -07.4908 26250.7
 02 04 2013  02 55  -21.0383 26026.6 -03422.3 -07.4910 26250.7
 02 04 2013  02 56  -21.0384 26026.5 -03422.3 -07.4911 26250.6
 02 04 2013  02 57  -21.0385 26026.5 -03422.3 -07.4911 26250.5
 02 04 2013  02 58  -21.0385 26026.4 -03422.3 -07.4911 26250.4
 02 04 2013  02 59  -21.0384 26026.2 -03422.3 -07.4910 26250.3
 02 04 2013  03 00  -21.0383 26026.0 -03422.2 -07.4909 26250.0
 02 04 2013  03 01  -21.0380 26025.9 -03422.2 -07.4909 26249.9
 02 04 2013  03 02  -21.0380 26025.7 -03422.2 -07.4910 26249.7
 02 04 2013  03 03  -21.0379 26025.6 -03422.2 -07.4910 26249.6
 02 04 2013  03 04  -21.0378 26025.6 -03422.3 -07.4912 26249.7
 02 04 2013  03 05  -21.0379 26025.7 -03422.4 -07.4914 26249.7
 02 04 2013  03 06  -21.0376 26025.6 -03422.4 -07.4915 26249.7
 02 04 2013  03 07  -21.0374 26025.5 -03422.5 -07.4916 26249.6
 02 04 2013  03 08  -21.0374 26025.4 -03422.5 -07.4917 26249.4
 02 04 2013  03 09  -21.0374 26025.2 -03422.5 -07.4917 26249.3
 02 04 2013  03 10  -21.0374 26025.1 -03422.5 -07.4918 26249.1
 02 04 2013  03 11  -21.0375 26024.9 -03422.5 -07.4919 26248.9
 02 04 2013  03 12  -21.0376 26024.8 -03422.5 -07.4920 26248.9
 02 04 2013  03 13  -21.0379 26024.6 -03422.5 -07.4920 26248.6
 02 04 2013  03 14  -21.0379 26024.4 -03422.5 -07.4921 26248.5
 02 04 2013  03 15  -21.0378 26024.3 -03422.5 -07.4921 26248.4
 02 04 2013  03 16  -21.0379 26024.1 -03422.6 -07.4922 26248.2
 02 04 2013  03 17  -21.0380 26024.0 -03422.6 -07.4924 26248.1
 02 04 2013  03 18  -21.0381 26023.9 -03422.6 -07.4925 26248.0
 02 04 2013  03 19  -21.0382 26023.8 -03422.6 -07.4925 26247.9
 02 04 2013  03 20  -21.0383 26023.6 -03422.6 -07.4926 26247.7
 02 04 2013  03 21  -21.0384 26023.5 -03422.7 -07.4926 26247.6
 02 04 2013  03 22  -21.0383 26023.4 -03422.7 -07.4927 26247.5
 02 04 2013  03 23  -21.0383 26023.4 -03422.7 -07.4928 26247.5
 02 04 2013  03 24  -21.0383 26023.3 -03422.7 -07.4929 26247.4
 02 04 2013  03 25  -21.0384 26023.2 -03422.8 -07.4930 26247.4
 02 04 2013  03 26  -21.0386 26023.2 -03422.9 -07.4932 26247.4
 02 04 2013  03 27  -21.0388 26023.2 -03423.0 -07.4933 26247.4
 02 04 2013  03 28  -21.0390 26023.2 -03423.0 -07.4935 26247.4
 02 04 2013  03 29  -21.0391 26023.2 -03423.1 -07.4936 26247.4
 02 04 2013  03 30  -21.0394 26023.2 -03423.1 -07.4937 26247.4
 02 04 2013  03 31  -21.0395 26023.2 -03423.2 -07.4938 26247.3
 02 04 2013  03 32  -21.0397 26023.1 -03423.1 -07.4938 26247.2
 02 04 2013  03 33  -21.0398 26023.0 -03423.1 -07.4938 26247.2
 02 04 2013  03 34  -21.0399 26022.9 -03423.2 -07.4939 26247.1
 02 04 2013  03 35  -21.0400 26022.8 -03423.2 -07.4939 26247.0
 02 04 2013  03 36  -21.0401 26022.8 -03423.2 -07.4940 26246.9
 02 04 2013  03 37  -21.0402 26022.7 -03423.2 -07.4941 26246.9
 02 04 2013  03 38  -21.0402 26022.6 -03423.2 -07.4941 26246.8
 02 04 2013  03 39  -21.0404 26022.7 -03423.3 -07.4943 26246.9
 02 04 2013  03 40  -21.0404 26022.7 -03423.4 -07.4945 26246.9
 02 04 2013  03 41  -21.0406 26022.7 -03423.5 -07.4947 26246.9
 02 04 2013  03 42  -21.0408 26022.7 -03423.6 -07.4948 26246.9
 02 04 2013  03 43  -21.0411 26022.6 -03423.6 -07.4949 26246.9
 02 04 2013  03 44  -21.0413 26022.6 -03423.6 -07.4950 26246.8
 02 04 2013  03 45  -21.0415 26022.5 -03423.7 -07.4951 26246.7
 02 04 2013  03 46  -21.0419 26022.4 -03423.7 -07.4951 26246.7
 02 04 2013  03 47  -21.0423 26022.4 -03423.7 -07.4952 26246.7
 02 04 2013  03 48  -21.0425 26022.4 -03423.8 -07.4954 26246.7
 02 04 2013  03 49  -21.0428 26022.4 -03423.8 -07.4954 26246.7
 02 04 2013  03 50  -21.0430 26022.5 -03423.9 -07.4956 26246.7
 02 04 2013  03 51  -21.0434 26022.4 -03423.9 -07.4957 26246.7
 02 04 2013  03 52  -21.0437 26022.4 -03424.0 -07.4958 26246.7
 02 04 2013  03 53  -21.0439 26022.3 -03423.9 -07.4957 26246.6
 02 04 2013  03 54  -21.0440 26022.2 -03423.9 -07.4958 26246.4
 02 04 2013  03 55  -21.0440 26022.1 -03423.9 -07.4957 26246.3
 02 04 2013  03 56  -21.0441 26022.0 -03423.9 -07.4958 26246.3
 02 04 2013  03 57  -21.0444 26022.0 -03424.0 -07.4960 26246.3
 02 04 2013  03 58  -21.0447 26022.0 -03424.1 -07.4962 26246.3
 02 04 2013  03 59  -21.0450 26021.9 -03424.1 -07.4962 26246.2
 02 04 2013  04 00  -21.0453 26021.8 -03424.1 -07.4962 26246.1
 02 04 2013  04 01  -21.0454 26021.7 -03424.1 -07.4963 26246.0
 02 04 2013  04 02  -21.0456 26021.7 -03424.2 -07.4964 26246.0
 02 04 2013  04 03  -21.0457 26021.8 -03424.2 -07.4966 26246.1
 02 04 2013  04 04  -21.0459 26021.8 -03424.3 -07.4967 26246.2
 02 04 2013  04 05  -21.0462 26021.9 -03424.4 -07.4969 26246.3
 02 04 2013  04 06  -21.0465 26022.0 -03424.5 -07.4971 26246.4
 02 04 2013  04 07  -21.0468 26022.0 -03424.6 -07.4971 26246.4
 02 04 2013  04 08  -21.0471 26022.0 -03424.6 -07.4972 26246.4
 02 04 2013  04 09  -21.0474 26022.0 -03424.6 -07.4972 26246.3
 02 04 2013  04 10  -21.0477 26021.9 -03424.6 -07.4972 26246.3
 02 04 2013  04 11  -21.0479 26021.9 -03424.5 -07.4972 26246.3
 02 04 2013  04 12  -21.0481 26021.9 -03424.5 -07.4972 26246.3
 02 04 2013  04 13  -21.0483 26022.0 -03424.6 -07.4972 26246.3
 02 04 2013  04 14  -21.0485 26022.0 -03424.6 -07.4973 26246.4
 02 04 2013  04 15  -21.0488 26022.1 -03424.6 -07.4973 26246.5
 02 04 2013  04 16  -21.0491 26022.2 -03424.7 -07.4974 26246.5
 02 04 2013  04 17  -21.0493 26022.2 -03424.7 -07.4974 26246.6
 02 04 2013  04 18  -21.0494 26022.3 -03424.7 -07.4975 26246.7
 02 04 2013  04 19  -21.0495 26022.3 -03424.7 -07.4974 26246.7
 02 04 2013  04 20  -21.0496 26022.4 -03424.7 -07.4974 26246.7
 02 04 2013  04 21  -21.0499 26022.4 -03424.7 -07.4974 26246.8
 02 04 2013  04 22  -21.0500 26022.4 -03424.7 -07.4974 26246.8
 02 04 2013  04 23  -21.0501 26022.4 -03424.7 -07.4974 26246.8
 02 04 2013  04 24  -21.0502 26022.5 -03424.7 -07.4974 26246.9
 02 04 2013  04 25  -21.0501 26022.6 -03424.7 -07.4973 26247.0
 02 04 2013  04 26  -21.0501 26022.7 -03424.7 -07.4972 26247.1
 02 04 2013  04 27  -21.0501 26022.8 -03424.7 -07.4973 26247.2
 02 04 2013  04 28  -21.0502 26022.9 -03424.8 -07.4974 26247.3
 02 04 2013  04 29  -21.0504 26023.0 -03424.8 -07.4973 26247.4
 02 04 2013  04 30  -21.0506 26023.0 -03424.7 -07.4973 26247.4
 02 04 2013  04 31  -21.0507 26023.0 -03424.7 -07.4972 26247.4
 02 04 2013  04 32  -21.0508 26023.0 -03424.6 -07.4971 26247.3
 02 04 2013  04 33  -21.0510 26023.0 -03424.6 -07.4970 26247.3
 02 04 2013  04 34  -21.0511 26023.0 -03424.5 -07.4968 26247.4
 02 04 2013  04 35  -21.0512 26023.0 -03424.5 -07.4967 26247.4
 02 04 2013  04 36  -21.0512 26023.0 -03424.4 -07.4966 26247.4
 02 04 2013  04 37  -21.0513 26023.0 -03424.3 -07.4964 26247.3
 02 04 2013  04 38  -21.0513 26022.9 -03424.3 -07.4963 26247.2
 02 04 2013  04 39  -21.0512 26022.9 -03424.2 -07.4961 26247.2
 02 04 2013  04 40  -21.0511 26022.9 -03424.2 -07.4960 26247.2
 02 04 2013  04 41  -21.0508 26022.9 -03424.1 -07.4959 26247.2
 02 04 2013  04 42  -21.0507 26022.9 -03424.1 -07.4958 26247.2
 02 04 2013  04 43  -21.0506 26023.0 -03424.1 -07.4959 26247.3
 02 04 2013  04 44  -21.0506 26023.1 -03424.1 -07.4959 26247.4
 02 04 2013  04 45  -21.0506 26023.2 -03424.1 -07.4959 26247.5
 02 04 2013  04 46  -21.0506 26023.3 -03424.1 -07.4958 26247.6
 02 04 2013  04 47  -21.0505 26023.3 -03424.1 -07.4957 26247.6
 02 04 2013  04 48  -21.0503 26023.3 -03424.0 -07.4956 26247.6
 02 04 2013  04 49  -21.0500 26023.3 -03423.9 -07.4954 26247.6
 02 04 2013  04 50  -21.0497 26023.2 -03423.8 -07.4953 26247.5
 02 04 2013  04 51  -21.0497 26023.2 -03423.8 -07.4952 26247.4
 02 04 2013  04 52  -21.0495 26023.1 -03423.7 -07.4950 26247.4
 02 04 2013  04 53  -21.0494 26023.1 -03423.7 -07.4950 26247.3
 02 04 2013  04 54  -21.0491 26023.1 -03423.7 -07.4949 26247.3
 02 04 2013  04 55  -21.0491 26023.1 -03423.7 -07.4949 26247.4
 02 04 2013  04 56  -21.0490 26023.2 -03423.7 -07.4949 26247.5
 02 04 2013  04 57  -21.0491 26023.3 -03423.7 -07.4949 26247.5
 02 04 2013  04 58  -21.0491 26023.3 -03423.7 -07.4949 26247.6
 02 04 2013  04 59  -21.0490 26023.4 -03423.7 -07.4949 26247.7
 02 04 2013  05 00  -21.0489 26023.5 -03423.7 -07.4948 26247.7
 02 04 2013  05 01  -21.0490 26023.6 -03423.7 -07.4948 26247.8
 02 04 2013  05 02  -21.0491 26023.6 -03423.7 -07.4948 26247.9
 02 04 2013  05 03  -21.0490 26023.7 -03423.7 -07.4947 26248.0
 02 04 2013  05 04  -21.0489 26023.8 -03423.7 -07.4947 26248.0
 02 04 2013  05 05  -21.0487 26023.8 -03423.6 -07.4947 26248.1
 02 04 2013  05 06  -21.0486 26023.9 -03423.6 -07.4946 26248.1
 02 04 2013  05 07  -21.0486 26023.9 -03423.6 -07.4946 26248.2
 02 04 2013  05 08  -21.0485 26024.0 -03423.6 -07.4945 26248.3
 02 04 2013  05 09  -21.0483 26024.1 -03423.6 -07.4945 26248.4
 02 04 2013  05 10  -21.0482 26024.2 -03423.7 -07.4946 26248.5
 02 04 2013  05 11  -21.0480 26024.4 -03423.7 -07.4946 26248.6
 02 04 2013  05 12  -21.0480 26024.4 -03423.7 -07.4945 26248.7
 02 04 2013  05 13  -21.0478 26024.5 -03423.7 -07.4945 26248.7
 02 04 2013  05 14  -21.0477 26024.6 -03423.7 -07.4945 26248.8
 02 04 2013  05 15  -21.0475 26024.7 -03423.7 -07.4945 26248.9
 02 04 2013  05 16  -21.0475 26024.7 -03423.7 -07.4945 26249.0
 02 04 2013  05 17  -21.0475 26024.8 -03423.7 -07.4944 26249.1
 02 04 2013  05 18  -21.0474 26024.9 -03423.7 -07.4944 26249.1
 02 04 2013  05 19  -21.0472 26024.9 -03423.6 -07.4943 26249.1
 02 04 2013  05 20  -21.0471 26024.9 -03423.6 -07.4942 26249.1
 02 04 2013  05 21  -21.0469 26024.9 -03423.5 -07.4941 26249.1
 02 04 2013  05 22  -21.0467 26024.9 -03423.5 -07.4941 26249.1
 02 04 2013  05 23  -21.0464 26024.8 -03423.4 -07.4939 26249.0
 02 04 2013  05 24  -21.0463 26024.8 -03423.4 -07.4939 26249.0
 02 04 2013  05 25  -21.0461 26024.7 -03423.4 -07.4938 26248.9
 02 04 2013  05 26  -21.0457 26024.5 -03423.3 -07.4937 26248.7
 02 04 2013  05 27  -21.0455 26024.4 -03423.2 -07.4935 26248.5
 02 04 2013  05 28  -21.0454 26024.3 -03423.2 -07.4935 26248.5
 02 04 2013  05 29  -21.0452 26024.3 -03423.2 -07.4935 26248.5
 02 04 2013  05 30  -21.0451 26024.4 -03423.2 -07.4936 26248.6
 02 04 2013  05 31  -21.0449 26024.4 -03423.2 -07.4936 26248.6
 02 04 2013  05 32  -21.0447 26024.5 -03423.3 -07.4937 26248.7
 02 04 2013  05 33  -21.0444 26024.6 -03423.3 -07.4938 26248.8
 02 04 2013  05 34  -21.0442 26024.6 -03423.4 -07.4938 26248.8
 02 04 2013  05 35  -21.0442 26024.6 -03423.4 -07.4938 26248.8
 02 04 2013  05 36  -21.0441 26024.7 -03423.4 -07.4939 26248.9
 02 04 2013  05 37  -21.0440 26024.7 -03423.5 -07.4940 26249.0
 02 04 2013  05 38  -21.0441 26024.8 -03423.5 -07.4941 26249.0
 02 04 2013  05 39  -21.0442 26024.8 -03423.5 -07.4941 26249.0
 02 04 2013  05 40  -21.0443 26024.8 -03423.5 -07.4941 26249.0
 02 04 2013  05 41  -21.0443 26024.8 -03423.5 -07.4940 26249.0
 02 04 2013  05 42  -21.0444 26024.8 -03423.5 -07.4940 26249.0
 02 04 2013  05 43  -21.0443 26024.8 -03423.5 -07.4940 26249.0
 02 04 2013  05 44  -21.0443 26024.9 -03423.6 -07.4942 26249.1
 02 04 2013  05 45  -21.0444 26024.9 -03423.6 -07.4942 26249.2
 02 04 2013  05 46  -21.0445 26025.1 -03423.6 -07.4942 26249.3
 02 04 2013  05 47  -21.0446 26025.2 -03423.7 -07.4943 26249.4
 02 04 2013  05 48  -21.0447 26025.3 -03423.7 -07.4945 26249.5
 02 04 2013  05 49  -21.0449 26025.3 -03423.7 -07.4944 26249.5
 02 04 2013  05 50  -21.0451 26025.4 -03423.7 -07.4944 26249.6
 02 04 2013  05 51  -21.0452 26025.4 -03423.7 -07.4944 26249.6
 02 04 2013  05 52  -21.0452 26025.4 -03423.7 -07.4943 26249.7
 02 04 2013  05 53  -21.0452 26025.2 -03423.6 -07.4941 26249.5
 02 04 2013  05 54  -21.0451 26025.2 -03423.5 -07.4940 26249.4
 02 04 2013  05 55  -21.0448 26025.1 -03423.4 -07.4938 26249.3
 02 04 2013  05 56  -21.0445 26025.1 -03423.4 -07.4938 26249.3
 02 04 2013  05 57  -21.0443 26025.1 -03423.4 -07.4938 26249.3
 02 04 2013  05 58  -21.0440 26024.9 -03423.3 -07.4936 26249.1
 02 04 2013  05 59  -21.0439 26024.8 -03423.2 -07.4935 26249.0
 02 04 2013  06 00  -21.0437 26024.7 -03423.2 -07.4935 26248.9
 02 04 2013  06 01  -21.0435 26024.6 -03423.2 -07.4934 26248.7
 02 04 2013  06 02  -21.0433 26024.7 -03423.2 -07.4935 26248.9
 02 04 2013  06 03  -21.0431 26024.8 -03423.3 -07.4937 26249.0
 02 04 2013  06 04  -21.0431 26024.9 -03423.4 -07.4938 26249.0
 02 04 2013  06 05  -21.0432 26024.9 -03423.4 -07.4939 26249.1
 02 04 2013  06 06  -21.0433 26025.0 -03423.5 -07.4940 26249.2
 02 04 2013  06 07  -21.0435 26025.1 -03423.5 -07.4941 26249.3
 02 04 2013  06 08  -21.0437 26025.1 -03423.5 -07.4941 26249.3
 02 04 2013  06 09  -21.0438 26025.1 -03423.5 -07.4941 26249.3
 02 04 2013  06 10  -21.0439 26025.1 -03423.5 -07.4940 26249.3
 02 04 2013  06 11  -21.0439 26025.0 -03423.5 -07.4940 26249.2
 02 04 2013  06 12  -21.0440 26025.0 -03423.5 -07.4940 26249.3
 02 04 2013  06 13  -21.0440 26025.2 -03423.5 -07.4941 26249.4
 02 04 2013  06 14  -21.0439 26025.3 -03423.6 -07.4942 26249.5
 02 04 2013  06 15  -21.0438 26025.4 -03423.6 -07.4942 26249.6
 02 04 2013  06 16  -21.0437 26025.4 -03423.7 -07.4943 26249.6
 02 04 2013  06 17  -21.0436 26025.4 -03423.6 -07.4942 26249.6
 02 04 2013  06 18  -21.0435 26025.5 -03423.6 -07.4942 26249.7
 02 04 2013  06 19  -21.0435 26025.5 -03423.7 -07.4943 26249.8
 02 04 2013  06 20  -21.0435 26025.6 -03423.8 -07.4944 26249.9
 02 04 2013  06 21  -21.0435 26025.8 -03423.8 -07.4944 26250.0
 02 04 2013  06 22  -21.0435 26025.8 -03423.8 -07.4945 26250.1
 02 04 2013  06 23  -21.0435 26026.0 -03423.8 -07.4945 26250.2
 02 04 2013  06 24  -21.0434 26026.0 -03423.8 -07.4945 26250.2
 02 04 2013  06 25  -21.0433 26025.9 -03423.8 -07.4945 26250.2
 02 04 2013  06 26  -21.0431 26025.9 -03423.8 -07.4944 26250.2
 02 04 2013  06 27  -21.0430 26025.9 -03423.8 -07.4944 26250.2
 02 04 2013  06 28  -21.0430 26025.9 -03423.8 -07.4944 26250.2
 02 04 2013  06 29  -21.0430 26025.9 -03423.8 -07.4944 26250.2
 02 04 2013  06 30  -21.0430 26025.9 -03423.8 -07.4944 26250.1
 02 04 2013  06 31  -21.0430 26025.8 -03423.8 -07.4944 26250.1
 02 04 2013  06 32  -21.0429 26025.9 -03423.8 -07.4945 26250.1
 02 04 2013  06 33  -21.0430 26025.8 -03423.8 -07.4944 26250.1
 02 04 2013  06 34  -21.0430 26025.9 -03423.8 -07.4945 26250.1
 02 04 2013  06 35  -21.0431 26025.8 -03423.8 -07.4944 26250.0
 02 04 2013  06 36  -21.0431 26025.8 -03423.8 -07.4944 26250.0
 02 04 2013  06 37  -21.0431 26025.8 -03423.8 -07.4944 26250.0
 02 04 2013  06 38  -21.0431 26025.9 -03423.8 -07.4945 26250.1
 02 04 2013  06 39  -21.0432 26025.9 -03423.9 -07.4946 26250.2
 02 04 2013  06 40  -21.0433 26026.0 -03423.9 -07.4946 26250.2
 02 04 2013  06 41  -21.0434 26026.0 -03423.9 -07.4947 26250.3
 02 04 2013  06 42  -21.0434 26026.0 -03423.9 -07.4946 26250.3
 02 04 2013  06 43  -21.0436 26026.0 -03423.9 -07.4947 26250.3
 02 04 2013  06 44  -21.0436 26026.0 -03423.9 -07.4947 26250.3
 02 04 2013  06 45  -21.0436 26026.0 -03423.9 -07.4946 26250.3
 02 04 2013  06 46  -21.0438 26026.1 -03423.9 -07.4947 26250.4
 02 04 2013  06 47  -21.0438 26026.2 -03424.0 -07.4947 26250.5
 02 04 2013  06 48  -21.0439 26026.2 -03424.0 -07.4947 26250.5
 02 04 2013  06 49  -21.0439 26026.3 -03424.0 -07.4948 26250.5
 02 04 2013  06 50  -21.0439 26026.2 -03424.0 -07.4947 26250.5
 02 04 2013  06 51  -21.0439 26026.3 -03424.0 -07.4947 26250.5
 02 04 2013  06 52  -21.0438 26026.2 -03424.0 -07.4947 26250.5
 02 04 2013  06 53  -21.0439 26026.3 -03424.0 -07.4947 26250.5
 02 04 2013  06 54  -21.0439 26026.3 -03424.0 -07.4947 26250.6
 02 04 2013  06 55  -21.0439 26026.3 -03424.0 -07.4947 26250.6
 02 04 2013  06 56  -21.0439 26026.4 -03424.0 -07.4948 26250.6
 02 04 2013  06 57  -21.0441 26026.4 -03424.0 -07.4948 26250.7
 02 04 2013  06 58  -21.0442 26026.5 -03424.1 -07.4949 26250.8
 02 04 2013  06 59  -21.0442 26026.5 -03424.1 -07.4948 26250.8
 02 04 2013  07 00  -21.0441 26026.5 -03424.1 -07.4949 26250.8
 02 04 2013  07 01  -21.0440 26026.6 -03424.1 -07.4949 26250.9
 02 04 2013  07 02  -21.0440 26026.7 -03424.2 -07.4950 26251.0
 02 04 2013  07 03  -21.0441 26026.8 -03424.2 -07.4950 26251.0
 02 04 2013  07 04  -21.0441 26026.8 -03424.2 -07.4950 26251.1
 02 04 2013  07 05  -21.0441 26026.8 -03424.2 -07.4951 26251.1
 02 04 2013  07 06  -21.0441 26026.9 -03424.3 -07.4951 26251.2
 02 04 2013  07 07  -21.0443 26027.0 -03424.3 -07.4952 26251.3
 02 04 2013  07 08  -21.0445 26027.0 -03424.3 -07.4952 26251.3
 02 04 2013  07 09  -21.0445 26027.1 -03424.3 -07.4952 26251.4
 02 04 2013  07 10  -21.0446 26027.2 -03424.4 -07.4953 26251.5
 02 04 2013  07 11  -21.0445 26027.2 -03424.4 -07.4953 26251.5
 02 04 2013  07 12  -21.0445 26027.2 -03424.4 -07.4953 26251.5
 02 04 2013  07 13  -21.0444 26027.2 -03424.3 -07.4952 26251.5
 02 04 2013  07 14  -21.0443 26027.1 -03424.3 -07.4952 26251.4
 02 04 2013  07 15  -21.0441 26027.1 -03424.3 -07.4951 26251.4
 02 04 2013  07 16  -21.0439 26027.0 -03424.3 -07.4951 26251.3
 02 04 2013  07 17  -21.0438 26026.9 -03424.2 -07.4950 26251.2
 02 04 2013  07 18  -21.0436 26026.9 -03424.2 -07.4950 26251.2
 02 04 2013  07 19  -21.0435 26026.9 -03424.3 -07.4951 26251.2
 02 04 2013  07 20  -21.0436 26026.9 -03424.3 -07.4952 26251.2
 02 04 2013  07 21  -21.0437 26026.9 -03424.3 -07.4952 26251.2
 02 04 2013  07 22  -21.0437 26026.9 -03424.3 -07.4953 26251.2
 02 04 2013  07 23  -21.0438 26026.9 -03424.3 -07.4953 26251.2
 02 04 2013  07 24  -21.0439 26026.9 -03424.3 -07.4953 26251.2
 02 04 2013  07 25  -21.0439 26027.0 -03424.4 -07.4953 26251.3
 02 04 2013  07 26  -21.0439 26027.0 -03424.4 -07.4954 26251.3
 02 04 2013  07 27  -21.0440 26027.0 -03424.4 -07.4954 26251.3
 02 04 2013  07 28  -21.0441 26027.0 -03424.4 -07.4954 26251.3
 02 04 2013  07 29  -21.0443 26027.1 -03424.5 -07.4955 26251.4
 02 04 2013  07 30  -21.0446 26027.1 -03424.5 -07.4955 26251.4
 02 04 2013  07 31  -21.0446 26027.1 -03424.5 -07.4955 26251.4
 02 04 2013  07 32  -21.0446 26027.1 -03424.5 -07.4955 26251.4
 02 04 2013  07 33  -21.0446 26027.0 -03424.4 -07.4954 26251.3
 02 04 2013  07 34  -21.0446 26027.0 -03424.4 -07.4954 26251.3
 02 04 2013  07 35  -21.0446 26026.9 -03424.3 -07.4953 26251.2
 02 04 2013  07 36  -21.0445 26026.8 -03424.3 -07.4953 26251.1
 02 04 2013  07 37  -21.0445 26026.8 -03424.3 -07.4953 26251.1
 02 04 2013  07 38  -21.0445 26026.7 -03424.3 -07.4953 26251.1
 02 04 2013  07 39  -21.0445 26026.7 -03424.3 -07.4953 26251.0
 02 04 2013  07 40  -21.0445 26026.7 -03424.3 -07.4953 26251.0
 02 04 2013  07 41  -21.0446 26026.8 -03424.3 -07.4954 26251.1
 02 04 2013  07 42  -21.0446 26026.8 -03424.4 -07.4955 26251.2
 02 04 2013  07 43  -21.0445 26026.9 -03424.4 -07.4955 26251.2
 02 04 2013  07 44  -21.0445 26026.9 -03424.5 -07.4956 26251.3
 02 04 2013  07 45  -21.0443 26027.0 -03424.5 -07.4956 26251.3
 02 04 2013  07 46  -21.0443 26027.1 -03424.5 -07.4957 26251.4
 02 04 2013  07 47  -21.0443 26027.1 -03424.6 -07.4958 26251.5
 02 04 2013  07 48  -21.0442 26027.2 -03424.6 -07.4958 26251.5
 02 04 2013  07 49  -21.0441 26027.2 -03424.7 -07.4959 26251.5
 02 04 2013  07 50  -21.0440 26027.2 -03424.7 -07.4959 26251.6
 02 04 2013  07 51  -21.0438 26027.2 -03424.7 -07.4960 26251.6
 02 04 2013  07 52  -21.0438 26027.3 -03424.7 -07.4961 26251.6
 02 04 2013  07 53  -21.0437 26027.3 -03424.8 -07.4961 26251.7
 02 04 2013  07 54  -21.0437 26027.3 -03424.8 -07.4962 26251.7
 02 04 2013  07 55  -21.0436 26027.3 -03424.8 -07.4961 26251.6
 02 04 2013  07 56  -21.0434 26027.2 -03424.7 -07.4961 26251.5
 02 04 2013  07 57  -21.0432 26027.1 -03424.7 -07.4960 26251.5
 02 04 2013  07 58  -21.0430 26027.0 -03424.7 -07.4960 26251.4
 02 04 2013  07 59  -21.0429 26027.0 -03424.7 -07.4960 26251.3
 02 04 2013  08 00  -21.0429 26026.9 -03424.7 -07.4960 26251.3
 02 04 2013  08 01  -21.0428 26026.9 -03424.7 -07.4961 26251.3
 02 04 2013  08 02  -21.0429 26027.0 -03424.7 -07.4961 26251.3
 02 04 2013  08 03  -21.0430 26027.0 -03424.8 -07.4963 26251.3
 02 04 2013  08 04  -21.0431 26027.0 -03424.8 -07.4963 26251.4
 02 04 2013  08 05  -21.0431 26027.0 -03424.8 -07.4964 26251.4
 02 04 2013  08 06  -21.0431 26027.0 -03424.9 -07.4964 26251.4
 02 04 2013  08 07  -21.0429 26026.9 -03424.9 -07.4964 26251.3
 02 04 2013  08 08  -21.0428 26026.9 -03424.8 -07.4963 26251.3
 02 04 2013  08 09  -21.0427 26026.9 -03424.9 -07.4964 26251.3
 02 04 2013  08 10  -21.0427 26027.0 -03424.9 -07.4965 26251.4
 02 04 2013  08 11  -21.0427 26027.0 -03425.0 -07.4966 26251.4
 02 04 2013  08 12  -21.0426 26027.0 -03425.0 -07.4966 26251.4
 02 04 2013  08 13  -21.0425 26027.0 -03425.0 -07.4966 26251.4
 02 04 2013  08 14  -21.0424 26027.1 -03425.0 -07.4967 26251.5
 02 04 2013  08 15  -21.0423 26027.0 -03425.0 -07.4967 26251.4
 02 04 2013  08 16  -21.0422 26027.0 -03425.0 -07.4967 26251.4
 02 04 2013  08 17  -21.0421 26027.0 -03425.0 -07.4967 26251.4
 02 04 2013  08 18  -21.0419 26027.0 -03424.9 -07.4965 26251.3
 02 04 2013  08 19  -21.0418 26026.9 -03425.0 -07.4967 26251.3
 02 04 2013  08 20  -21.0416 26026.9 -03425.0 -07.4968 26251.2
 02 04 2013  08 21  -21.0415 26026.8 -03425.0 -07.4968 26251.2
 02 04 2013  08 22  -21.0414 26026.8 -03425.0 -07.4968 26251.2
 02 04 2013  08 23  -21.0413 26026.8 -03425.1 -07.4969 26251.2
 02 04 2013  08 24  -21.0411 26026.8 -03425.1 -07.4970 26251.2
 02 04 2013  08 25  -21.0409 26026.7 -03425.1 -07.4971 26251.1
 02 04 2013  08 26  -21.0407 26026.8 -03425.2 -07.4971 26251.2
 02 04 2013  08 27  -21.0406 26026.8 -03425.2 -07.4972 26251.2
 02 04 2013  08 28  -21.0406 26026.9 -03425.3 -07.4973 26251.3
 02 04 2013  08 29  -21.0405 26027.0 -03425.3 -07.4974 26251.4
 02 04 2013  08 30  -21.0404 26027.1 -03425.4 -07.4976 26251.5
 02 04 2013  08 31  -21.0403 26027.1 -03425.5 -07.4977 26251.5
 02 04 2013  08 32  -21.0403 26027.1 -03425.5 -07.4977 26251.6
 02 04 2013  08 33  -21.0402 26027.1 -03425.5 -07.4978 26251.5
 02 04 2013  08 34  -21.0401 26027.0 -03425.5 -07.4979 26251.5
 02 04 2013  08 35  -21.0400 26026.9 -03425.5 -07.4979 26251.4
 02 04 2013  08 36  -21.0399 26026.9 -03425.5 -07.4979 26251.3
 02 04 2013  08 37  -21.0398 26026.8 -03425.6 -07.4980 26251.3
 02 04 2013  08 38  -21.0395 26026.7 -03425.6 -07.4980 26251.2
 02 04 2013  08 39  -21.0393 26026.7 -03425.6 -07.4980 26251.1
 02 04 2013  08 40  -21.0393 26026.5 -03425.5 -07.4980 26251.0
 02 04 2013  08 41  -21.0393 26026.5 -03425.6 -07.4980 26251.0
 02 04 2013  08 42  -21.0391 26026.4 -03425.5 -07.4980 26250.9
 02 04 2013  08 43  -21.0389 26026.4 -03425.6 -07.4982 26250.9
 02 04 2013  08 44  -21.0388 26026.4 -03425.6 -07.4983 26250.9
 02 04 2013  08 45  -21.0386 26026.4 -03425.7 -07.4984 26250.9
 02 04 2013  08 46  -21.0384 26026.4 -03425.7 -07.4985 26250.9
 02 04 2013  08 47  -21.0382 26026.4 -03425.8 -07.4986 26250.9
 02 04 2013  08 48  -21.0379 26026.4 -03425.9 -07.4988 26250.9
 02 04 2013  08 49  -21.0378 26026.5 -03426.0 -07.4991 26251.0
 02 04 2013  08 50  -21.0378 26026.5 -03426.1 -07.4992 26251.0
 02 04 2013  08 51  -21.0378 26026.4 -03426.2 -07.4994 26251.0
 02 04 2013  08 52  -21.0378 26026.4 -03426.2 -07.4995 26251.0
 02 04 2013  08 53  -21.0378 26026.5 -03426.3 -07.4997 26251.0
 02 04 2013  08 54  -21.0378 26026.4 -03426.4 -07.5000 26251.0
 02 04 2013  08 55  -21.0378 26026.4 -03426.5 -07.5002 26251.0
 02 04 2013  08 56  -21.0377 26026.4 -03426.6 -07.5003 26251.0
 02 04 2013  08 57  -21.0376 26026.3 -03426.7 -07.5005 26250.9
 02 04 2013  08 58  -21.0374 26026.2 -03426.7 -07.5006 26250.9
 02 04 2013  08 59  -21.0374 26026.2 -03426.8 -07.5008 26250.8
 02 04 2013  09 00  -21.0373 26026.1 -03426.9 -07.5010 26250.8
 02 04 2013  09 01  -21.0372 26026.1 -03427.0 -07.5013 26250.7
 02 04 2013  09 02  -21.0371 26026.0 -03427.1 -07.5014 26250.6
 02 04 2013  09 03  -21.0370 26025.9 -03427.2 -07.5017 26250.6
 02 04 2013  09 04  -21.0370 26025.9 -03427.3 -07.5020 26250.6
 02 04 2013  09 05  -21.0370 26025.8 -03427.4 -07.5023 26250.5
 02 04 2013  09 06  -21.0369 26025.7 -03427.5 -07.5026 26250.4
 02 04 2013  09 07  -21.0369 26025.7 -03427.7 -07.5029 26250.4
 02 04 2013  09 08  -21.0369 26025.6 -03427.9 -07.5033 26250.3
 02 04 2013  09 09  -21.0369 26025.5 -03428.0 -07.5036 26250.3
 02 04 2013  09 10  -21.0370 26025.4 -03428.2 -07.5040 26250.2
 02 04 2013  09 11  -21.0372 26025.4 -03428.3 -07.5044 26250.3
 02 04 2013  09 12  -21.0373 26025.3 -03428.5 -07.5047 26250.2
 02 04 2013  09 13  -21.0373 26025.2 -03428.6 -07.5050 26250.1
 02 04 2013  09 14  -21.0373 26025.1 -03428.8 -07.5054 26250.0
 02 04 2013  09 15  -21.0375 26025.0 -03429.0 -07.5058 26250.0
 02 04 2013  09 16  -21.0379 26025.0 -03429.2 -07.5063 26249.9
 02 04 2013  09 17  -21.0384 26024.9 -03429.4 -07.5067 26249.9
 02 04 2013  09 18  -21.0388 26024.9 -03429.6 -07.5072 26249.9
 02 04 2013  09 19  -21.0394 26024.9 -03429.7 -07.5075 26249.9
 02 04 2013  09 20  -21.0397 26024.8 -03429.9 -07.5079 26249.9
 02 04 2013  09 21  -21.0398 26024.7 -03430.0 -07.5082 26249.8
 02 04 2013  09 22  -21.0400 26024.6 -03430.1 -07.5085 26249.7
 02 04 2013  09 23  -21.0404 26024.5 -03430.3 -07.5088 26249.6
 02 04 2013  09 24  -21.0408 26024.4 -03430.5 -07.5093 26249.5
 02 04 2013  09 25  -21.0414 26024.4 -03430.7 -07.5097 26249.5
 02 04 2013  09 26  -21.0421 26024.3 -03430.9 -07.5102 26249.5
 02 04 2013  09 27  -21.0425 26024.2 -03431.0 -07.5105 26249.4
 02 04 2013  09 28  -21.0430 26024.1 -03431.1 -07.5108 26249.3
 02 04 2013  09 29  -21.0435 26024.0 -03431.3 -07.5111 26249.3
 02 04 2013  09 30  -21.0437 26023.9 -03431.4 -07.5115 26249.2
 02 04 2013  09 31  -21.0438 26023.8 -03431.5 -07.5117 26249.0
 02 04 2013  09 32  -21.0441 26023.7 -03431.6 -07.5119 26248.9
 02 04 2013  09 33  -21.0446 26023.6 -03431.8 -07.5123 26248.9
 02 04 2013  09 34  -21.0449 26023.6 -03431.9 -07.5127 26248.9
 02 04 2013  09 35  -21.0452 26023.6 -03432.1 -07.5130 26248.9
 02 04 2013  09 36  -21.0456 26023.5 -03432.3 -07.5134 26248.9
 02 04 2013  09 37  -21.0460 26023.5 -03432.4 -07.5137 26248.9
 02 04 2013  09 38  -21.0464 26023.5 -03432.5 -07.5140 26248.9
 02 04 2013  09 39  -21.0469 26023.4 -03432.7 -07.5144 26248.8
 02 04 2013  09 40  -21.0474 26023.4 -03432.9 -07.5148 26248.8
 02 04 2013  09 41  -21.0479 26023.4 -03433.1 -07.5152 26248.9
 02 04 2013  09 42  -21.0483 26023.4 -03433.2 -07.5155 26248.9
 02 04 2013  09 43  -21.0486 26023.3 -03433.3 -07.5158 26248.8
 02 04 2013  09 44  -21.0489 26023.2 -03433.5 -07.5161 26248.8
 02 04 2013  09 45  -21.0493 26023.2 -03433.6 -07.5164 26248.8
 02 04 2013  09 46  -21.0496 26023.2 -03433.7 -07.5166 26248.7
 02 04 2013  09 47  -21.0499 26023.1 -03433.9 -07.5170 26248.7
 02 04 2013  09 48  -21.0504 26023.1 -03434.0 -07.5173 26248.7
 02 04 2013  09 49  -21.0508 26023.1 -03434.2 -07.5176 26248.7
 02 04 2013  09 50  -21.0513 26023.1 -03434.3 -07.5180 26248.8
 02 04 2013  09 51  -21.0517 26023.1 -03434.5 -07.5183 26248.8
 02 04 2013  09 52  -21.0522 26023.1 -03434.6 -07.5186 26248.8
 02 04 2013  09 53  -21.0525 26023.2 -03434.7 -07.5189 26248.8
 02 04 2013  09 54  -21.0531 26023.1 -03434.8 -07.5191 26248.8
 02 04 2013  09 55  -21.0534 26023.1 -03435.0 -07.5194 26248.8
 02 04 2013  09 56  -21.0537 26023.1 -03435.1 -07.5196 26248.8
 02 04 2013  09 57  -21.0539 26023.1 -03435.2 -07.5199 26248.8
 02 04 2013  09 58  -21.0542 26023.1 -03435.3 -07.5201 26248.8
 02 04 2013  09 59  -21.0546 26023.1 -03435.4 -07.5204 26248.9
 02 04 2013  10 00  -21.0549 26023.2 -03435.6 -07.5207 26249.0
 02 04 2013  10 01  -21.0554 26023.2 -03435.7 -07.5210 26249.1
 02 04 2013  10 02  -21.0557 26023.3 -03435.9 -07.5212 26249.2
 02 04 2013  10 03  -21.0561 26023.4 -03436.0 -07.5215 26249.2
 02 04 2013  10 04  -21.0565 26023.4 -03436.1 -07.5217 26249.3
 02 04 2013  10 05  -21.0569 26023.4 -03436.2 -07.5219 26249.3
 02 04 2013  10 06  -21.0573 26023.5 -03436.3 -07.5222 26249.4
 02 04 2013  10 07  -21.0577 26023.5 -03436.4 -07.5224 26249.4
 02 04 2013  10 08  -21.0580 26023.5 -03436.5 -07.5226 26249.4
 02 04 2013  10 09  -21.0584 26023.5 -03436.6 -07.5228 26249.5
 02 04 2013  10 10  -21.0589 26023.6 -03436.7 -07.5229 26249.5
 02 04 2013  10 11  -21.0593 26023.6 -03436.8 -07.5233 26249.6
 02 04 2013  10 12  -21.0596 26023.8 -03437.0 -07.5235 26249.8
 02 04 2013  10 13  -21.0601 26023.9 -03437.1 -07.5238 26249.9
 02 04 2013  10 14  -21.0606 26024.0 -03437.2 -07.5240 26250.1
 02 04 2013  10 15  -21.0612 26024.2 -03437.4 -07.5242 26250.2
 02 04 2013  10 16  -21.0617 26024.3 -03437.4 -07.5244 26250.4
 02 04 2013  10 17  -21.0620 26024.4 -03437.6 -07.5246 26250.5
 02 04 2013  10 18  -21.0625 26024.5 -03437.6 -07.5248 26250.5
 02 04 2013  10 19  -21.0628 26024.7 -03437.8 -07.5250 26250.7
 02 04 2013  10 20  -21.0631 26024.7 -03437.8 -07.5251 26250.8
 02 04 2013  10 21  -21.0634 26024.9 -03438.0 -07.5254 26251.0
 02 04 2013  10 22  -21.0639 26025.0 -03438.1 -07.5255 26251.1
 02 04 2013  10 23  -21.0642 26025.1 -03438.1 -07.5256 26251.2
 02 04 2013  10 24  -21.0646 26025.2 -03438.2 -07.5258 26251.3
 02 04 2013  10 25  -21.0650 26025.3 -03438.3 -07.5259 26251.4
 02 04 2013  10 26  -21.0655 26025.3 -03438.3 -07.5260 26251.5
 02 04 2013  10 27  -21.0660 26025.5 -03438.4 -07.5262 26251.7
 02 04 2013  10 28  -21.0663 26025.6 -03438.5 -07.5262 26251.7
 02 04 2013  10 29  -21.0666 26025.8 -03438.6 -07.5264 26251.9
 02 04 2013  10 30  -21.0668 26025.9 -03438.6 -07.5265 26252.1
 02 04 2013  10 31  -21.0672 26026.0 -03438.7 -07.5266 26252.2
 02 04 2013  10 32  -21.0678 26026.2 -03438.8 -07.5268 26252.4
 02 04 2013  10 33  -21.0683 26026.4 -03438.9 -07.5270 26252.6
 02 04 2013  10 34  -21.0688 26026.5 -03439.0 -07.5271 26252.7
 02 04 2013  10 35  -21.0694 26026.7 -03439.1 -07.5272 26252.9
 02 04 2013  10 36  -21.0698 26026.9 -03439.2 -07.5274 26253.1
 02 04 2013  10 37  -21.0704 26027.0 -03439.2 -07.5275 26253.3
 02 04 2013  10 38  -21.0707 26027.3 -03439.4 -07.5277 26253.6
 02 04 2013  10 39  -21.0711 26027.5 -03439.4 -07.5278 26253.7
 02 04 2013  10 40  -21.0715 26027.7 -03439.5 -07.5279 26254.0
 02 04 2013  10 41  -21.0720 26027.9 -03439.6 -07.5280 26254.1
 02 04 2013  10 42  -21.0724 26028.1 -03439.7 -07.5281 26254.4
 02 04 2013  10 43  -21.0728 26028.4 -03439.8 -07.5283 26254.7
 02 04 2013  10 44  -21.0734 26028.5 -03439.8 -07.5283 26254.8
 02 04 2013  10 45  -21.0740 26028.6 -03439.8 -07.5283 26254.9
 02 04 2013  10 46  -21.0746 26028.8 -03439.9 -07.5284 26255.1
 02 04 2013  10 47  -21.0752 26028.9 -03439.9 -07.5284 26255.3
 02 04 2013  10 48  -21.0758 26029.1 -03440.0 -07.5285 26255.5
 02 04 2013  10 49  -21.0764 26029.3 -03440.0 -07.5286 26255.6
 02 04 2013  10 50  -21.0770 26029.5 -03440.1 -07.5286 26255.8
 02 04 2013  10 51  -21.0774 26029.7 -03440.1 -07.5285 26256.0
 02 04 2013  10 52  -21.0778 26029.9 -03440.1 -07.5285 26256.2
 02 04 2013  10 53  -21.0784 26030.0 -03440.1 -07.5286 26256.4
 02 04 2013  10 54  -21.0789 26030.3 -03440.2 -07.5286 26256.6
 02 04 2013  10 55  -21.0793 26030.5 -03440.2 -07.5286 26256.8
 02 04 2013  10 56  -21.0798 26030.6 -03440.2 -07.5285 26257.0
 02 04 2013  10 57  -21.0803 26030.7 -03440.1 -07.5284 26257.1
 02 04 2013  10 58  -21.0809 26030.9 -03440.2 -07.5284 26257.3
 02 04 2013  10 59  -21.0810 26031.2 -03440.2 -07.5284 26257.5
 02 04 2013  11 00  -21.0815 26031.3 -03440.2 -07.5283 26257.7
 02 04 2013  11 01  -21.0819 26031.5 -03440.1 -07.5282 26257.8
 02 04 2013  11 02  -21.0826 26031.6 -03440.1 -07.5280 26257.9
 02 04 2013  11 03  -21.0831 26031.8 -03440.1 -07.5280 26258.2
 02 04 2013  11 04  -21.0839 26032.1 -03440.1 -07.5279 26258.4
 02 04 2013  11 05  -21.0843 26032.3 -03440.1 -07.5278 26258.6
 02 04 2013  11 06  -21.0849 26032.4 -03440.0 -07.5277 26258.7
 02 04 2013  11 07  -21.0853 26032.6 -03440.0 -07.5276 26258.9
 02 04 2013  11 08  -21.0858 26032.8 -03440.0 -07.5275 26259.1
 02 04 2013  11 09  -21.0863 26032.9 -03439.9 -07.5273 26259.2
 02 04 2013  11 10  -21.0869 26033.0 -03439.9 -07.5272 26259.3
 02 04 2013  11 11  -21.0873 26033.1 -03439.8 -07.5271 26259.3
 02 04 2013  11 12  -21.0876 26033.3 -03439.9 -07.5271 26259.6
 02 04 2013  11 13  -21.0879 26033.5 -03439.9 -07.5271 26259.8
 02 04 2013  11 14  -21.0882 26033.9 -03440.0 -07.5271 26260.2
 02 04 2013  11 15  -21.0886 26034.2 -03440.0 -07.5271 26260.5
 02 04 2013  11 16  -21.0891 26034.4 -03440.0 -07.5270 26260.7
 02 04 2013  11 17  -21.0892 26035.0 -03440.1 -07.5271 26261.3
 02 04 2013  11 18  -21.0897 26035.2 -03440.0 -07.5268 26261.4
 02 04 2013  11 19  -21.0898 26035.6 -03440.1 -07.5268 26261.9
 02 04 2013  11 20  -21.0903 26035.7 -03440.0 -07.5266 26262.0
 02 04 2013  11 21  -21.0907 26036.1 -03440.0 -07.5266 26262.4
 02 04 2013  11 22  -21.0909 26036.5 -03440.1 -07.5265 26262.8
 02 04 2013  11 23  -21.0911 26036.7 -03440.0 -07.5263 26263.0
 02 04 2013  11 24  -21.0914 26037.2 -03440.0 -07.5263 26263.5
 02 04 2013  11 25  -21.0917 26037.4 -03440.0 -07.5261 26263.6
 02 04 2013  11 26  -21.0920 26037.8 -03440.0 -07.5260 26264.0
 02 04 2013  11 27  -21.0923 26038.2 -03440.0 -07.5260 26264.4
 02 04 2013  11 28  -21.0925 26038.4 -03440.0 -07.5259 26264.7
 02 04 2013  11 29  -21.0927 26038.9 -03440.0 -07.5258 26265.1
 02 04 2013  11 30  -21.0930 26039.1 -03440.0 -07.5257 26265.4
 02 04 2013  11 31  -21.0932 26039.4 -03440.0 -07.5255 26265.6
 02 04 2013  11 32  -21.0934 26039.8 -03440.0 -07.5255 26266.0
 02 04 2013  11 33  -21.0935 26040.3 -03440.1 -07.5255 26266.6
 02 04 2013  11 34  -21.0938 26040.8 -03440.1 -07.5255 26267.1
 02 04 2013  11 35  -21.0941 26041.2 -03440.1 -07.5253 26267.5
 02 04 2013  11 36  -21.0942 26041.8 -03440.1 -07.5253 26268.0
 02 04 2013  11 37  -21.0944 26042.3 -03440.2 -07.5251 26268.5
 02 04 2013  11 38  -21.0945 26042.7 -03440.1 -07.5249 26268.9
 02 04 2013  11 39  -21.0947 26043.3 -03440.1 -07.5247 26269.5
 02 04 2013  11 40  -21.0948 26043.6 -03440.0 -07.5243 26269.8
 02 04 2013  11 41  -21.0949 26043.7 -03439.8 -07.5238 26269.9
 02 04 2013  11 42  -21.0951 26044.0 -03439.7 -07.5236 26270.2
 02 04 2013  11 43  -21.0958 26044.1 -03439.5 -07.5232 26270.2
 02 04 2013  11 44  -21.0964 26044.1 -03439.3 -07.5228 26270.2
 02 04 2013  11 45  -21.0973 26044.2 -03439.2 -07.5225 26270.3
 02 04 2013  11 46  -21.0981 26044.4 -03439.2 -07.5224 26270.5
 02 04 2013  11 47  -21.0989 26044.4 -03439.1 -07.5222 26270.5
 02 04 2013  11 48  -21.1024 26044.4 -03438.8 -07.5216 26270.5
 02 04 2013  11 49  -21.1043 26044.4 -03438.6 -07.5212 26270.4
 02 04 2013  11 50  -21.1048 26044.5 -03438.6 -07.5211 26270.5
 02 04 2013  11 51  -21.1049 26044.7 -03438.6 -07.5211 26270.8
 02 04 2013  11 52  -21.1050 26045.4 -03438.7 -07.5211 26271.4
 02 04 2013  11 53  -21.1049 26045.9 -03438.7 -07.5209 26271.9
 02 04 2013  11 54  -21.1049 26046.2 -03438.6 -07.5206 26272.2
 02 04 2013  11 55  -21.1051 26046.6 -03438.5 -07.5204 26272.6
 02 04 2013  11 56  -21.1054 26046.9 -03438.4 -07.5201 26272.9
 02 04 2013  11 57  -21.1056 26047.6 -03438.4 -07.5198 26273.6
 02 04 2013  11 58  -21.1061 26046.9 -03437.9 -07.5188 26272.8
 02 04 2013  11 59  -21.1062 26047.3 -03437.8 -07.5186 26273.2
 02 04 2013  12 00  -21.1066 26048.4 -03438.0 -07.5187 26274.3
 02 04 2013  12 01  -21.1066 26048.3 -03437.7 -07.5181 26274.2
 02 04 2013  12 02  -21.1068 26048.3 -03437.4 -07.5174 26274.1
 02 04 2013  12 03  -21.1076 26048.4 -03437.3 -07.5171 26274.2
 02 04 2013  12 04  -21.1081 26048.4 -03437.1 -07.5167 26274.1
 02 04 2013  12 05  -21.1087 26048.8 -03437.1 -07.5166 26274.6
 02 04 2013  12 06  -21.1091 26048.8 -03436.7 -07.5158 26274.5
 02 04 2013  12 07  -21.1089 26049.0 -03438.2 -07.5189 26274.9
 02 04 2013  12 08  -21.1088 26049.7 -03438.3 -07.5191 26275.6
 02 04 2013  12 09  -21.1081 26050.2 -03438.3 -07.5189 26276.1
 02 04 2013  12 10  -21.1076 26051.1 -03438.5 -07.5189 26277.1
 02 04 2013  12 11  -21.1074 26050.9 -03438.0 -07.5181 26276.8
 02 04 2013  12 12  -21.1077 26051.5 -03438.1 -07.5181 26277.4
 02 04 2013  12 13  -21.1078 26051.6 -03438.1 -07.5179 26277.5
 02 04 2013  12 14  -21.1078 26052.6 -03438.2 -07.5180 26278.5
 02 04 2013  12 15  -21.1076 26052.7 -03438.0 -07.5175 26278.6
 02 04 2013  12 16  -21.1039 26054.0 -03438.5 -07.5182 26279.9
 02 04 2013  12 17  -21.1038 26054.0 -03438.2 -07.5176 26279.8
 02 04 2013  12 18  -21.1039 26054.5 -03438.2 -07.5174 26280.4
 02 04 2013  12 19  -21.1038 26055.1 -03438.2 -07.5172 26281.0
 02 04 2013  12 20  -21.1037 26055.7 -03438.2 -07.5170 26281.5
 02 04 2013  12 21  -21.1038 26056.1 -03438.1 -07.5168 26282.0
 02 04 2013  12 22  -21.1037 26056.5 -03438.0 -07.5165 26282.4
 02 04 2013  12 23  -21.1035 26057.0 -03438.0 -07.5162 26282.9
 02 04 2013  12 24  -21.1034 26057.4 -03437.8 -07.5158 26283.2
 02 04 2013  12 25  -21.1032 26057.8 -03437.8 -07.5156 26283.6
 02 04 2013  12 26  -21.1030 26058.2 -03437.8 -07.5154 26284.0
 02 04 2013  12 27  -21.1028 26058.7 -03437.7 -07.5152 26284.4
 02 04 2013  12 28  -21.1026 26059.1 -03437.6 -07.5149 26284.8
 02 04 2013  12 29  -21.1026 26059.4 -03437.5 -07.5145 26285.1
 02 04 2013  12 30  -21.1025 26059.6 -03437.4 -07.5143 26285.4
 02 04 2013  12 31  -21.1026 26059.7 -03437.2 -07.5138 26285.4
 02 04 2013  12 32  -21.1027 26059.9 -03437.1 -07.5136 26285.5
 02 04 2013  12 33  -21.1028 26060.0 -03437.0 -07.5133 26285.7
 02 04 2013  12 34  -21.1030 26060.2 -03437.0 -07.5131 26285.9
 02 04 2013  12 35  -21.1032 26060.3 -03436.8 -07.5128 26286.0
 02 04 2013  12 36  -21.1036 26060.2 -03436.6 -07.5124 26285.9
 02 04 2013  12 37  -21.1040 26060.5 -03436.6 -07.5122 26286.1
 02 04 2013  12 38  -21.1042 26060.8 -03436.6 -07.5121 26286.4
 02 04 2013  12 39  -21.1042 26061.3 -03436.6 -07.5120 26286.9
 02 04 2013  12 40  -21.1040 26061.7 -03436.5 -07.5117 26287.3
 02 04 2013  12 41  -21.1034 26062.0 -03436.4 -07.5114 26287.6
 02 04 2013  12 42  -21.1028 26062.4 -03436.4 -07.5112 26288.0
 02 04 2013  12 43  -21.1023 26063.1 -03436.4 -07.5110 26288.6
 02 04 2013  12 44  -21.1018 26063.4 -03436.3 -07.5107 26288.9
 02 04 2013  12 45  -21.1016 26063.6 -03436.1 -07.5103 26289.1
 02 04 2013  12 46  -21.1018 26063.9 -03436.0 -07.5100 26289.4
 02 04 2013  12 47  -21.1020 26064.3 -03435.9 -07.5097 26289.8
 02 04 2013  12 48  -21.1023 26064.7 -03435.8 -07.5093 26290.2
 02 04 2013  12 49  -21.1026 26064.8 -03435.6 -07.5089 26290.2
 02 04 2013  12 50  -21.1030 26065.0 -03435.5 -07.5086 26290.4
 02 04 2013  12 51  -21.1032 26065.2 -03435.4 -07.5083 26290.7
 02 04 2013  12 52  -21.1032 26064.8 -03435.0 -07.5076 26290.1
 02 04 2013  12 53  -21.1030 26065.4 -03435.2 -07.5077 26290.8
 02 04 2013  12 54  -21.1028 26065.5 -03435.1 -07.5076 26290.9
 02 04 2013  12 55  -21.1025 26066.1 -03435.2 -07.5076 26291.5
 02 04 2013  12 56  -21.1022 26066.4 -03435.1 -07.5074 26291.7
 02 04 2013  12 57  -21.1022 26066.9 -03435.2 -07.5073 26292.2
 02 04 2013  12 58  -21.1024 26067.1 -03435.1 -07.5071 26292.5
 02 04 2013  12 59  -21.1026 26067.4 -03435.0 -07.5069 26292.7
 02 04 2013  13 00  -21.1028 26067.4 -03434.8 -07.5064 26292.7
 02 04 2013  13 01  -21.1031 26067.7 -03434.8 -07.5063 26293.0
 02 04 2013  13 02  -21.1033 26067.6 -03434.6 -07.5059 26292.9
 02 04 2013  13 03  -21.1032 26067.8 -03434.6 -07.5058 26293.1
 02 04 2013  13 04  -21.1033 26067.9 -03434.5 -07.5057 26293.2
 02 04 2013  13 05  -21.1032 26068.3 -03434.6 -07.5056 26293.6
 02 04 2013  13 06  -21.1034 26068.6 -03434.6 -07.5056 26293.9
 02 04 2013  13 07  -21.1035 26068.8 -03434.6 -07.5054 26294.1
 02 04 2013  13 08  -21.1037 26069.2 -03434.6 -07.5054 26294.5
 02 04 2013  13 09  -21.1039 26069.6 -03434.6 -07.5053 26294.9
 02 04 2013  13 10  -21.1041 26070.0 -03434.5 -07.5051 26295.2
 02 04 2013  13 11  -21.1043 26070.3 -03434.5 -07.5049 26295.5
 02 04 2013  13 12  -21.1046 26070.7 -03434.5 -07.5048 26295.9
 02 04 2013  13 13  -21.1048 26071.0 -03434.5 -07.5046 26296.3
 02 04 2013  13 14  -21.1049 26071.2 -03434.4 -07.5043 26296.4
 02 04 2013  13 15  -21.1048 26071.3 -03434.2 -07.5040 26296.5
 02 04 2013  13 16  -21.1049 26071.4 -03434.1 -07.5036 26296.6
 02 04 2013  13 17  -21.1047 26071.6 -03433.9 -07.5033 26296.8
 02 04 2013  13 18  -21.1047 26071.8 -03433.9 -07.5031 26296.9
 02 04 2013  13 19  -21.1047 26072.0 -03433.8 -07.5029 26297.2
 02 04 2013  13 20  -21.1049 26072.5 -03433.8 -07.5027 26297.6
 02 04 2013  13 21  -21.1051 26073.0 -03433.8 -07.5026 26298.1
 02 04 2013  13 22  -21.1053 26073.4 -03433.8 -07.5024 26298.5
 02 04 2013  13 23  -21.1055 26073.7 -03433.6 -07.5021 26298.8
 02 04 2013  13 24  -21.1056 26074.1 -03433.5 -07.5017 26299.2
 02 04 2013  13 25  -21.1058 26074.4 -03433.3 -07.5012 26299.4
 02 04 2013  13 26  -21.1060 26074.7 -03433.2 -07.5008 26299.8
 02 04 2013  13 27  -21.1062 26074.9 -03433.0 -07.5004 26299.9
 02 04 2013  13 28  -21.1064 26075.0 -03432.8 -07.4999 26300.0
 02 04 2013  13 29  -21.1064 26075.3 -03432.7 -07.4996 26300.2
 02 04 2013  13 30  -21.1066 26075.6 -03432.6 -07.4993 26300.5
 02 04 2013  13 31  -21.1068 26075.9 -03432.5 -07.4990 26300.8
 02 04 2013  13 32  -21.1070 26076.2 -03432.3 -07.4986 26301.1
 02 04 2013  13 33  -21.1070 26076.4 -03432.2 -07.4982 26301.3
 02 04 2013  13 34  -21.1072 26076.7 -03432.1 -07.4979 26301.6
 02 04 2013  13 35  -21.1075 26077.1 -03432.0 -07.4975 26302.0
 02 04 2013  13 36  -21.1077 26077.4 -03431.8 -07.4972 26302.2
 02 04 2013  13 37  -21.1079 26077.5 -03431.6 -07.4967 26302.3
 02 04 2013  13 38  -21.1081 26077.7 -03431.5 -07.4963 26302.5
 02 04 2013  13 39  -21.1082 26077.9 -03431.4 -07.4959 26302.7
 02 04 2013  13 40  -21.1085 26078.4 -03431.3 -07.4957 26303.1
 02 04 2013  13 41  -21.1087 26078.3 -03431.0 -07.4950 26303.0
 02 04 2013  13 42  -21.1091 26078.5 -03430.9 -07.4947 26303.2
 02 04 2013  13 43  -21.1095 26078.6 -03430.7 -07.4943 26303.3
 02 04 2013  13 44  -21.1099 26078.9 -03430.6 -07.4939 26303.6
 02 04 2013  13 45  -21.1103 26078.8 -03430.2 -07.4933 26303.4
 02 04 2013  13 46  -21.1105 26078.8 -03430.1 -07.4929 26303.4
 02 04 2013  13 47  -21.1106 26078.6 -03429.8 -07.4923 26303.2
 02 04 2013  13 48  -21.1111 26079.1 -03429.8 -07.4923 26303.7
 02 04 2013  13 49  -21.1113 26079.3 -03429.6 -07.4919 26303.8
 02 04 2013  13 50  -21.1113 26079.2 -03429.4 -07.4914 26303.8
 02 04 2013  13 51  -21.1111 26079.6 -03429.4 -07.4912 26304.1
 02 04 2013  13 52  -21.1111 26079.7 -03429.2 -07.4908 26304.2
 02 04 2013  13 53  -21.1111 26080.2 -03429.2 -07.4906 26304.6
 02 04 2013  13 54  -21.1113 26080.7 -03429.2 -07.4904 26305.1
 02 04 2013  13 55  -21.1115 26081.0 -03429.0 -07.4900 26305.5
 02 04 2013  13 56  -21.1116 26081.1 -03428.8 -07.4895 26305.6
 02 04 2013  13 57  -21.1116 26081.1 -03428.6 -07.4891 26305.5
 02 04 2013  13 58  -21.1114 26081.1 -03428.4 -07.4886 26305.5
 02 04 2013  13 59  -21.1113 26081.2 -03428.3 -07.4883 26305.6
 02 04 2013  14 00  -21.1112 26081.4 -03428.2 -07.4881 26305.7
 02 04 2013  14 01  -21.1111 26081.6 -03428.2 -07.4880 26306.0
 02 04 2013  14 02  -21.1112 26081.8 -03428.1 -07.4878 26306.1
 02 04 2013  14 03  -21.1113 26082.0 -03428.0 -07.4876 26306.3
 02 04 2013  14 04  -21.1113 26082.2 -03428.0 -07.4874 26306.5
 02 04 2013  14 05  -21.1113 26082.4 -03427.9 -07.4872 26306.7
 02 04 2013  14 06  -21.1114 26082.6 -03427.8 -07.4869 26306.9
 02 04 2013  14 07  -21.1113 26082.9 -03427.7 -07.4867 26307.2
 02 04 2013  14 08  -21.1112 26083.2 -03427.7 -07.4865 26307.5
 02 04 2013  14 09  -21.1109 26083.6 -03427.6 -07.4862 26307.8
 02 04 2013  14 10  -21.1109 26083.8 -03427.5 -07.4858 26308.1
 02 04 2013  14 11  -21.1107 26084.3 -03427.4 -07.4855 26308.5
 02 04 2013  14 12  -21.1105 26084.5 -03427.2 -07.4851 26308.7
 02 04 2013  14 13  -21.1102 26084.9 -03427.1 -07.4848 26309.1
 02 04 2013  14 14  -21.1101 26085.3 -03427.0 -07.4844 26309.5
 02 04 2013  14 15  -21.1101 26085.5 -03426.8 -07.4840 26309.7
 02 04 2013  14 16  -21.1103 26085.6 -03426.6 -07.4835 26309.7
 02 04 2013  14 17  -21.1103 26085.9 -03426.5 -07.4832 26310.0
 02 04 2013  14 18  -21.1103 26085.8 -03426.3 -07.4827 26309.9
 02 04 2013  14 19  -21.1102 26085.9 -03426.1 -07.4823 26310.0
 02 04 2013  14 20  -21.1102 26086.0 -03425.9 -07.4819 26310.0
 02 04 2013  14 21  -21.1100 26086.1 -03425.8 -07.4816 26310.0
 02 04 2013  14 22  -21.1099 26086.3 -03425.7 -07.4814 26310.3
 02 04 2013  14 23  -21.1096 26086.6 -03425.6 -07.4812 26310.6
 02 04 2013  14 24  -21.1090 26086.4 -03425.3 -07.4806 26310.3
 02 04 2013  14 25  -21.1086 26086.4 -03425.2 -07.4803 26310.4
 02 04 2013  14 26  -21.1083 26086.3 -03425.1 -07.4800 26310.2
 02 04 2013  14 27  -21.1082 26086.7 -03425.1 -07.4800 26310.6
 02 04 2013  14 28  -21.1081 26087.0 -03425.1 -07.4798 26310.8
 02 04 2013  14 29  -21.1081 26087.1 -03425.0 -07.4796 26311.0
 02 04 2013  14 30  -21.1082 26087.3 -03424.9 -07.4794 26311.1
 02 04 2013  14 31  -21.1081 26087.1 -03424.7 -07.4790 26311.0
 02 04 2013  14 32  -21.1080 26087.0 -03424.6 -07.4787 26310.9
 02 04 2013  14 33  -21.1076 26086.9 -03424.4 -07.4785 26310.7
 02 04 2013  14 34  -21.1072 26087.3 -03424.5 -07.4785 26311.1
 02 04 2013  14 35  -21.1070 26087.6 -03424.5 -07.4785 26311.4
 02 04 2013  14 36  -21.1068 26088.0 -03424.7 -07.4786 26311.9
 02 04 2013  14 37  -21.1065 26088.5 -03424.7 -07.4786 26312.3
 02 04 2013  14 38  -21.1064 26088.6 -03424.6 -07.4784 26312.4
 02 04 2013  14 39  -21.1065 26088.6 -03424.5 -07.4782 26312.4
 02 04 2013  14 40  -21.1065 26088.7 -03424.4 -07.4779 26312.4
 02 04 2013  14 41  -21.1068 26089.1 -03424.5 -07.4780 26312.9
 02 04 2013  14 42  -21.1065 26089.0 -03424.3 -07.4777 26312.7
 02 04 2013  14 43  -21.1060 26089.4 -03424.4 -07.4777 26313.2
 02 04 2013  14 44  -21.1053 26089.4 -03424.3 -07.4775 26313.2
 02 04 2013  14 45  -21.1049 26089.7 -03424.4 -07.4775 26313.5
 02 04 2013  14 46  -21.1046 26090.0 -03424.4 -07.4775 26313.7
 02 04 2013  14 47  -21.1046 26090.2 -03424.4 -07.4775 26314.0
 02 04 2013  14 48  -21.1044 26090.2 -03424.3 -07.4772 26314.0
 02 04 2013  14 49  -21.1044 26090.2 -03424.2 -07.4769 26314.0
 02 04 2013  14 50  -21.1046 26090.4 -03424.1 -07.4768 26314.2
 02 04 2013  14 51  -21.1051 26090.7 -03424.1 -07.4766 26314.5
 02 04 2013  14 52  -21.1052 26091.2 -03424.1 -07.4764 26314.9
 02 04 2013  14 53  -21.1049 26091.6 -03424.0 -07.4761 26315.3
 02 04 2013  14 54  -21.1043 26091.8 -03423.9 -07.4758 26315.5
 02 04 2013  14 55  -21.1037 26091.3 -03423.4 -07.4751 26315.0
 02 04 2013  14 56  -21.1030 26090.9 -03423.2 -07.4747 26314.5
 02 04 2013  14 57  -21.1027 26090.8 -03423.1 -07.4745 26314.4
 02 04 2013  14 58  -21.1030 26090.6 -03423.1 -07.4745 26314.2
 02 04 2013  14 59  -21.1030 26090.3 -03422.9 -07.4742 26313.8
 02 04 2013  15 00  -21.1037 26090.8 -03423.2 -07.4746 26314.4
 02 04 2013  15 01  -21.1043 26091.0 -03423.2 -07.4746 26314.6
 02 04 2013  15 02  -21.1047 26090.9 -03423.0 -07.4743 26314.5
 02 04 2013  15 03  -21.1045 26091.2 -03423.0 -07.4741 26314.8
 02 04 2013  15 04  -21.1040 26091.1 -03422.8 -07.4736 26314.7
 02 04 2013  15 05  -21.1035 26091.4 -03422.7 -07.4735 26314.9
 02 04 2013  15 06  -21.1024 26091.1 -03422.3 -07.4727 26314.6
 02 04 2013  15 07  -21.1020 26091.1 -03422.2 -07.4724 26314.6
 02 04 2013  15 08  -21.1014 26090.8 -03421.9 -07.4719 26314.2
 02 04 2013  15 09  -21.1010 26090.6 -03421.7 -07.4716 26314.0
 02 04 2013  15 10  -21.1008 26090.2 -03421.5 -07.4712 26313.6
 02 04 2013  15 11  -21.1006 26089.8 -03421.3 -07.4708 26313.1
 02 04 2013  15 12  -21.1005 26089.7 -03421.2 -07.4708 26313.0
 02 04 2013  15 13  -21.1004 26089.2 -03421.0 -07.4705 26312.6
 02 04 2013  15 14  -21.1002 26088.9 -03420.9 -07.4702 26312.2
 02 04 2013  15 15  -21.1000 26089.0 -03420.9 -07.4702 26312.3
 02 04 2013  15 16  -21.1000 26088.8 -03420.9 -07.4702 26312.1
 02 04 2013  15 17  -21.0997 26088.6 -03420.7 -07.4700 26312.0
 02 04 2013  15 18  -21.0992 26088.9 -03420.8 -07.4700 26312.2
 02 04 2013  15 19  -21.0989 26089.1 -03420.8 -07.4700 26312.4
 02 04 2013  15 20  -21.0986 26089.4 -03420.8 -07.4698 26312.7
 02 04 2013  15 21  -21.0981 26089.2 -03420.5 -07.4693 26312.5
 02 04 2013  15 22  -21.0973 26089.5 -03420.5 -07.4692 26312.8
 02 04 2013  15 23  -21.0971 26089.6 -03420.4 -07.4689 26312.8
 02 04 2013  15 24  -21.0967 26089.1 -03420.0 -07.4684 26312.3
 02 04 2013  15 25  -21.0963 26089.1 -03420.0 -07.4682 26312.3
 02 04 2013  15 26  -21.0961 26089.2 -03419.9 -07.4680 26312.4
 02 04 2013  15 27  -21.0958 26089.0 -03419.7 -07.4677 26312.1
 02 04 2013  15 28  -21.0956 26089.0 -03419.7 -07.4676 26312.2
 02 04 2013  15 29  -21.0953 26089.2 -03419.7 -07.4676 26312.4
 02 04 2013  15 30  -21.0953 26089.3 -03419.8 -07.4677 26312.5
 02 04 2013  15 31  -21.0951 26089.2 -03419.6 -07.4675 26312.3
 02 04 2013  15 32  -21.0950 26089.3 -03419.7 -07.4675 26312.5
 02 04 2013  15 33  -21.0950 26089.4 -03419.6 -07.4674 26312.6
 02 04 2013  15 34  -21.0949 26089.6 -03419.6 -07.4672 26312.7
 02 04 2013  15 35  -21.0948 26089.6 -03419.5 -07.4671 26312.8
 02 04 2013  15 36  -21.0944 26089.4 -03419.4 -07.4668 26312.6
 02 04 2013  15 37  -21.0940 26089.2 -03419.1 -07.4664 26312.3
 02 04 2013  15 38  -21.0937 26089.0 -03419.0 -07.4662 26312.0
 02 04 2013  15 39  -21.0932 26088.5 -03418.8 -07.4658 26311.6
 02 04 2013  15 40  -21.0928 26088.0 -03418.6 -07.4656 26311.0
 02 04 2013  15 41  -21.0926 26088.0 -03418.7 -07.4658 26311.0
 02 04 2013  15 42  -21.0925 26087.9 -03418.7 -07.4658 26310.9
 02 04 2013  15 43  -21.0927 26087.8 -03418.7 -07.4659 26310.9
 02 04 2013  15 44  -21.0926 26087.5 -03418.7 -07.4658 26310.6
 02 04 2013  15 45  -21.0928 26087.1 -03418.5 -07.4657 26310.1
 02 04 2013  15 46  -21.0928 26087.0 -03418.6 -07.4658 26310.0
 02 04 2013  15 47  -21.0930 26086.4 -03418.4 -07.4655 26309.5
 02 04 2013  15 48  -21.0931 26086.6 -03418.5 -07.4658 26309.6
 02 04 2013  15 49  -21.0936 26086.8 -03418.7 -07.4660 26309.8
 02 04 2013  15 50  -21.0938 26086.8 -03418.7 -07.4660 26309.9
 02 04 2013  15 51  -21.0940 26086.8 -03418.6 -07.4658 26309.8
 02 04 2013  15 52  -21.0941 26086.4 -03418.4 -07.4655 26309.4
 02 04 2013  15 53  -21.0942 26085.9 -03418.2 -07.4653 26308.9
 02 04 2013  15 54  -21.0942 26085.7 -03418.1 -07.4652 26308.7
 02 04 2013  15 55  -21.0946 26085.2 -03418.0 -07.4650 26308.1
 02 04 2013  15 56  -21.0949 26084.5 -03417.9 -07.4650 26307.5
 02 04 2013  15 57  -21.0950 26084.4 -03418.0 -07.4652 26307.4
 02 04 2013  15 58  -21.0954 26083.5 -03417.7 -07.4649 26306.5
 02 04 2013  15 59  -21.0955 26083.2 -03417.8 -07.4652 26306.2
 02 04 2013  16 00  -21.0959 26082.7 -03417.8 -07.4654 26305.7
 02 04 2013  16 01  -21.0959 26082.5 -03417.9 -07.4656 26305.5
 02 04 2013  16 02  -21.0963 26082.2 -03418.0 -07.4659 26305.2
 02 04 2013  16 03  -21.0967 26082.2 -03418.2 -07.4663 26305.3
 02 04 2013  16 04  -21.0972 26082.2 -03418.4 -07.4667 26305.2
 02 04 2013  16 05  -21.0979 26082.2 -03418.5 -07.4670 26305.3
 02 04 2013  16 06  -21.0985 26082.4 -03418.7 -07.4673 26305.4
 02 04 2013  16 07  -21.0996 26082.5 -03418.8 -07.4676 26305.7
 02 04 2013  16 08  -21.1004 26082.5 -03418.9 -07.4677 26305.7
 02 04 2013  16 09  -21.1009 26082.6 -03418.9 -07.4678 26305.7
 02 04 2013  16 10  -21.1013 26082.3 -03418.9 -07.4677 26305.4
 02 04 2013  16 11  -21.1021 26082.4 -03419.0 -07.4679 26305.5
 02 04 2013  16 12  -21.1024 26082.3 -03418.9 -07.4678 26305.4
 02 04 2013  16 13  -21.1033 26082.4 -03419.0 -07.4681 26305.6
 02 04 2013  16 14  -21.1040 26082.8 -03419.2 -07.4683 26305.9
 02 04 2013  16 15  -21.1049 26083.1 -03419.2 -07.4683 26306.2
 02 04 2013  16 16  -21.1056 26083.0 -03419.1 -07.4681 26306.2
 02 04 2013  16 17  -21.1062 26083.1 -03419.1 -07.4680 26306.2
 02 04 2013  16 18  -21.1067 26083.1 -03419.0 -07.4678 26306.3
 02 04 2013  16 19  -21.1075 26083.0 -03418.9 -07.4676 26306.1
 02 04 2013  16 20  -21.1081 26082.7 -03418.7 -07.4672 26305.8
 02 04 2013  16 21  -21.1088 26082.6 -03418.5 -07.4669 26305.7
 02 04 2013  16 22  -21.1096 26082.3 -03418.3 -07.4666 26305.3
 02 04 2013  16 23  -21.1102 26081.9 -03418.1 -07.4661 26304.9
 02 04 2013  16 24  -21.1110 26081.8 -03417.9 -07.4659 26304.8
 02 04 2013  16 25  -21.1118 26081.5 -03417.7 -07.4654 26304.5
 02 04 2013  16 26  -21.1123 26081.3 -03417.5 -07.4651 26304.2
 02 04 2013  16 27  -21.1127 26081.2 -03417.4 -07.4648 26304.1
 02 04 2013  16 28  -21.1129 26081.1 -03417.2 -07.4645 26304.0
 02 04 2013  16 29  -21.1131 26081.1 -03417.1 -07.4643 26304.0
 02 04 2013  16 30  -21.1134 26081.1 -03417.1 -07.4642 26304.0
 02 04 2013  16 31  -21.1139 26081.1 -03417.0 -07.4641 26304.0
 02 04 2013  16 32  -21.1141 26081.1 -03416.9 -07.4639 26304.0
 02 04 2013  16 33  -21.1142 26081.4 -03416.9 -07.4638 26304.3
 02 04 2013  16 34  -21.1143 26080.9 -03416.6 -07.4632 26303.8
 02 04 2013  16 35  -21.1143 26081.3 -03416.6 -07.4632 26304.1
 02 04 2013  16 36  -21.1144 26081.3 -03416.5 -07.4629 26304.1
 02 04 2013  16 37  -21.1146 26081.2 -03416.3 -07.4626 26304.0
 02 04 2013  16 38  -21.1144 26080.7 -03416.1 -07.4621 26303.5
 02 04 2013  16 39  -21.1141 26080.3 -03415.8 -07.4618 26303.0
 02 04 2013  16 40  -21.1140 26080.1 -03415.8 -07.4618 26302.9
 02 04 2013  16 41  -21.1143 26079.9 -03415.7 -07.4617 26302.6
 02 04 2013  16 42  -21.1146 26079.5 -03415.6 -07.4616 26302.2
 02 04 2013  16 43  -21.1147 26079.2 -03415.6 -07.4615 26301.9
 02 04 2013  16 44  -21.1148 26078.7 -03415.4 -07.4614 26301.4
 02 04 2013  16 45  -21.1149 26078.3 -03415.4 -07.4614 26301.0
 02 04 2013  16 46  -21.1151 26078.0 -03415.4 -07.4614 26300.7
 02 04 2013  16 47  -21.1153 26077.8 -03415.4 -07.4615 26300.5
 02 04 2013  16 48  -21.1157 26077.5 -03415.4 -07.4616 26300.2
 02 04 2013  16 49  -21.1161 26077.1 -03415.3 -07.4616 26299.8
 02 04 2013  16 50  -21.1165 26076.6 -03415.2 -07.4615 26299.3
 02 04 2013  16 51  -21.1167 26076.0 -03415.0 -07.4612 26298.7
 02 04 2013  16 52  -21.1167 26075.4 -03414.9 -07.4610 26298.0
 02 04 2013  16 53  -21.1170 26074.9 -03414.8 -07.4611 26297.6
 02 04 2013  16 54  -21.1174 26074.7 -03414.9 -07.4612 26297.4
 02 04 2013  16 55  -21.1179 26074.5 -03414.9 -07.4613 26297.2
 02 04 2013  16 56  -21.1181 26074.3 -03414.8 -07.4613 26296.9
 02 04 2013  16 57  -21.1183 26074.0 -03414.7 -07.4612 26296.6
 02 04 2013  16 58  -21.1186 26073.8 -03414.7 -07.4612 26296.5
 02 04 2013  16 59  -21.1190 26073.5 -03414.7 -07.4612 26296.1
 02 04 2013  17 00  -21.1192 26073.3 -03414.6 -07.4611 26295.9
 02 04 2013  17 01  -21.1196 26072.9 -03414.4 -07.4608 26295.5
 02 04 2013  17 02  -21.1199 26072.6 -03414.3 -07.4606 26295.2
 02 04 2013  17 03  -21.1203 26072.3 -03414.2 -07.4606 26294.9
 02 04 2013  17 04  -21.1205 26072.0 -03414.1 -07.4604 26294.6
 02 04 2013  17 05  -21.1205 26071.8 -03414.0 -07.4603 26294.4
 02 04 2013  17 06  -21.1207 26071.7 -03414.0 -07.4603 26294.2
 02 04 2013  17 07  -21.1211 26071.5 -03414.0 -07.4603 26294.0
 02 04 2013  17 08  -21.1213 26071.4 -03413.9 -07.4602 26293.9
 02 04 2013  17 09  -21.1216 26071.1 -03413.8 -07.4600 26293.6
 02 04 2013  17 10  -21.1213 26070.7 -03413.6 -07.4596 26293.2
 02 04 2013  17 11  -21.1212 26070.4 -03413.5 -07.4595 26293.0
 02 04 2013  17 12  -21.1216 26070.3 -03413.5 -07.4595 26292.8
 02 04 2013  17 13  -21.1218 26070.0 -03413.4 -07.4595 26292.6
 02 04 2013  17 14  -21.1219 26069.7 -03413.3 -07.4592 26292.2
 02 04 2013  17 15  -21.1218 26069.3 -03413.1 -07.4590 26291.8
 02 04 2013  17 16  -21.1219 26069.0 -03413.0 -07.4589 26291.5
 02 04 2013  17 17  -21.1217 26068.7 -03412.9 -07.4587 26291.1
 02 04 2013  17 18  -21.1217 26068.3 -03412.8 -07.4585 26290.8
 02 04 2013  17 19  -21.1217 26067.9 -03412.6 -07.4583 26290.4
 02 04 2013  17 20  -21.1219 26067.6 -03412.5 -07.4582 26290.1
 02 04 2013  17 21  -21.1220 26067.5 -03412.5 -07.4582 26289.9
 02 04 2013  17 22  -21.1217 26067.2 -03412.4 -07.4580 26289.6
 02 04 2013  17 23  -21.1213 26066.7 -03412.2 -07.4577 26289.0
 02 04 2013  17 24  -21.1210 26066.4 -03412.1 -07.4576 26288.8
 02 04 2013  17 25  -21.1208 26066.2 -03412.0 -07.4575 26288.6
 02 04 2013  17 26  -21.1207 26065.6 -03411.8 -07.4571 26287.9
 02 04 2013  17 27  -21.1206 26065.6 -03411.8 -07.4571 26288.0
 02 04 2013  17 28  -21.1205 26065.3 -03411.6 -07.4569 26287.7
 02 04 2013  17 29  -21.1203 26064.9 -03411.4 -07.4566 26287.2
 02 04 2013  17 30  -21.1197 26064.4 -03411.2 -07.4562 26286.7
 02 04 2013  17 31  -21.1189 26064.1 -03411.0 -07.4559 26286.3
 02 04 2013  17 32  -21.1180 26063.6 -03410.8 -07.4557 26285.9
 02 04 2013  17 33  -21.1175 26063.2 -03410.7 -07.4555 26285.4
 02 04 2013  17 34  -21.1169 26062.5 -03410.5 -07.4552 26284.7
 02 04 2013  17 35  -21.1163 26062.6 -03410.6 -07.4555 26284.8
 02 04 2013  17 36  -21.1159 26062.2 -03410.5 -07.4554 26284.4
 02 04 2013  17 37  -21.1157 26061.9 -03410.5 -07.4554 26284.1
 02 04 2013  17 38  -21.1149 26061.7 -03410.4 -07.4553 26283.9
 02 04 2013  17 39  -21.1146 26061.6 -03410.4 -07.4554 26283.8
 02 04 2013  17 40  -21.1142 26060.8 -03410.2 -07.4550 26283.0
 02 04 2013  17 41  -21.1135 26060.5 -03410.1 -07.4550 26282.7
 02 04 2013  17 42  -21.1129 26060.3 -03410.1 -07.4550 26282.4
 02 04 2013  17 43  -21.1121 26059.8 -03410.0 -07.4549 26281.9
 02 04 2013  17 44  -21.1114 26059.6 -03410.0 -07.4550 26281.7
 02 04 2013  17 45  -21.1109 26059.2 -03410.0 -07.4550 26281.4
 02 04 2013  17 46  -21.1102 26058.8 -03410.0 -07.4551 26281.0
 02 04 2013  17 47  -21.1096 26058.7 -03410.1 -07.4554 26280.8
 02 04 2013  17 48  -21.1091 26058.4 -03410.1 -07.4555 26280.6
 02 04 2013  17 49  -21.1089 26058.2 -03410.1 -07.4557 26280.4
 02 04 2013  17 50  -21.1086 26057.9 -03410.2 -07.4558 26280.1
 02 04 2013  17 51  -21.1082 26057.7 -03410.2 -07.4561 26279.9
 02 04 2013  17 52  -21.1079 26057.7 -03410.3 -07.4562 26279.9
 02 04 2013  17 53  -21.1077 26057.3 -03410.2 -07.4562 26279.5
 02 04 2013  17 54  -21.1074 26057.1 -03410.3 -07.4564 26279.3
 02 04 2013  17 55  -21.1072 26056.8 -03410.4 -07.4566 26279.1
 02 04 2013  17 56  -21.1070 26056.5 -03410.3 -07.4566 26278.7
 02 04 2013  17 57  -21.1066 26056.0 -03410.2 -07.4565 26278.2
 02 04 2013  17 58  -21.1064 26055.6 -03410.2 -07.4566 26277.9
 02 04 2013  17 59  -21.1062 26055.3 -03410.3 -07.4568 26277.5
 02 04 2013  18 00  -21.1058 26054.7 -03410.2 -07.4567 26276.9
 02 04 2013  18 01  -21.1057 26054.8 -03410.3 -07.4571 26277.1
 02 04 2013  18 02  -21.1057 26054.6 -03410.4 -07.4572 26276.9
 02 04 2013  18 03  -21.1054 26054.1 -03410.2 -07.4570 26276.4
 02 04 2013  18 04  -21.1051 26054.0 -03410.2 -07.4571 26276.3
 02 04 2013  18 05  -21.1050 26053.8 -03410.3 -07.4572 26276.0
 02 04 2013  18 06  -21.1048 26053.6 -03410.2 -07.4572 26275.8
 02 04 2013  18 07  -21.1047 26053.2 -03410.1 -07.4571 26275.5
 02 04 2013  18 08  -21.1042 26052.9 -03410.1 -07.4571 26275.1
 02 04 2013  18 09  -21.1041 26052.6 -03410.0 -07.4570 26274.8
 02 04 2013  18 10  -21.1035 26052.1 -03409.9 -07.4569 26274.3
 02 04 2013  18 11  -21.1030 26052.0 -03409.9 -07.4570 26274.2
 02 04 2013  18 12  -21.1025 26051.7 -03409.9 -07.4569 26273.9
 02 04 2013  18 13  -21.1020 26051.2 -03409.7 -07.4566 26273.4
 02 04 2013  18 14  -21.1014 26050.9 -03409.6 -07.4566 26273.1
 02 04 2013  18 15  -21.1008 26050.5 -03409.4 -07.4564 26272.7
 02 04 2013  18 16  -21.0997 26050.0 -03409.3 -07.4563 26272.2
 02 04 2013  18 17  -21.0985 26049.6 -03409.3 -07.4563 26271.7
 02 04 2013  18 18  -21.0976 26049.2 -03409.3 -07.4564 26271.4
 02 04 2013  18 19  -21.0969 26048.8 -03409.3 -07.4565 26271.0
 02 04 2013  18 20  -21.0964 26049.1 -03409.5 -07.4569 26271.2
 02 04 2013  18 21  -21.0957 26048.3 -03409.3 -07.4568 26270.5
 02 04 2013  18 22  -21.0948 26048.2 -03409.5 -07.4570 26270.4
 02 04 2013  18 23  -21.0940 26047.7 -03409.4 -07.4570 26269.9
 02 04 2013  18 24  -21.0933 26047.9 -03409.6 -07.4574 26270.1
 02 04 2013  18 25  -21.0924 26047.4 -03409.5 -07.4575 26269.6
 02 04 2013  18 26  -21.0914 26047.3 -03409.7 -07.4577 26269.5
 02 04 2013  18 27  -21.0904 26047.3 -03409.8 -07.4581 26269.5
 02 04 2013  18 28  -21.0922 26045.9 -03409.4 -07.4575 26268.1
 02 04 2013  18 29  -21.0928 26046.5 -03409.7 -07.4581 26268.7
 02 04 2013  18 30  -21.0922 26046.1 -03409.6 -07.4581 26268.3
 02 04 2013  18 31  -21.0908 26045.4 -03409.5 -07.4580 26267.7
 02 04 2013  18 32  -21.0899 26045.3 -03409.6 -07.4583 26267.5
 02 04 2013  18 33  -21.0891 26044.9 -03409.7 -07.4584 26267.2
 02 04 2013  18 34  -21.0883 26044.1 -03409.5 -07.4583 26266.3
 02 04 2013  18 35  -21.0871 26043.8 -03409.6 -07.4586 26266.0
 02 04 2013  18 36  -21.0866 26043.9 -03409.9 -07.4592 26266.2
 02 04 2013  18 37  -21.0860 26043.4 -03409.9 -07.4595 26265.7
 02 04 2013  18 38  -21.0853 26043.6 -03410.2 -07.4601 26265.9
 02 04 2013  18 39  -21.0849 26043.2 -03410.3 -07.4603 26265.6
 02 04 2013  18 40  -21.0841 26043.0 -03410.4 -07.4605 26265.3
 02 04 2013  18 41  -21.0833 26042.9 -03410.6 -07.4610 26265.3
 02 04 2013  18 42  -21.0826 26042.7 -03410.7 -07.4613 26265.0
 02 04 2013  18 43  -21.0822 26042.5 -03410.8 -07.4616 26264.9
 02 04 2013  18 44  -21.0816 26042.4 -03411.0 -07.4620 26264.8
 02 04 2013  18 45  -21.0809 26042.3 -03411.1 -07.4623 26264.8
 02 04 2013  18 46  -21.0803 26042.3 -03411.3 -07.4628 26264.7
 02 04 2013  18 47  -21.0797 26042.0 -03411.4 -07.4630 26264.4
 02 04 2013  18 48  -21.0791 26041.6 -03411.5 -07.4634 26264.1
 02 04 2013  18 49  -21.0786 26041.2 -03411.7 -07.4638 26263.7
 02 04 2013  18 50  -21.0780 26040.8 -03411.8 -07.4642 26263.4
 02 04 2013  18 51  -21.0777 26040.6 -03412.0 -07.4647 26263.2
 02 04 2013  18 52  -21.0774 26040.3 -03412.2 -07.4651 26262.9
 02 04 2013  18 53  -21.0771 26039.9 -03412.3 -07.4654 26262.5
 02 04 2013  18 54  -21.0768 26039.7 -03412.4 -07.4659 26262.3
 02 04 2013  18 55  -21.0764 26039.6 -03412.7 -07.4664 26262.3
 02 04 2013  18 56  -21.0761 26039.6 -03412.9 -07.4669 26262.3
 02 04 2013  18 57  -21.0761 26039.4 -03413.0 -07.4672 26262.1
 02 04 2013  18 58  -21.0789 26039.3 -03413.2 -07.4676 26262.0
 02 04 2013  18 59  -21.0778 26038.9 -03413.3 -07.4680 26261.6
 02 04 2013  19 00  -21.0737 26038.7 -03413.5 -07.4685 26261.5
 02 04 2013  19 01  -21.0702 26039.2 -03414.1 -07.4696 26262.1
 02 04 2013  19 02  -21.0699 26039.0 -03414.3 -07.4700 26261.9
 02 04 2013  19 03  -21.0694 26038.9 -03414.4 -07.4704 26261.8
 02 04 2013  19 04  -21.0691 26038.7 -03414.6 -07.4708 26261.6
 02 04 2013  19 05  -21.0685 26038.6 -03414.7 -07.4712 26261.6
 02 04 2013  19 06  -21.0680 26038.5 -03414.9 -07.4717 26261.5
 02 04 2013  19 07  -21.0675 26038.3 -03415.1 -07.4720 26261.3
 02 04 2013  19 08  -21.0670 26038.1 -03415.2 -07.4724 26261.1
 02 04 2013  19 09  -21.0666 26038.1 -03415.5 -07.4729 26261.2
 02 04 2013  19 10  -21.0693 26037.8 -03415.4 -07.4729 26260.8
 02 04 2013  19 11  -21.0693 26037.6 -03415.6 -07.4734 26260.7
 02 04 2013  19 12  -21.0690 26037.5 -03415.8 -07.4739 26260.6
 02 04 2013  19 13  -21.0687 26037.4 -03416.0 -07.4743 26260.5
 02 04 2013  19 14  -21.0683 26037.2 -03416.2 -07.4748 26260.3
 02 04 2013  19 15  -21.0679 26037.0 -03416.4 -07.4753 26260.2
 02 04 2013  19 16  -21.0675 26036.7 -03416.6 -07.4757 26259.9
 02 04 2013  19 17  -21.0669 26036.5 -03416.8 -07.4762 26259.8
 02 04 2013  19 18  -21.0666 26036.5 -03417.0 -07.4767 26259.8
 02 04 2013  19 19  -21.0662 26036.4 -03417.2 -07.4771 26259.7
 02 04 2013  19 20  -21.0658 26036.3 -03417.3 -07.4775 26259.6
 02 04 2013  19 21  -21.0653 26036.1 -03417.5 -07.4779 26259.4
 02 04 2013  19 22  -21.0648 26035.9 -03417.6 -07.4783 26259.2
 02 04 2013  19 23  -21.0644 26035.6 -03417.8 -07.4787 26259.0
 02 04 2013  19 24  -21.0641 26035.6 -03418.1 -07.4792 26259.0
 02 04 2013  19 25  -21.0637 26035.6 -03418.3 -07.4797 26259.0
 02 04 2013  19 26  -21.0635 26035.6 -03418.5 -07.4802 26259.1
 02 04 2013  19 27  -21.0635 26035.6 -03418.7 -07.4807 26259.1
 02 04 2013  19 28  -21.0630 26035.5 -03418.9 -07.4812 26259.0
 02 04 2013  19 29  -21.0625 26035.4 -03419.1 -07.4816 26258.9
 02 04 2013  19 30  -21.0622 26035.3 -03419.3 -07.4819 26258.9
 02 04 2013  19 31  -21.0616 26035.3 -03419.5 -07.4823 26258.9
 02 04 2013  19 32  -21.0613 26035.3 -03419.7 -07.4828 26258.9
 02 04 2013  19 33  -21.0608 26035.2 -03419.8 -07.4832 26258.8
 02 04 2013  19 34  -21.0602 26035.0 -03420.0 -07.4835 26258.7
 02 04 2013  19 35  -21.0593 26034.9 -03420.1 -07.4838 26258.6
 02 04 2013  19 36  -21.0554 26035.0 -03420.4 -07.4845 26258.7
 02 04 2013  19 37  -21.0545 26035.1 -03420.8 -07.4852 26258.9
 02 04 2013  19 38  -21.0544 26035.1 -03421.0 -07.4856 26258.9
 02 04 2013  19 39  -21.0575 26034.8 -03420.8 -07.4855 26258.6
 02 04 2013  19 40  -21.0571 26034.9 -03421.0 -07.4859 26258.7
 02 04 2013  19 41  -21.0568 26034.9 -03421.2 -07.4862 26258.7
 02 04 2013  19 42  -21.0564 26034.9 -03421.3 -07.4866 26258.7
 02 04 2013  19 43  -21.0561 26035.0 -03421.6 -07.4870 26258.9
 02 04 2013  19 44  -21.0557 26035.0 -03421.7 -07.4873 26258.9
 02 04 2013  19 45  -21.0552 26035.1 -03421.9 -07.4877 26259.0
 02 04 2013  19 46  -21.0545 26035.1 -03422.1 -07.4881 26259.0
 02 04 2013  19 47  -21.0537 26035.0 -03422.2 -07.4884 26258.9
 02 04 2013  19 48  -21.0533 26034.9 -03422.4 -07.4887 26258.9
 02 04 2013  19 49  -21.0528 26035.1 -03422.5 -07.4891 26259.1
 02 04 2013  19 50  -21.0527 26035.2 -03422.7 -07.4893 26259.2
 02 04 2013  19 51  -21.0527 26035.2 -03422.8 -07.4896 26259.3
 02 04 2013  19 52  -21.0528 26035.4 -03423.0 -07.4899 26259.4
 02 04 2013  19 53  -21.0528 26035.5 -03423.1 -07.4902 26259.6
 02 04 2013  19 54  -21.0525 26035.6 -03423.2 -07.4903 26259.6
 02 04 2013  19 55  -21.0489 26035.9 -03423.5 -07.4909 26260.0
 02 04 2013  19 56  -21.0488 26036.0 -03423.7 -07.4912 26260.2
 02 04 2013  19 57  -21.0486 26036.0 -03423.7 -07.4914 26260.2
 02 04 2013  19 58  -21.0483 26036.0 -03423.8 -07.4915 26260.2
 02 04 2013  19 59  -21.0481 26036.1 -03423.9 -07.4916 26260.2
 02 04 2013  20 00  -21.0479 26036.0 -03423.9 -07.4917 26260.2
 02 04 2013  20 01  -21.0479 26036.0 -03423.9 -07.4918 26260.2
 02 04 2013  20 02  -21.0478 26036.0 -03424.0 -07.4919 26260.2
 02 04 2013  20 03  -21.0478 26036.0 -03424.0 -07.4920 26260.2
 02 04 2013  20 04  -21.0476 26036.0 -03424.0 -07.4920 26260.2
 02 04 2013  20 05  -21.0476 26036.1 -03424.0 -07.4921 26260.2
 02 04 2013  20 06  -21.0475 26036.1 -03424.1 -07.4921 26260.3
 02 04 2013  20 07  -21.0475 26036.2 -03424.1 -07.4921 26260.4
 02 04 2013  20 08  -21.0473 26036.2 -03424.1 -07.4921 26260.4
 02 04 2013  20 09  -21.0473 26036.2 -03424.1 -07.4921 26260.4
 02 04 2013  20 10  -21.0472 26036.3 -03424.1 -07.4922 26260.5
 02 04 2013  20 11  -21.0471 26036.4 -03424.2 -07.4922 26260.6
 02 04 2013  20 12  -21.0473 26036.5 -03424.2 -07.4923 26260.7
 02 04 2013  20 13  -21.0473 26036.6 -03424.2 -07.4922 26260.8
 02 04 2013  20 14  -21.0472 26036.6 -03424.2 -07.4922 26260.8
 02 04 2013  20 15  -21.0472 26036.6 -03424.2 -07.4922 26260.8
 02 04 2013  20 16  -21.0472 26036.7 -03424.2 -07.4923 26260.9
 02 04 2013  20 17  -21.0472 26036.7 -03424.2 -07.4922 26261.0
 02 04 2013  20 18  -21.0471 26036.9 -03424.2 -07.4922 26261.1
 02 04 2013  20 19  -21.0469 26036.9 -03424.2 -07.4922 26261.1
 02 04 2013  20 20  -21.0469 26037.0 -03424.2 -07.4922 26261.2
 02 04 2013  20 21  -21.0470 26037.0 -03424.2 -07.4922 26261.2
 02 04 2013  20 22  -21.0468 26037.2 -03424.3 -07.4922 26261.4
 02 04 2013  20 23  -21.0468 26037.2 -03424.3 -07.4922 26261.4
 02 04 2013  20 24  -21.0466 26037.1 -03424.2 -07.4922 26261.4
 02 04 2013  20 25  -21.0464 26037.1 -03424.2 -07.4921 26261.3
 02 04 2013  20 26  -21.0462 26036.9 -03424.1 -07.4920 26261.1
 02 04 2013  20 27  -21.0460 26036.8 -03424.1 -07.4919 26261.0
 02 04 2013  20 28  -21.0458 26036.7 -03424.1 -07.4919 26260.9
 02 04 2013  20 29  -21.0456 26036.6 -03424.0 -07.4918 26260.8
 02 04 2013  20 30  -21.0454 26036.5 -03424.0 -07.4917 26260.6
 02 04 2013  20 31  -21.0453 26036.3 -03423.9 -07.4917 26260.5
 02 04 2013  20 32  -21.0451 26036.2 -03423.9 -07.4916 26260.4
 02 04 2013  20 33  -21.0451 26036.1 -03423.8 -07.4916 26260.3
 02 04 2013  20 34  -21.0450 26036.0 -03423.8 -07.4915 26260.2
 02 04 2013  20 35  -21.0449 26035.9 -03423.8 -07.4915 26260.1
 02 04 2013  20 36  -21.0448 26035.9 -03423.8 -07.4915 26260.1
 02 04 2013  20 37  -21.0447 26035.9 -03423.8 -07.4915 26260.1
 02 04 2013  20 38  -21.0446 26036.0 -03423.8 -07.4915 26260.1
 02 04 2013  20 39  -21.0445 26036.0 -03423.8 -07.4916 26260.2
 02 04 2013  20 40  -21.0445 26036.1 -03423.9 -07.4917 26260.2
 02 04 2013  20 41  -21.0445 26036.1 -03423.8 -07.4916 26260.3
 02 04 2013  20 42  -21.0446 26036.1 -03423.8 -07.4915 26260.3
 02 04 2013  20 43  -21.0445 26036.2 -03423.8 -07.4916 26260.3
 02 04 2013  20 44  -21.0446 26036.2 -03423.8 -07.4915 26260.3
 02 04 2013  20 45  -21.0446 26036.1 -03423.7 -07.4914 26260.3
 02 04 2013  20 46  -21.0447 26036.0 -03423.7 -07.4912 26260.1
 02 04 2013  20 47  -21.0446 26036.0 -03423.6 -07.4911 26260.1
 02 04 2013  20 48  -21.0445 26036.0 -03423.6 -07.4911 26260.1
 02 04 2013  20 49  -21.0444 26036.0 -03423.6 -07.4910 26260.1
 02 04 2013  20 50  -21.0444 26036.0 -03423.5 -07.4909 26260.2
 02 04 2013  20 51  -21.0442 26036.1 -03423.5 -07.4908 26260.2
 02 04 2013  20 52  -21.0440 26036.1 -03423.5 -07.4908 26260.2
 02 04 2013  20 53  -21.0438 26036.2 -03423.5 -07.4908 26260.4
 02 04 2013  20 54  -21.0435 26036.4 -03423.6 -07.4909 26260.6
 02 04 2013  20 55  -21.0433 26036.5 -03423.6 -07.4909 26260.7
 02 04 2013  20 56  -21.0431 26036.6 -03423.5 -07.4908 26260.7
 02 04 2013  20 57  -21.0429 26036.6 -03423.5 -07.4907 26260.7
 02 04 2013  20 58  -21.0425 26036.6 -03423.4 -07.4906 26260.7
 02 04 2013  20 59  -21.0421 26036.5 -03423.4 -07.4905 26260.6
 02 04 2013  21 00  -21.0419 26036.4 -03423.4 -07.4905 26260.5
 02 04 2013  21 01  -21.0417 26036.3 -03423.3 -07.4904 26260.4
 02 04 2013  21 02  -21.0414 26036.3 -03423.3 -07.4903 26260.4
 02 04 2013  21 03  -21.0411 26036.2 -03423.3 -07.4904 26260.3
 02 04 2013  21 04  -21.0410 26036.2 -03423.3 -07.4903 26260.3
 02 04 2013  21 05  -21.0407 26036.1 -03423.3 -07.4903 26260.2
 02 04 2013  21 06  -21.0404 26036.0 -03423.2 -07.4903 26260.1
 02 04 2013  21 07  -21.0401 26035.9 -03423.2 -07.4902 26260.0
 02 04 2013  21 08  -21.0399 26035.8 -03423.1 -07.4902 26259.9
 02 04 2013  21 09  -21.0396 26035.8 -03423.1 -07.4902 26259.9
 02 04 2013  21 10  -21.0393 26035.7 -03423.1 -07.4901 26259.8
 02 04 2013  21 11  -21.0391 26035.6 -03423.1 -07.4901 26259.7
 02 04 2013  21 12  -21.0388 26035.4 -03423.0 -07.4899 26259.5
 02 04 2013  21 13  -21.0385 26035.4 -03423.0 -07.4899 26259.4
 02 04 2013  21 14  -21.0382 26035.4 -03423.0 -07.4899 26259.4
 02 04 2013  21 15  -21.0379 26035.4 -03422.9 -07.4899 26259.4
 02 04 2013  21 16  -21.0378 26035.4 -03423.0 -07.4900 26259.4
 02 04 2013  21 17  -21.0377 26035.4 -03423.1 -07.4901 26259.5
 02 04 2013  21 18  -21.0375 26035.4 -03423.1 -07.4901 26259.4
 02 04 2013  21 19  -21.0372 26035.3 -03423.1 -07.4901 26259.4
 02 04 2013  21 20  -21.0370 26035.3 -03423.1 -07.4902 26259.4
 02 04 2013  21 21  -21.0369 26035.3 -03423.0 -07.4901 26259.3
 02 04 2013  21 22  -21.0368 26035.3 -03423.0 -07.4900 26259.3
 02 04 2013  21 23  -21.0367 26035.3 -03423.1 -07.4903 26259.3
 02 04 2013  21 24  -21.0366 26035.3 -03423.2 -07.4904 26259.3
 02 04 2013  21 25  -21.0365 26035.2 -03423.1 -07.4903 26259.3
 02 04 2013  21 26  -21.0366 26035.2 -03423.1 -07.4903 26259.3
 02 04 2013  21 27  -21.0365 26035.2 -03423.2 -07.4905 26259.3
 02 04 2013  21 28  -21.0366 26035.3 -03423.3 -07.4906 26259.4
 02 04 2013  21 29  -21.0366 26035.3 -03423.3 -07.4907 26259.4
 02 04 2013  21 30  -21.0367 26035.3 -03423.3 -07.4907 26259.4
 02 04 2013  21 31  -21.0367 26035.3 -03423.3 -07.4908 26259.4
 02 04 2013  21 32  -21.0370 26035.2 -03423.3 -07.4907 26259.3
 02 04 2013  21 33  -21.0368 26035.3 -03423.3 -07.4907 26259.4
 02 04 2013  21 34  -21.0369 26035.2 -03423.4 -07.4908 26259.3
 02 04 2013  21 35  -21.0371 26035.2 -03423.3 -07.4907 26259.3
 02 04 2013  21 36  -21.0373 26035.1 -03423.3 -07.4908 26259.2
 02 04 2013  21 37  -21.0376 26035.0 -03423.4 -07.4908 26259.1
 02 04 2013  21 38  -21.0378 26035.0 -03423.3 -07.4909 26259.1
 02 04 2013  21 39  -21.0380 26034.9 -03423.3 -07.4909 26259.0
 02 04 2013  21 40  -21.0382 26034.8 -03423.3 -07.4908 26258.9
 02 04 2013  21 41  -21.0382 26034.8 -03423.3 -07.4909 26258.9
 02 04 2013  21 42  -21.0382 26034.8 -03423.4 -07.4910 26258.9
 02 04 2013  21 43  -21.0383 26034.9 -03423.5 -07.4911 26259.0
 02 04 2013  21 44  -21.0385 26034.9 -03423.5 -07.4912 26259.0
 02 04 2013  21 45  -21.0389 26034.8 -03423.5 -07.4913 26259.0
 02 04 2013  21 46  -21.0393 26034.8 -03423.6 -07.4914 26258.9
 02 04 2013  21 47  -21.0395 26034.7 -03423.5 -07.4913 26258.8
 02 04 2013  21 48  -21.0398 26034.6 -03423.5 -07.4913 26258.8
 02 04 2013  21 49  -21.0401 26034.5 -03423.5 -07.4913 26258.6
 02 04 2013  21 50  -21.0405 26034.2 -03423.4 -07.4913 26258.4
 02 04 2013  21 51  -21.0409 26034.0 -03423.4 -07.4912 26258.1
 02 04 2013  21 52  -21.0411 26033.9 -03423.4 -07.4912 26258.0
 02 04 2013  21 53  -21.0415 26033.8 -03423.4 -07.4912 26257.9
 02 04 2013  21 54  -21.0418 26033.5 -03423.3 -07.4911 26257.7
 02 04 2013  21 55  -21.0421 26033.4 -03423.3 -07.4912 26257.5
 02 04 2013  21 56  -21.0424 26033.2 -03423.3 -07.4911 26257.4
 02 04 2013  21 57  -21.0427 26033.1 -03423.2 -07.4911 26257.2
 02 04 2013  21 58  -21.0429 26032.9 -03423.2 -07.4911 26257.0
 02 04 2013  21 59  -21.0430 26032.9 -03423.2 -07.4911 26257.0
 02 04 2013  22 00  -21.0433 26032.8 -03423.2 -07.4911 26256.9
 02 04 2013  22 01  -21.0435 26032.6 -03423.2 -07.4912 26256.7
 02 04 2013  22 02  -21.0437 26032.5 -03423.2 -07.4912 26256.6
 02 04 2013  22 03  -21.0438 26032.5 -03423.2 -07.4913 26256.6
 02 04 2013  22 04  -21.0439 26032.4 -03423.3 -07.4914 26256.6
 02 04 2013  22 05  -21.0441 26032.4 -03423.3 -07.4915 26256.5
 02 04 2013  22 06  -21.0441 26032.3 -03423.3 -07.4915 26256.4
 02 04 2013  22 07  -21.0442 26032.2 -03423.3 -07.4916 26256.3
 02 04 2013  22 08  -21.0444 26032.1 -03423.3 -07.4916 26256.2
 02 04 2013  22 09  -21.0444 26032.2 -03423.4 -07.4918 26256.4
 02 04 2013  22 10  -21.0447 26032.0 -03423.4 -07.4918 26256.1
 02 04 2013  22 11  -21.0447 26032.2 -03423.5 -07.4920 26256.3
 02 04 2013  22 12  -21.0451 26032.0 -03423.6 -07.4923 26256.2
 02 04 2013  22 13  -21.0454 26031.6 -03423.5 -07.4921 26255.8
 02 04 2013  22 14  -21.0454 26031.7 -03423.5 -07.4921 26255.9
 02 04 2013  22 15  -21.0457 26032.0 -03423.7 -07.4925 26256.2
 02 04 2013  22 16  -21.0455 26031.8 -03423.7 -07.4924 26256.0
 02 04 2013  22 17  -21.0459 26031.7 -03423.5 -07.4922 26255.8
 02 04 2013  22 18  -21.0461 26032.0 -03423.8 -07.4926 26256.2
 02 04 2013  22 19  -21.0462 26031.8 -03423.7 -07.4925 26256.0
 02 04 2013  22 20  -21.0465 26031.6 -03423.7 -07.4925 26255.8
 02 04 2013  22 21  -21.0468 26031.6 -03423.7 -07.4925 26255.8
 02 04 2013  22 22  -21.0470 26031.7 -03423.8 -07.4927 26255.9
 02 04 2013  22 23  -21.0472 26031.6 -03423.7 -07.4927 26255.8
 02 04 2013  22 24  -21.0475 26031.6 -03423.8 -07.4927 26255.8
 02 04 2013  22 25  -21.0476 26031.6 -03423.8 -07.4927 26255.8
 02 04 2013  22 26  -21.0476 26031.6 -03423.8 -07.4927 26255.8
 02 04 2013  22 27  -21.0479 26031.4 -03423.7 -07.4927 26255.5
 02 04 2013  22 28  -21.0479 26031.2 -03423.7 -07.4926 26255.4
 02 04 2013  22 29  -21.0481 26031.1 -03423.7 -07.4926 26255.3
 02 04 2013  22 30  -21.0481 26031.0 -03423.6 -07.4926 26255.2
 02 04 2013  22 31  -21.0483 26030.9 -03423.6 -07.4926 26255.1
 02 04 2013  22 32  -21.0485 26030.9 -03423.7 -07.4927 26255.1
 02 04 2013  22 33  -21.0486 26030.8 -03423.7 -07.4927 26255.0
 02 04 2013  22 34  -21.0487 26030.7 -03423.7 -07.4927 26254.9
 02 04 2013  22 35  -21.0488 26030.7 -03423.7 -07.4927 26254.8
 02 04 2013  22 36  -21.0490 26030.5 -03423.6 -07.4927 26254.7
 02 04 2013  22 37  -21.0491 26030.5 -03423.6 -07.4927 26254.7
 02 04 2013  22 38  -21.0492 26030.4 -03423.6 -07.4927 26254.6
 02 04 2013  22 39  -21.0492 26030.3 -03423.6 -07.4928 26254.5
 02 04 2013  22 40  -21.0493 26030.2 -03423.6 -07.4927 26254.4
 02 04 2013  22 41  -21.0493 26030.1 -03423.6 -07.4927 26254.3
 02 04 2013  22 42  -21.0492 26030.0 -03423.5 -07.4927 26254.1
 02 04 2013  22 43  -21.0491 26030.0 -03423.6 -07.4928 26254.2
 02 04 2013  22 44  -21.0490 26030.0 -03423.6 -07.4929 26254.2
 02 04 2013  22 45  -21.0490 26030.0 -03423.6 -07.4929 26254.2
 02 04 2013  22 46  -21.0489 26030.0 -03423.7 -07.4930 26254.2
 02 04 2013  22 47  -21.0488 26030.1 -03423.7 -07.4931 26254.3
 02 04 2013  22 48  -21.0488 26030.1 -03423.8 -07.4932 26254.3
 02 04 2013  22 49  -21.0487 26030.0 -03423.8 -07.4933 26254.2
 02 04 2013  22 50  -21.0487 26029.9 -03423.8 -07.4933 26254.1
 02 04 2013  22 51  -21.0487 26029.8 -03423.8 -07.4933 26254.0
 02 04 2013  22 52  -21.0486 26029.7 -03423.8 -07.4933 26254.0
 02 04 2013  22 53  -21.0486 26029.7 -03423.8 -07.4934 26253.9
 02 04 2013  22 54  -21.0486 26029.7 -03423.9 -07.4934 26253.9
 02 04 2013  22 55  -21.0486 26029.6 -03423.9 -07.4935 26253.8
 02 04 2013  22 56  -21.0486 26029.4 -03423.9 -07.4936 26253.7
 02 04 2013  22 57  -21.0487 26029.3 -03423.8 -07.4935 26253.5
 02 04 2013  22 58  -21.0488 26029.1 -03423.8 -07.4935 26253.3
 02 04 2013  22 59  -21.0488 26029.0 -03423.8 -07.4935 26253.2
 02 04 2013  23 00  -21.0489 26028.8 -03423.8 -07.4935 26253.0
 02 04 2013  23 01  -21.0490 26028.7 -03423.8 -07.4935 26252.9
 02 04 2013  23 02  -21.0490 26028.6 -03423.8 -07.4936 26252.9
 02 04 2013  23 03  -21.0490 26028.6 -03423.8 -07.4937 26252.8
 02 04 2013  23 04  -21.0489 26028.6 -03423.9 -07.4938 26252.8
 02 04 2013  23 05  -21.0490 26028.6 -03423.9 -07.4939 26252.8
 02 04 2013  23 06  -21.0490 26028.5 -03424.0 -07.4940 26252.8
 02 04 2013  23 07  -21.0491 26028.6 -03424.0 -07.4941 26252.8
 02 04 2013  23 08  -21.0492 26028.6 -03424.1 -07.4942 26252.9
 02 04 2013  23 09  -21.0494 26028.5 -03424.1 -07.4944 26252.8
 02 04 2013  23 10  -21.0496 26028.5 -03424.2 -07.4944 26252.8
 02 04 2013  23 11  -21.0498 26028.5 -03424.2 -07.4945 26252.8
 02 04 2013  23 12  -21.0499 26028.4 -03424.2 -07.4945 26252.7
 02 04 2013  23 13  -21.0500 26028.3 -03424.2 -07.4945 26252.5
 02 04 2013  23 14  -21.0501 26028.2 -03424.2 -07.4946 26252.4
 02 04 2013  23 15  -21.0501 26028.0 -03424.2 -07.4946 26252.3
 02 04 2013  23 16  -21.0502 26028.0 -03424.2 -07.4946 26252.3
 02 04 2013  23 17  -21.0502 26028.1 -03424.3 -07.4948 26252.4
 02 04 2013  23 18  -21.0496 26029.0 -03424.7 -07.4955 26253.3
 02 04 2013  23 19  -21.0493 26029.6 -03425.0 -07.4960 26253.9
 02 04 2013  23 20  -21.0492 26030.1 -03425.3 -07.4965 26254.5
 02 04 2013  23 21  -21.0491 26030.2 -03425.4 -07.4967 26254.6
 02 04 2013  23 22  -21.0490 26030.3 -03425.5 -07.4967 26254.8
 02 04 2013  23 23  -21.0486 26030.3 -03425.4 -07.4967 26254.7
 02 04 2013  23 24  -21.0484 26030.1 -03425.4 -07.4966 26254.5
 02 04 2013  23 25  -21.0481 26030.0 -03425.3 -07.4965 26254.4
 02 04 2013  23 26  -21.0479 26029.8 -03425.3 -07.4965 26254.2
 02 04 2013  23 27  -21.0477 26029.7 -03425.2 -07.4964 26254.1
 02 04 2013  23 28  -21.0474 26029.7 -03425.2 -07.4964 26254.0
 02 04 2013  23 29  -21.0472 26029.5 -03425.2 -07.4964 26253.8
 02 04 2013  23 30  -21.0471 26029.4 -03425.2 -07.4964 26253.8
 02 04 2013  23 31  -21.0470 26029.5 -03425.3 -07.4966 26253.9
 02 04 2013  23 32  -21.0471 26029.5 -03425.3 -07.4967 26253.9
 02 04 2013  23 33  -21.0473 26029.4 -03425.3 -07.4967 26253.8
 02 04 2013  23 34  -21.0474 26029.6 -03425.5 -07.4969 26254.0
 02 04 2013  23 35  -21.0474 26029.7 -03425.5 -07.4971 26254.2
 02 04 2013  23 36  -21.0468 26030.7 -03426.0 -07.4978 26255.2
 02 04 2013  23 37  -21.0463 26031.4 -03426.4 -07.4985 26256.0
 02 04 2013  23 38  -21.0460 26031.8 -03426.6 -07.4988 26256.3
 02 04 2013  23 39  -21.0457 26032.0 -03426.7 -07.4990 26256.6
 02 04 2013  23 40  -21.0456 26032.0 -03426.7 -07.4989 26256.6
 02 04 2013  23 41  -21.0454 26032.2 -03426.8 -07.4991 26256.8
 02 04 2013  23 42  -21.0455 26031.9 -03426.6 -07.4988 26256.4
 02 04 2013  23 43  -21.0453 26031.8 -03426.5 -07.4987 26256.4
 02 04 2013  23 44  -21.0455 26031.6 -03426.4 -07.4985 26256.2
 02 04 2013  23 45  -21.0454 26031.6 -03426.4 -07.4984 26256.2
 02 04 2013  23 46  -21.0451 26031.6 -03426.4 -07.4984 26256.2
 02 04 2013  23 47  -21.0449 26031.4 -03426.3 -07.4982 26256.0
 02 04 2013  23 48  -21.0449 26031.2 -03426.2 -07.4980 26255.7
 02 04 2013  23 49  -21.0445 26031.2 -03426.1 -07.4980 26255.7
 02 04 2013  23 50  -21.0443 26031.0 -03426.1 -07.4979 26255.5
 02 04 2013  23 51  -21.0442 26030.7 -03425.9 -07.4977 26255.2
 02 04 2013  23 52  -21.0439 26030.7 -03426.0 -07.4977 26255.2
 02 04 2013  23 53  -21.0440 26030.4 -03425.9 -07.4976 26254.9
 02 04 2013  23 54  -21.0439 26030.3 -03425.8 -07.4975 26254.7
 02 04 2013  23 55  -21.0439 26030.2 -03425.8 -07.4975 26254.6
 02 04 2013  23 56  -21.0437 26030.0 -03425.7 -07.4975 26254.4
 02 04 2013  23 57  -21.0434 26030.0 -03425.8 -07.4975 26254.4
