SAO LUIS EMBRACE-03 <156> 1 Min. Reported data

 DD MM YYYY  HH MM   D(Deg)  H(nT)   Z(nT)   I(Deg)   F(nT)

 05 06 2013  00 00  -21.0384 26016.6 -03444.4 -07.5416 26243.6
 05 06 2013  00 01  -21.0386 26016.1 -03444.2 -07.5414 26243.1
 05 06 2013  00 02  -21.0387 26015.9 -03444.2 -07.5414 26242.9
 05 06 2013  00 03  -21.0388 26015.6 -03444.2 -07.5415 26242.6
 05 06 2013  00 04  -21.0391 26015.0 -03444.0 -07.5413 26242.0
 05 06 2013  00 05  -21.0397 26014.2 -03443.8 -07.5410 26241.2
 05 06 2013  00 06  -21.0404 26013.9 -03443.7 -07.5409 26240.8
 05 06 2013  00 07  -21.0407 26013.7 -03443.7 -07.5411 26240.7
 05 06 2013  00 08  -21.0412 26013.4 -03443.7 -07.5411 26240.4
 05 06 2013  00 09  -21.0416 26013.2 -03443.7 -07.5412 26240.2
 05 06 2013  00 10  -21.0421 26013.2 -03443.8 -07.5414 26240.2
 05 06 2013  00 11  -21.0425 26013.4 -03444.0 -07.5416 26240.3
 05 06 2013  00 12  -21.0431 26013.5 -03444.1 -07.5419 26240.6
 05 06 2013  00 13  -21.0437 26013.6 -03444.3 -07.5422 26240.7
 05 06 2013  00 14  -21.0442 26013.5 -03444.3 -07.5423 26240.6
 05 06 2013  00 15  -21.0446 26013.5 -03444.3 -07.5422 26240.6
 05 06 2013  00 16  -21.0451 26013.3 -03444.2 -07.5422 26240.3
 05 06 2013  00 17  -21.0455 26013.0 -03444.1 -07.5420 26240.1
 05 06 2013  00 18  -21.0460 26012.9 -03444.1 -07.5420 26239.9
 05 06 2013  00 19  -21.0461 26012.9 -03444.1 -07.5420 26239.9
 05 06 2013  00 20  -21.0462 26012.9 -03444.1 -07.5420 26239.9
 05 06 2013  00 21  -21.0463 26013.0 -03444.2 -07.5422 26240.0
 05 06 2013  00 22  -21.0461 26013.2 -03444.3 -07.5424 26240.2
 05 06 2013  00 23  -21.0458 26013.4 -03444.4 -07.5426 26240.4
 05 06 2013  00 24  -21.0456 26013.6 -03444.6 -07.5428 26240.7
 05 06 2013  00 25  -21.0456 26013.5 -03444.5 -07.5428 26240.5
 05 06 2013  00 26  -21.0454 26013.3 -03444.5 -07.5427 26240.4
 05 06 2013  00 27  -21.0451 26013.1 -03444.4 -07.5426 26240.1
 05 06 2013  00 28  -21.0446 26013.0 -03444.3 -07.5425 26240.1
 05 06 2013  00 29  -21.0442 26012.9 -03444.3 -07.5426 26240.0
 05 06 2013  00 30  -21.0442 26012.9 -03444.4 -07.5427 26240.0
 05 06 2013  00 31  -21.0440 26013.1 -03444.6 -07.5430 26240.1
 05 06 2013  00 32  -21.0440 26013.2 -03444.6 -07.5431 26240.3
 05 06 2013  00 33  -21.0440 26013.5 -03444.8 -07.5435 26240.5
 05 06 2013  00 34  -21.0436 26013.7 -03445.0 -07.5437 26240.8
 05 06 2013  00 35  -21.0430 26013.8 -03445.1 -07.5439 26241.0
 05 06 2013  00 36  -21.0428 26013.8 -03445.1 -07.5440 26240.9
 05 06 2013  00 37  -21.0426 26013.8 -03445.1 -07.5440 26240.9
 05 06 2013  00 38  -21.0424 26013.7 -03445.1 -07.5440 26240.9
 05 06 2013  00 39  -21.0423 26013.7 -03445.1 -07.5440 26240.8
 05 06 2013  00 40  -21.0419 26013.8 -03445.2 -07.5442 26241.0
 05 06 2013  00 41  -21.0412 26014.2 -03445.4 -07.5446 26241.4
 05 06 2013  00 42  -21.0405 26014.6 -03445.6 -07.5449 26241.8
 05 06 2013  00 43  -21.0401 26014.8 -03445.8 -07.5452 26242.0
 05 06 2013  00 44  -21.0397 26014.9 -03445.8 -07.5453 26242.1
 05 06 2013  00 45  -21.0391 26014.7 -03445.8 -07.5453 26242.0
 05 06 2013  00 46  -21.0387 26014.5 -03445.8 -07.5452 26241.7
 05 06 2013  00 47  -21.0385 26014.3 -03445.7 -07.5450 26241.5
 05 06 2013  00 48  -21.0381 26014.2 -03445.7 -07.5451 26241.4
 05 06 2013  00 49  -21.0377 26014.0 -03445.7 -07.5452 26241.3
 05 06 2013  00 50  -21.0375 26014.0 -03445.7 -07.5452 26241.2
 05 06 2013  00 51  -21.0371 26014.0 -03445.8 -07.5454 26241.3
 05 06 2013  00 52  -21.0369 26014.2 -03445.9 -07.5456 26241.4
 05 06 2013  00 53  -21.0368 26014.2 -03446.0 -07.5459 26241.5
 05 06 2013  00 54  -21.0368 26014.2 -03446.1 -07.5460 26241.5
 05 06 2013  00 55  -21.0367 26014.2 -03446.1 -07.5461 26241.5
 05 06 2013  00 56  -21.0367 26014.3 -03446.2 -07.5462 26241.6
 05 06 2013  00 57  -21.0367 26014.4 -03446.3 -07.5464 26241.7
 05 06 2013  00 58  -21.0366 26014.4 -03446.3 -07.5465 26241.7
 05 06 2013  00 59  -21.0365 26014.4 -03446.4 -07.5466 26241.7
 05 06 2013  01 00  -21.0364 26014.5 -03446.4 -07.5466 26241.8
 05 06 2013  01 01  -21.0363 26014.4 -03446.4 -07.5467 26241.7
 05 06 2013  01 02  -21.0360 26014.4 -03446.4 -07.5466 26241.7
 05 06 2013  01 03  -21.0357 26014.4 -03446.5 -07.5467 26241.7
 05 06 2013  01 04  -21.0354 26014.5 -03446.5 -07.5468 26241.8
 05 06 2013  01 05  -21.0350 26014.6 -03446.6 -07.5469 26241.9
 05 06 2013  01 06  -21.0348 26014.7 -03446.7 -07.5471 26242.0
 05 06 2013  01 07  -21.0347 26014.8 -03446.8 -07.5473 26242.1
 05 06 2013  01 08  -21.0347 26014.8 -03446.8 -07.5474 26242.1
 05 06 2013  01 09  -21.0348 26014.7 -03446.8 -07.5474 26242.1
 05 06 2013  01 10  -21.0348 26014.6 -03446.7 -07.5473 26241.9
 05 06 2013  01 11  -21.0350 26014.5 -03446.7 -07.5473 26241.8
 05 06 2013  01 12  -21.0351 26014.3 -03446.7 -07.5473 26241.7
 05 06 2013  01 13  -21.0351 26014.3 -03446.7 -07.5472 26241.6
 05 06 2013  01 14  -21.0349 26014.2 -03446.6 -07.5471 26241.5
 05 06 2013  01 15  -21.0346 26014.2 -03446.6 -07.5471 26241.5
 05 06 2013  01 16  -21.0342 26014.2 -03446.6 -07.5472 26241.5
 05 06 2013  01 17  -21.0340 26014.2 -03446.7 -07.5472 26241.5
 05 06 2013  01 18  -21.0341 26014.2 -03446.7 -07.5473 26241.5
 05 06 2013  01 19  -21.0342 26014.2 -03446.7 -07.5474 26241.6
 05 06 2013  01 20  -21.0341 26014.4 -03446.8 -07.5475 26241.7
 05 06 2013  01 21  -21.0341 26014.5 -03446.9 -07.5477 26241.9
 05 06 2013  01 22  -21.0339 26014.6 -03447.0 -07.5478 26241.9
 05 06 2013  01 23  -21.0337 26014.7 -03447.0 -07.5479 26242.1
 05 06 2013  01 24  -21.0337 26014.9 -03447.1 -07.5481 26242.3
 05 06 2013  01 25  -21.0339 26015.3 -03447.4 -07.5484 26242.7
 05 06 2013  01 26  -21.0344 26015.4 -03447.4 -07.5486 26242.8
 05 06 2013  01 27  -21.0350 26015.1 -03447.4 -07.5485 26242.5
 05 06 2013  01 28  -21.0351 26015.0 -03447.2 -07.5482 26242.4
 05 06 2013  01 29  -21.0347 26015.2 -03447.3 -07.5483 26242.6
 05 06 2013  01 30  -21.0343 26015.6 -03447.4 -07.5485 26243.0
 05 06 2013  01 31  -21.0342 26015.5 -03447.4 -07.5485 26243.0
 05 06 2013  01 32  -21.0346 26015.4 -03447.4 -07.5485 26242.9
 05 06 2013  01 33  -21.0351 26015.4 -03447.4 -07.5485 26242.8
 05 06 2013  01 34  -21.0353 26015.4 -03447.3 -07.5484 26242.8
 05 06 2013  01 35  -21.0353 26015.5 -03447.4 -07.5484 26243.0
 05 06 2013  01 36  -21.0354 26015.6 -03447.4 -07.5484 26243.0
 05 06 2013  01 37  -21.0357 26015.6 -03447.4 -07.5484 26243.0
 05 06 2013  01 38  -21.0361 26015.5 -03447.3 -07.5483 26242.9
 05 06 2013  01 39  -21.0363 26015.4 -03447.3 -07.5482 26242.8
 05 06 2013  01 40  -21.0365 26015.6 -03447.3 -07.5483 26243.0
 05 06 2013  01 41  -21.0366 26015.7 -03447.4 -07.5484 26243.1
 05 06 2013  01 42  -21.0369 26015.6 -03447.3 -07.5483 26243.1
 05 06 2013  01 43  -21.0373 26015.5 -03447.3 -07.5482 26243.0
 05 06 2013  01 44  -21.0375 26015.6 -03447.3 -07.5482 26243.0
 05 06 2013  01 45  -21.0377 26015.5 -03447.2 -07.5480 26242.9
 05 06 2013  01 46  -21.0377 26015.6 -03447.2 -07.5480 26243.0
 05 06 2013  01 47  -21.0377 26015.6 -03447.2 -07.5479 26243.0
 05 06 2013  01 48  -21.0376 26015.7 -03447.2 -07.5479 26243.0
 05 06 2013  01 49  -21.0377 26015.6 -03447.1 -07.5478 26243.0
 05 06 2013  01 50  -21.0376 26015.7 -03447.1 -07.5478 26243.0
 05 06 2013  01 51  -21.0374 26015.9 -03447.2 -07.5479 26243.3
 05 06 2013  01 52  -21.0374 26016.2 -03447.3 -07.5481 26243.6
 05 06 2013  01 53  -21.0373 26016.4 -03447.4 -07.5482 26243.8
 05 06 2013  01 54  -21.0373 26016.5 -03447.5 -07.5483 26244.0
 05 06 2013  01 55  -21.0374 26016.7 -03447.5 -07.5484 26244.1
 05 06 2013  01 56  -21.0376 26016.7 -03447.5 -07.5484 26244.1
 05 06 2013  01 57  -21.0376 26016.5 -03447.5 -07.5483 26244.0
 05 06 2013  01 58  -21.0377 26016.4 -03447.3 -07.5481 26243.8
 05 06 2013  01 59  -21.0377 26016.4 -03447.3 -07.5480 26243.8
 05 06 2013  02 00  -21.0378 26016.2 -03447.2 -07.5478 26243.6
 05 06 2013  02 01  -21.0379 26016.0 -03447.1 -07.5477 26243.4
 05 06 2013  02 02  -21.0378 26015.9 -03447.0 -07.5475 26243.2
 05 06 2013  02 03  -21.0377 26015.9 -03447.0 -07.5476 26243.2
 05 06 2013  02 04  -21.0375 26015.9 -03447.1 -07.5476 26243.3
 05 06 2013  02 05  -21.0374 26015.9 -03447.1 -07.5477 26243.3
 05 06 2013  02 06  -21.0374 26016.0 -03447.1 -07.5478 26243.4
 05 06 2013  02 07  -21.0373 26016.0 -03447.2 -07.5479 26243.4
 05 06 2013  02 08  -21.0371 26016.1 -03447.3 -07.5480 26243.5
 05 06 2013  02 09  -21.0370 26016.0 -03447.2 -07.5479 26243.4
 05 06 2013  02 10  -21.0369 26015.9 -03447.2 -07.5479 26243.3
 05 06 2013  02 11  -21.0369 26015.9 -03447.2 -07.5479 26243.3
 05 06 2013  02 12  -21.0368 26015.8 -03447.1 -07.5478 26243.2
 05 06 2013  02 13  -21.0366 26015.9 -03447.2 -07.5479 26243.3
 05 06 2013  02 14  -21.0362 26016.2 -03447.4 -07.5482 26243.6
 05 06 2013  02 15  -21.0360 26016.6 -03447.6 -07.5486 26244.0
 05 06 2013  02 16  -21.0358 26017.0 -03447.8 -07.5489 26244.5
 05 06 2013  02 17  -21.0353 26017.6 -03448.1 -07.5493 26245.1
 05 06 2013  02 18  -21.0349 26018.1 -03448.3 -07.5497 26245.6
 05 06 2013  02 19  -21.0350 26018.3 -03448.5 -07.5500 26245.8
 05 06 2013  02 20  -21.0352 26018.2 -03448.4 -07.5499 26245.7
 05 06 2013  02 21  -21.0353 26018.1 -03448.3 -07.5498 26245.6
 05 06 2013  02 22  -21.0353 26018.2 -03448.4 -07.5498 26245.7
 05 06 2013  02 23  -21.0352 26018.6 -03448.5 -07.5500 26246.1
 05 06 2013  02 24  -21.0351 26018.5 -03448.5 -07.5500 26246.1
 05 06 2013  02 25  -21.0352 26018.6 -03448.5 -07.5499 26246.1
 05 06 2013  02 26  -21.0350 26018.9 -03448.6 -07.5502 26246.4
 05 06 2013  02 27  -21.0348 26019.1 -03448.7 -07.5503 26246.7
 05 06 2013  02 28  -21.0347 26019.2 -03448.8 -07.5504 26246.8
 05 06 2013  02 29  -21.0345 26019.3 -03448.8 -07.5504 26246.9
 05 06 2013  02 30  -21.0346 26019.2 -03448.7 -07.5502 26246.8
 05 06 2013  02 31  -21.0351 26019.4 -03448.7 -07.5502 26246.9
 05 06 2013  02 32  -21.0358 26019.3 -03448.7 -07.5502 26246.8
 05 06 2013  02 33  -21.0363 26018.6 -03448.4 -07.5497 26246.1
 05 06 2013  02 34  -21.0356 26018.5 -03448.2 -07.5492 26246.0
 05 06 2013  02 35  -21.0346 26019.3 -03448.4 -07.5496 26246.8
 05 06 2013  02 36  -21.0344 26020.2 -03448.9 -07.5504 26247.8
 05 06 2013  02 37  -21.0347 26020.6 -03449.2 -07.5508 26248.2
 05 06 2013  02 38  -21.0351 26020.6 -03449.2 -07.5508 26248.2
 05 06 2013  02 39  -21.0352 26020.4 -03449.0 -07.5506 26248.0
 05 06 2013  02 40  -21.0352 26020.3 -03448.9 -07.5504 26247.9
 05 06 2013  02 41  -21.0355 26020.1 -03448.8 -07.5501 26247.7
 05 06 2013  02 42  -21.0356 26020.0 -03448.7 -07.5500 26247.6
 05 06 2013  02 43  -21.0356 26020.0 -03448.7 -07.5499 26247.6
 05 06 2013  02 44  -21.0357 26020.1 -03448.6 -07.5498 26247.6
 05 06 2013  02 45  -21.0357 26020.2 -03448.6 -07.5498 26247.7
 05 06 2013  02 46  -21.0358 26020.1 -03448.5 -07.5496 26247.6
 05 06 2013  02 47  -21.0361 26020.0 -03448.5 -07.5495 26247.5
 05 06 2013  02 48  -21.0363 26020.0 -03448.5 -07.5495 26247.5
 05 06 2013  02 49  -21.0365 26020.0 -03448.4 -07.5494 26247.5
 05 06 2013  02 50  -21.0366 26019.9 -03448.4 -07.5493 26247.4
 05 06 2013  02 51  -21.0368 26019.8 -03448.3 -07.5492 26247.3
 05 06 2013  02 52  -21.0369 26019.6 -03448.2 -07.5491 26247.1
 05 06 2013  02 53  -21.0367 26019.7 -03448.2 -07.5491 26247.2
 05 06 2013  02 54  -21.0366 26019.6 -03448.2 -07.5489 26247.1
 05 06 2013  02 55  -21.0367 26019.4 -03448.1 -07.5488 26246.9
 05 06 2013  02 56  -21.0369 26019.3 -03448.1 -07.5488 26246.8
 05 06 2013  02 57  -21.0371 26019.4 -03448.1 -07.5489 26246.9
 05 06 2013  02 58  -21.0370 26019.5 -03448.2 -07.5490 26247.0
 05 06 2013  02 59  -21.0372 26019.5 -03448.2 -07.5490 26247.0
 05 06 2013  03 00  -21.0375 26019.4 -03448.2 -07.5490 26246.9
 05 06 2013  03 01  -21.0377 26019.5 -03448.2 -07.5490 26247.0
 05 06 2013  03 02  -21.0379 26019.4 -03448.1 -07.5489 26246.9
 05 06 2013  03 03  -21.0380 26019.2 -03448.0 -07.5487 26246.7
 05 06 2013  03 04  -21.0381 26019.1 -03447.9 -07.5486 26246.6
 05 06 2013  03 05  -21.0380 26019.1 -03447.9 -07.5485 26246.5
 05 06 2013  03 06  -21.0378 26019.1 -03447.9 -07.5485 26246.5
 05 06 2013  03 07  -21.0377 26019.0 -03447.8 -07.5484 26246.4
 05 06 2013  03 08  -21.0378 26019.0 -03447.8 -07.5483 26246.4
 05 06 2013  03 09  -21.0379 26018.9 -03447.8 -07.5483 26246.3
 05 06 2013  03 10  -21.0379 26018.9 -03447.8 -07.5483 26246.3
 05 06 2013  03 11  -21.0380 26018.7 -03447.7 -07.5482 26246.2
 05 06 2013  03 12  -21.0382 26018.7 -03447.7 -07.5481 26246.1
 05 06 2013  03 13  -21.0383 26018.7 -03447.7 -07.5481 26246.1
 05 06 2013  03 14  -21.0383 26018.8 -03447.7 -07.5482 26246.2
 05 06 2013  03 15  -21.0382 26018.7 -03447.6 -07.5481 26246.1
 05 06 2013  03 16  -21.0379 26018.7 -03447.6 -07.5480 26246.1
 05 06 2013  03 17  -21.0377 26018.6 -03447.6 -07.5479 26246.0
 05 06 2013  03 18  -21.0375 26018.5 -03447.5 -07.5479 26245.9
 05 06 2013  03 19  -21.0373 26018.4 -03447.5 -07.5478 26245.8
 05 06 2013  03 20  -21.0367 26018.6 -03447.6 -07.5479 26246.0
 05 06 2013  03 21  -21.0361 26019.0 -03447.8 -07.5482 26246.5
 05 06 2013  03 22  -21.0359 26019.1 -03447.9 -07.5485 26246.6
 05 06 2013  03 23  -21.0362 26019.2 -03448.0 -07.5486 26246.6
 05 06 2013  03 24  -21.0366 26019.2 -03448.0 -07.5487 26246.7
 05 06 2013  03 25  -21.0369 26019.2 -03448.0 -07.5487 26246.7
 05 06 2013  03 26  -21.0368 26019.0 -03447.9 -07.5484 26246.5
 05 06 2013  03 27  -21.0368 26019.0 -03447.8 -07.5483 26246.5
 05 06 2013  03 28  -21.0368 26019.0 -03447.8 -07.5483 26246.5
 05 06 2013  03 29  -21.0370 26019.1 -03447.8 -07.5483 26246.5
 05 06 2013  03 30  -21.0371 26019.0 -03447.8 -07.5483 26246.4
 05 06 2013  03 31  -21.0368 26019.0 -03447.7 -07.5482 26246.4
 05 06 2013  03 32  -21.0366 26019.1 -03447.7 -07.5481 26246.5
 05 06 2013  03 33  -21.0367 26019.2 -03447.8 -07.5483 26246.6
 05 06 2013  03 34  -21.0367 26019.2 -03447.9 -07.5484 26246.6
 05 06 2013  03 35  -21.0365 26019.2 -03447.8 -07.5483 26246.6
 05 06 2013  03 36  -21.0363 26019.2 -03447.8 -07.5483 26246.6
 05 06 2013  03 37  -21.0361 26019.1 -03447.8 -07.5483 26246.6
 05 06 2013  03 38  -21.0360 26019.1 -03447.8 -07.5483 26246.5
 05 06 2013  03 39  -21.0359 26019.0 -03447.7 -07.5482 26246.4
 05 06 2013  03 40  -21.0359 26018.9 -03447.7 -07.5481 26246.4
 05 06 2013  03 41  -21.0359 26019.1 -03447.8 -07.5483 26246.5
 05 06 2013  03 42  -21.0361 26019.2 -03447.9 -07.5484 26246.7
 05 06 2013  03 43  -21.0362 26019.3 -03448.0 -07.5486 26246.8
 05 06 2013  03 44  -21.0364 26019.4 -03448.0 -07.5487 26246.9
 05 06 2013  03 45  -21.0365 26019.3 -03448.0 -07.5486 26246.8
 05 06 2013  03 46  -21.0363 26019.2 -03447.9 -07.5484 26246.6
 05 06 2013  03 47  -21.0360 26019.2 -03447.8 -07.5483 26246.6
 05 06 2013  03 48  -21.0359 26019.1 -03447.8 -07.5483 26246.6
 05 06 2013  03 49  -21.0357 26019.0 -03447.7 -07.5482 26246.4
 05 06 2013  03 50  -21.0357 26019.0 -03447.8 -07.5482 26246.4
 05 06 2013  03 51  -21.0357 26019.0 -03447.8 -07.5483 26246.5
 05 06 2013  03 52  -21.0356 26019.1 -03447.9 -07.5484 26246.5
 05 06 2013  03 53  -21.0356 26019.2 -03447.9 -07.5485 26246.6
 05 06 2013  03 54  -21.0355 26019.2 -03448.0 -07.5486 26246.7
 05 06 2013  03 55  -21.0354 26019.2 -03448.0 -07.5487 26246.6
 05 06 2013  03 56  -21.0354 26019.1 -03448.0 -07.5486 26246.6
 05 06 2013  03 57  -21.0352 26019.1 -03448.0 -07.5487 26246.6
 05 06 2013  03 58  -21.0352 26019.1 -03448.0 -07.5487 26246.6
 05 06 2013  03 59  -21.0352 26019.1 -03448.0 -07.5487 26246.5
 05 06 2013  04 00  -21.0353 26019.0 -03448.0 -07.5488 26246.5
 05 06 2013  04 01  -21.0355 26019.0 -03448.0 -07.5488 26246.4
 05 06 2013  04 02  -21.0360 26019.0 -03448.0 -07.5488 26246.4
 05 06 2013  04 03  -21.0363 26018.8 -03448.0 -07.5488 26246.3
 05 06 2013  04 04  -21.0366 26018.8 -03448.0 -07.5487 26246.3
 05 06 2013  04 05  -21.0368 26018.9 -03448.0 -07.5488 26246.3
 05 06 2013  04 06  -21.0369 26018.9 -03448.1 -07.5489 26246.4
 05 06 2013  04 07  -21.0371 26019.0 -03448.1 -07.5489 26246.4
 05 06 2013  04 08  -21.0372 26019.0 -03448.1 -07.5490 26246.5
 05 06 2013  04 09  -21.0374 26019.0 -03448.1 -07.5491 26246.5
 05 06 2013  04 10  -21.0377 26019.1 -03448.1 -07.5490 26246.5
 05 06 2013  04 11  -21.0380 26019.1 -03448.1 -07.5490 26246.6
 05 06 2013  04 12  -21.0383 26019.0 -03448.1 -07.5489 26246.5
 05 06 2013  04 13  -21.0385 26018.8 -03447.9 -07.5486 26246.3
 05 06 2013  04 14  -21.0387 26018.6 -03447.8 -07.5484 26246.1
 05 06 2013  04 15  -21.0386 26018.5 -03447.6 -07.5480 26245.9
 05 06 2013  04 16  -21.0384 26018.2 -03447.5 -07.5479 26245.6
 05 06 2013  04 17  -21.0383 26018.0 -03447.3 -07.5476 26245.4
 05 06 2013  04 18  -21.0382 26017.8 -03447.2 -07.5474 26245.2
 05 06 2013  04 19  -21.0380 26017.6 -03447.1 -07.5472 26245.0
 05 06 2013  04 20  -21.0378 26017.4 -03447.0 -07.5471 26244.8
 05 06 2013  04 21  -21.0377 26017.2 -03446.9 -07.5470 26244.5
 05 06 2013  04 22  -21.0375 26017.0 -03446.9 -07.5468 26244.3
 05 06 2013  04 23  -21.0372 26016.9 -03446.8 -07.5468 26244.2
 05 06 2013  04 24  -21.0367 26016.8 -03446.8 -07.5468 26244.1
 05 06 2013  04 25  -21.0365 26016.8 -03446.8 -07.5469 26244.1
 05 06 2013  04 26  -21.0363 26016.9 -03446.9 -07.5470 26244.2
 05 06 2013  04 27  -21.0361 26016.9 -03447.0 -07.5471 26244.3
 05 06 2013  04 28  -21.0360 26017.0 -03447.1 -07.5473 26244.3
 05 06 2013  04 29  -21.0357 26017.1 -03447.2 -07.5475 26244.5
 05 06 2013  04 30  -21.0353 26017.3 -03447.3 -07.5478 26244.7
 05 06 2013  04 31  -21.0354 26017.5 -03447.4 -07.5480 26244.9
 05 06 2013  04 32  -21.0354 26017.5 -03447.5 -07.5481 26244.9
 05 06 2013  04 33  -21.0354 26017.4 -03447.5 -07.5481 26244.8
 05 06 2013  04 34  -21.0353 26017.3 -03447.5 -07.5481 26244.7
 05 06 2013  04 35  -21.0353 26017.3 -03447.5 -07.5481 26244.7
 05 06 2013  04 36  -21.0354 26017.2 -03447.5 -07.5482 26244.7
 05 06 2013  04 37  -21.0353 26017.2 -03447.5 -07.5482 26244.6
 05 06 2013  04 38  -21.0353 26017.2 -03447.5 -07.5482 26244.6
 05 06 2013  04 39  -21.0352 26017.2 -03447.5 -07.5482 26244.6
 05 06 2013  04 40  -21.0352 26017.2 -03447.6 -07.5483 26244.7
 05 06 2013  04 41  -21.0351 26017.3 -03447.6 -07.5484 26244.7
 05 06 2013  04 42  -21.0351 26017.3 -03447.6 -07.5485 26244.7
 05 06 2013  04 43  -21.0351 26017.4 -03447.7 -07.5485 26244.8
 05 06 2013  04 44  -21.0351 26017.5 -03447.8 -07.5487 26244.9
 05 06 2013  04 45  -21.0352 26017.6 -03447.8 -07.5487 26245.0
 05 06 2013  04 46  -21.0355 26017.7 -03447.9 -07.5489 26245.1
 05 06 2013  04 47  -21.0359 26017.6 -03447.9 -07.5490 26245.1
 05 06 2013  04 48  -21.0364 26017.5 -03447.9 -07.5489 26245.0
 05 06 2013  04 49  -21.0370 26017.4 -03447.8 -07.5488 26244.8
 05 06 2013  04 50  -21.0375 26017.2 -03447.7 -07.5487 26244.7
 05 06 2013  04 51  -21.0379 26017.1 -03447.6 -07.5484 26244.5
 05 06 2013  04 52  -21.0382 26016.9 -03447.5 -07.5483 26244.3
 05 06 2013  04 53  -21.0383 26016.8 -03447.4 -07.5482 26244.2
 05 06 2013  04 54  -21.0380 26016.8 -03447.4 -07.5481 26244.2
 05 06 2013  04 55  -21.0375 26016.8 -03447.4 -07.5481 26244.2
 05 06 2013  04 56  -21.0371 26016.9 -03447.5 -07.5482 26244.3
 05 06 2013  04 57  -21.0371 26016.9 -03447.5 -07.5483 26244.3
 05 06 2013  04 58  -21.0370 26016.9 -03447.5 -07.5483 26244.3
 05 06 2013  04 59  -21.0370 26017.0 -03447.6 -07.5484 26244.4
 05 06 2013  05 00  -21.0368 26017.0 -03447.6 -07.5485 26244.5
 05 06 2013  05 01  -21.0368 26016.9 -03447.6 -07.5485 26244.4
 05 06 2013  05 02  -21.0368 26017.0 -03447.7 -07.5486 26244.4
 05 06 2013  05 03  -21.0370 26017.0 -03447.7 -07.5487 26244.4
 05 06 2013  05 04  -21.0370 26017.0 -03447.7 -07.5487 26244.4
 05 06 2013  05 05  -21.0370 26017.0 -03447.7 -07.5488 26244.5
 05 06 2013  05 06  -21.0372 26017.1 -03447.8 -07.5489 26244.5
 05 06 2013  05 07  -21.0373 26017.1 -03447.9 -07.5490 26244.6
 05 06 2013  05 08  -21.0375 26017.2 -03447.9 -07.5492 26244.6
 05 06 2013  05 09  -21.0378 26017.1 -03447.9 -07.5491 26244.6
 05 06 2013  05 10  -21.0380 26017.0 -03447.9 -07.5491 26244.5
 05 06 2013  05 11  -21.0382 26017.0 -03447.9 -07.5491 26244.5
 05 06 2013  05 12  -21.0383 26016.9 -03447.9 -07.5491 26244.4
 05 06 2013  05 13  -21.0382 26016.8 -03447.7 -07.5488 26244.3
 05 06 2013  05 14  -21.0381 26016.7 -03447.7 -07.5487 26244.1
 05 06 2013  05 15  -21.0380 26016.5 -03447.6 -07.5485 26243.9
 05 06 2013  05 16  -21.0378 26016.4 -03447.5 -07.5484 26243.8
 05 06 2013  05 17  -21.0374 26016.3 -03447.5 -07.5483 26243.7
 05 06 2013  05 18  -21.0369 26016.2 -03447.4 -07.5483 26243.6
 05 06 2013  05 19  -21.0365 26016.1 -03447.4 -07.5483 26243.5
 05 06 2013  05 20  -21.0363 26016.0 -03447.4 -07.5483 26243.4
 05 06 2013  05 21  -21.0362 26015.8 -03447.3 -07.5483 26243.2
 05 06 2013  05 22  -21.0361 26015.7 -03447.3 -07.5483 26243.1
 05 06 2013  05 23  -21.0360 26015.6 -03447.3 -07.5483 26243.0
 05 06 2013  05 24  -21.0358 26015.7 -03447.4 -07.5484 26243.1
 05 06 2013  05 25  -21.0355 26015.6 -03447.4 -07.5484 26243.0
 05 06 2013  05 26  -21.0353 26015.5 -03447.4 -07.5485 26243.0
 05 06 2013  05 27  -21.0352 26015.5 -03447.5 -07.5486 26242.9
 05 06 2013  05 28  -21.0353 26015.4 -03447.4 -07.5486 26242.8
 05 06 2013  05 29  -21.0353 26015.3 -03447.4 -07.5486 26242.7
 05 06 2013  05 30  -21.0352 26015.2 -03447.4 -07.5485 26242.6
 05 06 2013  05 31  -21.0350 26015.1 -03447.4 -07.5486 26242.6
 05 06 2013  05 32  -21.0347 26015.1 -03447.4 -07.5487 26242.5
 05 06 2013  05 33  -21.0346 26015.0 -03447.4 -07.5486 26242.4
 05 06 2013  05 34  -21.0345 26015.0 -03447.4 -07.5487 26242.4
 05 06 2013  05 35  -21.0343 26014.9 -03447.4 -07.5487 26242.3
 05 06 2013  05 36  -21.0340 26014.9 -03447.5 -07.5488 26242.3
 05 06 2013  05 37  -21.0338 26015.0 -03447.5 -07.5489 26242.4
 05 06 2013  05 38  -21.0335 26015.3 -03447.7 -07.5492 26242.7
 05 06 2013  05 39  -21.0332 26015.4 -03447.8 -07.5494 26242.9
 05 06 2013  05 40  -21.0329 26015.6 -03448.0 -07.5497 26243.1
 05 06 2013  05 41  -21.0326 26015.8 -03448.1 -07.5499 26243.3
 05 06 2013  05 42  -21.0322 26015.9 -03448.2 -07.5501 26243.4
 05 06 2013  05 43  -21.0319 26015.7 -03448.1 -07.5500 26243.2
 05 06 2013  05 44  -21.0319 26015.6 -03448.1 -07.5499 26243.1
 05 06 2013  05 45  -21.0319 26015.5 -03448.1 -07.5499 26243.0
 05 06 2013  05 46  -21.0319 26015.4 -03448.0 -07.5498 26242.9
 05 06 2013  05 47  -21.0320 26015.3 -03448.0 -07.5498 26242.8
 05 06 2013  05 48  -21.0321 26015.3 -03448.0 -07.5499 26242.8
 05 06 2013  05 49  -21.0321 26015.4 -03448.1 -07.5500 26242.9
 05 06 2013  05 50  -21.0323 26015.5 -03448.2 -07.5502 26243.0
 05 06 2013  05 51  -21.0323 26015.5 -03448.2 -07.5503 26243.1
 05 06 2013  05 52  -21.0325 26015.6 -03448.3 -07.5504 26243.2
 05 06 2013  05 53  -21.0326 26015.5 -03448.3 -07.5503 26243.1
 05 06 2013  05 54  -21.0327 26015.6 -03448.3 -07.5504 26243.1
 05 06 2013  05 55  -21.0328 26015.6 -03448.3 -07.5505 26243.2
 05 06 2013  05 56  -21.0329 26015.7 -03448.4 -07.5505 26243.2
 05 06 2013  05 57  -21.0325 26015.7 -03448.4 -07.5505 26243.2
 05 06 2013  05 58  -21.0324 26015.9 -03448.5 -07.5506 26243.4
 05 06 2013  05 59  -21.0324 26015.9 -03448.5 -07.5507 26243.5
 05 06 2013  06 00  -21.0325 26016.1 -03448.6 -07.5508 26243.7
 05 06 2013  06 01  -21.0326 26016.2 -03448.7 -07.5510 26243.8
 05 06 2013  06 02  -21.0325 26016.3 -03448.7 -07.5511 26243.9
 05 06 2013  06 03  -21.0326 26016.4 -03448.8 -07.5512 26244.0
 05 06 2013  06 04  -21.0330 26016.4 -03448.8 -07.5513 26244.0
 05 06 2013  06 05  -21.0338 26015.8 -03448.6 -07.5510 26243.4
 05 06 2013  06 06  -21.0347 26015.7 -03448.5 -07.5507 26243.2
 05 06 2013  06 07  -21.0347 26016.0 -03448.5 -07.5508 26243.6
 05 06 2013  06 08  -21.0345 26016.2 -03448.7 -07.5510 26243.8
 05 06 2013  06 09  -21.0341 26016.4 -03448.7 -07.5511 26244.0
 05 06 2013  06 10  -21.0342 26016.3 -03448.7 -07.5510 26243.9
 05 06 2013  06 11  -21.0343 26016.2 -03448.6 -07.5508 26243.8
 05 06 2013  06 12  -21.0344 26016.5 -03448.7 -07.5510 26244.1
 05 06 2013  06 13  -21.0348 26016.7 -03448.8 -07.5512 26244.3
 05 06 2013  06 14  -21.0351 26017.1 -03449.0 -07.5515 26244.7
 05 06 2013  06 15  -21.0353 26017.0 -03448.9 -07.5514 26244.6
 05 06 2013  06 16  -21.0357 26017.2 -03449.0 -07.5515 26244.8
 05 06 2013  06 17  -21.0361 26017.2 -03449.0 -07.5514 26244.8
 05 06 2013  06 18  -21.0361 26017.5 -03449.0 -07.5514 26245.1
 05 06 2013  06 19  -21.0360 26017.5 -03449.0 -07.5513 26245.1
 05 06 2013  06 20  -21.0359 26017.5 -03448.9 -07.5512 26245.1
 05 06 2013  06 21  -21.0358 26017.5 -03448.9 -07.5511 26245.1
 05 06 2013  06 22  -21.0358 26017.4 -03448.8 -07.5509 26245.0
 05 06 2013  06 23  -21.0358 26017.3 -03448.7 -07.5507 26244.9
 05 06 2013  06 24  -21.0360 26017.2 -03448.6 -07.5506 26244.8
 05 06 2013  06 25  -21.0358 26017.4 -03448.7 -07.5506 26245.0
 05 06 2013  06 26  -21.0355 26017.7 -03448.8 -07.5508 26245.2
 05 06 2013  06 27  -21.0352 26017.9 -03448.9 -07.5509 26245.4
 05 06 2013  06 28  -21.0348 26018.0 -03448.9 -07.5510 26245.6
 05 06 2013  06 29  -21.0347 26018.0 -03449.0 -07.5511 26245.6
 05 06 2013  06 30  -21.0346 26018.0 -03448.9 -07.5510 26245.6
 05 06 2013  06 31  -21.0345 26018.0 -03448.9 -07.5510 26245.6
 05 06 2013  06 32  -21.0345 26018.0 -03448.9 -07.5509 26245.6
 05 06 2013  06 33  -21.0341 26017.9 -03448.8 -07.5507 26245.4
 05 06 2013  06 34  -21.0338 26018.0 -03448.8 -07.5507 26245.5
 05 06 2013  06 35  -21.0336 26018.1 -03448.8 -07.5508 26245.7
 05 06 2013  06 36  -21.0335 26018.2 -03448.9 -07.5509 26245.8
 05 06 2013  06 37  -21.0335 26018.2 -03448.9 -07.5510 26245.8
 05 06 2013  06 38  -21.0334 26018.2 -03448.9 -07.5510 26245.8
 05 06 2013  06 39  -21.0334 26018.2 -03448.9 -07.5509 26245.8
 05 06 2013  06 40  -21.0332 26018.3 -03448.9 -07.5509 26245.9
 05 06 2013  06 41  -21.0330 26018.3 -03448.9 -07.5508 26245.8
 05 06 2013  06 42  -21.0329 26018.4 -03448.9 -07.5509 26245.9
 05 06 2013  06 43  -21.0329 26018.4 -03448.9 -07.5509 26246.0
 05 06 2013  06 44  -21.0328 26018.4 -03448.9 -07.5509 26246.0
 05 06 2013  06 45  -21.0326 26018.4 -03448.9 -07.5509 26246.0
 05 06 2013  06 46  -21.0324 26018.5 -03449.0 -07.5510 26246.1
 05 06 2013  06 47  -21.0320 26018.6 -03449.0 -07.5510 26246.2
 05 06 2013  06 48  -21.0318 26018.5 -03448.9 -07.5509 26246.1
 05 06 2013  06 49  -21.0315 26018.5 -03448.9 -07.5509 26246.1
 05 06 2013  06 50  -21.0312 26018.6 -03449.0 -07.5510 26246.2
 05 06 2013  06 51  -21.0309 26018.7 -03449.0 -07.5510 26246.3
 05 06 2013  06 52  -21.0306 26018.7 -03449.1 -07.5511 26246.3
 05 06 2013  06 53  -21.0303 26018.9 -03449.1 -07.5512 26246.5
 05 06 2013  06 54  -21.0300 26018.9 -03449.1 -07.5513 26246.6
 05 06 2013  06 55  -21.0297 26019.0 -03449.2 -07.5514 26246.6
 05 06 2013  06 56  -21.0296 26019.0 -03449.2 -07.5514 26246.7
 05 06 2013  06 57  -21.0295 26019.1 -03449.3 -07.5515 26246.7
 05 06 2013  06 58  -21.0293 26019.1 -03449.3 -07.5515 26246.7
 05 06 2013  06 59  -21.0292 26019.0 -03449.3 -07.5515 26246.6
 05 06 2013  07 00  -21.0291 26019.0 -03449.3 -07.5515 26246.7
 05 06 2013  07 01  -21.0290 26019.2 -03449.4 -07.5517 26246.9
 05 06 2013  07 02  -21.0287 26019.3 -03449.4 -07.5518 26246.9
 05 06 2013  07 03  -21.0285 26019.5 -03449.5 -07.5519 26247.2
 05 06 2013  07 04  -21.0281 26019.7 -03449.6 -07.5521 26247.4
 05 06 2013  07 05  -21.0279 26019.8 -03449.7 -07.5521 26247.5
 05 06 2013  07 06  -21.0278 26019.8 -03449.6 -07.5521 26247.5
 05 06 2013  07 07  -21.0277 26019.8 -03449.6 -07.5521 26247.5
 05 06 2013  07 08  -21.0277 26019.8 -03449.6 -07.5520 26247.4
 05 06 2013  07 09  -21.0278 26019.7 -03449.6 -07.5520 26247.4
 05 06 2013  07 10  -21.0280 26019.7 -03449.6 -07.5520 26247.4
 05 06 2013  07 11  -21.0282 26019.8 -03449.6 -07.5520 26247.4
 05 06 2013  07 12  -21.0282 26019.9 -03449.6 -07.5520 26247.5
 05 06 2013  07 13  -21.0281 26020.0 -03449.7 -07.5522 26247.7
 05 06 2013  07 14  -21.0279 26020.2 -03449.8 -07.5523 26247.9
 05 06 2013  07 15  -21.0277 26020.4 -03449.9 -07.5524 26248.1
 05 06 2013  07 16  -21.0276 26020.5 -03450.0 -07.5525 26248.3
 05 06 2013  07 17  -21.0275 26020.7 -03450.0 -07.5526 26248.4
 05 06 2013  07 18  -21.0274 26020.9 -03450.1 -07.5527 26248.6
 05 06 2013  07 19  -21.0273 26021.0 -03450.1 -07.5528 26248.7
 05 06 2013  07 20  -21.0274 26021.1 -03450.2 -07.5529 26248.8
 05 06 2013  07 21  -21.0273 26021.2 -03450.2 -07.5529 26248.9
 05 06 2013  07 22  -21.0275 26021.3 -03450.3 -07.5530 26249.1
 05 06 2013  07 23  -21.0276 26021.4 -03450.3 -07.5530 26249.1
 05 06 2013  07 24  -21.0278 26021.5 -03450.3 -07.5530 26249.3
 05 06 2013  07 25  -21.0275 26021.4 -03450.2 -07.5529 26249.1
 05 06 2013  07 26  -21.0276 26021.4 -03450.2 -07.5528 26249.1
 05 06 2013  07 27  -21.0280 26021.5 -03450.2 -07.5528 26249.2
 05 06 2013  07 28  -21.0282 26021.5 -03450.2 -07.5527 26249.2
 05 06 2013  07 29  -21.0281 26021.5 -03450.1 -07.5527 26249.2
 05 06 2013  07 30  -21.0283 26021.4 -03450.1 -07.5526 26249.2
 05 06 2013  07 31  -21.0286 26021.5 -03450.1 -07.5526 26249.3
 05 06 2013  07 32  -21.0288 26021.6 -03450.1 -07.5526 26249.3
 05 06 2013  07 33  -21.0291 26021.6 -03450.1 -07.5525 26249.3
 05 06 2013  07 34  -21.0294 26021.6 -03450.1 -07.5525 26249.3
 05 06 2013  07 35  -21.0294 26021.6 -03450.0 -07.5524 26249.3
 05 06 2013  07 36  -21.0294 26021.5 -03450.0 -07.5523 26249.2
 05 06 2013  07 37  -21.0294 26021.4 -03449.9 -07.5522 26249.1
 05 06 2013  07 38  -21.0295 26021.5 -03449.9 -07.5522 26249.2
 05 06 2013  07 39  -21.0297 26021.6 -03449.9 -07.5522 26249.3
 05 06 2013  07 40  -21.0300 26021.7 -03449.9 -07.5521 26249.3
 05 06 2013  07 41  -21.0302 26021.7 -03449.9 -07.5521 26249.4
 05 06 2013  07 42  -21.0305 26021.7 -03449.9 -07.5521 26249.4
 05 06 2013  07 43  -21.0306 26021.6 -03449.8 -07.5519 26249.2
 05 06 2013  07 44  -21.0309 26021.4 -03449.7 -07.5518 26249.1
 05 06 2013  07 45  -21.0311 26021.3 -03449.7 -07.5517 26249.0
 05 06 2013  07 46  -21.0310 26021.0 -03449.5 -07.5513 26248.6
 05 06 2013  07 47  -21.0309 26020.8 -03449.4 -07.5512 26248.4
 05 06 2013  07 48  -21.0310 26020.8 -03449.4 -07.5512 26248.4
 05 06 2013  07 49  -21.0312 26020.7 -03449.3 -07.5511 26248.3
 05 06 2013  07 50  -21.0313 26020.7 -03449.3 -07.5512 26248.4
 05 06 2013  07 51  -21.0311 26020.8 -03449.4 -07.5512 26248.5
 05 06 2013  07 52  -21.0307 26020.6 -03449.3 -07.5510 26248.2
 05 06 2013  07 53  -21.0307 26020.6 -03449.2 -07.5510 26248.2
 05 06 2013  07 54  -21.0305 26020.6 -03449.3 -07.5511 26248.2
 05 06 2013  07 55  -21.0301 26020.7 -03449.3 -07.5511 26248.3
 05 06 2013  07 56  -21.0296 26020.9 -03449.4 -07.5513 26248.5
 05 06 2013  07 57  -21.0291 26021.1 -03449.5 -07.5513 26248.7
 05 06 2013  07 58  -21.0288 26021.2 -03449.6 -07.5515 26248.9
 05 06 2013  07 59  -21.0284 26021.5 -03449.7 -07.5516 26249.1
 05 06 2013  08 00  -21.0279 26021.6 -03449.7 -07.5516 26249.2
 05 06 2013  08 01  -21.0275 26021.7 -03449.7 -07.5518 26249.4
 05 06 2013  08 02  -21.0273 26021.9 -03449.8 -07.5519 26249.6
 05 06 2013  08 03  -21.0271 26022.0 -03449.9 -07.5520 26249.7
 05 06 2013  08 04  -21.0269 26021.9 -03449.9 -07.5520 26249.6
 05 06 2013  08 05  -21.0267 26021.8 -03449.8 -07.5519 26249.5
 05 06 2013  08 06  -21.0266 26021.7 -03449.8 -07.5518 26249.4
 05 06 2013  08 07  -21.0264 26021.6 -03449.7 -07.5517 26249.2
 05 06 2013  08 08  -21.0263 26021.5 -03449.7 -07.5516 26249.2
 05 06 2013  08 09  -21.0260 26021.4 -03449.7 -07.5517 26249.1
 05 06 2013  08 10  -21.0256 26021.4 -03449.7 -07.5517 26249.1
 05 06 2013  08 11  -21.0254 26021.5 -03449.7 -07.5518 26249.2
 05 06 2013  08 12  -21.0250 26021.6 -03449.8 -07.5519 26249.3
 05 06 2013  08 13  -21.0247 26021.8 -03449.8 -07.5520 26249.4
 05 06 2013  08 14  -21.0246 26021.7 -03449.8 -07.5520 26249.4
 05 06 2013  08 15  -21.0244 26021.7 -03449.8 -07.5520 26249.3
 05 06 2013  08 16  -21.0245 26021.6 -03449.9 -07.5520 26249.3
 05 06 2013  08 17  -21.0245 26021.6 -03449.9 -07.5521 26249.3
 05 06 2013  08 18  -21.0245 26021.5 -03449.8 -07.5520 26249.2
 05 06 2013  08 19  -21.0245 26021.4 -03449.8 -07.5519 26249.1
 05 06 2013  08 20  -21.0245 26021.4 -03449.8 -07.5519 26249.0
 05 06 2013  08 21  -21.0244 26021.4 -03449.8 -07.5519 26249.1
 05 06 2013  08 22  -21.0243 26021.4 -03449.7 -07.5518 26249.1
 05 06 2013  08 23  -21.0242 26021.5 -03449.7 -07.5517 26249.2
 05 06 2013  08 24  -21.0241 26021.8 -03449.8 -07.5518 26249.4
 05 06 2013  08 25  -21.0240 26021.8 -03449.9 -07.5520 26249.5
 05 06 2013  08 26  -21.0240 26022.0 -03449.9 -07.5520 26249.7
 05 06 2013  08 27  -21.0239 26022.0 -03449.9 -07.5520 26249.7
 05 06 2013  08 28  -21.0236 26022.0 -03449.9 -07.5519 26249.7
 05 06 2013  08 29  -21.0232 26022.0 -03449.8 -07.5519 26249.6
 05 06 2013  08 30  -21.0228 26022.0 -03449.8 -07.5518 26249.7
 05 06 2013  08 31  -21.0225 26022.1 -03449.8 -07.5518 26249.8
 05 06 2013  08 32  -21.0223 26022.2 -03449.8 -07.5518 26249.9
 05 06 2013  08 33  -21.0222 26022.4 -03449.9 -07.5519 26250.0
 05 06 2013  08 34  -21.0220 26022.5 -03449.9 -07.5519 26250.2
 05 06 2013  08 35  -21.0217 26022.8 -03450.0 -07.5519 26250.5
 05 06 2013  08 36  -21.0212 26023.0 -03450.0 -07.5519 26250.7
 05 06 2013  08 37  -21.0209 26023.1 -03450.0 -07.5519 26250.8
 05 06 2013  08 38  -21.0206 26023.2 -03450.0 -07.5518 26250.9
 05 06 2013  08 39  -21.0204 26023.4 -03450.0 -07.5519 26251.1
 05 06 2013  08 40  -21.0203 26023.6 -03450.1 -07.5519 26251.3
 05 06 2013  08 41  -21.0199 26023.7 -03450.1 -07.5520 26251.4
 05 06 2013  08 42  -21.0196 26023.7 -03450.1 -07.5520 26251.4
 05 06 2013  08 43  -21.0193 26023.7 -03450.1 -07.5519 26251.4
 05 06 2013  08 44  -21.0189 26023.7 -03450.0 -07.5517 26251.4
 05 06 2013  08 45  -21.0186 26023.6 -03449.8 -07.5514 26251.2
 05 06 2013  08 46  -21.0185 26023.4 -03449.8 -07.5513 26251.0
 05 06 2013  08 47  -21.0184 26023.4 -03449.8 -07.5513 26251.0
 05 06 2013  08 48  -21.0180 26023.4 -03449.7 -07.5512 26251.1
 05 06 2013  08 49  -21.0169 26023.2 -03449.6 -07.5509 26250.8
 05 06 2013  08 50  -21.0163 26023.3 -03449.6 -07.5509 26250.9
 05 06 2013  08 51  -21.0159 26023.2 -03449.5 -07.5509 26250.8
 05 06 2013  08 52  -21.0154 26023.3 -03449.6 -07.5509 26251.0
 05 06 2013  08 53  -21.0147 26023.4 -03449.6 -07.5509 26251.0
 05 06 2013  08 54  -21.0141 26023.3 -03449.5 -07.5508 26251.0
 05 06 2013  08 55  -21.0131 26023.3 -03449.4 -07.5506 26250.9
 05 06 2013  08 56  -21.0123 26023.2 -03449.4 -07.5505 26250.9
 05 06 2013  08 57  -21.0117 26023.2 -03449.3 -07.5505 26250.8
 05 06 2013  08 58  -21.0116 26023.2 -03449.4 -07.5505 26250.8
 05 06 2013  08 59  -21.0112 26023.1 -03449.4 -07.5505 26250.7
 05 06 2013  09 00  -21.0104 26023.0 -03449.3 -07.5504 26250.6
 05 06 2013  09 01  -21.0094 26023.0 -03449.2 -07.5503 26250.6
 05 06 2013  09 02  -21.0085 26022.9 -03449.2 -07.5502 26250.5
 05 06 2013  09 03  -21.0075 26022.8 -03449.2 -07.5502 26250.4
 05 06 2013  09 04  -21.0064 26022.8 -03449.1 -07.5500 26250.4
 05 06 2013  09 05  -21.0064 26022.7 -03449.1 -07.5500 26250.2
 05 06 2013  09 06  -21.0066 26022.6 -03449.2 -07.5504 26250.2
 05 06 2013  09 07  -21.0069 26022.5 -03449.4 -07.5507 26250.2
 05 06 2013  09 08  -21.0060 26022.4 -03449.4 -07.5508 26250.1
 05 06 2013  09 09  -21.0048 26022.2 -03449.3 -07.5507 26249.8
 05 06 2013  09 10  -21.0039 26021.8 -03449.2 -07.5505 26249.4
 05 06 2013  09 11  -21.0038 26021.6 -03449.2 -07.5506 26249.2
 05 06 2013  09 12  -21.0035 26021.4 -03449.3 -07.5508 26249.0
 05 06 2013  09 13  -21.0032 26021.4 -03449.3 -07.5509 26249.0
 05 06 2013  09 14  -21.0032 26021.5 -03449.6 -07.5515 26249.1
 05 06 2013  09 15  -21.0031 26021.5 -03449.8 -07.5519 26249.2
 05 06 2013  09 16  -21.0023 26021.3 -03449.9 -07.5521 26249.0
 05 06 2013  09 17  -21.0009 26021.3 -03449.9 -07.5523 26249.0
 05 06 2013  09 18  -20.9999 26021.5 -03450.0 -07.5524 26249.2
 05 06 2013  09 19  -20.9991 26021.4 -03450.0 -07.5525 26249.1
 05 06 2013  09 20  -20.9994 26021.5 -03450.2 -07.5528 26249.2
 05 06 2013  09 21  -20.9997 26021.6 -03450.5 -07.5534 26249.4
 05 06 2013  09 22  -21.0002 26021.1 -03450.5 -07.5535 26248.9
 05 06 2013  09 23  -21.0000 26021.1 -03450.6 -07.5538 26248.9
 05 06 2013  09 24  -20.9988 26021.1 -03450.7 -07.5540 26248.9
 05 06 2013  09 25  -20.9983 26020.8 -03450.7 -07.5540 26248.6
 05 06 2013  09 26  -20.9974 26020.6 -03450.6 -07.5539 26248.4
 05 06 2013  09 27  -20.9969 26020.4 -03450.6 -07.5539 26248.2
 05 06 2013  09 28  -20.9963 26020.2 -03450.6 -07.5539 26248.0
 05 06 2013  09 29  -20.9958 26020.2 -03450.7 -07.5543 26248.0
 05 06 2013  09 30  -20.9954 26020.0 -03450.8 -07.5546 26247.9
 05 06 2013  09 31  -20.9959 26020.0 -03451.1 -07.5552 26247.9
 05 06 2013  09 32  -20.9957 26020.0 -03451.3 -07.5557 26247.9
 05 06 2013  09 33  -20.9958 26020.1 -03451.6 -07.5563 26248.0
 05 06 2013  09 34  -20.9972 26020.4 -03452.1 -07.5572 26248.3
 05 06 2013  09 35  -20.9977 26020.6 -03452.5 -07.5580 26248.7
 05 06 2013  09 36  -20.9985 26021.2 -03453.0 -07.5589 26249.3
 05 06 2013  09 37  -20.9991 26021.5 -03453.4 -07.5597 26249.6
 05 06 2013  09 38  -20.9977 26021.6 -03453.4 -07.5596 26249.8
 05 06 2013  09 39  -20.9937 26022.1 -03453.3 -07.5593 26250.3
 05 06 2013  09 40  -20.9915 26022.5 -03453.2 -07.5591 26250.6
 05 06 2013  09 41  -20.9922 26022.3 -03453.2 -07.5591 26250.4
 05 06 2013  09 42  -20.9959 26021.9 -03453.4 -07.5597 26250.1
 05 06 2013  09 43  -20.9992 26021.5 -03453.7 -07.5604 26249.7
 05 06 2013  09 44  -21.0007 26021.3 -03453.9 -07.5610 26249.5
 05 06 2013  09 45  -21.0003 26021.6 -03454.3 -07.5616 26249.9
 05 06 2013  09 46  -20.9991 26022.0 -03454.5 -07.5620 26250.3
 05 06 2013  09 47  -20.9981 26022.3 -03454.7 -07.5623 26250.6
 05 06 2013  09 48  -20.9982 26022.3 -03454.8 -07.5625 26250.6
 05 06 2013  09 49  -20.9985 26022.3 -03455.0 -07.5629 26250.6
 05 06 2013  09 50  -20.9987 26022.5 -03455.3 -07.5634 26250.9
 05 06 2013  09 51  -20.9989 26022.8 -03455.6 -07.5641 26251.2
 05 06 2013  09 52  -20.9992 26023.0 -03455.8 -07.5646 26251.5
 05 06 2013  09 53  -20.9997 26023.1 -03456.0 -07.5650 26251.5
 05 06 2013  09 54  -20.9999 26023.1 -03456.2 -07.5653 26251.6
 05 06 2013  09 55  -21.0001 26023.0 -03456.3 -07.5655 26251.5
 05 06 2013  09 56  -21.0001 26023.0 -03456.4 -07.5657 26251.5
 05 06 2013  09 57  -20.9999 26022.9 -03456.4 -07.5659 26251.5
 05 06 2013  09 58  -20.9997 26022.7 -03456.4 -07.5658 26251.3
 05 06 2013  09 59  -21.0005 26022.4 -03456.4 -07.5659 26251.0
 05 06 2013  10 00  -21.0017 26022.1 -03456.4 -07.5661 26250.6
 05 06 2013  10 01  -21.0027 26022.0 -03456.5 -07.5664 26250.5
 05 06 2013  10 02  -21.0035 26021.8 -03456.7 -07.5667 26250.4
 05 06 2013  10 03  -21.0038 26021.5 -03456.6 -07.5667 26250.1
 05 06 2013  10 04  -21.0042 26021.6 -03456.7 -07.5669 26250.2
 05 06 2013  10 05  -21.0049 26021.7 -03456.9 -07.5673 26250.3
 05 06 2013  10 06  -21.0056 26022.0 -03457.1 -07.5677 26250.6
 05 06 2013  10 07  -21.0062 26022.4 -03457.5 -07.5682 26251.1
 05 06 2013  10 08  -21.0057 26022.9 -03457.7 -07.5685 26251.6
 05 06 2013  10 09  -21.0048 26023.2 -03457.7 -07.5685 26252.0
 05 06 2013  10 10  -21.0040 26023.4 -03457.7 -07.5684 26252.1
 05 06 2013  10 11  -21.0035 26023.6 -03457.7 -07.5683 26252.3
 05 06 2013  10 12  -21.0041 26023.9 -03457.8 -07.5686 26252.6
 05 06 2013  10 13  -21.0043 26024.1 -03457.9 -07.5688 26252.8
 05 06 2013  10 14  -21.0040 26024.4 -03458.1 -07.5690 26253.1
 05 06 2013  10 15  -21.0037 26024.7 -03458.2 -07.5691 26253.5
 05 06 2013  10 16  -21.0038 26024.9 -03458.2 -07.5691 26253.7
 05 06 2013  10 17  -21.0038 26025.1 -03458.2 -07.5691 26253.9
 05 06 2013  10 18  -21.0036 26025.4 -03458.3 -07.5691 26254.2
 05 06 2013  10 19  -21.0036 26025.7 -03458.4 -07.5693 26254.5
 05 06 2013  10 20  -21.0046 26025.7 -03458.4 -07.5694 26254.5
 05 06 2013  10 21  -21.0051 26025.8 -03458.4 -07.5694 26254.6
 05 06 2013  10 22  -21.0058 26025.6 -03458.4 -07.5693 26254.4
 05 06 2013  10 23  -21.0058 26025.7 -03458.4 -07.5693 26254.4
 05 06 2013  10 24  -21.0061 26025.7 -03458.4 -07.5693 26254.5
 05 06 2013  10 25  -21.0064 26025.9 -03458.5 -07.5694 26254.7
 05 06 2013  10 26  -21.0068 26025.8 -03458.5 -07.5695 26254.6
 05 06 2013  10 27  -21.0072 26025.9 -03458.5 -07.5696 26254.7
 05 06 2013  10 28  -21.0072 26026.1 -03458.6 -07.5697 26254.9
 05 06 2013  10 29  -21.0072 26026.1 -03458.6 -07.5696 26254.9
 05 06 2013  10 30  -21.0074 26026.2 -03458.6 -07.5696 26255.0
 05 06 2013  10 31  -21.0075 26026.3 -03458.6 -07.5696 26255.1
 05 06 2013  10 32  -21.0079 26026.5 -03458.6 -07.5696 26255.3
 05 06 2013  10 33  -21.0090 26026.5 -03458.6 -07.5696 26255.3
 05 06 2013  10 34  -21.0098 26026.6 -03458.6 -07.5695 26255.4
 05 06 2013  10 35  -21.0096 26027.1 -03458.7 -07.5695 26255.9
 05 06 2013  10 36  -21.0101 26027.7 -03458.8 -07.5695 26256.5
 05 06 2013  10 37  -21.0114 26028.1 -03458.8 -07.5694 26256.9
 05 06 2013  10 38  -21.0124 26028.1 -03458.6 -07.5691 26256.9
 05 06 2013  10 39  -21.0122 26028.4 -03458.5 -07.5688 26257.2
 05 06 2013  10 40  -21.0115 26029.1 -03458.6 -07.5687 26257.8
 05 06 2013  10 41  -21.0115 26029.7 -03458.6 -07.5686 26258.4
 05 06 2013  10 42  -21.0120 26030.0 -03458.5 -07.5683 26258.7
 05 06 2013  10 43  -21.0124 26029.7 -03458.2 -07.5678 26258.4
 05 06 2013  10 44  -21.0123 26029.6 -03458.0 -07.5673 26258.3
 05 06 2013  10 45  -21.0124 26029.5 -03457.8 -07.5669 26258.2
 05 06 2013  10 46  -21.0129 26029.4 -03457.7 -07.5667 26258.0
 05 06 2013  10 47  -21.0134 26029.3 -03457.7 -07.5667 26258.0
 05 06 2013  10 48  -21.0138 26029.4 -03457.7 -07.5667 26258.1
 05 06 2013  10 49  -21.0136 26029.9 -03457.8 -07.5668 26258.6
 05 06 2013  10 50  -21.0134 26030.2 -03457.7 -07.5666 26258.9
 05 06 2013  10 51  -21.0131 26030.5 -03457.6 -07.5662 26259.1
 05 06 2013  10 52  -21.0133 26030.6 -03457.5 -07.5659 26259.2
 05 06 2013  10 53  -21.0136 26030.7 -03457.4 -07.5657 26259.3
 05 06 2013  10 54  -21.0139 26031.0 -03457.4 -07.5656 26259.6
 05 06 2013  10 55  -21.0140 26031.5 -03457.4 -07.5655 26260.1
 05 06 2013  10 56  -21.0141 26031.9 -03457.4 -07.5653 26260.5
 05 06 2013  10 57  -21.0139 26032.4 -03457.3 -07.5650 26261.0
 05 06 2013  10 58  -21.0136 26033.0 -03457.3 -07.5648 26261.6
 05 06 2013  10 59  -21.0138 26033.4 -03457.1 -07.5643 26261.9
 05 06 2013  11 00  -21.0142 26033.6 -03456.9 -07.5639 26262.1
 05 06 2013  11 01  -21.0143 26033.9 -03456.8 -07.5635 26262.4
 05 06 2013  11 02  -21.0148 26034.1 -03456.6 -07.5630 26262.5
 05 06 2013  11 03  -21.0149 26034.1 -03456.3 -07.5625 26262.5
 05 06 2013  11 04  -21.0150 26034.2 -03456.1 -07.5620 26262.6
 05 06 2013  11 05  -21.0148 26034.4 -03456.0 -07.5616 26262.8
 05 06 2013  11 06  -21.0145 26034.6 -03455.8 -07.5612 26262.9
 05 06 2013  11 07  -21.0139 26034.9 -03455.6 -07.5607 26263.2
 05 06 2013  11 08  -21.0136 26035.0 -03455.4 -07.5601 26263.3
 05 06 2013  11 09  -21.0139 26035.2 -03455.2 -07.5597 26263.5
 05 06 2013  11 10  -21.0142 26035.5 -03455.1 -07.5593 26263.8
 05 06 2013  11 11  -21.0142 26035.8 -03454.9 -07.5590 26264.0
 05 06 2013  11 12  -21.0140 26035.8 -03454.7 -07.5585 26264.0
 05 06 2013  11 13  -21.0139 26035.8 -03454.6 -07.5581 26264.0
 05 06 2013  11 14  -21.0148 26035.9 -03454.4 -07.5578 26264.1
 05 06 2013  11 15  -21.0158 26036.0 -03454.3 -07.5576 26264.2
 05 06 2013  11 16  -21.0162 26036.4 -03454.3 -07.5575 26264.6
 05 06 2013  11 17  -21.0161 26036.8 -03454.3 -07.5573 26265.0
 05 06 2013  11 18  -21.0158 26037.4 -03454.3 -07.5572 26265.6
 05 06 2013  11 19  -21.0165 26037.8 -03454.4 -07.5571 26266.0
 05 06 2013  11 20  -21.0173 26038.1 -03454.4 -07.5571 26266.3
 05 06 2013  11 21  -21.0171 26038.6 -03454.4 -07.5570 26266.7
 05 06 2013  11 22  -21.0159 26039.2 -03454.4 -07.5569 26267.4
 05 06 2013  11 23  -21.0146 26039.9 -03454.5 -07.5568 26268.0
 05 06 2013  11 24  -21.0142 26040.1 -03454.4 -07.5565 26268.2
 05 06 2013  11 25  -21.0142 26040.5 -03454.3 -07.5562 26268.6
 05 06 2013  11 26  -21.0141 26041.0 -03454.3 -07.5561 26269.1
 05 06 2013  11 27  -21.0143 26041.3 -03454.2 -07.5558 26269.4
 05 06 2013  11 28  -21.0147 26041.3 -03454.0 -07.5554 26269.4
 05 06 2013  11 29  -21.0151 26041.3 -03453.9 -07.5551 26269.3
 05 06 2013  11 30  -21.0153 26041.3 -03453.7 -07.5547 26269.3
 05 06 2013  11 31  -21.0151 26041.4 -03453.6 -07.5544 26269.4
 05 06 2013  11 32  -21.0149 26041.5 -03453.4 -07.5541 26269.5
 05 06 2013  11 33  -21.0151 26041.3 -03453.2 -07.5536 26269.2
 05 06 2013  11 34  -21.0155 26041.4 -03453.1 -07.5534 26269.3
 05 06 2013  11 35  -21.0157 26041.7 -03453.1 -07.5533 26269.6
 05 06 2013  11 36  -21.0153 26042.1 -03453.1 -07.5532 26270.0
 05 06 2013  11 37  -21.0151 26042.6 -03453.1 -07.5531 26270.6
 05 06 2013  11 38  -21.0150 26043.1 -03453.1 -07.5529 26271.1
 05 06 2013  11 39  -21.0150 26043.6 -03453.1 -07.5527 26271.6
 05 06 2013  11 40  -21.0154 26043.7 -03452.9 -07.5523 26271.6
 05 06 2013  11 41  -21.0158 26043.9 -03452.8 -07.5520 26271.7
 05 06 2013  11 42  -21.0162 26044.0 -03452.7 -07.5517 26271.9
 05 06 2013  11 43  -21.0164 26044.1 -03452.6 -07.5515 26272.0
 05 06 2013  11 44  -21.0165 26044.2 -03452.5 -07.5512 26272.1
 05 06 2013  11 45  -21.0165 26044.4 -03452.4 -07.5510 26272.3
 05 06 2013  11 46  -21.0165 26044.7 -03452.3 -07.5507 26272.5
 05 06 2013  11 47  -21.0164 26045.0 -03452.2 -07.5505 26272.8
 05 06 2013  11 48  -21.0166 26045.1 -03452.1 -07.5501 26272.9
 05 06 2013  11 49  -21.0169 26045.1 -03451.9 -07.5497 26272.8
 05 06 2013  11 50  -21.0171 26045.2 -03451.8 -07.5495 26272.9
 05 06 2013  11 51  -21.0174 26045.5 -03451.8 -07.5494 26273.2
 05 06 2013  11 52  -21.0177 26045.4 -03451.6 -07.5490 26273.1
 05 06 2013  11 53  -21.0183 26045.0 -03451.3 -07.5484 26272.6
 05 06 2013  11 54  -21.0188 26044.8 -03451.2 -07.5482 26272.5
 05 06 2013  11 55  -21.0192 26044.9 -03451.2 -07.5483 26272.6
 05 06 2013  11 56  -21.0192 26045.6 -03451.4 -07.5486 26273.3
 05 06 2013  11 57  -21.0194 26046.1 -03451.7 -07.5489 26273.9
 05 06 2013  11 58  -21.0196 26046.5 -03451.7 -07.5488 26274.2
 05 06 2013  11 59  -21.0199 26047.0 -03451.7 -07.5488 26274.7
 05 06 2013  12 00  -21.0203 26047.5 -03451.8 -07.5487 26275.3
 05 06 2013  12 01  -21.0209 26047.9 -03451.6 -07.5484 26275.5
 05 06 2013  12 02  -21.0213 26048.0 -03451.6 -07.5481 26275.7
 05 06 2013  12 03  -21.0216 26048.1 -03451.5 -07.5479 26275.8
 05 06 2013  12 04  -21.0220 26048.5 -03451.5 -07.5478 26276.2
 05 06 2013  12 05  -21.0224 26048.9 -03451.5 -07.5477 26276.5
 05 06 2013  12 06  -21.0228 26049.3 -03451.5 -07.5476 26276.9
 05 06 2013  12 07  -21.0231 26049.4 -03451.3 -07.5472 26277.0
 05 06 2013  12 08  -21.0232 26049.4 -03451.2 -07.5469 26277.0
 05 06 2013  12 09  -21.0237 26049.5 -03451.1 -07.5468 26277.1
 05 06 2013  12 10  -21.0242 26049.3 -03451.0 -07.5465 26276.9
 05 06 2013  12 11  -21.0246 26049.2 -03450.8 -07.5461 26276.8
 05 06 2013  12 12  -21.0251 26049.5 -03450.8 -07.5462 26277.1
 05 06 2013  12 13  -21.0256 26049.6 -03450.8 -07.5460 26277.1
 05 06 2013  12 14  -21.0258 26049.6 -03450.7 -07.5458 26277.1
 05 06 2013  12 15  -21.0264 26049.7 -03450.7 -07.5458 26277.2
 05 06 2013  12 16  -21.0269 26050.1 -03450.8 -07.5458 26277.6
 05 06 2013  12 17  -21.0273 26050.1 -03450.6 -07.5456 26277.6
 05 06 2013  12 18  -21.0279 26050.2 -03450.6 -07.5455 26277.7
 05 06 2013  12 19  -21.0287 26050.5 -03450.7 -07.5456 26278.0
 05 06 2013  12 20  -21.0295 26050.9 -03450.8 -07.5456 26278.4
 05 06 2013  12 21  -21.0302 26051.3 -03450.8 -07.5456 26278.8
 05 06 2013  12 22  -21.0311 26051.7 -03450.8 -07.5454 26279.2
 05 06 2013  12 23  -21.0317 26052.0 -03450.8 -07.5453 26279.6
 05 06 2013  12 24  -21.0323 26052.1 -03450.6 -07.5449 26279.6
 05 06 2013  12 25  -21.0328 26052.1 -03450.4 -07.5445 26279.6
 05 06 2013  12 26  -21.0333 26052.1 -03450.3 -07.5442 26279.6
 05 06 2013  12 27  -21.0341 26052.1 -03450.2 -07.5439 26279.6
 05 06 2013  12 28  -21.0347 26052.2 -03450.1 -07.5438 26279.7
 05 06 2013  12 29  -21.0352 26052.3 -03449.9 -07.5434 26279.7
 05 06 2013  12 30  -21.0360 26052.3 -03449.8 -07.5430 26279.7
 05 06 2013  12 31  -21.0367 26052.3 -03449.8 -07.5430 26279.7
 05 06 2013  12 32  -21.0374 26052.3 -03449.7 -07.5429 26279.8
 05 06 2013  12 33  -21.0381 26052.5 -03449.7 -07.5427 26279.9
 05 06 2013  12 34  -21.0388 26052.6 -03449.5 -07.5424 26279.9
 05 06 2013  12 35  -21.0394 26052.8 -03449.5 -07.5423 26280.2
 05 06 2013  12 36  -21.0401 26053.0 -03449.4 -07.5420 26280.3
 05 06 2013  12 37  -21.0407 26053.3 -03449.4 -07.5419 26280.6
 05 06 2013  12 38  -21.0413 26053.7 -03449.3 -07.5417 26281.0
 05 06 2013  12 39  -21.0419 26054.0 -03449.2 -07.5413 26281.3
 05 06 2013  12 40  -21.0425 26054.1 -03449.0 -07.5408 26281.4
 05 06 2013  12 41  -21.0430 26054.3 -03448.8 -07.5404 26281.5
 05 06 2013  12 42  -21.0435 26054.2 -03448.6 -07.5400 26281.4
 05 06 2013  12 43  -21.0441 26054.1 -03448.4 -07.5396 26281.4
 05 06 2013  12 44  -21.0447 26054.2 -03448.3 -07.5393 26281.4
 05 06 2013  12 45  -21.0451 26054.2 -03448.2 -07.5390 26281.4
 05 06 2013  12 46  -21.0455 26054.2 -03448.1 -07.5389 26281.3
 05 06 2013  12 47  -21.0461 26054.0 -03448.0 -07.5387 26281.1
 05 06 2013  12 48  -21.0462 26053.7 -03448.0 -07.5387 26280.9
 05 06 2013  12 49  -21.0464 26053.6 -03448.0 -07.5388 26280.7
 05 06 2013  12 50  -21.0467 26053.6 -03448.1 -07.5390 26280.8
 05 06 2013  12 51  -21.0465 26053.6 -03448.1 -07.5390 26280.8
 05 06 2013  12 52  -21.0467 26053.6 -03448.0 -07.5389 26280.8
 05 06 2013  12 53  -21.0470 26053.2 -03447.9 -07.5387 26280.3
 05 06 2013  12 54  -21.0469 26053.0 -03447.8 -07.5386 26280.1
 05 06 2013  12 55  -21.0473 26052.8 -03447.8 -07.5387 26279.9
 05 06 2013  12 56  -21.0473 26052.8 -03448.0 -07.5390 26280.0
 05 06 2013  12 57  -21.0473 26052.9 -03448.1 -07.5392 26280.1
 05 06 2013  12 58  -21.0472 26053.1 -03448.2 -07.5395 26280.4
 05 06 2013  12 59  -21.0472 26053.4 -03448.4 -07.5397 26280.7
 05 06 2013  13 00  -21.0473 26053.9 -03448.6 -07.5400 26281.1
 05 06 2013  13 01  -21.0473 26054.2 -03448.6 -07.5401 26281.5
 05 06 2013  13 02  -21.0469 26054.1 -03448.5 -07.5398 26281.3
 05 06 2013  13 03  -21.0470 26053.7 -03448.4 -07.5396 26280.9
 05 06 2013  13 04  -21.0470 26053.3 -03448.2 -07.5394 26280.5
 05 06 2013  13 05  -21.0471 26053.5 -03448.3 -07.5396 26280.7
 05 06 2013  13 06  -21.0478 26053.6 -03448.4 -07.5398 26280.8
 05 06 2013  13 07  -21.0479 26053.3 -03448.3 -07.5397 26280.6
 05 06 2013  13 08  -21.0480 26052.9 -03448.2 -07.5395 26280.1
 05 06 2013  13 09  -21.0488 26053.2 -03448.4 -07.5399 26280.4
 05 06 2013  13 10  -21.0495 26053.1 -03448.6 -07.5402 26280.4
 05 06 2013  13 11  -21.0504 26053.2 -03448.7 -07.5404 26280.4
 05 06 2013  13 12  -21.0514 26053.6 -03448.9 -07.5408 26280.9
 05 06 2013  13 13  -21.0523 26054.5 -03449.3 -07.5414 26281.9
 05 06 2013  13 14  -21.0531 26055.4 -03449.5 -07.5417 26282.8
 05 06 2013  13 15  -21.0533 26055.6 -03449.4 -07.5413 26282.9
 05 06 2013  13 16  -21.0539 26055.9 -03449.3 -07.5410 26283.3
 05 06 2013  13 17  -21.0544 26056.3 -03449.2 -07.5407 26283.6
 05 06 2013  13 18  -21.0545 26056.5 -03449.0 -07.5402 26283.8
 05 06 2013  13 19  -21.0544 26056.7 -03449.0 -07.5401 26284.0
 05 06 2013  13 20  -21.0545 26057.0 -03449.0 -07.5400 26284.3
 05 06 2013  13 21  -21.0545 26057.1 -03448.9 -07.5397 26284.3
 05 06 2013  13 22  -21.0553 26057.6 -03448.9 -07.5397 26284.8
 05 06 2013  13 23  -21.0559 26058.0 -03448.9 -07.5395 26285.3
 05 06 2013  13 24  -21.0557 26058.0 -03448.6 -07.5389 26285.2
 05 06 2013  13 25  -21.0554 26058.3 -03448.5 -07.5385 26285.5
 05 06 2013  13 26  -21.0556 26058.6 -03448.4 -07.5384 26285.8
 05 06 2013  13 27  -21.0557 26058.9 -03448.5 -07.5384 26286.1
 05 06 2013  13 28  -21.0563 26059.6 -03448.7 -07.5386 26286.8
 05 06 2013  13 29  -21.0568 26061.2 -03449.1 -07.5391 26288.4
 05 06 2013  13 30  -21.0568 26062.3 -03449.1 -07.5388 26289.6
 05 06 2013  13 31  -21.0561 26061.8 -03448.3 -07.5371 26289.0
 05 06 2013  13 32  -21.0559 26060.3 -03447.2 -07.5351 26287.4
 05 06 2013  13 33  -21.0559 26059.9 -03446.8 -07.5344 26286.8
 05 06 2013  13 34  -21.0567 26060.2 -03446.8 -07.5344 26287.1
 05 06 2013  13 35  -21.0569 26060.7 -03446.9 -07.5345 26287.7
 05 06 2013  13 36  -21.0568 26061.5 -03447.1 -07.5346 26288.5
 05 06 2013  13 37  -21.0573 26062.0 -03447.2 -07.5347 26289.0
 05 06 2013  13 38  -21.0583 26062.2 -03447.1 -07.5346 26289.1
 05 06 2013  13 39  -21.0592 26062.1 -03446.9 -07.5341 26289.1
 05 06 2013  13 40  -21.0596 26062.6 -03446.9 -07.5338 26289.6
 05 06 2013  13 41  -21.0597 26062.8 -03446.7 -07.5334 26289.8
 05 06 2013  13 42  -21.0597 26062.7 -03446.5 -07.5329 26289.6
 05 06 2013  13 43  -21.0601 26062.5 -03446.2 -07.5324 26289.4
 05 06 2013  13 44  -21.0604 26062.2 -03445.9 -07.5318 26289.0
 05 06 2013  13 45  -21.0608 26062.0 -03445.7 -07.5314 26288.8
 05 06 2013  13 46  -21.0610 26061.7 -03445.5 -07.5311 26288.5
 05 06 2013  13 47  -21.0612 26061.4 -03445.3 -07.5308 26288.1
 05 06 2013  13 48  -21.0614 26061.3 -03445.3 -07.5307 26288.1
 05 06 2013  13 49  -21.0620 26061.4 -03445.3 -07.5307 26288.2
 05 06 2013  13 50  -21.0631 26061.9 -03445.4 -07.5309 26288.7
 05 06 2013  13 51  -21.0642 26062.3 -03445.4 -07.5307 26289.1
 05 06 2013  13 52  -21.0650 26062.2 -03445.1 -07.5300 26288.9
 05 06 2013  13 53  -21.0655 26061.8 -03444.6 -07.5292 26288.4
 05 06 2013  13 54  -21.0656 26061.3 -03444.2 -07.5285 26287.9
 05 06 2013  13 55  -21.0656 26060.9 -03443.9 -07.5280 26287.5
 05 06 2013  13 56  -21.0660 26060.9 -03443.9 -07.5280 26287.5
 05 06 2013  13 57  -21.0665 26061.1 -03444.0 -07.5280 26287.6
 05 06 2013  13 58  -21.0672 26061.7 -03444.2 -07.5282 26288.3
 05 06 2013  13 59  -21.0679 26062.0 -03444.1 -07.5281 26288.6
 05 06 2013  14 00  -21.0688 26061.8 -03443.9 -07.5276 26288.4
 05 06 2013  14 01  -21.0696 26061.5 -03443.6 -07.5271 26288.1
 05 06 2013  14 02  -21.0703 26061.1 -03443.3 -07.5265 26287.6
 05 06 2013  14 03  -21.0705 26060.5 -03442.9 -07.5258 26286.9
 05 06 2013  14 04  -21.0706 26059.5 -03442.5 -07.5252 26285.9
 05 06 2013  14 05  -21.0709 26058.8 -03442.2 -07.5249 26285.2
 05 06 2013  14 06  -21.0711 26058.1 -03442.0 -07.5246 26284.5
 05 06 2013  14 07  -21.0715 26057.6 -03441.9 -07.5246 26284.0
 05 06 2013  14 08  -21.0721 26057.4 -03441.9 -07.5246 26283.8
 05 06 2013  14 09  -21.0727 26057.2 -03441.9 -07.5246 26283.6
 05 06 2013  14 10  -21.0732 26057.1 -03441.9 -07.5246 26283.4
 05 06 2013  14 11  -21.0735 26056.8 -03441.8 -07.5245 26283.1
 05 06 2013  14 12  -21.0738 26056.7 -03441.8 -07.5245 26283.1
 05 06 2013  14 13  -21.0741 26056.7 -03441.8 -07.5245 26283.0
 05 06 2013  14 14  -21.0743 26056.5 -03441.7 -07.5244 26282.9
 05 06 2013  14 15  -21.0743 26056.7 -03441.8 -07.5245 26283.0
 05 06 2013  14 16  -21.0745 26056.8 -03441.8 -07.5246 26283.1
 05 06 2013  14 17  -21.0747 26056.9 -03441.9 -07.5246 26283.3
 05 06 2013  14 18  -21.0748 26057.0 -03441.8 -07.5245 26283.4
 05 06 2013  14 19  -21.0749 26057.0 -03441.8 -07.5244 26283.4
 05 06 2013  14 20  -21.0752 26057.4 -03441.8 -07.5244 26283.7
 05 06 2013  14 21  -21.0759 26057.7 -03441.8 -07.5243 26284.0
 05 06 2013  14 22  -21.0758 26058.0 -03441.8 -07.5241 26284.3
 05 06 2013  14 23  -21.0757 26057.7 -03441.5 -07.5237 26283.9
 05 06 2013  14 24  -21.0753 26057.9 -03441.6 -07.5237 26284.2
 05 06 2013  14 25  -21.0755 26057.5 -03441.4 -07.5235 26283.8
 05 06 2013  14 26  -21.0751 26057.3 -03441.3 -07.5234 26283.5
 05 06 2013  14 27  -21.0750 26057.2 -03441.3 -07.5233 26283.4
 05 06 2013  14 28  -21.0751 26057.2 -03441.3 -07.5233 26283.5
 05 06 2013  14 29  -21.0754 26057.3 -03441.3 -07.5233 26283.6
 05 06 2013  14 30  -21.0754 26056.7 -03441.0 -07.5229 26283.0
 05 06 2013  14 31  -21.0748 26055.2 -03440.4 -07.5220 26281.4
 05 06 2013  14 32  -21.0740 26054.3 -03440.2 -07.5218 26280.4
 05 06 2013  14 33  -21.0737 26054.1 -03440.5 -07.5224 26280.3
 05 06 2013  14 34  -21.0737 26054.3 -03440.8 -07.5231 26280.5
 05 06 2013  14 35  -21.0738 26054.8 -03441.3 -07.5239 26281.1
 05 06 2013  14 36  -21.0739 26055.4 -03441.6 -07.5244 26281.7
 05 06 2013  14 37  -21.0739 26055.8 -03441.8 -07.5247 26282.1
 05 06 2013  14 38  -21.0737 26056.0 -03441.9 -07.5249 26282.3
 05 06 2013  14 39  -21.0733 26055.7 -03441.8 -07.5249 26282.1
 05 06 2013  14 40  -21.0730 26055.2 -03441.7 -07.5248 26281.6
 05 06 2013  14 41  -21.0727 26054.7 -03441.7 -07.5249 26281.0
 05 06 2013  14 42  -21.0725 26054.2 -03441.7 -07.5250 26280.6
 05 06 2013  14 43  -21.0721 26053.8 -03441.7 -07.5251 26280.1
 05 06 2013  14 44  -21.0717 26053.4 -03441.7 -07.5253 26279.7
 05 06 2013  14 45  -21.0715 26053.0 -03441.8 -07.5255 26279.4
 05 06 2013  14 46  -21.0712 26052.7 -03441.8 -07.5258 26279.1
 05 06 2013  14 47  -21.0711 26052.9 -03442.1 -07.5262 26279.3
 05 06 2013  14 48  -21.0710 26053.0 -03442.3 -07.5267 26279.4
 05 06 2013  14 49  -21.0709 26053.1 -03442.4 -07.5270 26279.5
 05 06 2013  14 50  -21.0709 26053.1 -03442.5 -07.5272 26279.5
 05 06 2013  14 51  -21.0707 26053.0 -03442.6 -07.5273 26279.5
 05 06 2013  14 52  -21.0702 26052.8 -03442.6 -07.5273 26279.2
 05 06 2013  14 53  -21.0698 26052.5 -03442.6 -07.5274 26279.0
 05 06 2013  14 54  -21.0696 26052.3 -03442.6 -07.5275 26278.8
 05 06 2013  14 55  -21.0691 26052.1 -03442.7 -07.5277 26278.6
 05 06 2013  14 56  -21.0689 26052.1 -03442.8 -07.5280 26278.6
 05 06 2013  14 57  -21.0687 26052.1 -03442.9 -07.5283 26278.6
 05 06 2013  14 58  -21.0686 26052.3 -03443.1 -07.5286 26278.8
 05 06 2013  14 59  -21.0686 26052.3 -03443.1 -07.5286 26278.8
 05 06 2013  15 00  -21.0684 26052.1 -03443.1 -07.5286 26278.7
 05 06 2013  15 01  -21.0678 26051.7 -03442.9 -07.5284 26278.2
 05 06 2013  15 02  -21.0675 26051.4 -03442.9 -07.5285 26278.0
 05 06 2013  15 03  -21.0672 26051.2 -03443.0 -07.5286 26277.7
 05 06 2013  15 04  -21.0666 26051.1 -03443.0 -07.5288 26277.7
 05 06 2013  15 05  -21.0665 26051.3 -03443.2 -07.5292 26277.9
 05 06 2013  15 06  -21.0663 26051.5 -03443.4 -07.5296 26278.1
 05 06 2013  15 07  -21.0660 26051.6 -03443.6 -07.5299 26278.2
 05 06 2013  15 08  -21.0657 26051.6 -03443.6 -07.5300 26278.2
 05 06 2013  15 09  -21.0655 26051.7 -03443.7 -07.5302 26278.3
 05 06 2013  15 10  -21.0656 26051.8 -03443.8 -07.5303 26278.4
 05 06 2013  15 11  -21.0657 26051.5 -03443.8 -07.5303 26278.2
 05 06 2013  15 12  -21.0658 26051.2 -03443.7 -07.5302 26277.8
 05 06 2013  15 13  -21.0655 26050.8 -03443.6 -07.5301 26277.4
 05 06 2013  15 14  -21.0655 26050.6 -03443.6 -07.5301 26277.2
 05 06 2013  15 15  -21.0654 26050.5 -03443.6 -07.5303 26277.1
 05 06 2013  15 16  -21.0653 26050.4 -03443.7 -07.5304 26277.1
 05 06 2013  15 17  -21.0652 26050.3 -03443.7 -07.5306 26276.9
 05 06 2013  15 18  -21.0652 26050.2 -03443.8 -07.5308 26276.8
 05 06 2013  15 19  -21.0651 26050.2 -03443.9 -07.5310 26276.8
 05 06 2013  15 20  -21.0655 26050.6 -03444.2 -07.5316 26277.3
 05 06 2013  15 21  -21.0661 26051.1 -03444.4 -07.5319 26277.9
 05 06 2013  15 22  -21.0666 26051.5 -03444.5 -07.5319 26278.2
 05 06 2013  15 23  -21.0666 26051.0 -03444.2 -07.5314 26277.7
 05 06 2013  15 24  -21.0665 26050.5 -03443.8 -07.5308 26277.1
 05 06 2013  15 25  -21.0666 26050.1 -03443.7 -07.5305 26276.7
 05 06 2013  15 26  -21.0669 26050.2 -03443.7 -07.5306 26276.8
 05 06 2013  15 27  -21.0673 26050.1 -03443.7 -07.5306 26276.8
 05 06 2013  15 28  -21.0675 26049.8 -03443.6 -07.5305 26276.4
 05 06 2013  15 29  -21.0677 26049.2 -03443.4 -07.5301 26275.8
 05 06 2013  15 30  -21.0681 26048.7 -03443.2 -07.5299 26275.3
 05 06 2013  15 31  -21.0686 26048.3 -03443.1 -07.5297 26274.8
 05 06 2013  15 32  -21.0685 26047.7 -03442.9 -07.5294 26274.3
 05 06 2013  15 33  -21.0682 26047.3 -03442.7 -07.5292 26273.9
 05 06 2013  15 34  -21.0681 26047.3 -03442.9 -07.5295 26273.9
 05 06 2013  15 35  -21.0681 26047.6 -03443.0 -07.5298 26274.1
 05 06 2013  15 36  -21.0681 26047.8 -03443.1 -07.5300 26274.4
 05 06 2013  15 37  -21.0683 26048.1 -03443.2 -07.5300 26274.7
 05 06 2013  15 38  -21.0686 26048.2 -03443.1 -07.5298 26274.7
 05 06 2013  15 39  -21.0684 26047.8 -03442.8 -07.5292 26274.3
 05 06 2013  15 40  -21.0680 26047.2 -03442.5 -07.5288 26273.7
 05 06 2013  15 41  -21.0678 26046.8 -03442.3 -07.5284 26273.2
 05 06 2013  15 42  -21.0673 26046.4 -03442.2 -07.5283 26272.9
 05 06 2013  15 43  -21.0670 26046.3 -03442.2 -07.5284 26272.8
 05 06 2013  15 44  -21.0669 26046.2 -03442.2 -07.5285 26272.7
 05 06 2013  15 45  -21.0666 26046.3 -03442.3 -07.5286 26272.8
 05 06 2013  15 46  -21.0664 26046.6 -03442.5 -07.5290 26273.1
 05 06 2013  15 47  -21.0663 26047.0 -03442.7 -07.5293 26273.5
 05 06 2013  15 48  -21.0663 26047.4 -03442.9 -07.5295 26274.0
 05 06 2013  15 49  -21.0661 26047.6 -03442.9 -07.5296 26274.1
 05 06 2013  15 50  -21.0658 26047.6 -03442.9 -07.5296 26274.2
 05 06 2013  15 51  -21.0655 26047.6 -03442.9 -07.5296 26274.2
 05 06 2013  15 52  -21.0653 26047.6 -03442.9 -07.5296 26274.1
 05 06 2013  15 53  -21.0649 26047.4 -03442.9 -07.5295 26274.0
 05 06 2013  15 54  -21.0644 26047.1 -03442.8 -07.5295 26273.7
 05 06 2013  15 55  -21.0639 26046.7 -03442.7 -07.5295 26273.2
 05 06 2013  15 56  -21.0635 26046.3 -03442.7 -07.5296 26272.8
 05 06 2013  15 57  -21.0633 26045.8 -03442.7 -07.5296 26272.4
 05 06 2013  15 58  -21.0630 26045.5 -03442.7 -07.5297 26272.0
 05 06 2013  15 59  -21.0629 26045.2 -03442.8 -07.5300 26271.8
 05 06 2013  16 00  -21.0629 26045.1 -03443.0 -07.5304 26271.7
 05 06 2013  16 01  -21.0629 26045.1 -03443.2 -07.5309 26271.7
 05 06 2013  16 02  -21.0627 26045.0 -03443.4 -07.5313 26271.6
 05 06 2013  16 03  -21.0626 26045.0 -03443.6 -07.5318 26271.7
 05 06 2013  16 04  -21.0625 26045.1 -03443.9 -07.5324 26271.8
 05 06 2013  16 05  -21.0626 26045.3 -03444.2 -07.5330 26272.0
 05 06 2013  16 06  -21.0627 26045.5 -03444.5 -07.5336 26272.3
 05 06 2013  16 07  -21.0626 26045.6 -03444.7 -07.5340 26272.4
 05 06 2013  16 08  -21.0624 26045.6 -03444.9 -07.5344 26272.4
 05 06 2013  16 09  -21.0620 26045.3 -03445.0 -07.5346 26272.1
 05 06 2013  16 10  -21.0618 26044.8 -03445.0 -07.5348 26271.7
 05 06 2013  16 11  -21.0617 26044.6 -03445.1 -07.5351 26271.4
 05 06 2013  16 12  -21.0618 26044.5 -03445.3 -07.5356 26271.4
 05 06 2013  16 13  -21.0620 26044.5 -03445.5 -07.5359 26271.4
 05 06 2013  16 14  -21.0621 26044.5 -03445.6 -07.5362 26271.4
 05 06 2013  16 15  -21.0620 26044.2 -03445.6 -07.5363 26271.1
 05 06 2013  16 16  -21.0619 26043.8 -03445.6 -07.5365 26270.7
 05 06 2013  16 17  -21.0617 26043.4 -03445.7 -07.5368 26270.4
 05 06 2013  16 18  -21.0618 26043.2 -03445.8 -07.5371 26270.2
 05 06 2013  16 19  -21.0617 26043.0 -03446.0 -07.5375 26270.0
 05 06 2013  16 20  -21.0616 26043.0 -03446.2 -07.5380 26270.1
 05 06 2013  16 21  -21.0613 26043.2 -03446.5 -07.5385 26270.2
 05 06 2013  16 22  -21.0614 26043.4 -03446.8 -07.5391 26270.5
 05 06 2013  16 23  -21.0614 26043.8 -03447.1 -07.5397 26270.9
 05 06 2013  16 24  -21.0616 26043.9 -03447.2 -07.5399 26271.0
 05 06 2013  16 25  -21.0614 26043.7 -03447.2 -07.5399 26270.8
 05 06 2013  16 26  -21.0612 26043.3 -03447.0 -07.5397 26270.4
 05 06 2013  16 27  -21.0611 26043.0 -03446.9 -07.5395 26270.1
 05 06 2013  16 28  -21.0608 26042.7 -03446.9 -07.5396 26269.8
 05 06 2013  16 29  -21.0604 26042.4 -03446.9 -07.5397 26269.6
 05 06 2013  16 30  -21.0603 26042.5 -03447.1 -07.5400 26269.7
 05 06 2013  16 31  -21.0606 26042.9 -03447.4 -07.5405 26270.1
 05 06 2013  16 32  -21.0608 26043.3 -03447.6 -07.5409 26270.5
 05 06 2013  16 33  -21.0608 26043.5 -03447.7 -07.5411 26270.7
 05 06 2013  16 34  -21.0608 26043.4 -03447.7 -07.5411 26270.6
 05 06 2013  16 35  -21.0610 26043.0 -03447.5 -07.5408 26270.2
 05 06 2013  16 36  -21.0606 26042.5 -03447.3 -07.5405 26269.7
 05 06 2013  16 37  -21.0605 26042.2 -03447.2 -07.5404 26269.4
 05 06 2013  16 38  -21.0604 26041.8 -03447.2 -07.5405 26269.0
 05 06 2013  16 39  -21.0603 26041.5 -03447.2 -07.5406 26268.7
 05 06 2013  16 40  -21.0603 26041.3 -03447.3 -07.5408 26268.5
 05 06 2013  16 41  -21.0604 26041.1 -03447.3 -07.5410 26268.3
 05 06 2013  16 42  -21.0610 26041.3 -03447.5 -07.5414 26268.5
 05 06 2013  16 43  -21.0617 26041.5 -03447.7 -07.5417 26268.7
 05 06 2013  16 44  -21.0620 26041.6 -03447.8 -07.5419 26268.9
 05 06 2013  16 45  -21.0621 26041.5 -03447.8 -07.5419 26268.7
 05 06 2013  16 46  -21.0621 26041.3 -03447.8 -07.5420 26268.6
 05 06 2013  16 47  -21.0620 26041.2 -03447.9 -07.5421 26268.5
 05 06 2013  16 48  -21.0620 26041.0 -03447.9 -07.5423 26268.2
 05 06 2013  16 49  -21.0622 26040.9 -03448.0 -07.5425 26268.1
 05 06 2013  16 50  -21.0624 26040.6 -03448.0 -07.5425 26267.9
 05 06 2013  16 51  -21.0624 26040.3 -03447.9 -07.5423 26267.6
 05 06 2013  16 52  -21.0626 26040.1 -03447.8 -07.5424 26267.4
 05 06 2013  16 53  -21.0626 26039.9 -03447.8 -07.5423 26267.2
 05 06 2013  16 54  -21.0625 26039.7 -03447.8 -07.5423 26267.0
 05 06 2013  16 55  -21.0625 26039.5 -03447.7 -07.5423 26266.7
 05 06 2013  16 56  -21.0623 26039.4 -03447.8 -07.5424 26266.7
 05 06 2013  16 57  -21.0623 26039.3 -03447.8 -07.5425 26266.6
 05 06 2013  16 58  -21.0624 26039.6 -03448.0 -07.5428 26266.9
 05 06 2013  16 59  -21.0628 26039.9 -03448.2 -07.5432 26267.3
 05 06 2013  17 00  -21.0634 26040.2 -03448.3 -07.5434 26267.5
 05 06 2013  17 01  -21.0637 26040.4 -03448.3 -07.5432 26267.7
 05 06 2013  17 02  -21.0638 26040.3 -03448.1 -07.5429 26267.6
 05 06 2013  17 03  -21.0636 26040.0 -03447.9 -07.5425 26267.3
 05 06 2013  17 04  -21.0633 26039.8 -03447.7 -07.5422 26267.0
 05 06 2013  17 05  -21.0633 26039.5 -03447.5 -07.5419 26266.8
 05 06 2013  17 06  -21.0633 26039.2 -03447.3 -07.5415 26266.4
 05 06 2013  17 07  -21.0632 26038.8 -03447.1 -07.5411 26266.0
 05 06 2013  17 08  -21.0631 26038.4 -03446.8 -07.5406 26265.6
 05 06 2013  17 09  -21.0630 26038.2 -03446.7 -07.5403 26265.4
 05 06 2013  17 10  -21.0628 26037.8 -03446.4 -07.5398 26264.8
 05 06 2013  17 11  -21.0626 26037.6 -03446.2 -07.5395 26264.7
 05 06 2013  17 12  -21.0628 26037.6 -03446.1 -07.5394 26264.6
 05 06 2013  17 13  -21.0627 26037.6 -03446.0 -07.5392 26264.6
 05 06 2013  17 14  -21.0627 26037.7 -03446.0 -07.5391 26264.7
 05 06 2013  17 15  -21.0630 26038.0 -03446.1 -07.5392 26265.0
 05 06 2013  17 16  -21.0632 26038.1 -03446.0 -07.5391 26265.1
 05 06 2013  17 17  -21.0633 26038.1 -03446.0 -07.5389 26265.1
 05 06 2013  17 18  -21.0634 26037.9 -03445.8 -07.5385 26265.0
 05 06 2013  17 19  -21.0635 26037.7 -03445.6 -07.5382 26264.7
 05 06 2013  17 20  -21.0636 26037.7 -03445.5 -07.5379 26264.7
 05 06 2013  17 21  -21.0637 26037.7 -03445.3 -07.5376 26264.7
 05 06 2013  17 22  -21.0639 26038.0 -03445.3 -07.5375 26264.9
 05 06 2013  17 23  -21.0638 26038.2 -03445.3 -07.5373 26265.2
 05 06 2013  17 24  -21.0640 26038.1 -03445.1 -07.5370 26265.1
 05 06 2013  17 25  -21.0642 26037.9 -03444.9 -07.5367 26264.8
 05 06 2013  17 26  -21.0641 26037.5 -03444.7 -07.5363 26264.4
 05 06 2013  17 27  -21.0638 26037.2 -03444.5 -07.5359 26264.1
 05 06 2013  17 28  -21.0636 26036.7 -03444.3 -07.5356 26263.5
 05 06 2013  17 29  -21.0635 26036.5 -03444.2 -07.5356 26263.3
 05 06 2013  17 30  -21.0634 26036.5 -03444.3 -07.5357 26263.4
 05 06 2013  17 31  -21.0639 26037.0 -03444.6 -07.5362 26263.9
 05 06 2013  17 32  -21.0637 26037.1 -03444.6 -07.5362 26264.0
 05 06 2013  17 33  -21.0640 26036.8 -03444.5 -07.5360 26263.7
 05 06 2013  17 34  -21.0639 26036.3 -03444.1 -07.5354 26263.1
 05 06 2013  17 35  -21.0635 26035.9 -03443.9 -07.5351 26262.7
 05 06 2013  17 36  -21.0633 26035.6 -03443.9 -07.5351 26262.4
 05 06 2013  17 37  -21.0630 26035.3 -03443.8 -07.5350 26262.1
 05 06 2013  17 38  -21.0628 26034.9 -03443.7 -07.5349 26261.7
 05 06 2013  17 39  -21.0629 26034.9 -03443.8 -07.5352 26261.7
 05 06 2013  17 40  -21.0633 26034.9 -03443.9 -07.5352 26261.7
 05 06 2013  17 41  -21.0633 26034.7 -03443.7 -07.5350 26261.4
 05 06 2013  17 42  -21.0631 26034.2 -03443.5 -07.5347 26260.9
 05 06 2013  17 43  -21.0627 26033.9 -03443.4 -07.5346 26260.6
 05 06 2013  17 44  -21.0627 26033.8 -03443.5 -07.5348 26260.5
 05 06 2013  17 45  -21.0629 26033.8 -03443.5 -07.5349 26260.5
 05 06 2013  17 46  -21.0627 26033.8 -03443.6 -07.5349 26260.6
 05 06 2013  17 47  -21.0629 26033.7 -03443.5 -07.5349 26260.5
 05 06 2013  17 48  -21.0628 26033.3 -03443.3 -07.5344 26260.0
 05 06 2013  17 49  -21.0624 26033.0 -03443.1 -07.5341 26259.7
 05 06 2013  17 50  -21.0623 26033.2 -03443.2 -07.5342 26259.9
 05 06 2013  17 51  -21.0627 26033.7 -03443.3 -07.5344 26260.4
 05 06 2013  17 52  -21.0623 26033.7 -03443.2 -07.5342 26260.4
 05 06 2013  17 53  -21.0619 26033.6 -03443.1 -07.5340 26260.3
 05 06 2013  17 54  -21.0616 26033.2 -03442.9 -07.5337 26259.8
 05 06 2013  17 55  -21.0611 26032.7 -03442.7 -07.5334 26259.4
 05 06 2013  17 56  -21.0607 26032.4 -03442.6 -07.5333 26259.1
 05 06 2013  17 57  -21.0606 26032.4 -03442.7 -07.5334 26259.1
 05 06 2013  17 58  -21.0605 26032.3 -03442.7 -07.5334 26259.0
 05 06 2013  17 59  -21.0601 26032.2 -03442.6 -07.5333 26258.8
 05 06 2013  18 00  -21.0598 26031.9 -03442.5 -07.5332 26258.5
 05 06 2013  18 01  -21.0592 26031.6 -03442.5 -07.5332 26258.2
 05 06 2013  18 02  -21.0589 26031.3 -03442.4 -07.5331 26257.9
 05 06 2013  18 03  -21.0587 26030.8 -03442.3 -07.5330 26257.4
 05 06 2013  18 04  -21.0582 26030.2 -03442.1 -07.5328 26256.8
 05 06 2013  18 05  -21.0581 26030.1 -03442.2 -07.5329 26256.7
 05 06 2013  18 06  -21.0580 26030.3 -03442.3 -07.5333 26256.9
 05 06 2013  18 07  -21.0583 26030.8 -03442.6 -07.5337 26257.5
 05 06 2013  18 08  -21.0587 26031.3 -03442.7 -07.5339 26258.0
 05 06 2013  18 09  -21.0590 26032.0 -03442.9 -07.5340 26258.7
 05 06 2013  18 10  -21.0593 26032.5 -03443.0 -07.5341 26259.2
 05 06 2013  18 11  -21.0595 26032.4 -03442.8 -07.5336 26259.1
 05 06 2013  18 12  -21.0595 26032.0 -03442.4 -07.5329 26258.6
 05 06 2013  18 13  -21.0591 26031.7 -03442.0 -07.5321 26258.2
 05 06 2013  18 14  -21.0588 26031.3 -03441.7 -07.5316 26257.8
 05 06 2013  18 15  -21.0586 26031.1 -03441.5 -07.5312 26257.6
 05 06 2013  18 16  -21.0588 26031.0 -03441.4 -07.5311 26257.5
 05 06 2013  18 17  -21.0589 26031.0 -03441.4 -07.5310 26257.5
 05 06 2013  18 18  -21.0588 26030.9 -03441.3 -07.5309 26257.4
 05 06 2013  18 19  -21.0583 26031.0 -03441.4 -07.5310 26257.5
 05 06 2013  18 20  -21.0582 26031.3 -03441.6 -07.5313 26257.8
 05 06 2013  18 21  -21.0582 26031.2 -03441.6 -07.5313 26257.7
 05 06 2013  18 22  -21.0580 26031.0 -03441.5 -07.5313 26257.5
 05 06 2013  18 23  -21.0579 26030.9 -03441.5 -07.5312 26257.4
 05 06 2013  18 24  -21.0574 26030.5 -03441.3 -07.5310 26256.9
 05 06 2013  18 25  -21.0571 26030.1 -03441.2 -07.5309 26256.6
 05 06 2013  18 26  -21.0567 26029.6 -03441.1 -07.5307 26256.1
 05 06 2013  18 27  -21.0562 26029.3 -03441.0 -07.5306 26255.8
 05 06 2013  18 28  -21.0555 26028.7 -03440.8 -07.5303 26255.1
 05 06 2013  18 29  -21.0547 26028.2 -03440.7 -07.5303 26254.6
 05 06 2013  18 30  -21.0544 26028.0 -03440.8 -07.5305 26254.4
 05 06 2013  18 31  -21.0542 26028.3 -03441.0 -07.5309 26254.7
 05 06 2013  18 32  -21.0540 26028.2 -03441.0 -07.5310 26254.7
 05 06 2013  18 33  -21.0536 26028.1 -03441.0 -07.5309 26254.5
 05 06 2013  18 34  -21.0532 26027.9 -03440.9 -07.5309 26254.4
 05 06 2013  18 35  -21.0530 26027.8 -03440.9 -07.5310 26254.3
 05 06 2013  18 36  -21.0526 26027.7 -03440.9 -07.5309 26254.1
 05 06 2013  18 37  -21.0522 26027.5 -03440.8 -07.5308 26254.0
 05 06 2013  18 38  -21.0518 26027.3 -03440.7 -07.5306 26253.7
 05 06 2013  18 39  -21.0513 26027.0 -03440.6 -07.5305 26253.4
 05 06 2013  18 40  -21.0506 26026.8 -03440.6 -07.5304 26253.2
 05 06 2013  18 41  -21.0503 26026.6 -03440.5 -07.5304 26253.0
 05 06 2013  18 42  -21.0494 26026.4 -03440.4 -07.5302 26252.8
 05 06 2013  18 43  -21.0491 26026.5 -03440.5 -07.5303 26252.9
 05 06 2013  18 44  -21.0485 26026.5 -03440.5 -07.5303 26252.9
 05 06 2013  18 45  -21.0481 26026.3 -03440.4 -07.5302 26252.7
 05 06 2013  18 46  -21.0478 26026.2 -03440.3 -07.5301 26252.6
 05 06 2013  18 47  -21.0475 26026.2 -03440.3 -07.5301 26252.6
 05 06 2013  18 48  -21.0471 26026.2 -03440.3 -07.5299 26252.6
 05 06 2013  18 49  -21.0465 26025.8 -03440.0 -07.5296 26252.2
 05 06 2013  18 50  -21.0460 26025.8 -03440.0 -07.5295 26252.2
 05 06 2013  18 51  -21.0459 26026.1 -03440.1 -07.5297 26252.5
 05 06 2013  18 52  -21.0456 26026.0 -03440.0 -07.5295 26252.4
 05 06 2013  18 53  -21.0452 26025.9 -03439.9 -07.5293 26252.2
 05 06 2013  18 54  -21.0451 26025.5 -03439.7 -07.5290 26251.9
 05 06 2013  18 55  -21.0448 26025.3 -03439.6 -07.5287 26251.6
 05 06 2013  18 56  -21.0449 26025.5 -03439.7 -07.5290 26251.9
 05 06 2013  18 57  -21.0450 26025.7 -03439.8 -07.5290 26252.1
 05 06 2013  18 58  -21.0451 26026.2 -03439.9 -07.5292 26252.5
 05 06 2013  18 59  -21.0455 26026.6 -03440.0 -07.5293 26252.9
 05 06 2013  19 00  -21.0455 26026.5 -03439.8 -07.5289 26252.8
 05 06 2013  19 01  -21.0452 26026.2 -03439.6 -07.5285 26252.5
 05 06 2013  19 02  -21.0449 26025.8 -03439.4 -07.5282 26252.1
 05 06 2013  19 03  -21.0450 26025.6 -03439.3 -07.5280 26251.9
 05 06 2013  19 04  -21.0450 26025.3 -03439.2 -07.5278 26251.5
 05 06 2013  19 05  -21.0450 26025.0 -03439.0 -07.5276 26251.3
 05 06 2013  19 06  -21.0451 26025.2 -03439.1 -07.5277 26251.4
 05 06 2013  19 07  -21.0454 26025.5 -03439.1 -07.5277 26251.8
 05 06 2013  19 08  -21.0456 26025.7 -03439.1 -07.5276 26252.0
 05 06 2013  19 09  -21.0456 26025.7 -03439.1 -07.5275 26252.0
 05 06 2013  19 10  -21.0455 26025.6 -03438.9 -07.5272 26251.8
 05 06 2013  19 11  -21.0456 26025.5 -03438.8 -07.5271 26251.7
 05 06 2013  19 12  -21.0454 26025.3 -03438.7 -07.5268 26251.5
 05 06 2013  19 13  -21.0454 26025.0 -03438.5 -07.5265 26251.2
 05 06 2013  19 14  -21.0455 26024.7 -03438.4 -07.5262 26250.8
 05 06 2013  19 15  -21.0453 26024.1 -03438.0 -07.5257 26250.2
 05 06 2013  19 16  -21.0449 26023.4 -03437.7 -07.5252 26249.5
 05 06 2013  19 17  -21.0447 26023.1 -03437.6 -07.5251 26249.1
 05 06 2013  19 18  -21.0443 26022.9 -03437.6 -07.5252 26249.0
 05 06 2013  19 19  -21.0441 26023.0 -03437.8 -07.5255 26249.0
 05 06 2013  19 20  -21.0441 26023.0 -03437.9 -07.5258 26249.1
 05 06 2013  19 21  -21.0438 26022.7 -03437.9 -07.5258 26248.8
 05 06 2013  19 22  -21.0437 26022.5 -03437.9 -07.5258 26248.6
 05 06 2013  19 23  -21.0435 26022.5 -03438.0 -07.5260 26248.6
 05 06 2013  19 24  -21.0441 26022.9 -03438.3 -07.5266 26249.0
 05 06 2013  19 25  -21.0433 26022.5 -03438.2 -07.5265 26248.6
 05 06 2013  19 26  -21.0426 26022.3 -03438.3 -07.5267 26248.5
 05 06 2013  19 27  -21.0422 26022.4 -03438.5 -07.5271 26248.6
 05 06 2013  19 28  -21.0415 26022.2 -03438.5 -07.5273 26248.4
 05 06 2013  19 29  -21.0410 26021.8 -03438.4 -07.5273 26248.0
 05 06 2013  19 30  -21.0409 26021.7 -03438.5 -07.5274 26247.9
 05 06 2013  19 31  -21.0410 26022.0 -03438.8 -07.5279 26248.2
 05 06 2013  19 32  -21.0412 26022.7 -03439.2 -07.5285 26249.0
 05 06 2013  19 33  -21.0416 26023.2 -03439.4 -07.5290 26249.5
 05 06 2013  19 34  -21.0418 26023.2 -03439.4 -07.5289 26249.5
 05 06 2013  19 35  -21.0415 26022.9 -03439.2 -07.5286 26249.2
 05 06 2013  19 36  -21.0408 26022.4 -03438.9 -07.5282 26248.7
 05 06 2013  19 37  -21.0401 26022.0 -03438.8 -07.5281 26248.2
 05 06 2013  19 38  -21.0397 26022.2 -03439.1 -07.5285 26248.5
 05 06 2013  19 39  -21.0394 26022.3 -03439.3 -07.5289 26248.6
 05 06 2013  19 40  -21.0391 26022.3 -03439.4 -07.5293 26248.7
 05 06 2013  19 41  -21.0388 26022.3 -03439.5 -07.5295 26248.6
 05 06 2013  19 42  -21.0384 26022.0 -03439.5 -07.5295 26248.3
 05 06 2013  19 43  -21.0378 26021.3 -03439.4 -07.5294 26247.6
 05 06 2013  19 44  -21.0372 26020.7 -03439.2 -07.5293 26247.0
 05 06 2013  19 45  -21.0366 26020.2 -03439.2 -07.5294 26246.5
 05 06 2013  19 46  -21.0361 26019.8 -03439.4 -07.5298 26246.2
 05 06 2013  19 47  -21.0361 26019.9 -03439.7 -07.5305 26246.2
 05 06 2013  19 48  -21.0361 26019.9 -03439.9 -07.5309 26246.3
 05 06 2013  19 49  -21.0361 26019.9 -03440.1 -07.5313 26246.3
 05 06 2013  19 50  -21.0361 26019.9 -03440.2 -07.5317 26246.4
 05 06 2013  19 51  -21.0361 26019.9 -03440.4 -07.5321 26246.3
 05 06 2013  19 52  -21.0363 26020.0 -03440.6 -07.5324 26246.4
 05 06 2013  19 53  -21.0363 26019.9 -03440.7 -07.5327 26246.4
 05 06 2013  19 54  -21.0363 26019.9 -03440.9 -07.5331 26246.5
 05 06 2013  19 55  -21.0366 26020.2 -03441.1 -07.5336 26246.7
 05 06 2013  19 56  -21.0366 26020.3 -03441.3 -07.5340 26246.8
 05 06 2013  19 57  -21.0366 26020.4 -03441.6 -07.5344 26247.0
 05 06 2013  19 58  -21.0367 26020.6 -03441.8 -07.5349 26247.3
 05 06 2013  19 59  -21.0368 26020.8 -03442.0 -07.5352 26247.4
 05 06 2013  20 00  -21.0369 26020.5 -03442.0 -07.5352 26247.2
 05 06 2013  20 01  -21.0370 26020.2 -03441.9 -07.5353 26246.9
 05 06 2013  20 02  -21.0370 26020.0 -03442.0 -07.5355 26246.7
 05 06 2013  20 03  -21.0368 26019.7 -03442.0 -07.5356 26246.4
 05 06 2013  20 04  -21.0366 26019.6 -03442.1 -07.5358 26246.2
 05 06 2013  20 05  -21.0366 26019.6 -03442.4 -07.5364 26246.3
 05 06 2013  20 06  -21.0367 26019.6 -03442.6 -07.5368 26246.4
 05 06 2013  20 07  -21.0369 26019.7 -03442.8 -07.5372 26246.4
 05 06 2013  20 08  -21.0371 26019.9 -03443.0 -07.5377 26246.7
 05 06 2013  20 09  -21.0373 26020.1 -03443.2 -07.5381 26246.9
 05 06 2013  20 10  -21.0374 26020.0 -03443.3 -07.5383 26246.8
 05 06 2013  20 11  -21.0375 26019.7 -03443.4 -07.5385 26246.6
 05 06 2013  20 12  -21.0375 26019.4 -03443.3 -07.5386 26246.2
 05 06 2013  20 13  -21.0376 26019.2 -03443.4 -07.5388 26246.1
 05 06 2013  20 14  -21.0375 26019.2 -03443.6 -07.5392 26246.0
 05 06 2013  20 15  -21.0378 26019.1 -03443.7 -07.5395 26246.0
 05 06 2013  20 16  -21.0380 26019.1 -03443.9 -07.5398 26246.0
 05 06 2013  20 17  -21.0383 26019.1 -03443.9 -07.5399 26246.0
 05 06 2013  20 18  -21.0384 26019.0 -03444.1 -07.5403 26246.0
 05 06 2013  20 19  -21.0384 26018.8 -03444.1 -07.5404 26245.8
 05 06 2013  20 20  -21.0384 26018.6 -03444.1 -07.5405 26245.6
 05 06 2013  20 21  -21.0384 26018.5 -03444.2 -07.5407 26245.5
 05 06 2013  20 22  -21.0386 26018.5 -03444.3 -07.5410 26245.5
 05 06 2013  20 23  -21.0388 26018.5 -03444.5 -07.5413 26245.5
 05 06 2013  20 24  -21.0389 26018.6 -03444.6 -07.5416 26245.6
 05 06 2013  20 25  -21.0391 26018.4 -03444.7 -07.5417 26245.5
 05 06 2013  20 26  -21.0393 26018.2 -03444.7 -07.5418 26245.3
 05 06 2013  20 27  -21.0395 26018.2 -03444.8 -07.5420 26245.3
 05 06 2013  20 28  -21.0396 26018.2 -03444.8 -07.5421 26245.3
 05 06 2013  20 29  -21.0397 26018.4 -03444.9 -07.5423 26245.4
 05 06 2013  20 30  -21.0397 26018.4 -03445.1 -07.5425 26245.5
 05 06 2013  20 31  -21.0399 26018.4 -03445.1 -07.5427 26245.5
 05 06 2013  20 32  -21.0401 26018.4 -03445.2 -07.5428 26245.5
 05 06 2013  20 33  -21.0402 26018.7 -03445.3 -07.5431 26245.8
 05 06 2013  20 34  -21.0403 26018.8 -03445.4 -07.5432 26245.9
 05 06 2013  20 35  -21.0403 26018.7 -03445.4 -07.5432 26245.9
 05 06 2013  20 36  -21.0403 26018.7 -03445.3 -07.5431 26245.8
 05 06 2013  20 37  -21.0403 26018.8 -03445.4 -07.5431 26245.9
 05 06 2013  20 38  -21.0403 26018.9 -03445.4 -07.5432 26246.0
 05 06 2013  20 39  -21.0403 26018.8 -03445.4 -07.5431 26246.0
 05 06 2013  20 40  -21.0402 26018.9 -03445.4 -07.5432 26246.0
 05 06 2013  20 41  -21.0402 26018.8 -03445.4 -07.5432 26246.0
 05 06 2013  20 42  -21.0403 26018.8 -03445.4 -07.5432 26245.9
 05 06 2013  20 43  -21.0404 26018.7 -03445.4 -07.5432 26245.9
 05 06 2013  20 44  -21.0406 26018.7 -03445.4 -07.5432 26245.8
 05 06 2013  20 45  -21.0407 26018.6 -03445.4 -07.5433 26245.7
 05 06 2013  20 46  -21.0409 26018.6 -03445.5 -07.5434 26245.7
 05 06 2013  20 47  -21.0411 26018.5 -03445.4 -07.5433 26245.7
 05 06 2013  20 48  -21.0412 26018.4 -03445.4 -07.5432 26245.5
 05 06 2013  20 49  -21.0413 26018.1 -03445.3 -07.5431 26245.2
 05 06 2013  20 50  -21.0413 26017.9 -03445.2 -07.5431 26245.0
 05 06 2013  20 51  -21.0413 26017.9 -03445.3 -07.5432 26245.0
 05 06 2013  20 52  -21.0412 26017.9 -03445.3 -07.5433 26245.0
 05 06 2013  20 53  -21.0412 26018.0 -03445.4 -07.5434 26245.1
 05 06 2013  20 54  -21.0410 26018.1 -03445.5 -07.5437 26245.3
 05 06 2013  20 55  -21.0410 26018.1 -03445.6 -07.5439 26245.3
 05 06 2013  20 56  -21.0411 26018.2 -03445.7 -07.5440 26245.4
 05 06 2013  20 57  -21.0412 26018.2 -03445.7 -07.5441 26245.4
 05 06 2013  20 58  -21.0412 26018.2 -03445.8 -07.5441 26245.4
 05 06 2013  20 59  -21.0411 26018.2 -03445.8 -07.5442 26245.4
 05 06 2013  21 00  -21.0410 26018.2 -03445.8 -07.5442 26245.4
 05 06 2013  21 01  -21.0409 26018.2 -03445.8 -07.5443 26245.4
 05 06 2013  21 02  -21.0408 26018.4 -03446.0 -07.5445 26245.6
 05 06 2013  21 03  -21.0407 26018.6 -03446.0 -07.5446 26245.9
 05 06 2013  21 04  -21.0406 26018.7 -03446.1 -07.5447 26246.0
 05 06 2013  21 05  -21.0405 26018.8 -03446.1 -07.5447 26246.0
 05 06 2013  21 06  -21.0405 26018.8 -03446.1 -07.5446 26246.0
 05 06 2013  21 07  -21.0403 26018.8 -03446.1 -07.5447 26246.0
 05 06 2013  21 08  -21.0402 26018.8 -03446.1 -07.5447 26246.0
 05 06 2013  21 09  -21.0401 26018.7 -03446.0 -07.5444 26245.9
 05 06 2013  21 10  -21.0399 26018.5 -03445.9 -07.5444 26245.7
 05 06 2013  21 11  -21.0400 26018.3 -03445.8 -07.5443 26245.5
 05 06 2013  21 12  -21.0401 26018.3 -03445.9 -07.5443 26245.5
 05 06 2013  21 13  -21.0402 26018.5 -03445.9 -07.5443 26245.7
 05 06 2013  21 14  -21.0403 26018.6 -03446.0 -07.5446 26245.8
 05 06 2013  21 15  -21.0404 26018.7 -03446.2 -07.5449 26246.0
 05 06 2013  21 16  -21.0405 26018.8 -03446.2 -07.5448 26246.0
 05 06 2013  21 17  -21.0407 26019.0 -03446.3 -07.5450 26246.2
 05 06 2013  21 18  -21.0408 26019.2 -03446.3 -07.5451 26246.5
 05 06 2013  21 19  -21.0407 26019.5 -03446.4 -07.5452 26246.8
 05 06 2013  21 20  -21.0406 26019.7 -03446.4 -07.5452 26246.9
 05 06 2013  21 21  -21.0403 26019.8 -03446.4 -07.5451 26247.0
 05 06 2013  21 22  -21.0402 26019.8 -03446.4 -07.5451 26247.1
 05 06 2013  21 23  -21.0400 26019.9 -03446.4 -07.5450 26247.2
 05 06 2013  21 24  -21.0398 26019.9 -03446.3 -07.5448 26247.1
 05 06 2013  21 25  -21.0399 26019.8 -03446.2 -07.5446 26247.0
 05 06 2013  21 26  -21.0401 26019.7 -03446.3 -07.5448 26247.0
 05 06 2013  21 27  -21.0404 26019.7 -03446.3 -07.5448 26246.9
 05 06 2013  21 28  -21.0406 26019.6 -03446.3 -07.5448 26246.8
 05 06 2013  21 29  -21.0410 26019.4 -03446.2 -07.5447 26246.6
 05 06 2013  21 30  -21.0415 26019.4 -03446.2 -07.5447 26246.7
 05 06 2013  21 31  -21.0418 26019.5 -03446.2 -07.5447 26246.7
 05 06 2013  21 32  -21.0421 26019.4 -03446.2 -07.5447 26246.6
 05 06 2013  21 33  -21.0423 26019.2 -03446.1 -07.5445 26246.4
 05 06 2013  21 34  -21.0425 26019.1 -03446.0 -07.5444 26246.3
 05 06 2013  21 35  -21.0425 26019.0 -03445.9 -07.5443 26246.2
 05 06 2013  21 36  -21.0425 26019.0 -03445.9 -07.5442 26246.2
 05 06 2013  21 37  -21.0425 26019.0 -03445.9 -07.5442 26246.2
 05 06 2013  21 38  -21.0427 26019.0 -03445.9 -07.5443 26246.2
 05 06 2013  21 39  -21.0429 26019.1 -03446.0 -07.5443 26246.3
 05 06 2013  21 40  -21.0434 26019.2 -03446.0 -07.5444 26246.4
 05 06 2013  21 41  -21.0437 26019.3 -03446.1 -07.5445 26246.5
 05 06 2013  21 42  -21.0438 26019.4 -03446.1 -07.5445 26246.6
 05 06 2013  21 43  -21.0438 26019.5 -03446.1 -07.5444 26246.7
 05 06 2013  21 44  -21.0439 26019.4 -03446.0 -07.5443 26246.6
 05 06 2013  21 45  -21.0440 26019.5 -03446.0 -07.5444 26246.7
 05 06 2013  21 46  -21.0438 26019.5 -03446.0 -07.5443 26246.7
 05 06 2013  21 47  -21.0435 26019.6 -03446.0 -07.5442 26246.8
 05 06 2013  21 48  -21.0434 26019.6 -03446.0 -07.5442 26246.8
 05 06 2013  21 49  -21.0437 26019.6 -03446.0 -07.5442 26246.8
 05 06 2013  21 50  -21.0437 26019.5 -03445.9 -07.5441 26246.7
 05 06 2013  21 51  -21.0439 26019.5 -03445.9 -07.5440 26246.6
 05 06 2013  21 52  -21.0441 26019.4 -03445.8 -07.5439 26246.5
 05 06 2013  21 53  -21.0444 26019.3 -03445.8 -07.5439 26246.5
 05 06 2013  21 54  -21.0445 26019.2 -03445.7 -07.5438 26246.3
 05 06 2013  21 55  -21.0443 26019.2 -03445.7 -07.5437 26246.4
 05 06 2013  21 56  -21.0441 26019.4 -03445.7 -07.5437 26246.5
 05 06 2013  21 57  -21.0438 26019.5 -03445.8 -07.5437 26246.7
 05 06 2013  21 58  -21.0435 26019.9 -03445.9 -07.5439 26247.0
 05 06 2013  21 59  -21.0432 26020.0 -03445.9 -07.5439 26247.1
 05 06 2013  22 00  -21.0429 26020.0 -03445.9 -07.5439 26247.1
 05 06 2013  22 01  -21.0425 26019.8 -03445.8 -07.5437 26247.0
 05 06 2013  22 02  -21.0420 26019.6 -03445.7 -07.5435 26246.8
 05 06 2013  22 03  -21.0416 26019.4 -03445.5 -07.5433 26246.5
 05 06 2013  22 04  -21.0412 26019.3 -03445.5 -07.5432 26246.4
 05 06 2013  22 05  -21.0411 26019.1 -03445.5 -07.5432 26246.3
 05 06 2013  22 06  -21.0412 26019.0 -03445.5 -07.5433 26246.1
 05 06 2013  22 07  -21.0411 26018.8 -03445.4 -07.5432 26245.9
 05 06 2013  22 08  -21.0410 26018.6 -03445.4 -07.5432 26245.7
 05 06 2013  22 09  -21.0408 26018.3 -03445.3 -07.5431 26245.5
 05 06 2013  22 10  -21.0408 26018.3 -03445.3 -07.5431 26245.4
 05 06 2013  22 11  -21.0409 26018.2 -03445.3 -07.5432 26245.3
 05 06 2013  22 12  -21.0410 26018.1 -03445.3 -07.5432 26245.2
 05 06 2013  22 13  -21.0410 26018.0 -03445.4 -07.5433 26245.2
 05 06 2013  22 14  -21.0412 26018.0 -03445.4 -07.5434 26245.1
 05 06 2013  22 15  -21.0412 26018.1 -03445.5 -07.5436 26245.2
 05 06 2013  22 16  -21.0414 26018.0 -03445.5 -07.5436 26245.2
 05 06 2013  22 17  -21.0416 26018.0 -03445.5 -07.5436 26245.2
 05 06 2013  22 18  -21.0419 26017.8 -03445.5 -07.5436 26245.0
 05 06 2013  22 19  -21.0419 26017.7 -03445.4 -07.5436 26244.9
 05 06 2013  22 20  -21.0422 26017.7 -03445.4 -07.5436 26244.8
 05 06 2013  22 21  -21.0424 26017.7 -03445.5 -07.5437 26244.8
 05 06 2013  22 22  -21.0425 26017.7 -03445.5 -07.5437 26244.9
 05 06 2013  22 23  -21.0426 26017.9 -03445.6 -07.5439 26245.0
 05 06 2013  22 24  -21.0428 26017.9 -03445.7 -07.5440 26245.1
 05 06 2013  22 25  -21.0429 26018.1 -03445.7 -07.5441 26245.3
 05 06 2013  22 26  -21.0429 26018.3 -03445.8 -07.5442 26245.5
 05 06 2013  22 27  -21.0426 26018.4 -03445.8 -07.5442 26245.6
 05 06 2013  22 28  -21.0425 26018.3 -03445.8 -07.5442 26245.4
 05 06 2013  22 29  -21.0424 26018.1 -03445.7 -07.5441 26245.3
 05 06 2013  22 30  -21.0422 26018.0 -03445.7 -07.5440 26245.1
 05 06 2013  22 31  -21.0419 26017.8 -03445.6 -07.5439 26245.0
 05 06 2013  22 32  -21.0417 26017.7 -03445.6 -07.5440 26244.9
 05 06 2013  22 33  -21.0417 26017.6 -03445.6 -07.5440 26244.8
 05 06 2013  22 34  -21.0422 26017.6 -03445.7 -07.5442 26244.8
 05 06 2013  22 35  -21.0425 26017.8 -03445.8 -07.5444 26245.0
 05 06 2013  22 36  -21.0426 26017.9 -03445.9 -07.5446 26245.1
 05 06 2013  22 37  -21.0426 26017.9 -03445.9 -07.5446 26245.1
 05 06 2013  22 38  -21.0426 26017.7 -03445.9 -07.5446 26244.9
 05 06 2013  22 39  -21.0425 26017.7 -03445.9 -07.5446 26244.9
 05 06 2013  22 40  -21.0424 26017.6 -03445.9 -07.5447 26244.8
 05 06 2013  22 41  -21.0422 26017.5 -03445.9 -07.5447 26244.7
 05 06 2013  22 42  -21.0420 26017.3 -03445.9 -07.5446 26244.5
 05 06 2013  22 43  -21.0419 26017.0 -03445.7 -07.5444 26244.2
 05 06 2013  22 44  -21.0420 26016.7 -03445.6 -07.5443 26243.9
 05 06 2013  22 45  -21.0422 26016.5 -03445.6 -07.5443 26243.7
 05 06 2013  22 46  -21.0423 26016.5 -03445.7 -07.5445 26243.7
 05 06 2013  22 47  -21.0423 26016.7 -03445.8 -07.5447 26243.9
 05 06 2013  22 48  -21.0422 26017.0 -03446.0 -07.5450 26244.3
 05 06 2013  22 49  -21.0421 26017.4 -03446.3 -07.5455 26244.6
 05 06 2013  22 50  -21.0421 26017.7 -03446.5 -07.5458 26245.0
 05 06 2013  22 51  -21.0422 26017.9 -03446.6 -07.5460 26245.2
 05 06 2013  22 52  -21.0423 26018.0 -03446.7 -07.5462 26245.3
 05 06 2013  22 53  -21.0423 26018.0 -03446.7 -07.5462 26245.3
 05 06 2013  22 54  -21.0422 26017.9 -03446.6 -07.5461 26245.2
 05 06 2013  22 55  -21.0423 26017.7 -03446.5 -07.5460 26244.9
 05 06 2013  22 56  -21.0425 26017.5 -03446.5 -07.5459 26244.8
 05 06 2013  22 57  -21.0426 26017.4 -03446.5 -07.5459 26244.7
 05 06 2013  22 58  -21.0424 26017.3 -03446.4 -07.5458 26244.6
 05 06 2013  22 59  -21.0422 26017.3 -03446.4 -07.5457 26244.6
 05 06 2013  23 00  -21.0422 26017.4 -03446.5 -07.5459 26244.7
 05 06 2013  23 01  -21.0421 26017.6 -03446.6 -07.5461 26244.9
 05 06 2013  23 02  -21.0420 26017.7 -03446.7 -07.5462 26245.0
 05 06 2013  23 03  -21.0421 26017.8 -03446.7 -07.5463 26245.1
 05 06 2013  23 04  -21.0421 26017.8 -03446.7 -07.5464 26245.1
 05 06 2013  23 05  -21.0421 26017.7 -03446.7 -07.5463 26245.0
 05 06 2013  23 06  -21.0423 26017.7 -03446.7 -07.5463 26245.0
 05 06 2013  23 07  -21.0426 26017.8 -03446.8 -07.5465 26245.1
 05 06 2013  23 08  -21.0429 26018.0 -03446.9 -07.5466 26245.3
 05 06 2013  23 09  -21.0430 26018.1 -03446.9 -07.5467 26245.4
 05 06 2013  23 10  -21.0432 26018.1 -03447.0 -07.5467 26245.5
 05 06 2013  23 11  -21.0434 26018.2 -03447.0 -07.5468 26245.5
 05 06 2013  23 12  -21.0434 26018.3 -03447.0 -07.5468 26245.6
 05 06 2013  23 13  -21.0434 26018.2 -03446.9 -07.5467 26245.6
 05 06 2013  23 14  -21.0433 26018.1 -03446.9 -07.5466 26245.5
 05 06 2013  23 15  -21.0431 26018.1 -03446.9 -07.5465 26245.5
 05 06 2013  23 16  -21.0432 26018.0 -03446.8 -07.5465 26245.3
 05 06 2013  23 17  -21.0432 26018.0 -03446.8 -07.5465 26245.4
 05 06 2013  23 18  -21.0431 26018.0 -03446.8 -07.5465 26245.3
 05 06 2013  23 19  -21.0430 26017.8 -03446.7 -07.5463 26245.1
 05 06 2013  23 20  -21.0430 26017.7 -03446.6 -07.5462 26245.0
 05 06 2013  23 21  -21.0431 26017.6 -03446.6 -07.5462 26244.9
 05 06 2013  23 22  -21.0433 26017.6 -03446.7 -07.5462 26244.9
 05 06 2013  23 23  -21.0434 26017.6 -03446.7 -07.5462 26244.9
 05 06 2013  23 24  -21.0434 26017.7 -03446.7 -07.5463 26245.0
 05 06 2013  23 25  -21.0436 26017.7 -03446.7 -07.5463 26245.0
 05 06 2013  23 26  -21.0438 26017.7 -03446.7 -07.5463 26245.0
 05 06 2013  23 27  -21.0441 26017.7 -03446.7 -07.5463 26245.0
 05 06 2013  23 28  -21.0443 26017.7 -03446.7 -07.5464 26245.0
 05 06 2013  23 29  -21.0445 26017.7 -03446.7 -07.5463 26245.0
 05 06 2013  23 30  -21.0447 26017.7 -03446.7 -07.5463 26245.0
 05 06 2013  23 31  -21.0447 26017.7 -03446.6 -07.5462 26245.0
 05 06 2013  23 32  -21.0448 26017.6 -03446.6 -07.5462 26244.9
 05 06 2013  23 33  -21.0449 26017.6 -03446.6 -07.5461 26244.9
 05 06 2013  23 34  -21.0451 26017.7 -03446.7 -07.5462 26245.0
 05 06 2013  23 35  -21.0454 26017.8 -03446.8 -07.5464 26245.2
 05 06 2013  23 36  -21.0455 26018.0 -03446.8 -07.5465 26245.3
 05 06 2013  23 37  -21.0456 26018.0 -03446.8 -07.5465 26245.3
 05 06 2013  23 38  -21.0456 26018.0 -03446.8 -07.5465 26245.3
 05 06 2013  23 39  -21.0458 26018.1 -03446.8 -07.5464 26245.4
 05 06 2013  23 40  -21.0458 26018.1 -03446.8 -07.5464 26245.4
 05 06 2013  23 41  -21.0458 26018.2 -03446.8 -07.5465 26245.5
 05 06 2013  23 42  -21.0459 26018.2 -03446.9 -07.5466 26245.6
 05 06 2013  23 43  -21.0461 26018.4 -03446.9 -07.5466 26245.7
 05 06 2013  23 44  -21.0464 26018.5 -03447.0 -07.5467 26245.9
 05 06 2013  23 45  -21.0466 26018.6 -03447.0 -07.5468 26245.9
 05 06 2013  23 46  -21.0467 26018.7 -03447.1 -07.5468 26246.0
 05 06 2013  23 47  -21.0466 26018.6 -03447.0 -07.5467 26246.0
 05 06 2013  23 48  -21.0466 26018.6 -03447.0 -07.5466 26245.9
 05 06 2013  23 49  -21.0466 26018.6 -03446.9 -07.5466 26246.0
 05 06 2013  23 50  -21.0466 26018.7 -03446.9 -07.5466 26246.0
 05 06 2013  23 51  -21.0466 26018.7 -03447.0 -07.5466 26246.1
 05 06 2013  23 52  -21.0464 26018.8 -03447.0 -07.5467 26246.2
 05 06 2013  23 53  -21.0461 26018.8 -03447.0 -07.5467 26246.2
 05 06 2013  23 54  -21.0460 26018.8 -03447.0 -07.5466 26246.1
 05 06 2013  23 55  -21.0461 26018.8 -03447.0 -07.5466 26246.2
 05 06 2013  23 56  -21.0461 26018.9 -03447.1 -07.5467 26246.3
 05 06 2013  23 57  -21.0462 26018.9 -03447.0 -07.5467 26246.2
 05 06 2013  23 58  -21.0462 26018.7 -03447.0 -07.5466 26246.1
