SAO LUIS EMBRACE-03 <091> 1 Min. Reported data

 DD MM YYYY  HH MM   D(Deg)  H(nT)   Z(nT)   I(Deg)   F(nT)

 01 04 2013  00 00  -21.0545 26029.0 -03424.0 -07.4940 26253.2
 01 04 2013  00 01  -21.0285 26033.7 -03406.8 -07.4554 26255.7
 01 04 2013  00 02  -21.0541 26029.1 -03424.0 -07.4940 26253.4
 01 04 2013  00 03  -21.0541 26029.2 -03424.1 -07.4941 26253.4
 01 04 2013  00 04  -21.0541 26029.2 -03424.1 -07.4942 26253.5
 01 04 2013  00 05  -21.0543 26029.2 -03424.1 -07.4942 26253.4
 01 04 2013  00 06  -21.0544 26029.1 -03424.1 -07.4941 26253.4
 01 04 2013  00 07  -21.0544 26029.0 -03424.1 -07.4941 26253.3
 01 04 2013  00 08  -21.0541 26029.0 -03424.0 -07.4940 26253.2
 01 04 2013  00 09  -21.0537 26028.9 -03423.9 -07.4938 26253.1
 01 04 2013  00 10  -21.0537 26028.9 -03423.9 -07.4938 26253.1
 01 04 2013  00 11  -21.0538 26028.9 -03423.9 -07.4938 26253.1
 01 04 2013  00 12  -21.0538 26028.9 -03424.0 -07.4940 26253.2
 01 04 2013  00 13  -21.0540 26029.0 -03424.1 -07.4941 26253.3
 01 04 2013  00 14  -21.0541 26029.0 -03424.0 -07.4940 26253.2
 01 04 2013  00 15  -21.0541 26028.9 -03424.0 -07.4940 26253.1
 01 04 2013  00 16  -21.0542 26028.8 -03423.9 -07.4939 26253.0
 01 04 2013  00 17  -21.0543 26028.8 -03423.9 -07.4939 26253.0
 01 04 2013  00 18  -21.0544 26028.7 -03423.9 -07.4938 26252.9
 01 04 2013  00 19  -21.0544 26028.7 -03423.9 -07.4938 26252.9
 01 04 2013  00 20  -21.0544 26028.5 -03423.8 -07.4937 26252.7
 01 04 2013  00 21  -21.0544 26028.3 -03423.7 -07.4935 26252.5
 01 04 2013  00 22  -21.0545 26028.3 -03423.7 -07.4935 26252.5
 01 04 2013  00 23  -21.0545 26028.2 -03423.6 -07.4934 26252.4
 01 04 2013  00 24  -21.0545 26028.1 -03423.6 -07.4934 26252.3
 01 04 2013  00 25  -21.0546 26028.0 -03423.6 -07.4934 26252.2
 01 04 2013  00 26  -21.0547 26027.9 -03423.6 -07.4934 26252.1
 01 04 2013  00 27  -21.0547 26027.9 -03423.6 -07.4933 26252.1
 01 04 2013  00 28  -21.0546 26027.9 -03423.6 -07.4933 26252.0
 01 04 2013  00 29  -21.0546 26027.8 -03423.6 -07.4934 26252.0
 01 04 2013  00 30  -21.0546 26027.9 -03423.6 -07.4935 26252.1
 01 04 2013  00 31  -21.0547 26028.0 -03423.7 -07.4935 26252.2
 01 04 2013  00 32  -21.0546 26028.0 -03423.7 -07.4936 26252.2
 01 04 2013  00 33  -21.0547 26028.0 -03423.7 -07.4937 26252.3
 01 04 2013  00 34  -21.0547 26028.1 -03423.8 -07.4937 26252.3
 01 04 2013  00 35  -21.0547 26028.1 -03423.8 -07.4937 26252.3
 01 04 2013  00 36  -21.0548 26028.1 -03423.8 -07.4937 26252.3
 01 04 2013  00 37  -21.0547 26028.0 -03423.8 -07.4937 26252.3
 01 04 2013  00 38  -21.0544 26028.0 -03423.7 -07.4936 26252.2
 01 04 2013  00 39  -21.0543 26027.9 -03423.6 -07.4935 26252.1
 01 04 2013  00 40  -21.0543 26027.9 -03423.7 -07.4936 26252.1
 01 04 2013  00 41  -21.0542 26027.8 -03423.7 -07.4936 26252.0
 01 04 2013  00 42  -21.0541 26027.7 -03423.6 -07.4935 26251.9
 01 04 2013  00 43  -21.0539 26027.7 -03423.6 -07.4935 26251.9
 01 04 2013  00 44  -21.0539 26027.7 -03423.6 -07.4935 26251.9
 01 04 2013  00 45  -21.0539 26027.6 -03423.7 -07.4936 26251.9
 01 04 2013  00 46  -21.0541 26027.7 -03423.7 -07.4937 26251.9
 01 04 2013  00 47  -21.0542 26027.7 -03423.7 -07.4938 26251.9
 01 04 2013  00 48  -21.0543 26027.7 -03423.8 -07.4938 26251.9
 01 04 2013  00 49  -21.0546 26027.7 -03423.8 -07.4939 26251.9
 01 04 2013  00 50  -21.0549 26027.7 -03423.8 -07.4939 26251.9
 01 04 2013  00 51  -21.0552 26027.7 -03423.8 -07.4939 26251.9
 01 04 2013  00 52  -21.0554 26027.7 -03423.8 -07.4939 26251.9
 01 04 2013  00 53  -21.0554 26027.6 -03423.8 -07.4939 26251.9
 01 04 2013  00 54  -21.0553 26027.5 -03423.7 -07.4938 26251.7
 01 04 2013  00 55  -21.0551 26027.5 -03423.7 -07.4937 26251.7
 01 04 2013  00 56  -21.0551 26027.4 -03423.7 -07.4937 26251.6
 01 04 2013  00 57  -21.0549 26027.3 -03423.6 -07.4936 26251.5
 01 04 2013  00 58  -21.0547 26027.3 -03423.6 -07.4936 26251.5
 01 04 2013  00 59  -21.0546 26027.2 -03423.6 -07.4936 26251.4
 01 04 2013  01 00  -21.0545 26027.2 -03423.6 -07.4937 26251.4
 01 04 2013  01 01  -21.0544 26027.2 -03423.7 -07.4937 26251.4
 01 04 2013  01 02  -21.0542 26027.3 -03423.7 -07.4939 26251.5
 01 04 2013  01 03  -21.0542 26027.4 -03423.9 -07.4941 26251.6
 01 04 2013  01 04  -21.0542 26027.6 -03423.9 -07.4942 26251.8
 01 04 2013  01 05  -21.0544 26027.8 -03424.1 -07.4944 26252.0
 01 04 2013  01 06  -21.0546 26028.0 -03424.2 -07.4946 26252.3
 01 04 2013  01 07  -21.0548 26028.0 -03424.2 -07.4947 26252.3
 01 04 2013  01 08  -21.0551 26027.9 -03424.1 -07.4946 26252.1
 01 04 2013  01 09  -21.0554 26027.7 -03424.0 -07.4944 26251.9
 01 04 2013  01 10  -21.0557 26027.5 -03423.9 -07.4942 26251.7
 01 04 2013  01 11  -21.0558 26027.4 -03423.9 -07.4942 26251.7
 01 04 2013  01 12  -21.0561 26027.3 -03423.8 -07.4941 26251.6
 01 04 2013  01 13  -21.0562 26027.1 -03423.7 -07.4939 26251.3
 01 04 2013  01 14  -21.0565 26026.9 -03423.6 -07.4937 26251.1
 01 04 2013  01 15  -21.0567 26026.6 -03423.5 -07.4936 26250.8
 01 04 2013  01 16  -21.0567 26026.6 -03423.5 -07.4935 26250.8
 01 04 2013  01 17  -21.0569 26026.5 -03423.5 -07.4936 26250.7
 01 04 2013  01 18  -21.0572 26026.6 -03423.5 -07.4936 26250.8
 01 04 2013  01 19  -21.0574 26026.6 -03423.5 -07.4937 26250.8
 01 04 2013  01 20  -21.0577 26026.5 -03423.5 -07.4937 26250.8
 01 04 2013  01 21  -21.0578 26026.6 -03423.6 -07.4937 26250.8
 01 04 2013  01 22  -21.0577 26026.6 -03423.6 -07.4937 26250.8
 01 04 2013  01 23  -21.0576 26026.7 -03423.6 -07.4937 26250.9
 01 04 2013  01 24  -21.0575 26026.6 -03423.6 -07.4937 26250.8
 01 04 2013  01 25  -21.0571 26026.5 -03423.5 -07.4936 26250.7
 01 04 2013  01 26  -21.0569 26026.4 -03423.5 -07.4936 26250.6
 01 04 2013  01 27  -21.0570 26026.2 -03423.4 -07.4935 26250.4
 01 04 2013  01 28  -21.0569 26026.2 -03423.4 -07.4935 26250.4
 01 04 2013  01 29  -21.0569 26026.1 -03423.4 -07.4935 26250.3
 01 04 2013  01 30  -21.0568 26026.1 -03423.4 -07.4935 26250.3
 01 04 2013  01 31  -21.0569 26026.1 -03423.5 -07.4937 26250.3
 01 04 2013  01 32  -21.0571 26026.2 -03423.6 -07.4938 26250.4
 01 04 2013  01 33  -21.0572 26026.3 -03423.7 -07.4940 26250.6
 01 04 2013  01 34  -21.0574 26026.6 -03423.8 -07.4942 26250.8
 01 04 2013  01 35  -21.0575 26026.6 -03423.9 -07.4943 26250.8
 01 04 2013  01 36  -21.0577 26026.5 -03423.8 -07.4943 26250.7
 01 04 2013  01 37  -21.0574 26026.4 -03423.7 -07.4941 26250.6
 01 04 2013  01 38  -21.0572 26026.3 -03423.7 -07.4940 26250.6
 01 04 2013  01 39  -21.0575 26026.3 -03423.6 -07.4939 26250.5
 01 04 2013  01 40  -21.0580 26026.1 -03423.6 -07.4939 26250.3
 01 04 2013  01 41  -21.0584 26025.7 -03423.4 -07.4936 26249.9
 01 04 2013  01 42  -21.0585 26025.5 -03423.3 -07.4934 26249.7
 01 04 2013  01 43  -21.0587 26025.4 -03423.2 -07.4932 26249.6
 01 04 2013  01 44  -21.0588 26025.4 -03423.2 -07.4932 26249.5
 01 04 2013  01 45  -21.0587 26025.2 -03423.1 -07.4931 26249.4
 01 04 2013  01 46  -21.0585 26025.0 -03423.0 -07.4929 26249.1
 01 04 2013  01 47  -21.0583 26024.8 -03422.9 -07.4929 26249.0
 01 04 2013  01 48  -21.0580 26024.9 -03423.0 -07.4929 26249.1
 01 04 2013  01 49  -21.0580 26025.0 -03423.1 -07.4932 26249.2
 01 04 2013  01 50  -21.0580 26025.0 -03423.2 -07.4933 26249.2
 01 04 2013  01 51  -21.0580 26025.1 -03423.2 -07.4934 26249.2
 01 04 2013  01 52  -21.0580 26025.1 -03423.2 -07.4934 26249.2
 01 04 2013  01 53  -21.0579 26025.1 -03423.2 -07.4934 26249.2
 01 04 2013  01 54  -21.0579 26025.1 -03423.3 -07.4936 26249.3
 01 04 2013  01 55  -21.0581 26025.1 -03423.3 -07.4936 26249.3
 01 04 2013  01 56  -21.0583 26025.2 -03423.4 -07.4937 26249.4
 01 04 2013  01 57  -21.0585 26025.2 -03423.4 -07.4937 26249.4
 01 04 2013  01 58  -21.0586 26025.1 -03423.3 -07.4937 26249.3
 01 04 2013  01 59  -21.0581 26025.1 -03423.3 -07.4936 26249.3
 01 04 2013  02 00  -21.0577 26025.0 -03423.2 -07.4935 26249.1
 01 04 2013  02 01  -21.0575 26024.9 -03423.2 -07.4934 26249.0
 01 04 2013  02 02  -21.0574 26024.8 -03423.2 -07.4934 26249.0
 01 04 2013  02 03  -21.0573 26024.7 -03423.2 -07.4934 26248.9
 01 04 2013  02 04  -21.0568 26024.7 -03423.1 -07.4933 26248.8
 01 04 2013  02 05  -21.0563 26024.7 -03423.1 -07.4933 26248.9
 01 04 2013  02 06  -21.0562 26024.7 -03423.2 -07.4934 26248.9
 01 04 2013  02 07  -21.0563 26024.6 -03423.2 -07.4935 26248.8
 01 04 2013  02 08  -21.0567 26024.6 -03423.2 -07.4935 26248.7
 01 04 2013  02 09  -21.0571 26024.4 -03423.1 -07.4934 26248.6
 01 04 2013  02 10  -21.0573 26024.2 -03423.1 -07.4933 26248.4
 01 04 2013  02 11  -21.0571 26024.0 -03422.9 -07.4931 26248.1
 01 04 2013  02 12  -21.0569 26023.7 -03422.8 -07.4928 26247.9
 01 04 2013  02 13  -21.0569 26023.5 -03422.7 -07.4927 26247.7
 01 04 2013  02 14  -21.0567 26023.4 -03422.6 -07.4926 26247.5
 01 04 2013  02 15  -21.0565 26023.3 -03422.6 -07.4925 26247.4
 01 04 2013  02 16  -21.0564 26023.2 -03422.6 -07.4926 26247.3
 01 04 2013  02 17  -21.0565 26023.1 -03422.6 -07.4926 26247.2
 01 04 2013  02 18  -21.0565 26023.0 -03422.6 -07.4926 26247.1
 01 04 2013  02 19  -21.0566 26022.9 -03422.6 -07.4926 26247.0
 01 04 2013  02 20  -21.0567 26022.9 -03422.6 -07.4926 26247.0
 01 04 2013  02 21  -21.0567 26022.9 -03422.6 -07.4926 26247.0
 01 04 2013  02 22  -21.0566 26022.9 -03422.6 -07.4927 26247.0
 01 04 2013  02 23  -21.0564 26022.9 -03422.7 -07.4928 26247.0
 01 04 2013  02 24  -21.0563 26022.8 -03422.7 -07.4928 26246.9
 01 04 2013  02 25  -21.0562 26022.9 -03422.7 -07.4930 26247.0
 01 04 2013  02 26  -21.0563 26023.0 -03422.8 -07.4931 26247.1
 01 04 2013  02 27  -21.0563 26023.1 -03422.9 -07.4932 26247.2
 01 04 2013  02 28  -21.0562 26023.1 -03422.9 -07.4932 26247.3
 01 04 2013  02 29  -21.0562 26023.3 -03423.0 -07.4934 26247.4
 01 04 2013  02 30  -21.0562 26023.4 -03423.0 -07.4934 26247.6
 01 04 2013  02 31  -21.0561 26023.5 -03423.1 -07.4936 26247.7
 01 04 2013  02 32  -21.0558 26023.6 -03423.1 -07.4936 26247.8
 01 04 2013  02 33  -21.0556 26023.7 -03423.2 -07.4937 26247.8
 01 04 2013  02 34  -21.0555 26023.5 -03423.1 -07.4937 26247.7
 01 04 2013  02 35  -21.0554 26023.5 -03423.1 -07.4936 26247.7
 01 04 2013  02 36  -21.0552 26023.4 -03423.1 -07.4936 26247.6
 01 04 2013  02 37  -21.0552 26023.4 -03423.0 -07.4935 26247.5
 01 04 2013  02 38  -21.0552 26023.4 -03423.1 -07.4935 26247.5
 01 04 2013  02 39  -21.0553 26023.4 -03423.1 -07.4936 26247.6
 01 04 2013  02 40  -21.0555 26023.5 -03423.2 -07.4937 26247.6
 01 04 2013  02 41  -21.0556 26023.5 -03423.2 -07.4938 26247.7
 01 04 2013  02 42  -21.0557 26023.6 -03423.2 -07.4939 26247.8
 01 04 2013  02 43  -21.0556 26023.6 -03423.3 -07.4939 26247.8
 01 04 2013  02 44  -21.0552 26023.8 -03423.3 -07.4939 26248.0
 01 04 2013  02 45  -21.0548 26024.0 -03423.4 -07.4941 26248.2
 01 04 2013  02 46  -21.0543 26024.2 -03423.5 -07.4942 26248.4
 01 04 2013  02 47  -21.0542 26024.3 -03423.5 -07.4943 26248.5
 01 04 2013  02 48  -21.0541 26024.4 -03423.6 -07.4944 26248.6
 01 04 2013  02 49  -21.0540 26024.5 -03423.7 -07.4945 26248.7
 01 04 2013  02 50  -21.0539 26024.5 -03423.7 -07.4945 26248.8
 01 04 2013  02 51  -21.0538 26024.4 -03423.6 -07.4944 26248.7
 01 04 2013  02 52  -21.0537 26024.3 -03423.5 -07.4942 26248.5
 01 04 2013  02 53  -21.0537 26024.2 -03423.5 -07.4942 26248.4
 01 04 2013  02 54  -21.0535 26024.0 -03423.4 -07.4941 26248.2
 01 04 2013  02 55  -21.0534 26023.9 -03423.3 -07.4939 26248.1
 01 04 2013  02 56  -21.0535 26023.9 -03423.3 -07.4939 26248.1
 01 04 2013  02 57  -21.0535 26023.8 -03423.3 -07.4939 26248.0
 01 04 2013  02 58  -21.0535 26023.8 -03423.3 -07.4939 26248.0
 01 04 2013  02 59  -21.0534 26023.8 -03423.3 -07.4939 26248.0
 01 04 2013  03 00  -21.0534 26023.8 -03423.3 -07.4940 26248.0
 01 04 2013  03 01  -21.0533 26023.8 -03423.3 -07.4940 26248.0
 01 04 2013  03 02  -21.0533 26023.7 -03423.3 -07.4940 26247.9
 01 04 2013  03 03  -21.0533 26023.6 -03423.2 -07.4938 26247.8
 01 04 2013  03 04  -21.0533 26023.5 -03423.2 -07.4938 26247.7
 01 04 2013  03 05  -21.0533 26023.6 -03423.3 -07.4939 26247.8
 01 04 2013  03 06  -21.0534 26023.7 -03423.3 -07.4940 26247.9
 01 04 2013  03 07  -21.0533 26023.7 -03423.3 -07.4940 26247.9
 01 04 2013  03 08  -21.0531 26023.7 -03423.3 -07.4940 26247.9
 01 04 2013  03 09  -21.0531 26023.7 -03423.4 -07.4941 26247.9
 01 04 2013  03 10  -21.0533 26023.8 -03423.4 -07.4942 26248.0
 01 04 2013  03 11  -21.0536 26023.8 -03423.5 -07.4943 26248.0
 01 04 2013  03 12  -21.0541 26023.7 -03423.4 -07.4943 26247.9
 01 04 2013  03 13  -21.0544 26023.6 -03423.4 -07.4941 26247.8
 01 04 2013  03 14  -21.0550 26023.6 -03423.4 -07.4941 26247.8
 01 04 2013  03 15  -21.0554 26023.6 -03423.3 -07.4941 26247.8
 01 04 2013  03 16  -21.0555 26023.5 -03423.2 -07.4939 26247.7
 01 04 2013  03 17  -21.0554 26023.4 -03423.2 -07.4937 26247.5
 01 04 2013  03 18  -21.0555 26023.2 -03423.0 -07.4935 26247.4
 01 04 2013  03 19  -21.0553 26023.2 -03423.0 -07.4934 26247.3
 01 04 2013  03 20  -21.0552 26023.0 -03422.9 -07.4934 26247.2
 01 04 2013  03 21  -21.0551 26022.9 -03422.9 -07.4933 26247.0
 01 04 2013  03 22  -21.0550 26022.8 -03422.8 -07.4932 26246.9
 01 04 2013  03 23  -21.0548 26022.8 -03422.9 -07.4933 26246.9
 01 04 2013  03 24  -21.0547 26022.8 -03422.9 -07.4933 26246.9
 01 04 2013  03 25  -21.0547 26022.8 -03422.9 -07.4934 26246.9
 01 04 2013  03 26  -21.0547 26022.8 -03423.0 -07.4935 26246.9
 01 04 2013  03 27  -21.0547 26022.8 -03423.0 -07.4935 26246.9
 01 04 2013  03 28  -21.0549 26022.8 -03423.0 -07.4936 26247.0
 01 04 2013  03 29  -21.0549 26022.8 -03423.1 -07.4937 26247.0
 01 04 2013  03 30  -21.0548 26022.9 -03423.1 -07.4938 26247.1
 01 04 2013  03 31  -21.0546 26022.9 -03423.2 -07.4939 26247.1
 01 04 2013  03 32  -21.0545 26022.9 -03423.2 -07.4939 26247.1
 01 04 2013  03 33  -21.0544 26022.9 -03423.2 -07.4939 26247.1
 01 04 2013  03 34  -21.0542 26022.8 -03423.2 -07.4939 26247.0
 01 04 2013  03 35  -21.0541 26022.8 -03423.2 -07.4939 26247.0
 01 04 2013  03 36  -21.0540 26022.8 -03423.2 -07.4939 26247.0
 01 04 2013  03 37  -21.0540 26022.7 -03423.2 -07.4940 26246.9
 01 04 2013  03 38  -21.0541 26022.6 -03423.1 -07.4939 26246.8
 01 04 2013  03 39  -21.0539 26022.6 -03423.2 -07.4940 26246.8
 01 04 2013  03 40  -21.0536 26022.6 -03423.2 -07.4941 26246.8
 01 04 2013  03 41  -21.0532 26022.7 -03423.2 -07.4941 26246.9
 01 04 2013  03 42  -21.0529 26022.8 -03423.3 -07.4943 26247.0
 01 04 2013  03 43  -21.0529 26022.9 -03423.4 -07.4944 26247.1
 01 04 2013  03 44  -21.0531 26022.9 -03423.5 -07.4946 26247.1
 01 04 2013  03 45  -21.0533 26022.9 -03423.6 -07.4947 26247.1
 01 04 2013  03 46  -21.0534 26022.9 -03423.5 -07.4947 26247.1
 01 04 2013  03 47  -21.0534 26022.9 -03423.5 -07.4947 26247.1
 01 04 2013  03 48  -21.0534 26022.8 -03423.5 -07.4947 26247.1
 01 04 2013  03 49  -21.0534 26022.8 -03423.5 -07.4947 26247.1
 01 04 2013  03 50  -21.0535 26022.8 -03423.6 -07.4948 26247.1
 01 04 2013  03 51  -21.0535 26022.9 -03423.6 -07.4948 26247.1
 01 04 2013  03 52  -21.0534 26022.9 -03423.6 -07.4948 26247.1
 01 04 2013  03 53  -21.0531 26022.9 -03423.6 -07.4948 26247.1
 01 04 2013  03 54  -21.0529 26022.8 -03423.6 -07.4948 26247.1
 01 04 2013  03 55  -21.0527 26022.8 -03423.6 -07.4948 26247.0
 01 04 2013  03 56  -21.0526 26022.8 -03423.6 -07.4949 26247.0
 01 04 2013  03 57  -21.0525 26022.7 -03423.6 -07.4949 26246.9
 01 04 2013  03 58  -21.0526 26022.7 -03423.6 -07.4950 26246.9
 01 04 2013  03 59  -21.0526 26022.8 -03423.7 -07.4951 26247.0
 01 04 2013  04 00  -21.0525 26022.8 -03423.7 -07.4952 26247.0
 01 04 2013  04 01  -21.0524 26022.8 -03423.8 -07.4953 26247.1
 01 04 2013  04 02  -21.0524 26022.8 -03423.8 -07.4953 26247.1
 01 04 2013  04 03  -21.0523 26022.8 -03423.8 -07.4954 26247.0
 01 04 2013  04 04  -21.0522 26022.8 -03423.9 -07.4954 26247.1
 01 04 2013  04 05  -21.0521 26022.8 -03423.9 -07.4955 26247.1
 01 04 2013  04 06  -21.0520 26022.8 -03423.9 -07.4956 26247.1
 01 04 2013  04 07  -21.0518 26022.8 -03424.0 -07.4957 26247.1
 01 04 2013  04 08  -21.0518 26022.8 -03424.0 -07.4958 26247.1
 01 04 2013  04 09  -21.0519 26022.7 -03424.0 -07.4958 26247.0
 01 04 2013  04 10  -21.0523 26022.8 -03424.1 -07.4959 26247.1
 01 04 2013  04 11  -21.0524 26022.7 -03424.1 -07.4959 26247.1
 01 04 2013  04 12  -21.0524 26022.8 -03424.2 -07.4961 26247.1
 01 04 2013  04 13  -21.0522 26022.7 -03424.1 -07.4960 26247.1
 01 04 2013  04 14  -21.0520 26022.7 -03424.1 -07.4960 26247.0
 01 04 2013  04 15  -21.0521 26022.6 -03424.1 -07.4960 26246.9
 01 04 2013  04 16  -21.0522 26022.6 -03424.1 -07.4961 26246.9
 01 04 2013  04 17  -21.0524 26022.7 -03424.2 -07.4963 26247.0
 01 04 2013  04 18  -21.0524 26022.8 -03424.3 -07.4964 26247.2
 01 04 2013  04 19  -21.0524 26023.0 -03424.4 -07.4966 26247.3
 01 04 2013  04 20  -21.0525 26023.1 -03424.5 -07.4968 26247.5
 01 04 2013  04 21  -21.0527 26023.2 -03424.6 -07.4969 26247.6
 01 04 2013  04 22  -21.0527 26023.4 -03424.7 -07.4971 26247.8
 01 04 2013  04 23  -21.0529 26023.4 -03424.7 -07.4971 26247.8
 01 04 2013  04 24  -21.0529 26023.5 -03424.7 -07.4971 26247.9
 01 04 2013  04 25  -21.0531 26023.5 -03424.8 -07.4972 26247.9
 01 04 2013  04 26  -21.0532 26023.5 -03424.8 -07.4972 26247.9
 01 04 2013  04 27  -21.0533 26023.6 -03424.8 -07.4972 26248.0
 01 04 2013  04 28  -21.0533 26023.8 -03424.9 -07.4973 26248.2
 01 04 2013  04 29  -21.0534 26024.0 -03425.0 -07.4975 26248.4
 01 04 2013  04 30  -21.0532 26024.0 -03425.0 -07.4976 26248.5
 01 04 2013  04 31  -21.0532 26024.0 -03425.0 -07.4975 26248.4
 01 04 2013  04 32  -21.0529 26024.0 -03424.9 -07.4974 26248.4
 01 04 2013  04 33  -21.0528 26024.0 -03425.0 -07.4975 26248.4
 01 04 2013  04 34  -21.0526 26024.1 -03425.0 -07.4975 26248.5
 01 04 2013  04 35  -21.0526 26024.3 -03425.1 -07.4977 26248.7
 01 04 2013  04 36  -21.0527 26024.3 -03425.1 -07.4978 26248.7
 01 04 2013  04 37  -21.0528 26024.4 -03425.2 -07.4979 26248.8
 01 04 2013  04 38  -21.0529 26024.4 -03425.2 -07.4979 26248.8
 01 04 2013  04 39  -21.0530 26024.3 -03425.1 -07.4978 26248.7
 01 04 2013  04 40  -21.0531 26024.2 -03425.1 -07.4977 26248.6
 01 04 2013  04 41  -21.0534 26024.1 -03425.1 -07.4977 26248.5
 01 04 2013  04 42  -21.0536 26024.0 -03425.0 -07.4975 26248.4
 01 04 2013  04 43  -21.0538 26024.0 -03425.0 -07.4975 26248.4
 01 04 2013  04 44  -21.0539 26023.9 -03424.9 -07.4974 26248.3
 01 04 2013  04 45  -21.0540 26023.9 -03424.9 -07.4974 26248.3
 01 04 2013  04 46  -21.0541 26023.9 -03424.9 -07.4974 26248.3
 01 04 2013  04 47  -21.0540 26023.9 -03424.9 -07.4974 26248.3
 01 04 2013  04 48  -21.0540 26024.1 -03425.0 -07.4976 26248.5
 01 04 2013  04 49  -21.0538 26024.2 -03425.1 -07.4977 26248.6
 01 04 2013  04 50  -21.0536 26024.3 -03425.2 -07.4978 26248.7
 01 04 2013  04 51  -21.0533 26024.5 -03425.3 -07.4980 26249.0
 01 04 2013  04 52  -21.0531 26024.5 -03425.3 -07.4980 26248.9
 01 04 2013  04 53  -21.0529 26024.6 -03425.3 -07.4981 26249.1
 01 04 2013  04 54  -21.0530 26024.6 -03425.3 -07.4981 26249.0
 01 04 2013  04 55  -21.0531 26024.5 -03425.3 -07.4981 26249.0
 01 04 2013  04 56  -21.0534 26024.4 -03425.3 -07.4981 26248.8
 01 04 2013  04 57  -21.0536 26024.2 -03425.1 -07.4978 26248.6
 01 04 2013  04 58  -21.0541 26024.2 -03425.2 -07.4979 26248.7
 01 04 2013  04 59  -21.0545 26024.3 -03425.2 -07.4979 26248.7
 01 04 2013  05 00  -21.0547 26024.3 -03425.2 -07.4979 26248.7
 01 04 2013  05 01  -21.0549 26024.4 -03425.2 -07.4979 26248.9
 01 04 2013  05 02  -21.0547 26024.4 -03425.2 -07.4979 26248.8
 01 04 2013  05 03  -21.0545 26024.5 -03425.2 -07.4979 26248.9
 01 04 2013  05 04  -21.0543 26024.5 -03425.2 -07.4979 26249.0
 01 04 2013  05 05  -21.0542 26024.5 -03425.2 -07.4978 26248.9
 01 04 2013  05 06  -21.0541 26024.5 -03425.2 -07.4978 26248.9
 01 04 2013  05 07  -21.0540 26024.5 -03425.2 -07.4979 26249.0
 01 04 2013  05 08  -21.0538 26024.6 -03425.2 -07.4978 26249.0
 01 04 2013  05 09  -21.0537 26024.7 -03425.3 -07.4979 26249.1
 01 04 2013  05 10  -21.0535 26024.9 -03425.4 -07.4981 26249.4
 01 04 2013  05 11  -21.0534 26025.0 -03425.4 -07.4981 26249.5
 01 04 2013  05 12  -21.0531 26025.1 -03425.4 -07.4982 26249.6
 01 04 2013  05 13  -21.0530 26025.3 -03425.5 -07.4982 26249.7
 01 04 2013  05 14  -21.0530 26025.3 -03425.5 -07.4983 26249.8
 01 04 2013  05 15  -21.0529 26025.5 -03425.5 -07.4983 26250.0
 01 04 2013  05 16  -21.0530 26025.7 -03425.6 -07.4984 26250.1
 01 04 2013  05 17  -21.0527 26026.0 -03425.7 -07.4986 26250.5
 01 04 2013  05 18  -21.0526 26026.2 -03425.8 -07.4986 26250.7
 01 04 2013  05 19  -21.0525 26026.5 -03425.9 -07.4987 26251.0
 01 04 2013  05 20  -21.0525 26026.7 -03425.9 -07.4988 26251.2
 01 04 2013  05 21  -21.0527 26026.9 -03426.0 -07.4988 26251.4
 01 04 2013  05 22  -21.0527 26027.2 -03426.0 -07.4989 26251.7
 01 04 2013  05 23  -21.0529 26027.2 -03426.0 -07.4987 26251.7
 01 04 2013  05 24  -21.0530 26027.4 -03426.0 -07.4987 26251.9
 01 04 2013  05 25  -21.0528 26027.5 -03426.0 -07.4987 26252.0
 01 04 2013  05 26  -21.0528 26027.5 -03425.9 -07.4985 26252.0
 01 04 2013  05 27  -21.0529 26027.7 -03425.9 -07.4985 26252.2
 01 04 2013  05 28  -21.0528 26027.7 -03425.9 -07.4984 26252.2
 01 04 2013  05 29  -21.0528 26027.9 -03425.9 -07.4984 26252.4
 01 04 2013  05 30  -21.0527 26027.9 -03425.9 -07.4983 26252.4
 01 04 2013  05 31  -21.0527 26028.0 -03425.8 -07.4981 26252.5
 01 04 2013  05 32  -21.0526 26028.2 -03425.8 -07.4982 26252.7
 01 04 2013  05 33  -21.0525 26028.3 -03425.8 -07.4981 26252.8
 01 04 2013  05 34  -21.0523 26028.4 -03425.9 -07.4981 26252.9
 01 04 2013  05 35  -21.0520 26028.5 -03425.8 -07.4980 26252.9
 01 04 2013  05 36  -21.0518 26028.5 -03425.8 -07.4980 26253.0
 01 04 2013  05 37  -21.0517 26028.6 -03425.8 -07.4980 26253.1
 01 04 2013  05 38  -21.0516 26028.8 -03425.9 -07.4981 26253.2
 01 04 2013  05 39  -21.0514 26028.8 -03425.8 -07.4979 26253.3
 01 04 2013  05 40  -21.0510 26029.0 -03425.9 -07.4980 26253.5
 01 04 2013  05 41  -21.0507 26029.1 -03425.9 -07.4980 26253.6
 01 04 2013  05 42  -21.0503 26029.1 -03425.8 -07.4979 26253.5
 01 04 2013  05 43  -21.0504 26029.1 -03425.8 -07.4979 26253.5
 01 04 2013  05 44  -21.0505 26029.2 -03425.9 -07.4979 26253.7
 01 04 2013  05 45  -21.0505 26029.3 -03425.9 -07.4980 26253.8
 01 04 2013  05 46  -21.0506 26029.5 -03426.0 -07.4981 26254.0
 01 04 2013  05 47  -21.0507 26029.4 -03425.9 -07.4980 26253.9
 01 04 2013  05 48  -21.0507 26029.5 -03425.9 -07.4980 26254.0
 01 04 2013  05 49  -21.0509 26029.6 -03425.9 -07.4980 26254.1
 01 04 2013  05 50  -21.0510 26029.8 -03426.0 -07.4980 26254.3
 01 04 2013  05 51  -21.0509 26029.9 -03426.0 -07.4980 26254.4
 01 04 2013  05 52  -21.0508 26029.8 -03425.9 -07.4978 26254.3
 01 04 2013  05 53  -21.0504 26029.8 -03425.8 -07.4977 26254.2
 01 04 2013  05 54  -21.0502 26029.7 -03425.7 -07.4975 26254.1
 01 04 2013  05 55  -21.0499 26029.5 -03425.6 -07.4973 26254.0
 01 04 2013  05 56  -21.0495 26029.5 -03425.6 -07.4973 26254.0
 01 04 2013  05 57  -21.0492 26029.6 -03425.6 -07.4973 26254.0
 01 04 2013  05 58  -21.0488 26029.5 -03425.6 -07.4972 26253.9
 01 04 2013  05 59  -21.0484 26029.5 -03425.6 -07.4973 26254.0
 01 04 2013  06 00  -21.0480 26029.5 -03425.6 -07.4973 26254.0
 01 04 2013  06 01  -21.0475 26029.7 -03425.7 -07.4975 26254.1
 01 04 2013  06 02  -21.0469 26029.8 -03425.8 -07.4976 26254.3
 01 04 2013  06 03  -21.0462 26030.0 -03425.9 -07.4977 26254.5
 01 04 2013  06 04  -21.0456 26030.2 -03426.0 -07.4979 26254.7
 01 04 2013  06 05  -21.0450 26030.1 -03426.0 -07.4979 26254.5
 01 04 2013  06 06  -21.0445 26030.0 -03425.9 -07.4979 26254.5
 01 04 2013  06 07  -21.0438 26029.8 -03425.8 -07.4977 26254.3
 01 04 2013  06 08  -21.0432 26029.7 -03425.8 -07.4977 26254.2
 01 04 2013  06 09  -21.0431 26029.6 -03425.8 -07.4978 26254.1
 01 04 2013  06 10  -21.0434 26029.6 -03425.9 -07.4979 26254.1
 01 04 2013  06 11  -21.0440 26029.6 -03426.0 -07.4981 26254.1
 01 04 2013  06 12  -21.0445 26029.7 -03426.0 -07.4981 26254.1
 01 04 2013  06 13  -21.0447 26029.5 -03426.0 -07.4981 26254.0
 01 04 2013  06 14  -21.0447 26029.5 -03425.9 -07.4980 26254.0
 01 04 2013  06 15  -21.0445 26029.5 -03425.9 -07.4979 26254.0
 01 04 2013  06 16  -21.0444 26029.4 -03425.9 -07.4980 26253.9
 01 04 2013  06 17  -21.0442 26029.4 -03425.9 -07.4979 26253.9
 01 04 2013  06 18  -21.0442 26029.3 -03425.8 -07.4978 26253.7
 01 04 2013  06 19  -21.0442 26029.2 -03425.8 -07.4978 26253.6
 01 04 2013  06 20  -21.0445 26029.1 -03425.8 -07.4977 26253.6
 01 04 2013  06 21  -21.0446 26029.1 -03425.8 -07.4977 26253.6
 01 04 2013  06 22  -21.0448 26029.1 -03425.8 -07.4978 26253.6
 01 04 2013  06 23  -21.0449 26029.1 -03425.7 -07.4977 26253.5
 01 04 2013  06 24  -21.0447 26029.0 -03425.7 -07.4977 26253.5
 01 04 2013  06 25  -21.0445 26029.1 -03425.7 -07.4977 26253.5
 01 04 2013  06 26  -21.0445 26029.3 -03425.8 -07.4979 26253.7
 01 04 2013  06 27  -21.0446 26029.5 -03425.9 -07.4980 26254.0
 01 04 2013  06 28  -21.0447 26029.6 -03426.0 -07.4981 26254.1
 01 04 2013  06 29  -21.0446 26029.7 -03426.0 -07.4981 26254.2
 01 04 2013  06 30  -21.0444 26029.9 -03426.1 -07.4982 26254.4
 01 04 2013  06 31  -21.0444 26030.1 -03426.2 -07.4983 26254.6
 01 04 2013  06 32  -21.0444 26030.0 -03426.1 -07.4982 26254.5
 01 04 2013  06 33  -21.0445 26030.0 -03426.1 -07.4982 26254.5
 01 04 2013  06 34  -21.0447 26030.2 -03426.2 -07.4983 26254.7
 01 04 2013  06 35  -21.0450 26030.3 -03426.2 -07.4984 26254.8
 01 04 2013  06 36  -21.0452 26030.3 -03426.2 -07.4984 26254.8
 01 04 2013  06 37  -21.0452 26030.3 -03426.2 -07.4983 26254.8
 01 04 2013  06 38  -21.0452 26030.3 -03426.1 -07.4982 26254.8
 01 04 2013  06 39  -21.0449 26030.2 -03426.0 -07.4980 26254.7
 01 04 2013  06 40  -21.0447 26030.0 -03425.9 -07.4978 26254.5
 01 04 2013  06 41  -21.0444 26029.9 -03425.8 -07.4976 26254.4
 01 04 2013  06 42  -21.0440 26029.7 -03425.7 -07.4975 26254.2
 01 04 2013  06 43  -21.0438 26029.5 -03425.6 -07.4974 26254.0
 01 04 2013  06 44  -21.0435 26029.4 -03425.6 -07.4973 26253.9
 01 04 2013  06 45  -21.0433 26029.3 -03425.6 -07.4973 26253.8
 01 04 2013  06 46  -21.0431 26029.2 -03425.6 -07.4973 26253.7
 01 04 2013  06 47  -21.0429 26029.1 -03425.6 -07.4973 26253.6
 01 04 2013  06 48  -21.0426 26029.0 -03425.6 -07.4973 26253.4
 01 04 2013  06 49  -21.0423 26029.0 -03425.6 -07.4974 26253.4
 01 04 2013  06 50  -21.0420 26029.0 -03425.6 -07.4975 26253.4
 01 04 2013  06 51  -21.0418 26029.0 -03425.7 -07.4976 26253.5
 01 04 2013  06 52  -21.0416 26029.0 -03425.8 -07.4978 26253.5
 01 04 2013  06 53  -21.0416 26029.0 -03425.8 -07.4978 26253.5
 01 04 2013  06 54  -21.0420 26029.0 -03425.9 -07.4980 26253.5
 01 04 2013  06 55  -21.0424 26029.0 -03425.9 -07.4980 26253.5
 01 04 2013  06 56  -21.0427 26028.9 -03425.9 -07.4980 26253.4
 01 04 2013  06 57  -21.0428 26028.9 -03425.9 -07.4980 26253.4
 01 04 2013  06 58  -21.0428 26028.9 -03425.9 -07.4980 26253.4
 01 04 2013  06 59  -21.0428 26029.0 -03425.9 -07.4981 26253.5
 01 04 2013  07 00  -21.0428 26029.0 -03425.9 -07.4980 26253.5
 01 04 2013  07 01  -21.0425 26029.0 -03425.9 -07.4980 26253.5
 01 04 2013  07 02  -21.0422 26028.9 -03425.8 -07.4979 26253.4
 01 04 2013  07 03  -21.0419 26028.9 -03425.8 -07.4979 26253.3
 01 04 2013  07 04  -21.0416 26028.9 -03425.8 -07.4979 26253.3
 01 04 2013  07 05  -21.0413 26028.8 -03425.8 -07.4979 26253.3
 01 04 2013  07 06  -21.0410 26028.7 -03425.7 -07.4978 26253.1
 01 04 2013  07 07  -21.0410 26028.6 -03425.7 -07.4978 26253.0
 01 04 2013  07 08  -21.0409 26028.5 -03425.7 -07.4978 26252.9
 01 04 2013  07 09  -21.0407 26028.4 -03425.7 -07.4978 26252.9
 01 04 2013  07 10  -21.0407 26028.5 -03425.8 -07.4980 26253.0
 01 04 2013  07 11  -21.0409 26028.6 -03425.9 -07.4982 26253.1
 01 04 2013  07 12  -21.0413 26028.7 -03426.0 -07.4983 26253.2
 01 04 2013  07 13  -21.0413 26028.8 -03426.0 -07.4984 26253.3
 01 04 2013  07 14  -21.0414 26028.9 -03426.0 -07.4984 26253.4
 01 04 2013  07 15  -21.0414 26028.9 -03426.1 -07.4985 26253.5
 01 04 2013  07 16  -21.0414 26028.9 -03426.1 -07.4984 26253.4
 01 04 2013  07 17  -21.0413 26028.8 -03426.0 -07.4984 26253.4
 01 04 2013  07 18  -21.0413 26028.8 -03426.0 -07.4983 26253.3
 01 04 2013  07 19  -21.0415 26028.8 -03426.0 -07.4984 26253.4
 01 04 2013  07 20  -21.0417 26028.8 -03426.0 -07.4984 26253.3
 01 04 2013  07 21  -21.0417 26028.7 -03426.0 -07.4983 26253.2
 01 04 2013  07 22  -21.0414 26028.7 -03426.0 -07.4983 26253.2
 01 04 2013  07 23  -21.0410 26028.7 -03425.9 -07.4982 26253.2
 01 04 2013  07 24  -21.0410 26028.5 -03425.9 -07.4983 26253.0
 01 04 2013  07 25  -21.0407 26028.5 -03425.9 -07.4983 26253.0
 01 04 2013  07 26  -21.0408 26028.5 -03426.0 -07.4984 26253.0
 01 04 2013  07 27  -21.0412 26028.5 -03426.0 -07.4985 26253.0
 01 04 2013  07 28  -21.0414 26028.6 -03426.1 -07.4987 26253.1
 01 04 2013  07 29  -21.0416 26028.7 -03426.2 -07.4987 26253.2
 01 04 2013  07 30  -21.0417 26028.6 -03426.1 -07.4987 26253.1
 01 04 2013  07 31  -21.0415 26028.4 -03426.0 -07.4985 26253.0
 01 04 2013  07 32  -21.0415 26028.4 -03426.0 -07.4985 26252.9
 01 04 2013  07 33  -21.0416 26028.4 -03426.1 -07.4986 26252.9
 01 04 2013  07 34  -21.0414 26028.1 -03426.0 -07.4985 26252.6
 01 04 2013  07 35  -21.0416 26027.8 -03425.8 -07.4983 26252.3
 01 04 2013  07 36  -21.0424 26027.8 -03425.9 -07.4984 26252.3
 01 04 2013  07 37  -21.0427 26028.0 -03426.0 -07.4986 26252.5
 01 04 2013  07 38  -21.0429 26028.2 -03426.1 -07.4988 26252.7
 01 04 2013  07 39  -21.0429 26028.1 -03426.1 -07.4988 26252.6
 01 04 2013  07 40  -21.0431 26028.1 -03426.1 -07.4987 26252.6
 01 04 2013  07 41  -21.0433 26028.0 -03426.1 -07.4987 26252.5
 01 04 2013  07 42  -21.0435 26028.1 -03426.1 -07.4987 26252.6
 01 04 2013  07 43  -21.0436 26028.3 -03426.2 -07.4989 26252.8
 01 04 2013  07 44  -21.0435 26028.5 -03426.3 -07.4991 26253.0
 01 04 2013  07 45  -21.0429 26028.5 -03426.3 -07.4991 26253.0
 01 04 2013  07 46  -21.0422 26028.4 -03426.3 -07.4992 26253.0
 01 04 2013  07 47  -21.0415 26028.3 -03426.3 -07.4992 26252.9
 01 04 2013  07 48  -21.0412 26028.2 -03426.3 -07.4992 26252.7
 01 04 2013  07 49  -21.0412 26028.0 -03426.3 -07.4992 26252.5
 01 04 2013  07 50  -21.0412 26027.8 -03426.3 -07.4992 26252.3
 01 04 2013  07 51  -21.0414 26027.6 -03426.2 -07.4991 26252.2
 01 04 2013  07 52  -21.0412 26027.4 -03426.2 -07.4991 26252.0
 01 04 2013  07 53  -21.0408 26027.3 -03426.1 -07.4990 26251.8
 01 04 2013  07 54  -21.0405 26027.1 -03426.0 -07.4989 26251.6
 01 04 2013  07 55  -21.0406 26027.1 -03426.1 -07.4990 26251.6
 01 04 2013  07 56  -21.0406 26027.1 -03426.2 -07.4992 26251.7
 01 04 2013  07 57  -21.0406 26027.2 -03426.3 -07.4994 26251.8
 01 04 2013  07 58  -21.0408 26027.3 -03426.4 -07.4996 26251.9
 01 04 2013  07 59  -21.0411 26027.4 -03426.4 -07.4996 26251.9
 01 04 2013  08 00  -21.0416 26027.5 -03426.5 -07.4998 26252.1
 01 04 2013  08 01  -21.0418 26027.5 -03426.6 -07.4999 26252.1
 01 04 2013  08 02  -21.0419 26027.4 -03426.5 -07.4999 26252.0
 01 04 2013  08 03  -21.0419 26027.3 -03426.5 -07.4998 26251.9
 01 04 2013  08 04  -21.0417 26027.1 -03426.4 -07.4997 26251.7
 01 04 2013  08 05  -21.0423 26027.0 -03426.4 -07.4996 26251.5
 01 04 2013  08 06  -21.0434 26027.0 -03426.5 -07.4999 26251.6
 01 04 2013  08 07  -21.0441 26027.1 -03426.5 -07.5000 26251.7
 01 04 2013  08 08  -21.0449 26027.2 -03426.5 -07.5000 26251.7
 01 04 2013  08 09  -21.0456 26027.1 -03426.5 -07.4998 26251.7
 01 04 2013  08 10  -21.0460 26027.0 -03426.4 -07.4997 26251.6
 01 04 2013  08 11  -21.0464 26026.9 -03426.3 -07.4995 26251.5
 01 04 2013  08 12  -21.0470 26026.9 -03426.3 -07.4995 26251.4
 01 04 2013  08 13  -21.0470 26026.9 -03426.2 -07.4994 26251.4
 01 04 2013  08 14  -21.0469 26027.1 -03426.3 -07.4994 26251.6
 01 04 2013  08 15  -21.0468 26027.2 -03426.3 -07.4995 26251.8
 01 04 2013  08 16  -21.0468 26027.5 -03426.4 -07.4997 26252.1
 01 04 2013  08 17  -21.0471 26027.7 -03426.5 -07.4997 26252.3
 01 04 2013  08 18  -21.0475 26027.9 -03426.5 -07.4997 26252.4
 01 04 2013  08 19  -21.0474 26027.8 -03426.4 -07.4995 26252.4
 01 04 2013  08 20  -21.0475 26027.8 -03426.4 -07.4996 26252.3
 01 04 2013  08 21  -21.0477 26027.9 -03426.5 -07.4996 26252.4
 01 04 2013  08 22  -21.0478 26028.0 -03426.5 -07.4996 26252.6
 01 04 2013  08 23  -21.0479 26028.0 -03426.5 -07.4996 26252.6
 01 04 2013  08 24  -21.0480 26028.0 -03426.4 -07.4995 26252.6
 01 04 2013  08 25  -21.0480 26028.0 -03426.4 -07.4994 26252.5
 01 04 2013  08 26  -21.0477 26028.0 -03426.4 -07.4994 26252.6
 01 04 2013  08 27  -21.0477 26028.0 -03426.5 -07.4996 26252.6
 01 04 2013  08 28  -21.0478 26028.2 -03426.6 -07.4998 26252.7
 01 04 2013  08 29  -21.0477 26028.3 -03426.7 -07.5000 26252.9
 01 04 2013  08 30  -21.0476 26028.5 -03426.7 -07.5000 26253.1
 01 04 2013  08 31  -21.0475 26028.4 -03426.7 -07.5000 26253.0
 01 04 2013  08 32  -21.0476 26028.5 -03426.8 -07.5001 26253.1
 01 04 2013  08 33  -21.0478 26028.6 -03426.8 -07.5001 26253.2
 01 04 2013  08 34  -21.0480 26028.7 -03426.9 -07.5003 26253.3
 01 04 2013  08 35  -21.0482 26028.8 -03427.0 -07.5005 26253.4
 01 04 2013  08 36  -21.0483 26028.8 -03427.0 -07.5005 26253.4
 01 04 2013  08 37  -21.0483 26028.8 -03427.0 -07.5005 26253.4
 01 04 2013  08 38  -21.0484 26028.8 -03427.0 -07.5005 26253.4
 01 04 2013  08 39  -21.0484 26028.7 -03426.9 -07.5004 26253.4
 01 04 2013  08 40  -21.0487 26028.5 -03426.8 -07.5001 26253.1
 01 04 2013  08 41  -21.0493 26028.4 -03426.7 -07.5000 26253.0
 01 04 2013  08 42  -21.0495 26028.5 -03426.8 -07.5001 26253.1
 01 04 2013  08 43  -21.0493 26028.6 -03426.8 -07.5000 26253.2
 01 04 2013  08 44  -21.0492 26028.8 -03426.8 -07.5001 26253.4
 01 04 2013  08 45  -21.0489 26028.7 -03426.7 -07.5000 26253.3
 01 04 2013  08 46  -21.0483 26028.5 -03426.6 -07.4998 26253.1
 01 04 2013  08 47  -21.0477 26028.6 -03426.6 -07.4996 26253.1
 01 04 2013  08 48  -21.0471 26028.5 -03426.5 -07.4995 26253.1
 01 04 2013  08 49  -21.0470 26028.5 -03426.5 -07.4995 26253.0
 01 04 2013  08 50  -21.0469 26028.5 -03426.5 -07.4995 26253.0
 01 04 2013  08 51  -21.0469 26028.6 -03426.6 -07.4996 26253.2
 01 04 2013  08 52  -21.0468 26028.7 -03426.6 -07.4998 26253.3
 01 04 2013  08 53  -21.0467 26028.7 -03426.7 -07.4999 26253.3
 01 04 2013  08 54  -21.0467 26028.9 -03426.8 -07.5000 26253.5
 01 04 2013  08 55  -21.0467 26029.0 -03426.9 -07.5002 26253.6
 01 04 2013  08 56  -21.0466 26029.0 -03426.9 -07.5002 26253.6
 01 04 2013  08 57  -21.0466 26028.8 -03426.8 -07.5001 26253.5
 01 04 2013  08 58  -21.0467 26028.7 -03426.7 -07.5000 26253.3
 01 04 2013  08 59  -21.0469 26028.7 -03426.7 -07.4999 26253.3
 01 04 2013  09 00  -21.0475 26028.7 -03426.8 -07.5001 26253.3
 01 04 2013  09 01  -21.0476 26028.6 -03426.8 -07.5000 26253.3
 01 04 2013  09 02  -21.0475 26028.4 -03426.6 -07.4998 26253.0
 01 04 2013  09 03  -21.0478 26028.3 -03426.6 -07.4997 26252.9
 01 04 2013  09 04  -21.0476 26028.3 -03426.6 -07.4997 26252.9
 01 04 2013  09 05  -21.0476 26028.4 -03426.6 -07.4998 26252.9
 01 04 2013  09 06  -21.0475 26028.4 -03426.7 -07.4999 26253.0
 01 04 2013  09 07  -21.0475 26028.5 -03426.8 -07.5001 26253.1
 01 04 2013  09 08  -21.0474 26028.6 -03426.9 -07.5003 26253.2
 01 04 2013  09 09  -21.0478 26028.7 -03427.0 -07.5006 26253.4
 01 04 2013  09 10  -21.0481 26028.9 -03427.2 -07.5009 26253.5
 01 04 2013  09 11  -21.0483 26029.0 -03427.3 -07.5011 26253.6
 01 04 2013  09 12  -21.0486 26029.0 -03427.4 -07.5013 26253.7
 01 04 2013  09 13  -21.0490 26029.0 -03427.4 -07.5014 26253.7
 01 04 2013  09 14  -21.0492 26028.8 -03427.4 -07.5013 26253.5
 01 04 2013  09 15  -21.0491 26028.5 -03427.3 -07.5012 26253.2
 01 04 2013  09 16  -21.0491 26028.4 -03427.2 -07.5012 26253.0
 01 04 2013  09 17  -21.0493 26028.2 -03427.2 -07.5012 26252.8
 01 04 2013  09 18  -21.0498 26027.9 -03427.2 -07.5011 26252.6
 01 04 2013  09 19  -21.0507 26027.7 -03427.1 -07.5011 26252.4
 01 04 2013  09 20  -21.0514 26027.5 -03427.1 -07.5011 26252.2
 01 04 2013  09 21  -21.0518 26027.5 -03427.1 -07.5011 26252.2
 01 04 2013  09 22  -21.0520 26027.5 -03427.1 -07.5010 26252.2
 01 04 2013  09 23  -21.0521 26027.7 -03427.1 -07.5010 26252.3
 01 04 2013  09 24  -21.0522 26027.7 -03427.2 -07.5012 26252.4
 01 04 2013  09 25  -21.0525 26027.7 -03427.2 -07.5014 26252.4
 01 04 2013  09 26  -21.0530 26027.7 -03427.3 -07.5015 26252.4
 01 04 2013  09 27  -21.0538 26027.7 -03427.4 -07.5016 26252.4
 01 04 2013  09 28  -21.0546 26027.6 -03427.4 -07.5016 26252.3
 01 04 2013  09 29  -21.0551 26027.3 -03427.2 -07.5015 26252.0
 01 04 2013  09 30  -21.0558 26027.2 -03427.2 -07.5015 26251.9
 01 04 2013  09 31  -21.0563 26027.0 -03427.2 -07.5014 26251.7
 01 04 2013  09 32  -21.0564 26026.9 -03427.1 -07.5013 26251.6
 01 04 2013  09 33  -21.0570 26026.9 -03427.1 -07.5013 26251.6
 01 04 2013  09 34  -21.0578 26027.1 -03427.3 -07.5016 26251.8
 01 04 2013  09 35  -21.0586 26027.1 -03427.3 -07.5017 26251.7
 01 04 2013  09 36  -21.0592 26026.9 -03427.3 -07.5016 26251.6
 01 04 2013  09 37  -21.0589 26026.8 -03427.2 -07.5016 26251.5
 01 04 2013  09 38  -21.0588 26026.7 -03427.2 -07.5016 26251.3
 01 04 2013  09 39  -21.0593 26026.7 -03427.3 -07.5018 26251.4
 01 04 2013  09 40  -21.0597 26026.6 -03427.3 -07.5019 26251.3
 01 04 2013  09 41  -21.0600 26026.5 -03427.3 -07.5017 26251.1
 01 04 2013  09 42  -21.0604 26026.5 -03427.3 -07.5018 26251.2
 01 04 2013  09 43  -21.0610 26026.6 -03427.4 -07.5021 26251.3
 01 04 2013  09 44  -21.0612 26026.6 -03427.5 -07.5022 26251.3
 01 04 2013  09 45  -21.0611 26026.5 -03427.5 -07.5023 26251.2
 01 04 2013  09 46  -21.0611 26026.4 -03427.5 -07.5023 26251.1
 01 04 2013  09 47  -21.0615 26026.3 -03427.5 -07.5024 26251.0
 01 04 2013  09 48  -21.0620 26026.2 -03427.6 -07.5026 26250.9
 01 04 2013  09 49  -21.0623 26026.0 -03427.6 -07.5026 26250.7
 01 04 2013  09 50  -21.0623 26025.8 -03427.6 -07.5026 26250.5
 01 04 2013  09 51  -21.0624 26025.6 -03427.6 -07.5027 26250.3
 01 04 2013  09 52  -21.0626 26025.6 -03427.6 -07.5027 26250.3
 01 04 2013  09 53  -21.0627 26025.5 -03427.7 -07.5029 26250.3
 01 04 2013  09 54  -21.0632 26025.4 -03427.7 -07.5031 26250.1
 01 04 2013  09 55  -21.0640 26025.2 -03427.8 -07.5032 26249.9
 01 04 2013  09 56  -21.0645 26025.1 -03427.8 -07.5033 26249.8
 01 04 2013  09 57  -21.0646 26024.9 -03427.7 -07.5032 26249.6
 01 04 2013  09 58  -21.0654 26024.8 -03427.8 -07.5033 26249.5
 01 04 2013  09 59  -21.0660 26024.7 -03427.8 -07.5035 26249.5
 01 04 2013  10 00  -21.0667 26024.6 -03427.9 -07.5035 26249.4
 01 04 2013  10 01  -21.0674 26024.5 -03427.9 -07.5036 26249.3
 01 04 2013  10 02  -21.0679 26024.4 -03427.8 -07.5036 26249.1
 01 04 2013  10 03  -21.0678 26024.3 -03427.8 -07.5036 26249.0
 01 04 2013  10 04  -21.0677 26024.3 -03427.9 -07.5038 26249.1
 01 04 2013  10 05  -21.0674 26024.4 -03427.9 -07.5038 26249.2
 01 04 2013  10 06  -21.0671 26024.3 -03428.0 -07.5040 26249.1
 01 04 2013  10 07  -21.0675 26024.4 -03428.1 -07.5042 26249.3
 01 04 2013  10 08  -21.0683 26024.6 -03428.3 -07.5045 26249.5
 01 04 2013  10 09  -21.0686 26024.7 -03428.3 -07.5046 26249.6
 01 04 2013  10 10  -21.0690 26024.5 -03428.2 -07.5044 26249.3
 01 04 2013  10 11  -21.0691 26024.4 -03428.2 -07.5044 26249.2
 01 04 2013  10 12  -21.0692 26024.5 -03428.3 -07.5045 26249.3
 01 04 2013  10 13  -21.0692 26024.4 -03428.3 -07.5045 26249.3
 01 04 2013  10 14  -21.0697 26024.5 -03428.3 -07.5046 26249.4
 01 04 2013  10 15  -21.0699 26024.5 -03428.4 -07.5047 26249.4
 01 04 2013  10 16  -21.0696 26024.1 -03428.2 -07.5045 26248.9
 01 04 2013  10 17  -21.0702 26024.2 -03428.3 -07.5047 26249.1
 01 04 2013  10 18  -21.0710 26024.0 -03428.3 -07.5047 26248.9
 01 04 2013  10 19  -21.0711 26023.8 -03428.2 -07.5046 26248.6
 01 04 2013  10 20  -21.0715 26023.6 -03428.2 -07.5046 26248.4
 01 04 2013  10 21  -21.0716 26023.6 -03428.2 -07.5046 26248.4
 01 04 2013  10 22  -21.0720 26023.7 -03428.3 -07.5049 26248.6
 01 04 2013  10 23  -21.0723 26023.8 -03428.3 -07.5049 26248.6
 01 04 2013  10 24  -21.0729 26023.8 -03428.4 -07.5049 26248.6
 01 04 2013  10 25  -21.0733 26024.1 -03428.5 -07.5051 26248.9
 01 04 2013  10 26  -21.0738 26024.4 -03428.6 -07.5053 26249.3
 01 04 2013  10 27  -21.0738 26024.8 -03428.7 -07.5053 26249.7
 01 04 2013  10 28  -21.0744 26024.8 -03428.7 -07.5053 26249.7
 01 04 2013  10 29  -21.0743 26025.0 -03428.6 -07.5051 26249.8
 01 04 2013  10 30  -21.0734 26025.3 -03428.7 -07.5051 26250.2
 01 04 2013  10 31  -21.0730 26025.5 -03428.7 -07.5051 26250.4
 01 04 2013  10 32  -21.0725 26025.6 -03428.6 -07.5050 26250.5
 01 04 2013  10 33  -21.0718 26025.8 -03428.6 -07.5049 26250.7
 01 04 2013  10 34  -21.0714 26026.0 -03428.6 -07.5048 26250.9
 01 04 2013  10 35  -21.0717 26026.5 -03428.8 -07.5051 26251.4
 01 04 2013  10 36  -21.0715 26027.1 -03429.0 -07.5052 26252.0
 01 04 2013  10 37  -21.0716 26027.7 -03429.1 -07.5053 26252.6
 01 04 2013  10 38  -21.0715 26028.1 -03429.1 -07.5053 26253.0
 01 04 2013  10 39  -21.0716 26028.4 -03429.2 -07.5053 26253.4
 01 04 2013  10 40  -21.0719 26028.7 -03429.2 -07.5052 26253.6
 01 04 2013  10 41  -21.0723 26029.0 -03429.2 -07.5052 26254.0
 01 04 2013  10 42  -21.0724 26029.4 -03429.3 -07.5052 26254.4
 01 04 2013  10 43  -21.0724 26029.9 -03429.3 -07.5052 26254.8
 01 04 2013  10 44  -21.0725 26030.2 -03429.3 -07.5051 26255.1
 01 04 2013  10 45  -21.0727 26030.6 -03429.3 -07.5050 26255.5
 01 04 2013  10 46  -21.0731 26030.9 -03429.3 -07.5049 26255.8
 01 04 2013  10 47  -21.0733 26031.3 -03429.4 -07.5050 26256.2
 01 04 2013  10 48  -21.0738 26031.6 -03429.4 -07.5049 26256.6
 01 04 2013  10 49  -21.0742 26031.9 -03429.4 -07.5049 26256.9
 01 04 2013  10 50  -21.0743 26032.2 -03429.4 -07.5047 26257.1
 01 04 2013  10 51  -21.0743 26032.6 -03429.4 -07.5047 26257.5
 01 04 2013  10 52  -21.0742 26032.9 -03429.4 -07.5046 26257.8
 01 04 2013  10 53  -21.0743 26033.2 -03429.4 -07.5044 26258.1
 01 04 2013  10 54  -21.0748 26033.4 -03429.4 -07.5043 26258.4
 01 04 2013  10 55  -21.0753 26033.7 -03429.3 -07.5042 26258.6
 01 04 2013  10 56  -21.0758 26033.7 -03429.2 -07.5040 26258.6
 01 04 2013  10 57  -21.0760 26033.8 -03429.2 -07.5038 26258.6
 01 04 2013  10 58  -21.0762 26033.8 -03429.1 -07.5036 26258.7
 01 04 2013  10 59  -21.0764 26033.9 -03429.1 -07.5035 26258.7
 01 04 2013  11 00  -21.0767 26034.0 -03429.1 -07.5035 26258.9
 01 04 2013  11 01  -21.0770 26034.4 -03429.1 -07.5035 26259.3
 01 04 2013  11 02  -21.0774 26034.8 -03429.2 -07.5035 26259.7
 01 04 2013  11 03  -21.0779 26035.2 -03429.2 -07.5034 26260.0
 01 04 2013  11 04  -21.0781 26035.4 -03429.1 -07.5032 26260.3
 01 04 2013  11 05  -21.0782 26035.7 -03429.0 -07.5030 26260.5
 01 04 2013  11 06  -21.0785 26035.9 -03429.0 -07.5028 26260.7
 01 04 2013  11 07  -21.0790 26036.2 -03429.0 -07.5027 26261.1
 01 04 2013  11 08  -21.0795 26036.4 -03428.9 -07.5025 26261.2
 01 04 2013  11 09  -21.0799 26036.6 -03428.9 -07.5023 26261.4
 01 04 2013  11 10  -21.0803 26036.7 -03428.8 -07.5021 26261.5
 01 04 2013  11 11  -21.0807 26036.8 -03428.7 -07.5019 26261.6
 01 04 2013  11 12  -21.0812 26036.9 -03428.7 -07.5018 26261.7
 01 04 2013  11 13  -21.0816 26037.1 -03428.6 -07.5016 26261.8
 01 04 2013  11 14  -21.0848 26036.8 -03428.2 -07.5009 26261.5
 01 04 2013  11 15  -21.0860 26036.7 -03428.0 -07.5005 26261.4
 01 04 2013  11 16  -21.0860 26036.9 -03427.9 -07.5002 26261.6
 01 04 2013  11 17  -21.0859 26037.0 -03427.9 -07.5001 26261.7
 01 04 2013  11 18  -21.0857 26037.3 -03427.9 -07.5000 26261.9
 01 04 2013  11 19  -21.0853 26037.6 -03427.9 -07.4999 26262.3
 01 04 2013  11 20  -21.0853 26038.1 -03427.9 -07.4999 26262.7
 01 04 2013  11 21  -21.0855 26038.5 -03427.9 -07.4998 26263.2
 01 04 2013  11 22  -21.0823 26039.1 -03428.1 -07.5000 26263.8
 01 04 2013  11 23  -21.0825 26039.2 -03428.0 -07.4998 26263.8
 01 04 2013  11 24  -21.0830 26039.1 -03427.8 -07.4994 26263.8
 01 04 2013  11 25  -21.0833 26039.1 -03427.7 -07.4992 26263.8
 01 04 2013  11 26  -21.0833 26039.4 -03427.7 -07.4990 26264.0
 01 04 2013  11 27  -21.0828 26039.7 -03427.7 -07.4989 26264.3
 01 04 2013  11 28  -21.0825 26040.0 -03427.7 -07.4987 26264.6
 01 04 2013  11 29  -21.0821 26040.5 -03427.7 -07.4987 26265.1
 01 04 2013  11 30  -21.0814 26041.3 -03427.8 -07.4987 26266.0
 01 04 2013  11 31  -21.0809 26042.0 -03427.8 -07.4985 26266.7
 01 04 2013  11 32  -21.0813 26042.0 -03427.5 -07.4979 26266.6
 01 04 2013  11 33  -21.0816 26042.0 -03427.2 -07.4973 26266.6
 01 04 2013  11 34  -21.0815 26042.2 -03427.1 -07.4969 26266.7
 01 04 2013  11 35  -21.0812 26042.5 -03427.0 -07.4966 26267.1
 01 04 2013  11 36  -21.0813 26043.3 -03427.2 -07.4968 26267.9
 01 04 2013  11 37  -21.0810 26044.2 -03427.3 -07.4967 26268.7
 01 04 2013  11 38  -21.0807 26044.8 -03427.2 -07.4964 26269.3
 01 04 2013  11 39  -21.0807 26045.3 -03427.1 -07.4961 26269.8
 01 04 2013  11 40  -21.0803 26046.0 -03427.1 -07.4958 26270.5
 01 04 2013  11 41  -21.0801 26046.5 -03427.0 -07.4954 26271.0
 01 04 2013  11 42  -21.0798 26046.9 -03426.8 -07.4949 26271.3
 01 04 2013  11 43  -21.0798 26047.1 -03426.6 -07.4944 26271.6
 01 04 2013  11 44  -21.0796 26048.0 -03426.6 -07.4942 26272.4
 01 04 2013  11 45  -21.0790 26049.3 -03426.8 -07.4944 26273.7
 01 04 2013  11 46  -21.0786 26050.0 -03426.8 -07.4941 26274.5
 01 04 2013  11 47  -21.0781 26050.5 -03426.7 -07.4936 26274.9
 01 04 2013  11 48  -21.0775 26050.9 -03426.5 -07.4931 26275.3
 01 04 2013  11 49  -21.0771 26051.4 -03426.4 -07.4927 26275.7
 01 04 2013  11 50  -21.0773 26051.5 -03426.2 -07.4923 26275.9
 01 04 2013  11 51  -21.0772 26051.7 -03426.0 -07.4918 26276.0
 01 04 2013  11 52  -21.0769 26052.0 -03425.9 -07.4916 26276.3
 01 04 2013  11 53  -21.0801 26052.0 -03425.7 -07.4911 26276.3
 01 04 2013  11 54  -21.0805 26052.2 -03425.7 -07.4910 26276.4
 01 04 2013  11 55  -21.0806 26052.5 -03425.7 -07.4909 26276.8
 01 04 2013  11 56  -21.0805 26052.9 -03425.7 -07.4908 26277.2
 01 04 2013  11 57  -21.0805 26053.3 -03425.7 -07.4907 26277.5
 01 04 2013  11 58  -21.0806 26053.6 -03425.6 -07.4905 26277.8
 01 04 2013  11 59  -21.0808 26053.6 -03425.5 -07.4902 26277.9
 01 04 2013  12 00  -21.0807 26054.0 -03425.5 -07.4901 26278.3
 01 04 2013  12 01  -21.0805 26054.2 -03425.5 -07.4899 26278.4
 01 04 2013  12 02  -21.0808 26053.9 -03425.3 -07.4896 26278.1
 01 04 2013  12 03  -21.0814 26053.9 -03425.2 -07.4896 26278.1
 01 04 2013  12 04  -21.0821 26054.3 -03425.4 -07.4899 26278.5
 01 04 2013  12 05  -21.0826 26055.0 -03425.6 -07.4901 26279.2
 01 04 2013  12 06  -21.0827 26055.6 -03425.8 -07.4902 26279.8
 01 04 2013  12 07  -21.0826 26056.2 -03425.8 -07.4900 26280.4
 01 04 2013  12 08  -21.0824 26056.7 -03425.7 -07.4897 26280.9
 01 04 2013  12 09  -21.0823 26057.3 -03425.7 -07.4896 26281.5
 01 04 2013  12 10  -21.0824 26057.6 -03425.6 -07.4893 26281.8
 01 04 2013  12 11  -21.0829 26057.8 -03425.5 -07.4890 26282.0
 01 04 2013  12 12  -21.0805 26058.4 -03425.6 -07.4891 26282.6
 01 04 2013  12 13  -21.0795 26058.9 -03425.7 -07.4891 26283.1
 01 04 2013  12 14  -21.0800 26059.2 -03425.7 -07.4890 26283.4
 01 04 2013  12 15  -21.0805 26059.5 -03425.6 -07.4888 26283.7
 01 04 2013  12 16  -21.0811 26059.9 -03425.5 -07.4885 26284.1
 01 04 2013  12 17  -21.0814 26060.2 -03425.5 -07.4883 26284.3
 01 04 2013  12 18  -21.0815 26061.0 -03425.6 -07.4883 26285.1
 01 04 2013  12 19  -21.0817 26061.5 -03425.5 -07.4880 26285.7
 01 04 2013  12 20  -21.0819 26062.0 -03425.4 -07.4876 26286.2
 01 04 2013  12 21  -21.0825 26061.8 -03425.0 -07.4868 26285.9
 01 04 2013  12 22  -21.0831 26061.3 -03424.5 -07.4858 26285.3
 01 04 2013  12 23  -21.0838 26060.6 -03424.0 -07.4850 26284.6
 01 04 2013  12 24  -21.0851 26060.0 -03423.7 -07.4845 26284.0
 01 04 2013  12 25  -21.0864 26059.7 -03423.6 -07.4843 26283.6
 01 04 2013  12 26  -21.0875 26059.7 -03423.5 -07.4842 26283.6
 01 04 2013  12 27  -21.0884 26059.7 -03423.5 -07.4840 26283.6
 01 04 2013  12 28  -21.0892 26060.2 -03423.5 -07.4841 26284.1
 01 04 2013  12 29  -21.0898 26060.7 -03423.5 -07.4840 26284.6
 01 04 2013  12 30  -21.0900 26061.3 -03423.5 -07.4837 26285.2
 01 04 2013  12 31  -21.0900 26061.9 -03423.4 -07.4833 26285.8
 01 04 2013  12 32  -21.0900 26062.8 -03423.4 -07.4830 26286.7
 01 04 2013  12 33  -21.0899 26063.6 -03423.3 -07.4826 26287.4
 01 04 2013  12 34  -21.0893 26065.0 -03423.4 -07.4824 26288.9
 01 04 2013  12 35  -21.0891 26065.9 -03423.3 -07.4819 26289.7
 01 04 2013  12 36  -21.0890 26067.1 -03423.2 -07.4813 26290.9
 01 04 2013  12 37  -21.0884 26067.9 -03422.9 -07.4805 26291.7
 01 04 2013  12 38  -21.0879 26068.5 -03422.5 -07.4796 26292.2
 01 04 2013  12 39  -21.0878 26069.3 -03422.3 -07.4788 26293.0
 01 04 2013  12 40  -21.0881 26070.0 -03422.1 -07.4782 26293.7
 01 04 2013  12 41  -21.0883 26071.2 -03422.1 -07.4778 26294.8
 01 04 2013  12 42  -21.0888 26071.2 -03421.6 -07.4768 26294.7
 01 04 2013  12 43  -21.0894 26070.6 -03421.0 -07.4756 26294.1
 01 04 2013  12 44  -21.0899 26069.7 -03420.3 -07.4744 26293.1
 01 04 2013  12 45  -21.0905 26069.8 -03420.3 -07.4743 26293.2
 01 04 2013  12 46  -21.0910 26070.3 -03420.3 -07.4742 26293.7
 01 04 2013  12 47  -21.0914 26070.4 -03420.1 -07.4738 26293.8
 01 04 2013  12 48  -21.0917 26070.0 -03419.7 -07.4730 26293.3
 01 04 2013  12 49  -21.0922 26069.8 -03419.4 -07.4724 26293.1
 01 04 2013  12 50  -21.0929 26069.6 -03419.2 -07.4720 26292.9
 01 04 2013  12 51  -21.0933 26069.1 -03418.8 -07.4714 26292.3
 01 04 2013  12 52  -21.0940 26069.4 -03418.8 -07.4713 26292.6
 01 04 2013  12 53  -21.0945 26070.2 -03419.0 -07.4714 26293.4
 01 04 2013  12 54  -21.0947 26070.6 -03419.0 -07.4713 26293.9
 01 04 2013  12 55  -21.0950 26071.0 -03418.8 -07.4709 26294.2
 01 04 2013  12 56  -21.0952 26071.6 -03418.8 -07.4707 26294.8
 01 04 2013  12 57  -21.0955 26072.2 -03418.7 -07.4703 26295.4
 01 04 2013  12 58  -21.0957 26072.3 -03418.4 -07.4696 26295.4
 01 04 2013  12 59  -21.0960 26072.5 -03418.2 -07.4690 26295.6
 01 04 2013  13 00  -21.0963 26073.0 -03418.1 -07.4686 26296.1
 01 04 2013  13 01  -21.0964 26073.4 -03417.9 -07.4682 26296.4
 01 04 2013  13 02  -21.0966 26073.6 -03417.7 -07.4677 26296.6
 01 04 2013  13 03  -21.0968 26073.6 -03417.4 -07.4670 26296.6
 01 04 2013  13 04  -21.0972 26074.5 -03417.5 -07.4670 26297.6
 01 04 2013  13 05  -21.0974 26075.6 -03417.6 -07.4669 26298.6
 01 04 2013  13 06  -21.0973 26076.1 -03417.4 -07.4662 26299.1
 01 04 2013  13 07  -21.0973 26076.1 -03417.0 -07.4655 26299.0
 01 04 2013  13 08  -21.0977 26076.3 -03416.8 -07.4650 26299.2
 01 04 2013  13 09  -21.0982 26076.9 -03416.9 -07.4649 26299.8
 01 04 2013  13 10  -21.0987 26077.5 -03416.8 -07.4647 26300.4
 01 04 2013  13 11  -21.0987 26078.2 -03416.8 -07.4643 26301.0
 01 04 2013  13 12  -21.0988 26078.0 -03416.4 -07.4635 26300.8
 01 04 2013  13 13  -21.0988 26078.1 -03416.1 -07.4629 26300.8
 01 04 2013  13 14  -21.0991 26077.9 -03415.8 -07.4624 26300.7
 01 04 2013  13 15  -21.0994 26078.2 -03415.8 -07.4622 26300.9
 01 04 2013  13 16  -21.0999 26078.5 -03415.7 -07.4620 26301.2
 01 04 2013  13 17  -21.1003 26078.8 -03415.6 -07.4617 26301.5
 01 04 2013  13 18  -21.1007 26079.2 -03415.5 -07.4614 26301.9
 01 04 2013  13 19  -21.1010 26079.7 -03415.4 -07.4611 26302.4
 01 04 2013  13 20  -21.1013 26080.1 -03415.3 -07.4607 26302.7
 01 04 2013  13 21  -21.1015 26080.6 -03415.2 -07.4604 26303.2
 01 04 2013  13 22  -21.1017 26080.4 -03414.9 -07.4596 26303.1
 01 04 2013  13 23  -21.1019 26080.0 -03414.4 -07.4588 26302.6
 01 04 2013  13 24  -21.1023 26080.1 -03414.2 -07.4584 26302.6
 01 04 2013  13 25  -21.1024 26080.3 -03414.1 -07.4581 26302.9
 01 04 2013  13 26  -21.1026 26080.4 -03413.9 -07.4576 26302.9
 01 04 2013  13 27  -21.1029 26080.4 -03413.7 -07.4571 26302.9
 01 04 2013  13 28  -21.1033 26080.5 -03413.5 -07.4566 26302.9
 01 04 2013  13 29  -21.1037 26080.6 -03413.2 -07.4560 26303.0
 01 04 2013  13 30  -21.1040 26080.6 -03413.0 -07.4555 26303.0
 01 04 2013  13 31  -21.1044 26080.9 -03412.8 -07.4551 26303.3
 01 04 2013  13 32  -21.1047 26081.4 -03412.7 -07.4548 26303.7
 01 04 2013  13 33  -21.1050 26081.8 -03412.7 -07.4545 26304.2
 01 04 2013  13 34  -21.1054 26082.4 -03412.6 -07.4542 26304.7
 01 04 2013  13 35  -21.1060 26083.1 -03412.6 -07.4539 26305.4
 01 04 2013  13 36  -21.1065 26083.4 -03412.4 -07.4533 26305.7
 01 04 2013  13 37  -21.1069 26083.8 -03412.1 -07.4527 26306.0
 01 04 2013  13 38  -21.1074 26084.2 -03412.0 -07.4523 26306.4
 01 04 2013  13 39  -21.1077 26084.5 -03411.7 -07.4517 26306.7
 01 04 2013  13 40  -21.1078 26084.7 -03411.4 -07.4510 26306.9
 01 04 2013  13 41  -21.1082 26085.2 -03411.3 -07.4505 26307.3
 01 04 2013  13 42  -21.1086 26085.4 -03411.0 -07.4500 26307.5
 01 04 2013  13 43  -21.1090 26085.6 -03410.8 -07.4494 26307.6
 01 04 2013  13 44  -21.1095 26085.9 -03410.5 -07.4488 26307.9
 01 04 2013  13 45  -21.1097 26085.9 -03410.2 -07.4480 26307.9
 01 04 2013  13 46  -21.1098 26085.8 -03409.8 -07.4472 26307.7
 01 04 2013  13 47  -21.1101 26085.7 -03409.5 -07.4466 26307.6
 01 04 2013  13 48  -21.1104 26085.8 -03409.3 -07.4461 26307.6
 01 04 2013  13 49  -21.1107 26086.2 -03409.2 -07.4458 26308.0
 01 04 2013  13 50  -21.1111 26086.8 -03409.2 -07.4456 26308.6
 01 04 2013  13 51  -21.1115 26087.4 -03409.1 -07.4452 26309.2
 01 04 2013  13 52  -21.1120 26087.9 -03409.0 -07.4449 26309.7
 01 04 2013  13 53  -21.1125 26088.4 -03408.9 -07.4444 26310.2
 01 04 2013  13 54  -21.1127 26088.8 -03408.6 -07.4438 26310.5
 01 04 2013  13 55  -21.1129 26089.1 -03408.4 -07.4433 26310.8
 01 04 2013  13 56  -21.1131 26089.3 -03408.2 -07.4426 26311.0
 01 04 2013  13 57  -21.1133 26089.7 -03408.0 -07.4421 26311.3
 01 04 2013  13 58  -21.1133 26090.0 -03407.8 -07.4416 26311.6
 01 04 2013  13 59  -21.1135 26090.4 -03407.6 -07.4411 26312.0
 01 04 2013  14 00  -21.1140 26090.9 -03407.5 -07.4408 26312.5
 01 04 2013  14 01  -21.1143 26091.3 -03407.4 -07.4403 26312.9
 01 04 2013  14 02  -21.1147 26091.7 -03407.2 -07.4399 26313.2
 01 04 2013  14 03  -21.1150 26091.9 -03407.0 -07.4393 26313.4
 01 04 2013  14 04  -21.1154 26092.1 -03406.8 -07.4389 26313.6
 01 04 2013  14 05  -21.1156 26091.8 -03406.3 -07.4380 26313.2
 01 04 2013  14 06  -21.1158 26091.7 -03406.1 -07.4375 26313.1
 01 04 2013  14 07  -21.1157 26091.8 -03406.0 -07.4373 26313.2
 01 04 2013  14 08  -21.1159 26092.9 -03406.4 -07.4377 26314.3
 01 04 2013  14 09  -21.1161 26093.8 -03406.5 -07.4378 26315.2
 01 04 2013  14 10  -21.1159 26094.2 -03406.3 -07.4373 26315.6
 01 04 2013  14 11  -21.1157 26094.3 -03406.1 -07.4367 26315.6
 01 04 2013  14 12  -21.1156 26094.5 -03405.9 -07.4364 26315.9
 01 04 2013  14 13  -21.1156 26094.7 -03405.8 -07.4360 26316.1
 01 04 2013  14 14  -21.1157 26094.9 -03405.6 -07.4356 26316.2
 01 04 2013  14 15  -21.1158 26095.2 -03405.6 -07.4354 26316.4
 01 04 2013  14 16  -21.1162 26095.7 -03405.5 -07.4352 26317.0
 01 04 2013  14 17  -21.1159 26095.3 -03405.1 -07.4344 26316.5
 01 04 2013  14 18  -21.1156 26094.8 -03404.7 -07.4337 26315.9
 01 04 2013  14 19  -21.1157 26095.0 -03404.8 -07.4337 26316.2
 01 04 2013  14 20  -21.1157 26095.5 -03404.9 -07.4338 26316.7
 01 04 2013  14 21  -21.1154 26095.5 -03404.8 -07.4336 26316.6
 01 04 2013  14 22  -21.1152 26095.5 -03404.7 -07.4334 26316.7
 01 04 2013  14 23  -21.1152 26095.7 -03404.7 -07.4334 26316.8
 01 04 2013  14 24  -21.1150 26096.2 -03404.9 -07.4337 26317.4
 01 04 2013  14 25  -21.1149 26096.7 -03405.1 -07.4339 26317.9
 01 04 2013  14 26  -21.1147 26096.9 -03405.1 -07.4338 26318.1
 01 04 2013  14 27  -21.1145 26097.0 -03405.0 -07.4337 26318.1
 01 04 2013  14 28  -21.1144 26097.0 -03405.0 -07.4337 26318.2
 01 04 2013  14 29  -21.1144 26097.0 -03405.0 -07.4336 26318.2
 01 04 2013  14 30  -21.1145 26097.3 -03405.1 -07.4337 26318.5
 01 04 2013  14 31  -21.1146 26097.4 -03405.1 -07.4337 26318.6
 01 04 2013  14 32  -21.1146 26097.7 -03405.2 -07.4338 26318.9
 01 04 2013  14 33  -21.1144 26097.6 -03405.1 -07.4337 26318.8
 01 04 2013  14 34  -21.1143 26097.7 -03405.1 -07.4336 26318.9
 01 04 2013  14 35  -21.1140 26097.5 -03404.9 -07.4333 26318.6
 01 04 2013  14 36  -21.1141 26097.7 -03405.0 -07.4334 26318.8
 01 04 2013  14 37  -21.1141 26097.8 -03405.0 -07.4335 26319.0
 01 04 2013  14 38  -21.1141 26097.6 -03404.9 -07.4333 26318.8
 01 04 2013  14 39  -21.1140 26097.3 -03404.8 -07.4332 26318.5
 01 04 2013  14 40  -21.1137 26097.1 -03404.8 -07.4331 26318.2
 01 04 2013  14 41  -21.1136 26096.8 -03404.7 -07.4331 26317.9
 01 04 2013  14 42  -21.1136 26096.6 -03404.7 -07.4331 26317.7
 01 04 2013  14 43  -21.1136 26096.6 -03404.7 -07.4332 26317.7
 01 04 2013  14 44  -21.1135 26096.5 -03404.8 -07.4333 26317.7
 01 04 2013  14 45  -21.1134 26096.7 -03404.9 -07.4334 26317.9
 01 04 2013  14 46  -21.1133 26097.0 -03404.9 -07.4335 26318.2
 01 04 2013  14 47  -21.1134 26096.8 -03404.8 -07.4333 26317.9
 01 04 2013  14 48  -21.1135 26096.7 -03404.8 -07.4333 26317.8
 01 04 2013  14 49  -21.1133 26096.5 -03404.7 -07.4332 26317.6
 01 04 2013  14 50  -21.1134 26096.6 -03404.8 -07.4333 26317.8
 01 04 2013  14 51  -21.1133 26096.5 -03404.8 -07.4332 26317.7
 01 04 2013  14 52  -21.1132 26096.1 -03404.6 -07.4331 26317.3
 01 04 2013  14 53  -21.1131 26096.0 -03404.7 -07.4332 26317.2
 01 04 2013  14 54  -21.1134 26096.3 -03404.8 -07.4335 26317.5
 01 04 2013  14 55  -21.1139 26096.8 -03405.0 -07.4338 26318.0
 01 04 2013  14 56  -21.1140 26096.9 -03405.1 -07.4338 26318.1
 01 04 2013  14 57  -21.1140 26096.8 -03405.0 -07.4337 26318.0
 01 04 2013  14 58  -21.1138 26097.0 -03405.1 -07.4338 26318.2
 01 04 2013  14 59  -21.1136 26097.2 -03405.1 -07.4339 26318.4
 01 04 2013  15 00  -21.1133 26097.1 -03405.1 -07.4338 26318.3
 01 04 2013  15 01  -21.1131 26097.5 -03405.2 -07.4340 26318.7
 01 04 2013  15 02  -21.1129 26097.8 -03405.4 -07.4343 26319.0
 01 04 2013  15 03  -21.1126 26098.0 -03405.5 -07.4345 26319.3
 01 04 2013  15 04  -21.1127 26098.3 -03405.6 -07.4346 26319.6
 01 04 2013  15 05  -21.1130 26098.8 -03405.8 -07.4349 26320.1
 01 04 2013  15 06  -21.1133 26099.0 -03405.9 -07.4350 26320.3
 01 04 2013  15 07  -21.1136 26099.0 -03405.9 -07.4349 26320.3
 01 04 2013  15 08  -21.1134 26098.5 -03405.6 -07.4345 26319.8
 01 04 2013  15 09  -21.1135 26098.5 -03405.6 -07.4345 26319.7
 01 04 2013  15 10  -21.1137 26098.1 -03405.5 -07.4345 26319.4
 01 04 2013  15 11  -21.1141 26098.3 -03405.7 -07.4348 26319.5
 01 04 2013  15 12  -21.1144 26098.0 -03405.7 -07.4349 26319.2
 01 04 2013  15 13  -21.1142 26097.8 -03405.7 -07.4350 26319.1
 01 04 2013  15 14  -21.1141 26097.4 -03405.8 -07.4352 26318.7
 01 04 2013  15 15  -21.1139 26096.7 -03405.7 -07.4352 26318.0
 01 04 2013  15 16  -21.1137 26095.6 -03405.5 -07.4350 26316.9
 01 04 2013  15 17  -21.1132 26095.0 -03405.5 -07.4352 26316.3
 01 04 2013  15 18  -21.1137 26094.6 -03405.6 -07.4356 26315.9
 01 04 2013  15 19  -21.1137 26094.5 -03405.9 -07.4362 26315.8
 01 04 2013  15 20  -21.1140 26094.6 -03406.1 -07.4368 26315.9
 01 04 2013  15 21  -21.1146 26094.6 -03406.3 -07.4371 26316.0
 01 04 2013  15 22  -21.1154 26094.6 -03406.5 -07.4377 26316.0
 01 04 2013  15 23  -21.1159 26094.3 -03406.6 -07.4379 26315.8
 01 04 2013  15 24  -21.1165 26094.2 -03406.7 -07.4380 26315.7
 01 04 2013  15 25  -21.1171 26094.5 -03406.9 -07.4384 26316.0
 01 04 2013  15 26  -21.1177 26094.7 -03407.1 -07.4388 26316.2
 01 04 2013  15 27  -21.1184 26095.2 -03407.3 -07.4391 26316.7
 01 04 2013  15 28  -21.1190 26095.4 -03407.4 -07.4393 26316.9
 01 04 2013  15 29  -21.1195 26095.4 -03407.4 -07.4393 26316.9
 01 04 2013  15 30  -21.1200 26095.6 -03407.5 -07.4394 26317.1
 01 04 2013  15 31  -21.1203 26095.9 -03407.5 -07.4394 26317.4
 01 04 2013  15 32  -21.1200 26095.4 -03407.3 -07.4390 26316.9
 01 04 2013  15 33  -21.1201 26095.0 -03407.2 -07.4389 26316.5
 01 04 2013  15 34  -21.1205 26095.1 -03407.3 -07.4391 26316.6
 01 04 2013  15 35  -21.1205 26095.0 -03407.3 -07.4392 26316.5
 01 04 2013  15 36  -21.1203 26095.4 -03407.4 -07.4393 26317.0
 01 04 2013  15 37  -21.1200 26095.6 -03407.5 -07.4395 26317.2
 01 04 2013  15 38  -21.1200 26095.9 -03407.6 -07.4396 26317.5
 01 04 2013  15 39  -21.1202 26096.4 -03407.8 -07.4398 26317.9
 01 04 2013  15 40  -21.1205 26096.9 -03408.0 -07.4401 26318.5
 01 04 2013  15 41  -21.1210 26097.2 -03408.0 -07.4402 26318.8
 01 04 2013  15 42  -21.1208 26096.9 -03407.8 -07.4398 26318.5
 01 04 2013  15 43  -21.1206 26097.0 -03407.9 -07.4399 26318.6
 01 04 2013  15 44  -21.1210 26097.5 -03408.2 -07.4403 26319.1
 01 04 2013  15 45  -21.1214 26097.9 -03408.3 -07.4405 26319.5
 01 04 2013  15 46  -21.1217 26097.9 -03408.2 -07.4403 26319.5
 01 04 2013  15 47  -21.1209 26097.5 -03407.9 -07.4397 26319.1
 01 04 2013  15 48  -21.1206 26097.0 -03407.6 -07.4393 26318.6
 01 04 2013  15 49  -21.1205 26096.8 -03407.6 -07.4393 26318.3
 01 04 2013  15 50  -21.1207 26096.8 -03407.7 -07.4396 26318.3
 01 04 2013  15 51  -21.1210 26096.7 -03407.8 -07.4397 26318.3
 01 04 2013  15 52  -21.1208 26096.4 -03407.7 -07.4397 26318.0
 01 04 2013  15 53  -21.1207 26095.9 -03407.7 -07.4397 26317.5
 01 04 2013  15 54  -21.1208 26095.5 -03407.7 -07.4399 26317.1
 01 04 2013  15 55  -21.1212 26095.2 -03407.8 -07.4402 26316.7
 01 04 2013  15 56  -21.1214 26095.0 -03407.9 -07.4405 26316.6
 01 04 2013  15 57  -21.1216 26094.6 -03407.9 -07.4407 26316.2
 01 04 2013  15 58  -21.1222 26094.3 -03408.0 -07.4409 26315.9
 01 04 2013  15 59  -21.1229 26093.9 -03408.1 -07.4411 26315.6
 01 04 2013  16 00  -21.1232 26093.8 -03408.2 -07.4414 26315.5
 01 04 2013  16 01  -21.1231 26093.6 -03408.2 -07.4415 26315.2
 01 04 2013  16 02  -21.1232 26093.2 -03408.2 -07.4417 26314.8
 01 04 2013  16 03  -21.1238 26093.2 -03408.4 -07.4421 26314.9
 01 04 2013  16 04  -21.1246 26093.2 -03408.6 -07.4424 26314.8
 01 04 2013  16 05  -21.1252 26093.1 -03408.6 -07.4426 26314.8
 01 04 2013  16 06  -21.1258 26093.2 -03408.8 -07.4429 26314.9
 01 04 2013  16 07  -21.1266 26093.2 -03408.9 -07.4431 26314.9
 01 04 2013  16 08  -21.1269 26093.0 -03408.9 -07.4431 26314.8
 01 04 2013  16 09  -21.1273 26092.7 -03408.8 -07.4430 26314.5
 01 04 2013  16 10  -21.1278 26092.8 -03408.8 -07.4431 26314.5
 01 04 2013  16 11  -21.1290 26093.4 -03409.1 -07.4436 26315.2
 01 04 2013  16 12  -21.1304 26094.3 -03409.4 -07.4440 26316.1
 01 04 2013  16 13  -21.1307 26094.3 -03409.2 -07.4436 26316.1
 01 04 2013  16 14  -21.1308 26094.3 -03409.1 -07.4432 26316.0
 01 04 2013  16 15  -21.1314 26094.2 -03408.9 -07.4429 26315.9
 01 04 2013  16 16  -21.1316 26093.8 -03408.6 -07.4424 26315.5
 01 04 2013  16 17  -21.1316 26093.2 -03408.4 -07.4420 26314.8
 01 04 2013  16 18  -21.1316 26092.4 -03408.0 -07.4415 26314.0
 01 04 2013  16 19  -21.1321 26092.1 -03407.9 -07.4413 26313.7
 01 04 2013  16 20  -21.1326 26092.0 -03407.9 -07.4414 26313.7
 01 04 2013  16 21  -21.1331 26091.8 -03407.8 -07.4412 26313.4
 01 04 2013  16 22  -21.1334 26091.3 -03407.6 -07.4408 26312.9
 01 04 2013  16 23  -21.1335 26090.9 -03407.4 -07.4405 26312.5
 01 04 2013  16 24  -21.1333 26090.6 -03407.2 -07.4403 26312.1
 01 04 2013  16 25  -21.1335 26090.3 -03407.2 -07.4403 26311.8
 01 04 2013  16 26  -21.1339 26089.9 -03407.1 -07.4403 26311.4
 01 04 2013  16 27  -21.1342 26089.6 -03407.1 -07.4402 26311.1
 01 04 2013  16 28  -21.1342 26089.1 -03407.0 -07.4401 26310.7
 01 04 2013  16 29  -21.1347 26089.0 -03407.0 -07.4402 26310.5
 01 04 2013  16 30  -21.1353 26089.2 -03407.1 -07.4405 26310.7
 01 04 2013  16 31  -21.1356 26089.1 -03407.1 -07.4404 26310.7
 01 04 2013  16 32  -21.1361 26089.3 -03407.1 -07.4404 26310.8
 01 04 2013  16 33  -21.1363 26089.3 -03407.1 -07.4403 26310.9
 01 04 2013  16 34  -21.1365 26089.3 -03407.0 -07.4401 26310.8
 01 04 2013  16 35  -21.1364 26089.2 -03406.9 -07.4399 26310.7
 01 04 2013  16 36  -21.1365 26089.2 -03406.8 -07.4397 26310.7
 01 04 2013  16 37  -21.1365 26089.0 -03406.7 -07.4395 26310.5
 01 04 2013  16 38  -21.1368 26089.0 -03406.6 -07.4393 26310.5
 01 04 2013  16 39  -21.1374 26089.1 -03406.5 -07.4392 26310.5
 01 04 2013  16 40  -21.1377 26088.9 -03406.4 -07.4389 26310.4
 01 04 2013  16 41  -21.1380 26088.8 -03406.3 -07.4386 26310.3
 01 04 2013  16 42  -21.1382 26089.1 -03406.3 -07.4387 26310.5
 01 04 2013  16 43  -21.1384 26089.2 -03406.3 -07.4386 26310.6
 01 04 2013  16 44  -21.1390 26089.0 -03406.1 -07.4382 26310.4
 01 04 2013  16 45  -21.1393 26088.9 -03405.9 -07.4380 26310.3
 01 04 2013  16 46  -21.1399 26088.9 -03405.9 -07.4378 26310.2
 01 04 2013  16 47  -21.1404 26088.9 -03405.8 -07.4376 26310.2
 01 04 2013  16 48  -21.1406 26088.7 -03405.6 -07.4373 26310.0
 01 04 2013  16 49  -21.1405 26088.5 -03405.4 -07.4369 26309.8
 01 04 2013  16 50  -21.1404 26088.2 -03405.2 -07.4366 26309.5
 01 04 2013  16 51  -21.1407 26088.3 -03405.2 -07.4366 26309.6
 01 04 2013  16 52  -21.1410 26088.5 -03405.3 -07.4366 26309.8
 01 04 2013  16 53  -21.1411 26088.5 -03405.2 -07.4364 26309.8
 01 04 2013  16 54  -21.1412 26088.4 -03405.0 -07.4361 26309.7
 01 04 2013  16 55  -21.1410 26088.1 -03404.8 -07.4357 26309.3
 01 04 2013  16 56  -21.1408 26087.6 -03404.5 -07.4352 26308.8
 01 04 2013  16 57  -21.1405 26087.0 -03404.2 -07.4347 26308.2
 01 04 2013  16 58  -21.1404 26086.8 -03404.1 -07.4346 26308.0
 01 04 2013  16 59  -21.1406 26086.8 -03404.1 -07.4346 26308.0
 01 04 2013  17 00  -21.1407 26086.6 -03404.0 -07.4344 26307.8
 01 04 2013  17 01  -21.1409 26086.5 -03403.9 -07.4342 26307.6
 01 04 2013  17 02  -21.1413 26086.3 -03403.8 -07.4340 26307.4
 01 04 2013  17 03  -21.1415 26086.1 -03403.6 -07.4337 26307.2
 01 04 2013  17 04  -21.1417 26086.2 -03403.6 -07.4337 26307.3
 01 04 2013  17 05  -21.1421 26086.1 -03403.5 -07.4334 26307.2
 01 04 2013  17 06  -21.1422 26085.9 -03403.2 -07.4330 26307.0
 01 04 2013  17 07  -21.1421 26085.8 -03403.1 -07.4327 26306.8
 01 04 2013  17 08  -21.1423 26085.8 -03403.0 -07.4326 26306.9
 01 04 2013  17 09  -21.1425 26085.7 -03402.9 -07.4322 26306.7
 01 04 2013  17 10  -21.1429 26085.6 -03402.7 -07.4319 26306.6
 01 04 2013  17 11  -21.1433 26085.7 -03402.5 -07.4315 26306.7
 01 04 2013  17 12  -21.1437 26085.8 -03402.4 -07.4312 26306.7
 01 04 2013  17 13  -21.1437 26085.5 -03402.0 -07.4304 26306.4
 01 04 2013  17 14  -21.1436 26084.9 -03401.5 -07.4296 26305.8
 01 04 2013  17 15  -21.1434 26084.4 -03401.1 -07.4289 26305.2
 01 04 2013  17 16  -21.1432 26084.0 -03400.9 -07.4284 26304.8
 01 04 2013  17 17  -21.1431 26083.8 -03400.6 -07.4279 26304.5
 01 04 2013  17 18  -21.1430 26083.3 -03400.3 -07.4274 26304.0
 01 04 2013  17 19  -21.1426 26082.8 -03400.0 -07.4269 26303.5
 01 04 2013  17 20  -21.1423 26082.3 -03399.7 -07.4264 26302.9
 01 04 2013  17 21  -21.1421 26082.0 -03399.5 -07.4261 26302.6
 01 04 2013  17 22  -21.1420 26081.8 -03399.4 -07.4258 26302.3
 01 04 2013  17 23  -21.1420 26081.5 -03399.2 -07.4255 26302.1
 01 04 2013  17 24  -21.1421 26081.1 -03398.9 -07.4250 26301.7
 01 04 2013  17 25  -21.1420 26080.4 -03398.6 -07.4245 26300.9
 01 04 2013  17 26  -21.1416 26079.8 -03398.3 -07.4240 26300.3
 01 04 2013  17 27  -21.1414 26079.3 -03398.0 -07.4236 26299.7
 01 04 2013  17 28  -21.1413 26078.9 -03397.9 -07.4233 26299.3
 01 04 2013  17 29  -21.1412 26078.5 -03397.7 -07.4230 26298.9
 01 04 2013  17 30  -21.1410 26078.2 -03397.6 -07.4229 26298.6
 01 04 2013  17 31  -21.1408 26077.8 -03397.4 -07.4226 26298.2
 01 04 2013  17 32  -21.1404 26077.4 -03397.2 -07.4223 26297.7
 01 04 2013  17 33  -21.1401 26077.1 -03397.0 -07.4220 26297.5
 01 04 2013  17 34  -21.1397 26076.8 -03396.9 -07.4218 26297.1
 01 04 2013  17 35  -21.1396 26076.5 -03396.8 -07.4216 26296.8
 01 04 2013  17 36  -21.1391 26076.3 -03396.7 -07.4215 26296.6
 01 04 2013  17 37  -21.1390 26076.3 -03396.7 -07.4215 26296.6
 01 04 2013  17 38  -21.1387 26076.2 -03396.7 -07.4215 26296.5
 01 04 2013  17 39  -21.1385 26076.2 -03396.7 -07.4215 26296.5
 01 04 2013  17 40  -21.1387 26076.3 -03396.6 -07.4214 26296.6
 01 04 2013  17 41  -21.1387 26076.1 -03396.5 -07.4211 26296.4
 01 04 2013  17 42  -21.1383 26075.9 -03396.2 -07.4207 26296.1
 01 04 2013  17 43  -21.1379 26075.6 -03396.0 -07.4203 26295.8
 01 04 2013  17 44  -21.1375 26075.2 -03395.8 -07.4198 26295.4
 01 04 2013  17 45  -21.1370 26074.7 -03395.5 -07.4194 26294.8
 01 04 2013  17 46  -21.1364 26074.0 -03395.2 -07.4191 26294.2
 01 04 2013  17 47  -21.1355 26073.2 -03394.9 -07.4186 26293.3
 01 04 2013  17 48  -21.1347 26072.6 -03394.8 -07.4185 26292.7
 01 04 2013  17 49  -21.1342 26072.1 -03394.7 -07.4183 26292.2
 01 04 2013  17 50  -21.1334 26071.6 -03394.5 -07.4182 26291.6
 01 04 2013  17 51  -21.1327 26071.2 -03394.4 -07.4180 26291.2
 01 04 2013  17 52  -21.1318 26070.6 -03394.2 -07.4178 26290.6
 01 04 2013  17 53  -21.1310 26070.2 -03394.1 -07.4177 26290.2
 01 04 2013  17 54  -21.1302 26070.0 -03394.2 -07.4178 26290.0
 01 04 2013  17 55  -21.1294 26070.0 -03394.2 -07.4180 26290.0
 01 04 2013  17 56  -21.1287 26069.8 -03394.2 -07.4179 26289.8
 01 04 2013  17 57  -21.1280 26069.5 -03394.1 -07.4178 26289.5
 01 04 2013  17 58  -21.1275 26069.2 -03394.0 -07.4177 26289.2
 01 04 2013  17 59  -21.1268 26068.8 -03393.8 -07.4174 26288.8
 01 04 2013  18 00  -21.1262 26068.6 -03393.7 -07.4173 26288.5
 01 04 2013  18 01  -21.1254 26068.2 -03393.6 -07.4170 26288.1
 01 04 2013  18 02  -21.1241 26067.5 -03393.3 -07.4166 26287.4
 01 04 2013  18 03  -21.1230 26066.9 -03393.1 -07.4163 26286.8
 01 04 2013  18 04  -21.1219 26066.1 -03392.8 -07.4159 26286.0
 01 04 2013  18 05  -21.1207 26065.6 -03392.6 -07.4157 26285.5
 01 04 2013  18 06  -21.1196 26065.1 -03392.5 -07.4156 26284.9
 01 04 2013  18 07  -21.1186 26064.7 -03392.4 -07.4156 26284.5
 01 04 2013  18 08  -21.1174 26064.2 -03392.4 -07.4155 26284.1
 01 04 2013  18 09  -21.1162 26063.7 -03392.2 -07.4155 26283.6
 01 04 2013  18 10  -21.1149 26063.3 -03392.2 -07.4154 26283.1
 01 04 2013  18 11  -21.1139 26063.1 -03392.2 -07.4155 26282.9
 01 04 2013  18 12  -21.1123 26062.3 -03392.0 -07.4154 26282.2
 01 04 2013  18 13  -21.1108 26061.8 -03391.9 -07.4153 26281.6
 01 04 2013  18 14  -21.1092 26061.2 -03391.9 -07.4153 26281.0
 01 04 2013  18 15  -21.1079 26060.9 -03392.0 -07.4157 26280.7
 01 04 2013  18 16  -21.1066 26060.5 -03392.0 -07.4159 26280.3
 01 04 2013  18 17  -21.1051 26059.9 -03392.0 -07.4161 26279.8
 01 04 2013  18 18  -21.1038 26059.6 -03392.1 -07.4164 26279.5
 01 04 2013  18 19  -21.1027 26059.3 -03392.2 -07.4166 26279.1
 01 04 2013  18 20  -21.1013 26058.7 -03392.2 -07.4169 26278.6
 01 04 2013  18 21  -21.0999 26058.2 -03392.3 -07.4171 26278.1
 01 04 2013  18 22  -21.0985 26057.7 -03392.4 -07.4175 26277.6
 01 04 2013  18 23  -21.0972 26057.3 -03392.6 -07.4179 26277.2
 01 04 2013  18 24  -21.0959 26056.9 -03392.7 -07.4184 26276.9
 01 04 2013  18 25  -21.0947 26056.4 -03392.8 -07.4187 26276.4
 01 04 2013  18 26  -21.0936 26056.0 -03392.9 -07.4191 26276.0
 01 04 2013  18 27  -21.0926 26055.4 -03393.0 -07.4194 26275.4
 01 04 2013  18 28  -21.0914 26055.0 -03393.1 -07.4198 26275.0
 01 04 2013  18 29  -21.0903 26054.4 -03393.2 -07.4201 26274.5
 01 04 2013  18 30  -21.0894 26054.0 -03393.3 -07.4205 26274.0
 01 04 2013  18 31  -21.0884 26053.7 -03393.6 -07.4211 26273.8
 01 04 2013  18 32  -21.0873 26053.4 -03393.7 -07.4214 26273.5
 01 04 2013  18 33  -21.0862 26053.0 -03393.8 -07.4218 26273.1
 01 04 2013  18 34  -21.0851 26052.6 -03393.9 -07.4222 26272.7
 01 04 2013  18 35  -21.0839 26052.0 -03394.0 -07.4225 26272.1
 01 04 2013  18 36  -21.0830 26051.6 -03394.2 -07.4230 26271.8
 01 04 2013  18 37  -21.0820 26051.2 -03394.3 -07.4235 26271.4
 01 04 2013  18 38  -21.0812 26050.9 -03394.6 -07.4241 26271.1
 01 04 2013  18 39  -21.0801 26050.5 -03394.8 -07.4246 26270.7
 01 04 2013  18 40  -21.0794 26050.2 -03395.0 -07.4252 26270.5
 01 04 2013  18 41  -21.0785 26049.9 -03395.2 -07.4258 26270.2
 01 04 2013  18 42  -21.0777 26049.6 -03395.5 -07.4264 26269.9
 01 04 2013  18 43  -21.0771 26049.4 -03395.8 -07.4272 26269.8
 01 04 2013  18 44  -21.0766 26049.1 -03396.1 -07.4278 26269.6
 01 04 2013  18 45  -21.0761 26048.8 -03396.3 -07.4283 26269.2
 01 04 2013  18 46  -21.0756 26048.5 -03396.5 -07.4289 26269.0
 01 04 2013  18 47  -21.0751 26048.2 -03396.7 -07.4295 26268.7
 01 04 2013  18 48  -21.0747 26047.8 -03396.9 -07.4300 26268.3
 01 04 2013  18 49  -21.0740 26047.3 -03397.0 -07.4304 26267.8
 01 04 2013  18 50  -21.0736 26047.0 -03397.2 -07.4310 26267.6
 01 04 2013  18 51  -21.0733 26046.8 -03397.5 -07.4317 26267.4
 01 04 2013  18 52  -21.0729 26046.5 -03397.7 -07.4322 26267.2
 01 04 2013  18 53  -21.0724 26046.2 -03398.0 -07.4328 26266.9
 01 04 2013  18 54  -21.0720 26046.0 -03398.3 -07.4334 26266.7
 01 04 2013  18 55  -21.0715 26045.7 -03398.5 -07.4340 26266.5
 01 04 2013  18 56  -21.0711 26045.5 -03398.7 -07.4346 26266.3
 01 04 2013  18 57  -21.0709 26045.5 -03399.1 -07.4353 26266.3
 01 04 2013  18 58  -21.0704 26045.4 -03399.3 -07.4360 26266.3
 01 04 2013  18 59  -21.0700 26045.1 -03399.5 -07.4364 26266.0
 01 04 2013  19 00  -21.0698 26044.7 -03399.6 -07.4368 26265.6
 01 04 2013  19 01  -21.0695 26044.3 -03399.8 -07.4372 26265.2
 01 04 2013  19 02  -21.0691 26043.9 -03399.9 -07.4376 26264.9
 01 04 2013  19 03  -21.0687 26043.6 -03400.1 -07.4382 26264.6
 01 04 2013  19 04  -21.0685 26043.5 -03400.4 -07.4388 26264.6
 01 04 2013  19 05  -21.0682 26043.3 -03400.6 -07.4392 26264.4
 01 04 2013  19 06  -21.0677 26043.0 -03400.7 -07.4396 26264.1
 01 04 2013  19 07  -21.0669 26042.8 -03400.9 -07.4401 26263.9
 01 04 2013  19 08  -21.0664 26042.5 -03401.1 -07.4406 26263.7
 01 04 2013  19 09  -21.0660 26042.4 -03401.4 -07.4413 26263.6
 01 04 2013  19 10  -21.0658 26042.3 -03401.7 -07.4420 26263.5
 01 04 2013  19 11  -21.0692 26041.7 -03401.6 -07.4420 26262.9
 01 04 2013  19 12  -21.0689 26041.5 -03401.9 -07.4427 26262.8
 01 04 2013  19 13  -21.0683 26041.2 -03402.2 -07.4432 26262.5
 01 04 2013  19 14  -21.0684 26040.9 -03402.4 -07.4439 26262.3
 01 04 2013  19 15  -21.0680 26040.7 -03402.7 -07.4445 26262.1
 01 04 2013  19 16  -21.0679 26040.7 -03403.0 -07.4453 26262.1
 01 04 2013  19 17  -21.0676 26040.4 -03403.3 -07.4459 26261.9
 01 04 2013  19 18  -21.0674 26040.2 -03403.5 -07.4464 26261.7
 01 04 2013  19 19  -21.0672 26040.1 -03403.8 -07.4471 26261.6
 01 04 2013  19 20  -21.0671 26039.9 -03404.1 -07.4478 26261.5
 01 04 2013  19 21  -21.0669 26039.7 -03404.4 -07.4485 26261.3
 01 04 2013  19 22  -21.0668 26039.5 -03404.6 -07.4491 26261.1
 01 04 2013  19 23  -21.0665 26039.1 -03404.8 -07.4495 26260.8
 01 04 2013  19 24  -21.0661 26038.6 -03405.0 -07.4500 26260.3
 01 04 2013  19 25  -21.0659 26038.3 -03405.1 -07.4505 26260.0
 01 04 2013  19 26  -21.0659 26038.1 -03405.4 -07.4511 26259.8
 01 04 2013  19 27  -21.0657 26037.9 -03405.7 -07.4518 26259.7
 01 04 2013  19 28  -21.0656 26037.8 -03406.0 -07.4525 26259.6
 01 04 2013  19 29  -21.0655 26037.6 -03406.2 -07.4530 26259.4
 01 04 2013  19 30  -21.0655 26037.4 -03406.5 -07.4537 26259.3
 01 04 2013  19 31  -21.0654 26037.2 -03406.7 -07.4543 26259.1
 01 04 2013  19 32  -21.0654 26037.0 -03406.9 -07.4547 26259.0
 01 04 2013  19 33  -21.0654 26036.8 -03407.1 -07.4552 26258.8
 01 04 2013  19 34  -21.0653 26036.7 -03407.4 -07.4558 26258.7
 01 04 2013  19 35  -21.0652 26036.6 -03407.6 -07.4564 26258.6
 01 04 2013  19 36  -21.0652 26036.4 -03407.9 -07.4570 26258.5
 01 04 2013  19 37  -21.0653 26036.3 -03408.1 -07.4575 26258.4
 01 04 2013  19 38  -21.0653 26036.2 -03408.3 -07.4580 26258.3
 01 04 2013  19 39  -21.0652 26036.1 -03408.5 -07.4585 26258.3
 01 04 2013  19 40  -21.0652 26036.1 -03408.8 -07.4590 26258.3
 01 04 2013  19 41  -21.0652 26036.0 -03409.0 -07.4595 26258.2
 01 04 2013  19 42  -21.0652 26035.9 -03409.2 -07.4599 26258.2
 01 04 2013  19 43  -21.0652 26035.8 -03409.4 -07.4604 26258.1
 01 04 2013  19 44  -21.0655 26035.9 -03409.6 -07.4609 26258.2
 01 04 2013  19 45  -21.0635 26035.9 -03409.9 -07.4615 26258.3
 01 04 2013  19 46  -21.0617 26036.0 -03410.3 -07.4622 26258.4
 01 04 2013  19 47  -21.0616 26035.8 -03410.4 -07.4626 26258.2
 01 04 2013  19 48  -21.0615 26035.7 -03410.6 -07.4630 26258.2
 01 04 2013  19 49  -21.0616 26035.8 -03410.8 -07.4634 26258.2
 01 04 2013  19 50  -21.0616 26035.8 -03410.9 -07.4638 26258.3
 01 04 2013  19 51  -21.0616 26035.8 -03411.1 -07.4642 26258.3
 01 04 2013  19 52  -21.0616 26035.8 -03411.3 -07.4646 26258.4
 01 04 2013  19 53  -21.0616 26035.9 -03411.6 -07.4651 26258.4
 01 04 2013  19 54  -21.0616 26035.9 -03411.7 -07.4654 26258.4
 01 04 2013  19 55  -21.0614 26035.8 -03411.8 -07.4657 26258.4
 01 04 2013  19 56  -21.0614 26035.7 -03412.0 -07.4660 26258.3
 01 04 2013  19 57  -21.0613 26035.6 -03412.1 -07.4663 26258.2
 01 04 2013  19 58  -21.0613 26035.4 -03412.2 -07.4666 26258.1
 01 04 2013  19 59  -21.0613 26035.3 -03412.3 -07.4668 26257.9
 01 04 2013  20 00  -21.0612 26035.1 -03412.4 -07.4671 26257.8
 01 04 2013  20 01  -21.0610 26035.0 -03412.5 -07.4673 26257.7
 01 04 2013  20 02  -21.0608 26035.0 -03412.6 -07.4677 26257.7
 01 04 2013  20 03  -21.0607 26034.9 -03412.8 -07.4680 26257.7
 01 04 2013  20 04  -21.0607 26035.0 -03412.9 -07.4683 26257.7
 01 04 2013  20 05  -21.0608 26035.0 -03413.1 -07.4687 26257.7
 01 04 2013  20 06  -21.0608 26034.9 -03413.2 -07.4689 26257.7
 01 04 2013  20 07  -21.0608 26034.9 -03413.3 -07.4692 26257.7
 01 04 2013  20 08  -21.0608 26034.8 -03413.4 -07.4694 26257.6
 01 04 2013  20 09  -21.0608 26034.8 -03413.5 -07.4696 26257.6
 01 04 2013  20 10  -21.0608 26034.8 -03413.7 -07.4699 26257.6
 01 04 2013  20 11  -21.0607 26034.7 -03413.8 -07.4702 26257.5
 01 04 2013  20 12  -21.0606 26034.6 -03413.8 -07.4703 26257.4
 01 04 2013  20 13  -21.0606 26034.4 -03413.8 -07.4704 26257.3
 01 04 2013  20 14  -21.0604 26034.2 -03413.9 -07.4706 26257.1
 01 04 2013  20 15  -21.0603 26033.9 -03413.8 -07.4706 26256.8
 01 04 2013  20 16  -21.0602 26033.7 -03413.9 -07.4707 26256.6
 01 04 2013  20 17  -21.0601 26033.5 -03413.9 -07.4708 26256.4
 01 04 2013  20 18  -21.0600 26033.5 -03414.1 -07.4712 26256.4
 01 04 2013  20 19  -21.0597 26033.4 -03414.2 -07.4715 26256.3
 01 04 2013  20 20  -21.0594 26033.5 -03414.4 -07.4719 26256.4
 01 04 2013  20 21  -21.0592 26033.5 -03414.5 -07.4722 26256.5
 01 04 2013  20 22  -21.0591 26033.6 -03414.7 -07.4725 26256.6
 01 04 2013  20 23  -21.0589 26033.5 -03414.8 -07.4728 26256.6
 01 04 2013  20 24  -21.0589 26033.5 -03415.0 -07.4731 26256.6
 01 04 2013  20 25  -21.0589 26033.5 -03415.0 -07.4733 26256.5
 01 04 2013  20 26  -21.0587 26033.4 -03415.1 -07.4735 26256.4
 01 04 2013  20 27  -21.0585 26033.4 -03415.2 -07.4737 26256.4
 01 04 2013  20 28  -21.0584 26033.4 -03415.3 -07.4739 26256.4
 01 04 2013  20 29  -21.0583 26033.3 -03415.4 -07.4741 26256.4
 01 04 2013  20 30  -21.0580 26033.3 -03415.5 -07.4743 26256.4
 01 04 2013  20 31  -21.0577 26033.3 -03415.6 -07.4745 26256.4
 01 04 2013  20 32  -21.0576 26033.3 -03415.7 -07.4748 26256.4
 01 04 2013  20 33  -21.0576 26033.3 -03415.8 -07.4750 26256.4
 01 04 2013  20 34  -21.0576 26033.2 -03415.8 -07.4751 26256.3
 01 04 2013  20 35  -21.0575 26032.9 -03415.8 -07.4751 26256.1
 01 04 2013  20 36  -21.0573 26032.8 -03415.8 -07.4752 26255.9
 01 04 2013  20 37  -21.0571 26032.6 -03415.9 -07.4754 26255.8
 01 04 2013  20 38  -21.0569 26032.5 -03415.9 -07.4754 26255.7
 01 04 2013  20 39  -21.0566 26032.4 -03416.0 -07.4756 26255.5
 01 04 2013  20 40  -21.0563 26032.3 -03416.0 -07.4758 26255.5
 01 04 2013  20 41  -21.0561 26032.3 -03416.1 -07.4760 26255.5
 01 04 2013  20 42  -21.0557 26032.3 -03416.2 -07.4762 26255.5
 01 04 2013  20 43  -21.0554 26032.2 -03416.3 -07.4764 26255.5
 01 04 2013  20 44  -21.0552 26032.2 -03416.4 -07.4765 26255.4
 01 04 2013  20 45  -21.0549 26032.0 -03416.4 -07.4766 26255.2
 01 04 2013  20 46  -21.0543 26031.8 -03416.4 -07.4767 26255.0
 01 04 2013  20 47  -21.0538 26031.8 -03416.5 -07.4769 26255.0
 01 04 2013  20 48  -21.0534 26031.7 -03416.6 -07.4771 26255.0
 01 04 2013  20 49  -21.0531 26031.6 -03416.6 -07.4772 26254.9
 01 04 2013  20 50  -21.0528 26031.5 -03416.6 -07.4773 26254.7
 01 04 2013  20 51  -21.0525 26031.3 -03416.7 -07.4775 26254.6
 01 04 2013  20 52  -21.0521 26031.1 -03416.7 -07.4776 26254.3
 01 04 2013  20 53  -21.0517 26031.0 -03416.7 -07.4777 26254.2
 01 04 2013  20 54  -21.0514 26030.9 -03416.8 -07.4778 26254.2
 01 04 2013  20 55  -21.0508 26030.9 -03416.9 -07.4781 26254.2
 01 04 2013  20 56  -21.0504 26030.9 -03417.1 -07.4784 26254.2
 01 04 2013  20 57  -21.0500 26030.9 -03417.2 -07.4787 26254.2
 01 04 2013  20 58  -21.0495 26030.8 -03417.3 -07.4790 26254.2
 01 04 2013  20 59  -21.0492 26030.7 -03417.4 -07.4792 26254.1
 01 04 2013  21 00  -21.0489 26030.6 -03417.4 -07.4792 26253.9
 01 04 2013  21 01  -21.0485 26030.5 -03417.5 -07.4794 26253.9
 01 04 2013  21 02  -21.0480 26030.3 -03417.5 -07.4794 26253.7
 01 04 2013  21 03  -21.0475 26030.3 -03417.6 -07.4797 26253.7
 01 04 2013  21 04  -21.0470 26030.3 -03417.6 -07.4798 26253.7
 01 04 2013  21 05  -21.0463 26030.3 -03417.7 -07.4801 26253.7
 01 04 2013  21 06  -21.0456 26030.3 -03417.8 -07.4802 26253.7
 01 04 2013  21 07  -21.0449 26030.3 -03418.0 -07.4805 26253.8
 01 04 2013  21 08  -21.0442 26030.5 -03418.1 -07.4809 26253.9
 01 04 2013  21 09  -21.0437 26030.5 -03418.3 -07.4811 26254.0
 01 04 2013  21 10  -21.0430 26030.4 -03418.3 -07.4813 26253.9
 01 04 2013  21 11  -21.0425 26030.4 -03418.5 -07.4816 26253.9
 01 04 2013  21 12  -21.0420 26030.2 -03418.5 -07.4818 26253.7
 01 04 2013  21 13  -21.0417 26030.1 -03418.7 -07.4821 26253.7
 01 04 2013  21 14  -21.0415 26030.1 -03418.8 -07.4825 26253.6
 01 04 2013  21 15  -21.0411 26029.9 -03419.0 -07.4828 26253.5
 01 04 2013  21 16  -21.0408 26030.0 -03419.2 -07.4833 26253.6
 01 04 2013  21 17  -21.0404 26030.3 -03419.6 -07.4840 26253.9
 01 04 2013  21 18  -21.0402 26030.4 -03419.8 -07.4846 26254.1
 01 04 2013  21 19  -21.0400 26030.6 -03420.1 -07.4851 26254.3
 01 04 2013  21 20  -21.0398 26030.8 -03420.4 -07.4858 26254.6
 01 04 2013  21 21  -21.0396 26030.8 -03420.6 -07.4862 26254.6
 01 04 2013  21 22  -21.0396 26030.8 -03420.8 -07.4866 26254.6
 01 04 2013  21 23  -21.0394 26030.8 -03421.0 -07.4870 26254.6
 01 04 2013  21 24  -21.0396 26030.7 -03421.1 -07.4873 26254.5
 01 04 2013  21 25  -21.0396 26030.4 -03421.2 -07.4876 26254.3
 01 04 2013  21 26  -21.0397 26030.3 -03421.3 -07.4878 26254.2
 01 04 2013  21 27  -21.0395 26030.2 -03421.5 -07.4883 26254.2
 01 04 2013  21 28  -21.0396 26029.8 -03421.5 -07.4883 26253.8
 01 04 2013  21 29  -21.0395 26029.8 -03421.7 -07.4888 26253.7
 01 04 2013  21 30  -21.0396 26029.6 -03421.9 -07.4892 26253.6
 01 04 2013  21 31  -21.0397 26029.4 -03422.0 -07.4894 26253.3
 01 04 2013  21 32  -21.0398 26029.1 -03422.0 -07.4896 26253.0
 01 04 2013  21 33  -21.0399 26028.8 -03422.1 -07.4899 26252.8
 01 04 2013  21 34  -21.0401 26028.5 -03422.1 -07.4901 26252.5
 01 04 2013  21 35  -21.0402 26028.3 -03422.2 -07.4903 26252.3
 01 04 2013  21 36  -21.0405 26028.1 -03422.3 -07.4906 26252.2
 01 04 2013  21 37  -21.0407 26027.9 -03422.4 -07.4907 26251.9
 01 04 2013  21 38  -21.0410 26027.5 -03422.4 -07.4910 26251.5
 01 04 2013  21 39  -21.0414 26027.4 -03422.5 -07.4913 26251.5
 01 04 2013  21 40  -21.0417 26027.1 -03422.6 -07.4914 26251.2
 01 04 2013  21 41  -21.0420 26026.9 -03422.6 -07.4916 26251.0
 01 04 2013  21 42  -21.0423 26026.8 -03422.7 -07.4917 26250.9
 01 04 2013  21 43  -21.0426 26026.5 -03422.6 -07.4917 26250.6
 01 04 2013  21 44  -21.0428 26026.4 -03422.7 -07.4919 26250.5
 01 04 2013  21 45  -21.0430 26026.2 -03422.8 -07.4921 26250.4
 01 04 2013  21 46  -21.0433 26026.0 -03422.8 -07.4922 26250.1
 01 04 2013  21 47  -21.0438 26025.7 -03422.8 -07.4922 26249.8
 01 04 2013  21 48  -21.0444 26025.4 -03422.7 -07.4921 26249.5
 01 04 2013  21 49  -21.0448 26025.2 -03422.7 -07.4922 26249.3
 01 04 2013  21 50  -21.0452 26024.8 -03422.6 -07.4922 26248.9
 01 04 2013  21 51  -21.0452 26024.6 -03422.5 -07.4921 26248.7
 01 04 2013  21 52  -21.0455 26024.2 -03422.4 -07.4920 26248.3
 01 04 2013  21 53  -21.0457 26023.7 -03422.3 -07.4917 26247.8
 01 04 2013  21 54  -21.0460 26023.7 -03422.3 -07.4918 26247.8
 01 04 2013  21 55  -21.0461 26023.6 -03422.3 -07.4918 26247.6
 01 04 2013  21 56  -21.0461 26023.6 -03422.5 -07.4922 26247.7
 01 04 2013  21 57  -21.0460 26023.8 -03422.6 -07.4925 26247.9
 01 04 2013  21 58  -21.0458 26024.0 -03422.8 -07.4928 26248.1
 01 04 2013  21 59  -21.0457 26024.1 -03422.9 -07.4930 26248.2
 01 04 2013  22 00  -21.0457 26024.1 -03423.0 -07.4933 26248.3
 01 04 2013  22 01  -21.0458 26023.9 -03423.0 -07.4932 26248.1
 01 04 2013  22 02  -21.0461 26023.8 -03423.0 -07.4932 26248.0
 01 04 2013  22 03  -21.0464 26023.8 -03423.0 -07.4932 26247.9
 01 04 2013  22 04  -21.0467 26023.7 -03423.0 -07.4933 26247.9
 01 04 2013  22 05  -21.0467 26023.8 -03423.0 -07.4933 26247.9
 01 04 2013  22 06  -21.0469 26023.8 -03423.1 -07.4935 26248.0
 01 04 2013  22 07  -21.0470 26024.0 -03423.2 -07.4938 26248.2
 01 04 2013  22 08  -21.0472 26024.2 -03423.3 -07.4939 26248.4
 01 04 2013  22 09  -21.0474 26024.2 -03423.4 -07.4940 26248.4
 01 04 2013  22 10  -21.0478 26024.3 -03423.4 -07.4941 26248.5
 01 04 2013  22 11  -21.0482 26024.4 -03423.5 -07.4941 26248.6
 01 04 2013  22 12  -21.0484 26024.5 -03423.5 -07.4942 26248.7
 01 04 2013  22 13  -21.0487 26024.6 -03423.6 -07.4943 26248.8
 01 04 2013  22 14  -21.0489 26024.8 -03423.6 -07.4944 26249.1
 01 04 2013  22 15  -21.0492 26025.2 -03423.8 -07.4946 26249.4
 01 04 2013  22 16  -21.0494 26025.3 -03423.8 -07.4946 26249.6
 01 04 2013  22 17  -21.0497 26025.4 -03423.8 -07.4946 26249.7
 01 04 2013  22 18  -21.0499 26025.5 -03423.9 -07.4947 26249.8
 01 04 2013  22 19  -21.0502 26025.6 -03423.8 -07.4945 26249.8
 01 04 2013  22 20  -21.0504 26025.6 -03423.8 -07.4945 26249.8
 01 04 2013  22 21  -21.0507 26025.4 -03423.7 -07.4942 26249.6
 01 04 2013  22 22  -21.0508 26025.5 -03423.6 -07.4941 26249.7
 01 04 2013  22 23  -21.0509 26025.4 -03423.5 -07.4940 26249.6
 01 04 2013  22 24  -21.0510 26025.3 -03423.5 -07.4939 26249.5
 01 04 2013  22 25  -21.0511 26025.2 -03423.4 -07.4938 26249.4
 01 04 2013  22 26  -21.0511 26025.2 -03423.4 -07.4937 26249.4
 01 04 2013  22 27  -21.0512 26025.3 -03423.4 -07.4937 26249.5
 01 04 2013  22 28  -21.0511 26025.3 -03423.4 -07.4936 26249.5
 01 04 2013  22 29  -21.0511 26025.2 -03423.3 -07.4936 26249.4
 01 04 2013  22 30  -21.0512 26025.2 -03423.3 -07.4935 26249.3
 01 04 2013  22 31  -21.0513 26025.2 -03423.3 -07.4935 26249.3
 01 04 2013  22 32  -21.0514 26025.2 -03423.3 -07.4935 26249.4
 01 04 2013  22 33  -21.0514 26025.3 -03423.3 -07.4935 26249.5
 01 04 2013  22 34  -21.0513 26025.5 -03423.4 -07.4936 26249.7
 01 04 2013  22 35  -21.0514 26025.6 -03423.4 -07.4936 26249.7
 01 04 2013  22 36  -21.0513 26025.6 -03423.4 -07.4937 26249.8
 01 04 2013  22 37  -21.0513 26025.6 -03423.4 -07.4936 26249.8
 01 04 2013  22 38  -21.0513 26025.6 -03423.4 -07.4936 26249.8
 01 04 2013  22 39  -21.0514 26025.6 -03423.4 -07.4935 26249.8
 01 04 2013  22 40  -21.0513 26025.6 -03423.3 -07.4934 26249.8
 01 04 2013  22 41  -21.0513 26025.6 -03423.3 -07.4934 26249.8
 01 04 2013  22 42  -21.0513 26025.7 -03423.4 -07.4935 26249.9
 01 04 2013  22 43  -21.0513 26025.8 -03423.4 -07.4936 26249.9
 01 04 2013  22 44  -21.0512 26025.8 -03423.4 -07.4936 26250.0
 01 04 2013  22 45  -21.0512 26025.9 -03423.4 -07.4936 26250.1
 01 04 2013  22 46  -21.0511 26025.9 -03423.5 -07.4937 26250.1
 01 04 2013  22 47  -21.0511 26025.9 -03423.5 -07.4937 26250.1
 01 04 2013  22 48  -21.0510 26026.0 -03423.5 -07.4938 26250.2
 01 04 2013  22 49  -21.0511 26026.0 -03423.5 -07.4937 26250.2
 01 04 2013  22 50  -21.0511 26026.1 -03423.5 -07.4938 26250.3
 01 04 2013  22 51  -21.0510 26026.1 -03423.5 -07.4937 26250.3
 01 04 2013  22 52  -21.0511 26026.1 -03423.5 -07.4938 26250.3
 01 04 2013  22 53  -21.0510 26026.1 -03423.6 -07.4938 26250.3
 01 04 2013  22 54  -21.0510 26026.2 -03423.6 -07.4939 26250.4
 01 04 2013  22 55  -21.0509 26026.4 -03423.6 -07.4939 26250.6
 01 04 2013  22 56  -21.0508 26026.5 -03423.7 -07.4941 26250.7
 01 04 2013  22 57  -21.0508 26026.6 -03423.8 -07.4941 26250.8
 01 04 2013  22 58  -21.0508 26026.6 -03423.7 -07.4941 26250.8
 01 04 2013  22 59  -21.0509 26026.5 -03423.7 -07.4940 26250.7
 01 04 2013  23 00  -21.0509 26026.6 -03423.7 -07.4940 26250.8
 01 04 2013  23 01  -21.0509 26026.7 -03423.7 -07.4940 26250.9
 01 04 2013  23 02  -21.0508 26026.8 -03423.8 -07.4941 26251.0
 01 04 2013  23 03  -21.0510 26026.8 -03423.8 -07.4941 26251.0
 01 04 2013  23 04  -21.0510 26026.8 -03423.8 -07.4941 26251.1
 01 04 2013  23 05  -21.0511 26026.9 -03423.8 -07.4942 26251.2
 01 04 2013  23 06  -21.0511 26026.9 -03423.9 -07.4942 26251.2
 01 04 2013  23 07  -21.0512 26027.0 -03423.8 -07.4942 26251.2
 01 04 2013  23 08  -21.0512 26027.1 -03423.9 -07.4943 26251.3
 01 04 2013  23 09  -21.0511 26027.1 -03423.9 -07.4943 26251.4
 01 04 2013  23 10  -21.0511 26027.1 -03423.8 -07.4942 26251.3
 01 04 2013  23 11  -21.0511 26027.1 -03423.8 -07.4941 26251.3
 01 04 2013  23 12  -21.0511 26027.1 -03423.8 -07.4940 26251.3
 01 04 2013  23 13  -21.0511 26027.1 -03423.8 -07.4940 26251.3
 01 04 2013  23 14  -21.0510 26027.1 -03423.8 -07.4940 26251.4
 01 04 2013  23 15  -21.0510 26027.2 -03423.8 -07.4940 26251.4
 01 04 2013  23 16  -21.0508 26027.2 -03423.8 -07.4940 26251.5
 01 04 2013  23 17  -21.0508 26027.3 -03423.8 -07.4940 26251.5
 01 04 2013  23 18  -21.0507 26027.4 -03423.9 -07.4941 26251.6
 01 04 2013  23 19  -21.0506 26027.5 -03423.9 -07.4941 26251.7
 01 04 2013  23 20  -21.0506 26027.5 -03423.9 -07.4942 26251.7
 01 04 2013  23 21  -21.0506 26027.5 -03423.9 -07.4942 26251.7
 01 04 2013  23 22  -21.0506 26027.5 -03423.9 -07.4942 26251.7
 01 04 2013  23 23  -21.0506 26027.5 -03423.8 -07.4941 26251.7
 01 04 2013  23 24  -21.0505 26027.4 -03423.8 -07.4940 26251.7
 01 04 2013  23 25  -21.0505 26027.4 -03423.8 -07.4939 26251.6
 01 04 2013  23 26  -21.0505 26027.3 -03423.8 -07.4939 26251.6
 01 04 2013  23 27  -21.0506 26027.3 -03423.7 -07.4938 26251.5
 01 04 2013  23 28  -21.0506 26027.2 -03423.6 -07.4937 26251.4
 01 04 2013  23 29  -21.0506 26027.1 -03423.6 -07.4936 26251.3
 01 04 2013  23 30  -21.0506 26027.1 -03423.6 -07.4936 26251.3
 01 04 2013  23 31  -21.0506 26027.2 -03423.6 -07.4936 26251.4
 01 04 2013  23 32  -21.0507 26027.2 -03423.6 -07.4936 26251.4
 01 04 2013  23 33  -21.0506 26027.2 -03423.6 -07.4936 26251.4
 01 04 2013  23 34  -21.0506 26027.2 -03423.6 -07.4936 26251.4
 01 04 2013  23 35  -21.0505 26027.2 -03423.6 -07.4936 26251.4
 01 04 2013  23 36  -21.0505 26027.1 -03423.6 -07.4936 26251.3
 01 04 2013  23 37  -21.0503 26027.1 -03423.6 -07.4936 26251.3
 01 04 2013  23 38  -21.0504 26027.1 -03423.6 -07.4935 26251.3
 01 04 2013  23 39  -21.0504 26027.1 -03423.5 -07.4935 26251.3
 01 04 2013  23 40  -21.0504 26027.1 -03423.5 -07.4935 26251.3
 01 04 2013  23 41  -21.0503 26027.2 -03423.6 -07.4935 26251.4
 01 04 2013  23 42  -21.0503 26027.2 -03423.6 -07.4936 26251.4
 01 04 2013  23 43  -21.0502 26027.2 -03423.6 -07.4935 26251.4
 01 04 2013  23 44  -21.0503 26027.1 -03423.5 -07.4935 26251.3
 01 04 2013  23 45  -21.0502 26027.1 -03423.5 -07.4934 26251.3
 01 04 2013  23 46  -21.0503 26027.0 -03423.5 -07.4934 26251.2
 01 04 2013  23 47  -21.0503 26026.9 -03423.4 -07.4933 26251.1
 01 04 2013  23 48  -21.0503 26026.8 -03423.4 -07.4933 26251.0
 01 04 2013  23 49  -21.0502 26026.7 -03423.4 -07.4932 26250.9
 01 04 2013  23 50  -21.0503 26026.6 -03423.3 -07.4931 26250.8
 01 04 2013  23 51  -21.0503 26026.6 -03423.3 -07.4931 26250.8
 01 04 2013  23 52  -21.0504 26026.6 -03423.3 -07.4931 26250.8
 01 04 2013  23 53  -21.0504 26026.7 -03423.3 -07.4931 26250.8
 01 04 2013  23 54  -21.0505 26026.6 -03423.3 -07.4932 26250.8
 01 04 2013  23 55  -21.0506 26026.7 -03423.3 -07.4931 26250.8
 01 04 2013  23 56  -21.0508 26026.6 -03423.3 -07.4932 26250.8
 01 04 2013  23 57  -21.0508 26026.7 -03423.3 -07.4931 26250.8
