SAO LUIS EMBRACE-03 <121> 1 Min. Reported data

 DD MM YYYY  HH MM   D(Deg)  H(nT)   Z(nT)   I(Deg)   F(nT)

 01 05 2013  00 00  -21.0701 26020.6 -03430.9 -07.5112 26245.8
 01 05 2013  00 01  -21.0706 26020.5 -03430.9 -07.5112 26245.7
 01 05 2013  00 02  -21.0711 26020.5 -03430.9 -07.5113 26245.7
 01 05 2013  00 03  -21.0716 26020.4 -03430.8 -07.5112 26245.6
 01 05 2013  00 04  -21.0719 26020.3 -03430.8 -07.5112 26245.5
 01 05 2013  00 05  -21.0721 26020.2 -03430.8 -07.5111 26245.4
 01 05 2013  00 06  -21.0726 26020.0 -03430.7 -07.5110 26245.2
 01 05 2013  00 07  -21.0732 26020.0 -03430.7 -07.5111 26245.2
 01 05 2013  00 08  -21.0735 26019.7 -03430.6 -07.5109 26244.8
 01 05 2013  00 09  -21.0738 26019.5 -03430.5 -07.5108 26244.7
 01 05 2013  00 10  -21.0740 26019.5 -03430.5 -07.5108 26244.6
 01 05 2013  00 11  -21.0741 26019.3 -03430.5 -07.5107 26244.5
 01 05 2013  00 12  -21.0742 26019.3 -03430.4 -07.5107 26244.5
 01 05 2013  00 13  -21.0742 26019.6 -03430.6 -07.5110 26244.8
 01 05 2013  00 14  -21.0742 26019.9 -03430.8 -07.5113 26245.2
 01 05 2013  00 15  -21.0741 26020.1 -03430.9 -07.5115 26245.3
 01 05 2013  00 16  -21.0743 26020.1 -03430.9 -07.5115 26245.3
 01 05 2013  00 17  -21.0745 26020.2 -03431.0 -07.5116 26245.4
 01 05 2013  00 18  -21.0746 26020.0 -03430.9 -07.5115 26245.2
 01 05 2013  00 19  -21.0749 26019.5 -03430.7 -07.5112 26244.7
 01 05 2013  00 20  -21.0747 26019.2 -03430.5 -07.5109 26244.4
 01 05 2013  00 21  -21.0745 26019.0 -03430.4 -07.5107 26244.1
 01 05 2013  00 22  -21.0745 26018.7 -03430.3 -07.5106 26243.9
 01 05 2013  00 23  -21.0745 26018.7 -03430.4 -07.5107 26243.9
 01 05 2013  00 24  -21.0746 26018.6 -03430.4 -07.5107 26243.8
 01 05 2013  00 25  -21.0745 26018.5 -03430.4 -07.5108 26243.6
 01 05 2013  00 26  -21.0746 26018.2 -03430.3 -07.5107 26243.4
 01 05 2013  00 27  -21.0746 26018.0 -03430.3 -07.5106 26243.2
 01 05 2013  00 28  -21.0746 26018.0 -03430.3 -07.5106 26243.1
 01 05 2013  00 29  -21.0742 26017.9 -03430.3 -07.5108 26243.1
 01 05 2013  00 30  -21.0739 26017.8 -03430.3 -07.5108 26243.0
 01 05 2013  00 31  -21.0740 26017.3 -03430.2 -07.5106 26242.5
 01 05 2013  00 32  -21.0742 26017.0 -03430.1 -07.5105 26242.1
 01 05 2013  00 33  -21.0742 26016.7 -03430.0 -07.5104 26241.8
 01 05 2013  00 34  -21.0740 26016.5 -03430.0 -07.5104 26241.6
 01 05 2013  00 35  -21.0739 26016.3 -03429.9 -07.5104 26241.4
 01 05 2013  00 36  -21.0739 26016.0 -03429.9 -07.5103 26241.1
 01 05 2013  00 37  -21.0741 26015.8 -03429.9 -07.5104 26241.0
 01 05 2013  00 38  -21.0741 26015.7 -03429.9 -07.5105 26240.9
 01 05 2013  00 39  -21.0742 26015.6 -03429.9 -07.5105 26240.7
 01 05 2013  00 40  -21.0741 26015.5 -03429.9 -07.5106 26240.6
 01 05 2013  00 41  -21.0742 26015.4 -03429.9 -07.5107 26240.5
 01 05 2013  00 42  -21.0742 26015.1 -03429.9 -07.5107 26240.3
 01 05 2013  00 43  -21.0739 26015.0 -03429.9 -07.5106 26240.1
 01 05 2013  00 44  -21.0735 26015.0 -03429.9 -07.5107 26240.1
 01 05 2013  00 45  -21.0730 26014.9 -03429.9 -07.5108 26240.0
 01 05 2013  00 46  -21.0725 26015.0 -03430.0 -07.5110 26240.1
 01 05 2013  00 47  -21.0721 26015.0 -03430.1 -07.5111 26240.2
 01 05 2013  00 48  -21.0716 26015.3 -03430.3 -07.5115 26240.5
 01 05 2013  00 49  -21.0713 26015.5 -03430.5 -07.5119 26240.7
 01 05 2013  00 50  -21.0709 26015.6 -03430.6 -07.5122 26240.9
 01 05 2013  00 51  -21.0704 26015.6 -03430.7 -07.5122 26240.8
 01 05 2013  00 52  -21.0699 26015.5 -03430.7 -07.5123 26240.7
 01 05 2013  00 53  -21.0694 26015.4 -03430.7 -07.5123 26240.6
 01 05 2013  00 54  -21.0689 26015.4 -03430.8 -07.5125 26240.7
 01 05 2013  00 55  -21.0685 26015.6 -03430.9 -07.5128 26240.9
 01 05 2013  00 56  -21.0682 26015.6 -03431.0 -07.5130 26240.9
 01 05 2013  00 57  -21.0679 26015.5 -03431.1 -07.5131 26240.8
 01 05 2013  00 58  -21.0677 26015.2 -03431.0 -07.5130 26240.4
 01 05 2013  00 59  -21.0675 26015.0 -03431.0 -07.5130 26240.2
 01 05 2013  01 00  -21.0673 26014.7 -03430.9 -07.5130 26240.0
 01 05 2013  01 01  -21.0670 26014.5 -03430.9 -07.5130 26239.8
 01 05 2013  01 02  -21.0666 26014.4 -03430.9 -07.5130 26239.6
 01 05 2013  01 03  -21.0664 26014.3 -03430.9 -07.5132 26239.6
 01 05 2013  01 04  -21.0664 26014.2 -03431.0 -07.5133 26239.5
 01 05 2013  01 05  -21.0663 26014.1 -03431.1 -07.5135 26239.4
 01 05 2013  01 06  -21.0664 26014.0 -03431.1 -07.5136 26239.3
 01 05 2013  01 07  -21.0664 26013.9 -03431.1 -07.5136 26239.2
 01 05 2013  01 08  -21.0663 26013.9 -03431.2 -07.5138 26239.2
 01 05 2013  01 09  -21.0662 26014.0 -03431.3 -07.5140 26239.3
 01 05 2013  01 10  -21.0658 26014.0 -03431.4 -07.5142 26239.4
 01 05 2013  01 11  -21.0655 26014.1 -03431.5 -07.5144 26239.5
 01 05 2013  01 12  -21.0652 26014.1 -03431.5 -07.5145 26239.4
 01 05 2013  01 13  -21.0650 26014.2 -03431.6 -07.5147 26239.5
 01 05 2013  01 14  -21.0646 26014.1 -03431.6 -07.5147 26239.5
 01 05 2013  01 15  -21.0641 26014.1 -03431.6 -07.5147 26239.5
 01 05 2013  01 16  -21.0637 26014.4 -03431.8 -07.5151 26239.8
 01 05 2013  01 17  -21.0635 26014.5 -03432.0 -07.5154 26239.9
 01 05 2013  01 18  -21.0632 26014.6 -03432.1 -07.5156 26240.0
 01 05 2013  01 19  -21.0628 26014.7 -03432.2 -07.5157 26240.1
 01 05 2013  01 20  -21.0626 26014.7 -03432.2 -07.5159 26240.2
 01 05 2013  01 21  -21.0625 26014.9 -03432.3 -07.5161 26240.3
 01 05 2013  01 22  -21.0626 26015.1 -03432.5 -07.5163 26240.6
 01 05 2013  01 23  -21.0626 26015.3 -03432.7 -07.5166 26240.7
 01 05 2013  01 24  -21.0626 26015.4 -03432.7 -07.5167 26240.9
 01 05 2013  01 25  -21.0626 26015.4 -03432.7 -07.5168 26240.9
 01 05 2013  01 26  -21.0627 26015.4 -03432.8 -07.5169 26240.9
 01 05 2013  01 27  -21.0627 26015.6 -03432.9 -07.5170 26241.1
 01 05 2013  01 28  -21.0628 26015.7 -03433.0 -07.5172 26241.2
 01 05 2013  01 29  -21.0629 26015.8 -03433.0 -07.5172 26241.3
 01 05 2013  01 30  -21.0630 26015.8 -03433.0 -07.5172 26241.4
 01 05 2013  01 31  -21.0628 26015.8 -03433.0 -07.5171 26241.3
 01 05 2013  01 32  -21.0628 26015.6 -03432.9 -07.5171 26241.2
 01 05 2013  01 33  -21.0627 26015.6 -03432.9 -07.5170 26241.1
 01 05 2013  01 34  -21.0628 26015.6 -03432.9 -07.5170 26241.1
 01 05 2013  01 35  -21.0631 26015.6 -03432.9 -07.5171 26241.1
 01 05 2013  01 36  -21.0632 26015.3 -03432.8 -07.5169 26240.8
 01 05 2013  01 37  -21.0633 26015.2 -03432.7 -07.5168 26240.7
 01 05 2013  01 38  -21.0634 26015.2 -03432.7 -07.5168 26240.7
 01 05 2013  01 39  -21.0635 26015.2 -03432.7 -07.5168 26240.7
 01 05 2013  01 40  -21.0636 26015.3 -03432.8 -07.5169 26240.8
 01 05 2013  01 41  -21.0638 26015.3 -03432.8 -07.5170 26240.8
 01 05 2013  01 42  -21.0642 26015.3 -03432.8 -07.5170 26240.8
 01 05 2013  01 43  -21.0645 26015.3 -03432.8 -07.5170 26240.8
 01 05 2013  01 44  -21.0646 26015.5 -03432.9 -07.5171 26241.0
 01 05 2013  01 45  -21.0644 26015.6 -03432.9 -07.5170 26241.1
 01 05 2013  01 46  -21.0644 26015.6 -03432.9 -07.5170 26241.1
 01 05 2013  01 47  -21.0646 26015.5 -03432.8 -07.5169 26241.0
 01 05 2013  01 48  -21.0649 26015.6 -03432.8 -07.5169 26241.1
 01 05 2013  01 49  -21.0650 26015.6 -03432.9 -07.5169 26241.1
 01 05 2013  01 50  -21.0653 26015.5 -03432.8 -07.5168 26241.0
 01 05 2013  01 51  -21.0656 26015.4 -03432.7 -07.5167 26240.9
 01 05 2013  01 52  -21.0660 26015.2 -03432.6 -07.5166 26240.7
 01 05 2013  01 53  -21.0662 26014.9 -03432.5 -07.5163 26240.3
 01 05 2013  01 54  -21.0663 26014.6 -03432.3 -07.5161 26240.1
 01 05 2013  01 55  -21.0662 26014.3 -03432.2 -07.5158 26239.7
 01 05 2013  01 56  -21.0664 26013.9 -03431.9 -07.5155 26239.3
 01 05 2013  01 57  -21.0666 26013.5 -03431.8 -07.5152 26238.9
 01 05 2013  01 58  -21.0669 26013.1 -03431.6 -07.5150 26238.5
 01 05 2013  01 59  -21.0669 26012.7 -03431.5 -07.5147 26238.1
 01 05 2013  02 00  -21.0670 26012.5 -03431.3 -07.5146 26237.8
 01 05 2013  02 01  -21.0669 26012.3 -03431.3 -07.5146 26237.6
 01 05 2013  02 02  -21.0668 26012.0 -03431.2 -07.5145 26237.4
 01 05 2013  02 03  -21.0668 26011.9 -03431.2 -07.5144 26237.3
 01 05 2013  02 04  -21.0669 26011.8 -03431.2 -07.5145 26237.1
 01 05 2013  02 05  -21.0668 26011.6 -03431.2 -07.5145 26237.0
 01 05 2013  02 06  -21.0668 26011.6 -03431.2 -07.5146 26236.9
 01 05 2013  02 07  -21.0669 26011.5 -03431.3 -07.5147 26236.9
 01 05 2013  02 08  -21.0670 26011.6 -03431.4 -07.5149 26237.0
 01 05 2013  02 09  -21.0669 26011.6 -03431.5 -07.5151 26237.0
 01 05 2013  02 10  -21.0668 26011.7 -03431.5 -07.5152 26237.0
 01 05 2013  02 11  -21.0666 26011.6 -03431.6 -07.5153 26237.0
 01 05 2013  02 12  -21.0664 26011.5 -03431.6 -07.5153 26236.9
 01 05 2013  02 13  -21.0663 26011.4 -03431.5 -07.5153 26236.8
 01 05 2013  02 14  -21.0662 26011.3 -03431.5 -07.5152 26236.6
 01 05 2013  02 15  -21.0662 26011.2 -03431.5 -07.5153 26236.5
 01 05 2013  02 16  -21.0662 26011.2 -03431.6 -07.5154 26236.6
 01 05 2013  02 17  -21.0660 26011.1 -03431.6 -07.5155 26236.5
 01 05 2013  02 18  -21.0657 26011.0 -03431.6 -07.5156 26236.4
 01 05 2013  02 19  -21.0652 26010.9 -03431.6 -07.5156 26236.3
 01 05 2013  02 20  -21.0648 26010.8 -03431.6 -07.5157 26236.2
 01 05 2013  02 21  -21.0645 26010.8 -03431.7 -07.5157 26236.2
 01 05 2013  02 22  -21.0641 26010.7 -03431.7 -07.5158 26236.1
 01 05 2013  02 23  -21.0638 26010.7 -03431.8 -07.5160 26236.1
 01 05 2013  02 24  -21.0638 26010.7 -03431.9 -07.5162 26236.1
 01 05 2013  02 25  -21.0640 26010.7 -03432.0 -07.5165 26236.2
 01 05 2013  02 26  -21.0638 26010.8 -03432.1 -07.5166 26236.3
 01 05 2013  02 27  -21.0634 26011.0 -03432.2 -07.5169 26236.4
 01 05 2013  02 28  -21.0631 26011.0 -03432.3 -07.5170 26236.5
 01 05 2013  02 29  -21.0628 26011.1 -03432.4 -07.5172 26236.6
 01 05 2013  02 30  -21.0625 26011.2 -03432.4 -07.5173 26236.7
 01 05 2013  02 31  -21.0620 26011.3 -03432.5 -07.5174 26236.8
 01 05 2013  02 32  -21.0615 26011.2 -03432.5 -07.5173 26236.7
 01 05 2013  02 33  -21.0611 26011.2 -03432.5 -07.5173 26236.7
 01 05 2013  02 34  -21.0609 26011.3 -03432.5 -07.5174 26236.8
 01 05 2013  02 35  -21.0607 26011.2 -03432.5 -07.5175 26236.8
 01 05 2013  02 36  -21.0606 26011.3 -03432.6 -07.5176 26236.8
 01 05 2013  02 37  -21.0607 26011.1 -03432.5 -07.5175 26236.6
 01 05 2013  02 38  -21.0607 26011.0 -03432.5 -07.5175 26236.6
 01 05 2013  02 39  -21.0607 26011.0 -03432.5 -07.5176 26236.5
 01 05 2013  02 40  -21.0606 26010.8 -03432.5 -07.5175 26236.3
 01 05 2013  02 41  -21.0607 26010.7 -03432.4 -07.5174 26236.2
 01 05 2013  02 42  -21.0608 26010.6 -03432.4 -07.5174 26236.1
 01 05 2013  02 43  -21.0610 26010.7 -03432.4 -07.5175 26236.2
 01 05 2013  02 44  -21.0611 26010.6 -03432.5 -07.5175 26236.2
 01 05 2013  02 45  -21.0611 26010.8 -03432.6 -07.5177 26236.4
 01 05 2013  02 46  -21.0607 26010.9 -03432.6 -07.5177 26236.4
 01 05 2013  02 47  -21.0602 26011.0 -03432.6 -07.5176 26236.5
 01 05 2013  02 48  -21.0602 26011.0 -03432.6 -07.5177 26236.5
 01 05 2013  02 49  -21.0602 26011.0 -03432.7 -07.5178 26236.5
 01 05 2013  02 50  -21.0603 26011.1 -03432.7 -07.5179 26236.7
 01 05 2013  02 51  -21.0604 26011.1 -03432.7 -07.5180 26236.6
 01 05 2013  02 52  -21.0602 26011.1 -03432.7 -07.5179 26236.6
 01 05 2013  02 53  -21.0600 26011.1 -03432.7 -07.5179 26236.6
 01 05 2013  02 54  -21.0599 26010.9 -03432.6 -07.5178 26236.4
 01 05 2013  02 55  -21.0600 26010.9 -03432.6 -07.5178 26236.4
 01 05 2013  02 56  -21.0601 26010.9 -03432.7 -07.5179 26236.4
 01 05 2013  02 57  -21.0605 26010.8 -03432.7 -07.5179 26236.3
 01 05 2013  02 58  -21.0608 26011.1 -03432.8 -07.5182 26236.6
 01 05 2013  02 59  -21.0612 26011.2 -03433.0 -07.5184 26236.8
 01 05 2013  03 00  -21.0616 26011.2 -03433.0 -07.5185 26236.8
 01 05 2013  03 01  -21.0620 26011.3 -03433.0 -07.5185 26236.8
 01 05 2013  03 02  -21.0625 26011.1 -03433.0 -07.5185 26236.7
 01 05 2013  03 03  -21.0629 26011.1 -03433.0 -07.5185 26236.7
 01 05 2013  03 04  -21.0632 26011.1 -03433.0 -07.5185 26236.7
 01 05 2013  03 05  -21.0634 26011.2 -03433.0 -07.5185 26236.7
 01 05 2013  03 06  -21.0632 26011.2 -03433.0 -07.5186 26236.8
 01 05 2013  03 07  -21.0631 26011.3 -03433.0 -07.5185 26236.9
 01 05 2013  03 08  -21.0631 26011.4 -03433.1 -07.5186 26236.9
 01 05 2013  03 09  -21.0635 26011.5 -03433.1 -07.5188 26237.1
 01 05 2013  03 10  -21.0638 26011.6 -03433.2 -07.5189 26237.2
 01 05 2013  03 11  -21.0638 26011.8 -03433.3 -07.5190 26237.4
 01 05 2013  03 12  -21.0639 26011.7 -03433.3 -07.5189 26237.3
 01 05 2013  03 13  -21.0640 26011.8 -03433.2 -07.5189 26237.4
 01 05 2013  03 14  -21.0640 26011.8 -03433.2 -07.5188 26237.4
 01 05 2013  03 15  -21.0640 26011.8 -03433.2 -07.5189 26237.4
 01 05 2013  03 16  -21.0640 26011.6 -03433.1 -07.5187 26237.2
 01 05 2013  03 17  -21.0638 26011.6 -03433.1 -07.5185 26237.1
 01 05 2013  03 18  -21.0635 26011.6 -03433.0 -07.5185 26237.2
 01 05 2013  03 19  -21.0631 26011.8 -03433.1 -07.5185 26237.4
 01 05 2013  03 20  -21.0625 26012.2 -03433.2 -07.5187 26237.8
 01 05 2013  03 21  -21.0622 26012.5 -03433.3 -07.5188 26238.1
 01 05 2013  03 22  -21.0620 26012.9 -03433.5 -07.5191 26238.5
 01 05 2013  03 23  -21.0621 26013.2 -03433.6 -07.5194 26238.8
 01 05 2013  03 24  -21.0622 26013.4 -03433.8 -07.5195 26239.1
 01 05 2013  03 25  -21.0623 26013.6 -03433.8 -07.5197 26239.2
 01 05 2013  03 26  -21.0624 26013.6 -03433.9 -07.5197 26239.3
 01 05 2013  03 27  -21.0625 26013.8 -03433.9 -07.5197 26239.5
 01 05 2013  03 28  -21.0624 26014.2 -03434.0 -07.5199 26239.8
 01 05 2013  03 29  -21.0625 26014.4 -03434.1 -07.5199 26240.1
 01 05 2013  03 30  -21.0625 26014.6 -03434.1 -07.5199 26240.3
 01 05 2013  03 31  -21.0624 26014.7 -03434.1 -07.5198 26240.3
 01 05 2013  03 32  -21.0620 26014.6 -03434.0 -07.5197 26240.3
 01 05 2013  03 33  -21.0615 26014.6 -03433.9 -07.5195 26240.3
 01 05 2013  03 34  -21.0612 26014.6 -03433.9 -07.5194 26240.3
 01 05 2013  03 35  -21.0611 26014.5 -03433.8 -07.5193 26240.1
 01 05 2013  03 36  -21.0610 26014.3 -03433.7 -07.5191 26240.0
 01 05 2013  03 37  -21.0608 26014.4 -03433.7 -07.5190 26240.1
 01 05 2013  03 38  -21.0608 26014.5 -03433.7 -07.5191 26240.1
 01 05 2013  03 39  -21.0608 26014.7 -03433.8 -07.5193 26240.3
 01 05 2013  03 40  -21.0606 26015.0 -03433.9 -07.5194 26240.6
 01 05 2013  03 41  -21.0604 26015.2 -03434.0 -07.5195 26240.9
 01 05 2013  03 42  -21.0602 26015.4 -03434.0 -07.5195 26241.0
 01 05 2013  03 43  -21.0601 26015.5 -03434.0 -07.5194 26241.1
 01 05 2013  03 44  -21.0601 26015.4 -03433.9 -07.5193 26241.0
 01 05 2013  03 45  -21.0602 26015.3 -03433.8 -07.5191 26241.0
 01 05 2013  03 46  -21.0604 26015.2 -03433.7 -07.5189 26240.8
 01 05 2013  03 47  -21.0606 26015.0 -03433.6 -07.5187 26240.7
 01 05 2013  03 48  -21.0607 26015.0 -03433.5 -07.5186 26240.6
 01 05 2013  03 49  -21.0608 26014.9 -03433.5 -07.5185 26240.5
 01 05 2013  03 50  -21.0609 26014.7 -03433.4 -07.5184 26240.3
 01 05 2013  03 51  -21.0610 26014.6 -03433.3 -07.5183 26240.2
 01 05 2013  03 52  -21.0612 26014.5 -03433.3 -07.5182 26240.1
 01 05 2013  03 53  -21.0615 26014.4 -03433.3 -07.5182 26240.0
 01 05 2013  03 54  -21.0616 26014.4 -03433.3 -07.5183 26240.0
 01 05 2013  03 55  -21.0616 26014.5 -03433.4 -07.5184 26240.1
 01 05 2013  03 56  -21.0616 26014.6 -03433.5 -07.5185 26240.2
 01 05 2013  03 57  -21.0617 26014.7 -03433.5 -07.5186 26240.3
 01 05 2013  03 58  -21.0616 26014.9 -03433.6 -07.5188 26240.5
 01 05 2013  03 59  -21.0616 26015.0 -03433.7 -07.5189 26240.6
 01 05 2013  04 00  -21.0615 26015.1 -03433.7 -07.5188 26240.7
 01 05 2013  04 01  -21.0614 26015.2 -03433.7 -07.5188 26240.8
 01 05 2013  04 02  -21.0611 26015.2 -03433.7 -07.5188 26240.8
 01 05 2013  04 03  -21.0608 26015.1 -03433.5 -07.5186 26240.7
 01 05 2013  04 04  -21.0604 26014.8 -03433.4 -07.5183 26240.4
 01 05 2013  04 05  -21.0599 26014.5 -03433.1 -07.5179 26240.1
 01 05 2013  04 06  -21.0594 26014.1 -03432.9 -07.5175 26239.6
 01 05 2013  04 07  -21.0592 26013.7 -03432.7 -07.5172 26239.2
 01 05 2013  04 08  -21.0590 26013.4 -03432.6 -07.5171 26238.9
 01 05 2013  04 09  -21.0591 26013.2 -03432.6 -07.5171 26238.7
 01 05 2013  04 10  -21.0593 26013.1 -03432.6 -07.5172 26238.6
 01 05 2013  04 11  -21.0594 26013.1 -03432.7 -07.5173 26238.6
 01 05 2013  04 12  -21.0597 26013.0 -03432.7 -07.5174 26238.5
 01 05 2013  04 13  -21.0603 26013.1 -03432.8 -07.5176 26238.6
 01 05 2013  04 14  -21.0607 26013.0 -03432.8 -07.5177 26238.5
 01 05 2013  04 15  -21.0611 26012.9 -03432.9 -07.5177 26238.5
 01 05 2013  04 16  -21.0614 26012.8 -03432.8 -07.5176 26238.4
 01 05 2013  04 17  -21.0616 26012.8 -03432.8 -07.5177 26238.3
 01 05 2013  04 18  -21.0615 26012.6 -03432.8 -07.5177 26238.1
 01 05 2013  04 19  -21.0613 26012.4 -03432.7 -07.5176 26237.9
 01 05 2013  04 20  -21.0611 26012.2 -03432.6 -07.5174 26237.7
 01 05 2013  04 21  -21.0609 26011.9 -03432.5 -07.5173 26237.4
 01 05 2013  04 22  -21.0604 26011.7 -03432.5 -07.5173 26237.2
 01 05 2013  04 23  -21.0598 26011.6 -03432.5 -07.5173 26237.1
 01 05 2013  04 24  -21.0593 26011.5 -03432.5 -07.5174 26237.0
 01 05 2013  04 25  -21.0590 26011.3 -03432.5 -07.5174 26236.8
 01 05 2013  04 26  -21.0588 26011.1 -03432.5 -07.5176 26236.7
 01 05 2013  04 27  -21.0584 26011.0 -03432.6 -07.5177 26236.5
 01 05 2013  04 28  -21.0581 26010.9 -03432.6 -07.5177 26236.4
 01 05 2013  04 29  -21.0578 26010.8 -03432.7 -07.5179 26236.3
 01 05 2013  04 30  -21.0575 26010.7 -03432.8 -07.5181 26236.3
 01 05 2013  04 31  -21.0573 26010.9 -03432.9 -07.5185 26236.4
 01 05 2013  04 32  -21.0570 26011.0 -03433.1 -07.5188 26236.6
 01 05 2013  04 33  -21.0568 26010.9 -03433.2 -07.5190 26236.5
 01 05 2013  04 34  -21.0567 26011.0 -03433.3 -07.5193 26236.6
 01 05 2013  04 35  -21.0569 26011.1 -03433.4 -07.5195 26236.7
 01 05 2013  04 36  -21.0569 26011.2 -03433.6 -07.5199 26236.9
 01 05 2013  04 37  -21.0568 26011.5 -03433.8 -07.5201 26237.2
 01 05 2013  04 38  -21.0567 26011.7 -03434.0 -07.5204 26237.4
 01 05 2013  04 39  -21.0568 26011.8 -03434.0 -07.5206 26237.5
 01 05 2013  04 40  -21.0565 26011.9 -03434.1 -07.5207 26237.6
 01 05 2013  04 41  -21.0561 26011.9 -03434.2 -07.5208 26237.6
 01 05 2013  04 42  -21.0557 26012.0 -03434.2 -07.5209 26237.7
 01 05 2013  04 43  -21.0553 26012.1 -03434.3 -07.5210 26237.8
 01 05 2013  04 44  -21.0547 26012.2 -03434.3 -07.5211 26237.9
 01 05 2013  04 45  -21.0539 26012.2 -03434.4 -07.5212 26238.0
 01 05 2013  04 46  -21.0532 26012.6 -03434.6 -07.5215 26238.4
 01 05 2013  04 47  -21.0527 26012.9 -03434.8 -07.5218 26238.7
 01 05 2013  04 48  -21.0523 26013.3 -03435.0 -07.5223 26239.2
 01 05 2013  04 49  -21.0521 26013.6 -03435.2 -07.5226 26239.4
 01 05 2013  04 50  -21.0521 26013.6 -03435.3 -07.5228 26239.5
 01 05 2013  04 51  -21.0525 26013.5 -03435.3 -07.5228 26239.4
 01 05 2013  04 52  -21.0529 26013.5 -03435.3 -07.5228 26239.4
 01 05 2013  04 53  -21.0532 26013.5 -03435.3 -07.5228 26239.4
 01 05 2013  04 54  -21.0532 26013.7 -03435.4 -07.5229 26239.5
 01 05 2013  04 55  -21.0530 26013.7 -03435.4 -07.5229 26239.6
 01 05 2013  04 56  -21.0530 26013.7 -03435.4 -07.5230 26239.6
 01 05 2013  04 57  -21.0530 26013.7 -03435.4 -07.5229 26239.6
 01 05 2013  04 58  -21.0532 26013.6 -03435.4 -07.5230 26239.5
 01 05 2013  04 59  -21.0534 26013.5 -03435.3 -07.5229 26239.4
 01 05 2013  05 00  -21.0535 26013.4 -03435.3 -07.5229 26239.3
 01 05 2013  05 01  -21.0537 26013.3 -03435.3 -07.5229 26239.2
 01 05 2013  05 02  -21.0533 26013.3 -03435.3 -07.5228 26239.2
 01 05 2013  05 03  -21.0531 26013.3 -03435.3 -07.5229 26239.1
 01 05 2013  05 04  -21.0526 26013.2 -03435.3 -07.5229 26239.1
 01 05 2013  05 05  -21.0524 26013.2 -03435.3 -07.5230 26239.1
 01 05 2013  05 06  -21.0524 26013.2 -03435.4 -07.5231 26239.1
 01 05 2013  05 07  -21.0523 26013.1 -03435.4 -07.5231 26239.0
 01 05 2013  05 08  -21.0522 26013.1 -03435.3 -07.5230 26238.9
 01 05 2013  05 09  -21.0520 26013.1 -03435.4 -07.5231 26239.0
 01 05 2013  05 10  -21.0517 26013.2 -03435.4 -07.5232 26239.1
 01 05 2013  05 11  -21.0513 26013.3 -03435.5 -07.5233 26239.2
 01 05 2013  05 12  -21.0509 26013.5 -03435.6 -07.5235 26239.4
 01 05 2013  05 13  -21.0504 26013.8 -03435.7 -07.5237 26239.7
 01 05 2013  05 14  -21.0499 26013.9 -03435.8 -07.5238 26239.8
 01 05 2013  05 15  -21.0498 26014.2 -03435.9 -07.5240 26240.1
 01 05 2013  05 16  -21.0499 26014.4 -03436.1 -07.5243 26240.4
 01 05 2013  05 17  -21.0498 26014.5 -03436.1 -07.5244 26240.4
 01 05 2013  05 18  -21.0496 26014.6 -03436.2 -07.5244 26240.5
 01 05 2013  05 19  -21.0493 26014.6 -03436.2 -07.5244 26240.6
 01 05 2013  05 20  -21.0489 26014.7 -03436.3 -07.5246 26240.7
 01 05 2013  05 21  -21.0486 26015.0 -03436.4 -07.5248 26240.9
 01 05 2013  05 22  -21.0481 26015.2 -03436.6 -07.5251 26241.2
 01 05 2013  05 23  -21.0477 26015.7 -03436.7 -07.5253 26241.7
 01 05 2013  05 24  -21.0473 26016.4 -03437.1 -07.5259 26242.4
 01 05 2013  05 25  -21.0469 26017.1 -03437.4 -07.5264 26243.2
 01 05 2013  05 26  -21.0469 26017.5 -03437.7 -07.5268 26243.6
 01 05 2013  05 27  -21.0469 26017.9 -03437.8 -07.5270 26244.0
 01 05 2013  05 28  -21.0471 26017.9 -03437.8 -07.5270 26244.1
 01 05 2013  05 29  -21.0475 26017.7 -03437.7 -07.5267 26243.8
 01 05 2013  05 30  -21.0475 26017.3 -03437.4 -07.5263 26243.4
 01 05 2013  05 31  -21.0470 26017.1 -03437.1 -07.5258 26243.1
 01 05 2013  05 32  -21.0464 26016.9 -03437.0 -07.5256 26242.9
 01 05 2013  05 33  -21.0461 26016.9 -03437.0 -07.5255 26242.9
 01 05 2013  05 34  -21.0458 26016.8 -03437.0 -07.5255 26242.9
 01 05 2013  05 35  -21.0455 26016.8 -03437.0 -07.5255 26242.9
 01 05 2013  05 36  -21.0450 26016.8 -03437.0 -07.5255 26242.9
 01 05 2013  05 37  -21.0444 26016.8 -03436.9 -07.5254 26242.8
 01 05 2013  05 38  -21.0434 26016.6 -03436.8 -07.5252 26242.7
 01 05 2013  05 39  -21.0422 26016.7 -03436.8 -07.5252 26242.7
 01 05 2013  05 40  -21.0414 26016.7 -03436.8 -07.5251 26242.7
 01 05 2013  05 41  -21.0408 26016.7 -03436.8 -07.5253 26242.7
 01 05 2013  05 42  -21.0402 26016.8 -03436.9 -07.5254 26242.9
 01 05 2013  05 43  -21.0393 26017.0 -03437.0 -07.5255 26243.0
 01 05 2013  05 44  -21.0383 26017.1 -03437.1 -07.5256 26243.1
 01 05 2013  05 45  -21.0375 26017.1 -03437.1 -07.5257 26243.2
 01 05 2013  05 46  -21.0369 26017.2 -03437.1 -07.5257 26243.2
 01 05 2013  05 47  -21.0363 26017.3 -03437.2 -07.5259 26243.4
 01 05 2013  05 48  -21.0359 26017.6 -03437.4 -07.5262 26243.7
 01 05 2013  05 49  -21.0360 26017.7 -03437.5 -07.5264 26243.8
 01 05 2013  05 50  -21.0362 26017.9 -03437.6 -07.5266 26244.0
 01 05 2013  05 51  -21.0365 26018.0 -03437.7 -07.5267 26244.1
 01 05 2013  05 52  -21.0369 26018.1 -03437.7 -07.5268 26244.2
 01 05 2013  05 53  -21.0374 26018.2 -03437.8 -07.5269 26244.4
 01 05 2013  05 54  -21.0377 26018.3 -03437.8 -07.5269 26244.4
 01 05 2013  05 55  -21.0376 26018.4 -03437.8 -07.5268 26244.5
 01 05 2013  05 56  -21.0377 26018.3 -03437.8 -07.5268 26244.5
 01 05 2013  05 57  -21.0377 26018.4 -03437.7 -07.5267 26244.5
 01 05 2013  05 58  -21.0376 26018.3 -03437.6 -07.5265 26244.4
 01 05 2013  05 59  -21.0376 26018.2 -03437.6 -07.5264 26244.3
 01 05 2013  06 00  -21.0374 26018.1 -03437.5 -07.5262 26244.1
 01 05 2013  06 01  -21.0370 26017.9 -03437.4 -07.5260 26244.0
 01 05 2013  06 02  -21.0366 26017.6 -03437.2 -07.5257 26243.7
 01 05 2013  06 03  -21.0362 26017.3 -03437.0 -07.5255 26243.3
 01 05 2013  06 04  -21.0357 26017.0 -03436.9 -07.5253 26243.0
 01 05 2013  06 05  -21.0353 26016.8 -03436.8 -07.5252 26242.9
 01 05 2013  06 06  -21.0351 26016.7 -03436.8 -07.5253 26242.7
 01 05 2013  06 07  -21.0345 26016.4 -03436.8 -07.5252 26242.5
 01 05 2013  06 08  -21.0342 26016.3 -03436.8 -07.5252 26242.3
 01 05 2013  06 09  -21.0338 26016.2 -03436.8 -07.5253 26242.3
 01 05 2013  06 10  -21.0334 26016.1 -03436.8 -07.5253 26242.1
 01 05 2013  06 11  -21.0336 26015.8 -03436.7 -07.5253 26241.8
 01 05 2013  06 12  -21.0338 26015.5 -03436.7 -07.5253 26241.5
 01 05 2013  06 13  -21.0333 26015.2 -03436.6 -07.5251 26241.2
 01 05 2013  06 14  -21.0328 26014.6 -03436.3 -07.5248 26240.6
 01 05 2013  06 15  -21.0320 26014.1 -03436.1 -07.5245 26240.1
 01 05 2013  06 16  -21.0310 26013.9 -03436.1 -07.5244 26239.8
 01 05 2013  06 17  -21.0299 26013.7 -03436.1 -07.5245 26239.6
 01 05 2013  06 18  -21.0291 26013.5 -03436.1 -07.5246 26239.5
 01 05 2013  06 19  -21.0287 26013.3 -03436.2 -07.5248 26239.3
 01 05 2013  06 20  -21.0287 26013.2 -03436.2 -07.5249 26239.1
 01 05 2013  06 21  -21.0286 26013.2 -03436.4 -07.5252 26239.2
 01 05 2013  06 22  -21.0285 26013.1 -03436.5 -07.5254 26239.1
 01 05 2013  06 23  -21.0286 26013.2 -03436.6 -07.5257 26239.2
 01 05 2013  06 24  -21.0287 26013.1 -03436.7 -07.5259 26239.1
 01 05 2013  06 25  -21.0287 26013.1 -03436.7 -07.5260 26239.2
 01 05 2013  06 26  -21.0286 26013.1 -03436.7 -07.5261 26239.1
 01 05 2013  06 27  -21.0288 26013.3 -03436.9 -07.5264 26239.3
 01 05 2013  06 28  -21.0287 26013.3 -03436.9 -07.5265 26239.4
 01 05 2013  06 29  -21.0284 26013.2 -03436.9 -07.5265 26239.3
 01 05 2013  06 30  -21.0287 26013.1 -03436.9 -07.5264 26239.2
 01 05 2013  06 31  -21.0289 26012.9 -03436.8 -07.5263 26238.9
 01 05 2013  06 32  -21.0291 26012.7 -03436.7 -07.5261 26238.7
 01 05 2013  06 33  -21.0294 26012.7 -03436.8 -07.5262 26238.8
 01 05 2013  06 34  -21.0301 26012.8 -03436.8 -07.5264 26238.9
 01 05 2013  06 35  -21.0305 26012.9 -03436.9 -07.5265 26239.0
 01 05 2013  06 36  -21.0309 26013.1 -03437.0 -07.5266 26239.1
 01 05 2013  06 37  -21.0317 26013.1 -03437.0 -07.5266 26239.1
 01 05 2013  06 38  -21.0325 26013.2 -03437.0 -07.5266 26239.3
 01 05 2013  06 39  -21.0331 26013.1 -03436.9 -07.5265 26239.1
 01 05 2013  06 40  -21.0338 26013.1 -03436.9 -07.5264 26239.2
 01 05 2013  06 41  -21.0344 26013.2 -03436.9 -07.5264 26239.3
 01 05 2013  06 42  -21.0350 26013.2 -03436.9 -07.5264 26239.3
 01 05 2013  06 43  -21.0356 26013.1 -03436.8 -07.5261 26239.1
 01 05 2013  06 44  -21.0357 26013.1 -03436.7 -07.5260 26239.2
 01 05 2013  06 45  -21.0360 26013.0 -03436.5 -07.5256 26239.0
 01 05 2013  06 46  -21.0360 26013.1 -03436.5 -07.5256 26239.2
 01 05 2013  06 47  -21.0364 26013.1 -03436.5 -07.5255 26239.1
 01 05 2013  06 48  -21.0368 26013.0 -03436.4 -07.5254 26239.0
 01 05 2013  06 49  -21.0370 26013.0 -03436.3 -07.5252 26239.0
 01 05 2013  06 50  -21.0372 26012.7 -03436.2 -07.5250 26238.7
 01 05 2013  06 51  -21.0375 26012.5 -03436.0 -07.5247 26238.4
 01 05 2013  06 52  -21.0377 26012.3 -03435.9 -07.5244 26238.2
 01 05 2013  06 53  -21.0376 26011.8 -03435.6 -07.5240 26237.7
 01 05 2013  06 54  -21.0372 26011.3 -03435.3 -07.5235 26237.1
 01 05 2013  06 55  -21.0369 26010.6 -03434.9 -07.5229 26236.4
 01 05 2013  06 56  -21.0364 26010.0 -03434.7 -07.5225 26235.8
 01 05 2013  06 57  -21.0363 26009.7 -03434.6 -07.5224 26235.4
 01 05 2013  06 58  -21.0361 26009.4 -03434.5 -07.5224 26235.1
 01 05 2013  06 59  -21.0357 26009.3 -03434.6 -07.5225 26235.1
 01 05 2013  07 00  -21.0353 26009.4 -03434.7 -07.5228 26235.2
 01 05 2013  07 01  -21.0347 26009.1 -03434.7 -07.5227 26234.9
 01 05 2013  07 02  -21.0343 26008.9 -03434.7 -07.5228 26234.7
 01 05 2013  07 03  -21.0337 26008.7 -03434.7 -07.5229 26234.5
 01 05 2013  07 04  -21.0328 26008.6 -03434.7 -07.5230 26234.4
 01 05 2013  07 05  -21.0317 26008.8 -03434.9 -07.5233 26234.6
 01 05 2013  07 06  -21.0308 26008.7 -03435.0 -07.5235 26234.6
 01 05 2013  07 07  -21.0300 26008.8 -03435.2 -07.5239 26234.7
 01 05 2013  07 08  -21.0290 26008.7 -03435.2 -07.5241 26234.6
 01 05 2013  07 09  -21.0281 26008.7 -03435.4 -07.5244 26234.6
 01 05 2013  07 10  -21.0274 26008.7 -03435.5 -07.5246 26234.6
 01 05 2013  07 11  -21.0260 26008.8 -03435.7 -07.5250 26234.7
 01 05 2013  07 12  -21.0246 26008.7 -03435.8 -07.5254 26234.6
 01 05 2013  07 13  -21.0236 26008.4 -03435.9 -07.5255 26234.4
 01 05 2013  07 14  -21.0223 26008.7 -03436.1 -07.5260 26234.7
 01 05 2013  07 15  -21.0211 26008.9 -03436.4 -07.5265 26234.9
 01 05 2013  07 16  -21.0203 26009.3 -03436.7 -07.5271 26235.4
 01 05 2013  07 17  -21.0201 26009.5 -03437.0 -07.5276 26235.6
 01 05 2013  07 18  -21.0196 26009.6 -03437.2 -07.5280 26235.7
 01 05 2013  07 19  -21.0198 26009.4 -03437.3 -07.5282 26235.5
 01 05 2013  07 20  -21.0200 26009.4 -03437.4 -07.5285 26235.6
 01 05 2013  07 21  -21.0202 26009.4 -03437.5 -07.5288 26235.6
 01 05 2013  07 22  -21.0209 26009.3 -03437.6 -07.5290 26235.5
 01 05 2013  07 23  -21.0215 26009.3 -03437.7 -07.5292 26235.5
 01 05 2013  07 24  -21.0213 26009.4 -03437.8 -07.5294 26235.7
 01 05 2013  07 25  -21.0209 26009.7 -03437.9 -07.5297 26235.9
 01 05 2013  07 26  -21.0209 26009.8 -03438.0 -07.5298 26236.1
 01 05 2013  07 27  -21.0208 26010.3 -03438.3 -07.5302 26236.5
 01 05 2013  07 28  -21.0205 26010.3 -03438.4 -07.5305 26236.6
 01 05 2013  07 29  -21.0208 26010.9 -03438.7 -07.5310 26237.2
 01 05 2013  07 30  -21.0217 26011.7 -03439.2 -07.5318 26238.1
 01 05 2013  07 31  -21.0229 26012.3 -03439.5 -07.5323 26238.7
 01 05 2013  07 32  -21.0242 26013.0 -03439.9 -07.5330 26239.4
 01 05 2013  07 33  -21.0246 26013.4 -03440.1 -07.5331 26239.9
 01 05 2013  07 34  -21.0246 26014.0 -03440.2 -07.5333 26240.5
 01 05 2013  07 35  -21.0247 26014.8 -03440.5 -07.5338 26241.3
 01 05 2013  07 36  -21.0249 26015.9 -03441.0 -07.5344 26242.4
 01 05 2013  07 37  -21.0251 26016.4 -03441.2 -07.5347 26243.0
 01 05 2013  07 38  -21.0255 26016.7 -03441.3 -07.5348 26243.3
 01 05 2013  07 39  -21.0251 26017.6 -03441.6 -07.5352 26244.3
 01 05 2013  07 40  -21.0251 26017.9 -03441.7 -07.5354 26244.5
 01 05 2013  07 41  -21.0251 26017.6 -03441.5 -07.5350 26244.3
 01 05 2013  07 42  -21.0247 26017.5 -03441.2 -07.5345 26244.1
 01 05 2013  07 43  -21.0242 26017.2 -03440.9 -07.5340 26243.7
 01 05 2013  07 44  -21.0238 26017.1 -03440.8 -07.5337 26243.6
 01 05 2013  07 45  -21.0233 26016.8 -03440.6 -07.5334 26243.3
 01 05 2013  07 46  -21.0226 26015.7 -03440.0 -07.5325 26242.1
 01 05 2013  07 47  -21.0218 26014.9 -03439.6 -07.5318 26241.3
 01 05 2013  07 48  -21.0212 26014.2 -03439.3 -07.5313 26240.6
 01 05 2013  07 49  -21.0204 26013.6 -03439.1 -07.5309 26239.9
 01 05 2013  07 50  -21.0191 26013.2 -03438.9 -07.5307 26239.5
 01 05 2013  07 51  -21.0183 26012.8 -03438.9 -07.5308 26239.2
 01 05 2013  07 52  -21.0176 26012.4 -03438.8 -07.5308 26238.7
 01 05 2013  07 53  -21.0168 26012.2 -03438.9 -07.5309 26238.5
 01 05 2013  07 54  -21.0164 26011.9 -03438.9 -07.5311 26238.3
 01 05 2013  07 55  -21.0164 26011.7 -03438.9 -07.5312 26238.0
 01 05 2013  07 56  -21.0168 26011.6 -03439.0 -07.5315 26238.0
 01 05 2013  07 57  -21.0172 26011.6 -03439.2 -07.5318 26238.0
 01 05 2013  07 58  -21.0176 26011.2 -03439.1 -07.5318 26237.5
 01 05 2013  07 59  -21.0185 26011.5 -03439.3 -07.5322 26237.9
 01 05 2013  08 00  -21.0179 26012.1 -03439.6 -07.5327 26238.5
 01 05 2013  08 01  -21.0174 26012.7 -03440.0 -07.5332 26239.2
 01 05 2013  08 02  -21.0177 26013.2 -03440.3 -07.5338 26239.7
 01 05 2013  08 03  -21.0181 26013.7 -03440.6 -07.5342 26240.2
 01 05 2013  08 04  -21.0190 26013.4 -03440.5 -07.5342 26240.0
 01 05 2013  08 05  -21.0209 26013.3 -03440.5 -07.5341 26239.8
 01 05 2013  08 06  -21.0225 26012.9 -03440.2 -07.5337 26239.4
 01 05 2013  08 07  -21.0239 26012.3 -03439.9 -07.5332 26238.8
 01 05 2013  08 08  -21.0248 26011.9 -03439.6 -07.5325 26238.3
 01 05 2013  08 09  -21.0256 26011.7 -03439.4 -07.5321 26238.1
 01 05 2013  08 10  -21.0264 26011.8 -03439.3 -07.5321 26238.2
 01 05 2013  08 11  -21.0270 26012.0 -03439.4 -07.5321 26238.4
 01 05 2013  08 12  -21.0276 26011.9 -03439.2 -07.5318 26238.3
 01 05 2013  08 13  -21.0277 26011.8 -03439.1 -07.5315 26238.1
 01 05 2013  08 14  -21.0275 26011.7 -03438.9 -07.5312 26238.0
 01 05 2013  08 15  -21.0273 26011.8 -03438.9 -07.5311 26238.1
 01 05 2013  08 16  -21.0272 26011.8 -03438.8 -07.5310 26238.1
 01 05 2013  08 17  -21.0275 26011.9 -03438.8 -07.5309 26238.3
 01 05 2013  08 18  -21.0274 26012.0 -03438.8 -07.5307 26238.3
 01 05 2013  08 19  -21.0270 26012.2 -03438.8 -07.5307 26238.5
 01 05 2013  08 20  -21.0266 26012.1 -03438.7 -07.5305 26238.4
 01 05 2013  08 21  -21.0252 26012.5 -03438.9 -07.5309 26238.8
 01 05 2013  08 22  -21.0237 26013.1 -03439.3 -07.5316 26239.4
 01 05 2013  08 23  -21.0210 26013.7 -03439.7 -07.5323 26240.1
 01 05 2013  08 24  -21.0189 26014.1 -03440.1 -07.5330 26240.6
 01 05 2013  08 25  -21.0172 26014.2 -03440.3 -07.5334 26240.7
 01 05 2013  08 26  -21.0137 26015.5 -03440.9 -07.5343 26242.1
 01 05 2013  08 27  -21.0116 26016.7 -03441.7 -07.5358 26243.3
 01 05 2013  08 28  -21.0103 26017.1 -03442.1 -07.5364 26243.8
 01 05 2013  08 29  -21.0090 26017.7 -03442.4 -07.5370 26244.4
 01 05 2013  08 30  -21.0088 26017.8 -03442.6 -07.5373 26244.6
 01 05 2013  08 31  -21.0086 26017.7 -03442.5 -07.5371 26244.5
 01 05 2013  08 32  -21.0089 26017.9 -03442.5 -07.5371 26244.6
 01 05 2013  08 33  -21.0108 26017.8 -03442.4 -07.5369 26244.6
 01 05 2013  08 34  -21.0123 26017.4 -03442.0 -07.5362 26244.1
 01 05 2013  08 35  -21.0123 26018.1 -03442.1 -07.5362 26244.8
 01 05 2013  08 36  -21.0126 26018.1 -03442.1 -07.5362 26244.8
 01 05 2013  08 37  -21.0139 26017.4 -03441.6 -07.5354 26244.1
 01 05 2013  08 38  -21.0144 26016.0 -03440.5 -07.5333 26242.5
 01 05 2013  08 39  -21.0143 26015.8 -03439.8 -07.5320 26242.2
 01 05 2013  08 40  -21.0157 26017.4 -03440.6 -07.5331 26243.9
 01 05 2013  08 41  -21.0172 26018.1 -03441.2 -07.5342 26244.7
 01 05 2013  08 42  -21.0157 26016.7 -03440.3 -07.5328 26243.2
 01 05 2013  08 43  -21.0163 26015.9 -03439.9 -07.5321 26242.4
 01 05 2013  08 44  -21.0181 26016.2 -03440.0 -07.5323 26242.7
 01 05 2013  08 45  -21.0176 26016.9 -03440.0 -07.5321 26243.4
 01 05 2013  08 46  -21.0166 26019.2 -03441.1 -07.5337 26245.7
 01 05 2013  08 47  -21.0165 26019.0 -03441.5 -07.5347 26245.6
 01 05 2013  08 48  -21.0153 26019.2 -03441.5 -07.5347 26245.8
 01 05 2013  08 49  -21.0142 26019.7 -03441.6 -07.5347 26246.3
 01 05 2013  08 50  -21.0135 26019.8 -03441.6 -07.5346 26246.5
 01 05 2013  08 51  -21.0129 26020.0 -03441.5 -07.5344 26246.6
 01 05 2013  08 52  -21.0117 26020.5 -03441.7 -07.5346 26247.1
 01 05 2013  08 53  -21.0108 26020.6 -03441.7 -07.5348 26247.2
 01 05 2013  08 54  -21.0104 26020.5 -03441.7 -07.5346 26247.1
 01 05 2013  08 55  -21.0102 26020.7 -03441.8 -07.5348 26247.3
 01 05 2013  08 56  -21.0102 26020.8 -03441.9 -07.5351 26247.5
 01 05 2013  08 57  -21.0104 26020.5 -03441.8 -07.5350 26247.1
 01 05 2013  08 58  -21.0116 26020.5 -03441.9 -07.5350 26247.1
 01 05 2013  08 59  -21.0121 26020.5 -03441.9 -07.5351 26247.1
 01 05 2013  09 00  -21.0121 26020.4 -03441.9 -07.5352 26247.0
 01 05 2013  09 01  -21.0119 26020.2 -03441.8 -07.5351 26246.8
 01 05 2013  09 02  -21.0119 26020.0 -03441.9 -07.5352 26246.7
 01 05 2013  09 03  -21.0117 26019.7 -03441.7 -07.5350 26246.4
 01 05 2013  09 04  -21.0117 26019.4 -03441.7 -07.5350 26246.1
 01 05 2013  09 05  -21.0123 26019.2 -03441.6 -07.5349 26245.8
 01 05 2013  09 06  -21.0131 26019.5 -03441.8 -07.5353 26246.1
 01 05 2013  09 07  -21.0143 26019.2 -03441.8 -07.5354 26245.8
 01 05 2013  09 08  -21.0157 26018.5 -03441.5 -07.5348 26245.1
 01 05 2013  09 09  -21.0169 26017.0 -03440.7 -07.5335 26243.5
 01 05 2013  09 10  -21.0166 26016.9 -03440.3 -07.5326 26243.3
 01 05 2013  09 11  -21.0170 26016.8 -03440.2 -07.5325 26243.3
 01 05 2013  09 12  -21.0167 26016.7 -03440.3 -07.5329 26243.1
 01 05 2013  09 13  -21.0159 26016.4 -03440.4 -07.5330 26242.9
 01 05 2013  09 14  -21.0158 26016.4 -03440.6 -07.5334 26242.9
 01 05 2013  09 15  -21.0168 26015.7 -03440.5 -07.5335 26242.3
 01 05 2013  09 16  -21.0180 26015.1 -03440.4 -07.5335 26241.6
 01 05 2013  09 17  -21.0184 26014.8 -03440.3 -07.5333 26241.3
 01 05 2013  09 18  -21.0185 26014.6 -03440.2 -07.5332 26241.1
 01 05 2013  09 19  -21.0183 26014.1 -03440.1 -07.5331 26240.6
 01 05 2013  09 20  -21.0172 26013.4 -03439.8 -07.5327 26239.8
 01 05 2013  09 21  -21.0169 26013.7 -03440.0 -07.5330 26240.1
 01 05 2013  09 22  -21.0179 26013.4 -03440.3 -07.5337 26239.9
 01 05 2013  09 23  -21.0178 26013.1 -03440.3 -07.5339 26239.6
 01 05 2013  09 24  -21.0165 26013.5 -03440.6 -07.5343 26240.0
 01 05 2013  09 25  -21.0152 26013.3 -03440.7 -07.5345 26239.9
 01 05 2013  09 26  -21.0151 26013.1 -03440.8 -07.5348 26239.7
 01 05 2013  09 27  -21.0198 26011.3 -03440.4 -07.5344 26237.9
 01 05 2013  09 28  -21.0289 26010.2 -03440.0 -07.5340 26236.7
 01 05 2013  09 29  -21.0320 26010.1 -03439.8 -07.5335 26236.6
 01 05 2013  09 30  -21.0325 26009.0 -03438.8 -07.5317 26235.4
 01 05 2013  09 31  -21.0325 26008.3 -03438.2 -07.5306 26234.6
 01 05 2013  09 32  -21.0325 26007.4 -03437.7 -07.5298 26233.6
 01 05 2013  09 33  -21.0332 26006.5 -03437.5 -07.5297 26232.7
 01 05 2013  09 34  -21.0340 26006.3 -03437.8 -07.5304 26232.6
 01 05 2013  09 35  -21.0323 26006.3 -03438.1 -07.5309 26232.6
 01 05 2013  09 36  -21.0314 26005.9 -03438.1 -07.5311 26232.2
 01 05 2013  09 37  -21.0323 26005.6 -03438.2 -07.5314 26232.0
 01 05 2013  09 38  -21.0328 26005.6 -03438.5 -07.5319 26232.0
 01 05 2013  09 39  -21.0324 26005.7 -03438.6 -07.5322 26232.0
 01 05 2013  09 40  -21.0308 26005.9 -03438.7 -07.5323 26232.3
 01 05 2013  09 41  -21.0295 26006.2 -03438.7 -07.5322 26232.5
 01 05 2013  09 42  -21.0298 26006.4 -03438.7 -07.5322 26232.8
 01 05 2013  09 43  -21.0296 26006.6 -03438.7 -07.5321 26232.9
 01 05 2013  09 44  -21.0306 26006.5 -03438.5 -07.5318 26232.8
 01 05 2013  09 45  -21.0319 26006.1 -03438.4 -07.5316 26232.4
 01 05 2013  09 46  -21.0302 26006.0 -03438.4 -07.5316 26232.3
 01 05 2013  09 47  -21.0280 26005.7 -03438.3 -07.5316 26232.0
 01 05 2013  09 48  -21.0287 26005.9 -03438.5 -07.5320 26232.3
 01 05 2013  09 49  -21.0284 26006.4 -03438.8 -07.5324 26232.8
 01 05 2013  09 50  -21.0260 26006.9 -03438.9 -07.5325 26233.2
 01 05 2013  09 51  -21.0253 26007.5 -03439.1 -07.5327 26233.9
 01 05 2013  09 52  -21.0235 26008.1 -03439.2 -07.5328 26234.5
 01 05 2013  09 53  -21.0213 26009.3 -03439.6 -07.5333 26235.8
 01 05 2013  09 54  -21.0199 26010.1 -03439.9 -07.5339 26236.6
 01 05 2013  09 55  -21.0204 26011.7 -03440.5 -07.5347 26238.2
 01 05 2013  09 56  -21.0216 26013.5 -03441.1 -07.5354 26240.1
 01 05 2013  09 57  -21.0219 26014.9 -03441.3 -07.5355 26241.5
 01 05 2013  09 58  -21.0229 26015.7 -03441.3 -07.5352 26242.3
 01 05 2013  09 59  -21.0236 26016.3 -03441.2 -07.5348 26242.9
 01 05 2013  10 00  -21.0253 26016.8 -03441.1 -07.5344 26243.4
 01 05 2013  10 01  -21.0262 26016.7 -03440.7 -07.5336 26243.2
 01 05 2013  10 02  -21.0266 26016.2 -03440.2 -07.5326 26242.7
 01 05 2013  10 03  -21.0258 26015.8 -03439.9 -07.5321 26242.2
 01 05 2013  10 04  -21.0244 26015.3 -03439.6 -07.5316 26241.7
 01 05 2013  10 05  -21.0247 26015.1 -03439.6 -07.5317 26241.5
 01 05 2013  10 06  -21.0269 26014.8 -03439.7 -07.5319 26241.2
 01 05 2013  10 07  -21.0282 26014.3 -03439.7 -07.5322 26240.7
 01 05 2013  10 08  -21.0293 26013.6 -03439.7 -07.5323 26240.0
 01 05 2013  10 09  -21.0309 26013.3 -03439.9 -07.5328 26239.7
 01 05 2013  10 10  -21.0320 26013.2 -03440.2 -07.5334 26239.7
 01 05 2013  10 11  -21.0330 26012.6 -03440.3 -07.5338 26239.1
 01 05 2013  10 12  -21.0338 26012.1 -03440.3 -07.5341 26238.6
 01 05 2013  10 13  -21.0339 26011.5 -03440.3 -07.5342 26238.0
 01 05 2013  10 14  -21.0342 26010.4 -03440.1 -07.5341 26237.0
 01 05 2013  10 15  -21.0342 26009.5 -03440.0 -07.5342 26236.0
 01 05 2013  10 16  -21.0341 26009.1 -03440.1 -07.5345 26235.6
 01 05 2013  10 17  -21.0337 26009.2 -03440.4 -07.5351 26235.8
 01 05 2013  10 18  -21.0334 26009.1 -03440.5 -07.5353 26235.7
 01 05 2013  10 19  -21.0339 26009.2 -03440.6 -07.5356 26235.8
 01 05 2013  10 20  -21.0341 26009.4 -03440.8 -07.5359 26236.0
 01 05 2013  10 21  -21.0336 26009.6 -03440.9 -07.5360 26236.2
 01 05 2013  10 22  -21.0340 26010.1 -03441.1 -07.5364 26236.8
 01 05 2013  10 23  -21.0350 26010.8 -03441.3 -07.5366 26237.5
 01 05 2013  10 24  -21.0354 26011.4 -03441.3 -07.5364 26238.0
 01 05 2013  10 25  -21.0362 26011.7 -03441.2 -07.5362 26238.3
 01 05 2013  10 26  -21.0363 26012.0 -03441.1 -07.5358 26238.6
 01 05 2013  10 27  -21.0378 26012.4 -03441.1 -07.5357 26239.0
 01 05 2013  10 28  -21.0379 26013.2 -03441.1 -07.5356 26239.8
 01 05 2013  10 29  -21.0392 26013.1 -03440.8 -07.5348 26239.7
 01 05 2013  10 30  -21.0405 26012.2 -03440.2 -07.5338 26238.7
 01 05 2013  10 31  -21.0399 26012.0 -03440.0 -07.5334 26238.5
 01 05 2013  10 32  -21.0395 26012.0 -03439.9 -07.5332 26238.4
 01 05 2013  10 33  -21.0388 26011.7 -03439.7 -07.5328 26238.2
 01 05 2013  10 34  -21.0392 26011.7 -03439.7 -07.5328 26238.1
 01 05 2013  10 35  -21.0389 26011.4 -03439.6 -07.5328 26237.9
 01 05 2013  10 36  -21.0388 26011.4 -03439.7 -07.5329 26237.8
 01 05 2013  10 37  -21.0393 26010.8 -03439.6 -07.5329 26237.3
 01 05 2013  10 38  -21.0395 26010.5 -03439.6 -07.5330 26236.9
 01 05 2013  10 39  -21.0383 26010.5 -03439.8 -07.5334 26237.0
 01 05 2013  10 40  -21.0368 26010.1 -03439.8 -07.5335 26236.6
 01 05 2013  10 41  -21.0361 26008.9 -03439.6 -07.5334 26235.4
 01 05 2013  10 42  -21.0356 26008.0 -03439.6 -07.5336 26234.5
 01 05 2013  10 43  -21.0350 26007.6 -03439.8 -07.5343 26234.1
 01 05 2013  10 44  -21.0341 26007.7 -03440.2 -07.5352 26234.2
 01 05 2013  10 45  -21.0331 26007.8 -03440.6 -07.5359 26234.4
 01 05 2013  10 46  -21.0316 26008.0 -03440.8 -07.5364 26234.6
 01 05 2013  10 47  -21.0313 26008.2 -03441.2 -07.5372 26234.9
 01 05 2013  10 48  -21.0316 26008.6 -03441.7 -07.5380 26235.3
 01 05 2013  10 49  -21.0323 26008.9 -03442.0 -07.5387 26235.7
 01 05 2013  10 50  -21.0329 26009.7 -03442.5 -07.5395 26236.5
 01 05 2013  10 51  -21.0323 26011.4 -03443.1 -07.5403 26238.3
 01 05 2013  10 52  -21.0323 26012.5 -03443.5 -07.5408 26239.4
 01 05 2013  10 53  -21.0332 26013.3 -03443.7 -07.5410 26240.3
 01 05 2013  10 54  -21.0335 26014.6 -03444.0 -07.5413 26241.6
 01 05 2013  10 55  -21.0330 26015.5 -03443.9 -07.5410 26242.4
 01 05 2013  10 56  -21.0317 26016.1 -03443.8 -07.5406 26243.1
 01 05 2013  10 57  -21.0309 26016.8 -03443.8 -07.5403 26243.7
 01 05 2013  10 58  -21.0304 26017.8 -03443.9 -07.5403 26244.7
 01 05 2013  10 59  -21.0296 26018.6 -03444.0 -07.5401 26245.6
 01 05 2013  11 00  -21.0285 26019.3 -03443.9 -07.5398 26246.3
 01 05 2013  11 01  -21.0276 26019.9 -03444.0 -07.5399 26246.9
 01 05 2013  11 02  -21.0273 26020.6 -03444.2 -07.5402 26247.6
 01 05 2013  11 03  -21.0274 26021.5 -03444.5 -07.5405 26248.5
 01 05 2013  11 04  -21.0279 26022.0 -03444.6 -07.5405 26249.0
 01 05 2013  11 05  -21.0283 26022.0 -03444.4 -07.5402 26248.9
 01 05 2013  11 06  -21.0290 26021.2 -03444.0 -07.5396 26248.1
 01 05 2013  11 07  -21.0280 26020.2 -03443.5 -07.5387 26247.1
 01 05 2013  11 08  -21.0271 26018.8 -03443.0 -07.5380 26245.6
 01 05 2013  11 09  -21.0263 26017.7 -03442.9 -07.5380 26244.5
 01 05 2013  11 10  -21.0264 26018.2 -03443.4 -07.5391 26245.1
 01 05 2013  11 11  -21.0272 26018.8 -03443.9 -07.5399 26245.7
 01 05 2013  11 12  -21.0276 26018.8 -03444.0 -07.5402 26245.8
 01 05 2013  11 13  -21.0286 26019.5 -03444.4 -07.5408 26246.5
 01 05 2013  11 14  -21.0299 26020.1 -03444.5 -07.5409 26247.1
 01 05 2013  11 15  -21.0330 26020.0 -03444.3 -07.5405 26247.0
 01 05 2013  11 16  -21.0363 26020.9 -03444.4 -07.5404 26247.9
 01 05 2013  11 17  -21.0378 26021.4 -03444.2 -07.5397 26248.4
 01 05 2013  11 18  -21.0398 26021.0 -03443.6 -07.5386 26247.9
 01 05 2013  11 19  -21.0408 26020.9 -03443.0 -07.5375 26247.7
 01 05 2013  11 20  -21.0423 26020.7 -03442.5 -07.5365 26247.4
 01 05 2013  11 21  -21.0426 26021.7 -03442.5 -07.5361 26248.4
 01 05 2013  11 22  -21.0434 26023.2 -03442.6 -07.5358 26249.9
 01 05 2013  11 23  -21.0436 26025.0 -03442.6 -07.5354 26251.7
 01 05 2013  11 24  -21.0437 26026.8 -03442.4 -07.5345 26253.5
 01 05 2013  11 25  -21.0436 26027.5 -03441.8 -07.5330 26254.0
 01 05 2013  11 26  -21.0440 26028.2 -03441.3 -07.5317 26254.7
 01 05 2013  11 27  -21.0451 26028.8 -03440.9 -07.5306 26255.2
 01 05 2013  11 28  -21.0462 26029.8 -03440.7 -07.5298 26256.3
 01 05 2013  11 29  -21.0472 26030.3 -03440.2 -07.5287 26256.7
 01 05 2013  11 30  -21.0487 26029.1 -03439.1 -07.5266 26255.3
 01 05 2013  11 31  -21.0489 26027.8 -03438.1 -07.5249 26253.9
 01 05 2013  11 32  -21.0494 26025.8 -03437.2 -07.5235 26251.8
 01 05 2013  11 33  -21.0505 26023.8 -03436.6 -07.5227 26249.7
 01 05 2013  11 34  -21.0519 26021.7 -03436.0 -07.5221 26247.6
 01 05 2013  11 35  -21.0531 26020.6 -03435.9 -07.5222 26246.4
 01 05 2013  11 36  -21.0532 26020.4 -03436.2 -07.5227 26246.3
 01 05 2013  11 37  -21.0529 26020.2 -03436.2 -07.5229 26246.2
 01 05 2013  11 38  -21.0536 26019.8 -03436.1 -07.5228 26245.7
 01 05 2013  11 39  -21.0545 26020.0 -03436.3 -07.5231 26245.9
 01 05 2013  11 40  -21.0550 26020.7 -03436.5 -07.5234 26246.7
 01 05 2013  11 41  -21.0538 26021.7 -03436.7 -07.5235 26247.6
 01 05 2013  11 42  -21.0522 26021.9 -03436.5 -07.5231 26247.9
 01 05 2013  11 43  -21.0509 26022.2 -03436.3 -07.5225 26248.1
 01 05 2013  11 44  -21.0509 26022.3 -03436.0 -07.5219 26248.2
 01 05 2013  11 45  -21.0510 26022.6 -03435.9 -07.5214 26248.5
 01 05 2013  11 46  -21.0510 26023.2 -03435.7 -07.5209 26249.0
 01 05 2013  11 47  -21.0507 26023.7 -03435.5 -07.5203 26249.4
 01 05 2013  11 48  -21.0498 26024.7 -03435.5 -07.5201 26250.5
 01 05 2013  11 49  -21.0493 26025.2 -03435.4 -07.5196 26250.9
 01 05 2013  11 50  -21.0482 26026.1 -03435.3 -07.5192 26251.8
 01 05 2013  11 51  -21.0477 26025.7 -03434.7 -07.5180 26251.3
 01 05 2013  11 52  -21.0473 26025.3 -03434.2 -07.5172 26250.9
 01 05 2013  11 53  -21.0464 26025.3 -03434.1 -07.5169 26250.9
 01 05 2013  11 54  -21.0450 26025.7 -03434.1 -07.5168 26251.3
 01 05 2013  11 55  -21.0443 26026.3 -03434.3 -07.5169 26251.9
 01 05 2013  11 56  -21.0433 26025.8 -03433.9 -07.5162 26251.4
 01 05 2013  11 57  -21.0431 26025.4 -03433.6 -07.5157 26250.9
 01 05 2013  11 58  -21.0441 26024.0 -03433.0 -07.5149 26249.4
 01 05 2013  11 59  -21.0445 26022.4 -03432.4 -07.5139 26247.8
 01 05 2013  12 00  -21.0452 26020.8 -03432.0 -07.5135 26246.2
 01 05 2013  12 01  -21.0454 26020.0 -03431.8 -07.5135 26245.4
 01 05 2013  12 02  -21.0455 26021.2 -03432.5 -07.5147 26246.6
 01 05 2013  12 03  -21.0460 26023.2 -03433.4 -07.5160 26248.7
 01 05 2013  12 04  -21.0455 26024.4 -03433.6 -07.5161 26249.9
 01 05 2013  12 05  -21.0451 26025.4 -03433.7 -07.5159 26250.9
 01 05 2013  12 06  -21.0444 26026.4 -03433.6 -07.5156 26251.9
 01 05 2013  12 07  -21.0437 26027.5 -03433.6 -07.5151 26253.0
 01 05 2013  12 08  -21.0428 26028.4 -03433.5 -07.5146 26253.9
 01 05 2013  12 09  -21.0416 26029.4 -03433.4 -07.5142 26254.8
 01 05 2013  12 10  -21.0399 26031.2 -03433.6 -07.5141 26256.6
 01 05 2013  12 11  -21.0392 26033.4 -03434.0 -07.5143 26258.9
 01 05 2013  12 12  -21.0393 26034.8 -03434.0 -07.5139 26260.3
 01 05 2013  12 13  -21.0393 26034.5 -03433.3 -07.5125 26259.9
 01 05 2013  12 14  -21.0389 26034.5 -03432.8 -07.5115 26259.8
 01 05 2013  12 15  -21.0392 26034.1 -03432.3 -07.5106 26259.4
 01 05 2013  12 16  -21.0405 26033.4 -03431.9 -07.5098 26258.6
 01 05 2013  12 17  -21.0406 26032.8 -03431.6 -07.5092 26258.0
 01 05 2013  12 18  -21.0411 26032.5 -03431.4 -07.5089 26257.7
 01 05 2013  12 19  -21.0419 26033.3 -03431.7 -07.5094 26258.5
 01 05 2013  12 20  -21.0416 26034.1 -03431.9 -07.5096 26259.3
 01 05 2013  12 21  -21.0415 26033.9 -03431.6 -07.5090 26259.1
 01 05 2013  12 22  -21.0414 26034.0 -03431.4 -07.5087 26259.1
 01 05 2013  12 23  -21.0417 26033.6 -03431.2 -07.5083 26258.8
 01 05 2013  12 24  -21.0428 26033.5 -03431.2 -07.5083 26258.7
 01 05 2013  12 25  -21.0435 26033.9 -03431.4 -07.5086 26259.1
 01 05 2013  12 26  -21.0439 26035.5 -03432.0 -07.5095 26260.7
 01 05 2013  12 27  -21.0441 26037.4 -03432.7 -07.5104 26262.7
 01 05 2013  12 28  -21.0440 26038.1 -03432.6 -07.5100 26263.4
 01 05 2013  12 29  -21.0445 26037.3 -03431.9 -07.5086 26262.5
 01 05 2013  12 30  -21.0458 26035.5 -03431.0 -07.5072 26260.6
 01 05 2013  12 31  -21.0470 26033.5 -03430.2 -07.5062 26258.5
 01 05 2013  12 32  -21.0477 26031.5 -03429.7 -07.5057 26256.5
 01 05 2013  12 33  -21.0482 26030.5 -03429.7 -07.5060 26255.5
 01 05 2013  12 34  -21.0483 26030.1 -03430.1 -07.5069 26255.1
 01 05 2013  12 35  -21.0477 26029.9 -03430.5 -07.5079 26255.0
 01 05 2013  12 36  -21.0465 26029.8 -03430.9 -07.5088 26254.9
 01 05 2013  12 37  -21.0459 26029.7 -03431.4 -07.5098 26254.9
 01 05 2013  12 38  -21.0453 26029.1 -03431.6 -07.5104 26254.4
 01 05 2013  12 39  -21.0453 26029.2 -03432.1 -07.5114 26254.5
 01 05 2013  12 40  -21.0448 26029.5 -03432.5 -07.5121 26254.8
 01 05 2013  12 41  -21.0442 26029.2 -03432.5 -07.5124 26254.6
 01 05 2013  12 42  -21.0434 26028.6 -03432.5 -07.5125 26253.9
 01 05 2013  12 43  -21.0435 26028.6 -03432.8 -07.5132 26254.0
 01 05 2013  12 44  -21.0433 26029.5 -03433.4 -07.5141 26255.0
 01 05 2013  12 45  -21.0437 26029.8 -03433.6 -07.5145 26255.3
 01 05 2013  12 46  -21.0442 26029.8 -03433.7 -07.5147 26255.3
 01 05 2013  12 47  -21.0449 26029.5 -03433.8 -07.5149 26255.0
 01 05 2013  12 48  -21.0459 26029.3 -03433.9 -07.5153 26254.8
 01 05 2013  12 49  -21.0471 26029.1 -03434.0 -07.5156 26254.6
 01 05 2013  12 50  -21.0490 26029.7 -03434.5 -07.5166 26255.4
 01 05 2013  12 51  -21.0496 26029.8 -03434.7 -07.5169 26255.5
 01 05 2013  12 52  -21.0506 26030.0 -03435.0 -07.5174 26255.6
 01 05 2013  12 53  -21.0519 26030.7 -03435.4 -07.5182 26256.4
 01 05 2013  12 54  -21.0531 26031.4 -03435.8 -07.5187 26257.1
 01 05 2013  12 55  -21.0546 26032.4 -03436.2 -07.5193 26258.2
 01 05 2013  12 56  -21.0561 26033.5 -03436.6 -07.5199 26259.3
 01 05 2013  12 57  -21.0571 26033.8 -03436.5 -07.5197 26259.6
 01 05 2013  12 58  -21.0577 26033.6 -03436.2 -07.5192 26259.4
 01 05 2013  12 59  -21.0580 26033.3 -03436.0 -07.5186 26259.0
 01 05 2013  13 00  -21.0580 26032.9 -03435.7 -07.5182 26258.6
 01 05 2013  13 01  -21.0584 26033.3 -03436.0 -07.5187 26259.1
 01 05 2013  13 02  -21.0592 26034.0 -03436.4 -07.5193 26259.9
 01 05 2013  13 03  -21.0594 26033.7 -03436.3 -07.5191 26259.5
 01 05 2013  13 04  -21.0591 26033.7 -03436.3 -07.5192 26259.5
 01 05 2013  13 05  -21.0589 26033.5 -03436.3 -07.5192 26259.3
 01 05 2013  13 06  -21.0602 26033.7 -03436.5 -07.5196 26259.5
 01 05 2013  13 07  -21.0621 26033.7 -03436.6 -07.5198 26259.5
 01 05 2013  13 08  -21.0632 26033.4 -03436.6 -07.5199 26259.3
 01 05 2013  13 09  -21.0640 26033.1 -03436.5 -07.5198 26258.9
 01 05 2013  13 10  -21.0644 26032.8 -03436.4 -07.5198 26258.6
 01 05 2013  13 11  -21.0649 26032.1 -03436.2 -07.5195 26257.9
 01 05 2013  13 12  -21.0660 26032.1 -03436.4 -07.5200 26257.9
 01 05 2013  13 13  -21.0669 26032.6 -03436.8 -07.5206 26258.5
 01 05 2013  13 14  -21.0678 26033.2 -03437.1 -07.5210 26259.1
 01 05 2013  13 15  -21.0685 26033.4 -03437.0 -07.5209 26259.3
 01 05 2013  13 16  -21.0689 26034.1 -03437.2 -07.5211 26260.0
 01 05 2013  13 17  -21.0692 26034.6 -03437.3 -07.5212 26260.5
 01 05 2013  13 18  -21.0687 26035.2 -03437.4 -07.5211 26261.1
 01 05 2013  13 19  -21.0685 26035.3 -03437.2 -07.5208 26261.2
 01 05 2013  13 20  -21.0688 26035.8 -03437.3 -07.5208 26261.7
 01 05 2013  13 21  -21.0695 26036.0 -03437.2 -07.5206 26261.9
 01 05 2013  13 22  -21.0703 26036.8 -03437.3 -07.5206 26262.7
 01 05 2013  13 23  -21.0716 26038.3 -03437.8 -07.5211 26264.3
 01 05 2013  13 24  -21.0723 26039.4 -03437.8 -07.5209 26265.4
 01 05 2013  13 25  -21.0726 26039.4 -03437.2 -07.5196 26265.2
 01 05 2013  13 26  -21.0724 26038.7 -03436.4 -07.5181 26264.5
 01 05 2013  13 27  -21.0712 26039.4 -03436.3 -07.5176 26265.1
 01 05 2013  13 28  -21.0705 26040.7 -03436.4 -07.5174 26266.5
 01 05 2013  13 29  -21.0712 26041.9 -03436.4 -07.5172 26267.7
 01 05 2013  13 30  -21.0713 26043.3 -03436.4 -07.5167 26269.0
 01 05 2013  13 31  -21.0716 26044.0 -03436.1 -07.5158 26269.7
 01 05 2013  13 32  -21.0717 26043.6 -03435.3 -07.5142 26269.2
 01 05 2013  13 33  -21.0725 26044.2 -03435.1 -07.5137 26269.7
 01 05 2013  13 34  -21.0736 26044.5 -03434.9 -07.5131 26270.0
 01 05 2013  13 35  -21.0745 26044.2 -03434.4 -07.5121 26269.7
 01 05 2013  13 36  -21.0748 26043.1 -03433.6 -07.5107 26268.5
 01 05 2013  13 37  -21.0737 26041.6 -03432.8 -07.5093 26266.9
 01 05 2013  13 38  -21.0727 26040.9 -03432.4 -07.5088 26266.1
 01 05 2013  13 39  -21.0716 26040.5 -03432.3 -07.5086 26265.7
 01 05 2013  13 40  -21.0703 26039.5 -03431.9 -07.5081 26264.6
 01 05 2013  13 41  -21.0696 26039.2 -03431.9 -07.5081 26264.4
 01 05 2013  13 42  -21.0687 26039.8 -03432.2 -07.5086 26265.0
 01 05 2013  13 43  -21.0674 26039.5 -03432.0 -07.5084 26264.7
 01 05 2013  13 44  -21.0657 26040.5 -03432.3 -07.5087 26265.7
 01 05 2013  13 45  -21.0647 26041.4 -03432.7 -07.5092 26266.7
 01 05 2013  13 46  -21.0638 26040.4 -03432.1 -07.5083 26265.6
 01 05 2013  13 47  -21.0633 26038.1 -03431.1 -07.5068 26263.2
 01 05 2013  13 48  -21.0626 26037.8 -03431.0 -07.5066 26262.9
 01 05 2013  13 49  -21.0625 26036.8 -03430.7 -07.5063 26261.8
 01 05 2013  13 50  -21.0630 26035.1 -03430.1 -07.5055 26260.1
 01 05 2013  13 51  -21.0639 26034.5 -03430.2 -07.5057 26259.5
 01 05 2013  13 52  -21.0650 26034.4 -03430.3 -07.5061 26259.4
 01 05 2013  13 53  -21.0663 26034.0 -03430.5 -07.5065 26259.0
 01 05 2013  13 54  -21.0668 26032.2 -03429.8 -07.5057 26257.2
 01 05 2013  13 55  -21.0669 26030.4 -03429.3 -07.5050 26255.4
 01 05 2013  13 56  -21.0680 26030.1 -03429.5 -07.5055 26255.1
 01 05 2013  13 57  -21.0681 26029.5 -03429.5 -07.5058 26254.5
 01 05 2013  13 58  -21.0687 26029.2 -03429.6 -07.5061 26254.2
 01 05 2013  13 59  -21.0699 26030.3 -03430.2 -07.5071 26255.3
 01 05 2013  14 00  -21.0703 26031.8 -03430.9 -07.5080 26256.9
 01 05 2013  14 01  -21.0709 26033.5 -03431.4 -07.5087 26258.7
 01 05 2013  14 02  -21.0709 26035.6 -03432.0 -07.5094 26260.9
 01 05 2013  14 03  -21.0702 26037.7 -03432.4 -07.5096 26263.0
 01 05 2013  14 04  -21.0704 26039.9 -03432.8 -07.5098 26265.2
 01 05 2013  14 05  -21.0710 26041.0 -03432.7 -07.5093 26266.3
 01 05 2013  14 06  -21.0705 26041.1 -03432.1 -07.5081 26266.3
 01 05 2013  14 07  -21.0707 26041.2 -03431.8 -07.5073 26266.4
 01 05 2013  14 08  -21.0718 26040.5 -03431.2 -07.5062 26265.6
 01 05 2013  14 09  -21.0718 26040.5 -03430.9 -07.5056 26265.5
 01 05 2013  14 10  -21.0713 26041.4 -03431.0 -07.5056 26266.5
 01 05 2013  14 11  -21.0723 26043.2 -03431.6 -07.5063 26268.3
 01 05 2013  14 12  -21.0728 26044.5 -03431.7 -07.5063 26269.6
 01 05 2013  14 13  -21.0724 26045.0 -03431.6 -07.5057 26270.1
 01 05 2013  14 14  -21.0710 26044.4 -03430.9 -07.5045 26269.4
 01 05 2013  14 15  -21.0702 26043.5 -03430.3 -07.5035 26268.4
 01 05 2013  14 16  -21.0692 26042.4 -03429.8 -07.5027 26267.3
 01 05 2013  14 17  -21.0690 26041.7 -03429.6 -07.5025 26266.5
 01 05 2013  14 18  -21.0689 26041.1 -03429.4 -07.5023 26265.9
 01 05 2013  14 19  -21.0690 26042.2 -03429.9 -07.5030 26267.1
 01 05 2013  14 20  -21.0700 26042.8 -03430.2 -07.5034 26267.7
 01 05 2013  14 21  -21.0704 26043.6 -03430.3 -07.5035 26268.5
 01 05 2013  14 22  -21.0709 26043.4 -03430.0 -07.5029 26268.3
 01 05 2013  14 23  -21.0721 26043.3 -03429.9 -07.5026 26268.2
 01 05 2013  14 24  -21.0724 26043.3 -03429.7 -07.5023 26268.1
 01 05 2013  14 25  -21.0720 26043.0 -03429.5 -07.5018 26267.8
 01 05 2013  14 26  -21.0707 26042.3 -03429.0 -07.5010 26267.1
 01 05 2013  14 27  -21.0688 26041.4 -03428.6 -07.5005 26266.2
 01 05 2013  14 28  -21.0679 26041.0 -03428.6 -07.5005 26265.8
 01 05 2013  14 29  -21.0681 26040.1 -03428.4 -07.5004 26264.8
 01 05 2013  14 30  -21.0681 26039.7 -03428.4 -07.5005 26264.4
 01 05 2013  14 31  -21.0685 26040.1 -03428.7 -07.5011 26264.8
 01 05 2013  14 32  -21.0701 26040.0 -03428.8 -07.5013 26264.8
 01 05 2013  14 33  -21.0711 26038.5 -03428.3 -07.5005 26263.2
 01 05 2013  14 34  -21.0724 26037.5 -03428.0 -07.5003 26262.2
 01 05 2013  14 35  -21.0726 26037.5 -03428.2 -07.5007 26262.2
 01 05 2013  14 36  -21.0715 26037.8 -03428.5 -07.5011 26262.5
 01 05 2013  14 37  -21.0708 26037.1 -03428.2 -07.5008 26261.8
 01 05 2013  14 38  -21.0718 26035.3 -03427.7 -07.5001 26260.0
 01 05 2013  14 39  -21.0734 26034.7 -03427.7 -07.5005 26259.4
 01 05 2013  14 40  -21.0735 26032.6 -03427.2 -07.4998 26257.3
 01 05 2013  14 41  -21.0722 26031.4 -03427.0 -07.4998 26256.0
 01 05 2013  14 42  -21.0719 26030.0 -03427.0 -07.5002 26254.6
 01 05 2013  14 43  -21.0721 26028.2 -03426.9 -07.5006 26252.8
 01 05 2013  14 44  -21.0725 26025.9 -03426.7 -07.5006 26250.5
 01 05 2013  14 45  -21.0722 26025.0 -03427.0 -07.5017 26249.6
 01 05 2013  14 46  -21.0721 26023.7 -03427.4 -07.5028 26248.4
 01 05 2013  14 47  -21.0729 26022.6 -03427.8 -07.5039 26247.4
 01 05 2013  14 48  -21.0725 26022.0 -03428.2 -07.5051 26246.8
 01 05 2013  14 49  -21.0721 26021.9 -03428.9 -07.5066 26246.9
 01 05 2013  14 50  -21.0735 26022.0 -03429.5 -07.5080 26247.0
 01 05 2013  14 51  -21.0753 26020.8 -03429.6 -07.5083 26245.8
 01 05 2013  14 52  -21.0762 26018.9 -03429.2 -07.5082 26243.9
 01 05 2013  14 53  -21.0769 26018.5 -03429.6 -07.5091 26243.6
 01 05 2013  14 54  -21.0763 26018.4 -03430.1 -07.5101 26243.6
 01 05 2013  14 55  -21.0769 26018.3 -03430.5 -07.5110 26243.4
 01 05 2013  14 56  -21.0768 26017.8 -03430.7 -07.5116 26243.0
 01 05 2013  14 57  -21.0757 26017.3 -03430.8 -07.5119 26242.5
 01 05 2013  14 58  -21.0747 26017.2 -03431.1 -07.5127 26242.5
 01 05 2013  14 59  -21.0751 26017.6 -03431.6 -07.5137 26242.9
 01 05 2013  15 00  -21.0756 26017.2 -03431.7 -07.5141 26242.5
 01 05 2013  15 01  -21.0756 26017.0 -03431.9 -07.5144 26242.3
 01 05 2013  15 02  -21.0752 26017.0 -03432.2 -07.5150 26242.5
 01 05 2013  15 03  -21.0747 26016.9 -03432.3 -07.5154 26242.4
 01 05 2013  15 04  -21.0741 26016.0 -03432.1 -07.5151 26241.4
 01 05 2013  15 05  -21.0729 26015.1 -03431.9 -07.5151 26240.5
 01 05 2013  15 06  -21.0725 26014.8 -03432.2 -07.5158 26240.3
 01 05 2013  15 07  -21.0731 26014.9 -03432.6 -07.5167 26240.4
 01 05 2013  15 08  -21.0736 26015.1 -03433.1 -07.5175 26240.6
 01 05 2013  15 09  -21.0739 26015.2 -03433.3 -07.5181 26240.7
 01 05 2013  15 10  -21.0737 26014.1 -03433.1 -07.5178 26239.6
 01 05 2013  15 11  -21.0726 26013.2 -03432.9 -07.5177 26238.7
 01 05 2013  15 12  -21.0719 26013.2 -03433.2 -07.5184 26238.8
 01 05 2013  15 13  -21.0717 26013.3 -03433.6 -07.5192 26238.9
 01 05 2013  15 14  -21.0717 26013.1 -03433.8 -07.5197 26238.7
 01 05 2013  15 15  -21.0718 26013.3 -03434.2 -07.5205 26239.0
 01 05 2013  15 16  -21.0713 26013.5 -03434.5 -07.5211 26239.3
 01 05 2013  15 17  -21.0716 26013.3 -03434.7 -07.5215 26239.1
 01 05 2013  15 18  -21.0719 26012.3 -03434.5 -07.5214 26238.1
 01 05 2013  15 19  -21.0721 26011.7 -03434.6 -07.5219 26237.5
 01 05 2013  15 20  -21.0718 26011.5 -03435.0 -07.5227 26237.3
 01 05 2013  15 21  -21.0719 26011.5 -03435.4 -07.5236 26237.4
 01 05 2013  15 22  -21.0730 26011.6 -03435.8 -07.5245 26237.5
 01 05 2013  15 23  -21.0734 26010.9 -03435.8 -07.5246 26236.8
 01 05 2013  15 24  -21.0736 26010.8 -03436.0 -07.5251 26236.8
 01 05 2013  15 25  -21.0742 26010.6 -03436.2 -07.5255 26236.6
 01 05 2013  15 26  -21.0757 26010.9 -03436.6 -07.5263 26236.9
 01 05 2013  15 27  -21.0771 26010.5 -03436.5 -07.5264 26236.5
 01 05 2013  15 28  -21.0776 26009.7 -03436.3 -07.5262 26235.7
 01 05 2013  15 29  -21.0783 26009.3 -03436.5 -07.5265 26235.3
 01 05 2013  15 30  -21.0794 26009.3 -03436.7 -07.5272 26235.4
 01 05 2013  15 31  -21.0797 26008.8 -03436.7 -07.5272 26234.9
 01 05 2013  15 32  -21.0799 26008.5 -03436.8 -07.5275 26234.6
 01 05 2013  15 33  -21.0804 26008.9 -03437.2 -07.5282 26235.0
 01 05 2013  15 34  -21.0803 26009.4 -03437.5 -07.5287 26235.5
 01 05 2013  15 35  -21.0810 26009.6 -03437.6 -07.5290 26235.8
 01 05 2013  15 36  -21.0813 26010.2 -03437.9 -07.5295 26236.4
 01 05 2013  15 37  -21.0814 26010.4 -03437.9 -07.5295 26236.6
 01 05 2013  15 38  -21.0813 26010.6 -03438.0 -07.5295 26236.9
 01 05 2013  15 39  -21.0813 26010.9 -03438.1 -07.5296 26237.1
 01 05 2013  15 40  -21.0815 26011.2 -03438.2 -07.5297 26237.5
 01 05 2013  15 41  -21.0817 26011.1 -03438.0 -07.5294 26237.3
 01 05 2013  15 42  -21.0821 26010.8 -03437.8 -07.5291 26237.0
 01 05 2013  15 43  -21.0820 26010.1 -03437.5 -07.5286 26236.3
 01 05 2013  15 44  -21.0816 26009.4 -03437.3 -07.5283 26235.5
 01 05 2013  15 45  -21.0820 26009.4 -03437.4 -07.5286 26235.5
 01 05 2013  15 46  -21.0821 26009.7 -03437.6 -07.5290 26235.9
 01 05 2013  15 47  -21.0822 26009.9 -03437.7 -07.5291 26236.1
 01 05 2013  15 48  -21.0833 26010.0 -03437.8 -07.5292 26236.2
 01 05 2013  15 49  -21.0838 26010.5 -03438.0 -07.5295 26236.7
 01 05 2013  15 50  -21.0841 26010.9 -03438.1 -07.5296 26237.2
 01 05 2013  15 51  -21.0850 26012.0 -03438.4 -07.5300 26238.3
 01 05 2013  15 52  -21.0862 26013.6 -03438.8 -07.5304 26239.9
 01 05 2013  15 53  -21.0873 26015.1 -03439.0 -07.5304 26241.4
 01 05 2013  15 54  -21.0879 26016.6 -03439.1 -07.5302 26242.9
 01 05 2013  15 55  -21.0880 26018.3 -03439.2 -07.5298 26244.6
 01 05 2013  15 56  -21.0874 26019.0 -03438.7 -07.5287 26245.2
 01 05 2013  15 57  -21.0870 26019.2 -03438.2 -07.5275 26245.4
 01 05 2013  15 58  -21.0870 26019.3 -03437.8 -07.5266 26245.4
 01 05 2013  15 59  -21.0868 26019.2 -03437.4 -07.5258 26245.3
 01 05 2013  16 00  -21.0868 26019.6 -03437.4 -07.5256 26245.6
 01 05 2013  16 01  -21.0865 26019.4 -03437.1 -07.5250 26245.5
 01 05 2013  16 02  -21.0859 26018.5 -03436.5 -07.5240 26244.4
 01 05 2013  16 03  -21.0852 26017.8 -03436.1 -07.5233 26243.7
 01 05 2013  16 04  -21.0856 26017.2 -03435.9 -07.5231 26243.1
 01 05 2013  16 05  -21.0866 26016.6 -03435.9 -07.5232 26242.5
 01 05 2013  16 06  -21.0870 26015.4 -03435.5 -07.5227 26241.3
 01 05 2013  16 07  -21.0878 26015.4 -03435.7 -07.5231 26241.3
 01 05 2013  16 08  -21.0889 26015.0 -03435.6 -07.5231 26240.8
 01 05 2013  16 09  -21.0895 26014.4 -03435.5 -07.5230 26240.3
 01 05 2013  16 10  -21.0900 26014.0 -03435.4 -07.5229 26239.9
 01 05 2013  16 11  -21.0912 26014.1 -03435.5 -07.5232 26240.0
 01 05 2013  16 12  -21.0916 26013.5 -03435.3 -07.5228 26239.3
 01 05 2013  16 13  -21.0917 26013.2 -03435.1 -07.5225 26239.0
 01 05 2013  16 14  -21.0925 26013.1 -03435.1 -07.5225 26238.9
 01 05 2013  16 15  -21.0940 26013.4 -03435.3 -07.5228 26239.3
 01 05 2013  16 16  -21.0944 26013.6 -03435.1 -07.5224 26239.4
 01 05 2013  16 17  -21.0945 26013.6 -03434.9 -07.5219 26239.4
 01 05 2013  16 18  -21.0940 26013.0 -03434.4 -07.5209 26238.7
 01 05 2013  16 19  -21.0940 26012.9 -03434.2 -07.5206 26238.6
 01 05 2013  16 20  -21.0935 26012.4 -03433.8 -07.5200 26238.0
 01 05 2013  16 21  -21.0930 26011.8 -03433.5 -07.5194 26237.5
 01 05 2013  16 22  -21.0930 26011.2 -03433.3 -07.5191 26236.8
 01 05 2013  16 23  -21.0925 26010.6 -03433.1 -07.5188 26236.2
 01 05 2013  16 24  -21.0920 26010.1 -03432.9 -07.5185 26235.7
 01 05 2013  16 25  -21.0918 26009.8 -03432.8 -07.5184 26235.4
 01 05 2013  16 26  -21.0920 26009.6 -03432.8 -07.5185 26235.1
 01 05 2013  16 27  -21.0923 26009.1 -03432.6 -07.5183 26234.6
 01 05 2013  16 28  -21.0923 26009.0 -03432.6 -07.5183 26234.6
 01 05 2013  16 29  -21.0920 26008.9 -03432.5 -07.5181 26234.4
 01 05 2013  16 30  -21.0921 26009.4 -03432.7 -07.5183 26234.9
 01 05 2013  16 31  -21.0917 26009.6 -03432.6 -07.5182 26235.2
 01 05 2013  16 32  -21.0911 26009.5 -03432.4 -07.5176 26235.0
 01 05 2013  16 33  -21.0908 26009.6 -03432.2 -07.5173 26235.1
 01 05 2013  16 34  -21.0905 26009.5 -03432.1 -07.5170 26235.0
 01 05 2013  16 35  -21.0909 26009.1 -03431.8 -07.5165 26234.5
 01 05 2013  16 36  -21.0903 26008.6 -03431.6 -07.5161 26234.0
 01 05 2013  16 37  -21.0893 26008.0 -03431.3 -07.5158 26233.4
 01 05 2013  16 38  -21.0886 26007.3 -03431.2 -07.5157 26232.6
 01 05 2013  16 39  -21.0895 26007.3 -03431.4 -07.5161 26232.7
 01 05 2013  16 40  -21.0902 26007.5 -03431.6 -07.5165 26232.9
 01 05 2013  16 41  -21.0902 26007.1 -03431.4 -07.5163 26232.5
 01 05 2013  16 42  -21.0891 26006.5 -03431.2 -07.5160 26231.9
 01 05 2013  16 43  -21.0880 26005.7 -03430.9 -07.5155 26231.1
 01 05 2013  16 44  -21.0875 26004.8 -03430.6 -07.5152 26230.1
 01 05 2013  16 45  -21.0867 26004.2 -03430.6 -07.5154 26229.6
 01 05 2013  16 46  -21.0873 26004.2 -03430.8 -07.5157 26229.5
 01 05 2013  16 47  -21.0872 26003.6 -03430.6 -07.5155 26229.0
 01 05 2013  16 48  -21.0873 26002.9 -03430.4 -07.5152 26228.2
 01 05 2013  16 49  -21.0877 26002.3 -03430.3 -07.5152 26227.6
 01 05 2013  16 50  -21.0887 26002.2 -03430.3 -07.5153 26227.5
 01 05 2013  16 51  -21.0898 26002.3 -03430.5 -07.5156 26227.6
 01 05 2013  16 52  -21.0909 26002.4 -03430.6 -07.5157 26227.8
 01 05 2013  16 53  -21.0917 26002.5 -03430.5 -07.5157 26227.8
 01 05 2013  16 54  -21.0935 26003.0 -03430.7 -07.5160 26228.3
 01 05 2013  16 55  -21.0948 26003.3 -03430.7 -07.5158 26228.6
 01 05 2013  16 56  -21.0958 26003.2 -03430.4 -07.5152 26228.5
 01 05 2013  16 57  -21.0971 26003.3 -03430.2 -07.5147 26228.6
 01 05 2013  16 58  -21.0972 26003.4 -03429.9 -07.5141 26228.6
 01 05 2013  16 59  -21.0982 26003.4 -03429.8 -07.5137 26228.6
 01 05 2013  17 00  -21.0978 26002.8 -03429.3 -07.5128 26228.0
 01 05 2013  17 01  -21.0964 26001.8 -03428.6 -07.5117 26226.9
 01 05 2013  17 02  -21.0959 26001.7 -03428.5 -07.5115 26226.7
 01 05 2013  17 03  -21.0959 26002.0 -03428.6 -07.5115 26227.1
 01 05 2013  17 04  -21.0959 26002.6 -03428.6 -07.5116 26227.6
 01 05 2013  17 05  -21.0954 26002.7 -03428.5 -07.5112 26227.7
 01 05 2013  17 06  -21.0952 26002.6 -03428.3 -07.5108 26227.6
 01 05 2013  17 07  -21.0958 26002.5 -03428.2 -07.5106 26227.5
 01 05 2013  17 08  -21.0959 26002.4 -03428.0 -07.5103 26227.4
 01 05 2013  17 09  -21.0952 26001.6 -03427.6 -07.5095 26226.5
 01 05 2013  17 10  -21.0954 26001.2 -03427.4 -07.5093 26226.1
 01 05 2013  17 11  -21.0967 26001.5 -03427.6 -07.5096 26226.4
 01 05 2013  17 12  -21.0980 26001.5 -03427.7 -07.5097 26226.5
 01 05 2013  17 13  -21.0983 26000.9 -03427.3 -07.5092 26225.9
 01 05 2013  17 14  -21.0992 26001.0 -03427.4 -07.5093 26225.9
 01 05 2013  17 15  -21.1006 26001.9 -03427.7 -07.5097 26226.9
 01 05 2013  17 16  -21.1006 26002.0 -03427.5 -07.5092 26226.9
 01 05 2013  17 17  -21.1008 26001.9 -03427.2 -07.5087 26226.8
 01 05 2013  17 18  -21.1012 26001.7 -03426.9 -07.5081 26226.5
 01 05 2013  17 19  -21.1010 26000.8 -03426.3 -07.5071 26225.6
 01 05 2013  17 20  -21.1011 26000.8 -03426.2 -07.5069 26225.6
 01 05 2013  17 21  -21.1013 26001.1 -03426.2 -07.5067 26225.9
 01 05 2013  17 22  -21.1006 26000.6 -03425.7 -07.5058 26225.3
 01 05 2013  17 23  -21.0999 26000.2 -03425.4 -07.5052 26224.9
 01 05 2013  17 24  -21.0991 25999.8 -03425.1 -07.5047 26224.4
 01 05 2013  17 25  -21.0979 25998.7 -03424.6 -07.5039 26223.3
 01 05 2013  17 26  -21.0971 25998.3 -03424.5 -07.5038 26222.9
 01 05 2013  17 27  -21.0979 25998.5 -03424.6 -07.5040 26223.1
 01 05 2013  17 28  -21.1000 25999.3 -03425.0 -07.5046 26223.9
 01 05 2013  17 29  -21.1015 25999.6 -03425.1 -07.5047 26224.2
 01 05 2013  17 30  -21.1019 25998.8 -03424.6 -07.5039 26223.4
 01 05 2013  17 31  -21.1018 25997.6 -03424.0 -07.5029 26222.1
 01 05 2013  17 32  -21.1014 25996.8 -03423.7 -07.5026 26221.3
 01 05 2013  17 33  -21.1003 25996.1 -03423.4 -07.5021 26220.6
 01 05 2013  17 34  -21.0980 25994.8 -03422.9 -07.5013 26219.2
 01 05 2013  17 35  -21.0950 25993.3 -03422.3 -07.5005 26217.6
 01 05 2013  17 36  -21.0923 25991.8 -03421.9 -07.5000 26216.0
 01 05 2013  17 37  -21.0904 25990.5 -03421.7 -07.4998 26214.8
 01 05 2013  17 38  -21.0888 25989.4 -03421.6 -07.5000 26213.7
 01 05 2013  17 39  -21.0881 25988.9 -03421.8 -07.5006 26213.2
 01 05 2013  17 40  -21.0875 25988.8 -03422.2 -07.5015 26213.2
 01 05 2013  17 41  -21.0881 25988.8 -03422.5 -07.5022 26213.2
 01 05 2013  17 42  -21.0891 25988.6 -03422.8 -07.5030 26213.0
 01 05 2013  17 43  -21.0905 25988.4 -03423.1 -07.5036 26212.9
 01 05 2013  17 44  -21.0927 25988.2 -03423.4 -07.5043 26212.7
 01 05 2013  17 45  -21.0943 25987.9 -03423.5 -07.5047 26212.4
 01 05 2013  17 46  -21.0967 25988.2 -03423.9 -07.5054 26212.7
 01 05 2013  17 47  -21.0984 25988.1 -03424.0 -07.5057 26212.7
 01 05 2013  17 48  -21.0995 25988.6 -03424.2 -07.5060 26213.2
 01 05 2013  17 49  -21.1008 25989.0 -03424.4 -07.5063 26213.6
 01 05 2013  17 50  -21.1008 25988.3 -03424.0 -07.5055 26212.9
 01 05 2013  17 51  -21.1004 25987.6 -03423.6 -07.5049 26212.1
 01 05 2013  17 52  -21.0999 25987.8 -03423.6 -07.5048 26212.3
 01 05 2013  17 53  -21.1003 25988.3 -03423.8 -07.5051 26212.8
 01 05 2013  17 54  -21.1000 25988.5 -03423.7 -07.5049 26213.0
 01 05 2013  17 55  -21.1000 25988.3 -03423.5 -07.5044 26212.9
 01 05 2013  17 56  -21.1011 25988.8 -03423.5 -07.5044 26213.3
 01 05 2013  17 57  -21.1027 25989.4 -03423.6 -07.5044 26214.0
 01 05 2013  17 58  -21.1037 25990.2 -03423.7 -07.5043 26214.7
 01 05 2013  17 59  -21.1038 25990.5 -03423.5 -07.5039 26215.0
 01 05 2013  18 00  -21.1045 25990.5 -03423.2 -07.5032 26214.9
 01 05 2013  18 01  -21.1057 25990.7 -03423.0 -07.5028 26215.1
 01 05 2013  18 02  -21.1061 25990.9 -03422.8 -07.5022 26215.3
 01 05 2013  18 03  -21.1058 25990.9 -03422.5 -07.5016 26215.2
 01 05 2013  18 04  -21.1046 25990.0 -03421.8 -07.5004 26214.3
 01 05 2013  18 05  -21.1039 25989.3 -03421.4 -07.4996 26213.5
 01 05 2013  18 06  -21.1030 25988.4 -03420.9 -07.4988 26212.6
 01 05 2013  18 07  -21.1021 25987.6 -03420.6 -07.4983 26211.8
 01 05 2013  18 08  -21.1016 25987.4 -03420.5 -07.4982 26211.5
 01 05 2013  18 09  -21.1015 25987.6 -03420.6 -07.4984 26211.8
 01 05 2013  18 10  -21.1018 25988.1 -03420.7 -07.4985 26212.3
 01 05 2013  18 11  -21.1015 25988.0 -03420.6 -07.4982 26212.1
 01 05 2013  18 12  -21.1011 25987.8 -03420.3 -07.4977 26211.9
 01 05 2013  18 13  -21.0998 25987.1 -03419.9 -07.4970 26211.1
 01 05 2013  18 14  -21.0990 25986.7 -03419.7 -07.4967 26210.7
 01 05 2013  18 15  -21.0988 25986.5 -03419.6 -07.4966 26210.5
 01 05 2013  18 16  -21.0990 25986.2 -03419.5 -07.4965 26210.3
 01 05 2013  18 17  -21.0987 25985.6 -03419.3 -07.4961 26209.6
 01 05 2013  18 18  -21.0981 25985.0 -03419.0 -07.4957 26209.0
 01 05 2013  18 19  -21.0986 25984.9 -03419.0 -07.4958 26208.8
 01 05 2013  18 20  -21.0999 25985.3 -03419.3 -07.4962 26209.3
 01 05 2013  18 21  -21.1013 25986.2 -03419.6 -07.4967 26210.2
 01 05 2013  18 22  -21.1017 25986.3 -03419.6 -07.4966 26210.4
 01 05 2013  18 23  -21.1013 25986.1 -03419.3 -07.4960 26210.1
 01 05 2013  18 24  -21.1006 25985.9 -03419.0 -07.4953 26209.9
 01 05 2013  18 25  -21.1009 25985.5 -03418.7 -07.4949 26209.4
 01 05 2013  18 26  -21.1003 25984.6 -03418.3 -07.4942 26208.5
 01 05 2013  18 27  -21.0993 25984.0 -03418.0 -07.4937 26207.8
 01 05 2013  18 28  -21.0988 25983.3 -03417.7 -07.4934 26207.1
 01 05 2013  18 29  -21.0975 25982.0 -03417.3 -07.4928 26205.8
 01 05 2013  18 30  -21.0969 25980.9 -03417.1 -07.4926 26204.7
 01 05 2013  18 31  -21.0964 25980.1 -03417.0 -07.4927 26203.8
 01 05 2013  18 32  -21.0956 25978.6 -03416.7 -07.4924 26202.3
 01 05 2013  18 33  -21.0955 25977.3 -03416.6 -07.4926 26201.0
 01 05 2013  18 34  -21.0959 25976.4 -03416.7 -07.4932 26200.2
 01 05 2013  18 35  -21.0973 25975.6 -03416.9 -07.4939 26199.4
 01 05 2013  18 36  -21.0983 25974.9 -03417.1 -07.4944 26198.7
 01 05 2013  18 37  -21.0990 25975.0 -03417.5 -07.4953 26198.8
 01 05 2013  18 38  -21.1002 25975.4 -03418.0 -07.4962 26199.3
 01 05 2013  18 39  -21.1012 25975.5 -03418.2 -07.4967 26199.4
 01 05 2013  18 40  -21.1025 25975.5 -03418.4 -07.4971 26199.5
 01 05 2013  18 41  -21.1039 25976.0 -03418.7 -07.4976 26200.0
 01 05 2013  18 42  -21.1043 25976.4 -03418.9 -07.4979 26200.4
 01 05 2013  18 43  -21.1040 25976.1 -03418.7 -07.4975 26200.1
 01 05 2013  18 44  -21.1050 25976.3 -03418.7 -07.4975 26200.3
 01 05 2013  18 45  -21.1062 25977.2 -03418.9 -07.4977 26201.3
 01 05 2013  18 46  -21.1070 25977.6 -03418.9 -07.4975 26201.6
 01 05 2013  18 47  -21.1073 25977.8 -03418.7 -07.4970 26201.7
 01 05 2013  18 48  -21.1081 25977.8 -03418.4 -07.4965 26201.7
 01 05 2013  18 49  -21.1084 25976.9 -03417.9 -07.4956 26200.7
 01 05 2013  18 50  -21.1071 25976.1 -03417.3 -07.4946 26199.9
 01 05 2013  18 51  -21.1076 25976.3 -03417.5 -07.4948 26200.2
 01 05 2013  18 52  -21.1077 25975.6 -03417.2 -07.4944 26199.4
 01 05 2013  18 53  -21.1072 25974.5 -03416.7 -07.4937 26198.2
 01 05 2013  18 54  -21.1058 25972.6 -03416.0 -07.4927 26196.3
 01 05 2013  18 55  -21.1050 25971.3 -03415.6 -07.4922 26194.9
 01 05 2013  18 56  -21.1048 25971.4 -03415.9 -07.4928 26195.1
 01 05 2013  18 57  -21.1047 25972.0 -03416.3 -07.4936 26195.7
 01 05 2013  18 58  -21.1051 25972.6 -03416.7 -07.4942 26196.4
 01 05 2013  18 59  -21.1046 25972.4 -03416.7 -07.4943 26196.2
 01 05 2013  19 00  -21.1041 25972.0 -03416.5 -07.4940 26195.8
 01 05 2013  19 01  -21.1045 25972.6 -03416.8 -07.4945 26196.4
 01 05 2013  19 02  -21.1055 25972.8 -03417.0 -07.4948 26196.6
 01 05 2013  19 03  -21.1065 25973.1 -03417.1 -07.4949 26196.9
 01 05 2013  19 04  -21.1074 25973.1 -03417.1 -07.4949 26196.9
 01 05 2013  19 05  -21.1083 25973.6 -03417.2 -07.4950 26197.4
 01 05 2013  19 06  -21.1085 25974.2 -03417.3 -07.4950 26198.0
 01 05 2013  19 07  -21.1084 25974.6 -03417.3 -07.4949 26198.4
 01 05 2013  19 08  -21.1063 25973.3 -03416.6 -07.4938 26197.0
 01 05 2013  19 09  -21.1042 25971.5 -03415.9 -07.4927 26195.2
 01 05 2013  19 10  -21.1037 25969.5 -03415.3 -07.4921 26193.1
 01 05 2013  19 11  -21.1034 25968.1 -03415.0 -07.4918 26191.7
 01 05 2013  19 12  -21.1041 25967.6 -03415.2 -07.4923 26191.2
 01 05 2013  19 13  -21.1042 25966.9 -03415.1 -07.4924 26190.5
 01 05 2013  19 14  -21.1044 25966.4 -03415.1 -07.4925 26190.0
 01 05 2013  19 15  -21.1041 25965.9 -03415.1 -07.4926 26189.5
 01 05 2013  19 16  -21.1040 25965.6 -03415.2 -07.4929 26189.2
 01 05 2013  19 17  -21.1041 25965.8 -03415.4 -07.4934 26189.4
 01 05 2013  19 18  -21.1040 25966.2 -03415.8 -07.4942 26189.9
 01 05 2013  19 19  -21.1042 25967.0 -03416.3 -07.4950 26190.7
 01 05 2013  19 20  -21.1039 25967.5 -03416.6 -07.4955 26191.3
 01 05 2013  19 21  -21.1039 25967.6 -03416.8 -07.4959 26191.4
 01 05 2013  19 22  -21.1039 25967.4 -03416.9 -07.4961 26191.2
 01 05 2013  19 23  -21.1048 25967.4 -03417.2 -07.4968 26191.3
 01 05 2013  19 24  -21.1049 25967.1 -03417.3 -07.4972 26191.0
 01 05 2013  19 25  -21.1043 25966.4 -03417.2 -07.4971 26190.3
 01 05 2013  19 26  -21.1058 25967.7 -03418.1 -07.4986 26191.7
 01 05 2013  19 27  -21.1081 25968.9 -03418.8 -07.4999 26193.0
 01 05 2013  19 28  -21.1089 25969.0 -03419.0 -07.5002 26193.1
 01 05 2013  19 29  -21.1091 25968.5 -03418.8 -07.4999 26192.5
 01 05 2013  19 30  -21.1104 25968.7 -03419.0 -07.5003 26192.8
 01 05 2013  19 31  -21.1121 25969.0 -03419.2 -07.5007 26193.1
 01 05 2013  19 32  -21.1123 25969.0 -03419.2 -07.5007 26193.1
 01 05 2013  19 33  -21.1123 25968.8 -03419.1 -07.5006 26192.9
 01 05 2013  19 34  -21.1114 25968.2 -03418.9 -07.5003 26192.3
 01 05 2013  19 35  -21.1106 25967.5 -03418.8 -07.5001 26191.6
 01 05 2013  19 36  -21.1095 25967.3 -03418.8 -07.5003 26191.4
 01 05 2013  19 37  -21.1085 25967.6 -03419.1 -07.5009 26191.8
 01 05 2013  19 38  -21.1083 25967.8 -03419.4 -07.5014 26192.0
 01 05 2013  19 39  -21.1078 25967.7 -03419.6 -07.5019 26191.9
 01 05 2013  19 40  -21.1062 25966.7 -03419.3 -07.5016 26190.9
 01 05 2013  19 41  -21.1063 25966.0 -03419.3 -07.5018 26190.2
 01 05 2013  19 42  -21.1060 25965.3 -03419.3 -07.5019 26189.5
 01 05 2013  19 43  -21.1066 25964.8 -03419.4 -07.5023 26189.0
 01 05 2013  19 44  -21.1072 25964.7 -03419.6 -07.5028 26188.9
 01 05 2013  19 45  -21.1075 25964.7 -03419.9 -07.5034 26189.0
 01 05 2013  19 46  -21.1080 25965.1 -03420.2 -07.5040 26189.4
 01 05 2013  19 47  -21.1089 25965.1 -03420.4 -07.5044 26189.4
 01 05 2013  19 48  -21.1093 25965.3 -03420.6 -07.5048 26189.7
 01 05 2013  19 49  -21.1097 25966.0 -03421.0 -07.5055 26190.4
 01 05 2013  19 50  -21.1105 25966.7 -03421.4 -07.5061 26191.2
 01 05 2013  19 51  -21.1116 25968.6 -03422.2 -07.5073 26193.1
 01 05 2013  19 52  -21.1126 25969.5 -03422.6 -07.5079 26194.1
 01 05 2013  19 53  -21.1129 25969.5 -03422.5 -07.5076 26194.0
 01 05 2013  19 54  -21.1122 25969.3 -03422.3 -07.5074 26193.8
 01 05 2013  19 55  -21.1129 25969.7 -03422.6 -07.5078 26194.3
 01 05 2013  19 56  -21.1140 25971.0 -03423.2 -07.5087 26195.6
 01 05 2013  19 57  -21.1155 25971.9 -03423.5 -07.5093 26196.5
 01 05 2013  19 58  -21.1158 25971.3 -03423.2 -07.5087 26195.9
 01 05 2013  19 59  -21.1164 25970.8 -03423.0 -07.5084 26195.4
 01 05 2013  20 00  -21.1172 25971.3 -03423.3 -07.5089 26195.9
 01 05 2013  20 01  -21.1179 25971.1 -03423.3 -07.5090 26195.8
 01 05 2013  20 02  -21.1186 25970.3 -03423.0 -07.5085 26194.9
 01 05 2013  20 03  -21.1194 25970.5 -03423.1 -07.5087 26195.2
 01 05 2013  20 04  -21.1196 25970.4 -03423.0 -07.5086 26195.0
 01 05 2013  20 05  -21.1201 25970.2 -03422.9 -07.5083 26194.8
 01 05 2013  20 06  -21.1204 25969.8 -03422.7 -07.5080 26194.4
 01 05 2013  20 07  -21.1194 25968.9 -03422.2 -07.5071 26193.4
 01 05 2013  20 08  -21.1184 25968.0 -03421.7 -07.5064 26192.5
 01 05 2013  20 09  -21.1175 25967.7 -03421.5 -07.5061 26192.1
 01 05 2013  20 10  -21.1170 25967.3 -03421.4 -07.5059 26191.8
 01 05 2013  20 11  -21.1166 25967.4 -03421.5 -07.5061 26191.9
 01 05 2013  20 12  -21.1153 25966.5 -03421.3 -07.5058 26190.9
 01 05 2013  20 13  -21.1149 25966.1 -03421.2 -07.5059 26190.5
 01 05 2013  20 14  -21.1148 25966.0 -03421.4 -07.5063 26190.5
 01 05 2013  20 15  -21.1143 25965.2 -03421.2 -07.5061 26189.6
 01 05 2013  20 16  -21.1131 25964.0 -03420.9 -07.5057 26188.4
 01 05 2013  20 17  -21.1132 25964.4 -03421.3 -07.5065 26188.8
 01 05 2013  20 18  -21.1123 25964.3 -03421.4 -07.5068 26188.8
 01 05 2013  20 19  -21.1116 25963.8 -03421.3 -07.5067 26188.2
 01 05 2013  20 20  -21.1113 25963.0 -03421.2 -07.5068 26187.5
 01 05 2013  20 21  -21.1107 25963.3 -03421.5 -07.5074 26187.8
 01 05 2013  20 22  -21.1102 25963.3 -03421.8 -07.5079 26187.8
 01 05 2013  20 23  -21.1092 25963.0 -03421.9 -07.5082 26187.5
 01 05 2013  20 24  -21.1086 25962.8 -03422.0 -07.5086 26187.4
 01 05 2013  20 25  -21.1083 25962.4 -03422.1 -07.5089 26187.0
 01 05 2013  20 26  -21.1073 25962.4 -03422.3 -07.5094 26187.0
 01 05 2013  20 27  -21.1065 25961.9 -03422.4 -07.5096 26186.5
 01 05 2013  20 28  -21.1059 25962.3 -03422.8 -07.5104 26186.9
 01 05 2013  20 29  -21.1051 25962.6 -03423.2 -07.5112 26187.3
 01 05 2013  20 30  -21.1042 25962.8 -03423.6 -07.5119 26187.5
 01 05 2013  20 31  -21.1029 25963.1 -03423.9 -07.5126 26187.9
 01 05 2013  20 32  -21.1018 25963.3 -03424.3 -07.5134 26188.2
 01 05 2013  20 33  -21.1007 25964.3 -03425.0 -07.5146 26189.3
 01 05 2013  20 34  -21.0995 25965.2 -03425.6 -07.5157 26190.2
 01 05 2013  20 35  -21.0979 25966.2 -03426.2 -07.5167 26191.2
 01 05 2013  20 36  -21.0962 25967.0 -03426.8 -07.5176 26192.1
 01 05 2013  20 37  -21.0951 25967.8 -03427.2 -07.5184 26193.0
 01 05 2013  20 38  -21.0944 25968.4 -03427.6 -07.5191 26193.6
 01 05 2013  20 39  -21.0937 25968.7 -03427.9 -07.5196 26193.9
 01 05 2013  20 40  -21.0928 25968.7 -03428.0 -07.5198 26194.0
 01 05 2013  20 41  -21.0918 25968.9 -03428.1 -07.5200 26194.1
 01 05 2013  20 42  -21.0906 25969.0 -03428.3 -07.5205 26194.3
 01 05 2013  20 43  -21.0892 25969.0 -03428.4 -07.5207 26194.3
 01 05 2013  20 44  -21.0881 25969.5 -03428.7 -07.5212 26194.8
 01 05 2013  20 45  -21.0871 25969.8 -03429.0 -07.5217 26195.2
 01 05 2013  20 46  -21.0861 25970.2 -03429.3 -07.5222 26195.6
 01 05 2013  20 47  -21.0855 25970.4 -03429.5 -07.5226 26195.8
 01 05 2013  20 48  -21.0848 25970.6 -03429.7 -07.5230 26196.1
 01 05 2013  20 49  -21.0840 25971.0 -03430.0 -07.5234 26196.5
 01 05 2013  20 50  -21.0831 25971.2 -03430.2 -07.5239 26196.7
 01 05 2013  20 51  -21.0824 25971.4 -03430.3 -07.5242 26196.9
 01 05 2013  20 52  -21.0818 25971.8 -03430.6 -07.5246 26197.4
 01 05 2013  20 53  -21.0812 25972.2 -03430.9 -07.5250 26197.8
 01 05 2013  20 54  -21.0809 25972.5 -03431.0 -07.5253 26198.1
 01 05 2013  20 55  -21.0805 25973.0 -03431.3 -07.5257 26198.7
 01 05 2013  20 56  -21.0802 25973.5 -03431.6 -07.5262 26199.2
 01 05 2013  20 57  -21.0797 25974.2 -03431.9 -07.5267 26199.9
 01 05 2013  20 58  -21.0793 25974.8 -03432.2 -07.5273 26200.6
 01 05 2013  20 59  -21.0788 25975.5 -03432.5 -07.5276 26201.3
 01 05 2013  21 00  -21.0784 25976.0 -03432.8 -07.5280 26201.9
 01 05 2013  21 01  -21.0784 25976.5 -03432.9 -07.5283 26202.3
 01 05 2013  21 02  -21.0784 25976.9 -03433.1 -07.5286 26202.8
 01 05 2013  21 03  -21.0784 25977.4 -03433.3 -07.5288 26203.3
 01 05 2013  21 04  -21.0786 25977.9 -03433.5 -07.5291 26203.9
 01 05 2013  21 05  -21.0792 25978.2 -03433.6 -07.5293 26204.2
 01 05 2013  21 06  -21.0793 25978.3 -03433.6 -07.5292 26204.2
 01 05 2013  21 07  -21.0790 25978.2 -03433.5 -07.5290 26204.1
 01 05 2013  21 08  -21.0788 25978.2 -03433.3 -07.5287 26204.0
 01 05 2013  21 09  -21.0786 25978.2 -03433.3 -07.5286 26204.1
 01 05 2013  21 10  -21.0782 25978.2 -03433.3 -07.5286 26204.1
 01 05 2013  21 11  -21.0779 25978.3 -03433.3 -07.5286 26204.2
 01 05 2013  21 12  -21.0776 25978.3 -03433.3 -07.5286 26204.2
 01 05 2013  21 13  -21.0777 25978.4 -03433.3 -07.5286 26204.3
 01 05 2013  21 14  -21.0776 25978.5 -03433.4 -07.5286 26204.4
 01 05 2013  21 15  -21.0776 25978.6 -03433.4 -07.5287 26204.5
 01 05 2013  21 16  -21.0777 25978.7 -03433.5 -07.5288 26204.6
 01 05 2013  21 17  -21.0779 25978.7 -03433.5 -07.5289 26204.6
 01 05 2013  21 18  -21.0784 25978.9 -03433.6 -07.5290 26204.8
 01 05 2013  21 19  -21.0788 25978.9 -03433.6 -07.5290 26204.8
 01 05 2013  21 20  -21.0792 25979.2 -03433.7 -07.5292 26205.2
 01 05 2013  21 21  -21.0798 25979.7 -03433.9 -07.5295 26205.7
 01 05 2013  21 22  -21.0807 25979.7 -03433.9 -07.5295 26205.7
 01 05 2013  21 23  -21.0814 25979.8 -03433.9 -07.5295 26205.7
 01 05 2013  21 24  -21.0822 25980.0 -03433.9 -07.5294 26205.9
 01 05 2013  21 25  -21.0829 25980.1 -03433.9 -07.5294 26206.1
 01 05 2013  21 26  -21.0835 25980.3 -03433.9 -07.5294 26206.3
 01 05 2013  21 27  -21.0838 25980.3 -03433.9 -07.5292 26206.3
 01 05 2013  21 28  -21.0839 25980.4 -03433.7 -07.5289 26206.3
 01 05 2013  21 29  -21.0839 25980.7 -03433.8 -07.5290 26206.6
 01 05 2013  21 30  -21.0842 25980.7 -03433.8 -07.5290 26206.7
 01 05 2013  21 31  -21.0843 25980.7 -03433.8 -07.5289 26206.7
 01 05 2013  21 32  -21.0844 25980.6 -03433.6 -07.5286 26206.5
 01 05 2013  21 33  -21.0844 25980.4 -03433.5 -07.5283 26206.3
 01 05 2013  21 34  -21.0842 25980.1 -03433.3 -07.5280 26206.0
 01 05 2013  21 35  -21.0843 25979.9 -03433.1 -07.5277 26205.7
 01 05 2013  21 36  -21.0845 25979.6 -03433.0 -07.5275 26205.4
 01 05 2013  21 37  -21.0846 25979.4 -03432.9 -07.5273 26205.2
 01 05 2013  21 38  -21.0846 25979.3 -03432.8 -07.5273 26205.1
 01 05 2013  21 39  -21.0847 25979.3 -03432.9 -07.5273 26205.2
 01 05 2013  21 40  -21.0850 25979.6 -03433.0 -07.5275 26205.4
 01 05 2013  21 41  -21.0855 25979.6 -03433.0 -07.5276 26205.5
 01 05 2013  21 42  -21.0859 25979.9 -03433.2 -07.5278 26205.8
 01 05 2013  21 43  -21.0863 25980.0 -03433.2 -07.5279 26205.9
 01 05 2013  21 44  -21.0870 25979.9 -03433.1 -07.5277 26205.8
 01 05 2013  21 45  -21.0878 25979.7 -03433.0 -07.5275 26205.5
 01 05 2013  21 46  -21.0883 25979.2 -03432.7 -07.5270 26205.0
 01 05 2013  21 47  -21.0885 25978.9 -03432.5 -07.5266 26204.7
 01 05 2013  21 48  -21.0882 25978.8 -03432.3 -07.5263 26204.5
 01 05 2013  21 49  -21.0882 25978.4 -03432.1 -07.5260 26204.1
 01 05 2013  21 50  -21.0882 25978.2 -03432.0 -07.5258 26203.9
 01 05 2013  21 51  -21.0880 25977.9 -03431.9 -07.5256 26203.6
 01 05 2013  21 52  -21.0881 25977.8 -03431.9 -07.5256 26203.5
 01 05 2013  21 53  -21.0880 25977.8 -03431.8 -07.5256 26203.5
 01 05 2013  21 54  -21.0881 25977.6 -03431.8 -07.5255 26203.3
 01 05 2013  21 55  -21.0879 25977.6 -03431.8 -07.5256 26203.3
 01 05 2013  21 56  -21.0878 25977.5 -03431.9 -07.5257 26203.2
 01 05 2013  21 57  -21.0880 25977.6 -03431.9 -07.5258 26203.3
 01 05 2013  21 58  -21.0883 25977.8 -03432.1 -07.5261 26203.5
 01 05 2013  21 59  -21.0886 25977.9 -03432.2 -07.5263 26203.7
 01 05 2013  22 00  -21.0887 25978.2 -03432.4 -07.5266 26204.0
 01 05 2013  22 01  -21.0889 25978.2 -03432.4 -07.5266 26203.9
 01 05 2013  22 02  -21.0891 25978.2 -03432.4 -07.5266 26204.0
 01 05 2013  22 03  -21.0892 25978.1 -03432.3 -07.5265 26203.8
 01 05 2013  22 04  -21.0892 25978.0 -03432.3 -07.5265 26203.8
 01 05 2013  22 05  -21.0893 25977.7 -03432.2 -07.5263 26203.4
 01 05 2013  22 06  -21.0894 25977.3 -03432.0 -07.5260 26203.1
 01 05 2013  22 07  -21.0892 25977.0 -03431.8 -07.5257 26202.7
 01 05 2013  22 08  -21.0888 25976.6 -03431.6 -07.5254 26202.3
 01 05 2013  22 09  -21.0885 25976.2 -03431.4 -07.5252 26201.9
 01 05 2013  22 10  -21.0882 25975.8 -03431.3 -07.5249 26201.5
 01 05 2013  22 11  -21.0879 25975.6 -03431.3 -07.5250 26201.2
 01 05 2013  22 12  -21.0878 25975.4 -03431.3 -07.5251 26201.1
 01 05 2013  22 13  -21.0876 25975.4 -03431.4 -07.5252 26201.0
 01 05 2013  22 14  -21.0874 25975.4 -03431.5 -07.5255 26201.1
 01 05 2013  22 15  -21.0875 25975.4 -03431.6 -07.5257 26201.1
 01 05 2013  22 16  -21.0881 25975.3 -03431.7 -07.5259 26201.0
 01 05 2013  22 17  -21.0887 25975.3 -03431.8 -07.5261 26201.1
 01 05 2013  22 18  -21.0894 25975.2 -03431.8 -07.5262 26201.0
 01 05 2013  22 19  -21.0899 25975.1 -03431.7 -07.5261 26200.8
 01 05 2013  22 20  -21.0900 25975.0 -03431.7 -07.5260 26200.7
 01 05 2013  22 21  -21.0901 25975.0 -03431.7 -07.5260 26200.7
 01 05 2013  22 22  -21.0906 25975.2 -03431.8 -07.5262 26200.9
 01 05 2013  22 23  -21.0912 25975.5 -03431.9 -07.5264 26201.2
 01 05 2013  22 24  -21.0919 25975.7 -03432.1 -07.5266 26201.4
 01 05 2013  22 25  -21.0925 25976.2 -03432.3 -07.5270 26201.9
 01 05 2013  22 26  -21.0932 25976.7 -03432.5 -07.5274 26202.5
 01 05 2013  22 27  -21.0940 25977.2 -03432.7 -07.5276 26203.0
 01 05 2013  22 28  -21.0951 25977.4 -03432.8 -07.5278 26203.2
 01 05 2013  22 29  -21.0958 25977.5 -03432.8 -07.5278 26203.4
 01 05 2013  22 30  -21.0962 25977.5 -03432.7 -07.5274 26203.3
 01 05 2013  22 31  -21.0965 25977.7 -03432.6 -07.5273 26203.5
 01 05 2013  22 32  -21.0970 25977.8 -03432.6 -07.5272 26203.6
 01 05 2013  22 33  -21.0974 25978.0 -03432.6 -07.5272 26203.8
 01 05 2013  22 34  -21.0975 25978.1 -03432.6 -07.5270 26203.9
 01 05 2013  22 35  -21.0975 25978.2 -03432.5 -07.5269 26203.9
 01 05 2013  22 36  -21.0976 25978.3 -03432.5 -07.5269 26204.1
 01 05 2013  22 37  -21.0978 25978.5 -03432.6 -07.5270 26204.3
 01 05 2013  22 38  -21.0981 25978.7 -03432.6 -07.5270 26204.5
 01 05 2013  22 39  -21.0984 25978.8 -03432.6 -07.5270 26204.6
 01 05 2013  22 40  -21.0987 25978.9 -03432.6 -07.5269 26204.7
 01 05 2013  22 41  -21.0986 25978.8 -03432.5 -07.5266 26204.6
 01 05 2013  22 42  -21.0983 25978.9 -03432.4 -07.5265 26204.6
 01 05 2013  22 43  -21.0980 25978.8 -03432.3 -07.5262 26204.5
 01 05 2013  22 44  -21.0974 25979.4 -03432.5 -07.5264 26205.2
 01 05 2013  22 45  -21.0982 25979.8 -03432.7 -07.5269 26205.6
 01 05 2013  22 46  -21.0979 25980.6 -03433.1 -07.5276 26206.5
 01 05 2013  22 47  -21.0980 25981.5 -03433.5 -07.5282 26207.4
 01 05 2013  22 48  -21.0982 25981.8 -03433.6 -07.5283 26207.7
 01 05 2013  22 49  -21.0984 25982.0 -03433.6 -07.5283 26207.9
 01 05 2013  22 50  -21.0987 25982.3 -03433.7 -07.5283 26208.2
 01 05 2013  22 51  -21.0990 25982.5 -03433.7 -07.5283 26208.4
 01 05 2013  22 52  -21.0990 25982.7 -03433.7 -07.5282 26208.6
 01 05 2013  22 53  -21.0989 25982.9 -03433.6 -07.5280 26208.8
 01 05 2013  22 54  -21.0991 25983.1 -03433.7 -07.5280 26209.0
 01 05 2013  22 55  -21.0992 25983.2 -03433.7 -07.5280 26209.1
 01 05 2013  22 56  -21.0992 25983.5 -03433.7 -07.5280 26209.4
 01 05 2013  22 57  -21.0994 25984.0 -03433.9 -07.5282 26209.9
 01 05 2013  22 58  -21.0996 25984.3 -03434.0 -07.5283 26210.2
 01 05 2013  22 59  -21.0994 25984.9 -03434.2 -07.5286 26210.9
 01 05 2013  23 00  -21.0993 25985.0 -03434.0 -07.5283 26210.9
 01 05 2013  23 01  -21.0990 25985.1 -03434.0 -07.5281 26211.0
 01 05 2013  23 02  -21.0988 25985.2 -03433.9 -07.5280 26211.1
 01 05 2013  23 03  -21.0990 25985.2 -03433.9 -07.5279 26211.1
 01 05 2013  23 04  -21.0994 25985.1 -03433.8 -07.5277 26211.0
 01 05 2013  23 05  -21.0995 25985.2 -03433.7 -07.5275 26211.1
 01 05 2013  23 06  -21.0993 25985.7 -03433.9 -07.5277 26211.6
 01 05 2013  23 07  -21.0994 25985.7 -03433.9 -07.5277 26211.6
 01 05 2013  23 08  -21.0991 25985.6 -03433.7 -07.5274 26211.4
 01 05 2013  23 09  -21.0986 25985.7 -03433.7 -07.5274 26211.6
 01 05 2013  23 10  -21.0983 25985.9 -03433.7 -07.5274 26211.8
 01 05 2013  23 11  -21.0984 25986.6 -03434.1 -07.5280 26212.5
 01 05 2013  23 12  -21.0986 25987.4 -03434.5 -07.5286 26213.4
 01 05 2013  23 13  -21.0986 25987.8 -03434.7 -07.5289 26213.8
 01 05 2013  23 14  -21.0987 25988.4 -03434.9 -07.5292 26214.4
 01 05 2013  23 15  -21.0989 25988.8 -03435.1 -07.5294 26214.8
 01 05 2013  23 16  -21.0989 25989.2 -03435.1 -07.5295 26215.2
 01 05 2013  23 17  -21.0989 25989.5 -03435.2 -07.5294 26215.5
 01 05 2013  23 18  -21.0988 25990.0 -03435.2 -07.5294 26216.1
 01 05 2013  23 19  -21.0986 25990.4 -03435.3 -07.5295 26216.5
 01 05 2013  23 20  -21.0984 25990.9 -03435.4 -07.5296 26217.0
 01 05 2013  23 21  -21.0981 25991.3 -03435.5 -07.5297 26217.4
 01 05 2013  23 22  -21.0982 25991.6 -03435.6 -07.5297 26217.7
 01 05 2013  23 23  -21.0986 25992.2 -03435.8 -07.5300 26218.3
 01 05 2013  23 24  -21.0990 25992.6 -03435.9 -07.5301 26218.7
 01 05 2013  23 25  -21.0991 25992.6 -03435.8 -07.5298 26218.7
 01 05 2013  23 26  -21.0990 25992.6 -03435.6 -07.5294 26218.7
 01 05 2013  23 27  -21.0989 25992.7 -03435.4 -07.5291 26218.7
 01 05 2013  23 28  -21.0989 25993.2 -03435.6 -07.5292 26219.2
 01 05 2013  23 29  -21.0992 25993.8 -03435.8 -07.5296 26219.9
 01 05 2013  23 30  -21.0992 25994.3 -03436.0 -07.5298 26220.4
 01 05 2013  23 31  -21.0993 25994.5 -03436.0 -07.5297 26220.6
 01 05 2013  23 32  -21.0991 25994.8 -03435.9 -07.5296 26220.9
 01 05 2013  23 33  -21.0987 25995.2 -03436.0 -07.5296 26221.3
 01 05 2013  23 34  -21.0981 25995.5 -03436.0 -07.5296 26221.6
 01 05 2013  23 35  -21.0976 25995.8 -03436.1 -07.5296 26222.0
 01 05 2013  23 36  -21.0974 25996.3 -03436.3 -07.5298 26222.5
 01 05 2013  23 37  -21.0974 25996.4 -03436.2 -07.5297 26222.5
 01 05 2013  23 38  -21.0970 25996.5 -03436.1 -07.5295 26222.6
 01 05 2013  23 39  -21.0960 25996.7 -03436.1 -07.5293 26222.7
 01 05 2013  23 40  -21.0950 25996.9 -03436.1 -07.5293 26223.0
 01 05 2013  23 41  -21.0944 25997.4 -03436.3 -07.5296 26223.6
 01 05 2013  23 42  -21.0941 25998.0 -03436.6 -07.5300 26224.2
 01 05 2013  23 43  -21.0941 25998.4 -03436.7 -07.5303 26224.6
 01 05 2013  23 44  -21.0940 25998.7 -03436.8 -07.5304 26224.9
 01 05 2013  23 45  -21.0934 25999.0 -03436.9 -07.5305 26225.2
 01 05 2013  23 46  -21.0927 25999.3 -03436.9 -07.5304 26225.5
 01 05 2013  23 47  -21.0919 25999.9 -03437.1 -07.5306 26226.1
 01 05 2013  23 48  -21.0907 26000.4 -03437.3 -07.5308 26226.6
 01 05 2013  23 49  -21.0897 26000.9 -03437.4 -07.5311 26227.1
 01 05 2013  23 50  -21.0891 26001.5 -03437.7 -07.5314 26227.7
 01 05 2013  23 51  -21.0888 26002.2 -03438.0 -07.5319 26228.5
 01 05 2013  23 52  -21.0886 26002.6 -03438.2 -07.5322 26229.0
 01 05 2013  23 53  -21.0882 26003.1 -03438.3 -07.5323 26229.5
 01 05 2013  23 54  -21.0880 26003.3 -03438.3 -07.5323 26229.6
 01 05 2013  23 55  -21.0879 26003.6 -03438.3 -07.5323 26229.9
 01 05 2013  23 56  -21.0880 26004.0 -03438.5 -07.5324 26230.3
 01 05 2013  23 57  -21.0881 26004.2 -03438.5 -07.5324 26230.6
 01 05 2013  23 58  -21.0883 26004.5 -03438.5 -07.5324 26230.9
