SAO LUIS EMBRACE-03 <098> 1 Min. Reported data

 DD MM YYYY  HH MM   D(Deg)  H(nT)   Z(nT)   I(Deg)   F(nT)

 08 04 2013  00 00  -21.0415 26037.5 -03426.3 -07.4966 26261.9
 08 04 2013  00 01  -21.0415 26037.4 -03426.4 -07.4967 26261.9
 08 04 2013  00 02  -21.0414 26037.4 -03426.4 -07.4967 26261.9
 08 04 2013  00 03  -21.0414 26037.4 -03426.4 -07.4967 26261.8
 08 04 2013  00 04  -21.0413 26037.3 -03426.4 -07.4967 26261.8
 08 04 2013  00 05  -21.0413 26037.3 -03426.4 -07.4968 26261.8
 08 04 2013  00 06  -21.0412 26037.3 -03426.4 -07.4967 26261.8
 08 04 2013  00 07  -21.0411 26037.3 -03426.4 -07.4967 26261.7
 08 04 2013  00 08  -21.0410 26037.2 -03426.4 -07.4968 26261.7
 08 04 2013  00 09  -21.0410 26037.2 -03426.4 -07.4968 26261.7
 08 04 2013  00 10  -21.0410 26037.2 -03426.4 -07.4968 26261.7
 08 04 2013  00 11  -21.0410 26037.2 -03426.4 -07.4969 26261.7
 08 04 2013  00 12  -21.0410 26037.2 -03426.4 -07.4969 26261.7
 08 04 2013  00 13  -21.0411 26037.2 -03426.5 -07.4969 26261.7
 08 04 2013  00 14  -21.0410 26037.3 -03426.5 -07.4970 26261.8
 08 04 2013  00 15  -21.0410 26037.4 -03426.5 -07.4971 26261.9
 08 04 2013  00 16  -21.0410 26037.4 -03426.6 -07.4971 26261.9
 08 04 2013  00 17  -21.0410 26037.5 -03426.6 -07.4971 26262.0
 08 04 2013  00 18  -21.0410 26037.5 -03426.6 -07.4972 26262.0
 08 04 2013  00 19  -21.0410 26037.4 -03426.6 -07.4971 26261.9
 08 04 2013  00 20  -21.0410 26037.4 -03426.6 -07.4971 26261.9
 08 04 2013  00 21  -21.0409 26037.4 -03426.6 -07.4971 26261.9
 08 04 2013  00 22  -21.0408 26037.4 -03426.6 -07.4971 26261.9
 08 04 2013  00 23  -21.0408 26037.4 -03426.6 -07.4971 26261.9
 08 04 2013  00 24  -21.0407 26037.4 -03426.6 -07.4971 26261.9
 08 04 2013  00 25  -21.0407 26037.3 -03426.6 -07.4971 26261.8
 08 04 2013  00 26  -21.0407 26037.3 -03426.5 -07.4971 26261.8
 08 04 2013  00 27  -21.0407 26037.3 -03426.5 -07.4970 26261.8
 08 04 2013  00 28  -21.0407 26037.2 -03426.5 -07.4970 26261.7
 08 04 2013  00 29  -21.0406 26037.1 -03426.5 -07.4970 26261.6
 08 04 2013  00 30  -21.0404 26037.0 -03426.4 -07.4969 26261.5
 08 04 2013  00 31  -21.0404 26036.9 -03426.4 -07.4969 26261.4
 08 04 2013  00 32  -21.0403 26036.9 -03426.4 -07.4969 26261.4
 08 04 2013  00 33  -21.0403 26036.9 -03426.4 -07.4969 26261.4
 08 04 2013  00 34  -21.0402 26036.9 -03426.4 -07.4969 26261.4
 08 04 2013  00 35  -21.0403 26036.9 -03426.5 -07.4971 26261.4
 08 04 2013  00 36  -21.0403 26036.9 -03426.5 -07.4971 26261.4
 08 04 2013  00 37  -21.0402 26036.9 -03426.5 -07.4971 26261.4
 08 04 2013  00 38  -21.0402 26036.9 -03426.5 -07.4971 26261.4
 08 04 2013  00 39  -21.0401 26036.9 -03426.5 -07.4971 26261.4
 08 04 2013  00 40  -21.0401 26036.9 -03426.5 -07.4971 26261.4
 08 04 2013  00 41  -21.0401 26036.9 -03426.5 -07.4972 26261.4
 08 04 2013  00 42  -21.0401 26036.9 -03426.5 -07.4972 26261.4
 08 04 2013  00 43  -21.0402 26037.0 -03426.5 -07.4972 26261.5
 08 04 2013  00 44  -21.0403 26037.0 -03426.6 -07.4972 26261.5
 08 04 2013  00 45  -21.0403 26037.0 -03426.6 -07.4973 26261.5
 08 04 2013  00 46  -21.0404 26036.9 -03426.6 -07.4973 26261.4
 08 04 2013  00 47  -21.0405 26036.9 -03426.6 -07.4973 26261.4
 08 04 2013  00 48  -21.0405 26037.0 -03426.6 -07.4973 26261.5
 08 04 2013  00 49  -21.0405 26037.0 -03426.6 -07.4973 26261.5
 08 04 2013  00 50  -21.0404 26036.9 -03426.6 -07.4973 26261.4
 08 04 2013  00 51  -21.0404 26037.0 -03426.6 -07.4973 26261.5
 08 04 2013  00 52  -21.0403 26036.9 -03426.6 -07.4972 26261.4
 08 04 2013  00 53  -21.0403 26036.9 -03426.6 -07.4972 26261.4
 08 04 2013  00 54  -21.0403 26036.9 -03426.6 -07.4972 26261.4
 08 04 2013  00 55  -21.0402 26036.9 -03426.6 -07.4973 26261.4
 08 04 2013  00 56  -21.0401 26036.9 -03426.6 -07.4973 26261.5
 08 04 2013  00 57  -21.0401 26036.9 -03426.6 -07.4973 26261.4
 08 04 2013  00 58  -21.0401 26036.9 -03426.6 -07.4973 26261.4
 08 04 2013  00 59  -21.0402 26036.9 -03426.6 -07.4973 26261.4
 08 04 2013  01 00  -21.0401 26036.9 -03426.6 -07.4973 26261.4
 08 04 2013  01 01  -21.0401 26036.9 -03426.6 -07.4973 26261.4
 08 04 2013  01 02  -21.0401 26036.8 -03426.6 -07.4973 26261.3
 08 04 2013  01 03  -21.0400 26036.8 -03426.5 -07.4972 26261.3
 08 04 2013  01 04  -21.0401 26036.8 -03426.6 -07.4973 26261.3
 08 04 2013  01 05  -21.0400 26036.8 -03426.6 -07.4973 26261.3
 08 04 2013  01 06  -21.0401 26036.8 -03426.6 -07.4974 26261.4
 08 04 2013  01 07  -21.0401 26036.9 -03426.6 -07.4974 26261.4
 08 04 2013  01 08  -21.0400 26036.9 -03426.7 -07.4975 26261.4
 08 04 2013  01 09  -21.0401 26037.0 -03426.7 -07.4975 26261.5
 08 04 2013  01 10  -21.0400 26037.0 -03426.7 -07.4976 26261.6
 08 04 2013  01 11  -21.0400 26037.0 -03426.8 -07.4976 26261.6
 08 04 2013  01 12  -21.0400 26037.0 -03426.8 -07.4976 26261.6
 08 04 2013  01 13  -21.0400 26037.0 -03426.8 -07.4976 26261.6
 08 04 2013  01 14  -21.0399 26037.1 -03426.8 -07.4978 26261.7
 08 04 2013  01 15  -21.0399 26037.2 -03426.8 -07.4978 26261.7
 08 04 2013  01 16  -21.0398 26037.3 -03426.9 -07.4979 26261.9
 08 04 2013  01 17  -21.0398 26037.4 -03427.0 -07.4980 26261.9
 08 04 2013  01 18  -21.0397 26037.4 -03427.0 -07.4981 26262.0
 08 04 2013  01 19  -21.0397 26037.5 -03427.0 -07.4980 26262.0
 08 04 2013  01 20  -21.0397 26037.5 -03427.0 -07.4981 26262.0
 08 04 2013  01 21  -21.0397 26037.5 -03427.0 -07.4981 26262.1
 08 04 2013  01 22  -21.0396 26037.5 -03427.0 -07.4981 26262.1
 08 04 2013  01 23  -21.0396 26037.5 -03427.0 -07.4981 26262.1
 08 04 2013  01 24  -21.0395 26037.5 -03427.0 -07.4981 26262.1
 08 04 2013  01 25  -21.0395 26037.5 -03427.1 -07.4982 26262.1
 08 04 2013  01 26  -21.0395 26037.4 -03427.1 -07.4982 26262.0
 08 04 2013  01 27  -21.0394 26037.3 -03427.0 -07.4982 26261.9
 08 04 2013  01 28  -21.0394 26037.3 -03427.0 -07.4982 26261.8
 08 04 2013  01 29  -21.0394 26037.2 -03427.0 -07.4981 26261.8
 08 04 2013  01 30  -21.0395 26037.1 -03427.0 -07.4981 26261.7
 08 04 2013  01 31  -21.0394 26037.0 -03427.0 -07.4981 26261.6
 08 04 2013  01 32  -21.0394 26037.0 -03427.0 -07.4981 26261.6
 08 04 2013  01 33  -21.0394 26036.9 -03427.0 -07.4981 26261.5
 08 04 2013  01 34  -21.0394 26036.9 -03427.0 -07.4981 26261.4
 08 04 2013  01 35  -21.0394 26036.9 -03427.0 -07.4982 26261.4
 08 04 2013  01 36  -21.0394 26036.8 -03427.0 -07.4982 26261.4
 08 04 2013  01 37  -21.0395 26036.8 -03427.0 -07.4982 26261.4
 08 04 2013  01 38  -21.0395 26036.7 -03427.0 -07.4982 26261.3
 08 04 2013  01 39  -21.0394 26036.7 -03427.0 -07.4982 26261.2
 08 04 2013  01 40  -21.0395 26036.6 -03427.0 -07.4982 26261.2
 08 04 2013  01 41  -21.0395 26036.6 -03427.0 -07.4982 26261.2
 08 04 2013  01 42  -21.0395 26036.6 -03427.0 -07.4982 26261.2
 08 04 2013  01 43  -21.0396 26036.6 -03427.0 -07.4983 26261.2
 08 04 2013  01 44  -21.0396 26036.6 -03427.0 -07.4983 26261.2
 08 04 2013  01 45  -21.0397 26036.6 -03427.0 -07.4983 26261.1
 08 04 2013  01 46  -21.0397 26036.5 -03427.0 -07.4983 26261.1
 08 04 2013  01 47  -21.0398 26036.5 -03427.0 -07.4983 26261.1
 08 04 2013  01 48  -21.0399 26036.5 -03427.0 -07.4983 26261.1
 08 04 2013  01 49  -21.0400 26036.4 -03427.0 -07.4983 26261.0
 08 04 2013  01 50  -21.0400 26036.4 -03426.9 -07.4982 26261.0
 08 04 2013  01 51  -21.0401 26036.3 -03426.9 -07.4982 26260.9
 08 04 2013  01 52  -21.0401 26036.3 -03426.9 -07.4981 26260.8
 08 04 2013  01 53  -21.0401 26036.2 -03426.8 -07.4981 26260.7
 08 04 2013  01 54  -21.0401 26036.0 -03426.8 -07.4979 26260.6
 08 04 2013  01 55  -21.0401 26036.0 -03426.7 -07.4979 26260.5
 08 04 2013  01 56  -21.0402 26035.8 -03426.7 -07.4978 26260.4
 08 04 2013  01 57  -21.0403 26035.8 -03426.6 -07.4977 26260.3
 08 04 2013  01 58  -21.0403 26035.7 -03426.6 -07.4977 26260.2
 08 04 2013  01 59  -21.0404 26035.6 -03426.6 -07.4977 26260.2
 08 04 2013  02 00  -21.0404 26035.6 -03426.6 -07.4976 26260.1
 08 04 2013  02 01  -21.0405 26035.5 -03426.5 -07.4976 26260.0
 08 04 2013  02 02  -21.0406 26035.5 -03426.5 -07.4976 26260.0
 08 04 2013  02 03  -21.0406 26035.4 -03426.5 -07.4975 26259.9
 08 04 2013  02 04  -21.0406 26035.4 -03426.5 -07.4975 26259.9
 08 04 2013  02 05  -21.0408 26035.3 -03426.5 -07.4975 26259.8
 08 04 2013  02 06  -21.0408 26035.3 -03426.5 -07.4975 26259.8
 08 04 2013  02 07  -21.0408 26035.3 -03426.5 -07.4975 26259.8
 08 04 2013  02 08  -21.0408 26035.3 -03426.4 -07.4975 26259.8
 08 04 2013  02 09  -21.0408 26035.3 -03426.5 -07.4975 26259.8
 08 04 2013  02 10  -21.0408 26035.2 -03426.5 -07.4975 26259.7
 08 04 2013  02 11  -21.0409 26035.2 -03426.4 -07.4975 26259.7
 08 04 2013  02 12  -21.0409 26035.1 -03426.4 -07.4974 26259.6
 08 04 2013  02 13  -21.0409 26035.1 -03426.4 -07.4973 26259.6
 08 04 2013  02 14  -21.0410 26035.1 -03426.4 -07.4973 26259.6
 08 04 2013  02 15  -21.0410 26035.1 -03426.4 -07.4974 26259.6
 08 04 2013  02 16  -21.0410 26035.1 -03426.4 -07.4974 26259.6
 08 04 2013  02 17  -21.0410 26035.2 -03426.4 -07.4974 26259.7
 08 04 2013  02 18  -21.0410 26035.2 -03426.4 -07.4974 26259.7
 08 04 2013  02 19  -21.0409 26035.3 -03426.4 -07.4974 26259.8
 08 04 2013  02 20  -21.0409 26035.3 -03426.4 -07.4974 26259.8
 08 04 2013  02 21  -21.0409 26035.3 -03426.4 -07.4974 26259.8
 08 04 2013  02 22  -21.0408 26035.3 -03426.4 -07.4974 26259.8
 08 04 2013  02 23  -21.0406 26035.4 -03426.4 -07.4973 26259.9
 08 04 2013  02 24  -21.0406 26035.4 -03426.4 -07.4974 26259.9
 08 04 2013  02 25  -21.0405 26035.4 -03426.4 -07.4974 26259.9
 08 04 2013  02 26  -21.0404 26035.4 -03426.4 -07.4974 26259.9
 08 04 2013  02 27  -21.0403 26035.4 -03426.4 -07.4974 26259.9
 08 04 2013  02 28  -21.0402 26035.4 -03426.4 -07.4974 26259.9
 08 04 2013  02 29  -21.0401 26035.5 -03426.4 -07.4973 26260.0
 08 04 2013  02 30  -21.0400 26035.4 -03426.4 -07.4974 26259.9
 08 04 2013  02 31  -21.0398 26035.4 -03426.4 -07.4973 26259.9
 08 04 2013  02 32  -21.0398 26035.5 -03426.4 -07.4974 26260.0
 08 04 2013  02 33  -21.0396 26035.5 -03426.4 -07.4973 26260.0
 08 04 2013  02 34  -21.0395 26035.4 -03426.4 -07.4973 26259.9
 08 04 2013  02 35  -21.0394 26035.4 -03426.4 -07.4973 26259.9
 08 04 2013  02 36  -21.0393 26035.3 -03426.4 -07.4973 26259.8
 08 04 2013  02 37  -21.0393 26035.4 -03426.4 -07.4973 26259.9
 08 04 2013  02 38  -21.0392 26035.3 -03426.4 -07.4973 26259.8
 08 04 2013  02 39  -21.0392 26035.3 -03426.3 -07.4972 26259.8
 08 04 2013  02 40  -21.0391 26035.2 -03426.3 -07.4972 26259.7
 08 04 2013  02 41  -21.0391 26035.2 -03426.3 -07.4972 26259.6
 08 04 2013  02 42  -21.0391 26035.1 -03426.2 -07.4971 26259.5
 08 04 2013  02 43  -21.0390 26035.0 -03426.2 -07.4971 26259.5
 08 04 2013  02 44  -21.0389 26034.9 -03426.2 -07.4970 26259.4
 08 04 2013  02 45  -21.0388 26034.9 -03426.2 -07.4970 26259.4
 08 04 2013  02 46  -21.0387 26034.8 -03426.2 -07.4970 26259.3
 08 04 2013  02 47  -21.0385 26034.8 -03426.2 -07.4970 26259.2
 08 04 2013  02 48  -21.0384 26034.7 -03426.1 -07.4970 26259.2
 08 04 2013  02 49  -21.0384 26034.7 -03426.1 -07.4970 26259.2
 08 04 2013  02 50  -21.0382 26034.7 -03426.2 -07.4970 26259.1
 08 04 2013  02 51  -21.0381 26034.6 -03426.1 -07.4970 26259.0
 08 04 2013  02 52  -21.0380 26034.6 -03426.1 -07.4970 26259.0
 08 04 2013  02 53  -21.0379 26034.6 -03426.1 -07.4970 26259.0
 08 04 2013  02 54  -21.0378 26034.5 -03426.1 -07.4970 26259.0
 08 04 2013  02 55  -21.0377 26034.5 -03426.1 -07.4970 26259.0
 08 04 2013  02 56  -21.0377 26034.5 -03426.2 -07.4971 26259.0
 08 04 2013  02 57  -21.0376 26034.5 -03426.2 -07.4971 26259.0
 08 04 2013  02 58  -21.0375 26034.5 -03426.2 -07.4971 26259.0
 08 04 2013  02 59  -21.0374 26034.4 -03426.2 -07.4971 26258.9
 08 04 2013  03 00  -21.0372 26034.4 -03426.2 -07.4972 26258.9
 08 04 2013  03 01  -21.0370 26034.4 -03426.2 -07.4971 26258.9
 08 04 2013  03 02  -21.0370 26034.4 -03426.2 -07.4972 26258.9
 08 04 2013  03 03  -21.0369 26034.4 -03426.2 -07.4972 26258.9
 08 04 2013  03 04  -21.0366 26034.4 -03426.3 -07.4973 26258.9
 08 04 2013  03 05  -21.0366 26034.4 -03426.3 -07.4973 26258.9
 08 04 2013  03 06  -21.0365 26034.3 -03426.3 -07.4974 26258.8
 08 04 2013  03 07  -21.0363 26034.3 -03426.3 -07.4973 26258.8
 08 04 2013  03 08  -21.0362 26034.3 -03426.3 -07.4974 26258.7
 08 04 2013  03 09  -21.0361 26034.3 -03426.3 -07.4975 26258.8
 08 04 2013  03 10  -21.0360 26034.3 -03426.3 -07.4975 26258.8
 08 04 2013  03 11  -21.0360 26034.2 -03426.4 -07.4976 26258.7
 08 04 2013  03 12  -21.0360 26034.2 -03426.4 -07.4976 26258.7
 08 04 2013  03 13  -21.0359 26034.1 -03426.4 -07.4977 26258.6
 08 04 2013  03 14  -21.0358 26034.1 -03426.4 -07.4977 26258.6
 08 04 2013  03 15  -21.0358 26034.1 -03426.5 -07.4978 26258.6
 08 04 2013  03 16  -21.0357 26034.1 -03426.5 -07.4978 26258.6
 08 04 2013  03 17  -21.0358 26034.1 -03426.5 -07.4979 26258.6
 08 04 2013  03 18  -21.0359 26034.1 -03426.6 -07.4981 26258.6
 08 04 2013  03 19  -21.0358 26034.1 -03426.6 -07.4982 26258.7
 08 04 2013  03 20  -21.0358 26034.1 -03426.6 -07.4982 26258.7
 08 04 2013  03 21  -21.0358 26034.1 -03426.7 -07.4983 26258.6
 08 04 2013  03 22  -21.0358 26034.0 -03426.7 -07.4984 26258.6
 08 04 2013  03 23  -21.0358 26034.1 -03426.7 -07.4984 26258.6
 08 04 2013  03 24  -21.0359 26034.0 -03426.8 -07.4986 26258.6
 08 04 2013  03 25  -21.0359 26034.0 -03426.8 -07.4986 26258.6
 08 04 2013  03 26  -21.0360 26034.0 -03426.8 -07.4987 26258.6
 08 04 2013  03 27  -21.0360 26034.0 -03426.9 -07.4988 26258.6
 08 04 2013  03 28  -21.0360 26034.0 -03426.9 -07.4988 26258.5
 08 04 2013  03 29  -21.0360 26034.0 -03426.9 -07.4989 26258.5
 08 04 2013  03 30  -21.0360 26033.9 -03426.9 -07.4989 26258.5
 08 04 2013  03 31  -21.0361 26034.0 -03427.0 -07.4990 26258.5
 08 04 2013  03 32  -21.0362 26033.9 -03427.0 -07.4990 26258.5
 08 04 2013  03 33  -21.0362 26033.9 -03427.0 -07.4992 26258.5
 08 04 2013  03 34  -21.0361 26033.9 -03427.1 -07.4992 26258.4
 08 04 2013  03 35  -21.0362 26033.8 -03427.1 -07.4993 26258.4
 08 04 2013  03 36  -21.0363 26033.8 -03427.1 -07.4994 26258.4
 08 04 2013  03 37  -21.0363 26033.8 -03427.2 -07.4995 26258.4
 08 04 2013  03 38  -21.0365 26033.8 -03427.2 -07.4995 26258.4
 08 04 2013  03 39  -21.0366 26033.7 -03427.2 -07.4996 26258.4
 08 04 2013  03 40  -21.0368 26033.7 -03427.2 -07.4996 26258.3
 08 04 2013  03 41  -21.0369 26033.7 -03427.2 -07.4996 26258.3
 08 04 2013  03 42  -21.0370 26033.6 -03427.2 -07.4997 26258.2
 08 04 2013  03 43  -21.0371 26033.6 -03427.2 -07.4997 26258.2
 08 04 2013  03 44  -21.0373 26033.5 -03427.3 -07.4998 26258.2
 08 04 2013  03 45  -21.0374 26033.5 -03427.3 -07.4998 26258.1
 08 04 2013  03 46  -21.0376 26033.4 -03427.3 -07.4998 26258.0
 08 04 2013  03 47  -21.0378 26033.4 -03427.3 -07.4997 26258.0
 08 04 2013  03 48  -21.0379 26033.3 -03427.3 -07.4998 26258.0
 08 04 2013  03 49  -21.0381 26033.3 -03427.3 -07.4998 26257.9
 08 04 2013  03 50  -21.0383 26033.2 -03427.3 -07.4998 26257.8
 08 04 2013  03 51  -21.0384 26033.2 -03427.2 -07.4998 26257.8
 08 04 2013  03 52  -21.0386 26033.1 -03427.2 -07.4998 26257.7
 08 04 2013  03 53  -21.0387 26033.1 -03427.3 -07.4998 26257.7
 08 04 2013  03 54  -21.0388 26033.1 -03427.3 -07.4999 26257.7
 08 04 2013  03 55  -21.0390 26033.0 -03427.3 -07.4999 26257.7
 08 04 2013  03 56  -21.0392 26033.0 -03427.3 -07.4999 26257.6
 08 04 2013  03 57  -21.0394 26033.0 -03427.3 -07.4999 26257.7
 08 04 2013  03 58  -21.0395 26033.0 -03427.3 -07.4999 26257.6
 08 04 2013  03 59  -21.0398 26033.1 -03427.3 -07.5000 26257.7
 08 04 2013  04 00  -21.0400 26033.1 -03427.3 -07.5000 26257.7
 08 04 2013  04 01  -21.0401 26033.1 -03427.3 -07.5000 26257.8
 08 04 2013  04 02  -21.0403 26033.2 -03427.4 -07.5001 26257.8
 08 04 2013  04 03  -21.0404 26033.3 -03427.4 -07.5001 26257.9
 08 04 2013  04 04  -21.0404 26033.4 -03427.4 -07.5001 26258.0
 08 04 2013  04 05  -21.0404 26033.4 -03427.4 -07.5001 26258.1
 08 04 2013  04 06  -21.0404 26033.5 -03427.5 -07.5001 26258.2
 08 04 2013  04 07  -21.0403 26033.6 -03427.5 -07.5001 26258.3
 08 04 2013  04 08  -21.0403 26033.7 -03427.5 -07.5002 26258.3
 08 04 2013  04 09  -21.0401 26033.7 -03427.5 -07.5002 26258.4
 08 04 2013  04 10  -21.0400 26033.9 -03427.5 -07.5001 26258.5
 08 04 2013  04 11  -21.0400 26033.9 -03427.5 -07.5002 26258.6
 08 04 2013  04 12  -21.0399 26034.0 -03427.6 -07.5003 26258.7
 08 04 2013  04 13  -21.0399 26034.0 -03427.6 -07.5003 26258.7
 08 04 2013  04 14  -21.0398 26034.2 -03427.7 -07.5004 26258.9
 08 04 2013  04 15  -21.0399 26034.3 -03427.7 -07.5005 26258.9
 08 04 2013  04 16  -21.0398 26034.4 -03427.7 -07.5005 26259.1
 08 04 2013  04 17  -21.0397 26034.5 -03427.8 -07.5005 26259.2
 08 04 2013  04 18  -21.0396 26034.5 -03427.8 -07.5005 26259.2
 08 04 2013  04 19  -21.0396 26034.6 -03427.8 -07.5006 26259.3
 08 04 2013  04 20  -21.0395 26034.8 -03427.8 -07.5006 26259.4
 08 04 2013  04 21  -21.0394 26034.8 -03427.8 -07.5006 26259.5
 08 04 2013  04 22  -21.0391 26034.8 -03427.8 -07.5005 26259.5
 08 04 2013  04 23  -21.0390 26034.8 -03427.8 -07.5006 26259.5
 08 04 2013  04 24  -21.0389 26034.8 -03427.8 -07.5005 26259.4
 08 04 2013  04 25  -21.0387 26034.7 -03427.7 -07.5004 26259.3
 08 04 2013  04 26  -21.0387 26034.7 -03427.7 -07.5004 26259.4
 08 04 2013  04 27  -21.0388 26034.6 -03427.7 -07.5005 26259.3
 08 04 2013  04 28  -21.0388 26034.6 -03427.7 -07.5004 26259.3
 08 04 2013  04 29  -21.0390 26034.6 -03427.7 -07.5004 26259.3
 08 04 2013  04 30  -21.0391 26034.4 -03427.6 -07.5003 26259.1
 08 04 2013  04 31  -21.0394 26034.4 -03427.7 -07.5003 26259.1
 08 04 2013  04 32  -21.0395 26034.5 -03427.7 -07.5004 26259.2
 08 04 2013  04 33  -21.0395 26034.4 -03427.7 -07.5004 26259.1
 08 04 2013  04 34  -21.0395 26034.4 -03427.7 -07.5004 26259.1
 08 04 2013  04 35  -21.0396 26034.5 -03427.7 -07.5004 26259.1
 08 04 2013  04 36  -21.0396 26034.5 -03427.7 -07.5004 26259.1
 08 04 2013  04 37  -21.0397 26034.5 -03427.7 -07.5005 26259.2
 08 04 2013  04 38  -21.0395 26034.5 -03427.8 -07.5005 26259.2
 08 04 2013  04 39  -21.0393 26034.6 -03427.8 -07.5005 26259.3
 08 04 2013  04 40  -21.0390 26034.6 -03427.7 -07.5005 26259.3
 08 04 2013  04 41  -21.0388 26034.6 -03427.8 -07.5005 26259.3
 08 04 2013  04 42  -21.0387 26034.7 -03427.8 -07.5005 26259.3
 08 04 2013  04 43  -21.0386 26034.6 -03427.8 -07.5006 26259.3
 08 04 2013  04 44  -21.0387 26034.6 -03427.8 -07.5006 26259.3
 08 04 2013  04 45  -21.0387 26034.6 -03427.9 -07.5008 26259.3
 08 04 2013  04 46  -21.0387 26034.7 -03427.9 -07.5008 26259.4
 08 04 2013  04 47  -21.0388 26034.7 -03427.9 -07.5009 26259.4
 08 04 2013  04 48  -21.0388 26034.8 -03428.0 -07.5010 26259.5
 08 04 2013  04 49  -21.0387 26034.9 -03428.0 -07.5010 26259.6
 08 04 2013  04 50  -21.0388 26035.0 -03428.1 -07.5012 26259.7
 08 04 2013  04 51  -21.0388 26035.1 -03428.2 -07.5013 26259.8
 08 04 2013  04 52  -21.0389 26035.2 -03428.2 -07.5013 26259.9
 08 04 2013  04 53  -21.0390 26035.2 -03428.3 -07.5014 26260.0
 08 04 2013  04 54  -21.0390 26035.3 -03428.3 -07.5014 26260.1
 08 04 2013  04 55  -21.0390 26035.4 -03428.3 -07.5015 26260.2
 08 04 2013  04 56  -21.0390 26035.5 -03428.4 -07.5015 26260.3
 08 04 2013  04 57  -21.0391 26035.6 -03428.4 -07.5016 26260.4
 08 04 2013  04 58  -21.0391 26035.7 -03428.4 -07.5017 26260.4
 08 04 2013  04 59  -21.0392 26035.8 -03428.5 -07.5018 26260.6
 08 04 2013  05 00  -21.0392 26035.9 -03428.5 -07.5018 26260.6
 08 04 2013  05 01  -21.0393 26035.8 -03428.5 -07.5017 26260.6
 08 04 2013  05 02  -21.0392 26036.0 -03428.5 -07.5018 26260.7
 08 04 2013  05 03  -21.0391 26036.1 -03428.6 -07.5018 26260.8
 08 04 2013  05 04  -21.0389 26036.2 -03428.7 -07.5020 26261.0
 08 04 2013  05 05  -21.0389 26036.4 -03428.7 -07.5021 26261.2
 08 04 2013  05 06  -21.0390 26036.5 -03428.8 -07.5022 26261.3
 08 04 2013  05 07  -21.0391 26036.7 -03428.9 -07.5024 26261.5
 08 04 2013  05 08  -21.0393 26036.8 -03429.0 -07.5025 26261.6
 08 04 2013  05 09  -21.0392 26036.9 -03429.0 -07.5025 26261.7
 08 04 2013  05 10  -21.0390 26036.9 -03429.0 -07.5024 26261.7
 08 04 2013  05 11  -21.0389 26036.9 -03428.9 -07.5024 26261.7
 08 04 2013  05 12  -21.0390 26036.9 -03428.9 -07.5023 26261.7
 08 04 2013  05 13  -21.0390 26036.9 -03428.9 -07.5022 26261.7
 08 04 2013  05 14  -21.0391 26036.8 -03428.8 -07.5022 26261.6
 08 04 2013  05 15  -21.0392 26036.8 -03428.8 -07.5022 26261.6
 08 04 2013  05 16  -21.0394 26036.7 -03428.8 -07.5021 26261.5
 08 04 2013  05 17  -21.0395 26036.7 -03428.8 -07.5021 26261.5
 08 04 2013  05 18  -21.0396 26036.7 -03428.8 -07.5021 26261.5
 08 04 2013  05 19  -21.0398 26036.8 -03428.8 -07.5021 26261.6
 08 04 2013  05 20  -21.0398 26036.8 -03428.8 -07.5021 26261.6
 08 04 2013  05 21  -21.0398 26036.9 -03428.8 -07.5021 26261.7
 08 04 2013  05 22  -21.0399 26036.9 -03428.8 -07.5021 26261.7
 08 04 2013  05 23  -21.0399 26037.0 -03428.8 -07.5021 26261.8
 08 04 2013  05 24  -21.0399 26036.9 -03428.8 -07.5021 26261.7
 08 04 2013  05 25  -21.0399 26036.7 -03428.7 -07.5019 26261.5
 08 04 2013  05 26  -21.0402 26036.4 -03428.5 -07.5017 26261.2
 08 04 2013  05 27  -21.0407 26036.2 -03428.4 -07.5015 26261.0
 08 04 2013  05 28  -21.0410 26036.1 -03428.4 -07.5014 26260.9
 08 04 2013  05 29  -21.0412 26036.1 -03428.4 -07.5014 26260.9
 08 04 2013  05 30  -21.0414 26036.2 -03428.4 -07.5014 26260.9
 08 04 2013  05 31  -21.0414 26036.2 -03428.4 -07.5014 26261.0
 08 04 2013  05 32  -21.0414 26036.3 -03428.4 -07.5015 26261.0
 08 04 2013  05 33  -21.0413 26036.3 -03428.5 -07.5015 26261.1
 08 04 2013  05 34  -21.0413 26036.3 -03428.4 -07.5014 26261.1
 08 04 2013  05 35  -21.0412 26036.2 -03428.4 -07.5015 26260.9
 08 04 2013  05 36  -21.0413 26036.1 -03428.4 -07.5014 26260.9
 08 04 2013  05 37  -21.0414 26036.1 -03428.3 -07.5013 26260.8
 08 04 2013  05 38  -21.0414 26036.0 -03428.3 -07.5012 26260.7
 08 04 2013  05 39  -21.0415 26035.8 -03428.2 -07.5012 26260.6
 08 04 2013  05 40  -21.0414 26035.7 -03428.2 -07.5011 26260.5
 08 04 2013  05 41  -21.0414 26035.7 -03428.2 -07.5011 26260.4
 08 04 2013  05 42  -21.0416 26035.6 -03428.2 -07.5011 26260.3
 08 04 2013  05 43  -21.0417 26035.5 -03428.1 -07.5010 26260.2
 08 04 2013  05 44  -21.0417 26035.5 -03428.1 -07.5010 26260.2
 08 04 2013  05 45  -21.0418 26035.5 -03428.2 -07.5011 26260.3
 08 04 2013  05 46  -21.0419 26035.6 -03428.2 -07.5012 26260.3
 08 04 2013  05 47  -21.0420 26035.7 -03428.3 -07.5013 26260.4
 08 04 2013  05 48  -21.0420 26035.8 -03428.3 -07.5014 26260.6
 08 04 2013  05 49  -21.0420 26035.9 -03428.4 -07.5015 26260.7
 08 04 2013  05 50  -21.0419 26036.2 -03428.5 -07.5017 26261.0
 08 04 2013  05 51  -21.0419 26036.3 -03428.6 -07.5018 26261.1
 08 04 2013  05 52  -21.0417 26036.3 -03428.6 -07.5019 26261.1
 08 04 2013  05 53  -21.0416 26036.3 -03428.6 -07.5019 26261.1
 08 04 2013  05 54  -21.0417 26036.3 -03428.6 -07.5018 26261.1
 08 04 2013  05 55  -21.0418 26036.4 -03428.7 -07.5020 26261.2
 08 04 2013  05 56  -21.0417 26036.6 -03428.7 -07.5020 26261.4
 08 04 2013  05 57  -21.0417 26036.7 -03428.8 -07.5021 26261.5
 08 04 2013  05 58  -21.0413 26037.0 -03429.0 -07.5024 26261.9
 08 04 2013  05 59  -21.0415 26036.9 -03428.9 -07.5024 26261.7
 08 04 2013  06 00  -21.0412 26037.1 -03429.0 -07.5025 26261.9
 08 04 2013  06 01  -21.0412 26037.1 -03429.0 -07.5025 26262.0
 08 04 2013  06 02  -21.0410 26037.2 -03429.1 -07.5026 26262.0
 08 04 2013  06 03  -21.0411 26037.0 -03429.0 -07.5025 26261.9
 08 04 2013  06 04  -21.0411 26037.0 -03429.0 -07.5024 26261.8
 08 04 2013  06 05  -21.0411 26037.0 -03428.9 -07.5024 26261.9
 08 04 2013  06 06  -21.0413 26037.1 -03429.0 -07.5024 26261.9
 08 04 2013  06 07  -21.0414 26037.1 -03429.0 -07.5025 26262.0
 08 04 2013  06 08  -21.0416 26037.1 -03429.0 -07.5025 26261.9
 08 04 2013  06 09  -21.0415 26037.3 -03429.1 -07.5026 26262.2
 08 04 2013  06 10  -21.0418 26037.1 -03429.0 -07.5025 26262.0
 08 04 2013  06 11  -21.0419 26037.2 -03429.0 -07.5025 26262.0
 08 04 2013  06 12  -21.0421 26037.1 -03429.0 -07.5024 26261.9
 08 04 2013  06 13  -21.0423 26037.0 -03428.9 -07.5024 26261.9
 08 04 2013  06 14  -21.0424 26037.0 -03428.9 -07.5023 26261.8
 08 04 2013  06 15  -21.0424 26037.0 -03428.9 -07.5022 26261.8
 08 04 2013  06 16  -21.0424 26036.9 -03428.9 -07.5022 26261.7
 08 04 2013  06 17  -21.0424 26037.0 -03428.8 -07.5022 26261.8
 08 04 2013  06 18  -21.0423 26037.1 -03428.9 -07.5022 26261.9
 08 04 2013  06 19  -21.0422 26037.3 -03429.0 -07.5024 26262.1
 08 04 2013  06 20  -21.0424 26037.3 -03429.0 -07.5023 26262.1
 08 04 2013  06 21  -21.0420 26037.4 -03429.0 -07.5024 26262.2
 08 04 2013  06 22  -21.0422 26037.3 -03429.0 -07.5024 26262.1
 08 04 2013  06 23  -21.0423 26037.1 -03428.9 -07.5022 26261.9
 08 04 2013  06 24  -21.0421 26037.2 -03428.9 -07.5022 26262.0
 08 04 2013  06 25  -21.0425 26037.0 -03428.8 -07.5020 26261.8
 08 04 2013  06 26  -21.0423 26037.2 -03428.8 -07.5021 26262.0
 08 04 2013  06 27  -21.0426 26037.0 -03428.8 -07.5021 26261.8
 08 04 2013  06 28  -21.0422 26037.5 -03429.0 -07.5023 26262.3
 08 04 2013  06 29  -21.0425 26037.3 -03428.9 -07.5022 26262.1
 08 04 2013  06 30  -21.0420 26037.4 -03428.9 -07.5022 26262.2
 08 04 2013  06 31  -21.0420 26037.3 -03428.9 -07.5022 26262.1
 08 04 2013  06 32  -21.0418 26037.3 -03428.9 -07.5021 26262.1
 08 04 2013  06 33  -21.0417 26037.4 -03428.9 -07.5022 26262.2
 08 04 2013  06 34  -21.0415 26037.4 -03428.9 -07.5022 26262.2
 08 04 2013  06 35  -21.0413 26037.6 -03429.0 -07.5023 26262.5
 08 04 2013  06 36  -21.0413 26037.7 -03429.1 -07.5025 26262.6
 08 04 2013  06 37  -21.0410 26037.9 -03429.2 -07.5026 26262.7
 08 04 2013  06 38  -21.0407 26037.8 -03429.1 -07.5026 26262.6
 08 04 2013  06 39  -21.0403 26037.8 -03429.2 -07.5026 26262.7
 08 04 2013  06 40  -21.0401 26037.8 -03429.2 -07.5026 26262.7
 08 04 2013  06 41  -21.0403 26037.6 -03429.1 -07.5025 26262.5
 08 04 2013  06 42  -21.0403 26037.5 -03429.0 -07.5023 26262.3
 08 04 2013  06 43  -21.0406 26037.3 -03428.9 -07.5023 26262.1
 08 04 2013  06 44  -21.0406 26037.3 -03428.9 -07.5022 26262.1
 08 04 2013  06 45  -21.0407 26037.3 -03428.9 -07.5021 26262.1
 08 04 2013  06 46  -21.0407 26037.2 -03428.9 -07.5021 26262.0
 08 04 2013  06 47  -21.0407 26037.2 -03428.8 -07.5020 26262.0
 08 04 2013  06 48  -21.0406 26037.4 -03428.9 -07.5021 26262.2
 08 04 2013  06 49  -21.0404 26037.5 -03428.9 -07.5022 26262.3
 08 04 2013  06 50  -21.0401 26037.6 -03429.0 -07.5023 26262.4
 08 04 2013  06 51  -21.0397 26037.7 -03429.1 -07.5024 26262.6
 08 04 2013  06 52  -21.0393 26037.9 -03429.1 -07.5025 26262.7
 08 04 2013  06 53  -21.0394 26037.8 -03429.1 -07.5026 26262.6
 08 04 2013  06 54  -21.0390 26037.9 -03429.1 -07.5025 26262.7
 08 04 2013  06 55  -21.0391 26037.8 -03429.1 -07.5026 26262.7
 08 04 2013  06 56  -21.0389 26038.1 -03429.2 -07.5027 26262.9
 08 04 2013  06 57  -21.0390 26037.9 -03429.2 -07.5027 26262.7
 08 04 2013  06 58  -21.0385 26038.2 -03429.3 -07.5028 26263.0
 08 04 2013  06 59  -21.0385 26038.2 -03429.4 -07.5030 26263.1
 08 04 2013  07 00  -21.0386 26038.4 -03429.4 -07.5030 26263.2
 08 04 2013  07 01  -21.0385 26038.3 -03429.3 -07.5028 26263.1
 08 04 2013  07 02  -21.0384 26038.3 -03429.3 -07.5028 26263.2
 08 04 2013  07 03  -21.0386 26038.4 -03429.4 -07.5029 26263.2
 08 04 2013  07 04  -21.0387 26038.5 -03429.4 -07.5030 26263.3
 08 04 2013  07 05  -21.0389 26038.4 -03429.4 -07.5029 26263.3
 08 04 2013  07 06  -21.0391 26038.4 -03429.4 -07.5029 26263.3
 08 04 2013  07 07  -21.0390 26038.4 -03429.3 -07.5028 26263.3
 08 04 2013  07 08  -21.0387 26038.9 -03429.5 -07.5031 26263.7
 08 04 2013  07 09  -21.0387 26038.7 -03429.5 -07.5030 26263.6
 08 04 2013  07 10  -21.0382 26038.7 -03429.5 -07.5030 26263.6
 08 04 2013  07 11  -21.0380 26039.0 -03429.6 -07.5032 26263.9
 08 04 2013  07 12  -21.0374 26039.5 -03429.8 -07.5036 26264.4
 08 04 2013  07 13  -21.0374 26039.7 -03430.0 -07.5038 26264.7
 08 04 2013  07 14  -21.0370 26039.8 -03430.0 -07.5039 26264.7
 08 04 2013  07 15  -21.0365 26039.9 -03430.0 -07.5039 26264.9
 08 04 2013  07 16  -21.0363 26040.1 -03430.1 -07.5040 26265.0
 08 04 2013  07 17  -21.0362 26040.2 -03430.1 -07.5040 26265.1
 08 04 2013  07 18  -21.0363 26040.3 -03430.1 -07.5040 26265.2
 08 04 2013  07 19  -21.0365 26040.3 -03430.1 -07.5040 26265.2
 08 04 2013  07 20  -21.0364 26040.3 -03430.1 -07.5039 26265.2
 08 04 2013  07 21  -21.0364 26040.4 -03430.1 -07.5038 26265.3
 08 04 2013  07 22  -21.0365 26040.3 -03430.0 -07.5038 26265.3
 08 04 2013  07 23  -21.0367 26040.1 -03429.9 -07.5036 26265.0
 08 04 2013  07 24  -21.0367 26040.1 -03429.9 -07.5035 26265.0
 08 04 2013  07 25  -21.0367 26040.1 -03429.8 -07.5034 26265.0
 08 04 2013  07 26  -21.0367 26040.1 -03429.8 -07.5034 26265.0
 08 04 2013  07 27  -21.0367 26040.0 -03429.8 -07.5033 26264.9
 08 04 2013  07 28  -21.0366 26039.9 -03429.7 -07.5032 26264.8
 08 04 2013  07 29  -21.0366 26039.9 -03429.7 -07.5033 26264.8
 08 04 2013  07 30  -21.0364 26040.1 -03429.8 -07.5034 26265.0
 08 04 2013  07 31  -21.0365 26040.2 -03429.9 -07.5035 26265.1
 08 04 2013  07 32  -21.0364 26040.3 -03429.9 -07.5035 26265.2
 08 04 2013  07 33  -21.0363 26040.2 -03429.8 -07.5034 26265.1
 08 04 2013  07 34  -21.0362 26040.1 -03429.8 -07.5033 26265.0
 08 04 2013  07 35  -21.0362 26040.0 -03429.7 -07.5032 26264.9
 08 04 2013  07 36  -21.0361 26040.1 -03429.7 -07.5032 26265.0
 08 04 2013  07 37  -21.0362 26040.2 -03429.8 -07.5033 26265.1
 08 04 2013  07 38  -21.0361 26040.1 -03429.8 -07.5033 26265.0
 08 04 2013  07 39  -21.0361 26040.0 -03429.7 -07.5031 26264.9
 08 04 2013  07 40  -21.0363 26040.1 -03429.7 -07.5032 26265.0
 08 04 2013  07 41  -21.0366 26040.2 -03429.8 -07.5033 26265.1
 08 04 2013  07 42  -21.0370 26040.0 -03429.7 -07.5032 26264.9
 08 04 2013  07 43  -21.0372 26039.9 -03429.6 -07.5030 26264.8
 08 04 2013  07 44  -21.0373 26039.9 -03429.6 -07.5030 26264.7
 08 04 2013  07 45  -21.0374 26039.8 -03429.6 -07.5030 26264.7
 08 04 2013  07 46  -21.0376 26039.8 -03429.6 -07.5029 26264.7
 08 04 2013  07 47  -21.0378 26039.8 -03429.5 -07.5029 26264.7
 08 04 2013  07 48  -21.0378 26039.8 -03429.5 -07.5029 26264.7
 08 04 2013  07 49  -21.0378 26040.0 -03429.5 -07.5028 26264.8
 08 04 2013  07 50  -21.0375 26039.8 -03429.5 -07.5027 26264.6
 08 04 2013  07 51  -21.0370 26039.5 -03429.3 -07.5023 26264.3
 08 04 2013  07 52  -21.0364 26039.3 -03429.1 -07.5021 26264.1
 08 04 2013  07 53  -21.0358 26039.2 -03429.1 -07.5021 26264.1
 08 04 2013  07 54  -21.0357 26039.0 -03429.1 -07.5020 26263.9
 08 04 2013  07 55  -21.0355 26039.2 -03429.1 -07.5022 26264.0
 08 04 2013  07 56  -21.0354 26039.1 -03429.2 -07.5022 26264.0
 08 04 2013  07 57  -21.0349 26038.9 -03429.1 -07.5022 26263.8
 08 04 2013  07 58  -21.0346 26038.7 -03429.0 -07.5021 26263.5
 08 04 2013  07 59  -21.0342 26038.7 -03429.1 -07.5021 26263.5
 08 04 2013  08 00  -21.0339 26039.0 -03429.3 -07.5025 26263.8
 08 04 2013  08 01  -21.0340 26038.4 -03429.2 -07.5024 26263.2
 08 04 2013  08 02  -21.0337 26038.4 -03429.2 -07.5026 26263.2
 08 04 2013  08 03  -21.0337 26038.5 -03429.3 -07.5028 26263.3
 08 04 2013  08 04  -21.0337 26038.4 -03429.4 -07.5029 26263.3
 08 04 2013  08 05  -21.0335 26038.6 -03429.4 -07.5030 26263.4
 08 04 2013  08 06  -21.0335 26038.9 -03429.6 -07.5033 26263.8
 08 04 2013  08 07  -21.0335 26039.1 -03429.8 -07.5036 26264.0
 08 04 2013  08 08  -21.0336 26039.3 -03429.9 -07.5038 26264.2
 08 04 2013  08 09  -21.0335 26039.5 -03430.0 -07.5040 26264.4
 08 04 2013  08 10  -21.0335 26039.8 -03430.1 -07.5041 26264.7
 08 04 2013  08 11  -21.0335 26040.2 -03430.3 -07.5044 26265.2
 08 04 2013  08 12  -21.0333 26040.3 -03430.2 -07.5043 26265.2
 08 04 2013  08 13  -21.0331 26040.3 -03430.2 -07.5042 26265.3
 08 04 2013  08 14  -21.0333 26040.4 -03430.3 -07.5042 26265.3
 08 04 2013  08 15  -21.0332 26040.5 -03430.2 -07.5042 26265.4
 08 04 2013  08 16  -21.0332 26040.3 -03430.1 -07.5040 26265.2
 08 04 2013  08 17  -21.0332 26040.4 -03430.2 -07.5041 26265.4
 08 04 2013  08 18  -21.0336 26040.5 -03430.3 -07.5042 26265.5
 08 04 2013  08 19  -21.0336 26040.4 -03430.2 -07.5042 26265.4
 08 04 2013  08 20  -21.0334 26040.5 -03430.2 -07.5041 26265.5
 08 04 2013  08 21  -21.0335 26040.4 -03430.1 -07.5040 26265.3
 08 04 2013  08 22  -21.0333 26040.5 -03430.1 -07.5039 26265.5
 08 04 2013  08 23  -21.0331 26040.3 -03430.0 -07.5038 26265.2
 08 04 2013  08 24  -21.0329 26040.2 -03430.1 -07.5039 26265.2
 08 04 2013  08 25  -21.0328 26040.2 -03430.0 -07.5038 26265.2
 08 04 2013  08 26  -21.0327 26040.5 -03430.2 -07.5041 26265.4
 08 04 2013  08 27  -21.0324 26040.7 -03430.3 -07.5043 26265.6
 08 04 2013  08 28  -21.0319 26040.8 -03430.4 -07.5044 26265.8
 08 04 2013  08 29  -21.0315 26040.5 -03430.2 -07.5042 26265.5
 08 04 2013  08 30  -21.0310 26040.4 -03430.2 -07.5042 26265.4
 08 04 2013  08 31  -21.0305 26040.6 -03430.3 -07.5042 26265.6
 08 04 2013  08 32  -21.0301 26040.7 -03430.3 -07.5044 26265.6
 08 04 2013  08 33  -21.0297 26040.7 -03430.4 -07.5045 26265.7
 08 04 2013  08 34  -21.0294 26040.7 -03430.4 -07.5045 26265.7
 08 04 2013  08 35  -21.0291 26040.7 -03430.4 -07.5044 26265.7
 08 04 2013  08 36  -21.0289 26040.8 -03430.4 -07.5044 26265.8
 08 04 2013  08 37  -21.0286 26040.9 -03430.5 -07.5045 26265.9
 08 04 2013  08 38  -21.0286 26040.9 -03430.5 -07.5046 26265.9
 08 04 2013  08 39  -21.0286 26040.8 -03430.4 -07.5045 26265.8
 08 04 2013  08 40  -21.0284 26040.8 -03430.4 -07.5044 26265.8
 08 04 2013  08 41  -21.0282 26040.7 -03430.3 -07.5043 26265.7
 08 04 2013  08 42  -21.0280 26040.7 -03430.3 -07.5043 26265.7
 08 04 2013  08 43  -21.0276 26040.8 -03430.3 -07.5043 26265.8
 08 04 2013  08 44  -21.0273 26040.8 -03430.3 -07.5042 26265.7
 08 04 2013  08 45  -21.0269 26040.7 -03430.3 -07.5042 26265.7
 08 04 2013  08 46  -21.0264 26040.7 -03430.2 -07.5041 26265.7
 08 04 2013  08 47  -21.0260 26040.7 -03430.2 -07.5041 26265.6
 08 04 2013  08 48  -21.0257 26040.6 -03430.2 -07.5041 26265.5
 08 04 2013  08 49  -21.0253 26040.6 -03430.2 -07.5041 26265.5
 08 04 2013  08 50  -21.0251 26040.5 -03430.2 -07.5041 26265.5
 08 04 2013  08 51  -21.0246 26040.5 -03430.2 -07.5041 26265.5
 08 04 2013  08 52  -21.0242 26040.5 -03430.2 -07.5041 26265.5
 08 04 2013  08 53  -21.0240 26040.5 -03430.2 -07.5041 26265.4
 08 04 2013  08 54  -21.0236 26040.4 -03430.2 -07.5042 26265.3
 08 04 2013  08 55  -21.0232 26040.2 -03430.2 -07.5042 26265.1
 08 04 2013  08 56  -21.0230 26040.0 -03430.2 -07.5042 26265.0
 08 04 2013  08 57  -21.0227 26039.9 -03430.2 -07.5043 26264.9
 08 04 2013  08 58  -21.0224 26039.9 -03430.2 -07.5043 26264.8
 08 04 2013  08 59  -21.0220 26039.9 -03430.3 -07.5045 26264.9
 08 04 2013  09 00  -21.0217 26039.7 -03430.3 -07.5045 26264.7
 08 04 2013  09 01  -21.0213 26039.7 -03430.3 -07.5045 26264.7
 08 04 2013  09 02  -21.0208 26039.7 -03430.3 -07.5046 26264.7
 08 04 2013  09 03  -21.0203 26039.7 -03430.4 -07.5047 26264.6
 08 04 2013  09 04  -21.0198 26039.6 -03430.4 -07.5047 26264.6
 08 04 2013  09 05  -21.0194 26039.5 -03430.4 -07.5048 26264.5
 08 04 2013  09 06  -21.0191 26039.5 -03430.4 -07.5049 26264.4
 08 04 2013  09 07  -21.0187 26039.4 -03430.5 -07.5050 26264.4
 08 04 2013  09 08  -21.0184 26039.4 -03430.5 -07.5052 26264.4
 08 04 2013  09 09  -21.0180 26039.3 -03430.6 -07.5053 26264.4
 08 04 2013  09 10  -21.0176 26039.4 -03430.7 -07.5054 26264.4
 08 04 2013  09 11  -21.0175 26039.2 -03430.7 -07.5055 26264.3
 08 04 2013  09 12  -21.0174 26039.1 -03430.7 -07.5056 26264.2
 08 04 2013  09 13  -21.0170 26039.0 -03430.7 -07.5056 26264.1
 08 04 2013  09 14  -21.0167 26038.9 -03430.7 -07.5057 26264.0
 08 04 2013  09 15  -21.0165 26038.9 -03430.8 -07.5059 26264.0
 08 04 2013  09 16  -21.0162 26038.9 -03430.9 -07.5061 26264.0
 08 04 2013  09 17  -21.0158 26039.0 -03431.0 -07.5063 26264.0
 08 04 2013  09 18  -21.0157 26038.9 -03431.1 -07.5064 26264.0
 08 04 2013  09 19  -21.0156 26038.8 -03431.1 -07.5065 26263.9
 08 04 2013  09 20  -21.0156 26038.7 -03431.2 -07.5067 26263.8
 08 04 2013  09 21  -21.0155 26038.8 -03431.2 -07.5068 26263.9
 08 04 2013  09 22  -21.0153 26039.0 -03431.3 -07.5069 26264.1
 08 04 2013  09 23  -21.0154 26038.8 -03431.3 -07.5069 26263.9
 08 04 2013  09 24  -21.0153 26039.0 -03431.5 -07.5073 26264.2
 08 04 2013  09 25  -21.0151 26039.0 -03431.5 -07.5074 26264.1
 08 04 2013  09 26  -21.0151 26039.1 -03431.7 -07.5077 26264.3
 08 04 2013  09 27  -21.0153 26039.2 -03431.8 -07.5079 26264.3
 08 04 2013  09 28  -21.0153 26039.3 -03431.9 -07.5080 26264.4
 08 04 2013  09 29  -21.0154 26039.2 -03431.9 -07.5081 26264.4
 08 04 2013  09 30  -21.0155 26039.4 -03432.0 -07.5084 26264.6
 08 04 2013  09 31  -21.0157 26039.3 -03432.0 -07.5084 26264.5
 08 04 2013  09 32  -21.0154 26039.5 -03432.1 -07.5085 26264.7
 08 04 2013  09 33  -21.0157 26039.5 -03432.1 -07.5086 26264.7
 08 04 2013  09 34  -21.0160 26039.5 -03432.2 -07.5087 26264.8
 08 04 2013  09 35  -21.0160 26039.4 -03432.2 -07.5086 26264.6
 08 04 2013  09 36  -21.0161 26039.3 -03432.1 -07.5086 26264.6
 08 04 2013  09 37  -21.0163 26039.3 -03432.2 -07.5087 26264.5
 08 04 2013  09 38  -21.0164 26039.3 -03432.2 -07.5087 26264.5
 08 04 2013  09 39  -21.0164 26039.3 -03432.2 -07.5087 26264.5
 08 04 2013  09 40  -21.0165 26039.4 -03432.2 -07.5088 26264.7
 08 04 2013  09 41  -21.0167 26039.5 -03432.3 -07.5090 26264.8
 08 04 2013  09 42  -21.0173 26039.4 -03432.3 -07.5090 26264.7
 08 04 2013  09 43  -21.0173 26039.5 -03432.4 -07.5091 26264.8
 08 04 2013  09 44  -21.0175 26039.5 -03432.4 -07.5091 26264.8
 08 04 2013  09 45  -21.0175 26039.8 -03432.5 -07.5093 26265.0
 08 04 2013  09 46  -21.0177 26039.7 -03432.5 -07.5092 26265.0
 08 04 2013  09 47  -21.0176 26039.7 -03432.4 -07.5091 26265.0
 08 04 2013  09 48  -21.0177 26039.5 -03432.3 -07.5089 26264.8
 08 04 2013  09 49  -21.0183 26039.6 -03432.3 -07.5089 26264.9
 08 04 2013  09 50  -21.0186 26039.8 -03432.4 -07.5091 26265.0
 08 04 2013  09 51  -21.0189 26039.7 -03432.4 -07.5090 26265.0
 08 04 2013  09 52  -21.0194 26039.6 -03432.4 -07.5090 26264.9
 08 04 2013  09 53  -21.0195 26039.6 -03432.4 -07.5090 26264.9
 08 04 2013  09 54  -21.0195 26039.7 -03432.4 -07.5090 26264.9
 08 04 2013  09 55  -21.0197 26039.7 -03432.4 -07.5090 26264.9
 08 04 2013  09 56  -21.0196 26039.8 -03432.4 -07.5090 26265.0
 08 04 2013  09 57  -21.0197 26039.8 -03432.4 -07.5090 26265.1
 08 04 2013  09 58  -21.0201 26039.9 -03432.4 -07.5091 26265.2
 08 04 2013  09 59  -21.0206 26040.0 -03432.4 -07.5091 26265.3
 08 04 2013  10 00  -21.0211 26040.1 -03432.5 -07.5091 26265.3
 08 04 2013  10 01  -21.0214 26040.1 -03432.4 -07.5090 26265.3
 08 04 2013  10 02  -21.0217 26040.1 -03432.3 -07.5088 26265.3
 08 04 2013  10 03  -21.0221 26040.2 -03432.3 -07.5088 26265.5
 08 04 2013  10 04  -21.0223 26040.3 -03432.2 -07.5086 26265.5
 08 04 2013  10 05  -21.0228 26040.1 -03432.1 -07.5084 26265.3
 08 04 2013  10 06  -21.0230 26040.2 -03432.1 -07.5082 26265.4
 08 04 2013  10 07  -21.0233 26040.4 -03432.1 -07.5083 26265.6
 08 04 2013  10 08  -21.0235 26040.6 -03432.1 -07.5082 26265.8
 08 04 2013  10 09  -21.0238 26040.5 -03432.0 -07.5080 26265.7
 08 04 2013  10 10  -21.0239 26040.5 -03431.9 -07.5078 26265.7
 08 04 2013  10 11  -21.0241 26040.6 -03431.9 -07.5077 26265.8
 08 04 2013  10 12  -21.0239 26040.8 -03431.9 -07.5077 26266.0
 08 04 2013  10 13  -21.0240 26041.0 -03431.9 -07.5076 26266.2
 08 04 2013  10 14  -21.0242 26041.2 -03431.9 -07.5076 26266.4
 08 04 2013  10 15  -21.0245 26041.4 -03431.9 -07.5075 26266.6
 08 04 2013  10 16  -21.0250 26041.5 -03431.9 -07.5075 26266.7
 08 04 2013  10 17  -21.0254 26041.8 -03431.9 -07.5074 26266.9
 08 04 2013  10 18  -21.0256 26041.9 -03431.9 -07.5073 26267.1
 08 04 2013  10 19  -21.0259 26042.1 -03431.8 -07.5071 26267.3
 08 04 2013  10 20  -21.0261 26042.3 -03431.8 -07.5070 26267.5
 08 04 2013  10 21  -21.0263 26042.4 -03431.7 -07.5067 26267.5
 08 04 2013  10 22  -21.0265 26042.6 -03431.6 -07.5066 26267.7
 08 04 2013  10 23  -21.0269 26042.7 -03431.6 -07.5064 26267.9
 08 04 2013  10 24  -21.0272 26042.8 -03431.5 -07.5062 26267.9
 08 04 2013  10 25  -21.0276 26043.0 -03431.4 -07.5060 26268.1
 08 04 2013  10 26  -21.0279 26043.2 -03431.4 -07.5059 26268.3
 08 04 2013  10 27  -21.0280 26043.2 -03431.3 -07.5056 26268.3
 08 04 2013  10 28  -21.0281 26043.4 -03431.2 -07.5054 26268.5
 08 04 2013  10 29  -21.0284 26043.6 -03431.1 -07.5052 26268.7
 08 04 2013  10 30  -21.0285 26043.9 -03431.1 -07.5051 26269.0
 08 04 2013  10 31  -21.0285 26044.3 -03431.1 -07.5049 26269.3
 08 04 2013  10 32  -21.0287 26044.5 -03431.0 -07.5046 26269.5
 08 04 2013  10 33  -21.0287 26044.8 -03430.8 -07.5043 26269.8
 08 04 2013  10 34  -21.0287 26045.0 -03430.7 -07.5038 26270.0
 08 04 2013  10 35  -21.0289 26045.2 -03430.5 -07.5034 26270.2
 08 04 2013  10 36  -21.0292 26045.4 -03430.3 -07.5030 26270.3
 08 04 2013  10 37  -21.0294 26045.6 -03430.2 -07.5027 26270.5
 08 04 2013  10 38  -21.0297 26045.8 -03430.1 -07.5024 26270.7
 08 04 2013  10 39  -21.0300 26046.0 -03430.0 -07.5021 26270.8
 08 04 2013  10 40  -21.0301 26046.2 -03429.9 -07.5018 26271.0
 08 04 2013  10 41  -21.0300 26046.3 -03429.8 -07.5015 26271.2
 08 04 2013  10 42  -21.0300 26046.4 -03429.7 -07.5013 26271.2
 08 04 2013  10 43  -21.0302 26046.8 -03429.6 -07.5011 26271.6
 08 04 2013  10 44  -21.0298 26047.2 -03429.6 -07.5009 26272.0
 08 04 2013  10 45  -21.0297 26047.5 -03429.5 -07.5006 26272.3
 08 04 2013  10 46  -21.0297 26047.9 -03429.4 -07.5003 26272.6
 08 04 2013  10 47  -21.0297 26048.3 -03429.3 -07.5000 26273.0
 08 04 2013  10 48  -21.0297 26048.6 -03429.2 -07.4997 26273.3
 08 04 2013  10 49  -21.0298 26048.8 -03429.1 -07.4993 26273.6
 08 04 2013  10 50  -21.0296 26049.3 -03429.0 -07.4989 26274.0
 08 04 2013  10 51  -21.0295 26049.6 -03428.8 -07.4986 26274.3
 08 04 2013  10 52  -21.0296 26049.9 -03428.7 -07.4982 26274.6
 08 04 2013  10 53  -21.0298 26050.2 -03428.5 -07.4977 26274.9
 08 04 2013  10 54  -21.0299 26050.6 -03428.4 -07.4973 26275.2
 08 04 2013  10 55  -21.0301 26051.1 -03428.2 -07.4968 26275.7
 08 04 2013  10 56  -21.0302 26051.5 -03428.1 -07.4964 26276.1
 08 04 2013  10 57  -21.0302 26051.8 -03427.9 -07.4959 26276.4
 08 04 2013  10 58  -21.0302 26052.0 -03427.7 -07.4954 26276.6
 08 04 2013  10 59  -21.0300 26052.4 -03427.5 -07.4950 26276.9
 08 04 2013  11 00  -21.0298 26052.8 -03427.4 -07.4946 26277.3
 08 04 2013  11 01  -21.0296 26052.9 -03427.2 -07.4941 26277.4
 08 04 2013  11 02  -21.0297 26053.1 -03427.1 -07.4938 26277.5
 08 04 2013  11 03  -21.0296 26053.5 -03427.0 -07.4936 26277.9
 08 04 2013  11 04  -21.0295 26054.0 -03427.0 -07.4934 26278.4
 08 04 2013  11 05  -21.0294 26054.5 -03427.0 -07.4932 26279.0
 08 04 2013  11 06  -21.0295 26055.1 -03427.0 -07.4929 26279.5
 08 04 2013  11 07  -21.0296 26055.5 -03426.9 -07.4926 26279.9
 08 04 2013  11 08  -21.0298 26055.8 -03426.7 -07.4922 26280.2
 08 04 2013  11 09  -21.0299 26056.2 -03426.6 -07.4918 26280.5
 08 04 2013  11 10  -21.0302 26056.6 -03426.5 -07.4914 26280.9
 08 04 2013  11 11  -21.0302 26057.1 -03426.4 -07.4912 26281.4
 08 04 2013  11 12  -21.0302 26057.5 -03426.3 -07.4908 26281.8
 08 04 2013  11 13  -21.0302 26058.2 -03426.2 -07.4905 26282.5
 08 04 2013  11 14  -21.0300 26058.6 -03426.0 -07.4899 26282.9
 08 04 2013  11 15  -21.0303 26058.9 -03425.8 -07.4894 26283.1
 08 04 2013  11 16  -21.0307 26059.3 -03425.7 -07.4890 26283.5
 08 04 2013  11 17  -21.0308 26059.7 -03425.5 -07.4886 26283.9
 08 04 2013  11 18  -21.0308 26060.0 -03425.4 -07.4881 26284.1
 08 04 2013  11 19  -21.0310 26060.2 -03425.2 -07.4876 26284.3
 08 04 2013  11 20  -21.0311 26060.7 -03425.1 -07.4873 26284.9
 08 04 2013  11 21  -21.0313 26061.3 -03425.0 -07.4870 26285.4
 08 04 2013  11 22  -21.0316 26061.6 -03424.9 -07.4866 26285.7
 08 04 2013  11 23  -21.0318 26062.1 -03424.8 -07.4862 26286.2
 08 04 2013  11 24  -21.0318 26062.5 -03424.7 -07.4859 26286.5
 08 04 2013  11 25  -21.0318 26062.8 -03424.5 -07.4854 26286.9
 08 04 2013  11 26  -21.0316 26063.3 -03424.3 -07.4850 26287.3
 08 04 2013  11 27  -21.0314 26063.6 -03424.1 -07.4845 26287.5
 08 04 2013  11 28  -21.0317 26063.9 -03424.0 -07.4840 26287.9
 08 04 2013  11 29  -21.0321 26064.4 -03423.9 -07.4837 26288.3
 08 04 2013  11 30  -21.0326 26064.8 -03423.8 -07.4833 26288.7
 08 04 2013  11 31  -21.0332 26065.3 -03423.6 -07.4829 26289.2
 08 04 2013  11 32  -21.0337 26066.0 -03423.5 -07.4825 26289.8
 08 04 2013  11 33  -21.0341 26066.4 -03423.4 -07.4820 26290.3
 08 04 2013  11 34  -21.0342 26067.0 -03423.3 -07.4816 26290.8
 08 04 2013  11 35  -21.0343 26067.6 -03423.1 -07.4811 26291.4
 08 04 2013  11 36  -21.0344 26068.1 -03422.9 -07.4805 26291.9
 08 04 2013  11 37  -21.0345 26068.6 -03422.7 -07.4799 26292.3
 08 04 2013  11 38  -21.0348 26068.9 -03422.5 -07.4793 26292.6
 08 04 2013  11 39  -21.0352 26069.3 -03422.2 -07.4787 26293.0
 08 04 2013  11 40  -21.0356 26069.7 -03422.0 -07.4781 26293.3
 08 04 2013  11 41  -21.0359 26070.0 -03421.8 -07.4776 26293.6
 08 04 2013  11 42  -21.0361 26070.4 -03421.6 -07.4771 26294.0
 08 04 2013  11 43  -21.0364 26070.8 -03421.4 -07.4765 26294.4
 08 04 2013  11 44  -21.0368 26071.3 -03421.3 -07.4761 26294.9
 08 04 2013  11 45  -21.0370 26071.7 -03421.1 -07.4756 26295.2
 08 04 2013  11 46  -21.0372 26072.0 -03420.9 -07.4751 26295.5
 08 04 2013  11 47  -21.0375 26072.4 -03420.8 -07.4746 26295.8
 08 04 2013  11 48  -21.0377 26072.8 -03420.6 -07.4742 26296.3
 08 04 2013  11 49  -21.0379 26073.4 -03420.5 -07.4738 26296.8
 08 04 2013  11 50  -21.0382 26073.9 -03420.3 -07.4733 26297.3
 08 04 2013  11 51  -21.0387 26074.3 -03420.2 -07.4729 26297.7
 08 04 2013  11 52  -21.0391 26074.6 -03420.0 -07.4723 26297.9
 08 04 2013  11 53  -21.0393 26075.3 -03419.9 -07.4720 26298.6
 08 04 2013  11 54  -21.0395 26075.5 -03419.6 -07.4713 26298.7
 08 04 2013  11 55  -21.0401 26076.1 -03419.5 -07.4709 26299.3
 08 04 2013  11 56  -21.0439 26076.2 -03419.1 -07.4699 26299.4
 08 04 2013  11 57  -21.0437 26076.5 -03418.9 -07.4693 26299.7
 08 04 2013  11 58  -21.0436 26077.0 -03418.7 -07.4689 26300.1
 08 04 2013  11 59  -21.0435 26077.3 -03418.5 -07.4684 26300.4
 08 04 2013  12 00  -21.0435 26077.7 -03418.4 -07.4680 26300.8
 08 04 2013  12 01  -21.0434 26078.1 -03418.3 -07.4677 26301.2
 08 04 2013  12 02  -21.0435 26078.5 -03418.2 -07.4673 26301.6
 08 04 2013  12 03  -21.0434 26078.8 -03418.0 -07.4668 26301.8
 08 04 2013  12 04  -21.0435 26079.2 -03417.9 -07.4665 26302.2
 08 04 2013  12 05  -21.0437 26079.7 -03417.9 -07.4664 26302.7
 08 04 2013  12 06  -21.0439 26080.3 -03417.9 -07.4662 26303.3
 08 04 2013  12 07  -21.0441 26080.7 -03417.8 -07.4659 26303.7
 08 04 2013  12 08  -21.0443 26081.0 -03417.7 -07.4656 26304.0
 08 04 2013  12 09  -21.0446 26081.4 -03417.7 -07.4654 26304.4
 08 04 2013  12 10  -21.0448 26081.5 -03417.5 -07.4649 26304.4
 08 04 2013  12 11  -21.0450 26081.8 -03417.4 -07.4648 26304.7
 08 04 2013  12 12  -21.0454 26082.1 -03417.4 -07.4646 26305.0
 08 04 2013  12 13  -21.0457 26082.3 -03417.4 -07.4645 26305.3
 08 04 2013  12 14  -21.0461 26082.7 -03417.4 -07.4644 26305.6
 08 04 2013  12 15  -21.0465 26083.0 -03417.3 -07.4642 26305.9
 08 04 2013  12 16  -21.0467 26083.5 -03417.4 -07.4641 26306.4
 08 04 2013  12 17  -21.0471 26084.1 -03417.4 -07.4640 26307.0
 08 04 2013  12 18  -21.0476 26084.2 -03417.3 -07.4638 26307.1
 08 04 2013  12 19  -21.0481 26084.4 -03417.2 -07.4635 26307.3
 08 04 2013  12 20  -21.0486 26084.6 -03417.1 -07.4633 26307.5
 08 04 2013  12 21  -21.0492 26084.7 -03417.0 -07.4630 26307.6
 08 04 2013  12 22  -21.0497 26085.4 -03417.1 -07.4630 26308.3
 08 04 2013  12 23  -21.0502 26085.9 -03417.1 -07.4629 26308.7
 08 04 2013  12 24  -21.0486 26086.3 -03417.1 -07.4628 26309.1
 08 04 2013  12 25  -21.0465 26087.3 -03417.4 -07.4632 26310.2
 08 04 2013  12 26  -21.0467 26087.5 -03417.3 -07.4628 26310.4
 08 04 2013  12 27  -21.0467 26087.9 -03417.1 -07.4624 26310.7
 08 04 2013  12 28  -21.0469 26088.4 -03417.2 -07.4623 26311.3
 08 04 2013  12 29  -21.0470 26088.6 -03417.0 -07.4620 26311.4
 08 04 2013  12 30  -21.0473 26089.0 -03417.0 -07.4618 26311.8
 08 04 2013  12 31  -21.0478 26089.3 -03417.0 -07.4616 26312.1
 08 04 2013  12 32  -21.0485 26089.9 -03417.0 -07.4616 26312.7
 08 04 2013  12 33  -21.0493 26090.1 -03417.0 -07.4614 26313.0
 08 04 2013  12 34  -21.0497 26090.3 -03416.8 -07.4610 26313.1
 08 04 2013  12 35  -21.0503 26091.0 -03416.9 -07.4611 26313.8
 08 04 2013  12 36  -21.0508 26090.9 -03416.7 -07.4606 26313.6
 08 04 2013  12 37  -21.0512 26091.3 -03416.7 -07.4606 26314.1
 08 04 2013  12 38  -21.0519 26091.6 -03416.7 -07.4605 26314.4
 08 04 2013  12 39  -21.0525 26092.0 -03416.7 -07.4604 26314.8
 08 04 2013  12 40  -21.0531 26092.4 -03416.8 -07.4603 26315.2
 08 04 2013  12 41  -21.0539 26092.7 -03416.7 -07.4601 26315.5
 08 04 2013  12 42  -21.0546 26093.2 -03416.7 -07.4601 26315.9
 08 04 2013  12 43  -21.0555 26093.5 -03416.8 -07.4600 26316.2
 08 04 2013  12 44  -21.0561 26093.7 -03416.7 -07.4598 26316.4
 08 04 2013  12 45  -21.0570 26094.5 -03416.8 -07.4599 26317.3
 08 04 2013  12 46  -21.0576 26095.1 -03416.9 -07.4598 26317.8
 08 04 2013  12 47  -21.0583 26095.7 -03416.8 -07.4595 26318.5
 08 04 2013  12 48  -21.0591 26096.4 -03416.8 -07.4593 26319.2
 08 04 2013  12 49  -21.0600 26096.9 -03416.6 -07.4588 26319.6
 08 04 2013  12 50  -21.0610 26097.6 -03416.5 -07.4583 26320.3
 08 04 2013  12 51  -21.0619 26098.4 -03416.4 -07.4579 26321.1
 08 04 2013  12 52  -21.0627 26098.8 -03416.0 -07.4570 26321.4
 08 04 2013  12 53  -21.0635 26098.9 -03415.6 -07.4561 26321.5
 08 04 2013  12 54  -21.0645 26099.2 -03415.3 -07.4553 26321.7
 08 04 2013  12 55  -21.0654 26099.4 -03415.0 -07.4546 26321.9
 08 04 2013  12 56  -21.0662 26099.8 -03414.7 -07.4539 26322.3
 08 04 2013  12 57  -21.0666 26100.2 -03414.5 -07.4532 26322.6
 08 04 2013  12 58  -21.0671 26100.8 -03414.3 -07.4527 26323.2
 08 04 2013  12 59  -21.0678 26101.3 -03414.0 -07.4520 26323.6
 08 04 2013  13 00  -21.0685 26101.2 -03413.6 -07.4510 26323.5
 08 04 2013  13 01  -21.0694 26101.4 -03413.3 -07.4504 26323.7
 08 04 2013  13 02  -21.0702 26101.7 -03413.1 -07.4498 26323.9
 08 04 2013  13 03  -21.0709 26101.7 -03412.7 -07.4490 26323.9
 08 04 2013  13 04  -21.0715 26101.9 -03412.5 -07.4484 26324.0
 08 04 2013  13 05  -21.0719 26102.3 -03412.3 -07.4479 26324.4
 08 04 2013  13 06  -21.0722 26102.6 -03412.1 -07.4473 26324.7
 08 04 2013  13 07  -21.0725 26102.8 -03411.8 -07.4466 26324.8
 08 04 2013  13 08  -21.0728 26103.0 -03411.5 -07.4461 26325.0
 08 04 2013  13 09  -21.0732 26102.8 -03411.2 -07.4454 26324.8
 08 04 2013  13 10  -21.0737 26102.7 -03410.9 -07.4447 26324.6
 08 04 2013  13 11  -21.0740 26103.3 -03410.9 -07.4446 26325.3
 08 04 2013  13 12  -21.0741 26104.0 -03410.9 -07.4443 26325.9
 08 04 2013  13 13  -21.0742 26104.6 -03410.8 -07.4439 26326.5
 08 04 2013  13 14  -21.0743 26104.8 -03410.5 -07.4433 26326.7
 08 04 2013  13 15  -21.0745 26104.6 -03410.1 -07.4424 26326.4
 08 04 2013  13 16  -21.0745 26104.3 -03409.7 -07.4416 26326.0
 08 04 2013  13 17  -21.0746 26104.2 -03409.4 -07.4411 26325.9
 08 04 2013  13 18  -21.0747 26104.1 -03409.1 -07.4405 26325.8
 08 04 2013  13 19  -21.0745 26104.2 -03408.9 -07.4400 26325.9
 08 04 2013  13 20  -21.0742 26104.5 -03408.8 -07.4397 26326.1
 08 04 2013  13 21  -21.0741 26104.6 -03408.6 -07.4392 26326.2
 08 04 2013  13 22  -21.0740 26104.6 -03408.3 -07.4387 26326.2
 08 04 2013  13 23  -21.0736 26104.3 -03408.0 -07.4380 26325.8
 08 04 2013  13 24  -21.0734 26104.2 -03407.8 -07.4376 26325.7
 08 04 2013  13 25  -21.0731 26104.3 -03407.6 -07.4373 26325.7
 08 04 2013  13 26  -21.0725 26104.4 -03407.5 -07.4370 26325.9
 08 04 2013  13 27  -21.0720 26104.6 -03407.4 -07.4368 26326.0
 08 04 2013  13 28  -21.0714 26104.7 -03407.3 -07.4364 26326.1
 08 04 2013  13 29  -21.0711 26105.0 -03407.3 -07.4363 26326.5
 08 04 2013  13 30  -21.0706 26105.2 -03407.2 -07.4360 26326.6
 08 04 2013  13 31  -21.0702 26105.5 -03407.2 -07.4359 26326.9
 08 04 2013  13 32  -21.0697 26105.7 -03407.1 -07.4357 26327.1
 08 04 2013  13 33  -21.0691 26105.8 -03407.0 -07.4354 26327.1
 08 04 2013  13 34  -21.0686 26105.8 -03406.8 -07.4351 26327.2
 08 04 2013  13 35  -21.0679 26105.8 -03406.7 -07.4349 26327.2
 08 04 2013  13 36  -21.0673 26105.9 -03406.6 -07.4346 26327.2
 08 04 2013  13 37  -21.0669 26106.3 -03406.7 -07.4347 26327.6
 08 04 2013  13 38  -21.0664 26105.7 -03406.4 -07.4342 26327.0
 08 04 2013  13 39  -21.0661 26106.0 -03406.5 -07.4344 26327.4
 08 04 2013  13 40  -21.0656 26105.6 -03406.3 -07.4339 26326.9
 08 04 2013  13 41  -21.0653 26106.3 -03406.5 -07.4344 26327.6
 08 04 2013  13 42  -21.0651 26106.2 -03406.4 -07.4341 26327.5
 08 04 2013  13 43  -21.0647 26106.4 -03406.5 -07.4341 26327.7
 08 04 2013  13 44  -21.0644 26106.6 -03406.5 -07.4341 26328.0
 08 04 2013  13 45  -21.0640 26106.9 -03406.4 -07.4339 26328.2
 08 04 2013  13 46  -21.0638 26107.1 -03406.4 -07.4338 26328.4
 08 04 2013  13 47  -21.0633 26107.0 -03406.2 -07.4335 26328.3
 08 04 2013  13 48  -21.0627 26106.8 -03406.0 -07.4332 26328.0
 08 04 2013  13 49  -21.0621 26106.4 -03405.8 -07.4328 26327.6
 08 04 2013  13 50  -21.0617 26105.9 -03405.7 -07.4326 26327.1
 08 04 2013  13 51  -21.0609 26105.3 -03405.4 -07.4322 26326.5
 08 04 2013  13 52  -21.0602 26105.8 -03405.8 -07.4328 26327.0
 08 04 2013  13 53  -21.0600 26106.6 -03406.2 -07.4335 26327.9
 08 04 2013  13 54  -21.0597 26107.2 -03406.4 -07.4339 26328.5
 08 04 2013  13 55  -21.0593 26107.8 -03406.6 -07.4341 26329.1
 08 04 2013  13 56  -21.0586 26108.0 -03406.6 -07.4340 26329.3
 08 04 2013  13 57  -21.0579 26108.2 -03406.6 -07.4339 26329.5
 08 04 2013  13 58  -21.0572 26107.8 -03406.3 -07.4335 26329.1
 08 04 2013  13 59  -21.0563 26107.6 -03406.2 -07.4333 26328.9
 08 04 2013  14 00  -21.0556 26107.6 -03406.3 -07.4334 26328.9
 08 04 2013  14 01  -21.0549 26107.6 -03406.3 -07.4334 26328.9
 08 04 2013  14 02  -21.0545 26107.6 -03406.4 -07.4336 26328.9
 08 04 2013  14 03  -21.0539 26107.6 -03406.4 -07.4337 26328.9
 08 04 2013  14 04  -21.0535 26107.7 -03406.5 -07.4339 26329.0
 08 04 2013  14 05  -21.0530 26107.5 -03406.5 -07.4340 26328.8
 08 04 2013  14 06  -21.0525 26107.4 -03406.6 -07.4342 26328.7
 08 04 2013  14 07  -21.0519 26107.4 -03406.8 -07.4346 26328.7
 08 04 2013  14 08  -21.0515 26107.5 -03407.0 -07.4350 26328.9
 08 04 2013  14 09  -21.0511 26107.9 -03407.2 -07.4354 26329.3
 08 04 2013  14 10  -21.0508 26107.9 -03407.3 -07.4356 26329.3
 08 04 2013  14 11  -21.0507 26107.9 -03407.5 -07.4359 26329.3
 08 04 2013  14 12  -21.0505 26107.6 -03407.5 -07.4360 26329.0
 08 04 2013  14 13  -21.0504 26107.4 -03407.6 -07.4362 26328.8
 08 04 2013  14 14  -21.0503 26107.4 -03407.7 -07.4366 26328.9
 08 04 2013  14 15  -21.0503 26107.5 -03407.9 -07.4370 26329.0
 08 04 2013  14 16  -21.0502 26107.4 -03408.0 -07.4373 26328.9
 08 04 2013  14 17  -21.0501 26107.5 -03408.2 -07.4375 26329.0
 08 04 2013  14 18  -21.0501 26107.5 -03408.3 -07.4378 26329.0
 08 04 2013  14 19  -21.0500 26107.3 -03408.3 -07.4379 26328.9
 08 04 2013  14 20  -21.0499 26107.0 -03408.3 -07.4380 26328.6
 08 04 2013  14 21  -21.0500 26107.0 -03408.4 -07.4382 26328.5
 08 04 2013  14 22  -21.0501 26107.1 -03408.6 -07.4385 26328.7
 08 04 2013  14 23  -21.0501 26105.2 -03407.9 -07.4376 26326.7
 08 04 2013  14 24  -21.0498 26105.3 -03408.1 -07.4381 26326.8
 08 04 2013  14 25  -21.0497 26105.2 -03408.3 -07.4385 26326.7
 08 04 2013  14 26  -21.0494 26105.6 -03408.6 -07.4390 26327.2
 08 04 2013  14 27  -21.0494 26104.8 -03408.5 -07.4389 26326.4
 08 04 2013  14 28  -21.0488 26104.4 -03408.3 -07.4387 26326.0
 08 04 2013  14 29  -21.0491 26105.4 -03409.0 -07.4399 26327.1
 08 04 2013  14 30  -21.0487 26105.6 -03409.1 -07.4400 26327.3
 08 04 2013  14 31  -21.0486 26105.6 -03409.1 -07.4400 26327.2
 08 04 2013  14 32  -21.0481 26105.6 -03409.1 -07.4400 26327.3
 08 04 2013  14 33  -21.0475 26105.9 -03409.2 -07.4403 26327.6
 08 04 2013  14 34  -21.0470 26105.7 -03409.2 -07.4402 26327.3
 08 04 2013  14 35  -21.0463 26105.3 -03409.0 -07.4400 26326.9
 08 04 2013  14 36  -21.0458 26105.0 -03409.1 -07.4401 26326.7
 08 04 2013  14 37  -21.0454 26104.7 -03409.1 -07.4403 26326.4
 08 04 2013  14 38  -21.0447 26104.1 -03409.0 -07.4402 26325.7
 08 04 2013  14 39  -21.0438 26104.1 -03409.2 -07.4407 26325.8
 08 04 2013  14 40  -21.0433 26103.8 -03409.2 -07.4409 26325.4
 08 04 2013  14 41  -21.0429 26103.4 -03409.3 -07.4412 26325.1
 08 04 2013  14 42  -21.0426 26103.3 -03409.5 -07.4415 26325.0
 08 04 2013  14 43  -21.0422 26103.1 -03409.6 -07.4419 26324.8
 08 04 2013  14 44  -21.0416 26102.5 -03409.6 -07.4419 26324.2
 08 04 2013  14 45  -21.0409 26101.9 -03409.5 -07.4420 26323.6
 08 04 2013  14 46  -21.0403 26101.4 -03409.7 -07.4425 26323.2
 08 04 2013  14 47  -21.0399 26101.2 -03410.0 -07.4432 26323.0
 08 04 2013  14 48  -21.0394 26101.0 -03410.2 -07.4436 26322.8
 08 04 2013  14 49  -21.0389 26100.7 -03410.4 -07.4442 26322.5
 08 04 2013  14 50  -21.0385 26100.5 -03410.6 -07.4448 26322.4
 08 04 2013  14 51  -21.0381 26100.5 -03411.0 -07.4455 26322.4
 08 04 2013  14 52  -21.0376 26100.2 -03411.2 -07.4461 26322.2
 08 04 2013  14 53  -21.0372 26100.4 -03411.6 -07.4469 26322.4
 08 04 2013  14 54  -21.0369 26100.1 -03411.8 -07.4474 26322.1
 08 04 2013  14 55  -21.0367 26099.9 -03412.1 -07.4481 26322.0
 08 04 2013  14 56  -21.0365 26099.8 -03412.4 -07.4488 26321.9
 08 04 2013  14 57  -21.0363 26099.7 -03412.7 -07.4496 26321.9
 08 04 2013  14 58  -21.0363 26099.6 -03413.1 -07.4504 26321.9
 08 04 2013  14 59  -21.0366 26099.5 -03413.4 -07.4511 26321.8
 08 04 2013  15 00  -21.0368 26098.9 -03413.6 -07.4516 26321.2
 08 04 2013  15 01  -21.0370 26098.3 -03413.7 -07.4521 26320.6
 08 04 2013  15 02  -21.0373 26097.5 -03413.9 -07.4527 26319.8
 08 04 2013  15 03  -21.0375 26096.8 -03414.2 -07.4535 26319.2
 08 04 2013  15 04  -21.0379 26096.4 -03414.6 -07.4545 26318.8
 08 04 2013  15 05  -21.0384 26096.0 -03415.0 -07.4555 26318.5
 08 04 2013  15 06  -21.0390 26095.7 -03415.4 -07.4565 26318.3
 08 04 2013  15 07  -21.0398 26095.5 -03415.9 -07.4575 26318.2
 08 04 2013  15 08  -21.0407 26095.4 -03416.3 -07.4584 26318.1
 08 04 2013  15 09  -21.0415 26095.2 -03416.6 -07.4592 26317.9
 08 04 2013  15 10  -21.0422 26094.8 -03416.9 -07.4599 26317.6
 08 04 2013  15 11  -21.0432 26094.9 -03417.3 -07.4608 26317.7
 08 04 2013  15 12  -21.0440 26094.8 -03417.6 -07.4616 26317.6
 08 04 2013  15 13  -21.0449 26094.9 -03418.1 -07.4625 26317.8
 08 04 2013  15 14  -21.0461 26095.2 -03418.5 -07.4632 26318.1
 08 04 2013  15 15  -21.0472 26095.5 -03418.8 -07.4639 26318.5
 08 04 2013  15 16  -21.0482 26095.6 -03419.0 -07.4643 26318.6
 08 04 2013  15 17  -21.0491 26095.5 -03419.1 -07.4645 26318.5
 08 04 2013  15 18  -21.0501 26095.4 -03419.2 -07.4647 26318.4
 08 04 2013  15 19  -21.0510 26095.3 -03419.3 -07.4650 26318.4
 08 04 2013  15 20  -21.0519 26095.1 -03419.3 -07.4651 26318.1
 08 04 2013  15 21  -21.0526 26094.5 -03419.1 -07.4649 26317.5
 08 04 2013  15 22  -21.0533 26094.0 -03419.1 -07.4649 26317.1
 08 04 2013  15 23  -21.0541 26093.6 -03419.1 -07.4650 26316.6
 08 04 2013  15 24  -21.0550 26093.4 -03419.2 -07.4654 26316.4
 08 04 2013  15 25  -21.0562 26093.5 -03419.4 -07.4658 26316.6
 08 04 2013  15 26  -21.0574 26093.7 -03419.6 -07.4662 26316.8
 08 04 2013  15 27  -21.0586 26093.8 -03419.7 -07.4663 26316.9
 08 04 2013  15 28  -21.0598 26093.9 -03419.7 -07.4663 26317.0
 08 04 2013  15 29  -21.0608 26093.8 -03419.6 -07.4661 26317.0
 08 04 2013  15 30  -21.0617 26093.8 -03419.5 -07.4659 26316.9
 08 04 2013  15 31  -21.0625 26093.5 -03419.3 -07.4655 26316.6
 08 04 2013  15 32  -21.0636 26093.2 -03419.2 -07.4654 26316.3
 08 04 2013  15 33  -21.0644 26092.9 -03419.0 -07.4650 26316.0
 08 04 2013  15 34  -21.0652 26092.6 -03418.8 -07.4647 26315.6
 08 04 2013  15 35  -21.0660 26092.5 -03418.7 -07.4645 26315.5
 08 04 2013  15 36  -21.0667 26092.4 -03418.6 -07.4644 26315.4
 08 04 2013  15 37  -21.0677 26092.4 -03418.5 -07.4641 26315.3
 08 04 2013  15 38  -21.0686 26092.3 -03418.4 -07.4638 26315.3
 08 04 2013  15 39  -21.0695 26092.2 -03418.2 -07.4635 26315.2
 08 04 2013  15 40  -21.0702 26091.9 -03418.0 -07.4631 26314.8
 08 04 2013  15 41  -21.0708 26091.6 -03417.7 -07.4625 26314.5
 08 04 2013  15 42  -21.0714 26091.4 -03417.5 -07.4622 26314.2
 08 04 2013  15 43  -21.0720 26091.1 -03417.3 -07.4618 26314.0
 08 04 2013  15 44  -21.0726 26090.9 -03417.1 -07.4615 26313.7
 08 04 2013  15 45  -21.0733 26090.8 -03417.0 -07.4614 26313.6
 08 04 2013  15 46  -21.0740 26090.8 -03416.9 -07.4610 26313.6
 08 04 2013  15 47  -21.0748 26090.8 -03416.8 -07.4608 26313.6
 08 04 2013  15 48  -21.0754 26090.6 -03416.5 -07.4603 26313.4
 08 04 2013  15 49  -21.0760 26090.2 -03416.2 -07.4597 26312.9
 08 04 2013  15 50  -21.0764 26090.0 -03416.0 -07.4593 26312.7
 08 04 2013  15 51  -21.0769 26089.9 -03415.7 -07.4588 26312.5
 08 04 2013  15 52  -21.0775 26089.7 -03415.5 -07.4584 26312.3
 08 04 2013  15 53  -21.0777 26089.4 -03415.2 -07.4579 26311.9
 08 04 2013  15 54  -21.0779 26089.0 -03414.9 -07.4574 26311.6
 08 04 2013  15 55  -21.0780 26088.7 -03414.7 -07.4570 26311.2
 08 04 2013  15 56  -21.0779 26088.4 -03414.5 -07.4566 26310.9
 08 04 2013  15 57  -21.0780 26088.0 -03414.2 -07.4561 26310.5
 08 04 2013  15 58  -21.0779 26087.6 -03414.0 -07.4557 26310.1
 08 04 2013  15 59  -21.0778 26087.2 -03413.8 -07.4554 26309.6
 08 04 2013  16 00  -21.0775 26086.8 -03413.6 -07.4550 26309.1
 08 04 2013  16 01  -21.0776 26086.5 -03413.4 -07.4548 26308.9
 08 04 2013  16 02  -21.0776 26086.3 -03413.3 -07.4547 26308.7
 08 04 2013  16 03  -21.0775 26086.0 -03413.2 -07.4544 26308.4
 08 04 2013  16 04  -21.0775 26085.8 -03413.1 -07.4543 26308.2
 08 04 2013  16 05  -21.0773 26085.5 -03412.9 -07.4540 26307.8
 08 04 2013  16 06  -21.0770 26085.2 -03412.8 -07.4538 26307.6
 08 04 2013  16 07  -21.0768 26085.0 -03412.7 -07.4537 26307.3
 08 04 2013  16 08  -21.0767 26084.8 -03412.7 -07.4536 26307.1
 08 04 2013  16 09  -21.0766 26084.6 -03412.6 -07.4535 26306.9
 08 04 2013  16 10  -21.0764 26084.3 -03412.5 -07.4533 26306.6
 08 04 2013  16 11  -21.0763 26084.0 -03412.4 -07.4532 26306.3
 08 04 2013  16 12  -21.0761 26083.5 -03412.1 -07.4529 26305.7
 08 04 2013  16 13  -21.0758 26082.6 -03411.8 -07.4524 26304.8
 08 04 2013  16 14  -21.0754 26081.8 -03411.6 -07.4522 26304.0
 08 04 2013  16 15  -21.0751 26081.1 -03411.5 -07.4522 26303.3
 08 04 2013  16 16  -21.0750 26080.7 -03411.6 -07.4524 26302.8
 08 04 2013  16 17  -21.0749 26080.3 -03411.6 -07.4527 26302.5
 08 04 2013  16 18  -21.0748 26080.1 -03411.7 -07.4530 26302.3
 08 04 2013  16 19  -21.0747 26079.8 -03411.8 -07.4532 26302.0
 08 04 2013  16 20  -21.0748 26079.4 -03411.8 -07.4533 26301.7
 08 04 2013  16 21  -21.0749 26079.2 -03411.9 -07.4535 26301.4
 08 04 2013  16 22  -21.0746 26078.9 -03411.9 -07.4537 26301.1
 08 04 2013  16 23  -21.0745 26078.6 -03412.0 -07.4539 26300.9
 08 04 2013  16 24  -21.0745 26078.4 -03412.0 -07.4540 26300.7
 08 04 2013  16 25  -21.0745 26078.0 -03411.9 -07.4540 26300.3
 08 04 2013  16 26  -21.0744 26077.6 -03411.9 -07.4540 26299.8
 08 04 2013  16 27  -21.0742 26077.1 -03411.8 -07.4540 26299.3
 08 04 2013  16 28  -21.0739 26076.5 -03411.8 -07.4540 26298.7
 08 04 2013  16 29  -21.0736 26076.0 -03411.7 -07.4541 26298.2
 08 04 2013  16 30  -21.0734 26075.6 -03411.8 -07.4543 26297.9
 08 04 2013  16 31  -21.0733 26075.2 -03411.9 -07.4546 26297.5
 08 04 2013  16 32  -21.0733 26075.1 -03412.0 -07.4549 26297.3
 08 04 2013  16 33  -21.0732 26074.8 -03412.1 -07.4551 26297.1
 08 04 2013  16 34  -21.0730 26074.4 -03412.0 -07.4552 26296.7
 08 04 2013  16 35  -21.0728 26074.0 -03412.1 -07.4554 26296.3
 08 04 2013  16 36  -21.0727 26073.7 -03412.1 -07.4556 26296.0
 08 04 2013  16 37  -21.0724 26073.2 -03412.2 -07.4559 26295.6
 08 04 2013  16 38  -21.0722 26072.8 -03412.3 -07.4562 26295.2
 08 04 2013  16 39  -21.0720 26072.6 -03412.4 -07.4565 26294.9
 08 04 2013  16 40  -21.0717 26072.3 -03412.5 -07.4568 26294.7
 08 04 2013  16 41  -21.0714 26072.0 -03412.6 -07.4571 26294.3
 08 04 2013  16 42  -21.0713 26071.5 -03412.7 -07.4574 26294.0
 08 04 2013  16 43  -21.0714 26071.2 -03412.7 -07.4576 26293.6
 08 04 2013  16 44  -21.0713 26070.8 -03412.9 -07.4580 26293.3
 08 04 2013  16 45  -21.0715 26070.6 -03413.0 -07.4584 26293.1
 08 04 2013  16 46  -21.0716 26070.3 -03413.1 -07.4588 26292.7
 08 04 2013  16 47  -21.0718 26070.2 -03413.3 -07.4592 26292.7
 08 04 2013  16 48  -21.0720 26069.9 -03413.4 -07.4595 26292.5
 08 04 2013  16 49  -21.0719 26069.7 -03413.5 -07.4597 26292.2
 08 04 2013  16 50  -21.0721 26069.3 -03413.5 -07.4599 26291.8
 08 04 2013  16 51  -21.0722 26068.9 -03413.6 -07.4601 26291.5
 08 04 2013  16 52  -21.0725 26068.6 -03413.6 -07.4603 26291.2
 08 04 2013  16 53  -21.0727 26068.3 -03413.7 -07.4606 26290.9
 08 04 2013  16 54  -21.0730 26067.9 -03413.7 -07.4607 26290.5
 08 04 2013  16 55  -21.0731 26067.6 -03413.8 -07.4609 26290.2
 08 04 2013  16 56  -21.0733 26067.1 -03413.7 -07.4610 26289.6
 08 04 2013  16 57  -21.0735 26067.0 -03413.9 -07.4613 26289.6
 08 04 2013  16 58  -21.0738 26066.7 -03413.8 -07.4612 26289.3
 08 04 2013  16 59  -21.0739 26066.3 -03413.8 -07.4612 26288.9
 08 04 2013  17 00  -21.0740 26066.4 -03413.9 -07.4615 26289.0
 08 04 2013  17 01  -21.0743 26066.4 -03413.9 -07.4616 26289.0
 08 04 2013  17 02  -21.0745 26066.2 -03413.9 -07.4616 26288.8
 08 04 2013  17 03  -21.0745 26065.8 -03413.8 -07.4614 26288.4
 08 04 2013  17 04  -21.0745 26065.6 -03413.8 -07.4615 26288.2
 08 04 2013  17 05  -21.0745 26065.2 -03413.7 -07.4614 26287.8
 08 04 2013  17 06  -21.0745 26065.1 -03413.7 -07.4615 26287.7
 08 04 2013  17 07  -21.0746 26064.9 -03413.7 -07.4616 26287.5
 08 04 2013  17 08  -21.0746 26065.1 -03413.8 -07.4618 26287.7
 08 04 2013  17 09  -21.0744 26064.9 -03413.7 -07.4616 26287.5
 08 04 2013  17 10  -21.0744 26064.7 -03413.7 -07.4615 26287.3
 08 04 2013  17 11  -21.0743 26064.4 -03413.6 -07.4613 26287.0
 08 04 2013  17 12  -21.0741 26064.4 -03413.6 -07.4614 26287.0
 08 04 2013  17 13  -21.0740 26063.9 -03413.4 -07.4612 26286.4
 08 04 2013  17 14  -21.0736 26063.4 -03413.3 -07.4610 26285.9
 08 04 2013  17 15  -21.0735 26063.1 -03413.2 -07.4610 26285.7
 08 04 2013  17 16  -21.0736 26062.9 -03413.3 -07.4612 26285.5
 08 04 2013  17 17  -21.0736 26062.6 -03413.2 -07.4611 26285.2
 08 04 2013  17 18  -21.0734 26062.2 -03413.1 -07.4610 26284.8
 08 04 2013  17 19  -21.0732 26061.7 -03413.1 -07.4610 26284.3
 08 04 2013  17 20  -21.0730 26061.4 -03413.1 -07.4611 26284.0
 08 04 2013  17 21  -21.0729 26061.4 -03413.2 -07.4615 26283.9
 08 04 2013  17 22  -21.0725 26060.6 -03413.1 -07.4614 26283.2
 08 04 2013  17 23  -21.0722 26060.7 -03413.3 -07.4617 26283.2
 08 04 2013  17 24  -21.0721 26060.1 -03413.2 -07.4617 26282.6
 08 04 2013  17 25  -21.0719 26059.7 -03413.2 -07.4619 26282.2
 08 04 2013  17 26  -21.0720 26059.7 -03413.4 -07.4624 26282.3
 08 04 2013  17 27  -21.0718 26058.7 -03413.2 -07.4622 26281.3
 08 04 2013  17 28  -21.0717 26059.1 -03413.5 -07.4628 26281.7
 08 04 2013  17 29  -21.0717 26058.6 -03413.5 -07.4629 26281.2
 08 04 2013  17 30  -21.0715 26058.6 -03413.7 -07.4633 26281.3
 08 04 2013  17 31  -21.0715 26058.1 -03413.7 -07.4634 26280.7
 08 04 2013  17 32  -21.0713 26057.8 -03413.7 -07.4636 26280.4
 08 04 2013  17 33  -21.0713 26057.5 -03413.9 -07.4639 26280.2
 08 04 2013  17 34  -21.0712 26057.5 -03414.1 -07.4644 26280.2
 08 04 2013  17 35  -21.0713 26058.0 -03414.5 -07.4651 26280.7
 08 04 2013  17 36  -21.0717 26058.3 -03414.8 -07.4657 26281.1
 08 04 2013  17 37  -21.0716 26058.5 -03414.8 -07.4657 26281.3
 08 04 2013  17 38  -21.0712 26058.5 -03414.8 -07.4657 26281.3
 08 04 2013  17 39  -21.0707 26058.1 -03414.7 -07.4656 26280.9
 08 04 2013  17 40  -21.0702 26057.6 -03414.7 -07.4656 26280.4
 08 04 2013  17 41  -21.0695 26057.3 -03414.7 -07.4657 26280.1
 08 04 2013  17 42  -21.0694 26057.0 -03414.7 -07.4659 26279.8
 08 04 2013  17 43  -21.0690 26056.6 -03414.7 -07.4660 26279.3
 08 04 2013  17 44  -21.0688 26056.6 -03414.9 -07.4664 26279.4
 08 04 2013  17 45  -21.0686 26056.2 -03414.9 -07.4665 26279.0
 08 04 2013  17 46  -21.0682 26055.7 -03414.9 -07.4666 26278.5
 08 04 2013  17 47  -21.0681 26055.6 -03415.0 -07.4670 26278.5
 08 04 2013  17 48  -21.0680 26055.5 -03415.2 -07.4673 26278.3
 08 04 2013  17 49  -21.0680 26055.6 -03415.4 -07.4678 26278.5
 08 04 2013  17 50  -21.0680 26055.2 -03415.4 -07.4679 26278.1
 08 04 2013  17 51  -21.0679 26055.0 -03415.5 -07.4681 26277.9
 08 04 2013  17 52  -21.0680 26054.8 -03415.5 -07.4683 26277.7
 08 04 2013  17 53  -21.0680 26054.5 -03415.6 -07.4686 26277.4
 08 04 2013  17 54  -21.0681 26054.4 -03415.9 -07.4691 26277.3
 08 04 2013  17 55  -21.0682 26054.2 -03416.0 -07.4694 26277.1
 08 04 2013  17 56  -21.0683 26053.9 -03416.0 -07.4696 26276.9
 08 04 2013  17 57  -21.0682 26053.6 -03416.1 -07.4699 26276.6
 08 04 2013  17 58  -21.0684 26053.6 -03416.3 -07.4703 26276.6
 08 04 2013  17 59  -21.0687 26053.4 -03416.4 -07.4706 26276.5
 08 04 2013  18 00  -21.0690 26053.2 -03416.4 -07.4707 26276.2
 08 04 2013  18 01  -21.0690 26052.9 -03416.5 -07.4709 26276.0
 08 04 2013  18 02  -21.0690 26052.5 -03416.5 -07.4710 26275.6
 08 04 2013  18 03  -21.0691 26052.1 -03416.5 -07.4712 26275.2
 08 04 2013  18 04  -21.0692 26051.8 -03416.6 -07.4714 26274.8
 08 04 2013  18 05  -21.0691 26051.5 -03416.7 -07.4717 26274.6
 08 04 2013  18 06  -21.0691 26051.2 -03416.7 -07.4718 26274.3
 08 04 2013  18 07  -21.0690 26050.8 -03416.7 -07.4720 26274.0
 08 04 2013  18 08  -21.0691 26050.7 -03416.9 -07.4723 26273.8
 08 04 2013  18 09  -21.0693 26050.6 -03416.9 -07.4726 26273.7
 08 04 2013  18 10  -21.0694 26050.4 -03417.0 -07.4728 26273.5
 08 04 2013  18 11  -21.0695 26050.2 -03417.0 -07.4728 26273.4
 08 04 2013  18 12  -21.0695 26050.0 -03417.0 -07.4729 26273.1
 08 04 2013  18 13  -21.0696 26049.7 -03417.0 -07.4730 26272.9
 08 04 2013  18 14  -21.0694 26049.4 -03417.0 -07.4731 26272.5
 08 04 2013  18 15  -21.0693 26049.1 -03417.0 -07.4731 26272.3
 08 04 2013  18 16  -21.0694 26048.9 -03417.1 -07.4733 26272.1
 08 04 2013  18 17  -21.0691 26048.6 -03417.0 -07.4734 26271.8
 08 04 2013  18 18  -21.0690 26048.3 -03417.0 -07.4733 26271.4
 08 04 2013  18 19  -21.0690 26048.4 -03417.2 -07.4737 26271.6
 08 04 2013  18 20  -21.0689 26048.1 -03417.2 -07.4738 26271.3
 08 04 2013  18 21  -21.0686 26048.0 -03417.2 -07.4738 26271.1
 08 04 2013  18 22  -21.0685 26047.8 -03417.2 -07.4740 26271.0
 08 04 2013  18 23  -21.0685 26047.6 -03417.2 -07.4740 26270.8
 08 04 2013  18 24  -21.0682 26047.5 -03417.2 -07.4741 26270.7
 08 04 2013  18 25  -21.0682 26047.4 -03417.3 -07.4742 26270.6
 08 04 2013  18 26  -21.0680 26047.2 -03417.3 -07.4743 26270.4
 08 04 2013  18 27  -21.0677 26046.9 -03417.2 -07.4742 26270.1
 08 04 2013  18 28  -21.0673 26046.6 -03417.2 -07.4742 26269.8
 08 04 2013  18 29  -21.0670 26046.3 -03417.1 -07.4742 26269.5
 08 04 2013  18 30  -21.0668 26046.2 -03417.2 -07.4744 26269.4
 08 04 2013  18 31  -21.0670 26046.3 -03417.3 -07.4746 26269.5
 08 04 2013  18 32  -21.0668 26046.1 -03417.3 -07.4746 26269.3
 08 04 2013  18 33  -21.0664 26045.9 -03417.3 -07.4746 26269.1
 08 04 2013  18 34  -21.0662 26045.8 -03417.3 -07.4748 26269.0
 08 04 2013  18 35  -21.0660 26045.5 -03417.3 -07.4747 26268.7
 08 04 2013  18 36  -21.0656 26045.2 -03417.2 -07.4747 26268.4
 08 04 2013  18 37  -21.0654 26045.0 -03417.3 -07.4749 26268.3
 08 04 2013  18 38  -21.0651 26044.9 -03417.3 -07.4750 26268.2
 08 04 2013  18 39  -21.0646 26044.6 -03417.3 -07.4750 26267.8
 08 04 2013  18 40  -21.0641 26044.3 -03417.3 -07.4750 26267.6
 08 04 2013  18 41  -21.0636 26043.9 -03417.2 -07.4750 26267.2
 08 04 2013  18 42  -21.0633 26043.6 -03417.2 -07.4751 26266.8
 08 04 2013  18 43  -21.0632 26043.5 -03417.3 -07.4753 26266.8
 08 04 2013  18 44  -21.0629 26043.4 -03417.4 -07.4755 26266.7
 08 04 2013  18 45  -21.0626 26043.3 -03417.5 -07.4758 26266.5
 08 04 2013  18 46  -21.0621 26043.0 -03417.5 -07.4759 26266.3
 08 04 2013  18 47  -21.0618 26043.0 -03417.6 -07.4762 26266.3
 08 04 2013  18 48  -21.0616 26043.1 -03417.8 -07.4765 26266.5
 08 04 2013  18 49  -21.0611 26043.2 -03417.9 -07.4766 26266.5
 08 04 2013  18 50  -21.0607 26043.1 -03417.9 -07.4767 26266.4
 08 04 2013  18 51  -21.0602 26043.0 -03417.9 -07.4769 26266.3
 08 04 2013  18 52  -21.0601 26042.9 -03418.0 -07.4771 26266.3
 08 04 2013  18 53  -21.0598 26042.6 -03418.0 -07.4772 26265.9
 08 04 2013  18 54  -21.0594 26042.5 -03418.1 -07.4775 26265.8
 08 04 2013  18 55  -21.0589 26042.3 -03418.3 -07.4778 26265.7
 08 04 2013  18 56  -21.0585 26042.2 -03418.4 -07.4780 26265.6
 08 04 2013  18 57  -21.0588 26042.3 -03418.5 -07.4783 26265.7
 08 04 2013  18 58  -21.0615 26041.6 -03418.3 -07.4781 26264.9
 08 04 2013  18 59  -21.0612 26041.3 -03418.4 -07.4783 26264.7
 08 04 2013  19 00  -21.0608 26040.8 -03418.5 -07.4786 26264.2
 08 04 2013  19 01  -21.0604 26040.6 -03418.6 -07.4790 26264.1
 08 04 2013  19 02  -21.0600 26040.6 -03418.8 -07.4795 26264.1
 08 04 2013  19 03  -21.0596 26040.5 -03419.0 -07.4798 26264.0
 08 04 2013  19 04  -21.0593 26040.5 -03419.1 -07.4802 26264.0
 08 04 2013  19 05  -21.0591 26040.4 -03419.3 -07.4805 26263.9
 08 04 2013  19 06  -21.0588 26040.3 -03419.4 -07.4808 26263.9
 08 04 2013  19 07  -21.0585 26040.3 -03419.6 -07.4812 26263.9
 08 04 2013  19 08  -21.0581 26040.1 -03419.7 -07.4815 26263.7
 08 04 2013  19 09  -21.0576 26040.0 -03419.8 -07.4818 26263.6
 08 04 2013  19 10  -21.0572 26040.0 -03420.0 -07.4821 26263.6
 08 04 2013  19 11  -21.0568 26039.9 -03420.1 -07.4824 26263.5
 08 04 2013  19 12  -21.0564 26039.7 -03420.2 -07.4826 26263.4
 08 04 2013  19 13  -21.0559 26039.6 -03420.3 -07.4829 26263.2
 08 04 2013  19 14  -21.0554 26039.3 -03420.3 -07.4831 26263.0
 08 04 2013  19 15  -21.0550 26039.1 -03420.4 -07.4833 26262.8
 08 04 2013  19 16  -21.0547 26039.0 -03420.6 -07.4837 26262.7
 08 04 2013  19 17  -21.0545 26039.0 -03420.7 -07.4840 26262.7
 08 04 2013  19 18  -21.0543 26038.9 -03420.8 -07.4842 26262.6
 08 04 2013  19 19  -21.0541 26038.8 -03420.9 -07.4845 26262.6
 08 04 2013  19 20  -21.0537 26038.9 -03421.0 -07.4846 26262.6
 08 04 2013  19 21  -21.0536 26039.0 -03421.1 -07.4848 26262.8
 08 04 2013  19 22  -21.0534 26039.1 -03421.2 -07.4850 26262.9
 08 04 2013  19 23  -21.0514 26039.3 -03421.3 -07.4852 26263.1
 08 04 2013  19 24  -21.0490 26039.7 -03421.5 -07.4856 26263.5
 08 04 2013  19 25  -21.0489 26039.9 -03421.8 -07.4860 26263.8
 08 04 2013  19 26  -21.0485 26040.1 -03421.8 -07.4861 26264.0
 08 04 2013  19 27  -21.0482 26040.2 -03421.9 -07.4863 26264.1
 08 04 2013  19 28  -21.0477 26040.3 -03422.0 -07.4864 26264.2
 08 04 2013  19 29  -21.0472 26040.4 -03421.9 -07.4863 26264.2
 08 04 2013  19 30  -21.0466 26040.3 -03421.9 -07.4863 26264.2
 08 04 2013  19 31  -21.0462 26040.4 -03422.0 -07.4864 26264.3
 08 04 2013  19 32  -21.0458 26040.4 -03422.0 -07.4865 26264.3
 08 04 2013  19 33  -21.0454 26040.4 -03422.0 -07.4864 26264.3
 08 04 2013  19 34  -21.0450 26040.4 -03422.1 -07.4866 26264.3
 08 04 2013  19 35  -21.0444 26040.4 -03422.1 -07.4866 26264.3
 08 04 2013  19 36  -21.0439 26040.4 -03422.1 -07.4867 26264.3
 08 04 2013  19 37  -21.0434 26040.4 -03422.1 -07.4867 26264.3
 08 04 2013  19 38  -21.0428 26040.3 -03422.1 -07.4867 26264.2
 08 04 2013  19 39  -21.0422 26040.1 -03422.1 -07.4867 26264.0
 08 04 2013  19 40  -21.0416 26040.0 -03422.1 -07.4868 26263.9
 08 04 2013  19 41  -21.0410 26040.0 -03422.2 -07.4868 26264.0
 08 04 2013  19 42  -21.0404 26040.0 -03422.2 -07.4870 26263.9
 08 04 2013  19 43  -21.0398 26039.9 -03422.3 -07.4871 26263.9
 08 04 2013  19 44  -21.0392 26039.9 -03422.3 -07.4872 26263.8
 08 04 2013  19 45  -21.0386 26039.8 -03422.4 -07.4874 26263.7
 08 04 2013  19 46  -21.0382 26039.8 -03422.5 -07.4876 26263.7
 08 04 2013  19 47  -21.0380 26039.8 -03422.5 -07.4877 26263.7
 08 04 2013  19 48  -21.0374 26039.7 -03422.6 -07.4879 26263.7
 08 04 2013  19 49  -21.0371 26039.7 -03422.7 -07.4881 26263.7
 08 04 2013  19 50  -21.0367 26039.7 -03422.8 -07.4883 26263.7
 08 04 2013  19 51  -21.0363 26039.7 -03422.8 -07.4884 26263.7
 08 04 2013  19 52  -21.0360 26039.7 -03422.9 -07.4886 26263.7
 08 04 2013  19 53  -21.0355 26039.8 -03423.1 -07.4889 26263.8
 08 04 2013  19 54  -21.0353 26039.9 -03423.2 -07.4891 26263.9
 08 04 2013  19 55  -21.0348 26039.9 -03423.3 -07.4893 26263.9
 08 04 2013  19 56  -21.0344 26039.9 -03423.3 -07.4894 26263.9
 08 04 2013  19 57  -21.0339 26039.8 -03423.4 -07.4895 26263.8
 08 04 2013  19 58  -21.0335 26039.8 -03423.4 -07.4896 26263.8
 08 04 2013  19 59  -21.0331 26039.8 -03423.5 -07.4898 26263.9
 08 04 2013  20 00  -21.0328 26039.7 -03423.5 -07.4899 26263.8
 08 04 2013  20 01  -21.0325 26039.7 -03423.6 -07.4900 26263.8
 08 04 2013  20 02  -21.0322 26039.7 -03423.7 -07.4902 26263.8
 08 04 2013  20 03  -21.0319 26039.7 -03423.7 -07.4904 26263.8
 08 04 2013  20 04  -21.0316 26039.7 -03423.8 -07.4906 26263.8
 08 04 2013  20 05  -21.0312 26039.7 -03423.9 -07.4908 26263.9
 08 04 2013  20 06  -21.0309 26039.7 -03424.0 -07.4909 26263.8
 08 04 2013  20 07  -21.0305 26039.7 -03424.0 -07.4909 26263.8
 08 04 2013  20 08  -21.0301 26039.6 -03424.0 -07.4910 26263.8
 08 04 2013  20 09  -21.0296 26039.6 -03424.1 -07.4911 26263.7
 08 04 2013  20 10  -21.0294 26039.5 -03424.1 -07.4913 26263.7
 08 04 2013  20 11  -21.0290 26039.6 -03424.3 -07.4915 26263.8
 08 04 2013  20 12  -21.0288 26039.6 -03424.3 -07.4916 26263.8
 08 04 2013  20 13  -21.0284 26039.7 -03424.4 -07.4918 26263.9
 08 04 2013  20 14  -21.0282 26039.7 -03424.5 -07.4919 26263.9
 08 04 2013  20 15  -21.0278 26039.8 -03424.5 -07.4921 26264.0
 08 04 2013  20 16  -21.0275 26039.7 -03424.6 -07.4921 26264.0
 08 04 2013  20 17  -21.0272 26039.7 -03424.6 -07.4922 26263.9
 08 04 2013  20 18  -21.0270 26039.7 -03424.6 -07.4923 26263.9
 08 04 2013  20 19  -21.0268 26039.8 -03424.7 -07.4924 26264.0
 08 04 2013  20 20  -21.0266 26039.9 -03424.9 -07.4927 26264.2
 08 04 2013  20 21  -21.0265 26040.0 -03424.9 -07.4928 26264.3
 08 04 2013  20 22  -21.0263 26040.1 -03425.0 -07.4929 26264.4
 08 04 2013  20 23  -21.0259 26040.1 -03425.0 -07.4930 26264.3
 08 04 2013  20 24  -21.0257 26040.0 -03425.0 -07.4930 26264.3
 08 04 2013  20 25  -21.0254 26040.0 -03425.0 -07.4931 26264.3
 08 04 2013  20 26  -21.0251 26040.1 -03425.1 -07.4932 26264.4
 08 04 2013  20 27  -21.0251 26040.1 -03425.2 -07.4934 26264.4
 08 04 2013  20 28  -21.0249 26040.2 -03425.3 -07.4935 26264.5
 08 04 2013  20 29  -21.0246 26040.3 -03425.3 -07.4936 26264.6
 08 04 2013  20 30  -21.0244 26040.2 -03425.3 -07.4936 26264.5
 08 04 2013  20 31  -21.0242 26040.3 -03425.4 -07.4937 26264.6
 08 04 2013  20 32  -21.0241 26040.4 -03425.4 -07.4938 26264.7
 08 04 2013  20 33  -21.0240 26040.5 -03425.5 -07.4939 26264.8
 08 04 2013  20 34  -21.0240 26040.6 -03425.6 -07.4941 26264.9
 08 04 2013  20 35  -21.0239 26040.7 -03425.6 -07.4942 26265.1
 08 04 2013  20 36  -21.0240 26040.8 -03425.7 -07.4943 26265.2
 08 04 2013  20 37  -21.0240 26040.8 -03425.6 -07.4941 26265.2
 08 04 2013  20 38  -21.0240 26040.7 -03425.5 -07.4940 26265.0
 08 04 2013  20 39  -21.0240 26040.6 -03425.5 -07.4939 26264.9
 08 04 2013  20 40  -21.0239 26040.5 -03425.4 -07.4938 26264.8
 08 04 2013  20 41  -21.0238 26040.4 -03425.4 -07.4937 26264.7
 08 04 2013  20 42  -21.0237 26040.3 -03425.3 -07.4936 26264.7
 08 04 2013  20 43  -21.0236 26040.3 -03425.3 -07.4936 26264.7
 08 04 2013  20 44  -21.0236 26040.3 -03425.3 -07.4936 26264.6
 08 04 2013  20 45  -21.0236 26040.4 -03425.3 -07.4936 26264.7
 08 04 2013  20 46  -21.0236 26040.4 -03425.3 -07.4936 26264.8
 08 04 2013  20 47  -21.0237 26040.5 -03425.3 -07.4936 26264.9
 08 04 2013  20 48  -21.0238 26040.6 -03425.3 -07.4936 26264.9
 08 04 2013  20 49  -21.0238 26040.7 -03425.3 -07.4935 26265.0
 08 04 2013  20 50  -21.0239 26040.7 -03425.3 -07.4934 26265.0
 08 04 2013  20 51  -21.0240 26040.8 -03425.3 -07.4934 26265.1
 08 04 2013  20 52  -21.0240 26040.9 -03425.3 -07.4933 26265.2
 08 04 2013  20 53  -21.0242 26040.9 -03425.3 -07.4933 26265.2
 08 04 2013  20 54  -21.0243 26041.0 -03425.2 -07.4932 26265.3
 08 04 2013  20 55  -21.0243 26041.1 -03425.2 -07.4932 26265.4
 08 04 2013  20 56  -21.0242 26041.1 -03425.2 -07.4931 26265.4
 08 04 2013  20 57  -21.0241 26041.2 -03425.1 -07.4930 26265.5
 08 04 2013  20 58  -21.0239 26041.2 -03425.0 -07.4927 26265.4
 08 04 2013  20 59  -21.0238 26041.1 -03425.0 -07.4926 26265.4
 08 04 2013  21 00  -21.0237 26041.2 -03425.0 -07.4926 26265.4
 08 04 2013  21 01  -21.0236 26041.2 -03425.0 -07.4926 26265.4
 08 04 2013  21 02  -21.0234 26041.3 -03425.0 -07.4926 26265.6
 08 04 2013  21 03  -21.0233 26041.4 -03425.0 -07.4927 26265.7
 08 04 2013  21 04  -21.0232 26041.5 -03425.1 -07.4927 26265.8
 08 04 2013  21 05  -21.0232 26041.6 -03425.1 -07.4928 26265.9
 08 04 2013  21 06  -21.0232 26041.6 -03425.1 -07.4928 26265.9
 08 04 2013  21 07  -21.0230 26041.8 -03425.2 -07.4929 26266.1
 08 04 2013  21 08  -21.0229 26041.9 -03425.3 -07.4930 26266.2
 08 04 2013  21 09  -21.0230 26041.9 -03425.2 -07.4930 26266.2
 08 04 2013  21 10  -21.0229 26042.0 -03425.3 -07.4930 26266.2
 08 04 2013  21 11  -21.0229 26041.9 -03425.2 -07.4930 26266.2
 08 04 2013  21 12  -21.0229 26041.8 -03425.2 -07.4929 26266.0
 08 04 2013  21 13  -21.0228 26041.8 -03425.2 -07.4929 26266.1
 08 04 2013  21 14  -21.0228 26041.7 -03425.2 -07.4929 26266.0
 08 04 2013  21 15  -21.0227 26041.7 -03425.2 -07.4929 26266.0
 08 04 2013  21 16  -21.0226 26041.7 -03425.3 -07.4931 26266.0
 08 04 2013  21 17  -21.0226 26041.7 -03425.3 -07.4932 26266.0
 08 04 2013  21 18  -21.0225 26041.7 -03425.4 -07.4934 26266.0
 08 04 2013  21 19  -21.0227 26041.7 -03425.4 -07.4934 26266.0
 08 04 2013  21 20  -21.0227 26041.6 -03425.4 -07.4935 26266.0
 08 04 2013  21 21  -21.0228 26041.5 -03425.4 -07.4935 26265.8
 08 04 2013  21 22  -21.0228 26041.4 -03425.4 -07.4935 26265.7
 08 04 2013  21 23  -21.0230 26041.4 -03425.4 -07.4936 26265.7
 08 04 2013  21 24  -21.0232 26041.2 -03425.4 -07.4935 26265.5
 08 04 2013  21 25  -21.0234 26041.1 -03425.4 -07.4936 26265.5
 08 04 2013  21 26  -21.0236 26041.1 -03425.5 -07.4937 26265.4
 08 04 2013  21 27  -21.0238 26041.1 -03425.5 -07.4938 26265.5
 08 04 2013  21 28  -21.0240 26041.3 -03425.7 -07.4941 26265.6
 08 04 2013  21 29  -21.0242 26041.5 -03425.8 -07.4943 26265.8
 08 04 2013  21 30  -21.0243 26041.6 -03425.9 -07.4945 26266.0
 08 04 2013  21 31  -21.0245 26041.8 -03426.0 -07.4947 26266.2
 08 04 2013  21 32  -21.0246 26041.9 -03426.1 -07.4949 26266.3
 08 04 2013  21 33  -21.0248 26041.9 -03426.1 -07.4949 26266.4
 08 04 2013  21 34  -21.0251 26042.0 -03426.2 -07.4951 26266.4
 08 04 2013  21 35  -21.0253 26042.1 -03426.3 -07.4952 26266.6
 08 04 2013  21 36  -21.0256 26042.2 -03426.4 -07.4953 26266.7
 08 04 2013  21 37  -21.0259 26042.3 -03426.3 -07.4953 26266.7
 08 04 2013  21 38  -21.0261 26042.3 -03426.4 -07.4954 26266.7
 08 04 2013  21 39  -21.0264 26042.3 -03426.4 -07.4954 26266.7
 08 04 2013  21 40  -21.0265 26042.3 -03426.4 -07.4954 26266.7
 08 04 2013  21 41  -21.0268 26042.3 -03426.5 -07.4955 26266.7
 08 04 2013  21 42  -21.0270 26042.3 -03426.5 -07.4956 26266.7
 08 04 2013  21 43  -21.0271 26042.2 -03426.5 -07.4956 26266.6
 08 04 2013  21 44  -21.0273 26042.1 -03426.5 -07.4956 26266.5
 08 04 2013  21 45  -21.0276 26041.9 -03426.5 -07.4956 26266.4
 08 04 2013  21 46  -21.0277 26041.9 -03426.5 -07.4956 26266.3
 08 04 2013  21 47  -21.0279 26041.8 -03426.5 -07.4956 26266.3
 08 04 2013  21 48  -21.0282 26041.8 -03426.4 -07.4956 26266.2
 08 04 2013  21 49  -21.0284 26041.8 -03426.4 -07.4956 26266.2
 08 04 2013  21 50  -21.0286 26041.7 -03426.4 -07.4956 26266.2
 08 04 2013  21 51  -21.0290 26041.6 -03426.4 -07.4955 26266.1
 08 04 2013  21 52  -21.0293 26041.6 -03426.4 -07.4956 26266.0
 08 04 2013  21 53  -21.0296 26041.5 -03426.5 -07.4957 26266.0
 08 04 2013  21 54  -21.0299 26041.5 -03426.4 -07.4957 26265.9
 08 04 2013  21 55  -21.0302 26041.4 -03426.4 -07.4957 26265.9
 08 04 2013  21 56  -21.0305 26041.3 -03426.4 -07.4957 26265.7
 08 04 2013  21 57  -21.0307 26041.3 -03426.4 -07.4957 26265.7
 08 04 2013  21 58  -21.0309 26041.2 -03426.4 -07.4956 26265.6
 08 04 2013  21 59  -21.0310 26041.1 -03426.3 -07.4956 26265.5
 08 04 2013  22 00  -21.0311 26041.0 -03426.4 -07.4956 26265.5
 08 04 2013  22 01  -21.0313 26040.9 -03426.3 -07.4957 26265.3
 08 04 2013  22 02  -21.0315 26040.7 -03426.3 -07.4955 26265.1
 08 04 2013  22 03  -21.0317 26040.6 -03426.2 -07.4955 26265.0
 08 04 2013  22 04  -21.0318 26040.3 -03426.2 -07.4954 26264.8
 08 04 2013  22 05  -21.0319 26040.1 -03426.1 -07.4953 26264.6
 08 04 2013  22 06  -21.0323 26039.9 -03426.0 -07.4952 26264.4
 08 04 2013  22 07  -21.0327 26039.8 -03426.0 -07.4951 26264.2
 08 04 2013  22 08  -21.0330 26039.5 -03425.9 -07.4951 26263.9
 08 04 2013  22 09  -21.0332 26039.4 -03425.9 -07.4951 26263.8
 08 04 2013  22 10  -21.0333 26039.2 -03425.8 -07.4950 26263.6
 08 04 2013  22 11  -21.0334 26039.0 -03425.8 -07.4949 26263.4
 08 04 2013  22 12  -21.0336 26038.8 -03425.7 -07.4949 26263.2
 08 04 2013  22 13  -21.0338 26038.7 -03425.7 -07.4949 26263.0
 08 04 2013  22 14  -21.0339 26038.5 -03425.7 -07.4949 26262.9
 08 04 2013  22 15  -21.0341 26038.5 -03425.7 -07.4949 26262.9
 08 04 2013  22 16  -21.0342 26038.3 -03425.7 -07.4949 26262.7
 08 04 2013  22 17  -21.0344 26038.3 -03425.7 -07.4950 26262.7
 08 04 2013  22 18  -21.0344 26038.4 -03425.8 -07.4952 26262.8
 08 04 2013  22 19  -21.0345 26038.3 -03425.8 -07.4952 26262.7
 08 04 2013  22 20  -21.0346 26038.3 -03425.9 -07.4953 26262.7
 08 04 2013  22 21  -21.0347 26038.3 -03425.9 -07.4955 26262.7
 08 04 2013  22 22  -21.0347 26038.4 -03426.0 -07.4956 26262.8
 08 04 2013  22 23  -21.0349 26038.4 -03426.0 -07.4957 26262.8
 08 04 2013  22 24  -21.0349 26038.5 -03426.1 -07.4958 26262.9
 08 04 2013  22 25  -21.0350 26038.6 -03426.2 -07.4959 26263.0
 08 04 2013  22 26  -21.0353 26038.5 -03426.2 -07.4960 26262.9
 08 04 2013  22 27  -21.0353 26038.8 -03426.3 -07.4962 26263.3
 08 04 2013  22 28  -21.0354 26038.8 -03426.3 -07.4962 26263.2
 08 04 2013  22 29  -21.0357 26038.5 -03426.2 -07.4960 26263.0
 08 04 2013  22 30  -21.0357 26038.6 -03426.2 -07.4961 26263.0
 08 04 2013  22 31  -21.0359 26038.3 -03426.1 -07.4958 26262.7
 08 04 2013  22 32  -21.0361 26038.2 -03426.0 -07.4957 26262.6
 08 04 2013  22 33  -21.0363 26038.1 -03426.0 -07.4957 26262.5
 08 04 2013  22 34  -21.0365 26038.0 -03426.0 -07.4957 26262.5
 08 04 2013  22 35  -21.0367 26037.9 -03425.9 -07.4956 26262.3
 08 04 2013  22 36  -21.0369 26037.7 -03425.8 -07.4955 26262.1
 08 04 2013  22 37  -21.0372 26037.4 -03425.7 -07.4953 26261.8
 08 04 2013  22 38  -21.0373 26037.3 -03425.7 -07.4952 26261.7
 08 04 2013  22 39  -21.0374 26037.2 -03425.6 -07.4951 26261.6
 08 04 2013  22 40  -21.0376 26037.1 -03425.6 -07.4951 26261.4
 08 04 2013  22 41  -21.0378 26036.7 -03425.4 -07.4949 26261.1
 08 04 2013  22 42  -21.0380 26036.8 -03425.5 -07.4950 26261.2
 08 04 2013  22 43  -21.0381 26036.6 -03425.4 -07.4949 26260.9
 08 04 2013  22 44  -21.0384 26036.5 -03425.4 -07.4948 26260.9
 08 04 2013  22 45  -21.0384 26036.7 -03425.5 -07.4950 26261.0
 08 04 2013  22 46  -21.0384 26036.6 -03425.5 -07.4950 26261.0
 08 04 2013  22 47  -21.0385 26036.6 -03425.5 -07.4951 26261.0
 08 04 2013  22 48  -21.0384 26036.7 -03425.6 -07.4951 26261.0
 08 04 2013  22 49  -21.0385 26036.7 -03425.6 -07.4953 26261.1
 08 04 2013  22 50  -21.0384 26036.8 -03425.7 -07.4954 26261.1
 08 04 2013  22 51  -21.0384 26036.8 -03425.7 -07.4955 26261.2
 08 04 2013  22 52  -21.0384 26036.8 -03425.8 -07.4956 26261.2
 08 04 2013  22 53  -21.0385 26036.9 -03425.8 -07.4957 26261.3
 08 04 2013  22 54  -21.0385 26036.9 -03425.9 -07.4957 26261.3
 08 04 2013  22 55  -21.0386 26036.9 -03425.9 -07.4958 26261.3
 08 04 2013  22 56  -21.0386 26037.0 -03425.9 -07.4959 26261.4
 08 04 2013  22 57  -21.0388 26037.0 -03426.0 -07.4960 26261.4
 08 04 2013  22 58  -21.0388 26037.0 -03426.0 -07.4960 26261.4
 08 04 2013  22 59  -21.0389 26037.0 -03426.0 -07.4961 26261.4
 08 04 2013  23 00  -21.0389 26036.9 -03426.0 -07.4959 26261.4
 08 04 2013  23 01  -21.0389 26036.8 -03425.9 -07.4958 26261.2
 08 04 2013  23 02  -21.0389 26036.6 -03425.8 -07.4958 26261.0
 08 04 2013  23 03  -21.0389 26036.5 -03425.8 -07.4956 26260.9
 08 04 2013  23 04  -21.0390 26036.5 -03425.8 -07.4957 26260.9
 08 04 2013  23 05  -21.0390 26036.4 -03425.8 -07.4957 26260.8
 08 04 2013  23 06  -21.0390 26036.4 -03425.8 -07.4957 26260.8
 08 04 2013  23 07  -21.0390 26036.4 -03425.8 -07.4958 26260.8
 08 04 2013  23 08  -21.0391 26036.3 -03425.8 -07.4957 26260.7
 08 04 2013  23 09  -21.0392 26036.2 -03425.8 -07.4958 26260.7
 08 04 2013  23 10  -21.0393 26036.2 -03425.8 -07.4959 26260.6
 08 04 2013  23 11  -21.0394 26036.2 -03425.8 -07.4959 26260.6
 08 04 2013  23 12  -21.0394 26036.1 -03425.8 -07.4958 26260.6
 08 04 2013  23 13  -21.0394 26036.1 -03425.8 -07.4958 26260.5
 08 04 2013  23 14  -21.0395 26036.1 -03425.8 -07.4958 26260.5
 08 04 2013  23 15  -21.0394 26036.1 -03425.8 -07.4959 26260.5
 08 04 2013  23 16  -21.0393 26036.1 -03425.9 -07.4959 26260.6
 08 04 2013  23 17  -21.0392 26036.3 -03426.0 -07.4962 26260.8
 08 04 2013  23 18  -21.0391 26036.3 -03426.0 -07.4962 26260.8
 08 04 2013  23 19  -21.0391 26036.2 -03426.0 -07.4962 26260.7
 08 04 2013  23 20  -21.0391 26036.4 -03426.1 -07.4964 26260.9
 08 04 2013  23 21  -21.0390 26036.4 -03426.1 -07.4964 26260.9
 08 04 2013  23 22  -21.0389 26036.6 -03426.2 -07.4966 26261.1
 08 04 2013  23 23  -21.0389 26036.6 -03426.3 -07.4967 26261.1
 08 04 2013  23 24  -21.0388 26036.6 -03426.2 -07.4966 26261.1
 08 04 2013  23 25  -21.0387 26036.7 -03426.3 -07.4967 26261.2
 08 04 2013  23 26  -21.0388 26036.5 -03426.2 -07.4966 26261.0
 08 04 2013  23 27  -21.0389 26036.2 -03426.0 -07.4964 26260.6
 08 04 2013  23 28  -21.0388 26036.5 -03426.2 -07.4966 26261.0
 08 04 2013  23 29  -21.0386 26036.4 -03426.2 -07.4967 26260.9
 08 04 2013  23 30  -21.0387 26036.1 -03426.1 -07.4965 26260.5
 08 04 2013  23 31  -21.0388 26036.1 -03426.1 -07.4965 26260.6
 08 04 2013  23 32  -21.0388 26036.1 -03426.1 -07.4966 26260.6
 08 04 2013  23 33  -21.0388 26035.8 -03426.0 -07.4964 26260.2
 08 04 2013  23 34  -21.0388 26035.9 -03426.0 -07.4964 26260.3
 08 04 2013  23 35  -21.0387 26035.9 -03426.1 -07.4965 26260.3
 08 04 2013  23 36  -21.0387 26035.7 -03426.0 -07.4964 26260.1
 08 04 2013  23 37  -21.0388 26035.6 -03426.0 -07.4964 26260.0
 08 04 2013  23 38  -21.0389 26035.6 -03426.0 -07.4965 26260.0
 08 04 2013  23 39  -21.0389 26035.6 -03426.0 -07.4965 26260.0
 08 04 2013  23 40  -21.0388 26035.5 -03426.1 -07.4966 26259.9
 08 04 2013  23 41  -21.0389 26035.5 -03426.0 -07.4965 26259.9
 08 04 2013  23 42  -21.0389 26035.5 -03426.1 -07.4966 26259.9
 08 04 2013  23 43  -21.0389 26035.4 -03426.1 -07.4966 26259.9
 08 04 2013  23 44  -21.0389 26035.4 -03426.1 -07.4966 26259.9
 08 04 2013  23 45  -21.0389 26035.5 -03426.1 -07.4967 26259.9
 08 04 2013  23 46  -21.0389 26035.5 -03426.2 -07.4968 26260.0
 08 04 2013  23 47  -21.0389 26035.7 -03426.3 -07.4969 26260.2
 08 04 2013  23 48  -21.0389 26035.8 -03426.3 -07.4971 26260.3
 08 04 2013  23 49  -21.0389 26035.8 -03426.4 -07.4971 26260.3
 08 04 2013  23 50  -21.0389 26036.0 -03426.5 -07.4973 26260.5
 08 04 2013  23 51  -21.0389 26036.1 -03426.5 -07.4974 26260.7
 08 04 2013  23 52  -21.0389 26036.2 -03426.6 -07.4975 26260.7
 08 04 2013  23 53  -21.0388 26036.3 -03426.6 -07.4975 26260.9
 08 04 2013  23 54  -21.0388 26036.4 -03426.6 -07.4975 26260.9
 08 04 2013  23 55  -21.0387 26036.6 -03426.7 -07.4977 26261.1
 08 04 2013  23 56  -21.0385 26036.8 -03426.8 -07.4979 26261.3
 08 04 2013  23 57  -21.0382 26037.0 -03426.9 -07.4980 26261.6
