SAO LUIS EMBRACE-03 <248> 1 Min. Reported data

 DD MM YYYY  HH MM   D(Deg)  H(nT)   Z(nT)   I(Deg)   F(nT)

 05 09 2013  00 00  -21.0200 26031.1 -03482.0 -07.6189 26263.0
 05 09 2013  00 01  -21.0201 26031.0 -03482.0 -07.6188 26262.8
 05 09 2013  00 02  -21.0200 26031.0 -03482.0 -07.6188 26262.8
 05 09 2013  00 03  -21.0199 26031.1 -03482.0 -07.6189 26262.9
 05 09 2013  00 04  -21.0199 26031.2 -03482.1 -07.6191 26263.1
 05 09 2013  00 05  -21.0198 26031.3 -03482.2 -07.6191 26263.1
 05 09 2013  00 06  -21.0198 26031.2 -03482.1 -07.6191 26263.1
 05 09 2013  00 07  -21.0199 26031.1 -03482.1 -07.6190 26263.0
 05 09 2013  00 08  -21.0200 26031.1 -03482.1 -07.6190 26263.0
 05 09 2013  00 09  -21.0200 26031.1 -03482.1 -07.6191 26262.9
 05 09 2013  00 10  -21.0201 26031.0 -03482.1 -07.6191 26262.9
 05 09 2013  00 11  -21.0202 26031.0 -03482.1 -07.6191 26262.8
 05 09 2013  00 12  -21.0202 26031.0 -03482.1 -07.6192 26262.9
 05 09 2013  00 13  -21.0202 26031.0 -03482.1 -07.6191 26262.9
 05 09 2013  00 14  -21.0201 26031.0 -03482.2 -07.6192 26262.9
 05 09 2013  00 15  -21.0200 26030.9 -03482.1 -07.6191 26262.8
 05 09 2013  00 16  -21.0198 26030.8 -03482.1 -07.6190 26262.7
 05 09 2013  00 17  -21.0196 26030.9 -03482.1 -07.6190 26262.7
 05 09 2013  00 18  -21.0193 26030.9 -03482.1 -07.6191 26262.8
 05 09 2013  00 19  -21.0191 26030.9 -03482.2 -07.6192 26262.8
 05 09 2013  00 20  -21.0188 26031.0 -03482.2 -07.6194 26262.9
 05 09 2013  00 21  -21.0187 26031.0 -03482.3 -07.6194 26262.9
 05 09 2013  00 22  -21.0186 26031.1 -03482.3 -07.6194 26263.0
 05 09 2013  00 23  -21.0185 26031.1 -03482.3 -07.6194 26263.0
 05 09 2013  00 24  -21.0185 26031.0 -03482.3 -07.6195 26262.9
 05 09 2013  00 25  -21.0185 26031.0 -03482.4 -07.6196 26262.9
 05 09 2013  00 26  -21.0185 26031.0 -03482.4 -07.6196 26262.9
 05 09 2013  00 27  -21.0185 26030.9 -03482.4 -07.6197 26262.8
 05 09 2013  00 28  -21.0186 26031.0 -03482.4 -07.6197 26262.9
 05 09 2013  00 29  -21.0185 26030.9 -03482.4 -07.6197 26262.8
 05 09 2013  00 30  -21.0184 26030.9 -03482.4 -07.6197 26262.8
 05 09 2013  00 31  -21.0184 26030.8 -03482.4 -07.6197 26262.7
 05 09 2013  00 32  -21.0182 26030.7 -03482.3 -07.6197 26262.6
 05 09 2013  00 33  -21.0182 26030.7 -03482.3 -07.6197 26262.6
 05 09 2013  00 34  -21.0182 26030.8 -03482.4 -07.6198 26262.7
 05 09 2013  00 35  -21.0181 26030.8 -03482.4 -07.6198 26262.7
 05 09 2013  00 36  -21.0181 26030.8 -03482.5 -07.6199 26262.7
 05 09 2013  00 37  -21.0180 26030.8 -03482.5 -07.6199 26262.7
 05 09 2013  00 38  -21.0179 26030.8 -03482.5 -07.6199 26262.7
 05 09 2013  00 39  -21.0177 26030.8 -03482.5 -07.6199 26262.7
 05 09 2013  00 40  -21.0177 26030.9 -03482.5 -07.6201 26262.8
 05 09 2013  00 41  -21.0176 26030.9 -03482.6 -07.6201 26262.8
 05 09 2013  00 42  -21.0177 26030.9 -03482.6 -07.6202 26262.8
 05 09 2013  00 43  -21.0177 26030.7 -03482.6 -07.6201 26262.7
 05 09 2013  00 44  -21.0178 26030.6 -03482.5 -07.6201 26262.5
 05 09 2013  00 45  -21.0178 26030.5 -03482.5 -07.6200 26262.4
 05 09 2013  00 46  -21.0178 26030.4 -03482.4 -07.6200 26262.4
 05 09 2013  00 47  -21.0178 26030.4 -03482.4 -07.6200 26262.3
 05 09 2013  00 48  -21.0177 26030.4 -03482.4 -07.6199 26262.3
 05 09 2013  00 49  -21.0177 26030.4 -03482.4 -07.6200 26262.3
 05 09 2013  00 50  -21.0177 26030.4 -03482.5 -07.6201 26262.3
 05 09 2013  00 51  -21.0176 26030.5 -03482.5 -07.6202 26262.5
 05 09 2013  00 52  -21.0175 26030.6 -03482.6 -07.6203 26262.5
 05 09 2013  00 53  -21.0175 26030.6 -03482.7 -07.6204 26262.6
 05 09 2013  00 54  -21.0173 26030.8 -03482.7 -07.6204 26262.7
 05 09 2013  00 55  -21.0172 26030.9 -03482.7 -07.6205 26262.8
 05 09 2013  00 56  -21.0171 26030.9 -03482.8 -07.6205 26262.8
 05 09 2013  00 57  -21.0170 26030.9 -03482.8 -07.6206 26262.9
 05 09 2013  00 58  -21.0169 26030.9 -03482.8 -07.6206 26262.9
 05 09 2013  00 59  -21.0169 26030.9 -03482.8 -07.6205 26262.8
 05 09 2013  01 00  -21.0168 26030.8 -03482.7 -07.6205 26262.8
 05 09 2013  01 01  -21.0168 26030.8 -03482.7 -07.6203 26262.7
 05 09 2013  01 02  -21.0170 26030.7 -03482.7 -07.6204 26262.7
 05 09 2013  01 03  -21.0169 26030.7 -03482.7 -07.6204 26262.7
 05 09 2013  01 04  -21.0170 26030.7 -03482.7 -07.6204 26262.6
 05 09 2013  01 05  -21.0170 26030.7 -03482.7 -07.6204 26262.6
 05 09 2013  01 06  -21.0170 26030.6 -03482.6 -07.6203 26262.6
 05 09 2013  01 07  -21.0171 26030.6 -03482.7 -07.6204 26262.6
 05 09 2013  01 08  -21.0171 26030.7 -03482.7 -07.6204 26262.6
 05 09 2013  01 09  -21.0170 26030.7 -03482.7 -07.6204 26262.7
 05 09 2013  01 10  -21.0170 26030.8 -03482.7 -07.6205 26262.7
 05 09 2013  01 11  -21.0169 26030.7 -03482.7 -07.6205 26262.7
 05 09 2013  01 12  -21.0168 26030.7 -03482.7 -07.6204 26262.7
 05 09 2013  01 13  -21.0167 26030.8 -03482.7 -07.6205 26262.7
 05 09 2013  01 14  -21.0167 26030.8 -03482.8 -07.6206 26262.8
 05 09 2013  01 15  -21.0166 26030.9 -03482.8 -07.6206 26262.9
 05 09 2013  01 16  -21.0166 26031.0 -03482.8 -07.6207 26262.9
 05 09 2013  01 17  -21.0165 26031.0 -03482.8 -07.6207 26262.9
 05 09 2013  01 18  -21.0165 26030.9 -03482.8 -07.6207 26262.9
 05 09 2013  01 19  -21.0165 26031.0 -03482.9 -07.6207 26263.0
 05 09 2013  01 20  -21.0165 26031.0 -03482.9 -07.6207 26263.0
 05 09 2013  01 21  -21.0165 26030.9 -03482.8 -07.6207 26262.9
 05 09 2013  01 22  -21.0166 26030.9 -03482.9 -07.6207 26262.8
 05 09 2013  01 23  -21.0166 26030.9 -03482.8 -07.6207 26262.8
 05 09 2013  01 24  -21.0165 26030.8 -03482.8 -07.6207 26262.8
 05 09 2013  01 25  -21.0165 26030.7 -03482.8 -07.6206 26262.7
 05 09 2013  01 26  -21.0165 26030.7 -03482.8 -07.6206 26262.6
 05 09 2013  01 27  -21.0164 26030.6 -03482.7 -07.6206 26262.6
 05 09 2013  01 28  -21.0164 26030.6 -03482.7 -07.6206 26262.6
 05 09 2013  01 29  -21.0164 26030.6 -03482.8 -07.6206 26262.5
 05 09 2013  01 30  -21.0164 26030.6 -03482.8 -07.6207 26262.6
 05 09 2013  01 31  -21.0163 26030.6 -03482.8 -07.6208 26262.6
 05 09 2013  01 32  -21.0161 26030.6 -03482.8 -07.6208 26262.5
 05 09 2013  01 33  -21.0161 26030.6 -03482.9 -07.6209 26262.6
 05 09 2013  01 34  -21.0161 26030.6 -03482.9 -07.6209 26262.6
 05 09 2013  01 35  -21.0161 26030.7 -03482.9 -07.6210 26262.6
 05 09 2013  01 36  -21.0163 26030.6 -03482.9 -07.6210 26262.6
 05 09 2013  01 37  -21.0164 26030.5 -03482.9 -07.6210 26262.5
 05 09 2013  01 38  -21.0166 26030.5 -03482.9 -07.6210 26262.5
 05 09 2013  01 39  -21.0167 26030.4 -03482.8 -07.6209 26262.3
 05 09 2013  01 40  -21.0168 26030.3 -03482.8 -07.6208 26262.2
 05 09 2013  01 41  -21.0170 26030.2 -03482.8 -07.6208 26262.1
 05 09 2013  01 42  -21.0170 26030.1 -03482.7 -07.6207 26262.0
 05 09 2013  01 43  -21.0171 26030.0 -03482.8 -07.6207 26262.0
 05 09 2013  01 44  -21.0171 26030.0 -03482.7 -07.6207 26261.9
 05 09 2013  01 45  -21.0172 26029.9 -03482.7 -07.6207 26261.8
 05 09 2013  01 46  -21.0173 26029.8 -03482.7 -07.6207 26261.8
 05 09 2013  01 47  -21.0174 26029.7 -03482.7 -07.6207 26261.7
 05 09 2013  01 48  -21.0174 26029.7 -03482.7 -07.6207 26261.6
 05 09 2013  01 49  -21.0175 26029.7 -03482.7 -07.6208 26261.7
 05 09 2013  01 50  -21.0176 26029.7 -03482.8 -07.6208 26261.7
 05 09 2013  01 51  -21.0178 26029.6 -03482.7 -07.6208 26261.5
 05 09 2013  01 52  -21.0180 26029.3 -03482.7 -07.6208 26261.3
 05 09 2013  01 53  -21.0182 26029.2 -03482.6 -07.6207 26261.1
 05 09 2013  01 54  -21.0182 26029.0 -03482.6 -07.6207 26260.9
 05 09 2013  01 55  -21.0182 26028.9 -03482.6 -07.6206 26260.8
 05 09 2013  01 56  -21.0181 26028.9 -03482.6 -07.6207 26260.8
 05 09 2013  01 57  -21.0180 26028.9 -03482.7 -07.6209 26260.8
 05 09 2013  01 58  -21.0179 26028.9 -03482.7 -07.6210 26260.9
 05 09 2013  01 59  -21.0180 26029.0 -03482.8 -07.6212 26260.9
 05 09 2013  02 00  -21.0182 26028.9 -03482.9 -07.6213 26260.9
 05 09 2013  02 01  -21.0183 26029.0 -03482.9 -07.6214 26261.0
 05 09 2013  02 02  -21.0183 26028.9 -03482.9 -07.6214 26260.9
 05 09 2013  02 03  -21.0183 26029.0 -03483.0 -07.6216 26261.0
 05 09 2013  02 04  -21.0183 26028.9 -03483.0 -07.6216 26260.9
 05 09 2013  02 05  -21.0184 26029.0 -03483.1 -07.6218 26261.0
 05 09 2013  02 06  -21.0185 26028.9 -03483.1 -07.6218 26260.9
 05 09 2013  02 07  -21.0185 26028.9 -03483.0 -07.6217 26260.9
 05 09 2013  02 08  -21.0186 26028.8 -03483.1 -07.6218 26260.8
 05 09 2013  02 09  -21.0187 26028.8 -03483.1 -07.6218 26260.8
 05 09 2013  02 10  -21.0188 26028.8 -03483.1 -07.6219 26260.9
 05 09 2013  02 11  -21.0189 26029.0 -03483.2 -07.6220 26261.0
 05 09 2013  02 12  -21.0191 26028.8 -03483.1 -07.6219 26260.9
 05 09 2013  02 13  -21.0192 26028.9 -03483.2 -07.6220 26260.9
 05 09 2013  02 14  -21.0194 26028.9 -03483.2 -07.6221 26260.9
 05 09 2013  02 15  -21.0195 26028.8 -03483.2 -07.6220 26260.8
 05 09 2013  02 16  -21.0194 26028.8 -03483.2 -07.6220 26260.9
 05 09 2013  02 17  -21.0192 26029.0 -03483.2 -07.6220 26261.0
 05 09 2013  02 18  -21.0193 26029.1 -03483.3 -07.6222 26261.2
 05 09 2013  02 19  -21.0192 26029.1 -03483.2 -07.6221 26261.1
 05 09 2013  02 20  -21.0192 26029.2 -03483.3 -07.6222 26261.2
 05 09 2013  02 21  -21.0191 26029.2 -03483.3 -07.6222 26261.2
 05 09 2013  02 22  -21.0190 26029.2 -03483.3 -07.6223 26261.3
 05 09 2013  02 23  -21.0190 26029.2 -03483.3 -07.6222 26261.2
 05 09 2013  02 24  -21.0189 26029.4 -03483.4 -07.6224 26261.4
 05 09 2013  02 25  -21.0189 26029.3 -03483.4 -07.6224 26261.4
 05 09 2013  02 26  -21.0189 26029.4 -03483.4 -07.6224 26261.5
 05 09 2013  02 27  -21.0189 26029.3 -03483.4 -07.6224 26261.4
 05 09 2013  02 28  -21.0190 26029.4 -03483.4 -07.6225 26261.4
 05 09 2013  02 29  -21.0189 26029.7 -03483.6 -07.6227 26261.8
 05 09 2013  02 30  -21.0188 26030.1 -03483.8 -07.6229 26262.2
 05 09 2013  02 31  -21.0189 26030.2 -03483.9 -07.6231 26262.3
 05 09 2013  02 32  -21.0190 26030.1 -03483.8 -07.6230 26262.2
 05 09 2013  02 33  -21.0190 26030.1 -03483.8 -07.6229 26262.2
 05 09 2013  02 34  -21.0190 26030.3 -03483.8 -07.6230 26262.4
 05 09 2013  02 35  -21.0191 26030.4 -03483.9 -07.6231 26262.5
 05 09 2013  02 36  -21.0192 26030.2 -03483.8 -07.6229 26262.3
 05 09 2013  02 37  -21.0194 26030.1 -03483.7 -07.6228 26262.2
 05 09 2013  02 38  -21.0195 26030.1 -03483.7 -07.6227 26262.2
 05 09 2013  02 39  -21.0197 26030.0 -03483.6 -07.6226 26262.1
 05 09 2013  02 40  -21.0198 26029.8 -03483.5 -07.6225 26261.9
 05 09 2013  02 41  -21.0199 26029.8 -03483.5 -07.6224 26261.8
 05 09 2013  02 42  -21.0199 26029.7 -03483.4 -07.6223 26261.8
 05 09 2013  02 43  -21.0199 26029.8 -03483.4 -07.6223 26261.8
 05 09 2013  02 44  -21.0198 26029.8 -03483.4 -07.6222 26261.8
 05 09 2013  02 45  -21.0199 26029.9 -03483.4 -07.6223 26261.9
 05 09 2013  02 46  -21.0199 26030.1 -03483.5 -07.6225 26262.1
 05 09 2013  02 47  -21.0198 26030.1 -03483.6 -07.6225 26262.2
 05 09 2013  02 48  -21.0197 26030.0 -03483.5 -07.6224 26262.0
 05 09 2013  02 49  -21.0195 26030.1 -03483.5 -07.6224 26262.2
 05 09 2013  02 50  -21.0192 26030.3 -03483.6 -07.6225 26262.4
 05 09 2013  02 51  -21.0190 26030.5 -03483.7 -07.6226 26262.6
 05 09 2013  02 52  -21.0188 26030.6 -03483.8 -07.6228 26262.7
 05 09 2013  02 53  -21.0188 26030.5 -03483.7 -07.6227 26262.6
 05 09 2013  02 54  -21.0187 26030.4 -03483.6 -07.6226 26262.5
 05 09 2013  02 55  -21.0185 26030.4 -03483.6 -07.6225 26262.5
 05 09 2013  02 56  -21.0183 26030.5 -03483.6 -07.6225 26262.5
 05 09 2013  02 57  -21.0182 26030.4 -03483.6 -07.6225 26262.5
 05 09 2013  02 58  -21.0182 26030.3 -03483.5 -07.6223 26262.3
 05 09 2013  02 59  -21.0183 26030.2 -03483.5 -07.6223 26262.3
 05 09 2013  03 00  -21.0184 26030.2 -03483.5 -07.6223 26262.3
 05 09 2013  03 01  -21.0185 26030.2 -03483.5 -07.6222 26262.2
 05 09 2013  03 02  -21.0186 26030.3 -03483.5 -07.6223 26262.4
 05 09 2013  03 03  -21.0186 26030.3 -03483.5 -07.6223 26262.4
 05 09 2013  03 04  -21.0186 26030.3 -03483.5 -07.6223 26262.3
 05 09 2013  03 05  -21.0186 26030.1 -03483.4 -07.6222 26262.2
 05 09 2013  03 06  -21.0186 26030.0 -03483.3 -07.6220 26262.1
 05 09 2013  03 07  -21.0185 26030.1 -03483.3 -07.6219 26262.1
 05 09 2013  03 08  -21.0185 26030.1 -03483.3 -07.6220 26262.2
 05 09 2013  03 09  -21.0184 26030.1 -03483.3 -07.6220 26262.1
 05 09 2013  03 10  -21.0184 26030.1 -03483.3 -07.6220 26262.1
 05 09 2013  03 11  -21.0184 26030.0 -03483.3 -07.6219 26262.1
 05 09 2013  03 12  -21.0183 26030.0 -03483.3 -07.6219 26262.0
 05 09 2013  03 13  -21.0182 26030.0 -03483.3 -07.6219 26262.0
 05 09 2013  03 14  -21.0181 26030.0 -03483.3 -07.6219 26262.1
 05 09 2013  03 15  -21.0181 26030.0 -03483.3 -07.6219 26262.1
 05 09 2013  03 16  -21.0181 26030.1 -03483.3 -07.6219 26262.1
 05 09 2013  03 17  -21.0182 26030.0 -03483.3 -07.6219 26262.1
 05 09 2013  03 18  -21.0182 26030.0 -03483.3 -07.6219 26262.1
 05 09 2013  03 19  -21.0181 26030.0 -03483.3 -07.6219 26262.0
 05 09 2013  03 20  -21.0180 26030.0 -03483.3 -07.6219 26262.0
 05 09 2013  03 21  -21.0179 26030.0 -03483.3 -07.6219 26262.0
 05 09 2013  03 22  -21.0178 26030.0 -03483.3 -07.6219 26262.0
 05 09 2013  03 23  -21.0176 26030.0 -03483.3 -07.6219 26262.0
 05 09 2013  03 24  -21.0176 26030.0 -03483.3 -07.6220 26262.0
 05 09 2013  03 25  -21.0174 26030.0 -03483.3 -07.6220 26262.1
 05 09 2013  03 26  -21.0173 26030.0 -03483.3 -07.6220 26262.1
 05 09 2013  03 27  -21.0173 26030.2 -03483.4 -07.6221 26262.2
 05 09 2013  03 28  -21.0174 26030.3 -03483.4 -07.6222 26262.4
 05 09 2013  03 29  -21.0174 26030.4 -03483.5 -07.6224 26262.4
 05 09 2013  03 30  -21.0173 26030.5 -03483.6 -07.6225 26262.6
 05 09 2013  03 31  -21.0173 26030.6 -03483.7 -07.6225 26262.7
 05 09 2013  03 32  -21.0172 26030.6 -03483.7 -07.6225 26262.7
 05 09 2013  03 33  -21.0170 26030.6 -03483.6 -07.6225 26262.7
 05 09 2013  03 34  -21.0169 26030.6 -03483.6 -07.6224 26262.6
 05 09 2013  03 35  -21.0168 26030.6 -03483.6 -07.6223 26262.6
 05 09 2013  03 36  -21.0168 26030.6 -03483.6 -07.6224 26262.6
 05 09 2013  03 37  -21.0168 26030.6 -03483.6 -07.6224 26262.7
 05 09 2013  03 38  -21.0168 26030.6 -03483.6 -07.6224 26262.7
 05 09 2013  03 39  -21.0166 26030.7 -03483.6 -07.6224 26262.7
 05 09 2013  03 40  -21.0165 26030.8 -03483.6 -07.6224 26262.9
 05 09 2013  03 41  -21.0164 26030.7 -03483.6 -07.6224 26262.8
 05 09 2013  03 42  -21.0163 26030.6 -03483.5 -07.6223 26262.6
 05 09 2013  03 43  -21.0162 26030.4 -03483.4 -07.6221 26262.4
 05 09 2013  03 44  -21.0163 26030.4 -03483.5 -07.6222 26262.5
 05 09 2013  03 45  -21.0162 26030.5 -03483.5 -07.6223 26262.5
 05 09 2013  03 46  -21.0163 26030.6 -03483.6 -07.6224 26262.7
 05 09 2013  03 47  -21.0164 26030.7 -03483.7 -07.6225 26262.8
 05 09 2013  03 48  -21.0164 26030.8 -03483.7 -07.6227 26262.9
 05 09 2013  03 49  -21.0163 26031.0 -03483.8 -07.6227 26263.1
 05 09 2013  03 50  -21.0160 26031.2 -03483.9 -07.6229 26263.3
 05 09 2013  03 51  -21.0157 26031.4 -03484.0 -07.6230 26263.5
 05 09 2013  03 52  -21.0155 26031.3 -03484.0 -07.6230 26263.5
 05 09 2013  03 53  -21.0153 26031.3 -03483.9 -07.6229 26263.4
 05 09 2013  03 54  -21.0152 26031.2 -03483.8 -07.6228 26263.3
 05 09 2013  03 55  -21.0150 26031.1 -03483.8 -07.6228 26263.2
 05 09 2013  03 56  -21.0148 26031.1 -03483.8 -07.6228 26263.2
 05 09 2013  03 57  -21.0147 26031.2 -03483.9 -07.6229 26263.3
 05 09 2013  03 58  -21.0147 26031.2 -03484.0 -07.6230 26263.3
 05 09 2013  03 59  -21.0145 26031.2 -03483.9 -07.6230 26263.3
 05 09 2013  04 00  -21.0143 26031.2 -03483.9 -07.6230 26263.3
 05 09 2013  04 01  -21.0142 26031.3 -03484.0 -07.6231 26263.4
 05 09 2013  04 02  -21.0140 26031.3 -03484.1 -07.6232 26263.4
 05 09 2013  04 03  -21.0139 26031.4 -03484.1 -07.6232 26263.5
 05 09 2013  04 04  -21.0138 26031.3 -03484.1 -07.6233 26263.5
 05 09 2013  04 05  -21.0137 26031.3 -03484.1 -07.6233 26263.5
 05 09 2013  04 06  -21.0136 26031.3 -03484.1 -07.6233 26263.5
 05 09 2013  04 07  -21.0136 26031.3 -03484.1 -07.6233 26263.5
 05 09 2013  04 08  -21.0136 26031.4 -03484.2 -07.6234 26263.5
 05 09 2013  04 09  -21.0135 26031.4 -03484.1 -07.6234 26263.5
 05 09 2013  04 10  -21.0134 26031.3 -03484.1 -07.6233 26263.4
 05 09 2013  04 11  -21.0132 26031.2 -03484.1 -07.6233 26263.3
 05 09 2013  04 12  -21.0132 26031.1 -03484.1 -07.6233 26263.3
 05 09 2013  04 13  -21.0133 26031.0 -03484.0 -07.6232 26263.1
 05 09 2013  04 14  -21.0133 26031.0 -03484.1 -07.6233 26263.1
 05 09 2013  04 15  -21.0132 26031.1 -03484.1 -07.6234 26263.2
 05 09 2013  04 16  -21.0132 26031.1 -03484.2 -07.6235 26263.3
 05 09 2013  04 17  -21.0130 26031.2 -03484.2 -07.6235 26263.3
 05 09 2013  04 18  -21.0130 26031.2 -03484.2 -07.6236 26263.3
 05 09 2013  04 19  -21.0128 26031.2 -03484.2 -07.6236 26263.4
 05 09 2013  04 20  -21.0127 26031.3 -03484.3 -07.6236 26263.4
 05 09 2013  04 21  -21.0126 26031.3 -03484.3 -07.6237 26263.5
 05 09 2013  04 22  -21.0125 26031.3 -03484.3 -07.6237 26263.4
 05 09 2013  04 23  -21.0126 26031.3 -03484.3 -07.6237 26263.4
 05 09 2013  04 24  -21.0126 26031.3 -03484.3 -07.6237 26263.4
 05 09 2013  04 25  -21.0126 26031.3 -03484.3 -07.6237 26263.4
 05 09 2013  04 26  -21.0126 26031.3 -03484.3 -07.6238 26263.5
 05 09 2013  04 27  -21.0125 26031.3 -03484.4 -07.6238 26263.5
 05 09 2013  04 28  -21.0124 26031.3 -03484.3 -07.6238 26263.5
 05 09 2013  04 29  -21.0124 26031.3 -03484.3 -07.6238 26263.5
 05 09 2013  04 30  -21.0123 26031.3 -03484.4 -07.6238 26263.5
 05 09 2013  04 31  -21.0121 26031.4 -03484.4 -07.6238 26263.5
 05 09 2013  04 32  -21.0120 26031.3 -03484.4 -07.6239 26263.5
 05 09 2013  04 33  -21.0120 26031.4 -03484.4 -07.6239 26263.5
 05 09 2013  04 34  -21.0120 26031.4 -03484.4 -07.6240 26263.6
 05 09 2013  04 35  -21.0119 26031.4 -03484.5 -07.6240 26263.6
 05 09 2013  04 36  -21.0119 26031.5 -03484.5 -07.6241 26263.7
 05 09 2013  04 37  -21.0118 26031.6 -03484.6 -07.6242 26263.8
 05 09 2013  04 38  -21.0116 26031.6 -03484.6 -07.6243 26263.8
 05 09 2013  04 39  -21.0115 26031.7 -03484.6 -07.6243 26263.9
 05 09 2013  04 40  -21.0113 26031.6 -03484.6 -07.6243 26263.8
 05 09 2013  04 41  -21.0111 26031.6 -03484.6 -07.6243 26263.8
 05 09 2013  04 42  -21.0110 26031.5 -03484.6 -07.6242 26263.6
 05 09 2013  04 43  -21.0110 26031.3 -03484.5 -07.6241 26263.5
 05 09 2013  04 44  -21.0109 26031.2 -03484.4 -07.6240 26263.4
 05 09 2013  04 45  -21.0109 26031.2 -03484.4 -07.6241 26263.3
 05 09 2013  04 46  -21.0108 26031.1 -03484.4 -07.6241 26263.3
 05 09 2013  04 47  -21.0108 26031.0 -03484.4 -07.6240 26263.2
 05 09 2013  04 48  -21.0108 26031.0 -03484.4 -07.6241 26263.2
 05 09 2013  04 49  -21.0107 26031.1 -03484.5 -07.6241 26263.3
 05 09 2013  04 50  -21.0107 26031.1 -03484.5 -07.6242 26263.3
 05 09 2013  04 51  -21.0107 26031.1 -03484.5 -07.6243 26263.3
 05 09 2013  04 52  -21.0106 26030.9 -03484.5 -07.6242 26263.1
 05 09 2013  04 53  -21.0104 26030.9 -03484.4 -07.6241 26263.1
 05 09 2013  04 54  -21.0102 26030.9 -03484.4 -07.6241 26263.1
 05 09 2013  04 55  -21.0099 26031.0 -03484.5 -07.6243 26263.2
 05 09 2013  04 56  -21.0097 26031.0 -03484.5 -07.6242 26263.1
 05 09 2013  04 57  -21.0095 26030.9 -03484.5 -07.6243 26263.1
 05 09 2013  04 58  -21.0092 26030.9 -03484.5 -07.6243 26263.1
 05 09 2013  04 59  -21.0088 26030.9 -03484.5 -07.6244 26263.1
 05 09 2013  05 00  -21.0085 26030.9 -03484.6 -07.6244 26263.1
 05 09 2013  05 01  -21.0081 26030.9 -03484.6 -07.6244 26263.1
 05 09 2013  05 02  -21.0079 26030.8 -03484.6 -07.6245 26263.0
 05 09 2013  05 03  -21.0076 26030.7 -03484.6 -07.6245 26262.9
 05 09 2013  05 04  -21.0074 26030.7 -03484.6 -07.6245 26262.9
 05 09 2013  05 05  -21.0075 26030.6 -03484.6 -07.6246 26262.8
 05 09 2013  05 06  -21.0075 26030.4 -03484.6 -07.6245 26262.6
 05 09 2013  05 07  -21.0076 26030.4 -03484.5 -07.6245 26262.6
 05 09 2013  05 08  -21.0076 26030.3 -03484.5 -07.6245 26262.5
 05 09 2013  05 09  -21.0078 26030.4 -03484.6 -07.6247 26262.6
 05 09 2013  05 10  -21.0079 26030.5 -03484.7 -07.6248 26262.7
 05 09 2013  05 11  -21.0081 26030.5 -03484.8 -07.6249 26262.7
 05 09 2013  05 12  -21.0083 26030.6 -03484.8 -07.6250 26262.8
 05 09 2013  05 13  -21.0085 26030.5 -03484.8 -07.6250 26262.8
 05 09 2013  05 14  -21.0084 26030.5 -03484.8 -07.6250 26262.8
 05 09 2013  05 15  -21.0085 26030.5 -03484.8 -07.6250 26262.7
 05 09 2013  05 16  -21.0085 26030.5 -03484.8 -07.6250 26262.7
 05 09 2013  05 17  -21.0085 26030.5 -03484.8 -07.6250 26262.7
 05 09 2013  05 18  -21.0086 26030.5 -03484.8 -07.6251 26262.8
 05 09 2013  05 19  -21.0087 26030.5 -03484.8 -07.6251 26262.8
 05 09 2013  05 20  -21.0085 26030.5 -03484.8 -07.6250 26262.7
 05 09 2013  05 21  -21.0086 26030.5 -03484.8 -07.6250 26262.7
 05 09 2013  05 22  -21.0085 26030.4 -03484.7 -07.6249 26262.6
 05 09 2013  05 23  -21.0086 26030.4 -03484.7 -07.6249 26262.6
 05 09 2013  05 24  -21.0084 26030.3 -03484.7 -07.6248 26262.5
 05 09 2013  05 25  -21.0082 26030.3 -03484.6 -07.6248 26262.5
 05 09 2013  05 26  -21.0079 26030.3 -03484.6 -07.6247 26262.5
 05 09 2013  05 27  -21.0077 26030.2 -03484.6 -07.6247 26262.4
 05 09 2013  05 28  -21.0074 26030.2 -03484.6 -07.6248 26262.4
 05 09 2013  05 29  -21.0070 26030.2 -03484.6 -07.6247 26262.4
 05 09 2013  05 30  -21.0070 26030.2 -03484.7 -07.6248 26262.4
 05 09 2013  05 31  -21.0073 26029.9 -03484.6 -07.6248 26262.1
 05 09 2013  05 32  -21.0068 26030.1 -03484.6 -07.6248 26262.3
 05 09 2013  05 33  -21.0069 26030.2 -03484.8 -07.6251 26262.5
 05 09 2013  05 34  -21.0068 26030.3 -03484.8 -07.6251 26262.5
 05 09 2013  05 35  -21.0065 26030.4 -03484.9 -07.6252 26262.6
 05 09 2013  05 36  -21.0063 26030.7 -03485.0 -07.6254 26262.9
 05 09 2013  05 37  -21.0064 26030.6 -03485.0 -07.6254 26262.8
 05 09 2013  05 38  -21.0063 26030.4 -03484.9 -07.6253 26262.6
 05 09 2013  05 39  -21.0062 26030.3 -03484.8 -07.6251 26262.5
 05 09 2013  05 40  -21.0062 26030.2 -03484.8 -07.6251 26262.4
 05 09 2013  05 41  -21.0058 26030.4 -03484.8 -07.6252 26262.6
 05 09 2013  05 42  -21.0060 26030.4 -03484.9 -07.6254 26262.7
 05 09 2013  05 43  -21.0063 26030.1 -03484.8 -07.6252 26262.3
 05 09 2013  05 44  -21.0063 26030.1 -03484.8 -07.6251 26262.3
 05 09 2013  05 45  -21.0061 26030.3 -03484.9 -07.6252 26262.5
 05 09 2013  05 46  -21.0061 26030.4 -03485.0 -07.6254 26262.7
 05 09 2013  05 47  -21.0063 26030.4 -03485.0 -07.6254 26262.6
 05 09 2013  05 48  -21.0063 26030.2 -03484.9 -07.6252 26262.4
 05 09 2013  05 49  -21.0062 26030.2 -03484.8 -07.6251 26262.4
 05 09 2013  05 50  -21.0059 26030.2 -03484.8 -07.6252 26262.5
 05 09 2013  05 51  -21.0059 26030.3 -03484.8 -07.6252 26262.5
 05 09 2013  05 52  -21.0059 26030.2 -03484.8 -07.6252 26262.4
 05 09 2013  05 53  -21.0058 26030.1 -03484.8 -07.6251 26262.4
 05 09 2013  05 54  -21.0058 26030.1 -03484.8 -07.6251 26262.3
 05 09 2013  05 55  -21.0060 26030.1 -03484.8 -07.6251 26262.3
 05 09 2013  05 56  -21.0061 26029.8 -03484.7 -07.6250 26262.1
 05 09 2013  05 57  -21.0062 26029.7 -03484.6 -07.6249 26261.9
 05 09 2013  05 58  -21.0062 26029.7 -03484.6 -07.6249 26261.9
 05 09 2013  05 59  -21.0061 26029.7 -03484.6 -07.6249 26261.9
 05 09 2013  06 00  -21.0061 26029.7 -03484.6 -07.6249 26261.9
 05 09 2013  06 01  -21.0062 26029.7 -03484.7 -07.6250 26261.9
 05 09 2013  06 02  -21.0063 26029.6 -03484.7 -07.6250 26261.9
 05 09 2013  06 03  -21.0063 26029.6 -03484.7 -07.6250 26261.8
 05 09 2013  06 04  -21.0063 26029.6 -03484.7 -07.6250 26261.9
 05 09 2013  06 05  -21.0063 26029.7 -03484.7 -07.6252 26261.9
 05 09 2013  06 06  -21.0061 26029.6 -03484.7 -07.6251 26261.8
 05 09 2013  06 07  -21.0058 26029.5 -03484.7 -07.6251 26261.8
 05 09 2013  06 08  -21.0056 26029.6 -03484.7 -07.6251 26261.8
 05 09 2013  06 09  -21.0054 26029.6 -03484.7 -07.6251 26261.8
 05 09 2013  06 10  -21.0054 26029.6 -03484.8 -07.6252 26261.8
 05 09 2013  06 11  -21.0053 26029.6 -03484.8 -07.6253 26261.9
 05 09 2013  06 12  -21.0053 26029.7 -03484.9 -07.6254 26261.9
 05 09 2013  06 13  -21.0052 26029.7 -03484.9 -07.6254 26262.0
 05 09 2013  06 14  -21.0050 26029.7 -03484.9 -07.6255 26262.0
 05 09 2013  06 15  -21.0049 26029.9 -03485.0 -07.6256 26262.1
 05 09 2013  06 16  -21.0049 26029.8 -03485.0 -07.6256 26262.1
 05 09 2013  06 17  -21.0049 26029.8 -03484.9 -07.6256 26262.0
 05 09 2013  06 18  -21.0047 26029.9 -03485.0 -07.6256 26262.1
 05 09 2013  06 19  -21.0047 26029.9 -03485.0 -07.6257 26262.2
 05 09 2013  06 20  -21.0048 26029.9 -03485.0 -07.6257 26262.1
 05 09 2013  06 21  -21.0047 26029.9 -03485.1 -07.6258 26262.2
 05 09 2013  06 22  -21.0044 26030.0 -03485.1 -07.6259 26262.3
 05 09 2013  06 23  -21.0045 26029.8 -03485.1 -07.6258 26262.1
 05 09 2013  06 24  -21.0044 26029.9 -03485.0 -07.6258 26262.1
 05 09 2013  06 25  -21.0044 26030.1 -03485.2 -07.6259 26262.3
 05 09 2013  06 26  -21.0044 26030.0 -03485.1 -07.6258 26262.2
 05 09 2013  06 27  -21.0045 26029.9 -03485.1 -07.6258 26262.2
 05 09 2013  06 28  -21.0046 26029.9 -03485.1 -07.6259 26262.2
 05 09 2013  06 29  -21.0043 26030.1 -03485.2 -07.6260 26262.4
 05 09 2013  06 30  -21.0039 26030.3 -03485.3 -07.6262 26262.6
 05 09 2013  06 31  -21.0039 26030.3 -03485.3 -07.6262 26262.6
 05 09 2013  06 32  -21.0037 26030.4 -03485.3 -07.6263 26262.7
 05 09 2013  06 33  -21.0035 26030.4 -03485.3 -07.6263 26262.7
 05 09 2013  06 34  -21.0032 26030.4 -03485.4 -07.6263 26262.7
 05 09 2013  06 35  -21.0032 26030.3 -03485.4 -07.6263 26262.6
 05 09 2013  06 36  -21.0029 26030.2 -03485.3 -07.6262 26262.5
 05 09 2013  06 37  -21.0027 26030.2 -03485.3 -07.6262 26262.5
 05 09 2013  06 38  -21.0026 26030.3 -03485.4 -07.6263 26262.6
 05 09 2013  06 39  -21.0024 26030.3 -03485.4 -07.6264 26262.7
 05 09 2013  06 40  -21.0021 26030.5 -03485.5 -07.6266 26262.8
 05 09 2013  06 41  -21.0016 26030.4 -03485.5 -07.6266 26262.8
 05 09 2013  06 42  -21.0016 26030.4 -03485.5 -07.6266 26262.7
 05 09 2013  06 43  -21.0016 26030.3 -03485.5 -07.6267 26262.6
 05 09 2013  06 44  -21.0013 26030.3 -03485.5 -07.6267 26262.6
 05 09 2013  06 45  -21.0012 26030.3 -03485.6 -07.6268 26262.7
 05 09 2013  06 46  -21.0014 26030.5 -03485.7 -07.6269 26262.8
 05 09 2013  06 47  -21.0011 26030.6 -03485.7 -07.6270 26262.9
 05 09 2013  06 48  -21.0009 26030.7 -03485.8 -07.6272 26263.1
 05 09 2013  06 49  -21.0008 26030.7 -03485.8 -07.6272 26263.0
 05 09 2013  06 50  -21.0006 26030.6 -03485.8 -07.6272 26263.0
 05 09 2013  06 51  -21.0004 26030.6 -03485.8 -07.6272 26263.0
 05 09 2013  06 52  -21.0002 26030.7 -03485.9 -07.6273 26263.0
 05 09 2013  06 53  -21.0003 26030.8 -03485.9 -07.6274 26263.2
 05 09 2013  06 54  -21.0005 26030.9 -03486.0 -07.6275 26263.3
 05 09 2013  06 55  -21.0006 26030.9 -03486.0 -07.6276 26263.3
 05 09 2013  06 56  -21.0006 26030.8 -03486.0 -07.6275 26263.2
 05 09 2013  06 57  -21.0003 26030.8 -03485.9 -07.6274 26263.2
 05 09 2013  06 58  -21.0002 26030.9 -03486.0 -07.6276 26263.3
 05 09 2013  06 59  -21.0004 26030.8 -03486.0 -07.6275 26263.2
 05 09 2013  07 00  -21.0004 26030.6 -03485.9 -07.6274 26263.0
 05 09 2013  07 01  -21.0005 26030.6 -03485.9 -07.6273 26263.0
 05 09 2013  07 02  -21.0004 26030.6 -03485.9 -07.6274 26263.0
 05 09 2013  07 03  -21.0004 26030.6 -03485.9 -07.6273 26263.0
 05 09 2013  07 04  -21.0004 26030.5 -03485.9 -07.6273 26262.9
 05 09 2013  07 05  -21.0004 26030.5 -03485.9 -07.6273 26262.9
 05 09 2013  07 06  -21.0002 26030.4 -03485.8 -07.6273 26262.8
 05 09 2013  07 07  -21.0001 26030.4 -03485.8 -07.6273 26262.7
 05 09 2013  07 08  -21.0000 26030.3 -03485.9 -07.6274 26262.7
 05 09 2013  07 09  -21.0000 26030.3 -03485.9 -07.6275 26262.7
 05 09 2013  07 10  -20.9999 26030.3 -03485.9 -07.6275 26262.6
 05 09 2013  07 11  -20.9997 26030.2 -03485.9 -07.6276 26262.6
 05 09 2013  07 12  -20.9995 26030.2 -03485.9 -07.6276 26262.5
 05 09 2013  07 13  -20.9994 26030.1 -03486.0 -07.6278 26262.5
 05 09 2013  07 14  -20.9995 26030.2 -03486.1 -07.6279 26262.6
 05 09 2013  07 15  -20.9996 26030.4 -03486.1 -07.6280 26262.8
 05 09 2013  07 16  -20.9999 26030.5 -03486.2 -07.6280 26262.9
 05 09 2013  07 17  -20.9999 26030.5 -03486.2 -07.6280 26262.9
 05 09 2013  07 18  -20.9996 26030.6 -03486.2 -07.6280 26263.0
 05 09 2013  07 19  -20.9994 26030.8 -03486.3 -07.6281 26263.2
 05 09 2013  07 20  -20.9992 26030.8 -03486.2 -07.6280 26263.2
 05 09 2013  07 21  -20.9991 26030.8 -03486.2 -07.6281 26263.2
 05 09 2013  07 22  -20.9989 26030.9 -03486.3 -07.6281 26263.3
 05 09 2013  07 23  -20.9986 26030.9 -03486.3 -07.6281 26263.3
 05 09 2013  07 24  -20.9984 26030.9 -03486.3 -07.6281 26263.3
 05 09 2013  07 25  -20.9982 26031.0 -03486.3 -07.6282 26263.4
 05 09 2013  07 26  -20.9981 26031.2 -03486.5 -07.6285 26263.6
 05 09 2013  07 27  -20.9979 26031.2 -03486.6 -07.6287 26263.7
 05 09 2013  07 28  -20.9977 26031.3 -03486.7 -07.6288 26263.8
 05 09 2013  07 29  -20.9976 26031.3 -03486.7 -07.6289 26263.8
 05 09 2013  07 30  -20.9974 26031.2 -03486.6 -07.6288 26263.7
 05 09 2013  07 31  -20.9972 26031.1 -03486.6 -07.6287 26263.6
 05 09 2013  07 32  -20.9970 26031.1 -03486.5 -07.6286 26263.6
 05 09 2013  07 33  -20.9969 26031.2 -03486.6 -07.6287 26263.6
 05 09 2013  07 34  -20.9966 26031.2 -03486.6 -07.6287 26263.6
 05 09 2013  07 35  -20.9961 26031.1 -03486.6 -07.6287 26263.6
 05 09 2013  07 36  -20.9956 26031.1 -03486.6 -07.6287 26263.6
 05 09 2013  07 37  -20.9952 26031.1 -03486.6 -07.6288 26263.6
 05 09 2013  07 38  -20.9949 26031.2 -03486.7 -07.6289 26263.7
 05 09 2013  07 39  -20.9947 26031.3 -03486.8 -07.6290 26263.8
 05 09 2013  07 40  -20.9944 26031.4 -03486.8 -07.6291 26263.8
 05 09 2013  07 41  -20.9943 26031.4 -03486.7 -07.6290 26263.8
 05 09 2013  07 42  -20.9942 26031.3 -03486.7 -07.6290 26263.8
 05 09 2013  07 43  -20.9940 26031.3 -03486.7 -07.6289 26263.8
 05 09 2013  07 44  -20.9936 26031.3 -03486.7 -07.6289 26263.8
 05 09 2013  07 45  -20.9934 26031.3 -03486.7 -07.6290 26263.8
 05 09 2013  07 46  -20.9931 26031.4 -03486.8 -07.6290 26263.8
 05 09 2013  07 47  -20.9930 26031.4 -03486.8 -07.6291 26263.9
 05 09 2013  07 48  -20.9928 26031.4 -03486.8 -07.6291 26263.9
 05 09 2013  07 49  -20.9928 26031.4 -03486.8 -07.6292 26263.9
 05 09 2013  07 50  -20.9927 26031.4 -03486.8 -07.6292 26263.9
 05 09 2013  07 51  -20.9924 26031.3 -03486.8 -07.6291 26263.8
 05 09 2013  07 52  -20.9924 26031.3 -03486.8 -07.6291 26263.7
 05 09 2013  07 53  -20.9924 26031.2 -03486.8 -07.6291 26263.7
 05 09 2013  07 54  -20.9923 26031.3 -03486.8 -07.6291 26263.7
 05 09 2013  07 55  -20.9921 26031.3 -03486.8 -07.6292 26263.8
 05 09 2013  07 56  -20.9919 26031.4 -03486.9 -07.6293 26263.9
 05 09 2013  07 57  -20.9915 26031.4 -03486.9 -07.6293 26263.8
 05 09 2013  07 58  -20.9912 26031.2 -03486.8 -07.6292 26263.7
 05 09 2013  07 59  -20.9911 26031.2 -03486.8 -07.6292 26263.7
 05 09 2013  08 00  -20.9911 26031.4 -03486.9 -07.6294 26263.9
 05 09 2013  08 01  -20.9910 26031.3 -03486.9 -07.6294 26263.8
 05 09 2013  08 02  -20.9908 26031.4 -03486.9 -07.6292 26263.9
 05 09 2013  08 03  -20.9907 26031.4 -03486.8 -07.6292 26263.9
 05 09 2013  08 04  -20.9905 26031.6 -03486.9 -07.6293 26264.1
 05 09 2013  08 05  -20.9904 26031.5 -03486.9 -07.6293 26264.0
 05 09 2013  08 06  -20.9902 26031.5 -03486.9 -07.6293 26264.0
 05 09 2013  08 07  -20.9899 26031.5 -03486.9 -07.6292 26264.0
 05 09 2013  08 08  -20.9897 26031.3 -03486.8 -07.6291 26263.8
 05 09 2013  08 09  -20.9896 26031.3 -03486.7 -07.6290 26263.7
 05 09 2013  08 10  -20.9895 26031.1 -03486.6 -07.6288 26263.6
 05 09 2013  08 11  -20.9894 26031.1 -03486.6 -07.6288 26263.6
 05 09 2013  08 12  -20.9891 26031.1 -03486.6 -07.6288 26263.6
 05 09 2013  08 13  -20.9889 26031.1 -03486.7 -07.6289 26263.6
 05 09 2013  08 14  -20.9887 26031.3 -03486.8 -07.6291 26263.8
 05 09 2013  08 15  -20.9885 26031.4 -03486.9 -07.6293 26263.9
 05 09 2013  08 16  -20.9882 26031.7 -03487.0 -07.6294 26264.2
 05 09 2013  08 17  -20.9879 26031.7 -03487.0 -07.6294 26264.2
 05 09 2013  08 18  -20.9875 26031.8 -03487.0 -07.6295 26264.3
 05 09 2013  08 19  -20.9872 26031.8 -03487.0 -07.6295 26264.3
 05 09 2013  08 20  -20.9868 26031.8 -03487.0 -07.6295 26264.3
 05 09 2013  08 21  -20.9864 26031.8 -03487.0 -07.6293 26264.3
 05 09 2013  08 22  -20.9860 26031.8 -03486.9 -07.6291 26264.3
 05 09 2013  08 23  -20.9855 26031.7 -03486.8 -07.6290 26264.2
 05 09 2013  08 24  -20.9850 26031.6 -03486.7 -07.6287 26264.0
 05 09 2013  08 25  -20.9846 26031.5 -03486.6 -07.6286 26263.9
 05 09 2013  08 26  -20.9843 26031.5 -03486.5 -07.6285 26263.9
 05 09 2013  08 27  -20.9841 26031.4 -03486.6 -07.6286 26263.9
 05 09 2013  08 28  -20.9838 26031.4 -03486.5 -07.6285 26263.8
 05 09 2013  08 29  -20.9834 26031.3 -03486.5 -07.6285 26263.8
 05 09 2013  08 30  -20.9831 26031.3 -03486.4 -07.6284 26263.7
 05 09 2013  08 31  -20.9826 26031.2 -03486.4 -07.6284 26263.7
 05 09 2013  08 32  -20.9824 26031.1 -03486.5 -07.6285 26263.5
 05 09 2013  08 33  -20.9820 26030.9 -03486.5 -07.6286 26263.4
 05 09 2013  08 34  -20.9817 26030.9 -03486.5 -07.6286 26263.3
 05 09 2013  08 35  -20.9811 26030.8 -03486.5 -07.6285 26263.3
 05 09 2013  08 36  -20.9804 26030.7 -03486.4 -07.6284 26263.1
 05 09 2013  08 37  -20.9796 26030.7 -03486.3 -07.6283 26263.1
 05 09 2013  08 38  -20.9790 26030.6 -03486.2 -07.6280 26263.0
 05 09 2013  08 39  -20.9782 26030.4 -03486.0 -07.6278 26262.7
 05 09 2013  08 40  -20.9775 26030.2 -03486.0 -07.6278 26262.6
 05 09 2013  08 41  -20.9766 26030.0 -03485.9 -07.6277 26262.3
 05 09 2013  08 42  -20.9756 26029.8 -03485.8 -07.6275 26262.1
 05 09 2013  08 43  -20.9749 26029.5 -03485.8 -07.6275 26261.9
 05 09 2013  08 44  -20.9742 26029.3 -03485.8 -07.6276 26261.7
 05 09 2013  08 45  -20.9734 26029.3 -03485.9 -07.6277 26261.6
 05 09 2013  08 46  -20.9726 26029.1 -03485.9 -07.6278 26261.5
 05 09 2013  08 47  -20.9719 26029.0 -03486.0 -07.6280 26261.4
 05 09 2013  08 48  -20.9712 26029.0 -03486.1 -07.6282 26261.4
 05 09 2013  08 49  -20.9709 26029.1 -03486.2 -07.6286 26261.5
 05 09 2013  08 50  -20.9706 26029.1 -03486.4 -07.6288 26261.6
 05 09 2013  08 51  -20.9705 26029.2 -03486.5 -07.6290 26261.6
 05 09 2013  08 52  -20.9705 26029.3 -03486.6 -07.6294 26261.8
 05 09 2013  08 53  -20.9702 26029.3 -03486.7 -07.6296 26261.8
 05 09 2013  08 54  -20.9699 26029.3 -03486.8 -07.6297 26261.8
 05 09 2013  08 55  -20.9693 26029.3 -03486.8 -07.6298 26261.8
 05 09 2013  08 56  -20.9688 26029.2 -03487.0 -07.6301 26261.8
 05 09 2013  08 57  -20.9683 26029.2 -03487.0 -07.6302 26261.7
 05 09 2013  08 58  -20.9676 26028.9 -03487.0 -07.6302 26261.4
 05 09 2013  08 59  -20.9670 26028.7 -03487.0 -07.6303 26261.3
 05 09 2013  09 00  -20.9668 26028.8 -03487.1 -07.6305 26261.4
 05 09 2013  09 01  -20.9665 26029.0 -03487.3 -07.6309 26261.5
 05 09 2013  09 02  -20.9662 26029.1 -03487.5 -07.6314 26261.7
 05 09 2013  09 03  -20.9664 26029.3 -03487.8 -07.6319 26262.0
 05 09 2013  09 04  -20.9668 26029.6 -03488.1 -07.6325 26262.3
 05 09 2013  09 05  -20.9666 26029.9 -03488.3 -07.6329 26262.6
 05 09 2013  09 06  -20.9656 26029.8 -03488.3 -07.6327 26262.5
 05 09 2013  09 07  -20.9645 26029.7 -03488.2 -07.6326 26262.4
 05 09 2013  09 08  -20.9640 26029.7 -03488.4 -07.6330 26262.5
 05 09 2013  09 09  -20.9633 26029.8 -03488.5 -07.6333 26262.6
 05 09 2013  09 10  -20.9620 26029.7 -03488.4 -07.6332 26262.4
 05 09 2013  09 11  -20.9616 26029.6 -03488.5 -07.6333 26262.3
 05 09 2013  09 12  -20.9620 26029.5 -03488.7 -07.6337 26262.2
 05 09 2013  09 13  -20.9625 26029.6 -03489.0 -07.6344 26262.3
 05 09 2013  09 14  -20.9631 26029.7 -03489.1 -07.6346 26262.5
 05 09 2013  09 15  -20.9632 26030.0 -03489.5 -07.6354 26262.8
 05 09 2013  09 16  -20.9631 26030.2 -03489.8 -07.6359 26263.1
 05 09 2013  09 17  -20.9633 26030.4 -03490.0 -07.6362 26263.3
 05 09 2013  09 18  -20.9638 26030.5 -03490.1 -07.6366 26263.5
 05 09 2013  09 19  -20.9643 26030.7 -03490.3 -07.6368 26263.6
 05 09 2013  09 20  -20.9647 26030.9 -03490.4 -07.6371 26263.8
 05 09 2013  09 21  -20.9651 26031.1 -03490.6 -07.6374 26264.0
 05 09 2013  09 22  -20.9652 26031.2 -03490.5 -07.6373 26264.1
 05 09 2013  09 23  -20.9653 26031.2 -03490.7 -07.6376 26264.2
 05 09 2013  09 24  -20.9657 26031.2 -03490.8 -07.6379 26264.3
 05 09 2013  09 25  -20.9664 26031.3 -03491.0 -07.6382 26264.4
 05 09 2013  09 26  -20.9668 26031.5 -03491.2 -07.6386 26264.5
 05 09 2013  09 27  -20.9667 26031.5 -03491.2 -07.6386 26264.6
 05 09 2013  09 28  -20.9670 26031.4 -03491.2 -07.6386 26264.5
 05 09 2013  09 29  -20.9677 26031.4 -03491.3 -07.6388 26264.5
 05 09 2013  09 30  -20.9681 26031.4 -03491.4 -07.6390 26264.5
 05 09 2013  09 31  -20.9684 26031.5 -03491.5 -07.6392 26264.6
 05 09 2013  09 32  -20.9686 26031.6 -03491.6 -07.6394 26264.7
 05 09 2013  09 33  -20.9688 26031.7 -03491.7 -07.6396 26264.8
 05 09 2013  09 34  -20.9690 26031.7 -03491.7 -07.6397 26264.9
 05 09 2013  09 35  -20.9692 26031.9 -03491.9 -07.6399 26265.1
 05 09 2013  09 36  -20.9693 26032.0 -03491.9 -07.6399 26265.1
 05 09 2013  09 37  -20.9695 26032.0 -03491.9 -07.6399 26265.1
 05 09 2013  09 38  -20.9699 26031.9 -03491.9 -07.6399 26265.0
 05 09 2013  09 39  -20.9702 26031.9 -03491.9 -07.6400 26265.0
 05 09 2013  09 40  -20.9703 26031.9 -03491.9 -07.6400 26265.1
 05 09 2013  09 41  -20.9707 26031.9 -03491.9 -07.6400 26265.0
 05 09 2013  09 42  -20.9711 26031.8 -03491.9 -07.6399 26265.0
 05 09 2013  09 43  -20.9717 26031.8 -03491.9 -07.6400 26264.9
 05 09 2013  09 44  -20.9719 26031.7 -03491.8 -07.6399 26264.8
 05 09 2013  09 45  -20.9719 26031.7 -03491.8 -07.6398 26264.8
 05 09 2013  09 46  -20.9720 26031.6 -03491.8 -07.6398 26264.7
 05 09 2013  09 47  -20.9727 26031.5 -03491.7 -07.6398 26264.7
 05 09 2013  09 48  -20.9738 26031.7 -03491.9 -07.6400 26264.9
 05 09 2013  09 49  -20.9749 26032.1 -03492.1 -07.6404 26265.3
 05 09 2013  09 50  -20.9755 26032.4 -03492.3 -07.6406 26265.6
 05 09 2013  09 51  -20.9755 26032.8 -03492.4 -07.6408 26266.0
 05 09 2013  09 52  -20.9757 26033.2 -03492.5 -07.6409 26266.4
 05 09 2013  09 53  -20.9757 26033.6 -03492.6 -07.6410 26266.8
 05 09 2013  09 54  -20.9761 26033.7 -03492.5 -07.6408 26266.9
 05 09 2013  09 55  -20.9770 26033.7 -03492.5 -07.6407 26266.9
 05 09 2013  09 56  -20.9784 26033.8 -03492.5 -07.6407 26267.0
 05 09 2013  09 57  -20.9791 26033.7 -03492.4 -07.6406 26266.9
 05 09 2013  09 58  -20.9796 26033.6 -03492.3 -07.6404 26266.8
 05 09 2013  09 59  -20.9802 26033.6 -03492.3 -07.6404 26266.8
 05 09 2013  10 00  -20.9807 26033.7 -03492.3 -07.6404 26266.9
 05 09 2013  10 01  -20.9813 26033.8 -03492.3 -07.6404 26267.0
 05 09 2013  10 02  -20.9820 26033.8 -03492.3 -07.6404 26267.0
 05 09 2013  10 03  -20.9828 26034.0 -03492.4 -07.6405 26267.2
 05 09 2013  10 04  -20.9836 26034.3 -03492.5 -07.6406 26267.5
 05 09 2013  10 05  -20.9845 26034.4 -03492.6 -07.6407 26267.7
 05 09 2013  10 06  -20.9851 26034.6 -03492.6 -07.6406 26267.8
 05 09 2013  10 07  -20.9854 26034.9 -03492.6 -07.6407 26268.1
 05 09 2013  10 08  -20.9859 26035.4 -03492.8 -07.6409 26268.7
 05 09 2013  10 09  -20.9863 26036.2 -03493.1 -07.6414 26269.5
 05 09 2013  10 10  -20.9865 26037.0 -03493.3 -07.6416 26270.3
 05 09 2013  10 11  -20.9866 26037.5 -03493.3 -07.6414 26270.8
 05 09 2013  10 12  -20.9863 26037.8 -03493.1 -07.6409 26271.1
 05 09 2013  10 13  -20.9861 26037.8 -03492.8 -07.6403 26271.0
 05 09 2013  10 14  -20.9864 26037.9 -03492.6 -07.6398 26271.1
 05 09 2013  10 15  -20.9873 26038.2 -03492.7 -07.6398 26271.4
 05 09 2013  10 16  -20.9881 26038.7 -03492.8 -07.6399 26271.9
 05 09 2013  10 17  -20.9887 26039.0 -03492.8 -07.6398 26272.2
 05 09 2013  10 18  -20.9888 26039.3 -03492.7 -07.6395 26272.5
 05 09 2013  10 19  -20.9887 26039.4 -03492.5 -07.6392 26272.6
 05 09 2013  10 20  -20.9888 26039.6 -03492.4 -07.6388 26272.7
 05 09 2013  10 21  -20.9893 26039.7 -03492.3 -07.6386 26272.9
 05 09 2013  10 22  -20.9900 26040.0 -03492.4 -07.6387 26273.2
 05 09 2013  10 23  -20.9904 26040.4 -03492.4 -07.6387 26273.5
 05 09 2013  10 24  -20.9907 26040.7 -03492.4 -07.6384 26273.8
 05 09 2013  10 25  -20.9912 26040.9 -03492.3 -07.6383 26274.0
 05 09 2013  10 26  -20.9916 26041.1 -03492.2 -07.6381 26274.2
 05 09 2013  10 27  -20.9919 26041.4 -03492.2 -07.6380 26274.5
 05 09 2013  10 28  -20.9924 26041.7 -03492.2 -07.6379 26274.8
 05 09 2013  10 29  -20.9930 26042.2 -03492.3 -07.6379 26275.3
 05 09 2013  10 30  -20.9933 26042.6 -03492.3 -07.6378 26275.8
 05 09 2013  10 31  -20.9937 26042.9 -03492.3 -07.6376 26276.0
 05 09 2013  10 32  -20.9938 26043.3 -03492.2 -07.6373 26276.4
 05 09 2013  10 33  -20.9943 26043.6 -03492.1 -07.6371 26276.6
 05 09 2013  10 34  -20.9950 26043.8 -03492.1 -07.6370 26276.9
 05 09 2013  10 35  -20.9957 26044.0 -03492.0 -07.6367 26277.1
 05 09 2013  10 36  -20.9962 26044.5 -03492.0 -07.6366 26277.5
 05 09 2013  10 37  -20.9965 26044.9 -03492.0 -07.6365 26277.9
 05 09 2013  10 38  -20.9966 26045.3 -03491.9 -07.6361 26278.3
 05 09 2013  10 39  -20.9968 26045.7 -03491.8 -07.6358 26278.8
 05 09 2013  10 40  -20.9971 26046.1 -03491.7 -07.6355 26279.1
 05 09 2013  10 41  -20.9978 26046.4 -03491.6 -07.6352 26279.4
 05 09 2013  10 42  -20.9985 26046.8 -03491.5 -07.6349 26279.8
 05 09 2013  10 43  -20.9990 26047.1 -03491.3 -07.6343 26280.0
 05 09 2013  10 44  -20.9994 26047.4 -03491.1 -07.6339 26280.3
 05 09 2013  10 45  -21.0003 26047.6 -03491.0 -07.6334 26280.5
 05 09 2013  10 46  -21.0013 26047.9 -03490.8 -07.6331 26280.7
 05 09 2013  10 47  -21.0022 26048.4 -03490.8 -07.6328 26281.2
 05 09 2013  10 48  -21.0029 26048.8 -03490.7 -07.6324 26281.6
 05 09 2013  10 49  -21.0031 26049.3 -03490.5 -07.6319 26282.1
 05 09 2013  10 50  -21.0033 26049.5 -03490.2 -07.6312 26282.2
 05 09 2013  10 51  -21.0037 26049.8 -03490.0 -07.6307 26282.5
 05 09 2013  10 52  -21.0042 26050.0 -03489.8 -07.6303 26282.7
 05 09 2013  10 53  -21.0049 26050.3 -03489.7 -07.6300 26283.0
 05 09 2013  10 54  -21.0053 26050.8 -03489.7 -07.6297 26283.5
 05 09 2013  10 55  -21.0056 26051.4 -03489.6 -07.6293 26284.0
 05 09 2013  10 56  -21.0060 26051.6 -03489.4 -07.6288 26284.3
 05 09 2013  10 57  -21.0066 26051.7 -03489.1 -07.6282 26284.3
 05 09 2013  10 58  -21.0074 26051.7 -03488.9 -07.6277 26284.3
 05 09 2013  10 59  -21.0084 26051.9 -03488.8 -07.6275 26284.5
 05 09 2013  11 00  -21.0094 26052.3 -03488.8 -07.6274 26284.9
 05 09 2013  11 01  -21.0101 26053.1 -03488.9 -07.6273 26285.6
 05 09 2013  11 02  -21.0106 26053.7 -03488.8 -07.6271 26286.2
 05 09 2013  11 03  -21.0112 26054.3 -03488.8 -07.6267 26286.8
 05 09 2013  11 04  -21.0115 26054.9 -03488.6 -07.6262 26287.4
 05 09 2013  11 05  -21.0117 26055.0 -03488.3 -07.6254 26287.5
 05 09 2013  11 06  -21.0122 26055.1 -03488.0 -07.6248 26287.5
 05 09 2013  11 07  -21.0126 26055.3 -03487.8 -07.6243 26287.7
 05 09 2013  11 08  -21.0130 26055.8 -03487.7 -07.6239 26288.2
 05 09 2013  11 09  -21.0137 26056.2 -03487.6 -07.6236 26288.6
 05 09 2013  11 10  -21.0145 26056.7 -03487.5 -07.6233 26289.0
 05 09 2013  11 11  -21.0151 26057.1 -03487.4 -07.6230 26289.4
 05 09 2013  11 12  -21.0154 26057.3 -03487.1 -07.6224 26289.6
 05 09 2013  11 13  -21.0156 26057.7 -03487.0 -07.6219 26289.9
 05 09 2013  11 14  -21.0161 26058.1 -03486.9 -07.6217 26290.4
 05 09 2013  11 15  -21.0168 26058.5 -03486.8 -07.6213 26290.8
 05 09 2013  11 16  -21.0179 26059.1 -03486.8 -07.6211 26291.3
 05 09 2013  11 17  -21.0188 26059.7 -03486.7 -07.6208 26291.9
 05 09 2013  11 18  -21.0193 26060.2 -03486.6 -07.6204 26292.4
 05 09 2013  11 19  -21.0199 26060.5 -03486.4 -07.6199 26292.7
 05 09 2013  11 20  -21.0207 26060.7 -03486.2 -07.6193 26292.9
 05 09 2013  11 21  -21.0218 26061.2 -03486.1 -07.6190 26293.3
 05 09 2013  11 22  -21.0228 26061.8 -03486.1 -07.6188 26294.0
 05 09 2013  11 23  -21.0237 26062.7 -03486.2 -07.6187 26294.8
 05 09 2013  11 24  -21.0243 26063.6 -03486.2 -07.6185 26295.7
 05 09 2013  11 25  -21.0249 26064.3 -03486.1 -07.6181 26296.4
 05 09 2013  11 26  -21.0254 26065.0 -03486.0 -07.6177 26297.0
 05 09 2013  11 27  -21.0261 26065.1 -03485.7 -07.6170 26297.2
 05 09 2013  11 28  -21.0269 26065.0 -03485.3 -07.6162 26297.0
 05 09 2013  11 29  -21.0276 26065.0 -03485.0 -07.6156 26297.0
 05 09 2013  11 30  -21.0284 26065.2 -03484.9 -07.6152 26297.2
 05 09 2013  11 31  -21.0289 26065.7 -03484.8 -07.6148 26297.6
 05 09 2013  11 32  -21.0293 26065.9 -03484.5 -07.6143 26297.7
 05 09 2013  11 33  -21.0302 26065.7 -03484.2 -07.6135 26297.5
 05 09 2013  11 34  -21.0311 26065.6 -03483.9 -07.6130 26297.4
 05 09 2013  11 35  -21.0321 26065.7 -03483.8 -07.6126 26297.5
 05 09 2013  11 36  -21.0331 26065.8 -03483.6 -07.6122 26297.6
 05 09 2013  11 37  -21.0339 26065.9 -03483.4 -07.6118 26297.7
 05 09 2013  11 38  -21.0346 26066.3 -03483.3 -07.6116 26298.0
 05 09 2013  11 39  -21.0353 26066.7 -03483.3 -07.6113 26298.4
 05 09 2013  11 40  -21.0359 26066.8 -03483.1 -07.6109 26298.5
 05 09 2013  11 41  -21.0363 26066.9 -03482.9 -07.6105 26298.5
 05 09 2013  11 42  -21.0370 26066.8 -03482.7 -07.6101 26298.5
 05 09 2013  11 43  -21.0375 26067.4 -03482.8 -07.6100 26299.0
 05 09 2013  11 44  -21.0383 26068.3 -03483.0 -07.6103 26300.0
 05 09 2013  11 45  -21.0394 26069.5 -03483.3 -07.6106 26301.2
 05 09 2013  11 46  -21.0402 26070.9 -03483.7 -07.6109 26302.6
 05 09 2013  11 47  -21.0406 26072.0 -03483.8 -07.6108 26303.7
 05 09 2013  11 48  -21.0410 26073.1 -03483.8 -07.6105 26304.8
 05 09 2013  11 49  -21.0416 26074.7 -03484.0 -07.6105 26306.4
 05 09 2013  11 50  -21.0429 26076.6 -03484.2 -07.6104 26308.3
 05 09 2013  11 51  -21.0446 26079.3 -03484.7 -07.6106 26311.1
 05 09 2013  11 52  -21.0453 26081.1 -03484.4 -07.6096 26312.9
 05 09 2013  11 53  -21.0448 26081.3 -03483.5 -07.6075 26312.9
 05 09 2013  11 54  -21.0435 26079.3 -03481.8 -07.6044 26310.7
 05 09 2013  11 55  -21.0431 26076.9 -03480.4 -07.6022 26308.2
 05 09 2013  11 56  -21.0447 26076.9 -03480.4 -07.6022 26308.1
 05 09 2013  11 57  -21.0482 26078.6 -03481.2 -07.6033 26310.0
 05 09 2013  11 58  -21.0509 26079.6 -03481.2 -07.6032 26310.9
 05 09 2013  11 59  -21.0517 26078.8 -03480.4 -07.6017 26310.0
 05 09 2013  12 00  -21.0519 26077.3 -03479.5 -07.6001 26308.5
 05 09 2013  12 01  -21.0520 26076.0 -03478.8 -07.5989 26307.0
 05 09 2013  12 02  -21.0525 26076.3 -03478.9 -07.5991 26307.4
 05 09 2013  12 03  -21.0538 26077.4 -03479.3 -07.5997 26308.5
 05 09 2013  12 04  -21.0552 26078.5 -03479.5 -07.5998 26309.6
 05 09 2013  12 05  -21.0564 26079.1 -03479.4 -07.5994 26310.2
 05 09 2013  12 06  -21.0571 26078.9 -03478.9 -07.5983 26309.9
 05 09 2013  12 07  -21.0574 26078.2 -03478.2 -07.5970 26309.1
 05 09 2013  12 08  -21.0577 26077.7 -03477.8 -07.5963 26308.6
 05 09 2013  12 09  -21.0586 26078.1 -03477.9 -07.5964 26309.0
 05 09 2013  12 10  -21.0594 26079.2 -03478.2 -07.5967 26310.1
 05 09 2013  12 11  -21.0606 26080.6 -03478.5 -07.5969 26311.5
 05 09 2013  12 12  -21.0619 26081.6 -03478.4 -07.5966 26312.5
 05 09 2013  12 13  -21.0631 26082.3 -03478.2 -07.5959 26313.2
 05 09 2013  12 14  -21.0639 26082.4 -03477.7 -07.5948 26313.3
 05 09 2013  12 15  -21.0648 26082.2 -03477.1 -07.5936 26312.9
 05 09 2013  12 16  -21.0655 26082.1 -03476.7 -07.5926 26312.8
 05 09 2013  12 17  -21.0662 26082.5 -03476.5 -07.5920 26313.2
 05 09 2013  12 18  -21.0672 26083.0 -03476.3 -07.5915 26313.6
 05 09 2013  12 19  -21.0679 26083.5 -03476.1 -07.5910 26314.2
 05 09 2013  12 20  -21.0690 26084.2 -03476.0 -07.5905 26314.7
 05 09 2013  12 21  -21.0699 26084.6 -03475.7 -07.5898 26315.1
 05 09 2013  12 22  -21.0709 26085.0 -03475.4 -07.5891 26315.5
 05 09 2013  12 23  -21.0719 26085.2 -03475.1 -07.5884 26315.7
 05 09 2013  12 24  -21.0728 26085.7 -03474.9 -07.5877 26316.1
 05 09 2013  12 25  -21.0735 26086.0 -03474.5 -07.5868 26316.4
 05 09 2013  12 26  -21.0744 26086.2 -03474.2 -07.5861 26316.5
 05 09 2013  12 27  -21.0756 26087.0 -03474.1 -07.5856 26317.3
 05 09 2013  12 28  -21.0766 26087.3 -03473.7 -07.5848 26317.5
 05 09 2013  12 29  -21.0775 26087.4 -03473.3 -07.5839 26317.6
 05 09 2013  12 30  -21.0784 26087.5 -03473.0 -07.5830 26317.7
 05 09 2013  12 31  -21.0791 26087.9 -03472.7 -07.5824 26318.0
 05 09 2013  12 32  -21.0800 26088.5 -03472.6 -07.5819 26318.6
 05 09 2013  12 33  -21.0808 26088.6 -03472.2 -07.5812 26318.6
 05 09 2013  12 34  -21.0818 26089.2 -03472.1 -07.5807 26319.2
 05 09 2013  12 35  -21.0834 26090.4 -03472.1 -07.5804 26320.4
 05 09 2013  12 36  -21.0842 26089.5 -03471.2 -07.5786 26319.4
 05 09 2013  12 37  -21.0842 26087.7 -03470.0 -07.5766 26317.5
 05 09 2013  12 38  -21.0844 26087.0 -03469.5 -07.5757 26316.7
 05 09 2013  12 39  -21.0853 26087.9 -03469.8 -07.5760 26317.6
 05 09 2013  12 40  -21.0866 26088.8 -03470.0 -07.5762 26318.5
 05 09 2013  12 41  -21.0878 26089.1 -03469.9 -07.5759 26318.9
 05 09 2013  12 42  -21.0886 26090.1 -03470.0 -07.5758 26319.9
 05 09 2013  12 43  -21.0897 26090.5 -03469.8 -07.5753 26320.3
 05 09 2013  12 44  -21.0903 26091.1 -03469.6 -07.5747 26320.7
 05 09 2013  12 45  -21.0912 26091.3 -03469.3 -07.5741 26320.9
 05 09 2013  12 46  -21.0920 26091.4 -03468.9 -07.5733 26321.0
 05 09 2013  12 47  -21.0926 26091.5 -03468.6 -07.5725 26321.1
 05 09 2013  12 48  -21.0931 26091.5 -03468.2 -07.5717 26321.0
 05 09 2013  12 49  -21.0938 26091.7 -03467.9 -07.5710 26321.2
 05 09 2013  12 50  -21.0945 26091.8 -03467.6 -07.5702 26321.2
 05 09 2013  12 51  -21.0951 26091.9 -03467.3 -07.5695 26321.3
 05 09 2013  12 52  -21.0958 26092.2 -03467.0 -07.5688 26321.5
 05 09 2013  12 53  -21.0964 26091.9 -03466.5 -07.5679 26321.2
 05 09 2013  12 54  -21.0970 26092.6 -03466.4 -07.5674 26321.8
 05 09 2013  12 55  -21.0978 26092.6 -03466.0 -07.5667 26321.8
 05 09 2013  12 56  -21.0985 26093.1 -03465.8 -07.5661 26322.2
 05 09 2013  12 57  -21.0992 26093.4 -03465.6 -07.5655 26322.5
 05 09 2013  12 58  -21.0995 26093.3 -03465.2 -07.5645 26322.4
 05 09 2013  12 59  -21.1000 26093.4 -03464.8 -07.5638 26322.4
 05 09 2013  13 00  -21.1004 26093.5 -03464.5 -07.5630 26322.5
 05 09 2013  13 01  -21.1009 26093.9 -03464.3 -07.5624 26322.8
 05 09 2013  13 02  -21.1012 26094.0 -03463.9 -07.5617 26322.9
 05 09 2013  13 03  -21.1012 26094.2 -03463.6 -07.5609 26323.1
 05 09 2013  13 04  -21.1018 26094.8 -03463.5 -07.5604 26323.7
 05 09 2013  13 05  -21.1020 26094.7 -03463.0 -07.5595 26323.5
 05 09 2013  13 06  -21.1020 26095.0 -03462.7 -07.5587 26323.7
 05 09 2013  13 07  -21.1018 26095.1 -03462.3 -07.5579 26323.8
 05 09 2013  13 08  -21.1016 26095.3 -03462.0 -07.5571 26323.9
 05 09 2013  13 09  -21.1012 26095.1 -03461.5 -07.5561 26323.7
 05 09 2013  13 10  -21.1011 26095.1 -03461.1 -07.5552 26323.6
 05 09 2013  13 11  -21.1010 26094.9 -03460.7 -07.5544 26323.4
 05 09 2013  13 12  -21.1008 26094.9 -03460.4 -07.5537 26323.3
 05 09 2013  13 13  -21.1006 26094.9 -03460.0 -07.5530 26323.3
 05 09 2013  13 14  -21.1001 26094.9 -03459.7 -07.5523 26323.2
 05 09 2013  13 15  -21.0995 26094.8 -03459.3 -07.5516 26323.1
 05 09 2013  13 16  -21.0991 26094.6 -03459.0 -07.5510 26322.9
 05 09 2013  13 17  -21.0986 26094.8 -03458.9 -07.5506 26323.1
 05 09 2013  13 18  -21.0984 26095.1 -03458.8 -07.5503 26323.3
 05 09 2013  13 19  -21.0981 26095.4 -03458.6 -07.5499 26323.6
 05 09 2013  13 20  -21.0976 26095.5 -03458.5 -07.5494 26323.7
 05 09 2013  13 21  -21.0970 26095.5 -03458.1 -07.5488 26323.6
 05 09 2013  13 22  -21.0966 26095.6 -03458.0 -07.5484 26323.7
 05 09 2013  13 23  -21.0961 26095.7 -03457.8 -07.5479 26323.8
 05 09 2013  13 24  -21.0955 26095.7 -03457.5 -07.5473 26323.8
 05 09 2013  13 25  -21.0947 26095.6 -03457.2 -07.5468 26323.6
 05 09 2013  13 26  -21.0942 26095.8 -03457.1 -07.5465 26323.8
 05 09 2013  13 27  -21.0937 26096.1 -03457.1 -07.5463 26324.1
 05 09 2013  13 28  -21.0931 26096.3 -03457.0 -07.5460 26324.3
 05 09 2013  13 29  -21.0924 26096.5 -03456.9 -07.5457 26324.4
 05 09 2013  13 30  -21.0916 26096.7 -03456.7 -07.5454 26324.6
 05 09 2013  13 31  -21.0912 26096.8 -03456.6 -07.5451 26324.7
 05 09 2013  13 32  -21.0904 26096.9 -03456.5 -07.5448 26324.8
 05 09 2013  13 33  -21.0897 26097.0 -03456.4 -07.5445 26324.9
 05 09 2013  13 34  -21.0891 26097.2 -03456.3 -07.5443 26325.1
 05 09 2013  13 35  -21.0884 26097.3 -03456.2 -07.5441 26325.2
 05 09 2013  13 36  -21.0877 26097.1 -03456.0 -07.5437 26324.9
 05 09 2013  13 37  -21.0869 26097.0 -03455.8 -07.5434 26324.8
 05 09 2013  13 38  -21.0862 26097.0 -03455.8 -07.5432 26324.8
 05 09 2013  13 39  -21.0854 26097.0 -03455.7 -07.5431 26324.8
 05 09 2013  13 40  -21.0847 26096.8 -03455.6 -07.5429 26324.6
 05 09 2013  13 41  -21.0841 26096.6 -03455.5 -07.5428 26324.4
 05 09 2013  13 42  -21.0832 26096.3 -03455.4 -07.5426 26324.1
 05 09 2013  13 43  -21.0825 26096.2 -03455.4 -07.5426 26324.0
 05 09 2013  13 44  -21.0819 26096.4 -03455.5 -07.5428 26324.2
 05 09 2013  13 45  -21.0816 26096.5 -03455.6 -07.5429 26324.3
 05 09 2013  13 46  -21.0812 26096.4 -03455.6 -07.5429 26324.2
 05 09 2013  13 47  -21.0807 26096.1 -03455.5 -07.5428 26323.9
 05 09 2013  13 48  -21.0803 26096.0 -03455.5 -07.5430 26323.8
 05 09 2013  13 49  -21.0801 26096.0 -03455.6 -07.5432 26323.8
 05 09 2013  13 50  -21.0799 26095.9 -03455.7 -07.5433 26323.7
 05 09 2013  13 51  -21.0796 26095.6 -03455.7 -07.5434 26323.4
 05 09 2013  13 52  -21.0793 26095.3 -03455.6 -07.5434 26323.1
 05 09 2013  13 53  -21.0792 26095.2 -03455.7 -07.5436 26323.1
 05 09 2013  13 54  -21.0789 26095.3 -03455.8 -07.5439 26323.1
 05 09 2013  13 55  -21.0785 26095.0 -03455.9 -07.5440 26322.8
 05 09 2013  13 56  -21.0781 26094.5 -03455.8 -07.5441 26322.3
 05 09 2013  13 57  -21.0778 26094.6 -03456.1 -07.5446 26322.5
 05 09 2013  13 58  -21.0779 26095.0 -03456.4 -07.5451 26322.9
 05 09 2013  13 59  -21.0780 26095.3 -03456.6 -07.5454 26323.2
 05 09 2013  14 00  -21.0779 26095.1 -03456.5 -07.5454 26323.0
 05 09 2013  14 01  -21.0774 26094.9 -03456.5 -07.5453 26322.8
 05 09 2013  14 02  -21.0771 26094.9 -03456.5 -07.5455 26322.8
 05 09 2013  14 03  -21.0770 26094.9 -03456.7 -07.5457 26322.9
 05 09 2013  14 04  -21.0770 26095.0 -03456.8 -07.5459 26323.0
 05 09 2013  14 05  -21.0767 26094.8 -03456.7 -07.5458 26322.8
 05 09 2013  14 06  -21.0765 26094.7 -03456.7 -07.5458 26322.6
 05 09 2013  14 07  -21.0763 26094.5 -03456.7 -07.5459 26322.4
 05 09 2013  14 08  -21.0759 26094.1 -03456.6 -07.5458 26322.0
 05 09 2013  14 09  -21.0755 26093.8 -03456.5 -07.5458 26321.7
 05 09 2013  14 10  -21.0752 26093.6 -03456.6 -07.5460 26321.5
 05 09 2013  14 11  -21.0746 26093.3 -03456.6 -07.5460 26321.2
 05 09 2013  14 12  -21.0739 26093.3 -03456.7 -07.5464 26321.3
 05 09 2013  14 13  -21.0737 26093.6 -03457.0 -07.5468 26321.6
 05 09 2013  14 14  -21.0735 26093.5 -03457.0 -07.5468 26321.5
 05 09 2013  14 15  -21.0733 26093.6 -03457.1 -07.5470 26321.7
 05 09 2013  14 16  -21.0728 26093.4 -03456.9 -07.5468 26321.4
 05 09 2013  14 17  -21.0723 26093.3 -03456.9 -07.5467 26321.3
 05 09 2013  14 18  -21.0721 26093.3 -03456.9 -07.5467 26321.3
 05 09 2013  14 19  -21.0716 26093.0 -03456.7 -07.5464 26321.0
 05 09 2013  14 20  -21.0712 26092.8 -03456.6 -07.5462 26320.8
 05 09 2013  14 21  -21.0708 26092.8 -03456.6 -07.5462 26320.8
 05 09 2013  14 22  -21.0705 26092.7 -03456.5 -07.5460 26320.6
 05 09 2013  14 23  -21.0700 26092.4 -03456.3 -07.5457 26320.3
 05 09 2013  14 24  -21.0693 26091.9 -03456.2 -07.5455 26319.8
 05 09 2013  14 25  -21.0686 26091.3 -03456.0 -07.5453 26319.2
 05 09 2013  14 26  -21.0679 26090.8 -03455.9 -07.5453 26318.7
 05 09 2013  14 27  -21.0674 26090.4 -03455.9 -07.5453 26318.3
 05 09 2013  14 28  -21.0667 26090.3 -03456.0 -07.5456 26318.2
 05 09 2013  14 29  -21.0663 26090.3 -03456.2 -07.5461 26318.3
 05 09 2013  14 30  -21.0660 26090.6 -03456.4 -07.5465 26318.5
 05 09 2013  14 31  -21.0660 26091.1 -03456.7 -07.5469 26319.1
 05 09 2013  14 32  -21.0660 26091.4 -03456.8 -07.5470 26319.4
 05 09 2013  14 33  -21.0660 26091.6 -03456.8 -07.5469 26319.6
 05 09 2013  14 34  -21.0656 26091.6 -03456.7 -07.5467 26319.6
 05 09 2013  14 35  -21.0651 26091.6 -03456.6 -07.5466 26319.6
 05 09 2013  14 36  -21.0647 26091.8 -03456.7 -07.5466 26319.7
 05 09 2013  14 37  -21.0646 26091.9 -03456.7 -07.5466 26319.9
 05 09 2013  14 38  -21.0642 26091.5 -03456.5 -07.5463 26319.5
 05 09 2013  14 39  -21.0636 26091.1 -03456.3 -07.5460 26319.0
 05 09 2013  14 40  -21.0631 26090.5 -03456.1 -07.5458 26318.4
 05 09 2013  14 41  -21.0625 26089.8 -03456.0 -07.5458 26317.7
 05 09 2013  14 42  -21.0620 26089.4 -03456.1 -07.5460 26317.3
 05 09 2013  14 43  -21.0615 26088.8 -03456.1 -07.5462 26316.7
 05 09 2013  14 44  -21.0609 26088.4 -03456.2 -07.5465 26316.4
 05 09 2013  14 45  -21.0603 26088.0 -03456.3 -07.5469 26316.0
 05 09 2013  14 46  -21.0597 26087.4 -03456.3 -07.5471 26315.4
 05 09 2013  14 47  -21.0592 26086.7 -03456.4 -07.5475 26314.7
 05 09 2013  14 48  -21.0586 26086.2 -03456.7 -07.5482 26314.2
 05 09 2013  14 49  -21.0585 26086.1 -03457.1 -07.5491 26314.1
 05 09 2013  14 50  -21.0584 26086.0 -03457.4 -07.5499 26314.1
 05 09 2013  14 51  -21.0585 26086.0 -03457.8 -07.5507 26314.2
 05 09 2013  14 52  -21.0583 26085.6 -03458.0 -07.5512 26313.8
 05 09 2013  14 53  -21.0578 26085.6 -03458.2 -07.5518 26313.8
 05 09 2013  14 54  -21.0582 26085.5 -03458.5 -07.5524 26313.7
 05 09 2013  14 55  -21.0582 26085.2 -03458.7 -07.5530 26313.5
 05 09 2013  14 56  -21.0582 26085.1 -03459.0 -07.5536 26313.4
 05 09 2013  14 57  -21.0586 26084.9 -03459.2 -07.5542 26313.3
 05 09 2013  14 58  -21.0587 26084.6 -03459.4 -07.5545 26313.0
 05 09 2013  14 59  -21.0590 26084.5 -03459.6 -07.5551 26312.9
 05 09 2013  15 00  -21.0594 26084.3 -03459.8 -07.5555 26312.8
 05 09 2013  15 01  -21.0600 26084.2 -03460.0 -07.5559 26312.7
 05 09 2013  15 02  -21.0605 26083.3 -03459.8 -07.5558 26311.8
 05 09 2013  15 03  -21.0606 26082.5 -03459.7 -07.5559 26310.9
 05 09 2013  15 04  -21.0597 26081.3 -03459.6 -07.5560 26309.7
 05 09 2013  15 05  -21.0586 26080.7 -03459.8 -07.5566 26309.2
 05 09 2013  15 06  -21.0585 26080.8 -03460.3 -07.5577 26309.3
 05 09 2013  15 07  -21.0593 26081.5 -03461.0 -07.5589 26310.1
 05 09 2013  15 08  -21.0599 26081.8 -03461.4 -07.5597 26310.5
 05 09 2013  15 09  -21.0595 26081.5 -03461.5 -07.5599 26310.2
 05 09 2013  15 10  -21.0592 26081.4 -03461.6 -07.5603 26310.1
 05 09 2013  15 11  -21.0588 26081.3 -03461.8 -07.5607 26310.0
 05 09 2013  15 12  -21.0585 26081.3 -03462.0 -07.5612 26310.0
 05 09 2013  15 13  -21.0583 26080.8 -03462.1 -07.5614 26309.6
 05 09 2013  15 14  -21.0577 26080.2 -03462.0 -07.5616 26309.0
 05 09 2013  15 15  -21.0572 26079.5 -03462.1 -07.5619 26308.3
 05 09 2013  15 16  -21.0568 26079.2 -03462.4 -07.5627 26308.0
 05 09 2013  15 17  -21.0565 26078.8 -03462.7 -07.5634 26307.7
 05 09 2013  15 18  -21.0560 26078.4 -03463.0 -07.5641 26307.3
 05 09 2013  15 19  -21.0554 26078.0 -03463.3 -07.5650 26307.0
 05 09 2013  15 20  -21.0551 26078.0 -03463.8 -07.5661 26307.0
 05 09 2013  15 21  -21.0553 26078.0 -03464.3 -07.5672 26307.1
 05 09 2013  15 22  -21.0555 26077.9 -03464.7 -07.5680 26307.1
 05 09 2013  15 23  -21.0557 26077.5 -03464.9 -07.5686 26306.7
 05 09 2013  15 24  -21.0555 26077.1 -03465.2 -07.5693 26306.3
 05 09 2013  15 25  -21.0556 26077.0 -03465.6 -07.5702 26306.3
 05 09 2013  15 26  -21.0562 26077.0 -03466.0 -07.5711 26306.4
 05 09 2013  15 27  -21.0566 26076.7 -03466.2 -07.5715 26306.1
 05 09 2013  15 28  -21.0567 26076.3 -03466.4 -07.5720 26305.7
 05 09 2013  15 29  -21.0568 26076.0 -03466.6 -07.5727 26305.5
 05 09 2013  15 30  -21.0571 26075.9 -03466.9 -07.5733 26305.4
 05 09 2013  15 31  -21.0576 26075.7 -03467.1 -07.5738 26305.2
 05 09 2013  15 32  -21.0581 26075.2 -03467.2 -07.5740 26304.7
 05 09 2013  15 33  -21.0585 26074.6 -03467.2 -07.5742 26304.1
 05 09 2013  15 34  -21.0585 26073.8 -03467.1 -07.5744 26303.3
 05 09 2013  15 35  -21.0583 26073.2 -03467.2 -07.5747 26302.7
 05 09 2013  15 36  -21.0582 26072.7 -03467.4 -07.5753 26302.3
 05 09 2013  15 37  -21.0583 26072.3 -03467.6 -07.5759 26301.9
 05 09 2013  15 38  -21.0584 26072.1 -03467.8 -07.5764 26301.7
 05 09 2013  15 39  -21.0585 26072.0 -03468.1 -07.5769 26301.6
 05 09 2013  15 40  -21.0588 26072.1 -03468.4 -07.5775 26301.8
 05 09 2013  15 41  -21.0595 26071.9 -03468.4 -07.5777 26301.5
 05 09 2013  15 42  -21.0595 26071.5 -03468.3 -07.5776 26301.2
 05 09 2013  15 43  -21.0594 26071.3 -03468.4 -07.5778 26301.0
 05 09 2013  15 44  -21.0596 26071.4 -03468.5 -07.5781 26301.1
 05 09 2013  15 45  -21.0597 26071.2 -03468.6 -07.5782 26301.0
 05 09 2013  15 46  -21.0593 26071.0 -03468.4 -07.5780 26300.7
 05 09 2013  15 47  -21.0586 26070.5 -03468.3 -07.5779 26300.2
 05 09 2013  15 48  -21.0581 26070.2 -03468.3 -07.5779 26299.9
 05 09 2013  15 49  -21.0578 26069.9 -03468.2 -07.5778 26299.6
 05 09 2013  15 50  -21.0576 26069.6 -03468.1 -07.5778 26299.3
 05 09 2013  15 51  -21.0568 26068.9 -03468.0 -07.5776 26298.6
 05 09 2013  15 52  -21.0558 26068.1 -03467.8 -07.5774 26297.7
 05 09 2013  15 53  -21.0548 26067.6 -03467.8 -07.5776 26297.2
 05 09 2013  15 54  -21.0541 26067.2 -03467.9 -07.5779 26296.9
 05 09 2013  15 55  -21.0533 26067.0 -03468.0 -07.5782 26296.7
 05 09 2013  15 56  -21.0526 26066.9 -03468.2 -07.5786 26296.6
 05 09 2013  15 57  -21.0522 26066.6 -03468.2 -07.5789 26296.3
 05 09 2013  15 58  -21.0514 26066.1 -03468.2 -07.5789 26295.9
 05 09 2013  15 59  -21.0503 26065.7 -03468.2 -07.5790 26295.4
 05 09 2013  16 00  -21.0494 26065.1 -03468.2 -07.5792 26294.8
 05 09 2013  16 01  -21.0486 26064.9 -03468.4 -07.5797 26294.6
 05 09 2013  16 02  -21.0476 26064.3 -03468.5 -07.5801 26294.1
 05 09 2013  16 03  -21.0465 26063.9 -03468.7 -07.5806 26293.7
 05 09 2013  16 04  -21.0455 26063.6 -03468.9 -07.5812 26293.5
 05 09 2013  16 05  -21.0446 26063.1 -03469.1 -07.5816 26293.0
 05 09 2013  16 06  -21.0433 26062.7 -03469.3 -07.5822 26292.6
 05 09 2013  16 07  -21.0422 26062.5 -03469.6 -07.5830 26292.4
 05 09 2013  16 08  -21.0417 26062.1 -03469.9 -07.5837 26292.0
 05 09 2013  16 09  -21.0408 26062.0 -03470.3 -07.5845 26292.1
 05 09 2013  16 10  -21.0400 26061.9 -03470.5 -07.5852 26292.0
 05 09 2013  16 11  -21.0391 26061.6 -03470.8 -07.5858 26291.7
 05 09 2013  16 12  -21.0383 26061.3 -03471.1 -07.5864 26291.5
 05 09 2013  16 13  -21.0373 26061.3 -03471.4 -07.5872 26291.5
 05 09 2013  16 14  -21.0364 26060.6 -03471.6 -07.5878 26290.9
 05 09 2013  16 15  -21.0355 26060.6 -03471.9 -07.5886 26290.8
 05 09 2013  16 16  -21.0355 26060.8 -03472.5 -07.5897 26291.1
 05 09 2013  16 17  -21.0347 26059.4 -03472.3 -07.5897 26289.7
 05 09 2013  16 18  -21.0337 26059.4 -03472.8 -07.5907 26289.8
 05 09 2013  16 19  -21.0333 26059.2 -03473.2 -07.5917 26289.7
 05 09 2013  16 20  -21.0325 26058.8 -03473.5 -07.5924 26289.2
 05 09 2013  16 21  -21.0324 26058.9 -03474.0 -07.5936 26289.5
 05 09 2013  16 22  -21.0316 26058.0 -03474.0 -07.5938 26288.6
 05 09 2013  16 23  -21.0309 26057.8 -03474.4 -07.5948 26288.4
 05 09 2013  16 24  -21.0307 26057.8 -03474.9 -07.5958 26288.4
 05 09 2013  16 25  -21.0305 26057.3 -03475.2 -07.5964 26288.1
 05 09 2013  16 26  -21.0302 26057.3 -03475.6 -07.5973 26288.1
 05 09 2013  16 27  -21.0304 26057.3 -03475.9 -07.5982 26288.1
 05 09 2013  16 28  -21.0303 26056.9 -03476.1 -07.5985 26287.8
 05 09 2013  16 29  -21.0303 26057.0 -03476.4 -07.5992 26287.9
 05 09 2013  16 30  -21.0300 26056.7 -03476.6 -07.5997 26287.6
 05 09 2013  16 31  -21.0300 26056.8 -03476.9 -07.6004 26287.8
 05 09 2013  16 32  -21.0301 26056.7 -03477.2 -07.6009 26287.7
 05 09 2013  16 33  -21.0298 26056.3 -03477.2 -07.6011 26287.3
 05 09 2013  16 34  -21.0294 26056.0 -03477.3 -07.6014 26287.0
 05 09 2013  16 35  -21.0291 26055.6 -03477.4 -07.6017 26286.6
 05 09 2013  16 36  -21.0289 26055.2 -03477.4 -07.6020 26286.3
 05 09 2013  16 37  -21.0286 26054.7 -03477.5 -07.6022 26285.7
 05 09 2013  16 38  -21.0279 26054.2 -03477.6 -07.6026 26285.2
 05 09 2013  16 39  -21.0274 26053.8 -03477.8 -07.6031 26284.9
 05 09 2013  16 40  -21.0272 26053.7 -03478.0 -07.6037 26284.8
 05 09 2013  16 41  -21.0269 26053.5 -03478.2 -07.6041 26284.7
 05 09 2013  16 42  -21.0266 26053.2 -03478.2 -07.6043 26284.4
 05 09 2013  16 43  -21.0261 26052.8 -03478.3 -07.6045 26283.9
 05 09 2013  16 44  -21.0256 26052.4 -03478.4 -07.6048 26283.5
 05 09 2013  16 45  -21.0251 26052.0 -03478.5 -07.6052 26283.2
 05 09 2013  16 46  -21.0246 26051.7 -03478.7 -07.6057 26283.0
 05 09 2013  16 47  -21.0243 26051.5 -03478.9 -07.6061 26282.7
 05 09 2013  16 48  -21.0237 26051.2 -03479.0 -07.6066 26282.5
 05 09 2013  16 49  -21.0231 26051.0 -03479.2 -07.6071 26282.3
 05 09 2013  16 50  -21.0226 26050.7 -03479.4 -07.6076 26282.0
 05 09 2013  16 51  -21.0219 26050.4 -03479.6 -07.6080 26281.7
 05 09 2013  16 52  -21.0216 26050.3 -03479.9 -07.6086 26281.7
 05 09 2013  16 53  -21.0217 26050.4 -03480.2 -07.6093 26281.8
 05 09 2013  16 54  -21.0219 26050.2 -03480.3 -07.6097 26281.7
 05 09 2013  16 55  -21.0216 26049.8 -03480.3 -07.6098 26281.3
 05 09 2013  16 56  -21.0212 26049.4 -03480.4 -07.6101 26280.9
 05 09 2013  16 57  -21.0210 26049.0 -03480.5 -07.6105 26280.5
 05 09 2013  16 58  -21.0210 26048.8 -03480.8 -07.6110 26280.3
 05 09 2013  16 59  -21.0210 26048.6 -03480.9 -07.6115 26280.1
 05 09 2013  17 00  -21.0211 26048.4 -03481.1 -07.6119 26280.0
 05 09 2013  17 01  -21.0212 26048.1 -03481.2 -07.6122 26279.7
 05 09 2013  17 02  -21.0214 26047.8 -03481.3 -07.6125 26279.4
 05 09 2013  17 03  -21.0214 26047.5 -03481.4 -07.6128 26279.1
 05 09 2013  17 04  -21.0217 26047.2 -03481.5 -07.6130 26278.8
 05 09 2013  17 05  -21.0219 26047.0 -03481.6 -07.6134 26278.7
 05 09 2013  17 06  -21.0220 26047.0 -03481.8 -07.6137 26278.7
 05 09 2013  17 07  -21.0221 26046.9 -03481.9 -07.6140 26278.6
 05 09 2013  17 08  -21.0219 26046.6 -03481.9 -07.6140 26278.3
 05 09 2013  17 09  -21.0218 26046.3 -03481.9 -07.6141 26278.0
 05 09 2013  17 10  -21.0218 26046.1 -03482.0 -07.6144 26277.8
 05 09 2013  17 11  -21.0220 26045.9 -03482.0 -07.6146 26277.6
 05 09 2013  17 12  -21.0221 26045.7 -03482.1 -07.6148 26277.4
 05 09 2013  17 13  -21.0221 26045.5 -03482.1 -07.6150 26277.2
 05 09 2013  17 14  -21.0221 26045.2 -03482.2 -07.6151 26277.0
 05 09 2013  17 15  -21.0220 26045.1 -03482.3 -07.6154 26276.8
 05 09 2013  17 16  -21.0220 26044.9 -03482.4 -07.6156 26276.7
 05 09 2013  17 17  -21.0220 26044.8 -03482.5 -07.6159 26276.6
 05 09 2013  17 18  -21.0218 26044.7 -03482.6 -07.6161 26276.5
 05 09 2013  17 19  -21.0214 26044.4 -03482.6 -07.6163 26276.2
 05 09 2013  17 20  -21.0211 26044.1 -03482.6 -07.6164 26275.9
 05 09 2013  17 21  -21.0208 26043.8 -03482.6 -07.6165 26275.6
 05 09 2013  17 22  -21.0203 26043.5 -03482.7 -07.6167 26275.3
 05 09 2013  17 23  -21.0199 26043.2 -03482.7 -07.6168 26275.0
 05 09 2013  17 24  -21.0199 26043.1 -03482.9 -07.6172 26274.9
 05 09 2013  17 25  -21.0201 26043.0 -03482.9 -07.6174 26274.9
 05 09 2013  17 26  -21.0197 26042.6 -03482.8 -07.6173 26274.5
 05 09 2013  17 27  -21.0192 26042.1 -03482.7 -07.6172 26274.0
 05 09 2013  17 28  -21.0184 26041.4 -03482.7 -07.6172 26273.2
 05 09 2013  17 29  -21.0178 26040.8 -03482.7 -07.6174 26272.7
 05 09 2013  17 30  -21.0177 26040.8 -03482.9 -07.6180 26272.7
 05 09 2013  17 31  -21.0175 26040.9 -03483.1 -07.6184 26272.8
 05 09 2013  17 32  -21.0168 26040.6 -03483.2 -07.6187 26272.5
 05 09 2013  17 33  -21.0161 26040.2 -03483.2 -07.6188 26272.1
 05 09 2013  17 34  -21.0155 26040.0 -03483.3 -07.6191 26271.9
 05 09 2013  17 35  -21.0154 26039.8 -03483.4 -07.6194 26271.8
 05 09 2013  17 36  -21.0153 26039.8 -03483.6 -07.6197 26271.7
 05 09 2013  17 37  -21.0149 26039.9 -03483.7 -07.6200 26271.9
 05 09 2013  17 38  -21.0147 26039.2 -03483.7 -07.6201 26271.2
 05 09 2013  17 39  -21.0141 26039.1 -03483.8 -07.6205 26271.1
 05 09 2013  17 40  -21.0141 26039.2 -03484.1 -07.6209 26271.3
 05 09 2013  17 41  -21.0136 26038.8 -03484.0 -07.6210 26270.8
 05 09 2013  17 42  -21.0129 26038.4 -03484.0 -07.6211 26270.4
 05 09 2013  17 43  -21.0127 26038.0 -03484.1 -07.6214 26270.1
 05 09 2013  17 44  -21.0125 26037.7 -03484.2 -07.6216 26269.8
 05 09 2013  17 45  -21.0121 26037.3 -03484.3 -07.6219 26269.4
 05 09 2013  17 46  -21.0115 26037.1 -03484.4 -07.6222 26269.2
 05 09 2013  17 47  -21.0114 26037.1 -03484.6 -07.6227 26269.2
 05 09 2013  17 48  -21.0111 26036.6 -03484.6 -07.6229 26268.7
 05 09 2013  17 49  -21.0112 26036.7 -03484.9 -07.6234 26268.9
 05 09 2013  17 50  -21.0109 26036.5 -03484.9 -07.6236 26268.7
 05 09 2013  17 51  -21.0103 26036.1 -03484.9 -07.6237 26268.3
 05 09 2013  17 52  -21.0097 26035.7 -03484.9 -07.6238 26267.9
 05 09 2013  17 53  -21.0093 26035.7 -03485.2 -07.6244 26268.0
 05 09 2013  17 54  -21.0092 26036.0 -03485.5 -07.6250 26268.3
 05 09 2013  17 55  -21.0090 26036.2 -03485.7 -07.6253 26268.5
 05 09 2013  17 56  -21.0085 26036.0 -03485.6 -07.6251 26268.3
 05 09 2013  17 57  -21.0078 26035.6 -03485.5 -07.6250 26267.9
 05 09 2013  17 58  -21.0071 26035.2 -03485.4 -07.6250 26267.5
 05 09 2013  17 59  -21.0069 26035.0 -03485.5 -07.6252 26267.3
 05 09 2013  18 00  -21.0064 26034.8 -03485.5 -07.6253 26267.0
 05 09 2013  18 01  -21.0060 26034.7 -03485.6 -07.6256 26267.0
 05 09 2013  18 02  -21.0054 26034.5 -03485.7 -07.6259 26266.8
 05 09 2013  18 03  -21.0052 26034.7 -03485.9 -07.6263 26267.1
 05 09 2013  18 04  -21.0049 26034.7 -03486.1 -07.6265 26267.0
 05 09 2013  18 05  -21.0043 26034.7 -03486.1 -07.6266 26267.0
 05 09 2013  18 06  -21.0040 26034.7 -03486.1 -07.6267 26267.1
 05 09 2013  18 07  -21.0036 26034.5 -03486.1 -07.6268 26266.9
 05 09 2013  18 08  -21.0029 26034.5 -03486.2 -07.6269 26266.9
 05 09 2013  18 09  -21.0025 26034.3 -03486.2 -07.6269 26266.7
 05 09 2013  18 10  -21.0024 26034.4 -03486.3 -07.6271 26266.8
 05 09 2013  18 11  -21.0027 26034.4 -03486.3 -07.6271 26266.8
 05 09 2013  18 12  -21.0022 26034.4 -03486.3 -07.6271 26266.7
 05 09 2013  18 13  -21.0019 26034.2 -03486.3 -07.6272 26266.6
 05 09 2013  18 14  -21.0021 26034.4 -03486.4 -07.6274 26266.8
 05 09 2013  18 15  -21.0020 26034.0 -03486.2 -07.6271 26266.4
 05 09 2013  18 16  -21.0025 26034.0 -03486.2 -07.6270 26266.4
 05 09 2013  18 17  -21.0024 26033.6 -03485.9 -07.6266 26266.0
 05 09 2013  18 18  -21.0020 26033.2 -03485.8 -07.6265 26265.6
 05 09 2013  18 19  -21.0014 26032.9 -03485.8 -07.6265 26265.2
 05 09 2013  18 20  -21.0016 26032.4 -03485.7 -07.6265 26264.8
 05 09 2013  18 21  -21.0014 26032.1 -03485.6 -07.6263 26264.4
 05 09 2013  18 22  -21.0014 26031.8 -03485.5 -07.6262 26264.1
 05 09 2013  18 23  -21.0013 26031.8 -03485.7 -07.6265 26264.2
 05 09 2013  18 24  -21.0014 26031.8 -03485.8 -07.6267 26264.1
 05 09 2013  18 25  -21.0012 26031.7 -03485.7 -07.6267 26264.1
 05 09 2013  18 26  -21.0011 26031.5 -03485.7 -07.6267 26263.9
 05 09 2013  18 27  -21.0013 26031.5 -03485.7 -07.6268 26263.8
 05 09 2013  18 28  -21.0016 26031.3 -03485.7 -07.6268 26263.7
 05 09 2013  18 29  -21.0013 26031.1 -03485.7 -07.6268 26263.4
 05 09 2013  18 30  -21.0012 26030.9 -03485.7 -07.6269 26263.3
 05 09 2013  18 31  -21.0015 26030.7 -03485.7 -07.6270 26263.1
 05 09 2013  18 32  -21.0007 26030.4 -03485.6 -07.6268 26262.8
 05 09 2013  18 33  -21.0004 26030.4 -03485.7 -07.6270 26262.7
 05 09 2013  18 34  -21.0004 26030.4 -03485.9 -07.6274 26262.7
 05 09 2013  18 35  -21.0006 26030.7 -03486.1 -07.6278 26263.1
 05 09 2013  18 36  -21.0009 26030.6 -03486.1 -07.6278 26263.0
 05 09 2013  18 37  -21.0007 26030.4 -03486.0 -07.6276 26262.8
 05 09 2013  18 38  -21.0008 26030.4 -03486.0 -07.6276 26262.8
 05 09 2013  18 39  -21.0005 26030.3 -03485.9 -07.6275 26262.7
 05 09 2013  18 40  -21.0009 26030.3 -03486.0 -07.6276 26262.7
 05 09 2013  18 41  -21.0006 26030.3 -03486.0 -07.6277 26262.7
 05 09 2013  18 42  -21.0008 26030.5 -03486.2 -07.6280 26262.9
 05 09 2013  18 43  -21.0009 26030.5 -03486.2 -07.6281 26263.0
 05 09 2013  18 44  -21.0014 26030.7 -03486.3 -07.6282 26263.1
 05 09 2013  18 45  -21.0016 26031.0 -03486.3 -07.6282 26263.4
 05 09 2013  18 46  -21.0017 26031.1 -03486.3 -07.6281 26263.5
 05 09 2013  18 47  -21.0017 26030.8 -03486.1 -07.6279 26263.2
 05 09 2013  18 48  -21.0018 26030.7 -03486.1 -07.6277 26263.1
 05 09 2013  18 49  -21.0016 26030.5 -03485.9 -07.6273 26262.9
 05 09 2013  18 50  -21.0012 26030.1 -03485.6 -07.6268 26262.4
 05 09 2013  18 51  -21.0004 26029.4 -03485.3 -07.6264 26261.7
 05 09 2013  18 52  -21.0001 26028.8 -03485.2 -07.6263 26261.1
 05 09 2013  18 53  -21.0010 26029.3 -03485.5 -07.6269 26261.6
 05 09 2013  18 54  -21.0020 26029.8 -03485.8 -07.6273 26262.2
 05 09 2013  18 55  -21.0026 26030.2 -03485.9 -07.6275 26262.6
 05 09 2013  18 56  -21.0029 26030.5 -03485.9 -07.6274 26262.8
 05 09 2013  18 57  -21.0029 26030.5 -03485.8 -07.6272 26262.9
 05 09 2013  18 58  -21.0027 26030.5 -03485.7 -07.6270 26262.9
 05 09 2013  18 59  -21.0023 26030.3 -03485.5 -07.6266 26262.6
 05 09 2013  19 00  -21.0021 26030.2 -03485.4 -07.6264 26262.5
 05 09 2013  19 01  -21.0023 26030.3 -03485.4 -07.6264 26262.6
 05 09 2013  19 02  -21.0024 26030.2 -03485.3 -07.6262 26262.5
 05 09 2013  19 03  -21.0027 26030.5 -03485.4 -07.6264 26262.8
 05 09 2013  19 04  -21.0030 26030.2 -03485.3 -07.6261 26262.5
 05 09 2013  19 05  -21.0032 26030.2 -03485.2 -07.6259 26262.5
 05 09 2013  19 06  -21.0032 26030.0 -03485.0 -07.6257 26262.3
 05 09 2013  19 07  -21.0031 26029.9 -03485.0 -07.6257 26262.2
 05 09 2013  19 08  -21.0032 26029.9 -03485.0 -07.6257 26262.1
 05 09 2013  19 09  -21.0037 26030.1 -03485.1 -07.6258 26262.4
 05 09 2013  19 10  -21.0034 26029.7 -03484.8 -07.6253 26262.0
 05 09 2013  19 11  -21.0033 26029.7 -03484.7 -07.6252 26261.9
 05 09 2013  19 12  -21.0034 26029.4 -03484.7 -07.6251 26261.6
 05 09 2013  19 13  -21.0036 26029.6 -03484.7 -07.6252 26261.8
 05 09 2013  19 14  -21.0036 26029.3 -03484.6 -07.6250 26261.5
 05 09 2013  19 15  -21.0039 26029.2 -03484.6 -07.6250 26261.4
 05 09 2013  19 16  -21.0041 26029.1 -03484.6 -07.6250 26261.3
 05 09 2013  19 17  -21.0043 26029.0 -03484.6 -07.6251 26261.3
 05 09 2013  19 18  -21.0046 26029.0 -03484.7 -07.6252 26261.2
 05 09 2013  19 19  -21.0050 26028.9 -03484.7 -07.6252 26261.1
 05 09 2013  19 20  -21.0052 26028.8 -03484.7 -07.6253 26261.1
 05 09 2013  19 21  -21.0055 26028.7 -03484.6 -07.6252 26260.9
 05 09 2013  19 22  -21.0058 26028.6 -03484.6 -07.6252 26260.8
 05 09 2013  19 23  -21.0061 26028.5 -03484.6 -07.6252 26260.7
 05 09 2013  19 24  -21.0066 26028.6 -03484.6 -07.6252 26260.8
 05 09 2013  19 25  -21.0071 26028.6 -03484.6 -07.6251 26260.8
 05 09 2013  19 26  -21.0075 26028.8 -03484.6 -07.6250 26261.0
 05 09 2013  19 27  -21.0078 26028.7 -03484.4 -07.6248 26260.9
 05 09 2013  19 28  -21.0080 26028.7 -03484.4 -07.6247 26260.9
 05 09 2013  19 29  -21.0081 26028.6 -03484.3 -07.6244 26260.8
 05 09 2013  19 30  -21.0082 26028.7 -03484.2 -07.6244 26260.8
 05 09 2013  19 31  -21.0084 26028.6 -03484.2 -07.6243 26260.8
 05 09 2013  19 32  -21.0083 26028.6 -03484.1 -07.6242 26260.8
 05 09 2013  19 33  -21.0083 26028.3 -03484.0 -07.6239 26260.5
 05 09 2013  19 34  -21.0087 26028.6 -03484.1 -07.6241 26260.7
 05 09 2013  19 35  -21.0089 26028.5 -03484.0 -07.6240 26260.7
 05 09 2013  19 36  -21.0090 26028.6 -03484.0 -07.6240 26260.7
 05 09 2013  19 37  -21.0090 26028.3 -03484.0 -07.6239 26260.5
 05 09 2013  19 38  -21.0093 26028.2 -03483.8 -07.6236 26260.3
 05 09 2013  19 39  -21.0094 26028.2 -03483.7 -07.6233 26260.3
 05 09 2013  19 40  -21.0094 26028.3 -03483.6 -07.6231 26260.4
 05 09 2013  19 41  -21.0092 26028.5 -03483.6 -07.6230 26260.6
 05 09 2013  19 42  -21.0088 26028.5 -03483.5 -07.6229 26260.6
 05 09 2013  19 43  -21.0084 26028.5 -03483.5 -07.6228 26260.6
 05 09 2013  19 44  -21.0083 26028.6 -03483.6 -07.6229 26260.7
 05 09 2013  19 45  -21.0082 26028.8 -03483.6 -07.6231 26260.9
 05 09 2013  19 46  -21.0084 26029.0 -03483.7 -07.6232 26261.1
 05 09 2013  19 47  -21.0085 26028.9 -03483.7 -07.6231 26261.0
 05 09 2013  19 48  -21.0085 26028.9 -03483.7 -07.6231 26261.0
 05 09 2013  19 49  -21.0085 26029.0 -03483.8 -07.6233 26261.1
 05 09 2013  19 50  -21.0087 26029.1 -03483.8 -07.6233 26261.2
 05 09 2013  19 51  -21.0089 26029.3 -03483.9 -07.6234 26261.4
 05 09 2013  19 52  -21.0089 26029.3 -03483.9 -07.6234 26261.4
 05 09 2013  19 53  -21.0089 26029.5 -03483.9 -07.6234 26261.6
 05 09 2013  19 54  -21.0090 26029.3 -03483.8 -07.6233 26261.4
 05 09 2013  19 55  -21.0091 26029.8 -03484.0 -07.6235 26261.9
 05 09 2013  19 56  -21.0093 26029.7 -03483.9 -07.6233 26261.8
 05 09 2013  19 57  -21.0096 26030.0 -03483.9 -07.6234 26262.1
 05 09 2013  19 58  -21.0098 26029.6 -03483.8 -07.6230 26261.7
 05 09 2013  19 59  -21.0098 26029.5 -03483.7 -07.6229 26261.6
 05 09 2013  20 00  -21.0099 26029.6 -03483.7 -07.6228 26261.7
 05 09 2013  20 01  -21.0098 26029.1 -03483.4 -07.6224 26261.2
 05 09 2013  20 02  -21.0095 26029.0 -03483.3 -07.6222 26261.0
 05 09 2013  20 03  -21.0092 26028.8 -03483.1 -07.6219 26260.8
 05 09 2013  20 04  -21.0090 26028.9 -03483.1 -07.6219 26260.9
 05 09 2013  20 05  -21.0087 26028.9 -03483.0 -07.6217 26260.9
 05 09 2013  20 06  -21.0087 26029.1 -03483.1 -07.6218 26261.1
 05 09 2013  20 07  -21.0087 26029.2 -03483.1 -07.6218 26261.2
 05 09 2013  20 08  -21.0087 26029.5 -03483.2 -07.6219 26261.5
 05 09 2013  20 09  -21.0086 26029.5 -03483.2 -07.6218 26261.6
 05 09 2013  20 10  -21.0089 26029.6 -03483.2 -07.6218 26261.6
 05 09 2013  20 11  -21.0090 26029.5 -03483.1 -07.6216 26261.5
 05 09 2013  20 12  -21.0090 26029.2 -03482.8 -07.6212 26261.1
 05 09 2013  20 13  -21.0090 26029.2 -03482.8 -07.6211 26261.2
 05 09 2013  20 14  -21.0088 26029.4 -03482.8 -07.6211 26261.4
 05 09 2013  20 15  -21.0087 26029.6 -03483.0 -07.6213 26261.6
 05 09 2013  20 16  -21.0088 26029.8 -03483.0 -07.6214 26261.8
 05 09 2013  20 17  -21.0087 26030.0 -03483.1 -07.6214 26262.0
 05 09 2013  20 18  -21.0087 26030.3 -03483.1 -07.6214 26262.3
 05 09 2013  20 19  -21.0088 26030.4 -03483.1 -07.6215 26262.4
 05 09 2013  20 20  -21.0089 26030.5 -03483.1 -07.6214 26262.5
 05 09 2013  20 21  -21.0089 26030.6 -03483.1 -07.6214 26262.6
 05 09 2013  20 22  -21.0088 26030.7 -03483.1 -07.6214 26262.7
 05 09 2013  20 23  -21.0087 26030.8 -03483.1 -07.6214 26262.8
 05 09 2013  20 24  -21.0088 26030.9 -03483.2 -07.6214 26262.9
 05 09 2013  20 25  -21.0087 26031.0 -03483.2 -07.6214 26263.0
 05 09 2013  20 26  -21.0088 26031.1 -03483.2 -07.6214 26263.1
 05 09 2013  20 27  -21.0088 26031.3 -03483.2 -07.6213 26263.3
 05 09 2013  20 28  -21.0088 26031.4 -03483.1 -07.6211 26263.4
 05 09 2013  20 29  -21.0087 26031.6 -03483.0 -07.6209 26263.5
 05 09 2013  20 30  -21.0087 26031.6 -03483.2 -07.6212 26263.6
 05 09 2013  20 31  -21.0086 26031.6 -03483.2 -07.6212 26263.6
 05 09 2013  20 32  -21.0086 26031.7 -03483.2 -07.6212 26263.7
 05 09 2013  20 33  -21.0086 26031.6 -03483.1 -07.6211 26263.6
 05 09 2013  20 34  -21.0086 26031.6 -03483.1 -07.6209 26263.6
 05 09 2013  20 35  -21.0084 26031.8 -03483.1 -07.6210 26263.8
 05 09 2013  20 36  -21.0085 26032.0 -03483.2 -07.6211 26264.0
 05 09 2013  20 37  -21.0085 26032.0 -03483.1 -07.6210 26264.0
 05 09 2013  20 38  -21.0086 26031.9 -03483.0 -07.6208 26263.9
 05 09 2013  20 39  -21.0083 26031.8 -03482.9 -07.6206 26263.8
 05 09 2013  20 40  -21.0080 26031.8 -03482.9 -07.6205 26263.8
 05 09 2013  20 41  -21.0079 26031.8 -03482.8 -07.6204 26263.8
 05 09 2013  20 42  -21.0077 26031.8 -03482.8 -07.6203 26263.7
 05 09 2013  20 43  -21.0075 26031.9 -03482.7 -07.6202 26263.8
 05 09 2013  20 44  -21.0073 26031.8 -03482.7 -07.6201 26263.7
 05 09 2013  20 45  -21.0071 26031.8 -03482.6 -07.6200 26263.7
 05 09 2013  20 46  -21.0068 26031.8 -03482.6 -07.6200 26263.7
 05 09 2013  20 47  -21.0066 26032.0 -03482.7 -07.6201 26263.9
 05 09 2013  20 48  -21.0067 26032.2 -03482.8 -07.6203 26264.1
 05 09 2013  20 49  -21.0066 26032.4 -03482.9 -07.6205 26264.3
 05 09 2013  20 50  -21.0066 26032.4 -03483.0 -07.6205 26264.4
 05 09 2013  20 51  -21.0067 26032.5 -03482.9 -07.6205 26264.4
 05 09 2013  20 52  -21.0067 26032.3 -03482.8 -07.6203 26264.3
 05 09 2013  20 53  -21.0066 26032.3 -03482.8 -07.6201 26264.2
 05 09 2013  20 54  -21.0068 26032.3 -03482.7 -07.6201 26264.2
 05 09 2013  20 55  -21.0069 26032.3 -03482.7 -07.6200 26264.2
 05 09 2013  20 56  -21.0070 26032.3 -03482.7 -07.6199 26264.2
 05 09 2013  20 57  -21.0070 26032.3 -03482.5 -07.6195 26264.2
 05 09 2013  20 58  -21.0071 26032.2 -03482.6 -07.6197 26264.2
 05 09 2013  20 59  -21.0074 26032.2 -03482.5 -07.6197 26264.1
 05 09 2013  21 00  -21.0076 26032.1 -03482.5 -07.6196 26264.0
 05 09 2013  21 01  -21.0076 26032.2 -03482.5 -07.6195 26264.1
 05 09 2013  21 02  -21.0076 26032.2 -03482.4 -07.6194 26264.1
 05 09 2013  21 03  -21.0077 26032.4 -03482.4 -07.6194 26264.3
 05 09 2013  21 04  -21.0079 26032.4 -03482.4 -07.6193 26264.3
 05 09 2013  21 05  -21.0079 26032.5 -03482.4 -07.6192 26264.4
 05 09 2013  21 06  -21.0080 26032.7 -03482.4 -07.6192 26264.6
 05 09 2013  21 07  -21.0080 26032.8 -03482.4 -07.6192 26264.7
 05 09 2013  21 08  -21.0079 26032.9 -03482.4 -07.6192 26264.8
 05 09 2013  21 09  -21.0079 26032.9 -03482.3 -07.6190 26264.8
 05 09 2013  21 10  -21.0077 26032.9 -03482.3 -07.6189 26264.8
 05 09 2013  21 11  -21.0076 26033.0 -03482.3 -07.6190 26264.9
 05 09 2013  21 12  -21.0077 26033.1 -03482.4 -07.6190 26265.0
 05 09 2013  21 13  -21.0076 26033.2 -03482.4 -07.6190 26265.0
 05 09 2013  21 14  -21.0077 26033.4 -03482.4 -07.6191 26265.3
 05 09 2013  21 15  -21.0079 26033.6 -03482.5 -07.6193 26265.5
 05 09 2013  21 16  -21.0079 26033.7 -03482.6 -07.6193 26265.6
 05 09 2013  21 17  -21.0079 26033.8 -03482.6 -07.6194 26265.8
 05 09 2013  21 18  -21.0081 26033.9 -03482.7 -07.6194 26265.9
 05 09 2013  21 19  -21.0082 26033.9 -03482.6 -07.6193 26265.8
 05 09 2013  21 20  -21.0083 26033.8 -03482.5 -07.6191 26265.7
 05 09 2013  21 21  -21.0084 26033.8 -03482.4 -07.6189 26265.7
 05 09 2013  21 22  -21.0084 26033.7 -03482.4 -07.6189 26265.6
 05 09 2013  21 23  -21.0084 26033.6 -03482.4 -07.6188 26265.5
 05 09 2013  21 24  -21.0087 26033.5 -03482.3 -07.6188 26265.4
 05 09 2013  21 25  -21.0089 26033.5 -03482.4 -07.6189 26265.4
 05 09 2013  21 26  -21.0092 26033.6 -03482.4 -07.6189 26265.5
 05 09 2013  21 27  -21.0093 26033.6 -03482.4 -07.6189 26265.5
 05 09 2013  21 28  -21.0096 26033.5 -03482.4 -07.6189 26265.4
 05 09 2013  21 29  -21.0097 26033.5 -03482.3 -07.6188 26265.4
 05 09 2013  21 30  -21.0100 26033.5 -03482.3 -07.6188 26265.3
 05 09 2013  21 31  -21.0101 26033.5 -03482.3 -07.6188 26265.4
 05 09 2013  21 32  -21.0104 26033.5 -03482.3 -07.6188 26265.4
 05 09 2013  21 33  -21.0106 26033.6 -03482.4 -07.6189 26265.5
 05 09 2013  21 34  -21.0107 26033.7 -03482.4 -07.6189 26265.6
 05 09 2013  21 35  -21.0109 26033.8 -03482.4 -07.6190 26265.7
 05 09 2013  21 36  -21.0110 26033.8 -03482.5 -07.6190 26265.7
 05 09 2013  21 37  -21.0112 26033.9 -03482.5 -07.6191 26265.8
 05 09 2013  21 38  -21.0114 26034.0 -03482.6 -07.6192 26265.9
 05 09 2013  21 39  -21.0116 26034.0 -03482.5 -07.6191 26265.9
 05 09 2013  21 40  -21.0117 26034.0 -03482.5 -07.6190 26265.8
 05 09 2013  21 41  -21.0118 26034.0 -03482.5 -07.6190 26265.9
 05 09 2013  21 42  -21.0120 26034.0 -03482.5 -07.6190 26265.9
 05 09 2013  21 43  -21.0124 26034.1 -03482.6 -07.6191 26266.0
 05 09 2013  21 44  -21.0126 26034.2 -03482.6 -07.6192 26266.1
 05 09 2013  21 45  -21.0128 26034.2 -03482.6 -07.6191 26266.1
 05 09 2013  21 46  -21.0130 26034.2 -03482.6 -07.6191 26266.1
 05 09 2013  21 47  -21.0133 26034.2 -03482.5 -07.6190 26266.1
 05 09 2013  21 48  -21.0135 26034.2 -03482.5 -07.6190 26266.1
 05 09 2013  21 49  -21.0139 26034.2 -03482.5 -07.6190 26266.1
 05 09 2013  21 50  -21.0142 26034.2 -03482.5 -07.6189 26266.1
 05 09 2013  21 51  -21.0144 26034.1 -03482.4 -07.6188 26266.0
 05 09 2013  21 52  -21.0147 26034.1 -03482.4 -07.6188 26266.0
 05 09 2013  21 53  -21.0150 26034.1 -03482.3 -07.6187 26266.0
 05 09 2013  21 54  -21.0151 26034.1 -03482.3 -07.6186 26265.9
 05 09 2013  21 55  -21.0153 26034.0 -03482.2 -07.6185 26265.9
 05 09 2013  21 56  -21.0154 26034.0 -03482.2 -07.6184 26265.8
 05 09 2013  21 57  -21.0156 26034.0 -03482.2 -07.6184 26265.8
 05 09 2013  21 58  -21.0159 26034.0 -03482.2 -07.6183 26265.8
 05 09 2013  21 59  -21.0163 26033.9 -03482.1 -07.6183 26265.8
 05 09 2013  22 00  -21.0165 26033.8 -03482.1 -07.6182 26265.7
 05 09 2013  22 01  -21.0168 26033.7 -03482.0 -07.6180 26265.6
 05 09 2013  22 02  -21.0170 26033.6 -03481.9 -07.6179 26265.5
 05 09 2013  22 03  -21.0174 26033.6 -03481.9 -07.6178 26265.4
 05 09 2013  22 04  -21.0176 26033.5 -03481.8 -07.6178 26265.3
 05 09 2013  22 05  -21.0175 26033.4 -03481.7 -07.6176 26265.2
 05 09 2013  22 06  -21.0177 26033.2 -03481.7 -07.6174 26265.0
 05 09 2013  22 07  -21.0180 26033.1 -03481.6 -07.6174 26264.9
 05 09 2013  22 08  -21.0181 26032.9 -03481.5 -07.6173 26264.7
 05 09 2013  22 09  -21.0182 26032.8 -03481.5 -07.6171 26264.6
 05 09 2013  22 10  -21.0184 26032.7 -03481.4 -07.6171 26264.5
 05 09 2013  22 11  -21.0185 26032.7 -03481.4 -07.6170 26264.5
 05 09 2013  22 12  -21.0183 26032.7 -03481.4 -07.6170 26264.5
 05 09 2013  22 13  -21.0182 26032.7 -03481.4 -07.6170 26264.5
 05 09 2013  22 14  -21.0182 26032.7 -03481.4 -07.6170 26264.4
 05 09 2013  22 15  -21.0185 26032.6 -03481.4 -07.6171 26264.4
 05 09 2013  22 16  -21.0185 26032.6 -03481.4 -07.6170 26264.4
 05 09 2013  22 17  -21.0184 26032.5 -03481.3 -07.6170 26264.3
 05 09 2013  22 18  -21.0183 26032.5 -03481.3 -07.6169 26264.2
 05 09 2013  22 19  -21.0184 26032.2 -03481.2 -07.6168 26264.0
 05 09 2013  22 20  -21.0182 26032.1 -03481.1 -07.6167 26263.8
 05 09 2013  22 21  -21.0180 26032.0 -03481.1 -07.6166 26263.7
 05 09 2013  22 22  -21.0180 26031.9 -03481.1 -07.6166 26263.6
 05 09 2013  22 23  -21.0179 26031.8 -03481.1 -07.6166 26263.5
 05 09 2013  22 24  -21.0177 26031.8 -03481.1 -07.6166 26263.5
 05 09 2013  22 25  -21.0176 26032.0 -03481.2 -07.6169 26263.7
 05 09 2013  22 26  -21.0175 26032.2 -03481.4 -07.6172 26264.0
 05 09 2013  22 27  -21.0171 26032.4 -03481.5 -07.6173 26264.2
 05 09 2013  22 28  -21.0169 26032.6 -03481.6 -07.6174 26264.4
 05 09 2013  22 29  -21.0168 26032.8 -03481.7 -07.6176 26264.6
 05 09 2013  22 30  -21.0167 26032.9 -03481.8 -07.6178 26264.7
 05 09 2013  22 31  -21.0168 26032.9 -03481.8 -07.6178 26264.7
 05 09 2013  22 32  -21.0170 26032.9 -03481.8 -07.6179 26264.7
 05 09 2013  22 33  -21.0172 26032.9 -03481.8 -07.6179 26264.7
 05 09 2013  22 34  -21.0173 26033.0 -03481.8 -07.6179 26264.8
 05 09 2013  22 35  -21.0173 26033.0 -03481.8 -07.6179 26264.8
 05 09 2013  22 36  -21.0174 26033.0 -03481.8 -07.6179 26264.8
 05 09 2013  22 37  -21.0174 26033.0 -03481.8 -07.6178 26264.8
 05 09 2013  22 38  -21.0173 26032.9 -03481.7 -07.6177 26264.7
 05 09 2013  22 39  -21.0175 26032.8 -03481.7 -07.6176 26264.6
 05 09 2013  22 40  -21.0177 26032.8 -03481.7 -07.6177 26264.6
 05 09 2013  22 41  -21.0180 26032.8 -03481.7 -07.6177 26264.6
 05 09 2013  22 42  -21.0183 26032.8 -03481.7 -07.6178 26264.6
 05 09 2013  22 43  -21.0184 26032.7 -03481.7 -07.6177 26264.5
 05 09 2013  22 44  -21.0186 26032.7 -03481.7 -07.6177 26264.5
 05 09 2013  22 45  -21.0185 26032.7 -03481.7 -07.6176 26264.5
 05 09 2013  22 46  -21.0186 26032.7 -03481.7 -07.6176 26264.5
 05 09 2013  22 47  -21.0185 26032.8 -03481.7 -07.6176 26264.6
 05 09 2013  22 48  -21.0187 26032.8 -03481.7 -07.6176 26264.5
 05 09 2013  22 49  -21.0185 26032.7 -03481.6 -07.6175 26264.5
 05 09 2013  22 50  -21.0185 26032.7 -03481.6 -07.6174 26264.4
 05 09 2013  22 51  -21.0185 26032.7 -03481.6 -07.6175 26264.5
 05 09 2013  22 52  -21.0185 26032.9 -03481.7 -07.6176 26264.7
 05 09 2013  22 53  -21.0185 26032.9 -03481.7 -07.6177 26264.7
 05 09 2013  22 54  -21.0184 26033.0 -03481.7 -07.6175 26264.8
 05 09 2013  22 55  -21.0184 26033.2 -03481.8 -07.6177 26265.0
 05 09 2013  22 56  -21.0186 26033.2 -03481.8 -07.6179 26265.0
 05 09 2013  22 57  -21.0186 26033.2 -03481.8 -07.6178 26265.0
 05 09 2013  22 58  -21.0186 26033.2 -03481.8 -07.6178 26265.1
 05 09 2013  22 59  -21.0186 26033.3 -03481.8 -07.6178 26265.1
 05 09 2013  23 00  -21.0186 26033.4 -03481.8 -07.6178 26265.2
 05 09 2013  23 01  -21.0186 26033.2 -03481.8 -07.6177 26265.0
 05 09 2013  23 02  -21.0184 26033.2 -03481.7 -07.6176 26265.0
 05 09 2013  23 03  -21.0182 26033.1 -03481.6 -07.6175 26264.9
 05 09 2013  23 04  -21.0181 26033.0 -03481.6 -07.6173 26264.7
 05 09 2013  23 05  -21.0180 26032.8 -03481.5 -07.6173 26264.6
 05 09 2013  23 06  -21.0180 26032.9 -03481.5 -07.6173 26264.7
 05 09 2013  23 07  -21.0181 26033.1 -03481.7 -07.6175 26264.9
 05 09 2013  23 08  -21.0182 26033.2 -03481.8 -07.6177 26265.0
 05 09 2013  23 09  -21.0182 26033.2 -03481.7 -07.6176 26265.0
 05 09 2013  23 10  -21.0181 26033.2 -03481.8 -07.6177 26265.0
 05 09 2013  23 11  -21.0181 26033.3 -03481.8 -07.6177 26265.1
 05 09 2013  23 12  -21.0180 26033.5 -03481.8 -07.6178 26265.3
 05 09 2013  23 13  -21.0181 26033.6 -03481.9 -07.6179 26265.4
 05 09 2013  23 14  -21.0182 26033.8 -03482.0 -07.6181 26265.7
 05 09 2013  23 15  -21.0183 26034.0 -03482.1 -07.6182 26265.8
 05 09 2013  23 16  -21.0184 26034.1 -03482.2 -07.6183 26265.9
 05 09 2013  23 17  -21.0184 26034.1 -03482.2 -07.6183 26266.0
 05 09 2013  23 18  -21.0184 26034.1 -03482.1 -07.6182 26265.9
 05 09 2013  23 19  -21.0184 26034.1 -03482.1 -07.6181 26265.9
 05 09 2013  23 20  -21.0184 26034.0 -03482.0 -07.6181 26265.9
 05 09 2013  23 21  -21.0184 26034.0 -03482.0 -07.6180 26265.8
 05 09 2013  23 22  -21.0184 26034.0 -03482.0 -07.6179 26265.8
 05 09 2013  23 23  -21.0183 26033.9 -03482.0 -07.6179 26265.7
 05 09 2013  23 24  -21.0182 26033.8 -03481.9 -07.6178 26265.6
 05 09 2013  23 25  -21.0181 26033.7 -03481.8 -07.6177 26265.5
 05 09 2013  23 26  -21.0180 26033.7 -03481.8 -07.6177 26265.5
 05 09 2013  23 27  -21.0180 26033.8 -03481.9 -07.6178 26265.6
 05 09 2013  23 28  -21.0179 26033.9 -03481.9 -07.6179 26265.7
 05 09 2013  23 29  -21.0179 26033.8 -03481.9 -07.6178 26265.6
 05 09 2013  23 30  -21.0180 26033.6 -03481.8 -07.6177 26265.4
 05 09 2013  23 31  -21.0181 26033.5 -03481.8 -07.6176 26265.3
 05 09 2013  23 32  -21.0180 26033.6 -03481.8 -07.6177 26265.4
 05 09 2013  23 33  -21.0180 26033.6 -03481.9 -07.6178 26265.4
 05 09 2013  23 34  -21.0181 26033.7 -03481.9 -07.6179 26265.6
 05 09 2013  23 35  -21.0179 26033.8 -03481.9 -07.6179 26265.6
 05 09 2013  23 36  -21.0179 26033.6 -03481.9 -07.6178 26265.4
 05 09 2013  23 37  -21.0179 26033.4 -03481.8 -07.6177 26265.2
 05 09 2013  23 38  -21.0180 26033.3 -03481.7 -07.6176 26265.1
 05 09 2013  23 39  -21.0180 26033.2 -03481.7 -07.6175 26265.0
 05 09 2013  23 40  -21.0180 26033.1 -03481.7 -07.6175 26264.9
 05 09 2013  23 41  -21.0181 26033.0 -03481.7 -07.6175 26264.8
 05 09 2013  23 42  -21.0182 26033.0 -03481.7 -07.6175 26264.8
 05 09 2013  23 43  -21.0183 26033.0 -03481.7 -07.6176 26264.8
 05 09 2013  23 44  -21.0183 26033.0 -03481.7 -07.6177 26264.8
 05 09 2013  23 45  -21.0184 26033.1 -03481.8 -07.6177 26264.9
 05 09 2013  23 46  -21.0184 26033.1 -03481.7 -07.6177 26264.9
 05 09 2013  23 47  -21.0186 26033.0 -03481.7 -07.6177 26264.7
 05 09 2013  23 48  -21.0188 26032.8 -03481.6 -07.6176 26264.6
 05 09 2013  23 49  -21.0188 26032.6 -03481.6 -07.6174 26264.4
 05 09 2013  23 50  -21.0189 26032.4 -03481.5 -07.6173 26264.2
 05 09 2013  23 51  -21.0189 26032.2 -03481.4 -07.6171 26264.0
 05 09 2013  23 52  -21.0191 26032.1 -03481.3 -07.6170 26263.8
 05 09 2013  23 53  -21.0193 26031.9 -03481.3 -07.6170 26263.7
 05 09 2013  23 54  -21.0195 26031.9 -03481.3 -07.6170 26263.6
 05 09 2013  23 55  -21.0196 26031.9 -03481.3 -07.6171 26263.7
 05 09 2013  23 56  -21.0198 26031.9 -03481.4 -07.6172 26263.7
 05 09 2013  23 57  -21.0199 26031.9 -03481.4 -07.6172 26263.7
