SAO LUIS EMBRACE-03 <134> 1 Min. Reported data

 DD MM YYYY  HH MM   D(Deg)  H(nT)   Z(nT)   I(Deg)   F(nT)

 14 05 2013  00 00  -21.0306 26042.5 -03439.3 -07.5232 26268.6
 14 05 2013  00 01  -21.0306 26042.4 -03439.2 -07.5231 26268.5
 14 05 2013  00 02  -21.0306 26042.2 -03439.2 -07.5230 26268.4
 14 05 2013  00 03  -21.0306 26042.1 -03439.1 -07.5229 26268.2
 14 05 2013  00 04  -21.0306 26041.9 -03439.0 -07.5228 26268.0
 14 05 2013  00 05  -21.0305 26041.7 -03439.0 -07.5227 26267.8
 14 05 2013  00 06  -21.0306 26041.6 -03438.9 -07.5227 26267.7
 14 05 2013  00 07  -21.0306 26041.5 -03438.9 -07.5227 26267.6
 14 05 2013  00 08  -21.0306 26041.6 -03439.0 -07.5228 26267.7
 14 05 2013  00 09  -21.0306 26041.7 -03439.1 -07.5229 26267.8
 14 05 2013  00 10  -21.0305 26041.7 -03439.1 -07.5231 26267.9
 14 05 2013  00 11  -21.0303 26041.9 -03439.2 -07.5232 26268.0
 14 05 2013  00 12  -21.0301 26042.1 -03439.3 -07.5234 26268.2
 14 05 2013  00 13  -21.0298 26042.3 -03439.4 -07.5236 26268.4
 14 05 2013  00 14  -21.0294 26042.5 -03439.6 -07.5238 26268.7
 14 05 2013  00 15  -21.0291 26042.8 -03439.7 -07.5240 26269.0
 14 05 2013  00 16  -21.0289 26042.9 -03439.8 -07.5242 26269.1
 14 05 2013  00 17  -21.0289 26042.9 -03439.8 -07.5242 26269.1
 14 05 2013  00 18  -21.0290 26042.7 -03439.8 -07.5241 26268.9
 14 05 2013  00 19  -21.0292 26042.4 -03439.6 -07.5239 26268.5
 14 05 2013  00 20  -21.0294 26042.0 -03439.4 -07.5236 26268.1
 14 05 2013  00 21  -21.0297 26041.8 -03439.3 -07.5234 26267.9
 14 05 2013  00 22  -21.0300 26041.7 -03439.2 -07.5233 26267.8
 14 05 2013  00 23  -21.0301 26041.6 -03439.2 -07.5233 26267.7
 14 05 2013  00 24  -21.0302 26041.5 -03439.2 -07.5233 26267.7
 14 05 2013  00 25  -21.0302 26041.5 -03439.2 -07.5233 26267.6
 14 05 2013  00 26  -21.0301 26041.5 -03439.3 -07.5234 26267.7
 14 05 2013  00 27  -21.0298 26041.6 -03439.3 -07.5235 26267.7
 14 05 2013  00 28  -21.0295 26041.7 -03439.4 -07.5236 26267.8
 14 05 2013  00 29  -21.0292 26041.8 -03439.5 -07.5238 26268.0
 14 05 2013  00 30  -21.0289 26041.9 -03439.5 -07.5239 26268.1
 14 05 2013  00 31  -21.0287 26042.1 -03439.6 -07.5241 26268.2
 14 05 2013  00 32  -21.0286 26042.2 -03439.7 -07.5242 26268.4
 14 05 2013  00 33  -21.0284 26042.4 -03439.8 -07.5244 26268.6
 14 05 2013  00 34  -21.0284 26042.5 -03439.9 -07.5245 26268.7
 14 05 2013  00 35  -21.0284 26042.5 -03439.9 -07.5245 26268.7
 14 05 2013  00 36  -21.0284 26042.4 -03439.9 -07.5245 26268.7
 14 05 2013  00 37  -21.0284 26042.4 -03439.9 -07.5245 26268.6
 14 05 2013  00 38  -21.0284 26042.4 -03439.8 -07.5244 26268.6
 14 05 2013  00 39  -21.0284 26042.3 -03439.8 -07.5244 26268.5
 14 05 2013  00 40  -21.0284 26042.3 -03439.8 -07.5244 26268.5
 14 05 2013  00 41  -21.0285 26042.3 -03439.8 -07.5244 26268.5
 14 05 2013  00 42  -21.0285 26042.4 -03439.8 -07.5244 26268.6
 14 05 2013  00 43  -21.0285 26042.6 -03439.9 -07.5245 26268.8
 14 05 2013  00 44  -21.0286 26042.7 -03440.0 -07.5246 26268.9
 14 05 2013  00 45  -21.0286 26042.8 -03440.0 -07.5246 26269.0
 14 05 2013  00 46  -21.0286 26042.8 -03440.0 -07.5246 26269.0
 14 05 2013  00 47  -21.0286 26042.8 -03439.9 -07.5245 26269.0
 14 05 2013  00 48  -21.0286 26042.7 -03439.9 -07.5244 26268.9
 14 05 2013  00 49  -21.0287 26042.7 -03439.8 -07.5243 26268.8
 14 05 2013  00 50  -21.0289 26042.6 -03439.8 -07.5242 26268.8
 14 05 2013  00 51  -21.0290 26042.6 -03439.8 -07.5242 26268.8
 14 05 2013  00 52  -21.0290 26042.6 -03439.7 -07.5241 26268.7
 14 05 2013  00 53  -21.0291 26042.5 -03439.6 -07.5240 26268.6
 14 05 2013  00 54  -21.0291 26042.4 -03439.6 -07.5239 26268.5
 14 05 2013  00 55  -21.0292 26042.3 -03439.5 -07.5238 26268.5
 14 05 2013  00 56  -21.0292 26042.3 -03439.5 -07.5237 26268.4
 14 05 2013  00 57  -21.0293 26042.2 -03439.5 -07.5236 26268.4
 14 05 2013  00 58  -21.0292 26042.2 -03439.4 -07.5236 26268.4
 14 05 2013  00 59  -21.0292 26042.2 -03439.4 -07.5236 26268.4
 14 05 2013  01 00  -21.0290 26042.3 -03439.4 -07.5236 26268.4
 14 05 2013  01 01  -21.0288 26042.3 -03439.5 -07.5236 26268.5
 14 05 2013  01 02  -21.0287 26042.4 -03439.5 -07.5236 26268.5
 14 05 2013  01 03  -21.0286 26042.4 -03439.5 -07.5236 26268.5
 14 05 2013  01 04  -21.0285 26042.3 -03439.4 -07.5236 26268.4
 14 05 2013  01 05  -21.0285 26042.2 -03439.4 -07.5235 26268.4
 14 05 2013  01 06  -21.0286 26042.2 -03439.4 -07.5234 26268.3
 14 05 2013  01 07  -21.0287 26042.1 -03439.3 -07.5234 26268.2
 14 05 2013  01 08  -21.0287 26042.0 -03439.3 -07.5233 26268.1
 14 05 2013  01 09  -21.0288 26041.9 -03439.2 -07.5232 26268.0
 14 05 2013  01 10  -21.0288 26041.8 -03439.2 -07.5232 26267.9
 14 05 2013  01 11  -21.0288 26041.8 -03439.2 -07.5232 26267.9
 14 05 2013  01 12  -21.0288 26041.7 -03439.1 -07.5231 26267.8
 14 05 2013  01 13  -21.0287 26041.7 -03439.1 -07.5231 26267.8
 14 05 2013  01 14  -21.0286 26041.7 -03439.1 -07.5231 26267.8
 14 05 2013  01 15  -21.0285 26041.6 -03439.1 -07.5231 26267.8
 14 05 2013  01 16  -21.0285 26041.6 -03439.1 -07.5230 26267.7
 14 05 2013  01 17  -21.0284 26041.5 -03439.1 -07.5230 26267.6
 14 05 2013  01 18  -21.0284 26041.4 -03439.0 -07.5229 26267.5
 14 05 2013  01 19  -21.0283 26041.3 -03438.9 -07.5228 26267.3
 14 05 2013  01 20  -21.0281 26041.2 -03438.9 -07.5228 26267.3
 14 05 2013  01 21  -21.0279 26041.3 -03439.0 -07.5228 26267.4
 14 05 2013  01 22  -21.0276 26041.5 -03439.0 -07.5229 26267.6
 14 05 2013  01 23  -21.0274 26041.8 -03439.2 -07.5232 26267.9
 14 05 2013  01 24  -21.0273 26042.0 -03439.3 -07.5233 26268.1
 14 05 2013  01 25  -21.0272 26042.1 -03439.4 -07.5234 26268.3
 14 05 2013  01 26  -21.0270 26042.3 -03439.4 -07.5235 26268.4
 14 05 2013  01 27  -21.0269 26042.4 -03439.4 -07.5236 26268.5
 14 05 2013  01 28  -21.0267 26042.4 -03439.4 -07.5236 26268.5
 14 05 2013  01 29  -21.0264 26042.4 -03439.4 -07.5235 26268.5
 14 05 2013  01 30  -21.0262 26042.4 -03439.4 -07.5234 26268.5
 14 05 2013  01 31  -21.0261 26042.3 -03439.3 -07.5234 26268.4
 14 05 2013  01 32  -21.0260 26042.1 -03439.3 -07.5232 26268.3
 14 05 2013  01 33  -21.0260 26042.0 -03439.2 -07.5231 26268.1
 14 05 2013  01 34  -21.0260 26041.7 -03439.1 -07.5229 26267.8
 14 05 2013  01 35  -21.0260 26041.4 -03438.9 -07.5227 26267.5
 14 05 2013  01 36  -21.0259 26041.3 -03438.8 -07.5226 26267.3
 14 05 2013  01 37  -21.0258 26041.1 -03438.8 -07.5225 26267.2
 14 05 2013  01 38  -21.0256 26040.8 -03438.7 -07.5223 26266.9
 14 05 2013  01 39  -21.0254 26040.6 -03438.6 -07.5222 26266.7
 14 05 2013  01 40  -21.0253 26040.5 -03438.5 -07.5221 26266.5
 14 05 2013  01 41  -21.0252 26040.4 -03438.5 -07.5221 26266.5
 14 05 2013  01 42  -21.0250 26040.4 -03438.5 -07.5222 26266.4
 14 05 2013  01 43  -21.0248 26040.2 -03438.5 -07.5221 26266.2
 14 05 2013  01 44  -21.0248 26040.0 -03438.4 -07.5220 26266.0
 14 05 2013  01 45  -21.0246 26039.8 -03438.4 -07.5220 26265.8
 14 05 2013  01 46  -21.0245 26039.5 -03438.3 -07.5219 26265.5
 14 05 2013  01 47  -21.0243 26039.4 -03438.3 -07.5220 26265.4
 14 05 2013  01 48  -21.0241 26039.4 -03438.4 -07.5222 26265.4
 14 05 2013  01 49  -21.0237 26039.4 -03438.5 -07.5223 26265.5
 14 05 2013  01 50  -21.0235 26039.5 -03438.6 -07.5225 26265.6
 14 05 2013  01 51  -21.0233 26039.5 -03438.7 -07.5227 26265.6
 14 05 2013  01 52  -21.0232 26039.6 -03438.7 -07.5228 26265.7
 14 05 2013  01 53  -21.0232 26039.5 -03438.8 -07.5229 26265.6
 14 05 2013  01 54  -21.0232 26039.3 -03438.7 -07.5228 26265.3
 14 05 2013  01 55  -21.0233 26039.1 -03438.6 -07.5227 26265.2
 14 05 2013  01 56  -21.0237 26039.0 -03438.6 -07.5227 26265.0
 14 05 2013  01 57  -21.0239 26038.7 -03438.5 -07.5226 26264.8
 14 05 2013  01 58  -21.0244 26038.4 -03438.4 -07.5225 26264.4
 14 05 2013  01 59  -21.0246 26038.0 -03438.3 -07.5223 26264.1
 14 05 2013  02 00  -21.0246 26037.9 -03438.2 -07.5222 26263.9
 14 05 2013  02 01  -21.0246 26037.8 -03438.2 -07.5222 26263.8
 14 05 2013  02 02  -21.0245 26037.7 -03438.2 -07.5222 26263.8
 14 05 2013  02 03  -21.0244 26037.6 -03438.2 -07.5222 26263.7
 14 05 2013  02 04  -21.0243 26037.5 -03438.2 -07.5223 26263.6
 14 05 2013  02 05  -21.0242 26037.5 -03438.2 -07.5223 26263.5
 14 05 2013  02 06  -21.0243 26037.5 -03438.3 -07.5224 26263.5
 14 05 2013  02 07  -21.0244 26037.4 -03438.3 -07.5225 26263.5
 14 05 2013  02 08  -21.0244 26037.4 -03438.3 -07.5225 26263.5
 14 05 2013  02 09  -21.0243 26037.4 -03438.4 -07.5226 26263.5
 14 05 2013  02 10  -21.0242 26037.4 -03438.4 -07.5227 26263.5
 14 05 2013  02 11  -21.0242 26037.5 -03438.4 -07.5228 26263.5
 14 05 2013  02 12  -21.0242 26037.4 -03438.5 -07.5228 26263.5
 14 05 2013  02 13  -21.0242 26037.4 -03438.5 -07.5229 26263.4
 14 05 2013  02 14  -21.0242 26037.3 -03438.5 -07.5229 26263.3
 14 05 2013  02 15  -21.0242 26037.1 -03438.4 -07.5228 26263.2
 14 05 2013  02 16  -21.0242 26037.2 -03438.5 -07.5230 26263.3
 14 05 2013  02 17  -21.0239 26037.4 -03438.6 -07.5231 26263.4
 14 05 2013  02 18  -21.0239 26037.4 -03438.6 -07.5232 26263.5
 14 05 2013  02 19  -21.0239 26037.5 -03438.7 -07.5234 26263.5
 14 05 2013  02 20  -21.0237 26037.5 -03438.8 -07.5235 26263.6
 14 05 2013  02 21  -21.0236 26037.6 -03438.8 -07.5236 26263.7
 14 05 2013  02 22  -21.0234 26037.8 -03438.9 -07.5237 26263.9
 14 05 2013  02 23  -21.0232 26038.1 -03439.1 -07.5239 26264.2
 14 05 2013  02 24  -21.0231 26038.3 -03439.2 -07.5242 26264.5
 14 05 2013  02 25  -21.0230 26038.5 -03439.3 -07.5244 26264.7
 14 05 2013  02 26  -21.0227 26038.7 -03439.4 -07.5246 26264.9
 14 05 2013  02 27  -21.0225 26039.0 -03439.5 -07.5248 26265.2
 14 05 2013  02 28  -21.0222 26039.0 -03439.6 -07.5248 26265.2
 14 05 2013  02 29  -21.0221 26038.8 -03439.5 -07.5246 26265.0
 14 05 2013  02 30  -21.0223 26038.3 -03439.2 -07.5242 26264.5
 14 05 2013  02 31  -21.0229 26037.9 -03439.0 -07.5238 26264.0
 14 05 2013  02 32  -21.0235 26037.9 -03438.9 -07.5236 26264.0
 14 05 2013  02 33  -21.0240 26038.0 -03439.0 -07.5238 26264.1
 14 05 2013  02 34  -21.0241 26037.9 -03438.9 -07.5237 26264.0
 14 05 2013  02 35  -21.0242 26037.8 -03438.8 -07.5236 26263.9
 14 05 2013  02 36  -21.0241 26037.9 -03438.9 -07.5236 26264.0
 14 05 2013  02 37  -21.0240 26038.0 -03438.9 -07.5237 26264.1
 14 05 2013  02 38  -21.0238 26038.0 -03439.0 -07.5237 26264.2
 14 05 2013  02 39  -21.0240 26037.9 -03438.9 -07.5236 26264.0
 14 05 2013  02 40  -21.0242 26037.7 -03438.8 -07.5234 26263.8
 14 05 2013  02 41  -21.0244 26037.5 -03438.7 -07.5234 26263.6
 14 05 2013  02 42  -21.0244 26037.5 -03438.7 -07.5233 26263.6
 14 05 2013  02 43  -21.0243 26037.5 -03438.7 -07.5233 26263.6
 14 05 2013  02 44  -21.0242 26037.5 -03438.7 -07.5233 26263.6
 14 05 2013  02 45  -21.0241 26037.5 -03438.7 -07.5233 26263.6
 14 05 2013  02 46  -21.0241 26037.5 -03438.7 -07.5233 26263.6
 14 05 2013  02 47  -21.0240 26037.5 -03438.7 -07.5234 26263.6
 14 05 2013  02 48  -21.0240 26037.4 -03438.7 -07.5234 26263.5
 14 05 2013  02 49  -21.0240 26037.5 -03438.8 -07.5235 26263.6
 14 05 2013  02 50  -21.0240 26037.5 -03438.8 -07.5235 26263.6
 14 05 2013  02 51  -21.0239 26037.5 -03438.8 -07.5236 26263.6
 14 05 2013  02 52  -21.0239 26037.5 -03438.8 -07.5236 26263.6
 14 05 2013  02 53  -21.0239 26037.5 -03438.8 -07.5236 26263.6
 14 05 2013  02 54  -21.0239 26037.5 -03438.8 -07.5236 26263.6
 14 05 2013  02 55  -21.0238 26037.5 -03438.9 -07.5237 26263.6
 14 05 2013  02 56  -21.0240 26037.4 -03438.8 -07.5237 26263.5
 14 05 2013  02 57  -21.0241 26037.2 -03438.8 -07.5236 26263.3
 14 05 2013  02 58  -21.0241 26037.1 -03438.7 -07.5235 26263.2
 14 05 2013  02 59  -21.0242 26037.0 -03438.7 -07.5236 26263.1
 14 05 2013  03 00  -21.0243 26037.0 -03438.8 -07.5236 26263.1
 14 05 2013  03 01  -21.0243 26036.9 -03438.8 -07.5236 26263.0
 14 05 2013  03 02  -21.0242 26036.8 -03438.7 -07.5236 26262.9
 14 05 2013  03 03  -21.0241 26036.9 -03438.8 -07.5237 26263.0
 14 05 2013  03 04  -21.0240 26036.8 -03438.8 -07.5237 26262.9
 14 05 2013  03 05  -21.0240 26036.7 -03438.8 -07.5237 26262.9
 14 05 2013  03 06  -21.0241 26036.7 -03438.7 -07.5237 26262.8
 14 05 2013  03 07  -21.0241 26036.7 -03438.8 -07.5238 26262.8
 14 05 2013  03 08  -21.0242 26036.8 -03438.9 -07.5239 26262.9
 14 05 2013  03 09  -21.0243 26036.7 -03438.9 -07.5239 26262.8
 14 05 2013  03 10  -21.0244 26036.6 -03438.8 -07.5239 26262.7
 14 05 2013  03 11  -21.0245 26036.6 -03438.9 -07.5240 26262.7
 14 05 2013  03 12  -21.0246 26036.5 -03438.9 -07.5240 26262.7
 14 05 2013  03 13  -21.0247 26036.6 -03438.9 -07.5240 26262.7
 14 05 2013  03 14  -21.0248 26036.5 -03438.9 -07.5241 26262.7
 14 05 2013  03 15  -21.0248 26036.4 -03438.9 -07.5241 26262.5
 14 05 2013  03 16  -21.0247 26036.4 -03438.9 -07.5241 26262.5
 14 05 2013  03 17  -21.0245 26036.3 -03438.9 -07.5242 26262.4
 14 05 2013  03 18  -21.0245 26036.3 -03439.0 -07.5243 26262.5
 14 05 2013  03 19  -21.0246 26036.5 -03439.1 -07.5245 26262.6
 14 05 2013  03 20  -21.0246 26036.5 -03439.1 -07.5246 26262.6
 14 05 2013  03 21  -21.0246 26036.5 -03439.2 -07.5246 26262.7
 14 05 2013  03 22  -21.0247 26036.6 -03439.2 -07.5247 26262.8
 14 05 2013  03 23  -21.0248 26036.6 -03439.2 -07.5248 26262.8
 14 05 2013  03 24  -21.0249 26036.7 -03439.3 -07.5248 26262.8
 14 05 2013  03 25  -21.0250 26036.7 -03439.3 -07.5249 26262.8
 14 05 2013  03 26  -21.0250 26036.6 -03439.3 -07.5248 26262.8
 14 05 2013  03 27  -21.0249 26036.6 -03439.3 -07.5249 26262.8
 14 05 2013  03 28  -21.0249 26036.7 -03439.3 -07.5249 26262.8
 14 05 2013  03 29  -21.0249 26036.7 -03439.4 -07.5250 26262.9
 14 05 2013  03 30  -21.0250 26036.6 -03439.3 -07.5250 26262.7
 14 05 2013  03 31  -21.0252 26036.5 -03439.3 -07.5249 26262.6
 14 05 2013  03 32  -21.0251 26036.5 -03439.3 -07.5250 26262.7
 14 05 2013  03 33  -21.0249 26036.5 -03439.3 -07.5250 26262.7
 14 05 2013  03 34  -21.0250 26036.5 -03439.3 -07.5250 26262.6
 14 05 2013  03 35  -21.0251 26036.4 -03439.3 -07.5250 26262.6
 14 05 2013  03 36  -21.0250 26036.4 -03439.3 -07.5250 26262.6
 14 05 2013  03 37  -21.0249 26036.4 -03439.3 -07.5249 26262.5
 14 05 2013  03 38  -21.0248 26036.4 -03439.3 -07.5249 26262.6
 14 05 2013  03 39  -21.0247 26036.4 -03439.3 -07.5250 26262.5
 14 05 2013  03 40  -21.0246 26036.3 -03439.3 -07.5250 26262.5
 14 05 2013  03 41  -21.0245 26036.3 -03439.3 -07.5250 26262.5
 14 05 2013  03 42  -21.0244 26036.3 -03439.4 -07.5251 26262.5
 14 05 2013  03 43  -21.0244 26036.4 -03439.4 -07.5252 26262.5
 14 05 2013  03 44  -21.0244 26036.4 -03439.5 -07.5253 26262.6
 14 05 2013  03 45  -21.0242 26036.5 -03439.5 -07.5254 26262.7
 14 05 2013  03 46  -21.0241 26036.5 -03439.6 -07.5255 26262.7
 14 05 2013  03 47  -21.0241 26036.6 -03439.6 -07.5256 26262.8
 14 05 2013  03 48  -21.0241 26036.6 -03439.6 -07.5256 26262.8
 14 05 2013  03 49  -21.0242 26036.6 -03439.6 -07.5256 26262.8
 14 05 2013  03 50  -21.0243 26036.6 -03439.6 -07.5256 26262.8
 14 05 2013  03 51  -21.0242 26036.5 -03439.6 -07.5256 26262.7
 14 05 2013  03 52  -21.0243 26036.5 -03439.6 -07.5256 26262.7
 14 05 2013  03 53  -21.0243 26036.5 -03439.6 -07.5256 26262.7
 14 05 2013  03 54  -21.0242 26036.5 -03439.7 -07.5257 26262.7
 14 05 2013  03 55  -21.0241 26036.6 -03439.7 -07.5258 26262.9
 14 05 2013  03 56  -21.0241 26036.7 -03439.8 -07.5260 26263.0
 14 05 2013  03 57  -21.0239 26036.9 -03439.9 -07.5261 26263.1
 14 05 2013  03 58  -21.0238 26037.0 -03439.9 -07.5262 26263.2
 14 05 2013  03 59  -21.0239 26037.1 -03440.0 -07.5263 26263.3
 14 05 2013  04 00  -21.0237 26037.2 -03440.1 -07.5264 26263.4
 14 05 2013  04 01  -21.0236 26037.2 -03440.1 -07.5264 26263.5
 14 05 2013  04 02  -21.0235 26037.3 -03440.1 -07.5264 26263.6
 14 05 2013  04 03  -21.0234 26037.3 -03440.1 -07.5265 26263.6
 14 05 2013  04 04  -21.0233 26037.4 -03440.1 -07.5265 26263.6
 14 05 2013  04 05  -21.0233 26037.4 -03440.2 -07.5265 26263.7
 14 05 2013  04 06  -21.0233 26037.4 -03440.2 -07.5266 26263.7
 14 05 2013  04 07  -21.0233 26037.4 -03440.2 -07.5265 26263.7
 14 05 2013  04 08  -21.0233 26037.4 -03440.2 -07.5265 26263.7
 14 05 2013  04 09  -21.0233 26037.3 -03440.1 -07.5265 26263.6
 14 05 2013  04 10  -21.0233 26037.2 -03440.0 -07.5263 26263.4
 14 05 2013  04 11  -21.0233 26037.1 -03440.0 -07.5263 26263.3
 14 05 2013  04 12  -21.0233 26037.0 -03440.0 -07.5262 26263.3
 14 05 2013  04 13  -21.0233 26037.0 -03440.0 -07.5263 26263.2
 14 05 2013  04 14  -21.0232 26037.0 -03440.1 -07.5264 26263.3
 14 05 2013  04 15  -21.0231 26037.0 -03440.1 -07.5265 26263.3
 14 05 2013  04 16  -21.0230 26037.1 -03440.1 -07.5266 26263.4
 14 05 2013  04 17  -21.0228 26037.1 -03440.2 -07.5267 26263.4
 14 05 2013  04 18  -21.0229 26037.1 -03440.2 -07.5267 26263.4
 14 05 2013  04 19  -21.0232 26036.8 -03440.1 -07.5266 26263.1
 14 05 2013  04 20  -21.0231 26036.7 -03440.0 -07.5264 26262.9
 14 05 2013  04 21  -21.0230 26036.8 -03440.1 -07.5266 26263.1
 14 05 2013  04 22  -21.0229 26036.9 -03440.2 -07.5268 26263.2
 14 05 2013  04 23  -21.0229 26036.8 -03440.2 -07.5268 26263.1
 14 05 2013  04 24  -21.0230 26036.7 -03440.2 -07.5267 26263.0
 14 05 2013  04 25  -21.0230 26036.7 -03440.2 -07.5268 26263.0
 14 05 2013  04 26  -21.0231 26036.8 -03440.3 -07.5270 26263.1
 14 05 2013  04 27  -21.0231 26036.9 -03440.4 -07.5271 26263.2
 14 05 2013  04 28  -21.0230 26036.9 -03440.4 -07.5272 26263.2
 14 05 2013  04 29  -21.0228 26037.0 -03440.5 -07.5273 26263.3
 14 05 2013  04 30  -21.0227 26037.1 -03440.6 -07.5275 26263.4
 14 05 2013  04 31  -21.0227 26037.1 -03440.6 -07.5276 26263.4
 14 05 2013  04 32  -21.0226 26037.2 -03440.7 -07.5277 26263.6
 14 05 2013  04 33  -21.0227 26037.2 -03440.7 -07.5278 26263.6
 14 05 2013  04 34  -21.0227 26037.3 -03440.8 -07.5279 26263.6
 14 05 2013  04 35  -21.0228 26037.3 -03440.8 -07.5280 26263.7
 14 05 2013  04 36  -21.0228 26037.3 -03440.9 -07.5281 26263.7
 14 05 2013  04 37  -21.0227 26037.3 -03440.9 -07.5281 26263.7
 14 05 2013  04 38  -21.0226 26037.4 -03441.0 -07.5283 26263.8
 14 05 2013  04 39  -21.0226 26037.6 -03441.1 -07.5285 26264.0
 14 05 2013  04 40  -21.0225 26037.8 -03441.2 -07.5287 26264.2
 14 05 2013  04 41  -21.0225 26037.9 -03441.3 -07.5289 26264.3
 14 05 2013  04 42  -21.0226 26037.9 -03441.3 -07.5289 26264.3
 14 05 2013  04 43  -21.0227 26037.9 -03441.3 -07.5289 26264.3
 14 05 2013  04 44  -21.0228 26037.9 -03441.4 -07.5290 26264.4
 14 05 2013  04 45  -21.0229 26038.0 -03441.4 -07.5291 26264.4
 14 05 2013  04 46  -21.0230 26038.1 -03441.5 -07.5292 26264.5
 14 05 2013  04 47  -21.0233 26038.0 -03441.5 -07.5292 26264.5
 14 05 2013  04 48  -21.0234 26038.0 -03441.5 -07.5292 26264.4
 14 05 2013  04 49  -21.0234 26038.0 -03441.5 -07.5292 26264.4
 14 05 2013  04 50  -21.0235 26038.1 -03441.5 -07.5293 26264.5
 14 05 2013  04 51  -21.0238 26038.1 -03441.6 -07.5294 26264.5
 14 05 2013  04 52  -21.0239 26038.1 -03441.6 -07.5294 26264.5
 14 05 2013  04 53  -21.0241 26038.1 -03441.6 -07.5294 26264.6
 14 05 2013  04 54  -21.0242 26038.1 -03441.6 -07.5295 26264.6
 14 05 2013  04 55  -21.0243 26038.2 -03441.7 -07.5296 26264.7
 14 05 2013  04 56  -21.0244 26038.2 -03441.7 -07.5296 26264.7
 14 05 2013  04 57  -21.0244 26038.2 -03441.7 -07.5296 26264.7
 14 05 2013  04 58  -21.0246 26038.3 -03441.7 -07.5296 26264.7
 14 05 2013  04 59  -21.0246 26038.4 -03441.8 -07.5297 26264.9
 14 05 2013  05 00  -21.0246 26038.5 -03441.8 -07.5298 26265.0
 14 05 2013  05 01  -21.0246 26038.6 -03441.9 -07.5299 26265.1
 14 05 2013  05 02  -21.0247 26038.7 -03441.9 -07.5300 26265.2
 14 05 2013  05 03  -21.0247 26038.7 -03441.9 -07.5300 26265.2
 14 05 2013  05 04  -21.0248 26038.8 -03442.0 -07.5300 26265.3
 14 05 2013  05 05  -21.0248 26038.8 -03441.9 -07.5300 26265.3
 14 05 2013  05 06  -21.0248 26038.9 -03442.0 -07.5300 26265.4
 14 05 2013  05 07  -21.0248 26038.9 -03442.0 -07.5301 26265.4
 14 05 2013  05 08  -21.0247 26039.0 -03442.0 -07.5301 26265.5
 14 05 2013  05 09  -21.0247 26039.1 -03442.0 -07.5301 26265.6
 14 05 2013  05 10  -21.0248 26039.1 -03442.1 -07.5301 26265.6
 14 05 2013  05 11  -21.0248 26039.2 -03442.1 -07.5302 26265.7
 14 05 2013  05 12  -21.0248 26039.2 -03442.1 -07.5302 26265.8
 14 05 2013  05 13  -21.0248 26039.3 -03442.2 -07.5303 26265.8
 14 05 2013  05 14  -21.0248 26039.4 -03442.2 -07.5303 26265.9
 14 05 2013  05 15  -21.0247 26039.4 -03442.2 -07.5303 26265.9
 14 05 2013  05 16  -21.0246 26039.5 -03442.2 -07.5304 26266.1
 14 05 2013  05 17  -21.0246 26039.7 -03442.3 -07.5305 26266.2
 14 05 2013  05 18  -21.0245 26039.8 -03442.4 -07.5307 26266.4
 14 05 2013  05 19  -21.0245 26039.9 -03442.5 -07.5308 26266.5
 14 05 2013  05 20  -21.0245 26040.1 -03442.5 -07.5308 26266.6
 14 05 2013  05 21  -21.0245 26040.1 -03442.5 -07.5309 26266.7
 14 05 2013  05 22  -21.0244 26040.2 -03442.6 -07.5309 26266.8
 14 05 2013  05 23  -21.0244 26040.3 -03442.6 -07.5309 26266.8
 14 05 2013  05 24  -21.0244 26040.3 -03442.5 -07.5309 26266.8
 14 05 2013  05 25  -21.0244 26040.2 -03442.5 -07.5308 26266.8
 14 05 2013  05 26  -21.0244 26040.1 -03442.4 -07.5307 26266.7
 14 05 2013  05 27  -21.0245 26040.0 -03442.3 -07.5305 26266.5
 14 05 2013  05 28  -21.0246 26039.8 -03442.2 -07.5303 26266.3
 14 05 2013  05 29  -21.0246 26039.7 -03442.1 -07.5301 26266.2
 14 05 2013  05 30  -21.0246 26039.6 -03442.1 -07.5301 26266.2
 14 05 2013  05 31  -21.0246 26039.6 -03442.1 -07.5301 26266.1
 14 05 2013  05 32  -21.0244 26039.7 -03442.1 -07.5301 26266.2
 14 05 2013  05 33  -21.0241 26039.7 -03442.2 -07.5302 26266.3
 14 05 2013  05 34  -21.0240 26039.8 -03442.2 -07.5303 26266.4
 14 05 2013  05 35  -21.0239 26040.0 -03442.3 -07.5305 26266.5
 14 05 2013  05 36  -21.0238 26040.0 -03442.4 -07.5306 26266.6
 14 05 2013  05 37  -21.0237 26040.1 -03442.4 -07.5307 26266.7
 14 05 2013  05 38  -21.0238 26040.3 -03442.5 -07.5308 26266.8
 14 05 2013  05 39  -21.0237 26040.4 -03442.6 -07.5309 26267.0
 14 05 2013  05 40  -21.0235 26040.5 -03442.6 -07.5310 26267.1
 14 05 2013  05 41  -21.0234 26040.6 -03442.7 -07.5311 26267.2
 14 05 2013  05 42  -21.0233 26040.7 -03442.7 -07.5312 26267.3
 14 05 2013  05 43  -21.0234 26040.8 -03442.8 -07.5312 26267.4
 14 05 2013  05 44  -21.0235 26041.0 -03442.8 -07.5312 26267.6
 14 05 2013  05 45  -21.0236 26041.0 -03442.8 -07.5313 26267.6
 14 05 2013  05 46  -21.0236 26041.1 -03442.9 -07.5313 26267.7
 14 05 2013  05 47  -21.0236 26041.1 -03442.8 -07.5312 26267.7
 14 05 2013  05 48  -21.0236 26041.1 -03442.8 -07.5312 26267.7
 14 05 2013  05 49  -21.0236 26041.1 -03442.8 -07.5311 26267.7
 14 05 2013  05 50  -21.0235 26041.1 -03442.8 -07.5311 26267.7
 14 05 2013  05 51  -21.0237 26041.0 -03442.7 -07.5310 26267.6
 14 05 2013  05 52  -21.0237 26041.0 -03442.7 -07.5309 26267.6
 14 05 2013  05 53  -21.0236 26041.0 -03442.6 -07.5308 26267.5
 14 05 2013  05 54  -21.0234 26041.1 -03442.6 -07.5308 26267.6
 14 05 2013  05 55  -21.0229 26041.2 -03442.7 -07.5310 26267.8
 14 05 2013  05 56  -21.0226 26041.3 -03442.8 -07.5311 26267.9
 14 05 2013  05 57  -21.0224 26041.3 -03442.9 -07.5312 26267.9
 14 05 2013  05 58  -21.0221 26041.5 -03442.9 -07.5313 26268.1
 14 05 2013  05 59  -21.0221 26041.4 -03442.9 -07.5314 26268.0
 14 05 2013  06 00  -21.0223 26041.3 -03442.9 -07.5313 26267.9
 14 05 2013  06 01  -21.0225 26041.2 -03442.8 -07.5312 26267.8
 14 05 2013  06 02  -21.0224 26041.1 -03442.8 -07.5311 26267.7
 14 05 2013  06 03  -21.0222 26041.1 -03442.8 -07.5311 26267.7
 14 05 2013  06 04  -21.0220 26041.3 -03442.8 -07.5312 26267.9
 14 05 2013  06 05  -21.0218 26041.4 -03442.9 -07.5314 26268.0
 14 05 2013  06 06  -21.0217 26041.5 -03443.0 -07.5315 26268.1
 14 05 2013  06 07  -21.0217 26041.5 -03443.0 -07.5316 26268.2
 14 05 2013  06 08  -21.0218 26041.5 -03443.0 -07.5315 26268.1
 14 05 2013  06 09  -21.0218 26041.5 -03443.0 -07.5314 26268.1
 14 05 2013  06 10  -21.0217 26041.4 -03442.9 -07.5313 26268.0
 14 05 2013  06 11  -21.0217 26041.3 -03442.9 -07.5312 26267.9
 14 05 2013  06 12  -21.0215 26041.3 -03442.8 -07.5312 26267.9
 14 05 2013  06 13  -21.0214 26041.3 -03442.8 -07.5312 26267.9
 14 05 2013  06 14  -21.0213 26041.4 -03442.9 -07.5312 26268.0
 14 05 2013  06 15  -21.0210 26041.4 -03442.9 -07.5313 26268.0
 14 05 2013  06 16  -21.0209 26041.4 -03442.9 -07.5313 26268.0
 14 05 2013  06 17  -21.0209 26041.3 -03442.9 -07.5313 26267.9
 14 05 2013  06 18  -21.0207 26041.4 -03442.9 -07.5313 26268.0
 14 05 2013  06 19  -21.0206 26041.4 -03442.9 -07.5313 26268.0
 14 05 2013  06 20  -21.0205 26041.2 -03442.8 -07.5312 26267.8
 14 05 2013  06 21  -21.0207 26040.9 -03442.7 -07.5311 26267.5
 14 05 2013  06 22  -21.0208 26040.8 -03442.7 -07.5310 26267.4
 14 05 2013  06 23  -21.0206 26040.8 -03442.7 -07.5310 26267.4
 14 05 2013  06 24  -21.0203 26041.0 -03442.8 -07.5311 26267.6
 14 05 2013  06 25  -21.0200 26041.2 -03442.9 -07.5313 26267.8
 14 05 2013  06 26  -21.0198 26041.3 -03443.0 -07.5315 26267.9
 14 05 2013  06 27  -21.0195 26041.5 -03443.1 -07.5316 26268.1
 14 05 2013  06 28  -21.0194 26041.5 -03443.1 -07.5317 26268.1
 14 05 2013  06 29  -21.0193 26041.6 -03443.2 -07.5318 26268.2
 14 05 2013  06 30  -21.0193 26041.7 -03443.2 -07.5319 26268.3
 14 05 2013  06 31  -21.0194 26041.7 -03443.2 -07.5319 26268.3
 14 05 2013  06 32  -21.0195 26041.7 -03443.2 -07.5319 26268.3
 14 05 2013  06 33  -21.0195 26041.6 -03443.1 -07.5318 26268.2
 14 05 2013  06 34  -21.0194 26041.6 -03443.1 -07.5318 26268.2
 14 05 2013  06 35  -21.0194 26041.6 -03443.2 -07.5318 26268.2
 14 05 2013  06 36  -21.0192 26041.8 -03443.2 -07.5319 26268.4
 14 05 2013  06 37  -21.0190 26041.9 -03443.3 -07.5320 26268.6
 14 05 2013  06 38  -21.0190 26042.0 -03443.3 -07.5321 26268.6
 14 05 2013  06 39  -21.0189 26041.9 -03443.3 -07.5321 26268.6
 14 05 2013  06 40  -21.0187 26041.9 -03443.3 -07.5321 26268.5
 14 05 2013  06 41  -21.0185 26041.9 -03443.3 -07.5321 26268.5
 14 05 2013  06 42  -21.0183 26041.9 -03443.4 -07.5322 26268.6
 14 05 2013  06 43  -21.0183 26041.9 -03443.4 -07.5322 26268.5
 14 05 2013  06 44  -21.0183 26041.7 -03443.3 -07.5321 26268.4
 14 05 2013  06 45  -21.0185 26041.5 -03443.2 -07.5319 26268.2
 14 05 2013  06 46  -21.0187 26041.3 -03443.1 -07.5317 26267.9
 14 05 2013  06 47  -21.0189 26041.0 -03442.9 -07.5315 26267.7
 14 05 2013  06 48  -21.0189 26040.9 -03442.8 -07.5313 26267.5
 14 05 2013  06 49  -21.0187 26040.8 -03442.8 -07.5313 26267.4
 14 05 2013  06 50  -21.0183 26040.7 -03442.9 -07.5314 26267.3
 14 05 2013  06 51  -21.0181 26040.8 -03443.0 -07.5317 26267.5
 14 05 2013  06 52  -21.0179 26040.9 -03443.1 -07.5319 26267.6
 14 05 2013  06 53  -21.0177 26041.0 -03443.2 -07.5321 26267.6
 14 05 2013  06 54  -21.0175 26041.0 -03443.3 -07.5322 26267.6
 14 05 2013  06 55  -21.0175 26040.9 -03443.3 -07.5323 26267.6
 14 05 2013  06 56  -21.0172 26040.8 -03443.3 -07.5322 26267.5
 14 05 2013  06 57  -21.0169 26040.7 -03443.3 -07.5323 26267.4
 14 05 2013  06 58  -21.0165 26040.6 -03443.3 -07.5323 26267.3
 14 05 2013  06 59  -21.0160 26040.4 -03443.3 -07.5324 26267.1
 14 05 2013  07 00  -21.0161 26040.2 -03443.3 -07.5324 26266.9
 14 05 2013  07 01  -21.0162 26040.1 -03443.3 -07.5324 26266.8
 14 05 2013  07 02  -21.0164 26039.9 -03443.2 -07.5324 26266.6
 14 05 2013  07 03  -21.0164 26039.7 -03443.2 -07.5324 26266.3
 14 05 2013  07 04  -21.0164 26039.5 -03443.2 -07.5324 26266.2
 14 05 2013  07 05  -21.0163 26039.4 -03443.2 -07.5326 26266.1
 14 05 2013  07 06  -21.0162 26039.3 -03443.3 -07.5327 26266.0
 14 05 2013  07 07  -21.0162 26039.3 -03443.4 -07.5329 26266.0
 14 05 2013  07 08  -21.0162 26039.2 -03443.4 -07.5330 26265.9
 14 05 2013  07 09  -21.0163 26039.1 -03443.4 -07.5330 26265.8
 14 05 2013  07 10  -21.0162 26038.8 -03443.3 -07.5329 26265.5
 14 05 2013  07 11  -21.0161 26038.7 -03443.2 -07.5328 26265.3
 14 05 2013  07 12  -21.0160 26038.4 -03443.2 -07.5328 26265.1
 14 05 2013  07 13  -21.0161 26038.2 -03443.2 -07.5329 26264.9
 14 05 2013  07 14  -21.0163 26037.9 -03443.2 -07.5329 26264.6
 14 05 2013  07 15  -21.0162 26037.7 -03443.1 -07.5328 26264.4
 14 05 2013  07 16  -21.0161 26037.6 -03443.1 -07.5329 26264.2
 14 05 2013  07 17  -21.0162 26037.3 -03443.1 -07.5329 26264.0
 14 05 2013  07 18  -21.0162 26037.1 -03443.0 -07.5328 26263.8
 14 05 2013  07 19  -21.0160 26036.9 -03443.0 -07.5327 26263.6
 14 05 2013  07 20  -21.0157 26036.7 -03443.0 -07.5328 26263.4
 14 05 2013  07 21  -21.0155 26036.6 -03443.0 -07.5328 26263.3
 14 05 2013  07 22  -21.0154 26036.5 -03443.0 -07.5330 26263.2
 14 05 2013  07 23  -21.0155 26036.3 -03443.0 -07.5330 26263.0
 14 05 2013  07 24  -21.0154 26036.3 -03443.0 -07.5331 26262.9
 14 05 2013  07 25  -21.0152 26036.1 -03443.0 -07.5331 26262.7
 14 05 2013  07 26  -21.0152 26035.9 -03443.1 -07.5332 26262.6
 14 05 2013  07 27  -21.0153 26035.9 -03443.1 -07.5334 26262.6
 14 05 2013  07 28  -21.0155 26035.7 -03443.1 -07.5334 26262.4
 14 05 2013  07 29  -21.0156 26035.3 -03442.9 -07.5331 26261.9
 14 05 2013  07 30  -21.0157 26035.6 -03443.1 -07.5333 26262.3
 14 05 2013  07 31  -21.0155 26034.8 -03442.8 -07.5329 26261.5
 14 05 2013  07 32  -21.0153 26035.2 -03443.0 -07.5333 26261.9
 14 05 2013  07 33  -21.0152 26034.9 -03443.0 -07.5333 26261.5
 14 05 2013  07 34  -21.0153 26034.8 -03443.1 -07.5335 26261.5
 14 05 2013  07 35  -21.0153 26034.6 -03443.1 -07.5336 26261.3
 14 05 2013  07 36  -21.0155 26035.0 -03443.2 -07.5339 26261.7
 14 05 2013  07 37  -21.0155 26034.6 -03443.2 -07.5339 26261.3
 14 05 2013  07 38  -21.0154 26035.0 -03443.4 -07.5343 26261.7
 14 05 2013  07 39  -21.0155 26035.0 -03443.5 -07.5344 26261.7
 14 05 2013  07 40  -21.0153 26034.9 -03443.5 -07.5344 26261.7
 14 05 2013  07 41  -21.0151 26035.2 -03443.6 -07.5346 26261.9
 14 05 2013  07 42  -21.0152 26035.3 -03443.7 -07.5348 26262.0
 14 05 2013  07 43  -21.0151 26035.2 -03443.6 -07.5347 26262.0
 14 05 2013  07 44  -21.0148 26035.3 -03443.7 -07.5348 26262.0
 14 05 2013  07 45  -21.0147 26035.3 -03443.7 -07.5349 26262.1
 14 05 2013  07 46  -21.0147 26035.3 -03443.8 -07.5349 26262.0
 14 05 2013  07 47  -21.0145 26035.4 -03443.9 -07.5352 26262.2
 14 05 2013  07 48  -21.0145 26035.3 -03443.9 -07.5353 26262.1
 14 05 2013  07 49  -21.0147 26035.3 -03444.0 -07.5354 26262.1
 14 05 2013  07 50  -21.0144 26035.4 -03444.0 -07.5354 26262.2
 14 05 2013  07 51  -21.0140 26035.5 -03444.1 -07.5355 26262.3
 14 05 2013  07 52  -21.0141 26035.6 -03444.1 -07.5356 26262.4
 14 05 2013  07 53  -21.0141 26035.5 -03444.1 -07.5357 26262.3
 14 05 2013  07 54  -21.0139 26035.5 -03444.2 -07.5358 26262.3
 14 05 2013  07 55  -21.0142 26035.5 -03444.3 -07.5360 26262.4
 14 05 2013  07 56  -21.0142 26035.5 -03444.3 -07.5360 26262.3
 14 05 2013  07 57  -21.0140 26035.4 -03444.2 -07.5359 26262.3
 14 05 2013  07 58  -21.0140 26035.4 -03444.2 -07.5359 26262.2
 14 05 2013  07 59  -21.0142 26035.6 -03444.3 -07.5361 26262.4
 14 05 2013  08 00  -21.0140 26035.6 -03444.4 -07.5361 26262.4
 14 05 2013  08 01  -21.0141 26035.5 -03444.3 -07.5361 26262.3
 14 05 2013  08 02  -21.0139 26035.2 -03444.2 -07.5359 26262.0
 14 05 2013  08 03  -21.0138 26035.0 -03444.1 -07.5357 26261.8
 14 05 2013  08 04  -21.0138 26034.8 -03444.0 -07.5355 26261.6
 14 05 2013  08 05  -21.0139 26034.8 -03444.0 -07.5356 26261.6
 14 05 2013  08 06  -21.0138 26034.8 -03444.0 -07.5356 26261.6
 14 05 2013  08 07  -21.0138 26034.5 -03443.8 -07.5353 26261.3
 14 05 2013  08 08  -21.0138 26034.2 -03443.7 -07.5351 26261.0
 14 05 2013  08 09  -21.0136 26034.5 -03443.8 -07.5352 26261.3
 14 05 2013  08 10  -21.0134 26034.3 -03443.7 -07.5351 26261.0
 14 05 2013  08 11  -21.0134 26034.0 -03443.5 -07.5348 26260.7
 14 05 2013  08 12  -21.0135 26033.8 -03443.5 -07.5348 26260.6
 14 05 2013  08 13  -21.0136 26033.6 -03443.5 -07.5348 26260.4
 14 05 2013  08 14  -21.0136 26033.7 -03443.6 -07.5349 26260.4
 14 05 2013  08 15  -21.0134 26033.8 -03443.6 -07.5350 26260.5
 14 05 2013  08 16  -21.0132 26033.7 -03443.6 -07.5351 26260.5
 14 05 2013  08 17  -21.0129 26033.5 -03443.5 -07.5349 26260.2
 14 05 2013  08 18  -21.0125 26033.4 -03443.5 -07.5349 26260.1
 14 05 2013  08 19  -21.0123 26032.9 -03443.3 -07.5346 26259.7
 14 05 2013  08 20  -21.0118 26032.7 -03443.2 -07.5345 26259.4
 14 05 2013  08 21  -21.0119 26032.6 -03443.2 -07.5345 26259.3
 14 05 2013  08 22  -21.0118 26032.4 -03443.2 -07.5345 26259.1
 14 05 2013  08 23  -21.0115 26032.2 -03443.1 -07.5344 26259.0
 14 05 2013  08 24  -21.0115 26032.3 -03443.1 -07.5345 26259.0
 14 05 2013  08 25  -21.0113 26032.4 -03443.2 -07.5346 26259.1
 14 05 2013  08 26  -21.0114 26032.3 -03443.2 -07.5347 26259.0
 14 05 2013  08 27  -21.0116 26032.1 -03443.1 -07.5345 26258.8
 14 05 2013  08 28  -21.0111 26032.0 -03443.1 -07.5344 26258.8
 14 05 2013  08 29  -21.0105 26031.7 -03442.9 -07.5340 26258.3
 14 05 2013  08 30  -21.0102 26031.6 -03442.9 -07.5341 26258.3
 14 05 2013  08 31  -21.0099 26031.5 -03442.9 -07.5341 26258.2
 14 05 2013  08 32  -21.0099 26031.0 -03442.7 -07.5339 26257.7
 14 05 2013  08 33  -21.0096 26030.8 -03442.6 -07.5338 26257.5
 14 05 2013  08 34  -21.0095 26030.9 -03442.7 -07.5338 26257.6
 14 05 2013  08 35  -21.0093 26031.1 -03442.8 -07.5340 26257.8
 14 05 2013  08 36  -21.0090 26031.2 -03442.9 -07.5343 26257.9
 14 05 2013  08 37  -21.0081 26030.9 -03442.8 -07.5340 26257.6
 14 05 2013  08 38  -21.0074 26030.5 -03442.6 -07.5338 26257.2
 14 05 2013  08 39  -21.0067 26030.1 -03442.4 -07.5334 26256.7
 14 05 2013  08 40  -21.0061 26029.8 -03442.3 -07.5333 26256.4
 14 05 2013  08 41  -21.0056 26029.8 -03442.3 -07.5333 26256.4
 14 05 2013  08 42  -21.0052 26029.6 -03442.1 -07.5330 26256.2
 14 05 2013  08 43  -21.0046 26029.8 -03442.1 -07.5330 26256.4
 14 05 2013  08 44  -21.0041 26030.3 -03442.3 -07.5332 26256.9
 14 05 2013  08 45  -21.0042 26030.9 -03442.8 -07.5340 26257.6
 14 05 2013  08 46  -21.0045 26031.6 -03443.3 -07.5351 26258.4
 14 05 2013  08 47  -21.0057 26032.3 -03443.9 -07.5361 26259.1
 14 05 2013  08 48  -21.0063 26032.5 -03444.1 -07.5365 26259.3
 14 05 2013  08 49  -21.0059 26032.1 -03443.9 -07.5361 26259.0
 14 05 2013  08 50  -21.0054 26031.8 -03443.5 -07.5354 26258.6
 14 05 2013  08 51  -21.0048 26031.6 -03443.2 -07.5348 26258.3
 14 05 2013  08 52  -21.0044 26031.6 -03443.0 -07.5343 26258.3
 14 05 2013  08 53  -21.0049 26031.9 -03443.2 -07.5346 26258.6
 14 05 2013  08 54  -21.0055 26032.4 -03443.5 -07.5351 26259.1
 14 05 2013  08 55  -21.0055 26033.2 -03444.0 -07.5360 26260.1
 14 05 2013  08 56  -21.0055 26034.1 -03444.5 -07.5369 26261.0
 14 05 2013  08 57  -21.0051 26034.6 -03444.8 -07.5373 26261.5
 14 05 2013  08 58  -21.0036 26034.8 -03444.7 -07.5371 26261.7
 14 05 2013  08 59  -21.0022 26035.0 -03444.5 -07.5367 26261.8
 14 05 2013  09 00  -21.0007 26034.7 -03444.2 -07.5360 26261.5
 14 05 2013  09 01  -20.9994 26034.3 -03443.9 -07.5355 26261.1
 14 05 2013  09 02  -20.9989 26034.2 -03443.8 -07.5354 26261.0
 14 05 2013  09 03  -20.9978 26034.4 -03444.0 -07.5357 26261.2
 14 05 2013  09 04  -20.9964 26034.6 -03444.1 -07.5358 26261.4
 14 05 2013  09 05  -20.9953 26035.0 -03444.2 -07.5360 26261.8
 14 05 2013  09 06  -20.9949 26034.9 -03444.3 -07.5362 26261.7
 14 05 2013  09 07  -20.9943 26034.7 -03444.2 -07.5361 26261.6
 14 05 2013  09 08  -20.9936 26034.8 -03444.2 -07.5361 26261.6
 14 05 2013  09 09  -20.9934 26035.0 -03444.4 -07.5364 26261.9
 14 05 2013  09 10  -20.9943 26035.4 -03444.8 -07.5372 26262.3
 14 05 2013  09 11  -20.9949 26035.9 -03445.3 -07.5381 26262.9
 14 05 2013  09 12  -20.9950 26036.5 -03445.8 -07.5389 26263.5
 14 05 2013  09 13  -20.9948 26036.9 -03446.1 -07.5396 26264.0
 14 05 2013  09 14  -20.9948 26037.3 -03446.4 -07.5401 26264.4
 14 05 2013  09 15  -20.9942 26037.2 -03446.4 -07.5401 26264.3
 14 05 2013  09 16  -20.9936 26037.1 -03446.3 -07.5399 26264.2
 14 05 2013  09 17  -20.9936 26036.9 -03446.2 -07.5398 26264.0
 14 05 2013  09 18  -20.9936 26036.6 -03446.2 -07.5397 26263.7
 14 05 2013  09 19  -20.9934 26036.2 -03446.0 -07.5396 26263.2
 14 05 2013  09 20  -20.9932 26036.1 -03446.0 -07.5396 26263.1
 14 05 2013  09 21  -20.9932 26036.4 -03446.2 -07.5400 26263.5
 14 05 2013  09 22  -20.9932 26036.7 -03446.4 -07.5403 26263.8
 14 05 2013  09 23  -20.9940 26036.9 -03446.6 -07.5406 26264.0
 14 05 2013  09 24  -20.9941 26037.2 -03446.9 -07.5412 26264.4
 14 05 2013  09 25  -20.9934 26037.0 -03446.9 -07.5411 26264.1
 14 05 2013  09 26  -20.9924 26036.8 -03446.7 -07.5409 26264.0
 14 05 2013  09 27  -20.9918 26036.9 -03446.8 -07.5410 26264.1
 14 05 2013  09 28  -20.9916 26037.0 -03446.9 -07.5411 26264.2
 14 05 2013  09 29  -20.9914 26036.9 -03446.8 -07.5411 26264.1
 14 05 2013  09 30  -20.9912 26036.9 -03446.9 -07.5412 26264.1
 14 05 2013  09 31  -20.9909 26036.8 -03446.9 -07.5413 26264.0
 14 05 2013  09 32  -20.9900 26036.7 -03446.9 -07.5414 26263.9
 14 05 2013  09 33  -20.9895 26036.7 -03447.0 -07.5415 26263.8
 14 05 2013  09 34  -20.9901 26036.4 -03447.0 -07.5415 26263.6
 14 05 2013  09 35  -20.9897 26036.2 -03446.9 -07.5414 26263.3
 14 05 2013  09 36  -20.9893 26036.0 -03446.8 -07.5413 26263.1
 14 05 2013  09 37  -20.9896 26035.7 -03446.7 -07.5412 26262.9
 14 05 2013  09 38  -20.9891 26035.5 -03446.6 -07.5411 26262.6
 14 05 2013  09 39  -20.9888 26035.1 -03446.5 -07.5408 26262.3
 14 05 2013  09 40  -20.9890 26035.0 -03446.5 -07.5409 26262.1
 14 05 2013  09 41  -20.9890 26034.7 -03446.5 -07.5410 26261.8
 14 05 2013  09 42  -20.9899 26034.4 -03446.6 -07.5413 26261.6
 14 05 2013  09 43  -20.9896 26034.3 -03446.7 -07.5415 26261.4
 14 05 2013  09 44  -20.9898 26034.0 -03446.7 -07.5417 26261.2
 14 05 2013  09 45  -20.9898 26033.7 -03446.7 -07.5418 26260.8
 14 05 2013  09 46  -20.9903 26033.2 -03446.6 -07.5417 26260.4
 14 05 2013  09 47  -20.9902 26033.0 -03446.6 -07.5418 26260.2
 14 05 2013  09 48  -20.9894 26033.2 -03446.8 -07.5420 26260.3
 14 05 2013  09 49  -20.9896 26032.9 -03446.8 -07.5422 26260.0
 14 05 2013  09 50  -20.9900 26032.6 -03446.8 -07.5423 26259.8
 14 05 2013  09 51  -20.9896 26032.3 -03446.8 -07.5424 26259.5
 14 05 2013  09 52  -20.9897 26032.0 -03446.8 -07.5425 26259.2
 14 05 2013  09 53  -20.9897 26031.8 -03446.9 -07.5428 26259.0
 14 05 2013  09 54  -20.9902 26032.0 -03447.2 -07.5433 26259.2
 14 05 2013  09 55  -20.9908 26032.2 -03447.5 -07.5439 26259.5
 14 05 2013  09 56  -20.9907 26032.9 -03447.9 -07.5445 26260.3
 14 05 2013  09 57  -20.9900 26033.6 -03448.3 -07.5452 26261.0
 14 05 2013  09 58  -20.9910 26034.1 -03448.7 -07.5459 26261.6
 14 05 2013  09 59  -20.9910 26034.4 -03448.9 -07.5463 26261.9
 14 05 2013  10 00  -20.9891 26034.5 -03448.8 -07.5460 26261.9
 14 05 2013  10 01  -20.9875 26034.6 -03448.6 -07.5456 26262.0
 14 05 2013  10 02  -20.9871 26034.6 -03448.5 -07.5455 26262.0
 14 05 2013  10 03  -20.9864 26034.4 -03448.4 -07.5452 26261.8
 14 05 2013  10 04  -20.9873 26034.2 -03448.3 -07.5451 26261.6
 14 05 2013  10 05  -20.9890 26034.6 -03448.7 -07.5458 26262.0
 14 05 2013  10 06  -20.9904 26035.1 -03449.2 -07.5467 26262.6
 14 05 2013  10 07  -20.9904 26034.8 -03449.3 -07.5469 26262.3
 14 05 2013  10 08  -20.9904 26034.6 -03449.3 -07.5470 26262.1
 14 05 2013  10 09  -20.9908 26034.6 -03449.5 -07.5475 26262.2
 14 05 2013  10 10  -20.9904 26033.8 -03449.3 -07.5473 26261.4
 14 05 2013  10 11  -20.9903 26032.9 -03449.0 -07.5470 26260.4
 14 05 2013  10 12  -20.9876 26032.1 -03448.5 -07.5461 26259.5
 14 05 2013  10 13  -20.9875 26031.9 -03448.5 -07.5460 26259.4
 14 05 2013  10 14  -20.9876 26031.9 -03448.6 -07.5464 26259.4
 14 05 2013  10 15  -20.9884 26031.8 -03448.7 -07.5466 26259.2
 14 05 2013  10 16  -20.9898 26031.5 -03448.9 -07.5471 26259.0
 14 05 2013  10 17  -20.9913 26031.2 -03449.1 -07.5476 26258.7
 14 05 2013  10 18  -20.9919 26030.7 -03449.1 -07.5478 26258.2
 14 05 2013  10 19  -20.9912 26030.4 -03449.0 -07.5477 26257.9
 14 05 2013  10 20  -20.9911 26030.0 -03449.0 -07.5479 26257.5
 14 05 2013  10 21  -20.9916 26029.6 -03449.1 -07.5480 26257.1
 14 05 2013  10 22  -20.9920 26029.5 -03449.2 -07.5482 26257.1
 14 05 2013  10 23  -20.9924 26030.1 -03449.5 -07.5488 26257.6
 14 05 2013  10 24  -20.9930 26030.4 -03449.7 -07.5492 26258.0
 14 05 2013  10 25  -20.9930 26030.7 -03449.8 -07.5494 26258.3
 14 05 2013  10 26  -20.9939 26030.8 -03449.9 -07.5494 26258.4
 14 05 2013  10 27  -20.9946 26031.1 -03450.0 -07.5496 26258.7
 14 05 2013  10 28  -20.9949 26031.4 -03450.1 -07.5497 26259.1
 14 05 2013  10 29  -20.9952 26031.9 -03450.2 -07.5497 26259.5
 14 05 2013  10 30  -20.9957 26032.1 -03450.1 -07.5496 26259.8
 14 05 2013  10 31  -20.9967 26032.6 -03450.1 -07.5495 26260.2
 14 05 2013  10 32  -20.9974 26033.4 -03450.3 -07.5497 26261.0
 14 05 2013  10 33  -20.9982 26033.7 -03450.3 -07.5495 26261.3
 14 05 2013  10 34  -20.9990 26033.7 -03450.2 -07.5492 26261.3
 14 05 2013  10 35  -21.0000 26033.8 -03450.1 -07.5491 26261.4
 14 05 2013  10 36  -21.0002 26033.8 -03450.0 -07.5489 26261.4
 14 05 2013  10 37  -21.0002 26034.2 -03450.1 -07.5489 26261.8
 14 05 2013  10 38  -21.0000 26034.5 -03450.2 -07.5490 26262.1
 14 05 2013  10 39  -20.9995 26034.6 -03450.0 -07.5487 26262.2
 14 05 2013  10 40  -20.9989 26034.9 -03450.0 -07.5485 26262.5
 14 05 2013  10 41  -20.9987 26035.5 -03450.1 -07.5485 26263.1
 14 05 2013  10 42  -20.9999 26035.6 -03450.0 -07.5483 26263.2
 14 05 2013  10 43  -21.0002 26035.5 -03449.8 -07.5480 26263.1
 14 05 2013  10 44  -21.0008 26035.6 -03449.7 -07.5476 26263.1
 14 05 2013  10 45  -21.0013 26035.6 -03449.6 -07.5476 26263.2
 14 05 2013  10 46  -21.0012 26035.7 -03449.6 -07.5474 26263.2
 14 05 2013  10 47  -21.0016 26035.6 -03449.5 -07.5472 26263.1
 14 05 2013  10 48  -21.0026 26036.0 -03449.6 -07.5473 26263.5
 14 05 2013  10 49  -21.0033 26036.5 -03449.8 -07.5475 26264.1
 14 05 2013  10 50  -21.0030 26037.1 -03449.8 -07.5473 26264.7
 14 05 2013  10 51  -21.0029 26037.5 -03449.6 -07.5469 26265.0
 14 05 2013  10 52  -21.0030 26037.9 -03449.4 -07.5465 26265.4
 14 05 2013  10 53  -21.0032 26038.4 -03449.3 -07.5461 26265.9
 14 05 2013  10 54  -21.0038 26038.6 -03449.2 -07.5457 26266.1
 14 05 2013  10 55  -21.0046 26038.7 -03449.0 -07.5453 26266.2
 14 05 2013  10 56  -21.0057 26038.7 -03448.8 -07.5449 26266.1
 14 05 2013  10 57  -21.0058 26038.7 -03448.6 -07.5444 26266.0
 14 05 2013  10 58  -21.0063 26038.8 -03448.5 -07.5442 26266.2
 14 05 2013  10 59  -21.0072 26038.7 -03448.4 -07.5439 26266.0
 14 05 2013  11 00  -21.0073 26038.5 -03448.1 -07.5435 26265.8
 14 05 2013  11 01  -21.0078 26038.3 -03448.0 -07.5433 26265.6
 14 05 2013  11 02  -21.0087 26037.9 -03447.9 -07.5431 26265.2
 14 05 2013  11 03  -21.0090 26037.6 -03447.7 -07.5429 26264.9
 14 05 2013  11 04  -21.0091 26037.4 -03447.7 -07.5429 26264.7
 14 05 2013  11 05  -21.0091 26037.6 -03447.8 -07.5431 26264.9
 14 05 2013  11 06  -21.0098 26037.4 -03447.8 -07.5431 26264.7
 14 05 2013  11 07  -21.0103 26037.3 -03447.7 -07.5429 26264.6
 14 05 2013  11 08  -21.0104 26037.2 -03447.6 -07.5427 26264.5
 14 05 2013  11 09  -21.0096 26037.7 -03447.7 -07.5427 26264.9
 14 05 2013  11 10  -21.0091 26038.2 -03447.8 -07.5428 26265.5
 14 05 2013  11 11  -21.0086 26038.4 -03447.7 -07.5425 26265.7
 14 05 2013  11 12  -21.0084 26038.1 -03447.4 -07.5421 26265.3
 14 05 2013  11 13  -21.0087 26037.5 -03447.2 -07.5417 26264.8
 14 05 2013  11 14  -21.0088 26037.5 -03447.2 -07.5416 26264.7
 14 05 2013  11 15  -21.0087 26037.6 -03447.2 -07.5417 26264.8
 14 05 2013  11 16  -21.0083 26037.9 -03447.2 -07.5417 26265.1
 14 05 2013  11 17  -21.0075 26038.1 -03447.1 -07.5413 26265.3
 14 05 2013  11 18  -21.0071 26037.8 -03446.8 -07.5408 26265.0
 14 05 2013  11 19  -21.0071 26037.1 -03446.5 -07.5402 26264.2
 14 05 2013  11 20  -21.0072 26036.6 -03446.2 -07.5397 26263.7
 14 05 2013  11 21  -21.0070 26036.7 -03446.0 -07.5393 26263.7
 14 05 2013  11 22  -21.0078 26036.4 -03445.8 -07.5389 26263.4
 14 05 2013  11 23  -21.0092 26035.4 -03445.4 -07.5385 26262.4
 14 05 2013  11 24  -21.0110 26034.1 -03445.1 -07.5382 26261.0
 14 05 2013  11 25  -21.0127 26033.3 -03445.1 -07.5384 26260.3
 14 05 2013  11 26  -21.0135 26033.3 -03445.4 -07.5390 26260.3
 14 05 2013  11 27  -21.0138 26033.4 -03445.7 -07.5396 26260.5
 14 05 2013  11 28  -21.0141 26033.2 -03445.8 -07.5399 26260.3
 14 05 2013  11 29  -21.0145 26033.3 -03446.0 -07.5402 26260.4
 14 05 2013  11 30  -21.0145 26033.5 -03446.0 -07.5404 26260.6
 14 05 2013  11 31  -21.0146 26033.7 -03446.1 -07.5404 26260.8
 14 05 2013  11 32  -21.0149 26033.7 -03446.0 -07.5402 26260.8
 14 05 2013  11 33  -21.0149 26033.9 -03446.0 -07.5401 26261.0
 14 05 2013  11 34  -21.0153 26034.0 -03445.9 -07.5399 26261.0
 14 05 2013  11 35  -21.0156 26034.2 -03445.9 -07.5399 26261.3
 14 05 2013  11 36  -21.0153 26034.4 -03445.9 -07.5397 26261.5
 14 05 2013  11 37  -21.0152 26034.2 -03445.6 -07.5392 26261.2
 14 05 2013  11 38  -21.0156 26033.9 -03445.4 -07.5389 26260.9
 14 05 2013  11 39  -21.0157 26034.2 -03445.5 -07.5390 26261.2
 14 05 2013  11 40  -21.0161 26035.0 -03445.8 -07.5395 26262.0
 14 05 2013  11 41  -21.0164 26035.4 -03445.9 -07.5394 26262.5
 14 05 2013  11 42  -21.0173 26036.0 -03445.9 -07.5394 26263.1
 14 05 2013  11 43  -21.0183 26036.7 -03446.0 -07.5393 26263.7
 14 05 2013  11 44  -21.0196 26037.5 -03446.0 -07.5392 26264.5
 14 05 2013  11 45  -21.0207 26038.0 -03446.0 -07.5389 26265.1
 14 05 2013  11 46  -21.0206 26038.5 -03445.8 -07.5384 26265.5
 14 05 2013  11 47  -21.0205 26038.3 -03445.4 -07.5375 26265.3
 14 05 2013  11 48  -21.0204 26038.4 -03445.1 -07.5369 26265.3
 14 05 2013  11 49  -21.0206 26038.7 -03445.1 -07.5368 26265.6
 14 05 2013  11 50  -21.0214 26038.6 -03444.9 -07.5365 26265.5
 14 05 2013  11 51  -21.0222 26038.4 -03444.7 -07.5361 26265.3
 14 05 2013  11 52  -21.0233 26038.7 -03444.8 -07.5362 26265.6
 14 05 2013  11 53  -21.0243 26038.5 -03444.7 -07.5360 26265.4
 14 05 2013  11 54  -21.0247 26038.8 -03444.7 -07.5360 26265.6
 14 05 2013  11 55  -21.0252 26038.9 -03444.7 -07.5359 26265.8
 14 05 2013  11 56  -21.0256 26039.0 -03444.6 -07.5356 26265.8
 14 05 2013  11 57  -21.0261 26039.0 -03444.5 -07.5354 26265.8
 14 05 2013  11 58  -21.0266 26038.8 -03444.3 -07.5352 26265.6
 14 05 2013  11 59  -21.0273 26038.8 -03444.3 -07.5351 26265.6
 14 05 2013  12 00  -21.0282 26039.0 -03444.4 -07.5353 26265.8
 14 05 2013  12 01  -21.0296 26039.4 -03444.6 -07.5356 26266.2
 14 05 2013  12 02  -21.0304 26039.7 -03444.7 -07.5357 26266.5
 14 05 2013  12 03  -21.0309 26040.4 -03444.9 -07.5360 26267.2
 14 05 2013  12 04  -21.0311 26041.0 -03445.0 -07.5359 26267.9
 14 05 2013  12 05  -21.0309 26041.6 -03445.0 -07.5358 26268.5
 14 05 2013  12 06  -21.0308 26042.1 -03444.9 -07.5355 26269.0
 14 05 2013  12 07  -21.0311 26042.6 -03444.9 -07.5353 26269.4
 14 05 2013  12 08  -21.0316 26043.3 -03445.0 -07.5353 26270.1
 14 05 2013  12 09  -21.0325 26043.9 -03445.0 -07.5351 26270.7
 14 05 2013  12 10  -21.0332 26044.1 -03444.9 -07.5348 26270.9
 14 05 2013  12 11  -21.0339 26044.4 -03444.7 -07.5344 26271.2
 14 05 2013  12 12  -21.0348 26045.0 -03444.8 -07.5343 26271.8
 14 05 2013  12 13  -21.0356 26045.5 -03444.7 -07.5341 26272.3
 14 05 2013  12 14  -21.0365 26045.8 -03444.6 -07.5338 26272.6
 14 05 2013  12 15  -21.0370 26046.2 -03444.5 -07.5334 26273.0
 14 05 2013  12 16  -21.0374 26046.7 -03444.5 -07.5332 26273.5
 14 05 2013  12 17  -21.0379 26046.6 -03444.2 -07.5327 26273.3
 14 05 2013  12 18  -21.0382 26046.3 -03444.0 -07.5323 26273.0
 14 05 2013  12 19  -21.0384 26046.2 -03443.9 -07.5321 26272.9
 14 05 2013  12 20  -21.0392 26045.9 -03443.8 -07.5319 26272.6
 14 05 2013  12 21  -21.0405 26045.5 -03443.6 -07.5317 26272.2
 14 05 2013  12 22  -21.0420 26045.3 -03443.6 -07.5317 26272.0
 14 05 2013  12 23  -21.0431 26045.2 -03443.7 -07.5319 26271.9
 14 05 2013  12 24  -21.0437 26045.2 -03443.8 -07.5322 26271.9
 14 05 2013  12 25  -21.0447 26045.2 -03443.8 -07.5322 26271.9
 14 05 2013  12 26  -21.0454 26044.8 -03443.7 -07.5321 26271.5
 14 05 2013  12 27  -21.0454 26044.6 -03443.7 -07.5321 26271.3
 14 05 2013  12 28  -21.0456 26044.7 -03443.8 -07.5322 26271.4
 14 05 2013  12 29  -21.0455 26044.6 -03443.7 -07.5322 26271.3
 14 05 2013  12 30  -21.0454 26044.4 -03443.8 -07.5323 26271.1
 14 05 2013  12 31  -21.0452 26044.0 -03443.7 -07.5323 26270.7
 14 05 2013  12 32  -21.0448 26043.9 -03443.9 -07.5327 26270.6
 14 05 2013  12 33  -21.0450 26043.6 -03444.0 -07.5331 26270.3
 14 05 2013  12 34  -21.0449 26043.6 -03444.2 -07.5336 26270.4
 14 05 2013  12 35  -21.0443 26044.5 -03444.6 -07.5341 26271.3
 14 05 2013  12 36  -21.0443 26045.1 -03444.7 -07.5341 26271.9
 14 05 2013  12 37  -21.0443 26045.1 -03444.5 -07.5338 26271.9
 14 05 2013  12 38  -21.0448 26045.6 -03444.7 -07.5340 26272.4
 14 05 2013  12 39  -21.0453 26045.8 -03444.7 -07.5340 26272.6
 14 05 2013  12 40  -21.0454 26045.4 -03444.5 -07.5337 26272.2
 14 05 2013  12 41  -21.0455 26045.5 -03444.6 -07.5337 26272.3
 14 05 2013  12 42  -21.0455 26045.9 -03444.7 -07.5339 26272.7
 14 05 2013  12 43  -21.0452 26045.7 -03444.6 -07.5337 26272.4
 14 05 2013  12 44  -21.0452 26044.8 -03444.3 -07.5334 26271.6
 14 05 2013  12 45  -21.0454 26044.0 -03444.3 -07.5335 26270.7
 14 05 2013  12 46  -21.0464 26043.5 -03444.5 -07.5342 26270.3
 14 05 2013  12 47  -21.0474 26043.4 -03444.9 -07.5350 26270.2
 14 05 2013  12 48  -21.0485 26043.7 -03445.4 -07.5360 26270.6
 14 05 2013  12 49  -21.0492 26044.0 -03445.8 -07.5368 26271.0
 14 05 2013  12 50  -21.0494 26044.8 -03446.1 -07.5374 26271.8
 14 05 2013  12 51  -21.0501 26045.0 -03446.3 -07.5376 26272.1
 14 05 2013  12 52  -21.0504 26044.9 -03446.1 -07.5373 26271.9
 14 05 2013  12 53  -21.0502 26043.5 -03445.6 -07.5364 26270.5
 14 05 2013  12 54  -21.0506 26042.7 -03445.3 -07.5361 26269.6
 14 05 2013  12 55  -21.0513 26042.0 -03445.3 -07.5364 26268.9
 14 05 2013  12 56  -21.0528 26041.3 -03445.4 -07.5368 26268.3
 14 05 2013  12 57  -21.0536 26040.8 -03445.6 -07.5373 26267.8
 14 05 2013  12 58  -21.0540 26040.9 -03445.9 -07.5380 26267.9
 14 05 2013  12 59  -21.0540 26040.7 -03446.2 -07.5386 26267.8
 14 05 2013  13 00  -21.0529 26040.3 -03446.2 -07.5387 26267.3
 14 05 2013  13 01  -21.0519 26040.2 -03446.4 -07.5392 26267.3
 14 05 2013  13 02  -21.0516 26040.6 -03446.8 -07.5399 26267.7
 14 05 2013  13 03  -21.0513 26040.7 -03446.9 -07.5403 26267.9
 14 05 2013  13 04  -21.0517 26041.1 -03447.1 -07.5406 26268.2
 14 05 2013  13 05  -21.0518 26041.7 -03447.4 -07.5410 26268.9
 14 05 2013  13 06  -21.0513 26042.0 -03447.4 -07.5409 26269.2
 14 05 2013  13 07  -21.0507 26042.6 -03447.5 -07.5409 26269.8
 14 05 2013  13 08  -21.0501 26043.4 -03447.6 -07.5409 26270.6
 14 05 2013  13 09  -21.0499 26044.5 -03447.6 -07.5406 26271.7
 14 05 2013  13 10  -21.0497 26044.9 -03447.3 -07.5399 26272.1
 14 05 2013  13 11  -21.0488 26045.4 -03447.0 -07.5391 26272.5
 14 05 2013  13 12  -21.0485 26046.2 -03446.9 -07.5387 26273.2
 14 05 2013  13 13  -21.0490 26047.1 -03447.0 -07.5385 26274.2
 14 05 2013  13 14  -21.0488 26048.2 -03447.0 -07.5382 26275.2
 14 05 2013  13 15  -21.0486 26049.2 -03446.9 -07.5377 26276.3
 14 05 2013  13 16  -21.0490 26050.2 -03446.8 -07.5372 26277.2
 14 05 2013  13 17  -21.0495 26050.8 -03446.5 -07.5364 26277.8
 14 05 2013  13 18  -21.0495 26051.4 -03446.2 -07.5356 26278.3
 14 05 2013  13 19  -21.0496 26052.3 -03446.0 -07.5350 26279.2
 14 05 2013  13 20  -21.0499 26053.0 -03445.8 -07.5342 26279.9
 14 05 2013  13 21  -21.0498 26053.2 -03445.3 -07.5332 26280.0
 14 05 2013  13 22  -21.0505 26053.1 -03444.8 -07.5322 26279.8
 14 05 2013  13 23  -21.0513 26053.2 -03444.5 -07.5314 26279.9
 14 05 2013  13 24  -21.0524 26053.5 -03444.3 -07.5309 26280.2
 14 05 2013  13 25  -21.0534 26053.9 -03444.1 -07.5304 26280.6
 14 05 2013  13 26  -21.0545 26054.4 -03444.0 -07.5300 26281.1
 14 05 2013  13 27  -21.0557 26054.7 -03443.8 -07.5294 26281.3
 14 05 2013  13 28  -21.0568 26055.1 -03443.5 -07.5287 26281.6
 14 05 2013  13 29  -21.0578 26055.1 -03443.1 -07.5279 26281.6
 14 05 2013  13 30  -21.0586 26054.8 -03442.7 -07.5270 26281.2
 14 05 2013  13 31  -21.0593 26054.0 -03442.1 -07.5260 26280.4
 14 05 2013  13 32  -21.0593 26053.8 -03441.8 -07.5254 26280.2
 14 05 2013  13 33  -21.0591 26054.0 -03441.7 -07.5252 26280.4
 14 05 2013  13 34  -21.0589 26054.4 -03441.7 -07.5249 26280.7
 14 05 2013  13 35  -21.0590 26054.9 -03441.6 -07.5247 26281.2
 14 05 2013  13 36  -21.0591 26055.3 -03441.6 -07.5244 26281.7
 14 05 2013  13 37  -21.0597 26055.7 -03441.3 -07.5239 26282.0
 14 05 2013  13 38  -21.0605 26056.1 -03441.2 -07.5235 26282.4
 14 05 2013  13 39  -21.0610 26056.5 -03441.0 -07.5229 26282.7
 14 05 2013  13 40  -21.0617 26056.8 -03440.7 -07.5222 26283.0
 14 05 2013  13 41  -21.0620 26056.9 -03440.4 -07.5215 26283.1
 14 05 2013  13 42  -21.0626 26057.0 -03440.1 -07.5208 26283.1
 14 05 2013  13 43  -21.0633 26057.0 -03439.8 -07.5202 26283.1
 14 05 2013  13 44  -21.0644 26057.5 -03439.8 -07.5201 26283.5
 14 05 2013  13 45  -21.0655 26057.8 -03439.6 -07.5196 26283.8
 14 05 2013  13 46  -21.0668 26058.0 -03439.5 -07.5192 26284.1
 14 05 2013  13 47  -21.0679 26058.4 -03439.3 -07.5187 26284.4
 14 05 2013  13 48  -21.0686 26058.8 -03439.2 -07.5183 26284.8
 14 05 2013  13 49  -21.0693 26059.5 -03439.0 -07.5176 26285.5
 14 05 2013  13 50  -21.0692 26060.0 -03438.6 -07.5168 26285.9
 14 05 2013  13 51  -21.0689 26060.3 -03438.2 -07.5158 26286.1
 14 05 2013  13 52  -21.0703 26060.2 -03437.8 -07.5150 26286.0
 14 05 2013  13 53  -21.0697 26060.1 -03437.5 -07.5142 26285.9
 14 05 2013  13 54  -21.0698 26060.2 -03437.2 -07.5135 26285.9
 14 05 2013  13 55  -21.0703 26060.6 -03437.1 -07.5133 26286.3
 14 05 2013  13 56  -21.0711 26061.1 -03437.1 -07.5131 26286.8
 14 05 2013  13 57  -21.0717 26061.4 -03436.9 -07.5127 26287.1
 14 05 2013  13 58  -21.0723 26061.6 -03436.7 -07.5121 26287.2
 14 05 2013  13 59  -21.0729 26061.7 -03436.5 -07.5117 26287.2
 14 05 2013  14 00  -21.0731 26061.7 -03436.3 -07.5113 26287.3
 14 05 2013  14 01  -21.0734 26061.5 -03436.0 -07.5107 26287.0
 14 05 2013  14 02  -21.0735 26061.1 -03435.7 -07.5101 26286.6
 14 05 2013  14 03  -21.0738 26061.0 -03435.5 -07.5098 26286.4
 14 05 2013  14 04  -21.0744 26061.1 -03435.5 -07.5097 26286.5
 14 05 2013  14 05  -21.0749 26061.3 -03435.5 -07.5097 26286.8
 14 05 2013  14 06  -21.0757 26061.4 -03435.5 -07.5095 26286.8
 14 05 2013  14 07  -21.0764 26061.0 -03435.2 -07.5091 26286.5
 14 05 2013  14 08  -21.0771 26060.7 -03435.0 -07.5088 26286.1
 14 05 2013  14 09  -21.0779 26060.1 -03434.8 -07.5084 26285.5
 14 05 2013  14 10  -21.0786 26059.1 -03434.5 -07.5080 26284.5
 14 05 2013  14 11  -21.0791 26058.5 -03434.3 -07.5079 26283.8
 14 05 2013  14 12  -21.0798 26058.1 -03434.3 -07.5080 26283.4
 14 05 2013  14 13  -21.0804 26058.0 -03434.5 -07.5083 26283.4
 14 05 2013  14 14  -21.0809 26057.8 -03434.5 -07.5084 26283.2
 14 05 2013  14 15  -21.0814 26057.7 -03434.5 -07.5085 26283.1
 14 05 2013  14 16  -21.0821 26058.0 -03434.6 -07.5087 26283.4
 14 05 2013  14 17  -21.0827 26058.3 -03434.7 -07.5088 26283.7
 14 05 2013  14 18  -21.0830 26058.5 -03434.7 -07.5087 26283.9
 14 05 2013  14 19  -21.0831 26058.7 -03434.7 -07.5086 26284.1
 14 05 2013  14 20  -21.0832 26059.1 -03434.7 -07.5085 26284.5
 14 05 2013  14 21  -21.0833 26059.4 -03434.7 -07.5084 26284.8
 14 05 2013  14 22  -21.0832 26059.6 -03434.6 -07.5081 26284.9
 14 05 2013  14 23  -21.0833 26059.5 -03434.4 -07.5078 26284.9
 14 05 2013  14 24  -21.0836 26059.9 -03434.5 -07.5079 26285.2
 14 05 2013  14 25  -21.0840 26060.2 -03434.5 -07.5077 26285.5
 14 05 2013  14 26  -21.0844 26060.4 -03434.4 -07.5075 26285.7
 14 05 2013  14 27  -21.0847 26060.4 -03434.2 -07.5071 26285.7
 14 05 2013  14 28  -21.0851 26060.3 -03434.0 -07.5068 26285.6
 14 05 2013  14 29  -21.0854 26060.3 -03433.9 -07.5065 26285.5
 14 05 2013  14 30  -21.0855 26059.8 -03433.6 -07.5060 26285.1
 14 05 2013  14 31  -21.0856 26059.6 -03433.4 -07.5056 26284.8
 14 05 2013  14 32  -21.0859 26059.3 -03433.3 -07.5054 26284.5
 14 05 2013  14 33  -21.0864 26059.7 -03433.3 -07.5053 26284.8
 14 05 2013  14 34  -21.0869 26059.7 -03433.2 -07.5052 26284.9
 14 05 2013  14 35  -21.0870 26059.5 -03433.0 -07.5048 26284.6
 14 05 2013  14 36  -21.0876 26059.5 -03432.9 -07.5046 26284.6
 14 05 2013  14 37  -21.0882 26059.2 -03432.8 -07.5043 26284.4
 14 05 2013  14 38  -21.0888 26059.0 -03432.6 -07.5041 26284.1
 14 05 2013  14 39  -21.0898 26059.0 -03432.6 -07.5041 26284.1
 14 05 2013  14 40  -21.0904 26059.1 -03432.6 -07.5039 26284.2
 14 05 2013  14 41  -21.0909 26059.4 -03432.5 -07.5037 26284.5
 14 05 2013  14 42  -21.0913 26059.4 -03432.4 -07.5034 26284.5
 14 05 2013  14 43  -21.0913 26059.2 -03432.0 -07.5027 26284.2
 14 05 2013  14 44  -21.0909 26059.2 -03431.8 -07.5023 26284.2
 14 05 2013  14 45  -21.0907 26059.4 -03431.7 -07.5019 26284.4
 14 05 2013  14 46  -21.0907 26059.5 -03431.5 -07.5015 26284.4
 14 05 2013  14 47  -21.0908 26059.6 -03431.3 -07.5010 26284.5
 14 05 2013  14 48  -21.0909 26059.7 -03431.1 -07.5005 26284.6
 14 05 2013  14 49  -21.0910 26059.8 -03430.9 -07.5000 26284.7
 14 05 2013  14 50  -21.0911 26060.2 -03430.8 -07.4997 26285.1
 14 05 2013  14 51  -21.0914 26060.7 -03430.6 -07.4993 26285.5
 14 05 2013  14 52  -21.0916 26061.1 -03430.5 -07.4989 26285.9
 14 05 2013  14 53  -21.0918 26061.3 -03430.3 -07.4984 26286.1
 14 05 2013  14 54  -21.0924 26062.0 -03430.3 -07.4982 26286.7
 14 05 2013  14 55  -21.0924 26062.7 -03430.2 -07.4979 26287.5
 14 05 2013  14 56  -21.0923 26063.0 -03430.0 -07.4972 26287.7
 14 05 2013  14 57  -21.0925 26063.1 -03429.7 -07.4966 26287.8
 14 05 2013  14 58  -21.0924 26063.1 -03429.4 -07.4960 26287.7
 14 05 2013  14 59  -21.0926 26063.3 -03429.2 -07.4955 26287.9
 14 05 2013  15 00  -21.0933 26063.7 -03429.1 -07.4952 26288.3
 14 05 2013  15 01  -21.0939 26063.9 -03429.0 -07.4948 26288.5
 14 05 2013  15 02  -21.0948 26064.8 -03429.1 -07.4947 26289.3
 14 05 2013  15 03  -21.0959 26065.5 -03429.1 -07.4946 26290.1
 14 05 2013  15 04  -21.0966 26065.5 -03428.7 -07.4938 26290.0
 14 05 2013  15 05  -21.0970 26065.0 -03428.2 -07.4929 26289.5
 14 05 2013  15 06  -21.0974 26064.7 -03427.9 -07.4923 26289.1
 14 05 2013  15 07  -21.0986 26065.2 -03428.0 -07.4923 26289.6
 14 05 2013  15 08  -21.0993 26065.1 -03427.7 -07.4918 26289.5
 14 05 2013  15 09  -21.0998 26064.9 -03427.4 -07.4911 26289.3
 14 05 2013  15 10  -21.1004 26064.8 -03427.2 -07.4906 26289.2
 14 05 2013  15 11  -21.1011 26065.4 -03427.2 -07.4906 26289.7
 14 05 2013  15 12  -21.1017 26065.5 -03427.1 -07.4902 26289.8
 14 05 2013  15 13  -21.1018 26065.0 -03426.6 -07.4894 26289.3
 14 05 2013  15 14  -21.1015 26064.5 -03426.2 -07.4886 26288.7
 14 05 2013  15 15  -21.1016 26064.4 -03426.0 -07.4882 26288.6
 14 05 2013  15 16  -21.1018 26064.6 -03425.9 -07.4880 26288.8
 14 05 2013  15 17  -21.1022 26064.9 -03425.9 -07.4878 26289.1
 14 05 2013  15 18  -21.1023 26064.8 -03425.6 -07.4873 26288.9
 14 05 2013  15 19  -21.1020 26064.3 -03425.3 -07.4866 26288.4
 14 05 2013  15 20  -21.1017 26064.2 -03425.1 -07.4863 26288.3
 14 05 2013  15 21  -21.1016 26064.5 -03425.1 -07.4862 26288.6
 14 05 2013  15 22  -21.1014 26064.7 -03425.0 -07.4859 26288.7
 14 05 2013  15 23  -21.1010 26064.8 -03424.8 -07.4856 26288.8
 14 05 2013  15 24  -21.1004 26064.6 -03424.5 -07.4850 26288.6
 14 05 2013  15 25  -21.1002 26064.5 -03424.4 -07.4847 26288.5
 14 05 2013  15 26  -21.1002 26064.5 -03424.3 -07.4846 26288.5
 14 05 2013  15 27  -21.1003 26064.6 -03424.3 -07.4845 26288.6
 14 05 2013  15 28  -21.1008 26064.6 -03424.2 -07.4843 26288.6
 14 05 2013  15 29  -21.1017 26065.0 -03424.3 -07.4844 26289.0
 14 05 2013  15 30  -21.1024 26065.3 -03424.3 -07.4842 26289.2
 14 05 2013  15 31  -21.1023 26065.0 -03424.0 -07.4837 26289.0
 14 05 2013  15 32  -21.1024 26064.5 -03423.7 -07.4832 26288.4
 14 05 2013  15 33  -21.1025 26064.0 -03423.4 -07.4827 26287.8
 14 05 2013  15 34  -21.1025 26063.6 -03423.3 -07.4825 26287.4
 14 05 2013  15 35  -21.1027 26063.3 -03423.2 -07.4824 26287.2
 14 05 2013  15 36  -21.1026 26063.0 -03423.0 -07.4822 26286.8
 14 05 2013  15 37  -21.1026 26062.5 -03422.9 -07.4820 26286.3
 14 05 2013  15 38  -21.1025 26062.0 -03422.7 -07.4817 26285.8
 14 05 2013  15 39  -21.1026 26061.9 -03422.7 -07.4818 26285.7
 14 05 2013  15 40  -21.1028 26061.8 -03422.7 -07.4819 26285.6
 14 05 2013  15 41  -21.1028 26061.7 -03422.7 -07.4818 26285.5
 14 05 2013  15 42  -21.1028 26061.6 -03422.7 -07.4818 26285.4
 14 05 2013  15 43  -21.1026 26061.4 -03422.6 -07.4816 26285.2
 14 05 2013  15 44  -21.1022 26061.0 -03422.4 -07.4814 26284.7
 14 05 2013  15 45  -21.1016 26060.5 -03422.2 -07.4811 26284.3
 14 05 2013  15 46  -21.1012 26060.4 -03422.2 -07.4811 26284.1
 14 05 2013  15 47  -21.1011 26060.5 -03422.2 -07.4812 26284.2
 14 05 2013  15 48  -21.1009 26060.5 -03422.2 -07.4812 26284.2
 14 05 2013  15 49  -21.1004 26060.3 -03422.1 -07.4810 26284.1
 14 05 2013  15 50  -21.1003 26060.4 -03422.1 -07.4810 26284.1
 14 05 2013  15 51  -21.1003 26060.5 -03422.1 -07.4810 26284.2
 14 05 2013  15 52  -21.1006 26060.7 -03422.1 -07.4808 26284.4
 14 05 2013  15 53  -21.1010 26060.9 -03422.0 -07.4806 26284.6
 14 05 2013  15 54  -21.1015 26061.4 -03422.0 -07.4804 26285.1
 14 05 2013  15 55  -21.1020 26061.7 -03421.9 -07.4801 26285.4
 14 05 2013  15 56  -21.1021 26061.9 -03421.6 -07.4795 26285.5
 14 05 2013  15 57  -21.1018 26062.0 -03421.4 -07.4789 26285.6
 14 05 2013  15 58  -21.1014 26061.7 -03421.0 -07.4783 26285.3
 14 05 2013  15 59  -21.1014 26061.7 -03420.9 -07.4780 26285.2
 14 05 2013  16 00  -21.1011 26061.4 -03420.7 -07.4775 26285.0
 14 05 2013  16 01  -21.1004 26061.2 -03420.4 -07.4771 26284.7
 14 05 2013  16 02  -21.0999 26061.0 -03420.2 -07.4766 26284.5
 14 05 2013  16 03  -21.0997 26061.0 -03420.1 -07.4764 26284.4
 14 05 2013  16 04  -21.0994 26061.0 -03420.0 -07.4761 26284.4
 14 05 2013  16 05  -21.0993 26060.8 -03419.8 -07.4758 26284.2
 14 05 2013  16 06  -21.0990 26060.3 -03419.5 -07.4753 26283.7
 14 05 2013  16 07  -21.0988 26060.0 -03419.3 -07.4750 26283.3
 14 05 2013  16 08  -21.0986 26059.7 -03419.2 -07.4749 26283.0
 14 05 2013  16 09  -21.0985 26059.5 -03419.2 -07.4749 26282.8
 14 05 2013  16 10  -21.0986 26059.1 -03419.1 -07.4747 26282.4
 14 05 2013  16 11  -21.0984 26058.7 -03418.9 -07.4745 26282.0
 14 05 2013  16 12  -21.0980 26058.2 -03418.8 -07.4743 26281.5
 14 05 2013  16 13  -21.0975 26058.0 -03418.7 -07.4742 26281.3
 14 05 2013  16 14  -21.0973 26058.0 -03418.7 -07.4743 26281.3
 14 05 2013  16 15  -21.0970 26057.9 -03418.7 -07.4744 26281.3
 14 05 2013  16 16  -21.0965 26057.7 -03418.6 -07.4742 26281.0
 14 05 2013  16 17  -21.0960 26057.7 -03418.6 -07.4742 26281.0
 14 05 2013  16 18  -21.0955 26057.8 -03418.6 -07.4741 26281.1
 14 05 2013  16 19  -21.0951 26057.8 -03418.6 -07.4741 26281.1
 14 05 2013  16 20  -21.0947 26057.9 -03418.6 -07.4741 26281.2
 14 05 2013  16 21  -21.0944 26058.2 -03418.7 -07.4741 26281.4
 14 05 2013  16 22  -21.0940 26058.4 -03418.7 -07.4742 26281.7
 14 05 2013  16 23  -21.0936 26058.5 -03418.7 -07.4741 26281.8
 14 05 2013  16 24  -21.0931 26058.5 -03418.6 -07.4739 26281.8
 14 05 2013  16 25  -21.0925 26058.4 -03418.5 -07.4737 26281.7
 14 05 2013  16 26  -21.0918 26058.4 -03418.4 -07.4735 26281.7
 14 05 2013  16 27  -21.0911 26058.0 -03418.2 -07.4732 26281.2
 14 05 2013  16 28  -21.0906 26057.7 -03418.1 -07.4731 26280.9
 14 05 2013  16 29  -21.0900 26057.5 -03418.0 -07.4730 26280.7
 14 05 2013  16 30  -21.0895 26057.1 -03417.9 -07.4728 26280.3
 14 05 2013  16 31  -21.0891 26057.0 -03417.9 -07.4729 26280.2
 14 05 2013  16 32  -21.0889 26057.2 -03418.0 -07.4730 26280.4
 14 05 2013  16 33  -21.0887 26057.5 -03418.1 -07.4731 26280.7
 14 05 2013  16 34  -21.0881 26057.5 -03418.1 -07.4731 26280.8
 14 05 2013  16 35  -21.0874 26057.3 -03417.9 -07.4728 26280.5
 14 05 2013  16 36  -21.0866 26057.0 -03417.8 -07.4725 26280.2
 14 05 2013  16 37  -21.0860 26056.8 -03417.6 -07.4722 26280.0
 14 05 2013  16 38  -21.0850 26056.7 -03417.5 -07.4721 26279.8
 14 05 2013  16 39  -21.0839 26056.3 -03417.4 -07.4719 26279.5
 14 05 2013  16 40  -21.0829 26055.9 -03417.2 -07.4717 26279.0
 14 05 2013  16 41  -21.0824 26055.7 -03417.2 -07.4716 26278.8
 14 05 2013  16 42  -21.0819 26055.7 -03417.2 -07.4717 26278.9
 14 05 2013  16 43  -21.0814 26055.9 -03417.2 -07.4717 26279.0
 14 05 2013  16 44  -21.0808 26056.0 -03417.3 -07.4717 26279.1
 14 05 2013  16 45  -21.0799 26055.9 -03417.1 -07.4715 26279.0
 14 05 2013  16 46  -21.0796 26055.7 -03417.0 -07.4713 26278.8
 14 05 2013  16 47  -21.0790 26055.5 -03416.9 -07.4712 26278.6
 14 05 2013  16 48  -21.0783 26055.3 -03416.8 -07.4710 26278.4
 14 05 2013  16 49  -21.0775 26055.2 -03416.8 -07.4709 26278.3
 14 05 2013  16 50  -21.0768 26055.2 -03416.8 -07.4709 26278.3
 14 05 2013  16 51  -21.0765 26055.2 -03416.7 -07.4708 26278.2
 14 05 2013  16 52  -21.0760 26055.1 -03416.7 -07.4708 26278.2
 14 05 2013  16 53  -21.0756 26055.0 -03416.7 -07.4707 26278.1
 14 05 2013  16 54  -21.0751 26054.9 -03416.6 -07.4706 26278.0
 14 05 2013  16 55  -21.0744 26054.7 -03416.5 -07.4705 26277.8
 14 05 2013  16 56  -21.0740 26054.5 -03416.4 -07.4703 26277.6
 14 05 2013  16 57  -21.0734 26054.4 -03416.3 -07.4701 26277.4
 14 05 2013  16 58  -21.0726 26054.2 -03416.3 -07.4701 26277.2
 14 05 2013  16 59  -21.0718 26054.0 -03416.2 -07.4701 26277.0
 14 05 2013  17 00  -21.0708 26053.6 -03416.2 -07.4700 26276.6
 14 05 2013  17 01  -21.0701 26053.6 -03416.3 -07.4703 26276.7
 14 05 2013  17 02  -21.0696 26053.7 -03416.4 -07.4706 26276.7
 14 05 2013  17 03  -21.0691 26053.5 -03416.5 -07.4707 26276.5
 14 05 2013  17 04  -21.0685 26053.4 -03416.5 -07.4708 26276.4
 14 05 2013  17 05  -21.0681 26053.3 -03416.5 -07.4709 26276.3
 14 05 2013  17 06  -21.0675 26053.0 -03416.5 -07.4710 26276.1
 14 05 2013  17 07  -21.0671 26052.8 -03416.6 -07.4711 26275.9
 14 05 2013  17 08  -21.0666 26052.6 -03416.6 -07.4713 26275.7
 14 05 2013  17 09  -21.0664 26052.6 -03416.8 -07.4716 26275.7
 14 05 2013  17 10  -21.0663 26052.6 -03416.9 -07.4719 26275.7
 14 05 2013  17 11  -21.0660 26052.3 -03416.9 -07.4720 26275.4
 14 05 2013  17 12  -21.0655 26052.1 -03416.9 -07.4721 26275.2
 14 05 2013  17 13  -21.0650 26051.8 -03416.9 -07.4722 26275.0
 14 05 2013  17 14  -21.0644 26051.3 -03416.9 -07.4722 26274.4
 14 05 2013  17 15  -21.0636 26050.9 -03416.9 -07.4724 26274.1
 14 05 2013  17 16  -21.0633 26050.7 -03417.0 -07.4727 26273.9
 14 05 2013  17 17  -21.0625 26050.4 -03417.1 -07.4729 26273.6
 14 05 2013  17 18  -21.0620 26050.2 -03417.3 -07.4733 26273.4
 14 05 2013  17 19  -21.0614 26050.2 -03417.4 -07.4737 26273.4
 14 05 2013  17 20  -21.0609 26050.0 -03417.5 -07.4740 26273.3
 14 05 2013  17 21  -21.0606 26050.0 -03417.7 -07.4744 26273.2
 14 05 2013  17 22  -21.0601 26049.8 -03417.9 -07.4747 26273.1
 14 05 2013  17 23  -21.0594 26049.7 -03418.0 -07.4751 26273.0
 14 05 2013  17 24  -21.0590 26049.8 -03418.2 -07.4755 26273.1
 14 05 2013  17 25  -21.0586 26050.0 -03418.4 -07.4759 26273.3
 14 05 2013  17 26  -21.0582 26050.1 -03418.6 -07.4763 26273.5
 14 05 2013  17 27  -21.0576 26050.3 -03418.8 -07.4767 26273.6
 14 05 2013  17 28  -21.0569 26050.3 -03418.9 -07.4769 26273.7
 14 05 2013  17 29  -21.0567 26050.5 -03419.1 -07.4773 26274.0
 14 05 2013  17 30  -21.0565 26050.7 -03419.3 -07.4776 26274.2
 14 05 2013  17 31  -21.0562 26051.0 -03419.5 -07.4780 26274.4
 14 05 2013  17 32  -21.0561 26051.1 -03419.7 -07.4783 26274.6
 14 05 2013  17 33  -21.0559 26051.0 -03419.7 -07.4784 26274.5
 14 05 2013  17 34  -21.0556 26050.8 -03419.7 -07.4785 26274.3
 14 05 2013  17 35  -21.0555 26050.6 -03419.8 -07.4787 26274.1
 14 05 2013  17 36  -21.0555 26050.4 -03419.9 -07.4791 26274.0
 14 05 2013  17 37  -21.0553 26050.3 -03420.0 -07.4793 26273.8
 14 05 2013  17 38  -21.0552 26050.0 -03420.1 -07.4795 26273.5
 14 05 2013  17 39  -21.0551 26049.7 -03420.2 -07.4799 26273.3
 14 05 2013  17 40  -21.0551 26049.6 -03420.4 -07.4804 26273.2
 14 05 2013  17 41  -21.0555 26049.5 -03420.6 -07.4808 26273.1
 14 05 2013  17 42  -21.0557 26049.4 -03420.8 -07.4812 26273.1
 14 05 2013  17 43  -21.0556 26049.2 -03420.9 -07.4815 26272.9
 14 05 2013  17 44  -21.0556 26049.0 -03421.0 -07.4818 26272.7
 14 05 2013  17 45  -21.0555 26048.8 -03421.2 -07.4822 26272.5
 14 05 2013  17 46  -21.0553 26048.3 -03421.2 -07.4825 26272.1
 14 05 2013  17 47  -21.0551 26047.9 -03421.3 -07.4828 26271.6
 14 05 2013  17 48  -21.0551 26047.7 -03421.6 -07.4834 26271.5
 14 05 2013  17 49  -21.0551 26047.4 -03421.8 -07.4839 26271.2
 14 05 2013  17 50  -21.0549 26047.0 -03421.9 -07.4843 26270.9
 14 05 2013  17 51  -21.0550 26046.7 -03422.1 -07.4849 26270.5
 14 05 2013  17 52  -21.0552 26046.3 -03422.3 -07.4854 26270.2
 14 05 2013  17 53  -21.0555 26046.0 -03422.5 -07.4860 26269.9
 14 05 2013  17 54  -21.0560 26045.5 -03422.7 -07.4864 26269.4
 14 05 2013  17 55  -21.0564 26045.3 -03422.9 -07.4870 26269.2
 14 05 2013  17 56  -21.0569 26044.9 -03423.1 -07.4875 26268.9
 14 05 2013  17 57  -21.0574 26044.4 -03423.3 -07.4880 26268.4
 14 05 2013  17 58  -21.0578 26043.8 -03423.3 -07.4883 26267.8
 14 05 2013  17 59  -21.0582 26043.3 -03423.5 -07.4887 26267.4
 14 05 2013  18 00  -21.0583 26042.8 -03423.5 -07.4890 26266.8
 14 05 2013  18 01  -21.0589 26042.2 -03423.6 -07.4894 26266.3
 14 05 2013  18 02  -21.0592 26041.6 -03423.7 -07.4897 26265.7
 14 05 2013  18 03  -21.0592 26041.1 -03423.7 -07.4900 26265.2
 14 05 2013  18 04  -21.0592 26040.6 -03423.8 -07.4903 26264.7
 14 05 2013  18 05  -21.0592 26040.1 -03423.9 -07.4906 26264.2
 14 05 2013  18 06  -21.0591 26039.6 -03424.0 -07.4910 26263.7
 14 05 2013  18 07  -21.0592 26039.1 -03424.1 -07.4913 26263.2
 14 05 2013  18 08  -21.0590 26038.6 -03424.2 -07.4916 26262.8
 14 05 2013  18 09  -21.0593 26038.5 -03424.4 -07.4922 26262.7
 14 05 2013  18 10  -21.0595 26038.4 -03424.7 -07.4927 26262.7
 14 05 2013  18 11  -21.0596 26038.3 -03424.8 -07.4930 26262.6
 14 05 2013  18 12  -21.0595 26038.0 -03424.8 -07.4931 26262.3
 14 05 2013  18 13  -21.0593 26037.8 -03424.9 -07.4933 26262.0
 14 05 2013  18 14  -21.0593 26037.5 -03424.9 -07.4935 26261.8
 14 05 2013  18 15  -21.0591 26037.2 -03424.9 -07.4936 26261.5
 14 05 2013  18 16  -21.0588 26037.0 -03425.0 -07.4939 26261.3
 14 05 2013  18 17  -21.0586 26036.8 -03425.1 -07.4942 26261.1
 14 05 2013  18 18  -21.0584 26036.6 -03425.2 -07.4943 26260.9
 14 05 2013  18 19  -21.0582 26036.4 -03425.2 -07.4945 26260.7
 14 05 2013  18 20  -21.0581 26036.2 -03425.3 -07.4947 26260.6
 14 05 2013  18 21  -21.0579 26036.1 -03425.4 -07.4950 26260.5
 14 05 2013  18 22  -21.0580 26036.0 -03425.5 -07.4952 26260.4
 14 05 2013  18 23  -21.0580 26036.1 -03425.6 -07.4955 26260.5
 14 05 2013  18 24  -21.0578 26036.1 -03425.8 -07.4958 26260.5
 14 05 2013  18 25  -21.0574 26036.0 -03425.9 -07.4960 26260.5
 14 05 2013  18 26  -21.0572 26036.0 -03426.0 -07.4962 26260.4
 14 05 2013  18 27  -21.0570 26035.9 -03426.0 -07.4964 26260.3
 14 05 2013  18 28  -21.0568 26035.8 -03426.1 -07.4966 26260.2
 14 05 2013  18 29  -21.0564 26035.7 -03426.2 -07.4969 26260.2
 14 05 2013  18 30  -21.0562 26035.5 -03426.3 -07.4970 26260.0
 14 05 2013  18 31  -21.0558 26035.5 -03426.4 -07.4973 26260.0
 14 05 2013  18 32  -21.0554 26035.5 -03426.6 -07.4977 26260.1
 14 05 2013  18 33  -21.0554 26035.6 -03426.8 -07.4981 26260.1
 14 05 2013  18 34  -21.0551 26035.6 -03426.9 -07.4984 26260.2
 14 05 2013  18 35  -21.0549 26035.8 -03427.1 -07.4988 26260.4
 14 05 2013  18 36  -21.0545 26035.8 -03427.3 -07.4992 26260.4
 14 05 2013  18 37  -21.0539 26035.8 -03427.4 -07.4994 26260.4
 14 05 2013  18 38  -21.0536 26035.8 -03427.6 -07.4999 26260.4
 14 05 2013  18 39  -21.0533 26035.8 -03427.8 -07.5003 26260.5
 14 05 2013  18 40  -21.0530 26036.0 -03428.1 -07.5009 26260.7
 14 05 2013  18 41  -21.0526 26036.1 -03428.4 -07.5015 26260.9
 14 05 2013  18 42  -21.0521 26036.1 -03428.7 -07.5020 26260.9
 14 05 2013  18 43  -21.0519 26036.1 -03428.9 -07.5026 26260.9
 14 05 2013  18 44  -21.0517 26036.2 -03429.2 -07.5032 26261.0
 14 05 2013  18 45  -21.0517 26036.3 -03429.5 -07.5037 26261.2
 14 05 2013  18 46  -21.0518 26036.6 -03429.8 -07.5044 26261.5
 14 05 2013  18 47  -21.0520 26036.6 -03430.0 -07.5049 26261.6
 14 05 2013  18 48  -21.0520 26036.6 -03430.2 -07.5052 26261.6
 14 05 2013  18 49  -21.0521 26036.5 -03430.3 -07.5054 26261.5
 14 05 2013  18 50  -21.0524 26036.4 -03430.5 -07.5058 26261.5
 14 05 2013  18 51  -21.0524 26036.3 -03430.5 -07.5060 26261.3
 14 05 2013  18 52  -21.0523 26036.1 -03430.6 -07.5063 26261.1
 14 05 2013  18 53  -21.0524 26035.8 -03430.7 -07.5065 26260.9
 14 05 2013  18 54  -21.0526 26035.5 -03430.8 -07.5067 26260.6
 14 05 2013  18 55  -21.0529 26035.1 -03430.8 -07.5069 26260.2
 14 05 2013  18 56  -21.0531 26034.8 -03430.8 -07.5071 26259.9
 14 05 2013  18 57  -21.0535 26034.5 -03430.9 -07.5073 26259.6
 14 05 2013  18 58  -21.0538 26034.2 -03430.9 -07.5074 26259.3
 14 05 2013  18 59  -21.0541 26034.0 -03431.0 -07.5076 26259.1
 14 05 2013  19 00  -21.0545 26033.8 -03431.1 -07.5079 26259.0
 14 05 2013  19 01  -21.0549 26033.8 -03431.2 -07.5082 26258.9
 14 05 2013  19 02  -21.0551 26033.7 -03431.3 -07.5084 26258.8
 14 05 2013  19 03  -21.0553 26033.5 -03431.3 -07.5086 26258.6
 14 05 2013  19 04  -21.0555 26033.2 -03431.3 -07.5086 26258.4
 14 05 2013  19 05  -21.0556 26033.1 -03431.4 -07.5088 26258.2
 14 05 2013  19 06  -21.0557 26032.9 -03431.4 -07.5089 26258.1
 14 05 2013  19 07  -21.0555 26032.6 -03431.4 -07.5090 26257.8
 14 05 2013  19 08  -21.0557 26032.5 -03431.5 -07.5092 26257.7
 14 05 2013  19 09  -21.0558 26032.5 -03431.6 -07.5094 26257.7
 14 05 2013  19 10  -21.0558 26032.4 -03431.7 -07.5096 26257.6
 14 05 2013  19 11  -21.0557 26032.4 -03431.7 -07.5097 26257.6
 14 05 2013  19 12  -21.0558 26032.5 -03431.9 -07.5100 26257.8
 14 05 2013  19 13  -21.0558 26032.6 -03432.0 -07.5102 26257.8
 14 05 2013  19 14  -21.0564 26032.6 -03432.1 -07.5104 26257.8
 14 05 2013  19 15  -21.0566 26032.7 -03432.2 -07.5108 26258.0
 14 05 2013  19 16  -21.0565 26032.9 -03432.4 -07.5110 26258.2
 14 05 2013  19 17  -21.0565 26033.1 -03432.5 -07.5112 26258.4
 14 05 2013  19 18  -21.0582 26033.4 -03432.6 -07.5114 26258.8
 14 05 2013  19 19  -21.0595 26033.7 -03432.7 -07.5115 26259.1
 14 05 2013  19 20  -21.0593 26034.0 -03432.8 -07.5117 26259.4
 14 05 2013  19 21  -21.0567 26034.2 -03432.8 -07.5115 26259.5
 14 05 2013  19 22  -21.0557 26034.5 -03432.8 -07.5115 26259.8
 14 05 2013  19 23  -21.0562 26034.7 -03432.8 -07.5115 26260.1
 14 05 2013  19 24  -21.0564 26034.8 -03432.8 -07.5113 26260.2
 14 05 2013  19 25  -21.0566 26034.8 -03432.7 -07.5110 26260.2
 14 05 2013  19 26  -21.0565 26034.6 -03432.4 -07.5106 26259.9
 14 05 2013  19 27  -21.0562 26034.4 -03432.2 -07.5102 26259.6
 14 05 2013  19 28  -21.0559 26034.0 -03432.0 -07.5099 26259.2
 14 05 2013  19 29  -21.0555 26033.5 -03431.8 -07.5095 26258.7
 14 05 2013  19 30  -21.0551 26033.2 -03431.6 -07.5093 26258.4
 14 05 2013  19 31  -21.0548 26032.7 -03431.5 -07.5091 26257.9
 14 05 2013  19 32  -21.0545 26032.3 -03431.4 -07.5090 26257.5
 14 05 2013  19 33  -21.0540 26031.9 -03431.3 -07.5088 26257.0
 14 05 2013  19 34  -21.0535 26031.5 -03431.2 -07.5088 26256.6
 14 05 2013  19 35  -21.0531 26031.0 -03431.1 -07.5087 26256.2
 14 05 2013  19 36  -21.0527 26030.7 -03431.1 -07.5088 26255.9
 14 05 2013  19 37  -21.0524 26030.6 -03431.2 -07.5090 26255.8
 14 05 2013  19 38  -21.0523 26030.4 -03431.2 -07.5091 26255.6
 14 05 2013  19 39  -21.0523 26030.3 -03431.2 -07.5093 26255.5
 14 05 2013  19 40  -21.0521 26030.1 -03431.3 -07.5094 26255.3
 14 05 2013  19 41  -21.0519 26029.9 -03431.3 -07.5095 26255.0
 14 05 2013  19 42  -21.0516 26029.6 -03431.3 -07.5095 26254.8
 14 05 2013  19 43  -21.0512 26029.3 -03431.2 -07.5095 26254.5
 14 05 2013  19 44  -21.0510 26029.2 -03431.3 -07.5098 26254.4
 14 05 2013  19 45  -21.0508 26029.0 -03431.4 -07.5099 26254.2
 14 05 2013  19 46  -21.0503 26028.9 -03431.4 -07.5101 26254.1
 14 05 2013  19 47  -21.0497 26028.7 -03431.4 -07.5100 26253.9
 14 05 2013  19 48  -21.0495 26028.5 -03431.4 -07.5101 26253.7
 14 05 2013  19 49  -21.0493 26028.5 -03431.5 -07.5103 26253.7
 14 05 2013  19 50  -21.0490 26028.6 -03431.6 -07.5105 26253.9
 14 05 2013  19 51  -21.0487 26028.5 -03431.6 -07.5107 26253.7
 14 05 2013  19 52  -21.0482 26028.3 -03431.6 -07.5107 26253.5
 14 05 2013  19 53  -21.0480 26028.3 -03431.7 -07.5108 26253.5
 14 05 2013  19 54  -21.0474 26028.2 -03431.8 -07.5110 26253.5
 14 05 2013  19 55  -21.0468 26027.9 -03431.7 -07.5109 26253.2
 14 05 2013  19 56  -21.0464 26027.9 -03431.8 -07.5111 26253.1
 14 05 2013  19 57  -21.0462 26028.0 -03431.9 -07.5114 26253.3
 14 05 2013  19 58  -21.0461 26028.1 -03432.1 -07.5118 26253.4
 14 05 2013  19 59  -21.0458 26028.2 -03432.3 -07.5120 26253.6
 14 05 2013  20 00  -21.0455 26028.2 -03432.3 -07.5122 26253.5
 14 05 2013  20 01  -21.0453 26028.1 -03432.4 -07.5123 26253.5
 14 05 2013  20 02  -21.0450 26028.2 -03432.5 -07.5126 26253.6
 14 05 2013  20 03  -21.0448 26028.3 -03432.6 -07.5128 26253.7
 14 05 2013  20 04  -21.0442 26028.3 -03432.7 -07.5129 26253.7
 14 05 2013  20 05  -21.0436 26028.2 -03432.7 -07.5130 26253.6
 14 05 2013  20 06  -21.0431 26028.1 -03432.8 -07.5132 26253.5
 14 05 2013  20 07  -21.0431 26027.9 -03432.8 -07.5132 26253.3
 14 05 2013  20 08  -21.0432 26027.7 -03432.8 -07.5133 26253.1
 14 05 2013  20 09  -21.0430 26027.9 -03433.0 -07.5137 26253.3
 14 05 2013  20 10  -21.0427 26028.0 -03433.1 -07.5140 26253.5
 14 05 2013  20 11  -21.0423 26027.7 -03433.0 -07.5139 26253.1
 14 05 2013  20 12  -21.0422 26027.3 -03432.9 -07.5137 26252.7
 14 05 2013  20 13  -21.0422 26026.6 -03432.7 -07.5135 26252.0
 14 05 2013  20 14  -21.0418 26026.1 -03432.6 -07.5135 26251.5
 14 05 2013  20 15  -21.0413 26025.5 -03432.6 -07.5135 26250.9
 14 05 2013  20 16  -21.0408 26024.9 -03432.5 -07.5135 26250.3
 14 05 2013  20 17  -21.0404 26024.6 -03432.6 -07.5138 26250.0
 14 05 2013  20 18  -21.0400 26024.3 -03432.7 -07.5142 26249.7
 14 05 2013  20 19  -21.0396 26024.1 -03432.9 -07.5146 26249.5
 14 05 2013  20 20  -21.0395 26023.9 -03433.0 -07.5149 26249.4
 14 05 2013  20 21  -21.0393 26023.8 -03433.2 -07.5154 26249.2
 14 05 2013  20 22  -21.0390 26023.8 -03433.4 -07.5158 26249.3
 14 05 2013  20 23  -21.0386 26023.8 -03433.6 -07.5162 26249.3
 14 05 2013  20 24  -21.0385 26023.6 -03433.7 -07.5165 26249.2
 14 05 2013  20 25  -21.0380 26023.6 -03433.8 -07.5168 26249.1
 14 05 2013  20 26  -21.0377 26023.8 -03434.0 -07.5172 26249.3
 14 05 2013  20 27  -21.0376 26023.8 -03434.2 -07.5174 26249.4
 14 05 2013  20 28  -21.0374 26023.8 -03434.3 -07.5177 26249.4
 14 05 2013  20 29  -21.0374 26023.7 -03434.4 -07.5179 26249.3
 14 05 2013  20 30  -21.0376 26024.0 -03434.7 -07.5185 26249.7
 14 05 2013  20 31  -21.0375 26024.8 -03435.2 -07.5193 26250.6
 14 05 2013  20 32  -21.0374 26025.4 -03435.5 -07.5198 26251.2
 14 05 2013  20 33  -21.0373 26026.0 -03435.7 -07.5201 26251.8
 14 05 2013  20 34  -21.0371 26026.6 -03436.0 -07.5205 26252.4
 14 05 2013  20 35  -21.0369 26027.2 -03436.2 -07.5209 26253.1
 14 05 2013  20 36  -21.0364 26027.7 -03436.4 -07.5212 26253.5
 14 05 2013  20 37  -21.0360 26027.8 -03436.4 -07.5212 26253.6
 14 05 2013  20 38  -21.0357 26027.7 -03436.4 -07.5212 26253.6
 14 05 2013  20 39  -21.0357 26027.3 -03436.3 -07.5210 26253.2
 14 05 2013  20 40  -21.0358 26027.0 -03436.2 -07.5209 26252.9
 14 05 2013  20 41  -21.0360 26026.7 -03436.1 -07.5208 26252.6
 14 05 2013  20 42  -21.0364 26026.2 -03436.0 -07.5208 26252.0
 14 05 2013  20 43  -21.0367 26026.0 -03436.1 -07.5209 26251.8
 14 05 2013  20 44  -21.0370 26025.7 -03436.0 -07.5209 26251.5
 14 05 2013  20 45  -21.0372 26025.3 -03435.9 -07.5208 26251.1
 14 05 2013  20 46  -21.0373 26025.1 -03435.9 -07.5209 26251.0
 14 05 2013  20 47  -21.0373 26024.9 -03435.9 -07.5210 26250.7
 14 05 2013  20 48  -21.0373 26024.4 -03435.8 -07.5208 26250.3
 14 05 2013  20 49  -21.0374 26024.0 -03435.7 -07.5207 26249.8
 14 05 2013  20 50  -21.0378 26023.9 -03435.8 -07.5209 26249.7
 14 05 2013  20 51  -21.0380 26024.1 -03436.1 -07.5214 26250.0
 14 05 2013  20 52  -21.0382 26024.2 -03436.2 -07.5218 26250.1
 14 05 2013  20 53  -21.0382 26024.3 -03436.2 -07.5218 26250.2
 14 05 2013  20 54  -21.0383 26024.1 -03436.2 -07.5218 26249.9
 14 05 2013  20 55  -21.0385 26023.3 -03435.9 -07.5213 26249.1
 14 05 2013  20 56  -21.0386 26022.7 -03435.6 -07.5210 26248.5
 14 05 2013  20 57  -21.0391 26022.2 -03435.6 -07.5210 26248.0
 14 05 2013  20 58  -21.0392 26021.9 -03435.6 -07.5211 26247.7
 14 05 2013  20 59  -21.0392 26021.5 -03435.5 -07.5210 26247.3
 14 05 2013  21 00  -21.0393 26021.3 -03435.5 -07.5211 26247.1
 14 05 2013  21 01  -21.0393 26021.2 -03435.6 -07.5213 26247.0
 14 05 2013  21 02  -21.0396 26021.1 -03435.7 -07.5215 26246.9
 14 05 2013  21 03  -21.0395 26021.1 -03435.8 -07.5218 26247.0
 14 05 2013  21 04  -21.0396 26021.5 -03436.1 -07.5222 26247.4
 14 05 2013  21 05  -21.0395 26022.3 -03436.5 -07.5229 26248.2
 14 05 2013  21 06  -21.0390 26023.2 -03437.0 -07.5237 26249.2
 14 05 2013  21 07  -21.0385 26023.8 -03437.1 -07.5239 26249.8
 14 05 2013  21 08  -21.0382 26024.4 -03437.4 -07.5244 26250.5
 14 05 2013  21 09  -21.0380 26025.3 -03437.8 -07.5250 26251.3
 14 05 2013  21 10  -21.0379 26026.0 -03438.2 -07.5255 26252.1
 14 05 2013  21 11  -21.0377 26026.6 -03438.5 -07.5260 26252.7
 14 05 2013  21 12  -21.0379 26027.0 -03438.7 -07.5262 26253.1
 14 05 2013  21 13  -21.0383 26027.2 -03438.8 -07.5264 26253.4
 14 05 2013  21 14  -21.0385 26027.6 -03438.9 -07.5266 26253.8
 14 05 2013  21 15  -21.0388 26027.6 -03438.9 -07.5266 26253.8
 14 05 2013  21 16  -21.0393 26027.7 -03438.9 -07.5266 26253.8
 14 05 2013  21 17  -21.0396 26027.5 -03438.8 -07.5264 26253.7
 14 05 2013  21 18  -21.0399 26027.4 -03438.7 -07.5263 26253.6
 14 05 2013  21 19  -21.0400 26027.5 -03438.7 -07.5262 26253.7
 14 05 2013  21 20  -21.0400 26027.5 -03438.7 -07.5261 26253.6
 14 05 2013  21 21  -21.0401 26027.5 -03438.7 -07.5261 26253.7
 14 05 2013  21 22  -21.0401 26027.7 -03438.7 -07.5262 26253.8
 14 05 2013  21 23  -21.0402 26027.9 -03438.8 -07.5264 26254.1
 14 05 2013  21 24  -21.0403 26027.9 -03438.8 -07.5262 26254.0
 14 05 2013  21 25  -21.0401 26028.0 -03438.8 -07.5263 26254.1
 14 05 2013  21 26  -21.0404 26027.9 -03438.8 -07.5264 26254.1
 14 05 2013  21 27  -21.0407 26028.0 -03438.9 -07.5264 26254.1
 14 05 2013  21 28  -21.0414 26027.9 -03438.9 -07.5264 26254.1
 14 05 2013  21 29  -21.0416 26028.0 -03438.9 -07.5264 26254.2
 14 05 2013  21 30  -21.0419 26027.8 -03438.8 -07.5264 26254.0
 14 05 2013  21 31  -21.0421 26027.9 -03438.8 -07.5263 26254.1
 14 05 2013  21 32  -21.0419 26028.0 -03438.8 -07.5263 26254.2
 14 05 2013  21 33  -21.0418 26028.3 -03439.0 -07.5265 26254.5
 14 05 2013  21 34  -21.0420 26028.6 -03439.1 -07.5267 26254.8
 14 05 2013  21 35  -21.0420 26028.8 -03439.2 -07.5269 26255.0
 14 05 2013  21 36  -21.0419 26028.9 -03439.3 -07.5270 26255.2
 14 05 2013  21 37  -21.0419 26029.1 -03439.2 -07.5269 26255.3
 14 05 2013  21 38  -21.0419 26029.2 -03439.4 -07.5271 26255.4
 14 05 2013  21 39  -21.0418 26029.4 -03439.4 -07.5273 26255.6
 14 05 2013  21 40  -21.0417 26029.4 -03439.5 -07.5273 26255.7
 14 05 2013  21 41  -21.0417 26029.4 -03439.4 -07.5273 26255.7
 14 05 2013  21 42  -21.0419 26029.5 -03439.4 -07.5272 26255.7
 14 05 2013  21 43  -21.0419 26029.4 -03439.4 -07.5271 26255.6
 14 05 2013  21 44  -21.0419 26029.5 -03439.4 -07.5271 26255.7
 14 05 2013  21 45  -21.0419 26029.6 -03439.4 -07.5272 26255.8
 14 05 2013  21 46  -21.0420 26029.7 -03439.5 -07.5272 26256.0
 14 05 2013  21 47  -21.0421 26029.9 -03439.6 -07.5274 26256.2
 14 05 2013  21 48  -21.0421 26030.0 -03439.6 -07.5274 26256.3
 14 05 2013  21 49  -21.0421 26030.0 -03439.5 -07.5273 26256.2
 14 05 2013  21 50  -21.0420 26030.0 -03439.5 -07.5272 26256.3
 14 05 2013  21 51  -21.0420 26030.0 -03439.4 -07.5271 26256.2
 14 05 2013  21 52  -21.0419 26030.1 -03439.5 -07.5271 26256.3
 14 05 2013  21 53  -21.0419 26030.1 -03439.5 -07.5271 26256.4
 14 05 2013  21 54  -21.0419 26030.1 -03439.4 -07.5270 26256.4
 14 05 2013  21 55  -21.0419 26030.0 -03439.4 -07.5269 26256.3
 14 05 2013  21 56  -21.0415 26029.9 -03439.3 -07.5267 26256.1
 14 05 2013  21 57  -21.0418 26029.8 -03439.2 -07.5266 26256.0
 14 05 2013  21 58  -21.0419 26029.7 -03439.1 -07.5264 26255.9
 14 05 2013  21 59  -21.0419 26029.7 -03439.1 -07.5263 26255.9
 14 05 2013  22 00  -21.0418 26029.6 -03439.0 -07.5263 26255.8
 14 05 2013  22 01  -21.0420 26029.7 -03439.0 -07.5263 26255.9
 14 05 2013  22 02  -21.0421 26029.7 -03439.0 -07.5263 26255.9
 14 05 2013  22 03  -21.0420 26029.5 -03438.9 -07.5261 26255.7
 14 05 2013  22 04  -21.0420 26029.4 -03438.8 -07.5259 26255.5
 14 05 2013  22 05  -21.0417 26029.3 -03438.7 -07.5257 26255.4
 14 05 2013  22 06  -21.0415 26029.3 -03438.7 -07.5257 26255.5
 14 05 2013  22 07  -21.0411 26029.5 -03438.8 -07.5259 26255.7
 14 05 2013  22 08  -21.0410 26029.7 -03438.9 -07.5261 26255.9
 14 05 2013  22 09  -21.0412 26029.9 -03439.0 -07.5262 26256.1
 14 05 2013  22 10  -21.0414 26030.0 -03439.1 -07.5263 26256.2
 14 05 2013  22 11  -21.0414 26029.9 -03439.0 -07.5261 26256.1
 14 05 2013  22 12  -21.0417 26029.9 -03438.9 -07.5260 26256.1
 14 05 2013  22 13  -21.0423 26029.9 -03439.0 -07.5261 26256.1
 14 05 2013  22 14  -21.0426 26029.9 -03439.0 -07.5261 26256.1
 14 05 2013  22 15  -21.0429 26029.9 -03438.9 -07.5260 26256.1
 14 05 2013  22 16  -21.0429 26029.8 -03438.8 -07.5258 26255.9
 14 05 2013  22 17  -21.0429 26029.8 -03438.7 -07.5256 26255.9
 14 05 2013  22 18  -21.0429 26029.7 -03438.7 -07.5255 26255.8
 14 05 2013  22 19  -21.0427 26029.6 -03438.6 -07.5254 26255.8
 14 05 2013  22 20  -21.0423 26029.5 -03438.5 -07.5253 26255.7
 14 05 2013  22 21  -21.0421 26029.3 -03438.5 -07.5252 26255.4
 14 05 2013  22 22  -21.0419 26029.1 -03438.4 -07.5250 26255.2
 14 05 2013  22 23  -21.0418 26029.0 -03438.3 -07.5249 26255.1
 14 05 2013  22 24  -21.0417 26028.8 -03438.2 -07.5248 26254.9
 14 05 2013  22 25  -21.0416 26028.7 -03438.2 -07.5248 26254.8
 14 05 2013  22 26  -21.0416 26028.6 -03438.2 -07.5248 26254.7
 14 05 2013  22 27  -21.0415 26028.6 -03438.2 -07.5249 26254.7
 14 05 2013  22 28  -21.0415 26028.5 -03438.2 -07.5248 26254.6
 14 05 2013  22 29  -21.0415 26028.3 -03438.1 -07.5247 26254.4
 14 05 2013  22 30  -21.0417 26028.2 -03438.1 -07.5247 26254.3
 14 05 2013  22 31  -21.0417 26028.2 -03438.1 -07.5248 26254.3
 14 05 2013  22 32  -21.0416 26028.2 -03438.2 -07.5248 26254.3
 14 05 2013  22 33  -21.0414 26028.2 -03438.2 -07.5248 26254.3
 14 05 2013  22 34  -21.0412 26028.1 -03438.2 -07.5248 26254.2
 14 05 2013  22 35  -21.0408 26028.1 -03438.2 -07.5249 26254.2
 14 05 2013  22 36  -21.0406 26028.1 -03438.2 -07.5249 26254.2
 14 05 2013  22 37  -21.0404 26028.1 -03438.2 -07.5250 26254.2
 14 05 2013  22 38  -21.0402 26028.1 -03438.3 -07.5251 26254.2
 14 05 2013  22 39  -21.0401 26028.1 -03438.3 -07.5251 26254.2
 14 05 2013  22 40  -21.0399 26028.2 -03438.4 -07.5253 26254.3
 14 05 2013  22 41  -21.0397 26028.2 -03438.4 -07.5254 26254.4
 14 05 2013  22 42  -21.0396 26028.3 -03438.4 -07.5254 26254.4
 14 05 2013  22 43  -21.0394 26028.3 -03438.5 -07.5255 26254.4
 14 05 2013  22 44  -21.0394 26028.3 -03438.5 -07.5256 26254.4
 14 05 2013  22 45  -21.0394 26028.3 -03438.5 -07.5256 26254.4
 14 05 2013  22 46  -21.0394 26028.3 -03438.6 -07.5257 26254.5
 14 05 2013  22 47  -21.0393 26028.3 -03438.6 -07.5257 26254.4
 14 05 2013  22 48  -21.0392 26028.3 -03438.6 -07.5258 26254.4
 14 05 2013  22 49  -21.0392 26028.3 -03438.6 -07.5258 26254.4
 14 05 2013  22 50  -21.0392 26028.3 -03438.6 -07.5258 26254.4
 14 05 2013  22 51  -21.0391 26028.3 -03438.6 -07.5259 26254.4
 14 05 2013  22 52  -21.0391 26028.2 -03438.7 -07.5259 26254.4
 14 05 2013  22 53  -21.0391 26028.2 -03438.7 -07.5259 26254.4
 14 05 2013  22 54  -21.0392 26028.4 -03438.7 -07.5260 26254.5
 14 05 2013  22 55  -21.0391 26028.5 -03438.8 -07.5262 26254.7
 14 05 2013  22 56  -21.0390 26028.7 -03438.9 -07.5263 26254.9
 14 05 2013  22 57  -21.0389 26028.9 -03439.0 -07.5265 26255.1
 14 05 2013  22 58  -21.0387 26029.2 -03439.2 -07.5267 26255.4
 14 05 2013  22 59  -21.0386 26029.4 -03439.2 -07.5268 26255.6
 14 05 2013  23 00  -21.0386 26029.5 -03439.3 -07.5269 26255.8
 14 05 2013  23 01  -21.0386 26029.7 -03439.4 -07.5270 26256.0
 14 05 2013  23 02  -21.0387 26029.8 -03439.4 -07.5271 26256.1
 14 05 2013  23 03  -21.0388 26030.0 -03439.5 -07.5272 26256.2
 14 05 2013  23 04  -21.0389 26030.0 -03439.5 -07.5272 26256.3
 14 05 2013  23 05  -21.0389 26030.1 -03439.5 -07.5272 26256.3
 14 05 2013  23 06  -21.0391 26030.0 -03439.4 -07.5271 26256.3
 14 05 2013  23 07  -21.0392 26030.0 -03439.4 -07.5270 26256.2
 14 05 2013  23 08  -21.0394 26029.9 -03439.4 -07.5269 26256.1
 14 05 2013  23 09  -21.0395 26029.9 -03439.3 -07.5269 26256.1
 14 05 2013  23 10  -21.0397 26029.9 -03439.3 -07.5268 26256.1
 14 05 2013  23 11  -21.0399 26029.9 -03439.3 -07.5268 26256.1
 14 05 2013  23 12  -21.0400 26029.8 -03439.2 -07.5267 26256.1
 14 05 2013  23 13  -21.0402 26029.8 -03439.2 -07.5266 26256.0
 14 05 2013  23 14  -21.0402 26029.8 -03439.2 -07.5266 26256.0
 14 05 2013  23 15  -21.0403 26029.9 -03439.2 -07.5267 26256.1
 14 05 2013  23 16  -21.0403 26030.0 -03439.3 -07.5267 26256.2
 14 05 2013  23 17  -21.0404 26030.1 -03439.3 -07.5268 26256.3
 14 05 2013  23 18  -21.0404 26030.1 -03439.4 -07.5268 26256.4
 14 05 2013  23 19  -21.0403 26030.2 -03439.4 -07.5269 26256.5
 14 05 2013  23 20  -21.0403 26030.3 -03439.4 -07.5269 26256.5
 14 05 2013  23 21  -21.0403 26030.3 -03439.4 -07.5269 26256.5
 14 05 2013  23 22  -21.0405 26030.3 -03439.4 -07.5269 26256.5
 14 05 2013  23 23  -21.0406 26030.3 -03439.4 -07.5269 26256.5
 14 05 2013  23 24  -21.0407 26030.2 -03439.3 -07.5268 26256.4
 14 05 2013  23 25  -21.0408 26030.1 -03439.3 -07.5267 26256.3
 14 05 2013  23 26  -21.0409 26030.1 -03439.2 -07.5266 26256.3
 14 05 2013  23 27  -21.0410 26030.0 -03439.2 -07.5266 26256.2
 14 05 2013  23 28  -21.0411 26029.9 -03439.2 -07.5266 26256.1
 14 05 2013  23 29  -21.0412 26029.8 -03439.1 -07.5265 26256.1
 14 05 2013  23 30  -21.0411 26029.8 -03439.2 -07.5265 26256.0
 14 05 2013  23 31  -21.0412 26029.8 -03439.1 -07.5265 26256.0
 14 05 2013  23 32  -21.0412 26029.7 -03439.1 -07.5265 26256.0
 14 05 2013  23 33  -21.0412 26029.7 -03439.1 -07.5265 26256.0
 14 05 2013  23 34  -21.0412 26029.7 -03439.2 -07.5265 26256.0
 14 05 2013  23 35  -21.0413 26029.7 -03439.2 -07.5266 26255.9
 14 05 2013  23 36  -21.0414 26029.8 -03439.2 -07.5267 26256.0
 14 05 2013  23 37  -21.0415 26029.9 -03439.3 -07.5268 26256.1
 14 05 2013  23 38  -21.0416 26030.0 -03439.4 -07.5269 26256.3
 14 05 2013  23 39  -21.0416 26030.2 -03439.5 -07.5271 26256.4
 14 05 2013  23 40  -21.0417 26030.4 -03439.6 -07.5272 26256.6
 14 05 2013  23 41  -21.0417 26030.6 -03439.7 -07.5274 26256.9
 14 05 2013  23 42  -21.0417 26030.8 -03439.8 -07.5276 26257.1
 14 05 2013  23 43  -21.0417 26031.0 -03439.9 -07.5277 26257.3
 14 05 2013  23 44  -21.0417 26031.2 -03439.9 -07.5277 26257.5
 14 05 2013  23 45  -21.0417 26031.4 -03440.0 -07.5279 26257.7
 14 05 2013  23 46  -21.0417 26031.6 -03440.1 -07.5280 26257.9
 14 05 2013  23 47  -21.0417 26031.8 -03440.1 -07.5280 26258.1
 14 05 2013  23 48  -21.0417 26031.9 -03440.1 -07.5281 26258.2
 14 05 2013  23 49  -21.0417 26032.0 -03440.2 -07.5281 26258.3
 14 05 2013  23 50  -21.0418 26032.1 -03440.2 -07.5282 26258.4
 14 05 2013  23 51  -21.0419 26032.0 -03440.2 -07.5281 26258.4
 14 05 2013  23 52  -21.0421 26031.9 -03440.1 -07.5280 26258.3
 14 05 2013  23 53  -21.0422 26031.8 -03440.0 -07.5278 26258.1
 14 05 2013  23 54  -21.0423 26031.7 -03439.9 -07.5277 26258.0
 14 05 2013  23 55  -21.0425 26031.5 -03439.8 -07.5275 26257.8
 14 05 2013  23 56  -21.0425 26031.3 -03439.7 -07.5273 26257.6
 14 05 2013  23 57  -21.0426 26031.0 -03439.6 -07.5271 26257.3
