SAO LUIS EMBRACE-03 <165> 1 Min. Reported data

 DD MM YYYY  HH MM   D(Deg)  H(nT)   Z(nT)   I(Deg)   F(nT)

 14 06 2013  00 00  -21.0327 26025.5 -03449.8 -07.5508 26253.1
 14 06 2013  00 01  -21.0324 26025.6 -03449.7 -07.5505 26253.2
 14 06 2013  00 02  -21.0323 26026.1 -03450.0 -07.5510 26253.7
 14 06 2013  00 03  -21.0327 26025.4 -03449.6 -07.5505 26253.0
 14 06 2013  00 04  -21.0324 26025.9 -03449.9 -07.5508 26253.5
 14 06 2013  00 05  -21.0328 26025.4 -03449.7 -07.5506 26253.0
 14 06 2013  00 06  -21.0324 26025.5 -03449.7 -07.5505 26253.2
 14 06 2013  00 07  -21.0322 26025.5 -03449.7 -07.5505 26253.2
 14 06 2013  00 08  -21.0324 26025.1 -03449.5 -07.5502 26252.8
 14 06 2013  00 09  -21.0319 26025.4 -03449.6 -07.5504 26253.0
 14 06 2013  00 10  -21.0317 26025.5 -03449.7 -07.5505 26253.2
 14 06 2013  00 11  -21.0317 26026.1 -03450.1 -07.5512 26253.8
 14 06 2013  00 12  -21.0316 26026.0 -03449.9 -07.5509 26253.7
 14 06 2013  00 13  -21.0312 26027.7 -03450.8 -07.5523 26255.4
 14 06 2013  00 14  -21.0318 26027.2 -03450.6 -07.5520 26254.9
 14 06 2013  00 15  -21.0316 26027.8 -03450.8 -07.5523 26255.6
 14 06 2013  00 16  -21.0321 26027.8 -03450.8 -07.5524 26255.5
 14 06 2013  00 17  -21.0321 26027.7 -03450.7 -07.5522 26255.5
 14 06 2013  00 18  -21.0320 26027.9 -03450.7 -07.5520 26255.6
 14 06 2013  00 19  -21.0323 26027.7 -03450.6 -07.5518 26255.4
 14 06 2013  00 20  -21.0320 26027.9 -03450.6 -07.5518 26255.7
 14 06 2013  00 21  -21.0322 26027.9 -03450.6 -07.5517 26255.7
 14 06 2013  00 22  -21.0320 26027.8 -03450.4 -07.5515 26255.5
 14 06 2013  00 23  -21.0317 26027.9 -03450.4 -07.5515 26255.6
 14 06 2013  00 24  -21.0316 26027.7 -03450.3 -07.5512 26255.4
 14 06 2013  00 25  -21.0314 26027.6 -03450.2 -07.5511 26255.3
 14 06 2013  00 26  -21.0312 26027.4 -03450.1 -07.5508 26255.1
 14 06 2013  00 27  -21.0309 26027.3 -03450.0 -07.5507 26255.0
 14 06 2013  00 28  -21.0306 26027.1 -03449.9 -07.5506 26254.8
 14 06 2013  00 29  -21.0303 26026.9 -03449.8 -07.5504 26254.5
 14 06 2013  00 30  -21.0302 26026.8 -03449.8 -07.5504 26254.4
 14 06 2013  00 31  -21.0302 26026.5 -03449.7 -07.5502 26254.2
 14 06 2013  00 32  -21.0303 26026.5 -03449.7 -07.5502 26254.1
 14 06 2013  00 33  -21.0304 26026.7 -03449.8 -07.5504 26254.3
 14 06 2013  00 34  -21.0305 26026.5 -03449.7 -07.5503 26254.1
 14 06 2013  00 35  -21.0299 26027.1 -03450.0 -07.5507 26254.8
 14 06 2013  00 36  -21.0298 26026.9 -03449.9 -07.5506 26254.6
 14 06 2013  00 37  -21.0295 26027.0 -03449.9 -07.5506 26254.7
 14 06 2013  00 38  -21.0295 26026.9 -03449.9 -07.5506 26254.6
 14 06 2013  00 39  -21.0295 26026.9 -03449.9 -07.5506 26254.6
 14 06 2013  00 40  -21.0296 26027.0 -03449.9 -07.5506 26254.6
 14 06 2013  00 41  -21.0298 26026.8 -03449.8 -07.5505 26254.5
 14 06 2013  00 42  -21.0299 26027.1 -03450.0 -07.5507 26254.8
 14 06 2013  00 43  -21.0302 26026.9 -03449.9 -07.5506 26254.6
 14 06 2013  00 44  -21.0304 26027.0 -03449.9 -07.5505 26254.7
 14 06 2013  00 45  -21.0306 26026.9 -03449.8 -07.5505 26254.6
 14 06 2013  00 46  -21.0307 26026.8 -03449.7 -07.5502 26254.4
 14 06 2013  00 47  -21.0306 26026.7 -03449.6 -07.5501 26254.3
 14 06 2013  00 48  -21.0306 26026.6 -03449.5 -07.5499 26254.2
 14 06 2013  00 49  -21.0307 26026.6 -03449.5 -07.5498 26254.2
 14 06 2013  00 50  -21.0308 26026.4 -03449.4 -07.5498 26254.0
 14 06 2013  00 51  -21.0306 26026.5 -03449.4 -07.5497 26254.1
 14 06 2013  00 52  -21.0306 26026.3 -03449.4 -07.5496 26253.9
 14 06 2013  00 53  -21.0304 26026.2 -03449.3 -07.5496 26253.8
 14 06 2013  00 54  -21.0304 26026.1 -03449.3 -07.5496 26253.7
 14 06 2013  00 55  -21.0303 26026.0 -03449.3 -07.5495 26253.6
 14 06 2013  00 56  -21.0302 26026.0 -03449.2 -07.5494 26253.6
 14 06 2013  00 57  -21.0302 26025.9 -03449.2 -07.5494 26253.5
 14 06 2013  00 58  -21.0302 26025.8 -03449.2 -07.5493 26253.4
 14 06 2013  00 59  -21.0303 26025.8 -03449.1 -07.5493 26253.3
 14 06 2013  01 00  -21.0305 26025.8 -03449.1 -07.5493 26253.3
 14 06 2013  01 01  -21.0307 26025.8 -03449.2 -07.5493 26253.3
 14 06 2013  01 02  -21.0307 26025.8 -03449.2 -07.5493 26253.3
 14 06 2013  01 03  -21.0307 26025.7 -03449.1 -07.5492 26253.3
 14 06 2013  01 04  -21.0306 26025.6 -03449.1 -07.5491 26253.2
 14 06 2013  01 05  -21.0304 26025.6 -03449.0 -07.5491 26253.1
 14 06 2013  01 06  -21.0304 26025.3 -03448.9 -07.5488 26252.8
 14 06 2013  01 07  -21.0304 26025.4 -03448.9 -07.5489 26252.9
 14 06 2013  01 08  -21.0305 26025.2 -03448.9 -07.5489 26252.8
 14 06 2013  01 09  -21.0305 26025.3 -03448.9 -07.5489 26252.8
 14 06 2013  01 10  -21.0305 26025.3 -03448.9 -07.5489 26252.8
 14 06 2013  01 11  -21.0305 26025.2 -03448.9 -07.5489 26252.8
 14 06 2013  01 12  -21.0304 26025.2 -03448.9 -07.5489 26252.8
 14 06 2013  01 13  -21.0303 26025.2 -03448.9 -07.5489 26252.7
 14 06 2013  01 14  -21.0302 26025.1 -03448.8 -07.5488 26252.7
 14 06 2013  01 15  -21.0301 26025.1 -03448.8 -07.5488 26252.7
 14 06 2013  01 16  -21.0302 26025.0 -03448.8 -07.5487 26252.6
 14 06 2013  01 17  -21.0302 26025.0 -03448.8 -07.5487 26252.5
 14 06 2013  01 18  -21.0302 26024.9 -03448.7 -07.5486 26252.4
 14 06 2013  01 19  -21.0301 26024.7 -03448.7 -07.5486 26252.2
 14 06 2013  01 20  -21.0300 26024.6 -03448.6 -07.5485 26252.1
 14 06 2013  01 21  -21.0299 26024.6 -03448.7 -07.5486 26252.1
 14 06 2013  01 22  -21.0299 26024.6 -03448.7 -07.5487 26252.1
 14 06 2013  01 23  -21.0297 26024.5 -03448.7 -07.5487 26252.0
 14 06 2013  01 24  -21.0295 26024.4 -03448.7 -07.5487 26251.9
 14 06 2013  01 25  -21.0293 26024.3 -03448.7 -07.5488 26251.9
 14 06 2013  01 26  -21.0291 26024.3 -03448.7 -07.5488 26251.8
 14 06 2013  01 27  -21.0290 26024.2 -03448.7 -07.5488 26251.7
 14 06 2013  01 28  -21.0289 26023.9 -03448.6 -07.5487 26251.5
 14 06 2013  01 29  -21.0289 26023.9 -03448.6 -07.5486 26251.4
 14 06 2013  01 30  -21.0290 26023.9 -03448.6 -07.5487 26251.4
 14 06 2013  01 31  -21.0291 26024.0 -03448.7 -07.5488 26251.5
 14 06 2013  01 32  -21.0291 26024.0 -03448.7 -07.5489 26251.5
 14 06 2013  01 33  -21.0290 26024.0 -03448.8 -07.5490 26251.5
 14 06 2013  01 34  -21.0290 26023.9 -03448.7 -07.5489 26251.4
 14 06 2013  01 35  -21.0289 26023.9 -03448.8 -07.5490 26251.5
 14 06 2013  01 36  -21.0289 26023.9 -03448.8 -07.5491 26251.5
 14 06 2013  01 37  -21.0289 26023.8 -03448.8 -07.5491 26251.4
 14 06 2013  01 38  -21.0287 26023.8 -03448.8 -07.5490 26251.3
 14 06 2013  01 39  -21.0284 26023.8 -03448.7 -07.5490 26251.3
 14 06 2013  01 40  -21.0280 26023.7 -03448.7 -07.5490 26251.2
 14 06 2013  01 41  -21.0278 26023.7 -03448.8 -07.5490 26251.2
 14 06 2013  01 42  -21.0277 26023.6 -03448.8 -07.5491 26251.1
 14 06 2013  01 43  -21.0276 26023.5 -03448.8 -07.5491 26251.0
 14 06 2013  01 44  -21.0277 26023.4 -03448.7 -07.5491 26250.9
 14 06 2013  01 45  -21.0277 26023.3 -03448.7 -07.5490 26250.9
 14 06 2013  01 46  -21.0277 26023.4 -03448.7 -07.5491 26250.9
 14 06 2013  01 47  -21.0276 26023.5 -03448.9 -07.5493 26251.1
 14 06 2013  01 48  -21.0276 26023.6 -03448.9 -07.5494 26251.1
 14 06 2013  01 49  -21.0277 26023.7 -03449.0 -07.5496 26251.3
 14 06 2013  01 50  -21.0278 26023.7 -03449.0 -07.5496 26251.3
 14 06 2013  01 51  -21.0280 26023.7 -03449.0 -07.5497 26251.2
 14 06 2013  01 52  -21.0282 26023.7 -03449.0 -07.5496 26251.2
 14 06 2013  01 53  -21.0282 26023.9 -03449.1 -07.5497 26251.4
 14 06 2013  01 54  -21.0283 26024.0 -03449.2 -07.5499 26251.6
 14 06 2013  01 55  -21.0284 26024.2 -03449.3 -07.5501 26251.8
 14 06 2013  01 56  -21.0285 26024.5 -03449.5 -07.5504 26252.2
 14 06 2013  01 57  -21.0285 26024.8 -03449.6 -07.5505 26252.4
 14 06 2013  01 58  -21.0286 26024.9 -03449.6 -07.5506 26252.5
 14 06 2013  01 59  -21.0289 26024.9 -03449.5 -07.5504 26252.5
 14 06 2013  02 00  -21.0293 26024.8 -03449.5 -07.5503 26252.4
 14 06 2013  02 01  -21.0294 26024.7 -03449.4 -07.5502 26252.3
 14 06 2013  02 02  -21.0292 26024.8 -03449.4 -07.5501 26252.4
 14 06 2013  02 03  -21.0293 26024.5 -03449.3 -07.5499 26252.0
 14 06 2013  02 04  -21.0294 26024.3 -03449.1 -07.5497 26251.9
 14 06 2013  02 05  -21.0295 26024.2 -03449.0 -07.5495 26251.7
 14 06 2013  02 06  -21.0292 26024.5 -03449.2 -07.5497 26252.1
 14 06 2013  02 07  -21.0292 26024.6 -03449.3 -07.5499 26252.2
 14 06 2013  02 08  -21.0294 26024.6 -03449.2 -07.5498 26252.1
 14 06 2013  02 09  -21.0295 26024.6 -03449.2 -07.5498 26252.2
 14 06 2013  02 10  -21.0298 26024.4 -03449.1 -07.5497 26251.9
 14 06 2013  02 11  -21.0299 26024.4 -03449.1 -07.5497 26252.0
 14 06 2013  02 12  -21.0302 26024.4 -03449.1 -07.5495 26251.9
 14 06 2013  02 13  -21.0303 26024.3 -03449.0 -07.5495 26251.9
 14 06 2013  02 14  -21.0304 26024.3 -03449.0 -07.5494 26251.9
 14 06 2013  02 15  -21.0305 26024.3 -03449.0 -07.5494 26251.9
 14 06 2013  02 16  -21.0307 26024.1 -03448.9 -07.5492 26251.6
 14 06 2013  02 17  -21.0307 26024.2 -03448.9 -07.5493 26251.8
 14 06 2013  02 18  -21.0309 26024.2 -03448.9 -07.5493 26251.7
 14 06 2013  02 19  -21.0308 26024.2 -03448.9 -07.5492 26251.7
 14 06 2013  02 20  -21.0306 26024.4 -03449.0 -07.5494 26252.0
 14 06 2013  02 21  -21.0311 26024.0 -03448.9 -07.5492 26251.6
 14 06 2013  02 22  -21.0308 26024.1 -03448.8 -07.5491 26251.7
 14 06 2013  02 23  -21.0308 26024.2 -03448.9 -07.5492 26251.7
 14 06 2013  02 24  -21.0305 26024.0 -03448.8 -07.5490 26251.5
 14 06 2013  02 25  -21.0301 26024.3 -03448.9 -07.5492 26251.8
 14 06 2013  02 26  -21.0299 26024.1 -03448.9 -07.5492 26251.7
 14 06 2013  02 27  -21.0295 26024.3 -03449.0 -07.5494 26251.9
 14 06 2013  02 28  -21.0296 26024.3 -03449.1 -07.5495 26251.9
 14 06 2013  02 29  -21.0294 26024.4 -03449.1 -07.5496 26252.0
 14 06 2013  02 30  -21.0292 26024.6 -03449.2 -07.5498 26252.2
 14 06 2013  02 31  -21.0292 26024.6 -03449.3 -07.5499 26252.2
 14 06 2013  02 32  -21.0291 26024.7 -03449.3 -07.5500 26252.3
 14 06 2013  02 33  -21.0291 26025.0 -03449.5 -07.5502 26252.6
 14 06 2013  02 34  -21.0295 26024.4 -03449.3 -07.5500 26252.0
 14 06 2013  02 35  -21.0288 26024.6 -03449.2 -07.5498 26252.2
 14 06 2013  02 36  -21.0286 26024.8 -03449.4 -07.5502 26252.4
 14 06 2013  02 37  -21.0285 26024.3 -03449.2 -07.5499 26251.9
 14 06 2013  02 38  -21.0280 26024.6 -03449.3 -07.5500 26252.1
 14 06 2013  02 39  -21.0281 26024.2 -03449.2 -07.5499 26251.8
 14 06 2013  02 40  -21.0276 26024.3 -03449.3 -07.5500 26251.9
 14 06 2013  02 41  -21.0277 26024.1 -03449.3 -07.5500 26251.7
 14 06 2013  02 42  -21.0275 26024.2 -03449.3 -07.5501 26251.8
 14 06 2013  02 43  -21.0276 26024.2 -03449.4 -07.5502 26251.8
 14 06 2013  02 44  -21.0278 26024.1 -03449.4 -07.5503 26251.8
 14 06 2013  02 45  -21.0280 26024.4 -03449.6 -07.5507 26252.1
 14 06 2013  02 46  -21.0281 26024.5 -03449.7 -07.5508 26252.2
 14 06 2013  02 47  -21.0281 26024.8 -03449.8 -07.5510 26252.4
 14 06 2013  02 48  -21.0282 26024.9 -03449.9 -07.5512 26252.6
 14 06 2013  02 49  -21.0283 26025.0 -03449.9 -07.5512 26252.7
 14 06 2013  02 50  -21.0283 26025.1 -03450.0 -07.5513 26252.8
 14 06 2013  02 51  -21.0283 26025.2 -03450.0 -07.5514 26252.9
 14 06 2013  02 52  -21.0283 26025.3 -03450.1 -07.5514 26253.0
 14 06 2013  02 53  -21.0282 26025.3 -03450.1 -07.5514 26253.0
 14 06 2013  02 54  -21.0283 26025.3 -03450.1 -07.5514 26253.0
 14 06 2013  02 55  -21.0283 26025.4 -03450.1 -07.5514 26253.0
 14 06 2013  02 56  -21.0283 26025.3 -03450.1 -07.5514 26253.0
 14 06 2013  02 57  -21.0283 26025.3 -03450.1 -07.5514 26253.0
 14 06 2013  02 58  -21.0284 26025.3 -03450.1 -07.5514 26253.0
 14 06 2013  02 59  -21.0284 26025.4 -03450.1 -07.5514 26253.0
 14 06 2013  03 00  -21.0284 26025.4 -03450.1 -07.5515 26253.1
 14 06 2013  03 01  -21.0283 26025.5 -03450.2 -07.5516 26253.2
 14 06 2013  03 02  -21.0283 26025.6 -03450.2 -07.5516 26253.3
 14 06 2013  03 03  -21.0284 26025.6 -03450.2 -07.5517 26253.3
 14 06 2013  03 04  -21.0283 26025.7 -03450.2 -07.5517 26253.4
 14 06 2013  03 05  -21.0281 26025.8 -03450.3 -07.5518 26253.5
 14 06 2013  03 06  -21.0280 26025.9 -03450.3 -07.5518 26253.6
 14 06 2013  03 07  -21.0278 26026.0 -03450.4 -07.5518 26253.7
 14 06 2013  03 08  -21.0276 26026.1 -03450.4 -07.5519 26253.8
 14 06 2013  03 09  -21.0273 26026.2 -03450.4 -07.5520 26253.9
 14 06 2013  03 10  -21.0270 26026.3 -03450.5 -07.5520 26254.0
 14 06 2013  03 11  -21.0267 26026.3 -03450.5 -07.5521 26254.0
 14 06 2013  03 12  -21.0266 26026.3 -03450.5 -07.5521 26254.0
 14 06 2013  03 13  -21.0266 26026.3 -03450.5 -07.5521 26254.0
 14 06 2013  03 14  -21.0267 26026.3 -03450.6 -07.5522 26254.0
 14 06 2013  03 15  -21.0269 26026.2 -03450.6 -07.5522 26253.9
 14 06 2013  03 16  -21.0271 26026.1 -03450.5 -07.5521 26253.9
 14 06 2013  03 17  -21.0273 26026.0 -03450.5 -07.5521 26253.7
 14 06 2013  03 18  -21.0276 26025.9 -03450.4 -07.5521 26253.6
 14 06 2013  03 19  -21.0279 26025.8 -03450.4 -07.5521 26253.6
 14 06 2013  03 20  -21.0281 26025.7 -03450.4 -07.5520 26253.5
 14 06 2013  03 21  -21.0283 26025.6 -03450.4 -07.5520 26253.3
 14 06 2013  03 22  -21.0282 26025.6 -03450.3 -07.5519 26253.3
 14 06 2013  03 23  -21.0281 26025.5 -03450.2 -07.5517 26253.2
 14 06 2013  03 24  -21.0279 26025.4 -03450.2 -07.5518 26253.2
 14 06 2013  03 25  -21.0278 26025.5 -03450.3 -07.5518 26253.2
 14 06 2013  03 26  -21.0276 26025.4 -03450.3 -07.5518 26253.2
 14 06 2013  03 27  -21.0274 26025.6 -03450.4 -07.5520 26253.3
 14 06 2013  03 28  -21.0273 26025.6 -03450.4 -07.5521 26253.4
 14 06 2013  03 29  -21.0272 26025.8 -03450.5 -07.5522 26253.5
 14 06 2013  03 30  -21.0270 26025.8 -03450.5 -07.5522 26253.6
 14 06 2013  03 31  -21.0269 26026.0 -03450.6 -07.5524 26253.7
 14 06 2013  03 32  -21.0268 26026.1 -03450.7 -07.5525 26253.9
 14 06 2013  03 33  -21.0268 26026.2 -03450.8 -07.5526 26254.0
 14 06 2013  03 34  -21.0268 26026.3 -03450.8 -07.5528 26254.1
 14 06 2013  03 35  -21.0271 26026.4 -03450.9 -07.5530 26254.2
 14 06 2013  03 36  -21.0276 26026.5 -03451.0 -07.5531 26254.3
 14 06 2013  03 37  -21.0281 26026.6 -03451.0 -07.5532 26254.4
 14 06 2013  03 38  -21.0286 26026.6 -03451.1 -07.5532 26254.4
 14 06 2013  03 39  -21.0291 26026.7 -03451.1 -07.5532 26254.5
 14 06 2013  03 40  -21.0294 26026.8 -03451.1 -07.5532 26254.6
 14 06 2013  03 41  -21.0295 26026.6 -03451.0 -07.5530 26254.4
 14 06 2013  03 42  -21.0297 26026.5 -03450.9 -07.5529 26254.3
 14 06 2013  03 43  -21.0298 26026.6 -03450.9 -07.5529 26254.4
 14 06 2013  03 44  -21.0294 26027.0 -03451.1 -07.5531 26254.8
 14 06 2013  03 45  -21.0292 26027.2 -03451.2 -07.5533 26255.1
 14 06 2013  03 46  -21.0293 26027.3 -03451.2 -07.5534 26255.1
 14 06 2013  03 47  -21.0292 26027.4 -03451.3 -07.5535 26255.2
 14 06 2013  03 48  -21.0294 26027.4 -03451.2 -07.5534 26255.2
 14 06 2013  03 49  -21.0293 26027.4 -03451.3 -07.5534 26255.3
 14 06 2013  03 50  -21.0292 26027.4 -03451.2 -07.5533 26255.2
 14 06 2013  03 51  -21.0292 26027.3 -03451.2 -07.5533 26255.1
 14 06 2013  03 52  -21.0292 26027.2 -03451.1 -07.5532 26255.0
 14 06 2013  03 53  -21.0294 26027.2 -03451.1 -07.5531 26255.0
 14 06 2013  03 54  -21.0295 26027.1 -03451.0 -07.5530 26254.9
 14 06 2013  03 55  -21.0296 26027.0 -03451.0 -07.5530 26254.8
 14 06 2013  03 56  -21.0298 26026.9 -03451.0 -07.5529 26254.7
 14 06 2013  03 57  -21.0300 26027.0 -03451.0 -07.5529 26254.8
 14 06 2013  03 58  -21.0301 26027.0 -03451.0 -07.5529 26254.8
 14 06 2013  03 59  -21.0303 26027.1 -03451.0 -07.5529 26254.9
 14 06 2013  04 00  -21.0304 26027.2 -03451.1 -07.5531 26255.0
 14 06 2013  04 01  -21.0305 26027.4 -03451.2 -07.5532 26255.3
 14 06 2013  04 02  -21.0307 26027.5 -03451.2 -07.5533 26255.4
 14 06 2013  04 03  -21.0310 26027.6 -03451.3 -07.5534 26255.5
 14 06 2013  04 04  -21.0313 26027.7 -03451.3 -07.5534 26255.5
 14 06 2013  04 05  -21.0316 26027.7 -03451.3 -07.5533 26255.5
 14 06 2013  04 06  -21.0317 26027.7 -03451.2 -07.5533 26255.5
 14 06 2013  04 07  -21.0318 26027.7 -03451.2 -07.5532 26255.5
 14 06 2013  04 08  -21.0318 26027.7 -03451.2 -07.5531 26255.5
 14 06 2013  04 09  -21.0317 26027.7 -03451.2 -07.5531 26255.5
 14 06 2013  04 10  -21.0317 26027.7 -03451.1 -07.5530 26255.5
 14 06 2013  04 11  -21.0318 26027.6 -03451.0 -07.5529 26255.4
 14 06 2013  04 12  -21.0320 26027.5 -03451.0 -07.5529 26255.3
 14 06 2013  04 13  -21.0322 26027.6 -03451.0 -07.5529 26255.4
 14 06 2013  04 14  -21.0323 26027.6 -03451.1 -07.5529 26255.4
 14 06 2013  04 15  -21.0325 26027.6 -03451.0 -07.5528 26255.4
 14 06 2013  04 16  -21.0327 26027.7 -03451.0 -07.5528 26255.5
 14 06 2013  04 17  -21.0330 26027.7 -03451.0 -07.5528 26255.5
 14 06 2013  04 18  -21.0332 26027.8 -03451.0 -07.5528 26255.6
 14 06 2013  04 19  -21.0334 26027.8 -03451.0 -07.5528 26255.6
 14 06 2013  04 20  -21.0334 26027.8 -03451.0 -07.5527 26255.6
 14 06 2013  04 21  -21.0334 26028.0 -03451.0 -07.5527 26255.8
 14 06 2013  04 22  -21.0335 26028.0 -03451.1 -07.5528 26255.8
 14 06 2013  04 23  -21.0336 26027.9 -03451.0 -07.5526 26255.7
 14 06 2013  04 24  -21.0338 26027.9 -03450.9 -07.5526 26255.7
 14 06 2013  04 25  -21.0339 26027.8 -03450.9 -07.5524 26255.6
 14 06 2013  04 26  -21.0340 26027.7 -03450.8 -07.5522 26255.4
 14 06 2013  04 27  -21.0341 26027.5 -03450.6 -07.5520 26255.2
 14 06 2013  04 28  -21.0342 26027.4 -03450.6 -07.5519 26255.1
 14 06 2013  04 29  -21.0343 26027.3 -03450.5 -07.5517 26255.0
 14 06 2013  04 30  -21.0343 26027.2 -03450.4 -07.5517 26255.0
 14 06 2013  04 31  -21.0343 26027.2 -03450.4 -07.5516 26254.9
 14 06 2013  04 32  -21.0342 26027.2 -03450.4 -07.5516 26254.9
 14 06 2013  04 33  -21.0342 26027.2 -03450.4 -07.5516 26254.9
 14 06 2013  04 34  -21.0341 26027.2 -03450.4 -07.5516 26254.9
 14 06 2013  04 35  -21.0342 26027.3 -03450.4 -07.5516 26255.0
 14 06 2013  04 36  -21.0341 26027.4 -03450.5 -07.5517 26255.1
 14 06 2013  04 37  -21.0339 26027.5 -03450.6 -07.5519 26255.2
 14 06 2013  04 38  -21.0337 26027.5 -03450.5 -07.5518 26255.3
 14 06 2013  04 39  -21.0336 26027.6 -03450.6 -07.5518 26255.3
 14 06 2013  04 40  -21.0336 26027.6 -03450.6 -07.5518 26255.3
 14 06 2013  04 41  -21.0336 26027.6 -03450.6 -07.5518 26255.3
 14 06 2013  04 42  -21.0335 26027.7 -03450.7 -07.5520 26255.5
 14 06 2013  04 43  -21.0335 26028.1 -03450.8 -07.5522 26255.8
 14 06 2013  04 44  -21.0336 26028.0 -03450.8 -07.5521 26255.7
 14 06 2013  04 45  -21.0337 26028.3 -03450.9 -07.5524 26256.1
 14 06 2013  04 46  -21.0339 26028.1 -03450.8 -07.5523 26255.8
 14 06 2013  04 47  -21.0337 26028.4 -03451.0 -07.5525 26256.2
 14 06 2013  04 48  -21.0338 26028.3 -03450.9 -07.5524 26256.1
 14 06 2013  04 49  -21.0338 26028.4 -03450.9 -07.5523 26256.2
 14 06 2013  04 50  -21.0339 26028.5 -03451.0 -07.5525 26256.3
 14 06 2013  04 51  -21.0340 26028.5 -03451.0 -07.5524 26256.3
 14 06 2013  04 52  -21.0340 26028.6 -03451.0 -07.5524 26256.4
 14 06 2013  04 53  -21.0340 26028.6 -03450.9 -07.5524 26256.3
 14 06 2013  04 54  -21.0339 26028.7 -03451.0 -07.5524 26256.5
 14 06 2013  04 55  -21.0340 26028.8 -03451.0 -07.5525 26256.6
 14 06 2013  04 56  -21.0341 26028.9 -03451.1 -07.5525 26256.7
 14 06 2013  04 57  -21.0341 26029.3 -03451.2 -07.5528 26257.1
 14 06 2013  04 58  -21.0342 26029.3 -03451.2 -07.5527 26257.1
 14 06 2013  04 59  -21.0342 26029.5 -03451.2 -07.5528 26257.3
 14 06 2013  05 00  -21.0343 26029.5 -03451.2 -07.5528 26257.3
 14 06 2013  05 01  -21.0342 26029.8 -03451.3 -07.5529 26257.6
 14 06 2013  05 02  -21.0343 26029.9 -03451.4 -07.5529 26257.7
 14 06 2013  05 03  -21.0342 26030.2 -03451.4 -07.5530 26258.0
 14 06 2013  05 04  -21.0342 26030.2 -03451.4 -07.5529 26258.0
 14 06 2013  05 05  -21.0341 26030.4 -03451.5 -07.5531 26258.2
 14 06 2013  05 06  -21.0344 26030.1 -03451.3 -07.5528 26257.9
 14 06 2013  05 07  -21.0343 26030.4 -03451.4 -07.5528 26258.2
 14 06 2013  05 08  -21.0343 26030.4 -03451.4 -07.5528 26258.2
 14 06 2013  05 09  -21.0343 26030.2 -03451.2 -07.5525 26258.0
 14 06 2013  05 10  -21.0341 26030.5 -03451.3 -07.5527 26258.3
 14 06 2013  05 11  -21.0341 26030.4 -03451.2 -07.5525 26258.1
 14 06 2013  05 12  -21.0340 26030.4 -03451.3 -07.5525 26258.2
 14 06 2013  05 13  -21.0340 26030.4 -03451.2 -07.5525 26258.2
 14 06 2013  05 14  -21.0339 26030.4 -03451.2 -07.5524 26258.2
 14 06 2013  05 15  -21.0338 26030.4 -03451.2 -07.5524 26258.2
 14 06 2013  05 16  -21.0338 26030.7 -03451.3 -07.5525 26258.5
 14 06 2013  05 17  -21.0339 26030.5 -03451.2 -07.5524 26258.3
 14 06 2013  05 18  -21.0339 26030.5 -03451.2 -07.5524 26258.3
 14 06 2013  05 19  -21.0339 26030.7 -03451.3 -07.5525 26258.5
 14 06 2013  05 20  -21.0340 26030.6 -03451.2 -07.5524 26258.4
 14 06 2013  05 21  -21.0339 26030.6 -03451.1 -07.5523 26258.3
 14 06 2013  05 22  -21.0339 26030.7 -03451.2 -07.5524 26258.5
 14 06 2013  05 23  -21.0341 26030.4 -03451.1 -07.5521 26258.2
 14 06 2013  05 24  -21.0341 26030.7 -03451.1 -07.5522 26258.5
 14 06 2013  05 25  -21.0342 26030.7 -03451.2 -07.5523 26258.5
 14 06 2013  05 26  -21.0343 26030.7 -03451.2 -07.5522 26258.5
 14 06 2013  05 27  -21.0343 26030.8 -03451.2 -07.5522 26258.6
 14 06 2013  05 28  -21.0345 26030.8 -03451.2 -07.5522 26258.6
 14 06 2013  05 29  -21.0346 26030.7 -03451.1 -07.5520 26258.5
 14 06 2013  05 30  -21.0345 26030.7 -03451.1 -07.5520 26258.4
 14 06 2013  05 31  -21.0343 26030.7 -03451.0 -07.5519 26258.4
 14 06 2013  05 32  -21.0341 26030.7 -03451.0 -07.5518 26258.4
 14 06 2013  05 33  -21.0339 26030.6 -03450.9 -07.5517 26258.3
 14 06 2013  05 34  -21.0336 26030.5 -03450.9 -07.5516 26258.3
 14 06 2013  05 35  -21.0334 26030.5 -03450.9 -07.5517 26258.3
 14 06 2013  05 36  -21.0333 26030.6 -03450.9 -07.5516 26258.3
 14 06 2013  05 37  -21.0332 26030.5 -03450.9 -07.5516 26258.2
 14 06 2013  05 38  -21.0331 26030.4 -03450.8 -07.5516 26258.2
 14 06 2013  05 39  -21.0330 26030.6 -03450.9 -07.5517 26258.3
 14 06 2013  05 40  -21.0329 26030.6 -03450.9 -07.5518 26258.4
 14 06 2013  05 41  -21.0328 26030.7 -03450.9 -07.5518 26258.5
 14 06 2013  05 42  -21.0329 26030.6 -03450.9 -07.5518 26258.3
 14 06 2013  05 43  -21.0329 26030.4 -03450.8 -07.5516 26258.1
 14 06 2013  05 44  -21.0331 26030.3 -03450.8 -07.5515 26258.0
 14 06 2013  05 45  -21.0332 26030.2 -03450.8 -07.5515 26258.0
 14 06 2013  05 46  -21.0334 26030.1 -03450.7 -07.5515 26257.9
 14 06 2013  05 47  -21.0337 26030.1 -03450.7 -07.5514 26257.8
 14 06 2013  05 48  -21.0340 26030.0 -03450.7 -07.5514 26257.7
 14 06 2013  05 49  -21.0343 26030.0 -03450.7 -07.5514 26257.8
 14 06 2013  05 50  -21.0346 26030.1 -03450.7 -07.5514 26257.8
 14 06 2013  05 51  -21.0348 26030.2 -03450.8 -07.5515 26257.9
 14 06 2013  05 52  -21.0349 26030.2 -03450.7 -07.5515 26257.9
 14 06 2013  05 53  -21.0347 26030.3 -03450.7 -07.5515 26258.0
 14 06 2013  05 54  -21.0346 26030.2 -03450.7 -07.5514 26258.0
 14 06 2013  05 55  -21.0345 26030.2 -03450.7 -07.5514 26257.9
 14 06 2013  05 56  -21.0344 26030.1 -03450.6 -07.5513 26257.8
 14 06 2013  05 57  -21.0342 26030.0 -03450.6 -07.5512 26257.7
 14 06 2013  05 58  -21.0341 26029.9 -03450.5 -07.5511 26257.6
 14 06 2013  05 59  -21.0341 26029.7 -03450.5 -07.5510 26257.4
 14 06 2013  06 00  -21.0341 26029.8 -03450.5 -07.5511 26257.5
 14 06 2013  06 01  -21.0344 26029.7 -03450.5 -07.5511 26257.4
 14 06 2013  06 02  -21.0345 26029.7 -03450.5 -07.5511 26257.4
 14 06 2013  06 03  -21.0346 26029.6 -03450.5 -07.5511 26257.3
 14 06 2013  06 04  -21.0346 26029.5 -03450.5 -07.5511 26257.2
 14 06 2013  06 05  -21.0346 26029.7 -03450.5 -07.5512 26257.4
 14 06 2013  06 06  -21.0346 26029.7 -03450.6 -07.5512 26257.4
 14 06 2013  06 07  -21.0345 26029.6 -03450.5 -07.5512 26257.4
 14 06 2013  06 08  -21.0344 26029.6 -03450.5 -07.5512 26257.3
 14 06 2013  06 09  -21.0343 26029.6 -03450.5 -07.5512 26257.3
 14 06 2013  06 10  -21.0343 26029.5 -03450.5 -07.5512 26257.2
 14 06 2013  06 11  -21.0343 26029.6 -03450.6 -07.5512 26257.3
 14 06 2013  06 12  -21.0344 26029.6 -03450.5 -07.5512 26257.3
 14 06 2013  06 13  -21.0344 26029.6 -03450.5 -07.5512 26257.3
 14 06 2013  06 14  -21.0345 26029.6 -03450.6 -07.5512 26257.3
 14 06 2013  06 15  -21.0345 26029.6 -03450.5 -07.5512 26257.3
 14 06 2013  06 16  -21.0346 26029.4 -03450.5 -07.5512 26257.2
 14 06 2013  06 17  -21.0346 26029.5 -03450.5 -07.5512 26257.2
 14 06 2013  06 18  -21.0346 26029.5 -03450.6 -07.5513 26257.2
 14 06 2013  06 19  -21.0345 26029.5 -03450.5 -07.5513 26257.2
 14 06 2013  06 20  -21.0344 26029.5 -03450.6 -07.5513 26257.2
 14 06 2013  06 21  -21.0344 26029.5 -03450.6 -07.5513 26257.2
 14 06 2013  06 22  -21.0344 26029.5 -03450.6 -07.5513 26257.2
 14 06 2013  06 23  -21.0344 26029.5 -03450.6 -07.5513 26257.2
 14 06 2013  06 24  -21.0347 26029.4 -03450.6 -07.5513 26257.1
 14 06 2013  06 25  -21.0349 26029.3 -03450.5 -07.5512 26257.0
 14 06 2013  06 26  -21.0350 26029.1 -03450.5 -07.5512 26256.8
 14 06 2013  06 27  -21.0351 26029.0 -03450.4 -07.5511 26256.7
 14 06 2013  06 28  -21.0351 26028.9 -03450.4 -07.5510 26256.6
 14 06 2013  06 29  -21.0352 26028.8 -03450.3 -07.5510 26256.5
 14 06 2013  06 30  -21.0352 26028.8 -03450.3 -07.5510 26256.5
 14 06 2013  06 31  -21.0352 26028.8 -03450.3 -07.5510 26256.5
 14 06 2013  06 32  -21.0352 26028.7 -03450.3 -07.5510 26256.4
 14 06 2013  06 33  -21.0353 26028.7 -03450.3 -07.5510 26256.4
 14 06 2013  06 34  -21.0352 26028.7 -03450.3 -07.5510 26256.3
 14 06 2013  06 35  -21.0351 26028.7 -03450.3 -07.5510 26256.4
 14 06 2013  06 36  -21.0351 26028.7 -03450.4 -07.5512 26256.4
 14 06 2013  06 37  -21.0352 26028.6 -03450.4 -07.5512 26256.3
 14 06 2013  06 38  -21.0353 26028.6 -03450.4 -07.5512 26256.3
 14 06 2013  06 39  -21.0354 26028.6 -03450.4 -07.5512 26256.3
 14 06 2013  06 40  -21.0353 26028.5 -03450.4 -07.5511 26256.2
 14 06 2013  06 41  -21.0353 26028.5 -03450.3 -07.5511 26256.2
 14 06 2013  06 42  -21.0352 26028.5 -03450.3 -07.5510 26256.1
 14 06 2013  06 43  -21.0352 26028.4 -03450.3 -07.5511 26256.1
 14 06 2013  06 44  -21.0351 26028.4 -03450.3 -07.5511 26256.0
 14 06 2013  06 45  -21.0350 26028.4 -03450.3 -07.5511 26256.1
 14 06 2013  06 46  -21.0349 26028.4 -03450.4 -07.5512 26256.1
 14 06 2013  06 47  -21.0347 26028.4 -03450.4 -07.5512 26256.0
 14 06 2013  06 48  -21.0346 26028.3 -03450.4 -07.5512 26256.0
 14 06 2013  06 49  -21.0343 26028.2 -03450.3 -07.5512 26255.9
 14 06 2013  06 50  -21.0342 26028.2 -03450.3 -07.5512 26255.9
 14 06 2013  06 51  -21.0341 26028.1 -03450.3 -07.5512 26255.8
 14 06 2013  06 52  -21.0340 26028.1 -03450.3 -07.5512 26255.8
 14 06 2013  06 53  -21.0340 26028.1 -03450.4 -07.5513 26255.8
 14 06 2013  06 54  -21.0339 26028.0 -03450.4 -07.5513 26255.7
 14 06 2013  06 55  -21.0337 26028.0 -03450.4 -07.5514 26255.7
 14 06 2013  06 56  -21.0336 26028.0 -03450.4 -07.5514 26255.7
 14 06 2013  06 57  -21.0333 26028.0 -03450.4 -07.5514 26255.7
 14 06 2013  06 58  -21.0333 26028.0 -03450.5 -07.5515 26255.8
 14 06 2013  06 59  -21.0331 26028.0 -03450.5 -07.5516 26255.7
 14 06 2013  07 00  -21.0330 26028.0 -03450.5 -07.5516 26255.7
 14 06 2013  07 01  -21.0330 26027.9 -03450.5 -07.5517 26255.6
 14 06 2013  07 02  -21.0331 26027.9 -03450.6 -07.5517 26255.6
 14 06 2013  07 03  -21.0333 26028.0 -03450.6 -07.5518 26255.7
 14 06 2013  07 04  -21.0335 26028.0 -03450.7 -07.5520 26255.7
 14 06 2013  07 05  -21.0335 26028.0 -03450.7 -07.5520 26255.8
 14 06 2013  07 06  -21.0336 26028.0 -03450.7 -07.5521 26255.8
 14 06 2013  07 07  -21.0337 26028.0 -03450.7 -07.5521 26255.8
 14 06 2013  07 08  -21.0337 26028.0 -03450.7 -07.5521 26255.7
 14 06 2013  07 09  -21.0336 26028.0 -03450.7 -07.5521 26255.8
 14 06 2013  07 10  -21.0336 26028.1 -03450.8 -07.5522 26255.8
 14 06 2013  07 11  -21.0335 26028.0 -03450.8 -07.5521 26255.8
 14 06 2013  07 12  -21.0335 26028.0 -03450.8 -07.5522 26255.8
 14 06 2013  07 13  -21.0335 26028.0 -03450.8 -07.5522 26255.8
 14 06 2013  07 14  -21.0334 26028.0 -03450.8 -07.5522 26255.7
 14 06 2013  07 15  -21.0334 26028.0 -03450.8 -07.5522 26255.7
 14 06 2013  07 16  -21.0334 26028.0 -03450.8 -07.5523 26255.8
 14 06 2013  07 17  -21.0332 26028.0 -03450.8 -07.5523 26255.8
 14 06 2013  07 18  -21.0331 26028.0 -03450.9 -07.5523 26255.8
 14 06 2013  07 19  -21.0330 26028.0 -03450.8 -07.5523 26255.8
 14 06 2013  07 20  -21.0328 26028.1 -03450.9 -07.5524 26255.8
 14 06 2013  07 21  -21.0328 26028.0 -03450.9 -07.5524 26255.8
 14 06 2013  07 22  -21.0326 26028.0 -03450.9 -07.5524 26255.8
 14 06 2013  07 23  -21.0325 26028.0 -03450.9 -07.5524 26255.7
 14 06 2013  07 24  -21.0322 26028.0 -03450.9 -07.5524 26255.7
 14 06 2013  07 25  -21.0320 26028.0 -03450.9 -07.5524 26255.7
 14 06 2013  07 26  -21.0320 26028.0 -03450.9 -07.5525 26255.8
 14 06 2013  07 27  -21.0319 26028.0 -03451.0 -07.5526 26255.8
 14 06 2013  07 28  -21.0320 26027.9 -03450.9 -07.5525 26255.7
 14 06 2013  07 29  -21.0320 26027.9 -03450.9 -07.5525 26255.7
 14 06 2013  07 30  -21.0319 26027.9 -03450.9 -07.5526 26255.7
 14 06 2013  07 31  -21.0318 26027.9 -03451.0 -07.5526 26255.7
 14 06 2013  07 32  -21.0318 26027.9 -03451.0 -07.5527 26255.7
 14 06 2013  07 33  -21.0317 26027.9 -03451.0 -07.5527 26255.7
 14 06 2013  07 34  -21.0317 26027.9 -03451.0 -07.5527 26255.7
 14 06 2013  07 35  -21.0316 26028.0 -03451.1 -07.5528 26255.8
 14 06 2013  07 36  -21.0315 26028.1 -03451.1 -07.5528 26255.9
 14 06 2013  07 37  -21.0314 26028.2 -03451.1 -07.5529 26256.0
 14 06 2013  07 38  -21.0314 26028.3 -03451.2 -07.5531 26256.1
 14 06 2013  07 39  -21.0313 26028.4 -03451.3 -07.5531 26256.2
 14 06 2013  07 40  -21.0311 26028.4 -03451.3 -07.5531 26256.2
 14 06 2013  07 41  -21.0310 26028.4 -03451.3 -07.5532 26256.2
 14 06 2013  07 42  -21.0308 26028.4 -03451.3 -07.5532 26256.3
 14 06 2013  07 43  -21.0306 26028.4 -03451.3 -07.5532 26256.3
 14 06 2013  07 44  -21.0305 26028.5 -03451.4 -07.5533 26256.4
 14 06 2013  07 45  -21.0304 26028.6 -03451.4 -07.5534 26256.5
 14 06 2013  07 46  -21.0303 26028.6 -03451.4 -07.5534 26256.5
 14 06 2013  07 47  -21.0301 26028.7 -03451.5 -07.5535 26256.5
 14 06 2013  07 48  -21.0299 26028.7 -03451.5 -07.5535 26256.6
 14 06 2013  07 49  -21.0297 26028.7 -03451.5 -07.5535 26256.6
 14 06 2013  07 50  -21.0296 26028.8 -03451.5 -07.5535 26256.6
 14 06 2013  07 51  -21.0295 26028.7 -03451.5 -07.5535 26256.5
 14 06 2013  07 52  -21.0295 26028.7 -03451.5 -07.5536 26256.6
 14 06 2013  07 53  -21.0297 26028.8 -03451.6 -07.5537 26256.7
 14 06 2013  07 54  -21.0297 26028.9 -03451.6 -07.5538 26256.7
 14 06 2013  07 55  -21.0297 26029.0 -03451.7 -07.5540 26256.8
 14 06 2013  07 56  -21.0296 26029.0 -03451.7 -07.5539 26256.9
 14 06 2013  07 57  -21.0295 26029.1 -03451.8 -07.5540 26256.9
 14 06 2013  07 58  -21.0295 26029.0 -03451.7 -07.5539 26256.9
 14 06 2013  07 59  -21.0293 26029.0 -03451.7 -07.5539 26256.9
 14 06 2013  08 00  -21.0292 26029.0 -03451.8 -07.5540 26256.9
 14 06 2013  08 01  -21.0292 26029.1 -03451.8 -07.5541 26257.0
 14 06 2013  08 02  -21.0291 26029.2 -03451.9 -07.5542 26257.1
 14 06 2013  08 03  -21.0290 26029.2 -03451.9 -07.5542 26257.0
 14 06 2013  08 04  -21.0288 26029.2 -03451.9 -07.5542 26257.1
 14 06 2013  08 05  -21.0288 26029.3 -03451.9 -07.5543 26257.2
 14 06 2013  08 06  -21.0287 26029.4 -03452.0 -07.5544 26257.3
 14 06 2013  08 07  -21.0285 26029.3 -03452.0 -07.5545 26257.3
 14 06 2013  08 08  -21.0285 26029.3 -03452.0 -07.5545 26257.2
 14 06 2013  08 09  -21.0283 26029.3 -03452.1 -07.5546 26257.2
 14 06 2013  08 10  -21.0280 26029.4 -03452.1 -07.5546 26257.3
 14 06 2013  08 11  -21.0280 26029.4 -03452.1 -07.5546 26257.3
 14 06 2013  08 12  -21.0280 26029.5 -03452.1 -07.5546 26257.4
 14 06 2013  08 13  -21.0277 26029.5 -03452.1 -07.5546 26257.4
 14 06 2013  08 14  -21.0275 26029.5 -03452.1 -07.5546 26257.4
 14 06 2013  08 15  -21.0272 26029.4 -03452.1 -07.5546 26257.3
 14 06 2013  08 16  -21.0269 26029.3 -03452.0 -07.5545 26257.2
 14 06 2013  08 17  -21.0267 26029.3 -03452.1 -07.5546 26257.2
 14 06 2013  08 18  -21.0266 26029.4 -03452.1 -07.5546 26257.3
 14 06 2013  08 19  -21.0266 26029.4 -03452.1 -07.5546 26257.3
 14 06 2013  08 20  -21.0265 26029.3 -03452.1 -07.5546 26257.2
 14 06 2013  08 21  -21.0264 26029.3 -03452.0 -07.5545 26257.2
 14 06 2013  08 22  -21.0262 26029.3 -03452.0 -07.5546 26257.2
 14 06 2013  08 23  -21.0260 26029.3 -03452.1 -07.5547 26257.3
 14 06 2013  08 24  -21.0258 26029.3 -03452.1 -07.5547 26257.2
 14 06 2013  08 25  -21.0257 26029.3 -03452.1 -07.5547 26257.2
 14 06 2013  08 26  -21.0256 26029.3 -03452.2 -07.5548 26257.2
 14 06 2013  08 27  -21.0254 26029.3 -03452.2 -07.5549 26257.3
 14 06 2013  08 28  -21.0250 26029.4 -03452.2 -07.5549 26257.3
 14 06 2013  08 29  -21.0248 26029.3 -03452.2 -07.5548 26257.2
 14 06 2013  08 30  -21.0245 26029.3 -03452.2 -07.5549 26257.2
 14 06 2013  08 31  -21.0243 26029.3 -03452.2 -07.5550 26257.3
 14 06 2013  08 32  -21.0241 26029.4 -03452.3 -07.5550 26257.3
 14 06 2013  08 33  -21.0240 26029.4 -03452.3 -07.5551 26257.4
 14 06 2013  08 34  -21.0239 26029.4 -03452.3 -07.5551 26257.4
 14 06 2013  08 35  -21.0237 26029.5 -03452.3 -07.5551 26257.4
 14 06 2013  08 36  -21.0236 26029.6 -03452.4 -07.5552 26257.5
 14 06 2013  08 37  -21.0235 26029.6 -03452.4 -07.5553 26257.6
 14 06 2013  08 38  -21.0235 26029.7 -03452.5 -07.5554 26257.7
 14 06 2013  08 39  -21.0231 26029.8 -03452.5 -07.5554 26257.7
 14 06 2013  08 40  -21.0229 26029.9 -03452.5 -07.5553 26257.8
 14 06 2013  08 41  -21.0227 26030.0 -03452.5 -07.5554 26257.9
 14 06 2013  08 42  -21.0223 26030.0 -03452.5 -07.5554 26258.0
 14 06 2013  08 43  -21.0220 26030.1 -03452.5 -07.5553 26258.0
 14 06 2013  08 44  -21.0218 26030.0 -03452.5 -07.5553 26258.0
 14 06 2013  08 45  -21.0215 26030.1 -03452.5 -07.5553 26258.0
 14 06 2013  08 46  -21.0213 26030.1 -03452.5 -07.5553 26258.0
 14 06 2013  08 47  -21.0212 26029.9 -03452.4 -07.5552 26257.9
 14 06 2013  08 48  -21.0210 26029.9 -03452.4 -07.5551 26257.8
 14 06 2013  08 49  -21.0209 26029.8 -03452.3 -07.5550 26257.8
 14 06 2013  08 50  -21.0208 26029.8 -03452.3 -07.5550 26257.7
 14 06 2013  08 51  -21.0206 26029.7 -03452.3 -07.5549 26257.7
 14 06 2013  08 52  -21.0201 26029.6 -03452.2 -07.5548 26257.6
 14 06 2013  08 53  -21.0197 26029.6 -03452.1 -07.5546 26257.5
 14 06 2013  08 54  -21.0194 26029.5 -03452.1 -07.5546 26257.4
 14 06 2013  08 55  -21.0190 26029.4 -03452.0 -07.5543 26257.3
 14 06 2013  08 56  -21.0185 26029.4 -03452.0 -07.5544 26257.3
 14 06 2013  08 57  -21.0180 26029.3 -03452.0 -07.5544 26257.2
 14 06 2013  08 58  -21.0176 26029.3 -03452.0 -07.5544 26257.2
 14 06 2013  08 59  -21.0171 26029.2 -03452.0 -07.5544 26257.1
 14 06 2013  09 00  -21.0165 26029.1 -03451.9 -07.5544 26257.0
 14 06 2013  09 01  -21.0159 26029.1 -03452.0 -07.5544 26257.0
 14 06 2013  09 02  -21.0154 26029.0 -03452.0 -07.5545 26256.9
 14 06 2013  09 03  -21.0148 26029.0 -03452.1 -07.5547 26256.9
 14 06 2013  09 04  -21.0142 26028.9 -03452.1 -07.5548 26256.9
 14 06 2013  09 05  -21.0136 26028.9 -03452.2 -07.5549 26256.8
 14 06 2013  09 06  -21.0130 26028.8 -03452.2 -07.5551 26256.8
 14 06 2013  09 07  -21.0125 26028.8 -03452.3 -07.5553 26256.7
 14 06 2013  09 08  -21.0119 26028.8 -03452.4 -07.5555 26256.7
 14 06 2013  09 09  -21.0113 26028.7 -03452.5 -07.5557 26256.7
 14 06 2013  09 10  -21.0108 26028.7 -03452.6 -07.5559 26256.6
 14 06 2013  09 11  -21.0102 26028.5 -03452.7 -07.5562 26256.5
 14 06 2013  09 12  -21.0098 26028.5 -03452.8 -07.5565 26256.5
 14 06 2013  09 13  -21.0096 26028.4 -03453.0 -07.5568 26256.5
 14 06 2013  09 14  -21.0091 26028.4 -03453.1 -07.5571 26256.4
 14 06 2013  09 15  -21.0087 26028.4 -03453.2 -07.5574 26256.4
 14 06 2013  09 16  -21.0086 26028.4 -03453.5 -07.5579 26256.5
 14 06 2013  09 17  -21.0085 26028.4 -03453.6 -07.5583 26256.5
 14 06 2013  09 18  -21.0085 26028.4 -03453.8 -07.5587 26256.6
 14 06 2013  09 19  -21.0083 26028.5 -03454.0 -07.5591 26256.6
 14 06 2013  09 20  -21.0081 26028.4 -03454.2 -07.5594 26256.6
 14 06 2013  09 21  -21.0078 26028.4 -03454.3 -07.5597 26256.6
 14 06 2013  09 22  -21.0075 26028.3 -03454.4 -07.5600 26256.5
 14 06 2013  09 23  -21.0072 26028.2 -03454.6 -07.5603 26256.5
 14 06 2013  09 24  -21.0070 26028.2 -03454.7 -07.5606 26256.5
 14 06 2013  09 25  -21.0065 26028.2 -03454.9 -07.5609 26256.5
 14 06 2013  09 26  -21.0064 26028.3 -03455.0 -07.5612 26256.6
 14 06 2013  09 27  -21.0061 26028.3 -03455.1 -07.5615 26256.6
 14 06 2013  09 28  -21.0060 26028.3 -03455.3 -07.5619 26256.6
 14 06 2013  09 29  -21.0059 26028.3 -03455.5 -07.5623 26256.6
 14 06 2013  09 30  -21.0057 26028.3 -03455.6 -07.5626 26256.7
 14 06 2013  09 31  -21.0056 26028.2 -03455.7 -07.5629 26256.6
 14 06 2013  09 32  -21.0055 26028.2 -03455.9 -07.5631 26256.6
 14 06 2013  09 33  -21.0056 26028.2 -03456.0 -07.5634 26256.6
 14 06 2013  09 34  -21.0055 26028.1 -03456.1 -07.5637 26256.6
 14 06 2013  09 35  -21.0056 26028.1 -03456.2 -07.5639 26256.5
 14 06 2013  09 36  -21.0056 26028.1 -03456.3 -07.5641 26256.6
 14 06 2013  09 37  -21.0063 26028.0 -03456.4 -07.5644 26256.5
 14 06 2013  09 38  -21.0065 26027.9 -03456.6 -07.5647 26256.4
 14 06 2013  09 39  -21.0065 26027.9 -03456.7 -07.5650 26256.4
 14 06 2013  09 40  -21.0064 26027.9 -03456.7 -07.5651 26256.4
 14 06 2013  09 41  -21.0063 26027.9 -03456.8 -07.5653 26256.4
 14 06 2013  09 42  -21.0065 26027.9 -03456.9 -07.5655 26256.4
 14 06 2013  09 43  -21.0067 26027.8 -03457.0 -07.5657 26256.3
 14 06 2013  09 44  -21.0070 26027.8 -03457.1 -07.5659 26256.4
 14 06 2013  09 45  -21.0072 26027.8 -03457.2 -07.5661 26256.4
 14 06 2013  09 46  -21.0075 26027.7 -03457.3 -07.5663 26256.3
 14 06 2013  09 47  -21.0079 26027.7 -03457.4 -07.5666 26256.4
 14 06 2013  09 48  -21.0081 26027.7 -03457.5 -07.5667 26256.3
 14 06 2013  09 49  -21.0083 26027.6 -03457.5 -07.5669 26256.3
 14 06 2013  09 50  -21.0083 26027.6 -03457.6 -07.5671 26256.3
 14 06 2013  09 51  -21.0085 26027.6 -03457.7 -07.5672 26256.3
 14 06 2013  09 52  -21.0087 26027.6 -03457.8 -07.5674 26256.3
 14 06 2013  09 53  -21.0091 26027.6 -03457.8 -07.5676 26256.3
 14 06 2013  09 54  -21.0095 26027.6 -03457.9 -07.5678 26256.3
 14 06 2013  09 55  -21.0097 26027.6 -03458.0 -07.5679 26256.3
 14 06 2013  09 56  -21.0100 26027.6 -03458.1 -07.5680 26256.4
 14 06 2013  09 57  -21.0102 26027.7 -03458.2 -07.5683 26256.4
 14 06 2013  09 58  -21.0104 26027.8 -03458.2 -07.5684 26256.5
 14 06 2013  09 59  -21.0106 26027.8 -03458.3 -07.5685 26256.5
 14 06 2013  10 00  -21.0107 26027.8 -03458.4 -07.5686 26256.6
 14 06 2013  10 01  -21.0111 26027.8 -03458.4 -07.5688 26256.6
 14 06 2013  10 02  -21.0114 26028.0 -03458.6 -07.5691 26256.7
 14 06 2013  10 03  -21.0111 26028.4 -03458.8 -07.5695 26257.2
 14 06 2013  10 04  -21.0115 26028.7 -03459.1 -07.5700 26257.5
 14 06 2013  10 05  -21.0126 26028.9 -03459.3 -07.5704 26257.8
 14 06 2013  10 06  -21.0127 26029.3 -03459.6 -07.5709 26258.2
 14 06 2013  10 07  -21.0125 26029.8 -03459.9 -07.5713 26258.8
 14 06 2013  10 08  -21.0123 26030.4 -03460.1 -07.5718 26259.4
 14 06 2013  10 09  -21.0121 26031.0 -03460.4 -07.5721 26260.0
 14 06 2013  10 10  -21.0114 26031.6 -03460.6 -07.5724 26260.6
 14 06 2013  10 11  -21.0109 26032.1 -03460.7 -07.5725 26261.1
 14 06 2013  10 12  -21.0106 26032.5 -03460.8 -07.5726 26261.6
 14 06 2013  10 13  -21.0102 26032.9 -03460.8 -07.5726 26262.0
 14 06 2013  10 14  -21.0097 26033.3 -03460.8 -07.5724 26262.3
 14 06 2013  10 15  -21.0090 26033.6 -03460.8 -07.5722 26262.6
 14 06 2013  10 16  -21.0087 26033.7 -03460.7 -07.5720 26262.7
 14 06 2013  10 17  -21.0087 26033.8 -03460.6 -07.5717 26262.8
 14 06 2013  10 18  -21.0086 26033.9 -03460.5 -07.5715 26262.9
 14 06 2013  10 19  -21.0084 26034.0 -03460.4 -07.5713 26262.9
 14 06 2013  10 20  -21.0084 26033.9 -03460.3 -07.5711 26262.9
 14 06 2013  10 21  -21.0087 26033.9 -03460.3 -07.5710 26262.9
 14 06 2013  10 22  -21.0089 26033.8 -03460.2 -07.5710 26262.8
 14 06 2013  10 23  -21.0090 26033.9 -03460.2 -07.5710 26262.9
 14 06 2013  10 24  -21.0091 26034.0 -03460.3 -07.5710 26262.9
 14 06 2013  10 25  -21.0094 26034.0 -03460.3 -07.5711 26263.0
 14 06 2013  10 26  -21.0096 26034.1 -03460.4 -07.5712 26263.0
 14 06 2013  10 27  -21.0098 26034.2 -03460.4 -07.5712 26263.1
 14 06 2013  10 28  -21.0098 26034.3 -03460.5 -07.5713 26263.3
 14 06 2013  10 29  -21.0101 26034.4 -03460.5 -07.5714 26263.4
 14 06 2013  10 30  -21.0104 26034.5 -03460.6 -07.5715 26263.5
 14 06 2013  10 31  -21.0107 26034.6 -03460.6 -07.5715 26263.6
 14 06 2013  10 32  -21.0109 26034.7 -03460.6 -07.5716 26263.7
 14 06 2013  10 33  -21.0110 26034.9 -03460.7 -07.5716 26263.9
 14 06 2013  10 34  -21.0111 26035.0 -03460.7 -07.5716 26264.0
 14 06 2013  10 35  -21.0112 26035.2 -03460.8 -07.5717 26264.2
 14 06 2013  10 36  -21.0113 26035.3 -03460.8 -07.5717 26264.3
 14 06 2013  10 37  -21.0115 26035.4 -03460.8 -07.5717 26264.4
 14 06 2013  10 38  -21.0115 26035.5 -03460.8 -07.5717 26264.5
 14 06 2013  10 39  -21.0117 26035.6 -03460.8 -07.5717 26264.6
 14 06 2013  10 40  -21.0120 26035.7 -03460.8 -07.5717 26264.7
 14 06 2013  10 41  -21.0123 26035.7 -03460.8 -07.5717 26264.8
 14 06 2013  10 42  -21.0130 26035.7 -03460.8 -07.5717 26264.7
 14 06 2013  10 43  -21.0135 26035.6 -03460.7 -07.5715 26264.6
 14 06 2013  10 44  -21.0140 26035.6 -03460.7 -07.5714 26264.6
 14 06 2013  10 45  -21.0145 26035.5 -03460.6 -07.5714 26264.5
 14 06 2013  10 46  -21.0151 26035.5 -03460.6 -07.5714 26264.5
 14 06 2013  10 47  -21.0157 26035.5 -03460.7 -07.5714 26264.5
 14 06 2013  10 48  -21.0165 26035.4 -03460.6 -07.5714 26264.4
 14 06 2013  10 49  -21.0170 26035.5 -03460.7 -07.5715 26264.5
 14 06 2013  10 50  -21.0175 26035.6 -03460.7 -07.5716 26264.6
 14 06 2013  10 51  -21.0181 26035.6 -03460.8 -07.5716 26264.6
 14 06 2013  10 52  -21.0187 26035.7 -03460.8 -07.5716 26264.7
 14 06 2013  10 53  -21.0193 26035.7 -03460.8 -07.5717 26264.8
 14 06 2013  10 54  -21.0199 26035.9 -03460.9 -07.5718 26264.9
 14 06 2013  10 55  -21.0201 26036.1 -03460.9 -07.5718 26265.1
 14 06 2013  10 56  -21.0205 26036.2 -03460.9 -07.5718 26265.2
 14 06 2013  10 57  -21.0208 26036.3 -03460.9 -07.5717 26265.4
 14 06 2013  10 58  -21.0207 26036.6 -03460.9 -07.5716 26265.6
 14 06 2013  10 59  -21.0209 26036.8 -03460.9 -07.5715 26265.8
 14 06 2013  11 00  -21.0214 26036.8 -03460.8 -07.5713 26265.7
 14 06 2013  11 01  -21.0218 26036.8 -03460.7 -07.5711 26265.8
 14 06 2013  11 02  -21.0221 26036.9 -03460.6 -07.5709 26265.8
 14 06 2013  11 03  -21.0225 26036.8 -03460.5 -07.5707 26265.8
 14 06 2013  11 04  -21.0228 26036.9 -03460.4 -07.5705 26265.8
 14 06 2013  11 05  -21.0230 26037.0 -03460.4 -07.5703 26265.9
 14 06 2013  11 06  -21.0232 26037.1 -03460.3 -07.5701 26266.0
 14 06 2013  11 07  -21.0234 26037.1 -03460.1 -07.5698 26266.0
 14 06 2013  11 08  -21.0236 26037.2 -03460.1 -07.5696 26266.0
 14 06 2013  11 09  -21.0242 26037.3 -03460.0 -07.5694 26266.2
 14 06 2013  11 10  -21.0245 26037.4 -03459.9 -07.5692 26266.3
 14 06 2013  11 11  -21.0249 26037.5 -03459.8 -07.5690 26266.3
 14 06 2013  11 12  -21.0252 26037.5 -03459.8 -07.5689 26266.4
 14 06 2013  11 13  -21.0254 26037.6 -03459.7 -07.5688 26266.5
 14 06 2013  11 14  -21.0256 26037.7 -03459.7 -07.5687 26266.6
 14 06 2013  11 15  -21.0257 26038.0 -03459.7 -07.5686 26266.8
 14 06 2013  11 16  -21.0259 26038.2 -03459.7 -07.5686 26267.0
 14 06 2013  11 17  -21.0264 26038.4 -03459.7 -07.5686 26267.2
 14 06 2013  11 18  -21.0268 26038.6 -03459.7 -07.5685 26267.5
 14 06 2013  11 19  -21.0270 26038.9 -03459.7 -07.5684 26267.7
 14 06 2013  11 20  -21.0272 26039.1 -03459.7 -07.5684 26267.9
 14 06 2013  11 21  -21.0275 26039.3 -03459.7 -07.5683 26268.2
 14 06 2013  11 22  -21.0277 26039.7 -03459.8 -07.5683 26268.5
 14 06 2013  11 23  -21.0280 26039.9 -03459.8 -07.5682 26268.8
 14 06 2013  11 24  -21.0281 26040.3 -03459.8 -07.5683 26269.1
 14 06 2013  11 25  -21.0283 26040.6 -03459.9 -07.5683 26269.5
 14 06 2013  11 26  -21.0286 26040.9 -03459.9 -07.5682 26269.8
 14 06 2013  11 27  -21.0289 26041.2 -03459.9 -07.5682 26270.1
 14 06 2013  11 28  -21.0291 26041.6 -03460.0 -07.5682 26270.4
 14 06 2013  11 29  -21.0295 26042.0 -03460.0 -07.5682 26270.9
 14 06 2013  11 30  -21.0296 26042.4 -03460.1 -07.5682 26271.3
 14 06 2013  11 31  -21.0298 26042.9 -03460.2 -07.5682 26271.7
 14 06 2013  11 32  -21.0299 26043.3 -03460.2 -07.5681 26272.2
 14 06 2013  11 33  -21.0298 26043.8 -03460.3 -07.5681 26272.7
 14 06 2013  11 34  -21.0299 26044.4 -03460.3 -07.5681 26273.2
 14 06 2013  11 35  -21.0301 26044.8 -03460.4 -07.5681 26273.7
 14 06 2013  11 36  -21.0301 26045.3 -03460.4 -07.5681 26274.2
 14 06 2013  11 37  -21.0304 26045.8 -03460.5 -07.5681 26274.7
 14 06 2013  11 38  -21.0306 26046.3 -03460.5 -07.5680 26275.2
 14 06 2013  11 39  -21.0305 26046.9 -03460.6 -07.5680 26275.8
 14 06 2013  11 40  -21.0306 26047.3 -03460.7 -07.5680 26276.2
 14 06 2013  11 41  -21.0308 26047.8 -03460.7 -07.5680 26276.7
 14 06 2013  11 42  -21.0309 26048.4 -03460.8 -07.5680 26277.3
 14 06 2013  11 43  -21.0311 26048.9 -03460.8 -07.5679 26277.8
 14 06 2013  11 44  -21.0313 26049.4 -03460.8 -07.5677 26278.3
 14 06 2013  11 45  -21.0313 26049.9 -03460.8 -07.5676 26278.8
 14 06 2013  11 46  -21.0314 26050.4 -03460.8 -07.5673 26279.3
 14 06 2013  11 47  -21.0315 26050.9 -03460.7 -07.5671 26279.8
 14 06 2013  11 48  -21.0315 26051.4 -03460.7 -07.5669 26280.3
 14 06 2013  11 49  -21.0316 26051.8 -03460.6 -07.5666 26280.7
 14 06 2013  11 50  -21.0319 26052.1 -03460.5 -07.5662 26280.9
 14 06 2013  11 51  -21.0320 26052.2 -03460.3 -07.5659 26281.0
 14 06 2013  11 52  -21.0323 26052.3 -03460.2 -07.5655 26281.1
 14 06 2013  11 53  -21.0353 26052.3 -03459.8 -07.5648 26281.0
 14 06 2013  11 54  -21.0374 26052.3 -03459.6 -07.5643 26281.0
 14 06 2013  11 55  -21.0377 26052.5 -03459.5 -07.5640 26281.2
 14 06 2013  11 56  -21.0379 26052.7 -03459.5 -07.5639 26281.4
 14 06 2013  11 57  -21.0386 26052.9 -03459.4 -07.5637 26281.6
 14 06 2013  11 58  -21.0397 26053.1 -03459.4 -07.5636 26281.8
 14 06 2013  11 59  -21.0396 26053.3 -03459.3 -07.5633 26282.0
 14 06 2013  12 00  -21.0400 26053.4 -03459.3 -07.5632 26282.1
 14 06 2013  12 01  -21.0402 26053.7 -03459.2 -07.5630 26282.3
 14 06 2013  12 02  -21.0399 26053.8 -03459.1 -07.5627 26282.5
 14 06 2013  12 03  -21.0401 26054.0 -03459.0 -07.5625 26282.6
 14 06 2013  12 04  -21.0403 26054.3 -03458.9 -07.5621 26282.8
 14 06 2013  12 05  -21.0406 26054.4 -03458.7 -07.5617 26283.0
 14 06 2013  12 06  -21.0410 26054.5 -03458.6 -07.5614 26283.0
 14 06 2013  12 07  -21.0413 26054.6 -03458.5 -07.5612 26283.1
 14 06 2013  12 08  -21.0397 26054.9 -03458.6 -07.5613 26283.4
 14 06 2013  12 09  -21.0373 26055.2 -03458.7 -07.5616 26283.8
 14 06 2013  12 10  -21.0376 26055.3 -03458.6 -07.5612 26283.9
 14 06 2013  12 11  -21.0380 26055.4 -03458.6 -07.5612 26284.0
 14 06 2013  12 12  -21.0384 26055.7 -03458.6 -07.5611 26284.3
 14 06 2013  12 13  -21.0389 26056.0 -03458.5 -07.5610 26284.5
 14 06 2013  12 14  -21.0392 26056.2 -03458.5 -07.5609 26284.7
 14 06 2013  12 15  -21.0395 26056.6 -03458.5 -07.5608 26285.1
 14 06 2013  12 16  -21.0398 26056.9 -03458.5 -07.5607 26285.4
 14 06 2013  12 17  -21.0401 26057.2 -03458.5 -07.5605 26285.7
 14 06 2013  12 18  -21.0405 26057.6 -03458.5 -07.5604 26286.1
 14 06 2013  12 19  -21.0408 26057.8 -03458.4 -07.5601 26286.3
 14 06 2013  12 20  -21.0412 26058.1 -03458.4 -07.5599 26286.6
 14 06 2013  12 21  -21.0415 26058.4 -03458.3 -07.5597 26286.8
 14 06 2013  12 22  -21.0418 26058.6 -03458.2 -07.5595 26287.1
 14 06 2013  12 23  -21.0421 26058.8 -03458.1 -07.5592 26287.2
 14 06 2013  12 24  -21.0426 26058.8 -03458.0 -07.5589 26287.3
 14 06 2013  12 25  -21.0429 26058.9 -03457.9 -07.5586 26287.3
 14 06 2013  12 26  -21.0432 26059.0 -03457.8 -07.5584 26287.4
 14 06 2013  12 27  -21.0436 26059.0 -03457.7 -07.5582 26287.4
 14 06 2013  12 28  -21.0439 26059.1 -03457.5 -07.5579 26287.5
 14 06 2013  12 29  -21.0442 26059.1 -03457.4 -07.5576 26287.5
 14 06 2013  12 30  -21.0445 26059.1 -03457.3 -07.5574 26287.5
 14 06 2013  12 31  -21.0449 26059.2 -03457.3 -07.5573 26287.5
 14 06 2013  12 32  -21.0453 26059.2 -03457.2 -07.5571 26287.6
 14 06 2013  12 33  -21.0458 26059.4 -03457.1 -07.5570 26287.7
 14 06 2013  12 34  -21.0461 26059.5 -03457.1 -07.5568 26287.8
 14 06 2013  12 35  -21.0464 26059.6 -03457.0 -07.5566 26287.9
 14 06 2013  12 36  -21.0467 26059.8 -03457.0 -07.5565 26288.1
 14 06 2013  12 37  -21.0470 26060.1 -03457.0 -07.5564 26288.4
 14 06 2013  12 38  -21.0473 26060.2 -03456.9 -07.5562 26288.5
 14 06 2013  12 39  -21.0476 26060.4 -03456.8 -07.5558 26288.6
 14 06 2013  12 40  -21.0480 26060.6 -03456.6 -07.5555 26288.8
 14 06 2013  12 41  -21.0479 26060.7 -03456.5 -07.5552 26288.9
 14 06 2013  12 42  -21.0481 26060.8 -03456.3 -07.5548 26289.0
 14 06 2013  12 43  -21.0481 26061.0 -03456.3 -07.5546 26289.2
 14 06 2013  12 44  -21.0482 26061.2 -03456.1 -07.5543 26289.3
 14 06 2013  12 45  -21.0483 26061.3 -03456.1 -07.5541 26289.5
 14 06 2013  12 46  -21.0484 26061.4 -03456.0 -07.5539 26289.6
 14 06 2013  12 47  -21.0486 26061.5 -03455.9 -07.5536 26289.6
 14 06 2013  12 48  -21.0486 26061.7 -03455.8 -07.5533 26289.8
 14 06 2013  12 49  -21.0486 26062.0 -03455.7 -07.5531 26290.1
 14 06 2013  12 50  -21.0486 26062.2 -03455.6 -07.5529 26290.3
 14 06 2013  12 51  -21.0486 26062.4 -03455.5 -07.5526 26290.5
 14 06 2013  12 52  -21.0487 26062.5 -03455.4 -07.5523 26290.6
 14 06 2013  12 53  -21.0489 26062.5 -03455.2 -07.5518 26290.6
 14 06 2013  12 54  -21.0489 26062.5 -03455.0 -07.5514 26290.5
 14 06 2013  12 55  -21.0490 26062.6 -03454.8 -07.5510 26290.6
 14 06 2013  12 56  -21.0489 26062.6 -03454.6 -07.5506 26290.6
 14 06 2013  12 57  -21.0489 26062.7 -03454.5 -07.5503 26290.6
 14 06 2013  12 58  -21.0487 26062.8 -03454.4 -07.5500 26290.7
 14 06 2013  12 59  -21.0485 26063.0 -03454.4 -07.5499 26290.9
 14 06 2013  13 00  -21.0485 26063.2 -03454.3 -07.5497 26291.1
 14 06 2013  13 01  -21.0483 26063.6 -03454.4 -07.5498 26291.5
 14 06 2013  13 02  -21.0480 26064.1 -03454.4 -07.5497 26292.0
 14 06 2013  13 03  -21.0478 26064.4 -03454.4 -07.5495 26292.3
 14 06 2013  13 04  -21.0475 26064.6 -03454.3 -07.5494 26292.5
 14 06 2013  13 05  -21.0475 26064.8 -03454.2 -07.5491 26292.7
 14 06 2013  13 06  -21.0474 26064.9 -03454.1 -07.5488 26292.8
 14 06 2013  13 07  -21.0473 26064.9 -03453.9 -07.5484 26292.8
 14 06 2013  13 08  -21.0473 26065.0 -03453.8 -07.5481 26292.9
 14 06 2013  13 09  -21.0473 26065.1 -03453.6 -07.5477 26292.9
 14 06 2013  13 10  -21.0473 26065.1 -03453.4 -07.5473 26292.8
 14 06 2013  13 11  -21.0473 26065.0 -03453.2 -07.5468 26292.8
 14 06 2013  13 12  -21.0474 26065.0 -03453.0 -07.5464 26292.7
 14 06 2013  13 13  -21.0475 26064.9 -03452.8 -07.5460 26292.6
 14 06 2013  13 14  -21.0474 26064.8 -03452.6 -07.5455 26292.5
 14 06 2013  13 15  -21.0474 26064.7 -03452.4 -07.5451 26292.4
 14 06 2013  13 16  -21.0475 26064.7 -03452.2 -07.5447 26292.3
 14 06 2013  13 17  -21.0475 26064.7 -03452.0 -07.5443 26292.3
 14 06 2013  13 18  -21.0474 26064.7 -03451.8 -07.5438 26292.3
 14 06 2013  13 19  -21.0472 26064.7 -03451.6 -07.5434 26292.3
 14 06 2013  13 20  -21.0471 26064.8 -03451.4 -07.5430 26292.3
 14 06 2013  13 21  -21.0469 26064.8 -03451.2 -07.5426 26292.3
 14 06 2013  13 22  -21.0467 26064.8 -03451.0 -07.5422 26292.3
 14 06 2013  13 23  -21.0464 26064.9 -03450.9 -07.5419 26292.4
 14 06 2013  13 24  -21.0462 26065.0 -03450.8 -07.5416 26292.4
 14 06 2013  13 25  -21.0460 26065.1 -03450.7 -07.5413 26292.5
 14 06 2013  13 26  -21.0458 26065.2 -03450.6 -07.5411 26292.7
 14 06 2013  13 27  -21.0454 26065.3 -03450.4 -07.5407 26292.7
 14 06 2013  13 28  -21.0452 26065.3 -03450.3 -07.5404 26292.7
 14 06 2013  13 29  -21.0449 26065.4 -03450.1 -07.5400 26292.7
 14 06 2013  13 30  -21.0446 26065.5 -03450.0 -07.5397 26292.8
 14 06 2013  13 31  -21.0444 26065.6 -03449.9 -07.5395 26292.9
 14 06 2013  13 32  -21.0442 26065.8 -03449.8 -07.5393 26293.2
 14 06 2013  13 33  -21.0435 26066.2 -03449.9 -07.5394 26293.5
 14 06 2013  13 34  -21.0434 26066.9 -03450.2 -07.5397 26294.2
 14 06 2013  13 35  -21.0434 26067.5 -03450.3 -07.5397 26294.9
 14 06 2013  13 36  -21.0433 26067.7 -03450.1 -07.5394 26295.0
 14 06 2013  13 37  -21.0430 26067.7 -03449.9 -07.5389 26295.0
 14 06 2013  13 38  -21.0425 26067.8 -03449.8 -07.5386 26295.1
 14 06 2013  13 39  -21.0421 26068.0 -03449.7 -07.5385 26295.3
 14 06 2013  13 40  -21.0421 26068.2 -03449.7 -07.5384 26295.5
 14 06 2013  13 41  -21.0419 26068.4 -03449.7 -07.5383 26295.6
 14 06 2013  13 42  -21.0421 26068.4 -03449.6 -07.5381 26295.6
 14 06 2013  13 43  -21.0423 26068.2 -03449.4 -07.5378 26295.5
 14 06 2013  13 44  -21.0425 26068.1 -03449.3 -07.5374 26295.3
 14 06 2013  13 45  -21.0425 26068.0 -03449.1 -07.5372 26295.2
 14 06 2013  13 46  -21.0426 26068.0 -03449.1 -07.5371 26295.2
 14 06 2013  13 47  -21.0429 26067.9 -03449.0 -07.5369 26295.1
 14 06 2013  13 48  -21.0430 26067.8 -03448.9 -07.5366 26294.9
 14 06 2013  13 49  -21.0433 26067.5 -03448.7 -07.5363 26294.6
 14 06 2013  13 50  -21.0435 26067.2 -03448.5 -07.5360 26294.3
 14 06 2013  13 51  -21.0435 26066.8 -03448.3 -07.5357 26293.9
 14 06 2013  13 52  -21.0435 26066.6 -03448.2 -07.5356 26293.7
 14 06 2013  13 53  -21.0436 26066.5 -03448.2 -07.5357 26293.5
 14 06 2013  13 54  -21.0437 26066.3 -03448.2 -07.5356 26293.4
 14 06 2013  13 55  -21.0437 26066.2 -03448.1 -07.5355 26293.3
 14 06 2013  13 56  -21.0438 26066.1 -03448.1 -07.5355 26293.2
 14 06 2013  13 57  -21.0437 26066.0 -03448.1 -07.5355 26293.1
 14 06 2013  13 58  -21.0436 26066.1 -03448.1 -07.5356 26293.1
 14 06 2013  13 59  -21.0435 26066.2 -03448.2 -07.5357 26293.3
 14 06 2013  14 00  -21.0435 26066.3 -03448.3 -07.5359 26293.4
 14 06 2013  14 01  -21.0435 26066.4 -03448.3 -07.5359 26293.5
 14 06 2013  14 02  -21.0435 26066.5 -03448.4 -07.5360 26293.6
 14 06 2013  14 03  -21.0435 26066.5 -03448.3 -07.5359 26293.6
 14 06 2013  14 04  -21.0436 26066.5 -03448.3 -07.5359 26293.6
 14 06 2013  14 05  -21.0436 26066.5 -03448.3 -07.5358 26293.6
 14 06 2013  14 06  -21.0436 26066.4 -03448.3 -07.5357 26293.5
 14 06 2013  14 07  -21.0436 26066.3 -03448.2 -07.5357 26293.4
 14 06 2013  14 08  -21.0436 26066.2 -03448.2 -07.5356 26293.3
 14 06 2013  14 09  -21.0435 26066.1 -03448.1 -07.5356 26293.2
 14 06 2013  14 10  -21.0435 26066.1 -03448.1 -07.5356 26293.2
 14 06 2013  14 11  -21.0436 26066.1 -03448.1 -07.5355 26293.2
 14 06 2013  14 12  -21.0436 26066.1 -03448.1 -07.5356 26293.2
 14 06 2013  14 13  -21.0436 26066.0 -03448.1 -07.5355 26293.1
 14 06 2013  14 14  -21.0437 26065.9 -03448.0 -07.5353 26292.9
 14 06 2013  14 15  -21.0436 26065.8 -03448.0 -07.5353 26292.9
 14 06 2013  14 16  -21.0436 26065.7 -03447.9 -07.5352 26292.8
 14 06 2013  14 17  -21.0436 26065.7 -03447.9 -07.5351 26292.8
 14 06 2013  14 18  -21.0438 26065.6 -03447.8 -07.5350 26292.7
 14 06 2013  14 19  -21.0439 26065.5 -03447.7 -07.5348 26292.5
 14 06 2013  14 20  -21.0440 26065.3 -03447.6 -07.5346 26292.3
 14 06 2013  14 21  -21.0442 26065.2 -03447.5 -07.5344 26292.2
 14 06 2013  14 22  -21.0443 26065.1 -03447.4 -07.5342 26292.1
 14 06 2013  14 23  -21.0444 26065.0 -03447.3 -07.5341 26292.0
 14 06 2013  14 24  -21.0445 26065.0 -03447.3 -07.5340 26292.0
 14 06 2013  14 25  -21.0445 26065.0 -03447.2 -07.5338 26291.9
 14 06 2013  14 26  -21.0446 26064.9 -03447.1 -07.5336 26291.9
 14 06 2013  14 27  -21.0446 26064.9 -03447.0 -07.5335 26291.9
 14 06 2013  14 28  -21.0448 26064.9 -03446.9 -07.5333 26291.9
 14 06 2013  14 29  -21.0448 26064.9 -03446.8 -07.5331 26291.8
 14 06 2013  14 30  -21.0447 26064.9 -03446.8 -07.5330 26291.8
 14 06 2013  14 31  -21.0448 26064.9 -03446.7 -07.5328 26291.8
 14 06 2013  14 32  -21.0445 26064.8 -03446.6 -07.5326 26291.7
 14 06 2013  14 33  -21.0444 26064.8 -03446.6 -07.5325 26291.7
 14 06 2013  14 34  -21.0443 26064.8 -03446.5 -07.5325 26291.7
 14 06 2013  14 35  -21.0442 26064.9 -03446.5 -07.5324 26291.7
 14 06 2013  14 36  -21.0441 26064.9 -03446.5 -07.5323 26291.8
 14 06 2013  14 37  -21.0439 26065.0 -03446.5 -07.5324 26291.9
 14 06 2013  14 38  -21.0439 26065.1 -03446.5 -07.5324 26292.0
 14 06 2013  14 39  -21.0439 26065.2 -03446.6 -07.5324 26292.1
 14 06 2013  14 40  -21.0439 26065.3 -03446.5 -07.5323 26292.2
 14 06 2013  14 41  -21.0440 26065.4 -03446.5 -07.5323 26292.3
 14 06 2013  14 42  -21.0441 26065.4 -03446.5 -07.5323 26292.3
 14 06 2013  14 43  -21.0442 26065.5 -03446.5 -07.5322 26292.3
 14 06 2013  14 44  -21.0443 26065.4 -03446.4 -07.5320 26292.3
 14 06 2013  14 45  -21.0444 26065.3 -03446.3 -07.5319 26292.2
 14 06 2013  14 46  -21.0445 26065.3 -03446.3 -07.5318 26292.1
 14 06 2013  14 47  -21.0447 26065.2 -03446.2 -07.5317 26292.0
 14 06 2013  14 48  -21.0450 26065.2 -03446.2 -07.5316 26292.0
 14 06 2013  14 49  -21.0453 26065.1 -03446.1 -07.5314 26291.9
 14 06 2013  14 50  -21.0457 26064.9 -03445.9 -07.5311 26291.7
 14 06 2013  14 51  -21.0461 26064.6 -03445.7 -07.5308 26291.3
 14 06 2013  14 52  -21.0465 26064.2 -03445.5 -07.5303 26291.0
 14 06 2013  14 53  -21.0468 26064.2 -03445.4 -07.5301 26290.9
 14 06 2013  14 54  -21.0468 26064.2 -03445.3 -07.5300 26291.0
 14 06 2013  14 55  -21.0466 26064.3 -03445.3 -07.5300 26291.0
 14 06 2013  14 56  -21.0467 26064.2 -03445.3 -07.5300 26291.0
 14 06 2013  14 57  -21.0469 26064.2 -03445.3 -07.5299 26291.0
 14 06 2013  14 58  -21.0473 26064.3 -03445.3 -07.5298 26291.1
 14 06 2013  14 59  -21.0475 26064.4 -03445.2 -07.5296 26291.1
 14 06 2013  15 00  -21.0478 26064.4 -03445.0 -07.5293 26291.1
 14 06 2013  15 01  -21.0479 26064.5 -03444.9 -07.5291 26291.1
 14 06 2013  15 02  -21.0480 26064.4 -03444.7 -07.5287 26291.0
 14 06 2013  15 03  -21.0480 26064.3 -03444.6 -07.5284 26290.9
 14 06 2013  15 04  -21.0482 26064.2 -03444.4 -07.5281 26290.8
 14 06 2013  15 05  -21.0483 26064.0 -03444.3 -07.5278 26290.6
 14 06 2013  15 06  -21.0484 26063.9 -03444.2 -07.5276 26290.5
 14 06 2013  15 07  -21.0486 26063.9 -03444.0 -07.5274 26290.4
 14 06 2013  15 08  -21.0488 26063.7 -03443.9 -07.5270 26290.3
 14 06 2013  15 09  -21.0491 26063.5 -03443.6 -07.5266 26290.0
 14 06 2013  15 10  -21.0492 26063.4 -03443.4 -07.5262 26289.8
 14 06 2013  15 11  -21.0493 26063.3 -03443.3 -07.5259 26289.7
 14 06 2013  15 12  -21.0494 26063.1 -03443.1 -07.5256 26289.6
 14 06 2013  15 13  -21.0496 26063.1 -03443.0 -07.5253 26289.5
 14 06 2013  15 14  -21.0498 26063.0 -03442.8 -07.5250 26289.4
 14 06 2013  15 15  -21.0500 26062.9 -03442.7 -07.5248 26289.3
 14 06 2013  15 16  -21.0500 26062.8 -03442.5 -07.5244 26289.1
 14 06 2013  15 17  -21.0501 26062.7 -03442.4 -07.5242 26289.0
 14 06 2013  15 18  -21.0502 26062.6 -03442.3 -07.5240 26289.0
 14 06 2013  15 19  -21.0502 26062.5 -03442.2 -07.5238 26288.8
 14 06 2013  15 20  -21.0503 26062.4 -03442.1 -07.5235 26288.7
 14 06 2013  15 21  -21.0504 26062.4 -03442.0 -07.5234 26288.7
 14 06 2013  15 22  -21.0504 26062.3 -03441.9 -07.5232 26288.6
 14 06 2013  15 23  -21.0505 26062.3 -03441.8 -07.5229 26288.5
 14 06 2013  15 24  -21.0505 26062.1 -03441.6 -07.5226 26288.4
 14 06 2013  15 25  -21.0505 26062.0 -03441.5 -07.5223 26288.2
 14 06 2013  15 26  -21.0505 26061.9 -03441.3 -07.5221 26288.1
 14 06 2013  15 27  -21.0505 26061.8 -03441.2 -07.5218 26288.1
 14 06 2013  15 28  -21.0506 26061.8 -03441.1 -07.5216 26288.0
 14 06 2013  15 29  -21.0507 26061.8 -03441.0 -07.5214 26288.0
 14 06 2013  15 30  -21.0506 26061.8 -03440.9 -07.5211 26288.0
 14 06 2013  15 31  -21.0506 26061.7 -03440.7 -07.5208 26287.9
 14 06 2013  15 32  -21.0505 26061.7 -03440.6 -07.5205 26287.8
 14 06 2013  15 33  -21.0505 26061.6 -03440.5 -07.5202 26287.7
 14 06 2013  15 34  -21.0503 26061.5 -03440.3 -07.5199 26287.6
 14 06 2013  15 35  -21.0503 26061.5 -03440.2 -07.5197 26287.6
 14 06 2013  15 36  -21.0503 26061.5 -03440.1 -07.5194 26287.5
 14 06 2013  15 37  -21.0503 26061.5 -03440.0 -07.5192 26287.5
 14 06 2013  15 38  -21.0502 26061.5 -03439.8 -07.5189 26287.5
 14 06 2013  15 39  -21.0500 26061.4 -03439.7 -07.5186 26287.4
 14 06 2013  15 40  -21.0497 26061.2 -03439.5 -07.5184 26287.2
 14 06 2013  15 41  -21.0495 26061.2 -03439.4 -07.5181 26287.2
 14 06 2013  15 42  -21.0494 26061.1 -03439.2 -07.5178 26287.1
 14 06 2013  15 43  -21.0491 26060.9 -03439.1 -07.5175 26286.9
 14 06 2013  15 44  -21.0490 26060.7 -03438.9 -07.5172 26286.6
 14 06 2013  15 45  -21.0488 26060.6 -03438.8 -07.5169 26286.5
 14 06 2013  15 46  -21.0485 26060.6 -03438.7 -07.5168 26286.5
 14 06 2013  15 47  -21.0484 26060.5 -03438.6 -07.5166 26286.4
 14 06 2013  15 48  -21.0483 26060.5 -03438.6 -07.5165 26286.4
 14 06 2013  15 49  -21.0480 26060.6 -03438.5 -07.5164 26286.5
 14 06 2013  15 50  -21.0478 26060.7 -03438.5 -07.5163 26286.5
 14 06 2013  15 51  -21.0476 26060.7 -03438.5 -07.5162 26286.5
 14 06 2013  15 52  -21.0473 26060.5 -03438.4 -07.5161 26286.3
 14 06 2013  15 53  -21.0471 26060.4 -03438.3 -07.5160 26286.2
 14 06 2013  15 54  -21.0467 26060.3 -03438.3 -07.5159 26286.1
 14 06 2013  15 55  -21.0466 26060.2 -03438.3 -07.5160 26286.0
 14 06 2013  15 56  -21.0464 26060.0 -03438.3 -07.5160 26285.9
 14 06 2013  15 57  -21.0464 26059.8 -03438.2 -07.5158 26285.6
 14 06 2013  15 58  -21.0461 26059.6 -03438.1 -07.5158 26285.4
 14 06 2013  15 59  -21.0460 26059.6 -03438.2 -07.5159 26285.4
 14 06 2013  16 00  -21.0459 26059.4 -03438.1 -07.5159 26285.3
 14 06 2013  16 01  -21.0457 26059.2 -03438.1 -07.5158 26285.0
 14 06 2013  16 02  -21.0455 26059.0 -03438.0 -07.5157 26284.8
 14 06 2013  16 03  -21.0453 26058.9 -03438.0 -07.5156 26284.7
 14 06 2013  16 04  -21.0449 26058.7 -03438.0 -07.5157 26284.5
 14 06 2013  16 05  -21.0445 26058.7 -03438.0 -07.5158 26284.5
 14 06 2013  16 06  -21.0442 26058.7 -03438.1 -07.5159 26284.5
 14 06 2013  16 07  -21.0439 26058.7 -03438.1 -07.5160 26284.5
 14 06 2013  16 08  -21.0436 26058.7 -03438.1 -07.5160 26284.5
 14 06 2013  16 09  -21.0431 26058.7 -03438.1 -07.5160 26284.5
 14 06 2013  16 10  -21.0427 26058.7 -03438.1 -07.5160 26284.5
 14 06 2013  16 11  -21.0421 26058.6 -03438.0 -07.5158 26284.5
 14 06 2013  16 12  -21.0416 26058.5 -03438.0 -07.5158 26284.3
 14 06 2013  16 13  -21.0409 26058.3 -03437.9 -07.5156 26284.1
 14 06 2013  16 14  -21.0403 26058.1 -03437.8 -07.5156 26283.9
 14 06 2013  16 15  -21.0396 26058.0 -03437.8 -07.5155 26283.8
 14 06 2013  16 16  -21.0389 26057.8 -03437.7 -07.5155 26283.6
 14 06 2013  16 17  -21.0383 26057.6 -03437.7 -07.5155 26283.4
 14 06 2013  16 18  -21.0375 26057.5 -03437.7 -07.5155 26283.2
 14 06 2013  16 19  -21.0367 26057.4 -03437.8 -07.5156 26283.1
 14 06 2013  16 20  -21.0361 26057.2 -03437.8 -07.5157 26283.0
 14 06 2013  16 21  -21.0355 26057.1 -03437.8 -07.5159 26282.9
 14 06 2013  16 22  -21.0348 26057.0 -03437.9 -07.5161 26282.8
 14 06 2013  16 23  -21.0344 26057.0 -03438.0 -07.5163 26282.8
 14 06 2013  16 24  -21.0339 26057.0 -03438.2 -07.5166 26282.9
 14 06 2013  16 25  -21.0334 26056.9 -03438.3 -07.5169 26282.8
 14 06 2013  16 26  -21.0331 26056.8 -03438.3 -07.5171 26282.7
 14 06 2013  16 27  -21.0327 26056.6 -03438.4 -07.5173 26282.5
 14 06 2013  16 28  -21.0325 26056.4 -03438.5 -07.5175 26282.3
 14 06 2013  16 29  -21.0323 26056.3 -03438.6 -07.5177 26282.2
 14 06 2013  16 30  -21.0320 26056.1 -03438.7 -07.5179 26282.0
 14 06 2013  16 31  -21.0318 26055.9 -03438.7 -07.5181 26281.8
 14 06 2013  16 32  -21.0314 26055.6 -03438.7 -07.5183 26281.5
 14 06 2013  16 33  -21.0313 26055.4 -03438.9 -07.5186 26281.4
 14 06 2013  16 34  -21.0311 26055.3 -03439.0 -07.5188 26281.3
 14 06 2013  16 35  -21.0310 26055.3 -03439.1 -07.5191 26281.3
 14 06 2013  16 36  -21.0308 26055.3 -03439.2 -07.5194 26281.3
 14 06 2013  16 37  -21.0305 26055.3 -03439.3 -07.5196 26281.4
 14 06 2013  16 38  -21.0303 26055.3 -03439.5 -07.5199 26281.4
 14 06 2013  16 39  -21.0302 26055.3 -03439.6 -07.5202 26281.4
 14 06 2013  16 40  -21.0300 26055.3 -03439.7 -07.5204 26281.4
 14 06 2013  16 41  -21.0299 26055.3 -03439.8 -07.5206 26281.3
 14 06 2013  16 42  -21.0298 26055.3 -03439.8 -07.5207 26281.3
 14 06 2013  16 43  -21.0296 26055.2 -03439.9 -07.5208 26281.2
 14 06 2013  16 44  -21.0295 26055.1 -03439.9 -07.5209 26281.1
 14 06 2013  16 45  -21.0292 26055.0 -03439.9 -07.5210 26281.1
 14 06 2013  16 46  -21.0290 26054.9 -03440.0 -07.5212 26281.0
 14 06 2013  16 47  -21.0287 26054.7 -03440.0 -07.5212 26280.8
 14 06 2013  16 48  -21.0283 26054.6 -03440.1 -07.5214 26280.8
 14 06 2013  16 49  -21.0281 26054.6 -03440.1 -07.5216 26280.8
 14 06 2013  16 50  -21.0277 26054.6 -03440.2 -07.5218 26280.7
 14 06 2013  16 51  -21.0275 26054.6 -03440.3 -07.5219 26280.7
 14 06 2013  16 52  -21.0273 26054.5 -03440.4 -07.5221 26280.7
 14 06 2013  16 53  -21.0271 26054.4 -03440.4 -07.5223 26280.6
 14 06 2013  16 54  -21.0269 26054.3 -03440.5 -07.5225 26280.5
 14 06 2013  16 55  -21.0267 26054.3 -03440.6 -07.5226 26280.5
 14 06 2013  16 56  -21.0264 26054.2 -03440.6 -07.5227 26280.4
 14 06 2013  16 57  -21.0262 26054.1 -03440.7 -07.5229 26280.3
 14 06 2013  16 58  -21.0259 26053.9 -03440.7 -07.5230 26280.1
 14 06 2013  16 59  -21.0256 26053.7 -03440.7 -07.5231 26279.9
 14 06 2013  17 00  -21.0253 26053.7 -03440.8 -07.5233 26279.9
 14 06 2013  17 01  -21.0252 26053.6 -03440.9 -07.5235 26279.8
 14 06 2013  17 02  -21.0249 26053.5 -03441.0 -07.5237 26279.8
 14 06 2013  17 03  -21.0244 26053.5 -03441.1 -07.5239 26279.7
 14 06 2013  17 04  -21.0243 26053.5 -03441.2 -07.5242 26279.8
 14 06 2013  17 05  -21.0242 26053.5 -03441.3 -07.5245 26279.8
 14 06 2013  17 06  -21.0240 26053.5 -03441.4 -07.5247 26279.8
 14 06 2013  17 07  -21.0238 26053.5 -03441.5 -07.5248 26279.8
 14 06 2013  17 08  -21.0237 26053.6 -03441.7 -07.5251 26279.9
 14 06 2013  17 09  -21.0240 26053.6 -03441.7 -07.5253 26279.9
 14 06 2013  17 10  -21.0237 26053.3 -03441.7 -07.5253 26279.6
 14 06 2013  17 11  -21.0238 26053.1 -03441.7 -07.5254 26279.4
 14 06 2013  17 12  -21.0236 26052.7 -03441.7 -07.5254 26279.0
 14 06 2013  17 13  -21.0234 26052.5 -03441.8 -07.5257 26278.9
 14 06 2013  17 14  -21.0235 26052.5 -03441.9 -07.5260 26278.9
 14 06 2013  17 15  -21.0235 26052.5 -03442.1 -07.5264 26278.9
 14 06 2013  17 16  -21.0236 26052.3 -03442.1 -07.5265 26278.7
 14 06 2013  17 17  -21.0236 26052.1 -03442.1 -07.5265 26278.5
 14 06 2013  17 18  -21.0238 26051.8 -03442.1 -07.5265 26278.2
 14 06 2013  17 19  -21.0237 26051.6 -03442.1 -07.5266 26278.0
 14 06 2013  17 20  -21.0236 26051.7 -03442.2 -07.5269 26278.2
 14 06 2013  17 21  -21.0238 26051.8 -03442.3 -07.5271 26278.3
 14 06 2013  17 22  -21.0238 26051.8 -03442.3 -07.5271 26278.2
 14 06 2013  17 23  -21.0237 26051.8 -03442.3 -07.5270 26278.2
 14 06 2013  17 24  -21.0236 26051.9 -03442.3 -07.5271 26278.3
 14 06 2013  17 25  -21.0236 26052.2 -03442.5 -07.5273 26278.7
 14 06 2013  17 26  -21.0238 26052.5 -03442.6 -07.5274 26278.9
 14 06 2013  17 27  -21.0239 26052.4 -03442.4 -07.5271 26278.8
 14 06 2013  17 28  -21.0238 26052.0 -03442.2 -07.5267 26278.4
 14 06 2013  17 29  -21.0235 26051.7 -03442.0 -07.5265 26278.1
 14 06 2013  17 30  -21.0233 26051.4 -03442.0 -07.5264 26277.8
 14 06 2013  17 31  -21.0233 26051.3 -03442.0 -07.5265 26277.7
 14 06 2013  17 32  -21.0231 26050.9 -03441.8 -07.5263 26277.3
 14 06 2013  17 33  -21.0226 26050.4 -03441.7 -07.5262 26276.8
 14 06 2013  17 34  -21.0223 26049.9 -03441.6 -07.5261 26276.3
 14 06 2013  17 35  -21.0222 26049.6 -03441.6 -07.5261 26276.0
 14 06 2013  17 36  -21.0223 26049.3 -03441.6 -07.5261 26275.7
 14 06 2013  17 37  -21.0220 26048.8 -03441.4 -07.5260 26275.2
 14 06 2013  17 38  -21.0216 26048.5 -03441.5 -07.5262 26274.8
 14 06 2013  17 39  -21.0215 26048.3 -03441.6 -07.5265 26274.7
 14 06 2013  17 40  -21.0215 26048.4 -03441.8 -07.5269 26274.8
 14 06 2013  17 41  -21.0215 26048.5 -03442.0 -07.5273 26274.9
 14 06 2013  17 42  -21.0214 26048.6 -03442.1 -07.5274 26275.0
 14 06 2013  17 43  -21.0211 26048.6 -03442.1 -07.5276 26275.1
 14 06 2013  17 44  -21.0208 26048.8 -03442.3 -07.5279 26275.3
 14 06 2013  17 45  -21.0206 26049.1 -03442.5 -07.5282 26275.5
 14 06 2013  17 46  -21.0204 26049.3 -03442.6 -07.5284 26275.8
 14 06 2013  17 47  -21.0201 26049.4 -03442.7 -07.5286 26275.9
 14 06 2013  17 48  -21.0198 26049.5 -03442.7 -07.5285 26276.0
 14 06 2013  17 49  -21.0196 26049.4 -03442.7 -07.5285 26275.9
 14 06 2013  17 50  -21.0192 26049.1 -03442.6 -07.5284 26275.6
 14 06 2013  17 51  -21.0188 26048.9 -03442.6 -07.5284 26275.4
 14 06 2013  17 52  -21.0183 26048.7 -03442.5 -07.5284 26275.2
 14 06 2013  17 53  -21.0181 26048.5 -03442.6 -07.5286 26275.0
 14 06 2013  17 54  -21.0175 26048.2 -03442.6 -07.5287 26274.7
 14 06 2013  17 55  -21.0171 26048.2 -03442.8 -07.5291 26274.7
 14 06 2013  17 56  -21.0171 26048.2 -03442.9 -07.5294 26274.8
 14 06 2013  17 57  -21.0169 26048.3 -03443.1 -07.5297 26274.8
 14 06 2013  17 58  -21.0167 26048.2 -03443.1 -07.5298 26274.8
 14 06 2013  17 59  -21.0162 26048.0 -03443.1 -07.5298 26274.6
 14 06 2013  18 00  -21.0159 26047.7 -03443.1 -07.5299 26274.2
 14 06 2013  18 01  -21.0157 26047.4 -03443.2 -07.5301 26274.0
 14 06 2013  18 02  -21.0156 26047.3 -03443.2 -07.5303 26273.9
 14 06 2013  18 03  -21.0154 26047.1 -03443.4 -07.5307 26273.7
 14 06 2013  18 04  -21.0153 26047.1 -03443.5 -07.5310 26273.7
 14 06 2013  18 05  -21.0155 26047.1 -03443.6 -07.5313 26273.7
 14 06 2013  18 06  -21.0156 26047.1 -03443.7 -07.5315 26273.7
 14 06 2013  18 07  -21.0157 26047.1 -03443.8 -07.5317 26273.8
 14 06 2013  18 08  -21.0159 26047.1 -03443.9 -07.5319 26273.7
 14 06 2013  18 09  -21.0159 26046.9 -03443.9 -07.5319 26273.6
 14 06 2013  18 10  -21.0161 26046.9 -03444.0 -07.5321 26273.6
 14 06 2013  18 11  -21.0163 26046.8 -03444.0 -07.5322 26273.6
 14 06 2013  18 12  -21.0165 26046.8 -03444.0 -07.5322 26273.5
 14 06 2013  18 13  -21.0167 26046.8 -03444.1 -07.5324 26273.5
 14 06 2013  18 14  -21.0169 26046.8 -03444.1 -07.5325 26273.5
 14 06 2013  18 15  -21.0172 26046.9 -03444.2 -07.5326 26273.6
 14 06 2013  18 16  -21.0175 26047.0 -03444.2 -07.5326 26273.7
 14 06 2013  18 17  -21.0176 26047.0 -03444.2 -07.5326 26273.7
 14 06 2013  18 18  -21.0180 26046.9 -03444.2 -07.5325 26273.6
 14 06 2013  18 19  -21.0183 26046.9 -03444.2 -07.5325 26273.6
 14 06 2013  18 20  -21.0187 26046.8 -03444.1 -07.5324 26273.5
 14 06 2013  18 21  -21.0191 26046.6 -03444.0 -07.5322 26273.3
 14 06 2013  18 22  -21.0195 26046.5 -03443.9 -07.5320 26273.2
 14 06 2013  18 23  -21.0199 26046.3 -03443.8 -07.5318 26272.9
 14 06 2013  18 24  -21.0200 26046.0 -03443.6 -07.5315 26272.6
 14 06 2013  18 25  -21.0202 26045.8 -03443.5 -07.5313 26272.4
 14 06 2013  18 26  -21.0205 26045.5 -03443.4 -07.5311 26272.2
 14 06 2013  18 27  -21.0208 26045.5 -03443.3 -07.5310 26272.1
 14 06 2013  18 28  -21.0212 26045.6 -03443.3 -07.5310 26272.2
 14 06 2013  18 29  -21.0216 26045.4 -03443.2 -07.5307 26272.0
 14 06 2013  18 30  -21.0218 26045.3 -03443.1 -07.5306 26271.9
 14 06 2013  18 31  -21.0222 26045.4 -03443.1 -07.5306 26272.0
 14 06 2013  18 32  -21.0227 26045.3 -03443.0 -07.5304 26271.9
 14 06 2013  18 33  -21.0230 26045.2 -03442.9 -07.5303 26271.8
 14 06 2013  18 34  -21.0234 26045.1 -03442.9 -07.5302 26271.7
 14 06 2013  18 35  -21.0237 26045.1 -03442.8 -07.5301 26271.6
 14 06 2013  18 36  -21.0241 26045.1 -03442.9 -07.5302 26271.7
 14 06 2013  18 37  -21.0246 26045.2 -03442.9 -07.5301 26271.8
 14 06 2013  18 38  -21.0251 26045.1 -03442.8 -07.5299 26271.7
 14 06 2013  18 39  -21.0255 26044.9 -03442.6 -07.5296 26271.4
 14 06 2013  18 40  -21.0258 26044.7 -03442.5 -07.5295 26271.2
 14 06 2013  18 41  -21.0262 26044.7 -03442.5 -07.5296 26271.2
 14 06 2013  18 42  -21.0266 26044.8 -03442.5 -07.5295 26271.3
 14 06 2013  18 43  -21.0269 26044.8 -03442.4 -07.5293 26271.3
 14 06 2013  18 44  -21.0272 26044.3 -03442.2 -07.5290 26270.8
 14 06 2013  18 45  -21.0275 26044.3 -03442.1 -07.5288 26270.7
 14 06 2013  18 46  -21.0279 26044.4 -03442.1 -07.5288 26270.9
 14 06 2013  18 47  -21.0280 26044.1 -03442.0 -07.5286 26270.5
 14 06 2013  18 48  -21.0281 26043.9 -03441.9 -07.5285 26270.4
 14 06 2013  18 49  -21.0283 26044.1 -03442.0 -07.5285 26270.5
 14 06 2013  18 50  -21.0284 26044.0 -03441.9 -07.5285 26270.5
 14 06 2013  18 51  -21.0285 26043.9 -03441.9 -07.5283 26270.4
 14 06 2013  18 52  -21.0286 26043.8 -03441.8 -07.5283 26270.3
 14 06 2013  18 53  -21.0285 26043.5 -03441.7 -07.5280 26270.0
 14 06 2013  18 54  -21.0286 26043.9 -03441.8 -07.5282 26270.3
 14 06 2013  18 55  -21.0287 26043.6 -03441.7 -07.5280 26270.0
 14 06 2013  18 56  -21.0285 26042.9 -03441.3 -07.5275 26269.3
 14 06 2013  18 57  -21.0285 26043.0 -03441.4 -07.5276 26269.4
 14 06 2013  18 58  -21.0285 26043.3 -03441.5 -07.5278 26269.7
 14 06 2013  18 59  -21.0284 26042.5 -03441.2 -07.5274 26268.9
 14 06 2013  19 00  -21.0281 26042.2 -03441.1 -07.5271 26268.5
 14 06 2013  19 01  -21.0284 26042.3 -03441.2 -07.5273 26268.6
 14 06 2013  19 02  -21.0284 26041.9 -03441.0 -07.5271 26268.2
 14 06 2013  19 03  -21.0281 26041.3 -03440.8 -07.5268 26267.7
 14 06 2013  19 04  -21.0281 26042.1 -03441.2 -07.5274 26268.4
 14 06 2013  19 05  -21.0282 26041.0 -03440.8 -07.5269 26267.3
 14 06 2013  19 06  -21.0277 26039.9 -03440.4 -07.5264 26266.2
 14 06 2013  19 07  -21.0277 26040.9 -03441.0 -07.5273 26267.3
 14 06 2013  19 08  -21.0279 26041.0 -03441.1 -07.5276 26267.4
 14 06 2013  19 09  -21.0276 26040.3 -03440.8 -07.5271 26266.6
 14 06 2013  19 10  -21.0272 26040.0 -03440.7 -07.5270 26266.3
 14 06 2013  19 11  -21.0271 26040.3 -03440.9 -07.5274 26266.6
 14 06 2013  19 12  -21.0267 26039.9 -03440.9 -07.5273 26266.2
 14 06 2013  19 13  -21.0264 26039.7 -03440.8 -07.5273 26266.0
 14 06 2013  19 14  -21.0262 26039.9 -03441.0 -07.5276 26266.2
 14 06 2013  19 15  -21.0260 26039.5 -03440.9 -07.5276 26265.9
 14 06 2013  19 16  -21.0258 26039.4 -03441.0 -07.5277 26265.7
 14 06 2013  19 17  -21.0259 26039.5 -03441.1 -07.5279 26265.9
 14 06 2013  19 18  -21.0295 26038.6 -03440.7 -07.5272 26265.0
 14 06 2013  19 19  -21.0305 26038.7 -03440.7 -07.5274 26265.0
 14 06 2013  19 20  -21.0308 26038.8 -03441.0 -07.5279 26265.2
 14 06 2013  19 21  -21.0316 26038.5 -03440.9 -07.5277 26264.8
 14 06 2013  19 22  -21.0330 26038.7 -03440.9 -07.5278 26265.1
 14 06 2013  19 23  -21.0304 26038.8 -03441.0 -07.5279 26265.2
 14 06 2013  19 24  -21.0267 26038.7 -03441.1 -07.5281 26265.1
 14 06 2013  19 25  -21.0258 26039.0 -03441.3 -07.5285 26265.4
 14 06 2013  19 26  -21.0258 26039.1 -03441.4 -07.5288 26265.6
 14 06 2013  19 27  -21.0257 26038.7 -03441.3 -07.5287 26265.2
 14 06 2013  19 28  -21.0255 26038.6 -03441.3 -07.5287 26265.0
 14 06 2013  19 29  -21.0255 26038.7 -03441.5 -07.5291 26265.1
 14 06 2013  19 30  -21.0255 26038.7 -03441.6 -07.5293 26265.2
 14 06 2013  19 31  -21.0255 26038.9 -03441.8 -07.5296 26265.3
 14 06 2013  19 32  -21.0255 26038.9 -03441.8 -07.5297 26265.4
 14 06 2013  19 33  -21.0257 26038.7 -03441.8 -07.5297 26265.2
 14 06 2013  19 34  -21.0259 26038.5 -03441.8 -07.5298 26265.0
 14 06 2013  19 35  -21.0259 26038.5 -03441.9 -07.5299 26264.9
 14 06 2013  19 36  -21.0260 26038.3 -03441.9 -07.5300 26264.8
 14 06 2013  19 37  -21.0261 26038.0 -03441.9 -07.5302 26264.6
 14 06 2013  19 38  -21.0262 26038.2 -03442.1 -07.5306 26264.7
 14 06 2013  19 39  -21.0264 26038.3 -03442.3 -07.5309 26264.9
 14 06 2013  19 40  -21.0265 26038.0 -03442.2 -07.5308 26264.6
 14 06 2013  19 41  -21.0266 26037.8 -03442.2 -07.5309 26264.3
 14 06 2013  19 42  -21.0265 26037.9 -03442.4 -07.5312 26264.5
 14 06 2013  19 43  -21.0263 26037.9 -03442.5 -07.5315 26264.5
 14 06 2013  19 44  -21.0262 26037.9 -03442.7 -07.5318 26264.5
 14 06 2013  19 45  -21.0260 26038.0 -03442.9 -07.5322 26264.7
 14 06 2013  19 46  -21.0260 26037.9 -03443.0 -07.5325 26264.6
 14 06 2013  19 47  -21.0259 26038.5 -03443.3 -07.5331 26265.2
 14 06 2013  19 48  -21.0260 26038.6 -03443.6 -07.5336 26265.3
 14 06 2013  19 49  -21.0262 26038.3 -03443.6 -07.5337 26265.0
 14 06 2013  19 50  -21.0265 26038.7 -03443.8 -07.5340 26265.5
 14 06 2013  19 51  -21.0268 26038.6 -03443.9 -07.5343 26265.3
 14 06 2013  19 52  -21.0270 26038.9 -03444.1 -07.5347 26265.7
 14 06 2013  19 53  -21.0274 26038.1 -03444.0 -07.5345 26264.9
 14 06 2013  19 54  -21.0277 26038.5 -03444.2 -07.5349 26265.3
 14 06 2013  19 55  -21.0281 26038.6 -03444.3 -07.5351 26265.4
 14 06 2013  19 56  -21.0285 26037.8 -03444.1 -07.5349 26264.6
 14 06 2013  19 57  -21.0288 26038.3 -03444.4 -07.5355 26265.2
 14 06 2013  19 58  -21.0295 26036.7 -03444.1 -07.5351 26263.5
 14 06 2013  19 59  -21.0299 26036.3 -03444.1 -07.5353 26263.1
 14 06 2013  20 00  -21.0307 26037.0 -03444.5 -07.5361 26263.9
 14 06 2013  20 01  -21.0312 26036.2 -03444.4 -07.5361 26263.0
 14 06 2013  20 02  -21.0317 26036.6 -03444.7 -07.5365 26263.4
 14 06 2013  20 03  -21.0323 26036.2 -03444.6 -07.5366 26263.0
 14 06 2013  20 04  -21.0329 26035.7 -03444.5 -07.5365 26262.6
 14 06 2013  20 05  -21.0335 26035.7 -03444.7 -07.5368 26262.6
 14 06 2013  20 06  -21.0341 26035.5 -03444.8 -07.5370 26262.4
 14 06 2013  20 07  -21.0345 26035.1 -03444.8 -07.5371 26262.0
 14 06 2013  20 08  -21.0349 26035.2 -03444.8 -07.5373 26262.1
 14 06 2013  20 09  -21.0352 26035.0 -03444.9 -07.5374 26261.9
 14 06 2013  20 10  -21.0352 26034.9 -03444.9 -07.5375 26261.8
 14 06 2013  20 11  -21.0354 26034.9 -03444.9 -07.5376 26261.8
 14 06 2013  20 12  -21.0356 26034.6 -03445.0 -07.5377 26261.5
 14 06 2013  20 13  -21.0356 26034.5 -03445.0 -07.5378 26261.5
 14 06 2013  20 14  -21.0355 26034.5 -03445.1 -07.5380 26261.5
 14 06 2013  20 15  -21.0355 26034.4 -03445.2 -07.5382 26261.4
 14 06 2013  20 16  -21.0355 26034.2 -03445.2 -07.5384 26261.2
 14 06 2013  20 17  -21.0354 26034.2 -03445.3 -07.5385 26261.2
 14 06 2013  20 18  -21.0353 26034.2 -03445.4 -07.5388 26261.2
 14 06 2013  20 19  -21.0353 26034.0 -03445.4 -07.5389 26261.0
 14 06 2013  20 20  -21.0355 26034.0 -03445.6 -07.5392 26261.0
 14 06 2013  20 21  -21.0355 26033.9 -03445.7 -07.5394 26261.0
 14 06 2013  20 22  -21.0356 26033.7 -03445.7 -07.5395 26260.8
 14 06 2013  20 23  -21.0358 26033.6 -03445.7 -07.5396 26260.7
 14 06 2013  20 24  -21.0359 26033.5 -03445.8 -07.5399 26260.6
 14 06 2013  20 25  -21.0359 26033.6 -03446.0 -07.5402 26260.7
 14 06 2013  20 26  -21.0358 26033.6 -03446.1 -07.5404 26260.6
 14 06 2013  20 27  -21.0359 26033.6 -03446.2 -07.5407 26260.7
 14 06 2013  20 28  -21.0361 26033.5 -03446.3 -07.5409 26260.7
 14 06 2013  20 29  -21.0362 26033.6 -03446.4 -07.5411 26260.7
 14 06 2013  20 30  -21.0364 26033.5 -03446.4 -07.5412 26260.7
 14 06 2013  20 31  -21.0366 26033.6 -03446.6 -07.5414 26260.7
 14 06 2013  20 32  -21.0366 26033.5 -03446.6 -07.5415 26260.7
 14 06 2013  20 33  -21.0366 26033.4 -03446.6 -07.5416 26260.6
 14 06 2013  20 34  -21.0369 26033.3 -03446.6 -07.5416 26260.5
 14 06 2013  20 35  -21.0370 26033.2 -03446.6 -07.5417 26260.3
 14 06 2013  20 36  -21.0371 26033.0 -03446.6 -07.5416 26260.1
 14 06 2013  20 37  -21.0373 26032.6 -03446.5 -07.5415 26259.8
 14 06 2013  20 38  -21.0375 26032.4 -03446.5 -07.5416 26259.5
 14 06 2013  20 39  -21.0377 26032.3 -03446.5 -07.5418 26259.4
 14 06 2013  20 40  -21.0378 26032.4 -03446.7 -07.5421 26259.6
 14 06 2013  20 41  -21.0378 26032.5 -03446.9 -07.5425 26259.7
 14 06 2013  20 42  -21.0378 26032.7 -03447.0 -07.5428 26259.9
 14 06 2013  20 43  -21.0378 26032.9 -03447.2 -07.5430 26260.2
 14 06 2013  20 44  -21.0379 26033.1 -03447.3 -07.5433 26260.3
 14 06 2013  20 45  -21.0380 26033.2 -03447.4 -07.5435 26260.5
 14 06 2013  20 46  -21.0380 26033.5 -03447.6 -07.5437 26260.8
 14 06 2013  20 47  -21.0380 26033.5 -03447.6 -07.5437 26260.8
 14 06 2013  20 48  -21.0380 26033.5 -03447.6 -07.5438 26260.8
 14 06 2013  20 49  -21.0381 26033.5 -03447.7 -07.5439 26260.8
 14 06 2013  20 50  -21.0381 26033.5 -03447.7 -07.5440 26260.8
 14 06 2013  20 51  -21.0379 26033.5 -03447.7 -07.5440 26260.8
 14 06 2013  20 52  -21.0379 26033.4 -03447.8 -07.5441 26260.7
 14 06 2013  20 53  -21.0379 26033.4 -03447.8 -07.5442 26260.7
 14 06 2013  20 54  -21.0380 26033.4 -03447.9 -07.5444 26260.8
 14 06 2013  20 55  -21.0380 26033.6 -03448.0 -07.5445 26260.9
 14 06 2013  20 56  -21.0378 26033.7 -03448.1 -07.5448 26261.1
 14 06 2013  20 57  -21.0376 26033.8 -03448.2 -07.5449 26261.1
 14 06 2013  20 58  -21.0377 26033.8 -03448.2 -07.5450 26261.2
 14 06 2013  20 59  -21.0378 26033.8 -03448.3 -07.5452 26261.2
 14 06 2013  21 00  -21.0377 26034.1 -03448.5 -07.5454 26261.5
 14 06 2013  21 01  -21.0373 26034.3 -03448.6 -07.5456 26261.7
 14 06 2013  21 02  -21.0371 26034.4 -03448.6 -07.5456 26261.8
 14 06 2013  21 03  -21.0370 26034.5 -03448.7 -07.5458 26262.0
 14 06 2013  21 04  -21.0370 26034.7 -03448.8 -07.5460 26262.1
 14 06 2013  21 05  -21.0368 26034.9 -03448.9 -07.5461 26262.3
 14 06 2013  21 06  -21.0366 26035.1 -03448.9 -07.5462 26262.5
 14 06 2013  21 07  -21.0364 26035.0 -03448.9 -07.5462 26262.5
 14 06 2013  21 08  -21.0362 26035.0 -03448.9 -07.5461 26262.4
 14 06 2013  21 09  -21.0360 26035.0 -03448.9 -07.5460 26262.4
 14 06 2013  21 10  -21.0359 26034.9 -03448.9 -07.5460 26262.4
 14 06 2013  21 11  -21.0359 26034.9 -03448.9 -07.5461 26262.4
 14 06 2013  21 12  -21.0358 26034.9 -03448.8 -07.5460 26262.4
 14 06 2013  21 13  -21.0357 26034.9 -03448.8 -07.5460 26262.3
 14 06 2013  21 14  -21.0358 26034.7 -03448.8 -07.5459 26262.2
 14 06 2013  21 15  -21.0359 26034.6 -03448.7 -07.5459 26262.0
 14 06 2013  21 16  -21.0361 26034.6 -03448.8 -07.5460 26262.0
 14 06 2013  21 17  -21.0361 26034.8 -03448.9 -07.5461 26262.2
 14 06 2013  21 18  -21.0358 26035.0 -03448.9 -07.5462 26262.5
 14 06 2013  21 19  -21.0357 26035.1 -03449.0 -07.5463 26262.6
 14 06 2013  21 20  -21.0358 26035.2 -03449.0 -07.5463 26262.7
 14 06 2013  21 21  -21.0358 26035.3 -03449.1 -07.5464 26262.8
 14 06 2013  21 22  -21.0358 26035.4 -03449.1 -07.5464 26262.9
 14 06 2013  21 23  -21.0357 26035.4 -03449.1 -07.5464 26262.9
 14 06 2013  21 24  -21.0356 26035.4 -03449.1 -07.5464 26262.9
 14 06 2013  21 25  -21.0352 26035.4 -03449.0 -07.5463 26262.8
 14 06 2013  21 26  -21.0347 26035.3 -03449.0 -07.5462 26262.7
 14 06 2013  21 27  -21.0345 26035.2 -03448.9 -07.5461 26262.6
 14 06 2013  21 28  -21.0345 26035.2 -03448.9 -07.5461 26262.7
 14 06 2013  21 29  -21.0347 26035.3 -03448.9 -07.5461 26262.7
 14 06 2013  21 30  -21.0345 26035.3 -03449.1 -07.5464 26262.8
 14 06 2013  21 31  -21.0341 26035.3 -03449.1 -07.5464 26262.8
 14 06 2013  21 32  -21.0337 26035.2 -03449.0 -07.5463 26262.7
 14 06 2013  21 33  -21.0333 26035.2 -03449.0 -07.5463 26262.7
 14 06 2013  21 34  -21.0329 26035.2 -03449.0 -07.5463 26262.6
 14 06 2013  21 35  -21.0327 26035.1 -03449.0 -07.5463 26262.6
 14 06 2013  21 36  -21.0325 26035.1 -03449.0 -07.5463 26262.6
 14 06 2013  21 37  -21.0321 26035.2 -03449.1 -07.5465 26262.7
 14 06 2013  21 38  -21.0318 26035.3 -03449.2 -07.5466 26262.8
 14 06 2013  21 39  -21.0314 26035.2 -03449.1 -07.5465 26262.6
 14 06 2013  21 40  -21.0311 26035.1 -03449.1 -07.5465 26262.6
 14 06 2013  21 41  -21.0311 26035.1 -03449.1 -07.5466 26262.6
 14 06 2013  21 42  -21.0311 26035.1 -03449.1 -07.5465 26262.6
 14 06 2013  21 43  -21.0310 26035.0 -03449.2 -07.5467 26262.5
 14 06 2013  21 44  -21.0310 26035.0 -03449.2 -07.5468 26262.5
 14 06 2013  21 45  -21.0312 26035.0 -03449.2 -07.5469 26262.4
 14 06 2013  21 46  -21.0312 26034.9 -03449.3 -07.5469 26262.4
 14 06 2013  21 47  -21.0312 26034.9 -03449.3 -07.5470 26262.4
 14 06 2013  21 48  -21.0313 26035.0 -03449.3 -07.5471 26262.5
 14 06 2013  21 49  -21.0311 26034.9 -03449.3 -07.5471 26262.4
 14 06 2013  21 50  -21.0313 26034.8 -03449.3 -07.5471 26262.4
 14 06 2013  21 51  -21.0317 26035.0 -03449.4 -07.5472 26262.5
 14 06 2013  21 52  -21.0316 26035.4 -03449.6 -07.5476 26262.9
 14 06 2013  21 53  -21.0312 26035.6 -03449.7 -07.5477 26263.1
 14 06 2013  21 54  -21.0312 26035.8 -03449.9 -07.5479 26263.4
 14 06 2013  21 55  -21.0313 26036.1 -03450.0 -07.5482 26263.7
 14 06 2013  21 56  -21.0309 26036.4 -03450.1 -07.5484 26264.0
 14 06 2013  21 57  -21.0305 26036.5 -03450.2 -07.5484 26264.1
 14 06 2013  21 58  -21.0305 26036.5 -03450.1 -07.5484 26264.1
 14 06 2013  21 59  -21.0305 26036.3 -03450.1 -07.5483 26263.9
 14 06 2013  22 00  -21.0306 26036.1 -03450.0 -07.5482 26263.7
 14 06 2013  22 01  -21.0306 26035.8 -03449.9 -07.5480 26263.4
 14 06 2013  22 02  -21.0303 26035.5 -03449.7 -07.5476 26263.0
 14 06 2013  22 03  -21.0305 26035.0 -03449.5 -07.5473 26262.5
 14 06 2013  22 04  -21.0308 26034.5 -03449.2 -07.5470 26262.0
 14 06 2013  22 05  -21.0313 26034.2 -03449.1 -07.5468 26261.7
 14 06 2013  22 06  -21.0318 26034.1 -03449.1 -07.5468 26261.6
 14 06 2013  22 07  -21.0319 26033.9 -03449.0 -07.5466 26261.4
 14 06 2013  22 08  -21.0324 26033.7 -03449.0 -07.5466 26261.2
 14 06 2013  22 09  -21.0328 26033.6 -03448.9 -07.5466 26261.1
 14 06 2013  22 10  -21.0330 26033.7 -03449.0 -07.5467 26261.1
 14 06 2013  22 11  -21.0332 26033.7 -03449.0 -07.5468 26261.2
 14 06 2013  22 12  -21.0334 26033.7 -03449.0 -07.5468 26261.1
 14 06 2013  22 13  -21.0335 26033.6 -03449.0 -07.5468 26261.1
 14 06 2013  22 14  -21.0332 26033.6 -03449.0 -07.5467 26261.0
 14 06 2013  22 15  -21.0331 26033.6 -03449.0 -07.5468 26261.1
 14 06 2013  22 16  -21.0331 26033.7 -03449.1 -07.5469 26261.2
 14 06 2013  22 17  -21.0332 26033.7 -03449.1 -07.5470 26261.2
 14 06 2013  22 18  -21.0333 26033.7 -03449.1 -07.5469 26261.1
 14 06 2013  22 19  -21.0332 26033.8 -03449.2 -07.5471 26261.3
 14 06 2013  22 20  -21.0331 26033.7 -03449.1 -07.5470 26261.2
 14 06 2013  22 21  -21.0330 26033.7 -03449.2 -07.5470 26261.2
 14 06 2013  22 22  -21.0330 26033.7 -03449.1 -07.5470 26261.1
 14 06 2013  22 23  -21.0331 26033.7 -03449.2 -07.5470 26261.2
 14 06 2013  22 24  -21.0330 26033.6 -03449.1 -07.5470 26261.1
 14 06 2013  22 25  -21.0330 26033.5 -03449.1 -07.5470 26261.0
 14 06 2013  22 26  -21.0331 26033.4 -03449.1 -07.5469 26260.9
 14 06 2013  22 27  -21.0332 26033.4 -03449.1 -07.5470 26260.8
 14 06 2013  22 28  -21.0332 26033.4 -03449.1 -07.5471 26260.9
 14 06 2013  22 29  -21.0332 26033.4 -03449.2 -07.5471 26260.9
 14 06 2013  22 30  -21.0330 26033.4 -03449.1 -07.5471 26260.9
 14 06 2013  22 31  -21.0329 26033.2 -03449.1 -07.5470 26260.7
 14 06 2013  22 32  -21.0330 26033.1 -03449.1 -07.5470 26260.6
 14 06 2013  22 33  -21.0330 26033.1 -03449.1 -07.5471 26260.6
 14 06 2013  22 34  -21.0330 26033.1 -03449.1 -07.5471 26260.6
 14 06 2013  22 35  -21.0331 26033.1 -03449.2 -07.5472 26260.6
 14 06 2013  22 36  -21.0331 26033.1 -03449.2 -07.5472 26260.6
 14 06 2013  22 37  -21.0331 26033.0 -03449.2 -07.5472 26260.5
 14 06 2013  22 38  -21.0333 26033.0 -03449.2 -07.5473 26260.5
 14 06 2013  22 39  -21.0334 26032.9 -03449.2 -07.5473 26260.4
 14 06 2013  22 40  -21.0337 26032.9 -03449.2 -07.5473 26260.4
 14 06 2013  22 41  -21.0338 26032.9 -03449.2 -07.5473 26260.4
 14 06 2013  22 42  -21.0337 26032.9 -03449.2 -07.5473 26260.4
 14 06 2013  22 43  -21.0339 26032.8 -03449.2 -07.5473 26260.3
 14 06 2013  22 44  -21.0341 26032.8 -03449.2 -07.5474 26260.3
 14 06 2013  22 45  -21.0341 26032.8 -03449.2 -07.5474 26260.3
 14 06 2013  22 46  -21.0340 26032.9 -03449.2 -07.5474 26260.4
 14 06 2013  22 47  -21.0340 26032.9 -03449.2 -07.5474 26260.4
 14 06 2013  22 48  -21.0342 26032.7 -03449.2 -07.5474 26260.3
 14 06 2013  22 49  -21.0345 26032.7 -03449.2 -07.5474 26260.2
 14 06 2013  22 50  -21.0346 26032.7 -03449.2 -07.5474 26260.3
 14 06 2013  22 51  -21.0349 26032.7 -03449.2 -07.5475 26260.2
 14 06 2013  22 52  -21.0349 26032.8 -03449.3 -07.5476 26260.3
 14 06 2013  22 53  -21.0350 26032.9 -03449.3 -07.5476 26260.4
 14 06 2013  22 54  -21.0351 26032.9 -03449.3 -07.5476 26260.4
 14 06 2013  22 55  -21.0352 26032.8 -03449.3 -07.5477 26260.3
 14 06 2013  22 56  -21.0353 26032.9 -03449.3 -07.5477 26260.4
 14 06 2013  22 57  -21.0353 26032.8 -03449.3 -07.5476 26260.3
 14 06 2013  22 58  -21.0352 26032.7 -03449.3 -07.5476 26260.2
 14 06 2013  22 59  -21.0351 26032.5 -03449.2 -07.5474 26260.0
 14 06 2013  23 00  -21.0350 26032.3 -03449.1 -07.5472 26259.8
 14 06 2013  23 01  -21.0349 26032.3 -03449.1 -07.5473 26259.8
 14 06 2013  23 02  -21.0350 26032.2 -03449.1 -07.5473 26259.7
 14 06 2013  23 03  -21.0352 26032.1 -03449.1 -07.5474 26259.6
 14 06 2013  23 04  -21.0354 26032.0 -03449.1 -07.5474 26259.5
 14 06 2013  23 05  -21.0354 26032.0 -03449.1 -07.5474 26259.5
 14 06 2013  23 06  -21.0356 26032.0 -03449.1 -07.5475 26259.5
 14 06 2013  23 07  -21.0356 26032.0 -03449.2 -07.5475 26259.5
 14 06 2013  23 08  -21.0356 26032.0 -03449.2 -07.5476 26259.5
 14 06 2013  23 09  -21.0360 26031.9 -03449.2 -07.5476 26259.4
 14 06 2013  23 10  -21.0363 26032.0 -03449.2 -07.5477 26259.5
 14 06 2013  23 11  -21.0365 26032.0 -03449.2 -07.5477 26259.5
 14 06 2013  23 12  -21.0367 26031.9 -03449.2 -07.5477 26259.4
 14 06 2013  23 13  -21.0366 26031.8 -03449.2 -07.5476 26259.3
 14 06 2013  23 14  -21.0366 26031.7 -03449.1 -07.5475 26259.2
 14 06 2013  23 15  -21.0367 26031.6 -03449.1 -07.5475 26259.1
 14 06 2013  23 16  -21.0370 26031.5 -03449.0 -07.5474 26259.0
 14 06 2013  23 17  -21.0371 26031.5 -03449.1 -07.5475 26259.0
 14 06 2013  23 18  -21.0375 26031.4 -03449.1 -07.5476 26258.9
 14 06 2013  23 19  -21.0374 26031.5 -03449.1 -07.5476 26259.0
 14 06 2013  23 20  -21.0374 26031.5 -03449.1 -07.5476 26259.0
 14 06 2013  23 21  -21.0370 26031.5 -03449.2 -07.5476 26259.1
 14 06 2013  23 22  -21.0366 26031.6 -03449.2 -07.5477 26259.1
 14 06 2013  23 23  -21.0365 26031.5 -03449.1 -07.5476 26259.0
 14 06 2013  23 24  -21.0361 26031.6 -03449.2 -07.5477 26259.1
 14 06 2013  23 25  -21.0361 26031.4 -03449.1 -07.5477 26258.9
 14 06 2013  23 26  -21.0359 26031.4 -03449.2 -07.5477 26258.9
 14 06 2013  23 27  -21.0361 26031.2 -03449.1 -07.5476 26258.7
 14 06 2013  23 28  -21.0361 26031.1 -03449.1 -07.5476 26258.6
 14 06 2013  23 29  -21.0358 26031.0 -03449.1 -07.5476 26258.5
 14 06 2013  23 30  -21.0356 26030.9 -03449.0 -07.5476 26258.4
 14 06 2013  23 31  -21.0357 26030.7 -03449.0 -07.5476 26258.2
 14 06 2013  23 32  -21.0357 26030.7 -03449.0 -07.5476 26258.2
 14 06 2013  23 33  -21.0361 26030.5 -03449.0 -07.5476 26258.0
 14 06 2013  23 34  -21.0361 26030.5 -03448.9 -07.5475 26257.9
 14 06 2013  23 35  -21.0364 26030.3 -03448.9 -07.5475 26257.7
 14 06 2013  23 36  -21.0365 26030.0 -03448.8 -07.5474 26257.5
 14 06 2013  23 37  -21.0369 26029.8 -03448.7 -07.5472 26257.3
 14 06 2013  23 38  -21.0371 26029.5 -03448.6 -07.5471 26257.0
 14 06 2013  23 39  -21.0368 26029.6 -03448.6 -07.5471 26257.1
 14 06 2013  23 40  -21.0370 26029.4 -03448.6 -07.5471 26256.8
 14 06 2013  23 41  -21.0367 26029.3 -03448.6 -07.5470 26256.8
 14 06 2013  23 42  -21.0369 26029.1 -03448.6 -07.5471 26256.6
 14 06 2013  23 43  -21.0369 26029.0 -03448.5 -07.5470 26256.5
 14 06 2013  23 44  -21.0368 26029.0 -03448.6 -07.5471 26256.4
 14 06 2013  23 45  -21.0368 26028.9 -03448.6 -07.5472 26256.4
 14 06 2013  23 46  -21.0368 26028.9 -03448.6 -07.5473 26256.3
 14 06 2013  23 47  -21.0369 26028.6 -03448.6 -07.5472 26256.1
 14 06 2013  23 48  -21.0368 26028.5 -03448.6 -07.5472 26256.0
 14 06 2013  23 49  -21.0374 26028.1 -03448.5 -07.5471 26255.6
 14 06 2013  23 50  -21.0378 26028.0 -03448.4 -07.5471 26255.4
 14 06 2013  23 51  -21.0380 26027.9 -03448.4 -07.5472 26255.4
 14 06 2013  23 52  -21.0379 26028.1 -03448.5 -07.5473 26255.6
 14 06 2013  23 53  -21.0377 26028.2 -03448.6 -07.5475 26255.6
 14 06 2013  23 54  -21.0374 26028.3 -03448.7 -07.5476 26255.8
 14 06 2013  23 55  -21.0368 26028.6 -03448.9 -07.5480 26256.1
 14 06 2013  23 56  -21.0366 26028.6 -03449.0 -07.5482 26256.2
 14 06 2013  23 57  -21.0367 26028.6 -03449.1 -07.5483 26256.1
 14 06 2013  23 58  -21.0372 26028.5 -03449.1 -07.5484 26256.1
