SAO LUIS EMBRACE-03 <348> 1 Min. Reported data

 DD MM YYYY  HH MM   D(Deg)  H(nT)   Z(nT)   I(Deg)   F(nT)

 14 12 2013  00 00  -20.9859 26031.8 -03516.6 -07.6934 26268.3
 14 12 2013  00 01  -20.9862 26031.9 -03516.7 -07.6937 26268.4
 14 12 2013  00 02  -20.9864 26031.8 -03516.7 -07.6937 26268.3
 14 12 2013  00 03  -20.9865 26031.8 -03516.7 -07.6936 26268.3
 14 12 2013  00 04  -20.9865 26031.9 -03516.7 -07.6937 26268.3
 14 12 2013  00 05  -20.9865 26031.9 -03516.8 -07.6939 26268.3
 14 12 2013  00 06  -20.9864 26032.0 -03516.9 -07.6939 26268.4
 14 12 2013  00 07  -20.9864 26032.0 -03517.0 -07.6941 26268.5
 14 12 2013  00 08  -20.9864 26032.1 -03517.0 -07.6942 26268.6
 14 12 2013  00 09  -20.9866 26032.1 -03517.0 -07.6943 26268.6
 14 12 2013  00 10  -20.9868 26032.1 -03517.1 -07.6943 26268.6
 14 12 2013  00 11  -20.9868 26032.1 -03517.1 -07.6944 26268.7
 14 12 2013  00 12  -20.9871 26032.0 -03517.1 -07.6944 26268.6
 14 12 2013  00 13  -20.9871 26031.9 -03517.0 -07.6943 26268.4
 14 12 2013  00 14  -20.9873 26031.9 -03517.0 -07.6944 26268.4
 14 12 2013  00 15  -20.9874 26032.0 -03517.1 -07.6944 26268.5
 14 12 2013  00 16  -20.9871 26032.2 -03517.2 -07.6946 26268.7
 14 12 2013  00 17  -20.9868 26032.4 -03517.3 -07.6948 26269.0
 14 12 2013  00 18  -20.9867 26032.8 -03517.6 -07.6952 26269.4
 14 12 2013  00 19  -20.9867 26033.2 -03517.8 -07.6955 26269.8
 14 12 2013  00 20  -20.9868 26033.4 -03518.0 -07.6959 26270.1
 14 12 2013  00 21  -20.9870 26033.5 -03518.1 -07.6960 26270.2
 14 12 2013  00 22  -20.9869 26033.7 -03518.1 -07.6961 26270.3
 14 12 2013  00 23  -20.9865 26033.7 -03518.1 -07.6961 26270.4
 14 12 2013  00 24  -20.9865 26033.6 -03518.1 -07.6961 26270.3
 14 12 2013  00 25  -20.9868 26033.6 -03518.1 -07.6961 26270.2
 14 12 2013  00 26  -20.9868 26033.5 -03518.0 -07.6960 26270.1
 14 12 2013  00 27  -20.9868 26033.4 -03518.0 -07.6960 26270.0
 14 12 2013  00 28  -20.9865 26033.4 -03518.0 -07.6959 26270.0
 14 12 2013  00 29  -20.9864 26033.6 -03518.1 -07.6960 26270.2
 14 12 2013  00 30  -20.9865 26033.7 -03518.2 -07.6962 26270.3
 14 12 2013  00 31  -20.9869 26033.7 -03518.2 -07.6963 26270.3
 14 12 2013  00 32  -20.9869 26033.6 -03518.2 -07.6963 26270.2
 14 12 2013  00 33  -20.9869 26033.6 -03518.2 -07.6963 26270.2
 14 12 2013  00 34  -20.9867 26033.6 -03518.2 -07.6963 26270.3
 14 12 2013  00 35  -20.9868 26033.5 -03518.1 -07.6963 26270.1
 14 12 2013  00 36  -20.9876 26033.3 -03518.1 -07.6962 26269.9
 14 12 2013  00 37  -20.9882 26033.1 -03518.0 -07.6961 26269.7
 14 12 2013  00 38  -20.9885 26032.7 -03517.8 -07.6959 26269.3
 14 12 2013  00 39  -20.9882 26032.4 -03517.6 -07.6954 26268.9
 14 12 2013  00 40  -20.9881 26032.1 -03517.5 -07.6952 26268.6
 14 12 2013  00 41  -20.9881 26031.9 -03517.4 -07.6951 26268.5
 14 12 2013  00 42  -20.9881 26031.9 -03517.4 -07.6952 26268.5
 14 12 2013  00 43  -20.9881 26031.9 -03517.5 -07.6953 26268.5
 14 12 2013  00 44  -20.9880 26031.9 -03517.5 -07.6954 26268.5
 14 12 2013  00 45  -20.9881 26031.7 -03517.5 -07.6954 26268.3
 14 12 2013  00 46  -20.9880 26031.6 -03517.5 -07.6954 26268.2
 14 12 2013  00 47  -20.9876 26031.6 -03517.5 -07.6955 26268.2
 14 12 2013  00 48  -20.9876 26031.5 -03517.6 -07.6956 26268.1
 14 12 2013  00 49  -20.9877 26031.5 -03517.6 -07.6957 26268.1
 14 12 2013  00 50  -20.9876 26031.6 -03517.7 -07.6958 26268.2
 14 12 2013  00 51  -20.9871 26031.8 -03517.9 -07.6961 26268.4
 14 12 2013  00 52  -20.9870 26031.4 -03517.8 -07.6960 26268.0
 14 12 2013  00 53  -20.9865 26032.5 -03518.2 -07.6967 26269.1
 14 12 2013  00 54  -20.9855 26032.1 -03518.2 -07.6967 26268.7
 14 12 2013  00 55  -20.9861 26031.8 -03518.1 -07.6967 26268.5
 14 12 2013  00 56  -20.9861 26031.8 -03518.2 -07.6968 26268.5
 14 12 2013  00 57  -20.9866 26031.2 -03518.0 -07.6966 26267.9
 14 12 2013  00 58  -20.9873 26030.8 -03517.8 -07.6963 26267.4
 14 12 2013  00 59  -20.9885 26030.2 -03517.5 -07.6959 26266.7
 14 12 2013  01 00  -20.9895 26029.8 -03517.4 -07.6958 26266.3
 14 12 2013  01 01  -20.9905 26028.8 -03516.9 -07.6950 26265.3
 14 12 2013  01 02  -20.9906 26028.8 -03516.9 -07.6949 26265.3
 14 12 2013  01 03  -20.9907 26028.7 -03516.9 -07.6950 26265.2
 14 12 2013  01 04  -20.9910 26028.2 -03516.7 -07.6947 26264.7
 14 12 2013  01 05  -20.9904 26028.6 -03517.0 -07.6952 26265.2
 14 12 2013  01 06  -20.9905 26028.6 -03517.1 -07.6954 26265.1
 14 12 2013  01 07  -20.9909 26028.4 -03517.1 -07.6954 26264.9
 14 12 2013  01 08  -20.9913 26028.3 -03517.1 -07.6955 26264.9
 14 12 2013  01 09  -20.9925 26028.2 -03517.2 -07.6957 26264.8
 14 12 2013  01 10  -20.9924 26028.0 -03517.1 -07.6956 26264.6
 14 12 2013  01 11  -20.9922 26027.5 -03516.8 -07.6952 26264.0
 14 12 2013  01 12  -20.9931 26026.9 -03516.6 -07.6948 26263.4
 14 12 2013  01 13  -20.9940 26026.9 -03516.7 -07.6950 26263.4
 14 12 2013  01 14  -20.9940 26027.0 -03516.8 -07.6952 26263.5
 14 12 2013  01 15  -20.9935 26026.9 -03516.8 -07.6952 26263.5
 14 12 2013  01 16  -20.9928 26027.7 -03517.2 -07.6959 26264.3
 14 12 2013  01 17  -20.9926 26027.2 -03517.1 -07.6959 26263.7
 14 12 2013  01 18  -20.9914 26026.5 -03516.8 -07.6953 26263.1
 14 12 2013  01 19  -20.9905 26026.3 -03516.7 -07.6952 26262.8
 14 12 2013  01 20  -20.9906 26025.7 -03516.5 -07.6950 26262.2
 14 12 2013  01 21  -20.9915 26026.5 -03517.1 -07.6960 26263.1
 14 12 2013  01 22  -20.9923 26026.7 -03517.3 -07.6965 26263.3
 14 12 2013  01 23  -20.9929 26026.3 -03517.3 -07.6965 26262.9
 14 12 2013  01 24  -20.9930 26026.0 -03517.1 -07.6962 26262.5
 14 12 2013  01 25  -20.9937 26026.0 -03517.1 -07.6962 26262.6
 14 12 2013  01 26  -20.9944 26026.5 -03517.5 -07.6968 26263.1
 14 12 2013  01 27  -20.9956 26026.1 -03517.4 -07.6968 26262.7
 14 12 2013  01 28  -20.9967 26025.6 -03517.2 -07.6965 26262.2
 14 12 2013  01 29  -20.9974 26024.9 -03516.8 -07.6958 26261.5
 14 12 2013  01 30  -20.9980 26024.7 -03516.6 -07.6956 26261.3
 14 12 2013  01 31  -20.9985 26025.0 -03516.8 -07.6957 26261.5
 14 12 2013  01 32  -20.9997 26024.9 -03516.7 -07.6957 26261.4
 14 12 2013  01 33  -21.0018 26024.9 -03516.8 -07.6959 26261.4
 14 12 2013  01 34  -21.0029 26024.6 -03516.8 -07.6959 26261.1
 14 12 2013  01 35  -21.0040 26024.0 -03516.4 -07.6954 26260.5
 14 12 2013  01 36  -21.0050 26023.9 -03516.4 -07.6953 26260.4
 14 12 2013  01 37  -21.0071 26023.4 -03516.2 -07.6950 26259.8
 14 12 2013  01 38  -21.0088 26023.0 -03516.0 -07.6948 26259.5
 14 12 2013  01 39  -21.0106 26022.2 -03515.6 -07.6941 26258.6
 14 12 2013  01 40  -21.0116 26021.3 -03515.1 -07.6932 26257.6
 14 12 2013  01 41  -21.0116 26020.8 -03514.8 -07.6927 26257.1
 14 12 2013  01 42  -21.0127 26019.7 -03514.3 -07.6920 26256.0
 14 12 2013  01 43  -21.0165 26017.7 -03513.6 -07.6910 26253.8
 14 12 2013  01 44  -21.0185 26015.3 -03512.4 -07.6892 26251.3
 14 12 2013  01 45  -21.0185 26013.1 -03511.2 -07.6871 26249.0
 14 12 2013  01 46  -21.0195 26011.6 -03510.4 -07.6860 26247.4
 14 12 2013  01 47  -21.0215 26010.8 -03510.3 -07.6859 26246.6
 14 12 2013  01 48  -21.0235 26011.1 -03510.7 -07.6867 26246.9
 14 12 2013  01 49  -21.0244 26012.0 -03511.4 -07.6879 26248.0
 14 12 2013  01 50  -21.0245 26012.6 -03511.9 -07.6888 26248.6
 14 12 2013  01 51  -21.0239 26013.5 -03512.3 -07.6896 26249.5
 14 12 2013  01 52  -21.0230 26014.4 -03512.8 -07.6904 26250.5
 14 12 2013  01 53  -21.0224 26015.1 -03513.3 -07.6911 26251.3
 14 12 2013  01 54  -21.0218 26015.5 -03513.6 -07.6916 26251.7
 14 12 2013  01 55  -21.0206 26016.0 -03513.8 -07.6919 26252.2
 14 12 2013  01 56  -21.0196 26016.6 -03514.1 -07.6924 26252.9
 14 12 2013  01 57  -21.0193 26017.0 -03514.3 -07.6928 26253.3
 14 12 2013  01 58  -21.0196 26017.7 -03514.7 -07.6935 26254.1
 14 12 2013  01 59  -21.0199 26018.3 -03515.1 -07.6942 26254.6
 14 12 2013  02 00  -21.0198 26017.8 -03515.0 -07.6940 26254.2
 14 12 2013  02 01  -21.0190 26016.6 -03514.2 -07.6928 26252.8
 14 12 2013  02 02  -21.0198 26015.9 -03513.9 -07.6922 26252.1
 14 12 2013  02 03  -21.0210 26015.8 -03513.9 -07.6923 26252.0
 14 12 2013  02 04  -21.0206 26015.5 -03513.8 -07.6922 26251.7
 14 12 2013  02 05  -21.0198 26014.8 -03513.4 -07.6916 26251.0
 14 12 2013  02 06  -21.0201 26014.6 -03513.4 -07.6915 26250.8
 14 12 2013  02 07  -21.0206 26015.2 -03513.9 -07.6923 26251.5
 14 12 2013  02 08  -21.0197 26015.7 -03514.1 -07.6928 26251.9
 14 12 2013  02 09  -21.0189 26016.2 -03514.4 -07.6933 26252.5
 14 12 2013  02 10  -21.0190 26016.2 -03514.6 -07.6936 26252.5
 14 12 2013  02 11  -21.0198 26015.4 -03514.3 -07.6932 26251.7
 14 12 2013  02 12  -21.0205 26014.8 -03514.0 -07.6927 26251.0
 14 12 2013  02 13  -21.0205 26014.4 -03513.8 -07.6924 26250.7
 14 12 2013  02 14  -21.0201 26014.2 -03513.7 -07.6922 26250.4
 14 12 2013  02 15  -21.0195 26014.2 -03513.7 -07.6923 26250.4
 14 12 2013  02 16  -21.0188 26014.3 -03513.8 -07.6925 26250.5
 14 12 2013  02 17  -21.0182 26014.4 -03513.9 -07.6927 26250.7
 14 12 2013  02 18  -21.0180 26014.9 -03514.2 -07.6933 26251.1
 14 12 2013  02 19  -21.0181 26015.1 -03514.5 -07.6937 26251.4
 14 12 2013  02 20  -21.0182 26015.2 -03514.6 -07.6940 26251.6
 14 12 2013  02 21  -21.0185 26015.4 -03514.7 -07.6942 26251.8
 14 12 2013  02 22  -21.0183 26015.7 -03514.9 -07.6944 26252.1
 14 12 2013  02 23  -21.0182 26016.2 -03515.2 -07.6949 26252.6
 14 12 2013  02 24  -21.0182 26016.6 -03515.4 -07.6952 26253.1
 14 12 2013  02 25  -21.0174 26017.5 -03515.7 -07.6957 26253.9
 14 12 2013  02 26  -21.0167 26018.3 -03516.1 -07.6963 26254.8
 14 12 2013  02 27  -21.0164 26018.7 -03516.3 -07.6966 26255.2
 14 12 2013  02 28  -21.0161 26019.2 -03516.5 -07.6970 26255.7
 14 12 2013  02 29  -21.0156 26019.2 -03516.5 -07.6969 26255.8
 14 12 2013  02 30  -21.0155 26018.7 -03516.2 -07.6964 26255.2
 14 12 2013  02 31  -21.0150 26018.2 -03515.9 -07.6958 26254.7
 14 12 2013  02 32  -21.0143 26018.0 -03515.7 -07.6955 26254.4
 14 12 2013  02 33  -21.0136 26018.0 -03515.7 -07.6955 26254.5
 14 12 2013  02 34  -21.0133 26017.8 -03515.6 -07.6954 26254.3
 14 12 2013  02 35  -21.0134 26017.7 -03515.6 -07.6954 26254.2
 14 12 2013  02 36  -21.0135 26017.7 -03515.6 -07.6954 26254.1
 14 12 2013  02 37  -21.0134 26017.8 -03515.7 -07.6956 26254.3
 14 12 2013  02 38  -21.0128 26018.5 -03516.0 -07.6961 26255.0
 14 12 2013  02 39  -21.0125 26019.2 -03516.4 -07.6967 26255.7
 14 12 2013  02 40  -21.0127 26019.3 -03516.6 -07.6970 26255.9
 14 12 2013  02 41  -21.0133 26019.4 -03516.7 -07.6972 26256.0
 14 12 2013  02 42  -21.0131 26019.3 -03516.5 -07.6969 26255.9
 14 12 2013  02 43  -21.0125 26019.0 -03516.3 -07.6965 26255.5
 14 12 2013  02 44  -21.0119 26018.8 -03516.1 -07.6961 26255.3
 14 12 2013  02 45  -21.0117 26018.7 -03516.1 -07.6961 26255.2
 14 12 2013  02 46  -21.0113 26018.6 -03516.0 -07.6960 26255.0
 14 12 2013  02 47  -21.0108 26017.9 -03515.7 -07.6955 26254.3
 14 12 2013  02 48  -21.0106 26017.4 -03515.5 -07.6952 26253.8
 14 12 2013  02 49  -21.0103 26017.2 -03515.4 -07.6951 26253.6
 14 12 2013  02 50  -21.0102 26017.1 -03515.5 -07.6953 26253.5
 14 12 2013  02 51  -21.0099 26016.9 -03515.4 -07.6952 26253.3
 14 12 2013  02 52  -21.0097 26016.3 -03515.3 -07.6950 26252.7
 14 12 2013  02 53  -21.0101 26015.9 -03515.1 -07.6949 26252.3
 14 12 2013  02 54  -21.0106 26015.6 -03515.1 -07.6949 26252.0
 14 12 2013  02 55  -21.0107 26015.6 -03515.2 -07.6951 26252.0
 14 12 2013  02 56  -21.0109 26015.6 -03515.3 -07.6953 26252.1
 14 12 2013  02 57  -21.0115 26015.9 -03515.5 -07.6957 26252.4
 14 12 2013  02 58  -21.0123 26016.0 -03515.7 -07.6960 26252.5
 14 12 2013  02 59  -21.0126 26016.0 -03515.7 -07.6961 26252.5
 14 12 2013  03 00  -21.0127 26015.9 -03515.6 -07.6959 26252.3
 14 12 2013  03 01  -21.0130 26015.7 -03515.5 -07.6957 26252.2
 14 12 2013  03 02  -21.0134 26015.3 -03515.3 -07.6955 26251.8
 14 12 2013  03 03  -21.0135 26015.2 -03515.3 -07.6954 26251.6
 14 12 2013  03 04  -21.0136 26015.6 -03515.4 -07.6956 26252.0
 14 12 2013  03 05  -21.0136 26016.1 -03515.7 -07.6961 26252.6
 14 12 2013  03 06  -21.0140 26016.2 -03515.8 -07.6963 26252.7
 14 12 2013  03 07  -21.0150 26016.0 -03515.8 -07.6963 26252.5
 14 12 2013  03 08  -21.0154 26015.7 -03515.6 -07.6959 26252.1
 14 12 2013  03 09  -21.0157 26015.3 -03515.3 -07.6954 26251.7
 14 12 2013  03 10  -21.0162 26014.8 -03515.0 -07.6950 26251.2
 14 12 2013  03 11  -21.0170 26014.2 -03514.8 -07.6946 26250.6
 14 12 2013  03 12  -21.0177 26013.8 -03514.5 -07.6942 26250.1
 14 12 2013  03 13  -21.0181 26013.4 -03514.3 -07.6939 26249.7
 14 12 2013  03 14  -21.0186 26012.9 -03514.2 -07.6937 26249.2
 14 12 2013  03 15  -21.0191 26012.5 -03514.0 -07.6935 26248.8
 14 12 2013  03 16  -21.0199 26012.1 -03513.9 -07.6934 26248.4
 14 12 2013  03 17  -21.0206 26011.6 -03513.8 -07.6932 26247.9
 14 12 2013  03 18  -21.0211 26011.3 -03513.7 -07.6930 26247.5
 14 12 2013  03 19  -21.0211 26011.8 -03513.9 -07.6935 26248.1
 14 12 2013  03 20  -21.0217 26013.1 -03514.7 -07.6947 26249.5
 14 12 2013  03 21  -21.0217 26014.3 -03515.4 -07.6959 26250.7
 14 12 2013  03 22  -21.0221 26014.4 -03515.5 -07.6960 26250.8
 14 12 2013  03 23  -21.0225 26014.0 -03515.3 -07.6957 26250.5
 14 12 2013  03 24  -21.0228 26013.5 -03514.9 -07.6952 26249.9
 14 12 2013  03 25  -21.0231 26013.2 -03514.7 -07.6947 26249.6
 14 12 2013  03 26  -21.0241 26012.8 -03514.6 -07.6946 26249.2
 14 12 2013  03 27  -21.0248 26012.4 -03514.3 -07.6942 26248.7
 14 12 2013  03 28  -21.0254 26012.0 -03514.1 -07.6939 26248.3
 14 12 2013  03 29  -21.0254 26011.6 -03514.0 -07.6937 26247.9
 14 12 2013  03 30  -21.0254 26011.4 -03513.9 -07.6935 26247.7
 14 12 2013  03 31  -21.0257 26011.5 -03514.0 -07.6938 26247.8
 14 12 2013  03 32  -21.0262 26011.6 -03514.2 -07.6940 26247.9
 14 12 2013  03 33  -21.0270 26011.9 -03514.4 -07.6945 26248.3
 14 12 2013  03 34  -21.0276 26012.1 -03514.6 -07.6948 26248.5
 14 12 2013  03 35  -21.0279 26012.1 -03514.6 -07.6949 26248.5
 14 12 2013  03 36  -21.0282 26012.1 -03514.6 -07.6949 26248.5
 14 12 2013  03 37  -21.0283 26012.1 -03514.6 -07.6949 26248.5
 14 12 2013  03 38  -21.0287 26012.2 -03514.7 -07.6949 26248.5
 14 12 2013  03 39  -21.0288 26012.1 -03514.6 -07.6949 26248.5
 14 12 2013  03 40  -21.0292 26011.9 -03514.5 -07.6948 26248.2
 14 12 2013  03 41  -21.0294 26011.5 -03514.4 -07.6945 26247.9
 14 12 2013  03 42  -21.0297 26011.2 -03514.2 -07.6942 26247.5
 14 12 2013  03 43  -21.0303 26011.0 -03514.1 -07.6941 26247.3
 14 12 2013  03 44  -21.0304 26010.3 -03513.8 -07.6937 26246.6
 14 12 2013  03 45  -21.0305 26009.7 -03513.5 -07.6931 26245.9
 14 12 2013  03 46  -21.0307 26009.6 -03513.4 -07.6930 26245.8
 14 12 2013  03 47  -21.0315 26010.0 -03513.7 -07.6936 26246.3
 14 12 2013  03 48  -21.0322 26011.1 -03514.3 -07.6946 26247.4
 14 12 2013  03 49  -21.0326 26012.0 -03514.9 -07.6955 26248.4
 14 12 2013  03 50  -21.0327 26012.8 -03515.3 -07.6961 26249.3
 14 12 2013  03 51  -21.0326 26013.5 -03515.6 -07.6966 26250.0
 14 12 2013  03 52  -21.0327 26014.0 -03515.8 -07.6969 26250.5
 14 12 2013  03 53  -21.0329 26014.6 -03516.0 -07.6972 26251.1
 14 12 2013  03 54  -21.0327 26015.8 -03516.5 -07.6978 26252.4
 14 12 2013  03 55  -21.0334 26015.4 -03516.3 -07.6975 26252.0
 14 12 2013  03 56  -21.0328 26016.0 -03516.4 -07.6975 26252.6
 14 12 2013  03 57  -21.0324 26016.0 -03516.2 -07.6972 26252.5
 14 12 2013  03 58  -21.0313 26016.9 -03516.5 -07.6975 26253.5
 14 12 2013  03 59  -21.0300 26017.4 -03516.7 -07.6979 26254.0
 14 12 2013  04 00  -21.0285 26016.6 -03516.3 -07.6972 26253.2
 14 12 2013  04 01  -21.0268 26015.2 -03515.4 -07.6958 26251.6
 14 12 2013  04 02  -21.0256 26013.8 -03514.6 -07.6944 26250.1
 14 12 2013  04 03  -21.0251 26013.5 -03514.5 -07.6942 26249.8
 14 12 2013  04 04  -21.0252 26014.0 -03514.9 -07.6949 26250.4
 14 12 2013  04 05  -21.0251 26014.3 -03515.3 -07.6957 26250.8
 14 12 2013  04 06  -21.0242 26013.8 -03515.0 -07.6953 26250.2
 14 12 2013  04 07  -21.0243 26014.8 -03515.6 -07.6961 26251.2
 14 12 2013  04 08  -21.0250 26015.4 -03516.1 -07.6971 26251.9
 14 12 2013  04 09  -21.0250 26016.3 -03516.6 -07.6979 26252.9
 14 12 2013  04 10  -21.0249 26016.6 -03516.8 -07.6982 26253.2
 14 12 2013  04 11  -21.0240 26016.6 -03516.7 -07.6980 26253.2
 14 12 2013  04 12  -21.0231 26016.6 -03516.7 -07.6980 26253.2
 14 12 2013  04 13  -21.0221 26016.4 -03516.5 -07.6976 26252.9
 14 12 2013  04 14  -21.0220 26016.4 -03516.5 -07.6977 26253.0
 14 12 2013  04 15  -21.0214 26016.7 -03516.7 -07.6980 26253.3
 14 12 2013  04 16  -21.0205 26017.2 -03516.9 -07.6983 26253.8
 14 12 2013  04 17  -21.0196 26017.7 -03517.2 -07.6989 26254.3
 14 12 2013  04 18  -21.0190 26018.4 -03517.6 -07.6994 26255.1
 14 12 2013  04 19  -21.0183 26019.0 -03517.9 -07.7000 26255.7
 14 12 2013  04 20  -21.0174 26019.5 -03518.1 -07.7003 26256.3
 14 12 2013  04 21  -21.0168 26019.7 -03518.2 -07.7005 26256.5
 14 12 2013  04 22  -21.0164 26020.1 -03518.4 -07.7008 26256.9
 14 12 2013  04 23  -21.0159 26020.4 -03518.5 -07.7009 26257.2
 14 12 2013  04 24  -21.0156 26020.6 -03518.7 -07.7012 26257.5
 14 12 2013  04 25  -21.0152 26021.0 -03518.8 -07.7014 26257.8
 14 12 2013  04 26  -21.0151 26021.3 -03518.9 -07.7015 26258.1
 14 12 2013  04 27  -21.0151 26021.3 -03519.0 -07.7017 26258.2
 14 12 2013  04 28  -21.0149 26021.0 -03518.8 -07.7013 26257.9
 14 12 2013  04 29  -21.0147 26020.9 -03518.6 -07.7010 26257.7
 14 12 2013  04 30  -21.0143 26020.9 -03518.5 -07.7008 26257.7
 14 12 2013  04 31  -21.0147 26020.6 -03518.5 -07.7007 26257.4
 14 12 2013  04 32  -21.0152 26021.2 -03518.7 -07.7011 26258.0
 14 12 2013  04 33  -21.0164 26022.2 -03519.2 -07.7020 26259.1
 14 12 2013  04 34  -21.0171 26022.7 -03519.5 -07.7024 26259.6
 14 12 2013  04 35  -21.0174 26023.4 -03519.8 -07.7027 26260.3
 14 12 2013  04 36  -21.0173 26024.0 -03520.0 -07.7030 26261.0
 14 12 2013  04 37  -21.0173 26024.1 -03519.9 -07.7029 26261.1
 14 12 2013  04 38  -21.0175 26024.8 -03520.1 -07.7031 26261.8
 14 12 2013  04 39  -21.0181 26025.4 -03520.4 -07.7034 26262.4
 14 12 2013  04 40  -21.0186 26026.1 -03520.6 -07.7037 26263.1
 14 12 2013  04 41  -21.0189 26026.5 -03520.7 -07.7039 26263.5
 14 12 2013  04 42  -21.0190 26027.9 -03521.2 -07.7046 26265.0
 14 12 2013  04 43  -21.0204 26028.5 -03521.5 -07.7049 26265.6
 14 12 2013  04 44  -21.0215 26029.4 -03521.8 -07.7054 26266.6
 14 12 2013  04 45  -21.0224 26030.2 -03522.1 -07.7057 26267.4
 14 12 2013  04 46  -21.0227 26031.2 -03522.3 -07.7058 26268.4
 14 12 2013  04 47  -21.0232 26031.9 -03522.5 -07.7062 26269.1
 14 12 2013  04 48  -21.0233 26032.0 -03522.2 -07.7056 26269.2
 14 12 2013  04 49  -21.0239 26032.1 -03522.2 -07.7054 26269.3
 14 12 2013  04 50  -21.0241 26032.1 -03521.9 -07.7048 26269.3
 14 12 2013  04 51  -21.0243 26032.3 -03521.8 -07.7046 26269.5
 14 12 2013  04 52  -21.0244 26032.5 -03521.8 -07.7044 26269.6
 14 12 2013  04 53  -21.0241 26032.6 -03521.6 -07.7040 26269.7
 14 12 2013  04 54  -21.0240 26032.5 -03521.4 -07.7036 26269.6
 14 12 2013  04 55  -21.0237 26032.6 -03521.3 -07.7033 26269.6
 14 12 2013  04 56  -21.0237 26032.6 -03521.3 -07.7032 26269.7
 14 12 2013  04 57  -21.0234 26032.8 -03521.2 -07.7031 26269.9
 14 12 2013  04 58  -21.0229 26032.6 -03521.0 -07.7028 26269.6
 14 12 2013  04 59  -21.0225 26032.4 -03520.9 -07.7024 26269.5
 14 12 2013  05 00  -21.0223 26032.1 -03520.7 -07.7021 26269.1
 14 12 2013  05 01  -21.0220 26032.0 -03520.6 -07.7020 26268.9
 14 12 2013  05 02  -21.0216 26031.8 -03520.4 -07.7017 26268.8
 14 12 2013  05 03  -21.0214 26031.6 -03520.3 -07.7015 26268.5
 14 12 2013  05 04  -21.0213 26031.3 -03520.2 -07.7013 26268.3
 14 12 2013  05 05  -21.0211 26031.2 -03520.1 -07.7012 26268.2
 14 12 2013  05 06  -21.0211 26031.1 -03520.1 -07.7012 26268.1
 14 12 2013  05 07  -21.0212 26031.0 -03520.1 -07.7012 26267.9
 14 12 2013  05 08  -21.0210 26030.6 -03519.9 -07.7009 26267.5
 14 12 2013  05 09  -21.0210 26030.3 -03519.8 -07.7007 26267.2
 14 12 2013  05 10  -21.0208 26029.9 -03519.6 -07.7004 26266.7
 14 12 2013  05 11  -21.0211 26028.5 -03518.9 -07.6994 26265.3
 14 12 2013  05 12  -21.0213 26027.4 -03518.4 -07.6986 26264.2
 14 12 2013  05 13  -21.0211 26026.8 -03518.1 -07.6982 26263.5
 14 12 2013  05 14  -21.0210 26026.1 -03517.8 -07.6977 26262.8
 14 12 2013  05 15  -21.0211 26025.9 -03517.8 -07.6977 26262.6
 14 12 2013  05 16  -21.0213 26025.6 -03517.8 -07.6977 26262.3
 14 12 2013  05 17  -21.0210 26025.2 -03517.7 -07.6976 26261.9
 14 12 2013  05 18  -21.0209 26024.9 -03517.6 -07.6976 26261.6
 14 12 2013  05 19  -21.0214 26024.7 -03517.7 -07.6978 26261.3
 14 12 2013  05 20  -21.0217 26024.3 -03517.6 -07.6977 26260.9
 14 12 2013  05 21  -21.0218 26024.2 -03517.6 -07.6978 26260.8
 14 12 2013  05 22  -21.0221 26024.0 -03517.6 -07.6979 26260.7
 14 12 2013  05 23  -21.0223 26024.0 -03517.7 -07.6981 26260.6
 14 12 2013  05 24  -21.0224 26023.8 -03517.8 -07.6983 26260.5
 14 12 2013  05 25  -21.0224 26023.6 -03517.7 -07.6982 26260.3
 14 12 2013  05 26  -21.0224 26023.3 -03517.6 -07.6982 26260.0
 14 12 2013  05 27  -21.0223 26023.4 -03517.7 -07.6983 26260.1
 14 12 2013  05 28  -21.0223 26023.6 -03517.9 -07.6986 26260.3
 14 12 2013  05 29  -21.0225 26023.7 -03518.1 -07.6989 26260.4
 14 12 2013  05 30  -21.0224 26023.7 -03518.1 -07.6991 26260.4
 14 12 2013  05 31  -21.0228 26023.6 -03518.2 -07.6992 26260.3
 14 12 2013  05 32  -21.0231 26023.9 -03518.3 -07.6994 26260.6
 14 12 2013  05 33  -21.0233 26024.0 -03518.4 -07.6996 26260.8
 14 12 2013  05 34  -21.0236 26024.0 -03518.4 -07.6997 26260.7
 14 12 2013  05 35  -21.0240 26024.1 -03518.5 -07.6998 26260.9
 14 12 2013  05 36  -21.0246 26024.1 -03518.5 -07.6998 26260.8
 14 12 2013  05 37  -21.0253 26024.5 -03518.7 -07.7002 26261.3
 14 12 2013  05 38  -21.0259 26024.7 -03518.9 -07.7004 26261.5
 14 12 2013  05 39  -21.0265 26024.6 -03518.9 -07.7004 26261.4
 14 12 2013  05 40  -21.0272 26024.4 -03518.8 -07.7003 26261.2
 14 12 2013  05 41  -21.0276 26024.2 -03518.6 -07.7000 26261.0
 14 12 2013  05 42  -21.0280 26024.2 -03518.5 -07.6998 26260.9
 14 12 2013  05 43  -21.0285 26023.9 -03518.4 -07.6995 26260.7
 14 12 2013  05 44  -21.0289 26023.9 -03518.3 -07.6993 26260.6
 14 12 2013  05 45  -21.0292 26023.8 -03518.2 -07.6992 26260.5
 14 12 2013  05 46  -21.0295 26023.7 -03518.1 -07.6990 26260.4
 14 12 2013  05 47  -21.0298 26023.6 -03518.0 -07.6989 26260.3
 14 12 2013  05 48  -21.0302 26023.6 -03518.0 -07.6988 26260.3
 14 12 2013  05 49  -21.0304 26023.6 -03518.0 -07.6988 26260.3
 14 12 2013  05 50  -21.0306 26023.2 -03517.8 -07.6985 26259.9
 14 12 2013  05 51  -21.0310 26022.5 -03517.4 -07.6979 26259.2
 14 12 2013  05 52  -21.0311 26021.9 -03517.1 -07.6973 26258.5
 14 12 2013  05 53  -21.0312 26021.3 -03516.8 -07.6968 26257.9
 14 12 2013  05 54  -21.0310 26021.2 -03516.7 -07.6966 26257.7
 14 12 2013  05 55  -21.0310 26021.5 -03516.8 -07.6969 26258.1
 14 12 2013  05 56  -21.0311 26022.0 -03517.2 -07.6976 26258.7
 14 12 2013  05 57  -21.0315 26022.5 -03517.5 -07.6982 26259.1
 14 12 2013  05 58  -21.0319 26022.8 -03517.8 -07.6986 26259.5
 14 12 2013  05 59  -21.0324 26022.7 -03517.8 -07.6986 26259.4
 14 12 2013  06 00  -21.0323 26022.6 -03517.6 -07.6984 26259.2
 14 12 2013  06 01  -21.0321 26022.3 -03517.4 -07.6980 26258.9
 14 12 2013  06 02  -21.0317 26022.5 -03517.4 -07.6980 26259.1
 14 12 2013  06 03  -21.0314 26022.8 -03517.6 -07.6983 26259.5
 14 12 2013  06 04  -21.0313 26023.0 -03517.8 -07.6985 26259.7
 14 12 2013  06 05  -21.0314 26023.1 -03517.9 -07.6987 26259.8
 14 12 2013  06 06  -21.0316 26023.2 -03517.9 -07.6987 26259.9
 14 12 2013  06 07  -21.0318 26023.2 -03517.9 -07.6987 26259.9
 14 12 2013  06 08  -21.0318 26023.1 -03517.8 -07.6986 26259.8
 14 12 2013  06 09  -21.0319 26022.7 -03517.7 -07.6984 26259.4
 14 12 2013  06 10  -21.0319 26022.1 -03517.3 -07.6978 26258.8
 14 12 2013  06 11  -21.0319 26021.5 -03517.0 -07.6973 26258.1
 14 12 2013  06 12  -21.0320 26020.9 -03516.6 -07.6967 26257.4
 14 12 2013  06 13  -21.0320 26020.2 -03516.3 -07.6963 26256.7
 14 12 2013  06 14  -21.0322 26019.6 -03516.1 -07.6959 26256.1
 14 12 2013  06 15  -21.0323 26019.5 -03516.0 -07.6958 26256.0
 14 12 2013  06 16  -21.0324 26019.7 -03516.2 -07.6961 26256.2
 14 12 2013  06 17  -21.0325 26020.1 -03516.5 -07.6966 26256.7
 14 12 2013  06 18  -21.0324 26020.5 -03516.8 -07.6971 26257.0
 14 12 2013  06 19  -21.0326 26020.3 -03516.7 -07.6971 26256.9
 14 12 2013  06 20  -21.0329 26020.0 -03516.6 -07.6968 26256.6
 14 12 2013  06 21  -21.0333 26020.0 -03516.6 -07.6968 26256.5
 14 12 2013  06 22  -21.0338 26020.2 -03516.7 -07.6969 26256.7
 14 12 2013  06 23  -21.0342 26020.4 -03516.8 -07.6972 26257.0
 14 12 2013  06 24  -21.0347 26020.6 -03516.9 -07.6974 26257.2
 14 12 2013  06 25  -21.0350 26020.9 -03517.0 -07.6975 26257.5
 14 12 2013  06 26  -21.0352 26021.1 -03517.1 -07.6977 26257.7
 14 12 2013  06 27  -21.0353 26021.2 -03517.1 -07.6976 26257.8
 14 12 2013  06 28  -21.0352 26021.5 -03517.2 -07.6977 26258.2
 14 12 2013  06 29  -21.0349 26022.3 -03517.5 -07.6982 26259.0
 14 12 2013  06 30  -21.0349 26023.2 -03517.9 -07.6988 26259.9
 14 12 2013  06 31  -21.0348 26023.7 -03518.2 -07.6993 26260.5
 14 12 2013  06 32  -21.0347 26024.0 -03518.2 -07.6992 26260.7
 14 12 2013  06 33  -21.0343 26023.9 -03518.1 -07.6990 26260.6
 14 12 2013  06 34  -21.0338 26023.9 -03518.0 -07.6987 26260.6
 14 12 2013  06 35  -21.0334 26024.0 -03518.0 -07.6987 26260.8
 14 12 2013  06 36  -21.0330 26024.2 -03518.0 -07.6987 26260.9
 14 12 2013  06 37  -21.0326 26024.5 -03518.1 -07.6988 26261.2
 14 12 2013  06 38  -21.0325 26024.8 -03518.2 -07.6989 26261.5
 14 12 2013  06 39  -21.0323 26025.5 -03518.5 -07.6993 26262.2
 14 12 2013  06 40  -21.0321 26026.4 -03518.9 -07.7000 26263.2
 14 12 2013  06 41  -21.0320 26027.3 -03519.3 -07.7006 26264.2
 14 12 2013  06 42  -21.0319 26027.9 -03519.6 -07.7011 26264.8
 14 12 2013  06 43  -21.0317 26028.1 -03519.6 -07.7011 26265.0
 14 12 2013  06 44  -21.0314 26027.8 -03519.4 -07.7006 26264.7
 14 12 2013  06 45  -21.0308 26027.5 -03519.0 -07.6999 26264.3
 14 12 2013  06 46  -21.0301 26026.9 -03518.6 -07.6992 26263.7
 14 12 2013  06 47  -21.0294 26026.4 -03518.3 -07.6986 26263.1
 14 12 2013  06 48  -21.0286 26025.8 -03517.9 -07.6980 26262.4
 14 12 2013  06 49  -21.0279 26025.2 -03517.6 -07.6974 26261.8
 14 12 2013  06 50  -21.0274 26024.9 -03517.4 -07.6971 26261.5
 14 12 2013  06 51  -21.0270 26024.9 -03517.4 -07.6972 26261.5
 14 12 2013  06 52  -21.0268 26025.2 -03517.7 -07.6976 26261.8
 14 12 2013  06 53  -21.0269 26025.5 -03517.9 -07.6981 26262.2
 14 12 2013  06 54  -21.0270 26025.8 -03518.1 -07.6985 26262.5
 14 12 2013  06 55  -21.0272 26026.0 -03518.3 -07.6988 26262.7
 14 12 2013  06 56  -21.0272 26026.2 -03518.4 -07.6989 26262.9
 14 12 2013  06 57  -21.0273 26026.1 -03518.4 -07.6991 26262.9
 14 12 2013  06 58  -21.0276 26025.3 -03518.1 -07.6985 26262.0
 14 12 2013  06 59  -21.0279 26023.9 -03517.4 -07.6974 26260.5
 14 12 2013  07 00  -21.0277 26022.8 -03516.7 -07.6963 26259.4
 14 12 2013  07 01  -21.0275 26022.3 -03516.4 -07.6957 26258.8
 14 12 2013  07 02  -21.0277 26021.9 -03516.2 -07.6955 26258.4
 14 12 2013  07 03  -21.0280 26021.3 -03516.1 -07.6954 26257.8
 14 12 2013  07 04  -21.0281 26020.2 -03515.6 -07.6948 26256.6
 14 12 2013  07 05  -21.0281 26018.9 -03515.1 -07.6939 26255.3
 14 12 2013  07 06  -21.0278 26018.1 -03514.6 -07.6931 26254.4
 14 12 2013  07 07  -21.0273 26017.8 -03514.5 -07.6930 26254.1
 14 12 2013  07 08  -21.0272 26018.1 -03514.8 -07.6934 26254.4
 14 12 2013  07 09  -21.0268 26018.7 -03515.3 -07.6944 26255.1
 14 12 2013  07 10  -21.0262 26019.4 -03515.9 -07.6954 26255.8
 14 12 2013  07 11  -21.0251 26020.4 -03516.5 -07.6965 26256.9
 14 12 2013  07 12  -21.0240 26021.6 -03517.2 -07.6977 26258.2
 14 12 2013  07 13  -21.0232 26022.6 -03517.9 -07.6988 26259.3
 14 12 2013  07 14  -21.0228 26023.5 -03518.5 -07.7000 26260.3
 14 12 2013  07 15  -21.0225 26024.0 -03518.9 -07.7006 26260.9
 14 12 2013  07 16  -21.0222 26023.7 -03518.8 -07.7005 26260.5
 14 12 2013  07 17  -21.0216 26023.0 -03518.4 -07.6999 26259.8
 14 12 2013  07 18  -21.0207 26022.4 -03517.9 -07.6991 26259.1
 14 12 2013  07 19  -21.0197 26021.7 -03517.5 -07.6984 26258.4
 14 12 2013  07 20  -21.0191 26021.4 -03517.3 -07.6980 26258.0
 14 12 2013  07 21  -21.0192 26021.4 -03517.4 -07.6981 26258.1
 14 12 2013  07 22  -21.0196 26021.7 -03517.6 -07.6985 26258.4
 14 12 2013  07 23  -21.0200 26022.2 -03517.9 -07.6991 26258.9
 14 12 2013  07 24  -21.0207 26022.7 -03518.3 -07.6997 26259.5
 14 12 2013  07 25  -21.0212 26023.1 -03518.6 -07.7002 26259.9
 14 12 2013  07 26  -21.0218 26023.4 -03518.7 -07.7005 26260.2
 14 12 2013  07 27  -21.0223 26023.6 -03518.8 -07.7007 26260.5
 14 12 2013  07 28  -21.0226 26023.8 -03518.9 -07.7007 26260.6
 14 12 2013  07 29  -21.0228 26023.6 -03518.8 -07.7005 26260.5
 14 12 2013  07 30  -21.0227 26023.6 -03518.7 -07.7003 26260.4
 14 12 2013  07 31  -21.0227 26023.6 -03518.6 -07.7001 26260.4
 14 12 2013  07 32  -21.0226 26023.5 -03518.5 -07.6999 26260.3
 14 12 2013  07 33  -21.0224 26023.6 -03518.5 -07.6999 26260.3
 14 12 2013  07 34  -21.0222 26023.6 -03518.4 -07.6998 26260.3
 14 12 2013  07 35  -21.0222 26023.5 -03518.5 -07.6999 26260.3
 14 12 2013  07 36  -21.0220 26023.5 -03518.5 -07.6999 26260.3
 14 12 2013  07 37  -21.0220 26023.6 -03518.5 -07.7000 26260.4
 14 12 2013  07 38  -21.0219 26023.7 -03518.6 -07.7001 26260.5
 14 12 2013  07 39  -21.0216 26024.0 -03518.8 -07.7004 26260.8
 14 12 2013  07 40  -21.0211 26024.3 -03519.0 -07.7007 26261.1
 14 12 2013  07 41  -21.0209 26024.6 -03519.2 -07.7010 26261.5
 14 12 2013  07 42  -21.0206 26024.9 -03519.3 -07.7013 26261.8
 14 12 2013  07 43  -21.0204 26025.2 -03519.5 -07.7016 26262.1
 14 12 2013  07 44  -21.0201 26025.2 -03519.5 -07.7016 26262.1
 14 12 2013  07 45  -21.0198 26025.2 -03519.5 -07.7016 26262.1
 14 12 2013  07 46  -21.0195 26025.1 -03519.4 -07.7014 26262.0
 14 12 2013  07 47  -21.0192 26024.9 -03519.4 -07.7014 26261.8
 14 12 2013  07 48  -21.0188 26024.8 -03519.2 -07.7012 26261.6
 14 12 2013  07 49  -21.0182 26024.6 -03519.2 -07.7010 26261.5
 14 12 2013  07 50  -21.0176 26024.5 -03519.1 -07.7010 26261.3
 14 12 2013  07 51  -21.0172 26024.6 -03519.2 -07.7010 26261.5
 14 12 2013  07 52  -21.0167 26024.7 -03519.2 -07.7012 26261.5
 14 12 2013  07 53  -21.0165 26024.7 -03519.4 -07.7015 26261.6
 14 12 2013  07 54  -21.0164 26024.7 -03519.4 -07.7016 26261.6
 14 12 2013  07 55  -21.0161 26024.6 -03519.4 -07.7016 26261.5
 14 12 2013  07 56  -21.0160 26024.5 -03519.4 -07.7016 26261.4
 14 12 2013  07 57  -21.0156 26024.6 -03519.4 -07.7017 26261.5
 14 12 2013  07 58  -21.0152 26024.6 -03519.5 -07.7017 26261.5
 14 12 2013  07 59  -21.0146 26024.3 -03519.4 -07.7016 26261.2
 14 12 2013  08 00  -21.0146 26024.2 -03519.4 -07.7016 26261.1
 14 12 2013  08 01  -21.0143 26024.2 -03519.4 -07.7016 26261.1
 14 12 2013  08 02  -21.0140 26024.2 -03519.4 -07.7017 26261.1
 14 12 2013  08 03  -21.0142 26024.2 -03519.5 -07.7019 26261.1
 14 12 2013  08 04  -21.0143 26024.2 -03519.5 -07.7020 26261.1
 14 12 2013  08 05  -21.0145 26024.1 -03519.5 -07.7020 26261.0
 14 12 2013  08 06  -21.0142 26024.1 -03519.5 -07.7020 26261.0
 14 12 2013  08 07  -21.0144 26024.0 -03519.5 -07.7020 26260.9
 14 12 2013  08 08  -21.0145 26023.9 -03519.5 -07.7020 26260.8
 14 12 2013  08 09  -21.0143 26024.0 -03519.5 -07.7020 26260.9
 14 12 2013  08 10  -21.0143 26024.1 -03519.6 -07.7021 26261.0
 14 12 2013  08 11  -21.0141 26024.2 -03519.7 -07.7023 26261.2
 14 12 2013  08 12  -21.0141 26024.6 -03519.9 -07.7026 26261.6
 14 12 2013  08 13  -21.0144 26024.8 -03520.0 -07.7027 26261.7
 14 12 2013  08 14  -21.0150 26024.6 -03519.9 -07.7027 26261.6
 14 12 2013  08 15  -21.0156 26024.3 -03519.8 -07.7025 26261.3
 14 12 2013  08 16  -21.0157 26024.2 -03519.6 -07.7021 26261.1
 14 12 2013  08 17  -21.0156 26023.9 -03519.4 -07.7018 26260.8
 14 12 2013  08 18  -21.0159 26023.3 -03519.1 -07.7013 26260.2
 14 12 2013  08 19  -21.0162 26022.9 -03518.9 -07.7009 26259.7
 14 12 2013  08 20  -21.0161 26022.7 -03518.7 -07.7006 26259.5
 14 12 2013  08 21  -21.0158 26022.5 -03518.6 -07.7004 26259.3
 14 12 2013  08 22  -21.0158 26022.4 -03518.5 -07.7003 26259.2
 14 12 2013  08 23  -21.0161 26022.3 -03518.5 -07.7003 26259.1
 14 12 2013  08 24  -21.0161 26022.1 -03518.4 -07.7001 26258.9
 14 12 2013  08 25  -21.0162 26021.9 -03518.2 -07.6999 26258.6
 14 12 2013  08 26  -21.0162 26021.5 -03518.1 -07.6996 26258.3
 14 12 2013  08 27  -21.0162 26021.3 -03517.9 -07.6993 26258.0
 14 12 2013  08 28  -21.0160 26021.2 -03517.8 -07.6992 26257.9
 14 12 2013  08 29  -21.0159 26021.2 -03517.8 -07.6992 26257.9
 14 12 2013  08 30  -21.0159 26021.2 -03517.8 -07.6992 26257.9
 14 12 2013  08 31  -21.0157 26021.5 -03518.0 -07.6994 26258.2
 14 12 2013  08 32  -21.0157 26021.8 -03518.2 -07.6997 26258.5
 14 12 2013  08 33  -21.0158 26022.0 -03518.3 -07.7000 26258.8
 14 12 2013  08 34  -21.0161 26022.2 -03518.4 -07.7002 26259.0
 14 12 2013  08 35  -21.0164 26022.3 -03518.5 -07.7003 26259.1
 14 12 2013  08 36  -21.0168 26022.3 -03518.5 -07.7003 26259.1
 14 12 2013  08 37  -21.0171 26022.4 -03518.6 -07.7005 26259.2
 14 12 2013  08 38  -21.0175 26022.7 -03518.7 -07.7006 26259.5
 14 12 2013  08 39  -21.0179 26022.9 -03518.8 -07.7009 26259.7
 14 12 2013  08 40  -21.0185 26023.2 -03519.0 -07.7010 26260.0
 14 12 2013  08 41  -21.0191 26023.4 -03519.1 -07.7013 26260.3
 14 12 2013  08 42  -21.0198 26023.5 -03519.2 -07.7014 26260.4
 14 12 2013  08 43  -21.0206 26023.5 -03519.1 -07.7013 26260.3
 14 12 2013  08 44  -21.0215 26023.6 -03519.2 -07.7014 26260.4
 14 12 2013  08 45  -21.0222 26023.7 -03519.2 -07.7014 26260.6
 14 12 2013  08 46  -21.0229 26023.9 -03519.2 -07.7014 26260.8
 14 12 2013  08 47  -21.0236 26024.2 -03519.3 -07.7015 26261.1
 14 12 2013  08 48  -21.0244 26024.4 -03519.4 -07.7016 26261.3
 14 12 2013  08 49  -21.0251 26024.6 -03519.5 -07.7017 26261.5
 14 12 2013  08 50  -21.0255 26024.8 -03519.5 -07.7017 26261.7
 14 12 2013  08 51  -21.0257 26024.9 -03519.5 -07.7017 26261.8
 14 12 2013  08 52  -21.0260 26025.0 -03519.5 -07.7017 26261.9
 14 12 2013  08 53  -21.0265 26025.3 -03519.6 -07.7017 26262.2
 14 12 2013  08 54  -21.0269 26025.5 -03519.6 -07.7018 26262.5
 14 12 2013  08 55  -21.0273 26025.7 -03519.7 -07.7018 26262.6
 14 12 2013  08 56  -21.0272 26025.8 -03519.6 -07.7018 26262.7
 14 12 2013  08 57  -21.0275 26025.9 -03519.6 -07.7017 26262.8
 14 12 2013  08 58  -21.0277 26026.0 -03519.6 -07.7016 26262.9
 14 12 2013  08 59  -21.0276 26026.1 -03519.6 -07.7015 26263.0
 14 12 2013  09 00  -21.0276 26026.2 -03519.6 -07.7015 26263.1
 14 12 2013  09 01  -21.0279 26026.3 -03519.6 -07.7015 26263.2
 14 12 2013  09 02  -21.0283 26026.3 -03519.5 -07.7014 26263.2
 14 12 2013  09 03  -21.0283 26026.5 -03519.6 -07.7014 26263.4
 14 12 2013  09 04  -21.0277 26027.1 -03519.8 -07.7017 26264.0
 14 12 2013  09 05  -21.0282 26027.4 -03519.9 -07.7019 26264.3
 14 12 2013  09 06  -21.0282 26027.5 -03519.9 -07.7019 26264.4
 14 12 2013  09 07  -21.0284 26027.7 -03519.9 -07.7018 26264.6
 14 12 2013  09 08  -21.0285 26028.1 -03520.0 -07.7019 26265.0
 14 12 2013  09 09  -21.0288 26028.3 -03520.1 -07.7020 26265.3
 14 12 2013  09 10  -21.0289 26028.6 -03520.1 -07.7020 26265.6
 14 12 2013  09 11  -21.0294 26028.8 -03520.1 -07.7019 26265.8
 14 12 2013  09 12  -21.0297 26028.9 -03520.0 -07.7017 26265.9
 14 12 2013  09 13  -21.0299 26029.0 -03520.0 -07.7015 26265.9
 14 12 2013  09 14  -21.0301 26029.0 -03519.8 -07.7012 26265.9
 14 12 2013  09 15  -21.0302 26029.2 -03519.7 -07.7010 26266.1
 14 12 2013  09 16  -21.0304 26029.4 -03519.8 -07.7010 26266.3
 14 12 2013  09 17  -21.0307 26029.6 -03519.8 -07.7009 26266.5
 14 12 2013  09 18  -21.0308 26030.1 -03519.8 -07.7009 26267.0
 14 12 2013  09 19  -21.0313 26030.2 -03519.8 -07.7008 26267.1
 14 12 2013  09 20  -21.0315 26030.0 -03519.6 -07.7005 26266.8
 14 12 2013  09 21  -21.0318 26029.8 -03519.4 -07.7000 26266.6
 14 12 2013  09 22  -21.0316 26029.7 -03519.3 -07.6998 26266.5
 14 12 2013  09 23  -21.0319 26029.9 -03519.3 -07.6999 26266.8
 14 12 2013  09 24  -21.0322 26030.1 -03519.3 -07.6997 26266.9
 14 12 2013  09 25  -21.0326 26030.1 -03519.1 -07.6994 26266.9
 14 12 2013  09 26  -21.0327 26030.3 -03519.2 -07.6994 26267.1
 14 12 2013  09 27  -21.0330 26030.7 -03519.3 -07.6995 26267.6
 14 12 2013  09 28  -21.0333 26031.1 -03519.4 -07.6996 26268.0
 14 12 2013  09 29  -21.0337 26031.3 -03519.3 -07.6995 26268.1
 14 12 2013  09 30  -21.0340 26031.0 -03519.0 -07.6988 26267.8
 14 12 2013  09 31  -21.0344 26031.1 -03518.8 -07.6984 26267.8
 14 12 2013  09 32  -21.0352 26031.5 -03518.8 -07.6982 26268.2
 14 12 2013  09 33  -21.0353 26031.7 -03518.7 -07.6979 26268.4
 14 12 2013  09 34  -21.0357 26032.1 -03518.6 -07.6977 26268.8
 14 12 2013  09 35  -21.0362 26032.4 -03518.6 -07.6976 26269.1
 14 12 2013  09 36  -21.0366 26032.6 -03518.5 -07.6973 26269.3
 14 12 2013  09 37  -21.0369 26032.4 -03518.3 -07.6969 26269.0
 14 12 2013  09 38  -21.0374 26032.3 -03518.1 -07.6964 26269.0
 14 12 2013  09 39  -21.0378 26032.6 -03518.0 -07.6962 26269.2
 14 12 2013  09 40  -21.0382 26032.8 -03517.9 -07.6960 26269.5
 14 12 2013  09 41  -21.0389 26033.1 -03517.9 -07.6958 26269.7
 14 12 2013  09 42  -21.0394 26033.3 -03517.7 -07.6955 26269.9
 14 12 2013  09 43  -21.0395 26033.5 -03517.6 -07.6952 26270.1
 14 12 2013  09 44  -21.0394 26033.7 -03517.6 -07.6950 26270.3
 14 12 2013  09 45  -21.0393 26034.0 -03517.6 -07.6949 26270.5
 14 12 2013  09 46  -21.0398 26034.5 -03517.7 -07.6949 26271.1
 14 12 2013  09 47  -21.0399 26035.0 -03517.6 -07.6947 26271.6
 14 12 2013  09 48  -21.0405 26035.5 -03517.6 -07.6945 26272.0
 14 12 2013  09 49  -21.0413 26036.0 -03517.6 -07.6943 26272.5
 14 12 2013  09 50  -21.0419 26036.6 -03517.6 -07.6941 26273.1
 14 12 2013  09 51  -21.0420 26036.7 -03517.3 -07.6934 26273.2
 14 12 2013  09 52  -21.0424 26037.0 -03517.1 -07.6930 26273.5
 14 12 2013  09 53  -21.0430 26037.5 -03517.1 -07.6928 26273.9
 14 12 2013  09 54  -21.0434 26037.7 -03517.0 -07.6925 26274.2
 14 12 2013  09 55  -21.0438 26038.0 -03516.8 -07.6920 26274.4
 14 12 2013  09 56  -21.0436 26038.2 -03516.6 -07.6916 26274.6
 14 12 2013  09 57  -21.0441 26038.6 -03516.5 -07.6912 26275.0
 14 12 2013  09 58  -21.0450 26039.1 -03516.4 -07.6909 26275.4
 14 12 2013  09 59  -21.0456 26039.3 -03516.2 -07.6904 26275.7
 14 12 2013  10 00  -21.0457 26038.9 -03515.7 -07.6894 26275.1
 14 12 2013  10 01  -21.0460 26037.5 -03514.8 -07.6879 26273.7
 14 12 2013  10 02  -21.0458 26036.4 -03514.1 -07.6866 26272.5
 14 12 2013  10 03  -21.0457 26035.8 -03513.7 -07.6860 26271.9
 14 12 2013  10 04  -21.0454 26035.6 -03513.5 -07.6857 26271.6
 14 12 2013  10 05  -21.0457 26035.5 -03513.6 -07.6858 26271.5
 14 12 2013  10 06  -21.0453 26035.5 -03513.5 -07.6856 26271.5
 14 12 2013  10 07  -21.0449 26035.7 -03513.5 -07.6855 26271.7
 14 12 2013  10 08  -21.0450 26036.0 -03513.6 -07.6856 26272.0
 14 12 2013  10 09  -21.0453 26036.5 -03513.7 -07.6858 26272.5
 14 12 2013  10 10  -21.0451 26036.8 -03513.8 -07.6859 26272.8
 14 12 2013  10 11  -21.0450 26037.0 -03513.7 -07.6856 26273.0
 14 12 2013  10 12  -21.0452 26037.8 -03513.9 -07.6858 26273.9
 14 12 2013  10 13  -21.0454 26038.7 -03514.0 -07.6858 26274.7
 14 12 2013  10 14  -21.0460 26039.1 -03514.0 -07.6856 26275.1
 14 12 2013  10 15  -21.0462 26038.9 -03513.6 -07.6848 26274.9
 14 12 2013  10 16  -21.0465 26038.8 -03513.2 -07.6840 26274.7
 14 12 2013  10 17  -21.0462 26038.6 -03512.9 -07.6835 26274.5
 14 12 2013  10 18  -21.0464 26038.6 -03512.8 -07.6832 26274.5
 14 12 2013  10 19  -21.0464 26038.5 -03512.5 -07.6827 26274.3
 14 12 2013  10 20  -21.0465 26038.4 -03512.4 -07.6823 26274.2
 14 12 2013  10 21  -21.0463 26038.3 -03512.2 -07.6819 26274.1
 14 12 2013  10 22  -21.0465 26038.2 -03512.0 -07.6816 26273.9
 14 12 2013  10 23  -21.0467 26038.1 -03511.9 -07.6813 26273.9
 14 12 2013  10 24  -21.0473 26038.3 -03511.8 -07.6811 26274.0
 14 12 2013  10 25  -21.0472 26038.6 -03511.7 -07.6809 26274.3
 14 12 2013  10 26  -21.0476 26039.1 -03511.8 -07.6810 26274.9
 14 12 2013  10 27  -21.0476 26039.7 -03511.9 -07.6810 26275.5
 14 12 2013  10 28  -21.0477 26040.1 -03511.9 -07.6809 26275.9
 14 12 2013  10 29  -21.0474 26040.1 -03511.6 -07.6801 26275.8
 14 12 2013  10 30  -21.0473 26040.2 -03511.4 -07.6798 26275.9
 14 12 2013  10 31  -21.0476 26040.4 -03511.3 -07.6796 26276.0
 14 12 2013  10 32  -21.0467 26041.0 -03511.5 -07.6797 26276.6
 14 12 2013  10 33  -21.0469 26041.9 -03511.7 -07.6799 26277.6
 14 12 2013  10 34  -21.0465 26042.5 -03511.7 -07.6797 26278.2
 14 12 2013  10 35  -21.0465 26043.3 -03511.8 -07.6796 26279.0
 14 12 2013  10 36  -21.0461 26044.1 -03511.8 -07.6795 26279.8
 14 12 2013  10 37  -21.0457 26045.1 -03512.0 -07.6796 26280.8
 14 12 2013  10 38  -21.0430 26045.6 -03512.0 -07.6794 26281.3
 14 12 2013  10 39  -21.0433 26046.5 -03512.3 -07.6798 26282.3
 14 12 2013  10 40  -21.0424 26047.3 -03512.3 -07.6797 26283.1
 14 12 2013  10 41  -21.0414 26048.1 -03512.2 -07.6792 26283.8
 14 12 2013  10 42  -21.0419 26049.1 -03512.3 -07.6791 26284.8
 14 12 2013  10 43  -21.0428 26049.9 -03512.4 -07.6790 26285.7
 14 12 2013  10 44  -21.0429 26050.1 -03512.0 -07.6782 26285.8
 14 12 2013  10 45  -21.0429 26049.6 -03511.5 -07.6771 26285.2
 14 12 2013  10 46  -21.0426 26048.7 -03510.8 -07.6759 26284.3
 14 12 2013  10 47  -21.0429 26048.2 -03510.4 -07.6752 26283.7
 14 12 2013  10 48  -21.0426 26047.8 -03510.0 -07.6745 26283.2
 14 12 2013  10 49  -21.0419 26047.5 -03509.8 -07.6741 26282.9
 14 12 2013  10 50  -21.0411 26047.1 -03509.6 -07.6737 26282.5
 14 12 2013  10 51  -21.0404 26046.5 -03509.2 -07.6732 26281.8
 14 12 2013  10 52  -21.0403 26045.6 -03508.8 -07.6726 26280.9
 14 12 2013  10 53  -21.0407 26045.2 -03508.7 -07.6724 26280.5
 14 12 2013  10 54  -21.0398 26045.1 -03508.6 -07.6722 26280.3
 14 12 2013  10 55  -21.0384 26045.1 -03508.5 -07.6721 26280.4
 14 12 2013  10 56  -21.0381 26045.2 -03508.6 -07.6723 26280.5
 14 12 2013  10 57  -21.0382 26045.2 -03508.6 -07.6722 26280.4
 14 12 2013  10 58  -21.0381 26044.9 -03508.4 -07.6719 26280.2
 14 12 2013  10 59  -21.0376 26045.0 -03508.4 -07.6718 26280.2
 14 12 2013  11 00  -21.0374 26045.2 -03508.5 -07.6720 26280.5
 14 12 2013  11 01  -21.0369 26045.4 -03508.6 -07.6721 26280.7
 14 12 2013  11 02  -21.0369 26045.5 -03508.5 -07.6720 26280.8
 14 12 2013  11 03  -21.0370 26045.8 -03508.6 -07.6721 26281.0
 14 12 2013  11 04  -21.0368 26045.9 -03508.6 -07.6720 26281.1
 14 12 2013  11 05  -21.0362 26045.7 -03508.4 -07.6717 26280.9
 14 12 2013  11 06  -21.0366 26045.5 -03508.3 -07.6715 26280.7
 14 12 2013  11 07  -21.0371 26045.7 -03508.3 -07.6715 26280.9
 14 12 2013  11 08  -21.0368 26045.9 -03508.3 -07.6713 26281.1
 14 12 2013  11 09  -21.0369 26046.2 -03508.4 -07.6714 26281.4
 14 12 2013  11 10  -21.0371 26046.5 -03508.4 -07.6714 26281.8
 14 12 2013  11 11  -21.0369 26046.7 -03508.4 -07.6713 26281.9
 14 12 2013  11 12  -21.0365 26047.0 -03508.4 -07.6712 26282.2
 14 12 2013  11 13  -21.0363 26047.5 -03508.5 -07.6713 26282.7
 14 12 2013  11 14  -21.0357 26047.9 -03508.5 -07.6712 26283.2
 14 12 2013  11 15  -21.0354 26048.2 -03508.4 -07.6710 26283.4
 14 12 2013  11 16  -21.0348 26048.7 -03508.4 -07.6708 26283.9
 14 12 2013  11 17  -21.0344 26049.1 -03508.4 -07.6708 26284.3
 14 12 2013  11 18  -21.0341 26049.8 -03508.5 -07.6706 26285.0
 14 12 2013  11 19  -21.0337 26050.4 -03508.5 -07.6704 26285.6
 14 12 2013  11 20  -21.0333 26050.5 -03508.3 -07.6700 26285.7
 14 12 2013  11 21  -21.0332 26050.5 -03508.1 -07.6696 26285.6
 14 12 2013  11 22  -21.0329 26050.5 -03507.9 -07.6693 26285.6
 14 12 2013  11 23  -21.0322 26050.6 -03507.9 -07.6692 26285.7
 14 12 2013  11 24  -21.0312 26050.7 -03507.9 -07.6691 26285.9
 14 12 2013  11 25  -21.0312 26050.9 -03507.8 -07.6689 26286.0
 14 12 2013  11 26  -21.0303 26050.6 -03507.6 -07.6685 26285.7
 14 12 2013  11 27  -21.0314 26050.0 -03507.2 -07.6678 26285.0
 14 12 2013  11 28  -21.0318 26048.7 -03506.6 -07.6668 26283.7
 14 12 2013  11 29  -21.0315 26047.8 -03506.2 -07.6663 26282.7
 14 12 2013  11 30  -21.0311 26046.9 -03505.9 -07.6660 26281.8
 14 12 2013  11 31  -21.0302 26046.0 -03505.7 -07.6658 26280.9
 14 12 2013  11 32  -21.0292 26045.6 -03505.8 -07.6660 26280.5
 14 12 2013  11 33  -21.0279 26045.5 -03506.0 -07.6665 26280.5
 14 12 2013  11 34  -21.0268 26045.5 -03506.1 -07.6667 26280.4
 14 12 2013  11 35  -21.0256 26045.8 -03506.3 -07.6671 26280.7
 14 12 2013  11 36  -21.0254 26046.2 -03506.6 -07.6676 26281.2
 14 12 2013  11 37  -21.0249 26046.6 -03506.8 -07.6680 26281.6
 14 12 2013  11 38  -21.0240 26047.2 -03507.2 -07.6686 26282.2
 14 12 2013  11 39  -21.0242 26048.3 -03507.7 -07.6694 26283.4
 14 12 2013  11 40  -21.0240 26049.3 -03508.1 -07.6699 26284.4
 14 12 2013  11 41  -21.0235 26050.3 -03508.4 -07.6702 26285.5
 14 12 2013  11 42  -21.0240 26051.7 -03508.8 -07.6707 26286.9
 14 12 2013  11 43  -21.0251 26052.9 -03509.0 -07.6708 26288.1
 14 12 2013  11 44  -21.0260 26053.8 -03509.0 -07.6705 26289.0
 14 12 2013  11 45  -21.0269 26054.9 -03509.0 -07.6703 26290.1
 14 12 2013  11 46  -21.0285 26055.8 -03509.0 -07.6699 26291.0
 14 12 2013  11 47  -21.0302 26056.2 -03508.6 -07.6691 26291.3
 14 12 2013  11 48  -21.0311 26056.2 -03508.3 -07.6683 26291.4
 14 12 2013  11 49  -21.0311 26056.1 -03507.9 -07.6676 26291.1
 14 12 2013  11 50  -21.0300 26055.6 -03507.5 -07.6668 26290.6
 14 12 2013  11 51  -21.0285 26055.0 -03507.1 -07.6661 26290.0
 14 12 2013  11 52  -21.0271 26054.3 -03506.7 -07.6655 26289.2
 14 12 2013  11 53  -21.0262 26053.4 -03506.4 -07.6651 26288.3
 14 12 2013  11 54  -21.0259 26052.9 -03506.3 -07.6650 26287.7
 14 12 2013  11 55  -21.0263 26052.2 -03506.1 -07.6649 26287.1
 14 12 2013  11 56  -21.0268 26051.9 -03506.2 -07.6651 26286.8
 14 12 2013  11 57  -21.0266 26051.9 -03506.4 -07.6654 26286.8
 14 12 2013  11 58  -21.0261 26051.7 -03506.4 -07.6656 26286.6
 14 12 2013  11 59  -21.0257 26051.8 -03506.7 -07.6661 26286.8
 14 12 2013  12 00  -21.0254 26051.9 -03506.8 -07.6664 26286.8
 14 12 2013  12 01  -21.0255 26051.2 -03506.7 -07.6663 26286.2
 14 12 2013  12 02  -21.0258 26051.1 -03506.9 -07.6667 26286.1
 14 12 2013  12 03  -21.0263 26051.3 -03507.1 -07.6672 26286.3
 14 12 2013  12 04  -21.0263 26051.0 -03507.0 -07.6672 26286.0
 14 12 2013  12 05  -21.0258 26051.7 -03507.5 -07.6679 26286.7
 14 12 2013  12 06  -21.0256 26052.5 -03507.9 -07.6685 26287.6
 14 12 2013  12 07  -21.0252 26052.5 -03507.7 -07.6682 26287.6
 14 12 2013  12 08  -21.0250 26052.5 -03507.6 -07.6679 26287.5
 14 12 2013  12 09  -21.0252 26053.1 -03507.8 -07.6683 26288.2
 14 12 2013  12 10  -21.0250 26053.8 -03508.0 -07.6684 26288.9
 14 12 2013  12 11  -21.0246 26053.8 -03507.7 -07.6678 26288.8
 14 12 2013  12 12  -21.0241 26053.2 -03507.2 -07.6670 26288.2
 14 12 2013  12 13  -21.0242 26052.8 -03507.0 -07.6665 26287.8
 14 12 2013  12 14  -21.0246 26053.3 -03507.1 -07.6666 26288.2
 14 12 2013  12 15  -21.0244 26053.7 -03507.2 -07.6667 26288.7
 14 12 2013  12 16  -21.0244 26054.3 -03507.2 -07.6666 26289.3
 14 12 2013  12 17  -21.0248 26054.7 -03507.2 -07.6664 26289.7
 14 12 2013  12 18  -21.0249 26055.0 -03507.1 -07.6662 26290.0
 14 12 2013  12 19  -21.0250 26055.5 -03507.1 -07.6659 26290.4
 14 12 2013  12 20  -21.0248 26056.0 -03507.0 -07.6656 26290.9
 14 12 2013  12 21  -21.0244 26056.3 -03506.8 -07.6651 26291.2
 14 12 2013  12 22  -21.0235 26056.1 -03506.5 -07.6644 26291.0
 14 12 2013  12 23  -21.0225 26056.2 -03506.2 -07.6639 26291.1
 14 12 2013  12 24  -21.0220 26056.1 -03505.9 -07.6633 26290.9
 14 12 2013  12 25  -21.0219 26055.9 -03505.6 -07.6627 26290.6
 14 12 2013  12 26  -21.0218 26056.1 -03505.6 -07.6626 26290.9
 14 12 2013  12 27  -21.0214 26056.5 -03505.6 -07.6624 26291.2
 14 12 2013  12 28  -21.0214 26056.7 -03505.6 -07.6623 26291.5
 14 12 2013  12 29  -21.0212 26057.1 -03505.5 -07.6621 26291.8
 14 12 2013  12 30  -21.0209 26057.7 -03505.6 -07.6620 26292.5
 14 12 2013  12 31  -21.0209 26058.1 -03505.5 -07.6618 26292.9
 14 12 2013  12 32  -21.0207 26058.2 -03505.2 -07.6611 26292.8
 14 12 2013  12 33  -21.0203 26058.2 -03505.0 -07.6606 26292.9
 14 12 2013  12 34  -21.0200 26058.6 -03504.9 -07.6604 26293.3
 14 12 2013  12 35  -21.0195 26058.9 -03504.8 -07.6600 26293.6
 14 12 2013  12 36  -21.0196 26059.1 -03504.7 -07.6598 26293.7
 14 12 2013  12 37  -21.0185 26060.3 -03505.1 -07.6603 26295.0
 14 12 2013  12 38  -21.0173 26061.4 -03505.3 -07.6604 26296.1
 14 12 2013  12 39  -21.0176 26060.8 -03504.7 -07.6592 26295.4
 14 12 2013  12 40  -21.0185 26060.7 -03504.4 -07.6586 26295.3
 14 12 2013  12 41  -21.0196 26061.3 -03504.4 -07.6586 26295.9
 14 12 2013  12 42  -21.0207 26061.7 -03504.4 -07.6583 26296.2
 14 12 2013  12 43  -21.0209 26061.9 -03504.3 -07.6581 26296.4
 14 12 2013  12 44  -21.0210 26061.7 -03504.1 -07.6577 26296.2
 14 12 2013  12 45  -21.0210 26061.4 -03503.9 -07.6574 26295.9
 14 12 2013  12 46  -21.0212 26061.5 -03503.9 -07.6574 26296.0
 14 12 2013  12 47  -21.0211 26062.1 -03504.1 -07.6576 26296.6
 14 12 2013  12 48  -21.0203 26062.5 -03504.1 -07.6574 26297.0
 14 12 2013  12 49  -21.0198 26062.2 -03503.8 -07.6569 26296.7
 14 12 2013  12 50  -21.0199 26061.7 -03503.5 -07.6563 26296.1
 14 12 2013  12 51  -21.0205 26061.6 -03503.5 -07.6563 26296.1
 14 12 2013  12 52  -21.0211 26061.8 -03503.5 -07.6564 26296.2
 14 12 2013  12 53  -21.0210 26062.0 -03503.5 -07.6563 26296.4
 14 12 2013  12 54  -21.0208 26061.8 -03503.3 -07.6559 26296.2
 14 12 2013  12 55  -21.0210 26062.1 -03503.3 -07.6558 26296.5
 14 12 2013  12 56  -21.0215 26062.4 -03503.3 -07.6557 26296.8
 14 12 2013  12 57  -21.0219 26062.2 -03503.1 -07.6553 26296.6
 14 12 2013  12 58  -21.0222 26062.2 -03502.9 -07.6550 26296.5
 14 12 2013  12 59  -21.0223 26062.6 -03503.0 -07.6551 26297.0
 14 12 2013  13 00  -21.0219 26063.1 -03503.1 -07.6551 26297.5
 14 12 2013  13 01  -21.0218 26063.4 -03503.0 -07.6549 26297.8
 14 12 2013  13 02  -21.0216 26063.5 -03502.8 -07.6544 26297.8
 14 12 2013  13 03  -21.0217 26063.4 -03502.6 -07.6539 26297.6
 14 12 2013  13 04  -21.0223 26063.4 -03502.4 -07.6536 26297.7
 14 12 2013  13 05  -21.0232 26063.9 -03502.4 -07.6535 26298.2
 14 12 2013  13 06  -21.0242 26064.1 -03502.3 -07.6531 26298.3
 14 12 2013  13 07  -21.0244 26063.8 -03502.0 -07.6525 26298.0
 14 12 2013  13 08  -21.0239 26063.8 -03501.7 -07.6520 26297.9
 14 12 2013  13 09  -21.0235 26064.2 -03501.7 -07.6519 26298.4
 14 12 2013  13 10  -21.0232 26064.5 -03501.7 -07.6516 26298.7
 14 12 2013  13 11  -21.0232 26064.8 -03501.6 -07.6515 26299.0
 14 12 2013  13 12  -21.0226 26065.4 -03501.8 -07.6516 26299.5
 14 12 2013  13 13  -21.0217 26066.0 -03501.9 -07.6517 26300.2
 14 12 2013  13 14  -21.0205 26066.7 -03501.9 -07.6516 26300.9
 14 12 2013  13 15  -21.0197 26067.3 -03501.9 -07.6514 26301.5
 14 12 2013  13 16  -21.0192 26067.8 -03501.8 -07.6511 26301.9
 14 12 2013  13 17  -21.0200 26068.4 -03501.8 -07.6509 26302.5
 14 12 2013  13 18  -21.0208 26068.6 -03501.6 -07.6504 26302.8
 14 12 2013  13 19  -21.0214 26069.2 -03501.5 -07.6500 26303.4
 14 12 2013  13 20  -21.0216 26070.0 -03501.4 -07.6495 26304.1
 14 12 2013  13 21  -21.0214 26070.7 -03501.2 -07.6489 26304.8
 14 12 2013  13 22  -21.0213 26070.9 -03500.7 -07.6478 26304.9
 14 12 2013  13 23  -21.0219 26070.7 -03500.2 -07.6466 26304.6
 14 12 2013  13 24  -21.0226 26071.1 -03499.9 -07.6460 26304.9
 14 12 2013  13 25  -21.0224 26071.4 -03499.7 -07.6453 26305.3
 14 12 2013  13 26  -21.0222 26071.0 -03499.2 -07.6444 26304.8
 14 12 2013  13 27  -21.0222 26070.1 -03498.6 -07.6435 26303.8
 14 12 2013  13 28  -21.0209 26070.7 -03498.7 -07.6435 26304.5
 14 12 2013  13 29  -21.0203 26070.7 -03498.6 -07.6431 26304.4
 14 12 2013  13 30  -21.0191 26070.4 -03498.2 -07.6424 26304.0
 14 12 2013  13 31  -21.0185 26069.6 -03497.7 -07.6417 26303.2
 14 12 2013  13 32  -21.0182 26069.0 -03497.4 -07.6412 26302.6
 14 12 2013  13 33  -21.0172 26069.2 -03497.6 -07.6414 26302.8
 14 12 2013  13 34  -21.0170 26069.5 -03497.7 -07.6416 26303.1
 14 12 2013  13 35  -21.0170 26070.0 -03498.0 -07.6420 26303.7
 14 12 2013  13 36  -21.0168 26070.5 -03498.2 -07.6423 26304.2
 14 12 2013  13 37  -21.0167 26070.8 -03498.2 -07.6423 26304.5
 14 12 2013  13 38  -21.0167 26071.6 -03498.5 -07.6428 26305.3
 14 12 2013  13 39  -21.0172 26072.6 -03498.7 -07.6430 26306.3
 14 12 2013  13 40  -21.0177 26072.9 -03498.6 -07.6425 26306.6
 14 12 2013  13 41  -21.0191 26073.0 -03498.4 -07.6421 26306.7
 14 12 2013  13 42  -21.0200 26073.4 -03498.3 -07.6417 26307.0
 14 12 2013  13 43  -21.0207 26073.9 -03498.3 -07.6416 26307.5
 14 12 2013  13 44  -21.0208 26073.6 -03497.9 -07.6409 26307.2
 14 12 2013  13 45  -21.0203 26073.3 -03497.7 -07.6405 26306.9
 14 12 2013  13 46  -21.0203 26073.3 -03497.7 -07.6404 26306.9
 14 12 2013  13 47  -21.0206 26073.1 -03497.6 -07.6403 26306.7
 14 12 2013  13 48  -21.0211 26072.9 -03497.5 -07.6402 26306.4
 14 12 2013  13 49  -21.0209 26072.1 -03497.2 -07.6398 26305.6
 14 12 2013  13 50  -21.0211 26072.0 -03497.3 -07.6400 26305.5
 14 12 2013  13 51  -21.0217 26071.6 -03497.2 -07.6400 26305.1
 14 12 2013  13 52  -21.0222 26070.6 -03497.0 -07.6397 26304.1
 14 12 2013  13 53  -21.0222 26070.9 -03497.3 -07.6404 26304.4
 14 12 2013  13 54  -21.0221 26071.7 -03497.8 -07.6413 26305.3
 14 12 2013  13 55  -21.0219 26072.3 -03498.1 -07.6418 26306.0
 14 12 2013  13 56  -21.0218 26072.8 -03498.3 -07.6419 26306.4
 14 12 2013  13 57  -21.0213 26072.8 -03498.2 -07.6417 26306.4
 14 12 2013  13 58  -21.0218 26073.0 -03498.2 -07.6418 26306.6
 14 12 2013  13 59  -21.0218 26073.4 -03498.3 -07.6418 26307.0
 14 12 2013  14 00  -21.0215 26073.2 -03498.1 -07.6414 26306.8
 14 12 2013  14 01  -21.0218 26073.7 -03498.2 -07.6414 26307.3
 14 12 2013  14 02  -21.0225 26073.9 -03498.2 -07.6414 26307.6
 14 12 2013  14 03  -21.0220 26074.1 -03498.1 -07.6411 26307.7
 14 12 2013  14 04  -21.0215 26074.3 -03498.0 -07.6409 26307.9
 14 12 2013  14 05  -21.0217 26074.2 -03497.8 -07.6406 26307.7
 14 12 2013  14 06  -21.0218 26073.7 -03497.6 -07.6401 26307.2
 14 12 2013  14 07  -21.0219 26073.8 -03497.5 -07.6400 26307.3
 14 12 2013  14 08  -21.0218 26074.1 -03497.6 -07.6401 26307.6
 14 12 2013  14 09  -21.0213 26074.4 -03497.5 -07.6399 26307.9
 14 12 2013  14 10  -21.0208 26074.3 -03497.3 -07.6394 26307.8
 14 12 2013  14 11  -21.0205 26073.5 -03496.8 -07.6385 26306.9
 14 12 2013  14 12  -21.0205 26073.2 -03496.6 -07.6382 26306.6
 14 12 2013  14 13  -21.0204 26072.7 -03496.4 -07.6378 26306.1
 14 12 2013  14 14  -21.0191 26072.3 -03496.1 -07.6374 26305.6
 14 12 2013  14 15  -21.0188 26072.2 -03496.1 -07.6375 26305.6
 14 12 2013  14 16  -21.0183 26072.0 -03496.1 -07.6374 26305.4
 14 12 2013  14 17  -21.0180 26071.6 -03496.0 -07.6373 26305.0
 14 12 2013  14 18  -21.0178 26072.0 -03496.2 -07.6377 26305.3
 14 12 2013  14 19  -21.0168 26072.0 -03496.3 -07.6378 26305.3
 14 12 2013  14 20  -21.0155 26071.6 -03496.1 -07.6376 26305.0
 14 12 2013  14 21  -21.0154 26071.9 -03496.3 -07.6378 26305.2
 14 12 2013  14 22  -21.0160 26072.4 -03496.5 -07.6381 26305.8
 14 12 2013  14 23  -21.0166 26072.3 -03496.3 -07.6378 26305.7
 14 12 2013  14 24  -21.0170 26072.2 -03496.1 -07.6373 26305.5
 14 12 2013  14 25  -21.0172 26072.2 -03495.9 -07.6370 26305.5
 14 12 2013  14 26  -21.0164 26071.7 -03495.6 -07.6365 26305.0
 14 12 2013  14 27  -21.0155 26071.7 -03495.5 -07.6363 26304.9
 14 12 2013  14 28  -21.0155 26071.3 -03495.4 -07.6361 26304.5
 14 12 2013  14 29  -21.0150 26070.7 -03495.2 -07.6358 26303.9
 14 12 2013  14 30  -21.0143 26070.4 -03495.2 -07.6359 26303.6
 14 12 2013  14 31  -21.0140 26070.8 -03495.5 -07.6364 26304.1
 14 12 2013  14 32  -21.0137 26071.0 -03495.7 -07.6368 26304.3
 14 12 2013  14 33  -21.0129 26071.1 -03495.7 -07.6369 26304.4
 14 12 2013  14 34  -21.0135 26072.1 -03496.1 -07.6374 26305.5
 14 12 2013  14 35  -21.0139 26073.4 -03496.5 -07.6380 26306.8
 14 12 2013  14 36  -21.0138 26073.7 -03496.3 -07.6375 26307.1
 14 12 2013  14 37  -21.0140 26074.0 -03496.2 -07.6370 26307.4
 14 12 2013  14 38  -21.0137 26073.9 -03495.8 -07.6363 26307.2
 14 12 2013  14 39  -21.0130 26073.6 -03495.5 -07.6357 26306.8
 14 12 2013  14 40  -21.0117 26073.1 -03495.2 -07.6352 26306.3
 14 12 2013  14 41  -21.0125 26073.9 -03495.5 -07.6356 26307.1
 14 12 2013  14 42  -21.0129 26074.7 -03495.7 -07.6359 26307.9
 14 12 2013  14 43  -21.0123 26074.6 -03495.4 -07.6352 26307.8
 14 12 2013  14 44  -21.0110 26074.4 -03495.0 -07.6344 26307.6
 14 12 2013  14 45  -21.0099 26074.0 -03494.5 -07.6335 26307.1
 14 12 2013  14 46  -21.0094 26073.7 -03494.4 -07.6332 26306.8
 14 12 2013  14 47  -21.0090 26073.9 -03494.5 -07.6335 26307.1
 14 12 2013  14 48  -21.0082 26074.0 -03494.5 -07.6335 26307.1
 14 12 2013  14 49  -21.0077 26073.9 -03494.4 -07.6333 26307.1
 14 12 2013  14 50  -21.0073 26074.0 -03494.3 -07.6331 26307.1
 14 12 2013  14 51  -21.0082 26074.7 -03494.6 -07.6334 26307.8
 14 12 2013  14 52  -21.0079 26074.6 -03494.4 -07.6330 26307.7
 14 12 2013  14 53  -21.0066 26073.7 -03493.8 -07.6320 26306.7
 14 12 2013  14 54  -21.0064 26073.5 -03493.7 -07.6318 26306.5
 14 12 2013  14 55  -21.0063 26073.5 -03493.6 -07.6315 26306.5
 14 12 2013  14 56  -21.0058 26072.5 -03493.0 -07.6307 26305.5
 14 12 2013  14 57  -21.0052 26071.2 -03492.4 -07.6298 26304.1
 14 12 2013  14 58  -21.0051 26069.7 -03492.0 -07.6293 26302.6
 14 12 2013  14 59  -21.0041 26068.7 -03491.9 -07.6292 26301.5
 14 12 2013  15 00  -21.0029 26068.3 -03492.0 -07.6298 26301.2
 14 12 2013  15 01  -21.0040 26068.4 -03492.6 -07.6309 26301.3
 14 12 2013  15 02  -21.0042 26068.1 -03492.7 -07.6313 26301.1
 14 12 2013  15 03  -21.0039 26068.2 -03492.9 -07.6317 26301.1
 14 12 2013  15 04  -21.0039 26068.5 -03493.2 -07.6321 26301.5
 14 12 2013  15 05  -21.0040 26068.6 -03493.0 -07.6317 26301.6
 14 12 2013  15 06  -21.0048 26068.3 -03492.9 -07.6315 26301.3
 14 12 2013  15 07  -21.0049 26067.5 -03492.6 -07.6311 26300.4
 14 12 2013  15 08  -21.0043 26066.4 -03492.3 -07.6308 26299.3
 14 12 2013  15 09  -21.0045 26065.6 -03492.3 -07.6310 26298.5
 14 12 2013  15 10  -21.0040 26065.0 -03492.3 -07.6312 26298.0
 14 12 2013  15 11  -21.0030 26064.4 -03492.3 -07.6314 26297.3
 14 12 2013  15 12  -21.0030 26063.9 -03492.4 -07.6318 26296.9
 14 12 2013  15 13  -21.0038 26063.9 -03492.7 -07.6325 26296.9
 14 12 2013  15 14  -21.0060 26065.0 -03493.5 -07.6339 26298.1
 14 12 2013  15 15  -21.0068 26065.7 -03493.8 -07.6343 26298.8
 14 12 2013  15 16  -21.0069 26066.2 -03493.9 -07.6343 26299.3
 14 12 2013  15 17  -21.0073 26067.1 -03494.1 -07.6345 26300.2
 14 12 2013  15 18  -21.0076 26067.3 -03494.1 -07.6345 26300.4
 14 12 2013  15 19  -21.0073 26067.5 -03494.2 -07.6347 26300.7
 14 12 2013  15 20  -21.0068 26069.4 -03495.1 -07.6360 26302.6
 14 12 2013  15 21  -21.0064 26071.4 -03495.8 -07.6370 26304.8
 14 12 2013  15 22  -21.0050 26072.5 -03495.9 -07.6369 26305.8
 14 12 2013  15 23  -21.0047 26073.5 -03496.0 -07.6367 26306.9
 14 12 2013  15 24  -21.0043 26073.4 -03495.5 -07.6358 26306.7
 14 12 2013  15 25  -21.0037 26073.2 -03495.1 -07.6350 26306.4
 14 12 2013  15 26  -21.0038 26073.2 -03494.9 -07.6346 26306.3
 14 12 2013  15 27  -21.0035 26073.2 -03494.8 -07.6343 26306.4
 14 12 2013  15 28  -21.0043 26074.0 -03495.1 -07.6347 26307.2
 14 12 2013  15 29  -21.0051 26074.9 -03495.3 -07.6350 26308.1
 14 12 2013  15 30  -21.0045 26074.4 -03494.9 -07.6341 26307.6
 14 12 2013  15 31  -21.0034 26072.9 -03494.1 -07.6328 26306.0
 14 12 2013  15 32  -21.0038 26071.9 -03493.7 -07.6322 26304.9
 14 12 2013  15 33  -21.0051 26072.1 -03494.0 -07.6328 26305.2
 14 12 2013  15 34  -21.0049 26072.1 -03494.0 -07.6329 26305.2
 14 12 2013  15 35  -21.0029 26071.6 -03493.7 -07.6324 26304.7
 14 12 2013  15 36  -21.0021 26070.9 -03493.6 -07.6323 26304.0
 14 12 2013  15 37  -21.0019 26070.0 -03493.4 -07.6322 26303.0
 14 12 2013  15 38  -21.0015 26069.9 -03493.6 -07.6327 26302.9
 14 12 2013  15 39  -21.0019 26069.9 -03493.8 -07.6332 26302.9
 14 12 2013  15 40  -21.0010 26069.5 -03493.8 -07.6332 26302.6
 14 12 2013  15 41  -21.0031 26070.4 -03494.3 -07.6341 26303.6
 14 12 2013  15 42  -21.0039 26070.0 -03494.2 -07.6339 26303.1
 14 12 2013  15 43  -21.0041 26069.0 -03493.7 -07.6332 26302.1
 14 12 2013  15 44  -21.0043 26068.1 -03493.6 -07.6331 26301.2
 14 12 2013  15 45  -21.0036 26067.3 -03493.5 -07.6331 26300.4
 14 12 2013  15 46  -21.0035 26066.5 -03493.6 -07.6335 26299.6
 14 12 2013  15 47  -21.0029 26065.8 -03493.6 -07.6339 26298.9
 14 12 2013  15 48  -21.0036 26065.8 -03494.0 -07.6348 26299.0
 14 12 2013  15 49  -21.0053 26065.7 -03494.4 -07.6355 26298.9
 14 12 2013  15 50  -21.0059 26065.4 -03494.4 -07.6357 26298.5
 14 12 2013  15 51  -21.0061 26064.7 -03494.4 -07.6358 26297.9
 14 12 2013  15 52  -21.0076 26064.7 -03494.7 -07.6366 26297.9
 14 12 2013  15 53  -21.0081 26063.7 -03494.6 -07.6366 26297.0
 14 12 2013  15 54  -21.0088 26062.8 -03494.4 -07.6365 26296.0
 14 12 2013  15 55  -21.0106 26062.3 -03494.6 -07.6370 26295.5
 14 12 2013  15 56  -21.0123 26062.0 -03494.8 -07.6376 26295.3
 14 12 2013  15 57  -21.0130 26062.1 -03495.1 -07.6382 26295.4
 14 12 2013  15 58  -21.0130 26061.3 -03494.9 -07.6379 26294.6
 14 12 2013  15 59  -21.0141 26060.8 -03494.9 -07.6381 26294.1
 14 12 2013  16 00  -21.0160 26060.5 -03495.0 -07.6385 26293.8
 14 12 2013  16 01  -21.0167 26059.7 -03494.8 -07.6382 26293.0
 14 12 2013  16 02  -21.0168 26059.2 -03494.7 -07.6382 26292.5
 14 12 2013  16 03  -21.0180 26059.1 -03494.9 -07.6386 26292.4
 14 12 2013  16 04  -21.0192 26058.4 -03494.8 -07.6386 26291.8
 14 12 2013  16 05  -21.0204 26058.3 -03495.0 -07.6390 26291.6
 14 12 2013  16 06  -21.0196 26057.4 -03494.7 -07.6387 26290.7
 14 12 2013  16 07  -21.0198 26056.4 -03494.5 -07.6385 26289.7
 14 12 2013  16 08  -21.0203 26055.5 -03494.3 -07.6384 26288.8
 14 12 2013  16 09  -21.0216 26054.3 -03494.2 -07.6385 26287.6
 14 12 2013  16 10  -21.0219 26052.7 -03493.8 -07.6381 26285.9
 14 12 2013  16 11  -21.0225 26050.9 -03493.5 -07.6379 26284.1
 14 12 2013  16 12  -21.0229 26050.2 -03493.7 -07.6386 26283.4
 14 12 2013  16 13  -21.0233 26049.4 -03493.8 -07.6390 26282.7
 14 12 2013  16 14  -21.0239 26048.3 -03493.7 -07.6391 26281.5
 14 12 2013  16 15  -21.0245 26047.5 -03493.7 -07.6394 26280.7
 14 12 2013  16 16  -21.0251 26046.7 -03493.8 -07.6399 26280.0
 14 12 2013  16 17  -21.0261 26046.3 -03494.1 -07.6406 26279.6
 14 12 2013  16 18  -21.0261 26045.1 -03494.0 -07.6406 26278.4
 14 12 2013  16 19  -21.0263 26044.2 -03493.9 -07.6408 26277.5
 14 12 2013  16 20  -21.0272 26043.7 -03494.1 -07.6414 26277.1
 14 12 2013  16 21  -21.0285 26042.8 -03494.0 -07.6414 26276.2
 14 12 2013  16 22  -21.0301 26042.5 -03494.1 -07.6417 26275.9
 14 12 2013  16 23  -21.0306 26042.5 -03494.2 -07.6418 26275.9
 14 12 2013  16 24  -21.0302 26042.1 -03494.0 -07.6416 26275.4
 14 12 2013  16 25  -21.0303 26041.9 -03494.1 -07.6419 26275.2
 14 12 2013  16 26  -21.0317 26042.7 -03494.6 -07.6427 26276.1
 14 12 2013  16 27  -21.0340 26042.4 -03494.6 -07.6427 26275.9
 14 12 2013  16 28  -21.0324 26040.9 -03494.0 -07.6419 26274.3
 14 12 2013  16 29  -21.0321 26042.2 -03494.8 -07.6433 26275.6
 14 12 2013  16 30  -21.0345 26042.3 -03494.7 -07.6430 26275.7
 14 12 2013  16 31  -21.0350 26041.3 -03493.9 -07.6416 26274.7
 14 12 2013  16 32  -21.0341 26038.8 -03492.7 -07.6398 26272.0
 14 12 2013  16 33  -21.0309 26034.9 -03491.5 -07.6382 26268.0
 14 12 2013  16 34  -21.0306 26033.8 -03491.7 -07.6390 26266.9
 14 12 2013  16 35  -21.0317 26032.3 -03491.5 -07.6390 26265.4
 14 12 2013  16 36  -21.0310 26030.4 -03491.0 -07.6386 26263.4
 14 12 2013  16 37  -21.0311 26029.9 -03491.5 -07.6397 26263.0
 14 12 2013  16 38  -21.0313 26030.3 -03492.2 -07.6412 26263.5
 14 12 2013  16 39  -21.0322 26030.4 -03492.7 -07.6421 26263.7
 14 12 2013  16 40  -21.0326 26030.5 -03493.0 -07.6427 26263.9
 14 12 2013  16 41  -21.0328 26030.1 -03492.9 -07.6427 26263.4
 14 12 2013  16 42  -21.0336 26029.2 -03492.7 -07.6425 26262.5
 14 12 2013  16 43  -21.0353 26028.1 -03492.4 -07.6422 26261.3
 14 12 2013  16 44  -21.0382 26028.3 -03492.7 -07.6427 26261.6
 14 12 2013  16 45  -21.0398 26028.7 -03492.9 -07.6431 26262.1
 14 12 2013  16 46  -21.0398 26029.4 -03493.1 -07.6434 26262.8
 14 12 2013  16 47  -21.0396 26029.3 -03493.1 -07.6433 26262.7
 14 12 2013  16 48  -21.0367 26027.8 -03492.2 -07.6419 26261.1
 14 12 2013  16 49  -21.0370 26027.4 -03492.1 -07.6418 26260.6
 14 12 2013  16 50  -21.0381 26026.2 -03491.6 -07.6411 26259.4
 14 12 2013  16 51  -21.0392 26025.2 -03491.3 -07.6407 26258.4
 14 12 2013  16 52  -21.0406 26025.6 -03491.8 -07.6417 26258.8
 14 12 2013  16 53  -21.0403 26024.8 -03491.7 -07.6417 26258.0
 14 12 2013  16 54  -21.0405 26024.7 -03491.9 -07.6422 26257.9
 14 12 2013  16 55  -21.0421 26024.8 -03492.2 -07.6428 26258.1
 14 12 2013  16 56  -21.0425 26024.7 -03492.2 -07.6426 26258.0
 14 12 2013  16 57  -21.0422 26024.0 -03491.9 -07.6422 26257.2
 14 12 2013  16 58  -21.0416 26023.3 -03491.7 -07.6420 26256.5
 14 12 2013  16 59  -21.0420 26022.9 -03491.8 -07.6424 26256.1
 14 12 2013  17 00  -21.0421 26021.8 -03491.5 -07.6421 26255.0
 14 12 2013  17 01  -21.0422 26021.7 -03491.7 -07.6425 26254.9
 14 12 2013  17 02  -21.0430 26021.2 -03491.8 -07.6428 26254.5
 14 12 2013  17 03  -21.0421 26020.5 -03491.6 -07.6426 26253.7
 14 12 2013  17 04  -21.0420 26020.3 -03491.7 -07.6429 26253.5
 14 12 2013  17 05  -21.0411 26019.7 -03491.5 -07.6426 26252.9
 14 12 2013  17 06  -21.0407 26019.4 -03491.5 -07.6429 26252.6
 14 12 2013  17 07  -21.0400 26018.4 -03491.3 -07.6427 26251.6
 14 12 2013  17 08  -21.0388 26017.6 -03491.2 -07.6427 26250.8
 14 12 2013  17 09  -21.0368 26016.4 -03491.1 -07.6427 26249.6
 14 12 2013  17 10  -21.0372 26015.5 -03491.2 -07.6431 26248.7
 14 12 2013  17 11  -21.0395 26015.1 -03491.5 -07.6439 26248.4
 14 12 2013  17 12  -21.0391 26014.0 -03491.1 -07.6434 26247.2
 14 12 2013  17 13  -21.0389 26012.6 -03490.7 -07.6430 26245.7
 14 12 2013  17 14  -21.0374 26011.0 -03490.6 -07.6433 26244.2
 14 12 2013  17 15  -21.0367 26009.9 -03490.8 -07.6440 26243.1
 14 12 2013  17 16  -21.0376 26009.3 -03491.1 -07.6449 26242.5
 14 12 2013  17 17  -21.0382 26009.3 -03491.6 -07.6459 26242.6
 14 12 2013  17 18  -21.0375 26008.7 -03491.7 -07.6462 26242.1
 14 12 2013  17 19  -21.0364 26008.5 -03491.9 -07.6468 26241.8
 14 12 2013  17 20  -21.0382 26008.9 -03492.5 -07.6479 26242.4
 14 12 2013  17 21  -21.0402 26009.2 -03492.8 -07.6485 26242.7
 14 12 2013  17 22  -21.0401 26008.6 -03492.5 -07.6480 26242.1
 14 12 2013  17 23  -21.0393 26008.1 -03492.3 -07.6477 26241.5
 14 12 2013  17 24  -21.0379 26007.2 -03492.0 -07.6473 26240.5
 14 12 2013  17 25  -21.0380 26007.0 -03492.2 -07.6479 26240.5
 14 12 2013  17 26  -21.0380 26006.1 -03491.9 -07.6474 26239.5
 14 12 2013  17 27  -21.0370 26004.7 -03491.3 -07.6466 26238.0
 14 12 2013  17 28  -21.0366 26004.4 -03491.5 -07.6472 26237.8
 14 12 2013  17 29  -21.0372 26004.2 -03491.8 -07.6478 26237.6
 14 12 2013  17 30  -21.0373 26003.8 -03491.8 -07.6479 26237.1
 14 12 2013  17 31  -21.0375 26003.2 -03491.8 -07.6481 26236.6
 14 12 2013  17 32  -21.0380 26002.3 -03491.7 -07.6481 26235.6
 14 12 2013  17 33  -21.0385 26002.2 -03491.9 -07.6486 26235.6
 14 12 2013  17 34  -21.0393 26002.2 -03492.2 -07.6492 26235.6
 14 12 2013  17 35  -21.0410 26002.7 -03492.5 -07.6499 26236.2
 14 12 2013  17 36  -21.0416 26002.8 -03492.6 -07.6499 26236.3
 14 12 2013  17 37  -21.0403 26001.8 -03492.0 -07.6490 26235.2
 14 12 2013  17 38  -21.0405 26002.0 -03492.2 -07.6494 26235.4
 14 12 2013  17 39  -21.0420 26002.5 -03492.7 -07.6502 26236.1
 14 12 2013  17 40  -21.0430 26002.8 -03492.7 -07.6503 26236.3
 14 12 2013  17 41  -21.0430 26002.5 -03492.5 -07.6498 26236.0
 14 12 2013  17 42  -21.0426 26001.7 -03492.1 -07.6492 26235.1
 14 12 2013  17 43  -21.0426 26000.7 -03491.8 -07.6489 26234.1
 14 12 2013  17 44  -21.0432 26000.1 -03491.9 -07.6491 26233.5
 14 12 2013  17 45  -21.0439 26000.1 -03492.2 -07.6498 26233.6
 14 12 2013  17 46  -21.0435 26000.1 -03492.3 -07.6502 26233.6
 14 12 2013  17 47  -21.0430 25999.7 -03492.2 -07.6500 26233.2
 14 12 2013  17 48  -21.0427 25999.3 -03492.2 -07.6500 26232.7
 14 12 2013  17 49  -21.0430 25999.0 -03492.2 -07.6502 26232.5
 14 12 2013  17 50  -21.0434 25998.9 -03492.3 -07.6505 26232.4
 14 12 2013  17 51  -21.0438 25998.4 -03492.2 -07.6504 26231.8
 14 12 2013  17 52  -21.0439 25998.5 -03492.5 -07.6509 26232.0
 14 12 2013  17 53  -21.0441 25998.9 -03492.9 -07.6518 26232.5
 14 12 2013  17 54  -21.0451 25998.7 -03493.0 -07.6521 26232.3
 14 12 2013  17 55  -21.0461 25998.9 -03493.1 -07.6523 26232.5
 14 12 2013  17 56  -21.0465 25998.9 -03493.3 -07.6525 26232.6
 14 12 2013  17 57  -21.0481 25999.1 -03493.5 -07.6529 26232.8
 14 12 2013  17 58  -21.0491 25999.2 -03493.6 -07.6531 26232.9
 14 12 2013  17 59  -21.0488 25998.9 -03493.6 -07.6532 26232.6
 14 12 2013  18 00  -21.0492 25998.6 -03493.7 -07.6536 26232.3
 14 12 2013  18 01  -21.0499 25999.4 -03494.3 -07.6547 26233.2
 14 12 2013  18 02  -21.0503 25999.9 -03494.6 -07.6552 26233.7
 14 12 2013  18 03  -21.0509 25999.9 -03494.6 -07.6552 26233.7
 14 12 2013  18 04  -21.0506 25999.6 -03494.6 -07.6552 26233.4
 14 12 2013  18 05  -21.0507 25999.4 -03494.9 -07.6558 26233.3
 14 12 2013  18 06  -21.0511 25999.7 -03495.4 -07.6570 26233.7
 14 12 2013  18 07  -21.0516 25999.6 -03495.6 -07.6574 26233.5
 14 12 2013  18 08  -21.0511 25999.3 -03495.7 -07.6578 26233.3
 14 12 2013  18 09  -21.0504 25999.0 -03496.0 -07.6584 26233.0
 14 12 2013  18 10  -21.0495 25998.8 -03496.3 -07.6590 26232.8
 14 12 2013  18 11  -21.0493 25998.1 -03496.4 -07.6595 26232.2
 14 12 2013  18 12  -21.0494 25997.7 -03496.5 -07.6598 26231.8
 14 12 2013  18 13  -21.0491 25996.8 -03496.5 -07.6601 26230.9
 14 12 2013  18 14  -21.0492 25996.7 -03496.9 -07.6610 26230.8
 14 12 2013  18 15  -21.0499 25995.9 -03497.0 -07.6614 26230.0
 14 12 2013  18 16  -21.0506 25995.6 -03497.3 -07.6623 26229.8
 14 12 2013  18 17  -21.0517 25995.2 -03497.5 -07.6627 26229.4
 14 12 2013  18 18  -21.0520 25995.0 -03497.6 -07.6631 26229.3
 14 12 2013  18 19  -21.0523 25994.7 -03497.8 -07.6635 26228.9
 14 12 2013  18 20  -21.0528 25993.8 -03497.7 -07.6637 26228.0
 14 12 2013  18 21  -21.0533 25992.6 -03497.6 -07.6638 26226.9
 14 12 2013  18 22  -21.0538 25991.9 -03497.7 -07.6642 26226.2
 14 12 2013  18 23  -21.0553 25991.4 -03497.8 -07.6646 26225.7
 14 12 2013  18 24  -21.0560 25991.1 -03498.0 -07.6650 26225.4
 14 12 2013  18 25  -21.0566 25990.2 -03497.8 -07.6649 26224.5
 14 12 2013  18 26  -21.0571 25989.0 -03497.5 -07.6646 26223.2
 14 12 2013  18 27  -21.0574 25988.6 -03497.6 -07.6649 26222.9
 14 12 2013  18 28  -21.0584 25987.9 -03497.6 -07.6651 26222.2
 14 12 2013  18 29  -21.0593 25988.0 -03497.9 -07.6658 26222.3
 14 12 2013  18 30  -21.0605 25987.6 -03498.1 -07.6663 26222.0
 14 12 2013  18 31  -21.0604 25987.3 -03498.2 -07.6666 26221.7
 14 12 2013  18 32  -21.0607 25986.9 -03498.2 -07.6668 26221.3
 14 12 2013  18 33  -21.0617 25986.6 -03498.4 -07.6672 26221.0
 14 12 2013  18 34  -21.0620 25985.9 -03498.3 -07.6673 26220.3
 14 12 2013  18 35  -21.0608 25985.2 -03498.3 -07.6674 26219.7
 14 12 2013  18 36  -21.0609 25984.8 -03498.5 -07.6679 26219.2
 14 12 2013  18 37  -21.0612 25984.4 -03498.6 -07.6683 26218.9
 14 12 2013  18 38  -21.0617 25983.9 -03498.6 -07.6686 26218.3
 14 12 2013  18 39  -21.0620 25983.4 -03498.8 -07.6689 26217.9
 14 12 2013  18 40  -21.0611 25983.2 -03498.9 -07.6694 26217.7
 14 12 2013  18 41  -21.0606 25983.2 -03499.4 -07.6704 26217.8
 14 12 2013  18 42  -21.0611 25983.5 -03499.9 -07.6713 26218.1
 14 12 2013  18 43  -21.0606 25984.2 -03500.4 -07.6723 26218.9
 14 12 2013  18 44  -21.0603 25984.5 -03500.8 -07.6731 26219.3
 14 12 2013  18 45  -21.0599 25984.6 -03501.0 -07.6733 26219.4
 14 12 2013  18 46  -21.0601 25984.3 -03501.0 -07.6735 26219.1
 14 12 2013  18 47  -21.0605 25983.6 -03500.7 -07.6731 26218.4
 14 12 2013  18 48  -21.0595 25983.5 -03500.6 -07.6730 26218.2
 14 12 2013  18 49  -21.0575 25984.5 -03501.3 -07.6741 26219.3
 14 12 2013  18 50  -21.0552 25985.9 -03502.5 -07.6763 26220.9
 14 12 2013  18 51  -21.0532 25987.1 -03503.3 -07.6778 26222.2
 14 12 2013  18 52  -21.0524 25987.1 -03503.6 -07.6783 26222.2
 14 12 2013  18 53  -21.0513 25986.1 -03503.2 -07.6778 26221.2
 14 12 2013  18 54  -21.0506 25985.4 -03503.0 -07.6775 26220.4
 14 12 2013  18 55  -21.0502 25985.4 -03503.2 -07.6780 26220.5
 14 12 2013  18 56  -21.0499 25985.6 -03503.5 -07.6786 26220.7
 14 12 2013  18 57  -21.0495 25985.8 -03503.9 -07.6793 26221.0
 14 12 2013  18 58  -21.0488 25986.5 -03504.4 -07.6803 26221.8
 14 12 2013  18 59  -21.0490 25987.9 -03505.3 -07.6818 26223.2
 14 12 2013  19 00  -21.0493 25988.4 -03505.8 -07.6827 26223.8
 14 12 2013  19 01  -21.0494 25988.5 -03506.1 -07.6833 26224.0
 14 12 2013  19 02  -21.0498 25988.4 -03506.3 -07.6838 26223.9
 14 12 2013  19 03  -21.0509 25988.6 -03506.6 -07.6845 26224.1
 14 12 2013  19 04  -21.0518 25989.1 -03507.1 -07.6853 26224.6
 14 12 2013  19 05  -21.0523 25989.6 -03507.5 -07.6860 26225.2
 14 12 2013  19 06  -21.0519 25990.6 -03508.0 -07.6869 26226.3
 14 12 2013  19 07  -21.0519 25990.9 -03508.3 -07.6874 26226.6
 14 12 2013  19 08  -21.0519 25990.9 -03508.3 -07.6874 26226.6
 14 12 2013  19 09  -21.0523 25990.9 -03508.4 -07.6875 26226.6
 14 12 2013  19 10  -21.0532 25991.7 -03508.9 -07.6884 26227.5
 14 12 2013  19 11  -21.0541 25991.7 -03508.9 -07.6886 26227.4
 14 12 2013  19 12  -21.0554 25990.9 -03508.5 -07.6877 26226.6
 14 12 2013  19 13  -21.0565 25990.5 -03508.2 -07.6874 26226.2
 14 12 2013  19 14  -21.0565 25990.2 -03508.2 -07.6874 26225.9
 14 12 2013  19 15  -21.0561 25989.8 -03508.1 -07.6872 26225.5
 14 12 2013  19 16  -21.0565 25989.4 -03507.8 -07.6868 26225.1
 14 12 2013  19 17  -21.0560 25988.8 -03507.5 -07.6862 26224.4
 14 12 2013  19 18  -21.0554 25988.8 -03507.5 -07.6864 26224.4
 14 12 2013  19 19  -21.0541 25988.6 -03507.6 -07.6865 26224.2
 14 12 2013  19 20  -21.0530 25988.5 -03507.7 -07.6867 26224.1
 14 12 2013  19 21  -21.0524 25988.4 -03507.9 -07.6872 26224.1
 14 12 2013  19 22  -21.0511 25988.3 -03507.9 -07.6873 26223.9
 14 12 2013  19 23  -21.0497 25988.0 -03507.9 -07.6873 26223.7
 14 12 2013  19 24  -21.0488 25988.0 -03508.0 -07.6877 26223.7
 14 12 2013  19 25  -21.0484 25988.2 -03508.4 -07.6885 26223.9
 14 12 2013  19 26  -21.0478 25988.7 -03508.9 -07.6894 26224.6
 14 12 2013  19 27  -21.0470 25989.2 -03509.2 -07.6899 26225.1
 14 12 2013  19 28  -21.0462 25989.7 -03509.5 -07.6904 26225.5
 14 12 2013  19 29  -21.0456 25990.3 -03509.9 -07.6910 26226.3
 14 12 2013  19 30  -21.0455 25990.9 -03510.3 -07.6917 26226.9
 14 12 2013  19 31  -21.0455 25991.4 -03510.6 -07.6922 26227.4
 14 12 2013  19 32  -21.0456 25991.6 -03510.7 -07.6923 26227.7
 14 12 2013  19 33  -21.0457 25991.9 -03510.7 -07.6924 26227.9
 14 12 2013  19 34  -21.0458 25991.9 -03510.7 -07.6923 26227.9
 14 12 2013  19 35  -21.0463 25991.8 -03510.7 -07.6923 26227.8
 14 12 2013  19 36  -21.0467 25991.6 -03510.6 -07.6922 26227.6
 14 12 2013  19 37  -21.0468 25991.6 -03510.6 -07.6922 26227.6
 14 12 2013  19 38  -21.0464 25992.0 -03510.8 -07.6924 26228.0
 14 12 2013  19 39  -21.0469 25992.0 -03510.7 -07.6924 26228.0
 14 12 2013  19 40  -21.0472 25992.1 -03510.7 -07.6922 26228.1
 14 12 2013  19 41  -21.0472 25992.1 -03510.6 -07.6920 26228.1
 14 12 2013  19 42  -21.0476 25992.2 -03510.6 -07.6920 26228.2
 14 12 2013  19 43  -21.0483 25992.4 -03510.7 -07.6921 26228.4
 14 12 2013  19 44  -21.0488 25992.0 -03510.5 -07.6918 26228.0
 14 12 2013  19 45  -21.0494 25991.7 -03510.4 -07.6917 26227.7
 14 12 2013  19 46  -21.0498 25992.2 -03510.6 -07.6920 26228.2
 14 12 2013  19 47  -21.0501 25992.7 -03510.9 -07.6924 26228.8
 14 12 2013  19 48  -21.0502 25992.8 -03510.9 -07.6925 26228.8
 14 12 2013  19 49  -21.0502 25992.3 -03510.6 -07.6920 26228.3
 14 12 2013  19 50  -21.0502 25993.1 -03511.0 -07.6926 26229.1
 14 12 2013  19 51  -21.0502 25994.2 -03511.6 -07.6936 26230.3
 14 12 2013  19 52  -21.0493 25994.8 -03511.8 -07.6939 26230.9
 14 12 2013  19 53  -21.0481 25994.8 -03511.8 -07.6939 26231.0
 14 12 2013  19 54  -21.0473 25994.8 -03511.8 -07.6939 26231.0
 14 12 2013  19 55  -21.0466 25994.8 -03511.8 -07.6939 26230.9
 14 12 2013  19 56  -21.0458 25994.4 -03511.6 -07.6936 26230.5
 14 12 2013  19 57  -21.0447 25995.1 -03512.0 -07.6942 26231.3
 14 12 2013  19 58  -21.0446 25995.7 -03512.5 -07.6950 26231.9
 14 12 2013  19 59  -21.0441 25996.6 -03513.0 -07.6958 26232.9
 14 12 2013  20 00  -21.0436 25996.3 -03512.9 -07.6957 26232.6
 14 12 2013  20 01  -21.0422 25997.6 -03513.4 -07.6965 26234.0
 14 12 2013  20 02  -21.0423 25997.3 -03513.5 -07.6968 26233.7
 14 12 2013  20 03  -21.0414 25997.4 -03513.4 -07.6966 26233.8
 14 12 2013  20 04  -21.0419 25996.8 -03513.3 -07.6965 26233.1
 14 12 2013  20 05  -21.0416 25996.8 -03513.3 -07.6965 26233.1
 14 12 2013  20 06  -21.0409 25997.1 -03513.4 -07.6967 26233.4
 14 12 2013  20 07  -21.0405 25997.7 -03513.8 -07.6974 26234.1
 14 12 2013  20 08  -21.0402 25997.0 -03513.5 -07.6970 26233.3
 14 12 2013  20 09  -21.0407 25996.5 -03513.3 -07.6965 26232.8
 14 12 2013  20 10  -21.0411 25996.8 -03513.4 -07.6967 26233.1
 14 12 2013  20 11  -21.0406 25997.8 -03513.9 -07.6975 26234.2
 14 12 2013  20 12  -21.0398 25998.3 -03514.2 -07.6980 26234.8
 14 12 2013  20 13  -21.0388 25998.5 -03514.3 -07.6981 26235.0
 14 12 2013  20 14  -21.0377 25998.6 -03514.3 -07.6981 26235.1
 14 12 2013  20 15  -21.0371 25998.9 -03514.5 -07.6984 26235.4
 14 12 2013  20 16  -21.0365 25999.5 -03514.7 -07.6988 26236.0
 14 12 2013  20 17  -21.0360 26000.1 -03515.0 -07.6992 26236.6
 14 12 2013  20 18  -21.0348 26002.1 -03515.9 -07.7006 26238.8
 14 12 2013  20 19  -21.0338 26003.3 -03516.5 -07.7015 26240.0
 14 12 2013  20 20  -21.0326 26004.5 -03517.0 -07.7023 26241.3
 14 12 2013  20 21  -21.0320 26005.1 -03517.2 -07.7026 26241.9
 14 12 2013  20 22  -21.0311 26005.7 -03517.3 -07.7025 26242.5
 14 12 2013  20 23  -21.0302 26006.8 -03517.7 -07.7030 26243.6
 14 12 2013  20 24  -21.0298 26007.0 -03517.7 -07.7030 26243.9
 14 12 2013  20 25  -21.0291 26006.8 -03517.4 -07.7025 26243.6
 14 12 2013  20 26  -21.0283 26007.4 -03517.5 -07.7025 26244.2
 14 12 2013  20 27  -21.0275 26008.8 -03518.0 -07.7033 26245.7
 14 12 2013  20 28  -21.0268 26009.6 -03518.5 -07.7039 26246.5
 14 12 2013  20 29  -21.0260 26008.7 -03517.9 -07.7030 26245.5
 14 12 2013  20 30  -21.0256 26007.8 -03517.2 -07.7018 26244.5
 14 12 2013  20 31  -21.0258 26007.8 -03517.1 -07.7016 26244.6
 14 12 2013  20 32  -21.0255 26008.0 -03517.1 -07.7015 26244.7
 14 12 2013  20 33  -21.0253 26008.2 -03517.1 -07.7014 26245.0
 14 12 2013  20 34  -21.0245 26008.7 -03517.2 -07.7014 26245.4
 14 12 2013  20 35  -21.0239 26009.3 -03517.5 -07.7018 26246.1
 14 12 2013  20 36  -21.0233 26009.6 -03517.6 -07.7020 26246.4
 14 12 2013  20 37  -21.0231 26009.1 -03517.3 -07.7016 26245.9
 14 12 2013  20 38  -21.0232 26009.2 -03517.2 -07.7013 26245.9
 14 12 2013  20 39  -21.0235 26009.6 -03517.3 -07.7015 26246.4
 14 12 2013  20 40  -21.0240 26009.6 -03517.3 -07.7014 26246.3
 14 12 2013  20 41  -21.0247 26009.5 -03517.1 -07.7011 26246.2
 14 12 2013  20 42  -21.0247 26009.6 -03517.1 -07.7009 26246.3
 14 12 2013  20 43  -21.0243 26009.9 -03517.1 -07.7009 26246.6
 14 12 2013  20 44  -21.0241 26010.3 -03517.2 -07.7011 26247.1
 14 12 2013  20 45  -21.0238 26010.6 -03517.4 -07.7012 26247.4
 14 12 2013  20 46  -21.0236 26009.4 -03516.7 -07.7001 26246.1
 14 12 2013  20 47  -21.0231 26009.2 -03516.3 -07.6994 26245.8
 14 12 2013  20 48  -21.0225 26009.6 -03516.4 -07.6994 26246.3
 14 12 2013  20 49  -21.0218 26009.0 -03516.1 -07.6990 26245.6
 14 12 2013  20 50  -21.0207 26008.8 -03515.8 -07.6983 26245.3
 14 12 2013  20 51  -21.0196 26009.5 -03516.0 -07.6987 26246.1
 14 12 2013  20 52  -21.0185 26010.0 -03516.2 -07.6990 26246.6
 14 12 2013  20 53  -21.0172 26010.0 -03516.2 -07.6990 26246.6
 14 12 2013  20 54  -21.0159 26009.7 -03516.0 -07.6986 26246.3
 14 12 2013  20 55  -21.0147 26009.2 -03515.7 -07.6982 26245.7
 14 12 2013  20 56  -21.0136 26008.8 -03515.5 -07.6977 26245.3
 14 12 2013  20 57  -21.0124 26009.1 -03515.5 -07.6978 26245.6
 14 12 2013  20 58  -21.0115 26009.3 -03515.7 -07.6980 26245.8
 14 12 2013  20 59  -21.0109 26008.9 -03515.5 -07.6978 26245.4
 14 12 2013  21 00  -21.0105 26008.9 -03515.6 -07.6980 26245.5
 14 12 2013  21 01  -21.0103 26009.0 -03515.8 -07.6983 26245.5
 14 12 2013  21 02  -21.0102 26008.5 -03515.6 -07.6982 26245.0
 14 12 2013  21 03  -21.0098 26008.9 -03515.9 -07.6985 26245.4
 14 12 2013  21 04  -21.0093 26010.0 -03516.5 -07.6996 26246.6
 14 12 2013  21 05  -21.0084 26010.4 -03516.9 -07.7003 26247.1
 14 12 2013  21 06  -21.0074 26011.0 -03517.3 -07.7009 26247.7
 14 12 2013  21 07  -21.0070 26011.3 -03517.5 -07.7014 26248.0
 14 12 2013  21 08  -21.0068 26010.9 -03517.5 -07.7014 26247.6
 14 12 2013  21 09  -21.0069 26010.2 -03517.2 -07.7010 26246.9
 14 12 2013  21 10  -21.0071 26010.0 -03517.1 -07.7009 26246.7
 14 12 2013  21 11  -21.0072 26010.3 -03517.4 -07.7014 26247.1
 14 12 2013  21 12  -21.0073 26010.4 -03517.5 -07.7016 26247.1
 14 12 2013  21 13  -21.0073 26010.5 -03517.6 -07.7018 26247.2
 14 12 2013  21 14  -21.0072 26010.3 -03517.5 -07.7017 26247.1
 14 12 2013  21 15  -21.0071 26010.3 -03517.5 -07.7017 26247.0
 14 12 2013  21 16  -21.0069 26010.1 -03517.4 -07.7016 26246.9
 14 12 2013  21 17  -21.0069 26009.3 -03517.0 -07.7009 26246.0
 14 12 2013  21 18  -21.0068 26008.8 -03516.7 -07.7004 26245.5
 14 12 2013  21 19  -21.0067 26008.8 -03516.7 -07.7004 26245.5
 14 12 2013  21 20  -21.0065 26008.3 -03516.5 -07.7001 26245.0
 14 12 2013  21 21  -21.0066 26008.2 -03516.5 -07.7000 26244.8
 14 12 2013  21 22  -21.0067 26008.1 -03516.5 -07.7001 26244.8
 14 12 2013  21 23  -21.0069 26008.2 -03516.6 -07.7003 26244.8
 14 12 2013  21 24  -21.0070 26008.6 -03516.9 -07.7008 26245.3
 14 12 2013  21 25  -21.0063 26009.3 -03517.2 -07.7014 26246.0
 14 12 2013  21 26  -21.0061 26009.6 -03517.5 -07.7019 26246.4
 14 12 2013  21 27  -21.0064 26009.5 -03517.5 -07.7020 26246.2
 14 12 2013  21 28  -21.0070 26008.9 -03517.4 -07.7018 26245.7
 14 12 2013  21 29  -21.0074 26008.5 -03517.2 -07.7015 26245.3
 14 12 2013  21 30  -21.0077 26008.4 -03517.2 -07.7016 26245.2
 14 12 2013  21 31  -21.0077 26008.1 -03517.1 -07.7014 26244.8
 14 12 2013  21 32  -21.0072 26008.4 -03517.2 -07.7016 26245.1
 14 12 2013  21 33  -21.0074 26008.4 -03517.4 -07.7019 26245.1
 14 12 2013  21 34  -21.0072 26008.4 -03517.5 -07.7021 26245.2
 14 12 2013  21 35  -21.0067 26008.4 -03517.6 -07.7023 26245.2
 14 12 2013  21 36  -21.0070 26007.8 -03517.4 -07.7021 26244.6
 14 12 2013  21 37  -21.0071 26007.6 -03517.3 -07.7021 26244.3
 14 12 2013  21 38  -21.0092 26005.1 -03516.3 -07.7006 26241.7
 14 12 2013  21 39  -21.0089 26005.3 -03516.2 -07.7003 26242.0
 14 12 2013  21 40  -21.0086 26006.5 -03516.9 -07.7014 26243.2
 14 12 2013  21 41  -21.0084 26006.4 -03517.1 -07.7018 26243.2
 14 12 2013  21 42  -21.0087 26006.0 -03516.9 -07.7017 26242.7
 14 12 2013  21 43  -21.0090 26006.2 -03517.1 -07.7020 26243.0
 14 12 2013  21 44  -21.0090 26006.6 -03517.3 -07.7024 26243.3
 14 12 2013  21 45  -21.0089 26006.3 -03517.3 -07.7024 26243.1
 14 12 2013  21 46  -21.0090 26005.9 -03517.1 -07.7021 26242.7
 14 12 2013  21 47  -21.0093 26005.4 -03516.9 -07.7019 26242.2
 14 12 2013  21 48  -21.0093 26004.9 -03516.7 -07.7015 26241.6
 14 12 2013  21 49  -21.0089 26004.4 -03516.5 -07.7012 26241.1
 14 12 2013  21 50  -21.0094 26003.2 -03515.9 -07.7004 26239.8
 14 12 2013  21 51  -21.0096 26002.2 -03515.5 -07.6997 26238.8
 14 12 2013  21 52  -21.0093 26002.1 -03515.4 -07.6996 26238.6
 14 12 2013  21 53  -21.0088 26002.4 -03515.7 -07.7000 26239.0
 14 12 2013  21 54  -21.0084 26002.9 -03516.1 -07.7008 26239.6
 14 12 2013  21 55  -21.0078 26003.4 -03516.4 -07.7014 26240.1
 14 12 2013  21 56  -21.0074 26003.3 -03516.6 -07.7017 26240.0
 14 12 2013  21 57  -21.0065 26003.6 -03516.7 -07.7019 26240.3
 14 12 2013  21 58  -21.0054 26004.1 -03517.0 -07.7024 26240.9
 14 12 2013  21 59  -21.0044 26004.3 -03517.2 -07.7027 26241.0
 14 12 2013  22 00  -21.0043 26003.2 -03516.8 -07.7023 26240.0
 14 12 2013  22 01  -21.0037 26002.6 -03516.5 -07.7017 26239.3
 14 12 2013  22 02  -21.0032 26002.4 -03516.4 -07.7016 26239.1
 14 12 2013  22 03  -21.0027 26002.7 -03516.6 -07.7019 26239.4
 14 12 2013  22 04  -21.0024 26002.9 -03516.8 -07.7024 26239.6
 14 12 2013  22 05  -21.0025 26002.7 -03516.8 -07.7025 26239.4
 14 12 2013  22 06  -21.0024 26002.7 -03516.9 -07.7027 26239.5
 14 12 2013  22 07  -21.0020 26003.0 -03517.1 -07.7030 26239.8
 14 12 2013  22 08  -21.0017 26003.0 -03517.2 -07.7031 26239.8
 14 12 2013  22 09  -21.0010 26003.3 -03517.3 -07.7033 26240.2
 14 12 2013  22 10  -21.0003 26003.9 -03517.6 -07.7038 26240.7
 14 12 2013  22 11  -20.9995 26004.7 -03518.0 -07.7045 26241.6
 14 12 2013  22 12  -20.9988 26005.2 -03518.4 -07.7050 26242.2
 14 12 2013  22 13  -20.9986 26005.1 -03518.4 -07.7051 26242.1
 14 12 2013  22 14  -20.9983 26005.1 -03518.4 -07.7050 26242.0
 14 12 2013  22 15  -20.9979 26004.9 -03518.3 -07.7049 26241.8
 14 12 2013  22 16  -20.9980 26004.6 -03518.1 -07.7047 26241.5
 14 12 2013  22 17  -20.9978 26004.3 -03518.0 -07.7046 26241.2
 14 12 2013  22 18  -20.9977 26003.5 -03517.7 -07.7040 26240.4
 14 12 2013  22 19  -20.9981 26002.3 -03517.0 -07.7030 26239.0
 14 12 2013  22 20  -20.9971 26002.9 -03517.2 -07.7032 26239.7
 14 12 2013  22 21  -20.9971 26003.3 -03517.6 -07.7038 26240.1
 14 12 2013  22 22  -20.9983 26002.4 -03517.4 -07.7037 26239.2
 14 12 2013  22 23  -21.0004 26000.3 -03516.5 -07.7024 26237.0
 14 12 2013  22 24  -21.0026 25998.8 -03515.8 -07.7013 26235.5
 14 12 2013  22 25  -21.0026 25998.8 -03515.7 -07.7011 26235.5
 14 12 2013  22 26  -21.0023 25999.1 -03515.9 -07.7014 26235.8
 14 12 2013  22 27  -21.0033 25998.8 -03515.9 -07.7015 26235.4
 14 12 2013  22 28  -21.0035 25999.1 -03516.1 -07.7019 26235.7
 14 12 2013  22 29  -21.0037 25999.7 -03516.5 -07.7025 26236.5
 14 12 2013  22 30  -21.0031 26001.8 -03517.5 -07.7042 26238.7
 14 12 2013  22 31  -21.0028 26003.8 -03518.6 -07.7060 26240.8
 14 12 2013  22 32  -21.0035 26003.9 -03518.8 -07.7064 26240.9
 14 12 2013  22 33  -21.0037 26003.8 -03518.7 -07.7062 26240.8
 14 12 2013  22 34  -21.0031 26004.5 -03518.9 -07.7063 26241.5
 14 12 2013  22 35  -21.0032 26004.2 -03518.7 -07.7061 26241.2
 14 12 2013  22 36  -21.0038 26004.5 -03518.8 -07.7061 26241.5
 14 12 2013  22 37  -21.0031 26005.5 -03519.1 -07.7066 26242.5
 14 12 2013  22 38  -21.0023 26006.1 -03519.4 -07.7069 26243.1
 14 12 2013  22 39  -21.0013 26006.3 -03519.4 -07.7069 26243.4
 14 12 2013  22 40  -21.0003 26006.4 -03519.4 -07.7068 26243.5
 14 12 2013  22 41  -20.9994 26006.5 -03519.3 -07.7067 26243.6
 14 12 2013  22 42  -20.9981 26007.5 -03519.6 -07.7071 26244.6
 14 12 2013  22 43  -20.9989 26006.9 -03519.5 -07.7070 26243.9
 14 12 2013  22 44  -20.9984 26006.5 -03519.2 -07.7064 26243.6
 14 12 2013  22 45  -20.9980 26006.5 -03519.1 -07.7063 26243.5
 14 12 2013  22 46  -20.9982 26005.4 -03518.6 -07.7055 26242.4
 14 12 2013  22 47  -20.9974 26005.1 -03518.3 -07.7048 26242.0
 14 12 2013  22 48  -20.9966 26005.4 -03518.4 -07.7050 26242.3
 14 12 2013  22 49  -20.9969 26004.9 -03518.3 -07.7049 26241.8
 14 12 2013  22 50  -20.9959 26005.2 -03518.4 -07.7050 26242.2
 14 12 2013  22 51  -20.9953 26005.7 -03518.6 -07.7055 26242.7
 14 12 2013  22 52  -20.9952 26005.5 -03518.7 -07.7057 26242.5
 14 12 2013  22 53  -20.9957 26004.4 -03518.3 -07.7051 26241.4
 14 12 2013  22 54  -20.9957 26003.2 -03517.6 -07.7040 26240.0
 14 12 2013  22 55  -20.9948 26002.9 -03517.4 -07.7035 26239.7
 14 12 2013  22 56  -20.9945 26003.1 -03517.5 -07.7039 26239.9
 14 12 2013  22 57  -20.9953 26002.7 -03517.5 -07.7040 26239.5
 14 12 2013  22 58  -20.9950 26003.2 -03517.8 -07.7044 26240.1
 14 12 2013  22 59  -20.9929 26004.9 -03518.6 -07.7056 26241.9
 14 12 2013  23 00  -20.9927 26006.0 -03519.4 -07.7069 26243.1
 14 12 2013  23 01  -20.9960 26004.5 -03519.1 -07.7067 26241.6
 14 12 2013  23 02  -20.9991 26002.6 -03518.1 -07.7053 26239.5
 14 12 2013  23 03  -20.9997 26001.4 -03517.4 -07.7040 26238.2
 14 12 2013  23 04  -20.9986 26001.2 -03517.1 -07.7034 26238.0
 14 12 2013  23 05  -20.9976 26001.9 -03517.3 -07.7038 26238.8
 14 12 2013  23 06  -20.9981 26002.4 -03517.7 -07.7044 26239.3
 14 12 2013  23 07  -20.9980 26002.7 -03518.0 -07.7049 26239.6
 14 12 2013  23 08  -20.9971 26003.1 -03518.1 -07.7051 26240.0
 14 12 2013  23 09  -20.9961 26003.9 -03518.5 -07.7057 26240.9
 14 12 2013  23 10  -20.9951 26005.5 -03519.2 -07.7068 26242.5
 14 12 2013  23 11  -20.9948 26007.4 -03520.2 -07.7084 26244.5
 14 12 2013  23 12  -20.9949 26008.7 -03521.0 -07.7097 26246.0
 14 12 2013  23 13  -20.9943 26009.5 -03521.4 -07.7103 26246.8
 14 12 2013  23 14  -20.9947 26009.2 -03521.2 -07.7100 26246.5
 14 12 2013  23 15  -20.9945 26008.5 -03520.7 -07.7091 26245.7
 14 12 2013  23 16  -20.9942 26007.6 -03520.1 -07.7081 26244.8
 14 12 2013  23 17  -20.9941 26006.7 -03519.5 -07.7071 26243.7
 14 12 2013  23 18  -20.9944 26005.9 -03519.1 -07.7064 26242.9
 14 12 2013  23 19  -20.9943 26005.9 -03519.0 -07.7063 26242.9
 14 12 2013  23 20  -20.9945 26006.3 -03519.3 -07.7066 26243.3
 14 12 2013  23 21  -20.9946 26006.7 -03519.5 -07.7071 26243.8
 14 12 2013  23 22  -20.9950 26006.6 -03519.6 -07.7072 26243.7
 14 12 2013  23 23  -20.9961 26005.8 -03519.2 -07.7067 26242.8
 14 12 2013  23 24  -20.9968 26004.7 -03518.7 -07.7058 26241.6
 14 12 2013  23 25  -20.9961 26003.7 -03518.1 -07.7048 26240.6
 14 12 2013  23 26  -20.9943 26004.1 -03518.1 -07.7047 26241.0
 14 12 2013  23 27  -20.9930 26005.9 -03519.0 -07.7062 26242.9
 14 12 2013  23 28  -20.9934 26007.3 -03519.9 -07.7078 26244.4
 14 12 2013  23 29  -20.9934 26007.5 -03520.2 -07.7083 26244.7
 14 12 2013  23 30  -20.9931 26006.8 -03519.8 -07.7076 26243.9
 14 12 2013  23 31  -20.9929 26006.0 -03519.4 -07.7069 26243.1
 14 12 2013  23 32  -20.9926 26005.5 -03519.0 -07.7064 26242.5
 14 12 2013  23 33  -20.9925 26005.2 -03518.9 -07.7061 26242.2
 14 12 2013  23 34  -20.9926 26005.4 -03518.9 -07.7062 26242.4
 14 12 2013  23 35  -20.9934 26005.5 -03519.1 -07.7064 26242.5
 14 12 2013  23 36  -20.9944 26005.7 -03519.3 -07.7068 26242.7
 14 12 2013  23 37  -20.9951 26006.3 -03519.5 -07.7072 26243.3
 14 12 2013  23 38  -20.9956 26006.8 -03519.8 -07.7076 26243.9
 14 12 2013  23 39  -20.9956 26007.3 -03520.0 -07.7079 26244.4
 14 12 2013  23 40  -20.9958 26006.8 -03519.7 -07.7075 26243.9
 14 12 2013  23 41  -20.9962 26005.8 -03519.2 -07.7066 26242.9
 14 12 2013  23 42  -20.9966 26005.0 -03518.7 -07.7058 26242.0
 14 12 2013  23 43  -20.9964 26004.5 -03518.3 -07.7052 26241.5
 14 12 2013  23 44  -20.9969 26004.4 -03518.3 -07.7051 26241.4
 14 12 2013  23 45  -20.9970 26004.7 -03518.4 -07.7053 26241.6
 14 12 2013  23 46  -20.9974 26004.9 -03518.6 -07.7056 26241.8
 14 12 2013  23 47  -20.9980 26004.8 -03518.6 -07.7057 26241.8
 14 12 2013  23 48  -20.9985 26004.8 -03518.6 -07.7057 26241.8
 14 12 2013  23 49  -20.9986 26004.8 -03518.6 -07.7057 26241.8
 14 12 2013  23 50  -20.9986 26004.9 -03518.7 -07.7057 26241.9
 14 12 2013  23 51  -20.9985 26005.1 -03518.8 -07.7059 26242.1
 14 12 2013  23 52  -20.9982 26005.7 -03519.1 -07.7063 26242.8
 14 12 2013  23 53  -20.9978 26006.3 -03519.3 -07.7068 26243.3
 14 12 2013  23 54  -20.9981 26006.1 -03519.3 -07.7068 26243.2
 14 12 2013  23 55  -20.9984 26005.4 -03519.0 -07.7063 26242.4
 14 12 2013  23 56  -20.9978 26004.7 -03518.5 -07.7055 26241.6
 14 12 2013  23 57  -20.9975 26004.4 -03518.4 -07.7053 26241.3
