SAO LUIS EMBRACE-03 <163> 1 Min. Reported data

 DD MM YYYY  HH MM   D(Deg)  H(nT)   Z(nT)   I(Deg)   F(nT)

 12 06 2013  00 00  -21.0345 26022.4 -03448.4 -07.5486 26249.9
 12 06 2013  00 01  -21.0343 26022.2 -03448.3 -07.5486 26249.7
 12 06 2013  00 02  -21.0340 26022.1 -03448.2 -07.5484 26249.6
 12 06 2013  00 03  -21.0339 26022.0 -03448.2 -07.5484 26249.5
 12 06 2013  00 04  -21.0341 26021.9 -03448.3 -07.5485 26249.4
 12 06 2013  00 05  -21.0345 26021.9 -03448.3 -07.5486 26249.3
 12 06 2013  00 06  -21.0349 26021.8 -03448.4 -07.5487 26249.3
 12 06 2013  00 07  -21.0351 26021.9 -03448.4 -07.5488 26249.4
 12 06 2013  00 08  -21.0352 26021.8 -03448.4 -07.5488 26249.3
 12 06 2013  00 09  -21.0351 26021.7 -03448.3 -07.5487 26249.2
 12 06 2013  00 10  -21.0349 26021.6 -03448.3 -07.5487 26249.1
 12 06 2013  00 11  -21.0347 26021.6 -03448.3 -07.5488 26249.1
 12 06 2013  00 12  -21.0343 26021.6 -03448.3 -07.5488 26249.1
 12 06 2013  00 13  -21.0341 26021.6 -03448.4 -07.5488 26249.1
 12 06 2013  00 14  -21.0338 26021.6 -03448.4 -07.5489 26249.1
 12 06 2013  00 15  -21.0336 26021.6 -03448.4 -07.5489 26249.1
 12 06 2013  00 16  -21.0336 26021.5 -03448.4 -07.5489 26249.0
 12 06 2013  00 17  -21.0337 26021.5 -03448.5 -07.5491 26249.0
 12 06 2013  00 18  -21.0339 26021.4 -03448.5 -07.5491 26248.9
 12 06 2013  00 19  -21.0339 26021.5 -03448.5 -07.5491 26249.0
 12 06 2013  00 20  -21.0339 26021.4 -03448.6 -07.5492 26249.0
 12 06 2013  00 21  -21.0339 26021.4 -03448.5 -07.5493 26248.9
 12 06 2013  00 22  -21.0339 26021.2 -03448.5 -07.5492 26248.7
 12 06 2013  00 23  -21.0338 26021.1 -03448.4 -07.5491 26248.6
 12 06 2013  00 24  -21.0337 26021.0 -03448.4 -07.5490 26248.5
 12 06 2013  00 25  -21.0336 26021.1 -03448.4 -07.5491 26248.6
 12 06 2013  00 26  -21.0338 26021.1 -03448.5 -07.5492 26248.7
 12 06 2013  00 27  -21.0341 26021.1 -03448.6 -07.5494 26248.6
 12 06 2013  00 28  -21.0343 26021.0 -03448.5 -07.5493 26248.6
 12 06 2013  00 29  -21.0342 26021.0 -03448.5 -07.5492 26248.5
 12 06 2013  00 30  -21.0340 26020.9 -03448.4 -07.5492 26248.4
 12 06 2013  00 31  -21.0338 26020.7 -03448.4 -07.5491 26248.2
 12 06 2013  00 32  -21.0335 26020.7 -03448.4 -07.5490 26248.2
 12 06 2013  00 33  -21.0334 26020.7 -03448.4 -07.5491 26248.2
 12 06 2013  00 34  -21.0333 26020.7 -03448.4 -07.5492 26248.2
 12 06 2013  00 35  -21.0331 26020.7 -03448.5 -07.5493 26248.2
 12 06 2013  00 36  -21.0330 26020.6 -03448.5 -07.5493 26248.1
 12 06 2013  00 37  -21.0332 26020.4 -03448.4 -07.5492 26248.0
 12 06 2013  00 38  -21.0332 26020.4 -03448.4 -07.5492 26247.9
 12 06 2013  00 39  -21.0330 26020.4 -03448.4 -07.5492 26247.9
 12 06 2013  00 40  -21.0329 26020.5 -03448.5 -07.5494 26248.1
 12 06 2013  00 41  -21.0329 26020.6 -03448.6 -07.5495 26248.2
 12 06 2013  00 42  -21.0328 26020.6 -03448.6 -07.5496 26248.2
 12 06 2013  00 43  -21.0328 26020.7 -03448.7 -07.5497 26248.2
 12 06 2013  00 44  -21.0328 26020.8 -03448.7 -07.5498 26248.3
 12 06 2013  00 45  -21.0327 26020.8 -03448.7 -07.5498 26248.3
 12 06 2013  00 46  -21.0327 26020.8 -03448.8 -07.5499 26248.4
 12 06 2013  00 47  -21.0327 26020.9 -03448.8 -07.5500 26248.4
 12 06 2013  00 48  -21.0327 26020.9 -03448.8 -07.5500 26248.4
 12 06 2013  00 49  -21.0327 26020.9 -03448.8 -07.5500 26248.4
 12 06 2013  00 50  -21.0327 26021.0 -03448.9 -07.5502 26248.6
 12 06 2013  00 51  -21.0327 26021.0 -03449.0 -07.5503 26248.6
 12 06 2013  00 52  -21.0328 26021.2 -03449.0 -07.5504 26248.7
 12 06 2013  00 53  -21.0327 26021.2 -03449.1 -07.5505 26248.8
 12 06 2013  00 54  -21.0326 26021.3 -03449.1 -07.5505 26248.9
 12 06 2013  00 55  -21.0324 26021.5 -03449.2 -07.5506 26249.1
 12 06 2013  00 56  -21.0323 26021.6 -03449.2 -07.5507 26249.2
 12 06 2013  00 57  -21.0321 26021.7 -03449.3 -07.5507 26249.3
 12 06 2013  00 58  -21.0320 26021.8 -03449.3 -07.5508 26249.4
 12 06 2013  00 59  -21.0318 26021.8 -03449.3 -07.5509 26249.5
 12 06 2013  01 00  -21.0314 26021.9 -03449.4 -07.5509 26249.5
 12 06 2013  01 01  -21.0312 26022.0 -03449.4 -07.5509 26249.6
 12 06 2013  01 02  -21.0312 26022.0 -03449.4 -07.5510 26249.6
 12 06 2013  01 03  -21.0313 26022.1 -03449.5 -07.5510 26249.7
 12 06 2013  01 04  -21.0313 26022.3 -03449.5 -07.5511 26249.9
 12 06 2013  01 05  -21.0311 26022.4 -03449.6 -07.5513 26250.1
 12 06 2013  01 06  -21.0310 26022.6 -03449.7 -07.5514 26250.2
 12 06 2013  01 07  -21.0310 26022.7 -03449.7 -07.5514 26250.3
 12 06 2013  01 08  -21.0311 26022.5 -03449.7 -07.5513 26250.2
 12 06 2013  01 09  -21.0313 26022.4 -03449.6 -07.5512 26250.0
 12 06 2013  01 10  -21.0314 26022.2 -03449.5 -07.5511 26249.9
 12 06 2013  01 11  -21.0315 26022.1 -03449.5 -07.5510 26249.8
 12 06 2013  01 12  -21.0315 26022.1 -03449.4 -07.5509 26249.7
 12 06 2013  01 13  -21.0314 26022.1 -03449.4 -07.5509 26249.7
 12 06 2013  01 14  -21.0314 26022.1 -03449.4 -07.5509 26249.7
 12 06 2013  01 15  -21.0313 26022.2 -03449.4 -07.5509 26249.8
 12 06 2013  01 16  -21.0312 26022.2 -03449.5 -07.5510 26249.8
 12 06 2013  01 17  -21.0311 26022.1 -03449.4 -07.5509 26249.8
 12 06 2013  01 18  -21.0312 26022.0 -03449.4 -07.5509 26249.7
 12 06 2013  01 19  -21.0314 26021.9 -03449.3 -07.5508 26249.5
 12 06 2013  01 20  -21.0314 26021.8 -03449.3 -07.5508 26249.4
 12 06 2013  01 21  -21.0312 26021.9 -03449.3 -07.5508 26249.5
 12 06 2013  01 22  -21.0313 26022.0 -03449.4 -07.5510 26249.7
 12 06 2013  01 23  -21.0313 26022.2 -03449.6 -07.5512 26249.9
 12 06 2013  01 24  -21.0313 26022.5 -03449.7 -07.5514 26250.1
 12 06 2013  01 25  -21.0312 26022.7 -03449.8 -07.5516 26250.4
 12 06 2013  01 26  -21.0309 26022.9 -03449.9 -07.5517 26250.6
 12 06 2013  01 27  -21.0310 26023.1 -03450.0 -07.5519 26250.8
 12 06 2013  01 28  -21.0316 26023.2 -03450.1 -07.5520 26250.9
 12 06 2013  01 29  -21.0320 26023.3 -03450.1 -07.5521 26251.0
 12 06 2013  01 30  -21.0321 26023.7 -03450.2 -07.5522 26251.4
 12 06 2013  01 31  -21.0320 26023.8 -03450.3 -07.5523 26251.6
 12 06 2013  01 32  -21.0322 26023.8 -03450.3 -07.5523 26251.6
 12 06 2013  01 33  -21.0322 26023.9 -03450.3 -07.5523 26251.7
 12 06 2013  01 34  -21.0324 26023.9 -03450.2 -07.5521 26251.6
 12 06 2013  01 35  -21.0326 26023.9 -03450.2 -07.5521 26251.7
 12 06 2013  01 36  -21.0330 26023.8 -03450.1 -07.5520 26251.5
 12 06 2013  01 37  -21.0333 26023.7 -03450.1 -07.5519 26251.4
 12 06 2013  01 38  -21.0334 26023.7 -03450.1 -07.5518 26251.4
 12 06 2013  01 39  -21.0331 26023.8 -03450.1 -07.5518 26251.5
 12 06 2013  01 40  -21.0329 26023.9 -03450.0 -07.5518 26251.6
 12 06 2013  01 41  -21.0329 26023.7 -03450.0 -07.5516 26251.4
 12 06 2013  01 42  -21.0329 26023.6 -03449.9 -07.5515 26251.3
 12 06 2013  01 43  -21.0327 26023.4 -03449.8 -07.5514 26251.1
 12 06 2013  01 44  -21.0325 26023.3 -03449.7 -07.5512 26250.9
 12 06 2013  01 45  -21.0323 26023.2 -03449.7 -07.5511 26250.9
 12 06 2013  01 46  -21.0323 26023.1 -03449.6 -07.5511 26250.7
 12 06 2013  01 47  -21.0323 26023.0 -03449.6 -07.5510 26250.7
 12 06 2013  01 48  -21.0323 26022.9 -03449.6 -07.5510 26250.6
 12 06 2013  01 49  -21.0323 26022.8 -03449.5 -07.5509 26250.4
 12 06 2013  01 50  -21.0325 26022.7 -03449.4 -07.5508 26250.3
 12 06 2013  01 51  -21.0326 26022.6 -03449.4 -07.5508 26250.2
 12 06 2013  01 52  -21.0327 26022.5 -03449.4 -07.5508 26250.1
 12 06 2013  01 53  -21.0325 26022.4 -03449.3 -07.5506 26250.0
 12 06 2013  01 54  -21.0323 26022.5 -03449.4 -07.5507 26250.1
 12 06 2013  01 55  -21.0320 26022.5 -03449.4 -07.5508 26250.2
 12 06 2013  01 56  -21.0318 26022.7 -03449.5 -07.5509 26250.3
 12 06 2013  01 57  -21.0318 26022.7 -03449.6 -07.5511 26250.4
 12 06 2013  01 58  -21.0319 26022.8 -03449.6 -07.5512 26250.5
 12 06 2013  01 59  -21.0322 26022.8 -03449.6 -07.5512 26250.4
 12 06 2013  02 00  -21.0323 26022.7 -03449.6 -07.5512 26250.4
 12 06 2013  02 01  -21.0324 26022.6 -03449.6 -07.5511 26250.2
 12 06 2013  02 02  -21.0326 26022.5 -03449.6 -07.5511 26250.2
 12 06 2013  02 03  -21.0326 26022.6 -03449.6 -07.5511 26250.3
 12 06 2013  02 04  -21.0328 26022.8 -03449.7 -07.5512 26250.5
 12 06 2013  02 05  -21.0328 26023.0 -03449.8 -07.5514 26250.7
 12 06 2013  02 06  -21.0328 26023.1 -03449.8 -07.5515 26250.8
 12 06 2013  02 07  -21.0326 26023.3 -03449.9 -07.5517 26251.0
 12 06 2013  02 08  -21.0325 26023.6 -03450.0 -07.5518 26251.3
 12 06 2013  02 09  -21.0323 26024.0 -03450.2 -07.5520 26251.7
 12 06 2013  02 10  -21.0320 26024.2 -03450.2 -07.5521 26251.9
 12 06 2013  02 11  -21.0319 26024.4 -03450.3 -07.5523 26252.1
 12 06 2013  02 12  -21.0319 26024.4 -03450.3 -07.5522 26252.1
 12 06 2013  02 13  -21.0320 26024.4 -03450.3 -07.5521 26252.2
 12 06 2013  02 14  -21.0321 26024.4 -03450.3 -07.5521 26252.1
 12 06 2013  02 15  -21.0321 26024.3 -03450.2 -07.5520 26252.1
 12 06 2013  02 16  -21.0322 26024.1 -03450.1 -07.5518 26251.8
 12 06 2013  02 17  -21.0322 26023.9 -03449.9 -07.5515 26251.6
 12 06 2013  02 18  -21.0321 26023.8 -03449.9 -07.5514 26251.5
 12 06 2013  02 19  -21.0318 26023.9 -03449.9 -07.5514 26251.6
 12 06 2013  02 20  -21.0314 26024.1 -03449.9 -07.5515 26251.7
 12 06 2013  02 21  -21.0310 26024.0 -03450.0 -07.5515 26251.7
 12 06 2013  02 22  -21.0308 26024.1 -03450.0 -07.5516 26251.8
 12 06 2013  02 23  -21.0306 26024.3 -03450.0 -07.5516 26251.9
 12 06 2013  02 24  -21.0304 26024.3 -03450.1 -07.5517 26252.0
 12 06 2013  02 25  -21.0303 26024.4 -03450.1 -07.5518 26252.1
 12 06 2013  02 26  -21.0302 26024.3 -03450.1 -07.5517 26252.0
 12 06 2013  02 27  -21.0301 26024.3 -03450.1 -07.5517 26252.0
 12 06 2013  02 28  -21.0301 26024.4 -03450.1 -07.5518 26252.1
 12 06 2013  02 29  -21.0298 26024.3 -03450.1 -07.5517 26252.0
 12 06 2013  02 30  -21.0295 26024.3 -03450.0 -07.5516 26252.0
 12 06 2013  02 31  -21.0293 26024.2 -03450.0 -07.5516 26251.9
 12 06 2013  02 32  -21.0293 26024.1 -03450.0 -07.5516 26251.8
 12 06 2013  02 33  -21.0294 26024.1 -03450.0 -07.5517 26251.7
 12 06 2013  02 34  -21.0296 26024.1 -03450.0 -07.5517 26251.8
 12 06 2013  02 35  -21.0295 26024.2 -03450.1 -07.5518 26251.9
 12 06 2013  02 36  -21.0295 26024.3 -03450.2 -07.5519 26252.1
 12 06 2013  02 37  -21.0293 26024.6 -03450.2 -07.5520 26252.3
 12 06 2013  02 38  -21.0294 26024.6 -03450.3 -07.5521 26252.4
 12 06 2013  02 39  -21.0295 26024.7 -03450.3 -07.5521 26252.4
 12 06 2013  02 40  -21.0297 26024.6 -03450.2 -07.5520 26252.3
 12 06 2013  02 41  -21.0299 26024.5 -03450.2 -07.5518 26252.2
 12 06 2013  02 42  -21.0300 26024.4 -03450.1 -07.5517 26252.1
 12 06 2013  02 43  -21.0300 26024.3 -03450.0 -07.5516 26252.0
 12 06 2013  02 44  -21.0301 26024.2 -03450.0 -07.5515 26251.9
 12 06 2013  02 45  -21.0301 26024.1 -03449.9 -07.5515 26251.8
 12 06 2013  02 46  -21.0300 26024.2 -03449.9 -07.5515 26251.9
 12 06 2013  02 47  -21.0299 26024.2 -03450.0 -07.5515 26251.9
 12 06 2013  02 48  -21.0299 26024.3 -03450.0 -07.5516 26252.0
 12 06 2013  02 49  -21.0300 26024.3 -03450.0 -07.5516 26252.0
 12 06 2013  02 50  -21.0301 26024.3 -03450.1 -07.5517 26252.0
 12 06 2013  02 51  -21.0304 26024.3 -03450.0 -07.5516 26252.0
 12 06 2013  02 52  -21.0308 26024.1 -03450.0 -07.5515 26251.8
 12 06 2013  02 53  -21.0310 26024.4 -03450.0 -07.5516 26252.0
 12 06 2013  02 54  -21.0308 26025.0 -03450.3 -07.5521 26252.7
 12 06 2013  02 55  -21.0308 26025.3 -03450.4 -07.5523 26253.0
 12 06 2013  02 56  -21.0311 26025.2 -03450.4 -07.5522 26252.9
 12 06 2013  02 57  -21.0316 26025.0 -03450.3 -07.5519 26252.7
 12 06 2013  02 58  -21.0319 26025.0 -03450.2 -07.5518 26252.7
 12 06 2013  02 59  -21.0323 26025.0 -03450.2 -07.5517 26252.7
 12 06 2013  03 00  -21.0325 26025.1 -03450.2 -07.5517 26252.8
 12 06 2013  03 01  -21.0328 26025.2 -03450.2 -07.5518 26252.9
 12 06 2013  03 02  -21.0328 26025.3 -03450.2 -07.5518 26253.0
 12 06 2013  03 03  -21.0328 26025.4 -03450.2 -07.5517 26253.1
 12 06 2013  03 04  -21.0326 26025.4 -03450.2 -07.5516 26253.1
 12 06 2013  03 05  -21.0326 26025.4 -03450.1 -07.5515 26253.1
 12 06 2013  03 06  -21.0326 26025.4 -03450.1 -07.5515 26253.1
 12 06 2013  03 07  -21.0327 26025.4 -03450.1 -07.5514 26253.1
 12 06 2013  03 08  -21.0326 26025.5 -03450.1 -07.5514 26253.2
 12 06 2013  03 09  -21.0324 26025.5 -03450.0 -07.5512 26253.1
 12 06 2013  03 10  -21.0322 26025.4 -03449.9 -07.5511 26253.1
 12 06 2013  03 11  -21.0319 26025.3 -03449.9 -07.5510 26252.9
 12 06 2013  03 12  -21.0316 26025.2 -03449.8 -07.5509 26252.9
 12 06 2013  03 13  -21.0314 26025.2 -03449.8 -07.5508 26252.8
 12 06 2013  03 14  -21.0312 26025.1 -03449.7 -07.5508 26252.7
 12 06 2013  03 15  -21.0311 26025.0 -03449.8 -07.5508 26252.7
 12 06 2013  03 16  -21.0310 26025.0 -03449.8 -07.5509 26252.7
 12 06 2013  03 17  -21.0310 26024.9 -03449.7 -07.5508 26252.6
 12 06 2013  03 18  -21.0312 26024.7 -03449.7 -07.5507 26252.4
 12 06 2013  03 19  -21.0314 26024.5 -03449.6 -07.5506 26252.2
 12 06 2013  03 20  -21.0317 26024.4 -03449.5 -07.5506 26252.0
 12 06 2013  03 21  -21.0320 26024.3 -03449.5 -07.5505 26251.9
 12 06 2013  03 22  -21.0321 26024.2 -03449.5 -07.5505 26251.8
 12 06 2013  03 23  -21.0321 26024.1 -03449.5 -07.5505 26251.8
 12 06 2013  03 24  -21.0323 26024.1 -03449.4 -07.5504 26251.7
 12 06 2013  03 25  -21.0323 26024.1 -03449.4 -07.5504 26251.7
 12 06 2013  03 26  -21.0325 26024.1 -03449.5 -07.5505 26251.7
 12 06 2013  03 27  -21.0326 26024.0 -03449.5 -07.5505 26251.7
 12 06 2013  03 28  -21.0328 26023.9 -03449.4 -07.5504 26251.5
 12 06 2013  03 29  -21.0330 26024.0 -03449.4 -07.5504 26251.6
 12 06 2013  03 30  -21.0332 26023.9 -03449.4 -07.5504 26251.5
 12 06 2013  03 31  -21.0333 26024.0 -03449.5 -07.5505 26251.6
 12 06 2013  03 32  -21.0334 26024.1 -03449.5 -07.5506 26251.7
 12 06 2013  03 33  -21.0335 26024.2 -03449.6 -07.5508 26251.8
 12 06 2013  03 34  -21.0336 26024.3 -03449.7 -07.5509 26251.9
 12 06 2013  03 35  -21.0336 26024.4 -03449.7 -07.5509 26252.0
 12 06 2013  03 36  -21.0337 26024.4 -03449.7 -07.5509 26252.0
 12 06 2013  03 37  -21.0338 26024.4 -03449.7 -07.5509 26252.0
 12 06 2013  03 38  -21.0340 26024.3 -03449.7 -07.5509 26252.0
 12 06 2013  03 39  -21.0341 26024.4 -03449.7 -07.5509 26252.0
 12 06 2013  03 40  -21.0342 26024.3 -03449.7 -07.5509 26251.9
 12 06 2013  03 41  -21.0344 26024.3 -03449.7 -07.5509 26251.9
 12 06 2013  03 42  -21.0344 26024.3 -03449.7 -07.5508 26252.0
 12 06 2013  03 43  -21.0345 26024.4 -03449.7 -07.5509 26252.0
 12 06 2013  03 44  -21.0345 26024.4 -03449.7 -07.5509 26252.1
 12 06 2013  03 45  -21.0346 26024.4 -03449.7 -07.5509 26252.1
 12 06 2013  03 46  -21.0347 26024.6 -03449.8 -07.5510 26252.2
 12 06 2013  03 47  -21.0348 26024.7 -03449.9 -07.5511 26252.4
 12 06 2013  03 48  -21.0350 26024.7 -03449.9 -07.5512 26252.4
 12 06 2013  03 49  -21.0352 26024.7 -03449.8 -07.5511 26252.4
 12 06 2013  03 50  -21.0352 26024.7 -03449.8 -07.5511 26252.4
 12 06 2013  03 51  -21.0353 26025.0 -03450.0 -07.5513 26252.7
 12 06 2013  03 52  -21.0355 26025.0 -03450.0 -07.5513 26252.7
 12 06 2013  03 53  -21.0356 26025.1 -03450.0 -07.5513 26252.8
 12 06 2013  03 54  -21.0359 26025.0 -03450.0 -07.5513 26252.7
 12 06 2013  03 55  -21.0359 26025.1 -03449.9 -07.5512 26252.7
 12 06 2013  03 56  -21.0360 26025.1 -03449.9 -07.5512 26252.8
 12 06 2013  03 57  -21.0362 26024.8 -03449.8 -07.5510 26252.5
 12 06 2013  03 58  -21.0365 26024.4 -03449.6 -07.5507 26252.1
 12 06 2013  03 59  -21.0364 26024.2 -03449.4 -07.5504 26251.8
 12 06 2013  04 00  -21.0362 26024.0 -03449.4 -07.5503 26251.6
 12 06 2013  04 01  -21.0361 26023.8 -03449.3 -07.5501 26251.4
 12 06 2013  04 02  -21.0362 26023.7 -03449.3 -07.5502 26251.3
 12 06 2013  04 03  -21.0362 26023.6 -03449.3 -07.5502 26251.2
 12 06 2013  04 04  -21.0362 26023.6 -03449.2 -07.5501 26251.2
 12 06 2013  04 05  -21.0359 26023.7 -03449.3 -07.5502 26251.3
 12 06 2013  04 06  -21.0355 26023.7 -03449.3 -07.5502 26251.3
 12 06 2013  04 07  -21.0351 26023.6 -03449.2 -07.5501 26251.2
 12 06 2013  04 08  -21.0347 26023.5 -03449.2 -07.5501 26251.1
 12 06 2013  04 09  -21.0344 26023.3 -03449.1 -07.5500 26250.9
 12 06 2013  04 10  -21.0340 26023.4 -03449.2 -07.5501 26250.9
 12 06 2013  04 11  -21.0338 26023.3 -03449.2 -07.5501 26250.8
 12 06 2013  04 12  -21.0335 26023.3 -03449.3 -07.5502 26250.9
 12 06 2013  04 13  -21.0334 26023.2 -03449.3 -07.5503 26250.8
 12 06 2013  04 14  -21.0330 26023.2 -03449.3 -07.5504 26250.8
 12 06 2013  04 15  -21.0330 26022.9 -03449.3 -07.5504 26250.5
 12 06 2013  04 16  -21.0327 26023.1 -03449.3 -07.5505 26250.7
 12 06 2013  04 17  -21.0327 26022.9 -03449.3 -07.5505 26250.5
 12 06 2013  04 18  -21.0324 26023.0 -03449.4 -07.5506 26250.6
 12 06 2013  04 19  -21.0322 26022.9 -03449.4 -07.5506 26250.5
 12 06 2013  04 20  -21.0319 26022.8 -03449.4 -07.5506 26250.5
 12 06 2013  04 21  -21.0314 26022.9 -03449.4 -07.5506 26250.5
 12 06 2013  04 22  -21.0312 26023.0 -03449.5 -07.5509 26250.6
 12 06 2013  04 23  -21.0310 26023.0 -03449.5 -07.5510 26250.6
 12 06 2013  04 24  -21.0309 26022.8 -03449.5 -07.5510 26250.5
 12 06 2013  04 25  -21.0308 26022.9 -03449.6 -07.5510 26250.5
 12 06 2013  04 26  -21.0306 26022.9 -03449.6 -07.5512 26250.5
 12 06 2013  04 27  -21.0303 26023.0 -03449.8 -07.5514 26250.7
 12 06 2013  04 28  -21.0299 26023.2 -03449.9 -07.5516 26250.9
 12 06 2013  04 29  -21.0297 26023.2 -03449.9 -07.5517 26250.9
 12 06 2013  04 30  -21.0299 26023.1 -03449.9 -07.5517 26250.8
 12 06 2013  04 31  -21.0301 26023.0 -03449.9 -07.5518 26250.7
 12 06 2013  04 32  -21.0304 26022.8 -03449.9 -07.5517 26250.5
 12 06 2013  04 33  -21.0307 26022.6 -03449.8 -07.5516 26250.3
 12 06 2013  04 34  -21.0309 26022.4 -03449.7 -07.5515 26250.1
 12 06 2013  04 35  -21.0309 26022.3 -03449.7 -07.5515 26250.0
 12 06 2013  04 36  -21.0308 26022.3 -03449.7 -07.5515 26249.9
 12 06 2013  04 37  -21.0306 26022.4 -03449.7 -07.5516 26250.1
 12 06 2013  04 38  -21.0302 26022.7 -03449.9 -07.5518 26250.3
 12 06 2013  04 39  -21.0297 26023.0 -03450.1 -07.5521 26250.7
 12 06 2013  04 40  -21.0293 26023.3 -03450.2 -07.5524 26251.0
 12 06 2013  04 41  -21.0291 26023.4 -03450.3 -07.5526 26251.1
 12 06 2013  04 42  -21.0290 26023.4 -03450.3 -07.5526 26251.1
 12 06 2013  04 43  -21.0293 26023.3 -03450.3 -07.5525 26251.0
 12 06 2013  04 44  -21.0295 26023.2 -03450.3 -07.5525 26250.9
 12 06 2013  04 45  -21.0296 26023.1 -03450.3 -07.5525 26250.9
 12 06 2013  04 46  -21.0296 26023.2 -03450.3 -07.5526 26251.0
 12 06 2013  04 47  -21.0295 26023.4 -03450.4 -07.5527 26251.1
 12 06 2013  04 48  -21.0293 26023.6 -03450.5 -07.5529 26251.4
 12 06 2013  04 49  -21.0291 26023.8 -03450.6 -07.5530 26251.6
 12 06 2013  04 50  -21.0288 26024.1 -03450.7 -07.5532 26251.9
 12 06 2013  04 51  -21.0287 26024.1 -03450.8 -07.5533 26251.9
 12 06 2013  04 52  -21.0287 26024.2 -03450.9 -07.5534 26252.0
 12 06 2013  04 53  -21.0289 26024.1 -03450.8 -07.5533 26251.9
 12 06 2013  04 54  -21.0289 26024.3 -03450.9 -07.5534 26252.1
 12 06 2013  04 55  -21.0288 26024.3 -03450.8 -07.5534 26252.1
 12 06 2013  04 56  -21.0289 26024.1 -03450.7 -07.5532 26251.9
 12 06 2013  04 57  -21.0288 26024.3 -03450.8 -07.5534 26252.1
 12 06 2013  04 58  -21.0289 26024.1 -03450.7 -07.5531 26251.8
 12 06 2013  04 59  -21.0290 26024.1 -03450.7 -07.5532 26251.9
 12 06 2013  05 00  -21.0290 26024.0 -03450.7 -07.5532 26251.8
 12 06 2013  05 01  -21.0292 26024.1 -03450.7 -07.5532 26251.8
 12 06 2013  05 02  -21.0294 26024.0 -03450.7 -07.5531 26251.7
 12 06 2013  05 03  -21.0297 26023.9 -03450.7 -07.5532 26251.7
 12 06 2013  05 04  -21.0297 26024.0 -03450.7 -07.5532 26251.8
 12 06 2013  05 05  -21.0297 26024.1 -03450.8 -07.5533 26251.9
 12 06 2013  05 06  -21.0296 26024.2 -03450.8 -07.5533 26252.0
 12 06 2013  05 07  -21.0295 26024.2 -03450.8 -07.5533 26252.0
 12 06 2013  05 08  -21.0293 26024.3 -03450.8 -07.5533 26252.1
 12 06 2013  05 09  -21.0294 26024.3 -03450.9 -07.5535 26252.1
 12 06 2013  05 10  -21.0297 26024.4 -03450.9 -07.5536 26252.2
 12 06 2013  05 11  -21.0300 26024.6 -03451.0 -07.5537 26252.4
 12 06 2013  05 12  -21.0303 26024.8 -03451.1 -07.5539 26252.6
 12 06 2013  05 13  -21.0306 26024.7 -03451.1 -07.5538 26252.5
 12 06 2013  05 14  -21.0307 26024.9 -03451.2 -07.5539 26252.8
 12 06 2013  05 15  -21.0310 26024.8 -03451.1 -07.5538 26252.6
 12 06 2013  05 16  -21.0311 26024.9 -03451.1 -07.5538 26252.7
 12 06 2013  05 17  -21.0312 26025.1 -03451.2 -07.5540 26253.0
 12 06 2013  05 18  -21.0316 26025.0 -03451.2 -07.5539 26252.8
 12 06 2013  05 19  -21.0317 26025.3 -03451.3 -07.5540 26253.2
 12 06 2013  05 20  -21.0320 26025.3 -03451.3 -07.5541 26253.1
 12 06 2013  05 21  -21.0321 26025.7 -03451.4 -07.5542 26253.5
 12 06 2013  05 22  -21.0323 26025.7 -03451.4 -07.5543 26253.6
 12 06 2013  05 23  -21.0325 26025.9 -03451.5 -07.5544 26253.8
 12 06 2013  05 24  -21.0329 26025.7 -03451.4 -07.5542 26253.6
 12 06 2013  05 25  -21.0330 26026.3 -03451.6 -07.5544 26254.1
 12 06 2013  05 26  -21.0334 26026.0 -03451.5 -07.5542 26253.8
 12 06 2013  05 27  -21.0335 26026.3 -03451.5 -07.5543 26254.1
 12 06 2013  05 28  -21.0337 26026.3 -03451.6 -07.5544 26254.1
 12 06 2013  05 29  -21.0338 26026.5 -03451.6 -07.5544 26254.4
 12 06 2013  05 30  -21.0341 26026.4 -03451.6 -07.5543 26254.3
 12 06 2013  05 31  -21.0344 26026.3 -03451.5 -07.5542 26254.2
 12 06 2013  05 32  -21.0345 26026.4 -03451.4 -07.5541 26254.2
 12 06 2013  05 33  -21.0346 26026.3 -03451.4 -07.5539 26254.1
 12 06 2013  05 34  -21.0345 26026.1 -03451.3 -07.5538 26254.0
 12 06 2013  05 35  -21.0345 26025.9 -03451.1 -07.5535 26253.7
 12 06 2013  05 36  -21.0344 26025.6 -03450.9 -07.5532 26253.4
 12 06 2013  05 37  -21.0342 26025.5 -03450.9 -07.5531 26253.3
 12 06 2013  05 38  -21.0339 26025.4 -03450.8 -07.5530 26253.2
 12 06 2013  05 39  -21.0336 26025.3 -03450.8 -07.5530 26253.1
 12 06 2013  05 40  -21.0333 26025.3 -03450.8 -07.5530 26253.1
 12 06 2013  05 41  -21.0330 26025.3 -03450.8 -07.5531 26253.1
 12 06 2013  05 42  -21.0328 26025.2 -03450.8 -07.5530 26252.9
 12 06 2013  05 43  -21.0325 26025.1 -03450.8 -07.5530 26252.9
 12 06 2013  05 44  -21.0323 26025.0 -03450.8 -07.5530 26252.8
 12 06 2013  05 45  -21.0323 26024.9 -03450.7 -07.5530 26252.7
 12 06 2013  05 46  -21.0321 26024.8 -03450.8 -07.5530 26252.6
 12 06 2013  05 47  -21.0319 26024.9 -03450.8 -07.5531 26252.7
 12 06 2013  05 48  -21.0317 26025.0 -03450.9 -07.5533 26252.8
 12 06 2013  05 49  -21.0318 26024.9 -03450.9 -07.5534 26252.7
 12 06 2013  05 50  -21.0317 26025.1 -03451.0 -07.5535 26252.9
 12 06 2013  05 51  -21.0317 26025.0 -03451.1 -07.5537 26252.8
 12 06 2013  05 52  -21.0315 26025.2 -03451.1 -07.5537 26253.0
 12 06 2013  05 53  -21.0318 26025.1 -03451.2 -07.5538 26252.9
 12 06 2013  05 54  -21.0320 26025.1 -03451.2 -07.5539 26252.9
 12 06 2013  05 55  -21.0326 26025.0 -03451.2 -07.5539 26252.8
 12 06 2013  05 56  -21.0331 26024.9 -03451.2 -07.5539 26252.7
 12 06 2013  05 57  -21.0335 26024.5 -03451.0 -07.5537 26252.4
 12 06 2013  05 58  -21.0338 26024.6 -03451.0 -07.5537 26252.4
 12 06 2013  05 59  -21.0340 26024.7 -03451.1 -07.5539 26252.6
 12 06 2013  06 00  -21.0345 26024.8 -03451.1 -07.5539 26252.6
 12 06 2013  06 01  -21.0350 26025.0 -03451.3 -07.5541 26252.9
 12 06 2013  06 02  -21.0351 26025.3 -03451.4 -07.5542 26253.1
 12 06 2013  06 03  -21.0350 26025.4 -03451.4 -07.5543 26253.3
 12 06 2013  06 04  -21.0350 26025.7 -03451.5 -07.5545 26253.5
 12 06 2013  06 05  -21.0349 26025.8 -03451.6 -07.5546 26253.7
 12 06 2013  06 06  -21.0346 26026.0 -03451.7 -07.5547 26253.9
 12 06 2013  06 07  -21.0347 26026.0 -03451.7 -07.5547 26253.9
 12 06 2013  06 08  -21.0348 26025.8 -03451.5 -07.5544 26253.7
 12 06 2013  06 09  -21.0349 26025.6 -03451.4 -07.5542 26253.4
 12 06 2013  06 10  -21.0349 26025.3 -03451.2 -07.5539 26253.1
 12 06 2013  06 11  -21.0349 26025.0 -03451.1 -07.5538 26252.9
 12 06 2013  06 12  -21.0350 26024.9 -03451.1 -07.5537 26252.8
 12 06 2013  06 13  -21.0352 26024.8 -03451.0 -07.5536 26252.7
 12 06 2013  06 14  -21.0353 26024.6 -03451.0 -07.5536 26252.4
 12 06 2013  06 15  -21.0350 26024.5 -03450.9 -07.5535 26252.4
 12 06 2013  06 16  -21.0350 26024.4 -03450.9 -07.5534 26252.2
 12 06 2013  06 17  -21.0355 26024.4 -03450.9 -07.5535 26252.2
 12 06 2013  06 18  -21.0358 26024.6 -03451.1 -07.5538 26252.4
 12 06 2013  06 19  -21.0359 26024.5 -03451.1 -07.5539 26252.3
 12 06 2013  06 20  -21.0357 26024.4 -03451.0 -07.5538 26252.2
 12 06 2013  06 21  -21.0355 26024.3 -03451.0 -07.5537 26252.2
 12 06 2013  06 22  -21.0350 26024.0 -03450.8 -07.5534 26251.8
 12 06 2013  06 23  -21.0342 26024.1 -03450.8 -07.5534 26251.9
 12 06 2013  06 24  -21.0336 26024.3 -03451.0 -07.5537 26252.1
 12 06 2013  06 25  -21.0333 26024.4 -03451.1 -07.5540 26252.2
 12 06 2013  06 26  -21.0333 26024.7 -03451.3 -07.5543 26252.5
 12 06 2013  06 27  -21.0337 26024.7 -03451.4 -07.5545 26252.6
 12 06 2013  06 28  -21.0342 26024.5 -03451.4 -07.5545 26252.4
 12 06 2013  06 29  -21.0345 26024.3 -03451.3 -07.5543 26252.2
 12 06 2013  06 30  -21.0347 26024.1 -03451.2 -07.5541 26252.0
 12 06 2013  06 31  -21.0348 26024.3 -03451.2 -07.5542 26252.1
 12 06 2013  06 32  -21.0348 26024.2 -03451.2 -07.5542 26252.0
 12 06 2013  06 33  -21.0348 26024.1 -03451.1 -07.5541 26251.9
 12 06 2013  06 34  -21.0348 26024.0 -03451.1 -07.5541 26251.9
 12 06 2013  06 35  -21.0349 26024.1 -03451.2 -07.5542 26251.9
 12 06 2013  06 36  -21.0351 26024.2 -03451.3 -07.5543 26252.0
 12 06 2013  06 37  -21.0354 26024.2 -03451.3 -07.5543 26252.0
 12 06 2013  06 38  -21.0355 26024.0 -03451.2 -07.5542 26251.9
 12 06 2013  06 39  -21.0355 26024.1 -03451.2 -07.5542 26251.9
 12 06 2013  06 40  -21.0355 26024.0 -03451.1 -07.5541 26251.8
 12 06 2013  06 41  -21.0356 26023.8 -03451.1 -07.5541 26251.6
 12 06 2013  06 42  -21.0355 26023.7 -03451.0 -07.5540 26251.5
 12 06 2013  06 43  -21.0353 26023.5 -03450.9 -07.5538 26251.3
 12 06 2013  06 44  -21.0350 26023.4 -03450.9 -07.5538 26251.2
 12 06 2013  06 45  -21.0349 26023.3 -03450.9 -07.5537 26251.1
 12 06 2013  06 46  -21.0350 26023.3 -03450.9 -07.5538 26251.1
 12 06 2013  06 47  -21.0350 26023.2 -03450.9 -07.5538 26251.0
 12 06 2013  06 48  -21.0351 26023.1 -03450.9 -07.5538 26250.9
 12 06 2013  06 49  -21.0350 26023.0 -03450.9 -07.5538 26250.8
 12 06 2013  06 50  -21.0349 26022.9 -03450.8 -07.5537 26250.7
 12 06 2013  06 51  -21.0348 26022.8 -03450.8 -07.5537 26250.6
 12 06 2013  06 52  -21.0346 26022.7 -03450.8 -07.5536 26250.5
 12 06 2013  06 53  -21.0346 26022.6 -03450.7 -07.5536 26250.4
 12 06 2013  06 54  -21.0345 26022.6 -03450.8 -07.5537 26250.4
 12 06 2013  06 55  -21.0344 26022.5 -03450.7 -07.5537 26250.3
 12 06 2013  06 56  -21.0342 26022.5 -03450.8 -07.5537 26250.3
 12 06 2013  06 57  -21.0341 26022.5 -03450.8 -07.5538 26250.3
 12 06 2013  06 58  -21.0340 26022.5 -03450.8 -07.5538 26250.3
 12 06 2013  06 59  -21.0338 26022.5 -03450.8 -07.5539 26250.3
 12 06 2013  07 00  -21.0338 26022.4 -03450.8 -07.5539 26250.3
 12 06 2013  07 01  -21.0336 26022.4 -03450.8 -07.5539 26250.2
 12 06 2013  07 02  -21.0335 26022.3 -03450.8 -07.5540 26250.1
 12 06 2013  07 03  -21.0333 26022.3 -03450.8 -07.5540 26250.1
 12 06 2013  07 04  -21.0332 26022.2 -03450.8 -07.5540 26250.0
 12 06 2013  07 05  -21.0329 26022.1 -03450.8 -07.5540 26250.0
 12 06 2013  07 06  -21.0328 26022.1 -03450.9 -07.5540 26250.0
 12 06 2013  07 07  -21.0328 26022.0 -03450.8 -07.5540 26249.9
 12 06 2013  07 08  -21.0326 26022.1 -03450.9 -07.5541 26249.9
 12 06 2013  07 09  -21.0326 26022.1 -03450.9 -07.5542 26249.9
 12 06 2013  07 10  -21.0324 26022.1 -03451.0 -07.5543 26250.0
 12 06 2013  07 11  -21.0323 26022.1 -03451.0 -07.5544 26250.0
 12 06 2013  07 12  -21.0322 26022.2 -03451.0 -07.5544 26250.0
 12 06 2013  07 13  -21.0321 26022.1 -03451.0 -07.5544 26250.0
 12 06 2013  07 14  -21.0320 26022.1 -03451.0 -07.5544 26249.9
 12 06 2013  07 15  -21.0317 26022.0 -03451.0 -07.5544 26249.8
 12 06 2013  07 16  -21.0314 26021.9 -03451.0 -07.5543 26249.8
 12 06 2013  07 17  -21.0310 26021.9 -03451.0 -07.5543 26249.7
 12 06 2013  07 18  -21.0308 26021.9 -03451.0 -07.5545 26249.8
 12 06 2013  07 19  -21.0303 26021.7 -03450.9 -07.5543 26249.6
 12 06 2013  07 20  -21.0303 26021.9 -03451.1 -07.5545 26249.8
 12 06 2013  07 21  -21.0295 26022.0 -03451.1 -07.5546 26249.8
 12 06 2013  07 22  -21.0294 26022.0 -03451.1 -07.5547 26249.8
 12 06 2013  07 23  -21.0291 26022.1 -03451.2 -07.5547 26249.9
 12 06 2013  07 24  -21.0288 26022.0 -03451.2 -07.5548 26249.8
 12 06 2013  07 25  -21.0288 26022.0 -03451.2 -07.5549 26249.9
 12 06 2013  07 26  -21.0288 26021.9 -03451.2 -07.5549 26249.8
 12 06 2013  07 27  -21.0289 26022.0 -03451.3 -07.5551 26249.9
 12 06 2013  07 28  -21.0289 26022.0 -03451.4 -07.5552 26249.9
 12 06 2013  07 29  -21.0291 26022.1 -03451.4 -07.5553 26250.0
 12 06 2013  07 30  -21.0288 26022.1 -03451.4 -07.5552 26249.9
 12 06 2013  07 31  -21.0288 26022.3 -03451.6 -07.5555 26250.2
 12 06 2013  07 32  -21.0288 26022.5 -03451.7 -07.5557 26250.5
 12 06 2013  07 33  -21.0290 26022.5 -03451.7 -07.5558 26250.4
 12 06 2013  07 34  -21.0289 26022.7 -03451.8 -07.5559 26250.6
 12 06 2013  07 35  -21.0286 26022.6 -03451.7 -07.5558 26250.5
 12 06 2013  07 36  -21.0288 26022.6 -03451.8 -07.5559 26250.6
 12 06 2013  07 37  -21.0289 26022.8 -03451.8 -07.5560 26250.7
 12 06 2013  07 38  -21.0291 26022.8 -03451.8 -07.5560 26250.7
 12 06 2013  07 39  -21.0293 26022.8 -03451.9 -07.5560 26250.8
 12 06 2013  07 40  -21.0293 26023.0 -03451.9 -07.5561 26250.9
 12 06 2013  07 41  -21.0293 26023.1 -03451.9 -07.5561 26251.0
 12 06 2013  07 42  -21.0291 26023.2 -03452.0 -07.5561 26251.1
 12 06 2013  07 43  -21.0289 26023.0 -03451.9 -07.5560 26250.9
 12 06 2013  07 44  -21.0287 26022.9 -03451.8 -07.5559 26250.9
 12 06 2013  07 45  -21.0284 26022.9 -03451.8 -07.5558 26250.8
 12 06 2013  07 46  -21.0279 26022.5 -03451.6 -07.5556 26250.5
 12 06 2013  07 47  -21.0277 26022.9 -03451.8 -07.5558 26250.8
 12 06 2013  07 48  -21.0275 26022.9 -03451.8 -07.5559 26250.8
 12 06 2013  07 49  -21.0275 26022.9 -03451.9 -07.5560 26250.8
 12 06 2013  07 50  -21.0276 26023.0 -03451.9 -07.5561 26251.0
 12 06 2013  07 51  -21.0275 26023.1 -03452.0 -07.5563 26251.1
 12 06 2013  07 52  -21.0276 26023.2 -03452.1 -07.5563 26251.1
 12 06 2013  07 53  -21.0275 26023.3 -03452.1 -07.5564 26251.2
 12 06 2013  07 54  -21.0274 26023.4 -03452.1 -07.5564 26251.3
 12 06 2013  07 55  -21.0274 26023.4 -03452.1 -07.5565 26251.4
 12 06 2013  07 56  -21.0273 26023.4 -03452.1 -07.5564 26251.4
 12 06 2013  07 57  -21.0268 26023.3 -03452.1 -07.5563 26251.3
 12 06 2013  07 58  -21.0265 26023.4 -03452.1 -07.5564 26251.4
 12 06 2013  07 59  -21.0261 26023.5 -03452.1 -07.5564 26251.4
 12 06 2013  08 00  -21.0257 26023.4 -03452.1 -07.5564 26251.3
 12 06 2013  08 01  -21.0253 26023.4 -03452.2 -07.5565 26251.4
 12 06 2013  08 02  -21.0252 26023.4 -03452.2 -07.5566 26251.4
 12 06 2013  08 03  -21.0252 26023.4 -03452.3 -07.5567 26251.4
 12 06 2013  08 04  -21.0252 26023.4 -03452.3 -07.5568 26251.4
 12 06 2013  08 05  -21.0252 26023.5 -03452.3 -07.5569 26251.5
 12 06 2013  08 06  -21.0252 26023.3 -03452.3 -07.5568 26251.3
 12 06 2013  08 07  -21.0252 26023.3 -03452.3 -07.5568 26251.3
 12 06 2013  08 08  -21.0251 26023.2 -03452.2 -07.5567 26251.2
 12 06 2013  08 09  -21.0249 26023.2 -03452.2 -07.5567 26251.2
 12 06 2013  08 10  -21.0248 26023.2 -03452.3 -07.5568 26251.2
 12 06 2013  08 11  -21.0247 26023.3 -03452.3 -07.5568 26251.2
 12 06 2013  08 12  -21.0246 26023.3 -03452.3 -07.5568 26251.3
 12 06 2013  08 13  -21.0245 26023.4 -03452.4 -07.5570 26251.4
 12 06 2013  08 14  -21.0244 26023.6 -03452.5 -07.5571 26251.6
 12 06 2013  08 15  -21.0244 26023.8 -03452.6 -07.5572 26251.9
 12 06 2013  08 16  -21.0243 26024.0 -03452.7 -07.5574 26252.0
 12 06 2013  08 17  -21.0240 26024.2 -03452.7 -07.5575 26252.3
 12 06 2013  08 18  -21.0241 26024.4 -03452.8 -07.5577 26252.4
 12 06 2013  08 19  -21.0238 26024.5 -03452.8 -07.5577 26252.6
 12 06 2013  08 20  -21.0236 26024.6 -03452.9 -07.5577 26252.6
 12 06 2013  08 21  -21.0235 26024.7 -03452.9 -07.5578 26252.8
 12 06 2013  08 22  -21.0234 26024.9 -03453.0 -07.5578 26252.9
 12 06 2013  08 23  -21.0231 26024.8 -03452.9 -07.5576 26252.9
 12 06 2013  08 24  -21.0226 26024.8 -03452.8 -07.5574 26252.8
 12 06 2013  08 25  -21.0220 26024.7 -03452.7 -07.5572 26252.8
 12 06 2013  08 26  -21.0214 26024.6 -03452.6 -07.5571 26252.6
 12 06 2013  08 27  -21.0209 26024.6 -03452.5 -07.5568 26252.6
 12 06 2013  08 28  -21.0204 26024.5 -03452.4 -07.5566 26252.4
 12 06 2013  08 29  -21.0202 26024.5 -03452.5 -07.5568 26252.5
 12 06 2013  08 30  -21.0201 26024.5 -03452.5 -07.5568 26252.5
 12 06 2013  08 31  -21.0200 26024.5 -03452.5 -07.5569 26252.5
 12 06 2013  08 32  -21.0197 26024.6 -03452.4 -07.5567 26252.6
 12 06 2013  08 33  -21.0195 26024.5 -03452.3 -07.5565 26252.5
 12 06 2013  08 34  -21.0191 26024.4 -03452.2 -07.5563 26252.4
 12 06 2013  08 35  -21.0188 26024.3 -03452.1 -07.5561 26252.2
 12 06 2013  08 36  -21.0187 26024.2 -03452.0 -07.5559 26252.2
 12 06 2013  08 37  -21.0186 26024.2 -03452.0 -07.5559 26252.2
 12 06 2013  08 38  -21.0183 26024.2 -03451.9 -07.5558 26252.2
 12 06 2013  08 39  -21.0182 26024.2 -03451.9 -07.5556 26252.1
 12 06 2013  08 40  -21.0179 26024.2 -03451.8 -07.5555 26252.1
 12 06 2013  08 41  -21.0178 26024.2 -03451.8 -07.5554 26252.1
 12 06 2013  08 42  -21.0175 26024.2 -03451.7 -07.5553 26252.1
 12 06 2013  08 43  -21.0175 26024.3 -03451.7 -07.5553 26252.2
 12 06 2013  08 44  -21.0173 26024.4 -03451.8 -07.5553 26252.3
 12 06 2013  08 45  -21.0170 26024.5 -03451.8 -07.5553 26252.4
 12 06 2013  08 46  -21.0167 26024.6 -03451.8 -07.5553 26252.5
 12 06 2013  08 47  -21.0164 26024.6 -03451.7 -07.5552 26252.5
 12 06 2013  08 48  -21.0161 26024.6 -03451.7 -07.5551 26252.5
 12 06 2013  08 49  -21.0157 26024.6 -03451.6 -07.5550 26252.5
 12 06 2013  08 50  -21.0153 26024.6 -03451.6 -07.5548 26252.5
 12 06 2013  08 51  -21.0149 26024.5 -03451.5 -07.5547 26252.4
 12 06 2013  08 52  -21.0146 26024.6 -03451.4 -07.5546 26252.4
 12 06 2013  08 53  -21.0144 26024.5 -03451.3 -07.5543 26252.4
 12 06 2013  08 54  -21.0139 26024.7 -03451.3 -07.5543 26252.5
 12 06 2013  08 55  -21.0134 26024.6 -03451.3 -07.5543 26252.5
 12 06 2013  08 56  -21.0128 26024.6 -03451.2 -07.5541 26252.4
 12 06 2013  08 57  -21.0122 26024.5 -03451.1 -07.5539 26252.3
 12 06 2013  08 58  -21.0116 26024.5 -03451.1 -07.5539 26252.3
 12 06 2013  08 59  -21.0106 26024.4 -03451.0 -07.5537 26252.2
 12 06 2013  09 00  -21.0099 26024.4 -03451.0 -07.5537 26252.2
 12 06 2013  09 01  -21.0089 26024.3 -03451.0 -07.5537 26252.1
 12 06 2013  09 02  -21.0079 26024.3 -03451.0 -07.5537 26252.1
 12 06 2013  09 03  -21.0068 26024.2 -03451.0 -07.5536 26252.1
 12 06 2013  09 04  -21.0058 26024.3 -03451.0 -07.5538 26252.1
 12 06 2013  09 05  -21.0049 26024.2 -03451.1 -07.5539 26252.1
 12 06 2013  09 06  -21.0038 26024.2 -03451.1 -07.5540 26252.0
 12 06 2013  09 07  -21.0029 26024.2 -03451.3 -07.5543 26252.0
 12 06 2013  09 08  -21.0020 26024.2 -03451.4 -07.5546 26252.1
 12 06 2013  09 09  -21.0011 26024.1 -03451.5 -07.5548 26252.0
 12 06 2013  09 10  -21.0002 26024.3 -03451.7 -07.5552 26252.2
 12 06 2013  09 11  -20.9991 26024.0 -03451.7 -07.5553 26252.0
 12 06 2013  09 12  -20.9982 26024.2 -03451.9 -07.5557 26252.1
 12 06 2013  09 13  -20.9973 26024.1 -03452.0 -07.5559 26252.0
 12 06 2013  09 14  -20.9964 26024.1 -03452.1 -07.5562 26252.1
 12 06 2013  09 15  -20.9957 26023.9 -03452.2 -07.5564 26251.9
 12 06 2013  09 16  -20.9951 26024.1 -03452.4 -07.5569 26252.1
 12 06 2013  09 17  -20.9945 26023.8 -03452.5 -07.5571 26251.8
 12 06 2013  09 18  -20.9938 26023.7 -03452.6 -07.5574 26251.7
 12 06 2013  09 19  -20.9933 26023.4 -03452.7 -07.5577 26251.5
 12 06 2013  09 20  -20.9927 26023.3 -03452.8 -07.5579 26251.3
 12 06 2013  09 21  -20.9919 26023.2 -03453.0 -07.5583 26251.3
 12 06 2013  09 22  -20.9917 26023.1 -03453.1 -07.5585 26251.2
 12 06 2013  09 23  -20.9910 26023.1 -03453.2 -07.5588 26251.2
 12 06 2013  09 24  -20.9909 26022.8 -03453.2 -07.5589 26250.9
 12 06 2013  09 25  -20.9906 26023.1 -03453.5 -07.5595 26251.3
 12 06 2013  09 26  -20.9906 26022.8 -03453.5 -07.5596 26251.0
 12 06 2013  09 27  -20.9902 26023.0 -03453.7 -07.5600 26251.2
 12 06 2013  09 28  -20.9895 26022.9 -03453.8 -07.5601 26251.1
 12 06 2013  09 29  -20.9892 26022.9 -03453.9 -07.5603 26251.1
 12 06 2013  09 30  -20.9890 26022.9 -03454.0 -07.5606 26251.2
 12 06 2013  09 31  -20.9891 26022.8 -03454.1 -07.5609 26251.0
 12 06 2013  09 32  -20.9892 26022.8 -03454.2 -07.5611 26251.0
 12 06 2013  09 33  -20.9899 26022.7 -03454.4 -07.5615 26251.0
 12 06 2013  09 34  -20.9895 26022.8 -03454.5 -07.5618 26251.1
 12 06 2013  09 35  -20.9888 26022.9 -03454.6 -07.5619 26251.2
 12 06 2013  09 36  -20.9882 26022.9 -03454.7 -07.5621 26251.2
 12 06 2013  09 37  -20.9878 26023.3 -03454.9 -07.5625 26251.6
 12 06 2013  09 38  -20.9876 26023.3 -03455.0 -07.5627 26251.7
 12 06 2013  09 39  -20.9875 26023.4 -03455.1 -07.5629 26251.7
 12 06 2013  09 40  -20.9868 26023.5 -03455.3 -07.5633 26251.8
 12 06 2013  09 41  -20.9872 26023.5 -03455.4 -07.5634 26251.9
 12 06 2013  09 42  -20.9872 26023.6 -03455.6 -07.5639 26252.0
 12 06 2013  09 43  -20.9872 26023.4 -03455.6 -07.5640 26251.9
 12 06 2013  09 44  -20.9875 26023.6 -03455.9 -07.5644 26252.1
 12 06 2013  09 45  -20.9879 26023.5 -03456.0 -07.5647 26252.0
 12 06 2013  09 46  -20.9878 26023.4 -03456.0 -07.5649 26251.9
 12 06 2013  09 47  -20.9885 26023.4 -03456.1 -07.5651 26251.9
 12 06 2013  09 48  -20.9882 26023.5 -03456.3 -07.5654 26252.0
 12 06 2013  09 49  -20.9891 26023.5 -03456.4 -07.5657 26252.0
 12 06 2013  09 50  -20.9892 26023.7 -03456.7 -07.5662 26252.3
 12 06 2013  09 51  -20.9895 26023.7 -03456.7 -07.5663 26252.2
 12 06 2013  09 52  -20.9892 26023.9 -03456.9 -07.5666 26252.5
 12 06 2013  09 53  -20.9888 26023.8 -03457.0 -07.5668 26252.4
 12 06 2013  09 54  -20.9883 26024.0 -03457.1 -07.5671 26252.6
 12 06 2013  09 55  -20.9876 26024.0 -03457.2 -07.5672 26252.6
 12 06 2013  09 56  -20.9875 26024.2 -03457.4 -07.5676 26252.9
 12 06 2013  09 57  -20.9871 26024.3 -03457.6 -07.5680 26253.0
 12 06 2013  09 58  -20.9870 26024.5 -03457.8 -07.5684 26253.2
 12 06 2013  09 59  -20.9873 26024.8 -03458.2 -07.5691 26253.5
 12 06 2013  10 00  -20.9870 26025.1 -03458.5 -07.5697 26253.9
 12 06 2013  10 01  -20.9866 26025.3 -03458.7 -07.5701 26254.1
 12 06 2013  10 02  -20.9857 26025.6 -03458.9 -07.5704 26254.5
 12 06 2013  10 03  -20.9849 26025.9 -03459.0 -07.5705 26254.8
 12 06 2013  10 04  -20.9848 26026.2 -03459.1 -07.5708 26255.1
 12 06 2013  10 05  -20.9848 26026.3 -03459.1 -07.5707 26255.2
 12 06 2013  10 06  -20.9848 26026.3 -03459.1 -07.5707 26255.1
 12 06 2013  10 07  -20.9852 26026.0 -03459.0 -07.5706 26254.9
 12 06 2013  10 08  -20.9856 26025.9 -03459.1 -07.5708 26254.8
 12 06 2013  10 09  -20.9857 26025.8 -03459.2 -07.5710 26254.7
 12 06 2013  10 10  -20.9861 26025.8 -03459.3 -07.5713 26254.7
 12 06 2013  10 11  -20.9867 26025.8 -03459.5 -07.5716 26254.7
 12 06 2013  10 12  -20.9870 26025.9 -03459.7 -07.5720 26254.8
 12 06 2013  10 13  -20.9873 26025.9 -03459.8 -07.5723 26254.9
 12 06 2013  10 14  -20.9876 26025.8 -03459.9 -07.5725 26254.8
 12 06 2013  10 15  -20.9882 26025.6 -03459.9 -07.5726 26254.6
 12 06 2013  10 16  -20.9890 26025.5 -03460.0 -07.5729 26254.5
 12 06 2013  10 17  -20.9895 26025.5 -03460.2 -07.5732 26254.5
 12 06 2013  10 18  -20.9899 26025.5 -03460.2 -07.5733 26254.6
 12 06 2013  10 19  -20.9902 26025.5 -03460.3 -07.5736 26254.6
 12 06 2013  10 20  -20.9907 26025.6 -03460.5 -07.5739 26254.6
 12 06 2013  10 21  -20.9910 26025.8 -03460.6 -07.5742 26254.8
 12 06 2013  10 22  -20.9916 26025.9 -03460.8 -07.5745 26255.0
 12 06 2013  10 23  -20.9919 26025.9 -03460.9 -07.5746 26255.0
 12 06 2013  10 24  -20.9925 26026.0 -03461.1 -07.5750 26255.1
 12 06 2013  10 25  -20.9926 26026.0 -03461.1 -07.5751 26255.2
 12 06 2013  10 26  -20.9932 26026.0 -03461.2 -07.5752 26255.1
 12 06 2013  10 27  -20.9938 26026.0 -03461.3 -07.5756 26255.1
 12 06 2013  10 28  -20.9943 26026.1 -03461.5 -07.5759 26255.3
 12 06 2013  10 29  -20.9950 26026.1 -03461.6 -07.5762 26255.3
 12 06 2013  10 30  -20.9954 26026.2 -03461.8 -07.5765 26255.4
 12 06 2013  10 31  -20.9954 26026.4 -03461.9 -07.5768 26255.6
 12 06 2013  10 32  -20.9951 26026.6 -03462.0 -07.5769 26255.8
 12 06 2013  10 33  -20.9952 26026.6 -03462.1 -07.5770 26255.9
 12 06 2013  10 34  -20.9959 26026.7 -03462.2 -07.5772 26256.0
 12 06 2013  10 35  -20.9965 26026.8 -03462.3 -07.5774 26256.0
 12 06 2013  10 36  -20.9969 26026.8 -03462.3 -07.5775 26256.0
 12 06 2013  10 37  -20.9974 26026.7 -03462.4 -07.5777 26256.0
 12 06 2013  10 38  -20.9978 26026.8 -03462.6 -07.5781 26256.1
 12 06 2013  10 39  -20.9982 26026.9 -03462.7 -07.5783 26256.3
 12 06 2013  10 40  -20.9983 26027.1 -03462.8 -07.5785 26256.4
 12 06 2013  10 41  -20.9990 26027.2 -03462.9 -07.5787 26256.5
 12 06 2013  10 42  -20.9995 26027.3 -03463.0 -07.5789 26256.7
 12 06 2013  10 43  -21.0001 26027.5 -03463.2 -07.5791 26256.9
 12 06 2013  10 44  -21.0008 26027.6 -03463.2 -07.5793 26257.0
 12 06 2013  10 45  -21.0013 26027.5 -03463.3 -07.5793 26256.9
 12 06 2013  10 46  -21.0018 26027.5 -03463.3 -07.5795 26256.9
 12 06 2013  10 47  -21.0025 26027.5 -03463.4 -07.5796 26256.9
 12 06 2013  10 48  -21.0030 26027.6 -03463.5 -07.5798 26257.0
 12 06 2013  10 49  -21.0032 26027.6 -03463.6 -07.5800 26257.0
 12 06 2013  10 50  -21.0034 26027.8 -03463.7 -07.5801 26257.3
 12 06 2013  10 51  -21.0032 26028.0 -03463.8 -07.5803 26257.5
 12 06 2013  10 52  -21.0035 26028.0 -03463.8 -07.5804 26257.5
 12 06 2013  10 53  -21.0036 26028.1 -03463.9 -07.5805 26257.6
 12 06 2013  10 54  -21.0037 26028.4 -03464.0 -07.5806 26257.8
 12 06 2013  10 55  -21.0036 26028.6 -03464.1 -07.5808 26258.1
 12 06 2013  10 56  -21.0037 26028.9 -03464.2 -07.5809 26258.4
 12 06 2013  10 57  -21.0038 26029.1 -03464.2 -07.5810 26258.6
 12 06 2013  10 58  -21.0039 26029.3 -03464.3 -07.5811 26258.9
 12 06 2013  10 59  -21.0040 26029.6 -03464.4 -07.5812 26259.2
 12 06 2013  11 00  -21.0040 26029.9 -03464.5 -07.5814 26259.5
 12 06 2013  11 01  -21.0038 26030.2 -03464.6 -07.5815 26259.8
 12 06 2013  11 02  -21.0036 26030.5 -03464.7 -07.5816 26260.1
 12 06 2013  11 03  -21.0034 26030.9 -03464.8 -07.5817 26260.4
 12 06 2013  11 04  -21.0034 26031.2 -03464.9 -07.5818 26260.8
 12 06 2013  11 05  -21.0039 26031.5 -03465.0 -07.5818 26261.1
 12 06 2013  11 06  -21.0042 26031.8 -03465.0 -07.5818 26261.4
 12 06 2013  11 07  -21.0044 26032.1 -03465.0 -07.5818 26261.7
 12 06 2013  11 08  -21.0044 26032.4 -03465.0 -07.5818 26262.0
 12 06 2013  11 09  -21.0043 26032.7 -03465.0 -07.5817 26262.2
 12 06 2013  11 10  -21.0044 26032.8 -03465.0 -07.5815 26262.4
 12 06 2013  11 11  -21.0045 26033.0 -03464.9 -07.5814 26262.5
 12 06 2013  11 12  -21.0047 26032.9 -03464.9 -07.5813 26262.5
 12 06 2013  11 13  -21.0046 26033.0 -03464.8 -07.5812 26262.5
 12 06 2013  11 14  -21.0041 26033.0 -03464.8 -07.5810 26262.5
 12 06 2013  11 15  -21.0038 26033.1 -03464.8 -07.5810 26262.7
 12 06 2013  11 16  -21.0035 26033.4 -03464.8 -07.5810 26263.0
 12 06 2013  11 17  -21.0035 26033.6 -03464.8 -07.5809 26263.2
 12 06 2013  11 18  -21.0034 26033.9 -03464.8 -07.5809 26263.4
 12 06 2013  11 19  -21.0034 26033.9 -03464.8 -07.5807 26263.4
 12 06 2013  11 20  -21.0034 26034.0 -03464.8 -07.5808 26263.6
 12 06 2013  11 21  -21.0036 26034.1 -03464.8 -07.5808 26263.6
 12 06 2013  11 22  -21.0035 26034.2 -03464.9 -07.5809 26263.8
 12 06 2013  11 23  -21.0035 26034.3 -03464.9 -07.5810 26263.9
 12 06 2013  11 24  -21.0033 26034.2 -03465.0 -07.5811 26263.8
 12 06 2013  11 25  -21.0035 26034.4 -03465.1 -07.5813 26264.0
 12 06 2013  11 26  -21.0035 26034.5 -03465.2 -07.5814 26264.1
 12 06 2013  11 27  -21.0039 26034.6 -03465.2 -07.5815 26264.2
 12 06 2013  11 28  -21.0044 26034.7 -03465.3 -07.5816 26264.3
 12 06 2013  11 29  -21.0047 26035.1 -03465.3 -07.5816 26264.7
 12 06 2013  11 30  -21.0052 26035.1 -03465.3 -07.5816 26264.7
 12 06 2013  11 31  -21.0058 26035.4 -03465.4 -07.5816 26265.0
 12 06 2013  11 32  -21.0067 26035.8 -03465.5 -07.5817 26265.5
 12 06 2013  11 33  -21.0071 26036.5 -03465.5 -07.5817 26266.1
 12 06 2013  11 34  -21.0079 26037.1 -03465.5 -07.5814 26266.7
 12 06 2013  11 35  -21.0085 26037.6 -03465.4 -07.5810 26267.2
 12 06 2013  11 36  -21.0088 26038.0 -03465.2 -07.5805 26267.6
 12 06 2013  11 37  -21.0091 26038.3 -03465.0 -07.5800 26267.8
 12 06 2013  11 38  -21.0092 26038.4 -03464.7 -07.5793 26267.9
 12 06 2013  11 39  -21.0089 26038.6 -03464.6 -07.5790 26268.1
 12 06 2013  11 40  -21.0088 26038.8 -03464.4 -07.5786 26268.2
 12 06 2013  11 41  -21.0090 26039.0 -03464.4 -07.5785 26268.5
 12 06 2013  11 42  -21.0098 26039.2 -03464.4 -07.5784 26268.7
 12 06 2013  11 43  -21.0106 26039.4 -03464.3 -07.5782 26268.9
 12 06 2013  11 44  -21.0113 26039.6 -03464.2 -07.5780 26269.1
 12 06 2013  11 45  -21.0120 26039.7 -03464.1 -07.5777 26269.1
 12 06 2013  11 46  -21.0125 26040.0 -03464.0 -07.5774 26269.3
 12 06 2013  11 47  -21.0129 26040.0 -03463.9 -07.5770 26269.4
 12 06 2013  11 48  -21.0133 26040.1 -03463.7 -07.5766 26269.4
 12 06 2013  11 49  -21.0134 26040.2 -03463.6 -07.5763 26269.6
 12 06 2013  11 50  -21.0138 26040.2 -03463.4 -07.5760 26269.5
 12 06 2013  11 51  -21.0141 26040.1 -03463.3 -07.5758 26269.4
 12 06 2013  11 52  -21.0149 26039.9 -03463.2 -07.5756 26269.2
 12 06 2013  11 53  -21.0156 26039.9 -03463.2 -07.5756 26269.2
 12 06 2013  11 54  -21.0163 26040.1 -03463.3 -07.5757 26269.4
 12 06 2013  11 55  -21.0170 26040.4 -03463.4 -07.5759 26269.7
 12 06 2013  11 56  -21.0175 26040.7 -03463.5 -07.5760 26270.1
 12 06 2013  11 57  -21.0178 26041.2 -03463.5 -07.5760 26270.5
 12 06 2013  11 58  -21.0182 26041.6 -03463.5 -07.5759 26270.9
 12 06 2013  11 59  -21.0188 26042.0 -03463.4 -07.5756 26271.2
 12 06 2013  12 00  -21.0197 26042.5 -03463.4 -07.5754 26271.7
 12 06 2013  12 01  -21.0204 26042.7 -03463.2 -07.5749 26272.0
 12 06 2013  12 02  -21.0210 26042.9 -03463.1 -07.5745 26272.1
 12 06 2013  12 03  -21.0215 26043.1 -03463.0 -07.5743 26272.3
 12 06 2013  12 04  -21.0217 26043.3 -03462.9 -07.5740 26272.5
 12 06 2013  12 05  -21.0222 26043.4 -03462.9 -07.5739 26272.7
 12 06 2013  12 06  -21.0227 26043.6 -03462.8 -07.5738 26272.8
 12 06 2013  12 07  -21.0236 26043.9 -03462.9 -07.5737 26273.1
 12 06 2013  12 08  -21.0242 26044.1 -03462.8 -07.5736 26273.3
 12 06 2013  12 09  -21.0251 26044.1 -03462.7 -07.5734 26273.3
 12 06 2013  12 10  -21.0261 26044.0 -03462.5 -07.5730 26273.1
 12 06 2013  12 11  -21.0266 26043.9 -03462.4 -07.5729 26273.0
 12 06 2013  12 12  -21.0271 26044.1 -03462.4 -07.5728 26273.2
 12 06 2013  12 13  -21.0280 26044.2 -03462.4 -07.5727 26273.3
 12 06 2013  12 14  -21.0286 26044.2 -03462.4 -07.5727 26273.4
 12 06 2013  12 15  -21.0292 26044.2 -03462.3 -07.5725 26273.3
 12 06 2013  12 16  -21.0298 26044.2 -03462.3 -07.5725 26273.3
 12 06 2013  12 17  -21.0305 26044.2 -03462.3 -07.5724 26273.3
 12 06 2013  12 18  -21.0308 26044.3 -03462.3 -07.5724 26273.4
 12 06 2013  12 19  -21.0314 26044.3 -03462.2 -07.5722 26273.4
 12 06 2013  12 20  -21.0316 26044.3 -03462.2 -07.5722 26273.4
 12 06 2013  12 21  -21.0320 26044.2 -03462.1 -07.5720 26273.3
 12 06 2013  12 22  -21.0324 26044.2 -03462.1 -07.5720 26273.3
 12 06 2013  12 23  -21.0328 26044.2 -03462.0 -07.5719 26273.3
 12 06 2013  12 24  -21.0335 26044.3 -03462.1 -07.5719 26273.4
 12 06 2013  12 25  -21.0339 26044.5 -03462.1 -07.5719 26273.6
 12 06 2013  12 26  -21.0342 26044.5 -03462.0 -07.5717 26273.6
 12 06 2013  12 27  -21.0346 26044.6 -03462.0 -07.5716 26273.7
 12 06 2013  12 28  -21.0350 26044.6 -03461.9 -07.5715 26273.7
 12 06 2013  12 29  -21.0356 26044.6 -03461.9 -07.5714 26273.6
 12 06 2013  12 30  -21.0361 26044.6 -03461.8 -07.5713 26273.7
 12 06 2013  12 31  -21.0366 26044.7 -03461.7 -07.5710 26273.7
 12 06 2013  12 32  -21.0373 26044.8 -03461.7 -07.5710 26273.8
 12 06 2013  12 33  -21.0380 26044.8 -03461.6 -07.5708 26273.9
 12 06 2013  12 34  -21.0387 26044.7 -03461.5 -07.5706 26273.8
 12 06 2013  12 35  -21.0394 26044.7 -03461.4 -07.5704 26273.7
 12 06 2013  12 36  -21.0396 26044.6 -03461.4 -07.5703 26273.6
 12 06 2013  12 37  -21.0402 26044.6 -03461.3 -07.5702 26273.6
 12 06 2013  12 38  -21.0408 26044.8 -03461.4 -07.5704 26273.8
 12 06 2013  12 39  -21.0416 26045.1 -03461.5 -07.5704 26274.1
 12 06 2013  12 40  -21.0422 26045.4 -03461.5 -07.5704 26274.4
 12 06 2013  12 41  -21.0426 26045.8 -03461.5 -07.5703 26274.8
 12 06 2013  12 42  -21.0429 26046.2 -03461.5 -07.5702 26275.2
 12 06 2013  12 43  -21.0433 26046.4 -03461.4 -07.5699 26275.4
 12 06 2013  12 44  -21.0435 26046.5 -03461.2 -07.5695 26275.5
 12 06 2013  12 45  -21.0479 26046.0 -03460.7 -07.5685 26274.9
 12 06 2013  12 46  -21.0486 26046.0 -03460.6 -07.5682 26274.8
 12 06 2013  12 47  -21.0491 26045.8 -03460.4 -07.5679 26274.7
 12 06 2013  12 48  -21.0497 26045.8 -03460.4 -07.5678 26274.6
 12 06 2013  12 49  -21.0505 26045.7 -03460.3 -07.5678 26274.6
 12 06 2013  12 50  -21.0522 26045.9 -03460.5 -07.5681 26274.7
 12 06 2013  12 51  -21.0533 26045.9 -03460.5 -07.5682 26274.8
 12 06 2013  12 52  -21.0541 26045.9 -03460.5 -07.5680 26274.8
 12 06 2013  12 53  -21.0548 26045.9 -03460.3 -07.5677 26274.8
 12 06 2013  12 54  -21.0555 26045.8 -03460.2 -07.5675 26274.6
 12 06 2013  12 55  -21.0563 26046.0 -03460.2 -07.5674 26274.9
 12 06 2013  12 56  -21.0561 26046.7 -03460.2 -07.5672 26275.5
 12 06 2013  12 57  -21.0566 26046.9 -03460.0 -07.5667 26275.7
 12 06 2013  12 58  -21.0569 26047.2 -03459.9 -07.5663 26276.0
 12 06 2013  12 59  -21.0574 26047.1 -03459.5 -07.5656 26275.8
 12 06 2013  13 00  -21.0575 26047.0 -03459.2 -07.5650 26275.7
 12 06 2013  13 01  -21.0577 26046.7 -03458.9 -07.5644 26275.4
 12 06 2013  13 02  -21.0573 26046.9 -03458.9 -07.5642 26275.5
 12 06 2013  13 03  -21.0579 26046.6 -03458.7 -07.5639 26275.2
 12 06 2013  13 04  -21.0582 26046.6 -03458.7 -07.5640 26275.3
 12 06 2013  13 05  -21.0583 26047.0 -03458.8 -07.5642 26275.7
 12 06 2013  13 06  -21.0587 26046.9 -03458.8 -07.5640 26275.5
 12 06 2013  13 07  -21.0591 26047.5 -03459.0 -07.5643 26276.2
 12 06 2013  13 08  -21.0594 26048.1 -03459.1 -07.5644 26276.7
 12 06 2013  13 09  -21.0599 26048.5 -03459.1 -07.5644 26277.1
 12 06 2013  13 10  -21.0602 26048.7 -03459.1 -07.5642 26277.4
 12 06 2013  13 11  -21.0608 26048.8 -03459.0 -07.5639 26277.5
 12 06 2013  13 12  -21.0613 26049.0 -03458.9 -07.5636 26277.6
 12 06 2013  13 13  -21.0617 26049.3 -03458.8 -07.5634 26277.9
 12 06 2013  13 14  -21.0590 26049.8 -03458.9 -07.5634 26278.5
 12 06 2013  13 15  -21.0579 26050.4 -03459.0 -07.5635 26279.0
 12 06 2013  13 16  -21.0582 26050.7 -03459.0 -07.5633 26279.3
 12 06 2013  13 17  -21.0583 26050.6 -03458.7 -07.5628 26279.2
 12 06 2013  13 18  -21.0584 26050.3 -03458.4 -07.5623 26278.8
 12 06 2013  13 19  -21.0587 26050.1 -03458.3 -07.5621 26278.7
 12 06 2013  13 20  -21.0590 26050.2 -03458.3 -07.5621 26278.7
 12 06 2013  13 21  -21.0595 26050.4 -03458.4 -07.5622 26279.0
 12 06 2013  13 22  -21.0598 26050.5 -03458.3 -07.5621 26279.0
 12 06 2013  13 23  -21.0605 26050.3 -03458.2 -07.5619 26278.9
 12 06 2013  13 24  -21.0610 26050.1 -03458.1 -07.5617 26278.7
 12 06 2013  13 25  -21.0616 26050.0 -03458.0 -07.5615 26278.5
 12 06 2013  13 26  -21.0621 26049.8 -03458.0 -07.5615 26278.3
 12 06 2013  13 27  -21.0624 26049.6 -03458.0 -07.5615 26278.1
 12 06 2013  13 28  -21.0629 26049.5 -03458.0 -07.5616 26278.0
 12 06 2013  13 29  -21.0631 26049.5 -03458.0 -07.5617 26278.0
 12 06 2013  13 30  -21.0635 26049.7 -03458.2 -07.5620 26278.2
 12 06 2013  13 31  -21.0641 26049.8 -03458.2 -07.5621 26278.4
 12 06 2013  13 32  -21.0645 26050.0 -03458.3 -07.5621 26278.5
 12 06 2013  13 33  -21.0651 26050.2 -03458.3 -07.5622 26278.7
 12 06 2013  13 34  -21.0654 26050.4 -03458.3 -07.5621 26278.9
 12 06 2013  13 35  -21.0659 26050.4 -03458.3 -07.5621 26279.0
 12 06 2013  13 36  -21.0665 26050.3 -03458.2 -07.5618 26278.8
 12 06 2013  13 37  -21.0667 26050.1 -03458.1 -07.5616 26278.6
 12 06 2013  13 38  -21.0669 26050.2 -03458.1 -07.5616 26278.7
 12 06 2013  13 39  -21.0672 26049.8 -03457.9 -07.5614 26278.4
 12 06 2013  13 40  -21.0678 26049.8 -03457.9 -07.5614 26278.3
 12 06 2013  13 41  -21.0679 26049.7 -03457.8 -07.5612 26278.2
 12 06 2013  13 42  -21.0684 26049.6 -03457.8 -07.5612 26278.1
 12 06 2013  13 43  -21.0690 26049.7 -03457.8 -07.5612 26278.1
 12 06 2013  13 44  -21.0691 26050.0 -03457.9 -07.5613 26278.5
 12 06 2013  13 45  -21.0698 26050.2 -03458.0 -07.5614 26278.7
 12 06 2013  13 46  -21.0701 26050.2 -03457.9 -07.5612 26278.7
 12 06 2013  13 47  -21.0705 26050.3 -03457.8 -07.5610 26278.8
 12 06 2013  13 48  -21.0710 26050.2 -03457.7 -07.5609 26278.7
 12 06 2013  13 49  -21.0715 26050.2 -03457.6 -07.5606 26278.7
 12 06 2013  13 50  -21.0715 26050.2 -03457.5 -07.5604 26278.7
 12 06 2013  13 51  -21.0718 26050.4 -03457.6 -07.5604 26278.9
 12 06 2013  13 52  -21.0721 26050.4 -03457.5 -07.5602 26278.9
 12 06 2013  13 53  -21.0724 26050.2 -03457.3 -07.5598 26278.6
 12 06 2013  13 54  -21.0731 26050.7 -03457.4 -07.5600 26279.1
 12 06 2013  13 55  -21.0732 26051.3 -03457.6 -07.5602 26279.8
 12 06 2013  13 56  -21.0729 26051.1 -03457.4 -07.5598 26279.5
 12 06 2013  13 57  -21.0726 26050.9 -03457.2 -07.5595 26279.3
 12 06 2013  13 58  -21.0728 26051.2 -03457.3 -07.5596 26279.6
 12 06 2013  13 59  -21.0730 26051.6 -03457.5 -07.5600 26280.0
 12 06 2013  14 00  -21.0731 26051.7 -03457.5 -07.5599 26280.1
 12 06 2013  14 01  -21.0736 26052.2 -03457.6 -07.5600 26280.6
 12 06 2013  14 02  -21.0742 26053.0 -03457.8 -07.5602 26281.4
 12 06 2013  14 03  -21.0751 26053.7 -03457.9 -07.5603 26282.1
 12 06 2013  14 04  -21.0759 26053.5 -03457.6 -07.5596 26281.9
 12 06 2013  14 05  -21.0769 26053.3 -03457.2 -07.5589 26281.7
 12 06 2013  14 06  -21.0768 26053.0 -03456.8 -07.5581 26281.3
 12 06 2013  14 07  -21.0771 26053.0 -03456.7 -07.5579 26281.3
 12 06 2013  14 08  -21.0773 26053.4 -03456.8 -07.5579 26281.7
 12 06 2013  14 09  -21.0783 26053.4 -03456.7 -07.5578 26281.7
 12 06 2013  14 10  -21.0794 26053.7 -03456.8 -07.5578 26282.0
 12 06 2013  14 11  -21.0799 26052.7 -03456.2 -07.5569 26281.0
 12 06 2013  14 12  -21.0794 26053.0 -03456.3 -07.5570 26281.3
 12 06 2013  14 13  -21.0799 26053.3 -03456.4 -07.5571 26281.5
 12 06 2013  14 14  -21.0803 26053.6 -03456.5 -07.5573 26281.9
 12 06 2013  14 15  -21.0807 26053.5 -03456.5 -07.5572 26281.8
 12 06 2013  14 16  -21.0805 26053.0 -03456.3 -07.5570 26281.3
 12 06 2013  14 17  -21.0805 26052.6 -03456.2 -07.5570 26280.9
 12 06 2013  14 18  -21.0806 26053.0 -03456.5 -07.5574 26281.3
 12 06 2013  14 19  -21.0810 26054.0 -03456.9 -07.5581 26282.3
 12 06 2013  14 20  -21.0814 26055.0 -03457.3 -07.5585 26283.4
 12 06 2013  14 21  -21.0823 26055.6 -03457.4 -07.5585 26284.0
 12 06 2013  14 22  -21.0829 26056.0 -03457.1 -07.5579 26284.3
 12 06 2013  14 23  -21.0834 26056.4 -03457.0 -07.5575 26284.8
 12 06 2013  14 24  -21.0834 26055.9 -03456.5 -07.5566 26284.2
 12 06 2013  14 25  -21.0828 26055.3 -03456.2 -07.5560 26283.6
 12 06 2013  14 26  -21.0827 26055.0 -03456.1 -07.5560 26283.2
 12 06 2013  14 27  -21.0825 26054.8 -03456.2 -07.5561 26283.1
 12 06 2013  14 28  -21.0830 26055.5 -03456.6 -07.5568 26283.8
 12 06 2013  14 29  -21.0836 26055.5 -03456.6 -07.5568 26283.8
 12 06 2013  14 30  -21.0839 26055.7 -03456.6 -07.5569 26283.9
 12 06 2013  14 31  -21.0840 26056.0 -03456.7 -07.5570 26284.3
 12 06 2013  14 32  -21.0842 26056.3 -03456.7 -07.5568 26284.5
 12 06 2013  14 33  -21.0841 26055.7 -03456.3 -07.5561 26284.0
 12 06 2013  14 34  -21.0845 26055.1 -03455.9 -07.5556 26283.3
 12 06 2013  14 35  -21.0846 26054.9 -03455.8 -07.5554 26283.1
 12 06 2013  14 36  -21.0850 26054.6 -03455.6 -07.5551 26282.8
 12 06 2013  14 37  -21.0850 26054.4 -03455.5 -07.5549 26282.5
 12 06 2013  14 38  -21.0863 26054.1 -03455.4 -07.5546 26282.3
 12 06 2013  14 39  -21.0860 26053.5 -03455.1 -07.5541 26281.6
 12 06 2013  14 40  -21.0868 26053.8 -03455.3 -07.5545 26281.9
 12 06 2013  14 41  -21.0874 26053.9 -03455.2 -07.5544 26282.0
 12 06 2013  14 42  -21.0882 26054.0 -03455.3 -07.5544 26282.2
 12 06 2013  14 43  -21.0885 26053.7 -03455.0 -07.5539 26281.8
 12 06 2013  14 44  -21.0882 26053.5 -03454.9 -07.5538 26281.6
 12 06 2013  14 45  -21.0893 26054.1 -03455.1 -07.5541 26282.2
 12 06 2013  14 46  -21.0902 26054.7 -03455.2 -07.5540 26282.8
 12 06 2013  14 47  -21.0918 26055.3 -03455.2 -07.5540 26283.4
 12 06 2013  14 48  -21.0911 26054.3 -03454.5 -07.5528 26282.3
 12 06 2013  14 49  -21.0899 26055.2 -03455.0 -07.5535 26283.3
 12 06 2013  14 50  -21.0911 26056.1 -03455.4 -07.5541 26284.2
 12 06 2013  14 51  -21.0910 26056.9 -03455.6 -07.5542 26285.0
 12 06 2013  14 52  -21.0908 26058.2 -03455.9 -07.5546 26286.4
 12 06 2013  14 53  -21.0915 26059.6 -03456.2 -07.5549 26287.8
 12 06 2013  14 54  -21.0915 26060.7 -03456.3 -07.5546 26288.9
 12 06 2013  14 55  -21.0910 26061.4 -03456.1 -07.5541 26289.5
 12 06 2013  14 56  -21.0904 26061.7 -03455.7 -07.5531 26289.8
 12 06 2013  14 57  -21.0892 26061.5 -03455.2 -07.5521 26289.6
 12 06 2013  14 58  -21.0885 26061.0 -03454.7 -07.5513 26289.0
 12 06 2013  14 59  -21.0879 26060.4 -03454.4 -07.5507 26288.3
 12 06 2013  15 00  -21.0872 26059.9 -03454.2 -07.5504 26287.8
 12 06 2013  15 01  -21.0871 26059.6 -03454.2 -07.5504 26287.6
 12 06 2013  15 02  -21.0874 26059.4 -03454.2 -07.5506 26287.4
 12 06 2013  15 03  -21.0880 26059.5 -03454.4 -07.5510 26287.5
 12 06 2013  15 04  -21.0885 26059.9 -03454.5 -07.5512 26287.9
 12 06 2013  15 05  -21.0892 26060.3 -03454.7 -07.5514 26288.2
 12 06 2013  15 06  -21.0896 26060.2 -03454.6 -07.5512 26288.2
 12 06 2013  15 07  -21.0896 26059.9 -03454.4 -07.5509 26287.9
 12 06 2013  15 08  -21.0897 26059.8 -03454.3 -07.5507 26287.7
 12 06 2013  15 09  -21.0896 26059.6 -03454.2 -07.5506 26287.5
 12 06 2013  15 10  -21.0892 26059.4 -03454.2 -07.5505 26287.3
 12 06 2013  15 11  -21.0891 26059.3 -03454.1 -07.5505 26287.3
 12 06 2013  15 12  -21.0893 26059.6 -03454.3 -07.5507 26287.5
 12 06 2013  15 13  -21.0892 26059.5 -03454.2 -07.5506 26287.4
 12 06 2013  15 14  -21.0893 26059.8 -03454.3 -07.5507 26287.7
 12 06 2013  15 15  -21.0893 26059.9 -03454.3 -07.5507 26287.8
 12 06 2013  15 16  -21.0892 26059.9 -03454.4 -07.5508 26287.9
 12 06 2013  15 17  -21.0889 26060.2 -03454.4 -07.5509 26288.1
 12 06 2013  15 18  -21.0886 26060.2 -03454.4 -07.5509 26288.1
 12 06 2013  15 19  -21.0884 26060.5 -03454.6 -07.5511 26288.5
 12 06 2013  15 20  -21.0881 26060.6 -03454.6 -07.5511 26288.6
 12 06 2013  15 21  -21.0876 26060.6 -03454.6 -07.5511 26288.6
 12 06 2013  15 22  -21.0869 26060.7 -03454.6 -07.5511 26288.7
 12 06 2013  15 23  -21.0866 26060.7 -03454.6 -07.5511 26288.7
 12 06 2013  15 24  -21.0865 26060.7 -03454.6 -07.5511 26288.7
 12 06 2013  15 25  -21.0860 26060.6 -03454.5 -07.5509 26288.6
 12 06 2013  15 26  -21.0853 26060.0 -03454.2 -07.5504 26288.0
 12 06 2013  15 27  -21.0844 26059.8 -03454.2 -07.5504 26287.7
 12 06 2013  15 28  -21.0837 26059.7 -03454.2 -07.5506 26287.6
 12 06 2013  15 29  -21.0838 26059.6 -03454.3 -07.5508 26287.5
 12 06 2013  15 30  -21.0833 26059.3 -03454.3 -07.5507 26287.2
 12 06 2013  15 31  -21.0828 26059.4 -03454.4 -07.5509 26287.4
 12 06 2013  15 32  -21.0825 26059.6 -03454.4 -07.5511 26287.5
 12 06 2013  15 33  -21.0820 26059.5 -03454.4 -07.5510 26287.4
 12 06 2013  15 34  -21.0814 26059.5 -03454.5 -07.5513 26287.5
 12 06 2013  15 35  -21.0810 26059.8 -03454.7 -07.5516 26287.8
 12 06 2013  15 36  -21.0809 26060.1 -03454.9 -07.5519 26288.1
 12 06 2013  15 37  -21.0806 26060.2 -03455.0 -07.5520 26288.2
 12 06 2013  15 38  -21.0802 26060.5 -03455.1 -07.5521 26288.5
 12 06 2013  15 39  -21.0799 26060.6 -03455.1 -07.5522 26288.7
 12 06 2013  15 40  -21.0796 26060.9 -03455.2 -07.5523 26288.9
 12 06 2013  15 41  -21.0792 26061.2 -03455.3 -07.5525 26289.3
 12 06 2013  15 42  -21.0789 26061.7 -03455.5 -07.5526 26289.7
 12 06 2013  15 43  -21.0786 26061.9 -03455.5 -07.5526 26290.0
 12 06 2013  15 44  -21.0781 26062.2 -03455.4 -07.5525 26290.3
 12 06 2013  15 45  -21.0777 26062.2 -03455.3 -07.5522 26290.2
 12 06 2013  15 46  -21.0772 26062.3 -03455.2 -07.5520 26290.3
 12 06 2013  15 47  -21.0768 26062.2 -03455.0 -07.5516 26290.2
 12 06 2013  15 48  -21.0763 26062.2 -03454.9 -07.5514 26290.2
 12 06 2013  15 49  -21.0758 26062.1 -03454.8 -07.5512 26290.1
 12 06 2013  15 50  -21.0754 26062.2 -03454.7 -07.5509 26290.1
 12 06 2013  15 51  -21.0750 26062.2 -03454.7 -07.5508 26290.1
 12 06 2013  15 52  -21.0748 26062.2 -03454.5 -07.5505 26290.2
 12 06 2013  15 53  -21.0745 26062.3 -03454.5 -07.5503 26290.2
 12 06 2013  15 54  -21.0744 26062.2 -03454.3 -07.5500 26290.1
 12 06 2013  15 55  -21.0743 26062.1 -03454.2 -07.5498 26290.0
 12 06 2013  15 56  -21.0742 26062.2 -03454.1 -07.5496 26290.1
 12 06 2013  15 57  -21.0741 26062.2 -03454.0 -07.5493 26290.1
 12 06 2013  15 58  -21.0739 26062.1 -03453.8 -07.5489 26289.9
 12 06 2013  15 59  -21.0739 26062.3 -03453.8 -07.5488 26290.1
 12 06 2013  16 00  -21.0739 26062.2 -03453.6 -07.5484 26290.0
 12 06 2013  16 01  -21.0738 26062.2 -03453.4 -07.5481 26290.0
 12 06 2013  16 02  -21.0737 26062.3 -03453.3 -07.5479 26290.0
 12 06 2013  16 03  -21.0735 26062.3 -03453.2 -07.5477 26290.1
 12 06 2013  16 04  -21.0734 26062.5 -03453.2 -07.5475 26290.3
 12 06 2013  16 05  -21.0734 26062.7 -03453.1 -07.5473 26290.4
 12 06 2013  16 06  -21.0732 26062.7 -03453.0 -07.5470 26290.4
 12 06 2013  16 07  -21.0731 26062.9 -03452.9 -07.5467 26290.6
 12 06 2013  16 08  -21.0732 26063.1 -03452.8 -07.5465 26290.8
 12 06 2013  16 09  -21.0731 26062.8 -03452.5 -07.5458 26290.5
 12 06 2013  16 10  -21.0728 26063.1 -03452.4 -07.5456 26290.8
 12 06 2013  16 11  -21.0728 26062.6 -03452.1 -07.5450 26290.3
 12 06 2013  16 12  -21.0725 26062.6 -03451.8 -07.5446 26290.2
 12 06 2013  16 13  -21.0724 26062.6 -03451.7 -07.5444 26290.1
 12 06 2013  16 14  -21.0724 26062.8 -03451.7 -07.5442 26290.4
 12 06 2013  16 15  -21.0723 26062.7 -03451.5 -07.5439 26290.3
 12 06 2013  16 16  -21.0724 26062.8 -03451.4 -07.5436 26290.3
 12 06 2013  16 17  -21.0723 26062.9 -03451.4 -07.5434 26290.5
 12 06 2013  16 18  -21.0724 26062.8 -03451.2 -07.5431 26290.3
 12 06 2013  16 19  -21.0725 26062.8 -03451.1 -07.5428 26290.3
 12 06 2013  16 20  -21.0725 26062.9 -03451.0 -07.5426 26290.3
 12 06 2013  16 21  -21.0725 26062.9 -03450.9 -07.5424 26290.3
 12 06 2013  16 22  -21.0727 26062.8 -03450.7 -07.5421 26290.2
 12 06 2013  16 23  -21.0729 26062.8 -03450.7 -07.5420 26290.3
 12 06 2013  16 24  -21.0732 26062.9 -03450.6 -07.5417 26290.3
 12 06 2013  16 25  -21.0733 26062.9 -03450.4 -07.5414 26290.3
 12 06 2013  16 26  -21.0734 26062.9 -03450.3 -07.5412 26290.3
 12 06 2013  16 27  -21.0736 26062.9 -03450.3 -07.5411 26290.3
 12 06 2013  16 28  -21.0738 26062.9 -03450.2 -07.5409 26290.2
 12 06 2013  16 29  -21.0740 26062.8 -03450.1 -07.5407 26290.2
 12 06 2013  16 30  -21.0741 26062.7 -03449.9 -07.5404 26290.0
 12 06 2013  16 31  -21.0741 26062.5 -03449.8 -07.5402 26289.8
 12 06 2013  16 32  -21.0740 26061.7 -03449.5 -07.5397 26289.0
 12 06 2013  16 33  -21.0746 26062.2 -03449.7 -07.5401 26289.5
 12 06 2013  16 34  -21.0750 26061.9 -03449.6 -07.5399 26289.2
 12 06 2013  16 35  -21.0750 26061.7 -03449.5 -07.5397 26289.0
 12 06 2013  16 36  -21.0750 26061.1 -03449.2 -07.5393 26288.4
 12 06 2013  16 37  -21.0752 26061.2 -03449.2 -07.5394 26288.4
 12 06 2013  16 38  -21.0755 26061.0 -03449.2 -07.5393 26288.3
 12 06 2013  16 39  -21.0757 26060.9 -03449.1 -07.5391 26288.2
 12 06 2013  16 40  -21.0759 26060.7 -03449.0 -07.5389 26287.9
 12 06 2013  16 41  -21.0761 26060.6 -03448.9 -07.5388 26287.8
 12 06 2013  16 42  -21.0763 26060.6 -03448.9 -07.5387 26287.8
 12 06 2013  16 43  -21.0764 26060.3 -03448.7 -07.5384 26287.5
 12 06 2013  16 44  -21.0766 26060.3 -03448.6 -07.5383 26287.4
 12 06 2013  16 45  -21.0769 26060.1 -03448.5 -07.5381 26287.3
 12 06 2013  16 46  -21.0770 26059.9 -03448.4 -07.5378 26287.1
 12 06 2013  16 47  -21.0769 26059.8 -03448.3 -07.5376 26286.9
 12 06 2013  16 48  -21.0769 26059.6 -03448.1 -07.5373 26286.7
 12 06 2013  16 49  -21.0769 26059.5 -03448.1 -07.5373 26286.6
 12 06 2013  16 50  -21.0768 26059.4 -03448.0 -07.5372 26286.6
 12 06 2013  16 51  -21.0770 26059.4 -03447.9 -07.5370 26286.5
 12 06 2013  16 52  -21.0771 26059.4 -03447.9 -07.5370 26286.5
 12 06 2013  16 53  -21.0770 26059.2 -03447.8 -07.5367 26286.3
 12 06 2013  16 54  -21.0769 26059.2 -03447.7 -07.5366 26286.2
 12 06 2013  16 55  -21.0768 26059.0 -03447.6 -07.5364 26286.1
 12 06 2013  16 56  -21.0767 26058.9 -03447.5 -07.5362 26286.0
 12 06 2013  16 57  -21.0767 26058.8 -03447.4 -07.5361 26285.9
 12 06 2013  16 58  -21.0766 26058.6 -03447.3 -07.5359 26285.7
 12 06 2013  16 59  -21.0764 26058.4 -03447.2 -07.5358 26285.4
 12 06 2013  17 00  -21.0760 26058.1 -03447.1 -07.5356 26285.1
 12 06 2013  17 01  -21.0759 26057.9 -03447.0 -07.5355 26284.9
 12 06 2013  17 02  -21.0757 26057.6 -03447.0 -07.5355 26284.6
 12 06 2013  17 03  -21.0755 26057.4 -03447.0 -07.5355 26284.4
 12 06 2013  17 04  -21.0754 26057.2 -03446.9 -07.5355 26284.2
 12 06 2013  17 05  -21.0752 26057.0 -03447.0 -07.5356 26284.0
 12 06 2013  17 06  -21.0750 26056.8 -03446.9 -07.5357 26283.8
 12 06 2013  17 07  -21.0749 26056.6 -03447.0 -07.5357 26283.6
 12 06 2013  17 08  -21.0747 26056.5 -03447.0 -07.5358 26283.6
 12 06 2013  17 09  -21.0745 26056.4 -03447.0 -07.5359 26283.4
 12 06 2013  17 10  -21.0743 26056.2 -03447.0 -07.5359 26283.2
 12 06 2013  17 11  -21.0742 26056.1 -03447.0 -07.5359 26283.1
 12 06 2013  17 12  -21.0740 26055.9 -03447.0 -07.5360 26282.9
 12 06 2013  17 13  -21.0738 26055.8 -03447.0 -07.5360 26282.8
 12 06 2013  17 14  -21.0739 26055.6 -03447.0 -07.5360 26282.6
 12 06 2013  17 15  -21.0736 26055.1 -03446.8 -07.5357 26282.1
 12 06 2013  17 16  -21.0737 26054.9 -03446.7 -07.5358 26281.9
 12 06 2013  17 17  -21.0737 26054.6 -03446.7 -07.5357 26281.6
 12 06 2013  17 18  -21.0737 26054.3 -03446.5 -07.5355 26281.3
 12 06 2013  17 19  -21.0736 26054.2 -03446.5 -07.5354 26281.1
 12 06 2013  17 20  -21.0734 26054.0 -03446.4 -07.5354 26280.9
 12 06 2013  17 21  -21.0734 26053.7 -03446.3 -07.5352 26280.7
 12 06 2013  17 22  -21.0736 26053.6 -03446.3 -07.5352 26280.6
 12 06 2013  17 23  -21.0738 26053.6 -03446.3 -07.5351 26280.6
 12 06 2013  17 24  -21.0736 26053.4 -03446.1 -07.5348 26280.3
 12 06 2013  17 25  -21.0735 26053.2 -03446.0 -07.5346 26280.1
 12 06 2013  17 26  -21.0735 26053.1 -03445.9 -07.5345 26280.0
 12 06 2013  17 27  -21.0732 26052.6 -03445.7 -07.5341 26279.5
 12 06 2013  17 28  -21.0728 26052.3 -03445.5 -07.5338 26279.1
 12 06 2013  17 29  -21.0725 26051.9 -03445.4 -07.5336 26278.8
 12 06 2013  17 30  -21.0722 26051.7 -03445.3 -07.5336 26278.6
 12 06 2013  17 31  -21.0719 26051.6 -03445.4 -07.5337 26278.4
 12 06 2013  17 32  -21.0714 26051.2 -03445.3 -07.5337 26278.1
 12 06 2013  17 33  -21.0711 26051.0 -03445.3 -07.5337 26277.8
 12 06 2013  17 34  -21.0710 26050.9 -03445.4 -07.5340 26277.8
 12 06 2013  17 35  -21.0710 26050.7 -03445.4 -07.5340 26277.6
 12 06 2013  17 36  -21.0706 26050.5 -03445.3 -07.5340 26277.3
 12 06 2013  17 37  -21.0704 26050.1 -03445.2 -07.5338 26277.0
 12 06 2013  17 38  -21.0697 26049.8 -03445.1 -07.5337 26276.7
 12 06 2013  17 39  -21.0695 26049.6 -03445.2 -07.5339 26276.4
 12 06 2013  17 40  -21.0692 26049.3 -03445.2 -07.5339 26276.1
 12 06 2013  17 41  -21.0687 26048.7 -03445.0 -07.5338 26275.5
 12 06 2013  17 42  -21.0684 26048.2 -03444.9 -07.5337 26275.0
 12 06 2013  17 43  -21.0678 26047.8 -03444.9 -07.5337 26274.6
 12 06 2013  17 44  -21.0674 26047.6 -03445.0 -07.5341 26274.4
 12 06 2013  17 45  -21.0671 26047.5 -03445.2 -07.5345 26274.4
 12 06 2013  17 46  -21.0677 26047.7 -03445.4 -07.5349 26274.5
 12 06 2013  17 47  -21.0676 26047.4 -03445.3 -07.5347 26274.3
 12 06 2013  17 48  -21.0675 26047.2 -03445.2 -07.5347 26274.0
 12 06 2013  17 49  -21.0674 26046.9 -03445.1 -07.5346 26273.7
 12 06 2013  17 50  -21.0670 26046.6 -03445.1 -07.5346 26273.5
 12 06 2013  17 51  -21.0673 26046.4 -03445.1 -07.5346 26273.2
 12 06 2013  17 52  -21.0670 26046.1 -03445.0 -07.5345 26272.9
 12 06 2013  17 53  -21.0668 26045.7 -03445.0 -07.5346 26272.6
 12 06 2013  17 54  -21.0666 26045.5 -03445.0 -07.5347 26272.3
 12 06 2013  17 55  -21.0668 26045.6 -03445.2 -07.5351 26272.5
 12 06 2013  17 56  -21.0665 26045.4 -03445.2 -07.5351 26272.3
 12 06 2013  17 57  -21.0666 26045.4 -03445.3 -07.5354 26272.3
 12 06 2013  17 58  -21.0668 26045.3 -03445.3 -07.5354 26272.2
 12 06 2013  17 59  -21.0664 26044.8 -03445.2 -07.5352 26271.7
 12 06 2013  18 00  -21.0663 26044.8 -03445.3 -07.5354 26271.7
 12 06 2013  18 01  -21.0666 26044.7 -03445.3 -07.5356 26271.6
 12 06 2013  18 02  -21.0661 26044.1 -03445.1 -07.5353 26271.0
 12 06 2013  18 03  -21.0659 26044.0 -03445.2 -07.5355 26270.8
 12 06 2013  18 04  -21.0657 26043.6 -03445.2 -07.5355 26270.5
 12 06 2013  18 05  -21.0658 26043.5 -03445.3 -07.5358 26270.4
 12 06 2013  18 06  -21.0657 26043.4 -03445.3 -07.5358 26270.3
 12 06 2013  18 07  -21.0659 26043.3 -03445.3 -07.5359 26270.2
 12 06 2013  18 08  -21.0660 26043.3 -03445.3 -07.5359 26270.2
 12 06 2013  18 09  -21.0662 26043.1 -03445.3 -07.5360 26270.0
 12 06 2013  18 10  -21.0662 26042.9 -03445.1 -07.5357 26269.8
 12 06 2013  18 11  -21.0663 26042.8 -03445.1 -07.5356 26269.6
 12 06 2013  18 12  -21.0663 26042.5 -03445.0 -07.5355 26269.4
 12 06 2013  18 13  -21.0662 26042.2 -03444.8 -07.5353 26269.0
 12 06 2013  18 14  -21.0662 26042.1 -03444.9 -07.5353 26269.0
 12 06 2013  18 15  -21.0663 26042.1 -03444.9 -07.5354 26269.0
 12 06 2013  18 16  -21.0664 26041.9 -03444.8 -07.5353 26268.8
 12 06 2013  18 17  -21.0667 26042.0 -03444.8 -07.5353 26268.9
 12 06 2013  18 18  -21.0667 26041.7 -03444.6 -07.5350 26268.6
 12 06 2013  18 19  -21.0665 26041.5 -03444.5 -07.5348 26268.3
 12 06 2013  18 20  -21.0663 26041.2 -03444.4 -07.5346 26268.0
 12 06 2013  18 21  -21.0664 26041.0 -03444.3 -07.5345 26267.8
 12 06 2013  18 22  -21.0666 26041.0 -03444.3 -07.5345 26267.8
 12 06 2013  18 23  -21.0664 26040.6 -03444.1 -07.5341 26267.3
 12 06 2013  18 24  -21.0659 26040.2 -03444.0 -07.5340 26267.0
 12 06 2013  18 25  -21.0658 26039.9 -03443.9 -07.5339 26266.6
 12 06 2013  18 26  -21.0655 26039.5 -03443.8 -07.5337 26266.2
 12 06 2013  18 27  -21.0652 26039.1 -03443.7 -07.5337 26265.8
 12 06 2013  18 28  -21.0649 26038.8 -03443.7 -07.5337 26265.5
 12 06 2013  18 29  -21.0648 26038.5 -03443.7 -07.5338 26265.2
 12 06 2013  18 30  -21.0645 26038.1 -03443.6 -07.5337 26264.9
 12 06 2013  18 31  -21.0643 26037.9 -03443.6 -07.5338 26264.6
 12 06 2013  18 32  -21.0640 26037.6 -03443.6 -07.5338 26264.3
 12 06 2013  18 33  -21.0637 26037.2 -03443.5 -07.5339 26263.9
 12 06 2013  18 34  -21.0634 26037.0 -03443.6 -07.5340 26263.8
 12 06 2013  18 35  -21.0628 26036.7 -03443.6 -07.5341 26263.4
 12 06 2013  18 36  -21.0626 26036.6 -03443.7 -07.5344 26263.3
 12 06 2013  18 37  -21.0623 26036.7 -03443.9 -07.5348 26263.5
 12 06 2013  18 38  -21.0623 26036.7 -03444.1 -07.5352 26263.5
 12 06 2013  18 39  -21.0619 26036.4 -03444.0 -07.5351 26263.2
 12 06 2013  18 40  -21.0613 26036.2 -03444.0 -07.5353 26263.0
 12 06 2013  18 41  -21.0609 26036.1 -03444.1 -07.5355 26262.9
 12 06 2013  18 42  -21.0605 26036.0 -03444.3 -07.5358 26262.9
 12 06 2013  18 43  -21.0600 26035.9 -03444.3 -07.5359 26262.7
 12 06 2013  18 44  -21.0593 26035.8 -03444.4 -07.5362 26262.6
 12 06 2013  18 45  -21.0590 26035.8 -03444.5 -07.5365 26262.6
 12 06 2013  18 46  -21.0587 26035.9 -03444.7 -07.5368 26262.8
 12 06 2013  18 47  -21.0585 26035.9 -03444.8 -07.5371 26262.8
 12 06 2013  18 48  -21.0581 26035.8 -03444.8 -07.5370 26262.7
 12 06 2013  18 49  -21.0580 26035.8 -03444.9 -07.5372 26262.7
 12 06 2013  18 50  -21.0576 26035.4 -03444.8 -07.5372 26262.3
 12 06 2013  18 51  -21.0573 26035.3 -03444.8 -07.5372 26262.2
 12 06 2013  18 52  -21.0570 26035.0 -03444.8 -07.5373 26262.0
 12 06 2013  18 53  -21.0568 26034.8 -03444.8 -07.5373 26261.7
 12 06 2013  18 54  -21.0563 26034.7 -03444.8 -07.5373 26261.6
 12 06 2013  18 55  -21.0559 26034.3 -03444.7 -07.5372 26261.2
 12 06 2013  18 56  -21.0553 26034.0 -03444.7 -07.5372 26260.9
 12 06 2013  18 57  -21.0547 26033.8 -03444.7 -07.5373 26260.7
 12 06 2013  18 58  -21.0542 26033.4 -03444.7 -07.5375 26260.4
 12 06 2013  18 59  -21.0536 26033.1 -03444.7 -07.5376 26260.0
 12 06 2013  19 00  -21.0573 26032.7 -03444.5 -07.5374 26259.6
 12 06 2013  19 01  -21.0573 26032.5 -03444.6 -07.5376 26259.4
 12 06 2013  19 02  -21.0574 26032.4 -03444.8 -07.5380 26259.3
 12 06 2013  19 03  -21.0574 26032.4 -03444.9 -07.5383 26259.3
 12 06 2013  19 04  -21.0573 26032.2 -03444.9 -07.5383 26259.2
 12 06 2013  19 05  -21.0573 26032.1 -03445.0 -07.5385 26259.0
 12 06 2013  19 06  -21.0574 26032.0 -03445.1 -07.5387 26259.0
 12 06 2013  19 07  -21.0568 26031.9 -03445.0 -07.5386 26258.9
 12 06 2013  19 08  -21.0571 26031.9 -03445.1 -07.5389 26258.9
 12 06 2013  19 09  -21.0570 26031.7 -03445.1 -07.5388 26258.7
 12 06 2013  19 10  -21.0567 26031.6 -03445.1 -07.5390 26258.6
 12 06 2013  19 11  -21.0559 26031.5 -03445.2 -07.5391 26258.5
 12 06 2013  19 12  -21.0521 26031.7 -03445.5 -07.5397 26258.7
 12 06 2013  19 13  -21.0519 26031.6 -03445.5 -07.5398 26258.7
 12 06 2013  19 14  -21.0520 26031.6 -03445.5 -07.5398 26258.6
 12 06 2013  19 15  -21.0518 26031.3 -03445.4 -07.5397 26258.3
 12 06 2013  19 16  -21.0516 26031.0 -03445.4 -07.5397 26258.1
 12 06 2013  19 17  -21.0515 26031.0 -03445.5 -07.5398 26258.0
 12 06 2013  19 18  -21.0515 26030.8 -03445.4 -07.5398 26257.8
 12 06 2013  19 19  -21.0514 26030.7 -03445.4 -07.5398 26257.7
 12 06 2013  19 20  -21.0512 26030.5 -03445.4 -07.5398 26257.5
 12 06 2013  19 21  -21.0510 26030.5 -03445.4 -07.5399 26257.5
 12 06 2013  19 22  -21.0508 26030.3 -03445.4 -07.5399 26257.4
 12 06 2013  19 23  -21.0505 26030.2 -03445.4 -07.5400 26257.2
 12 06 2013  19 24  -21.0502 26030.0 -03445.5 -07.5401 26257.1
 12 06 2013  19 25  -21.0500 26029.9 -03445.5 -07.5402 26256.9
 12 06 2013  19 26  -21.0499 26029.8 -03445.6 -07.5404 26256.9
 12 06 2013  19 27  -21.0499 26029.8 -03445.6 -07.5406 26256.9
 12 06 2013  19 28  -21.0500 26029.8 -03445.7 -07.5407 26256.9
 12 06 2013  19 29  -21.0502 26029.8 -03445.7 -07.5408 26256.9
 12 06 2013  19 30  -21.0505 26029.6 -03445.6 -07.5406 26256.6
 12 06 2013  19 31  -21.0505 26029.3 -03445.5 -07.5405 26256.4
 12 06 2013  19 32  -21.0505 26029.1 -03445.4 -07.5403 26256.1
 12 06 2013  19 33  -21.0504 26028.9 -03445.4 -07.5402 26255.9
 12 06 2013  19 34  -21.0502 26028.5 -03445.3 -07.5401 26255.6
 12 06 2013  19 35  -21.0498 26028.2 -03445.2 -07.5401 26255.2
 12 06 2013  19 36  -21.0495 26028.0 -03445.2 -07.5402 26255.0
 12 06 2013  19 37  -21.0491 26027.8 -03445.3 -07.5403 26254.9
 12 06 2013  19 38  -21.0489 26027.7 -03445.3 -07.5405 26254.7
 12 06 2013  19 39  -21.0488 26027.6 -03445.4 -07.5407 26254.6
 12 06 2013  19 40  -21.0488 26027.6 -03445.6 -07.5410 26254.7
 12 06 2013  19 41  -21.0488 26027.6 -03445.7 -07.5413 26254.7
 12 06 2013  19 42  -21.0487 26027.5 -03445.8 -07.5415 26254.6
 12 06 2013  19 43  -21.0486 26027.4 -03445.8 -07.5415 26254.5
 12 06 2013  19 44  -21.0484 26027.3 -03445.8 -07.5416 26254.4
 12 06 2013  19 45  -21.0484 26027.2 -03445.9 -07.5418 26254.3
 12 06 2013  19 46  -21.0483 26027.0 -03445.9 -07.5418 26254.2
 12 06 2013  19 47  -21.0482 26027.0 -03445.9 -07.5420 26254.1
 12 06 2013  19 48  -21.0482 26026.9 -03446.0 -07.5421 26254.0
 12 06 2013  19 49  -21.0482 26026.9 -03446.0 -07.5423 26254.1
 12 06 2013  19 50  -21.0481 26026.8 -03446.1 -07.5424 26253.9
 12 06 2013  19 51  -21.0480 26026.7 -03446.1 -07.5425 26253.8
 12 06 2013  19 52  -21.0478 26026.5 -03446.1 -07.5426 26253.6
 12 06 2013  19 53  -21.0478 26026.3 -03446.2 -07.5427 26253.5
 12 06 2013  19 54  -21.0476 26026.2 -03446.2 -07.5428 26253.3
 12 06 2013  19 55  -21.0475 26026.1 -03446.3 -07.5430 26253.3
 12 06 2013  19 56  -21.0473 26026.2 -03446.4 -07.5433 26253.4
 12 06 2013  19 57  -21.0473 26026.1 -03446.5 -07.5434 26253.3
 12 06 2013  19 58  -21.0472 26026.1 -03446.5 -07.5435 26253.3
 12 06 2013  19 59  -21.0471 26026.0 -03446.5 -07.5436 26253.2
 12 06 2013  20 00  -21.0471 26026.0 -03446.6 -07.5437 26253.2
 12 06 2013  20 01  -21.0471 26025.9 -03446.6 -07.5437 26253.1
 12 06 2013  20 02  -21.0470 26025.7 -03446.5 -07.5437 26252.9
 12 06 2013  20 03  -21.0469 26025.6 -03446.6 -07.5437 26252.8
 12 06 2013  20 04  -21.0468 26025.3 -03446.5 -07.5437 26252.5
 12 06 2013  20 05  -21.0465 26025.0 -03446.4 -07.5436 26252.3
 12 06 2013  20 06  -21.0463 26024.8 -03446.4 -07.5437 26252.0
 12 06 2013  20 07  -21.0462 26024.7 -03446.5 -07.5439 26251.9
 12 06 2013  20 08  -21.0462 26024.5 -03446.6 -07.5441 26251.8
 12 06 2013  20 09  -21.0462 26024.5 -03446.7 -07.5443 26251.7
 12 06 2013  20 10  -21.0463 26024.4 -03446.7 -07.5444 26251.7
 12 06 2013  20 11  -21.0464 26024.2 -03446.7 -07.5445 26251.5
 12 06 2013  20 12  -21.0464 26024.0 -03446.7 -07.5445 26251.2
 12 06 2013  20 13  -21.0464 26023.7 -03446.7 -07.5446 26251.0
 12 06 2013  20 14  -21.0463 26023.5 -03446.7 -07.5446 26250.8
 12 06 2013  20 15  -21.0461 26023.4 -03446.7 -07.5448 26250.7
 12 06 2013  20 16  -21.0460 26023.3 -03446.8 -07.5449 26250.6
 12 06 2013  20 17  -21.0459 26023.2 -03446.9 -07.5452 26250.5
 12 06 2013  20 18  -21.0458 26023.3 -03447.1 -07.5456 26250.6
 12 06 2013  20 19  -21.0458 26023.2 -03447.2 -07.5458 26250.6
 12 06 2013  20 20  -21.0458 26023.3 -03447.3 -07.5461 26250.6
 12 06 2013  20 21  -21.0458 26023.4 -03447.5 -07.5464 26250.8
 12 06 2013  20 22  -21.0459 26023.4 -03447.6 -07.5466 26250.8
 12 06 2013  20 23  -21.0461 26023.4 -03447.7 -07.5468 26250.8
 12 06 2013  20 24  -21.0461 26023.5 -03447.8 -07.5470 26250.9
 12 06 2013  20 25  -21.0461 26023.5 -03447.9 -07.5472 26251.0
 12 06 2013  20 26  -21.0463 26023.6 -03448.0 -07.5474 26251.0
 12 06 2013  20 27  -21.0463 26023.7 -03448.0 -07.5475 26251.1
 12 06 2013  20 28  -21.0463 26023.6 -03448.1 -07.5476 26251.1
 12 06 2013  20 29  -21.0462 26023.5 -03448.1 -07.5477 26251.0
 12 06 2013  20 30  -21.0462 26023.5 -03448.1 -07.5478 26251.0
 12 06 2013  20 31  -21.0460 26023.5 -03448.2 -07.5479 26251.0
 12 06 2013  20 32  -21.0459 26023.5 -03448.3 -07.5480 26251.0
 12 06 2013  20 33  -21.0458 26023.6 -03448.4 -07.5483 26251.1
 12 06 2013  20 34  -21.0457 26023.7 -03448.5 -07.5485 26251.2
 12 06 2013  20 35  -21.0456 26023.8 -03448.6 -07.5486 26251.3
 12 06 2013  20 36  -21.0456 26023.9 -03448.7 -07.5488 26251.4
 12 06 2013  20 37  -21.0454 26023.9 -03448.7 -07.5489 26251.4
 12 06 2013  20 38  -21.0453 26024.0 -03448.8 -07.5490 26251.5
 12 06 2013  20 39  -21.0451 26024.0 -03448.9 -07.5492 26251.6
 12 06 2013  20 40  -21.0450 26024.1 -03448.9 -07.5493 26251.6
 12 06 2013  20 41  -21.0448 26024.2 -03449.0 -07.5495 26251.8
 12 06 2013  20 42  -21.0446 26024.4 -03449.1 -07.5497 26251.9
 12 06 2013  20 43  -21.0445 26024.1 -03449.0 -07.5496 26251.6
 12 06 2013  20 44  -21.0443 26024.2 -03449.1 -07.5497 26251.7
 12 06 2013  20 45  -21.0441 26024.1 -03449.2 -07.5499 26251.7
 12 06 2013  20 46  -21.0439 26024.0 -03449.2 -07.5499 26251.5
 12 06 2013  20 47  -21.0438 26023.8 -03449.2 -07.5500 26251.4
 12 06 2013  20 48  -21.0437 26023.8 -03449.3 -07.5502 26251.4
 12 06 2013  20 49  -21.0435 26023.9 -03449.4 -07.5505 26251.5
 12 06 2013  20 50  -21.0434 26023.8 -03449.5 -07.5506 26251.5
 12 06 2013  20 51  -21.0432 26023.9 -03449.7 -07.5509 26251.6
 12 06 2013  20 52  -21.0430 26023.9 -03449.7 -07.5510 26251.5
 12 06 2013  20 53  -21.0429 26023.9 -03449.7 -07.5511 26251.6
 12 06 2013  20 54  -21.0426 26023.9 -03449.8 -07.5513 26251.6
 12 06 2013  20 55  -21.0426 26023.7 -03449.8 -07.5513 26251.3
 12 06 2013  20 56  -21.0426 26023.7 -03449.9 -07.5514 26251.4
 12 06 2013  20 57  -21.0426 26023.8 -03450.0 -07.5517 26251.5
 12 06 2013  20 58  -21.0426 26023.8 -03450.1 -07.5519 26251.5
 12 06 2013  20 59  -21.0427 26023.8 -03450.1 -07.5520 26251.5
 12 06 2013  21 00  -21.0426 26023.7 -03450.1 -07.5519 26251.4
 12 06 2013  21 01  -21.0425 26023.7 -03450.2 -07.5521 26251.4
 12 06 2013  21 02  -21.0422 26023.6 -03450.2 -07.5521 26251.3
 12 06 2013  21 03  -21.0420 26023.6 -03450.2 -07.5522 26251.3
 12 06 2013  21 04  -21.0418 26023.6 -03450.2 -07.5522 26251.3
 12 06 2013  21 05  -21.0417 26023.8 -03450.3 -07.5525 26251.5
 12 06 2013  21 06  -21.0414 26024.0 -03450.5 -07.5528 26251.7
 12 06 2013  21 07  -21.0412 26024.0 -03450.6 -07.5530 26251.8
 12 06 2013  21 08  -21.0411 26023.9 -03450.6 -07.5530 26251.7
 12 06 2013  21 09  -21.0409 26023.9 -03450.7 -07.5531 26251.7
 12 06 2013  21 10  -21.0408 26024.1 -03450.7 -07.5532 26251.9
 12 06 2013  21 11  -21.0406 26024.1 -03450.8 -07.5533 26251.9
 12 06 2013  21 12  -21.0406 26023.9 -03450.7 -07.5532 26251.7
 12 06 2013  21 13  -21.0405 26023.9 -03450.7 -07.5532 26251.7
 12 06 2013  21 14  -21.0404 26023.9 -03450.8 -07.5534 26251.7
 12 06 2013  21 15  -21.0405 26024.0 -03450.9 -07.5535 26251.8
 12 06 2013  21 16  -21.0404 26024.0 -03451.0 -07.5537 26251.8
 12 06 2013  21 17  -21.0404 26024.0 -03450.9 -07.5537 26251.8
 12 06 2013  21 18  -21.0403 26024.0 -03451.0 -07.5537 26251.8
 12 06 2013  21 19  -21.0402 26024.0 -03451.0 -07.5537 26251.8
 12 06 2013  21 20  -21.0401 26024.0 -03451.0 -07.5538 26251.8
 12 06 2013  21 21  -21.0400 26024.0 -03451.0 -07.5538 26251.8
 12 06 2013  21 22  -21.0398 26024.2 -03451.1 -07.5540 26252.0
 12 06 2013  21 23  -21.0395 26024.3 -03451.2 -07.5541 26252.2
 12 06 2013  21 24  -21.0392 26024.4 -03451.2 -07.5541 26252.2
 12 06 2013  21 25  -21.0391 26024.5 -03451.3 -07.5542 26252.3
 12 06 2013  21 26  -21.0389 26024.6 -03451.3 -07.5543 26252.4
 12 06 2013  21 27  -21.0387 26024.8 -03451.3 -07.5543 26252.6
 12 06 2013  21 28  -21.0388 26024.9 -03451.5 -07.5546 26252.7
 12 06 2013  21 29  -21.0388 26025.0 -03451.6 -07.5548 26252.9
 12 06 2013  21 30  -21.0388 26024.9 -03451.5 -07.5547 26252.7
 12 06 2013  21 31  -21.0391 26024.8 -03451.5 -07.5547 26252.7
 12 06 2013  21 32  -21.0393 26024.7 -03451.5 -07.5548 26252.6
 12 06 2013  21 33  -21.0393 26024.8 -03451.5 -07.5548 26252.6
 12 06 2013  21 34  -21.0394 26024.8 -03451.5 -07.5548 26252.7
 12 06 2013  21 35  -21.0392 26024.8 -03451.5 -07.5548 26252.7
 12 06 2013  21 36  -21.0391 26024.7 -03451.5 -07.5546 26252.6
 12 06 2013  21 37  -21.0387 26025.0 -03451.6 -07.5548 26252.8
 12 06 2013  21 38  -21.0390 26024.7 -03451.5 -07.5547 26252.6
 12 06 2013  21 39  -21.0385 26024.9 -03451.5 -07.5546 26252.7
 12 06 2013  21 40  -21.0385 26024.8 -03451.4 -07.5546 26252.6
 12 06 2013  21 41  -21.0382 26024.9 -03451.5 -07.5546 26252.8
 12 06 2013  21 42  -21.0381 26024.7 -03451.4 -07.5546 26252.6
 12 06 2013  21 43  -21.0377 26024.6 -03451.3 -07.5543 26252.4
 12 06 2013  21 44  -21.0373 26024.7 -03451.3 -07.5543 26252.5
 12 06 2013  21 45  -21.0370 26024.7 -03451.3 -07.5543 26252.5
 12 06 2013  21 46  -21.0367 26024.7 -03451.3 -07.5543 26252.6
 12 06 2013  21 47  -21.0367 26024.7 -03451.3 -07.5543 26252.5
 12 06 2013  21 48  -21.0363 26024.8 -03451.4 -07.5544 26252.7
 12 06 2013  21 49  -21.0364 26024.7 -03451.4 -07.5544 26252.6
 12 06 2013  21 50  -21.0363 26024.8 -03451.4 -07.5544 26252.7
 12 06 2013  21 51  -21.0362 26024.9 -03451.4 -07.5545 26252.8
 12 06 2013  21 52  -21.0361 26025.0 -03451.4 -07.5545 26252.8
 12 06 2013  21 53  -21.0357 26025.1 -03451.5 -07.5545 26252.9
 12 06 2013  21 54  -21.0357 26025.1 -03451.5 -07.5545 26253.0
 12 06 2013  21 55  -21.0356 26025.3 -03451.5 -07.5545 26253.2
 12 06 2013  21 56  -21.0358 26025.4 -03451.6 -07.5546 26253.2
 12 06 2013  21 57  -21.0356 26025.5 -03451.6 -07.5547 26253.4
 12 06 2013  21 58  -21.0357 26025.5 -03451.6 -07.5546 26253.4
 12 06 2013  21 59  -21.0356 26025.6 -03451.5 -07.5545 26253.5
 12 06 2013  22 00  -21.0357 26025.7 -03451.6 -07.5546 26253.6
 12 06 2013  22 01  -21.0357 26025.7 -03451.6 -07.5546 26253.6
 12 06 2013  22 02  -21.0357 26025.9 -03451.6 -07.5546 26253.8
 12 06 2013  22 03  -21.0359 26026.0 -03451.7 -07.5547 26253.9
 12 06 2013  22 04  -21.0359 26026.0 -03451.6 -07.5546 26253.9
 12 06 2013  22 05  -21.0359 26026.2 -03451.6 -07.5545 26254.1
 12 06 2013  22 06  -21.0357 26026.3 -03451.6 -07.5544 26254.1
 12 06 2013  22 07  -21.0358 26026.4 -03451.6 -07.5544 26254.2
 12 06 2013  22 08  -21.0358 26026.4 -03451.6 -07.5544 26254.3
 12 06 2013  22 09  -21.0355 26026.6 -03451.6 -07.5544 26254.4
 12 06 2013  22 10  -21.0358 26026.4 -03451.5 -07.5542 26254.2
 12 06 2013  22 11  -21.0357 26026.5 -03451.5 -07.5541 26254.3
 12 06 2013  22 12  -21.0358 26026.5 -03451.4 -07.5541 26254.3
 12 06 2013  22 13  -21.0357 26026.5 -03451.3 -07.5538 26254.3
 12 06 2013  22 14  -21.0357 26026.4 -03451.3 -07.5538 26254.2
 12 06 2013  22 15  -21.0357 26026.4 -03451.2 -07.5536 26254.2
 12 06 2013  22 16  -21.0359 26026.3 -03451.2 -07.5536 26254.2
 12 06 2013  22 17  -21.0359 26026.3 -03451.2 -07.5535 26254.1
 12 06 2013  22 18  -21.0359 26026.3 -03451.1 -07.5534 26254.1
 12 06 2013  22 19  -21.0359 26026.1 -03451.0 -07.5532 26253.9
 12 06 2013  22 20  -21.0361 26026.1 -03451.0 -07.5531 26253.8
 12 06 2013  22 21  -21.0362 26026.0 -03450.9 -07.5530 26253.8
 12 06 2013  22 22  -21.0364 26026.0 -03450.9 -07.5531 26253.8
 12 06 2013  22 23  -21.0364 26026.0 -03450.9 -07.5530 26253.8
 12 06 2013  22 24  -21.0364 26026.0 -03450.9 -07.5529 26253.8
 12 06 2013  22 25  -21.0363 26026.0 -03450.8 -07.5528 26253.8
 12 06 2013  22 26  -21.0362 26026.3 -03450.9 -07.5530 26254.1
 12 06 2013  22 27  -21.0366 26026.0 -03450.8 -07.5529 26253.8
 12 06 2013  22 28  -21.0362 26026.2 -03450.8 -07.5527 26253.9
 12 06 2013  22 29  -21.0359 26026.1 -03450.8 -07.5528 26253.9
 12 06 2013  22 30  -21.0355 26026.3 -03450.8 -07.5527 26254.1
 12 06 2013  22 31  -21.0352 26026.3 -03450.7 -07.5526 26254.0
 12 06 2013  22 32  -21.0355 26025.9 -03450.6 -07.5525 26253.7
 12 06 2013  22 33  -21.0350 26026.1 -03450.6 -07.5523 26253.9
 12 06 2013  22 34  -21.0348 26026.4 -03450.8 -07.5527 26254.2
 12 06 2013  22 35  -21.0350 26026.3 -03450.7 -07.5525 26254.0
 12 06 2013  22 36  -21.0349 26026.4 -03450.8 -07.5526 26254.2
 12 06 2013  22 37  -21.0351 26026.4 -03450.8 -07.5526 26254.1
 12 06 2013  22 38  -21.0349 26026.8 -03450.9 -07.5528 26254.6
 12 06 2013  22 39  -21.0347 26026.6 -03450.8 -07.5526 26254.3
 12 06 2013  22 40  -21.0342 26026.9 -03450.8 -07.5527 26254.7
 12 06 2013  22 41  -21.0341 26026.7 -03450.8 -07.5526 26254.5
 12 06 2013  22 42  -21.0336 26026.7 -03450.7 -07.5524 26254.5
 12 06 2013  22 43  -21.0333 26026.8 -03450.8 -07.5525 26254.6
 12 06 2013  22 44  -21.0330 26026.8 -03450.7 -07.5523 26254.5
 12 06 2013  22 45  -21.0327 26026.6 -03450.6 -07.5523 26254.4
 12 06 2013  22 46  -21.0325 26026.6 -03450.6 -07.5522 26254.3
 12 06 2013  22 47  -21.0322 26026.6 -03450.6 -07.5522 26254.4
 12 06 2013  22 48  -21.0320 26026.6 -03450.6 -07.5523 26254.4
 12 06 2013  22 49  -21.0318 26026.7 -03450.7 -07.5523 26254.5
 12 06 2013  22 50  -21.0318 26026.5 -03450.6 -07.5522 26254.3
 12 06 2013  22 51  -21.0315 26026.7 -03450.7 -07.5524 26254.4
 12 06 2013  22 52  -21.0316 26026.6 -03450.7 -07.5524 26254.4
 12 06 2013  22 53  -21.0315 26026.6 -03450.7 -07.5524 26254.4
 12 06 2013  22 54  -21.0314 26026.6 -03450.7 -07.5524 26254.4
 12 06 2013  22 55  -21.0314 26026.5 -03450.7 -07.5524 26254.2
 12 06 2013  22 56  -21.0314 26026.5 -03450.7 -07.5523 26254.3
 12 06 2013  22 57  -21.0313 26026.5 -03450.7 -07.5524 26254.3
 12 06 2013  22 58  -21.0314 26026.5 -03450.7 -07.5524 26254.2
 12 06 2013  22 59  -21.0315 26026.5 -03450.6 -07.5523 26254.2
 12 06 2013  23 00  -21.0315 26026.5 -03450.7 -07.5524 26254.3
 12 06 2013  23 01  -21.0316 26026.6 -03450.7 -07.5524 26254.4
 12 06 2013  23 02  -21.0316 26026.9 -03450.9 -07.5527 26254.7
 12 06 2013  23 03  -21.0318 26027.0 -03450.9 -07.5527 26254.8
 12 06 2013  23 04  -21.0318 26026.9 -03450.8 -07.5525 26254.6
 12 06 2013  23 05  -21.0316 26027.0 -03450.8 -07.5525 26254.7
 12 06 2013  23 06  -21.0317 26026.9 -03450.7 -07.5524 26254.7
 12 06 2013  23 07  -21.0319 26026.8 -03450.8 -07.5525 26254.6
 12 06 2013  23 08  -21.0322 26026.8 -03450.7 -07.5525 26254.5
 12 06 2013  23 09  -21.0322 26026.9 -03450.9 -07.5527 26254.7
 12 06 2013  23 10  -21.0326 26026.6 -03450.7 -07.5524 26254.4
 12 06 2013  23 11  -21.0321 26027.0 -03450.8 -07.5525 26254.8
 12 06 2013  23 12  -21.0325 26026.7 -03450.6 -07.5523 26254.4
 12 06 2013  23 13  -21.0324 26026.7 -03450.6 -07.5522 26254.5
 12 06 2013  23 14  -21.0324 26026.7 -03450.6 -07.5523 26254.4
 12 06 2013  23 15  -21.0325 26026.6 -03450.6 -07.5522 26254.4
 12 06 2013  23 16  -21.0323 26026.6 -03450.6 -07.5521 26254.4
 12 06 2013  23 17  -21.0323 26026.5 -03450.5 -07.5521 26254.3
 12 06 2013  23 18  -21.0324 26026.5 -03450.5 -07.5520 26254.2
 12 06 2013  23 19  -21.0323 26026.3 -03450.5 -07.5520 26254.0
 12 06 2013  23 20  -21.0324 26026.3 -03450.4 -07.5519 26254.1
 12 06 2013  23 21  -21.0324 26026.3 -03450.4 -07.5519 26254.0
 12 06 2013  23 22  -21.0322 26026.2 -03450.3 -07.5518 26253.9
 12 06 2013  23 23  -21.0319 26026.2 -03450.3 -07.5516 26253.9
 12 06 2013  23 24  -21.0320 26026.0 -03450.2 -07.5515 26253.7
 12 06 2013  23 25  -21.0321 26025.8 -03450.1 -07.5514 26253.5
 12 06 2013  23 26  -21.0323 26025.5 -03450.1 -07.5514 26253.2
 12 06 2013  23 27  -21.0324 26025.5 -03450.0 -07.5513 26253.2
 12 06 2013  23 28  -21.0323 26025.4 -03450.0 -07.5513 26253.1
 12 06 2013  23 29  -21.0322 26025.3 -03449.9 -07.5512 26253.0
 12 06 2013  23 30  -21.0322 26025.1 -03449.8 -07.5510 26252.7
 12 06 2013  23 31  -21.0323 26025.0 -03449.8 -07.5509 26252.7
 12 06 2013  23 32  -21.0322 26024.9 -03449.8 -07.5509 26252.6
 12 06 2013  23 33  -21.0320 26024.9 -03449.7 -07.5508 26252.5
 12 06 2013  23 34  -21.0317 26024.7 -03449.7 -07.5507 26252.4
 12 06 2013  23 35  -21.0317 26024.5 -03449.6 -07.5506 26252.2
 12 06 2013  23 36  -21.0317 26024.5 -03449.6 -07.5506 26252.1
 12 06 2013  23 37  -21.0316 26024.3 -03449.5 -07.5505 26251.9
 12 06 2013  23 38  -21.0317 26024.2 -03449.5 -07.5504 26251.8
 12 06 2013  23 39  -21.0318 26024.1 -03449.4 -07.5504 26251.7
 12 06 2013  23 40  -21.0318 26024.0 -03449.5 -07.5505 26251.7
 12 06 2013  23 41  -21.0318 26023.9 -03449.4 -07.5504 26251.5
 12 06 2013  23 42  -21.0317 26023.8 -03449.4 -07.5504 26251.4
 12 06 2013  23 43  -21.0317 26023.7 -03449.4 -07.5503 26251.3
 12 06 2013  23 44  -21.0318 26023.5 -03449.3 -07.5503 26251.1
 12 06 2013  23 45  -21.0319 26023.5 -03449.3 -07.5503 26251.1
 12 06 2013  23 46  -21.0321 26023.4 -03449.3 -07.5502 26251.0
 12 06 2013  23 47  -21.0322 26023.3 -03449.3 -07.5502 26250.9
 12 06 2013  23 48  -21.0321 26023.3 -03449.3 -07.5503 26250.9
 12 06 2013  23 49  -21.0321 26023.4 -03449.3 -07.5504 26251.0
 12 06 2013  23 50  -21.0320 26023.3 -03449.3 -07.5504 26250.9
 12 06 2013  23 51  -21.0322 26023.2 -03449.3 -07.5503 26250.8
 12 06 2013  23 52  -21.0322 26023.3 -03449.3 -07.5502 26250.8
 12 06 2013  23 53  -21.0322 26023.1 -03449.2 -07.5502 26250.7
 12 06 2013  23 54  -21.0322 26023.0 -03449.2 -07.5502 26250.6
 12 06 2013  23 55  -21.0324 26022.9 -03449.1 -07.5501 26250.5
 12 06 2013  23 56  -21.0326 26022.8 -03449.1 -07.5501 26250.4
 12 06 2013  23 57  -21.0327 26022.8 -03449.1 -07.5501 26250.4
 12 06 2013  23 58  -21.0327 26022.8 -03449.1 -07.5501 26250.4
