SAO LUIS EMBRACE-03 <231> 1 Min. Reported data

 DD MM YYYY  HH MM   D(Deg)  H(nT)   Z(nT)   I(Deg)   F(nT)

 19 08 2013  00 00  -21.0243 26026.3 -03476.2 -07.6076 26257.4
 19 08 2013  00 01  -21.0244 26026.2 -03476.1 -07.6075 26257.3
 19 08 2013  00 02  -21.0245 26026.1 -03476.1 -07.6075 26257.3
 19 08 2013  00 03  -21.0244 26026.2 -03476.2 -07.6076 26257.3
 19 08 2013  00 04  -21.0244 26026.2 -03476.2 -07.6076 26257.3
 19 08 2013  00 05  -21.0243 26026.2 -03476.2 -07.6077 26257.3
 19 08 2013  00 06  -21.0241 26026.1 -03476.2 -07.6076 26257.3
 19 08 2013  00 07  -21.0241 26026.2 -03476.2 -07.6077 26257.3
 19 08 2013  00 08  -21.0241 26026.1 -03476.2 -07.6077 26257.2
 19 08 2013  00 09  -21.0241 26026.1 -03476.2 -07.6078 26257.2
 19 08 2013  00 10  -21.0241 26026.0 -03476.3 -07.6079 26257.1
 19 08 2013  00 11  -21.0244 26026.1 -03476.3 -07.6078 26257.3
 19 08 2013  00 12  -21.0244 26026.0 -03476.3 -07.6079 26257.2
 19 08 2013  00 13  -21.0243 26026.0 -03476.3 -07.6079 26257.1
 19 08 2013  00 14  -21.0243 26026.0 -03476.3 -07.6079 26257.2
 19 08 2013  00 15  -21.0242 26025.9 -03476.2 -07.6079 26257.0
 19 08 2013  00 16  -21.0242 26025.8 -03476.2 -07.6079 26256.9
 19 08 2013  00 17  -21.0242 26025.7 -03476.2 -07.6078 26256.8
 19 08 2013  00 18  -21.0240 26025.8 -03476.2 -07.6079 26256.9
 19 08 2013  00 19  -21.0242 26025.8 -03476.3 -07.6080 26257.0
 19 08 2013  00 20  -21.0242 26026.0 -03476.4 -07.6082 26257.2
 19 08 2013  00 21  -21.0242 26026.0 -03476.4 -07.6082 26257.2
 19 08 2013  00 22  -21.0242 26026.0 -03476.5 -07.6083 26257.2
 19 08 2013  00 23  -21.0241 26026.0 -03476.5 -07.6083 26257.2
 19 08 2013  00 24  -21.0240 26026.1 -03476.5 -07.6085 26257.3
 19 08 2013  00 25  -21.0239 26026.2 -03476.5 -07.6084 26257.3
 19 08 2013  00 26  -21.0241 26026.1 -03476.6 -07.6085 26257.3
 19 08 2013  00 27  -21.0239 26026.3 -03476.6 -07.6086 26257.5
 19 08 2013  00 28  -21.0241 26026.4 -03476.7 -07.6087 26257.6
 19 08 2013  00 29  -21.0239 26026.4 -03476.7 -07.6087 26257.6
 19 08 2013  00 30  -21.0239 26026.4 -03476.7 -07.6087 26257.6
 19 08 2013  00 31  -21.0239 26026.5 -03476.7 -07.6088 26257.7
 19 08 2013  00 32  -21.0240 26026.7 -03476.8 -07.6089 26257.9
 19 08 2013  00 33  -21.0240 26026.8 -03476.9 -07.6090 26258.0
 19 08 2013  00 34  -21.0242 26026.9 -03477.0 -07.6092 26258.1
 19 08 2013  00 35  -21.0243 26026.9 -03477.0 -07.6091 26258.1
 19 08 2013  00 36  -21.0244 26026.9 -03476.9 -07.6091 26258.1
 19 08 2013  00 37  -21.0245 26027.0 -03476.9 -07.6091 26258.2
 19 08 2013  00 38  -21.0247 26026.9 -03477.0 -07.6091 26258.1
 19 08 2013  00 39  -21.0250 26026.8 -03476.9 -07.6089 26258.1
 19 08 2013  00 40  -21.0248 26026.9 -03476.9 -07.6090 26258.1
 19 08 2013  00 41  -21.0249 26026.8 -03476.8 -07.6088 26258.0
 19 08 2013  00 42  -21.0250 26026.8 -03476.8 -07.6088 26258.0
 19 08 2013  00 43  -21.0250 26026.8 -03476.8 -07.6087 26258.0
 19 08 2013  00 44  -21.0251 26026.6 -03476.7 -07.6087 26257.8
 19 08 2013  00 45  -21.0251 26026.5 -03476.7 -07.6086 26257.7
 19 08 2013  00 46  -21.0252 26026.4 -03476.6 -07.6085 26257.6
 19 08 2013  00 47  -21.0254 26026.4 -03476.6 -07.6085 26257.5
 19 08 2013  00 48  -21.0252 26026.5 -03476.7 -07.6086 26257.7
 19 08 2013  00 49  -21.0255 26026.2 -03476.5 -07.6084 26257.4
 19 08 2013  00 50  -21.0252 26026.5 -03476.6 -07.6086 26257.6
 19 08 2013  00 51  -21.0249 26026.4 -03476.6 -07.6086 26257.6
 19 08 2013  00 52  -21.0246 26026.4 -03476.6 -07.6086 26257.6
 19 08 2013  00 53  -21.0244 26026.4 -03476.6 -07.6086 26257.6
 19 08 2013  00 54  -21.0240 26026.6 -03476.8 -07.6088 26257.8
 19 08 2013  00 55  -21.0239 26026.7 -03476.9 -07.6090 26257.9
 19 08 2013  00 56  -21.0239 26026.9 -03476.9 -07.6091 26258.1
 19 08 2013  00 57  -21.0241 26026.8 -03476.9 -07.6091 26258.0
 19 08 2013  00 58  -21.0243 26026.4 -03476.7 -07.6087 26257.5
 19 08 2013  00 59  -21.0244 26026.0 -03476.5 -07.6084 26257.2
 19 08 2013  01 00  -21.0243 26025.8 -03476.4 -07.6082 26257.0
 19 08 2013  01 01  -21.0243 26025.9 -03476.4 -07.6083 26257.0
 19 08 2013  01 02  -21.0241 26025.8 -03476.4 -07.6083 26257.0
 19 08 2013  01 03  -21.0240 26025.7 -03476.4 -07.6082 26256.9
 19 08 2013  01 04  -21.0240 26025.7 -03476.4 -07.6083 26256.9
 19 08 2013  01 05  -21.0241 26025.8 -03476.5 -07.6084 26256.9
 19 08 2013  01 06  -21.0243 26025.5 -03476.4 -07.6083 26256.6
 19 08 2013  01 07  -21.0242 26025.5 -03476.4 -07.6083 26256.6
 19 08 2013  01 08  -21.0242 26025.5 -03476.4 -07.6083 26256.6
 19 08 2013  01 09  -21.0240 26025.8 -03476.6 -07.6086 26257.0
 19 08 2013  01 10  -21.0237 26026.0 -03476.7 -07.6088 26257.2
 19 08 2013  01 11  -21.0238 26026.4 -03476.9 -07.6091 26257.6
 19 08 2013  01 12  -21.0234 26026.7 -03477.1 -07.6095 26258.0
 19 08 2013  01 13  -21.0232 26026.8 -03477.1 -07.6095 26258.1
 19 08 2013  01 14  -21.0227 26027.5 -03477.4 -07.6100 26258.8
 19 08 2013  01 15  -21.0226 26027.4 -03477.4 -07.6100 26258.7
 19 08 2013  01 16  -21.0224 26027.6 -03477.5 -07.6100 26258.9
 19 08 2013  01 17  -21.0221 26027.8 -03477.5 -07.6101 26259.0
 19 08 2013  01 18  -21.0218 26027.7 -03477.5 -07.6101 26259.0
 19 08 2013  01 19  -21.0218 26027.7 -03477.5 -07.6100 26259.0
 19 08 2013  01 20  -21.0219 26027.7 -03477.5 -07.6100 26259.0
 19 08 2013  01 21  -21.0225 26027.7 -03477.5 -07.6100 26259.0
 19 08 2013  01 22  -21.0227 26028.0 -03477.6 -07.6102 26259.3
 19 08 2013  01 23  -21.0226 26027.7 -03477.5 -07.6100 26258.9
 19 08 2013  01 24  -21.0228 26027.9 -03477.5 -07.6100 26259.2
 19 08 2013  01 25  -21.0228 26028.2 -03477.6 -07.6101 26259.5
 19 08 2013  01 26  -21.0222 26028.1 -03477.6 -07.6101 26259.4
 19 08 2013  01 27  -21.0222 26028.0 -03477.4 -07.6099 26259.2
 19 08 2013  01 28  -21.0220 26028.0 -03477.4 -07.6098 26259.3
 19 08 2013  01 29  -21.0217 26028.0 -03477.4 -07.6098 26259.2
 19 08 2013  01 30  -21.0215 26027.7 -03477.3 -07.6096 26259.0
 19 08 2013  01 31  -21.0215 26027.7 -03477.3 -07.6096 26258.9
 19 08 2013  01 32  -21.0216 26027.6 -03477.2 -07.6095 26258.8
 19 08 2013  01 33  -21.0215 26027.7 -03477.3 -07.6096 26259.0
 19 08 2013  01 34  -21.0214 26027.6 -03477.3 -07.6096 26258.8
 19 08 2013  01 35  -21.0214 26027.5 -03477.2 -07.6095 26258.7
 19 08 2013  01 36  -21.0214 26027.4 -03477.2 -07.6095 26258.7
 19 08 2013  01 37  -21.0215 26027.3 -03477.1 -07.6094 26258.5
 19 08 2013  01 38  -21.0214 26027.2 -03477.1 -07.6093 26258.5
 19 08 2013  01 39  -21.0215 26027.0 -03477.0 -07.6092 26258.3
 19 08 2013  01 40  -21.0217 26027.0 -03477.0 -07.6092 26258.2
 19 08 2013  01 41  -21.0218 26026.8 -03476.9 -07.6091 26258.0
 19 08 2013  01 42  -21.0218 26026.6 -03476.8 -07.6090 26257.8
 19 08 2013  01 43  -21.0217 26026.5 -03476.8 -07.6089 26257.7
 19 08 2013  01 44  -21.0217 26026.5 -03476.8 -07.6089 26257.7
 19 08 2013  01 45  -21.0216 26026.5 -03476.8 -07.6089 26257.8
 19 08 2013  01 46  -21.0217 26026.6 -03476.9 -07.6090 26257.8
 19 08 2013  01 47  -21.0218 26026.5 -03476.8 -07.6089 26257.7
 19 08 2013  01 48  -21.0217 26026.4 -03476.7 -07.6087 26257.5
 19 08 2013  01 49  -21.0215 26026.4 -03476.7 -07.6087 26257.6
 19 08 2013  01 50  -21.0213 26026.5 -03476.7 -07.6087 26257.7
 19 08 2013  01 51  -21.0212 26026.5 -03476.7 -07.6088 26257.7
 19 08 2013  01 52  -21.0212 26026.7 -03476.8 -07.6089 26257.9
 19 08 2013  01 53  -21.0212 26026.8 -03476.9 -07.6090 26258.1
 19 08 2013  01 54  -21.0212 26027.1 -03477.0 -07.6091 26258.3
 19 08 2013  01 55  -21.0213 26027.2 -03477.1 -07.6092 26258.5
 19 08 2013  01 56  -21.0215 26027.4 -03477.1 -07.6092 26258.6
 19 08 2013  01 57  -21.0217 26027.6 -03477.1 -07.6093 26258.8
 19 08 2013  01 58  -21.0218 26027.6 -03477.1 -07.6093 26258.9
 19 08 2013  01 59  -21.0219 26027.7 -03477.1 -07.6092 26258.9
 19 08 2013  02 00  -21.0220 26027.6 -03477.0 -07.6091 26258.8
 19 08 2013  02 01  -21.0221 26027.4 -03476.9 -07.6089 26258.6
 19 08 2013  02 02  -21.0220 26027.2 -03476.8 -07.6087 26258.4
 19 08 2013  02 03  -21.0219 26027.2 -03476.7 -07.6085 26258.3
 19 08 2013  02 04  -21.0219 26027.2 -03476.7 -07.6085 26258.3
 19 08 2013  02 05  -21.0219 26027.2 -03476.7 -07.6085 26258.4
 19 08 2013  02 06  -21.0221 26027.2 -03476.7 -07.6085 26258.4
 19 08 2013  02 07  -21.0221 26027.2 -03476.6 -07.6084 26258.3
 19 08 2013  02 08  -21.0223 26027.1 -03476.6 -07.6083 26258.2
 19 08 2013  02 09  -21.0224 26027.0 -03476.6 -07.6082 26258.2
 19 08 2013  02 10  -21.0225 26026.9 -03476.5 -07.6081 26258.1
 19 08 2013  02 11  -21.0225 26026.8 -03476.4 -07.6080 26257.9
 19 08 2013  02 12  -21.0226 26026.6 -03476.4 -07.6079 26257.8
 19 08 2013  02 13  -21.0226 26026.5 -03476.3 -07.6078 26257.6
 19 08 2013  02 14  -21.0227 26026.4 -03476.2 -07.6077 26257.5
 19 08 2013  02 15  -21.0229 26026.2 -03476.2 -07.6077 26257.3
 19 08 2013  02 16  -21.0229 26026.1 -03476.1 -07.6076 26257.2
 19 08 2013  02 17  -21.0231 26026.0 -03476.1 -07.6076 26257.1
 19 08 2013  02 18  -21.0231 26025.9 -03476.0 -07.6075 26257.0
 19 08 2013  02 19  -21.0232 26025.8 -03476.0 -07.6074 26256.9
 19 08 2013  02 20  -21.0233 26025.8 -03476.0 -07.6075 26256.9
 19 08 2013  02 21  -21.0233 26025.7 -03476.0 -07.6074 26256.8
 19 08 2013  02 22  -21.0234 26025.7 -03476.0 -07.6074 26256.8
 19 08 2013  02 23  -21.0234 26025.7 -03476.0 -07.6075 26256.8
 19 08 2013  02 24  -21.0235 26025.6 -03476.0 -07.6074 26256.7
 19 08 2013  02 25  -21.0236 26025.5 -03476.0 -07.6074 26256.6
 19 08 2013  02 26  -21.0237 26025.4 -03476.0 -07.6074 26256.5
 19 08 2013  02 27  -21.0237 26025.3 -03475.9 -07.6074 26256.4
 19 08 2013  02 28  -21.0239 26025.2 -03475.9 -07.6073 26256.3
 19 08 2013  02 29  -21.0240 26025.1 -03475.9 -07.6073 26256.2
 19 08 2013  02 30  -21.0240 26025.2 -03475.9 -07.6073 26256.3
 19 08 2013  02 31  -21.0240 26025.7 -03476.2 -07.6078 26256.9
 19 08 2013  02 32  -21.0243 26025.5 -03476.1 -07.6077 26256.6
 19 08 2013  02 33  -21.0242 26026.0 -03476.4 -07.6081 26257.2
 19 08 2013  02 34  -21.0243 26026.1 -03476.4 -07.6082 26257.3
 19 08 2013  02 35  -21.0244 26026.7 -03476.7 -07.6086 26257.9
 19 08 2013  02 36  -21.0246 26027.0 -03476.9 -07.6089 26258.2
 19 08 2013  02 37  -21.0246 26027.3 -03477.0 -07.6091 26258.5
 19 08 2013  02 38  -21.0247 26027.5 -03477.1 -07.6093 26258.8
 19 08 2013  02 39  -21.0247 26027.8 -03477.2 -07.6094 26259.0
 19 08 2013  02 40  -21.0246 26027.9 -03477.2 -07.6094 26259.1
 19 08 2013  02 41  -21.0246 26027.9 -03477.2 -07.6093 26259.2
 19 08 2013  02 42  -21.0245 26028.0 -03477.2 -07.6093 26259.2
 19 08 2013  02 43  -21.0244 26027.9 -03477.1 -07.6091 26259.1
 19 08 2013  02 44  -21.0243 26027.9 -03477.0 -07.6089 26259.1
 19 08 2013  02 45  -21.0242 26027.9 -03476.9 -07.6088 26259.1
 19 08 2013  02 46  -21.0242 26027.7 -03476.8 -07.6087 26258.9
 19 08 2013  02 47  -21.0240 26027.9 -03476.9 -07.6087 26259.1
 19 08 2013  02 48  -21.0241 26027.8 -03477.0 -07.6088 26259.0
 19 08 2013  02 49  -21.0240 26027.8 -03476.9 -07.6087 26259.0
 19 08 2013  02 50  -21.0240 26028.1 -03477.0 -07.6090 26259.3
 19 08 2013  02 51  -21.0237 26028.7 -03477.3 -07.6094 26260.0
 19 08 2013  02 52  -21.0239 26029.0 -03477.6 -07.6099 26260.2
 19 08 2013  02 53  -21.0238 26029.0 -03477.6 -07.6099 26260.3
 19 08 2013  02 54  -21.0238 26029.7 -03477.9 -07.6104 26261.0
 19 08 2013  02 55  -21.0237 26030.2 -03478.2 -07.6108 26261.5
 19 08 2013  02 56  -21.0238 26030.6 -03478.4 -07.6112 26262.0
 19 08 2013  02 57  -21.0240 26030.8 -03478.5 -07.6113 26262.2
 19 08 2013  02 58  -21.0241 26031.3 -03478.7 -07.6115 26262.7
 19 08 2013  02 59  -21.0242 26031.3 -03478.6 -07.6115 26262.7
 19 08 2013  03 00  -21.0240 26031.8 -03478.8 -07.6116 26263.2
 19 08 2013  03 01  -21.0242 26031.8 -03478.7 -07.6115 26263.2
 19 08 2013  03 02  -21.0244 26032.0 -03478.8 -07.6115 26263.4
 19 08 2013  03 03  -21.0246 26032.0 -03478.7 -07.6115 26263.4
 19 08 2013  03 04  -21.0247 26031.9 -03478.7 -07.6114 26263.3
 19 08 2013  03 05  -21.0247 26032.0 -03478.6 -07.6112 26263.4
 19 08 2013  03 06  -21.0249 26031.7 -03478.4 -07.6109 26263.1
 19 08 2013  03 07  -21.0248 26031.5 -03478.2 -07.6106 26262.9
 19 08 2013  03 08  -21.0246 26031.5 -03478.2 -07.6105 26262.8
 19 08 2013  03 09  -21.0246 26031.3 -03478.1 -07.6103 26262.6
 19 08 2013  03 10  -21.0245 26031.2 -03478.0 -07.6102 26262.5
 19 08 2013  03 11  -21.0245 26031.0 -03477.9 -07.6101 26262.3
 19 08 2013  03 12  -21.0245 26030.9 -03477.9 -07.6100 26262.2
 19 08 2013  03 13  -21.0243 26030.8 -03477.8 -07.6099 26262.1
 19 08 2013  03 14  -21.0242 26030.6 -03477.7 -07.6098 26261.9
 19 08 2013  03 15  -21.0241 26030.4 -03477.7 -07.6097 26261.7
 19 08 2013  03 16  -21.0240 26030.3 -03477.6 -07.6096 26261.5
 19 08 2013  03 17  -21.0241 26030.2 -03477.6 -07.6095 26261.4
 19 08 2013  03 18  -21.0241 26030.0 -03477.6 -07.6096 26261.3
 19 08 2013  03 19  -21.0242 26030.0 -03477.6 -07.6096 26261.2
 19 08 2013  03 20  -21.0243 26029.9 -03477.6 -07.6096 26261.2
 19 08 2013  03 21  -21.0245 26029.8 -03477.6 -07.6096 26261.1
 19 08 2013  03 22  -21.0247 26029.7 -03477.4 -07.6094 26260.9
 19 08 2013  03 23  -21.0250 26029.5 -03477.4 -07.6093 26260.7
 19 08 2013  03 24  -21.0253 26029.3 -03477.2 -07.6090 26260.5
 19 08 2013  03 25  -21.0257 26029.0 -03477.1 -07.6089 26260.3
 19 08 2013  03 26  -21.0259 26028.9 -03477.1 -07.6088 26260.1
 19 08 2013  03 27  -21.0261 26028.7 -03477.0 -07.6086 26259.9
 19 08 2013  03 28  -21.0261 26028.6 -03476.9 -07.6086 26259.8
 19 08 2013  03 29  -21.0261 26028.4 -03476.9 -07.6085 26259.6
 19 08 2013  03 30  -21.0261 26028.3 -03476.8 -07.6084 26259.5
 19 08 2013  03 31  -21.0260 26028.4 -03476.9 -07.6085 26259.5
 19 08 2013  03 32  -21.0260 26028.5 -03476.9 -07.6086 26259.7
 19 08 2013  03 33  -21.0260 26028.6 -03477.0 -07.6087 26259.8
 19 08 2013  03 34  -21.0258 26028.7 -03477.0 -07.6088 26259.9
 19 08 2013  03 35  -21.0256 26028.6 -03476.9 -07.6086 26259.8
 19 08 2013  03 36  -21.0254 26028.3 -03476.8 -07.6085 26259.5
 19 08 2013  03 37  -21.0251 26028.3 -03476.8 -07.6084 26259.4
 19 08 2013  03 38  -21.0249 26028.0 -03476.7 -07.6082 26259.2
 19 08 2013  03 39  -21.0248 26028.0 -03476.7 -07.6082 26259.1
 19 08 2013  03 40  -21.0247 26027.8 -03476.7 -07.6083 26259.0
 19 08 2013  03 41  -21.0246 26027.8 -03476.7 -07.6084 26259.0
 19 08 2013  03 42  -21.0244 26027.8 -03476.7 -07.6084 26258.9
 19 08 2013  03 43  -21.0244 26027.7 -03476.8 -07.6084 26258.9
 19 08 2013  03 44  -21.0243 26027.7 -03476.8 -07.6085 26258.9
 19 08 2013  03 45  -21.0241 26027.7 -03476.8 -07.6086 26258.9
 19 08 2013  03 46  -21.0240 26027.6 -03476.8 -07.6087 26258.8
 19 08 2013  03 47  -21.0238 26027.6 -03476.8 -07.6087 26258.8
 19 08 2013  03 48  -21.0237 26027.4 -03476.8 -07.6087 26258.6
 19 08 2013  03 49  -21.0236 26027.3 -03476.8 -07.6087 26258.5
 19 08 2013  03 50  -21.0235 26027.1 -03476.8 -07.6087 26258.3
 19 08 2013  03 51  -21.0234 26026.9 -03476.8 -07.6087 26258.1
 19 08 2013  03 52  -21.0233 26026.8 -03476.8 -07.6087 26258.0
 19 08 2013  03 53  -21.0232 26026.7 -03476.8 -07.6088 26257.9
 19 08 2013  03 54  -21.0230 26026.7 -03476.9 -07.6090 26257.9
 19 08 2013  03 55  -21.0228 26026.8 -03477.0 -07.6092 26258.1
 19 08 2013  03 56  -21.0228 26026.8 -03477.1 -07.6094 26258.0
 19 08 2013  03 57  -21.0226 26027.0 -03477.2 -07.6096 26258.2
 19 08 2013  03 58  -21.0227 26026.8 -03477.2 -07.6096 26258.0
 19 08 2013  03 59  -21.0226 26026.9 -03477.2 -07.6097 26258.1
 19 08 2013  04 00  -21.0225 26026.9 -03477.3 -07.6099 26258.1
 19 08 2013  04 01  -21.0225 26026.9 -03477.3 -07.6099 26258.1
 19 08 2013  04 02  -21.0226 26026.8 -03477.3 -07.6099 26258.1
 19 08 2013  04 03  -21.0227 26026.8 -03477.4 -07.6101 26258.1
 19 08 2013  04 04  -21.0228 26026.8 -03477.4 -07.6101 26258.1
 19 08 2013  04 05  -21.0227 26026.8 -03477.4 -07.6101 26258.0
 19 08 2013  04 06  -21.0226 26026.7 -03477.4 -07.6102 26258.0
 19 08 2013  04 07  -21.0226 26026.7 -03477.4 -07.6102 26258.0
 19 08 2013  04 08  -21.0226 26026.6 -03477.4 -07.6102 26257.9
 19 08 2013  04 09  -21.0224 26026.6 -03477.4 -07.6102 26257.8
 19 08 2013  04 10  -21.0223 26026.5 -03477.4 -07.6101 26257.8
 19 08 2013  04 11  -21.0222 26026.5 -03477.4 -07.6102 26257.8
 19 08 2013  04 12  -21.0223 26026.4 -03477.4 -07.6103 26257.7
 19 08 2013  04 13  -21.0223 26026.3 -03477.4 -07.6103 26257.6
 19 08 2013  04 14  -21.0221 26026.4 -03477.4 -07.6103 26257.6
 19 08 2013  04 15  -21.0220 26026.4 -03477.5 -07.6104 26257.7
 19 08 2013  04 16  -21.0220 26026.5 -03477.5 -07.6105 26257.8
 19 08 2013  04 17  -21.0220 26026.6 -03477.6 -07.6107 26257.9
 19 08 2013  04 18  -21.0218 26026.6 -03477.7 -07.6107 26257.9
 19 08 2013  04 19  -21.0218 26026.7 -03477.7 -07.6109 26258.0
 19 08 2013  04 20  -21.0218 26026.7 -03477.8 -07.6109 26258.1
 19 08 2013  04 21  -21.0220 26026.8 -03477.8 -07.6110 26258.1
 19 08 2013  04 22  -21.0221 26026.8 -03477.8 -07.6110 26258.1
 19 08 2013  04 23  -21.0221 26026.6 -03477.7 -07.6109 26257.9
 19 08 2013  04 24  -21.0221 26026.4 -03477.6 -07.6107 26257.7
 19 08 2013  04 25  -21.0220 26026.4 -03477.6 -07.6107 26257.8
 19 08 2013  04 26  -21.0220 26026.5 -03477.7 -07.6108 26257.8
 19 08 2013  04 27  -21.0223 26026.5 -03477.7 -07.6109 26257.9
 19 08 2013  04 28  -21.0224 26026.5 -03477.7 -07.6109 26257.8
 19 08 2013  04 29  -21.0223 26026.6 -03477.7 -07.6109 26257.9
 19 08 2013  04 30  -21.0222 26026.6 -03477.8 -07.6110 26258.0
 19 08 2013  04 31  -21.0222 26026.7 -03477.8 -07.6111 26258.0
 19 08 2013  04 32  -21.0221 26026.7 -03477.9 -07.6111 26258.1
 19 08 2013  04 33  -21.0220 26026.7 -03477.8 -07.6111 26258.0
 19 08 2013  04 34  -21.0220 26026.6 -03477.8 -07.6111 26257.9
 19 08 2013  04 35  -21.0220 26026.5 -03477.8 -07.6110 26257.8
 19 08 2013  04 36  -21.0219 26026.5 -03477.8 -07.6110 26257.8
 19 08 2013  04 37  -21.0218 26026.5 -03477.8 -07.6111 26257.9
 19 08 2013  04 38  -21.0218 26026.5 -03477.9 -07.6112 26257.9
 19 08 2013  04 39  -21.0215 26026.6 -03477.9 -07.6112 26257.9
 19 08 2013  04 40  -21.0213 26026.7 -03477.9 -07.6112 26258.0
 19 08 2013  04 41  -21.0212 26026.6 -03477.9 -07.6113 26258.0
 19 08 2013  04 42  -21.0211 26026.6 -03478.0 -07.6113 26258.0
 19 08 2013  04 43  -21.0209 26026.6 -03477.9 -07.6113 26257.9
 19 08 2013  04 44  -21.0209 26026.5 -03477.9 -07.6113 26257.9
 19 08 2013  04 45  -21.0207 26026.4 -03477.9 -07.6112 26257.8
 19 08 2013  04 46  -21.0206 26026.4 -03477.9 -07.6113 26257.8
 19 08 2013  04 47  -21.0204 26026.4 -03477.9 -07.6113 26257.8
 19 08 2013  04 48  -21.0202 26026.4 -03478.0 -07.6114 26257.8
 19 08 2013  04 49  -21.0201 26026.5 -03478.0 -07.6115 26257.9
 19 08 2013  04 50  -21.0200 26026.6 -03478.0 -07.6116 26257.9
 19 08 2013  04 51  -21.0198 26026.6 -03478.1 -07.6117 26258.0
 19 08 2013  04 52  -21.0198 26026.7 -03478.2 -07.6118 26258.1
 19 08 2013  04 53  -21.0197 26026.8 -03478.2 -07.6119 26258.1
 19 08 2013  04 54  -21.0196 26026.9 -03478.3 -07.6120 26258.3
 19 08 2013  04 55  -21.0196 26027.0 -03478.4 -07.6122 26258.4
 19 08 2013  04 56  -21.0196 26027.1 -03478.4 -07.6123 26258.5
 19 08 2013  04 57  -21.0195 26027.1 -03478.4 -07.6123 26258.5
 19 08 2013  04 58  -21.0195 26027.2 -03478.5 -07.6124 26258.6
 19 08 2013  04 59  -21.0196 26027.2 -03478.5 -07.6124 26258.6
 19 08 2013  05 00  -21.0197 26027.2 -03478.6 -07.6125 26258.6
 19 08 2013  05 01  -21.0197 26027.2 -03478.5 -07.6124 26258.7
 19 08 2013  05 02  -21.0199 26027.2 -03478.5 -07.6124 26258.6
 19 08 2013  05 03  -21.0198 26027.2 -03478.5 -07.6124 26258.6
 19 08 2013  05 04  -21.0198 26027.2 -03478.5 -07.6124 26258.6
 19 08 2013  05 05  -21.0198 26027.2 -03478.5 -07.6124 26258.6
 19 08 2013  05 06  -21.0197 26027.1 -03478.5 -07.6124 26258.5
 19 08 2013  05 07  -21.0197 26027.0 -03478.4 -07.6123 26258.5
 19 08 2013  05 08  -21.0198 26027.0 -03478.4 -07.6123 26258.4
 19 08 2013  05 09  -21.0199 26027.0 -03478.4 -07.6123 26258.4
 19 08 2013  05 10  -21.0198 26026.9 -03478.4 -07.6123 26258.3
 19 08 2013  05 11  -21.0197 26026.9 -03478.4 -07.6122 26258.3
 19 08 2013  05 12  -21.0196 26026.8 -03478.4 -07.6123 26258.3
 19 08 2013  05 13  -21.0196 26026.9 -03478.4 -07.6123 26258.3
 19 08 2013  05 14  -21.0196 26026.8 -03478.4 -07.6123 26258.3
 19 08 2013  05 15  -21.0195 26026.8 -03478.4 -07.6123 26258.2
 19 08 2013  05 16  -21.0194 26026.8 -03478.4 -07.6124 26258.2
 19 08 2013  05 17  -21.0194 26026.8 -03478.5 -07.6124 26258.2
 19 08 2013  05 18  -21.0192 26026.7 -03478.4 -07.6124 26258.2
 19 08 2013  05 19  -21.0190 26026.7 -03478.4 -07.6124 26258.1
 19 08 2013  05 20  -21.0189 26026.7 -03478.5 -07.6125 26258.1
 19 08 2013  05 21  -21.0187 26026.7 -03478.5 -07.6126 26258.2
 19 08 2013  05 22  -21.0187 26026.7 -03478.6 -07.6126 26258.1
 19 08 2013  05 23  -21.0186 26026.7 -03478.6 -07.6127 26258.1
 19 08 2013  05 24  -21.0186 26026.6 -03478.6 -07.6128 26258.1
 19 08 2013  05 25  -21.0187 26026.6 -03478.6 -07.6127 26258.0
 19 08 2013  05 26  -21.0186 26026.5 -03478.5 -07.6127 26257.9
 19 08 2013  05 27  -21.0185 26026.5 -03478.5 -07.6127 26257.9
 19 08 2013  05 28  -21.0185 26026.5 -03478.6 -07.6128 26257.9
 19 08 2013  05 29  -21.0185 26026.6 -03478.7 -07.6129 26258.1
 19 08 2013  05 30  -21.0184 26026.7 -03478.7 -07.6130 26258.1
 19 08 2013  05 31  -21.0184 26026.8 -03478.8 -07.6132 26258.3
 19 08 2013  05 32  -21.0184 26026.9 -03478.9 -07.6133 26258.4
 19 08 2013  05 33  -21.0182 26027.0 -03478.9 -07.6134 26258.4
 19 08 2013  05 34  -21.0182 26027.0 -03478.9 -07.6134 26258.5
 19 08 2013  05 35  -21.0181 26026.9 -03478.9 -07.6133 26258.4
 19 08 2013  05 36  -21.0180 26027.0 -03478.9 -07.6134 26258.5
 19 08 2013  05 37  -21.0179 26027.0 -03478.9 -07.6134 26258.5
 19 08 2013  05 38  -21.0179 26026.9 -03478.9 -07.6134 26258.4
 19 08 2013  05 39  -21.0179 26026.8 -03478.9 -07.6133 26258.3
 19 08 2013  05 40  -21.0179 26026.8 -03478.9 -07.6133 26258.3
 19 08 2013  05 41  -21.0179 26026.8 -03478.9 -07.6133 26258.2
 19 08 2013  05 42  -21.0179 26026.8 -03478.9 -07.6134 26258.3
 19 08 2013  05 43  -21.0176 26026.8 -03478.9 -07.6134 26258.3
 19 08 2013  05 44  -21.0176 26026.8 -03478.9 -07.6135 26258.3
 19 08 2013  05 45  -21.0176 26026.7 -03478.9 -07.6135 26258.2
 19 08 2013  05 46  -21.0176 26026.6 -03478.9 -07.6134 26258.1
 19 08 2013  05 47  -21.0176 26026.6 -03478.9 -07.6134 26258.1
 19 08 2013  05 48  -21.0175 26026.6 -03478.9 -07.6135 26258.1
 19 08 2013  05 49  -21.0175 26026.6 -03479.0 -07.6135 26258.1
 19 08 2013  05 50  -21.0175 26026.6 -03479.0 -07.6136 26258.1
 19 08 2013  05 51  -21.0174 26026.6 -03479.0 -07.6136 26258.1
 19 08 2013  05 52  -21.0174 26026.5 -03479.0 -07.6136 26258.0
 19 08 2013  05 53  -21.0175 26026.4 -03478.9 -07.6135 26257.9
 19 08 2013  05 54  -21.0175 26026.4 -03478.9 -07.6135 26257.9
 19 08 2013  05 55  -21.0176 26026.4 -03479.0 -07.6136 26257.9
 19 08 2013  05 56  -21.0176 26026.5 -03479.0 -07.6136 26258.0
 19 08 2013  05 57  -21.0176 26026.5 -03479.0 -07.6137 26258.0
 19 08 2013  05 58  -21.0175 26026.5 -03479.0 -07.6137 26258.0
 19 08 2013  05 59  -21.0175 26026.4 -03479.0 -07.6137 26257.9
 19 08 2013  06 00  -21.0174 26026.3 -03478.9 -07.6136 26257.8
 19 08 2013  06 01  -21.0173 26026.2 -03478.9 -07.6135 26257.7
 19 08 2013  06 02  -21.0173 26026.0 -03478.9 -07.6135 26257.5
 19 08 2013  06 03  -21.0174 26026.0 -03478.8 -07.6135 26257.4
 19 08 2013  06 04  -21.0173 26025.9 -03478.8 -07.6134 26257.4
 19 08 2013  06 05  -21.0174 26025.9 -03478.8 -07.6134 26257.4
 19 08 2013  06 06  -21.0173 26025.9 -03478.9 -07.6135 26257.4
 19 08 2013  06 07  -21.0172 26025.9 -03478.8 -07.6135 26257.3
 19 08 2013  06 08  -21.0170 26025.8 -03478.8 -07.6135 26257.3
 19 08 2013  06 09  -21.0169 26025.7 -03478.8 -07.6135 26257.2
 19 08 2013  06 10  -21.0167 26025.7 -03478.9 -07.6136 26257.2
 19 08 2013  06 11  -21.0164 26025.7 -03478.9 -07.6136 26257.2
 19 08 2013  06 12  -21.0162 26025.8 -03478.9 -07.6137 26257.3
 19 08 2013  06 13  -21.0159 26025.9 -03479.0 -07.6138 26257.4
 19 08 2013  06 14  -21.0157 26026.0 -03479.1 -07.6140 26257.5
 19 08 2013  06 15  -21.0154 26026.2 -03479.2 -07.6142 26257.7
 19 08 2013  06 16  -21.0148 26026.3 -03479.3 -07.6143 26257.9
 19 08 2013  06 17  -21.0143 26026.4 -03479.4 -07.6144 26258.0
 19 08 2013  06 18  -21.0139 26026.6 -03479.5 -07.6146 26258.1
 19 08 2013  06 19  -21.0134 26026.8 -03479.6 -07.6149 26258.3
 19 08 2013  06 20  -21.0131 26027.0 -03479.7 -07.6151 26258.6
 19 08 2013  06 21  -21.0128 26027.1 -03479.8 -07.6153 26258.7
 19 08 2013  06 22  -21.0125 26027.2 -03479.9 -07.6154 26258.8
 19 08 2013  06 23  -21.0123 26027.2 -03479.9 -07.6154 26258.8
 19 08 2013  06 24  -21.0122 26027.1 -03479.9 -07.6154 26258.7
 19 08 2013  06 25  -21.0123 26027.1 -03479.8 -07.6153 26258.7
 19 08 2013  06 26  -21.0123 26027.1 -03479.9 -07.6154 26258.7
 19 08 2013  06 27  -21.0124 26027.1 -03479.9 -07.6154 26258.7
 19 08 2013  06 28  -21.0125 26027.2 -03479.9 -07.6154 26258.8
 19 08 2013  06 29  -21.0128 26027.2 -03480.0 -07.6155 26258.8
 19 08 2013  06 30  -21.0130 26027.2 -03480.0 -07.6155 26258.9
 19 08 2013  06 31  -21.0130 26027.3 -03480.0 -07.6155 26258.9
 19 08 2013  06 32  -21.0131 26027.3 -03479.9 -07.6155 26258.9
 19 08 2013  06 33  -21.0132 26027.3 -03479.9 -07.6154 26258.9
 19 08 2013  06 34  -21.0134 26027.2 -03479.9 -07.6153 26258.8
 19 08 2013  06 35  -21.0136 26027.1 -03479.8 -07.6153 26258.7
 19 08 2013  06 36  -21.0136 26027.1 -03479.8 -07.6152 26258.7
 19 08 2013  06 37  -21.0137 26027.1 -03479.8 -07.6152 26258.7
 19 08 2013  06 38  -21.0138 26027.2 -03479.8 -07.6152 26258.8
 19 08 2013  06 39  -21.0138 26027.1 -03479.7 -07.6151 26258.7
 19 08 2013  06 40  -21.0137 26027.1 -03479.7 -07.6150 26258.6
 19 08 2013  06 41  -21.0137 26027.0 -03479.7 -07.6150 26258.6
 19 08 2013  06 42  -21.0135 26026.9 -03479.6 -07.6148 26258.5
 19 08 2013  06 43  -21.0133 26026.8 -03479.5 -07.6147 26258.4
 19 08 2013  06 44  -21.0131 26026.8 -03479.5 -07.6147 26258.4
 19 08 2013  06 45  -21.0129 26026.8 -03479.5 -07.6147 26258.3
 19 08 2013  06 46  -21.0127 26026.8 -03479.5 -07.6147 26258.3
 19 08 2013  06 47  -21.0125 26026.9 -03479.6 -07.6148 26258.4
 19 08 2013  06 48  -21.0123 26026.9 -03479.6 -07.6148 26258.4
 19 08 2013  06 49  -21.0122 26026.8 -03479.6 -07.6148 26258.4
 19 08 2013  06 50  -21.0121 26026.8 -03479.6 -07.6149 26258.4
 19 08 2013  06 51  -21.0119 26026.8 -03479.6 -07.6148 26258.4
 19 08 2013  06 52  -21.0115 26026.7 -03479.5 -07.6148 26258.3
 19 08 2013  06 53  -21.0113 26026.7 -03479.6 -07.6148 26258.3
 19 08 2013  06 54  -21.0109 26026.7 -03479.6 -07.6149 26258.3
 19 08 2013  06 55  -21.0107 26026.7 -03479.6 -07.6149 26258.3
 19 08 2013  06 56  -21.0105 26026.7 -03479.6 -07.6149 26258.3
 19 08 2013  06 57  -21.0103 26026.7 -03479.7 -07.6150 26258.3
 19 08 2013  06 58  -21.0102 26026.7 -03479.7 -07.6151 26258.3
 19 08 2013  06 59  -21.0100 26026.7 -03479.7 -07.6151 26258.3
 19 08 2013  07 00  -21.0098 26026.7 -03479.7 -07.6151 26258.3
 19 08 2013  07 01  -21.0095 26026.7 -03479.7 -07.6152 26258.3
 19 08 2013  07 02  -21.0093 26026.7 -03479.7 -07.6152 26258.3
 19 08 2013  07 03  -21.0091 26026.7 -03479.8 -07.6153 26258.2
 19 08 2013  07 04  -21.0090 26026.6 -03479.7 -07.6152 26258.2
 19 08 2013  07 05  -21.0089 26026.6 -03479.7 -07.6152 26258.2
 19 08 2013  07 06  -21.0087 26026.5 -03479.7 -07.6152 26258.1
 19 08 2013  07 07  -21.0085 26026.4 -03479.7 -07.6151 26258.0
 19 08 2013  07 08  -21.0081 26026.3 -03479.6 -07.6150 26257.9
 19 08 2013  07 09  -21.0078 26026.3 -03479.6 -07.6150 26257.8
 19 08 2013  07 10  -21.0075 26026.3 -03479.6 -07.6151 26257.8
 19 08 2013  07 11  -21.0074 26026.4 -03479.7 -07.6152 26258.0
 19 08 2013  07 12  -21.0071 26026.5 -03479.8 -07.6153 26258.1
 19 08 2013  07 13  -21.0070 26026.5 -03479.8 -07.6154 26258.1
 19 08 2013  07 14  -21.0068 26026.4 -03479.8 -07.6154 26258.0
 19 08 2013  07 15  -21.0065 26026.4 -03479.8 -07.6154 26258.0
 19 08 2013  07 16  -21.0061 26026.2 -03479.7 -07.6153 26257.8
 19 08 2013  07 17  -21.0055 26026.1 -03479.7 -07.6153 26257.7
 19 08 2013  07 18  -21.0050 26026.0 -03479.7 -07.6153 26257.6
 19 08 2013  07 19  -21.0047 26025.9 -03479.7 -07.6154 26257.5
 19 08 2013  07 20  -21.0045 26025.9 -03479.7 -07.6154 26257.5
 19 08 2013  07 21  -21.0045 26025.8 -03479.7 -07.6155 26257.4
 19 08 2013  07 22  -21.0047 26025.8 -03479.8 -07.6156 26257.4
 19 08 2013  07 23  -21.0047 26025.9 -03479.9 -07.6157 26257.5
 19 08 2013  07 24  -21.0045 26026.0 -03479.9 -07.6158 26257.7
 19 08 2013  07 25  -21.0044 26026.2 -03480.0 -07.6159 26257.8
 19 08 2013  07 26  -21.0043 26026.4 -03480.2 -07.6162 26258.1
 19 08 2013  07 27  -21.0041 26026.6 -03480.3 -07.6165 26258.3
 19 08 2013  07 28  -21.0039 26026.7 -03480.3 -07.6165 26258.3
 19 08 2013  07 29  -21.0038 26026.7 -03480.3 -07.6164 26258.3
 19 08 2013  07 30  -21.0036 26026.5 -03480.2 -07.6163 26258.2
 19 08 2013  07 31  -21.0034 26026.4 -03480.2 -07.6162 26258.1
 19 08 2013  07 32  -21.0032 26026.6 -03480.2 -07.6163 26258.2
 19 08 2013  07 33  -21.0029 26026.7 -03480.3 -07.6163 26258.3
 19 08 2013  07 34  -21.0025 26026.9 -03480.4 -07.6166 26258.6
 19 08 2013  07 35  -21.0021 26026.7 -03480.3 -07.6164 26258.4
 19 08 2013  07 36  -21.0017 26026.7 -03480.3 -07.6164 26258.4
 19 08 2013  07 37  -21.0014 26026.4 -03480.2 -07.6163 26258.1
 19 08 2013  07 38  -21.0012 26026.4 -03480.2 -07.6162 26258.0
 19 08 2013  07 39  -21.0010 26026.3 -03480.1 -07.6162 26257.9
 19 08 2013  07 40  -21.0008 26026.3 -03480.2 -07.6163 26257.9
 19 08 2013  07 41  -21.0006 26026.3 -03480.2 -07.6164 26258.0
 19 08 2013  07 42  -21.0002 26026.3 -03480.3 -07.6164 26258.0
 19 08 2013  07 43  -20.9996 26026.2 -03480.2 -07.6164 26257.9
 19 08 2013  07 44  -20.9992 26026.2 -03480.2 -07.6164 26257.8
 19 08 2013  07 45  -20.9988 26026.2 -03480.3 -07.6165 26257.9
 19 08 2013  07 46  -20.9984 26026.2 -03480.3 -07.6166 26257.9
 19 08 2013  07 47  -20.9979 26026.2 -03480.3 -07.6166 26257.9
 19 08 2013  07 48  -20.9972 26026.0 -03480.2 -07.6165 26257.7
 19 08 2013  07 49  -20.9967 26025.9 -03480.2 -07.6165 26257.6
 19 08 2013  07 50  -20.9964 26025.8 -03480.2 -07.6166 26257.4
 19 08 2013  07 51  -20.9963 26025.8 -03480.3 -07.6167 26257.5
 19 08 2013  07 52  -20.9963 26026.0 -03480.5 -07.6171 26257.7
 19 08 2013  07 53  -20.9961 26026.1 -03480.6 -07.6172 26257.8
 19 08 2013  07 54  -20.9958 26026.3 -03480.7 -07.6174 26258.0
 19 08 2013  07 55  -20.9955 26026.5 -03480.9 -07.6177 26258.2
 19 08 2013  07 56  -20.9953 26026.7 -03481.0 -07.6179 26258.5
 19 08 2013  07 57  -20.9954 26026.8 -03481.1 -07.6180 26258.6
 19 08 2013  07 58  -20.9952 26026.8 -03481.1 -07.6181 26258.6
 19 08 2013  07 59  -20.9948 26026.7 -03481.0 -07.6179 26258.5
 19 08 2013  08 00  -20.9949 26026.6 -03480.9 -07.6178 26258.3
 19 08 2013  08 01  -20.9952 26026.7 -03481.0 -07.6179 26258.4
 19 08 2013  08 02  -20.9952 26026.6 -03481.0 -07.6179 26258.4
 19 08 2013  08 03  -20.9950 26026.5 -03480.9 -07.6177 26258.2
 19 08 2013  08 04  -20.9946 26026.4 -03480.8 -07.6176 26258.2
 19 08 2013  08 05  -20.9942 26026.4 -03480.8 -07.6175 26258.1
 19 08 2013  08 06  -20.9938 26026.3 -03480.8 -07.6175 26258.1
 19 08 2013  08 07  -20.9935 26026.2 -03480.7 -07.6174 26258.0
 19 08 2013  08 08  -20.9930 26026.0 -03480.6 -07.6172 26257.7
 19 08 2013  08 09  -20.9925 26026.0 -03480.5 -07.6171 26257.7
 19 08 2013  08 10  -20.9920 26025.8 -03480.5 -07.6170 26257.5
 19 08 2013  08 11  -20.9916 26025.9 -03480.5 -07.6171 26257.6
 19 08 2013  08 12  -20.9911 26025.9 -03480.6 -07.6172 26257.6
 19 08 2013  08 13  -20.9906 26025.9 -03480.6 -07.6172 26257.6
 19 08 2013  08 14  -20.9899 26025.9 -03480.5 -07.6172 26257.6
 19 08 2013  08 15  -20.9891 26025.7 -03480.5 -07.6171 26257.4
 19 08 2013  08 16  -20.9883 26025.6 -03480.4 -07.6171 26257.3
 19 08 2013  08 17  -20.9876 26025.4 -03480.4 -07.6170 26257.1
 19 08 2013  08 18  -20.9868 26025.2 -03480.3 -07.6169 26256.8
 19 08 2013  08 19  -20.9862 26025.1 -03480.4 -07.6170 26256.8
 19 08 2013  08 20  -20.9856 26025.2 -03480.4 -07.6172 26256.9
 19 08 2013  08 21  -20.9848 26025.1 -03480.4 -07.6171 26256.8
 19 08 2013  08 22  -20.9843 26025.2 -03480.5 -07.6173 26256.9
 19 08 2013  08 23  -20.9838 26025.3 -03480.6 -07.6174 26257.0
 19 08 2013  08 24  -20.9836 26025.4 -03480.7 -07.6177 26257.1
 19 08 2013  08 25  -20.9834 26025.4 -03480.8 -07.6179 26257.2
 19 08 2013  08 26  -20.9832 26025.2 -03480.7 -07.6176 26256.9
 19 08 2013  08 27  -20.9827 26025.2 -03480.7 -07.6178 26256.9
 19 08 2013  08 28  -20.9823 26025.3 -03480.8 -07.6178 26257.1
 19 08 2013  08 29  -20.9819 26025.4 -03480.8 -07.6178 26257.1
 19 08 2013  08 30  -20.9814 26025.4 -03480.8 -07.6179 26257.2
 19 08 2013  08 31  -20.9812 26025.3 -03480.8 -07.6178 26257.0
 19 08 2013  08 32  -20.9807 26025.5 -03480.8 -07.6179 26257.3
 19 08 2013  08 33  -20.9802 26025.6 -03480.9 -07.6179 26257.3
 19 08 2013  08 34  -20.9797 26025.6 -03480.8 -07.6178 26257.3
 19 08 2013  08 35  -20.9791 26025.4 -03480.7 -07.6176 26257.1
 19 08 2013  08 36  -20.9787 26025.4 -03480.7 -07.6176 26257.1
 19 08 2013  08 37  -20.9781 26025.3 -03480.6 -07.6174 26257.0
 19 08 2013  08 38  -20.9775 26025.2 -03480.5 -07.6172 26256.9
 19 08 2013  08 39  -20.9769 26025.3 -03480.5 -07.6172 26257.0
 19 08 2013  08 40  -20.9760 26025.4 -03480.5 -07.6173 26257.1
 19 08 2013  08 41  -20.9749 26025.5 -03480.5 -07.6173 26257.2
 19 08 2013  08 42  -20.9738 26025.5 -03480.5 -07.6173 26257.2
 19 08 2013  08 43  -20.9727 26025.3 -03480.4 -07.6171 26257.0
 19 08 2013  08 44  -20.9718 26025.3 -03480.4 -07.6170 26257.0
 19 08 2013  08 45  -20.9710 26025.3 -03480.4 -07.6171 26257.0
 19 08 2013  08 46  -20.9701 26025.1 -03480.3 -07.6169 26256.8
 19 08 2013  08 47  -20.9692 26025.0 -03480.3 -07.6169 26256.7
 19 08 2013  08 48  -20.9686 26024.9 -03480.3 -07.6170 26256.6
 19 08 2013  08 49  -20.9681 26024.8 -03480.4 -07.6171 26256.4
 19 08 2013  08 50  -20.9676 26024.7 -03480.5 -07.6174 26256.4
 19 08 2013  08 51  -20.9670 26024.7 -03480.6 -07.6176 26256.4
 19 08 2013  08 52  -20.9662 26024.6 -03480.5 -07.6176 26256.3
 19 08 2013  08 53  -20.9657 26024.5 -03480.6 -07.6178 26256.3
 19 08 2013  08 54  -20.9653 26024.6 -03480.7 -07.6180 26256.3
 19 08 2013  08 55  -20.9649 26024.6 -03480.9 -07.6184 26256.4
 19 08 2013  08 56  -20.9644 26024.8 -03481.2 -07.6188 26256.6
 19 08 2013  08 57  -20.9638 26025.0 -03481.3 -07.6192 26256.8
 19 08 2013  08 58  -20.9629 26024.9 -03481.3 -07.6192 26256.7
 19 08 2013  08 59  -20.9622 26024.8 -03481.5 -07.6195 26256.6
 19 08 2013  09 00  -20.9616 26024.6 -03481.5 -07.6197 26256.4
 19 08 2013  09 01  -20.9610 26024.6 -03481.7 -07.6200 26256.5
 19 08 2013  09 02  -20.9605 26024.7 -03481.9 -07.6204 26256.6
 19 08 2013  09 03  -20.9597 26024.7 -03482.0 -07.6208 26256.6
 19 08 2013  09 04  -20.9590 26024.6 -03482.1 -07.6210 26256.5
 19 08 2013  09 05  -20.9585 26024.6 -03482.2 -07.6212 26256.5
 19 08 2013  09 06  -20.9579 26024.5 -03482.4 -07.6215 26256.5
 19 08 2013  09 07  -20.9573 26024.3 -03482.4 -07.6217 26256.3
 19 08 2013  09 08  -20.9570 26024.1 -03482.5 -07.6220 26256.1
 19 08 2013  09 09  -20.9563 26024.0 -03482.7 -07.6224 26256.0
 19 08 2013  09 10  -20.9559 26023.9 -03482.9 -07.6229 26255.9
 19 08 2013  09 11  -20.9556 26023.9 -03483.2 -07.6235 26256.0
 19 08 2013  09 12  -20.9554 26024.0 -03483.5 -07.6241 26256.1
 19 08 2013  09 13  -20.9549 26024.0 -03483.8 -07.6247 26256.1
 19 08 2013  09 14  -20.9543 26024.0 -03484.0 -07.6253 26256.1
 19 08 2013  09 15  -20.9532 26023.8 -03484.1 -07.6256 26256.0
 19 08 2013  09 16  -20.9526 26023.6 -03484.3 -07.6260 26255.9
 19 08 2013  09 17  -20.9525 26023.5 -03484.5 -07.6264 26255.7
 19 08 2013  09 18  -20.9524 26023.4 -03484.8 -07.6271 26255.7
 19 08 2013  09 19  -20.9527 26023.5 -03485.2 -07.6278 26255.8
 19 08 2013  09 20  -20.9528 26023.5 -03485.5 -07.6286 26255.9
 19 08 2013  09 21  -20.9522 26023.4 -03485.6 -07.6289 26255.8
 19 08 2013  09 22  -20.9524 26023.2 -03485.8 -07.6293 26255.6
 19 08 2013  09 23  -20.9528 26022.9 -03485.9 -07.6297 26255.3
 19 08 2013  09 24  -20.9534 26023.0 -03486.2 -07.6303 26255.4
 19 08 2013  09 25  -20.9540 26022.9 -03486.5 -07.6310 26255.4
 19 08 2013  09 26  -20.9541 26023.0 -03486.8 -07.6315 26255.5
 19 08 2013  09 27  -20.9540 26022.9 -03486.9 -07.6319 26255.5
 19 08 2013  09 28  -20.9539 26022.9 -03487.1 -07.6322 26255.5
 19 08 2013  09 29  -20.9541 26022.9 -03487.3 -07.6326 26255.5
 19 08 2013  09 30  -20.9538 26022.9 -03487.5 -07.6331 26255.6
 19 08 2013  09 31  -20.9538 26022.8 -03487.7 -07.6335 26255.5
 19 08 2013  09 32  -20.9541 26022.8 -03488.0 -07.6341 26255.5
 19 08 2013  09 33  -20.9543 26022.8 -03488.2 -07.6346 26255.6
 19 08 2013  09 34  -20.9545 26022.8 -03488.4 -07.6351 26255.6
 19 08 2013  09 35  -20.9548 26022.7 -03488.6 -07.6355 26255.5
 19 08 2013  09 36  -20.9553 26022.7 -03488.9 -07.6361 26255.5
 19 08 2013  09 37  -20.9555 26022.6 -03489.1 -07.6365 26255.5
 19 08 2013  09 38  -20.9557 26022.7 -03489.3 -07.6371 26255.6
 19 08 2013  09 39  -20.9557 26022.7 -03489.5 -07.6375 26255.6
 19 08 2013  09 40  -20.9559 26022.7 -03489.7 -07.6379 26255.7
 19 08 2013  09 41  -20.9558 26022.8 -03489.9 -07.6384 26255.7
 19 08 2013  09 42  -20.9562 26022.8 -03490.2 -07.6389 26255.8
 19 08 2013  09 43  -20.9567 26022.9 -03490.5 -07.6395 26255.9
 19 08 2013  09 44  -20.9571 26022.9 -03490.7 -07.6400 26256.0
 19 08 2013  09 45  -20.9575 26022.9 -03490.9 -07.6405 26256.0
 19 08 2013  09 46  -20.9580 26022.9 -03491.1 -07.6410 26256.0
 19 08 2013  09 47  -20.9584 26022.9 -03491.3 -07.6414 26256.1
 19 08 2013  09 48  -20.9592 26023.1 -03491.7 -07.6420 26256.3
 19 08 2013  09 49  -20.9599 26023.4 -03492.0 -07.6427 26256.6
 19 08 2013  09 50  -20.9602 26023.5 -03492.3 -07.6432 26256.8
 19 08 2013  09 51  -20.9602 26023.5 -03492.4 -07.6435 26256.8
 19 08 2013  09 52  -20.9605 26023.3 -03492.4 -07.6436 26256.7
 19 08 2013  09 53  -20.9611 26023.3 -03492.5 -07.6439 26256.6
 19 08 2013  09 54  -20.9620 26023.1 -03492.6 -07.6441 26256.4
 19 08 2013  09 55  -20.9627 26022.9 -03492.8 -07.6445 26256.3
 19 08 2013  09 56  -20.9636 26022.8 -03492.9 -07.6448 26256.1
 19 08 2013  09 57  -20.9645 26022.7 -03493.1 -07.6453 26256.1
 19 08 2013  09 58  -20.9650 26022.7 -03493.3 -07.6457 26256.1
 19 08 2013  09 59  -20.9652 26022.7 -03493.5 -07.6461 26256.1
 19 08 2013  10 00  -20.9662 26022.6 -03493.7 -07.6465 26256.1
 19 08 2013  10 01  -20.9670 26022.5 -03493.9 -07.6470 26256.0
 19 08 2013  10 02  -20.9676 26022.6 -03494.1 -07.6474 26256.2
 19 08 2013  10 03  -20.9681 26022.7 -03494.3 -07.6479 26256.3
 19 08 2013  10 04  -20.9683 26022.8 -03494.5 -07.6482 26256.4
 19 08 2013  10 05  -20.9685 26023.1 -03494.7 -07.6487 26256.7
 19 08 2013  10 06  -20.9689 26023.1 -03494.9 -07.6490 26256.7
 19 08 2013  10 07  -20.9693 26023.1 -03495.0 -07.6492 26256.8
 19 08 2013  10 08  -20.9698 26023.1 -03495.1 -07.6495 26256.8
 19 08 2013  10 09  -20.9708 26023.1 -03495.3 -07.6498 26256.8
 19 08 2013  10 10  -20.9719 26023.1 -03495.4 -07.6502 26256.8
 19 08 2013  10 11  -20.9728 26023.0 -03495.6 -07.6506 26256.7
 19 08 2013  10 12  -20.9735 26023.0 -03495.8 -07.6509 26256.8
 19 08 2013  10 13  -20.9743 26023.0 -03496.0 -07.6514 26256.8
 19 08 2013  10 14  -20.9748 26023.3 -03496.2 -07.6518 26257.1
 19 08 2013  10 15  -20.9749 26023.3 -03496.4 -07.6522 26257.2
 19 08 2013  10 16  -20.9749 26023.5 -03496.6 -07.6526 26257.4
 19 08 2013  10 17  -20.9750 26023.7 -03496.8 -07.6530 26257.6
 19 08 2013  10 18  -20.9749 26024.0 -03497.1 -07.6536 26257.9
 19 08 2013  10 19  -20.9754 26024.1 -03497.3 -07.6540 26258.1
 19 08 2013  10 20  -20.9758 26024.4 -03497.6 -07.6545 26258.3
 19 08 2013  10 21  -20.9765 26024.4 -03497.8 -07.6549 26258.4
 19 08 2013  10 22  -20.9772 26024.6 -03498.0 -07.6554 26258.6
 19 08 2013  10 23  -20.9780 26024.8 -03498.2 -07.6557 26258.9
 19 08 2013  10 24  -20.9790 26025.0 -03498.5 -07.6562 26259.1
 19 08 2013  10 25  -20.9796 26025.3 -03498.7 -07.6566 26259.4
 19 08 2013  10 26  -20.9804 26025.5 -03498.8 -07.6569 26259.7
 19 08 2013  10 27  -20.9815 26025.7 -03499.0 -07.6572 26259.9
 19 08 2013  10 28  -20.9826 26025.9 -03499.2 -07.6575 26260.1
 19 08 2013  10 29  -20.9834 26026.3 -03499.4 -07.6579 26260.5
 19 08 2013  10 30  -20.9841 26026.5 -03499.6 -07.6582 26260.7
 19 08 2013  10 31  -20.9850 26026.8 -03499.8 -07.6585 26261.0
 19 08 2013  10 32  -20.9862 26027.0 -03499.9 -07.6587 26261.2
 19 08 2013  10 33  -20.9877 26027.2 -03500.0 -07.6590 26261.5
 19 08 2013  10 34  -20.9891 26027.4 -03500.2 -07.6592 26261.7
 19 08 2013  10 35  -20.9904 26027.6 -03500.3 -07.6594 26261.9
 19 08 2013  10 36  -20.9914 26027.9 -03500.4 -07.6596 26262.2
 19 08 2013  10 37  -20.9921 26028.3 -03500.6 -07.6598 26262.6
 19 08 2013  10 38  -20.9927 26028.6 -03500.7 -07.6601 26263.0
 19 08 2013  10 39  -20.9935 26029.0 -03500.8 -07.6602 26263.4
 19 08 2013  10 40  -20.9944 26029.3 -03500.9 -07.6603 26263.7
 19 08 2013  10 41  -20.9953 26029.6 -03501.0 -07.6604 26264.0
 19 08 2013  10 42  -20.9961 26029.9 -03501.1 -07.6605 26264.3
 19 08 2013  10 43  -20.9970 26029.9 -03501.1 -07.6604 26264.3
 19 08 2013  10 44  -20.9980 26029.9 -03501.0 -07.6603 26264.3
 19 08 2013  10 45  -20.9992 26029.9 -03501.0 -07.6602 26264.3
 19 08 2013  10 46  -21.0010 26029.9 -03501.1 -07.6604 26264.3
 19 08 2013  10 47  -21.0027 26030.1 -03501.2 -07.6606 26264.5
 19 08 2013  10 48  -21.0040 26030.5 -03501.3 -07.6608 26264.9
 19 08 2013  10 49  -21.0050 26030.7 -03501.4 -07.6609 26265.2
 19 08 2013  10 50  -21.0058 26031.1 -03501.5 -07.6610 26265.6
 19 08 2013  10 51  -21.0068 26031.5 -03501.6 -07.6611 26266.0
 19 08 2013  10 52  -21.0080 26031.9 -03501.7 -07.6611 26266.4
 19 08 2013  10 53  -21.0092 26032.2 -03501.7 -07.6610 26266.7
 19 08 2013  10 54  -21.0100 26032.4 -03501.7 -07.6609 26266.9
 19 08 2013  10 55  -21.0108 26032.7 -03501.6 -07.6608 26267.1
 19 08 2013  10 56  -21.0116 26032.9 -03501.6 -07.6607 26267.3
 19 08 2013  10 57  -21.0129 26033.1 -03501.7 -07.6608 26267.6
 19 08 2013  10 58  -21.0143 26033.4 -03501.8 -07.6609 26267.8
 19 08 2013  10 59  -21.0155 26033.7 -03501.8 -07.6610 26268.2
 19 08 2013  11 00  -21.0166 26034.2 -03501.9 -07.6610 26268.7
 19 08 2013  11 01  -21.0177 26034.6 -03501.9 -07.6608 26269.1
 19 08 2013  11 02  -21.0189 26035.1 -03502.0 -07.6608 26269.5
 19 08 2013  11 03  -21.0200 26035.4 -03501.9 -07.6607 26269.9
 19 08 2013  11 04  -21.0213 26035.7 -03501.9 -07.6605 26270.1
 19 08 2013  11 05  -21.0226 26035.9 -03501.8 -07.6602 26270.3
 19 08 2013  11 06  -21.0238 26036.1 -03501.7 -07.6600 26270.6
 19 08 2013  11 07  -21.0251 26036.5 -03501.7 -07.6598 26270.9
 19 08 2013  11 08  -21.0263 26036.7 -03501.6 -07.6595 26271.1
 19 08 2013  11 09  -21.0274 26036.8 -03501.5 -07.6593 26271.2
 19 08 2013  11 10  -21.0284 26037.1 -03501.4 -07.6590 26271.5
 19 08 2013  11 11  -21.0296 26037.3 -03501.3 -07.6588 26271.6
 19 08 2013  11 12  -21.0305 26037.6 -03501.3 -07.6585 26272.0
 19 08 2013  11 13  -21.0315 26038.0 -03501.2 -07.6583 26272.3
 19 08 2013  11 14  -21.0323 26038.3 -03501.1 -07.6581 26272.6
 19 08 2013  11 15  -21.0331 26038.6 -03501.0 -07.6578 26272.9
 19 08 2013  11 16  -21.0340 26038.9 -03501.0 -07.6575 26273.2
 19 08 2013  11 17  -21.0349 26039.2 -03500.9 -07.6572 26273.5
 19 08 2013  11 18  -21.0359 26039.5 -03500.8 -07.6570 26273.8
 19 08 2013  11 19  -21.0367 26039.8 -03500.7 -07.6567 26274.1
 19 08 2013  11 20  -21.0376 26040.2 -03500.6 -07.6564 26274.4
 19 08 2013  11 21  -21.0386 26040.5 -03500.5 -07.6561 26274.7
 19 08 2013  11 22  -21.0396 26040.9 -03500.5 -07.6559 26275.1
 19 08 2013  11 23  -21.0406 26041.2 -03500.3 -07.6555 26275.4
 19 08 2013  11 24  -21.0413 26041.5 -03500.2 -07.6552 26275.7
 19 08 2013  11 25  -21.0421 26041.9 -03500.1 -07.6549 26276.0
 19 08 2013  11 26  -21.0429 26042.3 -03500.1 -07.6546 26276.4
 19 08 2013  11 27  -21.0437 26042.7 -03500.0 -07.6543 26276.8
 19 08 2013  11 28  -21.0445 26043.0 -03499.8 -07.6539 26277.1
 19 08 2013  11 29  -21.0453 26043.3 -03499.7 -07.6535 26277.4
 19 08 2013  11 30  -21.0460 26043.6 -03499.6 -07.6532 26277.6
 19 08 2013  11 31  -21.0467 26043.8 -03499.4 -07.6528 26277.9
 19 08 2013  11 32  -21.0473 26044.1 -03499.3 -07.6524 26278.1
 19 08 2013  11 33  -21.0479 26044.4 -03499.2 -07.6521 26278.4
 19 08 2013  11 34  -21.0486 26044.6 -03499.1 -07.6518 26278.6
 19 08 2013  11 35  -21.0495 26044.8 -03499.0 -07.6515 26278.8
 19 08 2013  11 36  -21.0505 26045.0 -03498.9 -07.6512 26278.9
 19 08 2013  11 37  -21.0512 26045.3 -03498.8 -07.6510 26279.2
 19 08 2013  11 38  -21.0518 26045.8 -03498.8 -07.6508 26279.7
 19 08 2013  11 39  -21.0525 26046.0 -03498.6 -07.6504 26279.9
 19 08 2013  11 40  -21.0533 26046.3 -03498.5 -07.6502 26280.2
 19 08 2013  11 41  -21.0540 26046.8 -03498.5 -07.6498 26280.7
 19 08 2013  11 42  -21.0548 26047.2 -03498.4 -07.6496 26281.0
 19 08 2013  11 43  -21.0556 26047.6 -03498.3 -07.6492 26281.5
 19 08 2013  11 44  -21.0565 26048.1 -03498.2 -07.6488 26281.9
 19 08 2013  11 45  -21.0572 26048.6 -03498.1 -07.6485 26282.5
 19 08 2013  11 46  -21.0580 26049.0 -03497.9 -07.6481 26282.8
 19 08 2013  11 47  -21.0587 26049.5 -03497.8 -07.6477 26283.3
 19 08 2013  11 48  -21.0593 26050.0 -03497.7 -07.6473 26283.7
 19 08 2013  11 49  -21.0598 26050.2 -03497.5 -07.6468 26283.9
 19 08 2013  11 50  -21.0602 26050.5 -03497.4 -07.6466 26284.2
 19 08 2013  11 51  -21.0608 26050.8 -03497.4 -07.6463 26284.5
 19 08 2013  11 52  -21.0618 26051.2 -03497.3 -07.6460 26284.9
 19 08 2013  11 53  -21.0627 26051.6 -03497.2 -07.6457 26285.3
 19 08 2013  11 54  -21.0635 26051.9 -03497.0 -07.6452 26285.6
 19 08 2013  11 55  -21.0640 26052.3 -03496.8 -07.6448 26285.9
 19 08 2013  11 56  -21.0646 26052.9 -03496.7 -07.6444 26286.5
 19 08 2013  11 57  -21.0655 26053.4 -03496.6 -07.6440 26287.0
 19 08 2013  11 58  -21.0668 26053.9 -03496.5 -07.6436 26287.4
 19 08 2013  11 59  -21.0681 26054.4 -03496.4 -07.6433 26287.9
 19 08 2013  12 00  -21.0697 26054.5 -03496.2 -07.6427 26288.0
 19 08 2013  12 01  -21.0713 26054.6 -03496.0 -07.6422 26288.1
 19 08 2013  12 02  -21.0725 26054.8 -03495.8 -07.6418 26288.3
 19 08 2013  12 03  -21.0738 26055.1 -03495.7 -07.6415 26288.5
 19 08 2013  12 04  -21.0754 26055.3 -03495.6 -07.6412 26288.8
 19 08 2013  12 05  -21.0769 26055.9 -03495.5 -07.6409 26289.4
 19 08 2013  12 06  -21.0780 26056.4 -03495.3 -07.6403 26289.8
 19 08 2013  12 07  -21.0786 26056.9 -03495.1 -07.6397 26290.3
 19 08 2013  12 08  -21.0790 26057.4 -03494.9 -07.6391 26290.7
 19 08 2013  12 09  -21.0795 26057.5 -03494.6 -07.6383 26290.8
 19 08 2013  12 10  -21.0802 26057.5 -03494.3 -07.6378 26290.8
 19 08 2013  12 11  -21.0814 26057.5 -03494.0 -07.6372 26290.7
 19 08 2013  12 12  -21.0827 26057.5 -03493.8 -07.6368 26290.7
 19 08 2013  12 13  -21.0839 26057.7 -03493.7 -07.6364 26290.9
 19 08 2013  12 14  -21.0854 26057.6 -03493.4 -07.6359 26290.7
 19 08 2013  12 15  -21.0866 26057.6 -03493.2 -07.6354 26290.7
 19 08 2013  12 16  -21.0875 26057.7 -03493.0 -07.6350 26290.8
 19 08 2013  12 17  -21.0883 26058.2 -03493.0 -07.6347 26291.3
 19 08 2013  12 18  -21.0888 26059.2 -03493.0 -07.6344 26292.2
 19 08 2013  12 19  -21.0892 26059.3 -03492.6 -07.6335 26292.3
 19 08 2013  12 20  -21.0898 26059.0 -03492.0 -07.6324 26292.0
 19 08 2013  12 21  -21.0899 26059.8 -03491.9 -07.6320 26292.7
 19 08 2013  12 22  -21.0908 26059.2 -03491.3 -07.6308 26292.0
 19 08 2013  12 23  -21.0914 26058.0 -03490.7 -07.6298 26290.8
 19 08 2013  12 24  -21.0918 26057.9 -03490.7 -07.6298 26290.6
 19 08 2013  12 25  -21.0922 26058.3 -03490.9 -07.6301 26291.1
 19 08 2013  12 26  -21.0929 26059.5 -03491.3 -07.6308 26292.3
 19 08 2013  12 27  -21.0939 26060.5 -03491.5 -07.6308 26293.4
 19 08 2013  12 28  -21.0944 26062.2 -03491.7 -07.6307 26295.0
 19 08 2013  12 29  -21.0942 26063.6 -03491.5 -07.6300 26296.5
 19 08 2013  12 30  -21.0934 26064.4 -03491.1 -07.6288 26297.2
 19 08 2013  12 31  -21.0929 26064.2 -03490.4 -07.6273 26296.9
 19 08 2013  12 32  -21.0929 26063.7 -03489.7 -07.6260 26296.3
 19 08 2013  12 33  -21.0932 26063.7 -03489.4 -07.6254 26296.3
 19 08 2013  12 34  -21.0942 26063.8 -03489.3 -07.6250 26296.3
 19 08 2013  12 35  -21.0954 26063.9 -03489.1 -07.6247 26296.4
 19 08 2013  12 36  -21.0966 26064.2 -03489.0 -07.6243 26296.7
 19 08 2013  12 37  -21.0977 26064.3 -03488.7 -07.6238 26296.8
 19 08 2013  12 38  -21.0982 26064.6 -03488.5 -07.6233 26297.0
 19 08 2013  12 39  -21.0986 26065.0 -03488.4 -07.6228 26297.4
 19 08 2013  12 40  -21.0989 26065.6 -03488.3 -07.6225 26298.0
 19 08 2013  12 41  -21.0991 26066.1 -03488.2 -07.6220 26298.4
 19 08 2013  12 42  -21.0993 26066.3 -03487.9 -07.6215 26298.6
 19 08 2013  12 43  -21.0992 26067.1 -03487.9 -07.6212 26299.4
 19 08 2013  12 44  -21.0987 26068.0 -03488.0 -07.6210 26300.3
 19 08 2013  12 45  -21.0985 26068.8 -03488.0 -07.6208 26301.1
 19 08 2013  12 46  -21.0983 26069.4 -03487.9 -07.6204 26301.7
 19 08 2013  12 47  -21.0981 26069.7 -03487.7 -07.6199 26302.0
 19 08 2013  12 48  -21.0976 26070.3 -03487.6 -07.6195 26302.5
 19 08 2013  12 49  -21.0973 26070.7 -03487.4 -07.6190 26302.9
 19 08 2013  12 50  -21.0971 26071.0 -03487.2 -07.6186 26303.2
 19 08 2013  12 51  -21.0971 26071.3 -03487.0 -07.6181 26303.4
 19 08 2013  12 52  -21.0969 26071.4 -03486.8 -07.6175 26303.6
 19 08 2013  12 53  -21.0967 26071.8 -03486.7 -07.6172 26303.9
 19 08 2013  12 54  -21.0967 26072.1 -03486.6 -07.6169 26304.2
 19 08 2013  12 55  -21.0967 26072.5 -03486.5 -07.6166 26304.5
 19 08 2013  12 56  -21.0966 26072.8 -03486.4 -07.6163 26304.9
 19 08 2013  12 57  -21.0962 26073.0 -03486.3 -07.6160 26305.1
 19 08 2013  12 58  -21.0960 26073.4 -03486.3 -07.6160 26305.5
 19 08 2013  12 59  -21.0958 26073.6 -03486.2 -07.6157 26305.7
 19 08 2013  13 00  -21.0952 26074.3 -03486.3 -07.6157 26306.3
 19 08 2013  13 01  -21.0948 26074.4 -03486.2 -07.6155 26306.4
 19 08 2013  13 02  -21.0947 26074.5 -03486.3 -07.6155 26306.5
 19 08 2013  13 03  -21.0953 26075.0 -03486.4 -07.6155 26307.0
 19 08 2013  13 04  -21.0951 26075.5 -03486.4 -07.6156 26307.5
 19 08 2013  13 05  -21.0951 26076.0 -03486.5 -07.6155 26308.0
 19 08 2013  13 06  -21.0951 26076.1 -03486.4 -07.6153 26308.1
 19 08 2013  13 07  -21.0953 26076.3 -03486.4 -07.6152 26308.3
 19 08 2013  13 08  -21.0957 26076.3 -03486.3 -07.6150 26308.4
 19 08 2013  13 09  -21.0962 26076.8 -03486.4 -07.6152 26308.8
 19 08 2013  13 10  -21.0967 26076.9 -03486.4 -07.6151 26308.9
 19 08 2013  13 11  -21.0976 26077.4 -03486.5 -07.6153 26309.4
 19 08 2013  13 12  -21.0984 26077.7 -03486.6 -07.6152 26309.7
 19 08 2013  13 13  -21.0991 26078.3 -03486.6 -07.6152 26310.3
 19 08 2013  13 14  -21.0999 26079.0 -03486.8 -07.6153 26311.0
 19 08 2013  13 15  -21.1005 26079.3 -03486.7 -07.6150 26311.3
 19 08 2013  13 16  -21.1013 26079.4 -03486.6 -07.6148 26311.5
 19 08 2013  13 17  -21.1020 26079.5 -03486.5 -07.6145 26311.5
 19 08 2013  13 18  -21.1027 26080.0 -03486.5 -07.6145 26312.0
 19 08 2013  13 19  -21.1035 26080.7 -03486.7 -07.6146 26312.8
 19 08 2013  13 20  -21.1046 26081.6 -03486.8 -07.6147 26313.6
 19 08 2013  13 21  -21.1056 26082.2 -03486.8 -07.6144 26314.3
 19 08 2013  13 22  -21.1066 26082.9 -03486.7 -07.6140 26314.9
 19 08 2013  13 23  -21.1073 26083.2 -03486.4 -07.6133 26315.2
 19 08 2013  13 24  -21.1078 26083.6 -03486.2 -07.6128 26315.5
 19 08 2013  13 25  -21.1083 26083.6 -03485.9 -07.6121 26315.5
 19 08 2013  13 26  -21.1090 26083.6 -03485.6 -07.6115 26315.5
 19 08 2013  13 27  -21.1099 26083.9 -03485.5 -07.6110 26315.7
 19 08 2013  13 28  -21.1109 26084.0 -03485.2 -07.6105 26315.8
 19 08 2013  13 29  -21.1118 26084.2 -03485.0 -07.6100 26315.9
 19 08 2013  13 30  -21.1128 26084.4 -03484.8 -07.6096 26316.2
 19 08 2013  13 31  -21.1137 26084.9 -03484.7 -07.6091 26316.6
 19 08 2013  13 32  -21.1147 26085.1 -03484.4 -07.6085 26316.8
 19 08 2013  13 33  -21.1156 26085.2 -03484.2 -07.6080 26316.9
 19 08 2013  13 34  -21.1161 26085.2 -03483.8 -07.6071 26316.9
 19 08 2013  13 35  -21.1168 26085.6 -03483.6 -07.6066 26317.2
 19 08 2013  13 36  -21.1174 26085.7 -03483.3 -07.6059 26317.2
 19 08 2013  13 37  -21.1182 26085.7 -03483.0 -07.6052 26317.2
 19 08 2013  13 38  -21.1187 26085.6 -03482.5 -07.6042 26317.0
 19 08 2013  13 39  -21.1188 26085.5 -03482.2 -07.6035 26316.9
 19 08 2013  13 40  -21.1186 26085.6 -03481.9 -07.6028 26316.9
 19 08 2013  13 41  -21.1192 26085.7 -03481.7 -07.6025 26317.1
 19 08 2013  13 42  -21.1195 26086.4 -03481.8 -07.6023 26317.7
 19 08 2013  13 43  -21.1202 26087.0 -03481.7 -07.6021 26318.3
 19 08 2013  13 44  -21.1207 26087.4 -03481.6 -07.6016 26318.7
 19 08 2013  13 45  -21.1207 26087.2 -03481.2 -07.6008 26318.5
 19 08 2013  13 46  -21.1206 26087.8 -03481.1 -07.6006 26319.0
 19 08 2013  13 47  -21.1209 26087.3 -03480.7 -07.5998 26318.5
 19 08 2013  13 48  -21.1209 26087.8 -03480.7 -07.5996 26319.0
 19 08 2013  13 49  -21.1216 26088.2 -03480.7 -07.5994 26319.4
 19 08 2013  13 50  -21.1223 26089.1 -03480.7 -07.5992 26320.3
 19 08 2013  13 51  -21.1229 26089.7 -03480.5 -07.5987 26320.8
 19 08 2013  13 52  -21.1231 26089.5 -03480.0 -07.5976 26320.5
 19 08 2013  13 53  -21.1235 26089.7 -03479.7 -07.5970 26320.7
 19 08 2013  13 54  -21.1230 26089.9 -03479.4 -07.5962 26320.9
 19 08 2013  13 55  -21.1228 26091.1 -03479.5 -07.5960 26322.1
 19 08 2013  13 56  -21.1228 26092.1 -03479.4 -07.5957 26323.1
 19 08 2013  13 57  -21.1230 26093.0 -03479.3 -07.5951 26323.9
 19 08 2013  13 58  -21.1239 26093.4 -03479.0 -07.5943 26324.3
 19 08 2013  13 59  -21.1245 26093.6 -03478.6 -07.5935 26324.5
 19 08 2013  14 00  -21.1252 26093.4 -03478.2 -07.5925 26324.2
 19 08 2013  14 01  -21.1256 26092.9 -03477.6 -07.5916 26323.6
 19 08 2013  14 02  -21.1253 26092.9 -03477.4 -07.5911 26323.5
 19 08 2013  14 03  -21.1260 26093.2 -03477.4 -07.5910 26323.9
 19 08 2013  14 04  -21.1264 26093.3 -03477.3 -07.5907 26324.0
 19 08 2013  14 05  -21.1273 26093.1 -03476.9 -07.5900 26323.8
 19 08 2013  14 06  -21.1286 26093.6 -03476.8 -07.5896 26324.2
 19 08 2013  14 07  -21.1294 26093.4 -03476.4 -07.5887 26323.9
 19 08 2013  14 08  -21.1296 26093.2 -03475.8 -07.5876 26323.7
 19 08 2013  14 09  -21.1299 26093.8 -03475.7 -07.5872 26324.3
 19 08 2013  14 10  -21.1296 26093.7 -03475.3 -07.5863 26324.2
 19 08 2013  14 11  -21.1295 26093.9 -03475.0 -07.5857 26324.2
 19 08 2013  14 12  -21.1299 26094.3 -03475.0 -07.5854 26324.6
 19 08 2013  14 13  -21.1307 26094.3 -03474.7 -07.5849 26324.7
 19 08 2013  14 14  -21.1313 26094.5 -03474.6 -07.5845 26324.8
 19 08 2013  14 15  -21.1317 26094.7 -03474.2 -07.5837 26324.9
 19 08 2013  14 16  -21.1324 26094.4 -03473.9 -07.5831 26324.7
 19 08 2013  14 17  -21.1322 26094.5 -03473.7 -07.5825 26324.7
 19 08 2013  14 18  -21.1323 26094.6 -03473.4 -07.5820 26324.8
 19 08 2013  14 19  -21.1326 26094.4 -03473.0 -07.5812 26324.5
 19 08 2013  14 20  -21.1329 26094.3 -03472.7 -07.5806 26324.4
 19 08 2013  14 21  -21.1333 26094.5 -03472.5 -07.5801 26324.6
 19 08 2013  14 22  -21.1333 26094.8 -03472.3 -07.5795 26324.8
 19 08 2013  14 23  -21.1334 26095.0 -03471.9 -07.5787 26324.9
 19 08 2013  14 24  -21.1332 26095.1 -03471.6 -07.5779 26325.0
 19 08 2013  14 25  -21.1333 26094.9 -03471.2 -07.5770 26324.7
 19 08 2013  14 26  -21.1334 26094.4 -03470.6 -07.5760 26324.2
 19 08 2013  14 27  -21.1335 26094.9 -03470.6 -07.5759 26324.7
 19 08 2013  14 28  -21.1335 26095.2 -03470.5 -07.5754 26325.0
 19 08 2013  14 29  -21.1333 26095.0 -03470.1 -07.5746 26324.7
 19 08 2013  14 30  -21.1329 26095.2 -03469.9 -07.5742 26324.9
 19 08 2013  14 31  -21.1324 26094.8 -03469.5 -07.5735 26324.4
 19 08 2013  14 32  -21.1318 26094.5 -03469.3 -07.5731 26324.1
 19 08 2013  14 33  -21.1309 26094.6 -03469.2 -07.5729 26324.2
 19 08 2013  14 34  -21.1301 26095.1 -03469.2 -07.5727 26324.6
 19 08 2013  14 35  -21.1296 26095.8 -03469.3 -07.5727 26325.4
 19 08 2013  14 36  -21.1290 26096.0 -03469.1 -07.5722 26325.6
 19 08 2013  14 37  -21.1280 26096.3 -03468.8 -07.5715 26325.8
 19 08 2013  14 38  -21.1269 26096.3 -03468.4 -07.5707 26325.7
 19 08 2013  14 39  -21.1262 26096.3 -03468.2 -07.5702 26325.8
 19 08 2013  14 40  -21.1257 26095.6 -03467.7 -07.5694 26325.0
 19 08 2013  14 41  -21.1249 26095.2 -03467.5 -07.5690 26324.6
 19 08 2013  14 42  -21.1248 26095.0 -03467.4 -07.5688 26324.4
 19 08 2013  14 43  -21.1247 26095.1 -03467.4 -07.5687 26324.5
 19 08 2013  14 44  -21.1247 26095.0 -03467.2 -07.5685 26324.3
 19 08 2013  14 45  -21.1243 26094.9 -03467.0 -07.5681 26324.2
 19 08 2013  14 46  -21.1239 26094.8 -03466.8 -07.5677 26324.1
 19 08 2013  14 47  -21.1236 26094.6 -03466.6 -07.5673 26323.8
 19 08 2013  14 48  -21.1230 26094.5 -03466.4 -07.5669 26323.7
 19 08 2013  14 49  -21.1224 26094.3 -03466.2 -07.5664 26323.5
 19 08 2013  14 50  -21.1223 26094.6 -03466.2 -07.5663 26323.8
 19 08 2013  14 51  -21.1219 26094.1 -03465.7 -07.5655 26323.2
 19 08 2013  14 52  -21.1211 26093.8 -03465.4 -07.5648 26322.9
 19 08 2013  14 53  -21.1204 26093.7 -03465.2 -07.5645 26322.8
 19 08 2013  14 54  -21.1202 26094.1 -03465.3 -07.5645 26323.2
 19 08 2013  14 55  -21.1199 26094.2 -03465.1 -07.5642 26323.2
 19 08 2013  14 56  -21.1198 26094.3 -03465.0 -07.5639 26323.4
 19 08 2013  14 57  -21.1195 26094.6 -03464.9 -07.5636 26323.6
 19 08 2013  14 58  -21.1192 26094.9 -03464.8 -07.5633 26323.9
 19 08 2013  14 59  -21.1194 26095.0 -03464.6 -07.5629 26324.0
 19 08 2013  15 00  -21.1193 26095.7 -03464.6 -07.5627 26324.7
 19 08 2013  15 01  -21.1186 26095.9 -03464.3 -07.5620 26324.8
 19 08 2013  15 02  -21.1178 26095.9 -03464.1 -07.5614 26324.9
 19 08 2013  15 03  -21.1170 26096.3 -03464.0 -07.5611 26325.2
 19 08 2013  15 04  -21.1167 26096.8 -03464.0 -07.5610 26325.7
 19 08 2013  15 05  -21.1168 26097.2 -03464.0 -07.5608 26326.1
 19 08 2013  15 06  -21.1165 26097.3 -03463.7 -07.5602 26326.1
 19 08 2013  15 07  -21.1159 26097.6 -03463.5 -07.5597 26326.4
 19 08 2013  15 08  -21.1154 26097.5 -03463.2 -07.5590 26326.3
 19 08 2013  15 09  -21.1149 26097.1 -03462.8 -07.5584 26325.9
 19 08 2013  15 10  -21.1144 26096.9 -03462.6 -07.5580 26325.6
 19 08 2013  15 11  -21.1141 26096.6 -03462.4 -07.5577 26325.3
 19 08 2013  15 12  -21.1142 26096.5 -03462.4 -07.5576 26325.2
 19 08 2013  15 13  -21.1144 26096.7 -03462.4 -07.5575 26325.4
 19 08 2013  15 14  -21.1149 26096.8 -03462.3 -07.5574 26325.5
 19 08 2013  15 15  -21.1155 26096.9 -03462.2 -07.5571 26325.5
 19 08 2013  15 16  -21.1158 26097.0 -03462.0 -07.5566 26325.6
 19 08 2013  15 17  -21.1163 26097.1 -03461.9 -07.5563 26325.7
 19 08 2013  15 18  -21.1167 26097.3 -03461.7 -07.5559 26325.9
 19 08 2013  15 19  -21.1171 26097.4 -03461.5 -07.5555 26326.0
 19 08 2013  15 20  -21.1174 26097.8 -03461.3 -07.5549 26326.3
 19 08 2013  15 21  -21.1176 26097.8 -03461.0 -07.5542 26326.3
 19 08 2013  15 22  -21.1174 26097.6 -03460.6 -07.5534 26326.1
 19 08 2013  15 23  -21.1173 26097.4 -03460.2 -07.5527 26325.8
 19 08 2013  15 24  -21.1173 26097.4 -03459.9 -07.5521 26325.7
 19 08 2013  15 25  -21.1171 26097.0 -03459.5 -07.5513 26325.3
 19 08 2013  15 26  -21.1170 26096.8 -03459.1 -07.5506 26325.1
 19 08 2013  15 27  -21.1166 26097.0 -03459.0 -07.5501 26325.2
 19 08 2013  15 28  -21.1162 26096.9 -03458.6 -07.5494 26325.1
 19 08 2013  15 29  -21.1154 26096.9 -03458.3 -07.5487 26325.1
 19 08 2013  15 30  -21.1143 26096.9 -03458.0 -07.5480 26325.0
 19 08 2013  15 31  -21.1135 26096.7 -03457.6 -07.5473 26324.7
 19 08 2013  15 32  -21.1126 26096.5 -03457.3 -07.5467 26324.6
 19 08 2013  15 33  -21.1121 26096.6 -03457.2 -07.5463 26324.6
 19 08 2013  15 34  -21.1113 26096.7 -03457.0 -07.5459 26324.6
 19 08 2013  15 35  -21.1107 26096.4 -03456.6 -07.5453 26324.3
 19 08 2013  15 36  -21.1099 26096.2 -03456.4 -07.5448 26324.1
 19 08 2013  15 37  -21.1089 26096.0 -03456.2 -07.5444 26323.9
 19 08 2013  15 38  -21.1077 26096.2 -03456.1 -07.5442 26324.1
 19 08 2013  15 39  -21.1065 26095.9 -03455.8 -07.5437 26323.8
 19 08 2013  15 40  -21.1054 26095.8 -03455.7 -07.5434 26323.6
 19 08 2013  15 41  -21.1047 26095.7 -03455.6 -07.5433 26323.5
 19 08 2013  15 42  -21.1041 26095.5 -03455.6 -07.5432 26323.3
 19 08 2013  15 43  -21.1039 26095.2 -03455.5 -07.5431 26323.0
 19 08 2013  15 44  -21.1035 26095.1 -03455.4 -07.5429 26322.8
 19 08 2013  15 45  -21.1029 26095.5 -03455.5 -07.5431 26323.3
 19 08 2013  15 46  -21.1016 26095.4 -03455.5 -07.5430 26323.2
 19 08 2013  15 47  -21.1005 26095.4 -03455.4 -07.5429 26323.2
 19 08 2013  15 48  -21.0999 26095.6 -03455.6 -07.5432 26323.4
 19 08 2013  15 49  -21.0996 26095.9 -03455.8 -07.5435 26323.8
 19 08 2013  15 50  -21.0994 26096.2 -03455.9 -07.5437 26324.1
 19 08 2013  15 51  -21.0989 26096.3 -03455.9 -07.5436 26324.1
 19 08 2013  15 52  -21.0974 26096.1 -03455.6 -07.5431 26323.9
 19 08 2013  15 53  -21.0957 26096.3 -03455.5 -07.5428 26324.1
 19 08 2013  15 54  -21.0942 26095.9 -03455.2 -07.5423 26323.7
 19 08 2013  15 55  -21.0928 26095.7 -03455.1 -07.5421 26323.5
 19 08 2013  15 56  -21.0919 26095.8 -03455.2 -07.5423 26323.5
 19 08 2013  15 57  -21.0909 26095.8 -03455.3 -07.5424 26323.5
 19 08 2013  15 58  -21.0898 26095.3 -03455.1 -07.5423 26323.0
 19 08 2013  15 59  -21.0886 26095.4 -03455.2 -07.5425 26323.1
 19 08 2013  16 00  -21.0881 26095.4 -03455.4 -07.5429 26323.2
 19 08 2013  16 01  -21.0879 26095.1 -03455.4 -07.5429 26322.9
 19 08 2013  16 02  -21.0873 26095.2 -03455.6 -07.5433 26323.0
 19 08 2013  16 03  -21.0871 26095.3 -03455.8 -07.5437 26323.1
 19 08 2013  16 04  -21.0868 26095.3 -03455.9 -07.5439 26323.1
 19 08 2013  16 05  -21.0863 26094.9 -03455.8 -07.5439 26322.7
 19 08 2013  16 06  -21.0857 26093.9 -03455.6 -07.5438 26321.7
 19 08 2013  16 07  -21.0852 26094.2 -03456.0 -07.5445 26322.0
 19 08 2013  16 08  -21.0858 26094.4 -03456.3 -07.5452 26322.3
 19 08 2013  16 09  -21.0860 26094.6 -03456.6 -07.5458 26322.5
 19 08 2013  16 10  -21.0862 26094.6 -03456.8 -07.5462 26322.6
 19 08 2013  16 11  -21.0863 26094.3 -03456.8 -07.5462 26322.3
 19 08 2013  16 12  -21.0863 26094.1 -03456.8 -07.5464 26322.0
 19 08 2013  16 13  -21.0864 26093.9 -03456.9 -07.5466 26321.9
 19 08 2013  16 14  -21.0867 26093.4 -03456.9 -07.5466 26321.4
 19 08 2013  16 15  -21.0865 26093.0 -03456.8 -07.5465 26320.9
 19 08 2013  16 16  -21.0865 26092.4 -03456.7 -07.5465 26320.4
 19 08 2013  16 17  -21.0866 26091.9 -03456.6 -07.5465 26319.8
 19 08 2013  16 18  -21.0867 26091.4 -03456.6 -07.5466 26319.4
 19 08 2013  16 19  -21.0870 26091.1 -03456.6 -07.5467 26319.0
 19 08 2013  16 20  -21.0873 26090.6 -03456.6 -07.5468 26318.6
 19 08 2013  16 21  -21.0876 26090.6 -03456.7 -07.5470 26318.6
 19 08 2013  16 22  -21.0875 26090.3 -03456.6 -07.5469 26318.2
 19 08 2013  16 23  -21.0871 26089.4 -03456.3 -07.5464 26317.3
 19 08 2013  16 24  -21.0868 26088.6 -03456.1 -07.5463 26316.5
 19 08 2013  16 25  -21.0865 26087.7 -03455.9 -07.5461 26315.6
 19 08 2013  16 26  -21.0860 26087.0 -03455.8 -07.5461 26314.9
 19 08 2013  16 27  -21.0853 26086.3 -03455.7 -07.5462 26314.2
 19 08 2013  16 28  -21.0849 26085.5 -03455.6 -07.5462 26313.4
 19 08 2013  16 29  -21.0844 26084.7 -03455.6 -07.5463 26312.6
 19 08 2013  16 30  -21.0840 26084.1 -03455.6 -07.5465 26312.0
 19 08 2013  16 31  -21.0836 26083.6 -03455.7 -07.5468 26311.5
 19 08 2013  16 32  -21.0831 26083.2 -03455.8 -07.5471 26311.1
 19 08 2013  16 33  -21.0829 26082.8 -03455.9 -07.5475 26310.7
 19 08 2013  16 34  -21.0829 26082.6 -03455.9 -07.5477 26310.5
 19 08 2013  16 35  -21.0829 26082.5 -03456.1 -07.5481 26310.5
 19 08 2013  16 36  -21.0826 26082.5 -03456.2 -07.5484 26310.5
 19 08 2013  16 37  -21.0823 26082.4 -03456.3 -07.5486 26310.4
 19 08 2013  16 38  -21.0820 26082.0 -03456.3 -07.5486 26310.0
 19 08 2013  16 39  -21.0815 26081.9 -03456.4 -07.5488 26309.9
 19 08 2013  16 40  -21.0814 26081.9 -03456.5 -07.5492 26309.9
 19 08 2013  16 41  -21.0811 26081.4 -03456.4 -07.5491 26309.4
 19 08 2013  16 42  -21.0807 26081.4 -03456.5 -07.5493 26309.4
 19 08 2013  16 43  -21.0805 26081.1 -03456.5 -07.5493 26309.1
 19 08 2013  16 44  -21.0795 26080.3 -03456.2 -07.5490 26308.3
 19 08 2013  16 45  -21.0789 26080.1 -03456.3 -07.5492 26308.1
 19 08 2013  16 46  -21.0789 26080.2 -03456.4 -07.5494 26308.2
 19 08 2013  16 47  -21.0784 26080.0 -03456.4 -07.5494 26308.0
 19 08 2013  16 48  -21.0770 26079.8 -03456.3 -07.5494 26307.9
 19 08 2013  16 49  -21.0761 26079.4 -03456.3 -07.5494 26307.5
 19 08 2013  16 50  -21.0752 26079.3 -03456.4 -07.5496 26307.3
 19 08 2013  16 51  -21.0742 26079.2 -03456.5 -07.5498 26307.3
 19 08 2013  16 52  -21.0733 26078.9 -03456.5 -07.5499 26306.9
 19 08 2013  16 53  -21.0720 26078.3 -03456.4 -07.5499 26306.3
 19 08 2013  16 54  -21.0709 26077.7 -03456.4 -07.5500 26305.8
 19 08 2013  16 55  -21.0704 26077.6 -03456.6 -07.5505 26305.7
 19 08 2013  16 56  -21.0697 26077.4 -03456.8 -07.5510 26305.5
 19 08 2013  16 57  -21.0690 26077.5 -03457.1 -07.5515 26305.7
 19 08 2013  16 58  -21.0685 26077.4 -03457.2 -07.5520 26305.5
 19 08 2013  16 59  -21.0675 26076.9 -03457.3 -07.5522 26305.1
 19 08 2013  17 00  -21.0667 26076.4 -03457.3 -07.5524 26304.6
 19 08 2013  17 01  -21.0660 26075.9 -03457.5 -07.5529 26304.1
 19 08 2013  17 02  -21.0655 26075.2 -03457.6 -07.5533 26303.5
 19 08 2013  17 03  -21.0646 26074.4 -03457.5 -07.5535 26302.7
 19 08 2013  17 04  -21.0633 26074.3 -03457.8 -07.5542 26302.6
 19 08 2013  17 05  -21.0632 26073.6 -03457.9 -07.5545 26301.9
 19 08 2013  17 06  -21.0623 26072.9 -03457.9 -07.5547 26301.2
 19 08 2013  17 07  -21.0619 26072.6 -03458.2 -07.5554 26300.9
 19 08 2013  17 08  -21.0620 26072.3 -03458.4 -07.5560 26300.7
 19 08 2013  17 09  -21.0619 26071.8 -03458.5 -07.5563 26300.2
 19 08 2013  17 10  -21.0621 26071.5 -03458.6 -07.5566 26299.9
 19 08 2013  17 11  -21.0617 26070.9 -03458.7 -07.5569 26299.3
 19 08 2013  17 12  -21.0607 26069.9 -03458.6 -07.5571 26298.4
 19 08 2013  17 13  -21.0591 26069.1 -03458.7 -07.5575 26297.5
 19 08 2013  17 14  -21.0577 26068.4 -03459.0 -07.5583 26296.8
 19 08 2013  17 15  -21.0569 26067.9 -03459.4 -07.5593 26296.4
 19 08 2013  17 16  -21.0566 26068.1 -03460.1 -07.5608 26296.8
 19 08 2013  17 17  -21.0570 26068.6 -03460.8 -07.5622 26297.3
 19 08 2013  17 18  -21.0573 26068.8 -03461.2 -07.5630 26297.5
 19 08 2013  17 19  -21.0575 26068.5 -03461.3 -07.5634 26297.3
 19 08 2013  17 20  -21.0569 26068.1 -03461.3 -07.5635 26296.9
 19 08 2013  17 21  -21.0562 26067.4 -03461.3 -07.5636 26296.2
 19 08 2013  17 22  -21.0547 26066.4 -03461.2 -07.5636 26295.2
 19 08 2013  17 23  -21.0535 26065.6 -03461.3 -07.5641 26294.4
 19 08 2013  17 24  -21.0529 26065.3 -03461.7 -07.5651 26294.2
 19 08 2013  17 25  -21.0525 26065.1 -03462.1 -07.5661 26294.0
 19 08 2013  17 26  -21.0519 26064.8 -03462.5 -07.5669 26293.7
 19 08 2013  17 27  -21.0514 26064.4 -03462.7 -07.5676 26293.4
 19 08 2013  17 28  -21.0510 26064.1 -03463.1 -07.5685 26293.2
 19 08 2013  17 29  -21.0509 26064.0 -03463.5 -07.5694 26293.1
 19 08 2013  17 30  -21.0510 26063.8 -03463.9 -07.5703 26293.0
 19 08 2013  17 31  -21.0513 26063.9 -03464.3 -07.5712 26293.1
 19 08 2013  17 32  -21.0516 26063.7 -03464.6 -07.5719 26293.0
 19 08 2013  17 33  -21.0518 26063.6 -03464.9 -07.5725 26292.9
 19 08 2013  17 34  -21.0520 26063.4 -03465.2 -07.5731 26292.8
 19 08 2013  17 35  -21.0520 26063.2 -03465.3 -07.5735 26292.5
 19 08 2013  17 36  -21.0523 26063.5 -03465.7 -07.5743 26292.9
 19 08 2013  17 37  -21.0530 26063.9 -03466.2 -07.5751 26293.3
 19 08 2013  17 38  -21.0533 26063.7 -03466.3 -07.5755 26293.2
 19 08 2013  17 39  -21.0537 26063.7 -03466.5 -07.5759 26293.2
 19 08 2013  17 40  -21.0541 26063.6 -03466.6 -07.5762 26293.1
 19 08 2013  17 41  -21.0542 26063.3 -03466.7 -07.5764 26292.8
 19 08 2013  17 42  -21.0541 26062.7 -03466.7 -07.5766 26292.3
 19 08 2013  17 43  -21.0540 26062.2 -03466.7 -07.5769 26291.8
 19 08 2013  17 44  -21.0539 26061.7 -03466.9 -07.5773 26291.3
 19 08 2013  17 45  -21.0538 26061.4 -03467.1 -07.5779 26291.0
 19 08 2013  17 46  -21.0541 26061.2 -03467.4 -07.5786 26290.8
 19 08 2013  17 47  -21.0541 26060.7 -03467.5 -07.5790 26290.4
 19 08 2013  17 48  -21.0540 26060.1 -03467.6 -07.5794 26289.8
 19 08 2013  17 49  -21.0539 26059.5 -03467.8 -07.5798 26289.2
 19 08 2013  17 50  -21.0540 26059.1 -03468.0 -07.5804 26288.8
 19 08 2013  17 51  -21.0540 26058.6 -03468.2 -07.5810 26288.4
 19 08 2013  17 52  -21.0540 26058.1 -03468.3 -07.5814 26287.9
 19 08 2013  17 53  -21.0539 26057.7 -03468.5 -07.5819 26287.5
 19 08 2013  17 54  -21.0540 26057.4 -03468.7 -07.5825 26287.3
 19 08 2013  17 55  -21.0542 26057.2 -03469.0 -07.5831 26287.1
 19 08 2013  17 56  -21.0543 26056.8 -03469.1 -07.5836 26286.7
 19 08 2013  17 57  -21.0541 26056.4 -03469.2 -07.5840 26286.3
 19 08 2013  17 58  -21.0542 26055.9 -03469.3 -07.5843 26285.9
 19 08 2013  17 59  -21.0542 26055.5 -03469.5 -07.5847 26285.4
 19 08 2013  18 00  -21.0544 26055.2 -03469.7 -07.5852 26285.2
 19 08 2013  18 01  -21.0548 26055.1 -03469.9 -07.5857 26285.1
 19 08 2013  18 02  -21.0554 26054.9 -03470.1 -07.5861 26285.0
 19 08 2013  18 03  -21.0555 26054.5 -03470.1 -07.5863 26284.6
 19 08 2013  18 04  -21.0553 26054.1 -03470.0 -07.5864 26284.1
 19 08 2013  18 05  -21.0554 26053.6 -03470.1 -07.5866 26283.7
 19 08 2013  18 06  -21.0554 26053.3 -03470.2 -07.5869 26283.4
 19 08 2013  18 07  -21.0554 26052.9 -03470.2 -07.5870 26283.0
 19 08 2013  18 08  -21.0554 26052.7 -03470.4 -07.5875 26282.8
 19 08 2013  18 09  -21.0555 26052.7 -03470.6 -07.5880 26282.9
 19 08 2013  18 10  -21.0556 26052.6 -03470.8 -07.5884 26282.8
 19 08 2013  18 11  -21.0555 26052.3 -03470.8 -07.5885 26282.5
 19 08 2013  18 12  -21.0556 26052.1 -03470.9 -07.5888 26282.2
 19 08 2013  18 13  -21.0553 26051.7 -03470.9 -07.5889 26281.9
 19 08 2013  18 14  -21.0550 26051.4 -03471.0 -07.5892 26281.6
 19 08 2013  18 15  -21.0549 26051.1 -03471.1 -07.5895 26281.4
 19 08 2013  18 16  -21.0548 26050.9 -03471.2 -07.5898 26281.2
 19 08 2013  18 17  -21.0544 26050.6 -03471.3 -07.5900 26280.9
 19 08 2013  18 18  -21.0542 26050.3 -03471.3 -07.5902 26280.5
 19 08 2013  18 19  -21.0539 26050.0 -03471.4 -07.5905 26280.3
 19 08 2013  18 20  -21.0536 26049.8 -03471.6 -07.5909 26280.1
 19 08 2013  18 21  -21.0535 26049.7 -03471.7 -07.5912 26280.0
 19 08 2013  18 22  -21.0532 26049.3 -03471.7 -07.5913 26279.7
 19 08 2013  18 23  -21.0529 26049.0 -03471.8 -07.5916 26279.4
 19 08 2013  18 24  -21.0526 26048.8 -03471.9 -07.5919 26279.2
 19 08 2013  18 25  -21.0525 26048.7 -03472.0 -07.5922 26279.1
 19 08 2013  18 26  -21.0524 26048.6 -03472.2 -07.5925 26279.0
 19 08 2013  18 27  -21.0524 26048.3 -03472.2 -07.5926 26278.7
 19 08 2013  18 28  -21.0523 26047.8 -03472.1 -07.5926 26278.2
 19 08 2013  18 29  -21.0520 26047.5 -03472.1 -07.5927 26277.9
 19 08 2013  18 30  -21.0520 26047.4 -03472.2 -07.5930 26277.8
 19 08 2013  18 31  -21.0521 26047.3 -03472.3 -07.5932 26277.7
 19 08 2013  18 32  -21.0519 26047.0 -03472.3 -07.5933 26277.4
 19 08 2013  18 33  -21.0518 26046.6 -03472.3 -07.5933 26277.0
 19 08 2013  18 34  -21.0516 26046.1 -03472.1 -07.5932 26276.5
 19 08 2013  18 35  -21.0513 26045.6 -03472.1 -07.5932 26276.0
 19 08 2013  18 36  -21.0510 26045.2 -03472.1 -07.5933 26275.6
 19 08 2013  18 37  -21.0510 26045.1 -03472.2 -07.5936 26275.5
 19 08 2013  18 38  -21.0511 26045.0 -03472.4 -07.5939 26275.5
 19 08 2013  18 39  -21.0512 26044.9 -03472.4 -07.5941 26275.3
 19 08 2013  18 40  -21.0514 26044.7 -03472.4 -07.5942 26275.1
 19 08 2013  18 41  -21.0514 26044.5 -03472.5 -07.5943 26275.0
 19 08 2013  18 42  -21.0508 26044.3 -03472.5 -07.5944 26274.7
 19 08 2013  18 43  -21.0508 26044.1 -03472.6 -07.5947 26274.6
 19 08 2013  18 44  -21.0508 26044.0 -03472.6 -07.5948 26274.5
 19 08 2013  18 45  -21.0507 26043.6 -03472.6 -07.5949 26274.1
 19 08 2013  18 46  -21.0504 26043.3 -03472.5 -07.5948 26273.8
 19 08 2013  18 47  -21.0503 26043.1 -03472.5 -07.5949 26273.6
 19 08 2013  18 48  -21.0502 26042.9 -03472.6 -07.5951 26273.4
 19 08 2013  18 49  -21.0499 26042.6 -03472.6 -07.5952 26273.1
 19 08 2013  18 50  -21.0497 26042.3 -03472.6 -07.5953 26272.8
 19 08 2013  18 51  -21.0496 26042.1 -03472.7 -07.5955 26272.7
 19 08 2013  18 52  -21.0494 26041.9 -03472.7 -07.5955 26272.4
 19 08 2013  18 53  -21.0493 26041.8 -03472.8 -07.5958 26272.3
 19 08 2013  18 54  -21.0493 26041.7 -03472.9 -07.5960 26272.2
 19 08 2013  18 55  -21.0494 26041.6 -03472.9 -07.5962 26272.2
 19 08 2013  18 56  -21.0495 26041.4 -03472.9 -07.5963 26272.0
 19 08 2013  18 57  -21.0495 26041.3 -03472.9 -07.5963 26271.8
 19 08 2013  18 58  -21.0495 26041.1 -03473.0 -07.5964 26271.7
 19 08 2013  18 59  -21.0495 26040.9 -03472.9 -07.5964 26271.5
 19 08 2013  19 00  -21.0495 26040.6 -03472.9 -07.5963 26271.2
 19 08 2013  19 01  -21.0495 26040.3 -03472.8 -07.5963 26270.9
 19 08 2013  19 02  -21.0494 26039.9 -03472.7 -07.5963 26270.5
 19 08 2013  19 03  -21.0494 26039.6 -03472.7 -07.5963 26270.2
 19 08 2013  19 04  -21.0494 26039.4 -03472.7 -07.5963 26270.0
 19 08 2013  19 05  -21.0493 26039.2 -03472.7 -07.5964 26269.7
 19 08 2013  19 06  -21.0494 26039.1 -03472.7 -07.5965 26269.6
 19 08 2013  19 07  -21.0494 26038.9 -03472.8 -07.5967 26269.5
 19 08 2013  19 08  -21.0495 26038.9 -03472.9 -07.5968 26269.4
 19 08 2013  19 09  -21.0495 26038.7 -03472.8 -07.5968 26269.3
 19 08 2013  19 10  -21.0496 26038.5 -03472.9 -07.5969 26269.1
 19 08 2013  19 11  -21.0496 26038.4 -03472.9 -07.5970 26269.0
 19 08 2013  19 12  -21.0496 26038.2 -03472.8 -07.5969 26268.8
 19 08 2013  19 13  -21.0496 26038.0 -03472.7 -07.5968 26268.5
 19 08 2013  19 14  -21.0495 26037.7 -03472.7 -07.5967 26268.3
 19 08 2013  19 15  -21.0496 26037.5 -03472.6 -07.5967 26268.0
 19 08 2013  19 16  -21.0494 26037.2 -03472.6 -07.5967 26267.8
 19 08 2013  19 17  -21.0494 26037.0 -03472.6 -07.5968 26267.6
 19 08 2013  19 18  -21.0493 26036.9 -03472.7 -07.5970 26267.5
 19 08 2013  19 19  -21.0492 26036.8 -03472.7 -07.5971 26267.4
 19 08 2013  19 20  -21.0491 26036.7 -03472.7 -07.5972 26267.2
 19 08 2013  19 21  -21.0491 26036.6 -03472.8 -07.5973 26267.1
 19 08 2013  19 22  -21.0491 26036.4 -03472.8 -07.5974 26267.0
 19 08 2013  19 23  -21.0489 26036.3 -03472.8 -07.5975 26266.9
 19 08 2013  19 24  -21.0488 26036.1 -03472.8 -07.5975 26266.7
 19 08 2013  19 25  -21.0488 26036.0 -03472.9 -07.5976 26266.6
 19 08 2013  19 26  -21.0487 26035.9 -03472.8 -07.5976 26266.4
 19 08 2013  19 27  -21.0486 26035.7 -03472.9 -07.5977 26266.3
 19 08 2013  19 28  -21.0485 26035.6 -03472.9 -07.5979 26266.2
 19 08 2013  19 29  -21.0487 26035.6 -03473.0 -07.5980 26266.2
 19 08 2013  19 30  -21.0487 26035.6 -03473.0 -07.5981 26266.2
 19 08 2013  19 31  -21.0487 26035.4 -03473.0 -07.5981 26266.0
 19 08 2013  19 32  -21.0487 26035.2 -03473.0 -07.5981 26265.8
 19 08 2013  19 33  -21.0488 26035.0 -03472.9 -07.5981 26265.6
 19 08 2013  19 34  -21.0488 26034.8 -03472.9 -07.5981 26265.4
 19 08 2013  19 35  -21.0489 26034.6 -03472.9 -07.5982 26265.2
 19 08 2013  19 36  -21.0490 26034.4 -03472.9 -07.5982 26265.1
 19 08 2013  19 37  -21.0492 26034.2 -03472.9 -07.5982 26264.8
 19 08 2013  19 38  -21.0490 26033.9 -03472.8 -07.5982 26264.6
 19 08 2013  19 39  -21.0489 26033.8 -03472.9 -07.5984 26264.5
 19 08 2013  19 40  -21.0490 26033.9 -03473.1 -07.5987 26264.6
 19 08 2013  19 41  -21.0490 26033.8 -03473.1 -07.5987 26264.5
 19 08 2013  19 42  -21.0489 26033.5 -03473.1 -07.5988 26264.2
 19 08 2013  19 43  -21.0488 26033.4 -03473.1 -07.5990 26264.0
 19 08 2013  19 44  -21.0488 26033.2 -03473.2 -07.5991 26263.8
 19 08 2013  19 45  -21.0486 26033.0 -03473.2 -07.5992 26263.7
 19 08 2013  19 46  -21.0486 26032.8 -03473.3 -07.5994 26263.5
 19 08 2013  19 47  -21.0486 26032.6 -03473.3 -07.5995 26263.3
 19 08 2013  19 48  -21.0485 26032.4 -03473.3 -07.5997 26263.1
 19 08 2013  19 49  -21.0484 26032.3 -03473.4 -07.5999 26263.0
 19 08 2013  19 50  -21.0485 26032.2 -03473.5 -07.6001 26262.9
 19 08 2013  19 51  -21.0484 26032.1 -03473.6 -07.6003 26262.8
 19 08 2013  19 52  -21.0483 26032.0 -03473.6 -07.6005 26262.7
 19 08 2013  19 53  -21.0483 26031.8 -03473.7 -07.6006 26262.5
 19 08 2013  19 54  -21.0481 26031.5 -03473.6 -07.6006 26262.3
 19 08 2013  19 55  -21.0480 26031.4 -03473.7 -07.6007 26262.1
 19 08 2013  19 56  -21.0478 26031.2 -03473.7 -07.6008 26261.9
 19 08 2013  19 57  -21.0477 26030.9 -03473.7 -07.6009 26261.7
 19 08 2013  19 58  -21.0475 26030.6 -03473.6 -07.6009 26261.4
 19 08 2013  19 59  -21.0472 26030.3 -03473.6 -07.6009 26261.0
 19 08 2013  20 00  -21.0469 26030.0 -03473.6 -07.6010 26260.7
 19 08 2013  20 01  -21.0468 26029.9 -03473.7 -07.6012 26260.7
 19 08 2013  20 02  -21.0467 26029.7 -03473.8 -07.6014 26260.5
 19 08 2013  20 03  -21.0465 26029.5 -03473.8 -07.6015 26260.3
 19 08 2013  20 04  -21.0463 26029.3 -03473.8 -07.6016 26260.1
 19 08 2013  20 05  -21.0461 26029.0 -03473.7 -07.6015 26259.7
 19 08 2013  20 06  -21.0461 26028.6 -03473.6 -07.6015 26259.3
 19 08 2013  20 07  -21.0459 26028.2 -03473.6 -07.6015 26259.0
 19 08 2013  20 08  -21.0461 26028.3 -03473.7 -07.6017 26259.0
 19 08 2013  20 09  -21.0460 26028.2 -03473.7 -07.6018 26259.0
 19 08 2013  20 10  -21.0459 26028.2 -03473.8 -07.6019 26259.0
 19 08 2013  20 11  -21.0458 26028.0 -03473.7 -07.6019 26258.8
 19 08 2013  20 12  -21.0456 26028.0 -03473.8 -07.6019 26258.7
 19 08 2013  20 13  -21.0455 26028.0 -03473.8 -07.6019 26258.7
 19 08 2013  20 14  -21.0453 26027.8 -03473.7 -07.6019 26258.6
 19 08 2013  20 15  -21.0451 26027.7 -03473.7 -07.6019 26258.5
 19 08 2013  20 16  -21.0449 26027.7 -03473.7 -07.6018 26258.4
 19 08 2013  20 17  -21.0447 26027.7 -03473.7 -07.6018 26258.5
 19 08 2013  20 18  -21.0446 26027.6 -03473.7 -07.6018 26258.4
 19 08 2013  20 19  -21.0444 26027.5 -03473.6 -07.6017 26258.3
 19 08 2013  20 20  -21.0443 26027.4 -03473.5 -07.6016 26258.1
 19 08 2013  20 21  -21.0441 26027.2 -03473.4 -07.6014 26257.9
 19 08 2013  20 22  -21.0438 26027.0 -03473.4 -07.6014 26257.8
 19 08 2013  20 23  -21.0437 26026.9 -03473.4 -07.6014 26257.6
 19 08 2013  20 24  -21.0435 26026.9 -03473.4 -07.6014 26257.6
 19 08 2013  20 25  -21.0435 26026.8 -03473.4 -07.6014 26257.5
 19 08 2013  20 26  -21.0434 26026.8 -03473.4 -07.6015 26257.5
 19 08 2013  20 27  -21.0431 26026.8 -03473.4 -07.6015 26257.5
 19 08 2013  20 28  -21.0429 26026.7 -03473.4 -07.6015 26257.5
 19 08 2013  20 29  -21.0427 26026.7 -03473.4 -07.6015 26257.4
 19 08 2013  20 30  -21.0426 26026.6 -03473.4 -07.6015 26257.4
 19 08 2013  20 31  -21.0426 26026.6 -03473.4 -07.6015 26257.3
 19 08 2013  20 32  -21.0425 26026.4 -03473.3 -07.6014 26257.1
 19 08 2013  20 33  -21.0425 26026.4 -03473.3 -07.6014 26257.1
 19 08 2013  20 34  -21.0424 26026.4 -03473.3 -07.6014 26257.1
 19 08 2013  20 35  -21.0421 26026.3 -03473.3 -07.6014 26257.1
 19 08 2013  20 36  -21.0418 26026.2 -03473.2 -07.6013 26257.0
 19 08 2013  20 37  -21.0414 26026.1 -03473.1 -07.6011 26256.8
 19 08 2013  20 38  -21.0410 26025.9 -03473.0 -07.6010 26256.6
 19 08 2013  20 39  -21.0407 26025.6 -03472.9 -07.6008 26256.3
 19 08 2013  20 40  -21.0403 26025.4 -03472.9 -07.6007 26256.1
 19 08 2013  20 41  -21.0399 26025.3 -03472.9 -07.6007 26256.0
 19 08 2013  20 42  -21.0394 26025.2 -03472.9 -07.6008 26255.8
 19 08 2013  20 43  -21.0389 26025.0 -03472.9 -07.6008 26255.7
 19 08 2013  20 44  -21.0386 26025.0 -03473.0 -07.6010 26255.8
 19 08 2013  20 45  -21.0383 26024.8 -03472.9 -07.6011 26255.5
 19 08 2013  20 46  -21.0381 26024.7 -03472.9 -07.6011 26255.4
 19 08 2013  20 47  -21.0377 26024.6 -03472.9 -07.6011 26255.3
 19 08 2013  20 48  -21.0371 26024.6 -03473.0 -07.6012 26255.3
 19 08 2013  20 49  -21.0367 26024.5 -03473.0 -07.6013 26255.2
 19 08 2013  20 50  -21.0363 26024.4 -03472.9 -07.6011 26255.1
 19 08 2013  20 51  -21.0358 26024.6 -03473.2 -07.6017 26255.3
 19 08 2013  20 52  -21.0353 26024.5 -03473.3 -07.6020 26255.3
 19 08 2013  20 53  -21.0351 26024.8 -03473.5 -07.6024 26255.6
 19 08 2013  20 54  -21.0348 26024.9 -03473.7 -07.6026 26255.7
 19 08 2013  20 55  -21.0345 26025.0 -03473.8 -07.6028 26255.9
 19 08 2013  20 56  -21.0341 26025.2 -03473.9 -07.6030 26256.0
 19 08 2013  20 57  -21.0338 26025.3 -03474.0 -07.6032 26256.2
 19 08 2013  20 58  -21.0334 26025.4 -03474.1 -07.6033 26256.2
 19 08 2013  20 59  -21.0331 26025.6 -03474.2 -07.6035 26256.4
 19 08 2013  21 00  -21.0329 26025.6 -03474.2 -07.6036 26256.5
 19 08 2013  21 01  -21.0326 26025.9 -03474.4 -07.6039 26256.8
 19 08 2013  21 02  -21.0325 26026.3 -03474.7 -07.6044 26257.3
 19 08 2013  21 03  -21.0325 26026.5 -03474.8 -07.6045 26257.5
 19 08 2013  21 04  -21.0323 26026.5 -03474.8 -07.6045 26257.4
 19 08 2013  21 05  -21.0320 26026.2 -03474.7 -07.6044 26257.1
 19 08 2013  21 06  -21.0318 26026.1 -03474.6 -07.6043 26257.1
 19 08 2013  21 07  -21.0314 26026.0 -03474.6 -07.6044 26256.9
 19 08 2013  21 08  -21.0311 26025.9 -03474.6 -07.6043 26256.8
 19 08 2013  21 09  -21.0306 26025.8 -03474.6 -07.6043 26256.7
 19 08 2013  21 10  -21.0302 26025.6 -03474.6 -07.6043 26256.5
 19 08 2013  21 11  -21.0299 26025.5 -03474.6 -07.6044 26256.4
 19 08 2013  21 12  -21.0294 26025.5 -03474.5 -07.6043 26256.4
 19 08 2013  21 13  -21.0291 26025.4 -03474.7 -07.6046 26256.3
 19 08 2013  21 14  -21.0289 26025.3 -03474.7 -07.6047 26256.3
 19 08 2013  21 15  -21.0286 26025.3 -03474.7 -07.6047 26256.2
 19 08 2013  21 16  -21.0283 26025.2 -03474.7 -07.6048 26256.1
 19 08 2013  21 17  -21.0280 26025.1 -03474.7 -07.6049 26256.1
 19 08 2013  21 18  -21.0277 26025.2 -03474.9 -07.6051 26256.2
 19 08 2013  21 19  -21.0275 26025.3 -03475.0 -07.6053 26256.3
 19 08 2013  21 20  -21.0270 26025.6 -03475.1 -07.6054 26256.6
 19 08 2013  21 21  -21.0266 26025.9 -03475.4 -07.6060 26257.0
 19 08 2013  21 22  -21.0259 26026.3 -03475.6 -07.6063 26257.3
 19 08 2013  21 23  -21.0250 26026.3 -03475.7 -07.6065 26257.4
 19 08 2013  21 24  -21.0244 26026.5 -03475.8 -07.6068 26257.6
 19 08 2013  21 25  -21.0240 26026.9 -03476.0 -07.6071 26258.0
 19 08 2013  21 26  -21.0237 26027.2 -03476.3 -07.6075 26258.3
 19 08 2013  21 27  -21.0234 26027.4 -03476.4 -07.6077 26258.6
 19 08 2013  21 28  -21.0233 26027.4 -03476.4 -07.6077 26258.5
 19 08 2013  21 29  -21.0233 26027.1 -03476.3 -07.6076 26258.2
 19 08 2013  21 30  -21.0232 26026.5 -03476.0 -07.6072 26257.6
 19 08 2013  21 31  -21.0232 26026.2 -03475.9 -07.6070 26257.3
 19 08 2013  21 32  -21.0228 26026.1 -03475.9 -07.6071 26257.2
 19 08 2013  21 33  -21.0222 26026.3 -03476.0 -07.6073 26257.4
 19 08 2013  21 34  -21.0218 26026.6 -03476.2 -07.6076 26257.7
 19 08 2013  21 35  -21.0215 26027.1 -03476.6 -07.6082 26258.2
 19 08 2013  21 36  -21.0212 26027.6 -03476.9 -07.6088 26258.8
 19 08 2013  21 37  -21.0211 26027.8 -03477.0 -07.6090 26259.0
 19 08 2013  21 38  -21.0212 26027.9 -03477.1 -07.6092 26259.1
 19 08 2013  21 39  -21.0216 26028.1 -03477.2 -07.6094 26259.3
 19 08 2013  21 40  -21.0217 26028.2 -03477.3 -07.6095 26259.4
 19 08 2013  21 41  -21.0219 26028.1 -03477.2 -07.6094 26259.4
 19 08 2013  21 42  -21.0221 26028.1 -03477.2 -07.6094 26259.3
 19 08 2013  21 43  -21.0224 26028.0 -03477.2 -07.6094 26259.3
 19 08 2013  21 44  -21.0224 26028.1 -03477.2 -07.6093 26259.3
 19 08 2013  21 45  -21.0224 26028.1 -03477.2 -07.6093 26259.3
 19 08 2013  21 46  -21.0225 26028.1 -03477.2 -07.6093 26259.4
 19 08 2013  21 47  -21.0225 26028.2 -03477.3 -07.6094 26259.5
 19 08 2013  21 48  -21.0225 26028.4 -03477.4 -07.6096 26259.7
 19 08 2013  21 49  -21.0225 26028.6 -03477.4 -07.6097 26259.9
 19 08 2013  21 50  -21.0224 26028.7 -03477.5 -07.6097 26260.0
 19 08 2013  21 51  -21.0224 26028.7 -03477.5 -07.6097 26259.9
 19 08 2013  21 52  -21.0225 26028.7 -03477.4 -07.6096 26259.9
 19 08 2013  21 53  -21.0227 26028.7 -03477.4 -07.6096 26260.0
 19 08 2013  21 54  -21.0228 26028.8 -03477.5 -07.6097 26260.1
 19 08 2013  21 55  -21.0230 26028.8 -03477.5 -07.6097 26260.1
 19 08 2013  21 56  -21.0233 26028.9 -03477.6 -07.6099 26260.2
 19 08 2013  21 57  -21.0235 26029.0 -03477.6 -07.6099 26260.3
 19 08 2013  21 58  -21.0237 26029.2 -03477.6 -07.6099 26260.5
 19 08 2013  21 59  -21.0239 26029.2 -03477.7 -07.6100 26260.5
 19 08 2013  22 00  -21.0240 26029.2 -03477.6 -07.6099 26260.5
 19 08 2013  22 01  -21.0242 26029.2 -03477.6 -07.6098 26260.4
 19 08 2013  22 02  -21.0245 26029.2 -03477.6 -07.6098 26260.4
 19 08 2013  22 03  -21.0245 26029.0 -03477.4 -07.6096 26260.3
 19 08 2013  22 04  -21.0246 26029.0 -03477.4 -07.6095 26260.3
 19 08 2013  22 05  -21.0246 26029.0 -03477.4 -07.6094 26260.3
 19 08 2013  22 06  -21.0244 26029.1 -03477.3 -07.6093 26260.3
 19 08 2013  22 07  -21.0243 26029.1 -03477.3 -07.6093 26260.4
 19 08 2013  22 08  -21.0243 26029.2 -03477.4 -07.6094 26260.4
 19 08 2013  22 09  -21.0241 26029.2 -03477.3 -07.6093 26260.5
 19 08 2013  22 10  -21.0238 26029.2 -03477.3 -07.6091 26260.4
 19 08 2013  22 11  -21.0236 26029.2 -03477.2 -07.6091 26260.4
 19 08 2013  22 12  -21.0236 26029.2 -03477.3 -07.6091 26260.4
 19 08 2013  22 13  -21.0236 26029.1 -03477.2 -07.6091 26260.4
 19 08 2013  22 14  -21.0236 26029.1 -03477.2 -07.6090 26260.4
 19 08 2013  22 15  -21.0236 26029.2 -03477.2 -07.6090 26260.4
 19 08 2013  22 16  -21.0236 26029.2 -03477.2 -07.6090 26260.5
 19 08 2013  22 17  -21.0236 26029.2 -03477.2 -07.6090 26260.5
 19 08 2013  22 18  -21.0237 26029.3 -03477.2 -07.6090 26260.5
 19 08 2013  22 19  -21.0238 26029.3 -03477.2 -07.6090 26260.6
 19 08 2013  22 20  -21.0239 26029.4 -03477.2 -07.6089 26260.6
 19 08 2013  22 21  -21.0240 26029.4 -03477.2 -07.6089 26260.6
 19 08 2013  22 22  -21.0241 26029.4 -03477.1 -07.6088 26260.6
 19 08 2013  22 23  -21.0242 26029.4 -03477.1 -07.6088 26260.6
 19 08 2013  22 24  -21.0243 26029.4 -03477.1 -07.6087 26260.6
 19 08 2013  22 25  -21.0243 26029.5 -03477.1 -07.6087 26260.7
 19 08 2013  22 26  -21.0242 26029.6 -03477.2 -07.6088 26260.9
 19 08 2013  22 27  -21.0241 26029.8 -03477.2 -07.6088 26261.0
 19 08 2013  22 28  -21.0242 26029.9 -03477.2 -07.6088 26261.1
 19 08 2013  22 29  -21.0242 26029.9 -03477.2 -07.6088 26261.1
 19 08 2013  22 30  -21.0243 26029.9 -03477.2 -07.6087 26261.1
 19 08 2013  22 31  -21.0244 26029.9 -03477.1 -07.6086 26261.1
 19 08 2013  22 32  -21.0245 26029.8 -03477.1 -07.6085 26261.0
 19 08 2013  22 33  -21.0244 26029.9 -03477.0 -07.6085 26261.1
 19 08 2013  22 34  -21.0243 26030.0 -03477.1 -07.6085 26261.2
 19 08 2013  22 35  -21.0243 26029.9 -03477.0 -07.6084 26261.1
 19 08 2013  22 36  -21.0242 26029.9 -03477.0 -07.6084 26261.1
 19 08 2013  22 37  -21.0242 26030.0 -03477.0 -07.6083 26261.2
 19 08 2013  22 38  -21.0242 26029.9 -03477.0 -07.6083 26261.1
 19 08 2013  22 39  -21.0243 26029.9 -03476.9 -07.6082 26261.1
 19 08 2013  22 40  -21.0244 26029.8 -03476.9 -07.6081 26261.0
 19 08 2013  22 41  -21.0245 26029.8 -03476.9 -07.6081 26261.0
 19 08 2013  22 42  -21.0245 26029.8 -03476.8 -07.6080 26260.9
 19 08 2013  22 43  -21.0245 26029.7 -03476.8 -07.6080 26260.9
 19 08 2013  22 44  -21.0244 26029.6 -03476.7 -07.6079 26260.8
 19 08 2013  22 45  -21.0244 26029.5 -03476.7 -07.6078 26260.7
 19 08 2013  22 46  -21.0246 26029.5 -03476.7 -07.6078 26260.7
 19 08 2013  22 47  -21.0247 26029.5 -03476.7 -07.6077 26260.7
 19 08 2013  22 48  -21.0247 26029.5 -03476.6 -07.6077 26260.6
 19 08 2013  22 49  -21.0248 26029.5 -03476.7 -07.6077 26260.6
 19 08 2013  22 50  -21.0250 26029.5 -03476.7 -07.6078 26260.7
 19 08 2013  22 51  -21.0251 26029.5 -03476.7 -07.6078 26260.7
 19 08 2013  22 52  -21.0253 26029.6 -03476.7 -07.6079 26260.7
 19 08 2013  22 53  -21.0254 26029.5 -03476.7 -07.6078 26260.7
 19 08 2013  22 54  -21.0254 26029.5 -03476.7 -07.6078 26260.7
 19 08 2013  22 55  -21.0254 26029.5 -03476.7 -07.6077 26260.7
 19 08 2013  22 56  -21.0254 26029.5 -03476.6 -07.6077 26260.6
 19 08 2013  22 57  -21.0255 26029.5 -03476.7 -07.6077 26260.6
 19 08 2013  22 58  -21.0255 26029.5 -03476.7 -07.6077 26260.7
 19 08 2013  22 59  -21.0256 26029.6 -03476.7 -07.6078 26260.7
 19 08 2013  23 00  -21.0257 26029.6 -03476.7 -07.6078 26260.8
 19 08 2013  23 01  -21.0258 26029.6 -03476.7 -07.6078 26260.8
 19 08 2013  23 02  -21.0259 26029.6 -03476.7 -07.6079 26260.8
 19 08 2013  23 03  -21.0259 26029.6 -03476.7 -07.6078 26260.8
 19 08 2013  23 04  -21.0260 26029.7 -03476.7 -07.6078 26260.8
 19 08 2013  23 05  -21.0259 26029.6 -03476.7 -07.6078 26260.8
 19 08 2013  23 06  -21.0260 26029.6 -03476.7 -07.6078 26260.8
 19 08 2013  23 07  -21.0259 26029.7 -03476.7 -07.6078 26260.9
 19 08 2013  23 08  -21.0258 26029.7 -03476.7 -07.6078 26260.9
 19 08 2013  23 09  -21.0258 26029.7 -03476.7 -07.6078 26260.9
 19 08 2013  23 10  -21.0257 26029.7 -03476.7 -07.6077 26260.9
 19 08 2013  23 11  -21.0257 26029.6 -03476.6 -07.6077 26260.8
 19 08 2013  23 12  -21.0256 26029.6 -03476.6 -07.6077 26260.8
 19 08 2013  23 13  -21.0256 26029.7 -03476.7 -07.6077 26260.8
 19 08 2013  23 14  -21.0256 26029.7 -03476.7 -07.6077 26260.8
 19 08 2013  23 15  -21.0255 26029.7 -03476.7 -07.6077 26260.9
 19 08 2013  23 16  -21.0255 26029.7 -03476.7 -07.6077 26260.9
 19 08 2013  23 17  -21.0254 26029.8 -03476.7 -07.6077 26260.9
 19 08 2013  23 18  -21.0254 26029.8 -03476.7 -07.6077 26260.9
 19 08 2013  23 19  -21.0254 26029.7 -03476.7 -07.6077 26260.8
 19 08 2013  23 20  -21.0253 26029.6 -03476.6 -07.6076 26260.8
 19 08 2013  23 21  -21.0253 26029.7 -03476.7 -07.6077 26260.9
 19 08 2013  23 22  -21.0253 26029.6 -03476.6 -07.6076 26260.8
 19 08 2013  23 23  -21.0253 26029.4 -03476.5 -07.6075 26260.6
 19 08 2013  23 24  -21.0252 26029.5 -03476.6 -07.6075 26260.6
 19 08 2013  23 25  -21.0251 26029.7 -03476.7 -07.6077 26260.8
 19 08 2013  23 26  -21.0250 26029.8 -03476.7 -07.6078 26261.0
 19 08 2013  23 27  -21.0249 26029.8 -03476.7 -07.6078 26260.9
 19 08 2013  23 28  -21.0249 26029.7 -03476.7 -07.6078 26260.9
 19 08 2013  23 29  -21.0248 26029.8 -03476.7 -07.6078 26260.9
 19 08 2013  23 30  -21.0247 26029.8 -03476.8 -07.6078 26261.0
 19 08 2013  23 31  -21.0246 26030.0 -03476.8 -07.6080 26261.1
 19 08 2013  23 32  -21.0245 26030.1 -03476.9 -07.6081 26261.3
 19 08 2013  23 33  -21.0245 26030.2 -03477.0 -07.6082 26261.4
 19 08 2013  23 34  -21.0246 26030.3 -03477.0 -07.6082 26261.5
 19 08 2013  23 35  -21.0247 26030.1 -03476.9 -07.6081 26261.3
 19 08 2013  23 36  -21.0250 26029.9 -03476.8 -07.6080 26261.1
 19 08 2013  23 37  -21.0251 26029.7 -03476.7 -07.6078 26260.8
 19 08 2013  23 38  -21.0251 26029.6 -03476.6 -07.6077 26260.7
 19 08 2013  23 39  -21.0251 26029.6 -03476.7 -07.6077 26260.8
 19 08 2013  23 40  -21.0251 26029.7 -03476.7 -07.6078 26260.9
 19 08 2013  23 41  -21.0249 26029.8 -03476.8 -07.6079 26260.9
 19 08 2013  23 42  -21.0249 26029.8 -03476.7 -07.6078 26260.9
 19 08 2013  23 43  -21.0249 26029.7 -03476.7 -07.6079 26260.9
 19 08 2013  23 44  -21.0248 26029.7 -03476.7 -07.6078 26260.9
 19 08 2013  23 45  -21.0246 26029.7 -03476.7 -07.6078 26260.9
 19 08 2013  23 46  -21.0245 26029.8 -03476.8 -07.6079 26261.0
 19 08 2013  23 47  -21.0243 26029.9 -03476.8 -07.6079 26261.0
 19 08 2013  23 48  -21.0241 26029.9 -03476.8 -07.6080 26261.1
 19 08 2013  23 49  -21.0241 26029.9 -03476.8 -07.6080 26261.1
 19 08 2013  23 50  -21.0241 26029.9 -03476.9 -07.6080 26261.1
 19 08 2013  23 51  -21.0241 26029.8 -03476.8 -07.6080 26261.0
 19 08 2013  23 52  -21.0241 26029.8 -03476.8 -07.6079 26260.9
 19 08 2013  23 53  -21.0242 26029.8 -03476.9 -07.6081 26261.0
 19 08 2013  23 54  -21.0242 26029.9 -03476.9 -07.6081 26261.1
 19 08 2013  23 55  -21.0242 26029.9 -03476.9 -07.6082 26261.1
 19 08 2013  23 56  -21.0241 26029.9 -03476.9 -07.6082 26261.1
 19 08 2013  23 57  -21.0240 26029.9 -03476.9 -07.6082 26261.1
