SAO LUIS EMBRACE-03 <317> 1 Min. Reported data

 DD MM YYYY  HH MM   D(Deg)  H(nT)   Z(nT)   I(Deg)   F(nT)

 13 11 2013  00 00  -21.0148 26010.1 -03504.5 -07.6735 26245.1
 13 11 2013  00 01  -21.0146 26010.1 -03504.5 -07.6736 26245.1
 13 11 2013  00 02  -21.0143 26010.2 -03504.5 -07.6736 26245.2
 13 11 2013  00 03  -21.0141 26010.2 -03504.6 -07.6737 26245.3
 13 11 2013  00 04  -21.0141 26010.2 -03504.6 -07.6739 26245.3
 13 11 2013  00 05  -21.0140 26010.2 -03504.7 -07.6739 26245.3
 13 11 2013  00 06  -21.0141 26010.2 -03504.7 -07.6740 26245.2
 13 11 2013  00 07  -21.0142 26010.1 -03504.7 -07.6740 26245.1
 13 11 2013  00 08  -21.0142 26010.0 -03504.6 -07.6739 26245.0
 13 11 2013  00 09  -21.0142 26009.9 -03504.6 -07.6739 26244.9
 13 11 2013  00 10  -21.0144 26009.9 -03504.6 -07.6739 26245.0
 13 11 2013  00 11  -21.0144 26009.9 -03504.7 -07.6740 26244.9
 13 11 2013  00 12  -21.0144 26009.8 -03504.6 -07.6739 26244.8
 13 11 2013  00 13  -21.0144 26009.7 -03504.6 -07.6739 26244.8
 13 11 2013  00 14  -21.0143 26009.8 -03504.6 -07.6739 26244.8
 13 11 2013  00 15  -21.0143 26009.8 -03504.7 -07.6740 26244.9
 13 11 2013  00 16  -21.0143 26009.9 -03504.7 -07.6741 26244.9
 13 11 2013  00 17  -21.0146 26009.9 -03504.8 -07.6743 26245.0
 13 11 2013  00 18  -21.0149 26010.0 -03504.8 -07.6744 26245.1
 13 11 2013  00 19  -21.0151 26009.9 -03504.8 -07.6744 26245.0
 13 11 2013  00 20  -21.0155 26009.9 -03504.8 -07.6744 26245.0
 13 11 2013  00 21  -21.0157 26009.8 -03504.8 -07.6743 26244.9
 13 11 2013  00 22  -21.0158 26009.8 -03504.8 -07.6742 26244.8
 13 11 2013  00 23  -21.0159 26009.7 -03504.7 -07.6742 26244.7
 13 11 2013  00 24  -21.0156 26009.6 -03504.7 -07.6741 26244.7
 13 11 2013  00 25  -21.0154 26009.6 -03504.7 -07.6741 26244.7
 13 11 2013  00 26  -21.0150 26009.7 -03504.7 -07.6741 26244.7
 13 11 2013  00 27  -21.0147 26009.7 -03504.8 -07.6743 26244.8
 13 11 2013  00 28  -21.0144 26009.8 -03504.8 -07.6743 26244.9
 13 11 2013  00 29  -21.0142 26009.9 -03504.8 -07.6744 26245.0
 13 11 2013  00 30  -21.0142 26010.0 -03505.0 -07.6747 26245.1
 13 11 2013  00 31  -21.0143 26010.3 -03505.1 -07.6748 26245.4
 13 11 2013  00 32  -21.0146 26010.5 -03505.2 -07.6751 26245.6
 13 11 2013  00 33  -21.0151 26010.6 -03505.3 -07.6752 26245.8
 13 11 2013  00 34  -21.0155 26010.6 -03505.4 -07.6753 26245.8
 13 11 2013  00 35  -21.0158 26010.6 -03505.3 -07.6753 26245.7
 13 11 2013  00 36  -21.0162 26010.6 -03505.3 -07.6752 26245.7
 13 11 2013  00 37  -21.0164 26010.5 -03505.2 -07.6751 26245.6
 13 11 2013  00 38  -21.0167 26010.4 -03505.1 -07.6749 26245.5
 13 11 2013  00 39  -21.0169 26010.2 -03505.1 -07.6748 26245.3
 13 11 2013  00 40  -21.0171 26010.1 -03505.0 -07.6746 26245.2
 13 11 2013  00 41  -21.0173 26010.1 -03505.0 -07.6746 26245.2
 13 11 2013  00 42  -21.0174 26010.0 -03504.9 -07.6746 26245.1
 13 11 2013  00 43  -21.0175 26009.9 -03504.9 -07.6746 26245.0
 13 11 2013  00 44  -21.0176 26010.0 -03505.0 -07.6746 26245.1
 13 11 2013  00 45  -21.0176 26010.0 -03505.0 -07.6747 26245.1
 13 11 2013  00 46  -21.0177 26010.0 -03505.0 -07.6748 26245.1
 13 11 2013  00 47  -21.0177 26010.0 -03505.1 -07.6748 26245.1
 13 11 2013  00 48  -21.0176 26010.0 -03505.0 -07.6748 26245.1
 13 11 2013  00 49  -21.0175 26009.9 -03505.0 -07.6747 26245.0
 13 11 2013  00 50  -21.0176 26009.9 -03505.0 -07.6748 26245.0
 13 11 2013  00 51  -21.0176 26009.9 -03505.0 -07.6748 26245.0
 13 11 2013  00 52  -21.0176 26009.9 -03505.1 -07.6750 26245.0
 13 11 2013  00 53  -21.0176 26009.9 -03505.1 -07.6750 26245.0
 13 11 2013  00 54  -21.0177 26009.8 -03505.1 -07.6750 26245.0
 13 11 2013  00 55  -21.0177 26009.9 -03505.1 -07.6750 26245.0
 13 11 2013  00 56  -21.0177 26009.9 -03505.2 -07.6751 26245.0
 13 11 2013  00 57  -21.0177 26009.8 -03505.2 -07.6751 26244.9
 13 11 2013  00 58  -21.0178 26009.8 -03505.2 -07.6752 26244.9
 13 11 2013  00 59  -21.0178 26009.8 -03505.2 -07.6752 26244.9
 13 11 2013  01 00  -21.0178 26009.9 -03505.2 -07.6753 26245.0
 13 11 2013  01 01  -21.0178 26009.9 -03505.3 -07.6754 26245.0
 13 11 2013  01 02  -21.0180 26009.9 -03505.4 -07.6755 26245.1
 13 11 2013  01 03  -21.0181 26010.0 -03505.4 -07.6756 26245.1
 13 11 2013  01 04  -21.0182 26010.0 -03505.4 -07.6756 26245.2
 13 11 2013  01 05  -21.0184 26010.1 -03505.5 -07.6757 26245.2
 13 11 2013  01 06  -21.0184 26010.1 -03505.5 -07.6758 26245.2
 13 11 2013  01 07  -21.0184 26010.0 -03505.5 -07.6758 26245.2
 13 11 2013  01 08  -21.0185 26010.0 -03505.5 -07.6758 26245.2
 13 11 2013  01 09  -21.0185 26010.0 -03505.5 -07.6757 26245.2
 13 11 2013  01 10  -21.0185 26010.0 -03505.5 -07.6757 26245.2
 13 11 2013  01 11  -21.0185 26010.0 -03505.5 -07.6758 26245.2
 13 11 2013  01 12  -21.0185 26010.0 -03505.6 -07.6759 26245.2
 13 11 2013  01 13  -21.0185 26010.1 -03505.6 -07.6759 26245.2
 13 11 2013  01 14  -21.0185 26010.0 -03505.6 -07.6759 26245.2
 13 11 2013  01 15  -21.0188 26010.0 -03505.6 -07.6760 26245.1
 13 11 2013  01 16  -21.0187 26009.9 -03505.6 -07.6760 26245.1
 13 11 2013  01 17  -21.0189 26010.0 -03505.6 -07.6761 26245.2
 13 11 2013  01 18  -21.0189 26010.0 -03505.6 -07.6761 26245.2
 13 11 2013  01 19  -21.0189 26010.0 -03505.7 -07.6761 26245.2
 13 11 2013  01 20  -21.0190 26009.9 -03505.7 -07.6762 26245.1
 13 11 2013  01 21  -21.0190 26009.9 -03505.7 -07.6762 26245.1
 13 11 2013  01 22  -21.0190 26009.8 -03505.6 -07.6761 26245.0
 13 11 2013  01 23  -21.0189 26009.7 -03505.6 -07.6761 26244.9
 13 11 2013  01 24  -21.0188 26009.7 -03505.6 -07.6761 26244.9
 13 11 2013  01 25  -21.0186 26009.7 -03505.6 -07.6760 26244.8
 13 11 2013  01 26  -21.0185 26009.6 -03505.6 -07.6760 26244.8
 13 11 2013  01 27  -21.0186 26009.6 -03505.6 -07.6761 26244.8
 13 11 2013  01 28  -21.0185 26009.6 -03505.6 -07.6761 26244.8
 13 11 2013  01 29  -21.0186 26009.7 -03505.7 -07.6763 26244.8
 13 11 2013  01 30  -21.0186 26009.7 -03505.7 -07.6763 26244.9
 13 11 2013  01 31  -21.0188 26009.8 -03505.8 -07.6764 26245.0
 13 11 2013  01 32  -21.0189 26009.9 -03505.8 -07.6765 26245.1
 13 11 2013  01 33  -21.0190 26010.0 -03505.9 -07.6766 26245.2
 13 11 2013  01 34  -21.0192 26010.1 -03505.9 -07.6766 26245.3
 13 11 2013  01 35  -21.0192 26010.1 -03505.9 -07.6766 26245.3
 13 11 2013  01 36  -21.0191 26010.0 -03505.9 -07.6766 26245.2
 13 11 2013  01 37  -21.0190 26010.0 -03505.8 -07.6765 26245.2
 13 11 2013  01 38  -21.0188 26009.9 -03505.8 -07.6764 26245.1
 13 11 2013  01 39  -21.0187 26009.9 -03505.8 -07.6763 26245.1
 13 11 2013  01 40  -21.0185 26009.9 -03505.7 -07.6763 26245.1
 13 11 2013  01 41  -21.0183 26009.9 -03505.7 -07.6763 26245.1
 13 11 2013  01 42  -21.0183 26010.0 -03505.7 -07.6763 26245.1
 13 11 2013  01 43  -21.0183 26010.0 -03505.8 -07.6763 26245.2
 13 11 2013  01 44  -21.0182 26010.0 -03505.8 -07.6764 26245.2
 13 11 2013  01 45  -21.0182 26009.9 -03505.7 -07.6763 26245.1
 13 11 2013  01 46  -21.0182 26009.9 -03505.7 -07.6762 26245.1
 13 11 2013  01 47  -21.0182 26009.9 -03505.7 -07.6762 26245.1
 13 11 2013  01 48  -21.0183 26010.0 -03505.7 -07.6762 26245.1
 13 11 2013  01 49  -21.0185 26009.9 -03505.7 -07.6762 26245.1
 13 11 2013  01 50  -21.0185 26010.0 -03505.7 -07.6761 26245.1
 13 11 2013  01 51  -21.0186 26010.0 -03505.6 -07.6761 26245.2
 13 11 2013  01 52  -21.0187 26010.0 -03505.6 -07.6760 26245.1
 13 11 2013  01 53  -21.0187 26010.0 -03505.6 -07.6760 26245.2
 13 11 2013  01 54  -21.0188 26009.9 -03505.6 -07.6759 26245.1
 13 11 2013  01 55  -21.0189 26010.0 -03505.5 -07.6758 26245.1
 13 11 2013  01 56  -21.0189 26009.9 -03505.5 -07.6758 26245.1
 13 11 2013  01 57  -21.0190 26009.9 -03505.5 -07.6757 26245.1
 13 11 2013  01 58  -21.0189 26009.8 -03505.4 -07.6757 26245.0
 13 11 2013  01 59  -21.0189 26009.8 -03505.4 -07.6756 26245.0
 13 11 2013  02 00  -21.0189 26009.8 -03505.3 -07.6755 26244.9
 13 11 2013  02 01  -21.0189 26009.7 -03505.3 -07.6754 26244.9
 13 11 2013  02 02  -21.0190 26009.7 -03505.3 -07.6754 26244.8
 13 11 2013  02 03  -21.0190 26009.7 -03505.2 -07.6753 26244.8
 13 11 2013  02 04  -21.0190 26009.6 -03505.2 -07.6753 26244.8
 13 11 2013  02 05  -21.0191 26009.7 -03505.2 -07.6753 26244.8
 13 11 2013  02 06  -21.0192 26009.7 -03505.2 -07.6752 26244.8
 13 11 2013  02 07  -21.0193 26009.6 -03505.2 -07.6753 26244.7
 13 11 2013  02 08  -21.0194 26009.6 -03505.2 -07.6752 26244.7
 13 11 2013  02 09  -21.0194 26009.6 -03505.2 -07.6752 26244.7
 13 11 2013  02 10  -21.0194 26009.5 -03505.1 -07.6751 26244.7
 13 11 2013  02 11  -21.0195 26009.5 -03505.1 -07.6751 26244.6
 13 11 2013  02 12  -21.0197 26009.5 -03505.1 -07.6750 26244.6
 13 11 2013  02 13  -21.0197 26009.5 -03505.1 -07.6751 26244.6
 13 11 2013  02 14  -21.0196 26009.5 -03505.1 -07.6750 26244.6
 13 11 2013  02 15  -21.0198 26009.5 -03505.1 -07.6750 26244.6
 13 11 2013  02 16  -21.0201 26009.5 -03505.1 -07.6750 26244.6
 13 11 2013  02 17  -21.0201 26009.5 -03505.0 -07.6750 26244.6
 13 11 2013  02 18  -21.0202 26009.4 -03505.0 -07.6749 26244.5
 13 11 2013  02 19  -21.0203 26009.4 -03505.0 -07.6749 26244.5
 13 11 2013  02 20  -21.0203 26009.4 -03505.0 -07.6748 26244.5
 13 11 2013  02 21  -21.0202 26009.4 -03504.9 -07.6748 26244.4
 13 11 2013  02 22  -21.0202 26009.3 -03504.9 -07.6747 26244.4
 13 11 2013  02 23  -21.0203 26009.3 -03504.9 -07.6747 26244.4
 13 11 2013  02 24  -21.0203 26009.3 -03504.9 -07.6747 26244.4
 13 11 2013  02 25  -21.0205 26009.3 -03504.9 -07.6747 26244.4
 13 11 2013  02 26  -21.0206 26009.4 -03504.9 -07.6747 26244.5
 13 11 2013  02 27  -21.0207 26009.3 -03504.9 -07.6748 26244.4
 13 11 2013  02 28  -21.0207 26009.3 -03504.9 -07.6747 26244.4
 13 11 2013  02 29  -21.0208 26009.3 -03504.9 -07.6746 26244.4
 13 11 2013  02 30  -21.0209 26009.3 -03504.9 -07.6746 26244.4
 13 11 2013  02 31  -21.0209 26009.3 -03504.9 -07.6746 26244.4
 13 11 2013  02 32  -21.0210 26009.3 -03504.9 -07.6746 26244.4
 13 11 2013  02 33  -21.0211 26009.4 -03504.9 -07.6747 26244.4
 13 11 2013  02 34  -21.0212 26009.3 -03504.9 -07.6746 26244.4
 13 11 2013  02 35  -21.0213 26009.3 -03504.8 -07.6745 26244.4
 13 11 2013  02 36  -21.0214 26009.4 -03504.8 -07.6745 26244.5
 13 11 2013  02 37  -21.0214 26009.5 -03504.8 -07.6745 26244.5
 13 11 2013  02 38  -21.0214 26009.5 -03504.8 -07.6745 26244.5
 13 11 2013  02 39  -21.0213 26009.4 -03504.8 -07.6744 26244.5
 13 11 2013  02 40  -21.0213 26009.5 -03504.8 -07.6744 26244.5
 13 11 2013  02 41  -21.0213 26009.4 -03504.7 -07.6743 26244.5
 13 11 2013  02 42  -21.0212 26009.3 -03504.7 -07.6742 26244.3
 13 11 2013  02 43  -21.0212 26009.2 -03504.6 -07.6741 26244.3
 13 11 2013  02 44  -21.0214 26009.2 -03504.6 -07.6741 26244.3
 13 11 2013  02 45  -21.0215 26009.2 -03504.6 -07.6741 26244.3
 13 11 2013  02 46  -21.0216 26009.2 -03504.6 -07.6741 26244.3
 13 11 2013  02 47  -21.0215 26009.3 -03504.6 -07.6741 26244.3
 13 11 2013  02 48  -21.0216 26009.3 -03504.6 -07.6741 26244.4
 13 11 2013  02 49  -21.0216 26009.3 -03504.7 -07.6741 26244.4
 13 11 2013  02 50  -21.0216 26009.3 -03504.7 -07.6741 26244.4
 13 11 2013  02 51  -21.0216 26009.3 -03504.7 -07.6741 26244.4
 13 11 2013  02 52  -21.0216 26009.3 -03504.6 -07.6741 26244.3
 13 11 2013  02 53  -21.0216 26009.2 -03504.6 -07.6741 26244.3
 13 11 2013  02 54  -21.0216 26009.2 -03504.6 -07.6740 26244.2
 13 11 2013  02 55  -21.0217 26009.1 -03504.5 -07.6740 26244.1
 13 11 2013  02 56  -21.0217 26009.1 -03504.5 -07.6740 26244.1
 13 11 2013  02 57  -21.0215 26009.1 -03504.6 -07.6740 26244.2
 13 11 2013  02 58  -21.0216 26009.1 -03504.6 -07.6741 26244.2
 13 11 2013  02 59  -21.0216 26009.2 -03504.6 -07.6741 26244.2
 13 11 2013  03 00  -21.0215 26009.2 -03504.6 -07.6741 26244.3
 13 11 2013  03 01  -21.0214 26009.3 -03504.7 -07.6742 26244.3
 13 11 2013  03 02  -21.0214 26009.3 -03504.7 -07.6742 26244.3
 13 11 2013  03 03  -21.0212 26009.2 -03504.6 -07.6741 26244.2
 13 11 2013  03 04  -21.0213 26009.1 -03504.6 -07.6740 26244.2
 13 11 2013  03 05  -21.0213 26009.0 -03504.6 -07.6740 26244.1
 13 11 2013  03 06  -21.0213 26009.0 -03504.5 -07.6740 26244.0
 13 11 2013  03 07  -21.0214 26009.0 -03504.5 -07.6740 26244.1
 13 11 2013  03 08  -21.0214 26009.0 -03504.6 -07.6741 26244.1
 13 11 2013  03 09  -21.0216 26009.1 -03504.6 -07.6741 26244.1
 13 11 2013  03 10  -21.0217 26009.1 -03504.6 -07.6741 26244.2
 13 11 2013  03 11  -21.0218 26009.1 -03504.6 -07.6742 26244.2
 13 11 2013  03 12  -21.0220 26009.2 -03504.7 -07.6743 26244.2
 13 11 2013  03 13  -21.0221 26009.3 -03504.8 -07.6744 26244.4
 13 11 2013  03 14  -21.0222 26009.4 -03504.8 -07.6744 26244.5
 13 11 2013  03 15  -21.0221 26009.6 -03504.9 -07.6745 26244.6
 13 11 2013  03 16  -21.0219 26009.7 -03504.9 -07.6746 26244.7
 13 11 2013  03 17  -21.0218 26009.7 -03505.0 -07.6747 26244.8
 13 11 2013  03 18  -21.0215 26009.8 -03505.0 -07.6747 26244.9
 13 11 2013  03 19  -21.0211 26009.8 -03504.9 -07.6746 26244.9
 13 11 2013  03 20  -21.0210 26009.9 -03505.0 -07.6747 26245.0
 13 11 2013  03 21  -21.0209 26010.0 -03505.0 -07.6748 26245.1
 13 11 2013  03 22  -21.0207 26010.0 -03505.1 -07.6748 26245.1
 13 11 2013  03 23  -21.0206 26010.0 -03505.0 -07.6748 26245.1
 13 11 2013  03 24  -21.0204 26010.0 -03505.0 -07.6748 26245.1
 13 11 2013  03 25  -21.0202 26009.9 -03505.0 -07.6748 26245.0
 13 11 2013  03 26  -21.0200 26009.9 -03505.0 -07.6747 26245.0
 13 11 2013  03 27  -21.0200 26009.9 -03505.0 -07.6747 26245.0
 13 11 2013  03 28  -21.0198 26009.9 -03505.0 -07.6747 26245.0
 13 11 2013  03 29  -21.0195 26009.8 -03505.0 -07.6747 26244.9
 13 11 2013  03 30  -21.0191 26009.7 -03504.9 -07.6746 26244.8
 13 11 2013  03 31  -21.0191 26009.7 -03504.9 -07.6746 26244.8
 13 11 2013  03 32  -21.0190 26009.6 -03504.9 -07.6746 26244.7
 13 11 2013  03 33  -21.0188 26009.6 -03504.9 -07.6745 26244.7
 13 11 2013  03 34  -21.0187 26009.6 -03504.9 -07.6747 26244.7
 13 11 2013  03 35  -21.0189 26009.6 -03504.9 -07.6747 26244.7
 13 11 2013  03 36  -21.0190 26009.7 -03505.0 -07.6748 26244.8
 13 11 2013  03 37  -21.0190 26009.7 -03505.0 -07.6748 26244.8
 13 11 2013  03 38  -21.0192 26009.7 -03505.0 -07.6748 26244.8
 13 11 2013  03 39  -21.0192 26009.7 -03505.0 -07.6748 26244.8
 13 11 2013  03 40  -21.0193 26009.6 -03505.0 -07.6747 26244.7
 13 11 2013  03 41  -21.0194 26009.6 -03504.9 -07.6747 26244.7
 13 11 2013  03 42  -21.0195 26009.6 -03504.9 -07.6746 26244.7
 13 11 2013  03 43  -21.0195 26009.6 -03504.9 -07.6747 26244.7
 13 11 2013  03 44  -21.0195 26009.5 -03505.0 -07.6747 26244.6
 13 11 2013  03 45  -21.0196 26009.6 -03505.0 -07.6748 26244.7
 13 11 2013  03 46  -21.0196 26009.6 -03505.0 -07.6747 26244.7
 13 11 2013  03 47  -21.0198 26009.6 -03505.0 -07.6748 26244.7
 13 11 2013  03 48  -21.0200 26009.6 -03505.0 -07.6749 26244.7
 13 11 2013  03 49  -21.0200 26009.7 -03505.1 -07.6750 26244.8
 13 11 2013  03 50  -21.0201 26009.7 -03505.1 -07.6750 26244.8
 13 11 2013  03 51  -21.0202 26009.7 -03505.1 -07.6750 26244.8
 13 11 2013  03 52  -21.0203 26009.7 -03505.1 -07.6751 26244.8
 13 11 2013  03 53  -21.0203 26009.7 -03505.1 -07.6750 26244.8
 13 11 2013  03 54  -21.0203 26009.7 -03505.1 -07.6750 26244.8
 13 11 2013  03 55  -21.0204 26009.7 -03505.2 -07.6752 26244.9
 13 11 2013  03 56  -21.0205 26009.8 -03505.2 -07.6752 26245.0
 13 11 2013  03 57  -21.0208 26009.7 -03505.2 -07.6752 26244.8
 13 11 2013  03 58  -21.0210 26009.8 -03505.2 -07.6753 26244.9
 13 11 2013  03 59  -21.0210 26009.8 -03505.3 -07.6753 26245.0
 13 11 2013  04 00  -21.0210 26009.8 -03505.2 -07.6752 26244.9
 13 11 2013  04 01  -21.0210 26009.7 -03505.2 -07.6751 26244.9
 13 11 2013  04 02  -21.0211 26009.7 -03505.2 -07.6752 26244.8
 13 11 2013  04 03  -21.0212 26009.7 -03505.2 -07.6752 26244.9
 13 11 2013  04 04  -21.0212 26009.6 -03505.1 -07.6751 26244.8
 13 11 2013  04 05  -21.0212 26009.6 -03505.1 -07.6751 26244.7
 13 11 2013  04 06  -21.0214 26009.6 -03505.1 -07.6751 26244.7
 13 11 2013  04 07  -21.0214 26009.5 -03505.1 -07.6751 26244.6
 13 11 2013  04 08  -21.0214 26009.6 -03505.2 -07.6752 26244.8
 13 11 2013  04 09  -21.0216 26009.7 -03505.3 -07.6753 26244.8
 13 11 2013  04 10  -21.0216 26009.4 -03505.2 -07.6753 26244.6
 13 11 2013  04 11  -21.0216 26009.4 -03505.1 -07.6752 26244.5
 13 11 2013  04 12  -21.0216 26009.5 -03505.2 -07.6753 26244.7
 13 11 2013  04 13  -21.0217 26009.5 -03505.2 -07.6753 26244.6
 13 11 2013  04 14  -21.0218 26009.5 -03505.3 -07.6754 26244.7
 13 11 2013  04 15  -21.0219 26009.6 -03505.4 -07.6756 26244.8
 13 11 2013  04 16  -21.0219 26009.5 -03505.3 -07.6755 26244.6
 13 11 2013  04 17  -21.0218 26009.5 -03505.3 -07.6755 26244.6
 13 11 2013  04 18  -21.0219 26009.5 -03505.3 -07.6756 26244.7
 13 11 2013  04 19  -21.0220 26009.5 -03505.4 -07.6757 26244.7
 13 11 2013  04 20  -21.0222 26009.6 -03505.4 -07.6758 26244.7
 13 11 2013  04 21  -21.0223 26009.6 -03505.4 -07.6757 26244.7
 13 11 2013  04 22  -21.0226 26009.6 -03505.5 -07.6758 26244.8
 13 11 2013  04 23  -21.0226 26009.5 -03505.5 -07.6758 26244.7
 13 11 2013  04 24  -21.0225 26009.4 -03505.4 -07.6757 26244.5
 13 11 2013  04 25  -21.0226 26009.2 -03505.3 -07.6756 26244.4
 13 11 2013  04 26  -21.0226 26009.1 -03505.2 -07.6755 26244.2
 13 11 2013  04 27  -21.0227 26009.0 -03505.2 -07.6754 26244.1
 13 11 2013  04 28  -21.0228 26008.9 -03505.2 -07.6754 26244.0
 13 11 2013  04 29  -21.0230 26008.9 -03505.2 -07.6754 26244.0
 13 11 2013  04 30  -21.0231 26008.9 -03505.2 -07.6755 26244.1
 13 11 2013  04 31  -21.0234 26009.0 -03505.3 -07.6756 26244.1
 13 11 2013  04 32  -21.0235 26009.0 -03505.3 -07.6756 26244.1
 13 11 2013  04 33  -21.0236 26009.0 -03505.3 -07.6757 26244.2
 13 11 2013  04 34  -21.0237 26009.0 -03505.3 -07.6757 26244.2
 13 11 2013  04 35  -21.0238 26009.0 -03505.3 -07.6756 26244.1
 13 11 2013  04 36  -21.0239 26009.0 -03505.3 -07.6756 26244.1
 13 11 2013  04 37  -21.0241 26008.9 -03505.2 -07.6755 26244.0
 13 11 2013  04 38  -21.0242 26008.8 -03505.2 -07.6755 26243.9
 13 11 2013  04 39  -21.0243 26008.8 -03505.2 -07.6754 26243.9
 13 11 2013  04 40  -21.0242 26008.7 -03505.1 -07.6754 26243.8
 13 11 2013  04 41  -21.0244 26008.7 -03505.1 -07.6754 26243.8
 13 11 2013  04 42  -21.0246 26008.7 -03505.2 -07.6754 26243.8
 13 11 2013  04 43  -21.0248 26008.7 -03505.2 -07.6755 26243.8
 13 11 2013  04 44  -21.0247 26008.7 -03505.2 -07.6755 26243.8
 13 11 2013  04 45  -21.0248 26008.7 -03505.2 -07.6756 26243.8
 13 11 2013  04 46  -21.0249 26008.7 -03505.2 -07.6756 26243.9
 13 11 2013  04 47  -21.0251 26008.8 -03505.3 -07.6757 26243.9
 13 11 2013  04 48  -21.0249 26009.2 -03505.5 -07.6759 26244.3
 13 11 2013  04 49  -21.0253 26009.1 -03505.5 -07.6761 26244.3
 13 11 2013  04 50  -21.0254 26009.1 -03505.5 -07.6760 26244.3
 13 11 2013  04 51  -21.0251 26009.5 -03505.6 -07.6762 26244.6
 13 11 2013  04 52  -21.0254 26009.7 -03505.7 -07.6763 26244.9
 13 11 2013  04 53  -21.0253 26009.6 -03505.7 -07.6763 26244.8
 13 11 2013  04 54  -21.0248 26009.7 -03505.6 -07.6761 26244.8
 13 11 2013  04 55  -21.0251 26009.6 -03505.6 -07.6761 26244.8
 13 11 2013  04 56  -21.0249 26009.6 -03505.6 -07.6761 26244.8
 13 11 2013  04 57  -21.0245 26009.6 -03505.6 -07.6760 26244.8
 13 11 2013  04 58  -21.0244 26009.5 -03505.5 -07.6760 26244.7
 13 11 2013  04 59  -21.0246 26009.6 -03505.6 -07.6760 26244.8
 13 11 2013  05 00  -21.0250 26010.1 -03505.8 -07.6764 26245.3
 13 11 2013  05 01  -21.0250 26010.4 -03506.0 -07.6767 26245.6
 13 11 2013  05 02  -21.0249 26010.3 -03505.9 -07.6766 26245.5
 13 11 2013  05 03  -21.0250 26010.5 -03506.0 -07.6767 26245.7
 13 11 2013  05 04  -21.0250 26011.2 -03506.3 -07.6772 26246.4
 13 11 2013  05 05  -21.0253 26011.0 -03506.3 -07.6772 26246.3
 13 11 2013  05 06  -21.0251 26010.9 -03506.1 -07.6769 26246.1
 13 11 2013  05 07  -21.0253 26011.0 -03506.2 -07.6769 26246.2
 13 11 2013  05 08  -21.0253 26010.8 -03506.0 -07.6767 26246.0
 13 11 2013  05 09  -21.0249 26010.4 -03505.8 -07.6763 26245.6
 13 11 2013  05 10  -21.0245 26010.3 -03505.7 -07.6761 26245.4
 13 11 2013  05 11  -21.0243 26010.1 -03505.6 -07.6760 26245.3
 13 11 2013  05 12  -21.0241 26009.8 -03505.5 -07.6759 26245.0
 13 11 2013  05 13  -21.0240 26009.6 -03505.5 -07.6758 26244.8
 13 11 2013  05 14  -21.0240 26009.6 -03505.5 -07.6758 26244.7
 13 11 2013  05 15  -21.0241 26009.3 -03505.3 -07.6757 26244.4
 13 11 2013  05 16  -21.0240 26009.3 -03505.4 -07.6757 26244.4
 13 11 2013  05 17  -21.0240 26008.8 -03505.2 -07.6755 26244.0
 13 11 2013  05 18  -21.0237 26008.8 -03505.2 -07.6755 26243.9
 13 11 2013  05 19  -21.0238 26008.8 -03505.3 -07.6756 26244.0
 13 11 2013  05 20  -21.0241 26008.8 -03505.3 -07.6758 26244.0
 13 11 2013  05 21  -21.0245 26008.8 -03505.4 -07.6759 26244.0
 13 11 2013  05 22  -21.0250 26009.1 -03505.6 -07.6762 26244.3
 13 11 2013  05 23  -21.0256 26009.0 -03505.6 -07.6763 26244.2
 13 11 2013  05 24  -21.0258 26009.1 -03505.6 -07.6762 26244.3
 13 11 2013  05 25  -21.0262 26009.3 -03505.7 -07.6764 26244.5
 13 11 2013  05 26  -21.0267 26009.3 -03505.7 -07.6765 26244.5
 13 11 2013  05 27  -21.0269 26009.5 -03505.8 -07.6765 26244.7
 13 11 2013  05 28  -21.0272 26009.6 -03505.8 -07.6765 26244.8
 13 11 2013  05 29  -21.0275 26009.7 -03505.8 -07.6766 26244.9
 13 11 2013  05 30  -21.0275 26009.8 -03505.8 -07.6766 26245.0
 13 11 2013  05 31  -21.0277 26009.8 -03505.9 -07.6766 26245.1
 13 11 2013  05 32  -21.0280 26009.7 -03505.8 -07.6764 26244.9
 13 11 2013  05 33  -21.0279 26009.7 -03505.7 -07.6763 26244.9
 13 11 2013  05 34  -21.0275 26009.6 -03505.6 -07.6762 26244.8
 13 11 2013  05 35  -21.0272 26009.5 -03505.5 -07.6760 26244.7
 13 11 2013  05 36  -21.0274 26009.4 -03505.5 -07.6759 26244.6
 13 11 2013  05 37  -21.0278 26009.3 -03505.5 -07.6759 26244.5
 13 11 2013  05 38  -21.0283 26009.4 -03505.5 -07.6759 26244.5
 13 11 2013  05 39  -21.0289 26009.6 -03505.6 -07.6761 26244.8
 13 11 2013  05 40  -21.0288 26009.6 -03505.6 -07.6761 26244.7
 13 11 2013  05 41  -21.0286 26009.6 -03505.5 -07.6759 26244.8
 13 11 2013  05 42  -21.0285 26009.4 -03505.4 -07.6758 26244.6
 13 11 2013  05 43  -21.0285 26009.5 -03505.4 -07.6758 26244.6
 13 11 2013  05 44  -21.0284 26009.5 -03505.4 -07.6758 26244.7
 13 11 2013  05 45  -21.0283 26009.5 -03505.4 -07.6758 26244.6
 13 11 2013  05 46  -21.0280 26009.2 -03505.4 -07.6757 26244.4
 13 11 2013  05 47  -21.0278 26009.2 -03505.3 -07.6756 26244.4
 13 11 2013  05 48  -21.0278 26009.2 -03505.3 -07.6756 26244.4
 13 11 2013  05 49  -21.0276 26009.2 -03505.3 -07.6756 26244.3
 13 11 2013  05 50  -21.0275 26009.1 -03505.3 -07.6755 26244.2
 13 11 2013  05 51  -21.0274 26009.3 -03505.4 -07.6758 26244.4
 13 11 2013  05 52  -21.0273 26009.2 -03505.4 -07.6758 26244.3
 13 11 2013  05 53  -21.0272 26009.1 -03505.3 -07.6757 26244.3
 13 11 2013  05 54  -21.0279 26009.4 -03505.5 -07.6759 26244.5
 13 11 2013  05 55  -21.0283 26009.6 -03505.6 -07.6762 26244.8
 13 11 2013  05 56  -21.0286 26009.4 -03505.6 -07.6761 26244.6
 13 11 2013  05 57  -21.0286 26009.3 -03505.5 -07.6761 26244.5
 13 11 2013  05 58  -21.0289 26009.4 -03505.6 -07.6761 26244.6
 13 11 2013  05 59  -21.0290 26009.5 -03505.6 -07.6761 26244.6
 13 11 2013  06 00  -21.0289 26009.4 -03505.6 -07.6761 26244.6
 13 11 2013  06 01  -21.0290 26009.5 -03505.6 -07.6761 26244.7
 13 11 2013  06 02  -21.0290 26009.6 -03505.7 -07.6763 26244.8
 13 11 2013  06 03  -21.0288 26009.8 -03505.8 -07.6764 26245.0
 13 11 2013  06 04  -21.0285 26009.9 -03505.8 -07.6765 26245.1
 13 11 2013  06 05  -21.0280 26009.8 -03505.8 -07.6765 26245.0
 13 11 2013  06 06  -21.0276 26009.8 -03505.8 -07.6765 26245.0
 13 11 2013  06 07  -21.0273 26009.8 -03505.8 -07.6764 26245.0
 13 11 2013  06 08  -21.0272 26009.7 -03505.8 -07.6765 26245.0
 13 11 2013  06 09  -21.0274 26009.6 -03505.8 -07.6765 26244.8
 13 11 2013  06 10  -21.0276 26009.5 -03505.7 -07.6764 26244.7
 13 11 2013  06 11  -21.0278 26009.3 -03505.7 -07.6764 26244.5
 13 11 2013  06 12  -21.0278 26009.4 -03505.7 -07.6765 26244.6
 13 11 2013  06 13  -21.0276 26009.3 -03505.7 -07.6765 26244.5
 13 11 2013  06 14  -21.0274 26009.2 -03505.7 -07.6764 26244.4
 13 11 2013  06 15  -21.0271 26009.1 -03505.7 -07.6764 26244.3
 13 11 2013  06 16  -21.0268 26009.0 -03505.6 -07.6763 26244.1
 13 11 2013  06 17  -21.0268 26008.9 -03505.6 -07.6763 26244.0
 13 11 2013  06 18  -21.0267 26008.8 -03505.6 -07.6763 26244.0
 13 11 2013  06 19  -21.0266 26008.8 -03505.6 -07.6764 26243.9
 13 11 2013  06 20  -21.0265 26008.8 -03505.7 -07.6765 26244.0
 13 11 2013  06 21  -21.0265 26008.7 -03505.7 -07.6766 26243.9
 13 11 2013  06 22  -21.0261 26008.8 -03505.8 -07.6767 26244.0
 13 11 2013  06 23  -21.0256 26008.7 -03505.7 -07.6766 26243.9
 13 11 2013  06 24  -21.0254 26008.7 -03505.7 -07.6767 26243.9
 13 11 2013  06 25  -21.0253 26008.6 -03505.8 -07.6768 26243.8
 13 11 2013  06 26  -21.0254 26008.5 -03505.8 -07.6768 26243.7
 13 11 2013  06 27  -21.0256 26008.4 -03505.8 -07.6769 26243.7
 13 11 2013  06 28  -21.0257 26008.4 -03505.8 -07.6769 26243.6
 13 11 2013  06 29  -21.0259 26008.5 -03505.9 -07.6771 26243.8
 13 11 2013  06 30  -21.0260 26008.5 -03506.0 -07.6772 26243.7
 13 11 2013  06 31  -21.0261 26008.5 -03506.0 -07.6772 26243.7
 13 11 2013  06 32  -21.0261 26008.5 -03506.0 -07.6773 26243.8
 13 11 2013  06 33  -21.0261 26008.5 -03506.0 -07.6772 26243.7
 13 11 2013  06 34  -21.0261 26008.3 -03505.9 -07.6772 26243.5
 13 11 2013  06 35  -21.0263 26008.3 -03505.9 -07.6772 26243.6
 13 11 2013  06 36  -21.0264 26008.3 -03505.9 -07.6772 26243.5
 13 11 2013  06 37  -21.0266 26008.4 -03506.0 -07.6773 26243.6
 13 11 2013  06 38  -21.0267 26008.4 -03506.0 -07.6774 26243.6
 13 11 2013  06 39  -21.0267 26008.3 -03506.0 -07.6773 26243.5
 13 11 2013  06 40  -21.0270 26008.4 -03506.0 -07.6774 26243.6
 13 11 2013  06 41  -21.0274 26008.6 -03506.2 -07.6776 26243.8
 13 11 2013  06 42  -21.0276 26008.6 -03506.2 -07.6777 26243.9
 13 11 2013  06 43  -21.0276 26008.6 -03506.2 -07.6777 26243.9
 13 11 2013  06 44  -21.0278 26008.7 -03506.2 -07.6777 26243.9
 13 11 2013  06 45  -21.0278 26008.6 -03506.2 -07.6776 26243.9
 13 11 2013  06 46  -21.0279 26008.5 -03506.1 -07.6775 26243.8
 13 11 2013  06 47  -21.0278 26008.4 -03506.0 -07.6773 26243.6
 13 11 2013  06 48  -21.0279 26008.4 -03506.0 -07.6773 26243.6
 13 11 2013  06 49  -21.0280 26008.2 -03505.9 -07.6772 26243.5
 13 11 2013  06 50  -21.0282 26008.2 -03505.9 -07.6772 26243.5
 13 11 2013  06 51  -21.0286 26008.4 -03506.0 -07.6773 26243.7
 13 11 2013  06 52  -21.0287 26008.5 -03506.0 -07.6773 26243.7
 13 11 2013  06 53  -21.0287 26008.5 -03506.1 -07.6774 26243.7
 13 11 2013  06 54  -21.0288 26008.5 -03506.1 -07.6775 26243.8
 13 11 2013  06 55  -21.0290 26008.7 -03506.2 -07.6777 26244.0
 13 11 2013  06 56  -21.0291 26008.8 -03506.2 -07.6776 26244.1
 13 11 2013  06 57  -21.0294 26008.8 -03506.1 -07.6775 26244.0
 13 11 2013  06 58  -21.0297 26008.8 -03506.1 -07.6775 26244.0
 13 11 2013  06 59  -21.0300 26008.9 -03506.2 -07.6775 26244.2
 13 11 2013  07 00  -21.0300 26008.8 -03506.1 -07.6775 26244.1
 13 11 2013  07 01  -21.0301 26009.0 -03506.2 -07.6775 26244.2
 13 11 2013  07 02  -21.0301 26008.8 -03506.1 -07.6774 26244.1
 13 11 2013  07 03  -21.0301 26008.7 -03506.0 -07.6772 26244.0
 13 11 2013  07 04  -21.0300 26008.6 -03505.9 -07.6771 26243.9
 13 11 2013  07 05  -21.0300 26008.5 -03505.9 -07.6770 26243.7
 13 11 2013  07 06  -21.0299 26008.4 -03505.8 -07.6770 26243.7
 13 11 2013  07 07  -21.0298 26008.4 -03505.8 -07.6770 26243.6
 13 11 2013  07 08  -21.0296 26008.4 -03505.8 -07.6769 26243.6
 13 11 2013  07 09  -21.0295 26008.3 -03505.8 -07.6770 26243.5
 13 11 2013  07 10  -21.0294 26008.4 -03505.9 -07.6770 26243.6
 13 11 2013  07 11  -21.0293 26008.3 -03505.8 -07.6769 26243.5
 13 11 2013  07 12  -21.0293 26008.2 -03505.8 -07.6769 26243.4
 13 11 2013  07 13  -21.0293 26008.2 -03505.8 -07.6769 26243.4
 13 11 2013  07 14  -21.0290 26008.1 -03505.8 -07.6769 26243.4
 13 11 2013  07 15  -21.0287 26008.2 -03505.8 -07.6769 26243.4
 13 11 2013  07 16  -21.0286 26008.1 -03505.8 -07.6770 26243.3
 13 11 2013  07 17  -21.0285 26008.1 -03505.8 -07.6770 26243.4
 13 11 2013  07 18  -21.0285 26008.0 -03505.8 -07.6770 26243.2
 13 11 2013  07 19  -21.0283 26007.9 -03505.8 -07.6770 26243.1
 13 11 2013  07 20  -21.0281 26007.9 -03505.8 -07.6770 26243.1
 13 11 2013  07 21  -21.0280 26007.9 -03505.8 -07.6771 26243.1
 13 11 2013  07 22  -21.0279 26008.1 -03505.9 -07.6773 26243.3
 13 11 2013  07 23  -21.0279 26008.1 -03506.0 -07.6774 26243.4
 13 11 2013  07 24  -21.0278 26008.2 -03506.1 -07.6775 26243.5
 13 11 2013  07 25  -21.0278 26008.2 -03506.1 -07.6776 26243.5
 13 11 2013  07 26  -21.0277 26008.2 -03506.1 -07.6776 26243.4
 13 11 2013  07 27  -21.0275 26008.1 -03506.1 -07.6775 26243.4
 13 11 2013  07 28  -21.0270 26008.0 -03506.0 -07.6774 26243.2
 13 11 2013  07 29  -21.0266 26007.9 -03506.0 -07.6774 26243.2
 13 11 2013  07 30  -21.0262 26007.9 -03506.0 -07.6774 26243.2
 13 11 2013  07 31  -21.0259 26007.9 -03506.0 -07.6775 26243.2
 13 11 2013  07 32  -21.0258 26008.0 -03506.1 -07.6777 26243.3
 13 11 2013  07 33  -21.0256 26008.1 -03506.2 -07.6778 26243.3
 13 11 2013  07 34  -21.0252 26008.0 -03506.2 -07.6778 26243.3
 13 11 2013  07 35  -21.0252 26008.0 -03506.2 -07.6779 26243.3
 13 11 2013  07 36  -21.0252 26008.1 -03506.3 -07.6781 26243.4
 13 11 2013  07 37  -21.0253 26008.1 -03506.4 -07.6782 26243.4
 13 11 2013  07 38  -21.0255 26008.1 -03506.4 -07.6783 26243.4
 13 11 2013  07 39  -21.0255 26008.1 -03506.4 -07.6783 26243.4
 13 11 2013  07 40  -21.0253 26008.1 -03506.5 -07.6784 26243.4
 13 11 2013  07 41  -21.0250 26008.1 -03506.5 -07.6785 26243.4
 13 11 2013  07 42  -21.0247 26008.1 -03506.5 -07.6784 26243.4
 13 11 2013  07 43  -21.0245 26008.1 -03506.5 -07.6784 26243.4
 13 11 2013  07 44  -21.0243 26008.1 -03506.5 -07.6785 26243.4
 13 11 2013  07 45  -21.0241 26008.1 -03506.5 -07.6786 26243.5
 13 11 2013  07 46  -21.0241 26008.1 -03506.6 -07.6787 26243.5
 13 11 2013  07 47  -21.0241 26008.2 -03506.6 -07.6788 26243.5
 13 11 2013  07 48  -21.0240 26008.2 -03506.7 -07.6789 26243.5
 13 11 2013  07 49  -21.0239 26008.2 -03506.7 -07.6789 26243.6
 13 11 2013  07 50  -21.0237 26008.1 -03506.7 -07.6789 26243.5
 13 11 2013  07 51  -21.0236 26008.0 -03506.6 -07.6788 26243.3
 13 11 2013  07 52  -21.0235 26007.9 -03506.6 -07.6787 26243.3
 13 11 2013  07 53  -21.0234 26008.0 -03506.6 -07.6788 26243.3
 13 11 2013  07 54  -21.0233 26008.2 -03506.8 -07.6790 26243.5
 13 11 2013  07 55  -21.0233 26008.2 -03506.8 -07.6792 26243.6
 13 11 2013  07 56  -21.0234 26008.3 -03506.9 -07.6793 26243.7
 13 11 2013  07 57  -21.0236 26008.4 -03507.0 -07.6795 26243.8
 13 11 2013  07 58  -21.0239 26008.5 -03507.0 -07.6795 26243.8
 13 11 2013  07 59  -21.0242 26008.6 -03507.1 -07.6796 26244.0
 13 11 2013  08 00  -21.0245 26008.5 -03507.1 -07.6796 26243.9
 13 11 2013  08 01  -21.0246 26008.5 -03507.1 -07.6796 26243.9
 13 11 2013  08 02  -21.0247 26008.4 -03507.0 -07.6795 26243.8
 13 11 2013  08 03  -21.0245 26008.3 -03506.8 -07.6792 26243.6
 13 11 2013  08 04  -21.0242 26008.1 -03506.7 -07.6789 26243.5
 13 11 2013  08 05  -21.0240 26008.1 -03506.6 -07.6787 26243.4
 13 11 2013  08 06  -21.0238 26008.0 -03506.5 -07.6786 26243.4
 13 11 2013  08 07  -21.0238 26008.0 -03506.5 -07.6785 26243.3
 13 11 2013  08 08  -21.0239 26008.0 -03506.5 -07.6785 26243.3
 13 11 2013  08 09  -21.0240 26008.0 -03506.5 -07.6785 26243.3
 13 11 2013  08 10  -21.0240 26008.1 -03506.5 -07.6785 26243.4
 13 11 2013  08 11  -21.0241 26008.1 -03506.5 -07.6785 26243.4
 13 11 2013  08 12  -21.0239 26008.2 -03506.5 -07.6785 26243.5
 13 11 2013  08 13  -21.0238 26008.2 -03506.5 -07.6784 26243.5
 13 11 2013  08 14  -21.0238 26008.1 -03506.4 -07.6783 26243.4
 13 11 2013  08 15  -21.0235 26008.2 -03506.4 -07.6782 26243.5
 13 11 2013  08 16  -21.0233 26008.3 -03506.4 -07.6782 26243.6
 13 11 2013  08 17  -21.0233 26008.2 -03506.3 -07.6781 26243.5
 13 11 2013  08 18  -21.0231 26008.3 -03506.3 -07.6780 26243.6
 13 11 2013  08 19  -21.0230 26008.4 -03506.3 -07.6780 26243.7
 13 11 2013  08 20  -21.0229 26008.3 -03506.2 -07.6779 26243.6
 13 11 2013  08 21  -21.0228 26008.4 -03506.2 -07.6778 26243.6
 13 11 2013  08 22  -21.0226 26008.3 -03506.2 -07.6777 26243.6
 13 11 2013  08 23  -21.0223 26008.2 -03506.1 -07.6775 26243.5
 13 11 2013  08 24  -21.0218 26008.2 -03505.9 -07.6772 26243.4
 13 11 2013  08 25  -21.0215 26008.1 -03505.8 -07.6770 26243.3
 13 11 2013  08 26  -21.0210 26007.9 -03505.8 -07.6770 26243.1
 13 11 2013  08 27  -21.0207 26007.7 -03505.6 -07.6767 26242.9
 13 11 2013  08 28  -21.0200 26007.6 -03505.6 -07.6767 26242.8
 13 11 2013  08 29  -21.0194 26007.4 -03505.5 -07.6766 26242.6
 13 11 2013  08 30  -21.0188 26007.4 -03505.6 -07.6766 26242.6
 13 11 2013  08 31  -21.0184 26007.2 -03505.6 -07.6768 26242.4
 13 11 2013  08 32  -21.0179 26007.3 -03505.6 -07.6769 26242.5
 13 11 2013  08 33  -21.0175 26007.0 -03505.7 -07.6770 26242.3
 13 11 2013  08 34  -21.0171 26007.1 -03505.8 -07.6772 26242.3
 13 11 2013  08 35  -21.0167 26007.1 -03505.9 -07.6775 26242.3
 13 11 2013  08 36  -21.0162 26007.1 -03506.0 -07.6777 26242.3
 13 11 2013  08 37  -21.0159 26007.1 -03506.2 -07.6782 26242.4
 13 11 2013  08 38  -21.0156 26007.2 -03506.3 -07.6784 26242.5
 13 11 2013  08 39  -21.0153 26007.3 -03506.5 -07.6788 26242.6
 13 11 2013  08 40  -21.0148 26007.4 -03506.7 -07.6792 26242.8
 13 11 2013  08 41  -21.0147 26007.4 -03506.8 -07.6793 26242.7
 13 11 2013  08 42  -21.0146 26007.5 -03507.0 -07.6798 26242.9
 13 11 2013  08 43  -21.0143 26007.5 -03507.2 -07.6802 26242.9
 13 11 2013  08 44  -21.0144 26007.6 -03507.4 -07.6805 26243.1
 13 11 2013  08 45  -21.0144 26007.8 -03507.6 -07.6809 26243.2
 13 11 2013  08 46  -21.0146 26007.9 -03507.8 -07.6813 26243.4
 13 11 2013  08 47  -21.0147 26008.0 -03507.9 -07.6816 26243.5
 13 11 2013  08 48  -21.0147 26008.0 -03508.0 -07.6817 26243.5
 13 11 2013  08 49  -21.0146 26008.1 -03508.1 -07.6819 26243.6
 13 11 2013  08 50  -21.0147 26008.1 -03508.1 -07.6821 26243.6
 13 11 2013  08 51  -21.0147 26008.1 -03508.2 -07.6822 26243.7
 13 11 2013  08 52  -21.0148 26008.2 -03508.3 -07.6824 26243.8
 13 11 2013  08 53  -21.0149 26008.3 -03508.4 -07.6826 26243.8
 13 11 2013  08 54  -21.0150 26008.3 -03508.5 -07.6828 26243.9
 13 11 2013  08 55  -21.0153 26008.4 -03508.7 -07.6831 26244.0
 13 11 2013  08 56  -21.0154 26008.6 -03508.8 -07.6833 26244.2
 13 11 2013  08 57  -21.0156 26008.7 -03508.9 -07.6834 26244.3
 13 11 2013  08 58  -21.0156 26008.8 -03509.0 -07.6837 26244.4
 13 11 2013  08 59  -21.0160 26009.0 -03509.1 -07.6839 26244.6
 13 11 2013  09 00  -21.0163 26009.1 -03509.3 -07.6842 26244.8
 13 11 2013  09 01  -21.0165 26009.3 -03509.4 -07.6843 26244.9
 13 11 2013  09 02  -21.0168 26009.4 -03509.4 -07.6844 26245.1
 13 11 2013  09 03  -21.0172 26009.4 -03509.5 -07.6846 26245.1
 13 11 2013  09 04  -21.0176 26009.6 -03509.6 -07.6847 26245.3
 13 11 2013  09 05  -21.0180 26009.9 -03509.7 -07.6849 26245.6
 13 11 2013  09 06  -21.0183 26010.0 -03509.7 -07.6849 26245.7
 13 11 2013  09 07  -21.0185 26010.2 -03509.7 -07.6849 26245.9
 13 11 2013  09 08  -21.0190 26010.5 -03509.9 -07.6851 26246.2
 13 11 2013  09 09  -21.0192 26010.7 -03510.0 -07.6852 26246.4
 13 11 2013  09 10  -21.0196 26010.8 -03510.0 -07.6853 26246.6
 13 11 2013  09 11  -21.0198 26010.9 -03509.9 -07.6851 26246.7
 13 11 2013  09 12  -21.0201 26010.9 -03510.0 -07.6852 26246.7
 13 11 2013  09 13  -21.0204 26011.0 -03510.0 -07.6853 26246.8
 13 11 2013  09 14  -21.0207 26011.0 -03510.0 -07.6853 26246.8
 13 11 2013  09 15  -21.0209 26011.2 -03510.1 -07.6853 26246.9
 13 11 2013  09 16  -21.0211 26011.3 -03510.1 -07.6854 26247.0
 13 11 2013  09 17  -21.0216 26011.3 -03510.2 -07.6855 26247.1
 13 11 2013  09 18  -21.0218 26011.5 -03510.2 -07.6855 26247.2
 13 11 2013  09 19  -21.0223 26011.6 -03510.3 -07.6856 26247.4
 13 11 2013  09 20  -21.0224 26011.7 -03510.3 -07.6856 26247.5
 13 11 2013  09 21  -21.0224 26011.7 -03510.2 -07.6855 26247.5
 13 11 2013  09 22  -21.0227 26011.9 -03510.3 -07.6855 26247.6
 13 11 2013  09 23  -21.0232 26012.1 -03510.4 -07.6857 26247.9
 13 11 2013  09 24  -21.0237 26012.4 -03510.4 -07.6858 26248.2
 13 11 2013  09 25  -21.0241 26012.6 -03510.5 -07.6857 26248.4
 13 11 2013  09 26  -21.0245 26012.7 -03510.5 -07.6857 26248.5
 13 11 2013  09 27  -21.0247 26012.9 -03510.5 -07.6856 26248.7
 13 11 2013  09 28  -21.0251 26012.9 -03510.4 -07.6856 26248.7
 13 11 2013  09 29  -21.0254 26013.0 -03510.4 -07.6856 26248.8
 13 11 2013  09 30  -21.0258 26013.0 -03510.5 -07.6857 26248.8
 13 11 2013  09 31  -21.0260 26013.1 -03510.5 -07.6857 26248.9
 13 11 2013  09 32  -21.0264 26013.2 -03510.6 -07.6858 26249.0
 13 11 2013  09 33  -21.0265 26013.3 -03510.6 -07.6858 26249.1
 13 11 2013  09 34  -21.0269 26013.4 -03510.7 -07.6859 26249.2
 13 11 2013  09 35  -21.0270 26013.5 -03510.7 -07.6861 26249.3
 13 11 2013  09 36  -21.0274 26013.6 -03510.8 -07.6862 26249.4
 13 11 2013  09 37  -21.0277 26013.7 -03510.9 -07.6863 26249.6
 13 11 2013  09 38  -21.0279 26013.8 -03510.9 -07.6864 26249.6
 13 11 2013  09 39  -21.0283 26013.9 -03511.0 -07.6865 26249.8
 13 11 2013  09 40  -21.0286 26014.0 -03511.0 -07.6864 26249.9
 13 11 2013  09 41  -21.0292 26014.2 -03510.9 -07.6862 26250.1
 13 11 2013  09 42  -21.0299 26014.4 -03511.1 -07.6866 26250.3
 13 11 2013  09 43  -21.0302 26014.6 -03511.2 -07.6867 26250.5
 13 11 2013  09 44  -21.0306 26014.7 -03511.2 -07.6867 26250.6
 13 11 2013  09 45  -21.0308 26014.8 -03511.2 -07.6866 26250.7
 13 11 2013  09 46  -21.0315 26014.9 -03511.2 -07.6867 26250.8
 13 11 2013  09 47  -21.0322 26015.2 -03511.3 -07.6868 26251.1
 13 11 2013  09 48  -21.0327 26015.3 -03511.3 -07.6867 26251.2
 13 11 2013  09 49  -21.0334 26015.5 -03511.3 -07.6867 26251.4
 13 11 2013  09 50  -21.0344 26015.9 -03511.4 -07.6868 26251.8
 13 11 2013  09 51  -21.0352 26016.2 -03511.4 -07.6867 26252.1
 13 11 2013  09 52  -21.0361 26016.6 -03511.4 -07.6867 26252.5
 13 11 2013  09 53  -21.0367 26016.9 -03511.5 -07.6867 26252.8
 13 11 2013  09 54  -21.0371 26017.2 -03511.4 -07.6865 26253.1
 13 11 2013  09 55  -21.0374 26017.2 -03511.3 -07.6863 26253.0
 13 11 2013  09 56  -21.0379 26017.4 -03511.3 -07.6861 26253.3
 13 11 2013  09 57  -21.0385 26017.7 -03511.3 -07.6861 26253.6
 13 11 2013  09 58  -21.0390 26018.0 -03511.3 -07.6860 26253.9
 13 11 2013  09 59  -21.0396 26018.3 -03511.3 -07.6858 26254.2
 13 11 2013  10 00  -21.0400 26018.5 -03511.2 -07.6856 26254.3
 13 11 2013  10 01  -21.0400 26018.5 -03511.1 -07.6853 26254.3
 13 11 2013  10 02  -21.0398 26018.4 -03510.9 -07.6850 26254.2
 13 11 2013  10 03  -21.0397 26018.3 -03510.8 -07.6847 26254.1
 13 11 2013  10 04  -21.0399 26018.6 -03510.8 -07.6848 26254.4
 13 11 2013  10 05  -21.0400 26018.9 -03510.9 -07.6848 26254.7
 13 11 2013  10 06  -21.0405 26019.2 -03511.0 -07.6849 26255.0
 13 11 2013  10 07  -21.0405 26019.5 -03511.0 -07.6848 26255.3
 13 11 2013  10 08  -21.0410 26019.6 -03510.9 -07.6847 26255.4
 13 11 2013  10 09  -21.0414 26019.7 -03510.9 -07.6846 26255.5
 13 11 2013  10 10  -21.0416 26019.7 -03510.8 -07.6844 26255.5
 13 11 2013  10 11  -21.0417 26019.6 -03510.7 -07.6842 26255.4
 13 11 2013  10 12  -21.0417 26019.7 -03510.7 -07.6841 26255.5
 13 11 2013  10 13  -21.0419 26019.8 -03510.7 -07.6842 26255.5
 13 11 2013  10 14  -21.0421 26019.8 -03510.7 -07.6841 26255.5
 13 11 2013  10 15  -21.0423 26019.8 -03510.7 -07.6841 26255.6
 13 11 2013  10 16  -21.0424 26020.0 -03510.7 -07.6842 26255.7
 13 11 2013  10 17  -21.0429 26020.3 -03510.8 -07.6843 26256.1
 13 11 2013  10 18  -21.0429 26020.6 -03510.9 -07.6843 26256.4
 13 11 2013  10 19  -21.0433 26021.1 -03511.0 -07.6843 26256.9
 13 11 2013  10 20  -21.0437 26021.5 -03511.0 -07.6844 26257.3
 13 11 2013  10 21  -21.0440 26021.9 -03511.0 -07.6842 26257.6
 13 11 2013  10 22  -21.0442 26022.0 -03510.9 -07.6840 26257.8
 13 11 2013  10 23  -21.0446 26022.2 -03510.8 -07.6838 26258.0
 13 11 2013  10 24  -21.0451 26022.3 -03510.8 -07.6836 26258.0
 13 11 2013  10 25  -21.0455 26022.4 -03510.7 -07.6835 26258.1
 13 11 2013  10 26  -21.0456 26022.6 -03510.7 -07.6833 26258.3
 13 11 2013  10 27  -21.0455 26022.8 -03510.6 -07.6832 26258.5
 13 11 2013  10 28  -21.0457 26023.1 -03510.7 -07.6831 26258.8
 13 11 2013  10 29  -21.0461 26023.4 -03510.7 -07.6831 26259.2
 13 11 2013  10 30  -21.0463 26023.7 -03510.6 -07.6829 26259.4
 13 11 2013  10 31  -21.0463 26023.9 -03510.5 -07.6826 26259.6
 13 11 2013  10 32  -21.0466 26024.2 -03510.5 -07.6825 26259.9
 13 11 2013  10 33  -21.0467 26024.4 -03510.5 -07.6824 26260.1
 13 11 2013  10 34  -21.0469 26024.7 -03510.4 -07.6822 26260.4
 13 11 2013  10 35  -21.0470 26024.9 -03510.4 -07.6819 26260.5
 13 11 2013  10 36  -21.0472 26025.1 -03510.3 -07.6817 26260.8
 13 11 2013  10 37  -21.0475 26025.3 -03510.2 -07.6815 26260.9
 13 11 2013  10 38  -21.0480 26025.4 -03510.1 -07.6812 26261.0
 13 11 2013  10 39  -21.0481 26025.6 -03510.0 -07.6809 26261.2
 13 11 2013  10 40  -21.0482 26025.8 -03509.9 -07.6806 26261.4
 13 11 2013  10 41  -21.0486 26025.9 -03509.7 -07.6803 26261.5
 13 11 2013  10 42  -21.0489 26026.1 -03509.6 -07.6800 26261.7
 13 11 2013  10 43  -21.0492 26026.1 -03509.4 -07.6796 26261.7
 13 11 2013  10 44  -21.0495 26026.1 -03509.3 -07.6792 26261.6
 13 11 2013  10 45  -21.0496 26025.9 -03509.1 -07.6789 26261.4
 13 11 2013  10 46  -21.0499 26025.9 -03509.0 -07.6787 26261.4
 13 11 2013  10 47  -21.0496 26025.9 -03508.8 -07.6783 26261.3
 13 11 2013  10 48  -21.0494 26026.0 -03508.7 -07.6781 26261.4
 13 11 2013  10 49  -21.0497 26026.1 -03508.7 -07.6781 26261.5
 13 11 2013  10 50  -21.0499 26026.3 -03508.7 -07.6779 26261.8
 13 11 2013  10 51  -21.0500 26026.6 -03508.7 -07.6778 26262.1
 13 11 2013  10 52  -21.0500 26027.2 -03508.7 -07.6777 26262.6
 13 11 2013  10 53  -21.0502 26027.6 -03508.7 -07.6776 26263.0
 13 11 2013  10 54  -21.0505 26028.0 -03508.6 -07.6773 26263.4
 13 11 2013  10 55  -21.0508 26028.3 -03508.5 -07.6770 26263.7
 13 11 2013  10 56  -21.0511 26028.5 -03508.4 -07.6766 26263.8
 13 11 2013  10 57  -21.0514 26028.7 -03508.3 -07.6763 26264.0
 13 11 2013  10 58  -21.0515 26028.9 -03508.2 -07.6761 26264.2
 13 11 2013  10 59  -21.0513 26029.0 -03508.0 -07.6757 26264.3
 13 11 2013  11 00  -21.0509 26029.1 -03507.9 -07.6753 26264.4
 13 11 2013  11 01  -21.0505 26029.3 -03507.8 -07.6751 26264.6
 13 11 2013  11 02  -21.0505 26029.7 -03507.8 -07.6750 26265.0
 13 11 2013  11 03  -21.0508 26030.3 -03507.9 -07.6750 26265.6
 13 11 2013  11 04  -21.0509 26030.7 -03507.8 -07.6748 26266.0
 13 11 2013  11 05  -21.0509 26030.9 -03507.7 -07.6744 26266.2
 13 11 2013  11 06  -21.0509 26031.2 -03507.6 -07.6742 26266.5
 13 11 2013  11 07  -21.0510 26031.5 -03507.6 -07.6740 26266.8
 13 11 2013  11 08  -21.0513 26031.8 -03507.5 -07.6737 26267.0
 13 11 2013  11 09  -21.0514 26031.8 -03507.4 -07.6734 26267.1
 13 11 2013  11 10  -21.0512 26032.0 -03507.3 -07.6732 26267.2
 13 11 2013  11 11  -21.0511 26032.3 -03507.3 -07.6731 26267.5
 13 11 2013  11 12  -21.0510 26032.5 -03507.2 -07.6728 26267.7
 13 11 2013  11 13  -21.0509 26032.7 -03507.2 -07.6727 26267.9
 13 11 2013  11 14  -21.0508 26032.9 -03507.2 -07.6727 26268.1
 13 11 2013  11 15  -21.0509 26033.2 -03507.1 -07.6726 26268.3
 13 11 2013  11 16  -21.0510 26033.4 -03507.1 -07.6724 26268.6
 13 11 2013  11 17  -21.0509 26033.7 -03507.2 -07.6724 26268.9
 13 11 2013  11 18  -21.0509 26034.1 -03507.2 -07.6724 26269.3
 13 11 2013  11 19  -21.0512 26034.5 -03507.2 -07.6724 26269.7
 13 11 2013  11 20  -21.0515 26034.9 -03507.3 -07.6723 26270.1
 13 11 2013  11 21  -21.0515 26035.1 -03507.2 -07.6721 26270.2
 13 11 2013  11 22  -21.0514 26035.3 -03507.2 -07.6720 26270.5
 13 11 2013  11 23  -21.0512 26035.6 -03507.2 -07.6719 26270.8
 13 11 2013  11 24  -21.0512 26035.9 -03507.1 -07.6717 26271.0
 13 11 2013  11 25  -21.0514 26036.2 -03507.2 -07.6717 26271.3
 13 11 2013  11 26  -21.0513 26036.5 -03507.2 -07.6717 26271.6
 13 11 2013  11 27  -21.0510 26036.7 -03507.1 -07.6715 26271.8
 13 11 2013  11 28  -21.0508 26036.9 -03507.1 -07.6715 26272.1
 13 11 2013  11 29  -21.0506 26037.3 -03507.2 -07.6716 26272.5
 13 11 2013  11 30  -21.0504 26037.8 -03507.3 -07.6716 26272.9
 13 11 2013  11 31  -21.0501 26038.3 -03507.4 -07.6716 26273.4
 13 11 2013  11 32  -21.0499 26038.9 -03507.5 -07.6716 26274.0
 13 11 2013  11 33  -21.0497 26039.6 -03507.6 -07.6716 26274.8
 13 11 2013  11 34  -21.0496 26040.5 -03507.6 -07.6715 26275.7
 13 11 2013  11 35  -21.0499 26041.4 -03507.7 -07.6714 26276.6
 13 11 2013  11 36  -21.0502 26042.3 -03507.8 -07.6713 26277.5
 13 11 2013  11 37  -21.0506 26043.2 -03507.8 -07.6710 26278.3
 13 11 2013  11 38  -21.0507 26044.2 -03507.8 -07.6707 26279.4
 13 11 2013  11 39  -21.0508 26045.2 -03507.8 -07.6704 26280.4
 13 11 2013  11 40  -21.0509 26045.7 -03507.5 -07.6698 26280.8
 13 11 2013  11 41  -21.0507 26045.8 -03507.2 -07.6690 26280.9
 13 11 2013  11 42  -21.0505 26046.2 -03507.0 -07.6685 26281.2
 13 11 2013  11 43  -21.0501 26046.6 -03506.9 -07.6681 26281.6
 13 11 2013  11 44  -21.0495 26046.9 -03506.7 -07.6676 26281.9
 13 11 2013  11 45  -21.0490 26047.0 -03506.5 -07.6672 26281.9
 13 11 2013  11 46  -21.0485 26047.3 -03506.4 -07.6668 26282.2
 13 11 2013  11 47  -21.0482 26047.5 -03506.3 -07.6667 26282.5
 13 11 2013  11 48  -21.0481 26047.9 -03506.3 -07.6665 26282.8
 13 11 2013  11 49  -21.0481 26048.4 -03506.3 -07.6664 26283.3
 13 11 2013  11 50  -21.0483 26048.6 -03506.3 -07.6662 26283.5
 13 11 2013  11 51  -21.0481 26048.8 -03506.1 -07.6658 26283.7
 13 11 2013  11 52  -21.0483 26049.1 -03506.1 -07.6656 26284.0
 13 11 2013  11 53  -21.0486 26049.4 -03506.1 -07.6656 26284.3
 13 11 2013  11 54  -21.0489 26049.8 -03506.1 -07.6654 26284.7
 13 11 2013  11 55  -21.0487 26050.2 -03506.0 -07.6652 26285.1
 13 11 2013  11 56  -21.0484 26050.6 -03506.0 -07.6649 26285.5
 13 11 2013  11 57  -21.0482 26051.2 -03506.0 -07.6648 26286.0
 13 11 2013  11 58  -21.0482 26051.5 -03505.9 -07.6645 26286.4
 13 11 2013  11 59  -21.0485 26052.0 -03505.8 -07.6642 26286.8
 13 11 2013  12 00  -21.0482 26052.4 -03505.8 -07.6640 26287.3
 13 11 2013  12 01  -21.0482 26052.6 -03505.6 -07.6635 26287.4
 13 11 2013  12 02  -21.0485 26052.8 -03505.5 -07.6632 26287.6
 13 11 2013  12 03  -21.0483 26053.0 -03505.3 -07.6629 26287.8
 13 11 2013  12 04  -21.0483 26053.2 -03505.2 -07.6626 26288.0
 13 11 2013  12 05  -21.0483 26053.5 -03505.2 -07.6625 26288.2
 13 11 2013  12 06  -21.0483 26053.8 -03505.1 -07.6622 26288.6
 13 11 2013  12 07  -21.0485 26054.2 -03505.1 -07.6621 26288.9
 13 11 2013  12 08  -21.0487 26054.5 -03505.0 -07.6618 26289.2
 13 11 2013  12 09  -21.0491 26054.7 -03504.9 -07.6615 26289.4
 13 11 2013  12 10  -21.0498 26055.1 -03504.9 -07.6613 26289.7
 13 11 2013  12 11  -21.0512 26055.1 -03504.8 -07.6611 26289.8
 13 11 2013  12 12  -21.0514 26055.3 -03504.6 -07.6607 26289.9
 13 11 2013  12 13  -21.0510 26055.5 -03504.4 -07.6602 26290.1
 13 11 2013  12 14  -21.0497 26055.8 -03504.2 -07.6597 26290.4
 13 11 2013  12 15  -21.0496 26055.6 -03504.0 -07.6593 26290.2
 13 11 2013  12 16  -21.0496 26055.4 -03503.8 -07.6588 26289.9
 13 11 2013  12 17  -21.0498 26055.1 -03503.6 -07.6584 26289.6
 13 11 2013  12 18  -21.0501 26055.0 -03503.4 -07.6582 26289.5
 13 11 2013  12 19  -21.0503 26055.3 -03503.4 -07.6581 26289.8
 13 11 2013  12 20  -21.0505 26055.5 -03503.4 -07.6579 26290.0
 13 11 2013  12 21  -21.0506 26055.6 -03503.2 -07.6576 26290.0
 13 11 2013  12 22  -21.0507 26055.9 -03503.2 -07.6575 26290.4
 13 11 2013  12 23  -21.0506 26056.3 -03503.2 -07.6573 26290.7
 13 11 2013  12 24  -21.0506 26056.4 -03503.0 -07.6569 26290.8
 13 11 2013  12 25  -21.0507 26056.8 -03503.0 -07.6567 26291.3
 13 11 2013  12 26  -21.0508 26057.0 -03502.8 -07.6563 26291.4
 13 11 2013  12 27  -21.0512 26057.2 -03502.8 -07.6561 26291.6
 13 11 2013  12 28  -21.0516 26057.6 -03502.7 -07.6558 26291.9
 13 11 2013  12 29  -21.0518 26058.0 -03502.6 -07.6555 26292.4
 13 11 2013  12 30  -21.0518 26057.9 -03502.3 -07.6548 26292.3
 13 11 2013  12 31  -21.0519 26058.4 -03502.2 -07.6546 26292.7
 13 11 2013  12 32  -21.0521 26058.9 -03502.2 -07.6545 26293.1
 13 11 2013  12 33  -21.0522 26059.2 -03502.1 -07.6540 26293.5
 13 11 2013  12 34  -21.0526 26059.2 -03501.7 -07.6533 26293.4
 13 11 2013  12 35  -21.0532 26059.3 -03501.5 -07.6528 26293.5
 13 11 2013  12 36  -21.0533 26059.1 -03501.2 -07.6522 26293.3
 13 11 2013  12 37  -21.0530 26059.0 -03501.0 -07.6517 26293.1
 13 11 2013  12 38  -21.0530 26058.7 -03500.6 -07.6511 26292.8
 13 11 2013  12 39  -21.0531 26058.8 -03500.5 -07.6508 26292.8
 13 11 2013  12 40  -21.0532 26058.4 -03500.2 -07.6502 26292.5
 13 11 2013  12 41  -21.0537 26058.4 -03500.1 -07.6500 26292.4
 13 11 2013  12 42  -21.0544 26058.9 -03500.1 -07.6500 26292.9
 13 11 2013  12 43  -21.0551 26059.3 -03500.1 -07.6498 26293.3
 13 11 2013  12 44  -21.0558 26059.9 -03500.1 -07.6496 26293.9
 13 11 2013  12 45  -21.0563 26060.3 -03500.0 -07.6492 26294.2
 13 11 2013  12 46  -21.0564 26060.6 -03499.8 -07.6487 26294.6
 13 11 2013  12 47  -21.0562 26061.4 -03499.7 -07.6483 26295.3
 13 11 2013  12 48  -21.0565 26061.4 -03499.4 -07.6476 26295.3
 13 11 2013  12 49  -21.0569 26061.2 -03499.0 -07.6468 26295.0
 13 11 2013  12 50  -21.0572 26061.1 -03498.6 -07.6461 26294.9
 13 11 2013  12 51  -21.0573 26061.4 -03498.5 -07.6456 26295.2
 13 11 2013  12 52  -21.0575 26061.7 -03498.3 -07.6451 26295.4
 13 11 2013  12 53  -21.0582 26061.8 -03498.0 -07.6445 26295.5
 13 11 2013  12 54  -21.0584 26062.2 -03497.9 -07.6441 26295.9
 13 11 2013  12 55  -21.0583 26062.5 -03497.6 -07.6435 26296.2
 13 11 2013  12 56  -21.0580 26063.2 -03497.6 -07.6432 26296.9
 13 11 2013  12 57  -21.0583 26063.2 -03497.3 -07.6425 26296.8
 13 11 2013  12 58  -21.0584 26063.0 -03496.9 -07.6418 26296.6
 13 11 2013  12 59  -21.0582 26063.2 -03496.6 -07.6412 26296.7
 13 11 2013  13 00  -21.0580 26063.3 -03496.3 -07.6405 26296.8
 13 11 2013  13 01  -21.0583 26064.1 -03496.4 -07.6403 26297.6
 13 11 2013  13 02  -21.0587 26064.3 -03496.1 -07.6397 26297.8
 13 11 2013  13 03  -21.0592 26065.1 -03496.1 -07.6395 26298.5
 13 11 2013  13 04  -21.0600 26065.2 -03495.8 -07.6388 26298.6
 13 11 2013  13 05  -21.0609 26065.8 -03495.7 -07.6384 26299.1
 13 11 2013  13 06  -21.0612 26066.3 -03495.5 -07.6378 26299.7
 13 11 2013  13 07  -21.0611 26066.4 -03495.1 -07.6369 26299.7
 13 11 2013  13 08  -21.0608 26066.6 -03494.8 -07.6362 26299.8
 13 11 2013  13 09  -21.0609 26066.9 -03494.6 -07.6357 26300.2
 13 11 2013  13 10  -21.0613 26067.2 -03494.4 -07.6351 26300.4
 13 11 2013  13 11  -21.0614 26067.1 -03494.0 -07.6343 26300.2
 13 11 2013  13 12  -21.0611 26066.8 -03493.6 -07.6335 26299.9
 13 11 2013  13 13  -21.0605 26067.2 -03493.5 -07.6332 26300.3
 13 11 2013  13 14  -21.0606 26068.0 -03493.6 -07.6332 26301.0
 13 11 2013  13 15  -21.0607 26068.1 -03493.3 -07.6326 26301.1
 13 11 2013  13 16  -21.0605 26067.7 -03492.8 -07.6316 26300.7
 13 11 2013  13 17  -21.0602 26067.7 -03492.5 -07.6309 26300.6
 13 11 2013  13 18  -21.0599 26068.0 -03492.3 -07.6305 26300.9
 13 11 2013  13 19  -21.0599 26068.5 -03492.3 -07.6303 26301.4
 13 11 2013  13 20  -21.0603 26068.8 -03492.2 -07.6300 26301.7
 13 11 2013  13 21  -21.0607 26069.3 -03492.1 -07.6296 26302.2
 13 11 2013  13 22  -21.0612 26069.9 -03492.1 -07.6293 26302.7
 13 11 2013  13 23  -21.0615 26070.1 -03491.8 -07.6287 26302.9
 13 11 2013  13 24  -21.0614 26069.9 -03491.3 -07.6277 26302.6
 13 11 2013  13 25  -21.0616 26070.0 -03491.1 -07.6272 26302.7
 13 11 2013  13 26  -21.0619 26070.6 -03491.1 -07.6271 26303.3
 13 11 2013  13 27  -21.0627 26070.8 -03491.0 -07.6267 26303.5
 13 11 2013  13 28  -21.0633 26071.2 -03490.8 -07.6262 26303.9
 13 11 2013  13 29  -21.0635 26071.2 -03490.4 -07.6254 26303.9
 13 11 2013  13 30  -21.0632 26070.8 -03489.9 -07.6243 26303.3
 13 11 2013  13 31  -21.0628 26070.5 -03489.4 -07.6235 26303.0
 13 11 2013  13 32  -21.0626 26070.4 -03489.1 -07.6229 26302.8
 13 11 2013  13 33  -21.0626 26070.2 -03488.8 -07.6223 26302.6
 13 11 2013  13 34  -21.0629 26070.3 -03488.7 -07.6219 26302.7
 13 11 2013  13 35  -21.0625 26069.8 -03488.2 -07.6210 26302.1
 13 11 2013  13 36  -21.0620 26069.1 -03487.8 -07.6203 26301.4
 13 11 2013  13 37  -21.0614 26068.7 -03487.5 -07.6198 26300.9
 13 11 2013  13 38  -21.0610 26068.5 -03487.3 -07.6195 26300.7
 13 11 2013  13 39  -21.0607 26067.8 -03487.0 -07.6190 26300.0
 13 11 2013  13 40  -21.0601 26066.8 -03486.5 -07.6183 26299.0
 13 11 2013  13 41  -21.0594 26066.4 -03486.4 -07.6180 26298.5
 13 11 2013  13 42  -21.0592 26066.3 -03486.3 -07.6180 26298.4
 13 11 2013  13 43  -21.0590 26066.4 -03486.3 -07.6180 26298.5
 13 11 2013  13 44  -21.0593 26067.2 -03486.6 -07.6184 26299.3
 13 11 2013  13 45  -21.0600 26067.8 -03486.7 -07.6184 26300.0
 13 11 2013  13 46  -21.0608 26068.2 -03486.6 -07.6181 26300.4
 13 11 2013  13 47  -21.0614 26069.0 -03486.7 -07.6180 26301.1
 13 11 2013  13 48  -21.0613 26068.7 -03486.2 -07.6169 26300.8
 13 11 2013  13 49  -21.0611 26068.6 -03485.8 -07.6161 26300.6
 13 11 2013  13 50  -21.0611 26068.6 -03485.5 -07.6156 26300.6
 13 11 2013  13 51  -21.0606 26069.0 -03485.3 -07.6151 26300.9
 13 11 2013  13 52  -21.0601 26068.8 -03485.0 -07.6144 26300.7
 13 11 2013  13 53  -21.0594 26068.7 -03484.6 -07.6137 26300.6
 13 11 2013  13 54  -21.0587 26068.9 -03484.4 -07.6132 26300.8
 13 11 2013  13 55  -21.0579 26069.0 -03484.2 -07.6126 26300.8
 13 11 2013  13 56  -21.0573 26069.1 -03484.0 -07.6121 26300.9
 13 11 2013  13 57  -21.0566 26069.3 -03483.8 -07.6117 26301.0
 13 11 2013  13 58  -21.0562 26069.6 -03483.7 -07.6113 26301.4
 13 11 2013  13 59  -21.0559 26070.2 -03483.6 -07.6109 26301.9
 13 11 2013  14 00  -21.0561 26070.8 -03483.5 -07.6106 26302.5
 13 11 2013  14 01  -21.0567 26071.4 -03483.4 -07.6101 26303.1
 13 11 2013  14 02  -21.0573 26071.7 -03483.0 -07.6094 26303.3
 13 11 2013  14 03  -21.0573 26071.9 -03482.7 -07.6085 26303.5
 13 11 2013  14 04  -21.0570 26072.2 -03482.4 -07.6077 26303.8
 13 11 2013  14 05  -21.0563 26072.4 -03482.0 -07.6069 26303.9
 13 11 2013  14 06  -21.0552 26072.4 -03481.6 -07.6060 26303.9
 13 11 2013  14 07  -21.0541 26072.3 -03481.1 -07.6050 26303.6
 13 11 2013  14 08  -21.0531 26072.2 -03480.8 -07.6043 26303.5
 13 11 2013  14 09  -21.0521 26072.0 -03480.4 -07.6035 26303.2
 13 11 2013  14 10  -21.0508 26071.8 -03480.0 -07.6028 26303.0
 13 11 2013  14 11  -21.0497 26071.6 -03479.7 -07.6022 26302.8
 13 11 2013  14 12  -21.0488 26071.6 -03479.5 -07.6018 26302.8
 13 11 2013  14 13  -21.0481 26071.7 -03479.3 -07.6013 26302.8
 13 11 2013  14 14  -21.0473 26071.6 -03479.1 -07.6009 26302.7
 13 11 2013  14 15  -21.0464 26071.5 -03478.9 -07.6004 26302.6
 13 11 2013  14 16  -21.0453 26071.5 -03478.7 -07.5999 26302.5
 13 11 2013  14 17  -21.0445 26071.3 -03478.4 -07.5995 26302.3
 13 11 2013  14 18  -21.0434 26071.3 -03478.2 -07.5991 26302.3
 13 11 2013  14 19  -21.0426 26071.3 -03478.1 -07.5988 26302.3
 13 11 2013  14 20  -21.0420 26071.4 -03478.0 -07.5986 26302.4
 13 11 2013  14 21  -21.0413 26071.7 -03478.0 -07.5985 26302.7
 13 11 2013  14 22  -21.0405 26071.6 -03477.8 -07.5980 26302.6
 13 11 2013  14 23  -21.0396 26071.4 -03477.5 -07.5974 26302.3
 13 11 2013  14 24  -21.0387 26071.2 -03477.3 -07.5971 26302.1
 13 11 2013  14 25  -21.0378 26070.9 -03477.1 -07.5968 26301.8
 13 11 2013  14 26  -21.0371 26070.8 -03477.0 -07.5965 26301.6
 13 11 2013  14 27  -21.0365 26070.8 -03476.9 -07.5963 26301.6
 13 11 2013  14 28  -21.0360 26071.0 -03476.9 -07.5962 26301.8
 13 11 2013  14 29  -21.0356 26071.1 -03476.8 -07.5960 26301.9
 13 11 2013  14 30  -21.0350 26071.3 -03476.7 -07.5957 26302.1
 13 11 2013  14 31  -21.0345 26071.2 -03476.5 -07.5954 26302.0
 13 11 2013  14 32  -21.0343 26071.1 -03476.3 -07.5949 26301.8
 13 11 2013  14 33  -21.0342 26071.0 -03476.1 -07.5945 26301.7
 13 11 2013  14 34  -21.0339 26071.1 -03475.9 -07.5942 26301.8
 13 11 2013  14 35  -21.0336 26071.0 -03475.8 -07.5938 26301.7
 13 11 2013  14 36  -21.0330 26071.0 -03475.6 -07.5934 26301.6
 13 11 2013  14 37  -21.0323 26070.8 -03475.3 -07.5929 26301.4
 13 11 2013  14 38  -21.0317 26070.7 -03475.1 -07.5925 26301.3
 13 11 2013  14 39  -21.0313 26070.8 -03475.0 -07.5922 26301.4
 13 11 2013  14 40  -21.0307 26070.7 -03474.8 -07.5918 26301.3
 13 11 2013  14 41  -21.0300 26070.3 -03474.5 -07.5912 26300.8
 13 11 2013  14 42  -21.0292 26069.9 -03474.2 -07.5908 26300.4
 13 11 2013  14 43  -21.0283 26069.4 -03474.0 -07.5904 26299.9
 13 11 2013  14 44  -21.0272 26069.3 -03473.9 -07.5903 26299.7
 13 11 2013  14 45  -21.0264 26069.2 -03473.9 -07.5903 26299.6
 13 11 2013  14 46  -21.0257 26069.2 -03473.8 -07.5901 26299.7
 13 11 2013  14 47  -21.0251 26069.3 -03473.8 -07.5900 26299.7
 13 11 2013  14 48  -21.0246 26069.1 -03473.6 -07.5897 26299.6
 13 11 2013  14 49  -21.0242 26069.2 -03473.5 -07.5895 26299.6
 13 11 2013  14 50  -21.0242 26069.3 -03473.5 -07.5894 26299.7
 13 11 2013  14 51  -21.0242 26069.3 -03473.4 -07.5891 26299.7
 13 11 2013  14 52  -21.0237 26069.4 -03473.3 -07.5889 26299.8
 13 11 2013  14 53  -21.0230 26069.3 -03473.1 -07.5885 26299.6
 13 11 2013  14 54  -21.0219 26068.9 -03472.8 -07.5880 26299.2
 13 11 2013  14 55  -21.0206 26068.4 -03472.5 -07.5876 26298.6
 13 11 2013  14 56  -21.0196 26067.9 -03472.4 -07.5874 26298.1
 13 11 2013  14 57  -21.0187 26067.6 -03472.4 -07.5875 26297.8
 13 11 2013  14 58  -21.0177 26067.4 -03472.4 -07.5877 26297.7
 13 11 2013  14 59  -21.0168 26067.0 -03472.4 -07.5876 26297.3
 13 11 2013  15 00  -21.0161 26066.6 -03472.3 -07.5876 26296.9
 13 11 2013  15 01  -21.0154 26066.6 -03472.4 -07.5878 26296.9
 13 11 2013  15 02  -21.0147 26066.8 -03472.4 -07.5879 26297.1
 13 11 2013  15 03  -21.0143 26066.9 -03472.5 -07.5879 26297.2
 13 11 2013  15 04  -21.0136 26066.8 -03472.4 -07.5877 26297.0
 13 11 2013  15 05  -21.0130 26066.9 -03472.5 -07.5879 26297.2
 13 11 2013  15 06  -21.0126 26067.0 -03472.5 -07.5880 26297.3
 13 11 2013  15 07  -21.0123 26067.0 -03472.5 -07.5879 26297.2
 13 11 2013  15 08  -21.0117 26066.7 -03472.4 -07.5878 26296.9
 13 11 2013  15 09  -21.0108 26066.3 -03472.2 -07.5876 26296.5
 13 11 2013  15 10  -21.0102 26066.0 -03472.2 -07.5875 26296.2
 13 11 2013  15 11  -21.0097 26065.9 -03472.2 -07.5875 26296.1
 13 11 2013  15 12  -21.0089 26066.0 -03472.2 -07.5876 26296.2
 13 11 2013  15 13  -21.0085 26066.3 -03472.3 -07.5877 26296.5
 13 11 2013  15 14  -21.0079 26066.5 -03472.2 -07.5874 26296.7
 13 11 2013  15 15  -21.0074 26066.5 -03472.1 -07.5871 26296.7
 13 11 2013  15 16  -21.0067 26066.7 -03471.9 -07.5867 26296.9
 13 11 2013  15 17  -21.0062 26067.3 -03471.7 -07.5862 26297.4
 13 11 2013  15 18  -21.0057 26067.7 -03471.5 -07.5857 26297.8
 13 11 2013  15 19  -21.0048 26067.9 -03471.3 -07.5851 26298.1
 13 11 2013  15 20  -21.0038 26068.3 -03471.2 -07.5847 26298.4
 13 11 2013  15 21  -21.0030 26068.5 -03471.0 -07.5844 26298.6
 13 11 2013  15 22  -21.0018 26068.4 -03470.8 -07.5839 26298.5
 13 11 2013  15 23  -21.0009 26068.4 -03470.8 -07.5838 26298.5
 13 11 2013  15 24  -21.0002 26068.2 -03470.7 -07.5838 26298.3
 13 11 2013  15 25  -20.9991 26067.9 -03470.7 -07.5838 26297.9
 13 11 2013  15 26  -20.9982 26067.9 -03470.8 -07.5840 26297.9
 13 11 2013  15 27  -20.9973 26067.8 -03470.9 -07.5843 26297.8
 13 11 2013  15 28  -20.9964 26067.5 -03471.0 -07.5845 26297.6
 13 11 2013  15 29  -20.9957 26067.5 -03471.3 -07.5851 26297.6
 13 11 2013  15 30  -20.9947 26067.1 -03471.4 -07.5855 26297.2
 13 11 2013  15 31  -20.9935 26066.5 -03471.4 -07.5857 26296.6
 13 11 2013  15 32  -20.9925 26066.0 -03471.6 -07.5863 26296.2
 13 11 2013  15 33  -20.9916 26065.7 -03471.9 -07.5870 26295.9
 13 11 2013  15 34  -20.9910 26065.5 -03472.3 -07.5879 26295.8
 13 11 2013  15 35  -20.9902 26065.2 -03472.6 -07.5886 26295.5
 13 11 2013  15 36  -20.9893 26064.8 -03472.8 -07.5893 26295.2
 13 11 2013  15 37  -20.9883 26064.3 -03473.1 -07.5899 26294.6
 13 11 2013  15 38  -20.9875 26063.6 -03473.3 -07.5906 26294.0
 13 11 2013  15 39  -20.9868 26062.8 -03473.5 -07.5913 26293.3
 13 11 2013  15 40  -20.9861 26062.4 -03473.9 -07.5922 26292.9
 13 11 2013  15 41  -20.9858 26062.1 -03474.3 -07.5932 26292.7
 13 11 2013  15 42  -20.9851 26061.6 -03474.6 -07.5940 26292.2
 13 11 2013  15 43  -20.9847 26061.4 -03475.0 -07.5950 26292.1
 13 11 2013  15 44  -20.9847 26061.3 -03475.5 -07.5961 26292.0
 13 11 2013  15 45  -20.9846 26061.0 -03475.9 -07.5970 26291.8
 13 11 2013  15 46  -20.9841 26060.7 -03476.2 -07.5977 26291.5
 13 11 2013  15 47  -20.9836 26060.3 -03476.5 -07.5985 26291.1
 13 11 2013  15 48  -20.9831 26059.9 -03476.7 -07.5992 26290.8
 13 11 2013  15 49  -20.9827 26059.5 -03477.1 -07.6000 26290.4
 13 11 2013  15 50  -20.9820 26059.1 -03477.4 -07.6007 26290.1
 13 11 2013  15 51  -20.9818 26059.0 -03477.8 -07.6017 26290.0
 13 11 2013  15 52  -20.9814 26058.7 -03478.2 -07.6026 26289.8
 13 11 2013  15 53  -20.9808 26058.3 -03478.5 -07.6033 26289.4
 13 11 2013  15 54  -20.9801 26057.7 -03478.7 -07.6040 26288.8
 13 11 2013  15 55  -20.9797 26057.0 -03479.0 -07.6049 26288.2
 13 11 2013  15 56  -20.9793 26056.3 -03479.3 -07.6057 26287.6
 13 11 2013  15 57  -20.9790 26055.9 -03479.7 -07.6067 26287.2
 13 11 2013  15 58  -20.9786 26055.6 -03480.2 -07.6078 26287.0
 13 11 2013  15 59  -20.9782 26055.4 -03480.7 -07.6089 26286.9
 13 11 2013  16 00  -20.9777 26055.4 -03481.2 -07.6101 26286.9
 13 11 2013  16 01  -20.9773 26055.2 -03481.7 -07.6111 26286.8
 13 11 2013  16 02  -20.9771 26055.0 -03482.1 -07.6122 26286.7
 13 11 2013  16 03  -20.9768 26054.7 -03482.5 -07.6131 26286.4
 13 11 2013  16 04  -20.9767 26054.4 -03482.9 -07.6140 26286.1
 13 11 2013  16 05  -20.9764 26053.9 -03483.2 -07.6148 26285.7
 13 11 2013  16 06  -20.9762 26053.6 -03483.6 -07.6157 26285.4
 13 11 2013  16 07  -20.9759 26053.0 -03483.9 -07.6165 26284.9
 13 11 2013  16 08  -20.9755 26052.5 -03484.2 -07.6174 26284.5
 13 11 2013  16 09  -20.9753 26052.1 -03484.6 -07.6184 26284.1
 13 11 2013  16 10  -20.9751 26051.8 -03485.0 -07.6193 26283.9
 13 11 2013  16 11  -20.9752 26051.6 -03485.5 -07.6204 26283.7
 13 11 2013  16 12  -20.9751 26051.2 -03485.8 -07.6213 26283.4
 13 11 2013  16 13  -20.9753 26050.9 -03486.2 -07.6222 26283.1
 13 11 2013  16 14  -20.9752 26050.5 -03486.6 -07.6231 26282.8
 13 11 2013  16 15  -20.9751 26050.2 -03487.0 -07.6241 26282.6
 13 11 2013  16 16  -20.9752 26050.1 -03487.5 -07.6252 26282.5
 13 11 2013  16 17  -20.9754 26049.8 -03487.9 -07.6262 26282.3
 13 11 2013  16 18  -20.9757 26049.4 -03488.2 -07.6270 26281.9
 13 11 2013  16 19  -20.9757 26049.0 -03488.6 -07.6280 26281.6
 13 11 2013  16 20  -20.9758 26048.7 -03489.0 -07.6288 26281.3
 13 11 2013  16 21  -20.9754 26048.3 -03489.3 -07.6297 26281.0
 13 11 2013  16 22  -20.9755 26047.8 -03489.7 -07.6305 26280.6
 13 11 2013  16 23  -20.9755 26047.4 -03490.0 -07.6314 26280.2
 13 11 2013  16 24  -20.9757 26047.3 -03490.5 -07.6325 26280.1
 13 11 2013  16 25  -20.9757 26047.2 -03491.0 -07.6336 26280.1
 13 11 2013  16 26  -20.9758 26047.0 -03491.4 -07.6345 26279.9
 13 11 2013  16 27  -20.9761 26046.9 -03491.8 -07.6355 26279.9
 13 11 2013  16 28  -20.9765 26046.5 -03492.2 -07.6364 26279.6
 13 11 2013  16 29  -20.9766 26046.2 -03492.5 -07.6372 26279.3
 13 11 2013  16 30  -20.9769 26046.0 -03493.0 -07.6382 26279.2
 13 11 2013  16 31  -20.9770 26045.8 -03493.4 -07.6391 26279.0
 13 11 2013  16 32  -20.9773 26045.5 -03493.7 -07.6400 26278.8
 13 11 2013  16 33  -20.9776 26045.2 -03494.1 -07.6408 26278.5
 13 11 2013  16 34  -20.9776 26044.8 -03494.4 -07.6416 26278.1
 13 11 2013  16 35  -20.9779 26044.5 -03494.8 -07.6426 26278.0
 13 11 2013  16 36  -20.9782 26044.3 -03495.2 -07.6435 26277.8
 13 11 2013  16 37  -20.9785 26044.1 -03495.6 -07.6444 26277.7
 13 11 2013  16 38  -20.9789 26043.9 -03495.9 -07.6453 26277.5
 13 11 2013  16 39  -20.9794 26043.6 -03496.3 -07.6462 26277.2
 13 11 2013  16 40  -20.9799 26043.4 -03496.7 -07.6470 26277.1
 13 11 2013  16 41  -20.9803 26043.0 -03497.0 -07.6477 26276.8
 13 11 2013  16 42  -20.9808 26042.8 -03497.3 -07.6486 26276.6
 13 11 2013  16 43  -20.9813 26042.7 -03497.7 -07.6494 26276.5
 13 11 2013  16 44  -20.9818 26042.4 -03498.1 -07.6503 26276.3
 13 11 2013  16 45  -20.9822 26042.2 -03498.4 -07.6511 26276.2
 13 11 2013  16 46  -20.9824 26041.9 -03498.8 -07.6519 26275.9
 13 11 2013  16 47  -20.9828 26041.5 -03499.0 -07.6526 26275.5
 13 11 2013  16 48  -20.9835 26041.3 -03499.5 -07.6536 26275.4
 13 11 2013  16 49  -20.9841 26041.0 -03499.8 -07.6544 26275.2
 13 11 2013  16 50  -20.9849 26040.8 -03500.2 -07.6553 26275.0
 13 11 2013  16 51  -20.9855 26040.7 -03500.6 -07.6562 26275.0
 13 11 2013  16 52  -20.9861 26040.5 -03500.9 -07.6570 26274.8
 13 11 2013  16 53  -20.9867 26040.4 -03501.2 -07.6577 26274.7
 13 11 2013  16 54  -20.9874 26040.2 -03501.6 -07.6585 26274.5
 13 11 2013  16 55  -20.9883 26039.9 -03501.9 -07.6592 26274.3
 13 11 2013  16 56  -20.9891 26039.5 -03502.2 -07.6600 26274.0
 13 11 2013  16 57  -20.9899 26039.3 -03502.5 -07.6607 26273.8
 13 11 2013  16 58  -20.9905 26039.0 -03502.6 -07.6612 26273.5
 13 11 2013  16 59  -20.9912 26038.7 -03502.9 -07.6619 26273.2
 13 11 2013  17 00  -20.9921 26038.5 -03503.2 -07.6626 26273.1
 13 11 2013  17 01  -20.9927 26038.3 -03503.4 -07.6631 26272.9
 13 11 2013  17 02  -20.9936 26038.1 -03503.7 -07.6636 26272.7
 13 11 2013  17 03  -20.9943 26038.0 -03503.9 -07.6641 26272.6
 13 11 2013  17 04  -20.9952 26037.7 -03504.1 -07.6646 26272.5
 13 11 2013  17 05  -20.9958 26037.4 -03504.1 -07.6648 26272.1
 13 11 2013  17 06  -20.9965 26037.1 -03504.3 -07.6652 26271.9
 13 11 2013  17 07  -20.9976 26037.0 -03504.4 -07.6656 26271.8
 13 11 2013  17 08  -20.9984 26036.9 -03504.6 -07.6660 26271.7
 13 11 2013  17 09  -20.9989 26036.6 -03504.7 -07.6662 26271.4
 13 11 2013  17 10  -20.9994 26036.4 -03504.8 -07.6665 26271.2
 13 11 2013  17 11  -20.9999 26036.3 -03504.9 -07.6669 26271.2
 13 11 2013  17 12  -21.0006 26036.0 -03505.0 -07.6672 26270.9
 13 11 2013  17 13  -21.0011 26035.9 -03505.2 -07.6675 26270.8
 13 11 2013  17 14  -21.0018 26035.9 -03505.3 -07.6679 26270.8
 13 11 2013  17 15  -21.0022 26035.6 -03505.4 -07.6681 26270.5
 13 11 2013  17 16  -21.0023 26035.4 -03505.4 -07.6683 26270.3
 13 11 2013  17 17  -21.0026 26035.1 -03505.5 -07.6684 26270.0
 13 11 2013  17 18  -21.0028 26034.8 -03505.5 -07.6686 26269.7
 13 11 2013  17 19  -21.0031 26034.6 -03505.7 -07.6690 26269.6
 13 11 2013  17 20  -21.0034 26034.4 -03505.8 -07.6693 26269.4
 13 11 2013  17 21  -21.0037 26034.1 -03505.8 -07.6694 26269.1
 13 11 2013  17 22  -21.0038 26033.9 -03505.9 -07.6698 26268.9
 13 11 2013  17 23  -21.0040 26033.7 -03506.1 -07.6701 26268.7
 13 11 2013  17 24  -21.0041 26033.5 -03506.1 -07.6703 26268.5
 13 11 2013  17 25  -21.0043 26033.4 -03506.3 -07.6707 26268.4
 13 11 2013  17 26  -21.0044 26033.1 -03506.4 -07.6711 26268.2
 13 11 2013  17 27  -21.0045 26033.1 -03506.6 -07.6715 26268.2
 13 11 2013  17 28  -21.0045 26033.0 -03506.8 -07.6719 26268.2
 13 11 2013  17 29  -21.0044 26032.9 -03507.0 -07.6722 26268.1
 13 11 2013  17 30  -21.0045 26032.7 -03507.1 -07.6726 26267.9
 13 11 2013  17 31  -21.0047 26032.6 -03507.3 -07.6730 26267.8
 13 11 2013  17 32  -21.0049 26032.4 -03507.5 -07.6735 26267.7
 13 11 2013  17 33  -21.0050 26032.4 -03507.7 -07.6739 26267.7
 13 11 2013  17 34  -21.0054 26032.3 -03507.9 -07.6744 26267.6
 13 11 2013  17 35  -21.0057 26032.3 -03508.1 -07.6748 26267.6
 13 11 2013  17 36  -21.0060 26032.3 -03508.3 -07.6752 26267.6
 13 11 2013  17 37  -21.0064 26032.2 -03508.4 -07.6756 26267.6
 13 11 2013  17 38  -21.0068 26032.1 -03508.6 -07.6759 26267.5
 13 11 2013  17 39  -21.0075 26031.9 -03508.6 -07.6762 26267.3
 13 11 2013  17 40  -21.0126 26031.4 -03508.4 -07.6759 26266.8
 13 11 2013  17 41  -21.0134 26031.4 -03508.6 -07.6763 26266.8
 13 11 2013  17 42  -21.0139 26031.3 -03508.8 -07.6768 26266.7
 13 11 2013  17 43  -21.0143 26031.1 -03508.9 -07.6769 26266.5
 13 11 2013  17 44  -21.0144 26030.9 -03508.9 -07.6771 26266.4
 13 11 2013  17 45  -21.0150 26030.9 -03509.0 -07.6774 26266.3
 13 11 2013  17 46  -21.0158 26030.8 -03509.2 -07.6777 26266.3
 13 11 2013  17 47  -21.0166 26030.6 -03509.3 -07.6780 26266.1
 13 11 2013  17 48  -21.0172 26030.4 -03509.3 -07.6781 26265.9
 13 11 2013  17 49  -21.0177 26030.2 -03509.4 -07.6783 26265.7
 13 11 2013  17 50  -21.0146 26030.2 -03509.7 -07.6789 26265.8
 13 11 2013  17 51  -21.0143 26030.3 -03509.9 -07.6794 26265.8
 13 11 2013  17 52  -21.0149 26030.1 -03509.9 -07.6795 26265.6
 13 11 2013  17 53  -21.0154 26029.8 -03510.0 -07.6796 26265.4
 13 11 2013  17 54  -21.0157 26029.6 -03510.0 -07.6799 26265.2
 13 11 2013  17 55  -21.0162 26029.6 -03510.1 -07.6801 26265.2
 13 11 2013  17 56  -21.0171 26029.5 -03510.2 -07.6803 26265.1
 13 11 2013  17 57  -21.0178 26029.3 -03510.2 -07.6803 26264.9
 13 11 2013  17 58  -21.0183 26029.1 -03510.1 -07.6801 26264.7
 13 11 2013  17 59  -21.0188 26029.1 -03510.1 -07.6802 26264.7
 13 11 2013  18 00  -21.0194 26029.0 -03510.1 -07.6803 26264.6
 13 11 2013  18 01  -21.0198 26029.0 -03510.1 -07.6802 26264.6
 13 11 2013  18 02  -21.0202 26028.9 -03510.1 -07.6802 26264.5
 13 11 2013  18 03  -21.0207 26028.7 -03510.1 -07.6802 26264.3
 13 11 2013  18 04  -21.0207 26028.5 -03509.9 -07.6799 26264.0
 13 11 2013  18 05  -21.0211 26028.4 -03509.9 -07.6799 26264.0
 13 11 2013  18 06  -21.0217 26028.5 -03510.0 -07.6802 26264.1
 13 11 2013  18 07  -21.0222 26028.5 -03510.1 -07.6803 26264.1
 13 11 2013  18 08  -21.0228 26028.2 -03510.0 -07.6802 26263.8
 13 11 2013  18 09  -21.0232 26028.1 -03510.0 -07.6801 26263.7
 13 11 2013  18 10  -21.0235 26028.0 -03509.9 -07.6801 26263.5
 13 11 2013  18 11  -21.0237 26027.8 -03509.8 -07.6800 26263.3
 13 11 2013  18 12  -21.0241 26027.5 -03509.8 -07.6799 26263.1
 13 11 2013  18 13  -21.0244 26027.4 -03509.8 -07.6799 26263.0
 13 11 2013  18 14  -21.0248 26027.4 -03509.8 -07.6799 26263.0
 13 11 2013  18 15  -21.0254 26027.3 -03509.7 -07.6799 26262.9
 13 11 2013  18 16  -21.0257 26027.2 -03509.6 -07.6797 26262.7
 13 11 2013  18 17  -21.0263 26027.0 -03509.6 -07.6797 26262.6
 13 11 2013  18 18  -21.0269 26027.0 -03509.6 -07.6797 26262.5
 13 11 2013  18 19  -21.0272 26026.7 -03509.5 -07.6795 26262.2
 13 11 2013  18 20  -21.0275 26026.6 -03509.4 -07.6793 26262.1
 13 11 2013  18 21  -21.0280 26026.5 -03509.4 -07.6793 26262.1
 13 11 2013  18 22  -21.0283 26026.5 -03509.3 -07.6792 26262.0
 13 11 2013  18 23  -21.0285 26026.2 -03509.2 -07.6790 26261.7
 13 11 2013  18 24  -21.0289 26026.0 -03509.1 -07.6789 26261.6
 13 11 2013  18 25  -21.0293 26025.9 -03509.1 -07.6789 26261.4
 13 11 2013  18 26  -21.0296 26025.7 -03509.0 -07.6787 26261.2
 13 11 2013  18 27  -21.0300 26025.5 -03508.9 -07.6787 26261.0
 13 11 2013  18 28  -21.0303 26025.4 -03508.8 -07.6785 26260.9
 13 11 2013  18 29  -21.0307 26025.4 -03508.8 -07.6785 26260.8
 13 11 2013  18 30  -21.0310 26025.3 -03508.8 -07.6784 26260.8
 13 11 2013  18 31  -21.0312 26025.2 -03508.7 -07.6783 26260.6
 13 11 2013  18 32  -21.0313 26025.0 -03508.6 -07.6780 26260.4
 13 11 2013  18 33  -21.0315 26024.8 -03508.5 -07.6779 26260.3
 13 11 2013  18 34  -21.0318 26024.7 -03508.4 -07.6778 26260.1
 13 11 2013  18 35  -21.0319 26024.5 -03508.4 -07.6778 26259.9
 13 11 2013  18 36  -21.0322 26024.3 -03508.3 -07.6776 26259.7
 13 11 2013  18 37  -21.0322 26024.2 -03508.2 -07.6775 26259.6
 13 11 2013  18 38  -21.0323 26023.9 -03508.1 -07.6773 26259.3
 13 11 2013  18 39  -21.0325 26023.8 -03508.1 -07.6773 26259.2
 13 11 2013  18 40  -21.0328 26023.7 -03508.0 -07.6772 26259.1
 13 11 2013  18 41  -21.0331 26023.7 -03508.0 -07.6771 26259.1
 13 11 2013  18 42  -21.0334 26023.8 -03508.0 -07.6771 26259.1
 13 11 2013  18 43  -21.0338 26023.7 -03507.9 -07.6769 26259.1
 13 11 2013  18 44  -21.0341 26023.8 -03507.8 -07.6768 26259.2
 13 11 2013  18 45  -21.0345 26023.7 -03507.8 -07.6766 26259.1
 13 11 2013  18 46  -21.0348 26023.7 -03507.7 -07.6766 26259.0
 13 11 2013  18 47  -21.0352 26023.6 -03507.6 -07.6764 26259.0
 13 11 2013  18 48  -21.0354 26023.5 -03507.6 -07.6763 26258.8
 13 11 2013  18 49  -21.0356 26023.5 -03507.5 -07.6761 26258.8
 13 11 2013  18 50  -21.0359 26023.5 -03507.5 -07.6761 26258.8
 13 11 2013  18 51  -21.0362 26023.5 -03507.4 -07.6760 26258.8
 13 11 2013  18 52  -21.0365 26023.5 -03507.4 -07.6759 26258.8
 13 11 2013  18 53  -21.0367 26023.6 -03507.3 -07.6757 26258.8
 13 11 2013  18 54  -21.0369 26023.5 -03507.2 -07.6755 26258.8
 13 11 2013  18 55  -21.0371 26023.5 -03507.1 -07.6754 26258.7
 13 11 2013  18 56  -21.0373 26023.5 -03507.1 -07.6753 26258.8
 13 11 2013  18 57  -21.0373 26023.6 -03507.1 -07.6752 26258.8
 13 11 2013  18 58  -21.0375 26023.5 -03507.0 -07.6750 26258.7
 13 11 2013  18 59  -21.0376 26023.3 -03506.8 -07.6748 26258.5
 13 11 2013  19 00  -21.0379 26023.3 -03506.8 -07.6746 26258.5
 13 11 2013  19 01  -21.0379 26023.3 -03506.7 -07.6744 26258.5
 13 11 2013  19 02  -21.0382 26023.4 -03506.6 -07.6743 26258.6
 13 11 2013  19 03  -21.0384 26023.4 -03506.5 -07.6741 26258.6
 13 11 2013  19 04  -21.0385 26023.4 -03506.5 -07.6739 26258.6
 13 11 2013  19 05  -21.0387 26023.4 -03506.4 -07.6738 26258.5
 13 11 2013  19 06  -21.0389 26023.4 -03506.3 -07.6736 26258.6
 13 11 2013  19 07  -21.0391 26023.5 -03506.3 -07.6735 26258.6
 13 11 2013  19 08  -21.0392 26023.5 -03506.2 -07.6733 26258.6
 13 11 2013  19 09  -21.0393 26023.5 -03506.1 -07.6732 26258.6
 13 11 2013  19 10  -21.0395 26023.6 -03506.1 -07.6730 26258.7
 13 11 2013  19 11  -21.0395 26023.7 -03506.0 -07.6729 26258.8
 13 11 2013  19 12  -21.0396 26023.7 -03505.9 -07.6727 26258.8
 13 11 2013  19 13  -21.0397 26023.7 -03505.8 -07.6725 26258.7
 13 11 2013  19 14  -21.0397 26023.6 -03505.8 -07.6724 26258.7
 13 11 2013  19 15  -21.0397 26023.7 -03505.7 -07.6721 26258.7
 13 11 2013  19 16  -21.0397 26023.7 -03505.6 -07.6720 26258.8
 13 11 2013  19 17  -21.0397 26023.7 -03505.5 -07.6718 26258.8
 13 11 2013  19 18  -21.0396 26023.8 -03505.4 -07.6715 26258.8
 13 11 2013  19 19  -21.0396 26023.9 -03505.3 -07.6713 26258.9
 13 11 2013  19 20  -21.0397 26023.9 -03505.3 -07.6713 26258.9
 13 11 2013  19 21  -21.0396 26023.9 -03505.2 -07.6710 26258.9
 13 11 2013  19 22  -21.0397 26024.0 -03505.0 -07.6707 26259.0
 13 11 2013  19 23  -21.0396 26024.0 -03505.0 -07.6705 26259.0
 13 11 2013  19 24  -21.0395 26024.0 -03504.8 -07.6702 26258.9
 13 11 2013  19 25  -21.0393 26023.9 -03504.7 -07.6700 26258.9
 13 11 2013  19 26  -21.0392 26024.0 -03504.6 -07.6697 26258.9
 13 11 2013  19 27  -21.0391 26024.0 -03504.5 -07.6695 26258.9
 13 11 2013  19 28  -21.0390 26024.1 -03504.4 -07.6693 26259.0
 13 11 2013  19 29  -21.0388 26024.1 -03504.3 -07.6690 26259.0
 13 11 2013  19 30  -21.0385 26024.1 -03504.2 -07.6688 26258.9
 13 11 2013  19 31  -21.0382 26024.1 -03504.0 -07.6685 26258.9
 13 11 2013  19 32  -21.0379 26024.1 -03504.0 -07.6684 26259.0
 13 11 2013  19 33  -21.0376 26024.2 -03503.9 -07.6682 26259.0
 13 11 2013  19 34  -21.0372 26024.3 -03503.9 -07.6681 26259.2
 13 11 2013  19 35  -21.0369 26024.5 -03503.8 -07.6679 26259.3
 13 11 2013  19 36  -21.0366 26024.5 -03503.8 -07.6678 26259.3
 13 11 2013  19 37  -21.0362 26024.7 -03503.7 -07.6677 26259.5
 13 11 2013  19 38  -21.0358 26024.8 -03503.7 -07.6675 26259.6
 13 11 2013  19 39  -21.0355 26024.9 -03503.6 -07.6673 26259.6
 13 11 2013  19 40  -21.0364 26024.9 -03503.4 -07.6669 26259.7
 13 11 2013  19 41  -21.0398 26024.6 -03503.1 -07.6664 26259.3
 13 11 2013  19 42  -21.0402 26024.4 -03503.2 -07.6665 26259.1
 13 11 2013  19 43  -21.0396 26024.6 -03502.9 -07.6659 26259.3
 13 11 2013  19 44  -21.0391 26024.8 -03502.8 -07.6656 26259.4
 13 11 2013  19 45  -21.0390 26024.8 -03502.7 -07.6653 26259.4
 13 11 2013  19 46  -21.0389 26024.9 -03502.6 -07.6652 26259.5
 13 11 2013  19 47  -21.0388 26024.9 -03502.5 -07.6650 26259.5
 13 11 2013  19 48  -21.0361 26024.9 -03502.6 -07.6653 26259.5
 13 11 2013  19 49  -21.0344 26025.1 -03502.8 -07.6655 26259.8
 13 11 2013  19 50  -21.0344 26025.3 -03502.8 -07.6655 26260.0
 13 11 2013  19 51  -21.0344 26025.3 -03502.8 -07.6654 26260.0
 13 11 2013  19 52  -21.0343 26025.2 -03502.6 -07.6651 26259.9
 13 11 2013  19 53  -21.0342 26025.1 -03502.5 -07.6649 26259.8
 13 11 2013  19 54  -21.0341 26025.0 -03502.4 -07.6647 26259.7
 13 11 2013  19 55  -21.0341 26025.0 -03502.3 -07.6645 26259.6
 13 11 2013  19 56  -21.0340 26025.0 -03502.3 -07.6645 26259.6
 13 11 2013  19 57  -21.0339 26024.9 -03502.2 -07.6643 26259.5
 13 11 2013  19 58  -21.0338 26024.8 -03502.1 -07.6641 26259.4
 13 11 2013  19 59  -21.0337 26024.7 -03502.0 -07.6640 26259.3
 13 11 2013  20 00  -21.0336 26024.7 -03502.0 -07.6639 26259.2
 13 11 2013  20 01  -21.0335 26024.8 -03502.0 -07.6639 26259.4
 13 11 2013  20 02  -21.0334 26025.0 -03502.0 -07.6639 26259.5
 13 11 2013  20 03  -21.0333 26025.0 -03502.0 -07.6639 26259.6
 13 11 2013  20 04  -21.0332 26025.0 -03502.0 -07.6639 26259.6
 13 11 2013  20 05  -21.0330 26025.1 -03502.0 -07.6639 26259.7
 13 11 2013  20 06  -21.0328 26025.2 -03502.0 -07.6638 26259.8
 13 11 2013  20 07  -21.0326 26025.1 -03501.9 -07.6637 26259.7
 13 11 2013  20 08  -21.0326 26025.0 -03501.9 -07.6636 26259.6
 13 11 2013  20 09  -21.0324 26025.0 -03501.8 -07.6635 26259.5
 13 11 2013  20 10  -21.0323 26024.9 -03501.8 -07.6634 26259.4
 13 11 2013  20 11  -21.0320 26024.8 -03501.7 -07.6632 26259.3
 13 11 2013  20 12  -21.0319 26024.7 -03501.6 -07.6631 26259.3
 13 11 2013  20 13  -21.0315 26024.7 -03501.6 -07.6631 26259.2
 13 11 2013  20 14  -21.0313 26024.8 -03501.6 -07.6630 26259.3
 13 11 2013  20 15  -21.0309 26024.9 -03501.7 -07.6631 26259.4
 13 11 2013  20 16  -21.0305 26024.9 -03501.6 -07.6630 26259.4
 13 11 2013  20 17  -21.0303 26024.9 -03501.6 -07.6631 26259.4
 13 11 2013  20 18  -21.0300 26025.0 -03501.7 -07.6632 26259.5
 13 11 2013  20 19  -21.0297 26025.0 -03501.7 -07.6632 26259.6
 13 11 2013  20 20  -21.0292 26025.1 -03501.8 -07.6633 26259.6
 13 11 2013  20 21  -21.0287 26025.2 -03501.8 -07.6633 26259.8
 13 11 2013  20 22  -21.0284 26025.4 -03501.8 -07.6634 26259.9
 13 11 2013  20 23  -21.0282 26025.3 -03501.8 -07.6633 26259.8
 13 11 2013  20 24  -21.0279 26025.2 -03501.8 -07.6633 26259.7
 13 11 2013  20 25  -21.0275 26025.1 -03501.7 -07.6632 26259.7
 13 11 2013  20 26  -21.0273 26025.1 -03501.7 -07.6632 26259.6
 13 11 2013  20 27  -21.0269 26025.1 -03501.7 -07.6632 26259.7
 13 11 2013  20 28  -21.0267 26025.2 -03501.8 -07.6633 26259.7
 13 11 2013  20 29  -21.0265 26025.0 -03501.7 -07.6632 26259.6
 13 11 2013  20 30  -21.0263 26025.0 -03501.7 -07.6631 26259.5
 13 11 2013  20 31  -21.0261 26024.9 -03501.7 -07.6632 26259.5
 13 11 2013  20 32  -21.0260 26024.8 -03501.6 -07.6631 26259.3
 13 11 2013  20 33  -21.0258 26024.7 -03501.6 -07.6630 26259.3
 13 11 2013  20 34  -21.0255 26024.9 -03501.6 -07.6631 26259.4
 13 11 2013  20 35  -21.0252 26025.1 -03501.7 -07.6633 26259.6
 13 11 2013  20 36  -21.0248 26025.3 -03501.8 -07.6633 26259.8
 13 11 2013  20 37  -21.0244 26025.5 -03501.9 -07.6635 26260.0
 13 11 2013  20 38  -21.0241 26025.6 -03502.0 -07.6637 26260.2
 13 11 2013  20 39  -21.0237 26025.9 -03502.1 -07.6638 26260.4
 13 11 2013  20 40  -21.0234 26026.0 -03502.1 -07.6638 26260.5
 13 11 2013  20 41  -21.0230 26026.0 -03502.1 -07.6637 26260.6
 13 11 2013  20 42  -21.0226 26026.1 -03502.1 -07.6637 26260.7
 13 11 2013  20 43  -21.0222 26026.1 -03502.1 -07.6637 26260.7
 13 11 2013  20 44  -21.0218 26026.1 -03502.0 -07.6636 26260.7
 13 11 2013  20 45  -21.0214 26026.1 -03502.0 -07.6636 26260.6
 13 11 2013  20 46  -21.0210 26026.1 -03502.0 -07.6635 26260.6
 13 11 2013  20 47  -21.0206 26026.1 -03502.0 -07.6634 26260.6
 13 11 2013  20 48  -21.0202 26026.0 -03501.9 -07.6633 26260.5
 13 11 2013  20 49  -21.0198 26025.8 -03501.8 -07.6632 26260.3
 13 11 2013  20 50  -21.0195 26025.7 -03501.9 -07.6633 26260.2
 13 11 2013  20 51  -21.0191 26025.5 -03501.8 -07.6633 26260.1
 13 11 2013  20 52  -21.0188 26025.4 -03501.9 -07.6634 26259.9
 13 11 2013  20 53  -21.0186 26025.1 -03501.8 -07.6635 26259.6
 13 11 2013  20 54  -21.0185 26024.8 -03501.9 -07.6636 26259.4
 13 11 2013  20 55  -21.0185 26024.6 -03501.9 -07.6637 26259.2
 13 11 2013  20 56  -21.0185 26024.3 -03501.9 -07.6638 26258.9
 13 11 2013  20 57  -21.0186 26024.0 -03501.9 -07.6639 26258.5
 13 11 2013  20 58  -21.0190 26023.7 -03501.9 -07.6640 26258.3
 13 11 2013  20 59  -21.0191 26023.4 -03501.9 -07.6641 26258.0
 13 11 2013  21 00  -21.0194 26023.0 -03501.9 -07.6642 26257.6
 13 11 2013  21 01  -21.0199 26022.6 -03501.8 -07.6642 26257.1
 13 11 2013  21 02  -21.0204 26022.2 -03501.8 -07.6642 26256.8
 13 11 2013  21 03  -21.0208 26021.9 -03501.8 -07.6643 26256.4
 13 11 2013  21 04  -21.0212 26021.6 -03501.8 -07.6643 26256.2
 13 11 2013  21 05  -21.0216 26021.3 -03501.7 -07.6643 26255.9
 13 11 2013  21 06  -21.0222 26021.0 -03501.7 -07.6643 26255.6
 13 11 2013  21 07  -21.0226 26020.8 -03501.6 -07.6643 26255.4
 13 11 2013  21 08  -21.0230 26020.7 -03501.6 -07.6643 26255.2
 13 11 2013  21 09  -21.0233 26020.5 -03501.6 -07.6643 26255.1
 13 11 2013  21 10  -21.0232 26020.5 -03501.6 -07.6644 26255.0
 13 11 2013  21 11  -21.0231 26020.4 -03501.6 -07.6644 26255.0
 13 11 2013  21 12  -21.0228 26020.3 -03501.7 -07.6645 26254.9
 13 11 2013  21 13  -21.0225 26020.2 -03501.6 -07.6644 26254.8
 13 11 2013  21 14  -21.0220 26020.2 -03501.7 -07.6646 26254.8
 13 11 2013  21 15  -21.0216 26020.1 -03501.8 -07.6648 26254.6
 13 11 2013  21 16  -21.0212 26019.9 -03501.8 -07.6648 26254.4
 13 11 2013  21 17  -21.0208 26019.8 -03501.8 -07.6650 26254.4
 13 11 2013  21 18  -21.0204 26019.7 -03501.9 -07.6651 26254.2
 13 11 2013  21 19  -21.0199 26019.5 -03501.7 -07.6649 26254.1
 13 11 2013  21 20  -21.0197 26019.4 -03502.0 -07.6654 26254.0
 13 11 2013  21 21  -21.0194 26019.4 -03502.1 -07.6657 26254.0
 13 11 2013  21 22  -21.0191 26019.3 -03502.2 -07.6659 26253.9
 13 11 2013  21 23  -21.0189 26019.2 -03502.3 -07.6661 26253.8
 13 11 2013  21 24  -21.0187 26019.0 -03502.3 -07.6663 26253.7
 13 11 2013  21 25  -21.0184 26019.0 -03502.4 -07.6665 26253.6
 13 11 2013  21 26  -21.0182 26018.9 -03502.5 -07.6666 26253.6
 13 11 2013  21 27  -21.0181 26018.9 -03502.6 -07.6668 26253.5
 13 11 2013  21 28  -21.0180 26018.9 -03502.7 -07.6672 26253.6
 13 11 2013  21 29  -21.0180 26018.8 -03502.8 -07.6674 26253.5
 13 11 2013  21 30  -21.0179 26018.8 -03502.9 -07.6675 26253.5
 13 11 2013  21 31  -21.0179 26018.7 -03503.0 -07.6678 26253.5
 13 11 2013  21 32  -21.0178 26018.7 -03503.0 -07.6679 26253.4
 13 11 2013  21 33  -21.0178 26018.6 -03503.1 -07.6680 26253.3
 13 11 2013  21 34  -21.0178 26018.5 -03503.1 -07.6681 26253.2
 13 11 2013  21 35  -21.0178 26018.4 -03503.1 -07.6682 26253.2
 13 11 2013  21 36  -21.0177 26018.3 -03503.2 -07.6683 26253.1
 13 11 2013  21 37  -21.0176 26018.3 -03503.2 -07.6684 26253.1
 13 11 2013  21 38  -21.0176 26018.2 -03503.3 -07.6685 26253.0
 13 11 2013  21 39  -21.0175 26018.2 -03503.3 -07.6686 26253.0
 13 11 2013  21 40  -21.0174 26018.1 -03503.3 -07.6686 26252.9
 13 11 2013  21 41  -21.0173 26018.1 -03503.3 -07.6687 26252.9
 13 11 2013  21 42  -21.0172 26018.1 -03503.4 -07.6689 26252.9
 13 11 2013  21 43  -21.0170 26018.0 -03503.4 -07.6689 26252.8
 13 11 2013  21 44  -21.0170 26017.9 -03503.5 -07.6691 26252.8
 13 11 2013  21 45  -21.0169 26017.9 -03503.5 -07.6691 26252.7
 13 11 2013  21 46  -21.0168 26017.8 -03503.5 -07.6693 26252.6
 13 11 2013  21 47  -21.0166 26017.8 -03503.5 -07.6693 26252.6
 13 11 2013  21 48  -21.0165 26017.7 -03503.6 -07.6693 26252.6
 13 11 2013  21 49  -21.0165 26017.7 -03503.6 -07.6695 26252.5
 13 11 2013  21 50  -21.0164 26017.6 -03503.6 -07.6695 26252.4
 13 11 2013  21 51  -21.0163 26017.5 -03503.6 -07.6695 26252.4
 13 11 2013  21 52  -21.0163 26017.4 -03503.6 -07.6696 26252.3
 13 11 2013  21 53  -21.0162 26017.3 -03503.6 -07.6696 26252.2
 13 11 2013  21 54  -21.0161 26017.2 -03503.6 -07.6696 26252.1
 13 11 2013  21 55  -21.0161 26017.1 -03503.7 -07.6697 26252.0
 13 11 2013  21 56  -21.0161 26017.1 -03503.7 -07.6697 26252.0
 13 11 2013  21 57  -21.0160 26017.0 -03503.7 -07.6697 26251.9
 13 11 2013  21 58  -21.0159 26016.9 -03503.7 -07.6698 26251.8
 13 11 2013  21 59  -21.0158 26016.8 -03503.7 -07.6698 26251.7
 13 11 2013  22 00  -21.0158 26016.7 -03503.7 -07.6698 26251.6
 13 11 2013  22 01  -21.0158 26016.7 -03503.7 -07.6698 26251.5
 13 11 2013  22 02  -21.0158 26016.6 -03503.6 -07.6698 26251.5
 13 11 2013  22 03  -21.0156 26016.5 -03503.6 -07.6698 26251.4
 13 11 2013  22 04  -21.0156 26016.4 -03503.7 -07.6699 26251.3
 13 11 2013  22 05  -21.0156 26016.3 -03503.6 -07.6699 26251.1
 13 11 2013  22 06  -21.0155 26016.2 -03503.6 -07.6698 26251.0
 13 11 2013  22 07  -21.0156 26016.1 -03503.6 -07.6699 26250.9
 13 11 2013  22 08  -21.0154 26016.0 -03503.6 -07.6699 26250.8
 13 11 2013  22 09  -21.0154 26015.9 -03503.5 -07.6698 26250.7
 13 11 2013  22 10  -21.0154 26015.8 -03503.5 -07.6698 26250.6
 13 11 2013  22 11  -21.0154 26015.7 -03503.6 -07.6699 26250.6
 13 11 2013  22 12  -21.0153 26015.6 -03503.6 -07.6700 26250.5
 13 11 2013  22 13  -21.0153 26015.6 -03503.6 -07.6700 26250.4
 13 11 2013  22 14  -21.0153 26015.6 -03503.6 -07.6700 26250.4
 13 11 2013  22 15  -21.0151 26015.6 -03503.6 -07.6701 26250.4
 13 11 2013  22 16  -21.0151 26015.6 -03503.6 -07.6701 26250.4
 13 11 2013  22 17  -21.0150 26015.6 -03503.7 -07.6703 26250.4
 13 11 2013  22 18  -21.0150 26015.6 -03503.8 -07.6704 26250.5
 13 11 2013  22 19  -21.0149 26015.6 -03503.8 -07.6704 26250.5
 13 11 2013  22 20  -21.0149 26015.6 -03503.8 -07.6705 26250.4
 13 11 2013  22 21  -21.0149 26015.5 -03503.8 -07.6705 26250.4
 13 11 2013  22 22  -21.0150 26015.5 -03503.9 -07.6706 26250.4
 13 11 2013  22 23  -21.0150 26015.5 -03503.9 -07.6707 26250.4
 13 11 2013  22 24  -21.0148 26015.5 -03503.9 -07.6707 26250.4
 13 11 2013  22 25  -21.0148 26015.4 -03503.9 -07.6707 26250.3
 13 11 2013  22 26  -21.0148 26015.3 -03503.9 -07.6708 26250.2
 13 11 2013  22 27  -21.0147 26015.3 -03503.9 -07.6707 26250.2
 13 11 2013  22 28  -21.0146 26015.2 -03503.9 -07.6708 26250.1
 13 11 2013  22 29  -21.0146 26015.1 -03503.9 -07.6709 26250.0
 13 11 2013  22 30  -21.0145 26015.1 -03503.9 -07.6709 26250.0
 13 11 2013  22 31  -21.0144 26015.1 -03503.9 -07.6709 26250.0
 13 11 2013  22 32  -21.0143 26015.1 -03504.0 -07.6711 26250.0
 13 11 2013  22 33  -21.0143 26015.1 -03504.1 -07.6712 26250.0
 13 11 2013  22 34  -21.0143 26015.1 -03504.1 -07.6713 26250.0
 13 11 2013  22 35  -21.0143 26015.1 -03504.2 -07.6714 26250.0
 13 11 2013  22 36  -21.0142 26015.0 -03504.2 -07.6715 26250.0
 13 11 2013  22 37  -21.0142 26015.1 -03504.2 -07.6716 26250.0
 13 11 2013  22 38  -21.0142 26015.1 -03504.3 -07.6717 26250.0
 13 11 2013  22 39  -21.0142 26015.1 -03504.4 -07.6719 26250.0
 13 11 2013  22 40  -21.0141 26015.0 -03504.4 -07.6720 26250.0
 13 11 2013  22 41  -21.0141 26015.0 -03504.5 -07.6721 26250.0
 13 11 2013  22 42  -21.0140 26015.0 -03504.5 -07.6721 26249.9
 13 11 2013  22 43  -21.0139 26015.0 -03504.5 -07.6722 26249.9
 13 11 2013  22 44  -21.0140 26014.9 -03504.5 -07.6722 26249.9
 13 11 2013  22 45  -21.0139 26014.9 -03504.5 -07.6723 26249.9
 13 11 2013  22 46  -21.0138 26014.8 -03504.5 -07.6723 26249.8
 13 11 2013  22 47  -21.0138 26014.8 -03504.6 -07.6724 26249.8
 13 11 2013  22 48  -21.0138 26014.7 -03504.6 -07.6723 26249.7
 13 11 2013  22 49  -21.0137 26014.7 -03504.5 -07.6724 26249.6
 13 11 2013  22 50  -21.0137 26014.6 -03504.6 -07.6725 26249.6
 13 11 2013  22 51  -21.0135 26014.6 -03504.6 -07.6725 26249.6
 13 11 2013  22 52  -21.0134 26014.6 -03504.6 -07.6726 26249.6
 13 11 2013  22 53  -21.0133 26014.6 -03504.7 -07.6726 26249.6
 13 11 2013  22 54  -21.0131 26014.5 -03504.6 -07.6726 26249.6
 13 11 2013  22 55  -21.0130 26014.5 -03504.7 -07.6727 26249.5
 13 11 2013  22 56  -21.0130 26014.5 -03504.7 -07.6727 26249.5
 13 11 2013  22 57  -21.0128 26014.4 -03504.7 -07.6727 26249.4
 13 11 2013  22 58  -21.0127 26014.4 -03504.7 -07.6727 26249.4
 13 11 2013  22 59  -21.0126 26014.3 -03504.6 -07.6726 26249.3
 13 11 2013  23 00  -21.0124 26014.2 -03504.6 -07.6726 26249.2
 13 11 2013  23 01  -21.0123 26014.1 -03504.6 -07.6726 26249.1
 13 11 2013  23 02  -21.0122 26014.1 -03504.6 -07.6726 26249.1
 13 11 2013  23 03  -21.0120 26014.0 -03504.6 -07.6726 26249.1
 13 11 2013  23 04  -21.0120 26014.1 -03504.6 -07.6726 26249.1
 13 11 2013  23 05  -21.0118 26014.1 -03504.6 -07.6727 26249.1
 13 11 2013  23 06  -21.0117 26014.1 -03504.7 -07.6728 26249.1
 13 11 2013  23 07  -21.0116 26014.2 -03504.7 -07.6729 26249.2
 13 11 2013  23 08  -21.0114 26014.2 -03504.7 -07.6729 26249.2
 13 11 2013  23 09  -21.0113 26014.2 -03504.7 -07.6729 26249.2
 13 11 2013  23 10  -21.0111 26014.2 -03504.7 -07.6729 26249.2
 13 11 2013  23 11  -21.0110 26014.2 -03504.7 -07.6729 26249.2
 13 11 2013  23 12  -21.0109 26014.2 -03504.8 -07.6730 26249.2
 13 11 2013  23 13  -21.0108 26014.2 -03504.8 -07.6730 26249.2
 13 11 2013  23 14  -21.0107 26014.2 -03504.8 -07.6730 26249.2
 13 11 2013  23 15  -21.0106 26014.2 -03504.8 -07.6730 26249.2
 13 11 2013  23 16  -21.0104 26014.2 -03504.8 -07.6730 26249.2
 13 11 2013  23 17  -21.0102 26014.3 -03504.8 -07.6730 26249.3
 13 11 2013  23 18  -21.0101 26014.3 -03504.9 -07.6731 26249.4
 13 11 2013  23 19  -21.0100 26014.4 -03504.9 -07.6731 26249.4
 13 11 2013  23 20  -21.0099 26014.3 -03504.9 -07.6731 26249.4
 13 11 2013  23 21  -21.0098 26014.3 -03504.8 -07.6730 26249.3
 13 11 2013  23 22  -21.0097 26014.2 -03504.7 -07.6728 26249.3
 13 11 2013  23 23  -21.0096 26014.2 -03504.7 -07.6728 26249.2
 13 11 2013  23 24  -21.0096 26014.1 -03504.7 -07.6729 26249.2
 13 11 2013  23 25  -21.0095 26014.1 -03504.7 -07.6728 26249.1
 13 11 2013  23 26  -21.0096 26014.0 -03504.7 -07.6729 26249.0
 13 11 2013  23 27  -21.0094 26014.0 -03504.7 -07.6728 26249.0
 13 11 2013  23 28  -21.0095 26014.0 -03504.7 -07.6729 26249.0
 13 11 2013  23 29  -21.0095 26013.9 -03504.7 -07.6730 26249.0
 13 11 2013  23 30  -21.0095 26013.9 -03504.7 -07.6729 26249.0
 13 11 2013  23 31  -21.0095 26013.9 -03504.7 -07.6729 26248.9
 13 11 2013  23 32  -21.0095 26013.9 -03504.7 -07.6730 26248.9
 13 11 2013  23 33  -21.0095 26013.9 -03504.7 -07.6729 26248.9
 13 11 2013  23 34  -21.0095 26013.9 -03504.7 -07.6730 26248.9
 13 11 2013  23 35  -21.0094 26013.9 -03504.7 -07.6729 26248.9
 13 11 2013  23 36  -21.0093 26013.9 -03504.7 -07.6730 26248.9
 13 11 2013  23 37  -21.0093 26013.9 -03504.8 -07.6731 26248.9
 13 11 2013  23 38  -21.0093 26013.9 -03504.8 -07.6731 26248.9
 13 11 2013  23 39  -21.0093 26013.9 -03504.8 -07.6732 26248.9
 13 11 2013  23 40  -21.0093 26013.9 -03504.8 -07.6732 26249.0
 13 11 2013  23 41  -21.0092 26014.0 -03504.8 -07.6732 26249.0
 13 11 2013  23 42  -21.0093 26013.9 -03504.9 -07.6733 26249.0
 13 11 2013  23 43  -21.0093 26013.9 -03504.9 -07.6733 26249.0
 13 11 2013  23 44  -21.0092 26014.0 -03504.9 -07.6734 26249.0
 13 11 2013  23 45  -21.0091 26014.0 -03504.9 -07.6734 26249.0
 13 11 2013  23 46  -21.0091 26014.0 -03505.0 -07.6734 26249.0
 13 11 2013  23 47  -21.0090 26013.9 -03505.0 -07.6734 26249.0
 13 11 2013  23 48  -21.0091 26014.0 -03505.0 -07.6734 26249.0
 13 11 2013  23 49  -21.0090 26013.9 -03504.9 -07.6734 26249.0
 13 11 2013  23 50  -21.0089 26013.9 -03505.0 -07.6735 26249.0
 13 11 2013  23 51  -21.0090 26013.9 -03505.0 -07.6736 26249.0
 13 11 2013  23 52  -21.0088 26013.9 -03505.1 -07.6738 26249.0
 13 11 2013  23 53  -21.0086 26013.9 -03505.1 -07.6737 26249.0
 13 11 2013  23 54  -21.0086 26013.9 -03505.1 -07.6738 26249.0
 13 11 2013  23 55  -21.0086 26013.9 -03505.1 -07.6738 26249.0
 13 11 2013  23 56  -21.0085 26013.9 -03505.2 -07.6740 26249.0
 13 11 2013  23 57  -21.0085 26013.9 -03505.2 -07.6740 26249.0
