SAO LUIS EMBRACE-03 <260> 1 Min. Reported data

 DD MM YYYY  HH MM   D(Deg)  H(nT)   Z(nT)   I(Deg)   F(nT)

 17 09 2013  00 00  -21.0107 26029.4 -03485.9 -07.6277 26261.8
 17 09 2013  00 01  -21.0105 26029.5 -03485.9 -07.6277 26261.9
 17 09 2013  00 02  -21.0103 26029.5 -03485.9 -07.6277 26261.9
 17 09 2013  00 03  -21.0102 26029.5 -03486.0 -07.6278 26261.9
 17 09 2013  00 04  -21.0102 26029.5 -03486.0 -07.6279 26261.9
 17 09 2013  00 05  -21.0101 26029.6 -03486.0 -07.6279 26262.0
 17 09 2013  00 06  -21.0101 26029.7 -03486.1 -07.6280 26262.1
 17 09 2013  00 07  -21.0100 26029.8 -03486.1 -07.6281 26262.2
 17 09 2013  00 08  -21.0099 26029.9 -03486.2 -07.6282 26262.3
 17 09 2013  00 09  -21.0098 26029.9 -03486.2 -07.6283 26262.3
 17 09 2013  00 10  -21.0097 26030.0 -03486.2 -07.6283 26262.4
 17 09 2013  00 11  -21.0098 26030.0 -03486.3 -07.6284 26262.4
 17 09 2013  00 12  -21.0099 26030.0 -03486.3 -07.6284 26262.5
 17 09 2013  00 13  -21.0100 26030.1 -03486.3 -07.6285 26262.5
 17 09 2013  00 14  -21.0102 26030.1 -03486.3 -07.6285 26262.5
 17 09 2013  00 15  -21.0103 26030.0 -03486.3 -07.6284 26262.5
 17 09 2013  00 16  -21.0104 26030.0 -03486.3 -07.6284 26262.5
 17 09 2013  00 17  -21.0105 26030.0 -03486.2 -07.6283 26262.4
 17 09 2013  00 18  -21.0107 26029.8 -03486.2 -07.6283 26262.2
 17 09 2013  00 19  -21.0108 26029.7 -03486.1 -07.6281 26262.1
 17 09 2013  00 20  -21.0109 26029.6 -03486.1 -07.6281 26262.0
 17 09 2013  00 21  -21.0110 26029.4 -03486.0 -07.6280 26261.8
 17 09 2013  00 22  -21.0110 26029.3 -03485.9 -07.6278 26261.7
 17 09 2013  00 23  -21.0109 26029.2 -03485.9 -07.6277 26261.5
 17 09 2013  00 24  -21.0108 26029.0 -03485.8 -07.6277 26261.4
 17 09 2013  00 25  -21.0107 26028.9 -03485.8 -07.6276 26261.3
 17 09 2013  00 26  -21.0108 26028.9 -03485.8 -07.6277 26261.2
 17 09 2013  00 27  -21.0108 26028.8 -03485.8 -07.6277 26261.2
 17 09 2013  00 28  -21.0108 26028.9 -03485.8 -07.6278 26261.3
 17 09 2013  00 29  -21.0108 26028.8 -03485.8 -07.6277 26261.1
 17 09 2013  00 30  -21.0109 26028.8 -03485.8 -07.6277 26261.2
 17 09 2013  00 31  -21.0110 26028.9 -03485.9 -07.6279 26261.3
 17 09 2013  00 32  -21.0109 26029.1 -03486.0 -07.6280 26261.5
 17 09 2013  00 33  -21.0107 26029.3 -03486.1 -07.6282 26261.7
 17 09 2013  00 34  -21.0107 26029.5 -03486.2 -07.6284 26261.9
 17 09 2013  00 35  -21.0106 26029.9 -03486.4 -07.6287 26262.3
 17 09 2013  00 36  -21.0107 26030.2 -03486.6 -07.6290 26262.7
 17 09 2013  00 37  -21.0109 26030.5 -03486.7 -07.6291 26263.0
 17 09 2013  00 38  -21.0109 26030.8 -03486.8 -07.6293 26263.3
 17 09 2013  00 39  -21.0109 26030.9 -03486.9 -07.6294 26263.4
 17 09 2013  00 40  -21.0107 26031.2 -03486.9 -07.6294 26263.7
 17 09 2013  00 41  -21.0101 26031.4 -03487.0 -07.6295 26263.9
 17 09 2013  00 42  -21.0093 26031.6 -03487.0 -07.6295 26264.1
 17 09 2013  00 43  -21.0086 26031.5 -03487.0 -07.6294 26264.0
 17 09 2013  00 44  -21.0080 26031.4 -03486.9 -07.6293 26263.9
 17 09 2013  00 45  -21.0077 26031.2 -03486.8 -07.6292 26263.6
 17 09 2013  00 46  -21.0074 26030.9 -03486.7 -07.6290 26263.4
 17 09 2013  00 47  -21.0073 26030.8 -03486.6 -07.6289 26263.2
 17 09 2013  00 48  -21.0073 26030.7 -03486.6 -07.6290 26263.1
 17 09 2013  00 49  -21.0073 26030.6 -03486.6 -07.6290 26263.1
 17 09 2013  00 50  -21.0074 26030.5 -03486.6 -07.6290 26263.0
 17 09 2013  00 51  -21.0074 26030.2 -03486.5 -07.6289 26262.7
 17 09 2013  00 52  -21.0073 26029.9 -03486.4 -07.6287 26262.4
 17 09 2013  00 53  -21.0074 26029.6 -03486.3 -07.6285 26262.0
 17 09 2013  00 54  -21.0073 26029.3 -03486.2 -07.6284 26261.7
 17 09 2013  00 55  -21.0073 26029.0 -03486.1 -07.6282 26261.4
 17 09 2013  00 56  -21.0074 26028.7 -03486.0 -07.6282 26261.1
 17 09 2013  00 57  -21.0075 26028.5 -03486.0 -07.6281 26260.9
 17 09 2013  00 58  -21.0076 26028.2 -03485.9 -07.6280 26260.6
 17 09 2013  00 59  -21.0079 26028.0 -03485.8 -07.6280 26260.4
 17 09 2013  01 00  -21.0082 26028.0 -03485.9 -07.6281 26260.4
 17 09 2013  01 01  -21.0085 26028.1 -03486.0 -07.6283 26260.5
 17 09 2013  01 02  -21.0086 26028.2 -03486.0 -07.6284 26260.6
 17 09 2013  01 03  -21.0088 26028.2 -03486.1 -07.6284 26260.6
 17 09 2013  01 04  -21.0088 26028.2 -03486.1 -07.6285 26260.6
 17 09 2013  01 05  -21.0088 26028.2 -03486.1 -07.6285 26260.6
 17 09 2013  01 06  -21.0086 26028.2 -03486.1 -07.6285 26260.6
 17 09 2013  01 07  -21.0084 26028.1 -03486.1 -07.6285 26260.5
 17 09 2013  01 08  -21.0083 26028.1 -03486.1 -07.6285 26260.5
 17 09 2013  01 09  -21.0082 26028.0 -03486.0 -07.6284 26260.4
 17 09 2013  01 10  -21.0082 26027.8 -03486.0 -07.6284 26260.2
 17 09 2013  01 11  -21.0079 26027.6 -03485.9 -07.6282 26260.0
 17 09 2013  01 12  -21.0078 26027.4 -03485.8 -07.6282 26259.8
 17 09 2013  01 13  -21.0077 26027.3 -03485.8 -07.6282 26259.7
 17 09 2013  01 14  -21.0076 26027.4 -03485.9 -07.6283 26259.8
 17 09 2013  01 15  -21.0077 26027.5 -03486.0 -07.6285 26259.9
 17 09 2013  01 16  -21.0078 26027.6 -03486.1 -07.6287 26260.0
 17 09 2013  01 17  -21.0077 26027.7 -03486.1 -07.6288 26260.1
 17 09 2013  01 18  -21.0077 26027.8 -03486.2 -07.6289 26260.2
 17 09 2013  01 19  -21.0076 26027.8 -03486.3 -07.6290 26260.3
 17 09 2013  01 20  -21.0076 26027.9 -03486.3 -07.6291 26260.3
 17 09 2013  01 21  -21.0076 26027.8 -03486.3 -07.6291 26260.3
 17 09 2013  01 22  -21.0075 26027.8 -03486.3 -07.6290 26260.2
 17 09 2013  01 23  -21.0076 26027.7 -03486.3 -07.6291 26260.2
 17 09 2013  01 24  -21.0076 26027.8 -03486.3 -07.6292 26260.3
 17 09 2013  01 25  -21.0076 26028.0 -03486.5 -07.6294 26260.5
 17 09 2013  01 26  -21.0076 26028.3 -03486.6 -07.6296 26260.7
 17 09 2013  01 27  -21.0077 26028.5 -03486.8 -07.6298 26261.0
 17 09 2013  01 28  -21.0077 26028.7 -03486.9 -07.6300 26261.2
 17 09 2013  01 29  -21.0075 26028.7 -03486.9 -07.6300 26261.2
 17 09 2013  01 30  -21.0075 26028.7 -03486.8 -07.6299 26261.2
 17 09 2013  01 31  -21.0075 26028.5 -03486.7 -07.6297 26261.0
 17 09 2013  01 32  -21.0075 26028.3 -03486.6 -07.6295 26260.8
 17 09 2013  01 33  -21.0076 26028.0 -03486.4 -07.6293 26260.5
 17 09 2013  01 34  -21.0077 26027.8 -03486.3 -07.6291 26260.3
 17 09 2013  01 35  -21.0076 26027.7 -03486.3 -07.6290 26260.1
 17 09 2013  01 36  -21.0076 26027.6 -03486.2 -07.6290 26260.0
 17 09 2013  01 37  -21.0074 26027.6 -03486.2 -07.6290 26260.0
 17 09 2013  01 38  -21.0072 26027.6 -03486.2 -07.6290 26260.0
 17 09 2013  01 39  -21.0070 26027.5 -03486.2 -07.6290 26260.0
 17 09 2013  01 40  -21.0067 26027.5 -03486.2 -07.6290 26259.9
 17 09 2013  01 41  -21.0066 26027.5 -03486.2 -07.6290 26259.9
 17 09 2013  01 42  -21.0065 26027.4 -03486.2 -07.6290 26259.9
 17 09 2013  01 43  -21.0065 26027.4 -03486.3 -07.6291 26259.8
 17 09 2013  01 44  -21.0065 26027.4 -03486.3 -07.6291 26259.8
 17 09 2013  01 45  -21.0066 26027.4 -03486.3 -07.6291 26259.8
 17 09 2013  01 46  -21.0066 26027.5 -03486.3 -07.6292 26260.0
 17 09 2013  01 47  -21.0068 26027.8 -03486.5 -07.6295 26260.2
 17 09 2013  01 48  -21.0069 26027.8 -03486.5 -07.6296 26260.3
 17 09 2013  01 49  -21.0069 26027.9 -03486.6 -07.6296 26260.4
 17 09 2013  01 50  -21.0069 26027.7 -03486.5 -07.6295 26260.1
 17 09 2013  01 51  -21.0068 26027.3 -03486.2 -07.6291 26259.7
 17 09 2013  01 52  -21.0066 26026.9 -03486.0 -07.6288 26259.3
 17 09 2013  01 53  -21.0065 26026.6 -03485.9 -07.6285 26259.0
 17 09 2013  01 54  -21.0065 26026.3 -03485.8 -07.6283 26258.7
 17 09 2013  01 55  -21.0067 26026.1 -03485.7 -07.6283 26258.5
 17 09 2013  01 56  -21.0068 26025.9 -03485.7 -07.6283 26258.3
 17 09 2013  01 57  -21.0070 26025.8 -03485.7 -07.6283 26258.2
 17 09 2013  01 58  -21.0073 26025.7 -03485.7 -07.6284 26258.1
 17 09 2013  01 59  -21.0075 26025.5 -03485.7 -07.6284 26257.9
 17 09 2013  02 00  -21.0076 26025.4 -03485.6 -07.6283 26257.8
 17 09 2013  02 01  -21.0078 26025.3 -03485.6 -07.6283 26257.7
 17 09 2013  02 02  -21.0079 26025.2 -03485.6 -07.6282 26257.6
 17 09 2013  02 03  -21.0080 26025.1 -03485.5 -07.6282 26257.4
 17 09 2013  02 04  -21.0080 26024.8 -03485.4 -07.6281 26257.2
 17 09 2013  02 05  -21.0080 26024.7 -03485.4 -07.6280 26257.0
 17 09 2013  02 06  -21.0078 26024.5 -03485.3 -07.6279 26256.9
 17 09 2013  02 07  -21.0078 26024.4 -03485.3 -07.6280 26256.8
 17 09 2013  02 08  -21.0077 26024.3 -03485.3 -07.6280 26256.7
 17 09 2013  02 09  -21.0075 26024.4 -03485.4 -07.6280 26256.7
 17 09 2013  02 10  -21.0072 26024.8 -03485.6 -07.6284 26257.2
 17 09 2013  02 11  -21.0072 26024.5 -03485.5 -07.6284 26256.8
 17 09 2013  02 12  -21.0072 26024.5 -03485.6 -07.6285 26256.8
 17 09 2013  02 13  -21.0072 26024.1 -03485.4 -07.6283 26256.5
 17 09 2013  02 14  -21.0070 26024.3 -03485.5 -07.6283 26256.6
 17 09 2013  02 15  -21.0069 26024.1 -03485.5 -07.6283 26256.5
 17 09 2013  02 16  -21.0069 26024.2 -03485.5 -07.6284 26256.6
 17 09 2013  02 17  -21.0071 26024.1 -03485.6 -07.6286 26256.5
 17 09 2013  02 18  -21.0074 26024.2 -03485.6 -07.6286 26256.6
 17 09 2013  02 19  -21.0074 26024.1 -03485.6 -07.6287 26256.5
 17 09 2013  02 20  -21.0076 26024.2 -03485.6 -07.6286 26256.6
 17 09 2013  02 21  -21.0075 26024.3 -03485.7 -07.6287 26256.7
 17 09 2013  02 22  -21.0076 26024.2 -03485.7 -07.6287 26256.6
 17 09 2013  02 23  -21.0076 26024.2 -03485.6 -07.6287 26256.6
 17 09 2013  02 24  -21.0076 26024.4 -03485.7 -07.6288 26256.8
 17 09 2013  02 25  -21.0076 26024.5 -03485.8 -07.6290 26256.9
 17 09 2013  02 26  -21.0078 26024.6 -03485.9 -07.6291 26257.0
 17 09 2013  02 27  -21.0079 26024.6 -03485.9 -07.6292 26257.1
 17 09 2013  02 28  -21.0078 26024.6 -03485.9 -07.6291 26257.0
 17 09 2013  02 29  -21.0077 26024.7 -03486.0 -07.6292 26257.1
 17 09 2013  02 30  -21.0078 26024.6 -03485.9 -07.6291 26257.0
 17 09 2013  02 31  -21.0076 26024.9 -03486.0 -07.6293 26257.4
 17 09 2013  02 32  -21.0075 26025.1 -03486.1 -07.6295 26257.5
 17 09 2013  02 33  -21.0072 26025.4 -03486.3 -07.6297 26257.9
 17 09 2013  02 34  -21.0072 26025.2 -03486.2 -07.6295 26257.7
 17 09 2013  02 35  -21.0068 26025.7 -03486.5 -07.6300 26258.2
 17 09 2013  02 36  -21.0064 26026.2 -03486.7 -07.6303 26258.7
 17 09 2013  02 37  -21.0063 26026.3 -03486.8 -07.6306 26258.8
 17 09 2013  02 38  -21.0065 26026.0 -03486.7 -07.6304 26258.5
 17 09 2013  02 39  -21.0068 26026.3 -03486.8 -07.6305 26258.8
 17 09 2013  02 40  -21.0072 26026.2 -03486.8 -07.6306 26258.7
 17 09 2013  02 41  -21.0073 26026.2 -03486.7 -07.6305 26258.7
 17 09 2013  02 42  -21.0077 26026.1 -03486.7 -07.6304 26258.6
 17 09 2013  02 43  -21.0078 26026.2 -03486.7 -07.6304 26258.8
 17 09 2013  02 44  -21.0079 26026.2 -03486.7 -07.6303 26258.7
 17 09 2013  02 45  -21.0079 26026.4 -03486.8 -07.6305 26258.9
 17 09 2013  02 46  -21.0082 26026.2 -03486.7 -07.6304 26258.8
 17 09 2013  02 47  -21.0082 26026.1 -03486.6 -07.6303 26258.6
 17 09 2013  02 48  -21.0082 26026.2 -03486.6 -07.6303 26258.7
 17 09 2013  02 49  -21.0081 26026.3 -03486.7 -07.6304 26258.8
 17 09 2013  02 50  -21.0082 26026.3 -03486.7 -07.6304 26258.8
 17 09 2013  02 51  -21.0080 26026.2 -03486.6 -07.6303 26258.7
 17 09 2013  02 52  -21.0077 26026.4 -03486.7 -07.6304 26258.9
 17 09 2013  02 53  -21.0078 26026.5 -03486.8 -07.6306 26259.1
 17 09 2013  02 54  -21.0080 26026.8 -03487.0 -07.6309 26259.3
 17 09 2013  02 55  -21.0082 26026.8 -03487.0 -07.6309 26259.4
 17 09 2013  02 56  -21.0084 26026.8 -03487.0 -07.6309 26259.4
 17 09 2013  02 57  -21.0083 26027.2 -03487.1 -07.6310 26259.7
 17 09 2013  02 58  -21.0082 26027.2 -03487.2 -07.6312 26259.8
 17 09 2013  02 59  -21.0081 26027.2 -03487.2 -07.6311 26259.8
 17 09 2013  03 00  -21.0082 26027.5 -03487.3 -07.6313 26260.1
 17 09 2013  03 01  -21.0083 26027.5 -03487.3 -07.6314 26260.1
 17 09 2013  03 02  -21.0084 26027.4 -03487.2 -07.6312 26259.9
 17 09 2013  03 03  -21.0082 26027.5 -03487.2 -07.6312 26260.1
 17 09 2013  03 04  -21.0082 26027.5 -03487.3 -07.6312 26260.1
 17 09 2013  03 05  -21.0082 26027.5 -03487.2 -07.6311 26260.0
 17 09 2013  03 06  -21.0082 26027.4 -03487.2 -07.6311 26260.0
 17 09 2013  03 07  -21.0080 26027.4 -03487.1 -07.6310 26259.9
 17 09 2013  03 08  -21.0078 26027.2 -03487.1 -07.6309 26259.7
 17 09 2013  03 09  -21.0078 26026.9 -03486.9 -07.6307 26259.4
 17 09 2013  03 10  -21.0077 26026.9 -03486.9 -07.6306 26259.5
 17 09 2013  03 11  -21.0075 26026.9 -03486.9 -07.6306 26259.4
 17 09 2013  03 12  -21.0074 26026.7 -03486.8 -07.6305 26259.2
 17 09 2013  03 13  -21.0072 26026.6 -03486.8 -07.6305 26259.1
 17 09 2013  03 14  -21.0071 26026.4 -03486.7 -07.6303 26258.9
 17 09 2013  03 15  -21.0069 26026.3 -03486.7 -07.6304 26258.9
 17 09 2013  03 16  -21.0068 26026.2 -03486.7 -07.6303 26258.7
 17 09 2013  03 17  -21.0066 26026.2 -03486.7 -07.6303 26258.7
 17 09 2013  03 18  -21.0065 26026.3 -03486.7 -07.6305 26258.8
 17 09 2013  03 19  -21.0062 26026.6 -03486.9 -07.6308 26259.2
 17 09 2013  03 20  -21.0059 26027.0 -03487.1 -07.6310 26259.5
 17 09 2013  03 21  -21.0055 26027.3 -03487.3 -07.6313 26259.8
 17 09 2013  03 22  -21.0049 26027.7 -03487.4 -07.6315 26260.3
 17 09 2013  03 23  -21.0044 26028.0 -03487.6 -07.6318 26260.7
 17 09 2013  03 24  -21.0040 26028.3 -03487.7 -07.6320 26261.0
 17 09 2013  03 25  -21.0038 26028.4 -03487.8 -07.6321 26261.0
 17 09 2013  03 26  -21.0032 26028.6 -03487.8 -07.6322 26261.2
 17 09 2013  03 27  -21.0030 26028.5 -03487.8 -07.6321 26261.2
 17 09 2013  03 28  -21.0031 26028.4 -03487.8 -07.6321 26261.0
 17 09 2013  03 29  -21.0031 26028.2 -03487.7 -07.6319 26260.9
 17 09 2013  03 30  -21.0034 26028.0 -03487.6 -07.6318 26260.6
 17 09 2013  03 31  -21.0037 26027.9 -03487.5 -07.6316 26260.5
 17 09 2013  03 32  -21.0041 26027.6 -03487.4 -07.6315 26260.2
 17 09 2013  03 33  -21.0046 26027.5 -03487.4 -07.6314 26260.1
 17 09 2013  03 34  -21.0052 26027.3 -03487.3 -07.6313 26259.9
 17 09 2013  03 35  -21.0061 26027.2 -03487.2 -07.6313 26259.8
 17 09 2013  03 36  -21.0068 26027.0 -03487.2 -07.6312 26259.6
 17 09 2013  03 37  -21.0072 26026.9 -03487.1 -07.6310 26259.5
 17 09 2013  03 38  -21.0077 26026.7 -03486.9 -07.6308 26259.2
 17 09 2013  03 39  -21.0080 26026.6 -03486.9 -07.6306 26259.2
 17 09 2013  03 40  -21.0079 26026.4 -03486.7 -07.6303 26259.0
 17 09 2013  03 41  -21.0081 26026.1 -03486.5 -07.6300 26258.6
 17 09 2013  03 42  -21.0081 26025.9 -03486.4 -07.6298 26258.4
 17 09 2013  03 43  -21.0081 26025.9 -03486.3 -07.6297 26258.3
 17 09 2013  03 44  -21.0080 26026.0 -03486.4 -07.6297 26258.4
 17 09 2013  03 45  -21.0077 26026.0 -03486.3 -07.6297 26258.4
 17 09 2013  03 46  -21.0076 26025.7 -03486.2 -07.6295 26258.2
 17 09 2013  03 47  -21.0073 26025.7 -03486.2 -07.6294 26258.2
 17 09 2013  03 48  -21.0069 26025.6 -03486.1 -07.6293 26258.1
 17 09 2013  03 49  -21.0063 26025.5 -03486.0 -07.6292 26257.9
 17 09 2013  03 50  -21.0060 26025.3 -03486.0 -07.6291 26257.7
 17 09 2013  03 51  -21.0058 26025.2 -03486.0 -07.6291 26257.7
 17 09 2013  03 52  -21.0054 26025.1 -03485.9 -07.6290 26257.5
 17 09 2013  03 53  -21.0053 26024.8 -03485.8 -07.6289 26257.2
 17 09 2013  03 54  -21.0053 26024.7 -03485.8 -07.6289 26257.1
 17 09 2013  03 55  -21.0055 26024.7 -03485.8 -07.6290 26257.1
 17 09 2013  03 56  -21.0056 26024.5 -03485.9 -07.6291 26256.9
 17 09 2013  03 57  -21.0055 26024.4 -03485.8 -07.6290 26256.8
 17 09 2013  03 58  -21.0055 26024.4 -03485.8 -07.6290 26256.8
 17 09 2013  03 59  -21.0052 26024.2 -03485.7 -07.6289 26256.7
 17 09 2013  04 00  -21.0048 26024.3 -03485.8 -07.6290 26256.7
 17 09 2013  04 01  -21.0046 26024.4 -03485.9 -07.6291 26256.8
 17 09 2013  04 02  -21.0044 26024.3 -03485.9 -07.6291 26256.7
 17 09 2013  04 03  -21.0046 26024.1 -03485.8 -07.6291 26256.5
 17 09 2013  04 04  -21.0047 26024.1 -03485.8 -07.6291 26256.5
 17 09 2013  04 05  -21.0048 26024.2 -03485.9 -07.6293 26256.7
 17 09 2013  04 06  -21.0050 26024.2 -03485.9 -07.6293 26256.6
 17 09 2013  04 07  -21.0053 26024.2 -03485.9 -07.6293 26256.7
 17 09 2013  04 08  -21.0059 26023.9 -03485.8 -07.6291 26256.3
 17 09 2013  04 09  -21.0062 26024.1 -03485.9 -07.6292 26256.5
 17 09 2013  04 10  -21.0068 26024.2 -03486.0 -07.6294 26256.6
 17 09 2013  04 11  -21.0073 26024.2 -03486.0 -07.6295 26256.6
 17 09 2013  04 12  -21.0073 26024.5 -03486.1 -07.6295 26256.9
 17 09 2013  04 13  -21.0077 26024.6 -03486.2 -07.6297 26257.0
 17 09 2013  04 14  -21.0080 26024.6 -03486.1 -07.6297 26257.1
 17 09 2013  04 15  -21.0083 26024.6 -03486.1 -07.6297 26257.1
 17 09 2013  04 16  -21.0084 26024.7 -03486.2 -07.6297 26257.2
 17 09 2013  04 17  -21.0084 26024.9 -03486.2 -07.6297 26257.4
 17 09 2013  04 18  -21.0081 26025.0 -03486.2 -07.6297 26257.5
 17 09 2013  04 19  -21.0078 26024.5 -03485.9 -07.6292 26256.9
 17 09 2013  04 20  -21.0074 26024.0 -03485.7 -07.6288 26256.4
 17 09 2013  04 21  -21.0072 26023.5 -03485.4 -07.6283 26255.8
 17 09 2013  04 22  -21.0073 26023.1 -03485.2 -07.6281 26255.5
 17 09 2013  04 23  -21.0076 26022.7 -03485.1 -07.6278 26255.1
 17 09 2013  04 24  -21.0079 26022.3 -03484.9 -07.6276 26254.6
 17 09 2013  04 25  -21.0080 26022.0 -03484.7 -07.6274 26254.2
 17 09 2013  04 26  -21.0077 26021.7 -03484.7 -07.6273 26254.0
 17 09 2013  04 27  -21.0072 26021.6 -03484.7 -07.6273 26253.9
 17 09 2013  04 28  -21.0070 26021.6 -03484.7 -07.6274 26253.9
 17 09 2013  04 29  -21.0071 26021.3 -03484.7 -07.6275 26253.6
 17 09 2013  04 30  -21.0069 26021.2 -03484.7 -07.6276 26253.5
 17 09 2013  04 31  -21.0067 26021.0 -03484.7 -07.6275 26253.3
 17 09 2013  04 32  -21.0064 26020.7 -03484.6 -07.6274 26253.0
 17 09 2013  04 33  -21.0062 26020.4 -03484.5 -07.6273 26252.7
 17 09 2013  04 34  -21.0060 26020.0 -03484.4 -07.6271 26252.2
 17 09 2013  04 35  -21.0056 26019.7 -03484.3 -07.6271 26251.9
 17 09 2013  04 36  -21.0053 26019.6 -03484.3 -07.6272 26251.8
 17 09 2013  04 37  -21.0050 26019.3 -03484.3 -07.6272 26251.6
 17 09 2013  04 38  -21.0045 26019.1 -03484.3 -07.6272 26251.4
 17 09 2013  04 39  -21.0042 26018.9 -03484.3 -07.6273 26251.2
 17 09 2013  04 40  -21.0039 26018.8 -03484.3 -07.6274 26251.0
 17 09 2013  04 41  -21.0036 26018.7 -03484.4 -07.6276 26251.0
 17 09 2013  04 42  -21.0030 26018.8 -03484.6 -07.6279 26251.1
 17 09 2013  04 43  -21.0025 26018.8 -03484.7 -07.6282 26251.2
 17 09 2013  04 44  -21.0021 26018.9 -03484.8 -07.6284 26251.2
 17 09 2013  04 45  -21.0019 26018.8 -03484.9 -07.6286 26251.1
 17 09 2013  04 46  -21.0017 26018.7 -03484.9 -07.6287 26251.1
 17 09 2013  04 47  -21.0016 26018.8 -03485.1 -07.6290 26251.2
 17 09 2013  04 48  -21.0016 26018.9 -03485.2 -07.6292 26251.2
 17 09 2013  04 49  -21.0015 26018.9 -03485.2 -07.6294 26251.3
 17 09 2013  04 50  -21.0013 26018.9 -03485.3 -07.6296 26251.3
 17 09 2013  04 51  -21.0011 26019.1 -03485.4 -07.6297 26251.5
 17 09 2013  04 52  -21.0012 26019.1 -03485.5 -07.6299 26251.5
 17 09 2013  04 53  -21.0015 26019.1 -03485.6 -07.6300 26251.6
 17 09 2013  04 54  -21.0018 26019.2 -03485.7 -07.6302 26251.7
 17 09 2013  04 55  -21.0023 26019.2 -03485.7 -07.6303 26251.7
 17 09 2013  04 56  -21.0027 26019.3 -03485.8 -07.6304 26251.8
 17 09 2013  04 57  -21.0028 26019.3 -03485.8 -07.6304 26251.7
 17 09 2013  04 58  -21.0028 26019.3 -03485.7 -07.6303 26251.7
 17 09 2013  04 59  -21.0030 26019.1 -03485.6 -07.6302 26251.5
 17 09 2013  05 00  -21.0032 26018.8 -03485.5 -07.6300 26251.3
 17 09 2013  05 01  -21.0034 26018.7 -03485.4 -07.6298 26251.1
 17 09 2013  05 02  -21.0034 26018.7 -03485.4 -07.6299 26251.1
 17 09 2013  05 03  -21.0035 26018.7 -03485.5 -07.6299 26251.1
 17 09 2013  05 04  -21.0034 26018.6 -03485.4 -07.6299 26251.1
 17 09 2013  05 05  -21.0032 26018.7 -03485.5 -07.6300 26251.1
 17 09 2013  05 06  -21.0031 26018.9 -03485.6 -07.6302 26251.4
 17 09 2013  05 07  -21.0030 26019.2 -03485.8 -07.6305 26251.6
 17 09 2013  05 08  -21.0027 26019.3 -03485.9 -07.6306 26251.8
 17 09 2013  05 09  -21.0024 26019.4 -03485.9 -07.6307 26251.9
 17 09 2013  05 10  -21.0021 26019.5 -03485.9 -07.6307 26251.9
 17 09 2013  05 11  -21.0021 26019.4 -03486.0 -07.6308 26251.9
 17 09 2013  05 12  -21.0020 26019.4 -03485.9 -07.6307 26251.9
 17 09 2013  05 13  -21.0019 26019.2 -03485.9 -07.6307 26251.7
 17 09 2013  05 14  -21.0016 26019.0 -03485.8 -07.6305 26251.5
 17 09 2013  05 15  -21.0014 26018.8 -03485.7 -07.6304 26251.3
 17 09 2013  05 16  -21.0015 26018.7 -03485.7 -07.6304 26251.1
 17 09 2013  05 17  -21.0013 26018.6 -03485.7 -07.6303 26251.0
 17 09 2013  05 18  -21.0009 26018.5 -03485.6 -07.6304 26250.9
 17 09 2013  05 19  -21.0007 26018.5 -03485.7 -07.6305 26250.9
 17 09 2013  05 20  -21.0005 26018.5 -03485.7 -07.6306 26250.9
 17 09 2013  05 21  -21.0004 26018.4 -03485.8 -07.6307 26250.9
 17 09 2013  05 22  -21.0004 26018.4 -03485.8 -07.6307 26250.8
 17 09 2013  05 23  -21.0003 26018.4 -03485.9 -07.6309 26250.9
 17 09 2013  05 24  -21.0001 26018.5 -03486.0 -07.6311 26251.0
 17 09 2013  05 25  -21.0001 26018.7 -03486.1 -07.6313 26251.2
 17 09 2013  05 26  -21.0002 26018.8 -03486.2 -07.6315 26251.4
 17 09 2013  05 27  -21.0003 26019.0 -03486.3 -07.6317 26251.5
 17 09 2013  05 28  -21.0007 26019.1 -03486.4 -07.6319 26251.7
 17 09 2013  05 29  -21.0012 26019.1 -03486.5 -07.6320 26251.6
 17 09 2013  05 30  -21.0015 26018.9 -03486.4 -07.6319 26251.4
 17 09 2013  05 31  -21.0017 26018.6 -03486.3 -07.6317 26251.1
 17 09 2013  05 32  -21.0022 26018.3 -03486.1 -07.6314 26250.8
 17 09 2013  05 33  -21.0027 26018.1 -03486.0 -07.6313 26250.6
 17 09 2013  05 34  -21.0033 26017.9 -03485.9 -07.6311 26250.4
 17 09 2013  05 35  -21.0039 26017.7 -03485.9 -07.6310 26250.2
 17 09 2013  05 36  -21.0045 26017.6 -03485.8 -07.6309 26250.0
 17 09 2013  05 37  -21.0051 26017.4 -03485.7 -07.6308 26249.9
 17 09 2013  05 38  -21.0056 26017.3 -03485.6 -07.6307 26249.7
 17 09 2013  05 39  -21.0062 26017.2 -03485.6 -07.6306 26249.7
 17 09 2013  05 40  -21.0065 26017.1 -03485.6 -07.6306 26249.6
 17 09 2013  05 41  -21.0068 26017.1 -03485.5 -07.6305 26249.5
 17 09 2013  05 42  -21.0068 26017.0 -03485.5 -07.6305 26249.5
 17 09 2013  05 43  -21.0070 26017.1 -03485.6 -07.6306 26249.5
 17 09 2013  05 44  -21.0070 26017.1 -03485.6 -07.6306 26249.5
 17 09 2013  05 45  -21.0068 26017.0 -03485.5 -07.6305 26249.5
 17 09 2013  05 46  -21.0067 26017.0 -03485.5 -07.6305 26249.4
 17 09 2013  05 47  -21.0065 26016.9 -03485.5 -07.6304 26249.3
 17 09 2013  05 48  -21.0063 26016.8 -03485.4 -07.6304 26249.2
 17 09 2013  05 49  -21.0059 26016.7 -03485.4 -07.6303 26249.1
 17 09 2013  05 50  -21.0057 26016.6 -03485.4 -07.6304 26249.0
 17 09 2013  05 51  -21.0054 26016.5 -03485.4 -07.6305 26249.0
 17 09 2013  05 52  -21.0053 26016.5 -03485.5 -07.6305 26249.0
 17 09 2013  05 53  -21.0052 26016.5 -03485.5 -07.6306 26249.0
 17 09 2013  05 54  -21.0051 26016.5 -03485.6 -07.6307 26248.9
 17 09 2013  05 55  -21.0051 26016.4 -03485.6 -07.6309 26248.9
 17 09 2013  05 56  -21.0051 26016.5 -03485.7 -07.6310 26248.9
 17 09 2013  05 57  -21.0051 26016.5 -03485.7 -07.6311 26249.0
 17 09 2013  05 58  -21.0051 26016.6 -03485.8 -07.6313 26249.1
 17 09 2013  05 59  -21.0052 26016.9 -03486.0 -07.6316 26249.4
 17 09 2013  06 00  -21.0051 26017.1 -03486.1 -07.6318 26249.6
 17 09 2013  06 01  -21.0052 26017.3 -03486.3 -07.6320 26249.8
 17 09 2013  06 02  -21.0052 26017.5 -03486.4 -07.6322 26250.0
 17 09 2013  06 03  -21.0053 26017.7 -03486.5 -07.6324 26250.2
 17 09 2013  06 04  -21.0054 26017.7 -03486.6 -07.6325 26250.3
 17 09 2013  06 05  -21.0055 26017.8 -03486.6 -07.6326 26250.3
 17 09 2013  06 06  -21.0054 26017.8 -03486.6 -07.6326 26250.3
 17 09 2013  06 07  -21.0053 26017.8 -03486.5 -07.6325 26250.3
 17 09 2013  06 08  -21.0053 26017.8 -03486.5 -07.6325 26250.3
 17 09 2013  06 09  -21.0052 26017.7 -03486.5 -07.6324 26250.3
 17 09 2013  06 10  -21.0051 26017.6 -03486.5 -07.6324 26250.2
 17 09 2013  06 11  -21.0051 26017.5 -03486.4 -07.6324 26250.1
 17 09 2013  06 12  -21.0052 26017.5 -03486.5 -07.6324 26250.1
 17 09 2013  06 13  -21.0056 26017.6 -03486.5 -07.6325 26250.2
 17 09 2013  06 14  -21.0058 26017.8 -03486.7 -07.6327 26250.4
 17 09 2013  06 15  -21.0062 26018.1 -03486.8 -07.6330 26250.7
 17 09 2013  06 16  -21.0062 26018.3 -03486.9 -07.6331 26250.9
 17 09 2013  06 17  -21.0062 26018.2 -03486.9 -07.6331 26250.9
 17 09 2013  06 18  -21.0063 26018.3 -03486.9 -07.6331 26250.9
 17 09 2013  06 19  -21.0066 26018.4 -03486.9 -07.6332 26251.0
 17 09 2013  06 20  -21.0069 26018.5 -03487.0 -07.6332 26251.1
 17 09 2013  06 21  -21.0070 26018.7 -03487.0 -07.6333 26251.3
 17 09 2013  06 22  -21.0068 26018.7 -03487.0 -07.6333 26251.4
 17 09 2013  06 23  -21.0068 26018.9 -03487.1 -07.6333 26251.5
 17 09 2013  06 24  -21.0070 26019.1 -03487.2 -07.6334 26251.7
 17 09 2013  06 25  -21.0071 26019.3 -03487.3 -07.6336 26252.0
 17 09 2013  06 26  -21.0069 26019.3 -03487.2 -07.6335 26252.0
 17 09 2013  06 27  -21.0066 26019.4 -03487.2 -07.6335 26252.1
 17 09 2013  06 28  -21.0063 26019.5 -03487.2 -07.6334 26252.1
 17 09 2013  06 29  -21.0061 26019.5 -03487.2 -07.6334 26252.1
 17 09 2013  06 30  -21.0059 26019.5 -03487.2 -07.6334 26252.2
 17 09 2013  06 31  -21.0058 26019.5 -03487.2 -07.6334 26252.1
 17 09 2013  06 32  -21.0055 26019.8 -03487.3 -07.6336 26252.4
 17 09 2013  06 33  -21.0053 26020.1 -03487.5 -07.6338 26252.8
 17 09 2013  06 34  -21.0050 26020.3 -03487.5 -07.6339 26253.0
 17 09 2013  06 35  -21.0047 26020.3 -03487.5 -07.6339 26253.0
 17 09 2013  06 36  -21.0042 26020.2 -03487.4 -07.6337 26252.9
 17 09 2013  06 37  -21.0036 26020.0 -03487.4 -07.6336 26252.7
 17 09 2013  06 38  -21.0030 26019.9 -03487.3 -07.6335 26252.5
 17 09 2013  06 39  -21.0024 26019.8 -03487.2 -07.6334 26252.4
 17 09 2013  06 40  -21.0020 26019.7 -03487.2 -07.6333 26252.3
 17 09 2013  06 41  -21.0016 26019.7 -03487.2 -07.6335 26252.3
 17 09 2013  06 42  -21.0011 26019.8 -03487.3 -07.6336 26252.4
 17 09 2013  06 43  -21.0005 26020.0 -03487.4 -07.6337 26252.6
 17 09 2013  06 44  -20.9999 26020.2 -03487.6 -07.6340 26252.9
 17 09 2013  06 45  -20.9995 26020.3 -03487.7 -07.6342 26253.0
 17 09 2013  06 46  -20.9990 26020.2 -03487.6 -07.6342 26252.9
 17 09 2013  06 47  -20.9987 26020.2 -03487.7 -07.6342 26252.9
 17 09 2013  06 48  -20.9986 26020.0 -03487.6 -07.6342 26252.7
 17 09 2013  06 49  -20.9987 26020.1 -03487.7 -07.6344 26252.8
 17 09 2013  06 50  -20.9986 26020.1 -03487.7 -07.6344 26252.8
 17 09 2013  06 51  -20.9987 26020.2 -03487.8 -07.6345 26252.9
 17 09 2013  06 52  -20.9983 26020.2 -03487.8 -07.6345 26252.9
 17 09 2013  06 53  -20.9978 26020.2 -03487.8 -07.6345 26252.9
 17 09 2013  06 54  -20.9975 26020.3 -03487.8 -07.6346 26253.0
 17 09 2013  06 55  -20.9974 26020.4 -03487.9 -07.6347 26253.1
 17 09 2013  06 56  -20.9976 26020.5 -03488.0 -07.6348 26253.2
 17 09 2013  06 57  -20.9977 26020.6 -03488.0 -07.6349 26253.3
 17 09 2013  06 58  -20.9981 26020.6 -03488.1 -07.6351 26253.4
 17 09 2013  06 59  -20.9984 26020.7 -03488.1 -07.6351 26253.5
 17 09 2013  07 00  -20.9987 26020.6 -03488.1 -07.6351 26253.3
 17 09 2013  07 01  -20.9991 26020.5 -03488.0 -07.6349 26253.2
 17 09 2013  07 02  -20.9994 26020.4 -03487.9 -07.6348 26253.2
 17 09 2013  07 03  -20.9998 26020.4 -03487.9 -07.6346 26253.2
 17 09 2013  07 04  -21.0003 26020.4 -03487.9 -07.6346 26253.2
 17 09 2013  07 05  -21.0007 26020.5 -03487.9 -07.6346 26253.2
 17 09 2013  07 06  -21.0012 26020.6 -03487.9 -07.6346 26253.3
 17 09 2013  07 07  -21.0016 26020.7 -03487.9 -07.6346 26253.4
 17 09 2013  07 08  -21.0020 26020.7 -03487.9 -07.6345 26253.4
 17 09 2013  07 09  -21.0022 26020.9 -03487.8 -07.6344 26253.6
 17 09 2013  07 10  -21.0026 26020.9 -03487.8 -07.6343 26253.6
 17 09 2013  07 11  -21.0029 26020.8 -03487.7 -07.6342 26253.5
 17 09 2013  07 12  -21.0031 26020.7 -03487.6 -07.6340 26253.4
 17 09 2013  07 13  -21.0034 26020.6 -03487.5 -07.6337 26253.2
 17 09 2013  07 14  -21.0039 26020.4 -03487.4 -07.6335 26253.1
 17 09 2013  07 15  -21.0043 26020.4 -03487.3 -07.6334 26253.0
 17 09 2013  07 16  -21.0046 26020.2 -03487.2 -07.6332 26252.8
 17 09 2013  07 17  -21.0048 26019.9 -03487.0 -07.6329 26252.5
 17 09 2013  07 18  -21.0052 26019.7 -03486.9 -07.6327 26252.3
 17 09 2013  07 19  -21.0056 26019.6 -03486.8 -07.6325 26252.2
 17 09 2013  07 20  -21.0060 26019.6 -03486.7 -07.6324 26252.1
 17 09 2013  07 21  -21.0062 26019.5 -03486.7 -07.6323 26252.1
 17 09 2013  07 22  -21.0061 26019.6 -03486.7 -07.6323 26252.2
 17 09 2013  07 23  -21.0060 26019.5 -03486.6 -07.6321 26252.1
 17 09 2013  07 24  -21.0059 26019.3 -03486.5 -07.6320 26251.9
 17 09 2013  07 25  -21.0055 26019.2 -03486.4 -07.6318 26251.7
 17 09 2013  07 26  -21.0050 26019.0 -03486.3 -07.6316 26251.5
 17 09 2013  07 27  -21.0044 26018.8 -03486.2 -07.6314 26251.3
 17 09 2013  07 28  -21.0038 26018.7 -03486.1 -07.6314 26251.2
 17 09 2013  07 29  -21.0030 26018.6 -03486.1 -07.6314 26251.1
 17 09 2013  07 30  -21.0022 26018.4 -03486.1 -07.6313 26250.9
 17 09 2013  07 31  -21.0012 26018.4 -03486.1 -07.6314 26250.9
 17 09 2013  07 32  -21.0003 26018.2 -03486.1 -07.6313 26250.8
 17 09 2013  07 33  -20.9995 26018.1 -03486.1 -07.6314 26250.6
 17 09 2013  07 34  -20.9989 26018.0 -03486.1 -07.6314 26250.5
 17 09 2013  07 35  -20.9987 26018.0 -03486.2 -07.6316 26250.5
 17 09 2013  07 36  -20.9985 26018.2 -03486.3 -07.6319 26250.7
 17 09 2013  07 37  -20.9987 26018.3 -03486.5 -07.6322 26250.9
 17 09 2013  07 38  -20.9990 26018.5 -03486.6 -07.6325 26251.1
 17 09 2013  07 39  -20.9991 26018.7 -03486.8 -07.6327 26251.3
 17 09 2013  07 40  -20.9991 26018.9 -03486.9 -07.6330 26251.5
 17 09 2013  07 41  -20.9992 26019.0 -03487.0 -07.6330 26251.6
 17 09 2013  07 42  -20.9988 26019.3 -03487.0 -07.6332 26251.9
 17 09 2013  07 43  -20.9981 26019.5 -03487.1 -07.6332 26252.1
 17 09 2013  07 44  -20.9979 26019.6 -03487.2 -07.6333 26252.2
 17 09 2013  07 45  -20.9980 26019.9 -03487.4 -07.6337 26252.6
 17 09 2013  07 46  -20.9977 26020.4 -03487.6 -07.6340 26253.0
 17 09 2013  07 47  -20.9974 26020.7 -03487.7 -07.6341 26253.4
 17 09 2013  07 48  -20.9973 26020.9 -03487.8 -07.6342 26253.6
 17 09 2013  07 49  -20.9971 26021.3 -03487.9 -07.6345 26254.0
 17 09 2013  07 50  -20.9968 26021.4 -03488.0 -07.6345 26254.2
 17 09 2013  07 51  -20.9962 26021.6 -03488.0 -07.6345 26254.3
 17 09 2013  07 52  -20.9960 26021.9 -03488.1 -07.6346 26254.6
 17 09 2013  07 53  -20.9957 26022.4 -03488.3 -07.6349 26255.2
 17 09 2013  07 54  -20.9952 26022.7 -03488.4 -07.6351 26255.5
 17 09 2013  07 55  -20.9946 26023.4 -03488.6 -07.6354 26256.2
 17 09 2013  07 56  -20.9942 26023.7 -03488.7 -07.6355 26256.5
 17 09 2013  07 57  -20.9936 26024.2 -03488.9 -07.6357 26257.0
 17 09 2013  07 58  -20.9930 26024.6 -03489.1 -07.6360 26257.4
 17 09 2013  07 59  -20.9923 26024.6 -03489.0 -07.6358 26257.4
 17 09 2013  08 00  -20.9917 26024.5 -03488.8 -07.6355 26257.3
 17 09 2013  08 01  -20.9912 26024.5 -03488.8 -07.6354 26257.3
 17 09 2013  08 02  -20.9909 26024.4 -03488.7 -07.6352 26257.2
 17 09 2013  08 03  -20.9905 26024.4 -03488.6 -07.6351 26257.1
 17 09 2013  08 04  -20.9899 26024.7 -03488.7 -07.6352 26257.5
 17 09 2013  08 05  -20.9893 26024.9 -03488.9 -07.6354 26257.7
 17 09 2013  08 06  -20.9887 26025.1 -03489.0 -07.6356 26257.9
 17 09 2013  08 07  -20.9886 26025.3 -03489.1 -07.6359 26258.1
 17 09 2013  08 08  -20.9882 26025.2 -03489.1 -07.6359 26258.1
 17 09 2013  08 09  -20.9878 26025.3 -03489.1 -07.6359 26258.1
 17 09 2013  08 10  -20.9871 26025.5 -03489.2 -07.6361 26258.4
 17 09 2013  08 11  -20.9865 26025.5 -03489.3 -07.6362 26258.4
 17 09 2013  08 12  -20.9859 26025.4 -03489.3 -07.6361 26258.3
 17 09 2013  08 13  -20.9854 26025.3 -03489.2 -07.6360 26258.1
 17 09 2013  08 14  -20.9850 26025.2 -03489.2 -07.6360 26258.1
 17 09 2013  08 15  -20.9848 26025.2 -03489.2 -07.6360 26258.0
 17 09 2013  08 16  -20.9845 26025.3 -03489.2 -07.6361 26258.1
 17 09 2013  08 17  -20.9842 26025.3 -03489.3 -07.6362 26258.1
 17 09 2013  08 18  -20.9842 26025.5 -03489.4 -07.6364 26258.3
 17 09 2013  08 19  -20.9841 26025.6 -03489.4 -07.6365 26258.5
 17 09 2013  08 20  -20.9842 26025.8 -03489.7 -07.6369 26258.7
 17 09 2013  08 21  -20.9848 26026.0 -03489.8 -07.6372 26258.9
 17 09 2013  08 22  -20.9850 26026.0 -03489.9 -07.6373 26259.0
 17 09 2013  08 23  -20.9851 26026.0 -03489.8 -07.6372 26259.0
 17 09 2013  08 24  -20.9851 26026.0 -03489.8 -07.6372 26258.9
 17 09 2013  08 25  -20.9852 26025.9 -03489.7 -07.6371 26258.9
 17 09 2013  08 26  -20.9855 26025.9 -03489.8 -07.6371 26258.9
 17 09 2013  08 27  -20.9857 26025.9 -03489.7 -07.6370 26258.8
 17 09 2013  08 28  -20.9857 26025.9 -03489.7 -07.6369 26258.8
 17 09 2013  08 29  -20.9856 26025.9 -03489.6 -07.6368 26258.9
 17 09 2013  08 30  -20.9859 26026.0 -03489.7 -07.6369 26258.9
 17 09 2013  08 31  -20.9857 26025.9 -03489.6 -07.6367 26258.8
 17 09 2013  08 32  -20.9855 26025.8 -03489.4 -07.6365 26258.7
 17 09 2013  08 33  -20.9852 26025.7 -03489.4 -07.6364 26258.6
 17 09 2013  08 34  -20.9848 26025.7 -03489.3 -07.6362 26258.5
 17 09 2013  08 35  -20.9843 26025.6 -03489.3 -07.6361 26258.4
 17 09 2013  08 36  -20.9841 26025.4 -03489.2 -07.6359 26258.3
 17 09 2013  08 37  -20.9836 26025.2 -03489.1 -07.6358 26258.1
 17 09 2013  08 38  -20.9832 26025.1 -03489.0 -07.6358 26257.9
 17 09 2013  08 39  -20.9828 26025.1 -03489.1 -07.6359 26257.9
 17 09 2013  08 40  -20.9824 26025.3 -03489.2 -07.6362 26258.2
 17 09 2013  08 41  -20.9821 26025.4 -03489.4 -07.6364 26258.3
 17 09 2013  08 42  -20.9818 26025.5 -03489.4 -07.6366 26258.4
 17 09 2013  08 43  -20.9814 26025.6 -03489.5 -07.6367 26258.5
 17 09 2013  08 44  -20.9815 26025.5 -03489.6 -07.6369 26258.4
 17 09 2013  08 45  -20.9811 26025.5 -03489.7 -07.6370 26258.4
 17 09 2013  08 46  -20.9809 26025.5 -03489.7 -07.6371 26258.5
 17 09 2013  08 47  -20.9806 26025.6 -03489.8 -07.6373 26258.5
 17 09 2013  08 48  -20.9804 26025.7 -03489.9 -07.6375 26258.6
 17 09 2013  08 49  -20.9801 26025.7 -03490.0 -07.6377 26258.7
 17 09 2013  08 50  -20.9800 26025.8 -03490.1 -07.6378 26258.8
 17 09 2013  08 51  -20.9796 26025.9 -03490.2 -07.6380 26258.9
 17 09 2013  08 52  -20.9792 26025.8 -03490.2 -07.6380 26258.8
 17 09 2013  08 53  -20.9786 26025.8 -03490.2 -07.6381 26258.8
 17 09 2013  08 54  -20.9784 26025.7 -03490.2 -07.6381 26258.7
 17 09 2013  08 55  -20.9782 26025.9 -03490.3 -07.6383 26258.9
 17 09 2013  08 56  -20.9779 26026.1 -03490.5 -07.6387 26259.1
 17 09 2013  08 57  -20.9779 26026.0 -03490.6 -07.6390 26259.0
 17 09 2013  08 58  -20.9775 26026.0 -03490.7 -07.6391 26259.1
 17 09 2013  08 59  -20.9770 26026.2 -03490.8 -07.6393 26259.2
 17 09 2013  09 00  -20.9771 26026.1 -03490.9 -07.6395 26259.2
 17 09 2013  09 01  -20.9771 26026.1 -03490.9 -07.6396 26259.2
 17 09 2013  09 02  -20.9768 26026.1 -03491.0 -07.6396 26259.2
 17 09 2013  09 03  -20.9769 26026.1 -03491.0 -07.6398 26259.2
 17 09 2013  09 04  -20.9773 26026.1 -03491.1 -07.6400 26259.2
 17 09 2013  09 05  -20.9773 26026.2 -03491.2 -07.6402 26259.3
 17 09 2013  09 06  -20.9772 26026.1 -03491.2 -07.6402 26259.2
 17 09 2013  09 07  -20.9773 26026.1 -03491.2 -07.6403 26259.2
 17 09 2013  09 08  -20.9780 26026.1 -03491.4 -07.6406 26259.3
 17 09 2013  09 09  -20.9782 26026.2 -03491.5 -07.6408 26259.3
 17 09 2013  09 10  -20.9781 26026.1 -03491.5 -07.6408 26259.2
 17 09 2013  09 11  -20.9784 26026.1 -03491.6 -07.6410 26259.3
 17 09 2013  09 12  -20.9787 26026.1 -03491.7 -07.6412 26259.2
 17 09 2013  09 13  -20.9789 26026.1 -03491.7 -07.6413 26259.3
 17 09 2013  09 14  -20.9786 26026.1 -03491.8 -07.6414 26259.3
 17 09 2013  09 15  -20.9785 26025.9 -03491.8 -07.6415 26259.1
 17 09 2013  09 16  -20.9786 26025.8 -03491.8 -07.6415 26259.0
 17 09 2013  09 17  -20.9787 26025.7 -03491.9 -07.6418 26258.9
 17 09 2013  09 18  -20.9788 26025.6 -03492.0 -07.6419 26258.9
 17 09 2013  09 19  -20.9792 26025.5 -03491.9 -07.6420 26258.7
 17 09 2013  09 20  -20.9793 26025.4 -03492.0 -07.6420 26258.6
 17 09 2013  09 21  -20.9796 26025.2 -03491.9 -07.6419 26258.4
 17 09 2013  09 22  -20.9797 26025.1 -03491.8 -07.6418 26258.3
 17 09 2013  09 23  -20.9802 26025.1 -03491.7 -07.6416 26258.3
 17 09 2013  09 24  -20.9808 26025.0 -03492.0 -07.6421 26258.3
 17 09 2013  09 25  -20.9815 26024.9 -03492.0 -07.6422 26258.1
 17 09 2013  09 26  -20.9819 26024.9 -03492.0 -07.6423 26258.1
 17 09 2013  09 27  -20.9825 26024.9 -03492.1 -07.6423 26258.2
 17 09 2013  09 28  -20.9829 26024.8 -03492.0 -07.6423 26258.1
 17 09 2013  09 29  -20.9828 26024.7 -03491.9 -07.6422 26257.9
 17 09 2013  09 30  -20.9827 26024.5 -03491.9 -07.6421 26257.7
 17 09 2013  09 31  -20.9825 26024.4 -03491.9 -07.6422 26257.6
 17 09 2013  09 32  -20.9825 26024.6 -03492.0 -07.6424 26257.8
 17 09 2013  09 33  -20.9824 26024.6 -03492.1 -07.6425 26257.8
 17 09 2013  09 34  -20.9822 26024.7 -03492.2 -07.6427 26258.0
 17 09 2013  09 35  -20.9819 26024.8 -03492.3 -07.6429 26258.1
 17 09 2013  09 36  -20.9818 26024.9 -03492.4 -07.6431 26258.2
 17 09 2013  09 37  -20.9822 26025.0 -03492.5 -07.6432 26258.3
 17 09 2013  09 38  -20.9829 26025.2 -03492.6 -07.6434 26258.5
 17 09 2013  09 39  -20.9832 26025.3 -03492.6 -07.6435 26258.6
 17 09 2013  09 40  -20.9832 26025.3 -03492.6 -07.6434 26258.6
 17 09 2013  09 41  -20.9831 26025.4 -03492.6 -07.6435 26258.7
 17 09 2013  09 42  -20.9832 26025.4 -03492.6 -07.6435 26258.7
 17 09 2013  09 43  -20.9835 26025.5 -03492.7 -07.6436 26258.8
 17 09 2013  09 44  -20.9841 26025.6 -03492.8 -07.6437 26258.9
 17 09 2013  09 45  -20.9843 26025.6 -03492.8 -07.6438 26258.9
 17 09 2013  09 46  -20.9842 26025.6 -03492.9 -07.6440 26259.0
 17 09 2013  09 47  -20.9837 26025.5 -03492.9 -07.6440 26258.9
 17 09 2013  09 48  -20.9836 26025.7 -03493.0 -07.6441 26259.0
 17 09 2013  09 49  -20.9836 26025.9 -03493.1 -07.6444 26259.3
 17 09 2013  09 50  -20.9837 26026.2 -03493.3 -07.6447 26259.6
 17 09 2013  09 51  -20.9841 26026.4 -03493.4 -07.6448 26259.8
 17 09 2013  09 52  -20.9842 26026.6 -03493.5 -07.6449 26260.0
 17 09 2013  09 53  -20.9846 26026.7 -03493.5 -07.6449 26260.1
 17 09 2013  09 54  -20.9846 26026.9 -03493.5 -07.6450 26260.3
 17 09 2013  09 55  -20.9844 26026.9 -03493.5 -07.6449 26260.4
 17 09 2013  09 56  -20.9848 26027.0 -03493.5 -07.6449 26260.4
 17 09 2013  09 57  -20.9849 26027.2 -03493.6 -07.6450 26260.6
 17 09 2013  09 58  -20.9849 26027.2 -03493.6 -07.6450 26260.6
 17 09 2013  09 59  -20.9851 26027.3 -03493.6 -07.6451 26260.7
 17 09 2013  10 00  -20.9846 26027.2 -03493.6 -07.6450 26260.6
 17 09 2013  10 01  -20.9842 26027.2 -03493.7 -07.6452 26260.6
 17 09 2013  10 02  -20.9836 26027.2 -03493.7 -07.6453 26260.6
 17 09 2013  10 03  -20.9833 26027.3 -03493.8 -07.6455 26260.7
 17 09 2013  10 04  -20.9840 26027.7 -03494.1 -07.6459 26261.2
 17 09 2013  10 05  -20.9844 26028.2 -03494.3 -07.6463 26261.7
 17 09 2013  10 06  -20.9846 26028.6 -03494.4 -07.6464 26262.2
 17 09 2013  10 07  -20.9848 26028.8 -03494.4 -07.6463 26262.3
 17 09 2013  10 08  -20.9853 26028.8 -03494.3 -07.6461 26262.3
 17 09 2013  10 09  -20.9856 26029.0 -03494.3 -07.6461 26262.5
 17 09 2013  10 10  -20.9857 26029.1 -03494.4 -07.6461 26262.6
 17 09 2013  10 11  -20.9859 26029.1 -03494.3 -07.6461 26262.6
 17 09 2013  10 12  -20.9860 26028.9 -03494.3 -07.6460 26262.4
 17 09 2013  10 13  -20.9861 26028.9 -03494.3 -07.6461 26262.4
 17 09 2013  10 14  -20.9862 26029.1 -03494.4 -07.6463 26262.6
 17 09 2013  10 15  -20.9860 26029.1 -03494.4 -07.6463 26262.6
 17 09 2013  10 16  -20.9860 26029.2 -03494.5 -07.6464 26262.7
 17 09 2013  10 17  -20.9861 26029.2 -03494.5 -07.6465 26262.7
 17 09 2013  10 18  -20.9861 26029.5 -03494.7 -07.6468 26263.1
 17 09 2013  10 19  -20.9859 26029.8 -03494.8 -07.6470 26263.4
 17 09 2013  10 20  -20.9858 26030.1 -03494.9 -07.6470 26263.6
 17 09 2013  10 21  -20.9862 26030.1 -03494.9 -07.6471 26263.7
 17 09 2013  10 22  -20.9861 26030.1 -03494.9 -07.6470 26263.7
 17 09 2013  10 23  -20.9860 26030.3 -03494.9 -07.6470 26263.8
 17 09 2013  10 24  -20.9861 26030.5 -03494.9 -07.6470 26264.0
 17 09 2013  10 25  -20.9865 26030.7 -03495.0 -07.6470 26264.3
 17 09 2013  10 26  -20.9869 26030.9 -03495.0 -07.6470 26264.5
 17 09 2013  10 27  -20.9873 26031.1 -03495.0 -07.6469 26264.7
 17 09 2013  10 28  -20.9878 26031.4 -03495.0 -07.6469 26265.0
 17 09 2013  10 29  -20.9884 26031.6 -03495.0 -07.6468 26265.2
 17 09 2013  10 30  -20.9891 26031.8 -03494.9 -07.6465 26265.3
 17 09 2013  10 31  -20.9896 26031.9 -03494.8 -07.6463 26265.4
 17 09 2013  10 32  -20.9901 26032.1 -03494.8 -07.6462 26265.6
 17 09 2013  10 33  -20.9902 26032.3 -03494.7 -07.6460 26265.8
 17 09 2013  10 34  -20.9902 26032.5 -03494.7 -07.6458 26266.1
 17 09 2013  10 35  -20.9902 26032.8 -03494.7 -07.6457 26266.3
 17 09 2013  10 36  -20.9904 26032.8 -03494.6 -07.6455 26266.3
 17 09 2013  10 37  -20.9907 26032.7 -03494.4 -07.6453 26266.2
 17 09 2013  10 38  -20.9911 26033.0 -03494.5 -07.6453 26266.5
 17 09 2013  10 39  -20.9914 26033.3 -03494.5 -07.6452 26266.8
 17 09 2013  10 40  -20.9919 26033.5 -03494.5 -07.6451 26267.0
 17 09 2013  10 41  -20.9921 26033.7 -03494.5 -07.6451 26267.2
 17 09 2013  10 42  -20.9921 26033.9 -03494.5 -07.6450 26267.4
 17 09 2013  10 43  -20.9919 26034.3 -03494.6 -07.6450 26267.8
 17 09 2013  10 44  -20.9919 26034.6 -03494.5 -07.6449 26268.1
 17 09 2013  10 45  -20.9920 26035.0 -03494.6 -07.6449 26268.5
 17 09 2013  10 46  -20.9924 26035.2 -03494.5 -07.6448 26268.7
 17 09 2013  10 47  -20.9928 26035.3 -03494.4 -07.6445 26268.8
 17 09 2013  10 48  -20.9929 26035.6 -03494.3 -07.6442 26269.1
 17 09 2013  10 49  -20.9933 26036.0 -03494.4 -07.6441 26269.4
 17 09 2013  10 50  -20.9940 26036.4 -03494.4 -07.6441 26269.8
 17 09 2013  10 51  -20.9946 26036.6 -03494.4 -07.6440 26270.0
 17 09 2013  10 52  -20.9945 26037.2 -03494.4 -07.6440 26270.6
 17 09 2013  10 53  -20.9945 26037.6 -03494.4 -07.6438 26271.0
 17 09 2013  10 54  -20.9946 26038.1 -03494.4 -07.6437 26271.5
 17 09 2013  10 55  -20.9948 26038.6 -03494.4 -07.6435 26272.0
 17 09 2013  10 56  -20.9953 26038.8 -03494.2 -07.6431 26272.2
 17 09 2013  10 57  -20.9954 26039.1 -03494.1 -07.6427 26272.5
 17 09 2013  10 58  -20.9957 26039.3 -03494.0 -07.6423 26272.7
 17 09 2013  10 59  -20.9961 26039.6 -03493.9 -07.6421 26273.0
 17 09 2013  11 00  -20.9965 26039.9 -03493.8 -07.6419 26273.3
 17 09 2013  11 01  -20.9968 26040.3 -03493.8 -07.6417 26273.6
 17 09 2013  11 02  -20.9971 26040.6 -03493.8 -07.6416 26274.0
 17 09 2013  11 03  -20.9970 26040.9 -03493.8 -07.6415 26274.3
 17 09 2013  11 04  -20.9968 26041.5 -03493.8 -07.6414 26274.8
 17 09 2013  11 05  -20.9971 26042.2 -03493.9 -07.6413 26275.5
 17 09 2013  11 06  -20.9978 26042.7 -03493.9 -07.6411 26276.0
 17 09 2013  11 07  -20.9985 26043.3 -03493.8 -07.6408 26276.6
 17 09 2013  11 08  -20.9992 26043.9 -03493.7 -07.6404 26277.2
 17 09 2013  11 09  -20.9997 26044.6 -03493.7 -07.6401 26277.9
 17 09 2013  11 10  -21.0001 26045.3 -03493.6 -07.6398 26278.5
 17 09 2013  11 11  -21.0002 26045.8 -03493.5 -07.6393 26279.0
 17 09 2013  11 12  -21.0006 26046.2 -03493.3 -07.6389 26279.4
 17 09 2013  11 13  -21.0007 26046.6 -03493.1 -07.6384 26279.8
 17 09 2013  11 14  -21.0008 26046.8 -03493.0 -07.6380 26280.0
 17 09 2013  11 15  -21.0009 26047.2 -03492.9 -07.6377 26280.3
 17 09 2013  11 16  -21.0013 26047.2 -03492.7 -07.6374 26280.4
 17 09 2013  11 17  -21.0021 26047.4 -03492.6 -07.6370 26280.5
 17 09 2013  11 18  -21.0022 26047.9 -03492.6 -07.6368 26281.0
 17 09 2013  11 19  -21.0024 26047.8 -03492.4 -07.6364 26280.9
 17 09 2013  11 20  -21.0028 26047.8 -03492.2 -07.6359 26280.8
 17 09 2013  11 21  -21.0035 26047.9 -03492.1 -07.6358 26281.0
 17 09 2013  11 22  -21.0041 26048.2 -03492.1 -07.6357 26281.3
 17 09 2013  11 23  -21.0044 26048.5 -03492.1 -07.6356 26281.6
 17 09 2013  11 24  -21.0050 26048.8 -03492.0 -07.6353 26281.8
 17 09 2013  11 25  -21.0057 26049.0 -03491.9 -07.6351 26282.0
 17 09 2013  11 26  -21.0063 26049.2 -03491.8 -07.6349 26282.2
 17 09 2013  11 27  -21.0069 26049.3 -03491.7 -07.6344 26282.2
 17 09 2013  11 28  -21.0073 26049.5 -03491.5 -07.6341 26282.4
 17 09 2013  11 29  -21.0075 26049.8 -03491.5 -07.6339 26282.8
 17 09 2013  11 30  -21.0080 26050.2 -03491.4 -07.6336 26283.1
 17 09 2013  11 31  -21.0085 26050.4 -03491.3 -07.6333 26283.3
 17 09 2013  11 32  -21.0089 26050.6 -03491.1 -07.6329 26283.4
 17 09 2013  11 33  -21.0092 26050.6 -03490.8 -07.6323 26283.4
 17 09 2013  11 34  -21.0095 26050.8 -03490.7 -07.6319 26283.6
 17 09 2013  11 35  -21.0098 26051.3 -03490.6 -07.6316 26284.1
 17 09 2013  11 36  -21.0103 26051.9 -03490.6 -07.6315 26284.7
 17 09 2013  11 37  -21.0108 26052.4 -03490.5 -07.6311 26285.2
 17 09 2013  11 38  -21.0113 26053.0 -03490.5 -07.6308 26285.8
 17 09 2013  11 39  -21.0121 26053.3 -03490.3 -07.6304 26286.1
 17 09 2013  11 40  -21.0127 26053.6 -03490.1 -07.6298 26286.3
 17 09 2013  11 41  -21.0135 26054.2 -03490.1 -07.6296 26286.9
 17 09 2013  11 42  -21.0141 26054.9 -03490.1 -07.6293 26287.6
 17 09 2013  11 43  -21.0147 26055.3 -03489.9 -07.6289 26287.9
 17 09 2013  11 44  -21.0156 26055.9 -03489.9 -07.6287 26288.6
 17 09 2013  11 45  -21.0166 26056.4 -03489.8 -07.6283 26289.1
 17 09 2013  11 46  -21.0177 26056.9 -03489.7 -07.6280 26289.5
 17 09 2013  11 47  -21.0184 26057.3 -03489.6 -07.6276 26290.0
 17 09 2013  11 48  -21.0189 26058.2 -03489.6 -07.6274 26290.9
 17 09 2013  11 49  -21.0192 26058.9 -03489.5 -07.6270 26291.5
 17 09 2013  11 50  -21.0193 26059.5 -03489.3 -07.6265 26292.1
 17 09 2013  11 51  -21.0195 26059.9 -03489.1 -07.6259 26292.4
 17 09 2013  11 52  -21.0201 26060.1 -03488.9 -07.6254 26292.7
 17 09 2013  11 53  -21.0208 26060.5 -03488.8 -07.6250 26293.0
 17 09 2013  11 54  -21.0212 26060.9 -03488.7 -07.6246 26293.4
 17 09 2013  11 55  -21.0218 26061.4 -03488.6 -07.6242 26293.9
 17 09 2013  11 56  -21.0221 26062.0 -03488.4 -07.6238 26294.4
 17 09 2013  11 57  -21.0224 26062.3 -03488.2 -07.6232 26294.7
 17 09 2013  11 58  -21.0232 26062.4 -03488.0 -07.6226 26294.8
 17 09 2013  11 59  -21.0240 26062.8 -03487.9 -07.6223 26295.2
 17 09 2013  12 00  -21.0247 26063.3 -03487.7 -07.6219 26295.6
 17 09 2013  12 01  -21.0252 26063.7 -03487.6 -07.6214 26296.0
 17 09 2013  12 02  -21.0259 26063.9 -03487.3 -07.6209 26296.2
 17 09 2013  12 03  -21.0267 26064.2 -03487.1 -07.6204 26296.4
 17 09 2013  12 04  -21.0275 26064.4 -03486.9 -07.6198 26296.6
 17 09 2013  12 05  -21.0280 26064.6 -03486.7 -07.6193 26296.8
 17 09 2013  12 06  -21.0284 26064.8 -03486.6 -07.6189 26297.0
 17 09 2013  12 07  -21.0288 26065.2 -03486.4 -07.6186 26297.3
 17 09 2013  12 08  -21.0290 26065.7 -03486.2 -07.6178 26297.8
 17 09 2013  12 09  -21.0295 26066.3 -03486.0 -07.6173 26298.4
 17 09 2013  12 10  -21.0304 26066.4 -03485.8 -07.6169 26298.4
 17 09 2013  12 11  -21.0302 26067.0 -03485.5 -07.6160 26299.0
 17 09 2013  12 12  -21.0312 26067.3 -03485.5 -07.6159 26299.3
 17 09 2013  12 13  -21.0324 26067.5 -03485.4 -07.6156 26299.5
 17 09 2013  12 14  -21.0330 26067.9 -03485.2 -07.6151 26299.9
 17 09 2013  12 15  -21.0336 26068.1 -03484.9 -07.6143 26300.0
 17 09 2013  12 16  -21.0340 26068.4 -03484.6 -07.6137 26300.3
 17 09 2013  12 17  -21.0344 26068.8 -03484.4 -07.6130 26300.6
 17 09 2013  12 18  -21.0351 26069.1 -03484.1 -07.6123 26300.8
 17 09 2013  12 19  -21.0355 26069.4 -03483.8 -07.6116 26301.2
 17 09 2013  12 20  -21.0360 26069.6 -03483.5 -07.6108 26301.3
 17 09 2013  12 21  -21.0363 26069.8 -03483.1 -07.6099 26301.5
 17 09 2013  12 22  -21.0365 26070.0 -03482.7 -07.6091 26301.6
 17 09 2013  12 23  -21.0367 26070.4 -03482.4 -07.6084 26302.0
 17 09 2013  12 24  -21.0372 26070.8 -03482.2 -07.6078 26302.3
 17 09 2013  12 25  -21.0373 26071.3 -03482.0 -07.6072 26302.8
 17 09 2013  12 26  -21.0371 26071.6 -03481.6 -07.6063 26303.0
 17 09 2013  12 27  -21.0374 26071.7 -03481.2 -07.6054 26303.1
 17 09 2013  12 28  -21.0380 26071.9 -03480.8 -07.6045 26303.2
 17 09 2013  12 29  -21.0387 26072.3 -03480.6 -07.6038 26303.6
 17 09 2013  12 30  -21.0397 26072.8 -03480.3 -07.6030 26304.1
 17 09 2013  12 31  -21.0407 26073.3 -03479.9 -07.6021 26304.5
 17 09 2013  12 32  -21.0411 26074.0 -03479.6 -07.6012 26305.2
 17 09 2013  12 33  -21.0416 26074.7 -03479.3 -07.6003 26305.8
 17 09 2013  12 34  -21.0419 26075.0 -03478.8 -07.5991 26306.0
 17 09 2013  12 35  -21.0422 26075.4 -03478.3 -07.5981 26306.4
 17 09 2013  12 36  -21.0425 26075.8 -03478.0 -07.5972 26306.7
 17 09 2013  12 37  -21.0426 26076.1 -03477.5 -07.5962 26307.0
 17 09 2013  12 38  -21.0425 26076.6 -03477.2 -07.5953 26307.4
 17 09 2013  12 39  -21.0422 26076.8 -03476.7 -07.5942 26307.6
 17 09 2013  12 40  -21.0418 26076.6 -03476.1 -07.5930 26307.3
 17 09 2013  12 41  -21.0412 26076.3 -03475.5 -07.5918 26306.9
 17 09 2013  12 42  -21.0411 26076.3 -03475.2 -07.5911 26306.8
 17 09 2013  12 43  -21.0414 26076.4 -03474.9 -07.5903 26306.9
 17 09 2013  12 44  -21.0414 26076.5 -03474.6 -07.5897 26307.0
 17 09 2013  12 45  -21.0411 26076.5 -03474.2 -07.5888 26306.9
 17 09 2013  12 46  -21.0409 26076.3 -03473.8 -07.5880 26306.7
 17 09 2013  12 47  -21.0409 26076.3 -03473.5 -07.5874 26306.6
 17 09 2013  12 48  -21.0412 26076.7 -03473.4 -07.5870 26307.0
 17 09 2013  12 49  -21.0415 26076.9 -03473.1 -07.5864 26307.2
 17 09 2013  12 50  -21.0418 26077.1 -03472.8 -07.5857 26307.3
 17 09 2013  12 51  -21.0418 26077.6 -03472.6 -07.5852 26307.8
 17 09 2013  12 52  -21.0417 26078.2 -03472.6 -07.5849 26308.4
 17 09 2013  12 53  -21.0413 26078.6 -03472.3 -07.5843 26308.8
 17 09 2013  12 54  -21.0407 26079.3 -03472.2 -07.5837 26309.4
 17 09 2013  12 55  -21.0405 26079.8 -03472.0 -07.5831 26309.9
 17 09 2013  12 56  -21.0399 26079.8 -03471.6 -07.5822 26309.8
 17 09 2013  12 57  -21.0397 26079.8 -03471.2 -07.5814 26309.7
 17 09 2013  12 58  -21.0397 26079.8 -03470.8 -07.5806 26309.7
 17 09 2013  12 59  -21.0393 26080.0 -03470.6 -07.5800 26309.9
 17 09 2013  13 00  -21.0392 26080.8 -03470.5 -07.5796 26310.7
 17 09 2013  13 01  -21.0396 26080.5 -03470.0 -07.5786 26310.3
 17 09 2013  13 02  -21.0396 26080.3 -03469.5 -07.5776 26310.1
 17 09 2013  13 03  -21.0397 26080.8 -03469.4 -07.5773 26310.6
 17 09 2013  13 04  -21.0393 26081.2 -03469.3 -07.5769 26310.9
 17 09 2013  13 05  -21.0380 26081.5 -03469.1 -07.5765 26311.2
 17 09 2013  13 06  -21.0370 26082.5 -03469.3 -07.5767 26312.2
 17 09 2013  13 07  -21.0363 26082.9 -03469.3 -07.5765 26312.7
 17 09 2013  13 08  -21.0353 26084.2 -03469.6 -07.5766 26313.9
 17 09 2013  13 09  -21.0344 26085.8 -03470.0 -07.5770 26315.6
 17 09 2013  13 10  -21.0330 26087.0 -03470.1 -07.5769 26316.8
 17 09 2013  13 11  -21.0319 26088.3 -03470.1 -07.5767 26318.1
 17 09 2013  13 12  -21.0306 26089.1 -03469.9 -07.5759 26318.8
 17 09 2013  13 13  -21.0296 26090.1 -03469.8 -07.5754 26319.8
 17 09 2013  13 14  -21.0289 26091.0 -03469.6 -07.5748 26320.7
 17 09 2013  13 15  -21.0282 26092.0 -03469.5 -07.5742 26321.7
 17 09 2013  13 16  -21.0276 26092.1 -03469.0 -07.5732 26321.7
 17 09 2013  13 17  -21.0267 26091.6 -03468.5 -07.5722 26321.2
 17 09 2013  13 18  -21.0263 26091.1 -03468.1 -07.5715 26320.6
 17 09 2013  13 19  -21.0262 26090.8 -03467.9 -07.5711 26320.3
 17 09 2013  13 20  -21.0262 26090.4 -03467.6 -07.5707 26319.9
 17 09 2013  13 21  -21.0264 26090.2 -03467.4 -07.5703 26319.6
 17 09 2013  13 22  -21.0258 26090.9 -03467.7 -07.5707 26320.3
 17 09 2013  13 23  -21.0248 26091.7 -03468.2 -07.5715 26321.2
 17 09 2013  13 24  -21.0240 26091.9 -03468.4 -07.5718 26321.4
 17 09 2013  13 25  -21.0240 26092.4 -03468.6 -07.5722 26321.9
 17 09 2013  13 26  -21.0246 26092.6 -03468.5 -07.5720 26322.1
 17 09 2013  13 27  -21.0254 26092.9 -03468.3 -07.5714 26322.4
 17 09 2013  13 28  -21.0257 26093.0 -03468.0 -07.5707 26322.5
 17 09 2013  13 29  -21.0255 26093.3 -03467.7 -07.5700 26322.7
 17 09 2013  13 30  -21.0249 26092.9 -03467.2 -07.5691 26322.3
 17 09 2013  13 31  -21.0238 26092.3 -03466.8 -07.5683 26321.6
 17 09 2013  13 32  -21.0231 26092.2 -03466.6 -07.5680 26321.5
 17 09 2013  13 33  -21.0226 26092.0 -03466.5 -07.5678 26321.3
 17 09 2013  13 34  -21.0221 26091.7 -03466.3 -07.5675 26320.9
 17 09 2013  13 35  -21.0218 26091.3 -03466.2 -07.5674 26320.6
 17 09 2013  13 36  -21.0216 26091.1 -03466.2 -07.5674 26320.4
 17 09 2013  13 37  -21.0213 26091.0 -03466.2 -07.5673 26320.2
 17 09 2013  13 38  -21.0210 26090.7 -03466.1 -07.5673 26319.9
 17 09 2013  13 39  -21.0202 26090.2 -03466.0 -07.5672 26319.5
 17 09 2013  13 40  -21.0192 26090.1 -03466.0 -07.5673 26319.4
 17 09 2013  13 41  -21.0183 26090.2 -03466.1 -07.5675 26319.5
 17 09 2013  13 42  -21.0176 26090.6 -03466.4 -07.5680 26319.8
 17 09 2013  13 43  -21.0172 26090.7 -03466.5 -07.5682 26320.0
 17 09 2013  13 44  -21.0165 26090.8 -03466.6 -07.5683 26320.1
 17 09 2013  13 45  -21.0159 26091.0 -03466.7 -07.5685 26320.3
 17 09 2013  13 46  -21.0152 26090.8 -03466.7 -07.5685 26320.1
 17 09 2013  13 47  -21.0146 26089.9 -03466.3 -07.5681 26319.2
 17 09 2013  13 48  -21.0144 26090.0 -03466.5 -07.5684 26319.3
 17 09 2013  13 49  -21.0145 26090.8 -03467.0 -07.5693 26320.1
 17 09 2013  13 50  -21.0139 26091.3 -03467.3 -07.5697 26320.7
 17 09 2013  13 51  -21.0132 26091.3 -03467.4 -07.5700 26320.7
 17 09 2013  13 52  -21.0128 26091.5 -03467.6 -07.5703 26320.9
 17 09 2013  13 53  -21.0127 26092.0 -03467.9 -07.5708 26321.5
 17 09 2013  13 54  -21.0125 26092.6 -03468.1 -07.5711 26322.1
 17 09 2013  13 55  -21.0122 26093.2 -03468.3 -07.5713 26322.7
 17 09 2013  13 56  -21.0124 26093.7 -03468.5 -07.5716 26323.3
 17 09 2013  13 57  -21.0124 26093.6 -03468.4 -07.5715 26323.1
 17 09 2013  13 58  -21.0123 26093.5 -03468.4 -07.5714 26323.0
 17 09 2013  13 59  -21.0120 26093.9 -03468.5 -07.5716 26323.4
 17 09 2013  14 00  -21.0122 26094.3 -03468.7 -07.5720 26323.9
 17 09 2013  14 01  -21.0122 26094.9 -03469.0 -07.5724 26324.4
 17 09 2013  14 02  -21.0124 26095.0 -03469.2 -07.5728 26324.6
 17 09 2013  14 03  -21.0126 26094.9 -03469.3 -07.5730 26324.5
 17 09 2013  14 04  -21.0125 26095.4 -03469.6 -07.5736 26325.1
 17 09 2013  14 05  -21.0126 26096.2 -03470.1 -07.5744 26325.9
 17 09 2013  14 06  -21.0127 26096.8 -03470.5 -07.5751 26326.5
 17 09 2013  14 07  -21.0130 26097.8 -03470.9 -07.5757 26327.6
 17 09 2013  14 08  -21.0129 26099.0 -03471.4 -07.5764 26328.8
 17 09 2013  14 09  -21.0127 26100.2 -03471.9 -07.5771 26330.1
 17 09 2013  14 10  -21.0126 26101.0 -03472.1 -07.5773 26330.9
 17 09 2013  14 11  -21.0121 26101.6 -03472.2 -07.5773 26331.5
 17 09 2013  14 12  -21.0119 26102.2 -03472.3 -07.5774 26332.1
 17 09 2013  14 13  -21.0121 26102.4 -03472.3 -07.5773 26332.4
 17 09 2013  14 14  -21.0124 26102.7 -03472.3 -07.5773 26332.6
 17 09 2013  14 15  -21.0124 26101.9 -03471.9 -07.5766 26331.7
 17 09 2013  14 16  -21.0126 26100.9 -03471.6 -07.5763 26330.8
 17 09 2013  14 17  -21.0128 26099.3 -03471.2 -07.5758 26329.1
 17 09 2013  14 18  -21.0132 26097.9 -03470.9 -07.5757 26327.7
 17 09 2013  14 19  -21.0143 26097.4 -03471.2 -07.5763 26327.3
 17 09 2013  14 20  -21.0153 26096.9 -03471.4 -07.5769 26326.8
 17 09 2013  14 21  -21.0149 26095.7 -03471.3 -07.5772 26325.6
 17 09 2013  14 22  -21.0149 26094.8 -03471.6 -07.5779 26324.7
 17 09 2013  14 23  -21.0153 26094.8 -03472.2 -07.5792 26324.8
 17 09 2013  14 24  -21.0155 26094.7 -03472.7 -07.5805 26324.8
 17 09 2013  14 25  -21.0155 26095.1 -03473.5 -07.5820 26325.3
 17 09 2013  14 26  -21.0156 26095.6 -03474.2 -07.5834 26325.9
 17 09 2013  14 27  -21.0163 26096.3 -03474.9 -07.5847 26326.6
 17 09 2013  14 28  -21.0174 26097.0 -03475.5 -07.5858 26327.4
 17 09 2013  14 29  -21.0186 26096.9 -03475.6 -07.5861 26327.3
 17 09 2013  14 30  -21.0201 26097.1 -03475.7 -07.5862 26327.5
 17 09 2013  14 31  -21.0219 26096.2 -03475.2 -07.5853 26326.6
 17 09 2013  14 32  -21.0223 26095.1 -03474.6 -07.5843 26325.4
 17 09 2013  14 33  -21.0228 26093.7 -03474.0 -07.5835 26323.9
 17 09 2013  14 34  -21.0238 26093.8 -03474.3 -07.5842 26324.0
 17 09 2013  14 35  -21.0246 26094.8 -03475.0 -07.5854 26325.2
 17 09 2013  14 36  -21.0251 26095.4 -03475.4 -07.5861 26325.8
 17 09 2013  14 37  -21.0257 26095.3 -03475.4 -07.5861 26325.7
 17 09 2013  14 38  -21.0257 26095.3 -03475.3 -07.5859 26325.7
 17 09 2013  14 39  -21.0257 26094.8 -03475.0 -07.5854 26325.2
 17 09 2013  14 40  -21.0257 26094.6 -03474.9 -07.5852 26325.0
 17 09 2013  14 41  -21.0261 26094.0 -03474.7 -07.5850 26324.3
 17 09 2013  14 42  -21.0266 26093.2 -03474.5 -07.5848 26323.6
 17 09 2013  14 43  -21.0270 26093.3 -03474.8 -07.5853 26323.6
 17 09 2013  14 44  -21.0269 26093.2 -03474.9 -07.5856 26323.6
 17 09 2013  14 45  -21.0266 26093.4 -03475.2 -07.5861 26323.8
 17 09 2013  14 46  -21.0267 26093.5 -03475.5 -07.5868 26323.9
 17 09 2013  14 47  -21.0271 26093.5 -03475.8 -07.5874 26324.0
 17 09 2013  14 48  -21.0277 26093.4 -03475.9 -07.5877 26323.9
 17 09 2013  14 49  -21.0285 26093.0 -03475.9 -07.5878 26323.5
 17 09 2013  14 50  -21.0289 26092.4 -03475.9 -07.5879 26322.9
 17 09 2013  14 51  -21.0290 26092.0 -03475.9 -07.5881 26322.5
 17 09 2013  14 52  -21.0293 26091.8 -03476.0 -07.5885 26322.3
 17 09 2013  14 53  -21.0300 26091.8 -03476.3 -07.5889 26322.4
 17 09 2013  14 54  -21.0305 26091.3 -03476.2 -07.5889 26321.8
 17 09 2013  14 55  -21.0308 26090.7 -03476.1 -07.5889 26321.2
 17 09 2013  14 56  -21.0310 26090.6 -03476.2 -07.5892 26321.2
 17 09 2013  14 57  -21.0311 26090.4 -03476.3 -07.5895 26320.9
 17 09 2013  14 58  -21.0314 26090.6 -03476.6 -07.5901 26321.2
 17 09 2013  14 59  -21.0314 26090.5 -03476.8 -07.5904 26321.2
 17 09 2013  15 00  -21.0314 26090.7 -03477.0 -07.5908 26321.4
 17 09 2013  15 01  -21.0319 26090.8 -03477.1 -07.5910 26321.4
 17 09 2013  15 02  -21.0318 26090.5 -03477.0 -07.5909 26321.2
 17 09 2013  15 03  -21.0320 26090.8 -03477.2 -07.5913 26321.5
 17 09 2013  15 04  -21.0315 26091.0 -03477.4 -07.5916 26321.7
 17 09 2013  15 05  -21.0308 26091.0 -03477.5 -07.5918 26321.7
 17 09 2013  15 06  -21.0307 26091.0 -03477.6 -07.5921 26321.7
 17 09 2013  15 07  -21.0309 26091.3 -03477.9 -07.5926 26322.1
 17 09 2013  15 08  -21.0311 26091.5 -03478.1 -07.5930 26322.3
 17 09 2013  15 09  -21.0314 26091.6 -03478.2 -07.5932 26322.4
 17 09 2013  15 10  -21.0310 26091.4 -03478.3 -07.5933 26322.3
 17 09 2013  15 11  -21.0305 26091.3 -03478.4 -07.5937 26322.1
 17 09 2013  15 12  -21.0302 26091.0 -03478.5 -07.5940 26321.8
 17 09 2013  15 13  -21.0304 26090.4 -03478.5 -07.5942 26321.3
 17 09 2013  15 14  -21.0306 26089.8 -03478.6 -07.5946 26320.7
 17 09 2013  15 15  -21.0310 26089.6 -03478.9 -07.5953 26320.5
 17 09 2013  15 16  -21.0317 26089.0 -03479.0 -07.5956 26319.9
 17 09 2013  15 17  -21.0320 26088.7 -03479.2 -07.5961 26319.6
 17 09 2013  15 18  -21.0329 26088.3 -03479.3 -07.5966 26319.3
 17 09 2013  15 19  -21.0338 26088.0 -03479.4 -07.5969 26319.0
 17 09 2013  15 20  -21.0345 26088.0 -03479.8 -07.5976 26319.1
 17 09 2013  15 21  -21.0346 26087.7 -03479.8 -07.5978 26318.8
 17 09 2013  15 22  -21.0352 26088.1 -03480.2 -07.5985 26319.2
 17 09 2013  15 23  -21.0369 26088.8 -03480.7 -07.5994 26320.0
 17 09 2013  15 24  -21.0374 26088.8 -03480.9 -07.5999 26320.0
 17 09 2013  15 25  -21.0364 26087.3 -03480.5 -07.5995 26318.4
 17 09 2013  15 26  -21.0349 26085.3 -03480.2 -07.5992 26316.4
 17 09 2013  15 27  -21.0344 26084.5 -03480.5 -07.6003 26315.7
 17 09 2013  15 28  -21.0350 26085.2 -03481.5 -07.6021 26316.5
 17 09 2013  15 29  -21.0361 26086.3 -03482.5 -07.6039 26317.7
 17 09 2013  15 30  -21.0374 26087.0 -03483.0 -07.6048 26318.5
 17 09 2013  15 31  -21.0380 26086.7 -03482.8 -07.6046 26318.1
 17 09 2013  15 32  -21.0380 26085.0 -03482.3 -07.6039 26316.4
 17 09 2013  15 33  -21.0371 26082.8 -03481.7 -07.6032 26314.2
 17 09 2013  15 34  -21.0359 26081.0 -03481.5 -07.6034 26312.3
 17 09 2013  15 35  -21.0370 26080.6 -03482.1 -07.6048 26312.0
 17 09 2013  15 36  -21.0383 26080.7 -03482.7 -07.6061 26312.2
 17 09 2013  15 37  -21.0384 26081.0 -03483.2 -07.6071 26312.6
 17 09 2013  15 38  -21.0389 26080.3 -03483.2 -07.6073 26311.9
 17 09 2013  15 39  -21.0393 26079.1 -03483.0 -07.6071 26310.6
 17 09 2013  15 40  -21.0389 26078.2 -03483.0 -07.6074 26309.8
 17 09 2013  15 41  -21.0388 26077.8 -03483.2 -07.6079 26309.4
 17 09 2013  15 42  -21.0400 26078.0 -03483.7 -07.6089 26309.6
 17 09 2013  15 43  -21.0405 26078.2 -03484.0 -07.6096 26309.9
 17 09 2013  15 44  -21.0405 26078.7 -03484.3 -07.6100 26310.4
 17 09 2013  15 45  -21.0406 26078.3 -03484.2 -07.6098 26310.0
 17 09 2013  15 46  -21.0391 26077.5 -03483.9 -07.6096 26309.2
 17 09 2013  15 47  -21.0377 26076.3 -03483.8 -07.6096 26307.9
 17 09 2013  15 48  -21.0368 26075.8 -03484.0 -07.6103 26307.5
 17 09 2013  15 49  -21.0362 26075.1 -03484.3 -07.6110 26306.9
 17 09 2013  15 50  -21.0356 26074.3 -03484.3 -07.6113 26306.0
 17 09 2013  15 51  -21.0352 26074.7 -03484.9 -07.6126 26306.6
 17 09 2013  15 52  -21.0347 26075.0 -03485.5 -07.6136 26307.0
 17 09 2013  15 53  -21.0339 26075.2 -03485.9 -07.6145 26307.2
 17 09 2013  15 54  -21.0331 26075.0 -03486.1 -07.6151 26307.0
 17 09 2013  15 55  -21.0339 26075.7 -03486.7 -07.6161 26307.8
 17 09 2013  15 56  -21.0356 26076.8 -03487.2 -07.6169 26309.0
 17 09 2013  15 57  -21.0377 26077.9 -03487.5 -07.6172 26310.1
 17 09 2013  15 58  -21.0382 26077.8 -03487.2 -07.6165 26309.9
 17 09 2013  15 59  -21.0377 26076.6 -03486.5 -07.6153 26308.7
 17 09 2013  16 00  -21.0372 26075.6 -03486.0 -07.6146 26307.6
 17 09 2013  16 01  -21.0371 26075.0 -03485.9 -07.6145 26307.0
 17 09 2013  16 02  -21.0370 26074.4 -03485.8 -07.6145 26306.4
 17 09 2013  16 03  -21.0369 26073.5 -03485.6 -07.6142 26305.5
 17 09 2013  16 04  -21.0366 26072.7 -03485.4 -07.6141 26304.6
 17 09 2013  16 05  -21.0362 26071.8 -03485.3 -07.6141 26303.7
 17 09 2013  16 06  -21.0360 26071.4 -03485.4 -07.6145 26303.3
 17 09 2013  16 07  -21.0365 26071.3 -03485.6 -07.6151 26303.3
 17 09 2013  16 08  -21.0376 26070.8 -03485.6 -07.6152 26302.8
 17 09 2013  16 09  -21.0379 26069.9 -03485.3 -07.6147 26301.8
 17 09 2013  16 10  -21.0374 26068.9 -03485.1 -07.6145 26300.9
 17 09 2013  16 11  -21.0371 26067.9 -03485.0 -07.6146 26299.8
 17 09 2013  16 12  -21.0367 26067.2 -03485.0 -07.6149 26299.1
 17 09 2013  16 13  -21.0368 26066.9 -03485.3 -07.6155 26298.9
 17 09 2013  16 14  -21.0373 26067.1 -03485.6 -07.6163 26299.1
 17 09 2013  16 15  -21.0377 26067.1 -03485.9 -07.6168 26299.2
 17 09 2013  16 16  -21.0378 26067.2 -03486.1 -07.6172 26299.3
 17 09 2013  16 17  -21.0385 26067.7 -03486.5 -07.6179 26299.8
 17 09 2013  16 18  -21.0396 26068.4 -03486.8 -07.6184 26300.5
 17 09 2013  16 19  -21.0402 26068.9 -03486.9 -07.6185 26301.0
 17 09 2013  16 20  -21.0407 26068.9 -03486.8 -07.6183 26301.1
 17 09 2013  16 21  -21.0412 26068.5 -03486.6 -07.6179 26300.6
 17 09 2013  16 22  -21.0408 26067.6 -03486.2 -07.6173 26299.7
 17 09 2013  16 23  -21.0408 26066.7 -03485.8 -07.6168 26298.8
 17 09 2013  16 24  -21.0401 26065.2 -03485.4 -07.6162 26297.2
 17 09 2013  16 25  -21.0390 26063.6 -03485.0 -07.6159 26295.6
 17 09 2013  16 26  -21.0377 26062.9 -03485.2 -07.6166 26294.9
 17 09 2013  16 27  -21.0371 26062.6 -03485.7 -07.6177 26294.7
 17 09 2013  16 28  -21.0381 26063.5 -03486.6 -07.6194 26295.7
 17 09 2013  16 29  -21.0403 26064.5 -03487.2 -07.6203 26296.7
 17 09 2013  16 30  -21.0417 26063.1 -03486.3 -07.6189 26295.3
 17 09 2013  16 31  -21.0417 26061.0 -03485.3 -07.6173 26293.1
 17 09 2013  16 32  -21.0397 26057.8 -03484.0 -07.6155 26289.7
 17 09 2013  16 33  -21.0376 26054.4 -03483.1 -07.6146 26286.2
 17 09 2013  16 34  -21.0362 26052.6 -03483.3 -07.6154 26284.4
 17 09 2013  16 35  -21.0361 26052.1 -03484.1 -07.6173 26284.1
 17 09 2013  16 36  -21.0365 26052.5 -03485.1 -07.6192 26284.6
 17 09 2013  16 37  -21.0369 26053.0 -03485.8 -07.6206 26285.2
 17 09 2013  16 38  -21.0371 26053.9 -03486.5 -07.6219 26286.2
 17 09 2013  16 39  -21.0376 26055.1 -03487.2 -07.6231 26287.4
 17 09 2013  16 40  -21.0382 26056.1 -03487.6 -07.6237 26288.4
 17 09 2013  16 41  -21.0383 26056.6 -03487.7 -07.6238 26289.0
 17 09 2013  16 42  -21.0377 26057.0 -03487.8 -07.6238 26289.4
 17 09 2013  16 43  -21.0371 26056.9 -03487.7 -07.6236 26289.2
 17 09 2013  16 44  -21.0367 26056.6 -03487.6 -07.6235 26289.0
 17 09 2013  16 45  -21.0364 26056.6 -03487.6 -07.6236 26288.9
 17 09 2013  16 46  -21.0370 26055.6 -03487.2 -07.6229 26287.9
 17 09 2013  16 47  -21.0373 26054.6 -03486.8 -07.6223 26286.9
 17 09 2013  16 48  -21.0366 26052.7 -03486.0 -07.6212 26284.9
 17 09 2013  16 49  -21.0355 26051.2 -03485.6 -07.6207 26283.3
 17 09 2013  16 50  -21.0347 26049.9 -03485.4 -07.6208 26282.1
 17 09 2013  16 51  -21.0347 26049.5 -03485.7 -07.6215 26281.7
 17 09 2013  16 52  -21.0350 26049.2 -03485.9 -07.6221 26281.4
 17 09 2013  16 53  -21.0352 26049.1 -03486.1 -07.6225 26281.3
 17 09 2013  16 54  -21.0354 26049.1 -03486.2 -07.6228 26281.3
 17 09 2013  16 55  -21.0356 26049.2 -03486.4 -07.6230 26281.5
 17 09 2013  16 56  -21.0355 26049.4 -03486.5 -07.6232 26281.7
 17 09 2013  16 57  -21.0353 26049.7 -03486.7 -07.6235 26282.0
 17 09 2013  16 58  -21.0351 26050.0 -03486.8 -07.6238 26282.3
 17 09 2013  16 59  -21.0349 26050.2 -03486.9 -07.6239 26282.5
 17 09 2013  17 00  -21.0344 26050.6 -03487.1 -07.6242 26283.0
 17 09 2013  17 01  -21.0344 26051.3 -03487.4 -07.6247 26283.7
 17 09 2013  17 02  -21.0353 26051.9 -03487.6 -07.6250 26284.4
 17 09 2013  17 03  -21.0357 26052.4 -03487.7 -07.6249 26284.8
 17 09 2013  17 04  -21.0356 26051.8 -03487.1 -07.6239 26284.1
 17 09 2013  17 05  -21.0347 26051.0 -03486.7 -07.6233 26283.3
 17 09 2013  17 06  -21.0337 26050.2 -03486.5 -07.6229 26282.5
 17 09 2013  17 07  -21.0332 26049.7 -03486.5 -07.6232 26282.0
 17 09 2013  17 08  -21.0329 26049.5 -03486.6 -07.6235 26281.8
 17 09 2013  17 09  -21.0329 26049.6 -03486.8 -07.6239 26281.9
 17 09 2013  17 10  -21.0328 26049.6 -03487.0 -07.6243 26282.0
 17 09 2013  17 11  -21.0326 26049.5 -03487.0 -07.6243 26281.9
 17 09 2013  17 12  -21.0322 26049.2 -03486.9 -07.6242 26281.6
 17 09 2013  17 13  -21.0318 26049.0 -03486.8 -07.6241 26281.4
 17 09 2013  17 14  -21.0317 26049.1 -03486.9 -07.6242 26281.5
 17 09 2013  17 15  -21.0315 26049.2 -03487.0 -07.6243 26281.5
 17 09 2013  17 16  -21.0313 26049.2 -03487.0 -07.6243 26281.5
 17 09 2013  17 17  -21.0310 26049.1 -03487.0 -07.6243 26281.5
 17 09 2013  17 18  -21.0306 26049.1 -03486.9 -07.6243 26281.4
 17 09 2013  17 19  -21.0303 26049.2 -03486.9 -07.6242 26281.5
 17 09 2013  17 20  -21.0301 26049.3 -03486.9 -07.6242 26281.6
 17 09 2013  17 21  -21.0300 26049.4 -03486.9 -07.6242 26281.8
 17 09 2013  17 22  -21.0295 26049.4 -03486.8 -07.6240 26281.7
 17 09 2013  17 23  -21.0290 26049.3 -03486.7 -07.6238 26281.6
 17 09 2013  17 24  -21.0287 26049.2 -03486.7 -07.6238 26281.5
 17 09 2013  17 25  -21.0283 26049.1 -03486.7 -07.6237 26281.4
 17 09 2013  17 26  -21.0281 26049.2 -03486.7 -07.6237 26281.5
 17 09 2013  17 27  -21.0279 26049.1 -03486.6 -07.6236 26281.5
 17 09 2013  17 28  -21.0276 26049.0 -03486.5 -07.6234 26281.3
 17 09 2013  17 29  -21.0272 26048.8 -03486.4 -07.6231 26281.1
 17 09 2013  17 30  -21.0268 26048.6 -03486.2 -07.6229 26280.9
 17 09 2013  17 31  -21.0264 26048.6 -03486.2 -07.6229 26280.8
 17 09 2013  17 32  -21.0261 26048.4 -03486.1 -07.6227 26280.6
 17 09 2013  17 33  -21.0258 26048.2 -03485.9 -07.6224 26280.4
 17 09 2013  17 34  -21.0253 26047.9 -03485.8 -07.6222 26280.1
 17 09 2013  17 35  -21.0247 26047.7 -03485.7 -07.6220 26279.9
 17 09 2013  17 36  -21.0239 26047.3 -03485.5 -07.6218 26279.4
 17 09 2013  17 37  -21.0234 26047.0 -03485.5 -07.6217 26279.2
 17 09 2013  17 38  -21.0231 26046.8 -03485.4 -07.6217 26279.0
 17 09 2013  17 39  -21.0229 26046.5 -03485.3 -07.6215 26278.7
 17 09 2013  17 40  -21.0226 26046.3 -03485.1 -07.6212 26278.4
 17 09 2013  17 41  -21.0221 26046.0 -03485.0 -07.6210 26278.1
 17 09 2013  17 42  -21.0216 26045.7 -03484.9 -07.6208 26277.8
 17 09 2013  17 43  -21.0211 26045.4 -03484.7 -07.6206 26277.5
 17 09 2013  17 44  -21.0204 26045.1 -03484.6 -07.6204 26277.2
 17 09 2013  17 45  -21.0197 26044.9 -03484.6 -07.6204 26276.9
 17 09 2013  17 46  -21.0191 26044.7 -03484.5 -07.6203 26276.8
 17 09 2013  17 47  -21.0187 26044.6 -03484.5 -07.6203 26276.7
 17 09 2013  17 48  -21.0182 26044.6 -03484.5 -07.6203 26276.7
 17 09 2013  17 49  -21.0175 26044.5 -03484.4 -07.6201 26276.6
 17 09 2013  17 50  -21.0169 26044.6 -03484.4 -07.6201 26276.6
 17 09 2013  17 51  -21.0162 26044.6 -03484.4 -07.6201 26276.7
 17 09 2013  17 52  -21.0156 26044.7 -03484.4 -07.6200 26276.8
 17 09 2013  17 53  -21.0151 26044.9 -03484.4 -07.6200 26276.9
 17 09 2013  17 54  -21.0144 26044.9 -03484.4 -07.6199 26276.9
 17 09 2013  17 55  -21.0138 26045.0 -03484.3 -07.6197 26277.0
 17 09 2013  17 56  -21.0129 26045.1 -03484.2 -07.6196 26277.1
 17 09 2013  17 57  -21.0122 26045.3 -03484.2 -07.6195 26277.3
 17 09 2013  17 58  -21.0113 26045.5 -03484.2 -07.6194 26277.5
 17 09 2013  17 59  -21.0105 26045.6 -03484.1 -07.6192 26277.6
 17 09 2013  18 00  -21.0102 26045.7 -03484.0 -07.6190 26277.7
 17 09 2013  18 01  -21.0099 26045.7 -03483.9 -07.6187 26277.7
 17 09 2013  18 02  -21.0094 26045.9 -03483.8 -07.6184 26277.8
 17 09 2013  18 03  -21.0092 26046.0 -03483.6 -07.6180 26277.9
 17 09 2013  18 04  -21.0089 26045.7 -03483.3 -07.6174 26277.6
 17 09 2013  18 05  -21.0084 26045.1 -03482.8 -07.6166 26276.9
 17 09 2013  18 06  -21.0081 26044.5 -03482.5 -07.6159 26276.3
 17 09 2013  18 07  -21.0080 26044.4 -03482.3 -07.6157 26276.2
 17 09 2013  18 08  -21.0077 26044.5 -03482.2 -07.6155 26276.2
 17 09 2013  18 09  -21.0070 26044.2 -03482.0 -07.6151 26275.9
 17 09 2013  18 10  -21.0060 26043.6 -03481.7 -07.6145 26275.3
 17 09 2013  18 11  -21.0051 26043.0 -03481.4 -07.6142 26274.6
 17 09 2013  18 12  -21.0042 26042.6 -03481.3 -07.6139 26274.2
 17 09 2013  18 13  -21.0034 26042.5 -03481.3 -07.6140 26274.2
 17 09 2013  18 14  -21.0024 26042.8 -03481.5 -07.6142 26274.5
 17 09 2013  18 15  -21.0017 26043.2 -03481.7 -07.6147 26274.9
 17 09 2013  18 16  -21.0007 26043.4 -03481.8 -07.6148 26275.1
 17 09 2013  18 17  -20.9997 26043.5 -03481.9 -07.6149 26275.2
 17 09 2013  18 18  -20.9986 26043.5 -03481.9 -07.6149 26275.2
 17 09 2013  18 19  -20.9979 26043.6 -03481.9 -07.6150 26275.3
 17 09 2013  18 20  -20.9978 26043.9 -03482.1 -07.6152 26275.7
 17 09 2013  18 21  -20.9975 26044.1 -03482.1 -07.6152 26275.8
 17 09 2013  18 22  -20.9970 26044.1 -03482.0 -07.6150 26275.8
 17 09 2013  18 23  -20.9964 26043.9 -03481.8 -07.6148 26275.6
 17 09 2013  18 24  -20.9961 26043.8 -03481.7 -07.6146 26275.5
 17 09 2013  18 25  -20.9957 26043.5 -03481.6 -07.6143 26275.2
 17 09 2013  18 26  -20.9951 26043.5 -03481.5 -07.6142 26275.1
 17 09 2013  18 27  -20.9946 26043.4 -03481.5 -07.6141 26275.1
 17 09 2013  18 28  -20.9937 26043.5 -03481.5 -07.6141 26275.2
 17 09 2013  18 29  -20.9929 26043.6 -03481.6 -07.6142 26275.3
 17 09 2013  18 30  -20.9919 26043.8 -03481.7 -07.6144 26275.5
 17 09 2013  18 31  -20.9915 26044.1 -03481.8 -07.6147 26275.8
 17 09 2013  18 32  -20.9910 26044.7 -03482.1 -07.6150 26276.4
 17 09 2013  18 33  -20.9907 26045.5 -03482.3 -07.6154 26277.2
 17 09 2013  18 34  -20.9906 26045.9 -03482.5 -07.6156 26277.7
 17 09 2013  18 35  -20.9909 26046.2 -03482.5 -07.6155 26278.0
 17 09 2013  18 36  -20.9919 26045.8 -03482.1 -07.6149 26277.5
 17 09 2013  18 37  -20.9922 26045.1 -03481.6 -07.6139 26276.7
 17 09 2013  18 38  -20.9921 26044.7 -03481.3 -07.6133 26276.3
 17 09 2013  18 39  -20.9914 26044.2 -03480.9 -07.6127 26275.8
 17 09 2013  18 40  -20.9903 26043.3 -03480.5 -07.6121 26274.8
 17 09 2013  18 41  -20.9896 26042.7 -03480.4 -07.6120 26274.3
 17 09 2013  18 42  -20.9895 26042.6 -03480.5 -07.6122 26274.2
 17 09 2013  18 43  -20.9893 26042.7 -03480.6 -07.6124 26274.3
 17 09 2013  18 44  -20.9891 26042.9 -03480.7 -07.6127 26274.5
 17 09 2013  18 45  -20.9890 26042.9 -03480.7 -07.6127 26274.5
 17 09 2013  18 46  -20.9886 26042.9 -03480.7 -07.6127 26274.5
 17 09 2013  18 47  -20.9883 26043.2 -03480.9 -07.6129 26274.8
 17 09 2013  18 48  -20.9878 26043.6 -03481.1 -07.6132 26275.2
 17 09 2013  18 49  -20.9865 26044.8 -03481.6 -07.6140 26276.5
 17 09 2013  18 50  -20.9857 26047.1 -03482.7 -07.6157 26279.0
 17 09 2013  18 51  -20.9849 26048.9 -03483.5 -07.6169 26280.8
 17 09 2013  18 52  -20.9844 26050.3 -03483.9 -07.6175 26282.2
 17 09 2013  18 53  -20.9846 26051.4 -03484.3 -07.6178 26283.4
 17 09 2013  18 54  -20.9854 26052.1 -03484.3 -07.6176 26284.1
 17 09 2013  18 55  -20.9864 26052.2 -03484.0 -07.6170 26284.2
 17 09 2013  18 56  -20.9874 26051.6 -03483.3 -07.6158 26283.5
 17 09 2013  18 57  -20.9875 26050.7 -03482.5 -07.6143 26282.4
 17 09 2013  18 58  -20.9877 26050.1 -03482.1 -07.6135 26281.8
 17 09 2013  18 59  -20.9882 26049.5 -03481.7 -07.6128 26281.2
 17 09 2013  19 00  -20.9885 26049.1 -03481.4 -07.6123 26280.7
 17 09 2013  19 01  -20.9887 26048.8 -03481.2 -07.6119 26280.4
 17 09 2013  19 02  -20.9889 26048.6 -03481.0 -07.6117 26280.1
 17 09 2013  19 03  -20.9894 26048.3 -03480.9 -07.6114 26279.8
 17 09 2013  19 04  -20.9900 26047.8 -03480.6 -07.6109 26279.4
 17 09 2013  19 05  -20.9903 26047.5 -03480.4 -07.6105 26279.0
 17 09 2013  19 06  -20.9906 26047.2 -03480.2 -07.6102 26278.7
 17 09 2013  19 07  -20.9909 26046.9 -03480.0 -07.6099 26278.3
 17 09 2013  19 08  -20.9912 26046.6 -03479.8 -07.6095 26278.0
 17 09 2013  19 09  -20.9914 26046.4 -03479.6 -07.6092 26277.8
 17 09 2013  19 10  -20.9913 26046.2 -03479.5 -07.6090 26277.5
 17 09 2013  19 11  -20.9912 26046.1 -03479.5 -07.6090 26277.5
 17 09 2013  19 12  -20.9910 26046.2 -03479.5 -07.6090 26277.6
 17 09 2013  19 13  -20.9905 26046.2 -03479.5 -07.6090 26277.6
 17 09 2013  19 14  -20.9904 26046.7 -03479.8 -07.6095 26278.1
 17 09 2013  19 15  -20.9909 26047.1 -03480.0 -07.6098 26278.5
 17 09 2013  19 16  -20.9912 26046.7 -03479.8 -07.6094 26278.1
 17 09 2013  19 17  -20.9912 26045.8 -03479.3 -07.6086 26277.2
 17 09 2013  19 18  -20.9908 26045.0 -03478.9 -07.6081 26276.3
 17 09 2013  19 19  -20.9905 26044.5 -03478.7 -07.6079 26275.8
 17 09 2013  19 20  -20.9904 26044.2 -03478.7 -07.6079 26275.5
 17 09 2013  19 21  -20.9906 26044.0 -03478.8 -07.6081 26275.4
 17 09 2013  19 22  -20.9907 26044.1 -03478.8 -07.6082 26275.4
 17 09 2013  19 23  -20.9908 26044.7 -03479.2 -07.6088 26276.0
 17 09 2013  19 24  -20.9908 26045.8 -03479.7 -07.6096 26277.2
 17 09 2013  19 25  -20.9915 26047.6 -03480.5 -07.6108 26279.1
 17 09 2013  19 26  -20.9928 26049.0 -03481.0 -07.6114 26280.5
 17 09 2013  19 27  -20.9938 26049.6 -03481.0 -07.6113 26281.2
 17 09 2013  19 28  -20.9946 26049.9 -03480.9 -07.6109 26281.4
 17 09 2013  19 29  -20.9951 26049.9 -03480.6 -07.6103 26281.4
 17 09 2013  19 30  -20.9959 26049.6 -03480.3 -07.6097 26281.1
 17 09 2013  19 31  -20.9963 26048.7 -03479.7 -07.6087 26280.1
 17 09 2013  19 32  -20.9962 26047.7 -03479.1 -07.6078 26279.0
 17 09 2013  19 33  -20.9957 26047.0 -03478.8 -07.6073 26278.3
 17 09 2013  19 34  -20.9952 26046.8 -03478.8 -07.6073 26278.1
 17 09 2013  19 35  -20.9950 26046.7 -03478.8 -07.6075 26278.0
 17 09 2013  19 36  -20.9951 26046.8 -03479.0 -07.6078 26278.1
 17 09 2013  19 37  -20.9953 26047.0 -03479.2 -07.6081 26278.4
 17 09 2013  19 38  -20.9954 26046.5 -03479.0 -07.6079 26277.9
 17 09 2013  19 39  -20.9952 26045.7 -03478.7 -07.6074 26276.9
 17 09 2013  19 40  -20.9953 26044.8 -03478.4 -07.6070 26276.1
 17 09 2013  19 41  -20.9951 26043.9 -03478.1 -07.6066 26275.1
 17 09 2013  19 42  -20.9948 26043.0 -03477.8 -07.6063 26274.2
 17 09 2013  19 43  -20.9945 26042.5 -03477.8 -07.6064 26273.7
 17 09 2013  19 44  -20.9942 26042.9 -03478.2 -07.6072 26274.1
 17 09 2013  19 45  -20.9944 26043.6 -03478.7 -07.6081 26274.9
 17 09 2013  19 46  -20.9942 26043.8 -03479.0 -07.6086 26275.1
 17 09 2013  19 47  -20.9945 26044.0 -03479.2 -07.6090 26275.4
 17 09 2013  19 48  -20.9947 26043.9 -03479.2 -07.6091 26275.3
 17 09 2013  19 49  -20.9945 26043.8 -03479.2 -07.6091 26275.2
 17 09 2013  19 50  -20.9940 26043.8 -03479.3 -07.6093 26275.2
 17 09 2013  19 51  -20.9937 26044.2 -03479.5 -07.6097 26275.6
 17 09 2013  19 52  -20.9936 26045.0 -03480.1 -07.6106 26276.5
 17 09 2013  19 53  -20.9939 26045.9 -03480.6 -07.6115 26277.4
 17 09 2013  19 54  -20.9940 26046.1 -03480.7 -07.6118 26277.7
 17 09 2013  19 55  -20.9942 26046.1 -03480.7 -07.6118 26277.6
 17 09 2013  19 56  -20.9944 26045.9 -03480.6 -07.6116 26277.5
 17 09 2013  19 57  -20.9943 26045.7 -03480.6 -07.6115 26277.3
 17 09 2013  19 58  -20.9942 26045.6 -03480.5 -07.6115 26277.2
 17 09 2013  19 59  -20.9940 26045.7 -03480.6 -07.6117 26277.3
 17 09 2013  20 00  -20.9940 26046.0 -03480.9 -07.6120 26277.6
 17 09 2013  20 01  -20.9941 26046.1 -03481.0 -07.6122 26277.7
 17 09 2013  20 02  -20.9942 26046.2 -03481.0 -07.6124 26277.8
 17 09 2013  20 03  -20.9942 26046.0 -03480.9 -07.6122 26277.5
 17 09 2013  20 04  -20.9941 26045.6 -03480.8 -07.6120 26277.2
 17 09 2013  20 05  -20.9939 26045.4 -03480.7 -07.6119 26277.0
 17 09 2013  20 06  -20.9938 26045.4 -03480.8 -07.6120 26276.9
 17 09 2013  20 07  -20.9937 26045.4 -03480.8 -07.6122 26277.0
 17 09 2013  20 08  -20.9936 26045.5 -03480.9 -07.6124 26277.1
 17 09 2013  20 09  -20.9936 26045.8 -03481.1 -07.6127 26277.4
 17 09 2013  20 10  -20.9937 26045.9 -03481.3 -07.6130 26277.6
 17 09 2013  20 11  -20.9936 26046.0 -03481.3 -07.6130 26277.6
 17 09 2013  20 12  -20.9939 26045.8 -03481.3 -07.6130 26277.5
 17 09 2013  20 13  -20.9939 26045.6 -03481.2 -07.6129 26277.2
 17 09 2013  20 14  -20.9939 26045.7 -03481.3 -07.6130 26277.3
 17 09 2013  20 15  -20.9939 26045.8 -03481.4 -07.6133 26277.5
 17 09 2013  20 16  -20.9939 26046.0 -03481.5 -07.6135 26277.6
 17 09 2013  20 17  -20.9950 26045.8 -03481.4 -07.6133 26277.4
 17 09 2013  20 18  -20.9984 26045.0 -03481.0 -07.6127 26276.6
 17 09 2013  20 19  -20.9998 26044.7 -03481.0 -07.6127 26276.3
 17 09 2013  20 20  -20.9994 26044.5 -03480.9 -07.6126 26276.1
 17 09 2013  20 21  -20.9959 26044.7 -03481.0 -07.6128 26276.3
 17 09 2013  20 22  -20.9947 26044.8 -03481.3 -07.6133 26276.5
 17 09 2013  20 23  -20.9946 26044.8 -03481.3 -07.6134 26276.5
 17 09 2013  20 24  -20.9945 26045.0 -03481.5 -07.6137 26276.7
 17 09 2013  20 25  -20.9946 26045.4 -03481.8 -07.6142 26277.1
 17 09 2013  20 26  -20.9947 26045.5 -03481.9 -07.6145 26277.2
 17 09 2013  20 27  -20.9947 26045.6 -03482.0 -07.6147 26277.3
 17 09 2013  20 28  -20.9947 26045.9 -03482.2 -07.6150 26277.6
 17 09 2013  20 29  -20.9949 26046.2 -03482.4 -07.6154 26278.0
 17 09 2013  20 30  -20.9952 26046.3 -03482.6 -07.6157 26278.1
 17 09 2013  20 31  -20.9955 26046.3 -03482.6 -07.6157 26278.1
 17 09 2013  20 32  -20.9955 26046.1 -03482.5 -07.6157 26277.9
 17 09 2013  20 33  -20.9957 26045.8 -03482.4 -07.6155 26277.6
 17 09 2013  20 34  -20.9960 26044.9 -03482.0 -07.6148 26276.6
 17 09 2013  20 35  -20.9964 26043.6 -03481.4 -07.6138 26275.2
 17 09 2013  20 36  -20.9970 26042.1 -03480.7 -07.6129 26273.7
 17 09 2013  20 37  -20.9973 26041.0 -03480.3 -07.6123 26272.6
 17 09 2013  20 38  -20.9976 26040.3 -03480.1 -07.6121 26271.9
 17 09 2013  20 39  -20.9981 26039.9 -03480.1 -07.6123 26271.4
 17 09 2013  20 40  -20.9985 26039.5 -03480.1 -07.6123 26271.0
 17 09 2013  20 41  -20.9988 26039.2 -03480.2 -07.6126 26270.8
 17 09 2013  20 42  -20.9989 26039.4 -03480.5 -07.6132 26271.0
 17 09 2013  20 43  -20.9988 26039.8 -03480.9 -07.6139 26271.5
 17 09 2013  20 44  -20.9990 26040.1 -03481.2 -07.6145 26271.7
 17 09 2013  20 45  -21.0007 26037.6 -03480.2 -07.6130 26269.1
 17 09 2013  20 46  -21.0030 26033.2 -03478.1 -07.6098 26264.5
 17 09 2013  20 47  -21.0052 26029.9 -03476.6 -07.6075 26261.1
 17 09 2013  20 48  -21.0067 26027.7 -03475.8 -07.6065 26258.7
 17 09 2013  20 49  -21.0076 26026.5 -03475.7 -07.6065 26257.6
 17 09 2013  20 50  -21.0080 26026.1 -03475.8 -07.6070 26257.2
 17 09 2013  20 51  -21.0081 26026.1 -03476.2 -07.6078 26257.3
 17 09 2013  20 52  -21.0081 26026.5 -03476.7 -07.6086 26257.6
 17 09 2013  20 53  -21.0082 26027.1 -03477.2 -07.6096 26258.3
 17 09 2013  20 54  -21.0084 26027.9 -03477.8 -07.6107 26259.2
 17 09 2013  20 55  -21.0084 26028.8 -03478.5 -07.6119 26260.2
 17 09 2013  20 56  -21.0081 26029.6 -03479.0 -07.6128 26261.0
 17 09 2013  20 57  -21.0079 26030.2 -03479.4 -07.6134 26261.7
 17 09 2013  20 58  -21.0076 26030.6 -03479.7 -07.6140 26262.2
 17 09 2013  20 59  -21.0076 26031.1 -03479.9 -07.6144 26262.7
 17 09 2013  21 00  -21.0075 26031.6 -03480.2 -07.6148 26263.2
 17 09 2013  21 01  -21.0074 26031.8 -03480.4 -07.6151 26263.5
 17 09 2013  21 02  -21.0073 26031.9 -03480.4 -07.6152 26263.5
 17 09 2013  21 03  -21.0071 26031.8 -03480.4 -07.6151 26263.4
 17 09 2013  21 04  -21.0069 26031.6 -03480.3 -07.6151 26263.2
 17 09 2013  21 05  -21.0069 26031.4 -03480.4 -07.6152 26263.0
 17 09 2013  21 06  -21.0070 26031.3 -03480.4 -07.6154 26262.9
 17 09 2013  21 07  -21.0070 26031.3 -03480.5 -07.6156 26263.0
 17 09 2013  21 08  -21.0072 26030.9 -03480.5 -07.6156 26262.6
 17 09 2013  21 09  -21.0071 26030.7 -03480.5 -07.6156 26262.4
 17 09 2013  21 10  -21.0069 26030.7 -03480.5 -07.6157 26262.4
 17 09 2013  21 11  -21.0071 26030.4 -03480.5 -07.6158 26262.0
 17 09 2013  21 12  -21.0072 26030.0 -03480.4 -07.6157 26261.7
 17 09 2013  21 13  -21.0073 26029.7 -03480.4 -07.6157 26261.4
 17 09 2013  21 14  -21.0077 26029.3 -03480.4 -07.6158 26261.0
 17 09 2013  21 15  -21.0080 26029.0 -03480.3 -07.6157 26260.6
 17 09 2013  21 16  -21.0080 26028.7 -03480.3 -07.6157 26260.4
 17 09 2013  21 17  -21.0082 26028.6 -03480.3 -07.6158 26260.2
 17 09 2013  21 18  -21.0082 26028.4 -03480.3 -07.6159 26260.1
 17 09 2013  21 19  -21.0080 26028.6 -03480.4 -07.6161 26260.2
 17 09 2013  21 20  -21.0085 26028.4 -03480.4 -07.6162 26260.0
 17 09 2013  21 21  -21.0081 26028.7 -03480.6 -07.6164 26260.4
 17 09 2013  21 22  -21.0083 26028.7 -03480.8 -07.6169 26260.5
 17 09 2013  21 23  -21.0087 26028.5 -03480.8 -07.6169 26260.2
 17 09 2013  21 24  -21.0084 26028.8 -03480.9 -07.6172 26260.5
 17 09 2013  21 25  -21.0092 26028.4 -03480.9 -07.6173 26260.2
 17 09 2013  21 26  -21.0089 26028.5 -03481.0 -07.6173 26260.2
 17 09 2013  21 27  -21.0089 26028.5 -03481.0 -07.6174 26260.2
 17 09 2013  21 28  -21.0090 26028.5 -03481.0 -07.6175 26260.2
 17 09 2013  21 29  -21.0090 26028.5 -03481.1 -07.6176 26260.3
 17 09 2013  21 30  -21.0093 26028.4 -03481.1 -07.6176 26260.1
 17 09 2013  21 31  -21.0091 26028.4 -03481.2 -07.6178 26260.2
 17 09 2013  21 32  -21.0093 26028.2 -03481.1 -07.6178 26259.9
 17 09 2013  21 33  -21.0091 26028.1 -03481.2 -07.6179 26259.9
 17 09 2013  21 34  -21.0091 26028.0 -03481.2 -07.6179 26259.8
 17 09 2013  21 35  -21.0091 26028.1 -03481.3 -07.6181 26259.9
 17 09 2013  21 36  -21.0091 26028.3 -03481.4 -07.6183 26260.1
 17 09 2013  21 37  -21.0090 26028.4 -03481.5 -07.6185 26260.2
 17 09 2013  21 38  -21.0090 26028.2 -03481.5 -07.6185 26260.0
 17 09 2013  21 39  -21.0094 26028.1 -03481.5 -07.6186 26260.0
 17 09 2013  21 40  -21.0097 26028.1 -03481.6 -07.6188 26259.9
 17 09 2013  21 41  -21.0096 26028.1 -03481.6 -07.6189 26259.9
 17 09 2013  21 42  -21.0097 26027.9 -03481.6 -07.6188 26259.7
 17 09 2013  21 43  -21.0095 26027.8 -03481.5 -07.6188 26259.6
 17 09 2013  21 44  -21.0097 26027.5 -03481.5 -07.6188 26259.3
 17 09 2013  21 45  -21.0099 26027.4 -03481.5 -07.6188 26259.2
 17 09 2013  21 46  -21.0104 26027.1 -03481.5 -07.6188 26259.0
 17 09 2013  21 47  -21.0103 26027.2 -03481.6 -07.6190 26259.0
 17 09 2013  21 48  -21.0104 26027.2 -03481.6 -07.6191 26259.0
 17 09 2013  21 49  -21.0104 26027.0 -03481.6 -07.6191 26258.8
 17 09 2013  21 50  -21.0104 26026.8 -03481.6 -07.6191 26258.7
 17 09 2013  21 51  -21.0104 26026.7 -03481.6 -07.6192 26258.6
 17 09 2013  21 52  -21.0105 26026.6 -03481.6 -07.6192 26258.4
 17 09 2013  21 53  -21.0105 26026.5 -03481.6 -07.6193 26258.3
 17 09 2013  21 54  -21.0106 26026.5 -03481.7 -07.6195 26258.4
 17 09 2013  21 55  -21.0107 26026.4 -03481.7 -07.6196 26258.3
 17 09 2013  21 56  -21.0108 26026.3 -03481.8 -07.6197 26258.1
 17 09 2013  21 57  -21.0107 26026.3 -03481.8 -07.6199 26258.2
 17 09 2013  21 58  -21.0107 26026.3 -03481.9 -07.6200 26258.2
 17 09 2013  21 59  -21.0105 26026.4 -03482.0 -07.6202 26258.3
 17 09 2013  22 00  -21.0104 26026.4 -03482.0 -07.6203 26258.3
 17 09 2013  22 01  -21.0103 26026.3 -03482.1 -07.6204 26258.2
 17 09 2013  22 02  -21.0102 26026.3 -03482.1 -07.6205 26258.2
 17 09 2013  22 03  -21.0103 26026.3 -03482.2 -07.6206 26258.2
 17 09 2013  22 04  -21.0104 26026.2 -03482.3 -07.6208 26258.1
 17 09 2013  22 05  -21.0104 26026.3 -03482.4 -07.6210 26258.3
 17 09 2013  22 06  -21.0105 26026.0 -03482.3 -07.6209 26257.9
 17 09 2013  22 07  -21.0105 26025.9 -03482.2 -07.6208 26257.8
 17 09 2013  22 08  -21.0103 26026.2 -03482.4 -07.6211 26258.1
 17 09 2013  22 09  -21.0099 26026.3 -03482.5 -07.6213 26258.3
 17 09 2013  22 10  -21.0100 26025.8 -03482.4 -07.6212 26257.8
 17 09 2013  22 11  -21.0096 26026.1 -03482.5 -07.6213 26258.1
 17 09 2013  22 12  -21.0096 26026.3 -03482.6 -07.6216 26258.3
 17 09 2013  22 13  -21.0099 26026.2 -03482.7 -07.6218 26258.2
 17 09 2013  22 14  -21.0099 26026.2 -03482.8 -07.6219 26258.2
 17 09 2013  22 15  -21.0095 26026.4 -03482.9 -07.6221 26258.4
 17 09 2013  22 16  -21.0094 26025.9 -03482.7 -07.6219 26257.9
 17 09 2013  22 17  -21.0096 26025.6 -03482.6 -07.6217 26257.6
 17 09 2013  22 18  -21.0093 26025.6 -03482.7 -07.6219 26257.5
 17 09 2013  22 19  -21.0091 26025.6 -03482.7 -07.6219 26257.6
 17 09 2013  22 20  -21.0089 26025.4 -03482.7 -07.6219 26257.4
 17 09 2013  22 21  -21.0089 26025.0 -03482.5 -07.6218 26257.0
 17 09 2013  22 22  -21.0090 26024.7 -03482.5 -07.6217 26256.6
 17 09 2013  22 23  -21.0090 26024.4 -03482.4 -07.6216 26256.4
 17 09 2013  22 24  -21.0091 26024.1 -03482.3 -07.6216 26256.0
 17 09 2013  22 25  -21.0092 26023.9 -03482.3 -07.6216 26255.8
 17 09 2013  22 26  -21.0093 26023.7 -03482.3 -07.6216 26255.7
 17 09 2013  22 27  -21.0095 26023.5 -03482.3 -07.6216 26255.5
 17 09 2013  22 28  -21.0097 26023.3 -03482.2 -07.6216 26255.3
 17 09 2013  22 29  -21.0100 26023.3 -03482.3 -07.6218 26255.3
 17 09 2013  22 30  -21.0103 26023.1 -03482.3 -07.6218 26255.1
 17 09 2013  22 31  -21.0105 26023.1 -03482.4 -07.6219 26255.1
 17 09 2013  22 32  -21.0105 26023.2 -03482.5 -07.6221 26255.2
 17 09 2013  22 33  -21.0107 26023.1 -03482.5 -07.6222 26255.1
 17 09 2013  22 34  -21.0108 26022.9 -03482.4 -07.6221 26254.9
 17 09 2013  22 35  -21.0109 26022.7 -03482.3 -07.6220 26254.6
 17 09 2013  22 36  -21.0112 26022.4 -03482.3 -07.6220 26254.4
 17 09 2013  22 37  -21.0113 26022.3 -03482.3 -07.6219 26254.3
 17 09 2013  22 38  -21.0113 26022.1 -03482.2 -07.6219 26254.1
 17 09 2013  22 39  -21.0111 26022.3 -03482.4 -07.6222 26254.3
 17 09 2013  22 40  -21.0109 26022.6 -03482.6 -07.6225 26254.6
 17 09 2013  22 41  -21.0107 26022.8 -03482.7 -07.6228 26254.8
 17 09 2013  22 42  -21.0108 26022.9 -03482.8 -07.6230 26254.9
 17 09 2013  22 43  -21.0110 26022.8 -03482.8 -07.6231 26254.8
 17 09 2013  22 44  -21.0112 26022.6 -03482.8 -07.6230 26254.7
 17 09 2013  22 45  -21.0113 26022.5 -03482.8 -07.6230 26254.6
 17 09 2013  22 46  -21.0112 26022.6 -03482.8 -07.6231 26254.6
 17 09 2013  22 47  -21.0112 26022.5 -03482.8 -07.6231 26254.5
 17 09 2013  22 48  -21.0112 26022.3 -03482.8 -07.6231 26254.4
 17 09 2013  22 49  -21.0113 26022.1 -03482.8 -07.6231 26254.2
 17 09 2013  22 50  -21.0116 26022.0 -03482.7 -07.6230 26254.0
 17 09 2013  22 51  -21.0118 26021.8 -03482.6 -07.6229 26253.8
 17 09 2013  22 52  -21.0119 26021.4 -03482.5 -07.6227 26253.4
 17 09 2013  22 53  -21.0122 26021.1 -03482.4 -07.6226 26253.1
 17 09 2013  22 54  -21.0123 26020.8 -03482.3 -07.6225 26252.8
 17 09 2013  22 55  -21.0125 26020.6 -03482.3 -07.6224 26252.6
 17 09 2013  22 56  -21.0127 26020.3 -03482.2 -07.6224 26252.3
 17 09 2013  22 57  -21.0129 26020.1 -03482.2 -07.6223 26252.1
 17 09 2013  22 58  -21.0131 26019.9 -03482.1 -07.6223 26251.9
 17 09 2013  22 59  -21.0134 26019.9 -03482.2 -07.6225 26251.9
 17 09 2013  23 00  -21.0136 26019.8 -03482.2 -07.6226 26251.8
 17 09 2013  23 01  -21.0138 26019.7 -03482.3 -07.6227 26251.7
 17 09 2013  23 02  -21.0140 26019.5 -03482.2 -07.6226 26251.5
 17 09 2013  23 03  -21.0140 26019.3 -03482.2 -07.6226 26251.3
 17 09 2013  23 04  -21.0138 26019.8 -03482.5 -07.6230 26251.9
 17 09 2013  23 05  -21.0136 26019.9 -03482.6 -07.6234 26252.0
 17 09 2013  23 06  -21.0136 26019.9 -03482.6 -07.6233 26251.9
 17 09 2013  23 07  -21.0135 26020.0 -03482.7 -07.6236 26252.1
 17 09 2013  23 08  -21.0136 26019.9 -03482.7 -07.6236 26252.0
 17 09 2013  23 09  -21.0137 26019.9 -03482.8 -07.6237 26251.9
 17 09 2013  23 10  -21.0140 26019.6 -03482.7 -07.6236 26251.7
 17 09 2013  23 11  -21.0140 26019.4 -03482.6 -07.6236 26251.5
 17 09 2013  23 12  -21.0138 26019.2 -03482.6 -07.6235 26251.3
 17 09 2013  23 13  -21.0137 26019.2 -03482.6 -07.6235 26251.2
 17 09 2013  23 14  -21.0136 26019.1 -03482.6 -07.6235 26251.1
 17 09 2013  23 15  -21.0136 26019.0 -03482.6 -07.6235 26251.0
 17 09 2013  23 16  -21.0136 26018.9 -03482.6 -07.6237 26250.9
 17 09 2013  23 17  -21.0137 26018.8 -03482.6 -07.6237 26250.8
 17 09 2013  23 18  -21.0136 26018.7 -03482.6 -07.6238 26250.7
 17 09 2013  23 19  -21.0133 26018.6 -03482.6 -07.6238 26250.6
 17 09 2013  23 20  -21.0132 26018.5 -03482.7 -07.6239 26250.6
 17 09 2013  23 21  -21.0132 26018.5 -03482.7 -07.6240 26250.6
 17 09 2013  23 22  -21.0131 26018.5 -03482.7 -07.6241 26250.5
 17 09 2013  23 23  -21.0131 26018.6 -03482.9 -07.6244 26250.7
 17 09 2013  23 24  -21.0135 26018.5 -03482.9 -07.6244 26250.5
 17 09 2013  23 25  -21.0136 26018.6 -03483.1 -07.6247 26250.7
 17 09 2013  23 26  -21.0138 26018.7 -03483.1 -07.6248 26250.8
 17 09 2013  23 27  -21.0139 26018.7 -03483.2 -07.6250 26250.8
 17 09 2013  23 28  -21.0139 26018.6 -03483.2 -07.6249 26250.7
 17 09 2013  23 29  -21.0140 26018.6 -03483.2 -07.6250 26250.7
 17 09 2013  23 30  -21.0140 26018.6 -03483.3 -07.6252 26250.8
 17 09 2013  23 31  -21.0139 26018.8 -03483.3 -07.6253 26250.9
 17 09 2013  23 32  -21.0138 26018.7 -03483.4 -07.6253 26250.9
 17 09 2013  23 33  -21.0139 26018.7 -03483.4 -07.6254 26250.8
 17 09 2013  23 34  -21.0142 26018.7 -03483.4 -07.6255 26250.9
 17 09 2013  23 35  -21.0145 26018.7 -03483.5 -07.6256 26250.9
 17 09 2013  23 36  -21.0146 26018.8 -03483.5 -07.6257 26250.9
 17 09 2013  23 37  -21.0145 26018.8 -03483.5 -07.6257 26251.0
 17 09 2013  23 38  -21.0144 26018.8 -03483.6 -07.6258 26251.0
 17 09 2013  23 39  -21.0142 26018.9 -03483.6 -07.6259 26251.1
 17 09 2013  23 40  -21.0140 26018.9 -03483.7 -07.6260 26251.0
 17 09 2013  23 41  -21.0139 26019.0 -03483.8 -07.6261 26251.2
 17 09 2013  23 42  -21.0138 26019.0 -03483.8 -07.6262 26251.2
 17 09 2013  23 43  -21.0136 26019.0 -03483.8 -07.6263 26251.2
 17 09 2013  23 44  -21.0136 26019.1 -03483.9 -07.6263 26251.3
 17 09 2013  23 45  -21.0137 26019.0 -03483.9 -07.6264 26251.2
 17 09 2013  23 46  -21.0139 26019.0 -03483.9 -07.6264 26251.2
 17 09 2013  23 47  -21.0138 26018.9 -03483.9 -07.6264 26251.1
 17 09 2013  23 48  -21.0138 26018.8 -03483.8 -07.6264 26251.0
 17 09 2013  23 49  -21.0137 26018.8 -03483.9 -07.6265 26251.0
 17 09 2013  23 50  -21.0135 26018.7 -03483.9 -07.6264 26250.9
 17 09 2013  23 51  -21.0134 26018.7 -03483.9 -07.6265 26251.0
 17 09 2013  23 52  -21.0133 26018.7 -03483.9 -07.6265 26250.9
 17 09 2013  23 53  -21.0131 26018.6 -03483.9 -07.6265 26250.8
 17 09 2013  23 54  -21.0127 26018.9 -03484.0 -07.6267 26251.1
 17 09 2013  23 55  -21.0124 26019.1 -03484.2 -07.6270 26251.4
 17 09 2013  23 56  -21.0120 26019.2 -03484.2 -07.6271 26251.4
 17 09 2013  23 57  -21.0119 26019.2 -03484.3 -07.6273 26251.5
