SAO LUIS EMBRACE-03 <321> 1 Min. Reported data

 DD MM YYYY  HH MM   D(Deg)  H(nT)   Z(nT)   I(Deg)   F(nT)

 17 11 2013  00 00  -21.0107 26012.4 -03507.8 -07.6801 26247.9
 17 11 2013  00 01  -21.0105 26012.5 -03507.9 -07.6802 26248.0
 17 11 2013  00 02  -21.0101 26013.0 -03508.1 -07.6804 26248.5
 17 11 2013  00 03  -21.0100 26012.9 -03508.1 -07.6805 26248.4
 17 11 2013  00 04  -21.0102 26013.0 -03508.1 -07.6806 26248.5
 17 11 2013  00 05  -21.0097 26013.6 -03508.4 -07.6810 26249.2
 17 11 2013  00 06  -21.0100 26013.2 -03508.2 -07.6808 26248.7
 17 11 2013  00 07  -21.0102 26013.5 -03508.4 -07.6809 26249.0
 17 11 2013  00 08  -21.0105 26013.5 -03508.3 -07.6809 26249.0
 17 11 2013  00 09  -21.0107 26013.5 -03508.3 -07.6809 26249.0
 17 11 2013  00 10  -21.0107 26013.6 -03508.4 -07.6809 26249.1
 17 11 2013  00 11  -21.0106 26013.6 -03508.3 -07.6808 26249.1
 17 11 2013  00 12  -21.0105 26013.4 -03508.3 -07.6808 26248.9
 17 11 2013  00 13  -21.0102 26013.4 -03508.2 -07.6807 26248.9
 17 11 2013  00 14  -21.0102 26013.3 -03508.2 -07.6807 26248.8
 17 11 2013  00 15  -21.0103 26013.2 -03508.2 -07.6806 26248.7
 17 11 2013  00 16  -21.0108 26012.8 -03508.0 -07.6804 26248.3
 17 11 2013  00 17  -21.0114 26012.4 -03507.9 -07.6802 26247.9
 17 11 2013  00 18  -21.0118 26012.0 -03507.7 -07.6799 26247.5
 17 11 2013  00 19  -21.0121 26012.2 -03507.8 -07.6800 26247.6
 17 11 2013  00 20  -21.0120 26012.4 -03507.9 -07.6802 26247.8
 17 11 2013  00 21  -21.0116 26012.6 -03508.0 -07.6805 26248.1
 17 11 2013  00 22  -21.0113 26013.0 -03508.2 -07.6807 26248.5
 17 11 2013  00 23  -21.0111 26013.2 -03508.4 -07.6811 26248.7
 17 11 2013  00 24  -21.0112 26013.3 -03508.5 -07.6813 26248.8
 17 11 2013  00 25  -21.0116 26013.2 -03508.5 -07.6813 26248.7
 17 11 2013  00 26  -21.0117 26013.1 -03508.4 -07.6813 26248.6
 17 11 2013  00 27  -21.0116 26013.2 -03508.5 -07.6813 26248.7
 17 11 2013  00 28  -21.0114 26013.0 -03508.4 -07.6812 26248.5
 17 11 2013  00 29  -21.0111 26013.0 -03508.4 -07.6811 26248.5
 17 11 2013  00 30  -21.0111 26012.8 -03508.4 -07.6811 26248.3
 17 11 2013  00 31  -21.0109 26013.0 -03508.5 -07.6814 26248.6
 17 11 2013  00 32  -21.0109 26012.7 -03508.4 -07.6813 26248.3
 17 11 2013  00 33  -21.0109 26012.7 -03508.4 -07.6813 26248.3
 17 11 2013  00 34  -21.0108 26012.5 -03508.4 -07.6812 26248.0
 17 11 2013  00 35  -21.0107 26012.2 -03508.2 -07.6811 26247.7
 17 11 2013  00 36  -21.0104 26011.9 -03508.1 -07.6809 26247.4
 17 11 2013  00 37  -21.0103 26011.7 -03508.1 -07.6809 26247.2
 17 11 2013  00 38  -21.0098 26011.8 -03508.1 -07.6809 26247.3
 17 11 2013  00 39  -21.0095 26011.8 -03508.2 -07.6811 26247.3
 17 11 2013  00 40  -21.0092 26011.9 -03508.3 -07.6813 26247.4
 17 11 2013  00 41  -21.0087 26011.6 -03508.2 -07.6812 26247.1
 17 11 2013  00 42  -21.0081 26011.9 -03508.4 -07.6815 26247.4
 17 11 2013  00 43  -21.0079 26011.8 -03508.5 -07.6817 26247.4
 17 11 2013  00 44  -21.0082 26011.8 -03508.6 -07.6819 26247.3
 17 11 2013  00 45  -21.0088 26011.7 -03508.6 -07.6820 26247.2
 17 11 2013  00 46  -21.0091 26011.4 -03508.5 -07.6819 26247.0
 17 11 2013  00 47  -21.0096 26011.2 -03508.4 -07.6817 26246.7
 17 11 2013  00 48  -21.0099 26011.3 -03508.5 -07.6819 26246.8
 17 11 2013  00 49  -21.0102 26011.4 -03508.5 -07.6819 26246.9
 17 11 2013  00 50  -21.0104 26011.4 -03508.6 -07.6820 26247.0
 17 11 2013  00 51  -21.0106 26011.5 -03508.7 -07.6822 26247.1
 17 11 2013  00 52  -21.0106 26011.6 -03508.7 -07.6822 26247.1
 17 11 2013  00 53  -21.0109 26011.5 -03508.6 -07.6821 26247.1
 17 11 2013  00 54  -21.0111 26011.5 -03508.6 -07.6821 26247.0
 17 11 2013  00 55  -21.0113 26011.5 -03508.6 -07.6821 26247.1
 17 11 2013  00 56  -21.0112 26011.7 -03508.7 -07.6822 26247.3
 17 11 2013  00 57  -21.0110 26012.0 -03508.8 -07.6824 26247.6
 17 11 2013  00 58  -21.0110 26012.4 -03509.0 -07.6827 26248.0
 17 11 2013  00 59  -21.0107 26012.8 -03509.2 -07.6830 26248.4
 17 11 2013  01 00  -21.0104 26013.1 -03509.4 -07.6832 26248.8
 17 11 2013  01 01  -21.0105 26013.0 -03509.3 -07.6831 26248.6
 17 11 2013  01 02  -21.0101 26013.6 -03509.5 -07.6834 26249.2
 17 11 2013  01 03  -21.0105 26013.6 -03509.5 -07.6834 26249.3
 17 11 2013  01 04  -21.0100 26014.3 -03509.8 -07.6837 26250.0
 17 11 2013  01 05  -21.0097 26014.5 -03509.9 -07.6840 26250.2
 17 11 2013  01 06  -21.0098 26014.7 -03509.9 -07.6840 26250.4
 17 11 2013  01 07  -21.0097 26015.3 -03510.2 -07.6844 26251.0
 17 11 2013  01 08  -21.0098 26015.7 -03510.4 -07.6846 26251.4
 17 11 2013  01 09  -21.0100 26016.0 -03510.5 -07.6848 26251.8
 17 11 2013  01 10  -21.0102 26016.4 -03510.6 -07.6850 26252.2
 17 11 2013  01 11  -21.0103 26016.7 -03510.7 -07.6850 26252.5
 17 11 2013  01 12  -21.0104 26017.1 -03510.8 -07.6852 26252.9
 17 11 2013  01 13  -21.0103 26017.3 -03510.8 -07.6851 26253.1
 17 11 2013  01 14  -21.0103 26017.7 -03510.9 -07.6852 26253.5
 17 11 2013  01 15  -21.0101 26018.0 -03511.0 -07.6852 26253.8
 17 11 2013  01 16  -21.0101 26018.3 -03511.0 -07.6852 26254.1
 17 11 2013  01 17  -21.0100 26018.7 -03511.1 -07.6853 26254.6
 17 11 2013  01 18  -21.0100 26018.7 -03511.1 -07.6853 26254.6
 17 11 2013  01 19  -21.0100 26019.0 -03511.1 -07.6853 26254.8
 17 11 2013  01 20  -21.0100 26019.2 -03511.1 -07.6852 26255.0
 17 11 2013  01 21  -21.0102 26019.5 -03511.2 -07.6853 26255.3
 17 11 2013  01 22  -21.0104 26019.7 -03511.2 -07.6852 26255.5
 17 11 2013  01 23  -21.0104 26019.9 -03511.1 -07.6851 26255.7
 17 11 2013  01 24  -21.0105 26019.9 -03511.1 -07.6850 26255.8
 17 11 2013  01 25  -21.0106 26019.9 -03511.0 -07.6847 26255.7
 17 11 2013  01 26  -21.0107 26019.9 -03510.9 -07.6845 26255.7
 17 11 2013  01 27  -21.0108 26019.8 -03510.7 -07.6842 26255.5
 17 11 2013  01 28  -21.0109 26019.5 -03510.5 -07.6839 26255.3
 17 11 2013  01 29  -21.0108 26019.3 -03510.3 -07.6835 26255.0
 17 11 2013  01 30  -21.0105 26019.2 -03510.2 -07.6833 26254.9
 17 11 2013  01 31  -21.0106 26018.9 -03510.0 -07.6829 26254.6
 17 11 2013  01 32  -21.0110 26018.7 -03509.9 -07.6828 26254.4
 17 11 2013  01 33  -21.0112 26018.3 -03509.8 -07.6826 26254.0
 17 11 2013  01 34  -21.0114 26018.0 -03509.6 -07.6822 26253.6
 17 11 2013  01 35  -21.0117 26017.7 -03509.4 -07.6819 26253.3
 17 11 2013  01 36  -21.0119 26017.6 -03509.3 -07.6818 26253.2
 17 11 2013  01 37  -21.0117 26017.7 -03509.3 -07.6818 26253.3
 17 11 2013  01 38  -21.0114 26018.0 -03509.4 -07.6820 26253.6
 17 11 2013  01 39  -21.0113 26018.4 -03509.6 -07.6823 26254.1
 17 11 2013  01 40  -21.0114 26018.7 -03509.8 -07.6825 26254.4
 17 11 2013  01 41  -21.0113 26018.9 -03509.9 -07.6827 26254.6
 17 11 2013  01 42  -21.0111 26019.0 -03509.9 -07.6826 26254.6
 17 11 2013  01 43  -21.0109 26018.9 -03509.8 -07.6825 26254.6
 17 11 2013  01 44  -21.0108 26018.9 -03509.8 -07.6825 26254.6
 17 11 2013  01 45  -21.0105 26018.8 -03509.7 -07.6823 26254.4
 17 11 2013  01 46  -21.0101 26018.6 -03509.6 -07.6821 26254.2
 17 11 2013  01 47  -21.0097 26018.4 -03509.5 -07.6820 26254.1
 17 11 2013  01 48  -21.0093 26018.3 -03509.4 -07.6818 26253.9
 17 11 2013  01 49  -21.0091 26018.3 -03509.4 -07.6819 26253.9
 17 11 2013  01 50  -21.0091 26018.4 -03509.5 -07.6820 26254.0
 17 11 2013  01 51  -21.0091 26018.3 -03509.6 -07.6821 26253.9
 17 11 2013  01 52  -21.0093 26018.1 -03509.5 -07.6822 26253.7
 17 11 2013  01 53  -21.0099 26018.0 -03509.6 -07.6823 26253.6
 17 11 2013  01 54  -21.0106 26017.8 -03509.5 -07.6822 26253.5
 17 11 2013  01 55  -21.0117 26017.7 -03509.6 -07.6824 26253.4
 17 11 2013  01 56  -21.0125 26017.8 -03509.6 -07.6824 26253.5
 17 11 2013  01 57  -21.0130 26017.9 -03509.6 -07.6824 26253.5
 17 11 2013  01 58  -21.0133 26017.9 -03509.6 -07.6824 26253.5
 17 11 2013  01 59  -21.0136 26017.8 -03509.6 -07.6823 26253.5
 17 11 2013  02 00  -21.0138 26017.5 -03509.4 -07.6821 26253.1
 17 11 2013  02 01  -21.0140 26017.2 -03509.2 -07.6818 26252.8
 17 11 2013  02 02  -21.0141 26016.8 -03509.0 -07.6813 26252.4
 17 11 2013  02 03  -21.0143 26016.3 -03508.7 -07.6810 26251.8
 17 11 2013  02 04  -21.0142 26015.9 -03508.5 -07.6806 26251.4
 17 11 2013  02 05  -21.0142 26015.5 -03508.3 -07.6803 26251.0
 17 11 2013  02 06  -21.0144 26015.2 -03508.2 -07.6801 26250.6
 17 11 2013  02 07  -21.0147 26015.1 -03508.2 -07.6802 26250.6
 17 11 2013  02 08  -21.0151 26015.1 -03508.3 -07.6803 26250.6
 17 11 2013  02 09  -21.0156 26015.1 -03508.4 -07.6805 26250.7
 17 11 2013  02 10  -21.0157 26015.2 -03508.4 -07.6806 26250.7
 17 11 2013  02 11  -21.0160 26015.0 -03508.4 -07.6806 26250.5
 17 11 2013  02 12  -21.0159 26014.8 -03508.3 -07.6804 26250.3
 17 11 2013  02 13  -21.0159 26014.9 -03508.3 -07.6805 26250.4
 17 11 2013  02 14  -21.0154 26015.1 -03508.4 -07.6806 26250.6
 17 11 2013  02 15  -21.0149 26015.1 -03508.5 -07.6807 26250.6
 17 11 2013  02 16  -21.0143 26015.0 -03508.3 -07.6805 26250.5
 17 11 2013  02 17  -21.0138 26014.8 -03508.3 -07.6804 26250.3
 17 11 2013  02 18  -21.0141 26014.5 -03508.2 -07.6804 26249.9
 17 11 2013  02 19  -21.0145 26014.3 -03508.2 -07.6803 26249.7
 17 11 2013  02 20  -21.0150 26014.1 -03508.2 -07.6804 26249.6
 17 11 2013  02 21  -21.0152 26013.9 -03508.1 -07.6803 26249.4
 17 11 2013  02 22  -21.0158 26013.6 -03508.0 -07.6801 26249.1
 17 11 2013  02 23  -21.0167 26013.3 -03507.9 -07.6801 26248.8
 17 11 2013  02 24  -21.0174 26012.8 -03507.7 -07.6797 26248.3
 17 11 2013  02 25  -21.0179 26012.4 -03507.5 -07.6794 26247.8
 17 11 2013  02 26  -21.0184 26012.3 -03507.4 -07.6793 26247.7
 17 11 2013  02 27  -21.0189 26012.4 -03507.5 -07.6794 26247.8
 17 11 2013  02 28  -21.0194 26012.6 -03507.6 -07.6797 26248.0
 17 11 2013  02 29  -21.0196 26012.7 -03507.7 -07.6798 26248.1
 17 11 2013  02 30  -21.0199 26012.9 -03507.8 -07.6799 26248.3
 17 11 2013  02 31  -21.0200 26013.0 -03507.9 -07.6801 26248.5
 17 11 2013  02 32  -21.0201 26013.4 -03508.1 -07.6804 26248.9
 17 11 2013  02 33  -21.0199 26013.8 -03508.3 -07.6806 26249.3
 17 11 2013  02 34  -21.0195 26014.1 -03508.4 -07.6808 26249.6
 17 11 2013  02 35  -21.0190 26014.3 -03508.5 -07.6810 26249.8
 17 11 2013  02 36  -21.0190 26014.1 -03508.4 -07.6808 26249.6
 17 11 2013  02 37  -21.0188 26013.9 -03508.2 -07.6806 26249.4
 17 11 2013  02 38  -21.0189 26013.6 -03508.1 -07.6804 26249.0
 17 11 2013  02 39  -21.0190 26013.3 -03508.0 -07.6802 26248.8
 17 11 2013  02 40  -21.0192 26013.2 -03507.9 -07.6801 26248.6
 17 11 2013  02 41  -21.0194 26013.0 -03507.9 -07.6800 26248.5
 17 11 2013  02 42  -21.0197 26012.8 -03507.8 -07.6799 26248.3
 17 11 2013  02 43  -21.0197 26012.7 -03507.7 -07.6797 26248.1
 17 11 2013  02 44  -21.0195 26012.6 -03507.7 -07.6797 26248.0
 17 11 2013  02 45  -21.0193 26012.7 -03507.7 -07.6797 26248.1
 17 11 2013  02 46  -21.0192 26012.7 -03507.8 -07.6799 26248.2
 17 11 2013  02 47  -21.0190 26012.7 -03507.8 -07.6800 26248.2
 17 11 2013  02 48  -21.0189 26012.8 -03507.9 -07.6801 26248.3
 17 11 2013  02 49  -21.0187 26012.9 -03507.9 -07.6802 26248.4
 17 11 2013  02 50  -21.0184 26013.1 -03508.0 -07.6804 26248.6
 17 11 2013  02 51  -21.0181 26013.0 -03508.0 -07.6803 26248.5
 17 11 2013  02 52  -21.0179 26012.5 -03507.8 -07.6800 26247.9
 17 11 2013  02 53  -21.0177 26011.6 -03507.4 -07.6794 26247.0
 17 11 2013  02 54  -21.0177 26010.8 -03507.0 -07.6787 26246.2
 17 11 2013  02 55  -21.0177 26010.1 -03506.7 -07.6783 26245.4
 17 11 2013  02 56  -21.0176 26009.8 -03506.6 -07.6782 26245.1
 17 11 2013  02 57  -21.0175 26010.1 -03506.8 -07.6786 26245.4
 17 11 2013  02 58  -21.0178 26010.5 -03507.2 -07.6793 26245.9
 17 11 2013  02 59  -21.0179 26010.8 -03507.5 -07.6798 26246.2
 17 11 2013  03 00  -21.0181 26010.9 -03507.6 -07.6801 26246.3
 17 11 2013  03 01  -21.0184 26010.9 -03507.7 -07.6802 26246.3
 17 11 2013  03 02  -21.0186 26010.9 -03507.7 -07.6803 26246.3
 17 11 2013  03 03  -21.0189 26010.9 -03507.7 -07.6804 26246.4
 17 11 2013  03 04  -21.0193 26011.2 -03507.9 -07.6807 26246.7
 17 11 2013  03 05  -21.0198 26011.6 -03508.1 -07.6810 26247.1
 17 11 2013  03 06  -21.0203 26011.8 -03508.3 -07.6813 26247.4
 17 11 2013  03 07  -21.0207 26011.8 -03508.3 -07.6813 26247.3
 17 11 2013  03 08  -21.0207 26011.9 -03508.3 -07.6812 26247.4
 17 11 2013  03 09  -21.0207 26012.1 -03508.4 -07.6814 26247.6
 17 11 2013  03 10  -21.0206 26012.3 -03508.4 -07.6815 26247.9
 17 11 2013  03 11  -21.0205 26012.5 -03508.5 -07.6815 26248.0
 17 11 2013  03 12  -21.0206 26012.6 -03508.6 -07.6817 26248.1
 17 11 2013  03 13  -21.0207 26012.7 -03508.6 -07.6818 26248.2
 17 11 2013  03 14  -21.0207 26012.7 -03508.6 -07.6817 26248.3
 17 11 2013  03 15  -21.0205 26012.8 -03508.6 -07.6817 26248.3
 17 11 2013  03 16  -21.0203 26012.8 -03508.6 -07.6817 26248.3
 17 11 2013  03 17  -21.0203 26012.4 -03508.4 -07.6814 26247.9
 17 11 2013  03 18  -21.0203 26011.9 -03508.2 -07.6810 26247.4
 17 11 2013  03 19  -21.0204 26011.5 -03508.0 -07.6807 26247.0
 17 11 2013  03 20  -21.0208 26011.3 -03507.9 -07.6806 26246.8
 17 11 2013  03 21  -21.0214 26011.5 -03508.0 -07.6808 26246.9
 17 11 2013  03 22  -21.0220 26011.7 -03508.2 -07.6810 26247.2
 17 11 2013  03 23  -21.0225 26011.8 -03508.3 -07.6812 26247.4
 17 11 2013  03 24  -21.0227 26011.9 -03508.3 -07.6813 26247.5
 17 11 2013  03 25  -21.0227 26011.9 -03508.3 -07.6812 26247.4
 17 11 2013  03 26  -21.0222 26011.9 -03508.2 -07.6811 26247.4
 17 11 2013  03 27  -21.0216 26011.8 -03508.1 -07.6809 26247.3
 17 11 2013  03 28  -21.0208 26011.7 -03508.1 -07.6809 26247.2
 17 11 2013  03 29  -21.0200 26011.7 -03508.1 -07.6809 26247.2
 17 11 2013  03 30  -21.0195 26011.7 -03508.1 -07.6810 26247.3
 17 11 2013  03 31  -21.0191 26011.8 -03508.2 -07.6811 26247.3
 17 11 2013  03 32  -21.0189 26011.7 -03508.2 -07.6812 26247.2
 17 11 2013  03 33  -21.0186 26011.5 -03508.2 -07.6811 26247.0
 17 11 2013  03 34  -21.0182 26011.2 -03508.1 -07.6810 26246.7
 17 11 2013  03 35  -21.0179 26011.1 -03508.0 -07.6810 26246.6
 17 11 2013  03 36  -21.0176 26011.1 -03508.1 -07.6811 26246.6
 17 11 2013  03 37  -21.0171 26011.2 -03508.2 -07.6814 26246.7
 17 11 2013  03 38  -21.0166 26011.3 -03508.4 -07.6816 26246.9
 17 11 2013  03 39  -21.0163 26011.5 -03508.6 -07.6820 26247.1
 17 11 2013  03 40  -21.0163 26011.7 -03508.7 -07.6823 26247.3
 17 11 2013  03 41  -21.0163 26011.9 -03508.9 -07.6825 26247.5
 17 11 2013  03 42  -21.0165 26011.9 -03509.0 -07.6828 26247.5
 17 11 2013  03 43  -21.0166 26011.9 -03509.0 -07.6828 26247.5
 17 11 2013  03 44  -21.0168 26011.8 -03509.0 -07.6828 26247.4
 17 11 2013  03 45  -21.0170 26011.8 -03509.1 -07.6829 26247.4
 17 11 2013  03 46  -21.0171 26011.8 -03509.1 -07.6830 26247.5
 17 11 2013  03 47  -21.0169 26011.9 -03509.1 -07.6830 26247.5
 17 11 2013  03 48  -21.0168 26011.8 -03509.1 -07.6831 26247.5
 17 11 2013  03 49  -21.0169 26011.8 -03509.1 -07.6831 26247.5
 17 11 2013  03 50  -21.0170 26012.1 -03509.3 -07.6834 26247.7
 17 11 2013  03 51  -21.0173 26012.2 -03509.4 -07.6836 26247.8
 17 11 2013  03 52  -21.0176 26012.3 -03509.5 -07.6838 26248.0
 17 11 2013  03 53  -21.0178 26012.4 -03509.5 -07.6838 26248.0
 17 11 2013  03 54  -21.0179 26012.3 -03509.5 -07.6838 26248.0
 17 11 2013  03 55  -21.0179 26012.3 -03509.5 -07.6838 26248.0
 17 11 2013  03 56  -21.0181 26012.2 -03509.5 -07.6838 26247.9
 17 11 2013  03 57  -21.0182 26012.2 -03509.5 -07.6838 26247.9
 17 11 2013  03 58  -21.0183 26012.4 -03509.5 -07.6838 26248.0
 17 11 2013  03 59  -21.0186 26012.3 -03509.6 -07.6839 26248.0
 17 11 2013  04 00  -21.0189 26012.4 -03509.6 -07.6841 26248.1
 17 11 2013  04 01  -21.0193 26012.3 -03509.6 -07.6841 26248.0
 17 11 2013  04 02  -21.0195 26012.2 -03509.6 -07.6839 26247.9
 17 11 2013  04 03  -21.0196 26012.2 -03509.6 -07.6840 26247.9
 17 11 2013  04 04  -21.0195 26012.1 -03509.5 -07.6839 26247.8
 17 11 2013  04 05  -21.0193 26012.0 -03509.5 -07.6838 26247.7
 17 11 2013  04 06  -21.0191 26012.0 -03509.5 -07.6838 26247.7
 17 11 2013  04 07  -21.0187 26011.9 -03509.4 -07.6837 26247.5
 17 11 2013  04 08  -21.0186 26011.8 -03509.4 -07.6837 26247.5
 17 11 2013  04 09  -21.0184 26011.8 -03509.5 -07.6839 26247.5
 17 11 2013  04 10  -21.0183 26011.9 -03509.6 -07.6841 26247.6
 17 11 2013  04 11  -21.0184 26012.0 -03509.7 -07.6843 26247.7
 17 11 2013  04 12  -21.0185 26012.0 -03509.7 -07.6844 26247.7
 17 11 2013  04 13  -21.0185 26011.9 -03509.7 -07.6844 26247.6
 17 11 2013  04 14  -21.0183 26011.8 -03509.7 -07.6844 26247.5
 17 11 2013  04 15  -21.0183 26011.7 -03509.7 -07.6844 26247.5
 17 11 2013  04 16  -21.0185 26011.8 -03509.8 -07.6846 26247.5
 17 11 2013  04 17  -21.0188 26011.8 -03509.9 -07.6847 26247.6
 17 11 2013  04 18  -21.0191 26011.8 -03509.9 -07.6847 26247.6
 17 11 2013  04 19  -21.0193 26011.8 -03509.9 -07.6848 26247.5
 17 11 2013  04 20  -21.0193 26011.7 -03509.9 -07.6848 26247.4
 17 11 2013  04 21  -21.0197 26011.6 -03509.8 -07.6847 26247.3
 17 11 2013  04 22  -21.0200 26011.5 -03509.8 -07.6847 26247.3
 17 11 2013  04 23  -21.0207 26011.5 -03509.8 -07.6847 26247.2
 17 11 2013  04 24  -21.0213 26011.5 -03509.9 -07.6848 26247.2
 17 11 2013  04 25  -21.0219 26011.6 -03509.9 -07.6849 26247.4
 17 11 2013  04 26  -21.0224 26011.8 -03510.0 -07.6851 26247.6
 17 11 2013  04 27  -21.0228 26011.9 -03510.1 -07.6852 26247.7
 17 11 2013  04 28  -21.0230 26012.1 -03510.1 -07.6852 26247.9
 17 11 2013  04 29  -21.0234 26012.2 -03510.2 -07.6853 26248.0
 17 11 2013  04 30  -21.0237 26012.4 -03510.2 -07.6854 26248.2
 17 11 2013  04 31  -21.0239 26012.3 -03510.2 -07.6853 26248.1
 17 11 2013  04 32  -21.0240 26012.5 -03510.2 -07.6852 26248.2
 17 11 2013  04 33  -21.0241 26012.6 -03510.3 -07.6853 26248.3
 17 11 2013  04 34  -21.0242 26012.7 -03510.3 -07.6853 26248.5
 17 11 2013  04 35  -21.0244 26012.8 -03510.3 -07.6853 26248.5
 17 11 2013  04 36  -21.0245 26012.9 -03510.3 -07.6853 26248.6
 17 11 2013  04 37  -21.0245 26012.9 -03510.3 -07.6852 26248.7
 17 11 2013  04 38  -21.0245 26012.9 -03510.2 -07.6851 26248.7
 17 11 2013  04 39  -21.0245 26013.0 -03510.2 -07.6851 26248.7
 17 11 2013  04 40  -21.0245 26013.0 -03510.2 -07.6851 26248.8
 17 11 2013  04 41  -21.0246 26013.0 -03510.2 -07.6850 26248.8
 17 11 2013  04 42  -21.0245 26013.0 -03510.2 -07.6850 26248.8
 17 11 2013  04 43  -21.0244 26012.8 -03510.0 -07.6848 26248.5
 17 11 2013  04 44  -21.0244 26012.6 -03509.9 -07.6845 26248.3
 17 11 2013  04 45  -21.0245 26012.5 -03509.8 -07.6845 26248.2
 17 11 2013  04 46  -21.0246 26012.7 -03509.9 -07.6845 26248.4
 17 11 2013  04 47  -21.0246 26012.9 -03510.0 -07.6847 26248.6
 17 11 2013  04 48  -21.0246 26013.1 -03510.1 -07.6849 26248.9
 17 11 2013  04 49  -21.0246 26013.3 -03510.2 -07.6850 26249.1
 17 11 2013  04 50  -21.0246 26013.5 -03510.3 -07.6851 26249.3
 17 11 2013  04 51  -21.0245 26013.6 -03510.4 -07.6853 26249.4
 17 11 2013  04 52  -21.0243 26013.7 -03510.4 -07.6853 26249.5
 17 11 2013  04 53  -21.0240 26013.7 -03510.4 -07.6853 26249.5
 17 11 2013  04 54  -21.0238 26013.6 -03510.3 -07.6852 26249.4
 17 11 2013  04 55  -21.0234 26013.5 -03510.3 -07.6851 26249.3
 17 11 2013  04 56  -21.0232 26013.4 -03510.2 -07.6850 26249.1
 17 11 2013  04 57  -21.0231 26013.4 -03510.2 -07.6850 26249.2
 17 11 2013  04 58  -21.0232 26013.5 -03510.3 -07.6851 26249.3
 17 11 2013  04 59  -21.0234 26013.7 -03510.4 -07.6853 26249.5
 17 11 2013  05 00  -21.0234 26013.8 -03510.5 -07.6854 26249.5
 17 11 2013  05 01  -21.0235 26013.5 -03510.4 -07.6853 26249.2
 17 11 2013  05 02  -21.0238 26013.0 -03510.2 -07.6850 26248.8
 17 11 2013  05 03  -21.0243 26012.8 -03510.0 -07.6848 26248.5
 17 11 2013  05 04  -21.0248 26012.7 -03510.0 -07.6847 26248.4
 17 11 2013  05 05  -21.0256 26012.6 -03509.9 -07.6846 26248.3
 17 11 2013  05 06  -21.0259 26012.8 -03510.0 -07.6848 26248.6
 17 11 2013  05 07  -21.0265 26012.9 -03510.1 -07.6849 26248.7
 17 11 2013  05 08  -21.0267 26013.2 -03510.2 -07.6850 26248.9
 17 11 2013  05 09  -21.0268 26013.3 -03510.2 -07.6849 26249.0
 17 11 2013  05 10  -21.0266 26013.5 -03510.2 -07.6850 26249.2
 17 11 2013  05 11  -21.0261 26013.9 -03510.4 -07.6852 26249.7
 17 11 2013  05 12  -21.0258 26014.3 -03510.6 -07.6855 26250.1
 17 11 2013  05 13  -21.0250 26014.6 -03510.7 -07.6857 26250.4
 17 11 2013  05 14  -21.0243 26014.7 -03510.8 -07.6858 26250.5
 17 11 2013  05 15  -21.0235 26014.4 -03510.6 -07.6856 26250.2
 17 11 2013  05 16  -21.0228 26014.0 -03510.5 -07.6853 26249.8
 17 11 2013  05 17  -21.0222 26013.7 -03510.3 -07.6850 26249.5
 17 11 2013  05 18  -21.0216 26013.4 -03510.1 -07.6848 26249.2
 17 11 2013  05 19  -21.0214 26013.1 -03510.0 -07.6846 26248.8
 17 11 2013  05 20  -21.0214 26012.9 -03510.0 -07.6846 26248.7
 17 11 2013  05 21  -21.0218 26012.8 -03510.0 -07.6847 26248.5
 17 11 2013  05 22  -21.0222 26012.7 -03510.0 -07.6847 26248.4
 17 11 2013  05 23  -21.0227 26012.6 -03510.0 -07.6848 26248.4
 17 11 2013  05 24  -21.0231 26012.5 -03510.0 -07.6848 26248.3
 17 11 2013  05 25  -21.0236 26012.4 -03510.0 -07.6848 26248.2
 17 11 2013  05 26  -21.0239 26012.3 -03509.9 -07.6847 26248.1
 17 11 2013  05 27  -21.0239 26012.3 -03509.9 -07.6846 26248.1
 17 11 2013  05 28  -21.0241 26012.3 -03509.9 -07.6846 26248.0
 17 11 2013  05 29  -21.0245 26012.3 -03510.0 -07.6848 26248.0
 17 11 2013  05 30  -21.0246 26012.3 -03509.9 -07.6847 26248.1
 17 11 2013  05 31  -21.0248 26012.3 -03509.9 -07.6847 26248.0
 17 11 2013  05 32  -21.0248 26012.1 -03509.8 -07.6845 26247.8
 17 11 2013  05 33  -21.0248 26012.1 -03509.8 -07.6844 26247.8
 17 11 2013  05 34  -21.0248 26012.0 -03509.8 -07.6844 26247.7
 17 11 2013  05 35  -21.0250 26011.8 -03509.7 -07.6844 26247.5
 17 11 2013  05 36  -21.0251 26011.6 -03509.7 -07.6843 26247.4
 17 11 2013  05 37  -21.0255 26011.6 -03509.6 -07.6843 26247.3
 17 11 2013  05 38  -21.0258 26011.6 -03509.6 -07.6842 26247.3
 17 11 2013  05 39  -21.0261 26011.7 -03509.7 -07.6844 26247.4
 17 11 2013  05 40  -21.0263 26011.7 -03509.7 -07.6844 26247.4
 17 11 2013  05 41  -21.0264 26011.6 -03509.7 -07.6843 26247.3
 17 11 2013  05 42  -21.0266 26011.6 -03509.6 -07.6843 26247.3
 17 11 2013  05 43  -21.0268 26011.6 -03509.7 -07.6844 26247.4
 17 11 2013  05 44  -21.0270 26011.7 -03509.7 -07.6844 26247.4
 17 11 2013  05 45  -21.0273 26011.5 -03509.7 -07.6843 26247.2
 17 11 2013  05 46  -21.0273 26011.4 -03509.5 -07.6841 26247.1
 17 11 2013  05 47  -21.0274 26011.4 -03509.5 -07.6841 26247.1
 17 11 2013  05 48  -21.0276 26011.4 -03509.6 -07.6842 26247.1
 17 11 2013  05 49  -21.0277 26011.4 -03509.6 -07.6842 26247.1
 17 11 2013  05 50  -21.0279 26011.4 -03509.6 -07.6843 26247.1
 17 11 2013  05 51  -21.0283 26011.3 -03509.6 -07.6842 26247.0
 17 11 2013  05 52  -21.0284 26011.2 -03509.5 -07.6840 26246.9
 17 11 2013  05 53  -21.0286 26011.0 -03509.4 -07.6838 26246.7
 17 11 2013  05 54  -21.0289 26010.9 -03509.3 -07.6838 26246.6
 17 11 2013  05 55  -21.0289 26010.9 -03509.3 -07.6837 26246.6
 17 11 2013  05 56  -21.0289 26010.9 -03509.3 -07.6838 26246.6
 17 11 2013  05 57  -21.0291 26010.9 -03509.4 -07.6839 26246.5
 17 11 2013  05 58  -21.0293 26010.9 -03509.3 -07.6838 26246.5
 17 11 2013  05 59  -21.0295 26010.9 -03509.4 -07.6839 26246.6
 17 11 2013  06 00  -21.0296 26010.9 -03509.4 -07.6840 26246.6
 17 11 2013  06 01  -21.0295 26010.8 -03509.4 -07.6839 26246.5
 17 11 2013  06 02  -21.0294 26010.6 -03509.3 -07.6838 26246.3
 17 11 2013  06 03  -21.0293 26010.5 -03509.2 -07.6837 26246.2
 17 11 2013  06 04  -21.0294 26010.5 -03509.2 -07.6836 26246.1
 17 11 2013  06 05  -21.0292 26010.6 -03509.3 -07.6837 26246.3
 17 11 2013  06 06  -21.0291 26010.9 -03509.4 -07.6840 26246.5
 17 11 2013  06 07  -21.0295 26010.8 -03509.5 -07.6842 26246.5
 17 11 2013  06 08  -21.0290 26011.2 -03509.6 -07.6844 26246.9
 17 11 2013  06 09  -21.0291 26011.0 -03509.6 -07.6844 26246.7
 17 11 2013  06 10  -21.0283 26011.0 -03509.6 -07.6843 26246.7
 17 11 2013  06 11  -21.0278 26010.7 -03509.5 -07.6842 26246.4
 17 11 2013  06 12  -21.0271 26010.6 -03509.5 -07.6842 26246.3
 17 11 2013  06 13  -21.0266 26010.4 -03509.3 -07.6840 26246.0
 17 11 2013  06 14  -21.0266 26010.3 -03509.4 -07.6840 26245.9
 17 11 2013  06 15  -21.0264 26010.3 -03509.4 -07.6841 26246.0
 17 11 2013  06 16  -21.0264 26010.3 -03509.5 -07.6842 26246.0
 17 11 2013  06 17  -21.0266 26010.3 -03509.5 -07.6844 26246.0
 17 11 2013  06 18  -21.0267 26010.4 -03509.6 -07.6845 26246.1
 17 11 2013  06 19  -21.0266 26010.5 -03509.7 -07.6847 26246.2
 17 11 2013  06 20  -21.0265 26010.3 -03509.7 -07.6847 26246.0
 17 11 2013  06 21  -21.0266 26010.1 -03509.6 -07.6847 26245.8
 17 11 2013  06 22  -21.0261 26010.1 -03509.6 -07.6845 26245.8
 17 11 2013  06 23  -21.0259 26009.9 -03509.5 -07.6844 26245.6
 17 11 2013  06 24  -21.0255 26010.0 -03509.6 -07.6846 26245.7
 17 11 2013  06 25  -21.0256 26010.1 -03509.7 -07.6848 26245.8
 17 11 2013  06 26  -21.0255 26010.1 -03509.7 -07.6848 26245.8
 17 11 2013  06 27  -21.0253 26010.1 -03509.8 -07.6850 26245.9
 17 11 2013  06 28  -21.0247 26010.0 -03509.7 -07.6848 26245.7
 17 11 2013  06 29  -21.0246 26009.9 -03509.7 -07.6848 26245.7
 17 11 2013  06 30  -21.0246 26010.2 -03509.8 -07.6850 26245.9
 17 11 2013  06 31  -21.0246 26010.4 -03510.0 -07.6854 26246.1
 17 11 2013  06 32  -21.0247 26010.6 -03510.1 -07.6856 26246.4
 17 11 2013  06 33  -21.0247 26010.5 -03510.1 -07.6856 26246.3
 17 11 2013  06 34  -21.0249 26010.5 -03510.1 -07.6856 26246.3
 17 11 2013  06 35  -21.0251 26010.6 -03510.1 -07.6856 26246.4
 17 11 2013  06 36  -21.0249 26010.7 -03510.2 -07.6856 26246.5
 17 11 2013  06 37  -21.0244 26010.8 -03510.1 -07.6855 26246.5
 17 11 2013  06 38  -21.0242 26010.9 -03510.2 -07.6856 26246.7
 17 11 2013  06 39  -21.0239 26011.2 -03510.3 -07.6858 26247.0
 17 11 2013  06 40  -21.0239 26011.2 -03510.3 -07.6858 26247.0
 17 11 2013  06 41  -21.0238 26011.2 -03510.3 -07.6858 26247.0
 17 11 2013  06 42  -21.0240 26011.3 -03510.3 -07.6859 26247.1
 17 11 2013  06 43  -21.0240 26011.4 -03510.4 -07.6860 26247.2
 17 11 2013  06 44  -21.0243 26011.5 -03510.5 -07.6860 26247.4
 17 11 2013  06 45  -21.0245 26011.7 -03510.5 -07.6862 26247.5
 17 11 2013  06 46  -21.0247 26011.8 -03510.6 -07.6863 26247.6
 17 11 2013  06 47  -21.0250 26011.9 -03510.6 -07.6863 26247.7
 17 11 2013  06 48  -21.0252 26012.2 -03510.7 -07.6864 26248.0
 17 11 2013  06 49  -21.0255 26012.4 -03510.8 -07.6866 26248.3
 17 11 2013  06 50  -21.0263 26012.6 -03510.9 -07.6867 26248.4
 17 11 2013  06 51  -21.0271 26012.6 -03510.9 -07.6867 26248.4
 17 11 2013  06 52  -21.0279 26012.6 -03510.8 -07.6866 26248.4
 17 11 2013  06 53  -21.0289 26012.7 -03510.8 -07.6865 26248.5
 17 11 2013  06 54  -21.0297 26012.8 -03510.8 -07.6864 26248.6
 17 11 2013  06 55  -21.0303 26012.8 -03510.7 -07.6863 26248.6
 17 11 2013  06 56  -21.0303 26012.9 -03510.6 -07.6860 26248.7
 17 11 2013  06 57  -21.0303 26013.0 -03510.6 -07.6859 26248.8
 17 11 2013  06 58  -21.0301 26013.0 -03510.5 -07.6857 26248.8
 17 11 2013  06 59  -21.0299 26013.1 -03510.4 -07.6855 26248.9
 17 11 2013  07 00  -21.0299 26013.1 -03510.4 -07.6854 26248.9
 17 11 2013  07 01  -21.0300 26013.1 -03510.3 -07.6853 26248.9
 17 11 2013  07 02  -21.0299 26013.3 -03510.4 -07.6853 26249.1
 17 11 2013  07 03  -21.0300 26013.3 -03510.3 -07.6852 26249.1
 17 11 2013  07 04  -21.0304 26013.2 -03510.3 -07.6852 26249.0
 17 11 2013  07 05  -21.0306 26013.2 -03510.3 -07.6852 26249.0
 17 11 2013  07 06  -21.0305 26013.3 -03510.2 -07.6851 26249.1
 17 11 2013  07 07  -21.0307 26013.3 -03510.2 -07.6849 26249.0
 17 11 2013  07 08  -21.0312 26013.4 -03510.2 -07.6850 26249.2
 17 11 2013  07 09  -21.0314 26013.6 -03510.3 -07.6850 26249.4
 17 11 2013  07 10  -21.0317 26013.6 -03510.2 -07.6850 26249.4
 17 11 2013  07 11  -21.0322 26013.5 -03510.1 -07.6848 26249.3
 17 11 2013  07 12  -21.0326 26013.6 -03510.2 -07.6848 26249.4
 17 11 2013  07 13  -21.0331 26013.7 -03510.1 -07.6847 26249.5
 17 11 2013  07 14  -21.0337 26013.8 -03510.2 -07.6848 26249.6
 17 11 2013  07 15  -21.0341 26013.9 -03510.2 -07.6848 26249.7
 17 11 2013  07 16  -21.0345 26014.0 -03510.1 -07.6846 26249.7
 17 11 2013  07 17  -21.0346 26014.0 -03510.0 -07.6844 26249.8
 17 11 2013  07 18  -21.0348 26014.1 -03510.0 -07.6843 26249.8
 17 11 2013  07 19  -21.0349 26014.1 -03510.0 -07.6843 26249.9
 17 11 2013  07 20  -21.0351 26014.2 -03509.9 -07.6841 26249.9
 17 11 2013  07 21  -21.0352 26014.3 -03510.0 -07.6842 26250.0
 17 11 2013  07 22  -21.0352 26014.5 -03510.0 -07.6841 26250.2
 17 11 2013  07 23  -21.0355 26014.6 -03510.0 -07.6841 26250.3
 17 11 2013  07 24  -21.0356 26014.8 -03510.0 -07.6841 26250.5
 17 11 2013  07 25  -21.0357 26014.8 -03509.9 -07.6840 26250.5
 17 11 2013  07 26  -21.0356 26014.8 -03509.8 -07.6838 26250.5
 17 11 2013  07 27  -21.0353 26014.7 -03509.7 -07.6836 26250.4
 17 11 2013  07 28  -21.0349 26014.7 -03509.6 -07.6833 26250.3
 17 11 2013  07 29  -21.0345 26014.6 -03509.6 -07.6832 26250.3
 17 11 2013  07 30  -21.0343 26014.7 -03509.5 -07.6832 26250.3
 17 11 2013  07 31  -21.0342 26014.8 -03509.6 -07.6833 26250.5
 17 11 2013  07 32  -21.0342 26014.9 -03509.7 -07.6834 26250.5
 17 11 2013  07 33  -21.0340 26015.0 -03509.7 -07.6835 26250.7
 17 11 2013  07 34  -21.0339 26015.2 -03509.8 -07.6835 26250.9
 17 11 2013  07 35  -21.0337 26015.5 -03509.9 -07.6837 26251.2
 17 11 2013  07 36  -21.0336 26015.7 -03510.0 -07.6839 26251.4
 17 11 2013  07 37  -21.0336 26015.8 -03510.0 -07.6839 26251.5
 17 11 2013  07 38  -21.0337 26015.9 -03510.1 -07.6840 26251.6
 17 11 2013  07 39  -21.0339 26016.1 -03510.2 -07.6841 26251.8
 17 11 2013  07 40  -21.0338 26016.2 -03510.2 -07.6841 26252.0
 17 11 2013  07 41  -21.0338 26016.4 -03510.2 -07.6842 26252.1
 17 11 2013  07 42  -21.0336 26016.4 -03510.2 -07.6841 26252.1
 17 11 2013  07 43  -21.0334 26016.5 -03510.2 -07.6840 26252.2
 17 11 2013  07 44  -21.0332 26016.5 -03510.1 -07.6839 26252.2
 17 11 2013  07 45  -21.0332 26016.5 -03510.1 -07.6839 26252.3
 17 11 2013  07 46  -21.0331 26016.6 -03510.2 -07.6839 26252.3
 17 11 2013  07 47  -21.0328 26016.6 -03510.2 -07.6839 26252.4
 17 11 2013  07 48  -21.0327 26016.7 -03510.2 -07.6839 26252.4
 17 11 2013  07 49  -21.0325 26016.7 -03510.2 -07.6839 26252.5
 17 11 2013  07 50  -21.0322 26016.7 -03510.1 -07.6838 26252.4
 17 11 2013  07 51  -21.0320 26016.8 -03510.1 -07.6839 26252.5
 17 11 2013  07 52  -21.0317 26016.8 -03510.2 -07.6839 26252.5
 17 11 2013  07 53  -21.0314 26016.8 -03510.2 -07.6839 26252.5
 17 11 2013  07 54  -21.0315 26016.8 -03510.2 -07.6840 26252.5
 17 11 2013  07 55  -21.0314 26016.8 -03510.2 -07.6840 26252.6
 17 11 2013  07 56  -21.0312 26016.9 -03510.3 -07.6841 26252.6
 17 11 2013  07 57  -21.0309 26016.9 -03510.3 -07.6841 26252.6
 17 11 2013  07 58  -21.0306 26016.9 -03510.3 -07.6841 26252.7
 17 11 2013  07 59  -21.0303 26016.8 -03510.2 -07.6839 26252.6
 17 11 2013  08 00  -21.0301 26016.8 -03510.2 -07.6839 26252.5
 17 11 2013  08 01  -21.0299 26016.8 -03510.2 -07.6839 26252.5
 17 11 2013  08 02  -21.0301 26016.7 -03510.2 -07.6840 26252.4
 17 11 2013  08 03  -21.0301 26016.7 -03510.1 -07.6839 26252.4
 17 11 2013  08 04  -21.0300 26016.7 -03510.1 -07.6838 26252.4
 17 11 2013  08 05  -21.0298 26016.9 -03510.2 -07.6840 26252.6
 17 11 2013  08 06  -21.0296 26017.0 -03510.3 -07.6840 26252.8
 17 11 2013  08 07  -21.0296 26017.0 -03510.2 -07.6840 26252.7
 17 11 2013  08 08  -21.0297 26016.9 -03510.2 -07.6840 26252.6
 17 11 2013  08 09  -21.0298 26016.9 -03510.2 -07.6839 26252.6
 17 11 2013  08 10  -21.0301 26016.8 -03510.1 -07.6838 26252.5
 17 11 2013  08 11  -21.0301 26016.7 -03510.1 -07.6837 26252.5
 17 11 2013  08 12  -21.0301 26016.9 -03510.1 -07.6836 26252.6
 17 11 2013  08 13  -21.0302 26017.0 -03510.1 -07.6837 26252.8
 17 11 2013  08 14  -21.0302 26017.2 -03510.1 -07.6837 26252.9
 17 11 2013  08 15  -21.0304 26017.2 -03510.1 -07.6836 26253.0
 17 11 2013  08 16  -21.0304 26017.3 -03510.1 -07.6836 26253.1
 17 11 2013  08 17  -21.0304 26017.4 -03510.1 -07.6836 26253.1
 17 11 2013  08 18  -21.0305 26017.5 -03510.1 -07.6836 26253.2
 17 11 2013  08 19  -21.0304 26017.6 -03510.1 -07.6835 26253.3
 17 11 2013  08 20  -21.0304 26017.7 -03510.1 -07.6834 26253.4
 17 11 2013  08 21  -21.0304 26017.8 -03510.0 -07.6833 26253.5
 17 11 2013  08 22  -21.0305 26017.7 -03510.0 -07.6832 26253.4
 17 11 2013  08 23  -21.0306 26017.8 -03509.9 -07.6831 26253.5
 17 11 2013  08 24  -21.0305 26017.9 -03509.9 -07.6830 26253.5
 17 11 2013  08 25  -21.0305 26017.9 -03509.9 -07.6830 26253.6
 17 11 2013  08 26  -21.0306 26017.9 -03509.9 -07.6830 26253.6
 17 11 2013  08 27  -21.0305 26018.0 -03509.9 -07.6831 26253.7
 17 11 2013  08 28  -21.0304 26018.1 -03510.0 -07.6831 26253.8
 17 11 2013  08 29  -21.0302 26018.1 -03510.0 -07.6831 26253.8
 17 11 2013  08 30  -21.0301 26018.1 -03510.1 -07.6833 26253.8
 17 11 2013  08 31  -21.0299 26018.1 -03510.1 -07.6833 26253.8
 17 11 2013  08 32  -21.0296 26018.0 -03510.1 -07.6834 26253.8
 17 11 2013  08 33  -21.0294 26018.0 -03510.2 -07.6836 26253.8
 17 11 2013  08 34  -21.0294 26017.9 -03510.2 -07.6836 26253.6
 17 11 2013  08 35  -21.0292 26017.9 -03510.2 -07.6837 26253.6
 17 11 2013  08 36  -21.0291 26017.9 -03510.3 -07.6838 26253.6
 17 11 2013  08 37  -21.0290 26018.0 -03510.4 -07.6841 26253.7
 17 11 2013  08 38  -21.0289 26018.1 -03510.6 -07.6844 26253.8
 17 11 2013  08 39  -21.0290 26018.2 -03510.7 -07.6847 26254.0
 17 11 2013  08 40  -21.0290 26018.3 -03510.9 -07.6850 26254.1
 17 11 2013  08 41  -21.0291 26018.5 -03511.1 -07.6854 26254.4
 17 11 2013  08 42  -21.0291 26018.8 -03511.3 -07.6858 26254.7
 17 11 2013  08 43  -21.0293 26019.0 -03511.5 -07.6861 26254.9
 17 11 2013  08 44  -21.0296 26019.3 -03511.7 -07.6865 26255.2
 17 11 2013  08 45  -21.0300 26019.6 -03511.9 -07.6868 26255.5
 17 11 2013  08 46  -21.0304 26019.9 -03512.1 -07.6871 26255.8
 17 11 2013  08 47  -21.0306 26020.1 -03512.1 -07.6872 26256.1
 17 11 2013  08 48  -21.0309 26020.5 -03512.3 -07.6874 26256.4
 17 11 2013  08 49  -21.0315 26020.9 -03512.5 -07.6877 26256.9
 17 11 2013  08 50  -21.0320 26021.3 -03512.7 -07.6880 26257.3
 17 11 2013  08 51  -21.0326 26021.5 -03512.8 -07.6881 26257.5
 17 11 2013  08 52  -21.0331 26021.7 -03512.8 -07.6881 26257.7
 17 11 2013  08 53  -21.0337 26021.9 -03512.8 -07.6881 26257.9
 17 11 2013  08 54  -21.0341 26022.1 -03512.9 -07.6882 26258.1
 17 11 2013  08 55  -21.0345 26022.1 -03512.8 -07.6880 26258.2
 17 11 2013  08 56  -21.0347 26022.2 -03512.8 -07.6879 26258.2
 17 11 2013  08 57  -21.0352 26022.3 -03512.7 -07.6878 26258.3
 17 11 2013  08 58  -21.0357 26022.4 -03512.7 -07.6877 26258.4
 17 11 2013  08 59  -21.0362 26022.4 -03512.6 -07.6875 26258.4
 17 11 2013  09 00  -21.0365 26022.4 -03512.6 -07.6875 26258.4
 17 11 2013  09 01  -21.0369 26022.6 -03512.6 -07.6875 26258.6
 17 11 2013  09 02  -21.0372 26022.7 -03512.7 -07.6876 26258.8
 17 11 2013  09 03  -21.0378 26022.9 -03512.7 -07.6876 26258.9
 17 11 2013  09 04  -21.0385 26023.0 -03512.7 -07.6875 26259.0
 17 11 2013  09 05  -21.0390 26023.1 -03512.7 -07.6875 26259.1
 17 11 2013  09 06  -21.0395 26023.4 -03512.7 -07.6875 26259.4
 17 11 2013  09 07  -21.0399 26023.5 -03512.7 -07.6875 26259.5
 17 11 2013  09 08  -21.0402 26023.6 -03512.7 -07.6874 26259.6
 17 11 2013  09 09  -21.0405 26023.8 -03512.8 -07.6875 26259.8
 17 11 2013  09 10  -21.0411 26023.9 -03512.8 -07.6876 26259.9
 17 11 2013  09 11  -21.0418 26024.1 -03512.9 -07.6876 26260.2
 17 11 2013  09 12  -21.0423 26024.3 -03512.9 -07.6876 26260.4
 17 11 2013  09 13  -21.0429 26024.6 -03513.0 -07.6876 26260.6
 17 11 2013  09 14  -21.0432 26024.9 -03513.0 -07.6875 26260.9
 17 11 2013  09 15  -21.0437 26024.9 -03513.0 -07.6876 26261.0
 17 11 2013  09 16  -21.0443 26024.9 -03512.9 -07.6874 26261.0
 17 11 2013  09 17  -21.0448 26025.0 -03512.8 -07.6872 26261.0
 17 11 2013  09 18  -21.0452 26025.2 -03512.8 -07.6871 26261.2
 17 11 2013  09 19  -21.0458 26025.4 -03512.8 -07.6871 26261.4
 17 11 2013  09 20  -21.0462 26025.6 -03512.8 -07.6870 26261.6
 17 11 2013  09 21  -21.0466 26025.6 -03512.8 -07.6869 26261.6
 17 11 2013  09 22  -21.0471 26025.6 -03512.7 -07.6868 26261.6
 17 11 2013  09 23  -21.0477 26025.8 -03512.8 -07.6869 26261.8
 17 11 2013  09 24  -21.0483 26026.1 -03512.8 -07.6868 26262.1
 17 11 2013  09 25  -21.0487 26026.2 -03512.8 -07.6869 26262.2
 17 11 2013  09 26  -21.0491 26026.1 -03512.7 -07.6868 26262.1
 17 11 2013  09 27  -21.0494 26026.1 -03512.7 -07.6867 26262.1
 17 11 2013  09 28  -21.0497 26026.1 -03512.7 -07.6867 26262.1
 17 11 2013  09 29  -21.0501 26026.2 -03512.7 -07.6866 26262.2
 17 11 2013  09 30  -21.0509 26026.7 -03512.9 -07.6868 26262.7
 17 11 2013  09 31  -21.0517 26027.3 -03513.0 -07.6870 26263.3
 17 11 2013  09 32  -21.0522 26027.9 -03513.1 -07.6870 26263.9
 17 11 2013  09 33  -21.0525 26028.3 -03513.2 -07.6870 26264.3
 17 11 2013  09 34  -21.0529 26028.4 -03513.1 -07.6868 26264.4
 17 11 2013  09 35  -21.0529 26028.3 -03513.0 -07.6866 26264.3
 17 11 2013  09 36  -21.0529 26027.9 -03512.7 -07.6862 26263.9
 17 11 2013  09 37  -21.0531 26027.7 -03512.7 -07.6861 26263.7
 17 11 2013  09 38  -21.0534 26027.8 -03512.7 -07.6861 26263.8
 17 11 2013  09 39  -21.0539 26028.1 -03512.8 -07.6862 26264.1
 17 11 2013  09 40  -21.0546 26028.4 -03512.8 -07.6862 26264.4
 17 11 2013  09 41  -21.0548 26028.6 -03512.8 -07.6861 26264.6
 17 11 2013  09 42  -21.0552 26029.1 -03512.8 -07.6860 26265.1
 17 11 2013  09 43  -21.0558 26029.3 -03512.8 -07.6859 26265.3
 17 11 2013  09 44  -21.0558 26029.7 -03512.8 -07.6858 26265.6
 17 11 2013  09 45  -21.0561 26029.8 -03512.6 -07.6854 26265.7
 17 11 2013  09 46  -21.0564 26030.0 -03512.6 -07.6852 26266.0
 17 11 2013  09 47  -21.0560 26030.2 -03512.5 -07.6851 26266.2
 17 11 2013  09 48  -21.0560 26030.4 -03512.5 -07.6849 26266.3
 17 11 2013  09 49  -21.0564 26030.3 -03512.3 -07.6846 26266.2
 17 11 2013  09 50  -21.0557 26030.2 -03512.1 -07.6842 26266.1
 17 11 2013  09 51  -21.0541 26029.8 -03511.9 -07.6838 26265.7
 17 11 2013  09 52  -21.0530 26029.4 -03511.7 -07.6835 26265.2
 17 11 2013  09 53  -21.0529 26029.5 -03511.8 -07.6838 26265.3
 17 11 2013  09 54  -21.0538 26029.4 -03511.9 -07.6841 26265.2
 17 11 2013  09 55  -21.0546 26029.4 -03512.1 -07.6843 26265.2
 17 11 2013  09 56  -21.0558 26029.7 -03512.2 -07.6846 26265.6
 17 11 2013  09 57  -21.0554 26029.7 -03512.1 -07.6844 26265.5
 17 11 2013  09 58  -21.0546 26029.9 -03512.0 -07.6841 26265.7
 17 11 2013  09 59  -21.0552 26030.9 -03512.4 -07.6847 26266.8
 17 11 2013  10 00  -21.0562 26032.3 -03512.9 -07.6852 26268.2
 17 11 2013  10 01  -21.0574 26034.0 -03513.3 -07.6857 26270.0
 17 11 2013  10 02  -21.0579 26035.2 -03513.5 -07.6857 26271.2
 17 11 2013  10 03  -21.0576 26035.9 -03513.3 -07.6851 26271.9
 17 11 2013  10 04  -21.0583 26036.7 -03513.2 -07.6846 26272.7
 17 11 2013  10 05  -21.0584 26037.2 -03512.9 -07.6840 26273.1
 17 11 2013  10 06  -21.0580 26036.8 -03512.4 -07.6829 26272.6
 17 11 2013  10 07  -21.0580 26036.2 -03512.0 -07.6821 26272.0
 17 11 2013  10 08  -21.0576 26035.3 -03511.5 -07.6813 26271.0
 17 11 2013  10 09  -21.0578 26034.5 -03511.2 -07.6809 26270.2
 17 11 2013  10 10  -21.0571 26034.0 -03511.0 -07.6807 26269.7
 17 11 2013  10 11  -21.0563 26033.8 -03511.0 -07.6807 26269.5
 17 11 2013  10 12  -21.0548 26033.8 -03511.0 -07.6807 26269.5
 17 11 2013  10 13  -21.0537 26033.7 -03510.9 -07.6806 26269.4
 17 11 2013  10 14  -21.0539 26033.9 -03511.1 -07.6808 26269.6
 17 11 2013  10 15  -21.0551 26034.3 -03511.3 -07.6813 26270.0
 17 11 2013  10 16  -21.0566 26035.0 -03511.7 -07.6819 26270.8
 17 11 2013  10 17  -21.0575 26035.3 -03511.8 -07.6821 26271.1
 17 11 2013  10 18  -21.0576 26035.3 -03511.7 -07.6818 26271.0
 17 11 2013  10 19  -21.0569 26034.8 -03511.4 -07.6813 26270.6
 17 11 2013  10 20  -21.0564 26034.5 -03511.2 -07.6810 26270.2
 17 11 2013  10 21  -21.0562 26034.4 -03511.1 -07.6809 26270.1
 17 11 2013  10 22  -21.0567 26034.5 -03511.2 -07.6809 26270.2
 17 11 2013  10 23  -21.0565 26034.5 -03511.1 -07.6807 26270.2
 17 11 2013  10 24  -21.0560 26034.5 -03511.0 -07.6806 26270.2
 17 11 2013  10 25  -21.0559 26034.6 -03511.0 -07.6805 26270.2
 17 11 2013  10 26  -21.0555 26034.8 -03511.0 -07.6804 26270.4
 17 11 2013  10 27  -21.0551 26034.9 -03510.9 -07.6803 26270.5
 17 11 2013  10 28  -21.0548 26035.0 -03510.9 -07.6801 26270.7
 17 11 2013  10 29  -21.0549 26035.3 -03510.9 -07.6802 26270.9
 17 11 2013  10 30  -21.0552 26035.6 -03511.0 -07.6801 26271.2
 17 11 2013  10 31  -21.0552 26035.8 -03510.9 -07.6800 26271.4
 17 11 2013  10 32  -21.0552 26035.8 -03510.8 -07.6798 26271.4
 17 11 2013  10 33  -21.0552 26035.8 -03510.7 -07.6796 26271.4
 17 11 2013  10 34  -21.0554 26036.0 -03510.7 -07.6794 26271.6
 17 11 2013  10 35  -21.0555 26036.2 -03510.6 -07.6792 26271.8
 17 11 2013  10 36  -21.0550 26036.8 -03510.7 -07.6792 26272.4
 17 11 2013  10 37  -21.0545 26036.8 -03510.5 -07.6787 26272.4
 17 11 2013  10 38  -21.0544 26036.8 -03510.4 -07.6785 26272.4
 17 11 2013  10 39  -21.0540 26037.0 -03510.3 -07.6783 26272.6
 17 11 2013  10 40  -21.0534 26037.2 -03510.2 -07.6781 26272.7
 17 11 2013  10 41  -21.0529 26037.4 -03510.2 -07.6779 26272.9
 17 11 2013  10 42  -21.0527 26038.0 -03510.3 -07.6779 26273.5
 17 11 2013  10 43  -21.0528 26038.5 -03510.4 -07.6780 26274.1
 17 11 2013  10 44  -21.0526 26039.1 -03510.4 -07.6779 26274.7
 17 11 2013  10 45  -21.0529 26039.6 -03510.4 -07.6777 26275.1
 17 11 2013  10 46  -21.0533 26039.8 -03510.3 -07.6775 26275.3
 17 11 2013  10 47  -21.0534 26039.9 -03510.2 -07.6772 26275.4
 17 11 2013  10 48  -21.0536 26040.0 -03510.1 -07.6770 26275.5
 17 11 2013  10 49  -21.0534 26040.2 -03510.1 -07.6768 26275.7
 17 11 2013  10 50  -21.0533 26040.6 -03510.0 -07.6767 26276.1
 17 11 2013  10 51  -21.0534 26040.8 -03510.0 -07.6766 26276.3
 17 11 2013  10 52  -21.0536 26041.2 -03510.0 -07.6763 26276.6
 17 11 2013  10 53  -21.0539 26041.4 -03509.9 -07.6761 26276.9
 17 11 2013  10 54  -21.0539 26041.5 -03509.8 -07.6758 26277.0
 17 11 2013  10 55  -21.0536 26041.6 -03509.7 -07.6755 26277.0
 17 11 2013  10 56  -21.0536 26041.7 -03509.5 -07.6753 26277.1
 17 11 2013  10 57  -21.0537 26041.8 -03509.5 -07.6752 26277.2
 17 11 2013  10 58  -21.0538 26041.8 -03509.4 -07.6749 26277.2
 17 11 2013  10 59  -21.0536 26041.7 -03509.3 -07.6746 26277.1
 17 11 2013  11 00  -21.0536 26041.6 -03509.1 -07.6743 26276.9
 17 11 2013  11 01  -21.0540 26041.6 -03509.1 -07.6743 26277.0
 17 11 2013  11 02  -21.0540 26041.8 -03509.0 -07.6742 26277.2
 17 11 2013  11 03  -21.0547 26042.0 -03509.1 -07.6741 26277.4
 17 11 2013  11 04  -21.0549 26042.2 -03509.0 -07.6740 26277.5
 17 11 2013  11 05  -21.0550 26042.3 -03509.0 -07.6739 26277.7
 17 11 2013  11 06  -21.0551 26042.3 -03508.9 -07.6737 26277.7
 17 11 2013  11 07  -21.0551 26042.3 -03508.8 -07.6734 26277.6
 17 11 2013  11 08  -21.0556 26042.0 -03508.6 -07.6732 26277.3
 17 11 2013  11 09  -21.0561 26042.1 -03508.6 -07.6732 26277.4
 17 11 2013  11 10  -21.0562 26042.1 -03508.6 -07.6730 26277.4
 17 11 2013  11 11  -21.0561 26042.3 -03508.5 -07.6729 26277.6
 17 11 2013  11 12  -21.0565 26042.4 -03508.5 -07.6728 26277.7
 17 11 2013  11 13  -21.0573 26042.6 -03508.5 -07.6727 26277.8
 17 11 2013  11 14  -21.0571 26042.8 -03508.4 -07.6724 26278.0
 17 11 2013  11 15  -21.0572 26042.9 -03508.3 -07.6721 26278.2
 17 11 2013  11 16  -21.0582 26042.9 -03508.2 -07.6720 26278.1
 17 11 2013  11 17  -21.0594 26042.7 -03508.0 -07.6717 26277.9
 17 11 2013  11 18  -21.0602 26042.4 -03507.8 -07.6713 26277.6
 17 11 2013  11 19  -21.0608 26042.2 -03507.6 -07.6710 26277.4
 17 11 2013  11 20  -21.0614 26041.7 -03507.4 -07.6706 26276.9
 17 11 2013  11 21  -21.0613 26041.5 -03507.2 -07.6703 26276.6
 17 11 2013  11 22  -21.0605 26041.5 -03507.2 -07.6703 26276.6
 17 11 2013  11 23  -21.0599 26041.4 -03507.1 -07.6702 26276.5
 17 11 2013  11 24  -21.0602 26041.4 -03507.1 -07.6702 26276.5
 17 11 2013  11 25  -21.0602 26041.5 -03507.1 -07.6701 26276.6
 17 11 2013  11 26  -21.0603 26041.7 -03507.2 -07.6702 26276.8
 17 11 2013  11 27  -21.0602 26042.0 -03507.2 -07.6701 26277.1
 17 11 2013  11 28  -21.0602 26042.5 -03507.3 -07.6701 26277.6
 17 11 2013  11 29  -21.0597 26043.1 -03507.2 -07.6699 26278.2
 17 11 2013  11 30  -21.0591 26043.9 -03507.3 -07.6699 26279.0
 17 11 2013  11 31  -21.0585 26044.6 -03507.4 -07.6697 26279.7
 17 11 2013  11 32  -21.0582 26045.5 -03507.4 -07.6696 26280.6
 17 11 2013  11 33  -21.0580 26046.1 -03507.3 -07.6692 26281.2
 17 11 2013  11 34  -21.0579 26046.6 -03507.2 -07.6689 26281.7
 17 11 2013  11 35  -21.0577 26047.3 -03507.2 -07.6685 26282.4
 17 11 2013  11 36  -21.0573 26047.9 -03507.1 -07.6681 26282.9
 17 11 2013  11 37  -21.0568 26048.2 -03506.9 -07.6676 26283.2
 17 11 2013  11 38  -21.0565 26048.6 -03506.7 -07.6672 26283.6
 17 11 2013  11 39  -21.0566 26049.2 -03506.7 -07.6669 26284.2
 17 11 2013  11 40  -21.0566 26050.0 -03506.7 -07.6667 26285.0
 17 11 2013  11 41  -21.0569 26050.8 -03506.6 -07.6663 26285.7
 17 11 2013  11 42  -21.0569 26051.7 -03506.6 -07.6660 26286.6
 17 11 2013  11 43  -21.0566 26052.0 -03506.3 -07.6652 26286.9
 17 11 2013  11 44  -21.0567 26052.2 -03505.9 -07.6644 26287.1
 17 11 2013  11 45  -21.0567 26052.6 -03505.7 -07.6638 26287.4
 17 11 2013  11 46  -21.0567 26053.3 -03505.5 -07.6633 26288.0
 17 11 2013  11 47  -21.0570 26053.9 -03505.4 -07.6627 26288.7
 17 11 2013  11 48  -21.0578 26054.2 -03505.1 -07.6620 26288.9
 17 11 2013  11 49  -21.0579 26054.5 -03504.8 -07.6612 26289.2
 17 11 2013  11 50  -21.0578 26054.5 -03504.4 -07.6604 26289.1
 17 11 2013  11 51  -21.0573 26054.4 -03504.0 -07.6595 26289.0
 17 11 2013  11 52  -21.0570 26054.4 -03503.7 -07.6589 26288.9
 17 11 2013  11 53  -21.0567 26054.5 -03503.4 -07.6583 26289.0
 17 11 2013  11 54  -21.0564 26054.7 -03503.3 -07.6580 26289.1
 17 11 2013  11 55  -21.0560 26055.0 -03503.2 -07.6576 26289.5
 17 11 2013  11 56  -21.0558 26055.3 -03503.0 -07.6572 26289.8
 17 11 2013  11 57  -21.0559 26055.7 -03502.9 -07.6569 26290.1
 17 11 2013  11 58  -21.0563 26055.9 -03502.7 -07.6565 26290.3
 17 11 2013  11 59  -21.0568 26055.7 -03502.4 -07.6557 26290.0
 17 11 2013  12 00  -21.0570 26055.5 -03502.0 -07.6550 26289.8
 17 11 2013  12 01  -21.0568 26055.5 -03501.8 -07.6545 26289.8
 17 11 2013  12 02  -21.0568 26055.8 -03501.7 -07.6542 26290.0
 17 11 2013  12 03  -21.0565 26056.3 -03501.6 -07.6539 26290.5
 17 11 2013  12 04  -21.0564 26056.7 -03501.5 -07.6535 26290.9
 17 11 2013  12 05  -21.0563 26057.1 -03501.3 -07.6530 26291.3
 17 11 2013  12 06  -21.0569 26057.1 -03501.1 -07.6525 26291.2
 17 11 2013  12 07  -21.0579 26057.4 -03501.0 -07.6522 26291.5
 17 11 2013  12 08  -21.0580 26057.9 -03500.8 -07.6518 26292.0
 17 11 2013  12 09  -21.0582 26058.0 -03500.6 -07.6513 26292.1
 17 11 2013  12 10  -21.0582 26057.9 -03500.2 -07.6505 26291.9
 17 11 2013  12 11  -21.0584 26057.9 -03500.0 -07.6499 26291.9
 17 11 2013  12 12  -21.0583 26057.9 -03499.8 -07.6495 26291.9
 17 11 2013  12 13  -21.0585 26058.0 -03499.6 -07.6490 26291.9
 17 11 2013  12 14  -21.0590 26058.2 -03499.5 -07.6488 26292.1
 17 11 2013  12 15  -21.0594 26058.5 -03499.4 -07.6484 26292.4
 17 11 2013  12 16  -21.0596 26058.6 -03499.2 -07.6479 26292.5
 17 11 2013  12 17  -21.0601 26058.8 -03499.0 -07.6476 26292.6
 17 11 2013  12 18  -21.0603 26059.0 -03498.8 -07.6471 26292.8
 17 11 2013  12 19  -21.0602 26059.1 -03498.7 -07.6467 26292.9
 17 11 2013  12 20  -21.0602 26059.3 -03498.5 -07.6463 26293.1
 17 11 2013  12 21  -21.0601 26059.6 -03498.4 -07.6460 26293.3
 17 11 2013  12 22  -21.0604 26059.9 -03498.3 -07.6457 26293.7
 17 11 2013  12 23  -21.0606 26060.3 -03498.2 -07.6454 26294.1
 17 11 2013  12 24  -21.0609 26060.5 -03498.0 -07.6449 26294.2
 17 11 2013  12 25  -21.0611 26060.7 -03497.8 -07.6445 26294.4
 17 11 2013  12 26  -21.0616 26061.1 -03497.7 -07.6441 26294.7
 17 11 2013  12 27  -21.0624 26061.5 -03497.6 -07.6438 26295.2
 17 11 2013  12 28  -21.0630 26062.2 -03497.6 -07.6435 26295.8
 17 11 2013  12 29  -21.0634 26062.8 -03497.5 -07.6432 26296.4
 17 11 2013  12 30  -21.0633 26063.0 -03497.2 -07.6425 26296.6
 17 11 2013  12 31  -21.0635 26062.7 -03496.8 -07.6416 26296.3
 17 11 2013  12 32  -21.0639 26062.5 -03496.5 -07.6410 26296.0
 17 11 2013  12 33  -21.0644 26062.7 -03496.4 -07.6408 26296.2
 17 11 2013  12 34  -21.0646 26063.0 -03496.3 -07.6406 26296.5
 17 11 2013  12 35  -21.0645 26063.2 -03496.2 -07.6402 26296.6
 17 11 2013  12 36  -21.0640 26063.3 -03496.0 -07.6397 26296.8
 17 11 2013  12 37  -21.0637 26063.5 -03495.9 -07.6395 26296.9
 17 11 2013  12 38  -21.0636 26063.8 -03495.8 -07.6392 26297.2
 17 11 2013  12 39  -21.0636 26064.3 -03495.8 -07.6391 26297.7
 17 11 2013  12 40  -21.0638 26065.0 -03495.9 -07.6390 26298.4
 17 11 2013  12 41  -21.0645 26065.5 -03495.8 -07.6387 26298.9
 17 11 2013  12 42  -21.0653 26065.9 -03495.7 -07.6383 26299.2
 17 11 2013  12 43  -21.0659 26065.8 -03495.3 -07.6376 26299.1
 17 11 2013  12 44  -21.0661 26065.9 -03495.0 -07.6368 26299.1
 17 11 2013  12 45  -21.0661 26065.9 -03494.7 -07.6362 26299.1
 17 11 2013  12 46  -21.0662 26065.9 -03494.5 -07.6356 26299.1
 17 11 2013  12 47  -21.0661 26066.1 -03494.2 -07.6351 26299.2
 17 11 2013  12 48  -21.0661 26066.3 -03494.0 -07.6346 26299.4
 17 11 2013  12 49  -21.0662 26066.5 -03493.8 -07.6341 26299.6
 17 11 2013  12 50  -21.0664 26066.8 -03493.6 -07.6336 26299.8
 17 11 2013  12 51  -21.0667 26067.3 -03493.6 -07.6333 26300.4
 17 11 2013  12 52  -21.0673 26067.9 -03493.5 -07.6331 26300.9
 17 11 2013  12 53  -21.0678 26068.3 -03493.4 -07.6326 26301.4
 17 11 2013  12 54  -21.0680 26068.8 -03493.2 -07.6321 26301.8
 17 11 2013  12 55  -21.0681 26069.3 -03493.0 -07.6315 26302.3
 17 11 2013  12 56  -21.0679 26069.7 -03492.7 -07.6308 26302.6
 17 11 2013  12 57  -21.0680 26070.2 -03492.5 -07.6303 26303.1
 17 11 2013  12 58  -21.0682 26070.5 -03492.3 -07.6297 26303.3
 17 11 2013  12 59  -21.0686 26070.6 -03492.0 -07.6290 26303.4
 17 11 2013  13 00  -21.0687 26070.7 -03491.7 -07.6283 26303.5
 17 11 2013  13 01  -21.0684 26070.8 -03491.4 -07.6276 26303.5
 17 11 2013  13 02  -21.0681 26070.8 -03491.1 -07.6269 26303.5
 17 11 2013  13 03  -21.0679 26071.4 -03490.9 -07.6265 26304.1
 17 11 2013  13 04  -21.0684 26072.3 -03490.9 -07.6262 26304.9
 17 11 2013  13 05  -21.0690 26073.0 -03490.8 -07.6258 26305.6
 17 11 2013  13 06  -21.0696 26073.2 -03490.5 -07.6250 26305.8
 17 11 2013  13 07  -21.0699 26072.9 -03489.9 -07.6237 26305.4
 17 11 2013  13 08  -21.0700 26072.8 -03489.4 -07.6227 26305.3
 17 11 2013  13 09  -21.0700 26072.7 -03489.0 -07.6220 26305.2
 17 11 2013  13 10  -21.0699 26072.7 -03488.6 -07.6211 26305.1
 17 11 2013  13 11  -21.0698 26072.6 -03488.2 -07.6203 26304.9
 17 11 2013  13 12  -21.0698 26072.6 -03487.9 -07.6196 26304.9
 17 11 2013  13 13  -21.0698 26072.2 -03487.4 -07.6187 26304.4
 17 11 2013  13 14  -21.0699 26071.9 -03487.1 -07.6180 26304.1
 17 11 2013  13 15  -21.0696 26071.7 -03486.7 -07.6173 26303.9
 17 11 2013  13 16  -21.0689 26071.5 -03486.3 -07.6165 26303.5
 17 11 2013  13 17  -21.0684 26071.4 -03486.0 -07.6159 26303.4
 17 11 2013  13 18  -21.0679 26071.1 -03485.8 -07.6154 26303.1
 17 11 2013  13 19  -21.0675 26071.2 -03485.7 -07.6151 26303.2
 17 11 2013  13 20  -21.0673 26071.4 -03485.5 -07.6148 26303.4
 17 11 2013  13 21  -21.0671 26071.5 -03485.3 -07.6143 26303.4
 17 11 2013  13 22  -21.0668 26071.5 -03485.1 -07.6137 26303.4
 17 11 2013  13 23  -21.0665 26071.7 -03484.9 -07.6133 26303.5
 17 11 2013  13 24  -21.0664 26071.8 -03484.7 -07.6129 26303.7
 17 11 2013  13 25  -21.0662 26072.1 -03484.6 -07.6126 26303.9
 17 11 2013  13 26  -21.0660 26072.7 -03484.6 -07.6124 26304.5
 17 11 2013  13 27  -21.0658 26072.8 -03484.4 -07.6119 26304.6
 17 11 2013  13 28  -21.0657 26073.5 -03484.4 -07.6117 26305.3
 17 11 2013  13 29  -21.0655 26073.7 -03484.2 -07.6112 26305.5
 17 11 2013  13 30  -21.0654 26074.3 -03484.0 -07.6107 26306.0
 17 11 2013  13 31  -21.0658 26074.7 -03483.9 -07.6103 26306.4
 17 11 2013  13 32  -21.0658 26075.1 -03483.6 -07.6097 26306.8
 17 11 2013  13 33  -21.0654 26075.2 -03483.3 -07.6088 26306.8
 17 11 2013  13 34  -21.0653 26075.3 -03482.9 -07.6081 26306.9
 17 11 2013  13 35  -21.0654 26075.9 -03482.8 -07.6075 26307.4
 17 11 2013  13 36  -21.0655 26076.9 -03482.7 -07.6071 26308.4
 17 11 2013  13 37  -21.0663 26077.0 -03482.3 -07.6061 26308.5
 17 11 2013  13 38  -21.0668 26076.5 -03481.6 -07.6047 26307.9
 17 11 2013  13 39  -21.0666 26075.9 -03480.9 -07.6034 26307.2
 17 11 2013  13 40  -21.0664 26075.3 -03480.3 -07.6023 26306.5
 17 11 2013  13 41  -21.0660 26075.5 -03480.2 -07.6021 26306.8
 17 11 2013  13 42  -21.0653 26075.5 -03480.0 -07.6016 26306.6
 17 11 2013  13 43  -21.0652 26076.4 -03480.2 -07.6018 26307.6
 17 11 2013  13 44  -21.0655 26077.4 -03480.4 -07.6020 26308.6
 17 11 2013  13 45  -21.0660 26078.2 -03480.4 -07.6018 26309.4
 17 11 2013  13 46  -21.0664 26078.6 -03480.3 -07.6014 26309.9
 17 11 2013  13 47  -21.0666 26078.8 -03480.0 -07.6007 26309.9
 17 11 2013  13 48  -21.0664 26078.7 -03479.6 -07.5999 26309.8
 17 11 2013  13 49  -21.0660 26078.2 -03479.1 -07.5989 26309.2
 17 11 2013  13 50  -21.0656 26077.8 -03478.6 -07.5980 26308.8
 17 11 2013  13 51  -21.0652 26077.4 -03478.2 -07.5972 26308.4
 17 11 2013  13 52  -21.0645 26077.1 -03477.9 -07.5966 26308.0
 17 11 2013  13 53  -21.0640 26077.0 -03477.6 -07.5962 26307.9
 17 11 2013  13 54  -21.0635 26076.7 -03477.3 -07.5956 26307.5
 17 11 2013  13 55  -21.0631 26076.5 -03477.1 -07.5951 26307.3
 17 11 2013  13 56  -21.0627 26076.4 -03476.9 -07.5948 26307.2
 17 11 2013  13 57  -21.0623 26076.4 -03476.8 -07.5944 26307.1
 17 11 2013  13 58  -21.0619 26076.5 -03476.6 -07.5941 26307.3
 17 11 2013  13 59  -21.0615 26076.5 -03476.4 -07.5937 26307.2
 17 11 2013  14 00  -21.0611 26076.5 -03476.2 -07.5932 26307.2
 17 11 2013  14 01  -21.0606 26076.4 -03475.9 -07.5926 26307.1
 17 11 2013  14 02  -21.0601 26076.3 -03475.7 -07.5921 26306.9
 17 11 2013  14 03  -21.0595 26076.1 -03475.3 -07.5914 26306.6
 17 11 2013  14 04  -21.0590 26075.8 -03475.0 -07.5908 26306.4
 17 11 2013  14 05  -21.0585 26075.7 -03474.8 -07.5903 26306.2
 17 11 2013  14 06  -21.0577 26075.5 -03474.5 -07.5897 26306.0
 17 11 2013  14 07  -21.0572 26075.6 -03474.3 -07.5893 26306.0
 17 11 2013  14 08  -21.0566 26075.6 -03474.1 -07.5888 26306.0
 17 11 2013  14 09  -21.0562 26075.9 -03473.9 -07.5885 26306.2
 17 11 2013  14 10  -21.0557 26076.2 -03473.8 -07.5882 26306.6
 17 11 2013  14 11  -21.0547 26075.9 -03473.4 -07.5873 26306.2
 17 11 2013  14 12  -21.0536 26075.8 -03473.0 -07.5866 26306.0
 17 11 2013  14 13  -21.0526 26075.4 -03472.7 -07.5859 26305.6
 17 11 2013  14 14  -21.0517 26075.4 -03472.5 -07.5854 26305.6
 17 11 2013  14 15  -21.0515 26075.9 -03472.5 -07.5854 26306.1
 17 11 2013  14 16  -21.0507 26075.7 -03472.0 -07.5844 26305.8
 17 11 2013  14 17  -21.0502 26076.0 -03471.9 -07.5841 26306.1
 17 11 2013  14 18  -21.0494 26075.8 -03471.6 -07.5834 26305.9
 17 11 2013  14 19  -21.0485 26076.4 -03471.6 -07.5832 26306.5
 17 11 2013  14 20  -21.0478 26077.1 -03471.5 -07.5828 26307.2
 17 11 2013  14 21  -21.0473 26078.1 -03471.4 -07.5825 26308.1
 17 11 2013  14 22  -21.0465 26078.2 -03471.0 -07.5816 26308.1
 17 11 2013  14 23  -21.0448 26077.2 -03470.2 -07.5800 26307.1
 17 11 2013  14 24  -21.0432 26076.5 -03469.6 -07.5789 26306.4
 17 11 2013  14 25  -21.0419 26075.6 -03469.0 -07.5780 26305.3
 17 11 2013  14 26  -21.0408 26074.5 -03468.5 -07.5772 26304.2
 17 11 2013  14 27  -21.0390 26073.1 -03467.9 -07.5762 26302.7
 17 11 2013  14 28  -21.0373 26073.1 -03468.0 -07.5765 26302.7
 17 11 2013  14 29  -21.0362 26074.4 -03468.7 -07.5775 26304.1
 17 11 2013  14 30  -21.0351 26076.2 -03469.3 -07.5785 26306.0
 17 11 2013  14 31  -21.0340 26077.4 -03469.5 -07.5784 26307.2
 17 11 2013  14 32  -21.0340 26077.3 -03469.1 -07.5776 26307.1
 17 11 2013  14 33  -21.0336 26076.9 -03468.6 -07.5766 26306.5
 17 11 2013  14 34  -21.0334 26077.1 -03468.5 -07.5763 26306.8
 17 11 2013  14 35  -21.0327 26077.6 -03468.5 -07.5762 26307.2
 17 11 2013  14 36  -21.0317 26079.0 -03468.8 -07.5764 26308.7
 17 11 2013  14 37  -21.0315 26080.5 -03469.0 -07.5765 26310.2
 17 11 2013  14 38  -21.0297 26080.0 -03468.2 -07.5749 26309.6
 17 11 2013  14 39  -21.0278 26078.9 -03467.4 -07.5734 26308.4
 17 11 2013  14 40  -21.0257 26077.4 -03466.6 -07.5722 26306.8
 17 11 2013  14 41  -21.0238 26076.5 -03466.3 -07.5718 26305.8
 17 11 2013  14 42  -21.0227 26076.0 -03466.2 -07.5718 26305.3
 17 11 2013  14 43  -21.0213 26075.0 -03466.0 -07.5716 26304.4
 17 11 2013  14 44  -21.0201 26074.5 -03466.0 -07.5716 26303.8
 17 11 2013  14 45  -21.0193 26074.4 -03466.1 -07.5720 26303.8
 17 11 2013  14 46  -21.0185 26074.6 -03466.4 -07.5726 26304.0
 17 11 2013  14 47  -21.0173 26074.4 -03466.5 -07.5728 26303.8
 17 11 2013  14 48  -21.0158 26074.1 -03466.5 -07.5728 26303.5
 17 11 2013  14 49  -21.0144 26074.1 -03466.5 -07.5730 26303.5
 17 11 2013  14 50  -21.0134 26073.8 -03466.5 -07.5730 26303.3
 17 11 2013  14 51  -21.0127 26072.5 -03466.0 -07.5723 26301.8
 17 11 2013  14 52  -21.0119 26071.9 -03465.9 -07.5724 26301.2
 17 11 2013  14 53  -21.0110 26071.3 -03465.9 -07.5725 26300.7
 17 11 2013  14 54  -21.0104 26071.2 -03466.1 -07.5728 26300.6
 17 11 2013  14 55  -21.0100 26070.7 -03466.0 -07.5728 26300.1
 17 11 2013  14 56  -21.0094 26070.6 -03466.0 -07.5729 26300.0
 17 11 2013  14 57  -21.0085 26069.8 -03465.8 -07.5726 26299.2
 17 11 2013  14 58  -21.0076 26069.3 -03465.7 -07.5725 26298.7
 17 11 2013  14 59  -21.0072 26069.5 -03465.9 -07.5730 26298.9
 17 11 2013  15 00  -21.0067 26069.5 -03466.0 -07.5731 26298.9
 17 11 2013  15 01  -21.0062 26069.8 -03466.2 -07.5736 26299.3
 17 11 2013  15 02  -21.0048 26069.8 -03466.2 -07.5734 26299.2
 17 11 2013  15 03  -21.0044 26070.0 -03466.3 -07.5737 26299.4
 17 11 2013  15 04  -21.0036 26070.1 -03466.3 -07.5737 26299.5
 17 11 2013  15 05  -21.0025 26069.5 -03466.0 -07.5733 26298.9
 17 11 2013  15 06  -21.0016 26069.1 -03465.9 -07.5730 26298.5
 17 11 2013  15 07  -21.0009 26069.4 -03466.1 -07.5735 26298.9
 17 11 2013  15 08  -21.0003 26069.6 -03466.2 -07.5736 26299.0
 17 11 2013  15 09  -20.9993 26069.1 -03466.0 -07.5732 26298.5
 17 11 2013  15 10  -20.9986 26069.3 -03466.1 -07.5734 26298.7
 17 11 2013  15 11  -20.9979 26068.5 -03465.7 -07.5728 26297.8
 17 11 2013  15 12  -20.9972 26069.1 -03466.1 -07.5734 26298.5
 17 11 2013  15 13  -20.9966 26068.5 -03465.8 -07.5730 26297.9
 17 11 2013  15 14  -20.9964 26069.3 -03466.1 -07.5735 26298.8
 17 11 2013  15 15  -20.9960 26068.9 -03465.9 -07.5731 26298.3
 17 11 2013  15 16  -20.9953 26068.6 -03465.7 -07.5729 26297.9
 17 11 2013  15 17  -20.9949 26069.3 -03466.1 -07.5735 26298.7
 17 11 2013  15 18  -20.9935 26068.7 -03465.8 -07.5730 26298.0
 17 11 2013  15 19  -20.9926 26068.2 -03465.7 -07.5728 26297.6
 17 11 2013  15 20  -20.9921 26068.4 -03465.9 -07.5733 26297.8
 17 11 2013  15 21  -20.9909 26067.9 -03465.8 -07.5731 26297.3
 17 11 2013  15 22  -20.9907 26068.6 -03466.1 -07.5737 26298.0
 17 11 2013  15 23  -20.9903 26068.1 -03465.9 -07.5734 26297.5
 17 11 2013  15 24  -20.9889 26067.8 -03465.8 -07.5732 26297.2
 17 11 2013  15 25  -20.9882 26068.4 -03466.2 -07.5739 26297.9
 17 11 2013  15 26  -20.9880 26068.9 -03466.4 -07.5743 26298.3
 17 11 2013  15 27  -20.9873 26069.1 -03466.5 -07.5745 26298.6
 17 11 2013  15 28  -20.9874 26069.5 -03466.7 -07.5748 26298.9
 17 11 2013  15 29  -20.9866 26069.2 -03466.6 -07.5745 26298.7
 17 11 2013  15 30  -20.9855 26068.9 -03466.5 -07.5744 26298.3
 17 11 2013  15 31  -20.9850 26068.2 -03466.3 -07.5742 26297.7
 17 11 2013  15 32  -20.9847 26068.6 -03466.7 -07.5750 26298.1
 17 11 2013  15 33  -20.9836 26068.5 -03466.9 -07.5754 26298.1
 17 11 2013  15 34  -20.9831 26068.4 -03467.0 -07.5757 26298.0
 17 11 2013  15 35  -20.9829 26068.8 -03467.4 -07.5764 26298.3
 17 11 2013  15 36  -20.9829 26069.1 -03467.7 -07.5769 26298.8
 17 11 2013  15 37  -20.9819 26068.9 -03467.6 -07.5767 26298.5
 17 11 2013  15 38  -20.9810 26068.9 -03467.7 -07.5769 26298.5
 17 11 2013  15 39  -20.9812 26069.2 -03468.0 -07.5775 26298.8
 17 11 2013  15 40  -20.9815 26069.0 -03468.0 -07.5777 26298.7
 17 11 2013  15 41  -20.9822 26069.7 -03468.4 -07.5784 26299.4
 17 11 2013  15 42  -20.9833 26070.2 -03468.7 -07.5787 26299.9
 17 11 2013  15 43  -20.9840 26070.0 -03468.5 -07.5785 26299.8
 17 11 2013  15 44  -20.9845 26069.5 -03468.4 -07.5783 26299.2
 17 11 2013  15 45  -20.9837 26068.6 -03468.1 -07.5779 26298.3
 17 11 2013  15 46  -20.9829 26068.1 -03468.2 -07.5782 26297.8
 17 11 2013  15 47  -20.9820 26067.3 -03468.1 -07.5783 26297.0
 17 11 2013  15 48  -20.9811 26066.7 -03468.1 -07.5786 26296.4
 17 11 2013  15 49  -20.9803 26066.3 -03468.4 -07.5792 26296.1
 17 11 2013  15 50  -20.9800 26066.5 -03468.8 -07.5802 26296.3
 17 11 2013  15 51  -20.9797 26066.7 -03469.2 -07.5809 26296.5
 17 11 2013  15 52  -20.9797 26067.0 -03469.6 -07.5817 26296.9
 17 11 2013  15 53  -20.9795 26067.2 -03469.9 -07.5823 26297.2
 17 11 2013  15 54  -20.9794 26067.2 -03470.1 -07.5826 26297.2
 17 11 2013  15 55  -20.9796 26067.5 -03470.3 -07.5830 26297.5
 17 11 2013  15 56  -20.9799 26067.8 -03470.6 -07.5836 26297.8
 17 11 2013  15 57  -20.9795 26067.4 -03470.5 -07.5835 26297.4
 17 11 2013  15 58  -20.9792 26067.6 -03470.7 -07.5839 26297.6
 17 11 2013  15 59  -20.9790 26067.5 -03470.7 -07.5840 26297.5
 17 11 2013  16 00  -20.9789 26067.6 -03470.8 -07.5842 26297.6
 17 11 2013  16 01  -20.9799 26067.8 -03471.1 -07.5846 26297.9
 17 11 2013  16 02  -20.9806 26067.9 -03471.2 -07.5849 26298.0
 17 11 2013  16 03  -20.9814 26068.1 -03471.4 -07.5852 26298.2
 17 11 2013  16 04  -20.9821 26068.0 -03471.4 -07.5852 26298.1
 17 11 2013  16 05  -20.9818 26067.6 -03471.2 -07.5850 26297.7
 17 11 2013  16 06  -20.9811 26067.0 -03471.0 -07.5848 26297.1
 17 11 2013  16 07  -20.9801 26066.6 -03471.0 -07.5848 26296.6
 17 11 2013  16 08  -20.9797 26066.0 -03471.0 -07.5850 26296.1
 17 11 2013  16 09  -20.9802 26066.2 -03471.4 -07.5857 26296.4
 17 11 2013  16 10  -20.9809 26066.6 -03471.6 -07.5862 26296.7
 17 11 2013  16 11  -20.9811 26066.5 -03471.7 -07.5863 26296.6
 17 11 2013  16 12  -20.9815 26066.8 -03471.9 -07.5867 26297.0
 17 11 2013  16 13  -20.9819 26066.9 -03472.1 -07.5871 26297.1
 17 11 2013  16 14  -20.9813 26066.5 -03472.0 -07.5870 26296.7
 17 11 2013  16 15  -20.9797 26065.8 -03471.8 -07.5868 26296.0
 17 11 2013  16 16  -20.9785 26065.2 -03471.8 -07.5869 26295.4
 17 11 2013  16 17  -20.9795 26065.7 -03472.3 -07.5880 26295.9
 17 11 2013  16 18  -20.9810 26066.2 -03472.8 -07.5888 26296.6
 17 11 2013  16 19  -20.9819 26066.5 -03473.0 -07.5891 26296.9
 17 11 2013  16 20  -20.9823 26066.4 -03472.9 -07.5890 26296.7
 17 11 2013  16 21  -20.9818 26065.6 -03472.6 -07.5885 26295.9
 17 11 2013  16 22  -20.9815 26065.0 -03472.5 -07.5885 26295.3
 17 11 2013  16 23  -20.9813 26064.6 -03472.5 -07.5887 26294.9
 17 11 2013  16 24  -20.9815 26064.4 -03472.7 -07.5890 26294.7
 17 11 2013  16 25  -20.9817 26064.2 -03472.8 -07.5893 26294.5
 17 11 2013  16 26  -20.9818 26064.0 -03472.9 -07.5896 26294.4
 17 11 2013  16 27  -20.9820 26063.9 -03473.0 -07.5899 26294.2
 17 11 2013  16 28  -20.9822 26063.8 -03473.1 -07.5901 26294.1
 17 11 2013  16 29  -20.9825 26063.7 -03473.2 -07.5904 26294.1
 17 11 2013  16 30  -20.9828 26063.5 -03473.2 -07.5905 26293.9
 17 11 2013  16 31  -20.9833 26063.4 -03473.4 -07.5908 26293.8
 17 11 2013  16 32  -20.9834 26063.3 -03473.4 -07.5910 26293.7
 17 11 2013  16 33  -20.9836 26063.1 -03473.5 -07.5913 26293.6
 17 11 2013  16 34  -20.9837 26063.1 -03473.6 -07.5915 26293.6
 17 11 2013  16 35  -20.9841 26063.2 -03473.8 -07.5919 26293.6
 17 11 2013  16 36  -20.9847 26063.1 -03473.9 -07.5921 26293.6
 17 11 2013  16 37  -20.9852 26063.1 -03474.0 -07.5923 26293.6
 17 11 2013  16 38  -20.9856 26063.0 -03474.0 -07.5924 26293.6
 17 11 2013  16 39  -20.9859 26062.8 -03474.0 -07.5924 26293.4
 17 11 2013  16 40  -20.9863 26062.7 -03474.0 -07.5924 26293.2
 17 11 2013  16 41  -20.9864 26062.3 -03473.9 -07.5924 26292.8
 17 11 2013  16 42  -20.9865 26062.2 -03474.0 -07.5925 26292.7
 17 11 2013  16 43  -20.9868 26062.0 -03474.0 -07.5926 26292.5
 17 11 2013  16 44  -20.9871 26061.8 -03474.1 -07.5928 26292.3
 17 11 2013  16 45  -20.9874 26061.7 -03474.1 -07.5930 26292.2
 17 11 2013  16 46  -20.9877 26061.6 -03474.2 -07.5932 26292.1
 17 11 2013  16 47  -20.9879 26061.4 -03474.3 -07.5934 26292.0
 17 11 2013  16 48  -20.9881 26061.3 -03474.4 -07.5936 26291.9
 17 11 2013  16 49  -20.9882 26061.1 -03474.4 -07.5937 26291.7
 17 11 2013  16 50  -20.9884 26061.2 -03474.5 -07.5940 26291.8
 17 11 2013  16 51  -20.9886 26060.8 -03474.5 -07.5941 26291.4
 17 11 2013  16 52  -20.9890 26060.8 -03474.7 -07.5944 26291.4
 17 11 2013  16 53  -20.9892 26060.8 -03474.8 -07.5947 26291.4
 17 11 2013  16 54  -20.9893 26060.5 -03474.8 -07.5949 26291.1
 17 11 2013  16 55  -20.9894 26060.3 -03474.9 -07.5951 26290.9
 17 11 2013  16 56  -20.9896 26060.3 -03475.1 -07.5956 26291.0
 17 11 2013  16 57  -20.9898 26060.2 -03475.3 -07.5960 26290.9
 17 11 2013  16 58  -20.9902 26060.1 -03475.5 -07.5964 26290.8
 17 11 2013  16 59  -20.9906 26060.0 -03475.6 -07.5968 26290.7
 17 11 2013  17 00  -20.9906 26059.7 -03475.7 -07.5970 26290.5
 17 11 2013  17 01  -20.9909 26059.5 -03475.9 -07.5974 26290.3
 17 11 2013  17 02  -20.9912 26059.1 -03476.0 -07.5977 26289.9
 17 11 2013  17 03  -20.9913 26058.9 -03476.2 -07.5982 26289.7
 17 11 2013  17 04  -20.9914 26058.8 -03476.4 -07.5988 26289.7
 17 11 2013  17 05  -20.9916 26058.9 -03476.7 -07.5994 26289.8
 17 11 2013  17 06  -20.9921 26058.8 -03477.0 -07.5999 26289.8
 17 11 2013  17 07  -20.9926 26058.8 -03477.1 -07.6003 26289.8
 17 11 2013  17 08  -20.9931 26058.6 -03477.3 -07.6007 26289.6
 17 11 2013  17 09  -20.9935 26058.5 -03477.4 -07.6010 26289.5
 17 11 2013  17 10  -20.9938 26058.4 -03477.6 -07.6014 26289.4
 17 11 2013  17 11  -20.9943 26058.2 -03477.8 -07.6019 26289.2
 17 11 2013  17 12  -20.9947 26058.0 -03478.0 -07.6024 26289.0
 17 11 2013  17 13  -20.9951 26057.8 -03478.1 -07.6027 26288.9
 17 11 2013  17 14  -20.9957 26057.6 -03478.3 -07.6032 26288.7
 17 11 2013  17 15  -20.9960 26057.2 -03478.5 -07.6037 26288.4
 17 11 2013  17 16  -20.9964 26057.0 -03478.7 -07.6042 26288.2
 17 11 2013  17 17  -20.9968 26056.7 -03478.8 -07.6046 26287.9
 17 11 2013  17 18  -20.9973 26056.4 -03479.0 -07.6049 26287.6
 17 11 2013  17 19  -20.9978 26056.2 -03479.2 -07.6054 26287.5
 17 11 2013  17 20  -20.9984 26056.1 -03479.4 -07.6060 26287.4
 17 11 2013  17 21  -20.9988 26055.8 -03479.6 -07.6064 26287.2
 17 11 2013  17 22  -20.9992 26055.7 -03479.7 -07.6069 26287.0
 17 11 2013  17 23  -20.9997 26055.5 -03479.9 -07.6073 26286.8
 17 11 2013  17 24  -21.0003 26055.4 -03480.2 -07.6078 26286.8
 17 11 2013  17 25  -21.0010 26055.4 -03480.4 -07.6083 26286.8
 17 11 2013  17 26  -21.0014 26055.4 -03480.5 -07.6086 26286.8
 17 11 2013  17 27  -21.0019 26055.3 -03480.7 -07.6090 26286.7
 17 11 2013  17 28  -21.0023 26055.1 -03480.9 -07.6094 26286.6
 17 11 2013  17 29  -21.0029 26055.0 -03481.1 -07.6099 26286.5
 17 11 2013  17 30  -21.0032 26054.9 -03481.2 -07.6103 26286.5
 17 11 2013  17 31  -21.0038 26054.9 -03481.4 -07.6107 26286.4
 17 11 2013  17 32  -21.0043 26054.8 -03481.5 -07.6108 26286.3
 17 11 2013  17 33  -21.0053 26054.6 -03481.6 -07.6111 26286.2
 17 11 2013  17 34  -21.0063 26054.5 -03481.8 -07.6115 26286.1
 17 11 2013  17 35  -21.0071 26054.3 -03481.9 -07.6119 26286.0
 17 11 2013  17 36  -21.0078 26054.2 -03482.0 -07.6122 26285.8
 17 11 2013  17 37  -21.0086 26054.2 -03482.3 -07.6127 26285.9
 17 11 2013  17 38  -21.0091 26053.8 -03482.3 -07.6128 26285.5
 17 11 2013  17 39  -21.0098 26053.6 -03482.4 -07.6132 26285.3
 17 11 2013  17 40  -21.0109 26053.4 -03482.6 -07.6137 26285.2
 17 11 2013  17 41  -21.0122 26053.5 -03482.9 -07.6143 26285.2
 17 11 2013  17 42  -21.0125 26053.2 -03482.9 -07.6145 26285.0
 17 11 2013  17 43  -21.0126 26052.9 -03483.0 -07.6147 26284.7
 17 11 2013  17 44  -21.0128 26052.5 -03483.1 -07.6151 26284.3
 17 11 2013  17 45  -21.0131 26052.2 -03483.3 -07.6155 26284.0
 17 11 2013  17 46  -21.0135 26051.8 -03483.4 -07.6158 26283.7
 17 11 2013  17 47  -21.0143 26051.5 -03483.6 -07.6163 26283.4
 17 11 2013  17 48  -21.0150 26051.3 -03483.7 -07.6168 26283.2
 17 11 2013  17 49  -21.0156 26051.1 -03483.9 -07.6173 26283.0
 17 11 2013  17 50  -21.0162 26050.9 -03484.1 -07.6177 26282.8
 17 11 2013  17 51  -21.0168 26050.7 -03484.3 -07.6181 26282.7
 17 11 2013  17 52  -21.0174 26050.5 -03484.5 -07.6185 26282.5
 17 11 2013  17 53  -21.0181 26050.4 -03484.7 -07.6190 26282.4
 17 11 2013  17 54  -21.0189 26050.2 -03484.8 -07.6194 26282.3
 17 11 2013  17 55  -21.0195 26049.9 -03484.9 -07.6196 26281.9
 17 11 2013  17 56  -21.0200 26049.6 -03485.0 -07.6200 26281.7
 17 11 2013  17 57  -21.0203 26049.1 -03485.0 -07.6202 26281.2
 17 11 2013  17 58  -21.0209 26048.9 -03485.2 -07.6206 26281.0
 17 11 2013  17 59  -21.0215 26048.6 -03485.3 -07.6209 26280.8
 17 11 2013  18 00  -21.0218 26048.3 -03485.4 -07.6211 26280.5
 17 11 2013  18 01  -21.0224 26048.1 -03485.5 -07.6215 26280.3
 17 11 2013  18 02  -21.0228 26047.7 -03485.6 -07.6218 26279.9
 17 11 2013  18 03  -21.0232 26047.5 -03485.7 -07.6222 26279.7
 17 11 2013  18 04  -21.0237 26047.2 -03485.9 -07.6225 26279.4
 17 11 2013  18 05  -21.0244 26047.1 -03486.0 -07.6229 26279.4
 17 11 2013  18 06  -21.0250 26046.9 -03486.2 -07.6233 26279.2
 17 11 2013  18 07  -21.0253 26046.6 -03486.4 -07.6237 26278.9
 17 11 2013  18 08  -21.0259 26046.4 -03486.5 -07.6240 26278.8
 17 11 2013  18 09  -21.0264 26046.2 -03486.6 -07.6245 26278.6
 17 11 2013  18 10  -21.0270 26046.0 -03486.8 -07.6248 26278.3
 17 11 2013  18 11  -21.0275 26045.7 -03486.9 -07.6252 26278.0
 17 11 2013  18 12  -21.0281 26045.4 -03487.1 -07.6257 26277.8
 17 11 2013  18 13  -21.0290 26045.3 -03487.3 -07.6262 26277.8
 17 11 2013  18 14  -21.0295 26045.0 -03487.5 -07.6266 26277.4
 17 11 2013  18 15  -21.0303 26044.7 -03487.6 -07.6270 26277.2
 17 11 2013  18 16  -21.0309 26044.4 -03487.7 -07.6273 26276.9
 17 11 2013  18 17  -21.0313 26044.1 -03487.8 -07.6277 26276.6
 17 11 2013  18 18  -21.0319 26043.9 -03488.0 -07.6282 26276.4
 17 11 2013  18 19  -21.0324 26043.7 -03488.3 -07.6287 26276.3
 17 11 2013  18 20  -21.0328 26043.6 -03488.5 -07.6293 26276.2
 17 11 2013  18 21  -21.0334 26043.5 -03488.7 -07.6298 26276.2
 17 11 2013  18 22  -21.0339 26043.6 -03489.1 -07.6305 26276.2
 17 11 2013  18 23  -21.0347 26043.6 -03489.4 -07.6311 26276.3
 17 11 2013  18 24  -21.0353 26043.5 -03489.5 -07.6314 26276.2
 17 11 2013  18 25  -21.0358 26043.6 -03489.8 -07.6320 26276.4
 17 11 2013  18 26  -21.0363 26043.3 -03489.9 -07.6323 26276.1
 17 11 2013  18 27  -21.0366 26043.0 -03490.0 -07.6326 26275.8
 17 11 2013  18 28  -21.0369 26042.5 -03490.0 -07.6327 26275.3
 17 11 2013  18 29  -21.0375 26042.3 -03490.1 -07.6331 26275.1
 17 11 2013  18 30  -21.0381 26041.9 -03490.1 -07.6333 26274.7
 17 11 2013  18 31  -21.0385 26041.7 -03490.3 -07.6337 26274.5
 17 11 2013  18 32  -21.0390 26041.1 -03490.2 -07.6337 26273.9
 17 11 2013  18 33  -21.0394 26041.0 -03490.4 -07.6340 26273.9
 17 11 2013  18 34  -21.0396 26040.6 -03490.4 -07.6343 26273.5
 17 11 2013  18 35  -21.0393 26040.3 -03490.5 -07.6345 26273.2
 17 11 2013  18 36  -21.0393 26040.0 -03490.6 -07.6349 26273.0
 17 11 2013  18 37  -21.0393 26039.8 -03490.8 -07.6353 26272.8
 17 11 2013  18 38  -21.0394 26039.9 -03491.0 -07.6357 26272.9
 17 11 2013  18 39  -21.0397 26039.5 -03491.0 -07.6359 26272.5
 17 11 2013  18 40  -21.0399 26039.3 -03491.1 -07.6361 26272.3
 17 11 2013  18 41  -21.0402 26039.0 -03491.1 -07.6363 26271.9
 17 11 2013  18 42  -21.0402 26038.9 -03491.3 -07.6367 26271.9
 17 11 2013  18 43  -21.0405 26038.9 -03491.6 -07.6373 26271.9
 17 11 2013  18 44  -21.0408 26039.1 -03491.9 -07.6378 26272.2
 17 11 2013  18 45  -21.0413 26038.9 -03492.0 -07.6381 26272.0
 17 11 2013  18 46  -21.0413 26038.9 -03492.2 -07.6386 26272.0
 17 11 2013  18 47  -21.0414 26038.8 -03492.3 -07.6389 26271.9
 17 11 2013  18 48  -21.0416 26038.5 -03492.4 -07.6393 26271.7
 17 11 2013  18 49  -21.0418 26038.2 -03492.6 -07.6396 26271.4
 17 11 2013  18 50  -21.0420 26038.1 -03492.8 -07.6401 26271.3
 17 11 2013  18 51  -21.0422 26038.2 -03493.0 -07.6406 26271.4
 17 11 2013  18 52  -21.0427 26037.9 -03493.2 -07.6411 26271.2
 17 11 2013  18 53  -21.0427 26038.0 -03493.6 -07.6418 26271.4
 17 11 2013  18 54  -21.0431 26037.9 -03493.8 -07.6424 26271.3
 17 11 2013  18 55  -21.0432 26037.9 -03494.0 -07.6428 26271.3
 17 11 2013  18 56  -21.0438 26037.8 -03494.3 -07.6434 26271.2
 17 11 2013  18 57  -21.0435 26037.7 -03494.4 -07.6438 26271.1
 17 11 2013  18 58  -21.0440 26037.8 -03494.8 -07.6446 26271.3
 17 11 2013  18 59  -21.0440 26038.0 -03495.2 -07.6453 26271.5
 17 11 2013  19 00  -21.0442 26038.1 -03495.5 -07.6459 26271.7
 17 11 2013  19 01  -21.0445 26038.1 -03495.7 -07.6464 26271.7
 17 11 2013  19 02  -21.0446 26038.3 -03496.0 -07.6469 26271.9
 17 11 2013  19 03  -21.0448 26038.5 -03496.4 -07.6477 26272.2
 17 11 2013  19 04  -21.0455 26038.5 -03496.6 -07.6481 26272.3
 17 11 2013  19 05  -21.0454 26038.9 -03496.9 -07.6488 26272.7
 17 11 2013  19 06  -21.0460 26038.9 -03497.1 -07.6492 26272.7
 17 11 2013  19 07  -21.0462 26038.8 -03497.2 -07.6494 26272.6
 17 11 2013  19 08  -21.0463 26038.9 -03497.4 -07.6499 26272.7
 17 11 2013  19 09  -21.0470 26038.7 -03497.5 -07.6502 26272.5
 17 11 2013  19 10  -21.0470 26038.5 -03497.6 -07.6504 26272.4
 17 11 2013  19 11  -21.0474 26038.8 -03498.0 -07.6512 26272.7
 17 11 2013  19 12  -21.0477 26038.6 -03498.1 -07.6515 26272.5
 17 11 2013  19 13  -21.0480 26038.6 -03498.3 -07.6519 26272.5
 17 11 2013  19 14  -21.0479 26038.7 -03498.6 -07.6525 26272.7
 17 11 2013  19 15  -21.0484 26038.7 -03498.8 -07.6529 26272.7
 17 11 2013  19 16  -21.0486 26038.7 -03498.9 -07.6532 26272.8
 17 11 2013  19 17  -21.0490 26039.0 -03499.2 -07.6538 26273.1
 17 11 2013  19 18  -21.0493 26039.1 -03499.4 -07.6542 26273.2
 17 11 2013  19 19  -21.0500 26039.1 -03499.6 -07.6546 26273.3
 17 11 2013  19 20  -21.0503 26039.3 -03499.8 -07.6549 26273.5
 17 11 2013  19 21  -21.0506 26039.2 -03499.9 -07.6552 26273.4
 17 11 2013  19 22  -21.0508 26039.0 -03500.0 -07.6553 26273.2
 17 11 2013  19 23  -21.0511 26038.7 -03499.9 -07.6553 26272.9
 17 11 2013  19 24  -21.0515 26038.6 -03500.0 -07.6555 26272.7
 17 11 2013  19 25  -21.0518 26038.4 -03500.0 -07.6557 26272.6
 17 11 2013  19 26  -21.0521 26038.2 -03500.1 -07.6559 26272.4
 17 11 2013  19 27  -21.0522 26038.3 -03500.3 -07.6564 26272.6
 17 11 2013  19 28  -21.0526 26038.1 -03500.4 -07.6565 26272.4
 17 11 2013  19 29  -21.0527 26038.1 -03500.4 -07.6567 26272.4
 17 11 2013  19 30  -21.0531 26038.1 -03500.5 -07.6568 26272.4
 17 11 2013  19 31  -21.0535 26037.9 -03500.5 -07.6569 26272.1
 17 11 2013  19 32  -21.0540 26038.2 -03500.7 -07.6572 26272.4
 17 11 2013  19 33  -21.0544 26038.0 -03500.6 -07.6571 26272.2
 17 11 2013  19 34  -21.0547 26037.7 -03500.6 -07.6571 26272.0
 17 11 2013  19 35  -21.0547 26037.5 -03500.5 -07.6570 26271.8
 17 11 2013  19 36  -21.0547 26037.4 -03500.5 -07.6571 26271.6
 17 11 2013  19 37  -21.0547 26037.2 -03500.5 -07.6570 26271.4
 17 11 2013  19 38  -21.0548 26037.3 -03500.6 -07.6573 26271.5
 17 11 2013  19 39  -21.0549 26037.4 -03500.7 -07.6575 26271.7
 17 11 2013  19 40  -21.0551 26037.7 -03500.9 -07.6577 26272.0
 17 11 2013  19 41  -21.0552 26037.9 -03501.0 -07.6580 26272.2
 17 11 2013  19 42  -21.0553 26038.1 -03501.1 -07.6580 26272.4
 17 11 2013  19 43  -21.0553 26038.3 -03501.2 -07.6581 26272.6
 17 11 2013  19 44  -21.0554 26038.4 -03501.2 -07.6582 26272.7
 17 11 2013  19 45  -21.0554 26038.5 -03501.2 -07.6582 26272.9
 17 11 2013  19 46  -21.0555 26038.5 -03501.2 -07.6582 26272.9
 17 11 2013  19 47  -21.0556 26038.5 -03501.1 -07.6580 26272.8
 17 11 2013  19 48  -21.0556 26038.5 -03501.1 -07.6581 26272.8
 17 11 2013  19 49  -21.0555 26038.5 -03501.2 -07.6581 26272.9
 17 11 2013  19 50  -21.0554 26038.6 -03501.1 -07.6580 26272.9
 17 11 2013  19 51  -21.0552 26038.5 -03501.1 -07.6579 26272.8
 17 11 2013  19 52  -21.0550 26038.3 -03501.0 -07.6577 26272.6
 17 11 2013  19 53  -21.0547 26038.3 -03500.9 -07.6576 26272.6
 17 11 2013  19 54  -21.0547 26038.1 -03500.8 -07.6575 26272.4
 17 11 2013  19 55  -21.0545 26037.9 -03500.8 -07.6574 26272.2
 17 11 2013  19 56  -21.0543 26037.8 -03500.8 -07.6574 26272.1
 17 11 2013  19 57  -21.0541 26037.7 -03500.7 -07.6573 26271.9
 17 11 2013  19 58  -21.0540 26037.6 -03500.6 -07.6573 26271.8
 17 11 2013  19 59  -21.0539 26037.4 -03500.6 -07.6572 26271.7
 17 11 2013  20 00  -21.0538 26037.2 -03500.5 -07.6571 26271.5
 17 11 2013  20 01  -21.0539 26037.0 -03500.4 -07.6569 26271.2
 17 11 2013  20 02  -21.0537 26036.8 -03500.4 -07.6569 26271.1
 17 11 2013  20 03  -21.0533 26036.8 -03500.4 -07.6569 26271.1
 17 11 2013  20 04  -21.0531 26036.8 -03500.4 -07.6570 26271.1
 17 11 2013  20 05  -21.0529 26036.7 -03500.4 -07.6571 26271.0
 17 11 2013  20 06  -21.0527 26036.5 -03500.4 -07.6570 26270.8
 17 11 2013  20 07  -21.0524 26036.4 -03500.3 -07.6569 26270.6
 17 11 2013  20 08  -21.0520 26036.5 -03500.4 -07.6571 26270.7
 17 11 2013  20 09  -21.0517 26036.5 -03500.5 -07.6572 26270.7
 17 11 2013  20 10  -21.0514 26036.5 -03500.5 -07.6573 26270.8
 17 11 2013  20 11  -21.0512 26036.5 -03500.6 -07.6575 26270.8
 17 11 2013  20 12  -21.0508 26036.5 -03500.6 -07.6575 26270.8
 17 11 2013  20 13  -21.0503 26036.3 -03500.5 -07.6574 26270.6
 17 11 2013  20 14  -21.0500 26036.2 -03500.5 -07.6574 26270.4
 17 11 2013  20 15  -21.0496 26036.0 -03500.5 -07.6574 26270.2
 17 11 2013  20 16  -21.0491 26035.8 -03500.5 -07.6574 26270.1
 17 11 2013  20 17  -21.0484 26035.7 -03500.4 -07.6573 26270.0
 17 11 2013  20 18  -21.0479 26035.5 -03500.5 -07.6575 26269.8
 17 11 2013  20 19  -21.0476 26035.4 -03500.5 -07.6575 26269.7
 17 11 2013  20 20  -21.0473 26035.2 -03500.5 -07.6576 26269.5
 17 11 2013  20 21  -21.0471 26035.0 -03500.5 -07.6576 26269.3
 17 11 2013  20 22  -21.0468 26035.0 -03500.5 -07.6577 26269.3
 17 11 2013  20 23  -21.0465 26034.7 -03500.4 -07.6576 26268.9
 17 11 2013  20 24  -21.0461 26034.5 -03500.4 -07.6577 26268.8
 17 11 2013  20 25  -21.0458 26034.3 -03500.4 -07.6577 26268.5
 17 11 2013  20 26  -21.0453 26034.1 -03500.4 -07.6578 26268.4
 17 11 2013  20 27  -21.0449 26034.0 -03500.5 -07.6579 26268.3
 17 11 2013  20 28  -21.0447 26033.6 -03500.4 -07.6579 26267.9
 17 11 2013  20 29  -21.0444 26033.4 -03500.4 -07.6580 26267.7
 17 11 2013  20 30  -21.0439 26033.2 -03500.5 -07.6581 26267.5
 17 11 2013  20 31  -21.0436 26033.1 -03500.5 -07.6583 26267.4
 17 11 2013  20 32  -21.0433 26032.9 -03500.5 -07.6583 26267.1
 17 11 2013  20 33  -21.0432 26032.6 -03500.5 -07.6584 26266.9
 17 11 2013  20 34  -21.0429 26032.3 -03500.4 -07.6583 26266.6
 17 11 2013  20 35  -21.0426 26031.8 -03500.3 -07.6582 26266.1
 17 11 2013  20 36  -21.0420 26031.6 -03500.3 -07.6583 26265.9
 17 11 2013  20 37  -21.0417 26031.2 -03500.2 -07.6582 26265.4
 17 11 2013  20 38  -21.0413 26030.8 -03500.1 -07.6580 26265.0
 17 11 2013  20 39  -21.0407 26030.8 -03500.2 -07.6583 26265.1
 17 11 2013  20 40  -21.0404 26030.4 -03500.1 -07.6581 26264.6
 17 11 2013  20 41  -21.0398 26030.8 -03500.3 -07.6585 26265.1
 17 11 2013  20 42  -21.0397 26030.4 -03500.3 -07.6585 26264.6
 17 11 2013  20 43  -21.0394 26030.1 -03500.2 -07.6584 26264.4
 17 11 2013  20 44  -21.0391 26029.7 -03500.0 -07.6582 26264.0
 17 11 2013  20 45  -21.0383 26029.7 -03500.1 -07.6583 26264.0
 17 11 2013  20 46  -21.0378 26029.6 -03500.2 -07.6585 26263.9
 17 11 2013  20 47  -21.0372 26029.4 -03500.1 -07.6585 26263.6
 17 11 2013  20 48  -21.0365 26029.7 -03500.4 -07.6589 26264.0
 17 11 2013  20 49  -21.0358 26029.7 -03500.5 -07.6591 26264.0
 17 11 2013  20 50  -21.0351 26029.8 -03500.6 -07.6595 26264.1
 17 11 2013  20 51  -21.0346 26030.0 -03500.9 -07.6599 26264.4
 17 11 2013  20 52  -21.0341 26030.2 -03501.1 -07.6604 26264.6
 17 11 2013  20 53  -21.0335 26030.3 -03501.3 -07.6608 26264.7
 17 11 2013  20 54  -21.0331 26029.9 -03501.3 -07.6610 26264.3
 17 11 2013  20 55  -21.0325 26029.4 -03501.3 -07.6609 26263.9
 17 11 2013  20 56  -21.0319 26028.9 -03501.2 -07.6610 26263.4
 17 11 2013  20 57  -21.0312 26028.4 -03501.2 -07.6610 26262.9
 17 11 2013  20 58  -21.0308 26028.1 -03501.3 -07.6613 26262.5
 17 11 2013  20 59  -21.0309 26027.7 -03501.3 -07.6616 26262.1
 17 11 2013  21 00  -21.0310 26027.6 -03501.5 -07.6621 26262.0
 17 11 2013  21 01  -21.0312 26027.4 -03501.7 -07.6625 26261.9
 17 11 2013  21 02  -21.0314 26027.4 -03501.9 -07.6630 26261.9
 17 11 2013  21 03  -21.0316 26027.1 -03502.0 -07.6632 26261.7
 17 11 2013  21 04  -21.0316 26027.1 -03502.2 -07.6636 26261.7
 17 11 2013  21 05  -21.0316 26026.9 -03502.2 -07.6637 26261.5
 17 11 2013  21 06  -21.0316 26026.7 -03502.2 -07.6638 26261.3
 17 11 2013  21 07  -21.0316 26026.5 -03502.2 -07.6639 26261.1
 17 11 2013  21 08  -21.0316 26026.4 -03502.3 -07.6640 26261.0
 17 11 2013  21 09  -21.0315 26026.2 -03502.2 -07.6640 26260.8
 17 11 2013  21 10  -21.0314 26026.1 -03502.3 -07.6641 26260.6
 17 11 2013  21 11  -21.0312 26025.9 -03502.3 -07.6642 26260.5
 17 11 2013  21 12  -21.0309 26025.7 -03502.3 -07.6642 26260.3
 17 11 2013  21 13  -21.0307 26025.4 -03502.2 -07.6642 26260.0
 17 11 2013  21 14  -21.0304 26025.3 -03502.3 -07.6644 26259.9
 17 11 2013  21 15  -21.0302 26025.0 -03502.3 -07.6645 26259.6
 17 11 2013  21 16  -21.0301 26024.9 -03502.4 -07.6647 26259.5
 17 11 2013  21 17  -21.0299 26024.7 -03502.4 -07.6648 26259.3
 17 11 2013  21 18  -21.0299 26024.5 -03502.5 -07.6650 26259.2
 17 11 2013  21 19  -21.0298 26024.4 -03502.6 -07.6652 26259.0
 17 11 2013  21 20  -21.0297 26024.2 -03502.6 -07.6654 26258.8
 17 11 2013  21 21  -21.0296 26024.1 -03502.7 -07.6656 26258.7
 17 11 2013  21 22  -21.0295 26023.9 -03502.8 -07.6658 26258.5
 17 11 2013  21 23  -21.0293 26023.7 -03502.8 -07.6660 26258.3
 17 11 2013  21 24  -21.0290 26023.6 -03502.9 -07.6661 26258.3
 17 11 2013  21 25  -21.0288 26023.3 -03502.9 -07.6664 26258.0
 17 11 2013  21 26  -21.0286 26023.2 -03503.0 -07.6665 26258.0
 17 11 2013  21 27  -21.0285 26023.1 -03503.1 -07.6668 26257.8
 17 11 2013  21 28  -21.0284 26022.9 -03503.1 -07.6669 26257.6
 17 11 2013  21 29  -21.0283 26022.6 -03503.1 -07.6670 26257.4
 17 11 2013  21 30  -21.0283 26022.5 -03503.2 -07.6672 26257.2
 17 11 2013  21 31  -21.0281 26022.3 -03503.3 -07.6674 26257.1
 17 11 2013  21 32  -21.0280 26022.1 -03503.3 -07.6675 26256.8
 17 11 2013  21 33  -21.0278 26022.0 -03503.3 -07.6676 26256.7
 17 11 2013  21 34  -21.0276 26021.8 -03503.4 -07.6678 26256.6
 17 11 2013  21 35  -21.0275 26021.7 -03503.5 -07.6679 26256.4
 17 11 2013  21 36  -21.0273 26021.5 -03503.5 -07.6681 26256.3
 17 11 2013  21 37  -21.0271 26021.4 -03503.5 -07.6682 26256.2
 17 11 2013  21 38  -21.0271 26021.2 -03503.6 -07.6685 26256.0
 17 11 2013  21 39  -21.0268 26021.2 -03503.7 -07.6686 26256.0
 17 11 2013  21 40  -21.0267 26021.1 -03503.8 -07.6688 26255.9
 17 11 2013  21 41  -21.0266 26021.0 -03503.9 -07.6690 26255.9
 17 11 2013  21 42  -21.0265 26021.0 -03504.0 -07.6693 26255.9
 17 11 2013  21 43  -21.0265 26020.9 -03504.0 -07.6694 26255.8
 17 11 2013  21 44  -21.0265 26020.9 -03504.2 -07.6697 26255.8
 17 11 2013  21 45  -21.0263 26020.9 -03504.2 -07.6698 26255.8
 17 11 2013  21 46  -21.0262 26020.8 -03504.3 -07.6700 26255.7
 17 11 2013  21 47  -21.0262 26020.8 -03504.4 -07.6702 26255.7
 17 11 2013  21 48  -21.0262 26020.7 -03504.4 -07.6703 26255.6
 17 11 2013  21 49  -21.0261 26020.6 -03504.4 -07.6704 26255.5
 17 11 2013  21 50  -21.0259 26020.5 -03504.5 -07.6705 26255.5
 17 11 2013  21 51  -21.0255 26020.6 -03504.6 -07.6707 26255.5
 17 11 2013  21 52  -21.0252 26021.0 -03504.8 -07.6711 26255.9
 17 11 2013  21 53  -21.0250 26020.4 -03504.6 -07.6709 26255.3
 17 11 2013  21 54  -21.0253 26020.2 -03504.6 -07.6708 26255.1
 17 11 2013  21 55  -21.0252 26020.5 -03504.8 -07.6712 26255.5
 17 11 2013  21 56  -21.0248 26020.3 -03504.8 -07.6713 26255.2
 17 11 2013  21 57  -21.0248 26020.0 -03504.7 -07.6712 26255.0
 17 11 2013  21 58  -21.0246 26020.0 -03504.8 -07.6714 26255.0
 17 11 2013  21 59  -21.0243 26020.0 -03504.9 -07.6715 26255.0
 17 11 2013  22 00  -21.0241 26020.0 -03505.0 -07.6717 26255.0
 17 11 2013  22 01  -21.0242 26019.8 -03505.0 -07.6718 26254.8
 17 11 2013  22 02  -21.0240 26019.9 -03505.1 -07.6719 26254.9
 17 11 2013  22 03  -21.0236 26019.9 -03505.2 -07.6722 26255.0
 17 11 2013  22 04  -21.0237 26019.8 -03505.2 -07.6722 26254.8
 17 11 2013  22 05  -21.0235 26019.7 -03505.2 -07.6724 26254.8
 17 11 2013  22 06  -21.0231 26019.8 -03505.3 -07.6725 26254.8
 17 11 2013  22 07  -21.0231 26019.6 -03505.3 -07.6726 26254.7
 17 11 2013  22 08  -21.0230 26019.5 -03505.3 -07.6725 26254.5
 17 11 2013  22 09  -21.0227 26019.4 -03505.3 -07.6726 26254.5
 17 11 2013  22 10  -21.0226 26019.3 -03505.3 -07.6726 26254.3
 17 11 2013  22 11  -21.0227 26019.1 -03505.3 -07.6727 26254.2
 17 11 2013  22 12  -21.0226 26019.0 -03505.3 -07.6727 26254.0
 17 11 2013  22 13  -21.0225 26018.9 -03505.3 -07.6728 26254.0
 17 11 2013  22 14  -21.0228 26018.7 -03505.3 -07.6729 26253.8
 17 11 2013  22 15  -21.0225 26018.7 -03505.4 -07.6730 26253.8
 17 11 2013  22 16  -21.0223 26018.6 -03505.4 -07.6730 26253.7
 17 11 2013  22 17  -21.0218 26018.7 -03505.4 -07.6731 26253.8
 17 11 2013  22 18  -21.0214 26018.9 -03505.6 -07.6733 26254.0
 17 11 2013  22 19  -21.0210 26019.0 -03505.7 -07.6736 26254.2
 17 11 2013  22 20  -21.0206 26019.3 -03505.9 -07.6739 26254.4
 17 11 2013  22 21  -21.0201 26019.3 -03505.9 -07.6740 26254.5
 17 11 2013  22 22  -21.0198 26019.1 -03505.9 -07.6740 26254.2
 17 11 2013  22 23  -21.0193 26019.0 -03505.8 -07.6739 26254.1
 17 11 2013  22 24  -21.0189 26018.8 -03505.8 -07.6738 26253.9
 17 11 2013  22 25  -21.0186 26018.7 -03505.8 -07.6739 26253.8
 17 11 2013  22 26  -21.0185 26018.7 -03505.8 -07.6740 26253.8
 17 11 2013  22 27  -21.0185 26018.6 -03505.9 -07.6741 26253.7
 17 11 2013  22 28  -21.0185 26018.5 -03505.9 -07.6741 26253.6
 17 11 2013  22 29  -21.0186 26018.4 -03505.9 -07.6741 26253.5
 17 11 2013  22 30  -21.0186 26018.3 -03505.8 -07.6741 26253.4
 17 11 2013  22 31  -21.0185 26018.2 -03505.9 -07.6741 26253.4
 17 11 2013  22 32  -21.0183 26018.2 -03505.9 -07.6741 26253.4
 17 11 2013  22 33  -21.0181 26018.1 -03505.8 -07.6741 26253.3
 17 11 2013  22 34  -21.0179 26018.1 -03505.8 -07.6742 26253.2
 17 11 2013  22 35  -21.0176 26017.9 -03505.8 -07.6741 26253.1
 17 11 2013  22 36  -21.0172 26017.9 -03505.8 -07.6742 26253.1
 17 11 2013  22 37  -21.0169 26017.8 -03505.9 -07.6743 26253.0
 17 11 2013  22 38  -21.0166 26017.8 -03505.8 -07.6742 26252.9
 17 11 2013  22 39  -21.0165 26017.7 -03505.9 -07.6743 26252.9
 17 11 2013  22 40  -21.0163 26017.8 -03505.9 -07.6744 26252.9
 17 11 2013  22 41  -21.0162 26017.8 -03506.0 -07.6746 26252.9
 17 11 2013  22 42  -21.0159 26017.8 -03506.0 -07.6746 26253.0
 17 11 2013  22 43  -21.0159 26017.8 -03506.1 -07.6748 26253.0
 17 11 2013  22 44  -21.0158 26017.8 -03506.1 -07.6748 26253.0
 17 11 2013  22 45  -21.0159 26017.9 -03506.2 -07.6751 26253.1
 17 11 2013  22 46  -21.0158 26018.0 -03506.3 -07.6752 26253.2
 17 11 2013  22 47  -21.0158 26018.0 -03506.4 -07.6753 26253.2
 17 11 2013  22 48  -21.0157 26018.1 -03506.4 -07.6754 26253.3
 17 11 2013  22 49  -21.0157 26018.1 -03506.4 -07.6754 26253.3
 17 11 2013  22 50  -21.0156 26018.0 -03506.4 -07.6753 26253.2
 17 11 2013  22 51  -21.0155 26018.0 -03506.3 -07.6753 26253.2
 17 11 2013  22 52  -21.0155 26018.0 -03506.4 -07.6753 26253.2
 17 11 2013  22 53  -21.0155 26017.9 -03506.3 -07.6753 26253.1
 17 11 2013  22 54  -21.0154 26017.8 -03506.3 -07.6752 26253.0
 17 11 2013  22 55  -21.0151 26017.9 -03506.3 -07.6753 26253.1
 17 11 2013  22 56  -21.0148 26018.0 -03506.4 -07.6754 26253.2
 17 11 2013  22 57  -21.0146 26018.2 -03506.5 -07.6756 26253.4
 17 11 2013  22 58  -21.0143 26018.3 -03506.6 -07.6757 26253.5
 17 11 2013  22 59  -21.0142 26018.4 -03506.7 -07.6759 26253.7
 17 11 2013  23 00  -21.0143 26018.4 -03506.7 -07.6760 26253.7
 17 11 2013  23 01  -21.0144 26018.3 -03506.7 -07.6760 26253.6
 17 11 2013  23 02  -21.0146 26018.3 -03506.8 -07.6761 26253.6
 17 11 2013  23 03  -21.0140 26018.5 -03506.8 -07.6762 26253.8
 17 11 2013  23 04  -21.0135 26018.4 -03506.8 -07.6761 26253.7
 17 11 2013  23 05  -21.0131 26018.4 -03506.8 -07.6760 26253.7
 17 11 2013  23 06  -21.0127 26018.5 -03506.8 -07.6761 26253.7
 17 11 2013  23 07  -21.0126 26018.3 -03506.8 -07.6762 26253.6
 17 11 2013  23 08  -21.0126 26018.2 -03506.8 -07.6762 26253.4
 17 11 2013  23 09  -21.0126 26018.1 -03506.8 -07.6762 26253.3
 17 11 2013  23 10  -21.0125 26018.0 -03506.8 -07.6762 26253.3
 17 11 2013  23 11  -21.0124 26018.0 -03506.8 -07.6763 26253.3
 17 11 2013  23 12  -21.0123 26018.0 -03506.9 -07.6764 26253.3
 17 11 2013  23 13  -21.0120 26018.1 -03506.9 -07.6765 26253.4
 17 11 2013  23 14  -21.0121 26018.2 -03507.0 -07.6767 26253.5
 17 11 2013  23 15  -21.0120 26018.3 -03507.1 -07.6767 26253.6
 17 11 2013  23 16  -21.0119 26018.3 -03507.1 -07.6769 26253.6
 17 11 2013  23 17  -21.0119 26018.3 -03507.2 -07.6770 26253.6
 17 11 2013  23 18  -21.0117 26018.2 -03507.2 -07.6770 26253.5
 17 11 2013  23 19  -21.0115 26018.2 -03507.1 -07.6769 26253.5
 17 11 2013  23 20  -21.0114 26018.0 -03507.1 -07.6769 26253.3
 17 11 2013  23 21  -21.0113 26017.9 -03507.1 -07.6769 26253.3
 17 11 2013  23 22  -21.0110 26017.9 -03507.1 -07.6769 26253.2
 17 11 2013  23 23  -21.0110 26018.0 -03507.2 -07.6772 26253.4
 17 11 2013  23 24  -21.0111 26018.0 -03507.3 -07.6773 26253.4
 17 11 2013  23 25  -21.0112 26018.1 -03507.4 -07.6774 26253.4
 17 11 2013  23 26  -21.0115 26018.1 -03507.4 -07.6775 26253.5
 17 11 2013  23 27  -21.0116 26018.2 -03507.5 -07.6776 26253.5
 17 11 2013  23 28  -21.0117 26018.1 -03507.5 -07.6777 26253.5
 17 11 2013  23 29  -21.0118 26018.1 -03507.5 -07.6777 26253.4
 17 11 2013  23 30  -21.0120 26017.9 -03507.4 -07.6776 26253.3
 17 11 2013  23 31  -21.0123 26017.9 -03507.4 -07.6776 26253.2
 17 11 2013  23 32  -21.0123 26017.8 -03507.4 -07.6775 26253.1
 17 11 2013  23 33  -21.0124 26017.8 -03507.4 -07.6776 26253.1
 17 11 2013  23 34  -21.0121 26017.8 -03507.4 -07.6776 26253.1
 17 11 2013  23 35  -21.0121 26017.6 -03507.3 -07.6776 26252.9
 17 11 2013  23 36  -21.0121 26017.5 -03507.3 -07.6775 26252.8
 17 11 2013  23 37  -21.0116 26017.4 -03507.2 -07.6773 26252.7
 17 11 2013  23 38  -21.0109 26017.4 -03507.2 -07.6774 26252.7
 17 11 2013  23 39  -21.0107 26017.5 -03507.3 -07.6775 26252.9
 17 11 2013  23 40  -21.0105 26017.5 -03507.3 -07.6776 26252.8
 17 11 2013  23 41  -21.0109 26017.4 -03507.4 -07.6777 26252.8
 17 11 2013  23 42  -21.0117 26017.4 -03507.5 -07.6779 26252.8
 17 11 2013  23 43  -21.0124 26017.7 -03507.6 -07.6782 26253.0
 17 11 2013  23 44  -21.0137 26017.6 -03507.6 -07.6782 26253.0
 17 11 2013  23 45  -21.0146 26017.5 -03507.7 -07.6782 26252.9
 17 11 2013  23 46  -21.0151 26017.7 -03507.7 -07.6782 26253.1
 17 11 2013  23 47  -21.0157 26017.6 -03507.6 -07.6782 26253.0
 17 11 2013  23 48  -21.0158 26017.3 -03507.4 -07.6777 26252.7
 17 11 2013  23 49  -21.0151 26017.5 -03507.3 -07.6775 26252.8
 17 11 2013  23 50  -21.0145 26017.7 -03507.4 -07.6777 26253.1
 17 11 2013  23 51  -21.0145 26017.7 -03507.5 -07.6778 26253.1
 17 11 2013  23 52  -21.0144 26017.6 -03507.4 -07.6776 26252.9
 17 11 2013  23 53  -21.0141 26017.5 -03507.3 -07.6775 26252.9
 17 11 2013  23 54  -21.0138 26017.4 -03507.3 -07.6775 26252.8
 17 11 2013  23 55  -21.0135 26017.4 -03507.2 -07.6773 26252.7
 17 11 2013  23 56  -21.0131 26017.3 -03507.2 -07.6773 26252.6
 17 11 2013  23 57  -21.0129 26017.1 -03507.1 -07.6771 26252.4
