SAO LUIS EMBRACE-03 <322> 1 Min. Reported data

 DD MM YYYY  HH MM   D(Deg)  H(nT)   Z(nT)   I(Deg)   F(nT)

 18 11 2013  00 00  -21.0131 26016.5 -03506.9 -07.6768 26251.8
 18 11 2013  00 01  -21.0131 26016.4 -03506.8 -07.6768 26251.7
 18 11 2013  00 02  -21.0132 26016.2 -03506.7 -07.6766 26251.5
 18 11 2013  00 03  -21.0132 26016.1 -03506.7 -07.6765 26251.3
 18 11 2013  00 04  -21.0133 26016.1 -03506.7 -07.6765 26251.4
 18 11 2013  00 05  -21.0133 26016.2 -03506.8 -07.6768 26251.5
 18 11 2013  00 06  -21.0135 26016.4 -03506.9 -07.6770 26251.7
 18 11 2013  00 07  -21.0138 26016.5 -03507.0 -07.6771 26251.8
 18 11 2013  00 08  -21.0138 26016.6 -03507.0 -07.6772 26251.9
 18 11 2013  00 09  -21.0140 26016.6 -03507.1 -07.6772 26251.9
 18 11 2013  00 10  -21.0135 26016.7 -03507.1 -07.6772 26252.1
 18 11 2013  00 11  -21.0136 26016.8 -03507.1 -07.6773 26252.2
 18 11 2013  00 12  -21.0134 26016.8 -03507.1 -07.6773 26252.2
 18 11 2013  00 13  -21.0133 26017.0 -03507.2 -07.6773 26252.3
 18 11 2013  00 14  -21.0132 26017.3 -03507.2 -07.6774 26252.6
 18 11 2013  00 15  -21.0131 26017.4 -03507.3 -07.6775 26252.8
 18 11 2013  00 16  -21.0129 26017.5 -03507.3 -07.6776 26252.9
 18 11 2013  00 17  -21.0127 26017.5 -03507.3 -07.6775 26252.8
 18 11 2013  00 18  -21.0125 26017.4 -03507.2 -07.6774 26252.7
 18 11 2013  00 19  -21.0124 26017.1 -03507.1 -07.6772 26252.5
 18 11 2013  00 20  -21.0124 26017.0 -03507.0 -07.6770 26252.3
 18 11 2013  00 21  -21.0124 26016.8 -03506.9 -07.6769 26252.1
 18 11 2013  00 22  -21.0124 26016.9 -03507.0 -07.6769 26252.2
 18 11 2013  00 23  -21.0123 26016.9 -03507.0 -07.6769 26252.2
 18 11 2013  00 24  -21.0122 26017.0 -03507.0 -07.6770 26252.3
 18 11 2013  00 25  -21.0122 26017.0 -03507.1 -07.6771 26252.3
 18 11 2013  00 26  -21.0122 26017.0 -03507.1 -07.6772 26252.3
 18 11 2013  00 27  -21.0121 26017.0 -03507.1 -07.6772 26252.3
 18 11 2013  00 28  -21.0119 26017.1 -03507.2 -07.6773 26252.4
 18 11 2013  00 29  -21.0118 26017.1 -03507.2 -07.6774 26252.5
 18 11 2013  00 30  -21.0117 26017.3 -03507.4 -07.6777 26252.7
 18 11 2013  00 31  -21.0115 26017.4 -03507.4 -07.6778 26252.8
 18 11 2013  00 32  -21.0113 26017.6 -03507.5 -07.6779 26252.9
 18 11 2013  00 33  -21.0112 26017.7 -03507.7 -07.6782 26253.1
 18 11 2013  00 34  -21.0113 26017.8 -03507.8 -07.6784 26253.2
 18 11 2013  00 35  -21.0114 26018.0 -03507.9 -07.6787 26253.5
 18 11 2013  00 36  -21.0114 26018.0 -03507.9 -07.6786 26253.4
 18 11 2013  00 37  -21.0115 26018.1 -03507.9 -07.6787 26253.5
 18 11 2013  00 38  -21.0115 26018.1 -03508.0 -07.6788 26253.5
 18 11 2013  00 39  -21.0114 26018.2 -03508.0 -07.6789 26253.6
 18 11 2013  00 40  -21.0113 26018.0 -03508.0 -07.6788 26253.5
 18 11 2013  00 41  -21.0113 26018.0 -03508.0 -07.6789 26253.4
 18 11 2013  00 42  -21.0114 26018.0 -03508.0 -07.6789 26253.4
 18 11 2013  00 43  -21.0114 26017.9 -03508.0 -07.6788 26253.3
 18 11 2013  00 44  -21.0114 26017.8 -03508.0 -07.6788 26253.2
 18 11 2013  00 45  -21.0114 26017.7 -03507.9 -07.6788 26253.1
 18 11 2013  00 46  -21.0114 26017.7 -03508.0 -07.6789 26253.1
 18 11 2013  00 47  -21.0112 26017.6 -03507.9 -07.6789 26253.0
 18 11 2013  00 48  -21.0111 26017.4 -03507.9 -07.6788 26252.9
 18 11 2013  00 49  -21.0110 26017.3 -03507.9 -07.6788 26252.8
 18 11 2013  00 50  -21.0110 26017.3 -03507.9 -07.6788 26252.7
 18 11 2013  00 51  -21.0109 26017.2 -03507.9 -07.6789 26252.6
 18 11 2013  00 52  -21.0109 26017.1 -03507.9 -07.6789 26252.6
 18 11 2013  00 53  -21.0109 26017.1 -03508.0 -07.6790 26252.6
 18 11 2013  00 54  -21.0110 26017.0 -03508.0 -07.6791 26252.5
 18 11 2013  00 55  -21.0109 26017.0 -03508.0 -07.6791 26252.5
 18 11 2013  00 56  -21.0107 26017.1 -03508.0 -07.6792 26252.5
 18 11 2013  00 57  -21.0107 26017.0 -03508.0 -07.6792 26252.4
 18 11 2013  00 58  -21.0107 26016.9 -03508.1 -07.6793 26252.4
 18 11 2013  00 59  -21.0107 26017.0 -03508.1 -07.6794 26252.4
 18 11 2013  01 00  -21.0109 26016.9 -03508.2 -07.6795 26252.4
 18 11 2013  01 01  -21.0110 26016.9 -03508.1 -07.6795 26252.4
 18 11 2013  01 02  -21.0110 26016.8 -03508.2 -07.6795 26252.3
 18 11 2013  01 03  -21.0110 26016.8 -03508.2 -07.6795 26252.3
 18 11 2013  01 04  -21.0111 26016.7 -03508.1 -07.6795 26252.2
 18 11 2013  01 05  -21.0111 26016.6 -03508.1 -07.6796 26252.1
 18 11 2013  01 06  -21.0110 26016.5 -03508.1 -07.6794 26252.0
 18 11 2013  01 07  -21.0110 26016.5 -03508.1 -07.6795 26251.9
 18 11 2013  01 08  -21.0109 26016.4 -03508.1 -07.6794 26251.8
 18 11 2013  01 09  -21.0108 26016.3 -03508.0 -07.6794 26251.7
 18 11 2013  01 10  -21.0108 26016.4 -03508.2 -07.6797 26251.8
 18 11 2013  01 11  -21.0108 26016.4 -03508.2 -07.6798 26251.9
 18 11 2013  01 12  -21.0109 26016.5 -03508.3 -07.6800 26252.0
 18 11 2013  01 13  -21.0110 26016.6 -03508.4 -07.6800 26252.1
 18 11 2013  01 14  -21.0110 26016.6 -03508.3 -07.6800 26252.1
 18 11 2013  01 15  -21.0109 26016.6 -03508.4 -07.6801 26252.0
 18 11 2013  01 16  -21.0107 26016.4 -03508.3 -07.6800 26251.9
 18 11 2013  01 17  -21.0107 26016.4 -03508.3 -07.6801 26251.9
 18 11 2013  01 18  -21.0107 26016.4 -03508.3 -07.6801 26251.9
 18 11 2013  01 19  -21.0110 26016.3 -03508.4 -07.6802 26251.8
 18 11 2013  01 20  -21.0110 26016.3 -03508.3 -07.6801 26251.7
 18 11 2013  01 21  -21.0112 26016.1 -03508.3 -07.6801 26251.6
 18 11 2013  01 22  -21.0113 26016.1 -03508.3 -07.6801 26251.6
 18 11 2013  01 23  -21.0113 26016.1 -03508.3 -07.6801 26251.5
 18 11 2013  01 24  -21.0116 26016.1 -03508.4 -07.6802 26251.6
 18 11 2013  01 25  -21.0118 26016.1 -03508.4 -07.6803 26251.6
 18 11 2013  01 26  -21.0122 26016.2 -03508.5 -07.6805 26251.7
 18 11 2013  01 27  -21.0124 26016.4 -03508.6 -07.6806 26251.9
 18 11 2013  01 28  -21.0124 26016.5 -03508.6 -07.6806 26252.0
 18 11 2013  01 29  -21.0124 26016.7 -03508.8 -07.6809 26252.3
 18 11 2013  01 30  -21.0125 26017.2 -03509.0 -07.6812 26252.7
 18 11 2013  01 31  -21.0126 26016.8 -03508.9 -07.6811 26252.3
 18 11 2013  01 32  -21.0131 26017.2 -03509.0 -07.6812 26252.8
 18 11 2013  01 33  -21.0133 26017.3 -03509.1 -07.6814 26252.8
 18 11 2013  01 34  -21.0134 26017.3 -03509.0 -07.6813 26252.8
 18 11 2013  01 35  -21.0131 26017.3 -03509.0 -07.6812 26252.9
 18 11 2013  01 36  -21.0131 26017.2 -03508.9 -07.6810 26252.7
 18 11 2013  01 37  -21.0131 26017.1 -03508.9 -07.6810 26252.6
 18 11 2013  01 38  -21.0133 26016.9 -03508.8 -07.6809 26252.5
 18 11 2013  01 39  -21.0133 26016.9 -03508.8 -07.6808 26252.4
 18 11 2013  01 40  -21.0133 26017.0 -03508.7 -07.6807 26252.5
 18 11 2013  01 41  -21.0129 26017.0 -03508.8 -07.6809 26252.5
 18 11 2013  01 42  -21.0130 26017.5 -03509.0 -07.6812 26253.0
 18 11 2013  01 43  -21.0129 26017.7 -03509.2 -07.6816 26253.3
 18 11 2013  01 44  -21.0129 26017.9 -03509.3 -07.6816 26253.5
 18 11 2013  01 45  -21.0130 26017.9 -03509.3 -07.6816 26253.5
 18 11 2013  01 46  -21.0129 26018.0 -03509.4 -07.6818 26253.6
 18 11 2013  01 47  -21.0128 26018.2 -03509.4 -07.6818 26253.8
 18 11 2013  01 48  -21.0129 26018.4 -03509.5 -07.6820 26254.0
 18 11 2013  01 49  -21.0131 26018.4 -03509.5 -07.6820 26254.0
 18 11 2013  01 50  -21.0131 26018.7 -03509.6 -07.6822 26254.3
 18 11 2013  01 51  -21.0132 26018.9 -03509.7 -07.6822 26254.6
 18 11 2013  01 52  -21.0133 26019.2 -03509.8 -07.6824 26254.9
 18 11 2013  01 53  -21.0136 26019.2 -03509.8 -07.6823 26254.8
 18 11 2013  01 54  -21.0139 26019.4 -03509.8 -07.6824 26255.1
 18 11 2013  01 55  -21.0140 26019.7 -03509.9 -07.6825 26255.3
 18 11 2013  01 56  -21.0145 26019.7 -03509.9 -07.6825 26255.4
 18 11 2013  01 57  -21.0148 26020.1 -03510.1 -07.6827 26255.8
 18 11 2013  01 58  -21.0153 26020.1 -03510.0 -07.6826 26255.8
 18 11 2013  01 59  -21.0161 26020.2 -03510.0 -07.6825 26255.9
 18 11 2013  02 00  -21.0166 26020.5 -03510.1 -07.6826 26256.1
 18 11 2013  02 01  -21.0170 26020.6 -03510.0 -07.6825 26256.3
 18 11 2013  02 02  -21.0174 26020.8 -03510.1 -07.6825 26256.5
 18 11 2013  02 03  -21.0176 26021.2 -03510.1 -07.6825 26256.9
 18 11 2013  02 04  -21.0178 26021.2 -03510.1 -07.6825 26256.9
 18 11 2013  02 05  -21.0180 26021.2 -03510.0 -07.6822 26256.9
 18 11 2013  02 06  -21.0181 26021.5 -03510.0 -07.6822 26257.2
 18 11 2013  02 07  -21.0182 26021.6 -03510.0 -07.6822 26257.2
 18 11 2013  02 08  -21.0184 26021.5 -03509.9 -07.6820 26257.1
 18 11 2013  02 09  -21.0186 26021.0 -03509.6 -07.6815 26256.7
 18 11 2013  02 10  -21.0187 26021.2 -03509.6 -07.6814 26256.9
 18 11 2013  02 11  -21.0189 26021.2 -03509.6 -07.6813 26256.8
 18 11 2013  02 12  -21.0189 26021.1 -03509.5 -07.6812 26256.7
 18 11 2013  02 13  -21.0185 26021.2 -03509.5 -07.6811 26256.8
 18 11 2013  02 14  -21.0180 26021.4 -03509.5 -07.6811 26257.0
 18 11 2013  02 15  -21.0177 26021.2 -03509.4 -07.6809 26256.7
 18 11 2013  02 16  -21.0176 26021.4 -03509.4 -07.6809 26257.0
 18 11 2013  02 17  -21.0172 26021.7 -03509.5 -07.6811 26257.3
 18 11 2013  02 18  -21.0170 26021.3 -03509.3 -07.6808 26256.9
 18 11 2013  02 19  -21.0167 26021.3 -03509.3 -07.6808 26256.9
 18 11 2013  02 20  -21.0163 26021.0 -03509.2 -07.6805 26256.6
 18 11 2013  02 21  -21.0163 26020.9 -03509.2 -07.6805 26256.5
 18 11 2013  02 22  -21.0163 26020.8 -03509.1 -07.6804 26256.3
 18 11 2013  02 23  -21.0163 26020.7 -03509.1 -07.6805 26256.3
 18 11 2013  02 24  -21.0162 26020.7 -03509.1 -07.6804 26256.2
 18 11 2013  02 25  -21.0162 26020.7 -03509.1 -07.6804 26256.3
 18 11 2013  02 26  -21.0158 26020.8 -03509.2 -07.6805 26256.3
 18 11 2013  02 27  -21.0155 26020.6 -03509.1 -07.6805 26256.1
 18 11 2013  02 28  -21.0150 26020.7 -03509.2 -07.6806 26256.3
 18 11 2013  02 29  -21.0147 26020.7 -03509.1 -07.6805 26256.2
 18 11 2013  02 30  -21.0145 26020.5 -03509.1 -07.6805 26256.1
 18 11 2013  02 31  -21.0145 26020.6 -03509.2 -07.6806 26256.2
 18 11 2013  02 32  -21.0144 26020.6 -03509.3 -07.6808 26256.2
 18 11 2013  02 33  -21.0143 26020.7 -03509.3 -07.6808 26256.3
 18 11 2013  02 34  -21.0143 26020.7 -03509.3 -07.6809 26256.2
 18 11 2013  02 35  -21.0143 26020.6 -03509.3 -07.6808 26256.2
 18 11 2013  02 36  -21.0144 26020.6 -03509.2 -07.6808 26256.2
 18 11 2013  02 37  -21.0145 26020.7 -03509.3 -07.6809 26256.3
 18 11 2013  02 38  -21.0147 26020.9 -03509.4 -07.6811 26256.5
 18 11 2013  02 39  -21.0149 26020.9 -03509.4 -07.6811 26256.5
 18 11 2013  02 40  -21.0149 26021.1 -03509.5 -07.6811 26256.7
 18 11 2013  02 41  -21.0149 26021.2 -03509.5 -07.6812 26256.8
 18 11 2013  02 42  -21.0150 26021.2 -03509.5 -07.6812 26256.8
 18 11 2013  02 43  -21.0152 26020.9 -03509.4 -07.6810 26256.5
 18 11 2013  02 44  -21.0154 26020.8 -03509.3 -07.6808 26256.3
 18 11 2013  02 45  -21.0156 26020.5 -03509.1 -07.6804 26256.0
 18 11 2013  02 46  -21.0158 26020.3 -03509.0 -07.6803 26255.8
 18 11 2013  02 47  -21.0161 26020.3 -03508.9 -07.6801 26255.8
 18 11 2013  02 48  -21.0164 26020.1 -03508.9 -07.6801 26255.7
 18 11 2013  02 49  -21.0164 26020.1 -03508.8 -07.6800 26255.6
 18 11 2013  02 50  -21.0165 26020.0 -03508.7 -07.6798 26255.5
 18 11 2013  02 51  -21.0166 26019.9 -03508.7 -07.6798 26255.4
 18 11 2013  02 52  -21.0167 26019.9 -03508.6 -07.6797 26255.4
 18 11 2013  02 53  -21.0169 26019.9 -03508.7 -07.6797 26255.4
 18 11 2013  02 54  -21.0169 26020.0 -03508.7 -07.6798 26255.5
 18 11 2013  02 55  -21.0168 26020.1 -03508.7 -07.6798 26255.6
 18 11 2013  02 56  -21.0167 26020.2 -03508.8 -07.6799 26255.7
 18 11 2013  02 57  -21.0165 26020.3 -03508.8 -07.6799 26255.8
 18 11 2013  02 58  -21.0163 26020.4 -03508.9 -07.6800 26255.9
 18 11 2013  02 59  -21.0162 26020.4 -03508.8 -07.6799 26255.9
 18 11 2013  03 00  -21.0160 26020.3 -03508.8 -07.6798 26255.8
 18 11 2013  03 01  -21.0159 26020.2 -03508.7 -07.6797 26255.7
 18 11 2013  03 02  -21.0159 26020.2 -03508.6 -07.6796 26255.7
 18 11 2013  03 03  -21.0157 26020.1 -03508.6 -07.6795 26255.6
 18 11 2013  03 04  -21.0156 26020.1 -03508.6 -07.6795 26255.5
 18 11 2013  03 05  -21.0155 26020.0 -03508.5 -07.6794 26255.5
 18 11 2013  03 06  -21.0154 26020.0 -03508.6 -07.6795 26255.5
 18 11 2013  03 07  -21.0153 26020.0 -03508.6 -07.6795 26255.5
 18 11 2013  03 08  -21.0153 26020.2 -03508.6 -07.6795 26255.6
 18 11 2013  03 09  -21.0154 26020.2 -03508.6 -07.6796 26255.7
 18 11 2013  03 10  -21.0153 26020.3 -03508.7 -07.6796 26255.8
 18 11 2013  03 11  -21.0152 26020.4 -03508.7 -07.6796 26255.9
 18 11 2013  03 12  -21.0150 26020.3 -03508.7 -07.6796 26255.8
 18 11 2013  03 13  -21.0149 26020.3 -03508.6 -07.6795 26255.8
 18 11 2013  03 14  -21.0148 26020.2 -03508.6 -07.6794 26255.7
 18 11 2013  03 15  -21.0146 26020.2 -03508.6 -07.6795 26255.7
 18 11 2013  03 16  -21.0148 26020.3 -03508.6 -07.6795 26255.8
 18 11 2013  03 17  -21.0148 26020.4 -03508.7 -07.6797 26255.9
 18 11 2013  03 18  -21.0149 26020.5 -03508.7 -07.6797 26256.0
 18 11 2013  03 19  -21.0148 26020.5 -03508.7 -07.6797 26256.0
 18 11 2013  03 20  -21.0146 26020.5 -03508.7 -07.6797 26256.0
 18 11 2013  03 21  -21.0145 26020.4 -03508.7 -07.6796 26255.9
 18 11 2013  03 22  -21.0144 26020.4 -03508.7 -07.6797 26255.9
 18 11 2013  03 23  -21.0142 26020.5 -03508.7 -07.6796 26256.0
 18 11 2013  03 24  -21.0142 26020.5 -03508.8 -07.6797 26256.0
 18 11 2013  03 25  -21.0141 26020.5 -03508.8 -07.6798 26256.0
 18 11 2013  03 26  -21.0140 26020.4 -03508.7 -07.6798 26255.9
 18 11 2013  03 27  -21.0139 26020.4 -03508.7 -07.6798 26255.9
 18 11 2013  03 28  -21.0140 26020.5 -03508.8 -07.6798 26256.0
 18 11 2013  03 29  -21.0139 26020.5 -03508.8 -07.6798 26256.0
 18 11 2013  03 30  -21.0139 26020.5 -03508.8 -07.6799 26256.0
 18 11 2013  03 31  -21.0137 26020.5 -03508.8 -07.6798 26256.0
 18 11 2013  03 32  -21.0136 26020.5 -03508.8 -07.6798 26256.0
 18 11 2013  03 33  -21.0135 26020.4 -03508.8 -07.6798 26255.9
 18 11 2013  03 34  -21.0135 26020.4 -03508.8 -07.6798 26255.9
 18 11 2013  03 35  -21.0132 26020.3 -03508.7 -07.6798 26255.8
 18 11 2013  03 36  -21.0130 26020.3 -03508.7 -07.6797 26255.8
 18 11 2013  03 37  -21.0128 26020.2 -03508.7 -07.6798 26255.8
 18 11 2013  03 38  -21.0128 26020.3 -03508.7 -07.6797 26255.8
 18 11 2013  03 39  -21.0128 26020.3 -03508.8 -07.6799 26255.8
 18 11 2013  03 40  -21.0128 26020.4 -03508.9 -07.6801 26255.9
 18 11 2013  03 41  -21.0127 26020.4 -03508.9 -07.6801 26255.9
 18 11 2013  03 42  -21.0127 26020.4 -03508.9 -07.6802 26255.9
 18 11 2013  03 43  -21.0128 26020.5 -03509.0 -07.6802 26256.0
 18 11 2013  03 44  -21.0127 26020.6 -03509.0 -07.6803 26256.1
 18 11 2013  03 45  -21.0126 26020.6 -03509.0 -07.6803 26256.1
 18 11 2013  03 46  -21.0125 26020.6 -03509.0 -07.6804 26256.1
 18 11 2013  03 47  -21.0124 26020.6 -03509.0 -07.6803 26256.1
 18 11 2013  03 48  -21.0124 26020.6 -03509.1 -07.6804 26256.2
 18 11 2013  03 49  -21.0123 26020.6 -03509.1 -07.6805 26256.2
 18 11 2013  03 50  -21.0123 26020.7 -03509.2 -07.6806 26256.2
 18 11 2013  03 51  -21.0122 26020.7 -03509.1 -07.6805 26256.2
 18 11 2013  03 52  -21.0122 26020.7 -03509.2 -07.6806 26256.3
 18 11 2013  03 53  -21.0121 26020.7 -03509.2 -07.6806 26256.3
 18 11 2013  03 54  -21.0122 26020.8 -03509.3 -07.6808 26256.3
 18 11 2013  03 55  -21.0122 26020.8 -03509.3 -07.6808 26256.4
 18 11 2013  03 56  -21.0121 26020.8 -03509.3 -07.6808 26256.4
 18 11 2013  03 57  -21.0120 26020.8 -03509.2 -07.6807 26256.3
 18 11 2013  03 58  -21.0120 26020.8 -03509.2 -07.6807 26256.3
 18 11 2013  03 59  -21.0118 26020.8 -03509.2 -07.6806 26256.4
 18 11 2013  04 00  -21.0119 26020.8 -03509.3 -07.6808 26256.4
 18 11 2013  04 01  -21.0118 26020.8 -03509.3 -07.6808 26256.4
 18 11 2013  04 02  -21.0118 26020.8 -03509.3 -07.6808 26256.3
 18 11 2013  04 03  -21.0117 26020.8 -03509.3 -07.6808 26256.3
 18 11 2013  04 04  -21.0117 26020.8 -03509.3 -07.6808 26256.4
 18 11 2013  04 05  -21.0117 26020.8 -03509.3 -07.6809 26256.4
 18 11 2013  04 06  -21.0117 26020.9 -03509.4 -07.6810 26256.5
 18 11 2013  04 07  -21.0117 26021.0 -03509.5 -07.6812 26256.6
 18 11 2013  04 08  -21.0117 26021.1 -03509.5 -07.6813 26256.7
 18 11 2013  04 09  -21.0117 26021.1 -03509.5 -07.6812 26256.8
 18 11 2013  04 10  -21.0117 26021.1 -03509.5 -07.6812 26256.8
 18 11 2013  04 11  -21.0117 26021.2 -03509.5 -07.6812 26256.8
 18 11 2013  04 12  -21.0117 26021.2 -03509.6 -07.6813 26256.8
 18 11 2013  04 13  -21.0116 26021.2 -03509.5 -07.6812 26256.8
 18 11 2013  04 14  -21.0115 26021.2 -03509.5 -07.6812 26256.8
 18 11 2013  04 15  -21.0115 26021.3 -03509.6 -07.6813 26256.9
 18 11 2013  04 16  -21.0115 26021.3 -03509.6 -07.6814 26256.9
 18 11 2013  04 17  -21.0117 26021.4 -03509.7 -07.6815 26257.0
 18 11 2013  04 18  -21.0118 26021.5 -03509.7 -07.6816 26257.1
 18 11 2013  04 19  -21.0118 26021.5 -03509.8 -07.6816 26257.1
 18 11 2013  04 20  -21.0118 26021.4 -03509.7 -07.6815 26257.1
 18 11 2013  04 21  -21.0117 26021.4 -03509.7 -07.6814 26257.0
 18 11 2013  04 22  -21.0116 26021.4 -03509.6 -07.6814 26257.0
 18 11 2013  04 23  -21.0115 26021.4 -03509.6 -07.6814 26257.0
 18 11 2013  04 24  -21.0114 26021.3 -03509.7 -07.6815 26256.9
 18 11 2013  04 25  -21.0112 26021.3 -03509.7 -07.6815 26256.9
 18 11 2013  04 26  -21.0112 26021.4 -03509.7 -07.6815 26257.0
 18 11 2013  04 27  -21.0112 26021.4 -03509.8 -07.6816 26257.1
 18 11 2013  04 28  -21.0111 26021.5 -03509.7 -07.6816 26257.1
 18 11 2013  04 29  -21.0112 26021.5 -03509.8 -07.6817 26257.1
 18 11 2013  04 30  -21.0112 26021.5 -03509.8 -07.6817 26257.1
 18 11 2013  04 31  -21.0114 26021.6 -03509.9 -07.6818 26257.2
 18 11 2013  04 32  -21.0114 26021.7 -03509.9 -07.6820 26257.4
 18 11 2013  04 33  -21.0114 26021.9 -03510.0 -07.6821 26257.5
 18 11 2013  04 34  -21.0116 26022.0 -03510.1 -07.6822 26257.6
 18 11 2013  04 35  -21.0117 26022.0 -03510.1 -07.6822 26257.7
 18 11 2013  04 36  -21.0117 26021.9 -03510.1 -07.6822 26257.6
 18 11 2013  04 37  -21.0117 26021.9 -03510.0 -07.6821 26257.6
 18 11 2013  04 38  -21.0117 26021.9 -03510.0 -07.6820 26257.6
 18 11 2013  04 39  -21.0117 26021.9 -03510.0 -07.6820 26257.6
 18 11 2013  04 40  -21.0117 26021.9 -03510.0 -07.6820 26257.5
 18 11 2013  04 41  -21.0116 26021.8 -03509.9 -07.6819 26257.5
 18 11 2013  04 42  -21.0115 26021.8 -03509.9 -07.6819 26257.4
 18 11 2013  04 43  -21.0115 26021.8 -03509.9 -07.6818 26257.4
 18 11 2013  04 44  -21.0114 26021.7 -03509.9 -07.6818 26257.4
 18 11 2013  04 45  -21.0114 26021.6 -03509.9 -07.6818 26257.3
 18 11 2013  04 46  -21.0115 26021.6 -03509.9 -07.6819 26257.3
 18 11 2013  04 47  -21.0115 26021.7 -03510.0 -07.6820 26257.3
 18 11 2013  04 48  -21.0117 26021.7 -03510.0 -07.6820 26257.3
 18 11 2013  04 49  -21.0119 26021.6 -03510.0 -07.6821 26257.3
 18 11 2013  04 50  -21.0121 26021.7 -03510.0 -07.6820 26257.3
 18 11 2013  04 51  -21.0122 26021.6 -03509.9 -07.6819 26257.3
 18 11 2013  04 52  -21.0123 26021.5 -03509.9 -07.6819 26257.2
 18 11 2013  04 53  -21.0124 26021.5 -03509.9 -07.6819 26257.1
 18 11 2013  04 54  -21.0125 26021.5 -03509.8 -07.6818 26257.1
 18 11 2013  04 55  -21.0126 26021.5 -03509.9 -07.6819 26257.1
 18 11 2013  04 56  -21.0127 26021.5 -03509.9 -07.6819 26257.2
 18 11 2013  04 57  -21.0129 26021.6 -03509.9 -07.6820 26257.3
 18 11 2013  04 58  -21.0132 26021.7 -03510.0 -07.6820 26257.4
 18 11 2013  04 59  -21.0134 26021.8 -03510.0 -07.6821 26257.5
 18 11 2013  05 00  -21.0135 26021.9 -03510.1 -07.6822 26257.6
 18 11 2013  05 01  -21.0136 26022.0 -03510.1 -07.6822 26257.6
 18 11 2013  05 02  -21.0136 26022.0 -03510.1 -07.6822 26257.7
 18 11 2013  05 03  -21.0135 26022.1 -03510.1 -07.6822 26257.8
 18 11 2013  05 04  -21.0136 26022.2 -03510.1 -07.6823 26257.8
 18 11 2013  05 05  -21.0135 26022.2 -03510.1 -07.6822 26257.9
 18 11 2013  05 06  -21.0136 26022.2 -03510.1 -07.6822 26257.9
 18 11 2013  05 07  -21.0136 26022.3 -03510.1 -07.6822 26257.9
 18 11 2013  05 08  -21.0135 26022.3 -03510.1 -07.6822 26258.0
 18 11 2013  05 09  -21.0134 26022.3 -03510.1 -07.6822 26257.9
 18 11 2013  05 10  -21.0133 26022.2 -03510.1 -07.6821 26257.9
 18 11 2013  05 11  -21.0132 26022.2 -03510.0 -07.6821 26257.8
 18 11 2013  05 12  -21.0131 26022.1 -03510.0 -07.6820 26257.8
 18 11 2013  05 13  -21.0131 26022.0 -03510.0 -07.6820 26257.7
 18 11 2013  05 14  -21.0132 26022.1 -03510.1 -07.6821 26257.7
 18 11 2013  05 15  -21.0131 26022.1 -03510.1 -07.6822 26257.8
 18 11 2013  05 16  -21.0131 26022.2 -03510.1 -07.6822 26257.8
 18 11 2013  05 17  -21.0132 26022.1 -03510.1 -07.6823 26257.8
 18 11 2013  05 18  -21.0132 26022.1 -03510.2 -07.6823 26257.8
 18 11 2013  05 19  -21.0131 26022.1 -03510.2 -07.6823 26257.8
 18 11 2013  05 20  -21.0131 26022.0 -03510.1 -07.6822 26257.7
 18 11 2013  05 21  -21.0131 26021.9 -03510.1 -07.6822 26257.6
 18 11 2013  05 22  -21.0131 26021.9 -03510.1 -07.6823 26257.6
 18 11 2013  05 23  -21.0131 26021.9 -03510.1 -07.6823 26257.6
 18 11 2013  05 24  -21.0132 26021.9 -03510.2 -07.6824 26257.6
 18 11 2013  05 25  -21.0132 26022.0 -03510.2 -07.6825 26257.7
 18 11 2013  05 26  -21.0132 26022.1 -03510.3 -07.6826 26257.8
 18 11 2013  05 27  -21.0131 26022.1 -03510.3 -07.6827 26257.8
 18 11 2013  05 28  -21.0130 26022.1 -03510.4 -07.6828 26257.8
 18 11 2013  05 29  -21.0130 26022.2 -03510.4 -07.6828 26257.9
 18 11 2013  05 30  -21.0128 26022.1 -03510.4 -07.6828 26257.9
 18 11 2013  05 31  -21.0127 26022.1 -03510.4 -07.6828 26257.8
 18 11 2013  05 32  -21.0126 26022.0 -03510.4 -07.6829 26257.7
 18 11 2013  05 33  -21.0124 26021.9 -03510.4 -07.6829 26257.6
 18 11 2013  05 34  -21.0121 26021.8 -03510.4 -07.6828 26257.5
 18 11 2013  05 35  -21.0118 26021.8 -03510.3 -07.6828 26257.5
 18 11 2013  05 36  -21.0116 26021.7 -03510.3 -07.6829 26257.4
 18 11 2013  05 37  -21.0113 26021.6 -03510.3 -07.6829 26257.3
 18 11 2013  05 38  -21.0113 26021.5 -03510.4 -07.6829 26257.3
 18 11 2013  05 39  -21.0112 26021.5 -03510.4 -07.6830 26257.2
 18 11 2013  05 40  -21.0111 26021.4 -03510.5 -07.6831 26257.2
 18 11 2013  05 41  -21.0109 26021.4 -03510.4 -07.6831 26257.1
 18 11 2013  05 42  -21.0109 26021.4 -03510.5 -07.6832 26257.1
 18 11 2013  05 43  -21.0108 26021.3 -03510.5 -07.6833 26257.1
 18 11 2013  05 44  -21.0108 26021.3 -03510.5 -07.6833 26257.0
 18 11 2013  05 45  -21.0108 26021.3 -03510.5 -07.6834 26257.0
 18 11 2013  05 46  -21.0108 26021.2 -03510.5 -07.6833 26256.9
 18 11 2013  05 47  -21.0109 26021.1 -03510.5 -07.6833 26256.8
 18 11 2013  05 48  -21.0108 26020.9 -03510.4 -07.6833 26256.7
 18 11 2013  05 49  -21.0107 26020.8 -03510.4 -07.6832 26256.6
 18 11 2013  05 50  -21.0107 26020.7 -03510.4 -07.6832 26256.4
 18 11 2013  05 51  -21.0108 26020.7 -03510.4 -07.6832 26256.4
 18 11 2013  05 52  -21.0110 26020.6 -03510.4 -07.6833 26256.4
 18 11 2013  05 53  -21.0110 26020.6 -03510.4 -07.6833 26256.4
 18 11 2013  05 54  -21.0112 26020.5 -03510.4 -07.6834 26256.3
 18 11 2013  05 55  -21.0114 26020.5 -03510.4 -07.6833 26256.3
 18 11 2013  05 56  -21.0116 26020.5 -03510.4 -07.6834 26256.2
 18 11 2013  05 57  -21.0119 26020.5 -03510.5 -07.6835 26256.3
 18 11 2013  05 58  -21.0121 26020.5 -03510.5 -07.6836 26256.3
 18 11 2013  05 59  -21.0123 26020.6 -03510.5 -07.6836 26256.3
 18 11 2013  06 00  -21.0125 26020.6 -03510.5 -07.6836 26256.3
 18 11 2013  06 01  -21.0126 26020.6 -03510.5 -07.6836 26256.3
 18 11 2013  06 02  -21.0126 26020.5 -03510.5 -07.6835 26256.2
 18 11 2013  06 03  -21.0126 26020.5 -03510.5 -07.6835 26256.2
 18 11 2013  06 04  -21.0127 26020.4 -03510.4 -07.6834 26256.1
 18 11 2013  06 05  -21.0130 26020.4 -03510.4 -07.6834 26256.1
 18 11 2013  06 06  -21.0131 26020.4 -03510.4 -07.6834 26256.1
 18 11 2013  06 07  -21.0132 26020.3 -03510.4 -07.6834 26256.1
 18 11 2013  06 08  -21.0134 26020.3 -03510.4 -07.6833 26256.0
 18 11 2013  06 09  -21.0136 26020.3 -03510.4 -07.6833 26256.0
 18 11 2013  06 10  -21.0139 26020.2 -03510.4 -07.6834 26255.9
 18 11 2013  06 11  -21.0142 26020.2 -03510.4 -07.6833 26256.0
 18 11 2013  06 12  -21.0145 26020.2 -03510.4 -07.6834 26255.9
 18 11 2013  06 13  -21.0146 26020.2 -03510.4 -07.6834 26255.9
 18 11 2013  06 14  -21.0147 26020.1 -03510.3 -07.6832 26255.8
 18 11 2013  06 15  -21.0150 26020.1 -03510.3 -07.6832 26255.8
 18 11 2013  06 16  -21.0153 26020.0 -03510.3 -07.6832 26255.7
 18 11 2013  06 17  -21.0153 26020.0 -03510.3 -07.6832 26255.7
 18 11 2013  06 18  -21.0152 26019.9 -03510.2 -07.6831 26255.6
 18 11 2013  06 19  -21.0153 26019.8 -03510.2 -07.6831 26255.5
 18 11 2013  06 20  -21.0156 26019.7 -03510.1 -07.6830 26255.4
 18 11 2013  06 21  -21.0159 26019.7 -03510.2 -07.6831 26255.4
 18 11 2013  06 22  -21.0160 26019.7 -03510.2 -07.6831 26255.4
 18 11 2013  06 23  -21.0163 26019.5 -03510.1 -07.6830 26255.2
 18 11 2013  06 24  -21.0168 26019.6 -03510.1 -07.6830 26255.3
 18 11 2013  06 25  -21.0171 26019.7 -03510.2 -07.6832 26255.4
 18 11 2013  06 26  -21.0171 26019.8 -03510.2 -07.6832 26255.5
 18 11 2013  06 27  -21.0172 26019.9 -03510.3 -07.6832 26255.6
 18 11 2013  06 28  -21.0175 26020.0 -03510.4 -07.6834 26255.8
 18 11 2013  06 29  -21.0176 26020.0 -03510.4 -07.6834 26255.8
 18 11 2013  06 30  -21.0178 26020.0 -03510.4 -07.6834 26255.8
 18 11 2013  06 31  -21.0179 26020.0 -03510.4 -07.6834 26255.7
 18 11 2013  06 32  -21.0179 26019.9 -03510.3 -07.6833 26255.7
 18 11 2013  06 33  -21.0180 26019.8 -03510.2 -07.6831 26255.5
 18 11 2013  06 34  -21.0180 26019.7 -03510.2 -07.6830 26255.4
 18 11 2013  06 35  -21.0181 26019.6 -03510.1 -07.6830 26255.3
 18 11 2013  06 36  -21.0181 26019.5 -03510.1 -07.6829 26255.2
 18 11 2013  06 37  -21.0183 26019.4 -03510.1 -07.6829 26255.1
 18 11 2013  06 38  -21.0186 26019.5 -03510.1 -07.6830 26255.2
 18 11 2013  06 39  -21.0190 26019.5 -03510.2 -07.6831 26255.2
 18 11 2013  06 40  -21.0194 26019.6 -03510.2 -07.6832 26255.3
 18 11 2013  06 41  -21.0200 26019.5 -03510.3 -07.6833 26255.2
 18 11 2013  06 42  -21.0205 26019.5 -03510.2 -07.6833 26255.2
 18 11 2013  06 43  -21.0209 26019.5 -03510.3 -07.6833 26255.2
 18 11 2013  06 44  -21.0209 26019.5 -03510.2 -07.6831 26255.2
 18 11 2013  06 45  -21.0205 26019.4 -03510.1 -07.6831 26255.1
 18 11 2013  06 46  -21.0204 26019.3 -03510.1 -07.6829 26255.0
 18 11 2013  06 47  -21.0203 26019.3 -03510.1 -07.6829 26255.0
 18 11 2013  06 48  -21.0203 26019.3 -03510.1 -07.6830 26255.0
 18 11 2013  06 49  -21.0205 26019.3 -03510.1 -07.6830 26255.0
 18 11 2013  06 50  -21.0206 26019.3 -03510.1 -07.6831 26255.0
 18 11 2013  06 51  -21.0208 26019.2 -03510.1 -07.6831 26254.9
 18 11 2013  06 52  -21.0210 26019.3 -03510.1 -07.6830 26254.9
 18 11 2013  06 53  -21.0211 26019.2 -03510.1 -07.6830 26254.9
 18 11 2013  06 54  -21.0213 26019.2 -03510.1 -07.6830 26254.9
 18 11 2013  06 55  -21.0214 26019.3 -03510.2 -07.6831 26255.0
 18 11 2013  06 56  -21.0214 26019.4 -03510.2 -07.6831 26255.1
 18 11 2013  06 57  -21.0217 26019.4 -03510.2 -07.6832 26255.1
 18 11 2013  06 58  -21.0218 26019.6 -03510.3 -07.6833 26255.3
 18 11 2013  06 59  -21.0221 26019.6 -03510.3 -07.6833 26255.3
 18 11 2013  07 00  -21.0223 26019.6 -03510.3 -07.6833 26255.3
 18 11 2013  07 01  -21.0223 26019.6 -03510.3 -07.6833 26255.4
 18 11 2013  07 02  -21.0223 26019.6 -03510.3 -07.6833 26255.3
 18 11 2013  07 03  -21.0222 26019.5 -03510.2 -07.6832 26255.2
 18 11 2013  07 04  -21.0221 26019.5 -03510.2 -07.6831 26255.2
 18 11 2013  07 05  -21.0220 26019.5 -03510.2 -07.6831 26255.2
 18 11 2013  07 06  -21.0219 26019.5 -03510.2 -07.6831 26255.2
 18 11 2013  07 07  -21.0218 26019.5 -03510.2 -07.6833 26255.3
 18 11 2013  07 08  -21.0217 26019.5 -03510.3 -07.6833 26255.3
 18 11 2013  07 09  -21.0213 26019.5 -03510.3 -07.6834 26255.3
 18 11 2013  07 10  -21.0208 26019.4 -03510.3 -07.6834 26255.2
 18 11 2013  07 11  -21.0204 26019.3 -03510.2 -07.6833 26255.0
 18 11 2013  07 12  -21.0201 26019.2 -03510.2 -07.6833 26254.9
 18 11 2013  07 13  -21.0197 26019.1 -03510.2 -07.6832 26254.8
 18 11 2013  07 14  -21.0194 26019.0 -03510.2 -07.6833 26254.7
 18 11 2013  07 15  -21.0193 26018.9 -03510.2 -07.6833 26254.6
 18 11 2013  07 16  -21.0191 26018.8 -03510.2 -07.6833 26254.5
 18 11 2013  07 17  -21.0191 26018.6 -03510.1 -07.6833 26254.3
 18 11 2013  07 18  -21.0191 26018.5 -03510.2 -07.6834 26254.2
 18 11 2013  07 19  -21.0192 26018.4 -03510.2 -07.6834 26254.1
 18 11 2013  07 20  -21.0194 26018.3 -03510.2 -07.6834 26254.0
 18 11 2013  07 21  -21.0200 26018.2 -03510.2 -07.6835 26253.9
 18 11 2013  07 22  -21.0205 26018.2 -03510.2 -07.6837 26253.9
 18 11 2013  07 23  -21.0212 26018.2 -03510.3 -07.6837 26253.9
 18 11 2013  07 24  -21.0217 26018.2 -03510.3 -07.6838 26253.9
 18 11 2013  07 25  -21.0218 26018.1 -03510.3 -07.6837 26253.9
 18 11 2013  07 26  -21.0219 26018.1 -03510.3 -07.6838 26253.8
 18 11 2013  07 27  -21.0218 26018.0 -03510.3 -07.6838 26253.8
 18 11 2013  07 28  -21.0218 26018.0 -03510.3 -07.6838 26253.7
 18 11 2013  07 29  -21.0220 26017.9 -03510.3 -07.6839 26253.7
 18 11 2013  07 30  -21.0222 26017.9 -03510.3 -07.6839 26253.6
 18 11 2013  07 31  -21.0224 26017.8 -03510.3 -07.6839 26253.6
 18 11 2013  07 32  -21.0226 26017.7 -03510.3 -07.6839 26253.5
 18 11 2013  07 33  -21.0229 26017.6 -03510.3 -07.6839 26253.3
 18 11 2013  07 34  -21.0231 26017.5 -03510.3 -07.6839 26253.3
 18 11 2013  07 35  -21.0234 26017.5 -03510.3 -07.6839 26253.2
 18 11 2013  07 36  -21.0237 26017.5 -03510.3 -07.6839 26253.2
 18 11 2013  07 37  -21.0237 26017.4 -03510.3 -07.6840 26253.1
 18 11 2013  07 38  -21.0238 26017.4 -03510.3 -07.6840 26253.1
 18 11 2013  07 39  -21.0238 26017.4 -03510.3 -07.6840 26253.2
 18 11 2013  07 40  -21.0237 26017.4 -03510.3 -07.6840 26253.1
 18 11 2013  07 41  -21.0237 26017.3 -03510.3 -07.6841 26253.1
 18 11 2013  07 42  -21.0238 26017.3 -03510.3 -07.6841 26253.0
 18 11 2013  07 43  -21.0237 26017.2 -03510.3 -07.6841 26253.0
 18 11 2013  07 44  -21.0238 26017.3 -03510.4 -07.6842 26253.0
 18 11 2013  07 45  -21.0236 26017.2 -03510.4 -07.6842 26253.0
 18 11 2013  07 46  -21.0234 26017.2 -03510.4 -07.6842 26253.0
 18 11 2013  07 47  -21.0232 26017.3 -03510.4 -07.6843 26253.0
 18 11 2013  07 48  -21.0233 26017.3 -03510.5 -07.6844 26253.0
 18 11 2013  07 49  -21.0235 26017.2 -03510.5 -07.6845 26253.0
 18 11 2013  07 50  -21.0237 26017.3 -03510.5 -07.6845 26253.1
 18 11 2013  07 51  -21.0239 26017.3 -03510.6 -07.6846 26253.1
 18 11 2013  07 52  -21.0240 26017.3 -03510.6 -07.6846 26253.1
 18 11 2013  07 53  -21.0241 26017.3 -03510.6 -07.6847 26253.1
 18 11 2013  07 54  -21.0241 26017.3 -03510.6 -07.6846 26253.0
 18 11 2013  07 55  -21.0243 26017.3 -03510.6 -07.6846 26253.1
 18 11 2013  07 56  -21.0245 26017.3 -03510.6 -07.6847 26253.1
 18 11 2013  07 57  -21.0244 26017.4 -03510.6 -07.6846 26253.2
 18 11 2013  07 58  -21.0246 26017.4 -03510.6 -07.6846 26253.2
 18 11 2013  07 59  -21.0247 26017.4 -03510.6 -07.6846 26253.2
 18 11 2013  08 00  -21.0248 26017.4 -03510.6 -07.6846 26253.2
 18 11 2013  08 01  -21.0248 26017.4 -03510.6 -07.6846 26253.2
 18 11 2013  08 02  -21.0248 26017.4 -03510.6 -07.6846 26253.2
 18 11 2013  08 03  -21.0248 26017.5 -03510.6 -07.6845 26253.2
 18 11 2013  08 04  -21.0250 26017.5 -03510.6 -07.6845 26253.2
 18 11 2013  08 05  -21.0250 26017.5 -03510.6 -07.6845 26253.3
 18 11 2013  08 06  -21.0251 26017.5 -03510.5 -07.6844 26253.2
 18 11 2013  08 07  -21.0253 26017.5 -03510.5 -07.6844 26253.3
 18 11 2013  08 08  -21.0253 26017.4 -03510.4 -07.6842 26253.2
 18 11 2013  08 09  -21.0252 26017.4 -03510.4 -07.6841 26253.2
 18 11 2013  08 10  -21.0252 26017.4 -03510.3 -07.6840 26253.1
 18 11 2013  08 11  -21.0250 26017.4 -03510.2 -07.6838 26253.1
 18 11 2013  08 12  -21.0249 26017.3 -03510.1 -07.6836 26253.0
 18 11 2013  08 13  -21.0248 26017.2 -03510.0 -07.6835 26252.9
 18 11 2013  08 14  -21.0246 26017.1 -03510.0 -07.6833 26252.8
 18 11 2013  08 15  -21.0245 26017.0 -03509.9 -07.6832 26252.7
 18 11 2013  08 16  -21.0244 26017.0 -03509.8 -07.6831 26252.7
 18 11 2013  08 17  -21.0245 26016.9 -03509.8 -07.6830 26252.6
 18 11 2013  08 18  -21.0245 26016.8 -03509.7 -07.6828 26252.5
 18 11 2013  08 19  -21.0246 26016.7 -03509.6 -07.6827 26252.4
 18 11 2013  08 20  -21.0247 26016.6 -03509.5 -07.6825 26252.3
 18 11 2013  08 21  -21.0243 26016.5 -03509.4 -07.6824 26252.2
 18 11 2013  08 22  -21.0238 26016.4 -03509.3 -07.6821 26252.0
 18 11 2013  08 23  -21.0232 26016.3 -03509.2 -07.6819 26251.9
 18 11 2013  08 24  -21.0225 26016.1 -03509.0 -07.6815 26251.7
 18 11 2013  08 25  -21.0221 26015.9 -03509.0 -07.6817 26251.5
 18 11 2013  08 26  -21.0216 26015.8 -03509.0 -07.6817 26251.4
 18 11 2013  08 27  -21.0213 26015.6 -03509.0 -07.6817 26251.2
 18 11 2013  08 28  -21.0208 26015.4 -03509.0 -07.6818 26251.0
 18 11 2013  08 29  -21.0201 26015.2 -03509.0 -07.6819 26250.8
 18 11 2013  08 30  -21.0196 26015.1 -03509.1 -07.6821 26250.7
 18 11 2013  08 31  -21.0190 26015.0 -03509.2 -07.6823 26250.6
 18 11 2013  08 32  -21.0184 26014.7 -03509.3 -07.6825 26250.3
 18 11 2013  08 33  -21.0178 26014.6 -03509.4 -07.6828 26250.2
 18 11 2013  08 34  -21.0174 26014.5 -03509.5 -07.6832 26250.2
 18 11 2013  08 35  -21.0169 26014.4 -03509.7 -07.6836 26250.1
 18 11 2013  08 36  -21.0166 26014.4 -03509.9 -07.6841 26250.1
 18 11 2013  08 37  -21.0162 26014.3 -03510.1 -07.6844 26250.1
 18 11 2013  08 38  -21.0159 26014.1 -03510.2 -07.6847 26249.9
 18 11 2013  08 39  -21.0155 26014.0 -03510.3 -07.6850 26249.8
 18 11 2013  08 40  -21.0153 26013.9 -03510.5 -07.6854 26249.7
 18 11 2013  08 41  -21.0152 26013.9 -03510.6 -07.6857 26249.7
 18 11 2013  08 42  -21.0151 26013.9 -03510.8 -07.6861 26249.7
 18 11 2013  08 43  -21.0153 26013.8 -03511.1 -07.6867 26249.7
 18 11 2013  08 44  -21.0155 26013.8 -03511.2 -07.6870 26249.7
 18 11 2013  08 45  -21.0158 26013.9 -03511.5 -07.6876 26249.8
 18 11 2013  08 46  -21.0162 26014.0 -03511.8 -07.6882 26249.9
 18 11 2013  08 47  -21.0168 26014.1 -03512.0 -07.6887 26250.1
 18 11 2013  08 48  -21.0171 26014.1 -03512.2 -07.6890 26250.1
 18 11 2013  08 49  -21.0177 26014.0 -03512.3 -07.6894 26250.0
 18 11 2013  08 50  -21.0177 26014.0 -03512.4 -07.6895 26250.1
 18 11 2013  08 51  -21.0177 26014.0 -03512.5 -07.6898 26250.1
 18 11 2013  08 52  -21.0180 26014.0 -03512.7 -07.6901 26250.1
 18 11 2013  08 53  -21.0179 26013.9 -03512.8 -07.6904 26250.1
 18 11 2013  08 54  -21.0182 26014.0 -03513.0 -07.6909 26250.2
 18 11 2013  08 55  -21.0181 26014.1 -03513.3 -07.6914 26250.3
 18 11 2013  08 56  -21.0183 26014.3 -03513.5 -07.6918 26250.5
 18 11 2013  08 57  -21.0182 26014.2 -03513.6 -07.6921 26250.4
 18 11 2013  08 58  -21.0182 26014.2 -03513.8 -07.6925 26250.5
 18 11 2013  08 59  -21.0185 26014.4 -03514.0 -07.6929 26250.7
 18 11 2013  09 00  -21.0186 26014.5 -03514.3 -07.6935 26250.8
 18 11 2013  09 01  -21.0191 26014.6 -03514.5 -07.6939 26251.0
 18 11 2013  09 02  -21.0193 26014.7 -03514.7 -07.6944 26251.1
 18 11 2013  09 03  -21.0201 26015.0 -03515.0 -07.6949 26251.4
 18 11 2013  09 04  -21.0208 26015.3 -03515.3 -07.6954 26251.7
 18 11 2013  09 05  -21.0215 26015.5 -03515.4 -07.6957 26252.0
 18 11 2013  09 06  -21.0222 26015.9 -03515.7 -07.6961 26252.3
 18 11 2013  09 07  -21.0227 26016.1 -03515.8 -07.6963 26252.6
 18 11 2013  09 08  -21.0233 26016.3 -03515.9 -07.6965 26252.8
 18 11 2013  09 09  -21.0239 26016.5 -03516.0 -07.6967 26253.0
 18 11 2013  09 10  -21.0242 26016.6 -03516.1 -07.6968 26253.1
 18 11 2013  09 11  -21.0247 26016.7 -03516.0 -07.6966 26253.2
 18 11 2013  09 12  -21.0253 26016.7 -03516.0 -07.6965 26253.2
 18 11 2013  09 13  -21.0256 26016.9 -03516.3 -07.6971 26253.4
 18 11 2013  09 14  -21.0263 26016.9 -03516.5 -07.6975 26253.5
 18 11 2013  09 15  -21.0268 26017.0 -03516.6 -07.6977 26253.6
 18 11 2013  09 16  -21.0272 26017.1 -03516.7 -07.6979 26253.7
 18 11 2013  09 17  -21.0275 26017.2 -03516.8 -07.6981 26253.8
 18 11 2013  09 18  -21.0278 26017.3 -03516.9 -07.6984 26254.0
 18 11 2013  09 19  -21.0282 26017.5 -03517.1 -07.6986 26254.1
 18 11 2013  09 20  -21.0286 26017.6 -03517.2 -07.6989 26254.3
 18 11 2013  09 21  -21.0289 26017.8 -03517.3 -07.6991 26254.4
 18 11 2013  09 22  -21.0291 26017.8 -03517.5 -07.6994 26254.5
 18 11 2013  09 23  -21.0292 26017.8 -03517.5 -07.6994 26254.5
 18 11 2013  09 24  -21.0294 26017.8 -03517.6 -07.6996 26254.5
 18 11 2013  09 25  -21.0293 26017.8 -03517.7 -07.6999 26254.5
 18 11 2013  09 26  -21.0293 26017.8 -03517.8 -07.7001 26254.5
 18 11 2013  09 27  -21.0294 26017.8 -03517.9 -07.7004 26254.5
 18 11 2013  09 28  -21.0296 26017.8 -03518.1 -07.7007 26254.6
 18 11 2013  09 29  -21.0300 26017.9 -03518.3 -07.7011 26254.7
 18 11 2013  09 30  -21.0303 26018.0 -03518.5 -07.7015 26254.8
 18 11 2013  09 31  -21.0307 26018.2 -03518.7 -07.7019 26255.0
 18 11 2013  09 32  -21.0310 26018.3 -03518.8 -07.7022 26255.2
 18 11 2013  09 33  -21.0312 26018.4 -03519.0 -07.7025 26255.3
 18 11 2013  09 34  -21.0316 26018.5 -03519.2 -07.7029 26255.4
 18 11 2013  09 35  -21.0319 26018.6 -03519.3 -07.7032 26255.6
 18 11 2013  09 36  -21.0324 26018.7 -03519.5 -07.7035 26255.7
 18 11 2013  09 37  -21.0328 26018.9 -03519.6 -07.7038 26255.8
 18 11 2013  09 38  -21.0331 26018.9 -03519.8 -07.7041 26255.9
 18 11 2013  09 39  -21.0335 26018.9 -03519.9 -07.7044 26255.9
 18 11 2013  09 40  -21.0336 26018.9 -03520.0 -07.7046 26255.9
 18 11 2013  09 41  -21.0337 26018.7 -03520.2 -07.7050 26255.8
 18 11 2013  09 42  -21.0338 26018.7 -03520.3 -07.7053 26255.8
 18 11 2013  09 43  -21.0341 26018.8 -03520.6 -07.7059 26255.9
 18 11 2013  09 44  -21.0344 26019.0 -03520.9 -07.7063 26256.2
 18 11 2013  09 45  -21.0349 26019.3 -03521.1 -07.7068 26256.4
 18 11 2013  09 46  -21.0354 26019.4 -03521.3 -07.7072 26256.6
 18 11 2013  09 47  -21.0358 26019.6 -03521.5 -07.7075 26256.8
 18 11 2013  09 48  -21.0362 26019.8 -03521.6 -07.7078 26257.0
 18 11 2013  09 49  -21.0367 26020.1 -03521.8 -07.7082 26257.3
 18 11 2013  09 50  -21.0372 26020.2 -03522.0 -07.7085 26257.5
 18 11 2013  09 51  -21.0376 26020.5 -03522.2 -07.7088 26257.8
 18 11 2013  09 52  -21.0380 26020.6 -03522.3 -07.7091 26258.0
 18 11 2013  09 53  -21.0383 26020.9 -03522.5 -07.7094 26258.2
 18 11 2013  09 54  -21.0383 26020.8 -03522.6 -07.7095 26258.2
 18 11 2013  09 55  -21.0385 26020.9 -03522.7 -07.7098 26258.2
 18 11 2013  09 56  -21.0387 26021.0 -03522.9 -07.7102 26258.4
 18 11 2013  09 57  -21.0388 26021.2 -03523.1 -07.7105 26258.6
 18 11 2013  09 58  -21.0392 26021.3 -03523.3 -07.7110 26258.8
 18 11 2013  09 59  -21.0395 26021.6 -03523.6 -07.7114 26259.1
 18 11 2013  10 00  -21.0400 26021.9 -03523.8 -07.7119 26259.4
 18 11 2013  10 01  -21.0405 26022.3 -03524.1 -07.7123 26259.9
 18 11 2013  10 02  -21.0410 26022.8 -03524.3 -07.7127 26260.3
 18 11 2013  10 03  -21.0415 26023.2 -03524.5 -07.7131 26260.8
 18 11 2013  10 04  -21.0421 26023.6 -03524.8 -07.7134 26261.2
 18 11 2013  10 05  -21.0428 26024.0 -03524.9 -07.7137 26261.6
 18 11 2013  10 06  -21.0434 26024.4 -03525.1 -07.7139 26262.0
 18 11 2013  10 07  -21.0441 26024.8 -03525.3 -07.7142 26262.5
 18 11 2013  10 08  -21.0447 26025.1 -03525.4 -07.7143 26262.8
 18 11 2013  10 09  -21.0454 26025.5 -03525.5 -07.7145 26263.2
 18 11 2013  10 10  -21.0457 26025.7 -03525.5 -07.7145 26263.4
 18 11 2013  10 11  -21.0461 26025.8 -03525.6 -07.7147 26263.6
 18 11 2013  10 12  -21.0461 26025.9 -03525.6 -07.7147 26263.6
 18 11 2013  10 13  -21.0465 26025.9 -03525.7 -07.7149 26263.7
 18 11 2013  10 14  -21.0471 26026.1 -03525.9 -07.7151 26263.9
 18 11 2013  10 15  -21.0475 26026.4 -03526.0 -07.7153 26264.1
 18 11 2013  10 16  -21.0481 26026.7 -03526.1 -07.7155 26264.4
 18 11 2013  10 17  -21.0485 26026.8 -03526.2 -07.7157 26264.6
 18 11 2013  10 18  -21.0489 26026.8 -03526.2 -07.7157 26264.6
 18 11 2013  10 19  -21.0493 26026.9 -03526.3 -07.7158 26264.7
 18 11 2013  10 20  -21.0496 26027.0 -03526.3 -07.7159 26264.8
 18 11 2013  10 21  -21.0499 26027.0 -03526.4 -07.7160 26264.8
 18 11 2013  10 22  -21.0505 26027.2 -03526.5 -07.7162 26265.0
 18 11 2013  10 23  -21.0508 26027.3 -03526.6 -07.7163 26265.1
 18 11 2013  10 24  -21.0513 26027.2 -03526.6 -07.7164 26265.1
 18 11 2013  10 25  -21.0516 26027.1 -03526.6 -07.7165 26265.0
 18 11 2013  10 26  -21.0518 26027.1 -03526.7 -07.7166 26265.0
 18 11 2013  10 27  -21.0521 26027.2 -03526.8 -07.7168 26265.1
 18 11 2013  10 28  -21.0523 26027.4 -03526.9 -07.7170 26265.3
 18 11 2013  10 29  -21.0526 26027.6 -03527.1 -07.7173 26265.5
 18 11 2013  10 30  -21.0529 26027.9 -03527.3 -07.7176 26265.8
 18 11 2013  10 31  -21.0533 26028.3 -03527.4 -07.7179 26266.2
 18 11 2013  10 32  -21.0535 26028.6 -03527.5 -07.7180 26266.6
 18 11 2013  10 33  -21.0540 26028.9 -03527.6 -07.7181 26266.9
 18 11 2013  10 34  -21.0544 26029.2 -03527.7 -07.7183 26267.1
 18 11 2013  10 35  -21.0549 26029.4 -03527.8 -07.7183 26267.4
 18 11 2013  10 36  -21.0554 26029.7 -03527.8 -07.7183 26267.7
 18 11 2013  10 37  -21.0559 26030.0 -03527.9 -07.7184 26268.0
 18 11 2013  10 38  -21.0564 26030.4 -03528.0 -07.7184 26268.4
 18 11 2013  10 39  -21.0569 26030.6 -03528.0 -07.7184 26268.6
 18 11 2013  10 40  -21.0576 26030.8 -03528.0 -07.7183 26268.8
 18 11 2013  10 41  -21.0581 26031.1 -03528.0 -07.7183 26269.1
 18 11 2013  10 42  -21.0585 26031.3 -03528.0 -07.7181 26269.3
 18 11 2013  10 43  -21.0590 26031.6 -03527.9 -07.7180 26269.5
 18 11 2013  10 44  -21.0595 26031.7 -03527.9 -07.7178 26269.6
 18 11 2013  10 45  -21.0601 26031.8 -03527.8 -07.7177 26269.8
 18 11 2013  10 46  -21.0607 26031.9 -03527.8 -07.7177 26269.9
 18 11 2013  10 47  -21.0613 26032.1 -03527.8 -07.7175 26270.0
 18 11 2013  10 48  -21.0617 26032.2 -03527.8 -07.7174 26270.2
 18 11 2013  10 49  -21.0621 26032.3 -03527.7 -07.7173 26270.2
 18 11 2013  10 50  -21.0627 26032.5 -03527.6 -07.7171 26270.4
 18 11 2013  10 51  -21.0629 26032.7 -03527.7 -07.7171 26270.6
 18 11 2013  10 52  -21.0635 26033.0 -03527.7 -07.7170 26271.0
 18 11 2013  10 53  -21.0640 26033.3 -03527.7 -07.7170 26271.2
 18 11 2013  10 54  -21.0645 26033.8 -03527.8 -07.7170 26271.8
 18 11 2013  10 55  -21.0650 26034.1 -03527.7 -07.7168 26272.0
 18 11 2013  10 56  -21.0653 26034.3 -03527.6 -07.7165 26272.2
 18 11 2013  10 57  -21.0657 26034.7 -03527.6 -07.7164 26272.6
 18 11 2013  10 58  -21.0663 26035.0 -03527.6 -07.7162 26272.9
 18 11 2013  10 59  -21.0667 26035.3 -03527.5 -07.7160 26273.2
 18 11 2013  11 00  -21.0671 26035.6 -03527.4 -07.7157 26273.5
 18 11 2013  11 01  -21.0673 26036.1 -03527.4 -07.7155 26274.0
 18 11 2013  11 02  -21.0676 26036.4 -03527.3 -07.7153 26274.3
 18 11 2013  11 03  -21.0680 26036.8 -03527.2 -07.7149 26274.6
 18 11 2013  11 04  -21.0683 26037.1 -03527.1 -07.7146 26274.9
 18 11 2013  11 05  -21.0685 26037.1 -03526.9 -07.7141 26274.9
 18 11 2013  11 06  -21.0687 26037.5 -03526.9 -07.7139 26275.3
 18 11 2013  11 07  -21.0691 26037.6 -03526.7 -07.7135 26275.3
 18 11 2013  11 08  -21.0692 26037.7 -03526.6 -07.7133 26275.5
 18 11 2013  11 09  -21.0692 26038.0 -03526.5 -07.7130 26275.8
 18 11 2013  11 10  -21.0696 26038.1 -03526.3 -07.7127 26275.8
 18 11 2013  11 11  -21.0695 26038.5 -03526.3 -07.7125 26276.2
 18 11 2013  11 12  -21.0696 26038.6 -03526.2 -07.7121 26276.3
 18 11 2013  11 13  -21.0695 26038.7 -03526.1 -07.7118 26276.4
 18 11 2013  11 14  -21.0694 26039.0 -03526.1 -07.7117 26276.7
 18 11 2013  11 15  -21.0697 26039.4 -03526.0 -07.7116 26277.0
 18 11 2013  11 16  -21.0697 26039.8 -03526.0 -07.7114 26277.5
 18 11 2013  11 17  -21.0698 26039.9 -03525.8 -07.7110 26277.5
 18 11 2013  11 18  -21.0697 26040.1 -03525.7 -07.7107 26277.7
 18 11 2013  11 19  -21.0697 26040.5 -03525.7 -07.7106 26278.0
 18 11 2013  11 20  -21.0698 26040.9 -03525.7 -07.7105 26278.5
 18 11 2013  11 21  -21.0695 26041.4 -03525.6 -07.7102 26278.9
 18 11 2013  11 22  -21.0687 26041.9 -03525.5 -07.7097 26279.5
 18 11 2013  11 23  -21.0689 26042.2 -03525.4 -07.7093 26279.7
 18 11 2013  11 24  -21.0691 26042.7 -03525.4 -07.7093 26280.2
 18 11 2013  11 25  -21.0691 26043.2 -03525.4 -07.7091 26280.7
 18 11 2013  11 26  -21.0691 26043.5 -03525.3 -07.7088 26281.1
 18 11 2013  11 27  -21.0684 26044.2 -03525.0 -07.7080 26281.7
 18 11 2013  11 28  -21.0690 26044.3 -03525.2 -07.7083 26281.8
 18 11 2013  11 29  -21.0692 26044.6 -03525.1 -07.7081 26282.1
 18 11 2013  11 30  -21.0690 26045.0 -03525.1 -07.7079 26282.4
 18 11 2013  11 31  -21.0692 26045.2 -03525.0 -07.7076 26282.7
 18 11 2013  11 32  -21.0694 26045.6 -03524.9 -07.7074 26283.0
 18 11 2013  11 33  -21.0695 26046.1 -03524.9 -07.7073 26283.5
 18 11 2013  11 34  -21.0697 26046.5 -03524.9 -07.7071 26283.9
 18 11 2013  11 35  -21.0698 26046.8 -03524.8 -07.7068 26284.2
 18 11 2013  11 36  -21.0702 26047.0 -03524.7 -07.7064 26284.3
 18 11 2013  11 37  -21.0707 26047.2 -03524.6 -07.7062 26284.6
 18 11 2013  11 38  -21.0711 26047.5 -03524.5 -07.7060 26284.9
 18 11 2013  11 39  -21.0715 26048.0 -03524.5 -07.7058 26285.4
 18 11 2013  11 40  -21.0717 26048.3 -03524.4 -07.7054 26285.7
 18 11 2013  11 41  -21.0720 26048.6 -03524.3 -07.7051 26286.0
 18 11 2013  11 42  -21.0723 26049.0 -03524.2 -07.7048 26286.4
 18 11 2013  11 43  -21.0724 26049.1 -03523.9 -07.7042 26286.4
 18 11 2013  11 44  -21.0725 26049.3 -03523.8 -07.7039 26286.6
 18 11 2013  11 45  -21.0726 26049.7 -03523.8 -07.7038 26287.0
 18 11 2013  11 46  -21.0725 26049.4 -03523.5 -07.7032 26286.6
 18 11 2013  11 47  -21.0726 26049.3 -03523.3 -07.7028 26286.5
 18 11 2013  11 48  -21.0729 26049.2 -03523.2 -07.7025 26286.4
 18 11 2013  11 49  -21.0729 26049.2 -03523.1 -07.7023 26286.4
 18 11 2013  11 50  -21.0729 26049.2 -03523.0 -07.7021 26286.3
 18 11 2013  11 51  -21.0729 26049.4 -03522.9 -07.7019 26286.5
 18 11 2013  11 52  -21.0728 26049.5 -03522.9 -07.7018 26286.6
 18 11 2013  11 53  -21.0728 26049.4 -03522.8 -07.7016 26286.5
 18 11 2013  11 54  -21.0727 26049.5 -03522.7 -07.7014 26286.6
 18 11 2013  11 55  -21.0728 26049.7 -03522.7 -07.7013 26286.8
 18 11 2013  11 56  -21.0731 26050.2 -03522.8 -07.7014 26287.3
 18 11 2013  11 57  -21.0735 26050.7 -03522.8 -07.7014 26287.8
 18 11 2013  11 58  -21.0738 26051.3 -03522.9 -07.7012 26288.4
 18 11 2013  11 59  -21.0742 26051.8 -03522.9 -07.7011 26288.9
 18 11 2013  12 00  -21.0744 26052.4 -03522.8 -07.7009 26289.5
 18 11 2013  12 01  -21.0745 26052.9 -03522.8 -07.7006 26290.0
 18 11 2013  12 02  -21.0746 26053.3 -03522.6 -07.7001 26290.3
 18 11 2013  12 03  -21.0748 26053.7 -03522.5 -07.6998 26290.8
 18 11 2013  12 04  -21.0752 26054.1 -03522.4 -07.6995 26291.1
 18 11 2013  12 05  -21.0756 26054.5 -03522.4 -07.6992 26291.6
 18 11 2013  12 06  -21.0757 26055.0 -03522.3 -07.6990 26292.0
 18 11 2013  12 07  -21.0758 26055.5 -03522.2 -07.6986 26292.5
 18 11 2013  12 08  -21.0758 26056.1 -03522.1 -07.6983 26293.0
 18 11 2013  12 09  -21.0759 26056.5 -03522.0 -07.6978 26293.4
 18 11 2013  12 10  -21.0761 26056.9 -03521.8 -07.6974 26293.8
 18 11 2013  12 11  -21.0764 26057.3 -03521.7 -07.6971 26294.2
 18 11 2013  12 12  -21.0768 26057.8 -03521.7 -07.6968 26294.7
 18 11 2013  12 13  -21.0771 26058.4 -03521.6 -07.6964 26295.3
 18 11 2013  12 14  -21.0773 26058.8 -03521.4 -07.6958 26295.7
 18 11 2013  12 15  -21.0772 26059.0 -03521.1 -07.6952 26295.8
 18 11 2013  12 16  -21.0771 26059.3 -03520.9 -07.6947 26296.1
 18 11 2013  12 17  -21.0770 26059.7 -03520.8 -07.6944 26296.5
 18 11 2013  12 18  -21.0772 26060.2 -03520.7 -07.6940 26296.9
 18 11 2013  12 19  -21.0775 26060.5 -03520.6 -07.6936 26297.3
 18 11 2013  12 20  -21.0776 26061.1 -03520.5 -07.6933 26297.8
 18 11 2013  12 21  -21.0782 26061.5 -03520.4 -07.6929 26298.2
 18 11 2013  12 22  -21.0786 26061.9 -03520.2 -07.6925 26298.6
 18 11 2013  12 23  -21.0791 26062.2 -03520.1 -07.6921 26298.8
 18 11 2013  12 24  -21.0794 26062.1 -03519.8 -07.6914 26298.7
 18 11 2013  12 25  -21.0793 26062.4 -03519.6 -07.6910 26299.0
 18 11 2013  12 26  -21.0794 26062.9 -03519.6 -07.6908 26299.5
 18 11 2013  12 27  -21.0798 26063.4 -03519.5 -07.6905 26299.9
 18 11 2013  12 28  -21.0801 26064.0 -03519.5 -07.6904 26300.6
 18 11 2013  12 29  -21.0806 26064.5 -03519.5 -07.6901 26301.0
 18 11 2013  12 30  -21.0809 26064.9 -03519.3 -07.6897 26301.4
 18 11 2013  12 31  -21.0813 26065.4 -03519.3 -07.6894 26301.9
 18 11 2013  12 32  -21.0817 26065.9 -03519.2 -07.6890 26302.4
 18 11 2013  12 33  -21.0820 26066.2 -03519.0 -07.6886 26302.7
 18 11 2013  12 34  -21.0822 26066.5 -03518.8 -07.6881 26303.0
 18 11 2013  12 35  -21.0828 26066.8 -03518.7 -07.6878 26303.2
 18 11 2013  12 36  -21.0831 26067.1 -03518.7 -07.6876 26303.5
 18 11 2013  12 37  -21.0833 26067.5 -03518.6 -07.6873 26303.9
 18 11 2013  12 38  -21.0839 26068.0 -03518.7 -07.6873 26304.5
 18 11 2013  12 39  -21.0843 26068.7 -03518.7 -07.6872 26305.1
 18 11 2013  12 40  -21.0849 26069.5 -03518.8 -07.6871 26305.9
 18 11 2013  12 41  -21.0854 26070.2 -03518.7 -07.6868 26306.6
 18 11 2013  12 42  -21.0859 26070.8 -03518.6 -07.6864 26307.2
 18 11 2013  12 43  -21.0864 26071.2 -03518.5 -07.6859 26307.6
 18 11 2013  12 44  -21.0868 26071.6 -03518.3 -07.6855 26308.0
 18 11 2013  12 45  -21.0871 26071.9 -03518.2 -07.6851 26308.2
 18 11 2013  12 46  -21.0874 26072.2 -03518.0 -07.6847 26308.5
 18 11 2013  12 47  -21.0877 26072.6 -03517.9 -07.6843 26308.8
 18 11 2013  12 48  -21.0879 26073.0 -03517.8 -07.6841 26309.2
 18 11 2013  12 49  -21.0883 26073.4 -03517.7 -07.6837 26309.6
 18 11 2013  12 50  -21.0887 26073.8 -03517.7 -07.6835 26310.0
 18 11 2013  12 51  -21.0890 26074.3 -03517.6 -07.6832 26310.5
 18 11 2013  12 52  -21.0891 26074.8 -03517.5 -07.6829 26311.0
 18 11 2013  12 53  -21.0891 26075.1 -03517.4 -07.6824 26311.3
 18 11 2013  12 54  -21.0891 26075.7 -03517.3 -07.6821 26311.8
 18 11 2013  12 55  -21.0895 26076.1 -03517.2 -07.6817 26312.3
 18 11 2013  12 56  -21.0901 26076.3 -03517.0 -07.6813 26312.4
 18 11 2013  12 57  -21.0906 26076.7 -03516.8 -07.6808 26312.7
 18 11 2013  12 58  -21.0909 26077.0 -03516.7 -07.6804 26313.1
 18 11 2013  12 59  -21.0910 26077.3 -03516.5 -07.6799 26313.3
 18 11 2013  13 00  -21.0910 26077.7 -03516.3 -07.6794 26313.7
 18 11 2013  13 01  -21.0911 26077.9 -03516.1 -07.6788 26313.8
 18 11 2013  13 02  -21.0916 26078.3 -03516.0 -07.6785 26314.2
 18 11 2013  13 03  -21.0918 26078.8 -03515.9 -07.6781 26314.7
 18 11 2013  13 04  -21.0921 26079.1 -03515.8 -07.6778 26315.0
 18 11 2013  13 05  -21.0925 26079.7 -03515.7 -07.6775 26315.6
 18 11 2013  13 06  -21.0928 26080.3 -03515.6 -07.6770 26316.2
 18 11 2013  13 07  -21.0930 26080.8 -03515.4 -07.6765 26316.7
 18 11 2013  13 08  -21.0933 26081.3 -03515.1 -07.6758 26317.1
 18 11 2013  13 09  -21.0938 26081.8 -03514.9 -07.6753 26317.6
 18 11 2013  13 10  -21.0942 26082.1 -03514.7 -07.6746 26317.9
 18 11 2013  13 11  -21.0947 26082.2 -03514.2 -07.6737 26317.8
 18 11 2013  13 12  -21.0949 26082.6 -03514.0 -07.6731 26318.2
 18 11 2013  13 13  -21.0952 26083.0 -03513.8 -07.6725 26318.6
 18 11 2013  13 14  -21.0953 26083.2 -03513.5 -07.6718 26318.7
 18 11 2013  13 15  -21.0952 26083.1 -03513.1 -07.6709 26318.6
 18 11 2013  13 16  -21.0949 26083.1 -03512.7 -07.6700 26318.6
 18 11 2013  13 17  -21.0948 26083.4 -03512.5 -07.6694 26318.8
 18 11 2013  13 18  -21.0949 26083.8 -03512.3 -07.6690 26319.2
 18 11 2013  13 19  -21.0949 26084.1 -03512.1 -07.6685 26319.5
 18 11 2013  13 20  -21.0954 26084.7 -03512.0 -07.6682 26320.1
 18 11 2013  13 21  -21.0956 26085.2 -03511.8 -07.6675 26320.5
 18 11 2013  13 22  -21.0953 26085.5 -03511.5 -07.6668 26320.8
 18 11 2013  13 23  -21.0951 26085.9 -03511.2 -07.6661 26321.1
 18 11 2013  13 24  -21.0950 26086.4 -03511.0 -07.6654 26321.6
 18 11 2013  13 25  -21.0952 26087.0 -03510.8 -07.6648 26322.2
 18 11 2013  13 26  -21.0955 26087.6 -03510.6 -07.6643 26322.8
 18 11 2013  13 27  -21.0958 26088.2 -03510.4 -07.6635 26323.3
 18 11 2013  13 28  -21.0961 26089.0 -03510.1 -07.6628 26324.0
 18 11 2013  13 29  -21.0963 26089.4 -03509.8 -07.6619 26324.4
 18 11 2013  13 30  -21.0964 26089.9 -03509.4 -07.6610 26324.8
 18 11 2013  13 31  -21.0961 26090.2 -03509.1 -07.6601 26325.2
 18 11 2013  13 32  -21.0958 26090.4 -03508.6 -07.6591 26325.2
 18 11 2013  13 33  -21.0957 26090.4 -03508.2 -07.6582 26325.3
 18 11 2013  13 34  -21.0955 26090.7 -03507.8 -07.6574 26325.4
 18 11 2013  13 35  -21.0954 26090.8 -03507.5 -07.6565 26325.5
 18 11 2013  13 36  -21.0953 26091.0 -03507.2 -07.6558 26325.6
 18 11 2013  13 37  -21.0951 26091.1 -03506.8 -07.6550 26325.7
 18 11 2013  13 38  -21.0950 26091.3 -03506.4 -07.6542 26325.8
 18 11 2013  13 39  -21.0948 26091.3 -03506.1 -07.6533 26325.8
 18 11 2013  13 40  -21.0944 26091.4 -03505.7 -07.6525 26325.8
 18 11 2013  13 41  -21.0942 26091.6 -03505.4 -07.6518 26326.0
 18 11 2013  13 42  -21.0941 26091.8 -03505.1 -07.6511 26326.2
 18 11 2013  13 43  -21.0939 26092.0 -03504.8 -07.6504 26326.4
 18 11 2013  13 44  -21.0936 26092.3 -03504.5 -07.6497 26326.6
 18 11 2013  13 45  -21.0933 26092.5 -03504.2 -07.6490 26326.8
 18 11 2013  13 46  -21.0929 26092.6 -03503.8 -07.6482 26326.8
 18 11 2013  13 47  -21.0925 26092.8 -03503.6 -07.6476 26327.0
 18 11 2013  13 48  -21.0921 26093.1 -03503.3 -07.6468 26327.2
 18 11 2013  13 49  -21.0917 26093.4 -03503.1 -07.6464 26327.5
 18 11 2013  13 50  -21.0915 26093.8 -03502.9 -07.6457 26327.9
 18 11 2013  13 51  -21.0913 26094.4 -03502.7 -07.6452 26328.4
 18 11 2013  13 52  -21.0911 26094.9 -03502.5 -07.6445 26329.0
 18 11 2013  13 53  -21.0908 26095.5 -03502.2 -07.6438 26329.5
 18 11 2013  13 54  -21.0906 26096.2 -03502.0 -07.6431 26330.1
 18 11 2013  13 55  -21.0903 26096.6 -03501.6 -07.6422 26330.5
 18 11 2013  13 56  -21.0900 26096.9 -03501.2 -07.6413 26330.8
 18 11 2013  13 57  -21.0895 26097.2 -03500.8 -07.6403 26331.0
 18 11 2013  13 58  -21.0890 26097.6 -03500.4 -07.6394 26331.3
 18 11 2013  13 59  -21.0886 26098.1 -03500.1 -07.6385 26331.7
 18 11 2013  14 00  -21.0882 26098.5 -03499.7 -07.6376 26332.1
 18 11 2013  14 01  -21.0878 26099.0 -03499.4 -07.6368 26332.6
 18 11 2013  14 02  -21.0873 26099.5 -03499.1 -07.6359 26333.1
 18 11 2013  14 03  -21.0868 26100.0 -03498.7 -07.6349 26333.4
 18 11 2013  14 04  -21.0864 26100.4 -03498.3 -07.6340 26333.8
 18 11 2013  14 05  -21.0858 26100.8 -03497.9 -07.6329 26334.1
 18 11 2013  14 06  -21.0851 26101.0 -03497.4 -07.6319 26334.2
 18 11 2013  14 07  -21.0844 26101.2 -03496.9 -07.6308 26334.4
 18 11 2013  14 08  -21.0839 26101.5 -03496.5 -07.6298 26334.6
 18 11 2013  14 09  -21.0835 26101.7 -03496.0 -07.6287 26334.8
 18 11 2013  14 10  -21.0829 26101.8 -03495.6 -07.6276 26334.8
 18 11 2013  14 11  -21.0824 26102.0 -03495.1 -07.6265 26334.9
 18 11 2013  14 12  -21.0817 26102.2 -03494.6 -07.6256 26335.1
 18 11 2013  14 13  -21.0811 26102.4 -03494.2 -07.6245 26335.3
 18 11 2013  14 14  -21.0801 26102.6 -03493.7 -07.6235 26335.4
 18 11 2013  14 15  -21.0792 26102.9 -03493.4 -07.6226 26335.6
 18 11 2013  14 16  -21.0783 26103.0 -03492.8 -07.6215 26335.7
 18 11 2013  14 17  -21.0774 26103.2 -03492.4 -07.6205 26335.8
 18 11 2013  14 18  -21.0765 26103.1 -03492.0 -07.6195 26335.7
 18 11 2013  14 19  -21.0755 26103.2 -03491.5 -07.6186 26335.7
 18 11 2013  14 20  -21.0745 26103.2 -03491.1 -07.6177 26335.7
 18 11 2013  14 21  -21.0733 26103.2 -03490.7 -07.6168 26335.6
 18 11 2013  14 22  -21.0722 26103.2 -03490.4 -07.6161 26335.6
 18 11 2013  14 23  -21.0713 26103.3 -03490.0 -07.6154 26335.5
 18 11 2013  14 24  -21.0706 26103.5 -03489.8 -07.6147 26335.7
 18 11 2013  14 25  -21.0696 26103.6 -03489.4 -07.6139 26335.8
 18 11 2013  14 26  -21.0686 26103.6 -03489.1 -07.6132 26335.7
 18 11 2013  14 27  -21.0677 26103.7 -03488.8 -07.6125 26335.8
 18 11 2013  14 28  -21.0670 26103.9 -03488.5 -07.6118 26335.9
 18 11 2013  14 29  -21.0661 26104.2 -03488.2 -07.6111 26336.2
 18 11 2013  14 30  -21.0650 26104.4 -03487.9 -07.6105 26336.4
 18 11 2013  14 31  -21.0639 26104.5 -03487.6 -07.6096 26336.5
 18 11 2013  14 32  -21.0629 26104.5 -03487.2 -07.6089 26336.3
 18 11 2013  14 33  -21.0617 26104.5 -03486.9 -07.6081 26336.4
 18 11 2013  14 34  -21.0607 26104.6 -03486.6 -07.6076 26336.5
 18 11 2013  14 35  -21.0596 26104.6 -03486.3 -07.6069 26336.4
 18 11 2013  14 36  -21.0585 26104.7 -03486.0 -07.6063 26336.4
 18 11 2013  14 37  -21.0573 26104.6 -03485.7 -07.6056 26336.3
 18 11 2013  14 38  -21.0564 26104.7 -03485.5 -07.6051 26336.4
 18 11 2013  14 39  -21.0556 26104.8 -03485.3 -07.6046 26336.5
 18 11 2013  14 40  -21.0550 26104.8 -03485.0 -07.6040 26336.4
 18 11 2013  14 41  -21.0541 26104.6 -03484.6 -07.6033 26336.1
 18 11 2013  14 42  -21.0529 26104.3 -03484.2 -07.6025 26335.8
 18 11 2013  14 43  -21.0516 26103.9 -03483.9 -07.6019 26335.4
 18 11 2013  14 44  -21.0505 26103.7 -03483.6 -07.6014 26335.1
 18 11 2013  14 45  -21.0498 26103.5 -03483.5 -07.6012 26335.0
 18 11 2013  14 46  -21.0486 26103.3 -03483.2 -07.6007 26334.7
 18 11 2013  14 47  -21.0477 26103.2 -03483.0 -07.6003 26334.5
 18 11 2013  14 48  -21.0467 26103.1 -03482.9 -07.5999 26334.5
 18 11 2013  14 49  -21.0460 26103.1 -03482.7 -07.5995 26334.4
 18 11 2013  14 50  -21.0448 26102.9 -03482.4 -07.5989 26334.2
 18 11 2013  14 51  -21.0439 26102.5 -03482.1 -07.5984 26333.8
 18 11 2013  14 52  -21.0428 26102.0 -03481.8 -07.5978 26333.2
 18 11 2013  14 53  -21.0418 26101.6 -03481.5 -07.5973 26332.7
 18 11 2013  14 54  -21.0407 26101.1 -03481.2 -07.5969 26332.3
 18 11 2013  14 55  -21.0392 26100.5 -03480.9 -07.5963 26331.6
 18 11 2013  14 56  -21.0380 26100.4 -03480.8 -07.5963 26331.5
 18 11 2013  14 57  -21.0369 26100.2 -03480.7 -07.5962 26331.3
 18 11 2013  14 58  -21.0359 26100.0 -03480.6 -07.5959 26331.0
 18 11 2013  14 59  -21.0348 26099.8 -03480.5 -07.5957 26330.8
 18 11 2013  15 00  -21.0338 26099.5 -03480.2 -07.5953 26330.5
 18 11 2013  15 01  -21.0332 26099.2 -03480.1 -07.5950 26330.2
 18 11 2013  15 02  -21.0325 26099.0 -03479.9 -07.5948 26330.0
 18 11 2013  15 03  -21.0317 26098.8 -03479.8 -07.5945 26329.8
 18 11 2013  15 04  -21.0308 26098.5 -03479.6 -07.5941 26329.5
 18 11 2013  15 05  -21.0297 26098.2 -03479.3 -07.5937 26329.1
 18 11 2013  15 06  -21.0289 26098.0 -03479.2 -07.5934 26328.9
 18 11 2013  15 07  -21.0282 26097.8 -03479.0 -07.5930 26328.7
 18 11 2013  15 08  -21.0273 26097.7 -03478.8 -07.5926 26328.6
 18 11 2013  15 09  -21.0266 26097.7 -03478.6 -07.5922 26328.5
 18 11 2013  15 10  -21.0259 26097.7 -03478.3 -07.5917 26328.4
 18 11 2013  15 11  -21.0249 26097.3 -03478.0 -07.5910 26328.0
 18 11 2013  15 12  -21.0238 26097.0 -03477.6 -07.5904 26327.7
 18 11 2013  15 13  -21.0227 26096.9 -03477.4 -07.5898 26327.5
 18 11 2013  15 14  -21.0217 26096.8 -03477.1 -07.5893 26327.4
 18 11 2013  15 15  -21.0203 26096.4 -03476.7 -07.5885 26327.0
 18 11 2013  15 16  -21.0192 26096.5 -03476.5 -07.5881 26327.1
 18 11 2013  15 17  -21.0181 26096.2 -03476.2 -07.5874 26326.7
 18 11 2013  15 18  -21.0167 26096.2 -03475.9 -07.5869 26326.6
 18 11 2013  15 19  -21.0157 26096.1 -03475.6 -07.5863 26326.5
 18 11 2013  15 20  -21.0141 26096.0 -03475.3 -07.5857 26326.4
 18 11 2013  15 21  -21.0128 26095.9 -03475.1 -07.5851 26326.3
 18 11 2013  15 22  -21.0114 26095.8 -03474.8 -07.5846 26326.1
 18 11 2013  15 23  -21.0097 26095.5 -03474.5 -07.5839 26325.8
 18 11 2013  15 24  -21.0078 26095.3 -03474.1 -07.5833 26325.5
 18 11 2013  15 25  -21.0061 26095.1 -03473.9 -07.5828 26325.3
 18 11 2013  15 26  -21.0044 26094.7 -03473.5 -07.5821 26324.8
 18 11 2013  15 27  -21.0029 26094.4 -03473.3 -07.5817 26324.5
 18 11 2013  15 28  -21.0014 26094.1 -03473.1 -07.5813 26324.3
 18 11 2013  15 29  -21.0002 26094.1 -03473.0 -07.5812 26324.2
 18 11 2013  15 30  -20.9992 26094.5 -03473.1 -07.5812 26324.6
 18 11 2013  15 31  -20.9980 26094.7 -03473.0 -07.5810 26324.8
 18 11 2013  15 32  -20.9966 26094.8 -03472.9 -07.5808 26324.9
 18 11 2013  15 33  -20.9948 26094.7 -03472.7 -07.5804 26324.8
 18 11 2013  15 34  -20.9940 26094.9 -03472.7 -07.5804 26325.0
 18 11 2013  15 35  -20.9928 26094.9 -03472.6 -07.5802 26325.0
 18 11 2013  15 36  -20.9917 26094.6 -03472.4 -07.5799 26324.6
 18 11 2013  15 37  -20.9905 26094.5 -03472.4 -07.5798 26324.6
 18 11 2013  15 38  -20.9890 26094.5 -03472.3 -07.5796 26324.5
 18 11 2013  15 39  -20.9878 26094.8 -03472.4 -07.5798 26324.8
 18 11 2013  15 40  -20.9867 26095.1 -03472.6 -07.5800 26325.1
 18 11 2013  15 41  -20.9850 26095.2 -03472.6 -07.5800 26325.3
 18 11 2013  15 42  -20.9842 26095.4 -03472.6 -07.5801 26325.5
 18 11 2013  15 43  -20.9829 26095.2 -03472.6 -07.5800 26325.3
 18 11 2013  15 44  -20.9819 26095.2 -03472.7 -07.5802 26325.2
 18 11 2013  15 45  -20.9808 26095.0 -03472.7 -07.5804 26325.1
 18 11 2013  15 46  -20.9798 26094.8 -03472.8 -07.5805 26324.9
 18 11 2013  15 47  -20.9789 26094.8 -03472.9 -07.5808 26324.8
 18 11 2013  15 48  -20.9782 26094.6 -03473.0 -07.5811 26324.7
 18 11 2013  15 49  -20.9775 26094.3 -03473.1 -07.5814 26324.4
 18 11 2013  15 50  -20.9767 26093.9 -03473.2 -07.5818 26324.1
 18 11 2013  15 51  -20.9761 26093.6 -03473.4 -07.5822 26323.7
 18 11 2013  15 52  -20.9756 26093.4 -03473.7 -07.5828 26323.6
 18 11 2013  15 53  -20.9752 26093.3 -03474.0 -07.5835 26323.6
 18 11 2013  15 54  -20.9747 26093.1 -03474.2 -07.5840 26323.4
 18 11 2013  15 55  -20.9743 26093.1 -03474.4 -07.5846 26323.4
 18 11 2013  15 56  -20.9741 26092.8 -03474.7 -07.5852 26323.2
 18 11 2013  15 57  -20.9742 26092.8 -03475.0 -07.5859 26323.1
 18 11 2013  15 58  -20.9743 26092.6 -03475.1 -07.5863 26323.0
 18 11 2013  15 59  -20.9744 26092.4 -03475.4 -07.5868 26322.8
 18 11 2013  16 00  -20.9748 26092.2 -03475.6 -07.5874 26322.7
 18 11 2013  16 01  -20.9750 26092.1 -03475.8 -07.5878 26322.6
 18 11 2013  16 02  -20.9752 26092.0 -03476.0 -07.5884 26322.6
 18 11 2013  16 03  -20.9754 26091.9 -03476.3 -07.5890 26322.4
 18 11 2013  16 04  -20.9755 26091.4 -03476.4 -07.5893 26322.0
 18 11 2013  16 05  -20.9756 26091.1 -03476.6 -07.5898 26321.7
 18 11 2013  16 06  -20.9758 26090.7 -03476.8 -07.5903 26321.3
 18 11 2013  16 07  -20.9761 26090.3 -03476.9 -07.5908 26320.9
 18 11 2013  16 08  -20.9765 26089.8 -03477.1 -07.5913 26320.5
 18 11 2013  16 09  -20.9767 26089.4 -03477.3 -07.5918 26320.1
 18 11 2013  16 10  -20.9770 26089.1 -03477.5 -07.5924 26319.8
 18 11 2013  16 11  -20.9775 26088.7 -03477.7 -07.5929 26319.5
 18 11 2013  16 12  -20.9780 26088.5 -03478.0 -07.5936 26319.4
 18 11 2013  16 13  -20.9786 26088.4 -03478.3 -07.5942 26319.3
 18 11 2013  16 14  -20.9789 26088.2 -03478.5 -07.5947 26319.1
 18 11 2013  16 15  -20.9793 26087.9 -03478.6 -07.5950 26318.8
 18 11 2013  16 16  -20.9795 26087.6 -03478.8 -07.5955 26318.5
 18 11 2013  16 17  -20.9800 26087.4 -03479.0 -07.5960 26318.4
 18 11 2013  16 18  -20.9804 26087.4 -03479.2 -07.5966 26318.4
 18 11 2013  16 19  -20.9811 26087.0 -03479.4 -07.5970 26318.1
 18 11 2013  16 20  -20.9813 26086.9 -03479.6 -07.5974 26317.9
 18 11 2013  16 21  -20.9818 26086.8 -03479.8 -07.5980 26317.9
 18 11 2013  16 22  -20.9822 26086.6 -03480.0 -07.5984 26317.7
 18 11 2013  16 23  -20.9824 26086.6 -03480.2 -07.5989 26317.7
 18 11 2013  16 24  -20.9830 26086.3 -03480.3 -07.5992 26317.5
 18 11 2013  16 25  -20.9836 26086.1 -03480.4 -07.5995 26317.2
 18 11 2013  16 26  -20.9841 26085.9 -03480.6 -07.6001 26317.1
 18 11 2013  16 27  -20.9848 26085.4 -03480.6 -07.6002 26316.5
 18 11 2013  16 28  -20.9853 26085.2 -03480.8 -07.6007 26316.4
 18 11 2013  16 29  -20.9858 26084.9 -03480.9 -07.6010 26316.1
 18 11 2013  16 30  -20.9864 26084.7 -03481.1 -07.6015 26316.0
 18 11 2013  16 31  -20.9869 26084.1 -03481.1 -07.6017 26315.3
 18 11 2013  16 32  -20.9874 26084.3 -03481.5 -07.6025 26315.6
 18 11 2013  16 33  -20.9882 26083.9 -03481.6 -07.6028 26315.2
 18 11 2013  16 34  -20.9887 26083.5 -03481.7 -07.6031 26314.9
 18 11 2013  16 35  -20.9892 26083.0 -03481.7 -07.6033 26314.4
 18 11 2013  16 36  -20.9898 26082.8 -03481.9 -07.6038 26314.1
 18 11 2013  16 37  -20.9905 26082.4 -03482.1 -07.6042 26313.8
 18 11 2013  16 38  -20.9909 26082.0 -03482.2 -07.6046 26313.5
 18 11 2013  16 39  -20.9918 26081.7 -03482.4 -07.6051 26313.1
 18 11 2013  16 40  -20.9925 26081.2 -03482.5 -07.6055 26312.7
 18 11 2013  16 41  -20.9930 26081.0 -03482.8 -07.6061 26312.5
 18 11 2013  16 42  -20.9939 26080.5 -03482.8 -07.6064 26312.0
 18 11 2013  16 43  -20.9945 26080.2 -03483.0 -07.6068 26311.8
 18 11 2013  16 44  -20.9953 26079.6 -03483.0 -07.6070 26311.1
 18 11 2013  16 45  -20.9962 26079.3 -03483.1 -07.6073 26310.9
 18 11 2013  16 46  -20.9971 26078.8 -03483.2 -07.6076 26310.4
 18 11 2013  16 47  -20.9980 26078.3 -03483.2 -07.6078 26309.9
 18 11 2013  16 48  -20.9986 26077.9 -03483.3 -07.6081 26309.5
 18 11 2013  16 49  -20.9993 26077.5 -03483.4 -07.6084 26309.1
 18 11 2013  16 50  -20.9999 26077.2 -03483.5 -07.6087 26308.8
 18 11 2013  16 51  -21.0008 26076.9 -03483.6 -07.6090 26308.6
 18 11 2013  16 52  -21.0015 26076.6 -03483.7 -07.6094 26308.3
 18 11 2013  16 53  -21.0023 26076.1 -03483.7 -07.6096 26307.8
 18 11 2013  16 54  -21.0031 26075.7 -03483.7 -07.6097 26307.4
 18 11 2013  16 55  -21.0037 26075.4 -03483.8 -07.6099 26307.1
 18 11 2013  16 56  -21.0043 26075.1 -03483.8 -07.6101 26306.8
 18 11 2013  16 57  -21.0048 26074.7 -03483.8 -07.6102 26306.4
 18 11 2013  16 58  -21.0054 26074.6 -03483.9 -07.6104 26306.3
 18 11 2013  16 59  -21.0059 26074.1 -03483.9 -07.6104 26305.8
 18 11 2013  17 00  -21.0066 26073.7 -03483.9 -07.6105 26305.4
 18 11 2013  17 01  -21.0071 26073.1 -03483.7 -07.6104 26304.8
 18 11 2013  17 02  -21.0076 26072.9 -03483.7 -07.6105 26304.6
 18 11 2013  17 03  -21.0082 26072.7 -03483.7 -07.6106 26304.5
 18 11 2013  17 04  -21.0089 26072.5 -03483.7 -07.6105 26304.2
 18 11 2013  17 05  -21.0094 26072.4 -03483.6 -07.6104 26304.1
 18 11 2013  17 06  -21.0097 26072.1 -03483.5 -07.6103 26303.8
 18 11 2013  17 07  -21.0100 26071.9 -03483.5 -07.6103 26303.6
 18 11 2013  17 08  -21.0102 26071.5 -03483.3 -07.6100 26303.1
 18 11 2013  17 09  -21.0105 26071.2 -03483.3 -07.6100 26302.9
 18 11 2013  17 10  -21.0111 26071.0 -03483.2 -07.6099 26302.6
 18 11 2013  17 11  -21.0113 26070.7 -03483.1 -07.6099 26302.3
 18 11 2013  17 12  -21.0113 26070.4 -03483.1 -07.6099 26302.0
 18 11 2013  17 13  -21.0114 26069.9 -03483.0 -07.6098 26301.5
 18 11 2013  17 14  -21.0114 26069.5 -03482.9 -07.6097 26301.1
 18 11 2013  17 15  -21.0114 26069.0 -03482.9 -07.6097 26300.6
 18 11 2013  17 16  -21.0114 26068.6 -03482.9 -07.6099 26300.2
 18 11 2013  17 17  -21.0115 26068.2 -03482.9 -07.6100 26299.8
 18 11 2013  17 18  -21.0116 26067.7 -03482.9 -07.6101 26299.4
 18 11 2013  17 19  -21.0117 26067.3 -03482.9 -07.6104 26298.9
 18 11 2013  17 20  -21.0117 26066.9 -03483.0 -07.6106 26298.6
 18 11 2013  17 21  -21.0118 26066.6 -03483.1 -07.6109 26298.3
 18 11 2013  17 22  -21.0120 26066.3 -03483.2 -07.6113 26298.0
 18 11 2013  17 23  -21.0118 26065.9 -03483.3 -07.6115 26297.6
 18 11 2013  17 24  -21.0118 26065.6 -03483.4 -07.6119 26297.3
 18 11 2013  17 25  -21.0118 26065.2 -03483.6 -07.6123 26297.0
 18 11 2013  17 26  -21.0118 26064.9 -03483.7 -07.6127 26296.6
 18 11 2013  17 27  -21.0118 26064.5 -03483.8 -07.6130 26296.3
 18 11 2013  17 28  -21.0119 26064.1 -03484.0 -07.6135 26296.0
 18 11 2013  17 29  -21.0119 26063.8 -03484.1 -07.6139 26295.6
 18 11 2013  17 30  -21.0121 26063.4 -03484.2 -07.6143 26295.2
 18 11 2013  17 31  -21.0122 26062.9 -03484.3 -07.6145 26294.8
 18 11 2013  17 32  -21.0121 26062.5 -03484.4 -07.6149 26294.3
 18 11 2013  17 33  -21.0120 26062.0 -03484.5 -07.6153 26293.9
 18 11 2013  17 34  -21.0119 26061.4 -03484.6 -07.6157 26293.3
 18 11 2013  17 35  -21.0121 26060.9 -03484.7 -07.6161 26292.9
 18 11 2013  17 36  -21.0123 26060.5 -03484.9 -07.6166 26292.4
 18 11 2013  17 37  -21.0127 26060.0 -03485.0 -07.6170 26292.0
 18 11 2013  17 38  -21.0125 26059.2 -03485.1 -07.6174 26291.3
 18 11 2013  17 39  -21.0125 26058.8 -03485.3 -07.6179 26290.9
 18 11 2013  17 40  -21.0126 26058.2 -03485.4 -07.6184 26290.3
 18 11 2013  17 41  -21.0125 26057.9 -03485.6 -07.6189 26290.0
 18 11 2013  17 42  -21.0125 26057.4 -03485.8 -07.6194 26289.5
 18 11 2013  17 43  -21.0126 26056.9 -03486.0 -07.6199 26289.0
 18 11 2013  17 44  -21.0128 26056.6 -03486.2 -07.6205 26288.8
 18 11 2013  17 45  -21.0130 26056.0 -03486.3 -07.6208 26288.2
 18 11 2013  17 46  -21.0130 26055.7 -03486.5 -07.6214 26287.9
 18 11 2013  17 47  -21.0132 26055.5 -03486.7 -07.6219 26287.7
 18 11 2013  17 48  -21.0138 26055.3 -03486.9 -07.6224 26287.5
 18 11 2013  17 49  -21.0140 26055.0 -03487.1 -07.6228 26287.3
 18 11 2013  17 50  -21.0142 26054.5 -03487.1 -07.6231 26286.8
 18 11 2013  17 51  -21.0141 26054.4 -03487.2 -07.6234 26286.7
 18 11 2013  17 52  -21.0139 26054.0 -03487.3 -07.6237 26286.3
 18 11 2013  17 53  -21.0141 26053.8 -03487.5 -07.6241 26286.2
 18 11 2013  17 54  -21.0143 26053.5 -03487.5 -07.6243 26285.9
 18 11 2013  17 55  -21.0141 26053.5 -03487.7 -07.6247 26285.9
 18 11 2013  17 56  -21.0143 26053.1 -03487.7 -07.6249 26285.5
 18 11 2013  17 57  -21.0145 26053.1 -03487.9 -07.6253 26285.5
 18 11 2013  17 58  -21.0147 26052.8 -03488.0 -07.6256 26285.2
 18 11 2013  17 59  -21.0147 26052.6 -03488.1 -07.6258 26285.1
 18 11 2013  18 00  -21.0149 26052.4 -03488.2 -07.6261 26284.9
 18 11 2013  18 01  -21.0149 26052.0 -03488.2 -07.6262 26284.5
 18 11 2013  18 02  -21.0149 26051.7 -03488.3 -07.6264 26284.2
 18 11 2013  18 03  -21.0148 26051.6 -03488.4 -07.6266 26284.1
 18 11 2013  18 04  -21.0151 26051.3 -03488.5 -07.6270 26283.8
 18 11 2013  18 05  -21.0151 26051.1 -03488.6 -07.6273 26283.7
 18 11 2013  18 06  -21.0153 26050.9 -03488.7 -07.6277 26283.4
 18 11 2013  18 07  -21.0154 26050.5 -03488.8 -07.6278 26283.0
 18 11 2013  18 08  -21.0157 26050.3 -03488.9 -07.6281 26282.9
 18 11 2013  18 09  -21.0158 26049.9 -03488.9 -07.6284 26282.5
 18 11 2013  18 10  -21.0158 26049.7 -03489.1 -07.6288 26282.3
 18 11 2013  18 11  -21.0158 26049.3 -03489.1 -07.6289 26281.9
 18 11 2013  18 12  -21.0161 26048.9 -03489.2 -07.6293 26281.6
 18 11 2013  18 13  -21.0159 26048.6 -03489.3 -07.6296 26281.3
 18 11 2013  18 14  -21.0161 26048.3 -03489.5 -07.6301 26281.0
 18 11 2013  18 15  -21.0162 26047.9 -03489.6 -07.6305 26280.6
 18 11 2013  18 16  -21.0161 26047.5 -03489.8 -07.6309 26280.2
 18 11 2013  18 17  -21.0163 26047.3 -03490.0 -07.6314 26280.1
 18 11 2013  18 18  -21.0165 26047.0 -03490.2 -07.6318 26279.8
 18 11 2013  18 19  -21.0164 26046.7 -03490.3 -07.6322 26279.5
 18 11 2013  18 20  -21.0167 26046.3 -03490.4 -07.6326 26279.2
 18 11 2013  18 21  -21.0173 26046.2 -03490.7 -07.6332 26279.1
 18 11 2013  18 22  -21.0173 26046.0 -03490.9 -07.6337 26278.9
 18 11 2013  18 23  -21.0176 26045.8 -03491.1 -07.6343 26278.7
 18 11 2013  18 24  -21.0180 26045.6 -03491.3 -07.6347 26278.6
 18 11 2013  18 25  -21.0185 26045.3 -03491.4 -07.6350 26278.3
 18 11 2013  18 26  -21.0186 26045.1 -03491.6 -07.6355 26278.1
 18 11 2013  18 27  -21.0189 26044.8 -03491.8 -07.6360 26277.9
 18 11 2013  18 28  -21.0190 26044.6 -03492.0 -07.6365 26277.7
 18 11 2013  18 29  -21.0193 26044.6 -03492.3 -07.6371 26277.7
 18 11 2013  18 30  -21.0196 26044.5 -03492.5 -07.6377 26277.6
 18 11 2013  18 31  -21.0204 26044.3 -03492.7 -07.6381 26277.4
 18 11 2013  18 32  -21.0204 26044.0 -03492.8 -07.6385 26277.2
 18 11 2013  18 33  -21.0209 26043.7 -03492.9 -07.6388 26276.9
 18 11 2013  18 34  -21.0214 26043.6 -03493.2 -07.6394 26276.8
 18 11 2013  18 35  -21.0222 26043.2 -03493.3 -07.6397 26276.5
 18 11 2013  18 36  -21.0224 26043.0 -03493.5 -07.6402 26276.2
 18 11 2013  18 37  -21.0230 26042.7 -03493.7 -07.6407 26276.0
 18 11 2013  18 38  -21.0232 26042.6 -03494.0 -07.6413 26276.0
 18 11 2013  18 39  -21.0238 26042.2 -03494.1 -07.6417 26275.6
 18 11 2013  18 40  -21.0245 26042.1 -03494.3 -07.6423 26275.5
 18 11 2013  18 41  -21.0251 26041.9 -03494.6 -07.6428 26275.3
 18 11 2013  18 42  -21.0258 26041.8 -03494.8 -07.6434 26275.2
 18 11 2013  18 43  -21.0259 26041.6 -03494.9 -07.6437 26275.1
 18 11 2013  18 44  -21.0262 26041.6 -03495.2 -07.6443 26275.1
 18 11 2013  18 45  -21.0265 26041.6 -03495.4 -07.6447 26275.1
 18 11 2013  18 46  -21.0265 26041.4 -03495.6 -07.6453 26275.0
 18 11 2013  18 47  -21.0267 26041.2 -03495.7 -07.6456 26274.8
 18 11 2013  18 48  -21.0272 26041.0 -03495.9 -07.6460 26274.6
 18 11 2013  18 49  -21.0275 26040.9 -03496.1 -07.6465 26274.6
 18 11 2013  18 50  -21.0280 26040.8 -03496.2 -07.6468 26274.5
 18 11 2013  18 51  -21.0285 26040.7 -03496.4 -07.6472 26274.4
 18 11 2013  18 52  -21.0288 26040.6 -03496.6 -07.6476 26274.3
 18 11 2013  18 53  -21.0291 26040.5 -03496.7 -07.6479 26274.3
 18 11 2013  18 54  -21.0293 26040.7 -03497.0 -07.6485 26274.4
 18 11 2013  18 55  -21.0294 26040.8 -03497.2 -07.6489 26274.6
 18 11 2013  18 56  -21.0297 26040.7 -03497.4 -07.6493 26274.5
 18 11 2013  18 57  -21.0299 26041.0 -03497.6 -07.6498 26274.8
 18 11 2013  18 58  -21.0302 26041.0 -03497.8 -07.6500 26274.8
 18 11 2013  18 59  -21.0305 26041.0 -03497.9 -07.6502 26274.8
 18 11 2013  19 00  -21.0309 26040.9 -03497.9 -07.6504 26274.8
 18 11 2013  19 01  -21.0313 26040.8 -03498.0 -07.6505 26274.7
 18 11 2013  19 02  -21.0317 26040.5 -03497.9 -07.6505 26274.4
 18 11 2013  19 03  -21.0320 26040.2 -03497.9 -07.6505 26274.0
 18 11 2013  19 04  -21.0322 26039.8 -03497.8 -07.6505 26273.7
 18 11 2013  19 05  -21.0323 26039.5 -03497.8 -07.6506 26273.4
 18 11 2013  19 06  -21.0324 26039.3 -03497.9 -07.6507 26273.2
 18 11 2013  19 07  -21.0324 26039.2 -03497.9 -07.6509 26273.1
 18 11 2013  19 08  -21.0324 26039.1 -03498.1 -07.6512 26273.0
 18 11 2013  19 09  -21.0323 26039.2 -03498.2 -07.6515 26273.1
 18 11 2013  19 10  -21.0323 26039.1 -03498.3 -07.6517 26273.0
 18 11 2013  19 11  -21.0323 26039.0 -03498.4 -07.6519 26273.0
 18 11 2013  19 12  -21.0322 26039.0 -03498.5 -07.6522 26273.0
 18 11 2013  19 13  -21.0321 26039.0 -03498.5 -07.6522 26273.0
 18 11 2013  19 14  -21.0320 26038.9 -03498.6 -07.6525 26272.9
 18 11 2013  19 15  -21.0319 26038.7 -03498.7 -07.6526 26272.7
 18 11 2013  19 16  -21.0318 26038.6 -03498.7 -07.6527 26272.6
 18 11 2013  19 17  -21.0317 26038.4 -03498.7 -07.6529 26272.4
 18 11 2013  19 18  -21.0317 26038.2 -03498.8 -07.6530 26272.2
 18 11 2013  19 19  -21.0317 26038.1 -03498.8 -07.6531 26272.1
 18 11 2013  19 20  -21.0316 26037.9 -03498.8 -07.6532 26271.9
 18 11 2013  19 21  -21.0317 26037.8 -03498.9 -07.6533 26271.8
 18 11 2013  19 22  -21.0317 26037.6 -03498.9 -07.6535 26271.7
 18 11 2013  19 23  -21.0317 26037.5 -03499.0 -07.6537 26271.6
 18 11 2013  19 24  -21.0317 26037.4 -03499.0 -07.6538 26271.5
 18 11 2013  19 25  -21.0318 26037.4 -03499.1 -07.6540 26271.4
 18 11 2013  19 26  -21.0320 26037.3 -03499.1 -07.6540 26271.3
 18 11 2013  19 27  -21.0321 26037.2 -03499.2 -07.6542 26271.2
 18 11 2013  19 28  -21.0322 26037.0 -03499.2 -07.6543 26271.0
 18 11 2013  19 29  -21.0323 26036.7 -03499.2 -07.6543 26270.8
 18 11 2013  19 30  -21.0326 26036.6 -03499.2 -07.6544 26270.7
 18 11 2013  19 31  -21.0327 26036.5 -03499.2 -07.6545 26270.6
 18 11 2013  19 32  -21.0331 26036.4 -03499.3 -07.6547 26270.5
 18 11 2013  19 33  -21.0332 26036.3 -03499.4 -07.6549 26270.4
 18 11 2013  19 34  -21.0334 26036.2 -03499.4 -07.6550 26270.4
 18 11 2013  19 35  -21.0335 26036.1 -03499.5 -07.6551 26270.2
 18 11 2013  19 36  -21.0334 26036.1 -03499.5 -07.6553 26270.3
 18 11 2013  19 37  -21.0337 26036.1 -03499.6 -07.6555 26270.2
 18 11 2013  19 38  -21.0340 26036.0 -03499.7 -07.6556 26270.1
 18 11 2013  19 39  -21.0342 26035.9 -03499.7 -07.6557 26270.0
 18 11 2013  19 40  -21.0374 26035.6 -03499.4 -07.6552 26269.7
 18 11 2013  19 41  -21.0395 26035.0 -03499.5 -07.6554 26269.1
 18 11 2013  19 42  -21.0402 26034.7 -03499.5 -07.6557 26268.8
 18 11 2013  19 43  -21.0400 26034.6 -03499.5 -07.6557 26268.8
 18 11 2013  19 44  -21.0394 26034.8 -03499.4 -07.6553 26269.0
 18 11 2013  19 45  -21.0393 26034.8 -03499.4 -07.6553 26268.9
 18 11 2013  19 46  -21.0393 26034.7 -03499.4 -07.6553 26268.8
 18 11 2013  19 47  -21.0393 26034.5 -03499.4 -07.6555 26268.7
 18 11 2013  19 48  -21.0394 26034.5 -03499.5 -07.6556 26268.6
 18 11 2013  19 49  -21.0394 26034.4 -03499.6 -07.6559 26268.5
 18 11 2013  19 50  -21.0391 26034.4 -03499.6 -07.6558 26268.5
 18 11 2013  19 51  -21.0391 26034.3 -03499.6 -07.6560 26268.5
 18 11 2013  19 52  -21.0390 26034.2 -03499.7 -07.6563 26268.4
 18 11 2013  19 53  -21.0413 26034.2 -03499.8 -07.6564 26268.3
 18 11 2013  19 54  -21.0385 26034.2 -03499.8 -07.6563 26268.4
 18 11 2013  19 55  -21.0361 26034.2 -03499.9 -07.6566 26268.4
 18 11 2013  19 56  -21.0342 26034.4 -03500.2 -07.6572 26268.7
 18 11 2013  19 57  -21.0342 26034.4 -03500.2 -07.6573 26268.7
 18 11 2013  19 58  -21.0341 26034.5 -03500.3 -07.6574 26268.7
 18 11 2013  19 59  -21.0341 26034.4 -03500.3 -07.6575 26268.7
 18 11 2013  20 00  -21.0340 26034.3 -03500.4 -07.6576 26268.5
 18 11 2013  20 01  -21.0340 26034.2 -03500.4 -07.6577 26268.5
 18 11 2013  20 02  -21.0340 26034.3 -03500.4 -07.6578 26268.5
 18 11 2013  20 03  -21.0340 26034.2 -03500.5 -07.6579 26268.5
 18 11 2013  20 04  -21.0340 26034.3 -03500.6 -07.6581 26268.6
 18 11 2013  20 05  -21.0342 26034.2 -03500.6 -07.6582 26268.5
 18 11 2013  20 06  -21.0342 26034.2 -03500.6 -07.6582 26268.5
 18 11 2013  20 07  -21.0343 26034.1 -03500.6 -07.6581 26268.4
 18 11 2013  20 08  -21.0343 26034.0 -03500.6 -07.6582 26268.3
 18 11 2013  20 09  -21.0345 26034.0 -03500.6 -07.6582 26268.3
 18 11 2013  20 10  -21.0344 26033.9 -03500.7 -07.6583 26268.2
 18 11 2013  20 11  -21.0345 26033.9 -03500.7 -07.6584 26268.2
 18 11 2013  20 12  -21.0345 26033.8 -03500.7 -07.6584 26268.1
 18 11 2013  20 13  -21.0345 26033.7 -03500.7 -07.6585 26268.0
 18 11 2013  20 14  -21.0344 26033.7 -03500.7 -07.6585 26268.0
 18 11 2013  20 15  -21.0344 26033.6 -03500.7 -07.6585 26267.9
 18 11 2013  20 16  -21.0345 26033.5 -03500.7 -07.6585 26267.9
 18 11 2013  20 17  -21.0347 26033.5 -03500.7 -07.6586 26267.8
 18 11 2013  20 18  -21.0348 26033.4 -03500.7 -07.6586 26267.7
 18 11 2013  20 19  -21.0348 26033.3 -03500.7 -07.6585 26267.6
 18 11 2013  20 20  -21.0348 26033.2 -03500.6 -07.6585 26267.5
 18 11 2013  20 21  -21.0348 26033.0 -03500.6 -07.6585 26267.4
 18 11 2013  20 22  -21.0348 26032.9 -03500.5 -07.6584 26267.2
 18 11 2013  20 23  -21.0348 26032.7 -03500.5 -07.6583 26267.0
 18 11 2013  20 24  -21.0349 26032.6 -03500.5 -07.6584 26266.9
 18 11 2013  20 25  -21.0348 26032.5 -03500.5 -07.6584 26266.8
 18 11 2013  20 26  -21.0348 26032.4 -03500.4 -07.6583 26266.7
 18 11 2013  20 27  -21.0348 26032.3 -03500.4 -07.6583 26266.6
 18 11 2013  20 28  -21.0346 26032.3 -03500.5 -07.6584 26266.6
 18 11 2013  20 29  -21.0345 26032.2 -03500.4 -07.6584 26266.5
 18 11 2013  20 30  -21.0345 26032.1 -03500.5 -07.6584 26266.4
 18 11 2013  20 31  -21.0343 26032.0 -03500.4 -07.6584 26266.3
 18 11 2013  20 32  -21.0341 26032.0 -03500.4 -07.6583 26266.2
 18 11 2013  20 33  -21.0339 26032.0 -03500.4 -07.6584 26266.3
 18 11 2013  20 34  -21.0336 26031.8 -03500.4 -07.6584 26266.1
 18 11 2013  20 35  -21.0333 26031.8 -03500.4 -07.6584 26266.1
 18 11 2013  20 36  -21.0330 26031.9 -03500.5 -07.6585 26266.2
 18 11 2013  20 37  -21.0327 26032.0 -03500.5 -07.6586 26266.3
 18 11 2013  20 38  -21.0323 26032.1 -03500.6 -07.6587 26266.4
 18 11 2013  20 39  -21.0319 26032.0 -03500.5 -07.6586 26266.3
 18 11 2013  20 40  -21.0315 26032.0 -03500.5 -07.6586 26266.3
 18 11 2013  20 41  -21.0311 26032.0 -03500.5 -07.6586 26266.3
 18 11 2013  20 42  -21.0307 26032.0 -03500.6 -07.6588 26266.3
 18 11 2013  20 43  -21.0302 26031.9 -03500.6 -07.6587 26266.2
 18 11 2013  20 44  -21.0298 26031.7 -03500.5 -07.6586 26266.0
 18 11 2013  20 45  -21.0294 26031.6 -03500.4 -07.6585 26265.9
 18 11 2013  20 46  -21.0290 26031.5 -03500.5 -07.6586 26265.8
 18 11 2013  20 47  -21.0286 26031.4 -03500.5 -07.6587 26265.7
 18 11 2013  20 48  -21.0283 26031.3 -03500.5 -07.6588 26265.6
 18 11 2013  20 49  -21.0278 26031.2 -03500.6 -07.6590 26265.5
 18 11 2013  20 50  -21.0275 26031.1 -03500.6 -07.6591 26265.4
 18 11 2013  20 51  -21.0271 26031.0 -03500.7 -07.6593 26265.3
 18 11 2013  20 52  -21.0268 26030.9 -03500.8 -07.6595 26265.2
 18 11 2013  20 53  -21.0264 26030.8 -03500.8 -07.6596 26265.1
 18 11 2013  20 54  -21.0261 26030.7 -03500.9 -07.6599 26265.1
 18 11 2013  20 55  -21.0258 26030.5 -03500.9 -07.6599 26264.9
 18 11 2013  20 56  -21.0256 26030.3 -03501.2 -07.6606 26264.7
 18 11 2013  20 57  -21.0256 26030.2 -03501.4 -07.6609 26264.6
 18 11 2013  20 58  -21.0255 26030.1 -03501.5 -07.6613 26264.5
 18 11 2013  20 59  -21.0256 26029.9 -03501.6 -07.6616 26264.4
 18 11 2013  21 00  -21.0257 26029.8 -03501.7 -07.6619 26264.2
 18 11 2013  21 01  -21.0258 26029.6 -03501.9 -07.6622 26264.1
 18 11 2013  21 02  -21.0259 26029.4 -03501.9 -07.6623 26263.9
 18 11 2013  21 03  -21.0261 26029.3 -03501.7 -07.6619 26263.8
 18 11 2013  21 04  -21.0262 26029.2 -03502.1 -07.6627 26263.8
 18 11 2013  21 05  -21.0263 26029.1 -03502.1 -07.6629 26263.7
 18 11 2013  21 06  -21.0263 26029.0 -03502.1 -07.6630 26263.5
 18 11 2013  21 07  -21.0263 26028.9 -03502.2 -07.6632 26263.5
 18 11 2013  21 08  -21.0260 26028.8 -03502.2 -07.6632 26263.4
 18 11 2013  21 09  -21.0258 26028.7 -03502.2 -07.6632 26263.3
 18 11 2013  21 10  -21.0256 26028.7 -03502.3 -07.6633 26263.2
 18 11 2013  21 11  -21.0254 26028.5 -03502.2 -07.6633 26263.1
 18 11 2013  21 12  -21.0251 26028.4 -03502.3 -07.6634 26263.0
 18 11 2013  21 13  -21.0249 26028.3 -03502.3 -07.6635 26262.9
 18 11 2013  21 14  -21.0246 26028.2 -03502.3 -07.6636 26262.8
 18 11 2013  21 15  -21.0242 26028.0 -03502.4 -07.6637 26262.6
 18 11 2013  21 16  -21.0239 26027.9 -03502.4 -07.6638 26262.5
 18 11 2013  21 17  -21.0236 26027.8 -03502.4 -07.6639 26262.3
 18 11 2013  21 18  -21.0234 26027.7 -03502.5 -07.6642 26262.3
 18 11 2013  21 19  -21.0230 26027.5 -03502.6 -07.6644 26262.2
 18 11 2013  21 20  -21.0228 26027.4 -03502.7 -07.6646 26262.1
 18 11 2013  21 21  -21.0226 26027.4 -03502.8 -07.6648 26262.0
 18 11 2013  21 22  -21.0224 26027.2 -03502.9 -07.6651 26261.9
 18 11 2013  21 23  -21.0220 26027.2 -03503.0 -07.6653 26261.9
 18 11 2013  21 24  -21.0219 26027.1 -03503.1 -07.6656 26261.8
 18 11 2013  21 25  -21.0217 26027.0 -03503.2 -07.6658 26261.7
 18 11 2013  21 26  -21.0216 26026.8 -03503.2 -07.6659 26261.5
 18 11 2013  21 27  -21.0214 26026.7 -03503.3 -07.6661 26261.4
 18 11 2013  21 28  -21.0213 26026.5 -03503.4 -07.6664 26261.3
 18 11 2013  21 29  -21.0213 26026.3 -03503.5 -07.6666 26261.1
 18 11 2013  21 30  -21.0212 26026.1 -03503.5 -07.6667 26260.8
 18 11 2013  21 31  -21.0212 26025.9 -03503.5 -07.6669 26260.7
 18 11 2013  21 32  -21.0210 26025.8 -03503.6 -07.6670 26260.5
 18 11 2013  21 33  -21.0209 26025.6 -03503.6 -07.6671 26260.3
 18 11 2013  21 34  -21.0208 26025.4 -03503.6 -07.6673 26260.2
 18 11 2013  21 35  -21.0207 26025.2 -03503.7 -07.6675 26260.0
 18 11 2013  21 36  -21.0205 26025.1 -03503.8 -07.6676 26259.9
 18 11 2013  21 37  -21.0203 26025.0 -03503.9 -07.6679 26259.8
 18 11 2013  21 38  -21.0202 26024.8 -03503.9 -07.6681 26259.7
 18 11 2013  21 39  -21.0200 26024.9 -03504.1 -07.6684 26259.8
 18 11 2013  21 40  -21.0198 26025.0 -03504.3 -07.6687 26259.9
 18 11 2013  21 41  -21.0195 26025.1 -03504.4 -07.6690 26260.0
 18 11 2013  21 42  -21.0193 26025.0 -03504.5 -07.6692 26259.9
 18 11 2013  21 43  -21.0192 26024.9 -03504.5 -07.6694 26259.8
 18 11 2013  21 44  -21.0189 26024.8 -03504.6 -07.6695 26259.7
 18 11 2013  21 45  -21.0188 26024.5 -03504.6 -07.6695 26259.5
 18 11 2013  21 46  -21.0188 26024.3 -03504.6 -07.6696 26259.2
 18 11 2013  21 47  -21.0188 26024.1 -03504.6 -07.6697 26259.0
 18 11 2013  21 48  -21.0187 26023.9 -03504.6 -07.6697 26258.8
 18 11 2013  21 49  -21.0187 26023.8 -03504.6 -07.6699 26258.7
 18 11 2013  21 50  -21.0187 26023.6 -03504.6 -07.6699 26258.5
 18 11 2013  21 51  -21.0186 26023.5 -03504.7 -07.6701 26258.4
 18 11 2013  21 52  -21.0183 26023.4 -03504.8 -07.6702 26258.4
 18 11 2013  21 53  -21.0180 26023.4 -03504.8 -07.6704 26258.3
 18 11 2013  21 54  -21.0177 26023.3 -03504.9 -07.6705 26258.2
 18 11 2013  21 55  -21.0173 26023.2 -03504.9 -07.6707 26258.2
 18 11 2013  21 56  -21.0170 26023.1 -03505.0 -07.6708 26258.1
 18 11 2013  21 57  -21.0167 26023.0 -03505.0 -07.6709 26257.9
 18 11 2013  21 58  -21.0165 26022.8 -03505.0 -07.6710 26257.8
 18 11 2013  21 59  -21.0164 26022.7 -03505.0 -07.6710 26257.7
 18 11 2013  22 00  -21.0161 26022.7 -03505.1 -07.6713 26257.7
 18 11 2013  22 01  -21.0161 26022.6 -03505.3 -07.6716 26257.6
 18 11 2013  22 02  -21.0160 26022.5 -03505.3 -07.6717 26257.5
 18 11 2013  22 03  -21.0157 26022.4 -03505.3 -07.6718 26257.4
 18 11 2013  22 04  -21.0157 26022.2 -03505.4 -07.6719 26257.3
 18 11 2013  22 05  -21.0155 26022.2 -03505.4 -07.6720 26257.2
 18 11 2013  22 06  -21.0156 26022.0 -03505.4 -07.6721 26257.1
 18 11 2013  22 07  -21.0156 26021.8 -03505.4 -07.6722 26256.9
 18 11 2013  22 08  -21.0154 26021.8 -03505.5 -07.6723 26256.9
 18 11 2013  22 09  -21.0154 26021.6 -03505.5 -07.6724 26256.7
 18 11 2013  22 10  -21.0154 26021.5 -03505.5 -07.6725 26256.6
 18 11 2013  22 11  -21.0155 26021.5 -03505.6 -07.6726 26256.6
 18 11 2013  22 12  -21.0153 26021.5 -03505.7 -07.6728 26256.6
 18 11 2013  22 13  -21.0151 26021.4 -03505.7 -07.6728 26256.5
 18 11 2013  22 14  -21.0150 26021.4 -03505.7 -07.6729 26256.5
 18 11 2013  22 15  -21.0150 26021.3 -03505.8 -07.6730 26256.4
 18 11 2013  22 16  -21.0150 26021.4 -03505.8 -07.6732 26256.5
 18 11 2013  22 17  -21.0150 26021.3 -03505.8 -07.6732 26256.4
 18 11 2013  22 18  -21.0148 26021.3 -03505.9 -07.6733 26256.4
 18 11 2013  22 19  -21.0147 26021.2 -03505.9 -07.6734 26256.4
 18 11 2013  22 20  -21.0144 26021.2 -03505.9 -07.6734 26256.3
 18 11 2013  22 21  -21.0143 26021.2 -03506.0 -07.6736 26256.3
 18 11 2013  22 22  -21.0144 26021.1 -03506.0 -07.6737 26256.2
 18 11 2013  22 23  -21.0143 26021.0 -03506.0 -07.6737 26256.1
 18 11 2013  22 24  -21.0142 26021.0 -03506.0 -07.6738 26256.1
 18 11 2013  22 25  -21.0139 26020.9 -03506.0 -07.6738 26256.1
 18 11 2013  22 26  -21.0135 26020.9 -03506.1 -07.6738 26256.0
 18 11 2013  22 27  -21.0131 26020.9 -03506.1 -07.6739 26256.1
 18 11 2013  22 28  -21.0126 26021.0 -03506.1 -07.6740 26256.1
 18 11 2013  22 29  -21.0124 26020.9 -03506.2 -07.6741 26256.1
 18 11 2013  22 30  -21.0124 26020.9 -03506.3 -07.6742 26256.1
 18 11 2013  22 31  -21.0122 26021.0 -03506.3 -07.6744 26256.2
 18 11 2013  22 32  -21.0120 26020.9 -03506.3 -07.6744 26256.1
 18 11 2013  22 33  -21.0119 26020.9 -03506.3 -07.6743 26256.0
 18 11 2013  22 34  -21.0117 26020.7 -03506.3 -07.6743 26255.9
 18 11 2013  22 35  -21.0116 26020.6 -03506.2 -07.6743 26255.8
 18 11 2013  22 36  -21.0115 26020.6 -03506.2 -07.6743 26255.8
 18 11 2013  22 37  -21.0114 26020.4 -03506.2 -07.6742 26255.6
 18 11 2013  22 38  -21.0113 26020.3 -03506.1 -07.6741 26255.4
 18 11 2013  22 39  -21.0113 26020.1 -03506.1 -07.6741 26255.3
 18 11 2013  22 40  -21.0112 26020.0 -03506.1 -07.6741 26255.2
 18 11 2013  22 41  -21.0112 26019.9 -03506.0 -07.6740 26255.1
 18 11 2013  22 42  -21.0111 26019.9 -03506.1 -07.6741 26255.1
 18 11 2013  22 43  -21.0109 26019.7 -03506.0 -07.6740 26254.9
 18 11 2013  22 44  -21.0111 26019.7 -03506.0 -07.6741 26254.8
 18 11 2013  22 45  -21.0110 26019.7 -03506.0 -07.6741 26254.8
 18 11 2013  22 46  -21.0111 26019.7 -03506.1 -07.6743 26254.9
 18 11 2013  22 47  -21.0112 26019.7 -03506.1 -07.6743 26254.8
 18 11 2013  22 48  -21.0112 26019.7 -03506.2 -07.6744 26254.9
 18 11 2013  22 49  -21.0110 26019.7 -03506.2 -07.6744 26254.9
 18 11 2013  22 50  -21.0110 26019.7 -03506.2 -07.6745 26254.9
 18 11 2013  22 51  -21.0110 26019.8 -03506.3 -07.6746 26254.9
 18 11 2013  22 52  -21.0108 26019.8 -03506.3 -07.6746 26255.0
 18 11 2013  22 53  -21.0107 26019.8 -03506.3 -07.6747 26255.0
 18 11 2013  22 54  -21.0105 26019.8 -03506.3 -07.6747 26254.9
 18 11 2013  22 55  -21.0103 26019.9 -03506.4 -07.6749 26255.1
 18 11 2013  22 56  -21.0102 26019.9 -03506.5 -07.6749 26255.1
 18 11 2013  22 57  -21.0100 26020.0 -03506.5 -07.6751 26255.2
 18 11 2013  22 58  -21.0097 26020.1 -03506.6 -07.6751 26255.3
 18 11 2013  22 59  -21.0095 26020.2 -03506.7 -07.6753 26255.4
 18 11 2013  23 00  -21.0094 26020.3 -03506.8 -07.6755 26255.5
 18 11 2013  23 01  -21.0091 26020.4 -03506.8 -07.6756 26255.6
 18 11 2013  23 02  -21.0089 26020.4 -03506.9 -07.6757 26255.7
 18 11 2013  23 03  -21.0089 26020.4 -03506.9 -07.6757 26255.7
 18 11 2013  23 04  -21.0088 26020.5 -03506.9 -07.6758 26255.7
 18 11 2013  23 05  -21.0088 26020.5 -03507.0 -07.6759 26255.7
 18 11 2013  23 06  -21.0087 26020.5 -03507.0 -07.6759 26255.7
 18 11 2013  23 07  -21.0087 26020.4 -03507.0 -07.6759 26255.6
 18 11 2013  23 08  -21.0088 26020.2 -03506.9 -07.6759 26255.5
 18 11 2013  23 09  -21.0088 26020.1 -03506.9 -07.6758 26255.4
 18 11 2013  23 10  -21.0089 26020.1 -03506.9 -07.6759 26255.3
 18 11 2013  23 11  -21.0087 26020.1 -03506.9 -07.6760 26255.3
 18 11 2013  23 12  -21.0086 26020.0 -03506.9 -07.6759 26255.3
 18 11 2013  23 13  -21.0084 26019.9 -03506.9 -07.6759 26255.1
 18 11 2013  23 14  -21.0083 26019.8 -03506.9 -07.6758 26255.1
 18 11 2013  23 15  -21.0082 26019.7 -03506.8 -07.6758 26255.0
 18 11 2013  23 16  -21.0081 26019.6 -03506.8 -07.6758 26254.8
 18 11 2013  23 17  -21.0081 26019.5 -03506.8 -07.6758 26254.7
 18 11 2013  23 18  -21.0082 26019.3 -03506.8 -07.6758 26254.6
 18 11 2013  23 19  -21.0081 26019.2 -03506.7 -07.6758 26254.5
 18 11 2013  23 20  -21.0082 26019.1 -03506.7 -07.6757 26254.3
 18 11 2013  23 21  -21.0083 26018.9 -03506.7 -07.6757 26254.2
 18 11 2013  23 22  -21.0080 26019.1 -03506.7 -07.6758 26254.3
 18 11 2013  23 23  -21.0087 26018.9 -03506.8 -07.6759 26254.1
 18 11 2013  23 24  -21.0094 26018.6 -03506.7 -07.6758 26253.9
 18 11 2013  23 25  -21.0094 26018.3 -03506.6 -07.6756 26253.6
 18 11 2013  23 26  -21.0087 26018.7 -03506.6 -07.6757 26253.9
 18 11 2013  23 27  -21.0095 26018.7 -03506.8 -07.6760 26254.0
 18 11 2013  23 28  -21.0092 26018.7 -03506.8 -07.6760 26254.0
 18 11 2013  23 29  -21.0089 26018.9 -03506.8 -07.6761 26254.2
 18 11 2013  23 30  -21.0088 26018.9 -03506.8 -07.6761 26254.2
 18 11 2013  23 31  -21.0087 26019.0 -03506.9 -07.6762 26254.2
 18 11 2013  23 32  -21.0090 26019.0 -03506.9 -07.6763 26254.2
 18 11 2013  23 33  -21.0090 26019.1 -03507.0 -07.6764 26254.4
 18 11 2013  23 34  -21.0088 26019.1 -03507.0 -07.6764 26254.4
 18 11 2013  23 35  -21.0089 26018.9 -03506.9 -07.6762 26254.2
 18 11 2013  23 36  -21.0091 26018.8 -03506.9 -07.6762 26254.1
 18 11 2013  23 37  -21.0092 26018.7 -03506.8 -07.6760 26253.9
 18 11 2013  23 38  -21.0091 26018.6 -03506.7 -07.6759 26253.9
 18 11 2013  23 39  -21.0090 26018.5 -03506.7 -07.6759 26253.7
 18 11 2013  23 40  -21.0088 26018.4 -03506.7 -07.6759 26253.6
 18 11 2013  23 41  -21.0085 26018.3 -03506.6 -07.6758 26253.6
 18 11 2013  23 42  -21.0083 26018.4 -03506.7 -07.6759 26253.6
 18 11 2013  23 43  -21.0081 26018.5 -03506.7 -07.6760 26253.7
 18 11 2013  23 44  -21.0078 26018.5 -03506.8 -07.6761 26253.8
 18 11 2013  23 45  -21.0075 26018.6 -03506.9 -07.6762 26253.9
 18 11 2013  23 46  -21.0072 26018.7 -03506.9 -07.6763 26254.0
 18 11 2013  23 47  -21.0071 26018.7 -03506.9 -07.6763 26254.0
 18 11 2013  23 48  -21.0070 26018.6 -03506.9 -07.6764 26253.9
 18 11 2013  23 49  -21.0071 26018.5 -03506.9 -07.6764 26253.8
 18 11 2013  23 50  -21.0072 26018.5 -03506.9 -07.6764 26253.8
 18 11 2013  23 51  -21.0071 26018.5 -03506.9 -07.6764 26253.8
 18 11 2013  23 52  -21.0071 26018.4 -03506.9 -07.6764 26253.7
 18 11 2013  23 53  -21.0073 26018.5 -03507.0 -07.6765 26253.8
 18 11 2013  23 54  -21.0070 26018.7 -03507.1 -07.6766 26254.0
 18 11 2013  23 55  -21.0066 26018.8 -03507.1 -07.6767 26254.1
 18 11 2013  23 56  -21.0067 26018.8 -03507.2 -07.6768 26254.1
 18 11 2013  23 57  -21.0071 26018.8 -03507.2 -07.6769 26254.1
