SAO LUIS EMBRACE-03 <261> 1 Min. Reported data

 DD MM YYYY  HH MM   D(Deg)  H(nT)   Z(nT)   I(Deg)   F(nT)

 18 09 2013  00 00  -21.0116 26019.2 -03484.4 -07.6274 26251.5
 18 09 2013  00 01  -21.0115 26019.2 -03484.4 -07.6275 26251.5
 18 09 2013  00 02  -21.0115 26019.2 -03484.4 -07.6275 26251.5
 18 09 2013  00 03  -21.0114 26019.1 -03484.4 -07.6274 26251.3
 18 09 2013  00 04  -21.0113 26018.9 -03484.3 -07.6273 26251.1
 18 09 2013  00 05  -21.0111 26018.8 -03484.3 -07.6273 26251.1
 18 09 2013  00 06  -21.0111 26018.9 -03484.3 -07.6274 26251.1
 18 09 2013  00 07  -21.0113 26018.9 -03484.4 -07.6276 26251.2
 18 09 2013  00 08  -21.0114 26019.0 -03484.5 -07.6277 26251.3
 18 09 2013  00 09  -21.0115 26019.1 -03484.6 -07.6279 26251.4
 18 09 2013  00 10  -21.0119 26019.1 -03484.6 -07.6280 26251.4
 18 09 2013  00 11  -21.0123 26019.2 -03484.7 -07.6281 26251.5
 18 09 2013  00 12  -21.0126 26019.1 -03484.7 -07.6281 26251.4
 18 09 2013  00 13  -21.0129 26019.0 -03484.6 -07.6280 26251.3
 18 09 2013  00 14  -21.0133 26019.0 -03484.6 -07.6280 26251.3
 18 09 2013  00 15  -21.0136 26018.8 -03484.5 -07.6278 26251.1
 18 09 2013  00 16  -21.0138 26018.6 -03484.4 -07.6277 26250.9
 18 09 2013  00 17  -21.0140 26018.6 -03484.4 -07.6275 26250.9
 18 09 2013  00 18  -21.0142 26018.5 -03484.4 -07.6276 26250.8
 18 09 2013  00 19  -21.0142 26018.6 -03484.4 -07.6276 26250.8
 18 09 2013  00 20  -21.0142 26018.7 -03484.4 -07.6277 26251.0
 18 09 2013  00 21  -21.0144 26018.8 -03484.5 -07.6278 26251.1
 18 09 2013  00 22  -21.0146 26018.8 -03484.6 -07.6279 26251.1
 18 09 2013  00 23  -21.0147 26018.8 -03484.6 -07.6280 26251.1
 18 09 2013  00 24  -21.0146 26018.8 -03484.6 -07.6279 26251.1
 18 09 2013  00 25  -21.0145 26018.7 -03484.5 -07.6279 26251.0
 18 09 2013  00 26  -21.0146 26018.6 -03484.5 -07.6279 26250.9
 18 09 2013  00 27  -21.0146 26018.6 -03484.5 -07.6279 26250.9
 18 09 2013  00 28  -21.0148 26018.6 -03484.6 -07.6280 26250.9
 18 09 2013  00 29  -21.0149 26018.7 -03484.6 -07.6280 26251.0
 18 09 2013  00 30  -21.0149 26018.6 -03484.6 -07.6280 26250.9
 18 09 2013  00 31  -21.0150 26018.6 -03484.6 -07.6280 26250.9
 18 09 2013  00 32  -21.0151 26018.7 -03484.6 -07.6281 26251.0
 18 09 2013  00 33  -21.0152 26018.6 -03484.6 -07.6281 26250.9
 18 09 2013  00 34  -21.0154 26018.8 -03484.7 -07.6283 26251.1
 18 09 2013  00 35  -21.0156 26018.9 -03484.8 -07.6285 26251.2
 18 09 2013  00 36  -21.0156 26018.9 -03484.8 -07.6285 26251.2
 18 09 2013  00 37  -21.0155 26018.9 -03484.9 -07.6285 26251.3
 18 09 2013  00 38  -21.0156 26019.0 -03484.9 -07.6285 26251.4
 18 09 2013  00 39  -21.0158 26019.2 -03485.0 -07.6287 26251.5
 18 09 2013  00 40  -21.0161 26019.3 -03485.1 -07.6288 26251.7
 18 09 2013  00 41  -21.0163 26019.4 -03485.1 -07.6290 26251.8
 18 09 2013  00 42  -21.0165 26019.6 -03485.2 -07.6290 26251.9
 18 09 2013  00 43  -21.0167 26019.6 -03485.2 -07.6290 26252.0
 18 09 2013  00 44  -21.0167 26019.7 -03485.2 -07.6291 26252.1
 18 09 2013  00 45  -21.0165 26019.9 -03485.3 -07.6292 26252.3
 18 09 2013  00 46  -21.0162 26020.2 -03485.4 -07.6294 26252.6
 18 09 2013  00 47  -21.0160 26020.3 -03485.5 -07.6295 26252.7
 18 09 2013  00 48  -21.0160 26020.5 -03485.6 -07.6296 26252.9
 18 09 2013  00 49  -21.0161 26020.7 -03485.6 -07.6297 26253.1
 18 09 2013  00 50  -21.0162 26020.8 -03485.7 -07.6298 26253.2
 18 09 2013  00 51  -21.0164 26021.0 -03485.8 -07.6299 26253.4
 18 09 2013  00 52  -21.0165 26021.1 -03485.8 -07.6299 26253.6
 18 09 2013  00 53  -21.0168 26021.1 -03485.8 -07.6300 26253.5
 18 09 2013  00 54  -21.0169 26021.1 -03485.8 -07.6299 26253.6
 18 09 2013  00 55  -21.0170 26021.2 -03485.8 -07.6298 26253.6
 18 09 2013  00 56  -21.0169 26021.2 -03485.7 -07.6298 26253.6
 18 09 2013  00 57  -21.0170 26021.2 -03485.7 -07.6298 26253.7
 18 09 2013  00 58  -21.0168 26021.3 -03485.7 -07.6298 26253.7
 18 09 2013  00 59  -21.0169 26021.3 -03485.8 -07.6298 26253.8
 18 09 2013  01 00  -21.0168 26021.5 -03485.8 -07.6299 26253.9
 18 09 2013  01 01  -21.0168 26021.6 -03485.9 -07.6300 26254.1
 18 09 2013  01 02  -21.0165 26021.8 -03485.9 -07.6300 26254.2
 18 09 2013  01 03  -21.0162 26021.9 -03486.0 -07.6301 26254.3
 18 09 2013  01 04  -21.0159 26021.9 -03486.0 -07.6301 26254.4
 18 09 2013  01 05  -21.0156 26022.0 -03486.0 -07.6302 26254.5
 18 09 2013  01 06  -21.0156 26022.0 -03486.1 -07.6303 26254.5
 18 09 2013  01 07  -21.0154 26022.0 -03486.0 -07.6301 26254.4
 18 09 2013  01 08  -21.0153 26021.9 -03486.0 -07.6301 26254.4
 18 09 2013  01 09  -21.0152 26021.8 -03485.9 -07.6300 26254.3
 18 09 2013  01 10  -21.0153 26021.8 -03485.9 -07.6299 26254.2
 18 09 2013  01 11  -21.0154 26021.7 -03485.8 -07.6298 26254.1
 18 09 2013  01 12  -21.0154 26021.7 -03485.9 -07.6299 26254.2
 18 09 2013  01 13  -21.0155 26021.9 -03485.9 -07.6300 26254.3
 18 09 2013  01 14  -21.0159 26022.1 -03486.1 -07.6302 26254.5
 18 09 2013  01 15  -21.0160 26022.0 -03486.1 -07.6302 26254.5
 18 09 2013  01 16  -21.0160 26022.1 -03486.1 -07.6302 26254.5
 18 09 2013  01 17  -21.0159 26022.2 -03486.1 -07.6302 26254.7
 18 09 2013  01 18  -21.0157 26022.4 -03486.2 -07.6303 26254.9
 18 09 2013  01 19  -21.0156 26022.6 -03486.3 -07.6305 26255.1
 18 09 2013  01 20  -21.0155 26022.7 -03486.3 -07.6305 26255.1
 18 09 2013  01 21  -21.0154 26023.0 -03486.4 -07.6307 26255.5
 18 09 2013  01 22  -21.0156 26023.2 -03486.5 -07.6309 26255.8
 18 09 2013  01 23  -21.0158 26023.7 -03486.8 -07.6312 26256.3
 18 09 2013  01 24  -21.0159 26024.2 -03487.0 -07.6316 26256.8
 18 09 2013  01 25  -21.0160 26024.4 -03487.1 -07.6317 26257.0
 18 09 2013  01 26  -21.0159 26024.5 -03487.1 -07.6317 26257.1
 18 09 2013  01 27  -21.0159 26024.6 -03487.0 -07.6315 26257.1
 18 09 2013  01 28  -21.0157 26024.5 -03486.9 -07.6313 26257.1
 18 09 2013  01 29  -21.0158 26024.3 -03486.7 -07.6310 26256.8
 18 09 2013  01 30  -21.0157 26024.0 -03486.6 -07.6308 26256.6
 18 09 2013  01 31  -21.0156 26023.7 -03486.4 -07.6304 26256.2
 18 09 2013  01 32  -21.0156 26023.5 -03486.2 -07.6302 26255.9
 18 09 2013  01 33  -21.0156 26023.2 -03486.1 -07.6300 26255.7
 18 09 2013  01 34  -21.0155 26023.1 -03486.1 -07.6299 26255.6
 18 09 2013  01 35  -21.0156 26023.1 -03486.1 -07.6300 26255.6
 18 09 2013  01 36  -21.0155 26023.2 -03486.2 -07.6301 26255.6
 18 09 2013  01 37  -21.0155 26023.2 -03486.2 -07.6302 26255.7
 18 09 2013  01 38  -21.0154 26023.3 -03486.3 -07.6303 26255.8
 18 09 2013  01 39  -21.0153 26023.4 -03486.3 -07.6304 26255.9
 18 09 2013  01 40  -21.0152 26023.5 -03486.4 -07.6305 26256.0
 18 09 2013  01 41  -21.0152 26023.6 -03486.4 -07.6306 26256.1
 18 09 2013  01 42  -21.0151 26023.7 -03486.5 -07.6307 26256.3
 18 09 2013  01 43  -21.0149 26024.0 -03486.6 -07.6309 26256.6
 18 09 2013  01 44  -21.0147 26024.8 -03487.0 -07.6314 26257.3
 18 09 2013  01 45  -21.0147 26025.2 -03487.2 -07.6319 26257.8
 18 09 2013  01 46  -21.0146 26025.8 -03487.5 -07.6322 26258.4
 18 09 2013  01 47  -21.0145 26026.0 -03487.6 -07.6323 26258.6
 18 09 2013  01 48  -21.0143 26026.0 -03487.5 -07.6322 26258.7
 18 09 2013  01 49  -21.0140 26026.6 -03487.7 -07.6324 26259.2
 18 09 2013  01 50  -21.0142 26026.3 -03487.6 -07.6322 26259.0
 18 09 2013  01 51  -21.0140 26026.6 -03487.6 -07.6322 26259.3
 18 09 2013  01 52  -21.0140 26026.6 -03487.5 -07.6321 26259.2
 18 09 2013  01 53  -21.0138 26026.7 -03487.5 -07.6320 26259.3
 18 09 2013  01 54  -21.0137 26026.8 -03487.5 -07.6320 26259.4
 18 09 2013  01 55  -21.0138 26026.8 -03487.5 -07.6319 26259.4
 18 09 2013  01 56  -21.0139 26026.9 -03487.5 -07.6318 26259.5
 18 09 2013  01 57  -21.0138 26027.0 -03487.4 -07.6317 26259.6
 18 09 2013  01 58  -21.0138 26027.0 -03487.4 -07.6317 26259.6
 18 09 2013  01 59  -21.0139 26027.1 -03487.5 -07.6318 26259.7
 18 09 2013  02 00  -21.0140 26027.2 -03487.5 -07.6317 26259.8
 18 09 2013  02 01  -21.0141 26027.3 -03487.4 -07.6317 26259.9
 18 09 2013  02 02  -21.0142 26027.4 -03487.4 -07.6316 26260.0
 18 09 2013  02 03  -21.0143 26027.5 -03487.4 -07.6316 26260.1
 18 09 2013  02 04  -21.0145 26027.4 -03487.4 -07.6315 26260.0
 18 09 2013  02 05  -21.0146 26027.2 -03487.2 -07.6312 26259.8
 18 09 2013  02 06  -21.0149 26027.0 -03487.0 -07.6309 26259.5
 18 09 2013  02 07  -21.0152 26026.8 -03486.9 -07.6307 26259.3
 18 09 2013  02 08  -21.0153 26026.5 -03486.8 -07.6305 26259.1
 18 09 2013  02 09  -21.0154 26026.4 -03486.7 -07.6304 26258.9
 18 09 2013  02 10  -21.0155 26026.2 -03486.6 -07.6302 26258.7
 18 09 2013  02 11  -21.0156 26026.2 -03486.6 -07.6301 26258.7
 18 09 2013  02 12  -21.0158 26026.5 -03486.7 -07.6303 26259.0
 18 09 2013  02 13  -21.0162 26026.4 -03486.7 -07.6304 26258.9
 18 09 2013  02 14  -21.0159 26026.5 -03486.7 -07.6303 26259.0
 18 09 2013  02 15  -21.0158 26026.3 -03486.6 -07.6302 26258.8
 18 09 2013  02 16  -21.0157 26026.3 -03486.6 -07.6301 26258.8
 18 09 2013  02 17  -21.0159 26026.2 -03486.5 -07.6300 26258.7
 18 09 2013  02 18  -21.0161 26026.2 -03486.5 -07.6300 26258.7
 18 09 2013  02 19  -21.0162 26026.2 -03486.5 -07.6299 26258.7
 18 09 2013  02 20  -21.0163 26026.1 -03486.5 -07.6299 26258.6
 18 09 2013  02 21  -21.0161 26026.1 -03486.4 -07.6298 26258.6
 18 09 2013  02 22  -21.0160 26026.0 -03486.3 -07.6297 26258.5
 18 09 2013  02 23  -21.0158 26025.9 -03486.3 -07.6296 26258.4
 18 09 2013  02 24  -21.0158 26025.8 -03486.3 -07.6296 26258.3
 18 09 2013  02 25  -21.0159 26025.6 -03486.1 -07.6294 26258.0
 18 09 2013  02 26  -21.0161 26025.6 -03486.2 -07.6295 26258.0
 18 09 2013  02 27  -21.0163 26025.4 -03486.2 -07.6295 26257.9
 18 09 2013  02 28  -21.0164 26025.3 -03486.1 -07.6294 26257.7
 18 09 2013  02 29  -21.0163 26025.3 -03486.1 -07.6294 26257.8
 18 09 2013  02 30  -21.0164 26025.4 -03486.2 -07.6295 26257.8
 18 09 2013  02 31  -21.0165 26025.4 -03486.2 -07.6296 26257.8
 18 09 2013  02 32  -21.0164 26025.5 -03486.3 -07.6297 26258.0
 18 09 2013  02 33  -21.0166 26025.4 -03486.2 -07.6296 26257.8
 18 09 2013  02 34  -21.0164 26025.2 -03486.1 -07.6294 26257.7
 18 09 2013  02 35  -21.0163 26025.2 -03486.1 -07.6294 26257.7
 18 09 2013  02 36  -21.0164 26025.3 -03486.2 -07.6296 26257.8
 18 09 2013  02 37  -21.0158 26026.2 -03486.6 -07.6302 26258.7
 18 09 2013  02 38  -21.0162 26026.2 -03486.8 -07.6307 26258.7
 18 09 2013  02 39  -21.0154 26026.9 -03487.0 -07.6309 26259.5
 18 09 2013  02 40  -21.0155 26026.7 -03487.0 -07.6309 26259.3
 18 09 2013  02 41  -21.0148 26027.2 -03487.1 -07.6310 26259.8
 18 09 2013  02 42  -21.0148 26027.8 -03487.5 -07.6316 26260.4
 18 09 2013  02 43  -21.0149 26027.9 -03487.5 -07.6316 26260.5
 18 09 2013  02 44  -21.0150 26028.4 -03487.8 -07.6321 26261.0
 18 09 2013  02 45  -21.0148 26028.7 -03487.9 -07.6322 26261.4
 18 09 2013  02 46  -21.0146 26028.9 -03487.9 -07.6322 26261.5
 18 09 2013  02 47  -21.0142 26029.2 -03487.9 -07.6322 26261.8
 18 09 2013  02 48  -21.0139 26029.6 -03488.1 -07.6324 26262.2
 18 09 2013  02 49  -21.0139 26029.6 -03488.1 -07.6325 26262.3
 18 09 2013  02 50  -21.0137 26029.8 -03488.2 -07.6325 26262.5
 18 09 2013  02 51  -21.0138 26030.0 -03488.2 -07.6326 26262.6
 18 09 2013  02 52  -21.0137 26030.1 -03488.2 -07.6325 26262.8
 18 09 2013  02 53  -21.0137 26029.9 -03488.1 -07.6323 26262.6
 18 09 2013  02 54  -21.0136 26030.0 -03488.0 -07.6321 26262.6
 18 09 2013  02 55  -21.0134 26029.9 -03487.9 -07.6319 26262.6
 18 09 2013  02 56  -21.0132 26029.7 -03487.7 -07.6316 26262.3
 18 09 2013  02 57  -21.0130 26029.8 -03487.7 -07.6314 26262.4
 18 09 2013  02 58  -21.0128 26029.7 -03487.6 -07.6313 26262.3
 18 09 2013  02 59  -21.0128 26029.7 -03487.6 -07.6313 26262.3
 18 09 2013  03 00  -21.0127 26029.7 -03487.6 -07.6312 26262.3
 18 09 2013  03 01  -21.0127 26029.7 -03487.5 -07.6312 26262.3
 18 09 2013  03 02  -21.0127 26029.6 -03487.5 -07.6312 26262.2
 18 09 2013  03 03  -21.0126 26029.6 -03487.5 -07.6312 26262.2
 18 09 2013  03 04  -21.0126 26029.5 -03487.5 -07.6311 26262.1
 18 09 2013  03 05  -21.0127 26029.8 -03487.6 -07.6314 26262.4
 18 09 2013  03 06  -21.0131 26029.8 -03487.7 -07.6315 26262.4
 18 09 2013  03 07  -21.0132 26029.7 -03487.6 -07.6313 26262.3
 18 09 2013  03 08  -21.0131 26029.7 -03487.5 -07.6311 26262.3
 18 09 2013  03 09  -21.0133 26029.5 -03487.4 -07.6310 26262.1
 18 09 2013  03 10  -21.0134 26029.2 -03487.3 -07.6308 26261.8
 18 09 2013  03 11  -21.0134 26028.8 -03487.0 -07.6304 26261.3
 18 09 2013  03 12  -21.0131 26028.4 -03486.9 -07.6301 26261.0
 18 09 2013  03 13  -21.0129 26028.1 -03486.7 -07.6298 26260.6
 18 09 2013  03 14  -21.0123 26027.9 -03486.6 -07.6297 26260.4
 18 09 2013  03 15  -21.0119 26027.8 -03486.6 -07.6298 26260.3
 18 09 2013  03 16  -21.0119 26027.8 -03486.8 -07.6300 26260.3
 18 09 2013  03 17  -21.0120 26028.1 -03487.0 -07.6305 26260.7
 18 09 2013  03 18  -21.0122 26028.0 -03487.1 -07.6307 26260.5
 18 09 2013  03 19  -21.0122 26028.2 -03487.2 -07.6309 26260.8
 18 09 2013  03 20  -21.0123 26028.4 -03487.3 -07.6311 26261.0
 18 09 2013  03 21  -21.0124 26028.4 -03487.4 -07.6313 26261.0
 18 09 2013  03 22  -21.0125 26028.3 -03487.3 -07.6312 26260.9
 18 09 2013  03 23  -21.0123 26028.1 -03487.3 -07.6310 26260.7
 18 09 2013  03 24  -21.0120 26028.1 -03487.3 -07.6311 26260.7
 18 09 2013  03 25  -21.0116 26028.1 -03487.3 -07.6311 26260.7
 18 09 2013  03 26  -21.0114 26028.1 -03487.3 -07.6312 26260.6
 18 09 2013  03 27  -21.0113 26028.0 -03487.3 -07.6312 26260.6
 18 09 2013  03 28  -21.0114 26027.9 -03487.3 -07.6312 26260.5
 18 09 2013  03 29  -21.0112 26028.0 -03487.4 -07.6314 26260.6
 18 09 2013  03 30  -21.0111 26027.7 -03487.3 -07.6313 26260.3
 18 09 2013  03 31  -21.0109 26027.6 -03487.2 -07.6311 26260.2
 18 09 2013  03 32  -21.0108 26027.5 -03487.2 -07.6312 26260.1
 18 09 2013  03 33  -21.0106 26027.4 -03487.3 -07.6313 26260.0
 18 09 2013  03 34  -21.0107 26027.4 -03487.3 -07.6314 26260.0
 18 09 2013  03 35  -21.0107 26027.4 -03487.4 -07.6315 26260.0
 18 09 2013  03 36  -21.0106 26027.4 -03487.4 -07.6316 26260.0
 18 09 2013  03 37  -21.0107 26027.5 -03487.5 -07.6317 26260.1
 18 09 2013  03 38  -21.0107 26027.4 -03487.5 -07.6318 26260.0
 18 09 2013  03 39  -21.0104 26027.4 -03487.5 -07.6318 26260.1
 18 09 2013  03 40  -21.0102 26027.5 -03487.5 -07.6318 26260.1
 18 09 2013  03 41  -21.0099 26027.6 -03487.6 -07.6320 26260.2
 18 09 2013  03 42  -21.0096 26027.6 -03487.6 -07.6321 26260.2
 18 09 2013  03 43  -21.0094 26027.7 -03487.7 -07.6322 26260.3
 18 09 2013  03 44  -21.0091 26027.8 -03487.8 -07.6324 26260.4
 18 09 2013  03 45  -21.0091 26027.7 -03487.9 -07.6325 26260.4
 18 09 2013  03 46  -21.0090 26027.8 -03487.9 -07.6325 26260.5
 18 09 2013  03 47  -21.0090 26027.9 -03488.0 -07.6327 26260.5
 18 09 2013  03 48  -21.0091 26027.9 -03488.0 -07.6328 26260.5
 18 09 2013  03 49  -21.0093 26027.9 -03488.0 -07.6328 26260.6
 18 09 2013  03 50  -21.0095 26027.9 -03488.0 -07.6328 26260.6
 18 09 2013  03 51  -21.0096 26027.9 -03488.1 -07.6329 26260.6
 18 09 2013  03 52  -21.0096 26028.0 -03488.1 -07.6330 26260.7
 18 09 2013  03 53  -21.0097 26028.2 -03488.2 -07.6330 26260.9
 18 09 2013  03 54  -21.0099 26028.6 -03488.4 -07.6334 26261.3
 18 09 2013  03 55  -21.0101 26028.8 -03488.5 -07.6336 26261.6
 18 09 2013  03 56  -21.0102 26028.9 -03488.5 -07.6336 26261.7
 18 09 2013  03 57  -21.0101 26029.0 -03488.5 -07.6335 26261.7
 18 09 2013  03 58  -21.0101 26028.9 -03488.5 -07.6334 26261.6
 18 09 2013  03 59  -21.0102 26028.8 -03488.4 -07.6333 26261.5
 18 09 2013  04 00  -21.0102 26028.6 -03488.3 -07.6331 26261.3
 18 09 2013  04 01  -21.0104 26028.3 -03488.1 -07.6328 26260.9
 18 09 2013  04 02  -21.0104 26027.9 -03487.9 -07.6325 26260.5
 18 09 2013  04 03  -21.0106 26027.5 -03487.7 -07.6322 26260.2
 18 09 2013  04 04  -21.0107 26027.3 -03487.6 -07.6321 26259.9
 18 09 2013  04 05  -21.0109 26027.3 -03487.7 -07.6321 26260.0
 18 09 2013  04 06  -21.0110 26027.4 -03487.7 -07.6323 26260.0
 18 09 2013  04 07  -21.0111 26027.4 -03487.8 -07.6324 26260.1
 18 09 2013  04 08  -21.0113 26027.6 -03487.9 -07.6326 26260.3
 18 09 2013  04 09  -21.0114 26027.9 -03488.1 -07.6329 26260.6
 18 09 2013  04 10  -21.0116 26028.1 -03488.2 -07.6331 26260.8
 18 09 2013  04 11  -21.0118 26028.3 -03488.3 -07.6333 26261.0
 18 09 2013  04 12  -21.0120 26028.5 -03488.4 -07.6334 26261.2
 18 09 2013  04 13  -21.0121 26028.6 -03488.4 -07.6334 26261.3
 18 09 2013  04 14  -21.0121 26028.7 -03488.4 -07.6333 26261.4
 18 09 2013  04 15  -21.0121 26028.6 -03488.3 -07.6332 26261.3
 18 09 2013  04 16  -21.0120 26028.4 -03488.2 -07.6331 26261.1
 18 09 2013  04 17  -21.0120 26028.2 -03488.1 -07.6329 26260.9
 18 09 2013  04 18  -21.0120 26028.1 -03488.0 -07.6327 26260.8
 18 09 2013  04 19  -21.0122 26028.0 -03488.0 -07.6327 26260.7
 18 09 2013  04 20  -21.0123 26027.9 -03487.9 -07.6326 26260.6
 18 09 2013  04 21  -21.0124 26027.9 -03488.0 -07.6326 26260.6
 18 09 2013  04 22  -21.0125 26028.0 -03488.0 -07.6326 26260.6
 18 09 2013  04 23  -21.0125 26028.2 -03488.1 -07.6328 26260.9
 18 09 2013  04 24  -21.0125 26028.4 -03488.2 -07.6330 26261.1
 18 09 2013  04 25  -21.0125 26028.6 -03488.3 -07.6331 26261.3
 18 09 2013  04 26  -21.0125 26028.6 -03488.3 -07.6331 26261.3
 18 09 2013  04 27  -21.0125 26028.6 -03488.2 -07.6330 26261.3
 18 09 2013  04 28  -21.0126 26028.5 -03488.2 -07.6329 26261.2
 18 09 2013  04 29  -21.0127 26028.5 -03488.1 -07.6328 26261.2
 18 09 2013  04 30  -21.0128 26028.4 -03488.1 -07.6327 26261.1
 18 09 2013  04 31  -21.0128 26028.3 -03488.0 -07.6326 26260.9
 18 09 2013  04 32  -21.0127 26028.2 -03487.9 -07.6325 26260.9
 18 09 2013  04 33  -21.0127 26028.3 -03488.0 -07.6325 26260.9
 18 09 2013  04 34  -21.0127 26028.3 -03488.0 -07.6326 26261.0
 18 09 2013  04 35  -21.0127 26028.4 -03488.0 -07.6327 26261.0
 18 09 2013  04 36  -21.0128 26028.4 -03488.0 -07.6326 26261.0
 18 09 2013  04 37  -21.0126 26028.4 -03488.1 -07.6327 26261.1
 18 09 2013  04 38  -21.0126 26028.6 -03488.1 -07.6327 26261.2
 18 09 2013  04 39  -21.0125 26028.8 -03488.2 -07.6329 26261.5
 18 09 2013  04 40  -21.0125 26029.1 -03488.4 -07.6331 26261.8
 18 09 2013  04 41  -21.0124 26029.4 -03488.5 -07.6334 26262.1
 18 09 2013  04 42  -21.0124 26029.6 -03488.6 -07.6336 26262.3
 18 09 2013  04 43  -21.0124 26029.7 -03488.7 -07.6337 26262.5
 18 09 2013  04 44  -21.0123 26030.0 -03488.7 -07.6337 26262.7
 18 09 2013  04 45  -21.0122 26030.1 -03488.8 -07.6338 26262.8
 18 09 2013  04 46  -21.0121 26029.9 -03488.7 -07.6336 26262.6
 18 09 2013  04 47  -21.0121 26029.8 -03488.6 -07.6334 26262.5
 18 09 2013  04 48  -21.0121 26029.7 -03488.5 -07.6333 26262.4
 18 09 2013  04 49  -21.0120 26029.7 -03488.5 -07.6332 26262.4
 18 09 2013  04 50  -21.0120 26029.7 -03488.4 -07.6332 26262.4
 18 09 2013  04 51  -21.0118 26029.8 -03488.5 -07.6332 26262.5
 18 09 2013  04 52  -21.0116 26029.9 -03488.5 -07.6333 26262.6
 18 09 2013  04 53  -21.0114 26030.0 -03488.6 -07.6333 26262.7
 18 09 2013  04 54  -21.0111 26030.1 -03488.6 -07.6334 26262.8
 18 09 2013  04 55  -21.0108 26030.1 -03488.6 -07.6334 26262.9
 18 09 2013  04 56  -21.0107 26030.2 -03488.7 -07.6335 26262.9
 18 09 2013  04 57  -21.0105 26030.2 -03488.7 -07.6335 26263.0
 18 09 2013  04 58  -21.0104 26030.3 -03488.7 -07.6335 26263.1
 18 09 2013  04 59  -21.0104 26030.3 -03488.7 -07.6335 26263.1
 18 09 2013  05 00  -21.0104 26030.3 -03488.7 -07.6336 26263.1
 18 09 2013  05 01  -21.0103 26030.4 -03488.7 -07.6335 26263.1
 18 09 2013  05 02  -21.0104 26030.5 -03488.7 -07.6336 26263.2
 18 09 2013  05 03  -21.0104 26030.5 -03488.8 -07.6336 26263.3
 18 09 2013  05 04  -21.0103 26030.5 -03488.8 -07.6337 26263.3
 18 09 2013  05 05  -21.0103 26030.6 -03488.8 -07.6337 26263.4
 18 09 2013  05 06  -21.0101 26030.6 -03488.8 -07.6337 26263.4
 18 09 2013  05 07  -21.0100 26030.7 -03488.8 -07.6336 26263.4
 18 09 2013  05 08  -21.0099 26030.6 -03488.8 -07.6337 26263.4
 18 09 2013  05 09  -21.0098 26030.6 -03488.8 -07.6337 26263.4
 18 09 2013  05 10  -21.0098 26030.7 -03488.9 -07.6338 26263.4
 18 09 2013  05 11  -21.0097 26030.7 -03488.9 -07.6338 26263.4
 18 09 2013  05 12  -21.0096 26030.7 -03488.9 -07.6338 26263.5
 18 09 2013  05 13  -21.0095 26030.7 -03488.9 -07.6338 26263.5
 18 09 2013  05 14  -21.0093 26030.8 -03488.9 -07.6339 26263.5
 18 09 2013  05 15  -21.0092 26030.8 -03488.9 -07.6339 26263.6
 18 09 2013  05 16  -21.0091 26030.8 -03489.0 -07.6340 26263.6
 18 09 2013  05 17  -21.0090 26030.8 -03489.0 -07.6340 26263.6
 18 09 2013  05 18  -21.0090 26030.9 -03489.0 -07.6341 26263.7
 18 09 2013  05 19  -21.0090 26030.9 -03489.1 -07.6341 26263.7
 18 09 2013  05 20  -21.0090 26030.9 -03489.1 -07.6342 26263.7
 18 09 2013  05 21  -21.0091 26030.9 -03489.1 -07.6342 26263.6
 18 09 2013  05 22  -21.0090 26030.8 -03489.0 -07.6341 26263.6
 18 09 2013  05 23  -21.0090 26030.7 -03489.0 -07.6340 26263.5
 18 09 2013  05 24  -21.0090 26030.8 -03489.0 -07.6341 26263.6
 18 09 2013  05 25  -21.0091 26030.9 -03489.1 -07.6343 26263.7
 18 09 2013  05 26  -21.0092 26030.9 -03489.2 -07.6344 26263.7
 18 09 2013  05 27  -21.0093 26031.0 -03489.2 -07.6345 26263.8
 18 09 2013  05 28  -21.0094 26031.0 -03489.2 -07.6345 26263.8
 18 09 2013  05 29  -21.0094 26031.0 -03489.3 -07.6346 26263.8
 18 09 2013  05 30  -21.0093 26031.1 -03489.3 -07.6346 26263.9
 18 09 2013  05 31  -21.0093 26031.2 -03489.4 -07.6347 26264.0
 18 09 2013  05 32  -21.0093 26031.3 -03489.4 -07.6347 26264.1
 18 09 2013  05 33  -21.0094 26031.3 -03489.4 -07.6348 26264.1
 18 09 2013  05 34  -21.0094 26031.3 -03489.4 -07.6348 26264.1
 18 09 2013  05 35  -21.0095 26031.2 -03489.4 -07.6347 26264.0
 18 09 2013  05 36  -21.0097 26031.1 -03489.3 -07.6346 26263.9
 18 09 2013  05 37  -21.0097 26031.1 -03489.3 -07.6345 26263.9
 18 09 2013  05 38  -21.0097 26031.1 -03489.3 -07.6345 26263.9
 18 09 2013  05 39  -21.0097 26031.2 -03489.4 -07.6347 26264.1
 18 09 2013  05 40  -21.0098 26031.3 -03489.4 -07.6347 26264.1
 18 09 2013  05 41  -21.0098 26031.4 -03489.5 -07.6349 26264.2
 18 09 2013  05 42  -21.0098 26031.4 -03489.5 -07.6350 26264.3
 18 09 2013  05 43  -21.0097 26031.4 -03489.5 -07.6350 26264.3
 18 09 2013  05 44  -21.0096 26031.4 -03489.5 -07.6350 26264.2
 18 09 2013  05 45  -21.0097 26031.4 -03489.5 -07.6349 26264.2
 18 09 2013  05 46  -21.0097 26031.3 -03489.4 -07.6348 26264.1
 18 09 2013  05 47  -21.0098 26031.3 -03489.4 -07.6348 26264.1
 18 09 2013  05 48  -21.0098 26031.3 -03489.4 -07.6348 26264.2
 18 09 2013  05 49  -21.0098 26031.5 -03489.5 -07.6349 26264.3
 18 09 2013  05 50  -21.0098 26031.5 -03489.5 -07.6350 26264.4
 18 09 2013  05 51  -21.0097 26031.7 -03489.6 -07.6351 26264.5
 18 09 2013  05 52  -21.0096 26031.8 -03489.7 -07.6352 26264.7
 18 09 2013  05 53  -21.0094 26031.9 -03489.7 -07.6352 26264.8
 18 09 2013  05 54  -21.0093 26032.0 -03489.7 -07.6353 26264.9
 18 09 2013  05 55  -21.0092 26032.0 -03489.8 -07.6354 26264.9
 18 09 2013  05 56  -21.0090 26032.0 -03489.8 -07.6353 26264.9
 18 09 2013  05 57  -21.0089 26032.0 -03489.7 -07.6353 26264.9
 18 09 2013  05 58  -21.0089 26031.9 -03489.7 -07.6353 26264.8
 18 09 2013  05 59  -21.0089 26031.9 -03489.7 -07.6352 26264.7
 18 09 2013  06 00  -21.0089 26031.8 -03489.7 -07.6352 26264.7
 18 09 2013  06 01  -21.0089 26031.8 -03489.6 -07.6352 26264.6
 18 09 2013  06 02  -21.0089 26031.8 -03489.7 -07.6352 26264.6
 18 09 2013  06 03  -21.0088 26031.8 -03489.7 -07.6352 26264.7
 18 09 2013  06 04  -21.0088 26031.8 -03489.7 -07.6352 26264.7
 18 09 2013  06 05  -21.0087 26031.9 -03489.7 -07.6352 26264.7
 18 09 2013  06 06  -21.0087 26031.9 -03489.7 -07.6353 26264.8
 18 09 2013  06 07  -21.0086 26032.0 -03489.7 -07.6353 26264.8
 18 09 2013  06 08  -21.0084 26032.0 -03489.7 -07.6353 26264.9
 18 09 2013  06 09  -21.0082 26032.0 -03489.8 -07.6354 26264.9
 18 09 2013  06 10  -21.0080 26032.0 -03489.8 -07.6354 26264.9
 18 09 2013  06 11  -21.0080 26032.0 -03489.8 -07.6354 26264.9
 18 09 2013  06 12  -21.0079 26032.0 -03489.8 -07.6355 26264.9
 18 09 2013  06 13  -21.0079 26031.9 -03489.8 -07.6354 26264.8
 18 09 2013  06 14  -21.0080 26031.9 -03489.8 -07.6354 26264.8
 18 09 2013  06 15  -21.0080 26031.7 -03489.7 -07.6352 26264.6
 18 09 2013  06 16  -21.0081 26031.6 -03489.6 -07.6351 26264.5
 18 09 2013  06 17  -21.0081 26031.6 -03489.6 -07.6350 26264.4
 18 09 2013  06 18  -21.0081 26031.6 -03489.6 -07.6351 26264.4
 18 09 2013  06 19  -21.0081 26031.6 -03489.6 -07.6350 26264.5
 18 09 2013  06 20  -21.0081 26031.6 -03489.6 -07.6352 26264.4
 18 09 2013  06 21  -21.0080 26031.6 -03489.6 -07.6352 26264.5
 18 09 2013  06 22  -21.0081 26031.7 -03489.7 -07.6353 26264.6
 18 09 2013  06 23  -21.0080 26031.9 -03489.8 -07.6354 26264.7
 18 09 2013  06 24  -21.0079 26032.0 -03489.8 -07.6355 26264.9
 18 09 2013  06 25  -21.0078 26032.1 -03489.9 -07.6356 26265.0
 18 09 2013  06 26  -21.0076 26032.2 -03489.9 -07.6356 26265.1
 18 09 2013  06 27  -21.0075 26032.3 -03490.0 -07.6357 26265.2
 18 09 2013  06 28  -21.0073 26032.4 -03490.0 -07.6357 26265.3
 18 09 2013  06 29  -21.0071 26032.3 -03489.9 -07.6356 26265.2
 18 09 2013  06 30  -21.0070 26032.3 -03489.9 -07.6356 26265.2
 18 09 2013  06 31  -21.0070 26032.3 -03489.9 -07.6355 26265.1
 18 09 2013  06 32  -21.0070 26032.3 -03489.8 -07.6354 26265.1
 18 09 2013  06 33  -21.0070 26032.3 -03489.8 -07.6354 26265.1
 18 09 2013  06 34  -21.0070 26032.2 -03489.8 -07.6354 26265.1
 18 09 2013  06 35  -21.0070 26032.2 -03489.8 -07.6353 26265.1
 18 09 2013  06 36  -21.0070 26032.2 -03489.8 -07.6353 26265.1
 18 09 2013  06 37  -21.0069 26032.1 -03489.7 -07.6353 26265.0
 18 09 2013  06 38  -21.0069 26032.1 -03489.7 -07.6352 26265.0
 18 09 2013  06 39  -21.0069 26032.1 -03489.7 -07.6352 26265.0
 18 09 2013  06 40  -21.0068 26032.1 -03489.7 -07.6352 26265.0
 18 09 2013  06 41  -21.0067 26032.2 -03489.8 -07.6353 26265.1
 18 09 2013  06 42  -21.0067 26032.2 -03489.8 -07.6354 26265.1
 18 09 2013  06 43  -21.0066 26032.3 -03489.8 -07.6354 26265.2
 18 09 2013  06 44  -21.0064 26032.4 -03489.8 -07.6354 26265.2
 18 09 2013  06 45  -21.0061 26032.3 -03489.8 -07.6353 26265.2
 18 09 2013  06 46  -21.0060 26032.3 -03489.8 -07.6353 26265.2
 18 09 2013  06 47  -21.0060 26032.3 -03489.8 -07.6353 26265.1
 18 09 2013  06 48  -21.0058 26032.3 -03489.8 -07.6353 26265.2
 18 09 2013  06 49  -21.0059 26032.3 -03489.8 -07.6353 26265.2
 18 09 2013  06 50  -21.0058 26032.4 -03489.8 -07.6354 26265.2
 18 09 2013  06 51  -21.0058 26032.4 -03489.8 -07.6354 26265.3
 18 09 2013  06 52  -21.0056 26032.4 -03489.8 -07.6354 26265.3
 18 09 2013  06 53  -21.0057 26032.5 -03489.9 -07.6354 26265.4
 18 09 2013  06 54  -21.0055 26032.6 -03489.9 -07.6355 26265.5
 18 09 2013  06 55  -21.0055 26032.6 -03489.9 -07.6355 26265.5
 18 09 2013  06 56  -21.0054 26032.7 -03490.0 -07.6356 26265.6
 18 09 2013  06 57  -21.0053 26032.8 -03490.0 -07.6357 26265.7
 18 09 2013  06 58  -21.0052 26032.9 -03490.1 -07.6357 26265.8
 18 09 2013  06 59  -21.0051 26033.0 -03490.1 -07.6357 26265.9
 18 09 2013  07 00  -21.0051 26033.0 -03490.1 -07.6357 26265.9
 18 09 2013  07 01  -21.0050 26033.2 -03490.1 -07.6357 26266.1
 18 09 2013  07 02  -21.0051 26033.3 -03490.1 -07.6357 26266.2
 18 09 2013  07 03  -21.0050 26033.4 -03490.2 -07.6358 26266.3
 18 09 2013  07 04  -21.0049 26033.5 -03490.2 -07.6359 26266.4
 18 09 2013  07 05  -21.0047 26033.6 -03490.3 -07.6360 26266.5
 18 09 2013  07 06  -21.0046 26033.6 -03490.3 -07.6361 26266.6
 18 09 2013  07 07  -21.0045 26033.9 -03490.4 -07.6362 26266.8
 18 09 2013  07 08  -21.0044 26034.0 -03490.5 -07.6363 26267.0
 18 09 2013  07 09  -21.0043 26034.3 -03490.6 -07.6365 26267.3
 18 09 2013  07 10  -21.0043 26034.5 -03490.7 -07.6365 26267.5
 18 09 2013  07 11  -21.0042 26034.6 -03490.7 -07.6366 26267.6
 18 09 2013  07 12  -21.0041 26034.8 -03490.7 -07.6366 26267.8
 18 09 2013  07 13  -21.0039 26035.0 -03490.8 -07.6366 26267.9
 18 09 2013  07 14  -21.0037 26035.1 -03490.8 -07.6366 26268.1
 18 09 2013  07 15  -21.0035 26035.2 -03490.8 -07.6366 26268.2
 18 09 2013  07 16  -21.0034 26035.1 -03490.7 -07.6364 26268.1
 18 09 2013  07 17  -21.0033 26035.1 -03490.6 -07.6363 26268.0
 18 09 2013  07 18  -21.0033 26035.0 -03490.5 -07.6361 26267.9
 18 09 2013  07 19  -21.0032 26034.9 -03490.4 -07.6360 26267.8
 18 09 2013  07 20  -21.0032 26034.9 -03490.4 -07.6359 26267.9
 18 09 2013  07 21  -21.0032 26034.9 -03490.4 -07.6359 26267.8
 18 09 2013  07 22  -21.0033 26035.0 -03490.5 -07.6360 26267.9
 18 09 2013  07 23  -21.0033 26035.1 -03490.6 -07.6362 26268.1
 18 09 2013  07 24  -21.0033 26035.2 -03490.6 -07.6362 26268.2
 18 09 2013  07 25  -21.0032 26035.3 -03490.6 -07.6362 26268.3
 18 09 2013  07 26  -21.0032 26035.4 -03490.6 -07.6362 26268.3
 18 09 2013  07 27  -21.0031 26035.4 -03490.6 -07.6362 26268.3
 18 09 2013  07 28  -21.0030 26035.3 -03490.5 -07.6361 26268.2
 18 09 2013  07 29  -21.0030 26035.1 -03490.4 -07.6358 26268.0
 18 09 2013  07 30  -21.0030 26035.0 -03490.3 -07.6357 26267.9
 18 09 2013  07 31  -21.0030 26034.8 -03490.2 -07.6354 26267.7
 18 09 2013  07 32  -21.0030 26034.7 -03490.0 -07.6352 26267.5
 18 09 2013  07 33  -21.0032 26034.7 -03490.0 -07.6351 26267.6
 18 09 2013  07 34  -21.0034 26034.8 -03490.0 -07.6352 26267.6
 18 09 2013  07 35  -21.0035 26035.0 -03490.2 -07.6354 26267.9
 18 09 2013  07 36  -21.0035 26035.1 -03490.3 -07.6357 26268.0
 18 09 2013  07 37  -21.0035 26035.2 -03490.4 -07.6358 26268.2
 18 09 2013  07 38  -21.0033 26035.4 -03490.4 -07.6358 26268.3
 18 09 2013  07 39  -21.0030 26035.5 -03490.5 -07.6358 26268.5
 18 09 2013  07 40  -21.0028 26035.5 -03490.4 -07.6357 26268.5
 18 09 2013  07 41  -21.0026 26035.4 -03490.3 -07.6355 26268.3
 18 09 2013  07 42  -21.0025 26035.4 -03490.2 -07.6354 26268.3
 18 09 2013  07 43  -21.0024 26035.4 -03490.2 -07.6352 26268.3
 18 09 2013  07 44  -21.0025 26035.5 -03490.2 -07.6352 26268.3
 18 09 2013  07 45  -21.0025 26035.5 -03490.2 -07.6354 26268.4
 18 09 2013  07 46  -21.0025 26035.6 -03490.3 -07.6355 26268.5
 18 09 2013  07 47  -21.0024 26035.7 -03490.3 -07.6355 26268.6
 18 09 2013  07 48  -21.0023 26035.7 -03490.3 -07.6355 26268.7
 18 09 2013  07 49  -21.0021 26035.8 -03490.3 -07.6355 26268.7
 18 09 2013  07 50  -21.0021 26035.7 -03490.3 -07.6354 26268.7
 18 09 2013  07 51  -21.0020 26035.7 -03490.3 -07.6354 26268.6
 18 09 2013  07 52  -21.0020 26035.7 -03490.2 -07.6353 26268.6
 18 09 2013  07 53  -21.0018 26035.6 -03490.2 -07.6352 26268.5
 18 09 2013  07 54  -21.0019 26035.6 -03490.1 -07.6351 26268.5
 18 09 2013  07 55  -21.0018 26035.6 -03490.1 -07.6350 26268.5
 18 09 2013  07 56  -21.0018 26035.5 -03490.1 -07.6350 26268.4
 18 09 2013  07 57  -21.0017 26035.3 -03490.0 -07.6348 26268.1
 18 09 2013  07 58  -21.0015 26035.1 -03489.9 -07.6346 26268.0
 18 09 2013  07 59  -21.0016 26034.9 -03489.7 -07.6344 26267.7
 18 09 2013  08 00  -21.0018 26034.8 -03489.7 -07.6343 26267.6
 18 09 2013  08 01  -21.0019 26034.7 -03489.6 -07.6342 26267.5
 18 09 2013  08 02  -21.0020 26034.6 -03489.5 -07.6341 26267.4
 18 09 2013  08 03  -21.0020 26034.6 -03489.5 -07.6341 26267.4
 18 09 2013  08 04  -21.0020 26034.6 -03489.5 -07.6341 26267.4
 18 09 2013  08 05  -21.0019 26034.7 -03489.6 -07.6343 26267.6
 18 09 2013  08 06  -21.0018 26034.9 -03489.7 -07.6344 26267.7
 18 09 2013  08 07  -21.0017 26034.9 -03489.8 -07.6346 26267.7
 18 09 2013  08 08  -21.0014 26034.9 -03489.8 -07.6346 26267.8
 18 09 2013  08 09  -21.0011 26034.9 -03489.8 -07.6345 26267.8
 18 09 2013  08 10  -21.0010 26034.9 -03489.8 -07.6345 26267.7
 18 09 2013  08 11  -21.0009 26034.8 -03489.7 -07.6344 26267.7
 18 09 2013  08 12  -21.0010 26034.8 -03489.7 -07.6344 26267.7
 18 09 2013  08 13  -21.0009 26034.9 -03489.7 -07.6344 26267.7
 18 09 2013  08 14  -21.0008 26034.9 -03489.7 -07.6343 26267.7
 18 09 2013  08 15  -21.0008 26035.0 -03489.7 -07.6344 26267.9
 18 09 2013  08 16  -21.0007 26035.1 -03489.8 -07.6345 26267.9
 18 09 2013  08 17  -21.0007 26035.1 -03489.8 -07.6344 26267.9
 18 09 2013  08 18  -21.0005 26035.0 -03489.7 -07.6344 26267.9
 18 09 2013  08 19  -21.0001 26035.0 -03489.7 -07.6342 26267.9
 18 09 2013  08 20  -20.9999 26035.1 -03489.6 -07.6341 26267.9
 18 09 2013  08 21  -20.9996 26035.1 -03489.6 -07.6341 26267.9
 18 09 2013  08 22  -20.9993 26035.1 -03489.6 -07.6341 26267.9
 18 09 2013  08 23  -20.9990 26035.1 -03489.6 -07.6340 26267.9
 18 09 2013  08 24  -20.9986 26035.2 -03489.6 -07.6341 26268.0
 18 09 2013  08 25  -20.9984 26035.2 -03489.6 -07.6341 26268.0
 18 09 2013  08 26  -20.9982 26035.2 -03489.6 -07.6341 26268.0
 18 09 2013  08 27  -20.9980 26035.2 -03489.6 -07.6340 26268.0
 18 09 2013  08 28  -20.9976 26035.3 -03489.5 -07.6339 26268.1
 18 09 2013  08 29  -20.9970 26035.2 -03489.5 -07.6338 26268.0
 18 09 2013  08 30  -20.9963 26035.2 -03489.4 -07.6336 26268.0
 18 09 2013  08 31  -20.9959 26035.3 -03489.4 -07.6336 26268.1
 18 09 2013  08 32  -20.9954 26035.6 -03489.5 -07.6337 26268.5
 18 09 2013  08 33  -20.9952 26035.8 -03489.6 -07.6340 26268.6
 18 09 2013  08 34  -20.9948 26035.9 -03489.7 -07.6340 26268.7
 18 09 2013  08 35  -20.9940 26036.1 -03489.8 -07.6342 26268.9
 18 09 2013  08 36  -20.9937 26036.1 -03489.8 -07.6342 26269.0
 18 09 2013  08 37  -20.9932 26036.2 -03489.8 -07.6343 26269.1
 18 09 2013  08 38  -20.9925 26036.3 -03489.9 -07.6343 26269.2
 18 09 2013  08 39  -20.9918 26036.3 -03489.9 -07.6344 26269.1
 18 09 2013  08 40  -20.9911 26036.2 -03489.9 -07.6344 26269.1
 18 09 2013  08 41  -20.9905 26036.2 -03489.9 -07.6345 26269.0
 18 09 2013  08 42  -20.9904 26036.1 -03490.0 -07.6347 26269.0
 18 09 2013  08 43  -20.9904 26036.1 -03490.1 -07.6348 26269.0
 18 09 2013  08 44  -20.9903 26036.1 -03490.2 -07.6350 26269.0
 18 09 2013  08 45  -20.9900 26036.1 -03490.2 -07.6352 26269.0
 18 09 2013  08 46  -20.9896 26035.9 -03490.2 -07.6351 26268.8
 18 09 2013  08 47  -20.9893 26035.9 -03490.2 -07.6351 26268.8
 18 09 2013  08 48  -20.9889 26035.7 -03490.2 -07.6353 26268.6
 18 09 2013  08 49  -20.9885 26035.6 -03490.2 -07.6353 26268.5
 18 09 2013  08 50  -20.9886 26035.7 -03490.3 -07.6354 26268.6
 18 09 2013  08 51  -20.9884 26035.9 -03490.5 -07.6357 26268.8
 18 09 2013  08 52  -20.9883 26035.8 -03490.5 -07.6358 26268.7
 18 09 2013  08 53  -20.9886 26035.9 -03490.7 -07.6361 26268.9
 18 09 2013  08 54  -20.9890 26036.0 -03490.8 -07.6363 26269.0
 18 09 2013  08 55  -20.9889 26036.1 -03490.8 -07.6364 26269.1
 18 09 2013  08 56  -20.9887 26036.2 -03490.9 -07.6366 26269.2
 18 09 2013  08 57  -20.9889 26036.2 -03491.0 -07.6367 26269.2
 18 09 2013  08 58  -20.9889 26036.1 -03490.9 -07.6367 26269.1
 18 09 2013  08 59  -20.9889 26036.1 -03491.0 -07.6367 26269.1
 18 09 2013  09 00  -20.9887 26036.1 -03491.0 -07.6369 26269.1
 18 09 2013  09 01  -20.9886 26036.2 -03491.2 -07.6371 26269.2
 18 09 2013  09 02  -20.9887 26036.3 -03491.3 -07.6373 26269.3
 18 09 2013  09 03  -20.9888 26036.4 -03491.4 -07.6375 26269.5
 18 09 2013  09 04  -20.9888 26036.6 -03491.5 -07.6377 26269.7
 18 09 2013  09 05  -20.9892 26037.0 -03491.7 -07.6381 26270.1
 18 09 2013  09 06  -20.9894 26037.2 -03491.9 -07.6384 26270.3
 18 09 2013  09 07  -20.9895 26037.0 -03491.8 -07.6383 26270.1
 18 09 2013  09 08  -20.9894 26036.9 -03491.7 -07.6382 26270.0
 18 09 2013  09 09  -20.9896 26036.9 -03491.8 -07.6383 26270.0
 18 09 2013  09 10  -20.9898 26037.0 -03491.9 -07.6385 26270.1
 18 09 2013  09 11  -20.9904 26037.2 -03492.0 -07.6387 26270.3
 18 09 2013  09 12  -20.9908 26037.4 -03492.1 -07.6388 26270.5
 18 09 2013  09 13  -20.9911 26037.5 -03492.1 -07.6389 26270.7
 18 09 2013  09 14  -20.9916 26037.8 -03492.2 -07.6390 26271.0
 18 09 2013  09 15  -20.9917 26038.1 -03492.3 -07.6390 26271.2
 18 09 2013  09 16  -20.9917 26037.8 -03492.2 -07.6389 26271.0
 18 09 2013  09 17  -20.9917 26037.8 -03492.2 -07.6389 26271.0
 18 09 2013  09 18  -20.9923 26038.1 -03492.3 -07.6391 26271.2
 18 09 2013  09 19  -20.9921 26038.2 -03492.4 -07.6393 26271.4
 18 09 2013  09 20  -20.9921 26038.3 -03492.4 -07.6393 26271.4
 18 09 2013  09 21  -20.9923 26038.1 -03492.4 -07.6392 26271.3
 18 09 2013  09 22  -20.9919 26038.0 -03492.2 -07.6388 26271.2
 18 09 2013  09 23  -20.9912 26037.9 -03492.2 -07.6390 26271.1
 18 09 2013  09 24  -20.9911 26037.6 -03492.2 -07.6389 26270.8
 18 09 2013  09 25  -20.9911 26037.7 -03492.3 -07.6391 26270.9
 18 09 2013  09 26  -20.9907 26037.9 -03492.4 -07.6394 26271.1
 18 09 2013  09 27  -20.9907 26038.1 -03492.6 -07.6398 26271.3
 18 09 2013  09 28  -20.9906 26038.3 -03492.9 -07.6402 26271.5
 18 09 2013  09 29  -20.9905 26038.4 -03493.0 -07.6405 26271.7
 18 09 2013  09 30  -20.9905 26038.6 -03493.1 -07.6407 26271.9
 18 09 2013  09 31  -20.9903 26038.9 -03493.4 -07.6411 26272.2
 18 09 2013  09 32  -20.9903 26039.1 -03493.4 -07.6412 26272.4
 18 09 2013  09 33  -20.9905 26039.2 -03493.5 -07.6414 26272.6
 18 09 2013  09 34  -20.9909 26039.4 -03493.7 -07.6416 26272.7
 18 09 2013  09 35  -20.9912 26039.5 -03493.7 -07.6417 26272.8
 18 09 2013  09 36  -20.9912 26039.7 -03493.8 -07.6418 26273.0
 18 09 2013  09 37  -20.9912 26040.0 -03493.9 -07.6419 26273.4
 18 09 2013  09 38  -20.9915 26040.3 -03493.9 -07.6420 26273.7
 18 09 2013  09 39  -20.9923 26040.8 -03494.1 -07.6422 26274.2
 18 09 2013  09 40  -20.9934 26041.1 -03494.3 -07.6424 26274.5
 18 09 2013  09 41  -20.9937 26041.1 -03494.3 -07.6425 26274.5
 18 09 2013  09 42  -20.9933 26041.2 -03494.3 -07.6424 26274.6
 18 09 2013  09 43  -20.9934 26041.5 -03494.4 -07.6425 26274.9
 18 09 2013  09 44  -20.9940 26041.9 -03494.5 -07.6427 26275.3
 18 09 2013  09 45  -20.9946 26042.2 -03494.6 -07.6428 26275.6
 18 09 2013  09 46  -20.9949 26042.5 -03494.7 -07.6430 26276.0
 18 09 2013  09 47  -20.9953 26042.8 -03494.8 -07.6432 26276.2
 18 09 2013  09 48  -20.9958 26043.0 -03494.9 -07.6433 26276.4
 18 09 2013  09 49  -20.9962 26043.1 -03494.9 -07.6433 26276.5
 18 09 2013  09 50  -20.9968 26043.2 -03495.0 -07.6433 26276.7
 18 09 2013  09 51  -20.9973 26043.3 -03495.0 -07.6434 26276.8
 18 09 2013  09 52  -20.9979 26043.4 -03495.1 -07.6435 26276.8
 18 09 2013  09 53  -20.9985 26043.5 -03495.1 -07.6436 26277.0
 18 09 2013  09 54  -20.9988 26043.7 -03495.2 -07.6437 26277.2
 18 09 2013  09 55  -20.9985 26043.7 -03495.2 -07.6438 26277.2
 18 09 2013  09 56  -20.9987 26044.0 -03495.4 -07.6440 26277.5
 18 09 2013  09 57  -20.9989 26044.3 -03495.5 -07.6442 26277.8
 18 09 2013  09 58  -20.9994 26044.3 -03495.5 -07.6443 26277.8
 18 09 2013  09 59  -21.0001 26044.4 -03495.6 -07.6443 26277.9
 18 09 2013  10 00  -21.0006 26044.4 -03495.6 -07.6444 26277.9
 18 09 2013  10 01  -21.0004 26044.4 -03495.6 -07.6444 26277.9
 18 09 2013  10 02  -21.0002 26044.5 -03495.7 -07.6446 26278.0
 18 09 2013  10 03  -21.0007 26044.6 -03495.8 -07.6447 26278.2
 18 09 2013  10 04  -21.0012 26044.8 -03495.9 -07.6449 26278.4
 18 09 2013  10 05  -21.0012 26045.0 -03496.0 -07.6451 26278.6
 18 09 2013  10 06  -21.0016 26045.3 -03496.2 -07.6454 26278.9
 18 09 2013  10 07  -21.0018 26045.5 -03496.3 -07.6455 26279.1
 18 09 2013  10 08  -21.0018 26045.8 -03496.4 -07.6457 26279.4
 18 09 2013  10 09  -21.0024 26046.0 -03496.5 -07.6458 26279.7
 18 09 2013  10 10  -21.0028 26046.3 -03496.6 -07.6460 26279.9
 18 09 2013  10 11  -21.0031 26046.4 -03496.6 -07.6460 26280.0
 18 09 2013  10 12  -21.0029 26046.6 -03496.6 -07.6460 26280.2
 18 09 2013  10 13  -21.0028 26046.8 -03496.7 -07.6461 26280.4
 18 09 2013  10 14  -21.0030 26046.9 -03496.8 -07.6462 26280.6
 18 09 2013  10 15  -21.0033 26047.0 -03496.9 -07.6464 26280.7
 18 09 2013  10 16  -21.0036 26047.4 -03497.0 -07.6466 26281.1
 18 09 2013  10 17  -21.0039 26047.9 -03497.3 -07.6469 26281.6
 18 09 2013  10 18  -21.0040 26048.1 -03497.3 -07.6470 26281.9
 18 09 2013  10 19  -21.0038 26048.5 -03497.4 -07.6471 26282.2
 18 09 2013  10 20  -21.0040 26048.3 -03497.3 -07.6469 26282.1
 18 09 2013  10 21  -21.0037 26048.5 -03497.3 -07.6469 26282.2
 18 09 2013  10 22  -21.0039 26048.7 -03497.4 -07.6470 26282.4
 18 09 2013  10 23  -21.0043 26049.0 -03497.5 -07.6471 26282.7
 18 09 2013  10 24  -21.0048 26049.3 -03497.6 -07.6472 26283.1
 18 09 2013  10 25  -21.0058 26049.4 -03497.5 -07.6471 26283.1
 18 09 2013  10 26  -21.0067 26049.5 -03497.6 -07.6472 26283.3
 18 09 2013  10 27  -21.0071 26049.8 -03497.6 -07.6472 26283.5
 18 09 2013  10 28  -21.0073 26049.7 -03497.6 -07.6471 26283.5
 18 09 2013  10 29  -21.0074 26049.4 -03497.3 -07.6467 26283.1
 18 09 2013  10 30  -21.0074 26049.1 -03497.1 -07.6463 26282.8
 18 09 2013  10 31  -21.0076 26049.1 -03497.1 -07.6462 26282.8
 18 09 2013  10 32  -21.0079 26048.9 -03497.0 -07.6461 26282.6
 18 09 2013  10 33  -21.0085 26048.9 -03497.1 -07.6462 26282.6
 18 09 2013  10 34  -21.0095 26048.9 -03497.2 -07.6465 26282.6
 18 09 2013  10 35  -21.0099 26049.2 -03497.3 -07.6466 26282.9
 18 09 2013  10 36  -21.0093 26049.6 -03497.5 -07.6469 26283.4
 18 09 2013  10 37  -21.0096 26050.2 -03497.8 -07.6474 26284.0
 18 09 2013  10 38  -21.0097 26050.6 -03497.9 -07.6475 26284.3
 18 09 2013  10 39  -21.0100 26051.2 -03498.0 -07.6475 26285.0
 18 09 2013  10 40  -21.0104 26051.4 -03497.9 -07.6472 26285.2
 18 09 2013  10 41  -21.0112 26052.9 -03498.2 -07.6476 26286.7
 18 09 2013  10 42  -21.0117 26053.8 -03498.4 -07.6477 26287.6
 18 09 2013  10 43  -21.0112 26054.0 -03498.3 -07.6473 26287.8
 18 09 2013  10 44  -21.0109 26053.8 -03497.8 -07.6464 26287.6
 18 09 2013  10 45  -21.0104 26054.3 -03497.5 -07.6457 26288.0
 18 09 2013  10 46  -21.0110 26054.4 -03497.2 -07.6449 26288.0
 18 09 2013  10 47  -21.0119 26054.7 -03497.1 -07.6446 26288.3
 18 09 2013  10 48  -21.0146 26054.7 -03497.0 -07.6444 26288.3
 18 09 2013  10 49  -21.0172 26054.6 -03496.9 -07.6441 26288.2
 18 09 2013  10 50  -21.0174 26055.0 -03496.8 -07.6440 26288.6
 18 09 2013  10 51  -21.0168 26055.3 -03496.7 -07.6437 26288.8
 18 09 2013  10 52  -21.0171 26055.0 -03496.5 -07.6432 26288.6
 18 09 2013  10 53  -21.0182 26054.7 -03496.3 -07.6429 26288.2
 18 09 2013  10 54  -21.0188 26054.6 -03496.3 -07.6429 26288.1
 18 09 2013  10 55  -21.0194 26054.7 -03496.3 -07.6430 26288.3
 18 09 2013  10 56  -21.0194 26054.2 -03496.1 -07.6425 26287.7
 18 09 2013  10 57  -21.0200 26053.0 -03495.5 -07.6416 26286.4
 18 09 2013  10 58  -21.0210 26053.2 -03495.8 -07.6422 26286.7
 18 09 2013  10 59  -21.0216 26053.9 -03496.2 -07.6430 26287.4
 18 09 2013  11 00  -21.0213 26054.7 -03496.6 -07.6435 26288.3
 18 09 2013  11 01  -21.0213 26055.5 -03496.9 -07.6440 26289.1
 18 09 2013  11 02  -21.0220 26055.8 -03497.1 -07.6442 26289.5
 18 09 2013  11 03  -21.0224 26056.2 -03497.2 -07.6443 26289.8
 18 09 2013  11 04  -21.0226 26056.6 -03497.3 -07.6444 26290.2
 18 09 2013  11 05  -21.0229 26056.8 -03497.3 -07.6444 26290.5
 18 09 2013  11 06  -21.0235 26057.1 -03497.4 -07.6445 26290.7
 18 09 2013  11 07  -21.0240 26057.4 -03497.5 -07.6446 26291.0
 18 09 2013  11 08  -21.0246 26057.7 -03497.5 -07.6447 26291.4
 18 09 2013  11 09  -21.0250 26057.6 -03497.4 -07.6444 26291.3
 18 09 2013  11 10  -21.0255 26057.5 -03497.3 -07.6442 26291.2
 18 09 2013  11 11  -21.0260 26057.6 -03497.3 -07.6442 26291.3
 18 09 2013  11 12  -21.0265 26057.2 -03497.1 -07.6438 26290.9
 18 09 2013  11 13  -21.0271 26057.0 -03497.0 -07.6437 26290.6
 18 09 2013  11 14  -21.0274 26057.2 -03497.0 -07.6438 26290.8
 18 09 2013  11 15  -21.0283 26058.0 -03497.5 -07.6444 26291.6
 18 09 2013  11 16  -21.0291 26059.3 -03498.1 -07.6455 26293.0
 18 09 2013  11 17  -21.0299 26060.4 -03498.6 -07.6462 26294.2
 18 09 2013  11 18  -21.0302 26061.6 -03498.9 -07.6465 26295.4
 18 09 2013  11 19  -21.0298 26062.5 -03498.9 -07.6463 26296.3
 18 09 2013  11 20  -21.0296 26062.4 -03498.5 -07.6454 26296.2
 18 09 2013  11 21  -21.0292 26062.3 -03498.0 -07.6444 26296.0
 18 09 2013  11 22  -21.0289 26062.5 -03497.8 -07.6440 26296.1
 18 09 2013  11 23  -21.0289 26062.6 -03497.7 -07.6436 26296.3
 18 09 2013  11 24  -21.0293 26062.9 -03497.6 -07.6434 26296.6
 18 09 2013  11 25  -21.0298 26063.4 -03497.6 -07.6432 26297.0
 18 09 2013  11 26  -21.0301 26063.8 -03497.6 -07.6431 26297.4
 18 09 2013  11 27  -21.0305 26064.3 -03497.6 -07.6429 26298.0
 18 09 2013  11 28  -21.0306 26064.9 -03497.6 -07.6427 26298.5
 18 09 2013  11 29  -21.0307 26065.6 -03497.6 -07.6426 26299.2
 18 09 2013  11 30  -21.0313 26066.4 -03497.7 -07.6426 26300.0
 18 09 2013  11 31  -21.0321 26067.2 -03497.7 -07.6423 26300.8
 18 09 2013  11 32  -21.0329 26067.9 -03497.7 -07.6420 26301.5
 18 09 2013  11 33  -21.0337 26068.5 -03497.6 -07.6416 26302.1
 18 09 2013  11 34  -21.0345 26069.1 -03497.4 -07.6412 26302.6
 18 09 2013  11 35  -21.0349 26069.5 -03497.2 -07.6406 26303.0
 18 09 2013  11 36  -21.0354 26069.6 -03497.0 -07.6400 26303.1
 18 09 2013  11 37  -21.0351 26070.0 -03496.8 -07.6395 26303.4
 18 09 2013  11 38  -21.0349 26070.1 -03496.5 -07.6389 26303.5
 18 09 2013  11 39  -21.0347 26070.4 -03496.3 -07.6383 26303.8
 18 09 2013  11 40  -21.0346 26071.0 -03496.2 -07.6380 26304.4
 18 09 2013  11 41  -21.0350 26071.5 -03496.2 -07.6377 26304.9
 18 09 2013  11 42  -21.0356 26072.1 -03496.1 -07.6374 26305.5
 18 09 2013  11 43  -21.0361 26073.0 -03496.1 -07.6372 26306.3
 18 09 2013  11 44  -21.0365 26073.4 -03496.0 -07.6367 26306.7
 18 09 2013  11 45  -21.0371 26073.5 -03495.7 -07.6361 26306.8
 18 09 2013  11 46  -21.0370 26073.8 -03495.5 -07.6356 26307.1
 18 09 2013  11 47  -21.0373 26074.0 -03495.2 -07.6350 26307.2
 18 09 2013  11 48  -21.0385 26073.8 -03494.8 -07.6342 26307.0
 18 09 2013  11 49  -21.0384 26074.0 -03494.7 -07.6340 26307.1
 18 09 2013  11 50  -21.0380 26074.0 -03494.6 -07.6336 26307.2
 18 09 2013  11 51  -21.0378 26074.5 -03494.6 -07.6335 26307.6
 18 09 2013  11 52  -21.0383 26074.7 -03494.6 -07.6334 26307.8
 18 09 2013  11 53  -21.0389 26074.9 -03494.6 -07.6333 26308.0
 18 09 2013  11 54  -21.0397 26074.8 -03494.4 -07.6329 26308.0
 18 09 2013  11 55  -21.0406 26074.4 -03494.0 -07.6323 26307.5
 18 09 2013  11 56  -21.0408 26073.9 -03493.7 -07.6317 26306.9
 18 09 2013  11 57  -21.0411 26073.6 -03493.5 -07.6313 26306.6
 18 09 2013  11 58  -21.0416 26073.6 -03493.4 -07.6312 26306.6
 18 09 2013  11 59  -21.0421 26073.5 -03493.3 -07.6309 26306.5
 18 09 2013  12 00  -21.0420 26073.9 -03493.2 -07.6307 26306.8
 18 09 2013  12 01  -21.0417 26074.4 -03493.2 -07.6306 26307.3
 18 09 2013  12 02  -21.0410 26075.2 -03493.3 -07.6305 26308.1
 18 09 2013  12 03  -21.0403 26075.6 -03493.2 -07.6301 26308.5
 18 09 2013  12 04  -21.0402 26075.7 -03492.9 -07.6296 26308.6
 18 09 2013  12 05  -21.0406 26075.7 -03492.7 -07.6291 26308.6
 18 09 2013  12 06  -21.0410 26075.9 -03492.6 -07.6287 26308.7
 18 09 2013  12 07  -21.0410 26076.3 -03492.5 -07.6285 26309.1
 18 09 2013  12 08  -21.0410 26076.9 -03492.7 -07.6286 26309.8
 18 09 2013  12 09  -21.0417 26077.5 -03492.8 -07.6287 26310.4
 18 09 2013  12 10  -21.0423 26077.9 -03492.8 -07.6286 26310.8
 18 09 2013  12 11  -21.0428 26078.2 -03492.7 -07.6283 26311.0
 18 09 2013  12 12  -21.0435 26078.1 -03492.5 -07.6278 26310.9
 18 09 2013  12 13  -21.0445 26077.8 -03492.1 -07.6272 26310.6
 18 09 2013  12 14  -21.0451 26077.2 -03491.7 -07.6263 26310.0
 18 09 2013  12 15  -21.0457 26076.6 -03491.2 -07.6255 26309.3
 18 09 2013  12 16  -21.0463 26076.3 -03491.0 -07.6251 26309.0
 18 09 2013  12 17  -21.0470 26075.2 -03490.5 -07.6245 26307.8
 18 09 2013  12 18  -21.0476 26074.9 -03490.5 -07.6245 26307.5
 18 09 2013  12 19  -21.0479 26074.7 -03490.5 -07.6245 26307.3
 18 09 2013  12 20  -21.0488 26074.4 -03490.4 -07.6244 26307.0
 18 09 2013  12 21  -21.0496 26074.2 -03490.3 -07.6243 26306.8
 18 09 2013  12 22  -21.0501 26073.8 -03490.1 -07.6240 26306.3
 18 09 2013  12 23  -21.0509 26073.4 -03489.9 -07.6237 26305.9
 18 09 2013  12 24  -21.0519 26073.1 -03489.8 -07.6235 26305.6
 18 09 2013  12 25  -21.0528 26073.2 -03489.7 -07.6234 26305.7
 18 09 2013  12 26  -21.0531 26073.5 -03489.7 -07.6232 26306.0
 18 09 2013  12 27  -21.0532 26073.7 -03489.6 -07.6229 26306.1
 18 09 2013  12 28  -21.0532 26072.9 -03489.1 -07.6221 26305.3
 18 09 2013  12 29  -21.0537 26071.1 -03488.3 -07.6209 26303.4
 18 09 2013  12 30  -21.0543 26069.4 -03487.8 -07.6203 26301.7
 18 09 2013  12 31  -21.0546 26069.0 -03487.9 -07.6207 26301.3
 18 09 2013  12 32  -21.0548 26069.6 -03488.4 -07.6216 26302.0
 18 09 2013  12 33  -21.0552 26070.3 -03488.8 -07.6223 26302.7
 18 09 2013  12 34  -21.0556 26071.1 -03489.1 -07.6227 26303.5
 18 09 2013  12 35  -21.0553 26071.7 -03489.3 -07.6228 26304.2
 18 09 2013  12 36  -21.0549 26072.8 -03489.5 -07.6229 26305.3
 18 09 2013  12 37  -21.0545 26073.7 -03489.6 -07.6229 26306.2
 18 09 2013  12 38  -21.0544 26074.3 -03489.5 -07.6226 26306.7
 18 09 2013  12 39  -21.0543 26074.6 -03489.4 -07.6223 26307.0
 18 09 2013  12 40  -21.0542 26074.8 -03489.3 -07.6219 26307.2
 18 09 2013  12 41  -21.0544 26075.2 -03489.3 -07.6219 26307.6
 18 09 2013  12 42  -21.0547 26075.7 -03489.4 -07.6220 26308.2
 18 09 2013  12 43  -21.0545 26076.7 -03489.6 -07.6221 26309.1
 18 09 2013  12 44  -21.0546 26077.3 -03489.7 -07.6220 26309.8
 18 09 2013  12 45  -21.0544 26077.9 -03489.7 -07.6220 26310.4
 18 09 2013  12 46  -21.0544 26079.1 -03490.1 -07.6224 26311.6
 18 09 2013  12 47  -21.0544 26080.3 -03490.4 -07.6227 26312.8
 18 09 2013  12 48  -21.0546 26081.4 -03490.6 -07.6229 26313.9
 18 09 2013  12 49  -21.0546 26081.9 -03490.6 -07.6227 26314.5
 18 09 2013  12 50  -21.0542 26082.1 -03490.4 -07.6223 26314.6
 18 09 2013  12 51  -21.0534 26082.7 -03490.5 -07.6222 26315.2
 18 09 2013  12 52  -21.0529 26083.2 -03490.6 -07.6224 26315.8
 18 09 2013  12 53  -21.0526 26083.5 -03490.6 -07.6223 26316.0
 18 09 2013  12 54  -21.0521 26084.7 -03490.8 -07.6223 26317.2
 18 09 2013  12 55  -21.0522 26085.7 -03490.9 -07.6222 26318.2
 18 09 2013  12 56  -21.0527 26085.0 -03490.1 -07.6208 26317.4
 18 09 2013  12 57  -21.0529 26083.0 -03488.8 -07.6185 26315.3
 18 09 2013  12 58  -21.0523 26081.6 -03487.9 -07.6170 26313.8
 18 09 2013  12 59  -21.0524 26080.4 -03487.4 -07.6163 26312.6
 18 09 2013  13 00  -21.0528 26079.5 -03487.2 -07.6162 26311.6
 18 09 2013  13 01  -21.0533 26078.2 -03487.1 -07.6163 26310.3
 18 09 2013  13 02  -21.0534 26078.8 -03487.9 -07.6177 26311.0
 18 09 2013  13 03  -21.0535 26079.8 -03488.5 -07.6189 26312.1
 18 09 2013  13 04  -21.0538 26081.5 -03489.2 -07.6198 26313.8
 18 09 2013  13 05  -21.0540 26082.8 -03489.5 -07.6201 26315.2
 18 09 2013  13 06  -21.0542 26083.3 -03489.4 -07.6198 26315.7
 18 09 2013  13 07  -21.0541 26082.9 -03489.0 -07.6189 26315.2
 18 09 2013  13 08  -21.0539 26083.4 -03488.9 -07.6186 26315.7
 18 09 2013  13 09  -21.0537 26084.1 -03488.9 -07.6185 26316.4
 18 09 2013  13 10  -21.0538 26085.4 -03489.0 -07.6182 26317.7
 18 09 2013  13 11  -21.0540 26086.5 -03488.8 -07.6175 26318.8
 18 09 2013  13 12  -21.0545 26086.7 -03488.4 -07.6165 26318.9
 18 09 2013  13 13  -21.0539 26086.1 -03487.7 -07.6153 26318.2
 18 09 2013  13 14  -21.0529 26085.4 -03487.3 -07.6146 26317.5
 18 09 2013  13 15  -21.0520 26085.1 -03487.2 -07.6145 26317.2
 18 09 2013  13 16  -21.0518 26085.0 -03487.3 -07.6146 26317.1
 18 09 2013  13 17  -21.0516 26084.9 -03487.2 -07.6145 26316.9
 18 09 2013  13 18  -21.0510 26084.7 -03487.0 -07.6141 26316.7
 18 09 2013  13 19  -21.0502 26084.8 -03487.1 -07.6142 26316.9
 18 09 2013  13 20  -21.0494 26084.6 -03487.1 -07.6143 26316.6
 18 09 2013  13 21  -21.0478 26085.1 -03487.6 -07.6152 26317.2
 18 09 2013  13 22  -21.0461 26086.1 -03488.2 -07.6163 26318.3
 18 09 2013  13 23  -21.0455 26088.0 -03489.1 -07.6177 26320.3
 18 09 2013  13 24  -21.0453 26089.5 -03489.5 -07.6182 26321.9
 18 09 2013  13 25  -21.0457 26090.1 -03489.4 -07.6178 26322.4
 18 09 2013  13 26  -21.0454 26089.5 -03488.7 -07.6164 26321.7
 18 09 2013  13 27  -21.0448 26088.4 -03488.0 -07.6152 26320.6
 18 09 2013  13 28  -21.0434 26087.5 -03487.5 -07.6144 26319.6
 18 09 2013  13 29  -21.0420 26086.8 -03487.4 -07.6144 26318.9
 18 09 2013  13 30  -21.0409 26086.2 -03487.5 -07.6147 26318.3
 18 09 2013  13 31  -21.0401 26086.9 -03488.0 -07.6157 26319.1
 18 09 2013  13 32  -21.0396 26087.9 -03488.5 -07.6164 26320.1
 18 09 2013  13 33  -21.0386 26088.5 -03488.7 -07.6166 26320.7
 18 09 2013  13 34  -21.0378 26088.9 -03488.8 -07.6169 26321.1
 18 09 2013  13 35  -21.0366 26088.7 -03488.8 -07.6168 26320.9
 18 09 2013  13 36  -21.0360 26088.7 -03488.8 -07.6169 26320.9
 18 09 2013  13 37  -21.0358 26088.8 -03488.9 -07.6170 26321.0
 18 09 2013  13 38  -21.0357 26089.2 -03489.0 -07.6171 26321.5
 18 09 2013  13 39  -21.0352 26089.1 -03488.9 -07.6169 26321.4
 18 09 2013  13 40  -21.0347 26088.6 -03488.5 -07.6163 26320.8
 18 09 2013  13 41  -21.0338 26088.0 -03488.3 -07.6160 26320.1
 18 09 2013  13 42  -21.0335 26087.5 -03488.2 -07.6158 26319.6
 18 09 2013  13 43  -21.0333 26086.5 -03487.8 -07.6153 26318.6
 18 09 2013  13 44  -21.0330 26085.5 -03487.5 -07.6150 26317.6
 18 09 2013  13 45  -21.0326 26084.7 -03487.5 -07.6151 26316.8
 18 09 2013  13 46  -21.0314 26084.0 -03487.5 -07.6154 26316.1
 18 09 2013  13 47  -21.0302 26083.6 -03487.8 -07.6162 26315.8
 18 09 2013  13 48  -21.0296 26083.8 -03488.3 -07.6172 26316.1
 18 09 2013  13 49  -21.0293 26084.8 -03489.1 -07.6187 26317.2
 18 09 2013  13 50  -21.0295 26086.1 -03489.8 -07.6199 26318.5
 18 09 2013  13 51  -21.0298 26087.1 -03490.3 -07.6206 26319.6
 18 09 2013  13 52  -21.0299 26087.9 -03490.6 -07.6209 26320.4
 18 09 2013  13 53  -21.0296 26087.7 -03490.3 -07.6205 26320.1
 18 09 2013  13 54  -21.0294 26086.8 -03489.9 -07.6198 26319.2
 18 09 2013  13 55  -21.0299 26085.8 -03489.5 -07.6192 26318.1
 18 09 2013  13 56  -21.0305 26085.3 -03489.5 -07.6193 26317.6
 18 09 2013  13 57  -21.0308 26084.8 -03489.4 -07.6194 26317.2
 18 09 2013  13 58  -21.0306 26084.3 -03489.4 -07.6194 26316.6
 18 09 2013  13 59  -21.0303 26083.8 -03489.3 -07.6195 26316.1
 18 09 2013  14 00  -21.0304 26083.8 -03489.5 -07.6199 26316.2
 18 09 2013  14 01  -21.0306 26083.9 -03489.8 -07.6204 26316.3
 18 09 2013  14 02  -21.0301 26084.2 -03490.1 -07.6211 26316.7
 18 09 2013  14 03  -21.0299 26084.5 -03490.5 -07.6218 26317.0
 18 09 2013  14 04  -21.0298 26084.9 -03490.9 -07.6226 26317.5
 18 09 2013  14 05  -21.0293 26086.0 -03491.6 -07.6236 26318.7
 18 09 2013  14 06  -21.0298 26087.3 -03492.1 -07.6245 26320.0
 18 09 2013  14 07  -21.0309 26088.6 -03492.6 -07.6250 26321.4
 18 09 2013  14 08  -21.0319 26089.8 -03492.8 -07.6251 26322.5
 18 09 2013  14 09  -21.0322 26090.1 -03492.5 -07.6245 26322.8
 18 09 2013  14 10  -21.0316 26089.4 -03492.0 -07.6235 26322.1
 18 09 2013  14 11  -21.0307 26088.6 -03491.6 -07.6228 26321.2
 18 09 2013  14 12  -21.0303 26088.6 -03491.6 -07.6230 26321.2
 18 09 2013  14 13  -21.0302 26089.1 -03491.9 -07.6234 26321.7
 18 09 2013  14 14  -21.0303 26089.6 -03492.1 -07.6237 26322.3
 18 09 2013  14 15  -21.0303 26089.9 -03492.1 -07.6236 26322.6
 18 09 2013  14 16  -21.0304 26090.2 -03492.1 -07.6235 26322.9
 18 09 2013  14 17  -21.0298 26089.9 -03491.8 -07.6231 26322.5
 18 09 2013  14 18  -21.0287 26089.4 -03491.7 -07.6228 26322.1
 18 09 2013  14 19  -21.0276 26089.1 -03491.7 -07.6230 26321.8
 18 09 2013  14 20  -21.0269 26089.1 -03492.0 -07.6236 26321.8
 18 09 2013  14 21  -21.0265 26090.0 -03492.5 -07.6246 26322.8
 18 09 2013  14 22  -21.0268 26091.0 -03493.0 -07.6253 26323.8
 18 09 2013  14 23  -21.0268 26091.5 -03493.1 -07.6254 26324.3
 18 09 2013  14 24  -21.0266 26092.0 -03493.3 -07.6256 26324.8
 18 09 2013  14 25  -21.0262 26092.2 -03493.3 -07.6256 26325.0
 18 09 2013  14 26  -21.0253 26091.9 -03493.2 -07.6254 26324.7
 18 09 2013  14 27  -21.0243 26091.9 -03493.3 -07.6256 26324.7
 18 09 2013  14 28  -21.0237 26091.8 -03493.4 -07.6259 26324.7
 18 09 2013  14 29  -21.0237 26091.9 -03493.5 -07.6261 26324.7
 18 09 2013  14 30  -21.0240 26092.0 -03493.7 -07.6264 26324.9
 18 09 2013  14 31  -21.0239 26091.7 -03493.5 -07.6262 26324.6
 18 09 2013  14 32  -21.0236 26090.8 -03493.3 -07.6259 26323.6
 18 09 2013  14 33  -21.0233 26090.1 -03493.2 -07.6259 26323.0
 18 09 2013  14 34  -21.0231 26089.8 -03493.3 -07.6263 26322.6
 18 09 2013  14 35  -21.0233 26089.7 -03493.6 -07.6269 26322.6
 18 09 2013  14 36  -21.0235 26089.7 -03493.8 -07.6273 26322.6
 18 09 2013  14 37  -21.0244 26090.1 -03494.1 -07.6278 26323.0
 18 09 2013  14 38  -21.0246 26089.4 -03493.9 -07.6276 26322.3
 18 09 2013  14 39  -21.0241 26089.0 -03493.8 -07.6275 26321.9
 18 09 2013  14 40  -21.0241 26088.8 -03493.9 -07.6279 26321.7
 18 09 2013  14 41  -21.0243 26088.6 -03494.0 -07.6281 26321.5
 18 09 2013  14 42  -21.0251 26088.8 -03494.2 -07.6284 26321.7
 18 09 2013  14 43  -21.0254 26088.8 -03494.2 -07.6284 26321.7
 18 09 2013  14 44  -21.0256 26089.0 -03494.3 -07.6287 26322.0
 18 09 2013  14 45  -21.0261 26089.1 -03494.4 -07.6289 26322.1
 18 09 2013  14 46  -21.0272 26089.9 -03494.8 -07.6294 26322.9
 18 09 2013  14 47  -21.0290 26090.8 -03495.0 -07.6296 26323.8
 18 09 2013  14 48  -21.0303 26091.2 -03494.8 -07.6291 26324.2
 18 09 2013  14 49  -21.0308 26091.0 -03494.3 -07.6281 26324.0
 18 09 2013  14 50  -21.0306 26090.1 -03493.7 -07.6270 26323.0
 18 09 2013  14 51  -21.0300 26089.2 -03493.1 -07.6261 26322.0
 18 09 2013  14 52  -21.0298 26088.4 -03492.8 -07.6255 26321.1
 18 09 2013  14 53  -21.0298 26087.8 -03492.5 -07.6252 26320.5
 18 09 2013  14 54  -21.0298 26087.6 -03492.4 -07.6250 26320.3
 18 09 2013  14 55  -21.0299 26088.0 -03492.6 -07.6253 26320.7
 18 09 2013  14 56  -21.0297 26088.7 -03492.7 -07.6253 26321.4
 18 09 2013  14 57  -21.0290 26089.6 -03492.6 -07.6249 26322.3
 18 09 2013  14 58  -21.0286 26090.4 -03492.5 -07.6243 26323.1
 18 09 2013  14 59  -21.0283 26091.0 -03492.2 -07.6236 26323.7
 18 09 2013  15 00  -21.0281 26091.2 -03491.8 -07.6226 26323.8
 18 09 2013  15 01  -21.0284 26091.5 -03491.5 -07.6218 26324.1
 18 09 2013  15 02  -21.0292 26092.1 -03491.3 -07.6212 26324.6
 18 09 2013  15 03  -21.0296 26092.8 -03491.0 -07.6205 26325.3
 18 09 2013  15 04  -21.0302 26092.7 -03490.6 -07.6195 26325.2
 18 09 2013  15 05  -21.0316 26092.6 -03490.2 -07.6188 26325.0
 18 09 2013  15 06  -21.0326 26092.3 -03489.8 -07.6180 26324.6
 18 09 2013  15 07  -21.0324 26091.7 -03489.3 -07.6171 26324.0
 18 09 2013  15 08  -21.0322 26091.6 -03489.2 -07.6168 26323.9
 18 09 2013  15 09  -21.0328 26092.4 -03489.3 -07.6170 26324.7
 18 09 2013  15 10  -21.0342 26093.9 -03489.7 -07.6174 26326.2
 18 09 2013  15 11  -21.0359 26095.0 -03489.9 -07.6174 26327.3
 18 09 2013  15 12  -21.0364 26095.4 -03489.6 -07.6166 26327.7
 18 09 2013  15 13  -21.0363 26095.7 -03489.3 -07.6159 26327.9
 18 09 2013  15 14  -21.0363 26095.9 -03489.1 -07.6153 26328.1
 18 09 2013  15 15  -21.0357 26096.2 -03488.8 -07.6147 26328.4
 18 09 2013  15 16  -21.0351 26095.4 -03488.2 -07.6137 26327.5
 18 09 2013  15 17  -21.0345 26094.5 -03487.7 -07.6129 26326.5
 18 09 2013  15 18  -21.0338 26093.4 -03487.4 -07.6124 26325.4
 18 09 2013  15 19  -21.0332 26092.4 -03487.0 -07.6120 26324.4
 18 09 2013  15 20  -21.0329 26091.7 -03486.9 -07.6119 26323.6
 18 09 2013  15 21  -21.0325 26090.7 -03486.6 -07.6116 26322.6
 18 09 2013  15 22  -21.0324 26090.4 -03486.8 -07.6120 26322.4
 18 09 2013  15 23  -21.0322 26089.5 -03486.5 -07.6118 26321.4
 18 09 2013  15 24  -21.0317 26089.4 -03486.7 -07.6121 26321.3
 18 09 2013  15 25  -21.0317 26088.4 -03486.5 -07.6119 26320.3
 18 09 2013  15 26  -21.0308 26087.6 -03486.3 -07.6117 26319.5
 18 09 2013  15 27  -21.0302 26087.4 -03486.3 -07.6119 26319.3
 18 09 2013  15 28  -21.0306 26086.5 -03486.1 -07.6117 26318.4
 18 09 2013  15 29  -21.0300 26086.1 -03486.1 -07.6118 26318.0
 18 09 2013  15 30  -21.0296 26085.9 -03486.3 -07.6122 26317.8
 18 09 2013  15 31  -21.0294 26086.2 -03486.7 -07.6130 26318.2
 18 09 2013  15 32  -21.0293 26086.2 -03486.8 -07.6133 26318.2
 18 09 2013  15 33  -21.0290 26086.2 -03486.9 -07.6136 26318.2
 18 09 2013  15 34  -21.0286 26086.3 -03487.2 -07.6142 26318.4
 18 09 2013  15 35  -21.0281 26086.8 -03487.6 -07.6149 26318.9
 18 09 2013  15 36  -21.0281 26086.6 -03487.7 -07.6151 26318.7
 18 09 2013  15 37  -21.0279 26087.1 -03488.0 -07.6157 26319.3
 18 09 2013  15 38  -21.0287 26086.8 -03487.9 -07.6154 26318.9
 18 09 2013  15 39  -21.0289 26086.0 -03487.5 -07.6149 26318.1
 18 09 2013  15 40  -21.0283 26084.8 -03487.0 -07.6140 26316.8
 18 09 2013  15 41  -21.0277 26083.9 -03486.7 -07.6137 26315.9
 18 09 2013  15 42  -21.0276 26083.6 -03486.7 -07.6137 26315.6
 18 09 2013  15 43  -21.0275 26083.0 -03486.4 -07.6134 26315.0
 18 09 2013  15 44  -21.0273 26082.4 -03486.2 -07.6131 26314.4
 18 09 2013  15 45  -21.0271 26082.2 -03486.1 -07.6129 26314.1
 18 09 2013  15 46  -21.0281 26081.5 -03485.8 -07.6124 26313.4
 18 09 2013  15 47  -21.0275 26079.8 -03485.0 -07.6113 26311.6
 18 09 2013  15 48  -21.0255 26078.6 -03484.7 -07.6109 26310.4
 18 09 2013  15 49  -21.0234 26078.0 -03484.7 -07.6112 26309.8
 18 09 2013  15 50  -21.0231 26077.8 -03485.1 -07.6120 26309.6
 18 09 2013  15 51  -21.0234 26078.5 -03485.7 -07.6131 26310.4
 18 09 2013  15 52  -21.0233 26079.3 -03486.1 -07.6137 26311.3
 18 09 2013  15 53  -21.0233 26080.0 -03486.2 -07.6139 26311.9
 18 09 2013  15 54  -21.0245 26080.1 -03486.1 -07.6135 26312.1
 18 09 2013  15 55  -21.0238 26078.9 -03485.3 -07.6121 26310.8
 18 09 2013  15 56  -21.0235 26078.0 -03484.7 -07.6111 26309.8
 18 09 2013  15 57  -21.0227 26075.7 -03483.8 -07.6097 26307.4
 18 09 2013  15 58  -21.0212 26074.4 -03483.3 -07.6092 26306.0
 18 09 2013  15 59  -21.0201 26073.0 -03483.1 -07.6092 26304.6
 18 09 2013  16 00  -21.0187 26072.2 -03483.3 -07.6097 26303.8
 18 09 2013  16 01  -21.0181 26071.9 -03483.6 -07.6104 26303.6
 18 09 2013  16 02  -21.0179 26072.1 -03483.9 -07.6112 26303.8
 18 09 2013  16 03  -21.0177 26072.6 -03484.4 -07.6120 26304.4
 18 09 2013  16 04  -21.0177 26072.5 -03484.4 -07.6121 26304.4
 18 09 2013  16 05  -21.0172 26072.9 -03484.5 -07.6121 26304.7
 18 09 2013  16 06  -21.0164 26072.8 -03484.3 -07.6118 26304.6
 18 09 2013  16 07  -21.0150 26072.0 -03484.0 -07.6113 26303.8
 18 09 2013  16 08  -21.0140 26071.9 -03484.0 -07.6114 26303.7
 18 09 2013  16 09  -21.0132 26071.8 -03484.0 -07.6113 26303.6
 18 09 2013  16 10  -21.0120 26072.2 -03484.1 -07.6114 26303.9
 18 09 2013  16 11  -21.0114 26072.4 -03484.1 -07.6115 26304.2
 18 09 2013  16 12  -21.0104 26072.3 -03484.0 -07.6113 26304.0
 18 09 2013  16 13  -21.0093 26072.2 -03484.0 -07.6113 26304.0
 18 09 2013  16 14  -21.0085 26072.5 -03484.2 -07.6115 26304.3
 18 09 2013  16 15  -21.0079 26072.9 -03484.3 -07.6117 26304.7
 18 09 2013  16 16  -21.0078 26073.1 -03484.3 -07.6116 26304.9
 18 09 2013  16 17  -21.0082 26073.4 -03484.2 -07.6114 26305.2
 18 09 2013  16 18  -21.0089 26073.4 -03484.0 -07.6109 26305.1
 18 09 2013  16 19  -21.0094 26073.7 -03483.7 -07.6103 26305.4
 18 09 2013  16 20  -21.0101 26073.4 -03483.3 -07.6094 26305.1
 18 09 2013  16 21  -21.0102 26072.9 -03482.8 -07.6085 26304.5
 18 09 2013  16 22  -21.0095 26072.1 -03482.2 -07.6075 26303.6
 18 09 2013  16 23  -21.0088 26070.7 -03481.7 -07.6066 26302.1
 18 09 2013  16 24  -21.0079 26070.2 -03481.5 -07.6065 26301.7
 18 09 2013  16 25  -21.0069 26068.5 -03481.0 -07.6058 26299.9
 18 09 2013  16 26  -21.0061 26068.5 -03481.2 -07.6063 26300.0
 18 09 2013  16 27  -21.0059 26068.3 -03481.3 -07.6066 26299.7
 18 09 2013  16 28  -21.0053 26068.6 -03481.5 -07.6070 26300.1
 18 09 2013  16 29  -21.0055 26069.4 -03481.8 -07.6073 26300.9
 18 09 2013  16 30  -21.0048 26070.0 -03481.9 -07.6074 26301.5
 18 09 2013  16 31  -21.0054 26070.6 -03482.0 -07.6074 26302.1
 18 09 2013  16 32  -21.0079 26070.8 -03481.7 -07.6067 26302.3
 18 09 2013  16 33  -21.0098 26069.3 -03480.6 -07.6046 26300.7
 18 09 2013  16 34  -21.0104 26067.4 -03479.3 -07.6026 26298.6
 18 09 2013  16 35  -21.0089 26065.9 -03478.6 -07.6014 26297.0
 18 09 2013  16 36  -21.0066 26065.3 -03478.5 -07.6015 26296.4
 18 09 2013  16 37  -21.0054 26065.1 -03478.8 -07.6021 26296.3
 18 09 2013  16 38  -21.0060 26066.0 -03479.5 -07.6033 26297.2
 18 09 2013  16 39  -21.0055 26065.9 -03479.6 -07.6036 26297.1
 18 09 2013  16 40  -21.0046 26065.5 -03479.5 -07.6035 26296.7
 18 09 2013  16 41  -21.0039 26065.3 -03479.6 -07.6038 26296.5
 18 09 2013  16 42  -21.0033 26064.8 -03479.6 -07.6038 26296.0
 18 09 2013  16 43  -21.0029 26064.1 -03479.5 -07.6039 26295.3
 18 09 2013  16 44  -21.0024 26063.5 -03479.5 -07.6041 26294.7
 18 09 2013  16 45  -21.0019 26062.1 -03479.2 -07.6039 26293.3
 18 09 2013  16 46  -21.0007 26060.9 -03479.1 -07.6039 26292.1
 18 09 2013  16 47  -21.0003 26060.6 -03479.4 -07.6047 26291.8
 18 09 2013  16 48  -20.9992 26059.6 -03479.5 -07.6052 26290.9
 18 09 2013  16 49  -20.9987 26058.3 -03479.4 -07.6054 26289.6
 18 09 2013  16 50  -20.9986 26057.9 -03479.6 -07.6059 26289.2
 18 09 2013  16 51  -20.9979 26057.2 -03479.5 -07.6060 26288.5
 18 09 2013  16 52  -20.9971 26056.8 -03479.6 -07.6062 26288.1
 18 09 2013  16 53  -20.9965 26056.4 -03479.7 -07.6065 26287.7
 18 09 2013  16 54  -20.9958 26055.6 -03479.6 -07.6066 26286.9
 18 09 2013  16 55  -20.9955 26055.3 -03479.8 -07.6071 26286.7
 18 09 2013  16 56  -20.9957 26055.6 -03480.2 -07.6079 26287.0
 18 09 2013  16 57  -20.9962 26055.6 -03480.4 -07.6083 26287.1
 18 09 2013  16 58  -20.9966 26055.8 -03480.6 -07.6087 26287.2
 18 09 2013  16 59  -20.9971 26055.8 -03480.7 -07.6090 26287.3
 18 09 2013  17 00  -20.9968 26055.1 -03480.5 -07.6088 26286.5
 18 09 2013  17 01  -20.9963 26054.5 -03480.4 -07.6087 26285.9
 18 09 2013  17 02  -20.9960 26054.2 -03480.6 -07.6090 26285.7
 18 09 2013  17 03  -20.9961 26054.3 -03480.8 -07.6095 26285.8
 18 09 2013  17 04  -20.9961 26054.2 -03480.9 -07.6098 26285.7
 18 09 2013  17 05  -20.9960 26054.1 -03480.9 -07.6099 26285.6
 18 09 2013  17 06  -20.9953 26053.6 -03480.8 -07.6098 26285.1
 18 09 2013  17 07  -20.9948 26053.4 -03480.9 -07.6099 26284.9
 18 09 2013  17 08  -20.9943 26053.1 -03480.9 -07.6100 26284.6
 18 09 2013  17 09  -20.9938 26052.8 -03480.8 -07.6100 26284.3
 18 09 2013  17 10  -20.9931 26052.8 -03481.0 -07.6103 26284.4
 18 09 2013  17 11  -20.9926 26052.5 -03480.9 -07.6103 26284.1
 18 09 2013  17 12  -20.9918 26051.7 -03480.8 -07.6102 26283.3
 18 09 2013  17 13  -20.9917 26051.9 -03481.0 -07.6106 26283.4
 18 09 2013  17 14  -20.9914 26051.5 -03480.9 -07.6106 26283.0
 18 09 2013  17 15  -20.9910 26051.2 -03481.0 -07.6108 26282.7
 18 09 2013  17 16  -20.9911 26051.7 -03481.3 -07.6114 26283.2
 18 09 2013  17 17  -20.9913 26052.2 -03481.6 -07.6118 26283.8
 18 09 2013  17 18  -20.9914 26052.3 -03481.7 -07.6120 26284.0
 18 09 2013  17 19  -20.9908 26051.4 -03481.3 -07.6114 26283.0
 18 09 2013  17 20  -20.9898 26051.3 -03481.2 -07.6113 26282.9
 18 09 2013  17 21  -20.9900 26051.8 -03481.6 -07.6120 26283.4
 18 09 2013  17 22  -20.9901 26052.3 -03482.0 -07.6126 26284.0
 18 09 2013  17 23  -20.9908 26052.8 -03482.2 -07.6130 26284.5
 18 09 2013  17 24  -20.9914 26053.2 -03482.3 -07.6132 26284.9
 18 09 2013  17 25  -20.9915 26054.1 -03482.7 -07.6137 26285.9
 18 09 2013  17 26  -20.9921 26055.2 -03483.0 -07.6141 26287.0
 18 09 2013  17 27  -20.9941 26056.7 -03483.4 -07.6144 26288.5
 18 09 2013  17 28  -20.9954 26056.9 -03483.1 -07.6136 26288.6
 18 09 2013  17 29  -20.9954 26056.7 -03482.5 -07.6125 26288.4
 18 09 2013  17 30  -20.9959 26056.3 -03481.9 -07.6114 26287.9
 18 09 2013  17 31  -20.9958 26056.3 -03481.6 -07.6106 26287.9
 18 09 2013  17 32  -20.9964 26056.4 -03481.4 -07.6101 26288.0
 18 09 2013  17 33  -20.9974 26056.9 -03481.3 -07.6099 26288.4
 18 09 2013  17 34  -20.9969 26055.9 -03480.6 -07.6087 26287.3
 18 09 2013  17 35  -20.9949 26054.5 -03479.9 -07.6075 26285.9
 18 09 2013  17 36  -20.9939 26053.8 -03479.8 -07.6074 26285.2
 18 09 2013  17 37  -20.9929 26053.9 -03479.9 -07.6078 26285.3
 18 09 2013  17 38  -20.9927 26053.7 -03480.1 -07.6081 26285.1
 18 09 2013  17 39  -20.9914 26053.1 -03479.9 -07.6079 26284.5
 18 09 2013  17 40  -20.9901 26053.2 -03480.1 -07.6084 26284.6
 18 09 2013  17 41  -20.9896 26053.4 -03480.4 -07.6090 26284.8
 18 09 2013  17 42  -20.9891 26053.6 -03480.7 -07.6094 26285.0
 18 09 2013  17 43  -20.9890 26053.1 -03480.6 -07.6095 26284.6
 18 09 2013  17 44  -20.9875 26052.3 -03480.4 -07.6093 26283.8
 18 09 2013  17 45  -20.9867 26051.5 -03480.3 -07.6093 26283.0
 18 09 2013  17 46  -20.9867 26052.3 -03480.9 -07.6103 26283.8
 18 09 2013  17 47  -20.9869 26053.3 -03481.6 -07.6115 26284.8
 18 09 2013  17 48  -20.9872 26053.6 -03481.8 -07.6119 26285.2
 18 09 2013  17 49  -20.9871 26053.9 -03481.9 -07.6121 26285.6
 18 09 2013  17 50  -20.9871 26053.7 -03481.8 -07.6120 26285.3
 18 09 2013  17 51  -20.9873 26053.6 -03481.8 -07.6119 26285.2
 18 09 2013  17 52  -20.9873 26053.1 -03481.6 -07.6116 26284.7
 18 09 2013  17 53  -20.9862 26052.3 -03481.3 -07.6111 26283.9
 18 09 2013  17 54  -20.9859 26051.8 -03481.2 -07.6111 26283.3
 18 09 2013  17 55  -20.9852 26051.1 -03481.1 -07.6110 26282.7
 18 09 2013  17 56  -20.9848 26050.8 -03481.0 -07.6110 26282.3
 18 09 2013  17 57  -20.9843 26050.4 -03481.0 -07.6110 26282.0
 18 09 2013  17 58  -20.9838 26049.9 -03480.8 -07.6108 26281.4
 18 09 2013  17 59  -20.9834 26049.6 -03480.9 -07.6110 26281.1
 18 09 2013  18 00  -20.9835 26049.5 -03480.9 -07.6112 26281.0
 18 09 2013  18 01  -20.9836 26049.3 -03480.9 -07.6112 26280.9
 18 09 2013  18 02  -20.9836 26049.3 -03480.9 -07.6113 26280.8
 18 09 2013  18 03  -20.9832 26049.0 -03480.9 -07.6112 26280.5
 18 09 2013  18 04  -20.9832 26049.0 -03481.0 -07.6114 26280.6
 18 09 2013  18 05  -20.9828 26049.0 -03481.2 -07.6118 26280.6
 18 09 2013  18 06  -20.9830 26049.3 -03481.3 -07.6121 26280.9
 18 09 2013  18 07  -20.9827 26049.2 -03481.4 -07.6122 26280.8
 18 09 2013  18 08  -20.9820 26048.8 -03481.2 -07.6120 26280.4
 18 09 2013  18 09  -20.9815 26048.2 -03481.0 -07.6118 26279.8
 18 09 2013  18 10  -20.9817 26048.1 -03481.1 -07.6119 26279.7
 18 09 2013  18 11  -20.9818 26048.4 -03481.2 -07.6122 26280.0
 18 09 2013  18 12  -20.9809 26047.5 -03480.9 -07.6117 26279.1
 18 09 2013  18 13  -20.9806 26047.1 -03480.8 -07.6117 26278.6
 18 09 2013  18 14  -20.9810 26047.0 -03481.0 -07.6120 26278.5
 18 09 2013  18 15  -20.9812 26046.9 -03481.1 -07.6122 26278.5
 18 09 2013  18 16  -20.9808 26046.9 -03481.2 -07.6125 26278.5
 18 09 2013  18 17  -20.9805 26047.3 -03481.5 -07.6131 26278.9
 18 09 2013  18 18  -20.9807 26047.9 -03482.0 -07.6140 26279.6
 18 09 2013  18 19  -20.9814 26048.8 -03482.5 -07.6148 26280.5
 18 09 2013  18 20  -20.9830 26049.3 -03482.8 -07.6152 26281.1
 18 09 2013  18 21  -20.9839 26049.3 -03482.6 -07.6149 26281.1
 18 09 2013  18 22  -20.9851 26049.3 -03482.4 -07.6145 26281.0
 18 09 2013  18 23  -20.9852 26048.6 -03482.0 -07.6138 26280.3
 18 09 2013  18 24  -20.9849 26047.6 -03481.5 -07.6130 26279.3
 18 09 2013  18 25  -20.9849 26047.3 -03481.4 -07.6128 26278.9
 18 09 2013  18 26  -20.9849 26047.2 -03481.4 -07.6129 26278.8
 18 09 2013  18 27  -20.9848 26047.3 -03481.6 -07.6132 26279.0
 18 09 2013  18 28  -20.9849 26047.2 -03481.6 -07.6132 26278.9
 18 09 2013  18 29  -20.9840 26046.3 -03481.2 -07.6127 26277.9
 18 09 2013  18 30  -20.9841 26046.1 -03481.1 -07.6126 26277.7
 18 09 2013  18 31  -20.9843 26045.7 -03481.0 -07.6125 26277.3
 18 09 2013  18 32  -20.9840 26045.5 -03481.0 -07.6126 26277.1
 18 09 2013  18 33  -20.9834 26045.1 -03480.9 -07.6125 26276.6
 18 09 2013  18 34  -20.9831 26044.8 -03480.9 -07.6126 26276.4
 18 09 2013  18 35  -20.9833 26045.0 -03481.2 -07.6130 26276.7
 18 09 2013  18 36  -20.9842 26045.6 -03481.5 -07.6137 26277.3
 18 09 2013  18 37  -20.9850 26045.7 -03481.6 -07.6137 26277.4
 18 09 2013  18 38  -20.9855 26044.9 -03481.2 -07.6130 26276.5
 18 09 2013  18 39  -20.9849 26043.6 -03480.5 -07.6120 26275.1
 18 09 2013  18 40  -20.9844 26042.9 -03480.2 -07.6116 26274.4
 18 09 2013  18 41  -20.9850 26043.6 -03480.8 -07.6125 26275.2
 18 09 2013  18 42  -20.9864 26044.0 -03481.2 -07.6133 26275.6
 18 09 2013  18 43  -20.9867 26044.3 -03481.4 -07.6136 26275.9
 18 09 2013  18 44  -20.9873 26042.6 -03480.6 -07.6124 26274.2
 18 09 2013  18 45  -20.9871 26041.2 -03479.8 -07.6111 26272.7
 18 09 2013  18 46  -20.9868 26039.9 -03479.2 -07.6102 26271.3
 18 09 2013  18 47  -20.9868 26038.7 -03478.9 -07.6099 26270.1
 18 09 2013  18 48  -20.9872 26038.4 -03479.0 -07.6102 26269.8
 18 09 2013  18 49  -20.9875 26037.9 -03479.0 -07.6104 26269.3
 18 09 2013  18 50  -20.9874 26037.0 -03478.8 -07.6103 26268.4
 18 09 2013  18 51  -20.9875 26036.9 -03479.0 -07.6106 26268.3
 18 09 2013  18 52  -20.9883 26037.2 -03479.4 -07.6113 26268.7
 18 09 2013  18 53  -20.9897 26037.4 -03479.6 -07.6118 26268.9
 18 09 2013  18 54  -20.9901 26036.5 -03479.2 -07.6112 26267.9
 18 09 2013  18 55  -20.9896 26036.0 -03478.9 -07.6107 26267.3
 18 09 2013  18 56  -20.9900 26036.5 -03479.4 -07.6116 26268.0
 18 09 2013  18 57  -20.9908 26036.4 -03479.5 -07.6118 26267.8
 18 09 2013  18 58  -20.9905 26036.0 -03479.3 -07.6115 26267.4
 18 09 2013  18 59  -20.9907 26035.9 -03479.3 -07.6117 26267.4
 18 09 2013  19 00  -20.9909 26035.8 -03479.4 -07.6119 26267.3
 18 09 2013  19 01  -20.9912 26035.6 -03479.4 -07.6119 26267.0
 18 09 2013  19 02  -20.9911 26035.2 -03479.3 -07.6118 26266.6
 18 09 2013  19 03  -20.9910 26034.7 -03479.2 -07.6118 26266.1
 18 09 2013  19 04  -20.9910 26034.1 -03479.1 -07.6117 26265.5
 18 09 2013  19 05  -20.9907 26033.4 -03479.0 -07.6117 26264.9
 18 09 2013  19 06  -20.9903 26032.9 -03479.0 -07.6118 26264.3
 18 09 2013  19 07  -20.9899 26032.7 -03479.2 -07.6124 26264.1
 18 09 2013  19 08  -20.9903 26032.8 -03479.6 -07.6130 26264.3
 18 09 2013  19 09  -20.9907 26032.4 -03479.5 -07.6131 26263.9
 18 09 2013  19 10  -20.9907 26032.0 -03479.5 -07.6131 26263.5
 18 09 2013  19 11  -20.9905 26031.4 -03479.3 -07.6129 26262.9
 18 09 2013  19 12  -20.9907 26030.8 -03479.2 -07.6129 26262.3
 18 09 2013  19 13  -20.9911 26030.8 -03479.4 -07.6133 26262.4
 18 09 2013  19 14  -20.9915 26031.2 -03479.7 -07.6138 26262.7
 18 09 2013  19 15  -20.9914 26031.3 -03480.0 -07.6143 26262.9
 18 09 2013  19 16  -20.9918 26031.3 -03480.1 -07.6147 26262.9
 18 09 2013  19 17  -20.9922 26031.4 -03480.2 -07.6149 26263.0
 18 09 2013  19 18  -20.9927 26032.0 -03480.5 -07.6154 26263.7
 18 09 2013  19 19  -20.9971 26031.9 -03480.5 -07.6154 26263.5
 18 09 2013  19 20  -20.9978 26031.7 -03480.5 -07.6154 26263.3
 18 09 2013  19 21  -20.9979 26031.2 -03480.3 -07.6152 26262.8
 18 09 2013  19 22  -20.9978 26030.9 -03480.3 -07.6152 26262.5
 18 09 2013  19 23  -20.9983 26030.4 -03480.2 -07.6151 26262.0
 18 09 2013  19 24  -20.9979 26030.2 -03480.2 -07.6153 26261.8
 18 09 2013  19 25  -20.9977 26030.0 -03480.3 -07.6154 26261.6
 18 09 2013  19 26  -20.9977 26029.8 -03480.3 -07.6155 26261.4
 18 09 2013  19 27  -20.9976 26029.7 -03480.4 -07.6158 26261.4
 18 09 2013  19 28  -20.9980 26029.3 -03480.4 -07.6160 26261.0
 18 09 2013  19 29  -20.9978 26028.9 -03480.3 -07.6158 26260.6
 18 09 2013  19 30  -20.9975 26028.8 -03480.4 -07.6160 26260.5
 18 09 2013  19 31  -20.9978 26029.5 -03480.9 -07.6168 26261.2
 18 09 2013  19 32  -20.9980 26030.2 -03481.3 -07.6176 26262.0
 18 09 2013  19 33  -20.9983 26030.5 -03481.5 -07.6178 26262.3
 18 09 2013  19 34  -20.9961 26030.9 -03481.7 -07.6183 26262.7
 18 09 2013  19 35  -20.9957 26030.6 -03481.6 -07.6181 26262.4
 18 09 2013  19 36  -20.9955 26030.1 -03481.4 -07.6178 26261.9
 18 09 2013  19 37  -20.9953 26030.0 -03481.4 -07.6179 26261.8
 18 09 2013  19 38  -20.9957 26030.2 -03481.6 -07.6183 26262.0
 18 09 2013  19 39  -20.9970 26029.9 -03481.6 -07.6184 26261.7
 18 09 2013  19 40  -20.9976 26028.4 -03480.9 -07.6172 26260.1
 18 09 2013  19 41  -20.9968 26027.8 -03480.5 -07.6166 26259.5
 18 09 2013  19 42  -20.9960 26028.7 -03481.1 -07.6177 26260.5
 18 09 2013  19 43  -20.9969 26029.3 -03481.7 -07.6187 26261.1
 18 09 2013  19 44  -20.9973 26029.3 -03481.7 -07.6187 26261.1
 18 09 2013  19 45  -20.9977 26029.7 -03481.8 -07.6188 26261.5
 18 09 2013  19 46  -20.9984 26030.1 -03482.0 -07.6191 26261.9
 18 09 2013  19 47  -20.9987 26030.1 -03482.0 -07.6191 26261.9
 18 09 2013  19 48  -20.9990 26030.1 -03482.0 -07.6191 26261.9
 18 09 2013  19 49  -20.9996 26030.0 -03481.9 -07.6189 26261.8
 18 09 2013  19 50  -20.9998 26029.8 -03481.8 -07.6187 26261.6
 18 09 2013  19 51  -20.9998 26029.6 -03481.7 -07.6187 26261.4
 18 09 2013  19 52  -20.9999 26029.4 -03481.7 -07.6186 26261.2
 18 09 2013  19 53  -21.0002 26029.1 -03481.6 -07.6185 26260.9
 18 09 2013  19 54  -21.0001 26028.9 -03481.5 -07.6183 26260.7
 18 09 2013  19 55  -21.0002 26029.2 -03481.6 -07.6185 26261.0
 18 09 2013  19 56  -21.0003 26029.4 -03481.8 -07.6189 26261.2
 18 09 2013  19 57  -21.0006 26029.5 -03481.8 -07.6189 26261.3
 18 09 2013  19 58  -21.0007 26029.6 -03481.9 -07.6190 26261.4
 18 09 2013  19 59  -21.0007 26030.0 -03482.0 -07.6192 26261.8
 18 09 2013  20 00  -21.0015 26030.3 -03482.2 -07.6195 26262.1
 18 09 2013  20 01  -21.0021 26030.0 -03482.0 -07.6192 26261.9
 18 09 2013  20 02  -21.0020 26029.9 -03481.9 -07.6190 26261.8
 18 09 2013  20 03  -21.0024 26029.7 -03481.9 -07.6189 26261.6
 18 09 2013  20 04  -21.0023 26029.3 -03481.7 -07.6186 26261.1
 18 09 2013  20 05  -21.0022 26029.2 -03481.6 -07.6185 26261.0
 18 09 2013  20 06  -21.0021 26029.1 -03481.6 -07.6185 26260.9
 18 09 2013  20 07  -21.0018 26029.3 -03481.6 -07.6185 26261.1
 18 09 2013  20 08  -21.0012 26029.5 -03481.8 -07.6188 26261.3
 18 09 2013  20 09  -21.0007 26029.2 -03481.7 -07.6188 26261.1
 18 09 2013  20 10  -21.0013 26029.0 -03481.7 -07.6188 26260.9
 18 09 2013  20 11  -21.0016 26029.2 -03481.7 -07.6188 26261.0
 18 09 2013  20 12  -21.0017 26029.1 -03481.8 -07.6189 26261.0
 18 09 2013  20 13  -21.0017 26028.7 -03481.7 -07.6188 26260.5
 18 09 2013  20 14  -21.0018 26028.5 -03481.6 -07.6186 26260.3
 18 09 2013  20 15  -21.0018 26028.5 -03481.6 -07.6187 26260.3
 18 09 2013  20 16  -21.0018 26028.4 -03481.6 -07.6186 26260.2
 18 09 2013  20 17  -21.0019 26027.9 -03481.4 -07.6185 26259.7
 18 09 2013  20 18  -21.0018 26028.0 -03481.5 -07.6186 26259.8
 18 09 2013  20 19  -21.0019 26028.6 -03481.8 -07.6192 26260.4
 18 09 2013  20 20  -21.0028 26028.9 -03482.1 -07.6196 26260.8
 18 09 2013  20 21  -21.0029 26028.5 -03481.9 -07.6194 26260.4
 18 09 2013  20 22  -21.0030 26028.4 -03481.9 -07.6193 26260.3
 18 09 2013  20 23  -21.0030 26028.5 -03482.0 -07.6196 26260.4
 18 09 2013  20 24  -21.0030 26028.9 -03482.2 -07.6198 26260.8
 18 09 2013  20 25  -21.0034 26029.6 -03482.5 -07.6204 26261.5
 18 09 2013  20 26  -21.0041 26029.1 -03482.3 -07.6201 26261.0
 18 09 2013  20 27  -21.0042 26028.3 -03481.8 -07.6193 26260.1
 18 09 2013  20 28  -21.0042 26028.5 -03481.9 -07.6193 26260.3
 18 09 2013  20 29  -21.0046 26028.4 -03482.0 -07.6195 26260.3
 18 09 2013  20 30  -21.0044 26028.0 -03481.8 -07.6192 26259.8
 18 09 2013  20 31  -21.0045 26028.5 -03482.0 -07.6195 26260.3
 18 09 2013  20 32  -21.0047 26029.0 -03482.3 -07.6201 26260.9
 18 09 2013  20 33  -21.0053 26029.3 -03482.5 -07.6204 26261.2
 18 09 2013  20 34  -21.0058 26029.1 -03482.4 -07.6203 26261.0
 18 09 2013  20 35  -21.0063 26029.1 -03482.4 -07.6203 26261.0
 18 09 2013  20 36  -21.0067 26029.1 -03482.4 -07.6202 26261.0
 18 09 2013  20 37  -21.0070 26029.0 -03482.3 -07.6201 26260.9
 18 09 2013  20 38  -21.0072 26028.9 -03482.3 -07.6200 26260.8
 18 09 2013  20 39  -21.0074 26028.9 -03482.2 -07.6200 26260.8
 18 09 2013  20 40  -21.0076 26028.9 -03482.3 -07.6201 26260.8
 18 09 2013  20 41  -21.0078 26028.9 -03482.3 -07.6201 26260.8
 18 09 2013  20 42  -21.0081 26029.1 -03482.3 -07.6202 26261.0
 18 09 2013  20 43  -21.0083 26028.8 -03482.2 -07.6200 26260.7
 18 09 2013  20 44  -21.0084 26028.7 -03482.2 -07.6199 26260.6
 18 09 2013  20 45  -21.0087 26028.9 -03482.3 -07.6201 26260.8
 18 09 2013  20 46  -21.0089 26029.2 -03482.5 -07.6204 26261.1
 18 09 2013  20 47  -21.0091 26029.3 -03482.5 -07.6205 26261.2
 18 09 2013  20 48  -21.0094 26029.2 -03482.4 -07.6203 26261.1
 18 09 2013  20 49  -21.0095 26028.8 -03482.2 -07.6200 26260.7
 18 09 2013  20 50  -21.0097 26028.6 -03482.1 -07.6198 26260.5
 18 09 2013  20 51  -21.0100 26028.3 -03482.0 -07.6197 26260.2
 18 09 2013  20 52  -21.0102 26028.0 -03481.9 -07.6195 26259.9
 18 09 2013  20 53  -21.0103 26027.9 -03481.9 -07.6195 26259.8
 18 09 2013  20 54  -21.0104 26027.8 -03481.9 -07.6195 26259.7
 18 09 2013  20 55  -21.0105 26027.8 -03481.9 -07.6196 26259.7
 18 09 2013  20 56  -21.0105 26027.3 -03481.7 -07.6193 26259.1
 18 09 2013  20 57  -21.0104 26027.4 -03481.7 -07.6192 26259.3
 18 09 2013  20 58  -21.0106 26027.9 -03482.0 -07.6197 26259.7
 18 09 2013  20 59  -21.0108 26027.8 -03482.0 -07.6198 26259.7
 18 09 2013  21 00  -21.0109 26027.5 -03481.9 -07.6196 26259.4
 18 09 2013  21 01  -21.0110 26027.6 -03481.9 -07.6196 26259.5
 18 09 2013  21 02  -21.0110 26028.7 -03482.4 -07.6203 26260.6
 18 09 2013  21 03  -21.0109 26030.1 -03483.2 -07.6218 26262.1
 18 09 2013  21 04  -21.0113 26030.1 -03483.1 -07.6215 26262.1
 18 09 2013  21 05  -21.0117 26030.6 -03483.2 -07.6215 26262.6
 18 09 2013  21 06  -21.0120 26030.8 -03483.4 -07.6219 26262.9
 18 09 2013  21 07  -21.0124 26031.0 -03483.5 -07.6221 26263.0
 18 09 2013  21 08  -21.0125 26031.1 -03483.5 -07.6221 26263.2
 18 09 2013  21 09  -21.0126 26031.8 -03483.7 -07.6224 26263.8
 18 09 2013  21 10  -21.0127 26032.1 -03483.8 -07.6225 26264.2
 18 09 2013  21 11  -21.0129 26031.9 -03483.7 -07.6223 26264.0
 18 09 2013  21 12  -21.0130 26031.5 -03483.4 -07.6217 26263.5
 18 09 2013  21 13  -21.0132 26032.3 -03483.7 -07.6222 26264.4
 18 09 2013  21 14  -21.0132 26033.0 -03484.1 -07.6229 26265.2
 18 09 2013  21 15  -21.0130 26033.0 -03484.0 -07.6225 26265.1
 18 09 2013  21 16  -21.0128 26032.8 -03483.9 -07.6223 26264.9
 18 09 2013  21 17  -21.0127 26032.8 -03483.8 -07.6222 26264.9
 18 09 2013  21 18  -21.0126 26032.2 -03483.5 -07.6217 26264.2
 18 09 2013  21 19  -21.0121 26031.7 -03483.2 -07.6212 26263.7
 18 09 2013  21 20  -21.0121 26030.9 -03482.8 -07.6206 26262.9
 18 09 2013  21 21  -21.0124 26029.4 -03482.1 -07.6196 26261.3
 18 09 2013  21 22  -21.0126 26028.3 -03481.6 -07.6189 26260.1
 18 09 2013  21 23  -21.0126 26027.9 -03481.5 -07.6188 26259.7
 18 09 2013  21 24  -21.0121 26027.7 -03481.5 -07.6188 26259.5
 18 09 2013  21 25  -21.0116 26027.7 -03481.5 -07.6188 26259.5
 18 09 2013  21 26  -21.0113 26028.0 -03481.7 -07.6191 26259.8
 18 09 2013  21 27  -21.0111 26028.2 -03481.9 -07.6195 26260.0
 18 09 2013  21 28  -21.0112 26028.0 -03482.0 -07.6196 26259.9
 18 09 2013  21 29  -21.0114 26027.8 -03482.0 -07.6197 26259.7
 18 09 2013  21 30  -21.0116 26028.0 -03482.1 -07.6199 26259.9
 18 09 2013  21 31  -21.0114 26028.3 -03482.3 -07.6203 26260.2
 18 09 2013  21 32  -21.0115 26028.7 -03482.5 -07.6207 26260.6
 18 09 2013  21 33  -21.0117 26029.0 -03482.7 -07.6210 26261.0
 18 09 2013  21 34  -21.0121 26029.3 -03482.9 -07.6214 26261.3
 18 09 2013  21 35  -21.0126 26029.4 -03483.0 -07.6216 26261.4
 18 09 2013  21 36  -21.0128 26029.1 -03482.9 -07.6214 26261.1
 18 09 2013  21 37  -21.0129 26028.8 -03482.7 -07.6211 26260.7
 18 09 2013  21 38  -21.0129 26029.0 -03482.9 -07.6213 26261.0
 18 09 2013  21 39  -21.0130 26029.1 -03482.9 -07.6213 26261.0
 18 09 2013  21 40  -21.0132 26028.7 -03482.7 -07.6210 26260.7
 18 09 2013  21 41  -21.0133 26028.4 -03482.6 -07.6209 26260.3
 18 09 2013  21 42  -21.0135 26028.2 -03482.5 -07.6207 26260.1
 18 09 2013  21 43  -21.0136 26027.4 -03482.1 -07.6201 26259.3
 18 09 2013  21 44  -21.0136 26027.2 -03482.0 -07.6199 26259.1
 18 09 2013  21 45  -21.0137 26027.5 -03482.2 -07.6203 26259.5
 18 09 2013  21 46  -21.0138 26027.3 -03482.2 -07.6203 26259.2
 18 09 2013  21 47  -21.0138 26026.9 -03482.0 -07.6200 26258.8
 18 09 2013  21 48  -21.0138 26026.4 -03481.8 -07.6197 26258.2
 18 09 2013  21 49  -21.0138 26026.1 -03481.6 -07.6195 26257.9
 18 09 2013  21 50  -21.0137 26025.5 -03481.4 -07.6192 26257.3
 18 09 2013  21 51  -21.0136 26025.0 -03481.2 -07.6189 26256.8
 18 09 2013  21 52  -21.0135 26024.8 -03481.2 -07.6189 26256.6
 18 09 2013  21 53  -21.0133 26025.0 -03481.4 -07.6193 26256.8
 18 09 2013  21 54  -21.0132 26025.3 -03481.7 -07.6198 26257.2
 18 09 2013  21 55  -21.0134 26025.4 -03481.9 -07.6202 26257.3
 18 09 2013  21 56  -21.0136 26025.2 -03481.8 -07.6202 26257.0
 18 09 2013  21 57  -21.0139 26024.9 -03481.8 -07.6202 26256.7
 18 09 2013  21 58  -21.0140 26024.5 -03481.7 -07.6201 26256.4
 18 09 2013  21 59  -21.0142 26024.6 -03481.8 -07.6203 26256.5
 18 09 2013  22 00  -21.0143 26024.4 -03481.8 -07.6203 26256.3
 18 09 2013  22 01  -21.0144 26023.7 -03481.5 -07.6199 26255.6
 18 09 2013  22 02  -21.0144 26023.5 -03481.4 -07.6198 26255.4
 18 09 2013  22 03  -21.0143 26023.6 -03481.5 -07.6200 26255.4
 18 09 2013  22 04  -21.0143 26023.4 -03481.5 -07.6200 26255.3
 18 09 2013  22 05  -21.0143 26022.9 -03481.4 -07.6199 26254.8
 18 09 2013  22 06  -21.0144 26022.6 -03481.4 -07.6199 26254.4
 18 09 2013  22 07  -21.0145 26022.9 -03481.5 -07.6202 26254.7
 18 09 2013  22 08  -21.0142 26024.0 -03482.1 -07.6212 26255.9
 18 09 2013  22 09  -21.0140 26024.9 -03482.7 -07.6222 26256.9
 18 09 2013  22 10  -21.0138 26025.2 -03483.0 -07.6227 26257.3
 18 09 2013  22 11  -21.0138 26025.6 -03483.1 -07.6228 26257.6
 18 09 2013  22 12  -21.0139 26025.7 -03483.1 -07.6228 26257.7
 18 09 2013  22 13  -21.0143 26025.9 -03483.3 -07.6231 26257.9
 18 09 2013  22 14  -21.0148 26025.6 -03483.1 -07.6229 26257.6
 18 09 2013  22 15  -21.0153 26025.4 -03483.0 -07.6227 26257.4
 18 09 2013  22 16  -21.0159 26025.1 -03482.9 -07.6224 26257.1
 18 09 2013  22 17  -21.0161 26024.8 -03482.7 -07.6221 26256.8
 18 09 2013  22 18  -21.0163 26024.6 -03482.5 -07.6218 26256.5
 18 09 2013  22 19  -21.0165 26024.5 -03482.5 -07.6218 26256.5
 18 09 2013  22 20  -21.0164 26024.8 -03482.6 -07.6220 26256.8
 18 09 2013  22 21  -21.0166 26025.2 -03482.8 -07.6223 26257.2
 18 09 2013  22 22  -21.0168 26025.3 -03482.9 -07.6224 26257.3
 18 09 2013  22 23  -21.0165 26025.6 -03483.0 -07.6226 26257.6
 18 09 2013  22 24  -21.0163 26025.8 -03483.2 -07.6228 26257.9
 18 09 2013  22 25  -21.0161 26026.6 -03483.5 -07.6233 26258.7
 18 09 2013  22 26  -21.0156 26027.3 -03483.8 -07.6239 26259.4
 18 09 2013  22 27  -21.0151 26027.9 -03484.2 -07.6244 26260.1
 18 09 2013  22 28  -21.0146 26028.7 -03484.5 -07.6249 26260.9
 18 09 2013  22 29  -21.0138 26029.2 -03484.7 -07.6251 26261.4
 18 09 2013  22 30  -21.0136 26029.3 -03484.8 -07.6253 26261.5
 18 09 2013  22 31  -21.0132 26029.1 -03484.7 -07.6251 26261.3
 18 09 2013  22 32  -21.0129 26029.0 -03484.6 -07.6250 26261.2
 18 09 2013  22 33  -21.0125 26029.3 -03484.7 -07.6253 26261.5
 18 09 2013  22 34  -21.0126 26029.3 -03484.8 -07.6253 26261.5
 18 09 2013  22 35  -21.0124 26029.3 -03484.8 -07.6253 26261.6
 18 09 2013  22 36  -21.0124 26029.3 -03484.7 -07.6253 26261.5
 18 09 2013  22 37  -21.0124 26029.5 -03484.8 -07.6253 26261.7
 18 09 2013  22 38  -21.0124 26029.9 -03485.0 -07.6256 26262.1
 18 09 2013  22 39  -21.0126 26030.1 -03485.0 -07.6257 26262.4
 18 09 2013  22 40  -21.0129 26029.9 -03484.9 -07.6255 26262.2
 18 09 2013  22 41  -21.0130 26029.4 -03484.6 -07.6250 26261.7
 18 09 2013  22 42  -21.0132 26029.0 -03484.4 -07.6246 26261.2
 18 09 2013  22 43  -21.0133 26028.7 -03484.2 -07.6242 26260.8
 18 09 2013  22 44  -21.0132 26028.6 -03484.1 -07.6240 26260.7
 18 09 2013  22 45  -21.0133 26028.3 -03483.9 -07.6237 26260.4
 18 09 2013  22 46  -21.0135 26027.9 -03483.8 -07.6236 26260.1
 18 09 2013  22 47  -21.0135 26027.6 -03483.6 -07.6233 26259.7
 18 09 2013  22 48  -21.0136 26027.3 -03483.5 -07.6231 26259.4
 18 09 2013  22 49  -21.0137 26027.1 -03483.4 -07.6229 26259.1
 18 09 2013  22 50  -21.0137 26026.9 -03483.4 -07.6230 26259.0
 18 09 2013  22 51  -21.0137 26026.6 -03483.3 -07.6229 26258.7
 18 09 2013  22 52  -21.0137 26026.3 -03483.2 -07.6227 26258.3
 18 09 2013  22 53  -21.0134 26026.0 -03483.1 -07.6226 26258.1
 18 09 2013  22 54  -21.0129 26026.0 -03483.1 -07.6228 26258.0
 18 09 2013  22 55  -21.0127 26025.9 -03483.2 -07.6228 26258.0
 18 09 2013  22 56  -21.0126 26025.7 -03483.1 -07.6228 26257.7
 18 09 2013  22 57  -21.0122 26025.5 -03483.1 -07.6227 26257.6
 18 09 2013  22 58  -21.0119 26025.6 -03483.1 -07.6227 26257.6
 18 09 2013  22 59  -21.0120 26025.6 -03483.2 -07.6229 26257.6
 18 09 2013  23 00  -21.0121 26025.3 -03483.2 -07.6230 26257.3
 18 09 2013  23 01  -21.0122 26025.1 -03483.2 -07.6231 26257.2
 18 09 2013  23 02  -21.0126 26024.9 -03483.2 -07.6232 26257.0
 18 09 2013  23 03  -21.0129 26024.7 -03483.2 -07.6232 26256.7
 18 09 2013  23 04  -21.0132 26024.1 -03483.0 -07.6229 26256.1
 18 09 2013  23 05  -21.0133 26023.7 -03482.8 -07.6227 26255.7
 18 09 2013  23 06  -21.0136 26023.2 -03482.6 -07.6224 26255.2
 18 09 2013  23 07  -21.0137 26023.0 -03482.6 -07.6224 26255.0
 18 09 2013  23 08  -21.0138 26022.9 -03482.6 -07.6225 26254.9
 18 09 2013  23 09  -21.0142 26022.8 -03482.7 -07.6226 26254.8
 18 09 2013  23 10  -21.0146 26022.8 -03482.7 -07.6228 26254.9
 18 09 2013  23 11  -21.0151 26022.4 -03482.6 -07.6226 26254.4
 18 09 2013  23 12  -21.0155 26022.3 -03482.6 -07.6226 26254.3
 18 09 2013  23 13  -21.0158 26022.3 -03482.6 -07.6228 26254.3
 18 09 2013  23 14  -21.0161 26022.5 -03482.8 -07.6229 26254.6
 18 09 2013  23 15  -21.0160 26022.4 -03482.8 -07.6230 26254.4
 18 09 2013  23 16  -21.0158 26022.5 -03482.8 -07.6231 26254.5
 18 09 2013  23 17  -21.0156 26022.5 -03482.8 -07.6230 26254.5
 18 09 2013  23 18  -21.0152 26022.9 -03483.1 -07.6235 26255.0
 18 09 2013  23 19  -21.0155 26022.4 -03482.9 -07.6233 26254.4
 18 09 2013  23 20  -21.0155 26022.2 -03482.8 -07.6232 26254.2
 18 09 2013  23 21  -21.0155 26021.5 -03482.6 -07.6229 26253.5
 18 09 2013  23 22  -21.0156 26021.1 -03482.4 -07.6227 26253.1
 18 09 2013  23 23  -21.0154 26021.3 -03482.6 -07.6229 26253.3
 18 09 2013  23 24  -21.0155 26021.2 -03482.6 -07.6230 26253.2
 18 09 2013  23 25  -21.0151 26021.2 -03482.7 -07.6231 26253.2
 18 09 2013  23 26  -21.0148 26020.7 -03482.5 -07.6228 26252.7
 18 09 2013  23 27  -21.0142 26021.0 -03482.7 -07.6232 26253.1
 18 09 2013  23 28  -21.0137 26020.8 -03482.6 -07.6232 26252.8
 18 09 2013  23 29  -21.0136 26020.5 -03482.6 -07.6231 26252.5
 18 09 2013  23 30  -21.0134 26020.5 -03482.6 -07.6233 26252.5
 18 09 2013  23 31  -21.0136 26020.4 -03482.8 -07.6235 26252.5
 18 09 2013  23 32  -21.0136 26020.6 -03482.9 -07.6238 26252.6
 18 09 2013  23 33  -21.0138 26020.0 -03482.7 -07.6235 26252.0
 18 09 2013  23 34  -21.0136 26020.1 -03482.8 -07.6237 26252.1
 18 09 2013  23 35  -21.0138 26019.2 -03482.4 -07.6232 26251.2
 18 09 2013  23 36  -21.0136 26019.1 -03482.4 -07.6232 26251.1
 18 09 2013  23 37  -21.0139 26019.1 -03482.5 -07.6234 26251.1
 18 09 2013  23 38  -21.0140 26019.0 -03482.6 -07.6237 26251.1
 18 09 2013  23 39  -21.0138 26018.9 -03482.7 -07.6238 26251.0
 18 09 2013  23 40  -21.0138 26019.0 -03482.8 -07.6240 26251.0
 18 09 2013  23 41  -21.0137 26019.0 -03482.8 -07.6240 26251.0
 18 09 2013  23 42  -21.0133 26019.1 -03482.9 -07.6243 26251.2
 18 09 2013  23 43  -21.0128 26018.9 -03482.9 -07.6243 26251.0
 18 09 2013  23 44  -21.0123 26018.6 -03482.8 -07.6241 26250.7
 18 09 2013  23 45  -21.0116 26018.8 -03483.0 -07.6245 26250.9
 18 09 2013  23 46  -21.0112 26018.7 -03483.0 -07.6245 26250.7
 18 09 2013  23 47  -21.0108 26019.0 -03483.2 -07.6248 26251.1
 18 09 2013  23 48  -21.0107 26019.4 -03483.5 -07.6255 26251.6
 18 09 2013  23 49  -21.0106 26019.2 -03483.5 -07.6256 26251.4
 18 09 2013  23 50  -21.0102 26019.2 -03483.6 -07.6256 26251.4
 18 09 2013  23 51  -21.0097 26019.0 -03483.5 -07.6256 26251.2
 18 09 2013  23 52  -21.0093 26019.0 -03483.5 -07.6256 26251.2
 18 09 2013  23 53  -21.0090 26019.1 -03483.6 -07.6258 26251.2
 18 09 2013  23 54  -21.0087 26019.0 -03483.6 -07.6259 26251.2
 18 09 2013  23 55  -21.0082 26019.2 -03483.8 -07.6262 26251.4
 18 09 2013  23 56  -21.0081 26019.2 -03483.9 -07.6264 26251.4
 18 09 2013  23 57  -21.0081 26019.4 -03484.0 -07.6266 26251.6
