SAO LUIS EMBRACE-03 <291> 1 Min. Reported data

 DD MM YYYY  HH MM   D(Deg)  H(nT)   Z(nT)   I(Deg)   F(nT)

 18 10 2013  00 00  -21.0133 26009.1 -03495.8 -07.6550 26242.9
 18 10 2013  00 01  -21.0133 26009.2 -03495.8 -07.6551 26243.1
 18 10 2013  00 02  -21.0133 26009.3 -03495.9 -07.6552 26243.1
 18 10 2013  00 03  -21.0131 26009.3 -03495.9 -07.6552 26243.2
 18 10 2013  00 04  -21.0130 26009.4 -03495.9 -07.6553 26243.3
 18 10 2013  00 05  -21.0128 26009.4 -03495.9 -07.6553 26243.3
 18 10 2013  00 06  -21.0126 26009.4 -03496.0 -07.6553 26243.3
 18 10 2013  00 07  -21.0124 26009.4 -03496.0 -07.6553 26243.3
 18 10 2013  00 08  -21.0120 26009.4 -03496.0 -07.6554 26243.3
 18 10 2013  00 09  -21.0119 26009.5 -03496.1 -07.6555 26243.4
 18 10 2013  00 10  -21.0118 26009.5 -03496.1 -07.6556 26243.4
 18 10 2013  00 11  -21.0118 26009.5 -03496.1 -07.6557 26243.5
 18 10 2013  00 12  -21.0117 26009.6 -03496.2 -07.6557 26243.5
 18 10 2013  00 13  -21.0118 26009.7 -03496.2 -07.6558 26243.6
 18 10 2013  00 14  -21.0120 26009.7 -03496.3 -07.6560 26243.7
 18 10 2013  00 15  -21.0120 26009.8 -03496.3 -07.6560 26243.7
 18 10 2013  00 16  -21.0121 26009.9 -03496.4 -07.6561 26243.9
 18 10 2013  00 17  -21.0121 26010.0 -03496.4 -07.6561 26243.9
 18 10 2013  00 18  -21.0121 26010.0 -03496.4 -07.6562 26244.0
 18 10 2013  00 19  -21.0118 26010.1 -03496.5 -07.6563 26244.1
 18 10 2013  00 20  -21.0116 26010.1 -03496.5 -07.6563 26244.1
 18 10 2013  00 21  -21.0113 26010.2 -03496.5 -07.6563 26244.2
 18 10 2013  00 22  -21.0111 26010.3 -03496.6 -07.6564 26244.2
 18 10 2013  00 23  -21.0109 26010.3 -03496.6 -07.6564 26244.3
 18 10 2013  00 24  -21.0107 26010.4 -03496.6 -07.6565 26244.3
 18 10 2013  00 25  -21.0106 26010.3 -03496.6 -07.6565 26244.3
 18 10 2013  00 26  -21.0104 26010.3 -03496.6 -07.6564 26244.3
 18 10 2013  00 27  -21.0103 26010.3 -03496.7 -07.6565 26244.3
 18 10 2013  00 28  -21.0104 26010.2 -03496.6 -07.6565 26244.2
 18 10 2013  00 29  -21.0102 26010.3 -03496.6 -07.6565 26244.3
 18 10 2013  00 30  -21.0101 26010.3 -03496.6 -07.6565 26244.2
 18 10 2013  00 31  -21.0100 26010.3 -03496.6 -07.6565 26244.3
 18 10 2013  00 32  -21.0101 26010.3 -03496.7 -07.6565 26244.3
 18 10 2013  00 33  -21.0099 26010.2 -03496.6 -07.6565 26244.2
 18 10 2013  00 34  -21.0098 26010.2 -03496.6 -07.6565 26244.2
 18 10 2013  00 35  -21.0096 26010.2 -03496.6 -07.6564 26244.2
 18 10 2013  00 36  -21.0096 26010.2 -03496.6 -07.6565 26244.2
 18 10 2013  00 37  -21.0095 26010.2 -03496.6 -07.6565 26244.2
 18 10 2013  00 38  -21.0095 26010.2 -03496.6 -07.6565 26244.1
 18 10 2013  00 39  -21.0094 26010.2 -03496.6 -07.6565 26244.2
 18 10 2013  00 40  -21.0092 26010.2 -03496.6 -07.6566 26244.2
 18 10 2013  00 41  -21.0093 26010.3 -03496.7 -07.6566 26244.2
 18 10 2013  00 42  -21.0093 26010.3 -03496.7 -07.6567 26244.3
 18 10 2013  00 43  -21.0093 26010.3 -03496.7 -07.6567 26244.3
 18 10 2013  00 44  -21.0093 26010.4 -03496.8 -07.6568 26244.3
 18 10 2013  00 45  -21.0093 26010.3 -03496.8 -07.6568 26244.3
 18 10 2013  00 46  -21.0093 26010.3 -03496.7 -07.6567 26244.3
 18 10 2013  00 47  -21.0092 26010.3 -03496.7 -07.6567 26244.2
 18 10 2013  00 48  -21.0093 26010.2 -03496.7 -07.6567 26244.2
 18 10 2013  00 49  -21.0093 26010.1 -03496.7 -07.6567 26244.1
 18 10 2013  00 50  -21.0093 26010.0 -03496.7 -07.6567 26244.0
 18 10 2013  00 51  -21.0092 26009.9 -03496.6 -07.6566 26243.9
 18 10 2013  00 52  -21.0093 26009.9 -03496.6 -07.6566 26243.8
 18 10 2013  00 53  -21.0093 26009.9 -03496.6 -07.6566 26243.9
 18 10 2013  00 54  -21.0094 26009.9 -03496.7 -07.6567 26243.9
 18 10 2013  00 55  -21.0094 26009.9 -03496.7 -07.6567 26243.9
 18 10 2013  00 56  -21.0095 26009.9 -03496.7 -07.6568 26243.9
 18 10 2013  00 57  -21.0096 26010.0 -03496.8 -07.6569 26244.0
 18 10 2013  00 58  -21.0097 26010.0 -03496.8 -07.6569 26244.0
 18 10 2013  00 59  -21.0098 26009.9 -03496.8 -07.6569 26243.9
 18 10 2013  01 00  -21.0099 26009.9 -03496.8 -07.6569 26243.9
 18 10 2013  01 01  -21.0099 26009.8 -03496.8 -07.6569 26243.8
 18 10 2013  01 02  -21.0100 26009.8 -03496.8 -07.6569 26243.8
 18 10 2013  01 03  -21.0100 26009.7 -03496.7 -07.6568 26243.7
 18 10 2013  01 04  -21.0100 26009.6 -03496.7 -07.6568 26243.6
 18 10 2013  01 05  -21.0100 26009.5 -03496.6 -07.6567 26243.5
 18 10 2013  01 06  -21.0100 26009.3 -03496.6 -07.6566 26243.3
 18 10 2013  01 07  -21.0101 26009.2 -03496.5 -07.6566 26243.1
 18 10 2013  01 08  -21.0100 26009.0 -03496.5 -07.6565 26243.0
 18 10 2013  01 09  -21.0099 26008.9 -03496.4 -07.6565 26242.8
 18 10 2013  01 10  -21.0098 26008.8 -03496.4 -07.6564 26242.7
 18 10 2013  01 11  -21.0098 26008.7 -03496.4 -07.6565 26242.7
 18 10 2013  01 12  -21.0099 26008.7 -03496.4 -07.6565 26242.6
 18 10 2013  01 13  -21.0101 26008.6 -03496.5 -07.6566 26242.6
 18 10 2013  01 14  -21.0102 26008.7 -03496.5 -07.6567 26242.6
 18 10 2013  01 15  -21.0104 26008.7 -03496.6 -07.6568 26242.6
 18 10 2013  01 16  -21.0108 26008.7 -03496.6 -07.6569 26242.7
 18 10 2013  01 17  -21.0110 26008.7 -03496.7 -07.6571 26242.7
 18 10 2013  01 18  -21.0113 26008.7 -03496.7 -07.6571 26242.7
 18 10 2013  01 19  -21.0115 26008.8 -03496.7 -07.6571 26242.8
 18 10 2013  01 20  -21.0118 26008.7 -03496.7 -07.6572 26242.7
 18 10 2013  01 21  -21.0121 26008.8 -03496.8 -07.6572 26242.8
 18 10 2013  01 22  -21.0122 26008.8 -03496.8 -07.6572 26242.8
 18 10 2013  01 23  -21.0123 26008.8 -03496.8 -07.6572 26242.8
 18 10 2013  01 24  -21.0125 26008.8 -03496.8 -07.6573 26242.8
 18 10 2013  01 25  -21.0128 26008.9 -03496.8 -07.6573 26243.0
 18 10 2013  01 26  -21.0128 26009.0 -03496.9 -07.6574 26243.0
 18 10 2013  01 27  -21.0129 26009.1 -03496.9 -07.6574 26243.1
 18 10 2013  01 28  -21.0128 26009.1 -03496.9 -07.6574 26243.1
 18 10 2013  01 29  -21.0127 26009.0 -03496.9 -07.6575 26243.1
 18 10 2013  01 30  -21.0124 26009.1 -03496.9 -07.6575 26243.1
 18 10 2013  01 31  -21.0121 26009.0 -03496.9 -07.6575 26243.1
 18 10 2013  01 32  -21.0118 26009.0 -03497.0 -07.6576 26243.0
 18 10 2013  01 33  -21.0115 26008.9 -03496.9 -07.6576 26242.9
 18 10 2013  01 34  -21.0113 26008.8 -03496.9 -07.6576 26242.8
 18 10 2013  01 35  -21.0110 26008.7 -03496.9 -07.6576 26242.7
 18 10 2013  01 36  -21.0109 26008.6 -03496.9 -07.6576 26242.6
 18 10 2013  01 37  -21.0107 26008.6 -03497.0 -07.6577 26242.6
 18 10 2013  01 38  -21.0106 26008.5 -03497.0 -07.6578 26242.5
 18 10 2013  01 39  -21.0107 26008.4 -03497.0 -07.6579 26242.5
 18 10 2013  01 40  -21.0108 26008.4 -03497.0 -07.6579 26242.4
 18 10 2013  01 41  -21.0110 26008.3 -03497.1 -07.6580 26242.3
 18 10 2013  01 42  -21.0112 26008.2 -03497.1 -07.6581 26242.3
 18 10 2013  01 43  -21.0113 26008.2 -03497.1 -07.6581 26242.2
 18 10 2013  01 44  -21.0114 26008.2 -03497.1 -07.6581 26242.2
 18 10 2013  01 45  -21.0116 26008.2 -03497.2 -07.6583 26242.2
 18 10 2013  01 46  -21.0117 26008.2 -03497.2 -07.6583 26242.2
 18 10 2013  01 47  -21.0118 26008.1 -03497.2 -07.6583 26242.2
 18 10 2013  01 48  -21.0119 26008.1 -03497.2 -07.6583 26242.1
 18 10 2013  01 49  -21.0119 26008.0 -03497.2 -07.6584 26242.1
 18 10 2013  01 50  -21.0119 26008.0 -03497.2 -07.6584 26242.1
 18 10 2013  01 51  -21.0121 26007.9 -03497.2 -07.6584 26242.0
 18 10 2013  01 52  -21.0121 26007.9 -03497.2 -07.6585 26241.9
 18 10 2013  01 53  -21.0122 26007.9 -03497.2 -07.6585 26242.0
 18 10 2013  01 54  -21.0124 26007.8 -03497.2 -07.6585 26241.9
 18 10 2013  01 55  -21.0125 26007.8 -03497.2 -07.6585 26241.9
 18 10 2013  01 56  -21.0126 26007.8 -03497.2 -07.6585 26241.9
 18 10 2013  01 57  -21.0127 26007.8 -03497.3 -07.6586 26241.9
 18 10 2013  01 58  -21.0128 26007.8 -03497.3 -07.6586 26241.9
 18 10 2013  01 59  -21.0129 26007.9 -03497.4 -07.6588 26242.0
 18 10 2013  02 00  -21.0131 26007.9 -03497.3 -07.6587 26242.0
 18 10 2013  02 01  -21.0131 26007.9 -03497.4 -07.6588 26242.0
 18 10 2013  02 02  -21.0131 26007.9 -03497.3 -07.6587 26242.0
 18 10 2013  02 03  -21.0131 26007.9 -03497.4 -07.6587 26242.0
 18 10 2013  02 04  -21.0131 26007.9 -03497.3 -07.6587 26242.0
 18 10 2013  02 05  -21.0131 26007.9 -03497.4 -07.6588 26242.0
 18 10 2013  02 06  -21.0132 26007.9 -03497.4 -07.6588 26242.0
 18 10 2013  02 07  -21.0131 26007.9 -03497.4 -07.6589 26242.0
 18 10 2013  02 08  -21.0132 26007.9 -03497.4 -07.6589 26242.0
 18 10 2013  02 09  -21.0134 26007.9 -03497.5 -07.6590 26242.0
 18 10 2013  02 10  -21.0135 26007.8 -03497.5 -07.6590 26242.0
 18 10 2013  02 11  -21.0135 26007.8 -03497.5 -07.6590 26241.9
 18 10 2013  02 12  -21.0136 26007.8 -03497.5 -07.6591 26241.9
 18 10 2013  02 13  -21.0136 26007.8 -03497.5 -07.6590 26241.9
 18 10 2013  02 14  -21.0137 26007.7 -03497.4 -07.6590 26241.8
 18 10 2013  02 15  -21.0139 26007.8 -03497.5 -07.6591 26241.9
 18 10 2013  02 16  -21.0141 26007.7 -03497.5 -07.6591 26241.8
 18 10 2013  02 17  -21.0142 26007.6 -03497.5 -07.6591 26241.8
 18 10 2013  02 18  -21.0143 26007.6 -03497.5 -07.6591 26241.7
 18 10 2013  02 19  -21.0145 26007.6 -03497.5 -07.6591 26241.7
 18 10 2013  02 20  -21.0147 26007.7 -03497.5 -07.6592 26241.8
 18 10 2013  02 21  -21.0148 26007.7 -03497.5 -07.6592 26241.8
 18 10 2013  02 22  -21.0151 26007.7 -03497.6 -07.6593 26241.8
 18 10 2013  02 23  -21.0152 26007.7 -03497.6 -07.6593 26241.8
 18 10 2013  02 24  -21.0153 26007.7 -03497.6 -07.6593 26241.9
 18 10 2013  02 25  -21.0153 26007.7 -03497.6 -07.6594 26241.9
 18 10 2013  02 26  -21.0153 26007.7 -03497.6 -07.6595 26241.8
 18 10 2013  02 27  -21.0155 26007.7 -03497.7 -07.6595 26241.8
 18 10 2013  02 28  -21.0156 26007.7 -03497.7 -07.6596 26241.8
 18 10 2013  02 29  -21.0158 26007.6 -03497.7 -07.6596 26241.8
 18 10 2013  02 30  -21.0159 26007.6 -03497.7 -07.6597 26241.8
 18 10 2013  02 31  -21.0162 26007.6 -03497.7 -07.6597 26241.8
 18 10 2013  02 32  -21.0164 26007.6 -03497.8 -07.6598 26241.8
 18 10 2013  02 33  -21.0166 26007.7 -03497.8 -07.6598 26241.8
 18 10 2013  02 34  -21.0168 26007.7 -03497.8 -07.6598 26241.8
 18 10 2013  02 35  -21.0169 26007.6 -03497.8 -07.6599 26241.8
 18 10 2013  02 36  -21.0170 26007.7 -03497.8 -07.6599 26241.8
 18 10 2013  02 37  -21.0172 26007.7 -03497.9 -07.6599 26241.9
 18 10 2013  02 38  -21.0173 26007.7 -03497.9 -07.6599 26241.9
 18 10 2013  02 39  -21.0174 26007.8 -03497.9 -07.6600 26241.9
 18 10 2013  02 40  -21.0175 26007.8 -03497.9 -07.6600 26242.0
 18 10 2013  02 41  -21.0176 26007.9 -03498.0 -07.6601 26242.1
 18 10 2013  02 42  -21.0178 26008.0 -03498.0 -07.6602 26242.2
 18 10 2013  02 43  -21.0178 26008.2 -03498.1 -07.6603 26242.4
 18 10 2013  02 44  -21.0178 26008.1 -03498.1 -07.6603 26242.3
 18 10 2013  02 45  -21.0179 26008.2 -03498.1 -07.6604 26242.3
 18 10 2013  02 46  -21.0180 26008.2 -03498.2 -07.6604 26242.4
 18 10 2013  02 47  -21.0180 26008.2 -03498.2 -07.6604 26242.4
 18 10 2013  02 48  -21.0181 26008.2 -03498.2 -07.6605 26242.4
 18 10 2013  02 49  -21.0183 26008.2 -03498.2 -07.6605 26242.4
 18 10 2013  02 50  -21.0183 26008.3 -03498.2 -07.6605 26242.5
 18 10 2013  02 51  -21.0184 26008.3 -03498.2 -07.6606 26242.5
 18 10 2013  02 52  -21.0185 26008.3 -03498.3 -07.6607 26242.5
 18 10 2013  02 53  -21.0185 26008.3 -03498.3 -07.6607 26242.5
 18 10 2013  02 54  -21.0187 26008.3 -03498.4 -07.6608 26242.5
 18 10 2013  02 55  -21.0188 26008.3 -03498.4 -07.6608 26242.6
 18 10 2013  02 56  -21.0189 26008.3 -03498.4 -07.6609 26242.6
 18 10 2013  02 57  -21.0190 26008.4 -03498.4 -07.6609 26242.6
 18 10 2013  02 58  -21.0192 26008.4 -03498.4 -07.6609 26242.6
 18 10 2013  02 59  -21.0193 26008.3 -03498.5 -07.6610 26242.6
 18 10 2013  03 00  -21.0195 26008.3 -03498.4 -07.6610 26242.5
 18 10 2013  03 01  -21.0196 26008.3 -03498.4 -07.6609 26242.5
 18 10 2013  03 02  -21.0197 26008.3 -03498.4 -07.6610 26242.5
 18 10 2013  03 03  -21.0198 26008.2 -03498.4 -07.6609 26242.4
 18 10 2013  03 04  -21.0199 26008.2 -03498.4 -07.6609 26242.4
 18 10 2013  03 05  -21.0200 26008.2 -03498.3 -07.6608 26242.4
 18 10 2013  03 06  -21.0202 26008.1 -03498.3 -07.6608 26242.4
 18 10 2013  03 07  -21.0203 26008.2 -03498.3 -07.6607 26242.4
 18 10 2013  03 08  -21.0205 26008.2 -03498.3 -07.6607 26242.4
 18 10 2013  03 09  -21.0207 26008.3 -03498.3 -07.6607 26242.5
 18 10 2013  03 10  -21.0209 26008.3 -03498.3 -07.6607 26242.5
 18 10 2013  03 11  -21.0211 26008.4 -03498.3 -07.6607 26242.6
 18 10 2013  03 12  -21.0214 26008.3 -03498.3 -07.6607 26242.6
 18 10 2013  03 13  -21.0215 26008.4 -03498.3 -07.6606 26242.6
 18 10 2013  03 14  -21.0215 26008.3 -03498.2 -07.6605 26242.5
 18 10 2013  03 15  -21.0214 26008.2 -03498.2 -07.6604 26242.4
 18 10 2013  03 16  -21.0215 26008.2 -03498.1 -07.6603 26242.4
 18 10 2013  03 17  -21.0216 26008.2 -03498.1 -07.6603 26242.4
 18 10 2013  03 18  -21.0218 26008.2 -03498.1 -07.6602 26242.4
 18 10 2013  03 19  -21.0219 26008.2 -03498.1 -07.6602 26242.3
 18 10 2013  03 20  -21.0221 26008.1 -03498.0 -07.6601 26242.3
 18 10 2013  03 21  -21.0222 26008.1 -03498.0 -07.6600 26242.3
 18 10 2013  03 22  -21.0222 26008.1 -03498.0 -07.6600 26242.3
 18 10 2013  03 23  -21.0224 26008.1 -03497.9 -07.6600 26242.3
 18 10 2013  03 24  -21.0224 26008.2 -03497.9 -07.6599 26242.3
 18 10 2013  03 25  -21.0226 26008.2 -03497.9 -07.6598 26242.4
 18 10 2013  03 26  -21.0227 26008.3 -03497.9 -07.6598 26242.4
 18 10 2013  03 27  -21.0228 26008.3 -03497.9 -07.6597 26242.4
 18 10 2013  03 28  -21.0228 26008.3 -03497.9 -07.6598 26242.5
 18 10 2013  03 29  -21.0228 26008.3 -03497.8 -07.6597 26242.5
 18 10 2013  03 30  -21.0229 26008.4 -03497.8 -07.6597 26242.5
 18 10 2013  03 31  -21.0229 26008.5 -03497.9 -07.6597 26242.7
 18 10 2013  03 32  -21.0229 26008.6 -03497.9 -07.6597 26242.8
 18 10 2013  03 33  -21.0229 26008.7 -03497.9 -07.6597 26242.8
 18 10 2013  03 34  -21.0229 26008.8 -03497.9 -07.6596 26242.9
 18 10 2013  03 35  -21.0228 26008.8 -03497.8 -07.6595 26242.9
 18 10 2013  03 36  -21.0229 26008.9 -03497.8 -07.6595 26243.0
 18 10 2013  03 37  -21.0228 26009.0 -03497.8 -07.6595 26243.1
 18 10 2013  03 38  -21.0228 26009.0 -03497.8 -07.6594 26243.1
 18 10 2013  03 39  -21.0227 26009.1 -03497.8 -07.6594 26243.2
 18 10 2013  03 40  -21.0226 26009.1 -03497.8 -07.6594 26243.3
 18 10 2013  03 41  -21.0225 26009.2 -03497.8 -07.6594 26243.4
 18 10 2013  03 42  -21.0224 26009.3 -03497.8 -07.6594 26243.5
 18 10 2013  03 43  -21.0223 26009.4 -03497.8 -07.6593 26243.5
 18 10 2013  03 44  -21.0222 26009.4 -03497.8 -07.6594 26243.6
 18 10 2013  03 45  -21.0221 26009.5 -03497.8 -07.6593 26243.6
 18 10 2013  03 46  -21.0221 26009.5 -03497.8 -07.6593 26243.7
 18 10 2013  03 47  -21.0220 26009.6 -03497.8 -07.6593 26243.7
 18 10 2013  03 48  -21.0219 26009.6 -03497.8 -07.6593 26243.8
 18 10 2013  03 49  -21.0217 26009.6 -03497.8 -07.6592 26243.8
 18 10 2013  03 50  -21.0215 26009.6 -03497.7 -07.6591 26243.7
 18 10 2013  03 51  -21.0214 26009.5 -03497.7 -07.6590 26243.6
 18 10 2013  03 52  -21.0213 26009.4 -03497.6 -07.6589 26243.5
 18 10 2013  03 53  -21.0213 26009.4 -03497.6 -07.6588 26243.5
 18 10 2013  03 54  -21.0211 26009.2 -03497.5 -07.6587 26243.3
 18 10 2013  03 55  -21.0209 26009.2 -03497.5 -07.6587 26243.3
 18 10 2013  03 56  -21.0208 26009.2 -03497.5 -07.6587 26243.3
 18 10 2013  03 57  -21.0208 26009.3 -03497.5 -07.6587 26243.4
 18 10 2013  03 58  -21.0209 26009.4 -03497.6 -07.6588 26243.5
 18 10 2013  03 59  -21.0209 26009.5 -03497.6 -07.6589 26243.6
 18 10 2013  04 00  -21.0210 26009.5 -03497.6 -07.6589 26243.7
 18 10 2013  04 01  -21.0210 26009.6 -03497.6 -07.6588 26243.7
 18 10 2013  04 02  -21.0210 26009.6 -03497.6 -07.6588 26243.7
 18 10 2013  04 03  -21.0209 26009.6 -03497.6 -07.6588 26243.8
 18 10 2013  04 04  -21.0210 26009.7 -03497.6 -07.6587 26243.8
 18 10 2013  04 05  -21.0210 26009.8 -03497.6 -07.6587 26243.9
 18 10 2013  04 06  -21.0210 26009.9 -03497.6 -07.6587 26244.0
 18 10 2013  04 07  -21.0211 26009.9 -03497.6 -07.6587 26244.0
 18 10 2013  04 08  -21.0210 26009.9 -03497.6 -07.6586 26244.0
 18 10 2013  04 09  -21.0209 26010.0 -03497.6 -07.6586 26244.1
 18 10 2013  04 10  -21.0208 26010.1 -03497.5 -07.6585 26244.2
 18 10 2013  04 11  -21.0208 26010.1 -03497.5 -07.6585 26244.2
 18 10 2013  04 12  -21.0206 26010.2 -03497.5 -07.6585 26244.3
 18 10 2013  04 13  -21.0205 26010.2 -03497.5 -07.6585 26244.3
 18 10 2013  04 14  -21.0205 26010.3 -03497.5 -07.6584 26244.4
 18 10 2013  04 15  -21.0203 26010.3 -03497.5 -07.6584 26244.4
 18 10 2013  04 16  -21.0202 26010.3 -03497.5 -07.6583 26244.4
 18 10 2013  04 17  -21.0200 26010.4 -03497.5 -07.6583 26244.5
 18 10 2013  04 18  -21.0199 26010.4 -03497.5 -07.6583 26244.5
 18 10 2013  04 19  -21.0198 26010.4 -03497.5 -07.6584 26244.5
 18 10 2013  04 20  -21.0196 26010.5 -03497.5 -07.6583 26244.6
 18 10 2013  04 21  -21.0195 26010.5 -03497.5 -07.6583 26244.6
 18 10 2013  04 22  -21.0193 26010.5 -03497.5 -07.6583 26244.6
 18 10 2013  04 23  -21.0192 26010.5 -03497.5 -07.6584 26244.6
 18 10 2013  04 24  -21.0191 26010.6 -03497.5 -07.6584 26244.7
 18 10 2013  04 25  -21.0189 26010.6 -03497.5 -07.6584 26244.7
 18 10 2013  04 26  -21.0187 26010.6 -03497.5 -07.6584 26244.7
 18 10 2013  04 27  -21.0186 26010.6 -03497.6 -07.6584 26244.7
 18 10 2013  04 28  -21.0186 26010.7 -03497.6 -07.6585 26244.8
 18 10 2013  04 29  -21.0184 26010.7 -03497.6 -07.6585 26244.8
 18 10 2013  04 30  -21.0184 26010.7 -03497.6 -07.6586 26244.8
 18 10 2013  04 31  -21.0183 26010.7 -03497.6 -07.6586 26244.9
 18 10 2013  04 32  -21.0183 26010.9 -03497.7 -07.6587 26245.0
 18 10 2013  04 33  -21.0182 26010.9 -03497.8 -07.6588 26245.0
 18 10 2013  04 34  -21.0182 26010.9 -03497.8 -07.6588 26245.0
 18 10 2013  04 35  -21.0181 26010.9 -03497.8 -07.6588 26245.0
 18 10 2013  04 36  -21.0179 26010.9 -03497.8 -07.6588 26245.1
 18 10 2013  04 37  -21.0178 26010.9 -03497.8 -07.6588 26245.0
 18 10 2013  04 38  -21.0176 26010.9 -03497.8 -07.6589 26245.1
 18 10 2013  04 39  -21.0176 26010.9 -03497.9 -07.6590 26245.1
 18 10 2013  04 40  -21.0175 26010.9 -03497.9 -07.6590 26245.1
 18 10 2013  04 41  -21.0174 26010.9 -03497.9 -07.6590 26245.0
 18 10 2013  04 42  -21.0174 26010.9 -03497.9 -07.6591 26245.0
 18 10 2013  04 43  -21.0173 26010.9 -03497.9 -07.6591 26245.0
 18 10 2013  04 44  -21.0173 26010.9 -03497.9 -07.6592 26245.1
 18 10 2013  04 45  -21.0172 26010.9 -03498.0 -07.6592 26245.1
 18 10 2013  04 46  -21.0172 26010.9 -03498.0 -07.6593 26245.1
 18 10 2013  04 47  -21.0172 26010.9 -03498.0 -07.6593 26245.1
 18 10 2013  04 48  -21.0171 26011.0 -03498.1 -07.6594 26245.2
 18 10 2013  04 49  -21.0172 26011.1 -03498.1 -07.6595 26245.2
 18 10 2013  04 50  -21.0172 26011.0 -03498.2 -07.6596 26245.2
 18 10 2013  04 51  -21.0173 26011.2 -03498.2 -07.6597 26245.4
 18 10 2013  04 52  -21.0174 26011.2 -03498.3 -07.6598 26245.4
 18 10 2013  04 53  -21.0174 26011.3 -03498.3 -07.6599 26245.5
 18 10 2013  04 54  -21.0175 26011.3 -03498.4 -07.6599 26245.5
 18 10 2013  04 55  -21.0175 26011.4 -03498.4 -07.6600 26245.6
 18 10 2013  04 56  -21.0175 26011.4 -03498.4 -07.6601 26245.7
 18 10 2013  04 57  -21.0176 26011.4 -03498.4 -07.6601 26245.6
 18 10 2013  04 58  -21.0178 26011.5 -03498.5 -07.6601 26245.7
 18 10 2013  04 59  -21.0179 26011.5 -03498.5 -07.6601 26245.7
 18 10 2013  05 00  -21.0179 26011.5 -03498.5 -07.6601 26245.7
 18 10 2013  05 01  -21.0180 26011.5 -03498.5 -07.6601 26245.7
 18 10 2013  05 02  -21.0182 26011.5 -03498.5 -07.6601 26245.7
 18 10 2013  05 03  -21.0182 26011.6 -03498.5 -07.6601 26245.8
 18 10 2013  05 04  -21.0183 26011.6 -03498.5 -07.6602 26245.8
 18 10 2013  05 05  -21.0185 26011.6 -03498.5 -07.6602 26245.8
 18 10 2013  05 06  -21.0186 26011.7 -03498.5 -07.6602 26245.9
 18 10 2013  05 07  -21.0187 26011.7 -03498.5 -07.6602 26245.9
 18 10 2013  05 08  -21.0187 26011.8 -03498.5 -07.6601 26246.0
 18 10 2013  05 09  -21.0189 26011.9 -03498.6 -07.6602 26246.1
 18 10 2013  05 10  -21.0189 26011.9 -03498.6 -07.6602 26246.1
 18 10 2013  05 11  -21.0190 26012.0 -03498.6 -07.6602 26246.2
 18 10 2013  05 12  -21.0191 26012.0 -03498.5 -07.6601 26246.2
 18 10 2013  05 13  -21.0192 26012.0 -03498.5 -07.6601 26246.2
 18 10 2013  05 14  -21.0192 26012.0 -03498.5 -07.6601 26246.2
 18 10 2013  05 15  -21.0192 26012.0 -03498.5 -07.6601 26246.2
 18 10 2013  05 16  -21.0192 26012.0 -03498.5 -07.6600 26246.3
 18 10 2013  05 17  -21.0191 26012.0 -03498.4 -07.6599 26246.2
 18 10 2013  05 18  -21.0191 26012.0 -03498.4 -07.6598 26246.2
 18 10 2013  05 19  -21.0190 26011.9 -03498.4 -07.6598 26246.1
 18 10 2013  05 20  -21.0190 26011.9 -03498.4 -07.6598 26246.1
 18 10 2013  05 21  -21.0190 26011.9 -03498.4 -07.6598 26246.1
 18 10 2013  05 22  -21.0191 26011.9 -03498.4 -07.6598 26246.1
 18 10 2013  05 23  -21.0191 26011.9 -03498.4 -07.6598 26246.1
 18 10 2013  05 24  -21.0192 26011.9 -03498.4 -07.6598 26246.1
 18 10 2013  05 25  -21.0192 26011.9 -03498.4 -07.6598 26246.1
 18 10 2013  05 26  -21.0193 26011.9 -03498.4 -07.6598 26246.1
 18 10 2013  05 27  -21.0193 26012.0 -03498.4 -07.6598 26246.2
 18 10 2013  05 28  -21.0194 26012.0 -03498.4 -07.6598 26246.2
 18 10 2013  05 29  -21.0195 26012.1 -03498.4 -07.6598 26246.3
 18 10 2013  05 30  -21.0195 26012.1 -03498.4 -07.6598 26246.3
 18 10 2013  05 31  -21.0195 26012.1 -03498.4 -07.6598 26246.3
 18 10 2013  05 32  -21.0195 26012.0 -03498.3 -07.6597 26246.2
 18 10 2013  05 33  -21.0195 26012.0 -03498.4 -07.6597 26246.2
 18 10 2013  05 34  -21.0196 26012.0 -03498.3 -07.6597 26246.2
 18 10 2013  05 35  -21.0196 26012.1 -03498.3 -07.6597 26246.3
 18 10 2013  05 36  -21.0195 26012.1 -03498.4 -07.6597 26246.3
 18 10 2013  05 37  -21.0196 26012.1 -03498.4 -07.6597 26246.3
 18 10 2013  05 38  -21.0196 26012.1 -03498.4 -07.6597 26246.3
 18 10 2013  05 39  -21.0197 26012.0 -03498.3 -07.6596 26246.2
 18 10 2013  05 40  -21.0198 26012.1 -03498.3 -07.6596 26246.3
 18 10 2013  05 41  -21.0197 26012.2 -03498.3 -07.6597 26246.3
 18 10 2013  05 42  -21.0196 26012.2 -03498.4 -07.6597 26246.4
 18 10 2013  05 43  -21.0196 26012.2 -03498.4 -07.6597 26246.4
 18 10 2013  05 44  -21.0196 26012.2 -03498.4 -07.6597 26246.4
 18 10 2013  05 45  -21.0196 26012.2 -03498.4 -07.6597 26246.4
 18 10 2013  05 46  -21.0197 26012.2 -03498.3 -07.6597 26246.4
 18 10 2013  05 47  -21.0197 26012.2 -03498.3 -07.6596 26246.3
 18 10 2013  05 48  -21.0198 26012.1 -03498.3 -07.6595 26246.3
 18 10 2013  05 49  -21.0198 26012.2 -03498.3 -07.6596 26246.4
 18 10 2013  05 50  -21.0197 26012.2 -03498.3 -07.6595 26246.4
 18 10 2013  05 51  -21.0196 26012.3 -03498.3 -07.6596 26246.5
 18 10 2013  05 52  -21.0197 26012.4 -03498.4 -07.6596 26246.6
 18 10 2013  05 53  -21.0197 26012.6 -03498.4 -07.6597 26246.8
 18 10 2013  05 54  -21.0197 26012.7 -03498.5 -07.6599 26246.9
 18 10 2013  05 55  -21.0196 26012.8 -03498.5 -07.6599 26247.0
 18 10 2013  05 56  -21.0195 26012.9 -03498.5 -07.6599 26247.1
 18 10 2013  05 57  -21.0197 26013.0 -03498.7 -07.6601 26247.3
 18 10 2013  05 58  -21.0196 26013.1 -03498.7 -07.6601 26247.4
 18 10 2013  05 59  -21.0196 26013.3 -03498.7 -07.6602 26247.5
 18 10 2013  06 00  -21.0197 26013.2 -03498.7 -07.6601 26247.5
 18 10 2013  06 01  -21.0197 26013.4 -03498.8 -07.6602 26247.6
 18 10 2013  06 02  -21.0197 26013.4 -03498.8 -07.6602 26247.7
 18 10 2013  06 03  -21.0195 26013.4 -03498.7 -07.6601 26247.7
 18 10 2013  06 04  -21.0196 26013.6 -03498.8 -07.6602 26247.8
 18 10 2013  06 05  -21.0195 26013.8 -03498.9 -07.6603 26248.0
 18 10 2013  06 06  -21.0195 26013.7 -03498.8 -07.6603 26247.9
 18 10 2013  06 07  -21.0194 26014.0 -03498.9 -07.6604 26248.2
 18 10 2013  06 08  -21.0197 26014.3 -03499.1 -07.6606 26248.5
 18 10 2013  06 09  -21.0196 26014.5 -03499.2 -07.6608 26248.8
 18 10 2013  06 10  -21.0197 26014.4 -03499.1 -07.6606 26248.6
 18 10 2013  06 11  -21.0196 26014.6 -03499.1 -07.6607 26248.9
 18 10 2013  06 12  -21.0195 26014.5 -03499.0 -07.6605 26248.7
 18 10 2013  06 13  -21.0192 26014.3 -03498.9 -07.6602 26248.5
 18 10 2013  06 14  -21.0188 26014.0 -03498.7 -07.6599 26248.3
 18 10 2013  06 15  -21.0183 26013.8 -03498.6 -07.6596 26248.0
 18 10 2013  06 16  -21.0180 26013.7 -03498.5 -07.6595 26247.9
 18 10 2013  06 17  -21.0179 26013.5 -03498.4 -07.6594 26247.7
 18 10 2013  06 18  -21.0178 26013.5 -03498.4 -07.6594 26247.7
 18 10 2013  06 19  -21.0179 26013.6 -03498.4 -07.6595 26247.8
 18 10 2013  06 20  -21.0180 26013.6 -03498.5 -07.6596 26247.8
 18 10 2013  06 21  -21.0180 26013.6 -03498.5 -07.6596 26247.8
 18 10 2013  06 22  -21.0181 26013.7 -03498.6 -07.6597 26247.9
 18 10 2013  06 23  -21.0182 26013.7 -03498.6 -07.6598 26247.9
 18 10 2013  06 24  -21.0182 26013.7 -03498.6 -07.6598 26247.9
 18 10 2013  06 25  -21.0182 26013.8 -03498.6 -07.6598 26248.0
 18 10 2013  06 26  -21.0183 26013.7 -03498.6 -07.6597 26247.9
 18 10 2013  06 27  -21.0184 26013.7 -03498.6 -07.6597 26247.9
 18 10 2013  06 28  -21.0184 26013.7 -03498.6 -07.6597 26247.9
 18 10 2013  06 29  -21.0185 26013.7 -03498.6 -07.6598 26247.9
 18 10 2013  06 30  -21.0185 26013.6 -03498.6 -07.6597 26247.8
 18 10 2013  06 31  -21.0185 26013.6 -03498.5 -07.6597 26247.8
 18 10 2013  06 32  -21.0186 26013.6 -03498.5 -07.6597 26247.8
 18 10 2013  06 33  -21.0186 26013.6 -03498.5 -07.6596 26247.8
 18 10 2013  06 34  -21.0187 26013.5 -03498.5 -07.6596 26247.7
 18 10 2013  06 35  -21.0187 26013.5 -03498.5 -07.6595 26247.7
 18 10 2013  06 36  -21.0188 26013.6 -03498.5 -07.6596 26247.8
 18 10 2013  06 37  -21.0190 26013.6 -03498.5 -07.6596 26247.8
 18 10 2013  06 38  -21.0190 26013.7 -03498.6 -07.6597 26247.9
 18 10 2013  06 39  -21.0191 26013.8 -03498.6 -07.6597 26248.0
 18 10 2013  06 40  -21.0192 26013.9 -03498.6 -07.6598 26248.1
 18 10 2013  06 41  -21.0191 26013.8 -03498.6 -07.6597 26248.0
 18 10 2013  06 42  -21.0192 26013.7 -03498.5 -07.6596 26247.9
 18 10 2013  06 43  -21.0190 26013.7 -03498.5 -07.6594 26247.9
 18 10 2013  06 44  -21.0188 26013.7 -03498.4 -07.6594 26247.9
 18 10 2013  06 45  -21.0188 26013.7 -03498.4 -07.6594 26247.9
 18 10 2013  06 46  -21.0188 26013.6 -03498.4 -07.6593 26247.8
 18 10 2013  06 47  -21.0187 26013.6 -03498.4 -07.6593 26247.8
 18 10 2013  06 48  -21.0188 26013.5 -03498.3 -07.6593 26247.6
 18 10 2013  06 49  -21.0188 26013.4 -03498.3 -07.6592 26247.6
 18 10 2013  06 50  -21.0187 26013.3 -03498.3 -07.6591 26247.5
 18 10 2013  06 51  -21.0186 26013.3 -03498.3 -07.6591 26247.5
 18 10 2013  06 52  -21.0186 26013.3 -03498.2 -07.6591 26247.5
 18 10 2013  06 53  -21.0184 26013.1 -03498.1 -07.6589 26247.3
 18 10 2013  06 54  -21.0184 26013.2 -03498.2 -07.6590 26247.4
 18 10 2013  06 55  -21.0184 26013.2 -03498.2 -07.6590 26247.4
 18 10 2013  06 56  -21.0185 26013.3 -03498.2 -07.6591 26247.4
 18 10 2013  06 57  -21.0186 26013.3 -03498.3 -07.6592 26247.5
 18 10 2013  06 58  -21.0188 26013.2 -03498.2 -07.6591 26247.4
 18 10 2013  06 59  -21.0189 26013.3 -03498.3 -07.6592 26247.4
 18 10 2013  07 00  -21.0190 26013.3 -03498.3 -07.6592 26247.4
 18 10 2013  07 01  -21.0192 26013.3 -03498.3 -07.6592 26247.5
 18 10 2013  07 02  -21.0192 26013.5 -03498.3 -07.6593 26247.6
 18 10 2013  07 03  -21.0192 26013.4 -03498.3 -07.6592 26247.5
 18 10 2013  07 04  -21.0192 26013.3 -03498.2 -07.6590 26247.5
 18 10 2013  07 05  -21.0193 26013.4 -03498.3 -07.6591 26247.6
 18 10 2013  07 06  -21.0192 26013.4 -03498.3 -07.6591 26247.6
 18 10 2013  07 07  -21.0193 26013.4 -03498.2 -07.6590 26247.5
 18 10 2013  07 08  -21.0193 26013.3 -03498.2 -07.6590 26247.4
 18 10 2013  07 09  -21.0191 26013.3 -03498.2 -07.6590 26247.4
 18 10 2013  07 10  -21.0191 26013.3 -03498.2 -07.6590 26247.5
 18 10 2013  07 11  -21.0190 26013.3 -03498.2 -07.6589 26247.4
 18 10 2013  07 12  -21.0191 26013.3 -03498.2 -07.6590 26247.5
 18 10 2013  07 13  -21.0191 26013.4 -03498.2 -07.6591 26247.5
 18 10 2013  07 14  -21.0190 26013.4 -03498.3 -07.6591 26247.5
 18 10 2013  07 15  -21.0189 26013.4 -03498.3 -07.6591 26247.6
 18 10 2013  07 16  -21.0188 26013.4 -03498.3 -07.6591 26247.6
 18 10 2013  07 17  -21.0187 26013.4 -03498.2 -07.6590 26247.6
 18 10 2013  07 18  -21.0186 26013.3 -03498.2 -07.6590 26247.5
 18 10 2013  07 19  -21.0184 26013.3 -03498.2 -07.6589 26247.5
 18 10 2013  07 20  -21.0183 26013.2 -03498.1 -07.6589 26247.4
 18 10 2013  07 21  -21.0180 26013.1 -03498.0 -07.6588 26247.2
 18 10 2013  07 22  -21.0178 26012.9 -03497.9 -07.6586 26247.0
 18 10 2013  07 23  -21.0177 26012.9 -03497.9 -07.6586 26247.0
 18 10 2013  07 24  -21.0177 26012.9 -03497.9 -07.6586 26247.0
 18 10 2013  07 25  -21.0177 26012.9 -03498.0 -07.6587 26247.0
 18 10 2013  07 26  -21.0177 26012.9 -03498.0 -07.6587 26247.1
 18 10 2013  07 27  -21.0176 26012.9 -03498.0 -07.6588 26247.1
 18 10 2013  07 28  -21.0174 26012.9 -03498.0 -07.6588 26247.0
 18 10 2013  07 29  -21.0174 26012.8 -03498.0 -07.6587 26247.0
 18 10 2013  07 30  -21.0171 26012.8 -03498.0 -07.6588 26247.0
 18 10 2013  07 31  -21.0168 26012.8 -03498.0 -07.6588 26247.0
 18 10 2013  07 32  -21.0167 26012.8 -03498.0 -07.6588 26246.9
 18 10 2013  07 33  -21.0167 26012.8 -03498.0 -07.6588 26246.9
 18 10 2013  07 34  -21.0166 26012.7 -03498.0 -07.6589 26246.8
 18 10 2013  07 35  -21.0167 26012.6 -03498.0 -07.6589 26246.7
 18 10 2013  07 36  -21.0168 26012.6 -03498.0 -07.6588 26246.8
 18 10 2013  07 37  -21.0168 26012.7 -03498.1 -07.6589 26246.9
 18 10 2013  07 38  -21.0169 26012.8 -03498.1 -07.6590 26246.9
 18 10 2013  07 39  -21.0169 26012.6 -03498.1 -07.6590 26246.8
 18 10 2013  07 40  -21.0169 26012.6 -03498.1 -07.6590 26246.7
 18 10 2013  07 41  -21.0169 26012.5 -03498.1 -07.6589 26246.7
 18 10 2013  07 42  -21.0168 26012.5 -03498.0 -07.6589 26246.7
 18 10 2013  07 43  -21.0167 26012.5 -03498.0 -07.6589 26246.6
 18 10 2013  07 44  -21.0166 26012.4 -03498.0 -07.6588 26246.5
 18 10 2013  07 45  -21.0166 26012.4 -03498.0 -07.6589 26246.6
 18 10 2013  07 46  -21.0165 26012.5 -03498.1 -07.6589 26246.6
 18 10 2013  07 47  -21.0164 26012.4 -03498.0 -07.6589 26246.5
 18 10 2013  07 48  -21.0163 26012.3 -03498.0 -07.6589 26246.5
 18 10 2013  07 49  -21.0161 26012.3 -03498.0 -07.6589 26246.5
 18 10 2013  07 50  -21.0161 26012.3 -03498.0 -07.6589 26246.4
 18 10 2013  07 51  -21.0160 26012.2 -03498.0 -07.6590 26246.4
 18 10 2013  07 52  -21.0160 26012.2 -03498.1 -07.6591 26246.4
 18 10 2013  07 53  -21.0160 26012.2 -03498.1 -07.6590 26246.3
 18 10 2013  07 54  -21.0160 26012.2 -03498.0 -07.6590 26246.4
 18 10 2013  07 55  -21.0160 26012.1 -03498.1 -07.6590 26246.3
 18 10 2013  07 56  -21.0159 26012.1 -03498.1 -07.6591 26246.2
 18 10 2013  07 57  -21.0161 26012.0 -03498.0 -07.6590 26246.2
 18 10 2013  07 58  -21.0159 26011.9 -03498.0 -07.6590 26246.1
 18 10 2013  07 59  -21.0159 26012.0 -03498.1 -07.6591 26246.1
 18 10 2013  08 00  -21.0159 26012.0 -03498.1 -07.6591 26246.1
 18 10 2013  08 01  -21.0160 26012.0 -03498.1 -07.6592 26246.1
 18 10 2013  08 02  -21.0160 26012.0 -03498.1 -07.6592 26246.1
 18 10 2013  08 03  -21.0159 26011.9 -03498.1 -07.6592 26246.1
 18 10 2013  08 04  -21.0156 26011.9 -03498.1 -07.6592 26246.0
 18 10 2013  08 05  -21.0155 26011.8 -03498.1 -07.6592 26246.0
 18 10 2013  08 06  -21.0155 26011.7 -03498.1 -07.6593 26245.9
 18 10 2013  08 07  -21.0153 26011.7 -03498.1 -07.6592 26245.8
 18 10 2013  08 08  -21.0153 26011.6 -03498.0 -07.6592 26245.8
 18 10 2013  08 09  -21.0151 26011.6 -03498.0 -07.6591 26245.7
 18 10 2013  08 10  -21.0150 26011.6 -03498.1 -07.6592 26245.8
 18 10 2013  08 11  -21.0148 26011.6 -03498.1 -07.6592 26245.8
 18 10 2013  08 12  -21.0147 26011.6 -03498.1 -07.6593 26245.8
 18 10 2013  08 13  -21.0143 26011.6 -03498.1 -07.6593 26245.8
 18 10 2013  08 14  -21.0141 26011.6 -03498.1 -07.6593 26245.7
 18 10 2013  08 15  -21.0139 26011.5 -03498.1 -07.6593 26245.6
 18 10 2013  08 16  -21.0137 26011.4 -03498.1 -07.6593 26245.6
 18 10 2013  08 17  -21.0135 26011.5 -03498.1 -07.6593 26245.7
 18 10 2013  08 18  -21.0132 26011.5 -03498.1 -07.6592 26245.7
 18 10 2013  08 19  -21.0131 26011.4 -03498.0 -07.6592 26245.6
 18 10 2013  08 20  -21.0130 26011.2 -03497.9 -07.6590 26245.4
 18 10 2013  08 21  -21.0129 26011.1 -03497.8 -07.6588 26245.2
 18 10 2013  08 22  -21.0127 26011.1 -03497.8 -07.6589 26245.2
 18 10 2013  08 23  -21.0123 26011.0 -03497.8 -07.6587 26245.2
 18 10 2013  08 24  -21.0119 26011.0 -03497.8 -07.6588 26245.1
 18 10 2013  08 25  -21.0113 26011.0 -03497.7 -07.6586 26245.1
 18 10 2013  08 26  -21.0107 26010.9 -03497.7 -07.6585 26245.0
 18 10 2013  08 27  -21.0101 26011.0 -03497.7 -07.6587 26245.1
 18 10 2013  08 28  -21.0097 26011.0 -03497.8 -07.6588 26245.1
 18 10 2013  08 29  -21.0094 26010.8 -03497.7 -07.6587 26244.9
 18 10 2013  08 30  -21.0089 26010.6 -03497.7 -07.6588 26244.8
 18 10 2013  08 31  -21.0084 26010.6 -03497.8 -07.6589 26244.7
 18 10 2013  08 32  -21.0076 26010.6 -03497.9 -07.6591 26244.7
 18 10 2013  08 33  -21.0070 26010.6 -03498.0 -07.6594 26244.8
 18 10 2013  08 34  -21.0065 26010.6 -03498.1 -07.6597 26244.8
 18 10 2013  08 35  -21.0059 26010.6 -03498.3 -07.6600 26244.8
 18 10 2013  08 36  -21.0054 26010.6 -03498.4 -07.6603 26244.8
 18 10 2013  08 37  -21.0051 26010.4 -03498.6 -07.6606 26244.7
 18 10 2013  08 38  -21.0050 26010.5 -03498.8 -07.6611 26244.7
 18 10 2013  08 39  -21.0046 26010.3 -03498.9 -07.6613 26244.5
 18 10 2013  08 40  -21.0043 26010.3 -03499.0 -07.6617 26244.6
 18 10 2013  08 41  -21.0040 26010.4 -03499.1 -07.6617 26244.7
 18 10 2013  08 42  -21.0040 26010.6 -03499.6 -07.6628 26245.0
 18 10 2013  08 43  -21.0037 26010.7 -03499.8 -07.6632 26245.1
 18 10 2013  08 44  -21.0036 26010.6 -03500.0 -07.6636 26245.1
 18 10 2013  08 45  -21.0035 26010.6 -03500.1 -07.6640 26245.0
 18 10 2013  08 46  -21.0032 26010.5 -03500.3 -07.6644 26244.9
 18 10 2013  08 47  -21.0032 26010.4 -03500.4 -07.6647 26244.9
 18 10 2013  08 48  -21.0030 26010.2 -03500.6 -07.6651 26244.7
 18 10 2013  08 49  -21.0030 26010.3 -03500.8 -07.6656 26244.9
 18 10 2013  08 50  -21.0033 26010.5 -03501.1 -07.6661 26245.0
 18 10 2013  08 51  -21.0036 26010.7 -03501.4 -07.6667 26245.3
 18 10 2013  08 52  -21.0038 26010.8 -03501.7 -07.6673 26245.4
 18 10 2013  08 53  -21.0041 26010.7 -03501.8 -07.6676 26245.4
 18 10 2013  08 54  -21.0043 26010.8 -03502.0 -07.6679 26245.5
 18 10 2013  08 55  -21.0046 26011.1 -03502.2 -07.6684 26245.8
 18 10 2013  08 56  -21.0050 26011.2 -03502.5 -07.6688 26246.0
 18 10 2013  08 57  -21.0054 26011.3 -03502.6 -07.6691 26246.1
 18 10 2013  08 58  -21.0055 26011.5 -03502.7 -07.6694 26246.2
 18 10 2013  08 59  -21.0059 26011.6 -03502.9 -07.6696 26246.4
 18 10 2013  09 00  -21.0062 26011.7 -03503.0 -07.6699 26246.5
 18 10 2013  09 01  -21.0064 26011.7 -03503.1 -07.6701 26246.6
 18 10 2013  09 02  -21.0070 26011.9 -03503.3 -07.6704 26246.7
 18 10 2013  09 03  -21.0073 26011.9 -03503.3 -07.6705 26246.7
 18 10 2013  09 04  -21.0074 26012.0 -03503.4 -07.6707 26246.8
 18 10 2013  09 05  -21.0077 26012.0 -03503.5 -07.6709 26246.9
 18 10 2013  09 06  -21.0079 26012.0 -03503.6 -07.6710 26246.9
 18 10 2013  09 07  -21.0081 26011.9 -03503.6 -07.6711 26246.8
 18 10 2013  09 08  -21.0085 26012.0 -03503.7 -07.6713 26246.9
 18 10 2013  09 09  -21.0088 26012.0 -03503.8 -07.6716 26247.0
 18 10 2013  09 10  -21.0091 26012.1 -03503.9 -07.6717 26247.1
 18 10 2013  09 11  -21.0095 26012.2 -03503.8 -07.6714 26247.1
 18 10 2013  09 12  -21.0096 26012.2 -03504.0 -07.6718 26247.2
 18 10 2013  09 13  -21.0099 26012.4 -03504.1 -07.6720 26247.4
 18 10 2013  09 14  -21.0104 26012.5 -03504.2 -07.6721 26247.4
 18 10 2013  09 15  -21.0104 26012.5 -03504.2 -07.6722 26247.4
 18 10 2013  09 16  -21.0104 26012.5 -03504.2 -07.6723 26247.4
 18 10 2013  09 17  -21.0106 26012.5 -03504.3 -07.6724 26247.5
 18 10 2013  09 18  -21.0111 26012.7 -03504.4 -07.6726 26247.7
 18 10 2013  09 19  -21.0112 26012.8 -03504.5 -07.6727 26247.8
 18 10 2013  09 20  -21.0119 26013.0 -03504.6 -07.6729 26248.0
 18 10 2013  09 21  -21.0121 26013.0 -03504.6 -07.6729 26248.0
 18 10 2013  09 22  -21.0126 26013.2 -03504.7 -07.6731 26248.3
 18 10 2013  09 23  -21.0132 26013.3 -03504.7 -07.6731 26248.4
 18 10 2013  09 24  -21.0133 26013.4 -03504.7 -07.6731 26248.4
 18 10 2013  09 25  -21.0137 26013.5 -03504.7 -07.6731 26248.5
 18 10 2013  09 26  -21.0142 26013.7 -03504.8 -07.6731 26248.8
 18 10 2013  09 27  -21.0144 26013.7 -03504.8 -07.6731 26248.8
 18 10 2013  09 28  -21.0148 26013.9 -03504.8 -07.6731 26248.9
 18 10 2013  09 29  -21.0147 26013.8 -03504.8 -07.6732 26248.9
 18 10 2013  09 30  -21.0148 26013.8 -03504.8 -07.6732 26248.8
 18 10 2013  09 31  -21.0151 26013.8 -03504.9 -07.6733 26248.9
 18 10 2013  09 32  -21.0154 26014.0 -03504.9 -07.6734 26249.0
 18 10 2013  09 33  -21.0155 26014.0 -03505.0 -07.6735 26249.1
 18 10 2013  09 34  -21.0156 26014.0 -03505.0 -07.6735 26249.0
 18 10 2013  09 35  -21.0158 26014.1 -03505.1 -07.6736 26249.2
 18 10 2013  09 36  -21.0156 26014.1 -03505.1 -07.6737 26249.2
 18 10 2013  09 37  -21.0163 26014.5 -03505.2 -07.6739 26249.6
 18 10 2013  09 38  -21.0167 26014.8 -03505.4 -07.6741 26249.9
 18 10 2013  09 39  -21.0170 26015.0 -03505.4 -07.6741 26250.1
 18 10 2013  09 40  -21.0173 26015.2 -03505.4 -07.6741 26250.3
 18 10 2013  09 41  -21.0177 26015.5 -03505.5 -07.6742 26250.6
 18 10 2013  09 42  -21.0183 26015.8 -03505.5 -07.6742 26250.9
 18 10 2013  09 43  -21.0189 26016.0 -03505.6 -07.6742 26251.2
 18 10 2013  09 44  -21.0194 26016.3 -03505.6 -07.6742 26251.5
 18 10 2013  09 45  -21.0196 26016.5 -03505.6 -07.6740 26251.6
 18 10 2013  09 46  -21.0197 26016.7 -03505.5 -07.6739 26251.8
 18 10 2013  09 47  -21.0204 26017.0 -03505.6 -07.6739 26252.1
 18 10 2013  09 48  -21.0206 26017.2 -03505.5 -07.6738 26252.3
 18 10 2013  09 49  -21.0208 26017.4 -03505.5 -07.6737 26252.5
 18 10 2013  09 50  -21.0211 26017.6 -03505.5 -07.6736 26252.7
 18 10 2013  09 51  -21.0213 26017.8 -03505.5 -07.6736 26252.9
 18 10 2013  09 52  -21.0215 26017.9 -03505.5 -07.6735 26253.0
 18 10 2013  09 53  -21.0215 26018.0 -03505.5 -07.6734 26253.1
 18 10 2013  09 54  -21.0216 26018.2 -03505.5 -07.6733 26253.3
 18 10 2013  09 55  -21.0218 26018.4 -03505.5 -07.6733 26253.5
 18 10 2013  09 56  -21.0221 26018.7 -03505.6 -07.6733 26253.8
 18 10 2013  09 57  -21.0223 26019.0 -03505.5 -07.6732 26254.1
 18 10 2013  09 58  -21.0227 26019.4 -03505.6 -07.6732 26254.5
 18 10 2013  09 59  -21.0225 26019.6 -03505.5 -07.6731 26254.6
 18 10 2013  10 00  -21.0229 26019.8 -03505.5 -07.6729 26254.9
 18 10 2013  10 01  -21.0231 26020.2 -03505.6 -07.6730 26255.2
 18 10 2013  10 02  -21.0232 26020.4 -03505.6 -07.6729 26255.5
 18 10 2013  10 03  -21.0238 26020.8 -03505.6 -07.6728 26255.9
 18 10 2013  10 04  -21.0242 26021.2 -03505.6 -07.6728 26256.3
 18 10 2013  10 05  -21.0246 26021.4 -03505.5 -07.6725 26256.5
 18 10 2013  10 06  -21.0250 26021.7 -03505.5 -07.6724 26256.8
 18 10 2013  10 07  -21.0253 26022.1 -03505.5 -07.6722 26257.1
 18 10 2013  10 08  -21.0255 26022.4 -03505.4 -07.6720 26257.4
 18 10 2013  10 09  -21.0258 26022.7 -03505.4 -07.6718 26257.7
 18 10 2013  10 10  -21.0261 26023.0 -03505.3 -07.6715 26258.0
 18 10 2013  10 11  -21.0265 26023.3 -03505.2 -07.6714 26258.3
 18 10 2013  10 12  -21.0268 26023.5 -03505.2 -07.6712 26258.5
 18 10 2013  10 13  -21.0272 26023.8 -03505.1 -07.6709 26258.8
 18 10 2013  10 14  -21.0274 26024.2 -03505.1 -07.6707 26259.2
 18 10 2013  10 15  -21.0278 26024.5 -03505.0 -07.6705 26259.4
 18 10 2013  10 16  -21.0282 26024.8 -03504.9 -07.6702 26259.7
 18 10 2013  10 17  -21.0285 26025.0 -03504.8 -07.6699 26259.9
 18 10 2013  10 18  -21.0288 26025.3 -03504.8 -07.6697 26260.2
 18 10 2013  10 19  -21.0293 26025.6 -03504.7 -07.6694 26260.5
 18 10 2013  10 20  -21.0298 26026.0 -03504.6 -07.6693 26261.0
 18 10 2013  10 21  -21.0305 26026.5 -03504.6 -07.6689 26261.3
 18 10 2013  10 22  -21.0309 26026.8 -03504.5 -07.6687 26261.7
 18 10 2013  10 23  -21.0316 26027.2 -03504.4 -07.6684 26262.1
 18 10 2013  10 24  -21.0323 26027.6 -03504.3 -07.6681 26262.5
 18 10 2013  10 25  -21.0330 26028.1 -03504.2 -07.6677 26262.9
 18 10 2013  10 26  -21.0335 26028.6 -03504.1 -07.6673 26263.4
 18 10 2013  10 27  -21.0341 26029.0 -03504.0 -07.6669 26263.8
 18 10 2013  10 28  -21.0348 26029.4 -03503.8 -07.6664 26264.1
 18 10 2013  10 29  -21.0354 26029.9 -03503.7 -07.6660 26264.6
 18 10 2013  10 30  -21.0357 26030.4 -03503.5 -07.6655 26265.1
 18 10 2013  10 31  -21.0362 26030.8 -03503.3 -07.6649 26265.5
 18 10 2013  10 32  -21.0366 26031.3 -03503.1 -07.6644 26266.0
 18 10 2013  10 33  -21.0371 26031.8 -03502.9 -07.6639 26266.4
 18 10 2013  10 34  -21.0376 26032.3 -03502.8 -07.6634 26266.9
 18 10 2013  10 35  -21.0380 26032.8 -03502.6 -07.6628 26267.4
 18 10 2013  10 36  -21.0384 26033.3 -03502.4 -07.6623 26267.9
 18 10 2013  10 37  -21.0387 26033.8 -03502.2 -07.6617 26268.3
 18 10 2013  10 38  -21.0392 26034.3 -03502.0 -07.6612 26268.8
 18 10 2013  10 39  -21.0396 26034.6 -03501.8 -07.6606 26269.1
 18 10 2013  10 40  -21.0399 26035.1 -03501.6 -07.6601 26269.5
 18 10 2013  10 41  -21.0404 26035.6 -03501.4 -07.6596 26270.0
 18 10 2013  10 42  -21.0406 26035.9 -03501.2 -07.6590 26270.3
 18 10 2013  10 43  -21.0409 26036.4 -03501.0 -07.6585 26270.7
 18 10 2013  10 44  -21.0414 26036.8 -03500.8 -07.6579 26271.1
 18 10 2013  10 45  -21.0416 26037.3 -03500.7 -07.6574 26271.6
 18 10 2013  10 46  -21.0419 26037.7 -03500.4 -07.6568 26272.0
 18 10 2013  10 47  -21.0422 26038.1 -03500.2 -07.6562 26272.3
 18 10 2013  10 48  -21.0423 26038.5 -03500.1 -07.6557 26272.7
 18 10 2013  10 49  -21.0428 26038.9 -03499.9 -07.6552 26273.1
 18 10 2013  10 50  -21.0430 26039.4 -03499.7 -07.6548 26273.5
 18 10 2013  10 51  -21.0433 26039.7 -03499.6 -07.6543 26273.8
 18 10 2013  10 52  -21.0436 26040.1 -03499.3 -07.6537 26274.2
 18 10 2013  10 53  -21.0439 26040.5 -03499.2 -07.6532 26274.6
 18 10 2013  10 54  -21.0441 26040.9 -03499.0 -07.6526 26274.9
 18 10 2013  10 55  -21.0448 26041.2 -03498.8 -07.6522 26275.2
 18 10 2013  10 56  -21.0452 26041.7 -03498.7 -07.6518 26275.7
 18 10 2013  10 57  -21.0458 26042.2 -03498.5 -07.6513 26276.1
 18 10 2013  10 58  -21.0458 26042.7 -03498.4 -07.6509 26276.6
 18 10 2013  10 59  -21.0458 26043.2 -03498.2 -07.6503 26277.1
 18 10 2013  11 00  -21.0459 26043.6 -03498.0 -07.6497 26277.5
 18 10 2013  11 01  -21.0459 26044.1 -03497.8 -07.6491 26278.0
 18 10 2013  11 02  -21.0460 26044.5 -03497.5 -07.6485 26278.3
 18 10 2013  11 03  -21.0459 26044.9 -03497.3 -07.6479 26278.6
 18 10 2013  11 04  -21.0458 26045.4 -03497.2 -07.6475 26279.1
 18 10 2013  11 05  -21.0458 26046.0 -03497.0 -07.6470 26279.7
 18 10 2013  11 06  -21.0459 26046.4 -03496.8 -07.6463 26280.1
 18 10 2013  11 07  -21.0461 26046.9 -03496.6 -07.6459 26280.6
 18 10 2013  11 08  -21.0461 26047.4 -03496.4 -07.6453 26281.1
 18 10 2013  11 09  -21.0463 26047.8 -03496.2 -07.6447 26281.4
 18 10 2013  11 10  -21.0463 26048.3 -03496.0 -07.6441 26281.9
 18 10 2013  11 11  -21.0465 26049.0 -03495.9 -07.6436 26282.5
 18 10 2013  11 12  -21.0467 26049.4 -03495.6 -07.6429 26282.9
 18 10 2013  11 13  -21.0469 26049.9 -03495.4 -07.6423 26283.4
 18 10 2013  11 14  -21.0470 26050.4 -03495.1 -07.6416 26283.8
 18 10 2013  11 15  -21.0471 26050.7 -03494.9 -07.6409 26284.1
 18 10 2013  11 16  -21.0472 26051.2 -03494.6 -07.6403 26284.5
 18 10 2013  11 17  -21.0472 26051.6 -03494.4 -07.6397 26285.0
 18 10 2013  11 18  -21.0472 26052.1 -03494.2 -07.6390 26285.4
 18 10 2013  11 19  -21.0472 26052.6 -03493.9 -07.6384 26285.9
 18 10 2013  11 20  -21.0471 26053.1 -03493.7 -07.6377 26286.3
 18 10 2013  11 21  -21.0470 26053.6 -03493.5 -07.6372 26286.8
 18 10 2013  11 22  -21.0472 26054.0 -03493.3 -07.6366 26287.2
 18 10 2013  11 23  -21.0471 26054.7 -03493.1 -07.6361 26287.8
 18 10 2013  11 24  -21.0472 26055.2 -03492.9 -07.6355 26288.3
 18 10 2013  11 25  -21.0474 26055.5 -03492.6 -07.6347 26288.6
 18 10 2013  11 26  -21.0473 26056.1 -03492.5 -07.6342 26289.1
 18 10 2013  11 27  -21.0472 26056.5 -03492.2 -07.6336 26289.5
 18 10 2013  11 28  -21.0473 26056.8 -03492.0 -07.6330 26289.8
 18 10 2013  11 29  -21.0472 26057.2 -03491.8 -07.6325 26290.1
 18 10 2013  11 30  -21.0469 26057.5 -03491.6 -07.6319 26290.4
 18 10 2013  11 31  -21.0469 26058.0 -03491.5 -07.6315 26290.8
 18 10 2013  11 32  -21.0467 26058.5 -03491.3 -07.6311 26291.3
 18 10 2013  11 33  -21.0466 26058.9 -03491.2 -07.6307 26291.8
 18 10 2013  11 34  -21.0466 26059.5 -03491.2 -07.6304 26292.3
 18 10 2013  11 35  -21.0469 26059.9 -03491.0 -07.6300 26292.7
 18 10 2013  11 36  -21.0471 26060.2 -03490.9 -07.6296 26293.0
 18 10 2013  11 37  -21.0473 26060.7 -03490.8 -07.6292 26293.4
 18 10 2013  11 38  -21.0475 26061.1 -03490.7 -07.6289 26293.8
 18 10 2013  11 39  -21.0478 26061.6 -03490.6 -07.6286 26294.3
 18 10 2013  11 40  -21.0479 26062.1 -03490.5 -07.6283 26294.8
 18 10 2013  11 41  -21.0481 26062.5 -03490.4 -07.6279 26295.2
 18 10 2013  11 42  -21.0482 26063.1 -03490.3 -07.6276 26295.7
 18 10 2013  11 43  -21.0485 26063.6 -03490.3 -07.6273 26296.2
 18 10 2013  11 44  -21.0489 26064.1 -03490.2 -07.6269 26296.7
 18 10 2013  11 45  -21.0492 26064.4 -03490.0 -07.6265 26297.1
 18 10 2013  11 46  -21.0494 26065.0 -03489.9 -07.6261 26297.6
 18 10 2013  11 47  -21.0496 26065.5 -03489.8 -07.6258 26298.1
 18 10 2013  11 48  -21.0499 26065.8 -03489.6 -07.6252 26298.3
 18 10 2013  11 49  -21.0500 26066.2 -03489.5 -07.6248 26298.7
 18 10 2013  11 50  -21.0503 26066.6 -03489.3 -07.6243 26299.1
 18 10 2013  11 51  -21.0504 26067.1 -03489.1 -07.6238 26299.6
 18 10 2013  11 52  -21.0505 26067.5 -03489.0 -07.6234 26300.0
 18 10 2013  11 53  -21.0506 26067.9 -03488.8 -07.6228 26300.3
 18 10 2013  11 54  -21.0506 26068.2 -03488.5 -07.6222 26300.6
 18 10 2013  11 55  -21.0505 26068.7 -03488.4 -07.6217 26301.1
 18 10 2013  11 56  -21.0506 26069.2 -03488.2 -07.6212 26301.5
 18 10 2013  11 57  -21.0505 26069.5 -03488.0 -07.6207 26301.8
 18 10 2013  11 58  -21.0505 26069.9 -03487.8 -07.6202 26302.2
 18 10 2013  11 59  -21.0505 26070.3 -03487.6 -07.6196 26302.6
 18 10 2013  12 00  -21.0504 26070.5 -03487.4 -07.6190 26302.7
 18 10 2013  12 01  -21.0501 26071.0 -03487.2 -07.6186 26303.1
 18 10 2013  12 02  -21.0498 26071.4 -03487.1 -07.6182 26303.5
 18 10 2013  12 03  -21.0496 26071.7 -03486.9 -07.6177 26303.8
 18 10 2013  12 04  -21.0495 26072.2 -03486.9 -07.6174 26304.3
 18 10 2013  12 05  -21.0492 26072.5 -03486.7 -07.6170 26304.6
 18 10 2013  12 06  -21.0490 26072.8 -03486.5 -07.6165 26304.9
 18 10 2013  12 07  -21.0489 26073.2 -03486.4 -07.6162 26305.3
 18 10 2013  12 08  -21.0488 26073.4 -03486.2 -07.6157 26305.4
 18 10 2013  12 09  -21.0485 26073.8 -03486.1 -07.6154 26305.8
 18 10 2013  12 10  -21.0484 26074.1 -03486.0 -07.6151 26306.1
 18 10 2013  12 11  -21.0483 26074.3 -03485.8 -07.6146 26306.3
 18 10 2013  12 12  -21.0480 26074.6 -03485.7 -07.6142 26306.5
 18 10 2013  12 13  -21.0480 26074.9 -03485.6 -07.6139 26306.8
 18 10 2013  12 14  -21.0477 26075.1 -03485.5 -07.6136 26307.0
 18 10 2013  12 15  -21.0475 26075.6 -03485.4 -07.6134 26307.5
 18 10 2013  12 16  -21.0477 26076.0 -03485.4 -07.6131 26307.9
 18 10 2013  12 17  -21.0474 26076.2 -03485.2 -07.6127 26308.0
 18 10 2013  12 18  -21.0472 26076.7 -03485.2 -07.6125 26308.6
 18 10 2013  12 19  -21.0471 26076.7 -03484.9 -07.6120 26308.6
 18 10 2013  12 20  -21.0471 26077.2 -03484.9 -07.6118 26309.0
 18 10 2013  12 21  -21.0472 26077.6 -03484.8 -07.6115 26309.4
 18 10 2013  12 22  -21.0469 26077.6 -03484.5 -07.6109 26309.4
 18 10 2013  12 23  -21.0466 26077.9 -03484.4 -07.6105 26309.7
 18 10 2013  12 24  -21.0464 26078.2 -03484.2 -07.6101 26309.9
 18 10 2013  12 25  -21.0461 26078.4 -03484.1 -07.6098 26310.1
 18 10 2013  12 26  -21.0457 26078.9 -03484.0 -07.6094 26310.6
 18 10 2013  12 27  -21.0455 26079.1 -03483.9 -07.6090 26310.7
 18 10 2013  12 28  -21.0453 26079.5 -03483.8 -07.6086 26311.1
 18 10 2013  12 29  -21.0451 26080.0 -03483.7 -07.6084 26311.6
 18 10 2013  12 30  -21.0449 26080.1 -03483.4 -07.6078 26311.7
 18 10 2013  12 31  -21.0444 26080.3 -03483.3 -07.6074 26311.9
 18 10 2013  12 32  -21.0441 26080.5 -03483.1 -07.6069 26312.1
 18 10 2013  12 33  -21.0436 26080.7 -03482.9 -07.6065 26312.2
 18 10 2013  12 34  -21.0431 26081.0 -03482.8 -07.6061 26312.5
 18 10 2013  12 35  -21.0427 26081.4 -03482.7 -07.6058 26312.9
 18 10 2013  12 36  -21.0423 26081.4 -03482.5 -07.6053 26312.9
 18 10 2013  12 37  -21.0417 26081.5 -03482.3 -07.6048 26312.9
 18 10 2013  12 38  -21.0414 26081.8 -03482.1 -07.6045 26313.2
 18 10 2013  12 39  -21.0409 26081.9 -03482.0 -07.6041 26313.3
 18 10 2013  12 40  -21.0404 26082.2 -03481.9 -07.6039 26313.6
 18 10 2013  12 41  -21.0399 26082.6 -03481.9 -07.6037 26314.0
 18 10 2013  12 42  -21.0392 26083.0 -03481.8 -07.6033 26314.4
 18 10 2013  12 43  -21.0387 26083.1 -03481.6 -07.6029 26314.4
 18 10 2013  12 44  -21.0380 26083.5 -03481.5 -07.6026 26314.8
 18 10 2013  12 45  -21.0372 26083.6 -03481.3 -07.6022 26314.9
 18 10 2013  12 46  -21.0365 26083.8 -03481.2 -07.6019 26315.1
 18 10 2013  12 47  -21.0359 26083.9 -03481.1 -07.6017 26315.2
 18 10 2013  12 48  -21.0352 26084.0 -03481.0 -07.6014 26315.3
 18 10 2013  12 49  -21.0346 26084.3 -03480.9 -07.6012 26315.5
 18 10 2013  12 50  -21.0340 26084.2 -03480.8 -07.6009 26315.5
 18 10 2013  12 51  -21.0334 26084.4 -03480.8 -07.6008 26315.6
 18 10 2013  12 52  -21.0329 26084.6 -03480.7 -07.6006 26315.8
 18 10 2013  12 53  -21.0323 26084.7 -03480.6 -07.6004 26315.9
 18 10 2013  12 54  -21.0318 26084.5 -03480.5 -07.6001 26315.7
 18 10 2013  12 55  -21.0310 26084.6 -03480.4 -07.6000 26315.8
 18 10 2013  12 56  -21.0302 26084.4 -03480.3 -07.5998 26315.6
 18 10 2013  12 57  -21.0295 26084.6 -03480.4 -07.5999 26315.8
 18 10 2013  12 58  -21.0288 26084.7 -03480.4 -07.5998 26315.8
 18 10 2013  12 59  -21.0281 26084.6 -03480.3 -07.5997 26315.8
 18 10 2013  13 00  -21.0274 26084.6 -03480.3 -07.5998 26315.7
 18 10 2013  13 01  -21.0267 26084.6 -03480.3 -07.5997 26315.7
 18 10 2013  13 02  -21.0260 26084.7 -03480.4 -07.5998 26315.8
 18 10 2013  13 03  -21.0253 26084.7 -03480.4 -07.5998 26315.9
 18 10 2013  13 04  -21.0245 26084.9 -03480.4 -07.5999 26316.1
 18 10 2013  13 05  -21.0239 26085.0 -03480.5 -07.6000 26316.2
 18 10 2013  13 06  -21.0231 26085.2 -03480.5 -07.5999 26316.4
 18 10 2013  13 07  -21.0224 26085.3 -03480.5 -07.5999 26316.5
 18 10 2013  13 08  -21.0215 26085.6 -03480.6 -07.6000 26316.8
 18 10 2013  13 09  -21.0205 26085.6 -03480.5 -07.5998 26316.8
 18 10 2013  13 10  -21.0197 26086.0 -03480.6 -07.5999 26317.1
 18 10 2013  13 11  -21.0189 26085.9 -03480.5 -07.5998 26317.0
 18 10 2013  13 12  -21.0179 26085.9 -03480.5 -07.5997 26317.1
 18 10 2013  13 13  -21.0168 26086.2 -03480.5 -07.5997 26317.3
 18 10 2013  13 14  -21.0158 26086.3 -03480.5 -07.5997 26317.5
 18 10 2013  13 15  -21.0149 26086.5 -03480.6 -07.5998 26317.7
 18 10 2013  13 16  -21.0139 26086.7 -03480.6 -07.5998 26317.8
 18 10 2013  13 17  -21.0131 26087.0 -03480.8 -07.6000 26318.1
 18 10 2013  13 18  -21.0122 26087.2 -03480.9 -07.6002 26318.4
 18 10 2013  13 19  -21.0112 26087.3 -03480.9 -07.6002 26318.5
 18 10 2013  13 20  -21.0101 26087.5 -03481.0 -07.6005 26318.7
 18 10 2013  13 21  -21.0094 26087.7 -03481.1 -07.6006 26318.9
 18 10 2013  13 22  -21.0084 26087.9 -03481.2 -07.6008 26319.1
 18 10 2013  13 23  -21.0077 26088.1 -03481.4 -07.6011 26319.4
 18 10 2013  13 24  -21.0070 26088.3 -03481.5 -07.6013 26319.6
 18 10 2013  13 25  -21.0061 26088.2 -03481.5 -07.6014 26319.5
 18 10 2013  13 26  -21.0053 26088.3 -03481.7 -07.6016 26319.6
 18 10 2013  13 27  -21.0047 26088.5 -03481.8 -07.6019 26319.8
 18 10 2013  13 28  -21.0042 26088.5 -03481.9 -07.6021 26319.8
 18 10 2013  13 29  -21.0035 26088.3 -03482.0 -07.6022 26319.6
 18 10 2013  13 30  -21.0029 26087.9 -03482.0 -07.6023 26319.3
 18 10 2013  13 31  -21.0022 26087.8 -03482.1 -07.6027 26319.2
 18 10 2013  13 32  -21.0015 26087.7 -03482.2 -07.6030 26319.0
 18 10 2013  13 33  -21.0010 26087.7 -03482.5 -07.6035 26319.1
 18 10 2013  13 34  -21.0003 26087.6 -03482.6 -07.6038 26319.0
 18 10 2013  13 35  -20.9998 26087.7 -03482.9 -07.6043 26319.1
 18 10 2013  13 36  -20.9993 26087.4 -03483.0 -07.6047 26318.9
 18 10 2013  13 37  -20.9987 26087.1 -03483.1 -07.6050 26318.6
 18 10 2013  13 38  -20.9982 26087.1 -03483.3 -07.6055 26318.6
 18 10 2013  13 39  -20.9978 26086.8 -03483.5 -07.6060 26318.4
 18 10 2013  13 40  -20.9975 26086.9 -03483.8 -07.6066 26318.5
 18 10 2013  13 41  -20.9970 26086.6 -03484.0 -07.6070 26318.2
 18 10 2013  13 42  -20.9969 26086.6 -03484.3 -07.6077 26318.3
 18 10 2013  13 43  -20.9967 26086.4 -03484.5 -07.6082 26318.1
 18 10 2013  13 44  -20.9967 26086.3 -03484.8 -07.6088 26318.0
 18 10 2013  13 45  -20.9966 26086.3 -03485.0 -07.6094 26318.0
 18 10 2013  13 46  -20.9966 26086.4 -03485.4 -07.6101 26318.2
 18 10 2013  13 47  -20.9966 26086.4 -03485.6 -07.6106 26318.2
 18 10 2013  13 48  -20.9968 26086.5 -03485.8 -07.6111 26318.4
 18 10 2013  13 49  -20.9969 26086.4 -03486.0 -07.6116 26318.3
 18 10 2013  13 50  -20.9969 26086.0 -03486.1 -07.6118 26317.9
 18 10 2013  13 51  -20.9968 26085.7 -03486.2 -07.6121 26317.6
 18 10 2013  13 52  -20.9967 26085.2 -03486.2 -07.6123 26317.1
 18 10 2013  13 53  -20.9969 26084.8 -03486.4 -07.6127 26316.8
 18 10 2013  13 54  -20.9970 26084.4 -03486.5 -07.6131 26316.3
 18 10 2013  13 55  -20.9972 26084.0 -03486.7 -07.6136 26316.0
 18 10 2013  13 56  -20.9974 26083.7 -03486.8 -07.6141 26315.7
 18 10 2013  13 57  -20.9977 26083.2 -03487.0 -07.6146 26315.3
 18 10 2013  13 58  -20.9979 26083.0 -03487.3 -07.6152 26315.1
 18 10 2013  13 59  -20.9984 26082.9 -03487.5 -07.6158 26315.0
 18 10 2013  14 00  -20.9985 26082.4 -03487.6 -07.6162 26314.6
 18 10 2013  14 01  -20.9987 26082.1 -03487.9 -07.6168 26314.3
 18 10 2013  14 02  -20.9987 26081.7 -03488.0 -07.6173 26313.9
 18 10 2013  14 03  -20.9987 26081.4 -03488.3 -07.6179 26313.6
 18 10 2013  14 04  -20.9988 26081.2 -03488.6 -07.6185 26313.5
 18 10 2013  14 05  -20.9985 26080.6 -03488.7 -07.6189 26312.9
 18 10 2013  14 06  -20.9984 26080.5 -03489.0 -07.6196 26312.9
 18 10 2013  14 07  -20.9984 26080.1 -03489.2 -07.6202 26312.5
 18 10 2013  14 08  -20.9982 26079.7 -03489.4 -07.6207 26312.1
 18 10 2013  14 09  -20.9982 26079.3 -03489.6 -07.6213 26311.7
 18 10 2013  14 10  -20.9982 26079.1 -03489.9 -07.6220 26311.6
 18 10 2013  14 11  -20.9983 26078.9 -03490.1 -07.6226 26311.4
 18 10 2013  14 12  -20.9985 26078.6 -03490.4 -07.6233 26311.2
 18 10 2013  14 13  -20.9987 26078.7 -03490.8 -07.6240 26311.3
 18 10 2013  14 14  -20.9991 26078.5 -03491.0 -07.6245 26311.1
 18 10 2013  14 15  -20.9995 26078.4 -03491.3 -07.6251 26311.1
 18 10 2013  14 16  -21.0001 26078.6 -03491.6 -07.6259 26311.3
 18 10 2013  14 17  -21.0005 26078.5 -03491.8 -07.6263 26311.3
 18 10 2013  14 18  -21.0009 26078.6 -03492.1 -07.6269 26311.3
 18 10 2013  14 19  -21.0010 26078.3 -03492.2 -07.6271 26311.0
 18 10 2013  14 20  -21.0014 26078.4 -03492.5 -07.6278 26311.3
 18 10 2013  14 21  -21.0020 26078.4 -03492.7 -07.6282 26311.2
 18 10 2013  14 22  -21.0022 26077.9 -03492.7 -07.6284 26310.8
 18 10 2013  14 23  -21.0026 26078.2 -03493.1 -07.6291 26311.1
 18 10 2013  14 24  -21.0029 26078.0 -03493.2 -07.6294 26310.9
 18 10 2013  14 25  -21.0028 26077.5 -03493.3 -07.6297 26310.4
 18 10 2013  14 26  -21.0032 26077.6 -03493.5 -07.6303 26310.5
 18 10 2013  14 27  -21.0034 26077.4 -03493.7 -07.6308 26310.4
 18 10 2013  14 28  -21.0036 26077.2 -03493.9 -07.6312 26310.2
 18 10 2013  14 29  -21.0037 26077.2 -03494.2 -07.6318 26310.2
 18 10 2013  14 30  -21.0041 26077.5 -03494.5 -07.6325 26310.6
 18 10 2013  14 31  -21.0046 26077.5 -03494.8 -07.6330 26310.7
 18 10 2013  14 32  -21.0047 26077.5 -03494.9 -07.6333 26310.6
 18 10 2013  14 33  -21.0050 26077.6 -03495.1 -07.6337 26310.8
 18 10 2013  14 34  -21.0051 26077.4 -03495.2 -07.6339 26310.6
 18 10 2013  14 35  -21.0055 26077.5 -03495.4 -07.6343 26310.7
 18 10 2013  14 36  -21.0058 26077.1 -03495.4 -07.6344 26310.3
 18 10 2013  14 37  -21.0060 26077.0 -03495.5 -07.6346 26310.3
 18 10 2013  14 38  -21.0062 26077.0 -03495.7 -07.6350 26310.3
 18 10 2013  14 39  -21.0064 26076.8 -03495.7 -07.6351 26310.0
 18 10 2013  14 40  -21.0066 26076.5 -03495.7 -07.6353 26309.7
 18 10 2013  14 41  -21.0069 26076.2 -03495.8 -07.6356 26309.4
 18 10 2013  14 42  -21.0072 26075.8 -03495.9 -07.6359 26309.1
 18 10 2013  14 43  -21.0073 26075.3 -03495.9 -07.6361 26308.6
 18 10 2013  14 44  -21.0075 26075.0 -03496.0 -07.6364 26308.3
 18 10 2013  14 45  -21.0078 26074.7 -03496.2 -07.6369 26308.0
 18 10 2013  14 46  -21.0079 26074.5 -03496.4 -07.6373 26307.9
 18 10 2013  14 47  -21.0080 26074.4 -03496.6 -07.6378 26307.8
 18 10 2013  14 48  -21.0082 26074.0 -03496.7 -07.6380 26307.5
 18 10 2013  14 49  -21.0082 26073.7 -03496.7 -07.6383 26307.1
 18 10 2013  14 50  -21.0084 26073.5 -03496.9 -07.6387 26306.9
 18 10 2013  14 51  -21.0086 26073.1 -03497.0 -07.6390 26306.6
 18 10 2013  14 52  -21.0086 26072.7 -03497.0 -07.6392 26306.2
 18 10 2013  14 53  -21.0089 26072.4 -03497.2 -07.6396 26305.9
 18 10 2013  14 54  -21.0089 26072.0 -03497.2 -07.6398 26305.5
 18 10 2013  14 55  -21.0089 26071.7 -03497.3 -07.6402 26305.2
 18 10 2013  14 56  -21.0089 26071.3 -03497.4 -07.6405 26304.9
 18 10 2013  14 57  -21.0088 26071.0 -03497.6 -07.6409 26304.6
 18 10 2013  14 58  -21.0085 26070.6 -03497.7 -07.6413 26304.2
 18 10 2013  14 59  -21.0083 26070.4 -03497.9 -07.6417 26304.0
 18 10 2013  15 00  -21.0081 26070.3 -03498.1 -07.6422 26304.0
 18 10 2013  15 01  -21.0080 26070.1 -03498.2 -07.6426 26303.7
 18 10 2013  15 02  -21.0079 26069.9 -03498.3 -07.6429 26303.6
 18 10 2013  15 03  -21.0079 26069.8 -03498.6 -07.6434 26303.5
 18 10 2013  15 04  -21.0078 26069.8 -03498.8 -07.6438 26303.5
 18 10 2013  15 05  -21.0078 26069.6 -03498.9 -07.6442 26303.4
 18 10 2013  15 06  -21.0077 26069.5 -03499.0 -07.6445 26303.2
 18 10 2013  15 07  -21.0074 26069.4 -03499.2 -07.6448 26303.2
 18 10 2013  15 08  -21.0073 26069.1 -03499.3 -07.6452 26302.9
 18 10 2013  15 09  -21.0071 26069.0 -03499.5 -07.6456 26302.9
 18 10 2013  15 10  -21.0071 26069.2 -03499.7 -07.6461 26303.0
 18 10 2013  15 11  -21.0070 26069.2 -03499.9 -07.6465 26303.1
 18 10 2013  15 12  -21.0069 26069.2 -03500.1 -07.6468 26303.1
 18 10 2013  15 13  -21.0070 26069.0 -03500.2 -07.6472 26302.9
 18 10 2013  15 14  -21.0072 26068.7 -03500.3 -07.6474 26302.6
 18 10 2013  15 15  -21.0073 26068.5 -03500.4 -07.6478 26302.5
 18 10 2013  15 16  -21.0075 26068.4 -03500.5 -07.6480 26302.4
 18 10 2013  15 17  -21.0076 26068.1 -03500.6 -07.6483 26302.1
 18 10 2013  15 18  -21.0079 26068.0 -03500.9 -07.6489 26302.0
 18 10 2013  15 19  -21.0081 26068.0 -03501.1 -07.6495 26302.1
 18 10 2013  15 20  -21.0085 26068.1 -03501.3 -07.6499 26302.2
 18 10 2013  15 21  -21.0088 26067.9 -03501.4 -07.6501 26302.0
 18 10 2013  15 22  -21.0089 26067.6 -03501.4 -07.6502 26301.7
 18 10 2013  15 23  -21.0091 26067.4 -03501.5 -07.6504 26301.6
 18 10 2013  15 24  -21.0094 26067.2 -03501.6 -07.6508 26301.4
 18 10 2013  15 25  -21.0098 26067.1 -03501.8 -07.6511 26301.2
 18 10 2013  15 26  -21.0103 26066.9 -03501.9 -07.6514 26301.0
 18 10 2013  15 27  -21.0107 26066.6 -03502.0 -07.6518 26300.8
 18 10 2013  15 28  -21.0112 26066.4 -03502.2 -07.6523 26300.6
 18 10 2013  15 29  -21.0116 26066.2 -03502.5 -07.6530 26300.5
 18 10 2013  15 30  -21.0120 26066.0 -03502.7 -07.6535 26300.3
 18 10 2013  15 31  -21.0123 26065.8 -03503.0 -07.6540 26300.1
 18 10 2013  15 32  -21.0126 26065.5 -03503.1 -07.6545 26299.8
 18 10 2013  15 33  -21.0129 26065.2 -03503.4 -07.6551 26299.6
 18 10 2013  15 34  -21.0131 26064.9 -03503.6 -07.6557 26299.3
 18 10 2013  15 35  -21.0134 26064.7 -03503.9 -07.6564 26299.1
 18 10 2013  15 36  -21.0138 26064.3 -03504.1 -07.6570 26298.8
 18 10 2013  15 37  -21.0141 26064.0 -03504.4 -07.6576 26298.5
 18 10 2013  15 38  -21.0146 26063.7 -03504.6 -07.6582 26298.2
 18 10 2013  15 39  -21.0145 26063.6 -03505.0 -07.6590 26298.2
 18 10 2013  15 40  -21.0146 26063.9 -03505.5 -07.6600 26298.6
 18 10 2013  15 41  -21.0148 26063.8 -03505.7 -07.6605 26298.5
 18 10 2013  15 42  -21.0152 26063.7 -03505.9 -07.6611 26298.4
 18 10 2013  15 43  -21.0156 26063.5 -03506.2 -07.6617 26298.2
 18 10 2013  15 44  -21.0158 26063.2 -03506.4 -07.6622 26298.0
 18 10 2013  15 45  -21.0162 26062.8 -03506.5 -07.6627 26297.6
 18 10 2013  15 46  -21.0166 26062.3 -03506.7 -07.6632 26297.2
 18 10 2013  15 47  -21.0172 26061.9 -03506.9 -07.6637 26296.8
 18 10 2013  15 48  -21.0176 26061.5 -03507.0 -07.6641 26296.4
 18 10 2013  15 49  -21.0177 26061.0 -03507.2 -07.6645 26296.0
 18 10 2013  15 50  -21.0183 26060.7 -03507.4 -07.6651 26295.6
 18 10 2013  15 51  -21.0187 26060.4 -03507.6 -07.6657 26295.4
 18 10 2013  15 52  -21.0188 26060.5 -03508.0 -07.6665 26295.5
 18 10 2013  15 53  -21.0193 26060.7 -03508.4 -07.6673 26295.8
 18 10 2013  15 54  -21.0198 26060.8 -03508.6 -07.6677 26296.0
 18 10 2013  15 55  -21.0205 26061.2 -03508.9 -07.6683 26296.3
 18 10 2013  15 56  -21.0212 26061.3 -03509.1 -07.6686 26296.5
 18 10 2013  15 57  -21.0219 26061.2 -03509.1 -07.6687 26296.4
 18 10 2013  15 58  -21.0226 26061.0 -03509.1 -07.6687 26296.2
 18 10 2013  15 59  -21.0230 26060.6 -03509.0 -07.6687 26295.8
 18 10 2013  16 00  -21.0231 26060.2 -03509.0 -07.6687 26295.4
 18 10 2013  16 01  -21.0234 26059.9 -03509.0 -07.6689 26295.1
 18 10 2013  16 02  -21.0238 26059.4 -03509.0 -07.6690 26294.6
 18 10 2013  16 03  -21.0243 26059.0 -03509.1 -07.6692 26294.2
 18 10 2013  16 04  -21.0247 26058.5 -03509.1 -07.6694 26293.7
 18 10 2013  16 05  -21.0251 26058.1 -03509.1 -07.6696 26293.3
 18 10 2013  16 06  -21.0256 26057.8 -03509.2 -07.6699 26293.0
 18 10 2013  16 07  -21.0261 26057.4 -03509.3 -07.6702 26292.7
 18 10 2013  16 08  -21.0265 26057.2 -03509.4 -07.6704 26292.4
 18 10 2013  16 09  -21.0271 26057.0 -03509.5 -07.6708 26292.3
 18 10 2013  16 10  -21.0276 26056.8 -03509.5 -07.6709 26292.0
 18 10 2013  16 11  -21.0281 26056.5 -03509.5 -07.6709 26291.8
 18 10 2013  16 12  -21.0282 26056.0 -03509.4 -07.6708 26291.2
 18 10 2013  16 13  -21.0283 26055.5 -03509.3 -07.6708 26290.8
 18 10 2013  16 14  -21.0283 26055.2 -03509.3 -07.6709 26290.4
 18 10 2013  16 15  -21.0284 26054.9 -03509.4 -07.6711 26290.1
 18 10 2013  16 16  -21.0282 26054.7 -03509.4 -07.6712 26290.0
 18 10 2013  16 17  -21.0282 26054.7 -03509.5 -07.6715 26290.0
 18 10 2013  16 18  -21.0284 26054.7 -03509.6 -07.6717 26290.0
 18 10 2013  16 19  -21.0289 26054.7 -03509.7 -07.6718 26290.0
 18 10 2013  16 20  -21.0294 26054.8 -03509.8 -07.6720 26290.2
 18 10 2013  16 21  -21.0298 26054.8 -03509.7 -07.6719 26290.2
 18 10 2013  16 22  -21.0302 26054.9 -03509.7 -07.6718 26290.3
 18 10 2013  16 23  -21.0305 26054.9 -03509.6 -07.6716 26290.2
 18 10 2013  16 24  -21.0308 26054.8 -03509.5 -07.6715 26290.1
 18 10 2013  16 25  -21.0313 26054.8 -03509.5 -07.6714 26290.1
 18 10 2013  16 26  -21.0316 26054.9 -03509.5 -07.6713 26290.2
 18 10 2013  16 27  -21.0320 26054.7 -03509.3 -07.6710 26290.0
 18 10 2013  16 28  -21.0321 26054.4 -03509.1 -07.6706 26289.6
 18 10 2013  16 29  -21.0322 26054.1 -03508.9 -07.6704 26289.3
 18 10 2013  16 30  -21.0325 26053.8 -03508.9 -07.6703 26289.0
 18 10 2013  16 31  -21.0326 26053.5 -03508.8 -07.6702 26288.8
 18 10 2013  16 32  -21.0326 26053.2 -03508.6 -07.6700 26288.4
 18 10 2013  16 33  -21.0329 26052.9 -03508.5 -07.6698 26288.0
 18 10 2013  16 34  -21.0332 26052.6 -03508.4 -07.6697 26287.8
 18 10 2013  16 35  -21.0333 26052.6 -03508.5 -07.6698 26287.8
 18 10 2013  16 36  -21.0337 26052.6 -03508.5 -07.6698 26287.8
 18 10 2013  16 37  -21.0339 26052.5 -03508.3 -07.6695 26287.6
 18 10 2013  16 38  -21.0340 26052.1 -03508.1 -07.6691 26287.2
 18 10 2013  16 39  -21.0339 26051.8 -03507.9 -07.6687 26286.9
 18 10 2013  16 40  -21.0337 26051.5 -03507.7 -07.6684 26286.6
 18 10 2013  16 41  -21.0339 26051.1 -03507.5 -07.6681 26286.2
 18 10 2013  16 42  -21.0342 26051.1 -03507.5 -07.6681 26286.1
 18 10 2013  16 43  -21.0346 26051.3 -03507.6 -07.6682 26286.4
 18 10 2013  16 44  -21.0347 26051.5 -03507.6 -07.6682 26286.6
 18 10 2013  16 45  -21.0346 26051.7 -03507.5 -07.6680 26286.7
 18 10 2013  16 46  -21.0345 26051.3 -03507.2 -07.6675 26286.3
 18 10 2013  16 47  -21.0345 26050.9 -03507.0 -07.6670 26285.9
 18 10 2013  16 48  -21.0343 26050.4 -03506.7 -07.6666 26285.3
 18 10 2013  16 49  -21.0344 26050.0 -03506.6 -07.6664 26285.0
 18 10 2013  16 50  -21.0344 26049.8 -03506.5 -07.6663 26284.7
 18 10 2013  16 51  -21.0343 26049.8 -03506.4 -07.6662 26284.7
 18 10 2013  16 52  -21.0344 26049.7 -03506.4 -07.6661 26284.6
 18 10 2013  16 53  -21.0345 26049.5 -03506.2 -07.6658 26284.4
 18 10 2013  16 54  -21.0347 26049.4 -03506.1 -07.6657 26284.3
 18 10 2013  16 55  -21.0346 26049.2 -03506.0 -07.6654 26284.1
 18 10 2013  16 56  -21.0346 26049.0 -03505.8 -07.6651 26283.9
 18 10 2013  16 57  -21.0347 26048.8 -03505.7 -07.6649 26283.7
 18 10 2013  16 58  -21.0348 26048.8 -03505.6 -07.6646 26283.6
 18 10 2013  16 59  -21.0351 26048.7 -03505.4 -07.6644 26283.5
 18 10 2013  17 00  -21.0352 26048.6 -03505.3 -07.6641 26283.4
 18 10 2013  17 01  -21.0351 26048.4 -03505.1 -07.6638 26283.2
 18 10 2013  17 02  -21.0348 26048.2 -03504.9 -07.6634 26282.9
 18 10 2013  17 03  -21.0347 26048.1 -03504.8 -07.6632 26282.8
 18 10 2013  17 04  -21.0347 26048.0 -03504.6 -07.6629 26282.7
 18 10 2013  17 05  -21.0345 26048.0 -03504.5 -07.6627 26282.7
 18 10 2013  17 06  -21.0346 26047.9 -03504.4 -07.6623 26282.6
 18 10 2013  17 07  -21.0346 26047.9 -03504.2 -07.6620 26282.5
 18 10 2013  17 08  -21.0346 26047.6 -03504.1 -07.6617 26282.3
 18 10 2013  17 09  -21.0346 26047.4 -03503.9 -07.6614 26282.0
 18 10 2013  17 10  -21.0346 26047.2 -03503.7 -07.6611 26281.8
 18 10 2013  17 11  -21.0347 26047.0 -03503.6 -07.6608 26281.6
 18 10 2013  17 12  -21.0349 26046.8 -03503.4 -07.6605 26281.3
 18 10 2013  17 13  -21.0350 26046.8 -03503.4 -07.6605 26281.3
 18 10 2013  17 14  -21.0350 26046.8 -03503.3 -07.6603 26281.3
 18 10 2013  17 15  -21.0352 26046.6 -03503.2 -07.6601 26281.1
 18 10 2013  17 16  -21.0354 26046.7 -03503.1 -07.6600 26281.2
 18 10 2013  17 17  -21.0355 26046.6 -03503.0 -07.6597 26281.1
 18 10 2013  17 18  -21.0357 26046.6 -03502.9 -07.6596 26281.1
 18 10 2013  17 19  -21.0359 26046.4 -03502.7 -07.6592 26280.9
 18 10 2013  17 20  -21.0361 26046.1 -03502.5 -07.6588 26280.5
 18 10 2013  17 21  -21.0361 26045.6 -03502.2 -07.6584 26280.0
 18 10 2013  17 22  -21.0362 26045.1 -03502.0 -07.6581 26279.5
 18 10 2013  17 23  -21.0361 26044.8 -03501.9 -07.6578 26279.2
 18 10 2013  17 24  -21.0360 26044.5 -03501.8 -07.6577 26278.8
 18 10 2013  17 25  -21.0361 26044.3 -03501.7 -07.6577 26278.7
 18 10 2013  17 26  -21.0361 26044.3 -03501.7 -07.6576 26278.7
 18 10 2013  17 27  -21.0363 26044.3 -03501.6 -07.6574 26278.6
 18 10 2013  17 28  -21.0363 26044.2 -03501.6 -07.6573 26278.6
 18 10 2013  17 29  -21.0363 26044.2 -03501.5 -07.6572 26278.5
 18 10 2013  17 30  -21.0364 26044.1 -03501.3 -07.6568 26278.4
 18 10 2013  17 31  -21.0363 26043.8 -03501.1 -07.6565 26278.1
 18 10 2013  17 32  -21.0361 26043.5 -03501.0 -07.6563 26277.7
 18 10 2013  17 33  -21.0361 26043.2 -03500.9 -07.6561 26277.5
 18 10 2013  17 34  -21.0361 26043.0 -03500.7 -07.6559 26277.3
 18 10 2013  17 35  -21.0362 26043.0 -03500.7 -07.6559 26277.3
 18 10 2013  17 36  -21.0363 26042.9 -03500.7 -07.6557 26277.2
 18 10 2013  17 37  -21.0365 26042.8 -03500.5 -07.6555 26277.0
 18 10 2013  17 38  -21.0366 26042.6 -03500.5 -07.6554 26276.8
 18 10 2013  17 39  -21.0364 26042.5 -03500.4 -07.6552 26276.7
 18 10 2013  17 40  -21.0364 26042.2 -03500.2 -07.6550 26276.3
 18 10 2013  17 41  -21.0364 26042.0 -03500.2 -07.6549 26276.2
 18 10 2013  17 42  -21.0363 26041.7 -03500.1 -07.6548 26275.9
 18 10 2013  17 43  -21.0365 26041.5 -03500.0 -07.6547 26275.6
 18 10 2013  17 44  -21.0365 26041.3 -03499.9 -07.6546 26275.5
 18 10 2013  17 45  -21.0367 26041.2 -03499.8 -07.6544 26275.3
 18 10 2013  17 46  -21.0368 26041.0 -03499.7 -07.6542 26275.1
 18 10 2013  17 47  -21.0367 26040.9 -03499.6 -07.6539 26275.0
 18 10 2013  17 48  -21.0367 26040.8 -03499.5 -07.6539 26274.9
 18 10 2013  17 49  -21.0366 26040.7 -03499.4 -07.6537 26274.7
 18 10 2013  17 50  -21.0364 26040.6 -03499.3 -07.6535 26274.6
 18 10 2013  17 51  -21.0365 26040.6 -03499.3 -07.6534 26274.7
 18 10 2013  17 52  -21.0365 26040.6 -03499.1 -07.6531 26274.7
 18 10 2013  17 53  -21.0367 26040.7 -03499.1 -07.6529 26274.7
 18 10 2013  17 54  -21.0368 26040.6 -03498.9 -07.6526 26274.6
 18 10 2013  17 55  -21.0368 26040.5 -03498.7 -07.6523 26274.5
 18 10 2013  17 56  -21.0369 26040.3 -03498.6 -07.6520 26274.2
 18 10 2013  17 57  -21.0371 26040.1 -03498.4 -07.6518 26274.1
 18 10 2013  17 58  -21.0373 26040.1 -03498.4 -07.6516 26274.1
 18 10 2013  17 59  -21.0376 26040.3 -03498.3 -07.6514 26274.2
 18 10 2013  18 00  -21.0378 26040.3 -03498.2 -07.6511 26274.2
 18 10 2013  18 01  -21.0380 26040.3 -03498.0 -07.6508 26274.2
 18 10 2013  18 02  -21.0381 26040.3 -03497.9 -07.6505 26274.2
 18 10 2013  18 03  -21.0382 26040.0 -03497.7 -07.6501 26273.9
 18 10 2013  18 04  -21.0381 26039.9 -03497.5 -07.6497 26273.8
 18 10 2013  18 05  -21.0382 26039.9 -03497.3 -07.6494 26273.7
 18 10 2013  18 06  -21.0383 26039.7 -03497.2 -07.6491 26273.5
 18 10 2013  18 07  -21.0384 26039.5 -03497.0 -07.6488 26273.3
 18 10 2013  18 08  -21.0385 26039.6 -03496.9 -07.6486 26273.4
 18 10 2013  18 09  -21.0386 26039.4 -03496.7 -07.6482 26273.1
 18 10 2013  18 10  -21.0390 26039.4 -03496.6 -07.6479 26273.1
 18 10 2013  18 11  -21.0391 26039.4 -03496.4 -07.6476 26273.1
 18 10 2013  18 12  -21.0390 26039.2 -03496.2 -07.6472 26272.9
 18 10 2013  18 13  -21.0390 26039.1 -03496.0 -07.6467 26272.7
 18 10 2013  18 14  -21.0391 26039.0 -03495.8 -07.6464 26272.6
 18 10 2013  18 15  -21.0391 26038.7 -03495.6 -07.6461 26272.3
 18 10 2013  18 16  -21.0391 26038.6 -03495.5 -07.6457 26272.2
 18 10 2013  18 17  -21.0391 26038.5 -03495.3 -07.6454 26272.0
 18 10 2013  18 18  -21.0391 26038.5 -03495.2 -07.6451 26272.0
 18 10 2013  18 19  -21.0393 26038.4 -03495.0 -07.6448 26272.0
 18 10 2013  18 20  -21.0395 26038.4 -03494.9 -07.6445 26271.9
 18 10 2013  18 21  -21.0396 26038.5 -03494.7 -07.6442 26271.9
 18 10 2013  18 22  -21.0397 26038.5 -03494.6 -07.6439 26271.9
 18 10 2013  18 23  -21.0399 26038.4 -03494.4 -07.6435 26271.8
 18 10 2013  18 24  -21.0400 26038.4 -03494.3 -07.6433 26271.8
 18 10 2013  18 25  -21.0402 26038.3 -03494.1 -07.6430 26271.7
 18 10 2013  18 26  -21.0403 26038.3 -03493.9 -07.6425 26271.6
 18 10 2013  18 27  -21.0405 26038.2 -03493.7 -07.6421 26271.5
 18 10 2013  18 28  -21.0403 26038.0 -03493.5 -07.6417 26271.4
 18 10 2013  18 29  -21.0403 26037.8 -03493.3 -07.6413 26271.1
 18 10 2013  18 30  -21.0403 26037.7 -03493.1 -07.6409 26271.0
 18 10 2013  18 31  -21.0404 26037.7 -03492.9 -07.6405 26271.0
 18 10 2013  18 32  -21.0403 26037.8 -03492.8 -07.6402 26271.0
 18 10 2013  18 33  -21.0401 26037.6 -03492.5 -07.6397 26270.8
 18 10 2013  18 34  -21.0398 26037.5 -03492.3 -07.6393 26270.6
 18 10 2013  18 35  -21.0397 26037.4 -03492.1 -07.6388 26270.5
 18 10 2013  18 36  -21.0395 26037.3 -03491.9 -07.6385 26270.4
 18 10 2013  18 37  -21.0391 26037.2 -03491.7 -07.6381 26270.3
 18 10 2013  18 38  -21.0387 26037.1 -03491.5 -07.6376 26270.1
 18 10 2013  18 39  -21.0384 26037.0 -03491.3 -07.6372 26270.1
 18 10 2013  18 40  -21.0381 26036.8 -03491.1 -07.6369 26269.8
 18 10 2013  18 41  -21.0377 26036.7 -03490.9 -07.6365 26269.7
 18 10 2013  18 42  -21.0373 26036.7 -03490.8 -07.6362 26269.7
 18 10 2013  18 43  -21.0371 26036.6 -03490.7 -07.6359 26269.6
 18 10 2013  18 44  -21.0368 26036.5 -03490.5 -07.6356 26269.4
 18 10 2013  18 45  -21.0365 26036.5 -03490.3 -07.6353 26269.4
 18 10 2013  18 46  -21.0363 26036.4 -03490.2 -07.6350 26269.3
 18 10 2013  18 47  -21.0361 26036.3 -03490.1 -07.6347 26269.2
 18 10 2013  18 48  -21.0359 26036.2 -03489.9 -07.6345 26269.1
 18 10 2013  18 49  -21.0357 26036.0 -03489.8 -07.6343 26268.9
 18 10 2013  18 50  -21.0355 26035.9 -03489.7 -07.6341 26268.7
 18 10 2013  18 51  -21.0354 26035.9 -03489.6 -07.6339 26268.7
 18 10 2013  18 52  -21.0352 26035.8 -03489.5 -07.6337 26268.6
 18 10 2013  18 53  -21.0351 26035.8 -03489.5 -07.6336 26268.6
 18 10 2013  18 54  -21.0348 26035.8 -03489.4 -07.6335 26268.6
 18 10 2013  18 55  -21.0347 26035.7 -03489.3 -07.6333 26268.5
 18 10 2013  18 56  -21.0344 26035.6 -03489.2 -07.6331 26268.4
 18 10 2013  18 57  -21.0342 26035.6 -03489.2 -07.6330 26268.4
 18 10 2013  18 58  -21.0341 26035.6 -03489.2 -07.6330 26268.3
 18 10 2013  18 59  -21.0340 26035.5 -03489.1 -07.6328 26268.3
 18 10 2013  19 00  -21.0339 26035.5 -03489.0 -07.6327 26268.2
 18 10 2013  19 01  -21.0338 26035.4 -03488.9 -07.6325 26268.1
 18 10 2013  19 02  -21.0337 26035.3 -03488.8 -07.6324 26268.0
 18 10 2013  19 03  -21.0336 26035.2 -03488.8 -07.6323 26267.9
 18 10 2013  19 04  -21.0335 26035.1 -03488.7 -07.6322 26267.8
 18 10 2013  19 05  -21.0335 26035.0 -03488.7 -07.6321 26267.7
 18 10 2013  19 06  -21.0334 26035.0 -03488.6 -07.6320 26267.7
 18 10 2013  19 07  -21.0333 26035.0 -03488.6 -07.6319 26267.7
 18 10 2013  19 08  -21.0332 26035.0 -03488.6 -07.6319 26267.7
 18 10 2013  19 09  -21.0332 26035.0 -03488.6 -07.6319 26267.6
 18 10 2013  19 10  -21.0330 26035.0 -03488.5 -07.6318 26267.6
 18 10 2013  19 11  -21.0329 26034.9 -03488.5 -07.6318 26267.6
 18 10 2013  19 12  -21.0330 26034.8 -03488.5 -07.6317 26267.5
 18 10 2013  19 13  -21.0329 26034.7 -03488.4 -07.6316 26267.4
 18 10 2013  19 14  -21.0329 26034.8 -03488.4 -07.6316 26267.4
 18 10 2013  19 15  -21.0328 26034.7 -03488.4 -07.6315 26267.4
 18 10 2013  19 16  -21.0326 26034.6 -03488.3 -07.6315 26267.3
 18 10 2013  19 17  -21.0325 26034.7 -03488.3 -07.6314 26267.3
 18 10 2013  19 18  -21.0325 26034.7 -03488.3 -07.6314 26267.4
 18 10 2013  19 19  -21.0325 26034.5 -03488.2 -07.6313 26267.1
 18 10 2013  19 20  -21.0322 26034.4 -03488.2 -07.6312 26267.1
 18 10 2013  19 21  -21.0321 26034.1 -03488.1 -07.6311 26266.8
 18 10 2013  19 22  -21.0320 26034.3 -03488.1 -07.6311 26266.9
 18 10 2013  19 23  -21.0318 26034.2 -03488.1 -07.6310 26266.8
 18 10 2013  19 24  -21.0318 26033.7 -03487.9 -07.6307 26266.3
 18 10 2013  19 25  -21.0314 26033.7 -03487.9 -07.6307 26266.3
 18 10 2013  19 26  -21.0314 26033.6 -03487.8 -07.6307 26266.2
 18 10 2013  19 27  -21.0313 26033.4 -03487.8 -07.6307 26266.0
 18 10 2013  19 28  -21.0309 26033.1 -03487.6 -07.6304 26265.7
 18 10 2013  19 29  -21.0308 26033.0 -03487.6 -07.6304 26265.6
 18 10 2013  19 30  -21.0306 26033.2 -03487.7 -07.6305 26265.7
 18 10 2013  19 31  -21.0305 26032.9 -03487.6 -07.6305 26265.5
 18 10 2013  19 32  -21.0303 26032.9 -03487.6 -07.6305 26265.4
 18 10 2013  19 33  -21.0302 26032.8 -03487.6 -07.6305 26265.4
 18 10 2013  19 34  -21.0299 26032.8 -03487.7 -07.6306 26265.4
 18 10 2013  19 35  -21.0295 26032.9 -03487.8 -07.6308 26265.5
 18 10 2013  19 36  -21.0293 26032.9 -03487.8 -07.6309 26265.5
 18 10 2013  19 37  -21.0290 26033.0 -03487.9 -07.6311 26265.6
 18 10 2013  19 38  -21.0287 26032.9 -03488.0 -07.6312 26265.5
 18 10 2013  19 39  -21.0284 26032.9 -03488.1 -07.6314 26265.6
 18 10 2013  19 40  -21.0281 26033.1 -03488.2 -07.6316 26265.7
 18 10 2013  19 41  -21.0279 26033.2 -03488.4 -07.6320 26265.9
 18 10 2013  19 42  -21.0277 26033.5 -03488.6 -07.6323 26266.2
 18 10 2013  19 43  -21.0277 26033.3 -03488.6 -07.6325 26266.1
 18 10 2013  19 44  -21.0274 26033.5 -03488.7 -07.6327 26266.2
 18 10 2013  19 45  -21.0272 26033.7 -03488.9 -07.6329 26266.4
 18 10 2013  19 46  -21.0270 26033.8 -03489.0 -07.6333 26266.6
 18 10 2013  19 47  -21.0269 26033.9 -03489.2 -07.6336 26266.7
 18 10 2013  19 48  -21.0267 26034.0 -03489.3 -07.6337 26266.8
 18 10 2013  19 49  -21.0265 26034.1 -03489.4 -07.6340 26266.9
 18 10 2013  19 50  -21.0261 26034.3 -03489.6 -07.6344 26267.1
 18 10 2013  19 51  -21.0258 26034.6 -03489.8 -07.6347 26267.4
 18 10 2013  19 52  -21.0257 26034.9 -03490.1 -07.6351 26267.8
 18 10 2013  19 53  -21.0255 26035.0 -03490.2 -07.6353 26267.9
 18 10 2013  19 54  -21.0253 26035.3 -03490.3 -07.6356 26268.2
 18 10 2013  19 55  -21.0250 26035.6 -03490.5 -07.6360 26268.5
 18 10 2013  19 56  -21.0248 26035.8 -03490.7 -07.6362 26268.8
 18 10 2013  19 57  -21.0246 26036.1 -03490.8 -07.6365 26269.1
 18 10 2013  19 58  -21.0244 26036.4 -03491.0 -07.6368 26269.4
 18 10 2013  19 59  -21.0243 26036.9 -03491.3 -07.6372 26269.9
 18 10 2013  20 00  -21.0242 26037.6 -03491.6 -07.6377 26270.6
 18 10 2013  20 01  -21.0242 26038.0 -03491.8 -07.6381 26271.1
 18 10 2013  20 02  -21.0241 26038.5 -03492.0 -07.6384 26271.6
 18 10 2013  20 03  -21.0242 26038.8 -03492.2 -07.6386 26272.0
 18 10 2013  20 04  -21.0245 26039.1 -03492.3 -07.6387 26272.2
 18 10 2013  20 05  -21.0246 26038.8 -03492.1 -07.6384 26271.9
 18 10 2013  20 06  -21.0246 26037.8 -03491.6 -07.6377 26270.9
 18 10 2013  20 07  -21.0246 26036.6 -03491.0 -07.6367 26269.6
 18 10 2013  20 08  -21.0244 26035.5 -03490.5 -07.6360 26268.4
 18 10 2013  20 09  -21.0242 26034.7 -03490.3 -07.6356 26267.6
 18 10 2013  20 10  -21.0238 26034.2 -03490.3 -07.6358 26267.2
 18 10 2013  20 11  -21.0233 26034.3 -03490.6 -07.6365 26267.3
 18 10 2013  20 12  -21.0228 26034.9 -03491.1 -07.6374 26267.9
 18 10 2013  20 13  -21.0222 26035.6 -03491.6 -07.6384 26268.7
 18 10 2013  20 14  -21.0217 26035.8 -03491.9 -07.6389 26268.9
 18 10 2013  20 15  -21.0215 26035.4 -03491.8 -07.6388 26268.5
 18 10 2013  20 16  -21.0212 26034.5 -03491.5 -07.6384 26267.6
 18 10 2013  20 17  -21.0210 26033.7 -03491.3 -07.6381 26266.8
 18 10 2013  20 18  -21.0207 26032.9 -03491.1 -07.6379 26266.0
 18 10 2013  20 19  -21.0202 26032.5 -03491.1 -07.6381 26265.5
 18 10 2013  20 20  -21.0197 26032.3 -03491.3 -07.6385 26265.3
 18 10 2013  20 21  -21.0194 26032.5 -03491.6 -07.6391 26265.6
 18 10 2013  20 22  -21.0189 26032.6 -03491.8 -07.6397 26265.7
 18 10 2013  20 23  -21.0184 26032.7 -03492.1 -07.6401 26265.9
 18 10 2013  20 24  -21.0182 26032.8 -03492.2 -07.6404 26266.0
 18 10 2013  20 25  -21.0181 26032.5 -03492.3 -07.6406 26265.7
 18 10 2013  20 26  -21.0178 26032.1 -03492.3 -07.6407 26265.3
 18 10 2013  20 27  -21.0175 26031.9 -03492.3 -07.6409 26265.1
 18 10 2013  20 28  -21.0171 26031.7 -03492.4 -07.6411 26264.9
 18 10 2013  20 29  -21.0169 26031.6 -03492.5 -07.6413 26264.8
 18 10 2013  20 30  -21.0167 26031.4 -03492.6 -07.6415 26264.6
 18 10 2013  20 31  -21.0165 26031.2 -03492.6 -07.6417 26264.5
 18 10 2013  20 32  -21.0163 26031.1 -03492.7 -07.6419 26264.4
 18 10 2013  20 33  -21.0161 26031.1 -03492.8 -07.6422 26264.4
 18 10 2013  20 34  -21.0159 26031.0 -03492.8 -07.6423 26264.3
 18 10 2013  20 35  -21.0157 26030.8 -03492.9 -07.6425 26264.1
 18 10 2013  20 36  -21.0154 26030.5 -03492.9 -07.6425 26263.8
 18 10 2013  20 37  -21.0154 26030.4 -03492.9 -07.6426 26263.7
 18 10 2013  20 38  -21.0152 26030.3 -03493.0 -07.6428 26263.6
 18 10 2013  20 39  -21.0150 26030.1 -03493.0 -07.6429 26263.4
 18 10 2013  20 40  -21.0148 26029.9 -03493.0 -07.6429 26263.2
 18 10 2013  20 41  -21.0146 26029.7 -03493.0 -07.6429 26263.0
 18 10 2013  20 42  -21.0144 26029.4 -03492.9 -07.6429 26262.7
 18 10 2013  20 43  -21.0141 26029.0 -03492.8 -07.6428 26262.3
 18 10 2013  20 44  -21.0137 26028.8 -03492.8 -07.6428 26262.1
 18 10 2013  20 45  -21.0134 26028.6 -03492.8 -07.6429 26261.9
 18 10 2013  20 46  -21.0131 26028.4 -03492.8 -07.6430 26261.7
 18 10 2013  20 47  -21.0129 26028.1 -03492.8 -07.6431 26261.5
 18 10 2013  20 48  -21.0126 26028.1 -03493.0 -07.6434 26261.4
 18 10 2013  20 49  -21.0124 26027.9 -03493.0 -07.6435 26261.2
 18 10 2013  20 50  -21.0121 26027.6 -03493.0 -07.6437 26261.0
 18 10 2013  20 51  -21.0118 26027.5 -03493.1 -07.6439 26260.9
 18 10 2013  20 52  -21.0115 26027.4 -03493.2 -07.6442 26260.8
 18 10 2013  20 53  -21.0112 26027.2 -03493.3 -07.6444 26260.6
 18 10 2013  20 54  -21.0109 26027.0 -03493.3 -07.6445 26260.4
 18 10 2013  20 55  -21.0106 26026.9 -03493.5 -07.6449 26260.3
 18 10 2013  20 56  -21.0103 26026.8 -03493.6 -07.6452 26260.2
 18 10 2013  20 57  -21.0101 26026.7 -03493.8 -07.6456 26260.1
 18 10 2013  20 58  -21.0100 26026.6 -03493.9 -07.6460 26260.1
 18 10 2013  20 59  -21.0100 26026.5 -03494.1 -07.6464 26260.0
 18 10 2013  21 00  -21.0099 26026.4 -03494.3 -07.6468 26260.0
 18 10 2013  21 01  -21.0099 26026.3 -03494.5 -07.6472 26259.9
 18 10 2013  21 02  -21.0098 26026.2 -03494.6 -07.6475 26259.8
 18 10 2013  21 03  -21.0097 26026.1 -03494.7 -07.6477 26259.6
 18 10 2013  21 04  -21.0098 26025.9 -03494.8 -07.6480 26259.5
 18 10 2013  21 05  -21.0098 26025.8 -03494.9 -07.6482 26259.4
 18 10 2013  21 06  -21.0097 26025.6 -03494.8 -07.6480 26259.2
 18 10 2013  21 07  -21.0097 26025.5 -03495.0 -07.6485 26259.1
 18 10 2013  21 08  -21.0099 26025.2 -03495.0 -07.6486 26258.8
 18 10 2013  21 09  -21.0100 26025.0 -03495.0 -07.6486 26258.6
 18 10 2013  21 10  -21.0100 26024.7 -03494.9 -07.6486 26258.4
 18 10 2013  21 11  -21.0101 26024.5 -03494.9 -07.6486 26258.1
 18 10 2013  21 12  -21.0100 26024.2 -03494.9 -07.6486 26257.8
 18 10 2013  21 13  -21.0100 26023.9 -03494.8 -07.6486 26257.5
 18 10 2013  21 14  -21.0100 26023.6 -03494.8 -07.6486 26257.2
 18 10 2013  21 15  -21.0099 26023.5 -03494.8 -07.6486 26257.1
 18 10 2013  21 16  -21.0098 26023.3 -03494.8 -07.6487 26256.9
 18 10 2013  21 17  -21.0097 26023.1 -03494.8 -07.6488 26256.8
 18 10 2013  21 18  -21.0097 26023.0 -03494.8 -07.6489 26256.6
 18 10 2013  21 19  -21.0097 26022.9 -03494.9 -07.6492 26256.5
 18 10 2013  21 20  -21.0096 26022.7 -03494.9 -07.6492 26256.4
 18 10 2013  21 21  -21.0096 26022.3 -03494.9 -07.6492 26256.0
 18 10 2013  21 22  -21.0097 26022.0 -03494.8 -07.6491 26255.6
 18 10 2013  21 23  -21.0097 26021.8 -03494.8 -07.6491 26255.5
 18 10 2013  21 24  -21.0095 26022.0 -03494.9 -07.6493 26255.6
 18 10 2013  21 25  -21.0093 26022.4 -03495.2 -07.6498 26256.1
 18 10 2013  21 26  -21.0090 26022.8 -03495.5 -07.6505 26256.5
 18 10 2013  21 27  -21.0089 26023.0 -03495.7 -07.6508 26256.7
 18 10 2013  21 28  -21.0089 26022.9 -03495.8 -07.6510 26256.7
 18 10 2013  21 29  -21.0088 26022.7 -03495.7 -07.6509 26256.4
 18 10 2013  21 30  -21.0086 26022.2 -03495.5 -07.6507 26255.9
 18 10 2013  21 31  -21.0085 26021.6 -03495.3 -07.6504 26255.3
 18 10 2013  21 32  -21.0085 26021.3 -03495.2 -07.6502 26255.0
 18 10 2013  21 33  -21.0083 26021.2 -03495.2 -07.6503 26254.9
 18 10 2013  21 34  -21.0081 26021.4 -03495.4 -07.6506 26255.1
 18 10 2013  21 35  -21.0079 26021.6 -03495.7 -07.6511 26255.4
 18 10 2013  21 36  -21.0077 26021.8 -03495.8 -07.6515 26255.6
 18 10 2013  21 37  -21.0077 26021.9 -03496.0 -07.6517 26255.7
 18 10 2013  21 38  -21.0076 26021.7 -03496.0 -07.6518 26255.5
 18 10 2013  21 39  -21.0076 26021.2 -03495.8 -07.6515 26254.9
 18 10 2013  21 40  -21.0077 26020.6 -03495.6 -07.6512 26254.3
 18 10 2013  21 41  -21.0078 26020.0 -03495.4 -07.6509 26253.7
 18 10 2013  21 42  -21.0080 26019.5 -03495.2 -07.6507 26253.2
 18 10 2013  21 43  -21.0082 26018.9 -03495.0 -07.6505 26252.6
 18 10 2013  21 44  -21.0085 26018.6 -03494.9 -07.6503 26252.3
 18 10 2013  21 45  -21.0085 26018.7 -03495.0 -07.6506 26252.4
 18 10 2013  21 46  -21.0082 26019.0 -03495.2 -07.6509 26252.7
 18 10 2013  21 47  -21.0079 26019.4 -03495.5 -07.6514 26253.2
 18 10 2013  21 48  -21.0076 26019.8 -03495.8 -07.6519 26253.5
 18 10 2013  21 49  -21.0076 26019.9 -03495.9 -07.6521 26253.7
 18 10 2013  21 50  -21.0077 26019.9 -03496.0 -07.6523 26253.7
 18 10 2013  21 51  -21.0077 26019.7 -03495.9 -07.6522 26253.5
 18 10 2013  21 52  -21.0075 26019.5 -03495.8 -07.6521 26253.3
 18 10 2013  21 53  -21.0073 26019.2 -03495.7 -07.6519 26252.9
 18 10 2013  21 54  -21.0072 26018.8 -03495.5 -07.6516 26252.6
 18 10 2013  21 55  -21.0071 26018.6 -03495.4 -07.6515 26252.4
 18 10 2013  21 56  -21.0070 26018.6 -03495.4 -07.6515 26252.4
 18 10 2013  21 57  -21.0070 26018.7 -03495.5 -07.6517 26252.4
 18 10 2013  21 58  -21.0069 26018.9 -03495.7 -07.6520 26252.7
 18 10 2013  21 59  -21.0068 26019.1 -03495.8 -07.6521 26252.9
 18 10 2013  22 00  -21.0067 26019.2 -03495.9 -07.6523 26253.0
 18 10 2013  22 01  -21.0066 26019.3 -03495.9 -07.6524 26253.1
 18 10 2013  22 02  -21.0065 26019.3 -03496.0 -07.6524 26253.1
 18 10 2013  22 03  -21.0063 26019.3 -03495.9 -07.6523 26253.1
 18 10 2013  22 04  -21.0063 26019.3 -03495.9 -07.6523 26253.1
 18 10 2013  22 05  -21.0062 26019.2 -03495.9 -07.6523 26253.0
 18 10 2013  22 06  -21.0061 26019.2 -03495.8 -07.6522 26253.0
 18 10 2013  22 07  -21.0060 26019.2 -03495.8 -07.6521 26253.0
 18 10 2013  22 08  -21.0058 26019.2 -03495.8 -07.6521 26253.0
 18 10 2013  22 09  -21.0056 26019.3 -03495.8 -07.6521 26253.1
 18 10 2013  22 10  -21.0055 26019.5 -03495.9 -07.6522 26253.2
 18 10 2013  22 11  -21.0053 26019.6 -03495.9 -07.6523 26253.4
 18 10 2013  22 12  -21.0051 26019.7 -03496.0 -07.6524 26253.5
 18 10 2013  22 13  -21.0050 26019.8 -03496.0 -07.6524 26253.6
 18 10 2013  22 14  -21.0049 26019.9 -03496.0 -07.6524 26253.7
 18 10 2013  22 15  -21.0046 26019.9 -03496.0 -07.6523 26253.7
 18 10 2013  22 16  -21.0045 26019.8 -03496.0 -07.6523 26253.6
 18 10 2013  22 17  -21.0043 26019.7 -03495.9 -07.6522 26253.5
 18 10 2013  22 18  -21.0042 26019.6 -03495.8 -07.6520 26253.3
 18 10 2013  22 19  -21.0042 26019.4 -03495.7 -07.6519 26253.2
 18 10 2013  22 20  -21.0041 26019.2 -03495.6 -07.6517 26252.9
 18 10 2013  22 21  -21.0041 26019.0 -03495.5 -07.6515 26252.8
 18 10 2013  22 22  -21.0042 26018.9 -03495.5 -07.6515 26252.7
 18 10 2013  22 23  -21.0041 26018.9 -03495.4 -07.6514 26252.6
 18 10 2013  22 24  -21.0041 26018.9 -03495.4 -07.6514 26252.6
 18 10 2013  22 25  -21.0041 26018.9 -03495.5 -07.6515 26252.6
 18 10 2013  22 26  -21.0041 26018.9 -03495.5 -07.6516 26252.7
 18 10 2013  22 27  -21.0041 26019.0 -03495.5 -07.6516 26252.7
 18 10 2013  22 28  -21.0041 26019.1 -03495.6 -07.6517 26252.8
 18 10 2013  22 29  -21.0042 26019.1 -03495.6 -07.6518 26252.9
 18 10 2013  22 30  -21.0042 26019.2 -03495.7 -07.6518 26252.9
 18 10 2013  22 31  -21.0042 26019.2 -03495.7 -07.6518 26252.9
 18 10 2013  22 32  -21.0042 26019.1 -03495.7 -07.6519 26252.9
 18 10 2013  22 33  -21.0042 26019.1 -03495.7 -07.6519 26252.9
 18 10 2013  22 34  -21.0042 26019.1 -03495.7 -07.6519 26252.9
 18 10 2013  22 35  -21.0043 26019.2 -03495.7 -07.6519 26253.0
 18 10 2013  22 36  -21.0043 26019.2 -03495.8 -07.6520 26253.0
 18 10 2013  22 37  -21.0043 26019.3 -03495.8 -07.6521 26253.1
 18 10 2013  22 38  -21.0043 26019.3 -03495.8 -07.6521 26253.1
 18 10 2013  22 39  -21.0043 26019.3 -03495.8 -07.6521 26253.1
 18 10 2013  22 40  -21.0044 26019.3 -03495.8 -07.6521 26253.1
 18 10 2013  22 41  -21.0043 26019.2 -03495.8 -07.6521 26253.0
 18 10 2013  22 42  -21.0044 26019.1 -03495.7 -07.6520 26252.9
 18 10 2013  22 43  -21.0045 26019.1 -03495.7 -07.6520 26252.9
 18 10 2013  22 44  -21.0046 26019.0 -03495.7 -07.6519 26252.8
 18 10 2013  22 45  -21.0046 26018.9 -03495.7 -07.6519 26252.7
 18 10 2013  22 46  -21.0047 26018.9 -03495.7 -07.6519 26252.7
 18 10 2013  22 47  -21.0048 26018.8 -03495.7 -07.6519 26252.6
 18 10 2013  22 48  -21.0049 26018.8 -03495.7 -07.6519 26252.6
 18 10 2013  22 49  -21.0051 26018.8 -03495.7 -07.6520 26252.5
 18 10 2013  22 50  -21.0052 26018.8 -03495.7 -07.6520 26252.5
 18 10 2013  22 51  -21.0053 26018.7 -03495.7 -07.6521 26252.5
 18 10 2013  22 52  -21.0054 26018.7 -03495.7 -07.6520 26252.4
 18 10 2013  22 53  -21.0055 26018.5 -03495.7 -07.6521 26252.3
 18 10 2013  22 54  -21.0057 26018.4 -03495.6 -07.6520 26252.2
 18 10 2013  22 55  -21.0057 26018.4 -03495.7 -07.6520 26252.2
 18 10 2013  22 56  -21.0057 26018.4 -03495.7 -07.6521 26252.2
 18 10 2013  22 57  -21.0056 26018.5 -03495.7 -07.6521 26252.2
 18 10 2013  22 58  -21.0056 26018.4 -03495.7 -07.6522 26252.2
 18 10 2013  22 59  -21.0056 26018.4 -03495.8 -07.6523 26252.2
 18 10 2013  23 00  -21.0056 26018.5 -03495.8 -07.6524 26252.3
 18 10 2013  23 01  -21.0056 26018.4 -03495.8 -07.6524 26252.2
 18 10 2013  23 02  -21.0057 26018.3 -03495.8 -07.6524 26252.1
 18 10 2013  23 03  -21.0057 26018.2 -03495.8 -07.6523 26252.0
 18 10 2013  23 04  -21.0057 26018.2 -03495.8 -07.6524 26252.0
 18 10 2013  23 05  -21.0056 26018.2 -03495.8 -07.6525 26252.0
 18 10 2013  23 06  -21.0055 26018.2 -03495.9 -07.6527 26252.0
 18 10 2013  23 07  -21.0056 26018.3 -03496.0 -07.6528 26252.1
 18 10 2013  23 08  -21.0055 26018.4 -03496.1 -07.6529 26252.2
 18 10 2013  23 09  -21.0055 26018.4 -03496.1 -07.6530 26252.2
 18 10 2013  23 10  -21.0055 26018.5 -03496.2 -07.6531 26252.3
 18 10 2013  23 11  -21.0054 26018.6 -03496.2 -07.6532 26252.5
 18 10 2013  23 12  -21.0052 26018.7 -03496.3 -07.6533 26252.6
 18 10 2013  23 13  -21.0052 26018.8 -03496.4 -07.6535 26252.7
 18 10 2013  23 14  -21.0051 26018.9 -03496.4 -07.6536 26252.8
 18 10 2013  23 15  -21.0051 26019.0 -03496.5 -07.6538 26252.9
 18 10 2013  23 16  -21.0051 26019.1 -03496.6 -07.6539 26253.0
 18 10 2013  23 17  -21.0051 26019.1 -03496.6 -07.6539 26253.0
 18 10 2013  23 18  -21.0050 26019.2 -03496.6 -07.6539 26253.1
 18 10 2013  23 19  -21.0048 26019.1 -03496.6 -07.6539 26253.0
 18 10 2013  23 20  -21.0048 26019.1 -03496.6 -07.6539 26253.0
 18 10 2013  23 21  -21.0048 26019.1 -03496.6 -07.6540 26253.0
 18 10 2013  23 22  -21.0048 26019.1 -03496.7 -07.6541 26253.0
 18 10 2013  23 23  -21.0049 26019.1 -03496.7 -07.6541 26253.0
 18 10 2013  23 24  -21.0050 26019.2 -03496.8 -07.6542 26253.1
 18 10 2013  23 25  -21.0051 26019.1 -03496.7 -07.6542 26253.0
 18 10 2013  23 26  -21.0050 26019.1 -03496.7 -07.6541 26253.0
 18 10 2013  23 27  -21.0050 26019.0 -03496.7 -07.6540 26252.9
 18 10 2013  23 28  -21.0050 26019.0 -03496.7 -07.6540 26252.9
 18 10 2013  23 29  -21.0050 26018.8 -03496.6 -07.6540 26252.7
 18 10 2013  23 30  -21.0050 26018.8 -03496.6 -07.6540 26252.7
 18 10 2013  23 31  -21.0051 26018.7 -03496.6 -07.6539 26252.6
 18 10 2013  23 32  -21.0051 26018.6 -03496.6 -07.6540 26252.5
 18 10 2013  23 33  -21.0052 26018.6 -03496.6 -07.6540 26252.5
 18 10 2013  23 34  -21.0051 26018.6 -03496.6 -07.6540 26252.5
 18 10 2013  23 35  -21.0052 26018.6 -03496.6 -07.6541 26252.5
 18 10 2013  23 36  -21.0053 26018.6 -03496.7 -07.6542 26252.6
 18 10 2013  23 37  -21.0053 26018.7 -03496.7 -07.6542 26252.6
 18 10 2013  23 38  -21.0054 26018.7 -03496.7 -07.6543 26252.6
 18 10 2013  23 39  -21.0054 26018.8 -03496.8 -07.6544 26252.7
 18 10 2013  23 40  -21.0054 26019.0 -03496.9 -07.6546 26252.9
 18 10 2013  23 41  -21.0053 26019.1 -03497.0 -07.6547 26253.1
 18 10 2013  23 42  -21.0052 26019.2 -03497.1 -07.6548 26253.2
 18 10 2013  23 43  -21.0053 26019.1 -03497.1 -07.6549 26253.1
 18 10 2013  23 44  -21.0053 26019.0 -03497.0 -07.6547 26252.9
 18 10 2013  23 45  -21.0055 26018.8 -03496.9 -07.6546 26252.7
 18 10 2013  23 46  -21.0053 26018.6 -03496.8 -07.6544 26252.6
 18 10 2013  23 47  -21.0055 26018.5 -03496.7 -07.6543 26252.4
 18 10 2013  23 48  -21.0055 26018.4 -03496.7 -07.6543 26252.3
 18 10 2013  23 49  -21.0056 26018.4 -03496.7 -07.6544 26252.3
 18 10 2013  23 50  -21.0056 26018.4 -03496.8 -07.6544 26252.3
 18 10 2013  23 51  -21.0057 26018.4 -03496.8 -07.6544 26252.3
 18 10 2013  23 52  -21.0060 26018.4 -03496.8 -07.6545 26252.3
 18 10 2013  23 53  -21.0060 26018.3 -03496.8 -07.6545 26252.2
 18 10 2013  23 54  -21.0059 26018.3 -03496.8 -07.6545 26252.2
 18 10 2013  23 55  -21.0059 26018.3 -03496.8 -07.6545 26252.2
 18 10 2013  23 56  -21.0059 26018.4 -03496.8 -07.6546 26252.3
 18 10 2013  23 57  -21.0059 26018.5 -03496.9 -07.6546 26252.4
