SAO LUIS EMBRACE-03 <049> 1 Min. Reported data

 DD MM YYYY  HH MM   D(Deg)  H(nT)   Z(nT)   I(Deg)   F(nT)

 18 02 2013  00 00  -21.0565 26030.7 -03410.5 -07.4642 26253.2
 18 02 2013  00 01  -21.0564 26030.8 -03410.5 -07.4643 26253.3
 18 02 2013  00 02  -21.0563 26030.8 -03410.6 -07.4644 26253.3
 18 02 2013  00 03  -21.0563 26030.8 -03410.5 -07.4643 26253.3
 18 02 2013  00 04  -21.0562 26030.7 -03410.5 -07.4643 26253.2
 18 02 2013  00 05  -21.0561 26030.6 -03410.5 -07.4642 26253.1
 18 02 2013  00 06  -21.0561 26030.7 -03410.4 -07.4642 26253.1
 18 02 2013  00 07  -21.0560 26030.7 -03410.4 -07.4641 26253.1
 18 02 2013  00 08  -21.0560 26030.7 -03410.4 -07.4642 26253.1
 18 02 2013  00 09  -21.0559 26030.7 -03410.5 -07.4642 26253.2
 18 02 2013  00 10  -21.0558 26030.7 -03410.5 -07.4642 26253.2
 18 02 2013  00 11  -21.0557 26030.6 -03410.4 -07.4641 26253.1
 18 02 2013  00 12  -21.0555 26030.5 -03410.4 -07.4640 26253.0
 18 02 2013  00 13  -21.0554 26030.6 -03410.4 -07.4641 26253.0
 18 02 2013  00 14  -21.0552 26030.6 -03410.5 -07.4642 26253.1
 18 02 2013  00 15  -21.0552 26030.7 -03410.5 -07.4643 26253.2
 18 02 2013  00 16  -21.0551 26030.8 -03410.6 -07.4645 26253.3
 18 02 2013  00 17  -21.0550 26030.9 -03410.7 -07.4646 26253.3
 18 02 2013  00 18  -21.0550 26030.8 -03410.6 -07.4645 26253.3
 18 02 2013  00 19  -21.0549 26030.8 -03410.6 -07.4645 26253.3
 18 02 2013  00 20  -21.0548 26030.7 -03410.6 -07.4645 26253.2
 18 02 2013  00 21  -21.0547 26030.7 -03410.7 -07.4646 26253.2
 18 02 2013  00 22  -21.0546 26030.7 -03410.7 -07.4647 26253.2
 18 02 2013  00 23  -21.0544 26030.6 -03410.7 -07.4646 26253.1
 18 02 2013  00 24  -21.0545 26030.5 -03410.6 -07.4646 26252.9
 18 02 2013  00 25  -21.0545 26030.4 -03410.6 -07.4646 26252.9
 18 02 2013  00 26  -21.0545 26030.5 -03410.7 -07.4647 26253.0
 18 02 2013  00 27  -21.0545 26030.5 -03410.8 -07.4649 26253.0
 18 02 2013  00 28  -21.0546 26030.6 -03410.8 -07.4650 26253.2
 18 02 2013  00 29  -21.0545 26030.8 -03410.9 -07.4651 26253.3
 18 02 2013  00 30  -21.0543 26031.0 -03411.0 -07.4653 26253.5
 18 02 2013  00 31  -21.0540 26031.0 -03411.1 -07.4655 26253.6
 18 02 2013  00 32  -21.0539 26031.1 -03411.1 -07.4655 26253.7
 18 02 2013  00 33  -21.0536 26031.3 -03411.2 -07.4656 26253.8
 18 02 2013  00 34  -21.0533 26031.4 -03411.3 -07.4657 26253.9
 18 02 2013  00 35  -21.0532 26031.4 -03411.3 -07.4657 26253.9
 18 02 2013  00 36  -21.0529 26031.3 -03411.2 -07.4657 26253.8
 18 02 2013  00 37  -21.0527 26031.2 -03411.2 -07.4656 26253.7
 18 02 2013  00 38  -21.0526 26030.9 -03411.1 -07.4654 26253.5
 18 02 2013  00 39  -21.0526 26030.8 -03411.0 -07.4653 26253.3
 18 02 2013  00 40  -21.0526 26030.7 -03410.9 -07.4652 26253.2
 18 02 2013  00 41  -21.0527 26030.6 -03410.9 -07.4652 26253.2
 18 02 2013  00 42  -21.0528 26030.6 -03410.9 -07.4652 26253.1
 18 02 2013  00 43  -21.0528 26030.6 -03410.9 -07.4652 26253.1
 18 02 2013  00 44  -21.0527 26030.5 -03410.9 -07.4652 26253.0
 18 02 2013  00 45  -21.0526 26030.5 -03410.9 -07.4651 26253.0
 18 02 2013  00 46  -21.0525 26030.4 -03410.9 -07.4651 26253.0
 18 02 2013  00 47  -21.0523 26030.5 -03410.9 -07.4652 26253.0
 18 02 2013  00 48  -21.0522 26030.5 -03411.0 -07.4653 26253.1
 18 02 2013  00 49  -21.0522 26030.6 -03411.0 -07.4654 26253.1
 18 02 2013  00 50  -21.0521 26030.6 -03411.0 -07.4654 26253.1
 18 02 2013  00 51  -21.0522 26030.6 -03411.0 -07.4654 26253.2
 18 02 2013  00 52  -21.0521 26030.7 -03411.1 -07.4655 26253.3
 18 02 2013  00 53  -21.0521 26030.8 -03411.1 -07.4656 26253.3
 18 02 2013  00 54  -21.0521 26030.8 -03411.1 -07.4656 26253.3
 18 02 2013  00 55  -21.0522 26030.7 -03411.1 -07.4656 26253.3
 18 02 2013  00 56  -21.0523 26030.7 -03411.1 -07.4656 26253.2
 18 02 2013  00 57  -21.0525 26030.5 -03411.0 -07.4655 26253.1
 18 02 2013  00 58  -21.0525 26030.4 -03411.0 -07.4654 26252.9
 18 02 2013  00 59  -21.0526 26030.3 -03410.9 -07.4653 26252.8
 18 02 2013  01 00  -21.0526 26030.2 -03410.9 -07.4652 26252.7
 18 02 2013  01 01  -21.0527 26030.1 -03410.8 -07.4652 26252.6
 18 02 2013  01 02  -21.0527 26030.0 -03410.8 -07.4651 26252.6
 18 02 2013  01 03  -21.0526 26030.0 -03410.8 -07.4651 26252.5
 18 02 2013  01 04  -21.0526 26029.9 -03410.8 -07.4651 26252.5
 18 02 2013  01 05  -21.0524 26029.9 -03410.8 -07.4651 26252.4
 18 02 2013  01 06  -21.0524 26029.9 -03410.8 -07.4651 26252.4
 18 02 2013  01 07  -21.0523 26029.8 -03410.8 -07.4651 26252.4
 18 02 2013  01 08  -21.0523 26029.8 -03410.8 -07.4652 26252.4
 18 02 2013  01 09  -21.0522 26029.8 -03410.8 -07.4652 26252.3
 18 02 2013  01 10  -21.0522 26029.8 -03410.8 -07.4653 26252.3
 18 02 2013  01 11  -21.0520 26029.8 -03410.9 -07.4653 26252.3
 18 02 2013  01 12  -21.0518 26029.9 -03411.0 -07.4655 26252.5
 18 02 2013  01 13  -21.0515 26030.0 -03411.1 -07.4656 26252.6
 18 02 2013  01 14  -21.0514 26030.1 -03411.1 -07.4658 26252.7
 18 02 2013  01 15  -21.0512 26030.2 -03411.2 -07.4659 26252.7
 18 02 2013  01 16  -21.0510 26030.2 -03411.2 -07.4659 26252.7
 18 02 2013  01 17  -21.0509 26030.2 -03411.2 -07.4659 26252.7
 18 02 2013  01 18  -21.0508 26030.2 -03411.2 -07.4660 26252.8
 18 02 2013  01 19  -21.0509 26030.3 -03411.3 -07.4661 26252.9
 18 02 2013  01 20  -21.0511 26030.6 -03411.4 -07.4663 26253.2
 18 02 2013  01 21  -21.0513 26030.8 -03411.5 -07.4665 26253.4
 18 02 2013  01 22  -21.0516 26031.0 -03411.6 -07.4666 26253.6
 18 02 2013  01 23  -21.0517 26031.1 -03411.7 -07.4667 26253.7
 18 02 2013  01 24  -21.0519 26031.2 -03411.7 -07.4667 26253.8
 18 02 2013  01 25  -21.0521 26031.2 -03411.7 -07.4666 26253.8
 18 02 2013  01 26  -21.0523 26031.2 -03411.6 -07.4665 26253.8
 18 02 2013  01 27  -21.0524 26031.2 -03411.6 -07.4664 26253.8
 18 02 2013  01 28  -21.0525 26031.1 -03411.5 -07.4663 26253.7
 18 02 2013  01 29  -21.0525 26031.1 -03411.5 -07.4662 26253.7
 18 02 2013  01 30  -21.0526 26031.1 -03411.4 -07.4661 26253.7
 18 02 2013  01 31  -21.0526 26031.2 -03411.4 -07.4661 26253.8
 18 02 2013  01 32  -21.0526 26031.2 -03411.4 -07.4661 26253.8
 18 02 2013  01 33  -21.0527 26031.3 -03411.4 -07.4661 26253.9
 18 02 2013  01 34  -21.0529 26031.2 -03411.4 -07.4660 26253.8
 18 02 2013  01 35  -21.0530 26031.1 -03411.3 -07.4659 26253.7
 18 02 2013  01 36  -21.0532 26031.0 -03411.2 -07.4657 26253.5
 18 02 2013  01 37  -21.0534 26030.9 -03411.1 -07.4656 26253.4
 18 02 2013  01 38  -21.0535 26030.8 -03411.1 -07.4655 26253.3
 18 02 2013  01 39  -21.0537 26030.8 -03411.1 -07.4655 26253.3
 18 02 2013  01 40  -21.0538 26030.8 -03411.1 -07.4654 26253.3
 18 02 2013  01 41  -21.0538 26030.8 -03411.1 -07.4654 26253.3
 18 02 2013  01 42  -21.0537 26030.8 -03411.1 -07.4654 26253.4
 18 02 2013  01 43  -21.0536 26030.8 -03411.1 -07.4654 26253.4
 18 02 2013  01 44  -21.0536 26030.9 -03411.0 -07.4654 26253.4
 18 02 2013  01 45  -21.0534 26030.8 -03411.0 -07.4654 26253.4
 18 02 2013  01 46  -21.0534 26030.8 -03411.0 -07.4653 26253.3
 18 02 2013  01 47  -21.0534 26030.9 -03411.0 -07.4654 26253.4
 18 02 2013  01 48  -21.0534 26030.8 -03411.0 -07.4654 26253.4
 18 02 2013  01 49  -21.0534 26030.8 -03411.0 -07.4654 26253.4
 18 02 2013  01 50  -21.0534 26030.8 -03411.0 -07.4653 26253.3
 18 02 2013  01 51  -21.0534 26030.7 -03411.0 -07.4653 26253.2
 18 02 2013  01 52  -21.0534 26030.6 -03410.9 -07.4652 26253.1
 18 02 2013  01 53  -21.0534 26030.5 -03410.8 -07.4651 26253.0
 18 02 2013  01 54  -21.0534 26030.4 -03410.8 -07.4650 26252.9
 18 02 2013  01 55  -21.0534 26030.4 -03410.8 -07.4650 26252.9
 18 02 2013  01 56  -21.0536 26030.5 -03410.8 -07.4651 26253.0
 18 02 2013  01 57  -21.0536 26030.7 -03411.0 -07.4653 26253.3
 18 02 2013  01 58  -21.0536 26031.0 -03411.1 -07.4655 26253.5
 18 02 2013  01 59  -21.0535 26031.2 -03411.2 -07.4657 26253.7
 18 02 2013  02 00  -21.0534 26031.2 -03411.2 -07.4657 26253.8
 18 02 2013  02 01  -21.0533 26031.2 -03411.2 -07.4656 26253.8
 18 02 2013  02 02  -21.0532 26031.1 -03411.1 -07.4655 26253.7
 18 02 2013  02 03  -21.0531 26030.9 -03411.0 -07.4653 26253.5
 18 02 2013  02 04  -21.0531 26030.7 -03410.9 -07.4651 26253.2
 18 02 2013  02 05  -21.0532 26030.4 -03410.7 -07.4648 26252.9
 18 02 2013  02 06  -21.0533 26030.2 -03410.6 -07.4647 26252.7
 18 02 2013  02 07  -21.0535 26030.1 -03410.6 -07.4646 26252.6
 18 02 2013  02 08  -21.0535 26030.2 -03410.6 -07.4647 26252.6
 18 02 2013  02 09  -21.0534 26030.2 -03410.7 -07.4648 26252.7
 18 02 2013  02 10  -21.0532 26030.3 -03410.7 -07.4649 26252.8
 18 02 2013  02 11  -21.0530 26030.4 -03410.8 -07.4650 26252.9
 18 02 2013  02 12  -21.0528 26030.5 -03410.8 -07.4651 26253.0
 18 02 2013  02 13  -21.0528 26030.5 -03410.9 -07.4652 26253.0
 18 02 2013  02 14  -21.0529 26030.6 -03410.9 -07.4653 26253.1
 18 02 2013  02 15  -21.0531 26030.6 -03411.0 -07.4653 26253.1
 18 02 2013  02 16  -21.0532 26030.6 -03411.0 -07.4653 26253.1
 18 02 2013  02 17  -21.0533 26030.6 -03411.0 -07.4653 26253.1
 18 02 2013  02 18  -21.0534 26030.6 -03411.0 -07.4653 26253.1
 18 02 2013  02 19  -21.0534 26030.6 -03411.0 -07.4653 26253.1
 18 02 2013  02 20  -21.0535 26030.7 -03411.0 -07.4654 26253.3
 18 02 2013  02 21  -21.0535 26030.8 -03411.1 -07.4655 26253.3
 18 02 2013  02 22  -21.0534 26030.9 -03411.1 -07.4655 26253.4
 18 02 2013  02 23  -21.0533 26030.9 -03411.1 -07.4654 26253.4
 18 02 2013  02 24  -21.0532 26030.9 -03411.1 -07.4655 26253.5
 18 02 2013  02 25  -21.0532 26030.9 -03411.1 -07.4655 26253.5
 18 02 2013  02 26  -21.0531 26031.0 -03411.1 -07.4655 26253.5
 18 02 2013  02 27  -21.0531 26031.0 -03411.1 -07.4654 26253.5
 18 02 2013  02 28  -21.0531 26031.0 -03411.1 -07.4654 26253.5
 18 02 2013  02 29  -21.0531 26031.0 -03411.1 -07.4655 26253.5
 18 02 2013  02 30  -21.0532 26031.0 -03411.1 -07.4654 26253.5
 18 02 2013  02 31  -21.0534 26031.0 -03411.1 -07.4654 26253.6
 18 02 2013  02 32  -21.0535 26031.0 -03411.1 -07.4655 26253.5
 18 02 2013  02 33  -21.0537 26031.0 -03411.1 -07.4654 26253.6
 18 02 2013  02 34  -21.0537 26031.0 -03411.1 -07.4654 26253.6
 18 02 2013  02 35  -21.0539 26031.0 -03411.1 -07.4654 26253.6
 18 02 2013  02 36  -21.0539 26031.0 -03411.0 -07.4654 26253.6
 18 02 2013  02 37  -21.0539 26031.0 -03411.0 -07.4653 26253.6
 18 02 2013  02 38  -21.0539 26031.1 -03411.0 -07.4653 26253.6
 18 02 2013  02 39  -21.0540 26031.1 -03411.0 -07.4653 26253.6
 18 02 2013  02 40  -21.0539 26031.1 -03411.0 -07.4653 26253.6
 18 02 2013  02 41  -21.0539 26031.1 -03411.0 -07.4653 26253.6
 18 02 2013  02 42  -21.0540 26031.1 -03411.0 -07.4653 26253.6
 18 02 2013  02 43  -21.0540 26031.1 -03411.0 -07.4653 26253.6
 18 02 2013  02 44  -21.0542 26031.1 -03411.0 -07.4653 26253.7
 18 02 2013  02 45  -21.0542 26031.1 -03411.1 -07.4654 26253.7
 18 02 2013  02 46  -21.0544 26031.2 -03411.1 -07.4654 26253.7
 18 02 2013  02 47  -21.0546 26031.1 -03411.1 -07.4654 26253.7
 18 02 2013  02 48  -21.0546 26031.2 -03411.0 -07.4653 26253.7
 18 02 2013  02 49  -21.0547 26031.2 -03411.1 -07.4653 26253.7
 18 02 2013  02 50  -21.0548 26031.2 -03411.1 -07.4653 26253.8
 18 02 2013  02 51  -21.0549 26031.3 -03411.1 -07.4653 26253.8
 18 02 2013  02 52  -21.0550 26031.3 -03411.1 -07.4653 26253.9
 18 02 2013  02 53  -21.0551 26031.4 -03411.1 -07.4653 26254.0
 18 02 2013  02 54  -21.0551 26031.6 -03411.1 -07.4653 26254.2
 18 02 2013  02 55  -21.0552 26031.8 -03411.2 -07.4654 26254.4
 18 02 2013  02 56  -21.0551 26032.0 -03411.2 -07.4654 26254.5
 18 02 2013  02 57  -21.0551 26032.2 -03411.2 -07.4654 26254.7
 18 02 2013  02 58  -21.0551 26032.3 -03411.2 -07.4654 26254.8
 18 02 2013  02 59  -21.0551 26032.4 -03411.2 -07.4654 26254.9
 18 02 2013  03 00  -21.0552 26032.4 -03411.2 -07.4653 26254.9
 18 02 2013  03 01  -21.0552 26032.3 -03411.1 -07.4651 26254.9
 18 02 2013  03 02  -21.0552 26032.3 -03411.0 -07.4650 26254.8
 18 02 2013  03 03  -21.0552 26032.2 -03410.9 -07.4647 26254.7
 18 02 2013  03 04  -21.0552 26032.1 -03410.8 -07.4645 26254.6
 18 02 2013  03 05  -21.0552 26032.0 -03410.7 -07.4644 26254.5
 18 02 2013  03 06  -21.0553 26032.0 -03410.7 -07.4644 26254.5
 18 02 2013  03 07  -21.0554 26032.1 -03410.7 -07.4643 26254.6
 18 02 2013  03 08  -21.0554 26032.1 -03410.7 -07.4643 26254.6
 18 02 2013  03 09  -21.0555 26032.3 -03410.7 -07.4642 26254.7
 18 02 2013  03 10  -21.0555 26032.4 -03410.8 -07.4643 26254.9
 18 02 2013  03 11  -21.0555 26032.6 -03410.8 -07.4644 26255.1
 18 02 2013  03 12  -21.0555 26032.7 -03410.8 -07.4644 26255.2
 18 02 2013  03 13  -21.0554 26032.8 -03410.8 -07.4643 26255.3
 18 02 2013  03 14  -21.0553 26032.7 -03410.7 -07.4642 26255.2
 18 02 2013  03 15  -21.0552 26032.7 -03410.6 -07.4640 26255.2
 18 02 2013  03 16  -21.0550 26032.6 -03410.6 -07.4639 26255.0
 18 02 2013  03 17  -21.0548 26032.5 -03410.5 -07.4637 26254.9
 18 02 2013  03 18  -21.0547 26032.4 -03410.4 -07.4636 26254.9
 18 02 2013  03 19  -21.0547 26032.4 -03410.4 -07.4636 26254.9
 18 02 2013  03 20  -21.0548 26032.5 -03410.5 -07.4637 26254.9
 18 02 2013  03 21  -21.0549 26032.6 -03410.5 -07.4637 26255.0
 18 02 2013  03 22  -21.0550 26032.6 -03410.6 -07.4638 26255.1
 18 02 2013  03 23  -21.0551 26032.8 -03410.6 -07.4639 26255.2
 18 02 2013  03 24  -21.0551 26032.9 -03410.6 -07.4639 26255.3
 18 02 2013  03 25  -21.0550 26033.0 -03410.6 -07.4639 26255.4
 18 02 2013  03 26  -21.0549 26033.0 -03410.6 -07.4639 26255.4
 18 02 2013  03 27  -21.0548 26033.0 -03410.6 -07.4639 26255.5
 18 02 2013  03 28  -21.0548 26033.1 -03410.6 -07.4639 26255.6
 18 02 2013  03 29  -21.0547 26033.2 -03410.7 -07.4639 26255.6
 18 02 2013  03 30  -21.0547 26033.2 -03410.7 -07.4639 26255.7
 18 02 2013  03 31  -21.0546 26033.3 -03410.7 -07.4640 26255.8
 18 02 2013  03 32  -21.0546 26033.4 -03410.7 -07.4639 26255.9
 18 02 2013  03 33  -21.0546 26033.5 -03410.7 -07.4640 26255.9
 18 02 2013  03 34  -21.0547 26033.5 -03410.7 -07.4640 26256.0
 18 02 2013  03 35  -21.0547 26033.5 -03410.7 -07.4639 26256.0
 18 02 2013  03 36  -21.0548 26033.4 -03410.7 -07.4639 26255.9
 18 02 2013  03 37  -21.0547 26033.4 -03410.6 -07.4638 26255.9
 18 02 2013  03 38  -21.0546 26033.4 -03410.6 -07.4637 26255.8
 18 02 2013  03 39  -21.0545 26033.4 -03410.5 -07.4636 26255.8
 18 02 2013  03 40  -21.0543 26033.4 -03410.6 -07.4636 26255.9
 18 02 2013  03 41  -21.0543 26033.5 -03410.6 -07.4636 26255.9
 18 02 2013  03 42  -21.0541 26033.5 -03410.6 -07.4636 26256.0
 18 02 2013  03 43  -21.0541 26033.5 -03410.6 -07.4636 26256.0
 18 02 2013  03 44  -21.0539 26033.6 -03410.5 -07.4636 26256.0
 18 02 2013  03 45  -21.0539 26033.5 -03410.5 -07.4635 26256.0
 18 02 2013  03 46  -21.0538 26033.4 -03410.5 -07.4634 26255.9
 18 02 2013  03 47  -21.0537 26033.4 -03410.4 -07.4633 26255.9
 18 02 2013  03 48  -21.0537 26033.5 -03410.4 -07.4634 26255.9
 18 02 2013  03 49  -21.0535 26033.4 -03410.4 -07.4633 26255.9
 18 02 2013  03 50  -21.0535 26033.4 -03410.3 -07.4632 26255.8
 18 02 2013  03 51  -21.0536 26033.4 -03410.3 -07.4631 26255.8
 18 02 2013  03 52  -21.0536 26033.4 -03410.4 -07.4632 26255.9
 18 02 2013  03 53  -21.0537 26033.5 -03410.4 -07.4632 26256.0
 18 02 2013  03 54  -21.0538 26033.7 -03410.5 -07.4633 26256.1
 18 02 2013  03 55  -21.0539 26033.7 -03410.5 -07.4634 26256.2
 18 02 2013  03 56  -21.0540 26033.8 -03410.5 -07.4634 26256.3
 18 02 2013  03 57  -21.0540 26033.9 -03410.5 -07.4635 26256.4
 18 02 2013  03 58  -21.0540 26034.1 -03410.6 -07.4635 26256.5
 18 02 2013  03 59  -21.0540 26034.2 -03410.6 -07.4635 26256.6
 18 02 2013  04 00  -21.0538 26034.3 -03410.6 -07.4635 26256.7
 18 02 2013  04 01  -21.0537 26034.3 -03410.6 -07.4635 26256.8
 18 02 2013  04 02  -21.0536 26034.4 -03410.6 -07.4635 26256.8
 18 02 2013  04 03  -21.0535 26034.4 -03410.6 -07.4635 26256.9
 18 02 2013  04 04  -21.0533 26034.5 -03410.6 -07.4635 26257.0
 18 02 2013  04 05  -21.0533 26034.6 -03410.6 -07.4635 26257.0
 18 02 2013  04 06  -21.0532 26034.5 -03410.6 -07.4635 26257.0
 18 02 2013  04 07  -21.0531 26034.5 -03410.6 -07.4634 26256.9
 18 02 2013  04 08  -21.0531 26034.4 -03410.5 -07.4633 26256.8
 18 02 2013  04 09  -21.0532 26034.3 -03410.5 -07.4632 26256.7
 18 02 2013  04 10  -21.0534 26034.2 -03410.5 -07.4632 26256.7
 18 02 2013  04 11  -21.0535 26034.2 -03410.4 -07.4631 26256.6
 18 02 2013  04 12  -21.0537 26034.1 -03410.4 -07.4631 26256.5
 18 02 2013  04 13  -21.0537 26034.0 -03410.4 -07.4630 26256.5
 18 02 2013  04 14  -21.0537 26034.0 -03410.4 -07.4630 26256.5
 18 02 2013  04 15  -21.0536 26034.1 -03410.4 -07.4631 26256.5
 18 02 2013  04 16  -21.0534 26034.1 -03410.4 -07.4631 26256.5
 18 02 2013  04 17  -21.0534 26034.2 -03410.5 -07.4632 26256.7
 18 02 2013  04 18  -21.0533 26034.3 -03410.5 -07.4633 26256.7
 18 02 2013  04 19  -21.0532 26034.3 -03410.6 -07.4634 26256.8
 18 02 2013  04 20  -21.0531 26034.3 -03410.6 -07.4634 26256.8
 18 02 2013  04 21  -21.0531 26034.3 -03410.6 -07.4634 26256.8
 18 02 2013  04 22  -21.0533 26034.3 -03410.6 -07.4634 26256.7
 18 02 2013  04 23  -21.0534 26034.3 -03410.6 -07.4634 26256.8
 18 02 2013  04 24  -21.0536 26034.3 -03410.6 -07.4634 26256.8
 18 02 2013  04 25  -21.0536 26034.3 -03410.6 -07.4634 26256.8
 18 02 2013  04 26  -21.0535 26034.3 -03410.6 -07.4634 26256.8
 18 02 2013  04 27  -21.0534 26034.3 -03410.6 -07.4634 26256.7
 18 02 2013  04 28  -21.0533 26034.3 -03410.6 -07.4634 26256.7
 18 02 2013  04 29  -21.0530 26034.3 -03410.6 -07.4634 26256.7
 18 02 2013  04 30  -21.0528 26034.3 -03410.6 -07.4634 26256.7
 18 02 2013  04 31  -21.0527 26034.4 -03410.6 -07.4635 26256.8
 18 02 2013  04 32  -21.0526 26034.4 -03410.7 -07.4636 26256.9
 18 02 2013  04 33  -21.0526 26034.6 -03410.8 -07.4638 26257.0
 18 02 2013  04 34  -21.0526 26034.7 -03410.9 -07.4640 26257.2
 18 02 2013  04 35  -21.0527 26034.9 -03411.0 -07.4641 26257.4
 18 02 2013  04 36  -21.0527 26035.1 -03411.0 -07.4642 26257.6
 18 02 2013  04 37  -21.0526 26035.2 -03411.1 -07.4644 26257.7
 18 02 2013  04 38  -21.0525 26035.4 -03411.2 -07.4645 26257.9
 18 02 2013  04 39  -21.0525 26035.6 -03411.3 -07.4645 26258.1
 18 02 2013  04 40  -21.0525 26035.7 -03411.3 -07.4647 26258.3
 18 02 2013  04 41  -21.0524 26035.9 -03411.4 -07.4647 26258.4
 18 02 2013  04 42  -21.0523 26036.0 -03411.4 -07.4647 26258.5
 18 02 2013  04 43  -21.0522 26036.0 -03411.4 -07.4647 26258.6
 18 02 2013  04 44  -21.0521 26036.1 -03411.4 -07.4647 26258.6
 18 02 2013  04 45  -21.0520 26036.1 -03411.4 -07.4647 26258.7
 18 02 2013  04 46  -21.0519 26036.2 -03411.4 -07.4647 26258.7
 18 02 2013  04 47  -21.0519 26036.3 -03411.4 -07.4647 26258.8
 18 02 2013  04 48  -21.0518 26036.3 -03411.4 -07.4647 26258.9
 18 02 2013  04 49  -21.0518 26036.4 -03411.5 -07.4647 26259.0
 18 02 2013  04 50  -21.0518 26036.5 -03411.5 -07.4648 26259.1
 18 02 2013  04 51  -21.0518 26036.6 -03411.5 -07.4648 26259.1
 18 02 2013  04 52  -21.0517 26036.6 -03411.5 -07.4648 26259.2
 18 02 2013  04 53  -21.0517 26036.7 -03411.5 -07.4648 26259.2
 18 02 2013  04 54  -21.0517 26036.7 -03411.5 -07.4647 26259.3
 18 02 2013  04 55  -21.0518 26036.7 -03411.5 -07.4647 26259.3
 18 02 2013  04 56  -21.0518 26036.7 -03411.5 -07.4647 26259.3
 18 02 2013  04 57  -21.0519 26036.8 -03411.5 -07.4647 26259.3
 18 02 2013  04 58  -21.0520 26036.9 -03411.5 -07.4647 26259.4
 18 02 2013  04 59  -21.0521 26036.9 -03411.5 -07.4647 26259.5
 18 02 2013  05 00  -21.0522 26037.0 -03411.5 -07.4646 26259.5
 18 02 2013  05 01  -21.0523 26037.0 -03411.5 -07.4646 26259.5
 18 02 2013  05 02  -21.0523 26037.0 -03411.5 -07.4646 26259.6
 18 02 2013  05 03  -21.0524 26037.1 -03411.4 -07.4645 26259.6
 18 02 2013  05 04  -21.0525 26037.1 -03411.4 -07.4645 26259.6
 18 02 2013  05 05  -21.0526 26037.1 -03411.4 -07.4644 26259.6
 18 02 2013  05 06  -21.0528 26037.1 -03411.4 -07.4643 26259.6
 18 02 2013  05 07  -21.0529 26037.1 -03411.3 -07.4643 26259.6
 18 02 2013  05 08  -21.0531 26037.0 -03411.3 -07.4642 26259.6
 18 02 2013  05 09  -21.0532 26037.0 -03411.3 -07.4641 26259.6
 18 02 2013  05 10  -21.0534 26037.1 -03411.2 -07.4641 26259.6
 18 02 2013  05 11  -21.0535 26037.0 -03411.2 -07.4640 26259.6
 18 02 2013  05 12  -21.0536 26037.0 -03411.2 -07.4639 26259.5
 18 02 2013  05 13  -21.0537 26037.0 -03411.1 -07.4638 26259.5
 18 02 2013  05 14  -21.0538 26037.0 -03411.1 -07.4638 26259.5
 18 02 2013  05 15  -21.0538 26037.0 -03411.0 -07.4636 26259.5
 18 02 2013  05 16  -21.0537 26037.0 -03411.0 -07.4635 26259.5
 18 02 2013  05 17  -21.0538 26037.0 -03411.0 -07.4635 26259.4
 18 02 2013  05 18  -21.0538 26037.0 -03410.9 -07.4635 26259.4
 18 02 2013  05 19  -21.0538 26037.0 -03410.9 -07.4634 26259.4
 18 02 2013  05 20  -21.0539 26037.0 -03410.9 -07.4634 26259.5
 18 02 2013  05 21  -21.0541 26037.0 -03410.9 -07.4634 26259.5
 18 02 2013  05 22  -21.0542 26037.0 -03410.9 -07.4634 26259.5
 18 02 2013  05 23  -21.0543 26037.1 -03410.9 -07.4634 26259.5
 18 02 2013  05 24  -21.0543 26037.1 -03410.9 -07.4633 26259.6
 18 02 2013  05 25  -21.0544 26037.2 -03410.9 -07.4633 26259.6
 18 02 2013  05 26  -21.0545 26037.2 -03410.9 -07.4633 26259.7
 18 02 2013  05 27  -21.0545 26037.2 -03410.9 -07.4632 26259.7
 18 02 2013  05 28  -21.0545 26037.2 -03410.8 -07.4631 26259.6
 18 02 2013  05 29  -21.0544 26037.2 -03410.7 -07.4630 26259.6
 18 02 2013  05 30  -21.0544 26037.2 -03410.7 -07.4629 26259.6
 18 02 2013  05 31  -21.0543 26037.1 -03410.7 -07.4628 26259.6
 18 02 2013  05 32  -21.0543 26037.2 -03410.6 -07.4627 26259.6
 18 02 2013  05 33  -21.0542 26037.2 -03410.6 -07.4628 26259.6
 18 02 2013  05 34  -21.0541 26037.2 -03410.6 -07.4627 26259.6
 18 02 2013  05 35  -21.0540 26037.2 -03410.6 -07.4627 26259.6
 18 02 2013  05 36  -21.0540 26037.3 -03410.6 -07.4626 26259.7
 18 02 2013  05 37  -21.0539 26037.3 -03410.6 -07.4626 26259.7
 18 02 2013  05 38  -21.0538 26037.3 -03410.6 -07.4626 26259.7
 18 02 2013  05 39  -21.0537 26037.3 -03410.6 -07.4626 26259.7
 18 02 2013  05 40  -21.0535 26037.4 -03410.6 -07.4626 26259.8
 18 02 2013  05 41  -21.0535 26037.4 -03410.6 -07.4626 26259.8
 18 02 2013  05 42  -21.0534 26037.4 -03410.6 -07.4625 26259.8
 18 02 2013  05 43  -21.0534 26037.4 -03410.5 -07.4624 26259.8
 18 02 2013  05 44  -21.0533 26037.4 -03410.5 -07.4625 26259.8
 18 02 2013  05 45  -21.0532 26037.4 -03410.5 -07.4624 26259.8
 18 02 2013  05 46  -21.0530 26037.4 -03410.5 -07.4624 26259.8
 18 02 2013  05 47  -21.0529 26037.5 -03410.6 -07.4625 26259.9
 18 02 2013  05 48  -21.0529 26037.6 -03410.6 -07.4625 26260.0
 18 02 2013  05 49  -21.0527 26037.7 -03410.6 -07.4626 26260.1
 18 02 2013  05 50  -21.0525 26037.7 -03410.6 -07.4626 26260.2
 18 02 2013  05 51  -21.0524 26037.7 -03410.6 -07.4625 26260.1
 18 02 2013  05 52  -21.0524 26037.6 -03410.6 -07.4625 26260.0
 18 02 2013  05 53  -21.0524 26037.7 -03410.6 -07.4625 26260.1
 18 02 2013  05 54  -21.0523 26037.7 -03410.6 -07.4625 26260.1
 18 02 2013  05 55  -21.0524 26037.7 -03410.6 -07.4625 26260.1
 18 02 2013  05 56  -21.0524 26037.7 -03410.6 -07.4625 26260.1
 18 02 2013  05 57  -21.0524 26037.7 -03410.6 -07.4625 26260.1
 18 02 2013  05 58  -21.0522 26037.7 -03410.6 -07.4625 26260.1
 18 02 2013  05 59  -21.0521 26037.7 -03410.6 -07.4624 26260.1
 18 02 2013  06 00  -21.0521 26037.7 -03410.6 -07.4625 26260.1
 18 02 2013  06 01  -21.0522 26037.8 -03410.6 -07.4625 26260.2
 18 02 2013  06 02  -21.0522 26037.8 -03410.7 -07.4626 26260.3
 18 02 2013  06 03  -21.0521 26037.8 -03410.7 -07.4626 26260.2
 18 02 2013  06 04  -21.0521 26037.7 -03410.6 -07.4625 26260.1
 18 02 2013  06 05  -21.0521 26037.6 -03410.5 -07.4624 26260.0
 18 02 2013  06 06  -21.0522 26037.5 -03410.5 -07.4624 26259.9
 18 02 2013  06 07  -21.0523 26037.4 -03410.5 -07.4624 26259.9
 18 02 2013  06 08  -21.0524 26037.4 -03410.5 -07.4624 26259.9
 18 02 2013  06 09  -21.0525 26037.5 -03410.5 -07.4624 26259.9
 18 02 2013  06 10  -21.0526 26037.4 -03410.6 -07.4625 26259.9
 18 02 2013  06 11  -21.0527 26037.4 -03410.6 -07.4625 26259.8
 18 02 2013  06 12  -21.0527 26037.4 -03410.6 -07.4625 26259.8
 18 02 2013  06 13  -21.0527 26037.4 -03410.5 -07.4624 26259.8
 18 02 2013  06 14  -21.0527 26037.3 -03410.5 -07.4624 26259.8
 18 02 2013  06 15  -21.0527 26037.3 -03410.5 -07.4624 26259.7
 18 02 2013  06 16  -21.0526 26037.3 -03410.5 -07.4624 26259.8
 18 02 2013  06 17  -21.0525 26037.3 -03410.5 -07.4624 26259.7
 18 02 2013  06 18  -21.0524 26037.3 -03410.5 -07.4624 26259.7
 18 02 2013  06 19  -21.0523 26037.3 -03410.5 -07.4624 26259.7
 18 02 2013  06 20  -21.0522 26037.3 -03410.5 -07.4625 26259.7
 18 02 2013  06 21  -21.0522 26037.3 -03410.6 -07.4625 26259.7
 18 02 2013  06 22  -21.0521 26037.3 -03410.6 -07.4626 26259.7
 18 02 2013  06 23  -21.0520 26037.4 -03410.6 -07.4626 26259.8
 18 02 2013  06 24  -21.0519 26037.4 -03410.6 -07.4627 26259.8
 18 02 2013  06 25  -21.0519 26037.4 -03410.7 -07.4628 26259.9
 18 02 2013  06 26  -21.0518 26037.4 -03410.7 -07.4628 26259.9
 18 02 2013  06 27  -21.0518 26037.4 -03410.7 -07.4629 26259.9
 18 02 2013  06 28  -21.0517 26037.4 -03410.8 -07.4629 26259.9
 18 02 2013  06 29  -21.0516 26037.4 -03410.8 -07.4630 26259.9
 18 02 2013  06 30  -21.0515 26037.4 -03410.8 -07.4630 26259.9
 18 02 2013  06 31  -21.0514 26037.4 -03410.8 -07.4631 26259.9
 18 02 2013  06 32  -21.0512 26037.4 -03410.8 -07.4631 26259.9
 18 02 2013  06 33  -21.0511 26037.4 -03410.8 -07.4631 26259.8
 18 02 2013  06 34  -21.0510 26037.4 -03410.9 -07.4632 26259.9
 18 02 2013  06 35  -21.0510 26037.5 -03410.9 -07.4633 26259.9
 18 02 2013  06 36  -21.0509 26037.5 -03411.0 -07.4633 26259.9
 18 02 2013  06 37  -21.0508 26037.5 -03411.0 -07.4634 26260.0
 18 02 2013  06 38  -21.0508 26037.5 -03411.0 -07.4634 26260.0
 18 02 2013  06 39  -21.0508 26037.5 -03411.0 -07.4635 26260.0
 18 02 2013  06 40  -21.0507 26037.5 -03411.1 -07.4635 26260.0
 18 02 2013  06 41  -21.0507 26037.5 -03411.1 -07.4635 26260.0
 18 02 2013  06 42  -21.0508 26037.5 -03411.1 -07.4636 26260.0
 18 02 2013  06 43  -21.0509 26037.5 -03411.1 -07.4637 26260.0
 18 02 2013  06 44  -21.0510 26037.5 -03411.1 -07.4637 26260.0
 18 02 2013  06 45  -21.0510 26037.6 -03411.1 -07.4637 26260.1
 18 02 2013  06 46  -21.0511 26037.6 -03411.2 -07.4637 26260.1
 18 02 2013  06 47  -21.0511 26037.6 -03411.2 -07.4638 26260.1
 18 02 2013  06 48  -21.0512 26037.6 -03411.2 -07.4637 26260.1
 18 02 2013  06 49  -21.0512 26037.7 -03411.2 -07.4638 26260.2
 18 02 2013  06 50  -21.0512 26037.7 -03411.2 -07.4638 26260.2
 18 02 2013  06 51  -21.0512 26037.7 -03411.2 -07.4639 26260.2
 18 02 2013  06 52  -21.0512 26037.8 -03411.3 -07.4639 26260.3
 18 02 2013  06 53  -21.0510 26037.9 -03411.3 -07.4639 26260.4
 18 02 2013  06 54  -21.0510 26037.9 -03411.3 -07.4639 26260.4
 18 02 2013  06 55  -21.0510 26037.9 -03411.3 -07.4640 26260.4
 18 02 2013  06 56  -21.0510 26037.9 -03411.3 -07.4640 26260.4
 18 02 2013  06 57  -21.0510 26038.0 -03411.4 -07.4641 26260.5
 18 02 2013  06 58  -21.0511 26038.0 -03411.4 -07.4640 26260.5
 18 02 2013  06 59  -21.0511 26038.0 -03411.4 -07.4641 26260.6
 18 02 2013  07 00  -21.0511 26038.1 -03411.4 -07.4642 26260.6
 18 02 2013  07 01  -21.0512 26038.1 -03411.4 -07.4642 26260.6
 18 02 2013  07 02  -21.0512 26038.2 -03411.4 -07.4642 26260.7
 18 02 2013  07 03  -21.0512 26038.2 -03411.5 -07.4643 26260.7
 18 02 2013  07 04  -21.0513 26038.2 -03411.4 -07.4642 26260.7
 18 02 2013  07 05  -21.0513 26038.2 -03411.5 -07.4642 26260.8
 18 02 2013  07 06  -21.0512 26038.3 -03411.5 -07.4642 26260.8
 18 02 2013  07 07  -21.0512 26038.3 -03411.5 -07.4642 26260.8
 18 02 2013  07 08  -21.0512 26038.2 -03411.5 -07.4642 26260.8
 18 02 2013  07 09  -21.0512 26038.2 -03411.4 -07.4642 26260.8
 18 02 2013  07 10  -21.0512 26038.3 -03411.4 -07.4641 26260.8
 18 02 2013  07 11  -21.0513 26038.2 -03411.5 -07.4642 26260.8
 18 02 2013  07 12  -21.0513 26038.3 -03411.5 -07.4642 26260.8
 18 02 2013  07 13  -21.0513 26038.3 -03411.5 -07.4642 26260.8
 18 02 2013  07 14  -21.0513 26038.3 -03411.5 -07.4643 26260.8
 18 02 2013  07 15  -21.0513 26038.3 -03411.5 -07.4643 26260.9
 18 02 2013  07 16  -21.0513 26038.3 -03411.5 -07.4642 26260.8
 18 02 2013  07 17  -21.0513 26038.3 -03411.5 -07.4642 26260.8
 18 02 2013  07 18  -21.0513 26038.3 -03411.5 -07.4643 26260.9
 18 02 2013  07 19  -21.0513 26038.3 -03411.5 -07.4643 26260.9
 18 02 2013  07 20  -21.0515 26038.3 -03411.5 -07.4643 26260.9
 18 02 2013  07 21  -21.0515 26038.3 -03411.5 -07.4643 26260.9
 18 02 2013  07 22  -21.0515 26038.4 -03411.6 -07.4644 26260.9
 18 02 2013  07 23  -21.0515 26038.4 -03411.5 -07.4644 26260.9
 18 02 2013  07 24  -21.0515 26038.4 -03411.6 -07.4644 26260.9
 18 02 2013  07 25  -21.0515 26038.4 -03411.6 -07.4644 26260.9
 18 02 2013  07 26  -21.0514 26038.4 -03411.6 -07.4644 26260.9
 18 02 2013  07 27  -21.0514 26038.4 -03411.6 -07.4644 26260.9
 18 02 2013  07 28  -21.0515 26038.3 -03411.6 -07.4644 26260.9
 18 02 2013  07 29  -21.0515 26038.3 -03411.6 -07.4645 26260.9
 18 02 2013  07 30  -21.0516 26038.3 -03411.6 -07.4645 26260.9
 18 02 2013  07 31  -21.0516 26038.3 -03411.7 -07.4646 26260.9
 18 02 2013  07 32  -21.0517 26038.4 -03411.7 -07.4646 26260.9
 18 02 2013  07 33  -21.0517 26038.4 -03411.7 -07.4647 26260.9
 18 02 2013  07 34  -21.0517 26038.4 -03411.7 -07.4647 26260.9
 18 02 2013  07 35  -21.0518 26038.4 -03411.7 -07.4648 26260.9
 18 02 2013  07 36  -21.0518 26038.4 -03411.7 -07.4648 26260.9
 18 02 2013  07 37  -21.0518 26038.4 -03411.8 -07.4648 26260.9
 18 02 2013  07 38  -21.0518 26038.4 -03411.8 -07.4649 26261.0
 18 02 2013  07 39  -21.0518 26038.4 -03411.8 -07.4649 26260.9
 18 02 2013  07 40  -21.0518 26038.4 -03411.8 -07.4650 26260.9
 18 02 2013  07 41  -21.0518 26038.3 -03411.8 -07.4650 26260.9
 18 02 2013  07 42  -21.0518 26038.3 -03411.8 -07.4650 26260.9
 18 02 2013  07 43  -21.0519 26038.3 -03411.9 -07.4650 26260.9
 18 02 2013  07 44  -21.0520 26038.3 -03411.9 -07.4652 26260.9
 18 02 2013  07 45  -21.0520 26038.3 -03411.9 -07.4652 26260.9
 18 02 2013  07 46  -21.0521 26038.3 -03411.9 -07.4652 26260.9
 18 02 2013  07 47  -21.0521 26038.3 -03412.0 -07.4653 26260.9
 18 02 2013  07 48  -21.0521 26038.3 -03412.0 -07.4654 26260.9
 18 02 2013  07 49  -21.0521 26038.4 -03412.1 -07.4654 26261.0
 18 02 2013  07 50  -21.0522 26038.4 -03412.1 -07.4655 26261.0
 18 02 2013  07 51  -21.0524 26038.4 -03412.1 -07.4655 26261.0
 18 02 2013  07 52  -21.0527 26038.4 -03412.1 -07.4656 26261.0
 18 02 2013  07 53  -21.0526 26038.3 -03412.1 -07.4656 26261.0
 18 02 2013  07 54  -21.0526 26038.2 -03412.1 -07.4655 26260.8
 18 02 2013  07 55  -21.0526 26038.1 -03412.0 -07.4655 26260.7
 18 02 2013  07 56  -21.0530 26038.1 -03412.0 -07.4655 26260.7
 18 02 2013  07 57  -21.0532 26038.1 -03412.1 -07.4656 26260.7
 18 02 2013  07 58  -21.0533 26038.2 -03412.1 -07.4657 26260.8
 18 02 2013  07 59  -21.0534 26038.1 -03412.1 -07.4656 26260.7
 18 02 2013  08 00  -21.0535 26038.1 -03412.1 -07.4656 26260.7
 18 02 2013  08 01  -21.0536 26038.1 -03412.1 -07.4657 26260.7
 18 02 2013  08 02  -21.0537 26038.0 -03412.1 -07.4657 26260.6
 18 02 2013  08 03  -21.0537 26038.0 -03412.1 -07.4656 26260.6
 18 02 2013  08 04  -21.0537 26037.9 -03412.1 -07.4656 26260.5
 18 02 2013  08 05  -21.0538 26037.9 -03412.1 -07.4656 26260.5
 18 02 2013  08 06  -21.0538 26037.9 -03412.1 -07.4656 26260.5
 18 02 2013  08 07  -21.0539 26037.8 -03412.1 -07.4657 26260.4
 18 02 2013  08 08  -21.0540 26037.8 -03412.1 -07.4657 26260.5
 18 02 2013  08 09  -21.0540 26037.9 -03412.2 -07.4659 26260.5
 18 02 2013  08 10  -21.0541 26037.9 -03412.2 -07.4659 26260.5
 18 02 2013  08 11  -21.0542 26037.9 -03412.3 -07.4661 26260.6
 18 02 2013  08 12  -21.0541 26038.0 -03412.3 -07.4662 26260.6
 18 02 2013  08 13  -21.0541 26038.0 -03412.4 -07.4663 26260.6
 18 02 2013  08 14  -21.0541 26037.9 -03412.4 -07.4663 26260.6
 18 02 2013  08 15  -21.0540 26037.9 -03412.4 -07.4663 26260.6
 18 02 2013  08 16  -21.0540 26037.9 -03412.4 -07.4664 26260.6
 18 02 2013  08 17  -21.0541 26037.9 -03412.4 -07.4664 26260.6
 18 02 2013  08 18  -21.0543 26037.9 -03412.5 -07.4665 26260.6
 18 02 2013  08 19  -21.0544 26037.9 -03412.5 -07.4665 26260.6
 18 02 2013  08 20  -21.0545 26037.8 -03412.5 -07.4665 26260.5
 18 02 2013  08 21  -21.0545 26037.8 -03412.5 -07.4665 26260.5
 18 02 2013  08 22  -21.0546 26037.8 -03412.5 -07.4666 26260.5
 18 02 2013  08 23  -21.0546 26037.8 -03412.5 -07.4667 26260.5
 18 02 2013  08 24  -21.0547 26037.8 -03412.6 -07.4667 26260.5
 18 02 2013  08 25  -21.0548 26037.9 -03412.6 -07.4667 26260.5
 18 02 2013  08 26  -21.0549 26037.9 -03412.5 -07.4666 26260.5
 18 02 2013  08 27  -21.0550 26037.8 -03412.5 -07.4666 26260.5
 18 02 2013  08 28  -21.0550 26037.8 -03412.5 -07.4666 26260.4
 18 02 2013  08 29  -21.0551 26037.7 -03412.5 -07.4667 26260.4
 18 02 2013  08 30  -21.0552 26037.7 -03412.5 -07.4667 26260.4
 18 02 2013  08 31  -21.0554 26037.7 -03412.5 -07.4667 26260.3
 18 02 2013  08 32  -21.0555 26037.7 -03412.5 -07.4667 26260.4
 18 02 2013  08 33  -21.0555 26037.8 -03412.6 -07.4667 26260.4
 18 02 2013  08 34  -21.0556 26037.8 -03412.6 -07.4668 26260.5
 18 02 2013  08 35  -21.0557 26037.8 -03412.6 -07.4667 26260.4
 18 02 2013  08 36  -21.0559 26037.7 -03412.5 -07.4667 26260.4
 18 02 2013  08 37  -21.0561 26037.7 -03412.5 -07.4666 26260.3
 18 02 2013  08 38  -21.0562 26037.6 -03412.5 -07.4666 26260.3
 18 02 2013  08 39  -21.0562 26037.6 -03412.4 -07.4664 26260.2
 18 02 2013  08 40  -21.0561 26037.5 -03412.4 -07.4664 26260.2
 18 02 2013  08 41  -21.0561 26037.4 -03412.3 -07.4663 26260.1
 18 02 2013  08 42  -21.0561 26037.4 -03412.3 -07.4662 26260.1
 18 02 2013  08 43  -21.0561 26037.4 -03412.2 -07.4661 26260.0
 18 02 2013  08 44  -21.0560 26037.3 -03412.2 -07.4661 26259.9
 18 02 2013  08 45  -21.0560 26037.2 -03412.2 -07.4660 26259.8
 18 02 2013  08 46  -21.0560 26037.2 -03412.1 -07.4660 26259.8
 18 02 2013  08 47  -21.0560 26037.1 -03412.1 -07.4659 26259.7
 18 02 2013  08 48  -21.0560 26037.0 -03412.1 -07.4658 26259.6
 18 02 2013  08 49  -21.0558 26037.0 -03412.0 -07.4657 26259.6
 18 02 2013  08 50  -21.0557 26036.9 -03412.0 -07.4657 26259.5
 18 02 2013  08 51  -21.0556 26036.8 -03411.9 -07.4656 26259.4
 18 02 2013  08 52  -21.0553 26036.8 -03411.9 -07.4656 26259.4
 18 02 2013  08 53  -21.0551 26036.7 -03411.9 -07.4656 26259.3
 18 02 2013  08 54  -21.0547 26036.6 -03411.8 -07.4654 26259.2
 18 02 2013  08 55  -21.0544 26036.6 -03411.9 -07.4655 26259.2
 18 02 2013  08 56  -21.0540 26036.5 -03411.9 -07.4657 26259.1
 18 02 2013  08 57  -21.0535 26036.4 -03412.0 -07.4659 26259.0
 18 02 2013  08 58  -21.0528 26036.4 -03412.1 -07.4661 26259.1
 18 02 2013  08 59  -21.0523 26036.4 -03412.2 -07.4663 26259.1
 18 02 2013  09 00  -21.0520 26036.4 -03412.3 -07.4666 26259.0
 18 02 2013  09 01  -21.0516 26036.4 -03412.5 -07.4669 26259.1
 18 02 2013  09 02  -21.0514 26036.3 -03412.6 -07.4672 26259.0
 18 02 2013  09 03  -21.0508 26036.2 -03412.7 -07.4674 26258.9
 18 02 2013  09 04  -21.0505 26036.3 -03412.9 -07.4678 26259.0
 18 02 2013  09 05  -21.0504 26036.3 -03413.1 -07.4683 26259.0
 18 02 2013  09 06  -21.0503 26036.2 -03413.3 -07.4687 26258.9
 18 02 2013  09 07  -21.0501 26036.2 -03413.5 -07.4691 26259.0
 18 02 2013  09 08  -21.0503 26036.2 -03413.7 -07.4696 26259.0
 18 02 2013  09 09  -21.0503 26036.2 -03414.0 -07.4702 26259.0
 18 02 2013  09 10  -21.0503 26036.3 -03414.3 -07.4708 26259.2
 18 02 2013  09 11  -21.0505 26036.4 -03414.5 -07.4714 26259.3
 18 02 2013  09 12  -21.0508 26036.5 -03414.8 -07.4719 26259.5
 18 02 2013  09 13  -21.0513 26036.6 -03415.1 -07.4725 26259.6
 18 02 2013  09 14  -21.0518 26036.7 -03415.3 -07.4730 26259.7
 18 02 2013  09 15  -21.0523 26036.8 -03415.5 -07.4734 26259.9
 18 02 2013  09 16  -21.0531 26037.0 -03415.8 -07.4739 26260.1
 18 02 2013  09 17  -21.0538 26037.2 -03416.1 -07.4745 26260.3
 18 02 2013  09 18  -21.0545 26037.3 -03416.3 -07.4749 26260.5
 18 02 2013  09 19  -21.0550 26037.4 -03416.4 -07.4752 26260.6
 18 02 2013  09 20  -21.0557 26037.6 -03416.7 -07.4757 26260.8
 18 02 2013  09 21  -21.0564 26037.8 -03416.9 -07.4761 26261.0
 18 02 2013  09 22  -21.0571 26037.9 -03417.0 -07.4764 26261.1
 18 02 2013  09 23  -21.0575 26037.9 -03417.1 -07.4766 26261.2
 18 02 2013  09 24  -21.0582 26038.0 -03417.2 -07.4768 26261.3
 18 02 2013  09 25  -21.0588 26038.1 -03417.4 -07.4771 26261.4
 18 02 2013  09 26  -21.0594 26038.3 -03417.6 -07.4774 26261.6
 18 02 2013  09 27  -21.0600 26038.5 -03417.7 -07.4777 26261.9
 18 02 2013  09 28  -21.0607 26038.7 -03417.9 -07.4780 26262.1
 18 02 2013  09 29  -21.0614 26038.8 -03418.0 -07.4781 26262.2
 18 02 2013  09 30  -21.0621 26039.0 -03418.1 -07.4784 26262.4
 18 02 2013  09 31  -21.0630 26039.2 -03418.3 -07.4787 26262.6
 18 02 2013  09 32  -21.0639 26039.3 -03418.4 -07.4789 26262.7
 18 02 2013  09 33  -21.0649 26039.5 -03418.5 -07.4790 26262.9
 18 02 2013  09 34  -21.0656 26039.6 -03418.5 -07.4791 26263.0
 18 02 2013  09 35  -21.0665 26039.8 -03418.6 -07.4793 26263.2
 18 02 2013  09 36  -21.0674 26039.9 -03418.7 -07.4795 26263.4
 18 02 2013  09 37  -21.0683 26040.0 -03418.8 -07.4796 26263.5
 18 02 2013  09 38  -21.0690 26040.0 -03418.8 -07.4797 26263.5
 18 02 2013  09 39  -21.0699 26039.9 -03418.8 -07.4796 26263.4
 18 02 2013  09 40  -21.0709 26040.0 -03418.8 -07.4797 26263.4
 18 02 2013  09 41  -21.0715 26039.9 -03418.9 -07.4798 26263.4
 18 02 2013  09 42  -21.0718 26039.5 -03418.8 -07.4797 26263.0
 18 02 2013  09 43  -21.0725 26039.4 -03418.8 -07.4798 26262.8
 18 02 2013  09 44  -21.0737 26039.4 -03418.9 -07.4800 26262.9
 18 02 2013  09 45  -21.0748 26039.6 -03419.0 -07.4801 26263.1
 18 02 2013  09 46  -21.0760 26040.0 -03419.2 -07.4804 26263.5
 18 02 2013  09 47  -21.0770 26040.4 -03419.4 -07.4807 26263.9
 18 02 2013  09 48  -21.0778 26040.6 -03419.5 -07.4809 26264.2
 18 02 2013  09 49  -21.0784 26040.8 -03419.5 -07.4809 26264.3
 18 02 2013  09 50  -21.0789 26040.8 -03419.5 -07.4809 26264.4
 18 02 2013  09 51  -21.0797 26040.8 -03419.5 -07.4808 26264.3
 18 02 2013  09 52  -21.0805 26040.8 -03419.5 -07.4809 26264.3
 18 02 2013  09 53  -21.0813 26040.8 -03419.5 -07.4809 26264.3
 18 02 2013  09 54  -21.0821 26040.9 -03419.6 -07.4811 26264.4
 18 02 2013  09 55  -21.0830 26041.0 -03419.7 -07.4812 26264.6
 18 02 2013  09 56  -21.0839 26041.3 -03419.8 -07.4814 26264.8
 18 02 2013  09 57  -21.0849 26041.4 -03419.9 -07.4815 26265.0
 18 02 2013  09 58  -21.0856 26041.5 -03419.9 -07.4815 26265.1
 18 02 2013  09 59  -21.0864 26041.5 -03419.9 -07.4815 26265.1
 18 02 2013  10 00  -21.0873 26041.6 -03419.9 -07.4815 26265.2
 18 02 2013  10 01  -21.0878 26041.5 -03419.9 -07.4815 26265.1
 18 02 2013  10 02  -21.0886 26041.8 -03420.0 -07.4818 26265.4
 18 02 2013  10 03  -21.0893 26042.0 -03420.2 -07.4820 26265.6
 18 02 2013  10 04  -21.0903 26042.4 -03420.3 -07.4821 26266.0
 18 02 2013  10 05  -21.0913 26042.7 -03420.4 -07.4823 26266.4
 18 02 2013  10 06  -21.0921 26043.1 -03420.5 -07.4824 26266.7
 18 02 2013  10 07  -21.0925 26043.2 -03420.5 -07.4823 26266.9
 18 02 2013  10 08  -21.0934 26043.5 -03420.5 -07.4822 26267.2
 18 02 2013  10 09  -21.0951 26044.1 -03420.6 -07.4823 26267.8
 18 02 2013  10 10  -21.0964 26044.6 -03420.6 -07.4822 26268.2
 18 02 2013  10 11  -21.0971 26044.6 -03420.4 -07.4818 26268.2
 18 02 2013  10 12  -21.0976 26044.5 -03420.3 -07.4814 26268.2
 18 02 2013  10 13  -21.0980 26044.5 -03420.1 -07.4812 26268.1
 18 02 2013  10 14  -21.0986 26044.5 -03420.0 -07.4810 26268.1
 18 02 2013  10 15  -21.0993 26044.6 -03420.0 -07.4808 26268.2
 18 02 2013  10 16  -21.1001 26044.7 -03420.0 -07.4808 26268.3
 18 02 2013  10 17  -21.1009 26044.8 -03420.0 -07.4807 26268.4
 18 02 2013  10 18  -21.1015 26044.9 -03419.9 -07.4807 26268.5
 18 02 2013  10 19  -21.1022 26045.0 -03419.9 -07.4805 26268.5
 18 02 2013  10 20  -21.1026 26045.0 -03419.8 -07.4803 26268.6
 18 02 2013  10 21  -21.1030 26045.0 -03419.7 -07.4802 26268.5
 18 02 2013  10 22  -21.1032 26045.0 -03419.7 -07.4802 26268.5
 18 02 2013  10 23  -21.1035 26045.0 -03419.8 -07.4802 26268.5
 18 02 2013  10 24  -21.1040 26045.1 -03419.8 -07.4803 26268.6
 18 02 2013  10 25  -21.1046 26045.2 -03419.9 -07.4804 26268.8
 18 02 2013  10 26  -21.1052 26045.5 -03419.9 -07.4805 26269.1
 18 02 2013  10 27  -21.1057 26045.7 -03420.0 -07.4805 26269.3
 18 02 2013  10 28  -21.1062 26046.0 -03420.0 -07.4805 26269.6
 18 02 2013  10 29  -21.1066 26046.2 -03420.1 -07.4805 26269.8
 18 02 2013  10 30  -21.1077 26046.7 -03420.1 -07.4806 26270.3
 18 02 2013  10 31  -21.1085 26047.1 -03420.1 -07.4805 26270.7
 18 02 2013  10 32  -21.1091 26047.3 -03420.0 -07.4801 26270.9
 18 02 2013  10 33  -21.1096 26047.5 -03419.9 -07.4798 26271.0
 18 02 2013  10 34  -21.1104 26047.7 -03419.8 -07.4795 26271.2
 18 02 2013  10 35  -21.1107 26047.9 -03419.7 -07.4794 26271.4
 18 02 2013  10 36  -21.1111 26047.9 -03419.6 -07.4791 26271.4
 18 02 2013  10 37  -21.1113 26048.1 -03419.6 -07.4789 26271.6
 18 02 2013  10 38  -21.1119 26048.5 -03419.6 -07.4790 26272.0
 18 02 2013  10 39  -21.1124 26049.0 -03419.7 -07.4790 26272.5
 18 02 2013  10 40  -21.1131 26049.4 -03419.7 -07.4789 26273.0
 18 02 2013  10 41  -21.1137 26049.6 -03419.7 -07.4787 26273.1
 18 02 2013  10 42  -21.1139 26049.5 -03419.5 -07.4784 26273.0
 18 02 2013  10 43  -21.1142 26049.6 -03419.4 -07.4783 26273.0
 18 02 2013  10 44  -21.1147 26049.7 -03419.4 -07.4782 26273.1
 18 02 2013  10 45  -21.1151 26049.6 -03419.3 -07.4780 26273.0
 18 02 2013  10 46  -21.1157 26049.5 -03419.3 -07.4781 26273.0
 18 02 2013  10 47  -21.1161 26049.5 -03419.4 -07.4781 26272.9
 18 02 2013  10 48  -21.1163 26049.3 -03419.3 -07.4781 26272.7
 18 02 2013  10 49  -21.1165 26049.2 -03419.4 -07.4783 26272.7
 18 02 2013  10 50  -21.1166 26049.3 -03419.5 -07.4783 26272.8
 18 02 2013  10 51  -21.1173 26049.5 -03419.5 -07.4785 26272.9
 18 02 2013  10 52  -21.1178 26049.7 -03419.7 -07.4787 26273.2
 18 02 2013  10 53  -21.1185 26050.0 -03419.7 -07.4787 26273.5
 18 02 2013  10 54  -21.1190 26050.2 -03419.8 -07.4788 26273.7
 18 02 2013  10 55  -21.1192 26050.2 -03419.7 -07.4787 26273.7
 18 02 2013  10 56  -21.1192 26050.2 -03419.7 -07.4786 26273.7
 18 02 2013  10 57  -21.1193 26049.9 -03419.6 -07.4784 26273.4
 18 02 2013  10 58  -21.1198 26049.9 -03419.6 -07.4784 26273.4
 18 02 2013  10 59  -21.1199 26049.9 -03419.6 -07.4784 26273.4
 18 02 2013  11 00  -21.1206 26050.0 -03419.6 -07.4785 26273.5
 18 02 2013  11 01  -21.1211 26050.4 -03419.8 -07.4788 26273.9
 18 02 2013  11 02  -21.1217 26050.6 -03419.9 -07.4788 26274.1
 18 02 2013  11 03  -21.1221 26050.9 -03419.9 -07.4789 26274.4
 18 02 2013  11 04  -21.1224 26050.9 -03419.8 -07.4787 26274.4
 18 02 2013  11 05  -21.1228 26051.1 -03419.9 -07.4788 26274.7
 18 02 2013  11 06  -21.1232 26051.3 -03419.9 -07.4787 26274.8
 18 02 2013  11 07  -21.1237 26051.5 -03419.9 -07.4787 26275.0
 18 02 2013  11 08  -21.1243 26051.6 -03419.9 -07.4786 26275.1
 18 02 2013  11 09  -21.1247 26051.8 -03419.9 -07.4786 26275.3
 18 02 2013  11 10  -21.1251 26052.1 -03419.9 -07.4786 26275.6
 18 02 2013  11 11  -21.1257 26052.4 -03420.0 -07.4786 26275.9
 18 02 2013  11 12  -21.1261 26052.6 -03420.0 -07.4785 26276.1
 18 02 2013  11 13  -21.1264 26052.7 -03419.9 -07.4784 26276.2
 18 02 2013  11 14  -21.1267 26052.9 -03419.9 -07.4783 26276.4
 18 02 2013  11 15  -21.1271 26053.1 -03419.8 -07.4781 26276.6
 18 02 2013  11 16  -21.1277 26053.2 -03419.8 -07.4780 26276.7
 18 02 2013  11 17  -21.1280 26053.4 -03419.7 -07.4778 26276.9
 18 02 2013  11 18  -21.1285 26053.6 -03419.7 -07.4776 26277.1
 18 02 2013  11 19  -21.1290 26053.8 -03419.6 -07.4775 26277.3
 18 02 2013  11 20  -21.1298 26054.0 -03419.6 -07.4774 26277.5
 18 02 2013  11 21  -21.1306 26054.2 -03419.6 -07.4773 26277.7
 18 02 2013  11 22  -21.1308 26054.2 -03419.5 -07.4771 26277.7
 18 02 2013  11 23  -21.1308 26054.0 -03419.3 -07.4768 26277.5
 18 02 2013  11 24  -21.1312 26054.1 -03419.3 -07.4767 26277.5
 18 02 2013  11 25  -21.1314 26054.5 -03419.4 -07.4768 26277.9
 18 02 2013  11 26  -21.1317 26054.8 -03419.4 -07.4766 26278.2
 18 02 2013  11 27  -21.1320 26055.0 -03419.4 -07.4765 26278.5
 18 02 2013  11 28  -21.1324 26055.4 -03419.4 -07.4765 26278.8
 18 02 2013  11 29  -21.1328 26055.7 -03419.4 -07.4764 26279.1
 18 02 2013  11 30  -21.1332 26056.2 -03419.5 -07.4764 26279.6
 18 02 2013  11 31  -21.1333 26056.4 -03419.4 -07.4762 26279.8
 18 02 2013  11 32  -21.1331 26056.8 -03419.3 -07.4760 26280.2
 18 02 2013  11 33  -21.1331 26057.2 -03419.3 -07.4758 26280.6
 18 02 2013  11 34  -21.1330 26057.5 -03419.3 -07.4756 26280.8
 18 02 2013  11 35  -21.1330 26057.9 -03419.3 -07.4756 26281.3
 18 02 2013  11 36  -21.1330 26058.4 -03419.4 -07.4756 26281.8
 18 02 2013  11 37  -21.1330 26059.0 -03419.4 -07.4755 26282.4
 18 02 2013  11 38  -21.1328 26059.5 -03419.4 -07.4754 26282.9
 18 02 2013  11 39  -21.1329 26060.0 -03419.4 -07.4751 26283.4
 18 02 2013  11 40  -21.1329 26060.6 -03419.4 -07.4749 26283.9
 18 02 2013  11 41  -21.1328 26061.1 -03419.3 -07.4748 26284.4
 18 02 2013  11 42  -21.1328 26061.7 -03419.4 -07.4746 26285.1
 18 02 2013  11 43  -21.1327 26062.2 -03419.3 -07.4744 26285.6
 18 02 2013  11 44  -21.1326 26062.7 -03419.2 -07.4740 26286.0
 18 02 2013  11 45  -21.1326 26063.1 -03419.1 -07.4737 26286.4
 18 02 2013  11 46  -21.1326 26063.3 -03419.0 -07.4733 26286.6
 18 02 2013  11 47  -21.1326 26063.6 -03418.8 -07.4729 26286.8
 18 02 2013  11 48  -21.1328 26063.7 -03418.6 -07.4724 26286.9
 18 02 2013  11 49  -21.1330 26063.8 -03418.4 -07.4719 26287.0
 18 02 2013  11 50  -21.1332 26063.8 -03418.2 -07.4715 26287.0
 18 02 2013  11 51  -21.1332 26064.0 -03418.1 -07.4712 26287.2
 18 02 2013  11 52  -21.1331 26064.2 -03417.9 -07.4708 26287.4
 18 02 2013  11 53  -21.1331 26064.3 -03417.7 -07.4704 26287.4
 18 02 2013  11 54  -21.1332 26064.3 -03417.5 -07.4700 26287.4
 18 02 2013  11 55  -21.1331 26064.2 -03417.3 -07.4695 26287.3
 18 02 2013  11 56  -21.1333 26064.2 -03417.1 -07.4691 26287.2
 18 02 2013  11 57  -21.1336 26064.3 -03417.0 -07.4689 26287.3
 18 02 2013  11 58  -21.1337 26064.5 -03417.0 -07.4687 26287.5
 18 02 2013  11 59  -21.1337 26064.7 -03416.9 -07.4684 26287.7
 18 02 2013  12 00  -21.1337 26065.0 -03416.8 -07.4681 26287.9
 18 02 2013  12 01  -21.1336 26065.1 -03416.6 -07.4677 26288.1
 18 02 2013  12 02  -21.1338 26065.3 -03416.4 -07.4673 26288.3
 18 02 2013  12 03  -21.1342 26065.5 -03416.2 -07.4668 26288.4
 18 02 2013  12 04  -21.1344 26065.5 -03416.0 -07.4664 26288.4
 18 02 2013  12 05  -21.1347 26065.8 -03415.9 -07.4660 26288.7
 18 02 2013  12 06  -21.1349 26066.4 -03415.9 -07.4658 26289.2
 18 02 2013  12 07  -21.1351 26066.8 -03415.7 -07.4654 26289.6
 18 02 2013  12 08  -21.1350 26067.0 -03415.5 -07.4649 26289.8
 18 02 2013  12 09  -21.1351 26067.3 -03415.4 -07.4644 26290.1
 18 02 2013  12 10  -21.1350 26067.6 -03415.2 -07.4640 26290.4
 18 02 2013  12 11  -21.1347 26068.0 -03415.1 -07.4636 26290.7
 18 02 2013  12 12  -21.1342 26068.2 -03414.9 -07.4632 26290.9
 18 02 2013  12 13  -21.1334 26068.8 -03414.9 -07.4630 26291.5
 18 02 2013  12 14  -21.1327 26069.5 -03414.9 -07.4628 26292.2
 18 02 2013  12 15  -21.1324 26070.1 -03414.9 -07.4626 26292.9
 18 02 2013  12 16  -21.1323 26070.6 -03414.8 -07.4622 26293.3
 18 02 2013  12 17  -21.1323 26070.8 -03414.5 -07.4616 26293.5
 18 02 2013  12 18  -21.1320 26071.4 -03414.5 -07.4613 26294.0
 18 02 2013  12 19  -21.1312 26072.3 -03414.6 -07.4612 26295.0
 18 02 2013  12 20  -21.1304 26073.5 -03414.7 -07.4611 26296.1
 18 02 2013  12 21  -21.1300 26074.3 -03414.6 -07.4607 26297.0
 18 02 2013  12 22  -21.1299 26075.0 -03414.4 -07.4602 26297.6
 18 02 2013  12 23  -21.1302 26075.6 -03414.3 -07.4598 26298.2
 18 02 2013  12 24  -21.1306 26075.9 -03414.1 -07.4592 26298.5
 18 02 2013  12 25  -21.1311 26076.1 -03413.8 -07.4586 26298.6
 18 02 2013  12 26  -21.1314 26075.8 -03413.4 -07.4577 26298.3
 18 02 2013  12 27  -21.1313 26075.3 -03412.9 -07.4568 26297.7
 18 02 2013  12 28  -21.1312 26075.1 -03412.6 -07.4561 26297.5
 18 02 2013  12 29  -21.1316 26075.2 -03412.3 -07.4556 26297.5
 18 02 2013  12 30  -21.1320 26075.6 -03412.2 -07.4552 26297.9
 18 02 2013  12 31  -21.1321 26076.7 -03412.2 -07.4550 26299.0
 18 02 2013  12 32  -21.1318 26077.7 -03412.2 -07.4547 26300.0
 18 02 2013  12 33  -21.1312 26078.0 -03411.9 -07.4539 26300.2
 18 02 2013  12 34  -21.1305 26078.3 -03411.6 -07.4531 26300.5
 18 02 2013  12 35  -21.1299 26078.6 -03411.3 -07.4524 26300.8
 18 02 2013  12 36  -21.1296 26078.5 -03410.9 -07.4516 26300.6
 18 02 2013  12 37  -21.1295 26078.5 -03410.6 -07.4509 26300.6
 18 02 2013  12 38  -21.1293 26078.4 -03410.3 -07.4503 26300.4
 18 02 2013  12 39  -21.1291 26078.2 -03410.0 -07.4497 26300.2
 18 02 2013  12 40  -21.1285 26078.0 -03409.7 -07.4491 26300.0
 18 02 2013  12 41  -21.1283 26077.7 -03409.4 -07.4486 26299.7
 18 02 2013  12 42  -21.1286 26077.8 -03409.4 -07.4486 26299.8
 18 02 2013  12 43  -21.1292 26078.0 -03409.4 -07.4485 26299.9
 18 02 2013  12 44  -21.1295 26078.0 -03409.3 -07.4483 26299.9
 18 02 2013  12 45  -21.1298 26078.1 -03409.2 -07.4481 26300.0
 18 02 2013  12 46  -21.1304 26078.1 -03409.1 -07.4478 26300.0
 18 02 2013  12 47  -21.1313 26078.1 -03409.0 -07.4476 26300.0
 18 02 2013  12 48  -21.1322 26078.3 -03409.0 -07.4475 26300.2
 18 02 2013  12 49  -21.1329 26078.3 -03408.8 -07.4472 26300.1
 18 02 2013  12 50  -21.1335 26078.4 -03408.7 -07.4469 26300.2
 18 02 2013  12 51  -21.1340 26078.7 -03408.7 -07.4468 26300.6
 18 02 2013  12 52  -21.1343 26078.8 -03408.5 -07.4463 26300.6
 18 02 2013  12 53  -21.1344 26078.9 -03408.2 -07.4457 26300.7
 18 02 2013  12 54  -21.1345 26079.3 -03408.1 -07.4453 26301.0
 18 02 2013  12 55  -21.1345 26079.7 -03407.9 -07.4449 26301.4
 18 02 2013  12 56  -21.1344 26080.4 -03407.9 -07.4446 26302.1
 18 02 2013  12 57  -21.1344 26080.8 -03407.7 -07.4441 26302.5
 18 02 2013  12 58  -21.1343 26081.1 -03407.5 -07.4434 26302.8
 18 02 2013  12 59  -21.1341 26081.3 -03407.2 -07.4428 26302.9
 18 02 2013  13 00  -21.1341 26081.2 -03406.8 -07.4421 26302.7
 18 02 2013  13 01  -21.1344 26081.2 -03406.6 -07.4415 26302.7
 18 02 2013  13 02  -21.1347 26081.7 -03406.5 -07.4412 26303.2
 18 02 2013  13 03  -21.1347 26081.8 -03406.3 -07.4408 26303.3
 18 02 2013  13 04  -21.1346 26082.2 -03406.2 -07.4404 26303.7
 18 02 2013  13 05  -21.1348 26083.0 -03406.2 -07.4402 26304.4
 18 02 2013  13 06  -21.1354 26083.2 -03406.0 -07.4397 26304.6
 18 02 2013  13 07  -21.1358 26083.2 -03405.7 -07.4391 26304.6
 18 02 2013  13 08  -21.1361 26083.8 -03405.8 -07.4391 26305.2
 18 02 2013  13 09  -21.1365 26084.4 -03405.8 -07.4388 26305.8
 18 02 2013  13 10  -21.1373 26084.3 -03405.4 -07.4381 26305.6
 18 02 2013  13 11  -21.1379 26084.5 -03405.2 -07.4376 26305.8
 18 02 2013  13 12  -21.1382 26084.0 -03404.7 -07.4367 26305.3
 18 02 2013  13 13  -21.1387 26083.5 -03404.3 -07.4360 26304.7
 18 02 2013  13 14  -21.1393 26083.2 -03404.1 -07.4357 26304.4
 18 02 2013  13 15  -21.1398 26082.8 -03403.9 -07.4352 26304.0
 18 02 2013  13 16  -21.1404 26082.5 -03403.7 -07.4349 26303.6
 18 02 2013  13 17  -21.1410 26082.5 -03403.6 -07.4347 26303.7
 18 02 2013  13 18  -21.1414 26082.6 -03403.6 -07.4346 26303.8
 18 02 2013  13 19  -21.1417 26083.3 -03403.7 -07.4347 26304.4
 18 02 2013  13 20  -21.1418 26083.6 -03403.7 -07.4345 26304.7
 18 02 2013  13 21  -21.1416 26083.7 -03403.5 -07.4341 26304.8
 18 02 2013  13 22  -21.1417 26084.0 -03403.4 -07.4338 26305.1
 18 02 2013  13 23  -21.1418 26084.1 -03403.2 -07.4335 26305.2
 18 02 2013  13 24  -21.1421 26084.9 -03403.3 -07.4334 26306.0
 18 02 2013  13 25  -21.1423 26085.1 -03403.1 -07.4329 26306.1
 18 02 2013  13 26  -21.1423 26085.5 -03403.0 -07.4325 26306.5
 18 02 2013  13 27  -21.1426 26085.6 -03402.8 -07.4321 26306.6
 18 02 2013  13 28  -21.1427 26085.8 -03402.6 -07.4317 26306.8
 18 02 2013  13 29  -21.1423 26086.2 -03402.5 -07.4312 26307.1
 18 02 2013  13 30  -21.1420 26086.3 -03402.2 -07.4307 26307.3
 18 02 2013  13 31  -21.1415 26086.5 -03402.0 -07.4302 26307.4
 18 02 2013  13 32  -21.1416 26086.6 -03401.9 -07.4298 26307.5
 18 02 2013  13 33  -21.1411 26086.4 -03401.5 -07.4292 26307.2
 18 02 2013  13 34  -21.1406 26086.6 -03401.4 -07.4289 26307.4
 18 02 2013  13 35  -21.1405 26087.0 -03401.4 -07.4288 26307.8
 18 02 2013  13 36  -21.1401 26087.1 -03401.3 -07.4284 26307.9
 18 02 2013  13 37  -21.1399 26087.3 -03401.1 -07.4280 26308.1
 18 02 2013  13 38  -21.1396 26087.5 -03401.0 -07.4276 26308.3
 18 02 2013  13 39  -21.1394 26088.1 -03400.9 -07.4274 26308.8
 18 02 2013  13 40  -21.1393 26087.9 -03400.6 -07.4267 26308.6
 18 02 2013  13 41  -21.1392 26088.5 -03400.5 -07.4264 26309.1
 18 02 2013  13 42  -21.1391 26088.7 -03400.4 -07.4259 26309.4
 18 02 2013  13 43  -21.1383 26088.5 -03399.9 -07.4251 26309.1
 18 02 2013  13 44  -21.1376 26088.5 -03399.7 -07.4246 26309.1
 18 02 2013  13 45  -21.1377 26088.8 -03399.6 -07.4244 26309.4
 18 02 2013  13 46  -21.1372 26088.8 -03399.4 -07.4238 26309.3
 18 02 2013  13 47  -21.1368 26089.1 -03399.3 -07.4236 26309.6
 18 02 2013  13 48  -21.1366 26089.1 -03399.1 -07.4232 26309.6
 18 02 2013  13 49  -21.1360 26089.0 -03398.9 -07.4226 26309.5
 18 02 2013  13 50  -21.1360 26088.5 -03398.5 -07.4219 26309.0
 18 02 2013  13 51  -21.1359 26088.7 -03398.3 -07.4216 26309.1
 18 02 2013  13 52  -21.1354 26088.8 -03398.1 -07.4211 26309.2
 18 02 2013  13 53  -21.1351 26088.5 -03397.8 -07.4205 26308.8
 18 02 2013  13 54  -21.1350 26088.6 -03397.7 -07.4203 26308.9
 18 02 2013  13 55  -21.1348 26088.9 -03397.7 -07.4202 26309.2
 18 02 2013  13 56  -21.1347 26089.2 -03397.7 -07.4200 26309.5
 18 02 2013  13 57  -21.1344 26089.0 -03397.3 -07.4193 26309.2
 18 02 2013  13 58  -21.1343 26088.2 -03396.8 -07.4183 26308.4
 18 02 2013  13 59  -21.1338 26087.5 -03396.4 -07.4177 26307.7
 18 02 2013  14 00  -21.1332 26087.4 -03396.2 -07.4174 26307.5
 18 02 2013  14 01  -21.1327 26087.4 -03396.2 -07.4174 26307.5
 18 02 2013  14 02  -21.1321 26087.2 -03396.0 -07.4170 26307.3
 18 02 2013  14 03  -21.1317 26087.1 -03395.9 -07.4169 26307.2
 18 02 2013  14 04  -21.1314 26087.3 -03395.9 -07.4168 26307.4
 18 02 2013  14 05  -21.1312 26087.5 -03395.9 -07.4167 26307.6
 18 02 2013  14 06  -21.1310 26087.7 -03395.8 -07.4165 26307.8
 18 02 2013  14 07  -21.1308 26087.8 -03395.7 -07.4162 26307.9
 18 02 2013  14 08  -21.1299 26087.5 -03395.4 -07.4156 26307.5
 18 02 2013  14 09  -21.1291 26087.9 -03395.4 -07.4155 26307.9
 18 02 2013  14 10  -21.1288 26087.5 -03395.1 -07.4150 26307.5
 18 02 2013  14 11  -21.1281 26088.0 -03395.2 -07.4150 26308.0
 18 02 2013  14 12  -21.1275 26087.8 -03395.0 -07.4147 26307.8
 18 02 2013  14 13  -21.1269 26088.2 -03395.1 -07.4147 26308.2
 18 02 2013  14 14  -21.1265 26088.6 -03395.1 -07.4147 26308.6
 18 02 2013  14 15  -21.1257 26088.8 -03395.0 -07.4145 26308.8
 18 02 2013  14 16  -21.1252 26089.0 -03395.0 -07.4143 26309.0
 18 02 2013  14 17  -21.1248 26089.0 -03394.8 -07.4140 26308.9
 18 02 2013  14 18  -21.1244 26089.0 -03394.7 -07.4137 26308.9
 18 02 2013  14 19  -21.1238 26088.9 -03394.6 -07.4135 26308.9
 18 02 2013  14 20  -21.1232 26088.9 -03394.6 -07.4134 26308.9
 18 02 2013  14 21  -21.1225 26089.0 -03394.6 -07.4134 26309.0
 18 02 2013  14 22  -21.1217 26089.3 -03394.6 -07.4135 26309.2
 18 02 2013  14 23  -21.1211 26089.5 -03394.7 -07.4134 26309.4
 18 02 2013  14 24  -21.1207 26089.5 -03394.7 -07.4135 26309.5
 18 02 2013  14 25  -21.1207 26089.7 -03394.8 -07.4136 26309.7
 18 02 2013  14 26  -21.1207 26090.0 -03394.8 -07.4136 26309.9
 18 02 2013  14 27  -21.1201 26090.4 -03394.9 -07.4137 26310.3
 18 02 2013  14 28  -21.1197 26090.3 -03394.8 -07.4135 26310.2
 18 02 2013  14 29  -21.1193 26090.4 -03394.7 -07.4133 26310.3
 18 02 2013  14 30  -21.1189 26090.2 -03394.7 -07.4132 26310.2
 18 02 2013  14 31  -21.1184 26089.9 -03394.5 -07.4130 26309.8
 18 02 2013  14 32  -21.1181 26089.9 -03394.6 -07.4131 26309.9
 18 02 2013  14 33  -21.1178 26089.9 -03394.6 -07.4132 26309.8
 18 02 2013  14 34  -21.1175 26089.8 -03394.6 -07.4132 26309.8
 18 02 2013  14 35  -21.1170 26089.7 -03394.5 -07.4131 26309.6
 18 02 2013  14 36  -21.1166 26090.1 -03394.7 -07.4133 26310.0
 18 02 2013  14 37  -21.1162 26090.2 -03394.7 -07.4133 26310.1
 18 02 2013  14 38  -21.1160 26090.0 -03394.6 -07.4131 26309.9
 18 02 2013  14 39  -21.1158 26090.0 -03394.6 -07.4131 26309.9
 18 02 2013  14 40  -21.1157 26089.9 -03394.6 -07.4131 26309.8
 18 02 2013  14 41  -21.1153 26089.6 -03394.4 -07.4129 26309.5
 18 02 2013  14 42  -21.1150 26089.3 -03394.4 -07.4128 26309.2
 18 02 2013  14 43  -21.1148 26089.3 -03394.3 -07.4128 26309.2
 18 02 2013  14 44  -21.1148 26089.3 -03394.3 -07.4128 26309.2
 18 02 2013  14 45  -21.1145 26089.0 -03394.2 -07.4126 26308.8
 18 02 2013  14 46  -21.1138 26088.9 -03394.2 -07.4126 26308.8
 18 02 2013  14 47  -21.1135 26089.0 -03394.2 -07.4126 26308.9
 18 02 2013  14 48  -21.1132 26089.2 -03394.3 -07.4128 26309.0
 18 02 2013  14 49  -21.1128 26089.2 -03394.3 -07.4128 26309.1
 18 02 2013  14 50  -21.1125 26089.3 -03394.3 -07.4128 26309.2
 18 02 2013  14 51  -21.1124 26089.3 -03394.3 -07.4127 26309.2
 18 02 2013  14 52  -21.1123 26089.4 -03394.3 -07.4127 26309.3
 18 02 2013  14 53  -21.1119 26089.5 -03394.3 -07.4126 26309.4
 18 02 2013  14 54  -21.1116 26089.9 -03394.3 -07.4126 26309.8
 18 02 2013  14 55  -21.1114 26090.3 -03394.4 -07.4126 26310.1
 18 02 2013  14 56  -21.1113 26090.3 -03394.3 -07.4123 26310.2
 18 02 2013  14 57  -21.1109 26090.2 -03394.1 -07.4119 26310.0
 18 02 2013  14 58  -21.1102 26090.0 -03393.9 -07.4116 26309.8
 18 02 2013  14 59  -21.1096 26089.9 -03393.7 -07.4113 26309.7
 18 02 2013  15 00  -21.1093 26089.7 -03393.6 -07.4112 26309.5
 18 02 2013  15 01  -21.1088 26089.6 -03393.6 -07.4111 26309.4
 18 02 2013  15 02  -21.1087 26089.8 -03393.6 -07.4111 26309.6
 18 02 2013  15 03  -21.1084 26089.7 -03393.6 -07.4111 26309.5
 18 02 2013  15 04  -21.1080 26089.6 -03393.5 -07.4109 26309.3
 18 02 2013  15 05  -21.1077 26089.3 -03393.4 -07.4107 26309.1
 18 02 2013  15 06  -21.1074 26089.2 -03393.3 -07.4106 26308.9
 18 02 2013  15 07  -21.1071 26089.2 -03393.3 -07.4107 26308.9
 18 02 2013  15 08  -21.1066 26089.1 -03393.3 -07.4106 26308.8
 18 02 2013  15 09  -21.1059 26088.8 -03393.2 -07.4105 26308.6
 18 02 2013  15 10  -21.1052 26088.4 -03393.1 -07.4103 26308.1
 18 02 2013  15 11  -21.1044 26088.2 -03393.0 -07.4103 26307.9
 18 02 2013  15 12  -21.1040 26088.0 -03393.1 -07.4105 26307.8
 18 02 2013  15 13  -21.1037 26088.0 -03393.2 -07.4107 26307.7
 18 02 2013  15 14  -21.1032 26087.9 -03393.3 -07.4109 26307.6
 18 02 2013  15 15  -21.1027 26087.7 -03393.3 -07.4110 26307.5
 18 02 2013  15 16  -21.1025 26087.7 -03393.4 -07.4113 26307.4
 18 02 2013  15 17  -21.1024 26087.6 -03393.5 -07.4115 26307.4
 18 02 2013  15 18  -21.1021 26087.7 -03393.6 -07.4117 26307.5
 18 02 2013  15 19  -21.1019 26087.6 -03393.7 -07.4119 26307.4
 18 02 2013  15 20  -21.1015 26087.5 -03393.8 -07.4121 26307.3
 18 02 2013  15 21  -21.1015 26087.4 -03393.8 -07.4122 26307.2
 18 02 2013  15 22  -21.1013 26087.1 -03393.8 -07.4123 26307.0
 18 02 2013  15 23  -21.1011 26086.9 -03393.8 -07.4124 26306.7
 18 02 2013  15 24  -21.1008 26086.7 -03393.9 -07.4125 26306.5
 18 02 2013  15 25  -21.1005 26086.5 -03394.0 -07.4127 26306.4
 18 02 2013  15 26  -21.1004 26086.4 -03394.0 -07.4130 26306.3
 18 02 2013  15 27  -21.1002 26086.3 -03394.1 -07.4132 26306.2
 18 02 2013  15 28  -21.0999 26086.1 -03394.1 -07.4133 26306.0
 18 02 2013  15 29  -21.0998 26085.9 -03394.2 -07.4134 26305.7
 18 02 2013  15 30  -21.0999 26085.7 -03394.2 -07.4136 26305.6
 18 02 2013  15 31  -21.0997 26085.4 -03394.3 -07.4137 26305.3
 18 02 2013  15 32  -21.0994 26085.2 -03394.3 -07.4140 26305.1
 18 02 2013  15 33  -21.0996 26085.3 -03394.6 -07.4144 26305.3
 18 02 2013  15 34  -21.0997 26085.1 -03394.6 -07.4145 26305.1
 18 02 2013  15 35  -21.0995 26084.8 -03394.6 -07.4145 26304.8
 18 02 2013  15 36  -21.0995 26084.6 -03394.6 -07.4147 26304.5
 18 02 2013  15 37  -21.0994 26084.4 -03394.7 -07.4149 26304.4
 18 02 2013  15 38  -21.0995 26084.4 -03394.9 -07.4153 26304.4
 18 02 2013  15 39  -21.0994 26084.4 -03395.0 -07.4156 26304.4
 18 02 2013  15 40  -21.0994 26084.3 -03395.1 -07.4157 26304.3
 18 02 2013  15 41  -21.0993 26084.0 -03395.0 -07.4158 26304.1
 18 02 2013  15 42  -21.0993 26083.8 -03395.1 -07.4159 26303.9
 18 02 2013  15 43  -21.0992 26083.6 -03395.1 -07.4160 26303.7
 18 02 2013  15 44  -21.0993 26083.7 -03395.2 -07.4162 26303.7
 18 02 2013  15 45  -21.0992 26083.5 -03395.2 -07.4162 26303.5
 18 02 2013  15 46  -21.0992 26083.3 -03395.1 -07.4162 26303.3
 18 02 2013  15 47  -21.0992 26083.2 -03395.1 -07.4162 26303.2
 18 02 2013  15 48  -21.0991 26083.1 -03395.2 -07.4163 26303.1
 18 02 2013  15 49  -21.0991 26082.9 -03395.1 -07.4163 26303.0
 18 02 2013  15 50  -21.0992 26082.8 -03395.1 -07.4163 26302.8
 18 02 2013  15 51  -21.0990 26082.4 -03394.9 -07.4160 26302.4
 18 02 2013  15 52  -21.0990 26082.5 -03395.1 -07.4162 26302.6
 18 02 2013  15 53  -21.0992 26082.4 -03395.1 -07.4163 26302.5
 18 02 2013  15 54  -21.0991 26082.0 -03394.9 -07.4160 26302.0
 18 02 2013  15 55  -21.0985 26081.5 -03394.7 -07.4157 26301.5
 18 02 2013  15 56  -21.0978 26081.0 -03394.6 -07.4156 26301.0
 18 02 2013  15 57  -21.0972 26080.5 -03394.5 -07.4156 26300.5
 18 02 2013  15 58  -21.0967 26080.1 -03394.5 -07.4157 26300.1
 18 02 2013  15 59  -21.0962 26079.9 -03394.6 -07.4159 26299.8
 18 02 2013  16 00  -21.0959 26079.6 -03394.6 -07.4162 26299.6
 18 02 2013  16 01  -21.0953 26079.5 -03394.8 -07.4164 26299.5
 18 02 2013  16 02  -21.0946 26079.5 -03394.9 -07.4168 26299.6
 18 02 2013  16 03  -21.0941 26079.4 -03395.0 -07.4169 26299.5
 18 02 2013  16 04  -21.0934 26079.3 -03395.0 -07.4171 26299.4
 18 02 2013  16 05  -21.0928 26079.5 -03395.2 -07.4174 26299.5
 18 02 2013  16 06  -21.0924 26079.5 -03395.3 -07.4176 26299.6
 18 02 2013  16 07  -21.0919 26079.4 -03395.4 -07.4178 26299.5
 18 02 2013  16 08  -21.0917 26079.5 -03395.5 -07.4180 26299.6
 18 02 2013  16 09  -21.0914 26079.5 -03395.5 -07.4181 26299.6
 18 02 2013  16 10  -21.0910 26079.5 -03395.6 -07.4183 26299.6
 18 02 2013  16 11  -21.0904 26079.3 -03395.6 -07.4184 26299.5
 18 02 2013  16 12  -21.0899 26079.2 -03395.7 -07.4185 26299.4
 18 02 2013  16 13  -21.0894 26079.2 -03395.8 -07.4187 26299.4
 18 02 2013  16 14  -21.0889 26079.2 -03395.9 -07.4191 26299.4
 18 02 2013  16 15  -21.0885 26079.1 -03396.0 -07.4192 26299.2
 18 02 2013  16 16  -21.0879 26079.0 -03396.1 -07.4195 26299.2
 18 02 2013  16 17  -21.0875 26078.9 -03396.2 -07.4197 26299.1
 18 02 2013  16 18  -21.0872 26078.8 -03396.3 -07.4201 26299.0
 18 02 2013  16 19  -21.0867 26078.8 -03396.5 -07.4205 26299.1
 18 02 2013  16 20  -21.0866 26078.7 -03396.7 -07.4208 26299.0
 18 02 2013  16 21  -21.0863 26078.6 -03396.8 -07.4211 26298.9
 18 02 2013  16 22  -21.0861 26078.5 -03396.9 -07.4214 26298.8
 18 02 2013  16 23  -21.0861 26078.4 -03397.1 -07.4218 26298.7
 18 02 2013  16 24  -21.0860 26078.3 -03397.2 -07.4221 26298.7
 18 02 2013  16 25  -21.0860 26078.4 -03397.4 -07.4225 26298.7
 18 02 2013  16 26  -21.0859 26078.3 -03397.5 -07.4228 26298.7
 18 02 2013  16 27  -21.0856 26078.2 -03397.6 -07.4229 26298.6
 18 02 2013  16 28  -21.0852 26078.0 -03397.6 -07.4230 26298.4
 18 02 2013  16 29  -21.0848 26077.8 -03397.6 -07.4231 26298.2
 18 02 2013  16 30  -21.0844 26077.5 -03397.7 -07.4233 26297.9
 18 02 2013  16 31  -21.0841 26077.3 -03397.7 -07.4235 26297.8
 18 02 2013  16 32  -21.0837 26077.2 -03397.8 -07.4237 26297.7
 18 02 2013  16 33  -21.0835 26077.2 -03398.0 -07.4240 26297.6
 18 02 2013  16 34  -21.0833 26077.0 -03398.0 -07.4242 26297.5
 18 02 2013  16 35  -21.0829 26076.8 -03398.0 -07.4243 26297.3
 18 02 2013  16 36  -21.0826 26076.6 -03398.0 -07.4244 26297.0
 18 02 2013  16 37  -21.0821 26076.3 -03398.1 -07.4245 26296.8
 18 02 2013  16 38  -21.0819 26076.1 -03398.1 -07.4246 26296.6
 18 02 2013  16 39  -21.0814 26075.9 -03398.2 -07.4248 26296.4
 18 02 2013  16 40  -21.0808 26075.8 -03398.3 -07.4250 26296.3
 18 02 2013  16 41  -21.0802 26075.6 -03398.3 -07.4253 26296.1
 18 02 2013  16 42  -21.0796 26075.4 -03398.4 -07.4255 26295.9
 18 02 2013  16 43  -21.0789 26075.1 -03398.4 -07.4256 26295.6
 18 02 2013  16 44  -21.0783 26074.9 -03398.5 -07.4258 26295.5
 18 02 2013  16 45  -21.0777 26074.7 -03398.6 -07.4261 26295.3
 18 02 2013  16 46  -21.0770 26074.7 -03398.8 -07.4265 26295.3
 18 02 2013  16 47  -21.0764 26074.6 -03398.9 -07.4268 26295.2
 18 02 2013  16 48  -21.0758 26074.5 -03399.1 -07.4272 26295.1
 18 02 2013  16 49  -21.0753 26074.4 -03399.2 -07.4276 26295.1
 18 02 2013  16 50  -21.0747 26074.3 -03399.4 -07.4279 26294.9
 18 02 2013  16 51  -21.0741 26074.1 -03399.4 -07.4281 26294.7
 18 02 2013  16 52  -21.0735 26073.9 -03399.6 -07.4284 26294.5
 18 02 2013  16 53  -21.0730 26073.6 -03399.7 -07.4287 26294.3
 18 02 2013  16 54  -21.0726 26073.5 -03399.8 -07.4291 26294.2
 18 02 2013  16 55  -21.0721 26073.3 -03399.9 -07.4294 26294.0
 18 02 2013  16 56  -21.0715 26073.1 -03400.0 -07.4296 26293.8
 18 02 2013  16 57  -21.0710 26072.8 -03400.1 -07.4300 26293.6
 18 02 2013  16 58  -21.0707 26072.5 -03400.2 -07.4303 26293.3
 18 02 2013  16 59  -21.0704 26072.5 -03400.4 -07.4306 26293.3
 18 02 2013  17 00  -21.0700 26072.3 -03400.5 -07.4309 26293.1
 18 02 2013  17 01  -21.0696 26072.1 -03400.6 -07.4313 26292.9
 18 02 2013  17 02  -21.0694 26071.9 -03400.8 -07.4316 26292.8
 18 02 2013  17 03  -21.0691 26071.8 -03400.9 -07.4320 26292.6
 18 02 2013  17 04  -21.0687 26071.6 -03401.1 -07.4323 26292.5
 18 02 2013  17 05  -21.0685 26071.6 -03401.3 -07.4328 26292.5
 18 02 2013  17 06  -21.0684 26071.6 -03401.5 -07.4332 26292.6
 18 02 2013  17 07  -21.0682 26071.6 -03401.7 -07.4336 26292.6
 18 02 2013  17 08  -21.0679 26071.5 -03401.8 -07.4339 26292.5
 18 02 2013  17 09  -21.0678 26071.5 -03401.9 -07.4342 26292.6
 18 02 2013  17 10  -21.0675 26071.5 -03402.1 -07.4345 26292.5
 18 02 2013  17 11  -21.0672 26071.4 -03402.2 -07.4348 26292.5
 18 02 2013  17 12  -21.0667 26071.2 -03402.2 -07.4349 26292.3
 18 02 2013  17 13  -21.0663 26071.0 -03402.3 -07.4351 26292.0
 18 02 2013  17 14  -21.0659 26070.8 -03402.4 -07.4354 26291.9
 18 02 2013  17 15  -21.0655 26070.6 -03402.5 -07.4357 26291.7
 18 02 2013  17 16  -21.0651 26070.4 -03402.5 -07.4359 26291.5
 18 02 2013  17 17  -21.0647 26070.2 -03402.7 -07.4362 26291.4
 18 02 2013  17 18  -21.0643 26070.0 -03402.7 -07.4364 26291.2
 18 02 2013  17 19  -21.0639 26069.7 -03402.8 -07.4365 26290.9
 18 02 2013  17 20  -21.0633 26069.5 -03402.8 -07.4367 26290.6
 18 02 2013  17 21  -21.0629 26069.2 -03402.9 -07.4370 26290.4
 18 02 2013  17 22  -21.0623 26069.0 -03403.0 -07.4372 26290.1
 18 02 2013  17 23  -21.0615 26068.7 -03403.0 -07.4373 26289.9
 18 02 2013  17 24  -21.0610 26068.6 -03403.1 -07.4376 26289.7
 18 02 2013  17 25  -21.0606 26068.4 -03403.2 -07.4378 26289.6
 18 02 2013  17 26  -21.0598 26068.2 -03403.2 -07.4380 26289.4
 18 02 2013  17 27  -21.0592 26068.1 -03403.3 -07.4382 26289.4
 18 02 2013  17 28  -21.0588 26068.0 -03403.4 -07.4384 26289.2
 18 02 2013  17 29  -21.0583 26067.7 -03403.4 -07.4384 26289.0
 18 02 2013  17 30  -21.0578 26067.4 -03403.3 -07.4384 26288.6
 18 02 2013  17 31  -21.0573 26067.0 -03403.2 -07.4383 26288.2
 18 02 2013  17 32  -21.0567 26066.7 -03403.2 -07.4383 26287.9
 18 02 2013  17 33  -21.0561 26066.4 -03403.2 -07.4384 26287.6
 18 02 2013  17 34  -21.0555 26066.1 -03403.2 -07.4385 26287.3
 18 02 2013  17 35  -21.0549 26065.8 -03403.2 -07.4386 26287.1
 18 02 2013  17 36  -21.0541 26065.7 -03403.3 -07.4388 26286.9
 18 02 2013  17 37  -21.0538 26065.6 -03403.4 -07.4391 26286.9
 18 02 2013  17 38  -21.0525 26065.5 -03403.5 -07.4393 26286.7
 18 02 2013  17 39  -21.0518 26065.3 -03403.6 -07.4395 26286.6
 18 02 2013  17 40  -21.0510 26065.1 -03403.6 -07.4396 26286.3
 18 02 2013  17 41  -21.0503 26064.8 -03403.6 -07.4397 26286.1
 18 02 2013  17 42  -21.0496 26064.6 -03403.7 -07.4399 26285.9
 18 02 2013  17 43  -21.0490 26064.3 -03403.8 -07.4402 26285.6
 18 02 2013  17 44  -21.0484 26064.1 -03403.9 -07.4405 26285.4
 18 02 2013  17 45  -21.0480 26063.9 -03404.0 -07.4408 26285.2
 18 02 2013  17 46  -21.0476 26063.7 -03404.1 -07.4411 26285.1
 18 02 2013  17 47  -21.0472 26063.5 -03404.2 -07.4414 26284.9
 18 02 2013  17 48  -21.0469 26063.4 -03404.3 -07.4417 26284.8
 18 02 2013  17 49  -21.0466 26063.2 -03404.5 -07.4420 26284.6
 18 02 2013  17 50  -21.0463 26063.1 -03404.6 -07.4423 26284.5
 18 02 2013  17 51  -21.0461 26063.1 -03404.7 -07.4426 26284.5
 18 02 2013  17 52  -21.0461 26063.0 -03404.9 -07.4430 26284.4
 18 02 2013  17 53  -21.0460 26062.9 -03405.0 -07.4432 26284.4
 18 02 2013  17 54  -21.0459 26062.9 -03405.1 -07.4435 26284.4
 18 02 2013  17 55  -21.0458 26062.7 -03405.2 -07.4438 26284.2
 18 02 2013  17 56  -21.0455 26062.6 -03405.3 -07.4440 26284.1
 18 02 2013  17 57  -21.0455 26062.4 -03405.4 -07.4443 26284.0
 18 02 2013  17 58  -21.0454 26062.1 -03405.5 -07.4445 26283.7
 18 02 2013  17 59  -21.0452 26062.0 -03405.7 -07.4449 26283.6
 18 02 2013  18 00  -21.0454 26062.0 -03405.9 -07.4454 26283.6
 18 02 2013  18 01  -21.0455 26061.8 -03405.9 -07.4456 26283.5
 18 02 2013  18 02  -21.0455 26061.7 -03406.1 -07.4459 26283.3
 18 02 2013  18 03  -21.0455 26061.7 -03406.3 -07.4463 26283.3
 18 02 2013  18 04  -21.0455 26061.7 -03406.5 -07.4469 26283.4
 18 02 2013  18 05  -21.0458 26061.8 -03406.8 -07.4474 26283.5
 18 02 2013  18 06  -21.0461 26061.7 -03406.9 -07.4477 26283.5
 18 02 2013  18 07  -21.0462 26061.6 -03407.0 -07.4480 26283.4
 18 02 2013  18 08  -21.0463 26061.6 -03407.2 -07.4485 26283.4
 18 02 2013  18 09  -21.0464 26061.8 -03407.5 -07.4490 26283.6
 18 02 2013  18 10  -21.0466 26061.9 -03407.8 -07.4495 26283.8
 18 02 2013  18 11  -21.0470 26062.0 -03408.0 -07.4499 26283.9
 18 02 2013  18 12  -21.0472 26062.1 -03408.2 -07.4503 26284.0
 18 02 2013  18 13  -21.0476 26062.2 -03408.3 -07.4506 26284.1
 18 02 2013  18 14  -21.0480 26062.2 -03408.5 -07.4510 26284.1
 18 02 2013  18 15  -21.0483 26062.1 -03408.6 -07.4513 26284.1
 18 02 2013  18 16  -21.0486 26062.1 -03408.8 -07.4517 26284.1
 18 02 2013  18 17  -21.0491 26062.0 -03408.9 -07.4520 26284.0
 18 02 2013  18 18  -21.0498 26062.0 -03409.0 -07.4522 26284.0
 18 02 2013  18 19  -21.0503 26061.9 -03409.1 -07.4525 26283.9
 18 02 2013  18 20  -21.0508 26061.7 -03409.2 -07.4527 26283.7
 18 02 2013  18 21  -21.0514 26061.4 -03409.2 -07.4528 26283.5
 18 02 2013  18 22  -21.0518 26061.1 -03409.2 -07.4529 26283.2
 18 02 2013  18 23  -21.0520 26060.9 -03409.3 -07.4531 26282.9
 18 02 2013  18 24  -21.0521 26060.7 -03409.4 -07.4534 26282.7
 18 02 2013  18 25  -21.0523 26060.6 -03409.6 -07.4538 26282.7
 18 02 2013  18 26  -21.0524 26060.7 -03409.8 -07.4542 26282.8
 18 02 2013  18 27  -21.0528 26061.0 -03410.0 -07.4547 26283.1
 18 02 2013  18 28  -21.0533 26061.1 -03410.2 -07.4550 26283.3
 18 02 2013  18 29  -21.0537 26061.3 -03410.3 -07.4553 26283.5
 18 02 2013  18 30  -21.0540 26061.5 -03410.5 -07.4555 26283.7
 18 02 2013  18 31  -21.0544 26061.7 -03410.6 -07.4556 26283.9
 18 02 2013  18 32  -21.0546 26061.8 -03410.7 -07.4558 26284.0
 18 02 2013  18 33  -21.0549 26061.8 -03410.7 -07.4560 26284.0
 18 02 2013  18 34  -21.0550 26061.8 -03410.7 -07.4560 26284.0
 18 02 2013  18 35  -21.0552 26061.7 -03410.7 -07.4560 26283.9
 18 02 2013  18 36  -21.0553 26061.8 -03410.8 -07.4561 26284.1
 18 02 2013  18 37  -21.0553 26062.0 -03410.9 -07.4563 26284.2
 18 02 2013  18 38  -21.0554 26062.0 -03410.9 -07.4563 26284.3
 18 02 2013  18 39  -21.0555 26062.1 -03410.9 -07.4563 26284.3
 18 02 2013  18 40  -21.0555 26062.1 -03410.9 -07.4563 26284.4
 18 02 2013  18 41  -21.0554 26062.2 -03410.9 -07.4562 26284.4
 18 02 2013  18 42  -21.0554 26062.2 -03410.9 -07.4562 26284.4
 18 02 2013  18 43  -21.0554 26062.2 -03410.9 -07.4561 26284.5
 18 02 2013  18 44  -21.0552 26062.3 -03410.9 -07.4561 26284.5
 18 02 2013  18 45  -21.0552 26062.3 -03410.8 -07.4561 26284.5
 18 02 2013  18 46  -21.0553 26062.1 -03410.8 -07.4559 26284.4
 18 02 2013  18 47  -21.0554 26061.9 -03410.6 -07.4557 26284.2
 18 02 2013  18 48  -21.0552 26061.9 -03410.5 -07.4555 26284.1
 18 02 2013  18 49  -21.0552 26061.7 -03410.5 -07.4554 26283.9
 18 02 2013  18 50  -21.0553 26061.5 -03410.3 -07.4552 26283.6
 18 02 2013  18 51  -21.0552 26061.4 -03410.3 -07.4551 26283.5
 18 02 2013  18 52  -21.0550 26061.2 -03410.2 -07.4551 26283.4
 18 02 2013  18 53  -21.0549 26061.1 -03410.1 -07.4549 26283.2
 18 02 2013  18 54  -21.0546 26060.9 -03410.1 -07.4548 26283.1
 18 02 2013  18 55  -21.0543 26060.9 -03410.0 -07.4547 26283.0
 18 02 2013  18 56  -21.0541 26061.0 -03410.1 -07.4547 26283.2
 18 02 2013  18 57  -21.0541 26061.1 -03410.1 -07.4547 26283.2
 18 02 2013  18 58  -21.0540 26061.0 -03410.0 -07.4546 26283.2
 18 02 2013  18 59  -21.0538 26061.0 -03410.0 -07.4545 26283.2
 18 02 2013  19 00  -21.0536 26061.0 -03409.9 -07.4543 26283.1
 18 02 2013  19 01  -21.0534 26060.9 -03409.8 -07.4542 26283.0
 18 02 2013  19 02  -21.0533 26060.8 -03409.7 -07.4540 26282.9
 18 02 2013  19 03  -21.0531 26060.7 -03409.6 -07.4539 26282.8
 18 02 2013  19 04  -21.0528 26060.8 -03409.6 -07.4538 26282.9
 18 02 2013  19 05  -21.0527 26060.8 -03409.6 -07.4538 26282.9
 18 02 2013  19 06  -21.0526 26060.7 -03409.5 -07.4536 26282.8
 18 02 2013  19 07  -21.0523 26060.7 -03409.4 -07.4534 26282.8
 18 02 2013  19 08  -21.0520 26060.6 -03409.3 -07.4532 26282.7
 18 02 2013  19 09  -21.0518 26060.6 -03409.3 -07.4531 26282.7
 18 02 2013  19 10  -21.0516 26060.6 -03409.2 -07.4530 26282.6
 18 02 2013  19 11  -21.0512 26060.6 -03409.2 -07.4529 26282.7
 18 02 2013  19 12  -21.0506 26061.1 -03409.3 -07.4530 26283.1
 18 02 2013  19 13  -21.0502 26061.5 -03409.5 -07.4533 26283.6
 18 02 2013  19 14  -21.0501 26061.8 -03409.6 -07.4534 26283.9
 18 02 2013  19 15  -21.0498 26061.6 -03409.3 -07.4529 26283.6
 18 02 2013  19 16  -21.0491 26062.1 -03409.4 -07.4530 26284.2
 18 02 2013  19 17  -21.0490 26062.2 -03409.5 -07.4531 26284.3
 18 02 2013  19 18  -21.0487 26062.2 -03409.3 -07.4528 26284.2
 18 02 2013  19 19  -21.0485 26062.1 -03409.2 -07.4526 26284.2
 18 02 2013  19 20  -21.0482 26062.2 -03409.1 -07.4524 26284.2
 18 02 2013  19 21  -21.0481 26062.1 -03409.0 -07.4522 26284.1
 18 02 2013  19 22  -21.0482 26062.1 -03408.9 -07.4519 26284.1
 18 02 2013  19 23  -21.0481 26062.0 -03408.8 -07.4516 26284.0
 18 02 2013  19 24  -21.0480 26062.2 -03408.7 -07.4516 26284.1
 18 02 2013  19 25  -21.0479 26062.2 -03408.7 -07.4514 26284.2
 18 02 2013  19 26  -21.0478 26062.3 -03408.6 -07.4512 26284.2
 18 02 2013  19 27  -21.0478 26062.2 -03408.5 -07.4510 26284.2
 18 02 2013  19 28  -21.0478 26062.1 -03408.3 -07.4506 26284.0
 18 02 2013  19 29  -21.0477 26061.9 -03408.1 -07.4503 26283.8
 18 02 2013  19 30  -21.0475 26062.0 -03408.1 -07.4502 26283.9
 18 02 2013  19 31  -21.0475 26062.1 -03408.0 -07.4501 26284.0
 18 02 2013  19 32  -21.0474 26062.0 -03407.9 -07.4498 26283.8
 18 02 2013  19 33  -21.0474 26061.7 -03407.7 -07.4493 26283.6
 18 02 2013  19 34  -21.0474 26061.4 -03407.4 -07.4488 26283.2
 18 02 2013  19 35  -21.0471 26061.3 -03407.2 -07.4484 26283.0
 18 02 2013  19 36  -21.0469 26061.3 -03407.1 -07.4483 26283.0
 18 02 2013  19 37  -21.0468 26061.2 -03407.0 -07.4481 26282.9
 18 02 2013  19 38  -21.0467 26061.0 -03406.8 -07.4478 26282.7
 18 02 2013  19 39  -21.0465 26061.1 -03406.8 -07.4476 26282.9
 18 02 2013  19 40  -21.0462 26061.2 -03406.8 -07.4476 26282.9
 18 02 2013  19 41  -21.0459 26061.1 -03406.7 -07.4474 26282.8
 18 02 2013  19 42  -21.0457 26061.1 -03406.6 -07.4473 26282.8
 18 02 2013  19 43  -21.0456 26061.0 -03406.6 -07.4472 26282.7
 18 02 2013  19 44  -21.0454 26061.0 -03406.5 -07.4471 26282.7
 18 02 2013  19 45  -21.0454 26061.0 -03406.4 -07.4469 26282.7
 18 02 2013  19 46  -21.0456 26060.8 -03406.3 -07.4466 26282.5
 18 02 2013  19 47  -21.0454 26060.6 -03406.1 -07.4464 26282.2
 18 02 2013  19 48  -21.0456 26060.4 -03406.0 -07.4461 26282.0
 18 02 2013  19 49  -21.0458 26060.3 -03405.9 -07.4459 26281.9
 18 02 2013  19 50  -21.0459 26059.9 -03405.7 -07.4455 26281.5
 18 02 2013  19 51  -21.0458 26059.7 -03405.5 -07.4453 26281.3
 18 02 2013  19 52  -21.0457 26059.6 -03405.5 -07.4452 26281.2
 18 02 2013  19 53  -21.0458 26059.6 -03405.5 -07.4452 26281.1
 18 02 2013  19 54  -21.0458 26059.7 -03405.5 -07.4453 26281.3
 18 02 2013  19 55  -21.0458 26059.5 -03405.4 -07.4451 26281.1
 18 02 2013  19 56  -21.0460 26059.1 -03405.2 -07.4447 26280.7
 18 02 2013  19 57  -21.0461 26058.8 -03405.0 -07.4443 26280.3
 18 02 2013  19 58  -21.0463 26058.5 -03404.8 -07.4441 26280.0
 18 02 2013  19 59  -21.0466 26058.1 -03404.6 -07.4438 26279.6
 18 02 2013  20 00  -21.0467 26057.8 -03404.4 -07.4435 26279.2
 18 02 2013  20 01  -21.0466 26057.5 -03404.3 -07.4433 26278.9
 18 02 2013  20 02  -21.0463 26057.5 -03404.3 -07.4433 26278.9
 18 02 2013  20 03  -21.0462 26057.5 -03404.4 -07.4435 26279.0
 18 02 2013  20 04  -21.0459 26057.7 -03404.5 -07.4437 26279.1
 18 02 2013  20 05  -21.0459 26057.6 -03404.5 -07.4437 26279.1
 18 02 2013  20 06  -21.0458 26057.2 -03404.3 -07.4434 26278.7
 18 02 2013  20 07  -21.0458 26056.9 -03404.2 -07.4432 26278.4
 18 02 2013  20 08  -21.0457 26056.4 -03403.9 -07.4428 26277.8
 18 02 2013  20 09  -21.0454 26056.1 -03403.8 -07.4425 26277.5
 18 02 2013  20 10  -21.0453 26055.9 -03403.8 -07.4425 26277.3
 18 02 2013  20 11  -21.0450 26055.8 -03403.8 -07.4426 26277.2
 18 02 2013  20 12  -21.0446 26056.0 -03403.9 -07.4428 26277.4
 18 02 2013  20 13  -21.0444 26056.2 -03404.1 -07.4431 26277.6
 18 02 2013  20 14  -21.0440 26056.2 -03404.1 -07.4432 26277.6
 18 02 2013  20 15  -21.0438 26056.0 -03404.1 -07.4432 26277.4
 18 02 2013  20 16  -21.0434 26055.9 -03404.1 -07.4432 26277.4
 18 02 2013  20 17  -21.0433 26056.0 -03404.2 -07.4434 26277.4
 18 02 2013  20 18  -21.0432 26055.7 -03404.1 -07.4433 26277.2
 18 02 2013  20 19  -21.0431 26055.4 -03403.9 -07.4430 26276.8
 18 02 2013  20 20  -21.0430 26055.1 -03403.8 -07.4429 26276.5
 18 02 2013  20 21  -21.0428 26054.9 -03403.8 -07.4429 26276.3
 18 02 2013  20 22  -21.0426 26054.8 -03403.8 -07.4430 26276.2
 18 02 2013  20 23  -21.0425 26054.7 -03403.8 -07.4431 26276.1
 18 02 2013  20 24  -21.0424 26054.5 -03403.8 -07.4431 26275.9
 18 02 2013  20 25  -21.0423 26054.4 -03403.9 -07.4432 26275.8
 18 02 2013  20 26  -21.0463 26053.9 -03403.6 -07.4427 26275.3
 18 02 2013  20 27  -21.0463 26053.6 -03403.6 -07.4428 26275.0
 18 02 2013  20 28  -21.0445 26053.9 -03403.7 -07.4430 26275.3
 18 02 2013  20 29  -21.0415 26054.1 -03404.2 -07.4439 26275.6
 18 02 2013  20 30  -21.0415 26053.7 -03404.1 -07.4438 26275.1
 18 02 2013  20 31  -21.0415 26053.2 -03403.9 -07.4436 26274.6
 18 02 2013  20 32  -21.0414 26052.7 -03403.8 -07.4435 26274.2
 18 02 2013  20 33  -21.0414 26052.4 -03403.7 -07.4435 26273.8
 18 02 2013  20 34  -21.0414 26052.0 -03403.7 -07.4435 26273.4
 18 02 2013  20 35  -21.0415 26051.7 -03403.6 -07.4435 26273.1
 18 02 2013  20 36  -21.0415 26051.5 -03403.7 -07.4437 26272.9
 18 02 2013  20 37  -21.0415 26051.4 -03403.8 -07.4440 26272.8
 18 02 2013  20 38  -21.0415 26051.1 -03403.8 -07.4441 26272.5
 18 02 2013  20 39  -21.0413 26051.0 -03403.9 -07.4443 26272.4
 18 02 2013  20 40  -21.0413 26050.9 -03404.0 -07.4445 26272.4
 18 02 2013  20 41  -21.0411 26050.8 -03404.1 -07.4447 26272.2
 18 02 2013  20 42  -21.0412 26050.6 -03404.1 -07.4448 26272.0
 18 02 2013  20 43  -21.0412 26050.2 -03404.1 -07.4448 26271.6
 18 02 2013  20 44  -21.0412 26049.7 -03404.0 -07.4447 26271.2
 18 02 2013  20 45  -21.0413 26049.4 -03403.9 -07.4447 26270.8
 18 02 2013  20 46  -21.0414 26049.4 -03404.1 -07.4450 26270.8
 18 02 2013  20 47  -21.0413 26049.1 -03404.1 -07.4453 26270.6
 18 02 2013  20 48  -21.0410 26049.0 -03404.2 -07.4455 26270.5
 18 02 2013  20 49  -21.0408 26048.9 -03404.4 -07.4458 26270.4
 18 02 2013  20 50  -21.0407 26048.5 -03404.3 -07.4458 26270.0
 18 02 2013  20 51  -21.0405 26048.3 -03404.3 -07.4460 26269.8
 18 02 2013  20 52  -21.0402 26047.9 -03404.4 -07.4461 26269.5
 18 02 2013  20 53  -21.0401 26047.6 -03404.4 -07.4462 26269.1
 18 02 2013  20 54  -21.0400 26047.3 -03404.3 -07.4462 26268.8
 18 02 2013  20 55  -21.0399 26046.9 -03404.3 -07.4464 26268.4
 18 02 2013  20 56  -21.0399 26046.5 -03404.4 -07.4466 26268.0
 18 02 2013  20 57  -21.0398 26046.1 -03404.4 -07.4467 26267.7
 18 02 2013  20 58  -21.0398 26046.1 -03404.6 -07.4471 26267.7
 18 02 2013  20 59  -21.0397 26045.8 -03404.6 -07.4471 26267.4
 18 02 2013  21 00  -21.0397 26045.3 -03404.5 -07.4472 26266.8
 18 02 2013  21 01  -21.0396 26045.2 -03404.7 -07.4476 26266.8
 18 02 2013  21 02  -21.0395 26044.9 -03404.7 -07.4477 26266.5
 18 02 2013  21 03  -21.0396 26044.5 -03404.7 -07.4477 26266.1
 18 02 2013  21 04  -21.0395 26044.3 -03404.7 -07.4480 26265.9
 18 02 2013  21 05  -21.0395 26044.2 -03404.8 -07.4482 26265.8
 18 02 2013  21 06  -21.0397 26043.6 -03404.8 -07.4482 26265.2
 18 02 2013  21 07  -21.0397 26043.6 -03404.9 -07.4484 26265.2
 18 02 2013  21 08  -21.0398 26043.0 -03404.8 -07.4484 26264.6
 18 02 2013  21 09  -21.0398 26042.7 -03404.9 -07.4487 26264.3
 18 02 2013  21 10  -21.0401 26042.1 -03404.7 -07.4485 26263.7
 18 02 2013  21 11  -21.0402 26041.8 -03404.8 -07.4487 26263.5
 18 02 2013  21 12  -21.0403 26041.6 -03404.8 -07.4489 26263.3
 18 02 2013  21 13  -21.0407 26041.1 -03404.8 -07.4489 26262.7
 18 02 2013  21 14  -21.0410 26040.8 -03404.8 -07.4491 26262.5
 18 02 2013  21 15  -21.0413 26040.4 -03404.9 -07.4493 26262.1
 18 02 2013  21 16  -21.0416 26040.0 -03404.8 -07.4494 26261.6
 18 02 2013  21 17  -21.0421 26039.6 -03404.9 -07.4496 26261.3
 18 02 2013  21 18  -21.0426 26039.2 -03404.9 -07.4497 26260.9
 18 02 2013  21 19  -21.0428 26038.8 -03404.8 -07.4497 26260.5
 18 02 2013  21 20  -21.0430 26038.4 -03404.9 -07.4500 26260.1
 18 02 2013  21 21  -21.0434 26037.8 -03404.9 -07.4501 26259.5
 18 02 2013  21 22  -21.0436 26037.5 -03405.0 -07.4503 26259.2
 18 02 2013  21 23  -21.0440 26037.3 -03405.1 -07.4506 26259.0
 18 02 2013  21 24  -21.0443 26036.8 -03405.1 -07.4509 26258.5
 18 02 2013  21 25  -21.0446 26036.3 -03405.1 -07.4509 26258.0
 18 02 2013  21 26  -21.0451 26035.8 -03405.0 -07.4510 26257.5
 18 02 2013  21 27  -21.0453 26035.3 -03405.0 -07.4510 26257.0
 18 02 2013  21 28  -21.0456 26034.7 -03404.9 -07.4511 26256.4
 18 02 2013  21 29  -21.0462 26034.1 -03404.8 -07.4509 26255.8
 18 02 2013  21 30  -21.0465 26033.8 -03404.7 -07.4509 26255.5
 18 02 2013  21 31  -21.0470 26033.7 -03404.9 -07.4514 26255.4
 18 02 2013  21 32  -21.0474 26033.2 -03404.9 -07.4514 26255.0
 18 02 2013  21 33  -21.0479 26032.8 -03404.8 -07.4514 26254.5
 18 02 2013  21 34  -21.0485 26032.3 -03404.7 -07.4513 26254.0
 18 02 2013  21 35  -21.0491 26031.6 -03404.6 -07.4511 26253.3
 18 02 2013  21 36  -21.0496 26031.3 -03404.5 -07.4512 26253.0
 18 02 2013  21 37  -21.0501 26030.8 -03404.4 -07.4510 26252.5
 18 02 2013  21 38  -21.0507 26030.6 -03404.4 -07.4512 26252.3
 18 02 2013  21 39  -21.0514 26030.6 -03404.6 -07.4515 26252.3
 18 02 2013  21 40  -21.0520 26030.2 -03404.5 -07.4514 26251.9
 18 02 2013  21 41  -21.0523 26029.9 -03404.5 -07.4515 26251.6
 18 02 2013  21 42  -21.0525 26029.4 -03404.3 -07.4513 26251.0
 18 02 2013  21 43  -21.0527 26029.1 -03404.3 -07.4513 26250.8
 18 02 2013  21 44  -21.0531 26028.5 -03404.1 -07.4511 26250.2
 18 02 2013  21 45  -21.0536 26028.2 -03404.1 -07.4511 26249.8
 18 02 2013  21 46  -21.0541 26028.1 -03404.2 -07.4515 26249.7
 18 02 2013  21 47  -21.0543 26027.4 -03404.1 -07.4513 26249.1
 18 02 2013  21 48  -21.0546 26026.9 -03404.0 -07.4512 26248.6
 18 02 2013  21 49  -21.0547 26026.6 -03403.9 -07.4512 26248.3
 18 02 2013  21 50  -21.0549 26026.0 -03403.8 -07.4511 26247.7
 18 02 2013  21 51  -21.0549 26025.5 -03403.7 -07.4511 26247.1
 18 02 2013  21 52  -21.0552 26025.0 -03403.7 -07.4511 26246.7
 18 02 2013  21 53  -21.0556 26024.7 -03403.6 -07.4511 26246.3
 18 02 2013  21 54  -21.0559 26024.4 -03403.7 -07.4512 26246.0
 18 02 2013  21 55  -21.0562 26023.9 -03403.6 -07.4513 26245.6
 18 02 2013  21 56  -21.0565 26023.5 -03403.5 -07.4513 26245.1
 18 02 2013  21 57  -21.0567 26022.8 -03403.4 -07.4512 26244.4
 18 02 2013  21 58  -21.0569 26022.1 -03403.3 -07.4511 26243.8
 18 02 2013  21 59  -21.0573 26021.6 -03403.2 -07.4510 26243.2
 18 02 2013  22 00  -21.0579 26021.6 -03403.3 -07.4512 26243.2
 18 02 2013  22 01  -21.0585 26021.3 -03403.3 -07.4513 26242.9
 18 02 2013  22 02  -21.0589 26021.2 -03403.4 -07.4515 26242.9
 18 02 2013  22 03  -21.0593 26021.2 -03403.5 -07.4519 26242.8
 18 02 2013  22 04  -21.0597 26021.0 -03403.6 -07.4521 26242.7
 18 02 2013  22 05  -21.0599 26020.9 -03403.6 -07.4522 26242.5
 18 02 2013  22 06  -21.0601 26020.8 -03403.7 -07.4524 26242.5
 18 02 2013  22 07  -21.0600 26020.9 -03403.9 -07.4528 26242.6
 18 02 2013  22 08  -21.0599 26021.0 -03404.1 -07.4531 26242.7
 18 02 2013  22 09  -21.0597 26020.9 -03404.1 -07.4532 26242.6
 18 02 2013  22 10  -21.0596 26021.0 -03404.3 -07.4536 26242.8
 18 02 2013  22 11  -21.0596 26021.3 -03404.6 -07.4541 26243.1
 18 02 2013  22 12  -21.0598 26021.4 -03404.8 -07.4545 26243.2
 18 02 2013  22 13  -21.0601 26021.6 -03405.0 -07.4549 26243.5
 18 02 2013  22 14  -21.0604 26021.8 -03405.2 -07.4553 26243.6
 18 02 2013  22 15  -21.0606 26022.0 -03405.4 -07.4556 26243.9
 18 02 2013  22 16  -21.0610 26022.3 -03405.6 -07.4560 26244.2
 18 02 2013  22 17  -21.0613 26022.5 -03405.7 -07.4563 26244.4
 18 02 2013  22 18  -21.0615 26022.8 -03405.9 -07.4567 26244.7
 18 02 2013  22 19  -21.0616 26023.1 -03406.1 -07.4569 26245.0
 18 02 2013  22 20  -21.0617 26023.2 -03406.2 -07.4571 26245.2
 18 02 2013  22 21  -21.0615 26023.3 -03406.3 -07.4572 26245.3
 18 02 2013  22 22  -21.0614 26023.6 -03406.4 -07.4574 26245.6
 18 02 2013  22 23  -21.0614 26023.8 -03406.5 -07.4577 26245.8
 18 02 2013  22 24  -21.0614 26023.9 -03406.7 -07.4579 26245.9
 18 02 2013  22 25  -21.0615 26024.2 -03406.8 -07.4581 26246.2
 18 02 2013  22 26  -21.0617 26024.4 -03407.0 -07.4584 26246.5
 18 02 2013  22 27  -21.0618 26024.6 -03407.1 -07.4586 26246.7
 18 02 2013  22 28  -21.0617 26024.7 -03407.1 -07.4587 26246.8
 18 02 2013  22 29  -21.0616 26024.8 -03407.2 -07.4588 26246.9
 18 02 2013  22 30  -21.0616 26025.0 -03407.3 -07.4590 26247.1
 18 02 2013  22 31  -21.0616 26025.2 -03407.4 -07.4592 26247.3
 18 02 2013  22 32  -21.0615 26025.4 -03407.5 -07.4593 26247.5
 18 02 2013  22 33  -21.0615 26025.6 -03407.6 -07.4595 26247.7
 18 02 2013  22 34  -21.0613 26025.8 -03407.7 -07.4596 26247.9
 18 02 2013  22 35  -21.0612 26026.1 -03407.9 -07.4599 26248.2
 18 02 2013  22 36  -21.0611 26026.3 -03408.0 -07.4602 26248.5
 18 02 2013  22 37  -21.0612 26026.6 -03408.2 -07.4605 26248.8
 18 02 2013  22 38  -21.0614 26027.0 -03408.4 -07.4608 26249.3
 18 02 2013  22 39  -21.0614 26027.4 -03408.6 -07.4611 26249.6
 18 02 2013  22 40  -21.0615 26027.7 -03408.7 -07.4613 26250.0
 18 02 2013  22 41  -21.0614 26028.0 -03408.8 -07.4614 26250.2
 18 02 2013  22 42  -21.0611 26028.3 -03408.9 -07.4616 26250.5
 18 02 2013  22 43  -21.0609 26028.5 -03409.0 -07.4616 26250.8
 18 02 2013  22 44  -21.0605 26028.5 -03409.0 -07.4616 26250.8
 18 02 2013  22 45  -21.0600 26028.7 -03409.0 -07.4617 26251.0
 18 02 2013  22 46  -21.0595 26028.9 -03409.1 -07.4618 26251.2
 18 02 2013  22 47  -21.0592 26029.0 -03409.2 -07.4620 26251.3
 18 02 2013  22 48  -21.0590 26029.1 -03409.3 -07.4621 26251.4
 18 02 2013  22 49  -21.0588 26029.2 -03409.3 -07.4621 26251.5
 18 02 2013  22 50  -21.0585 26029.2 -03409.3 -07.4622 26251.5
 18 02 2013  22 51  -21.0584 26029.3 -03409.4 -07.4622 26251.6
 18 02 2013  22 52  -21.0581 26029.6 -03409.5 -07.4625 26251.9
 18 02 2013  22 53  -21.0579 26029.9 -03409.7 -07.4628 26252.3
 18 02 2013  22 54  -21.0579 26030.2 -03409.9 -07.4630 26252.6
 18 02 2013  22 55  -21.0577 26030.4 -03410.0 -07.4632 26252.8
 18 02 2013  22 56  -21.0575 26030.6 -03410.1 -07.4634 26253.1
 18 02 2013  22 57  -21.0573 26030.8 -03410.2 -07.4635 26253.2
 18 02 2013  22 58  -21.0571 26031.0 -03410.3 -07.4637 26253.5
 18 02 2013  22 59  -21.0569 26031.2 -03410.3 -07.4638 26253.6
 18 02 2013  23 00  -21.0566 26031.3 -03410.4 -07.4638 26253.7
 18 02 2013  23 01  -21.0563 26031.3 -03410.4 -07.4638 26253.7
 18 02 2013  23 02  -21.0559 26031.3 -03410.4 -07.4638 26253.8
 18 02 2013  23 03  -21.0557 26031.5 -03410.5 -07.4639 26253.9
 18 02 2013  23 04  -21.0555 26031.5 -03410.5 -07.4640 26254.0
 18 02 2013  23 05  -21.0552 26031.6 -03410.6 -07.4642 26254.1
 18 02 2013  23 06  -21.0550 26031.7 -03410.6 -07.4642 26254.2
 18 02 2013  23 07  -21.0547 26031.9 -03410.7 -07.4643 26254.4
 18 02 2013  23 08  -21.0544 26032.1 -03410.8 -07.4645 26254.6
 18 02 2013  23 09  -21.0542 26032.3 -03410.9 -07.4647 26254.8
 18 02 2013  23 10  -21.0540 26032.5 -03411.1 -07.4650 26255.1
 18 02 2013  23 11  -21.0538 26032.8 -03411.2 -07.4652 26255.3
 18 02 2013  23 12  -21.0536 26032.9 -03411.3 -07.4653 26255.5
 18 02 2013  23 13  -21.0534 26033.1 -03411.4 -07.4655 26255.7
 18 02 2013  23 14  -21.0531 26033.3 -03411.4 -07.4656 26255.9
 18 02 2013  23 15  -21.0528 26033.4 -03411.5 -07.4657 26256.0
 18 02 2013  23 16  -21.0526 26033.6 -03411.6 -07.4658 26256.1
 18 02 2013  23 17  -21.0524 26033.6 -03411.6 -07.4658 26256.2
 18 02 2013  23 18  -21.0522 26033.7 -03411.6 -07.4659 26256.3
 18 02 2013  23 19  -21.0522 26033.7 -03411.7 -07.4659 26256.3
 18 02 2013  23 20  -21.0522 26033.8 -03411.7 -07.4660 26256.4
 18 02 2013  23 21  -21.0521 26033.9 -03411.7 -07.4660 26256.5
 18 02 2013  23 22  -21.0522 26033.9 -03411.8 -07.4661 26256.5
 18 02 2013  23 23  -21.0522 26034.0 -03411.8 -07.4661 26256.6
 18 02 2013  23 24  -21.0523 26034.2 -03411.8 -07.4662 26256.8
 18 02 2013  23 25  -21.0522 26034.3 -03411.9 -07.4662 26256.9
 18 02 2013  23 26  -21.0522 26034.4 -03411.9 -07.4663 26257.1
 18 02 2013  23 27  -21.0524 26034.6 -03412.0 -07.4664 26257.2
 18 02 2013  23 28  -21.0524 26034.7 -03412.0 -07.4664 26257.3
 18 02 2013  23 29  -21.0523 26034.9 -03412.1 -07.4665 26257.5
 18 02 2013  23 30  -21.0523 26035.1 -03412.1 -07.4666 26257.7
 18 02 2013  23 31  -21.0522 26035.2 -03412.2 -07.4666 26257.9
 18 02 2013  23 32  -21.0520 26035.5 -03412.3 -07.4667 26258.1
 18 02 2013  23 33  -21.0519 26035.6 -03412.3 -07.4668 26258.2
 18 02 2013  23 34  -21.0517 26035.7 -03412.3 -07.4668 26258.4
 18 02 2013  23 35  -21.0517 26035.9 -03412.4 -07.4669 26258.5
 18 02 2013  23 36  -21.0516 26036.0 -03412.4 -07.4669 26258.7
 18 02 2013  23 37  -21.0515 26036.1 -03412.5 -07.4670 26258.8
 18 02 2013  23 38  -21.0515 26036.3 -03412.5 -07.4670 26258.9
 18 02 2013  23 39  -21.0514 26036.3 -03412.5 -07.4670 26259.0
 18 02 2013  23 40  -21.0512 26036.4 -03412.5 -07.4669 26259.1
 18 02 2013  23 41  -21.0511 26036.5 -03412.5 -07.4669 26259.2
 18 02 2013  23 42  -21.0510 26036.6 -03412.5 -07.4669 26259.2
 18 02 2013  23 43  -21.0509 26036.6 -03412.5 -07.4669 26259.3
 18 02 2013  23 44  -21.0509 26036.7 -03412.5 -07.4669 26259.4
 18 02 2013  23 45  -21.0509 26036.8 -03412.6 -07.4670 26259.5
 18 02 2013  23 46  -21.0509 26036.8 -03412.6 -07.4670 26259.5
 18 02 2013  23 47  -21.0509 26036.8 -03412.6 -07.4670 26259.5
 18 02 2013  23 48  -21.0509 26036.9 -03412.6 -07.4670 26259.6
 18 02 2013  23 49  -21.0508 26036.9 -03412.5 -07.4669 26259.6
 18 02 2013  23 50  -21.0509 26037.0 -03412.5 -07.4669 26259.7
 18 02 2013  23 51  -21.0509 26037.0 -03412.6 -07.4669 26259.7
 18 02 2013  23 52  -21.0509 26037.1 -03412.6 -07.4669 26259.8
 18 02 2013  23 53  -21.0510 26037.1 -03412.6 -07.4669 26259.8
 18 02 2013  23 54  -21.0511 26037.2 -03412.6 -07.4669 26259.9
 18 02 2013  23 55  -21.0511 26037.2 -03412.6 -07.4669 26259.9
 18 02 2013  23 56  -21.0511 26037.3 -03412.6 -07.4669 26260.0
 18 02 2013  23 57  -21.0511 26037.4 -03412.6 -07.4670 26260.0
 18 02 2013  23 58  -21.0510 26037.4 -03412.6 -07.4670 26260.1
