SAO LUIS EMBRACE-03 <229> 1 Min. Reported data

 DD MM YYYY  HH MM   D(Deg)  H(nT)   Z(nT)   I(Deg)   F(nT)

 17 08 2013  00 00  -21.0331 26015.4 -03476.0 -07.6105 26246.6
 17 08 2013  00 01  -21.0330 26015.7 -03476.2 -07.6108 26246.9
 17 08 2013  00 02  -21.0328 26015.7 -03476.2 -07.6108 26246.9
 17 08 2013  00 03  -21.0328 26015.6 -03476.1 -07.6106 26246.8
 17 08 2013  00 04  -21.0325 26015.6 -03476.1 -07.6104 26246.8
 17 08 2013  00 05  -21.0321 26015.6 -03476.0 -07.6104 26246.8
 17 08 2013  00 06  -21.0319 26015.5 -03476.0 -07.6104 26246.7
 17 08 2013  00 07  -21.0317 26015.4 -03476.0 -07.6103 26246.6
 17 08 2013  00 08  -21.0317 26015.3 -03475.9 -07.6102 26246.5
 17 08 2013  00 09  -21.0317 26015.1 -03475.8 -07.6101 26246.3
 17 08 2013  00 10  -21.0317 26014.9 -03475.8 -07.6100 26246.1
 17 08 2013  00 11  -21.0316 26014.7 -03475.7 -07.6100 26245.9
 17 08 2013  00 12  -21.0317 26014.5 -03475.6 -07.6099 26245.6
 17 08 2013  00 13  -21.0318 26014.2 -03475.5 -07.6097 26245.4
 17 08 2013  00 14  -21.0317 26014.2 -03475.5 -07.6097 26245.4
 17 08 2013  00 15  -21.0314 26014.5 -03475.7 -07.6101 26245.7
 17 08 2013  00 16  -21.0314 26014.6 -03475.9 -07.6103 26245.8
 17 08 2013  00 17  -21.0317 26014.2 -03475.7 -07.6101 26245.4
 17 08 2013  00 18  -21.0320 26013.8 -03475.5 -07.6099 26244.9
 17 08 2013  00 19  -21.0322 26013.5 -03475.4 -07.6097 26244.7
 17 08 2013  00 20  -21.0323 26013.6 -03475.5 -07.6098 26244.7
 17 08 2013  00 21  -21.0324 26013.6 -03475.5 -07.6099 26244.7
 17 08 2013  00 22  -21.0324 26013.7 -03475.6 -07.6101 26244.9
 17 08 2013  00 23  -21.0328 26013.8 -03475.7 -07.6102 26244.9
 17 08 2013  00 24  -21.0331 26013.7 -03475.7 -07.6101 26244.9
 17 08 2013  00 25  -21.0333 26013.9 -03475.8 -07.6103 26245.0
 17 08 2013  00 26  -21.0333 26014.3 -03475.9 -07.6106 26245.5
 17 08 2013  00 27  -21.0332 26014.5 -03476.1 -07.6108 26245.7
 17 08 2013  00 28  -21.0333 26014.5 -03476.1 -07.6109 26245.8
 17 08 2013  00 29  -21.0334 26014.6 -03476.2 -07.6110 26245.8
 17 08 2013  00 30  -21.0338 26014.5 -03476.1 -07.6109 26245.7
 17 08 2013  00 31  -21.0341 26014.4 -03476.1 -07.6108 26245.6
 17 08 2013  00 32  -21.0342 26014.3 -03476.0 -07.6107 26245.5
 17 08 2013  00 33  -21.0341 26014.2 -03475.9 -07.6106 26245.4
 17 08 2013  00 34  -21.0338 26014.2 -03476.0 -07.6106 26245.4
 17 08 2013  00 35  -21.0334 26014.5 -03476.1 -07.6108 26245.7
 17 08 2013  00 36  -21.0333 26014.7 -03476.2 -07.6110 26245.9
 17 08 2013  00 37  -21.0331 26014.9 -03476.4 -07.6113 26246.1
 17 08 2013  00 38  -21.0331 26014.8 -03476.3 -07.6113 26246.0
 17 08 2013  00 39  -21.0334 26014.5 -03476.2 -07.6112 26245.7
 17 08 2013  00 40  -21.0336 26014.2 -03476.1 -07.6110 26245.5
 17 08 2013  00 41  -21.0337 26014.1 -03476.1 -07.6109 26245.3
 17 08 2013  00 42  -21.0337 26014.1 -03476.1 -07.6109 26245.3
 17 08 2013  00 43  -21.0337 26013.9 -03476.0 -07.6108 26245.1
 17 08 2013  00 44  -21.0337 26013.9 -03476.0 -07.6108 26245.1
 17 08 2013  00 45  -21.0336 26014.0 -03476.1 -07.6109 26245.2
 17 08 2013  00 46  -21.0338 26014.1 -03476.2 -07.6111 26245.3
 17 08 2013  00 47  -21.0339 26013.9 -03476.1 -07.6111 26245.1
 17 08 2013  00 48  -21.0341 26013.9 -03476.1 -07.6111 26245.1
 17 08 2013  00 49  -21.0341 26014.1 -03476.2 -07.6112 26245.3
 17 08 2013  00 50  -21.0343 26014.0 -03476.2 -07.6113 26245.3
 17 08 2013  00 51  -21.0345 26013.9 -03476.2 -07.6112 26245.2
 17 08 2013  00 52  -21.0347 26014.0 -03476.2 -07.6113 26245.2
 17 08 2013  00 53  -21.0347 26014.1 -03476.3 -07.6114 26245.4
 17 08 2013  00 54  -21.0344 26014.4 -03476.4 -07.6115 26245.6
 17 08 2013  00 55  -21.0342 26014.6 -03476.5 -07.6116 26245.8
 17 08 2013  00 56  -21.0339 26014.6 -03476.5 -07.6118 26245.9
 17 08 2013  00 57  -21.0338 26014.6 -03476.5 -07.6117 26245.9
 17 08 2013  00 58  -21.0338 26014.5 -03476.5 -07.6117 26245.8
 17 08 2013  00 59  -21.0338 26014.5 -03476.5 -07.6117 26245.8
 17 08 2013  01 00  -21.0338 26014.6 -03476.5 -07.6118 26245.8
 17 08 2013  01 01  -21.0340 26014.6 -03476.6 -07.6118 26245.8
 17 08 2013  01 02  -21.0339 26014.6 -03476.6 -07.6118 26245.9
 17 08 2013  01 03  -21.0337 26014.8 -03476.7 -07.6120 26246.1
 17 08 2013  01 04  -21.0337 26014.9 -03476.7 -07.6120 26246.2
 17 08 2013  01 05  -21.0338 26015.0 -03476.8 -07.6121 26246.3
 17 08 2013  01 06  -21.0339 26015.1 -03476.8 -07.6122 26246.4
 17 08 2013  01 07  -21.0339 26015.3 -03476.9 -07.6124 26246.7
 17 08 2013  01 08  -21.0340 26015.6 -03477.1 -07.6127 26246.9
 17 08 2013  01 09  -21.0341 26015.7 -03477.1 -07.6127 26247.1
 17 08 2013  01 10  -21.0343 26015.7 -03477.2 -07.6128 26247.1
 17 08 2013  01 11  -21.0345 26015.7 -03477.1 -07.6127 26247.0
 17 08 2013  01 12  -21.0347 26015.5 -03477.0 -07.6125 26246.8
 17 08 2013  01 13  -21.0349 26015.3 -03476.9 -07.6123 26246.6
 17 08 2013  01 14  -21.0351 26015.2 -03476.8 -07.6122 26246.5
 17 08 2013  01 15  -21.0353 26015.1 -03476.7 -07.6121 26246.4
 17 08 2013  01 16  -21.0353 26014.9 -03476.7 -07.6119 26246.2
 17 08 2013  01 17  -21.0352 26014.9 -03476.6 -07.6119 26246.2
 17 08 2013  01 18  -21.0349 26015.0 -03476.6 -07.6118 26246.3
 17 08 2013  01 19  -21.0349 26015.0 -03476.6 -07.6119 26246.3
 17 08 2013  01 20  -21.0350 26015.1 -03476.7 -07.6120 26246.4
 17 08 2013  01 21  -21.0351 26015.1 -03476.8 -07.6121 26246.4
 17 08 2013  01 22  -21.0352 26015.3 -03476.8 -07.6122 26246.6
 17 08 2013  01 23  -21.0352 26015.5 -03476.9 -07.6123 26246.8
 17 08 2013  01 24  -21.0350 26015.8 -03477.0 -07.6125 26247.1
 17 08 2013  01 25  -21.0348 26015.9 -03477.1 -07.6125 26247.2
 17 08 2013  01 26  -21.0346 26015.8 -03477.0 -07.6125 26247.1
 17 08 2013  01 27  -21.0346 26015.7 -03477.0 -07.6124 26247.0
 17 08 2013  01 28  -21.0347 26015.5 -03476.9 -07.6123 26246.8
 17 08 2013  01 29  -21.0348 26015.4 -03476.8 -07.6121 26246.7
 17 08 2013  01 30  -21.0347 26015.5 -03476.8 -07.6122 26246.8
 17 08 2013  01 31  -21.0347 26015.4 -03476.8 -07.6121 26246.7
 17 08 2013  01 32  -21.0346 26015.5 -03476.9 -07.6122 26246.8
 17 08 2013  01 33  -21.0345 26015.6 -03476.9 -07.6122 26246.9
 17 08 2013  01 34  -21.0343 26015.9 -03477.0 -07.6124 26247.2
 17 08 2013  01 35  -21.0340 26016.4 -03477.2 -07.6128 26247.7
 17 08 2013  01 36  -21.0340 26016.5 -03477.3 -07.6130 26247.9
 17 08 2013  01 37  -21.0339 26016.9 -03477.5 -07.6133 26248.3
 17 08 2013  01 38  -21.0338 26017.3 -03477.7 -07.6135 26248.7
 17 08 2013  01 39  -21.0337 26017.5 -03477.8 -07.6136 26248.9
 17 08 2013  01 40  -21.0335 26017.6 -03477.8 -07.6137 26249.0
 17 08 2013  01 41  -21.0333 26017.5 -03477.7 -07.6135 26248.9
 17 08 2013  01 42  -21.0332 26017.5 -03477.7 -07.6135 26248.9
 17 08 2013  01 43  -21.0333 26017.5 -03477.7 -07.6134 26248.9
 17 08 2013  01 44  -21.0333 26017.6 -03477.7 -07.6134 26249.0
 17 08 2013  01 45  -21.0338 26017.3 -03477.5 -07.6132 26248.6
 17 08 2013  01 46  -21.0344 26016.8 -03477.4 -07.6129 26248.2
 17 08 2013  01 47  -21.0348 26016.4 -03477.1 -07.6125 26247.7
 17 08 2013  01 48  -21.0349 26016.2 -03477.0 -07.6123 26247.5
 17 08 2013  01 49  -21.0346 26016.4 -03477.1 -07.6124 26247.7
 17 08 2013  01 50  -21.0344 26016.6 -03477.2 -07.6126 26247.9
 17 08 2013  01 51  -21.0344 26016.7 -03477.2 -07.6127 26248.1
 17 08 2013  01 52  -21.0342 26017.1 -03477.3 -07.6128 26248.5
 17 08 2013  01 53  -21.0341 26017.4 -03477.5 -07.6130 26248.8
 17 08 2013  01 54  -21.0341 26017.8 -03477.6 -07.6132 26249.2
 17 08 2013  01 55  -21.0341 26018.1 -03477.9 -07.6136 26249.5
 17 08 2013  01 56  -21.0339 26018.4 -03477.9 -07.6136 26249.8
 17 08 2013  01 57  -21.0338 26018.5 -03477.9 -07.6137 26250.0
 17 08 2013  01 58  -21.0335 26019.1 -03478.1 -07.6139 26250.5
 17 08 2013  01 59  -21.0333 26019.2 -03478.2 -07.6140 26250.7
 17 08 2013  02 00  -21.0330 26019.6 -03478.3 -07.6141 26251.1
 17 08 2013  02 01  -21.0329 26019.8 -03478.4 -07.6142 26251.3
 17 08 2013  02 02  -21.0328 26020.1 -03478.4 -07.6143 26251.5
 17 08 2013  02 03  -21.0326 26020.3 -03478.5 -07.6145 26251.8
 17 08 2013  02 04  -21.0325 26020.6 -03478.6 -07.6146 26252.1
 17 08 2013  02 05  -21.0324 26021.1 -03478.8 -07.6148 26252.6
 17 08 2013  02 06  -21.0325 26021.5 -03478.9 -07.6150 26253.0
 17 08 2013  02 07  -21.0327 26021.7 -03479.0 -07.6151 26253.3
 17 08 2013  02 08  -21.0328 26022.0 -03479.1 -07.6151 26253.5
 17 08 2013  02 09  -21.0326 26022.5 -03479.2 -07.6152 26254.1
 17 08 2013  02 10  -21.0325 26022.8 -03479.2 -07.6152 26254.3
 17 08 2013  02 11  -21.0323 26022.9 -03479.2 -07.6151 26254.5
 17 08 2013  02 12  -21.0324 26022.9 -03479.1 -07.6150 26254.5
 17 08 2013  02 13  -21.0325 26023.0 -03479.0 -07.6147 26254.5
 17 08 2013  02 14  -21.0325 26023.3 -03479.1 -07.6148 26254.9
 17 08 2013  02 15  -21.0326 26023.7 -03479.2 -07.6150 26255.2
 17 08 2013  02 16  -21.0329 26023.6 -03479.1 -07.6147 26255.2
 17 08 2013  02 17  -21.0332 26023.5 -03479.0 -07.6145 26255.0
 17 08 2013  02 18  -21.0331 26023.8 -03479.0 -07.6144 26255.3
 17 08 2013  02 19  -21.0334 26023.8 -03479.0 -07.6143 26255.3
 17 08 2013  02 20  -21.0335 26023.9 -03478.8 -07.6141 26255.4
 17 08 2013  02 21  -21.0335 26023.8 -03478.8 -07.6139 26255.3
 17 08 2013  02 22  -21.0335 26024.1 -03478.7 -07.6138 26255.6
 17 08 2013  02 23  -21.0336 26024.4 -03478.9 -07.6140 26255.8
 17 08 2013  02 24  -21.0334 26025.2 -03479.1 -07.6143 26256.7
 17 08 2013  02 25  -21.0331 26025.6 -03479.3 -07.6145 26257.1
 17 08 2013  02 26  -21.0329 26026.0 -03479.4 -07.6146 26257.6
 17 08 2013  02 27  -21.0329 26025.9 -03479.3 -07.6144 26257.4
 17 08 2013  02 28  -21.0329 26025.6 -03479.0 -07.6140 26257.2
 17 08 2013  02 29  -21.0325 26025.9 -03479.0 -07.6138 26257.4
 17 08 2013  02 30  -21.0324 26025.9 -03478.9 -07.6136 26257.3
 17 08 2013  02 31  -21.0321 26025.9 -03478.9 -07.6136 26257.4
 17 08 2013  02 32  -21.0320 26025.9 -03478.8 -07.6134 26257.4
 17 08 2013  02 33  -21.0320 26025.8 -03478.7 -07.6133 26257.3
 17 08 2013  02 34  -21.0317 26026.0 -03478.8 -07.6133 26257.5
 17 08 2013  02 35  -21.0316 26026.0 -03478.7 -07.6133 26257.4
 17 08 2013  02 36  -21.0313 26026.4 -03478.9 -07.6134 26257.8
 17 08 2013  02 37  -21.0312 26026.2 -03478.8 -07.6134 26257.7
 17 08 2013  02 38  -21.0312 26026.3 -03478.8 -07.6133 26257.8
 17 08 2013  02 39  -21.0311 26026.3 -03478.7 -07.6132 26257.7
 17 08 2013  02 40  -21.0312 26026.3 -03478.7 -07.6131 26257.7
 17 08 2013  02 41  -21.0315 26026.3 -03478.7 -07.6131 26257.8
 17 08 2013  02 42  -21.0315 26026.2 -03478.6 -07.6130 26257.6
 17 08 2013  02 43  -21.0312 26026.0 -03478.4 -07.6126 26257.4
 17 08 2013  02 44  -21.0309 26025.7 -03478.3 -07.6123 26257.1
 17 08 2013  02 45  -21.0305 26025.6 -03478.2 -07.6122 26257.0
 17 08 2013  02 46  -21.0302 26025.2 -03478.0 -07.6119 26256.6
 17 08 2013  02 47  -21.0299 26024.9 -03477.8 -07.6115 26256.2
 17 08 2013  02 48  -21.0296 26024.5 -03477.6 -07.6113 26255.8
 17 08 2013  02 49  -21.0293 26024.3 -03477.5 -07.6112 26255.6
 17 08 2013  02 50  -21.0290 26024.3 -03477.6 -07.6112 26255.7
 17 08 2013  02 51  -21.0287 26024.4 -03477.6 -07.6113 26255.7
 17 08 2013  02 52  -21.0286 26024.2 -03477.6 -07.6113 26255.5
 17 08 2013  02 53  -21.0283 26023.7 -03477.4 -07.6110 26255.0
 17 08 2013  02 54  -21.0278 26023.6 -03477.3 -07.6108 26254.9
 17 08 2013  02 55  -21.0278 26023.4 -03477.3 -07.6109 26254.7
 17 08 2013  02 56  -21.0281 26023.3 -03477.3 -07.6109 26254.6
 17 08 2013  02 57  -21.0282 26023.3 -03477.4 -07.6110 26254.6
 17 08 2013  02 58  -21.0281 26023.0 -03477.2 -07.6109 26254.3
 17 08 2013  02 59  -21.0285 26022.4 -03477.1 -07.6106 26253.7
 17 08 2013  03 00  -21.0290 26022.4 -03477.0 -07.6106 26253.6
 17 08 2013  03 01  -21.0294 26022.5 -03477.2 -07.6109 26253.8
 17 08 2013  03 02  -21.0297 26022.3 -03477.2 -07.6109 26253.6
 17 08 2013  03 03  -21.0295 26022.3 -03477.2 -07.6110 26253.6
 17 08 2013  03 04  -21.0296 26022.4 -03477.3 -07.6112 26253.7
 17 08 2013  03 05  -21.0295 26022.2 -03477.3 -07.6112 26253.5
 17 08 2013  03 06  -21.0295 26021.8 -03477.1 -07.6109 26253.1
 17 08 2013  03 07  -21.0296 26021.4 -03476.9 -07.6106 26252.7
 17 08 2013  03 08  -21.0291 26021.1 -03476.7 -07.6104 26252.3
 17 08 2013  03 09  -21.0284 26020.9 -03476.6 -07.6101 26252.1
 17 08 2013  03 10  -21.0276 26021.0 -03476.7 -07.6103 26252.3
 17 08 2013  03 11  -21.0274 26021.1 -03476.9 -07.6107 26252.4
 17 08 2013  03 12  -21.0275 26021.0 -03477.0 -07.6109 26252.3
 17 08 2013  03 13  -21.0278 26020.7 -03476.8 -07.6107 26251.9
 17 08 2013  03 14  -21.0281 26020.3 -03476.7 -07.6105 26251.5
 17 08 2013  03 15  -21.0291 26019.7 -03476.5 -07.6102 26250.9
 17 08 2013  03 16  -21.0299 26019.3 -03476.4 -07.6101 26250.5
 17 08 2013  03 17  -21.0303 26019.4 -03476.4 -07.6102 26250.6
 17 08 2013  03 18  -21.0307 26019.6 -03476.6 -07.6104 26250.9
 17 08 2013  03 19  -21.0308 26019.6 -03476.6 -07.6105 26250.9
 17 08 2013  03 20  -21.0309 26019.5 -03476.6 -07.6105 26250.7
 17 08 2013  03 21  -21.0310 26019.4 -03476.5 -07.6104 26250.6
 17 08 2013  03 22  -21.0311 26019.3 -03476.5 -07.6103 26250.5
 17 08 2013  03 23  -21.0311 26019.1 -03476.4 -07.6102 26250.3
 17 08 2013  03 24  -21.0313 26019.1 -03476.5 -07.6103 26250.4
 17 08 2013  03 25  -21.0313 26019.3 -03476.5 -07.6104 26250.5
 17 08 2013  03 26  -21.0315 26019.2 -03476.6 -07.6105 26250.4
 17 08 2013  03 27  -21.0320 26019.0 -03476.5 -07.6103 26250.2
 17 08 2013  03 28  -21.0327 26019.0 -03476.4 -07.6103 26250.2
 17 08 2013  03 29  -21.0331 26018.8 -03476.4 -07.6102 26250.1
 17 08 2013  03 30  -21.0333 26018.7 -03476.3 -07.6100 26249.9
 17 08 2013  03 31  -21.0332 26018.5 -03476.2 -07.6098 26249.7
 17 08 2013  03 32  -21.0330 26018.1 -03476.0 -07.6095 26249.3
 17 08 2013  03 33  -21.0330 26017.9 -03475.8 -07.6092 26249.0
 17 08 2013  03 34  -21.0332 26017.6 -03475.7 -07.6091 26248.7
 17 08 2013  03 35  -21.0330 26017.2 -03475.5 -07.6088 26248.4
 17 08 2013  03 36  -21.0330 26017.0 -03475.4 -07.6087 26248.1
 17 08 2013  03 37  -21.0329 26016.9 -03475.4 -07.6087 26248.0
 17 08 2013  03 38  -21.0326 26016.8 -03475.4 -07.6087 26247.9
 17 08 2013  03 39  -21.0323 26016.9 -03475.5 -07.6088 26248.0
 17 08 2013  03 40  -21.0320 26017.1 -03475.6 -07.6091 26248.2
 17 08 2013  03 41  -21.0322 26016.8 -03475.5 -07.6090 26247.9
 17 08 2013  03 42  -21.0321 26016.7 -03475.5 -07.6089 26247.8
 17 08 2013  03 43  -21.0318 26016.4 -03475.4 -07.6088 26247.5
 17 08 2013  03 44  -21.0314 26016.4 -03475.4 -07.6087 26247.5
 17 08 2013  03 45  -21.0308 26016.3 -03475.4 -07.6087 26247.4
 17 08 2013  03 46  -21.0306 26016.1 -03475.3 -07.6087 26247.2
 17 08 2013  03 47  -21.0309 26015.9 -03475.3 -07.6087 26247.0
 17 08 2013  03 48  -21.0312 26016.1 -03475.4 -07.6089 26247.2
 17 08 2013  03 49  -21.0315 26016.2 -03475.5 -07.6091 26247.3
 17 08 2013  03 50  -21.0314 26016.4 -03475.7 -07.6094 26247.5
 17 08 2013  03 51  -21.0313 26016.5 -03475.7 -07.6095 26247.7
 17 08 2013  03 52  -21.0313 26016.5 -03475.7 -07.6095 26247.7
 17 08 2013  03 53  -21.0314 26016.4 -03475.7 -07.6095 26247.6
 17 08 2013  03 54  -21.0316 26016.4 -03475.7 -07.6094 26247.6
 17 08 2013  03 55  -21.0317 26016.6 -03475.8 -07.6095 26247.8
 17 08 2013  03 56  -21.0317 26016.8 -03475.9 -07.6097 26247.9
 17 08 2013  03 57  -21.0311 26016.9 -03475.8 -07.6096 26248.0
 17 08 2013  03 58  -21.0305 26016.9 -03475.8 -07.6096 26248.1
 17 08 2013  03 59  -21.0301 26016.8 -03475.8 -07.6095 26248.0
 17 08 2013  04 00  -21.0297 26016.8 -03475.7 -07.6094 26247.9
 17 08 2013  04 01  -21.0296 26016.6 -03475.7 -07.6094 26247.7
 17 08 2013  04 02  -21.0297 26016.5 -03475.6 -07.6093 26247.6
 17 08 2013  04 03  -21.0295 26016.3 -03475.6 -07.6092 26247.5
 17 08 2013  04 04  -21.0297 26016.5 -03475.7 -07.6094 26247.6
 17 08 2013  04 05  -21.0303 26016.7 -03475.8 -07.6096 26247.8
 17 08 2013  04 06  -21.0309 26016.8 -03476.0 -07.6099 26248.0
 17 08 2013  04 07  -21.0312 26016.4 -03475.8 -07.6097 26247.6
 17 08 2013  04 08  -21.0313 26016.2 -03475.6 -07.6093 26247.3
 17 08 2013  04 09  -21.0317 26015.9 -03475.5 -07.6091 26247.0
 17 08 2013  04 10  -21.0320 26015.8 -03475.4 -07.6090 26246.9
 17 08 2013  04 11  -21.0319 26015.7 -03475.3 -07.6089 26246.8
 17 08 2013  04 12  -21.0320 26015.7 -03475.3 -07.6088 26246.8
 17 08 2013  04 13  -21.0320 26015.7 -03475.3 -07.6088 26246.8
 17 08 2013  04 14  -21.0321 26015.9 -03475.4 -07.6089 26247.0
 17 08 2013  04 15  -21.0318 26015.3 -03475.2 -07.6086 26246.4
 17 08 2013  04 16  -21.0313 26014.9 -03474.9 -07.6082 26246.0
 17 08 2013  04 17  -21.0310 26014.7 -03474.8 -07.6080 26245.7
 17 08 2013  04 18  -21.0309 26014.4 -03474.7 -07.6079 26245.4
 17 08 2013  04 19  -21.0311 26014.2 -03474.7 -07.6078 26245.2
 17 08 2013  04 20  -21.0311 26014.1 -03474.7 -07.6079 26245.1
 17 08 2013  04 21  -21.0309 26013.8 -03474.6 -07.6078 26244.9
 17 08 2013  04 22  -21.0308 26013.5 -03474.5 -07.6077 26244.5
 17 08 2013  04 23  -21.0307 26013.2 -03474.4 -07.6075 26244.2
 17 08 2013  04 24  -21.0303 26013.4 -03474.5 -07.6077 26244.4
 17 08 2013  04 25  -21.0302 26013.3 -03474.6 -07.6080 26244.4
 17 08 2013  04 26  -21.0302 26013.2 -03474.7 -07.6081 26244.3
 17 08 2013  04 27  -21.0306 26013.4 -03474.8 -07.6084 26244.4
 17 08 2013  04 28  -21.0307 26013.3 -03474.8 -07.6085 26244.3
 17 08 2013  04 29  -21.0308 26013.5 -03475.0 -07.6087 26244.6
 17 08 2013  04 30  -21.0311 26013.7 -03475.1 -07.6089 26244.8
 17 08 2013  04 31  -21.0311 26013.5 -03475.1 -07.6089 26244.6
 17 08 2013  04 32  -21.0308 26013.2 -03474.9 -07.6087 26244.3
 17 08 2013  04 33  -21.0305 26013.1 -03474.8 -07.6085 26244.2
 17 08 2013  04 34  -21.0308 26013.3 -03475.0 -07.6088 26244.4
 17 08 2013  04 35  -21.0315 26013.3 -03475.1 -07.6090 26244.4
 17 08 2013  04 36  -21.0319 26013.5 -03475.2 -07.6092 26244.6
 17 08 2013  04 37  -21.0322 26013.6 -03475.3 -07.6094 26244.7
 17 08 2013  04 38  -21.0321 26013.4 -03475.2 -07.6091 26244.5
 17 08 2013  04 39  -21.0319 26013.2 -03475.0 -07.6088 26244.3
 17 08 2013  04 40  -21.0315 26013.3 -03475.0 -07.6088 26244.4
 17 08 2013  04 41  -21.0312 26013.3 -03475.0 -07.6089 26244.4
 17 08 2013  04 42  -21.0307 26013.8 -03475.2 -07.6092 26244.9
 17 08 2013  04 43  -21.0305 26014.2 -03475.5 -07.6097 26245.3
 17 08 2013  04 44  -21.0301 26014.1 -03475.5 -07.6096 26245.2
 17 08 2013  04 45  -21.0298 26014.3 -03475.6 -07.6098 26245.4
 17 08 2013  04 46  -21.0298 26014.5 -03475.7 -07.6100 26245.7
 17 08 2013  04 47  -21.0302 26014.9 -03475.9 -07.6103 26246.0
 17 08 2013  04 48  -21.0306 26014.9 -03475.9 -07.6104 26246.1
 17 08 2013  04 49  -21.0307 26014.8 -03475.9 -07.6103 26245.9
 17 08 2013  04 50  -21.0308 26014.5 -03475.7 -07.6100 26245.7
 17 08 2013  04 51  -21.0308 26014.3 -03475.5 -07.6097 26245.5
 17 08 2013  04 52  -21.0306 26014.2 -03475.5 -07.6095 26245.4
 17 08 2013  04 53  -21.0308 26014.2 -03475.5 -07.6096 26245.3
 17 08 2013  04 54  -21.0312 26013.9 -03475.3 -07.6094 26245.0
 17 08 2013  04 55  -21.0317 26013.6 -03475.3 -07.6093 26244.7
 17 08 2013  04 56  -21.0322 26013.8 -03475.3 -07.6093 26244.9
 17 08 2013  04 57  -21.0325 26014.0 -03475.5 -07.6096 26245.2
 17 08 2013  04 58  -21.0328 26014.3 -03475.6 -07.6098 26245.4
 17 08 2013  04 59  -21.0337 26014.0 -03475.5 -07.6098 26245.1
 17 08 2013  05 00  -21.0347 26013.5 -03475.2 -07.6092 26244.6
 17 08 2013  05 01  -21.0348 26012.9 -03474.9 -07.6088 26244.0
 17 08 2013  05 02  -21.0347 26013.2 -03474.9 -07.6087 26244.3
 17 08 2013  05 03  -21.0338 26013.9 -03475.2 -07.6091 26245.0
 17 08 2013  05 04  -21.0332 26014.2 -03475.4 -07.6095 26245.3
 17 08 2013  05 05  -21.0328 26013.9 -03475.3 -07.6092 26245.0
 17 08 2013  05 06  -21.0326 26013.5 -03475.1 -07.6089 26244.6
 17 08 2013  05 07  -21.0323 26013.4 -03475.0 -07.6088 26244.4
 17 08 2013  05 08  -21.0325 26013.2 -03475.0 -07.6088 26244.3
 17 08 2013  05 09  -21.0326 26013.1 -03474.9 -07.6087 26244.2
 17 08 2013  05 10  -21.0326 26013.2 -03475.0 -07.6089 26244.2
 17 08 2013  05 11  -21.0327 26013.1 -03475.1 -07.6090 26244.2
 17 08 2013  05 12  -21.0328 26013.0 -03475.0 -07.6089 26244.1
 17 08 2013  05 13  -21.0330 26012.8 -03474.9 -07.6089 26243.9
 17 08 2013  05 14  -21.0330 26012.7 -03474.9 -07.6088 26243.7
 17 08 2013  05 15  -21.0331 26012.7 -03474.9 -07.6088 26243.7
 17 08 2013  05 16  -21.0327 26012.6 -03474.9 -07.6088 26243.7
 17 08 2013  05 17  -21.0321 26012.4 -03474.8 -07.6087 26243.4
 17 08 2013  05 18  -21.0314 26012.2 -03474.7 -07.6085 26243.2
 17 08 2013  05 19  -21.0308 26011.9 -03474.6 -07.6083 26243.0
 17 08 2013  05 20  -21.0304 26012.0 -03474.6 -07.6084 26243.0
 17 08 2013  05 21  -21.0302 26012.0 -03474.7 -07.6086 26243.0
 17 08 2013  05 22  -21.0301 26012.0 -03474.9 -07.6089 26243.1
 17 08 2013  05 23  -21.0298 26012.0 -03474.9 -07.6089 26243.1
 17 08 2013  05 24  -21.0298 26012.0 -03474.9 -07.6091 26243.0
 17 08 2013  05 25  -21.0297 26012.0 -03475.0 -07.6093 26243.1
 17 08 2013  05 26  -21.0299 26012.1 -03475.1 -07.6095 26243.2
 17 08 2013  05 27  -21.0300 26012.2 -03475.2 -07.6097 26243.3
 17 08 2013  05 28  -21.0300 26012.1 -03475.3 -07.6097 26243.3
 17 08 2013  05 29  -21.0302 26012.1 -03475.2 -07.6097 26243.2
 17 08 2013  05 30  -21.0301 26012.1 -03475.3 -07.6097 26243.2
 17 08 2013  05 31  -21.0299 26012.1 -03475.3 -07.6098 26243.3
 17 08 2013  05 32  -21.0297 26012.2 -03475.3 -07.6098 26243.3
 17 08 2013  05 33  -21.0299 26012.3 -03475.3 -07.6098 26243.4
 17 08 2013  05 34  -21.0300 26012.6 -03475.5 -07.6101 26243.8
 17 08 2013  05 35  -21.0302 26012.7 -03475.6 -07.6103 26243.9
 17 08 2013  05 36  -21.0304 26012.7 -03475.6 -07.6102 26243.8
 17 08 2013  05 37  -21.0300 26012.5 -03475.4 -07.6099 26243.6
 17 08 2013  05 38  -21.0294 26012.3 -03475.3 -07.6097 26243.4
 17 08 2013  05 39  -21.0289 26012.4 -03475.3 -07.6096 26243.5
 17 08 2013  05 40  -21.0281 26012.5 -03475.3 -07.6097 26243.6
 17 08 2013  05 41  -21.0271 26012.7 -03475.4 -07.6098 26243.8
 17 08 2013  05 42  -21.0262 26012.9 -03475.5 -07.6100 26244.0
 17 08 2013  05 43  -21.0255 26012.9 -03475.6 -07.6102 26244.1
 17 08 2013  05 44  -21.0253 26012.9 -03475.6 -07.6102 26244.1
 17 08 2013  05 45  -21.0243 26013.4 -03475.8 -07.6105 26244.6
 17 08 2013  05 46  -21.0240 26013.8 -03476.1 -07.6110 26245.0
 17 08 2013  05 47  -21.0240 26013.9 -03476.2 -07.6112 26245.2
 17 08 2013  05 48  -21.0243 26014.2 -03476.3 -07.6115 26245.4
 17 08 2013  05 49  -21.0245 26014.5 -03476.5 -07.6117 26245.8
 17 08 2013  05 50  -21.0247 26014.9 -03476.7 -07.6120 26246.2
 17 08 2013  05 51  -21.0247 26015.1 -03476.8 -07.6121 26246.4
 17 08 2013  05 52  -21.0245 26015.1 -03476.7 -07.6120 26246.4
 17 08 2013  05 53  -21.0249 26014.8 -03476.6 -07.6118 26246.0
 17 08 2013  05 54  -21.0249 26014.4 -03476.3 -07.6114 26245.7
 17 08 2013  05 55  -21.0245 26014.7 -03476.4 -07.6114 26245.9
 17 08 2013  05 56  -21.0243 26015.1 -03476.6 -07.6118 26246.4
 17 08 2013  05 57  -21.0240 26015.3 -03476.7 -07.6120 26246.6
 17 08 2013  05 58  -21.0237 26015.5 -03476.8 -07.6122 26246.9
 17 08 2013  05 59  -21.0236 26015.8 -03476.9 -07.6123 26247.1
 17 08 2013  06 00  -21.0238 26015.8 -03477.0 -07.6124 26247.2
 17 08 2013  06 01  -21.0237 26015.9 -03477.0 -07.6124 26247.2
 17 08 2013  06 02  -21.0237 26015.9 -03477.0 -07.6124 26247.2
 17 08 2013  06 03  -21.0238 26015.9 -03477.0 -07.6123 26247.2
 17 08 2013  06 04  -21.0240 26015.9 -03477.0 -07.6124 26247.2
 17 08 2013  06 05  -21.0241 26016.0 -03477.0 -07.6124 26247.3
 17 08 2013  06 06  -21.0239 26016.0 -03477.0 -07.6124 26247.4
 17 08 2013  06 07  -21.0238 26015.9 -03477.0 -07.6124 26247.2
 17 08 2013  06 08  -21.0239 26015.8 -03476.9 -07.6123 26247.1
 17 08 2013  06 09  -21.0241 26015.6 -03476.8 -07.6121 26246.9
 17 08 2013  06 10  -21.0241 26015.3 -03476.7 -07.6118 26246.6
 17 08 2013  06 11  -21.0238 26015.0 -03476.5 -07.6117 26246.3
 17 08 2013  06 12  -21.0236 26014.8 -03476.4 -07.6115 26246.1
 17 08 2013  06 13  -21.0229 26014.7 -03476.4 -07.6115 26246.0
 17 08 2013  06 14  -21.0227 26014.8 -03476.5 -07.6117 26246.1
 17 08 2013  06 15  -21.0228 26014.8 -03476.6 -07.6118 26246.0
 17 08 2013  06 16  -21.0225 26014.7 -03476.6 -07.6118 26245.9
 17 08 2013  06 17  -21.0219 26014.7 -03476.6 -07.6118 26246.0
 17 08 2013  06 18  -21.0210 26014.7 -03476.6 -07.6119 26246.0
 17 08 2013  06 19  -21.0205 26014.7 -03476.7 -07.6121 26246.0
 17 08 2013  06 20  -21.0202 26014.7 -03476.8 -07.6123 26246.0
 17 08 2013  06 21  -21.0201 26014.7 -03476.8 -07.6123 26246.0
 17 08 2013  06 22  -21.0195 26014.6 -03476.8 -07.6124 26245.9
 17 08 2013  06 23  -21.0189 26015.0 -03477.0 -07.6127 26246.4
 17 08 2013  06 24  -21.0187 26015.3 -03477.3 -07.6132 26246.6
 17 08 2013  06 25  -21.0187 26015.0 -03477.3 -07.6132 26246.4
 17 08 2013  06 26  -21.0185 26014.8 -03477.1 -07.6130 26246.1
 17 08 2013  06 27  -21.0185 26014.4 -03477.0 -07.6129 26245.7
 17 08 2013  06 28  -21.0181 26014.0 -03476.8 -07.6125 26245.3
 17 08 2013  06 29  -21.0177 26013.8 -03476.7 -07.6124 26245.1
 17 08 2013  06 30  -21.0178 26013.9 -03476.9 -07.6127 26245.2
 17 08 2013  06 31  -21.0178 26014.2 -03477.1 -07.6131 26245.6
 17 08 2013  06 32  -21.0183 26014.6 -03477.4 -07.6136 26246.0
 17 08 2013  06 33  -21.0187 26015.2 -03477.7 -07.6142 26246.6
 17 08 2013  06 34  -21.0194 26015.3 -03477.8 -07.6144 26246.7
 17 08 2013  06 35  -21.0195 26015.0 -03477.6 -07.6140 26246.4
 17 08 2013  06 36  -21.0196 26014.9 -03477.5 -07.6138 26246.3
 17 08 2013  06 37  -21.0198 26015.0 -03477.5 -07.6137 26246.4
 17 08 2013  06 38  -21.0203 26014.8 -03477.4 -07.6136 26246.2
 17 08 2013  06 39  -21.0208 26014.9 -03477.4 -07.6136 26246.3
 17 08 2013  06 40  -21.0212 26015.1 -03477.5 -07.6138 26246.5
 17 08 2013  06 41  -21.0214 26015.3 -03477.6 -07.6139 26246.7
 17 08 2013  06 42  -21.0216 26015.3 -03477.6 -07.6139 26246.7
 17 08 2013  06 43  -21.0219 26015.4 -03477.7 -07.6140 26246.9
 17 08 2013  06 44  -21.0223 26015.6 -03477.7 -07.6140 26247.0
 17 08 2013  06 45  -21.0225 26015.8 -03477.8 -07.6141 26247.2
 17 08 2013  06 46  -21.0229 26015.8 -03477.7 -07.6140 26247.2
 17 08 2013  06 47  -21.0231 26016.0 -03477.8 -07.6141 26247.4
 17 08 2013  06 48  -21.0231 26016.1 -03477.8 -07.6140 26247.5
 17 08 2013  06 49  -21.0231 26016.2 -03477.8 -07.6140 26247.6
 17 08 2013  06 50  -21.0234 26016.2 -03477.8 -07.6140 26247.6
 17 08 2013  06 51  -21.0233 26016.3 -03477.8 -07.6140 26247.8
 17 08 2013  06 52  -21.0225 26016.4 -03477.7 -07.6138 26247.8
 17 08 2013  06 53  -21.0216 26016.5 -03477.7 -07.6138 26248.0
 17 08 2013  06 54  -21.0209 26016.6 -03477.7 -07.6138 26248.0
 17 08 2013  06 55  -21.0203 26016.7 -03477.8 -07.6139 26248.2
 17 08 2013  06 56  -21.0194 26016.6 -03477.7 -07.6138 26248.0
 17 08 2013  06 57  -21.0187 26016.7 -03477.8 -07.6139 26248.1
 17 08 2013  06 58  -21.0181 26016.9 -03477.9 -07.6140 26248.3
 17 08 2013  06 59  -21.0174 26017.1 -03478.1 -07.6143 26248.5
 17 08 2013  07 00  -21.0172 26017.1 -03478.1 -07.6145 26248.6
 17 08 2013  07 01  -21.0175 26017.0 -03478.1 -07.6145 26248.5
 17 08 2013  07 02  -21.0180 26016.8 -03478.0 -07.6143 26248.3
 17 08 2013  07 03  -21.0184 26016.9 -03478.1 -07.6146 26248.4
 17 08 2013  07 04  -21.0184 26017.1 -03478.3 -07.6148 26248.6
 17 08 2013  07 05  -21.0179 26017.6 -03478.6 -07.6153 26249.1
 17 08 2013  07 06  -21.0181 26018.0 -03478.8 -07.6158 26249.5
 17 08 2013  07 07  -21.0179 26018.7 -03479.2 -07.6163 26250.3
 17 08 2013  07 08  -21.0175 26019.2 -03479.5 -07.6168 26250.9
 17 08 2013  07 09  -21.0177 26019.4 -03479.6 -07.6169 26251.0
 17 08 2013  07 10  -21.0179 26019.6 -03479.6 -07.6170 26251.2
 17 08 2013  07 11  -21.0178 26019.9 -03479.7 -07.6171 26251.5
 17 08 2013  07 12  -21.0174 26019.5 -03479.5 -07.6168 26251.2
 17 08 2013  07 13  -21.0170 26019.3 -03479.3 -07.6164 26250.9
 17 08 2013  07 14  -21.0169 26019.0 -03479.1 -07.6160 26250.6
 17 08 2013  07 15  -21.0169 26018.9 -03479.0 -07.6159 26250.5
 17 08 2013  07 16  -21.0166 26018.9 -03479.0 -07.6158 26250.5
 17 08 2013  07 17  -21.0160 26019.0 -03478.9 -07.6157 26250.6
 17 08 2013  07 18  -21.0155 26019.5 -03479.2 -07.6161 26251.1
 17 08 2013  07 19  -21.0154 26019.9 -03479.4 -07.6164 26251.5
 17 08 2013  07 20  -21.0154 26020.0 -03479.5 -07.6166 26251.6
 17 08 2013  07 21  -21.0156 26019.9 -03479.4 -07.6164 26251.5
 17 08 2013  07 22  -21.0160 26020.2 -03479.5 -07.6165 26251.8
 17 08 2013  07 23  -21.0165 26020.3 -03479.5 -07.6166 26251.9
 17 08 2013  07 24  -21.0165 26020.3 -03479.4 -07.6164 26251.9
 17 08 2013  07 25  -21.0163 26020.2 -03479.3 -07.6161 26251.7
 17 08 2013  07 26  -21.0164 26020.1 -03479.2 -07.6159 26251.6
 17 08 2013  07 27  -21.0164 26019.9 -03479.0 -07.6157 26251.5
 17 08 2013  07 28  -21.0163 26020.0 -03479.0 -07.6156 26251.6
 17 08 2013  07 29  -21.0164 26020.0 -03478.9 -07.6154 26251.5
 17 08 2013  07 30  -21.0165 26020.0 -03479.0 -07.6156 26251.6
 17 08 2013  07 31  -21.0164 26019.8 -03478.9 -07.6153 26251.4
 17 08 2013  07 32  -21.0165 26019.9 -03478.9 -07.6153 26251.4
 17 08 2013  07 33  -21.0165 26019.8 -03478.8 -07.6153 26251.3
 17 08 2013  07 34  -21.0166 26019.8 -03478.8 -07.6153 26251.3
 17 08 2013  07 35  -21.0166 26020.0 -03479.0 -07.6155 26251.5
 17 08 2013  07 36  -21.0165 26020.1 -03479.1 -07.6156 26251.6
 17 08 2013  07 37  -21.0165 26020.0 -03479.0 -07.6156 26251.6
 17 08 2013  07 38  -21.0166 26020.0 -03479.0 -07.6156 26251.6
 17 08 2013  07 39  -21.0165 26019.9 -03478.9 -07.6154 26251.5
 17 08 2013  07 40  -21.0162 26019.9 -03478.9 -07.6154 26251.4
 17 08 2013  07 41  -21.0158 26019.8 -03478.9 -07.6153 26251.4
 17 08 2013  07 42  -21.0154 26019.8 -03478.8 -07.6153 26251.3
 17 08 2013  07 43  -21.0148 26019.7 -03478.8 -07.6152 26251.3
 17 08 2013  07 44  -21.0143 26019.7 -03478.8 -07.6152 26251.2
 17 08 2013  07 45  -21.0139 26019.5 -03478.7 -07.6151 26251.1
 17 08 2013  07 46  -21.0136 26019.5 -03478.8 -07.6152 26251.0
 17 08 2013  07 47  -21.0134 26019.4 -03478.8 -07.6152 26251.0
 17 08 2013  07 48  -21.0131 26019.2 -03478.7 -07.6151 26250.8
 17 08 2013  07 49  -21.0127 26019.2 -03478.7 -07.6150 26250.7
 17 08 2013  07 50  -21.0124 26019.1 -03478.6 -07.6150 26250.6
 17 08 2013  07 51  -21.0119 26018.9 -03478.6 -07.6149 26250.4
 17 08 2013  07 52  -21.0115 26018.8 -03478.5 -07.6149 26250.3
 17 08 2013  07 53  -21.0110 26018.7 -03478.5 -07.6149 26250.2
 17 08 2013  07 54  -21.0105 26018.4 -03478.4 -07.6148 26249.9
 17 08 2013  07 55  -21.0102 26018.5 -03478.5 -07.6149 26250.0
 17 08 2013  07 56  -21.0101 26018.6 -03478.7 -07.6152 26250.1
 17 08 2013  07 57  -21.0100 26018.6 -03478.8 -07.6154 26250.1
 17 08 2013  07 58  -21.0098 26018.4 -03478.7 -07.6154 26249.9
 17 08 2013  07 59  -21.0097 26018.6 -03478.8 -07.6155 26250.1
 17 08 2013  08 00  -21.0100 26019.0 -03479.0 -07.6158 26250.5
 17 08 2013  08 01  -21.0102 26019.4 -03479.1 -07.6160 26251.0
 17 08 2013  08 02  -21.0095 26019.3 -03479.0 -07.6157 26250.9
 17 08 2013  08 03  -21.0085 26019.3 -03479.0 -07.6157 26250.8
 17 08 2013  08 04  -21.0081 26019.3 -03479.0 -07.6158 26250.9
 17 08 2013  08 05  -21.0084 26019.4 -03479.1 -07.6160 26251.0
 17 08 2013  08 06  -21.0088 26019.8 -03479.4 -07.6164 26251.4
 17 08 2013  08 07  -21.0091 26020.0 -03479.6 -07.6168 26251.7
 17 08 2013  08 08  -21.0093 26019.8 -03479.6 -07.6169 26251.4
 17 08 2013  08 09  -21.0092 26019.3 -03479.3 -07.6164 26250.9
 17 08 2013  08 10  -21.0087 26019.3 -03479.2 -07.6162 26250.9
 17 08 2013  08 11  -21.0089 26019.1 -03479.1 -07.6161 26250.7
 17 08 2013  08 12  -21.0093 26019.0 -03479.0 -07.6159 26250.5
 17 08 2013  08 13  -21.0092 26018.7 -03478.9 -07.6158 26250.3
 17 08 2013  08 14  -21.0091 26018.5 -03478.8 -07.6156 26250.1
 17 08 2013  08 15  -21.0087 26018.5 -03478.8 -07.6155 26250.0
 17 08 2013  08 16  -21.0084 26018.5 -03478.8 -07.6155 26250.0
 17 08 2013  08 17  -21.0081 26018.7 -03478.9 -07.6156 26250.2
 17 08 2013  08 18  -21.0080 26018.7 -03478.9 -07.6157 26250.3
 17 08 2013  08 19  -21.0076 26018.8 -03478.9 -07.6157 26250.3
 17 08 2013  08 20  -21.0072 26018.6 -03478.8 -07.6155 26250.1
 17 08 2013  08 21  -21.0067 26018.4 -03478.7 -07.6153 26250.0
 17 08 2013  08 22  -21.0065 26018.4 -03478.7 -07.6153 26249.9
 17 08 2013  08 23  -21.0064 26018.5 -03478.7 -07.6154 26250.0
 17 08 2013  08 24  -21.0065 26018.6 -03478.9 -07.6156 26250.1
 17 08 2013  08 25  -21.0064 26018.9 -03479.0 -07.6159 26250.4
 17 08 2013  08 26  -21.0062 26018.8 -03479.0 -07.6158 26250.4
 17 08 2013  08 27  -21.0062 26018.9 -03478.9 -07.6157 26250.4
 17 08 2013  08 28  -21.0062 26018.8 -03478.9 -07.6157 26250.4
 17 08 2013  08 29  -21.0062 26018.8 -03478.9 -07.6157 26250.4
 17 08 2013  08 30  -21.0061 26018.8 -03478.8 -07.6156 26250.3
 17 08 2013  08 31  -21.0059 26018.7 -03478.8 -07.6155 26250.3
 17 08 2013  08 32  -21.0053 26018.6 -03478.6 -07.6152 26250.1
 17 08 2013  08 33  -21.0044 26018.4 -03478.5 -07.6150 26249.9
 17 08 2013  08 34  -21.0039 26018.4 -03478.5 -07.6149 26249.9
 17 08 2013  08 35  -21.0036 26018.5 -03478.6 -07.6150 26250.0
 17 08 2013  08 36  -21.0032 26018.5 -03478.6 -07.6151 26250.0
 17 08 2013  08 37  -21.0027 26018.6 -03478.7 -07.6153 26250.1
 17 08 2013  08 38  -21.0023 26018.6 -03478.8 -07.6154 26250.2
 17 08 2013  08 39  -21.0017 26018.7 -03478.8 -07.6155 26250.2
 17 08 2013  08 40  -21.0013 26018.8 -03478.8 -07.6155 26250.3
 17 08 2013  08 41  -21.0010 26018.9 -03478.8 -07.6155 26250.4
 17 08 2013  08 42  -21.0005 26018.9 -03478.9 -07.6157 26250.5
 17 08 2013  08 43  -20.9999 26018.8 -03478.9 -07.6156 26250.4
 17 08 2013  08 44  -20.9991 26018.7 -03478.8 -07.6155 26250.2
 17 08 2013  08 45  -20.9984 26018.6 -03478.7 -07.6153 26250.1
 17 08 2013  08 46  -20.9977 26018.4 -03478.7 -07.6152 26250.0
 17 08 2013  08 47  -20.9970 26018.4 -03478.7 -07.6154 26250.0
 17 08 2013  08 48  -20.9963 26018.4 -03478.8 -07.6155 26249.9
 17 08 2013  08 49  -20.9955 26018.3 -03478.9 -07.6157 26249.8
 17 08 2013  08 50  -20.9945 26018.1 -03478.9 -07.6158 26249.7
 17 08 2013  08 51  -20.9939 26018.0 -03478.9 -07.6159 26249.6
 17 08 2013  08 52  -20.9937 26018.1 -03479.0 -07.6161 26249.7
 17 08 2013  08 53  -20.9933 26018.0 -03479.1 -07.6164 26249.6
 17 08 2013  08 54  -20.9929 26018.1 -03479.3 -07.6167 26249.7
 17 08 2013  08 55  -20.9928 26018.1 -03479.4 -07.6171 26249.7
 17 08 2013  08 56  -20.9928 26018.1 -03479.6 -07.6174 26249.8
 17 08 2013  08 57  -20.9927 26018.2 -03479.8 -07.6178 26249.9
 17 08 2013  08 58  -20.9924 26018.3 -03480.0 -07.6182 26250.0
 17 08 2013  08 59  -20.9922 26018.3 -03480.1 -07.6184 26250.0
 17 08 2013  09 00  -20.9924 26018.4 -03480.3 -07.6188 26250.1
 17 08 2013  09 01  -20.9926 26018.5 -03480.4 -07.6191 26250.2
 17 08 2013  09 02  -20.9927 26018.4 -03480.6 -07.6194 26250.2
 17 08 2013  09 03  -20.9926 26018.4 -03480.7 -07.6197 26250.1
 17 08 2013  09 04  -20.9927 26018.4 -03480.8 -07.6199 26250.2
 17 08 2013  09 05  -20.9929 26018.5 -03481.0 -07.6203 26250.3
 17 08 2013  09 06  -20.9926 26018.6 -03481.1 -07.6205 26250.5
 17 08 2013  09 07  -20.9923 26018.7 -03481.2 -07.6208 26250.6
 17 08 2013  09 08  -20.9918 26018.8 -03481.3 -07.6209 26250.6
 17 08 2013  09 09  -20.9917 26018.9 -03481.5 -07.6212 26250.8
 17 08 2013  09 10  -20.9913 26018.9 -03481.6 -07.6215 26250.8
 17 08 2013  09 11  -20.9910 26019.0 -03481.7 -07.6217 26250.9
 17 08 2013  09 12  -20.9904 26019.0 -03481.8 -07.6219 26250.9
 17 08 2013  09 13  -20.9897 26019.0 -03481.9 -07.6220 26251.0
 17 08 2013  09 14  -20.9897 26019.1 -03482.1 -07.6225 26251.1
 17 08 2013  09 15  -20.9903 26019.4 -03482.4 -07.6231 26251.4
 17 08 2013  09 16  -20.9901 26019.5 -03482.6 -07.6234 26251.5
 17 08 2013  09 17  -20.9896 26019.5 -03482.6 -07.6236 26251.6
 17 08 2013  09 18  -20.9894 26019.6 -03482.7 -07.6237 26251.6
 17 08 2013  09 19  -20.9896 26019.6 -03482.9 -07.6242 26251.7
 17 08 2013  09 20  -20.9895 26019.7 -03483.1 -07.6245 26251.8
 17 08 2013  09 21  -20.9897 26019.9 -03483.3 -07.6248 26252.0
 17 08 2013  09 22  -20.9896 26020.1 -03483.4 -07.6251 26252.2
 17 08 2013  09 23  -20.9897 26020.2 -03483.6 -07.6255 26252.4
 17 08 2013  09 24  -20.9897 26020.4 -03483.8 -07.6258 26252.5
 17 08 2013  09 25  -20.9897 26020.5 -03484.0 -07.6262 26252.7
 17 08 2013  09 26  -20.9897 26020.6 -03484.1 -07.6265 26252.8
 17 08 2013  09 27  -20.9893 26020.7 -03484.2 -07.6265 26253.0
 17 08 2013  09 28  -20.9888 26020.8 -03484.2 -07.6266 26253.1
 17 08 2013  09 29  -20.9889 26020.9 -03484.3 -07.6267 26253.1
 17 08 2013  09 30  -20.9892 26021.0 -03484.4 -07.6269 26253.2
 17 08 2013  09 31  -20.9896 26021.2 -03484.6 -07.6273 26253.4
 17 08 2013  09 32  -20.9897 26021.4 -03484.8 -07.6277 26253.7
 17 08 2013  09 33  -20.9898 26021.7 -03485.0 -07.6280 26254.0
 17 08 2013  09 34  -20.9898 26021.8 -03485.1 -07.6282 26254.1
 17 08 2013  09 35  -20.9904 26021.8 -03485.3 -07.6285 26254.2
 17 08 2013  09 36  -20.9912 26022.0 -03485.4 -07.6288 26254.3
 17 08 2013  09 37  -20.9915 26022.2 -03485.6 -07.6291 26254.6
 17 08 2013  09 38  -20.9918 26022.3 -03485.7 -07.6294 26254.7
 17 08 2013  09 39  -20.9917 26022.4 -03485.7 -07.6294 26254.9
 17 08 2013  09 40  -20.9918 26022.6 -03485.8 -07.6296 26255.1
 17 08 2013  09 41  -20.9919 26022.8 -03485.9 -07.6297 26255.3
 17 08 2013  09 42  -20.9921 26023.0 -03486.1 -07.6299 26255.4
 17 08 2013  09 43  -20.9927 26023.1 -03486.2 -07.6302 26255.6
 17 08 2013  09 44  -20.9933 26023.3 -03486.4 -07.6306 26255.8
 17 08 2013  09 45  -20.9936 26023.6 -03486.5 -07.6307 26256.1
 17 08 2013  09 46  -20.9936 26023.8 -03486.6 -07.6309 26256.4
 17 08 2013  09 47  -20.9940 26024.0 -03486.7 -07.6310 26256.5
 17 08 2013  09 48  -20.9952 26024.2 -03486.9 -07.6313 26256.7
 17 08 2013  09 49  -20.9963 26024.6 -03487.1 -07.6318 26257.2
 17 08 2013  09 50  -20.9964 26025.2 -03487.4 -07.6323 26257.9
 17 08 2013  09 51  -20.9963 26025.5 -03487.5 -07.6323 26258.1
 17 08 2013  09 52  -20.9957 26025.6 -03487.4 -07.6321 26258.2
 17 08 2013  09 53  -20.9959 26025.9 -03487.5 -07.6322 26258.6
 17 08 2013  09 54  -20.9970 26026.2 -03487.6 -07.6324 26258.9
 17 08 2013  09 55  -20.9978 26026.5 -03487.8 -07.6326 26259.2
 17 08 2013  09 56  -20.9983 26026.8 -03487.8 -07.6327 26259.4
 17 08 2013  09 57  -20.9988 26026.8 -03487.8 -07.6327 26259.5
 17 08 2013  09 58  -20.9995 26027.0 -03487.9 -07.6328 26259.7
 17 08 2013  09 59  -21.0001 26027.2 -03488.0 -07.6330 26259.9
 17 08 2013  10 00  -21.0008 26027.5 -03488.2 -07.6332 26260.2
 17 08 2013  10 01  -21.0011 26027.7 -03488.3 -07.6333 26260.5
 17 08 2013  10 02  -21.0013 26028.1 -03488.3 -07.6334 26260.8
 17 08 2013  10 03  -21.0015 26028.4 -03488.5 -07.6337 26261.1
 17 08 2013  10 04  -21.0021 26028.6 -03488.6 -07.6337 26261.3
 17 08 2013  10 05  -21.0027 26028.8 -03488.6 -07.6337 26261.6
 17 08 2013  10 06  -21.0030 26029.1 -03488.7 -07.6338 26261.8
 17 08 2013  10 07  -21.0036 26029.3 -03488.7 -07.6338 26262.1
 17 08 2013  10 08  -21.0047 26029.6 -03488.8 -07.6339 26262.4
 17 08 2013  10 09  -21.0058 26029.9 -03488.9 -07.6341 26262.7
 17 08 2013  10 10  -21.0065 26030.4 -03489.0 -07.6343 26263.2
 17 08 2013  10 11  -21.0067 26030.7 -03489.0 -07.6341 26263.5
 17 08 2013  10 12  -21.0069 26031.1 -03489.0 -07.6341 26263.9
 17 08 2013  10 13  -21.0073 26031.4 -03489.1 -07.6340 26264.2
 17 08 2013  10 14  -21.0080 26031.6 -03489.1 -07.6340 26264.4
 17 08 2013  10 15  -21.0085 26031.8 -03489.0 -07.6339 26264.6
 17 08 2013  10 16  -21.0086 26032.3 -03489.2 -07.6340 26265.1
 17 08 2013  10 17  -21.0100 26032.5 -03489.3 -07.6341 26265.3
 17 08 2013  10 18  -21.0113 26032.7 -03489.3 -07.6342 26265.5
 17 08 2013  10 19  -21.0118 26033.1 -03489.3 -07.6341 26265.9
 17 08 2013  10 20  -21.0120 26033.3 -03489.3 -07.6340 26266.1
 17 08 2013  10 21  -21.0123 26033.5 -03489.3 -07.6338 26266.3
 17 08 2013  10 22  -21.0131 26033.6 -03489.2 -07.6337 26266.4
 17 08 2013  10 23  -21.0144 26033.9 -03489.2 -07.6337 26266.7
 17 08 2013  10 24  -21.0157 26034.3 -03489.3 -07.6337 26267.1
 17 08 2013  10 25  -21.0162 26034.7 -03489.3 -07.6337 26267.5
 17 08 2013  10 26  -21.0161 26035.2 -03489.3 -07.6335 26268.0
 17 08 2013  10 27  -21.0162 26035.6 -03489.3 -07.6332 26268.4
 17 08 2013  10 28  -21.0172 26035.8 -03489.2 -07.6331 26268.5
 17 08 2013  10 29  -21.0186 26036.1 -03489.3 -07.6330 26268.9
 17 08 2013  10 30  -21.0202 26036.5 -03489.3 -07.6331 26269.3
 17 08 2013  10 31  -21.0215 26037.0 -03489.4 -07.6332 26269.8
 17 08 2013  10 32  -21.0217 26037.6 -03489.4 -07.6330 26270.3
 17 08 2013  10 33  -21.0220 26038.1 -03489.4 -07.6329 26270.9
 17 08 2013  10 34  -21.0228 26038.5 -03489.4 -07.6327 26271.3
 17 08 2013  10 35  -21.0236 26038.6 -03489.2 -07.6322 26271.3
 17 08 2013  10 36  -21.0241 26038.8 -03489.1 -07.6319 26271.5
 17 08 2013  10 37  -21.0251 26039.0 -03489.0 -07.6316 26271.7
 17 08 2013  10 38  -21.0264 26039.1 -03488.9 -07.6314 26271.8
 17 08 2013  10 39  -21.0278 26039.1 -03488.7 -07.6311 26271.8
 17 08 2013  10 40  -21.0288 26039.5 -03488.7 -07.6309 26272.2
 17 08 2013  10 41  -21.0295 26040.0 -03488.8 -07.6309 26272.6
 17 08 2013  10 42  -21.0293 26040.6 -03488.8 -07.6307 26273.3
 17 08 2013  10 43  -21.0291 26041.4 -03488.8 -07.6306 26274.0
 17 08 2013  10 44  -21.0293 26041.9 -03488.8 -07.6304 26274.6
 17 08 2013  10 45  -21.0302 26042.3 -03488.7 -07.6301 26275.0
 17 08 2013  10 46  -21.0310 26042.7 -03488.6 -07.6297 26275.3
 17 08 2013  10 47  -21.0321 26043.0 -03488.5 -07.6294 26275.6
 17 08 2013  10 48  -21.0337 26043.3 -03488.4 -07.6291 26275.9
 17 08 2013  10 49  -21.0352 26043.8 -03488.4 -07.6290 26276.3
 17 08 2013  10 50  -21.0364 26044.1 -03488.3 -07.6287 26276.7
 17 08 2013  10 51  -21.0374 26044.5 -03488.2 -07.6285 26277.1
 17 08 2013  10 52  -21.0378 26045.0 -03488.2 -07.6282 26277.6
 17 08 2013  10 53  -21.0381 26045.4 -03488.0 -07.6276 26278.0
 17 08 2013  10 54  -21.0390 26045.6 -03487.8 -07.6271 26278.1
 17 08 2013  10 55  -21.0402 26045.8 -03487.6 -07.6267 26278.3
 17 08 2013  10 56  -21.0406 26046.1 -03487.5 -07.6265 26278.5
 17 08 2013  10 57  -21.0411 26046.5 -03487.5 -07.6263 26278.9
 17 08 2013  10 58  -21.0416 26046.9 -03487.5 -07.6260 26279.3
 17 08 2013  10 59  -21.0421 26047.3 -03487.3 -07.6257 26279.7
 17 08 2013  11 00  -21.0428 26047.5 -03487.2 -07.6253 26279.9
 17 08 2013  11 01  -21.0438 26047.6 -03487.1 -07.6250 26280.0
 17 08 2013  11 02  -21.0447 26047.9 -03487.0 -07.6247 26280.3
 17 08 2013  11 03  -21.0457 26048.3 -03487.0 -07.6245 26280.6
 17 08 2013  11 04  -21.0461 26048.7 -03486.8 -07.6242 26281.0
 17 08 2013  11 05  -21.0469 26048.8 -03486.6 -07.6236 26281.1
 17 08 2013  11 06  -21.0473 26049.4 -03486.4 -07.6231 26281.7
 17 08 2013  11 07  -21.0479 26049.6 -03486.2 -07.6225 26281.9
 17 08 2013  11 08  -21.0485 26049.6 -03485.8 -07.6217 26281.8
 17 08 2013  11 09  -21.0481 26049.7 -03485.5 -07.6211 26281.9
 17 08 2013  11 10  -21.0490 26049.7 -03485.3 -07.6207 26281.8
 17 08 2013  11 11  -21.0516 26049.6 -03485.4 -07.6208 26281.7
 17 08 2013  11 12  -21.0531 26050.1 -03485.6 -07.6211 26282.3
 17 08 2013  11 13  -21.0545 26051.3 -03485.9 -07.6214 26283.4
 17 08 2013  11 14  -21.0553 26052.8 -03486.2 -07.6216 26285.0
 17 08 2013  11 15  -21.0543 26054.2 -03486.1 -07.6211 26286.4
 17 08 2013  11 16  -21.0514 26055.2 -03485.7 -07.6199 26287.4
 17 08 2013  11 17  -21.0490 26055.4 -03485.1 -07.6184 26287.4
 17 08 2013  11 18  -21.0503 26053.7 -03484.2 -07.6170 26285.6
 17 08 2013  11 19  -21.0537 26053.0 -03484.1 -07.6170 26284.9
 17 08 2013  11 20  -21.0564 26053.9 -03484.6 -07.6179 26285.9
 17 08 2013  11 21  -21.0593 26054.2 -03484.8 -07.6182 26286.3
 17 08 2013  11 22  -21.0610 26055.7 -03485.0 -07.6182 26287.7
 17 08 2013  11 23  -21.0610 26057.0 -03485.0 -07.6177 26289.0
 17 08 2013  11 24  -21.0609 26057.9 -03484.8 -07.6171 26289.9
 17 08 2013  11 25  -21.0602 26057.9 -03484.2 -07.6158 26289.8
 17 08 2013  11 26  -21.0614 26057.1 -03483.6 -07.6147 26288.9
 17 08 2013  11 27  -21.0640 26056.5 -03483.2 -07.6140 26288.3
 17 08 2013  11 28  -21.0659 26056.5 -03483.1 -07.6139 26288.3
 17 08 2013  11 29  -21.0669 26057.2 -03483.2 -07.6139 26289.0
 17 08 2013  11 30  -21.0677 26058.0 -03483.4 -07.6140 26289.8
 17 08 2013  11 31  -21.0682 26058.9 -03483.4 -07.6138 26290.7
 17 08 2013  11 32  -21.0690 26059.1 -03483.1 -07.6132 26290.8
 17 08 2013  11 33  -21.0685 26059.2 -03482.8 -07.6124 26291.0
 17 08 2013  11 34  -21.0681 26059.8 -03482.6 -07.6118 26291.4
 17 08 2013  11 35  -21.0681 26059.9 -03482.4 -07.6113 26291.5
 17 08 2013  11 36  -21.0691 26059.8 -03482.2 -07.6109 26291.4
 17 08 2013  11 37  -21.0704 26059.8 -03482.1 -07.6107 26291.4
 17 08 2013  11 38  -21.0709 26061.4 -03482.5 -07.6111 26293.1
 17 08 2013  11 39  -21.0704 26063.5 -03482.8 -07.6112 26295.1
 17 08 2013  11 40  -21.0698 26065.1 -03482.9 -07.6108 26296.8
 17 08 2013  11 41  -21.0694 26065.6 -03482.5 -07.6099 26297.2
 17 08 2013  11 42  -21.0704 26065.1 -03481.8 -07.6086 26296.6
 17 08 2013  11 43  -21.0721 26064.6 -03481.3 -07.6076 26296.1
 17 08 2013  11 44  -21.0737 26064.9 -03481.1 -07.6071 26296.3
 17 08 2013  11 45  -21.0743 26065.8 -03481.1 -07.6068 26297.2
 17 08 2013  11 46  -21.0750 26066.1 -03480.8 -07.6061 26297.5
 17 08 2013  11 47  -21.0758 26067.0 -03480.7 -07.6058 26298.3
 17 08 2013  11 48  -21.0762 26067.1 -03480.4 -07.6049 26298.4
 17 08 2013  11 49  -21.0769 26066.9 -03479.9 -07.6039 26298.2
 17 08 2013  11 50  -21.0779 26066.8 -03479.5 -07.6031 26298.0
 17 08 2013  11 51  -21.0788 26066.9 -03479.3 -07.6026 26298.1
 17 08 2013  11 52  -21.0793 26067.1 -03479.0 -07.6020 26298.2
 17 08 2013  11 53  -21.0796 26067.1 -03478.7 -07.6013 26298.2
 17 08 2013  11 54  -21.0802 26067.6 -03478.7 -07.6012 26298.7
 17 08 2013  11 55  -21.0812 26067.8 -03478.6 -07.6009 26298.9
 17 08 2013  11 56  -21.0821 26068.0 -03478.5 -07.6005 26299.1
 17 08 2013  11 57  -21.0826 26068.2 -03478.3 -07.6000 26299.3
 17 08 2013  11 58  -21.0830 26068.3 -03478.0 -07.5994 26299.3
 17 08 2013  11 59  -21.0834 26067.7 -03477.5 -07.5985 26298.7
 17 08 2013  12 00  -21.0841 26067.6 -03477.3 -07.5980 26298.5
 17 08 2013  12 01  -21.0843 26067.8 -03477.2 -07.5978 26298.7
 17 08 2013  12 02  -21.0844 26068.3 -03477.1 -07.5975 26299.2
 17 08 2013  12 03  -21.0848 26068.7 -03477.0 -07.5971 26299.5
 17 08 2013  12 04  -21.0850 26069.2 -03476.9 -07.5968 26300.0
 17 08 2013  12 05  -21.0852 26069.6 -03476.8 -07.5964 26300.4
 17 08 2013  12 06  -21.0850 26070.2 -03476.7 -07.5961 26301.0
 17 08 2013  12 07  -21.0848 26070.6 -03476.6 -07.5957 26301.4
 17 08 2013  12 08  -21.0850 26070.8 -03476.3 -07.5951 26301.6
 17 08 2013  12 09  -21.0860 26071.1 -03476.2 -07.5947 26301.8
 17 08 2013  12 10  -21.0872 26071.1 -03475.9 -07.5942 26301.8
 17 08 2013  12 11  -21.0880 26071.4 -03475.8 -07.5939 26302.0
 17 08 2013  12 12  -21.0881 26071.8 -03475.7 -07.5934 26302.4
 17 08 2013  12 13  -21.0885 26072.1 -03475.6 -07.5931 26302.7
 17 08 2013  12 14  -21.0887 26072.2 -03475.4 -07.5927 26302.8
 17 08 2013  12 15  -21.0887 26072.5 -03475.3 -07.5923 26303.1
 17 08 2013  12 16  -21.0887 26072.6 -03475.1 -07.5919 26303.2
 17 08 2013  12 17  -21.0884 26072.8 -03474.9 -07.5914 26303.3
 17 08 2013  12 18  -21.0876 26072.7 -03474.6 -07.5908 26303.2
 17 08 2013  12 19  -21.0874 26073.1 -03474.5 -07.5906 26303.6
 17 08 2013  12 20  -21.0876 26073.2 -03474.4 -07.5902 26303.7
 17 08 2013  12 21  -21.0881 26072.9 -03474.1 -07.5896 26303.3
 17 08 2013  12 22  -21.0887 26072.9 -03473.9 -07.5893 26303.4
 17 08 2013  12 23  -21.0889 26073.7 -03474.1 -07.5894 26304.1
 17 08 2013  12 24  -21.0889 26073.9 -03473.9 -07.5890 26304.3
 17 08 2013  12 25  -21.0892 26073.7 -03473.7 -07.5886 26304.1
 17 08 2013  12 26  -21.0896 26073.1 -03473.3 -07.5879 26303.5
 17 08 2013  12 27  -21.0898 26073.0 -03473.1 -07.5876 26303.3
 17 08 2013  12 28  -21.0899 26073.6 -03473.3 -07.5877 26303.9
 17 08 2013  12 29  -21.0901 26073.6 -03473.2 -07.5876 26304.0
 17 08 2013  12 30  -21.0906 26073.0 -03472.9 -07.5870 26303.3
 17 08 2013  12 31  -21.0913 26073.0 -03472.8 -07.5869 26303.3
 17 08 2013  12 32  -21.0922 26073.1 -03472.8 -07.5869 26303.4
 17 08 2013  12 33  -21.0935 26073.3 -03472.9 -07.5871 26303.6
 17 08 2013  12 34  -21.0944 26073.9 -03473.1 -07.5873 26304.2
 17 08 2013  12 35  -21.0949 26074.6 -03473.3 -07.5874 26305.0
 17 08 2013  12 36  -21.0946 26075.2 -03473.2 -07.5872 26305.5
 17 08 2013  12 37  -21.0936 26075.0 -03472.9 -07.5864 26305.3
 17 08 2013  12 38  -21.0930 26075.4 -03472.8 -07.5862 26305.6
 17 08 2013  12 39  -21.0933 26075.3 -03472.7 -07.5859 26305.6
 17 08 2013  12 40  -21.0930 26075.7 -03472.7 -07.5858 26305.9
 17 08 2013  12 41  -21.0926 26076.1 -03472.7 -07.5857 26306.3
 17 08 2013  12 42  -21.0922 26075.9 -03472.4 -07.5851 26306.1
 17 08 2013  12 43  -21.0923 26076.5 -03472.6 -07.5854 26306.7
 17 08 2013  12 44  -21.0927 26076.8 -03472.7 -07.5855 26307.0
 17 08 2013  12 45  -21.0931 26077.1 -03472.7 -07.5855 26307.3
 17 08 2013  12 46  -21.0934 26077.2 -03472.7 -07.5854 26307.4
 17 08 2013  12 47  -21.0936 26077.6 -03472.8 -07.5855 26307.8
 17 08 2013  12 48  -21.0936 26077.9 -03472.8 -07.5854 26308.1
 17 08 2013  12 49  -21.0936 26078.2 -03472.8 -07.5853 26308.4
 17 08 2013  12 50  -21.0932 26078.6 -03472.8 -07.5853 26308.9
 17 08 2013  12 51  -21.0932 26079.7 -03473.0 -07.5855 26309.9
 17 08 2013  12 52  -21.0932 26080.4 -03473.1 -07.5854 26310.7
 17 08 2013  12 53  -21.0932 26080.8 -03473.1 -07.5852 26311.0
 17 08 2013  12 54  -21.0930 26081.2 -03473.0 -07.5849 26311.4
 17 08 2013  12 55  -21.0930 26081.8 -03473.0 -07.5847 26312.0
 17 08 2013  12 56  -21.0929 26082.5 -03473.0 -07.5845 26312.7
 17 08 2013  12 57  -21.0929 26083.1 -03472.9 -07.5841 26313.3
 17 08 2013  12 58  -21.0927 26083.7 -03472.8 -07.5838 26313.8
 17 08 2013  12 59  -21.0926 26084.3 -03472.8 -07.5836 26314.4
 17 08 2013  13 00  -21.0923 26084.8 -03472.7 -07.5833 26315.0
 17 08 2013  13 01  -21.0922 26085.2 -03472.6 -07.5830 26315.3
 17 08 2013  13 02  -21.0920 26085.7 -03472.6 -07.5827 26315.9
 17 08 2013  13 03  -21.0922 26086.3 -03472.5 -07.5824 26316.4
 17 08 2013  13 04  -21.0926 26086.6 -03472.4 -07.5820 26316.7
 17 08 2013  13 05  -21.0932 26087.0 -03472.3 -07.5818 26317.0
 17 08 2013  13 06  -21.0935 26087.3 -03472.2 -07.5814 26317.3
 17 08 2013  13 07  -21.0931 26087.1 -03471.9 -07.5808 26317.1
 17 08 2013  13 08  -21.0927 26086.8 -03471.5 -07.5801 26316.8
 17 08 2013  13 09  -21.0926 26086.5 -03471.3 -07.5797 26316.4
 17 08 2013  13 10  -21.0924 26085.9 -03471.0 -07.5793 26315.9
 17 08 2013  13 11  -21.0920 26085.4 -03470.7 -07.5788 26315.3
 17 08 2013  13 12  -21.0924 26085.5 -03470.7 -07.5788 26315.4
 17 08 2013  13 13  -21.0925 26085.3 -03470.7 -07.5787 26315.2
 17 08 2013  13 14  -21.0923 26085.3 -03470.6 -07.5786 26315.1
 17 08 2013  13 15  -21.0922 26086.2 -03471.0 -07.5791 26316.1
 17 08 2013  13 16  -21.0922 26087.4 -03471.4 -07.5797 26317.3
 17 08 2013  13 17  -21.0921 26087.8 -03471.4 -07.5795 26317.8
 17 08 2013  13 18  -21.0916 26087.9 -03471.2 -07.5792 26317.8
 17 08 2013  13 19  -21.0914 26088.2 -03471.2 -07.5791 26318.2
 17 08 2013  13 20  -21.0911 26088.2 -03471.0 -07.5787 26318.1
 17 08 2013  13 21  -21.0909 26088.5 -03471.0 -07.5786 26318.4
 17 08 2013  13 22  -21.0907 26089.1 -03471.2 -07.5787 26319.0
 17 08 2013  13 23  -21.0911 26089.8 -03471.3 -07.5788 26319.7
 17 08 2013  13 24  -21.0915 26090.5 -03471.5 -07.5790 26320.4
 17 08 2013  13 25  -21.0915 26091.1 -03471.5 -07.5788 26321.0
 17 08 2013  13 26  -21.0911 26091.3 -03471.3 -07.5785 26321.2
 17 08 2013  13 27  -21.0908 26091.3 -03471.2 -07.5782 26321.2
 17 08 2013  13 28  -21.0903 26091.2 -03471.1 -07.5779 26321.1
 17 08 2013  13 29  -21.0900 26090.8 -03470.9 -07.5776 26320.7
 17 08 2013  13 30  -21.0905 26090.6 -03470.8 -07.5775 26320.4
 17 08 2013  13 31  -21.0910 26090.1 -03470.7 -07.5773 26319.9
 17 08 2013  13 32  -21.0915 26089.7 -03470.6 -07.5773 26319.5
 17 08 2013  13 33  -21.0921 26089.8 -03470.7 -07.5776 26319.6
 17 08 2013  13 34  -21.0930 26089.7 -03470.8 -07.5777 26319.5
 17 08 2013  13 35  -21.0932 26089.5 -03470.7 -07.5776 26319.3
 17 08 2013  13 36  -21.0935 26089.4 -03470.7 -07.5775 26319.2
 17 08 2013  13 37  -21.0935 26089.0 -03470.5 -07.5773 26318.8
 17 08 2013  13 38  -21.0931 26088.6 -03470.3 -07.5771 26318.4
 17 08 2013  13 39  -21.0929 26089.0 -03470.5 -07.5773 26318.8
 17 08 2013  13 40  -21.0933 26089.4 -03470.7 -07.5776 26319.3
 17 08 2013  13 41  -21.0934 26089.7 -03470.6 -07.5774 26319.5
 17 08 2013  13 42  -21.0928 26090.0 -03470.6 -07.5772 26319.8
 17 08 2013  13 43  -21.0917 26090.1 -03470.4 -07.5769 26319.9
 17 08 2013  13 44  -21.0899 26090.5 -03470.3 -07.5765 26320.2
 17 08 2013  13 45  -21.0885 26090.1 -03470.0 -07.5759 26319.8
 17 08 2013  13 46  -21.0882 26090.0 -03469.9 -07.5758 26319.8
 17 08 2013  13 47  -21.0881 26089.7 -03469.8 -07.5756 26319.5
 17 08 2013  13 48  -21.0885 26089.4 -03469.7 -07.5754 26319.1
 17 08 2013  13 49  -21.0888 26089.5 -03469.7 -07.5754 26319.2
 17 08 2013  13 50  -21.0889 26089.7 -03469.7 -07.5754 26319.4
 17 08 2013  13 51  -21.0891 26090.2 -03469.8 -07.5755 26319.9
 17 08 2013  13 52  -21.0893 26090.9 -03470.0 -07.5756 26320.6
 17 08 2013  13 53  -21.0891 26091.6 -03469.9 -07.5752 26321.3
 17 08 2013  13 54  -21.0883 26091.5 -03469.4 -07.5742 26321.2
 17 08 2013  13 55  -21.0873 26090.7 -03468.8 -07.5731 26320.3
 17 08 2013  13 56  -21.0859 26089.0 -03468.0 -07.5718 26318.5
 17 08 2013  13 57  -21.0845 26087.8 -03467.5 -07.5712 26317.3
 17 08 2013  13 58  -21.0847 26088.3 -03467.9 -07.5720 26317.8
 17 08 2013  13 59  -21.0846 26088.6 -03468.1 -07.5723 26318.1
 17 08 2013  14 00  -21.0848 26089.1 -03468.4 -07.5726 26318.7
 17 08 2013  14 01  -21.0853 26089.3 -03468.4 -07.5726 26318.8
 17 08 2013  14 02  -21.0848 26088.8 -03468.0 -07.5720 26318.3
 17 08 2013  14 03  -21.0845 26088.3 -03467.7 -07.5715 26317.7
 17 08 2013  14 04  -21.0849 26088.2 -03467.7 -07.5714 26317.7
 17 08 2013  14 05  -21.0848 26088.0 -03467.5 -07.5710 26317.4
 17 08 2013  14 06  -21.0841 26087.8 -03467.3 -07.5708 26317.2
 17 08 2013  14 07  -21.0840 26087.8 -03467.3 -07.5707 26317.2
 17 08 2013  14 08  -21.0831 26087.0 -03466.9 -07.5702 26316.4
 17 08 2013  14 09  -21.0821 26086.4 -03466.7 -07.5698 26315.8
 17 08 2013  14 10  -21.0809 26086.6 -03466.8 -07.5700 26316.0
 17 08 2013  14 11  -21.0805 26086.2 -03466.7 -07.5699 26315.5
 17 08 2013  14 12  -21.0799 26086.8 -03467.0 -07.5703 26316.1
 17 08 2013  14 13  -21.0797 26087.6 -03467.2 -07.5707 26317.0
 17 08 2013  14 14  -21.0790 26087.9 -03467.2 -07.5705 26317.3
 17 08 2013  14 15  -21.0783 26087.3 -03466.7 -07.5696 26316.6
 17 08 2013  14 16  -21.0768 26085.4 -03465.9 -07.5683 26314.6
 17 08 2013  14 17  -21.0750 26083.6 -03465.3 -07.5677 26312.8
 17 08 2013  14 18  -21.0749 26083.1 -03465.5 -07.5683 26312.4
 17 08 2013  14 19  -21.0747 26083.4 -03465.9 -07.5689 26312.6
 17 08 2013  14 20  -21.0741 26083.1 -03465.9 -07.5690 26312.3
 17 08 2013  14 21  -21.0731 26082.9 -03465.9 -07.5691 26312.2
 17 08 2013  14 22  -21.0732 26084.2 -03466.6 -07.5703 26313.5
 17 08 2013  14 23  -21.0734 26084.3 -03466.6 -07.5703 26313.6
 17 08 2013  14 24  -21.0733 26084.1 -03466.4 -07.5698 26313.4
 17 08 2013  14 25  -21.0726 26085.2 -03466.8 -07.5703 26314.6
 17 08 2013  14 26  -21.0720 26085.8 -03466.7 -07.5700 26315.1
 17 08 2013  14 27  -21.0724 26085.9 -03466.4 -07.5693 26315.2
 17 08 2013  14 28  -21.0726 26086.9 -03466.4 -07.5691 26316.2
 17 08 2013  14 29  -21.0733 26088.1 -03466.5 -07.5690 26317.4
 17 08 2013  14 30  -21.0724 26087.6 -03465.8 -07.5675 26316.8
 17 08 2013  14 31  -21.0709 26086.6 -03465.0 -07.5662 26315.7
 17 08 2013  14 32  -21.0695 26085.9 -03464.5 -07.5653 26314.9
 17 08 2013  14 33  -21.0690 26085.4 -03464.4 -07.5651 26314.5
 17 08 2013  14 34  -21.0675 26086.3 -03464.7 -07.5656 26315.4
 17 08 2013  14 35  -21.0664 26086.6 -03464.8 -07.5657 26315.7
 17 08 2013  14 36  -21.0657 26086.2 -03464.6 -07.5654 26315.3
 17 08 2013  14 37  -21.0658 26087.1 -03465.1 -07.5662 26316.3
 17 08 2013  14 38  -21.0661 26086.3 -03464.5 -07.5652 26315.4
 17 08 2013  14 39  -21.0647 26084.0 -03463.3 -07.5632 26312.9
 17 08 2013  14 40  -21.0627 26084.1 -03463.5 -07.5637 26313.0
 17 08 2013  14 41  -21.0615 26083.5 -03463.5 -07.5638 26312.5
 17 08 2013  14 42  -21.0604 26082.5 -03463.3 -07.5637 26311.5
 17 08 2013  14 43  -21.0596 26083.2 -03463.8 -07.5645 26312.2
 17 08 2013  14 44  -21.0587 26084.0 -03464.2 -07.5652 26313.0
 17 08 2013  14 45  -21.0571 26084.2 -03464.3 -07.5653 26313.2
 17 08 2013  14 46  -21.0560 26083.9 -03464.2 -07.5652 26312.9
 17 08 2013  14 47  -21.0546 26082.5 -03463.6 -07.5643 26311.4
 17 08 2013  14 48  -21.0529 26081.6 -03463.4 -07.5640 26310.5
 17 08 2013  14 49  -21.0520 26080.7 -03463.3 -07.5641 26309.6
 17 08 2013  14 50  -21.0513 26079.8 -03463.2 -07.5642 26308.8
 17 08 2013  14 51  -21.0505 26079.7 -03463.5 -07.5648 26308.7
 17 08 2013  14 52  -21.0497 26079.4 -03463.6 -07.5653 26308.4
 17 08 2013  14 53  -21.0491 26078.9 -03463.7 -07.5655 26307.9
 17 08 2013  14 54  -21.0488 26078.5 -03463.8 -07.5658 26307.5
 17 08 2013  14 55  -21.0481 26078.0 -03463.8 -07.5660 26307.0
 17 08 2013  14 56  -21.0474 26077.5 -03463.9 -07.5663 26306.5
 17 08 2013  14 57  -21.0467 26076.9 -03463.9 -07.5666 26306.0
 17 08 2013  14 58  -21.0459 26076.5 -03464.1 -07.5670 26305.6
 17 08 2013  14 59  -21.0453 26076.4 -03464.2 -07.5674 26305.5
 17 08 2013  15 00  -21.0450 26076.4 -03464.5 -07.5680 26305.5
 17 08 2013  15 01  -21.0445 26076.3 -03464.7 -07.5684 26305.4
 17 08 2013  15 02  -21.0440 26076.1 -03464.9 -07.5689 26305.3
 17 08 2013  15 03  -21.0435 26076.0 -03465.1 -07.5695 26305.2
 17 08 2013  15 04  -21.0429 26075.8 -03465.3 -07.5698 26305.0
 17 08 2013  15 05  -21.0424 26075.8 -03465.5 -07.5703 26305.1
 17 08 2013  15 06  -21.0429 26076.6 -03466.0 -07.5711 26305.9
 17 08 2013  15 07  -21.0436 26077.2 -03466.2 -07.5715 26306.6
 17 08 2013  15 08  -21.0428 26077.3 -03466.2 -07.5714 26306.6
 17 08 2013  15 09  -21.0411 26076.4 -03465.8 -07.5708 26305.7
 17 08 2013  15 10  -21.0394 26075.8 -03465.7 -07.5708 26305.1
 17 08 2013  15 11  -21.0385 26075.7 -03466.0 -07.5713 26305.0
 17 08 2013  15 12  -21.0377 26075.8 -03466.3 -07.5719 26305.1
 17 08 2013  15 13  -21.0367 26075.7 -03466.4 -07.5722 26305.1
 17 08 2013  15 14  -21.0359 26075.4 -03466.4 -07.5724 26304.8
 17 08 2013  15 15  -21.0351 26074.8 -03466.3 -07.5724 26304.2
 17 08 2013  15 16  -21.0344 26074.0 -03466.2 -07.5723 26303.4
 17 08 2013  15 17  -21.0333 26073.2 -03466.1 -07.5724 26302.6
 17 08 2013  15 18  -21.0328 26072.9 -03466.3 -07.5729 26302.3
 17 08 2013  15 19  -21.0325 26072.8 -03466.5 -07.5734 26302.3
 17 08 2013  15 20  -21.0328 26072.8 -03466.8 -07.5739 26302.3
 17 08 2013  15 21  -21.0332 26072.5 -03466.8 -07.5741 26302.0
 17 08 2013  15 22  -21.0337 26072.4 -03466.9 -07.5742 26301.9
 17 08 2013  15 23  -21.0336 26072.0 -03466.8 -07.5742 26301.5
 17 08 2013  15 24  -21.0334 26071.6 -03466.6 -07.5740 26301.1
 17 08 2013  15 25  -21.0327 26070.7 -03466.3 -07.5735 26300.1
 17 08 2013  15 26  -21.0316 26069.8 -03466.0 -07.5732 26299.2
 17 08 2013  15 27  -21.0304 26068.9 -03465.8 -07.5730 26298.3
 17 08 2013  15 28  -21.0284 26067.6 -03465.5 -07.5726 26296.9
 17 08 2013  15 29  -21.0271 26066.9 -03465.5 -07.5728 26296.2
 17 08 2013  15 30  -21.0273 26066.5 -03465.8 -07.5736 26295.9
 17 08 2013  15 31  -21.0269 26066.0 -03466.0 -07.5741 26295.4
 17 08 2013  15 32  -21.0272 26066.4 -03466.6 -07.5754 26295.9
 17 08 2013  15 33  -21.0278 26065.9 -03466.8 -07.5759 26295.4
 17 08 2013  15 34  -21.0280 26065.8 -03467.1 -07.5765 26295.4
 17 08 2013  15 35  -21.0285 26066.3 -03467.6 -07.5775 26295.9
 17 08 2013  15 36  -21.0291 26065.9 -03467.6 -07.5776 26295.6
 17 08 2013  15 37  -21.0286 26065.8 -03467.6 -07.5778 26295.5
 17 08 2013  15 38  -21.0286 26065.8 -03467.8 -07.5782 26295.5
 17 08 2013  15 39  -21.0289 26065.6 -03467.9 -07.5784 26295.3
 17 08 2013  15 40  -21.0288 26065.3 -03467.9 -07.5784 26294.9
 17 08 2013  15 41  -21.0288 26065.1 -03468.0 -07.5788 26294.8
 17 08 2013  15 42  -21.0294 26065.2 -03468.2 -07.5792 26295.0
 17 08 2013  15 43  -21.0295 26064.7 -03468.1 -07.5791 26294.4
 17 08 2013  15 44  -21.0300 26064.9 -03468.3 -07.5795 26294.7
 17 08 2013  15 45  -21.0299 26064.7 -03468.2 -07.5793 26294.4
 17 08 2013  15 46  -21.0305 26064.7 -03468.3 -07.5796 26294.5
 17 08 2013  15 47  -21.0301 26064.3 -03468.2 -07.5794 26294.0
 17 08 2013  15 48  -21.0297 26063.7 -03468.0 -07.5793 26293.4
 17 08 2013  15 49  -21.0298 26063.4 -03468.1 -07.5794 26293.2
 17 08 2013  15 50  -21.0295 26063.1 -03468.1 -07.5795 26292.9
 17 08 2013  15 51  -21.0293 26062.6 -03468.1 -07.5796 26292.4
 17 08 2013  15 52  -21.0292 26062.4 -03468.2 -07.5799 26292.2
 17 08 2013  15 53  -21.0293 26062.4 -03468.3 -07.5802 26292.1
 17 08 2013  15 54  -21.0294 26062.3 -03468.5 -07.5805 26292.1
 17 08 2013  15 55  -21.0297 26062.0 -03468.5 -07.5807 26291.8
 17 08 2013  15 56  -21.0296 26061.8 -03468.5 -07.5807 26291.6
 17 08 2013  15 57  -21.0291 26061.5 -03468.5 -07.5808 26291.3
 17 08 2013  15 58  -21.0292 26061.6 -03468.7 -07.5812 26291.4
 17 08 2013  15 59  -21.0285 26061.2 -03468.5 -07.5810 26291.0
 17 08 2013  16 00  -21.0280 26061.6 -03468.9 -07.5816 26291.4
 17 08 2013  16 01  -21.0276 26061.3 -03468.8 -07.5816 26291.1
 17 08 2013  16 02  -21.0272 26061.0 -03468.9 -07.5818 26290.8
 17 08 2013  16 03  -21.0272 26061.0 -03469.1 -07.5822 26290.9
 17 08 2013  16 04  -21.0269 26061.3 -03469.3 -07.5826 26291.2
 17 08 2013  16 05  -21.0269 26061.2 -03469.3 -07.5827 26291.1
 17 08 2013  16 06  -21.0268 26061.2 -03469.4 -07.5828 26291.1
 17 08 2013  16 07  -21.0261 26061.0 -03469.3 -07.5828 26290.9
 17 08 2013  16 08  -21.0251 26060.8 -03469.3 -07.5828 26290.7
 17 08 2013  16 09  -21.0244 26060.3 -03469.2 -07.5828 26290.2
 17 08 2013  16 10  -21.0233 26059.6 -03469.1 -07.5827 26289.5
 17 08 2013  16 11  -21.0230 26059.2 -03469.1 -07.5829 26289.1
 17 08 2013  16 12  -21.0224 26059.0 -03469.2 -07.5831 26289.0
 17 08 2013  16 13  -21.0214 26058.9 -03469.3 -07.5834 26288.8
 17 08 2013  16 14  -21.0208 26058.5 -03469.4 -07.5836 26288.5
 17 08 2013  16 15  -21.0194 26058.0 -03469.3 -07.5836 26287.9
 17 08 2013  16 16  -21.0183 26057.1 -03469.1 -07.5835 26287.0
 17 08 2013  16 17  -21.0174 26056.4 -03469.0 -07.5835 26286.3
 17 08 2013  16 18  -21.0162 26055.5 -03468.9 -07.5835 26285.4
 17 08 2013  16 19  -21.0143 26054.5 -03468.7 -07.5834 26284.4
 17 08 2013  16 20  -21.0128 26053.9 -03468.8 -07.5838 26283.8
 17 08 2013  16 21  -21.0118 26053.6 -03469.1 -07.5845 26283.6
 17 08 2013  16 22  -21.0111 26053.0 -03469.2 -07.5849 26283.0
 17 08 2013  16 23  -21.0105 26052.5 -03469.3 -07.5853 26282.5
 17 08 2013  16 24  -21.0103 26052.1 -03469.5 -07.5858 26282.2
 17 08 2013  16 25  -21.0098 26051.7 -03469.6 -07.5861 26281.7
 17 08 2013  16 26  -21.0088 26051.6 -03469.9 -07.5867 26281.6
 17 08 2013  16 27  -21.0087 26051.5 -03470.3 -07.5876 26281.6
 17 08 2013  16 28  -21.0090 26051.3 -03470.5 -07.5881 26281.5
 17 08 2013  16 29  -21.0097 26051.2 -03470.7 -07.5885 26281.4
 17 08 2013  16 30  -21.0097 26051.0 -03470.8 -07.5888 26281.2
 17 08 2013  16 31  -21.0094 26050.9 -03470.9 -07.5890 26281.1
 17 08 2013  16 32  -21.0089 26050.6 -03470.9 -07.5892 26280.8
 17 08 2013  16 33  -21.0082 26050.1 -03470.9 -07.5894 26280.3
 17 08 2013  16 34  -21.0076 26049.3 -03470.9 -07.5895 26279.5
 17 08 2013  16 35  -21.0074 26048.7 -03471.0 -07.5899 26279.0
 17 08 2013  16 36  -21.0071 26048.1 -03471.1 -07.5903 26278.4
 17 08 2013  16 37  -21.0069 26047.9 -03471.3 -07.5909 26278.2
 17 08 2013  16 38  -21.0069 26047.7 -03471.6 -07.5915 26278.1
 17 08 2013  16 39  -21.0068 26047.3 -03471.7 -07.5918 26277.6
 17 08 2013  16 40  -21.0064 26047.0 -03471.8 -07.5921 26277.3
 17 08 2013  16 41  -21.0066 26046.6 -03472.0 -07.5926 26277.0
 17 08 2013  16 42  -21.0068 26046.2 -03472.1 -07.5930 26276.6
 17 08 2013  16 43  -21.0066 26045.5 -03472.1 -07.5932 26276.0
 17 08 2013  16 44  -21.0066 26045.3 -03472.3 -07.5937 26275.8
 17 08 2013  16 45  -21.0062 26044.5 -03472.2 -07.5938 26274.9
 17 08 2013  16 46  -21.0054 26043.7 -03472.2 -07.5940 26274.1
 17 08 2013  16 47  -21.0055 26043.5 -03472.5 -07.5948 26274.0
 17 08 2013  16 48  -21.0063 26043.9 -03473.1 -07.5958 26274.5
 17 08 2013  16 49  -21.0074 26043.8 -03473.2 -07.5962 26274.4
 17 08 2013  16 50  -21.0076 26043.3 -03473.1 -07.5960 26273.9
 17 08 2013  16 51  -21.0067 26042.3 -03472.8 -07.5957 26272.9
 17 08 2013  16 52  -21.0061 26041.3 -03472.6 -07.5956 26271.8
 17 08 2013  16 53  -21.0057 26040.3 -03472.6 -07.5958 26270.9
 17 08 2013  16 54  -21.0045 26038.9 -03472.4 -07.5957 26269.4
 17 08 2013  16 55  -21.0037 26038.4 -03472.7 -07.5965 26268.9
 17 08 2013  16 56  -21.0038 26038.3 -03473.2 -07.5977 26268.9
 17 08 2013  16 57  -21.0037 26038.2 -03473.6 -07.5986 26268.9
 17 08 2013  16 58  -21.0035 26037.9 -03473.8 -07.5991 26268.6
 17 08 2013  16 59  -21.0034 26037.8 -03474.0 -07.5997 26268.5
 17 08 2013  17 00  -21.0034 26037.6 -03474.2 -07.6001 26268.4
 17 08 2013  17 01  -21.0033 26037.9 -03474.6 -07.6008 26268.7
 17 08 2013  17 02  -21.0030 26037.9 -03474.8 -07.6014 26268.7
 17 08 2013  17 03  -21.0026 26037.6 -03475.0 -07.6018 26268.5
 17 08 2013  17 04  -21.0026 26037.6 -03475.3 -07.6024 26268.5
 17 08 2013  17 05  -21.0021 26037.8 -03475.6 -07.6031 26268.7
 17 08 2013  17 06  -21.0025 26038.9 -03476.3 -07.6042 26269.9
 17 08 2013  17 07  -21.0033 26039.6 -03476.8 -07.6052 26270.7
 17 08 2013  17 08  -21.0035 26040.2 -03477.1 -07.6056 26271.3
 17 08 2013  17 09  -21.0033 26040.6 -03477.2 -07.6058 26271.7
 17 08 2013  17 10  -21.0034 26040.5 -03477.3 -07.6059 26271.7
 17 08 2013  17 11  -21.0040 26040.7 -03477.3 -07.6060 26271.9
 17 08 2013  17 12  -21.0044 26040.5 -03477.2 -07.6057 26271.6
 17 08 2013  17 13  -21.0043 26040.0 -03476.9 -07.6053 26271.1
 17 08 2013  17 14  -21.0043 26039.0 -03476.5 -07.6047 26270.0
 17 08 2013  17 15  -21.0034 26038.1 -03476.3 -07.6045 26269.1
 17 08 2013  17 16  -21.0024 26037.0 -03476.2 -07.6045 26268.0
 17 08 2013  17 17  -21.0015 26035.4 -03475.9 -07.6045 26266.4
 17 08 2013  17 18  -21.0000 26034.0 -03475.9 -07.6047 26265.1
 17 08 2013  17 19  -20.9994 26033.6 -03476.3 -07.6058 26264.7
 17 08 2013  17 20  -20.9993 26033.7 -03476.9 -07.6070 26264.9
 17 08 2013  17 21  -20.9994 26033.8 -03477.3 -07.6079 26265.0
 17 08 2013  17 22  -20.9998 26034.1 -03477.7 -07.6087 26265.4
 17 08 2013  17 23  -21.0009 26034.4 -03478.0 -07.6093 26265.7
 17 08 2013  17 24  -21.0013 26034.3 -03478.1 -07.6094 26265.6
 17 08 2013  17 25  -21.0014 26034.0 -03478.1 -07.6095 26265.3
 17 08 2013  17 26  -21.0014 26033.4 -03477.9 -07.6094 26264.7
 17 08 2013  17 27  -21.0007 26032.5 -03477.8 -07.6093 26263.8
 17 08 2013  17 28  -21.0003 26031.8 -03477.8 -07.6096 26263.1
 17 08 2013  17 29  -21.0012 26031.7 -03478.1 -07.6103 26263.0
 17 08 2013  17 30  -21.0012 26031.5 -03478.3 -07.6108 26262.9
 17 08 2013  17 31  -21.0016 26031.6 -03478.6 -07.6114 26263.0
 17 08 2013  17 32  -21.0021 26032.0 -03479.0 -07.6121 26263.4
 17 08 2013  17 33  -21.0024 26032.3 -03479.3 -07.6126 26263.8
 17 08 2013  17 34  -21.0025 26032.4 -03479.5 -07.6130 26263.9
 17 08 2013  17 35  -21.0029 26032.5 -03479.7 -07.6134 26264.1
 17 08 2013  17 36  -21.0032 26032.6 -03479.8 -07.6136 26264.1
 17 08 2013  17 37  -21.0031 26032.6 -03479.9 -07.6138 26264.2
 17 08 2013  17 38  -21.0032 26032.5 -03480.0 -07.6140 26264.1
 17 08 2013  17 39  -21.0029 26032.5 -03480.0 -07.6141 26264.1
 17 08 2013  17 40  -21.0030 26032.8 -03480.3 -07.6146 26264.4
 17 08 2013  17 41  -21.0038 26033.3 -03480.6 -07.6152 26264.9
 17 08 2013  17 42  -21.0042 26033.5 -03480.7 -07.6153 26265.1
 17 08 2013  17 43  -21.0043 26033.4 -03480.6 -07.6151 26265.1
 17 08 2013  17 44  -21.0039 26033.0 -03480.4 -07.6147 26264.6
 17 08 2013  17 45  -21.0029 26032.4 -03480.2 -07.6146 26264.0
 17 08 2013  17 46  -21.0025 26032.0 -03480.2 -07.6147 26263.6
 17 08 2013  17 47  -21.0022 26031.6 -03480.2 -07.6149 26263.2
 17 08 2013  17 48  -21.0022 26031.3 -03480.3 -07.6151 26262.9
 17 08 2013  17 49  -21.0020 26031.3 -03480.4 -07.6154 26262.9
 17 08 2013  17 50  -21.0022 26031.4 -03480.6 -07.6158 26263.1
 17 08 2013  17 51  -21.0023 26031.5 -03480.8 -07.6160 26263.2
 17 08 2013  17 52  -21.0023 26031.5 -03480.8 -07.6161 26263.2
 17 08 2013  17 53  -21.0024 26031.6 -03480.9 -07.6163 26263.3
 17 08 2013  17 54  -21.0024 26031.6 -03481.0 -07.6165 26263.3
 17 08 2013  17 55  -21.0025 26031.5 -03481.0 -07.6166 26263.3
 17 08 2013  17 56  -21.0026 26031.4 -03481.0 -07.6166 26263.1
 17 08 2013  17 57  -21.0024 26031.1 -03481.0 -07.6166 26262.8
 17 08 2013  17 58  -21.0020 26030.8 -03481.0 -07.6167 26262.5
 17 08 2013  17 59  -21.0020 26030.6 -03481.1 -07.6169 26262.4
 17 08 2013  18 00  -21.0021 26030.5 -03481.2 -07.6172 26262.2
 17 08 2013  18 01  -21.0020 26030.4 -03481.3 -07.6174 26262.2
 17 08 2013  18 02  -21.0018 26030.0 -03481.3 -07.6175 26261.8
 17 08 2013  18 03  -21.0019 26029.8 -03481.3 -07.6178 26261.6
 17 08 2013  18 04  -21.0021 26029.7 -03481.4 -07.6179 26261.5
 17 08 2013  18 05  -21.0019 26029.3 -03481.3 -07.6178 26261.1
 17 08 2013  18 06  -21.0020 26029.2 -03481.5 -07.6182 26261.0
 17 08 2013  18 07  -21.0022 26029.1 -03481.6 -07.6185 26260.9
 17 08 2013  18 08  -21.0017 26028.4 -03481.4 -07.6182 26260.1
 17 08 2013  18 09  -21.0012 26027.8 -03481.3 -07.6184 26259.6
 17 08 2013  18 10  -21.0012 26027.6 -03481.5 -07.6188 26259.4
 17 08 2013  18 11  -21.0012 26027.5 -03481.8 -07.6193 26259.4
 17 08 2013  18 12  -21.0013 26027.3 -03481.9 -07.6197 26259.2
 17 08 2013  18 13  -21.0010 26027.1 -03482.0 -07.6199 26259.0
 17 08 2013  18 14  -21.0014 26027.3 -03482.3 -07.6205 26259.2
 17 08 2013  18 15  -21.0018 26027.4 -03482.4 -07.6208 26259.3
 17 08 2013  18 16  -21.0018 26027.3 -03482.5 -07.6211 26259.2
 17 08 2013  18 17  -21.0020 26027.1 -03482.5 -07.6212 26259.0
 17 08 2013  18 18  -21.0022 26026.7 -03482.5 -07.6211 26258.7
 17 08 2013  18 19  -21.0021 26026.2 -03482.4 -07.6210 26258.1
 17 08 2013  18 20  -21.0019 26025.8 -03482.4 -07.6212 26257.7
 17 08 2013  18 21  -21.0010 26025.3 -03482.4 -07.6213 26257.3
 17 08 2013  18 22  -20.9981 26024.7 -03482.5 -07.6218 26256.7
 17 08 2013  18 23  -20.9950 26024.2 -03483.0 -07.6229 26256.2
 17 08 2013  18 24  -20.9924 26023.8 -03483.8 -07.6247 26256.0
 17 08 2013  18 25  -20.9921 26023.7 -03484.7 -07.6268 26255.9
 17 08 2013  18 26  -20.9931 26023.4 -03485.3 -07.6281 26255.8
 17 08 2013  18 27  -20.9952 26023.5 -03485.6 -07.6289 26255.9
 17 08 2013  18 28  -20.9969 26023.4 -03485.7 -07.6290 26255.9
 17 08 2013  18 29  -20.9975 26023.3 -03485.6 -07.6289 26255.7
 17 08 2013  18 30  -20.9974 26023.2 -03485.7 -07.6290 26255.7
 17 08 2013  18 31  -20.9974 26023.4 -03485.9 -07.6295 26255.8
 17 08 2013  18 32  -20.9983 26023.5 -03486.1 -07.6298 26255.9
 17 08 2013  18 33  -20.9994 26023.5 -03486.0 -07.6297 26256.0
 17 08 2013  18 34  -21.0003 26023.5 -03485.9 -07.6295 26255.9
 17 08 2013  18 35  -21.0010 26023.5 -03485.8 -07.6293 26256.0
 17 08 2013  18 36  -21.0013 26023.8 -03485.9 -07.6293 26256.2
 17 08 2013  18 37  -21.0023 26024.3 -03486.0 -07.6295 26256.7
 17 08 2013  18 38  -21.0034 26024.5 -03486.0 -07.6294 26256.9
 17 08 2013  18 39  -21.0040 26024.4 -03485.7 -07.6289 26256.8
 17 08 2013  18 40  -21.0045 26024.4 -03485.6 -07.6285 26256.8
 17 08 2013  18 41  -21.0048 26024.4 -03485.5 -07.6283 26256.8
 17 08 2013  18 42  -21.0052 26024.2 -03485.4 -07.6281 26256.5
 17 08 2013  18 43  -21.0060 26024.2 -03485.3 -07.6279 26256.6
 17 08 2013  18 44  -21.0069 26024.2 -03485.2 -07.6277 26256.5
 17 08 2013  18 45  -21.0079 26024.3 -03485.1 -07.6274 26256.6
 17 08 2013  18 46  -21.0082 26024.3 -03484.9 -07.6272 26256.6
 17 08 2013  18 47  -21.0088 26024.2 -03484.8 -07.6269 26256.5
 17 08 2013  18 48  -21.0096 26023.9 -03484.6 -07.6265 26256.1
 17 08 2013  18 49  -21.0091 26023.0 -03484.1 -07.6256 26255.2
 17 08 2013  18 50  -21.0089 26022.7 -03484.0 -07.6256 26254.9
 17 08 2013  18 51  -21.0089 26022.7 -03484.1 -07.6258 26254.9
 17 08 2013  18 52  -21.0092 26023.0 -03484.3 -07.6262 26255.2
 17 08 2013  18 53  -21.0095 26023.4 -03484.5 -07.6265 26255.6
 17 08 2013  18 54  -21.0100 26023.7 -03484.6 -07.6266 26255.9
 17 08 2013  18 55  -21.0108 26023.8 -03484.6 -07.6266 26256.1
 17 08 2013  18 56  -21.0111 26023.8 -03484.5 -07.6263 26256.1
 17 08 2013  18 57  -21.0113 26023.7 -03484.4 -07.6261 26255.9
 17 08 2013  18 58  -21.0116 26023.5 -03484.3 -07.6259 26255.7
 17 08 2013  18 59  -21.0120 26023.2 -03484.1 -07.6256 26255.4
 17 08 2013  19 00  -21.0121 26022.9 -03483.9 -07.6253 26255.0
 17 08 2013  19 01  -21.0122 26022.5 -03483.8 -07.6251 26254.7
 17 08 2013  19 02  -21.0122 26022.2 -03483.7 -07.6250 26254.3
 17 08 2013  19 03  -21.0123 26021.9 -03483.6 -07.6249 26254.0
 17 08 2013  19 04  -21.0123 26021.5 -03483.5 -07.6248 26253.6
 17 08 2013  19 05  -21.0127 26021.5 -03483.5 -07.6249 26253.6
 17 08 2013  19 06  -21.0136 26021.7 -03483.6 -07.6251 26253.8
 17 08 2013  19 07  -21.0142 26021.8 -03483.7 -07.6251 26254.0
 17 08 2013  19 08  -21.0143 26021.7 -03483.6 -07.6249 26253.8
 17 08 2013  19 09  -21.0141 26021.3 -03483.4 -07.6247 26253.4
 17 08 2013  19 10  -21.0141 26021.1 -03483.4 -07.6246 26253.2
 17 08 2013  19 11  -21.0139 26021.0 -03483.4 -07.6248 26253.1
 17 08 2013  19 12  -21.0139 26021.2 -03483.6 -07.6250 26253.3
 17 08 2013  19 13  -21.0144 26021.6 -03483.8 -07.6255 26253.8
 17 08 2013  19 14  -21.0150 26022.0 -03484.0 -07.6257 26254.2
 17 08 2013  19 15  -21.0154 26022.0 -03483.9 -07.6256 26254.2
 17 08 2013  19 16  -21.0154 26021.7 -03483.7 -07.6253 26253.9
 17 08 2013  19 17  -21.0155 26021.5 -03483.6 -07.6251 26253.6
 17 08 2013  19 18  -21.0158 26021.2 -03483.5 -07.6249 26253.3
 17 08 2013  19 19  -21.0156 26020.9 -03483.3 -07.6247 26253.0
 17 08 2013  19 20  -21.0156 26020.8 -03483.3 -07.6247 26252.9
 17 08 2013  19 21  -21.0161 26021.0 -03483.5 -07.6249 26253.2
 17 08 2013  19 22  -21.0165 26021.2 -03483.5 -07.6250 26253.3
 17 08 2013  19 23  -21.0167 26021.0 -03483.4 -07.6247 26253.1
 17 08 2013  19 24  -21.0170 26020.7 -03483.2 -07.6244 26252.8
 17 08 2013  19 25  -21.0175 26020.5 -03483.1 -07.6242 26252.5
 17 08 2013  19 26  -21.0177 26020.1 -03482.9 -07.6239 26252.1
 17 08 2013  19 27  -21.0179 26019.9 -03482.8 -07.6237 26252.0
 17 08 2013  19 28  -21.0182 26020.0 -03482.8 -07.6238 26252.0
 17 08 2013  19 29  -21.0186 26020.1 -03482.9 -07.6239 26252.2
 17 08 2013  19 30  -21.0190 26020.4 -03482.9 -07.6240 26252.4
 17 08 2013  19 31  -21.0198 26020.7 -03483.0 -07.6240 26252.8
 17 08 2013  19 32  -21.0203 26020.7 -03482.9 -07.6238 26252.7
 17 08 2013  19 33  -21.0210 26020.8 -03482.8 -07.6236 26252.9
 17 08 2013  19 34  -21.0217 26021.0 -03482.7 -07.6233 26253.1
 17 08 2013  19 35  -21.0221 26020.9 -03482.5 -07.6228 26252.9
 17 08 2013  19 36  -21.0222 26020.7 -03482.2 -07.6223 26252.7
 17 08 2013  19 37  -21.0220 26020.3 -03481.9 -07.6217 26252.3
 17 08 2013  19 38  -21.0218 26020.0 -03481.7 -07.6213 26251.9
 17 08 2013  19 39  -21.0224 26020.1 -03481.7 -07.6213 26252.0
 17 08 2013  19 40  -21.0225 26020.1 -03481.6 -07.6211 26252.0
 17 08 2013  19 41  -21.0230 26020.2 -03481.5 -07.6209 26252.1
 17 08 2013  19 42  -21.0235 26020.0 -03481.3 -07.6204 26251.9
 17 08 2013  19 43  -21.0235 26019.5 -03480.8 -07.6196 26251.3
 17 08 2013  19 44  -21.0228 26018.6 -03480.3 -07.6188 26250.4
 17 08 2013  19 45  -21.0225 26018.4 -03480.3 -07.6187 26250.1
 17 08 2013  19 46  -21.0225 26018.7 -03480.5 -07.6191 26250.5
 17 08 2013  19 47  -21.0223 26019.1 -03480.6 -07.6192 26250.9
 17 08 2013  19 48  -21.0227 26019.5 -03480.6 -07.6191 26251.2
 17 08 2013  19 49  -21.0232 26019.3 -03480.3 -07.6186 26251.0
 17 08 2013  19 50  -21.0239 26019.1 -03480.0 -07.6180 26250.8
 17 08 2013  19 51  -21.0244 26019.4 -03480.0 -07.6178 26251.1
 17 08 2013  19 52  -21.0247 26020.0 -03480.1 -07.6180 26251.7
 17 08 2013  19 53  -21.0249 26020.0 -03480.0 -07.6177 26251.7
 17 08 2013  19 54  -21.0249 26019.5 -03479.5 -07.6168 26251.1
 17 08 2013  19 55  -21.0249 26019.5 -03479.3 -07.6163 26251.1
 17 08 2013  19 56  -21.0246 26019.4 -03479.1 -07.6159 26250.9
 17 08 2013  19 57  -21.0242 26019.2 -03478.9 -07.6156 26250.8
 17 08 2013  19 58  -21.0242 26019.4 -03478.9 -07.6154 26250.9
 17 08 2013  19 59  -21.0245 26019.8 -03478.9 -07.6153 26251.3
 17 08 2013  20 00  -21.0247 26020.2 -03478.9 -07.6154 26251.7
 17 08 2013  20 01  -21.0250 26020.1 -03478.7 -07.6148 26251.6
 17 08 2013  20 02  -21.0250 26019.7 -03478.2 -07.6138 26251.1
 17 08 2013  20 03  -21.0243 26018.9 -03477.6 -07.6129 26250.3
 17 08 2013  20 04  -21.0234 26018.0 -03477.2 -07.6121 26249.3
 17 08 2013  20 05  -21.0236 26018.7 -03477.5 -07.6127 26250.1
 17 08 2013  20 06  -21.0237 26019.3 -03477.8 -07.6132 26250.7
 17 08 2013  20 07  -21.0237 26019.4 -03477.8 -07.6131 26250.8
 17 08 2013  20 08  -21.0235 26019.3 -03477.7 -07.6128 26250.7
 17 08 2013  20 09  -21.0236 26018.9 -03477.4 -07.6123 26250.2
 17 08 2013  20 10  -21.0238 26018.6 -03477.2 -07.6120 26249.9
 17 08 2013  20 11  -21.0241 26018.6 -03477.2 -07.6120 26250.0
 17 08 2013  20 12  -21.0242 26019.2 -03477.3 -07.6122 26250.5
 17 08 2013  20 13  -21.0239 26019.3 -03477.3 -07.6122 26250.6
 17 08 2013  20 14  -21.0239 26019.1 -03477.1 -07.6118 26250.4
 17 08 2013  20 15  -21.0237 26018.6 -03476.8 -07.6111 26249.8
 17 08 2013  20 16  -21.0237 26018.3 -03476.5 -07.6107 26249.5
 17 08 2013  20 17  -21.0236 26018.5 -03476.6 -07.6107 26249.8
 17 08 2013  20 18  -21.0238 26018.6 -03476.5 -07.6105 26249.8
 17 08 2013  20 19  -21.0239 26018.9 -03476.4 -07.6103 26250.1
 17 08 2013  20 20  -21.0237 26019.5 -03476.5 -07.6103 26250.8
 17 08 2013  20 21  -21.0232 26019.4 -03476.2 -07.6096 26250.6
 17 08 2013  20 22  -21.0232 26018.8 -03475.7 -07.6088 26250.0
 17 08 2013  20 23  -21.0233 26018.2 -03475.3 -07.6079 26249.3
 17 08 2013  20 24  -21.0238 26018.3 -03475.3 -07.6079 26249.4
 17 08 2013  20 25  -21.0238 26019.0 -03475.5 -07.6082 26250.1
 17 08 2013  20 26  -21.0230 26019.5 -03475.5 -07.6080 26250.6
 17 08 2013  20 27  -21.0218 26019.4 -03475.2 -07.6075 26250.4
 17 08 2013  20 28  -21.0212 26019.3 -03475.0 -07.6072 26250.4
 17 08 2013  20 29  -21.0215 26019.7 -03475.2 -07.6073 26250.8
 17 08 2013  20 30  -21.0218 26020.2 -03475.4 -07.6077 26251.3
 17 08 2013  20 31  -21.0223 26020.9 -03475.7 -07.6081 26252.0
 17 08 2013  20 32  -21.0224 26021.1 -03475.7 -07.6081 26252.2
 17 08 2013  20 33  -21.0221 26021.0 -03475.5 -07.6077 26252.1
 17 08 2013  20 34  -21.0217 26020.4 -03475.1 -07.6070 26251.5
 17 08 2013  20 35  -21.0213 26020.3 -03474.9 -07.6065 26251.3
 17 08 2013  20 36  -21.0211 26020.4 -03474.9 -07.6066 26251.4
 17 08 2013  20 37  -21.0211 26020.8 -03475.1 -07.6068 26251.8
 17 08 2013  20 38  -21.0210 26020.8 -03475.0 -07.6067 26251.9
 17 08 2013  20 39  -21.0210 26020.8 -03474.9 -07.6065 26251.8
 17 08 2013  20 40  -21.0210 26020.7 -03474.9 -07.6065 26251.7
 17 08 2013  20 41  -21.0210 26020.5 -03474.8 -07.6063 26251.5
 17 08 2013  20 42  -21.0209 26020.4 -03474.7 -07.6061 26251.4
 17 08 2013  20 43  -21.0208 26020.5 -03474.8 -07.6062 26251.5
 17 08 2013  20 44  -21.0206 26020.7 -03474.8 -07.6062 26251.7
 17 08 2013  20 45  -21.0204 26020.7 -03474.8 -07.6062 26251.7
 17 08 2013  20 46  -21.0202 26020.7 -03474.7 -07.6061 26251.7
 17 08 2013  20 47  -21.0201 26020.8 -03474.7 -07.6061 26251.8
 17 08 2013  20 48  -21.0198 26020.9 -03474.8 -07.6061 26251.9
 17 08 2013  20 49  -21.0194 26020.9 -03474.7 -07.6061 26251.8
 17 08 2013  20 50  -21.0191 26020.6 -03474.6 -07.6059 26251.6
 17 08 2013  20 51  -21.0191 26020.3 -03474.5 -07.6057 26251.2
 17 08 2013  20 52  -21.0191 26020.1 -03474.5 -07.6058 26251.1
 17 08 2013  20 53  -21.0190 26020.2 -03474.6 -07.6059 26251.1
 17 08 2013  20 54  -21.0191 26020.3 -03474.7 -07.6061 26251.3
 17 08 2013  20 55  -21.0192 26020.4 -03474.7 -07.6062 26251.4
 17 08 2013  20 56  -21.0193 26020.5 -03474.8 -07.6063 26251.4
 17 08 2013  20 57  -21.0195 26020.4 -03474.8 -07.6063 26251.4
 17 08 2013  20 58  -21.0198 26020.3 -03474.8 -07.6063 26251.3
 17 08 2013  20 59  -21.0199 26020.3 -03474.8 -07.6064 26251.2
 17 08 2013  21 00  -21.0200 26020.3 -03474.8 -07.6064 26251.3
 17 08 2013  21 01  -21.0201 26020.3 -03474.8 -07.6064 26251.3
 17 08 2013  21 02  -21.0202 26020.2 -03474.7 -07.6063 26251.2
 17 08 2013  21 03  -21.0203 26020.2 -03474.7 -07.6063 26251.2
 17 08 2013  21 04  -21.0203 26020.4 -03474.8 -07.6063 26251.4
 17 08 2013  21 05  -21.0203 26020.6 -03474.9 -07.6065 26251.6
 17 08 2013  21 06  -21.0203 26020.7 -03474.9 -07.6064 26251.7
 17 08 2013  21 07  -21.0203 26020.9 -03475.0 -07.6065 26251.9
 17 08 2013  21 08  -21.0203 26020.9 -03475.0 -07.6066 26251.9
 17 08 2013  21 09  -21.0204 26021.0 -03475.0 -07.6066 26252.0
 17 08 2013  21 10  -21.0203 26020.9 -03474.9 -07.6064 26251.9
 17 08 2013  21 11  -21.0204 26020.8 -03474.8 -07.6063 26251.8
 17 08 2013  21 12  -21.0205 26020.8 -03474.8 -07.6062 26251.7
 17 08 2013  21 13  -21.0205 26020.9 -03474.8 -07.6062 26251.8
 17 08 2013  21 14  -21.0203 26021.0 -03474.8 -07.6062 26252.0
 17 08 2013  21 15  -21.0205 26021.0 -03474.9 -07.6063 26251.9
 17 08 2013  21 16  -21.0203 26020.9 -03474.7 -07.6060 26251.8
 17 08 2013  21 17  -21.0201 26021.2 -03474.9 -07.6063 26252.2
 17 08 2013  21 18  -21.0199 26021.5 -03475.0 -07.6065 26252.5
 17 08 2013  21 19  -21.0198 26021.7 -03475.1 -07.6066 26252.7
 17 08 2013  21 20  -21.0197 26021.6 -03475.1 -07.6065 26252.6
 17 08 2013  21 21  -21.0197 26021.6 -03475.0 -07.6065 26252.7
 17 08 2013  21 22  -21.0199 26021.7 -03475.1 -07.6066 26252.7
 17 08 2013  21 23  -21.0199 26021.6 -03475.0 -07.6065 26252.6
 17 08 2013  21 24  -21.0198 26021.5 -03475.0 -07.6064 26252.5
 17 08 2013  21 25  -21.0198 26021.5 -03474.9 -07.6062 26252.5
 17 08 2013  21 26  -21.0197 26021.4 -03474.9 -07.6062 26252.4
 17 08 2013  21 27  -21.0197 26021.3 -03474.8 -07.6060 26252.3
 17 08 2013  21 28  -21.0198 26021.2 -03474.7 -07.6059 26252.1
 17 08 2013  21 29  -21.0198 26021.2 -03474.7 -07.6059 26252.2
 17 08 2013  21 30  -21.0198 26021.4 -03474.8 -07.6061 26252.4
 17 08 2013  21 31  -21.0196 26021.6 -03474.9 -07.6062 26252.5
 17 08 2013  21 32  -21.0195 26021.6 -03474.9 -07.6063 26252.6
 17 08 2013  21 33  -21.0197 26021.7 -03475.0 -07.6064 26252.7
 17 08 2013  21 34  -21.0200 26021.9 -03475.1 -07.6065 26252.9
 17 08 2013  21 35  -21.0204 26021.9 -03475.1 -07.6065 26253.0
 17 08 2013  21 36  -21.0208 26022.0 -03475.1 -07.6065 26253.0
 17 08 2013  21 37  -21.0211 26021.8 -03475.0 -07.6063 26252.8
 17 08 2013  21 38  -21.0218 26021.7 -03474.9 -07.6062 26252.7
 17 08 2013  21 39  -21.0222 26021.7 -03474.8 -07.6060 26252.7
 17 08 2013  21 40  -21.0226 26021.7 -03474.8 -07.6060 26252.7
 17 08 2013  21 41  -21.0231 26021.5 -03474.6 -07.6057 26252.4
 17 08 2013  21 42  -21.0233 26021.3 -03474.5 -07.6054 26252.2
 17 08 2013  21 43  -21.0239 26021.2 -03474.4 -07.6053 26252.1
 17 08 2013  21 44  -21.0242 26021.0 -03474.3 -07.6051 26251.9
 17 08 2013  21 45  -21.0241 26021.1 -03474.2 -07.6049 26252.0
 17 08 2013  21 46  -21.0239 26021.2 -03474.2 -07.6049 26252.1
 17 08 2013  21 47  -21.0236 26021.3 -03474.2 -07.6049 26252.2
 17 08 2013  21 48  -21.0234 26021.6 -03474.4 -07.6051 26252.5
 17 08 2013  21 49  -21.0228 26021.6 -03474.4 -07.6051 26252.5
 17 08 2013  21 50  -21.0225 26021.7 -03474.4 -07.6051 26252.6
 17 08 2013  21 51  -21.0225 26022.2 -03474.6 -07.6053 26253.1
 17 08 2013  21 52  -21.0223 26023.1 -03475.0 -07.6060 26254.1
 17 08 2013  21 53  -21.0221 26023.7 -03475.3 -07.6065 26254.7
 17 08 2013  21 54  -21.0219 26023.6 -03475.3 -07.6064 26254.6
 17 08 2013  21 55  -21.0223 26022.9 -03474.9 -07.6058 26253.9
 17 08 2013  21 56  -21.0229 26022.6 -03474.6 -07.6053 26253.6
 17 08 2013  21 57  -21.0231 26022.6 -03474.5 -07.6051 26253.6
 17 08 2013  21 58  -21.0229 26022.7 -03474.5 -07.6051 26253.7
 17 08 2013  21 59  -21.0228 26022.8 -03474.5 -07.6051 26253.8
 17 08 2013  22 00  -21.0231 26023.1 -03474.7 -07.6052 26254.0
 17 08 2013  22 01  -21.0235 26023.0 -03474.6 -07.6052 26254.0
 17 08 2013  22 02  -21.0243 26022.9 -03474.5 -07.6049 26253.8
 17 08 2013  22 03  -21.0251 26023.0 -03474.5 -07.6049 26253.9
 17 08 2013  22 04  -21.0254 26023.1 -03474.4 -07.6048 26254.0
 17 08 2013  22 05  -21.0257 26023.2 -03474.4 -07.6047 26254.1
 17 08 2013  22 06  -21.0260 26023.1 -03474.3 -07.6045 26254.0
 17 08 2013  22 07  -21.0263 26022.8 -03474.1 -07.6042 26253.7
 17 08 2013  22 08  -21.0267 26022.6 -03474.0 -07.6039 26253.5
 17 08 2013  22 09  -21.0272 26022.7 -03473.9 -07.6037 26253.5
 17 08 2013  22 10  -21.0277 26022.9 -03474.0 -07.6039 26253.8
 17 08 2013  22 11  -21.0278 26023.2 -03474.1 -07.6039 26254.1
 17 08 2013  22 12  -21.0277 26023.3 -03474.1 -07.6040 26254.2
 17 08 2013  22 13  -21.0276 26023.3 -03474.1 -07.6039 26254.2
 17 08 2013  22 14  -21.0275 26023.3 -03474.0 -07.6037 26254.1
 17 08 2013  22 15  -21.0274 26023.2 -03473.9 -07.6035 26254.1
 17 08 2013  22 16  -21.0275 26023.2 -03473.8 -07.6035 26254.0
 17 08 2013  22 17  -21.0278 26023.1 -03473.8 -07.6035 26253.9
 17 08 2013  22 18  -21.0280 26022.9 -03473.7 -07.6032 26253.8
 17 08 2013  22 19  -21.0281 26022.8 -03473.6 -07.6030 26253.6
 17 08 2013  22 20  -21.0280 26022.8 -03473.5 -07.6029 26253.6
 17 08 2013  22 21  -21.0280 26022.6 -03473.5 -07.6029 26253.4
 17 08 2013  22 22  -21.0282 26022.6 -03473.5 -07.6029 26253.4
 17 08 2013  22 23  -21.0285 26022.7 -03473.6 -07.6030 26253.5
 17 08 2013  22 24  -21.0286 26022.5 -03473.4 -07.6028 26253.3
 17 08 2013  22 25  -21.0287 26022.7 -03473.5 -07.6029 26253.5
 17 08 2013  22 26  -21.0285 26023.1 -03473.7 -07.6032 26253.9
 17 08 2013  22 27  -21.0286 26023.3 -03473.8 -07.6034 26254.1
 17 08 2013  22 28  -21.0287 26023.1 -03473.8 -07.6033 26254.0
 17 08 2013  22 29  -21.0291 26023.1 -03473.7 -07.6033 26253.9
 17 08 2013  22 30  -21.0296 26023.2 -03473.8 -07.6034 26254.1
 17 08 2013  22 31  -21.0301 26023.3 -03473.9 -07.6034 26254.2
 17 08 2013  22 32  -21.0302 26023.5 -03473.9 -07.6034 26254.3
 17 08 2013  22 33  -21.0303 26023.5 -03473.9 -07.6034 26254.3
 17 08 2013  22 34  -21.0302 26023.6 -03473.9 -07.6034 26254.5
 17 08 2013  22 35  -21.0302 26023.8 -03473.9 -07.6035 26254.6
 17 08 2013  22 36  -21.0302 26023.4 -03473.7 -07.6031 26254.2
 17 08 2013  22 37  -21.0307 26023.4 -03473.7 -07.6031 26254.2
 17 08 2013  22 38  -21.0309 26023.9 -03473.9 -07.6034 26254.7
 17 08 2013  22 39  -21.0307 26024.2 -03474.0 -07.6036 26255.0
 17 08 2013  22 40  -21.0304 26024.2 -03474.0 -07.6036 26255.0
 17 08 2013  22 41  -21.0301 26024.1 -03474.0 -07.6035 26255.0
 17 08 2013  22 42  -21.0297 26024.0 -03473.9 -07.6033 26254.8
 17 08 2013  22 43  -21.0295 26023.7 -03473.7 -07.6031 26254.5
 17 08 2013  22 44  -21.0293 26023.5 -03473.7 -07.6030 26254.3
 17 08 2013  22 45  -21.0292 26023.3 -03473.6 -07.6028 26254.1
 17 08 2013  22 46  -21.0290 26023.2 -03473.5 -07.6027 26254.0
 17 08 2013  22 47  -21.0287 26023.1 -03473.5 -07.6027 26253.9
 17 08 2013  22 48  -21.0285 26023.1 -03473.5 -07.6027 26253.9
 17 08 2013  22 49  -21.0285 26023.1 -03473.6 -07.6029 26253.9
 17 08 2013  22 50  -21.0287 26022.7 -03473.4 -07.6027 26253.5
 17 08 2013  22 51  -21.0289 26022.8 -03473.4 -07.6027 26253.6
 17 08 2013  22 52  -21.0288 26022.9 -03473.5 -07.6029 26253.7
 17 08 2013  22 53  -21.0288 26022.8 -03473.5 -07.6028 26253.6
 17 08 2013  22 54  -21.0287 26022.7 -03473.5 -07.6029 26253.5
 17 08 2013  22 55  -21.0284 26022.7 -03473.5 -07.6028 26253.5
 17 08 2013  22 56  -21.0280 26022.6 -03473.5 -07.6028 26253.4
 17 08 2013  22 57  -21.0276 26022.5 -03473.5 -07.6028 26253.3
 17 08 2013  22 58  -21.0272 26022.3 -03473.4 -07.6028 26253.1
 17 08 2013  22 59  -21.0271 26022.3 -03473.4 -07.6029 26253.0
 17 08 2013  23 00  -21.0270 26022.1 -03473.4 -07.6029 26252.9
 17 08 2013  23 01  -21.0271 26021.8 -03473.4 -07.6029 26252.6
 17 08 2013  23 02  -21.0272 26021.6 -03473.3 -07.6028 26252.4
 17 08 2013  23 03  -21.0273 26021.5 -03473.3 -07.6028 26252.3
 17 08 2013  23 04  -21.0272 26021.4 -03473.3 -07.6029 26252.2
 17 08 2013  23 05  -21.0271 26021.4 -03473.3 -07.6028 26252.2
 17 08 2013  23 06  -21.0269 26021.4 -03473.4 -07.6030 26252.2
 17 08 2013  23 07  -21.0269 26021.5 -03473.5 -07.6033 26252.3
 17 08 2013  23 08  -21.0267 26021.6 -03473.6 -07.6035 26252.4
 17 08 2013  23 09  -21.0268 26021.6 -03473.7 -07.6036 26252.4
 17 08 2013  23 10  -21.0270 26021.6 -03473.8 -07.6038 26252.5
 17 08 2013  23 11  -21.0273 26021.6 -03473.8 -07.6039 26252.4
 17 08 2013  23 12  -21.0275 26021.4 -03473.7 -07.6038 26252.2
 17 08 2013  23 13  -21.0277 26021.2 -03473.7 -07.6037 26252.1
 17 08 2013  23 14  -21.0279 26021.2 -03473.7 -07.6037 26252.1
 17 08 2013  23 15  -21.0282 26021.2 -03473.8 -07.6039 26252.0
 17 08 2013  23 16  -21.0284 26021.2 -03473.8 -07.6038 26252.0
 17 08 2013  23 17  -21.0284 26021.2 -03473.8 -07.6039 26252.0
 17 08 2013  23 18  -21.0284 26021.2 -03473.8 -07.6039 26252.0
 17 08 2013  23 19  -21.0284 26021.1 -03473.8 -07.6040 26252.0
 17 08 2013  23 20  -21.0283 26021.3 -03473.8 -07.6040 26252.1
 17 08 2013  23 21  -21.0282 26021.5 -03474.0 -07.6043 26252.4
 17 08 2013  23 22  -21.0282 26021.7 -03474.1 -07.6044 26252.6
 17 08 2013  23 23  -21.0278 26022.0 -03474.3 -07.6048 26252.9
 17 08 2013  23 24  -21.0277 26022.2 -03474.4 -07.6050 26253.2
 17 08 2013  23 25  -21.0279 26022.2 -03474.5 -07.6051 26253.2
 17 08 2013  23 26  -21.0279 26022.3 -03474.5 -07.6052 26253.2
 17 08 2013  23 27  -21.0280 26022.6 -03474.7 -07.6054 26253.5
 17 08 2013  23 28  -21.0283 26022.9 -03474.8 -07.6057 26253.8
 17 08 2013  23 29  -21.0285 26022.7 -03474.8 -07.6056 26253.7
 17 08 2013  23 30  -21.0286 26022.8 -03474.8 -07.6056 26253.7
 17 08 2013  23 31  -21.0283 26023.0 -03474.9 -07.6057 26254.0
 17 08 2013  23 32  -21.0280 26023.2 -03474.9 -07.6058 26254.1
 17 08 2013  23 33  -21.0277 26023.6 -03475.1 -07.6060 26254.6
 17 08 2013  23 34  -21.0278 26023.7 -03475.2 -07.6062 26254.7
 17 08 2013  23 35  -21.0280 26023.7 -03475.2 -07.6062 26254.7
 17 08 2013  23 36  -21.0280 26024.0 -03475.3 -07.6064 26255.0
 17 08 2013  23 37  -21.0280 26024.2 -03475.4 -07.6064 26255.3
 17 08 2013  23 38  -21.0280 26024.4 -03475.4 -07.6066 26255.5
 17 08 2013  23 39  -21.0279 26024.5 -03475.4 -07.6066 26255.5
 17 08 2013  23 40  -21.0278 26024.7 -03475.5 -07.6066 26255.8
 17 08 2013  23 41  -21.0277 26025.0 -03475.6 -07.6068 26256.0
 17 08 2013  23 42  -21.0277 26025.1 -03475.6 -07.6068 26256.2
 17 08 2013  23 43  -21.0278 26025.1 -03475.6 -07.6068 26256.1
 17 08 2013  23 44  -21.0278 26025.0 -03475.5 -07.6066 26256.0
 17 08 2013  23 45  -21.0277 26024.9 -03475.4 -07.6064 26255.9
 17 08 2013  23 46  -21.0275 26024.7 -03475.4 -07.6063 26255.8
 17 08 2013  23 47  -21.0274 26024.7 -03475.3 -07.6062 26255.7
 17 08 2013  23 48  -21.0273 26024.6 -03475.3 -07.6062 26255.7
 17 08 2013  23 49  -21.0274 26024.4 -03475.2 -07.6060 26255.4
 17 08 2013  23 50  -21.0275 26024.3 -03475.1 -07.6060 26255.3
 17 08 2013  23 51  -21.0274 26024.3 -03475.1 -07.6059 26255.3
 17 08 2013  23 52  -21.0273 26024.2 -03475.1 -07.6059 26255.2
 17 08 2013  23 53  -21.0272 26024.1 -03475.1 -07.6058 26255.1
 17 08 2013  23 54  -21.0272 26024.2 -03475.1 -07.6059 26255.2
 17 08 2013  23 55  -21.0270 26024.3 -03475.2 -07.6060 26255.3
 17 08 2013  23 56  -21.0267 26024.4 -03475.3 -07.6062 26255.4
 17 08 2013  23 57  -21.0266 26024.4 -03475.3 -07.6063 26255.4
 17 08 2013  23 58  -21.0266 26024.4 -03475.3 -07.6063 26255.4
