SAO LUIS EMBRACE-03 <254> 1 Min. Reported data

 DD MM YYYY  HH MM   D(Deg)  H(nT)   Z(nT)   I(Deg)   F(nT)

 11 09 2013  00 00  -21.0180 26024.8 -03485.1 -07.6273 26257.1
 11 09 2013  00 01  -21.0177 26025.0 -03485.2 -07.6274 26257.3
 11 09 2013  00 02  -21.0174 26025.2 -03485.2 -07.6276 26257.5
 11 09 2013  00 03  -21.0170 26025.5 -03485.4 -07.6278 26257.9
 11 09 2013  00 04  -21.0169 26025.4 -03485.4 -07.6278 26257.8
 11 09 2013  00 05  -21.0169 26025.7 -03485.5 -07.6280 26258.0
 11 09 2013  00 06  -21.0170 26025.6 -03485.5 -07.6280 26258.0
 11 09 2013  00 07  -21.0169 26025.6 -03485.5 -07.6280 26258.0
 11 09 2013  00 08  -21.0167 26025.7 -03485.5 -07.6280 26258.0
 11 09 2013  00 09  -21.0165 26025.5 -03485.4 -07.6278 26257.9
 11 09 2013  00 10  -21.0163 26025.5 -03485.4 -07.6277 26257.8
 11 09 2013  00 11  -21.0160 26025.4 -03485.4 -07.6277 26257.8
 11 09 2013  00 12  -21.0158 26025.4 -03485.3 -07.6277 26257.7
 11 09 2013  00 13  -21.0155 26025.5 -03485.4 -07.6279 26257.9
 11 09 2013  00 14  -21.0155 26025.9 -03485.6 -07.6281 26258.2
 11 09 2013  00 15  -21.0156 26026.1 -03485.7 -07.6283 26258.5
 11 09 2013  00 16  -21.0158 26026.1 -03485.7 -07.6284 26258.5
 11 09 2013  00 17  -21.0158 26026.2 -03485.7 -07.6283 26258.5
 11 09 2013  00 18  -21.0158 26026.3 -03485.8 -07.6283 26258.7
 11 09 2013  00 19  -21.0158 26026.4 -03485.8 -07.6284 26258.8
 11 09 2013  00 20  -21.0157 26026.7 -03485.9 -07.6286 26259.1
 11 09 2013  00 21  -21.0156 26026.9 -03486.0 -07.6286 26259.3
 11 09 2013  00 22  -21.0156 26027.0 -03486.1 -07.6288 26259.5
 11 09 2013  00 23  -21.0157 26027.1 -03486.1 -07.6288 26259.6
 11 09 2013  00 24  -21.0159 26027.2 -03486.0 -07.6287 26259.6
 11 09 2013  00 25  -21.0160 26027.2 -03486.0 -07.6287 26259.6
 11 09 2013  00 26  -21.0163 26027.0 -03485.9 -07.6285 26259.4
 11 09 2013  00 27  -21.0164 26027.0 -03485.9 -07.6284 26259.4
 11 09 2013  00 28  -21.0167 26026.6 -03485.7 -07.6281 26259.0
 11 09 2013  00 29  -21.0167 26026.7 -03485.7 -07.6280 26259.0
 11 09 2013  00 30  -21.0168 26026.5 -03485.6 -07.6278 26258.9
 11 09 2013  00 31  -21.0168 26026.3 -03485.5 -07.6277 26258.7
 11 09 2013  00 32  -21.0169 26026.0 -03485.3 -07.6274 26258.4
 11 09 2013  00 33  -21.0168 26025.9 -03485.2 -07.6273 26258.2
 11 09 2013  00 34  -21.0167 26025.8 -03485.2 -07.6272 26258.1
 11 09 2013  00 35  -21.0167 26025.8 -03485.2 -07.6272 26258.1
 11 09 2013  00 36  -21.0166 26025.7 -03485.2 -07.6272 26258.0
 11 09 2013  00 37  -21.0166 26025.7 -03485.2 -07.6273 26258.0
 11 09 2013  00 38  -21.0165 26025.6 -03485.1 -07.6272 26257.9
 11 09 2013  00 39  -21.0165 26025.5 -03485.1 -07.6272 26257.8
 11 09 2013  00 40  -21.0167 26025.3 -03485.0 -07.6270 26257.6
 11 09 2013  00 41  -21.0167 26025.2 -03485.0 -07.6270 26257.5
 11 09 2013  00 42  -21.0167 26025.2 -03485.0 -07.6271 26257.5
 11 09 2013  00 43  -21.0168 26025.2 -03485.1 -07.6271 26257.5
 11 09 2013  00 44  -21.0169 26025.2 -03485.1 -07.6272 26257.5
 11 09 2013  00 45  -21.0170 26025.0 -03485.0 -07.6271 26257.3
 11 09 2013  00 46  -21.0172 26024.8 -03484.9 -07.6269 26257.1
 11 09 2013  00 47  -21.0175 26024.5 -03484.8 -07.6267 26256.8
 11 09 2013  00 48  -21.0178 26024.2 -03484.6 -07.6265 26256.5
 11 09 2013  00 49  -21.0181 26024.1 -03484.6 -07.6265 26256.4
 11 09 2013  00 50  -21.0183 26024.1 -03484.6 -07.6265 26256.3
 11 09 2013  00 51  -21.0185 26024.1 -03484.6 -07.6265 26256.3
 11 09 2013  00 52  -21.0187 26024.0 -03484.6 -07.6265 26256.3
 11 09 2013  00 53  -21.0189 26024.1 -03484.6 -07.6265 26256.3
 11 09 2013  00 54  -21.0190 26024.1 -03484.6 -07.6265 26256.4
 11 09 2013  00 55  -21.0190 26024.2 -03484.7 -07.6266 26256.4
 11 09 2013  00 56  -21.0189 26024.3 -03484.7 -07.6266 26256.6
 11 09 2013  00 57  -21.0188 26024.5 -03484.8 -07.6268 26256.8
 11 09 2013  00 58  -21.0187 26024.7 -03484.9 -07.6270 26257.0
 11 09 2013  00 59  -21.0187 26024.7 -03484.9 -07.6270 26257.0
 11 09 2013  01 00  -21.0186 26024.8 -03484.9 -07.6270 26257.1
 11 09 2013  01 01  -21.0186 26024.6 -03484.8 -07.6268 26256.9
 11 09 2013  01 02  -21.0185 26024.5 -03484.7 -07.6266 26256.8
 11 09 2013  01 03  -21.0182 26024.4 -03484.6 -07.6265 26256.7
 11 09 2013  01 04  -21.0179 26024.3 -03484.6 -07.6264 26256.6
 11 09 2013  01 05  -21.0175 26024.3 -03484.5 -07.6263 26256.5
 11 09 2013  01 06  -21.0171 26024.2 -03484.5 -07.6262 26256.4
 11 09 2013  01 07  -21.0170 26024.1 -03484.5 -07.6262 26256.3
 11 09 2013  01 08  -21.0169 26024.1 -03484.5 -07.6263 26256.4
 11 09 2013  01 09  -21.0168 26024.1 -03484.5 -07.6263 26256.4
 11 09 2013  01 10  -21.0167 26024.1 -03484.5 -07.6263 26256.3
 11 09 2013  01 11  -21.0167 26024.1 -03484.6 -07.6264 26256.3
 11 09 2013  01 12  -21.0166 26024.0 -03484.5 -07.6263 26256.3
 11 09 2013  01 13  -21.0165 26024.0 -03484.6 -07.6264 26256.3
 11 09 2013  01 14  -21.0163 26024.1 -03484.6 -07.6264 26256.3
 11 09 2013  01 15  -21.0160 26024.2 -03484.7 -07.6266 26256.5
 11 09 2013  01 16  -21.0158 26024.4 -03484.7 -07.6267 26256.6
 11 09 2013  01 17  -21.0154 26024.5 -03484.8 -07.6268 26256.8
 11 09 2013  01 18  -21.0150 26024.7 -03484.9 -07.6269 26257.0
 11 09 2013  01 19  -21.0146 26025.0 -03485.0 -07.6271 26257.3
 11 09 2013  01 20  -21.0142 26025.4 -03485.2 -07.6274 26257.7
 11 09 2013  01 21  -21.0139 26025.4 -03485.2 -07.6275 26257.8
 11 09 2013  01 22  -21.0138 26025.5 -03485.2 -07.6273 26257.8
 11 09 2013  01 23  -21.0136 26025.7 -03485.3 -07.6276 26258.0
 11 09 2013  01 24  -21.0134 26025.7 -03485.3 -07.6276 26258.0
 11 09 2013  01 25  -21.0132 26025.6 -03485.2 -07.6274 26257.9
 11 09 2013  01 26  -21.0130 26025.6 -03485.2 -07.6273 26257.9
 11 09 2013  01 27  -21.0125 26025.7 -03485.2 -07.6273 26258.0
 11 09 2013  01 28  -21.0121 26026.1 -03485.4 -07.6275 26258.4
 11 09 2013  01 29  -21.0119 26026.0 -03485.4 -07.6275 26258.4
 11 09 2013  01 30  -21.0118 26026.1 -03485.4 -07.6276 26258.4
 11 09 2013  01 31  -21.0117 26026.0 -03485.4 -07.6276 26258.3
 11 09 2013  01 32  -21.0118 26025.8 -03485.2 -07.6273 26258.1
 11 09 2013  01 33  -21.0118 26025.6 -03485.2 -07.6272 26257.9
 11 09 2013  01 34  -21.0120 26025.3 -03485.0 -07.6269 26257.6
 11 09 2013  01 35  -21.0118 26025.4 -03485.0 -07.6269 26257.7
 11 09 2013  01 36  -21.0115 26025.7 -03485.1 -07.6271 26258.0
 11 09 2013  01 37  -21.0118 26024.8 -03484.7 -07.6265 26257.0
 11 09 2013  01 38  -21.0112 26025.2 -03484.8 -07.6265 26257.4
 11 09 2013  01 39  -21.0111 26025.0 -03484.8 -07.6267 26257.3
 11 09 2013  01 40  -21.0111 26024.6 -03484.6 -07.6264 26256.8
 11 09 2013  01 41  -21.0113 26024.8 -03484.8 -07.6266 26257.1
 11 09 2013  01 42  -21.0110 26025.4 -03485.1 -07.6271 26257.7
 11 09 2013  01 43  -21.0112 26025.3 -03485.2 -07.6274 26257.6
 11 09 2013  01 44  -21.0112 26025.6 -03485.3 -07.6276 26258.0
 11 09 2013  01 45  -21.0114 26025.9 -03485.6 -07.6280 26258.3
 11 09 2013  01 46  -21.0114 26026.3 -03485.7 -07.6283 26258.7
 11 09 2013  01 47  -21.0112 26026.8 -03486.0 -07.6287 26259.2
 11 09 2013  01 48  -21.0113 26026.7 -03486.0 -07.6287 26259.1
 11 09 2013  01 49  -21.0112 26027.3 -03486.2 -07.6291 26259.7
 11 09 2013  01 50  -21.0110 26027.7 -03486.5 -07.6295 26260.2
 11 09 2013  01 51  -21.0109 26028.1 -03486.6 -07.6297 26260.6
 11 09 2013  01 52  -21.0110 26028.4 -03486.8 -07.6300 26261.0
 11 09 2013  01 53  -21.0110 26028.6 -03486.8 -07.6300 26261.1
 11 09 2013  01 54  -21.0109 26029.0 -03487.0 -07.6301 26261.5
 11 09 2013  01 55  -21.0108 26029.3 -03487.1 -07.6303 26261.9
 11 09 2013  01 56  -21.0108 26029.3 -03487.0 -07.6302 26261.8
 11 09 2013  01 57  -21.0110 26029.4 -03487.0 -07.6301 26261.9
 11 09 2013  01 58  -21.0112 26029.5 -03487.0 -07.6301 26262.1
 11 09 2013  01 59  -21.0114 26029.5 -03486.9 -07.6299 26262.1
 11 09 2013  02 00  -21.0116 26029.5 -03486.8 -07.6298 26262.0
 11 09 2013  02 01  -21.0116 26029.6 -03486.8 -07.6295 26262.0
 11 09 2013  02 02  -21.0118 26029.4 -03486.7 -07.6294 26261.9
 11 09 2013  02 03  -21.0118 26029.4 -03486.5 -07.6291 26261.8
 11 09 2013  02 04  -21.0118 26029.4 -03486.5 -07.6290 26261.8
 11 09 2013  02 05  -21.0119 26029.2 -03486.3 -07.6288 26261.6
 11 09 2013  02 06  -21.0120 26029.2 -03486.3 -07.6287 26261.6
 11 09 2013  02 07  -21.0123 26029.2 -03486.3 -07.6286 26261.7
 11 09 2013  02 08  -21.0125 26029.1 -03486.2 -07.6284 26261.5
 11 09 2013  02 09  -21.0125 26029.2 -03486.1 -07.6283 26261.6
 11 09 2013  02 10  -21.0124 26029.1 -03486.1 -07.6283 26261.6
 11 09 2013  02 11  -21.0124 26028.9 -03485.9 -07.6279 26261.3
 11 09 2013  02 12  -21.0125 26028.9 -03485.9 -07.6278 26261.3
 11 09 2013  02 13  -21.0126 26028.9 -03485.9 -07.6278 26261.3
 11 09 2013  02 14  -21.0129 26028.7 -03485.7 -07.6276 26261.1
 11 09 2013  02 15  -21.0132 26028.7 -03485.7 -07.6275 26261.0
 11 09 2013  02 16  -21.0132 26028.7 -03485.7 -07.6275 26261.1
 11 09 2013  02 17  -21.0132 26028.7 -03485.6 -07.6273 26261.0
 11 09 2013  02 18  -21.0131 26028.6 -03485.5 -07.6271 26260.9
 11 09 2013  02 19  -21.0133 26028.5 -03485.5 -07.6271 26260.9
 11 09 2013  02 20  -21.0134 26028.8 -03485.6 -07.6272 26261.1
 11 09 2013  02 21  -21.0135 26028.6 -03485.5 -07.6270 26260.9
 11 09 2013  02 22  -21.0136 26028.4 -03485.3 -07.6268 26260.7
 11 09 2013  02 23  -21.0134 26028.5 -03485.3 -07.6267 26260.8
 11 09 2013  02 24  -21.0132 26028.9 -03485.5 -07.6270 26261.3
 11 09 2013  02 25  -21.0133 26029.1 -03485.6 -07.6271 26261.4
 11 09 2013  02 26  -21.0132 26029.5 -03485.8 -07.6274 26261.9
 11 09 2013  02 27  -21.0132 26029.9 -03485.9 -07.6277 26262.3
 11 09 2013  02 28  -21.0131 26030.0 -03485.9 -07.6276 26262.3
 11 09 2013  02 29  -21.0129 26030.3 -03486.0 -07.6276 26262.6
 11 09 2013  02 30  -21.0127 26030.5 -03486.0 -07.6277 26262.9
 11 09 2013  02 31  -21.0124 26030.6 -03486.0 -07.6277 26263.0
 11 09 2013  02 32  -21.0120 26030.6 -03486.0 -07.6275 26263.0
 11 09 2013  02 33  -21.0116 26030.6 -03485.9 -07.6275 26263.0
 11 09 2013  02 34  -21.0112 26030.7 -03485.9 -07.6273 26263.0
 11 09 2013  02 35  -21.0109 26030.6 -03485.8 -07.6272 26262.9
 11 09 2013  02 36  -21.0107 26030.4 -03485.7 -07.6271 26262.8
 11 09 2013  02 37  -21.0105 26030.3 -03485.6 -07.6269 26262.6
 11 09 2013  02 38  -21.0104 26030.2 -03485.6 -07.6268 26262.5
 11 09 2013  02 39  -21.0104 26030.1 -03485.6 -07.6268 26262.5
 11 09 2013  02 40  -21.0106 26030.0 -03485.5 -07.6267 26262.4
 11 09 2013  02 41  -21.0108 26030.0 -03485.5 -07.6267 26262.3
 11 09 2013  02 42  -21.0110 26029.8 -03485.5 -07.6267 26262.1
 11 09 2013  02 43  -21.0108 26029.5 -03485.3 -07.6264 26261.8
 11 09 2013  02 44  -21.0108 26029.4 -03485.3 -07.6264 26261.7
 11 09 2013  02 45  -21.0109 26029.4 -03485.3 -07.6264 26261.7
 11 09 2013  02 46  -21.0111 26029.4 -03485.3 -07.6265 26261.7
 11 09 2013  02 47  -21.0111 26029.3 -03485.4 -07.6266 26261.6
 11 09 2013  02 48  -21.0111 26029.5 -03485.5 -07.6268 26261.8
 11 09 2013  02 49  -21.0111 26029.8 -03485.7 -07.6273 26262.2
 11 09 2013  02 50  -21.0112 26030.1 -03485.9 -07.6275 26262.4
 11 09 2013  02 51  -21.0113 26030.3 -03486.1 -07.6279 26262.7
 11 09 2013  02 52  -21.0114 26030.4 -03486.2 -07.6281 26262.8
 11 09 2013  02 53  -21.0114 26030.3 -03486.1 -07.6280 26262.7
 11 09 2013  02 54  -21.0114 26030.1 -03486.1 -07.6279 26262.5
 11 09 2013  02 55  -21.0114 26030.0 -03486.0 -07.6278 26262.4
 11 09 2013  02 56  -21.0115 26029.7 -03485.9 -07.6276 26262.1
 11 09 2013  02 57  -21.0117 26029.5 -03485.8 -07.6275 26261.9
 11 09 2013  02 58  -21.0117 26029.4 -03485.8 -07.6274 26261.7
 11 09 2013  02 59  -21.0119 26029.3 -03485.8 -07.6275 26261.7
 11 09 2013  03 00  -21.0119 26029.3 -03485.8 -07.6276 26261.7
 11 09 2013  03 01  -21.0119 26029.5 -03485.9 -07.6278 26261.9
 11 09 2013  03 02  -21.0119 26029.7 -03486.1 -07.6281 26262.1
 11 09 2013  03 03  -21.0118 26030.0 -03486.3 -07.6284 26262.4
 11 09 2013  03 04  -21.0119 26030.4 -03486.5 -07.6287 26262.8
 11 09 2013  03 05  -21.0119 26030.8 -03486.7 -07.6291 26263.3
 11 09 2013  03 06  -21.0119 26031.1 -03486.9 -07.6294 26263.6
 11 09 2013  03 07  -21.0118 26031.2 -03487.0 -07.6296 26263.7
 11 09 2013  03 08  -21.0117 26031.2 -03487.0 -07.6296 26263.7
 11 09 2013  03 09  -21.0117 26031.2 -03486.9 -07.6295 26263.7
 11 09 2013  03 10  -21.0117 26031.0 -03486.9 -07.6294 26263.5
 11 09 2013  03 11  -21.0117 26030.8 -03486.8 -07.6292 26263.3
 11 09 2013  03 12  -21.0119 26030.6 -03486.7 -07.6290 26263.0
 11 09 2013  03 13  -21.0120 26030.4 -03486.5 -07.6288 26262.8
 11 09 2013  03 14  -21.0120 26030.3 -03486.5 -07.6287 26262.7
 11 09 2013  03 15  -21.0119 26030.2 -03486.4 -07.6287 26262.7
 11 09 2013  03 16  -21.0118 26030.4 -03486.5 -07.6287 26262.8
 11 09 2013  03 17  -21.0117 26030.7 -03486.6 -07.6289 26263.1
 11 09 2013  03 18  -21.0117 26031.0 -03486.8 -07.6292 26263.5
 11 09 2013  03 19  -21.0118 26031.4 -03487.0 -07.6296 26263.9
 11 09 2013  03 20  -21.0119 26031.6 -03487.2 -07.6299 26264.1
 11 09 2013  03 21  -21.0119 26031.7 -03487.2 -07.6300 26264.3
 11 09 2013  03 22  -21.0119 26031.8 -03487.3 -07.6300 26264.4
 11 09 2013  03 23  -21.0119 26031.9 -03487.3 -07.6300 26264.4
 11 09 2013  03 24  -21.0120 26031.8 -03487.3 -07.6300 26264.4
 11 09 2013  03 25  -21.0122 26031.7 -03487.2 -07.6298 26264.2
 11 09 2013  03 26  -21.0120 26031.6 -03487.1 -07.6297 26264.1
 11 09 2013  03 27  -21.0119 26031.4 -03487.0 -07.6295 26263.9
 11 09 2013  03 28  -21.0120 26031.4 -03486.9 -07.6294 26263.9
 11 09 2013  03 29  -21.0121 26031.4 -03486.9 -07.6293 26263.9
 11 09 2013  03 30  -21.0122 26031.4 -03486.9 -07.6293 26263.9
 11 09 2013  03 31  -21.0121 26031.5 -03486.9 -07.6293 26264.0
 11 09 2013  03 32  -21.0120 26031.5 -03487.0 -07.6294 26264.1
 11 09 2013  03 33  -21.0119 26031.7 -03487.0 -07.6295 26264.2
 11 09 2013  03 34  -21.0119 26031.7 -03487.0 -07.6295 26264.2
 11 09 2013  03 35  -21.0119 26031.8 -03487.1 -07.6295 26264.3
 11 09 2013  03 36  -21.0120 26031.9 -03487.1 -07.6296 26264.4
 11 09 2013  03 37  -21.0121 26031.9 -03487.1 -07.6296 26264.4
 11 09 2013  03 38  -21.0122 26031.9 -03487.1 -07.6295 26264.4
 11 09 2013  03 39  -21.0122 26031.8 -03487.0 -07.6294 26264.3
 11 09 2013  03 40  -21.0124 26031.7 -03486.9 -07.6293 26264.2
 11 09 2013  03 41  -21.0125 26031.5 -03486.8 -07.6291 26264.0
 11 09 2013  03 42  -21.0126 26031.5 -03486.8 -07.6290 26264.0
 11 09 2013  03 43  -21.0126 26031.4 -03486.7 -07.6288 26263.8
 11 09 2013  03 44  -21.0128 26031.3 -03486.6 -07.6288 26263.8
 11 09 2013  03 45  -21.0129 26031.4 -03486.6 -07.6288 26263.8
 11 09 2013  03 46  -21.0132 26031.4 -03486.7 -07.6288 26263.9
 11 09 2013  03 47  -21.0135 26031.5 -03486.7 -07.6288 26263.9
 11 09 2013  03 48  -21.0138 26031.5 -03486.7 -07.6289 26264.0
 11 09 2013  03 49  -21.0139 26031.6 -03486.7 -07.6288 26264.1
 11 09 2013  03 50  -21.0139 26031.7 -03486.7 -07.6289 26264.2
 11 09 2013  03 51  -21.0141 26031.8 -03486.7 -07.6289 26264.2
 11 09 2013  03 52  -21.0140 26031.8 -03486.7 -07.6289 26264.3
 11 09 2013  03 53  -21.0140 26031.7 -03486.7 -07.6287 26264.2
 11 09 2013  03 54  -21.0139 26031.7 -03486.6 -07.6286 26264.1
 11 09 2013  03 55  -21.0140 26031.7 -03486.6 -07.6286 26264.2
 11 09 2013  03 56  -21.0140 26031.6 -03486.6 -07.6285 26264.0
 11 09 2013  03 57  -21.0139 26031.5 -03486.5 -07.6285 26264.0
 11 09 2013  03 58  -21.0139 26031.4 -03486.5 -07.6284 26263.8
 11 09 2013  03 59  -21.0140 26031.2 -03486.3 -07.6281 26263.6
 11 09 2013  04 00  -21.0142 26030.9 -03486.2 -07.6279 26263.3
 11 09 2013  04 01  -21.0145 26030.8 -03486.1 -07.6278 26263.2
 11 09 2013  04 02  -21.0146 26030.7 -03486.1 -07.6278 26263.1
 11 09 2013  04 03  -21.0147 26030.8 -03486.1 -07.6278 26263.2
 11 09 2013  04 04  -21.0146 26030.9 -03486.2 -07.6279 26263.3
 11 09 2013  04 05  -21.0147 26030.9 -03486.1 -07.6278 26263.3
 11 09 2013  04 06  -21.0148 26030.8 -03486.1 -07.6277 26263.2
 11 09 2013  04 07  -21.0147 26030.9 -03486.2 -07.6279 26263.3
 11 09 2013  04 08  -21.0147 26030.9 -03486.2 -07.6279 26263.3
 11 09 2013  04 09  -21.0146 26031.1 -03486.2 -07.6279 26263.5
 11 09 2013  04 10  -21.0146 26031.2 -03486.3 -07.6280 26263.6
 11 09 2013  04 11  -21.0146 26031.3 -03486.3 -07.6281 26263.7
 11 09 2013  04 12  -21.0145 26031.6 -03486.4 -07.6283 26264.1
 11 09 2013  04 13  -21.0146 26031.9 -03486.6 -07.6285 26264.4
 11 09 2013  04 14  -21.0148 26032.2 -03486.7 -07.6287 26264.7
 11 09 2013  04 15  -21.0151 26032.5 -03486.8 -07.6289 26264.9
 11 09 2013  04 16  -21.0154 26032.6 -03486.9 -07.6289 26265.1
 11 09 2013  04 17  -21.0152 26032.7 -03486.9 -07.6289 26265.1
 11 09 2013  04 18  -21.0148 26032.6 -03486.8 -07.6287 26265.1
 11 09 2013  04 19  -21.0144 26032.5 -03486.7 -07.6285 26265.0
 11 09 2013  04 20  -21.0141 26032.5 -03486.6 -07.6284 26264.9
 11 09 2013  04 21  -21.0140 26032.5 -03486.6 -07.6283 26265.0
 11 09 2013  04 22  -21.0141 26032.6 -03486.6 -07.6283 26265.0
 11 09 2013  04 23  -21.0142 26032.6 -03486.6 -07.6283 26265.1
 11 09 2013  04 24  -21.0143 26032.6 -03486.6 -07.6283 26265.0
 11 09 2013  04 25  -21.0142 26032.5 -03486.5 -07.6282 26264.9
 11 09 2013  04 26  -21.0143 26032.3 -03486.4 -07.6280 26264.7
 11 09 2013  04 27  -21.0144 26032.1 -03486.3 -07.6278 26264.5
 11 09 2013  04 28  -21.0145 26031.8 -03486.1 -07.6276 26264.2
 11 09 2013  04 29  -21.0147 26031.7 -03486.1 -07.6274 26264.1
 11 09 2013  04 30  -21.0148 26031.6 -03486.0 -07.6274 26264.0
 11 09 2013  04 31  -21.0148 26031.4 -03485.9 -07.6271 26263.7
 11 09 2013  04 32  -21.0149 26031.3 -03485.8 -07.6271 26263.6
 11 09 2013  04 33  -21.0149 26031.3 -03485.8 -07.6270 26263.7
 11 09 2013  04 34  -21.0148 26031.4 -03485.9 -07.6271 26263.7
 11 09 2013  04 35  -21.0148 26031.6 -03485.9 -07.6272 26264.0
 11 09 2013  04 36  -21.0148 26031.9 -03486.1 -07.6275 26264.3
 11 09 2013  04 37  -21.0148 26032.5 -03486.4 -07.6279 26264.9
 11 09 2013  04 38  -21.0147 26032.8 -03486.6 -07.6282 26265.3
 11 09 2013  04 39  -21.0146 26033.2 -03486.7 -07.6285 26265.7
 11 09 2013  04 40  -21.0143 26033.3 -03486.8 -07.6285 26265.8
 11 09 2013  04 41  -21.0140 26033.4 -03486.8 -07.6285 26265.8
 11 09 2013  04 42  -21.0137 26033.3 -03486.7 -07.6283 26265.7
 11 09 2013  04 43  -21.0135 26033.1 -03486.6 -07.6281 26265.6
 11 09 2013  04 44  -21.0132 26033.0 -03486.5 -07.6279 26265.4
 11 09 2013  04 45  -21.0130 26032.8 -03486.4 -07.6278 26265.3
 11 09 2013  04 46  -21.0130 26032.6 -03486.2 -07.6276 26265.0
 11 09 2013  04 47  -21.0129 26032.4 -03486.1 -07.6274 26264.8
 11 09 2013  04 48  -21.0129 26032.3 -03486.1 -07.6273 26264.6
 11 09 2013  04 49  -21.0129 26032.2 -03486.1 -07.6274 26264.6
 11 09 2013  04 50  -21.0129 26032.4 -03486.2 -07.6275 26264.8
 11 09 2013  04 51  -21.0130 26032.5 -03486.2 -07.6276 26264.9
 11 09 2013  04 52  -21.0131 26032.6 -03486.3 -07.6277 26265.0
 11 09 2013  04 53  -21.0131 26032.7 -03486.4 -07.6279 26265.2
 11 09 2013  04 54  -21.0131 26032.8 -03486.4 -07.6279 26265.3
 11 09 2013  04 55  -21.0132 26032.8 -03486.4 -07.6279 26265.3
 11 09 2013  04 56  -21.0132 26032.8 -03486.4 -07.6279 26265.2
 11 09 2013  04 57  -21.0132 26032.7 -03486.4 -07.6278 26265.1
 11 09 2013  04 58  -21.0133 26032.6 -03486.3 -07.6276 26265.0
 11 09 2013  04 59  -21.0135 26032.5 -03486.2 -07.6276 26264.9
 11 09 2013  05 00  -21.0135 26032.5 -03486.2 -07.6276 26264.9
 11 09 2013  05 01  -21.0134 26032.7 -03486.3 -07.6276 26265.1
 11 09 2013  05 02  -21.0133 26032.8 -03486.3 -07.6277 26265.2
 11 09 2013  05 03  -21.0132 26033.0 -03486.4 -07.6278 26265.4
 11 09 2013  05 04  -21.0132 26033.0 -03486.5 -07.6279 26265.4
 11 09 2013  05 05  -21.0131 26033.0 -03486.5 -07.6279 26265.5
 11 09 2013  05 06  -21.0129 26033.2 -03486.5 -07.6280 26265.6
 11 09 2013  05 07  -21.0129 26033.3 -03486.6 -07.6282 26265.8
 11 09 2013  05 08  -21.0128 26033.5 -03486.7 -07.6282 26265.9
 11 09 2013  05 09  -21.0128 26033.6 -03486.7 -07.6283 26266.1
 11 09 2013  05 10  -21.0127 26033.6 -03486.7 -07.6283 26266.1
 11 09 2013  05 11  -21.0127 26033.6 -03486.7 -07.6283 26266.0
 11 09 2013  05 12  -21.0125 26033.4 -03486.6 -07.6281 26265.9
 11 09 2013  05 13  -21.0125 26033.3 -03486.5 -07.6280 26265.7
 11 09 2013  05 14  -21.0125 26033.2 -03486.5 -07.6279 26265.6
 11 09 2013  05 15  -21.0124 26033.1 -03486.4 -07.6278 26265.5
 11 09 2013  05 16  -21.0124 26033.1 -03486.4 -07.6278 26265.5
 11 09 2013  05 17  -21.0123 26033.1 -03486.5 -07.6279 26265.6
 11 09 2013  05 18  -21.0123 26033.3 -03486.5 -07.6280 26265.7
 11 09 2013  05 19  -21.0121 26033.5 -03486.7 -07.6282 26266.0
 11 09 2013  05 20  -21.0119 26033.4 -03486.6 -07.6282 26265.9
 11 09 2013  05 21  -21.0120 26033.2 -03486.5 -07.6280 26265.6
 11 09 2013  05 22  -21.0119 26032.8 -03486.3 -07.6276 26265.2
 11 09 2013  05 23  -21.0120 26032.3 -03486.1 -07.6273 26264.7
 11 09 2013  05 24  -21.0124 26032.2 -03486.0 -07.6271 26264.5
 11 09 2013  05 25  -21.0126 26032.2 -03486.0 -07.6272 26264.6
 11 09 2013  05 26  -21.0127 26032.4 -03486.2 -07.6275 26264.8
 11 09 2013  05 27  -21.0127 26032.5 -03486.3 -07.6276 26265.0
 11 09 2013  05 28  -21.0126 26032.5 -03486.3 -07.6276 26264.9
 11 09 2013  05 29  -21.0125 26032.3 -03486.2 -07.6275 26264.7
 11 09 2013  05 30  -21.0124 26032.2 -03486.1 -07.6274 26264.6
 11 09 2013  05 31  -21.0122 26032.2 -03486.1 -07.6274 26264.6
 11 09 2013  05 32  -21.0121 26032.3 -03486.2 -07.6276 26264.7
 11 09 2013  05 33  -21.0118 26032.6 -03486.3 -07.6278 26265.0
 11 09 2013  05 34  -21.0119 26032.8 -03486.5 -07.6281 26265.2
 11 09 2013  05 35  -21.0120 26032.9 -03486.6 -07.6282 26265.4
 11 09 2013  05 36  -21.0121 26033.1 -03486.7 -07.6284 26265.6
 11 09 2013  05 37  -21.0121 26033.2 -03486.7 -07.6283 26265.6
 11 09 2013  05 38  -21.0124 26033.2 -03486.7 -07.6284 26265.7
 11 09 2013  05 39  -21.0126 26033.3 -03486.7 -07.6284 26265.8
 11 09 2013  05 40  -21.0127 26033.3 -03486.6 -07.6282 26265.8
 11 09 2013  05 41  -21.0128 26033.3 -03486.6 -07.6281 26265.8
 11 09 2013  05 42  -21.0129 26033.3 -03486.6 -07.6281 26265.7
 11 09 2013  05 43  -21.0130 26033.4 -03486.6 -07.6281 26265.8
 11 09 2013  05 44  -21.0131 26033.4 -03486.6 -07.6281 26265.8
 11 09 2013  05 45  -21.0133 26033.4 -03486.6 -07.6282 26265.8
 11 09 2013  05 46  -21.0133 26033.6 -03486.7 -07.6282 26266.0
 11 09 2013  05 47  -21.0134 26033.6 -03486.7 -07.6283 26266.1
 11 09 2013  05 48  -21.0135 26033.5 -03486.7 -07.6282 26266.0
 11 09 2013  05 49  -21.0135 26033.5 -03486.6 -07.6281 26265.9
 11 09 2013  05 50  -21.0135 26033.5 -03486.6 -07.6280 26265.9
 11 09 2013  05 51  -21.0134 26033.5 -03486.5 -07.6279 26265.9
 11 09 2013  05 52  -21.0134 26033.4 -03486.5 -07.6278 26265.9
 11 09 2013  05 53  -21.0134 26033.4 -03486.5 -07.6278 26265.8
 11 09 2013  05 54  -21.0134 26033.5 -03486.5 -07.6278 26265.9
 11 09 2013  05 55  -21.0132 26033.6 -03486.5 -07.6278 26266.0
 11 09 2013  05 56  -21.0131 26033.6 -03486.5 -07.6278 26266.0
 11 09 2013  05 57  -21.0129 26033.5 -03486.4 -07.6277 26265.9
 11 09 2013  05 58  -21.0129 26033.5 -03486.4 -07.6277 26265.9
 11 09 2013  05 59  -21.0129 26033.4 -03486.4 -07.6276 26265.8
 11 09 2013  06 00  -21.0129 26033.3 -03486.4 -07.6276 26265.7
 11 09 2013  06 01  -21.0128 26033.3 -03486.4 -07.6276 26265.7
 11 09 2013  06 02  -21.0127 26033.1 -03486.3 -07.6276 26265.5
 11 09 2013  06 03  -21.0126 26033.1 -03486.3 -07.6275 26265.5
 11 09 2013  06 04  -21.0126 26033.0 -03486.3 -07.6276 26265.4
 11 09 2013  06 05  -21.0126 26033.1 -03486.3 -07.6276 26265.5
 11 09 2013  06 06  -21.0125 26033.1 -03486.4 -07.6277 26265.5
 11 09 2013  06 07  -21.0124 26033.2 -03486.4 -07.6278 26265.6
 11 09 2013  06 08  -21.0123 26033.3 -03486.5 -07.6279 26265.7
 11 09 2013  06 09  -21.0123 26033.4 -03486.5 -07.6279 26265.9
 11 09 2013  06 10  -21.0122 26033.5 -03486.6 -07.6280 26265.9
 11 09 2013  06 11  -21.0121 26033.5 -03486.6 -07.6281 26266.0
 11 09 2013  06 12  -21.0121 26033.5 -03486.6 -07.6282 26266.0
 11 09 2013  06 13  -21.0120 26033.6 -03486.6 -07.6282 26266.0
 11 09 2013  06 14  -21.0118 26033.5 -03486.6 -07.6281 26266.0
 11 09 2013  06 15  -21.0118 26033.5 -03486.6 -07.6281 26266.0
 11 09 2013  06 16  -21.0117 26033.7 -03486.7 -07.6283 26266.2
 11 09 2013  06 17  -21.0117 26033.7 -03486.7 -07.6283 26266.2
 11 09 2013  06 18  -21.0115 26033.8 -03486.8 -07.6284 26266.3
 11 09 2013  06 19  -21.0113 26033.9 -03486.8 -07.6283 26266.3
 11 09 2013  06 20  -21.0109 26033.9 -03486.8 -07.6284 26266.4
 11 09 2013  06 21  -21.0106 26033.9 -03486.8 -07.6284 26266.3
 11 09 2013  06 22  -21.0103 26033.8 -03486.8 -07.6284 26266.3
 11 09 2013  06 23  -21.0100 26033.8 -03486.8 -07.6285 26266.3
 11 09 2013  06 24  -21.0099 26033.8 -03486.8 -07.6285 26266.3
 11 09 2013  06 25  -21.0097 26033.8 -03486.9 -07.6286 26266.2
 11 09 2013  06 26  -21.0096 26033.7 -03486.9 -07.6286 26266.2
 11 09 2013  06 27  -21.0096 26033.8 -03486.9 -07.6287 26266.2
 11 09 2013  06 28  -21.0097 26033.8 -03486.9 -07.6287 26266.3
 11 09 2013  06 29  -21.0098 26033.8 -03486.9 -07.6287 26266.2
 11 09 2013  06 30  -21.0099 26033.8 -03487.0 -07.6288 26266.3
 11 09 2013  06 31  -21.0100 26033.8 -03487.0 -07.6288 26266.3
 11 09 2013  06 32  -21.0101 26033.7 -03487.0 -07.6288 26266.2
 11 09 2013  06 33  -21.0102 26033.7 -03487.0 -07.6288 26266.2
 11 09 2013  06 34  -21.0103 26033.7 -03487.0 -07.6288 26266.1
 11 09 2013  06 35  -21.0102 26033.6 -03487.0 -07.6288 26266.1
 11 09 2013  06 36  -21.0102 26033.6 -03487.0 -07.6289 26266.1
 11 09 2013  06 37  -21.0104 26033.6 -03487.0 -07.6289 26266.1
 11 09 2013  06 38  -21.0105 26033.6 -03487.0 -07.6289 26266.1
 11 09 2013  06 39  -21.0104 26033.6 -03487.0 -07.6289 26266.1
 11 09 2013  06 40  -21.0104 26033.5 -03486.9 -07.6288 26266.0
 11 09 2013  06 41  -21.0102 26033.4 -03486.9 -07.6287 26265.9
 11 09 2013  06 42  -21.0101 26033.4 -03486.9 -07.6287 26265.8
 11 09 2013  06 43  -21.0100 26033.4 -03486.9 -07.6287 26265.8
 11 09 2013  06 44  -21.0100 26033.3 -03486.9 -07.6288 26265.8
 11 09 2013  06 45  -21.0101 26033.4 -03486.9 -07.6288 26265.8
 11 09 2013  06 46  -21.0103 26033.4 -03487.0 -07.6289 26265.9
 11 09 2013  06 47  -21.0104 26033.4 -03486.9 -07.6288 26265.9
 11 09 2013  06 48  -21.0106 26033.5 -03487.0 -07.6289 26265.9
 11 09 2013  06 49  -21.0107 26033.4 -03486.9 -07.6288 26265.9
 11 09 2013  06 50  -21.0107 26033.3 -03486.9 -07.6287 26265.8
 11 09 2013  06 51  -21.0107 26033.3 -03486.8 -07.6286 26265.7
 11 09 2013  06 52  -21.0108 26033.3 -03486.8 -07.6286 26265.8
 11 09 2013  06 53  -21.0108 26033.3 -03486.8 -07.6285 26265.8
 11 09 2013  06 54  -21.0108 26033.4 -03486.8 -07.6285 26265.8
 11 09 2013  06 55  -21.0108 26033.4 -03486.8 -07.6285 26265.9
 11 09 2013  06 56  -21.0107 26033.4 -03486.8 -07.6285 26265.8
 11 09 2013  06 57  -21.0106 26033.3 -03486.7 -07.6284 26265.8
 11 09 2013  06 58  -21.0107 26033.3 -03486.7 -07.6284 26265.8
 11 09 2013  06 59  -21.0107 26033.3 -03486.7 -07.6283 26265.7
 11 09 2013  07 00  -21.0105 26033.3 -03486.7 -07.6283 26265.8
 11 09 2013  07 01  -21.0104 26033.4 -03486.7 -07.6283 26265.9
 11 09 2013  07 02  -21.0103 26033.5 -03486.8 -07.6284 26266.0
 11 09 2013  07 03  -21.0102 26033.5 -03486.7 -07.6284 26266.0
 11 09 2013  07 04  -21.0102 26033.3 -03486.7 -07.6283 26265.8
 11 09 2013  07 05  -21.0102 26033.1 -03486.6 -07.6281 26265.6
 11 09 2013  07 06  -21.0100 26033.0 -03486.5 -07.6280 26265.4
 11 09 2013  07 07  -21.0099 26032.9 -03486.4 -07.6279 26265.3
 11 09 2013  07 08  -21.0096 26032.8 -03486.4 -07.6279 26265.3
 11 09 2013  07 09  -21.0095 26032.9 -03486.5 -07.6280 26265.3
 11 09 2013  07 10  -21.0095 26032.9 -03486.5 -07.6281 26265.3
 11 09 2013  07 11  -21.0093 26032.9 -03486.6 -07.6282 26265.3
 11 09 2013  07 12  -21.0092 26032.9 -03486.6 -07.6283 26265.3
 11 09 2013  07 13  -21.0089 26032.8 -03486.6 -07.6283 26265.2
 11 09 2013  07 14  -21.0086 26032.7 -03486.6 -07.6283 26265.2
 11 09 2013  07 15  -21.0084 26032.7 -03486.6 -07.6283 26265.1
 11 09 2013  07 16  -21.0082 26032.7 -03486.7 -07.6284 26265.1
 11 09 2013  07 17  -21.0079 26032.7 -03486.7 -07.6285 26265.2
 11 09 2013  07 18  -21.0077 26032.7 -03486.7 -07.6285 26265.2
 11 09 2013  07 19  -21.0075 26032.7 -03486.7 -07.6286 26265.1
 11 09 2013  07 20  -21.0074 26032.6 -03486.7 -07.6286 26265.0
 11 09 2013  07 21  -21.0074 26032.5 -03486.7 -07.6287 26265.0
 11 09 2013  07 22  -21.0073 26032.5 -03486.8 -07.6287 26264.9
 11 09 2013  07 23  -21.0073 26032.5 -03486.8 -07.6288 26264.9
 11 09 2013  07 24  -21.0073 26032.4 -03486.8 -07.6288 26264.9
 11 09 2013  07 25  -21.0074 26032.4 -03486.8 -07.6288 26264.9
 11 09 2013  07 26  -21.0076 26032.3 -03486.8 -07.6288 26264.8
 11 09 2013  07 27  -21.0075 26032.3 -03486.8 -07.6288 26264.7
 11 09 2013  07 28  -21.0075 26032.2 -03486.7 -07.6287 26264.6
 11 09 2013  07 29  -21.0075 26032.2 -03486.8 -07.6288 26264.6
 11 09 2013  07 30  -21.0075 26032.1 -03486.8 -07.6288 26264.6
 11 09 2013  07 31  -21.0074 26032.2 -03486.8 -07.6289 26264.7
 11 09 2013  07 32  -21.0072 26032.3 -03486.9 -07.6290 26264.7
 11 09 2013  07 33  -21.0070 26032.3 -03486.9 -07.6291 26264.8
 11 09 2013  07 34  -21.0070 26032.5 -03487.0 -07.6293 26265.0
 11 09 2013  07 35  -21.0069 26032.5 -03487.1 -07.6294 26265.0
 11 09 2013  07 36  -21.0069 26032.5 -03487.1 -07.6294 26265.0
 11 09 2013  07 37  -21.0069 26032.6 -03487.1 -07.6295 26265.1
 11 09 2013  07 38  -21.0070 26032.5 -03487.1 -07.6295 26265.1
 11 09 2013  07 39  -21.0070 26032.4 -03487.0 -07.6293 26264.9
 11 09 2013  07 40  -21.0070 26032.1 -03486.9 -07.6291 26264.6
 11 09 2013  07 41  -21.0071 26032.0 -03486.9 -07.6290 26264.5
 11 09 2013  07 42  -21.0073 26031.9 -03486.8 -07.6290 26264.4
 11 09 2013  07 43  -21.0074 26032.0 -03486.9 -07.6291 26264.5
 11 09 2013  07 44  -21.0075 26032.1 -03487.0 -07.6293 26264.6
 11 09 2013  07 45  -21.0074 26032.3 -03487.0 -07.6293 26264.8
 11 09 2013  07 46  -21.0075 26032.4 -03487.1 -07.6294 26264.9
 11 09 2013  07 47  -21.0076 26032.4 -03487.0 -07.6293 26264.9
 11 09 2013  07 48  -21.0076 26032.5 -03487.0 -07.6292 26265.0
 11 09 2013  07 49  -21.0074 26032.2 -03486.9 -07.6290 26264.7
 11 09 2013  07 50  -21.0068 26032.0 -03486.7 -07.6288 26264.5
 11 09 2013  07 51  -21.0063 26031.8 -03486.6 -07.6286 26264.2
 11 09 2013  07 52  -21.0060 26031.4 -03486.5 -07.6284 26263.9
 11 09 2013  07 53  -21.0057 26031.4 -03486.5 -07.6285 26263.9
 11 09 2013  07 54  -21.0055 26031.3 -03486.5 -07.6285 26263.7
 11 09 2013  07 55  -21.0054 26031.0 -03486.5 -07.6285 26263.4
 11 09 2013  07 56  -21.0052 26031.1 -03486.6 -07.6287 26263.6
 11 09 2013  07 57  -21.0052 26031.0 -03486.6 -07.6288 26263.5
 11 09 2013  07 58  -21.0051 26031.0 -03486.7 -07.6289 26263.5
 11 09 2013  07 59  -21.0049 26030.9 -03486.6 -07.6288 26263.3
 11 09 2013  08 00  -21.0045 26030.9 -03486.7 -07.6289 26263.4
 11 09 2013  08 01  -21.0040 26030.9 -03486.7 -07.6290 26263.4
 11 09 2013  08 02  -21.0040 26030.4 -03486.6 -07.6289 26262.9
 11 09 2013  08 03  -21.0036 26030.5 -03486.7 -07.6291 26263.0
 11 09 2013  08 04  -21.0034 26030.6 -03486.8 -07.6293 26263.1
 11 09 2013  08 05  -21.0033 26030.5 -03486.8 -07.6295 26263.0
 11 09 2013  08 06  -21.0031 26030.7 -03487.0 -07.6297 26263.2
 11 09 2013  08 07  -21.0034 26030.6 -03487.0 -07.6298 26263.1
 11 09 2013  08 08  -21.0033 26031.0 -03487.2 -07.6302 26263.5
 11 09 2013  08 09  -21.0031 26031.1 -03487.3 -07.6303 26263.6
 11 09 2013  08 10  -21.0031 26031.0 -03487.3 -07.6303 26263.6
 11 09 2013  08 11  -21.0028 26031.2 -03487.4 -07.6304 26263.8
 11 09 2013  08 12  -21.0029 26031.4 -03487.5 -07.6306 26263.9
 11 09 2013  08 13  -21.0027 26031.5 -03487.5 -07.6306 26264.1
 11 09 2013  08 14  -21.0027 26031.2 -03487.3 -07.6303 26263.7
 11 09 2013  08 15  -21.0024 26031.3 -03487.4 -07.6304 26263.9
 11 09 2013  08 16  -21.0023 26031.4 -03487.4 -07.6304 26264.0
 11 09 2013  08 17  -21.0021 26031.5 -03487.4 -07.6304 26264.0
 11 09 2013  08 18  -21.0022 26031.4 -03487.4 -07.6305 26264.0
 11 09 2013  08 19  -21.0022 26031.3 -03487.4 -07.6304 26263.9
 11 09 2013  08 20  -21.0021 26031.6 -03487.5 -07.6306 26264.2
 11 09 2013  08 21  -21.0020 26031.5 -03487.5 -07.6305 26264.1
 11 09 2013  08 22  -21.0019 26031.5 -03487.4 -07.6305 26264.1
 11 09 2013  08 23  -21.0016 26031.5 -03487.4 -07.6304 26264.0
 11 09 2013  08 24  -21.0011 26031.5 -03487.4 -07.6304 26264.0
 11 09 2013  08 25  -21.0006 26031.6 -03487.4 -07.6304 26264.2
 11 09 2013  08 26  -21.0004 26031.6 -03487.4 -07.6304 26264.2
 11 09 2013  08 27  -21.0000 26031.7 -03487.5 -07.6304 26264.2
 11 09 2013  08 28  -20.9996 26031.6 -03487.3 -07.6302 26264.1
 11 09 2013  08 29  -20.9991 26031.6 -03487.3 -07.6302 26264.2
 11 09 2013  08 30  -20.9987 26031.7 -03487.4 -07.6302 26264.2
 11 09 2013  08 31  -20.9981 26031.6 -03487.3 -07.6302 26264.1
 11 09 2013  08 32  -20.9978 26031.3 -03487.2 -07.6300 26263.8
 11 09 2013  08 33  -20.9971 26031.4 -03487.2 -07.6301 26263.9
 11 09 2013  08 34  -20.9964 26031.4 -03487.3 -07.6301 26264.0
 11 09 2013  08 35  -20.9956 26031.5 -03487.2 -07.6300 26264.0
 11 09 2013  08 36  -20.9947 26031.4 -03487.2 -07.6300 26263.9
 11 09 2013  08 37  -20.9938 26031.4 -03487.2 -07.6300 26263.9
 11 09 2013  08 38  -20.9926 26031.3 -03487.0 -07.6297 26263.8
 11 09 2013  08 39  -20.9916 26031.2 -03487.1 -07.6297 26263.7
 11 09 2013  08 40  -20.9904 26031.3 -03487.2 -07.6300 26263.8
 11 09 2013  08 41  -20.9893 26031.2 -03487.2 -07.6300 26263.7
 11 09 2013  08 42  -20.9883 26030.9 -03487.1 -07.6300 26263.5
 11 09 2013  08 43  -20.9876 26030.8 -03487.2 -07.6302 26263.3
 11 09 2013  08 44  -20.9866 26030.9 -03487.4 -07.6304 26263.5
 11 09 2013  08 45  -20.9854 26030.9 -03487.5 -07.6307 26263.5
 11 09 2013  08 46  -20.9845 26030.9 -03487.6 -07.6310 26263.5
 11 09 2013  08 47  -20.9837 26030.8 -03487.7 -07.6312 26263.4
 11 09 2013  08 48  -20.9829 26030.8 -03487.8 -07.6315 26263.4
 11 09 2013  08 49  -20.9822 26030.6 -03488.0 -07.6319 26263.3
 11 09 2013  08 50  -20.9812 26030.2 -03488.0 -07.6320 26262.9
 11 09 2013  08 51  -20.9800 26029.8 -03487.9 -07.6319 26262.4
 11 09 2013  08 52  -20.9791 26029.5 -03487.9 -07.6321 26262.2
 11 09 2013  08 53  -20.9787 26029.4 -03488.1 -07.6326 26262.1
 11 09 2013  08 54  -20.9783 26029.3 -03488.3 -07.6330 26262.0
 11 09 2013  08 55  -20.9780 26029.1 -03488.4 -07.6333 26261.9
 11 09 2013  08 56  -20.9776 26029.5 -03488.9 -07.6343 26262.3
 11 09 2013  08 57  -20.9771 26029.2 -03489.0 -07.6345 26262.0
 11 09 2013  08 58  -20.9769 26029.1 -03489.1 -07.6348 26261.9
 11 09 2013  08 59  -20.9767 26029.3 -03489.5 -07.6356 26262.2
 11 09 2013  09 00  -20.9768 26028.9 -03489.6 -07.6359 26261.8
 11 09 2013  09 01  -20.9763 26029.0 -03489.8 -07.6363 26261.9
 11 09 2013  09 02  -20.9762 26028.7 -03489.9 -07.6367 26261.6
 11 09 2013  09 03  -20.9757 26029.0 -03490.3 -07.6373 26261.9
 11 09 2013  09 04  -20.9758 26028.6 -03490.4 -07.6377 26261.6
 11 09 2013  09 05  -20.9760 26028.6 -03490.7 -07.6383 26261.6
 11 09 2013  09 06  -20.9758 26028.7 -03490.9 -07.6389 26261.7
 11 09 2013  09 07  -20.9762 26028.7 -03491.2 -07.6394 26261.7
 11 09 2013  09 08  -20.9765 26028.2 -03491.3 -07.6397 26261.3
 11 09 2013  09 09  -20.9764 26027.8 -03491.3 -07.6399 26260.9
 11 09 2013  09 10  -20.9765 26027.9 -03491.6 -07.6404 26261.0
 11 09 2013  09 11  -20.9771 26028.1 -03491.9 -07.6411 26261.3
 11 09 2013  09 12  -20.9765 26028.4 -03492.1 -07.6416 26261.6
 11 09 2013  09 13  -20.9765 26028.4 -03492.4 -07.6420 26261.7
 11 09 2013  09 14  -20.9767 26028.4 -03492.5 -07.6424 26261.7
 11 09 2013  09 15  -20.9773 26028.1 -03492.6 -07.6425 26261.4
 11 09 2013  09 16  -20.9767 26028.2 -03492.7 -07.6429 26261.5
 11 09 2013  09 17  -20.9769 26027.8 -03492.8 -07.6431 26261.1
 11 09 2013  09 18  -20.9766 26027.7 -03493.0 -07.6435 26261.1
 11 09 2013  09 19  -20.9764 26027.7 -03493.1 -07.6439 26261.0
 11 09 2013  09 20  -20.9763 26027.7 -03493.3 -07.6443 26261.1
 11 09 2013  09 21  -20.9764 26027.5 -03493.5 -07.6448 26260.9
 11 09 2013  09 22  -20.9762 26027.2 -03493.7 -07.6452 26260.6
 11 09 2013  09 23  -20.9763 26026.9 -03493.8 -07.6455 26260.4
 11 09 2013  09 24  -20.9764 26027.1 -03494.0 -07.6458 26260.6
 11 09 2013  09 25  -20.9765 26027.0 -03494.3 -07.6466 26260.5
 11 09 2013  09 26  -20.9765 26026.9 -03494.5 -07.6470 26260.5
 11 09 2013  09 27  -20.9761 26026.7 -03494.6 -07.6474 26260.3
 11 09 2013  09 28  -20.9761 26026.5 -03494.8 -07.6478 26260.1
 11 09 2013  09 29  -20.9760 26026.5 -03495.0 -07.6483 26260.1
 11 09 2013  09 30  -20.9760 26026.5 -03495.3 -07.6489 26260.2
 11 09 2013  09 31  -20.9760 26026.4 -03495.5 -07.6493 26260.1
 11 09 2013  09 32  -20.9759 26026.5 -03495.7 -07.6498 26260.2
 11 09 2013  09 33  -20.9758 26026.4 -03496.0 -07.6503 26260.2
 11 09 2013  09 34  -20.9757 26026.4 -03496.2 -07.6509 26260.2
 11 09 2013  09 35  -20.9759 26026.4 -03496.4 -07.6513 26260.2
 11 09 2013  09 36  -20.9762 26026.5 -03496.7 -07.6519 26260.3
 11 09 2013  09 37  -20.9765 26026.4 -03496.9 -07.6524 26260.3
 11 09 2013  09 38  -20.9766 26026.4 -03497.1 -07.6528 26260.3
 11 09 2013  09 39  -20.9770 26026.3 -03497.2 -07.6531 26260.2
 11 09 2013  09 40  -20.9774 26026.2 -03497.4 -07.6535 26260.2
 11 09 2013  09 41  -20.9776 26025.9 -03497.5 -07.6539 26259.9
 11 09 2013  09 42  -20.9780 26025.8 -03497.7 -07.6543 26259.8
 11 09 2013  09 43  -20.9782 26025.3 -03497.8 -07.6547 26259.3
 11 09 2013  09 44  -20.9779 26025.1 -03498.0 -07.6552 26259.1
 11 09 2013  09 45  -20.9780 26024.6 -03498.1 -07.6556 26258.7
 11 09 2013  09 46  -20.9784 26024.6 -03498.4 -07.6563 26258.7
 11 09 2013  09 47  -20.9781 26024.4 -03498.6 -07.6567 26258.5
 11 09 2013  09 48  -20.9780 26024.3 -03498.8 -07.6571 26258.4
 11 09 2013  09 49  -20.9778 26024.2 -03499.0 -07.6575 26258.3
 11 09 2013  09 50  -20.9779 26024.1 -03499.2 -07.6580 26258.3
 11 09 2013  09 51  -20.9777 26024.0 -03499.4 -07.6585 26258.2
 11 09 2013  09 52  -20.9773 26023.9 -03499.6 -07.6589 26258.2
 11 09 2013  09 53  -20.9777 26024.0 -03499.8 -07.6595 26258.3
 11 09 2013  09 54  -20.9780 26024.1 -03500.1 -07.6600 26258.4
 11 09 2013  09 55  -20.9777 26024.2 -03500.3 -07.6605 26258.5
 11 09 2013  09 56  -20.9775 26023.9 -03500.4 -07.6607 26258.3
 11 09 2013  09 57  -20.9774 26024.1 -03500.6 -07.6611 26258.5
 11 09 2013  09 58  -20.9769 26024.2 -03500.8 -07.6614 26258.6
 11 09 2013  09 59  -20.9773 26024.6 -03501.1 -07.6619 26259.0
 11 09 2013  10 00  -20.9785 26024.6 -03501.2 -07.6623 26259.1
 11 09 2013  10 01  -20.9796 26024.9 -03501.6 -07.6629 26259.4
 11 09 2013  10 02  -20.9813 26024.9 -03501.7 -07.6632 26259.4
 11 09 2013  10 03  -20.9816 26025.0 -03502.0 -07.6637 26259.6
 11 09 2013  10 04  -20.9816 26025.2 -03502.1 -07.6640 26259.7
 11 09 2013  10 05  -20.9817 26025.1 -03502.2 -07.6642 26259.7
 11 09 2013  10 06  -20.9817 26025.1 -03502.2 -07.6642 26259.7
 11 09 2013  10 07  -20.9823 26024.7 -03502.1 -07.6642 26259.3
 11 09 2013  10 08  -20.9827 26024.6 -03502.2 -07.6643 26259.2
 11 09 2013  10 09  -20.9834 26024.3 -03502.2 -07.6645 26258.9
 11 09 2013  10 10  -20.9838 26024.2 -03502.4 -07.6649 26258.8
 11 09 2013  10 11  -20.9847 26024.0 -03502.5 -07.6652 26258.7
 11 09 2013  10 12  -20.9854 26023.9 -03502.7 -07.6656 26258.6
 11 09 2013  10 13  -20.9861 26023.9 -03502.8 -07.6660 26258.6
 11 09 2013  10 14  -20.9868 26023.6 -03502.9 -07.6662 26258.3
 11 09 2013  10 15  -20.9871 26023.8 -03503.2 -07.6668 26258.6
 11 09 2013  10 16  -20.9878 26023.8 -03503.4 -07.6671 26258.5
 11 09 2013  10 17  -20.9877 26023.7 -03503.5 -07.6674 26258.4
 11 09 2013  10 18  -20.9880 26023.6 -03503.6 -07.6677 26258.4
 11 09 2013  10 19  -20.9888 26023.8 -03503.9 -07.6682 26258.7
 11 09 2013  10 20  -20.9899 26023.6 -03503.9 -07.6683 26258.4
 11 09 2013  10 21  -20.9911 26023.6 -03504.0 -07.6686 26258.4
 11 09 2013  10 22  -20.9913 26023.8 -03504.3 -07.6691 26258.7
 11 09 2013  10 23  -20.9921 26023.7 -03504.4 -07.6693 26258.6
 11 09 2013  10 24  -20.9927 26023.7 -03504.5 -07.6696 26258.7
 11 09 2013  10 25  -20.9931 26023.9 -03504.7 -07.6701 26258.8
 11 09 2013  10 26  -20.9932 26024.2 -03505.0 -07.6705 26259.2
 11 09 2013  10 27  -20.9934 26024.5 -03505.1 -07.6707 26259.4
 11 09 2013  10 28  -20.9939 26024.5 -03505.1 -07.6708 26259.5
 11 09 2013  10 29  -20.9946 26024.8 -03505.4 -07.6712 26259.8
 11 09 2013  10 30  -20.9946 26025.0 -03505.5 -07.6715 26260.0
 11 09 2013  10 31  -20.9954 26024.7 -03505.5 -07.6715 26259.7
 11 09 2013  10 32  -20.9955 26024.9 -03505.7 -07.6719 26259.9
 11 09 2013  10 33  -20.9960 26024.9 -03505.8 -07.6721 26259.9
 11 09 2013  10 34  -20.9965 26025.1 -03506.0 -07.6725 26260.2
 11 09 2013  10 35  -20.9974 26025.1 -03506.2 -07.6728 26260.3
 11 09 2013  10 36  -20.9973 26025.8 -03506.6 -07.6735 26260.9
 11 09 2013  10 37  -20.9977 26025.9 -03506.6 -07.6736 26261.0
 11 09 2013  10 38  -20.9981 26026.2 -03506.9 -07.6740 26261.4
 11 09 2013  10 39  -20.9981 26026.8 -03507.1 -07.6744 26262.0
 11 09 2013  10 40  -20.9989 26027.0 -03507.3 -07.6746 26262.3
 11 09 2013  10 41  -20.9997 26027.5 -03507.5 -07.6749 26262.7
 11 09 2013  10 42  -21.0000 26027.9 -03507.6 -07.6750 26263.2
 11 09 2013  10 43  -21.0002 26028.3 -03507.6 -07.6751 26263.6
 11 09 2013  10 44  -21.0006 26028.5 -03507.6 -07.6750 26263.8
 11 09 2013  10 45  -21.0009 26028.8 -03507.6 -07.6749 26264.1
 11 09 2013  10 46  -21.0011 26029.0 -03507.6 -07.6748 26264.3
 11 09 2013  10 47  -21.0014 26029.2 -03507.5 -07.6746 26264.4
 11 09 2013  10 48  -21.0020 26029.2 -03507.5 -07.6744 26264.5
 11 09 2013  10 49  -21.0028 26029.5 -03507.5 -07.6745 26264.7
 11 09 2013  10 50  -21.0036 26029.5 -03507.5 -07.6744 26264.7
 11 09 2013  10 51  -21.0043 26029.6 -03507.5 -07.6745 26264.8
 11 09 2013  10 52  -21.0050 26029.8 -03507.7 -07.6747 26265.1
 11 09 2013  10 53  -21.0057 26030.2 -03507.8 -07.6748 26265.5
 11 09 2013  10 54  -21.0065 26030.3 -03507.8 -07.6748 26265.6
 11 09 2013  10 55  -21.0068 26030.6 -03507.8 -07.6748 26265.9
 11 09 2013  10 56  -21.0071 26030.8 -03507.8 -07.6747 26266.1
 11 09 2013  10 57  -21.0071 26031.3 -03507.9 -07.6748 26266.6
 11 09 2013  10 58  -21.0078 26031.6 -03507.9 -07.6748 26266.9
 11 09 2013  10 59  -21.0084 26031.6 -03507.9 -07.6746 26266.9
 11 09 2013  11 00  -21.0093 26031.7 -03507.9 -07.6746 26267.0
 11 09 2013  11 01  -21.0101 26031.9 -03507.9 -07.6746 26267.1
 11 09 2013  11 02  -21.0107 26032.0 -03508.0 -07.6747 26267.3
 11 09 2013  11 03  -21.0112 26032.5 -03508.1 -07.6748 26267.8
 11 09 2013  11 04  -21.0119 26032.8 -03508.1 -07.6747 26268.1
 11 09 2013  11 05  -21.0124 26033.1 -03508.1 -07.6746 26268.4
 11 09 2013  11 06  -21.0129 26033.2 -03508.0 -07.6744 26268.5
 11 09 2013  11 07  -21.0134 26033.3 -03507.9 -07.6742 26268.5
 11 09 2013  11 08  -21.0137 26033.4 -03507.9 -07.6741 26268.7
 11 09 2013  11 09  -21.0140 26033.9 -03507.9 -07.6741 26269.1
 11 09 2013  11 10  -21.0145 26034.1 -03507.9 -07.6740 26269.4
 11 09 2013  11 11  -21.0152 26034.2 -03507.9 -07.6739 26269.5
 11 09 2013  11 12  -21.0159 26034.4 -03507.9 -07.6738 26269.7
 11 09 2013  11 13  -21.0163 26034.7 -03507.9 -07.6737 26269.9
 11 09 2013  11 14  -21.0167 26035.0 -03507.9 -07.6736 26270.2
 11 09 2013  11 15  -21.0171 26035.4 -03507.9 -07.6736 26270.7
 11 09 2013  11 16  -21.0178 26035.5 -03507.8 -07.6734 26270.8
 11 09 2013  11 17  -21.0186 26035.8 -03507.8 -07.6732 26271.0
 11 09 2013  11 18  -21.0193 26035.9 -03507.7 -07.6730 26271.1
 11 09 2013  11 19  -21.0201 26036.2 -03507.6 -07.6728 26271.4
 11 09 2013  11 20  -21.0205 26036.6 -03507.6 -07.6726 26271.8
 11 09 2013  11 21  -21.0209 26036.6 -03507.4 -07.6722 26271.8
 11 09 2013  11 22  -21.0216 26036.6 -03507.2 -07.6718 26271.8
 11 09 2013  11 23  -21.0218 26036.8 -03507.2 -07.6717 26271.9
 11 09 2013  11 24  -21.0224 26036.9 -03507.2 -07.6716 26272.1
 11 09 2013  11 25  -21.0229 26036.8 -03507.0 -07.6713 26271.9
 11 09 2013  11 26  -21.0236 26037.3 -03507.2 -07.6715 26272.4
 11 09 2013  11 27  -21.0241 26037.9 -03507.4 -07.6717 26273.1
 11 09 2013  11 28  -21.0247 26038.2 -03507.3 -07.6715 26273.4
 11 09 2013  11 29  -21.0248 26038.7 -03507.4 -07.6714 26273.8
 11 09 2013  11 30  -21.0254 26038.9 -03507.3 -07.6712 26274.1
 11 09 2013  11 31  -21.0260 26039.2 -03507.3 -07.6711 26274.4
 11 09 2013  11 32  -21.0266 26039.3 -03507.1 -07.6707 26274.4
 11 09 2013  11 33  -21.0270 26039.7 -03507.1 -07.6706 26274.8
 11 09 2013  11 34  -21.0274 26040.2 -03507.2 -07.6705 26275.3
 11 09 2013  11 35  -21.0276 26040.5 -03507.1 -07.6703 26275.6
 11 09 2013  11 36  -21.0279 26041.0 -03507.0 -07.6700 26276.1
 11 09 2013  11 37  -21.0282 26041.6 -03507.0 -07.6698 26276.7
 11 09 2013  11 38  -21.0285 26041.8 -03506.8 -07.6693 26276.9
 11 09 2013  11 39  -21.0289 26042.0 -03506.5 -07.6687 26277.0
 11 09 2013  11 40  -21.0293 26042.4 -03506.4 -07.6683 26277.4
 11 09 2013  11 41  -21.0297 26042.2 -03506.0 -07.6675 26277.1
 11 09 2013  11 42  -21.0304 26042.1 -03505.8 -07.6670 26277.1
 11 09 2013  11 43  -21.0310 26042.2 -03505.6 -07.6667 26277.1
 11 09 2013  11 44  -21.0319 26042.5 -03505.5 -07.6664 26277.4
 11 09 2013  11 45  -21.0323 26042.8 -03505.5 -07.6662 26277.7
 11 09 2013  11 46  -21.0322 26043.4 -03505.4 -07.6659 26278.3
 11 09 2013  11 47  -21.0323 26043.3 -03505.2 -07.6653 26278.1
 11 09 2013  11 48  -21.0323 26043.8 -03505.1 -07.6651 26278.6
 11 09 2013  11 49  -21.0325 26043.8 -03504.8 -07.6645 26278.6
 11 09 2013  11 50  -21.0327 26044.5 -03505.0 -07.6646 26279.2
 11 09 2013  11 51  -21.0328 26044.9 -03504.9 -07.6643 26279.7
 11 09 2013  11 52  -21.0328 26045.3 -03504.8 -07.6639 26280.0
 11 09 2013  11 53  -21.0328 26045.5 -03504.6 -07.6635 26280.2
 11 09 2013  11 54  -21.0329 26045.8 -03504.5 -07.6632 26280.5
 11 09 2013  11 55  -21.0333 26045.9 -03504.3 -07.6627 26280.6
 11 09 2013  11 56  -21.0337 26046.3 -03504.2 -07.6625 26281.0
 11 09 2013  11 57  -21.0341 26046.7 -03504.2 -07.6623 26281.4
 11 09 2013  11 58  -21.0345 26047.0 -03504.1 -07.6620 26281.6
 11 09 2013  11 59  -21.0346 26047.4 -03504.1 -07.6618 26282.1
 11 09 2013  12 00  -21.0349 26048.0 -03504.1 -07.6616 26282.6
 11 09 2013  12 01  -21.0350 26048.5 -03504.0 -07.6614 26283.1
 11 09 2013  12 02  -21.0352 26049.2 -03504.0 -07.6611 26283.8
 11 09 2013  12 03  -21.0356 26049.6 -03503.8 -07.6605 26284.1
 11 09 2013  12 04  -21.0359 26049.9 -03503.6 -07.6600 26284.4
 11 09 2013  12 05  -21.0361 26050.1 -03503.4 -07.6595 26284.6
 11 09 2013  12 06  -21.0363 26050.5 -03503.2 -07.6591 26285.0
 11 09 2013  12 07  -21.0365 26050.9 -03503.1 -07.6587 26285.4
 11 09 2013  12 08  -21.0366 26051.4 -03503.0 -07.6584 26285.9
 11 09 2013  12 09  -21.0368 26052.2 -03502.9 -07.6580 26286.6
 11 09 2013  12 10  -21.0368 26052.5 -03502.7 -07.6573 26286.9
 11 09 2013  12 11  -21.0370 26052.6 -03502.4 -07.6567 26287.0
 11 09 2013  12 12  -21.0370 26052.8 -03502.2 -07.6561 26287.2
 11 09 2013  12 13  -21.0371 26053.1 -03502.0 -07.6557 26287.4
 11 09 2013  12 14  -21.0374 26053.5 -03501.9 -07.6553 26287.8
 11 09 2013  12 15  -21.0380 26053.3 -03501.6 -07.6548 26287.5
 11 09 2013  12 16  -21.0385 26053.3 -03501.4 -07.6544 26287.6
 11 09 2013  12 17  -21.0389 26054.3 -03501.5 -07.6543 26288.5
 11 09 2013  12 18  -21.0391 26055.1 -03501.5 -07.6541 26289.3
 11 09 2013  12 19  -21.0392 26055.5 -03501.4 -07.6537 26289.7
 11 09 2013  12 20  -21.0392 26055.1 -03500.9 -07.6528 26289.2
 11 09 2013  12 21  -21.0388 26055.1 -03500.7 -07.6523 26289.3
 11 09 2013  12 22  -21.0387 26055.8 -03500.8 -07.6524 26290.0
 11 09 2013  12 23  -21.0388 26056.3 -03500.8 -07.6521 26290.4
 11 09 2013  12 24  -21.0393 26056.9 -03500.8 -07.6519 26291.1
 11 09 2013  12 25  -21.0391 26057.6 -03500.7 -07.6516 26291.7
 11 09 2013  12 26  -21.0391 26058.1 -03500.6 -07.6513 26292.2
 11 09 2013  12 27  -21.0389 26058.4 -03500.4 -07.6507 26292.4
 11 09 2013  12 28  -21.0386 26058.7 -03500.2 -07.6501 26292.8
 11 09 2013  12 29  -21.0382 26058.8 -03499.8 -07.6494 26292.8
 11 09 2013  12 30  -21.0382 26058.8 -03499.7 -07.6490 26292.7
 11 09 2013  12 31  -21.0385 26058.7 -03499.5 -07.6487 26292.6
 11 09 2013  12 32  -21.0391 26058.3 -03499.3 -07.6483 26292.2
 11 09 2013  12 33  -21.0400 26057.5 -03499.0 -07.6480 26291.4
 11 09 2013  12 34  -21.0410 26057.0 -03498.9 -07.6479 26290.9
 11 09 2013  12 35  -21.0416 26057.1 -03499.0 -07.6481 26291.0
 11 09 2013  12 36  -21.0421 26057.6 -03499.2 -07.6484 26291.5
 11 09 2013  12 37  -21.0428 26057.7 -03499.2 -07.6483 26291.6
 11 09 2013  12 38  -21.0435 26057.8 -03499.1 -07.6481 26291.6
 11 09 2013  12 39  -21.0440 26057.9 -03499.0 -07.6478 26291.8
 11 09 2013  12 40  -21.0443 26058.7 -03499.0 -07.6476 26292.6
 11 09 2013  12 41  -21.0447 26060.0 -03499.1 -07.6475 26293.9
 11 09 2013  12 42  -21.0451 26061.6 -03499.3 -07.6473 26295.5
 11 09 2013  12 43  -21.0453 26061.5 -03498.6 -07.6459 26295.2
 11 09 2013  12 44  -21.0451 26061.6 -03498.1 -07.6448 26295.3
 11 09 2013  12 45  -21.0455 26061.4 -03497.7 -07.6439 26295.0
 11 09 2013  12 46  -21.0462 26061.3 -03497.4 -07.6433 26295.0
 11 09 2013  12 47  -21.0469 26062.2 -03497.5 -07.6432 26295.8
 11 09 2013  12 48  -21.0475 26062.7 -03497.2 -07.6426 26296.2
 11 09 2013  12 49  -21.0478 26063.1 -03497.0 -07.6419 26296.7
 11 09 2013  12 50  -21.0480 26063.5 -03496.6 -07.6411 26297.0
 11 09 2013  12 51  -21.0483 26063.2 -03496.0 -07.6398 26296.6
 11 09 2013  12 52  -21.0486 26062.4 -03495.4 -07.6387 26295.7
 11 09 2013  12 53  -21.0487 26062.2 -03495.1 -07.6381 26295.5
 11 09 2013  12 54  -21.0490 26062.4 -03495.0 -07.6379 26295.7
 11 09 2013  12 55  -21.0494 26062.5 -03494.8 -07.6375 26295.7
 11 09 2013  12 56  -21.0497 26062.3 -03494.6 -07.6370 26295.6
 11 09 2013  12 57  -21.0499 26062.0 -03494.3 -07.6365 26295.3
 11 09 2013  12 58  -21.0500 26061.4 -03493.9 -07.6358 26294.5
 11 09 2013  12 59  -21.0502 26060.8 -03493.6 -07.6353 26294.0
 11 09 2013  13 00  -21.0507 26061.0 -03493.6 -07.6353 26294.1
 11 09 2013  13 01  -21.0515 26061.2 -03493.6 -07.6352 26294.3
 11 09 2013  13 02  -21.0516 26060.6 -03493.2 -07.6344 26293.6
 11 09 2013  13 03  -21.0518 26060.1 -03492.9 -07.6339 26293.1
 11 09 2013  13 04  -21.0518 26060.4 -03492.9 -07.6339 26293.5
 11 09 2013  13 05  -21.0524 26060.2 -03492.7 -07.6336 26293.2
 11 09 2013  13 06  -21.0529 26060.6 -03492.7 -07.6334 26293.6
 11 09 2013  13 07  -21.0532 26061.3 -03492.8 -07.6334 26294.3
 11 09 2013  13 08  -21.0535 26061.2 -03492.4 -07.6325 26294.2
 11 09 2013  13 09  -21.0535 26060.8 -03491.9 -07.6315 26293.7
 11 09 2013  13 10  -21.0533 26061.2 -03491.7 -07.6311 26294.1
 11 09 2013  13 11  -21.0532 26061.4 -03491.4 -07.6304 26294.2
 11 09 2013  13 12  -21.0527 26061.6 -03491.1 -07.6297 26294.4
 11 09 2013  13 13  -21.0526 26062.3 -03491.1 -07.6295 26295.1
 11 09 2013  13 14  -21.0524 26062.5 -03490.9 -07.6289 26295.3
 11 09 2013  13 15  -21.0524 26062.8 -03490.8 -07.6286 26295.5
 11 09 2013  13 16  -21.0523 26063.0 -03490.6 -07.6282 26295.7
 11 09 2013  13 17  -21.0522 26063.1 -03490.5 -07.6280 26295.8
 11 09 2013  13 18  -21.0521 26063.5 -03490.5 -07.6277 26296.2
 11 09 2013  13 19  -21.0519 26063.7 -03490.4 -07.6274 26296.4
 11 09 2013  13 20  -21.0522 26063.6 -03490.1 -07.6270 26296.3
 11 09 2013  13 21  -21.0525 26063.4 -03489.9 -07.6265 26296.1
 11 09 2013  13 22  -21.0527 26063.2 -03489.7 -07.6261 26295.8
 11 09 2013  13 23  -21.0528 26063.1 -03489.5 -07.6258 26295.7
 11 09 2013  13 24  -21.0527 26063.0 -03489.4 -07.6255 26295.6
 11 09 2013  13 25  -21.0527 26063.0 -03489.4 -07.6255 26295.6
 11 09 2013  13 26  -21.0526 26063.2 -03489.4 -07.6255 26295.8
 11 09 2013  13 27  -21.0526 26063.4 -03489.4 -07.6254 26295.9
 11 09 2013  13 28  -21.0527 26063.8 -03489.4 -07.6254 26296.3
 11 09 2013  13 29  -21.0528 26064.1 -03489.4 -07.6253 26296.6
 11 09 2013  13 30  -21.0527 26064.4 -03489.4 -07.6251 26296.9
 11 09 2013  13 31  -21.0527 26065.1 -03489.4 -07.6251 26297.6
 11 09 2013  13 32  -21.0527 26065.4 -03489.3 -07.6247 26298.0
 11 09 2013  13 33  -21.0526 26065.7 -03489.3 -07.6245 26298.3
 11 09 2013  13 34  -21.0525 26066.0 -03489.2 -07.6242 26298.5
 11 09 2013  13 35  -21.0525 26066.4 -03489.1 -07.6240 26298.9
 11 09 2013  13 36  -21.0525 26066.8 -03489.1 -07.6237 26299.3
 11 09 2013  13 37  -21.0525 26067.3 -03489.0 -07.6235 26299.7
 11 09 2013  13 38  -21.0525 26067.9 -03489.0 -07.6234 26300.4
 11 09 2013  13 39  -21.0524 26068.3 -03488.9 -07.6230 26300.8
 11 09 2013  13 40  -21.0523 26068.6 -03488.8 -07.6227 26301.1
 11 09 2013  13 41  -21.0522 26068.8 -03488.6 -07.6222 26301.2
 11 09 2013  13 42  -21.0522 26069.3 -03488.6 -07.6221 26301.7
 11 09 2013  13 43  -21.0523 26069.8 -03488.6 -07.6219 26302.1
 11 09 2013  13 44  -21.0525 26070.1 -03488.5 -07.6217 26302.5
 11 09 2013  13 45  -21.0525 26070.3 -03488.4 -07.6213 26302.6
 11 09 2013  13 46  -21.0524 26070.5 -03488.3 -07.6210 26302.8
 11 09 2013  13 47  -21.0524 26070.8 -03488.3 -07.6209 26303.2
 11 09 2013  13 48  -21.0522 26071.2 -03488.3 -07.6208 26303.5
 11 09 2013  13 49  -21.0522 26071.4 -03488.2 -07.6205 26303.7
 11 09 2013  13 50  -21.0520 26071.4 -03488.0 -07.6202 26303.7
 11 09 2013  13 51  -21.0520 26071.8 -03488.1 -07.6203 26304.1
 11 09 2013  13 52  -21.0521 26072.0 -03488.1 -07.6202 26304.3
 11 09 2013  13 53  -21.0522 26072.1 -03488.0 -07.6200 26304.4
 11 09 2013  13 54  -21.0522 26072.7 -03488.2 -07.6202 26305.0
 11 09 2013  13 55  -21.0524 26073.1 -03488.3 -07.6202 26305.4
 11 09 2013  13 56  -21.0523 26073.2 -03488.2 -07.6200 26305.5
 11 09 2013  13 57  -21.0523 26073.3 -03488.1 -07.6199 26305.6
 11 09 2013  13 58  -21.0523 26073.7 -03488.2 -07.6200 26306.0
 11 09 2013  13 59  -21.0521 26074.1 -03488.3 -07.6200 26306.4
 11 09 2013  14 00  -21.0522 26074.4 -03488.3 -07.6199 26306.7
 11 09 2013  14 01  -21.0523 26074.7 -03488.4 -07.6200 26307.0
 11 09 2013  14 02  -21.0522 26075.3 -03488.6 -07.6202 26307.6
 11 09 2013  14 03  -21.0522 26075.7 -03488.7 -07.6203 26308.1
 11 09 2013  14 04  -21.0522 26075.8 -03488.6 -07.6202 26308.1
 11 09 2013  14 05  -21.0524 26076.1 -03488.7 -07.6203 26308.5
 11 09 2013  14 06  -21.0528 26076.8 -03488.9 -07.6205 26309.1
 11 09 2013  14 07  -21.0532 26077.6 -03489.1 -07.6206 26310.0
 11 09 2013  14 08  -21.0533 26078.4 -03489.1 -07.6206 26310.8
 11 09 2013  14 09  -21.0530 26078.8 -03489.0 -07.6202 26311.1
 11 09 2013  14 10  -21.0525 26079.2 -03489.0 -07.6200 26311.5
 11 09 2013  14 11  -21.0526 26079.6 -03488.9 -07.6198 26311.9
 11 09 2013  14 12  -21.0527 26080.0 -03488.9 -07.6196 26312.3
 11 09 2013  14 13  -21.0524 26080.0 -03488.7 -07.6191 26312.3
 11 09 2013  14 14  -21.0522 26079.7 -03488.4 -07.6186 26312.0
 11 09 2013  14 15  -21.0518 26079.5 -03488.2 -07.6183 26311.8
 11 09 2013  14 16  -21.0520 26079.6 -03488.2 -07.6183 26311.8
 11 09 2013  14 17  -21.0527 26079.7 -03488.3 -07.6184 26311.9
 11 09 2013  14 18  -21.0530 26079.9 -03488.3 -07.6183 26312.2
 11 09 2013  14 19  -21.0531 26079.7 -03488.2 -07.6181 26312.0
 11 09 2013  14 20  -21.0534 26079.7 -03488.1 -07.6179 26311.9
 11 09 2013  14 21  -21.0535 26079.6 -03488.0 -07.6178 26311.8
 11 09 2013  14 22  -21.0537 26079.9 -03488.1 -07.6179 26312.1
 11 09 2013  14 23  -21.0533 26079.9 -03488.0 -07.6176 26312.2
 11 09 2013  14 24  -21.0532 26080.1 -03487.9 -07.6174 26312.3
 11 09 2013  14 25  -21.0533 26080.5 -03487.9 -07.6174 26312.7
 11 09 2013  14 26  -21.0529 26080.7 -03488.0 -07.6174 26312.9
 11 09 2013  14 27  -21.0520 26080.9 -03487.9 -07.6171 26313.1
 11 09 2013  14 28  -21.0516 26080.8 -03487.7 -07.6167 26312.9
 11 09 2013  14 29  -21.0517 26081.6 -03488.0 -07.6172 26313.8
 11 09 2013  14 30  -21.0521 26082.3 -03488.2 -07.6173 26314.5
 11 09 2013  14 31  -21.0519 26082.1 -03487.8 -07.6167 26314.3
 11 09 2013  14 32  -21.0517 26082.4 -03487.7 -07.6163 26314.5
 11 09 2013  14 33  -21.0520 26082.6 -03487.6 -07.6161 26314.7
 11 09 2013  14 34  -21.0519 26082.6 -03487.5 -07.6158 26314.7
 11 09 2013  14 35  -21.0515 26082.7 -03487.4 -07.6156 26314.8
 11 09 2013  14 36  -21.0512 26082.9 -03487.4 -07.6156 26315.0
 11 09 2013  14 37  -21.0510 26082.8 -03487.3 -07.6153 26314.9
 11 09 2013  14 38  -21.0505 26082.6 -03487.1 -07.6150 26314.7
 11 09 2013  14 39  -21.0499 26082.6 -03487.1 -07.6150 26314.7
 11 09 2013  14 40  -21.0492 26082.5 -03487.0 -07.6148 26314.5
 11 09 2013  14 41  -21.0487 26082.1 -03486.9 -07.6147 26314.1
 11 09 2013  14 42  -21.0481 26081.7 -03486.9 -07.6148 26313.8
 11 09 2013  14 43  -21.0477 26081.4 -03486.9 -07.6148 26313.5
 11 09 2013  14 44  -21.0472 26081.3 -03487.0 -07.6151 26313.4
 11 09 2013  14 45  -21.0468 26081.2 -03487.0 -07.6152 26313.3
 11 09 2013  14 46  -21.0465 26080.9 -03487.0 -07.6153 26313.0
 11 09 2013  14 47  -21.0458 26080.6 -03486.9 -07.6152 26312.7
 11 09 2013  14 48  -21.0452 26080.1 -03486.9 -07.6152 26312.2
 11 09 2013  14 49  -21.0447 26079.8 -03486.9 -07.6153 26311.8
 11 09 2013  14 50  -21.0446 26079.5 -03486.9 -07.6155 26311.6
 11 09 2013  14 51  -21.0444 26079.4 -03487.0 -07.6157 26311.5
 11 09 2013  14 52  -21.0443 26079.4 -03487.1 -07.6159 26311.5
 11 09 2013  14 53  -21.0439 26079.5 -03487.2 -07.6162 26311.7
 11 09 2013  14 54  -21.0436 26079.6 -03487.3 -07.6163 26311.7
 11 09 2013  14 55  -21.0434 26079.6 -03487.4 -07.6164 26311.7
 11 09 2013  14 56  -21.0433 26079.8 -03487.5 -07.6165 26311.9
 11 09 2013  14 57  -21.0430 26079.6 -03487.4 -07.6164 26311.8
 11 09 2013  14 58  -21.0426 26079.3 -03487.3 -07.6163 26311.5
 11 09 2013  14 59  -21.0424 26079.2 -03487.3 -07.6163 26311.3
 11 09 2013  15 00  -21.0425 26079.3 -03487.4 -07.6166 26311.4
 11 09 2013  15 01  -21.0425 26079.2 -03487.4 -07.6166 26311.3
 11 09 2013  15 02  -21.0425 26079.2 -03487.4 -07.6167 26311.4
 11 09 2013  15 03  -21.0425 26079.1 -03487.4 -07.6166 26311.2
 11 09 2013  15 04  -21.0425 26079.0 -03487.4 -07.6166 26311.2
 11 09 2013  15 05  -21.0426 26078.9 -03487.4 -07.6167 26311.1
 11 09 2013  15 06  -21.0429 26078.9 -03487.4 -07.6166 26311.0
 11 09 2013  15 07  -21.0431 26079.0 -03487.4 -07.6167 26311.1
 11 09 2013  15 08  -21.0433 26079.1 -03487.4 -07.6167 26311.3
 11 09 2013  15 09  -21.0432 26079.0 -03487.3 -07.6164 26311.1
 11 09 2013  15 10  -21.0436 26079.1 -03487.3 -07.6165 26311.3
 11 09 2013  15 11  -21.0441 26079.2 -03487.3 -07.6165 26311.3
 11 09 2013  15 12  -21.0445 26079.1 -03487.3 -07.6163 26311.3
 11 09 2013  15 13  -21.0445 26079.1 -03487.1 -07.6160 26311.2
 11 09 2013  15 14  -21.0444 26078.9 -03487.0 -07.6158 26311.0
 11 09 2013  15 15  -21.0448 26078.8 -03486.9 -07.6156 26310.9
 11 09 2013  15 16  -21.0453 26078.5 -03486.8 -07.6154 26310.5
 11 09 2013  15 17  -21.0459 26078.8 -03486.9 -07.6156 26310.9
 11 09 2013  15 18  -21.0467 26079.3 -03486.9 -07.6156 26311.4
 11 09 2013  15 19  -21.0477 26079.9 -03487.0 -07.6155 26312.0
 11 09 2013  15 20  -21.0484 26080.4 -03486.9 -07.6152 26312.4
 11 09 2013  15 21  -21.0479 26079.8 -03486.4 -07.6142 26311.8
 11 09 2013  15 22  -21.0474 26079.5 -03486.0 -07.6136 26311.5
 11 09 2013  15 23  -21.0478 26079.7 -03486.0 -07.6135 26311.6
 11 09 2013  15 24  -21.0488 26080.1 -03486.1 -07.6136 26312.1
 11 09 2013  15 25  -21.0498 26080.5 -03486.1 -07.6135 26312.5
 11 09 2013  15 26  -21.0505 26080.7 -03485.9 -07.6129 26312.6
 11 09 2013  15 27  -21.0508 26081.1 -03485.7 -07.6124 26313.0
 11 09 2013  15 28  -21.0509 26081.7 -03485.6 -07.6119 26313.5
 11 09 2013  15 29  -21.0511 26082.2 -03485.4 -07.6114 26314.0
 11 09 2013  15 30  -21.0512 26082.7 -03485.2 -07.6108 26314.5
 11 09 2013  15 31  -21.0515 26083.0 -03484.9 -07.6102 26314.8
 11 09 2013  15 32  -21.0515 26083.1 -03484.6 -07.6093 26314.8
 11 09 2013  15 33  -21.0515 26083.1 -03484.2 -07.6085 26314.8
 11 09 2013  15 34  -21.0515 26082.7 -03483.8 -07.6077 26314.4
 11 09 2013  15 35  -21.0513 26082.5 -03483.4 -07.6071 26314.1
 11 09 2013  15 36  -21.0515 26082.6 -03483.3 -07.6067 26314.2
 11 09 2013  15 37  -21.0516 26082.5 -03483.0 -07.6062 26314.0
 11 09 2013  15 38  -21.0513 26082.0 -03482.6 -07.6054 26313.5
 11 09 2013  15 39  -21.0513 26081.6 -03482.2 -07.6047 26313.0
 11 09 2013  15 40  -21.0511 26081.3 -03482.0 -07.6043 26312.7
 11 09 2013  15 41  -21.0512 26081.0 -03481.7 -07.6038 26312.4
 11 09 2013  15 42  -21.0512 26080.9 -03481.6 -07.6035 26312.3
 11 09 2013  15 43  -21.0516 26081.0 -03481.5 -07.6034 26312.3
 11 09 2013  15 44  -21.0517 26080.6 -03481.2 -07.6028 26311.9
 11 09 2013  15 45  -21.0513 26080.3 -03481.0 -07.6024 26311.5
 11 09 2013  15 46  -21.0514 26080.1 -03480.9 -07.6022 26311.4
 11 09 2013  15 47  -21.0514 26080.2 -03480.8 -07.6020 26311.5
 11 09 2013  15 48  -21.0515 26079.9 -03480.5 -07.6016 26311.1
 11 09 2013  15 49  -21.0517 26079.7 -03480.4 -07.6013 26310.9
 11 09 2013  15 50  -21.0515 26079.5 -03480.3 -07.6011 26310.7
 11 09 2013  15 51  -21.0515 26079.3 -03480.1 -07.6008 26310.4
 11 09 2013  15 52  -21.0511 26078.6 -03479.8 -07.6003 26309.7
 11 09 2013  15 53  -21.0510 26078.1 -03479.6 -07.6000 26309.2
 11 09 2013  15 54  -21.0512 26077.7 -03479.5 -07.5999 26308.8
 11 09 2013  15 55  -21.0508 26077.3 -03479.3 -07.5996 26308.4
 11 09 2013  15 56  -21.0509 26077.4 -03479.4 -07.5998 26308.4
 11 09 2013  15 57  -21.0509 26077.2 -03479.3 -07.5997 26308.3
 11 09 2013  15 58  -21.0505 26076.9 -03479.1 -07.5994 26307.9
 11 09 2013  15 59  -21.0497 26076.4 -03478.9 -07.5990 26307.4
 11 09 2013  16 00  -21.0492 26076.1 -03478.8 -07.5989 26307.2
 11 09 2013  16 01  -21.0493 26075.9 -03478.8 -07.5989 26307.0
 11 09 2013  16 02  -21.0491 26075.5 -03478.6 -07.5987 26306.5
 11 09 2013  16 03  -21.0483 26074.8 -03478.4 -07.5984 26305.8
 11 09 2013  16 04  -21.0482 26074.7 -03478.5 -07.5987 26305.7
 11 09 2013  16 05  -21.0489 26074.5 -03478.6 -07.5990 26305.6
 11 09 2013  16 06  -21.0494 26074.4 -03478.5 -07.5989 26305.4
 11 09 2013  16 07  -21.0495 26074.1 -03478.5 -07.5988 26305.1
 11 09 2013  16 08  -21.0502 26074.1 -03478.4 -07.5987 26305.1
 11 09 2013  16 09  -21.0505 26073.8 -03478.2 -07.5983 26304.8
 11 09 2013  16 10  -21.0505 26073.4 -03478.0 -07.5980 26304.4
 11 09 2013  16 11  -21.0501 26073.0 -03477.8 -07.5977 26303.9
 11 09 2013  16 12  -21.0502 26072.7 -03477.7 -07.5976 26303.6
 11 09 2013  16 13  -21.0503 26072.7 -03477.8 -07.5977 26303.6
 11 09 2013  16 14  -21.0502 26072.4 -03477.7 -07.5977 26303.3
 11 09 2013  16 15  -21.0503 26072.0 -03477.5 -07.5974 26302.9
 11 09 2013  16 16  -21.0506 26071.9 -03477.6 -07.5975 26302.8
 11 09 2013  16 17  -21.0508 26071.8 -03477.5 -07.5974 26302.7
 11 09 2013  16 18  -21.0508 26071.3 -03477.3 -07.5971 26302.1
 11 09 2013  16 19  -21.0501 26070.2 -03476.9 -07.5965 26301.0
 11 09 2013  16 20  -21.0498 26069.4 -03476.8 -07.5964 26300.2
 11 09 2013  16 21  -21.0498 26068.9 -03476.8 -07.5966 26299.7
 11 09 2013  16 22  -21.0494 26068.5 -03476.8 -07.5967 26299.3
 11 09 2013  16 23  -21.0494 26068.1 -03476.7 -07.5967 26298.9
 11 09 2013  16 24  -21.0496 26067.9 -03476.8 -07.5969 26298.7
 11 09 2013  16 25  -21.0498 26067.7 -03476.8 -07.5971 26298.5
 11 09 2013  16 26  -21.0498 26067.1 -03476.6 -07.5968 26297.9
 11 09 2013  16 27  -21.0497 26066.5 -03476.5 -07.5967 26297.3
 11 09 2013  16 28  -21.0493 26065.9 -03476.4 -07.5966 26296.7
 11 09 2013  16 29  -21.0492 26065.7 -03476.4 -07.5968 26296.5
 11 09 2013  16 30  -21.0492 26065.4 -03476.4 -07.5969 26296.2
 11 09 2013  16 31  -21.0493 26065.1 -03476.4 -07.5969 26295.9
 11 09 2013  16 32  -21.0493 26064.6 -03476.3 -07.5968 26295.4
 11 09 2013  16 33  -21.0490 26064.1 -03476.2 -07.5968 26294.9
 11 09 2013  16 34  -21.0486 26063.6 -03476.1 -07.5968 26294.3
 11 09 2013  16 35  -21.0481 26063.1 -03476.1 -07.5969 26293.9
 11 09 2013  16 36  -21.0477 26062.6 -03476.1 -07.5970 26293.4
 11 09 2013  16 37  -21.0475 26062.2 -03476.2 -07.5972 26293.0
 11 09 2013  16 38  -21.0473 26061.7 -03476.1 -07.5973 26292.5
 11 09 2013  16 39  -21.0474 26061.3 -03476.1 -07.5974 26292.1
 11 09 2013  16 40  -21.0474 26061.0 -03476.1 -07.5975 26291.8
 11 09 2013  16 41  -21.0472 26060.3 -03476.0 -07.5974 26291.1
 11 09 2013  16 42  -21.0469 26059.6 -03475.9 -07.5974 26290.4
 11 09 2013  16 43  -21.0471 26059.4 -03475.9 -07.5976 26290.2
 11 09 2013  16 44  -21.0471 26059.2 -03476.0 -07.5978 26290.0
 11 09 2013  16 45  -21.0472 26059.4 -03476.3 -07.5983 26290.2
 11 09 2013  16 46  -21.0474 26059.6 -03476.3 -07.5984 26290.4
 11 09 2013  16 47  -21.0478 26059.9 -03476.4 -07.5985 26290.7
 11 09 2013  16 48  -21.0480 26059.8 -03476.4 -07.5984 26290.7
 11 09 2013  16 49  -21.0478 26059.7 -03476.3 -07.5982 26290.6
 11 09 2013  16 50  -21.0477 26059.4 -03476.1 -07.5979 26290.3
 11 09 2013  16 51  -21.0475 26058.4 -03475.6 -07.5971 26289.1
 11 09 2013  16 52  -21.0473 26057.3 -03475.1 -07.5964 26288.0
 11 09 2013  16 53  -21.0476 26056.7 -03475.0 -07.5962 26287.4
 11 09 2013  16 54  -21.0479 26056.7 -03475.0 -07.5963 26287.4
 11 09 2013  16 55  -21.0483 26056.8 -03475.0 -07.5963 26287.5
 11 09 2013  16 56  -21.0485 26057.0 -03475.0 -07.5963 26287.6
 11 09 2013  16 57  -21.0485 26056.8 -03474.9 -07.5960 26287.5
 11 09 2013  16 58  -21.0482 26056.5 -03474.6 -07.5955 26287.1
 11 09 2013  16 59  -21.0483 26056.1 -03474.4 -07.5951 26286.8
 11 09 2013  17 00  -21.0484 26055.8 -03474.2 -07.5949 26286.5
 11 09 2013  17 01  -21.0483 26055.5 -03474.2 -07.5948 26286.1
 11 09 2013  17 02  -21.0489 26055.4 -03474.1 -07.5948 26286.0
 11 09 2013  17 03  -21.0489 26055.3 -03474.1 -07.5947 26285.9
 11 09 2013  17 04  -21.0488 26055.4 -03474.2 -07.5948 26286.0
 11 09 2013  17 05  -21.0489 26055.4 -03474.2 -07.5949 26286.0
 11 09 2013  17 06  -21.0487 26055.0 -03474.0 -07.5947 26285.6
 11 09 2013  17 07  -21.0487 26054.7 -03473.9 -07.5945 26285.2
 11 09 2013  17 08  -21.0485 26054.0 -03473.7 -07.5942 26284.6
 11 09 2013  17 09  -21.0482 26053.7 -03473.6 -07.5941 26284.2
 11 09 2013  17 10  -21.0485 26053.5 -03473.6 -07.5942 26284.0
 11 09 2013  17 11  -21.0484 26053.2 -03473.5 -07.5941 26283.7
 11 09 2013  17 12  -21.0482 26052.9 -03473.5 -07.5942 26283.4
 11 09 2013  17 13  -21.0479 26052.5 -03473.4 -07.5941 26283.0
 11 09 2013  17 14  -21.0477 26052.1 -03473.4 -07.5941 26282.6
 11 09 2013  17 15  -21.0479 26052.1 -03473.5 -07.5945 26282.6
 11 09 2013  17 16  -21.0479 26051.9 -03473.7 -07.5948 26282.5
 11 09 2013  17 17  -21.0478 26051.6 -03473.7 -07.5949 26282.2
 11 09 2013  17 18  -21.0480 26051.5 -03473.8 -07.5952 26282.0
 11 09 2013  17 19  -21.0481 26051.1 -03473.8 -07.5954 26281.7
 11 09 2013  17 20  -21.0482 26050.7 -03473.9 -07.5957 26281.4
 11 09 2013  17 21  -21.0484 26050.5 -03474.0 -07.5960 26281.1
 11 09 2013  17 22  -21.0487 26050.3 -03474.2 -07.5964 26280.9
 11 09 2013  17 23  -21.0494 26050.0 -03474.2 -07.5966 26280.6
 11 09 2013  17 24  -21.0498 26049.6 -03474.3 -07.5968 26280.3
 11 09 2013  17 25  -21.0502 26049.4 -03474.4 -07.5972 26280.1
 11 09 2013  17 26  -21.0500 26049.3 -03474.5 -07.5974 26280.0
 11 09 2013  17 27  -21.0503 26048.8 -03474.5 -07.5974 26279.5
 11 09 2013  17 28  -21.0504 26048.5 -03474.6 -07.5977 26279.2
 11 09 2013  17 29  -21.0509 26048.2 -03474.7 -07.5981 26278.9
 11 09 2013  17 30  -21.0508 26047.8 -03474.7 -07.5982 26278.5
 11 09 2013  17 31  -21.0509 26047.6 -03474.8 -07.5985 26278.4
 11 09 2013  17 32  -21.0511 26047.8 -03475.1 -07.5990 26278.6
 11 09 2013  17 33  -21.0515 26047.7 -03475.2 -07.5993 26278.5
 11 09 2013  17 34  -21.0515 26047.1 -03475.0 -07.5991 26277.9
 11 09 2013  17 35  -21.0507 26046.2 -03474.8 -07.5990 26277.0
 11 09 2013  17 36  -21.0505 26045.6 -03474.9 -07.5992 26276.4
 11 09 2013  17 37  -21.0505 26045.2 -03475.0 -07.5996 26276.0
 11 09 2013  17 38  -21.0507 26044.8 -03475.1 -07.5999 26275.7
 11 09 2013  17 39  -21.0510 26044.4 -03475.1 -07.6001 26275.2
 11 09 2013  17 40  -21.0511 26044.2 -03475.3 -07.6005 26275.0
 11 09 2013  17 41  -21.0511 26044.0 -03475.4 -07.6009 26274.9
 11 09 2013  17 42  -21.0511 26043.8 -03475.5 -07.6010 26274.7
 11 09 2013  17 43  -21.0512 26044.0 -03475.6 -07.6013 26274.9
 11 09 2013  17 44  -21.0514 26043.9 -03475.7 -07.6014 26274.8
 11 09 2013  17 45  -21.0511 26043.4 -03475.5 -07.6011 26274.3
 11 09 2013  17 46  -21.0507 26042.9 -03475.3 -07.6010 26273.7
 11 09 2013  17 47  -21.0502 26042.5 -03475.2 -07.6009 26273.3
 11 09 2013  17 48  -21.0498 26042.4 -03475.4 -07.6012 26273.3
 11 09 2013  17 49  -21.0501 26042.4 -03475.5 -07.6015 26273.3
 11 09 2013  17 50  -21.0500 26041.9 -03475.4 -07.6014 26272.8
 11 09 2013  17 51  -21.0498 26041.2 -03475.2 -07.6011 26272.1
 11 09 2013  17 52  -21.0494 26040.3 -03474.8 -07.6007 26271.1
 11 09 2013  17 53  -21.0478 26038.7 -03474.2 -07.5998 26269.5
 11 09 2013  17 54  -21.0467 26037.7 -03474.1 -07.5999 26268.5
 11 09 2013  17 55  -21.0460 26037.1 -03474.3 -07.6004 26267.9
 11 09 2013  17 56  -21.0454 26036.8 -03474.5 -07.6010 26267.6
 11 09 2013  17 57  -21.0448 26036.7 -03474.7 -07.6015 26267.5
 11 09 2013  17 58  -21.0443 26037.0 -03475.1 -07.6023 26267.8
 11 09 2013  17 59  -21.0445 26037.4 -03475.5 -07.6030 26268.4
 11 09 2013  18 00  -21.0448 26038.0 -03475.8 -07.6034 26269.0
 11 09 2013  18 01  -21.0452 26038.5 -03475.9 -07.6035 26269.5
 11 09 2013  18 02  -21.0448 26038.6 -03475.8 -07.6032 26269.5
 11 09 2013  18 03  -21.0439 26038.2 -03475.5 -07.6027 26269.2
 11 09 2013  18 04  -21.0438 26038.4 -03475.6 -07.6028 26269.3
 11 09 2013  18 05  -21.0436 26038.5 -03475.6 -07.6028 26269.4
 11 09 2013  18 06  -21.0430 26038.5 -03475.5 -07.6026 26269.4
 11 09 2013  18 07  -21.0424 26038.3 -03475.4 -07.6024 26269.2
 11 09 2013  18 08  -21.0414 26037.7 -03475.0 -07.6019 26268.5
 11 09 2013  18 09  -21.0401 26037.0 -03474.8 -07.6016 26267.8
 11 09 2013  18 10  -21.0389 26036.4 -03474.7 -07.6016 26267.2
 11 09 2013  18 11  -21.0377 26035.9 -03474.8 -07.6018 26266.7
 11 09 2013  18 12  -21.0368 26035.3 -03474.8 -07.6020 26266.1
 11 09 2013  18 13  -21.0359 26034.8 -03474.9 -07.6023 26265.7
 11 09 2013  18 14  -21.0350 26034.3 -03474.9 -07.6026 26265.2
 11 09 2013  18 15  -21.0339 26033.9 -03475.0 -07.6030 26264.8
 11 09 2013  18 16  -21.0328 26033.3 -03475.2 -07.6034 26264.3
 11 09 2013  18 17  -21.0320 26033.2 -03475.5 -07.6042 26264.2
 11 09 2013  18 18  -21.0315 26033.0 -03475.8 -07.6049 26264.0
 11 09 2013  18 19  -21.0310 26032.9 -03476.1 -07.6055 26264.0
 11 09 2013  18 20  -21.0306 26032.7 -03476.2 -07.6059 26263.8
 11 09 2013  18 21  -21.0301 26032.7 -03476.5 -07.6065 26263.8
 11 09 2013  18 22  -21.0296 26032.8 -03476.8 -07.6071 26264.0
 11 09 2013  18 23  -21.0287 26032.6 -03477.0 -07.6075 26263.7
 11 09 2013  18 24  -21.0280 26032.2 -03477.1 -07.6080 26263.4
 11 09 2013  18 25  -21.0276 26032.3 -03477.5 -07.6087 26263.5
 11 09 2013  18 26  -21.0275 26032.5 -03477.9 -07.6095 26263.8
 11 09 2013  18 27  -21.0273 26032.1 -03477.9 -07.6097 26263.4
 11 09 2013  18 28  -21.0272 26031.9 -03478.0 -07.6099 26263.2
 11 09 2013  18 29  -21.0274 26031.9 -03478.2 -07.6103 26263.3
 11 09 2013  18 30  -21.0273 26031.8 -03478.3 -07.6106 26263.2
 11 09 2013  18 31  -21.0273 26031.6 -03478.3 -07.6107 26263.0
 11 09 2013  18 32  -21.0273 26031.5 -03478.4 -07.6109 26262.9
 11 09 2013  18 33  -21.0274 26031.4 -03478.5 -07.6111 26262.8
 11 09 2013  18 34  -21.0273 26031.3 -03478.5 -07.6112 26262.7
 11 09 2013  18 35  -21.0274 26031.3 -03478.6 -07.6115 26262.7
 11 09 2013  18 36  -21.0270 26030.8 -03478.6 -07.6116 26262.2
 11 09 2013  18 37  -21.0265 26030.4 -03478.6 -07.6116 26261.8
 11 09 2013  18 38  -21.0262 26030.4 -03478.8 -07.6121 26261.9
 11 09 2013  18 39  -21.0261 26030.4 -03479.0 -07.6125 26261.8
 11 09 2013  18 40  -21.0259 26030.4 -03479.1 -07.6129 26261.9
 11 09 2013  18 41  -21.0260 26030.7 -03479.4 -07.6133 26262.3
 11 09 2013  18 42  -21.0257 26030.8 -03479.5 -07.6135 26262.3
 11 09 2013  18 43  -21.0256 26031.0 -03479.7 -07.6138 26262.5
 11 09 2013  18 44  -21.0254 26031.0 -03479.8 -07.6140 26262.6
 11 09 2013  18 45  -21.0252 26030.8 -03479.8 -07.6140 26262.4
 11 09 2013  18 46  -21.0249 26030.6 -03479.6 -07.6139 26262.1
 11 09 2013  18 47  -21.0244 26030.6 -03479.7 -07.6140 26262.1
 11 09 2013  18 48  -21.0242 26030.8 -03479.9 -07.6144 26262.4
 11 09 2013  18 49  -21.0238 26030.6 -03479.9 -07.6145 26262.2
 11 09 2013  18 50  -21.0233 26030.3 -03479.9 -07.6144 26261.9
 11 09 2013  18 51  -21.0231 26030.2 -03479.9 -07.6146 26261.8
 11 09 2013  18 52  -21.0226 26030.2 -03480.0 -07.6147 26261.8
 11 09 2013  18 53  -21.0223 26030.4 -03480.1 -07.6150 26262.0
 11 09 2013  18 54  -21.0219 26030.4 -03480.2 -07.6152 26262.0
 11 09 2013  18 55  -21.0216 26030.4 -03480.3 -07.6154 26262.0
 11 09 2013  18 56  -21.0216 26030.5 -03480.4 -07.6156 26262.2
 11 09 2013  18 57  -21.0216 26030.4 -03480.5 -07.6158 26262.1
 11 09 2013  18 58  -21.0215 26030.3 -03480.5 -07.6157 26261.9
 11 09 2013  18 59  -21.0213 26030.2 -03480.5 -07.6159 26261.9
 11 09 2013  19 00  -21.0209 26030.1 -03480.6 -07.6160 26261.7
 11 09 2013  19 01  -21.0206 26030.0 -03480.7 -07.6162 26261.6
 11 09 2013  19 02  -21.0205 26030.0 -03480.9 -07.6167 26261.7
 11 09 2013  19 03  -21.0207 26030.1 -03481.0 -07.6170 26261.8
 11 09 2013  19 04  -21.0210 26030.1 -03481.1 -07.6172 26261.8
 11 09 2013  19 05  -21.0213 26030.1 -03481.2 -07.6174 26261.9
 11 09 2013  19 06  -21.0214 26030.1 -03481.3 -07.6176 26261.9
 11 09 2013  19 07  -21.0216 26030.2 -03481.4 -07.6178 26262.0
 11 09 2013  19 08  -21.0222 26030.4 -03481.6 -07.6181 26262.2
 11 09 2013  19 09  -21.0226 26030.5 -03481.7 -07.6184 26262.3
 11 09 2013  19 10  -21.0230 26030.6 -03481.8 -07.6186 26262.4
 11 09 2013  19 11  -21.0234 26030.8 -03482.0 -07.6189 26262.7
 11 09 2013  19 12  -21.0238 26031.0 -03482.1 -07.6190 26262.8
 11 09 2013  19 13  -21.0241 26031.1 -03482.1 -07.6191 26263.0
 11 09 2013  19 14  -21.0244 26031.4 -03482.2 -07.6192 26263.3
 11 09 2013  19 15  -21.0244 26031.7 -03482.3 -07.6193 26263.6
 11 09 2013  19 16  -21.0244 26032.0 -03482.4 -07.6195 26263.9
 11 09 2013  19 17  -21.0242 26032.0 -03482.4 -07.6194 26263.9
 11 09 2013  19 18  -21.0239 26032.0 -03482.4 -07.6194 26263.9
 11 09 2013  19 19  -21.0234 26031.7 -03482.3 -07.6193 26263.6
 11 09 2013  19 20  -21.0228 26031.5 -03482.2 -07.6191 26263.4
 11 09 2013  19 21  -21.0222 26031.2 -03482.2 -07.6191 26263.1
 11 09 2013  19 22  -21.0219 26031.0 -03482.1 -07.6191 26262.9
 11 09 2013  19 23  -21.0215 26030.8 -03482.1 -07.6191 26262.6
 11 09 2013  19 24  -21.0212 26030.6 -03482.0 -07.6190 26262.5
 11 09 2013  19 25  -21.0208 26030.4 -03482.0 -07.6190 26262.3
 11 09 2013  19 26  -21.0203 26030.1 -03482.0 -07.6191 26261.9
 11 09 2013  19 27  -21.0199 26029.9 -03482.0 -07.6192 26261.7
 11 09 2013  19 28  -21.0196 26029.7 -03482.0 -07.6193 26261.5
 11 09 2013  19 29  -21.0195 26029.5 -03482.1 -07.6195 26261.4
 11 09 2013  19 30  -21.0193 26029.4 -03482.2 -07.6197 26261.3
 11 09 2013  19 31  -21.0191 26029.4 -03482.3 -07.6199 26261.3
 11 09 2013  19 32  -21.0190 26029.5 -03482.4 -07.6201 26261.4
 11 09 2013  19 33  -21.0189 26029.7 -03482.6 -07.6205 26261.6
 11 09 2013  19 34  -21.0187 26029.8 -03482.7 -07.6208 26261.7
 11 09 2013  19 35  -21.0187 26029.8 -03482.8 -07.6210 26261.8
 11 09 2013  19 36  -21.0186 26029.9 -03483.0 -07.6212 26261.9
 11 09 2013  19 37  -21.0187 26030.0 -03483.1 -07.6215 26262.0
 11 09 2013  19 38  -21.0187 26030.1 -03483.2 -07.6216 26262.1
 11 09 2013  19 39  -21.0187 26030.1 -03483.2 -07.6217 26262.1
 11 09 2013  19 40  -21.0186 26030.1 -03483.2 -07.6218 26262.2
 11 09 2013  19 41  -21.0185 26030.2 -03483.3 -07.6219 26262.3
 11 09 2013  19 42  -21.0184 26030.2 -03483.4 -07.6220 26262.3
 11 09 2013  19 43  -21.0182 26030.2 -03483.3 -07.6219 26262.2
 11 09 2013  19 44  -21.0180 26030.1 -03483.3 -07.6219 26262.1
 11 09 2013  19 45  -21.0178 26030.1 -03483.3 -07.6219 26262.2
 11 09 2013  19 46  -21.0177 26030.2 -03483.4 -07.6220 26262.3
 11 09 2013  19 47  -21.0176 26030.3 -03483.4 -07.6221 26262.4
 11 09 2013  19 48  -21.0175 26030.3 -03483.4 -07.6220 26262.3
 11 09 2013  19 49  -21.0173 26030.2 -03483.4 -07.6220 26262.3
 11 09 2013  19 50  -21.0172 26030.1 -03483.3 -07.6219 26262.2
 11 09 2013  19 51  -21.0170 26030.2 -03483.3 -07.6220 26262.2
 11 09 2013  19 52  -21.0169 26030.2 -03483.4 -07.6220 26262.3
 11 09 2013  19 53  -21.0167 26030.4 -03483.4 -07.6221 26262.5
 11 09 2013  19 54  -21.0166 26030.7 -03483.6 -07.6223 26262.7
 11 09 2013  19 55  -21.0168 26031.2 -03483.7 -07.6225 26263.3
 11 09 2013  19 56  -21.0170 26031.6 -03483.9 -07.6227 26263.7
 11 09 2013  19 57  -21.0172 26031.9 -03483.9 -07.6227 26264.0
 11 09 2013  19 58  -21.0175 26032.0 -03483.9 -07.6226 26264.1
 11 09 2013  19 59  -21.0178 26032.1 -03483.8 -07.6225 26264.2
 11 09 2013  20 00  -21.0179 26032.1 -03483.7 -07.6223 26264.2
 11 09 2013  20 01  -21.0181 26032.2 -03483.7 -07.6221 26264.2
 11 09 2013  20 02  -21.0183 26032.2 -03483.6 -07.6220 26264.3
 11 09 2013  20 03  -21.0184 26032.3 -03483.6 -07.6220 26264.4
 11 09 2013  20 04  -21.0184 26032.5 -03483.7 -07.6220 26264.5
 11 09 2013  20 05  -21.0184 26032.6 -03483.6 -07.6219 26264.6
 11 09 2013  20 06  -21.0184 26032.6 -03483.5 -07.6217 26264.6
 11 09 2013  20 07  -21.0184 26032.5 -03483.4 -07.6215 26264.5
 11 09 2013  20 08  -21.0184 26032.4 -03483.3 -07.6213 26264.5
 11 09 2013  20 09  -21.0183 26032.4 -03483.3 -07.6212 26264.4
 11 09 2013  20 10  -21.0182 26032.4 -03483.2 -07.6210 26264.4
 11 09 2013  20 11  -21.0181 26032.4 -03483.1 -07.6209 26264.4
 11 09 2013  20 12  -21.0179 26032.3 -03483.1 -07.6208 26264.3
 11 09 2013  20 13  -21.0177 26032.3 -03483.0 -07.6206 26264.2
 11 09 2013  20 14  -21.0175 26032.2 -03482.9 -07.6205 26264.2
 11 09 2013  20 15  -21.0172 26032.2 -03482.9 -07.6205 26264.2
 11 09 2013  20 16  -21.0170 26032.3 -03482.9 -07.6204 26264.2
 11 09 2013  20 17  -21.0168 26032.3 -03482.9 -07.6204 26264.3
 11 09 2013  20 18  -21.0163 26032.3 -03482.9 -07.6205 26264.2
 11 09 2013  20 19  -21.0158 26032.4 -03483.0 -07.6206 26264.4
 11 09 2013  20 20  -21.0155 26032.7 -03483.1 -07.6208 26264.6
 11 09 2013  20 21  -21.0151 26032.9 -03483.3 -07.6211 26264.9
 11 09 2013  20 22  -21.0148 26033.3 -03483.5 -07.6214 26265.3
 11 09 2013  20 23  -21.0146 26033.6 -03483.6 -07.6216 26265.6
 11 09 2013  20 24  -21.0142 26033.6 -03483.6 -07.6215 26265.7
 11 09 2013  20 25  -21.0139 26033.7 -03483.6 -07.6216 26265.7
 11 09 2013  20 26  -21.0137 26033.7 -03483.6 -07.6215 26265.7
 11 09 2013  20 27  -21.0135 26033.7 -03483.5 -07.6214 26265.7
 11 09 2013  20 28  -21.0133 26033.6 -03483.5 -07.6213 26265.6
 11 09 2013  20 29  -21.0133 26033.6 -03483.4 -07.6211 26265.6
 11 09 2013  20 30  -21.0131 26033.5 -03483.3 -07.6210 26265.5
 11 09 2013  20 31  -21.0130 26033.3 -03483.4 -07.6211 26265.3
 11 09 2013  20 32  -21.0129 26033.2 -03483.3 -07.6210 26265.2
 11 09 2013  20 33  -21.0129 26033.2 -03483.3 -07.6209 26265.2
 11 09 2013  20 34  -21.0128 26033.2 -03483.3 -07.6210 26265.2
 11 09 2013  20 35  -21.0128 26033.4 -03483.4 -07.6212 26265.4
 11 09 2013  20 36  -21.0126 26033.5 -03483.5 -07.6213 26265.5
 11 09 2013  20 37  -21.0124 26033.7 -03483.6 -07.6215 26265.7
 11 09 2013  20 38  -21.0124 26033.9 -03483.7 -07.6216 26266.0
 11 09 2013  20 39  -21.0124 26034.3 -03483.8 -07.6218 26266.3
 11 09 2013  20 40  -21.0124 26034.6 -03484.0 -07.6221 26266.7
 11 09 2013  20 41  -21.0124 26034.9 -03484.1 -07.6223 26267.0
 11 09 2013  20 42  -21.0125 26035.0 -03484.2 -07.6224 26267.2
 11 09 2013  20 43  -21.0125 26035.1 -03484.2 -07.6223 26267.2
 11 09 2013  20 44  -21.0126 26035.1 -03484.1 -07.6222 26267.2
 11 09 2013  20 45  -21.0125 26035.1 -03484.1 -07.6222 26267.2
 11 09 2013  20 46  -21.0126 26035.2 -03484.1 -07.6222 26267.3
 11 09 2013  20 47  -21.0127 26035.1 -03484.1 -07.6221 26267.2
 11 09 2013  20 48  -21.0128 26035.0 -03484.0 -07.6220 26267.1
 11 09 2013  20 49  -21.0129 26034.9 -03484.0 -07.6219 26267.0
 11 09 2013  20 50  -21.0131 26034.7 -03483.9 -07.6218 26266.8
 11 09 2013  20 51  -21.0132 26034.6 -03483.8 -07.6217 26266.7
 11 09 2013  20 52  -21.0133 26034.5 -03483.8 -07.6218 26266.6
 11 09 2013  20 53  -21.0134 26034.6 -03483.9 -07.6218 26266.7
 11 09 2013  20 54  -21.0135 26034.6 -03483.9 -07.6218 26266.7
 11 09 2013  20 55  -21.0136 26034.7 -03483.9 -07.6219 26266.8
 11 09 2013  20 56  -21.0135 26034.9 -03484.1 -07.6222 26267.0
 11 09 2013  20 57  -21.0136 26035.1 -03484.2 -07.6224 26267.2
 11 09 2013  20 58  -21.0136 26035.4 -03484.3 -07.6225 26267.5
 11 09 2013  20 59  -21.0137 26035.6 -03484.4 -07.6227 26267.7
 11 09 2013  21 00  -21.0137 26035.5 -03484.4 -07.6227 26267.7
 11 09 2013  21 01  -21.0137 26035.6 -03484.4 -07.6226 26267.7
 11 09 2013  21 02  -21.0136 26035.6 -03484.4 -07.6227 26267.7
 11 09 2013  21 03  -21.0136 26035.5 -03484.4 -07.6226 26267.6
 11 09 2013  21 04  -21.0135 26035.4 -03484.3 -07.6226 26267.5
 11 09 2013  21 05  -21.0134 26035.3 -03484.3 -07.6225 26267.4
 11 09 2013  21 06  -21.0133 26035.2 -03484.3 -07.6226 26267.4
 11 09 2013  21 07  -21.0133 26035.2 -03484.4 -07.6227 26267.4
 11 09 2013  21 08  -21.0133 26035.3 -03484.4 -07.6229 26267.4
 11 09 2013  21 09  -21.0133 26035.4 -03484.5 -07.6230 26267.5
 11 09 2013  21 10  -21.0133 26035.4 -03484.6 -07.6232 26267.5
 11 09 2013  21 11  -21.0134 26035.2 -03484.5 -07.6231 26267.3
 11 09 2013  21 12  -21.0135 26035.1 -03484.5 -07.6232 26267.3
 11 09 2013  21 13  -21.0137 26035.3 -03484.6 -07.6233 26267.4
 11 09 2013  21 14  -21.0137 26035.4 -03484.7 -07.6235 26267.6
 11 09 2013  21 15  -21.0137 26035.6 -03484.9 -07.6238 26267.8
 11 09 2013  21 16  -21.0138 26035.8 -03485.0 -07.6240 26268.0
 11 09 2013  21 17  -21.0138 26036.0 -03485.1 -07.6242 26268.2
 11 09 2013  21 18  -21.0138 26036.1 -03485.2 -07.6243 26268.3
 11 09 2013  21 19  -21.0140 26036.2 -03485.2 -07.6243 26268.4
 11 09 2013  21 20  -21.0142 26036.1 -03485.2 -07.6242 26268.3
 11 09 2013  21 21  -21.0143 26036.1 -03485.1 -07.6241 26268.3
 11 09 2013  21 22  -21.0143 26036.1 -03485.0 -07.6239 26268.3
 11 09 2013  21 23  -21.0143 26036.0 -03485.0 -07.6239 26268.2
 11 09 2013  21 24  -21.0144 26036.0 -03485.0 -07.6240 26268.2
 11 09 2013  21 25  -21.0145 26035.9 -03485.0 -07.6240 26268.1
 11 09 2013  21 26  -21.0145 26036.0 -03485.0 -07.6240 26268.2
 11 09 2013  21 27  -21.0145 26036.2 -03485.2 -07.6243 26268.4
 11 09 2013  21 28  -21.0145 26036.3 -03485.3 -07.6244 26268.5
 11 09 2013  21 29  -21.0146 26036.4 -03485.3 -07.6244 26268.7
 11 09 2013  21 30  -21.0146 26036.4 -03485.3 -07.6245 26268.7
 11 09 2013  21 31  -21.0147 26036.4 -03485.3 -07.6245 26268.6
 11 09 2013  21 32  -21.0148 26036.3 -03485.3 -07.6245 26268.6
 11 09 2013  21 33  -21.0150 26036.2 -03485.3 -07.6244 26268.4
 11 09 2013  21 34  -21.0151 26036.1 -03485.2 -07.6243 26268.4
 11 09 2013  21 35  -21.0152 26036.1 -03485.2 -07.6243 26268.3
 11 09 2013  21 36  -21.0152 26036.0 -03485.2 -07.6244 26268.3
 11 09 2013  21 37  -21.0154 26036.0 -03485.2 -07.6244 26268.2
 11 09 2013  21 38  -21.0155 26036.0 -03485.2 -07.6244 26268.2
 11 09 2013  21 39  -21.0156 26035.9 -03485.2 -07.6244 26268.2
 11 09 2013  21 40  -21.0157 26035.9 -03485.3 -07.6245 26268.2
 11 09 2013  21 41  -21.0157 26035.9 -03485.3 -07.6245 26268.2
 11 09 2013  21 42  -21.0158 26036.0 -03485.3 -07.6245 26268.2
 11 09 2013  21 43  -21.0159 26036.0 -03485.3 -07.6245 26268.2
 11 09 2013  21 44  -21.0160 26036.0 -03485.3 -07.6245 26268.2
 11 09 2013  21 45  -21.0161 26036.0 -03485.3 -07.6245 26268.2
 11 09 2013  21 46  -21.0162 26035.9 -03485.3 -07.6245 26268.2
 11 09 2013  21 47  -21.0164 26035.9 -03485.3 -07.6246 26268.1
 11 09 2013  21 48  -21.0165 26035.9 -03485.3 -07.6245 26268.1
 11 09 2013  21 49  -21.0167 26035.9 -03485.3 -07.6245 26268.1
 11 09 2013  21 50  -21.0168 26035.8 -03485.3 -07.6245 26268.1
 11 09 2013  21 51  -21.0169 26035.7 -03485.2 -07.6245 26268.0
 11 09 2013  21 52  -21.0171 26035.5 -03485.1 -07.6244 26267.7
 11 09 2013  21 53  -21.0172 26035.2 -03485.0 -07.6241 26267.4
 11 09 2013  21 54  -21.0174 26035.0 -03485.0 -07.6241 26267.2
 11 09 2013  21 55  -21.0174 26035.0 -03484.9 -07.6240 26267.2
 11 09 2013  21 56  -21.0176 26034.9 -03484.9 -07.6240 26267.1
 11 09 2013  21 57  -21.0176 26035.0 -03485.0 -07.6241 26267.2
 11 09 2013  21 58  -21.0177 26035.1 -03485.0 -07.6242 26267.3
 11 09 2013  21 59  -21.0178 26035.2 -03485.1 -07.6244 26267.4
 11 09 2013  22 00  -21.0178 26035.4 -03485.2 -07.6245 26267.6
 11 09 2013  22 01  -21.0180 26035.6 -03485.3 -07.6247 26267.8
 11 09 2013  22 02  -21.0182 26035.7 -03485.4 -07.6248 26268.0
 11 09 2013  22 03  -21.0184 26035.7 -03485.4 -07.6248 26267.9
 11 09 2013  22 04  -21.0186 26035.6 -03485.3 -07.6247 26267.9
 11 09 2013  22 05  -21.0188 26035.6 -03485.2 -07.6245 26267.8
 11 09 2013  22 06  -21.0191 26035.4 -03485.2 -07.6244 26267.6
 11 09 2013  22 07  -21.0193 26035.3 -03485.1 -07.6243 26267.5
 11 09 2013  22 08  -21.0196 26035.3 -03485.1 -07.6242 26267.5
 11 09 2013  22 09  -21.0198 26035.2 -03485.0 -07.6242 26267.4
 11 09 2013  22 10  -21.0199 26035.1 -03485.0 -07.6240 26267.3
 11 09 2013  22 11  -21.0201 26034.9 -03484.9 -07.6239 26267.1
 11 09 2013  22 12  -21.0203 26034.7 -03484.8 -07.6237 26266.9
 11 09 2013  22 13  -21.0204 26034.5 -03484.6 -07.6235 26266.7
 11 09 2013  22 14  -21.0206 26034.4 -03484.6 -07.6235 26266.5
 11 09 2013  22 15  -21.0207 26034.2 -03484.5 -07.6233 26266.4
 11 09 2013  22 16  -21.0208 26034.0 -03484.4 -07.6232 26266.2
 11 09 2013  22 17  -21.0208 26033.8 -03484.3 -07.6231 26265.9
 11 09 2013  22 18  -21.0208 26033.5 -03484.2 -07.6229 26265.6
 11 09 2013  22 19  -21.0207 26033.3 -03484.1 -07.6228 26265.4
 11 09 2013  22 20  -21.0208 26033.2 -03484.1 -07.6228 26265.3
 11 09 2013  22 21  -21.0207 26033.1 -03484.1 -07.6228 26265.3
 11 09 2013  22 22  -21.0208 26033.0 -03484.1 -07.6228 26265.1
 11 09 2013  22 23  -21.0209 26032.9 -03484.1 -07.6229 26265.0
 11 09 2013  22 24  -21.0209 26032.9 -03484.2 -07.6230 26265.0
 11 09 2013  22 25  -21.0210 26032.9 -03484.2 -07.6231 26265.0
 11 09 2013  22 26  -21.0211 26032.7 -03484.2 -07.6231 26264.9
 11 09 2013  22 27  -21.0212 26032.5 -03484.1 -07.6229 26264.6
 11 09 2013  22 28  -21.0215 26032.1 -03483.9 -07.6227 26264.2
 11 09 2013  22 29  -21.0218 26031.8 -03483.8 -07.6226 26263.9
 11 09 2013  22 30  -21.0221 26031.7 -03483.8 -07.6226 26263.7
 11 09 2013  22 31  -21.0223 26031.6 -03483.8 -07.6227 26263.7
 11 09 2013  22 32  -21.0226 26031.5 -03483.8 -07.6226 26263.6
 11 09 2013  22 33  -21.0227 26031.4 -03483.9 -07.6227 26263.5
 11 09 2013  22 34  -21.0228 26031.4 -03483.9 -07.6228 26263.5
 11 09 2013  22 35  -21.0229 26031.3 -03483.9 -07.6229 26263.4
 11 09 2013  22 36  -21.0231 26031.2 -03483.9 -07.6228 26263.2
 11 09 2013  22 37  -21.0233 26031.0 -03483.8 -07.6227 26263.1
 11 09 2013  22 38  -21.0233 26031.0 -03483.8 -07.6227 26263.1
 11 09 2013  22 39  -21.0234 26030.9 -03483.7 -07.6226 26263.0
 11 09 2013  22 40  -21.0234 26030.8 -03483.8 -07.6227 26262.9
 11 09 2013  22 41  -21.0234 26030.8 -03483.8 -07.6228 26262.9
 11 09 2013  22 42  -21.0233 26030.8 -03483.8 -07.6229 26262.9
 11 09 2013  22 43  -21.0233 26030.6 -03483.8 -07.6228 26262.7
 11 09 2013  22 44  -21.0232 26030.5 -03483.8 -07.6228 26262.6
 11 09 2013  22 45  -21.0234 26030.2 -03483.7 -07.6226 26262.3
 11 09 2013  22 46  -21.0233 26030.0 -03483.6 -07.6226 26262.1
 11 09 2013  22 47  -21.0234 26029.7 -03483.5 -07.6225 26261.7
 11 09 2013  22 48  -21.0234 26029.7 -03483.5 -07.6225 26261.7
 11 09 2013  22 49  -21.0237 26029.5 -03483.5 -07.6225 26261.5
 11 09 2013  22 50  -21.0237 26029.3 -03483.5 -07.6225 26261.3
 11 09 2013  22 51  -21.0239 26029.2 -03483.5 -07.6225 26261.2
 11 09 2013  22 52  -21.0239 26029.1 -03483.5 -07.6226 26261.2
 11 09 2013  22 53  -21.0239 26028.8 -03483.4 -07.6225 26260.9
 11 09 2013  22 54  -21.0240 26028.8 -03483.4 -07.6226 26260.9
 11 09 2013  22 55  -21.0241 26029.0 -03483.5 -07.6227 26261.0
 11 09 2013  22 56  -21.0241 26029.1 -03483.6 -07.6229 26261.2
 11 09 2013  22 57  -21.0241 26029.3 -03483.7 -07.6230 26261.3
 11 09 2013  22 58  -21.0242 26029.3 -03483.8 -07.6232 26261.5
 11 09 2013  22 59  -21.0242 26029.4 -03483.8 -07.6233 26261.5
 11 09 2013  23 00  -21.0242 26029.5 -03483.9 -07.6234 26261.6
 11 09 2013  23 01  -21.0244 26029.3 -03483.9 -07.6234 26261.4
 11 09 2013  23 02  -21.0244 26029.3 -03483.9 -07.6234 26261.4
 11 09 2013  23 03  -21.0244 26029.4 -03483.9 -07.6235 26261.5
 11 09 2013  23 04  -21.0244 26029.4 -03484.0 -07.6236 26261.5
 11 09 2013  23 05  -21.0243 26029.5 -03484.0 -07.6237 26261.7
 11 09 2013  23 06  -21.0242 26029.5 -03484.1 -07.6238 26261.7
 11 09 2013  23 07  -21.0242 26029.5 -03484.1 -07.6238 26261.6
 11 09 2013  23 08  -21.0243 26029.5 -03484.1 -07.6238 26261.6
 11 09 2013  23 09  -21.0243 26029.4 -03484.1 -07.6239 26261.6
 11 09 2013  23 10  -21.0242 26029.5 -03484.1 -07.6239 26261.7
 11 09 2013  23 11  -21.0241 26029.5 -03484.2 -07.6239 26261.7
 11 09 2013  23 12  -21.0240 26029.5 -03484.2 -07.6240 26261.7
 11 09 2013  23 13  -21.0239 26029.5 -03484.2 -07.6240 26261.7
 11 09 2013  23 14  -21.0238 26029.5 -03484.2 -07.6240 26261.7
 11 09 2013  23 15  -21.0236 26029.5 -03484.2 -07.6241 26261.7
 11 09 2013  23 16  -21.0235 26029.5 -03484.2 -07.6241 26261.7
 11 09 2013  23 17  -21.0233 26029.4 -03484.2 -07.6242 26261.6
 11 09 2013  23 18  -21.0231 26029.2 -03484.2 -07.6241 26261.4
 11 09 2013  23 19  -21.0229 26029.1 -03484.2 -07.6241 26261.2
 11 09 2013  23 20  -21.0227 26029.1 -03484.2 -07.6241 26261.2
 11 09 2013  23 21  -21.0225 26029.3 -03484.3 -07.6243 26261.5
 11 09 2013  23 22  -21.0223 26029.6 -03484.5 -07.6247 26261.7
 11 09 2013  23 23  -21.0223 26029.8 -03484.7 -07.6250 26262.0
 11 09 2013  23 24  -21.0223 26029.9 -03484.8 -07.6252 26262.1
 11 09 2013  23 25  -21.0225 26029.5 -03484.6 -07.6249 26261.7
 11 09 2013  23 26  -21.0227 26028.9 -03484.3 -07.6244 26261.1
 11 09 2013  23 27  -21.0226 26028.4 -03484.0 -07.6240 26260.5
 11 09 2013  23 28  -21.0225 26028.2 -03484.0 -07.6239 26260.3
 11 09 2013  23 29  -21.0225 26028.3 -03484.1 -07.6242 26260.5
 11 09 2013  23 30  -21.0225 26028.5 -03484.3 -07.6245 26260.7
 11 09 2013  23 31  -21.0226 26028.5 -03484.4 -07.6247 26260.7
 11 09 2013  23 32  -21.0227 26028.3 -03484.3 -07.6247 26260.5
 11 09 2013  23 33  -21.0227 26028.0 -03484.2 -07.6244 26260.2
 11 09 2013  23 34  -21.0229 26027.6 -03484.0 -07.6242 26259.8
 11 09 2013  23 35  -21.0230 26027.5 -03484.0 -07.6242 26259.7
 11 09 2013  23 36  -21.0231 26027.7 -03484.1 -07.6244 26259.8
 11 09 2013  23 37  -21.0231 26027.8 -03484.3 -07.6247 26260.0
 11 09 2013  23 38  -21.0232 26028.0 -03484.4 -07.6249 26260.2
 11 09 2013  23 39  -21.0232 26028.3 -03484.5 -07.6252 26260.5
 11 09 2013  23 40  -21.0232 26028.5 -03484.7 -07.6254 26260.8
 11 09 2013  23 41  -21.0232 26028.6 -03484.7 -07.6254 26260.8
 11 09 2013  23 42  -21.0232 26028.7 -03484.8 -07.6255 26260.9
 11 09 2013  23 43  -21.0234 26028.5 -03484.7 -07.6255 26260.7
 11 09 2013  23 44  -21.0233 26028.9 -03484.9 -07.6257 26261.1
 11 09 2013  23 45  -21.0232 26029.1 -03485.0 -07.6259 26261.4
 11 09 2013  23 46  -21.0233 26029.2 -03485.0 -07.6260 26261.5
 11 09 2013  23 47  -21.0232 26029.6 -03485.2 -07.6261 26261.8
 11 09 2013  23 48  -21.0233 26029.5 -03485.2 -07.6262 26261.8
 11 09 2013  23 49  -21.0233 26029.6 -03485.1 -07.6260 26261.8
 11 09 2013  23 50  -21.0231 26029.7 -03485.2 -07.6261 26261.9
 11 09 2013  23 51  -21.0229 26029.8 -03485.2 -07.6261 26262.1
 11 09 2013  23 52  -21.0227 26029.8 -03485.2 -07.6260 26262.1
 11 09 2013  23 53  -21.0223 26030.2 -03485.3 -07.6262 26262.5
 11 09 2013  23 54  -21.0220 26030.3 -03485.4 -07.6264 26262.6
 11 09 2013  23 55  -21.0223 26029.9 -03485.2 -07.6261 26262.2
 11 09 2013  23 56  -21.0222 26029.7 -03485.1 -07.6259 26262.0
 11 09 2013  23 57  -21.0221 26029.7 -03485.1 -07.6259 26262.0
