SAO LUIS EMBRACE-03 <289> 1 Min. Reported data

 DD MM YYYY  HH MM   D(Deg)  H(nT)   Z(nT)   I(Deg)   F(nT)

 16 10 2013  00 00  -21.0180 26003.5 -03493.9 -07.6525 26237.2
 16 10 2013  00 01  -21.0176 26003.5 -03493.9 -07.6525 26237.2
 16 10 2013  00 02  -21.0176 26003.7 -03494.0 -07.6527 26237.3
 16 10 2013  00 03  -21.0174 26003.7 -03494.0 -07.6528 26237.4
 16 10 2013  00 04  -21.0167 26003.9 -03494.1 -07.6529 26237.6
 16 10 2013  00 05  -21.0164 26003.8 -03494.2 -07.6531 26237.6
 16 10 2013  00 06  -21.0160 26003.9 -03494.2 -07.6532 26237.6
 16 10 2013  00 07  -21.0154 26004.0 -03494.3 -07.6533 26237.7
 16 10 2013  00 08  -21.0147 26004.2 -03494.4 -07.6534 26237.9
 16 10 2013  00 09  -21.0141 26004.3 -03494.6 -07.6537 26238.1
 16 10 2013  00 10  -21.0136 26004.4 -03494.6 -07.6538 26238.1
 16 10 2013  00 11  -21.0131 26004.3 -03494.6 -07.6539 26238.1
 16 10 2013  00 12  -21.0126 26004.2 -03494.6 -07.6539 26238.0
 16 10 2013  00 13  -21.0121 26004.0 -03494.6 -07.6538 26237.7
 16 10 2013  00 14  -21.0116 26003.8 -03494.5 -07.6537 26237.5
 16 10 2013  00 15  -21.0110 26003.5 -03494.4 -07.6536 26237.3
 16 10 2013  00 16  -21.0105 26003.2 -03494.3 -07.6535 26236.9
 16 10 2013  00 17  -21.0104 26002.9 -03494.2 -07.6534 26236.6
 16 10 2013  00 18  -21.0105 26002.7 -03494.3 -07.6535 26236.5
 16 10 2013  00 19  -21.0110 26002.7 -03494.3 -07.6538 26236.5
 16 10 2013  00 20  -21.0115 26002.6 -03494.4 -07.6539 26236.3
 16 10 2013  00 21  -21.0118 26002.5 -03494.4 -07.6540 26236.3
 16 10 2013  00 22  -21.0119 26002.5 -03494.5 -07.6541 26236.2
 16 10 2013  00 23  -21.0121 26002.3 -03494.4 -07.6540 26236.1
 16 10 2013  00 24  -21.0123 26002.2 -03494.4 -07.6540 26235.9
 16 10 2013  00 25  -21.0123 26002.3 -03494.4 -07.6541 26236.1
 16 10 2013  00 26  -21.0125 26002.5 -03494.6 -07.6543 26236.3
 16 10 2013  00 27  -21.0128 26002.8 -03494.8 -07.6546 26236.6
 16 10 2013  00 28  -21.0127 26002.8 -03494.8 -07.6547 26236.6
 16 10 2013  00 29  -21.0126 26002.6 -03494.7 -07.6545 26236.4
 16 10 2013  00 30  -21.0122 26002.7 -03494.7 -07.6545 26236.5
 16 10 2013  00 31  -21.0121 26002.8 -03494.7 -07.6546 26236.6
 16 10 2013  00 32  -21.0118 26002.9 -03494.8 -07.6547 26236.7
 16 10 2013  00 33  -21.0114 26002.9 -03494.8 -07.6546 26236.7
 16 10 2013  00 34  -21.0110 26002.7 -03494.7 -07.6545 26236.5
 16 10 2013  00 35  -21.0104 26002.3 -03494.6 -07.6543 26236.1
 16 10 2013  00 36  -21.0099 26002.0 -03494.4 -07.6541 26235.7
 16 10 2013  00 37  -21.0095 26001.6 -03494.2 -07.6539 26235.3
 16 10 2013  00 38  -21.0093 26001.2 -03494.2 -07.6538 26235.0
 16 10 2013  00 39  -21.0094 26000.9 -03494.1 -07.6537 26234.7
 16 10 2013  00 40  -21.0095 26000.8 -03494.1 -07.6537 26234.5
 16 10 2013  00 41  -21.0095 26000.7 -03494.1 -07.6537 26234.4
 16 10 2013  00 42  -21.0097 26000.5 -03494.1 -07.6538 26234.2
 16 10 2013  00 43  -21.0098 26000.4 -03494.1 -07.6538 26234.1
 16 10 2013  00 44  -21.0101 26000.3 -03494.1 -07.6539 26234.1
 16 10 2013  00 45  -21.0103 26000.2 -03494.1 -07.6540 26234.0
 16 10 2013  00 46  -21.0105 26000.1 -03494.2 -07.6541 26233.9
 16 10 2013  00 47  -21.0109 26000.1 -03494.2 -07.6542 26233.9
 16 10 2013  00 48  -21.0113 26000.2 -03494.3 -07.6543 26233.9
 16 10 2013  00 49  -21.0115 26000.2 -03494.3 -07.6545 26234.0
 16 10 2013  00 50  -21.0120 26000.3 -03494.4 -07.6547 26234.0
 16 10 2013  00 51  -21.0122 26000.3 -03494.5 -07.6547 26234.1
 16 10 2013  00 52  -21.0124 26000.4 -03494.5 -07.6548 26234.2
 16 10 2013  00 53  -21.0127 26000.5 -03494.6 -07.6549 26234.3
 16 10 2013  00 54  -21.0131 26000.5 -03494.6 -07.6550 26234.3
 16 10 2013  00 55  -21.0136 26000.5 -03494.7 -07.6551 26234.3
 16 10 2013  00 56  -21.0140 26000.5 -03494.7 -07.6551 26234.3
 16 10 2013  00 57  -21.0143 26000.5 -03494.7 -07.6552 26234.3
 16 10 2013  00 58  -21.0147 26000.5 -03494.7 -07.6551 26234.3
 16 10 2013  00 59  -21.0149 26000.3 -03494.6 -07.6550 26234.1
 16 10 2013  01 00  -21.0151 25999.9 -03494.4 -07.6546 26233.6
 16 10 2013  01 01  -21.0153 25999.6 -03494.3 -07.6545 26233.4
 16 10 2013  01 02  -21.0155 25999.4 -03494.2 -07.6543 26233.1
 16 10 2013  01 03  -21.0158 25999.0 -03494.0 -07.6541 26232.7
 16 10 2013  01 04  -21.0158 25998.7 -03493.9 -07.6540 26232.4
 16 10 2013  01 05  -21.0156 25998.6 -03493.9 -07.6539 26232.3
 16 10 2013  01 06  -21.0155 25998.8 -03494.0 -07.6542 26232.6
 16 10 2013  01 07  -21.0155 25999.0 -03494.2 -07.6546 26232.7
 16 10 2013  01 08  -21.0154 25999.2 -03494.4 -07.6549 26232.9
 16 10 2013  01 09  -21.0155 25999.3 -03494.5 -07.6551 26233.1
 16 10 2013  01 10  -21.0156 25999.2 -03494.5 -07.6552 26233.0
 16 10 2013  01 11  -21.0157 25999.0 -03494.5 -07.6552 26232.8
 16 10 2013  01 12  -21.0157 25998.8 -03494.4 -07.6551 26232.6
 16 10 2013  01 13  -21.0157 25998.6 -03494.4 -07.6551 26232.4
 16 10 2013  01 14  -21.0162 25998.3 -03494.3 -07.6550 26232.1
 16 10 2013  01 15  -21.0166 25998.1 -03494.3 -07.6550 26231.9
 16 10 2013  01 16  -21.0170 25998.0 -03494.3 -07.6550 26231.8
 16 10 2013  01 17  -21.0176 25997.7 -03494.2 -07.6549 26231.5
 16 10 2013  01 18  -21.0180 25997.5 -03494.1 -07.6548 26231.3
 16 10 2013  01 19  -21.0183 25997.2 -03494.0 -07.6546 26231.0
 16 10 2013  01 20  -21.0184 25997.1 -03493.9 -07.6545 26230.8
 16 10 2013  01 21  -21.0183 25996.8 -03493.9 -07.6544 26230.6
 16 10 2013  01 22  -21.0183 25996.6 -03493.8 -07.6544 26230.4
 16 10 2013  01 23  -21.0183 25996.4 -03493.8 -07.6543 26230.1
 16 10 2013  01 24  -21.0182 25996.2 -03493.7 -07.6542 26229.9
 16 10 2013  01 25  -21.0182 25995.9 -03493.6 -07.6542 26229.6
 16 10 2013  01 26  -21.0183 25995.7 -03493.6 -07.6541 26229.4
 16 10 2013  01 27  -21.0184 25995.4 -03493.5 -07.6541 26229.1
 16 10 2013  01 28  -21.0184 25995.2 -03493.5 -07.6542 26228.9
 16 10 2013  01 29  -21.0185 25995.1 -03493.6 -07.6543 26228.9
 16 10 2013  01 30  -21.0187 25995.0 -03493.6 -07.6544 26228.7
 16 10 2013  01 31  -21.0188 25995.0 -03493.6 -07.6545 26228.7
 16 10 2013  01 32  -21.0189 25994.9 -03493.7 -07.6547 26228.6
 16 10 2013  01 33  -21.0191 25994.8 -03493.8 -07.6548 26228.5
 16 10 2013  01 34  -21.0192 25994.9 -03493.9 -07.6550 26228.6
 16 10 2013  01 35  -21.0193 25994.9 -03493.9 -07.6551 26228.7
 16 10 2013  01 36  -21.0194 25994.8 -03493.9 -07.6552 26228.6
 16 10 2013  01 37  -21.0197 25994.7 -03493.9 -07.6552 26228.5
 16 10 2013  01 38  -21.0201 25994.6 -03494.0 -07.6553 26228.3
 16 10 2013  01 39  -21.0204 25994.5 -03494.0 -07.6553 26228.2
 16 10 2013  01 40  -21.0207 25994.5 -03494.0 -07.6554 26228.3
 16 10 2013  01 41  -21.0210 25994.8 -03494.2 -07.6558 26228.6
 16 10 2013  01 42  -21.0213 25995.2 -03494.5 -07.6562 26229.0
 16 10 2013  01 43  -21.0216 25995.4 -03494.6 -07.6564 26229.3
 16 10 2013  01 44  -21.0221 25995.7 -03494.8 -07.6568 26229.6
 16 10 2013  01 45  -21.0226 25996.0 -03495.0 -07.6571 26229.9
 16 10 2013  01 46  -21.0226 25996.3 -03495.1 -07.6573 26230.2
 16 10 2013  01 47  -21.0228 25996.5 -03495.2 -07.6573 26230.4
 16 10 2013  01 48  -21.0228 25996.7 -03495.3 -07.6575 26230.7
 16 10 2013  01 49  -21.0227 25997.0 -03495.4 -07.6577 26230.9
 16 10 2013  01 50  -21.0227 25997.4 -03495.6 -07.6580 26231.4
 16 10 2013  01 51  -21.0230 25998.0 -03495.8 -07.6583 26231.9
 16 10 2013  01 52  -21.0232 25998.4 -03496.0 -07.6587 26232.4
 16 10 2013  01 53  -21.0232 25998.8 -03496.2 -07.6590 26232.9
 16 10 2013  01 54  -21.0232 25999.3 -03496.4 -07.6592 26233.3
 16 10 2013  01 55  -21.0233 25999.6 -03496.5 -07.6594 26233.6
 16 10 2013  01 56  -21.0235 26000.0 -03496.7 -07.6596 26234.1
 16 10 2013  01 57  -21.0243 26000.3 -03496.8 -07.6598 26234.4
 16 10 2013  01 58  -21.0248 26000.8 -03497.0 -07.6601 26234.9
 16 10 2013  01 59  -21.0251 26001.4 -03497.2 -07.6603 26235.5
 16 10 2013  02 00  -21.0252 26001.8 -03497.3 -07.6605 26235.9
 16 10 2013  02 01  -21.0252 26002.1 -03497.4 -07.6605 26236.2
 16 10 2013  02 02  -21.0250 26002.4 -03497.4 -07.6605 26236.5
 16 10 2013  02 03  -21.0246 26002.9 -03497.5 -07.6606 26237.1
 16 10 2013  02 04  -21.0242 26003.3 -03497.6 -07.6607 26237.5
 16 10 2013  02 05  -21.0247 26003.6 -03497.8 -07.6609 26237.8
 16 10 2013  02 06  -21.0250 26004.2 -03498.0 -07.6613 26238.4
 16 10 2013  02 07  -21.0249 26004.3 -03498.0 -07.6612 26238.5
 16 10 2013  02 08  -21.0246 26004.5 -03497.9 -07.6610 26238.7
 16 10 2013  02 09  -21.0245 26005.2 -03498.2 -07.6614 26239.5
 16 10 2013  02 10  -21.0247 26006.1 -03498.6 -07.6619 26240.3
 16 10 2013  02 11  -21.0250 26006.8 -03498.9 -07.6624 26241.1
 16 10 2013  02 12  -21.0253 26007.0 -03498.9 -07.6624 26241.3
 16 10 2013  02 13  -21.0253 26007.2 -03498.9 -07.6622 26241.5
 16 10 2013  02 14  -21.0254 26007.5 -03498.8 -07.6621 26241.7
 16 10 2013  02 15  -21.0259 26007.8 -03498.9 -07.6622 26242.1
 16 10 2013  02 16  -21.0267 26007.9 -03498.9 -07.6622 26242.2
 16 10 2013  02 17  -21.0276 26007.8 -03498.7 -07.6618 26242.1
 16 10 2013  02 18  -21.0285 26007.6 -03498.6 -07.6614 26241.9
 16 10 2013  02 19  -21.0291 26007.4 -03498.3 -07.6610 26241.6
 16 10 2013  02 20  -21.0294 26007.2 -03498.1 -07.6605 26241.4
 16 10 2013  02 21  -21.0297 26006.9 -03497.8 -07.6600 26241.1
 16 10 2013  02 22  -21.0297 26006.4 -03497.4 -07.6594 26240.5
 16 10 2013  02 23  -21.0293 26005.9 -03497.1 -07.6588 26240.0
 16 10 2013  02 24  -21.0287 26005.6 -03496.9 -07.6584 26239.6
 16 10 2013  02 25  -21.0283 26005.3 -03496.7 -07.6581 26239.4
 16 10 2013  02 26  -21.0279 26005.4 -03496.7 -07.6582 26239.4
 16 10 2013  02 27  -21.0268 26005.4 -03496.7 -07.6582 26239.4
 16 10 2013  02 28  -21.0259 26005.5 -03496.8 -07.6583 26239.5
 16 10 2013  02 29  -21.0254 26005.5 -03496.9 -07.6585 26239.6
 16 10 2013  02 30  -21.0251 26005.6 -03497.0 -07.6587 26239.7
 16 10 2013  02 31  -21.0250 26005.5 -03497.1 -07.6588 26239.6
 16 10 2013  02 32  -21.0249 26005.1 -03496.9 -07.6586 26239.2
 16 10 2013  02 33  -21.0250 26004.5 -03496.6 -07.6582 26238.5
 16 10 2013  02 34  -21.0246 26004.0 -03496.4 -07.6578 26238.0
 16 10 2013  02 35  -21.0239 26003.8 -03496.3 -07.6577 26237.8
 16 10 2013  02 36  -21.0228 26003.7 -03496.3 -07.6577 26237.7
 16 10 2013  02 37  -21.0219 26003.6 -03496.3 -07.6578 26237.6
 16 10 2013  02 38  -21.0213 26003.6 -03496.4 -07.6579 26237.6
 16 10 2013  02 39  -21.0209 26003.4 -03496.4 -07.6581 26237.4
 16 10 2013  02 40  -21.0205 26003.2 -03496.4 -07.6581 26237.2
 16 10 2013  02 41  -21.0201 26003.0 -03496.4 -07.6581 26237.0
 16 10 2013  02 42  -21.0196 26002.7 -03496.3 -07.6580 26236.7
 16 10 2013  02 43  -21.0189 26002.4 -03496.2 -07.6579 26236.4
 16 10 2013  02 44  -21.0184 26002.1 -03496.2 -07.6579 26236.1
 16 10 2013  02 45  -21.0180 26001.9 -03496.2 -07.6580 26235.9
 16 10 2013  02 46  -21.0176 26001.6 -03496.2 -07.6580 26235.5
 16 10 2013  02 47  -21.0173 26001.2 -03496.1 -07.6580 26235.2
 16 10 2013  02 48  -21.0170 26001.0 -03496.1 -07.6581 26235.0
 16 10 2013  02 49  -21.0165 26000.8 -03496.1 -07.6581 26234.8
 16 10 2013  02 50  -21.0161 26000.4 -03496.1 -07.6581 26234.4
 16 10 2013  02 51  -21.0157 26000.2 -03496.0 -07.6581 26234.2
 16 10 2013  02 52  -21.0155 26000.0 -03496.1 -07.6583 26234.0
 16 10 2013  02 53  -21.0153 25999.9 -03496.1 -07.6585 26233.9
 16 10 2013  02 54  -21.0155 25999.9 -03496.3 -07.6587 26233.9
 16 10 2013  02 55  -21.0157 25999.9 -03496.4 -07.6589 26233.9
 16 10 2013  02 56  -21.0157 25999.8 -03496.4 -07.6591 26233.8
 16 10 2013  02 57  -21.0157 25999.8 -03496.5 -07.6593 26233.9
 16 10 2013  02 58  -21.0159 25999.9 -03496.6 -07.6595 26234.0
 16 10 2013  02 59  -21.0162 26000.0 -03496.7 -07.6597 26234.1
 16 10 2013  03 00  -21.0164 26000.1 -03496.8 -07.6598 26234.2
 16 10 2013  03 01  -21.0167 26000.2 -03496.9 -07.6600 26234.3
 16 10 2013  03 02  -21.0171 26000.2 -03496.9 -07.6600 26234.3
 16 10 2013  03 03  -21.0174 26000.1 -03496.9 -07.6600 26234.2
 16 10 2013  03 04  -21.0181 26000.0 -03496.9 -07.6600 26234.1
 16 10 2013  03 05  -21.0188 25999.8 -03496.8 -07.6600 26233.9
 16 10 2013  03 06  -21.0189 25999.7 -03496.7 -07.6597 26233.8
 16 10 2013  03 07  -21.0192 25999.6 -03496.6 -07.6596 26233.7
 16 10 2013  03 08  -21.0195 25999.7 -03496.6 -07.6596 26233.7
 16 10 2013  03 09  -21.0195 25999.6 -03496.6 -07.6595 26233.6
 16 10 2013  03 10  -21.0195 25999.5 -03496.5 -07.6593 26233.5
 16 10 2013  03 11  -21.0197 25999.3 -03496.4 -07.6592 26233.4
 16 10 2013  03 12  -21.0200 25999.2 -03496.4 -07.6592 26233.3
 16 10 2013  03 13  -21.0205 25999.1 -03496.4 -07.6592 26233.2
 16 10 2013  03 14  -21.0212 25999.1 -03496.4 -07.6592 26233.2
 16 10 2013  03 15  -21.0218 25999.1 -03496.4 -07.6593 26233.2
 16 10 2013  03 16  -21.0222 25999.1 -03496.4 -07.6592 26233.1
 16 10 2013  03 17  -21.0224 25999.0 -03496.3 -07.6590 26233.0
 16 10 2013  03 18  -21.0229 25998.8 -03496.2 -07.6589 26232.8
 16 10 2013  03 19  -21.0233 25998.6 -03496.1 -07.6587 26232.6
 16 10 2013  03 20  -21.0237 25998.4 -03496.0 -07.6585 26232.4
 16 10 2013  03 21  -21.0240 25998.3 -03495.9 -07.6584 26232.3
 16 10 2013  03 22  -21.0245 25998.3 -03495.9 -07.6583 26232.2
 16 10 2013  03 23  -21.0252 25998.2 -03495.9 -07.6584 26232.2
 16 10 2013  03 24  -21.0255 25998.0 -03495.8 -07.6582 26232.0
 16 10 2013  03 25  -21.0257 25998.0 -03495.7 -07.6581 26231.9
 16 10 2013  03 26  -21.0257 25997.8 -03495.6 -07.6579 26231.8
 16 10 2013  03 27  -21.0258 25997.7 -03495.5 -07.6578 26231.6
 16 10 2013  03 28  -21.0261 25997.5 -03495.4 -07.6576 26231.4
 16 10 2013  03 29  -21.0262 25997.3 -03495.4 -07.6575 26231.2
 16 10 2013  03 30  -21.0263 25997.2 -03495.4 -07.6575 26231.2
 16 10 2013  03 31  -21.0264 25997.2 -03495.3 -07.6575 26231.1
 16 10 2013  03 32  -21.0267 25997.2 -03495.4 -07.6576 26231.2
 16 10 2013  03 33  -21.0271 25997.3 -03495.5 -07.6577 26231.3
 16 10 2013  03 34  -21.0276 25997.4 -03495.5 -07.6578 26231.4
 16 10 2013  03 35  -21.0282 25997.6 -03495.6 -07.6579 26231.5
 16 10 2013  03 36  -21.0289 25997.6 -03495.6 -07.6580 26231.6
 16 10 2013  03 37  -21.0295 25997.6 -03495.7 -07.6581 26231.6
 16 10 2013  03 38  -21.0301 25997.6 -03495.6 -07.6580 26231.6
 16 10 2013  03 39  -21.0304 25997.6 -03495.6 -07.6579 26231.6
 16 10 2013  03 40  -21.0307 25997.7 -03495.5 -07.6578 26231.6
 16 10 2013  03 41  -21.0312 25997.7 -03495.5 -07.6578 26231.6
 16 10 2013  03 42  -21.0317 25997.8 -03495.5 -07.6577 26231.7
 16 10 2013  03 43  -21.0319 25997.8 -03495.5 -07.6577 26231.8
 16 10 2013  03 44  -21.0317 25997.8 -03495.4 -07.6575 26231.7
 16 10 2013  03 45  -21.0317 25997.6 -03495.3 -07.6573 26231.5
 16 10 2013  03 46  -21.0316 25997.5 -03495.2 -07.6571 26231.4
 16 10 2013  03 47  -21.0314 25997.4 -03495.2 -07.6571 26231.3
 16 10 2013  03 48  -21.0313 25997.3 -03495.1 -07.6569 26231.2
 16 10 2013  03 49  -21.0312 25997.1 -03494.9 -07.6567 26231.0
 16 10 2013  03 50  -21.0309 25997.0 -03494.9 -07.6565 26230.8
 16 10 2013  03 51  -21.0302 25996.7 -03494.7 -07.6563 26230.6
 16 10 2013  03 52  -21.0295 25996.9 -03494.8 -07.6563 26230.7
 16 10 2013  03 53  -21.0294 25997.1 -03494.9 -07.6566 26230.9
 16 10 2013  03 54  -21.0297 25997.3 -03495.1 -07.6569 26231.2
 16 10 2013  03 55  -21.0298 25997.3 -03495.1 -07.6570 26231.2
 16 10 2013  03 56  -21.0296 25997.4 -03495.1 -07.6570 26231.3
 16 10 2013  03 57  -21.0291 25997.4 -03495.1 -07.6570 26231.3
 16 10 2013  03 58  -21.0287 25997.4 -03495.1 -07.6570 26231.2
 16 10 2013  03 59  -21.0283 25997.3 -03495.1 -07.6569 26231.1
 16 10 2013  04 00  -21.0279 25997.2 -03495.1 -07.6569 26231.1
 16 10 2013  04 01  -21.0274 25997.1 -03495.0 -07.6569 26230.9
 16 10 2013  04 02  -21.0270 25996.9 -03495.0 -07.6568 26230.8
 16 10 2013  04 03  -21.0268 25997.0 -03495.1 -07.6570 26230.9
 16 10 2013  04 04  -21.0271 25997.4 -03495.3 -07.6574 26231.3
 16 10 2013  04 05  -21.0276 25998.5 -03495.9 -07.6584 26232.5
 16 10 2013  04 06  -21.0280 25999.4 -03496.5 -07.6593 26233.5
 16 10 2013  04 07  -21.0289 26000.1 -03496.8 -07.6598 26234.2
 16 10 2013  04 08  -21.0300 26000.8 -03497.1 -07.6603 26234.9
 16 10 2013  04 09  -21.0309 26001.3 -03497.3 -07.6606 26235.5
 16 10 2013  04 10  -21.0315 26001.7 -03497.4 -07.6606 26235.9
 16 10 2013  04 11  -21.0322 26001.7 -03497.2 -07.6603 26235.9
 16 10 2013  04 12  -21.0328 26001.8 -03497.1 -07.6601 26235.9
 16 10 2013  04 13  -21.0334 26001.7 -03496.9 -07.6597 26235.8
 16 10 2013  04 14  -21.0339 26001.8 -03496.9 -07.6595 26235.9
 16 10 2013  04 15  -21.0341 26002.0 -03496.9 -07.6594 26236.1
 16 10 2013  04 16  -21.0344 26002.7 -03497.1 -07.6597 26236.9
 16 10 2013  04 17  -21.0347 26003.1 -03497.2 -07.6598 26237.2
 16 10 2013  04 18  -21.0351 26003.2 -03497.2 -07.6597 26237.3
 16 10 2013  04 19  -21.0351 26003.2 -03497.1 -07.6596 26237.3
 16 10 2013  04 20  -21.0351 26003.2 -03497.0 -07.6593 26237.3
 16 10 2013  04 21  -21.0349 26003.4 -03496.9 -07.6592 26237.4
 16 10 2013  04 22  -21.0346 26003.4 -03496.9 -07.6590 26237.5
 16 10 2013  04 23  -21.0341 26003.5 -03496.8 -07.6589 26237.6
 16 10 2013  04 24  -21.0340 26003.6 -03496.8 -07.6588 26237.7
 16 10 2013  04 25  -21.0342 26003.5 -03496.8 -07.6588 26237.6
 16 10 2013  04 26  -21.0338 26003.4 -03496.7 -07.6586 26237.5
 16 10 2013  04 27  -21.0328 26003.2 -03496.5 -07.6583 26237.2
 16 10 2013  04 28  -21.0318 26002.8 -03496.3 -07.6579 26236.8
 16 10 2013  04 29  -21.0315 26002.5 -03496.1 -07.6577 26236.5
 16 10 2013  04 30  -21.0317 26002.4 -03496.1 -07.6577 26236.4
 16 10 2013  04 31  -21.0315 26002.4 -03496.1 -07.6577 26236.4
 16 10 2013  04 32  -21.0310 26002.4 -03496.1 -07.6577 26236.4
 16 10 2013  04 33  -21.0303 26002.2 -03496.1 -07.6576 26236.2
 16 10 2013  04 34  -21.0297 26001.9 -03495.9 -07.6574 26235.9
 16 10 2013  04 35  -21.0294 26001.8 -03495.9 -07.6574 26235.7
 16 10 2013  04 36  -21.0292 26001.8 -03496.0 -07.6575 26235.7
 16 10 2013  04 37  -21.0290 26001.8 -03496.0 -07.6576 26235.8
 16 10 2013  04 38  -21.0289 26001.9 -03496.2 -07.6579 26235.9
 16 10 2013  04 39  -21.0289 26002.2 -03496.4 -07.6583 26236.3
 16 10 2013  04 40  -21.0291 26002.4 -03496.5 -07.6585 26236.5
 16 10 2013  04 41  -21.0291 26002.7 -03496.7 -07.6588 26236.8
 16 10 2013  04 42  -21.0291 26002.9 -03496.7 -07.6589 26236.9
 16 10 2013  04 43  -21.0289 26003.0 -03496.8 -07.6590 26237.0
 16 10 2013  04 44  -21.0287 26003.2 -03496.9 -07.6591 26237.2
 16 10 2013  04 45  -21.0284 26003.4 -03497.0 -07.6593 26237.5
 16 10 2013  04 46  -21.0282 26003.7 -03497.1 -07.6595 26237.9
 16 10 2013  04 47  -21.0280 26004.0 -03497.3 -07.6597 26238.1
 16 10 2013  04 48  -21.0280 26004.2 -03497.4 -07.6599 26238.3
 16 10 2013  04 49  -21.0279 26004.3 -03497.4 -07.6600 26238.5
 16 10 2013  04 50  -21.0279 26004.5 -03497.5 -07.6601 26238.7
 16 10 2013  04 51  -21.0280 26004.8 -03497.6 -07.6603 26239.0
 16 10 2013  04 52  -21.0282 26005.1 -03497.8 -07.6605 26239.3
 16 10 2013  04 53  -21.0286 26005.5 -03497.9 -07.6607 26239.7
 16 10 2013  04 54  -21.0289 26005.9 -03498.1 -07.6609 26240.1
 16 10 2013  04 55  -21.0290 26006.1 -03498.1 -07.6610 26240.3
 16 10 2013  04 56  -21.0287 26006.2 -03498.1 -07.6609 26240.4
 16 10 2013  04 57  -21.0279 26006.2 -03498.0 -07.6608 26240.4
 16 10 2013  04 58  -21.0272 26006.0 -03497.9 -07.6605 26240.2
 16 10 2013  04 59  -21.0269 26005.8 -03497.8 -07.6604 26240.0
 16 10 2013  05 00  -21.0269 26005.5 -03497.7 -07.6601 26239.7
 16 10 2013  05 01  -21.0270 26005.4 -03497.6 -07.6601 26239.5
 16 10 2013  05 02  -21.0273 26005.3 -03497.6 -07.6600 26239.4
 16 10 2013  05 03  -21.0273 26005.3 -03497.6 -07.6600 26239.4
 16 10 2013  05 04  -21.0273 26005.3 -03497.6 -07.6600 26239.4
 16 10 2013  05 05  -21.0273 26005.2 -03497.6 -07.6600 26239.4
 16 10 2013  05 06  -21.0272 26005.3 -03497.6 -07.6601 26239.5
 16 10 2013  05 07  -21.0272 26005.3 -03497.7 -07.6601 26239.5
 16 10 2013  05 08  -21.0273 26005.4 -03497.7 -07.6602 26239.5
 16 10 2013  05 09  -21.0274 26005.3 -03497.6 -07.6601 26239.4
 16 10 2013  05 10  -21.0275 26005.1 -03497.6 -07.6600 26239.3
 16 10 2013  05 11  -21.0278 26004.9 -03497.5 -07.6599 26239.1
 16 10 2013  05 12  -21.0280 26004.8 -03497.4 -07.6598 26238.9
 16 10 2013  05 13  -21.0284 26004.7 -03497.3 -07.6597 26238.8
 16 10 2013  05 14  -21.0288 26004.7 -03497.3 -07.6596 26238.8
 16 10 2013  05 15  -21.0292 26004.6 -03497.3 -07.6596 26238.8
 16 10 2013  05 16  -21.0296 26004.7 -03497.4 -07.6598 26238.9
 16 10 2013  05 17  -21.0300 26004.9 -03497.4 -07.6598 26239.0
 16 10 2013  05 18  -21.0302 26005.1 -03497.5 -07.6600 26239.2
 16 10 2013  05 19  -21.0307 26005.2 -03497.6 -07.6600 26239.4
 16 10 2013  05 20  -21.0309 26005.3 -03497.6 -07.6600 26239.5
 16 10 2013  05 21  -21.0312 26005.5 -03497.6 -07.6601 26239.6
 16 10 2013  05 22  -21.0314 26005.5 -03497.6 -07.6600 26239.7
 16 10 2013  05 23  -21.0313 26005.5 -03497.6 -07.6599 26239.6
 16 10 2013  05 24  -21.0311 26005.3 -03497.5 -07.6597 26239.5
 16 10 2013  05 25  -21.0310 26005.2 -03497.4 -07.6596 26239.3
 16 10 2013  05 26  -21.0308 26005.1 -03497.3 -07.6594 26239.2
 16 10 2013  05 27  -21.0306 26005.1 -03497.3 -07.6594 26239.2
 16 10 2013  05 28  -21.0306 26005.1 -03497.3 -07.6595 26239.3
 16 10 2013  05 29  -21.0305 26005.2 -03497.3 -07.6595 26239.3
 16 10 2013  05 30  -21.0304 26005.1 -03497.3 -07.6595 26239.2
 16 10 2013  05 31  -21.0302 26005.0 -03497.3 -07.6595 26239.1
 16 10 2013  05 32  -21.0301 26005.0 -03497.3 -07.6594 26239.1
 16 10 2013  05 33  -21.0300 26004.9 -03497.2 -07.6594 26239.0
 16 10 2013  05 34  -21.0301 26004.9 -03497.2 -07.6594 26239.0
 16 10 2013  05 35  -21.0302 26004.9 -03497.3 -07.6595 26239.0
 16 10 2013  05 36  -21.0302 26005.0 -03497.3 -07.6595 26239.1
 16 10 2013  05 37  -21.0302 26005.0 -03497.3 -07.6596 26239.1
 16 10 2013  05 38  -21.0303 26005.0 -03497.3 -07.6595 26239.1
 16 10 2013  05 39  -21.0304 26005.0 -03497.4 -07.6596 26239.1
 16 10 2013  05 40  -21.0306 26005.1 -03497.4 -07.6597 26239.2
 16 10 2013  05 41  -21.0306 26005.0 -03497.4 -07.6597 26239.2
 16 10 2013  05 42  -21.0306 26005.1 -03497.4 -07.6597 26239.2
 16 10 2013  05 43  -21.0307 26005.0 -03497.4 -07.6597 26239.2
 16 10 2013  05 44  -21.0307 26005.1 -03497.4 -07.6597 26239.2
 16 10 2013  05 45  -21.0308 26005.1 -03497.5 -07.6598 26239.2
 16 10 2013  05 46  -21.0309 26005.1 -03497.4 -07.6598 26239.2
 16 10 2013  05 47  -21.0310 26005.1 -03497.5 -07.6598 26239.2
 16 10 2013  05 48  -21.0310 26005.1 -03497.4 -07.6598 26239.2
 16 10 2013  05 49  -21.0310 26005.0 -03497.5 -07.6598 26239.2
 16 10 2013  05 50  -21.0311 26005.0 -03497.4 -07.6597 26239.2
 16 10 2013  05 51  -21.0311 26005.0 -03497.4 -07.6598 26239.1
 16 10 2013  05 52  -21.0310 26005.0 -03497.5 -07.6598 26239.2
 16 10 2013  05 53  -21.0310 26005.1 -03497.5 -07.6598 26239.2
 16 10 2013  05 54  -21.0312 26005.1 -03497.5 -07.6599 26239.3
 16 10 2013  05 55  -21.0314 26005.2 -03497.6 -07.6600 26239.3
 16 10 2013  05 56  -21.0315 26005.1 -03497.6 -07.6600 26239.3
 16 10 2013  05 57  -21.0316 26005.1 -03497.6 -07.6600 26239.3
 16 10 2013  05 58  -21.0316 26005.1 -03497.6 -07.6601 26239.3
 16 10 2013  05 59  -21.0317 26005.2 -03497.6 -07.6601 26239.3
 16 10 2013  06 00  -21.0318 26005.3 -03497.7 -07.6602 26239.5
 16 10 2013  06 01  -21.0318 26005.4 -03497.7 -07.6603 26239.6
 16 10 2013  06 02  -21.0319 26005.6 -03497.8 -07.6605 26239.8
 16 10 2013  06 03  -21.0319 26005.7 -03498.0 -07.6607 26239.9
 16 10 2013  06 04  -21.0322 26005.9 -03498.1 -07.6609 26240.1
 16 10 2013  06 05  -21.0323 26006.0 -03498.1 -07.6610 26240.2
 16 10 2013  06 06  -21.0326 26006.1 -03498.1 -07.6610 26240.3
 16 10 2013  06 07  -21.0325 26006.1 -03498.1 -07.6609 26240.3
 16 10 2013  06 08  -21.0324 26006.1 -03498.1 -07.6609 26240.3
 16 10 2013  06 09  -21.0322 26005.9 -03498.0 -07.6608 26240.1
 16 10 2013  06 10  -21.0316 26005.8 -03497.9 -07.6606 26240.0
 16 10 2013  06 11  -21.0308 26005.7 -03497.8 -07.6605 26239.9
 16 10 2013  06 12  -21.0303 26005.5 -03497.8 -07.6604 26239.7
 16 10 2013  06 13  -21.0297 26005.4 -03497.8 -07.6604 26239.5
 16 10 2013  06 14  -21.0292 26005.2 -03497.7 -07.6604 26239.3
 16 10 2013  06 15  -21.0288 26004.9 -03497.6 -07.6603 26239.1
 16 10 2013  06 16  -21.0280 26004.5 -03497.4 -07.6599 26238.6
 16 10 2013  06 17  -21.0274 26004.1 -03497.3 -07.6597 26238.2
 16 10 2013  06 18  -21.0270 26003.9 -03497.3 -07.6599 26238.0
 16 10 2013  06 19  -21.0265 26003.8 -03497.4 -07.6601 26237.9
 16 10 2013  06 20  -21.0262 26003.9 -03497.6 -07.6605 26238.1
 16 10 2013  06 21  -21.0263 26004.1 -03497.9 -07.6610 26238.3
 16 10 2013  06 22  -21.0267 26004.4 -03498.1 -07.6615 26238.6
 16 10 2013  06 23  -21.0273 26004.8 -03498.5 -07.6622 26239.1
 16 10 2013  06 24  -21.0279 26005.1 -03498.8 -07.6627 26239.4
 16 10 2013  06 25  -21.0281 26005.1 -03498.9 -07.6629 26239.4
 16 10 2013  06 26  -21.0281 26005.0 -03498.8 -07.6626 26239.3
 16 10 2013  06 27  -21.0281 26004.8 -03498.6 -07.6623 26239.1
 16 10 2013  06 28  -21.0281 26004.7 -03498.4 -07.6620 26238.9
 16 10 2013  06 29  -21.0282 26004.5 -03498.3 -07.6618 26238.8
 16 10 2013  06 30  -21.0282 26004.5 -03498.2 -07.6617 26238.7
 16 10 2013  06 31  -21.0285 26004.5 -03498.2 -07.6616 26238.7
 16 10 2013  06 32  -21.0288 26004.5 -03498.2 -07.6616 26238.8
 16 10 2013  06 33  -21.0292 26004.7 -03498.3 -07.6617 26238.9
 16 10 2013  06 34  -21.0297 26004.7 -03498.3 -07.6617 26238.9
 16 10 2013  06 35  -21.0301 26004.7 -03498.3 -07.6616 26238.9
 16 10 2013  06 36  -21.0306 26004.7 -03498.2 -07.6615 26238.9
 16 10 2013  06 37  -21.0311 26004.8 -03498.2 -07.6615 26239.0
 16 10 2013  06 38  -21.0312 26004.9 -03498.2 -07.6615 26239.2
 16 10 2013  06 39  -21.0313 26004.9 -03498.2 -07.6614 26239.2
 16 10 2013  06 40  -21.0316 26005.0 -03498.2 -07.6614 26239.3
 16 10 2013  06 41  -21.0318 26005.3 -03498.2 -07.6614 26239.5
 16 10 2013  06 42  -21.0321 26005.4 -03498.3 -07.6615 26239.6
 16 10 2013  06 43  -21.0323 26005.4 -03498.3 -07.6615 26239.6
 16 10 2013  06 44  -21.0325 26005.5 -03498.3 -07.6615 26239.7
 16 10 2013  06 45  -21.0326 26005.4 -03498.2 -07.6614 26239.7
 16 10 2013  06 46  -21.0328 26005.4 -03498.2 -07.6613 26239.6
 16 10 2013  06 47  -21.0328 26005.5 -03498.2 -07.6613 26239.7
 16 10 2013  06 48  -21.0327 26005.6 -03498.2 -07.6613 26239.9
 16 10 2013  06 49  -21.0326 26005.5 -03498.2 -07.6612 26239.7
 16 10 2013  06 50  -21.0323 26005.4 -03498.1 -07.6611 26239.6
 16 10 2013  06 51  -21.0320 26005.5 -03498.1 -07.6610 26239.7
 16 10 2013  06 52  -21.0321 26005.5 -03498.1 -07.6610 26239.7
 16 10 2013  06 53  -21.0323 26005.7 -03498.2 -07.6613 26239.9
 16 10 2013  06 54  -21.0321 26005.7 -03498.2 -07.6613 26239.9
 16 10 2013  06 55  -21.0317 26005.9 -03498.2 -07.6613 26240.1
 16 10 2013  06 56  -21.0316 26006.0 -03498.3 -07.6614 26240.2
 16 10 2013  06 57  -21.0316 26006.3 -03498.4 -07.6616 26240.6
 16 10 2013  06 58  -21.0313 26006.5 -03498.5 -07.6616 26240.7
 16 10 2013  06 59  -21.0307 26006.3 -03498.4 -07.6614 26240.6
 16 10 2013  07 00  -21.0303 26006.3 -03498.4 -07.6614 26240.5
 16 10 2013  07 01  -21.0300 26006.3 -03498.4 -07.6614 26240.5
 16 10 2013  07 02  -21.0298 26006.4 -03498.5 -07.6617 26240.7
 16 10 2013  07 03  -21.0293 26006.5 -03498.6 -07.6619 26240.8
 16 10 2013  07 04  -21.0284 26006.6 -03498.6 -07.6619 26240.9
 16 10 2013  07 05  -21.0277 26006.7 -03498.7 -07.6620 26240.9
 16 10 2013  07 06  -21.0274 26006.6 -03498.7 -07.6621 26240.9
 16 10 2013  07 07  -21.0272 26006.7 -03498.9 -07.6624 26241.0
 16 10 2013  07 08  -21.0270 26006.8 -03498.9 -07.6625 26241.1
 16 10 2013  07 09  -21.0271 26006.9 -03499.0 -07.6626 26241.2
 16 10 2013  07 10  -21.0276 26007.2 -03499.2 -07.6629 26241.5
 16 10 2013  07 11  -21.0278 26007.2 -03499.2 -07.6630 26241.5
 16 10 2013  07 12  -21.0276 26007.2 -03499.2 -07.6629 26241.5
 16 10 2013  07 13  -21.0275 26007.0 -03499.0 -07.6625 26241.3
 16 10 2013  07 14  -21.0274 26006.9 -03498.9 -07.6623 26241.2
 16 10 2013  07 15  -21.0276 26006.9 -03498.9 -07.6623 26241.2
 16 10 2013  07 16  -21.0279 26006.8 -03498.8 -07.6623 26241.1
 16 10 2013  07 17  -21.0283 26007.0 -03498.9 -07.6623 26241.3
 16 10 2013  07 18  -21.0286 26006.9 -03498.8 -07.6622 26241.2
 16 10 2013  07 19  -21.0286 26006.8 -03498.6 -07.6618 26241.1
 16 10 2013  07 20  -21.0283 26006.8 -03498.5 -07.6616 26241.1
 16 10 2013  07 21  -21.0277 26006.6 -03498.3 -07.6611 26240.8
 16 10 2013  07 22  -21.0275 26006.4 -03498.2 -07.6609 26240.7
 16 10 2013  07 23  -21.0275 26006.5 -03498.2 -07.6610 26240.7
 16 10 2013  07 24  -21.0274 26006.3 -03498.1 -07.6608 26240.5
 16 10 2013  07 25  -21.0275 26006.4 -03498.1 -07.6608 26240.6
 16 10 2013  07 26  -21.0276 26006.2 -03498.1 -07.6608 26240.4
 16 10 2013  07 27  -21.0277 26006.2 -03498.1 -07.6608 26240.4
 16 10 2013  07 28  -21.0278 26006.3 -03498.1 -07.6609 26240.5
 16 10 2013  07 29  -21.0277 26006.4 -03498.2 -07.6610 26240.6
 16 10 2013  07 30  -21.0275 26006.6 -03498.2 -07.6610 26240.8
 16 10 2013  07 31  -21.0274 26006.7 -03498.3 -07.6611 26241.0
 16 10 2013  07 32  -21.0275 26006.7 -03498.3 -07.6612 26241.0
 16 10 2013  07 33  -21.0273 26006.6 -03498.3 -07.6612 26240.8
 16 10 2013  07 34  -21.0275 26006.6 -03498.3 -07.6613 26240.8
 16 10 2013  07 35  -21.0277 26006.6 -03498.4 -07.6613 26240.8
 16 10 2013  07 36  -21.0275 26006.5 -03498.4 -07.6614 26240.8
 16 10 2013  07 37  -21.0275 26006.4 -03498.3 -07.6613 26240.7
 16 10 2013  07 38  -21.0278 26006.4 -03498.4 -07.6614 26240.7
 16 10 2013  07 39  -21.0282 26006.4 -03498.4 -07.6615 26240.7
 16 10 2013  07 40  -21.0281 26006.5 -03498.4 -07.6614 26240.7
 16 10 2013  07 41  -21.0280 26006.3 -03498.3 -07.6612 26240.6
 16 10 2013  07 42  -21.0278 26006.3 -03498.2 -07.6611 26240.5
 16 10 2013  07 43  -21.0278 26006.2 -03498.2 -07.6610 26240.4
 16 10 2013  07 44  -21.0279 26006.3 -03498.2 -07.6611 26240.5
 16 10 2013  07 45  -21.0280 26006.0 -03498.1 -07.6609 26240.2
 16 10 2013  07 46  -21.0279 26006.0 -03498.0 -07.6607 26240.2
 16 10 2013  07 47  -21.0280 26005.9 -03498.0 -07.6607 26240.1
 16 10 2013  07 48  -21.0280 26005.7 -03497.9 -07.6606 26239.9
 16 10 2013  07 49  -21.0279 26005.7 -03497.9 -07.6606 26239.9
 16 10 2013  07 50  -21.0281 26005.7 -03498.0 -07.6608 26239.9
 16 10 2013  07 51  -21.0281 26005.9 -03498.1 -07.6610 26240.1
 16 10 2013  07 52  -21.0283 26006.1 -03498.3 -07.6613 26240.3
 16 10 2013  07 53  -21.0283 26006.2 -03498.3 -07.6612 26240.4
 16 10 2013  07 54  -21.0282 26006.1 -03498.2 -07.6612 26240.4
 16 10 2013  07 55  -21.0282 26006.0 -03498.2 -07.6611 26240.3
 16 10 2013  07 56  -21.0281 26005.8 -03498.0 -07.6608 26240.0
 16 10 2013  07 57  -21.0282 26005.7 -03498.0 -07.6608 26239.9
 16 10 2013  07 58  -21.0284 26005.7 -03498.0 -07.6608 26239.9
 16 10 2013  07 59  -21.0283 26005.5 -03497.9 -07.6606 26239.7
 16 10 2013  08 00  -21.0280 26005.5 -03497.8 -07.6605 26239.6
 16 10 2013  08 01  -21.0276 26005.4 -03497.8 -07.6604 26239.6
 16 10 2013  08 02  -21.0275 26005.2 -03497.7 -07.6603 26239.3
 16 10 2013  08 03  -21.0276 26005.2 -03497.7 -07.6603 26239.4
 16 10 2013  08 04  -21.0276 26005.2 -03497.8 -07.6605 26239.4
 16 10 2013  08 05  -21.0276 26005.2 -03497.8 -07.6605 26239.4
 16 10 2013  08 06  -21.0277 26005.4 -03497.8 -07.6605 26239.6
 16 10 2013  08 07  -21.0274 26005.6 -03498.0 -07.6607 26239.8
 16 10 2013  08 08  -21.0273 26005.4 -03497.9 -07.6607 26239.6
 16 10 2013  08 09  -21.0272 26005.6 -03498.0 -07.6608 26239.8
 16 10 2013  08 10  -21.0275 26005.6 -03498.1 -07.6610 26239.9
 16 10 2013  08 11  -21.0277 26005.7 -03498.2 -07.6611 26240.0
 16 10 2013  08 12  -21.0279 26005.7 -03498.2 -07.6612 26239.9
 16 10 2013  08 13  -21.0280 26005.8 -03498.2 -07.6613 26240.0
 16 10 2013  08 14  -21.0281 26005.8 -03498.2 -07.6612 26240.0
 16 10 2013  08 15  -21.0283 26005.9 -03498.2 -07.6613 26240.1
 16 10 2013  08 16  -21.0285 26006.0 -03498.3 -07.6614 26240.2
 16 10 2013  08 17  -21.0282 26006.0 -03498.3 -07.6613 26240.3
 16 10 2013  08 18  -21.0281 26006.1 -03498.3 -07.6614 26240.4
 16 10 2013  08 19  -21.0281 26006.2 -03498.3 -07.6613 26240.5
 16 10 2013  08 20  -21.0279 26006.2 -03498.3 -07.6614 26240.5
 16 10 2013  08 21  -21.0279 26006.3 -03498.3 -07.6613 26240.5
 16 10 2013  08 22  -21.0275 26006.2 -03498.2 -07.6611 26240.4
 16 10 2013  08 23  -21.0271 26006.2 -03498.2 -07.6611 26240.4
 16 10 2013  08 24  -21.0267 26005.9 -03498.1 -07.6610 26240.2
 16 10 2013  08 25  -21.0264 26005.8 -03498.1 -07.6609 26240.0
 16 10 2013  08 26  -21.0264 26005.8 -03498.2 -07.6611 26240.1
 16 10 2013  08 27  -21.0264 26005.9 -03498.2 -07.6612 26240.1
 16 10 2013  08 28  -21.0264 26005.8 -03498.3 -07.6613 26240.0
 16 10 2013  08 29  -21.0259 26005.7 -03498.2 -07.6613 26239.9
 16 10 2013  08 30  -21.0257 26005.9 -03498.4 -07.6615 26240.1
 16 10 2013  08 31  -21.0256 26005.9 -03498.5 -07.6618 26240.2
 16 10 2013  08 32  -21.0252 26005.8 -03498.6 -07.6620 26240.1
 16 10 2013  08 33  -21.0245 26005.7 -03498.6 -07.6621 26240.0
 16 10 2013  08 34  -21.0246 26005.4 -03498.6 -07.6622 26239.7
 16 10 2013  08 35  -21.0249 26005.6 -03498.9 -07.6627 26239.9
 16 10 2013  08 36  -21.0252 26005.6 -03499.1 -07.6632 26240.0
 16 10 2013  08 37  -21.0248 26005.7 -03499.3 -07.6636 26240.0
 16 10 2013  08 38  -21.0245 26005.7 -03499.4 -07.6639 26240.1
 16 10 2013  08 39  -21.0244 26005.6 -03499.6 -07.6643 26240.0
 16 10 2013  08 40  -21.0244 26005.6 -03499.8 -07.6647 26240.0
 16 10 2013  08 41  -21.0243 26005.6 -03499.9 -07.6649 26240.1
 16 10 2013  08 42  -21.0243 26005.8 -03500.0 -07.6651 26240.3
 16 10 2013  08 43  -21.0241 26005.9 -03500.3 -07.6658 26240.4
 16 10 2013  08 44  -21.0242 26006.1 -03500.6 -07.6663 26240.7
 16 10 2013  08 45  -21.0245 26006.3 -03500.9 -07.6669 26240.9
 16 10 2013  08 46  -21.0249 26006.7 -03501.2 -07.6675 26241.3
 16 10 2013  08 47  -21.0252 26006.9 -03501.5 -07.6680 26241.6
 16 10 2013  08 48  -21.0248 26006.9 -03501.6 -07.6682 26241.6
 16 10 2013  08 49  -21.0249 26007.1 -03501.7 -07.6685 26241.8
 16 10 2013  08 50  -21.0259 26007.7 -03501.9 -07.6688 26242.4
 16 10 2013  08 51  -21.0279 26008.5 -03502.2 -07.6690 26243.2
 16 10 2013  08 52  -21.0297 26009.2 -03502.3 -07.6690 26244.0
 16 10 2013  08 53  -21.0308 26009.4 -03502.1 -07.6687 26244.2
 16 10 2013  08 54  -21.0311 26009.4 -03501.9 -07.6682 26244.1
 16 10 2013  08 55  -21.0306 26009.3 -03501.8 -07.6680 26244.0
 16 10 2013  08 56  -21.0302 26009.2 -03501.9 -07.6682 26243.9
 16 10 2013  08 57  -21.0297 26009.0 -03502.0 -07.6685 26243.7
 16 10 2013  08 58  -21.0300 26008.8 -03502.1 -07.6689 26243.5
 16 10 2013  08 59  -21.0304 26008.8 -03502.3 -07.6692 26243.6
 16 10 2013  09 00  -21.0313 26009.1 -03502.5 -07.6695 26243.9
 16 10 2013  09 01  -21.0322 26009.3 -03502.6 -07.6697 26244.1
 16 10 2013  09 02  -21.0331 26009.7 -03502.7 -07.6697 26244.5
 16 10 2013  09 03  -21.0339 26010.1 -03502.7 -07.6697 26244.9
 16 10 2013  09 04  -21.0351 26010.7 -03502.8 -07.6697 26245.5
 16 10 2013  09 05  -21.0360 26011.0 -03502.8 -07.6696 26245.8
 16 10 2013  09 06  -21.0364 26011.3 -03502.8 -07.6696 26246.1
 16 10 2013  09 07  -21.0370 26011.4 -03502.8 -07.6696 26246.2
 16 10 2013  09 08  -21.0373 26011.5 -03502.9 -07.6696 26246.3
 16 10 2013  09 09  -21.0381 26011.6 -03502.9 -07.6697 26246.4
 16 10 2013  09 10  -21.0388 26011.8 -03502.9 -07.6697 26246.6
 16 10 2013  09 11  -21.0398 26012.0 -03502.9 -07.6697 26246.8
 16 10 2013  09 12  -21.0413 26012.2 -03503.0 -07.6696 26247.0
 16 10 2013  09 13  -21.0422 26012.2 -03502.7 -07.6690 26246.9
 16 10 2013  09 14  -21.0424 26012.0 -03502.5 -07.6687 26246.7
 16 10 2013  09 15  -21.0427 26011.7 -03502.5 -07.6688 26246.5
 16 10 2013  09 16  -21.0431 26011.6 -03502.6 -07.6690 26246.3
 16 10 2013  09 17  -21.0434 26011.6 -03502.7 -07.6692 26246.4
 16 10 2013  09 18  -21.0439 26011.9 -03502.8 -07.6695 26246.7
 16 10 2013  09 19  -21.0445 26012.3 -03503.0 -07.6698 26247.1
 16 10 2013  09 20  -21.0448 26012.6 -03503.2 -07.6700 26247.4
 16 10 2013  09 21  -21.0456 26012.9 -03503.3 -07.6702 26247.8
 16 10 2013  09 22  -21.0466 26013.4 -03503.5 -07.6704 26248.2
 16 10 2013  09 23  -21.0477 26013.7 -03503.6 -07.6705 26248.5
 16 10 2013  09 24  -21.0489 26014.0 -03503.6 -07.6705 26248.8
 16 10 2013  09 25  -21.0503 26014.3 -03503.6 -07.6704 26249.1
 16 10 2013  09 26  -21.0515 26014.4 -03503.5 -07.6702 26249.2
 16 10 2013  09 27  -21.0523 26014.4 -03503.4 -07.6699 26249.2
 16 10 2013  09 28  -21.0526 26014.3 -03503.3 -07.6698 26249.1
 16 10 2013  09 29  -21.0528 26014.3 -03503.2 -07.6696 26249.1
 16 10 2013  09 30  -21.0533 26014.3 -03503.2 -07.6695 26249.1
 16 10 2013  09 31  -21.0537 26014.6 -03503.2 -07.6695 26249.4
 16 10 2013  09 32  -21.0545 26015.1 -03503.3 -07.6696 26249.9
 16 10 2013  09 33  -21.0554 26015.6 -03503.5 -07.6697 26250.5
 16 10 2013  09 34  -21.0561 26015.8 -03503.5 -07.6697 26250.7
 16 10 2013  09 35  -21.0564 26015.9 -03503.4 -07.6695 26250.8
 16 10 2013  09 36  -21.0567 26016.1 -03503.4 -07.6694 26250.9
 16 10 2013  09 37  -21.0571 26016.5 -03503.4 -07.6694 26251.3
 16 10 2013  09 38  -21.0572 26016.6 -03503.3 -07.6692 26251.4
 16 10 2013  09 39  -21.0576 26016.7 -03503.2 -07.6689 26251.5
 16 10 2013  09 40  -21.0584 26016.9 -03503.2 -07.6688 26251.7
 16 10 2013  09 41  -21.0582 26017.0 -03503.1 -07.6685 26251.8
 16 10 2013  09 42  -21.0583 26017.3 -03503.0 -07.6683 26252.1
 16 10 2013  09 43  -21.0590 26017.8 -03503.1 -07.6683 26252.6
 16 10 2013  09 44  -21.0600 26018.2 -03503.1 -07.6682 26253.0
 16 10 2013  09 45  -21.0605 26018.3 -03503.0 -07.6679 26253.1
 16 10 2013  09 46  -21.0603 26018.1 -03502.7 -07.6675 26252.8
 16 10 2013  09 47  -21.0603 26017.8 -03502.6 -07.6673 26252.5
 16 10 2013  09 48  -21.0605 26017.7 -03502.7 -07.6675 26252.4
 16 10 2013  09 49  -21.0606 26017.7 -03502.8 -07.6677 26252.5
 16 10 2013  09 50  -21.0606 26017.9 -03503.0 -07.6680 26252.7
 16 10 2013  09 51  -21.0611 26018.1 -03503.1 -07.6683 26252.9
 16 10 2013  09 52  -21.0611 26018.2 -03503.2 -07.6684 26253.0
 16 10 2013  09 53  -21.0613 26018.3 -03503.3 -07.6686 26253.1
 16 10 2013  09 54  -21.0614 26018.4 -03503.3 -07.6686 26253.2
 16 10 2013  09 55  -21.0617 26018.6 -03503.4 -07.6688 26253.4
 16 10 2013  09 56  -21.0625 26019.2 -03503.7 -07.6692 26254.1
 16 10 2013  09 57  -21.0640 26020.2 -03504.0 -07.6696 26255.1
 16 10 2013  09 58  -21.0654 26021.1 -03504.3 -07.6698 26256.0
 16 10 2013  09 59  -21.0659 26021.0 -03504.1 -07.6695 26255.9
 16 10 2013  10 00  -21.0658 26020.4 -03503.7 -07.6689 26255.2
 16 10 2013  10 01  -21.0656 26019.9 -03503.5 -07.6686 26254.7
 16 10 2013  10 02  -21.0656 26019.8 -03503.5 -07.6687 26254.6
 16 10 2013  10 03  -21.0658 26020.3 -03503.7 -07.6689 26255.1
 16 10 2013  10 04  -21.0659 26020.4 -03503.7 -07.6689 26255.2
 16 10 2013  10 05  -21.0663 26020.7 -03503.8 -07.6689 26255.5
 16 10 2013  10 06  -21.0674 26021.4 -03504.0 -07.6691 26256.3
 16 10 2013  10 07  -21.0688 26022.2 -03504.2 -07.6694 26257.1
 16 10 2013  10 08  -21.0698 26022.6 -03504.2 -07.6693 26257.5
 16 10 2013  10 09  -21.0701 26022.5 -03504.0 -07.6688 26257.4
 16 10 2013  10 10  -21.0701 26022.4 -03503.8 -07.6685 26257.2
 16 10 2013  10 11  -21.0700 26022.7 -03503.8 -07.6685 26257.5
 16 10 2013  10 12  -21.0700 26023.0 -03503.9 -07.6686 26257.9
 16 10 2013  10 13  -21.0695 26023.1 -03504.0 -07.6687 26258.0
 16 10 2013  10 14  -21.0691 26023.3 -03504.0 -07.6687 26258.1
 16 10 2013  10 15  -21.0694 26023.5 -03504.1 -07.6688 26258.3
 16 10 2013  10 16  -21.0703 26023.8 -03504.2 -07.6689 26258.7
 16 10 2013  10 17  -21.0716 26024.6 -03504.4 -07.6691 26259.5
 16 10 2013  10 18  -21.0725 26025.4 -03504.5 -07.6691 26260.3
 16 10 2013  10 19  -21.0735 26026.0 -03504.4 -07.6688 26260.9
 16 10 2013  10 20  -21.0741 26026.4 -03504.3 -07.6683 26261.2
 16 10 2013  10 21  -21.0740 26026.4 -03504.0 -07.6677 26261.2
 16 10 2013  10 22  -21.0739 26026.2 -03503.6 -07.6670 26261.0
 16 10 2013  10 23  -21.0744 26026.4 -03503.5 -07.6668 26261.2
 16 10 2013  10 24  -21.0748 26026.9 -03503.5 -07.6666 26261.7
 16 10 2013  10 25  -21.0753 26027.4 -03503.5 -07.6664 26262.2
 16 10 2013  10 26  -21.0759 26027.7 -03503.3 -07.6659 26262.4
 16 10 2013  10 27  -21.0764 26027.7 -03503.1 -07.6654 26262.4
 16 10 2013  10 28  -21.0778 26027.8 -03502.9 -07.6651 26262.4
 16 10 2013  10 29  -21.0788 26028.2 -03502.9 -07.6649 26262.8
 16 10 2013  10 30  -21.0794 26028.4 -03502.9 -07.6648 26263.1
 16 10 2013  10 31  -21.0793 26028.2 -03502.6 -07.6643 26262.8
 16 10 2013  10 32  -21.0792 26028.1 -03502.5 -07.6639 26262.7
 16 10 2013  10 33  -21.0794 26028.0 -03502.4 -07.6638 26262.6
 16 10 2013  10 34  -21.0798 26028.0 -03502.3 -07.6635 26262.6
 16 10 2013  10 35  -21.0808 26028.0 -03502.3 -07.6635 26262.6
 16 10 2013  10 36  -21.0819 26028.3 -03502.4 -07.6637 26262.9
 16 10 2013  10 37  -21.0823 26028.5 -03502.4 -07.6638 26263.1
 16 10 2013  10 38  -21.0825 26028.6 -03502.4 -07.6636 26263.2
 16 10 2013  10 39  -21.0825 26028.7 -03502.3 -07.6635 26263.3
 16 10 2013  10 40  -21.0824 26029.0 -03502.3 -07.6634 26263.6
 16 10 2013  10 41  -21.0826 26029.7 -03502.4 -07.6634 26264.3
 16 10 2013  10 42  -21.0833 26030.3 -03502.5 -07.6634 26264.9
 16 10 2013  10 43  -21.0838 26030.7 -03502.5 -07.6633 26265.3
 16 10 2013  10 44  -21.0844 26030.8 -03502.3 -07.6628 26265.4
 16 10 2013  10 45  -21.0841 26031.0 -03502.1 -07.6624 26265.5
 16 10 2013  10 46  -21.0839 26031.5 -03502.1 -07.6621 26266.0
 16 10 2013  10 47  -21.0842 26032.0 -03502.0 -07.6619 26266.5
 16 10 2013  10 48  -21.0841 26032.8 -03502.1 -07.6617 26267.3
 16 10 2013  10 49  -21.0842 26033.6 -03502.1 -07.6615 26268.1
 16 10 2013  10 50  -21.0849 26034.0 -03501.9 -07.6611 26268.5
 16 10 2013  10 51  -21.0852 26034.5 -03501.8 -07.6607 26268.9
 16 10 2013  10 52  -21.0850 26034.7 -03501.5 -07.6600 26269.1
 16 10 2013  10 53  -21.0856 26035.1 -03501.4 -07.6597 26269.5
 16 10 2013  10 54  -21.0854 26035.1 -03501.3 -07.6593 26269.4
 16 10 2013  10 55  -21.0846 26035.2 -03501.1 -07.6588 26269.6
 16 10 2013  10 56  -21.0844 26035.5 -03501.0 -07.6586 26269.9
 16 10 2013  10 57  -21.0843 26035.9 -03501.0 -07.6585 26270.2
 16 10 2013  10 58  -21.0843 26035.7 -03500.8 -07.6581 26270.0
 16 10 2013  10 59  -21.0844 26035.9 -03500.8 -07.6580 26270.2
 16 10 2013  11 00  -21.0844 26036.5 -03500.9 -07.6581 26270.8
 16 10 2013  11 01  -21.0843 26037.4 -03501.1 -07.6582 26271.7
 16 10 2013  11 02  -21.0839 26038.2 -03501.2 -07.6583 26272.5
 16 10 2013  11 03  -21.0834 26038.8 -03501.2 -07.6581 26273.2
 16 10 2013  11 04  -21.0828 26039.6 -03501.2 -07.6578 26273.9
 16 10 2013  11 05  -21.0821 26040.6 -03501.3 -07.6577 26275.0
 16 10 2013  11 06  -21.0816 26041.4 -03501.2 -07.6573 26275.7
 16 10 2013  11 07  -21.0819 26042.0 -03501.1 -07.6570 26276.3
 16 10 2013  11 08  -21.0824 26042.3 -03500.9 -07.6565 26276.6
 16 10 2013  11 09  -21.0831 26042.6 -03500.7 -07.6559 26276.8
 16 10 2013  11 10  -21.0836 26042.8 -03500.5 -07.6553 26277.0
 16 10 2013  11 11  -21.0840 26042.9 -03500.2 -07.6548 26277.1
 16 10 2013  11 12  -21.0838 26042.6 -03499.9 -07.6541 26276.7
 16 10 2013  11 13  -21.0835 26042.3 -03499.6 -07.6536 26276.4
 16 10 2013  11 14  -21.0833 26042.5 -03499.6 -07.6535 26276.6
 16 10 2013  11 15  -21.0832 26042.8 -03499.6 -07.6536 26276.9
 16 10 2013  11 16  -21.0839 26043.7 -03499.9 -07.6538 26277.8
 16 10 2013  11 17  -21.0845 26044.9 -03500.1 -07.6540 26279.1
 16 10 2013  11 18  -21.0852 26045.0 -03499.8 -07.6533 26279.1
 16 10 2013  11 19  -21.0857 26045.0 -03499.5 -07.6526 26279.0
 16 10 2013  11 20  -21.0856 26044.6 -03499.1 -07.6518 26278.6
 16 10 2013  11 21  -21.0857 26044.3 -03498.8 -07.6513 26278.2
 16 10 2013  11 22  -21.0860 26044.5 -03498.8 -07.6512 26278.4
 16 10 2013  11 23  -21.0858 26044.8 -03498.7 -07.6511 26278.7
 16 10 2013  11 24  -21.0860 26045.0 -03498.7 -07.6508 26279.0
 16 10 2013  11 25  -21.0864 26045.3 -03498.5 -07.6505 26279.2
 16 10 2013  11 26  -21.0876 26045.8 -03498.5 -07.6503 26279.7
 16 10 2013  11 27  -21.0888 26046.1 -03498.4 -07.6500 26280.0
 16 10 2013  11 28  -21.0898 26046.7 -03498.4 -07.6497 26280.6
 16 10 2013  11 29  -21.0905 26047.1 -03498.2 -07.6493 26280.9
 16 10 2013  11 30  -21.0916 26047.1 -03497.9 -07.6486 26280.9
 16 10 2013  11 31  -21.0931 26046.9 -03497.6 -07.6479 26280.6
 16 10 2013  11 32  -21.0939 26047.0 -03497.3 -07.6473 26280.8
 16 10 2013  11 33  -21.0950 26046.9 -03497.0 -07.6467 26280.6
 16 10 2013  11 34  -21.0958 26046.7 -03496.7 -07.6460 26280.4
 16 10 2013  11 35  -21.0964 26046.7 -03496.4 -07.6454 26280.3
 16 10 2013  11 36  -21.0969 26046.9 -03496.3 -07.6451 26280.5
 16 10 2013  11 37  -21.0977 26046.8 -03496.0 -07.6446 26280.4
 16 10 2013  11 38  -21.0974 26046.8 -03495.8 -07.6442 26280.4
 16 10 2013  11 39  -21.0970 26047.0 -03495.6 -07.6437 26280.5
 16 10 2013  11 40  -21.0965 26047.6 -03495.6 -07.6434 26281.1
 16 10 2013  11 41  -21.0961 26048.7 -03495.8 -07.6435 26282.2
 16 10 2013  11 42  -21.0955 26048.5 -03495.4 -07.6428 26282.0
 16 10 2013  11 43  -21.0947 26048.8 -03495.3 -07.6424 26282.3
 16 10 2013  11 44  -21.0937 26049.7 -03495.3 -07.6423 26283.2
 16 10 2013  11 45  -21.0931 26051.3 -03495.7 -07.6426 26284.8
 16 10 2013  11 46  -21.0933 26051.9 -03495.6 -07.6422 26285.4
 16 10 2013  11 47  -21.0933 26053.0 -03495.6 -07.6418 26286.4
 16 10 2013  11 48  -21.0938 26054.5 -03495.6 -07.6415 26287.9
 16 10 2013  11 49  -21.0939 26055.4 -03495.4 -07.6408 26288.8
 16 10 2013  11 50  -21.0936 26055.9 -03495.0 -07.6398 26289.2
 16 10 2013  11 51  -21.0938 26055.5 -03494.4 -07.6385 26288.8
 16 10 2013  11 52  -21.0941 26055.4 -03494.0 -07.6378 26288.6
 16 10 2013  11 53  -21.0938 26055.6 -03493.9 -07.6375 26288.8
 16 10 2013  11 54  -21.0935 26055.6 -03493.7 -07.6371 26288.8
 16 10 2013  11 55  -21.0929 26055.9 -03493.6 -07.6368 26289.1
 16 10 2013  11 56  -21.0926 26057.0 -03493.7 -07.6367 26290.1
 16 10 2013  11 57  -21.0925 26057.7 -03493.7 -07.6364 26290.9
 16 10 2013  11 58  -21.0929 26058.5 -03493.6 -07.6360 26291.6
 16 10 2013  11 59  -21.0936 26058.0 -03493.0 -07.6347 26291.1
 16 10 2013  12 00  -21.0938 26056.7 -03492.1 -07.6333 26289.6
 16 10 2013  12 01  -21.0931 26056.3 -03491.8 -07.6327 26289.3
 16 10 2013  12 02  -21.0922 26055.8 -03491.5 -07.6322 26288.7
 16 10 2013  12 03  -21.0912 26055.4 -03491.2 -07.6317 26288.3
 16 10 2013  12 04  -21.0914 26055.4 -03491.2 -07.6316 26288.3
 16 10 2013  12 05  -21.0929 26055.3 -03491.2 -07.6317 26288.1
 16 10 2013  12 06  -21.0938 26056.2 -03491.5 -07.6321 26289.1
 16 10 2013  12 07  -21.0939 26057.8 -03491.9 -07.6325 26290.7
 16 10 2013  12 08  -21.0936 26059.0 -03491.9 -07.6322 26291.9
 16 10 2013  12 09  -21.0933 26059.0 -03491.5 -07.6313 26291.9
 16 10 2013  12 10  -21.0923 26059.3 -03491.3 -07.6307 26292.2
 16 10 2013  12 11  -21.0920 26060.3 -03491.3 -07.6304 26293.1
 16 10 2013  12 12  -21.0919 26061.6 -03491.4 -07.6303 26294.4
 16 10 2013  12 13  -21.0917 26064.3 -03492.0 -07.6308 26297.2
 16 10 2013  12 14  -21.0906 26066.6 -03492.3 -07.6307 26299.5
 16 10 2013  12 15  -21.0884 26068.1 -03492.0 -07.6297 26300.9
 16 10 2013  12 16  -21.0874 26067.3 -03490.9 -07.6275 26300.0
 16 10 2013  12 17  -21.0873 26066.7 -03490.1 -07.6260 26299.3
 16 10 2013  12 18  -21.0889 26064.6 -03488.9 -07.6240 26297.0
 16 10 2013  12 19  -21.0905 26063.4 -03488.2 -07.6229 26295.8
 16 10 2013  12 20  -21.0908 26063.8 -03488.3 -07.6231 26296.2
 16 10 2013  12 21  -21.0909 26064.7 -03488.6 -07.6234 26297.1
 16 10 2013  12 22  -21.0905 26064.5 -03488.5 -07.6231 26296.9
 16 10 2013  12 23  -21.0902 26064.5 -03488.3 -07.6227 26296.9
 16 10 2013  12 24  -21.0902 26064.5 -03488.1 -07.6223 26296.9
 16 10 2013  12 25  -21.0898 26065.4 -03488.2 -07.6223 26297.8
 16 10 2013  12 26  -21.0900 26065.7 -03488.0 -07.6218 26298.1
 16 10 2013  12 27  -21.0903 26065.3 -03487.7 -07.6212 26297.6
 16 10 2013  12 28  -21.0901 26064.6 -03487.3 -07.6207 26296.9
 16 10 2013  12 29  -21.0894 26064.0 -03487.1 -07.6203 26296.3
 16 10 2013  12 30  -21.0891 26064.8 -03487.4 -07.6207 26297.1
 16 10 2013  12 31  -21.0888 26066.2 -03487.9 -07.6213 26298.5
 16 10 2013  12 32  -21.0888 26067.1 -03488.1 -07.6215 26299.4
 16 10 2013  12 33  -21.0886 26067.6 -03488.0 -07.6212 26299.9
 16 10 2013  12 34  -21.0885 26067.5 -03487.7 -07.6207 26299.8
 16 10 2013  12 35  -21.0884 26067.2 -03487.4 -07.6201 26299.5
 16 10 2013  12 36  -21.0886 26066.9 -03487.2 -07.6198 26299.1
 16 10 2013  12 37  -21.0886 26067.1 -03487.3 -07.6200 26299.4
 16 10 2013  12 38  -21.0884 26067.8 -03487.6 -07.6202 26300.0
 16 10 2013  12 39  -21.0880 26068.3 -03487.6 -07.6202 26300.5
 16 10 2013  12 40  -21.0878 26068.7 -03487.6 -07.6200 26300.9
 16 10 2013  12 41  -21.0883 26068.3 -03487.2 -07.6193 26300.5
 16 10 2013  12 42  -21.0887 26067.6 -03486.8 -07.6186 26299.7
 16 10 2013  12 43  -21.0884 26067.2 -03486.5 -07.6182 26299.4
 16 10 2013  12 44  -21.0876 26067.6 -03486.5 -07.6180 26299.7
 16 10 2013  12 45  -21.0870 26068.4 -03486.8 -07.6184 26300.6
 16 10 2013  12 46  -21.0867 26069.0 -03486.8 -07.6183 26301.1
 16 10 2013  12 47  -21.0863 26069.2 -03486.7 -07.6179 26301.3
 16 10 2013  12 48  -21.0855 26069.3 -03486.5 -07.6174 26301.4
 16 10 2013  12 49  -21.0853 26069.2 -03486.2 -07.6168 26301.3
 16 10 2013  12 50  -21.0857 26068.8 -03485.9 -07.6164 26300.9
 16 10 2013  12 51  -21.0862 26068.5 -03485.8 -07.6161 26300.5
 16 10 2013  12 52  -21.0859 26068.9 -03485.8 -07.6162 26300.9
 16 10 2013  12 53  -21.0853 26069.7 -03486.0 -07.6163 26301.7
 16 10 2013  12 54  -21.0845 26070.9 -03486.3 -07.6165 26303.0
 16 10 2013  12 55  -21.0838 26071.4 -03486.3 -07.6164 26303.5
 16 10 2013  12 56  -21.0841 26071.0 -03485.8 -07.6156 26303.0
 16 10 2013  12 57  -21.0840 26070.7 -03485.5 -07.6150 26302.7
 16 10 2013  12 58  -21.0834 26071.1 -03485.5 -07.6148 26303.0
 16 10 2013  12 59  -21.0828 26071.6 -03485.5 -07.6146 26303.5
 16 10 2013  13 00  -21.0820 26072.0 -03485.4 -07.6143 26303.9
 16 10 2013  13 01  -21.0813 26072.3 -03485.3 -07.6140 26304.2
 16 10 2013  13 02  -21.0808 26072.2 -03485.1 -07.6135 26304.1
 16 10 2013  13 03  -21.0802 26072.3 -03484.9 -07.6132 26304.2
 16 10 2013  13 04  -21.0797 26072.5 -03484.9 -07.6130 26304.4
 16 10 2013  13 05  -21.0790 26072.4 -03484.6 -07.6126 26304.2
 16 10 2013  13 06  -21.0782 26071.9 -03484.3 -07.6121 26303.7
 16 10 2013  13 07  -21.0774 26072.5 -03484.5 -07.6122 26304.3
 16 10 2013  13 08  -21.0762 26073.6 -03484.8 -07.6125 26305.5
 16 10 2013  13 09  -21.0750 26074.5 -03485.0 -07.6127 26306.3
 16 10 2013  13 10  -21.0739 26075.4 -03485.1 -07.6127 26307.3
 16 10 2013  13 11  -21.0730 26075.9 -03485.0 -07.6123 26307.8
 16 10 2013  13 12  -21.0721 26076.5 -03484.9 -07.6120 26308.3
 16 10 2013  13 13  -21.0713 26076.6 -03484.7 -07.6115 26308.4
 16 10 2013  13 14  -21.0707 26076.6 -03484.5 -07.6111 26308.3
 16 10 2013  13 15  -21.0701 26076.5 -03484.3 -07.6107 26308.3
 16 10 2013  13 16  -21.0696 26077.6 -03484.5 -07.6107 26309.3
 16 10 2013  13 17  -21.0687 26079.7 -03485.0 -07.6112 26311.5
 16 10 2013  13 18  -21.0682 26081.2 -03485.1 -07.6110 26313.0
 16 10 2013  13 19  -21.0678 26081.1 -03484.5 -07.6098 26312.8
 16 10 2013  13 20  -21.0667 26080.4 -03483.8 -07.6084 26312.1
 16 10 2013  13 21  -21.0652 26081.3 -03483.8 -07.6083 26313.0
 16 10 2013  13 22  -21.0642 26083.2 -03484.2 -07.6086 26314.9
 16 10 2013  13 23  -21.0633 26084.9 -03484.4 -07.6085 26316.6
 16 10 2013  13 24  -21.0625 26086.3 -03484.4 -07.6081 26318.0
 16 10 2013  13 25  -21.0618 26086.8 -03484.1 -07.6072 26318.5
 16 10 2013  13 26  -21.0609 26087.0 -03483.7 -07.6063 26318.6
 16 10 2013  13 27  -21.0601 26086.8 -03483.2 -07.6053 26318.3
 16 10 2013  13 28  -21.0592 26087.1 -03483.0 -07.6049 26318.6
 16 10 2013  13 29  -21.0582 26087.2 -03482.8 -07.6044 26318.7
 16 10 2013  13 30  -21.0572 26086.7 -03482.4 -07.6037 26318.1
 16 10 2013  13 31  -21.0562 26086.1 -03482.0 -07.6030 26317.4
 16 10 2013  13 32  -21.0553 26085.6 -03481.8 -07.6026 26316.9
 16 10 2013  13 33  -21.0545 26085.4 -03481.7 -07.6024 26316.7
 16 10 2013  13 34  -21.0537 26084.6 -03481.4 -07.6021 26315.9
 16 10 2013  13 35  -21.0526 26083.7 -03481.1 -07.6017 26315.0
 16 10 2013  13 36  -21.0517 26083.5 -03481.2 -07.6019 26314.8
 16 10 2013  13 37  -21.0511 26083.0 -03481.2 -07.6022 26314.3
 16 10 2013  13 38  -21.0502 26082.1 -03481.0 -07.6020 26313.3
 16 10 2013  13 39  -21.0495 26081.2 -03481.0 -07.6021 26312.5
 16 10 2013  13 40  -21.0492 26080.1 -03480.9 -07.6023 26311.4
 16 10 2013  13 41  -21.0485 26079.6 -03481.1 -07.6028 26310.9
 16 10 2013  13 42  -21.0473 26079.0 -03481.3 -07.6034 26310.4
 16 10 2013  13 43  -21.0467 26078.1 -03481.4 -07.6040 26309.5
 16 10 2013  13 44  -21.0461 26077.2 -03481.6 -07.6046 26308.6
 16 10 2013  13 45  -21.0449 26077.0 -03482.0 -07.6055 26308.4
 16 10 2013  13 46  -21.0439 26076.1 -03482.1 -07.6060 26307.6
 16 10 2013  13 47  -21.0433 26074.5 -03481.9 -07.6060 26305.9
 16 10 2013  13 48  -21.0431 26073.2 -03481.9 -07.6065 26304.6
 16 10 2013  13 49  -21.0430 26073.2 -03482.6 -07.6078 26304.8
 16 10 2013  13 50  -21.0428 26074.1 -03483.3 -07.6093 26305.8
 16 10 2013  13 51  -21.0425 26073.7 -03483.6 -07.6099 26305.4
 16 10 2013  13 52  -21.0421 26072.8 -03483.5 -07.6100 26304.5
 16 10 2013  13 53  -21.0412 26072.4 -03483.6 -07.6104 26304.1
 16 10 2013  13 54  -21.0404 26072.6 -03484.0 -07.6112 26304.3
 16 10 2013  13 55  -21.0399 26072.5 -03484.3 -07.6118 26304.2
 16 10 2013  13 56  -21.0395 26072.1 -03484.4 -07.6121 26303.9
 16 10 2013  13 57  -21.0400 26071.5 -03484.5 -07.6125 26303.3
 16 10 2013  13 58  -21.0407 26071.3 -03484.7 -07.6131 26303.2
 16 10 2013  13 59  -21.0414 26072.3 -03485.5 -07.6144 26304.2
 16 10 2013  14 00  -21.0417 26073.4 -03486.1 -07.6154 26305.4
 16 10 2013  14 01  -21.0414 26074.2 -03486.4 -07.6158 26306.2
 16 10 2013  14 02  -21.0411 26074.5 -03486.4 -07.6157 26306.5
 16 10 2013  14 03  -21.0408 26074.2 -03486.1 -07.6153 26306.2
 16 10 2013  14 04  -21.0406 26073.4 -03485.8 -07.6148 26305.4
 16 10 2013  14 05  -21.0404 26073.1 -03485.8 -07.6148 26305.0
 16 10 2013  14 06  -21.0404 26073.4 -03486.0 -07.6152 26305.4
 16 10 2013  14 07  -21.0402 26073.0 -03486.0 -07.6153 26305.0
 16 10 2013  14 08  -21.0400 26073.1 -03486.2 -07.6156 26305.2
 16 10 2013  14 09  -21.0397 26073.9 -03486.5 -07.6162 26306.0
 16 10 2013  14 10  -21.0397 26074.9 -03486.9 -07.6168 26307.0
 16 10 2013  14 11  -21.0396 26075.2 -03486.9 -07.6167 26307.3
 16 10 2013  14 12  -21.0391 26074.6 -03486.5 -07.6161 26306.7
 16 10 2013  14 13  -21.0380 26073.2 -03486.0 -07.6152 26305.2
 16 10 2013  14 14  -21.0371 26072.1 -03485.7 -07.6149 26304.0
 16 10 2013  14 15  -21.0367 26072.2 -03485.9 -07.6155 26304.2
 16 10 2013  14 16  -21.0372 26072.7 -03486.3 -07.6161 26304.7
 16 10 2013  14 17  -21.0372 26072.8 -03486.4 -07.6163 26304.9
 16 10 2013  14 18  -21.0369 26073.3 -03486.6 -07.6166 26305.4
 16 10 2013  14 19  -21.0370 26073.4 -03486.7 -07.6166 26305.5
 16 10 2013  14 20  -21.0366 26073.7 -03486.7 -07.6166 26305.8
 16 10 2013  14 21  -21.0361 26073.4 -03486.5 -07.6163 26305.5
 16 10 2013  14 22  -21.0361 26072.7 -03486.2 -07.6159 26304.8
 16 10 2013  14 23  -21.0364 26073.1 -03486.4 -07.6161 26305.1
 16 10 2013  14 24  -21.0368 26073.6 -03486.6 -07.6164 26305.6
 16 10 2013  14 25  -21.0367 26073.6 -03486.4 -07.6161 26305.7
 16 10 2013  14 26  -21.0366 26073.6 -03486.4 -07.6161 26305.6
 16 10 2013  14 27  -21.0359 26073.7 -03486.4 -07.6161 26305.8
 16 10 2013  14 28  -21.0357 26073.9 -03486.5 -07.6161 26305.9
 16 10 2013  14 29  -21.0353 26073.8 -03486.5 -07.6162 26305.9
 16 10 2013  14 30  -21.0351 26074.3 -03486.8 -07.6168 26306.4
 16 10 2013  14 31  -21.0356 26074.2 -03486.9 -07.6168 26306.3
 16 10 2013  14 32  -21.0358 26074.2 -03486.9 -07.6169 26306.3
 16 10 2013  14 33  -21.0371 26076.2 -03487.6 -07.6178 26308.4
 16 10 2013  14 34  -21.0400 26078.1 -03488.1 -07.6183 26310.3
 16 10 2013  14 35  -21.0400 26078.3 -03487.6 -07.6172 26310.4
 16 10 2013  14 36  -21.0391 26077.9 -03486.9 -07.6159 26309.9
 16 10 2013  14 37  -21.0399 26078.4 -03486.9 -07.6156 26310.5
 16 10 2013  14 38  -21.0397 26079.0 -03486.7 -07.6152 26311.0
 16 10 2013  14 39  -21.0386 26077.8 -03485.9 -07.6138 26309.7
 16 10 2013  14 40  -21.0386 26076.9 -03485.5 -07.6132 26308.8
 16 10 2013  14 41  -21.0389 26076.1 -03485.4 -07.6131 26308.0
 16 10 2013  14 42  -21.0393 26075.6 -03485.3 -07.6132 26307.5
 16 10 2013  14 43  -21.0396 26075.0 -03485.2 -07.6131 26306.9
 16 10 2013  14 44  -21.0393 26074.1 -03485.0 -07.6128 26306.0
 16 10 2013  14 45  -21.0383 26072.6 -03484.5 -07.6122 26304.4
 16 10 2013  14 46  -21.0371 26071.3 -03484.3 -07.6122 26303.1
 16 10 2013  14 47  -21.0360 26069.9 -03484.2 -07.6124 26301.8
 16 10 2013  14 48  -21.0360 26069.0 -03484.5 -07.6132 26300.8
 16 10 2013  14 49  -21.0369 26068.2 -03484.8 -07.6141 26300.1
 16 10 2013  14 50  -21.0377 26067.7 -03485.1 -07.6150 26299.7
 16 10 2013  14 51  -21.0377 26066.7 -03485.2 -07.6154 26298.7
 16 10 2013  14 52  -21.0371 26066.0 -03485.3 -07.6158 26297.9
 16 10 2013  14 53  -21.0374 26065.8 -03485.6 -07.6166 26297.8
 16 10 2013  14 54  -21.0374 26065.5 -03485.9 -07.6173 26297.6
 16 10 2013  14 55  -21.0375 26064.7 -03485.9 -07.6175 26296.7
 16 10 2013  14 56  -21.0380 26063.9 -03486.0 -07.6181 26296.0
 16 10 2013  14 57  -21.0394 26063.8 -03486.5 -07.6191 26296.0
 16 10 2013  14 58  -21.0409 26063.8 -03487.0 -07.6201 26296.0
 16 10 2013  14 59  -21.0410 26063.9 -03487.2 -07.6205 26296.2
 16 10 2013  15 00  -21.0412 26064.0 -03487.4 -07.6209 26296.3
 16 10 2013  15 01  -21.0412 26063.8 -03487.4 -07.6209 26296.1
 16 10 2013  15 02  -21.0411 26062.5 -03486.9 -07.6204 26294.7
 16 10 2013  15 03  -21.0400 26060.5 -03486.4 -07.6199 26292.7
 16 10 2013  15 04  -21.0399 26060.2 -03486.8 -07.6208 26292.5
 16 10 2013  15 05  -21.0411 26060.9 -03487.5 -07.6222 26293.3
 16 10 2013  15 06  -21.0428 26061.7 -03488.2 -07.6233 26294.1
 16 10 2013  15 07  -21.0435 26061.7 -03488.3 -07.6236 26294.1
 16 10 2013  15 08  -21.0435 26061.3 -03488.1 -07.6233 26293.7
 16 10 2013  15 09  -21.0436 26060.9 -03488.1 -07.6234 26293.3
 16 10 2013  15 10  -21.0431 26060.7 -03488.1 -07.6235 26293.1
 16 10 2013  15 11  -21.0430 26061.1 -03488.5 -07.6241 26293.5
 16 10 2013  15 12  -21.0432 26062.0 -03489.0 -07.6250 26294.5
 16 10 2013  15 13  -21.0432 26063.1 -03489.4 -07.6256 26295.7
 16 10 2013  15 14  -21.0428 26063.6 -03489.4 -07.6254 26296.1
 16 10 2013  15 15  -21.0424 26064.4 -03489.6 -07.6256 26297.0
 16 10 2013  15 16  -21.0418 26065.6 -03489.9 -07.6258 26298.1
 16 10 2013  15 17  -21.0415 26066.2 -03489.8 -07.6256 26298.8
 16 10 2013  15 18  -21.0409 26065.9 -03489.4 -07.6248 26298.5
 16 10 2013  15 19  -21.0402 26064.9 -03488.9 -07.6239 26297.4
 16 10 2013  15 20  -21.0406 26064.9 -03488.9 -07.6239 26297.4
 16 10 2013  15 21  -21.0412 26065.4 -03489.1 -07.6243 26297.8
 16 10 2013  15 22  -21.0414 26065.8 -03489.2 -07.6244 26298.3
 16 10 2013  15 23  -21.0417 26066.2 -03489.3 -07.6244 26298.7
 16 10 2013  15 24  -21.0418 26066.1 -03489.1 -07.6241 26298.6
 16 10 2013  15 25  -21.0415 26065.6 -03488.8 -07.6235 26298.0
 16 10 2013  15 26  -21.0414 26065.5 -03488.7 -07.6233 26297.9
 16 10 2013  15 27  -21.0414 26065.0 -03488.5 -07.6231 26297.4
 16 10 2013  15 28  -21.0415 26064.5 -03488.4 -07.6230 26296.9
 16 10 2013  15 29  -21.0415 26064.2 -03488.4 -07.6230 26296.6
 16 10 2013  15 30  -21.0416 26063.9 -03488.4 -07.6231 26296.3
 16 10 2013  15 31  -21.0420 26063.7 -03488.4 -07.6232 26296.1
 16 10 2013  15 32  -21.0425 26062.6 -03488.1 -07.6230 26295.0
 16 10 2013  15 33  -21.0435 26060.9 -03487.7 -07.6226 26293.2
 16 10 2013  15 34  -21.0444 26058.9 -03487.3 -07.6223 26291.3
 16 10 2013  15 35  -21.0443 26057.8 -03487.3 -07.6226 26290.1
 16 10 2013  15 36  -21.0439 26057.0 -03487.6 -07.6233 26289.4
 16 10 2013  15 37  -21.0433 26056.5 -03487.9 -07.6241 26288.9
 16 10 2013  15 38  -21.0434 26056.7 -03488.4 -07.6253 26289.2
 16 10 2013  15 39  -21.0443 26056.5 -03488.8 -07.6261 26289.0
 16 10 2013  15 40  -21.0447 26055.7 -03488.8 -07.6264 26288.2
 16 10 2013  15 41  -21.0451 26054.9 -03488.8 -07.6267 26287.5
 16 10 2013  15 42  -21.0459 26054.3 -03489.0 -07.6272 26286.9
 16 10 2013  15 43  -21.0472 26053.7 -03489.1 -07.6276 26286.3
 16 10 2013  15 44  -21.0480 26052.9 -03489.1 -07.6278 26285.5
 16 10 2013  15 45  -21.0479 26052.4 -03489.2 -07.6283 26285.0
 16 10 2013  15 46  -21.0481 26052.6 -03489.7 -07.6292 26285.3
 16 10 2013  15 47  -21.0482 26052.8 -03490.0 -07.6299 26285.5
 16 10 2013  15 48  -21.0482 26052.5 -03490.1 -07.6302 26285.2
 16 10 2013  15 49  -21.0478 26051.8 -03490.1 -07.6302 26284.5
 16 10 2013  15 50  -21.0478 26051.1 -03490.0 -07.6303 26283.8
 16 10 2013  15 51  -21.0491 26051.5 -03490.4 -07.6311 26284.3
 16 10 2013  15 52  -21.0500 26051.8 -03490.6 -07.6314 26284.6
 16 10 2013  15 53  -21.0500 26051.7 -03490.5 -07.6313 26284.5
 16 10 2013  15 54  -21.0506 26051.6 -03490.5 -07.6313 26284.4
 16 10 2013  15 55  -21.0508 26051.5 -03490.4 -07.6311 26284.3
 16 10 2013  15 56  -21.0509 26051.0 -03490.2 -07.6308 26283.8
 16 10 2013  15 57  -21.0510 26050.5 -03490.0 -07.6305 26283.2
 16 10 2013  15 58  -21.0513 26050.0 -03489.9 -07.6304 26282.7
 16 10 2013  15 59  -21.0509 26049.3 -03489.6 -07.6301 26282.0
 16 10 2013  16 00  -21.0508 26048.5 -03489.5 -07.6299 26281.2
 16 10 2013  16 01  -21.0514 26048.1 -03489.5 -07.6302 26280.8
 16 10 2013  16 02  -21.0518 26047.6 -03489.5 -07.6302 26280.3
 16 10 2013  16 03  -21.0520 26047.2 -03489.4 -07.6303 26279.9
 16 10 2013  16 04  -21.0521 26046.4 -03489.2 -07.6300 26279.1
 16 10 2013  16 05  -21.0525 26045.5 -03489.1 -07.6299 26278.2
 16 10 2013  16 06  -21.0528 26044.7 -03489.0 -07.6299 26277.4
 16 10 2013  16 07  -21.0531 26044.2 -03489.0 -07.6301 26276.9
 16 10 2013  16 08  -21.0534 26043.7 -03489.0 -07.6303 26276.3
 16 10 2013  16 09  -21.0534 26042.7 -03488.8 -07.6301 26275.4
 16 10 2013  16 10  -21.0540 26042.5 -03488.9 -07.6305 26275.1
 16 10 2013  16 11  -21.0547 26042.7 -03489.2 -07.6311 26275.4
 16 10 2013  16 12  -21.0553 26042.7 -03489.3 -07.6313 26275.4
 16 10 2013  16 13  -21.0553 26042.5 -03489.3 -07.6312 26275.2
 16 10 2013  16 14  -21.0553 26041.8 -03489.1 -07.6310 26274.5
 16 10 2013  16 15  -21.0556 26040.9 -03488.8 -07.6307 26273.5
 16 10 2013  16 16  -21.0557 26039.9 -03488.7 -07.6307 26272.6
 16 10 2013  16 17  -21.0557 26039.4 -03488.7 -07.6309 26272.1
 16 10 2013  16 18  -21.0564 26039.4 -03488.9 -07.6313 26272.1
 16 10 2013  16 19  -21.0571 26039.0 -03488.9 -07.6314 26271.7
 16 10 2013  16 20  -21.0568 26038.0 -03488.5 -07.6309 26270.6
 16 10 2013  16 21  -21.0570 26037.5 -03488.5 -07.6310 26270.1
 16 10 2013  16 22  -21.0572 26037.5 -03488.7 -07.6314 26270.1
 16 10 2013  16 23  -21.0576 26037.4 -03488.8 -07.6316 26270.1
 16 10 2013  16 24  -21.0574 26037.0 -03488.7 -07.6315 26269.7
 16 10 2013  16 25  -21.0574 26036.5 -03488.5 -07.6314 26269.2
 16 10 2013  16 26  -21.0579 26036.7 -03488.7 -07.6317 26269.4
 16 10 2013  16 27  -21.0583 26036.7 -03488.8 -07.6318 26269.4
 16 10 2013  16 28  -21.0587 26035.8 -03488.5 -07.6315 26268.5
 16 10 2013  16 29  -21.0586 26035.1 -03488.3 -07.6313 26267.8
 16 10 2013  16 30  -21.0580 26034.2 -03488.1 -07.6310 26266.8
 16 10 2013  16 31  -21.0573 26033.3 -03487.9 -07.6309 26265.9
 16 10 2013  16 32  -21.0564 26032.6 -03487.9 -07.6312 26265.2
 16 10 2013  16 33  -21.0560 26031.9 -03488.0 -07.6315 26264.5
 16 10 2013  16 34  -21.0561 26031.1 -03488.1 -07.6319 26263.8
 16 10 2013  16 35  -21.0562 26030.6 -03488.2 -07.6324 26263.3
 16 10 2013  16 36  -21.0562 26030.0 -03488.3 -07.6328 26262.7
 16 10 2013  16 37  -21.0560 26029.3 -03488.4 -07.6333 26262.0
 16 10 2013  16 38  -21.0556 26029.1 -03488.8 -07.6342 26261.8
 16 10 2013  16 39  -21.0559 26029.1 -03489.3 -07.6352 26261.9
 16 10 2013  16 40  -21.0569 26029.8 -03490.0 -07.6364 26262.7
 16 10 2013  16 41  -21.0575 26030.0 -03490.3 -07.6371 26263.0
 16 10 2013  16 42  -21.0573 26029.3 -03490.2 -07.6371 26262.3
 16 10 2013  16 43  -21.0575 26028.6 -03490.2 -07.6372 26261.5
 16 10 2013  16 44  -21.0576 26027.1 -03490.0 -07.6373 26260.1
 16 10 2013  16 45  -21.0575 26025.9 -03490.0 -07.6376 26258.8
 16 10 2013  16 46  -21.0573 26024.9 -03490.1 -07.6381 26257.9
 16 10 2013  16 47  -21.0573 26024.6 -03490.5 -07.6391 26257.6
 16 10 2013  16 48  -21.0575 26025.5 -03491.3 -07.6405 26258.6
 16 10 2013  16 49  -21.0582 26025.9 -03491.8 -07.6415 26259.1
 16 10 2013  16 50  -21.0587 26026.2 -03492.2 -07.6422 26259.4
 16 10 2013  16 51  -21.0594 26026.4 -03492.4 -07.6427 26259.7
 16 10 2013  16 52  -21.0595 26025.8 -03492.2 -07.6424 26259.1
 16 10 2013  16 53  -21.0585 26025.3 -03492.0 -07.6421 26258.5
 16 10 2013  16 54  -21.0579 26024.4 -03491.7 -07.6416 26257.6
 16 10 2013  16 55  -21.0576 26023.7 -03491.6 -07.6418 26256.9
 16 10 2013  16 56  -21.0573 26022.7 -03491.6 -07.6420 26255.9
 16 10 2013  16 57  -21.0574 26022.4 -03491.9 -07.6428 26255.6
 16 10 2013  16 58  -21.0574 26022.2 -03492.2 -07.6435 26255.4
 16 10 2013  16 59  -21.0571 26022.2 -03492.5 -07.6440 26255.5
 16 10 2013  17 00  -21.0563 26022.4 -03492.7 -07.6444 26255.8
 16 10 2013  17 01  -21.0553 26022.4 -03492.7 -07.6446 26255.7
 16 10 2013  17 02  -21.0547 26022.1 -03492.8 -07.6447 26255.4
 16 10 2013  17 03  -21.0541 26021.6 -03492.8 -07.6450 26255.0
 16 10 2013  17 04  -21.0537 26021.0 -03492.8 -07.6451 26254.4
 16 10 2013  17 05  -21.0536 26021.2 -03493.1 -07.6458 26254.6
 16 10 2013  17 06  -21.0530 26021.5 -03493.5 -07.6464 26255.0
 16 10 2013  17 07  -21.0529 26021.8 -03493.7 -07.6469 26255.3
 16 10 2013  17 08  -21.0517 26021.7 -03493.8 -07.6471 26255.2
 16 10 2013  17 09  -21.0509 26021.8 -03494.0 -07.6475 26255.3
 16 10 2013  17 10  -21.0509 26022.4 -03494.6 -07.6485 26256.0
 16 10 2013  17 11  -21.0509 26023.1 -03495.0 -07.6492 26256.8
 16 10 2013  17 12  -21.0513 26023.7 -03495.2 -07.6496 26257.4
 16 10 2013  17 13  -21.0515 26023.6 -03495.0 -07.6491 26257.3
 16 10 2013  17 14  -21.0507 26022.9 -03494.5 -07.6482 26256.5
 16 10 2013  17 15  -21.0497 26021.7 -03493.9 -07.6472 26255.2
 16 10 2013  17 16  -21.0488 26020.8 -03493.6 -07.6469 26254.3
 16 10 2013  17 17  -21.0489 26020.6 -03493.9 -07.6476 26254.2
 16 10 2013  17 18  -21.0494 26020.7 -03494.2 -07.6483 26254.3
 16 10 2013  17 19  -21.0499 26021.1 -03494.6 -07.6489 26254.7
 16 10 2013  17 20  -21.0499 26021.0 -03494.6 -07.6490 26254.7
 16 10 2013  17 21  -21.0493 26020.9 -03494.6 -07.6489 26254.5
 16 10 2013  17 22  -21.0491 26022.1 -03495.2 -07.6499 26255.8
 16 10 2013  17 23  -21.0491 26022.3 -03495.2 -07.6500 26256.0
 16 10 2013  17 24  -21.0485 26022.2 -03495.2 -07.6499 26255.9
 16 10 2013  17 25  -21.0484 26022.2 -03495.2 -07.6500 26255.9
 16 10 2013  17 26  -21.0480 26021.8 -03495.2 -07.6501 26255.5
 16 10 2013  17 27  -21.0469 26022.0 -03495.4 -07.6505 26255.7
 16 10 2013  17 28  -21.0467 26022.3 -03495.6 -07.6509 26256.0
 16 10 2013  17 29  -21.0465 26022.2 -03495.7 -07.6510 26255.9
 16 10 2013  17 30  -21.0461 26022.4 -03495.8 -07.6513 26256.2
 16 10 2013  17 31  -21.0462 26022.8 -03496.0 -07.6516 26256.6
 16 10 2013  17 32  -21.0469 26023.3 -03496.2 -07.6519 26257.1
 16 10 2013  17 33  -21.0472 26023.5 -03496.3 -07.6519 26257.3
 16 10 2013  17 34  -21.0475 26023.5 -03496.3 -07.6519 26257.3
 16 10 2013  17 35  -21.0473 26023.1 -03496.1 -07.6517 26256.9
 16 10 2013  17 36  -21.0472 26023.0 -03496.1 -07.6518 26256.8
 16 10 2013  17 37  -21.0477 26023.1 -03496.3 -07.6521 26256.9
 16 10 2013  17 38  -21.0490 26023.5 -03496.6 -07.6525 26257.3
 16 10 2013  17 39  -21.0499 26023.8 -03496.7 -07.6527 26257.7
 16 10 2013  17 40  -21.0507 26023.8 -03496.6 -07.6526 26257.7
 16 10 2013  17 41  -21.0507 26023.5 -03496.4 -07.6522 26257.4
 16 10 2013  17 42  -21.0508 26023.4 -03496.4 -07.6522 26257.3
 16 10 2013  17 43  -21.0510 26023.3 -03496.4 -07.6522 26257.1
 16 10 2013  17 44  -21.0508 26023.1 -03496.3 -07.6521 26256.9
 16 10 2013  17 45  -21.0512 26023.1 -03496.3 -07.6521 26257.0
 16 10 2013  17 46  -21.0516 26022.7 -03496.2 -07.6520 26256.5
 16 10 2013  17 47  -21.0517 26022.5 -03496.1 -07.6519 26256.3
 16 10 2013  17 48  -21.0525 26022.3 -03496.2 -07.6520 26256.1
 16 10 2013  17 49  -21.0531 26022.3 -03496.2 -07.6520 26256.1
 16 10 2013  17 50  -21.0535 26022.3 -03496.2 -07.6520 26256.1
 16 10 2013  17 51  -21.0537 26022.1 -03496.0 -07.6518 26255.9
 16 10 2013  17 52  -21.0540 26021.9 -03495.9 -07.6515 26255.6
 16 10 2013  17 53  -21.0547 26021.8 -03495.8 -07.6514 26255.5
 16 10 2013  17 54  -21.0553 26021.9 -03495.8 -07.6514 26255.7
 16 10 2013  17 55  -21.0556 26021.9 -03495.8 -07.6512 26255.7
 16 10 2013  17 56  -21.0559 26021.9 -03495.7 -07.6510 26255.7
 16 10 2013  17 57  -21.0562 26022.0 -03495.6 -07.6509 26255.7
 16 10 2013  17 58  -21.0563 26021.8 -03495.5 -07.6507 26255.5
 16 10 2013  17 59  -21.0566 26021.8 -03495.4 -07.6506 26255.5
 16 10 2013  18 00  -21.0570 26021.8 -03495.4 -07.6505 26255.6
 16 10 2013  18 01  -21.0569 26021.8 -03495.3 -07.6503 26255.5
 16 10 2013  18 02  -21.0565 26021.9 -03495.3 -07.6502 26255.5
 16 10 2013  18 03  -21.0565 26022.0 -03495.2 -07.6500 26255.7
 16 10 2013  18 04  -21.0569 26022.2 -03495.2 -07.6498 26255.9
 16 10 2013  18 05  -21.0572 26022.0 -03494.9 -07.6493 26255.6
 16 10 2013  18 06  -21.0572 26021.7 -03494.6 -07.6487 26255.3
 16 10 2013  18 07  -21.0569 26021.4 -03494.3 -07.6481 26254.9
 16 10 2013  18 08  -21.0570 26021.3 -03494.2 -07.6481 26254.8
 16 10 2013  18 09  -21.0569 26021.1 -03494.1 -07.6480 26254.7
 16 10 2013  18 10  -21.0570 26021.2 -03494.2 -07.6480 26254.8
 16 10 2013  18 11  -21.0569 26021.3 -03494.2 -07.6480 26254.8
 16 10 2013  18 12  -21.0567 26021.1 -03494.0 -07.6477 26254.7
 16 10 2013  18 13  -21.0565 26021.0 -03493.9 -07.6476 26254.6
 16 10 2013  18 14  -21.0564 26020.9 -03493.9 -07.6476 26254.4
 16 10 2013  18 15  -21.0563 26020.8 -03493.9 -07.6475 26254.3
 16 10 2013  18 16  -21.0560 26020.7 -03493.8 -07.6473 26254.2
 16 10 2013  18 17  -21.0558 26020.9 -03493.9 -07.6474 26254.4
 16 10 2013  18 18  -21.0562 26020.9 -03493.9 -07.6475 26254.4
 16 10 2013  18 19  -21.0563 26021.0 -03493.8 -07.6473 26254.5
 16 10 2013  18 20  -21.0561 26020.9 -03493.7 -07.6471 26254.4
 16 10 2013  18 21  -21.0560 26020.8 -03493.6 -07.6469 26254.3
 16 10 2013  18 22  -21.0560 26020.7 -03493.5 -07.6468 26254.2
 16 10 2013  18 23  -21.0563 26020.9 -03493.5 -07.6467 26254.3
 16 10 2013  18 24  -21.0564 26021.0 -03493.5 -07.6467 26254.5
 16 10 2013  18 25  -21.0565 26021.2 -03493.5 -07.6465 26254.7
 16 10 2013  18 26  -21.0567 26021.3 -03493.4 -07.6463 26254.7
 16 10 2013  18 27  -21.0568 26021.2 -03493.2 -07.6460 26254.6
 16 10 2013  18 28  -21.0567 26021.1 -03493.1 -07.6457 26254.6
 16 10 2013  18 29  -21.0564 26021.3 -03493.1 -07.6456 26254.7
 16 10 2013  18 30  -21.0562 26021.4 -03493.0 -07.6455 26254.8
 16 10 2013  18 31  -21.0562 26021.5 -03493.0 -07.6454 26254.9
 16 10 2013  18 32  -21.0559 26021.4 -03492.8 -07.6450 26254.8
 16 10 2013  18 33  -21.0555 26021.0 -03492.5 -07.6445 26254.4
 16 10 2013  18 34  -21.0551 26020.6 -03492.2 -07.6439 26253.9
 16 10 2013  18 35  -21.0546 26020.3 -03492.0 -07.6435 26253.6
 16 10 2013  18 36  -21.0540 26020.2 -03491.8 -07.6433 26253.4
 16 10 2013  18 37  -21.0540 26020.4 -03491.9 -07.6434 26253.6
 16 10 2013  18 38  -21.0540 26020.6 -03492.0 -07.6435 26253.9
 16 10 2013  18 39  -21.0541 26020.7 -03491.9 -07.6433 26253.9
 16 10 2013  18 40  -21.0539 26020.7 -03491.8 -07.6430 26253.9
 16 10 2013  18 41  -21.0535 26020.7 -03491.7 -07.6428 26253.9
 16 10 2013  18 42  -21.0532 26020.6 -03491.6 -07.6425 26253.8
 16 10 2013  18 43  -21.0532 26020.6 -03491.5 -07.6425 26253.8
 16 10 2013  18 44  -21.0532 26020.7 -03491.5 -07.6424 26253.9
 16 10 2013  18 45  -21.0531 26020.9 -03491.5 -07.6423 26254.1
 16 10 2013  18 46  -21.0530 26020.9 -03491.5 -07.6422 26254.1
 16 10 2013  18 47  -21.0534 26020.8 -03491.4 -07.6420 26253.9
 16 10 2013  18 48  -21.0534 26020.5 -03491.2 -07.6417 26253.7
 16 10 2013  18 49  -21.0535 26020.5 -03491.0 -07.6415 26253.6
 16 10 2013  18 50  -21.0536 26020.3 -03490.9 -07.6411 26253.4
 16 10 2013  18 51  -21.0535 26020.3 -03490.8 -07.6410 26253.4
 16 10 2013  18 52  -21.0537 26020.0 -03490.6 -07.6407 26253.1
 16 10 2013  18 53  -21.0538 26019.8 -03490.4 -07.6403 26252.9
 16 10 2013  18 54  -21.0536 26019.9 -03490.4 -07.6403 26253.0
 16 10 2013  18 55  -21.0535 26020.0 -03490.5 -07.6403 26253.1
 16 10 2013  18 56  -21.0535 26020.2 -03490.5 -07.6403 26253.2
 16 10 2013  18 57  -21.0535 26020.4 -03490.5 -07.6403 26253.4
 16 10 2013  18 58  -21.0534 26020.7 -03490.6 -07.6403 26253.7
 16 10 2013  18 59  -21.0531 26020.8 -03490.5 -07.6402 26253.8
 16 10 2013  19 00  -21.0530 26020.9 -03490.4 -07.6400 26253.9
 16 10 2013  19 01  -21.0528 26021.3 -03490.5 -07.6402 26254.3
 16 10 2013  19 02  -21.0525 26021.6 -03490.6 -07.6402 26254.7
 16 10 2013  19 03  -21.0522 26021.9 -03490.6 -07.6401 26255.0
 16 10 2013  19 04  -21.0521 26021.9 -03490.5 -07.6399 26255.0
 16 10 2013  19 05  -21.0519 26021.9 -03490.4 -07.6396 26254.9
 16 10 2013  19 06  -21.0516 26022.1 -03490.4 -07.6395 26255.2
 16 10 2013  19 07  -21.0515 26022.6 -03490.5 -07.6396 26255.6
 16 10 2013  19 08  -21.0512 26023.0 -03490.5 -07.6396 26256.1
 16 10 2013  19 09  -21.0510 26023.3 -03490.5 -07.6395 26256.4
 16 10 2013  19 10  -21.0505 26023.5 -03490.5 -07.6393 26256.6
 16 10 2013  19 11  -21.0501 26023.6 -03490.4 -07.6391 26256.7
 16 10 2013  19 12  -21.0500 26024.0 -03490.4 -07.6389 26257.0
 16 10 2013  19 13  -21.0495 26024.3 -03490.4 -07.6389 26257.3
 16 10 2013  19 14  -21.0489 26024.6 -03490.3 -07.6387 26257.6
 16 10 2013  19 15  -21.0484 26024.9 -03490.3 -07.6385 26257.9
 16 10 2013  19 16  -21.0481 26025.3 -03490.3 -07.6384 26258.3
 16 10 2013  19 17  -21.0478 26025.5 -03490.3 -07.6383 26258.5
 16 10 2013  19 18  -21.0474 26025.8 -03490.2 -07.6381 26258.7
 16 10 2013  19 19  -21.0470 26025.9 -03490.1 -07.6378 26258.8
 16 10 2013  19 20  -21.0465 26025.9 -03489.9 -07.6374 26258.8
 16 10 2013  19 21  -21.0461 26026.0 -03489.8 -07.6371 26258.9
 16 10 2013  19 22  -21.0457 26026.0 -03489.7 -07.6369 26258.9
 16 10 2013  19 23  -21.0453 26026.0 -03489.6 -07.6366 26258.9
 16 10 2013  19 24  -21.0449 26026.1 -03489.4 -07.6364 26259.0
 16 10 2013  19 25  -21.0445 26026.2 -03489.4 -07.6362 26259.1
 16 10 2013  19 26  -21.0441 26026.3 -03489.3 -07.6360 26259.1
 16 10 2013  19 27  -21.0436 26026.3 -03489.2 -07.6358 26259.1
 16 10 2013  19 28  -21.0431 26026.4 -03489.1 -07.6356 26259.2
 16 10 2013  19 29  -21.0428 26026.6 -03489.1 -07.6355 26259.5
 16 10 2013  19 30  -21.0424 26026.9 -03489.2 -07.6355 26259.7
 16 10 2013  19 31  -21.0421 26027.0 -03489.1 -07.6354 26259.9
 16 10 2013  19 32  -21.0418 26027.2 -03489.2 -07.6354 26260.0
 16 10 2013  19 33  -21.0413 26027.2 -03489.1 -07.6352 26260.0
 16 10 2013  19 34  -21.0409 26027.1 -03488.9 -07.6350 26259.9
 16 10 2013  19 35  -21.0404 26026.9 -03488.8 -07.6348 26259.7
 16 10 2013  19 36  -21.0399 26026.9 -03488.8 -07.6347 26259.6
 16 10 2013  19 37  -21.0395 26026.9 -03488.8 -07.6347 26259.7
 16 10 2013  19 38  -21.0391 26026.8 -03488.8 -07.6347 26259.6
 16 10 2013  19 39  -21.0387 26026.8 -03488.7 -07.6346 26259.6
 16 10 2013  19 40  -21.0383 26026.8 -03488.7 -07.6346 26259.6
 16 10 2013  19 41  -21.0379 26026.9 -03488.8 -07.6347 26259.6
 16 10 2013  19 42  -21.0374 26027.0 -03488.8 -07.6348 26259.7
 16 10 2013  19 43  -21.0370 26027.0 -03488.9 -07.6349 26259.8
 16 10 2013  19 44  -21.0365 26027.0 -03488.9 -07.6350 26259.8
 16 10 2013  19 45  -21.0362 26027.0 -03489.0 -07.6351 26259.8
 16 10 2013  19 46  -21.0358 26027.1 -03489.0 -07.6351 26259.9
 16 10 2013  19 47  -21.0353 26027.1 -03489.0 -07.6351 26259.9
 16 10 2013  19 48  -21.0349 26027.1 -03489.0 -07.6352 26259.9
 16 10 2013  19 49  -21.0345 26027.2 -03489.1 -07.6352 26260.0
 16 10 2013  19 50  -21.0341 26027.3 -03489.2 -07.6354 26260.2
 16 10 2013  19 51  -21.0337 26027.3 -03489.2 -07.6356 26260.2
 16 10 2013  19 52  -21.0334 26027.2 -03489.3 -07.6357 26260.1
 16 10 2013  19 53  -21.0329 26027.1 -03489.3 -07.6357 26259.9
 16 10 2013  19 54  -21.0324 26026.9 -03489.2 -07.6357 26259.7
 16 10 2013  19 55  -21.0321 26026.9 -03489.3 -07.6358 26259.7
 16 10 2013  19 56  -21.0317 26027.1 -03489.5 -07.6362 26259.9
 16 10 2013  19 57  -21.0314 26027.2 -03489.7 -07.6365 26260.1
 16 10 2013  19 58  -21.0310 26027.4 -03489.8 -07.6368 26260.3
 16 10 2013  19 59  -21.0307 26027.4 -03489.9 -07.6370 26260.3
 16 10 2013  20 00  -21.0303 26027.1 -03489.9 -07.6370 26260.1
 16 10 2013  20 01  -21.0298 26026.9 -03489.8 -07.6370 26259.9
 16 10 2013  20 02  -21.0292 26026.9 -03489.9 -07.6371 26259.8
 16 10 2013  20 03  -21.0287 26026.8 -03490.0 -07.6374 26259.8
 16 10 2013  20 04  -21.0283 26026.9 -03490.1 -07.6376 26259.8
 16 10 2013  20 05  -21.0279 26026.8 -03490.2 -07.6378 26259.8
 16 10 2013  20 06  -21.0274 26026.7 -03490.3 -07.6379 26259.7
 16 10 2013  20 07  -21.0269 26026.6 -03490.3 -07.6381 26259.6
 16 10 2013  20 08  -21.0264 26026.5 -03490.4 -07.6383 26259.5
 16 10 2013  20 09  -21.0260 26026.5 -03490.5 -07.6386 26259.5
 16 10 2013  20 10  -21.0255 26026.5 -03490.6 -07.6388 26259.5
 16 10 2013  20 11  -21.0251 26026.5 -03490.7 -07.6390 26259.5
 16 10 2013  20 12  -21.0248 26026.4 -03490.8 -07.6392 26259.5
 16 10 2013  20 13  -21.0245 26026.4 -03490.9 -07.6394 26259.5
 16 10 2013  20 14  -21.0242 26026.4 -03491.0 -07.6396 26259.5
 16 10 2013  20 15  -21.0240 26026.4 -03491.1 -07.6398 26259.4
 16 10 2013  20 16  -21.0237 26026.3 -03491.1 -07.6399 26259.4
 16 10 2013  20 17  -21.0233 26026.1 -03491.1 -07.6399 26259.2
 16 10 2013  20 18  -21.0230 26025.9 -03491.1 -07.6400 26259.0
 16 10 2013  20 19  -21.0227 26025.8 -03491.1 -07.6401 26258.9
 16 10 2013  20 20  -21.0224 26025.8 -03491.2 -07.6403 26259.0
 16 10 2013  20 21  -21.0221 26025.8 -03491.3 -07.6405 26258.9
 16 10 2013  20 22  -21.0219 26025.8 -03491.4 -07.6407 26259.0
 16 10 2013  20 23  -21.0216 26025.7 -03491.4 -07.6408 26258.9
 16 10 2013  20 24  -21.0212 26025.4 -03491.4 -07.6408 26258.6
 16 10 2013  20 25  -21.0208 26025.0 -03491.3 -07.6406 26258.1
 16 10 2013  20 26  -21.0205 26024.7 -03491.2 -07.6405 26257.8
 16 10 2013  20 27  -21.0202 26024.4 -03491.1 -07.6405 26257.5
 16 10 2013  20 28  -21.0201 26024.0 -03491.1 -07.6404 26257.2
 16 10 2013  20 29  -21.0200 26023.7 -03491.0 -07.6405 26256.8
 16 10 2013  20 30  -21.0199 26023.5 -03491.0 -07.6405 26256.6
 16 10 2013  20 31  -21.0199 26023.5 -03491.1 -07.6408 26256.7
 16 10 2013  20 32  -21.0197 26023.6 -03491.3 -07.6411 26256.8
 16 10 2013  20 33  -21.0193 26023.7 -03491.4 -07.6413 26256.8
 16 10 2013  20 34  -21.0190 26023.6 -03491.5 -07.6416 26256.7
 16 10 2013  20 35  -21.0186 26023.5 -03491.6 -07.6417 26256.7
 16 10 2013  20 36  -21.0186 26023.2 -03491.5 -07.6417 26256.4
 16 10 2013  20 37  -21.0183 26022.5 -03491.3 -07.6415 26255.7
 16 10 2013  20 38  -21.0180 26021.8 -03491.0 -07.6411 26254.9
 16 10 2013  20 39  -21.0177 26021.3 -03490.9 -07.6409 26254.4
 16 10 2013  20 40  -21.0173 26021.4 -03491.0 -07.6411 26254.5
 16 10 2013  20 41  -21.0169 26021.7 -03491.3 -07.6416 26254.8
 16 10 2013  20 42  -21.0164 26021.8 -03491.5 -07.6419 26255.0
 16 10 2013  20 43  -21.0159 26021.8 -03491.6 -07.6422 26255.0
 16 10 2013  20 44  -21.0153 26021.7 -03491.6 -07.6423 26254.9
 16 10 2013  20 45  -21.0148 26021.3 -03491.6 -07.6424 26254.5
 16 10 2013  20 46  -21.0144 26021.2 -03491.6 -07.6425 26254.4
 16 10 2013  20 47  -21.0139 26021.0 -03491.6 -07.6426 26254.2
 16 10 2013  20 48  -21.0134 26021.0 -03491.7 -07.6427 26254.2
 16 10 2013  20 49  -21.0129 26021.1 -03491.9 -07.6432 26254.3
 16 10 2013  20 50  -21.0124 26021.2 -03492.2 -07.6437 26254.5
 16 10 2013  20 51  -21.0120 26021.3 -03492.4 -07.6441 26254.6
 16 10 2013  20 52  -21.0117 26021.1 -03492.5 -07.6445 26254.5
 16 10 2013  20 53  -21.0114 26021.1 -03492.7 -07.6448 26254.5
 16 10 2013  20 54  -21.0112 26021.1 -03492.9 -07.6452 26254.4
 16 10 2013  20 55  -21.0110 26021.0 -03493.0 -07.6456 26254.4
 16 10 2013  20 56  -21.0109 26020.9 -03493.2 -07.6459 26254.3
 16 10 2013  20 57  -21.0108 26020.7 -03493.2 -07.6460 26254.1
 16 10 2013  20 58  -21.0105 26020.6 -03493.3 -07.6462 26254.0
 16 10 2013  20 59  -21.0107 26020.4 -03493.6 -07.6470 26253.9
 16 10 2013  21 00  -21.0108 26020.3 -03493.8 -07.6474 26253.8
 16 10 2013  21 01  -21.0107 26020.5 -03494.0 -07.6479 26254.0
 16 10 2013  21 02  -21.0108 26020.7 -03494.3 -07.6485 26254.3
 16 10 2013  21 03  -21.0109 26020.9 -03494.7 -07.6491 26254.5
 16 10 2013  21 04  -21.0110 26021.1 -03494.9 -07.6496 26254.7
 16 10 2013  21 05  -21.0111 26021.0 -03495.0 -07.6499 26254.7
 16 10 2013  21 06  -21.0112 26020.7 -03495.0 -07.6500 26254.4
 16 10 2013  21 07  -21.0114 26020.5 -03495.0 -07.6500 26254.1
 16 10 2013  21 08  -21.0115 26020.2 -03495.0 -07.6500 26253.9
 16 10 2013  21 09  -21.0117 26020.0 -03494.9 -07.6500 26253.7
 16 10 2013  21 10  -21.0118 26020.0 -03495.0 -07.6501 26253.6
 16 10 2013  21 11  -21.0119 26019.9 -03495.0 -07.6502 26253.6
 16 10 2013  21 12  -21.0120 26019.7 -03495.0 -07.6502 26253.4
 16 10 2013  21 13  -21.0122 26019.8 -03495.0 -07.6503 26253.5
 16 10 2013  21 14  -21.0121 26019.5 -03494.9 -07.6502 26253.2
 16 10 2013  21 15  -21.0123 26019.3 -03494.9 -07.6502 26252.9
 16 10 2013  21 16  -21.0124 26019.3 -03494.9 -07.6502 26253.0
 16 10 2013  21 17  -21.0123 26019.3 -03495.0 -07.6504 26253.0
 16 10 2013  21 18  -21.0123 26019.0 -03494.9 -07.6503 26252.6
 16 10 2013  21 19  -21.0123 26018.7 -03494.9 -07.6503 26252.4
 16 10 2013  21 20  -21.0123 26018.1 -03494.6 -07.6499 26251.8
 16 10 2013  21 21  -21.0124 26017.7 -03494.5 -07.6497 26251.4
 16 10 2013  21 22  -21.0125 26017.8 -03494.6 -07.6499 26251.5
 16 10 2013  21 23  -21.0126 26017.7 -03494.6 -07.6500 26251.4
 16 10 2013  21 24  -21.0125 26017.7 -03494.6 -07.6501 26251.3
 16 10 2013  21 25  -21.0126 26017.5 -03494.7 -07.6501 26251.1
 16 10 2013  21 26  -21.0126 26017.3 -03494.6 -07.6500 26250.9
 16 10 2013  21 27  -21.0126 26017.3 -03494.6 -07.6501 26250.9
 16 10 2013  21 28  -21.0128 26017.2 -03494.7 -07.6502 26250.8
 16 10 2013  21 29  -21.0130 26017.2 -03494.7 -07.6504 26250.8
 16 10 2013  21 30  -21.0132 26016.9 -03494.6 -07.6502 26250.5
 16 10 2013  21 31  -21.0135 26016.6 -03494.6 -07.6502 26250.2
 16 10 2013  21 32  -21.0138 26016.2 -03494.5 -07.6501 26249.9
 16 10 2013  21 33  -21.0141 26016.1 -03494.4 -07.6500 26249.7
 16 10 2013  21 34  -21.0142 26015.9 -03494.4 -07.6500 26249.5
 16 10 2013  21 35  -21.0145 26015.7 -03494.3 -07.6500 26249.4
 16 10 2013  21 36  -21.0145 26015.9 -03494.4 -07.6501 26249.5
 16 10 2013  21 37  -21.0146 26015.9 -03494.5 -07.6503 26249.6
 16 10 2013  21 38  -21.0145 26016.0 -03494.6 -07.6504 26249.6
 16 10 2013  21 39  -21.0144 26016.0 -03494.6 -07.6505 26249.6
 16 10 2013  21 40  -21.0142 26016.1 -03494.7 -07.6506 26249.7
 16 10 2013  21 41  -21.0140 26016.3 -03494.8 -07.6509 26250.0
 16 10 2013  21 42  -21.0138 26016.3 -03494.9 -07.6511 26250.0
 16 10 2013  21 43  -21.0136 26016.5 -03495.1 -07.6513 26250.2
 16 10 2013  21 44  -21.0136 26016.2 -03495.0 -07.6512 26249.9
 16 10 2013  21 45  -21.0137 26016.1 -03494.9 -07.6511 26249.8
 16 10 2013  21 46  -21.0139 26015.9 -03494.9 -07.6511 26249.6
 16 10 2013  21 47  -21.0142 26015.6 -03494.8 -07.6510 26249.3
 16 10 2013  21 48  -21.0147 26015.4 -03494.7 -07.6509 26249.1
 16 10 2013  21 49  -21.0149 26015.2 -03494.6 -07.6508 26248.8
 16 10 2013  21 50  -21.0150 26015.0 -03494.6 -07.6507 26248.7
 16 10 2013  21 51  -21.0151 26015.0 -03494.6 -07.6508 26248.7
 16 10 2013  21 52  -21.0153 26015.1 -03494.7 -07.6509 26248.8
 16 10 2013  21 53  -21.0154 26015.1 -03494.8 -07.6511 26248.8
 16 10 2013  21 54  -21.0157 26015.0 -03494.7 -07.6511 26248.7
 16 10 2013  21 55  -21.0157 26015.1 -03494.8 -07.6511 26248.8
 16 10 2013  21 56  -21.0158 26015.2 -03494.9 -07.6513 26248.9
 16 10 2013  21 57  -21.0160 26015.4 -03495.0 -07.6516 26249.1
 16 10 2013  21 58  -21.0161 26015.5 -03495.1 -07.6517 26249.2
 16 10 2013  21 59  -21.0163 26015.5 -03495.1 -07.6517 26249.3
 16 10 2013  22 00  -21.0164 26015.5 -03495.1 -07.6517 26249.2
 16 10 2013  22 01  -21.0167 26015.4 -03495.1 -07.6517 26249.2
 16 10 2013  22 02  -21.0168 26015.3 -03495.0 -07.6516 26249.0
 16 10 2013  22 03  -21.0168 26015.2 -03495.0 -07.6515 26248.9
 16 10 2013  22 04  -21.0167 26015.2 -03495.0 -07.6515 26248.9
 16 10 2013  22 05  -21.0166 26015.3 -03495.0 -07.6516 26249.0
 16 10 2013  22 06  -21.0165 26015.4 -03495.1 -07.6516 26249.1
 16 10 2013  22 07  -21.0165 26015.9 -03495.3 -07.6520 26249.7
 16 10 2013  22 08  -21.0166 26016.3 -03495.5 -07.6524 26250.1
 16 10 2013  22 09  -21.0167 26016.6 -03495.7 -07.6526 26250.4
 16 10 2013  22 10  -21.0170 26016.5 -03495.7 -07.6527 26250.3
 16 10 2013  22 11  -21.0170 26015.9 -03495.4 -07.6522 26249.7
 16 10 2013  22 12  -21.0171 26015.2 -03495.0 -07.6515 26248.9
 16 10 2013  22 13  -21.0170 26015.0 -03494.9 -07.6513 26248.7
 16 10 2013  22 14  -21.0169 26015.0 -03494.9 -07.6514 26248.7
 16 10 2013  22 15  -21.0171 26014.8 -03494.9 -07.6513 26248.5
 16 10 2013  22 16  -21.0170 26014.8 -03494.8 -07.6513 26248.5
 16 10 2013  22 17  -21.0168 26015.1 -03494.9 -07.6515 26248.8
 16 10 2013  22 18  -21.0170 26015.6 -03495.2 -07.6519 26249.4
 16 10 2013  22 19  -21.0173 26015.9 -03495.5 -07.6523 26249.6
 16 10 2013  22 20  -21.0177 26015.4 -03495.3 -07.6521 26249.1
 16 10 2013  22 21  -21.0174 26014.9 -03495.0 -07.6516 26248.6
 16 10 2013  22 22  -21.0171 26014.3 -03494.6 -07.6510 26248.0
 16 10 2013  22 23  -21.0166 26014.1 -03494.5 -07.6507 26247.8
 16 10 2013  22 24  -21.0165 26014.5 -03494.7 -07.6510 26248.1
 16 10 2013  22 25  -21.0167 26014.9 -03495.0 -07.6516 26248.6
 16 10 2013  22 26  -21.0169 26014.8 -03495.1 -07.6518 26248.5
 16 10 2013  22 27  -21.0169 26014.7 -03495.1 -07.6518 26248.5
 16 10 2013  22 28  -21.0167 26014.4 -03494.9 -07.6515 26248.1
 16 10 2013  22 29  -21.0165 26014.4 -03494.9 -07.6515 26248.1
 16 10 2013  22 30  -21.0164 26014.5 -03494.9 -07.6515 26248.2
 16 10 2013  22 31  -21.0165 26014.4 -03494.9 -07.6516 26248.2
 16 10 2013  22 32  -21.0162 26014.5 -03495.0 -07.6518 26248.2
 16 10 2013  22 33  -21.0162 26014.2 -03494.9 -07.6516 26247.9
 16 10 2013  22 34  -21.0162 26013.9 -03494.8 -07.6514 26247.6
 16 10 2013  22 35  -21.0164 26013.8 -03494.8 -07.6515 26247.5
 16 10 2013  22 36  -21.0169 26013.6 -03494.8 -07.6515 26247.3
 16 10 2013  22 37  -21.0173 26013.2 -03494.6 -07.6513 26246.9
 16 10 2013  22 38  -21.0175 26012.7 -03494.4 -07.6510 26246.3
 16 10 2013  22 39  -21.0174 26012.4 -03494.3 -07.6507 26246.1
 16 10 2013  22 40  -21.0170 26012.4 -03494.3 -07.6508 26246.1
 16 10 2013  22 41  -21.0167 26012.9 -03494.5 -07.6511 26246.6
 16 10 2013  22 42  -21.0164 26013.3 -03494.7 -07.6516 26247.0
 16 10 2013  22 43  -21.0161 26013.6 -03494.9 -07.6519 26247.3
 16 10 2013  22 44  -21.0160 26013.7 -03495.1 -07.6521 26247.4
 16 10 2013  22 45  -21.0158 26013.7 -03495.0 -07.6521 26247.4
 16 10 2013  22 46  -21.0157 26013.5 -03495.0 -07.6521 26247.3
 16 10 2013  22 47  -21.0160 26013.4 -03495.0 -07.6520 26247.2
 16 10 2013  22 48  -21.0162 26013.3 -03495.0 -07.6521 26247.0
 16 10 2013  22 49  -21.0166 26012.9 -03494.8 -07.6518 26246.7
 16 10 2013  22 50  -21.0167 26012.8 -03494.7 -07.6517 26246.5
 16 10 2013  22 51  -21.0167 26012.6 -03494.6 -07.6515 26246.3
 16 10 2013  22 52  -21.0166 26012.5 -03494.5 -07.6514 26246.1
 16 10 2013  22 53  -21.0165 26012.5 -03494.6 -07.6514 26246.2
 16 10 2013  22 54  -21.0163 26012.7 -03494.7 -07.6517 26246.5
 16 10 2013  22 55  -21.0164 26012.7 -03494.8 -07.6518 26246.4
 16 10 2013  22 56  -21.0163 26012.8 -03494.8 -07.6518 26246.5
 16 10 2013  22 57  -21.0158 26013.6 -03495.2 -07.6523 26247.3
 16 10 2013  22 58  -21.0155 26014.3 -03495.6 -07.6531 26248.1
 16 10 2013  22 59  -21.0158 26014.2 -03495.6 -07.6532 26248.0
 16 10 2013  23 00  -21.0161 26014.4 -03495.7 -07.6533 26248.2
 16 10 2013  23 01  -21.0161 26013.9 -03495.5 -07.6530 26247.7
 16 10 2013  23 02  -21.0157 26013.7 -03495.2 -07.6525 26247.5
 16 10 2013  23 03  -21.0162 26013.2 -03495.0 -07.6522 26247.0
 16 10 2013  23 04  -21.0166 26012.4 -03494.7 -07.6516 26246.1
 16 10 2013  23 05  -21.0162 26011.9 -03494.4 -07.6512 26245.6
 16 10 2013  23 06  -21.0158 26011.5 -03494.1 -07.6507 26245.2
 16 10 2013  23 07  -21.0153 26011.7 -03494.2 -07.6508 26245.4
 16 10 2013  23 08  -21.0153 26012.1 -03494.5 -07.6513 26245.8
 16 10 2013  23 09  -21.0150 26012.2 -03494.6 -07.6516 26245.9
 16 10 2013  23 10  -21.0143 26011.7 -03494.4 -07.6513 26245.4
 16 10 2013  23 11  -21.0139 26011.5 -03494.3 -07.6512 26245.2
 16 10 2013  23 12  -21.0138 26011.4 -03494.3 -07.6512 26245.1
 16 10 2013  23 13  -21.0133 26011.0 -03494.2 -07.6511 26244.7
 16 10 2013  23 14  -21.0132 26010.5 -03494.0 -07.6507 26244.1
 16 10 2013  23 15  -21.0133 26009.7 -03493.7 -07.6502 26243.3
 16 10 2013  23 16  -21.0134 26009.5 -03493.6 -07.6502 26243.1
 16 10 2013  23 17  -21.0135 26009.4 -03493.7 -07.6505 26243.0
 16 10 2013  23 18  -21.0138 26008.9 -03493.6 -07.6503 26242.5
 16 10 2013  23 19  -21.0138 26008.9 -03493.6 -07.6504 26242.5
 16 10 2013  23 20  -21.0141 26008.7 -03493.6 -07.6504 26242.3
 16 10 2013  23 21  -21.0142 26008.8 -03493.7 -07.6507 26242.4
 16 10 2013  23 22  -21.0143 26008.9 -03493.9 -07.6509 26242.5
 16 10 2013  23 23  -21.0141 26009.1 -03494.1 -07.6513 26242.8
 16 10 2013  23 24  -21.0142 26009.2 -03494.2 -07.6515 26242.9
 16 10 2013  23 25  -21.0141 26009.6 -03494.4 -07.6518 26243.2
 16 10 2013  23 26  -21.0139 26009.7 -03494.5 -07.6520 26243.3
 16 10 2013  23 27  -21.0137 26009.5 -03494.4 -07.6520 26243.2
 16 10 2013  23 28  -21.0134 26009.6 -03494.5 -07.6520 26243.3
 16 10 2013  23 29  -21.0132 26009.6 -03494.5 -07.6521 26243.3
 16 10 2013  23 30  -21.0129 26009.7 -03494.6 -07.6522 26243.4
 16 10 2013  23 31  -21.0127 26009.7 -03494.6 -07.6523 26243.4
 16 10 2013  23 32  -21.0125 26009.7 -03494.7 -07.6524 26243.4
 16 10 2013  23 33  -21.0124 26009.6 -03494.7 -07.6524 26243.3
 16 10 2013  23 34  -21.0122 26009.7 -03494.7 -07.6525 26243.4
 16 10 2013  23 35  -21.0122 26009.5 -03494.7 -07.6525 26243.2
 16 10 2013  23 36  -21.0123 26009.4 -03494.6 -07.6525 26243.1
 16 10 2013  23 37  -21.0127 26009.4 -03494.7 -07.6526 26243.1
 16 10 2013  23 38  -21.0130 26009.3 -03494.7 -07.6526 26243.0
 16 10 2013  23 39  -21.0130 26009.4 -03494.8 -07.6527 26243.1
 16 10 2013  23 40  -21.0129 26009.7 -03495.0 -07.6531 26243.5
 16 10 2013  23 41  -21.0128 26010.3 -03495.2 -07.6534 26244.1
 16 10 2013  23 42  -21.0121 26011.5 -03495.9 -07.6545 26245.4
 16 10 2013  23 43  -21.0120 26011.6 -03496.0 -07.6547 26245.5
 16 10 2013  23 44  -21.0116 26012.3 -03496.3 -07.6552 26246.2
 16 10 2013  23 45  -21.0113 26011.8 -03496.1 -07.6549 26245.7
 16 10 2013  23 46  -21.0113 26011.8 -03495.9 -07.6546 26245.6
 16 10 2013  23 47  -21.0113 26011.5 -03495.9 -07.6545 26245.3
 16 10 2013  23 48  -21.0111 26011.5 -03495.8 -07.6543 26245.4
 16 10 2013  23 49  -21.0110 26011.1 -03495.6 -07.6541 26244.9
 16 10 2013  23 50  -21.0113 26011.0 -03495.6 -07.6540 26244.8
 16 10 2013  23 51  -21.0109 26011.1 -03495.6 -07.6541 26245.0
 16 10 2013  23 52  -21.0107 26010.9 -03495.5 -07.6539 26244.7
 16 10 2013  23 53  -21.0103 26010.9 -03495.5 -07.6539 26244.7
 16 10 2013  23 54  -21.0099 26011.0 -03495.6 -07.6540 26244.8
 16 10 2013  23 55  -21.0096 26010.9 -03495.6 -07.6541 26244.8
 16 10 2013  23 56  -21.0093 26011.1 -03495.7 -07.6543 26245.0
 16 10 2013  23 57  -21.0091 26011.2 -03495.9 -07.6545 26245.1
