SAO LUIS EMBRACE-03 <018> 1 Min. Reported data

 DD MM YYYY  HH MM   D(Deg)  H(nT)   Z(nT)   I(Deg)   F(nT)

 18 01 2013  00 00  -21.0446 26012.8 -03388.1 -07.4209 26232.5
 18 01 2013  00 01  -21.0458 26012.8 -03388.1 -07.4209 26232.5
 18 01 2013  00 02  -21.0470 26012.7 -03388.0 -07.4206 26232.4
 18 01 2013  00 03  -21.0477 26012.5 -03387.8 -07.4202 26232.2
 18 01 2013  00 04  -21.0483 26012.4 -03387.6 -07.4199 26232.0
 18 01 2013  00 05  -21.0487 26012.1 -03387.4 -07.4195 26231.8
 18 01 2013  00 06  -21.0489 26011.9 -03387.2 -07.4191 26231.5
 18 01 2013  00 07  -21.0492 26011.6 -03387.0 -07.4188 26231.2
 18 01 2013  00 08  -21.0494 26011.3 -03386.8 -07.4185 26230.9
 18 01 2013  00 09  -21.0495 26011.0 -03386.6 -07.4182 26230.6
 18 01 2013  00 10  -21.0494 26010.8 -03386.5 -07.4180 26230.4
 18 01 2013  00 11  -21.0490 26010.6 -03386.4 -07.4178 26230.1
 18 01 2013  00 12  -21.0484 26010.4 -03386.3 -07.4176 26229.9
 18 01 2013  00 13  -21.0478 26010.2 -03386.2 -07.4175 26229.7
 18 01 2013  00 14  -21.0473 26010.1 -03386.2 -07.4174 26229.6
 18 01 2013  00 15  -21.0467 26010.0 -03386.2 -07.4174 26229.5
 18 01 2013  00 16  -21.0460 26009.8 -03386.1 -07.4174 26229.3
 18 01 2013  00 17  -21.0449 26009.6 -03386.1 -07.4173 26229.1
 18 01 2013  00 18  -21.0443 26009.5 -03386.1 -07.4175 26229.0
 18 01 2013  00 19  -21.0440 26009.6 -03386.3 -07.4178 26229.1
 18 01 2013  00 20  -21.0439 26009.6 -03386.4 -07.4181 26229.2
 18 01 2013  00 21  -21.0434 26009.7 -03386.6 -07.4184 26229.2
 18 01 2013  00 22  -21.0432 26009.8 -03386.7 -07.4186 26229.4
 18 01 2013  00 23  -21.0430 26009.7 -03386.8 -07.4188 26229.3
 18 01 2013  00 24  -21.0420 26009.5 -03386.7 -07.4187 26229.1
 18 01 2013  00 25  -21.0411 26009.5 -03386.7 -07.4187 26229.0
 18 01 2013  00 26  -21.0401 26009.3 -03386.7 -07.4188 26228.9
 18 01 2013  00 27  -21.0387 26009.2 -03386.7 -07.4188 26228.8
 18 01 2013  00 28  -21.0371 26009.1 -03386.7 -07.4188 26228.6
 18 01 2013  00 29  -21.0358 26009.1 -03386.8 -07.4191 26228.7
 18 01 2013  00 30  -21.0347 26009.2 -03387.0 -07.4195 26228.8
 18 01 2013  00 31  -21.0339 26009.5 -03387.3 -07.4201 26229.1
 18 01 2013  00 32  -21.0331 26009.8 -03387.6 -07.4206 26229.5
 18 01 2013  00 33  -21.0328 26009.9 -03387.9 -07.4212 26229.6
 18 01 2013  00 34  -21.0327 26010.1 -03388.2 -07.4217 26229.9
 18 01 2013  00 35  -21.0330 26010.3 -03388.4 -07.4222 26230.1
 18 01 2013  00 36  -21.0334 26010.6 -03388.6 -07.4226 26230.4
 18 01 2013  00 37  -21.0339 26010.7 -03388.8 -07.4230 26230.5
 18 01 2013  00 38  -21.0345 26010.9 -03389.0 -07.4233 26230.7
 18 01 2013  00 39  -21.0349 26011.0 -03389.1 -07.4235 26230.9
 18 01 2013  00 40  -21.0353 26011.2 -03389.2 -07.4238 26231.0
 18 01 2013  00 41  -21.0358 26011.3 -03389.3 -07.4239 26231.2
 18 01 2013  00 42  -21.0363 26011.4 -03389.4 -07.4240 26231.3
 18 01 2013  00 43  -21.0368 26011.4 -03389.5 -07.4241 26231.3
 18 01 2013  00 44  -21.0373 26011.4 -03389.5 -07.4242 26231.3
 18 01 2013  00 45  -21.0379 26011.4 -03389.5 -07.4242 26231.3
 18 01 2013  00 46  -21.0383 26011.4 -03389.5 -07.4242 26231.3
 18 01 2013  00 47  -21.0386 26011.4 -03389.5 -07.4242 26231.3
 18 01 2013  00 48  -21.0388 26011.4 -03389.4 -07.4241 26231.3
 18 01 2013  00 49  -21.0388 26011.3 -03389.4 -07.4241 26231.2
 18 01 2013  00 50  -21.0387 26011.3 -03389.4 -07.4241 26231.2
 18 01 2013  00 51  -21.0387 26011.2 -03389.4 -07.4240 26231.1
 18 01 2013  00 52  -21.0385 26011.1 -03389.3 -07.4240 26231.0
 18 01 2013  00 53  -21.0382 26011.0 -03389.3 -07.4239 26230.9
 18 01 2013  00 54  -21.0379 26010.9 -03389.3 -07.4239 26230.8
 18 01 2013  00 55  -21.0378 26010.9 -03389.3 -07.4239 26230.7
 18 01 2013  00 56  -21.0381 26011.0 -03389.4 -07.4241 26230.9
 18 01 2013  00 57  -21.0385 26011.0 -03389.5 -07.4243 26230.9
 18 01 2013  00 58  -21.0387 26011.1 -03389.5 -07.4243 26231.0
 18 01 2013  00 59  -21.0387 26011.1 -03389.5 -07.4243 26231.0
 18 01 2013  01 00  -21.0384 26011.0 -03389.4 -07.4242 26230.9
 18 01 2013  01 01  -21.0380 26011.0 -03389.4 -07.4242 26230.9
 18 01 2013  01 02  -21.0374 26011.1 -03389.4 -07.4242 26231.0
 18 01 2013  01 03  -21.0370 26011.2 -03389.5 -07.4243 26231.2
 18 01 2013  01 04  -21.0371 26011.4 -03389.6 -07.4244 26231.3
 18 01 2013  01 05  -21.0374 26011.6 -03389.7 -07.4246 26231.5
 18 01 2013  01 06  -21.0382 26011.8 -03389.8 -07.4249 26231.7
 18 01 2013  01 07  -21.0388 26011.9 -03389.9 -07.4250 26231.9
 18 01 2013  01 08  -21.0392 26012.0 -03389.9 -07.4249 26232.0
 18 01 2013  01 09  -21.0396 26012.1 -03389.9 -07.4249 26232.0
 18 01 2013  01 10  -21.0399 26012.1 -03389.8 -07.4248 26232.0
 18 01 2013  01 11  -21.0400 26012.1 -03389.7 -07.4246 26232.0
 18 01 2013  01 12  -21.0398 26012.1 -03389.7 -07.4244 26232.0
 18 01 2013  01 13  -21.0396 26012.1 -03389.6 -07.4242 26232.0
 18 01 2013  01 14  -21.0396 26012.2 -03389.6 -07.4242 26232.1
 18 01 2013  01 15  -21.0398 26012.4 -03389.7 -07.4243 26232.3
 18 01 2013  01 16  -21.0400 26012.5 -03389.7 -07.4244 26232.4
 18 01 2013  01 17  -21.0397 26012.6 -03389.7 -07.4243 26232.6
 18 01 2013  01 18  -21.0394 26012.6 -03389.6 -07.4242 26232.5
 18 01 2013  01 19  -21.0392 26012.6 -03389.6 -07.4241 26232.5
 18 01 2013  01 20  -21.0390 26012.5 -03389.5 -07.4240 26232.5
 18 01 2013  01 21  -21.0385 26012.5 -03389.5 -07.4239 26232.4
 18 01 2013  01 22  -21.0378 26012.5 -03389.4 -07.4238 26232.4
 18 01 2013  01 23  -21.0376 26012.7 -03389.5 -07.4239 26232.6
 18 01 2013  01 24  -21.0376 26012.8 -03389.6 -07.4241 26232.7
 18 01 2013  01 25  -21.0375 26012.9 -03389.6 -07.4241 26232.8
 18 01 2013  01 26  -21.0379 26012.9 -03389.7 -07.4242 26232.8
 18 01 2013  01 27  -21.0385 26012.9 -03389.7 -07.4242 26232.9
 18 01 2013  01 28  -21.0395 26013.0 -03389.7 -07.4242 26232.9
 18 01 2013  01 29  -21.0400 26013.0 -03389.7 -07.4242 26232.9
 18 01 2013  01 30  -21.0400 26013.0 -03389.5 -07.4238 26232.8
 18 01 2013  01 31  -21.0401 26012.9 -03389.4 -07.4236 26232.8
 18 01 2013  01 32  -21.0402 26012.8 -03389.3 -07.4234 26232.7
 18 01 2013  01 33  -21.0403 26012.7 -03389.2 -07.4231 26232.6
 18 01 2013  01 34  -21.0405 26012.6 -03389.0 -07.4229 26232.5
 18 01 2013  01 35  -21.0404 26012.5 -03388.9 -07.4227 26232.3
 18 01 2013  01 36  -21.0405 26012.4 -03388.8 -07.4225 26232.2
 18 01 2013  01 37  -21.0409 26012.5 -03388.9 -07.4225 26232.3
 18 01 2013  01 38  -21.0415 26012.5 -03388.8 -07.4225 26232.3
 18 01 2013  01 39  -21.0421 26012.4 -03388.7 -07.4223 26232.2
 18 01 2013  01 40  -21.0426 26012.5 -03388.7 -07.4223 26232.3
 18 01 2013  01 41  -21.0428 26012.6 -03388.7 -07.4222 26232.4
 18 01 2013  01 42  -21.0430 26012.6 -03388.6 -07.4220 26232.4
 18 01 2013  01 43  -21.0429 26012.4 -03388.5 -07.4218 26232.2
 18 01 2013  01 44  -21.0426 26012.3 -03388.3 -07.4215 26232.1
 18 01 2013  01 45  -21.0420 26012.2 -03388.2 -07.4212 26231.9
 18 01 2013  01 46  -21.0413 26012.1 -03388.0 -07.4209 26231.8
 18 01 2013  01 47  -21.0405 26012.1 -03388.0 -07.4209 26231.8
 18 01 2013  01 48  -21.0400 26012.3 -03388.1 -07.4210 26232.0
 18 01 2013  01 49  -21.0397 26012.3 -03388.2 -07.4211 26232.1
 18 01 2013  01 50  -21.0395 26012.4 -03388.2 -07.4212 26232.1
 18 01 2013  01 51  -21.0394 26012.4 -03388.2 -07.4213 26232.1
 18 01 2013  01 52  -21.0395 26012.7 -03388.4 -07.4215 26232.4
 18 01 2013  01 53  -21.0395 26012.9 -03388.5 -07.4217 26232.6
 18 01 2013  01 54  -21.0395 26013.1 -03388.6 -07.4219 26232.8
 18 01 2013  01 55  -21.0396 26013.4 -03388.8 -07.4221 26233.2
 18 01 2013  01 56  -21.0400 26013.8 -03389.0 -07.4225 26233.7
 18 01 2013  01 57  -21.0403 26014.3 -03389.2 -07.4228 26234.2
 18 01 2013  01 58  -21.0402 26014.6 -03389.3 -07.4230 26234.5
 18 01 2013  01 59  -21.0405 26014.9 -03389.4 -07.4231 26234.8
 18 01 2013  02 00  -21.0408 26015.1 -03389.4 -07.4231 26234.9
 18 01 2013  02 01  -21.0410 26015.1 -03389.4 -07.4230 26235.0
 18 01 2013  02 02  -21.0410 26015.2 -03389.3 -07.4229 26235.0
 18 01 2013  02 03  -21.0407 26015.3 -03389.3 -07.4228 26235.1
 18 01 2013  02 04  -21.0405 26015.4 -03389.3 -07.4226 26235.2
 18 01 2013  02 05  -21.0403 26015.5 -03389.3 -07.4226 26235.4
 18 01 2013  02 06  -21.0400 26015.7 -03389.3 -07.4227 26235.6
 18 01 2013  02 07  -21.0392 26015.8 -03389.3 -07.4227 26235.7
 18 01 2013  02 08  -21.0380 26015.9 -03389.3 -07.4226 26235.8
 18 01 2013  02 09  -21.0370 26015.9 -03389.3 -07.4226 26235.8
 18 01 2013  02 10  -21.0363 26016.0 -03389.4 -07.4226 26235.9
 18 01 2013  02 11  -21.0358 26016.1 -03389.4 -07.4228 26236.0
 18 01 2013  02 12  -21.0358 26016.2 -03389.5 -07.4230 26236.1
 18 01 2013  02 13  -21.0361 26016.3 -03389.7 -07.4232 26236.2
 18 01 2013  02 14  -21.0363 26016.4 -03389.7 -07.4233 26236.3
 18 01 2013  02 15  -21.0364 26016.4 -03389.8 -07.4234 26236.3
 18 01 2013  02 16  -21.0365 26016.6 -03389.8 -07.4235 26236.5
 18 01 2013  02 17  -21.0366 26016.7 -03389.9 -07.4236 26236.6
 18 01 2013  02 18  -21.0367 26016.8 -03389.9 -07.4237 26236.7
 18 01 2013  02 19  -21.0368 26016.7 -03389.9 -07.4236 26236.6
 18 01 2013  02 20  -21.0366 26016.6 -03389.8 -07.4235 26236.5
 18 01 2013  02 21  -21.0364 26016.4 -03389.7 -07.4232 26236.2
 18 01 2013  02 22  -21.0362 26016.1 -03389.5 -07.4230 26236.0
 18 01 2013  02 23  -21.0364 26015.8 -03389.4 -07.4227 26235.7
 18 01 2013  02 24  -21.0371 26015.6 -03389.3 -07.4226 26235.4
 18 01 2013  02 25  -21.0380 26015.3 -03389.2 -07.4225 26235.1
 18 01 2013  02 26  -21.0384 26014.9 -03389.0 -07.4222 26234.7
 18 01 2013  02 27  -21.0387 26014.6 -03388.8 -07.4219 26234.4
 18 01 2013  02 28  -21.0391 26014.0 -03388.5 -07.4214 26233.7
 18 01 2013  02 29  -21.0395 26013.5 -03388.3 -07.4210 26233.3
 18 01 2013  02 30  -21.0399 26013.3 -03388.2 -07.4209 26233.1
 18 01 2013  02 31  -21.0401 26013.4 -03388.2 -07.4209 26233.1
 18 01 2013  02 32  -21.0405 26013.6 -03388.4 -07.4212 26233.3
 18 01 2013  02 33  -21.0408 26013.7 -03388.5 -07.4214 26233.5
 18 01 2013  02 34  -21.0410 26014.0 -03388.6 -07.4215 26233.8
 18 01 2013  02 35  -21.0412 26014.2 -03388.7 -07.4217 26234.0
 18 01 2013  02 36  -21.0414 26014.4 -03388.8 -07.4218 26234.2
 18 01 2013  02 37  -21.0415 26014.5 -03388.8 -07.4219 26234.3
 18 01 2013  02 38  -21.0413 26014.6 -03388.8 -07.4219 26234.4
 18 01 2013  02 39  -21.0408 26014.8 -03388.8 -07.4219 26234.6
 18 01 2013  02 40  -21.0404 26014.8 -03388.8 -07.4218 26234.6
 18 01 2013  02 41  -21.0396 26014.8 -03388.8 -07.4218 26234.6
 18 01 2013  02 42  -21.0390 26014.9 -03388.8 -07.4218 26234.7
 18 01 2013  02 43  -21.0388 26015.0 -03388.9 -07.4219 26234.8
 18 01 2013  02 44  -21.0390 26015.3 -03389.1 -07.4222 26235.1
 18 01 2013  02 45  -21.0394 26015.6 -03389.2 -07.4225 26235.4
 18 01 2013  02 46  -21.0394 26015.8 -03389.3 -07.4226 26235.7
 18 01 2013  02 47  -21.0392 26016.1 -03389.4 -07.4227 26235.9
 18 01 2013  02 48  -21.0388 26016.2 -03389.4 -07.4227 26236.1
 18 01 2013  02 49  -21.0384 26016.4 -03389.5 -07.4228 26236.3
 18 01 2013  02 50  -21.0379 26016.5 -03389.5 -07.4228 26236.3
 18 01 2013  02 51  -21.0378 26016.5 -03389.5 -07.4228 26236.4
 18 01 2013  02 52  -21.0373 26016.4 -03389.4 -07.4226 26236.2
 18 01 2013  02 53  -21.0369 26016.2 -03389.3 -07.4224 26236.1
 18 01 2013  02 54  -21.0364 26016.3 -03389.2 -07.4223 26236.1
 18 01 2013  02 55  -21.0359 26016.2 -03389.2 -07.4223 26236.1
 18 01 2013  02 56  -21.0354 26016.3 -03389.3 -07.4223 26236.2
 18 01 2013  02 57  -21.0350 26016.4 -03389.3 -07.4224 26236.3
 18 01 2013  02 58  -21.0343 26016.5 -03389.3 -07.4225 26236.3
 18 01 2013  02 59  -21.0332 26016.5 -03389.4 -07.4225 26236.4
 18 01 2013  03 00  -21.0321 26016.5 -03389.4 -07.4226 26236.4
 18 01 2013  03 01  -21.0310 26016.6 -03389.4 -07.4226 26236.4
 18 01 2013  03 02  -21.0301 26016.5 -03389.4 -07.4227 26236.4
 18 01 2013  03 03  -21.0296 26016.5 -03389.5 -07.4228 26236.4
 18 01 2013  03 04  -21.0297 26016.7 -03389.7 -07.4231 26236.6
 18 01 2013  03 05  -21.0299 26016.9 -03389.8 -07.4234 26236.8
 18 01 2013  03 06  -21.0303 26017.1 -03390.0 -07.4237 26237.0
 18 01 2013  03 07  -21.0308 26017.4 -03390.2 -07.4240 26237.4
 18 01 2013  03 08  -21.0314 26017.7 -03390.3 -07.4243 26237.7
 18 01 2013  03 09  -21.0323 26018.2 -03390.6 -07.4247 26238.2
 18 01 2013  03 10  -21.0336 26018.7 -03390.8 -07.4251 26238.7
 18 01 2013  03 11  -21.0346 26019.2 -03391.0 -07.4254 26239.3
 18 01 2013  03 12  -21.0355 26019.7 -03391.2 -07.4255 26239.7
 18 01 2013  03 13  -21.0364 26020.0 -03391.2 -07.4256 26240.1
 18 01 2013  03 14  -21.0367 26020.5 -03391.3 -07.4256 26240.6
 18 01 2013  03 15  -21.0370 26021.0 -03391.4 -07.4257 26241.0
 18 01 2013  03 16  -21.0370 26021.2 -03391.4 -07.4255 26241.2
 18 01 2013  03 17  -21.0367 26021.3 -03391.3 -07.4253 26241.3
 18 01 2013  03 18  -21.0364 26021.5 -03391.2 -07.4251 26241.5
 18 01 2013  03 19  -21.0360 26021.6 -03391.1 -07.4249 26241.6
 18 01 2013  03 20  -21.0356 26021.5 -03391.0 -07.4246 26241.6
 18 01 2013  03 21  -21.0351 26021.6 -03390.9 -07.4244 26241.6
 18 01 2013  03 22  -21.0347 26021.7 -03390.8 -07.4243 26241.7
 18 01 2013  03 23  -21.0344 26021.8 -03390.8 -07.4242 26241.8
 18 01 2013  03 24  -21.0344 26021.9 -03390.8 -07.4242 26241.9
 18 01 2013  03 25  -21.0345 26022.0 -03390.8 -07.4242 26241.9
 18 01 2013  03 26  -21.0344 26022.1 -03390.8 -07.4242 26242.1
 18 01 2013  03 27  -21.0345 26022.2 -03390.9 -07.4242 26242.2
 18 01 2013  03 28  -21.0345 26022.2 -03390.8 -07.4241 26242.2
 18 01 2013  03 29  -21.0344 26022.0 -03390.6 -07.4237 26242.0
 18 01 2013  03 30  -21.0342 26021.7 -03390.4 -07.4233 26241.6
 18 01 2013  03 31  -21.0340 26021.3 -03390.1 -07.4229 26241.2
 18 01 2013  03 32  -21.0338 26021.1 -03390.0 -07.4225 26241.0
 18 01 2013  03 33  -21.0334 26021.1 -03389.9 -07.4225 26241.0
 18 01 2013  03 34  -21.0328 26021.0 -03389.8 -07.4223 26240.9
 18 01 2013  03 35  -21.0323 26020.9 -03389.8 -07.4222 26240.7
 18 01 2013  03 36  -21.0321 26021.0 -03389.8 -07.4223 26240.8
 18 01 2013  03 37  -21.0322 26021.0 -03389.9 -07.4224 26240.9
 18 01 2013  03 38  -21.0323 26021.1 -03390.0 -07.4226 26241.0
 18 01 2013  03 39  -21.0323 26021.2 -03390.0 -07.4227 26241.1
 18 01 2013  03 40  -21.0321 26021.3 -03390.1 -07.4227 26241.2
 18 01 2013  03 41  -21.0319 26021.3 -03390.1 -07.4227 26241.2
 18 01 2013  03 42  -21.0315 26021.3 -03390.0 -07.4226 26241.2
 18 01 2013  03 43  -21.0313 26021.2 -03390.0 -07.4226 26241.1
 18 01 2013  03 44  -21.0308 26021.1 -03389.9 -07.4225 26241.0
 18 01 2013  03 45  -21.0307 26020.9 -03389.8 -07.4223 26240.8
 18 01 2013  03 46  -21.0306 26020.8 -03389.8 -07.4222 26240.6
 18 01 2013  03 47  -21.0305 26020.7 -03389.8 -07.4222 26240.5
 18 01 2013  03 48  -21.0299 26020.6 -03389.7 -07.4222 26240.5
 18 01 2013  03 49  -21.0293 26020.8 -03389.8 -07.4223 26240.6
 18 01 2013  03 50  -21.0286 26021.1 -03390.0 -07.4226 26241.0
 18 01 2013  03 51  -21.0280 26021.4 -03390.2 -07.4229 26241.3
 18 01 2013  03 52  -21.0277 26021.8 -03390.4 -07.4234 26241.8
 18 01 2013  03 53  -21.0274 26022.2 -03390.7 -07.4237 26242.1
 18 01 2013  03 54  -21.0269 26022.4 -03390.8 -07.4239 26242.4
 18 01 2013  03 55  -21.0265 26022.7 -03390.9 -07.4241 26242.7
 18 01 2013  03 56  -21.0261 26023.0 -03391.1 -07.4244 26243.0
 18 01 2013  03 57  -21.0261 26023.3 -03391.2 -07.4246 26243.3
 18 01 2013  03 58  -21.0262 26023.6 -03391.4 -07.4249 26243.7
 18 01 2013  03 59  -21.0263 26024.0 -03391.5 -07.4251 26244.0
 18 01 2013  04 00  -21.0262 26024.3 -03391.6 -07.4252 26244.3
 18 01 2013  04 01  -21.0262 26024.8 -03391.8 -07.4255 26244.9
 18 01 2013  04 02  -21.0262 26025.4 -03392.1 -07.4259 26245.5
 18 01 2013  04 03  -21.0259 26026.2 -03392.4 -07.4264 26246.3
 18 01 2013  04 04  -21.0257 26026.9 -03392.7 -07.4268 26247.1
 18 01 2013  04 05  -21.0254 26027.4 -03392.9 -07.4270 26247.6
 18 01 2013  04 06  -21.0252 26027.8 -03393.0 -07.4271 26248.0
 18 01 2013  04 07  -21.0250 26028.0 -03393.0 -07.4271 26248.2
 18 01 2013  04 08  -21.0249 26028.1 -03392.9 -07.4270 26248.3
 18 01 2013  04 09  -21.0245 26028.1 -03392.8 -07.4268 26248.3
 18 01 2013  04 10  -21.0240 26027.8 -03392.6 -07.4264 26248.0
 18 01 2013  04 11  -21.0234 26027.4 -03392.3 -07.4258 26247.5
 18 01 2013  04 12  -21.0232 26026.6 -03391.8 -07.4250 26246.6
 18 01 2013  04 13  -21.0228 26026.1 -03391.5 -07.4244 26246.1
 18 01 2013  04 14  -21.0223 26026.0 -03391.4 -07.4242 26246.0
 18 01 2013  04 15  -21.0220 26026.0 -03391.4 -07.4243 26246.1
 18 01 2013  04 16  -21.0220 26026.0 -03391.5 -07.4244 26246.0
 18 01 2013  04 17  -21.0221 26025.8 -03391.4 -07.4243 26245.8
 18 01 2013  04 18  -21.0221 26025.5 -03391.3 -07.4241 26245.5
 18 01 2013  04 19  -21.0220 26025.2 -03391.1 -07.4238 26245.2
 18 01 2013  04 20  -21.0216 26025.0 -03391.0 -07.4236 26245.0
 18 01 2013  04 21  -21.0209 26024.9 -03390.9 -07.4235 26244.8
 18 01 2013  04 22  -21.0201 26024.7 -03390.8 -07.4234 26244.7
 18 01 2013  04 23  -21.0191 26024.6 -03390.8 -07.4233 26244.5
 18 01 2013  04 24  -21.0183 26024.3 -03390.7 -07.4232 26244.3
 18 01 2013  04 25  -21.0178 26024.1 -03390.6 -07.4231 26244.0
 18 01 2013  04 26  -21.0176 26023.7 -03390.5 -07.4230 26243.6
 18 01 2013  04 27  -21.0175 26023.4 -03390.5 -07.4230 26243.4
 18 01 2013  04 28  -21.0172 26023.5 -03390.5 -07.4231 26243.4
 18 01 2013  04 29  -21.0169 26023.7 -03390.7 -07.4235 26243.7
 18 01 2013  04 30  -21.0168 26024.4 -03391.1 -07.4241 26244.4
 18 01 2013  04 31  -21.0166 26025.2 -03391.7 -07.4250 26245.3
 18 01 2013  04 32  -21.0166 26025.8 -03392.0 -07.4257 26245.9
 18 01 2013  04 33  -21.0165 26026.4 -03392.3 -07.4262 26246.5
 18 01 2013  04 34  -21.0166 26026.9 -03392.7 -07.4267 26247.1
 18 01 2013  04 35  -21.0169 26027.4 -03392.9 -07.4272 26247.7
 18 01 2013  04 36  -21.0172 26027.8 -03393.1 -07.4275 26248.1
 18 01 2013  04 37  -21.0174 26028.0 -03393.2 -07.4275 26248.2
 18 01 2013  04 38  -21.0176 26027.8 -03393.0 -07.4273 26248.0
 18 01 2013  04 39  -21.0177 26027.5 -03392.8 -07.4269 26247.7
 18 01 2013  04 40  -21.0180 26027.2 -03392.6 -07.4265 26247.4
 18 01 2013  04 41  -21.0188 26026.6 -03392.3 -07.4260 26246.8
 18 01 2013  04 42  -21.0199 26026.0 -03391.9 -07.4254 26246.1
 18 01 2013  04 43  -21.0206 26026.1 -03391.9 -07.4253 26246.2
 18 01 2013  04 44  -21.0207 26026.1 -03391.9 -07.4254 26246.2
 18 01 2013  04 45  -21.0206 26026.0 -03391.9 -07.4253 26246.1
 18 01 2013  04 46  -21.0205 26025.8 -03391.8 -07.4251 26245.9
 18 01 2013  04 47  -21.0208 26025.7 -03391.7 -07.4251 26245.8
 18 01 2013  04 48  -21.0208 26025.8 -03391.8 -07.4252 26245.9
 18 01 2013  04 49  -21.0208 26026.0 -03391.9 -07.4254 26246.1
 18 01 2013  04 50  -21.0206 26026.1 -03392.0 -07.4255 26246.2
 18 01 2013  04 51  -21.0212 26026.1 -03392.1 -07.4257 26246.2
 18 01 2013  04 52  -21.0220 26026.2 -03392.2 -07.4259 26246.3
 18 01 2013  04 53  -21.0226 26026.2 -03392.2 -07.4260 26246.3
 18 01 2013  04 54  -21.0231 26026.3 -03392.3 -07.4261 26246.5
 18 01 2013  04 55  -21.0234 26026.4 -03392.3 -07.4261 26246.5
 18 01 2013  04 56  -21.0240 26026.5 -03392.4 -07.4262 26246.6
 18 01 2013  04 57  -21.0245 26026.6 -03392.4 -07.4262 26246.8
 18 01 2013  04 58  -21.0250 26026.5 -03392.3 -07.4262 26246.7
 18 01 2013  04 59  -21.0252 26026.4 -03392.2 -07.4259 26246.5
 18 01 2013  05 00  -21.0255 26026.0 -03392.0 -07.4256 26246.1
 18 01 2013  05 01  -21.0254 26025.6 -03391.8 -07.4252 26245.7
 18 01 2013  05 02  -21.0257 26025.5 -03391.7 -07.4250 26245.5
 18 01 2013  05 03  -21.0257 26025.4 -03391.6 -07.4250 26245.5
 18 01 2013  05 04  -21.0258 26025.4 -03391.7 -07.4250 26245.5
 18 01 2013  05 05  -21.0261 26025.3 -03391.6 -07.4250 26245.4
 18 01 2013  05 06  -21.0263 26025.4 -03391.6 -07.4250 26245.4
 18 01 2013  05 07  -21.0265 26025.4 -03391.7 -07.4251 26245.5
 18 01 2013  05 08  -21.0263 26025.6 -03391.8 -07.4251 26245.6
 18 01 2013  05 09  -21.0259 26025.7 -03391.8 -07.4252 26245.8
 18 01 2013  05 10  -21.0256 26025.9 -03391.9 -07.4254 26246.0
 18 01 2013  05 11  -21.0254 26026.2 -03392.0 -07.4256 26246.3
 18 01 2013  05 12  -21.0252 26026.5 -03392.1 -07.4257 26246.6
 18 01 2013  05 13  -21.0251 26026.5 -03392.1 -07.4257 26246.6
 18 01 2013  05 14  -21.0248 26026.6 -03392.1 -07.4257 26246.7
 18 01 2013  05 15  -21.0245 26026.7 -03392.2 -07.4257 26246.8
 18 01 2013  05 16  -21.0241 26026.8 -03392.2 -07.4258 26247.0
 18 01 2013  05 17  -21.0239 26027.1 -03392.3 -07.4259 26247.2
 18 01 2013  05 18  -21.0237 26027.2 -03392.3 -07.4260 26247.3
 18 01 2013  05 19  -21.0234 26027.2 -03392.3 -07.4260 26247.4
 18 01 2013  05 20  -21.0230 26027.2 -03392.3 -07.4259 26247.4
 18 01 2013  05 21  -21.0228 26027.2 -03392.2 -07.4257 26247.3
 18 01 2013  05 22  -21.0227 26027.2 -03392.2 -07.4257 26247.3
 18 01 2013  05 23  -21.0225 26027.3 -03392.3 -07.4257 26247.5
 18 01 2013  05 24  -21.0224 26027.6 -03392.3 -07.4259 26247.7
 18 01 2013  05 25  -21.0221 26027.7 -03392.4 -07.4259 26247.9
 18 01 2013  05 26  -20.9811 26037.7 -03368.6 -07.3715 26254.7
 18 01 2013  05 27  -21.0132 26029.7 -03387.6 -07.4149 26249.2
 18 01 2013  05 28  -21.0209 26027.7 -03392.3 -07.4257 26247.9
 18 01 2013  05 29  -21.0207 26027.8 -03392.3 -07.4257 26247.9
 18 01 2013  05 30  -21.0208 26028.0 -03392.4 -07.4258 26248.1
 18 01 2013  05 31  -21.0208 26028.2 -03392.5 -07.4260 26248.3
 18 01 2013  05 32  -21.0209 26028.3 -03392.6 -07.4262 26248.5
 18 01 2013  05 33  -21.0209 26028.5 -03392.6 -07.4262 26248.7
 18 01 2013  05 34  -21.0210 26028.6 -03392.6 -07.4262 26248.8
 18 01 2013  05 35  -21.0211 26028.7 -03392.7 -07.4262 26248.9
 18 01 2013  05 36  -21.0090 26031.7 -03385.5 -07.4099 26250.9
 18 01 2013  05 37  -21.0212 26029.0 -03392.7 -07.4263 26249.2
 18 01 2013  05 38  -21.0213 26029.3 -03392.8 -07.4264 26249.5
 18 01 2013  05 39  -21.0214 26029.6 -03392.9 -07.4265 26249.8
 18 01 2013  05 40  -21.0214 26029.7 -03392.9 -07.4265 26249.9
 18 01 2013  05 41  -21.0216 26029.6 -03392.8 -07.4263 26249.8
 18 01 2013  05 42  -21.0218 26029.4 -03392.6 -07.4260 26249.6
 18 01 2013  05 43  -21.0216 26029.4 -03392.5 -07.4258 26249.6
 18 01 2013  05 44  -21.0215 26029.3 -03392.4 -07.4256 26249.4
 18 01 2013  05 45  -21.0212 26029.2 -03392.3 -07.4253 26249.3
 18 01 2013  05 46  -21.0212 26029.1 -03392.2 -07.4251 26249.2
 18 01 2013  05 47  -21.0211 26029.0 -03392.1 -07.4250 26249.1
 18 01 2013  05 48  -21.0213 26028.7 -03392.0 -07.4248 26248.8
 18 01 2013  05 49  -21.0213 26028.8 -03392.0 -07.4247 26248.9
 18 01 2013  05 50  -21.0212 26029.0 -03392.0 -07.4248 26249.1
 18 01 2013  05 51  -21.0213 26029.2 -03392.1 -07.4250 26249.3
 18 01 2013  05 52  -21.0213 26029.4 -03392.2 -07.4251 26249.5
 18 01 2013  05 53  -21.0213 26029.5 -03392.3 -07.4252 26249.7
 18 01 2013  05 54  -21.0213 26029.6 -03392.3 -07.4251 26249.7
 18 01 2013  05 55  -21.0212 26029.7 -03392.3 -07.4251 26249.8
 18 01 2013  05 56  -21.0211 26029.8 -03392.2 -07.4250 26249.9
 18 01 2013  05 57  -21.0211 26029.7 -03392.2 -07.4249 26249.8
 18 01 2013  05 58  -21.0208 26029.5 -03392.0 -07.4246 26249.6
 18 01 2013  05 59  -21.0207 26029.4 -03391.9 -07.4244 26249.4
 18 01 2013  06 00  -21.0204 26029.2 -03391.8 -07.4242 26249.3
 18 01 2013  06 01  -21.0203 26029.2 -03391.7 -07.4241 26249.2
 18 01 2013  06 02  -21.0200 26029.2 -03391.7 -07.4240 26249.2
 18 01 2013  06 03  -21.0197 26029.3 -03391.7 -07.4240 26249.3
 18 01 2013  06 04  -21.0194 26029.3 -03391.7 -07.4240 26249.3
 18 01 2013  06 05  -21.0192 26029.2 -03391.7 -07.4240 26249.2
 18 01 2013  06 06  -21.0189 26029.2 -03391.7 -07.4240 26249.2
 18 01 2013  06 07  -21.0187 26029.1 -03391.7 -07.4240 26249.2
 18 01 2013  06 08  -21.0186 26028.9 -03391.6 -07.4238 26248.9
 18 01 2013  06 09  -21.0186 26028.7 -03391.4 -07.4236 26248.7
 18 01 2013  06 10  -21.0186 26028.6 -03391.4 -07.4235 26248.6
 18 01 2013  06 11  -21.0185 26028.7 -03391.4 -07.4235 26248.7
 18 01 2013  06 12  -21.0182 26029.1 -03391.6 -07.4238 26249.1
 18 01 2013  06 13  -21.0179 26029.8 -03392.0 -07.4244 26249.9
 18 01 2013  06 14  -21.0177 26030.3 -03392.3 -07.4249 26250.4
 18 01 2013  06 15  -21.0173 26030.6 -03392.5 -07.4253 26250.8
 18 01 2013  06 16  -21.0167 26030.7 -03392.5 -07.4252 26250.9
 18 01 2013  06 17  -21.0161 26030.8 -03392.4 -07.4251 26250.9
 18 01 2013  06 18  -21.0157 26030.8 -03392.4 -07.4251 26250.9
 18 01 2013  06 19  -21.0153 26030.9 -03392.4 -07.4251 26251.0
 18 01 2013  06 20  -21.0151 26030.8 -03392.4 -07.4251 26251.0
 18 01 2013  06 21  -21.0150 26030.8 -03392.3 -07.4249 26250.9
 18 01 2013  06 22  -21.0148 26030.7 -03392.3 -07.4249 26250.8
 18 01 2013  06 23  -21.0148 26030.6 -03392.3 -07.4248 26250.8
 18 01 2013  06 24  -21.0148 26030.6 -03392.2 -07.4247 26250.7
 18 01 2013  06 25  -21.0149 26030.6 -03392.2 -07.4247 26250.7
 18 01 2013  06 26  -21.0149 26030.5 -03392.2 -07.4247 26250.6
 18 01 2013  06 27  -21.0149 26030.4 -03392.1 -07.4245 26250.4
 18 01 2013  06 28  -21.0149 26030.2 -03392.0 -07.4244 26250.2
 18 01 2013  06 29  -21.0150 26030.0 -03391.9 -07.4242 26250.1
 18 01 2013  06 30  -21.0152 26030.0 -03391.9 -07.4242 26250.0
 18 01 2013  06 31  -21.0153 26030.0 -03391.9 -07.4242 26250.1
 18 01 2013  06 32  -21.0152 26030.1 -03391.9 -07.4243 26250.1
 18 01 2013  06 33  -21.0153 26029.9 -03391.9 -07.4242 26250.0
 18 01 2013  06 34  -21.0153 26029.8 -03391.8 -07.4241 26249.8
 18 01 2013  06 35  -21.0154 26029.7 -03391.8 -07.4240 26249.8
 18 01 2013  06 36  -21.0153 26029.8 -03391.8 -07.4241 26249.8
 18 01 2013  06 37  -21.0152 26029.8 -03391.8 -07.4242 26249.8
 18 01 2013  06 38  -21.0150 26029.8 -03391.9 -07.4242 26249.9
 18 01 2013  06 39  -21.0147 26029.8 -03391.9 -07.4243 26249.9
 18 01 2013  06 40  -21.0146 26029.8 -03391.9 -07.4243 26249.8
 18 01 2013  06 41  -21.0146 26029.7 -03391.9 -07.4242 26249.8
 18 01 2013  06 42  -21.0144 26029.9 -03392.0 -07.4244 26249.9
 18 01 2013  06 43  -21.0143 26029.9 -03392.0 -07.4245 26250.0
 18 01 2013  06 44  -21.0145 26029.8 -03392.0 -07.4245 26249.9
 18 01 2013  06 45  -21.0146 26029.8 -03392.0 -07.4245 26249.9
 18 01 2013  06 46  -21.0146 26030.0 -03392.1 -07.4246 26250.1
 18 01 2013  06 47  -21.0146 26030.1 -03392.1 -07.4247 26250.1
 18 01 2013  06 48  -21.0144 26030.2 -03392.2 -07.4248 26250.3
 18 01 2013  06 49  -21.0142 26030.4 -03392.3 -07.4250 26250.5
 18 01 2013  06 50  -21.0141 26030.6 -03392.4 -07.4252 26250.8
 18 01 2013  06 51  -21.0137 26031.0 -03392.6 -07.4254 26251.1
 18 01 2013  06 52  -21.0135 26031.3 -03392.8 -07.4258 26251.5
 18 01 2013  06 53  -21.0134 26031.5 -03392.9 -07.4260 26251.7
 18 01 2013  06 54  -21.0131 26031.7 -03393.0 -07.4262 26251.9
 18 01 2013  06 55  -21.0129 26031.8 -03393.1 -07.4263 26252.0
 18 01 2013  06 56  -21.0127 26031.9 -03393.2 -07.4264 26252.1
 18 01 2013  06 57  -21.0126 26031.9 -03393.2 -07.4265 26252.1
 18 01 2013  06 58  -21.0126 26031.9 -03393.2 -07.4265 26252.1
 18 01 2013  06 59  -21.0126 26031.8 -03393.1 -07.4264 26252.0
 18 01 2013  07 00  -21.0127 26031.6 -03393.1 -07.4263 26251.8
 18 01 2013  07 01  -21.0128 26031.6 -03393.0 -07.4262 26251.8
 18 01 2013  07 02  -21.0128 26031.5 -03393.0 -07.4261 26251.7
 18 01 2013  07 03  -21.0129 26031.4 -03392.9 -07.4260 26251.5
 18 01 2013  07 04  -21.0131 26031.1 -03392.8 -07.4259 26251.3
 18 01 2013  07 05  -21.0130 26030.9 -03392.7 -07.4258 26251.1
 18 01 2013  07 06  -21.0133 26030.8 -03392.7 -07.4256 26250.9
 18 01 2013  07 07  -21.0133 26030.7 -03392.6 -07.4256 26250.9
 18 01 2013  07 08  -21.0134 26030.8 -03392.7 -07.4257 26250.9
 18 01 2013  07 09  -21.0133 26030.9 -03392.8 -07.4259 26251.0
 18 01 2013  07 10  -21.0134 26031.0 -03392.9 -07.4260 26251.2
 18 01 2013  07 11  -21.0135 26031.1 -03392.9 -07.4261 26251.3
 18 01 2013  07 12  -21.0134 26031.1 -03393.0 -07.4263 26251.3
 18 01 2013  07 13  -21.0135 26031.1 -03393.0 -07.4263 26251.3
 18 01 2013  07 14  -21.0133 26031.3 -03393.1 -07.4264 26251.5
 18 01 2013  07 15  -21.0132 26031.3 -03393.1 -07.4265 26251.6
 18 01 2013  07 16  -21.0135 26031.2 -03393.1 -07.4265 26251.4
 18 01 2013  07 17  -21.0137 26031.1 -03393.1 -07.4264 26251.3
 18 01 2013  07 18  -21.0140 26030.8 -03392.9 -07.4262 26250.9
 18 01 2013  07 19  -21.0142 26030.4 -03392.8 -07.4259 26250.6
 18 01 2013  07 20  -21.0143 26030.2 -03392.7 -07.4258 26250.4
 18 01 2013  07 21  -21.0146 26030.0 -03392.6 -07.4257 26250.2
 18 01 2013  07 22  -21.0149 26029.8 -03392.5 -07.4256 26249.9
 18 01 2013  07 23  -21.0149 26029.7 -03392.4 -07.4255 26249.8
 18 01 2013  07 24  -21.0150 26029.7 -03392.5 -07.4256 26249.8
 18 01 2013  07 25  -21.0143 26030.0 -03392.6 -07.4258 26250.1
 18 01 2013  07 26  -21.0144 26030.0 -03392.7 -07.4260 26250.1
 18 01 2013  07 27  -21.0146 26029.8 -03392.7 -07.4260 26250.0
 18 01 2013  07 28  -21.0144 26029.8 -03392.7 -07.4259 26250.0
 18 01 2013  07 29  -21.0143 26029.8 -03392.7 -07.4260 26250.0
 18 01 2013  07 30  -21.0142 26030.1 -03392.8 -07.4262 26250.3
 18 01 2013  07 31  -21.0138 26030.5 -03393.1 -07.4266 26250.7
 18 01 2013  07 32  -21.0136 26030.8 -03393.3 -07.4269 26251.1
 18 01 2013  07 33  -21.0135 26031.1 -03393.4 -07.4272 26251.4
 18 01 2013  07 34  -21.0132 26031.3 -03393.5 -07.4274 26251.5
 18 01 2013  07 35  -21.0129 26031.5 -03393.6 -07.4275 26251.7
 18 01 2013  07 36  -21.0125 26031.5 -03393.6 -07.4275 26251.8
 18 01 2013  07 37  -21.0124 26031.6 -03393.7 -07.4275 26251.9
 18 01 2013  07 38  -21.0122 26031.6 -03393.6 -07.4275 26251.9
 18 01 2013  07 39  -21.0120 26031.6 -03393.6 -07.4275 26251.8
 18 01 2013  07 40  -21.0121 26031.4 -03393.6 -07.4274 26251.7
 18 01 2013  07 41  -21.0118 26031.4 -03393.5 -07.4273 26251.6
 18 01 2013  07 42  -21.0118 26031.4 -03393.5 -07.4273 26251.6
 18 01 2013  07 43  -21.0117 26031.3 -03393.5 -07.4272 26251.6
 18 01 2013  07 44  -21.0118 26031.3 -03393.5 -07.4272 26251.5
 18 01 2013  07 45  -21.0119 26031.1 -03393.4 -07.4271 26251.4
 18 01 2013  07 46  -21.0120 26031.1 -03393.4 -07.4271 26251.3
 18 01 2013  07 47  -21.0121 26031.0 -03393.4 -07.4271 26251.3
 18 01 2013  07 48  -21.0121 26031.0 -03393.4 -07.4271 26251.2
 18 01 2013  07 49  -21.0122 26030.9 -03393.3 -07.4271 26251.1
 18 01 2013  07 50  -21.0121 26030.8 -03393.3 -07.4271 26251.0
 18 01 2013  07 51  -21.0121 26030.6 -03393.3 -07.4270 26250.8
 18 01 2013  07 52  -21.0120 26030.6 -03393.3 -07.4270 26250.8
 18 01 2013  07 53  -21.0118 26030.6 -03393.3 -07.4271 26250.9
 18 01 2013  07 54  -21.0118 26030.6 -03393.4 -07.4272 26250.9
 18 01 2013  07 55  -21.0117 26030.6 -03393.5 -07.4274 26250.9
 18 01 2013  07 56  -21.0119 26030.4 -03393.5 -07.4275 26250.7
 18 01 2013  07 57  -21.0120 26030.2 -03393.5 -07.4275 26250.5
 18 01 2013  07 58  -21.0120 26030.1 -03393.4 -07.4275 26250.3
 18 01 2013  07 59  -21.0122 26029.9 -03393.5 -07.4276 26250.2
 18 01 2013  08 00  -21.0123 26029.8 -03393.5 -07.4277 26250.1
 18 01 2013  08 01  -21.0125 26029.8 -03393.6 -07.4279 26250.1
 18 01 2013  08 02  -21.0126 26029.9 -03393.7 -07.4282 26250.2
 18 01 2013  08 03  -21.0130 26029.8 -03393.8 -07.4284 26250.2
 18 01 2013  08 04  -21.0133 26029.8 -03393.9 -07.4285 26250.1
 18 01 2013  08 05  -21.0137 26029.6 -03393.8 -07.4285 26249.9
 18 01 2013  08 06  -21.0140 26029.4 -03393.9 -07.4287 26249.7
 18 01 2013  08 07  -21.0142 26029.3 -03393.9 -07.4287 26249.6
 18 01 2013  08 08  -21.0145 26029.1 -03393.9 -07.4287 26249.4
 18 01 2013  08 09  -21.0146 26028.9 -03393.8 -07.4287 26249.2
 18 01 2013  08 10  -21.0145 26029.0 -03393.9 -07.4289 26249.3
 18 01 2013  08 11  -21.0148 26028.7 -03393.9 -07.4289 26249.0
 18 01 2013  08 12  -21.0158 26028.0 -03393.7 -07.4286 26248.3
 18 01 2013  08 13  -21.0158 26027.7 -03393.5 -07.4282 26248.0
 18 01 2013  08 14  -21.0164 26027.4 -03393.4 -07.4282 26247.7
 18 01 2013  08 15  -21.0168 26027.3 -03393.5 -07.4284 26247.6
 18 01 2013  08 16  -21.0167 26027.4 -03393.6 -07.4287 26247.7
 18 01 2013  08 17  -21.0166 26027.8 -03393.9 -07.4291 26248.1
 18 01 2013  08 18  -21.0166 26027.6 -03393.9 -07.4293 26248.0
 18 01 2013  08 19  -21.0178 26027.2 -03393.8 -07.4291 26247.5
 18 01 2013  08 20  -21.0174 26027.0 -03393.7 -07.4290 26247.4
 18 01 2013  08 21  -21.0175 26026.9 -03393.7 -07.4291 26247.3
 18 01 2013  08 22  -21.0175 26026.9 -03393.7 -07.4290 26247.2
 18 01 2013  08 23  -21.0174 26026.9 -03393.8 -07.4291 26247.2
 18 01 2013  08 24  -21.0175 26026.9 -03393.8 -07.4292 26247.2
 18 01 2013  08 25  -21.0178 26026.9 -03393.8 -07.4293 26247.2
 18 01 2013  08 26  -21.0181 26026.8 -03393.8 -07.4293 26247.2
 18 01 2013  08 27  -21.0180 26026.8 -03393.8 -07.4293 26247.1
 18 01 2013  08 28  -21.0181 26026.8 -03393.8 -07.4293 26247.1
 18 01 2013  08 29  -21.0178 26027.2 -03393.9 -07.4294 26247.5
 18 01 2013  08 30  -21.0164 26028.3 -03394.4 -07.4301 26248.7
 18 01 2013  08 31  -21.0164 26029.4 -03394.9 -07.4310 26249.9
 18 01 2013  08 32  -21.0168 26030.0 -03395.3 -07.4316 26250.5
 18 01 2013  08 33  -21.0170 26030.8 -03395.6 -07.4321 26251.3
 18 01 2013  08 34  -21.0161 26031.8 -03396.0 -07.4326 26252.4
 18 01 2013  08 35  -21.0160 26032.5 -03396.2 -07.4328 26253.1
 18 01 2013  08 36  -21.0153 26033.2 -03396.4 -07.4330 26253.9
 18 01 2013  08 37  -21.0145 26034.0 -03396.6 -07.4333 26254.7
 18 01 2013  08 38  -21.0148 26034.5 -03396.8 -07.4335 26255.1
 18 01 2013  08 39  -21.0150 26034.5 -03396.6 -07.4332 26255.1
 18 01 2013  08 40  -21.0149 26034.3 -03396.3 -07.4326 26254.9
 18 01 2013  08 41  -21.0145 26034.3 -03396.1 -07.4321 26254.9
 18 01 2013  08 42  -21.0135 26034.6 -03396.0 -07.4319 26255.2
 18 01 2013  08 43  -21.0134 26034.7 -03396.0 -07.4317 26255.2
 18 01 2013  08 44  -21.0132 26034.6 -03395.8 -07.4314 26255.1
 18 01 2013  08 45  -21.0124 26035.0 -03395.8 -07.4313 26255.5
 18 01 2013  08 46  -21.0112 26035.7 -03396.0 -07.4315 26256.2
 18 01 2013  08 47  -21.0115 26035.9 -03396.1 -07.4317 26256.4
 18 01 2013  08 48  -21.0115 26035.7 -03396.0 -07.4315 26256.3
 18 01 2013  08 49  -21.0107 26035.7 -03395.8 -07.4311 26256.3
 18 01 2013  08 50  -21.0093 26036.0 -03395.8 -07.4310 26256.5
 18 01 2013  08 51  -21.0091 26035.9 -03395.8 -07.4310 26256.4
 18 01 2013  08 52  -21.0084 26035.8 -03395.8 -07.4309 26256.4
 18 01 2013  08 53  -21.0075 26035.9 -03395.8 -07.4310 26256.4
 18 01 2013  08 54  -21.0070 26035.7 -03395.7 -07.4309 26256.2
 18 01 2013  08 55  -21.0074 26034.7 -03395.4 -07.4305 26255.2
 18 01 2013  08 56  -21.0056 26034.4 -03395.2 -07.4302 26254.8
 18 01 2013  08 57  -21.0039 26034.3 -03395.3 -07.4304 26254.8
 18 01 2013  08 58  -21.0035 26034.0 -03395.5 -07.4308 26254.5
 18 01 2013  08 59  -21.0032 26033.5 -03395.5 -07.4310 26254.0
 18 01 2013  09 00  -21.0027 26032.9 -03395.4 -07.4310 26253.4
 18 01 2013  09 01  -21.0020 26032.4 -03395.5 -07.4312 26252.9
 18 01 2013  09 02  -21.0018 26031.8 -03395.5 -07.4316 26252.3
 18 01 2013  09 03  -21.0017 26030.2 -03395.2 -07.4312 26250.7
 18 01 2013  09 04  -21.0025 26028.5 -03394.7 -07.4307 26248.9
 18 01 2013  09 05  -21.0025 26026.9 -03394.3 -07.4302 26247.3
 18 01 2013  09 06  -21.0020 26025.4 -03393.9 -07.4299 26245.8
 18 01 2013  09 07  -21.0012 26024.2 -03393.8 -07.4300 26244.5
 18 01 2013  09 08  -21.0000 26023.3 -03393.9 -07.4304 26243.7
 18 01 2013  09 09  -20.9993 26022.7 -03394.2 -07.4312 26243.1
 18 01 2013  09 10  -20.9993 26022.4 -03394.7 -07.4325 26242.9
 18 01 2013  09 11  -20.9995 26022.5 -03395.4 -07.4339 26243.0
 18 01 2013  09 12  -20.9993 26023.1 -03396.2 -07.4355 26243.8
 18 01 2013  09 13  -20.9989 26024.3 -03397.2 -07.4374 26245.1
 18 01 2013  09 14  -20.9992 26025.3 -03398.3 -07.4394 26246.3
 18 01 2013  09 15  -20.9998 26026.3 -03399.2 -07.4410 26247.4
 18 01 2013  09 16  -21.0005 26027.6 -03400.1 -07.4427 26248.7
 18 01 2013  09 17  -21.0020 26028.7 -03401.0 -07.4442 26250.0
 18 01 2013  09 18  -21.0032 26029.6 -03401.6 -07.4452 26250.9
 18 01 2013  09 19  -21.0044 26030.2 -03401.9 -07.4457 26251.5
 18 01 2013  09 20  -21.0051 26030.6 -03402.1 -07.4462 26252.0
 18 01 2013  09 21  -21.0059 26030.9 -03402.2 -07.4464 26252.3
 18 01 2013  09 22  -21.0069 26031.1 -03402.3 -07.4465 26252.5
 18 01 2013  09 23  -21.0079 26031.0 -03402.3 -07.4465 26252.4
 18 01 2013  09 24  -21.0088 26030.9 -03402.3 -07.4464 26252.3
 18 01 2013  09 25  -21.0093 26030.9 -03402.3 -07.4464 26252.3
 18 01 2013  09 26  -21.0100 26031.0 -03402.4 -07.4467 26252.4
 18 01 2013  09 27  -21.0119 26030.7 -03402.3 -07.4466 26252.1
 18 01 2013  09 28  -21.0128 26030.3 -03402.1 -07.4462 26251.7
 18 01 2013  09 29  -21.0133 26030.2 -03402.0 -07.4460 26251.5
 18 01 2013  09 30  -21.0140 26030.0 -03401.9 -07.4459 26251.4
 18 01 2013  09 31  -21.0147 26029.8 -03401.9 -07.4459 26251.2
 18 01 2013  09 32  -21.0154 26029.4 -03401.8 -07.4458 26250.8
 18 01 2013  09 33  -21.0159 26029.0 -03401.7 -07.4457 26250.3
 18 01 2013  09 34  -21.0159 26028.8 -03401.7 -07.4459 26250.2
 18 01 2013  09 35  -21.0155 26029.3 -03402.1 -07.4464 26250.6
 18 01 2013  09 36  -21.0163 26030.1 -03402.6 -07.4474 26251.5
 18 01 2013  09 37  -21.0186 26030.7 -03403.1 -07.4483 26252.2
 18 01 2013  09 38  -21.0204 26031.4 -03403.4 -07.4487 26252.9
 18 01 2013  09 39  -21.0220 26032.0 -03403.6 -07.4490 26253.6
 18 01 2013  09 40  -21.0226 26032.3 -03403.6 -07.4490 26253.8
 18 01 2013  09 41  -21.0235 26032.4 -03403.7 -07.4490 26254.0
 18 01 2013  09 42  -21.0258 26032.2 -03403.6 -07.4489 26253.8
 18 01 2013  09 43  -21.0291 26031.0 -03402.9 -07.4478 26252.5
 18 01 2013  09 44  -21.0297 26029.3 -03402.0 -07.4462 26250.6
 18 01 2013  09 45  -21.0292 26026.8 -03400.9 -07.4445 26248.1
 18 01 2013  09 46  -21.0277 26024.8 -03400.1 -07.4434 26246.0
 18 01 2013  09 47  -21.0267 26024.3 -03400.2 -07.4438 26245.5
 18 01 2013  09 48  -21.0283 26025.3 -03401.1 -07.4455 26246.6
 18 01 2013  09 49  -21.0309 26026.6 -03401.9 -07.4468 26247.9
 18 01 2013  09 50  -21.0326 26027.6 -03402.3 -07.4474 26249.0
 18 01 2013  09 51  -21.0343 26028.6 -03402.6 -07.4477 26250.0
 18 01 2013  09 52  -21.0362 26029.4 -03402.8 -07.4479 26250.8
 18 01 2013  09 53  -21.0379 26029.9 -03402.8 -07.4479 26251.3
 18 01 2013  09 54  -21.0388 26030.1 -03402.8 -07.4477 26251.6
 18 01 2013  09 55  -21.0397 26030.1 -03402.7 -07.4475 26251.6
 18 01 2013  09 56  -21.0406 26030.1 -03402.5 -07.4472 26251.5
 18 01 2013  09 57  -21.0411 26030.0 -03402.4 -07.4470 26251.4
 18 01 2013  09 58  -21.0434 26030.0 -03402.3 -07.4468 26251.4
 18 01 2013  09 59  -21.0448 26029.5 -03402.0 -07.4462 26250.9
 18 01 2013  10 00  -21.0453 26029.0 -03401.6 -07.4455 26250.3
 18 01 2013  10 01  -21.0461 26028.8 -03401.5 -07.4453 26250.1
 18 01 2013  10 02  -21.0470 26028.7 -03401.4 -07.4452 26250.0
 18 01 2013  10 03  -21.0477 26028.6 -03401.4 -07.4451 26249.9
 18 01 2013  10 04  -21.0484 26028.6 -03401.3 -07.4450 26249.9
 18 01 2013  10 05  -21.0489 26028.7 -03401.4 -07.4451 26250.0
 18 01 2013  10 06  -21.0493 26029.3 -03401.6 -07.4453 26250.6
 18 01 2013  10 07  -21.0504 26030.1 -03401.9 -07.4459 26251.5
 18 01 2013  10 08  -21.0522 26031.1 -03402.3 -07.4463 26252.5
 18 01 2013  10 09  -21.0534 26032.0 -03402.5 -07.4466 26253.4
 18 01 2013  10 10  -21.0547 26032.8 -03402.6 -07.4466 26254.3
 18 01 2013  10 11  -21.0551 26033.8 -03402.8 -07.4468 26255.3
 18 01 2013  10 12  -21.0569 26034.7 -03403.0 -07.4470 26256.1
 18 01 2013  10 13  -21.0602 26035.0 -03402.9 -07.4465 26256.4
 18 01 2013  10 14  -21.0610 26034.9 -03402.4 -07.4455 26256.3
 18 01 2013  10 15  -21.0608 26035.1 -03402.2 -07.4450 26256.4
 18 01 2013  10 16  -21.0620 26035.1 -03402.1 -07.4448 26256.4
 18 01 2013  10 17  -21.0625 26035.1 -03402.0 -07.4446 26256.4
 18 01 2013  10 18  -21.0640 26035.0 -03401.8 -07.4442 26256.3
 18 01 2013  10 19  -21.0649 26034.8 -03401.6 -07.4438 26256.1
 18 01 2013  10 20  -21.0655 26034.9 -03401.4 -07.4435 26256.2
 18 01 2013  10 21  -21.0671 26035.0 -03401.4 -07.4433 26256.3
 18 01 2013  10 22  -21.0672 26035.5 -03401.4 -07.4432 26256.7
 18 01 2013  10 23  -21.0678 26036.3 -03401.7 -07.4436 26257.5
 18 01 2013  10 24  -21.0691 26036.9 -03401.8 -07.4438 26258.2
 18 01 2013  10 25  -21.0705 26037.4 -03401.8 -07.4436 26258.6
 18 01 2013  10 26  -21.0710 26038.2 -03401.9 -07.4435 26259.5
 18 01 2013  10 27  -21.0721 26039.0 -03402.0 -07.4434 26260.3
 18 01 2013  10 28  -21.0732 26039.6 -03401.9 -07.4432 26260.9
 18 01 2013  10 29  -21.0743 26040.1 -03401.9 -07.4430 26261.4
 18 01 2013  10 30  -21.0756 26040.4 -03401.8 -07.4426 26261.6
 18 01 2013  10 31  -21.0771 26040.5 -03401.5 -07.4420 26261.7
 18 01 2013  10 32  -21.0779 26040.6 -03401.3 -07.4415 26261.8
 18 01 2013  10 33  -21.0786 26040.8 -03401.2 -07.4412 26262.0
 18 01 2013  10 34  -21.0796 26041.4 -03401.2 -07.4412 26262.5
 18 01 2013  10 35  -21.0804 26041.9 -03401.2 -07.4410 26263.0
 18 01 2013  10 36  -21.0815 26042.2 -03401.1 -07.4407 26263.4
 18 01 2013  10 37  -21.0834 26042.0 -03400.7 -07.4398 26263.1
 18 01 2013  10 38  -21.0845 26042.1 -03400.4 -07.4391 26263.1
 18 01 2013  10 39  -21.0859 26042.1 -03400.1 -07.4386 26263.1
 18 01 2013  10 40  -21.0865 26042.0 -03399.9 -07.4381 26263.0
 18 01 2013  10 41  -21.0875 26041.8 -03399.6 -07.4377 26262.7
 18 01 2013  10 42  -21.0879 26041.7 -03399.5 -07.4374 26262.7
 18 01 2013  10 43  -21.0887 26041.9 -03399.5 -07.4373 26262.9
 18 01 2013  10 44  -21.0893 26042.4 -03399.5 -07.4373 26263.4
 18 01 2013  10 45  -21.0902 26043.3 -03399.7 -07.4374 26264.2
 18 01 2013  10 46  -21.0907 26044.6 -03400.1 -07.4378 26265.6
 18 01 2013  10 47  -21.0919 26045.5 -03400.2 -07.4378 26266.6
 18 01 2013  10 48  -21.0927 26046.5 -03400.2 -07.4376 26267.5
 18 01 2013  10 49  -21.0936 26047.7 -03400.3 -07.4375 26268.7
 18 01 2013  10 50  -21.0946 26048.9 -03400.4 -07.4373 26269.9
 18 01 2013  10 51  -21.0957 26049.9 -03400.3 -07.4368 26270.9
 18 01 2013  10 52  -21.0968 26050.9 -03400.2 -07.4363 26271.9
 18 01 2013  10 53  -21.0977 26051.7 -03400.0 -07.4356 26272.7
 18 01 2013  10 54  -21.0987 26052.3 -03399.8 -07.4349 26273.2
 18 01 2013  10 55  -21.0998 26052.8 -03399.5 -07.4341 26273.7
 18 01 2013  10 56  -21.1008 26053.2 -03399.2 -07.4334 26274.0
 18 01 2013  10 57  -21.1016 26053.4 -03398.8 -07.4325 26274.2
 18 01 2013  10 58  -21.1025 26053.6 -03398.5 -07.4318 26274.4
 18 01 2013  10 59  -21.1035 26053.8 -03398.1 -07.4309 26274.5
 18 01 2013  11 00  -21.1046 26053.8 -03397.7 -07.4301 26274.4
 18 01 2013  11 01  -21.1051 26053.8 -03397.4 -07.4293 26274.3
 18 01 2013  11 02  -21.1061 26053.8 -03397.2 -07.4288 26274.4
 18 01 2013  11 03  -21.1064 26054.0 -03396.9 -07.4283 26274.5
 18 01 2013  11 04  -21.1071 26054.5 -03396.8 -07.4280 26275.0
 18 01 2013  11 05  -21.1081 26055.0 -03396.7 -07.4277 26275.5
 18 01 2013  11 06  -21.1088 26055.6 -03396.6 -07.4272 26276.1
 18 01 2013  11 07  -21.1095 26056.2 -03396.5 -07.4267 26276.7
 18 01 2013  11 08  -21.1102 26056.8 -03396.3 -07.4262 26277.2
 18 01 2013  11 09  -21.1110 26057.5 -03396.2 -07.4257 26277.8
 18 01 2013  11 10  -21.1118 26058.2 -03396.0 -07.4252 26278.6
 18 01 2013  11 11  -21.1125 26058.8 -03395.8 -07.4245 26279.2
 18 01 2013  11 12  -21.1132 26059.5 -03395.6 -07.4238 26279.8
 18 01 2013  11 13  -21.1138 26060.0 -03395.3 -07.4231 26280.2
 18 01 2013  11 14  -21.1146 26060.5 -03395.0 -07.4224 26280.7
 18 01 2013  11 15  -21.1151 26061.2 -03394.8 -07.4218 26281.3
 18 01 2013  11 16  -21.1156 26061.7 -03394.6 -07.4212 26281.9
 18 01 2013  11 17  -21.1160 26062.4 -03394.4 -07.4205 26282.5
 18 01 2013  11 18  -21.1172 26062.9 -03394.1 -07.4197 26282.9
 18 01 2013  11 19  -21.1185 26063.1 -03393.6 -07.4185 26283.1
 18 01 2013  11 20  -21.1192 26063.5 -03393.2 -07.4177 26283.5
 18 01 2013  11 21  -21.1202 26063.7 -03392.9 -07.4169 26283.7
 18 01 2013  11 22  -21.1211 26063.8 -03392.5 -07.4160 26283.7
 18 01 2013  11 23  -21.1216 26064.0 -03392.2 -07.4153 26283.9
 18 01 2013  11 24  -21.1222 26064.3 -03391.9 -07.4146 26284.1
 18 01 2013  11 25  -21.1230 26064.7 -03391.7 -07.4140 26284.4
 18 01 2013  11 26  -21.1247 26065.3 -03391.6 -07.4136 26285.0
 18 01 2013  11 27  -21.1258 26066.2 -03391.6 -07.4133 26285.9
 18 01 2013  11 28  -21.1265 26067.0 -03391.5 -07.4130 26286.7
 18 01 2013  11 29  -21.1261 26068.5 -03391.7 -07.4130 26288.2
 18 01 2013  11 30  -21.1258 26069.8 -03391.7 -07.4126 26289.5
 18 01 2013  11 31  -21.1260 26071.1 -03391.6 -07.4121 26290.8
 18 01 2013  11 32  -21.1271 26072.6 -03391.7 -07.4118 26292.2
 18 01 2013  11 33  -21.1285 26073.6 -03391.5 -07.4111 26293.3
 18 01 2013  11 34  -21.1298 26074.5 -03391.2 -07.4102 26294.1
 18 01 2013  11 35  -21.1307 26075.7 -03391.1 -07.4096 26295.3
 18 01 2013  11 36  -21.1321 26076.7 -03390.9 -07.4089 26296.2
 18 01 2013  11 37  -21.1336 26077.2 -03390.5 -07.4079 26296.7
 18 01 2013  11 38  -21.1351 26077.6 -03390.0 -07.4066 26297.0
 18 01 2013  11 39  -21.1362 26077.9 -03389.4 -07.4053 26297.3
 18 01 2013  11 40  -21.1378 26078.0 -03388.8 -07.4041 26297.3
 18 01 2013  11 41  -21.1395 26078.1 -03388.3 -07.4029 26297.3
 18 01 2013  11 42  -21.1409 26078.3 -03387.8 -07.4018 26297.4
 18 01 2013  11 43  -21.1421 26078.2 -03387.2 -07.4006 26297.2
 18 01 2013  11 44  -21.1431 26078.2 -03386.8 -07.3995 26297.2
 18 01 2013  11 45  -21.1437 26078.4 -03386.4 -07.3987 26297.3
 18 01 2013  11 46  -21.1448 26078.7 -03386.1 -07.3979 26297.6
 18 01 2013  11 47  -21.1458 26079.3 -03385.9 -07.3973 26298.2
 18 01 2013  11 48  -21.1467 26079.9 -03385.6 -07.3966 26298.7
 18 01 2013  11 49  -21.1478 26080.5 -03385.3 -07.3958 26299.3
 18 01 2013  11 50  -21.1488 26081.1 -03385.1 -07.3951 26299.9
 18 01 2013  11 51  -21.1497 26081.7 -03384.8 -07.3943 26300.4
 18 01 2013  11 52  -21.1510 26082.0 -03384.4 -07.3933 26300.6
 18 01 2013  11 53  -21.1523 26082.7 -03384.1 -07.3925 26301.3
 18 01 2013  11 54  -21.1532 26083.8 -03384.0 -07.3920 26302.4
 18 01 2013  11 55  -21.1541 26084.6 -03383.8 -07.3913 26303.1
 18 01 2013  11 56  -21.1550 26085.4 -03383.5 -07.3905 26303.9
 18 01 2013  11 57  -21.1560 26086.5 -03383.3 -07.3898 26305.0
 18 01 2013  11 58  -21.1566 26087.5 -03383.1 -07.3890 26305.9
 18 01 2013  11 59  -21.1573 26088.5 -03382.8 -07.3882 26306.9
 18 01 2013  12 00  -21.1584 26089.2 -03382.4 -07.3871 26307.6
 18 01 2013  12 01  -21.1599 26089.8 -03382.0 -07.3860 26308.1
 18 01 2013  12 02  -21.1618 26090.1 -03381.4 -07.3846 26308.3
 18 01 2013  12 03  -21.1634 26090.2 -03380.7 -07.3831 26308.3
 18 01 2013  12 04  -21.1652 26089.3 -03379.7 -07.3813 26307.3
 18 01 2013  12 05  -21.1661 26088.4 -03378.8 -07.3794 26306.2
 18 01 2013  12 06  -21.1664 26088.0 -03378.1 -07.3780 26305.8
 18 01 2013  12 07  -21.1678 26086.5 -03376.9 -07.3759 26304.2
 18 01 2013  12 08  -21.1690 26086.3 -03376.4 -07.3749 26303.9
 18 01 2013  12 09  -21.1707 26085.3 -03375.6 -07.3735 26302.8
 18 01 2013  12 10  -21.1722 26084.6 -03374.9 -07.3721 26302.0
 18 01 2013  12 11  -21.1736 26084.4 -03374.5 -07.3713 26301.8
 18 01 2013  12 12  -21.1742 26084.3 -03374.2 -07.3706 26301.6
 18 01 2013  12 13  -21.1741 26085.1 -03374.2 -07.3705 26302.4
 18 01 2013  12 14  -21.1738 26086.1 -03374.2 -07.3703 26303.4
 18 01 2013  12 15  -21.1733 26088.1 -03374.6 -07.3706 26305.4
 18 01 2013  12 16  -21.1734 26089.8 -03374.9 -07.3706 26307.2
 18 01 2013  12 17  -21.1738 26091.6 -03375.0 -07.3704 26309.0
 18 01 2013  12 18  -21.1743 26093.3 -03375.1 -07.3701 26310.7
 18 01 2013  12 19  -21.1747 26095.6 -03375.5 -07.3702 26313.0
 18 01 2013  12 20  -21.1745 26097.7 -03375.5 -07.3697 26315.0
 18 01 2013  12 21  -21.1759 26097.9 -03374.5 -07.3676 26315.1
 18 01 2013  12 22  -21.1789 26095.1 -03372.3 -07.3637 26312.1
 18 01 2013  12 23  -21.1817 26091.5 -03370.2 -07.3600 26308.2
 18 01 2013  12 24  -21.1824 26088.6 -03368.6 -07.3575 26305.2
 18 01 2013  12 25  -21.1821 26086.7 -03367.8 -07.3562 26303.2
 18 01 2013  12 26  -21.1818 26087.0 -03368.0 -07.3566 26303.5
 18 01 2013  12 27  -21.1816 26088.7 -03368.7 -07.3577 26305.3
 18 01 2013  12 28  -21.1813 26090.1 -03369.0 -07.3579 26306.7
 18 01 2013  12 29  -21.1818 26091.1 -03369.0 -07.3576 26307.7
 18 01 2013  12 30  -21.1825 26091.8 -03368.9 -07.3571 26308.4
 18 01 2013  12 31  -21.1831 26092.3 -03368.6 -07.3563 26308.9
 18 01 2013  12 32  -21.1842 26092.5 -03368.2 -07.3554 26309.0
 18 01 2013  12 33  -21.1862 26092.9 -03367.9 -07.3547 26309.3
 18 01 2013  12 34  -21.1862 26094.5 -03368.2 -07.3548 26311.0
 18 01 2013  12 35  -21.1867 26096.3 -03368.5 -07.3550 26312.8
 18 01 2013  12 36  -21.1850 26100.3 -03369.7 -07.3565 26316.9
 18 01 2013  12 37  -21.1814 26103.4 -03370.5 -07.3573 26320.1
 18 01 2013  12 38  -21.1789 26103.7 -03369.9 -07.3560 26320.4
 18 01 2013  12 39  -21.1760 26106.9 -03370.5 -07.3563 26323.6
 18 01 2013  12 40  -21.1739 26112.3 -03372.2 -07.3585 26329.1
 18 01 2013  12 41  -21.1730 26117.8 -03373.8 -07.3605 26334.8
 18 01 2013  12 42  -21.1720 26123.8 -03375.5 -07.3624 26341.0
 18 01 2013  12 43  -21.1701 26128.4 -03376.2 -07.3627 26345.7
 18 01 2013  12 44  -21.1683 26132.6 -03376.6 -07.3624 26349.9
 18 01 2013  12 45  -21.1682 26135.8 -03376.5 -07.3613 26353.0
 18 01 2013  12 46  -21.1688 26137.4 -03375.8 -07.3594 26354.5
 18 01 2013  12 47  -21.1703 26139.8 -03375.7 -07.3584 26356.9
 18 01 2013  12 48  -21.1688 26143.8 -03376.6 -07.3593 26360.9
 18 01 2013  12 49  -21.1677 26145.0 -03376.5 -07.3587 26362.1
 18 01 2013  12 50  -21.1644 26149.5 -03377.4 -07.3594 26366.7
 18 01 2013  12 51  -21.1617 26155.7 -03379.3 -07.3618 26373.1
 18 01 2013  12 52  -21.1600 26158.4 -03379.2 -07.3607 26375.8
 18 01 2013  12 53  -21.1647 26160.7 -03379.1 -07.3600 26378.0
 18 01 2013  12 54  -21.1657 26159.1 -03377.3 -07.3565 26376.2
 18 01 2013  12 55  -21.1658 26160.8 -03377.0 -07.3554 26377.9
 18 01 2013  12 56  -21.1633 26160.7 -03376.0 -07.3534 26377.6
 18 01 2013  12 57  -21.1631 26161.4 -03375.4 -07.3518 26378.3
 18 01 2013  12 58  -21.1626 26164.0 -03375.8 -07.3519 26380.9
 18 01 2013  12 59  -21.1596 26165.5 -03375.6 -07.3511 26382.3
 18 01 2013  13 00  -21.1587 26167.1 -03375.7 -07.3509 26384.0
 18 01 2013  13 01  -21.1593 26165.8 -03374.4 -07.3485 26382.5
 18 01 2013  13 02  -21.1605 26164.8 -03373.3 -07.3464 26381.3
 18 01 2013  13 03  -21.1629 26161.6 -03371.2 -07.3427 26378.0
 18 01 2013  13 04  -21.1651 26158.4 -03369.2 -07.3393 26374.5
 18 01 2013  13 05  -21.1662 26155.7 -03367.7 -07.3367 26371.6
 18 01 2013  13 06  -21.1659 26156.1 -03367.7 -07.3366 26372.0
 18 01 2013  13 07  -21.1643 26156.7 -03367.8 -07.3366 26372.6
 18 01 2013  13 08  -21.1627 26158.4 -03368.3 -07.3372 26374.3
 18 01 2013  13 09  -21.1615 26159.3 -03368.4 -07.3373 26375.3
 18 01 2013  13 10  -21.1615 26158.6 -03367.8 -07.3361 26374.5
 18 01 2013  13 11  -21.1624 26157.4 -03366.8 -07.3343 26373.2
 18 01 2013  13 12  -21.1643 26153.6 -03364.5 -07.3306 26369.1
 18 01 2013  13 13  -21.1669 26149.8 -03362.4 -07.3271 26365.0
 18 01 2013  13 14  -21.1693 26146.9 -03360.9 -07.3245 26362.0
 18 01 2013  13 15  -21.1710 26146.0 -03360.2 -07.3234 26361.0
 18 01 2013  13 16  -21.1713 26147.7 -03360.9 -07.3243 26362.8
 18 01 2013  13 17  -21.1681 26152.5 -03363.0 -07.3275 26367.8
 18 01 2013  13 18  -21.1629 26157.0 -03364.6 -07.3298 26372.6
 18 01 2013  13 19  -21.1603 26159.1 -03365.0 -07.3300 26374.6
 18 01 2013  13 20  -21.1603 26157.6 -03363.5 -07.3273 26373.0
 18 01 2013  13 21  -21.1626 26155.4 -03362.0 -07.3246 26370.6
 18 01 2013  13 22  -21.1650 26153.4 -03360.8 -07.3225 26368.4
 18 01 2013  13 23  -21.1664 26152.6 -03360.2 -07.3214 26367.5
 18 01 2013  13 24  -21.1657 26151.7 -03359.4 -07.3201 26366.6
 18 01 2013  13 25  -21.1634 26150.8 -03358.5 -07.3184 26365.6
 18 01 2013  13 26  -21.1618 26149.9 -03357.7 -07.3169 26364.6
 18 01 2013  13 27  -21.1616 26149.9 -03357.5 -07.3163 26364.5
 18 01 2013  13 28  -21.1617 26149.5 -03357.1 -07.3157 26364.1
 18 01 2013  13 29  -21.1612 26149.0 -03356.7 -07.3150 26363.6
 18 01 2013  13 30  -21.1606 26148.7 -03356.4 -07.3143 26363.2
 18 01 2013  13 31  -21.1602 26148.9 -03356.2 -07.3139 26363.4
 18 01 2013  13 32  -21.1596 26149.6 -03356.3 -07.3139 26364.1
 18 01 2013  13 33  -21.1576 26152.5 -03357.2 -07.3150 26367.1
 18 01 2013  13 34  -21.1548 26156.8 -03358.8 -07.3174 26371.6
 18 01 2013  13 35  -21.1518 26160.4 -03359.9 -07.3187 26375.3
 18 01 2013  13 36  -21.1489 26162.7 -03360.2 -07.3186 26377.6
 18 01 2013  13 37  -21.1467 26163.1 -03359.4 -07.3169 26377.9
 18 01 2013  13 38  -21.1466 26161.6 -03358.0 -07.3142 26376.2
 18 01 2013  13 39  -21.1476 26159.4 -03356.4 -07.3113 26373.8
 18 01 2013  13 40  -21.1477 26159.0 -03355.7 -07.3101 26373.4
 18 01 2013  13 41  -21.1457 26158.6 -03355.1 -07.3088 26372.9
 18 01 2013  13 42  -21.1436 26160.1 -03355.3 -07.3088 26374.4
 18 01 2013  13 43  -21.1421 26161.6 -03355.6 -07.3090 26375.9
 18 01 2013  13 44  -21.1407 26162.8 -03355.7 -07.3089 26377.2
 18 01 2013  13 45  -21.1391 26163.5 -03355.5 -07.3083 26377.8
 18 01 2013  13 46  -21.1380 26164.4 -03355.4 -07.3080 26378.7
 18 01 2013  13 47  -21.1363 26164.5 -03355.0 -07.3069 26378.7
 18 01 2013  13 48  -21.1349 26164.3 -03354.4 -07.3057 26378.4
 18 01 2013  13 49  -21.1342 26161.7 -03352.7 -07.3028 26375.7
 18 01 2013  13 50  -21.1359 26159.3 -03351.3 -07.3004 26373.1
 18 01 2013  13 51  -21.1366 26158.3 -03350.7 -07.2994 26372.1
 18 01 2013  13 52  -21.1348 26158.1 -03350.3 -07.2987 26371.8
 18 01 2013  13 53  -21.1344 26157.3 -03349.8 -07.2978 26370.9
 18 01 2013  13 54  -21.1338 26156.9 -03349.5 -07.2973 26370.4
 18 01 2013  13 55  -21.1325 26157.8 -03349.9 -07.2978 26371.4
 18 01 2013  13 56  -21.1310 26159.8 -03350.7 -07.2990 26373.5
 18 01 2013  13 57  -21.1289 26161.3 -03351.2 -07.2998 26375.1
 18 01 2013  13 58  -21.1271 26162.8 -03351.6 -07.3002 26376.6
 18 01 2013  13 59  -21.1255 26163.5 -03351.7 -07.3002 26377.3
 18 01 2013  14 00  -21.1240 26164.4 -03351.7 -07.2999 26378.2
 18 01 2013  14 01  -21.1224 26164.2 -03351.3 -07.2991 26378.0
 18 01 2013  14 02  -21.1218 26162.8 -03350.3 -07.2973 26376.5
 18 01 2013  14 03  -21.1214 26162.7 -03350.0 -07.2967 26376.3
 18 01 2013  14 04  -21.1199 26162.3 -03349.5 -07.2958 26375.8
 18 01 2013  14 05  -21.1194 26160.5 -03348.5 -07.2940 26373.9
 18 01 2013  14 06  -21.1194 26159.0 -03347.7 -07.2928 26372.3
 18 01 2013  14 07  -21.1186 26157.6 -03347.1 -07.2918 26370.9
 18 01 2013  14 08  -21.1179 26158.0 -03347.3 -07.2922 26371.3
 18 01 2013  14 09  -21.1155 26160.3 -03348.5 -07.2941 26373.7
 18 01 2013  14 10  -21.1129 26161.9 -03349.3 -07.2953 26375.4
 18 01 2013  14 11  -21.1111 26163.8 -03349.9 -07.2962 26377.4
 18 01 2013  14 12  -21.1111 26164.7 -03350.1 -07.2964 26378.3
 18 01 2013  14 13  -21.1107 26163.8 -03349.4 -07.2951 26377.3
 18 01 2013  14 14  -21.1103 26162.5 -03348.5 -07.2936 26376.0
 18 01 2013  14 15  -21.1092 26161.5 -03347.8 -07.2922 26374.8
 18 01 2013  14 16  -21.1083 26160.4 -03347.1 -07.2910 26373.6
 18 01 2013  14 17  -21.1075 26160.3 -03346.9 -07.2906 26373.5
 18 01 2013  14 18  -21.1067 26160.3 -03346.8 -07.2906 26373.5
 18 01 2013  14 19  -21.1054 26160.5 -03346.9 -07.2905 26373.7
 18 01 2013  14 20  -21.1042 26157.8 -03345.5 -07.2884 26370.9
 18 01 2013  14 21  -21.1038 26155.2 -03344.2 -07.2864 26368.2
 18 01 2013  14 22  -21.1039 26152.8 -03343.4 -07.2851 26365.7
 18 01 2013  14 23  -21.1042 26152.1 -03343.3 -07.2851 26364.9
 18 01 2013  14 24  -21.1042 26150.7 -03343.0 -07.2849 26363.5
 18 01 2013  14 25  -21.1033 26149.5 -03342.6 -07.2844 26362.2
 18 01 2013  14 26  -21.1025 26149.9 -03343.0 -07.2852 26362.7
 18 01 2013  14 27  -21.1018 26150.4 -03343.5 -07.2861 26363.3
 18 01 2013  14 28  -21.1011 26151.3 -03344.0 -07.2870 26364.2
 18 01 2013  14 29  -21.1006 26151.6 -03344.2 -07.2873 26364.6
 18 01 2013  14 30  -21.0999 26151.6 -03344.2 -07.2872 26364.6
 18 01 2013  14 31  -21.0996 26150.7 -03343.7 -07.2864 26363.6
 18 01 2013  14 32  -21.0987 26148.9 -03342.8 -07.2850 26361.7
 18 01 2013  14 33  -21.0977 26147.5 -03342.2 -07.2840 26360.2
 18 01 2013  14 34  -21.0968 26146.5 -03341.9 -07.2837 26359.2
 18 01 2013  14 35  -21.0967 26146.6 -03342.1 -07.2842 26359.3
 18 01 2013  14 36  -21.0962 26146.8 -03342.4 -07.2846 26359.6
 18 01 2013  14 37  -21.0953 26147.3 -03342.6 -07.2851 26360.1
 18 01 2013  14 38  -21.0941 26147.8 -03342.9 -07.2855 26360.6
 18 01 2013  14 39  -21.0926 26148.3 -03343.2 -07.2859 26361.2
 18 01 2013  14 40  -21.0917 26148.8 -03343.4 -07.2863 26361.7
 18 01 2013  14 41  -21.0903 26149.2 -03343.5 -07.2865 26362.1
 18 01 2013  14 42  -21.0889 26149.4 -03343.5 -07.2865 26362.3
 18 01 2013  14 43  -21.0878 26149.3 -03343.5 -07.2864 26362.2
 18 01 2013  14 44  -21.0867 26149.1 -03343.4 -07.2862 26362.0
 18 01 2013  14 45  -21.0860 26149.2 -03343.4 -07.2863 26362.0
 18 01 2013  14 46  -21.0851 26149.1 -03343.4 -07.2863 26362.0
 18 01 2013  14 47  -21.0848 26148.2 -03343.1 -07.2857 26361.1
 18 01 2013  14 48  -21.0854 26148.2 -03343.1 -07.2859 26361.1
 18 01 2013  14 49  -21.0855 26147.3 -03342.8 -07.2855 26360.2
 18 01 2013  14 50  -21.0855 26145.8 -03342.2 -07.2846 26358.6
 18 01 2013  14 51  -21.0853 26143.9 -03341.4 -07.2834 26356.6
 18 01 2013  14 52  -21.0856 26142.9 -03341.2 -07.2831 26355.6
 18 01 2013  14 53  -21.0868 26142.2 -03341.1 -07.2832 26354.9
 18 01 2013  14 54  -21.0866 26141.3 -03340.8 -07.2827 26353.9
 18 01 2013  14 55  -21.0866 26140.8 -03340.7 -07.2827 26353.4
 18 01 2013  14 56  -21.0873 26141.3 -03341.2 -07.2836 26353.9
 18 01 2013  14 57  -21.0872 26141.7 -03341.5 -07.2842 26354.4
 18 01 2013  14 58  -21.0872 26142.3 -03341.8 -07.2847 26355.1
 18 01 2013  14 59  -21.0874 26142.2 -03341.8 -07.2846 26354.9
 18 01 2013  15 00  -21.0870 26141.5 -03341.4 -07.2841 26354.2
 18 01 2013  15 01  -21.0867 26141.6 -03341.5 -07.2842 26354.3
 18 01 2013  15 02  -21.0868 26142.7 -03342.1 -07.2852 26355.4
 18 01 2013  15 03  -21.0862 26142.7 -03342.1 -07.2852 26355.5
 18 01 2013  15 04  -21.0863 26142.7 -03342.0 -07.2850 26355.5
 18 01 2013  15 05  -21.0866 26141.7 -03341.5 -07.2842 26354.4
 18 01 2013  15 06  -21.0866 26140.6 -03340.9 -07.2832 26353.2
 18 01 2013  15 07  -21.0865 26139.5 -03340.4 -07.2825 26352.0
 18 01 2013  15 08  -21.0862 26138.4 -03340.0 -07.2819 26351.0
 18 01 2013  15 09  -21.0863 26138.5 -03340.2 -07.2822 26351.1
 18 01 2013  15 10  -21.0863 26138.8 -03340.4 -07.2826 26351.4
 18 01 2013  15 11  -21.0857 26138.7 -03340.3 -07.2825 26351.3
 18 01 2013  15 12  -21.0856 26138.4 -03340.2 -07.2822 26351.0
 18 01 2013  15 13  -21.0855 26138.1 -03340.0 -07.2819 26350.6
 18 01 2013  15 14  -21.0857 26138.2 -03340.0 -07.2818 26350.7
 18 01 2013  15 15  -21.0858 26138.0 -03339.8 -07.2814 26350.5
 18 01 2013  15 16  -21.0856 26137.7 -03339.4 -07.2808 26350.2
 18 01 2013  15 17  -21.0852 26136.5 -03338.8 -07.2797 26348.9
 18 01 2013  15 18  -21.0842 26135.5 -03338.1 -07.2786 26347.8
 18 01 2013  15 19  -21.0844 26135.8 -03338.3 -07.2789 26348.1
 18 01 2013  15 20  -21.0844 26136.0 -03338.3 -07.2789 26348.3
 18 01 2013  15 21  -21.0838 26136.3 -03338.4 -07.2789 26348.6
 18 01 2013  15 22  -21.0838 26136.5 -03338.3 -07.2788 26348.8
 18 01 2013  15 23  -21.0823 26133.5 -03336.8 -07.2763 26345.7
 18 01 2013  15 24  -21.0822 26132.9 -03336.6 -07.2760 26345.1
 18 01 2013  15 25  -21.0821 26132.6 -03336.6 -07.2761 26344.8
 18 01 2013  15 26  -21.0808 26132.3 -03336.4 -07.2758 26344.4
 18 01 2013  15 27  -21.0813 26134.3 -03337.5 -07.2775 26346.6
 18 01 2013  15 28  -21.0809 26137.0 -03338.7 -07.2794 26349.4
 18 01 2013  15 29  -21.0793 26137.9 -03338.8 -07.2794 26350.3
 18 01 2013  15 30  -21.0771 26137.0 -03338.0 -07.2779 26349.3
 18 01 2013  15 31  -21.0756 26134.5 -03336.7 -07.2758 26346.7
 18 01 2013  15 32  -21.0751 26133.4 -03336.1 -07.2748 26345.4
 18 01 2013  15 33  -21.0763 26132.3 -03335.6 -07.2740 26344.4
 18 01 2013  15 34  -21.0747 26128.6 -03333.7 -07.2710 26340.4
 18 01 2013  15 35  -21.0726 26125.6 -03332.3 -07.2688 26337.3
 18 01 2013  15 36  -21.0716 26121.7 -03330.8 -07.2667 26333.2
 18 01 2013  15 37  -21.0726 26118.7 -03330.1 -07.2660 26330.1
 18 01 2013  15 38  -21.0738 26116.9 -03330.0 -07.2662 26328.4
 18 01 2013  15 39  -21.0746 26116.3 -03330.4 -07.2673 26327.8
 18 01 2013  15 40  -21.0758 26118.3 -03331.9 -07.2698 26330.0
 18 01 2013  15 41  -21.0761 26119.8 -03332.8 -07.2714 26331.6
 18 01 2013  15 42  -21.0748 26119.2 -03332.5 -07.2711 26330.9
 18 01 2013  15 43  -21.0746 26118.7 -03332.5 -07.2710 26330.4
 18 01 2013  15 44  -21.0734 26117.5 -03332.0 -07.2703 26329.2
 18 01 2013  15 45  -21.0723 26115.8 -03331.3 -07.2694 26327.4
 18 01 2013  15 46  -21.0702 26114.6 -03331.0 -07.2691 26326.2
 18 01 2013  15 47  -21.0680 26114.8 -03331.4 -07.2698 26326.4
 18 01 2013  15 48  -21.0670 26115.3 -03332.0 -07.2710 26327.0
 18 01 2013  15 49  -21.0631 26115.5 -03332.5 -07.2721 26327.3
 18 01 2013  15 50  -21.0608 26122.4 -03336.2 -07.2780 26334.6
 18 01 2013  15 51  -21.0602 26126.8 -03338.2 -07.2811 26339.1
 18 01 2013  15 52  -21.0592 26129.2 -03338.9 -07.2820 26341.7
 18 01 2013  15 53  -21.0592 26128.7 -03338.2 -07.2807 26341.1
 18 01 2013  15 54  -21.0585 26126.1 -03336.7 -07.2781 26338.3
 18 01 2013  15 55  -21.0573 26123.3 -03335.3 -07.2759 26335.4
 18 01 2013  15 56  -21.0548 26121.2 -03334.5 -07.2747 26333.2
 18 01 2013  15 57  -21.0542 26120.8 -03334.6 -07.2751 26332.8
 18 01 2013  15 58  -21.0533 26119.5 -03334.3 -07.2748 26331.5
 18 01 2013  15 59  -21.0526 26118.5 -03334.1 -07.2747 26330.5
 18 01 2013  16 00  -21.0506 26116.7 -03333.5 -07.2739 26328.6
 18 01 2013  16 01  -21.0490 26116.8 -03334.0 -07.2748 26328.7
 18 01 2013  16 02  -21.0478 26117.5 -03334.7 -07.2762 26329.5
 18 01 2013  16 03  -21.0471 26118.7 -03335.6 -07.2777 26330.8
 18 01 2013  16 04  -21.0466 26119.2 -03336.0 -07.2785 26331.4
 18 01 2013  16 05  -21.0447 26119.2 -03336.1 -07.2787 26331.4
 18 01 2013  16 06  -21.0426 26118.9 -03336.1 -07.2788 26331.1
 18 01 2013  16 07  -21.0411 26118.5 -03336.1 -07.2789 26330.7
 18 01 2013  16 08  -21.0400 26118.4 -03336.3 -07.2793 26330.7
 18 01 2013  16 09  -21.0389 26118.1 -03336.4 -07.2796 26330.4
 18 01 2013  16 10  -21.0374 26117.0 -03336.1 -07.2793 26329.2
 18 01 2013  16 11  -21.0357 26116.1 -03336.0 -07.2794 26328.3
 18 01 2013  16 12  -21.0336 26115.3 -03336.1 -07.2799 26327.5
 18 01 2013  16 13  -21.0312 26115.8 -03336.9 -07.2813 26328.1
 18 01 2013  16 14  -21.0300 26116.9 -03337.9 -07.2832 26329.4
 18 01 2013  16 15  -21.0291 26116.8 -03338.2 -07.2840 26329.3
 18 01 2013  16 16  -21.0278 26116.5 -03338.5 -07.2846 26329.0
 18 01 2013  16 17  -21.0270 26115.6 -03338.6 -07.2850 26328.2
 18 01 2013  16 18  -21.0265 26114.5 -03338.5 -07.2853 26327.0
 18 01 2013  16 19  -21.0270 26113.6 -03338.5 -07.2855 26326.1
 18 01 2013  16 20  -21.0263 26112.1 -03338.3 -07.2854 26324.6
 18 01 2013  16 21  -21.0264 26110.7 -03338.2 -07.2855 26323.2
 18 01 2013  16 22  -21.0251 26108.0 -03337.4 -07.2847 26320.5
 18 01 2013  16 23  -21.0234 26108.7 -03338.6 -07.2870 26321.3
 18 01 2013  16 24  -21.0253 26109.7 -03339.6 -07.2890 26322.4
 18 01 2013  16 25  -21.0248 26104.5 -03337.5 -07.2858 26317.0
 18 01 2013  16 26  -21.0216 26100.0 -03336.1 -07.2840 26312.3
 18 01 2013  16 27  -21.0187 26100.5 -03337.5 -07.2869 26313.0
 18 01 2013  16 28  -21.0171 26104.1 -03340.3 -07.2919 26316.9
 18 01 2013  16 29  -21.0161 26107.6 -03342.5 -07.2957 26320.7
 18 01 2013  16 30  -21.0160 26109.5 -03343.6 -07.2977 26322.7
 18 01 2013  16 31  -21.0161 26108.8 -03343.4 -07.2974 26322.0
 18 01 2013  16 32  -21.0141 26107.6 -03343.1 -07.2970 26320.8
 18 01 2013  16 33  -21.0132 26106.5 -03343.0 -07.2971 26319.7
 18 01 2013  16 34  -21.0119 26104.5 -03342.5 -07.2966 26317.6
 18 01 2013  16 35  -21.0103 26104.1 -03343.0 -07.2977 26317.3
 18 01 2013  16 36  -21.0088 26104.1 -03343.7 -07.2994 26317.4
 18 01 2013  16 37  -21.0081 26104.7 -03344.7 -07.3014 26318.1
 18 01 2013  16 38  -21.0074 26105.4 -03345.6 -07.3031 26318.9
 18 01 2013  16 39  -21.0068 26105.9 -03346.3 -07.3045 26319.5
 18 01 2013  16 40  -21.0059 26105.7 -03346.7 -07.3053 26319.3
 18 01 2013  16 41  -21.0063 26105.2 -03347.0 -07.3061 26318.9
 18 01 2013  16 42  -21.0092 26104.6 -03346.9 -07.3060 26318.2
 18 01 2013  16 43  -21.0085 26100.7 -03345.2 -07.3035 26314.2
 18 01 2013  16 44  -21.0068 26097.6 -03344.4 -07.3026 26311.0
 18 01 2013  16 45  -21.0054 26094.9 -03344.1 -07.3026 26308.3
 18 01 2013  16 46  -21.0032 26094.0 -03344.7 -07.3042 26307.5
 18 01 2013  16 47  -21.0040 26095.9 -03346.7 -07.3080 26309.7
 18 01 2013  16 48  -21.0041 26097.3 -03348.0 -07.3105 26311.1
 18 01 2013  16 49  -21.0058 26098.0 -03348.8 -07.3121 26312.0
 18 01 2013  16 50  -21.0059 26094.0 -03347.2 -07.3098 26307.8
 18 01 2013  16 51  -21.0040 26089.8 -03345.9 -07.3079 26303.5
 18 01 2013  16 52  -21.0038 26090.9 -03347.4 -07.3110 26304.7
 18 01 2013  16 53  -21.0031 26092.2 -03348.9 -07.3137 26306.2
 18 01 2013  16 54  -20.9995 26093.3 -03349.8 -07.3155 26307.5
 18 01 2013  16 55  -21.0009 26097.2 -03352.4 -07.3200 26311.6
 18 01 2013  16 56  -21.0010 26097.7 -03352.8 -07.3208 26312.2
 18 01 2013  16 57  -21.0002 26096.2 -03352.3 -07.3201 26310.6
 18 01 2013  16 58  -20.9994 26096.3 -03352.7 -07.3209 26310.7
 18 01 2013  16 59  -20.9985 26097.5 -03353.8 -07.3229 26312.1
 18 01 2013  17 00  -20.9975 26097.8 -03354.2 -07.3237 26312.4
 18 01 2013  17 01  -20.9968 26096.8 -03354.0 -07.3236 26311.4
 18 01 2013  17 02  -20.9968 26095.2 -03353.7 -07.3234 26309.8
 18 01 2013  17 03  -20.9964 26093.4 -03353.4 -07.3232 26308.0
 18 01 2013  17 04  -20.9966 26092.3 -03353.4 -07.3235 26306.9
 18 01 2013  17 05  -20.9970 26090.3 -03352.8 -07.3228 26304.8
 18 01 2013  17 06  -20.9980 26089.5 -03352.4 -07.3221 26304.0
 18 01 2013  17 07  -20.9987 26089.5 -03352.1 -07.3216 26304.0
 18 01 2013  17 08  -20.9985 26089.5 -03352.0 -07.3213 26303.9
 18 01 2013  17 09  -20.9975 26088.7 -03351.8 -07.3211 26303.1
 18 01 2013  17 10  -20.9964 26087.7 -03351.9 -07.3215 26302.1
 18 01 2013  17 11  -20.9954 26086.4 -03352.1 -07.3223 26300.9
 18 01 2013  17 12  -20.9934 26085.0 -03352.2 -07.3229 26299.5
 18 01 2013  17 13  -20.9918 26084.1 -03352.6 -07.3242 26298.6
 18 01 2013  17 14  -20.9905 26083.4 -03353.3 -07.3258 26298.1
 18 01 2013  17 15  -20.9895 26083.0 -03354.0 -07.3275 26297.7
 18 01 2013  17 16  -20.9886 26082.2 -03354.5 -07.3288 26297.0
 18 01 2013  17 17  -20.9878 26080.9 -03354.7 -07.3296 26295.8
 18 01 2013  17 18  -20.9868 26079.1 -03354.7 -07.3300 26294.0
 18 01 2013  17 19  -20.9861 26078.9 -03355.5 -07.3318 26293.9
 18 01 2013  17 20  -20.9858 26079.7 -03356.8 -07.3344 26294.8
 18 01 2013  17 21  -20.9852 26080.0 -03357.7 -07.3362 26295.2
 18 01 2013  17 22  -20.9838 26079.3 -03358.1 -07.3372 26294.7
 18 01 2013  17 23  -20.9820 26078.6 -03358.3 -07.3380 26293.9
 18 01 2013  17 24  -20.9815 26078.3 -03358.9 -07.3392 26293.7
 18 01 2013  17 25  -20.9822 26077.6 -03359.2 -07.3401 26293.0
 18 01 2013  17 26  -20.9814 26076.5 -03359.2 -07.3405 26292.0
 18 01 2013  17 27  -20.9812 26076.3 -03359.7 -07.3416 26291.8
 18 01 2013  17 28  -20.9808 26075.5 -03359.9 -07.3423 26291.1
 18 01 2013  17 29  -20.9790 26075.3 -03360.5 -07.3436 26290.9
 18 01 2013  17 30  -20.9777 26076.2 -03361.5 -07.3456 26292.0
 18 01 2013  17 31  -20.9775 26077.5 -03362.7 -07.3478 26293.4
 18 01 2013  17 32  -20.9779 26078.3 -03363.5 -07.3493 26294.3
 18 01 2013  17 33  -20.9767 26079.1 -03364.2 -07.3506 26295.2
 18 01 2013  17 34  -20.9764 26079.1 -03364.5 -07.3513 26295.2
 18 01 2013  17 35  -20.9760 26077.8 -03364.2 -07.3509 26293.9
 18 01 2013  17 36  -20.9752 26076.6 -03363.9 -07.3507 26292.7
 18 01 2013  17 37  -20.9749 26075.8 -03364.0 -07.3511 26291.9
 18 01 2013  17 38  -20.9747 26075.3 -03364.4 -07.3520 26291.4
 18 01 2013  17 39  -20.9736 26075.6 -03365.0 -07.3533 26291.8
 18 01 2013  17 40  -20.9726 26075.9 -03365.7 -07.3547 26292.3
 18 01 2013  17 41  -20.9723 26075.7 -03366.1 -07.3555 26292.1
 18 01 2013  17 42  -20.9718 26074.7 -03365.9 -07.3555 26291.0
 18 01 2013  17 43  -20.9723 26073.3 -03365.8 -07.3555 26289.7
 18 01 2013  17 44  -20.9737 26071.7 -03365.4 -07.3551 26288.0
 18 01 2013  17 45  -20.9737 26070.0 -03364.8 -07.3544 26286.2
 18 01 2013  17 46  -20.9728 26068.8 -03364.6 -07.3542 26285.0
 18 01 2013  17 47  -20.9718 26069.2 -03365.2 -07.3554 26285.5
 18 01 2013  17 48  -20.9734 26068.2 -03365.2 -07.3557 26284.5
 18 01 2013  17 49  -20.9735 26067.1 -03365.0 -07.3557 26283.4
 18 01 2013  17 50  -20.9717 26066.3 -03365.1 -07.3561 26282.6
 18 01 2013  17 51  -20.9697 26066.7 -03366.1 -07.3581 26283.2
 18 01 2013  17 52  -20.9688 26067.7 -03367.4 -07.3606 26284.3
 18 01 2013  17 53  -20.9682 26068.6 -03368.5 -07.3627 26285.3
 18 01 2013  17 54  -20.9677 26068.5 -03369.0 -07.3638 26285.3
 18 01 2013  17 55  -20.9671 26068.0 -03369.1 -07.3643 26284.8
 18 01 2013  17 56  -20.9668 26066.8 -03369.1 -07.3645 26283.6
 18 01 2013  17 57  -20.9657 26065.6 -03369.0 -07.3647 26282.4
 18 01 2013  17 58  -20.9650 26065.1 -03369.4 -07.3658 26282.0
 18 01 2013  17 59  -20.9640 26065.3 -03370.1 -07.3672 26282.3
 18 01 2013  18 00  -20.9640 26065.1 -03370.7 -07.3684 26282.2
 18 01 2013  18 01  -20.9626 26065.2 -03371.1 -07.3693 26282.3
 18 01 2013  18 02  -20.9599 26065.7 -03371.9 -07.3710 26282.9
 18 01 2013  18 03  -20.9594 26066.3 -03372.8 -07.3728 26283.6
 18 01 2013  18 04  -20.9586 26067.4 -03373.9 -07.3747 26284.9
 18 01 2013  18 05  -20.9585 26067.7 -03374.5 -07.3760 26285.2
 18 01 2013  18 06  -20.9583 26067.6 -03374.9 -07.3769 26285.2
 18 01 2013  18 07  -20.9581 26067.5 -03375.3 -07.3778 26285.2
 18 01 2013  18 08  -20.9585 26066.8 -03375.4 -07.3782 26284.5
 18 01 2013  18 09  -20.9583 26066.0 -03375.5 -07.3785 26283.7
 18 01 2013  18 10  -20.9578 26065.4 -03375.6 -07.3791 26283.0
 18 01 2013  18 11  -20.9571 26064.8 -03375.9 -07.3798 26282.5
 18 01 2013  18 12  -20.9561 26065.0 -03376.5 -07.3811 26282.8
 18 01 2013  18 13  -20.9553 26065.3 -03377.2 -07.3825 26283.2
 18 01 2013  18 14  -20.9553 26065.2 -03377.6 -07.3834 26283.2
 18 01 2013  18 15  -20.9545 26065.1 -03377.9 -07.3840 26283.0
 18 01 2013  18 16  -20.9519 26065.8 -03378.6 -07.3854 26283.9
 18 01 2013  18 17  -20.9504 26066.9 -03379.6 -07.3873 26285.1
 18 01 2013  18 18  -20.9496 26068.3 -03380.7 -07.3891 26286.6
 18 01 2013  18 19  -20.9489 26069.4 -03381.5 -07.3906 26287.8
 18 01 2013  18 20  -20.9483 26069.8 -03382.0 -07.3916 26288.3
 18 01 2013  18 21  -20.9476 26070.0 -03382.4 -07.3923 26288.5
 18 01 2013  18 22  -20.9470 26070.0 -03382.7 -07.3930 26288.6
 18 01 2013  18 23  -20.9470 26070.0 -03383.0 -07.3937 26288.6
 18 01 2013  18 24  -20.9472 26069.6 -03383.2 -07.3942 26288.2
 18 01 2013  18 25  -20.9473 26069.2 -03383.3 -07.3945 26287.8
 18 01 2013  18 26  -20.9470 26068.8 -03383.5 -07.3951 26287.4
 18 01 2013  18 27  -20.9469 26067.9 -03383.5 -07.3955 26286.6
 18 01 2013  18 28  -20.9470 26067.4 -03383.7 -07.3959 26286.0
 18 01 2013  18 29  -20.9472 26067.2 -03384.0 -07.3967 26285.9
 18 01 2013  18 30  -20.9472 26066.9 -03384.3 -07.3975 26285.7
 18 01 2013  18 31  -20.9468 26066.6 -03384.6 -07.3981 26285.4
 18 01 2013  18 32  -20.9465 26066.5 -03385.0 -07.3990 26285.3
 18 01 2013  18 33  -20.9460 26066.2 -03385.3 -07.3996 26285.1
 18 01 2013  18 34  -20.9455 26066.4 -03385.8 -07.4007 26285.4
 18 01 2013  18 35  -20.9448 26067.2 -03386.5 -07.4021 26286.3
 18 01 2013  18 36  -20.9446 26067.8 -03387.1 -07.4033 26286.9
 18 01 2013  18 37  -20.9440 26068.1 -03387.6 -07.4041 26287.2
 18 01 2013  18 38  -20.9431 26068.1 -03387.9 -07.4048 26287.4
 18 01 2013  18 39  -20.9426 26068.2 -03388.3 -07.4056 26287.5
 18 01 2013  18 40  -20.9420 26068.2 -03388.6 -07.4064 26287.6
 18 01 2013  18 41  -20.9421 26068.4 -03389.0 -07.4072 26287.8
 18 01 2013  18 42  -20.9422 26068.4 -03389.4 -07.4079 26287.8
 18 01 2013  18 43  -20.9423 26068.1 -03389.6 -07.4085 26287.6
 18 01 2013  18 44  -20.9423 26067.9 -03389.8 -07.4090 26287.3
 18 01 2013  18 45  -20.9421 26067.9 -03390.1 -07.4097 26287.5
 18 01 2013  18 46  -20.9421 26068.1 -03390.5 -07.4104 26287.6
 18 01 2013  18 47  -20.9423 26068.3 -03390.8 -07.4111 26287.9
 18 01 2013  18 48  -20.9423 26068.2 -03391.0 -07.4116 26287.8
 18 01 2013  18 49  -20.9424 26068.1 -03391.1 -07.4118 26287.7
 18 01 2013  18 50  -20.9422 26067.4 -03391.0 -07.4117 26287.0
 18 01 2013  18 51  -20.9422 26066.7 -03390.9 -07.4118 26286.3
 18 01 2013  18 52  -20.9425 26066.5 -03391.1 -07.4122 26286.1
 18 01 2013  18 53  -20.9429 26066.4 -03391.3 -07.4127 26286.1
 18 01 2013  18 54  -20.9431 26066.5 -03391.6 -07.4133 26286.2
 18 01 2013  18 55  -20.9430 26066.6 -03391.9 -07.4139 26286.3
 18 01 2013  18 56  -20.9437 26066.8 -03392.3 -07.4146 26286.6
 18 01 2013  18 57  -20.9447 26067.0 -03392.5 -07.4151 26286.8
 18 01 2013  18 58  -20.9456 26066.5 -03392.3 -07.4149 26286.3
 18 01 2013  18 59  -20.9460 26065.6 -03392.0 -07.4144 26285.3
 18 01 2013  19 00  -20.9476 26064.3 -03391.5 -07.4137 26284.1
 18 01 2013  19 01  -20.9482 26063.5 -03391.1 -07.4130 26283.2
 18 01 2013  19 02  -20.9482 26063.1 -03391.0 -07.4129 26282.8
 18 01 2013  19 03  -20.9478 26062.8 -03391.1 -07.4133 26282.5
 18 01 2013  19 04  -20.9472 26062.4 -03391.3 -07.4138 26282.1
 18 01 2013  19 05  -20.9478 26062.6 -03391.8 -07.4147 26282.4
 18 01 2013  19 06  -20.9480 26063.0 -03392.2 -07.4155 26282.8
 18 01 2013  19 07  -20.9482 26063.2 -03392.4 -07.4159 26283.1
 18 01 2013  19 08  -20.9484 26063.8 -03392.8 -07.4166 26283.6
 18 01 2013  19 09  -20.9486 26063.8 -03393.0 -07.4170 26283.7
 18 01 2013  19 10  -20.9487 26064.0 -03393.0 -07.4171 26283.9
 18 01 2013  19 11  -20.9485 26064.2 -03393.1 -07.4172 26284.2
 18 01 2013  19 12  -20.9487 26064.6 -03393.3 -07.4174 26284.6
 18 01 2013  19 13  -20.9492 26064.8 -03393.3 -07.4174 26284.8
 18 01 2013  19 14  -20.9490 26065.2 -03393.5 -07.4177 26285.2
 18 01 2013  19 15  -20.9491 26065.4 -03393.6 -07.4179 26285.4
 18 01 2013  19 16  -20.9496 26065.2 -03393.6 -07.4179 26285.2
 18 01 2013  19 17  -20.9500 26065.0 -03393.3 -07.4175 26284.9
 18 01 2013  19 18  -20.9510 26064.4 -03393.0 -07.4169 26284.3
 18 01 2013  19 19  -20.9513 26063.9 -03392.6 -07.4161 26283.8
 18 01 2013  19 20  -20.9514 26063.7 -03392.4 -07.4158 26283.5
 18 01 2013  19 21  -20.9521 26063.8 -03392.5 -07.4159 26283.7
 18 01 2013  19 22  -20.9530 26064.3 -03392.6 -07.4160 26284.2
 18 01 2013  19 23  -20.9539 26065.3 -03393.0 -07.4165 26285.2
 18 01 2013  19 24  -20.9535 26065.7 -03393.0 -07.4166 26285.6
 18 01 2013  19 25  -20.9543 26065.5 -03393.0 -07.4166 26285.4
 18 01 2013  19 26  -20.9547 26065.4 -03392.9 -07.4163 26285.3
 18 01 2013  19 27  -20.9548 26065.2 -03392.7 -07.4160 26285.1
 18 01 2013  19 28  -20.9544 26065.0 -03392.6 -07.4159 26284.8
 18 01 2013  19 29  -20.9539 26065.4 -03392.8 -07.4162 26285.2
 18 01 2013  19 30  -20.9544 26065.7 -03393.0 -07.4165 26285.6
 18 01 2013  19 31  -20.9558 26064.9 -03392.6 -07.4158 26284.7
 18 01 2013  19 32  -20.9569 26064.1 -03392.0 -07.4147 26283.9
 18 01 2013  19 33  -20.9588 26063.6 -03391.6 -07.4142 26283.3
 18 01 2013  19 34  -20.9605 26063.9 -03391.8 -07.4145 26283.7
 18 01 2013  19 35  -20.9611 26064.5 -03392.2 -07.4151 26284.3
 18 01 2013  19 36  -20.9620 26064.6 -03392.4 -07.4156 26284.4
 18 01 2013  19 37  -20.9629 26064.7 -03392.5 -07.4158 26284.5
 18 01 2013  19 38  -20.9617 26064.5 -03392.5 -07.4157 26284.4
 18 01 2013  19 39  -20.9625 26063.9 -03392.4 -07.4157 26283.8
 18 01 2013  19 40  -20.9627 26063.9 -03392.3 -07.4156 26283.7
 18 01 2013  19 41  -20.9635 26063.2 -03392.1 -07.4153 26283.0
 18 01 2013  19 42  -20.9642 26062.5 -03391.8 -07.4148 26282.3
 18 01 2013  19 43  -20.9653 26061.3 -03391.2 -07.4139 26281.0
 18 01 2013  19 44  -20.9661 26061.4 -03391.2 -07.4138 26281.1
 18 01 2013  19 45  -20.9658 26060.9 -03391.0 -07.4136 26280.6
 18 01 2013  19 46  -20.9663 26059.6 -03390.5 -07.4128 26279.2
 18 01 2013  19 47  -20.9663 26059.1 -03390.2 -07.4124 26278.7
 18 01 2013  19 48  -20.9663 26058.6 -03390.2 -07.4124 26278.2
 18 01 2013  19 49  -20.9655 26058.9 -03390.3 -07.4127 26278.5
 18 01 2013  19 50  -20.9647 26059.3 -03390.9 -07.4138 26279.0
 18 01 2013  19 51  -20.9631 26059.8 -03391.4 -07.4148 26279.6
 18 01 2013  19 52  -20.9627 26060.8 -03392.2 -07.4161 26280.7
 18 01 2013  19 53  -20.9612 26061.4 -03392.6 -07.4169 26281.3
 18 01 2013  19 54  -20.9588 26062.4 -03393.3 -07.4181 26282.4
 18 01 2013  19 55  -20.9575 26062.7 -03393.7 -07.4188 26282.7
 18 01 2013  19 56  -20.9572 26063.2 -03394.1 -07.4197 26283.2
 18 01 2013  19 57  -20.9600 26062.9 -03394.0 -07.4195 26282.9
 18 01 2013  19 58  -20.9631 26062.6 -03393.5 -07.4185 26282.6
 18 01 2013  19 59  -20.9654 26063.0 -03393.4 -07.4181 26283.0
 18 01 2013  20 00  -20.9674 26062.9 -03393.2 -07.4178 26282.8
 18 01 2013  20 01  -20.9692 26062.3 -03392.9 -07.4173 26282.2
 18 01 2013  20 02  -20.9708 26061.0 -03392.3 -07.4164 26280.8
 18 01 2013  20 03  -20.9725 26059.9 -03391.7 -07.4155 26279.7
 18 01 2013  20 04  -20.9738 26060.0 -03391.7 -07.4154 26279.7
 18 01 2013  20 05  -20.9741 26060.0 -03391.8 -07.4156 26279.8
 18 01 2013  20 06  -20.9743 26060.1 -03391.8 -07.4156 26279.9
 18 01 2013  20 07  -20.9742 26060.3 -03392.0 -07.4158 26280.1
 18 01 2013  20 08  -20.9743 26060.5 -03392.1 -07.4161 26280.3
 18 01 2013  20 09  -20.9743 26060.6 -03392.2 -07.4163 26280.5
 18 01 2013  20 10  -20.9743 26060.7 -03392.3 -07.4164 26280.5
 18 01 2013  20 11  -20.9739 26060.8 -03392.4 -07.4167 26280.7
 18 01 2013  20 12  -20.9736 26061.0 -03392.6 -07.4169 26280.9
 18 01 2013  20 13  -20.9736 26060.9 -03392.5 -07.4168 26280.8
 18 01 2013  20 14  -20.9738 26060.6 -03392.4 -07.4166 26280.5
 18 01 2013  20 15  -20.9743 26059.9 -03392.0 -07.4160 26279.8
 18 01 2013  20 16  -20.9748 26059.6 -03391.9 -07.4158 26279.4
 18 01 2013  20 17  -20.9754 26059.5 -03391.8 -07.4156 26279.4
 18 01 2013  20 18  -20.9757 26059.8 -03391.9 -07.4159 26279.6
 18 01 2013  20 19  -20.9757 26060.3 -03392.2 -07.4163 26280.2
 18 01 2013  20 20  -20.9758 26060.9 -03392.5 -07.4167 26280.8
 18 01 2013  20 21  -20.9758 26061.6 -03392.7 -07.4171 26281.5
 18 01 2013  20 22  -20.9759 26062.1 -03393.0 -07.4175 26282.1
 18 01 2013  20 23  -20.9755 26062.7 -03393.2 -07.4178 26282.7
 18 01 2013  20 24  -20.9755 26062.8 -03393.1 -07.4177 26282.7
 18 01 2013  20 25  -20.9747 26062.8 -03393.1 -07.4175 26282.7
 18 01 2013  20 26  -20.9737 26063.1 -03393.2 -07.4177 26283.1
 18 01 2013  20 27  -20.9730 26063.5 -03393.4 -07.4180 26283.4
 18 01 2013  20 28  -20.9724 26063.8 -03393.6 -07.4183 26283.8
 18 01 2013  20 29  -20.9719 26064.5 -03393.9 -07.4188 26284.6
 18 01 2013  20 30  -20.9716 26065.3 -03394.2 -07.4193 26285.4
 18 01 2013  20 31  -20.9716 26065.7 -03394.4 -07.4196 26285.8
 18 01 2013  20 32  -20.9724 26064.8 -03393.9 -07.4187 26284.8
 18 01 2013  20 33  -20.9736 26064.0 -03393.4 -07.4178 26284.0
 18 01 2013  20 34  -20.9746 26064.2 -03393.3 -07.4177 26284.2
 18 01 2013  20 35  -20.9754 26064.3 -03393.3 -07.4177 26284.3
 18 01 2013  20 36  -20.9761 26064.1 -03393.2 -07.4174 26284.1
 18 01 2013  20 37  -20.9766 26064.4 -03393.2 -07.4173 26284.3
 18 01 2013  20 38  -20.9770 26064.6 -03393.2 -07.4172 26284.5
 18 01 2013  20 39  -20.9772 26064.5 -03393.0 -07.4169 26284.4
 18 01 2013  20 40  -20.9774 26064.4 -03392.8 -07.4165 26284.3
 18 01 2013  20 41  -20.9777 26064.4 -03392.7 -07.4163 26284.3
 18 01 2013  20 42  -20.9779 26063.8 -03392.4 -07.4157 26283.6
 18 01 2013  20 43  -20.9789 26063.3 -03392.0 -07.4151 26283.1
 18 01 2013  20 44  -20.9799 26062.8 -03391.7 -07.4145 26282.6
 18 01 2013  20 45  -20.9809 26062.2 -03391.3 -07.4140 26281.9
 18 01 2013  20 46  -20.9824 26061.3 -03390.9 -07.4132 26281.0
 18 01 2013  20 47  -20.9840 26060.6 -03390.5 -07.4126 26280.2
 18 01 2013  20 48  -20.9852 26059.2 -03389.8 -07.4115 26278.8
 18 01 2013  20 49  -20.9860 26058.0 -03389.1 -07.4103 26277.4
 18 01 2013  20 50  -20.9865 26057.4 -03388.8 -07.4097 26276.8
 18 01 2013  20 51  -20.9871 26057.0 -03388.6 -07.4095 26276.4
 18 01 2013  20 52  -20.9869 26057.0 -03388.6 -07.4094 26276.5
 18 01 2013  20 53  -20.9866 26057.5 -03388.8 -07.4098 26276.9
 18 01 2013  20 54  -20.9862 26058.3 -03389.2 -07.4104 26277.8
 18 01 2013  20 55  -20.9858 26058.8 -03389.5 -07.4108 26278.4
 18 01 2013  20 56  -20.9855 26059.3 -03389.7 -07.4113 26278.9
 18 01 2013  20 57  -20.9849 26060.3 -03390.2 -07.4120 26279.9
 18 01 2013  20 58  -20.9849 26060.4 -03390.2 -07.4120 26280.0
 18 01 2013  20 59  -20.9885 26059.5 -03389.7 -07.4111 26279.0
 18 01 2013  21 00  -20.9889 26058.7 -03389.3 -07.4105 26278.2
 18 01 2013  21 01  -20.9891 26058.0 -03388.9 -07.4099 26277.5
 18 01 2013  21 02  -20.9891 26057.4 -03388.6 -07.4093 26276.8
 18 01 2013  21 03  -20.9862 26057.5 -03388.5 -07.4091 26276.9
 18 01 2013  21 04  -20.9837 26058.1 -03388.9 -07.4097 26277.5
 18 01 2013  21 05  -20.9831 26058.3 -03389.0 -07.4099 26277.7
 18 01 2013  21 06  -20.9829 26057.3 -03388.5 -07.4093 26276.7
 18 01 2013  21 07  -20.9825 26057.3 -03388.5 -07.4092 26276.7
 18 01 2013  21 08  -20.9822 26057.0 -03388.4 -07.4091 26276.4
 18 01 2013  21 09  -20.9819 26057.2 -03388.5 -07.4093 26276.6
 18 01 2013  21 10  -20.9818 26057.3 -03388.7 -07.4095 26276.8
 18 01 2013  21 11  -20.9816 26057.3 -03388.7 -07.4095 26276.7
 18 01 2013  21 12  -20.9814 26056.9 -03388.5 -07.4093 26276.3
 18 01 2013  21 13  -20.9815 26056.8 -03388.4 -07.4091 26276.2
 18 01 2013  21 14  -20.9817 26056.7 -03388.4 -07.4091 26276.0
 18 01 2013  21 15  -20.9819 26056.2 -03388.2 -07.4088 26275.6
 18 01 2013  21 16  -20.9819 26056.1 -03388.2 -07.4088 26275.5
 18 01 2013  21 17  -20.9820 26055.9 -03388.1 -07.4088 26275.3
 18 01 2013  21 18  -20.9816 26056.0 -03388.2 -07.4089 26275.4
 18 01 2013  21 19  -20.9811 26055.8 -03388.2 -07.4089 26275.2
 18 01 2013  21 20  -20.9810 26055.7 -03388.1 -07.4088 26275.0
 18 01 2013  21 21  -20.9805 26056.6 -03388.6 -07.4096 26276.0
 18 01 2013  21 22  -20.9808 26056.7 -03388.8 -07.4100 26276.1
 18 01 2013  21 23  -20.9807 26057.3 -03389.1 -07.4105 26276.8
 18 01 2013  21 24  -20.9806 26057.8 -03389.4 -07.4109 26277.3
 18 01 2013  21 25  -20.9807 26057.2 -03389.3 -07.4109 26276.6
 18 01 2013  21 26  -20.9814 26057.4 -03389.2 -07.4106 26276.8
 18 01 2013  21 27  -20.9811 26057.3 -03389.2 -07.4107 26276.8
 18 01 2013  21 28  -20.9808 26057.8 -03389.3 -07.4109 26277.3
 18 01 2013  21 29  -20.9808 26058.0 -03389.4 -07.4110 26277.5
 18 01 2013  21 30  -20.9808 26058.1 -03389.5 -07.4111 26277.6
 18 01 2013  21 31  -20.9807 26058.5 -03389.6 -07.4112 26278.0
 18 01 2013  21 32  -20.9805 26059.1 -03389.8 -07.4115 26278.6
 18 01 2013  21 33  -20.9806 26059.1 -03389.8 -07.4116 26278.7
 18 01 2013  21 34  -20.9808 26058.9 -03389.7 -07.4112 26278.5
 18 01 2013  21 35  -20.9812 26058.4 -03389.4 -07.4107 26277.9
 18 01 2013  21 36  -20.9817 26057.8 -03389.0 -07.4101 26277.2
 18 01 2013  21 37  -20.9819 26057.8 -03388.9 -07.4099 26277.2
 18 01 2013  21 38  -20.9817 26057.8 -03388.9 -07.4098 26277.2
 18 01 2013  21 39  -20.9818 26057.5 -03388.7 -07.4095 26276.9
 18 01 2013  21 40  -20.9820 26057.0 -03388.4 -07.4091 26276.4
 18 01 2013  21 41  -20.9823 26056.7 -03388.2 -07.4088 26276.1
 18 01 2013  21 42  -20.9827 26056.2 -03388.1 -07.4085 26275.5
 18 01 2013  21 43  -20.9835 26055.5 -03387.8 -07.4081 26274.8
 18 01 2013  21 44  -20.9840 26055.5 -03387.7 -07.4080 26274.8
 18 01 2013  21 45  -20.9842 26055.6 -03387.8 -07.4082 26274.9
 18 01 2013  21 46  -20.9839 26055.5 -03387.8 -07.4082 26274.8
 18 01 2013  21 47  -20.9836 26055.0 -03387.6 -07.4078 26274.3
 18 01 2013  21 48  -20.9832 26054.6 -03387.4 -07.4075 26273.9
 18 01 2013  21 49  -20.9831 26054.4 -03387.3 -07.4075 26273.6
 18 01 2013  21 50  -20.9832 26053.8 -03387.2 -07.4073 26273.1
 18 01 2013  21 51  -20.9837 26053.2 -03387.0 -07.4071 26272.5
 18 01 2013  21 52  -20.9838 26052.9 -03386.9 -07.4070 26272.1
 18 01 2013  21 53  -20.9835 26053.0 -03387.0 -07.4072 26272.2
 18 01 2013  21 54  -20.9833 26052.9 -03387.1 -07.4074 26272.2
 18 01 2013  21 55  -20.9831 26052.8 -03387.1 -07.4075 26272.0
 18 01 2013  21 56  -20.9830 26052.6 -03387.2 -07.4076 26271.9
 18 01 2013  21 57  -20.9824 26052.4 -03387.2 -07.4076 26271.7
 18 01 2013  21 58  -20.9818 26052.1 -03387.1 -07.4076 26271.3
 18 01 2013  21 59  -20.9817 26052.0 -03387.2 -07.4078 26271.3
 18 01 2013  22 00  -20.9820 26051.4 -03387.0 -07.4077 26270.7
 18 01 2013  22 01  -20.9832 26051.1 -03387.0 -07.4077 26270.3
 18 01 2013  22 02  -20.9831 26050.9 -03387.0 -07.4077 26270.2
 18 01 2013  22 03  -20.9835 26050.5 -03386.9 -07.4077 26269.8
 18 01 2013  22 04  -20.9833 26050.4 -03386.9 -07.4077 26269.7
 18 01 2013  22 05  -20.9831 26049.8 -03386.8 -07.4076 26269.0
 18 01 2013  22 06  -20.9840 26048.3 -03386.2 -07.4067 26267.5
 18 01 2013  22 07  -20.9850 26046.7 -03385.6 -07.4058 26265.9
 18 01 2013  22 08  -20.9849 26046.1 -03385.3 -07.4053 26265.2
 18 01 2013  22 09  -20.9840 26046.2 -03385.4 -07.4056 26265.3
 18 01 2013  22 10  -20.9834 26046.0 -03385.5 -07.4058 26265.1
 18 01 2013  22 11  -20.9829 26046.0 -03385.6 -07.4062 26265.1
 18 01 2013  22 12  -20.9826 26046.1 -03385.9 -07.4066 26265.3
 18 01 2013  22 13  -20.9824 26046.6 -03386.2 -07.4073 26265.8
 18 01 2013  22 14  -20.9814 26047.5 -03386.8 -07.4083 26266.8
 18 01 2013  22 15  -20.9806 26048.3 -03387.4 -07.4093 26267.6
 18 01 2013  22 16  -20.9803 26047.9 -03387.5 -07.4095 26267.2
 18 01 2013  22 17  -20.9796 26047.8 -03387.4 -07.4096 26267.2
 18 01 2013  22 18  -20.9780 26048.7 -03387.9 -07.4103 26268.1
 18 01 2013  22 19  -20.9772 26048.7 -03388.1 -07.4107 26268.1
 18 01 2013  22 20  -20.9778 26046.3 -03387.2 -07.4095 26265.6
 18 01 2013  22 21  -20.9779 26045.3 -03386.6 -07.4085 26264.6
 18 01 2013  22 22  -20.9778 26044.6 -03386.4 -07.4082 26263.8
 18 01 2013  22 23  -20.9789 26042.4 -03385.6 -07.4072 26261.6
 18 01 2013  22 24  -20.9798 26040.3 -03384.7 -07.4057 26259.3
 18 01 2013  22 25  -20.9797 26039.2 -03384.3 -07.4051 26258.2
 18 01 2013  22 26  -20.9781 26040.9 -03385.1 -07.4064 26260.0
 18 01 2013  22 27  -20.9765 26042.8 -03386.4 -07.4087 26262.1
 18 01 2013  22 28  -20.9766 26043.7 -03387.2 -07.4102 26263.0
 18 01 2013  22 29  -20.9774 26043.0 -03387.2 -07.4104 26262.3
 18 01 2013  22 30  -20.9790 26041.3 -03386.6 -07.4095 26260.6
 18 01 2013  22 31  -20.9808 26040.0 -03386.0 -07.4086 26259.2
 18 01 2013  22 32  -20.9815 26038.9 -03385.5 -07.4079 26258.1
 18 01 2013  22 33  -20.9807 26039.5 -03385.7 -07.4082 26258.7
 18 01 2013  22 34  -20.9799 26040.7 -03386.5 -07.4096 26260.0
 18 01 2013  22 35  -20.9789 26041.5 -03387.1 -07.4106 26260.8
 18 01 2013  22 36  -20.9777 26042.2 -03387.6 -07.4115 26261.6
 18 01 2013  22 37  -20.9786 26042.0 -03387.8 -07.4119 26261.4
 18 01 2013  22 38  -20.9823 26040.4 -03387.3 -07.4112 26259.8
 18 01 2013  22 39  -20.9858 26038.7 -03386.5 -07.4100 26258.0
 18 01 2013  22 40  -20.9865 26038.4 -03386.2 -07.4094 26257.6
 18 01 2013  22 41  -20.9853 26039.7 -03386.7 -07.4102 26259.0
 18 01 2013  22 42  -20.9849 26041.6 -03387.7 -07.4119 26261.1
 18 01 2013  22 43  -20.9854 26042.6 -03388.4 -07.4132 26262.1
 18 01 2013  22 44  -20.9863 26042.6 -03388.6 -07.4135 26262.1
 18 01 2013  22 45  -20.9875 26042.1 -03388.3 -07.4131 26261.6
 18 01 2013  22 46  -20.9883 26041.6 -03388.0 -07.4126 26261.0
 18 01 2013  22 47  -20.9891 26040.8 -03387.7 -07.4120 26260.3
 18 01 2013  22 48  -20.9899 26040.0 -03387.2 -07.4113 26259.4
 18 01 2013  22 49  -20.9907 26039.3 -03386.8 -07.4106 26258.6
 18 01 2013  22 50  -20.9909 26039.1 -03386.7 -07.4104 26258.4
 18 01 2013  22 51  -20.9913 26039.1 -03386.7 -07.4105 26258.4
 18 01 2013  22 52  -20.9918 26039.2 -03386.8 -07.4107 26258.5
 18 01 2013  22 53  -20.9923 26039.4 -03387.0 -07.4110 26258.8
 18 01 2013  22 54  -20.9927 26039.1 -03387.0 -07.4110 26258.5
 18 01 2013  22 55  -20.9937 26038.1 -03386.6 -07.4105 26257.4
 18 01 2013  22 56  -20.9956 26035.9 -03385.7 -07.4090 26255.1
 18 01 2013  22 57  -20.9966 26034.5 -03384.9 -07.4077 26253.6
 18 01 2013  22 58  -20.9966 26033.8 -03384.5 -07.4071 26252.9
 18 01 2013  22 59  -20.9963 26033.8 -03384.6 -07.4072 26252.9
 18 01 2013  23 00  -20.9963 26034.0 -03384.8 -07.4077 26253.1
 18 01 2013  23 01  -20.9966 26034.4 -03385.2 -07.4085 26253.5
 18 01 2013  23 02  -20.9982 26033.8 -03385.2 -07.4086 26252.9
 18 01 2013  23 03  -20.9987 26033.9 -03385.3 -07.4087 26253.1
 18 01 2013  23 04  -20.9978 26035.1 -03385.8 -07.4097 26254.3
 18 01 2013  23 05  -20.9981 26035.6 -03386.3 -07.4105 26254.9
 18 01 2013  23 06  -20.9993 26035.3 -03386.3 -07.4107 26254.6
 18 01 2013  23 07  -21.0003 26034.7 -03386.1 -07.4103 26254.0
 18 01 2013  23 08  -21.0002 26034.7 -03386.1 -07.4103 26254.0
 18 01 2013  23 09  -20.9998 26035.0 -03386.2 -07.4104 26254.3
 18 01 2013  23 10  -20.9996 26035.5 -03386.5 -07.4109 26254.8
 18 01 2013  23 11  -20.9995 26036.1 -03386.9 -07.4116 26255.5
 18 01 2013  23 12  -20.9996 26036.6 -03387.2 -07.4121 26256.0
 18 01 2013  23 13  -20.9994 26037.4 -03387.6 -07.4128 26256.8
 18 01 2013  23 14  -20.9988 26038.5 -03388.1 -07.4137 26258.0
 18 01 2013  23 15  -20.9994 26039.0 -03388.5 -07.4144 26258.6
 18 01 2013  23 16  -20.9999 26038.9 -03388.5 -07.4144 26258.5
 18 01 2013  23 17  -20.9998 26038.9 -03388.4 -07.4141 26258.4
 18 01 2013  23 18  -20.9991 26039.3 -03388.5 -07.4142 26258.9
 18 01 2013  23 19  -20.9984 26040.4 -03389.0 -07.4150 26260.0
 18 01 2013  23 20  -20.9976 26041.8 -03389.7 -07.4161 26261.5
 18 01 2013  23 21  -20.9966 26044.0 -03390.7 -07.4176 26263.8
 18 01 2013  23 22  -20.9973 26045.0 -03391.4 -07.4188 26264.8
 18 01 2013  23 23  -20.9992 26043.4 -03390.7 -07.4179 26263.2
 18 01 2013  23 24  -21.0003 26041.2 -03389.4 -07.4157 26260.8
 18 01 2013  23 25  -21.0011 26038.9 -03388.1 -07.4134 26258.4
 18 01 2013  23 26  -21.0014 26037.5 -03387.2 -07.4119 26256.9
 18 01 2013  23 27  -21.0010 26036.9 -03386.8 -07.4113 26256.2
 18 01 2013  23 28  -21.0005 26036.9 -03386.9 -07.4114 26256.3
 18 01 2013  23 29  -21.0006 26037.0 -03387.1 -07.4118 26256.3
 18 01 2013  23 30  -21.0011 26036.7 -03387.2 -07.4120 26256.1
 18 01 2013  23 31  -21.0011 26036.6 -03387.2 -07.4121 26256.0
 18 01 2013  23 32  -21.0011 26036.6 -03387.3 -07.4123 26256.0
 18 01 2013  23 33  -21.0010 26036.5 -03387.3 -07.4125 26255.9
 18 01 2013  23 34  -21.0012 26036.2 -03387.2 -07.4124 26255.6
 18 01 2013  23 35  -21.0012 26035.7 -03387.1 -07.4121 26255.1
 18 01 2013  23 36  -21.0019 26035.4 -03387.0 -07.4120 26254.8
 18 01 2013  23 37  -21.0025 26035.3 -03387.0 -07.4121 26254.7
 18 01 2013  23 38  -21.0025 26035.5 -03387.1 -07.4124 26254.9
 18 01 2013  23 39  -21.0023 26036.1 -03387.5 -07.4129 26255.5
 18 01 2013  23 40  -21.0027 26036.8 -03387.9 -07.4137 26256.3
 18 01 2013  23 41  -21.0034 26037.1 -03388.2 -07.4142 26256.6
 18 01 2013  23 42  -21.0047 26036.9 -03388.2 -07.4142 26256.4
 18 01 2013  23 43  -21.0059 26036.6 -03388.0 -07.4140 26256.1
 18 01 2013  23 44  -21.0064 26036.3 -03387.8 -07.4135 26255.8
 18 01 2013  23 45  -21.0065 26036.3 -03387.7 -07.4133 26255.8
 18 01 2013  23 46  -21.0061 26036.7 -03387.8 -07.4135 26256.2
 18 01 2013  23 47  -21.0064 26037.1 -03388.0 -07.4139 26256.6
 18 01 2013  23 48  -21.0074 26036.8 -03388.0 -07.4138 26256.3
 18 01 2013  23 49  -21.0085 26036.0 -03387.6 -07.4131 26255.5
 18 01 2013  23 50  -21.0095 26035.2 -03387.1 -07.4124 26254.6
 18 01 2013  23 51  -21.0097 26034.6 -03386.7 -07.4117 26254.0
 18 01 2013  23 52  -21.0097 26034.4 -03386.5 -07.4114 26253.7
 18 01 2013  23 53  -21.0100 26034.1 -03386.5 -07.4113 26253.5
 18 01 2013  23 54  -21.0104 26033.7 -03386.3 -07.4111 26253.1
 18 01 2013  23 55  -21.0107 26033.4 -03386.2 -07.4109 26252.7
 18 01 2013  23 56  -21.0106 26033.1 -03386.1 -07.4107 26252.4
 18 01 2013  23 57  -21.0103 26032.8 -03385.9 -07.4105 26252.0
