SAO LUIS EMBRACE-03 <286> 1 Min. Reported data

 DD MM YYYY  HH MM   D(Deg)  H(nT)   Z(nT)   I(Deg)   F(nT)

 13 10 2013  00 00  -21.0214 26016.4 -03494.1 -07.6492 26250.0
 13 10 2013  00 01  -21.0210 26016.5 -03494.1 -07.6492 26250.1
 13 10 2013  00 02  -21.0208 26016.5 -03494.0 -07.6491 26250.0
 13 10 2013  00 03  -21.0208 26016.4 -03494.0 -07.6491 26250.0
 13 10 2013  00 04  -21.0205 26016.5 -03494.1 -07.6491 26250.1
 13 10 2013  00 05  -21.0201 26016.5 -03494.1 -07.6491 26250.1
 13 10 2013  00 06  -21.0198 26016.5 -03494.0 -07.6491 26250.1
 13 10 2013  00 07  -21.0196 26016.4 -03494.0 -07.6490 26250.0
 13 10 2013  00 08  -21.0195 26016.2 -03494.0 -07.6490 26249.8
 13 10 2013  00 09  -21.0194 26016.1 -03493.9 -07.6489 26249.6
 13 10 2013  00 10  -21.0195 26015.9 -03493.8 -07.6488 26249.5
 13 10 2013  00 11  -21.0197 26015.7 -03493.8 -07.6487 26249.2
 13 10 2013  00 12  -21.0200 26015.4 -03493.7 -07.6486 26248.9
 13 10 2013  00 13  -21.0203 26015.1 -03493.6 -07.6485 26248.7
 13 10 2013  00 14  -21.0203 26014.9 -03493.5 -07.6484 26248.4
 13 10 2013  00 15  -21.0202 26014.8 -03493.4 -07.6483 26248.3
 13 10 2013  00 16  -21.0202 26014.7 -03493.4 -07.6483 26248.2
 13 10 2013  00 17  -21.0200 26014.6 -03493.4 -07.6483 26248.1
 13 10 2013  00 18  -21.0200 26014.6 -03493.5 -07.6485 26248.1
 13 10 2013  00 19  -21.0199 26014.4 -03493.5 -07.6486 26248.0
 13 10 2013  00 20  -21.0198 26014.3 -03493.5 -07.6485 26247.8
 13 10 2013  00 21  -21.0195 26014.2 -03493.5 -07.6485 26247.7
 13 10 2013  00 22  -21.0192 26014.2 -03493.5 -07.6486 26247.8
 13 10 2013  00 23  -21.0189 26014.3 -03493.7 -07.6489 26247.9
 13 10 2013  00 24  -21.0187 26014.5 -03493.8 -07.6492 26248.1
 13 10 2013  00 25  -21.0185 26014.6 -03493.9 -07.6494 26248.2
 13 10 2013  00 26  -21.0182 26014.6 -03494.0 -07.6495 26248.2
 13 10 2013  00 27  -21.0180 26014.7 -03494.1 -07.6497 26248.3
 13 10 2013  00 28  -21.0176 26014.7 -03494.1 -07.6498 26248.4
 13 10 2013  00 29  -21.0173 26014.8 -03494.2 -07.6499 26248.4
 13 10 2013  00 30  -21.0171 26014.8 -03494.3 -07.6501 26248.5
 13 10 2013  00 31  -21.0167 26015.0 -03494.4 -07.6503 26248.6
 13 10 2013  00 32  -21.0164 26015.1 -03494.5 -07.6506 26248.8
 13 10 2013  00 33  -21.0162 26015.3 -03494.7 -07.6508 26249.0
 13 10 2013  00 34  -21.0159 26015.5 -03494.8 -07.6510 26249.2
 13 10 2013  00 35  -21.0157 26015.6 -03494.9 -07.6513 26249.3
 13 10 2013  00 36  -21.0157 26015.6 -03495.0 -07.6514 26249.3
 13 10 2013  00 37  -21.0157 26015.6 -03495.0 -07.6514 26249.4
 13 10 2013  00 38  -21.0155 26015.6 -03495.0 -07.6515 26249.4
 13 10 2013  00 39  -21.0153 26015.6 -03495.0 -07.6515 26249.3
 13 10 2013  00 40  -21.0151 26015.5 -03495.0 -07.6514 26249.2
 13 10 2013  00 41  -21.0151 26015.3 -03494.9 -07.6514 26249.0
 13 10 2013  00 42  -21.0148 26015.1 -03494.8 -07.6512 26248.8
 13 10 2013  00 43  -21.0147 26015.1 -03494.9 -07.6513 26248.8
 13 10 2013  00 44  -21.0145 26015.0 -03494.9 -07.6513 26248.7
 13 10 2013  00 45  -21.0143 26014.9 -03494.9 -07.6514 26248.6
 13 10 2013  00 46  -21.0142 26015.0 -03494.9 -07.6514 26248.7
 13 10 2013  00 47  -21.0143 26015.0 -03495.0 -07.6516 26248.8
 13 10 2013  00 48  -21.0143 26015.1 -03495.1 -07.6518 26248.8
 13 10 2013  00 49  -21.0144 26015.2 -03495.2 -07.6519 26248.9
 13 10 2013  00 50  -21.0144 26015.3 -03495.3 -07.6521 26249.0
 13 10 2013  00 51  -21.0144 26015.3 -03495.3 -07.6522 26249.1
 13 10 2013  00 52  -21.0144 26015.5 -03495.4 -07.6523 26249.2
 13 10 2013  00 53  -21.0142 26015.7 -03495.5 -07.6525 26249.5
 13 10 2013  00 54  -21.0142 26015.8 -03495.6 -07.6527 26249.6
 13 10 2013  00 55  -21.0139 26015.9 -03495.7 -07.6528 26249.7
 13 10 2013  00 56  -21.0137 26016.0 -03495.7 -07.6529 26249.8
 13 10 2013  00 57  -21.0135 26016.1 -03495.8 -07.6530 26249.9
 13 10 2013  00 58  -21.0133 26016.4 -03495.9 -07.6532 26250.2
 13 10 2013  00 59  -21.0129 26016.7 -03496.0 -07.6533 26250.6
 13 10 2013  01 00  -21.0129 26016.7 -03496.1 -07.6535 26250.6
 13 10 2013  01 01  -21.0130 26016.8 -03496.1 -07.6535 26250.7
 13 10 2013  01 02  -21.0132 26016.7 -03496.1 -07.6535 26250.6
 13 10 2013  01 03  -21.0135 26016.5 -03496.0 -07.6533 26250.4
 13 10 2013  01 04  -21.0135 26016.3 -03495.9 -07.6532 26250.1
 13 10 2013  01 05  -21.0137 26016.1 -03495.8 -07.6529 26249.9
 13 10 2013  01 06  -21.0138 26016.1 -03495.8 -07.6529 26249.9
 13 10 2013  01 07  -21.0137 26016.1 -03495.7 -07.6529 26249.9
 13 10 2013  01 08  -21.0138 26016.1 -03495.8 -07.6530 26249.9
 13 10 2013  01 09  -21.0136 26016.1 -03495.8 -07.6530 26250.0
 13 10 2013  01 10  -21.0134 26016.2 -03495.8 -07.6531 26250.0
 13 10 2013  01 11  -21.0132 26016.2 -03495.9 -07.6531 26250.0
 13 10 2013  01 12  -21.0133 26016.5 -03496.0 -07.6534 26250.3
 13 10 2013  01 13  -21.0133 26016.5 -03496.1 -07.6535 26250.4
 13 10 2013  01 14  -21.0134 26016.5 -03496.1 -07.6535 26250.4
 13 10 2013  01 15  -21.0136 26016.6 -03496.1 -07.6536 26250.5
 13 10 2013  01 16  -21.0137 26016.7 -03496.2 -07.6537 26250.6
 13 10 2013  01 17  -21.0139 26016.9 -03496.3 -07.6538 26250.8
 13 10 2013  01 18  -21.0139 26017.2 -03496.4 -07.6540 26251.0
 13 10 2013  01 19  -21.0139 26017.3 -03496.4 -07.6540 26251.2
 13 10 2013  01 20  -21.0138 26017.4 -03496.5 -07.6541 26251.3
 13 10 2013  01 21  -21.0137 26017.4 -03496.4 -07.6540 26251.3
 13 10 2013  01 22  -21.0137 26017.3 -03496.4 -07.6540 26251.2
 13 10 2013  01 23  -21.0137 26017.2 -03496.4 -07.6539 26251.1
 13 10 2013  01 24  -21.0137 26017.3 -03496.4 -07.6539 26251.2
 13 10 2013  01 25  -21.0136 26017.2 -03496.3 -07.6538 26251.1
 13 10 2013  01 26  -21.0136 26017.2 -03496.3 -07.6538 26251.1
 13 10 2013  01 27  -21.0136 26017.1 -03496.3 -07.6538 26250.9
 13 10 2013  01 28  -21.0135 26017.0 -03496.2 -07.6537 26250.8
 13 10 2013  01 29  -21.0135 26016.9 -03496.2 -07.6537 26250.8
 13 10 2013  01 30  -21.0134 26017.0 -03496.3 -07.6538 26250.9
 13 10 2013  01 31  -21.0134 26016.9 -03496.3 -07.6538 26250.8
 13 10 2013  01 32  -21.0133 26017.0 -03496.3 -07.6539 26250.9
 13 10 2013  01 33  -21.0133 26017.0 -03496.3 -07.6539 26250.9
 13 10 2013  01 34  -21.0133 26017.1 -03496.4 -07.6541 26251.0
 13 10 2013  01 35  -21.0134 26017.2 -03496.5 -07.6542 26251.0
 13 10 2013  01 36  -21.0135 26017.2 -03496.5 -07.6542 26251.1
 13 10 2013  01 37  -21.0137 26017.3 -03496.6 -07.6543 26251.2
 13 10 2013  01 38  -21.0139 26017.3 -03496.6 -07.6544 26251.2
 13 10 2013  01 39  -21.0140 26017.2 -03496.6 -07.6543 26251.1
 13 10 2013  01 40  -21.0141 26017.2 -03496.6 -07.6544 26251.1
 13 10 2013  01 41  -21.0142 26017.1 -03496.5 -07.6543 26251.0
 13 10 2013  01 42  -21.0142 26017.0 -03496.4 -07.6542 26250.9
 13 10 2013  01 43  -21.0143 26016.8 -03496.4 -07.6541 26250.7
 13 10 2013  01 44  -21.0143 26017.0 -03496.5 -07.6542 26250.9
 13 10 2013  01 45  -21.0144 26017.0 -03496.5 -07.6544 26250.9
 13 10 2013  01 46  -21.0147 26016.8 -03496.5 -07.6542 26250.7
 13 10 2013  01 47  -21.0150 26017.1 -03496.6 -07.6545 26251.0
 13 10 2013  01 48  -21.0153 26017.3 -03496.7 -07.6547 26251.2
 13 10 2013  01 49  -21.0156 26017.5 -03496.8 -07.6549 26251.4
 13 10 2013  01 50  -21.0160 26017.7 -03497.0 -07.6551 26251.6
 13 10 2013  01 51  -21.0161 26017.9 -03497.0 -07.6552 26251.8
 13 10 2013  01 52  -21.0163 26018.1 -03497.1 -07.6553 26252.0
 13 10 2013  01 53  -21.0162 26018.2 -03497.2 -07.6554 26252.2
 13 10 2013  01 54  -21.0163 26018.2 -03497.1 -07.6553 26252.1
 13 10 2013  01 55  -21.0162 26018.1 -03497.1 -07.6551 26252.1
 13 10 2013  01 56  -21.0162 26018.1 -03497.0 -07.6551 26252.1
 13 10 2013  01 57  -21.0163 26018.1 -03497.0 -07.6551 26252.1
 13 10 2013  01 58  -21.0164 26018.1 -03497.0 -07.6550 26252.1
 13 10 2013  01 59  -21.0164 26018.2 -03497.1 -07.6551 26252.1
 13 10 2013  02 00  -21.0164 26018.2 -03497.0 -07.6551 26252.1
 13 10 2013  02 01  -21.0164 26018.2 -03497.0 -07.6551 26252.2
 13 10 2013  02 02  -21.0165 26018.2 -03497.1 -07.6551 26252.2
 13 10 2013  02 03  -21.0165 26018.5 -03497.2 -07.6552 26252.5
 13 10 2013  02 04  -21.0165 26018.7 -03497.2 -07.6554 26252.6
 13 10 2013  02 05  -21.0165 26019.1 -03497.4 -07.6557 26253.1
 13 10 2013  02 06  -21.0166 26019.0 -03497.5 -07.6558 26253.1
 13 10 2013  02 07  -21.0167 26019.2 -03497.5 -07.6558 26253.2
 13 10 2013  02 08  -21.0169 26019.4 -03497.6 -07.6559 26253.4
 13 10 2013  02 09  -21.0173 26019.3 -03497.5 -07.6558 26253.4
 13 10 2013  02 10  -21.0174 26019.4 -03497.6 -07.6559 26253.4
 13 10 2013  02 11  -21.0177 26019.3 -03497.5 -07.6557 26253.3
 13 10 2013  02 12  -21.0179 26019.2 -03497.4 -07.6555 26253.2
 13 10 2013  02 13  -21.0181 26019.2 -03497.4 -07.6555 26253.2
 13 10 2013  02 14  -21.0181 26019.3 -03497.4 -07.6556 26253.3
 13 10 2013  02 15  -21.0181 26019.3 -03497.4 -07.6555 26253.3
 13 10 2013  02 16  -21.0182 26019.3 -03497.4 -07.6556 26253.3
 13 10 2013  02 17  -21.0183 26019.5 -03497.5 -07.6556 26253.5
 13 10 2013  02 18  -21.0183 26019.5 -03497.5 -07.6556 26253.5
 13 10 2013  02 19  -21.0186 26019.4 -03497.4 -07.6555 26253.4
 13 10 2013  02 20  -21.0184 26019.3 -03497.4 -07.6555 26253.3
 13 10 2013  02 21  -21.0183 26019.2 -03497.3 -07.6553 26253.2
 13 10 2013  02 22  -21.0183 26019.2 -03497.3 -07.6554 26253.2
 13 10 2013  02 23  -21.0179 26019.1 -03497.2 -07.6552 26253.1
 13 10 2013  02 24  -21.0176 26019.1 -03497.2 -07.6552 26253.1
 13 10 2013  02 25  -21.0171 26019.0 -03497.2 -07.6551 26253.0
 13 10 2013  02 26  -21.0166 26019.0 -03497.2 -07.6551 26253.0
 13 10 2013  02 27  -21.0165 26019.0 -03497.2 -07.6553 26253.0
 13 10 2013  02 28  -21.0162 26019.2 -03497.3 -07.6554 26253.1
 13 10 2013  02 29  -21.0161 26019.3 -03497.5 -07.6557 26253.3
 13 10 2013  02 30  -21.0161 26019.4 -03497.6 -07.6559 26253.4
 13 10 2013  02 31  -21.0160 26019.6 -03497.7 -07.6560 26253.6
 13 10 2013  02 32  -21.0159 26019.7 -03497.7 -07.6561 26253.7
 13 10 2013  02 33  -21.0158 26019.6 -03497.7 -07.6562 26253.7
 13 10 2013  02 34  -21.0159 26019.5 -03497.7 -07.6562 26253.5
 13 10 2013  02 35  -21.0159 26019.3 -03497.6 -07.6560 26253.3
 13 10 2013  02 36  -21.0161 26019.0 -03497.5 -07.6558 26253.0
 13 10 2013  02 37  -21.0161 26018.9 -03497.4 -07.6557 26252.9
 13 10 2013  02 38  -21.0161 26018.7 -03497.3 -07.6556 26252.7
 13 10 2013  02 39  -21.0162 26018.7 -03497.4 -07.6556 26252.7
 13 10 2013  02 40  -21.0163 26018.8 -03497.4 -07.6557 26252.8
 13 10 2013  02 41  -21.0163 26018.9 -03497.5 -07.6559 26252.9
 13 10 2013  02 42  -21.0165 26019.0 -03497.6 -07.6561 26253.1
 13 10 2013  02 43  -21.0167 26019.2 -03497.7 -07.6562 26253.3
 13 10 2013  02 44  -21.0168 26019.3 -03497.8 -07.6564 26253.4
 13 10 2013  02 45  -21.0169 26019.4 -03497.8 -07.6564 26253.5
 13 10 2013  02 46  -21.0169 26019.4 -03497.8 -07.6563 26253.5
 13 10 2013  02 47  -21.0169 26019.4 -03497.7 -07.6563 26253.4
 13 10 2013  02 48  -21.0167 26019.5 -03497.8 -07.6563 26253.5
 13 10 2013  02 49  -21.0167 26019.5 -03497.8 -07.6563 26253.5
 13 10 2013  02 50  -21.0167 26019.5 -03497.7 -07.6562 26253.5
 13 10 2013  02 51  -21.0167 26019.5 -03497.7 -07.6562 26253.6
 13 10 2013  02 52  -21.0167 26019.5 -03497.7 -07.6562 26253.5
 13 10 2013  02 53  -21.0166 26019.4 -03497.7 -07.6562 26253.5
 13 10 2013  02 54  -21.0166 26019.4 -03497.7 -07.6561 26253.4
 13 10 2013  02 55  -21.0166 26019.3 -03497.6 -07.6560 26253.3
 13 10 2013  02 56  -21.0166 26019.2 -03497.6 -07.6560 26253.2
 13 10 2013  02 57  -21.0166 26019.2 -03497.6 -07.6559 26253.3
 13 10 2013  02 58  -21.0166 26019.2 -03497.5 -07.6558 26253.2
 13 10 2013  02 59  -21.0168 26019.2 -03497.5 -07.6559 26253.3
 13 10 2013  03 00  -21.0168 26019.3 -03497.6 -07.6559 26253.3
 13 10 2013  03 01  -21.0169 26019.3 -03497.6 -07.6559 26253.4
 13 10 2013  03 02  -21.0170 26019.4 -03497.6 -07.6559 26253.4
 13 10 2013  03 03  -21.0171 26019.4 -03497.6 -07.6559 26253.5
 13 10 2013  03 04  -21.0171 26019.5 -03497.6 -07.6559 26253.5
 13 10 2013  03 05  -21.0170 26019.5 -03497.6 -07.6558 26253.5
 13 10 2013  03 06  -21.0169 26019.6 -03497.6 -07.6558 26253.6
 13 10 2013  03 07  -21.0168 26019.7 -03497.6 -07.6558 26253.7
 13 10 2013  03 08  -21.0167 26019.7 -03497.6 -07.6558 26253.8
 13 10 2013  03 09  -21.0166 26019.8 -03497.6 -07.6559 26253.9
 13 10 2013  03 10  -21.0164 26019.9 -03497.7 -07.6559 26254.0
 13 10 2013  03 11  -21.0165 26020.0 -03497.7 -07.6560 26254.0
 13 10 2013  03 12  -21.0164 26020.0 -03497.7 -07.6559 26254.1
 13 10 2013  03 13  -21.0163 26020.1 -03497.7 -07.6560 26254.1
 13 10 2013  03 14  -21.0162 26020.0 -03497.6 -07.6558 26254.0
 13 10 2013  03 15  -21.0162 26020.0 -03497.6 -07.6558 26254.0
 13 10 2013  03 16  -21.0161 26019.9 -03497.6 -07.6557 26253.9
 13 10 2013  03 17  -21.0160 26019.9 -03497.5 -07.6556 26253.9
 13 10 2013  03 18  -21.0162 26019.9 -03497.5 -07.6556 26253.9
 13 10 2013  03 19  -21.0164 26019.9 -03497.5 -07.6556 26253.9
 13 10 2013  03 20  -21.0164 26020.1 -03497.6 -07.6557 26254.1
 13 10 2013  03 21  -21.0164 26020.3 -03497.7 -07.6559 26254.4
 13 10 2013  03 22  -21.0165 26020.5 -03497.8 -07.6560 26254.5
 13 10 2013  03 23  -21.0164 26020.6 -03497.8 -07.6560 26254.7
 13 10 2013  03 24  -21.0164 26020.7 -03497.8 -07.6560 26254.7
 13 10 2013  03 25  -21.0163 26020.8 -03497.8 -07.6560 26254.8
 13 10 2013  03 26  -21.0162 26020.9 -03497.8 -07.6560 26254.9
 13 10 2013  03 27  -21.0162 26021.0 -03497.9 -07.6561 26255.0
 13 10 2013  03 28  -21.0162 26021.1 -03497.9 -07.6561 26255.1
 13 10 2013  03 29  -21.0162 26021.1 -03497.9 -07.6561 26255.2
 13 10 2013  03 30  -21.0160 26021.2 -03497.9 -07.6560 26255.2
 13 10 2013  03 31  -21.0160 26021.1 -03497.8 -07.6559 26255.2
 13 10 2013  03 32  -21.0159 26021.2 -03497.8 -07.6559 26255.2
 13 10 2013  03 33  -21.0157 26021.2 -03497.8 -07.6558 26255.2
 13 10 2013  03 34  -21.0156 26021.3 -03497.8 -07.6558 26255.3
 13 10 2013  03 35  -21.0156 26021.2 -03497.8 -07.6558 26255.3
 13 10 2013  03 36  -21.0155 26021.2 -03497.7 -07.6557 26255.2
 13 10 2013  03 37  -21.0155 26021.1 -03497.7 -07.6556 26255.1
 13 10 2013  03 38  -21.0155 26021.2 -03497.7 -07.6556 26255.2
 13 10 2013  03 39  -21.0156 26021.3 -03497.7 -07.6556 26255.3
 13 10 2013  03 40  -21.0158 26021.4 -03497.8 -07.6557 26255.4
 13 10 2013  03 41  -21.0159 26021.5 -03497.8 -07.6558 26255.5
 13 10 2013  03 42  -21.0161 26021.6 -03497.8 -07.6557 26255.6
 13 10 2013  03 43  -21.0163 26021.7 -03497.8 -07.6558 26255.8
 13 10 2013  03 44  -21.0164 26021.8 -03497.8 -07.6557 26255.8
 13 10 2013  03 45  -21.0165 26021.8 -03497.8 -07.6556 26255.8
 13 10 2013  03 46  -21.0165 26021.9 -03497.8 -07.6556 26255.9
 13 10 2013  03 47  -21.0166 26021.9 -03497.8 -07.6555 26256.0
 13 10 2013  03 48  -21.0167 26022.0 -03497.7 -07.6555 26256.0
 13 10 2013  03 49  -21.0167 26022.1 -03497.8 -07.6555 26256.1
 13 10 2013  03 50  -21.0168 26022.2 -03497.7 -07.6554 26256.2
 13 10 2013  03 51  -21.0167 26022.2 -03497.7 -07.6554 26256.2
 13 10 2013  03 52  -21.0167 26022.3 -03497.7 -07.6553 26256.3
 13 10 2013  03 53  -21.0165 26022.4 -03497.7 -07.6553 26256.4
 13 10 2013  03 54  -21.0164 26022.5 -03497.7 -07.6552 26256.5
 13 10 2013  03 55  -21.0163 26022.5 -03497.7 -07.6552 26256.6
 13 10 2013  03 56  -21.0162 26022.6 -03497.7 -07.6552 26256.6
 13 10 2013  03 57  -21.0162 26022.7 -03497.7 -07.6552 26256.7
 13 10 2013  03 58  -21.0162 26022.7 -03497.7 -07.6551 26256.7
 13 10 2013  03 59  -21.0161 26022.8 -03497.6 -07.6551 26256.8
 13 10 2013  04 00  -21.0159 26022.8 -03497.6 -07.6550 26256.8
 13 10 2013  04 01  -21.0159 26022.8 -03497.6 -07.6550 26256.8
 13 10 2013  04 02  -21.0159 26022.8 -03497.6 -07.6550 26256.8
 13 10 2013  04 03  -21.0159 26022.9 -03497.6 -07.6550 26256.9
 13 10 2013  04 04  -21.0159 26023.0 -03497.6 -07.6550 26256.9
 13 10 2013  04 05  -21.0158 26023.0 -03497.6 -07.6549 26257.0
 13 10 2013  04 06  -21.0158 26023.0 -03497.6 -07.6548 26257.0
 13 10 2013  04 07  -21.0158 26022.9 -03497.5 -07.6547 26256.9
 13 10 2013  04 08  -21.0158 26022.9 -03497.5 -07.6546 26256.9
 13 10 2013  04 09  -21.0159 26023.0 -03497.5 -07.6546 26257.0
 13 10 2013  04 10  -21.0159 26023.1 -03497.5 -07.6547 26257.1
 13 10 2013  04 11  -21.0160 26023.2 -03497.5 -07.6546 26257.2
 13 10 2013  04 12  -21.0160 26023.2 -03497.5 -07.6546 26257.2
 13 10 2013  04 13  -21.0160 26023.2 -03497.4 -07.6545 26257.2
 13 10 2013  04 14  -21.0159 26023.3 -03497.4 -07.6545 26257.3
 13 10 2013  04 15  -21.0159 26023.4 -03497.4 -07.6544 26257.3
 13 10 2013  04 16  -21.0158 26023.4 -03497.4 -07.6544 26257.4
 13 10 2013  04 17  -21.0158 26023.5 -03497.4 -07.6544 26257.4
 13 10 2013  04 18  -21.0158 26023.5 -03497.4 -07.6543 26257.5
 13 10 2013  04 19  -21.0158 26023.6 -03497.4 -07.6542 26257.6
 13 10 2013  04 20  -21.0157 26023.6 -03497.3 -07.6541 26257.6
 13 10 2013  04 21  -21.0156 26023.6 -03497.3 -07.6541 26257.6
 13 10 2013  04 22  -21.0155 26023.7 -03497.3 -07.6540 26257.6
 13 10 2013  04 23  -21.0155 26023.7 -03497.2 -07.6539 26257.6
 13 10 2013  04 24  -21.0154 26023.6 -03497.2 -07.6538 26257.6
 13 10 2013  04 25  -21.0153 26023.6 -03497.1 -07.6537 26257.6
 13 10 2013  04 26  -21.0152 26023.7 -03497.1 -07.6536 26257.6
 13 10 2013  04 27  -21.0152 26023.7 -03497.1 -07.6536 26257.6
 13 10 2013  04 28  -21.0151 26023.8 -03497.1 -07.6536 26257.7
 13 10 2013  04 29  -21.0150 26023.8 -03497.1 -07.6535 26257.7
 13 10 2013  04 30  -21.0148 26023.8 -03497.0 -07.6534 26257.8
 13 10 2013  04 31  -21.0147 26023.9 -03497.0 -07.6534 26257.8
 13 10 2013  04 32  -21.0147 26023.9 -03497.0 -07.6533 26257.8
 13 10 2013  04 33  -21.0145 26024.0 -03497.0 -07.6532 26257.9
 13 10 2013  04 34  -21.0145 26024.0 -03497.0 -07.6532 26257.9
 13 10 2013  04 35  -21.0143 26024.0 -03496.9 -07.6532 26257.9
 13 10 2013  04 36  -21.0141 26024.0 -03496.9 -07.6531 26257.9
 13 10 2013  04 37  -21.0139 26024.0 -03496.9 -07.6530 26257.9
 13 10 2013  04 38  -21.0137 26024.0 -03496.8 -07.6529 26257.9
 13 10 2013  04 39  -21.0136 26024.0 -03496.8 -07.6529 26257.9
 13 10 2013  04 40  -21.0133 26024.0 -03496.8 -07.6529 26257.9
 13 10 2013  04 41  -21.0133 26024.1 -03496.8 -07.6529 26258.0
 13 10 2013  04 42  -21.0131 26024.1 -03496.8 -07.6528 26257.9
 13 10 2013  04 43  -21.0131 26024.0 -03496.8 -07.6528 26257.9
 13 10 2013  04 44  -21.0130 26024.0 -03496.8 -07.6528 26257.9
 13 10 2013  04 45  -21.0129 26024.0 -03496.7 -07.6527 26257.9
 13 10 2013  04 46  -21.0129 26024.0 -03496.8 -07.6528 26257.9
 13 10 2013  04 47  -21.0128 26024.1 -03496.8 -07.6528 26258.0
 13 10 2013  04 48  -21.0128 26024.1 -03496.8 -07.6528 26258.0
 13 10 2013  04 49  -21.0128 26024.2 -03496.9 -07.6530 26258.1
 13 10 2013  04 50  -21.0128 26024.3 -03496.9 -07.6530 26258.2
 13 10 2013  04 51  -21.0127 26024.4 -03496.9 -07.6530 26258.2
 13 10 2013  04 52  -21.0127 26024.4 -03496.9 -07.6531 26258.3
 13 10 2013  04 53  -21.0127 26024.5 -03497.0 -07.6531 26258.4
 13 10 2013  04 54  -21.0126 26024.6 -03497.0 -07.6531 26258.5
 13 10 2013  04 55  -21.0126 26024.6 -03497.0 -07.6530 26258.5
 13 10 2013  04 56  -21.0125 26024.6 -03496.9 -07.6530 26258.5
 13 10 2013  04 57  -21.0124 26024.6 -03496.9 -07.6530 26258.5
 13 10 2013  04 58  -21.0123 26024.5 -03496.9 -07.6528 26258.4
 13 10 2013  04 59  -21.0122 26024.5 -03496.8 -07.6528 26258.3
 13 10 2013  05 00  -21.0122 26024.4 -03496.8 -07.6527 26258.3
 13 10 2013  05 01  -21.0122 26024.4 -03496.8 -07.6527 26258.3
 13 10 2013  05 02  -21.0121 26024.5 -03496.8 -07.6527 26258.4
 13 10 2013  05 03  -21.0120 26024.5 -03496.8 -07.6528 26258.4
 13 10 2013  05 04  -21.0119 26024.5 -03496.9 -07.6528 26258.4
 13 10 2013  05 05  -21.0120 26024.6 -03496.9 -07.6529 26258.4
 13 10 2013  05 06  -21.0120 26024.6 -03496.9 -07.6529 26258.5
 13 10 2013  05 07  -21.0120 26024.6 -03496.9 -07.6529 26258.5
 13 10 2013  05 08  -21.0120 26024.7 -03496.9 -07.6529 26258.5
 13 10 2013  05 09  -21.0120 26024.7 -03496.9 -07.6529 26258.6
 13 10 2013  05 10  -21.0120 26024.7 -03496.9 -07.6529 26258.6
 13 10 2013  05 11  -21.0119 26024.7 -03496.9 -07.6529 26258.6
 13 10 2013  05 12  -21.0118 26024.8 -03496.9 -07.6529 26258.7
 13 10 2013  05 13  -21.0117 26024.8 -03496.9 -07.6529 26258.7
 13 10 2013  05 14  -21.0117 26024.9 -03496.9 -07.6529 26258.7
 13 10 2013  05 15  -21.0115 26025.0 -03497.0 -07.6529 26258.9
 13 10 2013  05 16  -21.0115 26025.1 -03497.0 -07.6530 26259.0
 13 10 2013  05 17  -21.0113 26025.2 -03497.1 -07.6531 26259.1
 13 10 2013  05 18  -21.0112 26025.3 -03497.1 -07.6532 26259.2
 13 10 2013  05 19  -21.0110 26025.4 -03497.2 -07.6532 26259.4
 13 10 2013  05 20  -21.0109 26025.5 -03497.2 -07.6532 26259.4
 13 10 2013  05 21  -21.0108 26025.6 -03497.2 -07.6533 26259.5
 13 10 2013  05 22  -21.0107 26025.6 -03497.2 -07.6533 26259.6
 13 10 2013  05 23  -21.0106 26025.7 -03497.2 -07.6532 26259.6
 13 10 2013  05 24  -21.0104 26025.6 -03497.2 -07.6532 26259.5
 13 10 2013  05 25  -21.0103 26025.6 -03497.1 -07.6531 26259.5
 13 10 2013  05 26  -21.0103 26025.6 -03497.1 -07.6531 26259.5
 13 10 2013  05 27  -21.0103 26025.6 -03497.1 -07.6531 26259.5
 13 10 2013  05 28  -21.0102 26025.5 -03497.1 -07.6530 26259.4
 13 10 2013  05 29  -21.0102 26025.5 -03497.1 -07.6530 26259.4
 13 10 2013  05 30  -21.0102 26025.5 -03497.0 -07.6530 26259.4
 13 10 2013  05 31  -21.0101 26025.5 -03497.0 -07.6529 26259.4
 13 10 2013  05 32  -21.0101 26025.5 -03497.0 -07.6529 26259.4
 13 10 2013  05 33  -21.0100 26025.5 -03497.0 -07.6529 26259.4
 13 10 2013  05 34  -21.0099 26025.5 -03497.0 -07.6529 26259.4
 13 10 2013  05 35  -21.0099 26025.5 -03497.0 -07.6529 26259.4
 13 10 2013  05 36  -21.0099 26025.6 -03497.0 -07.6529 26259.5
 13 10 2013  05 37  -21.0099 26025.6 -03497.0 -07.6529 26259.5
 13 10 2013  05 38  -21.0098 26025.6 -03497.0 -07.6529 26259.5
 13 10 2013  05 39  -21.0098 26025.6 -03497.0 -07.6529 26259.5
 13 10 2013  05 40  -21.0098 26025.6 -03497.0 -07.6528 26259.5
 13 10 2013  05 41  -21.0098 26025.6 -03497.0 -07.6528 26259.5
 13 10 2013  05 42  -21.0098 26025.6 -03497.0 -07.6528 26259.5
 13 10 2013  05 43  -21.0098 26025.6 -03497.0 -07.6528 26259.5
 13 10 2013  05 44  -21.0098 26025.6 -03496.9 -07.6527 26259.5
 13 10 2013  05 45  -21.0097 26025.6 -03496.9 -07.6527 26259.4
 13 10 2013  05 46  -21.0098 26025.6 -03496.9 -07.6527 26259.4
 13 10 2013  05 47  -21.0098 26025.6 -03496.9 -07.6527 26259.5
 13 10 2013  05 48  -21.0097 26025.6 -03496.9 -07.6527 26259.5
 13 10 2013  05 49  -21.0097 26025.6 -03496.9 -07.6527 26259.5
 13 10 2013  05 50  -21.0096 26025.7 -03496.9 -07.6527 26259.6
 13 10 2013  05 51  -21.0096 26025.7 -03496.9 -07.6527 26259.6
 13 10 2013  05 52  -21.0094 26025.7 -03497.0 -07.6527 26259.6
 13 10 2013  05 53  -21.0093 26025.7 -03496.9 -07.6527 26259.6
 13 10 2013  05 54  -21.0093 26025.7 -03496.9 -07.6527 26259.6
 13 10 2013  05 55  -21.0092 26025.7 -03496.9 -07.6527 26259.6
 13 10 2013  05 56  -21.0091 26025.7 -03496.9 -07.6526 26259.6
 13 10 2013  05 57  -21.0091 26025.7 -03496.9 -07.6526 26259.6
 13 10 2013  05 58  -21.0090 26025.7 -03496.9 -07.6525 26259.6
 13 10 2013  05 59  -21.0090 26025.7 -03496.9 -07.6526 26259.5
 13 10 2013  06 00  -21.0090 26025.7 -03496.9 -07.6526 26259.5
 13 10 2013  06 01  -21.0089 26025.7 -03496.9 -07.6526 26259.5
 13 10 2013  06 02  -21.0089 26025.7 -03496.9 -07.6526 26259.5
 13 10 2013  06 03  -21.0088 26025.7 -03496.9 -07.6526 26259.6
 13 10 2013  06 04  -21.0088 26025.7 -03496.9 -07.6527 26259.6
 13 10 2013  06 05  -21.0088 26025.8 -03497.0 -07.6527 26259.7
 13 10 2013  06 06  -21.0088 26025.8 -03497.0 -07.6527 26259.7
 13 10 2013  06 07  -21.0088 26025.9 -03497.0 -07.6527 26259.8
 13 10 2013  06 08  -21.0087 26025.9 -03497.0 -07.6528 26259.8
 13 10 2013  06 09  -21.0087 26026.0 -03497.0 -07.6528 26259.8
 13 10 2013  06 10  -21.0087 26026.0 -03497.0 -07.6528 26259.9
 13 10 2013  06 11  -21.0088 26026.0 -03497.1 -07.6529 26259.9
 13 10 2013  06 12  -21.0087 26026.1 -03497.1 -07.6529 26260.0
 13 10 2013  06 13  -21.0086 26026.1 -03497.1 -07.6529 26260.0
 13 10 2013  06 14  -21.0085 26026.1 -03497.1 -07.6529 26260.0
 13 10 2013  06 15  -21.0085 26026.1 -03497.1 -07.6529 26260.0
 13 10 2013  06 16  -21.0085 26026.1 -03497.1 -07.6528 26260.0
 13 10 2013  06 17  -21.0085 26026.1 -03497.1 -07.6528 26260.0
 13 10 2013  06 18  -21.0085 26026.0 -03497.1 -07.6529 26259.9
 13 10 2013  06 19  -21.0084 26026.0 -03497.0 -07.6528 26259.9
 13 10 2013  06 20  -21.0084 26025.9 -03497.0 -07.6528 26259.8
 13 10 2013  06 21  -21.0084 26026.0 -03497.0 -07.6528 26259.9
 13 10 2013  06 22  -21.0082 26026.1 -03497.1 -07.6529 26260.0
 13 10 2013  06 23  -21.0081 26026.3 -03497.2 -07.6531 26260.2
 13 10 2013  06 24  -21.0079 26026.5 -03497.3 -07.6532 26260.5
 13 10 2013  06 25  -21.0077 26026.8 -03497.5 -07.6536 26260.8
 13 10 2013  06 26  -21.0075 26027.2 -03497.7 -07.6539 26261.2
 13 10 2013  06 27  -21.0074 26027.5 -03497.8 -07.6541 26261.4
 13 10 2013  06 28  -21.0072 26027.6 -03497.9 -07.6542 26261.6
 13 10 2013  06 29  -21.0070 26027.6 -03497.9 -07.6541 26261.6
 13 10 2013  06 30  -21.0070 26027.5 -03497.8 -07.6540 26261.5
 13 10 2013  06 31  -21.0068 26027.5 -03497.7 -07.6539 26261.5
 13 10 2013  06 32  -21.0068 26027.5 -03497.7 -07.6538 26261.5
 13 10 2013  06 33  -21.0068 26027.5 -03497.7 -07.6537 26261.4
 13 10 2013  06 34  -21.0068 26027.5 -03497.6 -07.6537 26261.4
 13 10 2013  06 35  -21.0068 26027.6 -03497.7 -07.6538 26261.6
 13 10 2013  06 36  -21.0067 26027.7 -03497.8 -07.6539 26261.7
 13 10 2013  06 37  -21.0067 26027.8 -03497.8 -07.6538 26261.8
 13 10 2013  06 38  -21.0068 26027.8 -03497.8 -07.6539 26261.8
 13 10 2013  06 39  -21.0068 26027.8 -03497.8 -07.6538 26261.8
 13 10 2013  06 40  -21.0068 26027.8 -03497.7 -07.6538 26261.8
 13 10 2013  06 41  -21.0067 26027.8 -03497.7 -07.6537 26261.8
 13 10 2013  06 42  -21.0066 26027.8 -03497.6 -07.6536 26261.7
 13 10 2013  06 43  -21.0066 26027.8 -03497.6 -07.6536 26261.7
 13 10 2013  06 44  -21.0065 26027.8 -03497.6 -07.6535 26261.7
 13 10 2013  06 45  -21.0066 26027.8 -03497.6 -07.6534 26261.7
 13 10 2013  06 46  -21.0067 26027.8 -03497.5 -07.6534 26261.7
 13 10 2013  06 47  -21.0068 26027.7 -03497.5 -07.6534 26261.6
 13 10 2013  06 48  -21.0067 26027.6 -03497.5 -07.6532 26261.6
 13 10 2013  06 49  -21.0067 26027.6 -03497.4 -07.6531 26261.5
 13 10 2013  06 50  -21.0065 26027.6 -03497.4 -07.6531 26261.5
 13 10 2013  06 51  -21.0064 26027.7 -03497.4 -07.6532 26261.6
 13 10 2013  06 52  -21.0063 26027.7 -03497.4 -07.6532 26261.7
 13 10 2013  06 53  -21.0061 26027.8 -03497.5 -07.6532 26261.7
 13 10 2013  06 54  -21.0060 26027.8 -03497.5 -07.6532 26261.8
 13 10 2013  06 55  -21.0060 26027.9 -03497.5 -07.6533 26261.8
 13 10 2013  06 56  -21.0059 26027.9 -03497.5 -07.6532 26261.8
 13 10 2013  06 57  -21.0059 26028.0 -03497.5 -07.6532 26262.0
 13 10 2013  06 58  -21.0056 26028.1 -03497.5 -07.6532 26262.1
 13 10 2013  06 59  -21.0055 26028.2 -03497.5 -07.6533 26262.1
 13 10 2013  07 00  -21.0054 26028.2 -03497.6 -07.6533 26262.1
 13 10 2013  07 01  -21.0054 26028.1 -03497.5 -07.6533 26262.1
 13 10 2013  07 02  -21.0054 26028.0 -03497.5 -07.6532 26262.0
 13 10 2013  07 03  -21.0053 26027.9 -03497.4 -07.6530 26261.8
 13 10 2013  07 04  -21.0053 26027.7 -03497.3 -07.6529 26261.6
 13 10 2013  07 05  -21.0053 26027.6 -03497.2 -07.6527 26261.5
 13 10 2013  07 06  -21.0052 26027.6 -03497.2 -07.6527 26261.5
 13 10 2013  07 07  -21.0051 26027.6 -03497.2 -07.6527 26261.5
 13 10 2013  07 08  -21.0049 26027.6 -03497.2 -07.6527 26261.5
 13 10 2013  07 09  -21.0049 26027.6 -03497.2 -07.6527 26261.5
 13 10 2013  07 10  -21.0048 26027.5 -03497.2 -07.6527 26261.4
 13 10 2013  07 11  -21.0047 26027.5 -03497.2 -07.6527 26261.4
 13 10 2013  07 12  -21.0045 26027.5 -03497.2 -07.6527 26261.3
 13 10 2013  07 13  -21.0044 26027.3 -03497.1 -07.6526 26261.2
 13 10 2013  07 14  -21.0043 26027.3 -03497.1 -07.6525 26261.1
 13 10 2013  07 15  -21.0041 26027.1 -03497.0 -07.6523 26261.0
 13 10 2013  07 16  -21.0039 26027.1 -03496.9 -07.6523 26260.9
 13 10 2013  07 17  -21.0038 26027.1 -03497.0 -07.6524 26261.0
 13 10 2013  07 18  -21.0036 26027.1 -03497.0 -07.6524 26261.0
 13 10 2013  07 19  -21.0035 26027.1 -03497.1 -07.6525 26261.0
 13 10 2013  07 20  -21.0034 26027.1 -03497.1 -07.6527 26261.0
 13 10 2013  07 21  -21.0034 26027.1 -03497.1 -07.6527 26261.0
 13 10 2013  07 22  -21.0034 26027.2 -03497.2 -07.6527 26261.1
 13 10 2013  07 23  -21.0034 26027.2 -03497.2 -07.6528 26261.1
 13 10 2013  07 24  -21.0035 26027.1 -03497.2 -07.6528 26261.0
 13 10 2013  07 25  -21.0035 26027.1 -03497.2 -07.6529 26261.0
 13 10 2013  07 26  -21.0036 26027.2 -03497.3 -07.6530 26261.1
 13 10 2013  07 27  -21.0037 26027.2 -03497.3 -07.6530 26261.1
 13 10 2013  07 28  -21.0037 26027.2 -03497.3 -07.6530 26261.2
 13 10 2013  07 29  -21.0037 26027.2 -03497.3 -07.6531 26261.2
 13 10 2013  07 30  -21.0038 26027.2 -03497.3 -07.6531 26261.2
 13 10 2013  07 31  -21.0037 26027.3 -03497.4 -07.6531 26261.2
 13 10 2013  07 32  -21.0038 26027.3 -03497.4 -07.6532 26261.2
 13 10 2013  07 33  -21.0037 26027.3 -03497.4 -07.6532 26261.2
 13 10 2013  07 34  -21.0037 26027.2 -03497.4 -07.6532 26261.1
 13 10 2013  07 35  -21.0037 26027.2 -03497.3 -07.6531 26261.1
 13 10 2013  07 36  -21.0037 26027.1 -03497.3 -07.6531 26261.0
 13 10 2013  07 37  -21.0037 26027.0 -03497.3 -07.6531 26260.9
 13 10 2013  07 38  -21.0037 26026.9 -03497.3 -07.6531 26260.9
 13 10 2013  07 39  -21.0038 26026.9 -03497.3 -07.6531 26260.9
 13 10 2013  07 40  -21.0038 26026.9 -03497.3 -07.6531 26260.8
 13 10 2013  07 41  -21.0039 26026.9 -03497.3 -07.6532 26260.9
 13 10 2013  07 42  -21.0039 26027.0 -03497.4 -07.6532 26260.9
 13 10 2013  07 43  -21.0038 26027.0 -03497.4 -07.6533 26260.9
 13 10 2013  07 44  -21.0037 26027.0 -03497.4 -07.6534 26260.9
 13 10 2013  07 45  -21.0036 26026.9 -03497.5 -07.6535 26260.9
 13 10 2013  07 46  -21.0035 26027.0 -03497.5 -07.6536 26260.9
 13 10 2013  07 47  -21.0033 26026.9 -03497.5 -07.6536 26260.9
 13 10 2013  07 48  -21.0032 26026.8 -03497.6 -07.6537 26260.8
 13 10 2013  07 49  -21.0030 26026.8 -03497.5 -07.6537 26260.7
 13 10 2013  07 50  -21.0029 26026.7 -03497.5 -07.6537 26260.6
 13 10 2013  07 51  -21.0028 26026.6 -03497.5 -07.6537 26260.6
 13 10 2013  07 52  -21.0028 26026.6 -03497.5 -07.6537 26260.6
 13 10 2013  07 53  -21.0027 26026.5 -03497.6 -07.6538 26260.5
 13 10 2013  07 54  -21.0026 26026.4 -03497.6 -07.6539 26260.4
 13 10 2013  07 55  -21.0025 26026.4 -03497.6 -07.6540 26260.3
 13 10 2013  07 56  -21.0025 26026.4 -03497.7 -07.6541 26260.4
 13 10 2013  07 57  -21.0025 26026.4 -03497.8 -07.6543 26260.3
 13 10 2013  07 58  -21.0024 26026.4 -03497.8 -07.6544 26260.4
 13 10 2013  07 59  -21.0024 26026.4 -03497.9 -07.6545 26260.4
 13 10 2013  08 00  -21.0024 26026.5 -03498.0 -07.6547 26260.5
 13 10 2013  08 01  -21.0023 26026.5 -03498.0 -07.6548 26260.5
 13 10 2013  08 02  -21.0021 26026.5 -03498.1 -07.6549 26260.6
 13 10 2013  08 03  -21.0021 26026.6 -03498.2 -07.6551 26260.6
 13 10 2013  08 04  -21.0019 26026.6 -03498.2 -07.6551 26260.7
 13 10 2013  08 05  -21.0020 26026.6 -03498.2 -07.6552 26260.6
 13 10 2013  08 06  -21.0020 26026.5 -03498.2 -07.6553 26260.5
 13 10 2013  08 07  -21.0019 26026.5 -03498.3 -07.6553 26260.5
 13 10 2013  08 08  -21.0018 26026.4 -03498.3 -07.6554 26260.5
 13 10 2013  08 09  -21.0018 26026.5 -03498.3 -07.6555 26260.5
 13 10 2013  08 10  -21.0018 26026.5 -03498.4 -07.6556 26260.6
 13 10 2013  08 11  -21.0018 26026.5 -03498.5 -07.6557 26260.6
 13 10 2013  08 12  -21.0019 26026.5 -03498.5 -07.6558 26260.6
 13 10 2013  08 13  -21.0019 26026.5 -03498.5 -07.6559 26260.6
 13 10 2013  08 14  -21.0019 26026.5 -03498.6 -07.6560 26260.6
 13 10 2013  08 15  -21.0020 26026.4 -03498.6 -07.6560 26260.5
 13 10 2013  08 16  -21.0021 26026.4 -03498.6 -07.6561 26260.5
 13 10 2013  08 17  -21.0021 26026.4 -03498.6 -07.6561 26260.5
 13 10 2013  08 18  -21.0022 26026.5 -03498.7 -07.6562 26260.6
 13 10 2013  08 19  -21.0023 26026.5 -03498.7 -07.6563 26260.6
 13 10 2013  08 20  -21.0024 26026.6 -03498.7 -07.6563 26260.7
 13 10 2013  08 21  -21.0025 26026.6 -03498.8 -07.6564 26260.7
 13 10 2013  08 22  -21.0026 26026.6 -03498.8 -07.6565 26260.8
 13 10 2013  08 23  -21.0027 26026.7 -03498.8 -07.6565 26260.8
 13 10 2013  08 24  -21.0028 26026.8 -03498.9 -07.6566 26260.9
 13 10 2013  08 25  -21.0029 26026.8 -03498.9 -07.6566 26261.0
 13 10 2013  08 26  -21.0030 26026.8 -03498.9 -07.6567 26261.0
 13 10 2013  08 27  -21.0031 26026.9 -03499.0 -07.6567 26261.0
 13 10 2013  08 28  -21.0032 26026.9 -03499.0 -07.6568 26261.1
 13 10 2013  08 29  -21.0033 26027.0 -03499.0 -07.6569 26261.2
 13 10 2013  08 30  -21.0034 26027.0 -03499.1 -07.6569 26261.2
 13 10 2013  08 31  -21.0035 26027.1 -03499.2 -07.6571 26261.3
 13 10 2013  08 32  -21.0036 26027.1 -03499.2 -07.6572 26261.3
 13 10 2013  08 33  -21.0037 26027.1 -03499.3 -07.6573 26261.3
 13 10 2013  08 34  -21.0038 26027.2 -03499.3 -07.6574 26261.4
 13 10 2013  08 35  -21.0040 26027.3 -03499.4 -07.6576 26261.5
 13 10 2013  08 36  -21.0042 26027.3 -03499.5 -07.6578 26261.6
 13 10 2013  08 37  -21.0044 26027.4 -03499.6 -07.6579 26261.6
 13 10 2013  08 38  -21.0046 26027.4 -03499.7 -07.6581 26261.6
 13 10 2013  08 39  -21.0048 26027.5 -03499.7 -07.6582 26261.7
 13 10 2013  08 40  -21.0050 26027.5 -03499.8 -07.6584 26261.7
 13 10 2013  08 41  -21.0052 26027.5 -03499.8 -07.6585 26261.7
 13 10 2013  08 42  -21.0054 26027.5 -03499.9 -07.6586 26261.8
 13 10 2013  08 43  -21.0057 26027.5 -03499.9 -07.6586 26261.8
 13 10 2013  08 44  -21.0060 26027.5 -03499.9 -07.6586 26261.8
 13 10 2013  08 45  -21.0062 26027.5 -03500.0 -07.6587 26261.8
 13 10 2013  08 46  -21.0065 26027.6 -03500.0 -07.6588 26261.8
 13 10 2013  08 47  -21.0066 26027.6 -03500.0 -07.6588 26261.9
 13 10 2013  08 48  -21.0069 26027.6 -03500.1 -07.6589 26261.9
 13 10 2013  08 49  -21.0073 26027.7 -03500.1 -07.6590 26262.0
 13 10 2013  08 50  -21.0076 26027.8 -03500.2 -07.6592 26262.1
 13 10 2013  08 51  -21.0079 26027.9 -03500.3 -07.6592 26262.2
 13 10 2013  08 52  -21.0082 26028.0 -03500.3 -07.6594 26262.3
 13 10 2013  08 53  -21.0085 26028.1 -03500.4 -07.6595 26262.4
 13 10 2013  08 54  -21.0090 26028.1 -03500.5 -07.6596 26262.5
 13 10 2013  08 55  -21.0096 26028.2 -03500.6 -07.6598 26262.6
 13 10 2013  08 56  -21.0102 26028.3 -03500.6 -07.6598 26262.7
 13 10 2013  08 57  -21.0109 26028.5 -03500.7 -07.6599 26262.8
 13 10 2013  08 58  -21.0115 26028.6 -03500.7 -07.6600 26263.0
 13 10 2013  08 59  -21.0122 26028.7 -03500.7 -07.6599 26263.1
 13 10 2013  09 00  -21.0128 26028.8 -03500.7 -07.6600 26263.1
 13 10 2013  09 01  -21.0135 26028.9 -03500.8 -07.6601 26263.3
 13 10 2013  09 02  -21.0142 26029.0 -03500.8 -07.6601 26263.4
 13 10 2013  09 03  -21.0149 26029.1 -03500.8 -07.6601 26263.4
 13 10 2013  09 04  -21.0156 26029.2 -03500.8 -07.6601 26263.5
 13 10 2013  09 05  -21.0163 26029.2 -03500.8 -07.6600 26263.5
 13 10 2013  09 06  -21.0170 26029.3 -03500.8 -07.6600 26263.6
 13 10 2013  09 07  -21.0178 26029.3 -03500.8 -07.6599 26263.7
 13 10 2013  09 08  -21.0184 26029.4 -03500.7 -07.6598 26263.7
 13 10 2013  09 09  -21.0192 26029.4 -03500.7 -07.6598 26263.8
 13 10 2013  09 10  -21.0199 26029.4 -03500.6 -07.6596 26263.8
 13 10 2013  09 11  -21.0206 26029.5 -03500.7 -07.6597 26263.8
 13 10 2013  09 12  -21.0213 26029.6 -03500.7 -07.6596 26263.9
 13 10 2013  09 13  -21.0221 26029.7 -03500.7 -07.6596 26264.1
 13 10 2013  09 14  -21.0228 26029.8 -03500.7 -07.6596 26264.2
 13 10 2013  09 15  -21.0233 26030.0 -03500.6 -07.6594 26264.3
 13 10 2013  09 16  -21.0240 26030.1 -03500.6 -07.6594 26264.4
 13 10 2013  09 17  -21.0244 26030.2 -03500.6 -07.6594 26264.5
 13 10 2013  09 18  -21.0250 26030.3 -03500.6 -07.6593 26264.6
 13 10 2013  09 19  -21.0257 26030.4 -03500.6 -07.6593 26264.7
 13 10 2013  09 20  -21.0262 26030.4 -03500.6 -07.6592 26264.7
 13 10 2013  09 21  -21.0267 26030.5 -03500.5 -07.6591 26264.8
 13 10 2013  09 22  -21.0271 26030.5 -03500.4 -07.6589 26264.8
 13 10 2013  09 23  -21.0276 26030.5 -03500.4 -07.6588 26264.8
 13 10 2013  09 24  -21.0283 26030.6 -03500.4 -07.6587 26264.9
 13 10 2013  09 25  -21.0290 26030.7 -03500.4 -07.6586 26265.0
 13 10 2013  09 26  -21.0296 26030.7 -03500.3 -07.6586 26265.0
 13 10 2013  09 27  -21.0300 26030.7 -03500.2 -07.6584 26265.0
 13 10 2013  09 28  -21.0304 26030.7 -03500.2 -07.6583 26265.0
 13 10 2013  09 29  -21.0310 26030.8 -03500.2 -07.6582 26265.1
 13 10 2013  09 30  -21.0313 26030.8 -03500.2 -07.6582 26265.1
 13 10 2013  09 31  -21.0318 26030.9 -03500.1 -07.6581 26265.1
 13 10 2013  09 32  -21.0322 26030.9 -03500.1 -07.6581 26265.2
 13 10 2013  09 33  -21.0326 26031.0 -03500.1 -07.6581 26265.2
 13 10 2013  09 34  -21.0329 26031.0 -03500.1 -07.6581 26265.2
 13 10 2013  09 35  -21.0333 26031.0 -03500.1 -07.6580 26265.3
 13 10 2013  09 36  -21.0335 26031.1 -03500.2 -07.6581 26265.3
 13 10 2013  09 37  -21.0339 26031.1 -03500.1 -07.6581 26265.4
 13 10 2013  09 38  -21.0341 26031.1 -03500.2 -07.6581 26265.4
 13 10 2013  09 39  -21.0344 26031.3 -03500.2 -07.6581 26265.5
 13 10 2013  09 40  -21.0347 26031.3 -03500.2 -07.6581 26265.6
 13 10 2013  09 41  -21.0351 26031.4 -03500.2 -07.6582 26265.7
 13 10 2013  09 42  -21.0355 26031.5 -03500.3 -07.6582 26265.8
 13 10 2013  09 43  -21.0358 26031.7 -03500.3 -07.6581 26265.9
 13 10 2013  09 44  -21.0361 26031.8 -03500.2 -07.6580 26266.0
 13 10 2013  09 45  -21.0363 26031.8 -03500.2 -07.6580 26266.1
 13 10 2013  09 46  -21.0366 26031.9 -03500.2 -07.6579 26266.2
 13 10 2013  09 47  -21.0368 26032.0 -03500.2 -07.6579 26266.2
 13 10 2013  09 48  -21.0371 26032.1 -03500.2 -07.6579 26266.4
 13 10 2013  09 49  -21.0374 26032.3 -03500.2 -07.6579 26266.5
 13 10 2013  09 50  -21.0376 26032.4 -03500.2 -07.6578 26266.6
 13 10 2013  09 51  -21.0378 26032.4 -03500.2 -07.6577 26266.7
 13 10 2013  09 52  -21.0381 26032.5 -03500.2 -07.6577 26266.8
 13 10 2013  09 53  -21.0383 26032.6 -03500.1 -07.6576 26266.9
 13 10 2013  09 54  -21.0385 26032.7 -03500.2 -07.6576 26266.9
 13 10 2013  09 55  -21.0385 26032.7 -03500.1 -07.6576 26266.9
 13 10 2013  09 56  -21.0387 26032.8 -03500.2 -07.6576 26267.0
 13 10 2013  09 57  -21.0387 26032.8 -03500.2 -07.6577 26267.1
 13 10 2013  09 58  -21.0387 26032.9 -03500.2 -07.6577 26267.2
 13 10 2013  09 59  -21.0386 26033.1 -03500.3 -07.6578 26267.4
 13 10 2013  10 00  -21.0387 26033.4 -03500.4 -07.6579 26267.6
 13 10 2013  10 01  -21.0388 26033.6 -03500.4 -07.6580 26267.8
 13 10 2013  10 02  -21.0389 26033.7 -03500.4 -07.6580 26268.0
 13 10 2013  10 03  -21.0390 26033.8 -03500.4 -07.6579 26268.1
 13 10 2013  10 04  -21.0392 26034.1 -03500.5 -07.6580 26268.3
 13 10 2013  10 05  -21.0394 26034.3 -03500.6 -07.6580 26268.6
 13 10 2013  10 06  -21.0399 26034.6 -03500.6 -07.6580 26268.9
 13 10 2013  10 07  -21.0404 26035.0 -03500.7 -07.6580 26269.3
 13 10 2013  10 08  -21.0408 26035.3 -03500.7 -07.6581 26269.6
 13 10 2013  10 09  -21.0412 26035.5 -03500.7 -07.6580 26269.8
 13 10 2013  10 10  -21.0414 26035.5 -03500.6 -07.6577 26269.8
 13 10 2013  10 11  -21.0415 26035.6 -03500.5 -07.6576 26269.9
 13 10 2013  10 12  -21.0417 26035.7 -03500.5 -07.6574 26269.9
 13 10 2013  10 13  -21.0419 26035.6 -03500.4 -07.6572 26269.9
 13 10 2013  10 14  -21.0421 26035.5 -03500.3 -07.6571 26269.8
 13 10 2013  10 15  -21.0427 26035.7 -03500.3 -07.6571 26269.9
 13 10 2013  10 16  -21.0431 26035.8 -03500.3 -07.6571 26270.0
 13 10 2013  10 17  -21.0432 26035.8 -03500.3 -07.6570 26270.1
 13 10 2013  10 18  -21.0433 26036.0 -03500.3 -07.6570 26270.2
 13 10 2013  10 19  -21.0434 26035.9 -03500.3 -07.6569 26270.2
 13 10 2013  10 20  -21.0434 26036.0 -03500.2 -07.6568 26270.2
 13 10 2013  10 21  -21.0437 26036.1 -03500.2 -07.6568 26270.3
 13 10 2013  10 22  -21.0440 26036.2 -03500.3 -07.6569 26270.4
 13 10 2013  10 23  -21.0442 26036.3 -03500.3 -07.6568 26270.6
 13 10 2013  10 24  -21.0444 26036.4 -03500.3 -07.6568 26270.6
 13 10 2013  10 25  -21.0445 26036.5 -03500.2 -07.6567 26270.7
 13 10 2013  10 26  -21.0445 26036.5 -03500.2 -07.6565 26270.7
 13 10 2013  10 27  -21.0446 26036.6 -03500.2 -07.6565 26270.8
 13 10 2013  10 28  -21.0448 26036.6 -03500.1 -07.6565 26270.8
 13 10 2013  10 29  -21.0450 26036.7 -03500.1 -07.6564 26270.9
 13 10 2013  10 30  -21.0453 26036.9 -03500.2 -07.6564 26271.1
 13 10 2013  10 31  -21.0454 26036.9 -03500.2 -07.6565 26271.2
 13 10 2013  10 32  -21.0453 26037.0 -03500.2 -07.6565 26271.2
 13 10 2013  10 33  -21.0452 26037.1 -03500.2 -07.6565 26271.3
 13 10 2013  10 34  -21.0453 26037.1 -03500.3 -07.6565 26271.4
 13 10 2013  10 35  -21.0452 26037.1 -03500.2 -07.6565 26271.3
 13 10 2013  10 36  -21.0451 26037.1 -03500.3 -07.6565 26271.3
 13 10 2013  10 37  -21.0451 26037.1 -03500.3 -07.6567 26271.4
 13 10 2013  10 38  -21.0451 26037.3 -03500.4 -07.6569 26271.5
 13 10 2013  10 39  -21.0451 26037.4 -03500.5 -07.6570 26271.6
 13 10 2013  10 40  -21.0450 26037.6 -03500.6 -07.6571 26271.8
 13 10 2013  10 41  -21.0450 26037.7 -03500.7 -07.6572 26272.0
 13 10 2013  10 42  -21.0452 26038.0 -03500.8 -07.6573 26272.3
 13 10 2013  10 43  -21.0455 26038.2 -03500.8 -07.6574 26272.5
 13 10 2013  10 44  -21.0454 26038.4 -03500.8 -07.6574 26272.6
 13 10 2013  10 45  -21.0452 26038.5 -03500.9 -07.6575 26272.8
 13 10 2013  10 46  -21.0449 26038.8 -03500.9 -07.6574 26273.1
 13 10 2013  10 47  -21.0448 26039.0 -03500.9 -07.6574 26273.3
 13 10 2013  10 48  -21.0448 26039.1 -03500.9 -07.6573 26273.4
 13 10 2013  10 49  -21.0448 26039.5 -03501.0 -07.6574 26273.8
 13 10 2013  10 50  -21.0450 26039.7 -03500.9 -07.6573 26274.0
 13 10 2013  10 51  -21.0451 26039.8 -03500.9 -07.6571 26274.1
 13 10 2013  10 52  -21.0453 26040.0 -03500.9 -07.6570 26274.2
 13 10 2013  10 53  -21.0454 26040.1 -03500.8 -07.6568 26274.4
 13 10 2013  10 54  -21.0454 26040.2 -03500.7 -07.6566 26274.4
 13 10 2013  10 55  -21.0455 26040.4 -03500.7 -07.6564 26274.6
 13 10 2013  10 56  -21.0456 26040.5 -03500.6 -07.6562 26274.7
 13 10 2013  10 57  -21.0457 26040.7 -03500.5 -07.6560 26274.9
 13 10 2013  10 58  -21.0456 26040.8 -03500.4 -07.6557 26275.0
 13 10 2013  10 59  -21.0454 26041.0 -03500.3 -07.6556 26275.2
 13 10 2013  11 00  -21.0451 26041.2 -03500.3 -07.6554 26275.4
 13 10 2013  11 01  -21.0448 26041.4 -03500.3 -07.6553 26275.6
 13 10 2013  11 02  -21.0445 26041.6 -03500.2 -07.6551 26275.7
 13 10 2013  11 03  -21.0439 26041.8 -03500.2 -07.6550 26276.0
 13 10 2013  11 04  -21.0436 26042.1 -03500.2 -07.6549 26276.3
 13 10 2013  11 05  -21.0432 26042.4 -03500.2 -07.6549 26276.5
 13 10 2013  11 06  -21.0430 26042.9 -03500.3 -07.6549 26277.0
 13 10 2013  11 07  -21.0431 26043.4 -03500.3 -07.6549 26277.6
 13 10 2013  11 08  -21.0430 26044.0 -03500.4 -07.6548 26278.2
 13 10 2013  11 09  -21.0430 26044.6 -03500.3 -07.6546 26278.7
 13 10 2013  11 10  -21.0427 26045.0 -03500.2 -07.6542 26279.2
 13 10 2013  11 11  -21.0424 26045.5 -03500.1 -07.6539 26279.6
 13 10 2013  11 12  -21.0424 26045.9 -03500.0 -07.6535 26280.0
 13 10 2013  11 13  -21.0425 26046.0 -03499.8 -07.6529 26280.1
 13 10 2013  11 14  -21.0427 26046.1 -03499.6 -07.6524 26280.2
 13 10 2013  11 15  -21.0430 26046.3 -03499.4 -07.6521 26280.3
 13 10 2013  11 16  -21.0434 26046.4 -03499.3 -07.6518 26280.5
 13 10 2013  11 17  -21.0439 26046.7 -03499.2 -07.6515 26280.7
 13 10 2013  11 18  -21.0442 26046.8 -03499.1 -07.6512 26280.8
 13 10 2013  11 19  -21.0442 26047.0 -03499.0 -07.6509 26280.9
 13 10 2013  11 20  -21.0441 26047.0 -03498.8 -07.6505 26281.0
 13 10 2013  11 21  -21.0440 26047.1 -03498.7 -07.6503 26281.0
 13 10 2013  11 22  -21.0437 26047.2 -03498.6 -07.6501 26281.1
 13 10 2013  11 23  -21.0436 26047.4 -03498.6 -07.6499 26281.3
 13 10 2013  11 24  -21.0436 26047.7 -03498.6 -07.6499 26281.6
 13 10 2013  11 25  -21.0436 26047.9 -03498.5 -07.6497 26281.8
 13 10 2013  11 26  -21.0435 26048.2 -03498.5 -07.6495 26282.1
 13 10 2013  11 27  -21.0433 26048.3 -03498.4 -07.6492 26282.2
 13 10 2013  11 28  -21.0430 26048.4 -03498.2 -07.6489 26282.2
 13 10 2013  11 29  -21.0428 26048.6 -03498.2 -07.6487 26282.4
 13 10 2013  11 30  -21.0426 26048.6 -03498.1 -07.6485 26282.4
 13 10 2013  11 31  -21.0423 26048.8 -03498.0 -07.6483 26282.6
 13 10 2013  11 32  -21.0424 26049.0 -03498.0 -07.6482 26282.8
 13 10 2013  11 33  -21.0426 26049.2 -03497.9 -07.6480 26283.0
 13 10 2013  11 34  -21.0427 26049.5 -03497.9 -07.6479 26283.3
 13 10 2013  11 35  -21.0429 26049.7 -03497.9 -07.6477 26283.5
 13 10 2013  11 36  -21.0430 26050.0 -03497.8 -07.6475 26283.8
 13 10 2013  11 37  -21.0432 26050.0 -03497.7 -07.6472 26283.8
 13 10 2013  11 38  -21.0431 26050.1 -03497.6 -07.6470 26283.8
 13 10 2013  11 39  -21.0432 26050.1 -03497.4 -07.6467 26283.8
 13 10 2013  11 40  -21.0433 26050.0 -03497.3 -07.6465 26283.7
 13 10 2013  11 41  -21.0434 26050.0 -03497.2 -07.6463 26283.7
 13 10 2013  11 42  -21.0435 26049.9 -03497.2 -07.6461 26283.6
 13 10 2013  11 43  -21.0436 26050.2 -03497.2 -07.6462 26283.9
 13 10 2013  11 44  -21.0438 26050.2 -03497.1 -07.6460 26283.8
 13 10 2013  11 45  -21.0439 26050.3 -03497.1 -07.6460 26284.0
 13 10 2013  11 46  -21.0440 26050.3 -03497.1 -07.6459 26284.0
 13 10 2013  11 47  -21.0439 26050.4 -03497.1 -07.6458 26284.1
 13 10 2013  11 48  -21.0438 26050.6 -03497.0 -07.6457 26284.3
 13 10 2013  11 49  -21.0436 26050.7 -03497.0 -07.6456 26284.4
 13 10 2013  11 50  -21.0434 26051.3 -03497.1 -07.6456 26284.9
 13 10 2013  11 51  -21.0434 26051.4 -03497.0 -07.6453 26285.1
 13 10 2013  11 52  -21.0435 26051.5 -03496.9 -07.6450 26285.2
 13 10 2013  11 53  -21.0435 26052.1 -03496.9 -07.6450 26285.8
 13 10 2013  11 54  -21.0437 26052.5 -03496.8 -07.6447 26286.1
 13 10 2013  11 55  -21.0439 26052.7 -03496.7 -07.6443 26286.3
 13 10 2013  11 56  -21.0441 26052.9 -03496.5 -07.6439 26286.5
 13 10 2013  11 57  -21.0443 26053.5 -03496.5 -07.6437 26287.1
 13 10 2013  11 58  -21.0446 26053.5 -03496.2 -07.6431 26287.1
 13 10 2013  11 59  -21.0447 26053.7 -03496.0 -07.6425 26287.2
 13 10 2013  12 00  -21.0447 26054.2 -03495.9 -07.6422 26287.7
 13 10 2013  12 01  -21.0450 26054.2 -03495.7 -07.6417 26287.7
 13 10 2013  12 02  -21.0450 26054.4 -03495.5 -07.6413 26287.9
 13 10 2013  12 03  -21.0451 26054.6 -03495.3 -07.6408 26288.0
 13 10 2013  12 04  -21.0454 26054.7 -03495.1 -07.6404 26288.1
 13 10 2013  12 05  -21.0455 26055.4 -03495.2 -07.6403 26288.7
 13 10 2013  12 06  -21.0456 26055.5 -03495.0 -07.6398 26288.8
 13 10 2013  12 07  -21.0455 26055.7 -03494.8 -07.6394 26289.1
 13 10 2013  12 08  -21.0454 26055.9 -03494.6 -07.6390 26289.2
 13 10 2013  12 09  -21.0456 26056.4 -03494.6 -07.6388 26289.7
 13 10 2013  12 10  -21.0456 26056.7 -03494.5 -07.6383 26290.0
 13 10 2013  12 11  -21.0455 26057.3 -03494.4 -07.6381 26290.5
 13 10 2013  12 12  -21.0456 26057.3 -03494.2 -07.6375 26290.5
 13 10 2013  12 13  -21.0452 26057.7 -03494.0 -07.6371 26290.9
 13 10 2013  12 14  -21.0451 26058.2 -03494.0 -07.6369 26291.4
 13 10 2013  12 15  -21.0447 26058.2 -03493.7 -07.6363 26291.4
 13 10 2013  12 16  -21.0447 26058.9 -03493.8 -07.6362 26292.1
 13 10 2013  12 17  -21.0446 26058.8 -03493.4 -07.6355 26291.9
 13 10 2013  12 18  -21.0441 26059.3 -03493.4 -07.6353 26292.4
 13 10 2013  12 19  -21.0441 26059.5 -03493.3 -07.6350 26292.6
 13 10 2013  12 20  -21.0439 26059.6 -03493.1 -07.6345 26292.7
 13 10 2013  12 21  -21.0438 26060.2 -03493.2 -07.6345 26293.3
 13 10 2013  12 22  -21.0437 26060.3 -03492.9 -07.6340 26293.3
 13 10 2013  12 23  -21.0433 26060.6 -03492.9 -07.6337 26293.7
 13 10 2013  12 24  -21.0430 26061.3 -03492.9 -07.6336 26294.3
 13 10 2013  12 25  -21.0428 26061.5 -03492.8 -07.6333 26294.5
 13 10 2013  12 26  -21.0422 26061.7 -03492.6 -07.6329 26294.6
 13 10 2013  12 27  -21.0419 26062.0 -03492.6 -07.6327 26295.0
 13 10 2013  12 28  -21.0415 26061.9 -03492.3 -07.6321 26294.8
 13 10 2013  12 29  -21.0412 26062.1 -03492.2 -07.6319 26295.0
 13 10 2013  12 30  -21.0408 26062.3 -03492.2 -07.6317 26295.3
 13 10 2013  12 31  -21.0403 26062.5 -03492.1 -07.6315 26295.4
 13 10 2013  12 32  -21.0400 26062.9 -03492.1 -07.6315 26295.8
 13 10 2013  12 33  -21.0396 26063.3 -03492.1 -07.6314 26296.2
 13 10 2013  12 34  -21.0392 26063.5 -03492.1 -07.6312 26296.4
 13 10 2013  12 35  -21.0389 26063.7 -03492.0 -07.6310 26296.6
 13 10 2013  12 36  -21.0385 26063.5 -03491.8 -07.6307 26296.3
 13 10 2013  12 37  -21.0382 26063.6 -03491.8 -07.6305 26296.5
 13 10 2013  12 38  -21.0379 26063.8 -03491.7 -07.6304 26296.6
 13 10 2013  12 39  -21.0375 26064.0 -03491.7 -07.6304 26296.9
 13 10 2013  12 40  -21.0372 26064.4 -03491.8 -07.6304 26297.3
 13 10 2013  12 41  -21.0370 26064.6 -03491.8 -07.6302 26297.4
 13 10 2013  12 42  -21.0368 26064.7 -03491.7 -07.6301 26297.6
 13 10 2013  12 43  -21.0366 26065.1 -03491.7 -07.6300 26297.9
 13 10 2013  12 44  -21.0363 26065.3 -03491.8 -07.6300 26298.2
 13 10 2013  12 45  -21.0361 26065.6 -03491.7 -07.6299 26298.5
 13 10 2013  12 46  -21.0356 26065.9 -03491.7 -07.6298 26298.8
 13 10 2013  12 47  -21.0353 26066.3 -03491.8 -07.6298 26299.2
 13 10 2013  12 48  -21.0349 26066.6 -03491.8 -07.6297 26299.4
 13 10 2013  12 49  -21.0347 26066.8 -03491.7 -07.6295 26299.7
 13 10 2013  12 50  -21.0346 26067.2 -03491.7 -07.6295 26300.0
 13 10 2013  12 51  -21.0346 26067.6 -03491.8 -07.6295 26300.4
 13 10 2013  12 52  -21.0345 26068.2 -03491.9 -07.6295 26301.0
 13 10 2013  12 53  -21.0343 26068.1 -03491.7 -07.6291 26300.9
 13 10 2013  12 54  -21.0339 26068.2 -03491.6 -07.6288 26301.0
 13 10 2013  12 55  -21.0337 26068.4 -03491.6 -07.6288 26301.2
 13 10 2013  12 56  -21.0334 26068.6 -03491.6 -07.6288 26301.4
 13 10 2013  12 57  -21.0332 26069.0 -03491.7 -07.6289 26301.8
 13 10 2013  12 58  -21.0330 26069.2 -03491.7 -07.6288 26302.0
 13 10 2013  12 59  -21.0329 26069.7 -03491.8 -07.6288 26302.5
 13 10 2013  13 00  -21.0328 26070.5 -03491.9 -07.6289 26303.3
 13 10 2013  13 01  -21.0328 26070.8 -03491.9 -07.6287 26303.6
 13 10 2013  13 02  -21.0328 26070.6 -03491.6 -07.6281 26303.4
 13 10 2013  13 03  -21.0326 26071.1 -03491.6 -07.6280 26303.8
 13 10 2013  13 04  -21.0328 26070.9 -03491.4 -07.6276 26303.7
 13 10 2013  13 05  -21.0330 26071.0 -03491.3 -07.6274 26303.7
 13 10 2013  13 06  -21.0330 26071.3 -03491.3 -07.6272 26304.0
 13 10 2013  13 07  -21.0333 26071.5 -03491.2 -07.6271 26304.2
 13 10 2013  13 08  -21.0335 26071.3 -03491.0 -07.6267 26304.0
 13 10 2013  13 09  -21.0332 26071.4 -03490.9 -07.6265 26304.1
 13 10 2013  13 10  -21.0330 26071.2 -03490.7 -07.6261 26303.8
 13 10 2013  13 11  -21.0329 26070.8 -03490.5 -07.6257 26303.4
 13 10 2013  13 12  -21.0328 26071.1 -03490.6 -07.6259 26303.8
 13 10 2013  13 13  -21.0328 26071.5 -03490.7 -07.6260 26304.2
 13 10 2013  13 14  -21.0328 26071.1 -03490.5 -07.6257 26303.8
 13 10 2013  13 15  -21.0326 26071.7 -03490.7 -07.6258 26304.4
 13 10 2013  13 16  -21.0325 26072.0 -03490.7 -07.6257 26304.6
 13 10 2013  13 17  -21.0323 26072.0 -03490.5 -07.6253 26304.6
 13 10 2013  13 18  -21.0322 26072.5 -03490.5 -07.6253 26305.1
 13 10 2013  13 19  -21.0321 26072.8 -03490.5 -07.6251 26305.5
 13 10 2013  13 20  -21.0320 26073.5 -03490.6 -07.6251 26306.1
 13 10 2013  13 21  -21.0319 26074.1 -03490.6 -07.6249 26306.7
 13 10 2013  13 22  -21.0318 26074.5 -03490.5 -07.6246 26307.1
 13 10 2013  13 23  -21.0317 26074.7 -03490.3 -07.6242 26307.3
 13 10 2013  13 24  -21.0314 26074.6 -03490.0 -07.6236 26307.1
 13 10 2013  13 25  -21.0313 26074.8 -03489.9 -07.6233 26307.4
 13 10 2013  13 26  -21.0311 26075.0 -03489.8 -07.6230 26307.5
 13 10 2013  13 27  -21.0309 26075.1 -03489.7 -07.6228 26307.5
 13 10 2013  13 28  -21.0308 26075.2 -03489.6 -07.6225 26307.7
 13 10 2013  13 29  -21.0307 26075.5 -03489.6 -07.6224 26308.0
 13 10 2013  13 30  -21.0303 26075.4 -03489.4 -07.6220 26307.8
 13 10 2013  13 31  -21.0302 26075.3 -03489.3 -07.6218 26307.8
 13 10 2013  13 32  -21.0300 26075.4 -03489.3 -07.6217 26307.8
 13 10 2013  13 33  -21.0301 26075.5 -03489.3 -07.6217 26308.0
 13 10 2013  13 34  -21.0301 26075.3 -03489.1 -07.6214 26307.7
 13 10 2013  13 35  -21.0300 26075.3 -03489.1 -07.6214 26307.7
 13 10 2013  13 36  -21.0298 26075.1 -03489.0 -07.6212 26307.5
 13 10 2013  13 37  -21.0295 26075.0 -03488.9 -07.6211 26307.4
 13 10 2013  13 38  -21.0294 26075.1 -03489.0 -07.6212 26307.4
 13 10 2013  13 39  -21.0293 26075.2 -03489.1 -07.6214 26307.6
 13 10 2013  13 40  -21.0291 26075.5 -03489.2 -07.6215 26307.9
 13 10 2013  13 41  -21.0286 26075.7 -03489.2 -07.6215 26308.1
 13 10 2013  13 42  -21.0283 26075.7 -03489.1 -07.6214 26308.1
 13 10 2013  13 43  -21.0282 26075.6 -03489.1 -07.6213 26308.0
 13 10 2013  13 44  -21.0282 26076.1 -03489.3 -07.6216 26308.6
 13 10 2013  13 45  -21.0285 26076.1 -03489.2 -07.6214 26308.6
 13 10 2013  13 46  -21.0284 26076.2 -03489.2 -07.6212 26308.6
 13 10 2013  13 47  -21.0287 26076.3 -03489.2 -07.6212 26308.7
 13 10 2013  13 48  -21.0286 26076.1 -03489.0 -07.6210 26308.5
 13 10 2013  13 49  -21.0286 26076.0 -03488.9 -07.6208 26308.4
 13 10 2013  13 50  -21.0286 26075.7 -03488.7 -07.6205 26308.1
 13 10 2013  13 51  -21.0284 26075.5 -03488.6 -07.6203 26307.8
 13 10 2013  13 52  -21.0285 26075.2 -03488.5 -07.6202 26307.5
 13 10 2013  13 53  -21.0287 26075.1 -03488.5 -07.6201 26307.4
 13 10 2013  13 54  -21.0285 26075.3 -03488.5 -07.6202 26307.6
 13 10 2013  13 55  -21.0286 26074.5 -03488.2 -07.6197 26306.8
 13 10 2013  13 56  -21.0281 26075.2 -03488.5 -07.6201 26307.5
 13 10 2013  13 57  -21.0282 26074.7 -03488.3 -07.6198 26307.0
 13 10 2013  13 58  -21.0276 26074.7 -03488.2 -07.6196 26307.0
 13 10 2013  13 59  -21.0274 26074.8 -03488.2 -07.6197 26307.1
 13 10 2013  14 00  -21.0270 26074.2 -03488.0 -07.6193 26306.5
 13 10 2013  14 01  -21.0266 26074.3 -03488.1 -07.6195 26306.6
 13 10 2013  14 02  -21.0265 26074.3 -03488.1 -07.6195 26306.5
 13 10 2013  14 03  -21.0262 26074.3 -03488.1 -07.6196 26306.6
 13 10 2013  14 04  -21.0262 26074.5 -03488.3 -07.6198 26306.8
 13 10 2013  14 05  -21.0259 26074.7 -03488.3 -07.6199 26307.0
 13 10 2013  14 06  -21.0258 26075.0 -03488.4 -07.6200 26307.3
 13 10 2013  14 07  -21.0256 26075.1 -03488.4 -07.6200 26307.4
 13 10 2013  14 08  -21.0258 26075.6 -03488.6 -07.6202 26308.0
 13 10 2013  14 09  -21.0258 26076.2 -03488.7 -07.6202 26308.6
 13 10 2013  14 10  -21.0259 26077.1 -03488.9 -07.6204 26309.5
 13 10 2013  14 11  -21.0260 26077.5 -03488.8 -07.6201 26309.9
 13 10 2013  14 12  -21.0255 26077.8 -03488.6 -07.6196 26310.1
 13 10 2013  14 13  -21.0253 26077.7 -03488.4 -07.6191 26310.0
 13 10 2013  14 14  -21.0251 26077.6 -03488.1 -07.6186 26309.9
 13 10 2013  14 15  -21.0251 26077.1 -03487.8 -07.6180 26309.3
 13 10 2013  14 16  -21.0252 26077.2 -03487.8 -07.6181 26309.4
 13 10 2013  14 17  -21.0251 26076.4 -03487.5 -07.6176 26308.6
 13 10 2013  14 18  -21.0250 26076.6 -03487.6 -07.6177 26308.8
 13 10 2013  14 19  -21.0250 26076.9 -03487.7 -07.6179 26309.1
 13 10 2013  14 20  -21.0253 26076.6 -03487.5 -07.6176 26308.8
 13 10 2013  14 21  -21.0250 26076.4 -03487.4 -07.6174 26308.6
 13 10 2013  14 22  -21.0253 26076.3 -03487.4 -07.6173 26308.5
 13 10 2013  14 23  -21.0255 26076.5 -03487.5 -07.6176 26308.7
 13 10 2013  14 24  -21.0261 26076.8 -03487.6 -07.6177 26309.0
 13 10 2013  14 25  -21.0262 26077.1 -03487.6 -07.6176 26309.3
 13 10 2013  14 26  -21.0261 26076.9 -03487.3 -07.6171 26309.0
 13 10 2013  14 27  -21.0259 26077.2 -03487.3 -07.6170 26309.3
 13 10 2013  14 28  -21.0260 26077.1 -03487.1 -07.6166 26309.2
 13 10 2013  14 29  -21.0259 26077.0 -03487.0 -07.6164 26309.1
 13 10 2013  14 30  -21.0259 26076.5 -03486.7 -07.6159 26308.6
 13 10 2013  14 31  -21.0258 26076.1 -03486.5 -07.6155 26308.1
 13 10 2013  14 32  -21.0257 26076.1 -03486.5 -07.6155 26308.1
 13 10 2013  14 33  -21.0260 26076.4 -03486.6 -07.6157 26308.4
 13 10 2013  14 34  -21.0261 26076.6 -03486.6 -07.6156 26308.7
 13 10 2013  14 35  -21.0263 26077.0 -03486.6 -07.6155 26309.1
 13 10 2013  14 36  -21.0264 26077.0 -03486.4 -07.6151 26309.0
 13 10 2013  14 37  -21.0262 26076.5 -03486.1 -07.6146 26308.5
 13 10 2013  14 38  -21.0259 26076.3 -03485.9 -07.6143 26308.2
 13 10 2013  14 39  -21.0258 26075.9 -03485.7 -07.6139 26307.9
 13 10 2013  14 40  -21.0258 26076.1 -03485.8 -07.6139 26308.0
 13 10 2013  14 41  -21.0259 26076.0 -03485.7 -07.6138 26308.0
 13 10 2013  14 42  -21.0257 26076.1 -03485.6 -07.6136 26308.0
 13 10 2013  14 43  -21.0255 26076.2 -03485.6 -07.6135 26308.1
 13 10 2013  14 44  -21.0255 26076.3 -03485.6 -07.6134 26308.3
 13 10 2013  14 45  -21.0255 26076.2 -03485.4 -07.6131 26308.1
 13 10 2013  14 46  -21.0252 26076.0 -03485.2 -07.6128 26307.9
 13 10 2013  14 47  -21.0251 26075.9 -03485.1 -07.6125 26307.7
 13 10 2013  14 48  -21.0249 26075.6 -03484.9 -07.6122 26307.4
 13 10 2013  14 49  -21.0246 26075.4 -03484.8 -07.6120 26307.2
 13 10 2013  14 50  -21.0245 26075.3 -03484.7 -07.6119 26307.1
 13 10 2013  14 51  -21.0245 26075.2 -03484.6 -07.6118 26307.0
 13 10 2013  14 52  -21.0242 26074.9 -03484.5 -07.6116 26306.7
 13 10 2013  14 53  -21.0240 26074.9 -03484.4 -07.6115 26306.7
 13 10 2013  14 54  -21.0239 26074.8 -03484.4 -07.6113 26306.5
 13 10 2013  14 55  -21.0237 26074.8 -03484.3 -07.6113 26306.6
 13 10 2013  14 56  -21.0236 26074.9 -03484.3 -07.6112 26306.7
 13 10 2013  14 57  -21.0234 26075.1 -03484.3 -07.6111 26306.9
 13 10 2013  14 58  -21.0233 26075.0 -03484.2 -07.6109 26306.8
 13 10 2013  14 59  -21.0231 26074.8 -03483.9 -07.6104 26306.5
 13 10 2013  15 00  -21.0230 26074.7 -03483.8 -07.6102 26306.4
 13 10 2013  15 01  -21.0230 26074.4 -03483.7 -07.6099 26306.1
 13 10 2013  15 02  -21.0227 26074.1 -03483.4 -07.6095 26305.7
 13 10 2013  15 03  -21.0224 26073.7 -03483.2 -07.6092 26305.4
 13 10 2013  15 04  -21.0220 26073.5 -03483.1 -07.6090 26305.2
 13 10 2013  15 05  -21.0217 26073.3 -03483.1 -07.6090 26305.0
 13 10 2013  15 06  -21.0216 26073.3 -03483.1 -07.6090 26304.9
 13 10 2013  15 07  -21.0216 26073.2 -03483.0 -07.6089 26304.8
 13 10 2013  15 08  -21.0214 26073.0 -03482.9 -07.6086 26304.6
 13 10 2013  15 09  -21.0213 26072.9 -03482.8 -07.6084 26304.5
 13 10 2013  15 10  -21.0213 26073.0 -03482.8 -07.6084 26304.6
 13 10 2013  15 11  -21.0213 26073.0 -03482.7 -07.6082 26304.5
 13 10 2013  15 12  -21.0212 26073.1 -03482.7 -07.6082 26304.7
 13 10 2013  15 13  -21.0211 26073.2 -03482.7 -07.6081 26304.8
 13 10 2013  15 14  -21.0208 26073.4 -03482.6 -07.6078 26304.9
 13 10 2013  15 15  -21.0207 26073.4 -03482.5 -07.6076 26304.9
 13 10 2013  15 16  -21.0207 26073.6 -03482.5 -07.6075 26305.1
 13 10 2013  15 17  -21.0207 26073.7 -03482.4 -07.6074 26305.2
 13 10 2013  15 18  -21.0207 26073.9 -03482.4 -07.6072 26305.4
 13 10 2013  15 19  -21.0204 26074.0 -03482.3 -07.6070 26305.5
 13 10 2013  15 20  -21.0201 26074.2 -03482.2 -07.6068 26305.7
 13 10 2013  15 21  -21.0200 26074.4 -03482.2 -07.6067 26305.9
 13 10 2013  15 22  -21.0200 26074.7 -03482.2 -07.6066 26306.1
 13 10 2013  15 23  -21.0200 26074.9 -03482.1 -07.6065 26306.4
 13 10 2013  15 24  -21.0201 26074.9 -03482.0 -07.6062 26306.3
 13 10 2013  15 25  -21.0200 26074.6 -03481.8 -07.6058 26306.0
 13 10 2013  15 26  -21.0198 26074.3 -03481.6 -07.6055 26305.7
 13 10 2013  15 27  -21.0197 26074.1 -03481.5 -07.6053 26305.5
 13 10 2013  15 28  -21.0196 26073.7 -03481.3 -07.6049 26305.1
 13 10 2013  15 29  -21.0196 26073.5 -03481.3 -07.6050 26304.9
 13 10 2013  15 30  -21.0197 26073.2 -03481.2 -07.6049 26304.5
 13 10 2013  15 31  -21.0197 26073.0 -03481.2 -07.6050 26304.4
 13 10 2013  15 32  -21.0197 26072.7 -03481.2 -07.6050 26304.1
 13 10 2013  15 33  -21.0199 26072.6 -03481.1 -07.6050 26304.0
 13 10 2013  15 34  -21.0199 26072.4 -03481.2 -07.6050 26303.8
 13 10 2013  15 35  -21.0200 26072.3 -03481.1 -07.6050 26303.7
 13 10 2013  15 36  -21.0201 26072.2 -03481.1 -07.6050 26303.6
 13 10 2013  15 37  -21.0202 26072.0 -03481.0 -07.6049 26303.4
 13 10 2013  15 38  -21.0206 26072.0 -03481.0 -07.6049 26303.4
 13 10 2013  15 39  -21.0212 26072.2 -03481.1 -07.6050 26303.6
 13 10 2013  15 40  -21.0217 26072.4 -03481.1 -07.6050 26303.8
 13 10 2013  15 41  -21.0221 26072.2 -03481.0 -07.6048 26303.6
 13 10 2013  15 42  -21.0220 26072.0 -03480.7 -07.6042 26303.3
 13 10 2013  15 43  -21.0224 26071.8 -03480.6 -07.6041 26303.1
 13 10 2013  15 44  -21.0225 26072.3 -03480.7 -07.6041 26303.6
 13 10 2013  15 45  -21.0228 26072.1 -03480.5 -07.6038 26303.4
 13 10 2013  15 46  -21.0231 26072.3 -03480.5 -07.6037 26303.6
 13 10 2013  15 47  -21.0236 26072.0 -03480.3 -07.6033 26303.3
 13 10 2013  15 48  -21.0239 26072.1 -03480.2 -07.6030 26303.4
 13 10 2013  15 49  -21.0242 26072.2 -03480.0 -07.6027 26303.5
 13 10 2013  15 50  -21.0246 26072.0 -03479.8 -07.6022 26303.2
 13 10 2013  15 51  -21.0248 26071.7 -03479.5 -07.6017 26302.9
 13 10 2013  15 52  -21.0250 26071.5 -03479.3 -07.6013 26302.7
 13 10 2013  15 53  -21.0253 26071.4 -03479.1 -07.6009 26302.5
 13 10 2013  15 54  -21.0256 26071.2 -03479.0 -07.6007 26302.3
 13 10 2013  15 55  -21.0257 26071.1 -03478.8 -07.6004 26302.2
 13 10 2013  15 56  -21.0261 26071.3 -03478.8 -07.6003 26302.4
 13 10 2013  15 57  -21.0264 26071.3 -03478.6 -07.5999 26302.4
 13 10 2013  15 58  -21.0267 26071.4 -03478.5 -07.5996 26302.4
 13 10 2013  15 59  -21.0269 26071.3 -03478.3 -07.5991 26302.3
 13 10 2013  16 00  -21.0272 26071.3 -03478.0 -07.5986 26302.2
 13 10 2013  16 01  -21.0274 26071.2 -03477.8 -07.5982 26302.2
 13 10 2013  16 02  -21.0275 26071.2 -03477.6 -07.5978 26302.1
 13 10 2013  16 03  -21.0277 26071.2 -03477.5 -07.5974 26302.1
 13 10 2013  16 04  -21.0279 26071.1 -03477.3 -07.5971 26301.9
 13 10 2013  16 05  -21.0281 26071.1 -03477.1 -07.5967 26301.9
 13 10 2013  16 06  -21.0282 26071.0 -03476.9 -07.5963 26301.8
 13 10 2013  16 07  -21.0283 26070.8 -03476.7 -07.5959 26301.6
 13 10 2013  16 08  -21.0284 26070.9 -03476.6 -07.5956 26301.7
 13 10 2013  16 09  -21.0285 26070.5 -03476.3 -07.5951 26301.3
 13 10 2013  16 10  -21.0286 26070.7 -03476.3 -07.5950 26301.4
 13 10 2013  16 11  -21.0288 26070.5 -03476.1 -07.5946 26301.2
 13 10 2013  16 12  -21.0289 26070.4 -03475.9 -07.5942 26301.1
 13 10 2013  16 13  -21.0289 26070.2 -03475.7 -07.5939 26300.9
 13 10 2013  16 14  -21.0290 26070.1 -03475.5 -07.5936 26300.7
 13 10 2013  16 15  -21.0289 26069.8 -03475.3 -07.5932 26300.5
 13 10 2013  16 16  -21.0287 26069.7 -03475.2 -07.5929 26300.3
 13 10 2013  16 17  -21.0289 26069.7 -03475.0 -07.5927 26300.3
 13 10 2013  16 18  -21.0290 26069.5 -03474.8 -07.5922 26300.1
 13 10 2013  16 19  -21.0288 26069.3 -03474.6 -07.5918 26299.8
 13 10 2013  16 20  -21.0287 26069.2 -03474.5 -07.5916 26299.7
 13 10 2013  16 21  -21.0287 26069.2 -03474.4 -07.5913 26299.7
 13 10 2013  16 22  -21.0285 26069.1 -03474.3 -07.5911 26299.6
 13 10 2013  16 23  -21.0284 26069.2 -03474.2 -07.5909 26299.6
 13 10 2013  16 24  -21.0284 26069.1 -03474.0 -07.5906 26299.5
 13 10 2013  16 25  -21.0282 26069.0 -03473.9 -07.5903 26299.4
 13 10 2013  16 26  -21.0280 26068.7 -03473.6 -07.5899 26299.1
 13 10 2013  16 27  -21.0278 26068.5 -03473.4 -07.5895 26298.9
 13 10 2013  16 28  -21.0276 26068.4 -03473.3 -07.5893 26298.7
 13 10 2013  16 29  -21.0274 26068.2 -03473.2 -07.5890 26298.5
 13 10 2013  16 30  -21.0274 26067.9 -03473.0 -07.5887 26298.3
 13 10 2013  16 31  -21.0272 26067.7 -03472.8 -07.5884 26298.0
 13 10 2013  16 32  -21.0271 26067.6 -03472.7 -07.5883 26297.9
 13 10 2013  16 33  -21.0269 26067.5 -03472.6 -07.5880 26297.8
 13 10 2013  16 34  -21.0268 26067.3 -03472.5 -07.5878 26297.5
 13 10 2013  16 35  -21.0266 26067.0 -03472.3 -07.5875 26297.2
 13 10 2013  16 36  -21.0266 26066.7 -03472.1 -07.5872 26296.9
 13 10 2013  16 37  -21.0265 26066.5 -03472.0 -07.5870 26296.7
 13 10 2013  16 38  -21.0264 26066.1 -03471.8 -07.5867 26296.3
 13 10 2013  16 39  -21.0264 26065.9 -03471.7 -07.5865 26296.1
 13 10 2013  16 40  -21.0265 26065.5 -03471.5 -07.5862 26295.7
 13 10 2013  16 41  -21.0266 26065.2 -03471.4 -07.5861 26295.4
 13 10 2013  16 42  -21.0267 26064.8 -03471.2 -07.5857 26294.9
 13 10 2013  16 43  -21.0269 26064.6 -03471.1 -07.5855 26294.7
 13 10 2013  16 44  -21.0271 26064.4 -03471.0 -07.5854 26294.5
 13 10 2013  16 45  -21.0269 26064.0 -03470.8 -07.5851 26294.1
 13 10 2013  16 46  -21.0268 26063.8 -03470.6 -07.5848 26293.9
 13 10 2013  16 47  -21.0268 26063.5 -03470.5 -07.5847 26293.6
 13 10 2013  16 48  -21.0268 26063.3 -03470.4 -07.5845 26293.4
 13 10 2013  16 49  -21.0268 26063.0 -03470.2 -07.5842 26293.0
 13 10 2013  16 50  -21.0266 26062.7 -03470.1 -07.5839 26292.7
 13 10 2013  16 51  -21.0265 26062.5 -03470.0 -07.5837 26292.5
 13 10 2013  16 52  -21.0265 26062.4 -03469.9 -07.5836 26292.4
 13 10 2013  16 53  -21.0263 26062.3 -03469.8 -07.5833 26292.3
 13 10 2013  16 54  -21.0260 26062.2 -03469.6 -07.5831 26292.2
 13 10 2013  16 55  -21.0257 26062.2 -03469.5 -07.5829 26292.1
 13 10 2013  16 56  -21.0255 26062.1 -03469.4 -07.5827 26292.0
 13 10 2013  16 57  -21.0253 26061.9 -03469.3 -07.5825 26291.8
 13 10 2013  16 58  -21.0253 26061.8 -03469.2 -07.5823 26291.7
 13 10 2013  16 59  -21.0250 26061.6 -03469.1 -07.5821 26291.5
 13 10 2013  17 00  -21.0247 26061.5 -03469.0 -07.5819 26291.3
 13 10 2013  17 01  -21.0246 26061.3 -03468.9 -07.5818 26291.1
 13 10 2013  17 02  -21.0243 26061.2 -03468.8 -07.5816 26291.0
 13 10 2013  17 03  -21.0240 26061.3 -03468.8 -07.5815 26291.1
 13 10 2013  17 04  -21.0237 26061.0 -03468.7 -07.5813 26290.9
 13 10 2013  17 05  -21.0234 26060.9 -03468.6 -07.5812 26290.7
 13 10 2013  17 06  -21.0230 26060.8 -03468.5 -07.5812 26290.6
 13 10 2013  17 07  -21.0226 26060.8 -03468.6 -07.5812 26290.6
 13 10 2013  17 08  -21.0221 26060.5 -03468.4 -07.5810 26290.3
 13 10 2013  17 09  -21.0213 26060.2 -03468.3 -07.5808 26290.0
 13 10 2013  17 10  -21.0206 26059.9 -03468.2 -07.5807 26289.7
 13 10 2013  17 11  -21.0202 26059.6 -03468.2 -07.5808 26289.4
 13 10 2013  17 12  -21.0197 26059.4 -03468.2 -07.5807 26289.2
 13 10 2013  17 13  -21.0192 26059.4 -03468.2 -07.5808 26289.2
 13 10 2013  17 14  -21.0187 26059.4 -03468.2 -07.5809 26289.1
 13 10 2013  17 15  -21.0182 26059.2 -03468.2 -07.5809 26289.0
 13 10 2013  17 16  -21.0174 26059.0 -03468.2 -07.5810 26288.8
 13 10 2013  17 17  -21.0168 26058.8 -03468.2 -07.5810 26288.6
 13 10 2013  17 18  -21.0163 26058.5 -03468.2 -07.5810 26288.3
 13 10 2013  17 19  -21.0159 26058.1 -03468.1 -07.5810 26287.8
 13 10 2013  17 20  -21.0154 26057.8 -03468.1 -07.5810 26287.6
 13 10 2013  17 21  -21.0150 26057.6 -03468.1 -07.5811 26287.4
 13 10 2013  17 22  -21.0143 26057.2 -03468.0 -07.5811 26287.0
 13 10 2013  17 23  -21.0142 26057.1 -03468.1 -07.5813 26286.9
 13 10 2013  17 24  -21.0140 26056.9 -03468.2 -07.5815 26286.7
 13 10 2013  17 25  -21.0135 26056.7 -03468.2 -07.5816 26286.5
 13 10 2013  17 26  -21.0132 26056.4 -03468.2 -07.5816 26286.2
 13 10 2013  17 27  -21.0131 26056.3 -03468.3 -07.5819 26286.2
 13 10 2013  17 28  -21.0127 26056.2 -03468.3 -07.5821 26286.0
 13 10 2013  17 29  -21.0125 26056.0 -03468.4 -07.5823 26285.8
 13 10 2013  17 30  -21.0123 26055.8 -03468.4 -07.5824 26285.6
 13 10 2013  17 31  -21.0121 26055.7 -03468.6 -07.5827 26285.5
 13 10 2013  17 32  -21.0120 26055.7 -03468.7 -07.5831 26285.5
 13 10 2013  17 33  -21.0121 26055.5 -03468.8 -07.5832 26285.4
 13 10 2013  17 34  -21.0122 26055.3 -03468.9 -07.5835 26285.2
 13 10 2013  17 35  -21.0122 26055.1 -03469.0 -07.5837 26285.1
 13 10 2013  17 36  -21.0123 26054.9 -03469.0 -07.5838 26284.8
 13 10 2013  17 37  -21.0126 26054.8 -03469.0 -07.5840 26284.7
 13 10 2013  17 38  -21.0127 26054.6 -03469.1 -07.5841 26284.5
 13 10 2013  17 39  -21.0128 26054.4 -03469.2 -07.5844 26284.4
 13 10 2013  17 40  -21.0130 26054.3 -03469.3 -07.5846 26284.3
 13 10 2013  17 41  -21.0131 26054.1 -03469.2 -07.5846 26284.1
 13 10 2013  17 42  -21.0131 26053.8 -03469.2 -07.5847 26283.8
 13 10 2013  17 43  -21.0132 26053.7 -03469.3 -07.5848 26283.7
 13 10 2013  17 44  -21.0133 26053.4 -03469.3 -07.5849 26283.4
 13 10 2013  17 45  -21.0132 26053.0 -03469.2 -07.5848 26282.9
 13 10 2013  17 46  -21.0132 26052.8 -03469.3 -07.5851 26282.8
 13 10 2013  17 47  -21.0132 26052.7 -03469.3 -07.5852 26282.7
 13 10 2013  17 48  -21.0129 26052.5 -03469.4 -07.5853 26282.5
 13 10 2013  17 49  -21.0129 26052.4 -03469.5 -07.5856 26282.4
 13 10 2013  17 50  -21.0128 26052.2 -03469.5 -07.5857 26282.2
 13 10 2013  17 51  -21.0127 26052.0 -03469.5 -07.5858 26282.0
 13 10 2013  17 52  -21.0128 26051.7 -03469.5 -07.5859 26281.7
 13 10 2013  17 53  -21.0127 26051.4 -03469.5 -07.5859 26281.4
 13 10 2013  17 54  -21.0128 26051.3 -03469.5 -07.5861 26281.3
 13 10 2013  17 55  -21.0131 26051.2 -03469.5 -07.5860 26281.2
 13 10 2013  17 56  -21.0132 26051.2 -03469.4 -07.5858 26281.2
 13 10 2013  17 57  -21.0132 26051.1 -03469.2 -07.5853 26281.1
 13 10 2013  17 58  -21.0130 26051.1 -03469.0 -07.5850 26281.0
 13 10 2013  17 59  -21.0130 26051.2 -03469.0 -07.5850 26281.1
 13 10 2013  18 00  -21.0128 26051.1 -03469.0 -07.5849 26281.1
 13 10 2013  18 01  -21.0127 26051.0 -03469.0 -07.5849 26280.9
 13 10 2013  18 02  -21.0125 26050.6 -03468.9 -07.5849 26280.5
 13 10 2013  18 03  -21.0122 26050.3 -03468.8 -07.5849 26280.2
 13 10 2013  18 04  -21.0119 26050.0 -03468.9 -07.5850 26279.9
 13 10 2013  18 05  -21.0118 26049.5 -03468.9 -07.5851 26279.5
 13 10 2013  18 06  -21.0116 26049.3 -03468.9 -07.5853 26279.3
 13 10 2013  18 07  -21.0115 26049.1 -03469.1 -07.5857 26279.1
 13 10 2013  18 08  -21.0114 26049.0 -03469.2 -07.5859 26279.0
 13 10 2013  18 09  -21.0112 26048.7 -03469.2 -07.5860 26278.7
 13 10 2013  18 10  -21.0111 26048.5 -03469.3 -07.5863 26278.5
 13 10 2013  18 11  -21.0110 26048.2 -03469.4 -07.5865 26278.2
 13 10 2013  18 12  -21.0109 26048.0 -03469.5 -07.5868 26278.1
 13 10 2013  18 13  -21.0106 26047.9 -03469.6 -07.5871 26277.9
 13 10 2013  18 14  -21.0103 26047.7 -03469.7 -07.5874 26277.8
 13 10 2013  18 15  -21.0102 26047.6 -03469.8 -07.5878 26277.7
 13 10 2013  18 16  -21.0102 26047.4 -03470.0 -07.5881 26277.6
 13 10 2013  18 17  -21.0102 26047.3 -03470.0 -07.5883 26277.4
 13 10 2013  18 18  -21.0103 26047.2 -03470.1 -07.5885 26277.3
 13 10 2013  18 19  -21.0103 26046.9 -03470.1 -07.5886 26277.1
 13 10 2013  18 20  -21.0103 26046.8 -03470.2 -07.5888 26276.9
 13 10 2013  18 21  -21.0104 26046.6 -03470.3 -07.5890 26276.7
 13 10 2013  18 22  -21.0102 26046.3 -03470.2 -07.5890 26276.5
 13 10 2013  18 23  -21.0101 26046.2 -03470.3 -07.5891 26276.3
 13 10 2013  18 24  -21.0100 26045.9 -03470.2 -07.5891 26276.1
 13 10 2013  18 25  -21.0100 26046.0 -03470.4 -07.5894 26276.2
 13 10 2013  18 26  -21.0099 26046.0 -03470.5 -07.5896 26276.2
 13 10 2013  18 27  -21.0098 26046.0 -03470.5 -07.5897 26276.2
 13 10 2013  18 28  -21.0098 26046.0 -03470.6 -07.5898 26276.2
 13 10 2013  18 29  -21.0096 26045.9 -03470.6 -07.5898 26276.1
 13 10 2013  18 30  -21.0095 26045.8 -03470.6 -07.5899 26276.0
 13 10 2013  18 31  -21.0094 26045.6 -03470.5 -07.5898 26275.8
 13 10 2013  18 32  -21.0092 26045.5 -03470.5 -07.5897 26275.7
 13 10 2013  18 33  -21.0089 26045.3 -03470.4 -07.5897 26275.5
 13 10 2013  18 34  -21.0086 26045.3 -03470.5 -07.5898 26275.5
 13 10 2013  18 35  -21.0083 26045.3 -03470.5 -07.5898 26275.5
 13 10 2013  18 36  -21.0080 26045.3 -03470.5 -07.5900 26275.5
 13 10 2013  18 37  -21.0077 26045.2 -03470.6 -07.5901 26275.5
 13 10 2013  18 38  -21.0074 26045.2 -03470.6 -07.5901 26275.4
 13 10 2013  18 39  -21.0072 26045.2 -03470.7 -07.5902 26275.4
 13 10 2013  18 40  -21.0069 26045.2 -03470.7 -07.5902 26275.4
 13 10 2013  18 41  -21.0065 26045.1 -03470.7 -07.5903 26275.3
 13 10 2013  18 42  -21.0061 26045.0 -03470.7 -07.5903 26275.2
 13 10 2013  18 43  -21.0058 26044.9 -03470.7 -07.5903 26275.2
 13 10 2013  18 44  -21.0056 26044.8 -03470.7 -07.5904 26275.1
 13 10 2013  18 45  -21.0053 26044.7 -03470.7 -07.5905 26275.0
 13 10 2013  18 46  -21.0050 26044.6 -03470.7 -07.5906 26274.8
 13 10 2013  18 47  -21.0049 26044.4 -03470.7 -07.5906 26274.6
 13 10 2013  18 48  -21.0046 26044.2 -03470.7 -07.5907 26274.5
 13 10 2013  18 49  -21.0043 26044.0 -03470.7 -07.5907 26274.2
 13 10 2013  18 50  -21.0041 26043.8 -03470.8 -07.5909 26274.0
 13 10 2013  18 51  -21.0039 26043.6 -03470.9 -07.5911 26273.9
 13 10 2013  18 52  -21.0036 26043.5 -03471.0 -07.5914 26273.8
 13 10 2013  18 53  -21.0034 26043.3 -03471.0 -07.5915 26273.6
 13 10 2013  18 54  -21.0033 26043.0 -03471.0 -07.5917 26273.3
 13 10 2013  18 55  -21.0031 26042.9 -03471.1 -07.5919 26273.2
 13 10 2013  18 56  -21.0029 26042.7 -03471.2 -07.5922 26273.0
 13 10 2013  18 57  -21.0026 26042.5 -03471.3 -07.5925 26272.9
 13 10 2013  18 58  -21.0024 26042.4 -03471.5 -07.5929 26272.8
 13 10 2013  18 59  -21.0024 26042.5 -03471.7 -07.5933 26272.9
 13 10 2013  19 00  -21.0021 26042.5 -03471.9 -07.5937 26272.9
 13 10 2013  19 01  -21.0021 26042.4 -03472.0 -07.5940 26272.8
 13 10 2013  19 02  -21.0020 26042.2 -03472.1 -07.5942 26272.7
 13 10 2013  19 03  -21.0018 26042.0 -03472.2 -07.5944 26272.4
 13 10 2013  19 04  -21.0017 26041.9 -03472.2 -07.5946 26272.3
 13 10 2013  19 05  -21.0015 26041.7 -03472.3 -07.5949 26272.2
 13 10 2013  19 06  -21.0012 26041.7 -03472.5 -07.5952 26272.2
 13 10 2013  19 07  -21.0012 26041.6 -03472.6 -07.5955 26272.1
 13 10 2013  19 08  -21.0011 26041.5 -03472.7 -07.5958 26272.0
 13 10 2013  19 09  -21.0009 26041.4 -03472.8 -07.5960 26271.9
 13 10 2013  19 10  -21.0006 26041.2 -03472.9 -07.5962 26271.8
 13 10 2013  19 11  -21.0005 26041.0 -03473.0 -07.5965 26271.6
 13 10 2013  19 12  -21.0004 26041.0 -03473.1 -07.5968 26271.6
 13 10 2013  19 13  -21.0002 26041.0 -03473.3 -07.5971 26271.6
 13 10 2013  19 14  -21.0001 26040.9 -03473.4 -07.5974 26271.5
 13 10 2013  19 15  -21.0002 26040.9 -03473.6 -07.5977 26271.5
 13 10 2013  19 16  -21.0001 26040.8 -03473.7 -07.5981 26271.5
 13 10 2013  19 17  -21.0001 26040.7 -03473.8 -07.5984 26271.4
 13 10 2013  19 18  -21.0000 26040.6 -03474.0 -07.5987 26271.3
 13 10 2013  19 19  -21.0000 26040.6 -03474.1 -07.5991 26271.3
 13 10 2013  19 20  -20.9999 26040.6 -03474.3 -07.5994 26271.3
 13 10 2013  19 21  -20.9998 26040.3 -03474.4 -07.5997 26271.1
 13 10 2013  19 22  -20.9997 26040.3 -03474.6 -07.6001 26271.1
 13 10 2013  19 23  -20.9996 26040.3 -03474.8 -07.6006 26271.1
 13 10 2013  19 24  -20.9995 26040.3 -03475.0 -07.6010 26271.1
 13 10 2013  19 25  -20.9994 26040.3 -03475.3 -07.6016 26271.2
 13 10 2013  19 26  -20.9993 26040.2 -03475.4 -07.6020 26271.1
 13 10 2013  19 27  -20.9993 26040.1 -03475.6 -07.6025 26271.0
 13 10 2013  19 28  -20.9992 26040.0 -03475.8 -07.6029 26270.9
 13 10 2013  19 29  -20.9992 26039.8 -03476.0 -07.6033 26270.7
 13 10 2013  19 30  -20.9991 26039.6 -03476.1 -07.6037 26270.6
 13 10 2013  19 31  -20.9991 26039.4 -03476.3 -07.6041 26270.4
 13 10 2013  19 32  -20.9991 26039.2 -03476.5 -07.6045 26270.2
 13 10 2013  19 33  -20.9991 26038.9 -03476.6 -07.6049 26270.0
 13 10 2013  19 34  -20.9990 26038.8 -03476.8 -07.6054 26269.9
 13 10 2013  19 35  -20.9989 26038.7 -03477.1 -07.6059 26269.8
 13 10 2013  19 36  -20.9987 26038.6 -03477.3 -07.6064 26269.8
 13 10 2013  19 37  -20.9987 26038.6 -03477.5 -07.6069 26269.8
 13 10 2013  19 38  -20.9986 26038.5 -03477.7 -07.6074 26269.7
 13 10 2013  19 39  -20.9984 26038.4 -03477.9 -07.6079 26269.6
 13 10 2013  19 40  -20.9984 26038.3 -03478.1 -07.6084 26269.6
 13 10 2013  19 41  -20.9980 26038.1 -03478.3 -07.6088 26269.4
 13 10 2013  19 42  -20.9979 26038.1 -03478.6 -07.6094 26269.4
 13 10 2013  19 43  -20.9979 26038.0 -03478.8 -07.6099 26269.3
 13 10 2013  19 44  -20.9977 26037.9 -03479.0 -07.6104 26269.3
 13 10 2013  19 45  -20.9975 26038.0 -03479.3 -07.6111 26269.4
 13 10 2013  19 46  -20.9974 26037.9 -03479.6 -07.6116 26269.4
 13 10 2013  19 47  -20.9971 26038.0 -03479.8 -07.6122 26269.5
 13 10 2013  19 48  -20.9970 26038.0 -03480.1 -07.6128 26269.5
 13 10 2013  19 49  -20.9968 26038.0 -03480.4 -07.6133 26269.6
 13 10 2013  19 50  -20.9968 26037.9 -03480.6 -07.6138 26269.5
 13 10 2013  19 51  -20.9967 26037.8 -03480.8 -07.6143 26269.4
 13 10 2013  19 52  -20.9966 26037.8 -03481.0 -07.6148 26269.4
 13 10 2013  19 53  -20.9966 26037.7 -03481.2 -07.6152 26269.3
 13 10 2013  19 54  -20.9966 26037.4 -03481.4 -07.6157 26269.1
 13 10 2013  19 55  -20.9966 26037.2 -03481.5 -07.6160 26268.9
 13 10 2013  19 56  -20.9965 26037.0 -03481.6 -07.6163 26268.7
 13 10 2013  19 57  -20.9966 26036.8 -03481.8 -07.6168 26268.6
 13 10 2013  19 58  -20.9964 26036.6 -03482.0 -07.6173 26268.4
 13 10 2013  19 59  -20.9964 26036.6 -03482.3 -07.6179 26268.5
 13 10 2013  20 00  -20.9964 26036.6 -03482.6 -07.6185 26268.5
 13 10 2013  20 01  -20.9963 26036.6 -03482.8 -07.6190 26268.5
 13 10 2013  20 02  -20.9963 26036.6 -03483.1 -07.6196 26268.5
 13 10 2013  20 03  -20.9962 26036.6 -03483.4 -07.6202 26268.6
 13 10 2013  20 04  -20.9961 26036.7 -03483.6 -07.6207 26268.7
 13 10 2013  20 05  -20.9961 26036.6 -03483.9 -07.6213 26268.7
 13 10 2013  20 06  -20.9960 26036.7 -03484.2 -07.6219 26268.8
 13 10 2013  20 07  -20.9962 26036.4 -03484.3 -07.6223 26268.5
 13 10 2013  20 08  -20.9960 26036.9 -03484.7 -07.6231 26269.1
 13 10 2013  20 09  -20.9965 26036.3 -03484.8 -07.6234 26268.5
 13 10 2013  20 10  -20.9962 26036.4 -03485.0 -07.6238 26268.6
 13 10 2013  20 11  -20.9965 26036.2 -03485.2 -07.6243 26268.4
 13 10 2013  20 12  -20.9966 26036.0 -03485.4 -07.6247 26268.3
 13 10 2013  20 13  -20.9967 26035.9 -03485.6 -07.6251 26268.1
 13 10 2013  20 14  -20.9968 26035.8 -03485.8 -07.6257 26268.1
 13 10 2013  20 15  -20.9968 26035.6 -03485.9 -07.6260 26267.9
 13 10 2013  20 16  -20.9968 26035.7 -03486.2 -07.6266 26268.1
 13 10 2013  20 17  -20.9969 26035.6 -03486.5 -07.6271 26268.0
 13 10 2013  20 18  -20.9969 26035.6 -03486.7 -07.6276 26268.1
 13 10 2013  20 19  -20.9970 26035.8 -03486.9 -07.6281 26268.3
 13 10 2013  20 20  -20.9972 26035.7 -03487.1 -07.6286 26268.2
 13 10 2013  20 21  -20.9974 26035.6 -03487.3 -07.6289 26268.1
 13 10 2013  20 22  -20.9976 26035.5 -03487.4 -07.6293 26268.1
 13 10 2013  20 23  -20.9978 26035.4 -03487.6 -07.6296 26268.0
 13 10 2013  20 24  -20.9981 26035.3 -03487.7 -07.6299 26267.9
 13 10 2013  20 25  -20.9982 26035.1 -03487.8 -07.6302 26267.7
 13 10 2013  20 26  -20.9982 26035.5 -03488.1 -07.6308 26268.2
 13 10 2013  20 27  -20.9987 26035.0 -03488.1 -07.6308 26267.6
 13 10 2013  20 28  -20.9987 26035.1 -03488.3 -07.6313 26267.7
 13 10 2013  20 29  -20.9988 26035.0 -03488.4 -07.6315 26267.7
 13 10 2013  20 30  -20.9991 26034.9 -03488.5 -07.6318 26267.6
 13 10 2013  20 31  -20.9995 26034.6 -03488.5 -07.6319 26267.3
 13 10 2013  20 32  -20.9997 26034.7 -03488.7 -07.6323 26267.4
 13 10 2013  20 33  -20.9999 26034.4 -03488.7 -07.6324 26267.2
 13 10 2013  20 34  -21.0002 26034.4 -03488.8 -07.6326 26267.1
 13 10 2013  20 35  -21.0005 26034.5 -03489.0 -07.6330 26267.3
 13 10 2013  20 36  -21.0008 26034.3 -03489.0 -07.6331 26267.0
 13 10 2013  20 37  -21.0010 26034.5 -03489.2 -07.6334 26267.3
 13 10 2013  20 38  -21.0017 26034.0 -03489.2 -07.6335 26266.8
 13 10 2013  20 39  -21.0017 26034.3 -03489.3 -07.6336 26267.1
 13 10 2013  20 40  -21.0019 26034.3 -03489.4 -07.6339 26267.1
 13 10 2013  20 41  -21.0022 26034.2 -03489.4 -07.6340 26267.0
 13 10 2013  20 42  -21.0023 26034.2 -03489.4 -07.6339 26267.0
 13 10 2013  20 43  -21.0025 26034.2 -03489.6 -07.6342 26267.1
 13 10 2013  20 44  -21.0027 26034.1 -03489.6 -07.6344 26266.9
 13 10 2013  20 45  -21.0028 26034.0 -03489.6 -07.6344 26266.9
 13 10 2013  20 46  -21.0030 26034.1 -03489.7 -07.6346 26266.9
 13 10 2013  20 47  -21.0031 26034.0 -03489.8 -07.6348 26266.8
 13 10 2013  20 48  -21.0031 26034.1 -03489.8 -07.6349 26267.0
 13 10 2013  20 49  -21.0032 26033.9 -03489.9 -07.6350 26266.8
 13 10 2013  20 50  -21.0032 26034.0 -03489.9 -07.6351 26266.9
 13 10 2013  20 51  -21.0034 26033.9 -03490.0 -07.6353 26266.8
 13 10 2013  20 52  -21.0035 26033.8 -03490.0 -07.6354 26266.6
 13 10 2013  20 53  -21.0033 26033.8 -03490.0 -07.6354 26266.7
 13 10 2013  20 54  -21.0034 26033.8 -03490.1 -07.6356 26266.7
 13 10 2013  20 55  -21.0033 26033.7 -03490.2 -07.6358 26266.6
 13 10 2013  20 56  -21.0032 26033.6 -03490.2 -07.6359 26266.5
 13 10 2013  20 57  -21.0031 26033.5 -03490.3 -07.6361 26266.5
 13 10 2013  20 58  -21.0030 26033.5 -03490.4 -07.6364 26266.5
 13 10 2013  20 59  -21.0030 26033.5 -03490.6 -07.6367 26266.4
 13 10 2013  21 00  -21.0031 26033.4 -03490.7 -07.6369 26266.4
 13 10 2013  21 01  -21.0032 26033.3 -03490.8 -07.6372 26266.3
 13 10 2013  21 02  -21.0032 26033.3 -03490.9 -07.6374 26266.3
 13 10 2013  21 03  -21.0033 26033.2 -03491.0 -07.6377 26266.2
 13 10 2013  21 04  -21.0034 26033.1 -03491.1 -07.6379 26266.2
 13 10 2013  21 05  -21.0036 26033.1 -03491.2 -07.6381 26266.2
 13 10 2013  21 06  -21.0038 26033.1 -03491.3 -07.6383 26266.1
 13 10 2013  21 07  -21.0039 26033.0 -03491.3 -07.6385 26266.1
 13 10 2013  21 08  -21.0040 26033.1 -03491.4 -07.6386 26266.1
 13 10 2013  21 09  -21.0041 26033.0 -03491.5 -07.6388 26266.1
 13 10 2013  21 10  -21.0041 26032.9 -03491.6 -07.6389 26266.0
 13 10 2013  21 11  -21.0042 26032.8 -03491.6 -07.6390 26265.9
 13 10 2013  21 12  -21.0041 26032.8 -03491.6 -07.6391 26265.9
 13 10 2013  21 13  -21.0040 26032.8 -03491.7 -07.6393 26266.0
 13 10 2013  21 14  -21.0040 26032.8 -03491.7 -07.6394 26265.9
 13 10 2013  21 15  -21.0040 26032.6 -03491.8 -07.6395 26265.8
 13 10 2013  21 16  -21.0039 26032.6 -03491.8 -07.6395 26265.7
 13 10 2013  21 17  -21.0038 26032.5 -03491.8 -07.6396 26265.6
 13 10 2013  21 18  -21.0039 26032.4 -03491.8 -07.6397 26265.6
 13 10 2013  21 19  -21.0039 26032.3 -03491.9 -07.6398 26265.4
 13 10 2013  21 20  -21.0039 26032.2 -03491.9 -07.6399 26265.3
 13 10 2013  21 21  -21.0039 26032.1 -03492.0 -07.6401 26265.3
 13 10 2013  21 22  -21.0039 26032.1 -03492.0 -07.6402 26265.2
 13 10 2013  21 23  -21.0039 26032.0 -03492.1 -07.6404 26265.2
 13 10 2013  21 24  -21.0040 26032.0 -03492.2 -07.6406 26265.2
 13 10 2013  21 25  -21.0040 26032.0 -03492.3 -07.6407 26265.2
 13 10 2013  21 26  -21.0041 26031.9 -03492.3 -07.6409 26265.1
 13 10 2013  21 27  -21.0041 26031.8 -03492.4 -07.6410 26265.1
 13 10 2013  21 28  -21.0041 26031.8 -03492.4 -07.6412 26265.0
 13 10 2013  21 29  -21.0042 26031.7 -03492.5 -07.6413 26264.9
 13 10 2013  21 30  -21.0042 26031.6 -03492.5 -07.6414 26264.8
 13 10 2013  21 31  -21.0043 26031.5 -03492.6 -07.6416 26264.8
 13 10 2013  21 32  -21.0043 26031.3 -03492.6 -07.6416 26264.5
 13 10 2013  21 33  -21.0046 26031.2 -03492.6 -07.6417 26264.5
 13 10 2013  21 34  -21.0046 26031.2 -03492.7 -07.6419 26264.5
 13 10 2013  21 35  -21.0048 26031.1 -03492.7 -07.6420 26264.4
 13 10 2013  21 36  -21.0048 26030.9 -03492.8 -07.6421 26264.2
 13 10 2013  21 37  -21.0048 26030.9 -03492.8 -07.6423 26264.2
 13 10 2013  21 38  -21.0048 26030.9 -03492.9 -07.6425 26264.2
 13 10 2013  21 39  -21.0049 26030.8 -03492.9 -07.6425 26264.1
 13 10 2013  21 40  -21.0049 26030.7 -03493.0 -07.6426 26264.0
 13 10 2013  21 41  -21.0052 26030.4 -03492.9 -07.6427 26263.8
 13 10 2013  21 42  -21.0053 26030.3 -03492.9 -07.6427 26263.6
 13 10 2013  21 43  -21.0053 26030.2 -03493.0 -07.6429 26263.5
 13 10 2013  21 44  -21.0054 26030.2 -03493.0 -07.6429 26263.5
 13 10 2013  21 45  -21.0054 26030.2 -03493.1 -07.6431 26263.5
 13 10 2013  21 46  -21.0056 26030.2 -03493.2 -07.6433 26263.5
 13 10 2013  21 47  -21.0057 26030.2 -03493.3 -07.6435 26263.5
 13 10 2013  21 48  -21.0058 26030.1 -03493.3 -07.6436 26263.5
 13 10 2013  21 49  -21.0058 26030.1 -03493.4 -07.6438 26263.5
 13 10 2013  21 50  -21.0059 26030.0 -03493.5 -07.6439 26263.4
 13 10 2013  21 51  -21.0059 26030.0 -03493.4 -07.6439 26263.3
 13 10 2013  21 52  -21.0060 26029.9 -03493.5 -07.6440 26263.3
 13 10 2013  21 53  -21.0059 26030.1 -03493.6 -07.6441 26263.5
 13 10 2013  21 54  -21.0060 26030.0 -03493.6 -07.6442 26263.4
 13 10 2013  21 55  -21.0059 26029.9 -03493.6 -07.6442 26263.3
 13 10 2013  21 56  -21.0059 26029.8 -03493.6 -07.6442 26263.2
 13 10 2013  21 57  -21.0059 26029.7 -03493.6 -07.6443 26263.1
 13 10 2013  21 58  -21.0058 26029.6 -03493.6 -07.6443 26263.0
 13 10 2013  21 59  -21.0059 26029.4 -03493.6 -07.6443 26262.8
 13 10 2013  22 00  -21.0058 26029.4 -03493.6 -07.6444 26262.8
 13 10 2013  22 01  -21.0058 26029.4 -03493.6 -07.6445 26262.8
 13 10 2013  22 02  -21.0058 26029.3 -03493.7 -07.6446 26262.7
 13 10 2013  22 03  -21.0058 26029.2 -03493.6 -07.6445 26262.6
 13 10 2013  22 04  -21.0058 26029.2 -03493.7 -07.6446 26262.7
 13 10 2013  22 05  -21.0059 26029.2 -03493.7 -07.6447 26262.6
 13 10 2013  22 06  -21.0059 26029.2 -03493.8 -07.6448 26262.6
 13 10 2013  22 07  -21.0060 26029.2 -03493.8 -07.6449 26262.6
 13 10 2013  22 08  -21.0062 26029.2 -03493.9 -07.6450 26262.6
 13 10 2013  22 09  -21.0062 26029.1 -03493.8 -07.6450 26262.5
 13 10 2013  22 10  -21.0062 26029.0 -03493.8 -07.6450 26262.5
 13 10 2013  22 11  -21.0062 26029.0 -03493.9 -07.6451 26262.5
 13 10 2013  22 12  -21.0062 26029.0 -03493.9 -07.6451 26262.5
 13 10 2013  22 13  -21.0062 26028.9 -03493.9 -07.6451 26262.3
 13 10 2013  22 14  -21.0062 26028.8 -03493.8 -07.6451 26262.2
 13 10 2013  22 15  -21.0062 26028.8 -03493.9 -07.6452 26262.2
 13 10 2013  22 16  -21.0062 26028.6 -03493.8 -07.6451 26262.1
 13 10 2013  22 17  -21.0062 26028.5 -03493.8 -07.6451 26262.0
 13 10 2013  22 18  -21.0063 26028.5 -03493.8 -07.6451 26261.9
 13 10 2013  22 19  -21.0063 26028.5 -03493.8 -07.6451 26261.9
 13 10 2013  22 20  -21.0063 26028.5 -03493.9 -07.6452 26261.9
 13 10 2013  22 21  -21.0061 26028.5 -03493.9 -07.6453 26262.0
 13 10 2013  22 22  -21.0063 26028.4 -03493.9 -07.6453 26261.9
 13 10 2013  22 23  -21.0063 26028.4 -03493.9 -07.6453 26261.8
 13 10 2013  22 24  -21.0064 26028.4 -03493.9 -07.6453 26261.8
 13 10 2013  22 25  -21.0065 26028.5 -03494.0 -07.6455 26261.9
 13 10 2013  22 26  -21.0066 26028.5 -03494.0 -07.6455 26261.9
 13 10 2013  22 27  -21.0065 26028.4 -03493.9 -07.6454 26261.9
 13 10 2013  22 28  -21.0069 26028.4 -03494.0 -07.6455 26261.9
 13 10 2013  22 29  -21.0071 26028.3 -03494.0 -07.6455 26261.8
 13 10 2013  22 30  -21.0071 26028.2 -03493.9 -07.6453 26261.7
 13 10 2013  22 31  -21.0071 26028.3 -03493.8 -07.6452 26261.7
 13 10 2013  22 32  -21.0071 26028.3 -03493.9 -07.6453 26261.7
 13 10 2013  22 33  -21.0071 26028.4 -03493.9 -07.6454 26261.8
 13 10 2013  22 34  -21.0070 26028.4 -03493.9 -07.6454 26261.9
 13 10 2013  22 35  -21.0070 26028.3 -03493.9 -07.6454 26261.8
 13 10 2013  22 36  -21.0071 26028.3 -03493.9 -07.6453 26261.7
 13 10 2013  22 37  -21.0071 26028.2 -03493.8 -07.6453 26261.7
 13 10 2013  22 38  -21.0072 26028.3 -03493.8 -07.6452 26261.7
 13 10 2013  22 39  -21.0071 26028.3 -03493.8 -07.6452 26261.7
 13 10 2013  22 40  -21.0072 26028.4 -03493.9 -07.6453 26261.9
 13 10 2013  22 41  -21.0074 26028.3 -03493.8 -07.6451 26261.8
 13 10 2013  22 42  -21.0073 26028.3 -03493.8 -07.6450 26261.8
 13 10 2013  22 43  -21.0074 26028.4 -03493.8 -07.6451 26261.9
 13 10 2013  22 44  -21.0074 26028.3 -03493.7 -07.6450 26261.7
 13 10 2013  22 45  -21.0075 26028.3 -03493.7 -07.6450 26261.7
 13 10 2013  22 46  -21.0075 26028.3 -03493.7 -07.6450 26261.7
 13 10 2013  22 47  -21.0073 26028.3 -03493.7 -07.6449 26261.7
 13 10 2013  22 48  -21.0074 26028.2 -03493.6 -07.6448 26261.6
 13 10 2013  22 49  -21.0073 26028.2 -03493.6 -07.6447 26261.6
 13 10 2013  22 50  -21.0074 26028.1 -03493.6 -07.6447 26261.5
 13 10 2013  22 51  -21.0074 26028.0 -03493.5 -07.6446 26261.4
 13 10 2013  22 52  -21.0074 26027.9 -03493.4 -07.6445 26261.3
 13 10 2013  22 53  -21.0074 26027.9 -03493.4 -07.6444 26261.2
 13 10 2013  22 54  -21.0074 26027.9 -03493.4 -07.6444 26261.3
 13 10 2013  22 55  -21.0075 26027.9 -03493.4 -07.6444 26261.3
 13 10 2013  22 56  -21.0075 26027.8 -03493.3 -07.6443 26261.2
 13 10 2013  22 57  -21.0075 26027.7 -03493.3 -07.6441 26261.1
 13 10 2013  22 58  -21.0076 26027.7 -03493.2 -07.6441 26261.0
 13 10 2013  22 59  -21.0076 26027.6 -03493.2 -07.6440 26261.0
 13 10 2013  23 00  -21.0076 26027.6 -03493.2 -07.6439 26261.0
 13 10 2013  23 01  -21.0077 26027.6 -03493.2 -07.6440 26260.9
 13 10 2013  23 02  -21.0077 26027.6 -03493.2 -07.6440 26261.0
 13 10 2013  23 03  -21.0078 26027.6 -03493.2 -07.6440 26260.9
 13 10 2013  23 04  -21.0078 26027.5 -03493.1 -07.6439 26260.9
 13 10 2013  23 05  -21.0078 26027.5 -03493.2 -07.6440 26260.9
 13 10 2013  23 06  -21.0080 26027.5 -03493.2 -07.6440 26260.9
 13 10 2013  23 07  -21.0080 26027.5 -03493.2 -07.6440 26260.9
 13 10 2013  23 08  -21.0082 26027.4 -03493.2 -07.6440 26260.8
 13 10 2013  23 09  -21.0082 26027.4 -03493.1 -07.6440 26260.8
 13 10 2013  23 10  -21.0083 26027.4 -03493.2 -07.6441 26260.8
 13 10 2013  23 11  -21.0083 26027.4 -03493.2 -07.6440 26260.7
 13 10 2013  23 12  -21.0084 26027.3 -03493.2 -07.6440 26260.7
 13 10 2013  23 13  -21.0085 26027.2 -03493.1 -07.6440 26260.6
 13 10 2013  23 14  -21.0086 26027.2 -03493.1 -07.6440 26260.5
 13 10 2013  23 15  -21.0085 26027.2 -03493.2 -07.6441 26260.6
 13 10 2013  23 16  -21.0086 26027.2 -03493.2 -07.6441 26260.6
 13 10 2013  23 17  -21.0087 26027.2 -03493.2 -07.6441 26260.5
 13 10 2013  23 18  -21.0086 26027.1 -03493.2 -07.6441 26260.4
 13 10 2013  23 19  -21.0088 26027.0 -03493.2 -07.6441 26260.3
 13 10 2013  23 20  -21.0089 26027.0 -03493.2 -07.6442 26260.4
 13 10 2013  23 21  -21.0088 26027.1 -03493.3 -07.6443 26260.5
 13 10 2013  23 22  -21.0089 26027.1 -03493.3 -07.6444 26260.5
 13 10 2013  23 23  -21.0091 26027.2 -03493.4 -07.6445 26260.6
 13 10 2013  23 24  -21.0092 26027.2 -03493.4 -07.6447 26260.6
 13 10 2013  23 25  -21.0092 26027.3 -03493.4 -07.6447 26260.7
 13 10 2013  23 26  -21.0092 26027.3 -03493.5 -07.6448 26260.7
 13 10 2013  23 27  -21.0092 26027.3 -03493.5 -07.6448 26260.7
 13 10 2013  23 28  -21.0090 26027.3 -03493.5 -07.6447 26260.7
 13 10 2013  23 29  -21.0090 26027.1 -03493.4 -07.6447 26260.6
 13 10 2013  23 30  -21.0090 26027.1 -03493.4 -07.6446 26260.5
 13 10 2013  23 31  -21.0090 26027.2 -03493.5 -07.6448 26260.6
 13 10 2013  23 32  -21.0087 26027.1 -03493.5 -07.6449 26260.5
 13 10 2013  23 33  -21.0087 26027.0 -03493.4 -07.6447 26260.4
 13 10 2013  23 34  -21.0086 26027.1 -03493.5 -07.6449 26260.5
 13 10 2013  23 35  -21.0086 26027.1 -03493.6 -07.6451 26260.5
 13 10 2013  23 36  -21.0087 26027.1 -03493.6 -07.6451 26260.5
 13 10 2013  23 37  -21.0087 26027.1 -03493.7 -07.6452 26260.6
 13 10 2013  23 38  -21.0086 26027.3 -03493.8 -07.6453 26260.7
 13 10 2013  23 39  -21.0085 26027.2 -03493.8 -07.6454 26260.7
 13 10 2013  23 40  -21.0085 26027.2 -03493.8 -07.6454 26260.6
 13 10 2013  23 41  -21.0084 26027.1 -03493.7 -07.6453 26260.6
 13 10 2013  23 42  -21.0083 26027.0 -03493.7 -07.6453 26260.5
 13 10 2013  23 43  -21.0081 26027.0 -03493.7 -07.6453 26260.4
 13 10 2013  23 44  -21.0081 26026.9 -03493.7 -07.6453 26260.3
 13 10 2013  23 45  -21.0081 26026.8 -03493.7 -07.6454 26260.2
 13 10 2013  23 46  -21.0081 26026.7 -03493.7 -07.6454 26260.2
 13 10 2013  23 47  -21.0080 26026.7 -03493.7 -07.6454 26260.1
 13 10 2013  23 48  -21.0081 26026.7 -03493.8 -07.6455 26260.2
 13 10 2013  23 49  -21.0080 26026.7 -03493.8 -07.6455 26260.1
 13 10 2013  23 50  -21.0080 26026.6 -03493.7 -07.6455 26260.0
 13 10 2013  23 51  -21.0079 26026.6 -03493.8 -07.6456 26260.0
 13 10 2013  23 52  -21.0079 26026.6 -03493.8 -07.6457 26260.0
 13 10 2013  23 53  -21.0079 26026.6 -03493.8 -07.6457 26260.0
 13 10 2013  23 54  -21.0079 26026.5 -03493.8 -07.6457 26260.0
 13 10 2013  23 55  -21.0079 26026.5 -03493.9 -07.6458 26260.0
 13 10 2013  23 56  -21.0079 26026.5 -03493.9 -07.6458 26260.0
 13 10 2013  23 57  -21.0078 26026.4 -03493.8 -07.6457 26259.9
