SAO LUIS EMBRACE-03 <013> 1 Min. Reported data

 DD MM YYYY  HH MM   D(Deg)  H(nT)   Z(nT)   I(Deg)   F(nT)

 13 01 2013  00 00  -20.9961 26055.9 -03388.2 -07.4090 26275.2
 13 01 2013  00 01  -20.9963 26055.8 -03388.2 -07.4090 26275.1
 13 01 2013  00 02  -20.9966 26055.5 -03388.1 -07.4089 26274.9
 13 01 2013  00 03  -20.9969 26055.2 -03388.0 -07.4087 26274.6
 13 01 2013  00 04  -20.9972 26055.1 -03388.0 -07.4087 26274.4
 13 01 2013  00 05  -20.9972 26055.0 -03388.0 -07.4087 26274.4
 13 01 2013  00 06  -20.9972 26054.9 -03388.0 -07.4087 26274.2
 13 01 2013  00 07  -20.9975 26054.8 -03388.0 -07.4088 26274.1
 13 01 2013  00 08  -20.9978 26054.7 -03388.0 -07.4089 26274.1
 13 01 2013  00 09  -20.9980 26054.6 -03388.1 -07.4089 26274.0
 13 01 2013  00 10  -20.9982 26054.3 -03388.0 -07.4088 26273.6
 13 01 2013  00 11  -20.9987 26054.0 -03387.9 -07.4087 26273.3
 13 01 2013  00 12  -20.9988 26053.8 -03387.8 -07.4087 26273.1
 13 01 2013  00 13  -20.9987 26053.7 -03387.8 -07.4086 26273.0
 13 01 2013  00 14  -20.9987 26053.4 -03387.7 -07.4086 26272.8
 13 01 2013  00 15  -20.9987 26053.3 -03387.7 -07.4086 26272.7
 13 01 2013  00 16  -20.9987 26053.3 -03387.8 -07.4087 26272.6
 13 01 2013  00 17  -20.9988 26053.2 -03387.8 -07.4088 26272.6
 13 01 2013  00 18  -20.9989 26053.2 -03387.9 -07.4090 26272.6
 13 01 2013  00 19  -20.9990 26053.2 -03388.0 -07.4091 26272.6
 13 01 2013  00 20  -20.9993 26053.2 -03388.0 -07.4093 26272.6
 13 01 2013  00 21  -20.9996 26053.2 -03388.1 -07.4094 26272.6
 13 01 2013  00 22  -21.0000 26053.1 -03388.1 -07.4094 26272.5
 13 01 2013  00 23  -21.0004 26053.0 -03388.0 -07.4094 26272.4
 13 01 2013  00 24  -21.0007 26053.0 -03388.0 -07.4094 26272.3
 13 01 2013  00 25  -21.0010 26053.0 -03388.1 -07.4095 26272.4
 13 01 2013  00 26  -21.0013 26053.0 -03388.1 -07.4095 26272.4
 13 01 2013  00 27  -21.0016 26053.0 -03388.0 -07.4094 26272.4
 13 01 2013  00 28  -21.0018 26053.0 -03388.0 -07.4094 26272.4
 13 01 2013  00 29  -21.0020 26053.2 -03388.1 -07.4094 26272.6
 13 01 2013  00 30  -21.0020 26053.2 -03388.1 -07.4095 26272.6
 13 01 2013  00 31  -21.0025 26052.6 -03387.8 -07.4089 26271.9
 13 01 2013  00 32  -21.0027 26053.1 -03388.0 -07.4092 26272.4
 13 01 2013  00 33  -21.0030 26052.8 -03387.9 -07.4091 26272.2
 13 01 2013  00 34  -21.0035 26052.6 -03387.7 -07.4088 26272.0
 13 01 2013  00 35  -21.0038 26052.6 -03387.7 -07.4087 26271.9
 13 01 2013  00 36  -21.0040 26052.5 -03387.6 -07.4086 26271.8
 13 01 2013  00 37  -21.0043 26052.1 -03387.4 -07.4082 26271.4
 13 01 2013  00 38  -21.0045 26052.3 -03387.4 -07.4083 26271.6
 13 01 2013  00 39  -21.0049 26051.8 -03387.2 -07.4079 26271.1
 13 01 2013  00 40  -21.0054 26051.7 -03387.1 -07.4078 26271.0
 13 01 2013  00 41  -21.0056 26051.4 -03387.0 -07.4076 26270.7
 13 01 2013  00 42  -21.0057 26051.4 -03386.9 -07.4074 26270.6
 13 01 2013  00 43  -21.0059 26051.4 -03387.0 -07.4075 26270.7
 13 01 2013  00 44  -21.0063 26051.1 -03386.8 -07.4073 26270.3
 13 01 2013  00 45  -21.0066 26050.9 -03386.7 -07.4071 26270.1
 13 01 2013  00 46  -21.0067 26051.3 -03386.9 -07.4074 26270.5
 13 01 2013  00 47  -21.0068 26051.0 -03386.8 -07.4073 26270.2
 13 01 2013  00 48  -21.0070 26051.0 -03386.8 -07.4072 26270.3
 13 01 2013  00 49  -21.0071 26051.5 -03387.0 -07.4076 26270.7
 13 01 2013  00 50  -21.0070 26051.3 -03387.0 -07.4076 26270.6
 13 01 2013  00 51  -21.0068 26051.3 -03386.9 -07.4075 26270.6
 13 01 2013  00 52  -21.0069 26051.6 -03387.1 -07.4078 26270.9
 13 01 2013  00 53  -21.0073 26051.2 -03387.0 -07.4076 26270.4
 13 01 2013  00 54  -21.0075 26051.4 -03387.1 -07.4077 26270.7
 13 01 2013  00 55  -21.0076 26051.6 -03387.2 -07.4079 26270.8
 13 01 2013  00 56  -21.0076 26051.5 -03387.1 -07.4078 26270.8
 13 01 2013  00 57  -21.0074 26052.0 -03387.3 -07.4082 26271.2
 13 01 2013  00 58  -21.0072 26052.4 -03387.6 -07.4085 26271.7
 13 01 2013  00 59  -21.0076 26052.4 -03387.6 -07.4087 26271.7
 13 01 2013  01 00  -21.0076 26052.5 -03387.6 -07.4087 26271.8
 13 01 2013  01 01  -21.0073 26053.0 -03387.9 -07.4090 26272.3
 13 01 2013  01 02  -21.0070 26052.7 -03387.8 -07.4089 26272.1
 13 01 2013  01 03  -21.0068 26053.1 -03387.8 -07.4090 26272.4
 13 01 2013  01 04  -21.0064 26053.6 -03388.1 -07.4094 26273.0
 13 01 2013  01 05  -21.0064 26053.2 -03388.0 -07.4092 26272.6
 13 01 2013  01 06  -21.0061 26053.9 -03388.2 -07.4095 26273.3
 13 01 2013  01 07  -21.0060 26053.8 -03388.3 -07.4097 26273.2
 13 01 2013  01 08  -21.0061 26053.9 -03388.3 -07.4096 26273.3
 13 01 2013  01 09  -21.0063 26053.9 -03388.3 -07.4097 26273.3
 13 01 2013  01 10  -21.0066 26053.8 -03388.2 -07.4095 26273.2
 13 01 2013  01 11  -21.0068 26053.8 -03388.2 -07.4095 26273.2
 13 01 2013  01 12  -21.0070 26054.0 -03388.2 -07.4095 26273.3
 13 01 2013  01 13  -21.0070 26053.9 -03388.2 -07.4095 26273.3
 13 01 2013  01 14  -21.0067 26054.5 -03388.4 -07.4098 26273.9
 13 01 2013  01 15  -21.0066 26054.5 -03388.5 -07.4099 26273.9
 13 01 2013  01 16  -21.0068 26054.2 -03388.3 -07.4096 26273.6
 13 01 2013  01 17  -21.0062 26054.8 -03388.5 -07.4099 26274.2
 13 01 2013  01 18  -21.0064 26054.7 -03388.5 -07.4099 26274.1
 13 01 2013  01 19  -21.0063 26054.8 -03388.5 -07.4099 26274.2
 13 01 2013  01 20  -21.0063 26055.3 -03388.7 -07.4102 26274.7
 13 01 2013  01 21  -21.0063 26055.2 -03388.8 -07.4103 26274.7
 13 01 2013  01 22  -21.0066 26055.0 -03388.6 -07.4100 26274.4
 13 01 2013  01 23  -21.0068 26055.1 -03388.6 -07.4100 26274.5
 13 01 2013  01 24  -21.0068 26055.1 -03388.6 -07.4101 26274.6
 13 01 2013  01 25  -21.0070 26055.5 -03388.7 -07.4102 26274.9
 13 01 2013  01 26  -21.0070 26055.5 -03388.8 -07.4104 26275.0
 13 01 2013  01 27  -21.0073 26055.1 -03388.6 -07.4100 26274.5
 13 01 2013  01 28  -21.0073 26055.6 -03388.7 -07.4101 26275.0
 13 01 2013  01 29  -21.0075 26055.5 -03388.8 -07.4102 26274.9
 13 01 2013  01 30  -21.0080 26055.4 -03388.6 -07.4099 26274.8
 13 01 2013  01 31  -21.0075 26055.9 -03388.8 -07.4103 26275.3
 13 01 2013  01 32  -21.0074 26055.9 -03388.8 -07.4102 26275.3
 13 01 2013  01 33  -21.0073 26056.3 -03389.0 -07.4105 26275.8
 13 01 2013  01 34  -21.0073 26056.5 -03389.1 -07.4107 26276.0
 13 01 2013  01 35  -21.0067 26056.5 -03389.0 -07.4105 26276.0
 13 01 2013  01 36  -21.0074 26056.7 -03389.1 -07.4107 26276.2
 13 01 2013  01 37  -21.0091 26056.5 -03389.1 -07.4107 26276.0
 13 01 2013  01 38  -21.0103 26056.4 -03389.0 -07.4105 26275.8
 13 01 2013  01 39  -21.0111 26056.2 -03388.8 -07.4102 26275.7
 13 01 2013  01 40  -21.0114 26055.8 -03388.6 -07.4097 26275.3
 13 01 2013  01 41  -21.0114 26055.8 -03388.5 -07.4095 26275.2
 13 01 2013  01 42  -21.0116 26055.3 -03388.1 -07.4089 26274.7
 13 01 2013  01 43  -21.0116 26055.6 -03388.3 -07.4091 26274.9
 13 01 2013  01 44  -21.0122 26055.2 -03388.1 -07.4089 26274.5
 13 01 2013  01 45  -21.0122 26055.6 -03388.2 -07.4090 26274.9
 13 01 2013  01 46  -21.0123 26055.3 -03388.1 -07.4089 26274.6
 13 01 2013  01 47  -21.0123 26054.9 -03387.9 -07.4085 26274.2
 13 01 2013  01 48  -21.0120 26054.9 -03387.9 -07.4085 26274.2
 13 01 2013  01 49  -21.0117 26054.3 -03387.6 -07.4080 26273.6
 13 01 2013  01 50  -21.0117 26054.7 -03387.8 -07.4083 26274.0
 13 01 2013  01 51  -21.0120 26054.2 -03387.6 -07.4081 26273.5
 13 01 2013  01 52  -21.0121 26054.5 -03387.8 -07.4084 26273.8
 13 01 2013  01 53  -21.0123 26054.5 -03387.8 -07.4085 26273.9
 13 01 2013  01 54  -21.0126 26054.5 -03387.9 -07.4087 26273.9
 13 01 2013  01 55  -21.0133 26054.5 -03387.9 -07.4087 26273.8
 13 01 2013  01 56  -21.0139 26054.5 -03387.9 -07.4087 26273.8
 13 01 2013  01 57  -21.0143 26054.5 -03388.0 -07.4088 26273.8
 13 01 2013  01 58  -21.0147 26054.7 -03388.1 -07.4089 26274.1
 13 01 2013  01 59  -21.0155 26054.8 -03388.1 -07.4090 26274.2
 13 01 2013  02 00  -21.0161 26054.9 -03388.1 -07.4091 26274.3
 13 01 2013  02 01  -21.0167 26054.9 -03388.1 -07.4090 26274.3
 13 01 2013  02 02  -21.0173 26055.1 -03388.2 -07.4091 26274.5
 13 01 2013  02 03  -21.0179 26055.2 -03388.2 -07.4091 26274.6
 13 01 2013  02 04  -21.0184 26055.2 -03388.2 -07.4090 26274.5
 13 01 2013  02 05  -21.0189 26055.2 -03388.1 -07.4089 26274.5
 13 01 2013  02 06  -21.0194 26055.2 -03388.1 -07.4089 26274.6
 13 01 2013  02 07  -21.0199 26055.2 -03388.0 -07.4087 26274.5
 13 01 2013  02 08  -21.0203 26055.2 -03388.0 -07.4086 26274.6
 13 01 2013  02 09  -21.0204 26055.3 -03388.0 -07.4086 26274.7
 13 01 2013  02 10  -21.0203 26055.4 -03388.0 -07.4086 26274.8
 13 01 2013  02 11  -21.0202 26055.5 -03388.0 -07.4085 26274.8
 13 01 2013  02 12  -21.0201 26055.4 -03387.9 -07.4084 26274.7
 13 01 2013  02 13  -21.0203 26055.2 -03387.8 -07.4082 26274.5
 13 01 2013  02 14  -21.0203 26055.4 -03387.8 -07.4082 26274.7
 13 01 2013  02 15  -21.0201 26055.5 -03387.9 -07.4083 26274.8
 13 01 2013  02 16  -21.0198 26055.6 -03387.9 -07.4083 26274.9
 13 01 2013  02 17  -21.0197 26055.7 -03387.9 -07.4084 26275.1
 13 01 2013  02 18  -21.0198 26055.7 -03388.0 -07.4084 26275.1
 13 01 2013  02 19  -21.0197 26055.9 -03388.0 -07.4085 26275.2
 13 01 2013  02 20  -21.0197 26055.8 -03388.0 -07.4086 26275.2
 13 01 2013  02 21  -21.0198 26055.8 -03388.0 -07.4085 26275.2
 13 01 2013  02 22  -21.0199 26055.7 -03388.0 -07.4084 26275.0
 13 01 2013  02 23  -21.0201 26055.5 -03387.9 -07.4083 26274.8
 13 01 2013  02 24  -21.0202 26055.3 -03387.8 -07.4082 26274.7
 13 01 2013  02 25  -21.0204 26055.2 -03387.7 -07.4081 26274.5
 13 01 2013  02 26  -21.0207 26055.2 -03387.8 -07.4081 26274.5
 13 01 2013  02 27  -21.0207 26055.1 -03387.7 -07.4081 26274.4
 13 01 2013  02 28  -21.0207 26055.0 -03387.7 -07.4080 26274.3
 13 01 2013  02 29  -21.0206 26055.0 -03387.7 -07.4080 26274.4
 13 01 2013  02 30  -21.0203 26055.0 -03387.7 -07.4081 26274.3
 13 01 2013  02 31  -21.0200 26055.2 -03387.8 -07.4083 26274.6
 13 01 2013  02 32  -21.0197 26055.6 -03388.0 -07.4086 26274.9
 13 01 2013  02 33  -21.0195 26056.0 -03388.3 -07.4090 26275.4
 13 01 2013  02 34  -21.0193 26056.3 -03388.5 -07.4094 26275.7
 13 01 2013  02 35  -21.0192 26056.7 -03388.7 -07.4097 26276.1
 13 01 2013  02 36  -21.0195 26057.0 -03388.8 -07.4100 26276.4
 13 01 2013  02 37  -21.0200 26056.9 -03388.8 -07.4100 26276.3
 13 01 2013  02 38  -21.0204 26056.7 -03388.7 -07.4098 26276.1
 13 01 2013  02 39  -21.0208 26056.5 -03388.6 -07.4096 26275.9
 13 01 2013  02 40  -21.0210 26056.5 -03388.5 -07.4095 26275.9
 13 01 2013  02 41  -21.0209 26056.4 -03388.4 -07.4092 26275.8
 13 01 2013  02 42  -21.0209 26056.1 -03388.2 -07.4089 26275.5
 13 01 2013  02 43  -21.0209 26056.1 -03388.2 -07.4088 26275.4
 13 01 2013  02 44  -21.0209 26055.9 -03388.1 -07.4087 26275.2
 13 01 2013  02 45  -21.0208 26055.8 -03388.1 -07.4086 26275.2
 13 01 2013  02 46  -21.0207 26055.8 -03388.0 -07.4086 26275.1
 13 01 2013  02 47  -21.0206 26055.8 -03388.0 -07.4086 26275.2
 13 01 2013  02 48  -21.0205 26055.8 -03388.0 -07.4086 26275.1
 13 01 2013  02 49  -21.0203 26055.8 -03388.0 -07.4086 26275.1
 13 01 2013  02 50  -21.0200 26055.7 -03388.0 -07.4085 26275.0
 13 01 2013  02 51  -21.0197 26055.6 -03388.0 -07.4085 26275.0
 13 01 2013  02 52  -21.0197 26055.7 -03388.1 -07.4086 26275.1
 13 01 2013  02 53  -21.0196 26055.8 -03388.1 -07.4088 26275.2
 13 01 2013  02 54  -21.0197 26055.9 -03388.2 -07.4089 26275.2
 13 01 2013  02 55  -21.0199 26055.9 -03388.2 -07.4089 26275.2
 13 01 2013  02 56  -21.0199 26055.8 -03388.2 -07.4089 26275.2
 13 01 2013  02 57  -21.0200 26055.9 -03388.2 -07.4089 26275.2
 13 01 2013  02 58  -21.0200 26055.9 -03388.2 -07.4090 26275.2
 13 01 2013  02 59  -21.0200 26055.9 -03388.3 -07.4090 26275.3
 13 01 2013  03 00  -21.0199 26056.1 -03388.3 -07.4091 26275.4
 13 01 2013  03 01  -21.0199 26056.2 -03388.4 -07.4092 26275.6
 13 01 2013  03 02  -21.0199 26056.3 -03388.4 -07.4093 26275.7
 13 01 2013  03 03  -21.0199 26056.3 -03388.4 -07.4093 26275.7
 13 01 2013  03 04  -21.0200 26056.1 -03388.4 -07.4092 26275.5
 13 01 2013  03 05  -21.0201 26055.8 -03388.2 -07.4089 26275.2
 13 01 2013  03 06  -21.0204 26055.7 -03388.1 -07.4088 26275.0
 13 01 2013  03 07  -21.0207 26055.5 -03388.0 -07.4087 26274.8
 13 01 2013  03 08  -21.0209 26055.4 -03388.0 -07.4086 26274.7
 13 01 2013  03 09  -21.0211 26055.0 -03387.8 -07.4083 26274.3
 13 01 2013  03 10  -21.0210 26054.7 -03387.6 -07.4081 26274.0
 13 01 2013  03 11  -21.0209 26054.4 -03387.5 -07.4078 26273.7
 13 01 2013  03 12  -21.0209 26054.2 -03387.4 -07.4076 26273.4
 13 01 2013  03 13  -21.0210 26054.0 -03387.3 -07.4076 26273.3
 13 01 2013  03 14  -21.0210 26053.8 -03387.3 -07.4075 26273.1
 13 01 2013  03 15  -21.0210 26053.5 -03387.2 -07.4074 26272.8
 13 01 2013  03 16  -21.0209 26053.3 -03387.1 -07.4073 26272.5
 13 01 2013  03 17  -21.0209 26053.0 -03387.0 -07.4071 26272.2
 13 01 2013  03 18  -21.0209 26052.7 -03386.9 -07.4070 26272.0
 13 01 2013  03 19  -21.0211 26052.6 -03386.9 -07.4071 26271.9
 13 01 2013  03 20  -21.0213 26052.6 -03387.0 -07.4072 26271.8
 13 01 2013  03 21  -21.0216 26052.6 -03387.0 -07.4073 26271.8
 13 01 2013  03 22  -21.0219 26052.6 -03387.1 -07.4075 26271.8
 13 01 2013  03 23  -21.0220 26052.7 -03387.2 -07.4076 26271.9
 13 01 2013  03 24  -21.0222 26052.8 -03387.3 -07.4078 26272.1
 13 01 2013  03 25  -21.0225 26053.1 -03387.5 -07.4081 26272.4
 13 01 2013  03 26  -21.0226 26053.3 -03387.6 -07.4084 26272.6
 13 01 2013  03 27  -21.0227 26053.5 -03387.7 -07.4086 26272.8
 13 01 2013  03 28  -21.0227 26053.5 -03387.7 -07.4086 26272.8
 13 01 2013  03 29  -21.0227 26053.6 -03387.8 -07.4087 26273.0
 13 01 2013  03 30  -21.0226 26053.7 -03387.9 -07.4088 26273.0
 13 01 2013  03 31  -21.0223 26053.8 -03387.9 -07.4089 26273.1
 13 01 2013  03 32  -21.0222 26054.0 -03388.0 -07.4090 26273.3
 13 01 2013  03 33  -21.0220 26054.0 -03388.1 -07.4092 26273.4
 13 01 2013  03 34  -21.0218 26054.1 -03388.1 -07.4092 26273.5
 13 01 2013  03 35  -21.0215 26054.0 -03388.1 -07.4092 26273.4
 13 01 2013  03 36  -21.0211 26053.9 -03388.1 -07.4092 26273.3
 13 01 2013  03 37  -21.0209 26053.9 -03388.1 -07.4092 26273.2
 13 01 2013  03 38  -21.0207 26053.9 -03388.1 -07.4093 26273.3
 13 01 2013  03 39  -21.0206 26054.1 -03388.2 -07.4094 26273.4
 13 01 2013  03 40  -21.0206 26054.0 -03388.2 -07.4095 26273.4
 13 01 2013  03 41  -21.0205 26054.1 -03388.3 -07.4096 26273.5
 13 01 2013  03 42  -21.0204 26054.0 -03388.3 -07.4097 26273.4
 13 01 2013  03 43  -21.0202 26054.0 -03388.3 -07.4097 26273.4
 13 01 2013  03 44  -21.0200 26053.9 -03388.3 -07.4097 26273.3
 13 01 2013  03 45  -21.0199 26053.9 -03388.3 -07.4098 26273.3
 13 01 2013  03 46  -21.0198 26053.8 -03388.3 -07.4098 26273.2
 13 01 2013  03 47  -21.0198 26053.8 -03388.4 -07.4099 26273.2
 13 01 2013  03 48  -21.0198 26053.7 -03388.4 -07.4099 26273.1
 13 01 2013  03 49  -21.0198 26053.7 -03388.4 -07.4099 26273.1
 13 01 2013  03 50  -21.0198 26053.7 -03388.4 -07.4100 26273.1
 13 01 2013  03 51  -21.0199 26053.7 -03388.5 -07.4101 26273.1
 13 01 2013  03 52  -21.0200 26053.6 -03388.5 -07.4102 26273.1
 13 01 2013  03 53  -21.0200 26053.6 -03388.5 -07.4102 26273.0
 13 01 2013  03 54  -21.0201 26053.5 -03388.5 -07.4102 26273.0
 13 01 2013  03 55  -21.0202 26053.5 -03388.5 -07.4102 26272.9
 13 01 2013  03 56  -21.0202 26053.5 -03388.5 -07.4103 26272.9
 13 01 2013  03 57  -21.0202 26053.4 -03388.5 -07.4103 26272.8
 13 01 2013  03 58  -21.0201 26053.2 -03388.4 -07.4102 26272.6
 13 01 2013  03 59  -21.0200 26053.1 -03388.4 -07.4101 26272.6
 13 01 2013  04 00  -21.0198 26053.0 -03388.3 -07.4100 26272.4
 13 01 2013  04 01  -21.0198 26052.9 -03388.4 -07.4101 26272.4
 13 01 2013  04 02  -21.0198 26052.8 -03388.4 -07.4101 26272.3
 13 01 2013  04 03  -21.0199 26052.8 -03388.4 -07.4102 26272.3
 13 01 2013  04 04  -21.0200 26052.7 -03388.4 -07.4102 26272.1
 13 01 2013  04 05  -21.0200 26052.7 -03388.4 -07.4103 26272.1
 13 01 2013  04 06  -21.0201 26052.7 -03388.5 -07.4104 26272.1
 13 01 2013  04 07  -21.0203 26052.7 -03388.5 -07.4104 26272.1
 13 01 2013  04 08  -21.0206 26052.7 -03388.5 -07.4105 26272.1
 13 01 2013  04 09  -21.0207 26052.6 -03388.5 -07.4105 26272.1
 13 01 2013  04 10  -21.0209 26052.5 -03388.5 -07.4105 26272.0
 13 01 2013  04 11  -21.0209 26052.6 -03388.5 -07.4105 26272.0
 13 01 2013  04 12  -21.0210 26052.5 -03388.5 -07.4105 26271.9
 13 01 2013  04 13  -21.0211 26052.4 -03388.5 -07.4105 26271.8
 13 01 2013  04 14  -21.0211 26052.3 -03388.4 -07.4104 26271.7
 13 01 2013  04 15  -21.0212 26052.3 -03388.4 -07.4104 26271.7
 13 01 2013  04 16  -21.0214 26052.2 -03388.4 -07.4104 26271.6
 13 01 2013  04 17  -21.0217 26052.3 -03388.5 -07.4106 26271.7
 13 01 2013  04 18  -21.0219 26052.3 -03388.5 -07.4107 26271.8
 13 01 2013  04 19  -21.0220 26052.2 -03388.5 -07.4106 26271.6
 13 01 2013  04 20  -21.0222 26052.2 -03388.5 -07.4106 26271.7
 13 01 2013  04 21  -21.0224 26052.3 -03388.5 -07.4106 26271.7
 13 01 2013  04 22  -21.0225 26052.2 -03388.5 -07.4106 26271.7
 13 01 2013  04 23  -21.0228 26052.2 -03388.5 -07.4106 26271.7
 13 01 2013  04 24  -21.0229 26052.3 -03388.6 -07.4107 26271.7
 13 01 2013  04 25  -21.0231 26052.3 -03388.6 -07.4107 26271.7
 13 01 2013  04 26  -21.0230 26052.2 -03388.5 -07.4107 26271.7
 13 01 2013  04 27  -21.0231 26052.1 -03388.5 -07.4106 26271.6
 13 01 2013  04 28  -21.0232 26052.3 -03388.5 -07.4106 26271.7
 13 01 2013  04 29  -21.0233 26052.2 -03388.5 -07.4106 26271.6
 13 01 2013  04 30  -21.0236 26052.4 -03388.6 -07.4107 26271.9
 13 01 2013  04 31  -21.0236 26052.3 -03388.6 -07.4107 26271.8
 13 01 2013  04 32  -21.0238 26052.3 -03388.6 -07.4107 26271.7
 13 01 2013  04 33  -21.0238 26052.3 -03388.5 -07.4107 26271.7
 13 01 2013  04 34  -21.0238 26052.2 -03388.5 -07.4106 26271.7
 13 01 2013  04 35  -21.0239 26052.2 -03388.5 -07.4105 26271.6
 13 01 2013  04 36  -21.0240 26052.1 -03388.5 -07.4106 26271.6
 13 01 2013  04 37  -21.0242 26052.2 -03388.5 -07.4106 26271.6
 13 01 2013  04 38  -21.0243 26052.2 -03388.5 -07.4106 26271.6
 13 01 2013  04 39  -21.0243 26052.4 -03388.6 -07.4108 26271.8
 13 01 2013  04 40  -21.0242 26052.7 -03388.8 -07.4110 26272.2
 13 01 2013  04 41  -21.0242 26053.2 -03389.0 -07.4113 26272.7
 13 01 2013  04 42  -21.0246 26053.1 -03389.0 -07.4114 26272.6
 13 01 2013  04 43  -21.0246 26053.6 -03389.2 -07.4116 26273.1
 13 01 2013  04 44  -21.0246 26053.4 -03389.0 -07.4115 26272.9
 13 01 2013  04 45  -21.0244 26053.5 -03389.1 -07.4114 26273.0
 13 01 2013  04 46  -21.0243 26053.4 -03389.0 -07.4113 26272.9
 13 01 2013  04 47  -21.0247 26053.4 -03388.9 -07.4112 26272.8
 13 01 2013  04 48  -21.0248 26053.4 -03389.0 -07.4113 26272.9
 13 01 2013  04 49  -21.0252 26053.6 -03389.1 -07.4114 26273.1
 13 01 2013  04 50  -21.0253 26053.8 -03389.2 -07.4116 26273.3
 13 01 2013  04 51  -21.0256 26053.8 -03389.1 -07.4115 26273.3
 13 01 2013  04 52  -21.0259 26054.0 -03389.2 -07.4116 26273.5
 13 01 2013  04 53  -21.0259 26054.0 -03389.2 -07.4115 26273.5
 13 01 2013  04 54  -21.0258 26054.4 -03389.3 -07.4117 26274.0
 13 01 2013  04 55  -21.0257 26054.5 -03389.4 -07.4118 26274.0
 13 01 2013  04 56  -21.0258 26054.5 -03389.3 -07.4117 26274.0
 13 01 2013  04 57  -21.0259 26055.0 -03389.5 -07.4121 26274.5
 13 01 2013  04 58  -21.0262 26055.0 -03389.5 -07.4120 26274.5
 13 01 2013  04 59  -21.0264 26055.3 -03389.6 -07.4122 26274.9
 13 01 2013  05 00  -21.0265 26055.6 -03389.7 -07.4122 26275.2
 13 01 2013  05 01  -21.0267 26055.6 -03389.7 -07.4121 26275.2
 13 01 2013  05 02  -21.0267 26055.8 -03389.6 -07.4120 26275.3
 13 01 2013  05 03  -21.0269 26055.8 -03389.6 -07.4120 26275.3
 13 01 2013  05 04  -21.0269 26056.0 -03389.7 -07.4121 26275.6
 13 01 2013  05 05  -21.0271 26056.2 -03389.7 -07.4120 26275.7
 13 01 2013  05 06  -21.0274 26056.4 -03389.8 -07.4122 26275.9
 13 01 2013  05 07  -21.0276 26056.5 -03389.8 -07.4122 26276.0
 13 01 2013  05 08  -21.0275 26056.7 -03389.9 -07.4123 26276.3
 13 01 2013  05 09  -21.0273 26056.8 -03389.8 -07.4122 26276.3
 13 01 2013  05 10  -21.0272 26057.0 -03389.9 -07.4123 26276.6
 13 01 2013  05 11  -21.0271 26056.9 -03389.8 -07.4121 26276.5
 13 01 2013  05 12  -21.0268 26056.9 -03389.7 -07.4120 26276.4
 13 01 2013  05 13  -21.0266 26056.7 -03389.6 -07.4116 26276.2
 13 01 2013  05 14  -21.0262 26055.9 -03389.2 -07.4110 26275.4
 13 01 2013  05 15  -21.0258 26055.9 -03389.0 -07.4107 26275.3
 13 01 2013  05 16  -21.0259 26056.0 -03389.1 -07.4109 26275.5
 13 01 2013  05 17  -21.0256 26056.2 -03389.3 -07.4112 26275.7
 13 01 2013  05 18  -21.0254 26056.1 -03389.3 -07.4112 26275.6
 13 01 2013  05 19  -21.0249 26056.0 -03389.2 -07.4111 26275.5
 13 01 2013  05 20  -21.0246 26055.8 -03389.2 -07.4110 26275.3
 13 01 2013  05 21  -21.0245 26055.7 -03389.1 -07.4110 26275.2
 13 01 2013  05 22  -21.0244 26055.7 -03389.1 -07.4110 26275.2
 13 01 2013  05 23  -21.0243 26055.8 -03389.2 -07.4111 26275.3
 13 01 2013  05 24  -21.0250 26055.7 -03389.2 -07.4112 26275.2
 13 01 2013  05 25  -21.0252 26056.1 -03389.4 -07.4115 26275.6
 13 01 2013  05 26  -21.0253 26056.0 -03389.4 -07.4115 26275.5
 13 01 2013  05 27  -21.0253 26055.9 -03389.3 -07.4113 26275.4
 13 01 2013  05 28  -21.0257 26055.9 -03389.3 -07.4113 26275.5
 13 01 2013  05 29  -21.0259 26056.1 -03389.4 -07.4114 26275.6
 13 01 2013  05 30  -21.0263 26056.3 -03389.5 -07.4116 26275.8
 13 01 2013  05 31  -21.0263 26056.2 -03389.5 -07.4115 26275.8
 13 01 2013  05 32  -21.0261 26056.2 -03389.4 -07.4114 26275.7
 13 01 2013  05 33  -21.0262 26056.2 -03389.3 -07.4113 26275.7
 13 01 2013  05 34  -21.0262 26056.4 -03389.4 -07.4114 26275.9
 13 01 2013  05 35  -21.0262 26056.3 -03389.4 -07.4114 26275.8
 13 01 2013  05 36  -21.0264 26056.6 -03389.5 -07.4115 26276.1
 13 01 2013  05 37  -21.0265 26056.5 -03389.5 -07.4115 26276.0
 13 01 2013  05 38  -21.0262 26056.4 -03389.3 -07.4112 26275.9
 13 01 2013  05 39  -21.0259 26056.3 -03389.2 -07.4110 26275.8
 13 01 2013  05 40  -21.0259 26056.2 -03389.2 -07.4110 26275.7
 13 01 2013  05 41  -21.0262 26056.2 -03389.2 -07.4110 26275.7
 13 01 2013  05 42  -21.0262 26056.2 -03389.2 -07.4110 26275.7
 13 01 2013  05 43  -21.0263 26056.2 -03389.2 -07.4110 26275.7
 13 01 2013  05 44  -21.0263 26056.2 -03389.2 -07.4109 26275.7
 13 01 2013  05 45  -21.0262 26056.2 -03389.2 -07.4109 26275.7
 13 01 2013  05 46  -21.0264 26056.2 -03389.2 -07.4109 26275.7
 13 01 2013  05 47  -21.0265 26056.4 -03389.3 -07.4111 26275.9
 13 01 2013  05 48  -21.0265 26056.4 -03389.3 -07.4111 26276.0
 13 01 2013  05 49  -21.0269 26056.7 -03389.4 -07.4113 26276.2
 13 01 2013  05 50  -21.0272 26056.7 -03389.4 -07.4113 26276.2
 13 01 2013  05 51  -21.0273 26056.7 -03389.4 -07.4113 26276.2
 13 01 2013  05 52  -21.0273 26056.8 -03389.4 -07.4112 26276.3
 13 01 2013  05 53  -21.0270 26056.8 -03389.3 -07.4111 26276.3
 13 01 2013  05 54  -21.0268 26056.6 -03389.2 -07.4109 26276.1
 13 01 2013  05 55  -21.0264 26056.4 -03389.1 -07.4107 26275.9
 13 01 2013  05 56  -21.0259 26056.2 -03388.9 -07.4104 26275.6
 13 01 2013  05 57  -21.0254 26056.0 -03388.8 -07.4103 26275.4
 13 01 2013  05 58  -21.0250 26055.9 -03388.8 -07.4102 26275.3
 13 01 2013  05 59  -21.0247 26055.8 -03388.8 -07.4102 26275.2
 13 01 2013  06 00  -21.0245 26055.7 -03388.8 -07.4102 26275.1
 13 01 2013  06 01  -21.0244 26055.6 -03388.8 -07.4102 26275.1
 13 01 2013  06 02  -21.0246 26055.8 -03388.9 -07.4104 26275.2
 13 01 2013  06 03  -21.0246 26055.8 -03389.0 -07.4106 26275.3
 13 01 2013  06 04  -21.0246 26055.9 -03389.0 -07.4107 26275.3
 13 01 2013  06 05  -21.0247 26056.1 -03389.2 -07.4109 26275.6
 13 01 2013  06 06  -21.0247 26056.1 -03389.2 -07.4109 26275.6
 13 01 2013  06 07  -21.0247 26056.3 -03389.3 -07.4111 26275.8
 13 01 2013  06 08  -21.0247 26056.3 -03389.3 -07.4111 26275.8
 13 01 2013  06 09  -21.0246 26056.3 -03389.2 -07.4111 26275.8
 13 01 2013  06 10  -21.0248 26056.3 -03389.3 -07.4111 26275.8
 13 01 2013  06 11  -21.0247 26056.4 -03389.3 -07.4111 26275.9
 13 01 2013  06 12  -21.0245 26056.1 -03389.1 -07.4109 26275.6
 13 01 2013  06 13  -21.0243 26055.9 -03389.0 -07.4107 26275.4
 13 01 2013  06 14  -21.0239 26055.7 -03388.9 -07.4105 26275.1
 13 01 2013  06 15  -21.0237 26055.7 -03388.9 -07.4104 26275.1
 13 01 2013  06 16  -21.0233 26055.4 -03388.8 -07.4104 26274.9
 13 01 2013  06 17  -21.0232 26055.4 -03388.8 -07.4103 26274.8
 13 01 2013  06 18  -21.0230 26055.1 -03388.7 -07.4102 26274.6
 13 01 2013  06 19  -21.0227 26055.0 -03388.6 -07.4101 26274.4
 13 01 2013  06 20  -21.0226 26054.8 -03388.6 -07.4101 26274.3
 13 01 2013  06 21  -21.0225 26054.7 -03388.6 -07.4101 26274.2
 13 01 2013  06 22  -21.0227 26054.7 -03388.7 -07.4102 26274.1
 13 01 2013  06 23  -21.0231 26054.8 -03388.7 -07.4104 26274.2
 13 01 2013  06 24  -21.0233 26054.8 -03388.8 -07.4106 26274.3
 13 01 2013  06 25  -21.0237 26054.9 -03388.9 -07.4107 26274.4
 13 01 2013  06 26  -21.0240 26055.0 -03389.0 -07.4108 26274.4
 13 01 2013  06 27  -21.0242 26054.9 -03388.9 -07.4108 26274.4
 13 01 2013  06 28  -21.0245 26054.8 -03388.9 -07.4107 26274.3
 13 01 2013  06 29  -21.0246 26054.8 -03388.8 -07.4106 26274.3
 13 01 2013  06 30  -21.0245 26054.6 -03388.8 -07.4105 26274.1
 13 01 2013  06 31  -21.0243 26054.6 -03388.7 -07.4104 26274.0
 13 01 2013  06 32  -21.0241 26054.4 -03388.7 -07.4103 26273.9
 13 01 2013  06 33  -21.0237 26054.5 -03388.7 -07.4103 26273.9
 13 01 2013  06 34  -21.0235 26054.6 -03388.8 -07.4105 26274.1
 13 01 2013  06 35  -21.0236 26054.8 -03388.9 -07.4108 26274.3
 13 01 2013  06 36  -21.0238 26055.1 -03389.1 -07.4111 26274.6
 13 01 2013  06 37  -21.0240 26055.5 -03389.3 -07.4115 26275.0
 13 01 2013  06 38  -21.0244 26055.9 -03389.6 -07.4119 26275.5
 13 01 2013  06 39  -21.0252 26056.4 -03389.9 -07.4123 26276.0
 13 01 2013  06 40  -21.0257 26056.9 -03390.1 -07.4126 26276.5
 13 01 2013  06 41  -21.0263 26057.4 -03390.3 -07.4130 26277.1
 13 01 2013  06 42  -21.0267 26057.7 -03390.4 -07.4131 26277.4
 13 01 2013  06 43  -21.0268 26057.9 -03390.4 -07.4131 26277.6
 13 01 2013  06 44  -21.0264 26057.8 -03390.2 -07.4127 26277.4
 13 01 2013  06 45  -21.0257 26057.4 -03389.9 -07.4121 26277.0
 13 01 2013  06 46  -21.0231 26056.7 -03389.3 -07.4112 26276.2
 13 01 2013  06 47  -21.0206 26055.7 -03388.7 -07.4100 26275.1
 13 01 2013  06 48  -21.0196 26055.3 -03388.5 -07.4097 26274.7
 13 01 2013  06 49  -21.0191 26055.0 -03388.5 -07.4098 26274.4
 13 01 2013  06 50  -21.0190 26055.0 -03388.7 -07.4101 26274.5
 13 01 2013  06 51  -21.0190 26055.1 -03388.8 -07.4105 26274.6
 13 01 2013  06 52  -21.0191 26055.2 -03389.0 -07.4108 26274.7
 13 01 2013  06 53  -21.0190 26055.4 -03389.2 -07.4112 26274.9
 13 01 2013  06 54  -21.0188 26055.3 -03389.2 -07.4113 26274.8
 13 01 2013  06 55  -21.0185 26055.2 -03389.2 -07.4113 26274.7
 13 01 2013  06 56  -21.0187 26055.3 -03389.3 -07.4114 26274.8
 13 01 2013  06 57  -21.0190 26055.4 -03389.4 -07.4116 26274.9
 13 01 2013  06 58  -21.0193 26055.5 -03389.5 -07.4118 26275.0
 13 01 2013  06 59  -21.0194 26055.7 -03389.6 -07.4120 26275.2
 13 01 2013  07 00  -21.0199 26055.7 -03389.6 -07.4121 26275.2
 13 01 2013  07 01  -21.0201 26055.8 -03389.7 -07.4122 26275.3
 13 01 2013  07 02  -21.0206 26055.7 -03389.6 -07.4120 26275.3
 13 01 2013  07 03  -21.0212 26055.9 -03389.8 -07.4123 26275.5
 13 01 2013  07 04  -21.0220 26055.9 -03389.8 -07.4123 26275.5
 13 01 2013  07 05  -21.0223 26056.0 -03389.8 -07.4123 26275.6
 13 01 2013  07 06  -21.0222 26056.1 -03389.7 -07.4122 26275.6
 13 01 2013  07 07  -21.0222 26056.2 -03389.8 -07.4123 26275.8
 13 01 2013  07 08  -21.0225 26056.3 -03389.8 -07.4122 26275.9
 13 01 2013  07 09  -21.0231 26056.6 -03389.9 -07.4124 26276.1
 13 01 2013  07 10  -21.0237 26056.8 -03390.1 -07.4127 26276.5
 13 01 2013  07 11  -21.0241 26056.9 -03390.0 -07.4126 26276.5
 13 01 2013  07 12  -21.0241 26056.9 -03390.0 -07.4125 26276.5
 13 01 2013  07 13  -21.0236 26056.8 -03389.8 -07.4122 26276.3
 13 01 2013  07 14  -21.0233 26056.8 -03389.8 -07.4121 26276.4
 13 01 2013  07 15  -21.0229 26056.7 -03389.7 -07.4119 26276.2
 13 01 2013  07 16  -21.0227 26056.9 -03389.8 -07.4121 26276.4
 13 01 2013  07 17  -21.0224 26056.9 -03389.8 -07.4121 26276.5
 13 01 2013  07 18  -21.0221 26057.0 -03389.9 -07.4122 26276.6
 13 01 2013  07 19  -21.0216 26056.9 -03389.8 -07.4121 26276.5
 13 01 2013  07 20  -21.0210 26057.0 -03389.8 -07.4122 26276.6
 13 01 2013  07 21  -21.0204 26056.8 -03389.8 -07.4121 26276.4
 13 01 2013  07 22  -21.0197 26056.7 -03389.7 -07.4120 26276.2
 13 01 2013  07 23  -21.0192 26056.5 -03389.6 -07.4118 26276.0
 13 01 2013  07 24  -21.0184 26056.2 -03389.5 -07.4117 26275.8
 13 01 2013  07 25  -21.0174 26056.0 -03389.4 -07.4116 26275.5
 13 01 2013  07 26  -21.0164 26055.8 -03389.4 -07.4116 26275.4
 13 01 2013  07 27  -21.0156 26055.8 -03389.5 -07.4118 26275.3
 13 01 2013  07 28  -21.0150 26056.0 -03389.7 -07.4121 26275.6
 13 01 2013  07 29  -21.0148 26056.3 -03390.0 -07.4126 26275.9
 13 01 2013  07 30  -21.0148 26056.6 -03390.2 -07.4131 26276.2
 13 01 2013  07 31  -21.0154 26056.9 -03390.5 -07.4136 26276.5
 13 01 2013  07 32  -21.0155 26057.0 -03390.7 -07.4139 26276.7
 13 01 2013  07 33  -21.0156 26056.9 -03390.7 -07.4139 26276.6
 13 01 2013  07 34  -21.0158 26056.8 -03390.6 -07.4139 26276.4
 13 01 2013  07 35  -21.0157 26056.5 -03390.5 -07.4138 26276.1
 13 01 2013  07 36  -21.0154 26056.2 -03390.4 -07.4137 26275.9
 13 01 2013  07 37  -21.0150 26056.0 -03390.4 -07.4135 26275.6
 13 01 2013  07 38  -21.0149 26055.8 -03390.3 -07.4136 26275.5
 13 01 2013  07 39  -21.0147 26055.8 -03390.4 -07.4136 26275.4
 13 01 2013  07 40  -21.0146 26055.8 -03390.4 -07.4138 26275.4
 13 01 2013  07 41  -21.0150 26055.8 -03390.6 -07.4141 26275.5
 13 01 2013  07 42  -21.0151 26056.0 -03390.8 -07.4145 26275.7
 13 01 2013  07 43  -21.0153 26056.1 -03390.9 -07.4147 26275.8
 13 01 2013  07 44  -21.0153 26056.0 -03390.9 -07.4148 26275.7
 13 01 2013  07 45  -21.0154 26056.0 -03390.9 -07.4148 26275.7
 13 01 2013  07 46  -21.0153 26056.1 -03391.0 -07.4150 26275.9
 13 01 2013  07 47  -21.0154 26056.0 -03391.1 -07.4151 26275.8
 13 01 2013  07 48  -21.0152 26056.1 -03391.1 -07.4151 26275.8
 13 01 2013  07 49  -21.0153 26056.1 -03391.2 -07.4153 26275.9
 13 01 2013  07 50  -21.0155 26056.3 -03391.2 -07.4154 26276.0
 13 01 2013  07 51  -21.0156 26056.4 -03391.3 -07.4155 26276.2
 13 01 2013  07 52  -21.0157 26056.4 -03391.4 -07.4156 26276.1
 13 01 2013  07 53  -21.0160 26056.4 -03391.5 -07.4158 26276.2
 13 01 2013  07 54  -21.0162 26056.4 -03391.4 -07.4158 26276.1
 13 01 2013  07 55  -21.0164 26056.3 -03391.5 -07.4159 26276.1
 13 01 2013  07 56  -21.0164 26056.2 -03391.4 -07.4157 26276.0
 13 01 2013  07 57  -21.0164 26056.1 -03391.3 -07.4156 26275.9
 13 01 2013  07 58  -21.0163 26056.1 -03391.4 -07.4157 26275.9
 13 01 2013  07 59  -21.0165 26056.0 -03391.4 -07.4158 26275.8
 13 01 2013  08 00  -21.0167 26056.1 -03391.5 -07.4159 26275.9
 13 01 2013  08 01  -21.0167 26056.0 -03391.5 -07.4159 26275.8
 13 01 2013  08 02  -21.0166 26056.0 -03391.5 -07.4160 26275.8
 13 01 2013  08 03  -21.0165 26055.9 -03391.5 -07.4160 26275.7
 13 01 2013  08 04  -21.0163 26055.9 -03391.5 -07.4161 26275.7
 13 01 2013  08 05  -21.0161 26055.7 -03391.5 -07.4161 26275.5
 13 01 2013  08 06  -21.0159 26055.7 -03391.5 -07.4160 26275.5
 13 01 2013  08 07  -21.0158 26055.7 -03391.5 -07.4161 26275.5
 13 01 2013  08 08  -21.0159 26055.8 -03391.6 -07.4163 26275.6
 13 01 2013  08 09  -21.0162 26055.8 -03391.6 -07.4163 26275.6
 13 01 2013  08 10  -21.0164 26055.9 -03391.7 -07.4165 26275.7
 13 01 2013  08 11  -21.0165 26055.8 -03391.7 -07.4166 26275.6
 13 01 2013  08 12  -21.0166 26055.8 -03391.7 -07.4166 26275.6
 13 01 2013  08 13  -21.0166 26055.8 -03391.7 -07.4166 26275.6
 13 01 2013  08 14  -21.0165 26055.7 -03391.7 -07.4166 26275.5
 13 01 2013  08 15  -21.0164 26055.7 -03391.7 -07.4166 26275.5
 13 01 2013  08 16  -21.0164 26055.7 -03391.7 -07.4165 26275.5
 13 01 2013  08 17  -21.0163 26055.7 -03391.7 -07.4166 26275.5
 13 01 2013  08 18  -21.0164 26055.6 -03391.7 -07.4166 26275.4
 13 01 2013  08 19  -21.0165 26055.6 -03391.8 -07.4168 26275.5
 13 01 2013  08 20  -21.0168 26055.7 -03391.9 -07.4169 26275.6
 13 01 2013  08 21  -21.0169 26055.8 -03392.0 -07.4171 26275.7
 13 01 2013  08 22  -21.0172 26055.9 -03392.0 -07.4171 26275.7
 13 01 2013  08 23  -21.0172 26056.1 -03392.0 -07.4172 26275.9
 13 01 2013  08 24  -21.0172 26056.1 -03392.1 -07.4172 26275.9
 13 01 2013  08 25  -21.0172 26056.2 -03392.1 -07.4173 26276.0
 13 01 2013  08 26  -21.0172 26056.3 -03392.2 -07.4174 26276.2
 13 01 2013  08 27  -21.0172 26056.3 -03392.2 -07.4174 26276.2
 13 01 2013  08 28  -21.0173 26056.5 -03392.3 -07.4176 26276.4
 13 01 2013  08 29  -21.0177 26056.6 -03392.3 -07.4176 26276.5
 13 01 2013  08 30  -21.0179 26056.6 -03392.3 -07.4176 26276.5
 13 01 2013  08 31  -21.0182 26056.7 -03392.3 -07.4176 26276.6
 13 01 2013  08 32  -21.0186 26056.8 -03392.4 -07.4177 26276.7
 13 01 2013  08 33  -21.0191 26056.8 -03392.4 -07.4177 26276.7
 13 01 2013  08 34  -21.0195 26056.7 -03392.3 -07.4176 26276.6
 13 01 2013  08 35  -21.0196 26056.7 -03392.2 -07.4174 26276.6
 13 01 2013  08 36  -21.0194 26056.7 -03392.1 -07.4172 26276.6
 13 01 2013  08 37  -21.0190 26056.7 -03392.0 -07.4170 26276.5
 13 01 2013  08 38  -21.0184 26056.7 -03391.9 -07.4168 26276.5
 13 01 2013  08 39  -21.0181 26056.6 -03391.8 -07.4166 26276.4
 13 01 2013  08 40  -21.0179 26056.5 -03391.8 -07.4165 26276.4
 13 01 2013  08 41  -21.0182 26056.5 -03391.8 -07.4165 26276.3
 13 01 2013  08 42  -21.0182 26056.5 -03391.8 -07.4165 26276.4
 13 01 2013  08 43  -21.0181 26056.4 -03391.7 -07.4164 26276.3
 13 01 2013  08 44  -21.0180 26056.5 -03391.7 -07.4164 26276.3
 13 01 2013  08 45  -21.0178 26056.4 -03391.7 -07.4163 26276.2
 13 01 2013  08 46  -21.0176 26056.4 -03391.7 -07.4163 26276.2
 13 01 2013  08 47  -21.0171 26056.4 -03391.7 -07.4163 26276.2
 13 01 2013  08 48  -21.0169 26056.4 -03391.8 -07.4165 26276.3
 13 01 2013  08 49  -21.0170 26056.5 -03391.9 -07.4168 26276.3
 13 01 2013  08 50  -21.0170 26056.6 -03392.1 -07.4171 26276.4
 13 01 2013  08 51  -21.0173 26056.6 -03392.2 -07.4173 26276.5
 13 01 2013  08 52  -21.0174 26056.4 -03392.2 -07.4175 26276.3
 13 01 2013  08 53  -21.0173 26056.1 -03392.2 -07.4175 26276.0
 13 01 2013  08 54  -21.0172 26055.9 -03392.2 -07.4176 26275.8
 13 01 2013  08 55  -21.0173 26055.6 -03392.3 -07.4178 26275.5
 13 01 2013  08 56  -21.0176 26055.5 -03392.4 -07.4181 26275.4
 13 01 2013  08 57  -21.0181 26055.4 -03392.5 -07.4184 26275.4
 13 01 2013  08 58  -21.0184 26055.2 -03392.6 -07.4186 26275.1
 13 01 2013  08 59  -21.0189 26054.8 -03392.6 -07.4187 26274.8
 13 01 2013  09 00  -21.0194 26054.6 -03392.6 -07.4188 26274.6
 13 01 2013  09 01  -21.0203 26054.6 -03392.7 -07.4190 26274.5
 13 01 2013  09 02  -21.0211 26054.5 -03392.8 -07.4193 26274.5
 13 01 2013  09 03  -21.0218 26054.5 -03392.9 -07.4195 26274.5
 13 01 2013  09 04  -21.0221 26054.4 -03393.0 -07.4196 26274.4
 13 01 2013  09 05  -21.0227 26054.4 -03393.0 -07.4198 26274.4
 13 01 2013  09 06  -21.0236 26054.5 -03393.2 -07.4201 26274.5
 13 01 2013  09 07  -21.0246 26054.8 -03393.4 -07.4204 26274.8
 13 01 2013  09 08  -21.0258 26055.0 -03393.5 -07.4206 26275.1
 13 01 2013  09 09  -21.0271 26055.4 -03393.6 -07.4208 26275.5
 13 01 2013  09 10  -21.0281 26055.6 -03393.7 -07.4208 26275.7
 13 01 2013  09 11  -21.0288 26055.7 -03393.6 -07.4207 26275.7
 13 01 2013  09 12  -21.0297 26055.7 -03393.5 -07.4205 26275.7
 13 01 2013  09 13  -21.0304 26055.6 -03393.4 -07.4203 26275.7
 13 01 2013  09 14  -21.0313 26055.8 -03393.4 -07.4202 26275.8
 13 01 2013  09 15  -21.0324 26055.9 -03393.4 -07.4201 26275.9
 13 01 2013  09 16  -21.0330 26055.8 -03393.2 -07.4197 26275.8
 13 01 2013  09 17  -21.0337 26055.7 -03393.1 -07.4195 26275.7
 13 01 2013  09 18  -21.0342 26055.8 -03392.9 -07.4192 26275.7
 13 01 2013  09 19  -21.0347 26055.8 -03392.8 -07.4189 26275.8
 13 01 2013  09 20  -21.0352 26055.9 -03392.7 -07.4187 26275.8
 13 01 2013  09 21  -21.0358 26056.0 -03392.6 -07.4185 26275.9
 13 01 2013  09 22  -21.0364 26056.2 -03392.6 -07.4184 26276.2
 13 01 2013  09 23  -21.0371 26056.5 -03392.6 -07.4184 26276.4
 13 01 2013  09 24  -21.0379 26056.7 -03392.6 -07.4182 26276.7
 13 01 2013  09 25  -21.0386 26056.7 -03392.5 -07.4180 26276.6
 13 01 2013  09 26  -21.0393 26056.8 -03392.4 -07.4177 26276.7
 13 01 2013  09 27  -21.0403 26056.9 -03392.3 -07.4176 26276.8
 13 01 2013  09 28  -21.0413 26057.0 -03392.3 -07.4174 26276.9
 13 01 2013  09 29  -21.0424 26057.1 -03392.1 -07.4171 26277.0
 13 01 2013  09 30  -21.0432 26057.2 -03392.0 -07.4167 26277.0
 13 01 2013  09 31  -21.0437 26057.0 -03391.7 -07.4162 26276.9
 13 01 2013  09 32  -21.0439 26056.8 -03391.4 -07.4156 26276.6
 13 01 2013  09 33  -21.0445 26056.7 -03391.2 -07.4153 26276.4
 13 01 2013  09 34  -21.0450 26056.6 -03391.1 -07.4150 26276.3
 13 01 2013  09 35  -21.0452 26056.4 -03390.9 -07.4146 26276.2
 13 01 2013  09 36  -21.0454 26056.3 -03390.7 -07.4143 26276.0
 13 01 2013  09 37  -21.0451 26056.1 -03390.5 -07.4139 26275.7
 13 01 2013  09 38  -21.0450 26056.0 -03390.4 -07.4137 26275.7
 13 01 2013  09 39  -21.0454 26056.1 -03390.4 -07.4136 26275.8
 13 01 2013  09 40  -21.0462 26056.5 -03390.4 -07.4136 26276.1
 13 01 2013  09 41  -21.0471 26056.7 -03390.5 -07.4136 26276.4
 13 01 2013  09 42  -21.0478 26057.0 -03390.4 -07.4134 26276.7
 13 01 2013  09 43  -21.0488 26057.2 -03390.3 -07.4132 26276.9
 13 01 2013  09 44  -21.0491 26057.0 -03390.1 -07.4126 26276.6
 13 01 2013  09 45  -21.0495 26056.9 -03389.9 -07.4122 26276.5
 13 01 2013  09 46  -21.0499 26057.1 -03389.8 -07.4120 26276.6
 13 01 2013  09 47  -21.0506 26057.4 -03389.7 -07.4118 26276.9
 13 01 2013  09 48  -21.0512 26057.5 -03389.6 -07.4115 26277.1
 13 01 2013  09 49  -21.0518 26057.8 -03389.5 -07.4112 26277.3
 13 01 2013  09 50  -21.0523 26057.9 -03389.3 -07.4108 26277.4
 13 01 2013  09 51  -21.0526 26058.0 -03389.1 -07.4104 26277.5
 13 01 2013  09 52  -21.0529 26058.0 -03389.0 -07.4101 26277.4
 13 01 2013  09 53  -21.0529 26057.8 -03388.8 -07.4096 26277.2
 13 01 2013  09 54  -21.0535 26057.7 -03388.6 -07.4093 26277.1
 13 01 2013  09 55  -21.0536 26057.5 -03388.5 -07.4090 26276.9
 13 01 2013  09 56  -21.0542 26057.5 -03388.4 -07.4088 26276.8
 13 01 2013  09 57  -21.0547 26057.4 -03388.3 -07.4087 26276.8
 13 01 2013  09 58  -21.0556 26057.3 -03388.2 -07.4085 26276.7
 13 01 2013  09 59  -21.0561 26057.3 -03388.1 -07.4083 26276.6
 13 01 2013  10 00  -21.0563 26057.2 -03387.9 -07.4079 26276.5
 13 01 2013  10 01  -21.0569 26057.1 -03387.8 -07.4077 26276.4
 13 01 2013  10 02  -21.0571 26056.9 -03387.6 -07.4073 26276.2
 13 01 2013  10 03  -21.0578 26056.8 -03387.4 -07.4070 26276.0
 13 01 2013  10 04  -21.0579 26056.7 -03387.3 -07.4067 26276.0
 13 01 2013  10 05  -21.0587 26056.8 -03387.2 -07.4064 26276.1
 13 01 2013  10 06  -21.0590 26056.9 -03387.0 -07.4060 26276.1
 13 01 2013  10 07  -21.0592 26057.3 -03386.9 -07.4058 26276.5
 13 01 2013  10 08  -21.0595 26057.6 -03386.8 -07.4054 26276.8
 13 01 2013  10 09  -21.0591 26057.7 -03386.5 -07.4048 26276.9
 13 01 2013  10 10  -21.0590 26057.8 -03386.3 -07.4043 26276.9
 13 01 2013  10 11  -21.0586 26057.7 -03386.1 -07.4038 26276.8
 13 01 2013  10 12  -21.0583 26057.7 -03385.9 -07.4034 26276.7
 13 01 2013  10 13  -21.0580 26057.8 -03385.8 -07.4031 26276.8
 13 01 2013  10 14  -21.0581 26057.9 -03385.7 -07.4030 26277.0
 13 01 2013  10 15  -21.0576 26057.9 -03385.5 -07.4026 26276.9
 13 01 2013  10 16  -21.0577 26058.3 -03385.6 -07.4026 26277.3
 13 01 2013  10 17  -21.0577 26058.6 -03385.6 -07.4025 26277.6
 13 01 2013  10 18  -21.0579 26059.1 -03385.7 -07.4025 26278.1
 13 01 2013  10 19  -21.0580 26059.4 -03385.6 -07.4023 26278.4
 13 01 2013  10 20  -21.0581 26059.6 -03385.5 -07.4020 26278.6
 13 01 2013  10 21  -21.0584 26059.7 -03385.4 -07.4017 26278.7
 13 01 2013  10 22  -21.0588 26059.9 -03385.3 -07.4015 26278.8
 13 01 2013  10 23  -21.0590 26059.9 -03385.1 -07.4011 26278.9
 13 01 2013  10 24  -21.0591 26059.9 -03384.9 -07.4006 26278.8
 13 01 2013  10 25  -21.0590 26059.6 -03384.6 -07.4001 26278.5
 13 01 2013  10 26  -21.0587 26059.5 -03384.4 -07.3998 26278.3
 13 01 2013  10 27  -21.0583 26059.3 -03384.3 -07.3995 26278.1
 13 01 2013  10 28  -21.0580 26059.0 -03384.1 -07.3992 26277.9
 13 01 2013  10 29  -21.0579 26058.9 -03384.0 -07.3990 26277.7
 13 01 2013  10 30  -21.0578 26059.0 -03384.0 -07.3989 26277.8
 13 01 2013  10 31  -21.0582 26059.3 -03384.1 -07.3990 26278.1
 13 01 2013  10 32  -21.0585 26059.6 -03384.1 -07.3991 26278.4
 13 01 2013  10 33  -21.0581 26060.0 -03384.1 -07.3989 26278.8
 13 01 2013  10 34  -21.0582 26060.5 -03384.2 -07.3990 26279.3
 13 01 2013  10 35  -21.0579 26060.8 -03384.1 -07.3987 26279.6
 13 01 2013  10 36  -21.0581 26061.1 -03384.0 -07.3984 26279.9
 13 01 2013  10 37  -21.0586 26061.6 -03384.0 -07.3982 26280.4
 13 01 2013  10 38  -21.0587 26061.5 -03383.7 -07.3975 26280.3
 13 01 2013  10 39  -21.0589 26061.3 -03383.3 -07.3968 26280.0
 13 01 2013  10 40  -21.0586 26061.0 -03383.0 -07.3962 26279.7
 13 01 2013  10 41  -21.0580 26060.4 -03382.5 -07.3954 26279.0
 13 01 2013  10 42  -21.0570 26059.8 -03382.2 -07.3948 26278.4
 13 01 2013  10 43  -21.0567 26059.6 -03382.1 -07.3946 26278.2
 13 01 2013  10 44  -21.0560 26059.5 -03382.0 -07.3945 26278.0
 13 01 2013  10 45  -21.0555 26059.5 -03382.0 -07.3945 26278.1
 13 01 2013  10 46  -21.0550 26059.6 -03382.0 -07.3945 26278.1
 13 01 2013  10 47  -21.0552 26060.0 -03382.2 -07.3947 26278.6
 13 01 2013  10 48  -21.0560 26061.1 -03382.5 -07.3952 26279.7
 13 01 2013  10 49  -21.0565 26061.8 -03382.7 -07.3953 26280.4
 13 01 2013  10 50  -21.0566 26062.3 -03382.6 -07.3950 26280.9
 13 01 2013  10 51  -21.0569 26062.5 -03382.5 -07.3946 26281.1
 13 01 2013  10 52  -21.0566 26062.4 -03382.2 -07.3941 26280.9
 13 01 2013  10 53  -21.0559 26062.0 -03381.8 -07.3934 26280.5
 13 01 2013  10 54  -21.0554 26061.7 -03381.6 -07.3931 26280.1
 13 01 2013  10 55  -21.0554 26061.4 -03381.5 -07.3928 26279.9
 13 01 2013  10 56  -21.0555 26061.5 -03381.5 -07.3928 26279.9
 13 01 2013  10 57  -21.0556 26061.9 -03381.6 -07.3930 26280.3
 13 01 2013  10 58  -21.0559 26062.5 -03381.8 -07.3932 26281.0
 13 01 2013  10 59  -21.0563 26063.1 -03382.0 -07.3934 26281.6
 13 01 2013  11 00  -21.0564 26063.4 -03382.0 -07.3933 26281.9
 13 01 2013  11 01  -21.0566 26063.7 -03381.9 -07.3932 26282.2
 13 01 2013  11 02  -21.0563 26063.9 -03381.9 -07.3931 26282.4
 13 01 2013  11 03  -21.0560 26064.4 -03382.0 -07.3931 26282.9
 13 01 2013  11 04  -21.0556 26064.8 -03382.0 -07.3930 26283.3
 13 01 2013  11 05  -21.0550 26064.9 -03381.9 -07.3927 26283.4
 13 01 2013  11 06  -21.0549 26064.8 -03381.7 -07.3924 26283.2
 13 01 2013  11 07  -21.0545 26064.7 -03381.6 -07.3922 26283.2
 13 01 2013  11 08  -21.0545 26064.6 -03381.5 -07.3920 26283.1
 13 01 2013  11 09  -21.0539 26064.5 -03381.4 -07.3918 26283.0
 13 01 2013  11 10  -21.0535 26064.6 -03381.4 -07.3918 26283.0
 13 01 2013  11 11  -21.0534 26065.1 -03381.6 -07.3920 26283.5
 13 01 2013  11 12  -21.0531 26065.5 -03381.6 -07.3921 26284.0
 13 01 2013  11 13  -21.0536 26066.2 -03381.9 -07.3923 26284.7
 13 01 2013  11 14  -21.0538 26066.8 -03382.0 -07.3924 26285.2
 13 01 2013  11 15  -21.0537 26067.0 -03381.9 -07.3922 26285.5
 13 01 2013  11 16  -21.0536 26067.2 -03381.8 -07.3919 26285.7
 13 01 2013  11 17  -21.0535 26067.6 -03381.8 -07.3918 26286.1
 13 01 2013  11 18  -21.0533 26067.9 -03381.7 -07.3915 26286.3
 13 01 2013  11 19  -21.0535 26068.4 -03381.8 -07.3915 26286.8
 13 01 2013  11 20  -21.0533 26068.7 -03381.7 -07.3913 26287.1
 13 01 2013  11 21  -21.0536 26069.1 -03381.7 -07.3911 26287.5
 13 01 2013  11 22  -21.0537 26069.4 -03381.6 -07.3909 26287.8
 13 01 2013  11 23  -21.0536 26069.6 -03381.5 -07.3906 26288.0
 13 01 2013  11 24  -21.0536 26070.0 -03381.4 -07.3904 26288.3
 13 01 2013  11 25  -21.0534 26070.0 -03381.3 -07.3900 26288.4
 13 01 2013  11 26  -21.0537 26070.2 -03381.2 -07.3898 26288.6
 13 01 2013  11 27  -21.0533 26070.4 -03381.2 -07.3896 26288.8
 13 01 2013  11 28  -21.0532 26070.3 -03381.0 -07.3894 26288.7
 13 01 2013  11 29  -21.0535 26070.6 -03381.1 -07.3894 26289.0
 13 01 2013  11 30  -21.0535 26070.8 -03381.1 -07.3893 26289.1
 13 01 2013  11 31  -21.0534 26071.0 -03381.1 -07.3893 26289.3
 13 01 2013  11 32  -21.0533 26071.1 -03381.0 -07.3892 26289.5
 13 01 2013  11 33  -21.0534 26071.1 -03381.0 -07.3890 26289.4
 13 01 2013  11 34  -21.0534 26071.2 -03381.0 -07.3891 26289.6
 13 01 2013  11 35  -21.0535 26071.6 -03381.1 -07.3892 26289.9
 13 01 2013  11 36  -21.0538 26071.9 -03381.2 -07.3893 26290.3
 13 01 2013  11 37  -21.0539 26072.1 -03381.2 -07.3892 26290.5
 13 01 2013  11 38  -21.0542 26072.6 -03381.2 -07.3892 26291.0
 13 01 2013  11 39  -21.0538 26072.9 -03381.1 -07.3889 26291.2
 13 01 2013  11 40  -21.0536 26072.9 -03381.0 -07.3885 26291.2
 13 01 2013  11 41  -21.0538 26072.9 -03380.9 -07.3883 26291.2
 13 01 2013  11 42  -21.0538 26073.0 -03380.8 -07.3881 26291.2
 13 01 2013  11 43  -21.0540 26073.2 -03380.8 -07.3881 26291.5
 13 01 2013  11 44  -21.0539 26073.3 -03380.8 -07.3881 26291.6
 13 01 2013  11 45  -21.0540 26073.7 -03381.0 -07.3885 26292.0
 13 01 2013  11 46  -21.0539 26074.0 -03381.3 -07.3889 26292.4
 13 01 2013  11 47  -21.0539 26075.2 -03381.8 -07.3898 26293.6
 13 01 2013  11 48  -21.0537 26076.1 -03382.2 -07.3903 26294.6
 13 01 2013  11 49  -21.0540 26076.9 -03382.4 -07.3905 26295.3
 13 01 2013  11 50  -21.0542 26077.6 -03382.5 -07.3904 26296.0
 13 01 2013  11 51  -21.0540 26078.2 -03382.4 -07.3900 26296.7
 13 01 2013  11 52  -21.0540 26079.6 -03382.5 -07.3899 26298.0
 13 01 2013  11 53  -21.0531 26080.7 -03382.4 -07.3894 26299.1
 13 01 2013  11 54  -21.0528 26081.0 -03382.0 -07.3884 26299.3
 13 01 2013  11 55  -21.0537 26081.6 -03381.9 -07.3880 26299.9
 13 01 2013  11 56  -21.0539 26082.1 -03381.7 -07.3876 26300.4
 13 01 2013  11 57  -21.0536 26082.3 -03381.5 -07.3870 26300.6
 13 01 2013  11 58  -21.0533 26082.9 -03381.5 -07.3869 26301.2
 13 01 2013  11 59  -21.0529 26083.5 -03381.6 -07.3868 26301.7
 13 01 2013  12 00  -21.0524 26084.0 -03381.5 -07.3866 26302.3
 13 01 2013  12 01  -21.0523 26084.4 -03381.5 -07.3864 26302.7
 13 01 2013  12 02  -21.0525 26084.6 -03381.3 -07.3860 26302.9
 13 01 2013  12 03  -21.0528 26084.9 -03381.2 -07.3857 26303.1
 13 01 2013  12 04  -21.0528 26084.8 -03381.0 -07.3853 26303.0
 13 01 2013  12 05  -21.0529 26084.6 -03380.9 -07.3850 26302.8
 13 01 2013  12 06  -21.0530 26084.1 -03380.7 -07.3848 26302.2
 13 01 2013  12 07  -21.0528 26084.0 -03380.7 -07.3847 26302.2
 13 01 2013  12 08  -21.0526 26084.1 -03380.7 -07.3847 26302.3
 13 01 2013  12 09  -21.0525 26084.2 -03380.6 -07.3846 26302.4
 13 01 2013  12 10  -21.0520 26084.0 -03380.4 -07.3842 26302.1
 13 01 2013  12 11  -21.0524 26084.6 -03380.6 -07.3845 26302.7
 13 01 2013  12 12  -21.0520 26085.4 -03380.8 -07.3846 26303.6
 13 01 2013  12 13  -21.0524 26086.9 -03381.2 -07.3850 26305.1
 13 01 2013  12 14  -21.0523 26087.6 -03381.2 -07.3848 26305.8
 13 01 2013  12 15  -21.0524 26087.9 -03381.1 -07.3845 26306.1
 13 01 2013  12 16  -21.0526 26088.4 -03381.1 -07.3844 26306.6
 13 01 2013  12 17  -21.0528 26087.6 -03380.6 -07.3836 26305.8
 13 01 2013  12 18  -21.0537 26087.6 -03380.5 -07.3835 26305.7
 13 01 2013  12 19  -21.0534 26087.0 -03380.3 -07.3830 26305.1
 13 01 2013  12 20  -21.0530 26086.8 -03380.3 -07.3831 26304.9
 13 01 2013  12 21  -21.0535 26086.9 -03380.4 -07.3834 26305.0
 13 01 2013  12 22  -21.0531 26087.5 -03380.8 -07.3840 26305.6
 13 01 2013  12 23  -21.0533 26087.0 -03380.7 -07.3840 26305.2
 13 01 2013  12 24  -21.0530 26086.8 -03380.7 -07.3839 26304.9
 13 01 2013  12 25  -21.0530 26085.9 -03380.4 -07.3837 26304.0
 13 01 2013  12 26  -21.0531 26085.7 -03380.5 -07.3838 26303.8
 13 01 2013  12 27  -21.0536 26086.5 -03380.9 -07.3845 26304.6
 13 01 2013  12 28  -21.0536 26085.4 -03380.3 -07.3835 26303.5
 13 01 2013  12 29  -21.0555 26086.6 -03381.0 -07.3847 26304.8
 13 01 2013  12 30  -21.0549 26085.8 -03380.8 -07.3846 26304.0
 13 01 2013  12 31  -21.0542 26085.5 -03380.7 -07.3843 26303.6
 13 01 2013  12 32  -21.0546 26086.5 -03381.2 -07.3852 26304.7
 13 01 2013  12 33  -21.0548 26087.3 -03381.6 -07.3858 26305.5
 13 01 2013  12 34  -21.0546 26087.2 -03381.4 -07.3855 26305.5
 13 01 2013  12 35  -21.0548 26087.2 -03381.4 -07.3854 26305.5
 13 01 2013  12 36  -21.0554 26088.1 -03381.8 -07.3860 26306.4
 13 01 2013  12 37  -21.0552 26089.0 -03382.0 -07.3862 26307.3
 13 01 2013  12 38  -21.0559 26089.8 -03382.1 -07.3862 26308.1
 13 01 2013  12 39  -21.0565 26089.8 -03381.9 -07.3857 26308.1
 13 01 2013  12 40  -21.0573 26090.0 -03381.7 -07.3852 26308.2
 13 01 2013  12 41  -21.0578 26089.7 -03381.3 -07.3846 26307.9
 13 01 2013  12 42  -21.0587 26089.4 -03381.1 -07.3841 26307.5
 13 01 2013  12 43  -21.0594 26089.4 -03381.0 -07.3840 26307.6
 13 01 2013  12 44  -21.0598 26089.7 -03381.1 -07.3840 26307.9
 13 01 2013  12 45  -21.0598 26090.3 -03381.1 -07.3839 26308.4
 13 01 2013  12 46  -21.0601 26090.9 -03381.1 -07.3838 26309.1
 13 01 2013  12 47  -21.0607 26091.7 -03381.2 -07.3838 26309.9
 13 01 2013  12 48  -21.0610 26093.2 -03381.5 -07.3840 26311.4
 13 01 2013  12 49  -21.0604 26093.5 -03381.0 -07.3829 26311.6
 13 01 2013  12 50  -21.0610 26093.8 -03380.7 -07.3820 26311.9
 13 01 2013  12 51  -21.0616 26094.0 -03380.4 -07.3813 26312.1
 13 01 2013  12 52  -21.0617 26093.9 -03379.9 -07.3804 26311.9
 13 01 2013  12 53  -21.0615 26094.2 -03379.6 -07.3797 26312.1
 13 01 2013  12 54  -21.0619 26094.3 -03379.4 -07.3792 26312.2
 13 01 2013  12 55  -21.0619 26094.6 -03379.2 -07.3787 26312.5
 13 01 2013  12 56  -21.0618 26094.3 -03378.8 -07.3779 26312.1
 13 01 2013  12 57  -21.0615 26094.0 -03378.5 -07.3773 26311.8
 13 01 2013  12 58  -21.0614 26093.7 -03378.2 -07.3768 26311.4
 13 01 2013  12 59  -21.0614 26093.4 -03378.1 -07.3765 26311.1
 13 01 2013  13 00  -21.0613 26093.0 -03377.9 -07.3762 26310.7
 13 01 2013  13 01  -21.0617 26092.8 -03377.8 -07.3760 26310.5
 13 01 2013  13 02  -21.0619 26092.8 -03377.7 -07.3759 26310.5
 13 01 2013  13 03  -21.0619 26093.0 -03377.7 -07.3758 26310.7
 13 01 2013  13 04  -21.0622 26093.5 -03377.8 -07.3759 26311.2
 13 01 2013  13 05  -21.0625 26094.0 -03377.8 -07.3758 26311.7
 13 01 2013  13 06  -21.0625 26093.9 -03377.5 -07.3752 26311.6
 13 01 2013  13 07  -21.0627 26093.5 -03377.2 -07.3745 26311.1
 13 01 2013  13 08  -21.0630 26093.2 -03377.0 -07.3742 26310.8
 13 01 2013  13 09  -21.0632 26092.9 -03376.8 -07.3739 26310.5
 13 01 2013  13 10  -21.0631 26092.9 -03376.7 -07.3737 26310.5
 13 01 2013  13 11  -21.0628 26092.9 -03376.7 -07.3736 26310.5
 13 01 2013  13 12  -21.0628 26093.0 -03376.5 -07.3733 26310.5
 13 01 2013  13 13  -21.0626 26092.7 -03376.3 -07.3729 26310.3
 13 01 2013  13 14  -21.0628 26092.8 -03376.3 -07.3729 26310.3
 13 01 2013  13 15  -21.0626 26092.8 -03376.3 -07.3729 26310.4
 13 01 2013  13 16  -21.0619 26092.9 -03376.3 -07.3728 26310.5
 13 01 2013  13 17  -21.0609 26093.3 -03376.3 -07.3728 26310.8
 13 01 2013  13 18  -21.0593 26093.1 -03376.1 -07.3724 26310.6
 13 01 2013  13 19  -21.0580 26093.3 -03376.1 -07.3723 26310.8
 13 01 2013  13 20  -21.0579 26093.5 -03376.1 -07.3723 26311.0
 13 01 2013  13 21  -21.0584 26093.8 -03376.1 -07.3722 26311.3
 13 01 2013  13 22  -21.0590 26094.2 -03376.1 -07.3720 26311.7
 13 01 2013  13 23  -21.0590 26095.0 -03376.1 -07.3718 26312.5
 13 01 2013  13 24  -21.0588 26096.3 -03376.2 -07.3718 26313.7
 13 01 2013  13 25  -21.0584 26096.4 -03375.9 -07.3709 26313.8
 13 01 2013  13 26  -21.0583 26096.8 -03375.7 -07.3705 26314.2
 13 01 2013  13 27  -21.0574 26095.8 -03375.1 -07.3695 26313.2
 13 01 2013  13 28  -21.0565 26095.4 -03374.8 -07.3689 26312.7
 13 01 2013  13 29  -21.0560 26095.3 -03374.7 -07.3688 26312.6
 13 01 2013  13 30  -21.0554 26095.7 -03374.8 -07.3689 26313.0
 13 01 2013  13 31  -21.0551 26096.0 -03374.9 -07.3688 26313.3
 13 01 2013  13 32  -21.0548 26096.5 -03374.9 -07.3687 26313.8
 13 01 2013  13 33  -21.0543 26096.8 -03374.8 -07.3685 26314.1
 13 01 2013  13 34  -21.0538 26096.8 -03374.6 -07.3680 26314.1
 13 01 2013  13 35  -21.0532 26096.2 -03374.1 -07.3672 26313.4
 13 01 2013  13 36  -21.0530 26096.0 -03373.9 -07.3669 26313.2
 13 01 2013  13 37  -21.0532 26095.9 -03373.8 -07.3666 26313.0
 13 01 2013  13 38  -21.0532 26095.9 -03373.8 -07.3665 26313.0
 13 01 2013  13 39  -21.0529 26095.6 -03373.6 -07.3663 26312.7
 13 01 2013  13 40  -21.0522 26095.3 -03373.5 -07.3662 26312.5
 13 01 2013  13 41  -21.0518 26095.4 -03373.6 -07.3664 26312.6
 13 01 2013  13 42  -21.0514 26095.0 -03373.6 -07.3663 26312.2
 13 01 2013  13 43  -21.0506 26094.9 -03373.6 -07.3665 26312.1
 13 01 2013  13 44  -21.0500 26094.7 -03373.6 -07.3665 26311.9
 13 01 2013  13 45  -21.0493 26093.9 -03373.4 -07.3663 26311.1
 13 01 2013  13 46  -21.0483 26093.2 -03373.3 -07.3662 26310.3
 13 01 2013  13 47  -21.0477 26092.6 -03373.3 -07.3664 26309.7
 13 01 2013  13 48  -21.0470 26091.8 -03373.2 -07.3665 26308.9
 13 01 2013  13 49  -21.0463 26091.2 -03373.4 -07.3670 26308.4
 13 01 2013  13 50  -21.0460 26091.1 -03373.7 -07.3677 26308.3
 13 01 2013  13 51  -21.0459 26090.9 -03374.0 -07.3684 26308.2
 13 01 2013  13 52  -21.0469 26091.3 -03374.5 -07.3693 26308.6
 13 01 2013  13 53  -21.0484 26091.8 -03374.8 -07.3700 26309.1
 13 01 2013  13 54  -21.0497 26092.5 -03375.2 -07.3705 26309.8
 13 01 2013  13 55  -21.0499 26092.4 -03375.1 -07.3704 26309.7
 13 01 2013  13 56  -21.0503 26092.8 -03375.3 -07.3707 26310.2
 13 01 2013  13 57  -21.0508 26092.7 -03375.2 -07.3706 26310.1
 13 01 2013  13 58  -21.0510 26092.7 -03375.2 -07.3706 26310.0
 13 01 2013  13 59  -21.0508 26092.2 -03375.0 -07.3703 26309.6
 13 01 2013  14 00  -21.0501 26092.2 -03375.0 -07.3703 26309.5
 13 01 2013  14 01  -21.0499 26092.0 -03375.0 -07.3704 26309.4
 13 01 2013  14 02  -21.0495 26091.5 -03374.9 -07.3703 26308.9
 13 01 2013  14 03  -21.0491 26090.9 -03374.8 -07.3702 26308.2
 13 01 2013  14 04  -21.0490 26090.3 -03374.8 -07.3702 26307.7
 13 01 2013  14 05  -21.0490 26089.9 -03374.8 -07.3703 26307.3
 13 01 2013  14 06  -21.0485 26089.7 -03374.8 -07.3704 26307.1
 13 01 2013  14 07  -21.0477 26089.1 -03374.6 -07.3703 26306.5
 13 01 2013  14 08  -21.0467 26088.9 -03374.7 -07.3705 26306.3
 13 01 2013  14 09  -21.0461 26089.2 -03375.0 -07.3711 26306.6
 13 01 2013  14 10  -21.0451 26089.4 -03375.3 -07.3716 26306.8
 13 01 2013  14 11  -21.0437 26088.9 -03375.2 -07.3717 26306.3
 13 01 2013  14 12  -21.0426 26088.0 -03375.2 -07.3717 26305.4
 13 01 2013  14 13  -21.0423 26087.9 -03375.4 -07.3724 26305.4
 13 01 2013  14 14  -21.0424 26087.8 -03375.7 -07.3729 26305.3
 13 01 2013  14 15  -21.0426 26087.4 -03375.6 -07.3729 26304.9
 13 01 2013  14 16  -21.0427 26086.6 -03375.5 -07.3728 26304.1
 13 01 2013  14 17  -21.0423 26085.3 -03375.2 -07.3726 26302.8
 13 01 2013  14 18  -21.0420 26084.1 -03375.0 -07.3725 26301.5
 13 01 2013  14 19  -21.0420 26083.8 -03375.3 -07.3732 26301.2
 13 01 2013  14 20  -21.0422 26083.1 -03375.4 -07.3736 26300.6
 13 01 2013  14 21  -21.0421 26081.4 -03375.0 -07.3733 26298.9
 13 01 2013  14 22  -21.0418 26079.9 -03374.8 -07.3733 26297.4
 13 01 2013  14 23  -21.0410 26078.4 -03374.8 -07.3735 26295.9
 13 01 2013  14 24  -21.0403 26077.8 -03375.1 -07.3744 26295.3
 13 01 2013  14 25  -21.0404 26078.3 -03375.8 -07.3759 26295.9
 13 01 2013  14 26  -21.0411 26078.3 -03376.2 -07.3766 26295.9
 13 01 2013  14 27  -21.0414 26077.8 -03376.2 -07.3769 26295.5
 13 01 2013  14 28  -21.0404 26078.0 -03376.4 -07.3773 26295.7
 13 01 2013  14 29  -21.0393 26077.9 -03376.5 -07.3774 26295.6
 13 01 2013  14 30  -21.0388 26078.0 -03376.7 -07.3779 26295.7
 13 01 2013  14 31  -21.0381 26078.1 -03376.9 -07.3782 26295.9
 13 01 2013  14 32  -21.0373 26077.6 -03376.8 -07.3781 26295.3
 13 01 2013  14 33  -21.0369 26077.0 -03376.7 -07.3781 26294.7
 13 01 2013  14 34  -21.0368 26077.4 -03377.0 -07.3787 26295.2
 13 01 2013  14 35  -21.0372 26077.9 -03377.3 -07.3792 26295.7
 13 01 2013  14 36  -21.0376 26077.5 -03377.1 -07.3788 26295.3
 13 01 2013  14 37  -21.0383 26077.2 -03377.0 -07.3787 26295.0
 13 01 2013  14 38  -21.0382 26077.0 -03376.9 -07.3786 26294.7
 13 01 2013  14 39  -21.0368 26076.5 -03376.7 -07.3783 26294.2
 13 01 2013  14 40  -21.0364 26076.6 -03376.9 -07.3787 26294.4
 13 01 2013  14 41  -21.0353 26076.2 -03376.9 -07.3787 26294.0
 13 01 2013  14 42  -21.0345 26075.5 -03376.7 -07.3785 26293.2
 13 01 2013  14 43  -21.0331 26075.2 -03376.7 -07.3786 26292.9
 13 01 2013  14 44  -21.0325 26075.2 -03376.9 -07.3791 26292.9
 13 01 2013  14 45  -21.0316 26074.9 -03377.1 -07.3796 26292.7
 13 01 2013  14 46  -21.0309 26073.9 -03376.9 -07.3795 26291.7
 13 01 2013  14 47  -21.0308 26072.8 -03376.7 -07.3792 26290.5
 13 01 2013  14 48  -21.0315 26072.4 -03376.8 -07.3795 26290.1
 13 01 2013  14 49  -21.0318 26071.4 -03376.6 -07.3795 26289.2
 13 01 2013  14 50  -21.0310 26070.7 -03376.5 -07.3795 26288.4
 13 01 2013  14 51  -21.0308 26069.7 -03376.4 -07.3796 26287.4
 13 01 2013  14 52  -21.0309 26068.6 -03376.4 -07.3799 26286.3
 13 01 2013  14 53  -21.0319 26067.5 -03376.3 -07.3799 26285.2
 13 01 2013  14 54  -21.0322 26067.6 -03376.6 -07.3805 26285.4
 13 01 2013  14 55  -21.0327 26068.4 -03377.1 -07.3814 26286.2
 13 01 2013  14 56  -21.0330 26068.7 -03377.4 -07.3819 26286.5
 13 01 2013  14 57  -21.0318 26067.2 -03376.8 -07.3810 26285.0
 13 01 2013  14 58  -21.0303 26066.2 -03376.5 -07.3808 26283.9
 13 01 2013  14 59  -21.0299 26065.9 -03376.7 -07.3813 26283.7
 13 01 2013  15 00  -21.0296 26065.4 -03376.8 -07.3816 26283.2
 13 01 2013  15 01  -21.0294 26064.8 -03376.9 -07.3820 26282.6
 13 01 2013  15 02  -21.0293 26064.4 -03377.1 -07.3825 26282.2
 13 01 2013  15 03  -21.0294 26063.9 -03377.2 -07.3830 26281.8
 13 01 2013  15 04  -21.0293 26062.6 -03377.2 -07.3832 26280.5
 13 01 2013  15 05  -21.0286 26061.5 -03377.2 -07.3835 26279.4
 13 01 2013  15 06  -21.0278 26060.6 -03377.4 -07.3842 26278.6
 13 01 2013  15 07  -21.0276 26059.9 -03377.7 -07.3850 26277.8
 13 01 2013  15 08  -21.0274 26059.2 -03377.9 -07.3858 26277.2
 13 01 2013  15 09  -21.0277 26059.6 -03378.6 -07.3871 26277.7
 13 01 2013  15 10  -21.0282 26060.3 -03379.3 -07.3884 26278.5
 13 01 2013  15 11  -21.0283 26060.2 -03379.4 -07.3886 26278.4
 13 01 2013  15 12  -21.0283 26058.8 -03378.9 -07.3880 26276.9
 13 01 2013  15 13  -21.0288 26057.9 -03378.7 -07.3878 26276.0
 13 01 2013  15 14  -21.0289 26057.9 -03378.9 -07.3882 26276.1
 13 01 2013  15 15  -21.0283 26057.7 -03378.9 -07.3883 26275.8
 13 01 2013  15 16  -21.0276 26057.1 -03378.9 -07.3884 26275.2
 13 01 2013  15 17  -21.0274 26057.2 -03379.2 -07.3892 26275.4
 13 01 2013  15 18  -21.0263 26057.0 -03379.4 -07.3896 26275.2
 13 01 2013  15 19  -21.0255 26057.1 -03379.8 -07.3904 26275.3
 13 01 2013  15 20  -21.0251 26057.6 -03380.4 -07.3916 26276.0
 13 01 2013  15 21  -21.0258 26058.6 -03381.2 -07.3929 26277.0
 13 01 2013  15 22  -21.0270 26058.8 -03381.4 -07.3935 26277.3
 13 01 2013  15 23  -21.0278 26058.5 -03381.4 -07.3934 26277.0
 13 01 2013  15 24  -21.0282 26058.1 -03381.3 -07.3933 26276.6
 13 01 2013  15 25  -21.0284 26057.7 -03381.2 -07.3932 26276.1
 13 01 2013  15 26  -21.0293 26057.3 -03381.2 -07.3935 26275.8
 13 01 2013  15 27  -21.0298 26057.3 -03381.4 -07.3937 26275.8
 13 01 2013  15 28  -21.0301 26057.3 -03381.4 -07.3937 26275.7
 13 01 2013  15 29  -21.0302 26057.0 -03381.3 -07.3938 26275.5
 13 01 2013  15 30  -21.0304 26057.1 -03381.5 -07.3941 26275.6
 13 01 2013  15 31  -21.0306 26056.8 -03381.6 -07.3943 26275.3
 13 01 2013  15 32  -21.0310 26056.6 -03381.5 -07.3943 26275.1
 13 01 2013  15 33  -21.0311 26056.3 -03381.3 -07.3940 26274.7
 13 01 2013  15 34  -21.0311 26056.2 -03381.4 -07.3941 26274.7
 13 01 2013  15 35  -21.0307 26056.1 -03381.4 -07.3942 26274.6
 13 01 2013  15 36  -21.0300 26056.0 -03381.5 -07.3943 26274.5
 13 01 2013  15 37  -21.0298 26055.9 -03381.6 -07.3947 26274.5
 13 01 2013  15 38  -21.0294 26055.9 -03381.7 -07.3950 26274.4
 13 01 2013  15 39  -21.0289 26055.7 -03381.7 -07.3950 26274.2
 13 01 2013  15 40  -21.0288 26055.4 -03381.7 -07.3949 26274.0
 13 01 2013  15 41  -21.0288 26055.4 -03381.8 -07.3952 26273.9
 13 01 2013  15 42  -21.0285 26055.1 -03381.8 -07.3953 26273.7
 13 01 2013  15 43  -21.0282 26054.7 -03381.8 -07.3954 26273.3
 13 01 2013  15 44  -21.0286 26054.9 -03382.1 -07.3961 26273.5
 13 01 2013  15 45  -21.0289 26055.1 -03382.4 -07.3965 26273.7
 13 01 2013  15 46  -21.0288 26054.3 -03382.2 -07.3963 26272.9
 13 01 2013  15 47  -21.0279 26053.6 -03382.1 -07.3963 26272.2
 13 01 2013  15 48  -21.0273 26053.6 -03382.4 -07.3969 26272.2
 13 01 2013  15 49  -21.0259 26052.8 -03382.3 -07.3970 26271.4
 13 01 2013  15 50  -21.0248 26052.4 -03382.6 -07.3978 26271.0
 13 01 2013  15 51  -21.0252 26052.6 -03383.2 -07.3990 26271.3
 13 01 2013  15 52  -21.0259 26053.2 -03383.8 -07.4001 26272.0
 13 01 2013  15 53  -21.0260 26054.0 -03384.1 -07.4005 26272.9
 13 01 2013  15 54  -21.0275 26054.7 -03384.2 -07.4006 26273.6
 13 01 2013  15 55  -21.0292 26054.6 -03383.9 -07.4000 26273.5
 13 01 2013  15 56  -21.0284 26053.6 -03383.3 -07.3991 26272.3
 13 01 2013  15 57  -21.0262 26051.5 -03382.6 -07.3981 26270.2
 13 01 2013  15 58  -21.0241 26049.6 -03382.5 -07.3984 26268.3
 13 01 2013  15 59  -21.0220 26047.7 -03382.9 -07.3997 26266.5
 13 01 2013  16 00  -21.0207 26046.6 -03383.6 -07.4016 26265.4
 13 01 2013  16 01  -21.0201 26046.1 -03384.5 -07.4036 26265.0
 13 01 2013  16 02  -21.0186 26044.9 -03384.9 -07.4049 26263.9
 13 01 2013  16 03  -21.0165 26043.9 -03385.4 -07.4062 26263.0
 13 01 2013  16 04  -21.0154 26043.8 -03386.4 -07.4085 26263.0
 13 01 2013  16 05  -21.0145 26042.7 -03386.9 -07.4098 26262.0
 13 01 2013  16 06  -21.0131 26041.8 -03387.4 -07.4112 26261.2
 13 01 2013  16 07  -21.0116 26041.6 -03388.2 -07.4130 26261.1
 13 01 2013  16 08  -21.0106 26041.4 -03389.0 -07.4148 26261.0
 13 01 2013  16 09  -21.0094 26040.9 -03389.6 -07.4161 26260.6
 13 01 2013  16 10  -21.0091 26041.0 -03390.4 -07.4178 26260.8
 13 01 2013  16 11  -21.0086 26040.3 -03390.7 -07.4187 26260.1
 13 01 2013  16 12  -21.0077 26039.5 -03390.9 -07.4194 26259.4
 13 01 2013  16 13  -21.0064 26039.1 -03391.3 -07.4204 26259.0
 13 01 2013  16 14  -21.0051 26038.9 -03391.9 -07.4217 26258.9
 13 01 2013  16 15  -21.0040 26038.6 -03392.5 -07.4231 26258.7
 13 01 2013  16 16  -21.0030 26038.8 -03393.3 -07.4247 26259.0
 13 01 2013  16 17  -21.0023 26039.4 -03394.1 -07.4264 26259.7
 13 01 2013  16 18  -21.0019 26040.1 -03394.9 -07.4278 26260.5
 13 01 2013  16 19  -21.0015 26040.7 -03395.4 -07.4288 26261.1
 13 01 2013  16 20  -21.0015 26041.1 -03395.9 -07.4297 26261.6
 13 01 2013  16 21  -21.0016 26041.3 -03396.1 -07.4302 26261.8
 13 01 2013  16 22  -21.0005 26040.9 -03396.1 -07.4302 26261.4
 13 01 2013  16 23  -20.9984 26041.3 -03396.5 -07.4310 26261.9
 13 01 2013  16 24  -20.9996 26042.1 -03397.3 -07.4324 26262.8
 13 01 2013  16 25  -21.0000 26041.8 -03397.2 -07.4324 26262.5
 13 01 2013  16 26  -20.9984 26040.9 -03396.9 -07.4319 26261.6
 13 01 2013  16 27  -20.9984 26040.8 -03397.2 -07.4326 26261.5
 13 01 2013  16 28  -20.9996 26040.8 -03397.5 -07.4333 26261.5
 13 01 2013  16 29  -21.0000 26040.8 -03397.5 -07.4332 26261.5
 13 01 2013  16 30  -21.0003 26041.2 -03397.7 -07.4337 26262.0
 13 01 2013  16 31  -20.9995 26041.7 -03398.0 -07.4341 26262.5
 13 01 2013  16 32  -20.9980 26041.3 -03398.0 -07.4341 26262.1
 13 01 2013  16 33  -20.9959 26041.1 -03398.2 -07.4347 26261.9
 13 01 2013  16 34  -20.9961 26041.0 -03398.6 -07.4355 26261.8
 13 01 2013  16 35  -20.9957 26040.5 -03398.5 -07.4355 26261.4
 13 01 2013  16 36  -20.9949 26040.2 -03398.5 -07.4356 26261.0
 13 01 2013  16 37  -20.9954 26040.4 -03398.8 -07.4362 26261.2
 13 01 2013  16 38  -20.9962 26040.7 -03399.1 -07.4368 26261.6
 13 01 2013  16 39  -20.9961 26040.5 -03399.0 -07.4366 26261.4
 13 01 2013  16 40  -20.9955 26040.5 -03399.1 -07.4368 26261.4
 13 01 2013  16 41  -20.9952 26041.2 -03399.6 -07.4377 26262.2
 13 01 2013  16 42  -20.9947 26042.3 -03400.3 -07.4388 26263.3
 13 01 2013  16 43  -20.9936 26043.3 -03400.7 -07.4396 26264.4
 13 01 2013  16 44  -20.9927 26044.4 -03401.3 -07.4404 26265.6
 13 01 2013  16 45  -20.9930 26045.3 -03401.7 -07.4411 26266.5
 13 01 2013  16 46  -20.9920 26045.6 -03401.6 -07.4407 26266.8
 13 01 2013  16 47  -20.9922 26045.9 -03401.5 -07.4406 26267.0
 13 01 2013  16 48  -20.9927 26044.9 -03400.9 -07.4394 26266.0
 13 01 2013  16 49  -20.9928 26043.6 -03400.2 -07.4383 26264.7
 13 01 2013  16 50  -20.9925 26043.1 -03400.0 -07.4380 26264.1
 13 01 2013  16 51  -20.9925 26043.5 -03400.3 -07.4385 26264.6
 13 01 2013  16 52  -20.9926 26044.2 -03400.6 -07.4389 26265.2
 13 01 2013  16 53  -20.9920 26043.8 -03400.3 -07.4386 26264.9
 13 01 2013  16 54  -20.9914 26043.4 -03400.0 -07.4380 26264.4
 13 01 2013  16 55  -20.9916 26043.9 -03400.2 -07.4382 26264.9
 13 01 2013  16 56  -20.9926 26045.5 -03400.8 -07.4390 26266.6
 13 01 2013  16 57  -20.9930 26047.1 -03401.2 -07.4394 26268.2
 13 01 2013  16 58  -20.9926 26048.0 -03401.1 -07.4390 26269.1
 13 01 2013  16 59  -20.9923 26048.4 -03400.9 -07.4384 26269.5
 13 01 2013  17 00  -20.9924 26048.3 -03400.4 -07.4375 26269.3
 13 01 2013  17 01  -20.9931 26048.4 -03400.1 -07.4367 26269.4
 13 01 2013  17 02  -20.9935 26048.5 -03399.6 -07.4357 26269.4
 13 01 2013  17 03  -20.9942 26048.7 -03399.3 -07.4350 26269.6
 13 01 2013  17 04  -20.9942 26048.7 -03399.0 -07.4343 26269.5
 13 01 2013  17 05  -20.9949 26048.9 -03398.8 -07.4339 26269.7
 13 01 2013  17 06  -20.9951 26049.1 -03398.6 -07.4334 26269.9
 13 01 2013  17 07  -20.9954 26049.8 -03398.7 -07.4333 26270.5
 13 01 2013  17 08  -20.9962 26050.4 -03398.6 -07.4330 26271.1
 13 01 2013  17 09  -20.9965 26050.6 -03398.4 -07.4324 26271.3
 13 01 2013  17 10  -20.9965 26050.7 -03398.1 -07.4318 26271.4
 13 01 2013  17 11  -20.9966 26050.3 -03397.6 -07.4308 26270.9
 13 01 2013  17 12  -20.9963 26049.8 -03397.1 -07.4299 26270.3
 13 01 2013  17 13  -20.9964 26049.5 -03396.9 -07.4294 26270.1
 13 01 2013  17 14  -20.9961 26049.7 -03396.8 -07.4292 26270.2
 13 01 2013  17 15  -20.9957 26049.8 -03396.7 -07.4290 26270.3
 13 01 2013  17 16  -20.9954 26049.7 -03396.5 -07.4285 26270.2
 13 01 2013  17 17  -20.9953 26049.6 -03396.3 -07.4283 26270.0
 13 01 2013  17 18  -20.9950 26049.5 -03396.2 -07.4280 26269.9
 13 01 2013  17 19  -20.9946 26049.4 -03396.1 -07.4278 26269.9
 13 01 2013  17 20  -20.9946 26049.2 -03395.9 -07.4275 26269.6
 13 01 2013  17 21  -20.9945 26049.3 -03395.8 -07.4272 26269.7
 13 01 2013  17 22  -20.9942 26049.5 -03395.8 -07.4271 26269.9
 13 01 2013  17 23  -20.9942 26049.8 -03395.7 -07.4269 26270.2
 13 01 2013  17 24  -20.9941 26050.0 -03395.6 -07.4266 26270.3
 13 01 2013  17 25  -20.9942 26050.1 -03395.5 -07.4263 26270.5
 13 01 2013  17 26  -20.9944 26050.0 -03395.2 -07.4257 26270.3
 13 01 2013  17 27  -20.9943 26049.9 -03394.9 -07.4250 26270.2
 13 01 2013  17 28  -20.9941 26049.8 -03394.6 -07.4245 26270.0
 13 01 2013  17 29  -20.9936 26049.6 -03394.5 -07.4243 26269.8
 13 01 2013  17 30  -20.9927 26049.7 -03394.5 -07.4243 26269.9
 13 01 2013  17 31  -20.9924 26049.7 -03394.6 -07.4245 26269.9
 13 01 2013  17 32  -20.9925 26049.7 -03394.7 -07.4247 26270.0
 13 01 2013  17 33  -20.9936 26050.1 -03394.9 -07.4250 26270.3
 13 01 2013  17 34  -20.9943 26049.7 -03394.6 -07.4245 26270.0
 13 01 2013  17 35  -20.9942 26049.5 -03394.2 -07.4238 26269.7
 13 01 2013  17 36  -20.9943 26048.9 -03393.9 -07.4233 26269.1
 13 01 2013  17 37  -20.9935 26047.6 -03393.4 -07.4224 26267.7
 13 01 2013  17 38  -20.9931 26046.7 -03393.1 -07.4221 26266.8
 13 01 2013  17 39  -20.9934 26046.8 -03393.4 -07.4228 26266.9
 13 01 2013  17 40  -20.9932 26046.8 -03393.7 -07.4233 26267.0
 13 01 2013  17 41  -20.9934 26046.8 -03393.8 -07.4237 26267.0
 13 01 2013  17 42  -20.9936 26046.7 -03393.9 -07.4238 26266.9
 13 01 2013  17 43  -20.9939 26046.1 -03393.6 -07.4233 26266.3
 13 01 2013  17 44  -20.9941 26045.9 -03393.4 -07.4230 26266.0
 13 01 2013  17 45  -20.9942 26045.8 -03393.4 -07.4229 26265.9
 13 01 2013  17 46  -20.9946 26046.0 -03393.4 -07.4229 26266.1
 13 01 2013  17 47  -20.9952 26046.1 -03393.4 -07.4228 26266.2
 13 01 2013  17 48  -20.9956 26046.3 -03393.3 -07.4227 26266.4
 13 01 2013  17 49  -20.9955 26046.2 -03393.2 -07.4225 26266.3
 13 01 2013  17 50  -20.9953 26046.1 -03393.1 -07.4222 26266.2
 13 01 2013  17 51  -20.9958 26046.0 -03392.9 -07.4219 26266.1
 13 01 2013  17 52  -20.9961 26045.9 -03392.8 -07.4216 26266.0
 13 01 2013  17 53  -20.9963 26045.7 -03392.5 -07.4212 26265.7
 13 01 2013  17 54  -20.9965 26045.8 -03392.4 -07.4208 26265.8
 13 01 2013  17 55  -20.9969 26045.9 -03392.3 -07.4207 26265.9
 13 01 2013  17 56  -20.9972 26045.9 -03392.3 -07.4205 26265.9
 13 01 2013  17 57  -20.9975 26046.0 -03392.1 -07.4202 26266.0
 13 01 2013  17 58  -20.9977 26046.2 -03391.9 -07.4197 26266.1
 13 01 2013  17 59  -20.9980 26045.9 -03391.6 -07.4191 26265.8
 13 01 2013  18 00  -20.9982 26045.7 -03391.2 -07.4183 26265.5
 13 01 2013  18 01  -20.9986 26045.7 -03391.0 -07.4179 26265.5
 13 01 2013  18 02  -20.9983 26045.4 -03390.8 -07.4174 26265.2
 13 01 2013  18 03  -20.9982 26045.7 -03390.8 -07.4174 26265.5
 13 01 2013  18 04  -20.9987 26046.1 -03390.8 -07.4172 26265.9
 13 01 2013  18 05  -20.9989 26046.5 -03390.8 -07.4171 26266.3
 13 01 2013  18 06  -20.9990 26046.7 -03390.6 -07.4166 26266.5
 13 01 2013  18 07  -20.9993 26046.9 -03390.4 -07.4163 26266.6
 13 01 2013  18 08  -20.9994 26046.8 -03390.1 -07.4155 26266.5
 13 01 2013  18 09  -20.9994 26046.7 -03389.7 -07.4148 26266.3
 13 01 2013  18 10  -20.9999 26046.9 -03389.7 -07.4146 26266.5
 13 01 2013  18 11  -20.9998 26047.0 -03389.5 -07.4142 26266.6
 13 01 2013  18 12  -20.9999 26047.1 -03389.4 -07.4139 26266.7
 13 01 2013  18 13  -21.0003 26047.3 -03389.3 -07.4136 26266.8
 13 01 2013  18 14  -21.0004 26047.4 -03389.1 -07.4133 26267.0
 13 01 2013  18 15  -21.0010 26047.9 -03389.1 -07.4131 26267.4
 13 01 2013  18 16  -21.0015 26048.3 -03389.0 -07.4127 26267.8
 13 01 2013  18 17  -21.0022 26048.6 -03388.8 -07.4123 26268.1
 13 01 2013  18 18  -21.0027 26048.8 -03388.6 -07.4118 26268.2
 13 01 2013  18 19  -21.0033 26049.1 -03388.4 -07.4113 26268.6
 13 01 2013  18 20  -21.0039 26049.3 -03388.2 -07.4109 26268.8
 13 01 2013  18 21  -21.0047 26049.7 -03388.1 -07.4105 26269.1
 13 01 2013  18 22  -21.0050 26049.7 -03387.8 -07.4099 26269.1
 13 01 2013  18 23  -21.0051 26050.5 -03387.9 -07.4097 26269.8
 13 01 2013  18 24  -21.0046 26050.7 -03387.6 -07.4092 26270.0
 13 01 2013  18 25  -21.0054 26051.2 -03387.6 -07.4089 26270.5
 13 01 2013  18 26  -21.0055 26051.8 -03387.5 -07.4085 26271.1
 13 01 2013  18 27  -21.0054 26052.2 -03387.4 -07.4081 26271.5
 13 01 2013  18 28  -21.0062 26052.7 -03387.2 -07.4077 26272.0
 13 01 2013  18 29  -21.0075 26053.1 -03387.0 -07.4071 26272.3
 13 01 2013  18 30  -21.0081 26053.4 -03386.7 -07.4064 26272.6
 13 01 2013  18 31  -21.0087 26053.9 -03386.5 -07.4058 26273.0
 13 01 2013  18 32  -21.0089 26054.5 -03386.4 -07.4055 26273.7
 13 01 2013  18 33  -21.0094 26055.2 -03386.4 -07.4052 26274.3
 13 01 2013  18 34  -21.0100 26055.4 -03386.2 -07.4048 26274.5
 13 01 2013  18 35  -21.0111 26055.7 -03386.0 -07.4043 26274.8
 13 01 2013  18 36  -21.0123 26056.3 -03385.8 -07.4036 26275.4
 13 01 2013  18 37  -21.0123 26056.5 -03385.5 -07.4029 26275.5
 13 01 2013  18 38  -21.0131 26056.7 -03385.4 -07.4027 26275.7
 13 01 2013  18 39  -21.0144 26057.1 -03385.3 -07.4024 26276.1
 13 01 2013  18 40  -21.0157 26057.6 -03385.2 -07.4019 26276.6
 13 01 2013  18 41  -21.0169 26057.9 -03385.0 -07.4014 26276.9
 13 01 2013  18 42  -21.0181 26057.8 -03384.5 -07.4004 26276.7
 13 01 2013  18 43  -21.0191 26057.3 -03383.9 -07.3992 26276.1
 13 01 2013  18 44  -21.0198 26057.2 -03383.5 -07.3984 26275.9
 13 01 2013  18 45  -21.0204 26057.2 -03383.2 -07.3977 26275.9
 13 01 2013  18 46  -21.0206 26057.0 -03382.9 -07.3971 26275.7
 13 01 2013  18 47  -21.0199 26057.3 -03382.8 -07.3968 26276.0
 13 01 2013  18 48  -21.0197 26057.7 -03382.7 -07.3966 26276.4
 13 01 2013  18 49  -21.0194 26057.9 -03382.5 -07.3961 26276.5
 13 01 2013  18 50  -21.0190 26058.4 -03382.5 -07.3960 26277.0
 13 01 2013  18 51  -21.0201 26058.8 -03382.5 -07.3958 26277.5
 13 01 2013  18 52  -21.0212 26059.1 -03382.2 -07.3951 26277.6
 13 01 2013  18 53  -21.0218 26059.2 -03381.9 -07.3944 26277.7
 13 01 2013  18 54  -21.0215 26058.9 -03381.6 -07.3937 26277.4
 13 01 2013  18 55  -21.0213 26059.1 -03381.5 -07.3936 26277.6
 13 01 2013  18 56  -21.0215 26059.0 -03381.5 -07.3935 26277.5
 13 01 2013  18 57  -21.0210 26059.3 -03381.4 -07.3932 26277.8
 13 01 2013  18 58  -21.0213 26059.9 -03381.6 -07.3935 26278.4
 13 01 2013  18 59  -21.0219 26059.8 -03381.5 -07.3934 26278.3
 13 01 2013  19 00  -21.0222 26059.6 -03381.2 -07.3928 26278.0
 13 01 2013  19 01  -21.0217 26059.5 -03381.0 -07.3924 26277.9
 13 01 2013  19 02  -21.0214 26059.1 -03380.8 -07.3920 26277.5
 13 01 2013  19 03  -21.0214 26058.8 -03380.6 -07.3916 26277.2
 13 01 2013  19 04  -21.0214 26058.4 -03380.3 -07.3912 26276.7
 13 01 2013  19 05  -21.0206 26059.0 -03380.5 -07.3913 26277.4
 13 01 2013  19 06  -21.0205 26059.4 -03380.7 -07.3917 26277.8
 13 01 2013  19 07  -21.0205 26059.5 -03380.6 -07.3915 26277.9
 13 01 2013  19 08  -21.0205 26060.1 -03380.7 -07.3916 26278.5
 13 01 2013  19 09  -21.0207 26060.2 -03380.6 -07.3913 26278.5
 13 01 2013  19 10  -21.0221 26060.0 -03380.4 -07.3909 26278.3
 13 01 2013  19 11  -21.0229 26059.3 -03379.8 -07.3898 26277.6
 13 01 2013  19 12  -21.0232 26059.6 -03379.6 -07.3894 26277.8
 13 01 2013  19 13  -21.0220 26059.9 -03379.7 -07.3893 26278.1
 13 01 2013  19 14  -21.0217 26059.9 -03379.6 -07.3892 26278.2
 13 01 2013  19 15  -21.0213 26060.5 -03379.7 -07.3891 26278.7
 13 01 2013  19 16  -21.0209 26060.7 -03379.6 -07.3891 26278.9
 13 01 2013  19 17  -21.0209 26060.8 -03379.4 -07.3885 26279.0
 13 01 2013  19 18  -21.0213 26060.9 -03379.3 -07.3882 26279.1
 13 01 2013  19 19  -21.0216 26060.8 -03378.9 -07.3874 26278.9
 13 01 2013  19 20  -21.0217 26061.1 -03378.7 -07.3869 26279.2
 13 01 2013  19 21  -21.0214 26061.6 -03378.7 -07.3868 26279.7
 13 01 2013  19 22  -21.0213 26061.9 -03378.7 -07.3866 26280.0
 13 01 2013  19 23  -21.0214 26061.9 -03378.4 -07.3861 26280.0
 13 01 2013  19 24  -21.0206 26062.6 -03378.4 -07.3858 26280.6
 13 01 2013  19 25  -21.0204 26062.8 -03378.2 -07.3854 26280.8
 13 01 2013  19 26  -21.0205 26063.0 -03378.1 -07.3850 26281.0
 13 01 2013  19 27  -21.0207 26063.2 -03377.9 -07.3846 26281.2
 13 01 2013  19 28  -21.0209 26063.5 -03377.7 -07.3840 26281.4
 13 01 2013  19 29  -21.0214 26063.5 -03377.5 -07.3837 26281.4
 13 01 2013  19 30  -21.0221 26063.2 -03377.1 -07.3828 26281.1
 13 01 2013  19 31  -21.0223 26063.4 -03376.9 -07.3824 26281.2
 13 01 2013  19 32  -21.0229 26063.1 -03376.6 -07.3818 26280.9
 13 01 2013  19 33  -21.0236 26062.9 -03376.3 -07.3811 26280.7
 13 01 2013  19 34  -21.0241 26063.1 -03376.1 -07.3807 26280.9
 13 01 2013  19 35  -21.0249 26063.0 -03375.9 -07.3802 26280.7
 13 01 2013  19 36  -21.0256 26062.9 -03375.7 -07.3798 26280.6
 13 01 2013  19 37  -21.0263 26062.5 -03375.3 -07.3791 26280.2
 13 01 2013  19 38  -21.0269 26062.6 -03375.1 -07.3787 26280.2
 13 01 2013  19 39  -21.0271 26062.6 -03375.0 -07.3784 26280.2
 13 01 2013  19 40  -21.0273 26062.4 -03374.7 -07.3780 26280.0
 13 01 2013  19 41  -21.0272 26062.3 -03374.6 -07.3777 26279.9
 13 01 2013  19 42  -21.0271 26061.8 -03374.3 -07.3772 26279.4
 13 01 2013  19 43  -21.0274 26061.3 -03374.0 -07.3766 26278.8
 13 01 2013  19 44  -21.0278 26060.9 -03373.7 -07.3762 26278.4
 13 01 2013  19 45  -21.0280 26060.2 -03373.3 -07.3755 26277.6
 13 01 2013  19 46  -21.0285 26059.3 -03372.9 -07.3748 26276.7
 13 01 2013  19 47  -21.0289 26058.3 -03372.4 -07.3741 26275.6
 13 01 2013  19 48  -21.0287 26058.4 -03372.4 -07.3740 26275.7
 13 01 2013  19 49  -21.0287 26058.4 -03372.5 -07.3742 26275.8
 13 01 2013  19 50  -21.0281 26058.7 -03372.5 -07.3742 26276.0
 13 01 2013  19 51  -21.0279 26058.8 -03372.6 -07.3744 26276.2
 13 01 2013  19 52  -21.0274 26058.6 -03372.5 -07.3742 26275.9
 13 01 2013  19 53  -21.0273 26058.1 -03372.3 -07.3740 26275.4
 13 01 2013  19 54  -21.0267 26058.2 -03372.3 -07.3739 26275.5
 13 01 2013  19 55  -21.0265 26057.8 -03372.2 -07.3737 26275.1
 13 01 2013  19 56  -21.0263 26057.1 -03371.8 -07.3731 26274.4
 13 01 2013  19 57  -21.0258 26057.1 -03371.7 -07.3730 26274.3
 13 01 2013  19 58  -21.0254 26056.9 -03371.7 -07.3730 26274.2
 13 01 2013  19 59  -21.0251 26056.6 -03371.7 -07.3729 26273.9
 13 01 2013  20 00  -21.0248 26056.5 -03371.6 -07.3729 26273.7
 13 01 2013  20 01  -21.0247 26056.1 -03371.6 -07.3729 26273.4
 13 01 2013  20 02  -21.0246 26055.7 -03371.4 -07.3727 26272.9
 13 01 2013  20 03  -21.0247 26055.5 -03371.4 -07.3727 26272.7
 13 01 2013  20 04  -21.0246 26055.2 -03371.4 -07.3729 26272.4
 13 01 2013  20 05  -21.0238 26055.5 -03371.6 -07.3732 26272.7
 13 01 2013  20 06  -21.0239 26055.4 -03371.8 -07.3735 26272.7
 13 01 2013  20 07  -21.0250 26054.5 -03371.5 -07.3732 26271.7
 13 01 2013  20 08  -21.0260 26054.1 -03371.3 -07.3730 26271.3
 13 01 2013  20 09  -21.0260 26054.3 -03371.5 -07.3733 26271.6
 13 01 2013  20 10  -21.0254 26055.6 -03372.3 -07.3746 26272.9
 13 01 2013  20 11  -21.0253 26055.9 -03372.7 -07.3754 26273.3
 13 01 2013  20 12  -21.0249 26055.6 -03372.7 -07.3754 26273.0
 13 01 2013  20 13  -21.0238 26056.4 -03373.2 -07.3762 26273.8
 13 01 2013  20 14  -21.0226 26056.4 -03373.5 -07.3769 26273.9
 13 01 2013  20 15  -21.0216 26056.0 -03373.5 -07.3771 26273.5
 13 01 2013  20 16  -21.0204 26056.1 -03373.7 -07.3775 26273.6
 13 01 2013  20 17  -21.0191 26056.4 -03374.1 -07.3783 26273.9
 13 01 2013  20 18  -21.0182 26056.0 -03374.2 -07.3787 26273.6
 13 01 2013  20 19  -21.0176 26056.5 -03374.6 -07.3794 26274.1
 13 01 2013  20 20  -21.0172 26056.8 -03375.1 -07.3804 26274.5
 13 01 2013  20 21  -21.0167 26056.6 -03375.3 -07.3809 26274.3
 13 01 2013  20 22  -21.0162 26056.4 -03375.4 -07.3812 26274.1
 13 01 2013  20 23  -21.0157 26056.7 -03375.8 -07.3819 26274.5
 13 01 2013  20 24  -21.0155 26056.5 -03376.0 -07.3825 26274.3
 13 01 2013  20 25  -21.0160 26055.9 -03376.0 -07.3826 26273.7
 13 01 2013  20 26  -21.0168 26055.0 -03375.8 -07.3823 26272.8
 13 01 2013  20 27  -21.0168 26054.8 -03375.9 -07.3826 26272.6
 13 01 2013  20 28  -21.0168 26054.6 -03376.0 -07.3829 26272.4
 13 01 2013  20 29  -21.0159 26055.7 -03376.7 -07.3841 26273.6
 13 01 2013  20 30  -21.0156 26055.9 -03377.1 -07.3850 26273.9
 13 01 2013  20 31  -21.0152 26055.7 -03377.3 -07.3855 26273.7
 13 01 2013  20 32  -21.0152 26055.5 -03377.5 -07.3859 26273.5
 13 01 2013  20 33  -21.0149 26055.4 -03377.6 -07.3862 26273.4
 13 01 2013  20 34  -21.0153 26055.0 -03377.7 -07.3865 26273.1
 13 01 2013  20 35  -21.0161 26054.0 -03377.5 -07.3863 26272.0
 13 01 2013  20 36  -21.0171 26052.5 -03377.0 -07.3856 26270.5
 13 01 2013  20 37  -21.0187 26051.1 -03376.5 -07.3849 26269.0
 13 01 2013  20 38  -21.0200 26050.1 -03376.2 -07.3845 26268.0
 13 01 2013  20 39  -21.0211 26049.6 -03376.2 -07.3846 26267.5
 13 01 2013  20 40  -21.0223 26049.6 -03376.4 -07.3852 26267.5
 13 01 2013  20 41  -21.0232 26049.3 -03376.6 -07.3856 26267.2
 13 01 2013  20 42  -21.0236 26049.0 -03376.6 -07.3858 26267.0
 13 01 2013  20 43  -21.0234 26049.5 -03377.1 -07.3867 26267.5
 13 01 2013  20 44  -21.0230 26050.2 -03377.7 -07.3878 26268.2
 13 01 2013  20 45  -21.0225 26050.6 -03378.2 -07.3887 26268.7
 13 01 2013  20 46  -21.0220 26050.7 -03378.5 -07.3893 26268.9
 13 01 2013  20 47  -21.0214 26051.1 -03378.9 -07.3901 26269.4
 13 01 2013  20 48  -21.0207 26051.4 -03379.2 -07.3908 26269.6
 13 01 2013  20 49  -21.0198 26051.4 -03379.5 -07.3913 26269.7
 13 01 2013  20 50  -21.0193 26051.4 -03379.7 -07.3917 26269.8
 13 01 2013  20 51  -21.0190 26051.2 -03379.8 -07.3921 26269.6
 13 01 2013  20 52  -21.0184 26051.3 -03380.0 -07.3925 26269.7
 13 01 2013  20 53  -21.0177 26051.8 -03380.5 -07.3933 26270.2
 13 01 2013  20 54  -21.0175 26051.8 -03380.7 -07.3939 26270.2
 13 01 2013  20 55  -21.0175 26051.8 -03380.9 -07.3943 26270.2
 13 01 2013  20 56  -21.0176 26051.7 -03381.1 -07.3947 26270.2
 13 01 2013  20 57  -21.0178 26051.5 -03381.1 -07.3949 26270.0
 13 01 2013  20 58  -21.0180 26051.3 -03381.2 -07.3952 26269.8
 13 01 2013  20 59  -21.0183 26050.8 -03381.2 -07.3953 26269.4
 13 01 2013  21 00  -21.0186 26050.5 -03381.2 -07.3954 26269.0
 13 01 2013  21 01  -21.0187 26050.1 -03381.2 -07.3954 26268.6
 13 01 2013  21 02  -21.0189 26049.7 -03381.2 -07.3955 26268.2
 13 01 2013  21 03  -21.0191 26049.4 -03381.2 -07.3956 26267.9
 13 01 2013  21 04  -21.0193 26049.2 -03381.3 -07.3959 26267.7
 13 01 2013  21 05  -21.0195 26048.7 -03381.3 -07.3960 26267.3
 13 01 2013  21 06  -21.0197 26048.3 -03381.3 -07.3961 26266.9
 13 01 2013  21 07  -21.0201 26047.9 -03381.4 -07.3964 26266.5
 13 01 2013  21 08  -21.0207 26047.4 -03381.4 -07.3965 26266.0
 13 01 2013  21 09  -21.0211 26046.7 -03381.3 -07.3965 26265.2
 13 01 2013  21 10  -21.0218 26046.1 -03381.2 -07.3965 26264.6
 13 01 2013  21 11  -21.0223 26045.2 -03381.0 -07.3964 26263.7
 13 01 2013  21 12  -21.0226 26044.7 -03380.9 -07.3964 26263.2
 13 01 2013  21 13  -21.0230 26043.8 -03380.8 -07.3963 26262.3
 13 01 2013  21 14  -21.0231 26043.1 -03380.7 -07.3963 26261.6
 13 01 2013  21 15  -21.0231 26042.3 -03380.6 -07.3962 26260.8
 13 01 2013  21 16  -21.0231 26041.5 -03380.5 -07.3963 26260.0
 13 01 2013  21 17  -21.0232 26040.8 -03380.5 -07.3964 26259.3
 13 01 2013  21 18  -21.0231 26040.3 -03380.5 -07.3967 26258.8
 13 01 2013  21 19  -21.0228 26040.0 -03380.7 -07.3973 26258.5
 13 01 2013  21 20  -21.0226 26040.0 -03381.1 -07.3981 26258.6
 13 01 2013  21 21  -21.0224 26039.9 -03381.5 -07.3989 26258.5
 13 01 2013  21 22  -21.0223 26039.4 -03381.7 -07.3994 26258.1
 13 01 2013  21 23  -21.0223 26038.7 -03381.6 -07.3995 26257.3
 13 01 2013  21 24  -21.0228 26037.4 -03381.3 -07.3993 26256.0
 13 01 2013  21 25  -21.0238 26036.0 -03381.0 -07.3989 26254.6
 13 01 2013  21 26  -21.0251 26034.8 -03380.7 -07.3986 26253.4
 13 01 2013  21 27  -21.0264 26034.3 -03380.8 -07.3990 26252.9
 13 01 2013  21 28  -21.0272 26033.9 -03380.9 -07.3994 26252.5
 13 01 2013  21 29  -21.0280 26033.4 -03381.0 -07.3997 26252.0
 13 01 2013  21 30  -21.0288 26032.8 -03381.0 -07.3998 26251.4
 13 01 2013  21 31  -21.0291 26032.3 -03381.0 -07.3999 26250.9
 13 01 2013  21 32  -21.0293 26031.6 -03380.9 -07.4000 26250.3
 13 01 2013  21 33  -21.0295 26031.0 -03380.8 -07.3999 26249.6
 13 01 2013  21 34  -21.0296 26030.7 -03380.9 -07.4001 26249.3
 13 01 2013  21 35  -21.0298 26030.1 -03380.9 -07.4003 26248.8
 13 01 2013  21 36  -21.0301 26029.1 -03380.6 -07.3999 26247.8
 13 01 2013  21 37  -21.0305 26028.7 -03380.6 -07.4001 26247.4
 13 01 2013  21 38  -21.0309 26028.1 -03380.5 -07.4001 26246.7
 13 01 2013  21 39  -21.0313 26027.5 -03380.5 -07.4002 26246.1
 13 01 2013  21 40  -21.0313 26027.4 -03380.6 -07.4006 26246.0
 13 01 2013  21 41  -21.0307 26027.8 -03381.1 -07.4014 26246.4
 13 01 2013  21 42  -21.0300 26027.9 -03381.4 -07.4021 26246.6
 13 01 2013  21 43  -21.0293 26028.2 -03381.8 -07.4029 26247.0
 13 01 2013  21 44  -21.0286 26028.6 -03382.2 -07.4037 26247.4
 13 01 2013  21 45  -21.0282 26028.8 -03382.6 -07.4045 26247.7
 13 01 2013  21 46  -21.0294 26027.8 -03382.5 -07.4044 26246.7
 13 01 2013  21 47  -21.0317 26026.9 -03382.2 -07.4041 26245.7
 13 01 2013  21 48  -21.0341 26026.7 -03382.3 -07.4043 26245.5
 13 01 2013  21 49  -21.0359 26026.6 -03382.4 -07.4046 26245.5
 13 01 2013  21 50  -21.0370 26026.3 -03382.4 -07.4046 26245.2
 13 01 2013  21 51  -21.0376 26025.9 -03382.3 -07.4045 26244.8
 13 01 2013  21 52  -21.0382 26024.9 -03381.8 -07.4038 26243.7
 13 01 2013  21 53  -21.0387 26024.1 -03381.5 -07.4033 26242.9
 13 01 2013  21 54  -21.0388 26023.2 -03381.2 -07.4029 26241.9
 13 01 2013  21 55  -21.0385 26022.5 -03380.9 -07.4024 26241.2
 13 01 2013  21 56  -21.0377 26022.2 -03380.9 -07.4025 26240.9
 13 01 2013  21 57  -21.0366 26021.9 -03380.9 -07.4026 26240.6
 13 01 2013  21 58  -21.0356 26021.6 -03380.9 -07.4028 26240.4
 13 01 2013  21 59  -21.0349 26021.7 -03381.2 -07.4033 26240.4
 13 01 2013  22 00  -21.0339 26021.6 -03381.4 -07.4039 26240.4
 13 01 2013  22 01  -21.0333 26021.3 -03381.5 -07.4042 26240.1
 13 01 2013  22 02  -21.0330 26020.6 -03381.5 -07.4043 26239.4
 13 01 2013  22 03  -21.0334 26020.1 -03381.4 -07.4044 26238.9
 13 01 2013  22 04  -21.0337 26020.1 -03381.7 -07.4049 26238.9
 13 01 2013  22 05  -21.0338 26020.1 -03381.9 -07.4054 26239.0
 13 01 2013  22 06  -21.0337 26020.2 -03382.2 -07.4059 26239.1
 13 01 2013  22 07  -21.0334 26020.1 -03382.3 -07.4061 26239.0
 13 01 2013  22 08  -21.0331 26020.3 -03382.5 -07.4067 26239.2
 13 01 2013  22 09  -21.0331 26020.2 -03382.7 -07.4070 26239.2
 13 01 2013  22 10  -21.0333 26020.1 -03382.8 -07.4073 26239.1
 13 01 2013  22 11  -21.0339 26019.7 -03382.8 -07.4075 26238.7
 13 01 2013  22 12  -21.0345 26019.7 -03382.9 -07.4077 26238.7
 13 01 2013  22 13  -21.0355 26019.8 -03383.1 -07.4081 26238.8
 13 01 2013  22 14  -21.0367 26019.7 -03383.3 -07.4084 26238.7
 13 01 2013  22 15  -21.0375 26020.4 -03383.7 -07.4091 26239.4
 13 01 2013  22 16  -21.0376 26021.0 -03384.1 -07.4099 26240.2
 13 01 2013  22 17  -21.0373 26021.9 -03384.5 -07.4106 26241.1
 13 01 2013  22 18  -21.0373 26022.4 -03384.8 -07.4111 26241.6
 13 01 2013  22 19  -21.0377 26022.7 -03385.0 -07.4114 26241.9
 13 01 2013  22 20  -21.0389 26022.8 -03385.2 -07.4117 26242.1
 13 01 2013  22 21  -21.0408 26022.5 -03385.1 -07.4116 26241.8
 13 01 2013  22 22  -21.0428 26022.4 -03385.0 -07.4115 26241.6
 13 01 2013  22 23  -21.0445 26022.0 -03384.8 -07.4111 26241.3
 13 01 2013  22 24  -21.0456 26021.9 -03384.6 -07.4108 26241.1
 13 01 2013  22 25  -21.0462 26021.7 -03384.4 -07.4104 26240.9
 13 01 2013  22 26  -21.0463 26021.6 -03384.2 -07.4100 26240.7
 13 01 2013  22 27  -21.0460 26021.7 -03384.2 -07.4099 26240.9
 13 01 2013  22 28  -21.0459 26021.9 -03384.3 -07.4100 26241.0
 13 01 2013  22 29  -21.0455 26022.0 -03384.3 -07.4101 26241.1
 13 01 2013  22 30  -21.0446 26022.4 -03384.5 -07.4103 26241.6
 13 01 2013  22 31  -21.0438 26022.5 -03384.5 -07.4104 26241.6
 13 01 2013  22 32  -21.0430 26022.0 -03384.3 -07.4100 26241.1
 13 01 2013  22 33  -21.0424 26022.0 -03384.3 -07.4099 26241.1
 13 01 2013  22 34  -21.0422 26021.8 -03384.3 -07.4100 26240.9
 13 01 2013  22 35  -21.0418 26021.5 -03384.1 -07.4098 26240.6
 13 01 2013  22 36  -21.0412 26021.6 -03384.2 -07.4099 26240.7
 13 01 2013  22 37  -21.0407 26021.6 -03384.3 -07.4101 26240.7
 13 01 2013  22 38  -21.0400 26021.9 -03384.5 -07.4104 26241.0
 13 01 2013  22 39  -21.0395 26022.3 -03384.7 -07.4109 26241.5
 13 01 2013  22 40  -21.0390 26022.7 -03385.0 -07.4113 26241.9
 13 01 2013  22 41  -21.0382 26023.2 -03385.3 -07.4119 26242.5
 13 01 2013  22 42  -21.0377 26023.8 -03385.6 -07.4124 26243.1
 13 01 2013  22 43  -21.0367 26024.6 -03386.0 -07.4130 26243.9
 13 01 2013  22 44  -21.0359 26025.3 -03386.4 -07.4137 26244.7
 13 01 2013  22 45  -21.0350 26026.0 -03386.7 -07.4142 26245.4
 13 01 2013  22 46  -21.0341 26026.5 -03387.0 -07.4145 26245.9
 13 01 2013  22 47  -21.0331 26027.1 -03387.2 -07.4149 26246.6
 13 01 2013  22 48  -21.0322 26028.0 -03387.6 -07.4154 26247.5
 13 01 2013  22 49  -21.0316 26028.7 -03387.9 -07.4160 26248.3
 13 01 2013  22 50  -21.0300 26029.5 -03388.2 -07.4163 26249.1
 13 01 2013  22 51  -21.0278 26030.7 -03388.7 -07.4171 26250.4
 13 01 2013  22 52  -21.0263 26031.0 -03388.9 -07.4174 26250.7
 13 01 2013  22 53  -21.0248 26031.3 -03388.9 -07.4173 26250.9
 13 01 2013  22 54  -21.0230 26032.6 -03389.5 -07.4182 26252.4
 13 01 2013  22 55  -21.0218 26033.4 -03389.9 -07.4190 26253.2
 13 01 2013  22 56  -21.0206 26033.8 -03390.1 -07.4192 26253.6
 13 01 2013  22 57  -21.0194 26033.7 -03390.0 -07.4190 26253.5
 13 01 2013  22 58  -21.0184 26033.4 -03389.8 -07.4187 26253.2
 13 01 2013  22 59  -21.0174 26034.0 -03390.0 -07.4190 26253.8
 13 01 2013  23 00  -21.0165 26034.6 -03390.4 -07.4196 26254.4
 13 01 2013  23 01  -21.0153 26035.4 -03390.7 -07.4201 26255.2
 13 01 2013  23 02  -21.0137 26036.7 -03391.3 -07.4211 26256.6
 13 01 2013  23 03  -21.0124 26037.9 -03391.9 -07.4219 26257.9
 13 01 2013  23 04  -21.0111 26039.1 -03392.5 -07.4229 26259.2
 13 01 2013  23 05  -21.0098 26040.3 -03393.0 -07.4238 26260.4
 13 01 2013  23 06  -21.0089 26040.5 -03393.1 -07.4239 26260.7
 13 01 2013  23 07  -21.0082 26040.7 -03393.1 -07.4238 26260.8
 13 01 2013  23 08  -21.0074 26041.1 -03393.2 -07.4238 26261.2
 13 01 2013  23 09  -21.0067 26041.6 -03393.3 -07.4239 26261.7
 13 01 2013  23 10  -21.0061 26042.2 -03393.5 -07.4242 26262.3
 13 01 2013  23 11  -21.0059 26042.4 -03393.5 -07.4243 26262.6
 13 01 2013  23 12  -21.0053 26043.7 -03394.0 -07.4249 26263.9
 13 01 2013  23 13  -21.0053 26044.0 -03394.2 -07.4252 26264.3
 13 01 2013  23 14  -21.0060 26043.9 -03394.1 -07.4250 26264.2
 13 01 2013  23 15  -21.0062 26043.6 -03393.7 -07.4243 26263.8
 13 01 2013  23 16  -21.0068 26043.3 -03393.4 -07.4238 26263.4
 13 01 2013  23 17  -21.0077 26042.7 -03393.0 -07.4231 26262.8
 13 01 2013  23 18  -21.0084 26042.2 -03392.6 -07.4224 26262.2
 13 01 2013  23 19  -21.0091 26041.6 -03392.2 -07.4217 26261.6
 13 01 2013  23 20  -21.0096 26041.2 -03392.0 -07.4212 26261.2
 13 01 2013  23 21  -21.0103 26041.0 -03391.8 -07.4209 26261.0
 13 01 2013  23 22  -21.0108 26040.9 -03391.7 -07.4207 26260.9
 13 01 2013  23 23  -21.0109 26041.0 -03391.6 -07.4206 26260.9
 13 01 2013  23 24  -21.0108 26041.2 -03391.7 -07.4207 26261.2
 13 01 2013  23 25  -21.0109 26041.1 -03391.6 -07.4205 26261.0
 13 01 2013  23 26  -21.0107 26040.8 -03391.4 -07.4201 26260.8
 13 01 2013  23 27  -21.0107 26040.4 -03391.2 -07.4197 26260.3
 13 01 2013  23 28  -21.0112 26039.5 -03390.7 -07.4190 26259.3
 13 01 2013  23 29  -21.0116 26038.7 -03390.3 -07.4183 26258.5
 13 01 2013  23 30  -21.0116 26038.7 -03390.2 -07.4182 26258.4
 13 01 2013  23 31  -21.0111 26039.1 -03390.4 -07.4185 26258.9
 13 01 2013  23 32  -21.0107 26039.1 -03390.5 -07.4187 26258.9
 13 01 2013  23 33  -21.0101 26039.1 -03390.6 -07.4188 26259.0
 13 01 2013  23 34  -21.0099 26038.8 -03390.4 -07.4186 26258.6
 13 01 2013  23 35  -21.0091 26038.9 -03390.5 -07.4186 26258.7
 13 01 2013  23 36  -21.0085 26039.0 -03390.6 -07.4188 26258.8
 13 01 2013  23 37  -21.0078 26038.7 -03390.5 -07.4187 26258.5
 13 01 2013  23 38  -21.0073 26038.0 -03390.2 -07.4183 26257.8
 13 01 2013  23 39  -21.0074 26037.1 -03389.8 -07.4177 26256.8
 13 01 2013  23 40  -21.0078 26036.4 -03389.5 -07.4173 26256.1
 13 01 2013  23 41  -21.0084 26035.9 -03389.4 -07.4171 26255.6
 13 01 2013  23 42  -21.0090 26035.5 -03389.3 -07.4169 26255.2
 13 01 2013  23 43  -21.0097 26035.5 -03389.3 -07.4171 26255.2
 13 01 2013  23 44  -21.0105 26035.5 -03389.4 -07.4173 26255.2
 13 01 2013  23 45  -21.0107 26035.7 -03389.6 -07.4175 26255.4
 13 01 2013  23 46  -21.0111 26036.0 -03389.7 -07.4178 26255.8
 13 01 2013  23 47  -21.0116 26036.3 -03389.9 -07.4181 26256.0
 13 01 2013  23 48  -21.0118 26036.3 -03390.0 -07.4183 26256.1
 13 01 2013  23 49  -21.0121 26036.6 -03390.1 -07.4185 26256.4
 13 01 2013  23 50  -21.0124 26036.8 -03390.2 -07.4186 26256.6
 13 01 2013  23 51  -21.0126 26037.0 -03390.2 -07.4186 26256.8
 13 01 2013  23 52  -21.0128 26037.5 -03390.5 -07.4190 26257.3
 13 01 2013  23 53  -21.0127 26038.1 -03390.7 -07.4194 26257.9
 13 01 2013  23 54  -21.0126 26038.4 -03390.9 -07.4196 26258.2
 13 01 2013  23 55  -21.0123 26038.0 -03390.7 -07.4193 26257.8
 13 01 2013  23 56  -21.0120 26037.3 -03390.3 -07.4187 26257.1
 13 01 2013  23 57  -21.0119 26036.5 -03389.8 -07.4179 26256.2
 13 01 2013  23 58  -21.0121 26036.1 -03389.6 -07.4175 26255.8
