SAO LUIS EMBRACE-03 <071> 1 Min. Reported data

 DD MM YYYY  HH MM   D(Deg)  H(nT)   Z(nT)   I(Deg)   F(nT)

 12 03 2013  00 00  -21.0319 26051.2 -03417.5 -07.4736 26274.4
 12 03 2013  00 01  -21.0316 26050.7 -03417.3 -07.4732 26273.9
 12 03 2013  00 02  -21.0311 26050.3 -03417.0 -07.4729 26273.5
 12 03 2013  00 03  -21.0306 26050.3 -03417.0 -07.4728 26273.4
 12 03 2013  00 04  -21.0300 26050.5 -03417.2 -07.4731 26273.6
 12 03 2013  00 05  -21.0297 26050.6 -03417.3 -07.4734 26273.8
 12 03 2013  00 06  -21.0295 26050.8 -03417.5 -07.4737 26274.0
 12 03 2013  00 07  -21.0294 26050.8 -03417.6 -07.4739 26274.0
 12 03 2013  00 08  -21.0293 26050.7 -03417.6 -07.4740 26273.9
 12 03 2013  00 09  -21.0290 26050.6 -03417.6 -07.4740 26273.8
 12 03 2013  00 10  -21.0286 26050.6 -03417.6 -07.4740 26273.8
 12 03 2013  00 11  -21.0285 26050.5 -03417.6 -07.4740 26273.7
 12 03 2013  00 12  -21.0287 26050.2 -03417.5 -07.4739 26273.4
 12 03 2013  00 13  -21.0289 26050.0 -03417.5 -07.4739 26273.2
 12 03 2013  00 14  -21.0291 26049.7 -03417.4 -07.4738 26272.9
 12 03 2013  00 15  -21.0293 26049.5 -03417.3 -07.4737 26272.7
 12 03 2013  00 16  -21.0296 26049.4 -03417.3 -07.4736 26272.6
 12 03 2013  00 17  -21.0296 26049.4 -03417.3 -07.4737 26272.6
 12 03 2013  00 18  -21.0294 26049.4 -03417.3 -07.4737 26272.6
 12 03 2013  00 19  -21.0293 26049.4 -03417.4 -07.4739 26272.6
 12 03 2013  00 20  -21.0290 26049.5 -03417.5 -07.4740 26272.7
 12 03 2013  00 21  -21.0287 26049.5 -03417.5 -07.4741 26272.7
 12 03 2013  00 22  -21.0284 26049.6 -03417.6 -07.4742 26272.8
 12 03 2013  00 23  -21.0283 26049.6 -03417.7 -07.4744 26272.8
 12 03 2013  00 24  -21.0282 26049.6 -03417.7 -07.4745 26272.9
 12 03 2013  00 25  -21.0280 26049.6 -03417.7 -07.4746 26272.9
 12 03 2013  00 26  -21.0279 26049.6 -03417.8 -07.4746 26272.9
 12 03 2013  00 27  -21.0278 26049.6 -03417.8 -07.4747 26272.8
 12 03 2013  00 28  -21.0276 26049.7 -03417.8 -07.4748 26272.9
 12 03 2013  00 29  -21.0274 26049.7 -03417.9 -07.4749 26273.0
 12 03 2013  00 30  -21.0272 26049.8 -03417.9 -07.4750 26273.1
 12 03 2013  00 31  -21.0272 26049.8 -03418.0 -07.4751 26273.1
 12 03 2013  00 32  -21.0273 26049.7 -03417.9 -07.4750 26272.9
 12 03 2013  00 33  -21.0273 26049.8 -03418.0 -07.4751 26273.0
 12 03 2013  00 34  -21.0273 26049.7 -03418.0 -07.4751 26273.0
 12 03 2013  00 35  -21.0275 26049.4 -03417.9 -07.4749 26272.7
 12 03 2013  00 36  -21.0277 26049.3 -03417.9 -07.4749 26272.6
 12 03 2013  00 37  -21.0279 26049.3 -03417.9 -07.4750 26272.6
 12 03 2013  00 38  -21.0277 26049.7 -03418.1 -07.4753 26273.0
 12 03 2013  00 39  -21.0275 26049.1 -03417.9 -07.4750 26272.4
 12 03 2013  00 40  -21.0270 26049.5 -03417.9 -07.4750 26272.8
 12 03 2013  00 41  -21.0264 26049.7 -03418.1 -07.4753 26273.0
 12 03 2013  00 42  -21.0262 26049.4 -03418.0 -07.4751 26272.7
 12 03 2013  00 43  -21.0263 26050.0 -03418.3 -07.4757 26273.3
 12 03 2013  00 44  -21.0262 26050.3 -03418.5 -07.4760 26273.6
 12 03 2013  00 45  -21.0260 26050.4 -03418.6 -07.4762 26273.7
 12 03 2013  00 46  -21.0259 26050.5 -03418.6 -07.4762 26273.9
 12 03 2013  00 47  -21.0259 26050.2 -03418.5 -07.4761 26273.6
 12 03 2013  00 48  -21.0259 26050.3 -03418.6 -07.4761 26273.7
 12 03 2013  00 49  -21.0259 26050.4 -03418.7 -07.4763 26273.8
 12 03 2013  00 50  -21.0260 26050.3 -03418.6 -07.4761 26273.6
 12 03 2013  00 51  -21.0260 26050.5 -03418.7 -07.4763 26273.8
 12 03 2013  00 52  -21.0260 26050.3 -03418.5 -07.4761 26273.6
 12 03 2013  00 53  -21.0258 26050.3 -03418.6 -07.4761 26273.7
 12 03 2013  00 54  -21.0257 26050.3 -03418.5 -07.4761 26273.7
 12 03 2013  00 55  -21.0259 26050.0 -03418.4 -07.4759 26273.3
 12 03 2013  00 56  -21.0260 26049.8 -03418.3 -07.4757 26273.2
 12 03 2013  00 57  -21.0261 26049.6 -03418.2 -07.4756 26272.9
 12 03 2013  00 58  -21.0263 26049.4 -03418.1 -07.4755 26272.7
 12 03 2013  00 59  -21.0263 26049.3 -03418.1 -07.4755 26272.6
 12 03 2013  01 00  -21.0265 26049.1 -03418.1 -07.4754 26272.4
 12 03 2013  01 01  -21.0267 26049.0 -03418.0 -07.4754 26272.3
 12 03 2013  01 02  -21.0266 26048.8 -03418.0 -07.4753 26272.1
 12 03 2013  01 03  -21.0265 26048.6 -03417.9 -07.4752 26271.9
 12 03 2013  01 04  -21.0263 26048.4 -03417.8 -07.4750 26271.7
 12 03 2013  01 05  -21.0262 26048.4 -03417.8 -07.4751 26271.7
 12 03 2013  01 06  -21.0263 26048.1 -03417.7 -07.4750 26271.3
 12 03 2013  01 07  -21.0263 26047.8 -03417.6 -07.4748 26271.1
 12 03 2013  01 08  -21.0265 26047.7 -03417.6 -07.4749 26271.0
 12 03 2013  01 09  -21.0264 26047.6 -03417.6 -07.4748 26270.9
 12 03 2013  01 10  -21.0265 26047.5 -03417.6 -07.4749 26270.8
 12 03 2013  01 11  -21.0263 26047.4 -03417.6 -07.4749 26270.7
 12 03 2013  01 12  -21.0261 26047.3 -03417.6 -07.4749 26270.6
 12 03 2013  01 13  -21.0260 26047.2 -03417.6 -07.4749 26270.5
 12 03 2013  01 14  -21.0259 26047.3 -03417.6 -07.4750 26270.6
 12 03 2013  01 15  -21.0256 26047.2 -03417.7 -07.4752 26270.5
 12 03 2013  01 16  -21.0254 26047.3 -03417.7 -07.4751 26270.5
 12 03 2013  01 17  -21.0254 26047.4 -03417.8 -07.4754 26270.6
 12 03 2013  01 18  -21.0253 26047.2 -03417.8 -07.4753 26270.5
 12 03 2013  01 19  -21.0253 26047.4 -03417.9 -07.4756 26270.7
 12 03 2013  01 20  -21.0255 26047.5 -03418.1 -07.4758 26270.8
 12 03 2013  01 21  -21.0258 26047.3 -03418.0 -07.4758 26270.6
 12 03 2013  01 22  -21.0262 26047.4 -03418.1 -07.4760 26270.8
 12 03 2013  01 23  -21.0266 26047.6 -03418.2 -07.4762 26270.9
 12 03 2013  01 24  -21.0268 26047.7 -03418.3 -07.4764 26271.1
 12 03 2013  01 25  -21.0270 26047.7 -03418.3 -07.4763 26271.0
 12 03 2013  01 26  -21.0268 26048.2 -03418.5 -07.4767 26271.6
 12 03 2013  01 27  -21.0267 26047.6 -03418.3 -07.4763 26271.0
 12 03 2013  01 28  -21.0263 26047.8 -03418.3 -07.4763 26271.1
 12 03 2013  01 29  -21.0264 26047.7 -03418.3 -07.4763 26271.1
 12 03 2013  01 30  -21.0266 26047.3 -03418.1 -07.4760 26270.6
 12 03 2013  01 31  -21.0262 26047.5 -03418.2 -07.4761 26270.9
 12 03 2013  01 32  -21.0260 26047.1 -03418.0 -07.4758 26270.4
 12 03 2013  01 33  -21.0257 26047.6 -03418.2 -07.4762 26270.9
 12 03 2013  01 34  -21.0254 26047.6 -03418.3 -07.4764 26271.0
 12 03 2013  01 35  -21.0255 26048.0 -03418.5 -07.4767 26271.4
 12 03 2013  01 36  -21.0255 26048.1 -03418.7 -07.4770 26271.5
 12 03 2013  01 37  -21.0253 26048.3 -03418.7 -07.4771 26271.7
 12 03 2013  01 38  -21.0246 26048.4 -03418.8 -07.4771 26271.8
 12 03 2013  01 39  -21.0238 26048.7 -03418.9 -07.4773 26272.1
 12 03 2013  01 40  -21.0238 26048.9 -03419.0 -07.4775 26272.3
 12 03 2013  01 41  -21.0235 26049.3 -03419.2 -07.4778 26272.7
 12 03 2013  01 42  -21.0235 26049.2 -03419.3 -07.4779 26272.7
 12 03 2013  01 43  -21.0235 26049.5 -03419.3 -07.4781 26272.9
 12 03 2013  01 44  -21.0239 26049.7 -03419.5 -07.4783 26273.2
 12 03 2013  01 45  -21.0243 26049.6 -03419.4 -07.4782 26273.1
 12 03 2013  01 46  -21.0244 26049.1 -03419.2 -07.4778 26272.6
 12 03 2013  01 47  -21.0254 26048.7 -03418.9 -07.4774 26272.1
 12 03 2013  01 48  -21.0266 26048.0 -03418.6 -07.4769 26271.4
 12 03 2013  01 49  -21.0275 26047.4 -03418.3 -07.4764 26270.7
 12 03 2013  01 50  -21.0281 26046.7 -03418.0 -07.4759 26270.0
 12 03 2013  01 51  -21.0284 26046.4 -03417.8 -07.4756 26269.7
 12 03 2013  01 52  -21.0286 26046.3 -03417.7 -07.4755 26269.5
 12 03 2013  01 53  -21.0287 26046.1 -03417.7 -07.4754 26269.4
 12 03 2013  01 54  -21.0291 26046.1 -03417.7 -07.4756 26269.4
 12 03 2013  01 55  -21.0291 26046.2 -03417.8 -07.4757 26269.5
 12 03 2013  01 56  -21.0288 26046.3 -03417.9 -07.4758 26269.6
 12 03 2013  01 57  -21.0279 26046.4 -03417.9 -07.4759 26269.7
 12 03 2013  01 58  -21.0271 26046.5 -03418.0 -07.4760 26269.8
 12 03 2013  01 59  -21.0261 26046.6 -03418.1 -07.4761 26269.9
 12 03 2013  02 00  -21.0255 26046.8 -03418.2 -07.4764 26270.1
 12 03 2013  02 01  -21.0249 26047.0 -03418.3 -07.4766 26270.3
 12 03 2013  02 02  -21.0244 26047.0 -03418.4 -07.4768 26270.4
 12 03 2013  02 03  -21.0242 26047.0 -03418.5 -07.4769 26270.3
 12 03 2013  02 04  -21.0240 26046.9 -03418.4 -07.4769 26270.3
 12 03 2013  02 05  -21.0241 26046.9 -03418.5 -07.4770 26270.3
 12 03 2013  02 06  -21.0243 26047.1 -03418.7 -07.4773 26270.5
 12 03 2013  02 07  -21.0248 26047.2 -03418.8 -07.4775 26270.6
 12 03 2013  02 08  -21.0251 26047.1 -03418.8 -07.4775 26270.5
 12 03 2013  02 09  -21.0252 26047.3 -03418.9 -07.4777 26270.7
 12 03 2013  02 10  -21.0257 26047.3 -03418.9 -07.4777 26270.7
 12 03 2013  02 11  -21.0256 26047.5 -03419.0 -07.4779 26271.0
 12 03 2013  02 12  -21.0256 26047.1 -03418.8 -07.4775 26270.5
 12 03 2013  02 13  -21.0254 26047.2 -03418.8 -07.4776 26270.6
 12 03 2013  02 14  -21.0252 26047.5 -03418.9 -07.4776 26270.9
 12 03 2013  02 15  -21.0251 26047.5 -03419.0 -07.4778 26270.9
 12 03 2013  02 16  -21.0250 26047.8 -03419.2 -07.4782 26271.3
 12 03 2013  02 17  -21.0247 26048.6 -03419.5 -07.4786 26272.1
 12 03 2013  02 18  -21.0243 26049.2 -03419.9 -07.4793 26272.7
 12 03 2013  02 19  -21.0246 26049.1 -03419.9 -07.4794 26272.6
 12 03 2013  02 20  -21.0245 26049.5 -03420.0 -07.4796 26273.1
 12 03 2013  02 21  -21.0244 26049.8 -03420.2 -07.4798 26273.3
 12 03 2013  02 22  -21.0241 26050.2 -03420.4 -07.4801 26273.8
 12 03 2013  02 23  -21.0245 26049.6 -03420.1 -07.4798 26273.1
 12 03 2013  02 24  -21.0244 26050.2 -03420.3 -07.4800 26273.8
 12 03 2013  02 25  -21.0249 26049.7 -03420.2 -07.4799 26273.2
 12 03 2013  02 26  -21.0252 26049.7 -03420.1 -07.4797 26273.3
 12 03 2013  02 27  -21.0253 26049.6 -03420.1 -07.4797 26273.1
 12 03 2013  02 28  -21.0258 26049.1 -03419.9 -07.4793 26272.7
 12 03 2013  02 29  -21.0265 26048.2 -03419.4 -07.4786 26271.6
 12 03 2013  02 30  -21.0267 26047.9 -03419.2 -07.4783 26271.4
 12 03 2013  02 31  -21.0274 26046.9 -03418.8 -07.4777 26270.4
 12 03 2013  02 32  -21.0273 26046.5 -03418.6 -07.4773 26269.9
 12 03 2013  02 33  -21.0277 26046.0 -03418.4 -07.4770 26269.3
 12 03 2013  02 34  -21.0282 26045.3 -03418.1 -07.4765 26268.6
 12 03 2013  02 35  -21.0286 26045.1 -03418.1 -07.4765 26268.4
 12 03 2013  02 36  -21.0294 26044.7 -03418.0 -07.4765 26268.1
 12 03 2013  02 37  -21.0300 26044.7 -03418.0 -07.4766 26268.0
 12 03 2013  02 38  -21.0307 26044.6 -03418.1 -07.4767 26267.9
 12 03 2013  02 39  -21.0314 26044.7 -03418.2 -07.4770 26268.1
 12 03 2013  02 40  -21.0322 26044.6 -03418.2 -07.4770 26267.9
 12 03 2013  02 41  -21.0324 26044.8 -03418.3 -07.4772 26268.1
 12 03 2013  02 42  -21.0327 26044.9 -03418.5 -07.4775 26268.3
 12 03 2013  02 43  -21.0326 26045.0 -03418.5 -07.4775 26268.4
 12 03 2013  02 44  -21.0324 26045.1 -03418.6 -07.4777 26268.5
 12 03 2013  02 45  -21.0320 26045.2 -03418.6 -07.4776 26268.6
 12 03 2013  02 46  -21.0318 26045.4 -03418.8 -07.4780 26268.8
 12 03 2013  02 47  -21.0319 26045.2 -03418.6 -07.4778 26268.6
 12 03 2013  02 48  -21.0315 26046.0 -03419.1 -07.4785 26269.4
 12 03 2013  02 49  -21.0318 26045.6 -03419.0 -07.4783 26269.0
 12 03 2013  02 50  -21.0317 26046.2 -03419.2 -07.4787 26269.6
 12 03 2013  02 51  -21.0319 26046.1 -03419.2 -07.4788 26269.6
 12 03 2013  02 52  -21.0320 26046.3 -03419.4 -07.4790 26269.8
 12 03 2013  02 53  -21.0321 26046.6 -03419.5 -07.4793 26270.1
 12 03 2013  02 54  -21.0323 26046.7 -03419.6 -07.4794 26270.2
 12 03 2013  02 55  -21.0324 26046.8 -03419.7 -07.4795 26270.4
 12 03 2013  02 56  -21.0324 26047.0 -03419.8 -07.4797 26270.6
 12 03 2013  02 57  -21.0323 26047.4 -03419.9 -07.4799 26270.9
 12 03 2013  02 58  -21.0323 26047.4 -03420.0 -07.4800 26271.0
 12 03 2013  02 59  -21.0323 26047.5 -03420.0 -07.4800 26271.1
 12 03 2013  03 00  -21.0325 26047.7 -03420.1 -07.4802 26271.2
 12 03 2013  03 01  -21.0329 26047.5 -03420.0 -07.4801 26271.1
 12 03 2013  03 02  -21.0330 26047.5 -03420.0 -07.4801 26271.1
 12 03 2013  03 03  -21.0327 26047.4 -03419.9 -07.4799 26271.0
 12 03 2013  03 04  -21.0321 26047.0 -03419.7 -07.4796 26270.5
 12 03 2013  03 05  -21.0313 26046.6 -03419.4 -07.4790 26270.1
 12 03 2013  03 06  -21.0307 26046.7 -03419.4 -07.4790 26270.2
 12 03 2013  03 07  -21.0309 26046.6 -03419.5 -07.4792 26270.1
 12 03 2013  03 08  -21.0309 26047.1 -03419.8 -07.4797 26270.6
 12 03 2013  03 09  -21.0310 26047.4 -03420.0 -07.4801 26271.0
 12 03 2013  03 10  -21.0313 26047.8 -03420.2 -07.4805 26271.3
 12 03 2013  03 11  -21.0318 26048.0 -03420.4 -07.4808 26271.7
 12 03 2013  03 12  -21.0322 26048.4 -03420.6 -07.4811 26272.0
 12 03 2013  03 13  -21.0326 26048.6 -03420.7 -07.4813 26272.2
 12 03 2013  03 14  -21.0329 26049.5 -03421.1 -07.4818 26273.2
 12 03 2013  03 15  -21.0335 26049.1 -03421.0 -07.4817 26272.8
 12 03 2013  03 16  -21.0333 26049.5 -03421.0 -07.4816 26273.1
 12 03 2013  03 17  -21.0329 26049.0 -03420.7 -07.4811 26272.6
 12 03 2013  03 18  -21.0326 26048.6 -03420.4 -07.4806 26272.2
 12 03 2013  03 19  -21.0325 26048.4 -03420.3 -07.4803 26272.0
 12 03 2013  03 20  -21.0324 26048.4 -03420.3 -07.4804 26272.0
 12 03 2013  03 21  -21.0324 26048.2 -03420.2 -07.4802 26271.8
 12 03 2013  03 22  -21.0324 26048.2 -03420.2 -07.4802 26271.8
 12 03 2013  03 23  -21.0326 26048.4 -03420.3 -07.4804 26272.0
 12 03 2013  03 24  -21.0330 26048.5 -03420.3 -07.4805 26272.1
 12 03 2013  03 25  -21.0332 26048.8 -03420.5 -07.4808 26272.5
 12 03 2013  03 26  -21.0335 26049.0 -03420.6 -07.4809 26272.6
 12 03 2013  03 27  -21.0337 26049.1 -03420.6 -07.4810 26272.7
 12 03 2013  03 28  -21.0339 26049.0 -03420.6 -07.4809 26272.6
 12 03 2013  03 29  -21.0342 26048.9 -03420.6 -07.4808 26272.6
 12 03 2013  03 30  -21.0343 26048.9 -03420.5 -07.4808 26272.5
 12 03 2013  03 31  -21.0345 26049.0 -03420.5 -07.4807 26272.6
 12 03 2013  03 32  -21.0348 26048.8 -03420.4 -07.4805 26272.4
 12 03 2013  03 33  -21.0349 26048.6 -03420.2 -07.4803 26272.2
 12 03 2013  03 34  -21.0351 26048.3 -03420.1 -07.4801 26271.9
 12 03 2013  03 35  -21.0355 26048.3 -03420.0 -07.4799 26271.8
 12 03 2013  03 36  -21.0359 26048.0 -03419.9 -07.4797 26271.6
 12 03 2013  03 37  -21.0363 26047.8 -03419.8 -07.4794 26271.3
 12 03 2013  03 38  -21.0367 26047.6 -03419.7 -07.4793 26271.1
 12 03 2013  03 39  -21.0371 26047.4 -03419.6 -07.4791 26270.9
 12 03 2013  03 40  -21.0374 26047.4 -03419.5 -07.4791 26270.9
 12 03 2013  03 41  -21.0379 26047.3 -03419.5 -07.4790 26270.8
 12 03 2013  03 42  -21.0382 26047.3 -03419.5 -07.4790 26270.8
 12 03 2013  03 43  -21.0385 26047.2 -03419.4 -07.4789 26270.7
 12 03 2013  03 44  -21.0387 26047.2 -03419.4 -07.4788 26270.7
 12 03 2013  03 45  -21.0389 26047.1 -03419.3 -07.4787 26270.6
 12 03 2013  03 46  -21.0391 26047.1 -03419.3 -07.4786 26270.6
 12 03 2013  03 47  -21.0392 26047.1 -03419.2 -07.4785 26270.5
 12 03 2013  03 48  -21.0394 26047.1 -03419.2 -07.4785 26270.6
 12 03 2013  03 49  -21.0396 26047.2 -03419.2 -07.4784 26270.6
 12 03 2013  03 50  -21.0399 26047.2 -03419.2 -07.4784 26270.7
 12 03 2013  03 51  -21.0400 26047.2 -03419.2 -07.4784 26270.7
 12 03 2013  03 52  -21.0401 26047.2 -03419.2 -07.4783 26270.7
 12 03 2013  03 53  -21.0401 26047.2 -03419.1 -07.4783 26270.6
 12 03 2013  03 54  -21.0402 26047.2 -03419.1 -07.4782 26270.7
 12 03 2013  03 55  -21.0402 26047.3 -03419.1 -07.4781 26270.7
 12 03 2013  03 56  -21.0402 26047.2 -03419.0 -07.4780 26270.7
 12 03 2013  03 57  -21.0401 26047.2 -03419.0 -07.4779 26270.6
 12 03 2013  03 58  -21.0399 26047.2 -03418.9 -07.4778 26270.6
 12 03 2013  03 59  -21.0398 26047.1 -03418.9 -07.4777 26270.6
 12 03 2013  04 00  -21.0397 26047.2 -03418.9 -07.4777 26270.6
 12 03 2013  04 01  -21.0396 26047.3 -03418.9 -07.4777 26270.7
 12 03 2013  04 02  -21.0395 26047.4 -03418.9 -07.4778 26270.9
 12 03 2013  04 03  -21.0395 26047.7 -03419.0 -07.4779 26271.1
 12 03 2013  04 04  -21.0395 26047.8 -03419.1 -07.4780 26271.2
 12 03 2013  04 05  -21.0394 26047.7 -03419.0 -07.4779 26271.1
 12 03 2013  04 06  -21.0391 26048.0 -03419.1 -07.4779 26271.4
 12 03 2013  04 07  -21.0390 26048.0 -03419.1 -07.4779 26271.4
 12 03 2013  04 08  -21.0386 26048.1 -03419.0 -07.4778 26271.5
 12 03 2013  04 09  -21.0384 26048.2 -03419.1 -07.4779 26271.6
 12 03 2013  04 10  -21.0382 26048.2 -03419.1 -07.4779 26271.7
 12 03 2013  04 11  -21.0380 26048.3 -03419.0 -07.4778 26271.7
 12 03 2013  04 12  -21.0377 26048.3 -03419.0 -07.4777 26271.7
 12 03 2013  04 13  -21.0374 26048.1 -03418.9 -07.4775 26271.6
 12 03 2013  04 14  -21.0371 26048.0 -03418.9 -07.4774 26271.4
 12 03 2013  04 15  -21.0369 26047.9 -03418.8 -07.4773 26271.4
 12 03 2013  04 16  -21.0368 26048.0 -03418.8 -07.4774 26271.4
 12 03 2013  04 17  -21.0367 26047.9 -03418.8 -07.4773 26271.3
 12 03 2013  04 18  -21.0366 26047.9 -03418.8 -07.4773 26271.3
 12 03 2013  04 19  -21.0366 26047.9 -03418.8 -07.4774 26271.3
 12 03 2013  04 20  -21.0366 26048.0 -03418.8 -07.4774 26271.4
 12 03 2013  04 21  -21.0365 26047.9 -03418.8 -07.4774 26271.3
 12 03 2013  04 22  -21.0363 26048.0 -03418.8 -07.4774 26271.4
 12 03 2013  04 23  -21.0361 26048.0 -03418.9 -07.4774 26271.5
 12 03 2013  04 24  -21.0359 26048.1 -03418.9 -07.4775 26271.5
 12 03 2013  04 25  -21.0357 26048.2 -03419.0 -07.4776 26271.6
 12 03 2013  04 26  -21.0355 26048.3 -03419.0 -07.4777 26271.7
 12 03 2013  04 27  -21.0352 26048.3 -03419.0 -07.4778 26271.8
 12 03 2013  04 28  -21.0350 26048.4 -03419.1 -07.4778 26271.8
 12 03 2013  04 29  -21.0347 26048.4 -03419.1 -07.4778 26271.8
 12 03 2013  04 30  -21.0345 26048.4 -03419.1 -07.4779 26271.8
 12 03 2013  04 31  -21.0343 26048.4 -03419.1 -07.4779 26271.8
 12 03 2013  04 32  -21.0341 26048.4 -03419.2 -07.4780 26271.9
 12 03 2013  04 33  -21.0340 26048.4 -03419.2 -07.4781 26271.8
 12 03 2013  04 34  -21.0338 26048.4 -03419.2 -07.4781 26271.9
 12 03 2013  04 35  -21.0338 26048.4 -03419.3 -07.4782 26271.9
 12 03 2013  04 36  -21.0337 26048.4 -03419.3 -07.4782 26271.9
 12 03 2013  04 37  -21.0337 26048.3 -03419.3 -07.4783 26271.8
 12 03 2013  04 38  -21.0336 26048.3 -03419.3 -07.4783 26271.8
 12 03 2013  04 39  -21.0335 26048.3 -03419.3 -07.4783 26271.7
 12 03 2013  04 40  -21.0334 26048.3 -03419.3 -07.4784 26271.7
 12 03 2013  04 41  -21.0333 26048.2 -03419.3 -07.4783 26271.7
 12 03 2013  04 42  -21.0332 26048.2 -03419.3 -07.4784 26271.7
 12 03 2013  04 43  -21.0330 26048.2 -03419.4 -07.4785 26271.7
 12 03 2013  04 44  -21.0329 26048.2 -03419.4 -07.4786 26271.6
 12 03 2013  04 45  -21.0327 26048.2 -03419.4 -07.4786 26271.6
 12 03 2013  04 46  -21.0327 26048.1 -03419.5 -07.4787 26271.6
 12 03 2013  04 47  -21.0326 26048.1 -03419.5 -07.4787 26271.6
 12 03 2013  04 48  -21.0327 26048.1 -03419.5 -07.4788 26271.6
 12 03 2013  04 49  -21.0327 26048.1 -03419.6 -07.4789 26271.6
 12 03 2013  04 50  -21.0328 26048.1 -03419.6 -07.4790 26271.6
 12 03 2013  04 51  -21.0329 26048.1 -03419.6 -07.4790 26271.6
 12 03 2013  04 52  -21.0331 26048.2 -03419.7 -07.4791 26271.7
 12 03 2013  04 53  -21.0332 26048.2 -03419.7 -07.4792 26271.7
 12 03 2013  04 54  -21.0333 26048.2 -03419.7 -07.4793 26271.7
 12 03 2013  04 55  -21.0332 26048.2 -03419.8 -07.4794 26271.7
 12 03 2013  04 56  -21.0332 26048.2 -03419.8 -07.4794 26271.7
 12 03 2013  04 57  -21.0331 26048.3 -03419.8 -07.4795 26271.8
 12 03 2013  04 58  -21.0332 26048.3 -03419.9 -07.4796 26271.9
 12 03 2013  04 59  -21.0333 26048.5 -03420.0 -07.4797 26272.0
 12 03 2013  05 00  -21.0336 26048.6 -03420.1 -07.4799 26272.2
 12 03 2013  05 01  -21.0337 26048.7 -03420.1 -07.4800 26272.2
 12 03 2013  05 02  -21.0338 26048.7 -03420.1 -07.4800 26272.3
 12 03 2013  05 03  -21.0339 26048.6 -03420.1 -07.4799 26272.1
 12 03 2013  05 04  -21.0339 26048.6 -03420.0 -07.4798 26272.1
 12 03 2013  05 05  -21.0338 26048.4 -03419.9 -07.4797 26271.9
 12 03 2013  05 06  -21.0336 26048.2 -03419.9 -07.4796 26271.8
 12 03 2013  05 07  -21.0335 26048.1 -03419.8 -07.4794 26271.6
 12 03 2013  05 08  -21.0332 26048.0 -03419.7 -07.4792 26271.5
 12 03 2013  05 09  -21.0330 26047.8 -03419.6 -07.4792 26271.3
 12 03 2013  05 10  -21.0327 26047.6 -03419.6 -07.4792 26271.2
 12 03 2013  05 11  -21.0324 26047.6 -03419.6 -07.4792 26271.1
 12 03 2013  05 12  -21.0321 26047.5 -03419.5 -07.4791 26271.0
 12 03 2013  05 13  -21.0318 26047.4 -03419.6 -07.4792 26270.9
 12 03 2013  05 14  -21.0317 26047.2 -03419.6 -07.4793 26270.7
 12 03 2013  05 15  -21.0318 26047.1 -03419.6 -07.4792 26270.6
 12 03 2013  05 16  -21.0319 26047.0 -03419.6 -07.4792 26270.5
 12 03 2013  05 17  -21.0321 26046.8 -03419.5 -07.4793 26270.3
 12 03 2013  05 18  -21.0323 26046.7 -03419.5 -07.4792 26270.2
 12 03 2013  05 19  -21.0325 26046.6 -03419.5 -07.4793 26270.1
 12 03 2013  05 20  -21.0326 26046.6 -03419.6 -07.4794 26270.1
 12 03 2013  05 21  -21.0327 26046.7 -03419.6 -07.4795 26270.2
 12 03 2013  05 22  -21.0329 26046.7 -03419.7 -07.4795 26270.2
 12 03 2013  05 23  -21.0330 26046.8 -03419.8 -07.4797 26270.3
 12 03 2013  05 24  -21.0331 26046.9 -03419.9 -07.4799 26270.4
 12 03 2013  05 25  -21.0333 26047.0 -03420.0 -07.4801 26270.5
 12 03 2013  05 26  -21.0335 26047.1 -03420.1 -07.4803 26270.7
 12 03 2013  05 27  -21.0336 26047.2 -03420.1 -07.4804 26270.8
 12 03 2013  05 28  -21.0334 26047.3 -03420.2 -07.4805 26270.9
 12 03 2013  05 29  -21.0329 26047.7 -03420.3 -07.4807 26271.3
 12 03 2013  05 30  -21.0333 26047.5 -03420.3 -07.4807 26271.1
 12 03 2013  05 31  -21.0337 26047.7 -03420.5 -07.4810 26271.4
 12 03 2013  05 32  -21.0335 26047.7 -03420.3 -07.4807 26271.3
 12 03 2013  05 33  -21.0330 26048.1 -03420.6 -07.4811 26271.8
 12 03 2013  05 34  -21.0333 26048.0 -03420.6 -07.4811 26271.6
 12 03 2013  05 35  -21.0335 26048.0 -03420.5 -07.4811 26271.7
 12 03 2013  05 36  -21.0335 26048.5 -03420.7 -07.4813 26272.1
 12 03 2013  05 37  -21.0340 26048.6 -03420.8 -07.4815 26272.3
 12 03 2013  05 38  -21.0339 26048.9 -03420.9 -07.4816 26272.6
 12 03 2013  05 39  -21.0339 26049.1 -03421.0 -07.4818 26272.7
 12 03 2013  05 40  -21.0336 26049.1 -03420.9 -07.4816 26272.8
 12 03 2013  05 41  -21.0334 26049.1 -03420.9 -07.4816 26272.8
 12 03 2013  05 42  -21.0333 26049.2 -03421.0 -07.4816 26272.9
 12 03 2013  05 43  -21.0331 26049.5 -03421.1 -07.4819 26273.2
 12 03 2013  05 44  -21.0332 26049.7 -03421.2 -07.4820 26273.4
 12 03 2013  05 45  -21.0331 26049.7 -03421.2 -07.4820 26273.4
 12 03 2013  05 46  -21.0329 26050.1 -03421.3 -07.4822 26273.8
 12 03 2013  05 47  -21.0328 26050.0 -03421.3 -07.4821 26273.7
 12 03 2013  05 48  -21.0323 26049.9 -03421.2 -07.4820 26273.6
 12 03 2013  05 49  -21.0320 26050.2 -03421.3 -07.4821 26273.9
 12 03 2013  05 50  -21.0318 26050.4 -03421.4 -07.4823 26274.1
 12 03 2013  05 51  -21.0319 26050.2 -03421.4 -07.4823 26274.0
 12 03 2013  05 52  -21.0316 26050.2 -03421.3 -07.4821 26273.9
 12 03 2013  05 53  -21.0313 26049.9 -03421.2 -07.4819 26273.6
 12 03 2013  05 54  -21.0312 26049.8 -03421.2 -07.4819 26273.5
 12 03 2013  05 55  -21.0309 26049.8 -03421.1 -07.4818 26273.5
 12 03 2013  05 56  -21.0308 26049.6 -03421.1 -07.4817 26273.3
 12 03 2013  05 57  -21.0309 26049.2 -03420.9 -07.4815 26272.9
 12 03 2013  05 58  -21.0307 26048.8 -03420.7 -07.4812 26272.5
 12 03 2013  05 59  -21.0305 26048.9 -03420.7 -07.4812 26272.5
 12 03 2013  06 00  -21.0305 26048.9 -03420.8 -07.4813 26272.6
 12 03 2013  06 01  -21.0303 26049.0 -03420.9 -07.4816 26272.7
 12 03 2013  06 02  -21.0304 26049.4 -03421.1 -07.4820 26273.1
 12 03 2013  06 03  -21.0305 26049.6 -03421.3 -07.4823 26273.3
 12 03 2013  06 04  -21.0306 26049.9 -03421.5 -07.4827 26273.6
 12 03 2013  06 05  -21.0307 26050.1 -03421.7 -07.4830 26273.9
 12 03 2013  06 06  -21.0307 26050.4 -03421.8 -07.4832 26274.1
 12 03 2013  06 07  -21.0306 26050.5 -03421.9 -07.4832 26274.3
 12 03 2013  06 08  -21.0307 26050.5 -03421.8 -07.4832 26274.3
 12 03 2013  06 09  -21.0306 26050.5 -03421.8 -07.4831 26274.3
 12 03 2013  06 10  -21.0306 26050.4 -03421.8 -07.4831 26274.2
 12 03 2013  06 11  -21.0304 26050.3 -03421.7 -07.4829 26274.0
 12 03 2013  06 12  -21.0303 26050.1 -03421.6 -07.4827 26273.9
 12 03 2013  06 13  -21.0301 26050.0 -03421.5 -07.4826 26273.8
 12 03 2013  06 14  -21.0302 26049.9 -03421.5 -07.4825 26273.7
 12 03 2013  06 15  -21.0302 26049.9 -03421.5 -07.4825 26273.6
 12 03 2013  06 16  -21.0304 26049.9 -03421.5 -07.4826 26273.7
 12 03 2013  06 17  -21.0305 26049.9 -03421.5 -07.4827 26273.6
 12 03 2013  06 18  -21.0306 26050.1 -03421.6 -07.4829 26273.8
 12 03 2013  06 19  -21.0306 26050.3 -03421.8 -07.4831 26274.1
 12 03 2013  06 20  -21.0307 26050.6 -03422.0 -07.4834 26274.4
 12 03 2013  06 21  -21.0307 26050.9 -03422.1 -07.4836 26274.7
 12 03 2013  06 22  -21.0307 26051.1 -03422.2 -07.4838 26274.9
 12 03 2013  06 23  -21.0307 26051.1 -03422.2 -07.4837 26274.9
 12 03 2013  06 24  -21.0306 26051.2 -03422.2 -07.4838 26275.0
 12 03 2013  06 25  -21.0304 26051.1 -03422.2 -07.4837 26275.0
 12 03 2013  06 26  -21.0301 26051.0 -03422.0 -07.4834 26274.8
 12 03 2013  06 27  -21.0299 26050.9 -03422.0 -07.4833 26274.7
 12 03 2013  06 28  -21.0300 26050.5 -03421.8 -07.4830 26274.3
 12 03 2013  06 29  -21.0299 26050.7 -03421.8 -07.4831 26274.5
 12 03 2013  06 30  -21.0302 26050.7 -03421.9 -07.4832 26274.5
 12 03 2013  06 31  -21.0303 26050.6 -03421.8 -07.4830 26274.4
 12 03 2013  06 32  -21.0307 26050.8 -03421.9 -07.4833 26274.6
 12 03 2013  06 33  -21.0309 26051.4 -03422.2 -07.4836 26275.2
 12 03 2013  06 34  -21.0314 26051.8 -03422.4 -07.4841 26275.7
 12 03 2013  06 35  -21.0317 26052.3 -03422.6 -07.4843 26276.2
 12 03 2013  06 36  -21.0317 26052.7 -03422.7 -07.4845 26276.5
 12 03 2013  06 37  -21.0316 26052.9 -03422.8 -07.4845 26276.8
 12 03 2013  06 38  -21.0316 26053.5 -03423.0 -07.4848 26277.5
 12 03 2013  06 39  -21.0314 26054.0 -03423.2 -07.4851 26277.9
 12 03 2013  06 40  -21.0314 26053.5 -03422.9 -07.4846 26277.4
 12 03 2013  06 41  -21.0309 26054.0 -03423.0 -07.4848 26277.9
 12 03 2013  06 42  -21.0311 26054.4 -03423.2 -07.4850 26278.3
 12 03 2013  06 43  -21.0309 26054.2 -03423.1 -07.4848 26278.1
 12 03 2013  06 44  -21.0308 26054.1 -03422.9 -07.4845 26278.0
 12 03 2013  06 45  -21.0306 26054.3 -03423.0 -07.4845 26278.2
 12 03 2013  06 46  -21.0304 26054.0 -03422.8 -07.4843 26277.9
 12 03 2013  06 47  -21.0300 26054.3 -03422.8 -07.4843 26278.1
 12 03 2013  06 48  -21.0300 26053.9 -03422.6 -07.4839 26277.7
 12 03 2013  06 49  -21.0297 26054.3 -03422.8 -07.4841 26278.1
 12 03 2013  06 50  -21.0300 26054.4 -03422.9 -07.4843 26278.3
 12 03 2013  06 51  -21.0298 26054.8 -03423.1 -07.4847 26278.8
 12 03 2013  06 52  -21.0300 26054.7 -03423.0 -07.4845 26278.6
 12 03 2013  06 53  -21.0300 26055.3 -03423.2 -07.4848 26279.2
 12 03 2013  06 54  -21.0300 26054.6 -03422.9 -07.4842 26278.5
 12 03 2013  06 55  -21.0288 26054.8 -03422.7 -07.4839 26278.7
 12 03 2013  06 56  -21.0282 26054.6 -03422.6 -07.4837 26278.5
 12 03 2013  06 57  -21.0270 26054.6 -03422.6 -07.4836 26278.5
 12 03 2013  06 58  -21.0264 26054.0 -03422.3 -07.4832 26277.8
 12 03 2013  06 59  -21.0260 26054.1 -03422.4 -07.4833 26277.9
 12 03 2013  07 00  -21.0262 26054.0 -03422.4 -07.4834 26277.8
 12 03 2013  07 01  -21.0262 26053.9 -03422.5 -07.4836 26277.8
 12 03 2013  07 02  -21.0262 26054.1 -03422.6 -07.4839 26277.9
 12 03 2013  07 03  -21.0262 26054.0 -03422.6 -07.4839 26277.8
 12 03 2013  07 04  -21.0262 26054.0 -03422.7 -07.4840 26277.9
 12 03 2013  07 05  -21.0265 26053.9 -03422.7 -07.4840 26277.8
 12 03 2013  07 06  -21.0268 26054.0 -03422.7 -07.4841 26277.8
 12 03 2013  07 07  -21.0270 26053.8 -03422.7 -07.4840 26277.7
 12 03 2013  07 08  -21.0271 26053.7 -03422.6 -07.4839 26277.5
 12 03 2013  07 09  -21.0272 26053.5 -03422.4 -07.4836 26277.3
 12 03 2013  07 10  -21.0272 26053.1 -03422.3 -07.4834 26277.0
 12 03 2013  07 11  -21.0273 26052.7 -03422.0 -07.4830 26276.5
 12 03 2013  07 12  -21.0271 26052.5 -03421.9 -07.4828 26276.3
 12 03 2013  07 13  -21.0271 26052.4 -03421.9 -07.4828 26276.2
 12 03 2013  07 14  -21.0274 26052.5 -03422.1 -07.4831 26276.3
 12 03 2013  07 15  -21.0279 26052.5 -03422.2 -07.4833 26276.3
 12 03 2013  07 16  -21.0285 26052.5 -03422.2 -07.4835 26276.3
 12 03 2013  07 17  -21.0286 26052.4 -03422.2 -07.4834 26276.2
 12 03 2013  07 18  -21.0285 26052.2 -03422.1 -07.4832 26276.0
 12 03 2013  07 19  -21.0284 26052.1 -03422.0 -07.4830 26275.9
 12 03 2013  07 20  -21.0286 26052.0 -03421.9 -07.4830 26275.7
 12 03 2013  07 21  -21.0287 26051.9 -03421.9 -07.4830 26275.7
 12 03 2013  07 22  -21.0289 26051.9 -03422.0 -07.4831 26275.7
 12 03 2013  07 23  -21.0291 26051.9 -03422.0 -07.4831 26275.7
 12 03 2013  07 24  -21.0294 26051.9 -03422.0 -07.4832 26275.7
 12 03 2013  07 25  -21.0296 26052.0 -03422.1 -07.4833 26275.8
 12 03 2013  07 26  -21.0298 26052.0 -03422.1 -07.4834 26275.8
 12 03 2013  07 27  -21.0299 26052.0 -03422.1 -07.4834 26275.8
 12 03 2013  07 28  -21.0302 26051.9 -03422.1 -07.4833 26275.7
 12 03 2013  07 29  -21.0303 26051.7 -03422.0 -07.4831 26275.5
 12 03 2013  07 30  -21.0303 26051.3 -03421.8 -07.4828 26275.1
 12 03 2013  07 31  -21.0300 26051.1 -03421.6 -07.4825 26274.8
 12 03 2013  07 32  -21.0297 26051.1 -03421.6 -07.4825 26274.9
 12 03 2013  07 33  -21.0299 26051.1 -03421.7 -07.4827 26274.9
 12 03 2013  07 34  -21.0304 26050.6 -03421.5 -07.4825 26274.3
 12 03 2013  07 35  -21.0303 26051.4 -03422.0 -07.4832 26275.2
 12 03 2013  07 36  -21.0309 26051.0 -03421.9 -07.4831 26274.8
 12 03 2013  07 37  -21.0303 26051.7 -03422.2 -07.4836 26275.5
 12 03 2013  07 38  -21.0309 26051.5 -03422.1 -07.4835 26275.3
 12 03 2013  07 39  -21.0304 26052.0 -03422.3 -07.4838 26275.8
 12 03 2013  07 40  -21.0304 26051.9 -03422.2 -07.4836 26275.7
 12 03 2013  07 41  -21.0303 26052.1 -03422.3 -07.4838 26276.0
 12 03 2013  07 42  -21.0305 26052.0 -03422.4 -07.4839 26275.8
 12 03 2013  07 43  -21.0303 26052.2 -03422.5 -07.4841 26276.1
 12 03 2013  07 44  -21.0302 26052.6 -03422.7 -07.4844 26276.4
 12 03 2013  07 45  -21.0301 26052.9 -03422.8 -07.4846 26276.8
 12 03 2013  07 46  -21.0300 26053.0 -03422.9 -07.4847 26276.9
 12 03 2013  07 47  -21.0298 26053.3 -03423.0 -07.4849 26277.2
 12 03 2013  07 48  -21.0294 26053.6 -03423.1 -07.4850 26277.5
 12 03 2013  07 49  -21.0291 26053.8 -03423.2 -07.4851 26277.7
 12 03 2013  07 50  -21.0290 26053.6 -03423.1 -07.4849 26277.5
 12 03 2013  07 51  -21.0287 26053.5 -03423.0 -07.4848 26277.4
 12 03 2013  07 52  -21.0286 26053.6 -03422.9 -07.4847 26277.4
 12 03 2013  07 53  -21.0284 26053.5 -03423.0 -07.4847 26277.4
 12 03 2013  07 54  -21.0283 26053.4 -03422.9 -07.4847 26277.3
 12 03 2013  07 55  -21.0280 26053.8 -03423.1 -07.4849 26277.7
 12 03 2013  07 56  -21.0278 26053.8 -03423.1 -07.4850 26277.7
 12 03 2013  07 57  -21.0273 26054.1 -03423.2 -07.4851 26278.0
 12 03 2013  07 58  -21.0273 26054.2 -03423.3 -07.4852 26278.1
 12 03 2013  07 59  -21.0273 26054.2 -03423.3 -07.4852 26278.1
 12 03 2013  08 00  -21.0266 26054.7 -03423.4 -07.4854 26278.6
 12 03 2013  08 01  -21.0268 26054.5 -03423.4 -07.4853 26278.4
 12 03 2013  08 02  -21.0263 26054.9 -03423.5 -07.4855 26278.8
 12 03 2013  08 03  -21.0264 26054.8 -03423.5 -07.4855 26278.7
 12 03 2013  08 04  -21.0260 26055.1 -03423.6 -07.4857 26279.1
 12 03 2013  08 05  -21.0260 26054.9 -03423.5 -07.4856 26278.9
 12 03 2013  08 06  -21.0257 26055.2 -03423.6 -07.4857 26279.2
 12 03 2013  08 07  -21.0256 26055.3 -03423.7 -07.4857 26279.3
 12 03 2013  08 08  -21.0254 26055.2 -03423.6 -07.4857 26279.2
 12 03 2013  08 09  -21.0254 26055.1 -03423.6 -07.4856 26279.1
 12 03 2013  08 10  -21.0255 26055.0 -03423.5 -07.4855 26279.0
 12 03 2013  08 11  -21.0253 26055.2 -03423.6 -07.4856 26279.2
 12 03 2013  08 12  -21.0254 26055.3 -03423.6 -07.4857 26279.3
 12 03 2013  08 13  -21.0255 26055.2 -03423.6 -07.4857 26279.2
 12 03 2013  08 14  -21.0255 26055.1 -03423.4 -07.4854 26279.0
 12 03 2013  08 15  -21.0257 26055.2 -03423.6 -07.4856 26279.2
 12 03 2013  08 16  -21.0259 26055.1 -03423.5 -07.4854 26279.1
 12 03 2013  08 17  -21.0259 26055.3 -03423.6 -07.4856 26279.2
 12 03 2013  08 18  -21.0261 26055.0 -03423.5 -07.4854 26279.0
 12 03 2013  08 19  -21.0260 26055.2 -03423.5 -07.4855 26279.1
 12 03 2013  08 20  -21.0261 26054.9 -03423.4 -07.4853 26278.8
 12 03 2013  08 21  -21.0265 26054.5 -03423.2 -07.4849 26278.4
 12 03 2013  08 22  -21.0267 26053.9 -03422.9 -07.4845 26277.8
 12 03 2013  08 23  -21.0270 26053.6 -03422.8 -07.4844 26277.5
 12 03 2013  08 24  -21.0271 26053.5 -03422.8 -07.4845 26277.4
 12 03 2013  08 25  -21.0275 26053.5 -03422.9 -07.4845 26277.4
 12 03 2013  08 26  -21.0278 26053.5 -03422.8 -07.4844 26277.4
 12 03 2013  08 27  -21.0281 26053.4 -03422.8 -07.4844 26277.3
 12 03 2013  08 28  -21.0285 26053.3 -03422.8 -07.4844 26277.2
 12 03 2013  08 29  -21.0287 26053.6 -03422.8 -07.4845 26277.4
 12 03 2013  08 30  -21.0289 26053.6 -03422.9 -07.4845 26277.5
 12 03 2013  08 31  -21.0290 26053.8 -03422.9 -07.4846 26277.7
 12 03 2013  08 32  -21.0293 26053.7 -03422.8 -07.4844 26277.6
 12 03 2013  08 33  -21.0295 26053.8 -03422.9 -07.4845 26277.7
 12 03 2013  08 34  -21.0295 26053.5 -03422.7 -07.4841 26277.4
 12 03 2013  08 35  -21.0297 26053.4 -03422.5 -07.4839 26277.2
 12 03 2013  08 36  -21.0300 26053.4 -03422.5 -07.4837 26277.3
 12 03 2013  08 37  -21.0300 26053.5 -03422.5 -07.4837 26277.3
 12 03 2013  08 38  -21.0300 26053.6 -03422.6 -07.4839 26277.5
 12 03 2013  08 39  -21.0299 26053.8 -03422.6 -07.4840 26277.6
 12 03 2013  08 40  -21.0300 26053.8 -03422.6 -07.4838 26277.6
 12 03 2013  08 41  -21.0303 26053.8 -03422.5 -07.4837 26277.6
 12 03 2013  08 42  -21.0307 26053.3 -03422.2 -07.4831 26277.1
 12 03 2013  08 43  -21.0312 26053.2 -03422.0 -07.4829 26276.9
 12 03 2013  08 44  -21.0314 26052.8 -03421.9 -07.4826 26276.6
 12 03 2013  08 45  -21.0317 26052.9 -03421.8 -07.4824 26276.6
 12 03 2013  08 46  -21.0317 26052.9 -03421.8 -07.4824 26276.7
 12 03 2013  08 47  -21.0313 26053.1 -03421.8 -07.4823 26276.8
 12 03 2013  08 48  -21.0311 26053.0 -03421.7 -07.4822 26276.8
 12 03 2013  08 49  -21.0308 26053.2 -03421.7 -07.4821 26276.9
 12 03 2013  08 50  -21.0307 26053.2 -03421.7 -07.4820 26276.9
 12 03 2013  08 51  -21.0305 26053.2 -03421.7 -07.4820 26276.9
 12 03 2013  08 52  -21.0303 26053.3 -03421.6 -07.4819 26277.0
 12 03 2013  08 53  -21.0301 26053.2 -03421.5 -07.4817 26276.9
 12 03 2013  08 54  -21.0301 26052.9 -03421.5 -07.4817 26276.7
 12 03 2013  08 55  -21.0299 26052.9 -03421.5 -07.4817 26276.6
 12 03 2013  08 56  -21.0296 26052.9 -03421.5 -07.4817 26276.6
 12 03 2013  08 57  -21.0292 26052.8 -03421.4 -07.4817 26276.5
 12 03 2013  08 58  -21.0287 26053.0 -03421.5 -07.4817 26276.8
 12 03 2013  08 59  -21.0288 26053.2 -03421.6 -07.4819 26277.0
 12 03 2013  09 00  -21.0290 26053.3 -03421.7 -07.4820 26277.0
 12 03 2013  09 01  -21.0290 26053.4 -03421.7 -07.4821 26277.1
 12 03 2013  09 02  -21.0290 26053.3 -03421.7 -07.4820 26277.0
 12 03 2013  09 03  -21.0292 26053.2 -03421.7 -07.4821 26276.9
 12 03 2013  09 04  -21.0296 26053.0 -03421.7 -07.4822 26276.8
 12 03 2013  09 05  -21.0299 26053.1 -03421.8 -07.4823 26276.9
 12 03 2013  09 06  -21.0302 26053.0 -03421.8 -07.4825 26276.8
 12 03 2013  09 07  -21.0307 26053.0 -03421.9 -07.4826 26276.7
 12 03 2013  09 08  -21.0311 26052.9 -03421.9 -07.4827 26276.6
 12 03 2013  09 09  -21.0318 26052.6 -03421.8 -07.4825 26276.3
 12 03 2013  09 10  -21.0323 26052.6 -03421.9 -07.4827 26276.4
 12 03 2013  09 11  -21.0328 26052.5 -03421.9 -07.4827 26276.2
 12 03 2013  09 12  -21.0329 26052.5 -03422.0 -07.4829 26276.3
 12 03 2013  09 13  -21.0333 26052.5 -03422.0 -07.4830 26276.2
 12 03 2013  09 14  -21.0338 26052.7 -03422.3 -07.4834 26276.5
 12 03 2013  09 15  -21.0341 26052.6 -03422.2 -07.4834 26276.5
 12 03 2013  09 16  -21.0341 26052.7 -03422.2 -07.4833 26276.5
 12 03 2013  09 17  -21.0344 26052.5 -03422.0 -07.4830 26276.3
 12 03 2013  09 18  -21.0350 26052.3 -03422.0 -07.4830 26276.0
 12 03 2013  09 19  -21.0353 26052.3 -03422.0 -07.4831 26276.1
 12 03 2013  09 20  -21.0356 26052.6 -03422.3 -07.4835 26276.4
 12 03 2013  09 21  -21.0360 26053.4 -03422.7 -07.4842 26277.3
 12 03 2013  09 22  -21.0364 26054.2 -03423.2 -07.4850 26278.2
 12 03 2013  09 23  -21.0368 26054.5 -03423.2 -07.4850 26278.4
 12 03 2013  09 24  -21.0367 26054.9 -03423.2 -07.4849 26278.8
 12 03 2013  09 25  -21.0374 26055.1 -03423.2 -07.4848 26279.0
 12 03 2013  09 26  -21.0383 26055.3 -03423.4 -07.4851 26279.2
 12 03 2013  09 27  -21.0388 26055.3 -03423.2 -07.4849 26279.2
 12 03 2013  09 28  -21.0393 26055.4 -03423.3 -07.4849 26279.3
 12 03 2013  09 29  -21.0398 26055.5 -03423.3 -07.4849 26279.5
 12 03 2013  09 30  -21.0402 26055.5 -03423.2 -07.4846 26279.4
 12 03 2013  09 31  -21.0408 26055.2 -03423.0 -07.4843 26279.1
 12 03 2013  09 32  -21.0413 26054.9 -03422.7 -07.4839 26278.7
 12 03 2013  09 33  -21.0417 26054.6 -03422.6 -07.4836 26278.4
 12 03 2013  09 34  -21.0417 26054.5 -03422.5 -07.4836 26278.4
 12 03 2013  09 35  -21.0418 26054.6 -03422.5 -07.4835 26278.4
 12 03 2013  09 36  -21.0418 26054.8 -03422.6 -07.4836 26278.6
 12 03 2013  09 37  -21.0421 26055.3 -03422.9 -07.4841 26279.2
 12 03 2013  09 38  -21.0428 26056.1 -03423.3 -07.4847 26280.0
 12 03 2013  09 39  -21.0429 26057.0 -03423.6 -07.4851 26280.9
 12 03 2013  09 40  -21.0428 26057.7 -03423.8 -07.4853 26281.6
 12 03 2013  09 41  -21.0429 26058.2 -03423.8 -07.4853 26282.1
 12 03 2013  09 42  -21.0431 26058.5 -03423.8 -07.4852 26282.5
 12 03 2013  09 43  -21.0436 26058.7 -03423.7 -07.4849 26282.7
 12 03 2013  09 44  -21.0441 26058.7 -03423.6 -07.4847 26282.7
 12 03 2013  09 45  -21.0442 26058.6 -03423.5 -07.4844 26282.5
 12 03 2013  09 46  -21.0447 26058.4 -03423.3 -07.4842 26282.3
 12 03 2013  09 47  -21.0446 26057.9 -03423.1 -07.4837 26281.8
 12 03 2013  09 48  -21.0449 26057.4 -03422.8 -07.4832 26281.2
 12 03 2013  09 49  -21.0448 26056.8 -03422.6 -07.4829 26280.7
 12 03 2013  09 50  -21.0448 26056.6 -03422.5 -07.4828 26280.4
 12 03 2013  09 51  -21.0449 26056.1 -03422.3 -07.4826 26279.9
 12 03 2013  09 52  -21.0451 26055.9 -03422.3 -07.4826 26279.7
 12 03 2013  09 53  -21.0454 26055.8 -03422.3 -07.4827 26279.6
 12 03 2013  09 54  -21.0453 26055.9 -03422.5 -07.4830 26279.7
 12 03 2013  09 55  -21.0450 26055.9 -03422.5 -07.4830 26279.7
 12 03 2013  09 56  -21.0448 26055.9 -03422.6 -07.4832 26279.8
 12 03 2013  09 57  -21.0447 26056.3 -03422.8 -07.4835 26280.2
 12 03 2013  09 58  -21.0445 26056.5 -03422.9 -07.4837 26280.3
 12 03 2013  09 59  -21.0442 26056.7 -03423.0 -07.4838 26280.5
 12 03 2013  10 00  -21.0447 26056.8 -03423.0 -07.4840 26280.7
 12 03 2013  10 01  -21.0451 26057.0 -03423.1 -07.4840 26280.8
 12 03 2013  10 02  -21.0453 26057.1 -03423.1 -07.4840 26281.0
 12 03 2013  10 03  -21.0456 26057.0 -03423.0 -07.4838 26280.8
 12 03 2013  10 04  -21.0460 26056.7 -03422.7 -07.4833 26280.5
 12 03 2013  10 05  -21.0471 26056.4 -03422.5 -07.4830 26280.2
 12 03 2013  10 06  -21.0474 26056.2 -03422.5 -07.4830 26280.0
 12 03 2013  10 07  -21.0472 26056.3 -03422.6 -07.4831 26280.1
 12 03 2013  10 08  -21.0474 26056.4 -03422.6 -07.4832 26280.2
 12 03 2013  10 09  -21.0474 26056.8 -03422.7 -07.4833 26280.6
 12 03 2013  10 10  -21.0476 26056.9 -03422.8 -07.4833 26280.7
 12 03 2013  10 11  -21.0478 26057.0 -03422.8 -07.4833 26280.8
 12 03 2013  10 12  -21.0475 26057.1 -03422.9 -07.4835 26281.0
 12 03 2013  10 13  -21.0472 26057.2 -03422.9 -07.4835 26281.0
 12 03 2013  10 14  -21.0475 26057.2 -03422.8 -07.4834 26281.0
 12 03 2013  10 15  -21.0482 26057.0 -03422.6 -07.4830 26280.8
 12 03 2013  10 16  -21.0488 26056.3 -03422.3 -07.4825 26280.1
 12 03 2013  10 17  -21.0490 26055.9 -03422.2 -07.4825 26279.7
 12 03 2013  10 18  -21.0488 26056.0 -03422.5 -07.4830 26279.8
 12 03 2013  10 19  -21.0476 26056.7 -03422.9 -07.4838 26280.6
 12 03 2013  10 20  -21.0467 26057.7 -03423.4 -07.4845 26281.6
 12 03 2013  10 21  -21.0467 26058.4 -03423.6 -07.4848 26282.4
 12 03 2013  10 22  -21.0473 26058.8 -03423.7 -07.4847 26282.8
 12 03 2013  10 23  -21.0477 26059.1 -03423.7 -07.4847 26283.0
 12 03 2013  10 24  -21.0478 26059.5 -03423.8 -07.4849 26283.5
 12 03 2013  10 25  -21.0480 26059.5 -03423.7 -07.4847 26283.5
 12 03 2013  10 26  -21.0476 26059.7 -03423.8 -07.4847 26283.7
 12 03 2013  10 27  -21.0471 26059.9 -03423.8 -07.4847 26283.8
 12 03 2013  10 28  -21.0469 26060.0 -03423.8 -07.4847 26284.0
 12 03 2013  10 29  -21.0468 26059.9 -03423.7 -07.4845 26283.9
 12 03 2013  10 30  -21.0468 26060.0 -03423.7 -07.4844 26283.9
 12 03 2013  10 31  -21.0470 26059.9 -03423.6 -07.4843 26283.9
 12 03 2013  10 32  -21.0465 26060.0 -03423.6 -07.4843 26283.9
 12 03 2013  10 33  -21.0463 26060.1 -03423.7 -07.4844 26284.1
 12 03 2013  10 34  -21.0462 26060.2 -03423.7 -07.4845 26284.2
 12 03 2013  10 35  -21.0463 26060.1 -03423.7 -07.4844 26284.0
 12 03 2013  10 36  -21.0459 26060.0 -03423.6 -07.4843 26283.9
 12 03 2013  10 37  -21.0459 26059.9 -03423.6 -07.4843 26283.8
 12 03 2013  10 38  -21.0463 26060.0 -03423.7 -07.4845 26284.0
 12 03 2013  10 39  -21.0466 26060.2 -03423.8 -07.4848 26284.2
 12 03 2013  10 40  -21.0467 26060.6 -03424.1 -07.4851 26284.6
 12 03 2013  10 41  -21.0469 26061.0 -03424.3 -07.4854 26285.0
 12 03 2013  10 42  -21.0471 26061.3 -03424.4 -07.4856 26285.3
 12 03 2013  10 43  -21.0475 26061.5 -03424.5 -07.4857 26285.5
 12 03 2013  10 44  -21.0475 26062.0 -03424.6 -07.4859 26286.1
 12 03 2013  10 45  -21.0474 26062.7 -03424.8 -07.4861 26286.8
 12 03 2013  10 46  -21.0472 26063.2 -03424.9 -07.4862 26287.2
 12 03 2013  10 47  -21.0473 26063.6 -03424.9 -07.4860 26287.6
 12 03 2013  10 48  -21.0471 26063.8 -03424.8 -07.4859 26287.8
 12 03 2013  10 49  -21.0473 26064.1 -03424.8 -07.4858 26288.2
 12 03 2013  10 50  -21.0472 26064.7 -03424.9 -07.4858 26288.7
 12 03 2013  10 51  -21.0471 26064.8 -03424.8 -07.4856 26288.9
 12 03 2013  10 52  -21.0472 26064.8 -03424.8 -07.4854 26288.9
 12 03 2013  10 53  -21.0472 26065.0 -03424.8 -07.4855 26289.0
 12 03 2013  10 54  -21.0472 26065.3 -03424.9 -07.4856 26289.3
 12 03 2013  10 55  -21.0472 26065.5 -03425.0 -07.4856 26289.6
 12 03 2013  10 56  -21.0476 26065.6 -03424.9 -07.4855 26289.6
 12 03 2013  10 57  -21.0478 26065.7 -03425.0 -07.4857 26289.7
 12 03 2013  10 58  -21.0475 26065.9 -03425.1 -07.4859 26290.0
 12 03 2013  10 59  -21.0474 26066.2 -03425.3 -07.4861 26290.3
 12 03 2013  11 00  -21.0473 26067.0 -03425.6 -07.4866 26291.1
 12 03 2013  11 01  -21.0471 26067.5 -03425.7 -07.4868 26291.7
 12 03 2013  11 02  -21.0475 26068.0 -03425.9 -07.4869 26292.2
 12 03 2013  11 03  -21.0479 26068.6 -03426.0 -07.4869 26292.7
 12 03 2013  11 04  -21.0481 26069.0 -03426.0 -07.4870 26293.2
 12 03 2013  11 05  -21.0483 26069.5 -03426.2 -07.4871 26293.6
 12 03 2013  11 06  -21.0489 26070.3 -03426.4 -07.4875 26294.5
 12 03 2013  11 07  -21.0491 26071.2 -03426.7 -07.4877 26295.4
 12 03 2013  11 08  -21.0495 26071.6 -03426.6 -07.4875 26295.8
 12 03 2013  11 09  -21.0500 26071.7 -03426.4 -07.4871 26295.9
 12 03 2013  11 10  -21.0505 26071.7 -03426.3 -07.4869 26295.9
 12 03 2013  11 11  -21.0512 26072.3 -03426.5 -07.4870 26296.5
 12 03 2013  11 12  -21.0520 26072.9 -03426.6 -07.4871 26297.2
 12 03 2013  11 13  -21.0528 26073.2 -03426.5 -07.4868 26297.4
 12 03 2013  11 14  -21.0531 26073.3 -03426.4 -07.4865 26297.5
 12 03 2013  11 15  -21.0534 26073.5 -03426.3 -07.4864 26297.7
 12 03 2013  11 16  -21.0541 26073.7 -03426.3 -07.4862 26297.8
 12 03 2013  11 17  -21.0544 26074.0 -03426.4 -07.4863 26298.2
 12 03 2013  11 18  -21.0542 26074.7 -03426.6 -07.4865 26298.9
 12 03 2013  11 19  -21.0540 26075.3 -03426.7 -07.4866 26299.5
 12 03 2013  11 20  -21.0537 26075.9 -03426.8 -07.4867 26300.1
 12 03 2013  11 21  -21.0538 26076.5 -03426.9 -07.4867 26300.7
 12 03 2013  11 22  -21.0539 26077.0 -03426.9 -07.4866 26301.2
 12 03 2013  11 23  -21.0543 26077.4 -03426.8 -07.4863 26301.6
 12 03 2013  11 24  -21.0546 26077.8 -03426.8 -07.4861 26302.0
 12 03 2013  11 25  -21.0548 26078.2 -03426.7 -07.4858 26302.3
 12 03 2013  11 26  -21.0550 26078.5 -03426.6 -07.4855 26302.7
 12 03 2013  11 27  -21.0552 26079.0 -03426.6 -07.4853 26303.2
 12 03 2013  11 28  -21.0554 26079.6 -03426.5 -07.4851 26303.7
 12 03 2013  11 29  -21.0554 26080.0 -03426.4 -07.4846 26304.1
 12 03 2013  11 30  -21.0554 26080.2 -03426.2 -07.4842 26304.3
 12 03 2013  11 31  -21.0554 26080.8 -03426.3 -07.4843 26304.9
 12 03 2013  11 32  -21.0548 26082.1 -03426.6 -07.4845 26306.2
 12 03 2013  11 33  -21.0542 26083.0 -03426.6 -07.4843 26307.1
 12 03 2013  11 34  -21.0540 26083.4 -03426.5 -07.4838 26307.5
 12 03 2013  11 35  -21.0541 26083.8 -03426.3 -07.4834 26307.9
 12 03 2013  11 36  -21.0543 26084.3 -03426.2 -07.4831 26308.4
 12 03 2013  11 37  -21.0541 26084.6 -03426.0 -07.4825 26308.7
 12 03 2013  11 38  -21.0540 26084.8 -03425.8 -07.4820 26308.8
 12 03 2013  11 39  -21.0542 26085.0 -03425.6 -07.4815 26308.9
 12 03 2013  11 40  -21.0543 26085.1 -03425.4 -07.4810 26309.0
 12 03 2013  11 41  -21.0544 26085.2 -03425.2 -07.4805 26309.1
 12 03 2013  11 42  -21.0546 26085.5 -03425.1 -07.4803 26309.4
 12 03 2013  11 43  -21.0547 26086.1 -03425.1 -07.4801 26310.0
 12 03 2013  11 44  -21.0546 26086.5 -03425.0 -07.4798 26310.4
 12 03 2013  11 45  -21.0546 26086.8 -03424.8 -07.4793 26310.6
 12 03 2013  11 46  -21.0544 26087.2 -03424.7 -07.4789 26311.0
 12 03 2013  11 47  -21.0544 26087.3 -03424.5 -07.4784 26311.1
 12 03 2013  11 48  -21.0546 26087.7 -03424.4 -07.4781 26311.5
 12 03 2013  11 49  -21.0550 26088.1 -03424.2 -07.4776 26311.8
 12 03 2013  11 50  -21.0553 26088.3 -03424.0 -07.4770 26312.0
 12 03 2013  11 51  -21.0553 26088.6 -03423.8 -07.4766 26312.3
 12 03 2013  11 52  -21.0555 26088.7 -03423.6 -07.4760 26312.4
 12 03 2013  11 53  -21.0556 26088.9 -03423.4 -07.4756 26312.6
 12 03 2013  11 54  -21.0556 26089.0 -03423.1 -07.4750 26312.6
 12 03 2013  11 55  -21.0555 26089.3 -03423.0 -07.4747 26312.9
 12 03 2013  11 56  -21.0551 26089.9 -03423.1 -07.4747 26313.5
 12 03 2013  11 57  -21.0549 26089.9 -03422.9 -07.4742 26313.5
 12 03 2013  11 58  -21.0546 26090.3 -03422.7 -07.4738 26313.8
 12 03 2013  11 59  -21.0544 26090.8 -03422.7 -07.4736 26314.3
 12 03 2013  12 00  -21.0543 26090.9 -03422.5 -07.4732 26314.4
 12 03 2013  12 01  -21.0542 26091.5 -03422.6 -07.4731 26315.1
 12 03 2013  12 02  -21.0542 26091.6 -03422.3 -07.4726 26315.1
 12 03 2013  12 03  -21.0541 26091.8 -03422.2 -07.4722 26315.3
 12 03 2013  12 04  -21.0541 26091.8 -03421.9 -07.4717 26315.2
 12 03 2013  12 05  -21.0543 26092.2 -03421.9 -07.4714 26315.6
 12 03 2013  12 06  -21.0545 26092.3 -03421.6 -07.4709 26315.7
 12 03 2013  12 07  -21.0546 26092.4 -03421.4 -07.4703 26315.8
 12 03 2013  12 08  -21.0545 26092.7 -03421.1 -07.4696 26316.0
 12 03 2013  12 09  -21.0541 26092.9 -03420.9 -07.4691 26316.2
 12 03 2013  12 10  -21.0540 26092.6 -03420.4 -07.4682 26315.8
 12 03 2013  12 11  -21.0539 26092.1 -03420.0 -07.4674 26315.3
 12 03 2013  12 12  -21.0534 26092.8 -03420.1 -07.4674 26316.0
 12 03 2013  12 13  -21.0528 26093.8 -03420.2 -07.4673 26317.0
 12 03 2013  12 14  -21.0521 26094.3 -03420.1 -07.4669 26317.5
 12 03 2013  12 15  -21.0513 26094.2 -03419.7 -07.4662 26317.4
 12 03 2013  12 16  -21.0506 26094.5 -03419.5 -07.4657 26317.6
 12 03 2013  12 17  -21.0499 26095.4 -03419.6 -07.4657 26318.5
 12 03 2013  12 18  -21.0493 26096.0 -03419.5 -07.4653 26319.1
 12 03 2013  12 19  -21.0488 26096.2 -03419.3 -07.4647 26319.2
 12 03 2013  12 20  -21.0483 26096.2 -03419.0 -07.4641 26319.2
 12 03 2013  12 21  -21.0477 26096.5 -03418.9 -07.4637 26319.5
 12 03 2013  12 22  -21.0473 26096.8 -03418.8 -07.4634 26319.8
 12 03 2013  12 23  -21.0466 26097.2 -03418.7 -07.4631 26320.1
 12 03 2013  12 24  -21.0461 26097.5 -03418.6 -07.4629 26320.5
 12 03 2013  12 25  -21.0458 26097.9 -03418.6 -07.4627 26320.9
 12 03 2013  12 26  -21.0454 26098.6 -03418.6 -07.4626 26321.6
 12 03 2013  12 27  -21.0448 26099.4 -03418.7 -07.4625 26322.4
 12 03 2013  12 28  -21.0440 26100.0 -03418.7 -07.4623 26323.0
 12 03 2013  12 29  -21.0432 26100.5 -03418.6 -07.4620 26323.5
 12 03 2013  12 30  -21.0425 26101.0 -03418.5 -07.4616 26324.0
 12 03 2013  12 31  -21.0419 26101.4 -03418.3 -07.4612 26324.2
 12 03 2013  12 32  -21.0414 26101.4 -03418.1 -07.4606 26324.3
 12 03 2013  12 33  -21.0410 26101.4 -03417.8 -07.4600 26324.2
 12 03 2013  12 34  -21.0406 26101.2 -03417.5 -07.4595 26324.0
 12 03 2013  12 35  -21.0401 26101.2 -03417.4 -07.4591 26324.0
 12 03 2013  12 36  -21.0395 26101.4 -03417.3 -07.4590 26324.1
 12 03 2013  12 37  -21.0388 26101.6 -03417.3 -07.4589 26324.3
 12 03 2013  12 38  -21.0381 26101.9 -03417.4 -07.4590 26324.6
 12 03 2013  12 39  -21.0384 26101.6 -03417.1 -07.4584 26324.3
 12 03 2013  12 40  -21.0400 26101.5 -03416.9 -07.4581 26324.2
 12 03 2013  12 41  -21.0395 26102.5 -03417.1 -07.4583 26325.2
 12 03 2013  12 42  -21.0389 26103.4 -03417.3 -07.4584 26326.1
 12 03 2013  12 43  -21.0388 26103.2 -03417.0 -07.4578 26325.9
 12 03 2013  12 44  -21.0348 26103.8 -03417.1 -07.4578 26326.5
 12 03 2013  12 45  -21.0333 26103.8 -03417.0 -07.4577 26326.5
 12 03 2013  12 46  -21.0327 26104.3 -03417.1 -07.4578 26327.0
 12 03 2013  12 47  -21.0320 26105.0 -03417.3 -07.4580 26327.7
 12 03 2013  12 48  -21.0315 26105.1 -03417.2 -07.4577 26327.8
 12 03 2013  12 49  -21.0309 26104.9 -03417.0 -07.4573 26327.6
 12 03 2013  12 50  -21.0306 26104.7 -03416.9 -07.4570 26327.4
 12 03 2013  12 51  -21.0302 26105.3 -03417.0 -07.4573 26328.0
 12 03 2013  12 52  -21.0297 26105.1 -03416.8 -07.4569 26327.7
 12 03 2013  12 53  -21.0293 26105.4 -03416.9 -07.4570 26328.0
 12 03 2013  12 54  -21.0289 26105.4 -03416.8 -07.4568 26328.1
 12 03 2013  12 55  -21.0282 26105.5 -03416.8 -07.4567 26328.2
 12 03 2013  12 56  -21.0278 26105.4 -03416.7 -07.4565 26328.1
 12 03 2013  12 57  -21.0275 26105.6 -03416.8 -07.4567 26328.3
 12 03 2013  12 58  -21.0272 26105.7 -03416.8 -07.4567 26328.4
 12 03 2013  12 59  -21.0268 26106.5 -03417.0 -07.4570 26329.2
 12 03 2013  13 00  -21.0262 26106.7 -03417.0 -07.4567 26329.4
 12 03 2013  13 01  -21.0252 26105.9 -03416.4 -07.4558 26328.5
 12 03 2013  13 02  -21.0247 26105.0 -03416.0 -07.4551 26327.5
 12 03 2013  13 03  -21.0241 26104.7 -03415.9 -07.4550 26327.2
 12 03 2013  13 04  -21.0234 26104.6 -03416.0 -07.4552 26327.2
 12 03 2013  13 05  -21.0228 26104.4 -03416.0 -07.4553 26327.0
 12 03 2013  13 06  -21.0220 26103.9 -03415.9 -07.4552 26326.5
 12 03 2013  13 07  -21.0211 26103.4 -03415.8 -07.4551 26325.9
 12 03 2013  13 08  -21.0206 26103.5 -03416.0 -07.4555 26326.0
 12 03 2013  13 09  -21.0202 26104.3 -03416.4 -07.4563 26327.0
 12 03 2013  13 10  -21.0196 26105.2 -03416.8 -07.4567 26327.8
 12 03 2013  13 11  -21.0191 26105.6 -03416.9 -07.4569 26328.3
 12 03 2013  13 12  -21.0185 26105.7 -03416.8 -07.4567 26328.4
 12 03 2013  13 13  -21.0180 26105.5 -03416.8 -07.4566 26328.2
 12 03 2013  13 14  -21.0173 26105.4 -03416.8 -07.4567 26328.1
 12 03 2013  13 15  -21.0167 26105.4 -03416.8 -07.4568 26328.0
 12 03 2013  13 16  -21.0161 26105.9 -03417.2 -07.4574 26328.6
 12 03 2013  13 17  -21.0155 26106.4 -03417.4 -07.4579 26329.1
 12 03 2013  13 18  -21.0146 26106.6 -03417.6 -07.4581 26329.4
 12 03 2013  13 19  -21.0139 26107.4 -03417.9 -07.4587 26330.1
 12 03 2013  13 20  -21.0133 26107.9 -03418.2 -07.4590 26330.7
 12 03 2013  13 21  -21.0129 26108.4 -03418.4 -07.4593 26331.2
 12 03 2013  13 22  -21.0128 26108.9 -03418.5 -07.4595 26331.7
 12 03 2013  13 23  -21.0126 26109.2 -03418.6 -07.4595 26332.1
 12 03 2013  13 24  -21.0129 26109.6 -03418.7 -07.4596 26332.5
 12 03 2013  13 25  -21.0131 26110.7 -03419.0 -07.4601 26333.6
 12 03 2013  13 26  -21.0130 26111.4 -03419.1 -07.4600 26334.3
 12 03 2013  13 27  -21.0130 26111.5 -03418.9 -07.4596 26334.4
 12 03 2013  13 28  -21.0131 26111.9 -03418.9 -07.4594 26334.7
 12 03 2013  13 29  -21.0130 26112.2 -03418.8 -07.4591 26335.1
 12 03 2013  13 30  -21.0129 26112.1 -03418.5 -07.4586 26334.9
 12 03 2013  13 31  -21.0127 26112.1 -03418.4 -07.4583 26334.9
 12 03 2013  13 32  -21.0128 26112.5 -03418.5 -07.4583 26335.3
 12 03 2013  13 33  -21.0129 26112.8 -03418.4 -07.4582 26335.6
 12 03 2013  13 34  -21.0131 26113.0 -03418.3 -07.4579 26335.8
 12 03 2013  13 35  -21.0135 26112.5 -03418.0 -07.4572 26335.3
 12 03 2013  13 36  -21.0134 26112.3 -03417.7 -07.4567 26335.0
 12 03 2013  13 37  -21.0132 26112.6 -03417.7 -07.4566 26335.3
 12 03 2013  13 38  -21.0129 26112.6 -03417.6 -07.4564 26335.3
 12 03 2013  13 39  -21.0124 26112.8 -03417.6 -07.4564 26335.5
 12 03 2013  13 40  -21.0121 26113.3 -03417.7 -07.4565 26336.0
 12 03 2013  13 41  -21.0120 26113.7 -03417.8 -07.4566 26336.4
 12 03 2013  13 42  -21.0117 26114.0 -03417.8 -07.4564 26336.7
 12 03 2013  13 43  -21.0113 26114.5 -03417.8 -07.4562 26337.2
 12 03 2013  13 44  -21.0109 26115.6 -03417.9 -07.4563 26338.3
 12 03 2013  13 45  -21.0105 26115.9 -03417.8 -07.4559 26338.6
 12 03 2013  13 46  -21.0101 26115.7 -03417.4 -07.4551 26338.4
 12 03 2013  13 47  -21.0096 26116.1 -03417.3 -07.4547 26338.7
 12 03 2013  13 48  -21.0095 26116.6 -03417.2 -07.4545 26339.2
 12 03 2013  13 49  -21.0092 26116.4 -03416.9 -07.4538 26339.0
 12 03 2013  13 50  -21.0087 26116.3 -03416.6 -07.4532 26338.8
 12 03 2013  13 51  -21.0087 26116.8 -03416.5 -07.4528 26339.3
 12 03 2013  13 52  -21.0085 26117.5 -03416.4 -07.4524 26340.0
 12 03 2013  13 53  -21.0077 26118.4 -03416.3 -07.4520 26340.9
 12 03 2013  13 54  -21.0068 26119.2 -03416.1 -07.4513 26341.6
 12 03 2013  13 55  -21.0070 26120.5 -03416.1 -07.4509 26343.0
 12 03 2013  13 56  -21.0068 26121.9 -03416.1 -07.4505 26344.4
 12 03 2013  13 57  -21.0063 26122.4 -03415.7 -07.4497 26344.7
 12 03 2013  13 58  -21.0060 26121.8 -03415.1 -07.4484 26344.1
 12 03 2013  13 59  -21.0054 26123.4 -03415.3 -07.4484 26345.7
 12 03 2013  14 00  -21.0043 26125.8 -03415.7 -07.4485 26348.1
 12 03 2013  14 01  -21.0029 26127.5 -03415.6 -07.4478 26349.8
 12 03 2013  14 02  -21.0017 26128.3 -03415.2 -07.4467 26350.6
 12 03 2013  14 03  -21.0015 26128.5 -03414.6 -07.4455 26350.6
 12 03 2013  14 04  -20.9992 26126.3 -03413.1 -07.4430 26348.3
 12 03 2013  14 05  -20.9978 26123.5 -03411.7 -07.4407 26345.3
 12 03 2013  14 06  -20.9970 26120.3 -03410.6 -07.4392 26342.0
 12 03 2013  14 07  -20.9974 26119.1 -03410.8 -07.4400 26340.9
 12 03 2013  14 08  -20.9978 26117.5 -03411.0 -07.4408 26339.3
 12 03 2013  14 09  -20.9993 26116.8 -03411.8 -07.4427 26338.8
 12 03 2013  14 10  -21.0001 26116.6 -03412.6 -07.4445 26338.6
 12 03 2013  14 11  -21.0010 26117.7 -03413.8 -07.4467 26339.9
 12 03 2013  14 12  -21.0016 26118.8 -03414.5 -07.4479 26341.0
 12 03 2013  14 13  -21.0012 26120.3 -03415.2 -07.4490 26342.6
 12 03 2013  14 14  -21.0015 26119.8 -03414.7 -07.4481 26342.1
 12 03 2013  14 15  -21.0013 26117.4 -03413.5 -07.4462 26339.6
 12 03 2013  14 16  -21.0015 26115.8 -03413.0 -07.4455 26337.9
 12 03 2013  14 17  -21.0005 26114.5 -03413.0 -07.4461 26336.6
 12 03 2013  14 18  -21.0004 26113.7 -03413.4 -07.4470 26335.8
 12 03 2013  14 19  -21.0008 26114.9 -03414.4 -07.4489 26337.1
 12 03 2013  14 20  -21.0022 26116.6 -03415.3 -07.4503 26338.9
 12 03 2013  14 21  -21.0023 26116.2 -03415.0 -07.4498 26338.6
 12 03 2013  14 22  -21.0022 26114.0 -03414.0 -07.4484 26336.2
 12 03 2013  14 23  -21.0023 26112.8 -03413.9 -07.4483 26335.0
 12 03 2013  14 24  -21.0019 26111.4 -03413.7 -07.4485 26333.6
 12 03 2013  14 25  -21.0026 26111.8 -03414.6 -07.4501 26334.1
 12 03 2013  14 26  -21.0027 26112.0 -03415.2 -07.4513 26334.4
 12 03 2013  14 27  -21.0022 26111.9 -03415.6 -07.4522 26334.4
 12 03 2013  14 28  -21.0021 26111.4 -03415.7 -07.4527 26333.9
 12 03 2013  14 29  -21.0024 26111.1 -03415.8 -07.4530 26333.5
 12 03 2013  14 30  -21.0028 26111.6 -03416.2 -07.4538 26334.2
 12 03 2013  14 31  -21.0029 26111.7 -03416.3 -07.4539 26334.2
 12 03 2013  14 32  -21.0031 26112.3 -03416.8 -07.4547 26334.9
 12 03 2013  14 33  -21.0034 26112.8 -03417.0 -07.4552 26335.4
 12 03 2013  14 34  -21.0030 26112.3 -03416.8 -07.4547 26334.9
 12 03 2013  14 35  -21.0037 26112.3 -03416.8 -07.4548 26334.9
 12 03 2013  14 36  -21.0047 26112.5 -03416.9 -07.4550 26335.1
 12 03 2013  14 37  -21.0054 26112.9 -03417.1 -07.4553 26335.6
 12 03 2013  14 38  -21.0053 26113.2 -03417.2 -07.4555 26335.8
 12 03 2013  14 39  -21.0043 26113.0 -03417.1 -07.4552 26335.6
 12 03 2013  14 40  -21.0041 26113.1 -03417.0 -07.4550 26335.7
 12 03 2013  14 41  -21.0042 26112.7 -03416.8 -07.4548 26335.3
 12 03 2013  14 42  -21.0048 26112.4 -03416.8 -07.4547 26335.0
 12 03 2013  14 43  -21.0053 26112.0 -03416.7 -07.4546 26334.6
 12 03 2013  14 44  -21.0056 26111.7 -03416.7 -07.4547 26334.3
 12 03 2013  14 45  -21.0065 26111.0 -03416.5 -07.4545 26333.6
 12 03 2013  14 46  -21.0068 26109.7 -03416.1 -07.4540 26332.3
 12 03 2013  14 47  -21.0073 26109.2 -03416.1 -07.4542 26331.7
 12 03 2013  14 48  -21.0072 26108.8 -03416.2 -07.4545 26331.4
 12 03 2013  14 49  -21.0068 26108.0 -03416.2 -07.4547 26330.6
 12 03 2013  14 50  -21.0057 26107.8 -03416.6 -07.4556 26330.5
 12 03 2013  14 51  -21.0054 26108.5 -03417.4 -07.4572 26331.2
 12 03 2013  14 52  -21.0061 26109.4 -03418.1 -07.4585 26332.2
 12 03 2013  14 53  -21.0075 26110.8 -03418.9 -07.4597 26333.7
 12 03 2013  14 54  -21.0087 26111.6 -03419.1 -07.4600 26334.5
 12 03 2013  14 55  -21.0094 26112.0 -03419.1 -07.4598 26334.9
 12 03 2013  14 56  -21.0102 26112.4 -03419.0 -07.4594 26335.3
 12 03 2013  14 57  -21.0106 26111.9 -03418.5 -07.4586 26334.7
 12 03 2013  14 58  -21.0102 26110.6 -03417.9 -07.4577 26333.3
 12 03 2013  14 59  -21.0095 26109.5 -03417.6 -07.4574 26332.2
 12 03 2013  15 00  -21.0091 26109.1 -03417.8 -07.4578 26331.9
 12 03 2013  15 01  -21.0096 26109.4 -03418.2 -07.4586 26332.2
 12 03 2013  15 02  -21.0100 26109.4 -03418.4 -07.4590 26332.2
 12 03 2013  15 03  -21.0105 26109.3 -03418.4 -07.4592 26332.2
 12 03 2013  15 04  -21.0111 26109.4 -03418.5 -07.4594 26332.3
 12 03 2013  15 05  -21.0116 26109.5 -03418.7 -07.4596 26332.3
 12 03 2013  15 06  -21.0119 26109.5 -03418.7 -07.4597 26332.3
 12 03 2013  15 07  -21.0122 26109.2 -03418.7 -07.4598 26332.1
 12 03 2013  15 08  -21.0125 26108.9 -03418.7 -07.4598 26331.7
 12 03 2013  15 09  -21.0129 26108.6 -03418.7 -07.4600 26331.5
 12 03 2013  15 10  -21.0134 26108.4 -03418.8 -07.4603 26331.3
 12 03 2013  15 11  -21.0139 26108.3 -03418.9 -07.4606 26331.2
 12 03 2013  15 12  -21.0145 26108.4 -03419.2 -07.4610 26331.4
 12 03 2013  15 13  -21.0151 26108.5 -03419.3 -07.4613 26331.5
 12 03 2013  15 14  -21.0157 26108.6 -03419.4 -07.4616 26331.6
 12 03 2013  15 15  -21.0165 26108.7 -03419.6 -07.4618 26331.7
 12 03 2013  15 16  -21.0170 26108.7 -03419.6 -07.4619 26331.7
 12 03 2013  15 17  -21.0174 26108.5 -03419.6 -07.4618 26331.5
 12 03 2013  15 18  -21.0178 26108.4 -03419.5 -07.4617 26331.4
 12 03 2013  15 19  -21.0182 26108.3 -03419.5 -07.4618 26331.2
 12 03 2013  15 20  -21.0187 26108.3 -03419.6 -07.4619 26331.3
 12 03 2013  15 21  -21.0192 26108.4 -03419.7 -07.4621 26331.4
 12 03 2013  15 22  -21.0195 26108.2 -03419.7 -07.4621 26331.2
 12 03 2013  15 23  -21.0197 26107.8 -03419.6 -07.4620 26330.8
 12 03 2013  15 24  -21.0196 26107.6 -03419.6 -07.4621 26330.6
 12 03 2013  15 25  -21.0199 26107.6 -03419.8 -07.4625 26330.6
 12 03 2013  15 26  -21.0205 26107.9 -03420.0 -07.4630 26331.0
 12 03 2013  15 27  -21.0212 26108.2 -03420.3 -07.4634 26331.3
 12 03 2013  15 28  -21.0216 26108.5 -03420.4 -07.4636 26331.6
 12 03 2013  15 29  -21.0221 26108.3 -03420.4 -07.4636 26331.4
 12 03 2013  15 30  -21.0224 26108.0 -03420.3 -07.4635 26331.1
 12 03 2013  15 31  -21.0226 26107.8 -03420.3 -07.4635 26330.9
 12 03 2013  15 32  -21.0227 26107.6 -03420.2 -07.4635 26330.7
 12 03 2013  15 33  -21.0230 26107.4 -03420.2 -07.4636 26330.5
 12 03 2013  15 34  -21.0235 26107.3 -03420.3 -07.4637 26330.3
 12 03 2013  15 35  -21.0238 26107.2 -03420.3 -07.4638 26330.3
 12 03 2013  15 36  -21.0242 26107.3 -03420.4 -07.4640 26330.4
 12 03 2013  15 37  -21.0247 26107.5 -03420.5 -07.4641 26330.6
 12 03 2013  15 38  -21.0248 26107.3 -03420.3 -07.4638 26330.3
 12 03 2013  15 39  -21.0248 26106.9 -03420.1 -07.4635 26329.9
 12 03 2013  15 40  -21.0252 26106.9 -03420.1 -07.4635 26329.9
 12 03 2013  15 41  -21.0257 26106.9 -03420.1 -07.4635 26330.0
 12 03 2013  15 42  -21.0261 26107.0 -03420.2 -07.4636 26330.1
 12 03 2013  15 43  -21.0264 26107.2 -03420.2 -07.4636 26330.2
 12 03 2013  15 44  -21.0267 26107.6 -03420.4 -07.4638 26330.7
 12 03 2013  15 45  -21.0271 26107.9 -03420.4 -07.4637 26331.0
 12 03 2013  15 46  -21.0273 26108.1 -03420.3 -07.4635 26331.2
 12 03 2013  15 47  -21.0276 26108.3 -03420.2 -07.4632 26331.4
 12 03 2013  15 48  -21.0277 26108.2 -03419.9 -07.4628 26331.2
 12 03 2013  15 49  -21.0275 26107.9 -03419.7 -07.4623 26330.9
 12 03 2013  15 50  -21.0281 26108.5 -03419.9 -07.4626 26331.5
 12 03 2013  15 51  -21.0289 26109.0 -03420.0 -07.4626 26332.1
 12 03 2013  15 52  -21.0289 26108.8 -03419.7 -07.4621 26331.9
 12 03 2013  15 53  -21.0289 26108.6 -03419.5 -07.4616 26331.6
 12 03 2013  15 54  -21.0291 26108.2 -03419.2 -07.4611 26331.1
 12 03 2013  15 55  -21.0294 26107.9 -03419.1 -07.4609 26330.8
 12 03 2013  15 56  -21.0295 26107.4 -03418.9 -07.4607 26330.3
 12 03 2013  15 57  -21.0298 26107.0 -03418.8 -07.4605 26329.9
 12 03 2013  15 58  -21.0298 26106.4 -03418.6 -07.4603 26329.3
 12 03 2013  15 59  -21.0295 26105.7 -03418.4 -07.4601 26328.5
 12 03 2013  16 00  -21.0292 26105.2 -03418.4 -07.4602 26328.1
 12 03 2013  16 01  -21.0291 26104.5 -03418.3 -07.4603 26327.4
 12 03 2013  16 02  -21.0295 26104.1 -03418.4 -07.4606 26327.0
 12 03 2013  16 03  -21.0298 26103.7 -03418.5 -07.4608 26326.6
 12 03 2013  16 04  -21.0300 26103.3 -03418.5 -07.4611 26326.2
 12 03 2013  16 05  -21.0308 26103.6 -03418.8 -07.4617 26326.6
 12 03 2013  16 06  -21.0319 26103.9 -03419.0 -07.4620 26326.9
 12 03 2013  16 07  -21.0327 26104.1 -03419.1 -07.4621 26327.1
 12 03 2013  16 08  -21.0348 26105.0 -03419.4 -07.4625 26328.0
 12 03 2013  16 09  -21.0361 26105.1 -03419.3 -07.4621 26328.0
 12 03 2013  16 10  -21.0365 26104.3 -03418.7 -07.4611 26327.2
 12 03 2013  16 11  -21.0364 26103.4 -03418.1 -07.4602 26326.3
 12 03 2013  16 12  -21.0366 26103.3 -03418.1 -07.4601 26326.1
 12 03 2013  16 13  -21.0363 26103.2 -03418.1 -07.4602 26326.0
 12 03 2013  16 14  -21.0370 26103.2 -03418.3 -07.4606 26326.1
 12 03 2013  16 15  -21.0383 26103.5 -03418.5 -07.4609 26326.4
 12 03 2013  16 16  -21.0400 26103.7 -03418.5 -07.4609 26326.5
 12 03 2013  16 17  -21.0410 26103.5 -03418.3 -07.4605 26326.3
 12 03 2013  16 18  -21.0412 26102.8 -03417.9 -07.4599 26325.6
 12 03 2013  16 19  -21.0410 26102.7 -03417.9 -07.4598 26325.5
 12 03 2013  16 20  -21.0415 26102.6 -03417.9 -07.4600 26325.4
 12 03 2013  16 21  -21.0417 26102.0 -03417.7 -07.4597 26324.8
 12 03 2013  16 22  -21.0421 26101.7 -03417.7 -07.4598 26324.5
 12 03 2013  16 23  -21.0428 26101.3 -03417.6 -07.4597 26324.1
 12 03 2013  16 24  -21.0431 26100.9 -03417.5 -07.4596 26323.7
 12 03 2013  16 25  -21.0433 26100.6 -03417.5 -07.4596 26323.4
 12 03 2013  16 26  -21.0438 26100.7 -03417.6 -07.4599 26323.5
 12 03 2013  16 27  -21.0442 26100.5 -03417.6 -07.4598 26323.3
 12 03 2013  16 28  -21.0446 26100.5 -03417.6 -07.4598 26323.3
 12 03 2013  16 29  -21.0452 26100.7 -03417.7 -07.4600 26323.5
 12 03 2013  16 30  -21.0459 26100.8 -03417.6 -07.4598 26323.6
 12 03 2013  16 31  -21.0466 26100.7 -03417.4 -07.4594 26323.5
 12 03 2013  16 32  -21.0472 26100.3 -03417.1 -07.4589 26323.0
 12 03 2013  16 33  -21.0476 26099.8 -03416.8 -07.4584 26322.5
 12 03 2013  16 34  -21.0482 26099.4 -03416.6 -07.4581 26322.1
 12 03 2013  16 35  -21.0491 26099.3 -03416.5 -07.4579 26322.0
 12 03 2013  16 36  -21.0499 26099.1 -03416.3 -07.4575 26321.7
 12 03 2013  16 37  -21.0505 26098.8 -03416.1 -07.4572 26321.4
 12 03 2013  16 38  -21.0513 26098.6 -03416.0 -07.4569 26321.2
 12 03 2013  16 39  -21.0521 26098.6 -03415.9 -07.4567 26321.2
 12 03 2013  16 40  -21.0530 26098.4 -03415.7 -07.4563 26321.0
 12 03 2013  16 41  -21.0543 26098.1 -03415.4 -07.4558 26320.6
 12 03 2013  16 42  -21.0552 26097.5 -03415.1 -07.4553 26320.0
 12 03 2013  16 43  -21.0561 26097.0 -03414.9 -07.4549 26319.5
 12 03 2013  16 44  -21.0570 26096.7 -03414.7 -07.4546 26319.2
 12 03 2013  16 45  -21.0574 26096.1 -03414.4 -07.4541 26318.5
 12 03 2013  16 46  -21.0576 26095.7 -03414.3 -07.4540 26318.1
 12 03 2013  16 47  -21.0589 26096.1 -03414.5 -07.4544 26318.5
 12 03 2013  16 48  -21.0602 26096.2 -03414.5 -07.4543 26318.7
 12 03 2013  16 49  -21.0612 26095.7 -03414.1 -07.4536 26318.1
 12 03 2013  16 50  -21.0625 26095.1 -03413.7 -07.4530 26317.5
 12 03 2013  16 51  -21.0638 26094.4 -03413.3 -07.4523 26316.7
 12 03 2013  16 52  -21.0647 26093.3 -03412.7 -07.4514 26315.6
 12 03 2013  16 53  -21.0649 26092.1 -03412.2 -07.4505 26314.3
 12 03 2013  16 54  -21.0652 26091.3 -03411.9 -07.4501 26313.4
 12 03 2013  16 55  -21.0659 26091.0 -03411.8 -07.4501 26313.1
 12 03 2013  16 56  -21.0666 26091.0 -03411.9 -07.4502 26313.1
 12 03 2013  16 57  -21.0675 26091.5 -03412.0 -07.4504 26313.6
 12 03 2013  16 58  -21.0683 26091.8 -03412.0 -07.4502 26313.9
 12 03 2013  16 59  -21.0688 26092.0 -03411.9 -07.4499 26314.1
 12 03 2013  17 00  -21.0701 26092.5 -03411.9 -07.4499 26314.6
 12 03 2013  17 01  -21.0711 26092.4 -03411.6 -07.4492 26314.5
 12 03 2013  17 02  -21.0719 26092.3 -03411.3 -07.4486 26314.3
 12 03 2013  17 03  -21.0724 26091.4 -03410.6 -07.4474 26313.4
 12 03 2013  17 04  -21.0729 26090.9 -03410.3 -07.4468 26312.9
 12 03 2013  17 05  -21.0732 26090.3 -03409.9 -07.4461 26312.2
 12 03 2013  17 06  -21.0736 26090.0 -03409.8 -07.4459 26311.8
 12 03 2013  17 07  -21.0739 26089.4 -03409.5 -07.4454 26311.2
 12 03 2013  17 08  -21.0745 26089.3 -03409.4 -07.4454 26311.2
 12 03 2013  17 09  -21.0746 26088.6 -03409.0 -07.4446 26310.4
 12 03 2013  17 10  -21.0745 26087.5 -03408.5 -07.4438 26309.3
 12 03 2013  17 11  -21.0744 26086.7 -03408.2 -07.4434 26308.4
 12 03 2013  17 12  -21.0749 26086.4 -03408.2 -07.4435 26308.1
 12 03 2013  17 13  -21.0755 26085.9 -03408.0 -07.4432 26307.5
 12 03 2013  17 14  -21.0760 26085.7 -03407.9 -07.4431 26307.4
 12 03 2013  17 15  -21.0766 26085.4 -03407.8 -07.4430 26307.1
 12 03 2013  17 16  -21.0769 26085.3 -03407.7 -07.4428 26307.0
 12 03 2013  17 17  -21.0774 26085.0 -03407.5 -07.4425 26306.6
 12 03 2013  17 18  -21.0776 26084.5 -03407.3 -07.4421 26306.1
 12 03 2013  17 19  -21.0779 26084.4 -03407.2 -07.4420 26306.0
 12 03 2013  17 20  -21.0782 26084.2 -03407.1 -07.4419 26305.8
 12 03 2013  17 21  -21.0784 26084.1 -03407.1 -07.4418 26305.7
 12 03 2013  17 22  -21.0788 26083.9 -03406.9 -07.4415 26305.5
 12 03 2013  17 23  -21.0793 26083.9 -03406.9 -07.4414 26305.4
 12 03 2013  17 24  -21.0797 26083.8 -03406.8 -07.4412 26305.3
 12 03 2013  17 25  -21.0809 26083.4 -03406.5 -07.4407 26304.9
 12 03 2013  17 26  -21.0833 26082.7 -03406.1 -07.4401 26304.2
 12 03 2013  17 27  -21.0836 26082.6 -03406.1 -07.4400 26304.1
 12 03 2013  17 28  -21.0823 26082.4 -03406.0 -07.4398 26303.8
 12 03 2013  17 29  -21.0800 26082.6 -03406.1 -07.4401 26304.0
 12 03 2013  17 30  -21.0802 26082.6 -03406.1 -07.4402 26304.0
 12 03 2013  17 31  -21.0802 26082.4 -03406.1 -07.4401 26303.9
 12 03 2013  17 32  -21.0804 26082.6 -03406.2 -07.4402 26304.0
 12 03 2013  17 33  -21.0809 26082.5 -03406.1 -07.4401 26303.9
 12 03 2013  17 34  -21.0813 26081.8 -03405.7 -07.4394 26303.2
 12 03 2013  17 35  -21.0812 26080.8 -03405.2 -07.4386 26302.2
 12 03 2013  17 36  -21.0811 26080.1 -03404.9 -07.4383 26301.4
 12 03 2013  17 37  -21.0812 26079.6 -03404.9 -07.4383 26300.9
 12 03 2013  17 38  -21.0814 26079.0 -03404.8 -07.4382 26300.4
 12 03 2013  17 39  -21.0815 26078.5 -03404.6 -07.4381 26299.8
 12 03 2013  17 40  -21.0817 26078.3 -03404.7 -07.4383 26299.6
 12 03 2013  17 41  -21.0821 26078.4 -03404.8 -07.4385 26299.7
 12 03 2013  17 42  -21.0825 26078.1 -03404.8 -07.4385 26299.4
 12 03 2013  17 43  -21.0830 26077.8 -03404.6 -07.4382 26299.1
 12 03 2013  17 44  -21.0832 26077.6 -03404.5 -07.4380 26298.9
 12 03 2013  17 45  -21.0838 26077.3 -03404.4 -07.4379 26298.6
 12 03 2013  17 46  -21.0842 26077.3 -03404.3 -07.4378 26298.6
 12 03 2013  17 47  -21.0841 26077.2 -03404.2 -07.4375 26298.4
 12 03 2013  17 48  -21.0836 26077.0 -03404.1 -07.4373 26298.2
 12 03 2013  17 49  -21.0832 26076.7 -03403.9 -07.4370 26297.9
 12 03 2013  17 50  -21.0828 26076.3 -03403.7 -07.4366 26297.5
 12 03 2013  17 51  -21.0824 26075.9 -03403.4 -07.4362 26297.0
 12 03 2013  17 52  -21.0822 26075.5 -03403.4 -07.4361 26296.7
 12 03 2013  17 53  -21.0818 26073.8 -03402.7 -07.4352 26294.9
 12 03 2013  17 54  -21.0817 26074.3 -03403.0 -07.4358 26295.4
 12 03 2013  17 55  -21.0815 26071.7 -03402.1 -07.4344 26292.8
 12 03 2013  17 56  -21.0816 26072.8 -03402.7 -07.4356 26293.9
 12 03 2013  17 57  -21.0822 26069.4 -03401.4 -07.4337 26290.3
 12 03 2013  17 58  -21.0818 26072.2 -03402.6 -07.4354 26293.3
 12 03 2013  17 59  -21.0827 26069.7 -03401.6 -07.4340 26290.7
 12 03 2013  18 00  -21.0824 26070.8 -03402.0 -07.4345 26291.8
 12 03 2013  18 01  -21.0823 26068.4 -03401.0 -07.4332 26289.3
 12 03 2013  18 02  -21.0820 26068.9 -03401.3 -07.4336 26289.9
 12 03 2013  18 03  -21.0822 26067.7 -03400.9 -07.4331 26288.7
 12 03 2013  18 04  -21.0819 26068.0 -03401.1 -07.4334 26289.0
 12 03 2013  18 05  -21.0814 26067.3 -03400.9 -07.4332 26288.2
 12 03 2013  18 06  -21.0812 26067.7 -03401.2 -07.4337 26288.6
 12 03 2013  18 07  -21.0811 26067.4 -03401.2 -07.4337 26288.3
 12 03 2013  18 08  -21.0810 26067.8 -03401.4 -07.4342 26288.8
 12 03 2013  18 09  -21.0808 26067.6 -03401.4 -07.4341 26288.6
 12 03 2013  18 10  -21.0806 26067.4 -03401.4 -07.4341 26288.4
 12 03 2013  18 11  -21.0802 26067.2 -03401.3 -07.4340 26288.1
 12 03 2013  18 12  -21.0798 26067.3 -03401.4 -07.4342 26288.2
 12 03 2013  18 13  -21.0794 26067.0 -03401.3 -07.4341 26287.9
 12 03 2013  18 14  -21.0790 26066.5 -03401.1 -07.4339 26287.5
 12 03 2013  18 15  -21.0784 26066.1 -03401.0 -07.4337 26287.0
 12 03 2013  18 16  -21.0781 26066.2 -03401.2 -07.4340 26287.2
 12 03 2013  18 17  -21.0778 26066.2 -03401.2 -07.4342 26287.2
 12 03 2013  18 18  -21.0766 26065.5 -03401.0 -07.4339 26286.5
 12 03 2013  18 19  -21.0757 26065.1 -03400.9 -07.4338 26286.1
 12 03 2013  18 20  -21.0757 26065.8 -03401.3 -07.4345 26286.8
 12 03 2013  18 21  -21.0754 26065.7 -03401.3 -07.4346 26286.7
 12 03 2013  18 22  -21.0750 26066.0 -03401.5 -07.4348 26287.1
 12 03 2013  18 23  -21.0747 26066.3 -03401.6 -07.4350 26287.3
 12 03 2013  18 24  -21.0742 26066.6 -03401.8 -07.4352 26287.6
 12 03 2013  18 25  -21.0735 26066.6 -03401.8 -07.4352 26287.7
 12 03 2013  18 26  -21.0730 26067.1 -03401.9 -07.4355 26288.1
 12 03 2013  18 27  -21.0723 26067.1 -03401.8 -07.4353 26288.2
 12 03 2013  18 28  -21.0713 26067.2 -03401.8 -07.4352 26288.2
 12 03 2013  18 29  -21.0704 26067.1 -03401.7 -07.4350 26288.1
 12 03 2013  18 30  -21.0690 26067.0 -03401.7 -07.4349 26288.1
 12 03 2013  18 31  -21.0678 26066.8 -03401.6 -07.4349 26287.8
 12 03 2013  18 32  -21.0665 26066.7 -03401.6 -07.4349 26287.7
 12 03 2013  18 33  -21.0654 26066.8 -03401.8 -07.4353 26287.8
 12 03 2013  18 34  -21.0651 26067.3 -03402.2 -07.4361 26288.4
 12 03 2013  18 35  -21.0646 26067.8 -03402.5 -07.4365 26288.9
 12 03 2013  18 36  -21.0640 26068.2 -03402.7 -07.4369 26289.4
 12 03 2013  18 37  -21.0632 26068.7 -03402.9 -07.4371 26289.8
 12 03 2013  18 38  -21.0622 26068.6 -03402.8 -07.4368 26289.7
 12 03 2013  18 39  -21.0608 26068.2 -03402.6 -07.4365 26289.4
 12 03 2013  18 40  -21.0593 26067.7 -03402.3 -07.4361 26288.8
 12 03 2013  18 41  -21.0578 26067.0 -03402.1 -07.4358 26288.0
 12 03 2013  18 42  -21.0564 26066.3 -03402.0 -07.4357 26287.4
 12 03 2013  18 43  -21.0553 26066.0 -03402.1 -07.4361 26287.1
 12 03 2013  18 44  -21.0546 26065.9 -03402.3 -07.4365 26287.0
 12 03 2013  18 45  -21.0541 26066.0 -03402.5 -07.4370 26287.1
 12 03 2013  18 46  -21.0538 26066.4 -03402.9 -07.4377 26287.5
 12 03 2013  18 47  -21.0535 26066.6 -03403.1 -07.4382 26287.8
 12 03 2013  18 48  -21.0525 26066.7 -03403.3 -07.4385 26287.9
 12 03 2013  18 49  -21.0517 26066.8 -03403.5 -07.4389 26288.1
 12 03 2013  18 50  -21.0511 26067.2 -03403.8 -07.4395 26288.5
 12 03 2013  18 51  -21.0506 26067.5 -03404.1 -07.4400 26288.8
 12 03 2013  18 52  -21.0501 26067.8 -03404.4 -07.4405 26289.2
 12 03 2013  18 53  -21.0497 26068.1 -03404.6 -07.4410 26289.5
 12 03 2013  18 54  -21.0490 26068.5 -03404.8 -07.4413 26289.9
 12 03 2013  18 55  -21.0484 26068.7 -03405.0 -07.4417 26290.1
 12 03 2013  18 56  -21.0476 26068.6 -03405.1 -07.4418 26290.1
 12 03 2013  18 57  -21.0465 26068.5 -03405.1 -07.4419 26290.0
 12 03 2013  18 58  -21.0459 26068.3 -03405.1 -07.4420 26289.7
 12 03 2013  18 59  -21.0450 26068.6 -03405.3 -07.4424 26290.0
 12 03 2013  19 00  -21.0442 26069.1 -03405.7 -07.4430 26290.6
 12 03 2013  19 01  -21.0435 26069.8 -03406.1 -07.4437 26291.3
 12 03 2013  19 02  -21.0425 26070.4 -03406.5 -07.4444 26292.0
 12 03 2013  19 03  -21.0419 26071.0 -03406.9 -07.4451 26292.7
 12 03 2013  19 04  -21.0416 26071.6 -03407.2 -07.4456 26293.3
 12 03 2013  19 05  -21.0413 26072.1 -03407.5 -07.4460 26293.8
 12 03 2013  19 06  -21.0412 26072.5 -03407.6 -07.4463 26294.2
 12 03 2013  19 07  -21.0407 26072.6 -03407.6 -07.4462 26294.3
 12 03 2013  19 08  -21.0399 26072.5 -03407.5 -07.4459 26294.2
 12 03 2013  19 09  -21.0388 26072.2 -03407.3 -07.4456 26293.9
 12 03 2013  19 10  -21.0380 26071.8 -03407.1 -07.4454 26293.5
 12 03 2013  19 11  -21.0369 26071.3 -03406.9 -07.4450 26293.0
 12 03 2013  19 12  -21.0361 26070.8 -03406.8 -07.4450 26292.5
 12 03 2013  19 13  -21.0355 26070.3 -03406.7 -07.4449 26292.0
 12 03 2013  19 14  -21.0348 26070.4 -03406.8 -07.4451 26292.1
 12 03 2013  19 15  -21.0347 26070.0 -03406.8 -07.4452 26291.7
 12 03 2013  19 16  -21.0340 26069.9 -03406.8 -07.4452 26291.6
 12 03 2013  19 17  -21.0335 26069.4 -03406.7 -07.4451 26291.0
 12 03 2013  19 18  -21.0330 26069.2 -03406.7 -07.4452 26290.8
 12 03 2013  19 19  -21.0323 26068.8 -03406.6 -07.4451 26290.5
 12 03 2013  19 20  -21.0321 26068.2 -03406.5 -07.4451 26289.8
 12 03 2013  19 21  -21.0315 26068.2 -03406.6 -07.4453 26289.8
 12 03 2013  19 22  -21.0312 26067.7 -03406.6 -07.4454 26289.4
 12 03 2013  19 23  -21.0309 26067.4 -03406.6 -07.4455 26289.1
 12 03 2013  19 24  -21.0305 26067.6 -03406.9 -07.4459 26289.3
 12 03 2013  19 25  -21.0302 26067.4 -03406.9 -07.4461 26289.1
 12 03 2013  19 26  -21.0300 26067.6 -03407.1 -07.4465 26289.3
 12 03 2013  19 27  -21.0319 26067.1 -03406.9 -07.4462 26288.8
 12 03 2013  19 28  -21.0334 26066.9 -03406.9 -07.4463 26288.6
 12 03 2013  19 29  -21.0330 26066.5 -03406.9 -07.4463 26288.2
 12 03 2013  19 30  -21.0327 26066.3 -03407.0 -07.4465 26288.0
 12 03 2013  19 31  -21.0324 26066.0 -03406.9 -07.4465 26287.7
 12 03 2013  19 32  -21.0321 26065.7 -03406.9 -07.4466 26287.4
 12 03 2013  19 33  -21.0316 26065.6 -03406.9 -07.4467 26287.3
 12 03 2013  19 34  -21.0313 26065.1 -03406.9 -07.4467 26286.8
 12 03 2013  19 35  -21.0310 26065.0 -03407.0 -07.4469 26286.8
 12 03 2013  19 36  -21.0306 26064.8 -03407.0 -07.4471 26286.5
 12 03 2013  19 37  -21.0301 26064.7 -03407.1 -07.4473 26286.4
 12 03 2013  19 38  -21.0297 26064.6 -03407.2 -07.4476 26286.4
 12 03 2013  19 39  -21.0293 26064.6 -03407.4 -07.4480 26286.4
 12 03 2013  19 40  -21.0291 26064.6 -03407.6 -07.4484 26286.4
 12 03 2013  19 41  -21.0289 26064.5 -03407.7 -07.4486 26286.3
 12 03 2013  19 42  -21.0287 26064.4 -03407.8 -07.4490 26286.3
 12 03 2013  19 43  -21.0286 26064.3 -03407.9 -07.4492 26286.2
 12 03 2013  19 44  -21.0251 26064.6 -03408.3 -07.4499 26286.5
 12 03 2013  19 45  -21.0247 26064.6 -03408.5 -07.4503 26286.5
 12 03 2013  19 46  -21.0245 26064.4 -03408.6 -07.4506 26286.4
 12 03 2013  19 47  -21.0244 26064.3 -03408.7 -07.4508 26286.2
 12 03 2013  19 48  -21.0243 26064.2 -03408.8 -07.4510 26286.1
 12 03 2013  19 49  -21.0242 26064.1 -03408.8 -07.4512 26286.1
 12 03 2013  19 50  -21.0241 26064.0 -03409.0 -07.4515 26286.0
 12 03 2013  19 51  -21.0241 26063.8 -03409.0 -07.4516 26285.8
 12 03 2013  19 52  -21.0240 26063.4 -03408.9 -07.4516 26285.4
 12 03 2013  19 53  -21.0238 26063.1 -03408.9 -07.4517 26285.1
 12 03 2013  19 54  -21.0237 26062.8 -03408.9 -07.4517 26284.8
 12 03 2013  19 55  -21.0236 26062.5 -03408.9 -07.4518 26284.5
 12 03 2013  19 56  -21.0235 26062.1 -03408.9 -07.4518 26284.1
 12 03 2013  19 57  -21.0235 26061.7 -03408.8 -07.4518 26283.6
 12 03 2013  19 58  -21.0234 26061.3 -03408.8 -07.4519 26283.3
 12 03 2013  19 59  -21.0231 26061.1 -03408.9 -07.4521 26283.1
 12 03 2013  20 00  -21.0228 26061.1 -03409.0 -07.4525 26283.1
 12 03 2013  20 01  -21.0228 26061.2 -03409.3 -07.4530 26283.3
 12 03 2013  20 02  -21.0228 26061.4 -03409.5 -07.4535 26283.5
 12 03 2013  20 03  -21.0227 26061.5 -03409.8 -07.4540 26283.7
 12 03 2013  20 04  -21.0227 26061.7 -03410.0 -07.4544 26283.9
 12 03 2013  20 05  -21.0226 26061.8 -03410.2 -07.4547 26284.0
 12 03 2013  20 06  -21.0225 26061.9 -03410.3 -07.4550 26284.1
 12 03 2013  20 07  -21.0225 26062.0 -03410.4 -07.4553 26284.2
 12 03 2013  20 08  -21.0225 26062.0 -03410.6 -07.4555 26284.2
 12 03 2013  20 09  -21.0221 26062.1 -03410.7 -07.4558 26284.4
 12 03 2013  20 10  -21.0219 26062.4 -03410.9 -07.4561 26284.6
 12 03 2013  20 11  -21.0217 26062.6 -03411.1 -07.4566 26284.9
 12 03 2013  20 12  -21.0216 26062.9 -03411.4 -07.4571 26285.2
 12 03 2013  20 13  -21.0215 26063.2 -03411.6 -07.4575 26285.5
 12 03 2013  20 14  -21.0214 26063.4 -03411.8 -07.4578 26285.7
 12 03 2013  20 15  -21.0213 26063.5 -03411.9 -07.4580 26285.8
 12 03 2013  20 16  -21.0214 26063.4 -03411.9 -07.4581 26285.8
 12 03 2013  20 17  -21.0213 26063.3 -03411.9 -07.4581 26285.7
 12 03 2013  20 18  -21.0213 26063.2 -03411.9 -07.4581 26285.5
 12 03 2013  20 19  -21.0213 26062.9 -03411.8 -07.4580 26285.3
 12 03 2013  20 20  -21.0213 26062.7 -03411.8 -07.4580 26285.1
 12 03 2013  20 21  -21.0214 26062.6 -03411.8 -07.4581 26284.9
 12 03 2013  20 22  -21.0212 26062.4 -03411.8 -07.4582 26284.8
 12 03 2013  20 23  -21.0213 26062.2 -03411.8 -07.4582 26284.5
 12 03 2013  20 24  -21.0212 26062.1 -03411.9 -07.4584 26284.5
 12 03 2013  20 25  -21.0213 26062.0 -03411.9 -07.4585 26284.4
 12 03 2013  20 26  -21.0213 26061.9 -03412.0 -07.4587 26284.3
 12 03 2013  20 27  -21.0212 26061.9 -03412.1 -07.4589 26284.3
 12 03 2013  20 28  -21.0213 26061.9 -03412.2 -07.4592 26284.3
 12 03 2013  20 29  -21.0212 26061.9 -03412.3 -07.4594 26284.3
 12 03 2013  20 30  -21.0212 26062.0 -03412.5 -07.4597 26284.4
 12 03 2013  20 31  -21.0212 26062.1 -03412.6 -07.4600 26284.6
 12 03 2013  20 32  -21.0214 26062.0 -03412.7 -07.4601 26284.5
 12 03 2013  20 33  -21.0216 26061.7 -03412.6 -07.4601 26284.2
 12 03 2013  20 34  -21.0217 26061.5 -03412.6 -07.4601 26284.0
 12 03 2013  20 35  -21.0218 26061.4 -03412.6 -07.4601 26283.9
 12 03 2013  20 36  -21.0219 26061.2 -03412.6 -07.4601 26283.7
 12 03 2013  20 37  -21.0220 26061.3 -03412.7 -07.4604 26283.8
 12 03 2013  20 38  -21.0221 26061.3 -03412.8 -07.4605 26283.8
 12 03 2013  20 39  -21.0223 26061.4 -03412.9 -07.4607 26283.9
 12 03 2013  20 40  -21.0223 26061.5 -03413.0 -07.4610 26284.1
 12 03 2013  20 41  -21.0226 26061.6 -03413.1 -07.4612 26284.1
 12 03 2013  20 42  -21.0228 26061.5 -03413.1 -07.4613 26284.0
 12 03 2013  20 43  -21.0230 26061.3 -03413.1 -07.4612 26283.9
 12 03 2013  20 44  -21.0232 26061.0 -03413.0 -07.4611 26283.5
 12 03 2013  20 45  -21.0233 26060.7 -03412.9 -07.4609 26283.2
 12 03 2013  20 46  -21.0234 26060.3 -03412.7 -07.4607 26282.8
 12 03 2013  20 47  -21.0234 26059.9 -03412.6 -07.4606 26282.4
 12 03 2013  20 48  -21.0234 26059.7 -03412.6 -07.4606 26282.2
 12 03 2013  20 49  -21.0233 26059.7 -03412.7 -07.4608 26282.2
 12 03 2013  20 50  -21.0234 26059.8 -03412.8 -07.4611 26282.3
 12 03 2013  20 51  -21.0234 26059.9 -03413.0 -07.4614 26282.5
 12 03 2013  20 52  -21.0234 26060.0 -03413.1 -07.4616 26282.5
 12 03 2013  20 53  -21.0235 26060.0 -03413.1 -07.4617 26282.5
 12 03 2013  20 54  -21.0235 26060.0 -03413.2 -07.4618 26282.6
 12 03 2013  20 55  -21.0235 26060.0 -03413.3 -07.4619 26282.6
 12 03 2013  20 56  -21.0236 26060.0 -03413.3 -07.4620 26282.6
 12 03 2013  20 57  -21.0237 26060.0 -03413.3 -07.4621 26282.6
 12 03 2013  20 58  -21.0236 26060.1 -03413.4 -07.4622 26282.7
 12 03 2013  20 59  -21.0235 26060.3 -03413.6 -07.4625 26282.9
 12 03 2013  21 00  -21.0235 26060.4 -03413.7 -07.4627 26283.0
 12 03 2013  21 01  -21.0234 26060.6 -03413.8 -07.4629 26283.2
 12 03 2013  21 02  -21.0233 26060.6 -03413.8 -07.4630 26283.2
 12 03 2013  21 03  -21.0233 26060.5 -03413.8 -07.4630 26283.1
 12 03 2013  21 04  -21.0231 26060.4 -03413.8 -07.4629 26283.0
 12 03 2013  21 05  -21.0230 26060.3 -03413.8 -07.4630 26282.9
 12 03 2013  21 06  -21.0230 26060.2 -03413.8 -07.4630 26282.8
 12 03 2013  21 07  -21.0230 26060.0 -03413.8 -07.4630 26282.6
 12 03 2013  21 08  -21.0232 26059.8 -03413.7 -07.4630 26282.4
 12 03 2013  21 09  -21.0232 26059.5 -03413.8 -07.4631 26282.2
 12 03 2013  21 10  -21.0232 26059.4 -03413.7 -07.4631 26282.0
 12 03 2013  21 11  -21.0232 26059.3 -03413.8 -07.4632 26281.9
 12 03 2013  21 12  -21.0232 26059.2 -03413.8 -07.4633 26281.8
 12 03 2013  21 13  -21.0232 26059.0 -03413.8 -07.4634 26281.6
 12 03 2013  21 14  -21.0232 26058.8 -03413.7 -07.4633 26281.4
 12 03 2013  21 15  -21.0232 26058.8 -03413.8 -07.4635 26281.4
 12 03 2013  21 16  -21.0231 26058.9 -03414.1 -07.4640 26281.6
 12 03 2013  21 17  -21.0230 26059.1 -03414.3 -07.4645 26281.9
 12 03 2013  21 18  -21.0231 26059.2 -03414.5 -07.4648 26282.0
 12 03 2013  21 19  -21.0231 26059.4 -03414.7 -07.4651 26282.1
 12 03 2013  21 20  -21.0232 26059.5 -03414.8 -07.4654 26282.2
 12 03 2013  21 21  -21.0233 26059.5 -03415.0 -07.4657 26282.3
 12 03 2013  21 22  -21.0234 26059.5 -03415.1 -07.4660 26282.4
 12 03 2013  21 23  -21.0236 26059.5 -03415.1 -07.4661 26282.3
 12 03 2013  21 24  -21.0238 26059.4 -03415.1 -07.4662 26282.2
 12 03 2013  21 25  -21.0240 26059.2 -03415.2 -07.4663 26282.1
 12 03 2013  21 26  -21.0242 26059.1 -03415.2 -07.4663 26282.0
 12 03 2013  21 27  -21.0244 26059.0 -03415.2 -07.4663 26281.8
 12 03 2013  21 28  -21.0246 26058.9 -03415.1 -07.4662 26281.7
 12 03 2013  21 29  -21.0248 26058.7 -03415.2 -07.4664 26281.5
 12 03 2013  21 30  -21.0250 26058.7 -03415.2 -07.4665 26281.5
 12 03 2013  21 31  -21.0253 26058.6 -03415.2 -07.4665 26281.4
 12 03 2013  21 32  -21.0254 26058.3 -03415.1 -07.4664 26281.1
 12 03 2013  21 33  -21.0255 26057.9 -03414.9 -07.4662 26280.7
 12 03 2013  21 34  -21.0257 26057.5 -03414.8 -07.4660 26280.4
 12 03 2013  21 35  -21.0259 26057.5 -03414.9 -07.4662 26280.3
 12 03 2013  21 36  -21.0264 26056.9 -03414.8 -07.4662 26279.7
 12 03 2013  21 37  -21.0264 26056.7 -03414.7 -07.4660 26279.5
 12 03 2013  21 38  -21.0266 26056.3 -03414.6 -07.4659 26279.1
 12 03 2013  21 39  -21.0269 26056.1 -03414.8 -07.4663 26279.0
 12 03 2013  21 40  -21.0273 26055.8 -03414.8 -07.4665 26278.7
 12 03 2013  21 41  -21.0276 26055.6 -03414.8 -07.4666 26278.4
 12 03 2013  21 42  -21.0278 26055.5 -03414.9 -07.4667 26278.3
 12 03 2013  21 43  -21.0281 26055.3 -03414.9 -07.4669 26278.2
 12 03 2013  21 44  -21.0284 26055.2 -03415.0 -07.4671 26278.1
 12 03 2013  21 45  -21.0285 26055.2 -03415.1 -07.4673 26278.0
 12 03 2013  21 46  -21.0287 26055.2 -03415.2 -07.4676 26278.0
 12 03 2013  21 47  -21.0289 26055.3 -03415.4 -07.4679 26278.2
 12 03 2013  21 48  -21.0291 26055.4 -03415.6 -07.4682 26278.3
 12 03 2013  21 49  -21.0295 26055.4 -03415.7 -07.4685 26278.4
 12 03 2013  21 50  -21.0297 26055.6 -03415.9 -07.4689 26278.6
 12 03 2013  21 51  -21.0299 26055.8 -03416.0 -07.4692 26278.8
 12 03 2013  21 52  -21.0303 26056.0 -03416.2 -07.4695 26279.0
 12 03 2013  21 53  -21.0306 26056.2 -03416.4 -07.4698 26279.2
 12 03 2013  21 54  -21.0309 26056.2 -03416.5 -07.4699 26279.2
 12 03 2013  21 55  -21.0310 26056.3 -03416.6 -07.4701 26279.3
 12 03 2013  21 56  -21.0310 26056.6 -03416.7 -07.4704 26279.7
 12 03 2013  21 57  -21.0309 26057.0 -03416.9 -07.4707 26280.1
 12 03 2013  21 58  -21.0308 26057.3 -03417.1 -07.4710 26280.4
 12 03 2013  21 59  -21.0307 26057.2 -03417.1 -07.4710 26280.3
 12 03 2013  22 00  -21.0306 26056.9 -03417.0 -07.4708 26280.0
 12 03 2013  22 01  -21.0305 26056.8 -03416.9 -07.4707 26279.9
 12 03 2013  22 02  -21.0305 26056.7 -03416.9 -07.4707 26279.8
 12 03 2013  22 03  -21.0305 26056.6 -03416.8 -07.4706 26279.7
 12 03 2013  22 04  -21.0304 26056.3 -03416.7 -07.4705 26279.4
 12 03 2013  22 05  -21.0305 26056.1 -03416.7 -07.4704 26279.1
 12 03 2013  22 06  -21.0305 26055.8 -03416.6 -07.4703 26278.9
 12 03 2013  22 07  -21.0305 26055.8 -03416.7 -07.4705 26278.9
 12 03 2013  22 08  -21.0307 26055.4 -03416.6 -07.4705 26278.5
 12 03 2013  22 09  -21.0308 26055.2 -03416.5 -07.4703 26278.2
 12 03 2013  22 10  -21.0309 26054.6 -03416.2 -07.4699 26277.6
 12 03 2013  22 11  -21.0309 26054.2 -03416.2 -07.4699 26277.2
 12 03 2013  22 12  -21.0310 26053.8 -03416.1 -07.4698 26276.8
 12 03 2013  22 13  -21.0311 26053.5 -03416.0 -07.4697 26276.5
 12 03 2013  22 14  -21.0312 26053.4 -03416.0 -07.4698 26276.3
 12 03 2013  22 15  -21.0312 26053.3 -03416.1 -07.4699 26276.3
 12 03 2013  22 16  -21.0312 26053.3 -03416.2 -07.4702 26276.3
 12 03 2013  22 17  -21.0313 26053.2 -03416.2 -07.4703 26276.3
 12 03 2013  22 18  -21.0314 26052.9 -03416.2 -07.4703 26275.9
 12 03 2013  22 19  -21.0317 26051.9 -03415.7 -07.4696 26274.9
 12 03 2013  22 20  -21.0320 26051.3 -03415.5 -07.4693 26274.3
 12 03 2013  22 21  -21.0324 26050.6 -03415.3 -07.4691 26273.6
 12 03 2013  22 22  -21.0326 26049.8 -03414.9 -07.4684 26272.6
 12 03 2013  22 23  -21.0330 26049.2 -03414.7 -07.4682 26272.1
 12 03 2013  22 24  -21.0333 26048.9 -03414.7 -07.4682 26271.8
 12 03 2013  22 25  -21.0335 26048.7 -03414.7 -07.4683 26271.5
 12 03 2013  22 26  -21.0336 26048.4 -03414.6 -07.4682 26271.2
 12 03 2013  22 27  -21.0337 26048.0 -03414.6 -07.4682 26270.9
 12 03 2013  22 28  -21.0337 26048.0 -03414.7 -07.4684 26270.9
 12 03 2013  22 29  -21.0340 26048.0 -03414.8 -07.4687 26270.8
 12 03 2013  22 30  -21.0341 26047.9 -03414.9 -07.4689 26270.8
 12 03 2013  22 31  -21.0343 26047.9 -03415.0 -07.4691 26270.8
 12 03 2013  22 32  -21.0344 26047.8 -03415.1 -07.4693 26270.7
 12 03 2013  22 33  -21.0344 26047.9 -03415.2 -07.4695 26270.8
 12 03 2013  22 34  -21.0344 26047.8 -03415.2 -07.4696 26270.8
 12 03 2013  22 35  -21.0344 26047.9 -03415.3 -07.4698 26270.8
 12 03 2013  22 36  -21.0342 26047.9 -03415.4 -07.4700 26270.9
 12 03 2013  22 37  -21.0341 26048.1 -03415.5 -07.4702 26271.0
 12 03 2013  22 38  -21.0339 26048.2 -03415.7 -07.4705 26271.2
 12 03 2013  22 39  -21.0339 26048.2 -03415.7 -07.4706 26271.2
 12 03 2013  22 40  -21.0340 26048.0 -03415.7 -07.4706 26271.0
 12 03 2013  22 41  -21.0340 26047.8 -03415.6 -07.4705 26270.7
 12 03 2013  22 42  -21.0340 26047.6 -03415.6 -07.4704 26270.6
 12 03 2013  22 43  -21.0338 26047.7 -03415.6 -07.4706 26270.7
 12 03 2013  22 44  -21.0334 26048.5 -03416.0 -07.4712 26271.5
 12 03 2013  22 45  -21.0334 26048.0 -03416.0 -07.4712 26271.1
 12 03 2013  22 46  -21.0334 26048.6 -03416.2 -07.4716 26271.7
 12 03 2013  22 47  -21.0335 26048.9 -03416.5 -07.4720 26272.0
 12 03 2013  22 48  -21.0336 26049.0 -03416.5 -07.4721 26272.1
 12 03 2013  22 49  -21.0337 26049.0 -03416.5 -07.4721 26272.1
 12 03 2013  22 50  -21.0338 26049.0 -03416.5 -07.4720 26272.1
 12 03 2013  22 51  -21.0338 26049.3 -03416.7 -07.4723 26272.4
 12 03 2013  22 52  -21.0336 26049.4 -03416.7 -07.4724 26272.6
 12 03 2013  22 53  -21.0334 26049.6 -03416.8 -07.4726 26272.7
 12 03 2013  22 54  -21.0334 26049.5 -03416.8 -07.4725 26272.6
 12 03 2013  22 55  -21.0331 26049.6 -03416.8 -07.4726 26272.8
 12 03 2013  22 56  -21.0330 26049.5 -03416.8 -07.4726 26272.6
 12 03 2013  22 57  -21.0328 26049.2 -03416.7 -07.4724 26272.3
 12 03 2013  22 58  -21.0329 26048.7 -03416.5 -07.4721 26271.8
 12 03 2013  22 59  -21.0327 26048.4 -03416.2 -07.4717 26271.5
 12 03 2013  23 00  -21.0323 26048.5 -03416.4 -07.4719 26271.6
 12 03 2013  23 01  -21.0322 26048.3 -03416.3 -07.4718 26271.4
 12 03 2013  23 02  -21.0321 26048.3 -03416.3 -07.4718 26271.4
 12 03 2013  23 03  -21.0320 26048.4 -03416.4 -07.4720 26271.5
 12 03 2013  23 04  -21.0319 26048.8 -03416.7 -07.4725 26271.9
 12 03 2013  23 05  -21.0317 26049.6 -03417.1 -07.4733 26272.8
 12 03 2013  23 06  -21.0323 26048.8 -03416.8 -07.4728 26272.0
 12 03 2013  23 07  -21.0324 26049.0 -03416.9 -07.4729 26272.2
 12 03 2013  23 08  -21.0325 26049.0 -03416.9 -07.4729 26272.1
 12 03 2013  23 09  -21.0330 26048.1 -03416.5 -07.4722 26271.2
 12 03 2013  23 10  -21.0328 26047.6 -03416.2 -07.4718 26270.7
 12 03 2013  23 11  -21.0325 26047.1 -03415.9 -07.4714 26270.2
 12 03 2013  23 12  -21.0322 26047.2 -03416.0 -07.4716 26270.3
 12 03 2013  23 13  -21.0323 26047.1 -03416.1 -07.4716 26270.2
 12 03 2013  23 14  -21.0322 26047.3 -03416.2 -07.4719 26270.3
 12 03 2013  23 15  -21.0322 26047.1 -03416.3 -07.4720 26270.2
 12 03 2013  23 16  -21.0320 26047.4 -03416.3 -07.4721 26270.4
 12 03 2013  23 17  -21.0318 26047.2 -03416.4 -07.4723 26270.3
 12 03 2013  23 18  -21.0317 26047.6 -03416.6 -07.4726 26270.7
 12 03 2013  23 19  -21.0317 26047.0 -03416.4 -07.4723 26270.1
 12 03 2013  23 20  -21.0314 26047.5 -03416.6 -07.4727 26270.6
 12 03 2013  23 21  -21.0312 26047.3 -03416.5 -07.4726 26270.4
 12 03 2013  23 22  -21.0311 26047.2 -03416.5 -07.4725 26270.3
 12 03 2013  23 23  -21.0312 26047.4 -03416.7 -07.4728 26270.6
 12 03 2013  23 24  -21.0315 26047.2 -03416.6 -07.4728 26270.3
 12 03 2013  23 25  -21.0316 26046.9 -03416.5 -07.4726 26270.0
 12 03 2013  23 26  -21.0316 26046.8 -03416.4 -07.4725 26269.9
 12 03 2013  23 27  -21.0316 26046.8 -03416.5 -07.4726 26269.9
 12 03 2013  23 28  -21.0317 26046.6 -03416.4 -07.4725 26269.7
 12 03 2013  23 29  -21.0314 26046.5 -03416.3 -07.4723 26269.5
 12 03 2013  23 30  -21.0308 26047.0 -03416.5 -07.4727 26270.1
 12 03 2013  23 31  -21.0310 26046.2 -03416.4 -07.4726 26269.3
 12 03 2013  23 32  -21.0310 26046.6 -03416.4 -07.4725 26269.7
 12 03 2013  23 33  -21.0300 26047.5 -03416.9 -07.4734 26270.7
 12 03 2013  23 34  -21.0289 26048.9 -03417.6 -07.4745 26272.1
 12 03 2013  23 35  -21.0289 26049.0 -03417.8 -07.4748 26272.2
 12 03 2013  23 36  -21.0286 26049.2 -03417.9 -07.4750 26272.5
 12 03 2013  23 37  -21.0286 26049.0 -03417.8 -07.4748 26272.3
 12 03 2013  23 38  -21.0290 26049.4 -03418.0 -07.4751 26272.7
 12 03 2013  23 39  -21.0294 26049.1 -03417.9 -07.4750 26272.4
 12 03 2013  23 40  -21.0297 26048.7 -03417.6 -07.4745 26271.9
 12 03 2013  23 41  -21.0300 26048.8 -03417.6 -07.4744 26272.1
 12 03 2013  23 42  -21.0304 26048.9 -03417.6 -07.4745 26272.2
 12 03 2013  23 43  -21.0308 26048.8 -03417.5 -07.4744 26272.0
 12 03 2013  23 44  -21.0311 26048.5 -03417.4 -07.4741 26271.7
 12 03 2013  23 45  -21.0312 26048.2 -03417.2 -07.4738 26271.4
 12 03 2013  23 46  -21.0312 26048.1 -03417.2 -07.4737 26271.3
 12 03 2013  23 47  -21.0315 26047.5 -03416.9 -07.4732 26270.7
 12 03 2013  23 48  -21.0311 26047.8 -03416.9 -07.4732 26270.9
 12 03 2013  23 49  -21.0307 26047.6 -03416.8 -07.4731 26270.7
 12 03 2013  23 50  -21.0298 26048.9 -03417.5 -07.4742 26272.1
 12 03 2013  23 51  -21.0299 26048.6 -03417.4 -07.4742 26271.8
 12 03 2013  23 52  -21.0296 26048.9 -03417.6 -07.4745 26272.1
 12 03 2013  23 53  -21.0295 26048.3 -03417.3 -07.4740 26271.5
 12 03 2013  23 54  -21.0290 26049.2 -03417.7 -07.4746 26272.4
 12 03 2013  23 55  -21.0289 26049.2 -03417.8 -07.4748 26272.5
 12 03 2013  23 56  -21.0282 26049.8 -03418.0 -07.4751 26273.1
 12 03 2013  23 57  -21.0276 26050.1 -03418.2 -07.4755 26273.4
 12 03 2013  23 58  -21.0277 26050.1 -03418.2 -07.4755 26273.4
