SAO LUIS EMBRACE-03 <256> 1 Min. Reported data

 DD MM YYYY  HH MM   D(Deg)  H(nT)   Z(nT)   I(Deg)   F(nT)

 13 09 2013  00 00  -21.0235 26021.7 -03484.2 -07.6263 26253.9
 13 09 2013  00 01  -21.0239 26021.5 -03484.2 -07.6264 26253.8
 13 09 2013  00 02  -21.0242 26021.5 -03484.2 -07.6264 26253.7
 13 09 2013  00 03  -21.0242 26022.0 -03484.4 -07.6267 26254.2
 13 09 2013  00 04  -21.0241 26022.4 -03484.6 -07.6270 26254.6
 13 09 2013  00 05  -21.0239 26023.2 -03485.1 -07.6277 26255.5
 13 09 2013  00 06  -21.0238 26024.0 -03485.5 -07.6284 26256.4
 13 09 2013  00 07  -21.0233 26023.5 -03485.3 -07.6281 26255.9
 13 09 2013  00 08  -21.0230 26023.1 -03484.9 -07.6275 26255.4
 13 09 2013  00 09  -21.0228 26023.0 -03484.8 -07.6273 26255.3
 13 09 2013  00 10  -21.0226 26023.0 -03484.8 -07.6273 26255.3
 13 09 2013  00 11  -21.0223 26023.3 -03485.0 -07.6276 26255.6
 13 09 2013  00 12  -21.0225 26022.8 -03484.8 -07.6274 26255.1
 13 09 2013  00 13  -21.0227 26022.5 -03484.7 -07.6272 26254.8
 13 09 2013  00 14  -21.0229 26022.5 -03484.7 -07.6272 26254.8
 13 09 2013  00 15  -21.0233 26022.0 -03484.6 -07.6270 26254.3
 13 09 2013  00 16  -21.0235 26021.8 -03484.4 -07.6268 26254.1
 13 09 2013  00 17  -21.0233 26022.2 -03484.5 -07.6269 26254.5
 13 09 2013  00 18  -21.0216 26024.5 -03485.6 -07.6286 26256.9
 13 09 2013  00 19  -21.0214 26024.3 -03485.6 -07.6285 26256.7
 13 09 2013  00 20  -21.0202 26025.3 -03486.2 -07.6295 26257.8
 13 09 2013  00 21  -21.0190 26026.2 -03486.5 -07.6299 26258.7
 13 09 2013  00 22  -21.0184 26026.6 -03486.6 -07.6302 26259.1
 13 09 2013  00 23  -21.0172 26028.4 -03487.5 -07.6315 26261.0
 13 09 2013  00 24  -21.0164 26029.1 -03487.8 -07.6320 26261.7
 13 09 2013  00 25  -21.0160 26029.2 -03487.9 -07.6321 26261.9
 13 09 2013  00 26  -21.0154 26030.1 -03488.1 -07.6324 26262.8
 13 09 2013  00 27  -21.0151 26030.8 -03488.4 -07.6329 26263.5
 13 09 2013  00 28  -21.0149 26031.4 -03488.6 -07.6331 26264.2
 13 09 2013  00 29  -21.0147 26032.3 -03489.0 -07.6335 26265.0
 13 09 2013  00 30  -21.0146 26032.5 -03489.0 -07.6336 26265.3
 13 09 2013  00 31  -21.0146 26032.6 -03488.9 -07.6333 26265.4
 13 09 2013  00 32  -21.0150 26032.2 -03488.6 -07.6328 26264.9
 13 09 2013  00 33  -21.0155 26031.9 -03488.3 -07.6323 26264.6
 13 09 2013  00 34  -21.0161 26031.6 -03488.0 -07.6317 26264.2
 13 09 2013  00 35  -21.0167 26031.4 -03487.9 -07.6314 26264.0
 13 09 2013  00 36  -21.0173 26031.1 -03487.6 -07.6310 26263.7
 13 09 2013  00 37  -21.0175 26031.0 -03487.5 -07.6308 26263.6
 13 09 2013  00 38  -21.0180 26030.6 -03487.2 -07.6303 26263.2
 13 09 2013  00 39  -21.0181 26030.5 -03487.1 -07.6300 26263.0
 13 09 2013  00 40  -21.0184 26030.3 -03486.9 -07.6297 26262.8
 13 09 2013  00 41  -21.0187 26030.0 -03486.7 -07.6294 26262.5
 13 09 2013  00 42  -21.0191 26030.2 -03486.8 -07.6294 26262.6
 13 09 2013  00 43  -21.0193 26030.3 -03486.8 -07.6294 26262.8
 13 09 2013  00 44  -21.0195 26030.4 -03486.8 -07.6294 26262.9
 13 09 2013  00 45  -21.0198 26030.6 -03486.9 -07.6295 26263.1
 13 09 2013  00 46  -21.0201 26030.6 -03486.8 -07.6293 26263.0
 13 09 2013  00 47  -21.0203 26030.5 -03486.8 -07.6292 26263.0
 13 09 2013  00 48  -21.0202 26030.3 -03486.5 -07.6289 26262.7
 13 09 2013  00 49  -21.0201 26029.8 -03486.2 -07.6283 26262.3
 13 09 2013  00 50  -21.0202 26029.5 -03486.0 -07.6280 26261.9
 13 09 2013  00 51  -21.0200 26029.2 -03485.8 -07.6276 26261.5
 13 09 2013  00 52  -21.0198 26029.0 -03485.7 -07.6274 26261.3
 13 09 2013  00 53  -21.0192 26028.8 -03485.5 -07.6271 26261.2
 13 09 2013  00 54  -21.0186 26028.8 -03485.5 -07.6271 26261.1
 13 09 2013  00 55  -21.0179 26029.0 -03485.6 -07.6272 26261.4
 13 09 2013  00 56  -21.0177 26029.1 -03485.7 -07.6274 26261.4
 13 09 2013  00 57  -21.0175 26029.2 -03485.8 -07.6276 26261.6
 13 09 2013  00 58  -21.0172 26029.6 -03486.0 -07.6279 26262.0
 13 09 2013  00 59  -21.0168 26029.9 -03486.2 -07.6282 26262.3
 13 09 2013  01 00  -21.0164 26030.0 -03486.2 -07.6282 26262.4
 13 09 2013  01 01  -21.0162 26030.1 -03486.2 -07.6283 26262.5
 13 09 2013  01 02  -21.0162 26030.5 -03486.5 -07.6286 26263.0
 13 09 2013  01 03  -21.0162 26030.6 -03486.6 -07.6288 26263.1
 13 09 2013  01 04  -21.0165 26030.7 -03486.6 -07.6288 26263.2
 13 09 2013  01 05  -21.0169 26030.6 -03486.5 -07.6287 26263.0
 13 09 2013  01 06  -21.0168 26030.3 -03486.3 -07.6284 26262.8
 13 09 2013  01 07  -21.0165 26029.9 -03486.0 -07.6278 26262.3
 13 09 2013  01 08  -21.0163 26029.6 -03485.8 -07.6275 26261.9
 13 09 2013  01 09  -21.0159 26029.1 -03485.6 -07.6271 26261.4
 13 09 2013  01 10  -21.0154 26028.6 -03485.3 -07.6267 26260.9
 13 09 2013  01 11  -21.0151 26028.1 -03485.1 -07.6263 26260.3
 13 09 2013  01 12  -21.0148 26027.9 -03485.0 -07.6262 26260.1
 13 09 2013  01 13  -21.0145 26027.6 -03484.9 -07.6262 26259.9
 13 09 2013  01 14  -21.0144 26027.4 -03484.9 -07.6262 26259.6
 13 09 2013  01 15  -21.0144 26027.2 -03485.0 -07.6263 26259.5
 13 09 2013  01 16  -21.0144 26027.3 -03485.0 -07.6265 26259.6
 13 09 2013  01 17  -21.0145 26027.6 -03485.3 -07.6270 26259.9
 13 09 2013  01 18  -21.0148 26027.6 -03485.4 -07.6271 26259.9
 13 09 2013  01 19  -21.0153 26027.3 -03485.3 -07.6271 26259.7
 13 09 2013  01 20  -21.0156 26027.0 -03485.2 -07.6270 26259.3
 13 09 2013  01 21  -21.0158 26026.9 -03485.2 -07.6269 26259.2
 13 09 2013  01 22  -21.0159 26026.8 -03485.1 -07.6269 26259.1
 13 09 2013  01 23  -21.0159 26026.8 -03485.2 -07.6269 26259.1
 13 09 2013  01 24  -21.0160 26026.8 -03485.2 -07.6270 26259.1
 13 09 2013  01 25  -21.0162 26026.6 -03485.2 -07.6270 26258.9
 13 09 2013  01 26  -21.0165 26026.4 -03485.1 -07.6269 26258.7
 13 09 2013  01 27  -21.0167 26026.2 -03485.0 -07.6268 26258.5
 13 09 2013  01 28  -21.0168 26026.1 -03485.0 -07.6267 26258.4
 13 09 2013  01 29  -21.0171 26026.1 -03485.0 -07.6268 26258.4
 13 09 2013  01 30  -21.0173 26026.3 -03485.1 -07.6270 26258.6
 13 09 2013  01 31  -21.0173 26026.2 -03485.2 -07.6270 26258.5
 13 09 2013  01 32  -21.0172 26026.2 -03485.2 -07.6271 26258.5
 13 09 2013  01 33  -21.0172 26026.3 -03485.2 -07.6272 26258.6
 13 09 2013  01 34  -21.0171 26026.5 -03485.3 -07.6273 26258.8
 13 09 2013  01 35  -21.0171 26026.5 -03485.4 -07.6274 26258.8
 13 09 2013  01 36  -21.0172 26026.5 -03485.4 -07.6274 26258.8
 13 09 2013  01 37  -21.0173 26026.6 -03485.4 -07.6275 26258.9
 13 09 2013  01 38  -21.0176 26026.6 -03485.4 -07.6276 26258.9
 13 09 2013  01 39  -21.0178 26026.4 -03485.4 -07.6275 26258.7
 13 09 2013  01 40  -21.0180 26026.2 -03485.3 -07.6274 26258.5
 13 09 2013  01 41  -21.0182 26026.2 -03485.3 -07.6273 26258.5
 13 09 2013  01 42  -21.0184 26026.3 -03485.4 -07.6275 26258.6
 13 09 2013  01 43  -21.0188 26026.3 -03485.4 -07.6276 26258.7
 13 09 2013  01 44  -21.0190 26026.3 -03485.4 -07.6276 26258.7
 13 09 2013  01 45  -21.0192 26026.3 -03485.4 -07.6276 26258.7
 13 09 2013  01 46  -21.0192 26026.7 -03485.6 -07.6278 26259.1
 13 09 2013  01 47  -21.0192 26026.9 -03485.7 -07.6280 26259.3
 13 09 2013  01 48  -21.0189 26027.2 -03485.8 -07.6281 26259.6
 13 09 2013  01 49  -21.0185 26027.3 -03485.8 -07.6282 26259.7
 13 09 2013  01 50  -21.0182 26027.2 -03485.7 -07.6281 26259.5
 13 09 2013  01 51  -21.0180 26027.1 -03485.7 -07.6280 26259.5
 13 09 2013  01 52  -21.0180 26027.0 -03485.7 -07.6279 26259.4
 13 09 2013  01 53  -21.0179 26026.9 -03485.6 -07.6279 26259.3
 13 09 2013  01 54  -21.0176 26027.0 -03485.6 -07.6278 26259.3
 13 09 2013  01 55  -21.0175 26026.9 -03485.6 -07.6278 26259.2
 13 09 2013  01 56  -21.0174 26026.8 -03485.5 -07.6277 26259.1
 13 09 2013  01 57  -21.0174 26026.6 -03485.5 -07.6277 26259.0
 13 09 2013  01 58  -21.0175 26026.7 -03485.6 -07.6278 26259.1
 13 09 2013  01 59  -21.0178 26026.8 -03485.6 -07.6279 26259.1
 13 09 2013  02 00  -21.0179 26027.2 -03485.8 -07.6282 26259.5
 13 09 2013  02 01  -21.0178 26027.6 -03486.0 -07.6285 26260.0
 13 09 2013  02 02  -21.0174 26027.9 -03486.1 -07.6287 26260.3
 13 09 2013  02 03  -21.0169 26028.2 -03486.3 -07.6289 26260.6
 13 09 2013  02 04  -21.0167 26028.3 -03486.3 -07.6290 26260.8
 13 09 2013  02 05  -21.0167 26028.1 -03486.3 -07.6289 26260.6
 13 09 2013  02 06  -21.0169 26027.7 -03486.1 -07.6286 26260.1
 13 09 2013  02 07  -21.0168 26027.5 -03485.9 -07.6283 26259.9
 13 09 2013  02 08  -21.0165 26027.4 -03485.8 -07.6281 26259.8
 13 09 2013  02 09  -21.0160 26027.4 -03485.7 -07.6280 26259.7
 13 09 2013  02 10  -21.0159 26027.1 -03485.7 -07.6279 26259.5
 13 09 2013  02 11  -21.0159 26027.0 -03485.6 -07.6279 26259.4
 13 09 2013  02 12  -21.0163 26026.8 -03485.6 -07.6278 26259.2
 13 09 2013  02 13  -21.0168 26026.5 -03485.5 -07.6277 26258.9
 13 09 2013  02 14  -21.0174 26026.2 -03485.4 -07.6276 26258.5
 13 09 2013  02 15  -21.0180 26026.1 -03485.3 -07.6275 26258.4
 13 09 2013  02 16  -21.0183 26025.9 -03485.3 -07.6275 26258.3
 13 09 2013  02 17  -21.0184 26025.9 -03485.3 -07.6274 26258.2
 13 09 2013  02 18  -21.0181 26026.2 -03485.4 -07.6275 26258.5
 13 09 2013  02 19  -21.0179 26026.3 -03485.4 -07.6276 26258.6
 13 09 2013  02 20  -21.0177 26026.2 -03485.4 -07.6276 26258.6
 13 09 2013  02 21  -21.0176 26026.3 -03485.5 -07.6277 26258.7
 13 09 2013  02 22  -21.0173 26026.6 -03485.6 -07.6279 26258.9
 13 09 2013  02 23  -21.0169 26026.6 -03485.6 -07.6280 26259.0
 13 09 2013  02 24  -21.0164 26026.7 -03485.7 -07.6280 26259.1
 13 09 2013  02 25  -21.0157 26026.8 -03485.7 -07.6281 26259.2
 13 09 2013  02 26  -21.0152 26027.0 -03485.8 -07.6283 26259.4
 13 09 2013  02 27  -21.0150 26027.2 -03486.0 -07.6285 26259.6
 13 09 2013  02 28  -21.0150 26027.2 -03486.0 -07.6286 26259.6
 13 09 2013  02 29  -21.0149 26027.1 -03486.0 -07.6286 26259.6
 13 09 2013  02 30  -21.0149 26027.1 -03486.0 -07.6286 26259.5
 13 09 2013  02 31  -21.0151 26027.2 -03486.0 -07.6286 26259.6
 13 09 2013  02 32  -21.0152 26027.2 -03486.0 -07.6287 26259.6
 13 09 2013  02 33  -21.0152 26027.0 -03486.0 -07.6285 26259.4
 13 09 2013  02 34  -21.0153 26026.9 -03485.9 -07.6284 26259.3
 13 09 2013  02 35  -21.0155 26026.5 -03485.7 -07.6281 26258.9
 13 09 2013  02 36  -21.0158 26026.2 -03485.6 -07.6280 26258.6
 13 09 2013  02 37  -21.0165 26025.8 -03485.4 -07.6278 26258.2
 13 09 2013  02 38  -21.0167 26025.9 -03485.4 -07.6277 26258.2
 13 09 2013  02 39  -21.0168 26026.2 -03485.6 -07.6281 26258.6
 13 09 2013  02 40  -21.0171 26026.1 -03485.6 -07.6281 26258.5
 13 09 2013  02 41  -21.0171 26025.8 -03485.4 -07.6277 26258.2
 13 09 2013  02 42  -21.0168 26025.5 -03485.2 -07.6274 26257.8
 13 09 2013  02 43  -21.0167 26025.1 -03485.0 -07.6271 26257.4
 13 09 2013  02 44  -21.0164 26024.9 -03484.9 -07.6268 26257.2
 13 09 2013  02 45  -21.0163 26025.0 -03485.0 -07.6270 26257.3
 13 09 2013  02 46  -21.0163 26025.3 -03485.2 -07.6274 26257.6
 13 09 2013  02 47  -21.0163 26025.4 -03485.3 -07.6276 26257.8
 13 09 2013  02 48  -21.0163 26025.6 -03485.4 -07.6278 26258.0
 13 09 2013  02 49  -21.0162 26026.0 -03485.6 -07.6281 26258.4
 13 09 2013  02 50  -21.0161 26026.4 -03485.8 -07.6283 26258.8
 13 09 2013  02 51  -21.0161 26026.9 -03486.0 -07.6287 26259.3
 13 09 2013  02 52  -21.0162 26027.4 -03486.3 -07.6292 26259.8
 13 09 2013  02 53  -21.0164 26027.9 -03486.5 -07.6295 26260.4
 13 09 2013  02 54  -21.0166 26028.2 -03486.7 -07.6297 26260.7
 13 09 2013  02 55  -21.0168 26028.2 -03486.6 -07.6296 26260.6
 13 09 2013  02 56  -21.0171 26028.0 -03486.5 -07.6294 26260.5
 13 09 2013  02 57  -21.0174 26027.9 -03486.3 -07.6291 26260.3
 13 09 2013  02 58  -21.0176 26027.8 -03486.2 -07.6289 26260.2
 13 09 2013  02 59  -21.0177 26027.6 -03486.1 -07.6287 26260.1
 13 09 2013  03 00  -21.0175 26027.9 -03486.2 -07.6287 26260.4
 13 09 2013  03 01  -21.0174 26028.2 -03486.2 -07.6288 26260.6
 13 09 2013  03 02  -21.0173 26028.3 -03486.3 -07.6290 26260.8
 13 09 2013  03 03  -21.0173 26028.0 -03486.2 -07.6288 26260.5
 13 09 2013  03 04  -21.0175 26027.4 -03485.9 -07.6283 26259.8
 13 09 2013  03 05  -21.0178 26026.9 -03485.6 -07.6278 26259.3
 13 09 2013  03 06  -21.0178 26026.6 -03485.4 -07.6274 26258.9
 13 09 2013  03 07  -21.0177 26026.6 -03485.4 -07.6274 26258.9
 13 09 2013  03 08  -21.0175 26026.9 -03485.5 -07.6276 26259.2
 13 09 2013  03 09  -21.0174 26027.2 -03485.7 -07.6280 26259.6
 13 09 2013  03 10  -21.0172 26027.4 -03485.9 -07.6283 26259.8
 13 09 2013  03 11  -21.0170 26027.4 -03485.9 -07.6284 26259.8
 13 09 2013  03 12  -21.0168 26027.4 -03485.9 -07.6283 26259.8
 13 09 2013  03 13  -21.0164 26027.2 -03485.9 -07.6283 26259.6
 13 09 2013  03 14  -21.0160 26027.1 -03485.8 -07.6281 26259.5
 13 09 2013  03 15  -21.0156 26026.9 -03485.7 -07.6280 26259.3
 13 09 2013  03 16  -21.0152 26026.7 -03485.6 -07.6279 26259.1
 13 09 2013  03 17  -21.0147 26026.6 -03485.6 -07.6279 26258.9
 13 09 2013  03 18  -21.0142 26026.4 -03485.6 -07.6279 26258.8
 13 09 2013  03 19  -21.0137 26026.2 -03485.5 -07.6279 26258.6
 13 09 2013  03 20  -21.0132 26026.0 -03485.5 -07.6279 26258.4
 13 09 2013  03 21  -21.0127 26025.9 -03485.5 -07.6280 26258.2
 13 09 2013  03 22  -21.0121 26025.7 -03485.6 -07.6281 26258.1
 13 09 2013  03 23  -21.0116 26025.6 -03485.6 -07.6282 26258.0
 13 09 2013  03 24  -21.0112 26025.7 -03485.7 -07.6284 26258.1
 13 09 2013  03 25  -21.0107 26025.8 -03485.9 -07.6287 26258.2
 13 09 2013  03 26  -21.0104 26026.0 -03486.1 -07.6292 26258.4
 13 09 2013  03 27  -21.0101 26026.2 -03486.3 -07.6296 26258.7
 13 09 2013  03 28  -21.0100 26026.2 -03486.4 -07.6298 26258.6
 13 09 2013  03 29  -21.0098 26026.0 -03486.4 -07.6299 26258.5
 13 09 2013  03 30  -21.0099 26025.9 -03486.4 -07.6299 26258.4
 13 09 2013  03 31  -21.0101 26026.0 -03486.5 -07.6301 26258.5
 13 09 2013  03 32  -21.0107 26026.2 -03486.8 -07.6305 26258.7
 13 09 2013  03 33  -21.0109 26026.5 -03487.0 -07.6309 26259.1
 13 09 2013  03 34  -21.0109 26026.9 -03487.2 -07.6314 26259.5
 13 09 2013  03 35  -21.0110 26027.3 -03487.5 -07.6317 26260.0
 13 09 2013  03 36  -21.0114 26027.7 -03487.7 -07.6321 26260.3
 13 09 2013  03 37  -21.0118 26027.9 -03487.8 -07.6324 26260.5
 13 09 2013  03 38  -21.0121 26027.9 -03487.8 -07.6323 26260.5
 13 09 2013  03 39  -21.0123 26027.8 -03487.7 -07.6322 26260.4
 13 09 2013  03 40  -21.0125 26027.6 -03487.7 -07.6321 26260.2
 13 09 2013  03 41  -21.0127 26027.5 -03487.6 -07.6319 26260.1
 13 09 2013  03 42  -21.0130 26027.4 -03487.5 -07.6319 26260.1
 13 09 2013  03 43  -21.0134 26027.4 -03487.5 -07.6318 26260.0
 13 09 2013  03 44  -21.0137 26027.4 -03487.5 -07.6318 26260.0
 13 09 2013  03 45  -21.0140 26027.5 -03487.5 -07.6318 26260.1
 13 09 2013  03 46  -21.0142 26027.6 -03487.6 -07.6320 26260.3
 13 09 2013  03 47  -21.0143 26027.7 -03487.7 -07.6321 26260.3
 13 09 2013  03 48  -21.0141 26027.9 -03487.7 -07.6321 26260.5
 13 09 2013  03 49  -21.0137 26028.1 -03487.8 -07.6323 26260.8
 13 09 2013  03 50  -21.0135 26028.0 -03487.8 -07.6322 26260.7
 13 09 2013  03 51  -21.0134 26027.7 -03487.6 -07.6319 26260.3
 13 09 2013  03 52  -21.0129 26027.3 -03487.4 -07.6316 26259.9
 13 09 2013  03 53  -21.0124 26027.2 -03487.3 -07.6314 26259.8
 13 09 2013  03 54  -21.0118 26027.4 -03487.4 -07.6315 26260.0
 13 09 2013  03 55  -21.0115 26027.6 -03487.5 -07.6318 26260.2
 13 09 2013  03 56  -21.0110 26027.9 -03487.7 -07.6321 26260.5
 13 09 2013  03 57  -21.0105 26028.1 -03487.9 -07.6324 26260.7
 13 09 2013  03 58  -21.0099 26028.0 -03487.9 -07.6324 26260.7
 13 09 2013  03 59  -21.0092 26027.9 -03487.8 -07.6323 26260.6
 13 09 2013  04 00  -21.0084 26027.9 -03487.8 -07.6322 26260.5
 13 09 2013  04 01  -21.0075 26027.7 -03487.7 -07.6322 26260.4
 13 09 2013  04 02  -21.0063 26027.6 -03487.7 -07.6322 26260.2
 13 09 2013  04 03  -21.0053 26027.4 -03487.6 -07.6321 26260.0
 13 09 2013  04 04  -21.0048 26027.0 -03487.6 -07.6321 26259.7
 13 09 2013  04 05  -21.0046 26026.5 -03487.4 -07.6318 26259.1
 13 09 2013  04 06  -21.0046 26026.3 -03487.4 -07.6318 26258.9
 13 09 2013  04 07  -21.0048 26026.6 -03487.6 -07.6322 26259.2
 13 09 2013  04 08  -21.0056 26026.9 -03487.9 -07.6327 26259.5
 13 09 2013  04 09  -21.0065 26026.9 -03488.0 -07.6330 26259.6
 13 09 2013  04 10  -21.0075 26027.0 -03488.1 -07.6332 26259.7
 13 09 2013  04 11  -21.0083 26027.0 -03488.0 -07.6331 26259.6
 13 09 2013  04 12  -21.0087 26027.0 -03488.0 -07.6330 26259.7
 13 09 2013  04 13  -21.0091 26027.2 -03488.0 -07.6330 26259.9
 13 09 2013  04 14  -21.0095 26027.6 -03488.2 -07.6331 26260.3
 13 09 2013  04 15  -21.0100 26027.9 -03488.3 -07.6334 26260.6
 13 09 2013  04 16  -21.0107 26028.1 -03488.4 -07.6334 26260.8
 13 09 2013  04 17  -21.0114 26028.1 -03488.4 -07.6334 26260.8
 13 09 2013  04 18  -21.0118 26028.2 -03488.3 -07.6332 26260.9
 13 09 2013  04 19  -21.0122 26028.2 -03488.2 -07.6330 26260.9
 13 09 2013  04 20  -21.0125 26028.2 -03488.1 -07.6329 26260.9
 13 09 2013  04 21  -21.0127 26028.1 -03488.0 -07.6327 26260.8
 13 09 2013  04 22  -21.0130 26028.3 -03488.0 -07.6326 26260.9
 13 09 2013  04 23  -21.0132 26028.3 -03488.0 -07.6325 26261.0
 13 09 2013  04 24  -21.0134 26028.4 -03487.9 -07.6324 26261.1
 13 09 2013  04 25  -21.0133 26028.7 -03488.0 -07.6324 26261.3
 13 09 2013  04 26  -21.0132 26028.7 -03488.0 -07.6324 26261.3
 13 09 2013  04 27  -21.0130 26028.7 -03487.9 -07.6324 26261.3
 13 09 2013  04 28  -21.0128 26028.6 -03487.9 -07.6323 26261.3
 13 09 2013  04 29  -21.0126 26028.7 -03487.9 -07.6322 26261.3
 13 09 2013  04 30  -21.0125 26028.5 -03487.7 -07.6319 26261.2
 13 09 2013  04 31  -21.0125 26028.2 -03487.6 -07.6317 26260.8
 13 09 2013  04 32  -21.0125 26028.0 -03487.4 -07.6313 26260.6
 13 09 2013  04 33  -21.0120 26028.1 -03487.3 -07.6312 26260.7
 13 09 2013  04 34  -21.0111 26028.4 -03487.4 -07.6314 26261.0
 13 09 2013  04 35  -21.0103 26028.4 -03487.5 -07.6315 26261.0
 13 09 2013  04 36  -21.0095 26028.4 -03487.6 -07.6316 26261.0
 13 09 2013  04 37  -21.0085 26028.3 -03487.5 -07.6316 26260.9
 13 09 2013  04 38  -21.0074 26028.1 -03487.5 -07.6315 26260.7
 13 09 2013  04 39  -21.0063 26027.9 -03487.4 -07.6314 26260.5
 13 09 2013  04 40  -21.0053 26027.7 -03487.4 -07.6314 26260.2
 13 09 2013  04 41  -21.0043 26027.3 -03487.3 -07.6313 26259.9
 13 09 2013  04 42  -21.0037 26027.0 -03487.2 -07.6312 26259.5
 13 09 2013  04 43  -21.0026 26026.9 -03487.2 -07.6312 26259.4
 13 09 2013  04 44  -21.0016 26027.1 -03487.4 -07.6316 26259.7
 13 09 2013  04 45  -21.0012 26027.4 -03487.7 -07.6322 26260.0
 13 09 2013  04 46  -21.0009 26027.6 -03488.0 -07.6328 26260.3
 13 09 2013  04 47  -21.0009 26027.7 -03488.2 -07.6332 26260.4
 13 09 2013  04 48  -21.0012 26027.8 -03488.3 -07.6335 26260.5
 13 09 2013  04 49  -21.0020 26028.0 -03488.5 -07.6337 26260.7
 13 09 2013  04 50  -21.0025 26028.2 -03488.6 -07.6339 26261.0
 13 09 2013  04 51  -21.0031 26028.4 -03488.6 -07.6339 26261.1
 13 09 2013  04 52  -21.0037 26028.4 -03488.6 -07.6339 26261.1
 13 09 2013  04 53  -21.0043 26028.4 -03488.6 -07.6339 26261.2
 13 09 2013  04 54  -21.0054 26028.4 -03488.5 -07.6338 26261.1
 13 09 2013  04 55  -21.0063 26028.4 -03488.5 -07.6337 26261.2
 13 09 2013  04 56  -21.0071 26028.6 -03488.5 -07.6335 26261.3
 13 09 2013  04 57  -21.0077 26028.7 -03488.4 -07.6334 26261.4
 13 09 2013  04 58  -21.0084 26028.8 -03488.4 -07.6334 26261.5
 13 09 2013  04 59  -21.0090 26028.9 -03488.4 -07.6334 26261.7
 13 09 2013  05 00  -21.0095 26029.1 -03488.4 -07.6333 26261.8
 13 09 2013  05 01  -21.0098 26029.3 -03488.4 -07.6332 26262.0
 13 09 2013  05 02  -21.0102 26029.7 -03488.5 -07.6333 26262.4
 13 09 2013  05 03  -21.0106 26030.0 -03488.6 -07.6334 26262.7
 13 09 2013  05 04  -21.0107 26030.3 -03488.7 -07.6335 26263.1
 13 09 2013  05 05  -21.0110 26030.5 -03488.7 -07.6335 26263.2
 13 09 2013  05 06  -21.0115 26030.5 -03488.6 -07.6333 26263.3
 13 09 2013  05 07  -21.0119 26030.6 -03488.5 -07.6331 26263.3
 13 09 2013  05 08  -21.0121 26030.6 -03488.5 -07.6329 26263.3
 13 09 2013  05 09  -21.0121 26030.9 -03488.5 -07.6329 26263.7
 13 09 2013  05 10  -21.0118 26031.4 -03488.7 -07.6332 26264.2
 13 09 2013  05 11  -21.0118 26031.7 -03488.8 -07.6334 26264.5
 13 09 2013  05 12  -21.0117 26031.8 -03488.8 -07.6332 26264.5
 13 09 2013  05 13  -21.0118 26031.6 -03488.6 -07.6330 26264.3
 13 09 2013  05 14  -21.0118 26031.4 -03488.4 -07.6325 26264.1
 13 09 2013  05 15  -21.0117 26031.3 -03488.3 -07.6323 26263.9
 13 09 2013  05 16  -21.0118 26031.1 -03488.1 -07.6320 26263.7
 13 09 2013  05 17  -21.0119 26031.0 -03488.0 -07.6319 26263.7
 13 09 2013  05 18  -21.0120 26030.9 -03487.9 -07.6317 26263.6
 13 09 2013  05 19  -21.0119 26031.0 -03488.0 -07.6317 26263.7
 13 09 2013  05 20  -21.0118 26031.2 -03488.0 -07.6317 26263.8
 13 09 2013  05 21  -21.0115 26031.3 -03488.1 -07.6318 26264.0
 13 09 2013  05 22  -21.0114 26031.4 -03488.1 -07.6319 26264.1
 13 09 2013  05 23  -21.0114 26031.5 -03488.1 -07.6319 26264.1
 13 09 2013  05 24  -21.0117 26031.3 -03488.1 -07.6319 26264.0
 13 09 2013  05 25  -21.0119 26031.2 -03488.0 -07.6317 26263.9
 13 09 2013  05 26  -21.0121 26030.9 -03487.8 -07.6314 26263.5
 13 09 2013  05 27  -21.0122 26030.8 -03487.7 -07.6312 26263.4
 13 09 2013  05 28  -21.0120 26030.9 -03487.7 -07.6312 26263.5
 13 09 2013  05 29  -21.0118 26030.9 -03487.7 -07.6312 26263.5
 13 09 2013  05 30  -21.0118 26030.8 -03487.7 -07.6312 26263.4
 13 09 2013  05 31  -21.0117 26030.7 -03487.6 -07.6311 26263.3
 13 09 2013  05 32  -21.0115 26030.7 -03487.6 -07.6310 26263.3
 13 09 2013  05 33  -21.0113 26030.7 -03487.6 -07.6310 26263.3
 13 09 2013  05 34  -21.0109 26030.9 -03487.7 -07.6312 26263.5
 13 09 2013  05 35  -21.0103 26031.0 -03487.7 -07.6312 26263.6
 13 09 2013  05 36  -21.0101 26030.8 -03487.7 -07.6312 26263.4
 13 09 2013  05 37  -21.0101 26030.3 -03487.5 -07.6308 26262.9
 13 09 2013  05 38  -21.0101 26029.7 -03487.1 -07.6303 26262.3
 13 09 2013  05 39  -21.0100 26029.5 -03487.0 -07.6301 26262.0
 13 09 2013  05 40  -21.0098 26029.5 -03487.1 -07.6302 26262.1
 13 09 2013  05 41  -21.0096 26029.9 -03487.3 -07.6307 26262.5
 13 09 2013  05 42  -21.0097 26030.2 -03487.5 -07.6311 26262.8
 13 09 2013  05 43  -21.0101 26029.9 -03487.5 -07.6310 26262.5
 13 09 2013  05 44  -21.0103 26029.5 -03487.2 -07.6306 26262.0
 13 09 2013  05 45  -21.0103 26029.2 -03487.1 -07.6304 26261.8
 13 09 2013  05 46  -21.0101 26029.0 -03487.0 -07.6302 26261.5
 13 09 2013  05 47  -21.0097 26028.8 -03486.9 -07.6300 26261.3
 13 09 2013  05 48  -21.0092 26028.6 -03486.8 -07.6299 26261.1
 13 09 2013  05 49  -21.0088 26028.5 -03486.8 -07.6299 26261.0
 13 09 2013  05 50  -21.0087 26028.4 -03486.8 -07.6300 26261.0
 13 09 2013  05 51  -21.0084 26028.4 -03486.8 -07.6301 26260.9
 13 09 2013  05 52  -21.0081 26028.5 -03486.9 -07.6303 26261.0
 13 09 2013  05 53  -21.0079 26028.7 -03487.1 -07.6305 26261.2
 13 09 2013  05 54  -21.0076 26028.9 -03487.3 -07.6309 26261.5
 13 09 2013  05 55  -21.0075 26029.1 -03487.4 -07.6311 26261.6
 13 09 2013  05 56  -21.0074 26029.1 -03487.5 -07.6313 26261.7
 13 09 2013  05 57  -21.0074 26029.1 -03487.5 -07.6313 26261.7
 13 09 2013  05 58  -21.0072 26029.0 -03487.5 -07.6313 26261.6
 13 09 2013  05 59  -21.0071 26029.4 -03487.7 -07.6316 26262.0
 13 09 2013  06 00  -21.0064 26029.6 -03487.9 -07.6319 26262.3
 13 09 2013  06 01  -21.0059 26030.2 -03488.2 -07.6325 26262.9
 13 09 2013  06 02  -21.0052 26030.3 -03488.3 -07.6327 26263.0
 13 09 2013  06 03  -21.0048 26029.8 -03488.1 -07.6323 26262.5
 13 09 2013  06 04  -21.0047 26028.8 -03487.5 -07.6314 26261.4
 13 09 2013  06 05  -21.0047 26027.8 -03487.0 -07.6306 26260.3
 13 09 2013  06 06  -21.0045 26027.3 -03486.7 -07.6302 26259.8
 13 09 2013  06 07  -21.0041 26027.2 -03486.7 -07.6302 26259.7
 13 09 2013  06 08  -21.0033 26027.3 -03486.9 -07.6305 26259.8
 13 09 2013  06 09  -21.0024 26027.4 -03487.0 -07.6308 26260.0
 13 09 2013  06 10  -21.0017 26027.5 -03487.2 -07.6311 26260.0
 13 09 2013  06 11  -21.0007 26027.5 -03487.3 -07.6313 26260.1
 13 09 2013  06 12  -20.9998 26027.6 -03487.4 -07.6315 26260.2
 13 09 2013  06 13  -20.9992 26027.8 -03487.6 -07.6318 26260.4
 13 09 2013  06 14  -20.9988 26027.9 -03487.8 -07.6322 26260.6
 13 09 2013  06 15  -20.9987 26027.8 -03487.9 -07.6324 26260.5
 13 09 2013  06 16  -20.9987 26027.8 -03487.9 -07.6326 26260.5
 13 09 2013  06 17  -20.9987 26027.8 -03488.0 -07.6327 26260.5
 13 09 2013  06 18  -20.9988 26027.7 -03488.0 -07.6327 26260.4
 13 09 2013  06 19  -20.9988 26027.7 -03488.0 -07.6328 26260.3
 13 09 2013  06 20  -20.9987 26027.7 -03488.0 -07.6328 26260.3
 13 09 2013  06 21  -20.9989 26027.8 -03488.1 -07.6330 26260.4
 13 09 2013  06 22  -20.9988 26027.9 -03488.2 -07.6331 26260.5
 13 09 2013  06 23  -20.9989 26027.9 -03488.2 -07.6333 26260.6
 13 09 2013  06 24  -20.9988 26027.9 -03488.3 -07.6333 26260.6
 13 09 2013  06 25  -20.9986 26028.0 -03488.3 -07.6333 26260.7
 13 09 2013  06 26  -20.9983 26028.1 -03488.4 -07.6334 26260.8
 13 09 2013  06 27  -20.9978 26027.9 -03488.3 -07.6333 26260.6
 13 09 2013  06 28  -20.9974 26027.9 -03488.3 -07.6333 26260.6
 13 09 2013  06 29  -20.9970 26028.0 -03488.3 -07.6334 26260.7
 13 09 2013  06 30  -20.9970 26028.1 -03488.4 -07.6336 26260.8
 13 09 2013  06 31  -20.9972 26028.3 -03488.6 -07.6338 26261.0
 13 09 2013  06 32  -20.9974 26028.6 -03488.8 -07.6342 26261.4
 13 09 2013  06 33  -20.9977 26028.8 -03488.9 -07.6345 26261.6
 13 09 2013  06 34  -20.9981 26028.7 -03488.9 -07.6345 26261.5
 13 09 2013  06 35  -20.9991 26028.3 -03488.7 -07.6341 26261.1
 13 09 2013  06 36  -21.0000 26027.9 -03488.5 -07.6337 26260.7
 13 09 2013  06 37  -21.0008 26028.1 -03488.4 -07.6336 26260.8
 13 09 2013  06 38  -21.0017 26028.2 -03488.5 -07.6337 26260.9
 13 09 2013  06 39  -21.0023 26028.6 -03488.6 -07.6338 26261.3
 13 09 2013  06 40  -21.0025 26028.9 -03488.7 -07.6339 26261.6
 13 09 2013  06 41  -21.0027 26029.2 -03488.7 -07.6340 26262.0
 13 09 2013  06 42  -21.0027 26029.5 -03488.8 -07.6340 26262.2
 13 09 2013  06 43  -21.0029 26029.7 -03488.9 -07.6341 26262.5
 13 09 2013  06 44  -21.0029 26030.0 -03488.9 -07.6340 26262.8
 13 09 2013  06 45  -21.0033 26030.0 -03488.8 -07.6339 26262.8
 13 09 2013  06 46  -21.0037 26029.7 -03488.6 -07.6335 26262.5
 13 09 2013  06 47  -21.0040 26029.7 -03488.4 -07.6332 26262.4
 13 09 2013  06 48  -21.0043 26029.6 -03488.3 -07.6328 26262.3
 13 09 2013  06 49  -21.0041 26029.8 -03488.3 -07.6329 26262.5
 13 09 2013  06 50  -21.0035 26029.7 -03488.2 -07.6327 26262.4
 13 09 2013  06 51  -21.0036 26029.3 -03488.0 -07.6323 26261.9
 13 09 2013  06 52  -21.0034 26029.3 -03487.9 -07.6321 26261.9
 13 09 2013  06 53  -21.0038 26029.0 -03487.8 -07.6319 26261.6
 13 09 2013  06 54  -21.0042 26028.7 -03487.6 -07.6317 26261.3
 13 09 2013  06 55  -21.0047 26028.5 -03487.5 -07.6315 26261.1
 13 09 2013  06 56  -21.0052 26028.6 -03487.5 -07.6315 26261.2
 13 09 2013  06 57  -21.0054 26028.6 -03487.6 -07.6316 26261.2
 13 09 2013  06 58  -21.0055 26028.9 -03487.7 -07.6318 26261.5
 13 09 2013  06 59  -21.0057 26028.9 -03487.8 -07.6319 26261.5
 13 09 2013  07 00  -21.0059 26028.8 -03487.7 -07.6319 26261.4
 13 09 2013  07 01  -21.0059 26028.6 -03487.6 -07.6316 26261.3
 13 09 2013  07 02  -21.0059 26028.5 -03487.5 -07.6314 26261.1
 13 09 2013  07 03  -21.0060 26028.3 -03487.3 -07.6312 26260.9
 13 09 2013  07 04  -21.0059 26028.3 -03487.3 -07.6310 26260.8
 13 09 2013  07 05  -21.0057 26028.6 -03487.4 -07.6313 26261.2
 13 09 2013  07 06  -21.0053 26028.6 -03487.4 -07.6313 26261.2
 13 09 2013  07 07  -21.0048 26028.9 -03487.6 -07.6315 26261.5
 13 09 2013  07 08  -21.0040 26029.0 -03487.6 -07.6315 26261.6
 13 09 2013  07 09  -21.0031 26029.1 -03487.6 -07.6316 26261.7
 13 09 2013  07 10  -21.0022 26029.3 -03487.7 -07.6317 26261.9
 13 09 2013  07 11  -21.0013 26029.0 -03487.6 -07.6315 26261.6
 13 09 2013  07 12  -21.0003 26028.8 -03487.5 -07.6314 26261.4
 13 09 2013  07 13  -20.9994 26028.6 -03487.4 -07.6312 26261.2
 13 09 2013  07 14  -20.9987 26028.4 -03487.3 -07.6312 26261.0
 13 09 2013  07 15  -20.9979 26028.0 -03487.2 -07.6309 26260.6
 13 09 2013  07 16  -20.9971 26027.9 -03487.2 -07.6309 26260.5
 13 09 2013  07 17  -20.9962 26028.0 -03487.3 -07.6312 26260.5
 13 09 2013  07 18  -20.9955 26028.0 -03487.4 -07.6314 26260.6
 13 09 2013  07 19  -20.9952 26027.9 -03487.5 -07.6317 26260.5
 13 09 2013  07 20  -20.9950 26028.0 -03487.7 -07.6321 26260.6
 13 09 2013  07 21  -20.9950 26028.0 -03487.9 -07.6324 26260.7
 13 09 2013  07 22  -20.9952 26028.2 -03488.1 -07.6328 26260.9
 13 09 2013  07 23  -20.9951 26028.4 -03488.2 -07.6330 26261.1
 13 09 2013  07 24  -20.9953 26028.4 -03488.3 -07.6331 26261.1
 13 09 2013  07 25  -20.9953 26028.4 -03488.3 -07.6333 26261.1
 13 09 2013  07 26  -20.9952 26028.7 -03488.4 -07.6334 26261.4
 13 09 2013  07 27  -20.9955 26028.8 -03488.6 -07.6337 26261.5
 13 09 2013  07 28  -20.9954 26029.0 -03488.7 -07.6338 26261.8
 13 09 2013  07 29  -20.9953 26028.9 -03488.6 -07.6338 26261.7
 13 09 2013  07 30  -20.9952 26029.2 -03488.7 -07.6338 26261.9
 13 09 2013  07 31  -20.9953 26029.4 -03488.8 -07.6340 26262.2
 13 09 2013  07 32  -20.9955 26029.7 -03488.9 -07.6342 26262.4
 13 09 2013  07 33  -20.9955 26030.0 -03489.1 -07.6344 26262.8
 13 09 2013  07 34  -20.9954 26030.5 -03489.2 -07.6345 26263.3
 13 09 2013  07 35  -20.9956 26030.4 -03489.1 -07.6344 26263.2
 13 09 2013  07 36  -20.9953 26030.5 -03489.0 -07.6342 26263.3
 13 09 2013  07 37  -20.9953 26030.8 -03489.1 -07.6342 26263.5
 13 09 2013  07 38  -20.9951 26031.3 -03489.3 -07.6345 26264.1
 13 09 2013  07 39  -20.9950 26031.4 -03489.3 -07.6345 26264.2
 13 09 2013  07 40  -20.9947 26031.4 -03489.3 -07.6344 26264.2
 13 09 2013  07 41  -20.9948 26030.8 -03488.8 -07.6336 26263.5
 13 09 2013  07 42  -20.9950 26030.4 -03488.5 -07.6331 26263.2
 13 09 2013  07 43  -20.9954 26030.5 -03488.5 -07.6330 26263.2
 13 09 2013  07 44  -20.9956 26030.5 -03488.5 -07.6331 26263.2
 13 09 2013  07 45  -20.9955 26030.6 -03488.6 -07.6333 26263.3
 13 09 2013  07 46  -20.9949 26030.8 -03488.7 -07.6334 26263.6
 13 09 2013  07 47  -20.9947 26030.8 -03488.7 -07.6335 26263.5
 13 09 2013  07 48  -20.9944 26030.5 -03488.6 -07.6333 26263.3
 13 09 2013  07 49  -20.9938 26030.7 -03488.7 -07.6334 26263.4
 13 09 2013  07 50  -20.9929 26030.5 -03488.6 -07.6333 26263.2
 13 09 2013  07 51  -20.9920 26030.5 -03488.6 -07.6333 26263.2
 13 09 2013  07 52  -20.9911 26030.4 -03488.6 -07.6332 26263.1
 13 09 2013  07 53  -20.9904 26030.4 -03488.7 -07.6334 26263.1
 13 09 2013  07 54  -20.9893 26030.3 -03488.6 -07.6334 26263.0
 13 09 2013  07 55  -20.9880 26030.3 -03488.7 -07.6335 26263.0
 13 09 2013  07 56  -20.9872 26030.2 -03488.7 -07.6336 26263.0
 13 09 2013  07 57  -20.9868 26030.1 -03488.8 -07.6337 26262.9
 13 09 2013  07 58  -20.9863 26030.1 -03488.9 -07.6340 26262.9
 13 09 2013  07 59  -20.9856 26030.2 -03489.0 -07.6343 26262.9
 13 09 2013  08 00  -20.9854 26030.1 -03489.1 -07.6344 26262.9
 13 09 2013  08 01  -20.9855 26030.3 -03489.2 -07.6347 26263.1
 13 09 2013  08 02  -20.9855 26030.3 -03489.3 -07.6349 26263.1
 13 09 2013  08 03  -20.9853 26030.3 -03489.4 -07.6350 26263.2
 13 09 2013  08 04  -20.9853 26030.3 -03489.4 -07.6350 26263.1
 13 09 2013  08 05  -20.9852 26030.2 -03489.4 -07.6350 26263.0
 13 09 2013  08 06  -20.9852 26030.2 -03489.3 -07.6350 26263.0
 13 09 2013  08 07  -20.9852 26029.8 -03489.2 -07.6347 26262.6
 13 09 2013  08 08  -20.9850 26029.7 -03489.1 -07.6346 26262.5
 13 09 2013  08 09  -20.9846 26029.7 -03489.1 -07.6345 26262.5
 13 09 2013  08 10  -20.9843 26029.9 -03489.2 -07.6347 26262.7
 13 09 2013  08 11  -20.9841 26029.7 -03489.1 -07.6347 26262.5
 13 09 2013  08 12  -20.9838 26029.7 -03489.1 -07.6347 26262.5
 13 09 2013  08 13  -20.9834 26029.6 -03489.2 -07.6347 26262.4
 13 09 2013  08 14  -20.9832 26029.7 -03489.2 -07.6347 26262.5
 13 09 2013  08 15  -20.9831 26029.5 -03489.1 -07.6347 26262.3
 13 09 2013  08 16  -20.9826 26029.7 -03489.2 -07.6347 26262.5
 13 09 2013  08 17  -20.9824 26030.2 -03489.4 -07.6351 26263.0
 13 09 2013  08 18  -20.9828 26030.1 -03489.5 -07.6352 26262.9
 13 09 2013  08 19  -20.9825 26030.1 -03489.5 -07.6352 26262.9
 13 09 2013  08 20  -20.9826 26030.0 -03489.4 -07.6351 26262.8
 13 09 2013  08 21  -20.9824 26030.1 -03489.5 -07.6352 26263.0
 13 09 2013  08 22  -20.9825 26030.1 -03489.4 -07.6352 26262.9
 13 09 2013  08 23  -20.9826 26030.0 -03489.4 -07.6351 26262.9
 13 09 2013  08 24  -20.9826 26030.2 -03489.5 -07.6353 26263.1
 13 09 2013  08 25  -20.9827 26030.3 -03489.5 -07.6352 26263.1
 13 09 2013  08 26  -20.9824 26030.2 -03489.4 -07.6351 26263.1
 13 09 2013  08 27  -20.9822 26030.1 -03489.3 -07.6349 26262.9
 13 09 2013  08 28  -20.9823 26030.1 -03489.3 -07.6348 26262.9
 13 09 2013  08 29  -20.9816 26030.2 -03489.3 -07.6348 26263.0
 13 09 2013  08 30  -20.9811 26030.3 -03489.2 -07.6347 26263.1
 13 09 2013  08 31  -20.9806 26030.0 -03489.1 -07.6344 26262.8
 13 09 2013  08 32  -20.9800 26029.8 -03488.9 -07.6341 26262.5
 13 09 2013  08 33  -20.9792 26029.7 -03488.8 -07.6338 26262.5
 13 09 2013  08 34  -20.9785 26029.9 -03488.9 -07.6341 26262.7
 13 09 2013  08 35  -20.9778 26029.9 -03488.9 -07.6340 26262.6
 13 09 2013  08 36  -20.9771 26029.8 -03488.8 -07.6339 26262.6
 13 09 2013  08 37  -20.9763 26030.0 -03488.9 -07.6340 26262.8
 13 09 2013  08 38  -20.9755 26030.1 -03488.9 -07.6340 26262.9
 13 09 2013  08 39  -20.9745 26030.2 -03489.0 -07.6342 26262.9
 13 09 2013  08 40  -20.9735 26030.2 -03489.0 -07.6342 26262.9
 13 09 2013  08 41  -20.9726 26030.0 -03488.9 -07.6341 26262.8
 13 09 2013  08 42  -20.9719 26030.0 -03488.9 -07.6341 26262.7
 13 09 2013  08 43  -20.9708 26030.2 -03489.1 -07.6344 26263.0
 13 09 2013  08 44  -20.9697 26030.4 -03489.2 -07.6347 26263.2
 13 09 2013  08 45  -20.9690 26030.5 -03489.4 -07.6350 26263.3
 13 09 2013  08 46  -20.9684 26030.5 -03489.5 -07.6352 26263.3
 13 09 2013  08 47  -20.9679 26030.2 -03489.5 -07.6352 26263.0
 13 09 2013  08 48  -20.9674 26029.9 -03489.3 -07.6350 26262.7
 13 09 2013  08 49  -20.9669 26029.8 -03489.4 -07.6351 26262.6
 13 09 2013  08 50  -20.9662 26029.8 -03489.5 -07.6353 26262.7
 13 09 2013  08 51  -20.9649 26029.8 -03489.6 -07.6355 26262.7
 13 09 2013  08 52  -20.9634 26029.8 -03489.7 -07.6357 26262.7
 13 09 2013  08 53  -20.9625 26029.7 -03489.8 -07.6361 26262.6
 13 09 2013  08 54  -20.9616 26029.3 -03489.8 -07.6362 26262.2
 13 09 2013  08 55  -20.9613 26029.0 -03489.8 -07.6363 26261.9
 13 09 2013  08 56  -20.9608 26028.6 -03490.0 -07.6367 26261.6
 13 09 2013  08 57  -20.9601 26028.5 -03490.1 -07.6370 26261.4
 13 09 2013  08 58  -20.9598 26028.5 -03490.3 -07.6375 26261.4
 13 09 2013  08 59  -20.9596 26028.4 -03490.5 -07.6380 26261.4
 13 09 2013  09 00  -20.9594 26028.2 -03490.6 -07.6383 26261.3
 13 09 2013  09 01  -20.9596 26028.0 -03490.8 -07.6387 26261.1
 13 09 2013  09 02  -20.9595 26027.9 -03490.9 -07.6391 26261.0
 13 09 2013  09 03  -20.9597 26028.2 -03491.3 -07.6398 26261.3
 13 09 2013  09 04  -20.9597 26028.3 -03491.6 -07.6404 26261.4
 13 09 2013  09 05  -20.9602 26028.3 -03491.9 -07.6411 26261.5
 13 09 2013  09 06  -20.9606 26028.0 -03492.0 -07.6414 26261.2
 13 09 2013  09 07  -20.9609 26028.0 -03492.2 -07.6419 26261.2
 13 09 2013  09 08  -20.9609 26027.9 -03492.3 -07.6421 26261.2
 13 09 2013  09 09  -20.9610 26027.7 -03492.4 -07.6422 26261.0
 13 09 2013  09 10  -20.9614 26027.5 -03492.4 -07.6423 26260.8
 13 09 2013  09 11  -20.9618 26027.9 -03492.8 -07.6430 26261.2
 13 09 2013  09 12  -20.9615 26028.5 -03493.2 -07.6438 26261.8
 13 09 2013  09 13  -20.9609 26028.5 -03493.4 -07.6442 26261.9
 13 09 2013  09 14  -20.9607 26028.1 -03493.4 -07.6443 26261.5
 13 09 2013  09 15  -20.9607 26027.9 -03493.5 -07.6445 26261.3
 13 09 2013  09 16  -20.9607 26028.1 -03493.7 -07.6450 26261.5
 13 09 2013  09 17  -20.9609 26028.0 -03493.8 -07.6452 26261.5
 13 09 2013  09 18  -20.9612 26028.0 -03493.9 -07.6454 26261.4
 13 09 2013  09 19  -20.9618 26028.1 -03494.1 -07.6458 26261.5
 13 09 2013  09 20  -20.9620 26028.1 -03494.2 -07.6461 26261.6
 13 09 2013  09 21  -20.9620 26028.0 -03494.3 -07.6464 26261.6
 13 09 2013  09 22  -20.9621 26028.1 -03494.5 -07.6468 26261.6
 13 09 2013  09 23  -20.9624 26028.2 -03494.6 -07.6470 26261.8
 13 09 2013  09 24  -20.9629 26028.3 -03494.9 -07.6476 26261.9
 13 09 2013  09 25  -20.9631 26028.5 -03495.2 -07.6480 26262.1
 13 09 2013  09 26  -20.9633 26028.5 -03495.3 -07.6483 26262.2
 13 09 2013  09 27  -20.9634 26028.5 -03495.2 -07.6482 26262.2
 13 09 2013  09 28  -20.9636 26028.5 -03495.5 -07.6488 26262.1
 13 09 2013  09 29  -20.9637 26028.1 -03495.5 -07.6488 26261.8
 13 09 2013  09 30  -20.9637 26027.9 -03495.4 -07.6487 26261.5
 13 09 2013  09 31  -20.9640 26027.8 -03495.5 -07.6489 26261.4
 13 09 2013  09 32  -20.9645 26027.7 -03495.5 -07.6491 26261.4
 13 09 2013  09 33  -20.9651 26027.8 -03495.7 -07.6494 26261.5
 13 09 2013  09 34  -20.9657 26027.9 -03495.9 -07.6498 26261.6
 13 09 2013  09 35  -20.9664 26028.0 -03496.1 -07.6502 26261.7
 13 09 2013  09 36  -20.9668 26027.9 -03496.3 -07.6506 26261.7
 13 09 2013  09 37  -20.9674 26028.0 -03496.5 -07.6510 26261.8
 13 09 2013  09 38  -20.9680 26028.0 -03496.6 -07.6513 26261.8
 13 09 2013  09 39  -20.9687 26028.0 -03496.8 -07.6516 26261.9
 13 09 2013  09 40  -20.9691 26028.0 -03496.8 -07.6518 26261.9
 13 09 2013  09 41  -20.9692 26027.9 -03496.8 -07.6518 26261.8
 13 09 2013  09 42  -20.9693 26027.9 -03496.9 -07.6520 26261.8
 13 09 2013  09 43  -20.9695 26028.0 -03497.1 -07.6524 26261.9
 13 09 2013  09 44  -20.9699 26028.2 -03497.3 -07.6528 26262.1
 13 09 2013  09 45  -20.9705 26028.4 -03497.5 -07.6532 26262.4
 13 09 2013  09 46  -20.9712 26028.5 -03497.7 -07.6534 26262.4
 13 09 2013  09 47  -20.9720 26028.7 -03497.8 -07.6538 26262.6
 13 09 2013  09 48  -20.9725 26028.7 -03497.9 -07.6539 26262.7
 13 09 2013  09 49  -20.9729 26028.8 -03498.0 -07.6540 26262.8
 13 09 2013  09 50  -20.9732 26028.9 -03498.0 -07.6541 26262.9
 13 09 2013  09 51  -20.9734 26028.8 -03498.0 -07.6541 26262.8
 13 09 2013  09 52  -20.9737 26028.9 -03498.1 -07.6543 26262.9
 13 09 2013  09 53  -20.9743 26029.1 -03498.3 -07.6547 26263.2
 13 09 2013  09 54  -20.9748 26029.3 -03498.5 -07.6550 26263.4
 13 09 2013  09 55  -20.9750 26029.5 -03498.7 -07.6553 26263.5
 13 09 2013  09 56  -20.9749 26029.4 -03498.6 -07.6553 26263.5
 13 09 2013  09 57  -20.9752 26029.4 -03498.7 -07.6554 26263.4
 13 09 2013  09 58  -20.9757 26029.4 -03498.8 -07.6556 26263.5
 13 09 2013  09 59  -20.9763 26029.2 -03498.8 -07.6557 26263.3
 13 09 2013  10 00  -20.9766 26029.2 -03498.9 -07.6559 26263.3
 13 09 2013  10 01  -20.9766 26029.1 -03499.0 -07.6561 26263.2
 13 09 2013  10 02  -20.9767 26029.1 -03499.1 -07.6563 26263.3
 13 09 2013  10 03  -20.9772 26029.3 -03499.2 -07.6566 26263.4
 13 09 2013  10 04  -20.9774 26029.2 -03499.3 -07.6567 26263.4
 13 09 2013  10 05  -20.9780 26029.3 -03499.4 -07.6570 26263.5
 13 09 2013  10 06  -20.9786 26029.4 -03499.5 -07.6572 26263.6
 13 09 2013  10 07  -20.9787 26029.4 -03499.6 -07.6573 26263.6
 13 09 2013  10 08  -20.9789 26029.3 -03499.6 -07.6574 26263.6
 13 09 2013  10 09  -20.9791 26029.4 -03499.6 -07.6574 26263.6
 13 09 2013  10 10  -20.9793 26029.3 -03499.5 -07.6572 26263.5
 13 09 2013  10 11  -20.9802 26029.3 -03499.5 -07.6572 26263.5
 13 09 2013  10 12  -20.9815 26029.3 -03499.6 -07.6574 26263.5
 13 09 2013  10 13  -20.9823 26029.2 -03499.6 -07.6574 26263.4
 13 09 2013  10 14  -20.9825 26028.8 -03499.5 -07.6572 26263.0
 13 09 2013  10 15  -20.9825 26028.5 -03499.4 -07.6572 26262.7
 13 09 2013  10 16  -20.9826 26028.3 -03499.4 -07.6573 26262.5
 13 09 2013  10 17  -20.9829 26028.4 -03499.6 -07.6577 26262.6
 13 09 2013  10 18  -20.9833 26028.4 -03499.7 -07.6579 26262.6
 13 09 2013  10 19  -20.9835 26028.5 -03499.8 -07.6581 26262.8
 13 09 2013  10 20  -20.9835 26028.8 -03500.0 -07.6584 26263.0
 13 09 2013  10 21  -20.9837 26029.1 -03500.2 -07.6587 26263.4
 13 09 2013  10 22  -20.9840 26029.4 -03500.3 -07.6589 26263.7
 13 09 2013  10 23  -20.9847 26029.6 -03500.4 -07.6590 26263.9
 13 09 2013  10 24  -20.9851 26029.8 -03500.4 -07.6590 26264.1
 13 09 2013  10 25  -20.9854 26029.9 -03500.4 -07.6590 26264.2
 13 09 2013  10 26  -20.9861 26030.2 -03500.5 -07.6590 26264.5
 13 09 2013  10 27  -20.9872 26030.4 -03500.5 -07.6590 26264.7
 13 09 2013  10 28  -20.9880 26030.5 -03500.5 -07.6589 26264.8
 13 09 2013  10 29  -20.9886 26030.8 -03500.5 -07.6588 26265.1
 13 09 2013  10 30  -20.9889 26031.0 -03500.5 -07.6587 26265.3
 13 09 2013  10 31  -20.9894 26031.2 -03500.5 -07.6587 26265.5
 13 09 2013  10 32  -20.9899 26031.4 -03500.5 -07.6587 26265.7
 13 09 2013  10 33  -20.9901 26031.4 -03500.4 -07.6585 26265.7
 13 09 2013  10 34  -20.9899 26031.7 -03500.4 -07.6584 26266.0
 13 09 2013  10 35  -20.9902 26032.0 -03500.4 -07.6584 26266.3
 13 09 2013  10 36  -20.9905 26032.2 -03500.4 -07.6583 26266.5
 13 09 2013  10 37  -20.9909 26032.3 -03500.3 -07.6580 26266.6
 13 09 2013  10 38  -20.9915 26032.2 -03500.1 -07.6576 26266.5
 13 09 2013  10 39  -20.9918 26032.3 -03500.1 -07.6575 26266.6
 13 09 2013  10 40  -20.9919 26032.5 -03500.0 -07.6573 26266.7
 13 09 2013  10 41  -20.9919 26032.6 -03500.0 -07.6573 26266.8
 13 09 2013  10 42  -20.9926 26032.7 -03500.0 -07.6573 26266.9
 13 09 2013  10 43  -20.9932 26032.9 -03500.0 -07.6573 26267.1
 13 09 2013  10 44  -20.9936 26033.0 -03500.1 -07.6573 26267.2
 13 09 2013  10 45  -20.9936 26033.1 -03500.1 -07.6573 26267.4
 13 09 2013  10 46  -20.9941 26033.3 -03500.1 -07.6573 26267.5
 13 09 2013  10 47  -20.9951 26033.4 -03500.1 -07.6574 26267.7
 13 09 2013  10 48  -20.9959 26033.7 -03500.2 -07.6573 26267.9
 13 09 2013  10 49  -20.9962 26033.9 -03500.1 -07.6572 26268.1
 13 09 2013  10 50  -20.9964 26034.1 -03500.0 -07.6570 26268.3
 13 09 2013  10 51  -20.9965 26034.3 -03499.9 -07.6567 26268.5
 13 09 2013  10 52  -20.9970 26034.3 -03499.9 -07.6565 26268.5
 13 09 2013  10 53  -20.9977 26034.2 -03499.8 -07.6563 26268.4
 13 09 2013  10 54  -20.9980 26034.3 -03499.7 -07.6562 26268.5
 13 09 2013  10 55  -20.9984 26034.4 -03499.7 -07.6562 26268.6
 13 09 2013  10 56  -20.9988 26034.6 -03499.8 -07.6562 26268.7
 13 09 2013  10 57  -20.9991 26034.8 -03499.8 -07.6562 26268.9
 13 09 2013  10 58  -20.9993 26034.9 -03499.8 -07.6562 26269.1
 13 09 2013  10 59  -20.9995 26035.2 -03499.9 -07.6563 26269.4
 13 09 2013  11 00  -21.0001 26035.6 -03500.0 -07.6564 26269.8
 13 09 2013  11 01  -21.0006 26036.0 -03500.1 -07.6565 26270.2
 13 09 2013  11 02  -21.0010 26036.6 -03500.2 -07.6566 26270.9
 13 09 2013  11 03  -21.0013 26037.1 -03500.3 -07.6566 26271.3
 13 09 2013  11 04  -21.0012 26037.5 -03500.3 -07.6565 26271.8
 13 09 2013  11 05  -21.0010 26038.1 -03500.3 -07.6563 26272.3
 13 09 2013  11 06  -21.0013 26038.6 -03500.2 -07.6559 26272.8
 13 09 2013  11 07  -21.0013 26039.3 -03500.1 -07.6555 26273.4
 13 09 2013  11 08  -21.0012 26039.5 -03499.8 -07.6549 26273.7
 13 09 2013  11 09  -21.0019 26039.7 -03499.6 -07.6543 26273.8
 13 09 2013  11 10  -21.0032 26039.6 -03499.3 -07.6538 26273.6
 13 09 2013  11 11  -21.0039 26039.8 -03499.3 -07.6536 26273.9
 13 09 2013  11 12  -21.0044 26039.8 -03499.1 -07.6532 26273.8
 13 09 2013  11 13  -21.0045 26039.8 -03498.9 -07.6529 26273.8
 13 09 2013  11 14  -21.0047 26040.0 -03498.8 -07.6526 26274.0
 13 09 2013  11 15  -21.0048 26040.2 -03498.8 -07.6524 26274.2
 13 09 2013  11 16  -21.0052 26040.1 -03498.6 -07.6521 26274.1
 13 09 2013  11 17  -21.0048 26040.1 -03498.5 -07.6518 26274.1
 13 09 2013  11 18  -21.0052 26040.1 -03498.4 -07.6516 26274.0
 13 09 2013  11 19  -21.0056 26040.0 -03498.3 -07.6514 26273.9
 13 09 2013  11 20  -21.0060 26039.9 -03498.2 -07.6512 26273.9
 13 09 2013  11 21  -21.0059 26039.7 -03498.0 -07.6509 26273.6
 13 09 2013  11 22  -21.0062 26039.6 -03497.9 -07.6507 26273.5
 13 09 2013  11 23  -21.0066 26039.9 -03498.0 -07.6509 26273.8
 13 09 2013  11 24  -21.0071 26040.2 -03498.1 -07.6510 26274.1
 13 09 2013  11 25  -21.0077 26040.7 -03498.2 -07.6511 26274.6
 13 09 2013  11 26  -21.0082 26041.1 -03498.2 -07.6510 26275.0
 13 09 2013  11 27  -21.0084 26041.4 -03498.2 -07.6509 26275.3
 13 09 2013  11 28  -21.0087 26041.9 -03498.2 -07.6508 26275.8
 13 09 2013  11 29  -21.0091 26042.7 -03498.3 -07.6508 26276.6
 13 09 2013  11 30  -21.0094 26043.4 -03498.3 -07.6505 26277.4
 13 09 2013  11 31  -21.0097 26044.2 -03498.2 -07.6500 26278.1
 13 09 2013  11 32  -21.0099 26044.3 -03497.8 -07.6491 26278.2
 13 09 2013  11 33  -21.0104 26044.4 -03497.4 -07.6483 26278.2
 13 09 2013  11 34  -21.0109 26044.4 -03497.2 -07.6478 26278.1
 13 09 2013  11 35  -21.0116 26044.4 -03497.0 -07.6473 26278.1
 13 09 2013  11 36  -21.0118 26044.4 -03496.8 -07.6469 26278.1
 13 09 2013  11 37  -21.0119 26044.4 -03496.6 -07.6465 26278.0
 13 09 2013  11 38  -21.0121 26044.4 -03496.4 -07.6462 26278.0
 13 09 2013  11 39  -21.0124 26044.6 -03496.4 -07.6460 26278.3
 13 09 2013  11 40  -21.0126 26044.7 -03496.3 -07.6458 26278.3
 13 09 2013  11 41  -21.0127 26044.7 -03496.1 -07.6454 26278.3
 13 09 2013  11 42  -21.0130 26045.0 -03496.2 -07.6454 26278.6
 13 09 2013  11 43  -21.0133 26045.6 -03496.2 -07.6453 26279.2
 13 09 2013  11 44  -21.0138 26046.1 -03496.2 -07.6452 26279.7
 13 09 2013  11 45  -21.0143 26046.6 -03496.1 -07.6449 26280.2
 13 09 2013  11 46  -21.0147 26046.9 -03495.9 -07.6444 26280.5
 13 09 2013  11 47  -21.0153 26047.0 -03495.7 -07.6438 26280.5
 13 09 2013  11 48  -21.0157 26047.1 -03495.5 -07.6434 26280.6
 13 09 2013  11 49  -21.0160 26047.4 -03495.4 -07.6431 26280.9
 13 09 2013  11 50  -21.0160 26047.3 -03495.2 -07.6427 26280.7
 13 09 2013  11 51  -21.0161 26047.2 -03495.1 -07.6424 26280.6
 13 09 2013  11 52  -21.0163 26047.4 -03495.0 -07.6423 26280.8
 13 09 2013  11 53  -21.0169 26047.8 -03495.1 -07.6423 26281.3
 13 09 2013  11 54  -21.0177 26048.1 -03495.1 -07.6423 26281.6
 13 09 2013  11 55  -21.0184 26048.5 -03495.1 -07.6421 26281.9
 13 09 2013  11 56  -21.0192 26048.5 -03494.9 -07.6417 26281.9
 13 09 2013  11 57  -21.0198 26048.8 -03494.8 -07.6414 26282.2
 13 09 2013  11 58  -21.0204 26048.9 -03494.7 -07.6411 26282.3
 13 09 2013  11 59  -21.0211 26048.8 -03494.5 -07.6408 26282.2
 13 09 2013  12 00  -21.0218 26048.7 -03494.3 -07.6404 26282.0
 13 09 2013  12 01  -21.0224 26048.4 -03494.1 -07.6400 26281.7
 13 09 2013  12 02  -21.0228 26048.3 -03494.0 -07.6398 26281.6
 13 09 2013  12 03  -21.0236 26047.9 -03493.8 -07.6395 26281.2
 13 09 2013  12 04  -21.0246 26048.3 -03493.8 -07.6394 26281.6
 13 09 2013  12 05  -21.0258 26048.8 -03493.8 -07.6393 26282.0
 13 09 2013  12 06  -21.0267 26048.5 -03493.5 -07.6385 26281.7
 13 09 2013  12 07  -21.0278 26048.1 -03493.1 -07.6379 26281.3
 13 09 2013  12 08  -21.0288 26047.7 -03492.8 -07.6374 26280.8
 13 09 2013  12 09  -21.0291 26047.6 -03492.7 -07.6372 26280.8
 13 09 2013  12 10  -21.0292 26047.7 -03492.7 -07.6372 26280.8
 13 09 2013  12 11  -21.0292 26048.0 -03492.7 -07.6371 26281.1
 13 09 2013  12 12  -21.0295 26048.7 -03492.9 -07.6373 26281.8
 13 09 2013  12 13  -21.0299 26049.5 -03493.0 -07.6373 26282.6
 13 09 2013  12 14  -21.0299 26049.9 -03492.8 -07.6368 26283.0
 13 09 2013  12 15  -21.0297 26050.2 -03492.6 -07.6362 26283.2
 13 09 2013  12 16  -21.0300 26050.6 -03492.4 -07.6358 26283.7
 13 09 2013  12 17  -21.0305 26050.9 -03492.3 -07.6353 26284.0
 13 09 2013  12 18  -21.0307 26051.2 -03492.0 -07.6347 26284.2
 13 09 2013  12 19  -21.0306 26051.2 -03491.7 -07.6340 26284.1
 13 09 2013  12 20  -21.0302 26050.5 -03491.3 -07.6332 26283.4
 13 09 2013  12 21  -21.0298 26050.2 -03491.1 -07.6329 26283.1
 13 09 2013  12 22  -21.0296 26050.5 -03491.1 -07.6330 26283.4
 13 09 2013  12 23  -21.0294 26051.4 -03491.3 -07.6331 26284.3
 13 09 2013  12 24  -21.0294 26052.4 -03491.5 -07.6331 26285.3
 13 09 2013  12 25  -21.0292 26053.0 -03491.4 -07.6328 26285.9
 13 09 2013  12 26  -21.0292 26053.7 -03491.3 -07.6323 26286.5
 13 09 2013  12 27  -21.0290 26054.1 -03491.1 -07.6318 26286.9
 13 09 2013  12 28  -21.0289 26054.5 -03490.9 -07.6313 26287.3
 13 09 2013  12 29  -21.0292 26054.7 -03490.6 -07.6306 26287.5
 13 09 2013  12 30  -21.0294 26054.4 -03490.2 -07.6298 26287.1
 13 09 2013  12 31  -21.0295 26054.4 -03489.9 -07.6292 26287.1
 13 09 2013  12 32  -21.0295 26054.8 -03489.9 -07.6290 26287.5
 13 09 2013  12 33  -21.0296 26055.6 -03490.0 -07.6290 26288.3
 13 09 2013  12 34  -21.0295 26055.9 -03489.9 -07.6287 26288.6
 13 09 2013  12 35  -21.0298 26056.7 -03489.9 -07.6285 26289.4
 13 09 2013  12 36  -21.0299 26057.6 -03489.9 -07.6282 26290.2
 13 09 2013  12 37  -21.0294 26058.7 -03489.9 -07.6279 26291.4
 13 09 2013  12 38  -21.0292 26058.8 -03489.6 -07.6273 26291.4
 13 09 2013  12 39  -21.0288 26058.8 -03489.3 -07.6266 26291.4
 13 09 2013  12 40  -21.0289 26059.8 -03489.5 -07.6267 26292.4
 13 09 2013  12 41  -21.0290 26060.4 -03489.5 -07.6265 26293.0
 13 09 2013  12 42  -21.0291 26061.0 -03489.3 -07.6260 26293.5
 13 09 2013  12 43  -21.0291 26061.2 -03489.0 -07.6253 26293.7
 13 09 2013  12 44  -21.0298 26061.1 -03488.8 -07.6248 26293.6
 13 09 2013  12 45  -21.0299 26060.6 -03488.4 -07.6240 26293.0
 13 09 2013  12 46  -21.0301 26060.1 -03488.1 -07.6236 26292.5
 13 09 2013  12 47  -21.0297 26059.0 -03487.7 -07.6230 26291.4
 13 09 2013  12 48  -21.0295 26057.6 -03487.2 -07.6224 26289.9
 13 09 2013  12 49  -21.0297 26056.9 -03487.1 -07.6224 26289.2
 13 09 2013  12 50  -21.0307 26056.5 -03487.3 -07.6228 26288.8
 13 09 2013  12 51  -21.0311 26055.7 -03487.1 -07.6228 26288.0
 13 09 2013  12 52  -21.0306 26054.2 -03486.8 -07.6225 26286.5
 13 09 2013  12 53  -21.0300 26053.0 -03486.7 -07.6226 26285.3
 13 09 2013  12 54  -21.0297 26052.6 -03487.0 -07.6233 26284.9
 13 09 2013  12 55  -21.0296 26052.1 -03487.2 -07.6240 26284.5
 13 09 2013  12 56  -21.0297 26052.0 -03487.5 -07.6247 26284.4
 13 09 2013  12 57  -21.0298 26051.7 -03487.7 -07.6252 26284.1
 13 09 2013  12 58  -21.0301 26051.8 -03488.0 -07.6258 26284.3
 13 09 2013  12 59  -21.0302 26051.9 -03488.3 -07.6263 26284.4
 13 09 2013  13 00  -21.0305 26051.8 -03488.3 -07.6265 26284.3
 13 09 2013  13 01  -21.0304 26051.6 -03488.4 -07.6267 26284.1
 13 09 2013  13 02  -21.0304 26051.4 -03488.5 -07.6270 26284.0
 13 09 2013  13 03  -21.0298 26052.0 -03488.9 -07.6277 26284.6
 13 09 2013  13 04  -21.0297 26052.7 -03489.4 -07.6285 26285.4
 13 09 2013  13 05  -21.0294 26053.7 -03489.7 -07.6290 26286.4
 13 09 2013  13 06  -21.0290 26055.0 -03490.1 -07.6294 26287.7
 13 09 2013  13 07  -21.0291 26056.4 -03490.5 -07.6298 26289.2
 13 09 2013  13 08  -21.0292 26057.4 -03490.5 -07.6297 26290.2
 13 09 2013  13 09  -21.0291 26057.3 -03490.1 -07.6288 26290.0
 13 09 2013  13 10  -21.0289 26057.0 -03489.8 -07.6281 26289.7
 13 09 2013  13 11  -21.0289 26057.2 -03489.7 -07.6280 26289.8
 13 09 2013  13 12  -21.0289 26057.3 -03489.7 -07.6279 26289.9
 13 09 2013  13 13  -21.0290 26057.9 -03489.9 -07.6281 26290.5
 13 09 2013  13 14  -21.0287 26058.7 -03490.0 -07.6281 26291.4
 13 09 2013  13 15  -21.0286 26059.0 -03489.9 -07.6278 26291.7
 13 09 2013  13 16  -21.0284 26059.1 -03489.7 -07.6274 26291.7
 13 09 2013  13 17  -21.0278 26059.2 -03489.5 -07.6269 26291.8
 13 09 2013  13 18  -21.0278 26059.4 -03489.4 -07.6267 26292.0
 13 09 2013  13 19  -21.0279 26060.3 -03489.6 -07.6269 26292.9
 13 09 2013  13 20  -21.0279 26061.3 -03489.7 -07.6268 26293.9
 13 09 2013  13 21  -21.0279 26061.8 -03489.6 -07.6264 26294.4
 13 09 2013  13 22  -21.0279 26061.9 -03489.3 -07.6258 26294.5
 13 09 2013  13 23  -21.0277 26062.4 -03489.3 -07.6255 26294.9
 13 09 2013  13 24  -21.0280 26062.9 -03489.3 -07.6254 26295.4
 13 09 2013  13 25  -21.0280 26063.3 -03489.3 -07.6253 26295.9
 13 09 2013  13 26  -21.0284 26064.4 -03489.6 -07.6256 26296.9
 13 09 2013  13 27  -21.0291 26065.1 -03489.7 -07.6255 26297.7
 13 09 2013  13 28  -21.0301 26066.2 -03489.8 -07.6255 26298.8
 13 09 2013  13 29  -21.0306 26066.4 -03489.5 -07.6249 26298.9
 13 09 2013  13 30  -21.0304 26066.5 -03489.3 -07.6245 26299.0
 13 09 2013  13 31  -21.0305 26066.7 -03489.2 -07.6242 26299.2
 13 09 2013  13 32  -21.0309 26067.3 -03489.3 -07.6242 26299.8
 13 09 2013  13 33  -21.0310 26067.4 -03489.2 -07.6239 26299.9
 13 09 2013  13 34  -21.0309 26067.5 -03489.1 -07.6236 26300.0
 13 09 2013  13 35  -21.0305 26067.2 -03488.8 -07.6230 26299.6
 13 09 2013  13 36  -21.0302 26066.9 -03488.6 -07.6227 26299.3
 13 09 2013  13 37  -21.0306 26067.0 -03488.6 -07.6227 26299.4
 13 09 2013  13 38  -21.0311 26067.0 -03488.6 -07.6227 26299.4
 13 09 2013  13 39  -21.0313 26066.2 -03488.2 -07.6221 26298.6
 13 09 2013  13 40  -21.0308 26065.0 -03487.8 -07.6215 26297.4
 13 09 2013  13 41  -21.0305 26064.5 -03487.8 -07.6216 26296.8
 13 09 2013  13 42  -21.0304 26064.1 -03487.9 -07.6219 26296.5
 13 09 2013  13 43  -21.0302 26064.0 -03488.1 -07.6224 26296.4
 13 09 2013  13 44  -21.0297 26064.0 -03488.3 -07.6228 26296.4
 13 09 2013  13 45  -21.0295 26064.2 -03488.6 -07.6235 26296.6
 13 09 2013  13 46  -21.0291 26064.7 -03488.9 -07.6241 26297.2
 13 09 2013  13 47  -21.0289 26065.9 -03489.5 -07.6249 26298.5
 13 09 2013  13 48  -21.0294 26067.7 -03490.1 -07.6258 26300.3
 13 09 2013  13 49  -21.0302 26069.5 -03490.6 -07.6262 26302.2
 13 09 2013  13 50  -21.0311 26071.7 -03490.9 -07.6264 26304.4
 13 09 2013  13 51  -21.0317 26072.9 -03490.8 -07.6257 26305.6
 13 09 2013  13 52  -21.0316 26072.6 -03490.1 -07.6243 26305.1
 13 09 2013  13 53  -21.0319 26072.5 -03489.7 -07.6235 26305.0
 13 09 2013  13 54  -21.0333 26072.5 -03489.4 -07.6229 26305.0
 13 09 2013  13 55  -21.0333 26071.7 -03488.9 -07.6221 26304.1
 13 09 2013  13 56  -21.0326 26072.5 -03489.3 -07.6226 26304.9
 13 09 2013  13 57  -21.0334 26072.5 -03489.4 -07.6229 26305.0
 13 09 2013  13 58  -21.0334 26072.1 -03489.4 -07.6229 26304.6
 13 09 2013  13 59  -21.0329 26071.0 -03489.0 -07.6225 26303.5
 13 09 2013  14 00  -21.0329 26070.1 -03488.9 -07.6224 26302.5
 13 09 2013  14 01  -21.0333 26069.4 -03488.9 -07.6227 26301.9
 13 09 2013  14 02  -21.0335 26069.6 -03489.3 -07.6235 26302.0
 13 09 2013  14 03  -21.0342 26070.1 -03489.7 -07.6242 26302.6
 13 09 2013  14 04  -21.0345 26070.2 -03489.9 -07.6246 26302.7
 13 09 2013  14 05  -21.0354 26070.6 -03490.1 -07.6249 26303.2
 13 09 2013  14 06  -21.0361 26070.3 -03490.1 -07.6249 26302.9
 13 09 2013  14 07  -21.0362 26069.8 -03490.0 -07.6250 26302.4
 13 09 2013  14 08  -21.0363 26070.1 -03490.3 -07.6256 26302.7
 13 09 2013  14 09  -21.0376 26070.8 -03490.8 -07.6264 26303.5
 13 09 2013  14 10  -21.0388 26071.6 -03491.1 -07.6268 26304.3
 13 09 2013  14 11  -21.0393 26071.6 -03491.0 -07.6266 26304.2
 13 09 2013  14 12  -21.0395 26071.0 -03490.7 -07.6262 26303.7
 13 09 2013  14 13  -21.0396 26070.4 -03490.6 -07.6261 26303.1
 13 09 2013  14 14  -21.0399 26070.0 -03490.6 -07.6262 26302.7
 13 09 2013  14 15  -21.0401 26069.3 -03490.6 -07.6263 26301.9
 13 09 2013  14 16  -21.0399 26068.2 -03490.4 -07.6263 26300.9
 13 09 2013  14 17  -21.0395 26067.0 -03490.3 -07.6265 26299.6
 13 09 2013  14 18  -21.0389 26065.9 -03490.5 -07.6271 26298.6
 13 09 2013  14 19  -21.0388 26065.4 -03491.0 -07.6283 26298.1
 13 09 2013  14 20  -21.0386 26065.1 -03491.5 -07.6295 26297.9
 13 09 2013  14 21  -21.0383 26065.1 -03492.1 -07.6307 26298.0
 13 09 2013  14 22  -21.0387 26066.1 -03492.9 -07.6323 26299.1
 13 09 2013  14 23  -21.0401 26067.5 -03493.7 -07.6336 26300.6
 13 09 2013  14 24  -21.0420 26069.3 -03494.4 -07.6345 26302.4
 13 09 2013  14 25  -21.0438 26070.5 -03494.5 -07.6343 26303.6
 13 09 2013  14 26  -21.0444 26070.5 -03494.0 -07.6333 26303.5
 13 09 2013  14 27  -21.0439 26070.2 -03493.6 -07.6326 26303.2
 13 09 2013  14 28  -21.0436 26070.1 -03493.5 -07.6325 26303.1
 13 09 2013  14 29  -21.0433 26070.0 -03493.5 -07.6325 26303.1
 13 09 2013  14 30  -21.0426 26069.4 -03493.3 -07.6321 26302.4
 13 09 2013  14 31  -21.0419 26068.4 -03493.1 -07.6319 26301.4
 13 09 2013  14 32  -21.0421 26067.5 -03492.9 -07.6319 26300.5
 13 09 2013  14 33  -21.0413 26066.6 -03492.9 -07.6320 26299.6
 13 09 2013  14 34  -21.0406 26066.2 -03493.0 -07.6325 26299.2
 13 09 2013  14 35  -21.0407 26066.2 -03493.4 -07.6333 26299.3
 13 09 2013  14 36  -21.0412 26066.8 -03494.0 -07.6343 26300.0
 13 09 2013  14 37  -21.0418 26067.3 -03494.3 -07.6348 26300.5
 13 09 2013  14 38  -21.0422 26067.4 -03494.3 -07.6348 26300.5
 13 09 2013  14 39  -21.0426 26067.3 -03494.2 -07.6346 26300.4
 13 09 2013  14 40  -21.0429 26067.4 -03494.2 -07.6346 26300.5
 13 09 2013  14 41  -21.0432 26067.7 -03494.3 -07.6347 26300.8
 13 09 2013  14 42  -21.0434 26067.7 -03494.2 -07.6346 26300.9
 13 09 2013  14 43  -21.0435 26067.3 -03494.0 -07.6342 26300.4
 13 09 2013  14 44  -21.0429 26066.8 -03493.7 -07.6339 26299.9
 13 09 2013  14 45  -21.0423 26066.3 -03493.7 -07.6338 26299.4
 13 09 2013  14 46  -21.0413 26066.1 -03493.8 -07.6341 26299.2
 13 09 2013  14 47  -21.0412 26066.4 -03494.1 -07.6348 26299.6
 13 09 2013  14 48  -21.0414 26066.5 -03494.3 -07.6351 26299.7
 13 09 2013  14 49  -21.0414 26066.3 -03494.2 -07.6351 26299.4
 13 09 2013  14 50  -21.0409 26065.8 -03494.1 -07.6349 26298.9
 13 09 2013  14 51  -21.0406 26065.9 -03494.4 -07.6354 26299.1
 13 09 2013  14 52  -21.0407 26065.9 -03494.5 -07.6358 26299.1
 13 09 2013  14 53  -21.0406 26065.7 -03494.5 -07.6358 26298.9
 13 09 2013  14 54  -21.0413 26065.6 -03494.6 -07.6360 26298.8
 13 09 2013  14 55  -21.0410 26065.0 -03494.4 -07.6357 26298.1
 13 09 2013  14 56  -21.0405 26064.8 -03494.5 -07.6360 26298.0
 13 09 2013  14 57  -21.0405 26064.8 -03494.7 -07.6365 26298.0
 13 09 2013  14 58  -21.0412 26064.8 -03494.9 -07.6369 26298.1
 13 09 2013  14 59  -21.0410 26064.3 -03494.8 -07.6369 26297.6
 13 09 2013  15 00  -21.0402 26063.9 -03494.9 -07.6371 26297.1
 13 09 2013  15 01  -21.0399 26063.6 -03495.1 -07.6377 26296.9
 13 09 2013  15 02  -21.0403 26063.5 -03495.3 -07.6383 26296.9
 13 09 2013  15 03  -21.0403 26063.2 -03495.5 -07.6387 26296.6
 13 09 2013  15 04  -21.0402 26063.1 -03495.7 -07.6392 26296.5
 13 09 2013  15 05  -21.0401 26062.9 -03496.0 -07.6398 26296.3
 13 09 2013  15 06  -21.0422 26063.2 -03496.4 -07.6406 26296.7
 13 09 2013  15 07  -21.0430 26062.9 -03496.3 -07.6405 26296.3
 13 09 2013  15 08  -21.0441 26062.8 -03496.3 -07.6406 26296.3
 13 09 2013  15 09  -21.0450 26062.5 -03496.3 -07.6407 26296.0
 13 09 2013  15 10  -21.0453 26062.5 -03496.4 -07.6408 26296.0
 13 09 2013  15 11  -21.0451 26063.1 -03496.8 -07.6415 26296.6
 13 09 2013  15 12  -21.0455 26063.6 -03497.2 -07.6422 26297.1
 13 09 2013  15 13  -21.0459 26064.1 -03497.4 -07.6426 26297.7
 13 09 2013  15 14  -21.0466 26065.4 -03497.9 -07.6432 26299.0
 13 09 2013  15 15  -21.0485 26067.4 -03498.5 -07.6439 26301.1
 13 09 2013  15 16  -21.0505 26069.6 -03498.9 -07.6442 26303.3
 13 09 2013  15 17  -21.0516 26071.8 -03499.2 -07.6441 26305.6
 13 09 2013  15 18  -21.0529 26074.0 -03499.2 -07.6435 26307.7
 13 09 2013  15 19  -21.0533 26075.1 -03498.6 -07.6421 26308.8
 13 09 2013  15 20  -21.0526 26075.3 -03497.9 -07.6405 26308.9
 13 09 2013  15 21  -21.0504 26074.5 -03497.0 -07.6388 26307.9
 13 09 2013  15 22  -21.0489 26073.2 -03496.4 -07.6377 26306.6
 13 09 2013  15 23  -21.0478 26071.9 -03495.9 -07.6371 26305.3
 13 09 2013  15 24  -21.0467 26070.4 -03495.5 -07.6366 26303.7
 13 09 2013  15 25  -21.0460 26069.3 -03495.4 -07.6368 26302.6
 13 09 2013  15 26  -21.0459 26068.4 -03495.5 -07.6372 26301.7
 13 09 2013  15 27  -21.0461 26067.4 -03495.5 -07.6374 26300.7
 13 09 2013  15 28  -21.0460 26066.3 -03495.3 -07.6375 26299.6
 13 09 2013  15 29  -21.0464 26065.2 -03495.3 -07.6377 26298.6
 13 09 2013  15 30  -21.0468 26064.1 -03495.3 -07.6379 26297.4
 13 09 2013  15 31  -21.0466 26063.0 -03495.3 -07.6382 26296.3
 13 09 2013  15 32  -21.0469 26062.5 -03495.6 -07.6391 26295.9
 13 09 2013  15 33  -21.0473 26062.2 -03495.9 -07.6399 26295.7
 13 09 2013  15 34  -21.0478 26062.5 -03496.4 -07.6408 26295.9
 13 09 2013  15 35  -21.0483 26062.9 -03496.9 -07.6417 26296.5
 13 09 2013  15 36  -21.0486 26063.5 -03497.2 -07.6424 26297.1
 13 09 2013  15 37  -21.0490 26064.1 -03497.6 -07.6429 26297.7
 13 09 2013  15 38  -21.0489 26064.7 -03497.8 -07.6432 26298.4
 13 09 2013  15 39  -21.0489 26065.4 -03498.1 -07.6436 26299.1
 13 09 2013  15 40  -21.0494 26066.2 -03498.3 -07.6439 26299.9
 13 09 2013  15 41  -21.0496 26066.7 -03498.3 -07.6438 26300.4
 13 09 2013  15 42  -21.0498 26067.2 -03498.3 -07.6437 26300.9
 13 09 2013  15 43  -21.0502 26067.7 -03498.3 -07.6435 26301.4
 13 09 2013  15 44  -21.0505 26068.0 -03498.3 -07.6434 26301.7
 13 09 2013  15 45  -21.0508 26068.1 -03498.1 -07.6430 26301.7
 13 09 2013  15 46  -21.0516 26068.3 -03498.1 -07.6428 26301.9
 13 09 2013  15 47  -21.0529 26069.0 -03498.1 -07.6427 26302.7
 13 09 2013  15 48  -21.0534 26069.7 -03498.1 -07.6425 26303.3
 13 09 2013  15 49  -21.0528 26070.6 -03498.3 -07.6425 26304.2
 13 09 2013  15 50  -21.0533 26071.4 -03498.4 -07.6426 26305.1
 13 09 2013  15 51  -21.0541 26072.6 -03498.5 -07.6424 26306.3
 13 09 2013  15 52  -21.0552 26073.7 -03498.3 -07.6417 26307.4
 13 09 2013  15 53  -21.0553 26074.0 -03497.6 -07.6402 26307.5
 13 09 2013  15 54  -21.0548 26073.6 -03497.0 -07.6388 26307.1
 13 09 2013  15 55  -21.0554 26073.2 -03496.5 -07.6379 26306.6
 13 09 2013  15 56  -21.0558 26071.4 -03495.4 -07.6361 26304.6
 13 09 2013  15 57  -21.0547 26069.4 -03494.5 -07.6347 26302.5
 13 09 2013  15 58  -21.0537 26067.7 -03494.1 -07.6343 26300.8
 13 09 2013  15 59  -21.0530 26066.5 -03494.0 -07.6346 26299.7
 13 09 2013  16 00  -21.0529 26066.0 -03494.2 -07.6351 26299.1
 13 09 2013  16 01  -21.0538 26066.2 -03494.6 -07.6359 26299.4
 13 09 2013  16 02  -21.0549 26066.4 -03494.8 -07.6362 26299.6
 13 09 2013  16 03  -21.0558 26067.1 -03495.0 -07.6365 26300.4
 13 09 2013  16 04  -21.0564 26067.2 -03494.9 -07.6362 26300.5
 13 09 2013  16 05  -21.0570 26067.6 -03494.9 -07.6361 26300.9
 13 09 2013  16 06  -21.0576 26067.7 -03494.7 -07.6357 26300.9
 13 09 2013  16 07  -21.0585 26068.4 -03494.7 -07.6355 26301.6
 13 09 2013  16 08  -21.0595 26068.9 -03494.6 -07.6350 26302.1
 13 09 2013  16 09  -21.0607 26069.2 -03494.3 -07.6344 26302.4
 13 09 2013  16 10  -21.0608 26069.3 -03493.8 -07.6333 26302.3
 13 09 2013  16 11  -21.0614 26070.2 -03493.8 -07.6330 26303.3
 13 09 2013  16 12  -21.0625 26071.2 -03493.8 -07.6328 26304.2
 13 09 2013  16 13  -21.0626 26071.7 -03493.5 -07.6319 26304.7
 13 09 2013  16 14  -21.0634 26072.2 -03493.1 -07.6310 26305.1
 13 09 2013  16 15  -21.0636 26072.4 -03492.6 -07.6298 26305.3
 13 09 2013  16 16  -21.0650 26073.4 -03492.6 -07.6294 26306.3
 13 09 2013  16 17  -21.0657 26073.6 -03491.9 -07.6280 26306.4
 13 09 2013  16 18  -21.0657 26073.8 -03491.3 -07.6265 26306.5
 13 09 2013  16 19  -21.0664 26074.2 -03490.8 -07.6254 26306.8
 13 09 2013  16 20  -21.0663 26074.6 -03490.4 -07.6244 26307.1
 13 09 2013  16 21  -21.0673 26075.6 -03490.2 -07.6238 26308.2
 13 09 2013  16 22  -21.0676 26075.8 -03489.6 -07.6224 26308.3
 13 09 2013  16 23  -21.0674 26075.7 -03488.9 -07.6209 26308.0
 13 09 2013  16 24  -21.0672 26074.9 -03488.0 -07.6192 26307.2
 13 09 2013  16 25  -21.0665 26074.4 -03487.4 -07.6179 26306.6
 13 09 2013  16 26  -21.0661 26074.7 -03487.2 -07.6174 26306.8
 13 09 2013  16 27  -21.0672 26075.3 -03487.2 -07.6173 26307.5
 13 09 2013  16 28  -21.0687 26076.0 -03487.0 -07.6167 26308.1
 13 09 2013  16 29  -21.0690 26075.6 -03486.3 -07.6154 26307.6
 13 09 2013  16 30  -21.0691 26075.3 -03485.8 -07.6143 26307.3
 13 09 2013  16 31  -21.0700 26075.3 -03485.5 -07.6136 26307.2
 13 09 2013  16 32  -21.0705 26075.0 -03485.0 -07.6125 26306.9
 13 09 2013  16 33  -21.0705 26075.0 -03484.6 -07.6117 26306.8
 13 09 2013  16 34  -21.0717 26075.6 -03484.6 -07.6116 26307.4
 13 09 2013  16 35  -21.0724 26075.7 -03484.3 -07.6109 26307.5
 13 09 2013  16 36  -21.0722 26074.4 -03483.2 -07.6088 26306.0
 13 09 2013  16 37  -21.0721 26072.9 -03482.3 -07.6073 26304.4
 13 09 2013  16 38  -21.0720 26071.9 -03481.8 -07.6067 26303.4
 13 09 2013  16 39  -21.0715 26070.7 -03481.3 -07.6058 26302.1
 13 09 2013  16 40  -21.0727 26071.7 -03481.9 -07.6069 26303.2
 13 09 2013  16 41  -21.0736 26073.2 -03482.5 -07.6078 26304.8
 13 09 2013  16 42  -21.0736 26073.6 -03482.2 -07.6070 26305.1
 13 09 2013  16 43  -21.0732 26073.3 -03481.7 -07.6060 26304.7
 13 09 2013  16 44  -21.0732 26073.5 -03481.6 -07.6056 26304.9
 13 09 2013  16 45  -21.0730 26072.8 -03481.0 -07.6045 26304.1
 13 09 2013  16 46  -21.0736 26072.0 -03480.4 -07.6036 26303.3
 13 09 2013  16 47  -21.0734 26070.8 -03479.8 -07.6026 26302.0
 13 09 2013  16 48  -21.0726 26069.8 -03479.4 -07.6020 26300.9
 13 09 2013  16 49  -21.0737 26069.5 -03479.4 -07.6020 26300.6
 13 09 2013  16 50  -21.0743 26066.3 -03477.8 -07.5996 26297.3
 13 09 2013  16 51  -21.0723 26063.8 -03476.9 -07.5983 26294.7
 13 09 2013  16 52  -21.0718 26062.9 -03477.0 -07.5988 26293.8
 13 09 2013  16 53  -21.0715 26062.1 -03477.0 -07.5990 26293.0
 13 09 2013  16 54  -21.0709 26061.2 -03476.8 -07.5990 26292.1
 13 09 2013  16 55  -21.0709 26060.8 -03476.8 -07.5991 26291.7
 13 09 2013  16 56  -21.0714 26061.9 -03477.4 -07.5999 26292.9
 13 09 2013  16 57  -21.0718 26062.1 -03477.3 -07.5997 26293.0
 13 09 2013  16 58  -21.0721 26061.6 -03476.9 -07.5990 26292.5
 13 09 2013  16 59  -21.0726 26060.6 -03476.4 -07.5983 26291.4
 13 09 2013  17 00  -21.0726 26061.3 -03476.7 -07.5988 26292.2
 13 09 2013  17 01  -21.0727 26061.6 -03476.9 -07.5990 26292.5
 13 09 2013  17 02  -21.0734 26062.0 -03477.1 -07.5992 26293.0
 13 09 2013  17 03  -21.0739 26062.4 -03477.1 -07.5991 26293.3
 13 09 2013  17 04  -21.0745 26061.5 -03476.5 -07.5981 26292.3
 13 09 2013  17 05  -21.0745 26060.0 -03475.7 -07.5969 26290.7
 13 09 2013  17 06  -21.0745 26059.0 -03475.2 -07.5962 26289.7
 13 09 2013  17 07  -21.0748 26058.7 -03475.2 -07.5962 26289.4
 13 09 2013  17 08  -21.0754 26057.7 -03474.9 -07.5958 26288.4
 13 09 2013  17 09  -21.0751 26056.2 -03474.4 -07.5950 26286.8
 13 09 2013  17 10  -21.0750 26055.7 -03474.2 -07.5950 26286.3
 13 09 2013  17 11  -21.0744 26052.9 -03473.3 -07.5938 26283.4
 13 09 2013  17 12  -21.0721 26050.6 -03472.6 -07.5929 26281.1
 13 09 2013  17 13  -21.0713 26049.8 -03472.7 -07.5934 26280.2
 13 09 2013  17 14  -21.0712 26048.6 -03472.7 -07.5937 26279.1
 13 09 2013  17 15  -21.0709 26047.5 -03472.5 -07.5935 26277.9
 13 09 2013  17 16  -21.0705 26047.7 -03472.8 -07.5941 26278.1
 13 09 2013  17 17  -21.0698 26047.6 -03472.9 -07.5943 26278.1
 13 09 2013  17 18  -21.0685 26048.2 -03473.1 -07.5947 26278.7
 13 09 2013  17 19  -21.0676 26048.9 -03473.3 -07.5950 26279.5
 13 09 2013  17 20  -21.0667 26049.2 -03473.4 -07.5950 26279.8
 13 09 2013  17 21  -21.0657 26049.4 -03473.4 -07.5948 26280.0
 13 09 2013  17 22  -21.0655 26049.0 -03473.1 -07.5943 26279.6
 13 09 2013  17 23  -21.0646 26048.9 -03472.8 -07.5938 26279.3
 13 09 2013  17 24  -21.0643 26048.9 -03472.8 -07.5939 26279.4
 13 09 2013  17 25  -21.0630 26048.7 -03472.6 -07.5933 26279.2
 13 09 2013  17 26  -21.0624 26048.4 -03472.4 -07.5931 26278.8
 13 09 2013  17 27  -21.0619 26049.0 -03472.6 -07.5934 26279.5
 13 09 2013  17 28  -21.0621 26049.4 -03472.7 -07.5935 26279.8
 13 09 2013  17 29  -21.0620 26049.1 -03472.4 -07.5929 26279.6
 13 09 2013  17 30  -21.0608 26048.9 -03472.1 -07.5923 26279.3
 13 09 2013  17 31  -21.0599 26049.0 -03472.0 -07.5920 26279.3
 13 09 2013  17 32  -21.0589 26049.7 -03472.2 -07.5924 26280.1
 13 09 2013  17 33  -21.0581 26050.6 -03472.7 -07.5930 26281.0
 13 09 2013  17 34  -21.0588 26051.1 -03472.8 -07.5931 26281.6
 13 09 2013  17 35  -21.0583 26052.3 -03473.0 -07.5932 26282.8
 13 09 2013  17 36  -21.0578 26052.9 -03473.0 -07.5931 26283.4
 13 09 2013  17 37  -21.0577 26053.0 -03472.8 -07.5926 26283.4
 13 09 2013  17 38  -21.0572 26052.9 -03472.5 -07.5921 26283.3
 13 09 2013  17 39  -21.0575 26052.8 -03472.3 -07.5916 26283.1
 13 09 2013  17 40  -21.0573 26052.3 -03471.9 -07.5908 26282.7
 13 09 2013  17 41  -21.0565 26052.1 -03471.7 -07.5904 26282.4
 13 09 2013  17 42  -21.0554 26052.0 -03471.5 -07.5901 26282.3
 13 09 2013  17 43  -21.0546 26051.9 -03471.5 -07.5900 26282.2
 13 09 2013  17 44  -21.0538 26052.0 -03471.5 -07.5901 26282.3
 13 09 2013  17 45  -21.0528 26052.1 -03471.4 -07.5900 26282.3
 13 09 2013  17 46  -21.0523 26052.5 -03471.7 -07.5903 26282.8
 13 09 2013  17 47  -21.0527 26053.1 -03471.8 -07.5905 26283.4
 13 09 2013  17 48  -21.0528 26053.1 -03471.6 -07.5900 26283.4
 13 09 2013  17 49  -21.0519 26052.6 -03471.2 -07.5893 26282.9
 13 09 2013  17 50  -21.0506 26052.8 -03471.2 -07.5893 26283.1
 13 09 2013  17 51  -21.0500 26052.7 -03471.3 -07.5895 26282.9
 13 09 2013  17 52  -21.0497 26052.6 -03471.2 -07.5893 26282.9
 13 09 2013  17 53  -21.0489 26053.0 -03471.4 -07.5895 26283.3
 13 09 2013  17 54  -21.0488 26053.2 -03471.5 -07.5898 26283.5
 13 09 2013  17 55  -21.0490 26053.6 -03471.6 -07.5898 26283.8
 13 09 2013  17 56  -21.0486 26054.0 -03471.6 -07.5898 26284.3
 13 09 2013  17 57  -21.0486 26054.4 -03471.7 -07.5899 26284.7
 13 09 2013  17 58  -21.0484 26054.5 -03471.6 -07.5896 26284.7
 13 09 2013  17 59  -21.0482 26054.7 -03471.6 -07.5895 26285.0
 13 09 2013  18 00  -21.0482 26055.0 -03471.7 -07.5896 26285.3
 13 09 2013  18 01  -21.0481 26055.2 -03471.7 -07.5895 26285.5
 13 09 2013  18 02  -21.0474 26055.2 -03471.6 -07.5894 26285.5
 13 09 2013  18 03  -21.0474 26055.5 -03471.7 -07.5895 26285.7
 13 09 2013  18 04  -21.0474 26055.5 -03471.7 -07.5895 26285.8
 13 09 2013  18 05  -21.0474 26055.4 -03471.6 -07.5893 26285.7
 13 09 2013  18 06  -21.0475 26055.3 -03471.5 -07.5892 26285.5
 13 09 2013  18 07  -21.0480 26055.3 -03471.4 -07.5890 26285.5
 13 09 2013  18 08  -21.0485 26054.9 -03471.2 -07.5887 26285.1
 13 09 2013  18 09  -21.0486 26054.3 -03470.9 -07.5881 26284.5
 13 09 2013  18 10  -21.0482 26054.0 -03470.7 -07.5878 26284.2
 13 09 2013  18 11  -21.0479 26054.1 -03470.8 -07.5879 26284.3
 13 09 2013  18 12  -21.0480 26054.2 -03470.9 -07.5881 26284.4
 13 09 2013  18 13  -21.0482 26054.6 -03471.0 -07.5882 26284.8
 13 09 2013  18 14  -21.0480 26054.8 -03470.9 -07.5881 26285.0
 13 09 2013  18 15  -21.0475 26054.4 -03470.7 -07.5877 26284.5
 13 09 2013  18 16  -21.0472 26053.9 -03470.6 -07.5875 26284.1
 13 09 2013  18 17  -21.0463 26053.2 -03470.3 -07.5871 26283.3
 13 09 2013  18 18  -21.0456 26052.5 -03470.1 -07.5868 26282.6
 13 09 2013  18 19  -21.0449 26052.2 -03470.1 -07.5869 26282.3
 13 09 2013  18 20  -21.0439 26051.1 -03469.7 -07.5866 26281.1
 13 09 2013  18 21  -21.0426 26049.9 -03469.4 -07.5861 26279.9
 13 09 2013  18 22  -21.0418 26048.9 -03469.2 -07.5861 26278.9
 13 09 2013  18 23  -21.0409 26047.9 -03469.1 -07.5861 26277.9
 13 09 2013  18 24  -21.0404 26047.4 -03469.2 -07.5864 26277.4
 13 09 2013  18 25  -21.0405 26047.7 -03469.6 -07.5873 26277.7
 13 09 2013  18 26  -21.0408 26048.0 -03470.0 -07.5880 26278.1
 13 09 2013  18 27  -21.0408 26048.1 -03470.2 -07.5884 26278.3
 13 09 2013  18 28  -21.0404 26047.7 -03470.2 -07.5884 26277.8
 13 09 2013  18 29  -21.0396 26046.3 -03469.7 -07.5878 26276.4
 13 09 2013  18 30  -21.0389 26045.6 -03469.6 -07.5878 26275.7
 13 09 2013  18 31  -21.0393 26045.7 -03469.9 -07.5883 26275.8
 13 09 2013  18 32  -21.0396 26045.4 -03469.8 -07.5884 26275.5
 13 09 2013  18 33  -21.0398 26045.3 -03469.8 -07.5884 26275.5
 13 09 2013  18 34  -21.0404 26046.2 -03470.3 -07.5891 26276.4
 13 09 2013  18 35  -21.0435 26047.0 -03470.6 -07.5895 26277.2
 13 09 2013  18 36  -21.0433 26046.6 -03470.3 -07.5891 26276.8
 13 09 2013  18 37  -21.0434 26046.3 -03470.1 -07.5886 26276.4
 13 09 2013  18 38  -21.0429 26045.9 -03469.8 -07.5883 26276.0
 13 09 2013  18 39  -21.0430 26045.8 -03469.8 -07.5883 26275.9
 13 09 2013  18 40  -21.0429 26045.2 -03469.6 -07.5879 26275.3
 13 09 2013  18 41  -21.0423 26044.7 -03469.4 -07.5876 26274.8
 13 09 2013  18 42  -21.0424 26044.4 -03469.3 -07.5876 26274.4
 13 09 2013  18 43  -21.0422 26044.2 -03469.3 -07.5876 26274.2
 13 09 2013  18 44  -21.0425 26044.1 -03469.5 -07.5880 26274.1
 13 09 2013  18 45  -21.0430 26043.6 -03469.4 -07.5880 26273.7
 13 09 2013  18 46  -21.0432 26042.9 -03469.2 -07.5877 26273.0
 13 09 2013  18 47  -21.0435 26042.3 -03469.0 -07.5874 26272.3
 13 09 2013  18 48  -21.0436 26041.8 -03468.9 -07.5873 26271.8
 13 09 2013  18 49  -21.0428 26041.2 -03468.6 -07.5870 26271.2
 13 09 2013  18 50  -21.0424 26040.8 -03468.6 -07.5870 26270.8
 13 09 2013  18 51  -21.0414 26039.8 -03468.3 -07.5868 26269.8
 13 09 2013  18 52  -21.0402 26039.0 -03468.2 -07.5867 26269.0
 13 09 2013  18 53  -21.0401 26038.6 -03468.3 -07.5870 26268.6
 13 09 2013  18 54  -21.0403 26038.1 -03468.2 -07.5871 26268.1
 13 09 2013  18 55  -21.0394 26037.3 -03468.1 -07.5871 26267.3
 13 09 2013  18 56  -21.0377 26036.1 -03467.9 -07.5869 26266.0
 13 09 2013  18 57  -21.0365 26035.0 -03467.8 -07.5869 26265.0
 13 09 2013  18 58  -21.0355 26034.3 -03467.8 -07.5871 26264.2
 13 09 2013  18 59  -21.0352 26034.1 -03468.1 -07.5878 26264.1
 13 09 2013  19 00  -21.0350 26033.9 -03468.4 -07.5885 26263.9
 13 09 2013  19 01  -21.0349 26033.6 -03468.5 -07.5889 26263.6
 13 09 2013  19 02  -21.0344 26033.0 -03468.4 -07.5889 26263.1
 13 09 2013  19 03  -21.0344 26032.7 -03468.5 -07.5892 26262.8
 13 09 2013  19 04  -21.0342 26032.4 -03468.6 -07.5894 26262.5
 13 09 2013  19 05  -21.0337 26032.0 -03468.6 -07.5895 26262.0
 13 09 2013  19 06  -21.0329 26031.5 -03468.6 -07.5898 26261.6
 13 09 2013  19 07  -21.0329 26031.3 -03468.9 -07.5904 26261.5
 13 09 2013  19 08  -21.0323 26030.9 -03469.0 -07.5907 26261.0
 13 09 2013  19 09  -21.0320 26030.6 -03469.1 -07.5912 26260.7
 13 09 2013  19 10  -21.0318 26030.3 -03469.2 -07.5914 26260.4
 13 09 2013  19 11  -21.0315 26030.0 -03469.4 -07.5918 26260.2
 13 09 2013  19 12  -21.0310 26029.6 -03469.5 -07.5923 26259.8
 13 09 2013  19 13  -21.0308 26029.2 -03469.6 -07.5926 26259.4
 13 09 2013  19 14  -21.0310 26029.6 -03470.1 -07.5935 26259.9
 13 09 2013  19 15  -21.0303 26029.4 -03470.3 -07.5941 26259.7
 13 09 2013  19 16  -21.0297 26029.9 -03470.8 -07.5949 26260.3
 13 09 2013  19 17  -21.0299 26030.1 -03471.0 -07.5954 26260.5
 13 09 2013  19 18  -21.0298 26029.7 -03471.1 -07.5955 26260.1
 13 09 2013  19 19  -21.0291 26029.7 -03471.2 -07.5958 26260.1
 13 09 2013  19 20  -21.0289 26029.7 -03471.4 -07.5962 26260.1
 13 09 2013  19 21  -21.0290 26029.7 -03471.5 -07.5965 26260.1
 13 09 2013  19 22  -21.0285 26030.0 -03471.8 -07.5971 26260.5
 13 09 2013  19 23  -21.0281 26030.1 -03472.0 -07.5975 26260.6
 13 09 2013  19 24  -21.0279 26030.0 -03472.2 -07.5979 26260.6
 13 09 2013  19 25  -21.0269 26030.1 -03472.3 -07.5981 26260.7
 13 09 2013  19 26  -21.0261 26030.0 -03472.4 -07.5984 26260.6
 13 09 2013  19 27  -21.0254 26030.2 -03472.6 -07.5988 26260.8
 13 09 2013  19 28  -21.0249 26030.2 -03472.8 -07.5991 26260.8
 13 09 2013  19 29  -21.0242 26030.0 -03472.8 -07.5993 26260.6
 13 09 2013  19 30  -21.0232 26029.6 -03472.8 -07.5994 26260.2
 13 09 2013  19 31  -21.0219 26029.0 -03472.7 -07.5993 26259.7
 13 09 2013  19 32  -21.0213 26028.9 -03472.8 -07.5996 26259.5
 13 09 2013  19 33  -21.0202 26028.6 -03472.9 -07.6000 26259.3
 13 09 2013  19 34  -21.0198 26028.6 -03473.3 -07.6007 26259.3
 13 09 2013  19 35  -21.0198 26028.4 -03473.5 -07.6011 26259.1
 13 09 2013  19 36  -21.0198 26028.3 -03473.6 -07.6015 26259.1
 13 09 2013  19 37  -21.0196 26028.0 -03473.7 -07.6018 26258.8
 13 09 2013  19 38  -21.0192 26027.8 -03473.8 -07.6021 26258.6
 13 09 2013  19 39  -21.0197 26027.6 -03474.0 -07.6025 26258.4
 13 09 2013  19 40  -21.0196 26027.2 -03473.9 -07.6025 26258.0
 13 09 2013  19 41  -21.0194 26027.0 -03474.0 -07.6027 26257.9
 13 09 2013  19 42  -21.0191 26027.2 -03474.2 -07.6032 26258.0
 13 09 2013  19 43  -21.0192 26027.4 -03474.5 -07.6037 26258.3
 13 09 2013  19 44  -21.0195 26027.5 -03474.6 -07.6039 26258.4
 13 09 2013  19 45  -21.0201 26027.8 -03474.9 -07.6044 26258.7
 13 09 2013  19 46  -21.0208 26027.8 -03475.0 -07.6046 26258.8
 13 09 2013  19 47  -21.0215 26027.8 -03475.0 -07.6047 26258.8
 13 09 2013  19 48  -21.0217 26027.6 -03475.0 -07.6046 26258.5
 13 09 2013  19 49  -21.0218 26027.7 -03475.0 -07.6047 26258.7
 13 09 2013  19 50  -21.0218 26027.7 -03475.1 -07.6048 26258.6
 13 09 2013  19 51  -21.0219 26027.9 -03475.2 -07.6051 26258.8
 13 09 2013  19 52  -21.0217 26027.6 -03475.1 -07.6049 26258.5
 13 09 2013  19 53  -21.0217 26027.3 -03475.0 -07.6048 26258.2
 13 09 2013  19 54  -21.0221 26027.1 -03475.0 -07.6047 26258.0
 13 09 2013  19 55  -21.0221 26026.6 -03474.8 -07.6045 26257.5
 13 09 2013  19 56  -21.0214 26025.6 -03474.5 -07.6041 26256.5
 13 09 2013  19 57  -21.0211 26025.0 -03474.3 -07.6040 26255.8
 13 09 2013  19 58  -21.0212 26024.8 -03474.4 -07.6043 26255.7
 13 09 2013  19 59  -21.0211 26024.7 -03474.5 -07.6045 26255.6
 13 09 2013  20 00  -21.0210 26024.3 -03474.5 -07.6046 26255.2
 13 09 2013  20 01  -21.0207 26024.2 -03474.6 -07.6049 26255.2
 13 09 2013  20 02  -21.0209 26024.5 -03474.9 -07.6054 26255.5
 13 09 2013  20 03  -21.0212 26024.6 -03475.1 -07.6057 26255.6
 13 09 2013  20 04  -21.0215 26024.5 -03475.2 -07.6060 26255.5
 13 09 2013  20 05  -21.0213 26024.1 -03475.1 -07.6059 26255.1
 13 09 2013  20 06  -21.0207 26023.9 -03475.1 -07.6060 26254.9
 13 09 2013  20 07  -21.0203 26024.2 -03475.4 -07.6065 26255.2
 13 09 2013  20 08  -21.0199 26024.7 -03475.8 -07.6072 26255.8
 13 09 2013  20 09  -21.0193 26024.8 -03476.0 -07.6077 26255.9
 13 09 2013  20 10  -21.0191 26024.8 -03476.1 -07.6080 26255.9
 13 09 2013  20 11  -21.0195 26024.4 -03476.1 -07.6079 26255.5
 13 09 2013  20 12  -21.0189 26023.9 -03475.9 -07.6078 26255.0
 13 09 2013  20 13  -21.0191 26023.4 -03476.0 -07.6080 26254.5
 13 09 2013  20 14  -21.0193 26022.5 -03475.5 -07.6072 26253.6
 13 09 2013  20 15  -21.0193 26022.2 -03475.6 -07.6076 26253.3
 13 09 2013  20 16  -21.0192 26022.0 -03475.7 -07.6079 26253.1
 13 09 2013  20 17  -21.0194 26021.8 -03475.8 -07.6081 26252.9
 13 09 2013  20 18  -21.0198 26021.2 -03475.8 -07.6082 26252.3
 13 09 2013  20 19  -21.0201 26020.7 -03475.7 -07.6082 26251.8
 13 09 2013  20 20  -21.0203 26020.5 -03475.9 -07.6086 26251.6
 13 09 2013  20 21  -21.0208 26020.4 -03476.1 -07.6091 26251.6
 13 09 2013  20 22  -21.0211 26020.8 -03476.4 -07.6098 26252.0
 13 09 2013  20 23  -21.0211 26020.8 -03476.6 -07.6102 26252.1
 13 09 2013  20 24  -21.0209 26020.9 -03476.8 -07.6106 26252.2
 13 09 2013  20 25  -21.0211 26021.3 -03477.2 -07.6112 26252.6
 13 09 2013  20 26  -21.0211 26021.9 -03477.6 -07.6120 26253.2
 13 09 2013  20 27  -21.0218 26022.7 -03478.2 -07.6130 26254.1
 13 09 2013  20 28  -21.0227 26023.1 -03478.5 -07.6136 26254.6
 13 09 2013  20 29  -21.0230 26022.8 -03478.4 -07.6134 26254.3
 13 09 2013  20 30  -21.0230 26022.7 -03478.4 -07.6134 26254.1
 13 09 2013  20 31  -21.0230 26023.4 -03478.8 -07.6141 26254.8
 13 09 2013  20 32  -21.0231 26024.3 -03479.3 -07.6150 26255.8
 13 09 2013  20 33  -21.0230 26025.1 -03479.8 -07.6158 26256.7
 13 09 2013  20 34  -21.0227 26025.8 -03480.2 -07.6165 26257.4
 13 09 2013  20 35  -21.0222 26025.9 -03480.4 -07.6169 26257.6
 13 09 2013  20 36  -21.0217 26026.1 -03480.5 -07.6171 26257.8
 13 09 2013  20 37  -21.0213 26026.1 -03480.7 -07.6174 26257.8
 13 09 2013  20 38  -21.0209 26026.1 -03480.8 -07.6177 26257.8
 13 09 2013  20 39  -21.0206 26025.8 -03480.8 -07.6177 26257.6
 13 09 2013  20 40  -21.0204 26025.4 -03480.7 -07.6177 26257.1
 13 09 2013  20 41  -21.0203 26024.6 -03480.5 -07.6175 26256.3
 13 09 2013  20 42  -21.0202 26024.3 -03480.5 -07.6174 26256.0
 13 09 2013  20 43  -21.0198 26024.4 -03480.6 -07.6178 26256.2
 13 09 2013  20 44  -21.0196 26024.7 -03480.9 -07.6184 26256.5
 13 09 2013  20 45  -21.0194 26025.1 -03481.3 -07.6190 26256.9
 13 09 2013  20 46  -21.0194 26025.4 -03481.6 -07.6196 26257.2
 13 09 2013  20 47  -21.0194 26025.5 -03481.7 -07.6199 26257.3
 13 09 2013  20 48  -21.0197 26025.2 -03481.7 -07.6199 26257.1
 13 09 2013  20 49  -21.0197 26024.8 -03481.5 -07.6196 26256.6
 13 09 2013  20 50  -21.0197 26024.9 -03481.7 -07.6200 26256.8
 13 09 2013  20 51  -21.0198 26024.9 -03481.9 -07.6204 26256.8
 13 09 2013  20 52  -21.0198 26024.9 -03482.0 -07.6205 26256.8
 13 09 2013  20 53  -21.0198 26025.4 -03482.2 -07.6210 26257.3
 13 09 2013  20 54  -21.0199 26025.7 -03482.5 -07.6214 26257.7
 13 09 2013  20 55  -21.0199 26026.1 -03482.7 -07.6218 26258.1
 13 09 2013  20 56  -21.0200 26026.2 -03482.8 -07.6220 26258.2
 13 09 2013  20 57  -21.0200 26026.2 -03482.8 -07.6220 26258.2
 13 09 2013  20 58  -21.0200 26026.5 -03483.0 -07.6223 26258.5
 13 09 2013  20 59  -21.0199 26026.8 -03483.1 -07.6225 26258.8
 13 09 2013  21 00  -21.0199 26027.0 -03483.3 -07.6228 26259.1
 13 09 2013  21 01  -21.0199 26027.2 -03483.4 -07.6230 26259.2
 13 09 2013  21 02  -21.0200 26027.4 -03483.5 -07.6232 26259.5
 13 09 2013  21 03  -21.0200 26027.6 -03483.7 -07.6234 26259.7
 13 09 2013  21 04  -21.0199 26027.7 -03483.7 -07.6235 26259.8
 13 09 2013  21 05  -21.0198 26027.6 -03483.7 -07.6235 26259.7
 13 09 2013  21 06  -21.0197 26027.7 -03483.7 -07.6236 26259.8
 13 09 2013  21 07  -21.0196 26027.8 -03483.8 -07.6237 26259.9
 13 09 2013  21 08  -21.0195 26027.8 -03483.8 -07.6238 26259.9
 13 09 2013  21 09  -21.0195 26027.7 -03483.8 -07.6238 26259.8
 13 09 2013  21 10  -21.0195 26027.5 -03483.8 -07.6237 26259.6
 13 09 2013  21 11  -21.0196 26027.3 -03483.7 -07.6237 26259.4
 13 09 2013  21 12  -21.0196 26027.2 -03483.7 -07.6236 26259.3
 13 09 2013  21 13  -21.0197 26027.0 -03483.7 -07.6236 26259.1
 13 09 2013  21 14  -21.0197 26027.0 -03483.7 -07.6237 26259.1
 13 09 2013  21 15  -21.0197 26026.8 -03483.6 -07.6236 26258.9
 13 09 2013  21 16  -21.0197 26026.7 -03483.6 -07.6236 26258.8
 13 09 2013  21 17  -21.0198 26026.7 -03483.7 -07.6237 26258.8
 13 09 2013  21 18  -21.0199 26026.8 -03483.8 -07.6240 26259.0
 13 09 2013  21 19  -21.0201 26026.9 -03483.9 -07.6242 26259.1
 13 09 2013  21 20  -21.0202 26026.9 -03483.9 -07.6242 26259.0
 13 09 2013  21 21  -21.0203 26026.8 -03483.9 -07.6242 26258.9
 13 09 2013  21 22  -21.0206 26026.6 -03483.9 -07.6242 26258.7
 13 09 2013  21 23  -21.0207 26026.4 -03483.8 -07.6241 26258.5
 13 09 2013  21 24  -21.0208 26026.4 -03483.8 -07.6241 26258.5
 13 09 2013  21 25  -21.0208 26026.5 -03483.9 -07.6242 26258.6
 13 09 2013  21 26  -21.0208 26026.6 -03484.0 -07.6244 26258.8
 13 09 2013  21 27  -21.0208 26026.7 -03484.1 -07.6246 26258.9
 13 09 2013  21 28  -21.0208 26026.8 -03484.1 -07.6247 26259.0
 13 09 2013  21 29  -21.0208 26027.1 -03484.3 -07.6250 26259.3
 13 09 2013  21 30  -21.0205 26027.7 -03484.6 -07.6254 26259.9
 13 09 2013  21 31  -21.0203 26028.1 -03484.8 -07.6258 26260.4
 13 09 2013  21 32  -21.0199 26028.5 -03485.0 -07.6260 26260.8
 13 09 2013  21 33  -21.0197 26028.8 -03485.1 -07.6263 26261.1
 13 09 2013  21 34  -21.0194 26029.0 -03485.2 -07.6264 26261.3
 13 09 2013  21 35  -21.0193 26029.2 -03485.3 -07.6265 26261.5
 13 09 2013  21 36  -21.0191 26029.1 -03485.3 -07.6265 26261.4
 13 09 2013  21 37  -21.0190 26029.0 -03485.2 -07.6263 26261.3
 13 09 2013  21 38  -21.0188 26028.8 -03485.0 -07.6261 26261.0
 13 09 2013  21 39  -21.0187 26028.7 -03485.0 -07.6260 26261.0
 13 09 2013  21 40  -21.0186 26028.8 -03485.0 -07.6260 26261.0
 13 09 2013  21 41  -21.0186 26028.6 -03485.0 -07.6259 26260.9
 13 09 2013  21 42  -21.0186 26028.4 -03484.8 -07.6258 26260.7
 13 09 2013  21 43  -21.0186 26028.2 -03484.7 -07.6256 26260.4
 13 09 2013  21 44  -21.0185 26028.1 -03484.7 -07.6255 26260.3
 13 09 2013  21 45  -21.0184 26028.2 -03484.7 -07.6256 26260.4
 13 09 2013  21 46  -21.0184 26028.2 -03484.8 -07.6257 26260.5
 13 09 2013  21 47  -21.0186 26027.9 -03484.7 -07.6255 26260.1
 13 09 2013  21 48  -21.0187 26027.7 -03484.6 -07.6254 26259.9
 13 09 2013  21 49  -21.0188 26027.9 -03484.7 -07.6255 26260.1
 13 09 2013  21 50  -21.0187 26028.1 -03484.8 -07.6258 26260.3
 13 09 2013  21 51  -21.0186 26028.3 -03484.9 -07.6260 26260.5
 13 09 2013  21 52  -21.0186 26028.3 -03485.0 -07.6261 26260.6
 13 09 2013  21 53  -21.0185 26028.5 -03485.1 -07.6262 26260.8
 13 09 2013  21 54  -21.0185 26028.6 -03485.2 -07.6264 26260.9
 13 09 2013  21 55  -21.0185 26028.6 -03485.2 -07.6264 26260.9
 13 09 2013  21 56  -21.0186 26028.3 -03485.0 -07.6261 26260.6
 13 09 2013  21 57  -21.0186 26028.3 -03485.0 -07.6261 26260.6
 13 09 2013  21 58  -21.0186 26028.5 -03485.1 -07.6262 26260.8
 13 09 2013  21 59  -21.0185 26028.7 -03485.2 -07.6264 26261.0
 13 09 2013  22 00  -21.0186 26028.8 -03485.2 -07.6265 26261.1
 13 09 2013  22 01  -21.0185 26028.7 -03485.2 -07.6265 26261.0
 13 09 2013  22 02  -21.0185 26028.8 -03485.2 -07.6265 26261.1
 13 09 2013  22 03  -21.0186 26028.5 -03485.1 -07.6263 26260.8
 13 09 2013  22 04  -21.0188 26028.1 -03484.9 -07.6260 26260.4
 13 09 2013  22 05  -21.0189 26027.9 -03484.8 -07.6257 26260.2
 13 09 2013  22 06  -21.0190 26028.3 -03484.9 -07.6260 26260.5
 13 09 2013  22 07  -21.0191 26028.2 -03484.9 -07.6260 26260.5
 13 09 2013  22 08  -21.0190 26027.9 -03484.8 -07.6258 26260.1
 13 09 2013  22 09  -21.0189 26028.2 -03484.9 -07.6259 26260.5
 13 09 2013  22 10  -21.0187 26028.9 -03485.3 -07.6265 26261.2
 13 09 2013  22 11  -21.0186 26029.4 -03485.5 -07.6270 26261.7
 13 09 2013  22 12  -21.0186 26029.6 -03485.7 -07.6272 26262.0
 13 09 2013  22 13  -21.0187 26029.8 -03485.7 -07.6273 26262.1
 13 09 2013  22 14  -21.0188 26029.8 -03485.7 -07.6272 26262.1
 13 09 2013  22 15  -21.0188 26030.0 -03485.8 -07.6273 26262.4
 13 09 2013  22 16  -21.0187 26030.3 -03485.8 -07.6274 26262.6
 13 09 2013  22 17  -21.0187 26030.4 -03485.9 -07.6274 26262.8
 13 09 2013  22 18  -21.0189 26030.0 -03485.7 -07.6271 26262.4
 13 09 2013  22 19  -21.0192 26029.4 -03485.3 -07.6266 26261.7
 13 09 2013  22 20  -21.0193 26028.9 -03485.1 -07.6261 26261.2
 13 09 2013  22 21  -21.0193 26028.8 -03484.9 -07.6259 26261.0
 13 09 2013  22 22  -21.0191 26028.9 -03485.0 -07.6259 26261.2
 13 09 2013  22 23  -21.0189 26029.0 -03485.1 -07.6261 26261.3
 13 09 2013  22 24  -21.0187 26028.9 -03485.1 -07.6261 26261.2
 13 09 2013  22 25  -21.0187 26029.0 -03485.1 -07.6262 26261.3
 13 09 2013  22 26  -21.0186 26029.3 -03485.3 -07.6264 26261.6
 13 09 2013  22 27  -21.0187 26029.6 -03485.4 -07.6267 26261.9
 13 09 2013  22 28  -21.0187 26029.4 -03485.4 -07.6267 26261.7
 13 09 2013  22 29  -21.0190 26028.8 -03485.1 -07.6263 26261.1
 13 09 2013  22 30  -21.0194 26028.3 -03484.9 -07.6259 26260.6
 13 09 2013  22 31  -21.0196 26028.1 -03484.8 -07.6257 26260.4
 13 09 2013  22 32  -21.0198 26028.2 -03484.8 -07.6258 26260.4
 13 09 2013  22 33  -21.0198 26028.3 -03484.9 -07.6259 26260.5
 13 09 2013  22 34  -21.0200 26028.4 -03485.0 -07.6260 26260.6
 13 09 2013  22 35  -21.0202 26027.9 -03484.8 -07.6258 26260.1
 13 09 2013  22 36  -21.0206 26027.2 -03484.5 -07.6253 26259.4
 13 09 2013  22 37  -21.0208 26027.0 -03484.4 -07.6251 26259.2
 13 09 2013  22 38  -21.0207 26027.4 -03484.6 -07.6254 26259.6
 13 09 2013  22 39  -21.0205 26028.2 -03485.0 -07.6261 26260.5
 13 09 2013  22 40  -21.0204 26028.6 -03485.2 -07.6265 26260.9
 13 09 2013  22 41  -21.0205 26028.5 -03485.3 -07.6266 26260.8
 13 09 2013  22 42  -21.0207 26028.2 -03485.1 -07.6264 26260.5
 13 09 2013  22 43  -21.0209 26027.9 -03484.9 -07.6261 26260.1
 13 09 2013  22 44  -21.0210 26027.7 -03484.9 -07.6260 26259.9
 13 09 2013  22 45  -21.0210 26027.7 -03484.8 -07.6259 26259.9
 13 09 2013  22 46  -21.0210 26027.8 -03484.9 -07.6261 26260.1
 13 09 2013  22 47  -21.0208 26028.1 -03485.0 -07.6262 26260.4
 13 09 2013  22 48  -21.0207 26028.4 -03485.2 -07.6265 26260.7
 13 09 2013  22 49  -21.0205 26028.6 -03485.3 -07.6267 26260.9
 13 09 2013  22 50  -21.0205 26028.7 -03485.4 -07.6269 26261.1
 13 09 2013  22 51  -21.0206 26028.7 -03485.4 -07.6269 26261.1
 13 09 2013  22 52  -21.0208 26028.4 -03485.3 -07.6267 26260.7
 13 09 2013  22 53  -21.0211 26028.0 -03485.1 -07.6264 26260.2
 13 09 2013  22 54  -21.0212 26027.7 -03484.9 -07.6261 26259.9
 13 09 2013  22 55  -21.0213 26027.5 -03484.8 -07.6260 26259.8
 13 09 2013  22 56  -21.0213 26027.5 -03484.9 -07.6261 26259.8
 13 09 2013  22 57  -21.0213 26027.6 -03484.9 -07.6261 26259.8
 13 09 2013  22 58  -21.0213 26027.6 -03484.9 -07.6262 26259.9
 13 09 2013  22 59  -21.0212 26027.7 -03485.0 -07.6263 26260.0
 13 09 2013  23 00  -21.0212 26027.9 -03485.1 -07.6264 26260.2
 13 09 2013  23 01  -21.0212 26028.0 -03485.2 -07.6266 26260.3
 13 09 2013  23 02  -21.0211 26028.1 -03485.3 -07.6267 26260.4
 13 09 2013  23 03  -21.0211 26028.1 -03485.3 -07.6268 26260.5
 13 09 2013  23 04  -21.0210 26028.2 -03485.3 -07.6269 26260.5
 13 09 2013  23 05  -21.0210 26028.3 -03485.4 -07.6269 26260.6
 13 09 2013  23 06  -21.0208 26028.5 -03485.5 -07.6270 26260.8
 13 09 2013  23 07  -21.0207 26028.7 -03485.6 -07.6272 26261.0
 13 09 2013  23 08  -21.0206 26028.7 -03485.6 -07.6273 26261.1
 13 09 2013  23 09  -21.0206 26028.5 -03485.5 -07.6272 26260.8
 13 09 2013  23 10  -21.0206 26028.3 -03485.4 -07.6270 26260.6
 13 09 2013  23 11  -21.0207 26028.1 -03485.3 -07.6269 26260.4
 13 09 2013  23 12  -21.0207 26027.9 -03485.2 -07.6266 26260.2
 13 09 2013  23 13  -21.0208 26027.6 -03485.1 -07.6265 26259.9
 13 09 2013  23 14  -21.0208 26027.5 -03485.0 -07.6264 26259.8
 13 09 2013  23 15  -21.0206 26027.6 -03485.1 -07.6265 26259.8
 13 09 2013  23 16  -21.0203 26027.7 -03485.2 -07.6266 26260.0
 13 09 2013  23 17  -21.0202 26027.7 -03485.2 -07.6267 26260.0
 13 09 2013  23 18  -21.0202 26027.6 -03485.2 -07.6267 26259.9
 13 09 2013  23 19  -21.0201 26027.4 -03485.2 -07.6267 26259.7
 13 09 2013  23 20  -21.0199 26027.3 -03485.1 -07.6266 26259.6
 13 09 2013  23 21  -21.0199 26027.3 -03485.1 -07.6267 26259.6
 13 09 2013  23 22  -21.0197 26027.3 -03485.2 -07.6268 26259.7
 13 09 2013  23 23  -21.0195 26027.6 -03485.4 -07.6271 26259.9
 13 09 2013  23 24  -21.0194 26027.7 -03485.5 -07.6273 26260.1
 13 09 2013  23 25  -21.0193 26027.8 -03485.5 -07.6274 26260.2
 13 09 2013  23 26  -21.0192 26027.9 -03485.6 -07.6274 26260.2
 13 09 2013  23 27  -21.0192 26027.9 -03485.6 -07.6276 26260.2
 13 09 2013  23 28  -21.0193 26027.8 -03485.6 -07.6276 26260.1
 13 09 2013  23 29  -21.0194 26027.6 -03485.5 -07.6274 26259.9
 13 09 2013  23 30  -21.0195 26027.4 -03485.5 -07.6274 26259.8
 13 09 2013  23 31  -21.0195 26027.3 -03485.4 -07.6272 26259.6
 13 09 2013  23 32  -21.0196 26027.2 -03485.3 -07.6272 26259.5
 13 09 2013  23 33  -21.0195 26027.2 -03485.4 -07.6273 26259.6
 13 09 2013  23 34  -21.0195 26027.5 -03485.6 -07.6275 26259.9
 13 09 2013  23 35  -21.0196 26027.8 -03485.7 -07.6277 26260.2
 13 09 2013  23 36  -21.0197 26027.9 -03485.8 -07.6279 26260.2
 13 09 2013  23 37  -21.0197 26028.0 -03485.8 -07.6279 26260.3
 13 09 2013  23 38  -21.0196 26028.1 -03485.8 -07.6279 26260.4
 13 09 2013  23 39  -21.0196 26028.2 -03485.9 -07.6280 26260.6
 13 09 2013  23 40  -21.0196 26028.2 -03485.9 -07.6280 26260.6
 13 09 2013  23 41  -21.0196 26028.3 -03485.9 -07.6280 26260.7
 13 09 2013  23 42  -21.0197 26028.5 -03486.0 -07.6283 26261.0
 13 09 2013  23 43  -21.0197 26028.7 -03486.1 -07.6283 26261.1
 13 09 2013  23 44  -21.0199 26028.6 -03486.0 -07.6282 26261.0
 13 09 2013  23 45  -21.0200 26028.6 -03486.0 -07.6281 26261.0
 13 09 2013  23 46  -21.0202 26028.7 -03486.0 -07.6282 26261.1
 13 09 2013  23 47  -21.0203 26028.6 -03485.9 -07.6280 26261.0
 13 09 2013  23 48  -21.0204 26028.4 -03485.8 -07.6278 26260.8
 13 09 2013  23 49  -21.0206 26028.2 -03485.7 -07.6276 26260.5
 13 09 2013  23 50  -21.0206 26028.0 -03485.5 -07.6273 26260.3
 13 09 2013  23 51  -21.0206 26028.0 -03485.5 -07.6273 26260.3
 13 09 2013  23 52  -21.0205 26028.1 -03485.5 -07.6273 26260.4
 13 09 2013  23 53  -21.0202 26028.2 -03485.6 -07.6274 26260.6
 13 09 2013  23 54  -21.0200 26028.3 -03485.6 -07.6275 26260.7
 13 09 2013  23 55  -21.0198 26028.5 -03485.7 -07.6276 26260.8
 13 09 2013  23 56  -21.0196 26028.7 -03485.8 -07.6277 26261.0
 13 09 2013  23 57  -21.0194 26028.7 -03485.8 -07.6277 26261.1
