SAO LUIS EMBRACE-03 <103> 1 Min. Reported data

 DD MM YYYY  HH MM   D(Deg)  H(nT)   Z(nT)   I(Deg)   F(nT)

 13 04 2013  00 00  -21.0322 26041.5 -03428.5 -07.5002 26266.2
 13 04 2013  00 01  -21.0322 26041.6 -03428.6 -07.5003 26266.3
 13 04 2013  00 02  -21.0321 26041.7 -03428.7 -07.5004 26266.4
 13 04 2013  00 03  -21.0321 26041.9 -03428.8 -07.5006 26266.6
 13 04 2013  00 04  -21.0320 26041.9 -03428.8 -07.5007 26266.7
 13 04 2013  00 05  -21.0321 26042.0 -03428.8 -07.5007 26266.7
 13 04 2013  00 06  -21.0321 26042.0 -03428.9 -07.5008 26266.8
 13 04 2013  00 07  -21.0319 26042.0 -03428.8 -07.5007 26266.7
 13 04 2013  00 08  -21.0320 26041.7 -03428.7 -07.5005 26266.5
 13 04 2013  00 09  -21.0322 26041.4 -03428.5 -07.5003 26266.1
 13 04 2013  00 10  -21.0323 26041.0 -03428.4 -07.5000 26265.7
 13 04 2013  00 11  -21.0324 26040.7 -03428.2 -07.4998 26265.4
 13 04 2013  00 12  -21.0326 26040.4 -03428.1 -07.4996 26265.1
 13 04 2013  00 13  -21.0328 26040.2 -03428.0 -07.4995 26264.9
 13 04 2013  00 14  -21.0329 26040.0 -03428.0 -07.4994 26264.7
 13 04 2013  00 15  -21.0328 26039.8 -03427.9 -07.4993 26264.5
 13 04 2013  00 16  -21.0327 26039.6 -03427.8 -07.4992 26264.3
 13 04 2013  00 17  -21.0326 26039.4 -03427.8 -07.4992 26264.1
 13 04 2013  00 18  -21.0325 26039.2 -03427.7 -07.4991 26263.9
 13 04 2013  00 19  -21.0324 26039.1 -03427.7 -07.4992 26263.7
 13 04 2013  00 20  -21.0324 26039.0 -03427.7 -07.4992 26263.6
 13 04 2013  00 21  -21.0324 26039.0 -03427.8 -07.4993 26263.6
 13 04 2013  00 22  -21.0325 26038.9 -03427.8 -07.4994 26263.6
 13 04 2013  00 23  -21.0325 26038.9 -03427.9 -07.4995 26263.6
 13 04 2013  00 24  -21.0324 26038.9 -03428.0 -07.4997 26263.6
 13 04 2013  00 25  -21.0323 26039.0 -03428.0 -07.4998 26263.7
 13 04 2013  00 26  -21.0321 26039.1 -03428.1 -07.5000 26263.7
 13 04 2013  00 27  -21.0320 26039.2 -03428.2 -07.5002 26263.9
 13 04 2013  00 28  -21.0319 26039.3 -03428.3 -07.5003 26264.0
 13 04 2013  00 29  -21.0319 26039.4 -03428.4 -07.5005 26264.1
 13 04 2013  00 30  -21.0318 26039.5 -03428.5 -07.5007 26264.2
 13 04 2013  00 31  -21.0318 26039.6 -03428.6 -07.5008 26264.4
 13 04 2013  00 32  -21.0318 26039.6 -03428.6 -07.5009 26264.4
 13 04 2013  00 33  -21.0318 26039.7 -03428.7 -07.5010 26264.4
 13 04 2013  00 34  -21.0318 26039.7 -03428.7 -07.5011 26264.5
 13 04 2013  00 35  -21.0319 26039.7 -03428.7 -07.5011 26264.5
 13 04 2013  00 36  -21.0318 26039.6 -03428.7 -07.5010 26264.4
 13 04 2013  00 37  -21.0319 26039.6 -03428.7 -07.5010 26264.4
 13 04 2013  00 38  -21.0317 26039.5 -03428.6 -07.5010 26264.3
 13 04 2013  00 39  -21.0315 26039.5 -03428.6 -07.5010 26264.3
 13 04 2013  00 40  -21.0315 26039.4 -03428.6 -07.5010 26264.2
 13 04 2013  00 41  -21.0315 26039.4 -03428.6 -07.5010 26264.2
 13 04 2013  00 42  -21.0316 26039.4 -03428.6 -07.5010 26264.1
 13 04 2013  00 43  -21.0317 26039.2 -03428.5 -07.5009 26263.9
 13 04 2013  00 44  -21.0318 26039.0 -03428.5 -07.5008 26263.7
 13 04 2013  00 45  -21.0319 26038.9 -03428.5 -07.5008 26263.7
 13 04 2013  00 46  -21.0319 26038.9 -03428.5 -07.5008 26263.7
 13 04 2013  00 47  -21.0318 26038.9 -03428.5 -07.5009 26263.6
 13 04 2013  00 48  -21.0318 26038.8 -03428.5 -07.5009 26263.6
 13 04 2013  00 49  -21.0319 26038.8 -03428.5 -07.5009 26263.5
 13 04 2013  00 50  -21.0319 26038.8 -03428.5 -07.5009 26263.5
 13 04 2013  00 51  -21.0322 26038.8 -03428.6 -07.5010 26263.5
 13 04 2013  00 52  -21.0325 26038.8 -03428.6 -07.5011 26263.6
 13 04 2013  00 53  -21.0328 26038.8 -03428.6 -07.5011 26263.5
 13 04 2013  00 54  -21.0330 26038.7 -03428.6 -07.5011 26263.5
 13 04 2013  00 55  -21.0331 26038.5 -03428.5 -07.5009 26263.3
 13 04 2013  00 56  -21.0330 26038.3 -03428.3 -07.5007 26263.0
 13 04 2013  00 57  -21.0329 26038.1 -03428.2 -07.5006 26262.8
 13 04 2013  00 58  -21.0331 26037.7 -03428.1 -07.5003 26262.4
 13 04 2013  00 59  -21.0333 26037.4 -03428.0 -07.5002 26262.1
 13 04 2013  01 00  -21.0334 26037.2 -03427.9 -07.5001 26261.9
 13 04 2013  01 01  -21.0336 26037.0 -03427.8 -07.5000 26261.6
 13 04 2013  01 02  -21.0337 26036.7 -03427.7 -07.4998 26261.4
 13 04 2013  01 03  -21.0339 26036.4 -03427.6 -07.4997 26261.0
 13 04 2013  01 04  -21.0341 26036.1 -03427.5 -07.4995 26260.7
 13 04 2013  01 05  -21.0340 26035.9 -03427.4 -07.4994 26260.5
 13 04 2013  01 06  -21.0339 26035.8 -03427.4 -07.4994 26260.4
 13 04 2013  01 07  -21.0339 26035.4 -03427.3 -07.4993 26260.1
 13 04 2013  01 08  -21.0337 26035.2 -03427.2 -07.4992 26259.8
 13 04 2013  01 09  -21.0335 26035.2 -03427.3 -07.4994 26259.9
 13 04 2013  01 10  -21.0335 26035.3 -03427.5 -07.4997 26260.0
 13 04 2013  01 11  -21.0334 26035.3 -03427.6 -07.4999 26260.0
 13 04 2013  01 12  -21.0334 26035.3 -03427.6 -07.5000 26260.0
 13 04 2013  01 13  -21.0333 26035.5 -03427.8 -07.5003 26260.1
 13 04 2013  01 14  -21.0332 26035.7 -03427.9 -07.5005 26260.3
 13 04 2013  01 15  -21.0331 26035.8 -03428.0 -07.5007 26260.5
 13 04 2013  01 16  -21.0331 26035.8 -03428.1 -07.5009 26260.5
 13 04 2013  01 17  -21.0329 26035.8 -03428.1 -07.5009 26260.5
 13 04 2013  01 18  -21.0326 26036.0 -03428.2 -07.5011 26260.7
 13 04 2013  01 19  -21.0324 26036.5 -03428.5 -07.5016 26261.3
 13 04 2013  01 20  -21.0325 26036.9 -03428.8 -07.5020 26261.7
 13 04 2013  01 21  -21.0329 26037.0 -03428.8 -07.5022 26261.8
 13 04 2013  01 22  -21.0336 26036.8 -03428.8 -07.5022 26261.6
 13 04 2013  01 23  -21.0340 26036.6 -03428.7 -07.5019 26261.4
 13 04 2013  01 24  -21.0339 26036.1 -03428.5 -07.5016 26260.9
 13 04 2013  01 25  -21.0337 26035.6 -03428.2 -07.5011 26260.4
 13 04 2013  01 26  -21.0333 26035.5 -03428.1 -07.5009 26260.2
 13 04 2013  01 27  -21.0330 26035.4 -03428.1 -07.5010 26260.2
 13 04 2013  01 28  -21.0330 26035.5 -03428.1 -07.5011 26260.2
 13 04 2013  01 29  -21.0332 26035.6 -03428.3 -07.5014 26260.3
 13 04 2013  01 30  -21.0333 26035.7 -03428.4 -07.5016 26260.4
 13 04 2013  01 31  -21.0333 26035.6 -03428.5 -07.5017 26260.4
 13 04 2013  01 32  -21.0331 26035.4 -03428.3 -07.5015 26260.1
 13 04 2013  01 33  -21.0331 26035.0 -03428.2 -07.5013 26259.7
 13 04 2013  01 34  -21.0332 26034.9 -03428.2 -07.5013 26259.6
 13 04 2013  01 35  -21.0335 26034.8 -03428.2 -07.5013 26259.5
 13 04 2013  01 36  -21.0336 26034.6 -03428.1 -07.5013 26259.3
 13 04 2013  01 37  -21.0337 26034.4 -03428.1 -07.5012 26259.1
 13 04 2013  01 38  -21.0338 26034.1 -03428.0 -07.5011 26258.8
 13 04 2013  01 39  -21.0339 26033.9 -03427.9 -07.5010 26258.6
 13 04 2013  01 40  -21.0340 26033.8 -03427.9 -07.5010 26258.5
 13 04 2013  01 41  -21.0341 26033.6 -03427.9 -07.5011 26258.4
 13 04 2013  01 42  -21.0342 26033.5 -03427.9 -07.5011 26258.2
 13 04 2013  01 43  -21.0343 26033.3 -03427.8 -07.5010 26258.0
 13 04 2013  01 44  -21.0344 26033.2 -03427.8 -07.5010 26257.9
 13 04 2013  01 45  -21.0346 26033.0 -03427.8 -07.5010 26257.7
 13 04 2013  01 46  -21.0347 26032.8 -03427.7 -07.5010 26257.5
 13 04 2013  01 47  -21.0351 26032.7 -03427.7 -07.5009 26257.4
 13 04 2013  01 48  -21.0353 26032.5 -03427.6 -07.5009 26257.2
 13 04 2013  01 49  -21.0356 26032.2 -03427.6 -07.5007 26256.9
 13 04 2013  01 50  -21.0357 26032.0 -03427.5 -07.5007 26256.7
 13 04 2013  01 51  -21.0358 26031.9 -03427.5 -07.5007 26256.6
 13 04 2013  01 52  -21.0358 26031.8 -03427.5 -07.5008 26256.5
 13 04 2013  01 53  -21.0359 26031.7 -03427.5 -07.5008 26256.4
 13 04 2013  01 54  -21.0362 26031.5 -03427.5 -07.5008 26256.1
 13 04 2013  01 55  -21.0364 26031.4 -03427.5 -07.5009 26256.1
 13 04 2013  01 56  -21.0366 26031.3 -03427.5 -07.5009 26256.0
 13 04 2013  01 57  -21.0368 26031.6 -03427.7 -07.5012 26256.3
 13 04 2013  01 58  -21.0370 26031.8 -03427.8 -07.5015 26256.5
 13 04 2013  01 59  -21.0372 26031.8 -03427.9 -07.5016 26256.5
 13 04 2013  02 00  -21.0375 26031.6 -03427.8 -07.5015 26256.3
 13 04 2013  02 01  -21.0378 26031.2 -03427.7 -07.5013 26255.9
 13 04 2013  02 02  -21.0378 26031.4 -03427.7 -07.5013 26256.1
 13 04 2013  02 03  -21.0377 26031.4 -03427.8 -07.5015 26256.1
 13 04 2013  02 04  -21.0378 26031.6 -03427.9 -07.5017 26256.3
 13 04 2013  02 05  -21.0380 26031.5 -03427.9 -07.5017 26256.2
 13 04 2013  02 06  -21.0381 26031.5 -03427.9 -07.5018 26256.2
 13 04 2013  02 07  -21.0378 26031.5 -03427.9 -07.5017 26256.3
 13 04 2013  02 08  -21.0378 26031.5 -03428.0 -07.5018 26256.3
 13 04 2013  02 09  -21.0377 26031.4 -03427.9 -07.5017 26256.2
 13 04 2013  02 10  -21.0379 26031.3 -03427.9 -07.5017 26256.0
 13 04 2013  02 11  -21.0381 26031.1 -03427.8 -07.5016 26255.8
 13 04 2013  02 12  -21.0381 26031.4 -03428.0 -07.5019 26256.1
 13 04 2013  02 13  -21.0385 26030.8 -03427.8 -07.5016 26255.6
 13 04 2013  02 14  -21.0384 26030.8 -03427.7 -07.5015 26255.5
 13 04 2013  02 15  -21.0385 26030.7 -03427.7 -07.5015 26255.4
 13 04 2013  02 16  -21.0386 26030.5 -03427.6 -07.5014 26255.2
 13 04 2013  02 17  -21.0387 26030.2 -03427.5 -07.5012 26254.9
 13 04 2013  02 18  -21.0385 26030.4 -03427.6 -07.5013 26255.1
 13 04 2013  02 19  -21.0387 26030.0 -03427.5 -07.5012 26254.7
 13 04 2013  02 20  -21.0389 26030.1 -03427.5 -07.5013 26254.7
 13 04 2013  02 21  -21.0392 26030.2 -03427.6 -07.5014 26254.9
 13 04 2013  02 22  -21.0394 26030.0 -03427.6 -07.5016 26254.8
 13 04 2013  02 23  -21.0395 26030.1 -03427.7 -07.5016 26254.8
 13 04 2013  02 24  -21.0396 26030.1 -03427.7 -07.5016 26254.8
 13 04 2013  02 25  -21.0397 26029.9 -03427.7 -07.5016 26254.6
 13 04 2013  02 26  -21.0397 26029.9 -03427.7 -07.5016 26254.6
 13 04 2013  02 27  -21.0397 26029.8 -03427.6 -07.5016 26254.5
 13 04 2013  02 28  -21.0395 26030.0 -03427.8 -07.5018 26254.8
 13 04 2013  02 29  -21.0394 26030.2 -03427.8 -07.5019 26254.9
 13 04 2013  02 30  -21.0392 26030.4 -03428.0 -07.5021 26255.2
 13 04 2013  02 31  -21.0391 26030.5 -03428.0 -07.5023 26255.3
 13 04 2013  02 32  -21.0390 26030.7 -03428.2 -07.5025 26255.5
 13 04 2013  02 33  -21.0389 26030.7 -03428.2 -07.5025 26255.5
 13 04 2013  02 34  -21.0384 26031.2 -03428.4 -07.5028 26256.0
 13 04 2013  02 35  -21.0382 26031.5 -03428.6 -07.5032 26256.3
 13 04 2013  02 36  -21.0378 26031.8 -03428.7 -07.5033 26256.7
 13 04 2013  02 37  -21.0376 26032.3 -03428.9 -07.5037 26257.1
 13 04 2013  02 38  -21.0375 26032.4 -03429.0 -07.5038 26257.3
 13 04 2013  02 39  -21.0373 26032.7 -03429.2 -07.5041 26257.6
 13 04 2013  02 40  -21.0374 26032.7 -03429.2 -07.5041 26257.6
 13 04 2013  02 41  -21.0377 26032.8 -03429.2 -07.5041 26257.7
 13 04 2013  02 42  -21.0378 26032.7 -03429.1 -07.5039 26257.5
 13 04 2013  02 43  -21.0377 26032.8 -03429.1 -07.5039 26257.7
 13 04 2013  02 44  -21.0373 26032.8 -03429.1 -07.5038 26257.7
 13 04 2013  02 45  -21.0371 26032.8 -03429.0 -07.5038 26257.7
 13 04 2013  02 46  -21.0370 26033.0 -03429.1 -07.5038 26257.8
 13 04 2013  02 47  -21.0368 26033.0 -03429.1 -07.5038 26257.9
 13 04 2013  02 48  -21.0365 26032.9 -03429.0 -07.5037 26257.7
 13 04 2013  02 49  -21.0363 26032.8 -03429.0 -07.5036 26257.7
 13 04 2013  02 50  -21.0362 26032.7 -03428.9 -07.5035 26257.6
 13 04 2013  02 51  -21.0364 26032.5 -03428.8 -07.5034 26257.4
 13 04 2013  02 52  -21.0363 26032.5 -03428.8 -07.5034 26257.4
 13 04 2013  02 53  -21.0363 26032.6 -03428.9 -07.5035 26257.5
 13 04 2013  02 54  -21.0364 26032.6 -03428.9 -07.5035 26257.5
 13 04 2013  02 55  -21.0366 26032.8 -03429.0 -07.5037 26257.7
 13 04 2013  02 56  -21.0369 26032.9 -03429.0 -07.5037 26257.8
 13 04 2013  02 57  -21.0369 26033.1 -03429.1 -07.5038 26258.0
 13 04 2013  02 58  -21.0370 26033.2 -03429.1 -07.5038 26258.1
 13 04 2013  02 59  -21.0372 26033.3 -03429.1 -07.5039 26258.2
 13 04 2013  03 00  -21.0372 26033.4 -03429.2 -07.5039 26258.2
 13 04 2013  03 01  -21.0373 26033.4 -03429.1 -07.5038 26258.3
 13 04 2013  03 02  -21.0374 26033.5 -03429.2 -07.5039 26258.4
 13 04 2013  03 03  -21.0378 26033.6 -03429.2 -07.5038 26258.5
 13 04 2013  03 04  -21.0380 26033.5 -03429.1 -07.5037 26258.4
 13 04 2013  03 05  -21.0383 26033.2 -03428.9 -07.5033 26258.0
 13 04 2013  03 06  -21.0386 26033.1 -03428.8 -07.5031 26257.9
 13 04 2013  03 07  -21.0390 26033.0 -03428.6 -07.5029 26257.8
 13 04 2013  03 08  -21.0392 26033.1 -03428.6 -07.5028 26257.9
 13 04 2013  03 09  -21.0395 26032.9 -03428.5 -07.5026 26257.7
 13 04 2013  03 10  -21.0397 26032.8 -03428.4 -07.5025 26257.6
 13 04 2013  03 11  -21.0399 26032.6 -03428.3 -07.5023 26257.4
 13 04 2013  03 12  -21.0401 26032.5 -03428.2 -07.5020 26257.3
 13 04 2013  03 13  -21.0403 26032.4 -03428.1 -07.5019 26257.2
 13 04 2013  03 14  -21.0405 26032.3 -03428.1 -07.5018 26257.0
 13 04 2013  03 15  -21.0405 26032.2 -03428.0 -07.5017 26256.9
 13 04 2013  03 16  -21.0406 26032.0 -03427.9 -07.5015 26256.8
 13 04 2013  03 17  -21.0406 26032.0 -03427.9 -07.5015 26256.8
 13 04 2013  03 18  -21.0405 26031.9 -03427.8 -07.5015 26256.7
 13 04 2013  03 19  -21.0404 26031.9 -03427.8 -07.5013 26256.6
 13 04 2013  03 20  -21.0404 26031.7 -03427.7 -07.5013 26256.4
 13 04 2013  03 21  -21.0404 26031.6 -03427.7 -07.5012 26256.3
 13 04 2013  03 22  -21.0403 26031.5 -03427.7 -07.5012 26256.2
 13 04 2013  03 23  -21.0402 26031.4 -03427.6 -07.5011 26256.1
 13 04 2013  03 24  -21.0400 26031.3 -03427.6 -07.5011 26255.9
 13 04 2013  03 25  -21.0398 26031.2 -03427.6 -07.5010 26255.9
 13 04 2013  03 26  -21.0397 26031.1 -03427.5 -07.5010 26255.7
 13 04 2013  03 27  -21.0396 26030.9 -03427.5 -07.5010 26255.6
 13 04 2013  03 28  -21.0395 26030.8 -03427.5 -07.5010 26255.5
 13 04 2013  03 29  -21.0393 26030.7 -03427.5 -07.5009 26255.4
 13 04 2013  03 30  -21.0392 26030.4 -03427.3 -07.5008 26255.1
 13 04 2013  03 31  -21.0391 26030.4 -03427.3 -07.5008 26255.1
 13 04 2013  03 32  -21.0391 26030.3 -03427.3 -07.5008 26255.0
 13 04 2013  03 33  -21.0392 26030.4 -03427.4 -07.5010 26255.1
 13 04 2013  03 34  -21.0394 26030.1 -03427.4 -07.5009 26254.8
 13 04 2013  03 35  -21.0393 26030.3 -03427.5 -07.5012 26255.0
 13 04 2013  03 36  -21.0394 26030.1 -03427.4 -07.5011 26254.8
 13 04 2013  03 37  -21.0392 26030.1 -03427.4 -07.5011 26254.8
 13 04 2013  03 38  -21.0393 26030.0 -03427.4 -07.5011 26254.6
 13 04 2013  03 39  -21.0393 26029.9 -03427.4 -07.5011 26254.6
 13 04 2013  03 40  -21.0392 26029.9 -03427.5 -07.5012 26254.6
 13 04 2013  03 41  -21.0392 26029.8 -03427.4 -07.5010 26254.4
 13 04 2013  03 42  -21.0391 26030.1 -03427.6 -07.5014 26254.8
 13 04 2013  03 43  -21.0394 26029.7 -03427.5 -07.5012 26254.4
 13 04 2013  03 44  -21.0394 26029.8 -03427.5 -07.5014 26254.5
 13 04 2013  03 45  -21.0395 26029.6 -03427.5 -07.5013 26254.3
 13 04 2013  03 46  -21.0394 26029.8 -03427.6 -07.5014 26254.5
 13 04 2013  03 47  -21.0396 26029.6 -03427.5 -07.5014 26254.3
 13 04 2013  03 48  -21.0395 26029.7 -03427.6 -07.5015 26254.4
 13 04 2013  03 49  -21.0396 26029.5 -03427.5 -07.5015 26254.2
 13 04 2013  03 50  -21.0397 26029.5 -03427.6 -07.5015 26254.2
 13 04 2013  03 51  -21.0399 26029.3 -03427.5 -07.5015 26254.0
 13 04 2013  03 52  -21.0400 26029.7 -03427.7 -07.5018 26254.4
 13 04 2013  03 53  -21.0400 26029.9 -03427.9 -07.5021 26254.6
 13 04 2013  03 54  -21.0397 26029.6 -03427.7 -07.5019 26254.3
 13 04 2013  03 55  -21.0394 26029.8 -03427.8 -07.5020 26254.6
 13 04 2013  03 56  -21.0392 26029.4 -03427.7 -07.5018 26254.1
 13 04 2013  03 57  -21.0389 26029.7 -03427.8 -07.5021 26254.5
 13 04 2013  03 58  -21.0389 26029.5 -03427.8 -07.5021 26254.3
 13 04 2013  03 59  -21.0387 26029.9 -03428.0 -07.5024 26254.7
 13 04 2013  04 00  -21.0385 26029.6 -03427.9 -07.5023 26254.4
 13 04 2013  04 01  -21.0380 26030.0 -03428.1 -07.5026 26254.8
 13 04 2013  04 02  -21.0380 26029.9 -03428.1 -07.5027 26254.6
 13 04 2013  04 03  -21.0378 26030.3 -03428.4 -07.5030 26255.1
 13 04 2013  04 04  -21.0377 26030.5 -03428.5 -07.5032 26255.3
 13 04 2013  04 05  -21.0375 26031.1 -03428.8 -07.5038 26256.0
 13 04 2013  04 06  -21.0374 26031.0 -03428.8 -07.5039 26255.8
 13 04 2013  04 07  -21.0369 26031.5 -03429.0 -07.5041 26256.4
 13 04 2013  04 08  -21.0368 26031.4 -03429.0 -07.5041 26256.3
 13 04 2013  04 09  -21.0362 26032.1 -03429.3 -07.5045 26257.1
 13 04 2013  04 10  -21.0361 26032.0 -03429.3 -07.5046 26256.9
 13 04 2013  04 11  -21.0355 26032.7 -03429.5 -07.5049 26257.6
 13 04 2013  04 12  -21.0353 26032.7 -03429.6 -07.5051 26257.6
 13 04 2013  04 13  -21.0350 26033.4 -03429.9 -07.5056 26258.4
 13 04 2013  04 14  -21.0353 26033.3 -03429.9 -07.5056 26258.3
 13 04 2013  04 15  -21.0352 26033.9 -03430.1 -07.5059 26258.9
 13 04 2013  04 16  -21.0353 26033.8 -03430.1 -07.5058 26258.8
 13 04 2013  04 17  -21.0352 26034.0 -03430.2 -07.5059 26259.0
 13 04 2013  04 18  -21.0352 26033.6 -03430.0 -07.5056 26258.6
 13 04 2013  04 19  -21.0351 26033.8 -03430.0 -07.5056 26258.8
 13 04 2013  04 20  -21.0352 26033.8 -03430.0 -07.5056 26258.8
 13 04 2013  04 21  -21.0353 26034.0 -03430.1 -07.5057 26259.0
 13 04 2013  04 22  -21.0355 26033.9 -03430.1 -07.5057 26258.9
 13 04 2013  04 23  -21.0356 26033.9 -03430.1 -07.5057 26258.9
 13 04 2013  04 24  -21.0359 26034.0 -03430.1 -07.5057 26259.0
 13 04 2013  04 25  -21.0359 26034.1 -03430.1 -07.5058 26259.1
 13 04 2013  04 26  -21.0357 26034.3 -03430.2 -07.5058 26259.3
 13 04 2013  04 27  -21.0356 26034.2 -03430.1 -07.5057 26259.2
 13 04 2013  04 28  -21.0351 26034.3 -03430.1 -07.5057 26259.3
 13 04 2013  04 29  -21.0348 26034.4 -03430.2 -07.5058 26259.4
 13 04 2013  04 30  -21.0348 26034.8 -03430.4 -07.5061 26259.8
 13 04 2013  04 31  -21.0349 26034.9 -03430.4 -07.5062 26259.9
 13 04 2013  04 32  -21.0347 26035.2 -03430.5 -07.5063 26260.2
 13 04 2013  04 33  -21.0347 26035.5 -03430.6 -07.5065 26260.5
 13 04 2013  04 34  -21.0346 26035.9 -03430.8 -07.5068 26261.0
 13 04 2013  04 35  -21.0346 26036.3 -03431.0 -07.5070 26261.4
 13 04 2013  04 36  -21.0349 26036.3 -03431.0 -07.5071 26261.4
 13 04 2013  04 37  -21.0351 26036.7 -03431.1 -07.5071 26261.8
 13 04 2013  04 38  -21.0352 26036.9 -03431.2 -07.5072 26262.0
 13 04 2013  04 39  -21.0353 26037.3 -03431.3 -07.5073 26262.4
 13 04 2013  04 40  -21.0352 26037.7 -03431.4 -07.5075 26262.8
 13 04 2013  04 41  -21.0349 26038.0 -03431.5 -07.5077 26263.2
 13 04 2013  04 42  -21.0346 26038.3 -03431.5 -07.5076 26263.4
 13 04 2013  04 43  -21.0343 26038.6 -03431.6 -07.5076 26263.7
 13 04 2013  04 44  -21.0340 26039.0 -03431.7 -07.5078 26264.2
 13 04 2013  04 45  -21.0337 26039.3 -03431.8 -07.5079 26264.5
 13 04 2013  04 46  -21.0335 26039.5 -03431.8 -07.5079 26264.7
 13 04 2013  04 47  -21.0335 26039.6 -03431.8 -07.5078 26264.8
 13 04 2013  04 48  -21.0335 26039.7 -03431.8 -07.5077 26264.9
 13 04 2013  04 49  -21.0335 26039.7 -03431.7 -07.5076 26264.9
 13 04 2013  04 50  -21.0336 26039.8 -03431.7 -07.5075 26264.9
 13 04 2013  04 51  -21.0337 26039.8 -03431.7 -07.5075 26265.0
 13 04 2013  04 52  -21.0338 26040.0 -03431.7 -07.5075 26265.2
 13 04 2013  04 53  -21.0339 26040.2 -03431.8 -07.5076 26265.4
 13 04 2013  04 54  -21.0339 26040.5 -03431.9 -07.5077 26265.6
 13 04 2013  04 55  -21.0339 26040.6 -03431.9 -07.5077 26265.8
 13 04 2013  04 56  -21.0339 26040.5 -03431.8 -07.5075 26265.7
 13 04 2013  04 57  -21.0338 26040.8 -03431.8 -07.5075 26265.9
 13 04 2013  04 58  -21.0339 26040.8 -03431.8 -07.5075 26265.9
 13 04 2013  04 59  -21.0341 26041.0 -03431.8 -07.5075 26266.1
 13 04 2013  05 00  -21.0342 26040.9 -03431.8 -07.5074 26266.0
 13 04 2013  05 01  -21.0342 26040.9 -03431.7 -07.5072 26266.0
 13 04 2013  05 02  -21.0342 26040.9 -03431.7 -07.5071 26266.0
 13 04 2013  05 03  -21.0343 26040.8 -03431.6 -07.5070 26265.9
 13 04 2013  05 04  -21.0343 26040.9 -03431.6 -07.5070 26266.0
 13 04 2013  05 05  -21.0344 26040.9 -03431.6 -07.5070 26266.0
 13 04 2013  05 06  -21.0343 26041.0 -03431.6 -07.5070 26266.1
 13 04 2013  05 07  -21.0341 26041.0 -03431.6 -07.5069 26266.1
 13 04 2013  05 08  -21.0339 26040.8 -03431.5 -07.5068 26266.0
 13 04 2013  05 09  -21.0336 26040.8 -03431.4 -07.5067 26265.9
 13 04 2013  05 10  -21.0333 26040.8 -03431.4 -07.5066 26265.9
 13 04 2013  05 11  -21.0331 26040.7 -03431.4 -07.5066 26265.8
 13 04 2013  05 12  -21.0328 26040.6 -03431.4 -07.5066 26265.7
 13 04 2013  05 13  -21.0326 26040.5 -03431.3 -07.5065 26265.6
 13 04 2013  05 14  -21.0324 26040.5 -03431.3 -07.5065 26265.6
 13 04 2013  05 15  -21.0324 26040.3 -03431.3 -07.5065 26265.4
 13 04 2013  05 16  -21.0323 26040.4 -03431.3 -07.5066 26265.5
 13 04 2013  05 17  -21.0321 26040.2 -03431.3 -07.5065 26265.3
 13 04 2013  05 18  -21.0319 26040.2 -03431.3 -07.5066 26265.3
 13 04 2013  05 19  -21.0315 26040.0 -03431.2 -07.5064 26265.1
 13 04 2013  05 20  -21.0313 26040.0 -03431.3 -07.5065 26265.1
 13 04 2013  05 21  -21.0310 26040.0 -03431.3 -07.5066 26265.1
 13 04 2013  05 22  -21.0308 26040.1 -03431.4 -07.5068 26265.2
 13 04 2013  05 23  -21.0309 26040.0 -03431.4 -07.5069 26265.1
 13 04 2013  05 24  -21.0308 26040.1 -03431.5 -07.5070 26265.2
 13 04 2013  05 25  -21.0307 26040.3 -03431.7 -07.5073 26265.5
 13 04 2013  05 26  -21.0307 26040.3 -03431.7 -07.5074 26265.4
 13 04 2013  05 27  -21.0306 26040.2 -03431.7 -07.5074 26265.4
 13 04 2013  05 28  -21.0304 26040.1 -03431.6 -07.5073 26265.3
 13 04 2013  05 29  -21.0304 26040.0 -03431.6 -07.5072 26265.1
 13 04 2013  05 30  -21.0304 26040.0 -03431.6 -07.5073 26265.1
 13 04 2013  05 31  -21.0304 26039.9 -03431.6 -07.5072 26265.1
 13 04 2013  05 32  -21.0304 26040.1 -03431.7 -07.5075 26265.2
 13 04 2013  05 33  -21.0305 26040.1 -03431.8 -07.5076 26265.3
 13 04 2013  05 34  -21.0305 26040.2 -03431.8 -07.5077 26265.3
 13 04 2013  05 35  -21.0304 26040.0 -03431.7 -07.5076 26265.2
 13 04 2013  05 36  -21.0306 26040.0 -03431.7 -07.5076 26265.1
 13 04 2013  05 37  -21.0306 26040.0 -03431.7 -07.5076 26265.2
 13 04 2013  05 38  -21.0307 26040.1 -03431.8 -07.5077 26265.2
 13 04 2013  05 39  -21.0305 26040.1 -03431.8 -07.5077 26265.3
 13 04 2013  05 40  -21.0303 26040.2 -03431.8 -07.5077 26265.3
 13 04 2013  05 41  -21.0301 26040.1 -03431.8 -07.5077 26265.3
 13 04 2013  05 42  -21.0300 26040.0 -03431.8 -07.5077 26265.2
 13 04 2013  05 43  -21.0300 26040.0 -03431.8 -07.5077 26265.1
 13 04 2013  05 44  -21.0300 26039.9 -03431.7 -07.5076 26265.0
 13 04 2013  05 45  -21.0299 26040.0 -03431.8 -07.5078 26265.1
 13 04 2013  05 46  -21.0299 26040.0 -03431.8 -07.5078 26265.2
 13 04 2013  05 47  -21.0297 26040.0 -03431.8 -07.5078 26265.1
 13 04 2013  05 48  -21.0297 26039.8 -03431.8 -07.5077 26265.0
 13 04 2013  05 49  -21.0296 26039.8 -03431.8 -07.5077 26265.0
 13 04 2013  05 50  -21.0296 26039.9 -03431.8 -07.5078 26265.0
 13 04 2013  05 51  -21.0298 26039.8 -03431.9 -07.5079 26265.0
 13 04 2013  05 52  -21.0299 26039.8 -03431.9 -07.5079 26265.0
 13 04 2013  05 53  -21.0300 26039.6 -03431.8 -07.5077 26264.8
 13 04 2013  05 54  -21.0300 26039.6 -03431.8 -07.5078 26264.7
 13 04 2013  05 55  -21.0299 26039.5 -03431.7 -07.5077 26264.7
 13 04 2013  05 56  -21.0298 26039.5 -03431.8 -07.5078 26264.7
 13 04 2013  05 57  -21.0296 26039.5 -03431.8 -07.5078 26264.7
 13 04 2013  05 58  -21.0296 26039.4 -03431.8 -07.5078 26264.6
 13 04 2013  05 59  -21.0296 26039.5 -03431.8 -07.5079 26264.7
 13 04 2013  06 00  -21.0294 26039.6 -03431.9 -07.5080 26264.8
 13 04 2013  06 01  -21.0293 26039.6 -03431.9 -07.5080 26264.8
 13 04 2013  06 02  -21.0291 26039.5 -03431.9 -07.5080 26264.7
 13 04 2013  06 03  -21.0287 26039.4 -03431.8 -07.5079 26264.6
 13 04 2013  06 04  -21.0285 26039.3 -03431.8 -07.5079 26264.5
 13 04 2013  06 05  -21.0282 26039.4 -03431.9 -07.5081 26264.6
 13 04 2013  06 06  -21.0281 26039.4 -03431.9 -07.5081 26264.6
 13 04 2013  06 07  -21.0279 26039.4 -03431.9 -07.5082 26264.6
 13 04 2013  06 08  -21.0277 26039.4 -03432.0 -07.5082 26264.6
 13 04 2013  06 09  -21.0275 26039.5 -03432.0 -07.5083 26264.7
 13 04 2013  06 10  -21.0274 26039.5 -03432.1 -07.5084 26264.7
 13 04 2013  06 11  -21.0271 26039.4 -03432.0 -07.5084 26264.6
 13 04 2013  06 12  -21.0270 26039.4 -03432.0 -07.5084 26264.6
 13 04 2013  06 13  -21.0270 26039.3 -03432.0 -07.5084 26264.5
 13 04 2013  06 14  -21.0273 26039.4 -03432.1 -07.5086 26264.6
 13 04 2013  06 15  -21.0276 26039.3 -03432.1 -07.5086 26264.6
 13 04 2013  06 16  -21.0281 26039.2 -03432.1 -07.5085 26264.4
 13 04 2013  06 17  -21.0285 26039.1 -03432.0 -07.5084 26264.3
 13 04 2013  06 18  -21.0289 26039.0 -03431.9 -07.5083 26264.2
 13 04 2013  06 19  -21.0293 26038.9 -03431.9 -07.5082 26264.1
 13 04 2013  06 20  -21.0297 26038.8 -03431.9 -07.5082 26264.0
 13 04 2013  06 21  -21.0301 26038.9 -03431.8 -07.5081 26264.0
 13 04 2013  06 22  -21.0304 26038.8 -03431.8 -07.5082 26263.9
 13 04 2013  06 23  -21.0306 26038.8 -03431.8 -07.5081 26263.9
 13 04 2013  06 24  -21.0309 26038.7 -03431.7 -07.5080 26263.8
 13 04 2013  06 25  -21.0312 26038.6 -03431.7 -07.5079 26263.7
 13 04 2013  06 26  -21.0312 26038.4 -03431.6 -07.5078 26263.6
 13 04 2013  06 27  -21.0313 26038.5 -03431.6 -07.5077 26263.6
 13 04 2013  06 28  -21.0315 26038.3 -03431.5 -07.5076 26263.5
 13 04 2013  06 29  -21.0313 26038.4 -03431.5 -07.5076 26263.6
 13 04 2013  06 30  -21.0314 26038.4 -03431.6 -07.5077 26263.6
 13 04 2013  06 31  -21.0313 26038.4 -03431.6 -07.5076 26263.5
 13 04 2013  06 32  -21.0314 26038.4 -03431.6 -07.5077 26263.5
 13 04 2013  06 33  -21.0315 26038.4 -03431.6 -07.5077 26263.5
 13 04 2013  06 34  -21.0317 26038.5 -03431.6 -07.5078 26263.6
 13 04 2013  06 35  -21.0319 26038.6 -03431.7 -07.5079 26263.7
 13 04 2013  06 36  -21.0323 26038.7 -03431.8 -07.5081 26263.9
 13 04 2013  06 37  -21.0325 26038.8 -03431.9 -07.5082 26264.0
 13 04 2013  06 38  -21.0325 26038.9 -03431.9 -07.5082 26264.1
 13 04 2013  06 39  -21.0323 26038.8 -03431.9 -07.5082 26263.9
 13 04 2013  06 40  -21.0319 26038.8 -03431.9 -07.5082 26264.0
 13 04 2013  06 41  -21.0316 26038.9 -03431.9 -07.5083 26264.1
 13 04 2013  06 42  -21.0314 26038.8 -03431.9 -07.5082 26264.0
 13 04 2013  06 43  -21.0313 26038.8 -03431.9 -07.5083 26264.0
 13 04 2013  06 44  -21.0313 26038.7 -03431.9 -07.5083 26263.9
 13 04 2013  06 45  -21.0313 26038.7 -03431.9 -07.5083 26263.9
 13 04 2013  06 46  -21.0312 26038.6 -03431.9 -07.5082 26263.8
 13 04 2013  06 47  -21.0312 26038.7 -03431.9 -07.5083 26263.9
 13 04 2013  06 48  -21.0312 26038.6 -03431.9 -07.5083 26263.8
 13 04 2013  06 49  -21.0312 26038.6 -03431.9 -07.5083 26263.8
 13 04 2013  06 50  -21.0313 26038.6 -03431.9 -07.5084 26263.8
 13 04 2013  06 51  -21.0313 26038.6 -03431.9 -07.5084 26263.8
 13 04 2013  06 52  -21.0314 26038.5 -03431.9 -07.5083 26263.7
 13 04 2013  06 53  -21.0312 26038.4 -03431.9 -07.5083 26263.6
 13 04 2013  06 54  -21.0311 26038.3 -03431.8 -07.5082 26263.5
 13 04 2013  06 55  -21.0309 26038.2 -03431.8 -07.5081 26263.4
 13 04 2013  06 56  -21.0307 26038.2 -03431.8 -07.5081 26263.4
 13 04 2013  06 57  -21.0305 26038.2 -03431.7 -07.5081 26263.3
 13 04 2013  06 58  -21.0304 26038.1 -03431.8 -07.5082 26263.3
 13 04 2013  06 59  -21.0303 26038.1 -03431.8 -07.5082 26263.3
 13 04 2013  07 00  -21.0302 26038.0 -03431.8 -07.5082 26263.2
 13 04 2013  07 01  -21.0302 26038.0 -03431.8 -07.5083 26263.2
 13 04 2013  07 02  -21.0302 26037.9 -03431.8 -07.5083 26263.1
 13 04 2013  07 03  -21.0302 26037.9 -03431.8 -07.5084 26263.1
 13 04 2013  07 04  -21.0303 26038.0 -03431.9 -07.5085 26263.2
 13 04 2013  07 05  -21.0304 26038.0 -03432.0 -07.5086 26263.2
 13 04 2013  07 06  -21.0306 26038.1 -03432.0 -07.5087 26263.3
 13 04 2013  07 07  -21.0307 26038.2 -03432.1 -07.5088 26263.4
 13 04 2013  07 08  -21.0307 26038.2 -03432.1 -07.5088 26263.4
 13 04 2013  07 09  -21.0307 26038.2 -03432.1 -07.5088 26263.4
 13 04 2013  07 10  -21.0307 26038.1 -03432.1 -07.5088 26263.4
 13 04 2013  07 11  -21.0306 26038.1 -03432.1 -07.5088 26263.3
 13 04 2013  07 12  -21.0306 26038.3 -03432.2 -07.5090 26263.5
 13 04 2013  07 13  -21.0307 26038.3 -03432.2 -07.5090 26263.5
 13 04 2013  07 14  -21.0308 26038.4 -03432.2 -07.5091 26263.6
 13 04 2013  07 15  -21.0309 26038.5 -03432.3 -07.5092 26263.7
 13 04 2013  07 16  -21.0310 26038.6 -03432.3 -07.5092 26263.8
 13 04 2013  07 17  -21.0309 26038.6 -03432.3 -07.5092 26263.8
 13 04 2013  07 18  -21.0308 26038.6 -03432.3 -07.5092 26263.8
 13 04 2013  07 19  -21.0308 26038.6 -03432.3 -07.5092 26263.8
 13 04 2013  07 20  -21.0308 26038.6 -03432.3 -07.5092 26263.8
 13 04 2013  07 21  -21.0308 26038.5 -03432.3 -07.5091 26263.8
 13 04 2013  07 22  -21.0308 26038.6 -03432.3 -07.5091 26263.8
 13 04 2013  07 23  -21.0309 26038.6 -03432.3 -07.5091 26263.8
 13 04 2013  07 24  -21.0310 26038.5 -03432.3 -07.5091 26263.8
 13 04 2013  07 25  -21.0311 26038.5 -03432.3 -07.5091 26263.8
 13 04 2013  07 26  -21.0313 26038.6 -03432.3 -07.5091 26263.8
 13 04 2013  07 27  -21.0314 26038.6 -03432.3 -07.5091 26263.8
 13 04 2013  07 28  -21.0314 26038.6 -03432.3 -07.5092 26263.9
 13 04 2013  07 29  -21.0315 26038.6 -03432.3 -07.5091 26263.9
 13 04 2013  07 30  -21.0315 26038.5 -03432.2 -07.5091 26263.8
 13 04 2013  07 31  -21.0317 26038.5 -03432.2 -07.5091 26263.7
 13 04 2013  07 32  -21.0318 26038.5 -03432.2 -07.5091 26263.7
 13 04 2013  07 33  -21.0318 26038.4 -03432.2 -07.5090 26263.6
 13 04 2013  07 34  -21.0318 26038.3 -03432.2 -07.5090 26263.6
 13 04 2013  07 35  -21.0318 26038.2 -03432.1 -07.5090 26263.5
 13 04 2013  07 36  -21.0317 26038.2 -03432.1 -07.5090 26263.4
 13 04 2013  07 37  -21.0315 26038.1 -03432.1 -07.5089 26263.3
 13 04 2013  07 38  -21.0313 26038.0 -03432.1 -07.5088 26263.2
 13 04 2013  07 39  -21.0311 26037.9 -03432.0 -07.5088 26263.1
 13 04 2013  07 40  -21.0308 26037.8 -03432.0 -07.5088 26263.0
 13 04 2013  07 41  -21.0307 26037.6 -03431.9 -07.5086 26262.8
 13 04 2013  07 42  -21.0307 26037.7 -03432.0 -07.5088 26262.9
 13 04 2013  07 43  -21.0309 26037.6 -03432.1 -07.5090 26262.9
 13 04 2013  07 44  -21.0313 26037.7 -03432.2 -07.5093 26262.9
 13 04 2013  07 45  -21.0315 26037.8 -03432.4 -07.5096 26263.1
 13 04 2013  07 46  -21.0317 26037.9 -03432.5 -07.5097 26263.2
 13 04 2013  07 47  -21.0318 26038.1 -03432.5 -07.5099 26263.3
 13 04 2013  07 48  -21.0318 26038.0 -03432.6 -07.5099 26263.3
 13 04 2013  07 49  -21.0318 26037.8 -03432.5 -07.5098 26263.1
 13 04 2013  07 50  -21.0317 26037.8 -03432.5 -07.5098 26263.1
 13 04 2013  07 51  -21.0316 26037.7 -03432.5 -07.5098 26263.0
 13 04 2013  07 52  -21.0315 26037.7 -03432.5 -07.5098 26263.0
 13 04 2013  07 53  -21.0314 26037.7 -03432.5 -07.5098 26263.0
 13 04 2013  07 54  -21.0314 26037.7 -03432.5 -07.5098 26262.9
 13 04 2013  07 55  -21.0314 26037.7 -03432.5 -07.5099 26263.0
 13 04 2013  07 56  -21.0316 26037.7 -03432.6 -07.5100 26263.0
 13 04 2013  07 57  -21.0318 26037.8 -03432.6 -07.5100 26263.1
 13 04 2013  07 58  -21.0319 26037.9 -03432.7 -07.5102 26263.2
 13 04 2013  07 59  -21.0320 26037.9 -03432.7 -07.5103 26263.2
 13 04 2013  08 00  -21.0320 26038.1 -03432.8 -07.5105 26263.4
 13 04 2013  08 01  -21.0321 26038.2 -03432.9 -07.5105 26263.5
 13 04 2013  08 02  -21.0320 26038.2 -03432.9 -07.5105 26263.5
 13 04 2013  08 03  -21.0319 26038.4 -03432.9 -07.5106 26263.7
 13 04 2013  08 04  -21.0318 26038.3 -03432.9 -07.5105 26263.7
 13 04 2013  08 05  -21.0317 26038.3 -03432.8 -07.5104 26263.6
 13 04 2013  08 06  -21.0317 26038.3 -03432.8 -07.5104 26263.6
 13 04 2013  08 07  -21.0317 26038.2 -03432.8 -07.5104 26263.5
 13 04 2013  08 08  -21.0317 26038.1 -03432.8 -07.5103 26263.4
 13 04 2013  08 09  -21.0318 26038.1 -03432.7 -07.5102 26263.4
 13 04 2013  08 10  -21.0320 26038.1 -03432.7 -07.5103 26263.4
 13 04 2013  08 11  -21.0322 26038.0 -03432.7 -07.5103 26263.3
 13 04 2013  08 12  -21.0323 26038.0 -03432.7 -07.5103 26263.3
 13 04 2013  08 13  -21.0323 26037.9 -03432.7 -07.5103 26263.2
 13 04 2013  08 14  -21.0324 26037.9 -03432.8 -07.5104 26263.2
 13 04 2013  08 15  -21.0325 26037.9 -03432.8 -07.5105 26263.2
 13 04 2013  08 16  -21.0328 26037.9 -03432.9 -07.5106 26263.3
 13 04 2013  08 17  -21.0330 26038.0 -03433.0 -07.5108 26263.4
 13 04 2013  08 18  -21.0331 26038.2 -03433.1 -07.5109 26263.5
 13 04 2013  08 19  -21.0331 26038.1 -03433.0 -07.5109 26263.4
 13 04 2013  08 20  -21.0331 26038.0 -03433.0 -07.5109 26263.3
 13 04 2013  08 21  -21.0330 26037.9 -03433.0 -07.5108 26263.3
 13 04 2013  08 22  -21.0330 26038.1 -03433.0 -07.5109 26263.4
 13 04 2013  08 23  -21.0330 26037.9 -03432.9 -07.5108 26263.2
 13 04 2013  08 24  -21.0331 26037.8 -03432.9 -07.5108 26263.1
 13 04 2013  08 25  -21.0333 26037.8 -03433.0 -07.5110 26263.2
 13 04 2013  08 26  -21.0333 26037.7 -03433.0 -07.5109 26263.0
 13 04 2013  08 27  -21.0334 26037.7 -03433.0 -07.5110 26263.0
 13 04 2013  08 28  -21.0337 26037.8 -03433.1 -07.5112 26263.2
 13 04 2013  08 29  -21.0338 26038.0 -03433.2 -07.5114 26263.3
 13 04 2013  08 30  -21.0340 26038.0 -03433.3 -07.5114 26263.4
 13 04 2013  08 31  -21.0343 26037.9 -03433.2 -07.5114 26263.2
 13 04 2013  08 32  -21.0344 26037.8 -03433.2 -07.5114 26263.2
 13 04 2013  08 33  -21.0344 26037.8 -03433.2 -07.5114 26263.1
 13 04 2013  08 34  -21.0346 26037.8 -03433.2 -07.5113 26263.1
 13 04 2013  08 35  -21.0346 26037.7 -03433.1 -07.5113 26263.0
 13 04 2013  08 36  -21.0347 26037.6 -03433.1 -07.5111 26263.0
 13 04 2013  08 37  -21.0348 26037.6 -03433.0 -07.5110 26262.9
 13 04 2013  08 38  -21.0351 26037.6 -03433.0 -07.5110 26263.0
 13 04 2013  08 39  -21.0350 26037.6 -03432.9 -07.5108 26262.9
 13 04 2013  08 40  -21.0352 26037.6 -03433.0 -07.5109 26262.9
 13 04 2013  08 41  -21.0353 26037.7 -03433.0 -07.5110 26263.1
 13 04 2013  08 42  -21.0351 26037.6 -03433.0 -07.5109 26262.9
 13 04 2013  08 43  -21.0348 26037.5 -03432.9 -07.5107 26262.8
 13 04 2013  08 44  -21.0348 26037.4 -03432.8 -07.5107 26262.7
 13 04 2013  08 45  -21.0345 26037.2 -03432.8 -07.5106 26262.6
 13 04 2013  08 46  -21.0344 26037.2 -03432.7 -07.5105 26262.5
 13 04 2013  08 47  -21.0341 26037.0 -03432.6 -07.5104 26262.3
 13 04 2013  08 48  -21.0341 26037.0 -03432.8 -07.5106 26262.3
 13 04 2013  08 49  -21.0343 26036.8 -03432.8 -07.5107 26262.1
 13 04 2013  08 50  -21.0341 26036.9 -03432.9 -07.5109 26262.2
 13 04 2013  08 51  -21.0338 26036.8 -03432.9 -07.5110 26262.1
 13 04 2013  08 52  -21.0339 26036.9 -03433.0 -07.5112 26262.3
 13 04 2013  08 53  -21.0340 26036.8 -03433.1 -07.5113 26262.2
 13 04 2013  08 54  -21.0339 26036.8 -03433.1 -07.5114 26262.2
 13 04 2013  08 55  -21.0343 26036.8 -03433.2 -07.5116 26262.2
 13 04 2013  08 56  -21.0346 26036.8 -03433.3 -07.5118 26262.1
 13 04 2013  08 57  -21.0349 26036.8 -03433.3 -07.5119 26262.2
 13 04 2013  08 58  -21.0350 26036.7 -03433.2 -07.5117 26262.0
 13 04 2013  08 59  -21.0353 26036.8 -03433.3 -07.5119 26262.2
 13 04 2013  09 00  -21.0356 26036.7 -03433.4 -07.5121 26262.1
 13 04 2013  09 01  -21.0357 26036.8 -03433.5 -07.5123 26262.2
 13 04 2013  09 02  -21.0361 26036.7 -03433.5 -07.5123 26262.1
 13 04 2013  09 03  -21.0363 26036.6 -03433.5 -07.5123 26262.0
 13 04 2013  09 04  -21.0359 26036.6 -03433.5 -07.5123 26262.0
 13 04 2013  09 05  -21.0359 26036.7 -03433.5 -07.5123 26262.1
 13 04 2013  09 06  -21.0358 26036.9 -03433.6 -07.5126 26262.3
 13 04 2013  09 07  -21.0361 26037.1 -03433.7 -07.5127 26262.5
 13 04 2013  09 08  -21.0363 26037.1 -03433.8 -07.5129 26262.6
 13 04 2013  09 09  -21.0367 26037.1 -03433.9 -07.5130 26262.6
 13 04 2013  09 10  -21.0368 26037.3 -03434.0 -07.5132 26262.8
 13 04 2013  09 11  -21.0366 26037.1 -03433.8 -07.5130 26262.5
 13 04 2013  09 12  -21.0364 26036.8 -03433.8 -07.5129 26262.3
 13 04 2013  09 13  -21.0357 26036.6 -03433.7 -07.5127 26262.0
 13 04 2013  09 14  -21.0356 26036.3 -03433.5 -07.5125 26261.7
 13 04 2013  09 15  -21.0362 26036.2 -03433.6 -07.5127 26261.6
 13 04 2013  09 16  -21.0364 26036.1 -03433.6 -07.5128 26261.5
 13 04 2013  09 17  -21.0372 26036.0 -03433.7 -07.5130 26261.5
 13 04 2013  09 18  -21.0378 26036.4 -03434.0 -07.5135 26261.8
 13 04 2013  09 19  -21.0385 26036.3 -03434.1 -07.5137 26261.8
 13 04 2013  09 20  -21.0388 26036.3 -03434.1 -07.5137 26261.8
 13 04 2013  09 21  -21.0384 26036.4 -03434.1 -07.5137 26261.9
 13 04 2013  09 22  -21.0385 26036.5 -03434.1 -07.5137 26262.0
 13 04 2013  09 23  -21.0386 26036.5 -03434.1 -07.5137 26262.0
 13 04 2013  09 24  -21.0383 26036.4 -03434.1 -07.5137 26261.9
 13 04 2013  09 25  -21.0385 26036.4 -03434.0 -07.5136 26261.9
 13 04 2013  09 26  -21.0391 26036.4 -03434.1 -07.5137 26261.9
 13 04 2013  09 27  -21.0393 26036.4 -03434.1 -07.5137 26261.9
 13 04 2013  09 28  -21.0401 26036.6 -03434.2 -07.5139 26262.1
 13 04 2013  09 29  -21.0407 26036.4 -03434.2 -07.5139 26261.9
 13 04 2013  09 30  -21.0412 26036.3 -03434.2 -07.5139 26261.8
 13 04 2013  09 31  -21.0418 26036.3 -03434.3 -07.5141 26261.9
 13 04 2013  09 32  -21.0422 26036.1 -03434.2 -07.5140 26261.6
 13 04 2013  09 33  -21.0430 26036.3 -03434.4 -07.5143 26261.8
 13 04 2013  09 34  -21.0421 26036.5 -03434.4 -07.5144 26262.0
 13 04 2013  09 35  -21.0422 26036.3 -03434.3 -07.5142 26261.8
 13 04 2013  09 36  -21.0421 26036.6 -03434.4 -07.5144 26262.1
 13 04 2013  09 37  -21.0426 26036.7 -03434.5 -07.5145 26262.3
 13 04 2013  09 38  -21.0428 26037.0 -03434.6 -07.5147 26262.5
 13 04 2013  09 39  -21.0425 26036.9 -03434.5 -07.5144 26262.4
 13 04 2013  09 40  -21.0426 26037.2 -03434.6 -07.5146 26262.7
 13 04 2013  09 41  -21.0423 26037.0 -03434.5 -07.5144 26262.6
 13 04 2013  09 42  -21.0425 26036.9 -03434.4 -07.5143 26262.5
 13 04 2013  09 43  -21.0429 26037.1 -03434.4 -07.5142 26262.6
 13 04 2013  09 44  -21.0438 26037.4 -03434.6 -07.5145 26262.9
 13 04 2013  09 45  -21.0453 26037.4 -03434.6 -07.5146 26262.9
 13 04 2013  09 46  -21.0467 26037.4 -03434.7 -07.5147 26263.0
 13 04 2013  09 47  -21.0474 26037.5 -03434.7 -07.5147 26263.0
 13 04 2013  09 48  -21.0474 26037.9 -03434.7 -07.5145 26263.4
 13 04 2013  09 49  -21.0475 26037.8 -03434.5 -07.5143 26263.3
 13 04 2013  09 50  -21.0475 26037.7 -03434.5 -07.5141 26263.2
 13 04 2013  09 51  -21.0490 26037.7 -03434.5 -07.5142 26263.2
 13 04 2013  09 52  -21.0499 26038.2 -03434.7 -07.5146 26263.7
 13 04 2013  09 53  -21.0501 26038.0 -03434.6 -07.5143 26263.6
 13 04 2013  09 54  -21.0514 26038.0 -03434.6 -07.5144 26263.6
 13 04 2013  09 55  -21.0513 26038.3 -03434.7 -07.5145 26263.9
 13 04 2013  09 56  -21.0520 26038.5 -03434.8 -07.5146 26264.0
 13 04 2013  09 57  -21.0527 26038.5 -03434.8 -07.5146 26264.1
 13 04 2013  09 58  -21.0527 26038.8 -03434.7 -07.5144 26264.3
 13 04 2013  09 59  -21.0537 26038.9 -03434.7 -07.5143 26264.5
 13 04 2013  10 00  -21.0541 26039.4 -03434.8 -07.5143 26265.0
 13 04 2013  10 01  -21.0538 26039.6 -03434.6 -07.5139 26265.1
 13 04 2013  10 02  -21.0544 26039.7 -03434.4 -07.5134 26265.2
 13 04 2013  10 03  -21.0553 26039.9 -03434.3 -07.5132 26265.4
 13 04 2013  10 04  -21.0561 26040.2 -03434.4 -07.5133 26265.7
 13 04 2013  10 05  -21.0572 26040.2 -03434.4 -07.5132 26265.7
 13 04 2013  10 06  -21.0573 26040.5 -03434.5 -07.5133 26266.0
 13 04 2013  10 07  -21.0565 26040.6 -03434.3 -07.5130 26266.1
 13 04 2013  10 08  -21.0561 26041.0 -03434.3 -07.5129 26266.4
 13 04 2013  10 09  -21.0571 26041.4 -03434.4 -07.5130 26266.9
 13 04 2013  10 10  -21.0579 26041.8 -03434.4 -07.5129 26267.3
 13 04 2013  10 11  -21.0579 26042.4 -03434.4 -07.5127 26267.9
 13 04 2013  10 12  -21.0575 26042.7 -03434.2 -07.5122 26268.1
 13 04 2013  10 13  -21.0574 26043.0 -03434.1 -07.5119 26268.5
 13 04 2013  10 14  -21.0582 26043.3 -03434.0 -07.5116 26268.8
 13 04 2013  10 15  -21.0604 26043.7 -03434.0 -07.5115 26269.1
 13 04 2013  10 16  -21.0621 26043.8 -03433.9 -07.5111 26269.2
 13 04 2013  10 17  -21.0634 26044.1 -03433.8 -07.5109 26269.4
 13 04 2013  10 18  -21.0633 26044.7 -03433.7 -07.5105 26270.1
 13 04 2013  10 19  -21.0619 26045.0 -03433.4 -07.5098 26270.3
 13 04 2013  10 20  -21.0611 26045.1 -03433.0 -07.5089 26270.4
 13 04 2013  10 21  -21.0616 26045.1 -03432.7 -07.5082 26270.3
 13 04 2013  10 22  -21.0611 26045.5 -03432.6 -07.5078 26270.7
 13 04 2013  10 23  -21.0595 26045.8 -03432.3 -07.5072 26271.0
 13 04 2013  10 24  -21.0613 26045.9 -03432.2 -07.5069 26271.0
 13 04 2013  10 25  -21.0655 26046.1 -03432.3 -07.5071 26271.2
 13 04 2013  10 26  -21.0691 26046.4 -03432.5 -07.5074 26271.6
 13 04 2013  10 27  -21.0708 26046.7 -03432.5 -07.5073 26271.9
 13 04 2013  10 28  -21.0718 26047.0 -03432.5 -07.5072 26272.2
 13 04 2013  10 29  -21.0711 26047.3 -03432.4 -07.5069 26272.5
 13 04 2013  10 30  -21.0698 26047.7 -03432.3 -07.5065 26272.8
 13 04 2013  10 31  -21.0681 26048.1 -03432.1 -07.5060 26273.2
 13 04 2013  10 32  -21.0684 26048.0 -03431.8 -07.5054 26273.1
 13 04 2013  10 33  -21.0690 26048.3 -03431.8 -07.5053 26273.4
 13 04 2013  10 34  -21.0703 26048.7 -03431.8 -07.5052 26273.8
 13 04 2013  10 35  -21.0716 26049.1 -03431.7 -07.5049 26274.1
 13 04 2013  10 36  -21.0734 26049.5 -03431.8 -07.5050 26274.6
 13 04 2013  10 37  -21.0753 26049.7 -03431.8 -07.5050 26274.7
 13 04 2013  10 38  -21.0760 26050.2 -03431.9 -07.5050 26275.3
 13 04 2013  10 39  -21.0763 26050.3 -03431.7 -07.5046 26275.4
 13 04 2013  10 40  -21.0774 26050.4 -03431.6 -07.5044 26275.4
 13 04 2013  10 41  -21.0773 26050.9 -03431.6 -07.5043 26275.9
 13 04 2013  10 42  -21.0773 26051.1 -03431.6 -07.5040 26276.2
 13 04 2013  10 43  -21.0773 26051.2 -03431.4 -07.5036 26276.2
 13 04 2013  10 44  -21.0776 26051.3 -03431.2 -07.5033 26276.2
 13 04 2013  10 45  -21.0785 26051.4 -03431.1 -07.5030 26276.3
 13 04 2013  10 46  -21.0794 26051.6 -03431.1 -07.5028 26276.6
 13 04 2013  10 47  -21.0804 26051.8 -03431.0 -07.5025 26276.7
 13 04 2013  10 48  -21.0808 26051.9 -03430.8 -07.5021 26276.8
 13 04 2013  10 49  -21.0807 26052.1 -03430.6 -07.5018 26277.0
 13 04 2013  10 50  -21.0808 26052.4 -03430.5 -07.5014 26277.3
 13 04 2013  10 51  -21.0812 26052.7 -03430.4 -07.5011 26277.5
 13 04 2013  10 52  -21.0823 26053.0 -03430.4 -07.5009 26277.8
 13 04 2013  10 53  -21.0828 26053.6 -03430.4 -07.5008 26278.4
 13 04 2013  10 54  -21.0832 26054.1 -03430.3 -07.5005 26278.9
 13 04 2013  10 55  -21.0836 26054.7 -03430.3 -07.5002 26279.5
 13 04 2013  10 56  -21.0843 26055.1 -03430.1 -07.4997 26279.9
 13 04 2013  10 57  -21.0849 26055.5 -03430.0 -07.4993 26280.3
 13 04 2013  10 58  -21.0847 26056.1 -03429.8 -07.4989 26280.9
 13 04 2013  10 59  -21.0839 26056.6 -03429.6 -07.4983 26281.4
 13 04 2013  11 00  -21.0844 26056.9 -03429.4 -07.4977 26281.6
 13 04 2013  11 01  -21.0854 26057.1 -03429.2 -07.4972 26281.8
 13 04 2013  11 02  -21.0861 26057.6 -03429.1 -07.4968 26282.3
 13 04 2013  11 03  -21.0864 26058.2 -03429.0 -07.4964 26282.8
 13 04 2013  11 04  -21.0872 26058.5 -03428.8 -07.4959 26283.2
 13 04 2013  11 05  -21.0879 26059.1 -03428.6 -07.4954 26283.7
 13 04 2013  11 06  -21.0885 26059.5 -03428.4 -07.4947 26284.0
 13 04 2013  11 07  -21.0887 26060.0 -03428.1 -07.4941 26284.5
 13 04 2013  11 08  -21.0887 26060.5 -03427.9 -07.4935 26285.0
 13 04 2013  11 09  -21.0885 26061.0 -03427.6 -07.4927 26285.4
 13 04 2013  11 10  -21.0883 26061.5 -03427.4 -07.4920 26286.0
 13 04 2013  11 11  -21.0887 26061.9 -03427.1 -07.4914 26286.3
 13 04 2013  11 12  -21.0892 26062.2 -03426.8 -07.4906 26286.5
 13 04 2013  11 13  -21.0896 26062.7 -03426.6 -07.4901 26287.0
 13 04 2013  11 14  -21.0899 26063.2 -03426.4 -07.4894 26287.4
 13 04 2013  11 15  -21.0899 26063.7 -03426.1 -07.4887 26288.0
 13 04 2013  11 16  -21.0901 26064.3 -03425.9 -07.4880 26288.5
 13 04 2013  11 17  -21.0902 26064.8 -03425.6 -07.4873 26288.9
 13 04 2013  11 18  -21.0907 26064.8 -03425.2 -07.4864 26288.9
 13 04 2013  11 19  -21.0910 26065.0 -03424.8 -07.4855 26289.0
 13 04 2013  11 20  -21.0911 26065.2 -03424.5 -07.4847 26289.2
 13 04 2013  11 21  -21.0913 26065.3 -03424.1 -07.4839 26289.3
 13 04 2013  11 22  -21.0916 26065.5 -03423.8 -07.4833 26289.4
 13 04 2013  11 23  -21.0919 26065.8 -03423.7 -07.4829 26289.7
 13 04 2013  11 24  -21.0917 26066.5 -03423.6 -07.4825 26290.4
 13 04 2013  11 25  -21.0918 26067.1 -03423.6 -07.4822 26291.0
 13 04 2013  11 26  -21.0916 26067.6 -03423.4 -07.4816 26291.4
 13 04 2013  11 27  -21.0917 26068.0 -03423.1 -07.4809 26291.8
 13 04 2013  11 28  -21.0918 26068.2 -03422.7 -07.4801 26291.9
 13 04 2013  11 29  -21.0917 26068.2 -03422.3 -07.4792 26291.9
 13 04 2013  11 30  -21.0918 26068.1 -03421.9 -07.4784 26291.7
 13 04 2013  11 31  -21.0917 26068.0 -03421.6 -07.4776 26291.6
 13 04 2013  11 32  -21.0917 26068.0 -03421.3 -07.4770 26291.6
 13 04 2013  11 33  -21.0916 26068.1 -03421.1 -07.4765 26291.6
 13 04 2013  11 34  -21.0915 26068.1 -03420.9 -07.4761 26291.6
 13 04 2013  11 35  -21.0914 26068.3 -03420.8 -07.4758 26291.8
 13 04 2013  11 36  -21.0909 26068.6 -03420.7 -07.4755 26292.0
 13 04 2013  11 37  -21.0909 26068.9 -03420.6 -07.4753 26292.3
 13 04 2013  11 38  -21.0909 26069.5 -03420.7 -07.4752 26293.0
 13 04 2013  11 39  -21.0910 26069.8 -03420.6 -07.4750 26293.3
 13 04 2013  11 40  -21.0909 26070.2 -03420.4 -07.4745 26293.6
 13 04 2013  11 41  -21.0908 26070.4 -03420.2 -07.4739 26293.8
 13 04 2013  11 42  -21.0908 26070.5 -03419.9 -07.4733 26293.8
 13 04 2013  11 43  -21.0904 26070.8 -03419.7 -07.4728 26294.1
 13 04 2013  11 44  -21.0900 26071.4 -03419.6 -07.4725 26294.8
 13 04 2013  11 45  -21.0897 26071.9 -03419.5 -07.4720 26295.2
 13 04 2013  11 46  -21.0893 26072.4 -03419.4 -07.4716 26295.7
 13 04 2013  11 47  -21.0889 26072.5 -03419.1 -07.4710 26295.7
 13 04 2013  11 48  -21.0881 26072.8 -03418.8 -07.4704 26296.0
 13 04 2013  11 49  -21.0876 26073.0 -03418.6 -07.4698 26296.1
 13 04 2013  11 50  -21.0871 26073.4 -03418.5 -07.4694 26296.5
 13 04 2013  11 51  -21.0867 26073.7 -03418.3 -07.4689 26296.8
 13 04 2013  11 52  -21.0865 26074.0 -03418.1 -07.4685 26297.1
 13 04 2013  11 53  -21.0861 26074.4 -03418.0 -07.4682 26297.5
 13 04 2013  11 54  -21.0856 26075.0 -03418.0 -07.4679 26298.0
 13 04 2013  11 55  -21.0850 26075.7 -03417.9 -07.4676 26298.7
 13 04 2013  11 56  -21.0850 26076.1 -03417.8 -07.4671 26299.2
 13 04 2013  11 57  -21.0848 26076.6 -03417.6 -07.4667 26299.6
 13 04 2013  11 58  -21.0843 26077.0 -03417.4 -07.4662 26299.9
 13 04 2013  11 59  -21.0836 26077.2 -03417.2 -07.4656 26300.2
 13 04 2013  12 00  -21.0828 26077.0 -03416.8 -07.4648 26299.9
 13 04 2013  12 01  -21.0823 26077.5 -03416.8 -07.4646 26300.4
 13 04 2013  12 02  -21.0818 26077.9 -03416.8 -07.4644 26300.8
 13 04 2013  12 03  -21.0809 26078.5 -03416.8 -07.4644 26301.4
 13 04 2013  12 04  -21.0801 26079.0 -03416.9 -07.4643 26301.9
 13 04 2013  12 05  -21.0794 26079.6 -03416.9 -07.4643 26302.5
 13 04 2013  12 06  -21.0785 26081.0 -03417.2 -07.4645 26303.9
 13 04 2013  12 07  -21.0781 26081.7 -03417.1 -07.4642 26304.6
 13 04 2013  12 08  -21.0778 26082.2 -03416.9 -07.4635 26305.0
 13 04 2013  12 09  -21.0774 26082.9 -03416.8 -07.4630 26305.7
 13 04 2013  12 10  -21.0772 26083.5 -03416.6 -07.4625 26306.3
 13 04 2013  12 11  -21.0770 26083.8 -03416.4 -07.4619 26306.6
 13 04 2013  12 12  -21.0770 26084.0 -03416.1 -07.4612 26306.7
 13 04 2013  12 13  -21.0768 26084.5 -03415.9 -07.4607 26307.2
 13 04 2013  12 14  -21.0763 26085.0 -03415.8 -07.4603 26307.7
 13 04 2013  12 15  -21.0760 26085.6 -03415.7 -07.4599 26308.3
 13 04 2013  12 16  -21.0760 26085.8 -03415.5 -07.4594 26308.5
 13 04 2013  12 17  -21.0759 26086.0 -03415.2 -07.4589 26308.6
 13 04 2013  12 18  -21.0756 26086.3 -03415.1 -07.4584 26308.9
 13 04 2013  12 19  -21.0752 26086.6 -03414.9 -07.4579 26309.2
 13 04 2013  12 20  -21.0747 26086.8 -03414.7 -07.4575 26309.4
 13 04 2013  12 21  -21.0745 26087.1 -03414.6 -07.4571 26309.6
 13 04 2013  12 22  -21.0742 26087.3 -03414.4 -07.4567 26309.8
 13 04 2013  12 23  -21.0740 26087.5 -03414.3 -07.4563 26310.0
 13 04 2013  12 24  -21.0736 26087.8 -03414.1 -07.4559 26310.2
 13 04 2013  12 25  -21.0738 26087.9 -03414.0 -07.4555 26310.4
 13 04 2013  12 26  -21.0738 26088.4 -03413.9 -07.4553 26310.8
 13 04 2013  12 27  -21.0738 26088.9 -03413.9 -07.4550 26311.3
 13 04 2013  12 28  -21.0737 26089.5 -03413.8 -07.4548 26311.9
 13 04 2013  12 29  -21.0734 26090.0 -03413.7 -07.4543 26312.4
 13 04 2013  12 30  -21.0731 26090.3 -03413.4 -07.4537 26312.6
 13 04 2013  12 31  -21.0726 26090.7 -03413.2 -07.4532 26313.0
 13 04 2013  12 32  -21.0719 26091.2 -03413.1 -07.4527 26313.5
 13 04 2013  12 33  -21.0713 26091.7 -03412.9 -07.4523 26314.0
 13 04 2013  12 34  -21.0708 26092.0 -03412.7 -07.4517 26314.3
 13 04 2013  12 35  -21.0705 26092.3 -03412.5 -07.4511 26314.5
 13 04 2013  12 36  -21.0702 26092.8 -03412.3 -07.4507 26314.9
 13 04 2013  12 37  -21.0700 26093.2 -03412.2 -07.4502 26315.4
 13 04 2013  12 38  -21.0697 26093.6 -03411.9 -07.4496 26315.7
 13 04 2013  12 39  -21.0692 26094.0 -03411.7 -07.4490 26316.0
 13 04 2013  12 40  -21.0685 26094.0 -03411.4 -07.4483 26316.0
 13 04 2013  12 41  -21.0679 26094.3 -03411.2 -07.4478 26316.3
 13 04 2013  12 42  -21.0671 26094.6 -03411.1 -07.4475 26316.6
 13 04 2013  12 43  -21.0665 26094.9 -03410.9 -07.4471 26316.9
 13 04 2013  12 44  -21.0664 26095.3 -03410.9 -07.4468 26317.3
 13 04 2013  12 45  -21.0661 26095.7 -03410.7 -07.4463 26317.7
 13 04 2013  12 46  -21.0657 26096.5 -03410.7 -07.4460 26318.5
 13 04 2013  12 47  -21.0651 26097.2 -03410.4 -07.4453 26319.1
 13 04 2013  12 48  -21.0643 26097.5 -03410.1 -07.4445 26319.3
 13 04 2013  12 49  -21.0635 26097.7 -03409.7 -07.4436 26319.5
 13 04 2013  12 50  -21.0626 26097.7 -03409.3 -07.4427 26319.5
 13 04 2013  12 51  -21.0619 26097.8 -03409.0 -07.4420 26319.5
 13 04 2013  12 52  -21.0614 26098.0 -03408.8 -07.4415 26319.7
 13 04 2013  12 53  -21.0610 26098.3 -03408.6 -07.4410 26319.9
 13 04 2013  12 54  -21.0603 26098.7 -03408.4 -07.4406 26320.3
 13 04 2013  12 55  -21.0599 26098.9 -03408.2 -07.4400 26320.5
 13 04 2013  12 56  -21.0592 26099.2 -03408.0 -07.4394 26320.8
 13 04 2013  12 57  -21.0586 26099.5 -03407.7 -07.4389 26321.0
 13 04 2013  12 58  -21.0578 26099.6 -03407.5 -07.4382 26321.1
 13 04 2013  12 59  -21.0569 26099.9 -03407.3 -07.4378 26321.4
 13 04 2013  13 00  -21.0559 26100.0 -03407.1 -07.4373 26321.4
 13 04 2013  13 01  -21.0552 26100.2 -03407.0 -07.4370 26321.7
 13 04 2013  13 02  -21.0542 26100.4 -03406.9 -07.4367 26321.9
 13 04 2013  13 03  -21.0535 26100.8 -03406.8 -07.4365 26322.2
 13 04 2013  13 04  -21.0526 26101.2 -03406.8 -07.4363 26322.6
 13 04 2013  13 05  -21.0519 26101.6 -03406.8 -07.4361 26323.0
 13 04 2013  13 06  -21.0513 26102.1 -03406.7 -07.4359 26323.5
 13 04 2013  13 07  -21.0508 26102.6 -03406.6 -07.4356 26323.9
 13 04 2013  13 08  -21.0503 26102.9 -03406.5 -07.4351 26324.2
 13 04 2013  13 09  -21.0498 26103.2 -03406.3 -07.4347 26324.5
 13 04 2013  13 10  -21.0493 26103.5 -03406.1 -07.4342 26324.8
 13 04 2013  13 11  -21.0486 26103.6 -03405.8 -07.4336 26324.8
 13 04 2013  13 12  -21.0479 26103.7 -03405.7 -07.4332 26325.0
 13 04 2013  13 13  -21.0471 26103.9 -03405.5 -07.4329 26325.1
 13 04 2013  13 14  -21.0466 26104.3 -03405.5 -07.4327 26325.5
 13 04 2013  13 15  -21.0460 26104.6 -03405.4 -07.4324 26325.7
 13 04 2013  13 16  -21.0455 26104.7 -03405.3 -07.4321 26325.9
 13 04 2013  13 17  -21.0450 26105.0 -03405.2 -07.4318 26326.1
 13 04 2013  13 18  -21.0446 26105.0 -03405.0 -07.4315 26326.2
 13 04 2013  13 19  -21.0442 26105.1 -03404.9 -07.4312 26326.2
 13 04 2013  13 20  -21.0438 26105.3 -03404.9 -07.4311 26326.4
 13 04 2013  13 21  -21.0433 26105.5 -03404.9 -07.4310 26326.6
 13 04 2013  13 22  -21.0430 26105.9 -03404.9 -07.4310 26327.0
 13 04 2013  13 23  -21.0423 26105.9 -03404.8 -07.4307 26327.0
 13 04 2013  13 24  -21.0418 26105.9 -03404.7 -07.4306 26327.0
 13 04 2013  13 25  -21.0411 26105.9 -03404.7 -07.4304 26327.0
 13 04 2013  13 26  -21.0406 26106.1 -03404.7 -07.4305 26327.2
 13 04 2013  13 27  -21.0398 26106.3 -03404.7 -07.4304 26327.4
 13 04 2013  13 28  -21.0391 26106.6 -03404.8 -07.4305 26327.7
 13 04 2013  13 29  -21.0386 26107.0 -03404.8 -07.4304 26328.1
 13 04 2013  13 30  -21.0381 26107.0 -03404.7 -07.4302 26328.1
 13 04 2013  13 31  -21.0376 26107.3 -03404.7 -07.4302 26328.4
 13 04 2013  13 32  -21.0371 26107.3 -03404.6 -07.4299 26328.4
 13 04 2013  13 33  -21.0371 26107.6 -03404.6 -07.4298 26328.6
 13 04 2013  13 34  -21.0369 26107.5 -03404.4 -07.4294 26328.6
 13 04 2013  13 35  -21.0367 26107.4 -03404.2 -07.4290 26328.5
 13 04 2013  13 36  -21.0365 26107.6 -03404.1 -07.4288 26328.6
 13 04 2013  13 37  -21.0363 26107.3 -03403.9 -07.4283 26328.3
 13 04 2013  13 38  -21.0364 26107.1 -03403.7 -07.4279 26328.0
 13 04 2013  13 39  -21.0359 26107.0 -03403.5 -07.4275 26327.9
 13 04 2013  13 40  -21.0359 26107.2 -03403.4 -07.4274 26328.1
 13 04 2013  13 41  -21.0357 26107.1 -03403.2 -07.4270 26328.0
 13 04 2013  13 42  -21.0353 26107.2 -03403.1 -07.4267 26328.1
 13 04 2013  13 43  -21.0352 26107.6 -03403.1 -07.4266 26328.5
 13 04 2013  13 44  -21.0345 26107.7 -03402.9 -07.4262 26328.6
 13 04 2013  13 45  -21.0340 26107.6 -03402.7 -07.4257 26328.4
 13 04 2013  13 46  -21.0332 26107.2 -03402.4 -07.4251 26327.9
 13 04 2013  13 47  -21.0325 26106.5 -03402.0 -07.4245 26327.2
 13 04 2013  13 48  -21.0322 26106.1 -03401.8 -07.4243 26326.8
 13 04 2013  13 49  -21.0320 26106.5 -03402.0 -07.4245 26327.2
 13 04 2013  13 50  -21.0318 26107.2 -03402.2 -07.4248 26327.9
 13 04 2013  13 51  -21.0314 26108.1 -03402.4 -07.4249 26328.9
 13 04 2013  13 52  -21.0306 26108.5 -03402.3 -07.4245 26329.2
 13 04 2013  13 53  -21.0297 26108.6 -03402.0 -07.4240 26329.3
 13 04 2013  13 54  -21.0288 26108.9 -03401.9 -07.4236 26329.6
 13 04 2013  13 55  -21.0281 26109.4 -03401.9 -07.4234 26330.1
 13 04 2013  13 56  -21.0280 26109.8 -03401.8 -07.4232 26330.5
 13 04 2013  13 57  -21.0277 26110.1 -03401.7 -07.4228 26330.7
 13 04 2013  13 58  -21.0272 26110.3 -03401.5 -07.4224 26330.9
 13 04 2013  13 59  -21.0267 26110.7 -03401.5 -07.4221 26331.3
 13 04 2013  14 00  -21.0261 26111.1 -03401.3 -07.4217 26331.7
 13 04 2013  14 01  -21.0255 26111.2 -03401.1 -07.4213 26331.7
 13 04 2013  14 02  -21.0245 26110.8 -03400.8 -07.4206 26331.4
 13 04 2013  14 03  -21.0237 26110.1 -03400.3 -07.4198 26330.6
 13 04 2013  14 04  -21.0229 26109.0 -03399.9 -07.4192 26329.5
 13 04 2013  14 05  -21.0222 26108.3 -03399.7 -07.4190 26328.7
 13 04 2013  14 06  -21.0216 26108.2 -03399.8 -07.4192 26328.6
 13 04 2013  14 07  -21.0209 26108.0 -03399.9 -07.4195 26328.5
 13 04 2013  14 08  -21.0202 26108.0 -03400.1 -07.4199 26328.5
 13 04 2013  14 09  -21.0196 26108.1 -03400.3 -07.4203 26328.6
 13 04 2013  14 10  -21.0194 26108.2 -03400.5 -07.4207 26328.8
 13 04 2013  14 11  -21.0190 26108.2 -03400.6 -07.4209 26328.8
 13 04 2013  14 12  -21.0188 26108.5 -03400.8 -07.4213 26329.1
 13 04 2013  14 13  -21.0186 26108.7 -03400.9 -07.4216 26329.3
 13 04 2013  14 14  -21.0185 26108.9 -03401.1 -07.4219 26329.5
 13 04 2013  14 15  -21.0183 26109.3 -03401.2 -07.4221 26329.9
 13 04 2013  14 16  -21.0179 26109.5 -03401.3 -07.4221 26330.1
 13 04 2013  14 17  -21.0177 26109.4 -03401.3 -07.4221 26330.1
 13 04 2013  14 18  -21.0176 26109.4 -03401.2 -07.4220 26330.0
 13 04 2013  14 19  -21.0174 26109.4 -03401.2 -07.4220 26330.0
 13 04 2013  14 20  -21.0170 26109.5 -03401.4 -07.4222 26330.2
 13 04 2013  14 21  -21.0165 26109.5 -03401.3 -07.4222 26330.1
 13 04 2013  14 22  -21.0162 26109.2 -03401.3 -07.4223 26329.8
 13 04 2013  14 23  -21.0158 26108.9 -03401.4 -07.4225 26329.5
 13 04 2013  14 24  -21.0157 26108.6 -03401.5 -07.4227 26329.3
 13 04 2013  14 25  -21.0158 26108.5 -03401.6 -07.4231 26329.2
 13 04 2013  14 26  -21.0159 26108.2 -03401.7 -07.4234 26328.9
 13 04 2013  14 27  -21.0160 26108.1 -03401.9 -07.4238 26328.8
 13 04 2013  14 28  -21.0162 26107.9 -03402.0 -07.4242 26328.6
 13 04 2013  14 29  -21.0164 26107.7 -03402.2 -07.4246 26328.5
 13 04 2013  14 30  -21.0167 26107.6 -03402.4 -07.4250 26328.3
 13 04 2013  14 31  -21.0168 26107.4 -03402.5 -07.4253 26328.2
 13 04 2013  14 32  -21.0168 26107.5 -03402.7 -07.4258 26328.3
 13 04 2013  14 33  -21.0168 26107.5 -03402.9 -07.4262 26328.4
 13 04 2013  14 34  -21.0167 26107.4 -03403.0 -07.4264 26328.3
 13 04 2013  14 35  -21.0168 26107.2 -03403.1 -07.4267 26328.1
 13 04 2013  14 36  -21.0169 26107.1 -03403.3 -07.4271 26328.0
 13 04 2013  14 37  -21.0169 26106.8 -03403.4 -07.4274 26327.8
 13 04 2013  14 38  -21.0171 26106.8 -03403.6 -07.4279 26327.8
 13 04 2013  14 39  -21.0172 26106.8 -03403.9 -07.4284 26327.8
 13 04 2013  14 40  -21.0175 26106.9 -03404.1 -07.4289 26327.9
 13 04 2013  14 41  -21.0175 26106.7 -03404.2 -07.4292 26327.8
 13 04 2013  14 42  -21.0174 26106.5 -03404.3 -07.4294 26327.5
 13 04 2013  14 43  -21.0176 26106.3 -03404.4 -07.4298 26327.4
 13 04 2013  14 44  -21.0176 26106.1 -03404.6 -07.4301 26327.2
 13 04 2013  14 45  -21.0176 26105.8 -03404.7 -07.4304 26326.9
 13 04 2013  14 46  -21.0176 26105.6 -03404.8 -07.4308 26326.7
 13 04 2013  14 47  -21.0176 26105.5 -03405.0 -07.4313 26326.6
 13 04 2013  14 48  -21.0177 26105.4 -03405.2 -07.4317 26326.6
 13 04 2013  14 49  -21.0179 26105.2 -03405.3 -07.4320 26326.4
 13 04 2013  14 50  -21.0180 26105.0 -03405.5 -07.4324 26326.2
 13 04 2013  14 51  -21.0184 26104.9 -03405.6 -07.4327 26326.1
 13 04 2013  14 52  -21.0186 26104.6 -03405.7 -07.4330 26325.8
 13 04 2013  14 53  -21.0189 26104.4 -03405.8 -07.4332 26325.6
 13 04 2013  14 54  -21.0192 26104.2 -03405.9 -07.4334 26325.5
 13 04 2013  14 55  -21.0196 26104.0 -03405.9 -07.4336 26325.2
 13 04 2013  14 56  -21.0200 26103.8 -03406.0 -07.4338 26325.1
 13 04 2013  14 57  -21.0205 26103.6 -03406.0 -07.4339 26324.9
 13 04 2013  14 58  -21.0209 26103.5 -03406.1 -07.4341 26324.7
 13 04 2013  14 59  -21.0214 26103.2 -03406.1 -07.4342 26324.5
 13 04 2013  15 00  -21.0218 26103.0 -03406.1 -07.4343 26324.3
 13 04 2013  15 01  -21.0222 26102.7 -03406.1 -07.4344 26324.0
 13 04 2013  15 02  -21.0226 26102.4 -03406.1 -07.4344 26323.7
 13 04 2013  15 03  -21.0227 26102.0 -03406.0 -07.4344 26323.3
 13 04 2013  15 04  -21.0229 26101.7 -03406.0 -07.4344 26322.9
 13 04 2013  15 05  -21.0231 26101.2 -03405.9 -07.4344 26322.4
 13 04 2013  15 06  -21.0234 26100.9 -03405.9 -07.4346 26322.1
 13 04 2013  15 07  -21.0235 26100.4 -03405.9 -07.4347 26321.7
 13 04 2013  15 08  -21.0239 26100.3 -03406.1 -07.4350 26321.6
 13 04 2013  15 09  -21.0245 26100.5 -03406.3 -07.4354 26321.8
 13 04 2013  15 10  -21.0249 26100.6 -03406.4 -07.4357 26321.9
 13 04 2013  15 11  -21.0255 26100.8 -03406.6 -07.4360 26322.2
 13 04 2013  15 12  -21.0261 26101.1 -03406.7 -07.4361 26322.4
 13 04 2013  15 13  -21.0267 26101.1 -03406.7 -07.4361 26322.5
 13 04 2013  15 14  -21.0271 26100.8 -03406.5 -07.4358 26322.2
 13 04 2013  15 15  -21.0275 26100.5 -03406.4 -07.4357 26321.9
 13 04 2013  15 16  -21.0279 26100.2 -03406.3 -07.4356 26321.6
 13 04 2013  15 17  -21.0283 26099.8 -03406.2 -07.4355 26321.2
 13 04 2013  15 18  -21.0287 26099.6 -03406.2 -07.4356 26321.0
 13 04 2013  15 19  -21.0289 26099.5 -03406.3 -07.4358 26320.8
 13 04 2013  15 20  -21.0294 26099.3 -03406.4 -07.4360 26320.6
 13 04 2013  15 21  -21.0298 26099.0 -03406.4 -07.4361 26320.4
 13 04 2013  15 22  -21.0301 26098.8 -03406.4 -07.4361 26320.2
 13 04 2013  15 23  -21.0303 26098.7 -03406.4 -07.4362 26320.1
 13 04 2013  15 24  -21.0303 26098.4 -03406.4 -07.4362 26319.8
 13 04 2013  15 25  -21.0303 26098.0 -03406.4 -07.4363 26319.4
 13 04 2013  15 26  -21.0304 26097.5 -03406.3 -07.4364 26318.9
 13 04 2013  15 27  -21.0304 26096.8 -03406.2 -07.4363 26318.2
 13 04 2013  15 28  -21.0309 26096.3 -03406.3 -07.4367 26317.7
 13 04 2013  15 29  -21.0312 26095.7 -03406.3 -07.4368 26317.1
 13 04 2013  15 30  -21.0321 26095.4 -03406.4 -07.4371 26316.8
 13 04 2013  15 31  -21.0326 26095.1 -03406.5 -07.4373 26316.5
 13 04 2013  15 32  -21.0333 26094.9 -03406.5 -07.4375 26316.3
 13 04 2013  15 33  -21.0338 26094.5 -03406.5 -07.4377 26316.0
 13 04 2013  15 34  -21.0343 26094.2 -03406.6 -07.4378 26315.6
 13 04 2013  15 35  -21.0348 26093.7 -03406.5 -07.4378 26315.1
 13 04 2013  15 36  -21.0353 26093.0 -03406.4 -07.4377 26314.4
 13 04 2013  15 37  -21.0357 26092.5 -03406.3 -07.4377 26313.9
 13 04 2013  15 38  -21.0363 26092.2 -03406.3 -07.4378 26313.6
 13 04 2013  15 39  -21.0367 26091.3 -03406.1 -07.4376 26312.7
 13 04 2013  15 40  -21.0370 26090.6 -03406.0 -07.4376 26312.0
 13 04 2013  15 41  -21.0375 26089.9 -03406.0 -07.4379 26311.3
 13 04 2013  15 42  -21.0382 26089.5 -03406.1 -07.4382 26310.9
 13 04 2013  15 43  -21.0385 26088.7 -03406.0 -07.4382 26310.1
 13 04 2013  15 44  -21.0388 26088.5 -03406.1 -07.4385 26309.9
 13 04 2013  15 45  -21.0394 26088.0 -03406.2 -07.4388 26309.4
 13 04 2013  15 46  -21.0397 26087.5 -03406.2 -07.4389 26308.9
 13 04 2013  15 47  -21.0398 26086.9 -03406.2 -07.4391 26308.3
 13 04 2013  15 48  -21.0403 26086.4 -03406.3 -07.4395 26307.9
 13 04 2013  15 49  -21.0409 26086.3 -03406.6 -07.4401 26307.7
 13 04 2013  15 50  -21.0412 26086.1 -03406.7 -07.4404 26307.6
 13 04 2013  15 51  -21.0420 26086.3 -03407.0 -07.4410 26307.9
 13 04 2013  15 52  -21.0424 26086.6 -03407.3 -07.4416 26308.2
 13 04 2013  15 53  -21.0433 26086.9 -03407.6 -07.4421 26308.5
 13 04 2013  15 54  -21.0435 26086.8 -03407.6 -07.4422 26308.4
 13 04 2013  15 55  -21.0441 26087.2 -03407.9 -07.4427 26308.9
 13 04 2013  15 56  -21.0448 26087.4 -03408.0 -07.4429 26309.1
 13 04 2013  15 57  -21.0455 26087.7 -03408.2 -07.4432 26309.3
 13 04 2013  15 58  -21.0454 26087.5 -03408.1 -07.4430 26309.1
 13 04 2013  15 59  -21.0461 26087.5 -03408.1 -07.4431 26309.1
 13 04 2013  16 00  -21.0460 26087.3 -03408.1 -07.4431 26309.0
 13 04 2013  16 01  -21.0468 26087.5 -03408.3 -07.4434 26309.2
 13 04 2013  16 02  -21.0468 26087.6 -03408.3 -07.4435 26309.3
 13 04 2013  16 03  -21.0477 26088.1 -03408.6 -07.4439 26309.9
 13 04 2013  16 04  -21.0482 26088.6 -03408.7 -07.4440 26310.3
 13 04 2013  16 05  -21.0487 26088.7 -03408.7 -07.4440 26310.5
 13 04 2013  16 06  -21.0493 26088.8 -03408.7 -07.4439 26310.6
 13 04 2013  16 07  -21.0498 26088.7 -03408.5 -07.4436 26310.5
 13 04 2013  16 08  -21.0504 26088.8 -03408.4 -07.4433 26310.5
 13 04 2013  16 09  -21.0509 26088.7 -03408.3 -07.4430 26310.4
 13 04 2013  16 10  -21.0514 26088.6 -03408.1 -07.4427 26310.2
 13 04 2013  16 11  -21.0520 26088.4 -03408.0 -07.4425 26310.1
 13 04 2013  16 12  -21.0528 26088.3 -03407.8 -07.4422 26310.0
 13 04 2013  16 13  -21.0536 26088.0 -03407.6 -07.4417 26309.6
 13 04 2013  16 14  -21.0541 26087.7 -03407.3 -07.4412 26309.3
 13 04 2013  16 15  -21.0540 26087.3 -03407.0 -07.4406 26308.8
 13 04 2013  16 16  -21.0543 26086.5 -03406.5 -07.4399 26308.0
 13 04 2013  16 17  -21.0545 26086.0 -03406.3 -07.4396 26307.5
 13 04 2013  16 18  -21.0550 26085.8 -03406.3 -07.4396 26307.2
 13 04 2013  16 19  -21.0552 26085.3 -03406.1 -07.4394 26306.8
 13 04 2013  16 20  -21.0555 26084.9 -03406.0 -07.4392 26306.3
 13 04 2013  16 21  -21.0558 26084.5 -03405.9 -07.4391 26305.9
 13 04 2013  16 22  -21.0561 26084.1 -03405.8 -07.4390 26305.5
 13 04 2013  16 23  -21.0563 26083.8 -03405.7 -07.4389 26305.2
 13 04 2013  16 24  -21.0563 26083.3 -03405.6 -07.4387 26304.7
 13 04 2013  16 25  -21.0512 26082.1 -03402.7 -07.4329 26303.1
 13 04 2013  16 26  -21.0566 26082.7 -03405.5 -07.4388 26304.1
 13 04 2013  16 27  -21.0567 26082.5 -03405.5 -07.4388 26303.9
 13 04 2013  16 28  -21.0568 26082.2 -03405.5 -07.4388 26303.6
 13 04 2013  16 29  -21.0570 26082.0 -03405.4 -07.4388 26303.4
 13 04 2013  16 30  -21.0570 26081.6 -03405.3 -07.4387 26302.9
 13 04 2013  16 31  -21.0570 26081.1 -03405.3 -07.4387 26302.5
 13 04 2013  16 32  -21.0570 26080.8 -03405.2 -07.4387 26302.1
 13 04 2013  16 33  -21.0572 26080.5 -03405.2 -07.4388 26301.9
 13 04 2013  16 34  -21.0572 26080.4 -03405.3 -07.4390 26301.8
 13 04 2013  16 35  -21.0575 26080.1 -03405.3 -07.4390 26301.5
 13 04 2013  16 36  -21.0577 26079.9 -03405.2 -07.4389 26301.2
 13 04 2013  16 37  -21.0578 26079.5 -03405.2 -07.4389 26300.9
 13 04 2013  16 38  -21.0579 26079.2 -03405.1 -07.4389 26300.6
 13 04 2013  16 39  -21.0582 26078.9 -03405.1 -07.4390 26300.2
 13 04 2013  16 40  -21.0583 26078.6 -03405.1 -07.4391 26300.0
 13 04 2013  16 41  -21.0587 26078.6 -03405.2 -07.4393 26299.9
 13 04 2013  16 42  -21.0589 26078.4 -03405.2 -07.4393 26299.8
 13 04 2013  16 43  -21.0593 26078.0 -03405.1 -07.4393 26299.4
 13 04 2013  16 44  -21.0593 26077.6 -03405.0 -07.4392 26299.0
 13 04 2013  16 45  -21.0596 26077.4 -03405.1 -07.4394 26298.7
 13 04 2013  16 46  -21.0599 26077.0 -03405.1 -07.4394 26298.4
 13 04 2013  16 47  -21.0601 26076.5 -03405.0 -07.4394 26297.9
 13 04 2013  16 48  -21.0603 26076.1 -03405.0 -07.4395 26297.4
 13 04 2013  16 49  -21.0606 26075.7 -03405.0 -07.4396 26297.1
 13 04 2013  16 50  -21.0610 26075.4 -03405.0 -07.4397 26296.7
 13 04 2013  16 51  -21.0611 26074.8 -03404.9 -07.4396 26296.2
 13 04 2013  16 52  -21.0614 26074.4 -03404.8 -07.4397 26295.8
 13 04 2013  16 53  -21.0617 26073.8 -03404.8 -07.4396 26295.2
 13 04 2013  16 54  -21.0620 26073.3 -03404.7 -07.4396 26294.7
 13 04 2013  16 55  -21.0623 26072.8 -03404.6 -07.4397 26294.2
 13 04 2013  16 56  -21.0626 26072.5 -03404.7 -07.4398 26293.9
 13 04 2013  16 57  -21.0631 26072.4 -03404.7 -07.4400 26293.8
 13 04 2013  16 58  -21.0634 26072.2 -03404.7 -07.4399 26293.6
 13 04 2013  16 59  -21.0635 26071.9 -03404.6 -07.4398 26293.2
 13 04 2013  17 00  -21.0637 26071.5 -03404.5 -07.4397 26292.9
 13 04 2013  17 01  -21.0635 26071.2 -03404.4 -07.4396 26292.5
 13 04 2013  17 02  -21.0636 26071.0 -03404.3 -07.4395 26292.3
 13 04 2013  17 03  -21.0637 26071.0 -03404.3 -07.4395 26292.3
 13 04 2013  17 04  -21.0638 26071.1 -03404.3 -07.4395 26292.4
 13 04 2013  17 05  -21.0639 26071.1 -03404.3 -07.4393 26292.4
 13 04 2013  17 06  -21.0637 26070.9 -03404.1 -07.4390 26292.2
 13 04 2013  17 07  -21.0634 26070.7 -03403.9 -07.4386 26292.0
 13 04 2013  17 08  -21.0630 26070.4 -03403.7 -07.4382 26291.7
 13 04 2013  17 09  -21.0627 26070.2 -03403.6 -07.4381 26291.5
 13 04 2013  17 10  -21.0624 26070.1 -03403.5 -07.4379 26291.4
 13 04 2013  17 11  -21.0620 26069.9 -03403.3 -07.4376 26291.1
 13 04 2013  17 12  -21.0617 26069.7 -03403.2 -07.4375 26290.9
 13 04 2013  17 13  -21.0612 26069.5 -03403.2 -07.4374 26290.7
 13 04 2013  17 14  -21.0607 26069.3 -03403.1 -07.4373 26290.5
 13 04 2013  17 15  -21.0603 26069.1 -03403.0 -07.4372 26290.3
 13 04 2013  17 16  -21.0597 26068.8 -03402.9 -07.4370 26289.9
 13 04 2013  17 17  -21.0592 26068.5 -03402.9 -07.4371 26289.7
 13 04 2013  17 18  -21.0589 26068.7 -03403.0 -07.4373 26289.8
 13 04 2013  17 19  -21.0586 26068.4 -03403.0 -07.4373 26289.6
 13 04 2013  17 20  -21.0582 26068.0 -03402.9 -07.4372 26289.1
 13 04 2013  17 21  -21.0580 26068.0 -03403.0 -07.4375 26289.2
 13 04 2013  17 22  -21.0578 26067.7 -03403.0 -07.4376 26288.8
 13 04 2013  17 23  -21.0572 26067.3 -03403.0 -07.4376 26288.5
 13 04 2013  17 24  -21.0570 26067.1 -03403.1 -07.4379 26288.3
 13 04 2013  17 25  -21.0565 26066.8 -03403.1 -07.4380 26288.0
 13 04 2013  17 26  -21.0562 26066.4 -03403.1 -07.4382 26287.6
 13 04 2013  17 27  -21.0558 26066.1 -03403.2 -07.4384 26287.3
 13 04 2013  17 28  -21.0556 26066.0 -03403.3 -07.4387 26287.2
 13 04 2013  17 29  -21.0554 26065.9 -03403.4 -07.4390 26287.1
 13 04 2013  17 30  -21.0548 26064.9 -03403.2 -07.4389 26286.2
 13 04 2013  17 31  -21.0543 26064.8 -03403.5 -07.4394 26286.1
 13 04 2013  17 32  -21.0543 26064.7 -03403.7 -07.4400 26286.0
 13 04 2013  17 33  -21.0539 26063.8 -03403.6 -07.4399 26285.1
 13 04 2013  17 34  -21.0538 26064.0 -03403.9 -07.4406 26285.4
 13 04 2013  17 35  -21.0539 26063.9 -03404.1 -07.4411 26285.3
 13 04 2013  17 36  -21.0537 26063.7 -03404.3 -07.4414 26285.0
 13 04 2013  17 37  -21.0532 26063.0 -03404.2 -07.4416 26284.4
 13 04 2013  17 38  -21.0529 26062.5 -03404.3 -07.4419 26283.9
 13 04 2013  17 39  -21.0523 26062.0 -03404.4 -07.4422 26283.4
 13 04 2013  17 40  -21.0519 26061.8 -03404.7 -07.4429 26283.2
 13 04 2013  17 41  -21.0515 26061.4 -03404.9 -07.4434 26282.8
 13 04 2013  17 42  -21.0513 26061.1 -03405.1 -07.4440 26282.6
 13 04 2013  17 43  -21.0512 26060.7 -03405.3 -07.4445 26282.3
 13 04 2013  17 44  -21.0511 26060.7 -03405.6 -07.4452 26282.3
 13 04 2013  17 45  -21.0515 26060.6 -03405.9 -07.4458 26282.2
 13 04 2013  17 46  -21.0514 26060.3 -03406.1 -07.4463 26282.0
 13 04 2013  17 47  -21.0513 26059.9 -03406.2 -07.4466 26281.6
 13 04 2013  17 48  -21.0511 26059.6 -03406.4 -07.4471 26281.3
 13 04 2013  17 49  -21.0511 26059.5 -03406.6 -07.4478 26281.2
 13 04 2013  17 50  -21.0509 26059.1 -03406.8 -07.4483 26280.8
 13 04 2013  17 51  -21.0508 26058.8 -03407.1 -07.4490 26280.6
 13 04 2013  17 52  -21.0509 26058.7 -03407.4 -07.4497 26280.6
 13 04 2013  17 53  -21.0510 26058.6 -03407.7 -07.4504 26280.4
 13 04 2013  17 54  -21.0510 26058.4 -03408.0 -07.4509 26280.3
 13 04 2013  17 55  -21.0511 26058.2 -03408.2 -07.4516 26280.1
 13 04 2013  17 56  -21.0513 26057.9 -03408.4 -07.4521 26279.8
 13 04 2013  17 57  -21.0514 26057.4 -03408.6 -07.4526 26279.4
 13 04 2013  17 58  -21.0514 26057.0 -03408.8 -07.4531 26279.0
 13 04 2013  17 59  -21.0512 26056.6 -03408.9 -07.4536 26278.6
 13 04 2013  18 00  -21.0512 26056.4 -03409.2 -07.4542 26278.4
 13 04 2013  18 01  -21.0513 26056.0 -03409.4 -07.4547 26278.1
 13 04 2013  18 02  -21.0514 26055.6 -03409.6 -07.4552 26277.7
 13 04 2013  18 03  -21.0514 26055.2 -03409.7 -07.4557 26277.3
 13 04 2013  18 04  -21.0518 26054.9 -03410.0 -07.4563 26277.1
 13 04 2013  18 05  -21.0520 26054.6 -03410.2 -07.4568 26276.8
 13 04 2013  18 06  -21.0523 26054.3 -03410.4 -07.4573 26276.6
 13 04 2013  18 07  -21.0521 26053.7 -03410.5 -07.4577 26276.0
 13 04 2013  18 08  -21.0524 26053.4 -03410.7 -07.4582 26275.7
 13 04 2013  18 09  -21.0522 26053.4 -03410.9 -07.4588 26275.7
 13 04 2013  18 10  -21.0523 26053.4 -03411.3 -07.4595 26275.8
 13 04 2013  18 11  -21.0524 26053.1 -03411.4 -07.4598 26275.5
 13 04 2013  18 12  -21.0526 26052.8 -03411.6 -07.4604 26275.2
 13 04 2013  18 13  -21.0528 26052.8 -03411.9 -07.4611 26275.3
 13 04 2013  18 14  -21.0528 26052.9 -03412.2 -07.4617 26275.4
 13 04 2013  18 15  -21.0533 26053.2 -03412.6 -07.4624 26275.7
 13 04 2013  18 16  -21.0540 26053.6 -03412.9 -07.4629 26276.2
 13 04 2013  18 17  -21.0538 26053.6 -03412.9 -07.4630 26276.2
 13 04 2013  18 18  -21.0536 26053.3 -03412.9 -07.4631 26275.9
 13 04 2013  18 19  -21.0531 26052.4 -03412.6 -07.4627 26274.9
 13 04 2013  18 20  -21.0525 26051.6 -03412.5 -07.4626 26274.1
 13 04 2013  18 21  -21.0524 26052.1 -03412.9 -07.4634 26274.7
 13 04 2013  18 22  -21.0526 26052.4 -03413.2 -07.4640 26275.0
 13 04 2013  18 23  -21.0525 26052.3 -03413.3 -07.4643 26275.0
 13 04 2013  18 24  -21.0526 26052.1 -03413.5 -07.4646 26274.8
 13 04 2013  18 25  -21.0528 26052.3 -03413.7 -07.4650 26275.0
 13 04 2013  18 26  -21.0529 26052.4 -03413.8 -07.4653 26275.1
 13 04 2013  18 27  -21.0529 26052.2 -03413.8 -07.4654 26274.9
 13 04 2013  18 28  -21.0527 26051.8 -03413.8 -07.4653 26274.5
 13 04 2013  18 29  -21.0523 26051.1 -03413.7 -07.4654 26273.9
 13 04 2013  18 30  -21.0522 26050.8 -03413.8 -07.4656 26273.5
 13 04 2013  18 31  -21.0519 26050.7 -03413.9 -07.4660 26273.4
 13 04 2013  18 32  -21.0517 26050.4 -03414.0 -07.4663 26273.2
 13 04 2013  18 33  -21.0513 26050.0 -03414.1 -07.4665 26272.8
 13 04 2013  18 34  -21.0512 26049.8 -03414.2 -07.4669 26272.6
 13 04 2013  18 35  -21.0512 26049.8 -03414.4 -07.4673 26272.6
 13 04 2013  18 36  -21.0511 26049.8 -03414.6 -07.4676 26272.6
 13 04 2013  18 37  -21.0509 26049.8 -03414.8 -07.4681 26272.7
 13 04 2013  18 38  -21.0508 26049.9 -03414.9 -07.4684 26272.7
 13 04 2013  18 39  -21.0508 26049.9 -03415.1 -07.4688 26272.8
 13 04 2013  18 40  -21.0506 26049.8 -03415.2 -07.4690 26272.7
 13 04 2013  18 41  -21.0505 26049.6 -03415.3 -07.4692 26272.6
 13 04 2013  18 42  -21.0502 26049.4 -03415.3 -07.4693 26272.4
 13 04 2013  18 43  -21.0501 26049.3 -03415.4 -07.4696 26272.3
 13 04 2013  18 44  -21.0497 26049.0 -03415.4 -07.4698 26272.0
 13 04 2013  18 45  -21.0495 26049.1 -03415.6 -07.4701 26272.0
 13 04 2013  18 46  -21.0495 26049.0 -03415.8 -07.4705 26272.0
 13 04 2013  18 47  -21.0488 26048.0 -03415.5 -07.4702 26270.9
 13 04 2013  18 48  -21.0483 26047.8 -03415.6 -07.4706 26270.7
 13 04 2013  18 49  -21.0482 26047.8 -03415.9 -07.4712 26270.8
 13 04 2013  18 50  -21.0479 26047.3 -03415.9 -07.4713 26270.3
 13 04 2013  18 51  -21.0477 26047.2 -03416.1 -07.4718 26270.2
 13 04 2013  18 52  -21.0480 26047.6 -03416.5 -07.4724 26270.7
 13 04 2013  18 53  -21.0478 26047.5 -03416.6 -07.4727 26270.6
 13 04 2013  18 54  -21.0472 26046.1 -03416.2 -07.4722 26269.2
 13 04 2013  18 55  -21.0466 26045.3 -03416.2 -07.4723 26268.4
 13 04 2013  18 56  -21.0466 26045.5 -03416.5 -07.4730 26268.6
 13 04 2013  18 57  -21.0467 26045.6 -03416.8 -07.4737 26268.7
 13 04 2013  18 58  -21.0464 26045.1 -03416.8 -07.4738 26268.3
 13 04 2013  18 59  -21.0463 26044.9 -03417.0 -07.4742 26268.1
 13 04 2013  19 00  -21.0463 26045.0 -03417.3 -07.4749 26268.2
 13 04 2013  19 01  -21.0462 26045.0 -03417.5 -07.4754 26268.3
 13 04 2013  19 02  -21.0462 26044.9 -03417.7 -07.4758 26268.2
 13 04 2013  19 03  -21.0462 26044.9 -03417.9 -07.4761 26268.2
 13 04 2013  19 04  -21.0460 26044.9 -03418.0 -07.4764 26268.2
 13 04 2013  19 05  -21.0459 26044.8 -03418.2 -07.4768 26268.2
 13 04 2013  19 06  -21.0459 26045.1 -03418.5 -07.4774 26268.4
 13 04 2013  19 07  -21.0458 26045.2 -03418.8 -07.4780 26268.7
 13 04 2013  19 08  -21.0457 26045.3 -03419.0 -07.4785 26268.7
 13 04 2013  19 09  -21.0456 26045.3 -03419.1 -07.4788 26268.7
 13 04 2013  19 10  -21.0455 26045.3 -03419.3 -07.4792 26268.8
 13 04 2013  19 11  -21.0453 26045.3 -03419.4 -07.4795 26268.8
 13 04 2013  19 12  -21.0451 26045.3 -03419.5 -07.4797 26268.8
 13 04 2013  19 13  -21.0451 26045.4 -03419.7 -07.4800 26268.9
 13 04 2013  19 14  -21.0450 26045.3 -03419.8 -07.4803 26268.9
 13 04 2013  19 15  -21.0448 26045.2 -03419.8 -07.4804 26268.8
 13 04 2013  19 16  -21.0446 26045.0 -03419.8 -07.4804 26268.5
 13 04 2013  19 17  -21.0443 26044.8 -03419.8 -07.4805 26268.3
 13 04 2013  19 18  -21.0440 26044.6 -03419.9 -07.4807 26268.2
 13 04 2013  19 19  -21.0438 26044.5 -03420.0 -07.4810 26268.0
 13 04 2013  19 20  -21.0434 26044.3 -03420.1 -07.4811 26267.9
 13 04 2013  19 21  -21.0431 26044.1 -03420.2 -07.4814 26267.8
 13 04 2013  19 22  -21.0429 26044.0 -03420.3 -07.4817 26267.7
 13 04 2013  19 23  -21.0426 26043.9 -03420.4 -07.4820 26267.5
 13 04 2013  19 24  -21.0425 26043.6 -03420.5 -07.4822 26267.3
 13 04 2013  19 25  -21.0423 26043.7 -03420.7 -07.4825 26267.4
 13 04 2013  19 26  -21.0422 26043.6 -03420.8 -07.4829 26267.3
 13 04 2013  19 27  -21.0421 26043.4 -03420.9 -07.4832 26267.1
 13 04 2013  19 28  -21.0420 26043.5 -03421.1 -07.4837 26267.3
 13 04 2013  19 29  -21.0420 26043.7 -03421.4 -07.4841 26267.4
 13 04 2013  19 30  -21.0419 26043.6 -03421.5 -07.4844 26267.3
 13 04 2013  19 31  -21.0418 26043.8 -03421.7 -07.4848 26267.6
 13 04 2013  19 32  -21.0419 26044.2 -03422.0 -07.4853 26268.0
 13 04 2013  19 33  -21.0418 26044.1 -03422.1 -07.4855 26267.9
 13 04 2013  19 34  -21.0416 26043.9 -03422.1 -07.4857 26267.8
 13 04 2013  19 35  -21.0415 26044.0 -03422.3 -07.4861 26267.8
 13 04 2013  19 36  -21.0415 26043.9 -03422.5 -07.4864 26267.8
 13 04 2013  19 37  -21.0413 26043.6 -03422.5 -07.4866 26267.5
 13 04 2013  19 38  -21.0411 26043.7 -03422.7 -07.4870 26267.6
 13 04 2013  19 39  -21.0412 26043.7 -03422.9 -07.4873 26267.7
 13 04 2013  19 40  -21.0410 26043.5 -03422.9 -07.4876 26267.5
 13 04 2013  19 41  -21.0407 26043.3 -03423.0 -07.4878 26267.3
 13 04 2013  19 42  -21.0406 26043.4 -03423.3 -07.4883 26267.4
 13 04 2013  19 43  -21.0405 26043.5 -03423.5 -07.4887 26267.5
 13 04 2013  19 44  -21.0403 26043.6 -03423.6 -07.4890 26267.6
 13 04 2013  19 45  -21.0402 26043.6 -03423.8 -07.4893 26267.7
 13 04 2013  19 46  -21.0400 26043.6 -03423.9 -07.4897 26267.7
 13 04 2013  19 47  -21.0399 26043.6 -03424.0 -07.4899 26267.7
 13 04 2013  19 48  -21.0397 26043.6 -03424.2 -07.4903 26267.7
 13 04 2013  19 49  -21.0396 26043.6 -03424.4 -07.4906 26267.8
 13 04 2013  19 50  -21.0395 26043.7 -03424.6 -07.4910 26267.9
 13 04 2013  19 51  -21.0394 26043.8 -03424.7 -07.4913 26268.0
 13 04 2013  19 52  -21.0393 26043.8 -03424.8 -07.4915 26268.0
 13 04 2013  19 53  -21.0393 26043.7 -03424.8 -07.4915 26267.9
 13 04 2013  19 54  -21.0391 26043.5 -03424.9 -07.4917 26267.7
 13 04 2013  19 55  -21.0389 26043.5 -03425.0 -07.4920 26267.7
 13 04 2013  19 56  -21.0388 26043.5 -03425.2 -07.4923 26267.8
 13 04 2013  19 57  -21.0386 26043.5 -03425.3 -07.4926 26267.8
 13 04 2013  19 58  -21.0385 26043.5 -03425.4 -07.4928 26267.8
 13 04 2013  19 59  -21.0386 26043.6 -03425.5 -07.4931 26268.0
 13 04 2013  20 00  -21.0385 26043.7 -03425.6 -07.4933 26268.0
 13 04 2013  20 01  -21.0385 26043.8 -03425.7 -07.4935 26268.1
 13 04 2013  20 02  -21.0387 26043.9 -03425.9 -07.4938 26268.3
 13 04 2013  20 03  -21.0384 26044.0 -03426.0 -07.4940 26268.3
 13 04 2013  20 04  -21.0385 26043.9 -03426.0 -07.4940 26268.2
 13 04 2013  20 05  -21.0385 26043.8 -03426.0 -07.4940 26268.1
 13 04 2013  20 06  -21.0385 26043.7 -03426.0 -07.4940 26268.1
 13 04 2013  20 07  -21.0384 26043.6 -03426.0 -07.4941 26268.0
 13 04 2013  20 08  -21.0384 26043.7 -03426.1 -07.4942 26268.0
 13 04 2013  20 09  -21.0384 26043.6 -03426.1 -07.4944 26268.0
 13 04 2013  20 10  -21.0384 26043.7 -03426.2 -07.4945 26268.1
 13 04 2013  20 11  -21.0383 26043.7 -03426.2 -07.4946 26268.1
 13 04 2013  20 12  -21.0382 26043.8 -03426.3 -07.4948 26268.2
 13 04 2013  20 13  -21.0381 26044.0 -03426.4 -07.4950 26268.4
 13 04 2013  20 14  -21.0381 26044.3 -03426.6 -07.4953 26268.8
 13 04 2013  20 15  -21.0382 26044.5 -03426.7 -07.4954 26269.0
 13 04 2013  20 16  -21.0383 26044.7 -03426.8 -07.4955 26269.2
 13 04 2013  20 17  -21.0383 26044.9 -03426.8 -07.4955 26269.3
 13 04 2013  20 18  -21.0384 26045.0 -03426.8 -07.4955 26269.4
 13 04 2013  20 19  -21.0383 26045.0 -03426.8 -07.4954 26269.5
 13 04 2013  20 20  -21.0382 26045.0 -03426.7 -07.4953 26269.4
 13 04 2013  20 21  -21.0381 26044.9 -03426.7 -07.4952 26269.3
 13 04 2013  20 22  -21.0379 26044.9 -03426.7 -07.4952 26269.3
 13 04 2013  20 23  -21.0378 26045.0 -03426.7 -07.4953 26269.5
 13 04 2013  20 24  -21.0376 26045.0 -03426.7 -07.4952 26269.5
 13 04 2013  20 25  -21.0374 26044.9 -03426.6 -07.4951 26269.3
 13 04 2013  20 26  -21.0371 26044.9 -03426.6 -07.4950 26269.4
 13 04 2013  20 27  -21.0370 26045.1 -03426.6 -07.4951 26269.5
 13 04 2013  20 28  -21.0366 26045.1 -03426.6 -07.4950 26269.5
 13 04 2013  20 29  -21.0364 26045.1 -03426.6 -07.4950 26269.6
 13 04 2013  20 30  -21.0361 26045.2 -03426.6 -07.4949 26269.7
 13 04 2013  20 31  -21.0358 26045.3 -03426.6 -07.4949 26269.8
 13 04 2013  20 32  -21.0356 26045.3 -03426.5 -07.4947 26269.7
 13 04 2013  20 33  -21.0352 26045.3 -03426.5 -07.4946 26269.7
 13 04 2013  20 34  -21.0349 26045.3 -03426.5 -07.4946 26269.7
 13 04 2013  20 35  -21.0345 26045.4 -03426.4 -07.4946 26269.8
 13 04 2013  20 36  -21.0340 26045.5 -03426.5 -07.4946 26269.9
 13 04 2013  20 37  -21.0336 26045.6 -03426.5 -07.4947 26270.0
 13 04 2013  20 38  -21.0333 26045.8 -03426.6 -07.4947 26270.2
 13 04 2013  20 39  -21.0330 26045.9 -03426.6 -07.4947 26270.3
 13 04 2013  20 40  -21.0326 26045.9 -03426.5 -07.4947 26270.3
 13 04 2013  20 41  -21.0322 26046.0 -03426.6 -07.4947 26270.4
 13 04 2013  20 42  -21.0319 26046.1 -03426.6 -07.4947 26270.5
 13 04 2013  20 43  -21.0315 26046.1 -03426.6 -07.4946 26270.5
 13 04 2013  20 44  -21.0312 26046.1 -03426.5 -07.4946 26270.6
 13 04 2013  20 45  -21.0309 26046.2 -03426.5 -07.4945 26270.6
 13 04 2013  20 46  -21.0306 26046.2 -03426.5 -07.4945 26270.6
 13 04 2013  20 47  -21.0302 26046.1 -03426.4 -07.4944 26270.5
 13 04 2013  20 48  -21.0298 26046.1 -03426.4 -07.4943 26270.5
 13 04 2013  20 49  -21.0296 26046.2 -03426.5 -07.4944 26270.7
 13 04 2013  20 50  -21.0293 26046.3 -03426.5 -07.4944 26270.7
 13 04 2013  20 51  -21.0290 26046.3 -03426.5 -07.4944 26270.7
 13 04 2013  20 52  -21.0287 26046.3 -03426.5 -07.4944 26270.7
 13 04 2013  20 53  -21.0285 26046.4 -03426.5 -07.4944 26270.8
 13 04 2013  20 54  -21.0283 26046.5 -03426.6 -07.4945 26271.0
 13 04 2013  20 55  -21.0281 26046.6 -03426.6 -07.4945 26271.0
 13 04 2013  20 56  -21.0278 26046.6 -03426.5 -07.4944 26271.0
 13 04 2013  20 57  -21.0276 26046.5 -03426.5 -07.4944 26270.9
 13 04 2013  20 58  -21.0273 26046.5 -03426.5 -07.4944 26270.9
 13 04 2013  20 59  -21.0270 26046.6 -03426.5 -07.4945 26271.0
 13 04 2013  21 00  -21.0268 26046.8 -03426.6 -07.4946 26271.2
 13 04 2013  21 01  -21.0266 26046.9 -03426.7 -07.4946 26271.3
 13 04 2013  21 02  -21.0264 26046.9 -03426.6 -07.4946 26271.3
 13 04 2013  21 03  -21.0263 26046.8 -03426.6 -07.4946 26271.2
 13 04 2013  21 04  -21.0256 26046.8 -03426.5 -07.4944 26271.2
 13 04 2013  21 05  -21.0257 26046.7 -03426.5 -07.4943 26271.1
 13 04 2013  21 06  -21.0255 26046.6 -03426.5 -07.4943 26271.0
 13 04 2013  21 07  -21.0253 26046.6 -03426.5 -07.4944 26271.0
 13 04 2013  21 08  -21.0250 26046.7 -03426.5 -07.4944 26271.1
 13 04 2013  21 09  -21.0249 26046.7 -03426.6 -07.4946 26271.2
 13 04 2013  21 10  -21.0246 26046.9 -03426.7 -07.4947 26271.3
 13 04 2013  21 11  -21.0244 26047.0 -03426.8 -07.4948 26271.5
 13 04 2013  21 12  -21.0242 26047.2 -03426.9 -07.4951 26271.7
 13 04 2013  21 13  -21.0239 26047.4 -03427.0 -07.4953 26271.9
 13 04 2013  21 14  -21.0238 26047.6 -03427.2 -07.4955 26272.1
 13 04 2013  21 15  -21.0238 26047.7 -03427.2 -07.4957 26272.2
 13 04 2013  21 16  -21.0238 26047.6 -03427.3 -07.4957 26272.2
 13 04 2013  21 17  -21.0238 26047.5 -03427.2 -07.4957 26272.0
 13 04 2013  21 18  -21.0238 26047.4 -03427.1 -07.4955 26271.9
 13 04 2013  21 19  -21.0237 26047.3 -03427.1 -07.4955 26271.8
 13 04 2013  21 20  -21.0236 26047.3 -03427.1 -07.4955 26271.7
 13 04 2013  21 21  -21.0235 26047.3 -03427.2 -07.4957 26271.8
 13 04 2013  21 22  -21.0239 26047.4 -03427.2 -07.4957 26271.9
 13 04 2013  21 23  -21.0246 26047.6 -03427.2 -07.4956 26272.1
 13 04 2013  21 24  -21.0239 26047.6 -03427.3 -07.4958 26272.1
 13 04 2013  21 25  -21.0234 26047.5 -03427.4 -07.4961 26272.0
 13 04 2013  21 26  -21.0234 26047.5 -03427.4 -07.4961 26272.0
 13 04 2013  21 27  -21.0236 26047.5 -03427.4 -07.4961 26272.0
 13 04 2013  21 28  -21.0237 26047.5 -03427.5 -07.4962 26272.0
 13 04 2013  21 29  -21.0238 26047.5 -03427.5 -07.4962 26272.0
 13 04 2013  21 30  -21.0240 26047.5 -03427.5 -07.4963 26272.0
 13 04 2013  21 31  -21.0242 26047.5 -03427.5 -07.4964 26272.0
 13 04 2013  21 32  -21.0244 26047.5 -03427.6 -07.4965 26272.0
 13 04 2013  21 33  -21.0246 26047.5 -03427.6 -07.4965 26272.1
 13 04 2013  21 34  -21.0248 26047.5 -03427.6 -07.4965 26272.0
 13 04 2013  21 35  -21.0250 26047.4 -03427.6 -07.4965 26272.0
 13 04 2013  21 36  -21.0252 26047.3 -03427.6 -07.4965 26271.9
 13 04 2013  21 37  -21.0255 26047.3 -03427.6 -07.4965 26271.8
 13 04 2013  21 38  -21.0257 26047.3 -03427.6 -07.4966 26271.8
 13 04 2013  21 39  -21.0259 26047.3 -03427.7 -07.4967 26271.8
 13 04 2013  21 40  -21.0262 26047.3 -03427.7 -07.4967 26271.9
 13 04 2013  21 41  -21.0264 26047.3 -03427.7 -07.4968 26271.9
 13 04 2013  21 42  -21.0265 26047.3 -03427.7 -07.4967 26271.8
 13 04 2013  21 43  -21.0266 26047.2 -03427.7 -07.4967 26271.8
 13 04 2013  21 44  -21.0268 26047.1 -03427.6 -07.4967 26271.7
 13 04 2013  21 45  -21.0269 26047.1 -03427.6 -07.4967 26271.7
 13 04 2013  21 46  -21.0271 26047.1 -03427.6 -07.4967 26271.6
 13 04 2013  21 47  -21.0273 26047.0 -03427.6 -07.4967 26271.6
 13 04 2013  21 48  -21.0275 26047.0 -03427.6 -07.4966 26271.5
 13 04 2013  21 49  -21.0277 26046.9 -03427.6 -07.4966 26271.5
 13 04 2013  21 50  -21.0278 26046.9 -03427.6 -07.4966 26271.4
 13 04 2013  21 51  -21.0279 26046.8 -03427.6 -07.4966 26271.3
 13 04 2013  21 52  -21.0281 26046.7 -03427.5 -07.4965 26271.3
 13 04 2013  21 53  -21.0283 26046.7 -03427.5 -07.4965 26271.3
 13 04 2013  21 54  -21.0284 26046.7 -03427.5 -07.4965 26271.2
 13 04 2013  21 55  -21.0285 26046.6 -03427.5 -07.4965 26271.2
 13 04 2013  21 56  -21.0287 26046.6 -03427.5 -07.4965 26271.1
 13 04 2013  21 57  -21.0288 26046.6 -03427.5 -07.4965 26271.1
 13 04 2013  21 58  -21.0289 26046.6 -03427.5 -07.4965 26271.1
 13 04 2013  21 59  -21.0290 26046.5 -03427.5 -07.4965 26271.1
 13 04 2013  22 00  -21.0291 26046.4 -03427.5 -07.4965 26271.0
 13 04 2013  22 01  -21.0293 26046.4 -03427.5 -07.4965 26270.9
 13 04 2013  22 02  -21.0294 26046.4 -03427.5 -07.4965 26270.9
 13 04 2013  22 03  -21.0295 26046.4 -03427.5 -07.4965 26270.9
 13 04 2013  22 04  -21.0297 26046.4 -03427.5 -07.4966 26271.0
 13 04 2013  22 05  -21.0299 26046.4 -03427.6 -07.4967 26271.0
 13 04 2013  22 06  -21.0300 26046.4 -03427.6 -07.4967 26270.9
 13 04 2013  22 07  -21.0301 26046.3 -03427.6 -07.4968 26270.9
 13 04 2013  22 08  -21.0303 26046.3 -03427.6 -07.4967 26270.8
 13 04 2013  22 09  -21.0305 26046.2 -03427.5 -07.4967 26270.7
 13 04 2013  22 10  -21.0307 26046.1 -03427.5 -07.4967 26270.7
 13 04 2013  22 11  -21.0308 26046.0 -03427.5 -07.4967 26270.6
 13 04 2013  22 12  -21.0310 26045.9 -03427.5 -07.4967 26270.5
 13 04 2013  22 13  -21.0312 26045.8 -03427.5 -07.4966 26270.4
 13 04 2013  22 14  -21.0314 26045.6 -03427.4 -07.4966 26270.2
 13 04 2013  22 15  -21.0314 26045.5 -03427.3 -07.4965 26270.1
 13 04 2013  22 16  -21.0314 26045.4 -03427.3 -07.4964 26270.0
 13 04 2013  22 17  -21.0315 26045.3 -03427.3 -07.4964 26269.8
 13 04 2013  22 18  -21.0316 26045.3 -03427.3 -07.4965 26269.8
 13 04 2013  22 19  -21.0317 26045.3 -03427.3 -07.4966 26269.8
 13 04 2013  22 20  -21.0317 26045.3 -03427.4 -07.4967 26269.8
 13 04 2013  22 21  -21.0317 26045.3 -03427.4 -07.4967 26269.8
 13 04 2013  22 22  -21.0318 26045.2 -03427.4 -07.4968 26269.8
 13 04 2013  22 23  -21.0319 26045.1 -03427.4 -07.4967 26269.7
 13 04 2013  22 24  -21.0321 26044.8 -03427.3 -07.4966 26269.4
 13 04 2013  22 25  -21.0323 26044.6 -03427.2 -07.4965 26269.1
 13 04 2013  22 26  -21.0324 26044.4 -03427.2 -07.4964 26268.9
 13 04 2013  22 27  -21.0324 26044.3 -03427.1 -07.4964 26268.9
 13 04 2013  22 28  -21.0323 26044.2 -03427.1 -07.4964 26268.7
 13 04 2013  22 29  -21.0325 26044.0 -03427.1 -07.4964 26268.6
 13 04 2013  22 30  -21.0325 26043.9 -03427.1 -07.4964 26268.4
 13 04 2013  22 31  -21.0325 26043.6 -03427.0 -07.4963 26268.1
 13 04 2013  22 32  -21.0324 26043.5 -03427.0 -07.4963 26268.0
 13 04 2013  22 33  -21.0324 26043.3 -03426.9 -07.4962 26267.8
 13 04 2013  22 34  -21.0325 26043.2 -03426.9 -07.4962 26267.7
 13 04 2013  22 35  -21.0324 26043.0 -03426.9 -07.4963 26267.5
 13 04 2013  22 36  -21.0325 26042.8 -03426.9 -07.4963 26267.3
 13 04 2013  22 37  -21.0325 26042.5 -03426.8 -07.4962 26267.0
 13 04 2013  22 38  -21.0324 26042.5 -03426.8 -07.4963 26267.0
 13 04 2013  22 39  -21.0325 26042.3 -03426.8 -07.4963 26266.8
 13 04 2013  22 40  -21.0325 26042.3 -03426.9 -07.4964 26266.8
 13 04 2013  22 41  -21.0327 26042.3 -03427.0 -07.4966 26266.8
 13 04 2013  22 42  -21.0327 26042.2 -03427.0 -07.4966 26266.7
 13 04 2013  22 43  -21.0330 26042.1 -03427.0 -07.4967 26266.7
 13 04 2013  22 44  -21.0333 26042.1 -03427.0 -07.4968 26266.6
 13 04 2013  22 45  -21.0334 26042.1 -03427.1 -07.4969 26266.6
 13 04 2013  22 46  -21.0335 26042.1 -03427.1 -07.4969 26266.6
 13 04 2013  22 47  -21.0336 26042.1 -03427.1 -07.4970 26266.6
 13 04 2013  22 48  -21.0336 26041.9 -03427.1 -07.4969 26266.4
 13 04 2013  22 49  -21.0337 26041.8 -03427.1 -07.4969 26266.3
 13 04 2013  22 50  -21.0339 26041.9 -03427.2 -07.4971 26266.5
 13 04 2013  22 51  -21.0340 26042.3 -03427.4 -07.4975 26266.9
 13 04 2013  22 52  -21.0340 26042.5 -03427.6 -07.4978 26267.1
 13 04 2013  22 53  -21.0341 26042.7 -03427.7 -07.4980 26267.3
 13 04 2013  22 54  -21.0338 26043.2 -03427.9 -07.4983 26267.8
 13 04 2013  22 55  -21.0315 26045.5 -03428.7 -07.4995 26270.2
 13 04 2013  22 56  -21.0277 26050.2 -03431.0 -07.5030 26275.2
 13 04 2013  22 57  -21.0211 26055.6 -03433.6 -07.5071 26280.9
 13 04 2013  22 58  -21.0160 26059.4 -03435.8 -07.5107 26284.9
 13 04 2013  22 59  -21.0139 26061.0 -03436.7 -07.5124 26286.7
 13 04 2013  23 00  -21.0134 26062.0 -03437.2 -07.5131 26287.7
 13 04 2013  23 01  -21.0139 26061.4 -03436.8 -07.5124 26287.0
 13 04 2013  23 02  -21.0150 26060.3 -03436.0 -07.5109 26285.8
 13 04 2013  23 03  -21.0161 26059.1 -03435.1 -07.5094 26284.5
 13 04 2013  23 04  -21.0168 26058.7 -03434.7 -07.5086 26284.0
 13 04 2013  23 05  -21.0179 26057.9 -03434.1 -07.5075 26283.2
 13 04 2013  23 06  -21.0190 26057.8 -03433.8 -07.5070 26283.1
 13 04 2013  23 07  -21.0193 26058.0 -03433.8 -07.5068 26283.3
 13 04 2013  23 08  -21.0195 26057.8 -03433.6 -07.5066 26283.0
 13 04 2013  23 09  -21.0195 26058.3 -03433.7 -07.5067 26283.6
 13 04 2013  23 10  -21.0203 26057.3 -03433.2 -07.5059 26282.5
 13 04 2013  23 11  -21.0202 26058.3 -03433.4 -07.5060 26283.5
 13 04 2013  23 12  -21.0203 26057.7 -03433.3 -07.5059 26282.9
 13 04 2013  23 13  -21.0211 26056.8 -03432.7 -07.5049 26282.0
 13 04 2013  23 14  -21.0213 26056.7 -03432.5 -07.5045 26281.8
 13 04 2013  23 15  -21.0211 26057.4 -03432.7 -07.5046 26282.5
 13 04 2013  23 16  -21.0205 26058.3 -03433.2 -07.5055 26283.5
 13 04 2013  23 17  -21.0214 26057.1 -03432.6 -07.5046 26282.2
 13 04 2013  23 18  -21.0210 26057.3 -03432.6 -07.5045 26282.4
 13 04 2013  23 19  -21.0215 26057.2 -03432.5 -07.5043 26282.3
 13 04 2013  23 20  -21.0212 26057.8 -03432.7 -07.5047 26282.9
 13 04 2013  23 21  -21.0211 26057.6 -03432.6 -07.5044 26282.7
 13 04 2013  23 22  -21.0209 26058.1 -03432.8 -07.5046 26283.3
 13 04 2013  23 23  -21.0211 26057.9 -03432.7 -07.5046 26283.0
 13 04 2013  23 24  -21.0212 26058.0 -03432.7 -07.5044 26283.1
 13 04 2013  23 25  -21.0213 26058.2 -03432.7 -07.5044 26283.3
 13 04 2013  23 26  -21.0211 26058.5 -03432.8 -07.5045 26283.7
 13 04 2013  23 27  -21.0207 26058.5 -03432.7 -07.5045 26283.7
 13 04 2013  23 28  -21.0206 26058.3 -03432.6 -07.5042 26283.5
 13 04 2013  23 29  -21.0212 26057.9 -03432.4 -07.5038 26283.0
 13 04 2013  23 30  -21.0214 26058.2 -03432.4 -07.5038 26283.3
 13 04 2013  23 31  -21.0215 26058.6 -03432.6 -07.5041 26283.7
 13 04 2013  23 32  -21.0212 26059.3 -03432.9 -07.5046 26284.4
 13 04 2013  23 33  -21.0218 26058.8 -03432.7 -07.5042 26283.9
 13 04 2013  23 34  -21.0214 26059.6 -03432.9 -07.5046 26284.7
 13 04 2013  23 35  -21.0214 26059.3 -03432.8 -07.5044 26284.5
 13 04 2013  23 36  -21.0219 26059.1 -03432.6 -07.5039 26284.2
 13 04 2013  23 37  -21.0215 26059.8 -03432.8 -07.5043 26284.9
 13 04 2013  23 38  -21.0214 26060.4 -03433.1 -07.5047 26285.6
 13 04 2013  23 39  -21.0215 26060.7 -03433.3 -07.5050 26285.9
 13 04 2013  23 40  -21.0219 26060.0 -03432.9 -07.5044 26285.2
 13 04 2013  23 41  -21.0225 26059.6 -03432.5 -07.5037 26284.7
 13 04 2013  23 42  -21.0230 26058.9 -03432.2 -07.5031 26283.9
 13 04 2013  23 43  -21.0234 26058.4 -03431.8 -07.5024 26283.4
 13 04 2013  23 44  -21.0232 26058.4 -03431.7 -07.5023 26283.4
 13 04 2013  23 45  -21.0231 26058.4 -03431.7 -07.5022 26283.4
 13 04 2013  23 46  -21.0232 26058.0 -03431.5 -07.5020 26282.9
 13 04 2013  23 47  -21.0234 26057.4 -03431.2 -07.5015 26282.4
 13 04 2013  23 48  -21.0234 26057.2 -03431.1 -07.5012 26282.2
 13 04 2013  23 49  -21.0234 26057.2 -03431.0 -07.5010 26282.1
 13 04 2013  23 50  -21.0230 26057.5 -03431.1 -07.5012 26282.4
 13 04 2013  23 51  -21.0225 26058.1 -03431.5 -07.5018 26283.1
 13 04 2013  23 52  -21.0225 26057.8 -03431.4 -07.5017 26282.7
 13 04 2013  23 53  -21.0229 26057.0 -03431.1 -07.5012 26282.0
 13 04 2013  23 54  -21.0235 26056.0 -03430.6 -07.5004 26280.9
 13 04 2013  23 55  -21.0243 26055.2 -03430.1 -07.4997 26280.0
 13 04 2013  23 56  -21.0249 26054.6 -03429.8 -07.4992 26279.4
 13 04 2013  23 57  -21.0249 26054.8 -03429.9 -07.4993 26279.6
 13 04 2013  23 58  -21.0244 26055.0 -03430.0 -07.4996 26279.8
