SAO LUIS EMBRACE-03 <162> 1 Min. Reported data

 DD MM YYYY  HH MM   D(Deg)  H(nT)   Z(nT)   I(Deg)   F(nT)

 11 06 2013  00 00  -21.0376 26019.6 -03448.3 -07.5493 26247.1
 11 06 2013  00 01  -21.0375 26019.5 -03448.3 -07.5493 26247.0
 11 06 2013  00 02  -21.0375 26019.5 -03448.3 -07.5493 26247.0
 11 06 2013  00 03  -21.0374 26019.6 -03448.4 -07.5495 26247.1
 11 06 2013  00 04  -21.0371 26019.7 -03448.5 -07.5496 26247.2
 11 06 2013  00 05  -21.0368 26019.8 -03448.5 -07.5496 26247.3
 11 06 2013  00 06  -21.0365 26019.8 -03448.6 -07.5497 26247.3
 11 06 2013  00 07  -21.0363 26019.8 -03448.6 -07.5498 26247.4
 11 06 2013  00 08  -21.0362 26019.9 -03448.6 -07.5499 26247.4
 11 06 2013  00 09  -21.0361 26019.9 -03448.7 -07.5500 26247.5
 11 06 2013  00 10  -21.0361 26020.0 -03448.7 -07.5501 26247.5
 11 06 2013  00 11  -21.0359 26020.0 -03448.8 -07.5502 26247.6
 11 06 2013  00 12  -21.0358 26020.0 -03448.8 -07.5502 26247.6
 11 06 2013  00 13  -21.0357 26020.0 -03448.8 -07.5502 26247.5
 11 06 2013  00 14  -21.0357 26020.0 -03448.8 -07.5503 26247.5
 11 06 2013  00 15  -21.0358 26020.0 -03448.9 -07.5503 26247.6
 11 06 2013  00 16  -21.0357 26020.1 -03448.9 -07.5504 26247.7
 11 06 2013  00 17  -21.0355 26020.2 -03449.0 -07.5505 26247.8
 11 06 2013  00 18  -21.0354 26020.4 -03449.1 -07.5507 26248.0
 11 06 2013  00 19  -21.0352 26020.5 -03449.2 -07.5508 26248.1
 11 06 2013  00 20  -21.0349 26020.7 -03449.2 -07.5509 26248.3
 11 06 2013  00 21  -21.0347 26020.8 -03449.3 -07.5510 26248.4
 11 06 2013  00 22  -21.0345 26021.0 -03449.4 -07.5511 26248.6
 11 06 2013  00 23  -21.0343 26021.1 -03449.4 -07.5512 26248.7
 11 06 2013  00 24  -21.0342 26021.1 -03449.5 -07.5513 26248.8
 11 06 2013  00 25  -21.0341 26021.1 -03449.5 -07.5514 26248.8
 11 06 2013  00 26  -21.0341 26021.1 -03449.5 -07.5514 26248.8
 11 06 2013  00 27  -21.0341 26021.1 -03449.5 -07.5514 26248.8
 11 06 2013  00 28  -21.0341 26021.2 -03449.5 -07.5515 26248.9
 11 06 2013  00 29  -21.0341 26021.3 -03449.6 -07.5515 26249.0
 11 06 2013  00 30  -21.0341 26021.4 -03449.6 -07.5515 26249.0
 11 06 2013  00 31  -21.0340 26021.3 -03449.6 -07.5515 26249.0
 11 06 2013  00 32  -21.0340 26021.1 -03449.5 -07.5513 26248.8
 11 06 2013  00 33  -21.0341 26021.1 -03449.5 -07.5513 26248.8
 11 06 2013  00 34  -21.0344 26021.2 -03449.5 -07.5514 26248.9
 11 06 2013  00 35  -21.0346 26021.3 -03449.5 -07.5514 26249.0
 11 06 2013  00 36  -21.0346 26021.4 -03449.6 -07.5515 26249.1
 11 06 2013  00 37  -21.0347 26021.4 -03449.6 -07.5514 26249.1
 11 06 2013  00 38  -21.0347 26021.5 -03449.5 -07.5514 26249.1
 11 06 2013  00 39  -21.0348 26021.4 -03449.5 -07.5513 26249.1
 11 06 2013  00 40  -21.0350 26021.5 -03449.5 -07.5514 26249.1
 11 06 2013  00 41  -21.0351 26021.5 -03449.6 -07.5514 26249.2
 11 06 2013  00 42  -21.0350 26021.7 -03449.6 -07.5514 26249.3
 11 06 2013  00 43  -21.0349 26021.8 -03449.6 -07.5514 26249.4
 11 06 2013  00 44  -21.0348 26022.0 -03449.7 -07.5515 26249.6
 11 06 2013  00 45  -21.0345 26022.1 -03449.7 -07.5516 26249.8
 11 06 2013  00 46  -21.0342 26022.3 -03449.8 -07.5516 26249.9
 11 06 2013  00 47  -21.0339 26022.4 -03449.8 -07.5517 26250.1
 11 06 2013  00 48  -21.0336 26022.5 -03449.8 -07.5517 26250.2
 11 06 2013  00 49  -21.0335 26022.5 -03449.8 -07.5517 26250.2
 11 06 2013  00 50  -21.0334 26022.5 -03449.8 -07.5516 26250.2
 11 06 2013  00 51  -21.0334 26022.4 -03449.8 -07.5516 26250.1
 11 06 2013  00 52  -21.0335 26022.3 -03449.7 -07.5515 26249.9
 11 06 2013  00 53  -21.0336 26022.1 -03449.6 -07.5514 26249.8
 11 06 2013  00 54  -21.0338 26021.9 -03449.5 -07.5512 26249.6
 11 06 2013  00 55  -21.0340 26021.8 -03449.4 -07.5511 26249.4
 11 06 2013  00 56  -21.0341 26021.6 -03449.4 -07.5510 26249.3
 11 06 2013  00 57  -21.0342 26021.5 -03449.3 -07.5509 26249.1
 11 06 2013  00 58  -21.0343 26021.5 -03449.3 -07.5509 26249.1
 11 06 2013  00 59  -21.0343 26021.4 -03449.3 -07.5508 26249.0
 11 06 2013  01 00  -21.0342 26021.4 -03449.3 -07.5509 26249.0
 11 06 2013  01 01  -21.0342 26021.4 -03449.3 -07.5509 26249.0
 11 06 2013  01 02  -21.0341 26021.4 -03449.3 -07.5509 26249.0
 11 06 2013  01 03  -21.0340 26021.4 -03449.3 -07.5509 26249.0
 11 06 2013  01 04  -21.0339 26021.4 -03449.3 -07.5509 26249.0
 11 06 2013  01 05  -21.0338 26021.4 -03449.3 -07.5509 26249.0
 11 06 2013  01 06  -21.0337 26021.4 -03449.3 -07.5509 26249.0
 11 06 2013  01 07  -21.0337 26021.4 -03449.3 -07.5510 26249.0
 11 06 2013  01 08  -21.0337 26021.4 -03449.3 -07.5509 26249.0
 11 06 2013  01 09  -21.0338 26021.3 -03449.3 -07.5509 26248.9
 11 06 2013  01 10  -21.0337 26021.3 -03449.3 -07.5508 26248.9
 11 06 2013  01 11  -21.0337 26021.1 -03449.2 -07.5508 26248.7
 11 06 2013  01 12  -21.0336 26021.1 -03449.2 -07.5507 26248.7
 11 06 2013  01 13  -21.0336 26021.0 -03449.1 -07.5506 26248.6
 11 06 2013  01 14  -21.0335 26021.0 -03449.1 -07.5506 26248.6
 11 06 2013  01 15  -21.0334 26021.0 -03449.1 -07.5506 26248.6
 11 06 2013  01 16  -21.0333 26020.9 -03449.1 -07.5506 26248.5
 11 06 2013  01 17  -21.0332 26020.9 -03449.1 -07.5506 26248.5
 11 06 2013  01 18  -21.0331 26020.8 -03449.0 -07.5504 26248.4
 11 06 2013  01 19  -21.0330 26020.8 -03449.0 -07.5504 26248.4
 11 06 2013  01 20  -21.0329 26020.7 -03449.0 -07.5503 26248.3
 11 06 2013  01 21  -21.0329 26020.7 -03448.9 -07.5503 26248.3
 11 06 2013  01 22  -21.0328 26020.7 -03448.9 -07.5503 26248.3
 11 06 2013  01 23  -21.0327 26020.7 -03448.9 -07.5503 26248.3
 11 06 2013  01 24  -21.0327 26020.7 -03449.0 -07.5503 26248.3
 11 06 2013  01 25  -21.0327 26020.7 -03449.0 -07.5504 26248.3
 11 06 2013  01 26  -21.0329 26020.7 -03449.1 -07.5506 26248.3
 11 06 2013  01 27  -21.0329 26020.8 -03449.1 -07.5507 26248.4
 11 06 2013  01 28  -21.0329 26020.9 -03449.2 -07.5508 26248.5
 11 06 2013  01 29  -21.0329 26020.9 -03449.2 -07.5508 26248.5
 11 06 2013  01 30  -21.0329 26021.0 -03449.2 -07.5508 26248.6
 11 06 2013  01 31  -21.0329 26021.0 -03449.2 -07.5508 26248.6
 11 06 2013  01 32  -21.0329 26021.0 -03449.2 -07.5509 26248.6
 11 06 2013  01 33  -21.0328 26021.0 -03449.3 -07.5509 26248.6
 11 06 2013  01 34  -21.0328 26021.0 -03449.3 -07.5509 26248.6
 11 06 2013  01 35  -21.0328 26021.1 -03449.3 -07.5509 26248.7
 11 06 2013  01 36  -21.0328 26021.2 -03449.3 -07.5509 26248.8
 11 06 2013  01 37  -21.0328 26021.3 -03449.3 -07.5510 26248.9
 11 06 2013  01 38  -21.0328 26021.4 -03449.4 -07.5511 26249.0
 11 06 2013  01 39  -21.0327 26021.5 -03449.4 -07.5512 26249.1
 11 06 2013  01 40  -21.0326 26021.5 -03449.4 -07.5512 26249.2
 11 06 2013  01 41  -21.0326 26021.6 -03449.5 -07.5512 26249.2
 11 06 2013  01 42  -21.0326 26021.6 -03449.5 -07.5512 26249.3
 11 06 2013  01 43  -21.0326 26021.6 -03449.5 -07.5512 26249.2
 11 06 2013  01 44  -21.0325 26021.5 -03449.4 -07.5511 26249.2
 11 06 2013  01 45  -21.0326 26021.4 -03449.3 -07.5509 26249.0
 11 06 2013  01 46  -21.0327 26021.2 -03449.3 -07.5508 26248.8
 11 06 2013  01 47  -21.0329 26021.1 -03449.1 -07.5506 26248.7
 11 06 2013  01 48  -21.0331 26020.9 -03449.0 -07.5505 26248.5
 11 06 2013  01 49  -21.0333 26020.8 -03449.0 -07.5504 26248.4
 11 06 2013  01 50  -21.0333 26020.8 -03449.0 -07.5504 26248.3
 11 06 2013  01 51  -21.0332 26020.6 -03448.9 -07.5502 26248.2
 11 06 2013  01 52  -21.0332 26020.5 -03448.9 -07.5502 26248.1
 11 06 2013  01 53  -21.0332 26020.5 -03448.8 -07.5502 26248.1
 11 06 2013  01 54  -21.0330 26020.5 -03448.9 -07.5502 26248.1
 11 06 2013  01 55  -21.0329 26020.6 -03448.9 -07.5503 26248.1
 11 06 2013  01 56  -21.0327 26020.6 -03449.0 -07.5504 26248.2
 11 06 2013  01 57  -21.0325 26020.7 -03449.0 -07.5504 26248.3
 11 06 2013  01 58  -21.0324 26020.7 -03449.0 -07.5505 26248.3
 11 06 2013  01 59  -21.0323 26020.7 -03449.1 -07.5506 26248.3
 11 06 2013  02 00  -21.0322 26020.7 -03449.1 -07.5506 26248.3
 11 06 2013  02 01  -21.0322 26020.6 -03449.1 -07.5506 26248.2
 11 06 2013  02 02  -21.0321 26020.6 -03449.1 -07.5506 26248.2
 11 06 2013  02 03  -21.0322 26020.6 -03449.1 -07.5507 26248.2
 11 06 2013  02 04  -21.0323 26020.5 -03449.1 -07.5506 26248.1
 11 06 2013  02 05  -21.0324 26020.4 -03449.0 -07.5506 26248.0
 11 06 2013  02 06  -21.0325 26020.3 -03449.0 -07.5505 26247.9
 11 06 2013  02 07  -21.0326 26020.2 -03449.0 -07.5505 26247.8
 11 06 2013  02 08  -21.0327 26020.2 -03449.0 -07.5505 26247.7
 11 06 2013  02 09  -21.0328 26020.1 -03449.0 -07.5505 26247.7
 11 06 2013  02 10  -21.0329 26020.0 -03448.9 -07.5505 26247.6
 11 06 2013  02 11  -21.0330 26020.0 -03448.9 -07.5505 26247.6
 11 06 2013  02 12  -21.0330 26020.1 -03449.0 -07.5505 26247.7
 11 06 2013  02 13  -21.0330 26020.1 -03449.0 -07.5505 26247.7
 11 06 2013  02 14  -21.0329 26020.1 -03449.0 -07.5506 26247.7
 11 06 2013  02 15  -21.0327 26020.1 -03449.0 -07.5506 26247.7
 11 06 2013  02 16  -21.0327 26020.1 -03449.0 -07.5506 26247.7
 11 06 2013  02 17  -21.0327 26020.2 -03449.1 -07.5507 26247.8
 11 06 2013  02 18  -21.0327 26020.2 -03449.1 -07.5507 26247.8
 11 06 2013  02 19  -21.0328 26020.2 -03449.1 -07.5508 26247.8
 11 06 2013  02 20  -21.0328 26020.3 -03449.1 -07.5509 26247.9
 11 06 2013  02 21  -21.0329 26020.4 -03449.2 -07.5509 26248.0
 11 06 2013  02 22  -21.0329 26020.4 -03449.2 -07.5509 26248.0
 11 06 2013  02 23  -21.0330 26020.5 -03449.2 -07.5510 26248.1
 11 06 2013  02 24  -21.0329 26020.5 -03449.3 -07.5510 26248.2
 11 06 2013  02 25  -21.0329 26020.6 -03449.2 -07.5510 26248.2
 11 06 2013  02 26  -21.0329 26020.6 -03449.2 -07.5510 26248.2
 11 06 2013  02 27  -21.0328 26020.6 -03449.3 -07.5510 26248.2
 11 06 2013  02 28  -21.0327 26020.7 -03449.3 -07.5510 26248.3
 11 06 2013  02 29  -21.0326 26020.7 -03449.3 -07.5511 26248.3
 11 06 2013  02 30  -21.0326 26020.8 -03449.3 -07.5511 26248.4
 11 06 2013  02 31  -21.0325 26020.8 -03449.3 -07.5511 26248.4
 11 06 2013  02 32  -21.0324 26020.9 -03449.3 -07.5511 26248.5
 11 06 2013  02 33  -21.0324 26020.9 -03449.3 -07.5511 26248.5
 11 06 2013  02 34  -21.0323 26020.9 -03449.3 -07.5511 26248.5
 11 06 2013  02 35  -21.0323 26020.9 -03449.4 -07.5512 26248.5
 11 06 2013  02 36  -21.0323 26020.9 -03449.4 -07.5512 26248.6
 11 06 2013  02 37  -21.0322 26021.0 -03449.4 -07.5512 26248.7
 11 06 2013  02 38  -21.0322 26021.1 -03449.5 -07.5514 26248.7
 11 06 2013  02 39  -21.0322 26021.2 -03449.5 -07.5514 26248.8
 11 06 2013  02 40  -21.0322 26021.3 -03449.5 -07.5514 26248.9
 11 06 2013  02 41  -21.0322 26021.4 -03449.6 -07.5515 26249.0
 11 06 2013  02 42  -21.0323 26021.5 -03449.6 -07.5515 26249.2
 11 06 2013  02 43  -21.0322 26021.6 -03449.7 -07.5516 26249.3
 11 06 2013  02 44  -21.0323 26021.7 -03449.7 -07.5516 26249.4
 11 06 2013  02 45  -21.0322 26021.7 -03449.7 -07.5517 26249.4
 11 06 2013  02 46  -21.0323 26021.8 -03449.7 -07.5517 26249.4
 11 06 2013  02 47  -21.0322 26021.9 -03449.7 -07.5517 26249.6
 11 06 2013  02 48  -21.0322 26022.0 -03449.7 -07.5516 26249.7
 11 06 2013  02 49  -21.0322 26022.1 -03449.8 -07.5517 26249.8
 11 06 2013  02 50  -21.0322 26022.1 -03449.8 -07.5517 26249.8
 11 06 2013  02 51  -21.0322 26022.2 -03449.7 -07.5516 26249.8
 11 06 2013  02 52  -21.0322 26022.2 -03449.8 -07.5516 26249.9
 11 06 2013  02 53  -21.0323 26022.2 -03449.7 -07.5516 26249.9
 11 06 2013  02 54  -21.0323 26022.2 -03449.8 -07.5516 26249.9
 11 06 2013  02 55  -21.0324 26022.2 -03449.7 -07.5516 26249.8
 11 06 2013  02 56  -21.0325 26022.2 -03449.7 -07.5516 26249.8
 11 06 2013  02 57  -21.0325 26022.2 -03449.7 -07.5515 26249.8
 11 06 2013  02 58  -21.0324 26022.2 -03449.7 -07.5515 26249.8
 11 06 2013  02 59  -21.0324 26022.1 -03449.7 -07.5515 26249.8
 11 06 2013  03 00  -21.0324 26022.1 -03449.6 -07.5514 26249.7
 11 06 2013  03 01  -21.0324 26022.0 -03449.6 -07.5514 26249.7
 11 06 2013  03 02  -21.0324 26022.0 -03449.6 -07.5514 26249.6
 11 06 2013  03 03  -21.0324 26022.0 -03449.6 -07.5513 26249.6
 11 06 2013  03 04  -21.0325 26022.0 -03449.6 -07.5514 26249.7
 11 06 2013  03 05  -21.0324 26022.1 -03449.7 -07.5514 26249.7
 11 06 2013  03 06  -21.0324 26022.1 -03449.7 -07.5515 26249.8
 11 06 2013  03 07  -21.0323 26022.2 -03449.7 -07.5516 26249.9
 11 06 2013  03 08  -21.0323 26022.3 -03449.8 -07.5516 26249.9
 11 06 2013  03 09  -21.0322 26022.3 -03449.8 -07.5517 26250.0
 11 06 2013  03 10  -21.0322 26022.4 -03449.8 -07.5517 26250.0
 11 06 2013  03 11  -21.0322 26022.5 -03449.8 -07.5517 26250.1
 11 06 2013  03 12  -21.0321 26022.5 -03449.9 -07.5518 26250.2
 11 06 2013  03 13  -21.0321 26022.6 -03449.9 -07.5519 26250.3
 11 06 2013  03 14  -21.0320 26022.7 -03450.0 -07.5520 26250.4
 11 06 2013  03 15  -21.0319 26022.8 -03450.0 -07.5520 26250.5
 11 06 2013  03 16  -21.0319 26022.9 -03450.0 -07.5521 26250.6
 11 06 2013  03 17  -21.0318 26022.9 -03450.1 -07.5521 26250.6
 11 06 2013  03 18  -21.0319 26023.0 -03450.1 -07.5521 26250.7
 11 06 2013  03 19  -21.0320 26023.0 -03450.1 -07.5521 26250.7
 11 06 2013  03 20  -21.0321 26022.9 -03450.1 -07.5521 26250.6
 11 06 2013  03 21  -21.0321 26023.0 -03450.1 -07.5521 26250.7
 11 06 2013  03 22  -21.0322 26023.1 -03450.1 -07.5521 26250.8
 11 06 2013  03 23  -21.0321 26023.1 -03450.1 -07.5522 26250.9
 11 06 2013  03 24  -21.0321 26023.2 -03450.1 -07.5522 26250.9
 11 06 2013  03 25  -21.0320 26023.2 -03450.1 -07.5521 26250.9
 11 06 2013  03 26  -21.0319 26023.1 -03450.1 -07.5521 26250.8
 11 06 2013  03 27  -21.0319 26023.1 -03450.1 -07.5521 26250.8
 11 06 2013  03 28  -21.0320 26023.1 -03450.1 -07.5521 26250.8
 11 06 2013  03 29  -21.0320 26023.1 -03450.1 -07.5521 26250.8
 11 06 2013  03 30  -21.0320 26023.2 -03450.1 -07.5521 26250.9
 11 06 2013  03 31  -21.0319 26023.2 -03450.2 -07.5522 26250.9
 11 06 2013  03 32  -21.0319 26023.1 -03450.1 -07.5521 26250.8
 11 06 2013  03 33  -21.0320 26022.9 -03450.0 -07.5519 26250.6
 11 06 2013  03 34  -21.0322 26022.7 -03449.9 -07.5518 26250.3
 11 06 2013  03 35  -21.0325 26022.5 -03449.8 -07.5517 26250.2
 11 06 2013  03 36  -21.0327 26022.4 -03449.8 -07.5516 26250.1
 11 06 2013  03 37  -21.0326 26022.4 -03449.8 -07.5516 26250.1
 11 06 2013  03 38  -21.0325 26022.5 -03449.8 -07.5517 26250.1
 11 06 2013  03 39  -21.0324 26022.5 -03449.9 -07.5518 26250.2
 11 06 2013  03 40  -21.0323 26022.6 -03449.9 -07.5519 26250.3
 11 06 2013  03 41  -21.0322 26022.7 -03450.0 -07.5520 26250.4
 11 06 2013  03 42  -21.0321 26022.8 -03450.0 -07.5521 26250.5
 11 06 2013  03 43  -21.0320 26023.0 -03450.1 -07.5522 26250.7
 11 06 2013  03 44  -21.0320 26023.1 -03450.2 -07.5523 26250.8
 11 06 2013  03 45  -21.0321 26023.1 -03450.2 -07.5524 26250.8
 11 06 2013  03 46  -21.0321 26023.1 -03450.2 -07.5524 26250.8
 11 06 2013  03 47  -21.0322 26023.1 -03450.2 -07.5524 26250.8
 11 06 2013  03 48  -21.0324 26023.1 -03450.2 -07.5523 26250.8
 11 06 2013  03 49  -21.0325 26023.1 -03450.2 -07.5523 26250.8
 11 06 2013  03 50  -21.0325 26023.0 -03450.2 -07.5523 26250.7
 11 06 2013  03 51  -21.0325 26023.0 -03450.1 -07.5522 26250.7
 11 06 2013  03 52  -21.0325 26023.0 -03450.1 -07.5522 26250.7
 11 06 2013  03 53  -21.0325 26022.9 -03450.1 -07.5521 26250.6
 11 06 2013  03 54  -21.0326 26022.9 -03450.1 -07.5521 26250.6
 11 06 2013  03 55  -21.0326 26022.9 -03450.1 -07.5521 26250.6
 11 06 2013  03 56  -21.0326 26023.0 -03450.1 -07.5521 26250.7
 11 06 2013  03 57  -21.0326 26023.0 -03450.1 -07.5522 26250.7
 11 06 2013  03 58  -21.0326 26023.0 -03450.1 -07.5522 26250.7
 11 06 2013  03 59  -21.0326 26023.0 -03450.1 -07.5522 26250.7
 11 06 2013  04 00  -21.0326 26023.0 -03450.1 -07.5522 26250.7
 11 06 2013  04 01  -21.0325 26023.0 -03450.2 -07.5523 26250.7
 11 06 2013  04 02  -21.0326 26023.1 -03450.1 -07.5522 26250.8
 11 06 2013  04 03  -21.0327 26023.1 -03450.2 -07.5523 26250.8
 11 06 2013  04 04  -21.0328 26023.1 -03450.2 -07.5523 26250.8
 11 06 2013  04 05  -21.0330 26023.1 -03450.2 -07.5523 26250.8
 11 06 2013  04 06  -21.0330 26023.1 -03450.2 -07.5523 26250.8
 11 06 2013  04 07  -21.0331 26023.1 -03450.2 -07.5523 26250.8
 11 06 2013  04 08  -21.0332 26023.1 -03450.2 -07.5523 26250.8
 11 06 2013  04 09  -21.0333 26023.1 -03450.2 -07.5523 26250.8
 11 06 2013  04 10  -21.0333 26023.1 -03450.1 -07.5522 26250.8
 11 06 2013  04 11  -21.0333 26023.2 -03450.2 -07.5523 26250.9
 11 06 2013  04 12  -21.0333 26023.2 -03450.2 -07.5523 26250.9
 11 06 2013  04 13  -21.0332 26023.3 -03450.2 -07.5523 26251.0
 11 06 2013  04 14  -21.0332 26023.3 -03450.2 -07.5524 26251.0
 11 06 2013  04 15  -21.0332 26023.3 -03450.2 -07.5524 26251.0
 11 06 2013  04 16  -21.0332 26023.4 -03450.3 -07.5524 26251.1
 11 06 2013  04 17  -21.0331 26023.4 -03450.3 -07.5525 26251.1
 11 06 2013  04 18  -21.0331 26023.5 -03450.3 -07.5525 26251.2
 11 06 2013  04 19  -21.0331 26023.5 -03450.3 -07.5525 26251.2
 11 06 2013  04 20  -21.0332 26023.6 -03450.4 -07.5526 26251.3
 11 06 2013  04 21  -21.0332 26023.6 -03450.4 -07.5526 26251.3
 11 06 2013  04 22  -21.0332 26023.6 -03450.4 -07.5525 26251.4
 11 06 2013  04 23  -21.0332 26023.7 -03450.3 -07.5524 26251.4
 11 06 2013  04 24  -21.0332 26023.7 -03450.3 -07.5523 26251.4
 11 06 2013  04 25  -21.0333 26023.7 -03450.2 -07.5523 26251.4
 11 06 2013  04 26  -21.0333 26023.7 -03450.3 -07.5523 26251.4
 11 06 2013  04 27  -21.0334 26023.7 -03450.2 -07.5523 26251.4
 11 06 2013  04 28  -21.0334 26023.7 -03450.3 -07.5524 26251.4
 11 06 2013  04 29  -21.0335 26023.7 -03450.3 -07.5524 26251.4
 11 06 2013  04 30  -21.0335 26023.7 -03450.4 -07.5525 26251.4
 11 06 2013  04 31  -21.0335 26023.7 -03450.4 -07.5526 26251.4
 11 06 2013  04 32  -21.0335 26023.7 -03450.4 -07.5526 26251.5
 11 06 2013  04 33  -21.0335 26023.8 -03450.4 -07.5526 26251.6
 11 06 2013  04 34  -21.0335 26023.9 -03450.5 -07.5527 26251.6
 11 06 2013  04 35  -21.0336 26023.9 -03450.5 -07.5527 26251.7
 11 06 2013  04 36  -21.0336 26023.9 -03450.5 -07.5527 26251.7
 11 06 2013  04 37  -21.0337 26023.9 -03450.4 -07.5526 26251.6
 11 06 2013  04 38  -21.0339 26023.9 -03450.4 -07.5526 26251.6
 11 06 2013  04 39  -21.0341 26023.8 -03450.4 -07.5526 26251.6
 11 06 2013  04 40  -21.0342 26023.8 -03450.4 -07.5526 26251.5
 11 06 2013  04 41  -21.0344 26023.7 -03450.4 -07.5526 26251.5
 11 06 2013  04 42  -21.0345 26023.7 -03450.3 -07.5525 26251.5
 11 06 2013  04 43  -21.0345 26023.7 -03450.3 -07.5525 26251.4
 11 06 2013  04 44  -21.0346 26023.7 -03450.4 -07.5525 26251.4
 11 06 2013  04 45  -21.0347 26023.7 -03450.4 -07.5525 26251.4
 11 06 2013  04 46  -21.0348 26023.8 -03450.4 -07.5525 26251.5
 11 06 2013  04 47  -21.0348 26023.8 -03450.4 -07.5526 26251.6
 11 06 2013  04 48  -21.0348 26023.8 -03450.4 -07.5526 26251.6
 11 06 2013  04 49  -21.0347 26023.9 -03450.4 -07.5526 26251.7
 11 06 2013  04 50  -21.0346 26023.9 -03450.4 -07.5526 26251.7
 11 06 2013  04 51  -21.0345 26024.0 -03450.4 -07.5526 26251.8
 11 06 2013  04 52  -21.0344 26024.0 -03450.4 -07.5526 26251.8
 11 06 2013  04 53  -21.0344 26024.0 -03450.5 -07.5527 26251.8
 11 06 2013  04 54  -21.0343 26024.1 -03450.5 -07.5526 26251.8
 11 06 2013  04 55  -21.0342 26024.2 -03450.5 -07.5528 26252.0
 11 06 2013  04 56  -21.0343 26024.4 -03450.6 -07.5529 26252.1
 11 06 2013  04 57  -21.0342 26023.9 -03450.4 -07.5525 26251.7
 11 06 2013  04 58  -21.0341 26024.1 -03450.4 -07.5526 26251.8
 11 06 2013  04 59  -21.0343 26024.1 -03450.5 -07.5527 26251.9
 11 06 2013  05 00  -21.0344 26024.1 -03450.5 -07.5527 26251.9
 11 06 2013  05 01  -21.0343 26024.0 -03450.4 -07.5526 26251.8
 11 06 2013  05 02  -21.0342 26024.0 -03450.4 -07.5525 26251.7
 11 06 2013  05 03  -21.0345 26023.9 -03450.4 -07.5525 26251.7
 11 06 2013  05 04  -21.0347 26023.6 -03450.3 -07.5524 26251.4
 11 06 2013  05 05  -21.0345 26023.6 -03450.2 -07.5523 26251.3
 11 06 2013  05 06  -21.0345 26023.5 -03450.2 -07.5522 26251.2
 11 06 2013  05 07  -21.0345 26023.5 -03450.2 -07.5523 26251.3
 11 06 2013  05 08  -21.0345 26023.6 -03450.3 -07.5524 26251.3
 11 06 2013  05 09  -21.0343 26023.5 -03450.2 -07.5523 26251.2
 11 06 2013  05 10  -21.0342 26023.8 -03450.4 -07.5526 26251.5
 11 06 2013  05 11  -21.0342 26023.8 -03450.5 -07.5527 26251.6
 11 06 2013  05 12  -21.0341 26023.6 -03450.4 -07.5526 26251.4
 11 06 2013  05 13  -21.0339 26023.9 -03450.5 -07.5527 26251.6
 11 06 2013  05 14  -21.0339 26024.2 -03450.7 -07.5530 26252.0
 11 06 2013  05 15  -21.0339 26024.0 -03450.6 -07.5530 26251.8
 11 06 2013  05 16  -21.0337 26024.3 -03450.7 -07.5531 26252.1
 11 06 2013  05 17  -21.0334 26024.6 -03450.9 -07.5533 26252.4
 11 06 2013  05 18  -21.0334 26024.6 -03450.9 -07.5533 26252.4
 11 06 2013  05 19  -21.0334 26024.9 -03451.0 -07.5535 26252.7
 11 06 2013  05 20  -21.0334 26024.9 -03451.0 -07.5536 26252.8
 11 06 2013  05 21  -21.0332 26024.8 -03451.0 -07.5535 26252.6
 11 06 2013  05 22  -21.0330 26025.0 -03451.0 -07.5535 26252.8
 11 06 2013  05 23  -21.0331 26025.2 -03451.1 -07.5537 26253.0
 11 06 2013  05 24  -21.0332 26025.1 -03451.1 -07.5537 26252.9
 11 06 2013  05 25  -21.0331 26025.1 -03451.0 -07.5536 26252.9
 11 06 2013  05 26  -21.0331 26025.2 -03451.1 -07.5536 26253.0
 11 06 2013  05 27  -21.0330 26025.2 -03451.1 -07.5536 26253.0
 11 06 2013  05 28  -21.0331 26025.3 -03451.1 -07.5537 26253.1
 11 06 2013  05 29  -21.0330 26025.3 -03451.1 -07.5537 26253.2
 11 06 2013  05 30  -21.0327 26025.4 -03451.1 -07.5537 26253.2
 11 06 2013  05 31  -21.0324 26025.4 -03451.1 -07.5537 26253.3
 11 06 2013  05 32  -21.0321 26025.6 -03451.2 -07.5538 26253.4
 11 06 2013  05 33  -21.0318 26025.5 -03451.2 -07.5538 26253.4
 11 06 2013  05 34  -21.0316 26025.5 -03451.2 -07.5537 26253.4
 11 06 2013  05 35  -21.0313 26025.6 -03451.2 -07.5538 26253.4
 11 06 2013  05 36  -21.0312 26025.8 -03451.3 -07.5539 26253.6
 11 06 2013  05 37  -21.0312 26025.7 -03451.3 -07.5539 26253.6
 11 06 2013  05 38  -21.0310 26025.7 -03451.2 -07.5538 26253.5
 11 06 2013  05 39  -21.0310 26025.8 -03451.3 -07.5540 26253.6
 11 06 2013  05 40  -21.0310 26025.8 -03451.3 -07.5540 26253.6
 11 06 2013  05 41  -21.0309 26025.8 -03451.3 -07.5540 26253.6
 11 06 2013  05 42  -21.0308 26025.7 -03451.3 -07.5540 26253.5
 11 06 2013  05 43  -21.0308 26025.6 -03451.3 -07.5540 26253.4
 11 06 2013  05 44  -21.0307 26025.4 -03451.2 -07.5539 26253.3
 11 06 2013  05 45  -21.0305 26025.4 -03451.2 -07.5539 26253.2
 11 06 2013  05 46  -21.0305 26025.4 -03451.2 -07.5539 26253.3
 11 06 2013  05 47  -21.0304 26025.4 -03451.3 -07.5540 26253.3
 11 06 2013  05 48  -21.0302 26025.5 -03451.3 -07.5539 26253.4
 11 06 2013  05 49  -21.0302 26025.5 -03451.3 -07.5540 26253.3
 11 06 2013  05 50  -21.0301 26025.4 -03451.2 -07.5539 26253.2
 11 06 2013  05 51  -21.0300 26025.3 -03451.2 -07.5539 26253.2
 11 06 2013  05 52  -21.0298 26025.3 -03451.2 -07.5539 26253.1
 11 06 2013  05 53  -21.0296 26025.2 -03451.2 -07.5538 26253.0
 11 06 2013  05 54  -21.0297 26025.2 -03451.2 -07.5539 26253.0
 11 06 2013  05 55  -21.0298 26025.2 -03451.2 -07.5540 26253.0
 11 06 2013  05 56  -21.0300 26025.0 -03451.2 -07.5539 26252.9
 11 06 2013  05 57  -21.0302 26024.9 -03451.2 -07.5540 26252.8
 11 06 2013  05 58  -21.0305 26024.8 -03451.2 -07.5540 26252.6
 11 06 2013  05 59  -21.0309 26024.7 -03451.2 -07.5540 26252.6
 11 06 2013  06 00  -21.0311 26024.7 -03451.2 -07.5539 26252.6
 11 06 2013  06 01  -21.0312 26024.6 -03451.1 -07.5539 26252.4
 11 06 2013  06 02  -21.0313 26024.4 -03451.0 -07.5537 26252.2
 11 06 2013  06 03  -21.0312 26024.4 -03451.0 -07.5536 26252.2
 11 06 2013  06 04  -21.0311 26024.3 -03450.9 -07.5536 26252.1
 11 06 2013  06 05  -21.0310 26024.2 -03450.9 -07.5535 26252.0
 11 06 2013  06 06  -21.0309 26024.1 -03450.8 -07.5535 26251.9
 11 06 2013  06 07  -21.0309 26024.0 -03450.8 -07.5535 26251.8
 11 06 2013  06 08  -21.0311 26024.0 -03450.9 -07.5536 26251.8
 11 06 2013  06 09  -21.0313 26024.0 -03450.9 -07.5536 26251.8
 11 06 2013  06 10  -21.0314 26023.9 -03450.9 -07.5536 26251.7
 11 06 2013  06 11  -21.0314 26024.0 -03450.9 -07.5537 26251.8
 11 06 2013  06 12  -21.0312 26024.0 -03450.9 -07.5537 26251.8
 11 06 2013  06 13  -21.0309 26023.9 -03450.9 -07.5537 26251.7
 11 06 2013  06 14  -21.0304 26023.9 -03450.9 -07.5537 26251.7
 11 06 2013  06 15  -21.0301 26024.0 -03451.0 -07.5537 26251.8
 11 06 2013  06 16  -21.0298 26024.0 -03451.0 -07.5538 26251.8
 11 06 2013  06 17  -21.0295 26024.1 -03451.1 -07.5540 26251.9
 11 06 2013  06 18  -21.0294 26024.1 -03451.1 -07.5540 26252.0
 11 06 2013  06 19  -21.0294 26024.1 -03451.2 -07.5541 26252.0
 11 06 2013  06 20  -21.0292 26024.1 -03451.2 -07.5542 26252.0
 11 06 2013  06 21  -21.0291 26024.1 -03451.2 -07.5541 26252.0
 11 06 2013  06 22  -21.0291 26024.1 -03451.2 -07.5542 26252.0
 11 06 2013  06 23  -21.0292 26024.2 -03451.2 -07.5543 26252.0
 11 06 2013  06 24  -21.0292 26024.2 -03451.3 -07.5543 26252.1
 11 06 2013  06 25  -21.0292 26024.2 -03451.3 -07.5544 26252.1
 11 06 2013  06 26  -21.0293 26024.2 -03451.3 -07.5544 26252.1
 11 06 2013  06 27  -21.0293 26024.3 -03451.3 -07.5544 26252.1
 11 06 2013  06 28  -21.0294 26024.3 -03451.3 -07.5545 26252.2
 11 06 2013  06 29  -21.0294 26024.4 -03451.4 -07.5546 26252.2
 11 06 2013  06 30  -21.0294 26024.4 -03451.4 -07.5546 26252.3
 11 06 2013  06 31  -21.0295 26024.5 -03451.4 -07.5546 26252.3
 11 06 2013  06 32  -21.0297 26024.4 -03451.5 -07.5547 26252.3
 11 06 2013  06 33  -21.0298 26024.4 -03451.4 -07.5546 26252.3
 11 06 2013  06 34  -21.0298 26024.4 -03451.4 -07.5546 26252.3
 11 06 2013  06 35  -21.0299 26024.4 -03451.4 -07.5545 26252.3
 11 06 2013  06 36  -21.0301 26024.4 -03451.4 -07.5545 26252.3
 11 06 2013  06 37  -21.0301 26024.4 -03451.4 -07.5545 26252.3
 11 06 2013  06 38  -21.0302 26024.4 -03451.3 -07.5544 26252.3
 11 06 2013  06 39  -21.0302 26024.5 -03451.4 -07.5545 26252.4
 11 06 2013  06 40  -21.0303 26024.5 -03451.4 -07.5545 26252.4
 11 06 2013  06 41  -21.0304 26024.5 -03451.4 -07.5545 26252.4
 11 06 2013  06 42  -21.0304 26024.5 -03451.4 -07.5544 26252.4
 11 06 2013  06 43  -21.0304 26024.5 -03451.4 -07.5545 26252.4
 11 06 2013  06 44  -21.0304 26024.5 -03451.4 -07.5545 26252.4
 11 06 2013  06 45  -21.0303 26024.6 -03451.4 -07.5545 26252.5
 11 06 2013  06 46  -21.0301 26024.8 -03451.5 -07.5546 26252.7
 11 06 2013  06 47  -21.0299 26025.1 -03451.6 -07.5548 26253.0
 11 06 2013  06 48  -21.0298 26025.2 -03451.6 -07.5549 26253.1
 11 06 2013  06 49  -21.0297 26025.3 -03451.7 -07.5549 26253.2
 11 06 2013  06 50  -21.0297 26025.5 -03451.8 -07.5550 26253.4
 11 06 2013  06 51  -21.0299 26025.6 -03451.8 -07.5551 26253.5
 11 06 2013  06 52  -21.0300 26025.6 -03451.8 -07.5551 26253.5
 11 06 2013  06 53  -21.0301 26025.7 -03451.8 -07.5550 26253.6
 11 06 2013  06 54  -21.0302 26025.7 -03451.7 -07.5549 26253.6
 11 06 2013  06 55  -21.0301 26025.7 -03451.7 -07.5549 26253.6
 11 06 2013  06 56  -21.0299 26025.8 -03451.7 -07.5548 26253.7
 11 06 2013  06 57  -21.0299 26025.8 -03451.7 -07.5547 26253.7
 11 06 2013  06 58  -21.0299 26025.7 -03451.6 -07.5547 26253.6
 11 06 2013  06 59  -21.0299 26025.7 -03451.6 -07.5546 26253.6
 11 06 2013  07 00  -21.0297 26025.6 -03451.5 -07.5544 26253.4
 11 06 2013  07 01  -21.0296 26025.5 -03451.4 -07.5543 26253.4
 11 06 2013  07 02  -21.0295 26025.5 -03451.4 -07.5543 26253.3
 11 06 2013  07 03  -21.0294 26025.5 -03451.4 -07.5543 26253.3
 11 06 2013  07 04  -21.0293 26025.5 -03451.4 -07.5543 26253.3
 11 06 2013  07 05  -21.0293 26025.4 -03451.4 -07.5542 26253.3
 11 06 2013  07 06  -21.0292 26025.4 -03451.4 -07.5542 26253.2
 11 06 2013  07 07  -21.0291 26025.4 -03451.3 -07.5541 26253.2
 11 06 2013  07 08  -21.0289 26025.3 -03451.3 -07.5541 26253.2
 11 06 2013  07 09  -21.0285 26025.3 -03451.3 -07.5541 26253.2
 11 06 2013  07 10  -21.0282 26025.3 -03451.3 -07.5541 26253.2
 11 06 2013  07 11  -21.0279 26025.3 -03451.3 -07.5541 26253.2
 11 06 2013  07 12  -21.0275 26025.4 -03451.4 -07.5542 26253.2
 11 06 2013  07 13  -21.0273 26025.5 -03451.4 -07.5543 26253.3
 11 06 2013  07 14  -21.0271 26025.5 -03451.5 -07.5544 26253.4
 11 06 2013  07 15  -21.0269 26025.6 -03451.5 -07.5545 26253.5
 11 06 2013  07 16  -21.0268 26025.6 -03451.6 -07.5546 26253.5
 11 06 2013  07 17  -21.0266 26025.6 -03451.6 -07.5546 26253.5
 11 06 2013  07 18  -21.0265 26025.7 -03451.6 -07.5546 26253.6
 11 06 2013  07 19  -21.0263 26025.7 -03451.6 -07.5547 26253.6
 11 06 2013  07 20  -21.0263 26025.7 -03451.6 -07.5547 26253.6
 11 06 2013  07 21  -21.0262 26025.7 -03451.6 -07.5547 26253.6
 11 06 2013  07 22  -21.0262 26025.7 -03451.6 -07.5547 26253.5
 11 06 2013  07 23  -21.0263 26025.6 -03451.6 -07.5547 26253.5
 11 06 2013  07 24  -21.0263 26025.6 -03451.6 -07.5547 26253.5
 11 06 2013  07 25  -21.0263 26025.7 -03451.7 -07.5547 26253.6
 11 06 2013  07 26  -21.0263 26025.8 -03451.7 -07.5549 26253.7
 11 06 2013  07 27  -21.0262 26025.9 -03451.8 -07.5550 26253.8
 11 06 2013  07 28  -21.0262 26026.0 -03451.8 -07.5550 26253.9
 11 06 2013  07 29  -21.0262 26026.1 -03451.9 -07.5551 26254.0
 11 06 2013  07 30  -21.0262 26026.1 -03451.9 -07.5551 26254.0
 11 06 2013  07 31  -21.0262 26026.2 -03451.9 -07.5551 26254.1
 11 06 2013  07 32  -21.0261 26026.3 -03451.9 -07.5551 26254.2
 11 06 2013  07 33  -21.0260 26026.3 -03451.9 -07.5552 26254.3
 11 06 2013  07 34  -21.0260 26026.5 -03452.0 -07.5552 26254.4
 11 06 2013  07 35  -21.0259 26026.5 -03452.0 -07.5552 26254.4
 11 06 2013  07 36  -21.0258 26026.6 -03452.0 -07.5552 26254.5
 11 06 2013  07 37  -21.0258 26026.6 -03452.0 -07.5552 26254.5
 11 06 2013  07 38  -21.0259 26026.6 -03452.0 -07.5551 26254.5
 11 06 2013  07 39  -21.0258 26026.6 -03451.9 -07.5551 26254.5
 11 06 2013  07 40  -21.0258 26026.6 -03451.9 -07.5550 26254.5
 11 06 2013  07 41  -21.0256 26026.5 -03451.8 -07.5549 26254.4
 11 06 2013  07 42  -21.0255 26026.5 -03451.8 -07.5549 26254.4
 11 06 2013  07 43  -21.0254 26026.5 -03451.8 -07.5548 26254.4
 11 06 2013  07 44  -21.0252 26026.5 -03451.8 -07.5548 26254.4
 11 06 2013  07 45  -21.0251 26026.5 -03451.8 -07.5547 26254.4
 11 06 2013  07 46  -21.0252 26026.5 -03451.8 -07.5548 26254.4
 11 06 2013  07 47  -21.0252 26026.5 -03451.8 -07.5548 26254.4
 11 06 2013  07 48  -21.0254 26026.6 -03451.8 -07.5549 26254.5
 11 06 2013  07 49  -21.0254 26026.7 -03451.9 -07.5549 26254.6
 11 06 2013  07 50  -21.0255 26026.7 -03451.8 -07.5549 26254.6
 11 06 2013  07 51  -21.0254 26026.7 -03451.8 -07.5548 26254.6
 11 06 2013  07 52  -21.0253 26026.8 -03451.8 -07.5548 26254.7
 11 06 2013  07 53  -21.0253 26026.8 -03451.8 -07.5547 26254.7
 11 06 2013  07 54  -21.0253 26026.8 -03451.8 -07.5547 26254.7
 11 06 2013  07 55  -21.0253 26026.9 -03451.8 -07.5547 26254.8
 11 06 2013  07 56  -21.0252 26026.8 -03451.7 -07.5546 26254.7
 11 06 2013  07 57  -21.0251 26026.9 -03451.7 -07.5545 26254.7
 11 06 2013  07 58  -21.0250 26026.9 -03451.7 -07.5545 26254.7
 11 06 2013  07 59  -21.0248 26026.8 -03451.7 -07.5544 26254.7
 11 06 2013  08 00  -21.0247 26026.8 -03451.6 -07.5543 26254.7
 11 06 2013  08 01  -21.0244 26026.7 -03451.5 -07.5542 26254.5
 11 06 2013  08 02  -21.0242 26026.6 -03451.5 -07.5541 26254.5
 11 06 2013  08 03  -21.0240 26026.6 -03451.4 -07.5540 26254.5
 11 06 2013  08 04  -21.0239 26026.5 -03451.4 -07.5540 26254.4
 11 06 2013  08 05  -21.0236 26026.4 -03451.3 -07.5538 26254.2
 11 06 2013  08 06  -21.0234 26026.3 -03451.3 -07.5537 26254.1
 11 06 2013  08 07  -21.0231 26026.2 -03451.2 -07.5536 26254.0
 11 06 2013  08 08  -21.0229 26026.1 -03451.1 -07.5535 26253.9
 11 06 2013  08 09  -21.0226 26025.9 -03451.1 -07.5534 26253.7
 11 06 2013  08 10  -21.0223 26025.9 -03451.0 -07.5534 26253.7
 11 06 2013  08 11  -21.0220 26025.7 -03451.0 -07.5533 26253.5
 11 06 2013  08 12  -21.0217 26025.7 -03451.0 -07.5533 26253.5
 11 06 2013  08 13  -21.0212 26025.7 -03451.0 -07.5533 26253.5
 11 06 2013  08 14  -21.0209 26025.7 -03451.0 -07.5534 26253.5
 11 06 2013  08 15  -21.0204 26025.6 -03451.0 -07.5534 26253.4
 11 06 2013  08 16  -21.0200 26025.6 -03451.0 -07.5534 26253.4
 11 06 2013  08 17  -21.0195 26025.5 -03451.0 -07.5534 26253.4
 11 06 2013  08 18  -21.0189 26025.5 -03451.0 -07.5535 26253.3
 11 06 2013  08 19  -21.0184 26025.6 -03451.1 -07.5535 26253.4
 11 06 2013  08 20  -21.0180 26025.7 -03451.2 -07.5537 26253.5
 11 06 2013  08 21  -21.0177 26025.8 -03451.3 -07.5539 26253.6
 11 06 2013  08 22  -21.0173 26025.9 -03451.3 -07.5540 26253.7
 11 06 2013  08 23  -21.0169 26026.0 -03451.4 -07.5541 26253.9
 11 06 2013  08 24  -21.0165 26026.2 -03451.5 -07.5542 26254.1
 11 06 2013  08 25  -21.0162 26026.3 -03451.6 -07.5545 26254.2
 11 06 2013  08 26  -21.0158 26026.3 -03451.6 -07.5545 26254.1
 11 06 2013  08 27  -21.0155 26026.3 -03451.6 -07.5545 26254.1
 11 06 2013  08 28  -21.0147 26026.3 -03451.6 -07.5544 26254.2
 11 06 2013  08 29  -21.0139 26026.3 -03451.6 -07.5545 26254.2
 11 06 2013  08 30  -21.0131 26026.3 -03451.6 -07.5545 26254.2
 11 06 2013  08 31  -21.0126 26026.3 -03451.7 -07.5547 26254.2
 11 06 2013  08 32  -21.0123 26026.3 -03451.8 -07.5549 26254.2
 11 06 2013  08 33  -21.0119 26026.3 -03451.8 -07.5548 26254.2
 11 06 2013  08 34  -21.0115 26026.2 -03451.8 -07.5548 26254.1
 11 06 2013  08 35  -21.0111 26026.0 -03451.7 -07.5548 26253.9
 11 06 2013  08 36  -21.0109 26026.0 -03451.7 -07.5548 26253.9
 11 06 2013  08 37  -21.0108 26025.8 -03451.7 -07.5548 26253.7
 11 06 2013  08 38  -21.0105 26025.6 -03451.7 -07.5548 26253.5
 11 06 2013  08 39  -21.0101 26025.5 -03451.6 -07.5547 26253.4
 11 06 2013  08 40  -21.0095 26025.5 -03451.6 -07.5547 26253.3
 11 06 2013  08 41  -21.0090 26025.3 -03451.6 -07.5547 26253.2
 11 06 2013  08 42  -21.0088 26025.3 -03451.7 -07.5549 26253.2
 11 06 2013  08 43  -21.0082 26025.3 -03451.7 -07.5549 26253.2
 11 06 2013  08 44  -21.0073 26025.2 -03451.6 -07.5548 26253.1
 11 06 2013  08 45  -21.0068 26025.2 -03451.7 -07.5550 26253.1
 11 06 2013  08 46  -21.0064 26025.1 -03451.8 -07.5552 26253.1
 11 06 2013  08 47  -21.0061 26025.2 -03451.9 -07.5554 26253.1
 11 06 2013  08 48  -21.0058 26025.2 -03452.0 -07.5557 26253.1
 11 06 2013  08 49  -21.0054 26025.2 -03452.0 -07.5557 26253.1
 11 06 2013  08 50  -21.0052 26025.2 -03452.1 -07.5559 26253.2
 11 06 2013  08 51  -21.0051 26025.3 -03452.2 -07.5561 26253.3
 11 06 2013  08 52  -21.0051 26025.5 -03452.4 -07.5565 26253.5
 11 06 2013  08 53  -21.0050 26025.7 -03452.6 -07.5568 26253.7
 11 06 2013  08 54  -21.0050 26025.9 -03452.7 -07.5570 26253.9
 11 06 2013  08 55  -21.0047 26026.0 -03452.7 -07.5570 26254.0
 11 06 2013  08 56  -21.0042 26026.0 -03452.7 -07.5570 26254.0
 11 06 2013  08 57  -21.0036 26026.1 -03452.8 -07.5570 26254.2
 11 06 2013  08 58  -21.0028 26026.2 -03452.7 -07.5569 26254.2
 11 06 2013  08 59  -21.0023 26026.2 -03452.7 -07.5569 26254.2
 11 06 2013  09 00  -21.0019 26026.2 -03452.7 -07.5569 26254.2
 11 06 2013  09 01  -21.0014 26026.2 -03452.7 -07.5568 26254.2
 11 06 2013  09 02  -21.0010 26026.1 -03452.7 -07.5568 26254.2
 11 06 2013  09 03  -21.0005 26026.1 -03452.7 -07.5569 26254.1
 11 06 2013  09 04  -21.0000 26026.2 -03452.7 -07.5570 26254.2
 11 06 2013  09 05  -20.9997 26026.1 -03452.8 -07.5570 26254.2
 11 06 2013  09 06  -20.9996 26026.1 -03452.8 -07.5571 26254.2
 11 06 2013  09 07  -20.9993 26026.1 -03452.8 -07.5572 26254.2
 11 06 2013  09 08  -20.9989 26026.1 -03452.9 -07.5573 26254.2
 11 06 2013  09 09  -20.9986 26025.8 -03452.8 -07.5572 26253.9
 11 06 2013  09 10  -20.9982 26025.4 -03452.7 -07.5570 26253.5
 11 06 2013  09 11  -20.9975 26025.1 -03452.5 -07.5568 26253.1
 11 06 2013  09 12  -20.9963 26024.5 -03452.3 -07.5564 26252.5
 11 06 2013  09 13  -20.9951 26024.1 -03452.0 -07.5560 26252.1
 11 06 2013  09 14  -20.9943 26023.6 -03451.9 -07.5558 26251.6
 11 06 2013  09 15  -20.9940 26023.4 -03451.9 -07.5559 26251.3
 11 06 2013  09 16  -20.9935 26023.1 -03451.9 -07.5560 26251.1
 11 06 2013  09 17  -20.9930 26022.9 -03452.1 -07.5564 26250.9
 11 06 2013  09 18  -20.9933 26023.0 -03452.4 -07.5571 26251.0
 11 06 2013  09 19  -20.9934 26023.0 -03452.7 -07.5577 26251.1
 11 06 2013  09 20  -20.9928 26023.1 -03453.0 -07.5583 26251.2
 11 06 2013  09 21  -20.9927 26023.4 -03453.3 -07.5590 26251.5
 11 06 2013  09 22  -20.9928 26023.5 -03453.6 -07.5595 26251.6
 11 06 2013  09 23  -20.9918 26023.5 -03453.7 -07.5598 26251.7
 11 06 2013  09 24  -20.9908 26023.5 -03453.7 -07.5598 26251.7
 11 06 2013  09 25  -20.9900 26023.4 -03453.7 -07.5599 26251.6
 11 06 2013  09 26  -20.9891 26023.4 -03453.8 -07.5600 26251.6
 11 06 2013  09 27  -20.9881 26023.3 -03453.8 -07.5600 26251.5
 11 06 2013  09 28  -20.9876 26023.3 -03453.9 -07.5603 26251.5
 11 06 2013  09 29  -20.9869 26023.3 -03454.0 -07.5604 26251.5
 11 06 2013  09 30  -20.9864 26023.3 -03454.1 -07.5607 26251.6
 11 06 2013  09 31  -20.9862 26023.4 -03454.3 -07.5611 26251.7
 11 06 2013  09 32  -20.9854 26023.4 -03454.4 -07.5613 26251.7
 11 06 2013  09 33  -20.9846 26023.3 -03454.4 -07.5614 26251.6
 11 06 2013  09 34  -20.9838 26023.2 -03454.4 -07.5614 26251.5
 11 06 2013  09 35  -20.9835 26023.2 -03454.5 -07.5616 26251.5
 11 06 2013  09 36  -20.9835 26023.1 -03454.6 -07.5618 26251.4
 11 06 2013  09 37  -20.9834 26023.0 -03454.7 -07.5620 26251.3
 11 06 2013  09 38  -20.9835 26022.9 -03454.8 -07.5623 26251.3
 11 06 2013  09 39  -20.9836 26023.0 -03454.9 -07.5626 26251.4
 11 06 2013  09 40  -20.9835 26023.1 -03455.1 -07.5629 26251.4
 11 06 2013  09 41  -20.9834 26023.1 -03455.2 -07.5632 26251.4
 11 06 2013  09 42  -20.9831 26023.2 -03455.4 -07.5635 26251.6
 11 06 2013  09 43  -20.9830 26023.2 -03455.5 -07.5637 26251.7
 11 06 2013  09 44  -20.9824 26023.4 -03455.6 -07.5640 26251.9
 11 06 2013  09 45  -20.9827 26023.4 -03455.8 -07.5643 26251.8
 11 06 2013  09 46  -20.9820 26023.6 -03455.9 -07.5646 26252.1
 11 06 2013  09 47  -20.9814 26023.7 -03456.0 -07.5647 26252.2
 11 06 2013  09 48  -20.9811 26023.8 -03456.1 -07.5649 26252.3
 11 06 2013  09 49  -20.9810 26023.8 -03456.2 -07.5651 26252.3
 11 06 2013  09 50  -20.9808 26023.8 -03456.3 -07.5653 26252.4
 11 06 2013  09 51  -20.9806 26024.0 -03456.4 -07.5655 26252.5
 11 06 2013  09 52  -20.9801 26024.0 -03456.4 -07.5656 26252.6
 11 06 2013  09 53  -20.9800 26024.1 -03456.5 -07.5657 26252.7
 11 06 2013  09 54  -20.9802 26024.1 -03456.6 -07.5659 26252.6
 11 06 2013  09 55  -20.9797 26024.1 -03456.7 -07.5661 26252.7
 11 06 2013  09 56  -20.9796 26024.3 -03456.8 -07.5663 26252.9
 11 06 2013  09 57  -20.9794 26024.3 -03456.9 -07.5665 26252.9
 11 06 2013  09 58  -20.9792 26024.4 -03457.0 -07.5667 26253.0
 11 06 2013  09 59  -20.9793 26024.4 -03457.1 -07.5669 26253.1
 11 06 2013  10 00  -20.9791 26024.4 -03457.1 -07.5669 26253.0
 11 06 2013  10 01  -20.9789 26024.4 -03457.1 -07.5670 26253.0
 11 06 2013  10 02  -20.9788 26024.4 -03457.2 -07.5671 26253.0
 11 06 2013  10 03  -20.9785 26024.5 -03457.3 -07.5674 26253.1
 11 06 2013  10 04  -20.9784 26024.7 -03457.6 -07.5678 26253.4
 11 06 2013  10 05  -20.9782 26024.9 -03457.8 -07.5682 26253.6
 11 06 2013  10 06  -20.9787 26025.0 -03457.9 -07.5685 26253.7
 11 06 2013  10 07  -20.9783 26025.1 -03458.0 -07.5686 26253.9
 11 06 2013  10 08  -20.9778 26025.1 -03458.0 -07.5686 26253.8
 11 06 2013  10 09  -20.9774 26025.0 -03457.9 -07.5685 26253.8
 11 06 2013  10 10  -20.9768 26025.0 -03457.9 -07.5684 26253.7
 11 06 2013  10 11  -20.9769 26025.1 -03457.9 -07.5685 26253.8
 11 06 2013  10 12  -20.9776 26025.1 -03458.0 -07.5686 26253.8
 11 06 2013  10 13  -20.9786 26024.8 -03458.0 -07.5686 26253.5
 11 06 2013  10 14  -20.9790 26024.7 -03458.0 -07.5687 26253.4
 11 06 2013  10 15  -20.9792 26024.6 -03458.0 -07.5688 26253.3
 11 06 2013  10 16  -20.9795 26024.8 -03458.1 -07.5690 26253.5
 11 06 2013  10 17  -20.9796 26025.1 -03458.2 -07.5691 26253.8
 11 06 2013  10 18  -20.9793 26025.3 -03458.3 -07.5693 26254.1
 11 06 2013  10 19  -20.9792 26025.3 -03458.3 -07.5692 26254.1
 11 06 2013  10 20  -20.9789 26025.5 -03458.3 -07.5692 26254.2
 11 06 2013  10 21  -20.9784 26025.4 -03458.3 -07.5692 26254.2
 11 06 2013  10 22  -20.9786 26025.3 -03458.3 -07.5692 26254.0
 11 06 2013  10 23  -20.9787 26025.3 -03458.3 -07.5693 26254.0
 11 06 2013  10 24  -20.9785 26025.4 -03458.4 -07.5695 26254.2
 11 06 2013  10 25  -20.9784 26025.5 -03458.5 -07.5695 26254.3
 11 06 2013  10 26  -20.9784 26025.7 -03458.6 -07.5697 26254.5
 11 06 2013  10 27  -20.9787 26025.6 -03458.6 -07.5697 26254.5
 11 06 2013  10 28  -20.9786 26025.5 -03458.5 -07.5696 26254.3
 11 06 2013  10 29  -20.9785 26025.4 -03458.4 -07.5695 26254.2
 11 06 2013  10 30  -20.9787 26025.6 -03458.5 -07.5697 26254.4
 11 06 2013  10 31  -20.9785 26025.8 -03458.7 -07.5699 26254.6
 11 06 2013  10 32  -20.9784 26026.0 -03458.7 -07.5700 26254.8
 11 06 2013  10 33  -20.9786 26026.0 -03458.7 -07.5698 26254.8
 11 06 2013  10 34  -20.9793 26026.0 -03458.7 -07.5698 26254.8
 11 06 2013  10 35  -20.9799 26026.0 -03458.6 -07.5697 26254.8
 11 06 2013  10 36  -20.9796 26026.2 -03458.7 -07.5699 26255.1
 11 06 2013  10 37  -20.9804 26026.2 -03458.7 -07.5698 26255.0
 11 06 2013  10 38  -20.9802 26026.2 -03458.6 -07.5697 26255.0
 11 06 2013  10 39  -20.9804 26026.3 -03458.7 -07.5697 26255.1
 11 06 2013  10 40  -20.9804 26026.7 -03458.8 -07.5700 26255.6
 11 06 2013  10 41  -20.9803 26027.2 -03459.0 -07.5703 26256.0
 11 06 2013  10 42  -20.9805 26027.3 -03459.1 -07.5703 26256.2
 11 06 2013  10 43  -20.9802 26027.6 -03459.1 -07.5703 26256.4
 11 06 2013  10 44  -20.9800 26028.0 -03459.2 -07.5704 26256.9
 11 06 2013  10 45  -20.9795 26028.4 -03459.3 -07.5704 26257.3
 11 06 2013  10 46  -20.9792 26028.8 -03459.3 -07.5704 26257.6
 11 06 2013  10 47  -20.9794 26028.9 -03459.3 -07.5703 26257.8
 11 06 2013  10 48  -20.9793 26029.0 -03459.2 -07.5702 26257.9
 11 06 2013  10 49  -20.9795 26029.2 -03459.2 -07.5701 26258.0
 11 06 2013  10 50  -20.9794 26029.2 -03459.2 -07.5699 26258.1
 11 06 2013  10 51  -20.9789 26029.3 -03459.0 -07.5697 26258.2
 11 06 2013  10 52  -20.9785 26029.5 -03459.0 -07.5695 26258.3
 11 06 2013  10 53  -20.9780 26029.5 -03458.9 -07.5692 26258.3
 11 06 2013  10 54  -20.9779 26029.5 -03458.7 -07.5690 26258.3
 11 06 2013  10 55  -20.9788 26029.4 -03458.7 -07.5689 26258.2
 11 06 2013  10 56  -20.9794 26029.4 -03458.6 -07.5687 26258.1
 11 06 2013  10 57  -20.9798 26029.3 -03458.5 -07.5686 26258.0
 11 06 2013  10 58  -20.9799 26029.4 -03458.5 -07.5686 26258.1
 11 06 2013  10 59  -20.9799 26029.5 -03458.5 -07.5686 26258.3
 11 06 2013  11 00  -20.9796 26029.8 -03458.6 -07.5686 26258.6
 11 06 2013  11 01  -20.9795 26030.1 -03458.8 -07.5689 26258.9
 11 06 2013  11 02  -20.9798 26030.5 -03458.9 -07.5689 26259.3
 11 06 2013  11 03  -20.9799 26030.8 -03459.0 -07.5691 26259.6
 11 06 2013  11 04  -20.9804 26031.0 -03459.1 -07.5692 26259.9
 11 06 2013  11 05  -20.9808 26031.4 -03459.2 -07.5693 26260.2
 11 06 2013  11 06  -20.9815 26031.6 -03459.2 -07.5693 26260.4
 11 06 2013  11 07  -20.9825 26031.8 -03459.1 -07.5692 26260.6
 11 06 2013  11 08  -20.9833 26032.1 -03459.2 -07.5691 26260.9
 11 06 2013  11 09  -20.9838 26032.2 -03459.0 -07.5689 26261.0
 11 06 2013  11 10  -20.9837 26032.4 -03459.0 -07.5686 26261.2
 11 06 2013  11 11  -20.9837 26033.0 -03459.1 -07.5688 26261.8
 11 06 2013  11 12  -20.9839 26033.6 -03459.3 -07.5689 26262.4
 11 06 2013  11 13  -20.9843 26033.9 -03459.3 -07.5689 26262.8
 11 06 2013  11 14  -20.9850 26034.1 -03459.2 -07.5687 26262.9
 11 06 2013  11 15  -20.9854 26034.3 -03459.2 -07.5685 26263.1
 11 06 2013  11 16  -20.9854 26034.5 -03459.1 -07.5683 26263.3
 11 06 2013  11 17  -20.9859 26034.7 -03459.0 -07.5681 26263.4
 11 06 2013  11 18  -20.9867 26034.6 -03458.9 -07.5679 26263.4
 11 06 2013  11 19  -20.9872 26034.7 -03458.9 -07.5678 26263.5
 11 06 2013  11 20  -20.9878 26035.0 -03458.9 -07.5678 26263.8
 11 06 2013  11 21  -20.9881 26035.5 -03459.0 -07.5679 26264.2
 11 06 2013  11 22  -20.9881 26035.6 -03459.0 -07.5678 26264.4
 11 06 2013  11 23  -20.9885 26035.8 -03459.0 -07.5678 26264.6
 11 06 2013  11 24  -20.9883 26036.0 -03459.0 -07.5677 26264.7
 11 06 2013  11 25  -20.9878 26036.4 -03459.1 -07.5677 26265.2
 11 06 2013  11 26  -20.9877 26036.7 -03459.1 -07.5677 26265.5
 11 06 2013  11 27  -20.9882 26036.9 -03459.1 -07.5676 26265.7
 11 06 2013  11 28  -20.9886 26037.1 -03459.1 -07.5675 26265.9
 11 06 2013  11 29  -20.9889 26037.1 -03458.9 -07.5672 26265.9
 11 06 2013  11 30  -20.9898 26037.8 -03459.1 -07.5675 26266.6
 11 06 2013  11 31  -20.9901 26038.0 -03459.1 -07.5674 26266.7
 11 06 2013  11 32  -20.9904 26038.0 -03459.0 -07.5672 26266.8
 11 06 2013  11 33  -20.9910 26038.2 -03459.0 -07.5671 26267.0
 11 06 2013  11 34  -20.9909 26038.3 -03458.9 -07.5669 26267.0
 11 06 2013  11 35  -20.9918 26038.7 -03459.0 -07.5669 26267.4
 11 06 2013  11 36  -20.9924 26039.0 -03459.0 -07.5669 26267.8
 11 06 2013  11 37  -20.9929 26039.3 -03459.0 -07.5668 26268.0
 11 06 2013  11 38  -20.9938 26039.5 -03459.0 -07.5667 26268.2
 11 06 2013  11 39  -20.9944 26039.8 -03459.0 -07.5665 26268.6
 11 06 2013  11 40  -20.9951 26039.9 -03458.9 -07.5663 26268.6
 11 06 2013  11 41  -20.9961 26039.7 -03458.7 -07.5659 26268.4
 11 06 2013  11 42  -20.9964 26040.0 -03458.6 -07.5657 26268.7
 11 06 2013  11 43  -20.9972 26040.0 -03458.4 -07.5653 26268.6
 11 06 2013  11 44  -20.9975 26040.0 -03458.3 -07.5650 26268.6
 11 06 2013  11 45  -20.9977 26039.8 -03458.1 -07.5646 26268.4
 11 06 2013  11 46  -20.9982 26040.3 -03458.2 -07.5647 26268.9
 11 06 2013  11 47  -20.9980 26040.8 -03458.3 -07.5647 26269.5
 11 06 2013  11 48  -20.9982 26041.2 -03458.2 -07.5645 26269.8
 11 06 2013  11 49  -20.9985 26041.4 -03458.2 -07.5644 26270.0
 11 06 2013  11 50  -20.9984 26041.4 -03458.0 -07.5639 26270.0
 11 06 2013  11 51  -20.9981 26041.6 -03457.9 -07.5637 26270.2
 11 06 2013  11 52  -20.9977 26041.8 -03457.8 -07.5634 26270.3
 11 06 2013  11 53  -20.9976 26041.9 -03457.7 -07.5631 26270.4
 11 06 2013  11 54  -20.9976 26042.8 -03457.9 -07.5634 26271.4
 11 06 2013  11 55  -20.9979 26043.4 -03458.0 -07.5633 26272.0
 11 06 2013  11 56  -20.9982 26043.5 -03457.7 -07.5628 26272.1
 11 06 2013  11 57  -20.9978 26043.5 -03457.4 -07.5621 26272.0
 11 06 2013  11 58  -20.9974 26043.9 -03457.3 -07.5617 26272.4
 11 06 2013  11 59  -20.9974 26044.6 -03457.3 -07.5616 26273.0
 11 06 2013  12 00  -20.9978 26044.5 -03457.1 -07.5610 26272.9
 11 06 2013  12 01  -20.9980 26044.4 -03456.7 -07.5604 26272.8
 11 06 2013  12 02  -20.9974 26044.8 -03456.7 -07.5601 26273.2
 11 06 2013  12 03  -20.9970 26045.1 -03456.6 -07.5598 26273.5
 11 06 2013  12 04  -20.9967 26045.7 -03456.7 -07.5598 26274.1
 11 06 2013  12 05  -20.9966 26046.6 -03456.9 -07.5600 26275.0
 11 06 2013  12 06  -21.0007 26047.4 -03456.8 -07.5596 26275.8
 11 06 2013  12 07  -21.0025 26047.7 -03456.6 -07.5591 26276.1
 11 06 2013  12 08  -21.0030 26047.7 -03456.3 -07.5585 26276.0
 11 06 2013  12 09  -21.0034 26047.6 -03456.0 -07.5579 26275.9
 11 06 2013  12 10  -21.0036 26047.9 -03455.9 -07.5575 26276.1
 11 06 2013  12 11  -21.0036 26048.2 -03455.8 -07.5571 26276.5
 11 06 2013  12 12  -21.0039 26049.1 -03455.9 -07.5572 26277.3
 11 06 2013  12 13  -21.0039 26049.4 -03455.7 -07.5566 26277.6
 11 06 2013  12 14  -21.0043 26049.6 -03455.5 -07.5561 26277.8
 11 06 2013  12 15  -21.0050 26050.1 -03455.4 -07.5559 26278.3
 11 06 2013  12 16  -21.0059 26050.4 -03455.3 -07.5556 26278.6
 11 06 2013  12 17  -21.0064 26050.6 -03455.2 -07.5552 26278.7
 11 06 2013  12 18  -21.0057 26050.7 -03455.1 -07.5550 26278.9
 11 06 2013  12 19  -21.0024 26051.3 -03455.4 -07.5554 26279.5
 11 06 2013  12 20  -21.0031 26051.9 -03455.4 -07.5554 26280.0
 11 06 2013  12 21  -21.0038 26052.6 -03455.6 -07.5555 26280.8
 11 06 2013  12 22  -21.0043 26053.0 -03455.4 -07.5551 26281.1
 11 06 2013  12 23  -21.0047 26053.3 -03455.4 -07.5548 26281.4
 11 06 2013  12 24  -21.0046 26053.7 -03455.3 -07.5545 26281.8
 11 06 2013  12 25  -21.0044 26053.9 -03455.1 -07.5540 26282.0
 11 06 2013  12 26  -21.0045 26054.6 -03455.0 -07.5537 26282.6
 11 06 2013  12 27  -21.0046 26054.9 -03454.8 -07.5533 26282.9
 11 06 2013  12 28  -21.0048 26055.2 -03454.7 -07.5529 26283.3
 11 06 2013  12 29  -21.0052 26055.4 -03454.5 -07.5525 26283.5
 11 06 2013  12 30  -21.0055 26055.5 -03454.3 -07.5520 26283.5
 11 06 2013  12 31  -21.0056 26056.0 -03454.3 -07.5519 26284.0
 11 06 2013  12 32  -21.0057 26056.5 -03454.3 -07.5517 26284.5
 11 06 2013  12 33  -21.0067 26055.8 -03453.7 -07.5505 26283.7
 11 06 2013  12 34  -21.0080 26054.6 -03453.0 -07.5493 26282.4
 11 06 2013  12 35  -21.0086 26054.6 -03452.9 -07.5491 26282.4
 11 06 2013  12 36  -21.0093 26054.5 -03452.7 -07.5488 26282.3
 11 06 2013  12 37  -21.0097 26054.4 -03452.6 -07.5486 26282.2
 11 06 2013  12 38  -21.0101 26054.2 -03452.5 -07.5483 26282.0
 11 06 2013  12 39  -21.0101 26054.0 -03452.2 -07.5479 26281.7
 11 06 2013  12 40  -21.0103 26054.1 -03452.2 -07.5478 26281.8
 11 06 2013  12 41  -21.0109 26054.4 -03452.2 -07.5477 26282.1
 11 06 2013  12 42  -21.0111 26054.5 -03452.2 -07.5476 26282.2
 11 06 2013  12 43  -21.0119 26054.3 -03452.0 -07.5473 26282.0
 11 06 2013  12 44  -21.0123 26054.4 -03452.0 -07.5472 26282.1
 11 06 2013  12 45  -21.0122 26054.9 -03452.1 -07.5473 26282.6
 11 06 2013  12 46  -21.0131 26055.4 -03452.2 -07.5474 26283.1
 11 06 2013  12 47  -21.0136 26055.9 -03452.3 -07.5474 26283.6
 11 06 2013  12 48  -21.0142 26056.4 -03452.3 -07.5474 26284.1
 11 06 2013  12 49  -21.0144 26056.9 -03452.4 -07.5473 26284.6
 11 06 2013  12 50  -21.0145 26057.1 -03452.2 -07.5470 26284.8
 11 06 2013  12 51  -21.0142 26058.2 -03452.6 -07.5474 26285.9
 11 06 2013  12 52  -21.0154 26058.2 -03452.4 -07.5469 26285.9
 11 06 2013  12 53  -21.0160 26058.2 -03451.9 -07.5460 26285.8
 11 06 2013  12 54  -21.0160 26058.2 -03451.7 -07.5455 26285.8
 11 06 2013  12 55  -21.0162 26057.8 -03451.3 -07.5448 26285.3
 11 06 2013  12 56  -21.0159 26057.5 -03451.1 -07.5443 26285.0
 11 06 2013  12 57  -21.0160 26057.3 -03450.8 -07.5439 26284.8
 11 06 2013  12 58  -21.0158 26057.6 -03450.9 -07.5440 26285.2
 11 06 2013  12 59  -21.0160 26057.7 -03450.9 -07.5439 26285.2
 11 06 2013  13 00  -21.0162 26057.6 -03450.7 -07.5435 26285.1
 11 06 2013  13 01  -21.0165 26057.9 -03450.7 -07.5434 26285.4
 11 06 2013  13 02  -21.0168 26057.7 -03450.4 -07.5429 26285.2
 11 06 2013  13 03  -21.0161 26058.5 -03450.7 -07.5432 26286.0
 11 06 2013  13 04  -21.0162 26059.2 -03450.9 -07.5434 26286.7
 11 06 2013  13 05  -21.0159 26059.5 -03450.8 -07.5433 26287.0
 11 06 2013  13 06  -21.0159 26060.2 -03450.9 -07.5433 26287.7
 11 06 2013  13 07  -21.0159 26060.6 -03450.9 -07.5431 26288.1
 11 06 2013  13 08  -21.0162 26060.6 -03450.6 -07.5426 26288.0
 11 06 2013  13 09  -21.0160 26060.8 -03450.5 -07.5421 26288.2
 11 06 2013  13 10  -21.0171 26060.5 -03450.2 -07.5415 26287.9
 11 06 2013  13 11  -21.0170 26060.7 -03450.0 -07.5412 26288.1
 11 06 2013  13 12  -21.0165 26061.6 -03450.3 -07.5415 26289.0
 11 06 2013  13 13  -21.0160 26062.6 -03450.5 -07.5417 26290.0
 11 06 2013  13 14  -21.0158 26063.5 -03450.6 -07.5416 26290.9
 11 06 2013  13 15  -21.0154 26064.5 -03450.8 -07.5418 26292.0
 11 06 2013  13 16  -21.0143 26065.3 -03450.9 -07.5417 26292.8
 11 06 2013  13 17  -21.0134 26066.8 -03451.2 -07.5419 26294.2
 11 06 2013  13 18  -21.0127 26068.4 -03451.5 -07.5421 26295.9
 11 06 2013  13 19  -21.0129 26070.2 -03451.8 -07.5422 26297.7
 11 06 2013  13 20  -21.0129 26071.4 -03451.6 -07.5416 26298.9
 11 06 2013  13 21  -21.0126 26072.7 -03451.5 -07.5409 26300.2
 11 06 2013  13 22  -21.0129 26074.3 -03451.4 -07.5403 26301.8
 11 06 2013  13 23  -21.0137 26075.1 -03451.0 -07.5392 26302.5
 11 06 2013  13 24  -21.0150 26075.0 -03450.2 -07.5376 26302.3
 11 06 2013  13 25  -21.0156 26075.0 -03449.7 -07.5364 26302.2
 11 06 2013  13 26  -21.0160 26075.3 -03449.4 -07.5356 26302.4
 11 06 2013  13 27  -21.0167 26075.8 -03449.2 -07.5351 26302.9
 11 06 2013  13 28  -21.0179 26076.3 -03448.9 -07.5344 26303.4
 11 06 2013  13 29  -21.0189 26076.3 -03448.4 -07.5333 26303.4
 11 06 2013  13 30  -21.0196 26076.3 -03447.9 -07.5322 26303.3
 11 06 2013  13 31  -21.0200 26075.9 -03447.3 -07.5309 26302.8
 11 06 2013  13 32  -21.0195 26076.2 -03446.9 -07.5301 26303.1
 11 06 2013  13 33  -21.0199 26076.6 -03446.7 -07.5296 26303.4
 11 06 2013  13 34  -21.0204 26077.2 -03446.7 -07.5292 26304.0
 11 06 2013  13 35  -21.0206 26077.5 -03446.4 -07.5286 26304.2
 11 06 2013  13 36  -21.0205 26077.7 -03446.2 -07.5280 26304.4
 11 06 2013  13 37  -21.0201 26077.8 -03445.9 -07.5274 26304.5
 11 06 2013  13 38  -21.0197 26077.8 -03445.6 -07.5268 26304.5
 11 06 2013  13 39  -21.0194 26078.0 -03445.4 -07.5263 26304.6
 11 06 2013  13 40  -21.0190 26078.2 -03445.3 -07.5261 26304.8
 11 06 2013  13 41  -21.0187 26078.2 -03445.2 -07.5257 26304.7
 11 06 2013  13 42  -21.0181 26078.4 -03445.2 -07.5257 26305.0
 11 06 2013  13 43  -21.0179 26078.5 -03445.2 -07.5257 26305.1
 11 06 2013  13 44  -21.0181 26078.6 -03445.1 -07.5254 26305.2
 11 06 2013  13 45  -21.0187 26079.0 -03445.1 -07.5253 26305.6
 11 06 2013  13 46  -21.0187 26079.1 -03445.0 -07.5250 26305.7
 11 06 2013  13 47  -21.0185 26079.4 -03444.8 -07.5247 26305.9
 11 06 2013  13 48  -21.0188 26079.6 -03444.7 -07.5243 26306.1
 11 06 2013  13 49  -21.0195 26079.6 -03444.6 -07.5240 26306.1
 11 06 2013  13 50  -21.0200 26080.0 -03444.5 -07.5238 26306.5
 11 06 2013  13 51  -21.0205 26080.4 -03444.5 -07.5237 26306.9
 11 06 2013  13 52  -21.0209 26080.8 -03444.4 -07.5233 26307.2
 11 06 2013  13 53  -21.0216 26081.0 -03444.3 -07.5231 26307.4
 11 06 2013  13 54  -21.0225 26081.4 -03444.2 -07.5227 26307.8
 11 06 2013  13 55  -21.0237 26081.6 -03444.0 -07.5223 26308.0
 11 06 2013  13 56  -21.0250 26081.7 -03443.8 -07.5217 26308.1
 11 06 2013  13 57  -21.0257 26081.5 -03443.4 -07.5210 26307.9
 11 06 2013  13 58  -21.0263 26081.0 -03443.0 -07.5201 26307.3
 11 06 2013  13 59  -21.0265 26082.0 -03443.2 -07.5205 26308.3
 11 06 2013  14 00  -21.0273 26081.5 -03442.8 -07.5197 26307.8
 11 06 2013  14 01  -21.0277 26081.9 -03442.9 -07.5197 26308.1
 11 06 2013  14 02  -21.0283 26082.3 -03443.0 -07.5199 26308.5
 11 06 2013  14 03  -21.0292 26081.9 -03442.7 -07.5193 26308.2
 11 06 2013  14 04  -21.0294 26081.6 -03442.4 -07.5188 26307.8
 11 06 2013  14 05  -21.0298 26081.2 -03442.2 -07.5184 26307.4
 11 06 2013  14 06  -21.0301 26080.3 -03441.8 -07.5178 26306.5
 11 06 2013  14 07  -21.0301 26079.7 -03441.5 -07.5173 26305.8
 11 06 2013  14 08  -21.0307 26079.2 -03441.5 -07.5175 26305.3
 11 06 2013  14 09  -21.0313 26078.9 -03441.4 -07.5175 26305.0
 11 06 2013  14 10  -21.0320 26078.6 -03441.4 -07.5174 26304.7
 11 06 2013  14 11  -21.0321 26078.0 -03441.3 -07.5173 26304.1
 11 06 2013  14 12  -21.0319 26077.7 -03441.3 -07.5176 26303.8
 11 06 2013  14 13  -21.0322 26078.4 -03441.8 -07.5184 26304.6
 11 06 2013  14 14  -21.0323 26078.8 -03442.0 -07.5187 26305.0
 11 06 2013  14 15  -21.0326 26078.9 -03442.1 -07.5188 26305.1
 11 06 2013  14 16  -21.0333 26078.4 -03441.9 -07.5185 26304.5
 11 06 2013  14 17  -21.0336 26076.8 -03441.2 -07.5175 26302.9
 11 06 2013  14 18  -21.0335 26075.3 -03440.7 -07.5169 26301.3
 11 06 2013  14 19  -21.0337 26074.3 -03440.6 -07.5170 26300.4
 11 06 2013  14 20  -21.0336 26073.4 -03440.6 -07.5172 26299.4
 11 06 2013  14 21  -21.0338 26072.6 -03440.6 -07.5174 26298.6
 11 06 2013  14 22  -21.0341 26072.6 -03441.0 -07.5183 26298.7
 11 06 2013  14 23  -21.0346 26072.2 -03441.2 -07.5188 26298.4
 11 06 2013  14 24  -21.0350 26071.7 -03441.2 -07.5191 26297.8
 11 06 2013  14 25  -21.0352 26071.6 -03441.4 -07.5194 26297.7
 11 06 2013  14 26  -21.0354 26071.5 -03441.5 -07.5196 26297.7
 11 06 2013  14 27  -21.0352 26071.7 -03441.6 -07.5199 26297.9
 11 06 2013  14 28  -21.0355 26072.2 -03442.0 -07.5206 26298.4
 11 06 2013  14 29  -21.0355 26072.9 -03442.3 -07.5210 26299.1
 11 06 2013  14 30  -21.0362 26073.3 -03442.3 -07.5209 26299.6
 11 06 2013  14 31  -21.0362 26073.4 -03442.2 -07.5207 26299.6
 11 06 2013  14 32  -21.0365 26073.3 -03442.1 -07.5204 26299.5
 11 06 2013  14 33  -21.0364 26072.4 -03441.4 -07.5193 26298.6
 11 06 2013  14 34  -21.0367 26071.6 -03441.1 -07.5188 26297.7
 11 06 2013  14 35  -21.0364 26070.4 -03440.7 -07.5184 26296.5
 11 06 2013  14 36  -21.0357 26069.5 -03440.5 -07.5182 26295.6
 11 06 2013  14 37  -21.0349 26068.8 -03440.5 -07.5183 26294.9
 11 06 2013  14 38  -21.0349 26068.6 -03440.7 -07.5188 26294.7
 11 06 2013  14 39  -21.0352 26068.7 -03441.0 -07.5193 26294.8
 11 06 2013  14 40  -21.0349 26068.6 -03440.9 -07.5193 26294.7
 11 06 2013  14 41  -21.0340 26068.4 -03441.0 -07.5194 26294.6
 11 06 2013  14 42  -21.0336 26068.4 -03441.1 -07.5198 26294.6
 11 06 2013  14 43  -21.0329 26068.4 -03441.2 -07.5199 26294.6
 11 06 2013  14 44  -21.0322 26068.3 -03441.3 -07.5201 26294.4
 11 06 2013  14 45  -21.0316 26068.4 -03441.4 -07.5204 26294.6
 11 06 2013  14 46  -21.0307 26068.2 -03441.5 -07.5206 26294.4
 11 06 2013  14 47  -21.0295 26067.8 -03441.4 -07.5206 26294.0
 11 06 2013  14 48  -21.0286 26067.6 -03441.6 -07.5210 26293.8
 11 06 2013  14 49  -21.0278 26067.2 -03441.7 -07.5214 26293.4
 11 06 2013  14 50  -21.0271 26066.8 -03441.9 -07.5219 26293.1
 11 06 2013  14 51  -21.0268 26066.6 -03442.1 -07.5224 26292.9
 11 06 2013  14 52  -21.0268 26066.6 -03442.4 -07.5230 26292.9
 11 06 2013  14 53  -21.0269 26066.7 -03442.8 -07.5238 26293.1
 11 06 2013  14 54  -21.0271 26067.0 -03443.1 -07.5245 26293.4
 11 06 2013  14 55  -21.0273 26067.4 -03443.4 -07.5250 26293.8
 11 06 2013  14 56  -21.0276 26067.2 -03443.4 -07.5250 26293.6
 11 06 2013  14 57  -21.0279 26066.9 -03443.4 -07.5252 26293.4
 11 06 2013  14 58  -21.0280 26066.9 -03443.7 -07.5257 26293.4
 11 06 2013  14 59  -21.0278 26066.3 -03443.6 -07.5258 26292.8
 11 06 2013  15 00  -21.0277 26065.8 -03443.7 -07.5261 26292.3
 11 06 2013  15 01  -21.0280 26065.4 -03443.8 -07.5264 26291.9
 11 06 2013  15 02  -21.0286 26064.9 -03443.9 -07.5267 26291.5
 11 06 2013  15 03  -21.0298 26064.8 -03444.1 -07.5273 26291.3
 11 06 2013  15 04  -21.0308 26064.2 -03444.1 -07.5275 26290.8
 11 06 2013  15 05  -21.0315 26063.4 -03444.1 -07.5276 26290.0
 11 06 2013  15 06  -21.0321 26062.6 -03444.1 -07.5279 26289.2
 11 06 2013  15 07  -21.0324 26062.0 -03444.2 -07.5282 26288.6
 11 06 2013  15 08  -21.0328 26061.8 -03444.4 -07.5287 26288.4
 11 06 2013  15 09  -21.0331 26061.5 -03444.7 -07.5294 26288.2
 11 06 2013  15 10  -21.0338 26061.5 -03445.0 -07.5301 26288.2
 11 06 2013  15 11  -21.0346 26061.5 -03445.2 -07.5306 26288.2
 11 06 2013  15 12  -21.0349 26061.9 -03445.5 -07.5311 26288.6
 11 06 2013  15 13  -21.0351 26062.2 -03445.8 -07.5317 26289.0
 11 06 2013  15 14  -21.0353 26062.5 -03446.1 -07.5322 26289.3
 11 06 2013  15 15  -21.0359 26063.2 -03446.4 -07.5326 26290.0
 11 06 2013  15 16  -21.0369 26063.9 -03446.6 -07.5329 26290.8
 11 06 2013  15 17  -21.0376 26064.1 -03446.5 -07.5326 26291.0
 11 06 2013  15 18  -21.0381 26063.9 -03446.3 -07.5322 26290.7
 11 06 2013  15 19  -21.0384 26063.6 -03446.1 -07.5319 26290.4
 11 06 2013  15 20  -21.0387 26063.3 -03446.0 -07.5317 26290.1
 11 06 2013  15 21  -21.0389 26062.8 -03445.8 -07.5314 26289.6
 11 06 2013  15 22  -21.0389 26062.0 -03445.5 -07.5310 26288.8
 11 06 2013  15 23  -21.0394 26061.6 -03445.4 -07.5309 26288.4
 11 06 2013  15 24  -21.0399 26061.4 -03445.4 -07.5309 26288.2
 11 06 2013  15 25  -21.0405 26061.6 -03445.5 -07.5311 26288.3
 11 06 2013  15 26  -21.0412 26061.5 -03445.5 -07.5312 26288.3
 11 06 2013  15 27  -21.0416 26061.6 -03445.6 -07.5313 26288.4
 11 06 2013  15 28  -21.0422 26062.0 -03445.7 -07.5315 26288.8
 11 06 2013  15 29  -21.0429 26062.9 -03446.1 -07.5320 26289.8
 11 06 2013  15 30  -21.0438 26064.0 -03446.4 -07.5323 26290.9
 11 06 2013  15 31  -21.0447 26065.1 -03446.6 -07.5324 26292.0
 11 06 2013  15 32  -21.0451 26065.9 -03446.5 -07.5321 26292.8
 11 06 2013  15 33  -21.0453 26066.8 -03446.5 -07.5318 26293.7
 11 06 2013  15 34  -21.0455 26067.6 -03446.4 -07.5314 26294.4
 11 06 2013  15 35  -21.0457 26068.2 -03446.3 -07.5310 26295.0
 11 06 2013  15 36  -21.0462 26068.8 -03446.2 -07.5307 26295.6
 11 06 2013  15 37  -21.0473 26069.6 -03446.1 -07.5303 26296.4
 11 06 2013  15 38  -21.0484 26070.2 -03446.0 -07.5298 26296.9
 11 06 2013  15 39  -21.0491 26070.4 -03445.7 -07.5291 26297.1
 11 06 2013  15 40  -21.0501 26070.7 -03445.4 -07.5284 26297.4
 11 06 2013  15 41  -21.0512 26071.1 -03445.3 -07.5280 26297.8
 11 06 2013  15 42  -21.0521 26071.2 -03445.0 -07.5273 26297.8
 11 06 2013  15 43  -21.0529 26071.0 -03444.6 -07.5265 26297.5
 11 06 2013  15 44  -21.0534 26070.6 -03444.2 -07.5259 26297.1
 11 06 2013  15 45  -21.0540 26069.8 -03443.7 -07.5250 26296.2
 11 06 2013  15 46  -21.0545 26069.3 -03443.5 -07.5246 26295.8
 11 06 2013  15 47  -21.0558 26069.3 -03443.4 -07.5245 26295.7
 11 06 2013  15 48  -21.0571 26069.4 -03443.3 -07.5243 26295.8
 11 06 2013  15 49  -21.0582 26069.5 -03443.2 -07.5240 26295.9
 11 06 2013  15 50  -21.0593 26069.6 -03443.1 -07.5237 26295.9
 11 06 2013  15 51  -21.0600 26069.2 -03442.7 -07.5230 26295.5
 11 06 2013  15 52  -21.0600 26068.5 -03442.3 -07.5222 26294.8
 11 06 2013  15 53  -21.0604 26068.2 -03442.1 -07.5218 26294.4
 11 06 2013  15 54  -21.0608 26067.9 -03441.9 -07.5216 26294.1
 11 06 2013  15 55  -21.0614 26067.7 -03441.8 -07.5214 26294.0
 11 06 2013  15 56  -21.0619 26067.7 -03441.7 -07.5213 26293.9
 11 06 2013  15 57  -21.0622 26067.4 -03441.5 -07.5209 26293.6
 11 06 2013  15 58  -21.0626 26066.9 -03441.2 -07.5204 26293.0
 11 06 2013  15 59  -21.0629 26066.3 -03441.0 -07.5200 26292.5
 11 06 2013  16 00  -21.0630 26065.7 -03440.7 -07.5197 26291.9
 11 06 2013  16 01  -21.0631 26065.2 -03440.6 -07.5196 26291.3
 11 06 2013  16 02  -21.0634 26064.4 -03440.4 -07.5194 26290.4
 11 06 2013  16 03  -21.0632 26063.5 -03440.2 -07.5191 26289.6
 11 06 2013  16 04  -21.0632 26063.0 -03440.1 -07.5190 26289.0
 11 06 2013  16 05  -21.0636 26062.4 -03440.1 -07.5192 26288.5
 11 06 2013  16 06  -21.0637 26061.9 -03440.1 -07.5194 26288.0
 11 06 2013  16 07  -21.0635 26061.4 -03440.1 -07.5194 26287.5
 11 06 2013  16 08  -21.0630 26060.8 -03440.1 -07.5196 26286.9
 11 06 2013  16 09  -21.0629 26060.6 -03440.1 -07.5198 26286.7
 11 06 2013  16 10  -21.0637 26061.3 -03440.6 -07.5206 26287.5
 11 06 2013  16 11  -21.0641 26061.4 -03440.6 -07.5206 26287.5
 11 06 2013  16 12  -21.0646 26061.7 -03440.6 -07.5206 26287.8
 11 06 2013  16 13  -21.0652 26062.2 -03440.7 -07.5206 26288.3
 11 06 2013  16 14  -21.0654 26062.4 -03440.6 -07.5203 26288.5
 11 06 2013  16 15  -21.0657 26062.5 -03440.4 -07.5198 26288.6
 11 06 2013  16 16  -21.0655 26062.4 -03440.1 -07.5193 26288.4
 11 06 2013  16 17  -21.0649 26061.7 -03439.6 -07.5185 26287.7
 11 06 2013  16 18  -21.0641 26061.0 -03439.4 -07.5181 26287.0
 11 06 2013  16 19  -21.0639 26060.5 -03439.3 -07.5180 26286.4
 11 06 2013  16 20  -21.0634 26059.7 -03439.0 -07.5177 26285.6
 11 06 2013  16 21  -21.0625 26059.0 -03439.0 -07.5178 26285.0
 11 06 2013  16 22  -21.0617 26058.7 -03439.1 -07.5182 26284.6
 11 06 2013  16 23  -21.0618 26058.3 -03439.3 -07.5187 26284.3
 11 06 2013  16 24  -21.0619 26058.2 -03439.4 -07.5190 26284.2
 11 06 2013  16 25  -21.0614 26058.1 -03439.5 -07.5191 26284.1
 11 06 2013  16 26  -21.0602 26057.5 -03439.4 -07.5191 26283.5
 11 06 2013  16 27  -21.0592 26056.8 -03439.4 -07.5194 26282.8
 11 06 2013  16 28  -21.0588 26056.0 -03439.4 -07.5196 26282.1
 11 06 2013  16 29  -21.0583 26055.5 -03439.5 -07.5199 26281.5
 11 06 2013  16 30  -21.0579 26055.4 -03439.8 -07.5205 26281.4
 11 06 2013  16 31  -21.0576 26055.2 -03440.0 -07.5210 26281.3
 11 06 2013  16 32  -21.0573 26055.0 -03440.1 -07.5214 26281.1
 11 06 2013  16 33  -21.0567 26054.3 -03440.1 -07.5215 26280.4
 11 06 2013  16 34  -21.0561 26053.5 -03440.0 -07.5215 26279.7
 11 06 2013  16 35  -21.0556 26052.9 -03440.0 -07.5218 26279.1
 11 06 2013  16 36  -21.0552 26052.3 -03440.1 -07.5221 26278.4
 11 06 2013  16 37  -21.0549 26051.7 -03440.2 -07.5225 26277.9
 11 06 2013  16 38  -21.0547 26051.4 -03440.4 -07.5231 26277.6
 11 06 2013  16 39  -21.0547 26051.1 -03440.6 -07.5235 26277.3
 11 06 2013  16 40  -21.0542 26050.8 -03440.6 -07.5237 26277.0
 11 06 2013  16 41  -21.0537 26050.5 -03440.6 -07.5238 26276.7
 11 06 2013  16 42  -21.0531 26050.4 -03440.8 -07.5242 26276.7
 11 06 2013  16 43  -21.0528 26050.4 -03441.0 -07.5246 26276.7
 11 06 2013  16 44  -21.0525 26050.6 -03441.3 -07.5252 26276.9
 11 06 2013  16 45  -21.0523 26050.8 -03441.5 -07.5255 26277.1
 11 06 2013  16 46  -21.0519 26050.8 -03441.6 -07.5257 26277.1
 11 06 2013  16 47  -21.0516 26051.0 -03441.7 -07.5260 26277.3
 11 06 2013  16 48  -21.0513 26051.0 -03441.8 -07.5261 26277.4
 11 06 2013  16 49  -21.0511 26051.2 -03441.9 -07.5264 26277.6
 11 06 2013  16 50  -21.0507 26051.0 -03441.9 -07.5264 26277.4
 11 06 2013  16 51  -21.0502 26051.0 -03442.0 -07.5265 26277.4
 11 06 2013  16 52  -21.0499 26051.1 -03442.1 -07.5267 26277.5
 11 06 2013  16 53  -21.0495 26051.1 -03442.1 -07.5269 26277.6
 11 06 2013  16 54  -21.0495 26051.5 -03442.3 -07.5272 26278.0
 11 06 2013  16 55  -21.0495 26052.0 -03442.6 -07.5275 26278.5
 11 06 2013  16 56  -21.0494 26052.4 -03442.7 -07.5278 26278.9
 11 06 2013  16 57  -21.0491 26052.6 -03442.8 -07.5278 26279.1
 11 06 2013  16 58  -21.0485 26052.5 -03442.7 -07.5278 26279.0
 11 06 2013  16 59  -21.0480 26052.6 -03442.8 -07.5280 26279.1
 11 06 2013  17 00  -21.0478 26052.8 -03443.0 -07.5282 26279.3
 11 06 2013  17 01  -21.0476 26053.0 -03443.1 -07.5285 26279.5
 11 06 2013  17 02  -21.0474 26053.2 -03443.3 -07.5287 26279.7
 11 06 2013  17 03  -21.0469 26053.1 -03443.2 -07.5286 26279.6
 11 06 2013  17 04  -21.0464 26052.9 -03443.2 -07.5287 26279.4
 11 06 2013  17 05  -21.0469 26053.5 -03443.5 -07.5291 26280.0
 11 06 2013  17 06  -21.0469 26053.5 -03443.5 -07.5291 26280.1
 11 06 2013  17 07  -21.0469 26053.3 -03443.4 -07.5289 26279.9
 11 06 2013  17 08  -21.0465 26052.7 -03443.2 -07.5286 26279.3
 11 06 2013  17 09  -21.0463 26052.1 -03443.0 -07.5285 26278.6
 11 06 2013  17 10  -21.0459 26051.6 -03443.0 -07.5286 26278.1
 11 06 2013  17 11  -21.0456 26051.3 -03443.1 -07.5288 26277.9
 11 06 2013  17 12  -21.0453 26051.2 -03443.2 -07.5291 26277.7
 11 06 2013  17 13  -21.0452 26051.2 -03443.3 -07.5294 26277.7
 11 06 2013  17 14  -21.0450 26051.0 -03443.3 -07.5295 26277.5
 11 06 2013  17 15  -21.0444 26050.7 -03443.3 -07.5295 26277.3
 11 06 2013  17 16  -21.0442 26050.6 -03443.3 -07.5296 26277.2
 11 06 2013  17 17  -21.0439 26050.6 -03443.4 -07.5298 26277.2
 11 06 2013  17 18  -21.0434 26050.5 -03443.5 -07.5299 26277.1
 11 06 2013  17 19  -21.0432 26050.6 -03443.5 -07.5301 26277.2
 11 06 2013  17 20  -21.0428 26050.6 -03443.6 -07.5303 26277.2
 11 06 2013  17 21  -21.0420 26050.2 -03443.6 -07.5302 26276.9
 11 06 2013  17 22  -21.0412 26049.9 -03443.5 -07.5302 26276.5
 11 06 2013  17 23  -21.0408 26049.8 -03443.6 -07.5305 26276.4
 11 06 2013  17 24  -21.0404 26049.6 -03443.7 -07.5308 26276.2
 11 06 2013  17 25  -21.0396 26049.5 -03443.9 -07.5311 26276.1
 11 06 2013  17 26  -21.0388 26049.1 -03443.9 -07.5313 26275.8
 11 06 2013  17 27  -21.0383 26049.0 -03444.1 -07.5316 26275.7
 11 06 2013  17 28  -21.0378 26048.7 -03444.1 -07.5319 26275.4
 11 06 2013  17 29  -21.0371 26048.3 -03444.2 -07.5321 26275.0
 11 06 2013  17 30  -21.0368 26048.3 -03444.3 -07.5325 26275.0
 11 06 2013  17 31  -21.0366 26048.2 -03444.5 -07.5329 26274.9
 11 06 2013  17 32  -21.0365 26048.0 -03444.6 -07.5331 26274.8
 11 06 2013  17 33  -21.0364 26048.0 -03444.7 -07.5334 26274.8
 11 06 2013  17 34  -21.0367 26048.0 -03444.8 -07.5335 26274.8
 11 06 2013  17 35  -21.0366 26047.6 -03444.6 -07.5332 26274.3
 11 06 2013  17 36  -21.0362 26047.0 -03444.4 -07.5330 26273.8
 11 06 2013  17 37  -21.0359 26046.4 -03444.2 -07.5328 26273.1
 11 06 2013  17 38  -21.0360 26046.0 -03444.3 -07.5329 26272.7
 11 06 2013  17 39  -21.0360 26045.7 -03444.3 -07.5331 26272.5
 11 06 2013  17 40  -21.0360 26045.3 -03444.3 -07.5332 26272.0
 11 06 2013  17 41  -21.0362 26045.2 -03444.4 -07.5335 26271.9
 11 06 2013  17 42  -21.0363 26044.8 -03444.4 -07.5336 26271.6
 11 06 2013  17 43  -21.0364 26044.4 -03444.4 -07.5337 26271.2
 11 06 2013  17 44  -21.0361 26043.9 -03444.4 -07.5338 26270.7
 11 06 2013  17 45  -21.0359 26043.5 -03444.4 -07.5339 26270.2
 11 06 2013  17 46  -21.0356 26043.6 -03444.6 -07.5344 26270.4
 11 06 2013  17 47  -21.0356 26043.6 -03444.7 -07.5346 26270.5
 11 06 2013  17 48  -21.0355 26043.7 -03444.8 -07.5347 26270.5
 11 06 2013  17 49  -21.0359 26043.8 -03444.8 -07.5347 26270.6
 11 06 2013  17 50  -21.0365 26044.1 -03444.9 -07.5348 26271.0
 11 06 2013  17 51  -21.0372 26044.3 -03444.8 -07.5347 26271.1
 11 06 2013  17 52  -21.0372 26043.9 -03444.6 -07.5343 26270.7
 11 06 2013  17 53  -21.0369 26043.5 -03444.4 -07.5339 26270.2
 11 06 2013  17 54  -21.0364 26042.8 -03444.1 -07.5335 26269.5
 11 06 2013  17 55  -21.0357 26041.9 -03443.8 -07.5332 26268.6
 11 06 2013  17 56  -21.0348 26041.0 -03443.6 -07.5330 26267.7
 11 06 2013  17 57  -21.0346 26040.4 -03443.6 -07.5331 26267.1
 11 06 2013  17 58  -21.0344 26039.9 -03443.6 -07.5333 26266.6
 11 06 2013  17 59  -21.0348 26039.8 -03443.9 -07.5339 26266.6
 11 06 2013  18 00  -21.0349 26039.8 -03444.1 -07.5343 26266.6
 11 06 2013  18 01  -21.0350 26039.7 -03444.2 -07.5346 26266.5
 11 06 2013  18 02  -21.0349 26039.5 -03444.2 -07.5346 26266.3
 11 06 2013  18 03  -21.0345 26039.2 -03444.1 -07.5346 26266.0
 11 06 2013  18 04  -21.0341 26038.7 -03444.0 -07.5345 26265.5
 11 06 2013  18 05  -21.0339 26038.3 -03444.0 -07.5346 26265.1
 11 06 2013  18 06  -21.0341 26037.9 -03444.1 -07.5349 26264.7
 11 06 2013  18 07  -21.0341 26037.2 -03444.0 -07.5349 26264.0
 11 06 2013  18 08  -21.0341 26036.6 -03444.0 -07.5351 26263.4
 11 06 2013  18 09  -21.0344 26036.4 -03444.1 -07.5354 26263.2
 11 06 2013  18 10  -21.0345 26036.2 -03444.2 -07.5357 26263.0
 11 06 2013  18 11  -21.0345 26035.8 -03444.3 -07.5358 26262.7
 11 06 2013  18 12  -21.0348 26035.4 -03444.3 -07.5360 26262.2
 11 06 2013  18 13  -21.0347 26034.9 -03444.3 -07.5361 26261.8
 11 06 2013  18 14  -21.0351 26034.5 -03444.4 -07.5364 26261.4
 11 06 2013  18 15  -21.0355 26034.1 -03444.4 -07.5367 26260.9
 11 06 2013  18 16  -21.0360 26033.8 -03444.6 -07.5371 26260.7
 11 06 2013  18 17  -21.0362 26033.3 -03444.6 -07.5372 26260.2
 11 06 2013  18 18  -21.0367 26033.2 -03444.7 -07.5375 26260.1
 11 06 2013  18 19  -21.0369 26032.6 -03444.6 -07.5376 26259.5
 11 06 2013  18 20  -21.0371 26032.1 -03444.6 -07.5376 26259.0
 11 06 2013  18 21  -21.0375 26031.8 -03444.7 -07.5379 26258.7
 11 06 2013  18 22  -21.0381 26031.4 -03444.7 -07.5380 26258.3
 11 06 2013  18 23  -21.0385 26031.1 -03444.7 -07.5381 26258.1
 11 06 2013  18 24  -21.0386 26030.7 -03444.7 -07.5382 26257.6
 11 06 2013  18 25  -21.0389 26030.4 -03444.7 -07.5383 26257.3
 11 06 2013  18 26  -21.0389 26030.0 -03444.7 -07.5384 26256.9
 11 06 2013  18 27  -21.0389 26029.5 -03444.6 -07.5385 26256.4
 11 06 2013  18 28  -21.0389 26029.3 -03444.7 -07.5387 26256.2
 11 06 2013  18 29  -21.0394 26029.1 -03444.8 -07.5389 26256.1
 11 06 2013  18 30  -21.0395 26029.0 -03444.9 -07.5391 26256.0
 11 06 2013  18 31  -21.0397 26029.0 -03445.0 -07.5395 26256.0
 11 06 2013  18 32  -21.0404 26029.2 -03445.2 -07.5397 26256.2
 11 06 2013  18 33  -21.0406 26029.4 -03445.4 -07.5401 26256.4
 11 06 2013  18 34  -21.0412 26029.8 -03445.6 -07.5404 26256.9
 11 06 2013  18 35  -21.0419 26030.4 -03445.8 -07.5408 26257.5
 11 06 2013  18 36  -21.0427 26031.0 -03446.0 -07.5411 26258.1
 11 06 2013  18 37  -21.0431 26031.3 -03446.1 -07.5411 26258.4
 11 06 2013  18 38  -21.0436 26031.5 -03446.1 -07.5410 26258.6
 11 06 2013  18 39  -21.0439 26031.8 -03446.1 -07.5409 26258.9
 11 06 2013  18 40  -21.0440 26032.1 -03446.1 -07.5410 26259.2
 11 06 2013  18 41  -21.0438 26032.2 -03446.1 -07.5408 26259.3
 11 06 2013  18 42  -21.0433 26032.2 -03446.0 -07.5406 26259.3
 11 06 2013  18 43  -21.0428 26031.9 -03445.9 -07.5405 26258.9
 11 06 2013  18 44  -21.0424 26031.5 -03445.7 -07.5402 26258.5
 11 06 2013  18 45  -21.0421 26031.0 -03445.6 -07.5400 26258.1
 11 06 2013  18 46  -21.0417 26030.6 -03445.4 -07.5398 26257.6
 11 06 2013  18 47  -21.0417 26030.1 -03445.2 -07.5396 26257.1
 11 06 2013  18 48  -21.0414 26029.6 -03445.1 -07.5394 26256.6
 11 06 2013  18 49  -21.0411 26029.1 -03444.9 -07.5392 26256.1
 11 06 2013  18 50  -21.0408 26028.6 -03444.8 -07.5391 26255.6
 11 06 2013  18 51  -21.0405 26028.1 -03444.8 -07.5392 26255.1
 11 06 2013  18 52  -21.0405 26028.0 -03444.9 -07.5396 26255.0
 11 06 2013  18 53  -21.0405 26027.9 -03445.1 -07.5399 26254.9
 11 06 2013  18 54  -21.0404 26027.7 -03445.2 -07.5402 26254.7
 11 06 2013  18 55  -21.0401 26027.4 -03445.3 -07.5405 26254.4
 11 06 2013  18 56  -21.0403 26027.3 -03445.4 -07.5407 26254.3
 11 06 2013  18 57  -21.0404 26027.1 -03445.5 -07.5409 26254.2
 11 06 2013  18 58  -21.0403 26027.1 -03445.5 -07.5410 26254.1
 11 06 2013  18 59  -21.0403 26027.0 -03445.6 -07.5412 26254.0
 11 06 2013  19 00  -21.0405 26026.7 -03445.5 -07.5412 26253.8
 11 06 2013  19 01  -21.0407 26026.6 -03445.5 -07.5412 26253.6
 11 06 2013  19 02  -21.0408 26026.3 -03445.4 -07.5411 26253.4
 11 06 2013  19 03  -21.0409 26026.3 -03445.4 -07.5411 26253.3
 11 06 2013  19 04  -21.0410 26026.3 -03445.5 -07.5413 26253.3
 11 06 2013  19 05  -21.0411 26026.1 -03445.5 -07.5412 26253.1
 11 06 2013  19 06  -21.0411 26025.8 -03445.4 -07.5411 26252.9
 11 06 2013  19 07  -21.0410 26025.5 -03445.3 -07.5410 26252.6
 11 06 2013  19 08  -21.0412 26025.4 -03445.3 -07.5410 26252.4
 11 06 2013  19 09  -21.0413 26025.3 -03445.4 -07.5413 26252.4
 11 06 2013  19 10  -21.0416 26025.3 -03445.4 -07.5414 26252.4
 11 06 2013  19 11  -21.0418 26025.2 -03445.4 -07.5414 26252.3
 11 06 2013  19 12  -21.0419 26024.9 -03445.3 -07.5412 26252.0
 11 06 2013  19 13  -21.0419 26024.5 -03445.2 -07.5411 26251.6
 11 06 2013  19 14  -21.0419 26024.3 -03445.1 -07.5410 26251.4
 11 06 2013  19 15  -21.0420 26024.3 -03445.2 -07.5412 26251.3
 11 06 2013  19 16  -21.0423 26024.3 -03445.3 -07.5413 26251.4
 11 06 2013  19 17  -21.0425 26024.2 -03445.2 -07.5413 26251.3
 11 06 2013  19 18  -21.0426 26024.2 -03445.2 -07.5413 26251.3
 11 06 2013  19 19  -21.0427 26024.1 -03445.3 -07.5414 26251.2
 11 06 2013  19 20  -21.0427 26024.0 -03445.3 -07.5414 26251.1
 11 06 2013  19 21  -21.0430 26024.1 -03445.4 -07.5416 26251.2
 11 06 2013  19 22  -21.0432 26024.2 -03445.4 -07.5417 26251.3
 11 06 2013  19 23  -21.0434 26024.1 -03445.4 -07.5418 26251.2
 11 06 2013  19 24  -21.0434 26024.0 -03445.4 -07.5417 26251.1
 11 06 2013  19 25  -21.0447 26023.7 -03445.3 -07.5415 26250.8
 11 06 2013  19 26  -21.0499 26023.3 -03445.1 -07.5413 26250.4
 11 06 2013  19 27  -21.0521 26023.4 -03445.2 -07.5415 26250.5
 11 06 2013  19 28  -21.0520 26023.2 -03445.2 -07.5414 26250.3
 11 06 2013  19 29  -21.0520 26023.1 -03445.1 -07.5413 26250.1
 11 06 2013  19 30  -21.0505 26022.7 -03445.0 -07.5413 26249.7
 11 06 2013  19 31  -21.0449 26022.5 -03445.2 -07.5417 26249.6
 11 06 2013  19 32  -21.0441 26022.5 -03445.4 -07.5421 26249.6
 11 06 2013  19 33  -21.0442 26022.4 -03445.4 -07.5422 26249.5
 11 06 2013  19 34  -21.0445 26022.3 -03445.4 -07.5423 26249.4
 11 06 2013  19 35  -21.0446 26022.4 -03445.5 -07.5425 26249.5
 11 06 2013  19 36  -21.0446 26022.3 -03445.6 -07.5425 26249.4
 11 06 2013  19 37  -21.0445 26022.3 -03445.7 -07.5427 26249.5
 11 06 2013  19 38  -21.0445 26022.4 -03445.8 -07.5430 26249.6
 11 06 2013  19 39  -21.0449 26022.5 -03445.9 -07.5432 26249.6
 11 06 2013  19 40  -21.0452 26022.6 -03446.0 -07.5433 26249.7
 11 06 2013  19 41  -21.0452 26022.5 -03445.9 -07.5431 26249.7
 11 06 2013  19 42  -21.0449 26022.4 -03445.8 -07.5431 26249.5
 11 06 2013  19 43  -21.0447 26022.1 -03445.8 -07.5431 26249.3
 11 06 2013  19 44  -21.0449 26022.2 -03446.0 -07.5434 26249.4
 11 06 2013  19 45  -21.0448 26022.2 -03446.0 -07.5435 26249.4
 11 06 2013  19 46  -21.0450 26022.3 -03446.1 -07.5437 26249.5
 11 06 2013  19 47  -21.0451 26022.2 -03446.1 -07.5438 26249.4
 11 06 2013  19 48  -21.0451 26022.0 -03446.1 -07.5437 26249.2
 11 06 2013  19 49  -21.0451 26021.8 -03446.1 -07.5438 26249.0
 11 06 2013  19 50  -21.0450 26021.6 -03446.0 -07.5438 26248.8
 11 06 2013  19 51  -21.0450 26021.4 -03446.0 -07.5438 26248.6
 11 06 2013  19 52  -21.0449 26021.4 -03446.1 -07.5439 26248.6
 11 06 2013  19 53  -21.0449 26021.3 -03446.1 -07.5440 26248.5
 11 06 2013  19 54  -21.0449 26021.3 -03446.2 -07.5441 26248.5
 11 06 2013  19 55  -21.0451 26021.4 -03446.3 -07.5443 26248.6
 11 06 2013  19 56  -21.0452 26021.4 -03446.3 -07.5444 26248.7
 11 06 2013  19 57  -21.0451 26021.3 -03446.3 -07.5445 26248.5
 11 06 2013  19 58  -21.0450 26021.2 -03446.3 -07.5445 26248.4
 11 06 2013  19 59  -21.0448 26021.1 -03446.3 -07.5446 26248.3
 11 06 2013  20 00  -21.0449 26020.9 -03446.3 -07.5446 26248.2
 11 06 2013  20 01  -21.0448 26020.9 -03446.4 -07.5447 26248.2
 11 06 2013  20 02  -21.0448 26020.9 -03446.5 -07.5449 26248.2
 11 06 2013  20 03  -21.0448 26020.9 -03446.5 -07.5450 26248.1
 11 06 2013  20 04  -21.0448 26020.8 -03446.6 -07.5451 26248.1
 11 06 2013  20 05  -21.0447 26020.8 -03446.7 -07.5453 26248.0
 11 06 2013  20 06  -21.0447 26020.7 -03446.8 -07.5456 26248.0
 11 06 2013  20 07  -21.0448 26020.7 -03446.9 -07.5458 26248.0
 11 06 2013  20 08  -21.0450 26020.7 -03446.9 -07.5460 26248.0
 11 06 2013  20 09  -21.0452 26020.5 -03447.0 -07.5461 26247.9
 11 06 2013  20 10  -21.0451 26020.4 -03447.0 -07.5462 26247.7
 11 06 2013  20 11  -21.0451 26020.2 -03447.0 -07.5463 26247.5
 11 06 2013  20 12  -21.0453 26020.4 -03447.2 -07.5467 26247.7
 11 06 2013  20 13  -21.0453 26020.6 -03447.5 -07.5471 26248.0
 11 06 2013  20 14  -21.0454 26020.7 -03447.6 -07.5474 26248.1
 11 06 2013  20 15  -21.0453 26020.7 -03447.7 -07.5476 26248.1
 11 06 2013  20 16  -21.0453 26020.7 -03447.7 -07.5477 26248.1
 11 06 2013  20 17  -21.0452 26020.6 -03447.8 -07.5478 26248.0
 11 06 2013  20 18  -21.0452 26020.6 -03447.8 -07.5479 26248.0
 11 06 2013  20 19  -21.0450 26020.6 -03447.9 -07.5481 26248.0
 11 06 2013  20 20  -21.0449 26020.5 -03447.9 -07.5482 26248.0
 11 06 2013  20 21  -21.0448 26020.4 -03448.0 -07.5483 26247.8
 11 06 2013  20 22  -21.0447 26020.3 -03448.0 -07.5485 26247.7
 11 06 2013  20 23  -21.0447 26020.2 -03448.1 -07.5486 26247.7
 11 06 2013  20 24  -21.0447 26020.2 -03448.2 -07.5488 26247.7
 11 06 2013  20 25  -21.0447 26020.1 -03448.2 -07.5489 26247.6
 11 06 2013  20 26  -21.0445 26020.0 -03448.2 -07.5490 26247.5
 11 06 2013  20 27  -21.0443 26020.1 -03448.4 -07.5492 26247.6
 11 06 2013  20 28  -21.0443 26020.2 -03448.5 -07.5495 26247.8
 11 06 2013  20 29  -21.0442 26020.3 -03448.6 -07.5497 26247.8
 11 06 2013  20 30  -21.0442 26020.5 -03448.7 -07.5499 26248.0
 11 06 2013  20 31  -21.0442 26020.4 -03448.7 -07.5500 26248.0
 11 06 2013  20 32  -21.0440 26020.2 -03448.7 -07.5499 26247.8
 11 06 2013  20 33  -21.0438 26020.0 -03448.6 -07.5498 26247.6
 11 06 2013  20 34  -21.0437 26019.9 -03448.5 -07.5497 26247.4
 11 06 2013  20 35  -21.0435 26019.7 -03448.5 -07.5497 26247.2
 11 06 2013  20 36  -21.0434 26019.6 -03448.5 -07.5497 26247.1
 11 06 2013  20 37  -21.0431 26019.5 -03448.5 -07.5497 26247.0
 11 06 2013  20 38  -21.0428 26019.5 -03448.6 -07.5499 26247.0
 11 06 2013  20 39  -21.0425 26019.3 -03448.6 -07.5499 26246.8
 11 06 2013  20 40  -21.0422 26019.3 -03448.7 -07.5501 26246.8
 11 06 2013  20 41  -21.0419 26019.4 -03448.8 -07.5504 26247.0
 11 06 2013  20 42  -21.0415 26019.5 -03449.0 -07.5507 26247.1
 11 06 2013  20 43  -21.0411 26019.7 -03449.1 -07.5509 26247.3
 11 06 2013  20 44  -21.0408 26019.9 -03449.2 -07.5511 26247.5
 11 06 2013  20 45  -21.0406 26020.1 -03449.3 -07.5512 26247.7
 11 06 2013  20 46  -21.0405 26020.3 -03449.4 -07.5513 26248.0
 11 06 2013  20 47  -21.0405 26020.6 -03449.5 -07.5514 26248.2
 11 06 2013  20 48  -21.0406 26020.7 -03449.5 -07.5514 26248.3
 11 06 2013  20 49  -21.0402 26020.7 -03449.4 -07.5513 26248.3
 11 06 2013  20 50  -21.0398 26020.5 -03449.3 -07.5511 26248.1
 11 06 2013  20 51  -21.0393 26020.2 -03449.2 -07.5509 26247.8
 11 06 2013  20 52  -21.0388 26020.0 -03449.0 -07.5507 26247.6
 11 06 2013  20 53  -21.0384 26019.9 -03449.0 -07.5507 26247.5
 11 06 2013  20 54  -21.0380 26019.8 -03449.0 -07.5506 26247.4
 11 06 2013  20 55  -21.0376 26019.6 -03448.9 -07.5506 26247.1
 11 06 2013  20 56  -21.0373 26019.3 -03448.8 -07.5504 26246.9
 11 06 2013  20 57  -21.0370 26019.2 -03448.8 -07.5504 26246.7
 11 06 2013  20 58  -21.0369 26019.2 -03448.8 -07.5503 26246.7
 11 06 2013  20 59  -21.0369 26019.4 -03449.0 -07.5508 26247.0
 11 06 2013  21 00  -21.0372 26019.6 -03449.2 -07.5512 26247.2
 11 06 2013  21 01  -21.0372 26020.1 -03449.5 -07.5516 26247.7
 11 06 2013  21 02  -21.0371 26020.4 -03449.6 -07.5518 26248.1
 11 06 2013  21 03  -21.0370 26020.5 -03449.6 -07.5519 26248.2
 11 06 2013  21 04  -21.0368 26020.9 -03449.8 -07.5521 26248.6
 11 06 2013  21 05  -21.0364 26021.4 -03450.1 -07.5525 26249.1
 11 06 2013  21 06  -21.0361 26021.7 -03450.1 -07.5526 26249.4
 11 06 2013  21 07  -21.0360 26022.0 -03450.2 -07.5526 26249.7
 11 06 2013  21 08  -21.0359 26022.3 -03450.3 -07.5527 26250.0
 11 06 2013  21 09  -21.0360 26022.4 -03450.3 -07.5527 26250.1
 11 06 2013  21 10  -21.0361 26022.3 -03450.1 -07.5524 26250.0
 11 06 2013  21 11  -21.0362 26022.1 -03450.0 -07.5521 26249.8
 11 06 2013  21 12  -21.0364 26021.9 -03449.8 -07.5519 26249.5
 11 06 2013  21 13  -21.0366 26021.5 -03449.6 -07.5515 26249.2
 11 06 2013  21 14  -21.0366 26021.3 -03449.5 -07.5514 26249.0
 11 06 2013  21 15  -21.0367 26021.3 -03449.5 -07.5513 26248.9
 11 06 2013  21 16  -21.0364 26021.2 -03449.4 -07.5512 26248.8
 11 06 2013  21 17  -21.0362 26021.0 -03449.4 -07.5511 26248.7
 11 06 2013  21 18  -21.0362 26020.8 -03449.2 -07.5509 26248.5
 11 06 2013  21 19  -21.0359 26020.8 -03449.2 -07.5508 26248.4
 11 06 2013  21 20  -21.0359 26020.7 -03449.1 -07.5507 26248.3
 11 06 2013  21 21  -21.0357 26020.6 -03449.1 -07.5507 26248.2
 11 06 2013  21 22  -21.0351 26020.7 -03449.1 -07.5506 26248.3
 11 06 2013  21 23  -21.0347 26020.7 -03449.0 -07.5505 26248.3
 11 06 2013  21 24  -21.0343 26020.5 -03448.9 -07.5503 26248.1
 11 06 2013  21 25  -21.0339 26020.5 -03448.9 -07.5502 26248.1
 11 06 2013  21 26  -21.0337 26020.5 -03448.9 -07.5503 26248.1
 11 06 2013  21 27  -21.0333 26020.4 -03448.7 -07.5500 26247.9
 11 06 2013  21 28  -21.0332 26020.1 -03448.6 -07.5498 26247.7
 11 06 2013  21 29  -21.0332 26019.9 -03448.7 -07.5499 26247.5
 11 06 2013  21 30  -21.0330 26019.9 -03448.7 -07.5499 26247.5
 11 06 2013  21 31  -21.0326 26020.0 -03448.7 -07.5500 26247.5
 11 06 2013  21 32  -21.0323 26020.0 -03448.8 -07.5502 26247.6
 11 06 2013  21 33  -21.0320 26020.2 -03448.9 -07.5504 26247.7
 11 06 2013  21 34  -21.0312 26020.5 -03449.1 -07.5507 26248.1
 11 06 2013  21 35  -21.0312 26020.9 -03449.3 -07.5511 26248.5
 11 06 2013  21 36  -21.0308 26021.3 -03449.5 -07.5514 26248.9
 11 06 2013  21 37  -21.0307 26021.6 -03449.7 -07.5516 26249.2
 11 06 2013  21 38  -21.0307 26021.9 -03449.8 -07.5518 26249.6
 11 06 2013  21 39  -21.0307 26022.0 -03449.9 -07.5519 26249.7
 11 06 2013  21 40  -21.0308 26022.0 -03449.9 -07.5520 26249.7
 11 06 2013  21 41  -21.0310 26022.0 -03449.8 -07.5518 26249.7
 11 06 2013  21 42  -21.0309 26022.1 -03449.9 -07.5519 26249.7
 11 06 2013  21 43  -21.0308 26022.0 -03449.9 -07.5519 26249.7
 11 06 2013  21 44  -21.0309 26021.8 -03449.8 -07.5518 26249.5
 11 06 2013  21 45  -21.0309 26021.8 -03449.8 -07.5518 26249.5
 11 06 2013  21 46  -21.0310 26021.9 -03449.8 -07.5518 26249.5
 11 06 2013  21 47  -21.0309 26022.0 -03449.8 -07.5519 26249.7
 11 06 2013  21 48  -21.0307 26022.2 -03449.9 -07.5519 26249.8
 11 06 2013  21 49  -21.0306 26022.5 -03450.0 -07.5521 26250.2
 11 06 2013  21 50  -21.0304 26022.8 -03450.1 -07.5523 26250.5
 11 06 2013  21 51  -21.0303 26022.9 -03450.2 -07.5524 26250.6
 11 06 2013  21 52  -21.0303 26023.0 -03450.2 -07.5523 26250.7
 11 06 2013  21 53  -21.0303 26023.3 -03450.3 -07.5524 26251.0
 11 06 2013  21 54  -21.0302 26023.7 -03450.4 -07.5526 26251.4
 11 06 2013  21 55  -21.0301 26024.0 -03450.5 -07.5528 26251.8
 11 06 2013  21 56  -21.0299 26024.3 -03450.6 -07.5529 26252.0
 11 06 2013  21 57  -21.0298 26024.1 -03450.5 -07.5527 26251.9
 11 06 2013  21 58  -21.0298 26023.8 -03450.3 -07.5523 26251.6
 11 06 2013  21 59  -21.0298 26023.7 -03450.2 -07.5521 26251.5
 11 06 2013  22 00  -21.0300 26023.7 -03450.2 -07.5521 26251.4
 11 06 2013  22 01  -21.0301 26023.6 -03450.1 -07.5519 26251.3
 11 06 2013  22 02  -21.0302 26023.4 -03450.0 -07.5517 26251.1
 11 06 2013  22 03  -21.0301 26023.4 -03450.0 -07.5517 26251.1
 11 06 2013  22 04  -21.0300 26023.4 -03449.9 -07.5516 26251.1
 11 06 2013  22 05  -21.0300 26023.4 -03449.9 -07.5515 26251.0
 11 06 2013  22 06  -21.0301 26023.4 -03449.9 -07.5515 26251.1
 11 06 2013  22 07  -21.0301 26023.6 -03449.9 -07.5516 26251.3
 11 06 2013  22 08  -21.0303 26023.6 -03450.0 -07.5517 26251.3
 11 06 2013  22 09  -21.0304 26023.6 -03449.9 -07.5516 26251.3
 11 06 2013  22 10  -21.0307 26023.7 -03449.9 -07.5516 26251.4
 11 06 2013  22 11  -21.0308 26023.8 -03449.9 -07.5516 26251.4
 11 06 2013  22 12  -21.0312 26023.6 -03449.9 -07.5515 26251.3
 11 06 2013  22 13  -21.0313 26023.5 -03449.8 -07.5513 26251.1
 11 06 2013  22 14  -21.0313 26023.4 -03449.7 -07.5512 26251.1
 11 06 2013  22 15  -21.0310 26023.4 -03449.7 -07.5511 26251.1
 11 06 2013  22 16  -21.0308 26023.4 -03449.6 -07.5510 26251.0
 11 06 2013  22 17  -21.0308 26023.4 -03449.6 -07.5510 26251.0
 11 06 2013  22 18  -21.0310 26023.5 -03449.7 -07.5511 26251.1
 11 06 2013  22 19  -21.0312 26023.5 -03449.7 -07.5510 26251.2
 11 06 2013  22 20  -21.0312 26023.5 -03449.6 -07.5509 26251.1
 11 06 2013  22 21  -21.0312 26023.4 -03449.5 -07.5508 26251.0
 11 06 2013  22 22  -21.0313 26023.5 -03449.6 -07.5508 26251.1
 11 06 2013  22 23  -21.0315 26023.5 -03449.6 -07.5509 26251.2
 11 06 2013  22 24  -21.0318 26023.5 -03449.6 -07.5508 26251.2
 11 06 2013  22 25  -21.0319 26023.6 -03449.6 -07.5509 26251.2
 11 06 2013  22 26  -21.0321 26023.7 -03449.6 -07.5508 26251.3
 11 06 2013  22 27  -21.0321 26024.0 -03449.6 -07.5509 26251.6
 11 06 2013  22 28  -21.0320 26024.2 -03449.7 -07.5510 26251.8
 11 06 2013  22 29  -21.0321 26024.3 -03449.7 -07.5510 26251.9
 11 06 2013  22 30  -21.0321 26024.4 -03449.8 -07.5510 26252.0
 11 06 2013  22 31  -21.0321 26024.6 -03449.8 -07.5510 26252.2
 11 06 2013  22 32  -21.0322 26024.7 -03449.8 -07.5510 26252.4
 11 06 2013  22 33  -21.0323 26024.8 -03449.8 -07.5510 26252.5
 11 06 2013  22 34  -21.0325 26024.8 -03449.8 -07.5509 26252.5
 11 06 2013  22 35  -21.0326 26024.9 -03449.7 -07.5508 26252.5
 11 06 2013  22 36  -21.0324 26025.1 -03449.8 -07.5508 26252.7
 11 06 2013  22 37  -21.0323 26025.2 -03449.8 -07.5508 26252.8
 11 06 2013  22 38  -21.0325 26025.1 -03449.7 -07.5506 26252.7
 11 06 2013  22 39  -21.0328 26025.0 -03449.6 -07.5505 26252.6
 11 06 2013  22 40  -21.0330 26025.0 -03449.6 -07.5505 26252.6
 11 06 2013  22 41  -21.0333 26025.0 -03449.6 -07.5505 26252.6
 11 06 2013  22 42  -21.0335 26024.9 -03449.5 -07.5504 26252.5
 11 06 2013  22 43  -21.0337 26024.8 -03449.5 -07.5503 26252.4
 11 06 2013  22 44  -21.0336 26024.9 -03449.4 -07.5502 26252.5
 11 06 2013  22 45  -21.0335 26025.0 -03449.5 -07.5502 26252.6
 11 06 2013  22 46  -21.0334 26025.2 -03449.5 -07.5503 26252.8
 11 06 2013  22 47  -21.0332 26025.3 -03449.5 -07.5503 26252.9
 11 06 2013  22 48  -21.0332 26025.5 -03449.6 -07.5504 26253.1
 11 06 2013  22 49  -21.0333 26025.5 -03449.6 -07.5504 26253.2
 11 06 2013  22 50  -21.0332 26025.5 -03449.6 -07.5504 26253.2
 11 06 2013  22 51  -21.0331 26025.5 -03449.6 -07.5504 26253.2
 11 06 2013  22 52  -21.0330 26025.5 -03449.6 -07.5503 26253.2
 11 06 2013  22 53  -21.0329 26025.7 -03449.6 -07.5503 26253.3
 11 06 2013  22 54  -21.0328 26025.9 -03449.7 -07.5505 26253.5
 11 06 2013  22 55  -21.0325 26026.1 -03449.8 -07.5506 26253.8
 11 06 2013  22 56  -21.0322 26026.3 -03449.8 -07.5506 26253.9
 11 06 2013  22 57  -21.0322 26026.4 -03449.9 -07.5507 26254.1
 11 06 2013  22 58  -21.0322 26026.5 -03449.9 -07.5508 26254.1
 11 06 2013  22 59  -21.0323 26026.5 -03449.9 -07.5508 26254.1
 11 06 2013  23 00  -21.0324 26026.5 -03449.9 -07.5508 26254.2
 11 06 2013  23 01  -21.0326 26026.5 -03450.0 -07.5509 26254.2
 11 06 2013  23 02  -21.0328 26026.5 -03450.0 -07.5508 26254.2
 11 06 2013  23 03  -21.0325 26026.6 -03449.9 -07.5508 26254.2
 11 06 2013  23 04  -21.0323 26026.6 -03449.9 -07.5507 26254.3
 11 06 2013  23 05  -21.0322 26026.6 -03449.9 -07.5506 26254.2
 11 06 2013  23 06  -21.0321 26026.5 -03449.8 -07.5505 26254.2
 11 06 2013  23 07  -21.0320 26026.6 -03449.9 -07.5506 26254.3
 11 06 2013  23 08  -21.0322 26026.7 -03449.9 -07.5507 26254.4
 11 06 2013  23 09  -21.0321 26026.6 -03449.9 -07.5506 26254.3
 11 06 2013  23 10  -21.0323 26026.5 -03449.8 -07.5504 26254.2
 11 06 2013  23 11  -21.0323 26026.3 -03449.7 -07.5503 26254.0
 11 06 2013  23 12  -21.0325 26026.1 -03449.5 -07.5501 26253.7
 11 06 2013  23 13  -21.0329 26025.8 -03449.4 -07.5498 26253.4
 11 06 2013  23 14  -21.0332 26025.7 -03449.4 -07.5497 26253.3
 11 06 2013  23 15  -21.0334 26025.8 -03449.4 -07.5498 26253.4
 11 06 2013  23 16  -21.0333 26025.8 -03449.4 -07.5497 26253.4
 11 06 2013  23 17  -21.0334 26025.8 -03449.3 -07.5497 26253.4
 11 06 2013  23 18  -21.0335 26026.1 -03449.5 -07.5500 26253.7
 11 06 2013  23 19  -21.0335 26026.5 -03449.7 -07.5502 26254.1
 11 06 2013  23 20  -21.0335 26026.8 -03449.8 -07.5504 26254.5
 11 06 2013  23 21  -21.0335 26027.0 -03449.9 -07.5505 26254.6
 11 06 2013  23 22  -21.0334 26027.0 -03449.9 -07.5505 26254.6
 11 06 2013  23 23  -21.0332 26027.0 -03449.8 -07.5504 26254.7
 11 06 2013  23 24  -21.0330 26027.2 -03449.9 -07.5505 26254.9
 11 06 2013  23 25  -21.0330 26027.3 -03449.9 -07.5505 26254.9
 11 06 2013  23 26  -21.0332 26027.2 -03449.9 -07.5505 26254.9
 11 06 2013  23 27  -21.0336 26027.2 -03449.9 -07.5505 26254.9
 11 06 2013  23 28  -21.0338 26027.2 -03449.9 -07.5505 26254.9
 11 06 2013  23 29  -21.0341 26027.1 -03449.8 -07.5504 26254.7
 11 06 2013  23 30  -21.0344 26026.9 -03449.7 -07.5502 26254.5
 11 06 2013  23 31  -21.0347 26026.6 -03449.6 -07.5500 26254.2
 11 06 2013  23 32  -21.0348 26026.4 -03449.4 -07.5497 26254.0
 11 06 2013  23 33  -21.0350 26026.1 -03449.2 -07.5494 26253.6
 11 06 2013  23 34  -21.0351 26025.8 -03449.1 -07.5492 26253.3
 11 06 2013  23 35  -21.0349 26025.6 -03449.0 -07.5490 26253.1
 11 06 2013  23 36  -21.0346 26025.3 -03448.8 -07.5487 26252.8
 11 06 2013  23 37  -21.0346 26024.9 -03448.7 -07.5486 26252.4
 11 06 2013  23 38  -21.0349 26024.6 -03448.5 -07.5483 26252.1
 11 06 2013  23 39  -21.0350 26024.2 -03448.4 -07.5481 26251.6
 11 06 2013  23 40  -21.0350 26024.0 -03448.3 -07.5480 26251.4
 11 06 2013  23 41  -21.0350 26023.8 -03448.3 -07.5480 26251.3
 11 06 2013  23 42  -21.0349 26023.6 -03448.3 -07.5480 26251.1
 11 06 2013  23 43  -21.0348 26023.5 -03448.2 -07.5480 26250.9
 11 06 2013  23 44  -21.0347 26023.2 -03448.1 -07.5478 26250.7
 11 06 2013  23 45  -21.0347 26023.1 -03448.1 -07.5478 26250.6
 11 06 2013  23 46  -21.0345 26023.0 -03448.1 -07.5478 26250.4
 11 06 2013  23 47  -21.0342 26022.9 -03448.1 -07.5479 26250.4
 11 06 2013  23 48  -21.0341 26022.9 -03448.2 -07.5480 26250.3
 11 06 2013  23 49  -21.0344 26022.8 -03448.2 -07.5481 26250.3
 11 06 2013  23 50  -21.0348 26022.8 -03448.3 -07.5483 26250.3
 11 06 2013  23 51  -21.0350 26022.9 -03448.4 -07.5484 26250.4
 11 06 2013  23 52  -21.0350 26022.8 -03448.4 -07.5486 26250.3
 11 06 2013  23 53  -21.0349 26022.9 -03448.5 -07.5487 26250.4
 11 06 2013  23 54  -21.0347 26022.9 -03448.5 -07.5486 26250.4
 11 06 2013  23 55  -21.0346 26022.8 -03448.5 -07.5487 26250.3
 11 06 2013  23 56  -21.0347 26022.7 -03448.4 -07.5486 26250.2
 11 06 2013  23 57  -21.0347 26022.6 -03448.4 -07.5486 26250.1
 11 06 2013  23 58  -21.0348 26022.6 -03448.4 -07.5486 26250.1
