SAO LUIS EMBRACE-03 <077> 1 Min. Reported data

 DD MM YYYY  HH MM   D(Deg)  H(nT)   Z(nT)   I(Deg)   F(nT)

 18 03 2013  00 00  -21.1025 25972.6 -03424.6 -07.5113 26197.4
 18 03 2013  00 01  -21.1024 25972.7 -03424.6 -07.5113 26197.5
 18 03 2013  00 02  -21.1022 25972.8 -03424.6 -07.5113 26197.6
 18 03 2013  00 03  -21.1021 25972.8 -03424.6 -07.5113 26197.6
 18 03 2013  00 04  -21.1021 25972.7 -03424.5 -07.5112 26197.5
 18 03 2013  00 05  -21.1021 25972.4 -03424.4 -07.5109 26197.2
 18 03 2013  00 06  -21.1021 25972.1 -03424.2 -07.5106 26196.9
 18 03 2013  00 07  -21.1020 25971.7 -03424.0 -07.5102 26196.4
 18 03 2013  00 08  -21.1020 25971.4 -03423.8 -07.5099 26196.1
 18 03 2013  00 09  -21.1018 25971.1 -03423.6 -07.5097 26195.8
 18 03 2013  00 10  -21.1018 25971.0 -03423.6 -07.5097 26195.7
 18 03 2013  00 11  -21.1016 25971.0 -03423.6 -07.5096 26195.7
 18 03 2013  00 12  -21.1014 25971.0 -03423.6 -07.5097 26195.7
 18 03 2013  00 13  -21.1013 25971.0 -03423.6 -07.5097 26195.6
 18 03 2013  00 14  -21.1011 25970.8 -03423.5 -07.5096 26195.5
 18 03 2013  00 15  -21.1009 25970.7 -03423.5 -07.5095 26195.4
 18 03 2013  00 16  -21.1008 25970.8 -03423.5 -07.5096 26195.5
 18 03 2013  00 17  -21.1010 25971.0 -03423.7 -07.5098 26195.6
 18 03 2013  00 18  -21.1013 25971.2 -03423.8 -07.5100 26195.9
 18 03 2013  00 19  -21.1016 25971.4 -03424.0 -07.5103 26196.2
 18 03 2013  00 20  -21.1017 25971.6 -03424.0 -07.5104 26196.4
 18 03 2013  00 21  -21.1018 25971.7 -03424.0 -07.5104 26196.4
 18 03 2013  00 22  -21.1017 25971.8 -03424.0 -07.5103 26196.5
 18 03 2013  00 23  -21.1014 25972.0 -03424.0 -07.5103 26196.7
 18 03 2013  00 24  -21.1011 25972.0 -03424.0 -07.5103 26196.7
 18 03 2013  00 25  -21.1006 25972.1 -03424.0 -07.5102 26196.9
 18 03 2013  00 26  -21.1002 25972.4 -03424.2 -07.5104 26197.1
 18 03 2013  00 27  -21.1000 25972.7 -03424.3 -07.5106 26197.4
 18 03 2013  00 28  -21.1000 25973.0 -03424.4 -07.5107 26197.7
 18 03 2013  00 29  -21.0999 25973.3 -03424.5 -07.5109 26198.1
 18 03 2013  00 30  -21.1000 25973.6 -03424.6 -07.5110 26198.4
 18 03 2013  00 31  -21.1004 25973.8 -03424.6 -07.5111 26198.6
 18 03 2013  00 32  -21.1005 25974.0 -03424.7 -07.5111 26198.8
 18 03 2013  00 33  -21.1005 25974.3 -03424.7 -07.5111 26199.1
 18 03 2013  00 34  -21.1005 25974.4 -03424.7 -07.5110 26199.2
 18 03 2013  00 35  -21.1003 25974.6 -03424.7 -07.5110 26199.4
 18 03 2013  00 36  -21.1000 25974.8 -03424.7 -07.5108 26199.6
 18 03 2013  00 37  -21.0996 25974.9 -03424.6 -07.5107 26199.7
 18 03 2013  00 38  -21.0992 25974.9 -03424.5 -07.5105 26199.7
 18 03 2013  00 39  -21.0989 25975.0 -03424.5 -07.5104 26199.8
 18 03 2013  00 40  -21.0989 25975.0 -03424.4 -07.5103 26199.8
 18 03 2013  00 41  -21.0988 25975.0 -03424.3 -07.5100 26199.7
 18 03 2013  00 42  -21.0985 25975.0 -03424.3 -07.5099 26199.7
 18 03 2013  00 43  -21.0983 25975.1 -03424.3 -07.5099 26199.8
 18 03 2013  00 44  -21.0981 25975.3 -03424.3 -07.5099 26200.0
 18 03 2013  00 45  -21.0977 25975.5 -03424.3 -07.5099 26200.3
 18 03 2013  00 46  -21.0975 25975.8 -03424.4 -07.5101 26200.6
 18 03 2013  00 47  -21.0972 25976.2 -03424.6 -07.5102 26200.9
 18 03 2013  00 48  -21.0972 25976.5 -03424.7 -07.5104 26201.3
 18 03 2013  00 49  -21.0971 25976.8 -03424.8 -07.5105 26201.6
 18 03 2013  00 50  -21.0969 25977.2 -03424.9 -07.5106 26202.0
 18 03 2013  00 51  -21.0966 25977.5 -03424.9 -07.5106 26202.3
 18 03 2013  00 52  -21.0961 25977.7 -03425.0 -07.5107 26202.5
 18 03 2013  00 53  -21.0954 25978.0 -03425.0 -07.5106 26202.8
 18 03 2013  00 54  -21.0947 25978.2 -03425.0 -07.5105 26203.0
 18 03 2013  00 55  -21.0941 25978.4 -03425.0 -07.5105 26203.2
 18 03 2013  00 56  -21.0936 25978.6 -03425.0 -07.5105 26203.4
 18 03 2013  00 57  -21.0933 25978.6 -03424.9 -07.5103 26203.4
 18 03 2013  00 58  -21.0928 25978.5 -03424.8 -07.5102 26203.3
 18 03 2013  00 59  -21.0924 25978.6 -03424.8 -07.5101 26203.4
 18 03 2013  01 00  -21.0919 25978.6 -03424.8 -07.5100 26203.4
 18 03 2013  01 01  -21.0915 25978.6 -03424.7 -07.5098 26203.3
 18 03 2013  01 02  -21.0912 25978.6 -03424.6 -07.5097 26203.4
 18 03 2013  01 03  -21.0908 25978.7 -03424.6 -07.5097 26203.4
 18 03 2013  01 04  -21.0904 25978.9 -03424.7 -07.5098 26203.7
 18 03 2013  01 05  -21.0906 25979.0 -03424.7 -07.5098 26203.8
 18 03 2013  01 06  -21.0906 25979.2 -03424.8 -07.5099 26204.0
 18 03 2013  01 07  -21.0904 25979.5 -03424.9 -07.5101 26204.3
 18 03 2013  01 08  -21.0902 25979.8 -03425.0 -07.5101 26204.6
 18 03 2013  01 09  -21.0901 25980.3 -03425.1 -07.5103 26205.1
 18 03 2013  01 10  -21.0901 25980.7 -03425.3 -07.5106 26205.5
 18 03 2013  01 11  -21.0898 25981.1 -03425.4 -07.5106 26205.9
 18 03 2013  01 12  -21.0892 25981.6 -03425.5 -07.5108 26206.4
 18 03 2013  01 13  -21.0885 25982.4 -03425.8 -07.5112 26207.2
 18 03 2013  01 14  -21.0876 25983.1 -03426.1 -07.5116 26208.0
 18 03 2013  01 15  -21.0867 25984.0 -03426.4 -07.5121 26209.0
 18 03 2013  01 16  -21.0861 25985.1 -03426.9 -07.5128 26210.1
 18 03 2013  01 17  -21.0855 25985.8 -03427.2 -07.5131 26210.8
 18 03 2013  01 18  -21.0849 25986.1 -03427.2 -07.5132 26211.1
 18 03 2013  01 19  -21.0843 25986.0 -03427.0 -07.5127 26211.0
 18 03 2013  01 20  -21.0837 25985.8 -03426.8 -07.5123 26210.8
 18 03 2013  01 21  -21.0830 25985.4 -03426.4 -07.5117 26210.3
 18 03 2013  01 22  -21.0825 25984.9 -03426.1 -07.5112 26209.8
 18 03 2013  01 23  -21.0819 25984.3 -03425.7 -07.5104 26209.1
 18 03 2013  01 24  -21.0812 25983.5 -03425.3 -07.5097 26208.3
 18 03 2013  01 25  -21.0806 25983.0 -03425.0 -07.5093 26207.8
 18 03 2013  01 26  -21.0804 25982.5 -03424.8 -07.5089 26207.3
 18 03 2013  01 27  -21.0805 25981.8 -03424.5 -07.5085 26206.5
 18 03 2013  01 28  -21.0807 25981.3 -03424.3 -07.5081 26206.0
 18 03 2013  01 29  -21.0807 25981.5 -03424.4 -07.5084 26206.2
 18 03 2013  01 30  -21.0815 25981.6 -03424.6 -07.5088 26206.3
 18 03 2013  01 31  -21.0824 25982.0 -03424.9 -07.5092 26206.8
 18 03 2013  01 32  -21.0831 25982.7 -03425.3 -07.5099 26207.6
 18 03 2013  01 33  -21.0833 25983.7 -03425.8 -07.5107 26208.6
 18 03 2013  01 34  -21.0834 25984.7 -03426.2 -07.5114 26209.6
 18 03 2013  01 35  -21.0838 25985.2 -03426.4 -07.5117 26210.1
 18 03 2013  01 36  -21.0841 25985.0 -03426.3 -07.5115 26210.0
 18 03 2013  01 37  -21.0840 25984.7 -03426.0 -07.5109 26209.6
 18 03 2013  01 38  -21.0834 25984.6 -03425.7 -07.5104 26209.4
 18 03 2013  01 39  -21.0828 25984.4 -03425.6 -07.5101 26209.2
 18 03 2013  01 40  -21.0822 25984.2 -03425.4 -07.5098 26209.0
 18 03 2013  01 41  -21.0816 25984.1 -03425.3 -07.5096 26208.9
 18 03 2013  01 42  -21.0809 25984.2 -03425.4 -07.5097 26209.0
 18 03 2013  01 43  -21.0800 25984.5 -03425.5 -07.5098 26209.3
 18 03 2013  01 44  -21.0796 25984.6 -03425.6 -07.5101 26209.5
 18 03 2013  01 45  -21.0793 25984.5 -03425.6 -07.5101 26209.4
 18 03 2013  01 46  -21.0789 25984.2 -03425.5 -07.5099 26209.1
 18 03 2013  01 47  -21.0786 25984.1 -03425.4 -07.5097 26208.9
 18 03 2013  01 48  -21.0787 25984.0 -03425.4 -07.5098 26208.8
 18 03 2013  01 49  -21.0788 25984.0 -03425.5 -07.5099 26208.8
 18 03 2013  01 50  -21.0789 25984.1 -03425.5 -07.5101 26208.9
 18 03 2013  01 51  -21.0791 25984.5 -03425.8 -07.5105 26209.3
 18 03 2013  01 52  -21.0794 25984.7 -03425.9 -07.5108 26209.6
 18 03 2013  01 53  -21.0794 25984.9 -03426.0 -07.5109 26209.8
 18 03 2013  01 54  -21.0792 25985.0 -03426.0 -07.5109 26209.9
 18 03 2013  01 55  -21.0792 25985.0 -03426.0 -07.5109 26209.9
 18 03 2013  01 56  -21.0792 25985.0 -03426.0 -07.5109 26209.8
 18 03 2013  01 57  -21.0791 25985.0 -03426.1 -07.5110 26209.9
 18 03 2013  01 58  -21.0790 25985.1 -03426.0 -07.5109 26209.9
 18 03 2013  01 59  -21.0786 25985.1 -03426.0 -07.5109 26209.9
 18 03 2013  02 00  -21.0786 25984.9 -03426.0 -07.5108 26209.8
 18 03 2013  02 01  -21.0787 25984.8 -03425.9 -07.5107 26209.6
 18 03 2013  02 02  -21.0788 25984.8 -03425.9 -07.5107 26209.6
 18 03 2013  02 03  -21.0788 25984.7 -03425.9 -07.5107 26209.5
 18 03 2013  02 04  -21.0789 25984.4 -03425.8 -07.5105 26209.2
 18 03 2013  02 05  -21.0790 25984.1 -03425.6 -07.5103 26208.9
 18 03 2013  02 06  -21.0791 25984.2 -03425.6 -07.5103 26209.0
 18 03 2013  02 07  -21.0795 25984.5 -03425.8 -07.5107 26209.3
 18 03 2013  02 08  -21.0798 25984.6 -03426.0 -07.5109 26209.5
 18 03 2013  02 09  -21.0796 25984.8 -03426.1 -07.5111 26209.7
 18 03 2013  02 10  -21.0794 25984.9 -03426.1 -07.5111 26209.8
 18 03 2013  02 11  -21.0794 25984.8 -03426.1 -07.5111 26209.7
 18 03 2013  02 12  -21.0791 25984.7 -03426.1 -07.5111 26209.6
 18 03 2013  02 13  -21.0789 25984.6 -03426.0 -07.5110 26209.5
 18 03 2013  02 14  -21.0788 25984.7 -03426.1 -07.5112 26209.6
 18 03 2013  02 15  -21.0787 25984.9 -03426.2 -07.5114 26209.8
 18 03 2013  02 16  -21.0789 25985.0 -03426.3 -07.5116 26209.9
 18 03 2013  02 17  -21.0791 25984.9 -03426.4 -07.5117 26209.9
 18 03 2013  02 18  -21.0793 25984.9 -03426.4 -07.5118 26209.9
 18 03 2013  02 19  -21.0794 25984.8 -03426.4 -07.5118 26209.8
 18 03 2013  02 20  -21.0795 25984.7 -03426.3 -07.5117 26209.6
 18 03 2013  02 21  -21.0797 25984.5 -03426.3 -07.5116 26209.4
 18 03 2013  02 22  -21.0800 25984.0 -03426.2 -07.5115 26208.9
 18 03 2013  02 23  -21.0802 25983.5 -03425.9 -07.5112 26208.4
 18 03 2013  02 24  -21.0804 25983.3 -03425.9 -07.5110 26208.1
 18 03 2013  02 25  -21.0806 25983.2 -03425.9 -07.5111 26208.1
 18 03 2013  02 26  -21.0808 25983.3 -03426.0 -07.5113 26208.2
 18 03 2013  02 27  -21.0810 25983.6 -03426.2 -07.5117 26208.5
 18 03 2013  02 28  -21.0812 25983.7 -03426.3 -07.5119 26208.7
 18 03 2013  02 29  -21.0817 25983.7 -03426.4 -07.5120 26208.6
 18 03 2013  02 30  -21.0822 25983.6 -03426.4 -07.5121 26208.5
 18 03 2013  02 31  -21.0828 25983.5 -03426.4 -07.5121 26208.4
 18 03 2013  02 32  -21.0836 25983.6 -03426.4 -07.5122 26208.5
 18 03 2013  02 33  -21.0844 25983.8 -03426.6 -07.5124 26208.8
 18 03 2013  02 34  -21.0848 25984.1 -03426.7 -07.5126 26209.1
 18 03 2013  02 35  -21.0851 25984.4 -03426.8 -07.5128 26209.4
 18 03 2013  02 36  -21.0855 25984.6 -03426.9 -07.5130 26209.6
 18 03 2013  02 37  -21.0859 25984.7 -03426.9 -07.5129 26209.7
 18 03 2013  02 38  -21.0862 25984.5 -03426.8 -07.5127 26209.4
 18 03 2013  02 39  -21.0863 25984.3 -03426.7 -07.5125 26209.2
 18 03 2013  02 40  -21.0863 25984.2 -03426.6 -07.5123 26209.2
 18 03 2013  02 41  -21.0865 25984.2 -03426.6 -07.5123 26209.2
 18 03 2013  02 42  -21.0865 25984.3 -03426.6 -07.5124 26209.3
 18 03 2013  02 43  -21.0865 25984.5 -03426.7 -07.5124 26209.5
 18 03 2013  02 44  -21.0869 25984.6 -03426.8 -07.5126 26209.6
 18 03 2013  02 45  -21.0872 25984.7 -03426.8 -07.5126 26209.6
 18 03 2013  02 46  -21.0874 25984.6 -03426.7 -07.5125 26209.5
 18 03 2013  02 47  -21.0877 25984.6 -03426.7 -07.5125 26209.6
 18 03 2013  02 48  -21.0880 25984.8 -03426.8 -07.5125 26209.7
 18 03 2013  02 49  -21.0883 25985.0 -03426.8 -07.5126 26210.0
 18 03 2013  02 50  -21.0886 25985.2 -03426.9 -07.5127 26210.2
 18 03 2013  02 51  -21.0889 25985.2 -03426.9 -07.5126 26210.2
 18 03 2013  02 52  -21.0890 25984.9 -03426.7 -07.5123 26209.9
 18 03 2013  02 53  -21.0890 25984.6 -03426.4 -07.5119 26209.5
 18 03 2013  02 54  -21.0890 25984.3 -03426.2 -07.5116 26209.2
 18 03 2013  02 55  -21.0891 25984.2 -03426.2 -07.5114 26209.1
 18 03 2013  02 56  -21.0894 25984.4 -03426.2 -07.5116 26209.3
 18 03 2013  02 57  -21.0895 25984.7 -03426.4 -07.5118 26209.6
 18 03 2013  02 58  -21.0896 25985.1 -03426.5 -07.5120 26210.0
 18 03 2013  02 59  -21.0895 25985.3 -03426.6 -07.5121 26210.2
 18 03 2013  03 00  -21.0897 25985.6 -03426.7 -07.5122 26210.6
 18 03 2013  03 01  -21.0898 25986.0 -03426.9 -07.5125 26211.0
 18 03 2013  03 02  -21.0899 25986.3 -03427.0 -07.5127 26211.3
 18 03 2013  03 03  -21.0900 25986.4 -03427.0 -07.5126 26211.4
 18 03 2013  03 04  -21.0901 25986.4 -03427.0 -07.5125 26211.4
 18 03 2013  03 05  -21.0902 25986.7 -03427.0 -07.5125 26211.7
 18 03 2013  03 06  -21.0901 25986.9 -03427.0 -07.5126 26211.9
 18 03 2013  03 07  -21.0902 25987.4 -03427.2 -07.5128 26212.5
 18 03 2013  03 08  -21.0904 25987.7 -03427.3 -07.5129 26212.8
 18 03 2013  03 09  -21.0908 25987.8 -03427.3 -07.5128 26212.8
 18 03 2013  03 10  -21.0911 25987.6 -03427.1 -07.5125 26212.6
 18 03 2013  03 11  -21.0916 25987.5 -03426.9 -07.5121 26212.5
 18 03 2013  03 12  -21.0919 25987.7 -03426.9 -07.5120 26212.7
 18 03 2013  03 13  -21.0922 25988.0 -03426.9 -07.5120 26213.0
 18 03 2013  03 14  -21.0927 25988.3 -03427.0 -07.5120 26213.3
 18 03 2013  03 15  -21.0930 25988.5 -03427.0 -07.5119 26213.5
 18 03 2013  03 16  -21.0931 25988.6 -03426.9 -07.5118 26213.6
 18 03 2013  03 17  -21.0932 25988.7 -03426.8 -07.5115 26213.7
 18 03 2013  03 18  -21.0936 25988.6 -03426.6 -07.5112 26213.5
 18 03 2013  03 19  -21.0938 25988.4 -03426.4 -07.5107 26213.3
 18 03 2013  03 20  -21.0941 25988.3 -03426.2 -07.5103 26213.1
 18 03 2013  03 21  -21.0942 25988.2 -03426.0 -07.5100 26213.0
 18 03 2013  03 22  -21.0942 25988.1 -03425.8 -07.5096 26212.9
 18 03 2013  03 23  -21.0946 25988.1 -03425.8 -07.5094 26212.9
 18 03 2013  03 24  -21.0950 25988.3 -03425.7 -07.5093 26213.1
 18 03 2013  03 25  -21.0952 25988.4 -03425.7 -07.5092 26213.3
 18 03 2013  03 26  -21.0953 25988.5 -03425.6 -07.5090 26213.3
 18 03 2013  03 27  -21.0953 25988.6 -03425.5 -07.5088 26213.4
 18 03 2013  03 28  -21.0953 25988.7 -03425.5 -07.5086 26213.5
 18 03 2013  03 29  -21.0955 25989.1 -03425.5 -07.5086 26213.8
 18 03 2013  03 30  -21.0954 25989.2 -03425.5 -07.5085 26214.0
 18 03 2013  03 31  -21.0953 25989.4 -03425.4 -07.5083 26214.2
 18 03 2013  03 32  -21.0953 25989.6 -03425.4 -07.5082 26214.4
 18 03 2013  03 33  -21.0952 25989.9 -03425.4 -07.5081 26214.6
 18 03 2013  03 34  -21.0951 25990.1 -03425.4 -07.5081 26214.9
 18 03 2013  03 35  -21.0948 25990.5 -03425.4 -07.5081 26215.2
 18 03 2013  03 36  -21.0946 25990.9 -03425.5 -07.5081 26215.6
 18 03 2013  03 37  -21.0946 25990.9 -03425.5 -07.5080 26215.7
 18 03 2013  03 38  -21.0945 25990.8 -03425.2 -07.5075 26215.5
 18 03 2013  03 39  -21.0940 25990.7 -03425.0 -07.5071 26215.4
 18 03 2013  03 40  -21.0937 25990.7 -03424.9 -07.5068 26215.4
 18 03 2013  03 41  -21.0934 25990.8 -03424.8 -07.5065 26215.4
 18 03 2013  03 42  -21.0931 25990.8 -03424.7 -07.5063 26215.4
 18 03 2013  03 43  -21.0930 25990.8 -03424.6 -07.5062 26215.5
 18 03 2013  03 44  -21.0929 25991.0 -03424.6 -07.5061 26215.6
 18 03 2013  03 45  -21.0929 25990.9 -03424.5 -07.5059 26215.6
 18 03 2013  03 46  -21.0930 25990.9 -03424.4 -07.5057 26215.5
 18 03 2013  03 47  -21.0931 25990.9 -03424.3 -07.5055 26215.5
 18 03 2013  03 48  -21.0932 25991.1 -03424.3 -07.5054 26215.7
 18 03 2013  03 49  -21.0931 25991.9 -03424.6 -07.5058 26216.6
 18 03 2013  03 50  -21.0927 25992.4 -03424.8 -07.5061 26217.1
 18 03 2013  03 51  -21.0920 25992.7 -03424.8 -07.5060 26217.3
 18 03 2013  03 52  -21.0913 25993.1 -03424.8 -07.5060 26217.7
 18 03 2013  03 53  -21.0909 25993.5 -03424.9 -07.5061 26218.2
 18 03 2013  03 54  -21.0905 25993.7 -03425.0 -07.5061 26218.4
 18 03 2013  03 55  -21.0903 25993.8 -03424.9 -07.5060 26218.5
 18 03 2013  03 56  -21.0900 25993.8 -03424.8 -07.5057 26218.4
 18 03 2013  03 57  -21.0899 25993.8 -03424.7 -07.5054 26218.4
 18 03 2013  03 58  -21.0895 25993.9 -03424.6 -07.5052 26218.5
 18 03 2013  03 59  -21.0890 25994.1 -03424.6 -07.5051 26218.7
 18 03 2013  04 00  -21.0889 25994.5 -03424.7 -07.5053 26219.2
 18 03 2013  04 01  -21.0890 25994.8 -03424.7 -07.5053 26219.4
 18 03 2013  04 02  -21.0889 25995.0 -03424.8 -07.5053 26219.6
 18 03 2013  04 03  -21.0889 25995.3 -03424.8 -07.5053 26219.9
 18 03 2013  04 04  -21.0888 25995.5 -03424.8 -07.5053 26220.1
 18 03 2013  04 05  -21.0889 25995.3 -03424.6 -07.5049 26219.9
 18 03 2013  04 06  -21.0889 25995.1 -03424.4 -07.5044 26219.6
 18 03 2013  04 07  -21.0891 25995.2 -03424.3 -07.5042 26219.8
 18 03 2013  04 08  -21.0890 25995.5 -03424.3 -07.5042 26220.0
 18 03 2013  04 09  -21.0889 25995.6 -03424.3 -07.5040 26220.1
 18 03 2013  04 10  -21.0885 25995.7 -03424.2 -07.5039 26220.3
 18 03 2013  04 11  -21.0881 25995.8 -03424.1 -07.5037 26220.4
 18 03 2013  04 12  -21.0874 25995.8 -03424.0 -07.5034 26220.4
 18 03 2013  04 13  -21.0866 25995.9 -03423.9 -07.5033 26220.4
 18 03 2013  04 14  -21.0863 25996.1 -03423.9 -07.5032 26220.6
 18 03 2013  04 15  -21.0862 25996.1 -03423.9 -07.5031 26220.7
 18 03 2013  04 16  -21.0861 25996.3 -03423.9 -07.5031 26220.8
 18 03 2013  04 17  -21.0860 25996.1 -03423.8 -07.5028 26220.6
 18 03 2013  04 18  -21.0861 25995.3 -03423.3 -07.5021 26219.7
 18 03 2013  04 19  -21.0867 25994.5 -03422.8 -07.5013 26218.9
 18 03 2013  04 20  -21.0876 25994.0 -03422.5 -07.5007 26218.3
 18 03 2013  04 21  -21.0878 25994.0 -03422.4 -07.5004 26218.3
 18 03 2013  04 22  -21.0874 25994.5 -03422.5 -07.5006 26218.8
 18 03 2013  04 23  -21.0865 25994.7 -03422.7 -07.5008 26219.1
 18 03 2013  04 24  -21.0857 25995.2 -03422.8 -07.5009 26219.5
 18 03 2013  04 25  -21.0848 25995.7 -03423.0 -07.5012 26220.1
 18 03 2013  04 26  -21.0840 25995.9 -03423.1 -07.5014 26220.3
 18 03 2013  04 27  -21.0833 25995.3 -03422.8 -07.5010 26219.6
 18 03 2013  04 28  -21.0832 25994.7 -03422.5 -07.5004 26219.0
 18 03 2013  04 29  -21.0834 25994.2 -03422.2 -07.5000 26218.5
 18 03 2013  04 30  -21.0837 25993.9 -03422.0 -07.4996 26218.1
 18 03 2013  04 31  -21.0842 25994.1 -03422.1 -07.4998 26218.4
 18 03 2013  04 32  -21.0841 25994.4 -03422.2 -07.5000 26218.7
 18 03 2013  04 33  -21.0837 25994.4 -03422.2 -07.5000 26218.7
 18 03 2013  04 34  -21.0831 25994.6 -03422.2 -07.5000 26218.9
 18 03 2013  04 35  -21.0818 25994.8 -03422.3 -07.5001 26219.1
 18 03 2013  04 36  -21.0804 25995.1 -03422.5 -07.5003 26219.4
 18 03 2013  04 37  -21.0796 25995.2 -03422.6 -07.5005 26219.6
 18 03 2013  04 38  -21.0795 25995.3 -03422.7 -07.5007 26219.6
 18 03 2013  04 39  -21.0800 25994.6 -03422.4 -07.5003 26218.9
 18 03 2013  04 40  -21.0812 25994.0 -03422.1 -07.4998 26218.3
 18 03 2013  04 41  -21.0823 25993.7 -03421.9 -07.4994 26217.9
 18 03 2013  04 42  -21.0827 25993.2 -03421.6 -07.4990 26217.5
 18 03 2013  04 43  -21.0828 25993.0 -03421.5 -07.4987 26217.2
 18 03 2013  04 44  -21.0824 25993.1 -03421.5 -07.4987 26217.3
 18 03 2013  04 45  -21.0814 25993.1 -03421.5 -07.4987 26217.3
 18 03 2013  04 46  -21.0806 25993.0 -03421.5 -07.4987 26217.2
 18 03 2013  04 47  -21.0799 25993.0 -03421.5 -07.4988 26217.2
 18 03 2013  04 48  -21.0793 25993.0 -03421.5 -07.4989 26217.2
 18 03 2013  04 49  -21.0790 25993.5 -03421.8 -07.4994 26217.7
 18 03 2013  04 50  -21.0786 25993.8 -03422.0 -07.4998 26218.1
 18 03 2013  04 51  -21.0783 25993.9 -03422.2 -07.5000 26218.2
 18 03 2013  04 52  -21.0780 25994.0 -03422.2 -07.5001 26218.3
 18 03 2013  04 53  -21.0778 25994.3 -03422.4 -07.5004 26218.6
 18 03 2013  04 54  -21.0777 25994.5 -03422.5 -07.5006 26218.8
 18 03 2013  04 55  -21.0775 25994.7 -03422.7 -07.5008 26219.1
 18 03 2013  04 56  -21.0772 25995.0 -03422.8 -07.5010 26219.3
 18 03 2013  04 57  -21.0770 25995.3 -03422.9 -07.5012 26219.6
 18 03 2013  04 58  -21.0768 25995.4 -03423.0 -07.5014 26219.8
 18 03 2013  04 59  -21.0766 25995.8 -03423.1 -07.5015 26220.2
 18 03 2013  05 00  -21.0763 25996.0 -03423.2 -07.5017 26220.5
 18 03 2013  05 01  -21.0760 25996.2 -03423.3 -07.5019 26220.7
 18 03 2013  05 02  -21.0758 25996.4 -03423.4 -07.5019 26220.8
 18 03 2013  05 03  -21.0756 25996.5 -03423.4 -07.5020 26221.0
 18 03 2013  05 04  -21.0755 25996.8 -03423.5 -07.5021 26221.2
 18 03 2013  05 05  -21.0757 25996.9 -03423.6 -07.5022 26221.4
 18 03 2013  05 06  -21.0759 25996.9 -03423.5 -07.5021 26221.4
 18 03 2013  05 07  -21.0760 25996.8 -03423.4 -07.5019 26221.3
 18 03 2013  05 08  -21.0758 25996.9 -03423.4 -07.5018 26221.3
 18 03 2013  05 09  -21.0754 25996.9 -03423.3 -07.5017 26221.3
 18 03 2013  05 10  -21.0751 25997.2 -03423.4 -07.5017 26221.6
 18 03 2013  05 11  -21.0749 25997.7 -03423.6 -07.5021 26222.1
 18 03 2013  05 12  -21.0746 25998.4 -03423.9 -07.5025 26222.9
 18 03 2013  05 13  -21.0741 25998.8 -03424.2 -07.5029 26223.3
 18 03 2013  05 14  -21.0742 25997.9 -03423.8 -07.5024 26222.4
 18 03 2013  05 15  -21.0756 25996.1 -03422.9 -07.5010 26220.4
 18 03 2013  05 16  -21.0774 25994.4 -03422.0 -07.4994 26218.7
 18 03 2013  05 17  -21.0786 25993.5 -03421.4 -07.4984 26217.7
 18 03 2013  05 18  -21.0792 25993.5 -03421.3 -07.4982 26217.6
 18 03 2013  05 19  -21.0795 25993.8 -03421.5 -07.4985 26218.0
 18 03 2013  05 20  -21.0795 25994.2 -03421.7 -07.4989 26218.5
 18 03 2013  05 21  -21.0793 25994.6 -03421.9 -07.4992 26218.8
 18 03 2013  05 22  -21.0793 25994.9 -03422.1 -07.4996 26219.2
 18 03 2013  05 23  -21.0791 25995.0 -03422.2 -07.4998 26219.3
 18 03 2013  05 24  -21.0785 25995.1 -03422.2 -07.4997 26219.4
 18 03 2013  05 25  -21.0782 25995.1 -03422.2 -07.4996 26219.4
 18 03 2013  05 26  -21.0779 25994.9 -03422.1 -07.4996 26219.2
 18 03 2013  05 27  -21.0776 25994.8 -03422.0 -07.4994 26219.1
 18 03 2013  05 28  -21.0774 25994.8 -03422.0 -07.4993 26219.1
 18 03 2013  05 29  -21.0774 25995.0 -03422.1 -07.4995 26219.2
 18 03 2013  05 30  -21.0773 25994.9 -03422.1 -07.4995 26219.1
 18 03 2013  05 31  -21.0774 25994.8 -03422.0 -07.4993 26219.0
 18 03 2013  05 32  -21.0775 25994.8 -03422.0 -07.4993 26219.0
 18 03 2013  05 33  -21.0774 25994.7 -03422.0 -07.4993 26219.0
 18 03 2013  05 34  -21.0772 25994.7 -03421.9 -07.4993 26219.0
 18 03 2013  05 35  -21.0771 25994.7 -03421.9 -07.4992 26218.9
 18 03 2013  05 36  -21.0768 25994.6 -03421.9 -07.4992 26218.9
 18 03 2013  05 37  -21.0766 25994.5 -03421.8 -07.4990 26218.7
 18 03 2013  05 38  -21.0763 25994.5 -03421.8 -07.4991 26218.7
 18 03 2013  05 39  -21.0761 25994.3 -03421.7 -07.4990 26218.6
 18 03 2013  05 40  -21.0760 25994.4 -03421.8 -07.4990 26218.7
 18 03 2013  05 41  -21.0760 25994.3 -03421.8 -07.4991 26218.6
 18 03 2013  05 42  -21.0758 25994.2 -03421.7 -07.4990 26218.5
 18 03 2013  05 43  -21.0759 25994.3 -03421.8 -07.4991 26218.6
 18 03 2013  05 44  -21.0759 25994.5 -03421.9 -07.4993 26218.7
 18 03 2013  05 45  -21.0755 25994.5 -03421.9 -07.4992 26218.7
 18 03 2013  05 46  -21.0751 25994.5 -03421.9 -07.4993 26218.8
 18 03 2013  05 47  -21.0750 25994.6 -03422.0 -07.4994 26218.9
 18 03 2013  05 48  -21.0747 25994.7 -03422.0 -07.4994 26219.0
 18 03 2013  05 49  -21.0744 25994.6 -03422.0 -07.4993 26218.9
 18 03 2013  05 50  -21.0742 25994.6 -03421.9 -07.4993 26218.8
 18 03 2013  05 51  -21.0743 25994.5 -03421.9 -07.4993 26218.8
 18 03 2013  05 52  -21.0741 25994.5 -03422.0 -07.4994 26218.8
 18 03 2013  05 53  -21.0741 25994.7 -03422.1 -07.4995 26219.0
 18 03 2013  05 54  -21.0739 25994.6 -03422.0 -07.4995 26218.8
 18 03 2013  05 55  -21.0737 25994.4 -03421.9 -07.4993 26218.6
 18 03 2013  05 56  -21.0738 25994.6 -03422.0 -07.4994 26218.8
 18 03 2013  05 57  -21.0737 25994.8 -03422.2 -07.4997 26219.0
 18 03 2013  05 58  -21.0736 25994.9 -03422.2 -07.4998 26219.2
 18 03 2013  05 59  -21.0736 25995.0 -03422.2 -07.4998 26219.3
 18 03 2013  06 00  -21.0734 25995.0 -03422.3 -07.4999 26219.3
 18 03 2013  06 01  -21.0732 25995.1 -03422.3 -07.4999 26219.4
 18 03 2013  06 02  -21.0727 25995.2 -03422.3 -07.4999 26219.5
 18 03 2013  06 03  -21.0724 25995.2 -03422.3 -07.5000 26219.5
 18 03 2013  06 04  -21.0721 25995.1 -03422.3 -07.5000 26219.4
 18 03 2013  06 05  -21.0718 25995.0 -03422.3 -07.4999 26219.3
 18 03 2013  06 06  -21.0718 25995.0 -03422.3 -07.5000 26219.3
 18 03 2013  06 07  -21.0718 25994.9 -03422.2 -07.4999 26219.2
 18 03 2013  06 08  -21.0720 25994.7 -03422.2 -07.4998 26219.0
 18 03 2013  06 09  -21.0724 25994.7 -03422.2 -07.4998 26219.0
 18 03 2013  06 10  -21.0726 25994.5 -03422.1 -07.4997 26218.8
 18 03 2013  06 11  -21.0729 25994.4 -03422.1 -07.4996 26218.7
 18 03 2013  06 12  -21.0729 25996.2 -03422.8 -07.5008 26220.5
 18 03 2013  06 13  -21.0711 25997.1 -03423.3 -07.5016 26221.5
 18 03 2013  06 14  -21.0688 25997.3 -03423.3 -07.5014 26221.7
 18 03 2013  06 15  -21.0673 25998.2 -03423.7 -07.5021 26222.7
 18 03 2013  06 16  -21.0660 25999.3 -03424.3 -07.5030 26223.9
 18 03 2013  06 17  -21.0654 26000.3 -03424.9 -07.5040 26224.9
 18 03 2013  06 18  -21.0653 26000.9 -03425.2 -07.5045 26225.5
 18 03 2013  06 19  -21.0652 26001.5 -03425.5 -07.5050 26226.2
 18 03 2013  06 20  -21.0653 26002.0 -03425.7 -07.5052 26226.7
 18 03 2013  06 21  -21.0653 26002.4 -03425.7 -07.5053 26227.1
 18 03 2013  06 22  -21.0652 26002.6 -03425.8 -07.5053 26227.3
 18 03 2013  06 23  -21.0656 26002.5 -03425.6 -07.5051 26227.1
 18 03 2013  06 24  -21.0663 26002.2 -03425.4 -07.5046 26226.9
 18 03 2013  06 25  -21.0671 26001.9 -03425.2 -07.5043 26226.6
 18 03 2013  06 26  -21.0678 26001.9 -03425.0 -07.5039 26226.5
 18 03 2013  06 27  -21.0684 26001.6 -03424.9 -07.5036 26226.2
 18 03 2013  06 28  -21.0689 26001.4 -03424.7 -07.5033 26226.0
 18 03 2013  06 29  -21.0691 26001.4 -03424.5 -07.5029 26225.9
 18 03 2013  06 30  -21.0693 26001.1 -03424.3 -07.5025 26225.6
 18 03 2013  06 31  -21.0698 26000.9 -03424.1 -07.5022 26225.4
 18 03 2013  06 32  -21.0701 26001.0 -03424.1 -07.5021 26225.5
 18 03 2013  06 33  -21.0701 26001.1 -03424.0 -07.5020 26225.6
 18 03 2013  06 34  -21.0699 26001.2 -03424.0 -07.5020 26225.6
 18 03 2013  06 35  -21.0698 26001.3 -03424.0 -07.5018 26225.7
 18 03 2013  06 36  -21.0699 26001.3 -03424.0 -07.5019 26225.8
 18 03 2013  06 37  -21.0701 26001.2 -03423.9 -07.5017 26225.6
 18 03 2013  06 38  -21.0705 26001.0 -03423.8 -07.5015 26225.5
 18 03 2013  06 39  -21.0709 26000.8 -03423.7 -07.5013 26225.2
 18 03 2013  06 40  -21.0712 26000.6 -03423.5 -07.5010 26225.0
 18 03 2013  06 41  -21.0713 26000.4 -03423.4 -07.5008 26224.8
 18 03 2013  06 42  -21.0713 26000.3 -03423.2 -07.5005 26224.7
 18 03 2013  06 43  -21.0713 26000.2 -03423.1 -07.5003 26224.6
 18 03 2013  06 44  -21.0712 26000.1 -03423.1 -07.5002 26224.5
 18 03 2013  06 45  -21.0713 26000.1 -03423.1 -07.5002 26224.5
 18 03 2013  06 46  -21.0712 26000.0 -03423.0 -07.5001 26224.4
 18 03 2013  06 47  -21.0712 26000.1 -03423.0 -07.5001 26224.5
 18 03 2013  06 48  -21.0711 26000.3 -03423.1 -07.5002 26224.6
 18 03 2013  06 49  -21.0711 26000.3 -03423.1 -07.5002 26224.7
 18 03 2013  06 50  -21.0710 26000.5 -03423.2 -07.5004 26224.9
 18 03 2013  06 51  -21.0707 26000.7 -03423.3 -07.5005 26225.1
 18 03 2013  06 52  -21.0705 26000.8 -03423.3 -07.5005 26225.2
 18 03 2013  06 53  -21.0701 26000.9 -03423.3 -07.5005 26225.3
 18 03 2013  06 54  -21.0696 26000.9 -03423.3 -07.5005 26225.3
 18 03 2013  06 55  -21.0694 26000.9 -03423.3 -07.5005 26225.2
 18 03 2013  06 56  -21.0692 26001.0 -03423.4 -07.5006 26225.4
 18 03 2013  06 57  -21.0689 26001.2 -03423.5 -07.5007 26225.6
 18 03 2013  06 58  -21.0689 26001.3 -03423.5 -07.5007 26225.7
 18 03 2013  06 59  -21.0687 26001.4 -03423.5 -07.5007 26225.8
 18 03 2013  07 00  -21.0685 26001.5 -03423.5 -07.5008 26225.9
 18 03 2013  07 01  -21.0684 26001.6 -03423.6 -07.5009 26226.0
 18 03 2013  07 02  -21.0684 26001.8 -03423.7 -07.5010 26226.2
 18 03 2013  07 03  -21.0682 26001.9 -03423.7 -07.5010 26226.3
 18 03 2013  07 04  -21.0681 26001.9 -03423.7 -07.5010 26226.3
 18 03 2013  07 05  -21.0680 26002.0 -03423.6 -07.5009 26226.4
 18 03 2013  07 06  -21.0680 26002.1 -03423.7 -07.5010 26226.5
 18 03 2013  07 07  -21.0681 26002.2 -03423.8 -07.5011 26226.6
 18 03 2013  07 08  -21.0683 26002.4 -03423.8 -07.5012 26226.8
 18 03 2013  07 09  -21.0684 26002.6 -03423.9 -07.5013 26227.1
 18 03 2013  07 10  -21.0684 26002.9 -03424.0 -07.5014 26227.4
 18 03 2013  07 11  -21.0684 26003.0 -03424.0 -07.5014 26227.4
 18 03 2013  07 12  -21.0684 26002.9 -03424.0 -07.5013 26227.4
 18 03 2013  07 13  -21.0685 26002.7 -03423.8 -07.5011 26227.2
 18 03 2013  07 14  -21.0686 26002.6 -03423.7 -07.5008 26227.0
 18 03 2013  07 15  -21.0683 26002.6 -03423.6 -07.5005 26227.0
 18 03 2013  07 16  -21.0680 26002.5 -03423.5 -07.5004 26226.9
 18 03 2013  07 17  -21.0678 26002.7 -03423.5 -07.5004 26227.1
 18 03 2013  07 18  -21.0676 26002.8 -03423.6 -07.5005 26227.2
 18 03 2013  07 19  -21.0672 26003.1 -03423.7 -07.5006 26227.5
 18 03 2013  07 20  -21.0668 26003.4 -03423.8 -07.5008 26227.9
 18 03 2013  07 21  -21.0666 26003.7 -03423.9 -07.5009 26228.1
 18 03 2013  07 22  -21.0664 26003.7 -03423.9 -07.5009 26228.1
 18 03 2013  07 23  -21.0664 26003.6 -03423.8 -07.5008 26228.1
 18 03 2013  07 24  -21.0663 26003.7 -03423.8 -07.5008 26228.1
 18 03 2013  07 25  -21.0662 26003.6 -03423.7 -07.5006 26228.0
 18 03 2013  07 26  -21.0661 26003.5 -03423.6 -07.5004 26227.9
 18 03 2013  07 27  -21.0662 26003.4 -03423.5 -07.5002 26227.8
 18 03 2013  07 28  -21.0663 26003.4 -03423.5 -07.5002 26227.8
 18 03 2013  07 29  -21.0663 26003.4 -03423.5 -07.5001 26227.8
 18 03 2013  07 30  -21.0665 26003.4 -03423.4 -07.5001 26227.8
 18 03 2013  07 31  -21.0665 26003.4 -03423.5 -07.5001 26227.8
 18 03 2013  07 32  -21.0665 26003.5 -03423.5 -07.5001 26227.9
 18 03 2013  07 33  -21.0665 26003.5 -03423.4 -07.5000 26227.9
 18 03 2013  07 34  -21.0666 26003.6 -03423.5 -07.5000 26228.0
 18 03 2013  07 35  -21.0666 26003.7 -03423.5 -07.5001 26228.1
 18 03 2013  07 36  -21.0664 26003.8 -03423.5 -07.5000 26228.2
 18 03 2013  07 37  -21.0662 26003.9 -03423.5 -07.5001 26228.3
 18 03 2013  07 38  -21.0660 26003.9 -03423.5 -07.5000 26228.3
 18 03 2013  07 39  -21.0659 26003.9 -03423.5 -07.5000 26228.3
 18 03 2013  07 40  -21.0658 26003.8 -03423.4 -07.4998 26228.1
 18 03 2013  07 41  -21.0658 26003.7 -03423.2 -07.4995 26228.0
 18 03 2013  07 42  -21.0658 26003.8 -03423.3 -07.4996 26228.1
 18 03 2013  07 43  -21.0657 26003.8 -03423.3 -07.4996 26228.2
 18 03 2013  07 44  -21.0656 26003.7 -03423.3 -07.4996 26228.1
 18 03 2013  07 45  -21.0658 26003.8 -03423.3 -07.4996 26228.1
 18 03 2013  07 46  -21.0658 26003.8 -03423.2 -07.4995 26228.1
 18 03 2013  07 47  -21.0657 26003.9 -03423.3 -07.4995 26228.3
 18 03 2013  07 48  -21.0653 26004.0 -03423.3 -07.4995 26228.3
 18 03 2013  07 49  -21.0650 26003.8 -03423.2 -07.4993 26228.1
 18 03 2013  07 50  -21.0649 26003.8 -03423.1 -07.4993 26228.1
 18 03 2013  07 51  -21.0647 26003.9 -03423.2 -07.4993 26228.2
 18 03 2013  07 52  -21.0644 26003.8 -03423.2 -07.4993 26228.2
 18 03 2013  07 53  -21.0642 26003.8 -03423.2 -07.4993 26228.2
 18 03 2013  07 54  -21.0643 26003.8 -03423.1 -07.4992 26228.2
 18 03 2013  07 55  -21.0643 26004.0 -03423.2 -07.4994 26228.3
 18 03 2013  07 56  -21.0641 26004.2 -03423.3 -07.4995 26228.6
 18 03 2013  07 57  -21.0640 26004.6 -03423.5 -07.4998 26229.0
 18 03 2013  07 58  -21.0639 26004.9 -03423.7 -07.5001 26229.3
 18 03 2013  07 59  -21.0638 26005.1 -03423.7 -07.5002 26229.5
 18 03 2013  08 00  -21.0636 26005.3 -03423.8 -07.5003 26229.8
 18 03 2013  08 01  -21.0630 26005.4 -03423.8 -07.5002 26229.8
 18 03 2013  08 02  -21.0625 26005.3 -03423.6 -07.4999 26229.7
 18 03 2013  08 03  -21.0625 26005.0 -03423.5 -07.4997 26229.4
 18 03 2013  08 04  -21.0633 26004.9 -03423.5 -07.4997 26229.3
 18 03 2013  08 05  -21.0636 26004.9 -03423.5 -07.4998 26229.3
 18 03 2013  08 06  -21.0637 26004.7 -03423.4 -07.4995 26229.1
 18 03 2013  08 07  -21.0638 26004.8 -03423.3 -07.4994 26229.1
 18 03 2013  08 08  -21.0639 26004.7 -03423.2 -07.4992 26229.0
 18 03 2013  08 09  -21.0637 26004.4 -03423.1 -07.4989 26228.7
 18 03 2013  08 10  -21.0633 26003.8 -03422.7 -07.4984 26228.1
 18 03 2013  08 11  -21.0627 26003.6 -03422.4 -07.4978 26227.8
 18 03 2013  08 12  -21.0623 26003.5 -03422.4 -07.4979 26227.7
 18 03 2013  08 13  -21.0619 26003.3 -03422.4 -07.4977 26227.6
 18 03 2013  08 14  -21.0615 26003.2 -03422.4 -07.4978 26227.4
 18 03 2013  08 15  -21.0612 26002.9 -03422.3 -07.4977 26227.2
 18 03 2013  08 16  -21.0612 26002.7 -03422.2 -07.4976 26226.9
 18 03 2013  08 17  -21.0612 26002.5 -03422.2 -07.4976 26226.7
 18 03 2013  08 18  -21.0610 26002.3 -03422.2 -07.4976 26226.5
 18 03 2013  08 19  -21.0608 26002.1 -03422.1 -07.4976 26226.3
 18 03 2013  08 20  -21.0605 26001.9 -03422.1 -07.4975 26226.1
 18 03 2013  08 21  -21.0605 26001.7 -03422.1 -07.4976 26225.9
 18 03 2013  08 22  -21.0605 26001.6 -03422.1 -07.4977 26225.9
 18 03 2013  08 23  -21.0604 26001.5 -03422.2 -07.4978 26225.7
 18 03 2013  08 24  -21.0599 26001.4 -03422.1 -07.4978 26225.6
 18 03 2013  08 25  -21.0593 26001.2 -03422.1 -07.4978 26225.4
 18 03 2013  08 26  -21.0591 26001.1 -03422.1 -07.4979 26225.3
 18 03 2013  08 27  -21.0590 26001.2 -03422.3 -07.4981 26225.4
 18 03 2013  08 28  -21.0588 26001.2 -03422.4 -07.4984 26225.5
 18 03 2013  08 29  -21.0584 26001.2 -03422.5 -07.4986 26225.5
 18 03 2013  08 30  -21.0579 26001.0 -03422.5 -07.4987 26225.3
 18 03 2013  08 31  -21.0574 26000.9 -03422.5 -07.4987 26225.2
 18 03 2013  08 32  -21.0570 26000.8 -03422.5 -07.4987 26225.1
 18 03 2013  08 33  -21.0570 26000.8 -03422.5 -07.4988 26225.1
 18 03 2013  08 34  -21.0571 26000.9 -03422.6 -07.4990 26225.2
 18 03 2013  08 35  -21.0568 26001.1 -03422.8 -07.4993 26225.4
 18 03 2013  08 36  -21.0563 26001.2 -03422.9 -07.4994 26225.5
 18 03 2013  08 37  -21.0560 26001.3 -03422.9 -07.4994 26225.6
 18 03 2013  08 38  -21.0557 26001.1 -03422.9 -07.4994 26225.5
 18 03 2013  08 39  -21.0556 26000.8 -03422.8 -07.4994 26225.1
 18 03 2013  08 40  -21.0558 26000.4 -03422.6 -07.4991 26224.7
 18 03 2013  08 41  -21.0558 26000.7 -03422.7 -07.4993 26225.0
 18 03 2013  08 42  -21.0560 26000.9 -03422.9 -07.4996 26225.3
 18 03 2013  08 43  -21.0563 26001.0 -03423.0 -07.4998 26225.4
 18 03 2013  08 44  -21.0563 26001.3 -03423.2 -07.5002 26225.7
 18 03 2013  08 45  -21.0561 26001.5 -03423.3 -07.5004 26225.9
 18 03 2013  08 46  -21.0560 26002.2 -03423.6 -07.5008 26226.6
 18 03 2013  08 47  -21.0558 26002.8 -03423.9 -07.5012 26227.3
 18 03 2013  08 48  -21.0558 26003.2 -03424.0 -07.5014 26227.7
 18 03 2013  08 49  -21.0558 26003.3 -03424.1 -07.5014 26227.8
 18 03 2013  08 50  -21.0557 26003.5 -03424.0 -07.5013 26227.9
 18 03 2013  08 51  -21.0556 26003.3 -03423.9 -07.5011 26227.7
 18 03 2013  08 52  -21.0560 26002.9 -03423.8 -07.5009 26227.3
 18 03 2013  08 53  -21.0560 26002.4 -03423.6 -07.5006 26226.8
 18 03 2013  08 54  -21.0556 26002.2 -03423.4 -07.5004 26226.6
 18 03 2013  08 55  -21.0554 26002.6 -03423.8 -07.5009 26227.0
 18 03 2013  08 56  -21.0555 26002.9 -03424.0 -07.5014 26227.3
 18 03 2013  08 57  -21.0558 26003.2 -03424.2 -07.5018 26227.7
 18 03 2013  08 58  -21.0560 26003.4 -03424.3 -07.5020 26227.9
 18 03 2013  08 59  -21.0556 26004.1 -03424.6 -07.5024 26228.6
 18 03 2013  09 00  -21.0555 26004.8 -03424.9 -07.5028 26229.4
 18 03 2013  09 01  -21.0559 26005.4 -03425.1 -07.5031 26230.0
 18 03 2013  09 02  -21.0558 26005.5 -03425.2 -07.5032 26230.1
 18 03 2013  09 03  -21.0554 26005.5 -03425.1 -07.5030 26230.1
 18 03 2013  09 04  -21.0550 26005.4 -03424.9 -07.5027 26230.0
 18 03 2013  09 05  -21.0547 26005.1 -03424.7 -07.5024 26229.6
 18 03 2013  09 06  -21.0545 26004.9 -03424.6 -07.5021 26229.4
 18 03 2013  09 07  -21.0543 26004.8 -03424.5 -07.5019 26229.3
 18 03 2013  09 08  -21.0541 26005.0 -03424.6 -07.5020 26229.6
 18 03 2013  09 09  -21.0541 26005.3 -03424.7 -07.5023 26229.8
 18 03 2013  09 10  -21.0538 26005.5 -03424.9 -07.5026 26230.0
 18 03 2013  09 11  -21.0532 26005.6 -03425.0 -07.5028 26230.1
 18 03 2013  09 12  -21.0526 26005.7 -03425.2 -07.5031 26230.3
 18 03 2013  09 13  -21.0524 26005.8 -03425.2 -07.5032 26230.3
 18 03 2013  09 14  -21.0522 26005.7 -03425.2 -07.5033 26230.3
 18 03 2013  09 15  -21.0522 26005.7 -03425.3 -07.5033 26230.3
 18 03 2013  09 16  -21.0517 26005.8 -03425.3 -07.5034 26230.4
 18 03 2013  09 17  -21.0515 26005.7 -03425.3 -07.5034 26230.3
 18 03 2013  09 18  -21.0518 26005.8 -03425.4 -07.5036 26230.4
 18 03 2013  09 19  -21.0525 26006.1 -03425.5 -07.5037 26230.7
 18 03 2013  09 20  -21.0528 26006.2 -03425.6 -07.5039 26230.8
 18 03 2013  09 21  -21.0524 26005.7 -03425.5 -07.5039 26230.3
 18 03 2013  09 22  -21.0519 26005.8 -03425.6 -07.5041 26230.4
 18 03 2013  09 23  -21.0517 26005.8 -03425.7 -07.5043 26230.5
 18 03 2013  09 24  -21.0517 26005.9 -03425.8 -07.5044 26230.5
 18 03 2013  09 25  -21.0522 26005.4 -03425.7 -07.5044 26230.1
 18 03 2013  09 26  -21.0524 26004.8 -03425.6 -07.5042 26229.4
 18 03 2013  09 27  -21.0524 26004.8 -03425.7 -07.5045 26229.4
 18 03 2013  09 28  -21.0522 26005.0 -03426.0 -07.5051 26229.7
 18 03 2013  09 29  -21.0522 26005.1 -03426.2 -07.5055 26229.8
 18 03 2013  09 30  -21.0522 26005.2 -03426.3 -07.5056 26229.9
 18 03 2013  09 31  -21.0524 26005.2 -03426.3 -07.5057 26229.9
 18 03 2013  09 32  -21.0527 26005.1 -03426.3 -07.5058 26229.9
 18 03 2013  09 33  -21.0527 26005.2 -03426.4 -07.5061 26230.0
 18 03 2013  09 34  -21.0528 26005.2 -03426.6 -07.5063 26230.0
 18 03 2013  09 35  -21.0526 26005.1 -03426.6 -07.5064 26229.9
 18 03 2013  09 36  -21.0525 26005.1 -03426.7 -07.5066 26229.9
 18 03 2013  09 37  -21.0523 26005.0 -03426.8 -07.5069 26229.8
 18 03 2013  09 38  -21.0523 26005.1 -03426.9 -07.5071 26229.9
 18 03 2013  09 39  -21.0529 26005.5 -03427.2 -07.5076 26230.3
 18 03 2013  09 40  -21.0529 26005.2 -03427.2 -07.5078 26230.1
 18 03 2013  09 41  -21.0526 26005.1 -03427.3 -07.5078 26230.0
 18 03 2013  09 42  -21.0530 26005.3 -03427.4 -07.5081 26230.2
 18 03 2013  09 43  -21.0532 26005.4 -03427.5 -07.5083 26230.3
 18 03 2013  09 44  -21.0534 26005.4 -03427.6 -07.5085 26230.3
 18 03 2013  09 45  -21.0537 26005.6 -03427.7 -07.5087 26230.5
 18 03 2013  09 46  -21.0534 26005.7 -03427.9 -07.5090 26230.6
 18 03 2013  09 47  -21.0532 26005.9 -03428.0 -07.5092 26230.9
 18 03 2013  09 48  -21.0529 26006.1 -03428.1 -07.5094 26231.1
 18 03 2013  09 49  -21.0529 26006.2 -03428.2 -07.5096 26231.2
 18 03 2013  09 50  -21.0529 26006.2 -03428.3 -07.5098 26231.2
 18 03 2013  09 51  -21.0528 26006.6 -03428.6 -07.5102 26231.6
 18 03 2013  09 52  -21.0532 26007.5 -03429.0 -07.5108 26232.6
 18 03 2013  09 53  -21.0531 26008.0 -03429.3 -07.5113 26233.1
 18 03 2013  09 54  -21.0521 26007.9 -03429.4 -07.5117 26233.0
 18 03 2013  09 55  -21.0509 26007.8 -03429.6 -07.5122 26232.9
 18 03 2013  09 56  -21.0502 26008.1 -03430.0 -07.5129 26233.3
 18 03 2013  09 57  -21.0497 26009.2 -03430.6 -07.5139 26234.5
 18 03 2013  09 58  -21.0492 26009.9 -03430.9 -07.5143 26235.2
 18 03 2013  09 59  -21.0486 26010.7 -03431.1 -07.5145 26236.0
 18 03 2013  10 00  -21.0490 26011.7 -03431.4 -07.5150 26237.0
 18 03 2013  10 01  -21.0494 26011.9 -03431.5 -07.5151 26237.2
 18 03 2013  10 02  -21.0498 26011.3 -03431.2 -07.5145 26236.6
 18 03 2013  10 03  -21.0502 26011.0 -03431.1 -07.5144 26236.3
 18 03 2013  10 04  -21.0503 26010.7 -03431.0 -07.5143 26236.0
 18 03 2013  10 05  -21.0500 26009.1 -03430.2 -07.5130 26234.3
 18 03 2013  10 06  -21.0511 26006.7 -03428.9 -07.5109 26231.8
 18 03 2013  10 07  -21.0552 26006.4 -03428.9 -07.5110 26231.4
 18 03 2013  10 08  -21.0568 26007.4 -03429.8 -07.5126 26232.6
 18 03 2013  10 09  -21.0552 26007.4 -03430.1 -07.5134 26232.6
 18 03 2013  10 10  -21.0526 26005.2 -03429.3 -07.5122 26230.3
 18 03 2013  10 11  -21.0513 26003.0 -03428.6 -07.5114 26228.1
 18 03 2013  10 12  -21.0518 26005.2 -03430.1 -07.5140 26230.4
 18 03 2013  10 13  -21.0498 26010.0 -03432.8 -07.5184 26235.6
 18 03 2013  10 14  -21.0465 26012.0 -03433.3 -07.5190 26237.6
 18 03 2013  10 15  -21.0461 26012.4 -03433.2 -07.5185 26238.0
 18 03 2013  10 16  -21.0462 26012.2 -03432.8 -07.5178 26237.8
 18 03 2013  10 17  -21.0470 26011.7 -03432.5 -07.5173 26237.2
 18 03 2013  10 18  -21.0481 26011.7 -03432.5 -07.5174 26237.2
 18 03 2013  10 19  -21.0485 26011.9 -03432.6 -07.5175 26237.4
 18 03 2013  10 20  -21.0489 26011.5 -03432.4 -07.5171 26237.0
 18 03 2013  10 21  -21.0498 26010.8 -03432.1 -07.5167 26236.2
 18 03 2013  10 22  -21.0507 26010.8 -03432.3 -07.5171 26236.3
 18 03 2013  10 23  -21.0502 26010.7 -03432.5 -07.5175 26236.2
 18 03 2013  10 24  -21.0495 26010.4 -03432.4 -07.5175 26235.9
 18 03 2013  10 25  -21.0491 26010.0 -03432.4 -07.5177 26235.5
 18 03 2013  10 26  -21.0489 26010.1 -03432.6 -07.5180 26235.6
 18 03 2013  10 27  -21.0492 26009.9 -03432.5 -07.5179 26235.4
 18 03 2013  10 28  -21.0493 26009.4 -03432.4 -07.5178 26234.9
 18 03 2013  10 29  -21.0491 26009.2 -03432.4 -07.5179 26234.7
 18 03 2013  10 30  -21.0483 26009.0 -03432.5 -07.5180 26234.5
 18 03 2013  10 31  -21.0479 26009.0 -03432.5 -07.5182 26234.5
 18 03 2013  10 32  -21.0482 26009.6 -03432.9 -07.5188 26235.2
 18 03 2013  10 33  -21.0474 26010.1 -03433.1 -07.5192 26235.7
 18 03 2013  10 34  -21.0474 26010.3 -03433.3 -07.5193 26235.9
 18 03 2013  10 35  -21.0473 26011.3 -03433.9 -07.5204 26237.0
 18 03 2013  10 36  -21.0459 26011.4 -03434.0 -07.5205 26237.1
 18 03 2013  10 37  -21.0455 26011.0 -03433.6 -07.5199 26236.6
 18 03 2013  10 38  -21.0457 26011.1 -03433.6 -07.5198 26236.7
 18 03 2013  10 39  -21.0467 26011.1 -03433.6 -07.5198 26236.7
 18 03 2013  10 40  -21.0481 26010.7 -03433.5 -07.5197 26236.3
 18 03 2013  10 41  -21.0481 26010.7 -03433.7 -07.5202 26236.4
 18 03 2013  10 42  -21.0472 26011.0 -03434.1 -07.5210 26236.7
 18 03 2013  10 43  -21.0456 26012.1 -03434.7 -07.5219 26237.9
 18 03 2013  10 44  -21.0445 26012.2 -03434.8 -07.5221 26238.0
 18 03 2013  10 45  -21.0440 26012.3 -03434.8 -07.5221 26238.1
 18 03 2013  10 46  -21.0437 26012.3 -03434.8 -07.5221 26238.1
 18 03 2013  10 47  -21.0442 26011.8 -03434.6 -07.5217 26237.6
 18 03 2013  10 48  -21.0450 26012.1 -03434.7 -07.5219 26237.8
 18 03 2013  10 49  -21.0454 26011.6 -03434.5 -07.5217 26237.4
 18 03 2013  10 50  -21.0453 26010.7 -03434.2 -07.5212 26236.4
 18 03 2013  10 51  -21.0459 26010.7 -03434.2 -07.5214 26236.4
 18 03 2013  10 52  -21.0447 26011.8 -03434.6 -07.5219 26237.6
 18 03 2013  10 53  -21.0456 26011.9 -03434.4 -07.5213 26237.6
 18 03 2013  10 54  -21.0473 26011.3 -03434.0 -07.5205 26237.0
 18 03 2013  10 55  -21.0484 26010.4 -03433.5 -07.5199 26236.1
 18 03 2013  10 56  -21.0494 26009.8 -03433.4 -07.5199 26235.4
 18 03 2013  10 57  -21.0491 26009.9 -03433.7 -07.5205 26235.5
 18 03 2013  10 58  -21.0478 26010.4 -03434.3 -07.5216 26236.2
 18 03 2013  10 59  -21.0457 26011.3 -03434.9 -07.5227 26237.1
 18 03 2013  11 00  -21.0440 26012.4 -03435.5 -07.5237 26238.3
 18 03 2013  11 01  -21.0437 26013.2 -03435.9 -07.5242 26239.1
 18 03 2013  11 02  -21.0433 26013.2 -03435.7 -07.5237 26239.1
 18 03 2013  11 03  -21.0466 26013.2 -03435.5 -07.5233 26239.1
 18 03 2013  11 04  -21.0471 26013.8 -03435.5 -07.5231 26239.6
 18 03 2013  11 05  -21.0472 26014.4 -03435.5 -07.5231 26240.3
 18 03 2013  11 06  -21.0468 26014.3 -03435.4 -07.5228 26240.2
 18 03 2013  11 07  -21.0467 26014.0 -03435.3 -07.5226 26239.9
 18 03 2013  11 08  -21.0470 26013.8 -03435.2 -07.5226 26239.6
 18 03 2013  11 09  -21.0473 26014.0 -03435.4 -07.5228 26239.9
 18 03 2013  11 10  -21.0472 26014.6 -03435.6 -07.5232 26240.5
 18 03 2013  11 11  -21.0469 26014.8 -03435.7 -07.5232 26240.7
 18 03 2013  11 12  -21.0471 26015.1 -03435.7 -07.5233 26241.0
 18 03 2013  11 13  -21.0467 26015.1 -03435.8 -07.5234 26241.0
 18 03 2013  11 14  -21.0455 26015.6 -03435.9 -07.5235 26241.5
 18 03 2013  11 15  -21.0466 26015.8 -03435.8 -07.5234 26241.7
 18 03 2013  11 16  -21.0470 26015.9 -03435.7 -07.5229 26241.8
 18 03 2013  11 17  -21.0477 26015.7 -03435.3 -07.5223 26241.5
 18 03 2013  11 18  -21.0493 26014.6 -03434.7 -07.5213 26240.4
 18 03 2013  11 19  -21.0510 26013.5 -03434.2 -07.5204 26239.2
 18 03 2013  11 20  -21.0519 26012.5 -03433.9 -07.5201 26238.2
 18 03 2013  11 21  -21.0508 26012.3 -03434.1 -07.5207 26238.1
 18 03 2013  11 22  -21.0491 26012.9 -03434.7 -07.5218 26238.6
 18 03 2013  11 23  -21.0486 26013.4 -03435.2 -07.5227 26239.3
 18 03 2013  11 24  -21.0475 26014.0 -03435.5 -07.5232 26239.9
 18 03 2013  11 25  -21.0472 26014.8 -03435.8 -07.5235 26240.7
 18 03 2013  11 26  -21.0471 26015.4 -03435.9 -07.5237 26241.4
 18 03 2013  11 27  -21.0472 26016.5 -03436.3 -07.5242 26242.5
 18 03 2013  11 28  -21.0474 26017.5 -03436.5 -07.5244 26243.5
 18 03 2013  11 29  -21.0470 26018.3 -03436.8 -07.5247 26244.3
 18 03 2013  11 30  -21.0451 26019.9 -03437.2 -07.5252 26245.9
 18 03 2013  11 31  -21.0448 26020.2 -03437.0 -07.5247 26246.3
 18 03 2013  11 32  -21.0460 26019.1 -03436.3 -07.5233 26245.0
 18 03 2013  11 33  -21.0466 26018.5 -03435.9 -07.5226 26244.3
 18 03 2013  11 34  -21.0477 26018.2 -03435.7 -07.5224 26244.1
 18 03 2013  11 35  -21.0482 26018.3 -03435.8 -07.5226 26244.2
 18 03 2013  11 36  -21.0482 26019.2 -03436.3 -07.5233 26245.1
 18 03 2013  11 37  -21.0474 26020.7 -03436.8 -07.5241 26246.7
 18 03 2013  11 38  -21.0458 26021.9 -03437.1 -07.5244 26247.9
 18 03 2013  11 39  -21.0455 26021.6 -03436.6 -07.5234 26247.5
 18 03 2013  11 40  -21.0459 26021.5 -03436.4 -07.5229 26247.5
 18 03 2013  11 41  -21.0466 26021.7 -03436.3 -07.5226 26247.6
 18 03 2013  11 42  -21.0473 26021.1 -03435.8 -07.5217 26246.9
 18 03 2013  11 43  -21.0484 26019.8 -03435.1 -07.5207 26245.6
 18 03 2013  11 44  -21.0488 26019.1 -03435.0 -07.5205 26244.9
 18 03 2013  11 45  -21.0488 26019.4 -03435.2 -07.5209 26245.2
 18 03 2013  11 46  -21.0488 26019.8 -03435.4 -07.5214 26245.7
 18 03 2013  11 47  -21.0486 26019.9 -03435.5 -07.5215 26245.8
 18 03 2013  11 48  -21.0483 26021.3 -03436.1 -07.5224 26247.2
 18 03 2013  11 49  -21.0480 26022.0 -03436.2 -07.5223 26247.9
 18 03 2013  11 50  -21.0481 26021.3 -03435.5 -07.5210 26247.1
 18 03 2013  11 51  -21.0487 26019.4 -03434.3 -07.5190 26245.1
 18 03 2013  11 52  -21.0510 26014.8 -03432.3 -07.5159 26240.3
 18 03 2013  11 53  -21.0530 26011.7 -03431.4 -07.5149 26237.0
 18 03 2013  11 54  -21.0543 26010.8 -03431.8 -07.5160 26236.2
 18 03 2013  11 55  -21.0545 26012.2 -03433.1 -07.5184 26237.8
 18 03 2013  11 56  -21.0544 26013.6 -03434.0 -07.5199 26239.3
 18 03 2013  11 57  -21.0542 26014.5 -03434.4 -07.5206 26240.3
 18 03 2013  11 58  -21.0538 26015.6 -03434.6 -07.5208 26241.4
 18 03 2013  11 59  -21.0541 26016.2 -03434.8 -07.5209 26241.9
 18 03 2013  12 00  -21.0549 26015.6 -03434.2 -07.5199 26241.3
 18 03 2013  12 01  -21.0554 26015.2 -03433.8 -07.5192 26240.9
 18 03 2013  12 02  -21.0557 26015.4 -03433.8 -07.5190 26241.0
 18 03 2013  12 03  -21.0558 26015.7 -03433.9 -07.5191 26241.4
 18 03 2013  12 04  -21.0561 26016.4 -03434.0 -07.5192 26242.1
 18 03 2013  12 05  -21.0565 26017.1 -03434.1 -07.5192 26242.8
 18 03 2013  12 06  -21.0568 26017.2 -03434.0 -07.5190 26242.8
 18 03 2013  12 07  -21.0569 26017.4 -03434.0 -07.5190 26243.0
 18 03 2013  12 08  -21.0567 26017.7 -03434.1 -07.5190 26243.4
 18 03 2013  12 09  -21.0567 26018.1 -03434.2 -07.5191 26243.8
 18 03 2013  12 10  -21.0569 26018.7 -03434.4 -07.5193 26244.4
 18 03 2013  12 11  -21.0573 26019.5 -03434.6 -07.5196 26245.2
 18 03 2013  12 12  -21.0575 26020.3 -03434.7 -07.5197 26246.1
 18 03 2013  12 13  -21.0577 26021.3 -03434.9 -07.5197 26247.0
 18 03 2013  12 14  -21.0580 26022.2 -03434.9 -07.5196 26247.9
 18 03 2013  12 15  -21.0585 26023.1 -03435.1 -07.5196 26248.9
 18 03 2013  12 16  -21.0589 26024.0 -03435.1 -07.5194 26249.7
 18 03 2013  12 17  -21.0589 26024.6 -03435.0 -07.5190 26250.3
 18 03 2013  12 18  -21.0589 26024.9 -03434.8 -07.5186 26250.6
 18 03 2013  12 19  -21.0590 26025.4 -03434.7 -07.5182 26251.1
 18 03 2013  12 20  -21.0594 26026.0 -03434.6 -07.5178 26251.6
 18 03 2013  12 21  -21.0596 26025.6 -03434.2 -07.5169 26251.2
 18 03 2013  12 22  -21.0596 26025.3 -03433.8 -07.5162 26250.9
 18 03 2013  12 23  -21.0595 26025.5 -03433.7 -07.5160 26251.0
 18 03 2013  12 24  -21.0597 26025.2 -03433.5 -07.5156 26250.8
 18 03 2013  12 25  -21.0597 26024.8 -03433.2 -07.5151 26250.2
 18 03 2013  12 26  -21.0600 26024.3 -03433.2 -07.5153 26249.8
 18 03 2013  12 27  -21.0602 26024.1 -03433.4 -07.5158 26249.6
 18 03 2013  12 28  -21.0601 26024.4 -03433.7 -07.5163 26250.0
 18 03 2013  12 29  -21.0603 26025.1 -03434.1 -07.5169 26250.7
 18 03 2013  12 30  -21.0603 26026.1 -03434.4 -07.5173 26251.7
 18 03 2013  12 31  -21.0606 26027.0 -03434.7 -07.5177 26252.7
 18 03 2013  12 32  -21.0612 26028.0 -03434.9 -07.5178 26253.7
 18 03 2013  12 33  -21.0617 26028.6 -03434.8 -07.5175 26254.3
 18 03 2013  12 34  -21.0619 26028.9 -03434.6 -07.5169 26254.5
 18 03 2013  12 35  -21.0622 26028.8 -03434.3 -07.5164 26254.4
 18 03 2013  12 36  -21.0626 26028.5 -03434.1 -07.5159 26254.1
 18 03 2013  12 37  -21.0629 26028.3 -03433.9 -07.5157 26253.8
 18 03 2013  12 38  -21.0632 26028.4 -03433.9 -07.5156 26253.9
 18 03 2013  12 39  -21.0635 26028.9 -03434.1 -07.5159 26254.5
 18 03 2013  12 40  -21.0640 26029.2 -03434.2 -07.5160 26254.8
 18 03 2013  12 41  -21.0643 26029.4 -03434.1 -07.5157 26255.0
 18 03 2013  12 42  -21.0648 26029.4 -03434.0 -07.5155 26255.0
 18 03 2013  12 43  -21.0655 26029.2 -03433.8 -07.5151 26254.7
 18 03 2013  12 44  -21.0662 26029.1 -03433.8 -07.5150 26254.6
 18 03 2013  12 45  -21.0665 26029.3 -03433.8 -07.5152 26254.8
 18 03 2013  12 46  -21.0671 26029.3 -03433.8 -07.5150 26254.8
 18 03 2013  12 47  -21.0675 26029.5 -03433.7 -07.5149 26255.0
 18 03 2013  12 48  -21.0677 26029.6 -03433.7 -07.5149 26255.1
 18 03 2013  12 49  -21.0682 26030.0 -03433.9 -07.5152 26255.5
 18 03 2013  12 50  -21.0682 26030.5 -03434.0 -07.5152 26256.0
 18 03 2013  12 51  -21.0678 26031.2 -03434.2 -07.5154 26256.7
 18 03 2013  12 52  -21.0677 26031.9 -03434.2 -07.5153 26257.5
 18 03 2013  12 53  -21.0679 26032.6 -03434.3 -07.5152 26258.1
 18 03 2013  12 54  -21.0681 26033.0 -03434.3 -07.5151 26258.6
 18 03 2013  12 55  -21.0685 26033.3 -03434.3 -07.5149 26258.9
 18 03 2013  12 56  -21.0689 26033.7 -03434.3 -07.5148 26259.3
 18 03 2013  12 57  -21.0692 26034.2 -03434.3 -07.5148 26259.7
 18 03 2013  12 58  -21.0695 26034.3 -03434.1 -07.5144 26259.8
 18 03 2013  12 59  -21.0698 26034.6 -03434.1 -07.5142 26260.1
 18 03 2013  13 00  -21.0703 26034.8 -03434.0 -07.5139 26260.3
 18 03 2013  13 01  -21.0704 26034.5 -03433.6 -07.5132 26259.9
 18 03 2013  13 02  -21.0708 26034.1 -03433.3 -07.5126 26259.5
 18 03 2013  13 03  -21.0714 26034.0 -03433.2 -07.5124 26259.4
 18 03 2013  13 04  -21.0717 26033.8 -03433.1 -07.5122 26259.2
 18 03 2013  13 05  -21.0720 26033.9 -03433.1 -07.5123 26259.3
 18 03 2013  13 06  -21.0725 26034.1 -03433.2 -07.5125 26259.5
 18 03 2013  13 07  -21.0727 26034.4 -03433.3 -07.5125 26259.8
 18 03 2013  13 08  -21.0731 26035.2 -03433.6 -07.5129 26260.7
 18 03 2013  13 09  -21.0732 26036.1 -03433.8 -07.5131 26261.6
 18 03 2013  13 10  -21.0732 26036.6 -03433.9 -07.5131 26262.1
 18 03 2013  13 11  -21.0736 26037.3 -03434.0 -07.5132 26262.7
 18 03 2013  13 12  -21.0738 26037.7 -03434.0 -07.5131 26263.1
 18 03 2013  13 13  -21.0740 26038.2 -03434.0 -07.5130 26263.6
 18 03 2013  13 14  -21.0741 26039.0 -03434.1 -07.5129 26264.4
 18 03 2013  13 15  -21.0743 26039.6 -03434.1 -07.5127 26265.1
 18 03 2013  13 16  -21.0746 26039.7 -03433.8 -07.5121 26265.1
 18 03 2013  13 17  -21.0748 26039.6 -03433.5 -07.5116 26265.0
 18 03 2013  13 18  -21.0752 26039.5 -03433.4 -07.5113 26264.9
 18 03 2013  13 19  -21.0755 26039.6 -03433.4 -07.5112 26264.9
 18 03 2013  13 20  -21.0759 26040.0 -03433.5 -07.5115 26265.3
 18 03 2013  13 21  -21.0763 26040.3 -03433.6 -07.5115 26265.7
 18 03 2013  13 22  -21.0766 26040.5 -03433.6 -07.5114 26265.9
 18 03 2013  13 23  -21.0767 26040.7 -03433.5 -07.5112 26266.1
 18 03 2013  13 24  -21.0772 26040.7 -03433.4 -07.5109 26266.0
 18 03 2013  13 25  -21.0773 26040.7 -03433.2 -07.5106 26266.0
 18 03 2013  13 26  -21.0777 26040.9 -03433.3 -07.5106 26266.2
 18 03 2013  13 27  -21.0777 26040.7 -03433.2 -07.5105 26266.1
 18 03 2013  13 28  -21.0780 26040.7 -03433.2 -07.5105 26266.1
 18 03 2013  13 29  -21.0785 26040.8 -03433.2 -07.5105 26266.1
 18 03 2013  13 30  -21.0786 26040.7 -03433.1 -07.5103 26266.0
 18 03 2013  13 31  -21.0788 26040.7 -03433.1 -07.5102 26266.0
 18 03 2013  13 32  -21.0792 26040.7 -03433.0 -07.5100 26266.0
 18 03 2013  13 33  -21.0794 26040.3 -03432.7 -07.5095 26265.6
 18 03 2013  13 34  -21.0794 26039.8 -03432.5 -07.5092 26265.0
 18 03 2013  13 35  -21.0787 26039.6 -03432.4 -07.5091 26264.9
 18 03 2013  13 36  -21.0787 26039.6 -03432.5 -07.5094 26264.8
 18 03 2013  13 37  -21.0788 26039.9 -03432.8 -07.5098 26265.2
 18 03 2013  13 38  -21.0792 26040.2 -03433.0 -07.5102 26265.5
 18 03 2013  13 39  -21.0793 26040.9 -03433.3 -07.5106 26266.2
 18 03 2013  13 40  -21.0793 26041.7 -03433.5 -07.5109 26267.1
 18 03 2013  13 41  -21.0794 26042.4 -03433.7 -07.5112 26267.8
 18 03 2013  13 42  -21.0793 26043.0 -03433.7 -07.5111 26268.3
 18 03 2013  13 43  -21.0793 26043.5 -03433.8 -07.5110 26268.9
 18 03 2013  13 44  -21.0791 26044.0 -03433.7 -07.5107 26269.4
 18 03 2013  13 45  -21.0787 26044.0 -03433.5 -07.5103 26269.4
 18 03 2013  13 46  -21.0787 26044.6 -03433.6 -07.5103 26270.0
 18 03 2013  13 47  -21.0783 26045.1 -03433.6 -07.5101 26270.5
 18 03 2013  13 48  -21.0784 26045.6 -03433.6 -07.5101 26270.9
 18 03 2013  13 49  -21.0782 26045.7 -03433.5 -07.5099 26271.0
 18 03 2013  13 50  -21.0782 26046.2 -03433.6 -07.5098 26271.6
 18 03 2013  13 51  -21.0782 26047.3 -03433.9 -07.5101 26272.7
 18 03 2013  13 52  -21.0786 26048.3 -03434.0 -07.5102 26273.7
 18 03 2013  13 53  -21.0789 26048.9 -03433.9 -07.5096 26274.3
 18 03 2013  13 54  -21.0789 26048.7 -03433.3 -07.5086 26274.0
 18 03 2013  13 55  -21.0792 26048.2 -03432.8 -07.5075 26273.4
 18 03 2013  13 56  -21.0797 26047.5 -03432.3 -07.5066 26272.7
 18 03 2013  13 57  -21.0802 26046.4 -03431.6 -07.5055 26271.5
 18 03 2013  13 58  -21.0808 26045.5 -03431.2 -07.5048 26270.5
 18 03 2013  13 59  -21.0814 26044.8 -03430.9 -07.5044 26269.8
 18 03 2013  14 00  -21.0817 26043.8 -03430.5 -07.5039 26268.7
 18 03 2013  14 01  -21.0818 26042.6 -03430.2 -07.5036 26267.6
 18 03 2013  14 02  -21.0820 26041.7 -03430.1 -07.5036 26266.7
 18 03 2013  14 03  -21.0824 26041.3 -03430.3 -07.5041 26266.3
 18 03 2013  14 04  -21.0828 26041.5 -03430.7 -07.5049 26266.5
 18 03 2013  14 05  -21.0832 26042.1 -03431.1 -07.5056 26267.1
 18 03 2013  14 06  -21.0835 26042.9 -03431.6 -07.5063 26268.0
 18 03 2013  14 07  -21.0843 26043.9 -03431.9 -07.5068 26269.1
 18 03 2013  14 08  -21.0852 26044.6 -03432.1 -07.5069 26269.8
 18 03 2013  14 09  -21.0857 26044.9 -03432.0 -07.5067 26270.0
 18 03 2013  14 10  -21.0859 26044.8 -03431.7 -07.5061 26269.9
 18 03 2013  14 11  -21.0859 26044.8 -03431.5 -07.5057 26269.9
 18 03 2013  14 12  -21.0857 26045.0 -03431.5 -07.5056 26270.1
 18 03 2013  14 13  -21.0856 26045.7 -03431.7 -07.5059 26270.8
 18 03 2013  14 14  -21.0857 26046.6 -03432.0 -07.5062 26271.8
 18 03 2013  14 15  -21.0858 26047.6 -03432.2 -07.5064 26272.7
 18 03 2013  14 16  -21.0859 26048.5 -03432.3 -07.5063 26273.6
 18 03 2013  14 17  -21.0860 26049.4 -03432.3 -07.5061 26274.5
 18 03 2013  14 18  -21.0860 26050.2 -03432.3 -07.5058 26275.3
 18 03 2013  14 19  -21.0862 26050.6 -03432.1 -07.5053 26275.8
 18 03 2013  14 20  -21.0862 26051.2 -03431.9 -07.5047 26276.3
 18 03 2013  14 21  -21.0864 26051.6 -03431.6 -07.5041 26276.6
 18 03 2013  14 22  -21.0866 26051.6 -03431.3 -07.5033 26276.6
 18 03 2013  14 23  -21.0869 26051.6 -03431.1 -07.5028 26276.6
 18 03 2013  14 24  -21.0873 26051.2 -03430.6 -07.5018 26276.1
 18 03 2013  14 25  -21.0874 26050.7 -03430.1 -07.5010 26275.5
 18 03 2013  14 26  -21.0876 26050.3 -03429.8 -07.5004 26275.1
 18 03 2013  14 27  -21.0877 26049.8 -03429.5 -07.5000 26274.6
 18 03 2013  14 28  -21.0878 26049.3 -03429.3 -07.4996 26274.1
 18 03 2013  14 29  -21.0881 26049.1 -03429.2 -07.4995 26273.9
 18 03 2013  14 30  -21.0885 26049.2 -03429.3 -07.4997 26273.9
 18 03 2013  14 31  -21.0887 26049.9 -03429.6 -07.5000 26274.6
 18 03 2013  14 32  -21.0889 26050.7 -03429.8 -07.5004 26275.5
 18 03 2013  14 33  -21.0888 26051.3 -03429.9 -07.5005 26276.1
 18 03 2013  14 34  -21.0889 26052.2 -03430.2 -07.5008 26277.1
 18 03 2013  14 35  -21.0892 26053.3 -03430.4 -07.5010 26278.1
 18 03 2013  14 36  -21.0895 26054.1 -03430.5 -07.5008 26278.9
 18 03 2013  14 37  -21.0899 26054.8 -03430.4 -07.5004 26279.6
 18 03 2013  14 38  -21.0901 26055.2 -03430.1 -07.4998 26280.0
 18 03 2013  14 39  -21.0897 26055.5 -03429.9 -07.4992 26280.3
 18 03 2013  14 40  -21.0893 26055.6 -03429.7 -07.4988 26280.4
 18 03 2013  14 41  -21.0888 26056.2 -03429.8 -07.4988 26280.9
 18 03 2013  14 42  -21.0893 26056.8 -03429.9 -07.4988 26281.6
 18 03 2013  14 43  -21.0900 26057.5 -03429.9 -07.4985 26282.2
 18 03 2013  14 44  -21.0909 26057.7 -03429.5 -07.4978 26282.4
 18 03 2013  14 45  -21.0910 26057.3 -03428.9 -07.4965 26282.0
 18 03 2013  14 46  -21.0910 26056.1 -03428.1 -07.4952 26280.7
 18 03 2013  14 47  -21.0906 26054.5 -03427.4 -07.4940 26279.0
 18 03 2013  14 48  -21.0901 26053.4 -03427.1 -07.4936 26277.8
 18 03 2013  14 49  -21.0894 26053.5 -03427.4 -07.4943 26278.0
 18 03 2013  14 50  -21.0897 26054.7 -03428.2 -07.4957 26279.2
 18 03 2013  14 51  -21.0902 26055.9 -03428.8 -07.4966 26280.6
 18 03 2013  14 52  -21.0904 26057.1 -03429.1 -07.4969 26281.7
 18 03 2013  14 53  -21.0909 26057.9 -03429.1 -07.4968 26282.6
 18 03 2013  14 54  -21.0911 26058.0 -03428.9 -07.4963 26282.6
 18 03 2013  14 55  -21.0911 26058.2 -03428.7 -07.4958 26282.8
 18 03 2013  14 56  -21.0912 26058.4 -03428.6 -07.4956 26283.0
 18 03 2013  14 57  -21.0912 26058.3 -03428.4 -07.4951 26282.8
 18 03 2013  14 58  -21.0910 26058.0 -03428.2 -07.4947 26282.6
 18 03 2013  14 59  -21.0911 26057.9 -03428.0 -07.4945 26282.4
 18 03 2013  15 00  -21.0915 26057.7 -03427.9 -07.4942 26282.2
 18 03 2013  15 01  -21.0918 26057.5 -03427.7 -07.4938 26282.0
 18 03 2013  15 02  -21.0921 26057.1 -03427.5 -07.4935 26281.5
 18 03 2013  15 03  -21.0925 26056.8 -03427.4 -07.4933 26281.2
 18 03 2013  15 04  -21.0927 26056.7 -03427.3 -07.4933 26281.1
 18 03 2013  15 05  -21.0931 26056.6 -03427.4 -07.4934 26281.0
 18 03 2013  15 06  -21.0934 26056.6 -03427.5 -07.4936 26281.1
 18 03 2013  15 07  -21.0936 26057.0 -03427.7 -07.4940 26281.5
 18 03 2013  15 08  -21.0941 26057.7 -03428.1 -07.4946 26282.3
 18 03 2013  15 09  -21.0946 26058.5 -03428.3 -07.4949 26283.1
 18 03 2013  15 10  -21.0954 26059.1 -03428.4 -07.4949 26283.6
 18 03 2013  15 11  -21.0961 26059.4 -03428.4 -07.4948 26283.9
 18 03 2013  15 12  -21.0966 26059.3 -03428.2 -07.4944 26283.9
 18 03 2013  15 13  -21.0973 26059.1 -03428.0 -07.4940 26283.6
 18 03 2013  15 14  -21.0979 26058.6 -03427.7 -07.4934 26283.1
 18 03 2013  15 15  -21.0982 26058.1 -03427.4 -07.4929 26282.5
 18 03 2013  15 16  -21.0986 26057.7 -03427.2 -07.4926 26282.1
 18 03 2013  15 17  -21.0990 26057.6 -03427.2 -07.4927 26282.0
 18 03 2013  15 18  -21.0989 26057.5 -03427.2 -07.4928 26281.9
 18 03 2013  15 19  -21.0988 26057.7 -03427.5 -07.4933 26282.2
 18 03 2013  15 20  -21.0989 26058.1 -03427.8 -07.4938 26282.6
 18 03 2013  15 21  -21.0988 26058.7 -03428.1 -07.4943 26283.2
 18 03 2013  15 22  -21.0993 26059.7 -03428.4 -07.4949 26284.2
 18 03 2013  15 23  -21.1002 26060.5 -03428.7 -07.4952 26285.1
 18 03 2013  15 24  -21.1011 26060.8 -03428.7 -07.4950 26285.4
 18 03 2013  15 25  -21.1019 26060.7 -03428.4 -07.4946 26285.3
 18 03 2013  15 26  -21.1027 26060.3 -03428.2 -07.4941 26284.8
 18 03 2013  15 27  -21.1030 26059.5 -03427.8 -07.4935 26284.0
 18 03 2013  15 28  -21.1035 26058.8 -03427.6 -07.4932 26283.2
 18 03 2013  15 29  -21.1039 26058.5 -03427.6 -07.4934 26283.0
 18 03 2013  15 30  -21.1045 26058.6 -03427.9 -07.4940 26283.1
 18 03 2013  15 31  -21.1051 26058.9 -03428.0 -07.4942 26283.4
 18 03 2013  15 32  -21.1057 26059.0 -03428.3 -07.4947 26283.5
 18 03 2013  15 33  -21.1063 26059.3 -03428.4 -07.4949 26283.9
 18 03 2013  15 34  -21.1069 26059.7 -03428.5 -07.4950 26284.2
 18 03 2013  15 35  -21.1080 26059.8 -03428.5 -07.4949 26284.3
 18 03 2013  15 36  -21.1086 26059.6 -03428.4 -07.4947 26284.1
 18 03 2013  15 37  -21.1091 26059.4 -03428.3 -07.4945 26283.9
 18 03 2013  15 38  -21.1097 26059.3 -03428.2 -07.4945 26283.8
 18 03 2013  15 39  -21.1099 26059.0 -03428.2 -07.4945 26283.5
 18 03 2013  15 40  -21.1105 26059.0 -03428.2 -07.4945 26283.5
 18 03 2013  15 41  -21.1113 26059.3 -03428.3 -07.4947 26283.8
 18 03 2013  15 42  -21.1119 26059.4 -03428.3 -07.4945 26284.0
 18 03 2013  15 43  -21.1122 26059.2 -03428.2 -07.4944 26283.7
 18 03 2013  15 44  -21.1123 26059.0 -03428.1 -07.4942 26283.5
 18 03 2013  15 45  -21.1124 26059.3 -03428.2 -07.4945 26283.8
 18 03 2013  15 46  -21.1125 26059.7 -03428.4 -07.4947 26284.2
 18 03 2013  15 47  -21.1125 26060.0 -03428.5 -07.4949 26284.6
 18 03 2013  15 48  -21.1127 26060.7 -03428.7 -07.4950 26285.2
 18 03 2013  15 49  -21.1129 26061.2 -03428.8 -07.4951 26285.8
 18 03 2013  15 50  -21.1130 26061.9 -03428.9 -07.4952 26286.5
 18 03 2013  15 51  -21.1130 26062.6 -03429.0 -07.4952 26287.2
 18 03 2013  15 52  -21.1130 26063.4 -03429.1 -07.4952 26288.0
 18 03 2013  15 53  -21.1129 26064.7 -03429.4 -07.4954 26289.3
 18 03 2013  15 54  -21.1133 26066.0 -03429.6 -07.4956 26290.7
 18 03 2013  15 55  -21.1136 26066.6 -03429.5 -07.4951 26291.2
 18 03 2013  15 56  -21.1138 26067.0 -03429.2 -07.4945 26291.6
 18 03 2013  15 57  -21.1140 26066.6 -03428.7 -07.4935 26291.2
 18 03 2013  15 58  -21.1143 26065.6 -03428.0 -07.4922 26290.1
 18 03 2013  15 59  -21.1143 26064.0 -03427.1 -07.4907 26288.4
 18 03 2013  16 00  -21.1139 26062.8 -03426.7 -07.4903 26287.1
 18 03 2013  16 01  -21.1137 26062.2 -03426.7 -07.4903 26286.5
 18 03 2013  16 02  -21.1137 26062.3 -03426.9 -07.4908 26286.7
 18 03 2013  16 03  -21.1145 26062.8 -03427.2 -07.4912 26287.1
 18 03 2013  16 04  -21.1148 26063.0 -03427.2 -07.4911 26287.4
 18 03 2013  16 05  -21.1155 26063.1 -03427.1 -07.4909 26287.5
 18 03 2013  16 06  -21.1155 26063.3 -03427.1 -07.4908 26287.7
 18 03 2013  16 07  -21.1153 26064.0 -03427.2 -07.4910 26288.3
 18 03 2013  16 08  -21.1154 26064.7 -03427.4 -07.4911 26289.1
 18 03 2013  16 09  -21.1159 26065.2 -03427.3 -07.4909 26289.6
 18 03 2013  16 10  -21.1162 26064.9 -03426.9 -07.4901 26289.2
 18 03 2013  16 11  -21.1160 26064.9 -03426.7 -07.4895 26289.2
 18 03 2013  16 12  -21.1160 26065.0 -03426.5 -07.4891 26289.2
 18 03 2013  16 13  -21.1163 26065.1 -03426.3 -07.4888 26289.4
 18 03 2013  16 14  -21.1165 26065.7 -03426.4 -07.4887 26289.9
 18 03 2013  16 15  -21.1168 26065.8 -03426.2 -07.4883 26290.1
 18 03 2013  16 16  -21.1166 26065.9 -03426.0 -07.4877 26290.0
 18 03 2013  16 17  -21.1165 26065.9 -03425.8 -07.4874 26290.1
 18 03 2013  16 18  -21.1163 26066.0 -03425.7 -07.4870 26290.2
 18 03 2013  16 19  -21.1165 26066.3 -03425.6 -07.4868 26290.4
 18 03 2013  16 20  -21.1165 26066.5 -03425.5 -07.4865 26290.6
 18 03 2013  16 21  -21.1167 26066.7 -03425.4 -07.4863 26290.8
 18 03 2013  16 22  -21.1168 26066.9 -03425.3 -07.4860 26291.0
 18 03 2013  16 23  -21.1169 26067.1 -03425.2 -07.4856 26291.1
 18 03 2013  16 24  -21.1168 26067.1 -03424.9 -07.4852 26291.1
 18 03 2013  16 25  -21.1172 26067.2 -03424.8 -07.4849 26291.2
 18 03 2013  16 26  -21.1172 26067.4 -03424.7 -07.4846 26291.4
 18 03 2013  16 27  -21.1174 26067.6 -03424.6 -07.4843 26291.6
 18 03 2013  16 28  -21.1177 26067.8 -03424.6 -07.4842 26291.8
 18 03 2013  16 29  -21.1179 26068.3 -03424.6 -07.4840 26292.2
 18 03 2013  16 30  -21.1179 26068.5 -03424.5 -07.4838 26292.5
 18 03 2013  16 31  -21.1181 26068.9 -03424.5 -07.4837 26292.9
 18 03 2013  16 32  -21.1184 26069.3 -03424.5 -07.4835 26293.2
 18 03 2013  16 33  -21.1184 26069.5 -03424.3 -07.4831 26293.4
 18 03 2013  16 34  -21.1182 26069.8 -03424.2 -07.4828 26293.7
 18 03 2013  16 35  -21.1182 26070.0 -03424.1 -07.4825 26293.9
 18 03 2013  16 36  -21.1184 26070.3 -03424.0 -07.4822 26294.2
 18 03 2013  16 37  -21.1188 26070.4 -03423.8 -07.4818 26294.3
 18 03 2013  16 38  -21.1189 26070.4 -03423.7 -07.4815 26294.2
 18 03 2013  16 39  -21.1189 26070.3 -03423.4 -07.4810 26294.2
 18 03 2013  16 40  -21.1192 26070.4 -03423.3 -07.4807 26294.2
 18 03 2013  16 41  -21.1195 26070.7 -03423.2 -07.4805 26294.4
 18 03 2013  16 42  -21.1198 26070.6 -03423.0 -07.4800 26294.4
 18 03 2013  16 43  -21.1201 26070.6 -03422.8 -07.4797 26294.3
 18 03 2013  16 44  -21.1203 26070.7 -03422.7 -07.4793 26294.5
 18 03 2013  16 45  -21.1206 26070.9 -03422.6 -07.4790 26294.6
 18 03 2013  16 46  -21.1208 26071.1 -03422.5 -07.4787 26294.7
 18 03 2013  16 47  -21.1210 26071.0 -03422.2 -07.4781 26294.6
 18 03 2013  16 48  -21.1211 26071.0 -03422.1 -07.4778 26294.7
 18 03 2013  16 49  -21.1215 26071.0 -03421.9 -07.4775 26294.6
 18 03 2013  16 50  -21.1219 26071.1 -03421.7 -07.4771 26294.7
 18 03 2013  16 51  -21.1221 26071.0 -03421.4 -07.4764 26294.6
 18 03 2013  16 52  -21.1222 26070.9 -03421.1 -07.4758 26294.4
 18 03 2013  16 53  -21.1223 26070.7 -03420.8 -07.4752 26294.2
 18 03 2013  16 54  -21.1225 26070.6 -03420.6 -07.4747 26294.1
 18 03 2013  16 55  -21.1227 26070.6 -03420.3 -07.4742 26294.0
 18 03 2013  16 56  -21.1230 26070.7 -03420.2 -07.4739 26294.1
 18 03 2013  16 57  -21.1235 26070.9 -03420.0 -07.4733 26294.2
 18 03 2013  16 58  -21.1232 26072.2 -03420.3 -07.4738 26295.6
 18 03 2013  16 59  -21.1237 26073.8 -03420.7 -07.4741 26297.3
 18 03 2013  17 00  -21.1241 26074.5 -03420.4 -07.4734 26297.9
 18 03 2013  17 01  -21.1241 26074.6 -03419.9 -07.4721 26297.9
 18 03 2013  17 02  -21.1243 26074.5 -03419.3 -07.4710 26297.8
 18 03 2013  17 03  -21.1247 26074.0 -03418.6 -07.4696 26297.2
 18 03 2013  17 04  -21.1246 26073.6 -03418.1 -07.4685 26296.7
 18 03 2013  17 05  -21.1250 26073.4 -03417.7 -07.4677 26296.5
 18 03 2013  17 06  -21.1252 26073.3 -03417.3 -07.4669 26296.3
 18 03 2013  17 07  -21.1256 26073.3 -03417.0 -07.4662 26296.2
 18 03 2013  17 08  -21.1260 26073.1 -03416.6 -07.4654 26296.0
 18 03 2013  17 09  -21.1265 26073.2 -03416.3 -07.4647 26296.1
 18 03 2013  17 10  -21.1271 26073.2 -03415.9 -07.4640 26296.0
 18 03 2013  17 11  -21.1277 26073.2 -03415.6 -07.4632 26296.0
 18 03 2013  17 12  -21.1281 26073.2 -03415.2 -07.4625 26295.9
 18 03 2013  17 13  -21.1288 26072.7 -03414.7 -07.4614 26295.3
 18 03 2013  17 14  -21.1292 26072.4 -03414.2 -07.4604 26295.0
 18 03 2013  17 15  -21.1300 26072.0 -03413.7 -07.4594 26294.5
 18 03 2013  17 16  -21.1306 26071.4 -03413.0 -07.4583 26293.8
 18 03 2013  17 17  -21.1311 26070.8 -03412.6 -07.4573 26293.2
 18 03 2013  17 18  -21.1318 26070.3 -03412.1 -07.4565 26292.7
 18 03 2013  17 19  -21.1321 26070.0 -03411.7 -07.4557 26292.3
 18 03 2013  17 20  -21.1328 26069.8 -03411.4 -07.4552 26292.0
 18 03 2013  17 21  -21.1335 26070.0 -03411.3 -07.4548 26292.2
 18 03 2013  17 22  -21.1344 26070.0 -03411.1 -07.4544 26292.2
 18 03 2013  17 23  -21.1346 26069.8 -03410.6 -07.4535 26292.0
 18 03 2013  17 24  -21.1352 26069.4 -03410.2 -07.4527 26291.5
 18 03 2013  17 25  -21.1357 26069.2 -03409.9 -07.4520 26291.3
 18 03 2013  17 26  -21.1364 26069.1 -03409.6 -07.4514 26291.2
 18 03 2013  17 27  -21.1370 26069.0 -03409.3 -07.4508 26291.0
 18 03 2013  17 28  -21.1377 26068.9 -03409.0 -07.4502 26290.9
 18 03 2013  17 29  -21.1385 26068.5 -03408.6 -07.4494 26290.5
 18 03 2013  17 30  -21.1391 26068.1 -03408.1 -07.4485 26289.9
 18 03 2013  17 31  -21.1395 26067.7 -03407.7 -07.4478 26289.5
 18 03 2013  17 32  -21.1400 26067.4 -03407.4 -07.4472 26289.2
 18 03 2013  17 33  -21.1405 26067.2 -03407.1 -07.4466 26288.9
 18 03 2013  17 34  -21.1410 26067.1 -03406.8 -07.4461 26288.8
 18 03 2013  17 35  -21.1417 26067.2 -03406.6 -07.4456 26288.8
 18 03 2013  17 36  -21.1425 26067.1 -03406.3 -07.4450 26288.7
 18 03 2013  17 37  -21.1432 26066.7 -03405.9 -07.4443 26288.2
 18 03 2013  17 38  -21.1429 26066.4 -03405.6 -07.4435 26288.0
 18 03 2013  17 39  -21.1433 26066.9 -03405.6 -07.4434 26288.4
 18 03 2013  17 40  -21.1436 26067.6 -03405.6 -07.4433 26289.1
 18 03 2013  17 41  -21.1440 26068.6 -03405.9 -07.4435 26290.2
 18 03 2013  17 42  -21.1447 26068.6 -03405.5 -07.4427 26290.1
 18 03 2013  17 43  -21.1453 26068.1 -03404.9 -07.4416 26289.5
 18 03 2013  17 44  -21.1452 26067.2 -03404.1 -07.4402 26288.6
 18 03 2013  17 45  -21.1455 26066.7 -03403.6 -07.4392 26288.0
 18 03 2013  17 46  -21.1454 26065.9 -03403.0 -07.4381 26287.1
 18 03 2013  17 47  -21.1453 26065.7 -03402.8 -07.4377 26286.9
 18 03 2013  17 48  -21.1455 26065.4 -03402.5 -07.4371 26286.6
 18 03 2013  17 49  -21.1451 26065.3 -03402.2 -07.4365 26286.4
 18 03 2013  17 50  -21.1450 26065.5 -03402.1 -07.4363 26286.6
 18 03 2013  17 51  -21.1450 26065.8 -03402.0 -07.4360 26286.9
 18 03 2013  17 52  -21.1450 26065.8 -03401.7 -07.4354 26286.8
 18 03 2013  17 53  -21.1452 26065.3 -03401.2 -07.4343 26286.3
 18 03 2013  17 54  -21.1451 26064.1 -03400.3 -07.4327 26285.0
 18 03 2013  17 55  -21.1450 26063.8 -03399.9 -07.4321 26284.6
 18 03 2013  17 56  -21.1442 26063.9 -03399.9 -07.4319 26284.7
 18 03 2013  17 57  -21.1439 26064.2 -03399.9 -07.4318 26285.0
 18 03 2013  17 58  -21.1435 26064.3 -03399.7 -07.4314 26285.0
 18 03 2013  17 59  -21.1445 26064.4 -03399.3 -07.4306 26285.1
 18 03 2013  18 00  -21.1452 26064.5 -03399.1 -07.4300 26285.2
 18 03 2013  18 01  -21.1443 26064.6 -03398.9 -07.4295 26285.2
 18 03 2013  18 02  -21.1434 26064.7 -03398.6 -07.4289 26285.3
 18 03 2013  18 03  -21.1426 26064.9 -03398.4 -07.4285 26285.6
 18 03 2013  18 04  -21.1423 26064.5 -03398.0 -07.4277 26285.1
 18 03 2013  18 05  -21.1415 26063.6 -03397.3 -07.4263 26284.0
 18 03 2013  18 06  -21.1398 26062.5 -03396.6 -07.4251 26282.9
 18 03 2013  18 07  -21.1385 26062.1 -03396.4 -07.4248 26282.5
 18 03 2013  18 08  -21.1376 26062.2 -03396.2 -07.4245 26282.5
 18 03 2013  18 09  -21.1355 26061.8 -03395.9 -07.4239 26282.2
 18 03 2013  18 10  -21.1311 26061.4 -03395.5 -07.4231 26281.6
 18 03 2013  18 11  -21.1301 26061.2 -03395.2 -07.4226 26281.5
 18 03 2013  18 12  -21.1290 26060.8 -03394.8 -07.4218 26281.0
 18 03 2013  18 13  -21.1286 26058.7 -03393.6 -07.4198 26278.7
 18 03 2013  18 14  -21.1268 26056.2 -03392.2 -07.4175 26276.0
 18 03 2013  18 15  -21.1252 26053.4 -03390.8 -07.4153 26273.1
 18 03 2013  18 16  -21.1233 26051.7 -03390.1 -07.4142 26271.3
 18 03 2013  18 17  -21.1209 26051.5 -03390.1 -07.4143 26271.2
 18 03 2013  18 18  -21.1194 26052.7 -03390.8 -07.4155 26272.4
 18 03 2013  18 19  -21.1175 26054.4 -03391.7 -07.4169 26274.3
 18 03 2013  18 20  -21.1160 26055.8 -03392.2 -07.4177 26275.7
 18 03 2013  18 21  -21.1138 26057.2 -03392.6 -07.4180 26277.1
 18 03 2013  18 22  -21.1126 26058.6 -03393.0 -07.4184 26278.6
 18 03 2013  18 23  -21.1119 26058.7 -03392.7 -07.4178 26278.6
 18 03 2013  18 24  -21.1110 26056.4 -03391.2 -07.4153 26276.1
 18 03 2013  18 25  -21.1073 26054.1 -03389.9 -07.4132 26273.7
 18 03 2013  18 26  -21.1057 26053.8 -03390.1 -07.4136 26273.5
 18 03 2013  18 27  -21.1035 26053.1 -03389.9 -07.4133 26272.7
 18 03 2013  18 28  -21.1011 26052.8 -03389.8 -07.4132 26272.4
 18 03 2013  18 29  -21.0992 26052.8 -03389.8 -07.4133 26272.4
 18 03 2013  18 30  -21.0974 26053.0 -03390.0 -07.4136 26272.6
 18 03 2013  18 31  -21.0958 26052.8 -03390.0 -07.4136 26272.4
 18 03 2013  18 32  -21.0937 26052.7 -03389.9 -07.4136 26272.3
 18 03 2013  18 33  -21.0917 26052.3 -03389.9 -07.4136 26271.9
 18 03 2013  18 34  -21.0893 26052.1 -03390.0 -07.4139 26271.7
 18 03 2013  18 35  -21.0871 26052.1 -03390.2 -07.4143 26271.8
 18 03 2013  18 36  -21.0853 26052.4 -03390.5 -07.4149 26272.1
 18 03 2013  18 37  -21.0836 26052.4 -03390.8 -07.4154 26272.2
 18 03 2013  18 38  -21.0816 26052.3 -03390.9 -07.4158 26272.1
 18 03 2013  18 39  -21.0799 26052.1 -03391.0 -07.4161 26271.9
 18 03 2013  18 40  -21.0780 26051.9 -03391.2 -07.4165 26271.7
 18 03 2013  18 41  -21.0760 26051.8 -03391.5 -07.4171 26271.6
 18 03 2013  18 42  -21.0742 26051.4 -03391.6 -07.4176 26271.3
 18 03 2013  18 43  -21.0721 26050.9 -03391.8 -07.4180 26270.8
 18 03 2013  18 44  -21.0702 26050.4 -03391.9 -07.4186 26270.3
 18 03 2013  18 45  -21.0687 26050.1 -03392.2 -07.4192 26270.1
 18 03 2013  18 46  -21.0670 26049.8 -03392.5 -07.4199 26269.8
 18 03 2013  18 47  -21.0655 26049.4 -03392.8 -07.4206 26269.4
 18 03 2013  18 48  -21.0641 26048.7 -03392.9 -07.4211 26268.7
 18 03 2013  18 49  -21.0624 26047.9 -03393.0 -07.4216 26268.0
 18 03 2013  18 50  -21.0611 26047.5 -03393.3 -07.4224 26267.6
 18 03 2013  18 51  -21.0594 26046.8 -03393.6 -07.4230 26266.9
 18 03 2013  18 52  -21.0584 26046.8 -03394.1 -07.4243 26267.0
 18 03 2013  18 53  -21.0574 26046.4 -03394.5 -07.4253 26266.7
 18 03 2013  18 54  -21.0559 26046.0 -03394.7 -07.4258 26266.3
 18 03 2013  18 55  -21.0548 26046.2 -03395.3 -07.4271 26266.6
 18 03 2013  18 56  -21.0542 26046.4 -03395.9 -07.4283 26266.9
 18 03 2013  18 57  -21.0534 26046.4 -03396.4 -07.4293 26266.9
 18 03 2013  18 58  -21.0525 26046.2 -03396.7 -07.4301 26266.7
 18 03 2013  18 59  -21.0515 26045.9 -03397.0 -07.4308 26266.5
 18 03 2013  19 00  -21.0506 26045.8 -03397.4 -07.4317 26266.4
 18 03 2013  19 01  -21.0496 26045.3 -03397.6 -07.4322 26266.0
 18 03 2013  19 02  -21.0488 26045.1 -03398.0 -07.4331 26265.8
 18 03 2013  19 03  -21.0480 26044.9 -03398.4 -07.4340 26265.7
 18 03 2013  19 04  -21.0472 26044.9 -03398.9 -07.4352 26265.8
 18 03 2013  19 05  -21.0466 26045.1 -03399.6 -07.4365 26266.1
 18 03 2013  19 06  -21.0460 26045.0 -03399.9 -07.4374 26266.0
 18 03 2013  19 07  -21.0456 26044.5 -03400.1 -07.4379 26265.5
 18 03 2013  19 08  -21.0453 26043.5 -03400.1 -07.4380 26264.5
 18 03 2013  19 09  -21.0444 26042.0 -03399.8 -07.4378 26263.0
 18 03 2013  19 10  -21.0436 26041.1 -03399.8 -07.4382 26262.1
 18 03 2013  19 11  -21.0430 26040.8 -03400.3 -07.4393 26261.9
 18 03 2013  19 12  -21.0430 26040.7 -03400.8 -07.4405 26261.8
 18 03 2013  19 13  -21.0429 26040.4 -03401.2 -07.4413 26261.5
 18 03 2013  19 14  -21.0428 26039.9 -03401.4 -07.4420 26261.1
 18 03 2013  19 15  -21.0427 26039.8 -03401.9 -07.4430 26261.0
 18 03 2013  19 16  -21.0424 26039.8 -03402.4 -07.4442 26261.2
 18 03 2013  19 17  -21.0425 26039.2 -03402.6 -07.4447 26260.6
 18 03 2013  19 18  -21.0421 26039.1 -03402.8 -07.4453 26260.5
 18 03 2013  19 19  -21.0422 26039.5 -03403.6 -07.4468 26261.0
 18 03 2013  19 20  -21.0424 26039.6 -03404.0 -07.4477 26261.1
 18 03 2013  19 21  -21.0424 26039.7 -03404.4 -07.4485 26261.3
 18 03 2013  19 22  -21.0424 26039.0 -03404.5 -07.4489 26260.7
 18 03 2013  19 23  -21.0422 26038.8 -03404.8 -07.4496 26260.5
 18 03 2013  19 24  -21.0424 26038.3 -03405.0 -07.4502 26259.9
 18 03 2013  19 25  -21.0424 26037.9 -03405.2 -07.4507 26259.7
 18 03 2013  19 26  -21.0428 26037.4 -03405.3 -07.4512 26259.2
 18 03 2013  19 27  -21.0431 26036.5 -03405.3 -07.4513 26258.2
 18 03 2013  19 28  -21.0430 26035.3 -03405.0 -07.4511 26257.0
 18 03 2013  19 29  -21.0434 26034.5 -03405.0 -07.4513 26256.2
 18 03 2013  19 30  -21.0434 26033.3 -03404.9 -07.4514 26255.0
 18 03 2013  19 31  -21.0435 26032.4 -03405.0 -07.4518 26254.2
 18 03 2013  19 32  -21.0440 26031.6 -03405.0 -07.4521 26253.3
 18 03 2013  19 33  -21.0444 26030.6 -03404.9 -07.4523 26252.4
 18 03 2013  19 34  -21.0446 26029.6 -03404.9 -07.4524 26251.3
 18 03 2013  19 35  -21.0450 26028.7 -03404.8 -07.4524 26250.5
 18 03 2013  19 36  -21.0458 26028.0 -03404.8 -07.4527 26249.8
 18 03 2013  19 37  -21.0463 26027.2 -03404.7 -07.4528 26248.9
 18 03 2013  19 38  -21.0467 26026.5 -03404.7 -07.4530 26248.2
 18 03 2013  19 39  -21.0469 26025.7 -03404.8 -07.4534 26247.5
 18 03 2013  19 40  -21.0472 26025.0 -03404.9 -07.4537 26246.7
 18 03 2013  19 41  -21.0476 26024.5 -03405.0 -07.4541 26246.3
 18 03 2013  19 42  -21.0481 26024.5 -03405.3 -07.4549 26246.4
 18 03 2013  19 43  -21.0486 26024.8 -03405.8 -07.4557 26246.7
 18 03 2013  19 44  -21.0491 26025.1 -03406.1 -07.4562 26247.0
 18 03 2013  19 45  -21.0494 26025.3 -03406.3 -07.4568 26247.3
 18 03 2013  19 46  -21.0496 26025.2 -03406.4 -07.4570 26247.1
 18 03 2013  19 47  -21.0498 26024.9 -03406.5 -07.4572 26246.9
 18 03 2013  19 48  -21.0502 26024.6 -03406.8 -07.4579 26246.6
 18 03 2013  19 49  -21.0503 26024.4 -03407.0 -07.4585 26246.5
 18 03 2013  19 50  -21.0505 26024.3 -03407.2 -07.4590 26246.3
 18 03 2013  19 51  -21.0508 26024.0 -03407.4 -07.4595 26246.2
 18 03 2013  19 52  -21.0509 26023.9 -03407.6 -07.4600 26246.0
 18 03 2013  19 53  -21.0511 26023.7 -03407.9 -07.4605 26245.9
 18 03 2013  19 54  -21.0513 26023.4 -03408.1 -07.4611 26245.6
 18 03 2013  19 55  -21.0515 26023.2 -03408.3 -07.4616 26245.5
 18 03 2013  19 56  -21.0516 26023.1 -03408.4 -07.4620 26245.4
 18 03 2013  19 57  -21.0518 26023.0 -03408.6 -07.4624 26245.3
 18 03 2013  19 58  -21.0520 26022.9 -03408.8 -07.4628 26245.2
 18 03 2013  19 59  -21.0521 26022.9 -03409.0 -07.4632 26245.2
 18 03 2013  20 00  -21.0522 26022.8 -03409.2 -07.4637 26245.1
 18 03 2013  20 01  -21.0525 26022.7 -03409.4 -07.4642 26245.1
 18 03 2013  20 02  -21.0525 26022.7 -03409.7 -07.4647 26245.2
 18 03 2013  20 03  -21.0526 26022.7 -03409.9 -07.4652 26245.2
 18 03 2013  20 04  -21.0527 26022.7 -03410.1 -07.4656 26245.2
 18 03 2013  20 05  -21.0529 26022.8 -03410.2 -07.4658 26245.3
 18 03 2013  20 06  -21.0530 26022.6 -03410.4 -07.4663 26245.1
 18 03 2013  20 07  -21.0529 26022.5 -03410.5 -07.4666 26245.0
 18 03 2013  20 08  -21.0531 26022.3 -03410.7 -07.4670 26244.9
 18 03 2013  20 09  -21.0532 26022.2 -03410.8 -07.4673 26244.7
 18 03 2013  20 10  -21.0533 26022.0 -03410.9 -07.4676 26244.6
 18 03 2013  20 11  -21.0532 26021.9 -03411.1 -07.4681 26244.5
 18 03 2013  20 12  -21.0531 26021.7 -03411.3 -07.4685 26244.4
 18 03 2013  20 13  -21.0532 26021.7 -03411.5 -07.4689 26244.4
 18 03 2013  20 14  -21.0531 26021.8 -03411.6 -07.4693 26244.5
 18 03 2013  20 15  -21.0531 26022.0 -03411.9 -07.4698 26244.7
 18 03 2013  20 16  -21.0532 26022.2 -03412.2 -07.4703 26244.9
 18 03 2013  20 17  -21.0532 26022.3 -03412.4 -07.4707 26245.1
 18 03 2013  20 18  -21.0531 26022.3 -03412.5 -07.4710 26245.1
 18 03 2013  20 19  -21.0531 26022.4 -03412.7 -07.4715 26245.2
 18 03 2013  20 20  -21.0532 26022.5 -03412.9 -07.4719 26245.3
 18 03 2013  20 21  -21.0533 26022.4 -03413.1 -07.4722 26245.2
 18 03 2013  20 22  -21.0534 26022.3 -03413.2 -07.4725 26245.2
 18 03 2013  20 23  -21.0533 26022.3 -03413.4 -07.4729 26245.2
 18 03 2013  20 24  -21.0533 26022.2 -03413.4 -07.4731 26245.1
 18 03 2013  20 25  -21.0535 26021.9 -03413.5 -07.4733 26244.8
 18 03 2013  20 26  -21.0536 26021.6 -03413.5 -07.4734 26244.5
 18 03 2013  20 27  -21.0536 26021.2 -03413.6 -07.4736 26244.2
 18 03 2013  20 28  -21.0535 26021.2 -03413.7 -07.4739 26244.2
 18 03 2013  20 29  -21.0535 26021.0 -03413.8 -07.4742 26244.0
 18 03 2013  20 30  -21.0538 26020.8 -03413.9 -07.4744 26243.8
 18 03 2013  20 31  -21.0538 26020.5 -03413.9 -07.4745 26243.5
 18 03 2013  20 32  -21.0541 26020.4 -03414.0 -07.4747 26243.4
 18 03 2013  20 33  -21.0542 26020.2 -03414.1 -07.4750 26243.3
 18 03 2013  20 34  -21.0544 26020.1 -03414.1 -07.4752 26243.1
 18 03 2013  20 35  -21.0545 26020.0 -03414.3 -07.4754 26243.0
 18 03 2013  20 36  -21.0546 26020.0 -03414.4 -07.4758 26243.1
 18 03 2013  20 37  -21.0546 26020.0 -03414.5 -07.4760 26243.0
 18 03 2013  20 38  -21.0546 26020.0 -03414.6 -07.4762 26243.1
 18 03 2013  20 39  -21.0547 26020.2 -03414.8 -07.4766 26243.3
 18 03 2013  20 40  -21.0546 26020.2 -03414.9 -07.4767 26243.4
 18 03 2013  20 41  -21.0547 26020.3 -03414.9 -07.4768 26243.4
 18 03 2013  20 42  -21.0548 26020.3 -03415.0 -07.4770 26243.4
 18 03 2013  20 43  -21.0549 26020.3 -03415.0 -07.4770 26243.4
 18 03 2013  20 44  -21.0550 26020.4 -03415.2 -07.4773 26243.5
 18 03 2013  20 45  -21.0553 26020.4 -03415.3 -07.4776 26243.6
 18 03 2013  20 46  -21.0554 26020.3 -03415.4 -07.4778 26243.5
 18 03 2013  20 47  -21.0555 26020.3 -03415.5 -07.4780 26243.5
 18 03 2013  20 48  -21.0555 26020.4 -03415.6 -07.4782 26243.6
 18 03 2013  20 49  -21.0556 26020.2 -03415.6 -07.4782 26243.5
 18 03 2013  20 50  -21.0559 26020.1 -03415.6 -07.4782 26243.3
 18 03 2013  20 51  -21.0561 26019.8 -03415.4 -07.4780 26243.0
 18 03 2013  20 52  -21.0563 26019.7 -03415.4 -07.4780 26242.9
 18 03 2013  20 53  -21.0565 26019.7 -03415.5 -07.4781 26242.9
 18 03 2013  20 54  -21.0568 26019.7 -03415.5 -07.4782 26242.9
 18 03 2013  20 55  -21.0569 26019.8 -03415.6 -07.4783 26243.0
 18 03 2013  20 56  -21.0570 26020.1 -03415.7 -07.4786 26243.4
 18 03 2013  20 57  -21.0572 26020.2 -03415.8 -07.4786 26243.5
 18 03 2013  20 58  -21.0572 26020.5 -03415.7 -07.4785 26243.7
 18 03 2013  20 59  -21.0573 26020.8 -03415.8 -07.4786 26244.1
 18 03 2013  21 00  -21.0573 26021.4 -03416.1 -07.4790 26244.6
 18 03 2013  21 01  -21.0574 26021.8 -03416.3 -07.4793 26245.1
 18 03 2013  21 02  -21.0574 26022.2 -03416.4 -07.4795 26245.5
 18 03 2013  21 03  -21.0574 26022.5 -03416.6 -07.4798 26245.8
 18 03 2013  21 04  -21.0573 26022.8 -03416.7 -07.4799 26246.1
 18 03 2013  21 05  -21.0572 26023.0 -03416.7 -07.4800 26246.3
 18 03 2013  21 06  -21.0573 26023.1 -03416.9 -07.4802 26246.5
 18 03 2013  21 07  -21.0573 26022.9 -03416.8 -07.4802 26246.3
 18 03 2013  21 08  -21.0573 26022.6 -03416.7 -07.4800 26245.9
 18 03 2013  21 09  -21.0573 26022.4 -03416.6 -07.4798 26245.8
 18 03 2013  21 10  -21.0576 26022.2 -03416.5 -07.4796 26245.5
 18 03 2013  21 11  -21.0580 26022.0 -03416.3 -07.4794 26245.3
 18 03 2013  21 12  -21.0582 26022.0 -03416.3 -07.4792 26245.3
 18 03 2013  21 13  -21.0584 26022.0 -03416.3 -07.4792 26245.3
 18 03 2013  21 14  -21.0586 26022.0 -03416.3 -07.4792 26245.3
 18 03 2013  21 15  -21.0588 26022.3 -03416.4 -07.4793 26245.6
 18 03 2013  21 16  -21.0592 26022.5 -03416.5 -07.4796 26245.8
 18 03 2013  21 17  -21.0593 26022.7 -03416.5 -07.4796 26246.0
 18 03 2013  21 18  -21.0595 26022.8 -03416.5 -07.4795 26246.2
 18 03 2013  21 19  -21.0595 26022.9 -03416.4 -07.4792 26246.1
 18 03 2013  21 20  -21.0595 26022.7 -03416.3 -07.4790 26246.0
 18 03 2013  21 21  -21.0595 26022.4 -03416.2 -07.4789 26245.7
 18 03 2013  21 22  -21.0594 26022.1 -03416.0 -07.4785 26245.3
 18 03 2013  21 23  -21.0593 26021.8 -03415.8 -07.4782 26245.0
 18 03 2013  21 24  -21.0591 26021.6 -03415.6 -07.4780 26244.8
 18 03 2013  21 25  -21.0590 26021.5 -03415.6 -07.4778 26244.7
 18 03 2013  21 26  -21.0588 26021.5 -03415.5 -07.4777 26244.7
 18 03 2013  21 27  -21.0586 26021.3 -03415.4 -07.4774 26244.5
 18 03 2013  21 28  -21.0585 26021.1 -03415.3 -07.4774 26244.3
 18 03 2013  21 29  -21.0586 26020.9 -03415.2 -07.4772 26244.1
 18 03 2013  21 30  -21.0586 26020.8 -03415.2 -07.4772 26243.9
 18 03 2013  21 31  -21.0587 26020.7 -03415.2 -07.4774 26243.9
 18 03 2013  21 32  -21.0586 26020.8 -03415.3 -07.4774 26244.0
 18 03 2013  21 33  -21.0586 26020.9 -03415.4 -07.4776 26244.1
 18 03 2013  21 34  -21.0583 26021.0 -03415.4 -07.4777 26244.2
 18 03 2013  21 35  -21.0584 26021.1 -03415.6 -07.4780 26244.3
 18 03 2013  21 36  -21.0584 26021.1 -03415.7 -07.4783 26244.4
 18 03 2013  21 37  -21.0584 26021.0 -03415.8 -07.4785 26244.2
 18 03 2013  21 38  -21.0586 26020.8 -03415.8 -07.4787 26244.0
 18 03 2013  21 39  -21.0587 26020.5 -03415.9 -07.4788 26243.7
 18 03 2013  21 40  -21.0590 26020.2 -03415.9 -07.4789 26243.4
 18 03 2013  21 41  -21.0590 26020.0 -03415.9 -07.4790 26243.2
 18 03 2013  21 42  -21.0591 26019.9 -03415.9 -07.4790 26243.2
 18 03 2013  21 43  -21.0593 26019.9 -03416.0 -07.4791 26243.2
 18 03 2013  21 44  -21.0593 26020.0 -03416.0 -07.4792 26243.3
 18 03 2013  21 45  -21.0596 26020.1 -03416.1 -07.4795 26243.4
 18 03 2013  21 46  -21.0599 26020.2 -03416.3 -07.4799 26243.5
 18 03 2013  21 47  -21.0602 26020.2 -03416.5 -07.4802 26243.5
 18 03 2013  21 48  -21.0604 26020.1 -03416.5 -07.4803 26243.5
 18 03 2013  21 49  -21.0607 26020.1 -03416.7 -07.4806 26243.5
 18 03 2013  21 50  -21.0608 26020.2 -03416.8 -07.4808 26243.6
 18 03 2013  21 51  -21.0607 26020.3 -03416.8 -07.4809 26243.7
 18 03 2013  21 52  -21.0609 26020.3 -03416.9 -07.4812 26243.7
 18 03 2013  21 53  -21.0610 26020.1 -03417.0 -07.4813 26243.5
 18 03 2013  21 54  -21.0612 26020.1 -03417.1 -07.4815 26243.5
 18 03 2013  21 55  -21.0613 26020.1 -03417.2 -07.4817 26243.5
 18 03 2013  21 56  -21.0615 26020.1 -03417.3 -07.4820 26243.5
 18 03 2013  21 57  -21.0616 26020.1 -03417.4 -07.4821 26243.6
 18 03 2013  21 58  -21.0618 26020.0 -03417.4 -07.4822 26243.4
 18 03 2013  21 59  -21.0621 26019.8 -03417.3 -07.4822 26243.2
 18 03 2013  22 00  -21.0623 26019.7 -03417.4 -07.4823 26243.1
 18 03 2013  22 01  -21.0624 26019.5 -03417.4 -07.4824 26243.0
 18 03 2013  22 02  -21.0624 26019.3 -03417.3 -07.4823 26242.8
 18 03 2013  22 03  -21.0625 26019.1 -03417.3 -07.4823 26242.5
 18 03 2013  22 04  -21.0626 26018.8 -03417.3 -07.4824 26242.3
 18 03 2013  22 05  -21.0627 26018.5 -03417.2 -07.4823 26242.0
 18 03 2013  22 06  -21.0629 26018.4 -03417.3 -07.4824 26241.8
 18 03 2013  22 07  -21.0630 26018.4 -03417.3 -07.4826 26241.8
 18 03 2013  22 08  -21.0633 26018.3 -03417.4 -07.4827 26241.7
 18 03 2013  22 09  -21.0633 26018.2 -03417.4 -07.4827 26241.7
 18 03 2013  22 10  -21.0633 26018.2 -03417.4 -07.4827 26241.6
 18 03 2013  22 11  -21.0634 26018.1 -03417.5 -07.4829 26241.6
 18 03 2013  22 12  -21.0633 26018.2 -03417.5 -07.4830 26241.6
 18 03 2013  22 13  -21.0633 26018.3 -03417.6 -07.4832 26241.9
 18 03 2013  22 14  -21.0636 26018.4 -03417.7 -07.4834 26241.9
 18 03 2013  22 15  -21.0638 26018.4 -03417.7 -07.4834 26241.9
 18 03 2013  22 16  -21.0640 26018.3 -03417.9 -07.4837 26241.8
 18 03 2013  22 17  -21.0640 26018.4 -03417.9 -07.4839 26242.0
 18 03 2013  22 18  -21.0639 26018.3 -03417.9 -07.4839 26241.9
 18 03 2013  22 19  -21.0638 26018.1 -03417.8 -07.4837 26241.7
 18 03 2013  22 20  -21.0637 26017.9 -03417.8 -07.4838 26241.5
 18 03 2013  22 21  -21.0634 26017.9 -03417.9 -07.4838 26241.4
 18 03 2013  22 22  -21.0633 26017.8 -03417.9 -07.4840 26241.4
 18 03 2013  22 23  -21.0632 26017.8 -03417.9 -07.4840 26241.3
 18 03 2013  22 24  -21.0632 26017.8 -03418.1 -07.4843 26241.4
 18 03 2013  22 25  -21.0632 26017.9 -03418.1 -07.4844 26241.5
 18 03 2013  22 26  -21.0632 26017.9 -03418.1 -07.4845 26241.4
 18 03 2013  22 27  -21.0631 26017.6 -03418.1 -07.4844 26241.2
 18 03 2013  22 28  -21.0630 26017.6 -03418.1 -07.4844 26241.1
 18 03 2013  22 29  -21.0630 26017.3 -03418.1 -07.4845 26240.9
 18 03 2013  22 30  -21.0631 26017.1 -03418.1 -07.4845 26240.6
 18 03 2013  22 31  -21.0631 26017.1 -03418.1 -07.4846 26240.6
 18 03 2013  22 32  -21.0633 26016.8 -03418.0 -07.4845 26240.4
 18 03 2013  22 33  -21.0632 26016.8 -03418.0 -07.4846 26240.3
 18 03 2013  22 34  -21.0632 26016.7 -03418.1 -07.4846 26240.2
 18 03 2013  22 35  -21.0631 26016.8 -03418.1 -07.4848 26240.4
 18 03 2013  22 36  -21.0629 26016.9 -03418.2 -07.4850 26240.5
 18 03 2013  22 37  -21.0629 26016.9 -03418.3 -07.4850 26240.5
 18 03 2013  22 38  -21.0627 26016.9 -03418.3 -07.4851 26240.5
 18 03 2013  22 39  -21.0626 26016.8 -03418.3 -07.4852 26240.5
 18 03 2013  22 40  -21.0624 26016.7 -03418.3 -07.4852 26240.3
 18 03 2013  22 41  -21.0622 26016.6 -03418.4 -07.4853 26240.3
 18 03 2013  22 42  -21.0619 26016.8 -03418.5 -07.4855 26240.4
 18 03 2013  22 43  -21.0619 26017.1 -03418.8 -07.4860 26240.8
 18 03 2013  22 44  -21.0620 26017.4 -03418.9 -07.4862 26241.1
 18 03 2013  22 45  -21.0620 26017.6 -03419.0 -07.4864 26241.3
 18 03 2013  22 46  -21.0620 26017.7 -03419.1 -07.4866 26241.4
 18 03 2013  22 47  -21.0617 26018.1 -03419.3 -07.4869 26241.8
 18 03 2013  22 48  -21.0616 26018.1 -03419.4 -07.4871 26241.9
 18 03 2013  22 49  -21.0616 26017.3 -03419.0 -07.4865 26241.0
 18 03 2013  22 50  -21.0615 26017.2 -03418.9 -07.4864 26240.8
 18 03 2013  22 51  -21.0612 26017.0 -03418.9 -07.4863 26240.7
 18 03 2013  22 52  -21.0610 26016.9 -03418.9 -07.4864 26240.6
 18 03 2013  22 53  -21.0610 26017.0 -03419.0 -07.4866 26240.7
 18 03 2013  22 54  -21.0613 26016.8 -03418.9 -07.4865 26240.5
 18 03 2013  22 55  -21.0615 26016.6 -03418.8 -07.4862 26240.3
 18 03 2013  22 56  -21.0619 26015.9 -03418.5 -07.4858 26239.6
 18 03 2013  22 57  -21.0619 26015.6 -03418.3 -07.4855 26239.2
 18 03 2013  22 58  -21.0618 26015.4 -03418.2 -07.4854 26239.0
 18 03 2013  22 59  -21.0618 26015.1 -03418.3 -07.4855 26238.7
 18 03 2013  23 00  -21.0619 26014.9 -03418.2 -07.4855 26238.5
 18 03 2013  23 01  -21.0618 26015.0 -03418.3 -07.4857 26238.6
 18 03 2013  23 02  -21.0617 26014.9 -03418.4 -07.4858 26238.5
 18 03 2013  23 03  -21.0617 26015.0 -03418.4 -07.4858 26238.6
 18 03 2013  23 04  -21.0617 26015.0 -03418.4 -07.4859 26238.6
 18 03 2013  23 05  -21.0617 26014.9 -03418.5 -07.4860 26238.5
 18 03 2013  23 06  -21.0619 26014.8 -03418.5 -07.4860 26238.5
 18 03 2013  23 07  -21.0621 26014.6 -03418.5 -07.4861 26238.3
 18 03 2013  23 08  -21.0622 26014.6 -03418.5 -07.4862 26238.2
 18 03 2013  23 09  -21.0623 26014.5 -03418.5 -07.4862 26238.2
 18 03 2013  23 10  -21.0626 26014.4 -03418.5 -07.4863 26238.1
 18 03 2013  23 11  -21.0627 26014.3 -03418.5 -07.4862 26237.9
 18 03 2013  23 12  -21.0630 26014.2 -03418.4 -07.4861 26237.8
 18 03 2013  23 13  -21.0631 26014.1 -03418.5 -07.4863 26237.8
 18 03 2013  23 14  -21.0632 26014.0 -03418.5 -07.4863 26237.7
 18 03 2013  23 15  -21.0632 26014.1 -03418.5 -07.4863 26237.7
 18 03 2013  23 16  -21.0633 26014.2 -03418.6 -07.4865 26237.8
 18 03 2013  23 17  -21.0634 26014.1 -03418.6 -07.4866 26237.8
 18 03 2013  23 18  -21.0635 26014.1 -03418.7 -07.4867 26237.8
 18 03 2013  23 19  -21.0636 26014.2 -03418.7 -07.4868 26237.8
 18 03 2013  23 20  -21.0638 26014.0 -03418.7 -07.4868 26237.7
 18 03 2013  23 21  -21.0640 26013.9 -03418.7 -07.4868 26237.6
 18 03 2013  23 22  -21.0641 26013.8 -03418.7 -07.4868 26237.5
 18 03 2013  23 23  -21.0640 26013.6 -03418.6 -07.4868 26237.2
 18 03 2013  23 24  -21.0633 26013.8 -03418.7 -07.4868 26237.4
 18 03 2013  23 25  -21.0634 26013.7 -03418.7 -07.4869 26237.4
 18 03 2013  23 26  -21.0635 26013.7 -03418.8 -07.4871 26237.4
 18 03 2013  23 27  -21.0635 26013.7 -03418.9 -07.4872 26237.4
 18 03 2013  23 28  -21.0634 26013.8 -03418.9 -07.4872 26237.5
 18 03 2013  23 29  -21.0636 26013.8 -03419.0 -07.4874 26237.5
 18 03 2013  23 30  -21.0637 26013.8 -03419.1 -07.4876 26237.5
 18 03 2013  23 31  -21.0637 26013.8 -03419.1 -07.4876 26237.5
 18 03 2013  23 32  -21.0637 26013.8 -03419.1 -07.4877 26237.5
 18 03 2013  23 33  -21.0636 26013.7 -03419.1 -07.4877 26237.4
 18 03 2013  23 34  -21.0638 26013.6 -03419.0 -07.4876 26237.3
 18 03 2013  23 35  -21.0638 26013.5 -03419.0 -07.4876 26237.2
 18 03 2013  23 36  -21.0635 26013.5 -03419.0 -07.4876 26237.2
 18 03 2013  23 37  -21.0633 26013.5 -03419.1 -07.4878 26237.3
 18 03 2013  23 38  -21.0633 26013.6 -03419.2 -07.4879 26237.3
 18 03 2013  23 39  -21.0633 26013.6 -03419.2 -07.4880 26237.4
 18 03 2013  23 40  -21.0630 26013.8 -03419.3 -07.4882 26237.6
 18 03 2013  23 41  -21.0629 26014.0 -03419.5 -07.4885 26237.8
 18 03 2013  23 42  -21.0627 26014.1 -03419.6 -07.4886 26237.9
 18 03 2013  23 43  -21.0625 26014.3 -03419.7 -07.4888 26238.1
 18 03 2013  23 44  -21.0624 26014.3 -03419.7 -07.4889 26238.1
 18 03 2013  23 45  -21.0624 26014.0 -03419.5 -07.4886 26237.7
 18 03 2013  23 46  -21.0625 26013.5 -03419.4 -07.4883 26237.2
 18 03 2013  23 47  -21.0620 26013.3 -03419.3 -07.4883 26237.1
 18 03 2013  23 48  -21.0619 26013.0 -03419.2 -07.4882 26236.8
 18 03 2013  23 49  -21.0618 26012.7 -03419.1 -07.4880 26236.4
 18 03 2013  23 50  -21.0616 26012.6 -03419.1 -07.4880 26236.3
 18 03 2013  23 51  -21.0617 26012.3 -03419.0 -07.4879 26236.0
 18 03 2013  23 52  -21.0617 26012.2 -03419.0 -07.4880 26235.9
 18 03 2013  23 53  -21.0617 26012.0 -03419.0 -07.4880 26235.8
 18 03 2013  23 54  -21.0618 26012.0 -03419.0 -07.4880 26235.7
 18 03 2013  23 55  -21.0620 26011.9 -03419.1 -07.4881 26235.7
 18 03 2013  23 56  -21.0622 26011.8 -03419.1 -07.4883 26235.5
 18 03 2013  23 57  -21.0621 26011.7 -03419.1 -07.4883 26235.5
 18 03 2013  23 58  -21.0622 26011.7 -03419.2 -07.4884 26235.5
