SAO LUIS EMBRACE-03 <318> 1 Min. Reported data

 DD MM YYYY  HH MM   D(Deg)  H(nT)   Z(nT)   I(Deg)   F(nT)

 14 11 2013  00 00  -21.0082 26013.7 -03505.1 -07.6739 26248.8
 14 11 2013  00 01  -21.0082 26013.6 -03505.2 -07.6740 26248.7
 14 11 2013  00 02  -21.0081 26013.6 -03505.2 -07.6740 26248.7
 14 11 2013  00 03  -21.0079 26013.6 -03505.1 -07.6739 26248.7
 14 11 2013  00 04  -21.0079 26013.6 -03505.2 -07.6740 26248.7
 14 11 2013  00 05  -21.0079 26013.5 -03505.1 -07.6740 26248.6
 14 11 2013  00 06  -21.0078 26013.5 -03505.1 -07.6740 26248.6
 14 11 2013  00 07  -21.0079 26013.4 -03505.1 -07.6740 26248.5
 14 11 2013  00 08  -21.0079 26013.4 -03505.1 -07.6740 26248.5
 14 11 2013  00 09  -21.0078 26013.4 -03505.1 -07.6739 26248.5
 14 11 2013  00 10  -21.0078 26013.5 -03505.1 -07.6740 26248.5
 14 11 2013  00 11  -21.0077 26013.5 -03505.2 -07.6741 26248.6
 14 11 2013  00 12  -21.0077 26013.5 -03505.2 -07.6742 26248.6
 14 11 2013  00 13  -21.0078 26013.6 -03505.2 -07.6741 26248.7
 14 11 2013  00 14  -21.0079 26013.6 -03505.2 -07.6741 26248.7
 14 11 2013  00 15  -21.0079 26013.6 -03505.3 -07.6742 26248.7
 14 11 2013  00 16  -21.0080 26013.6 -03505.3 -07.6742 26248.7
 14 11 2013  00 17  -21.0080 26013.6 -03505.2 -07.6741 26248.7
 14 11 2013  00 18  -21.0080 26013.6 -03505.2 -07.6741 26248.7
 14 11 2013  00 19  -21.0081 26013.6 -03505.2 -07.6741 26248.7
 14 11 2013  00 20  -21.0082 26013.6 -03505.2 -07.6740 26248.7
 14 11 2013  00 21  -21.0083 26013.6 -03505.2 -07.6741 26248.7
 14 11 2013  00 22  -21.0084 26013.6 -03505.1 -07.6739 26248.7
 14 11 2013  00 23  -21.0086 26013.5 -03505.2 -07.6740 26248.6
 14 11 2013  00 24  -21.0087 26013.5 -03505.1 -07.6738 26248.6
 14 11 2013  00 25  -21.0088 26013.5 -03505.1 -07.6738 26248.5
 14 11 2013  00 26  -21.0089 26013.4 -03505.1 -07.6738 26248.5
 14 11 2013  00 27  -21.0090 26013.3 -03505.1 -07.6739 26248.4
 14 11 2013  00 28  -21.0092 26013.4 -03505.1 -07.6739 26248.4
 14 11 2013  00 29  -21.0093 26013.4 -03505.1 -07.6738 26248.4
 14 11 2013  00 30  -21.0096 26013.4 -03505.1 -07.6740 26248.5
 14 11 2013  00 31  -21.0098 26013.4 -03505.1 -07.6740 26248.5
 14 11 2013  00 32  -21.0100 26013.5 -03505.2 -07.6741 26248.5
 14 11 2013  00 33  -21.0101 26013.4 -03505.2 -07.6741 26248.5
 14 11 2013  00 34  -21.0103 26013.4 -03505.2 -07.6741 26248.5
 14 11 2013  00 35  -21.0103 26013.4 -03505.2 -07.6741 26248.5
 14 11 2013  00 36  -21.0105 26013.4 -03505.2 -07.6742 26248.5
 14 11 2013  00 37  -21.0107 26013.4 -03505.2 -07.6742 26248.5
 14 11 2013  00 38  -21.0107 26013.3 -03505.2 -07.6741 26248.4
 14 11 2013  00 39  -21.0109 26013.2 -03505.2 -07.6742 26248.3
 14 11 2013  00 40  -21.0110 26013.2 -03505.2 -07.6742 26248.3
 14 11 2013  00 41  -21.0110 26013.2 -03505.3 -07.6743 26248.3
 14 11 2013  00 42  -21.0112 26013.2 -03505.3 -07.6744 26248.3
 14 11 2013  00 43  -21.0114 26013.3 -03505.4 -07.6746 26248.4
 14 11 2013  00 44  -21.0116 26013.4 -03505.5 -07.6747 26248.5
 14 11 2013  00 45  -21.0117 26013.4 -03505.5 -07.6749 26248.6
 14 11 2013  00 46  -21.0118 26013.4 -03505.5 -07.6748 26248.5
 14 11 2013  00 47  -21.0120 26013.4 -03505.6 -07.6750 26248.5
 14 11 2013  00 48  -21.0121 26013.4 -03505.6 -07.6750 26248.5
 14 11 2013  00 49  -21.0121 26013.4 -03505.6 -07.6750 26248.5
 14 11 2013  00 50  -21.0122 26013.3 -03505.6 -07.6751 26248.5
 14 11 2013  00 51  -21.0123 26013.2 -03505.6 -07.6751 26248.4
 14 11 2013  00 52  -21.0124 26013.1 -03505.6 -07.6751 26248.2
 14 11 2013  00 53  -21.0125 26012.9 -03505.5 -07.6750 26248.0
 14 11 2013  00 54  -21.0126 26012.8 -03505.6 -07.6751 26247.9
 14 11 2013  00 55  -21.0126 26012.7 -03505.6 -07.6751 26247.8
 14 11 2013  00 56  -21.0126 26012.6 -03505.5 -07.6751 26247.7
 14 11 2013  00 57  -21.0127 26012.4 -03505.6 -07.6752 26247.6
 14 11 2013  00 58  -21.0128 26012.3 -03505.6 -07.6752 26247.5
 14 11 2013  00 59  -21.0129 26012.3 -03505.6 -07.6753 26247.4
 14 11 2013  01 00  -21.0130 26012.2 -03505.6 -07.6754 26247.4
 14 11 2013  01 01  -21.0131 26012.1 -03505.7 -07.6755 26247.3
 14 11 2013  01 02  -21.0132 26012.1 -03505.8 -07.6757 26247.3
 14 11 2013  01 03  -21.0133 26012.1 -03505.8 -07.6759 26247.3
 14 11 2013  01 04  -21.0134 26012.1 -03505.9 -07.6759 26247.3
 14 11 2013  01 05  -21.0135 26012.1 -03505.9 -07.6761 26247.3
 14 11 2013  01 06  -21.0137 26012.1 -03506.0 -07.6762 26247.3
 14 11 2013  01 07  -21.0138 26012.1 -03506.0 -07.6762 26247.3
 14 11 2013  01 08  -21.0139 26012.0 -03506.0 -07.6763 26247.2
 14 11 2013  01 09  -21.0141 26012.0 -03506.1 -07.6764 26247.2
 14 11 2013  01 10  -21.0143 26012.0 -03506.1 -07.6765 26247.2
 14 11 2013  01 11  -21.0144 26012.0 -03506.1 -07.6765 26247.2
 14 11 2013  01 12  -21.0145 26011.9 -03506.1 -07.6765 26247.2
 14 11 2013  01 13  -21.0145 26011.9 -03506.1 -07.6764 26247.1
 14 11 2013  01 14  -21.0146 26011.9 -03506.1 -07.6765 26247.1
 14 11 2013  01 15  -21.0146 26011.9 -03506.1 -07.6765 26247.1
 14 11 2013  01 16  -21.0148 26011.8 -03506.1 -07.6765 26247.1
 14 11 2013  01 17  -21.0148 26011.8 -03506.1 -07.6765 26247.1
 14 11 2013  01 18  -21.0149 26011.8 -03506.1 -07.6765 26247.1
 14 11 2013  01 19  -21.0149 26011.8 -03506.0 -07.6764 26247.0
 14 11 2013  01 20  -21.0150 26011.9 -03506.0 -07.6764 26247.1
 14 11 2013  01 21  -21.0151 26011.8 -03506.0 -07.6764 26247.1
 14 11 2013  01 22  -21.0152 26011.8 -03506.0 -07.6764 26247.1
 14 11 2013  01 23  -21.0153 26011.8 -03506.0 -07.6764 26247.0
 14 11 2013  01 24  -21.0153 26011.8 -03506.0 -07.6764 26247.0
 14 11 2013  01 25  -21.0154 26011.9 -03506.0 -07.6764 26247.1
 14 11 2013  01 26  -21.0154 26011.9 -03506.0 -07.6764 26247.1
 14 11 2013  01 27  -21.0155 26012.0 -03506.0 -07.6763 26247.2
 14 11 2013  01 28  -21.0156 26012.0 -03506.0 -07.6764 26247.2
 14 11 2013  01 29  -21.0155 26012.0 -03506.0 -07.6763 26247.2
 14 11 2013  01 30  -21.0155 26012.0 -03506.0 -07.6762 26247.2
 14 11 2013  01 31  -21.0156 26012.0 -03505.9 -07.6761 26247.2
 14 11 2013  01 32  -21.0155 26012.0 -03505.9 -07.6761 26247.2
 14 11 2013  01 33  -21.0155 26012.0 -03505.8 -07.6759 26247.2
 14 11 2013  01 34  -21.0156 26012.0 -03505.8 -07.6759 26247.2
 14 11 2013  01 35  -21.0158 26012.0 -03505.8 -07.6759 26247.2
 14 11 2013  01 36  -21.0158 26011.9 -03505.8 -07.6758 26247.1
 14 11 2013  01 37  -21.0158 26011.9 -03505.7 -07.6756 26247.1
 14 11 2013  01 38  -21.0158 26011.8 -03505.6 -07.6755 26246.9
 14 11 2013  01 39  -21.0157 26011.6 -03505.6 -07.6754 26246.8
 14 11 2013  01 40  -21.0158 26011.5 -03505.5 -07.6753 26246.7
 14 11 2013  01 41  -21.0159 26011.5 -03505.5 -07.6752 26246.6
 14 11 2013  01 42  -21.0159 26011.5 -03505.4 -07.6752 26246.6
 14 11 2013  01 43  -21.0159 26011.4 -03505.4 -07.6752 26246.6
 14 11 2013  01 44  -21.0160 26011.4 -03505.4 -07.6752 26246.6
 14 11 2013  01 45  -21.0160 26011.4 -03505.4 -07.6752 26246.6
 14 11 2013  01 46  -21.0161 26011.4 -03505.4 -07.6751 26246.6
 14 11 2013  01 47  -21.0160 26011.4 -03505.4 -07.6751 26246.5
 14 11 2013  01 48  -21.0160 26011.4 -03505.4 -07.6751 26246.5
 14 11 2013  01 49  -21.0160 26011.4 -03505.3 -07.6750 26246.5
 14 11 2013  01 50  -21.0160 26011.4 -03505.4 -07.6751 26246.5
 14 11 2013  01 51  -21.0159 26011.3 -03505.3 -07.6750 26246.5
 14 11 2013  01 52  -21.0159 26011.3 -03505.3 -07.6750 26246.4
 14 11 2013  01 53  -21.0160 26011.4 -03505.3 -07.6750 26246.5
 14 11 2013  01 54  -21.0160 26011.4 -03505.3 -07.6750 26246.5
 14 11 2013  01 55  -21.0160 26011.4 -03505.3 -07.6750 26246.5
 14 11 2013  01 56  -21.0161 26011.4 -03505.3 -07.6749 26246.5
 14 11 2013  01 57  -21.0161 26011.4 -03505.3 -07.6750 26246.5
 14 11 2013  01 58  -21.0161 26011.3 -03505.3 -07.6749 26246.5
 14 11 2013  01 59  -21.0162 26011.4 -03505.3 -07.6749 26246.5
 14 11 2013  02 00  -21.0162 26011.4 -03505.3 -07.6749 26246.5
 14 11 2013  02 01  -21.0162 26011.4 -03505.3 -07.6749 26246.5
 14 11 2013  02 02  -21.0163 26011.4 -03505.3 -07.6749 26246.5
 14 11 2013  02 03  -21.0163 26011.4 -03505.3 -07.6750 26246.5
 14 11 2013  02 04  -21.0163 26011.5 -03505.3 -07.6749 26246.6
 14 11 2013  02 05  -21.0165 26011.5 -03505.3 -07.6750 26246.6
 14 11 2013  02 06  -21.0165 26011.5 -03505.3 -07.6750 26246.6
 14 11 2013  02 07  -21.0166 26011.5 -03505.4 -07.6751 26246.6
 14 11 2013  02 08  -21.0167 26011.5 -03505.4 -07.6751 26246.7
 14 11 2013  02 09  -21.0167 26011.6 -03505.4 -07.6751 26246.7
 14 11 2013  02 10  -21.0167 26011.6 -03505.4 -07.6751 26246.8
 14 11 2013  02 11  -21.0167 26011.7 -03505.4 -07.6751 26246.8
 14 11 2013  02 12  -21.0167 26011.7 -03505.4 -07.6752 26246.9
 14 11 2013  02 13  -21.0168 26011.8 -03505.4 -07.6751 26246.9
 14 11 2013  02 14  -21.0168 26011.8 -03505.4 -07.6751 26246.9
 14 11 2013  02 15  -21.0168 26011.8 -03505.4 -07.6751 26247.0
 14 11 2013  02 16  -21.0168 26011.9 -03505.5 -07.6751 26247.0
 14 11 2013  02 17  -21.0167 26011.9 -03505.4 -07.6751 26247.0
 14 11 2013  02 18  -21.0166 26011.8 -03505.4 -07.6751 26247.0
 14 11 2013  02 19  -21.0165 26011.8 -03505.4 -07.6751 26247.0
 14 11 2013  02 20  -21.0164 26011.8 -03505.4 -07.6750 26246.9
 14 11 2013  02 21  -21.0163 26011.8 -03505.4 -07.6750 26246.9
 14 11 2013  02 22  -21.0163 26011.7 -03505.4 -07.6750 26246.9
 14 11 2013  02 23  -21.0162 26011.7 -03505.3 -07.6749 26246.8
 14 11 2013  02 24  -21.0162 26011.5 -03505.3 -07.6749 26246.7
 14 11 2013  02 25  -21.0162 26011.5 -03505.3 -07.6748 26246.6
 14 11 2013  02 26  -21.0162 26011.4 -03505.3 -07.6748 26246.5
 14 11 2013  02 27  -21.0162 26011.3 -03505.2 -07.6748 26246.5
 14 11 2013  02 28  -21.0161 26011.3 -03505.2 -07.6747 26246.4
 14 11 2013  02 29  -21.0160 26011.2 -03505.2 -07.6748 26246.3
 14 11 2013  02 30  -21.0160 26011.2 -03505.3 -07.6749 26246.4
 14 11 2013  02 31  -21.0160 26011.3 -03505.3 -07.6749 26246.4
 14 11 2013  02 32  -21.0161 26011.3 -03505.4 -07.6751 26246.5
 14 11 2013  02 33  -21.0160 26011.5 -03505.4 -07.6752 26246.6
 14 11 2013  02 34  -21.0161 26011.6 -03505.5 -07.6754 26246.7
 14 11 2013  02 35  -21.0161 26011.6 -03505.6 -07.6755 26246.8
 14 11 2013  02 36  -21.0162 26011.7 -03505.7 -07.6756 26246.9
 14 11 2013  02 37  -21.0162 26011.8 -03505.7 -07.6756 26246.9
 14 11 2013  02 38  -21.0161 26011.8 -03505.7 -07.6757 26247.0
 14 11 2013  02 39  -21.0161 26011.8 -03505.7 -07.6757 26247.0
 14 11 2013  02 40  -21.0160 26011.8 -03505.7 -07.6757 26246.9
 14 11 2013  02 41  -21.0159 26011.8 -03505.7 -07.6757 26247.0
 14 11 2013  02 42  -21.0159 26011.8 -03505.7 -07.6758 26247.0
 14 11 2013  02 43  -21.0158 26011.8 -03505.8 -07.6758 26247.0
 14 11 2013  02 44  -21.0158 26011.8 -03505.8 -07.6758 26247.0
 14 11 2013  02 45  -21.0158 26011.8 -03505.8 -07.6759 26247.0
 14 11 2013  02 46  -21.0157 26011.8 -03505.8 -07.6759 26247.0
 14 11 2013  02 47  -21.0156 26011.8 -03505.8 -07.6759 26247.0
 14 11 2013  02 48  -21.0154 26011.7 -03505.8 -07.6758 26246.9
 14 11 2013  02 49  -21.0153 26011.7 -03505.8 -07.6759 26246.9
 14 11 2013  02 50  -21.0153 26011.8 -03505.8 -07.6760 26247.0
 14 11 2013  02 51  -21.0152 26011.8 -03505.9 -07.6760 26247.0
 14 11 2013  02 52  -21.0152 26011.8 -03505.9 -07.6761 26247.0
 14 11 2013  02 53  -21.0152 26011.9 -03505.9 -07.6761 26247.1
 14 11 2013  02 54  -21.0152 26011.9 -03505.9 -07.6762 26247.1
 14 11 2013  02 55  -21.0152 26011.9 -03506.0 -07.6763 26247.2
 14 11 2013  02 56  -21.0153 26012.0 -03506.0 -07.6763 26247.2
 14 11 2013  02 57  -21.0153 26012.0 -03506.0 -07.6764 26247.2
 14 11 2013  02 58  -21.0154 26012.0 -03506.0 -07.6763 26247.2
 14 11 2013  02 59  -21.0155 26012.0 -03506.0 -07.6763 26247.2
 14 11 2013  03 00  -21.0155 26012.0 -03506.0 -07.6763 26247.2
 14 11 2013  03 01  -21.0156 26011.9 -03506.0 -07.6763 26247.1
 14 11 2013  03 02  -21.0156 26011.9 -03506.0 -07.6763 26247.1
 14 11 2013  03 03  -21.0158 26011.9 -03506.0 -07.6764 26247.1
 14 11 2013  03 04  -21.0158 26011.9 -03506.0 -07.6763 26247.1
 14 11 2013  03 05  -21.0159 26011.9 -03506.0 -07.6763 26247.1
 14 11 2013  03 06  -21.0161 26011.9 -03506.0 -07.6764 26247.1
 14 11 2013  03 07  -21.0161 26011.8 -03506.0 -07.6763 26247.1
 14 11 2013  03 08  -21.0161 26011.8 -03506.0 -07.6763 26247.0
 14 11 2013  03 09  -21.0163 26011.8 -03506.0 -07.6763 26247.0
 14 11 2013  03 10  -21.0164 26011.8 -03506.0 -07.6764 26247.0
 14 11 2013  03 11  -21.0165 26011.8 -03506.0 -07.6764 26247.0
 14 11 2013  03 12  -21.0166 26011.9 -03506.0 -07.6763 26247.1
 14 11 2013  03 13  -21.0167 26011.9 -03506.0 -07.6763 26247.1
 14 11 2013  03 14  -21.0167 26011.9 -03506.0 -07.6762 26247.1
 14 11 2013  03 15  -21.0168 26011.9 -03506.0 -07.6762 26247.1
 14 11 2013  03 16  -21.0169 26011.9 -03506.0 -07.6763 26247.1
 14 11 2013  03 17  -21.0169 26011.9 -03506.0 -07.6762 26247.1
 14 11 2013  03 18  -21.0169 26011.9 -03505.9 -07.6762 26247.1
 14 11 2013  03 19  -21.0169 26011.9 -03505.9 -07.6761 26247.1
 14 11 2013  03 20  -21.0169 26011.9 -03505.9 -07.6761 26247.1
 14 11 2013  03 21  -21.0170 26011.9 -03506.0 -07.6762 26247.1
 14 11 2013  03 22  -21.0170 26012.0 -03505.9 -07.6761 26247.2
 14 11 2013  03 23  -21.0171 26012.0 -03506.0 -07.6762 26247.2
 14 11 2013  03 24  -21.0172 26012.0 -03506.0 -07.6762 26247.2
 14 11 2013  03 25  -21.0173 26012.1 -03506.0 -07.6763 26247.3
 14 11 2013  03 26  -21.0173 26012.1 -03506.1 -07.6764 26247.3
 14 11 2013  03 27  -21.0173 26012.1 -03506.0 -07.6763 26247.3
 14 11 2013  03 28  -21.0174 26012.1 -03506.0 -07.6763 26247.4
 14 11 2013  03 29  -21.0174 26012.1 -03506.0 -07.6763 26247.4
 14 11 2013  03 30  -21.0175 26012.2 -03506.0 -07.6762 26247.4
 14 11 2013  03 31  -21.0175 26012.2 -03506.0 -07.6763 26247.4
 14 11 2013  03 32  -21.0176 26012.2 -03506.0 -07.6763 26247.4
 14 11 2013  03 33  -21.0176 26012.2 -03506.0 -07.6762 26247.4
 14 11 2013  03 34  -21.0176 26012.2 -03506.0 -07.6762 26247.4
 14 11 2013  03 35  -21.0175 26012.2 -03506.0 -07.6762 26247.4
 14 11 2013  03 36  -21.0175 26012.2 -03506.0 -07.6762 26247.4
 14 11 2013  03 37  -21.0175 26012.2 -03506.0 -07.6761 26247.4
 14 11 2013  03 38  -21.0174 26012.2 -03506.0 -07.6761 26247.4
 14 11 2013  03 39  -21.0174 26012.2 -03506.0 -07.6761 26247.5
 14 11 2013  03 40  -21.0174 26012.3 -03506.0 -07.6762 26247.5
 14 11 2013  03 41  -21.0174 26012.3 -03506.0 -07.6763 26247.5
 14 11 2013  03 42  -21.0174 26012.3 -03506.1 -07.6763 26247.5
 14 11 2013  03 43  -21.0173 26012.3 -03506.1 -07.6764 26247.6
 14 11 2013  03 44  -21.0172 26012.3 -03506.1 -07.6764 26247.5
 14 11 2013  03 45  -21.0172 26012.4 -03506.1 -07.6764 26247.6
 14 11 2013  03 46  -21.0172 26012.4 -03506.1 -07.6764 26247.6
 14 11 2013  03 47  -21.0171 26012.4 -03506.1 -07.6765 26247.6
 14 11 2013  03 48  -21.0170 26012.4 -03506.2 -07.6765 26247.6
 14 11 2013  03 49  -21.0170 26012.4 -03506.2 -07.6766 26247.7
 14 11 2013  03 50  -21.0170 26012.5 -03506.2 -07.6766 26247.7
 14 11 2013  03 51  -21.0169 26012.5 -03506.2 -07.6766 26247.7
 14 11 2013  03 52  -21.0169 26012.5 -03506.2 -07.6767 26247.8
 14 11 2013  03 53  -21.0169 26012.5 -03506.3 -07.6767 26247.8
 14 11 2013  03 54  -21.0169 26012.6 -03506.3 -07.6768 26247.8
 14 11 2013  03 55  -21.0169 26012.6 -03506.4 -07.6769 26247.8
 14 11 2013  03 56  -21.0168 26012.6 -03506.4 -07.6769 26247.9
 14 11 2013  03 57  -21.0169 26012.7 -03506.4 -07.6770 26247.9
 14 11 2013  03 58  -21.0169 26012.7 -03506.4 -07.6770 26248.0
 14 11 2013  03 59  -21.0169 26012.8 -03506.5 -07.6771 26248.1
 14 11 2013  04 00  -21.0168 26012.8 -03506.5 -07.6771 26248.0
 14 11 2013  04 01  -21.0168 26012.8 -03506.5 -07.6771 26248.0
 14 11 2013  04 02  -21.0168 26012.8 -03506.5 -07.6771 26248.1
 14 11 2013  04 03  -21.0169 26012.8 -03506.6 -07.6772 26248.1
 14 11 2013  04 04  -21.0169 26012.9 -03506.6 -07.6772 26248.1
 14 11 2013  04 05  -21.0171 26012.9 -03506.6 -07.6773 26248.2
 14 11 2013  04 06  -21.0171 26013.0 -03506.6 -07.6773 26248.2
 14 11 2013  04 07  -21.0172 26013.0 -03506.6 -07.6773 26248.3
 14 11 2013  04 08  -21.0173 26013.0 -03506.6 -07.6774 26248.3
 14 11 2013  04 09  -21.0174 26013.1 -03506.6 -07.6774 26248.4
 14 11 2013  04 10  -21.0174 26013.1 -03506.7 -07.6774 26248.4
 14 11 2013  04 11  -21.0174 26013.1 -03506.7 -07.6774 26248.4
 14 11 2013  04 12  -21.0174 26013.2 -03506.7 -07.6774 26248.5
 14 11 2013  04 13  -21.0175 26013.2 -03506.7 -07.6775 26248.5
 14 11 2013  04 14  -21.0175 26013.2 -03506.7 -07.6775 26248.5
 14 11 2013  04 15  -21.0176 26013.3 -03506.7 -07.6775 26248.6
 14 11 2013  04 16  -21.0176 26013.3 -03506.7 -07.6775 26248.6
 14 11 2013  04 17  -21.0176 26013.3 -03506.8 -07.6776 26248.6
 14 11 2013  04 18  -21.0176 26013.4 -03506.8 -07.6776 26248.7
 14 11 2013  04 19  -21.0176 26013.4 -03506.8 -07.6776 26248.7
 14 11 2013  04 20  -21.0176 26013.4 -03506.8 -07.6776 26248.7
 14 11 2013  04 21  -21.0176 26013.4 -03506.8 -07.6776 26248.7
 14 11 2013  04 22  -21.0176 26013.5 -03506.8 -07.6776 26248.8
 14 11 2013  04 23  -21.0177 26013.5 -03506.8 -07.6776 26248.8
 14 11 2013  04 24  -21.0177 26013.5 -03506.8 -07.6776 26248.8
 14 11 2013  04 25  -21.0177 26013.5 -03506.8 -07.6775 26248.8
 14 11 2013  04 26  -21.0178 26013.5 -03506.8 -07.6776 26248.8
 14 11 2013  04 27  -21.0177 26013.5 -03506.8 -07.6775 26248.8
 14 11 2013  04 28  -21.0177 26013.5 -03506.8 -07.6775 26248.8
 14 11 2013  04 29  -21.0177 26013.5 -03506.8 -07.6776 26248.8
 14 11 2013  04 30  -21.0177 26013.5 -03506.8 -07.6775 26248.9
 14 11 2013  04 31  -21.0177 26013.6 -03506.8 -07.6775 26248.9
 14 11 2013  04 32  -21.0177 26013.6 -03506.8 -07.6776 26248.9
 14 11 2013  04 33  -21.0176 26013.6 -03506.8 -07.6775 26248.9
 14 11 2013  04 34  -21.0176 26013.6 -03506.8 -07.6775 26248.9
 14 11 2013  04 35  -21.0176 26013.6 -03506.8 -07.6775 26248.9
 14 11 2013  04 36  -21.0176 26013.6 -03506.7 -07.6774 26248.9
 14 11 2013  04 37  -21.0177 26013.6 -03506.8 -07.6775 26248.9
 14 11 2013  04 38  -21.0177 26013.6 -03506.8 -07.6775 26248.9
 14 11 2013  04 39  -21.0178 26013.6 -03506.8 -07.6775 26248.9
 14 11 2013  04 40  -21.0178 26013.6 -03506.8 -07.6775 26248.9
 14 11 2013  04 41  -21.0179 26013.6 -03506.7 -07.6774 26248.9
 14 11 2013  04 42  -21.0179 26013.6 -03506.7 -07.6774 26248.9
 14 11 2013  04 43  -21.0179 26013.6 -03506.8 -07.6774 26248.9
 14 11 2013  04 44  -21.0179 26013.6 -03506.7 -07.6774 26248.9
 14 11 2013  04 45  -21.0179 26013.5 -03506.8 -07.6775 26248.8
 14 11 2013  04 46  -21.0179 26013.6 -03506.7 -07.6774 26248.9
 14 11 2013  04 47  -21.0180 26013.6 -03506.8 -07.6775 26248.9
 14 11 2013  04 48  -21.0180 26013.5 -03506.8 -07.6775 26248.9
 14 11 2013  04 49  -21.0180 26013.6 -03506.8 -07.6775 26248.9
 14 11 2013  04 50  -21.0181 26013.6 -03506.8 -07.6776 26248.9
 14 11 2013  04 51  -21.0182 26013.6 -03506.8 -07.6776 26248.9
 14 11 2013  04 52  -21.0183 26013.6 -03506.9 -07.6776 26249.0
 14 11 2013  04 53  -21.0183 26013.7 -03506.8 -07.6776 26249.0
 14 11 2013  04 54  -21.0184 26013.7 -03506.9 -07.6776 26249.0
 14 11 2013  04 55  -21.0184 26013.7 -03506.9 -07.6777 26249.1
 14 11 2013  04 56  -21.0185 26013.8 -03506.9 -07.6777 26249.1
 14 11 2013  04 57  -21.0185 26013.8 -03506.9 -07.6777 26249.1
 14 11 2013  04 58  -21.0186 26013.8 -03506.9 -07.6776 26249.1
 14 11 2013  04 59  -21.0186 26013.8 -03506.9 -07.6777 26249.2
 14 11 2013  05 00  -21.0185 26013.8 -03506.9 -07.6777 26249.1
 14 11 2013  05 01  -21.0186 26013.8 -03506.9 -07.6776 26249.1
 14 11 2013  05 02  -21.0186 26013.8 -03506.8 -07.6776 26249.1
 14 11 2013  05 03  -21.0187 26013.9 -03506.8 -07.6776 26249.2
 14 11 2013  05 04  -21.0187 26013.9 -03506.9 -07.6776 26249.2
 14 11 2013  05 05  -21.0187 26013.9 -03506.9 -07.6776 26249.2
 14 11 2013  05 06  -21.0187 26013.9 -03506.9 -07.6776 26249.2
 14 11 2013  05 07  -21.0188 26013.9 -03506.9 -07.6776 26249.2
 14 11 2013  05 08  -21.0188 26013.9 -03506.9 -07.6776 26249.2
 14 11 2013  05 09  -21.0188 26013.9 -03506.8 -07.6775 26249.3
 14 11 2013  05 10  -21.0188 26014.0 -03506.8 -07.6775 26249.3
 14 11 2013  05 11  -21.0189 26014.0 -03506.8 -07.6775 26249.3
 14 11 2013  05 12  -21.0188 26014.1 -03506.8 -07.6775 26249.4
 14 11 2013  05 13  -21.0187 26014.1 -03506.8 -07.6774 26249.4
 14 11 2013  05 14  -21.0189 26014.1 -03506.9 -07.6775 26249.4
 14 11 2013  05 15  -21.0188 26014.2 -03506.8 -07.6774 26249.5
 14 11 2013  05 16  -21.0187 26014.2 -03506.8 -07.6774 26249.5
 14 11 2013  05 17  -21.0186 26014.2 -03506.8 -07.6774 26249.5
 14 11 2013  05 18  -21.0186 26014.3 -03506.8 -07.6774 26249.6
 14 11 2013  05 19  -21.0184 26014.3 -03506.8 -07.6774 26249.6
 14 11 2013  05 20  -21.0184 26014.2 -03506.8 -07.6774 26249.5
 14 11 2013  05 21  -21.0183 26014.3 -03506.8 -07.6773 26249.6
 14 11 2013  05 22  -21.0182 26014.3 -03506.8 -07.6774 26249.6
 14 11 2013  05 23  -21.0182 26014.3 -03506.8 -07.6773 26249.6
 14 11 2013  05 24  -21.0181 26014.3 -03506.8 -07.6773 26249.6
 14 11 2013  05 25  -21.0181 26014.4 -03506.8 -07.6773 26249.7
 14 11 2013  05 26  -21.0181 26014.4 -03506.8 -07.6773 26249.7
 14 11 2013  05 27  -21.0180 26014.4 -03506.8 -07.6773 26249.7
 14 11 2013  05 28  -21.0180 26014.4 -03506.8 -07.6773 26249.7
 14 11 2013  05 29  -21.0180 26014.5 -03506.8 -07.6773 26249.8
 14 11 2013  05 30  -21.0179 26014.5 -03506.8 -07.6774 26249.8
 14 11 2013  05 31  -21.0179 26014.5 -03506.8 -07.6773 26249.8
 14 11 2013  05 32  -21.0180 26014.5 -03506.8 -07.6773 26249.8
 14 11 2013  05 33  -21.0181 26014.5 -03506.8 -07.6773 26249.8
 14 11 2013  05 34  -21.0182 26014.6 -03506.9 -07.6774 26249.9
 14 11 2013  05 35  -21.0182 26014.6 -03506.9 -07.6774 26250.0
 14 11 2013  05 36  -21.0183 26014.7 -03506.9 -07.6774 26250.0
 14 11 2013  05 37  -21.0183 26014.7 -03506.9 -07.6774 26250.0
 14 11 2013  05 38  -21.0184 26014.7 -03506.9 -07.6774 26250.0
 14 11 2013  05 39  -21.0186 26014.8 -03506.9 -07.6774 26250.1
 14 11 2013  05 40  -21.0186 26014.8 -03506.9 -07.6773 26250.1
 14 11 2013  05 41  -21.0186 26014.8 -03506.8 -07.6773 26250.1
 14 11 2013  05 42  -21.0187 26014.8 -03506.8 -07.6772 26250.1
 14 11 2013  05 43  -21.0188 26014.9 -03506.9 -07.6773 26250.2
 14 11 2013  05 44  -21.0189 26014.9 -03506.8 -07.6772 26250.2
 14 11 2013  05 45  -21.0189 26014.9 -03506.8 -07.6771 26250.2
 14 11 2013  05 46  -21.0189 26015.0 -03506.8 -07.6771 26250.3
 14 11 2013  05 47  -21.0189 26015.0 -03506.8 -07.6772 26250.3
 14 11 2013  05 48  -21.0188 26015.1 -03506.8 -07.6771 26250.4
 14 11 2013  05 49  -21.0188 26015.1 -03506.8 -07.6771 26250.4
 14 11 2013  05 50  -21.0188 26015.1 -03506.8 -07.6771 26250.4
 14 11 2013  05 51  -21.0188 26015.2 -03506.8 -07.6771 26250.5
 14 11 2013  05 52  -21.0188 26015.3 -03506.8 -07.6771 26250.6
 14 11 2013  05 53  -21.0187 26015.4 -03506.9 -07.6772 26250.7
 14 11 2013  05 54  -21.0185 26015.5 -03506.8 -07.6771 26250.7
 14 11 2013  05 55  -21.0185 26015.6 -03506.9 -07.6772 26250.9
 14 11 2013  05 56  -21.0183 26015.7 -03507.0 -07.6773 26251.0
 14 11 2013  05 57  -21.0181 26015.7 -03506.9 -07.6772 26251.0
 14 11 2013  05 58  -21.0180 26015.8 -03507.0 -07.6773 26251.1
 14 11 2013  05 59  -21.0177 26015.9 -03507.0 -07.6773 26251.2
 14 11 2013  06 00  -21.0174 26016.0 -03507.0 -07.6772 26251.3
 14 11 2013  06 01  -21.0171 26016.0 -03507.0 -07.6772 26251.3
 14 11 2013  06 02  -21.0171 26016.2 -03507.0 -07.6772 26251.5
 14 11 2013  06 03  -21.0171 26016.3 -03507.1 -07.6774 26251.6
 14 11 2013  06 04  -21.0171 26016.5 -03507.2 -07.6775 26251.8
 14 11 2013  06 05  -21.0173 26016.5 -03507.2 -07.6775 26251.8
 14 11 2013  06 06  -21.0174 26016.5 -03507.2 -07.6775 26251.9
 14 11 2013  06 07  -21.0173 26016.4 -03507.1 -07.6774 26251.7
 14 11 2013  06 08  -21.0168 26016.3 -03507.0 -07.6771 26251.6
 14 11 2013  06 09  -21.0161 26016.1 -03506.8 -07.6769 26251.4
 14 11 2013  06 10  -21.0154 26015.9 -03506.7 -07.6767 26251.2
 14 11 2013  06 11  -21.0152 26015.8 -03506.7 -07.6767 26251.1
 14 11 2013  06 12  -21.0155 26015.8 -03506.7 -07.6768 26251.1
 14 11 2013  06 13  -21.0159 26015.8 -03506.8 -07.6769 26251.1
 14 11 2013  06 14  -21.0162 26015.7 -03506.8 -07.6769 26251.0
 14 11 2013  06 15  -21.0165 26015.7 -03506.8 -07.6769 26251.0
 14 11 2013  06 16  -21.0168 26015.7 -03506.8 -07.6769 26251.0
 14 11 2013  06 17  -21.0171 26015.8 -03506.8 -07.6769 26251.1
 14 11 2013  06 18  -21.0172 26015.8 -03506.8 -07.6769 26251.1
 14 11 2013  06 19  -21.0172 26015.7 -03506.7 -07.6767 26251.0
 14 11 2013  06 20  -21.0173 26015.7 -03506.7 -07.6767 26251.0
 14 11 2013  06 21  -21.0172 26015.7 -03506.7 -07.6767 26250.9
 14 11 2013  06 22  -21.0173 26015.6 -03506.6 -07.6766 26250.9
 14 11 2013  06 23  -21.0175 26015.5 -03506.6 -07.6765 26250.8
 14 11 2013  06 24  -21.0178 26015.5 -03506.6 -07.6766 26250.8
 14 11 2013  06 25  -21.0180 26015.5 -03506.6 -07.6765 26250.8
 14 11 2013  06 26  -21.0180 26015.5 -03506.6 -07.6765 26250.8
 14 11 2013  06 27  -21.0182 26015.5 -03506.6 -07.6765 26250.8
 14 11 2013  06 28  -21.0182 26015.6 -03506.6 -07.6766 26250.9
 14 11 2013  06 29  -21.0181 26015.6 -03506.6 -07.6765 26250.9
 14 11 2013  06 30  -21.0181 26015.5 -03506.6 -07.6764 26250.8
 14 11 2013  06 31  -21.0181 26015.5 -03506.6 -07.6765 26250.8
 14 11 2013  06 32  -21.0180 26015.5 -03506.5 -07.6764 26250.8
 14 11 2013  06 33  -21.0182 26015.6 -03506.5 -07.6764 26250.9
 14 11 2013  06 34  -21.0183 26015.7 -03506.6 -07.6765 26250.9
 14 11 2013  06 35  -21.0184 26015.7 -03506.6 -07.6766 26251.0
 14 11 2013  06 36  -21.0183 26015.8 -03506.7 -07.6766 26251.0
 14 11 2013  06 37  -21.0182 26015.7 -03506.6 -07.6765 26251.0
 14 11 2013  06 38  -21.0181 26015.8 -03506.6 -07.6765 26251.0
 14 11 2013  06 39  -21.0180 26015.9 -03506.6 -07.6765 26251.1
 14 11 2013  06 40  -21.0179 26016.1 -03506.7 -07.6766 26251.3
 14 11 2013  06 41  -21.0176 26016.2 -03506.8 -07.6767 26251.5
 14 11 2013  06 42  -21.0175 26016.3 -03506.8 -07.6768 26251.6
 14 11 2013  06 43  -21.0174 26016.5 -03506.9 -07.6770 26251.8
 14 11 2013  06 44  -21.0172 26016.8 -03507.1 -07.6772 26252.1
 14 11 2013  06 45  -21.0169 26017.0 -03507.1 -07.6772 26252.3
 14 11 2013  06 46  -21.0167 26017.2 -03507.1 -07.6772 26252.5
 14 11 2013  06 47  -21.0167 26017.3 -03507.2 -07.6773 26252.6
 14 11 2013  06 48  -21.0165 26017.6 -03507.3 -07.6775 26252.9
 14 11 2013  06 49  -21.0162 26017.6 -03507.3 -07.6775 26252.9
 14 11 2013  06 50  -21.0159 26017.6 -03507.3 -07.6774 26253.0
 14 11 2013  06 51  -21.0157 26017.8 -03507.4 -07.6776 26253.1
 14 11 2013  06 52  -21.0156 26017.8 -03507.4 -07.6775 26253.1
 14 11 2013  06 53  -21.0155 26017.8 -03507.4 -07.6775 26253.2
 14 11 2013  06 54  -21.0154 26018.0 -03507.4 -07.6776 26253.3
 14 11 2013  06 55  -21.0151 26017.9 -03507.4 -07.6776 26253.3
 14 11 2013  06 56  -21.0148 26017.9 -03507.4 -07.6776 26253.3
 14 11 2013  06 57  -21.0146 26017.8 -03507.4 -07.6775 26253.2
 14 11 2013  06 58  -21.0145 26017.8 -03507.3 -07.6775 26253.1
 14 11 2013  06 59  -21.0146 26017.8 -03507.4 -07.6775 26253.1
 14 11 2013  07 00  -21.0147 26017.8 -03507.4 -07.6777 26253.2
 14 11 2013  07 01  -21.0148 26017.9 -03507.5 -07.6778 26253.3
 14 11 2013  07 02  -21.0149 26018.0 -03507.5 -07.6778 26253.4
 14 11 2013  07 03  -21.0151 26018.0 -03507.5 -07.6779 26253.4
 14 11 2013  07 04  -21.0155 26018.1 -03507.6 -07.6779 26253.5
 14 11 2013  07 05  -21.0159 26018.1 -03507.5 -07.6778 26253.5
 14 11 2013  07 06  -21.0163 26018.1 -03507.5 -07.6778 26253.4
 14 11 2013  07 07  -21.0166 26018.0 -03507.4 -07.6776 26253.3
 14 11 2013  07 08  -21.0169 26018.0 -03507.4 -07.6776 26253.4
 14 11 2013  07 09  -21.0170 26018.1 -03507.4 -07.6775 26253.5
 14 11 2013  07 10  -21.0171 26018.1 -03507.4 -07.6774 26253.5
 14 11 2013  07 11  -21.0171 26018.1 -03507.3 -07.6773 26253.5
 14 11 2013  07 12  -21.0170 26018.1 -03507.3 -07.6773 26253.5
 14 11 2013  07 13  -21.0167 26018.1 -03507.2 -07.6771 26253.4
 14 11 2013  07 14  -21.0166 26018.1 -03507.2 -07.6770 26253.4
 14 11 2013  07 15  -21.0164 26018.1 -03507.2 -07.6770 26253.4
 14 11 2013  07 16  -21.0162 26018.0 -03507.1 -07.6770 26253.3
 14 11 2013  07 17  -21.0161 26018.0 -03507.1 -07.6769 26253.3
 14 11 2013  07 18  -21.0162 26018.0 -03507.1 -07.6770 26253.3
 14 11 2013  07 19  -21.0164 26017.9 -03507.1 -07.6770 26253.2
 14 11 2013  07 20  -21.0166 26017.8 -03507.1 -07.6769 26253.1
 14 11 2013  07 21  -21.0165 26017.5 -03506.9 -07.6766 26252.7
 14 11 2013  07 22  -21.0168 26017.2 -03506.8 -07.6765 26252.5
 14 11 2013  07 23  -21.0171 26017.2 -03506.8 -07.6765 26252.4
 14 11 2013  07 24  -21.0169 26017.0 -03506.7 -07.6764 26252.3
 14 11 2013  07 25  -21.0172 26017.1 -03506.8 -07.6764 26252.4
 14 11 2013  07 26  -21.0170 26017.0 -03506.7 -07.6764 26252.3
 14 11 2013  07 27  -21.0170 26016.9 -03506.7 -07.6764 26252.1
 14 11 2013  07 28  -21.0172 26016.9 -03506.7 -07.6764 26252.2
 14 11 2013  07 29  -21.0175 26016.9 -03506.7 -07.6764 26252.2
 14 11 2013  07 30  -21.0179 26016.9 -03506.8 -07.6765 26252.1
 14 11 2013  07 31  -21.0182 26016.9 -03506.8 -07.6766 26252.2
 14 11 2013  07 32  -21.0184 26016.9 -03506.8 -07.6767 26252.2
 14 11 2013  07 33  -21.0184 26016.9 -03506.8 -07.6766 26252.2
 14 11 2013  07 34  -21.0184 26016.9 -03506.8 -07.6767 26252.2
 14 11 2013  07 35  -21.0186 26016.9 -03506.8 -07.6766 26252.2
 14 11 2013  07 36  -21.0186 26016.9 -03506.9 -07.6767 26252.2
 14 11 2013  07 37  -21.0188 26017.0 -03506.8 -07.6766 26252.3
 14 11 2013  07 38  -21.0188 26017.1 -03506.8 -07.6766 26252.3
 14 11 2013  07 39  -21.0188 26017.1 -03506.9 -07.6767 26252.4
 14 11 2013  07 40  -21.0189 26017.1 -03506.9 -07.6768 26252.4
 14 11 2013  07 41  -21.0190 26017.1 -03506.9 -07.6768 26252.4
 14 11 2013  07 42  -21.0191 26017.1 -03506.9 -07.6768 26252.4
 14 11 2013  07 43  -21.0191 26017.1 -03507.0 -07.6768 26252.4
 14 11 2013  07 44  -21.0191 26017.1 -03507.0 -07.6769 26252.4
 14 11 2013  07 45  -21.0191 26017.1 -03506.9 -07.6768 26252.4
 14 11 2013  07 46  -21.0190 26017.0 -03506.9 -07.6768 26252.3
 14 11 2013  07 47  -21.0192 26017.0 -03506.9 -07.6767 26252.2
 14 11 2013  07 48  -21.0191 26016.9 -03506.9 -07.6767 26252.1
 14 11 2013  07 49  -21.0191 26016.7 -03506.8 -07.6767 26252.0
 14 11 2013  07 50  -21.0191 26016.6 -03506.8 -07.6766 26251.9
 14 11 2013  07 51  -21.0192 26016.5 -03506.7 -07.6765 26251.8
 14 11 2013  07 52  -21.0192 26016.5 -03506.7 -07.6765 26251.7
 14 11 2013  07 53  -21.0193 26016.4 -03506.7 -07.6765 26251.7
 14 11 2013  07 54  -21.0193 26016.4 -03506.7 -07.6766 26251.7
 14 11 2013  07 55  -21.0193 26016.3 -03506.7 -07.6766 26251.6
 14 11 2013  07 56  -21.0193 26016.3 -03506.7 -07.6766 26251.5
 14 11 2013  07 57  -21.0195 26016.3 -03506.8 -07.6767 26251.6
 14 11 2013  07 58  -21.0198 26016.4 -03506.9 -07.6769 26251.7
 14 11 2013  07 59  -21.0202 26016.6 -03507.0 -07.6771 26251.9
 14 11 2013  08 00  -21.0205 26016.6 -03507.0 -07.6772 26251.9
 14 11 2013  08 01  -21.0208 26016.7 -03507.1 -07.6772 26252.1
 14 11 2013  08 02  -21.0209 26016.8 -03507.0 -07.6771 26252.1
 14 11 2013  08 03  -21.0210 26016.8 -03507.0 -07.6771 26252.1
 14 11 2013  08 04  -21.0211 26016.8 -03507.0 -07.6769 26252.1
 14 11 2013  08 05  -21.0213 26016.8 -03507.0 -07.6769 26252.1
 14 11 2013  08 06  -21.0216 26016.7 -03506.9 -07.6769 26252.0
 14 11 2013  08 07  -21.0208 26016.7 -03506.8 -07.6766 26252.0
 14 11 2013  08 08  -21.0199 26016.5 -03506.6 -07.6762 26251.7
 14 11 2013  08 09  -21.0197 26016.4 -03506.5 -07.6762 26251.6
 14 11 2013  08 10  -21.0197 26016.3 -03506.5 -07.6761 26251.6
 14 11 2013  08 11  -21.0197 26016.4 -03506.5 -07.6762 26251.6
 14 11 2013  08 12  -21.0195 26016.4 -03506.6 -07.6762 26251.6
 14 11 2013  08 13  -21.0197 26016.5 -03506.6 -07.6763 26251.7
 14 11 2013  08 14  -21.0200 26016.5 -03506.7 -07.6764 26251.8
 14 11 2013  08 15  -21.0201 26016.5 -03506.6 -07.6763 26251.8
 14 11 2013  08 16  -21.0201 26016.5 -03506.6 -07.6762 26251.8
 14 11 2013  08 17  -21.0201 26016.5 -03506.6 -07.6762 26251.8
 14 11 2013  08 18  -21.0198 26016.6 -03506.5 -07.6761 26251.8
 14 11 2013  08 19  -21.0199 26016.6 -03506.5 -07.6760 26251.9
 14 11 2013  08 20  -21.0198 26016.7 -03506.5 -07.6759 26251.9
 14 11 2013  08 21  -21.0198 26016.6 -03506.4 -07.6757 26251.9
 14 11 2013  08 22  -21.0198 26016.7 -03506.4 -07.6758 26251.9
 14 11 2013  08 23  -21.0198 26016.6 -03506.3 -07.6756 26251.8
 14 11 2013  08 24  -21.0198 26016.6 -03506.2 -07.6754 26251.8
 14 11 2013  08 25  -21.0197 26016.5 -03506.2 -07.6754 26251.7
 14 11 2013  08 26  -21.0196 26016.6 -03506.2 -07.6754 26251.8
 14 11 2013  08 27  -21.0196 26016.6 -03506.2 -07.6753 26251.8
 14 11 2013  08 28  -21.0196 26016.6 -03506.2 -07.6753 26251.8
 14 11 2013  08 29  -21.0194 26016.6 -03506.1 -07.6752 26251.8
 14 11 2013  08 30  -21.0195 26016.5 -03506.1 -07.6752 26251.7
 14 11 2013  08 31  -21.0194 26016.4 -03506.1 -07.6751 26251.6
 14 11 2013  08 32  -21.0193 26016.5 -03506.1 -07.6752 26251.7
 14 11 2013  08 33  -21.0192 26016.4 -03506.1 -07.6752 26251.6
 14 11 2013  08 34  -21.0191 26016.5 -03506.2 -07.6753 26251.7
 14 11 2013  08 35  -21.0191 26016.5 -03506.2 -07.6753 26251.7
 14 11 2013  08 36  -21.0192 26016.4 -03506.2 -07.6754 26251.6
 14 11 2013  08 37  -21.0190 26016.4 -03506.2 -07.6755 26251.7
 14 11 2013  08 38  -21.0190 26016.6 -03506.3 -07.6756 26251.8
 14 11 2013  08 39  -21.0188 26016.6 -03506.2 -07.6754 26251.8
 14 11 2013  08 40  -21.0187 26016.6 -03506.4 -07.6757 26251.8
 14 11 2013  08 41  -21.0188 26016.7 -03506.5 -07.6760 26252.0
 14 11 2013  08 42  -21.0189 26016.8 -03506.6 -07.6761 26252.0
 14 11 2013  08 43  -21.0190 26016.7 -03506.5 -07.6760 26251.9
 14 11 2013  08 44  -21.0191 26016.8 -03506.6 -07.6762 26252.1
 14 11 2013  08 45  -21.0195 26016.9 -03506.7 -07.6764 26252.2
 14 11 2013  08 46  -21.0194 26017.1 -03506.8 -07.6766 26252.4
 14 11 2013  08 47  -21.0196 26017.0 -03506.8 -07.6766 26252.3
 14 11 2013  08 48  -21.0201 26017.3 -03506.9 -07.6767 26252.6
 14 11 2013  08 49  -21.0207 26017.3 -03506.9 -07.6767 26252.6
 14 11 2013  08 50  -21.0210 26017.3 -03506.9 -07.6767 26252.6
 14 11 2013  08 51  -21.0212 26017.3 -03506.9 -07.6766 26252.6
 14 11 2013  08 52  -21.0218 26017.3 -03506.9 -07.6766 26252.6
 14 11 2013  08 53  -21.0220 26017.4 -03506.8 -07.6765 26252.6
 14 11 2013  08 54  -21.0223 26017.5 -03506.8 -07.6765 26252.8
 14 11 2013  08 55  -21.0224 26017.5 -03506.8 -07.6765 26252.8
 14 11 2013  08 56  -21.0228 26017.5 -03506.8 -07.6764 26252.8
 14 11 2013  08 57  -21.0232 26017.5 -03506.7 -07.6763 26252.8
 14 11 2013  08 58  -21.0237 26017.5 -03506.6 -07.6760 26252.8
 14 11 2013  08 59  -21.0242 26017.6 -03506.7 -07.6760 26252.9
 14 11 2013  09 00  -21.0245 26017.8 -03506.7 -07.6760 26253.0
 14 11 2013  09 01  -21.0248 26017.9 -03506.7 -07.6760 26253.2
 14 11 2013  09 02  -21.0254 26018.1 -03506.7 -07.6760 26253.3
 14 11 2013  09 03  -21.0259 26018.2 -03506.7 -07.6760 26253.4
 14 11 2013  09 04  -21.0267 26018.3 -03506.7 -07.6759 26253.6
 14 11 2013  09 05  -21.0275 26018.5 -03506.7 -07.6758 26253.7
 14 11 2013  09 06  -21.0282 26018.5 -03506.6 -07.6757 26253.8
 14 11 2013  09 07  -21.0283 26018.5 -03506.4 -07.6753 26253.7
 14 11 2013  09 08  -21.0285 26018.5 -03506.3 -07.6750 26253.6
 14 11 2013  09 09  -21.0287 26018.6 -03506.2 -07.6748 26253.8
 14 11 2013  09 10  -21.0292 26018.8 -03506.1 -07.6745 26253.9
 14 11 2013  09 11  -21.0297 26019.1 -03506.2 -07.6745 26254.3
 14 11 2013  09 12  -21.0298 26019.2 -03506.1 -07.6743 26254.4
 14 11 2013  09 13  -21.0298 26019.3 -03505.9 -07.6740 26254.4
 14 11 2013  09 14  -21.0301 26019.3 -03505.7 -07.6734 26254.4
 14 11 2013  09 15  -21.0306 26019.4 -03505.8 -07.6737 26254.5
 14 11 2013  09 16  -21.0308 26019.5 -03505.8 -07.6737 26254.6
 14 11 2013  09 17  -21.0308 26019.6 -03505.7 -07.6735 26254.7
 14 11 2013  09 18  -21.0309 26019.8 -03505.7 -07.6733 26254.9
 14 11 2013  09 19  -21.0310 26019.9 -03505.7 -07.6732 26255.0
 14 11 2013  09 20  -21.0309 26020.0 -03505.6 -07.6730 26255.1
 14 11 2013  09 21  -21.0311 26020.2 -03505.6 -07.6730 26255.3
 14 11 2013  09 22  -21.0311 26020.3 -03505.5 -07.6727 26255.4
 14 11 2013  09 23  -21.0313 26020.3 -03505.4 -07.6725 26255.3
 14 11 2013  09 24  -21.0316 26020.3 -03505.2 -07.6721 26255.3
 14 11 2013  09 25  -21.0320 26020.3 -03505.0 -07.6718 26255.3
 14 11 2013  09 26  -21.0327 26020.3 -03504.9 -07.6715 26255.3
 14 11 2013  09 27  -21.0333 26020.5 -03504.9 -07.6713 26255.5
 14 11 2013  09 28  -21.0333 26020.3 -03504.6 -07.6709 26255.3
 14 11 2013  09 29  -21.0328 26020.2 -03504.4 -07.6704 26255.2
 14 11 2013  09 30  -21.0323 26020.2 -03504.2 -07.6701 26255.1
 14 11 2013  09 31  -21.0339 26020.2 -03504.3 -07.6701 26255.1
 14 11 2013  09 32  -21.0345 26020.1 -03504.1 -07.6699 26255.0
 14 11 2013  09 33  -21.0348 26020.6 -03504.3 -07.6700 26255.5
 14 11 2013  09 34  -21.0348 26020.5 -03504.1 -07.6698 26255.4
 14 11 2013  09 35  -21.0349 26020.7 -03504.1 -07.6696 26255.6
 14 11 2013  09 36  -21.0348 26020.5 -03503.9 -07.6692 26255.4
 14 11 2013  09 37  -21.0346 26020.2 -03503.6 -07.6687 26255.0
 14 11 2013  09 38  -21.0345 26020.3 -03503.6 -07.6686 26255.2
 14 11 2013  09 39  -21.0345 26020.5 -03503.6 -07.6685 26255.3
 14 11 2013  09 40  -21.0343 26020.7 -03503.6 -07.6685 26255.5
 14 11 2013  09 41  -21.0344 26021.0 -03503.6 -07.6685 26255.9
 14 11 2013  09 42  -21.0348 26021.3 -03503.6 -07.6684 26256.1
 14 11 2013  09 43  -21.0342 26021.2 -03503.5 -07.6682 26256.0
 14 11 2013  09 44  -21.0342 26021.0 -03503.3 -07.6678 26255.8
 14 11 2013  09 45  -21.0344 26021.2 -03503.3 -07.6678 26256.0
 14 11 2013  09 46  -21.0345 26021.1 -03503.2 -07.6676 26255.9
 14 11 2013  09 47  -21.0345 26021.0 -03503.1 -07.6673 26255.8
 14 11 2013  09 48  -21.0353 26021.4 -03503.1 -07.6673 26256.2
 14 11 2013  09 49  -21.0345 26021.6 -03503.1 -07.6671 26256.3
 14 11 2013  09 50  -21.0351 26021.6 -03503.0 -07.6670 26256.3
 14 11 2013  09 51  -21.0350 26021.7 -03503.0 -07.6669 26256.5
 14 11 2013  09 52  -21.0352 26022.0 -03503.0 -07.6669 26256.7
 14 11 2013  09 53  -21.0350 26022.1 -03503.0 -07.6668 26256.8
 14 11 2013  09 54  -21.0354 26022.3 -03503.0 -07.6668 26257.0
 14 11 2013  09 55  -21.0349 26022.2 -03502.9 -07.6666 26257.0
 14 11 2013  09 56  -21.0348 26022.3 -03502.9 -07.6666 26257.0
 14 11 2013  09 57  -21.0347 26022.4 -03502.9 -07.6665 26257.1
 14 11 2013  09 58  -21.0354 26023.0 -03503.1 -07.6668 26257.7
 14 11 2013  09 59  -21.0355 26023.1 -03503.0 -07.6666 26257.8
 14 11 2013  10 00  -21.0361 26023.4 -03503.0 -07.6665 26258.1
 14 11 2013  10 01  -21.0364 26023.7 -03503.0 -07.6664 26258.4
 14 11 2013  10 02  -21.0359 26023.4 -03502.8 -07.6660 26258.1
 14 11 2013  10 03  -21.0358 26023.1 -03502.6 -07.6657 26257.8
 14 11 2013  10 04  -21.0350 26023.2 -03502.6 -07.6656 26257.8
 14 11 2013  10 05  -21.0346 26023.3 -03502.6 -07.6657 26258.0
 14 11 2013  10 06  -21.0344 26023.6 -03502.8 -07.6659 26258.2
 14 11 2013  10 07  -21.0342 26023.4 -03502.7 -07.6658 26258.1
 14 11 2013  10 08  -21.0345 26023.5 -03502.7 -07.6658 26258.2
 14 11 2013  10 09  -21.0345 26023.7 -03502.8 -07.6658 26258.4
 14 11 2013  10 10  -21.0346 26023.9 -03502.8 -07.6659 26258.6
 14 11 2013  10 11  -21.0347 26024.3 -03502.9 -07.6660 26258.9
 14 11 2013  10 12  -21.0348 26024.6 -03502.9 -07.6660 26259.3
 14 11 2013  10 13  -21.0347 26024.8 -03502.9 -07.6659 26259.5
 14 11 2013  10 14  -21.0347 26024.9 -03502.9 -07.6657 26259.5
 14 11 2013  10 15  -21.0349 26025.1 -03502.8 -07.6655 26259.7
 14 11 2013  10 16  -21.0349 26025.3 -03502.7 -07.6654 26259.9
 14 11 2013  10 17  -21.0346 26025.1 -03502.5 -07.6649 26259.7
 14 11 2013  10 18  -21.0339 26024.8 -03502.3 -07.6646 26259.4
 14 11 2013  10 19  -21.0338 26024.9 -03502.4 -07.6647 26259.5
 14 11 2013  10 20  -21.0341 26025.1 -03502.4 -07.6648 26259.7
 14 11 2013  10 21  -21.0341 26025.1 -03502.4 -07.6647 26259.7
 14 11 2013  10 22  -21.0338 26025.0 -03502.3 -07.6645 26259.6
 14 11 2013  10 23  -21.0337 26024.9 -03502.3 -07.6644 26259.5
 14 11 2013  10 24  -21.0336 26024.9 -03502.2 -07.6644 26259.4
 14 11 2013  10 25  -21.0335 26024.9 -03502.3 -07.6645 26259.5
 14 11 2013  10 26  -21.0340 26025.1 -03502.3 -07.6645 26259.7
 14 11 2013  10 27  -21.0347 26025.7 -03502.5 -07.6648 26260.3
 14 11 2013  10 28  -21.0348 26026.0 -03502.5 -07.6647 26260.6
 14 11 2013  10 29  -21.0354 26026.2 -03502.4 -07.6644 26260.8
 14 11 2013  10 30  -21.0355 26026.3 -03502.3 -07.6640 26260.9
 14 11 2013  10 31  -21.0356 26025.9 -03501.9 -07.6634 26260.4
 14 11 2013  10 32  -21.0354 26025.4 -03501.6 -07.6629 26259.9
 14 11 2013  10 33  -21.0349 26025.3 -03501.4 -07.6626 26259.7
 14 11 2013  10 34  -21.0340 26025.0 -03501.3 -07.6623 26259.5
 14 11 2013  10 35  -21.0336 26024.8 -03501.2 -07.6621 26259.3
 14 11 2013  10 36  -21.0338 26025.2 -03501.3 -07.6624 26259.7
 14 11 2013  10 37  -21.0339 26025.6 -03501.5 -07.6626 26260.1
 14 11 2013  10 38  -21.0338 26025.8 -03501.5 -07.6626 26260.2
 14 11 2013  10 39  -21.0339 26026.2 -03501.6 -07.6626 26260.7
 14 11 2013  10 40  -21.0337 26026.6 -03501.7 -07.6626 26261.1
 14 11 2013  10 41  -21.0335 26027.0 -03501.7 -07.6625 26261.5
 14 11 2013  10 42  -21.0332 26027.2 -03501.6 -07.6624 26261.7
 14 11 2013  10 43  -21.0332 26027.4 -03501.5 -07.6621 26261.9
 14 11 2013  10 44  -21.0333 26027.9 -03501.6 -07.6621 26262.3
 14 11 2013  10 45  -21.0339 26028.0 -03501.5 -07.6619 26262.5
 14 11 2013  10 46  -21.0332 26028.1 -03501.4 -07.6617 26262.5
 14 11 2013  10 47  -21.0330 26027.9 -03501.2 -07.6613 26262.3
 14 11 2013  10 48  -21.0334 26028.2 -03501.3 -07.6614 26262.6
 14 11 2013  10 49  -21.0338 26028.7 -03501.4 -07.6615 26263.1
 14 11 2013  10 50  -21.0344 26029.2 -03501.5 -07.6616 26263.7
 14 11 2013  10 51  -21.0347 26029.9 -03501.6 -07.6616 26264.4
 14 11 2013  10 52  -21.0349 26030.6 -03501.7 -07.6615 26265.1
 14 11 2013  10 53  -21.0349 26030.7 -03501.5 -07.6611 26265.2
 14 11 2013  10 54  -21.0350 26030.6 -03501.2 -07.6606 26265.0
 14 11 2013  10 55  -21.0347 26030.4 -03501.0 -07.6600 26264.8
 14 11 2013  10 56  -21.0342 26030.2 -03500.8 -07.6596 26264.6
 14 11 2013  10 57  -21.0337 26030.3 -03500.7 -07.6596 26264.6
 14 11 2013  10 58  -21.0332 26030.1 -03500.7 -07.6596 26264.5
 14 11 2013  10 59  -21.0329 26030.2 -03500.7 -07.6596 26264.5
 14 11 2013  11 00  -21.0330 26030.4 -03500.9 -07.6598 26264.8
 14 11 2013  11 01  -21.0329 26030.7 -03500.9 -07.6598 26265.0
 14 11 2013  11 02  -21.0336 26031.3 -03501.1 -07.6600 26265.7
 14 11 2013  11 03  -21.0338 26031.9 -03501.2 -07.6601 26266.3
 14 11 2013  11 04  -21.0340 26032.4 -03501.3 -07.6601 26266.8
 14 11 2013  11 05  -21.0341 26033.0 -03501.3 -07.6599 26267.4
 14 11 2013  11 06  -21.0343 26033.5 -03501.3 -07.6598 26267.9
 14 11 2013  11 07  -21.0343 26033.8 -03501.2 -07.6595 26268.2
 14 11 2013  11 08  -21.0344 26033.9 -03501.1 -07.6593 26268.3
 14 11 2013  11 09  -21.0341 26034.2 -03501.0 -07.6590 26268.6
 14 11 2013  11 10  -21.0335 26034.1 -03500.9 -07.6588 26268.5
 14 11 2013  11 11  -21.0328 26033.9 -03500.7 -07.6585 26268.2
 14 11 2013  11 12  -21.0324 26033.7 -03500.6 -07.6583 26268.0
 14 11 2013  11 13  -21.0323 26033.9 -03500.7 -07.6584 26268.2
 14 11 2013  11 14  -21.0320 26034.4 -03500.9 -07.6587 26268.7
 14 11 2013  11 15  -21.0316 26034.9 -03501.1 -07.6589 26269.2
 14 11 2013  11 16  -21.0312 26035.2 -03501.1 -07.6589 26269.5
 14 11 2013  11 17  -21.0310 26035.6 -03501.1 -07.6588 26269.9
 14 11 2013  11 18  -21.0308 26036.2 -03501.2 -07.6588 26270.5
 14 11 2013  11 19  -21.0309 26036.6 -03501.2 -07.6587 26271.0
 14 11 2013  11 20  -21.0308 26037.1 -03501.2 -07.6585 26271.4
 14 11 2013  11 21  -21.0310 26037.6 -03501.2 -07.6585 26271.9
 14 11 2013  11 22  -21.0315 26038.1 -03501.2 -07.6584 26272.4
 14 11 2013  11 23  -21.0320 26038.5 -03501.3 -07.6583 26272.8
 14 11 2013  11 24  -21.0323 26038.6 -03501.1 -07.6579 26272.9
 14 11 2013  11 25  -21.0322 26038.3 -03500.8 -07.6574 26272.6
 14 11 2013  11 26  -21.0319 26038.1 -03500.6 -07.6571 26272.4
 14 11 2013  11 27  -21.0317 26038.1 -03500.6 -07.6569 26272.3
 14 11 2013  11 28  -21.0316 26038.2 -03500.6 -07.6569 26272.4
 14 11 2013  11 29  -21.0312 26038.2 -03500.6 -07.6569 26272.5
 14 11 2013  11 30  -21.0312 26038.3 -03500.6 -07.6568 26272.6
 14 11 2013  11 31  -21.0312 26038.6 -03500.7 -07.6570 26272.9
 14 11 2013  11 32  -21.0312 26039.0 -03500.7 -07.6571 26273.2
 14 11 2013  11 33  -21.0317 26039.2 -03500.8 -07.6571 26273.5
 14 11 2013  11 34  -21.0315 26039.1 -03500.7 -07.6569 26273.4
 14 11 2013  11 35  -21.0313 26038.9 -03500.5 -07.6566 26273.2
 14 11 2013  11 36  -21.0312 26038.9 -03500.5 -07.6565 26273.1
 14 11 2013  11 37  -21.0310 26038.6 -03500.3 -07.6562 26272.8
 14 11 2013  11 38  -21.0317 26038.9 -03500.5 -07.6565 26273.1
 14 11 2013  11 39  -21.0314 26039.2 -03500.6 -07.6567 26273.5
 14 11 2013  11 40  -21.0318 26039.9 -03500.8 -07.6570 26274.1
 14 11 2013  11 41  -21.0321 26040.2 -03500.9 -07.6570 26274.5
 14 11 2013  11 42  -21.0323 26041.0 -03501.1 -07.6572 26275.3
 14 11 2013  11 43  -21.0320 26041.5 -03501.1 -07.6571 26275.8
 14 11 2013  11 44  -21.0321 26042.1 -03501.2 -07.6572 26276.4
 14 11 2013  11 45  -21.0322 26042.5 -03501.2 -07.6570 26276.8
 14 11 2013  11 46  -21.0320 26043.0 -03501.2 -07.6569 26277.3
 14 11 2013  11 47  -21.0317 26043.6 -03501.3 -07.6568 26277.9
 14 11 2013  11 48  -21.0319 26044.3 -03501.3 -07.6568 26278.6
 14 11 2013  11 49  -21.0318 26044.2 -03501.1 -07.6563 26278.5
 14 11 2013  11 50  -21.0322 26044.0 -03500.8 -07.6556 26278.2
 14 11 2013  11 51  -21.0333 26045.0 -03501.1 -07.6561 26279.3
 14 11 2013  11 52  -21.0330 26045.9 -03501.3 -07.6562 26280.2
 14 11 2013  11 53  -21.0335 26046.4 -03501.2 -07.6559 26280.7
 14 11 2013  11 54  -21.0338 26047.1 -03501.2 -07.6557 26281.4
 14 11 2013  11 55  -21.0332 26047.5 -03501.0 -07.6551 26281.7
 14 11 2013  11 56  -21.0338 26047.7 -03500.8 -07.6546 26281.9
 14 11 2013  11 57  -21.0341 26047.8 -03500.6 -07.6542 26282.0
 14 11 2013  11 58  -21.0339 26047.7 -03500.3 -07.6536 26281.9
 14 11 2013  11 59  -21.0334 26047.6 -03500.1 -07.6531 26281.7
 14 11 2013  12 00  -21.0330 26047.9 -03500.1 -07.6530 26282.0
 14 11 2013  12 01  -21.0321 26048.4 -03500.1 -07.6528 26282.5
 14 11 2013  12 02  -21.0320 26049.5 -03500.3 -07.6531 26283.6
 14 11 2013  12 03  -21.0319 26049.9 -03500.2 -07.6528 26284.0
 14 11 2013  12 04  -21.0324 26050.7 -03500.3 -07.6526 26284.8
 14 11 2013  12 05  -21.0328 26051.4 -03500.3 -07.6524 26285.5
 14 11 2013  12 06  -21.0328 26052.2 -03500.3 -07.6522 26286.3
 14 11 2013  12 07  -21.0331 26052.6 -03500.0 -07.6516 26286.6
 14 11 2013  12 08  -21.0335 26052.9 -03499.8 -07.6510 26287.0
 14 11 2013  12 09  -21.0334 26052.7 -03499.4 -07.6502 26286.7
 14 11 2013  12 10  -21.0334 26052.7 -03499.1 -07.6495 26286.6
 14 11 2013  12 11  -21.0334 26053.0 -03499.0 -07.6492 26286.9
 14 11 2013  12 12  -21.0334 26053.0 -03498.8 -07.6488 26286.9
 14 11 2013  12 13  -21.0333 26052.7 -03498.5 -07.6481 26286.6
 14 11 2013  12 14  -21.0329 26052.9 -03498.4 -07.6479 26286.7
 14 11 2013  12 15  -21.0325 26052.9 -03498.2 -07.6476 26286.7
 14 11 2013  12 16  -21.0329 26053.3 -03498.3 -07.6475 26287.1
 14 11 2013  12 17  -21.0336 26054.0 -03498.4 -07.6475 26287.8
 14 11 2013  12 18  -21.0338 26054.3 -03498.2 -07.6472 26288.1
 14 11 2013  12 19  -21.0342 26054.5 -03498.0 -07.6466 26288.2
 14 11 2013  12 20  -21.0356 26055.0 -03497.9 -07.6463 26288.8
 14 11 2013  12 21  -21.0362 26054.9 -03497.6 -07.6457 26288.6
 14 11 2013  12 22  -21.0367 26054.6 -03497.2 -07.6448 26288.2
 14 11 2013  12 23  -21.0372 26054.3 -03496.8 -07.6442 26287.9
 14 11 2013  12 24  -21.0380 26054.7 -03496.8 -07.6440 26288.3
 14 11 2013  12 25  -21.0382 26054.3 -03496.5 -07.6434 26287.9
 14 11 2013  12 26  -21.0380 26054.2 -03496.3 -07.6430 26287.8
 14 11 2013  12 27  -21.0375 26053.9 -03496.0 -07.6425 26287.4
 14 11 2013  12 28  -21.0373 26054.7 -03496.3 -07.6428 26288.2
 14 11 2013  12 29  -21.0370 26055.4 -03496.4 -07.6429 26289.0
 14 11 2013  12 30  -21.0368 26056.2 -03496.5 -07.6429 26289.8
 14 11 2013  12 31  -21.0369 26057.0 -03496.6 -07.6429 26290.6
 14 11 2013  12 32  -21.0367 26058.4 -03496.9 -07.6431 26292.0
 14 11 2013  12 33  -21.0372 26059.6 -03497.0 -07.6429 26293.2
 14 11 2013  12 34  -21.0377 26060.9 -03497.0 -07.6426 26294.5
 14 11 2013  12 35  -21.0383 26062.0 -03496.9 -07.6420 26295.6
 14 11 2013  12 36  -21.0388 26062.6 -03496.6 -07.6412 26296.1
 14 11 2013  12 37  -21.0392 26062.5 -03495.9 -07.6398 26295.9
 14 11 2013  12 38  -21.0394 26062.0 -03495.2 -07.6385 26295.4
 14 11 2013  12 39  -21.0395 26061.6 -03494.7 -07.6374 26294.8
 14 11 2013  12 40  -21.0396 26061.3 -03494.3 -07.6367 26294.5
 14 11 2013  12 41  -21.0396 26061.9 -03494.3 -07.6365 26295.2
 14 11 2013  12 42  -21.0397 26062.8 -03494.4 -07.6365 26296.0
 14 11 2013  12 43  -21.0397 26063.6 -03494.4 -07.6362 26296.8
 14 11 2013  12 44  -21.0395 26064.1 -03494.2 -07.6357 26297.3
 14 11 2013  12 45  -21.0392 26064.4 -03494.0 -07.6350 26297.5
 14 11 2013  12 46  -21.0389 26064.8 -03493.8 -07.6345 26297.9
 14 11 2013  12 47  -21.0383 26065.0 -03493.5 -07.6338 26298.0
 14 11 2013  12 48  -21.0380 26065.2 -03493.2 -07.6332 26298.2
 14 11 2013  12 49  -21.0378 26065.6 -03493.1 -07.6328 26298.6
 14 11 2013  12 50  -21.0378 26066.1 -03493.0 -07.6324 26299.1
 14 11 2013  12 51  -21.0377 26066.7 -03492.9 -07.6320 26299.7
 14 11 2013  12 52  -21.0377 26067.3 -03492.7 -07.6315 26300.2
 14 11 2013  12 53  -21.0378 26067.5 -03492.5 -07.6310 26300.4
 14 11 2013  12 54  -21.0378 26067.5 -03492.2 -07.6302 26300.4
 14 11 2013  12 55  -21.0378 26067.5 -03491.9 -07.6296 26300.3
 14 11 2013  12 56  -21.0382 26067.2 -03491.6 -07.6290 26300.0
 14 11 2013  12 57  -21.0382 26066.8 -03491.2 -07.6283 26299.6
 14 11 2013  12 58  -21.0384 26066.6 -03491.0 -07.6279 26299.3
 14 11 2013  12 59  -21.0384 26066.8 -03490.9 -07.6278 26299.5
 14 11 2013  13 00  -21.0383 26066.8 -03490.8 -07.6275 26299.5
 14 11 2013  13 01  -21.0380 26066.8 -03490.7 -07.6272 26299.4
 14 11 2013  13 02  -21.0382 26066.8 -03490.6 -07.6271 26299.5
 14 11 2013  13 03  -21.0382 26066.9 -03490.6 -07.6270 26299.6
 14 11 2013  13 04  -21.0381 26067.4 -03490.7 -07.6271 26300.1
 14 11 2013  13 05  -21.0382 26067.6 -03490.6 -07.6269 26300.3
 14 11 2013  13 06  -21.0383 26067.6 -03490.5 -07.6266 26300.3
 14 11 2013  13 07  -21.0387 26067.5 -03490.2 -07.6260 26300.2
 14 11 2013  13 08  -21.0389 26067.6 -03490.1 -07.6257 26300.2
 14 11 2013  13 09  -21.0390 26067.5 -03489.9 -07.6253 26300.1
 14 11 2013  13 10  -21.0392 26067.5 -03489.7 -07.6248 26300.0
 14 11 2013  13 11  -21.0391 26067.5 -03489.5 -07.6245 26300.1
 14 11 2013  13 12  -21.0390 26067.6 -03489.4 -07.6242 26300.1
 14 11 2013  13 13  -21.0390 26067.6 -03489.2 -07.6239 26300.1
 14 11 2013  13 14  -21.0393 26067.7 -03489.1 -07.6236 26300.1
 14 11 2013  13 15  -21.0393 26067.6 -03488.9 -07.6232 26300.0
 14 11 2013  13 16  -21.0392 26067.7 -03488.8 -07.6229 26300.1
 14 11 2013  13 17  -21.0390 26068.0 -03488.7 -07.6226 26300.4
 14 11 2013  13 18  -21.0389 26068.3 -03488.6 -07.6224 26300.7
 14 11 2013  13 19  -21.0397 26068.4 -03488.4 -07.6219 26300.8
 14 11 2013  13 20  -21.0407 26068.9 -03488.4 -07.6216 26301.3
 14 11 2013  13 21  -21.0415 26069.0 -03488.1 -07.6211 26301.4
 14 11 2013  13 22  -21.0416 26068.6 -03487.6 -07.6201 26300.9
 14 11 2013  13 23  -21.0417 26068.1 -03487.2 -07.6194 26300.3
 14 11 2013  13 24  -21.0415 26067.7 -03486.9 -07.6188 26299.9
 14 11 2013  13 25  -21.0415 26067.6 -03486.7 -07.6184 26299.8
 14 11 2013  13 26  -21.0416 26067.5 -03486.5 -07.6181 26299.7
 14 11 2013  13 27  -21.0417 26067.4 -03486.4 -07.6178 26299.5
 14 11 2013  13 28  -21.0418 26067.3 -03486.2 -07.6174 26299.4
 14 11 2013  13 29  -21.0421 26067.1 -03486.0 -07.6171 26299.2
 14 11 2013  13 30  -21.0422 26067.1 -03485.9 -07.6167 26299.2
 14 11 2013  13 31  -21.0420 26067.5 -03485.9 -07.6166 26299.6
 14 11 2013  13 32  -21.0421 26067.9 -03485.8 -07.6165 26299.9
 14 11 2013  13 33  -21.0421 26068.0 -03485.7 -07.6161 26300.0
 14 11 2013  13 34  -21.0418 26068.2 -03485.5 -07.6157 26300.2
 14 11 2013  13 35  -21.0413 26068.4 -03485.3 -07.6153 26300.3
 14 11 2013  13 36  -21.0408 26068.8 -03485.3 -07.6150 26300.7
 14 11 2013  13 37  -21.0406 26068.9 -03485.1 -07.6146 26300.8
 14 11 2013  13 38  -21.0402 26068.8 -03484.8 -07.6140 26300.6
 14 11 2013  13 39  -21.0396 26068.6 -03484.6 -07.6135 26300.5
 14 11 2013  13 40  -21.0393 26069.0 -03484.6 -07.6135 26300.8
 14 11 2013  13 41  -21.0390 26069.2 -03484.5 -07.6132 26301.0
 14 11 2013  13 42  -21.0387 26069.4 -03484.4 -07.6130 26301.3
 14 11 2013  13 43  -21.0385 26069.6 -03484.3 -07.6127 26301.4
 14 11 2013  13 44  -21.0383 26069.8 -03484.2 -07.6124 26301.6
 14 11 2013  13 45  -21.0379 26069.9 -03484.1 -07.6122 26301.7
 14 11 2013  13 46  -21.0376 26069.9 -03483.9 -07.6117 26301.7
 14 11 2013  13 47  -21.0374 26070.1 -03483.9 -07.6117 26301.9
 14 11 2013  13 48  -21.0371 26070.1 -03483.8 -07.6114 26301.9
 14 11 2013  13 49  -21.0368 26070.3 -03483.7 -07.6111 26302.0
 14 11 2013  13 50  -21.0363 26070.6 -03483.6 -07.6109 26302.3
 14 11 2013  13 51  -21.0358 26070.6 -03483.5 -07.6107 26302.3
 14 11 2013  13 52  -21.0351 26070.6 -03483.4 -07.6104 26302.3
 14 11 2013  13 53  -21.0347 26070.6 -03483.3 -07.6102 26302.2
 14 11 2013  13 54  -21.0343 26070.5 -03483.2 -07.6099 26302.2
 14 11 2013  13 55  -21.0340 26070.6 -03483.1 -07.6098 26302.2
 14 11 2013  13 56  -21.0335 26070.6 -03483.1 -07.6097 26302.3
 14 11 2013  13 57  -21.0334 26070.8 -03483.0 -07.6096 26302.5
 14 11 2013  13 58  -21.0335 26070.9 -03483.0 -07.6095 26302.6
 14 11 2013  13 59  -21.0335 26071.2 -03483.0 -07.6094 26302.8
 14 11 2013  14 00  -21.0334 26071.5 -03483.0 -07.6093 26303.1
 14 11 2013  14 01  -21.0332 26071.6 -03482.9 -07.6090 26303.2
 14 11 2013  14 02  -21.0328 26071.9 -03482.9 -07.6089 26303.5
 14 11 2013  14 03  -21.0324 26072.3 -03482.9 -07.6088 26303.9
 14 11 2013  14 04  -21.0327 26072.6 -03482.8 -07.6086 26304.2
 14 11 2013  14 05  -21.0330 26072.9 -03482.7 -07.6083 26304.5
 14 11 2013  14 06  -21.0330 26073.1 -03482.6 -07.6080 26304.7
 14 11 2013  14 07  -21.0332 26073.3 -03482.4 -07.6075 26304.8
 14 11 2013  14 08  -21.0332 26073.1 -03482.1 -07.6070 26304.6
 14 11 2013  14 09  -21.0330 26072.9 -03481.9 -07.6064 26304.4
 14 11 2013  14 10  -21.0326 26072.9 -03481.7 -07.6061 26304.3
 14 11 2013  14 11  -21.0323 26072.5 -03481.4 -07.6056 26303.9
 14 11 2013  14 12  -21.0320 26071.8 -03481.0 -07.6049 26303.1
 14 11 2013  14 13  -21.0317 26071.2 -03480.7 -07.6045 26302.6
 14 11 2013  14 14  -21.0317 26071.0 -03480.6 -07.6043 26302.3
 14 11 2013  14 15  -21.0320 26070.5 -03480.4 -07.6040 26301.8
 14 11 2013  14 16  -21.0323 26070.0 -03480.2 -07.6037 26301.3
 14 11 2013  14 17  -21.0326 26069.8 -03480.2 -07.6036 26301.1
 14 11 2013  14 18  -21.0329 26069.9 -03480.2 -07.6037 26301.1
 14 11 2013  14 19  -21.0330 26069.7 -03480.1 -07.6036 26301.0
 14 11 2013  14 20  -21.0333 26069.6 -03480.0 -07.6034 26300.8
 14 11 2013  14 21  -21.0339 26069.5 -03479.9 -07.6032 26300.7
 14 11 2013  14 22  -21.0342 26069.3 -03479.8 -07.6029 26300.5
 14 11 2013  14 23  -21.0343 26069.1 -03479.6 -07.6026 26300.3
 14 11 2013  14 24  -21.0345 26068.8 -03479.4 -07.6022 26300.0
 14 11 2013  14 25  -21.0347 26068.9 -03479.3 -07.6021 26300.0
 14 11 2013  14 26  -21.0350 26068.7 -03479.2 -07.6018 26299.9
 14 11 2013  14 27  -21.0354 26068.5 -03479.0 -07.6016 26299.6
 14 11 2013  14 28  -21.0356 26068.2 -03478.8 -07.6012 26299.3
 14 11 2013  14 29  -21.0359 26068.0 -03478.7 -07.6009 26299.1
 14 11 2013  14 30  -21.0359 26067.7 -03478.4 -07.6005 26298.7
 14 11 2013  14 31  -21.0364 26067.7 -03478.3 -07.6003 26298.8
 14 11 2013  14 32  -21.0369 26067.7 -03478.2 -07.6001 26298.7
 14 11 2013  14 33  -21.0374 26067.7 -03478.2 -07.6000 26298.8
 14 11 2013  14 34  -21.0379 26068.0 -03478.2 -07.5999 26299.0
 14 11 2013  14 35  -21.0382 26068.3 -03478.1 -07.5997 26299.3
 14 11 2013  14 36  -21.0383 26068.3 -03477.9 -07.5993 26299.3
 14 11 2013  14 37  -21.0383 26068.5 -03477.8 -07.5990 26299.5
 14 11 2013  14 38  -21.0381 26068.5 -03477.6 -07.5985 26299.4
 14 11 2013  14 39  -21.0382 26068.4 -03477.5 -07.5982 26299.4
 14 11 2013  14 40  -21.0384 26068.4 -03477.3 -07.5979 26299.3
 14 11 2013  14 41  -21.0384 26068.2 -03477.1 -07.5975 26299.1
 14 11 2013  14 42  -21.0384 26068.2 -03476.9 -07.5972 26299.1
 14 11 2013  14 43  -21.0386 26068.5 -03477.0 -07.5971 26299.3
 14 11 2013  14 44  -21.0390 26068.9 -03476.9 -07.5970 26299.7
 14 11 2013  14 45  -21.0393 26069.3 -03476.9 -07.5969 26300.1
 14 11 2013  14 46  -21.0397 26069.7 -03476.8 -07.5965 26300.5
 14 11 2013  14 47  -21.0399 26069.8 -03476.5 -07.5959 26300.6
 14 11 2013  14 48  -21.0398 26069.7 -03476.2 -07.5951 26300.4
 14 11 2013  14 49  -21.0394 26069.3 -03475.7 -07.5942 26300.0
 14 11 2013  14 50  -21.0394 26069.2 -03475.4 -07.5936 26299.8
 14 11 2013  14 51  -21.0396 26069.3 -03475.3 -07.5933 26299.9
 14 11 2013  14 52  -21.0396 26069.3 -03475.1 -07.5929 26299.9
 14 11 2013  14 53  -21.0397 26069.0 -03474.8 -07.5923 26299.6
 14 11 2013  14 54  -21.0395 26069.0 -03474.6 -07.5919 26299.5
 14 11 2013  14 55  -21.0394 26068.8 -03474.4 -07.5915 26299.3
 14 11 2013  14 56  -21.0391 26068.8 -03474.2 -07.5911 26299.3
 14 11 2013  14 57  -21.0388 26068.9 -03474.1 -07.5908 26299.4
 14 11 2013  14 58  -21.0385 26068.9 -03473.9 -07.5904 26299.3
 14 11 2013  14 59  -21.0380 26068.8 -03473.7 -07.5900 26299.3
 14 11 2013  15 00  -21.0374 26068.6 -03473.4 -07.5895 26299.0
 14 11 2013  15 01  -21.0368 26068.2 -03473.1 -07.5888 26298.5
 14 11 2013  15 02  -21.0365 26067.8 -03472.8 -07.5884 26298.1
 14 11 2013  15 03  -21.0363 26067.4 -03472.6 -07.5881 26297.7
 14 11 2013  15 04  -21.0360 26067.1 -03472.5 -07.5879 26297.4
 14 11 2013  15 05  -21.0355 26067.0 -03472.4 -07.5878 26297.3
 14 11 2013  15 06  -21.0350 26066.9 -03472.3 -07.5876 26297.2
 14 11 2013  15 07  -21.0345 26067.0 -03472.3 -07.5876 26297.3
 14 11 2013  15 08  -21.0340 26067.0 -03472.2 -07.5873 26297.2
 14 11 2013  15 09  -21.0335 26066.9 -03472.1 -07.5870 26297.1
 14 11 2013  15 10  -21.0328 26067.2 -03472.1 -07.5869 26297.4
 14 11 2013  15 11  -21.0325 26066.6 -03471.7 -07.5863 26296.8
 14 11 2013  15 12  -21.0316 26066.8 -03471.6 -07.5862 26297.0
 14 11 2013  15 13  -21.0309 26066.8 -03471.6 -07.5860 26297.0
 14 11 2013  15 14  -21.0301 26066.6 -03471.4 -07.5857 26296.8
 14 11 2013  15 15  -21.0295 26066.2 -03471.2 -07.5854 26296.3
 14 11 2013  15 16  -21.0287 26066.2 -03471.2 -07.5854 26296.3
 14 11 2013  15 17  -21.0280 26066.1 -03471.2 -07.5855 26296.2
 14 11 2013  15 18  -21.0274 26066.2 -03471.3 -07.5855 26296.3
 14 11 2013  15 19  -21.0267 26066.1 -03471.2 -07.5855 26296.3
 14 11 2013  15 20  -21.0261 26066.2 -03471.3 -07.5855 26296.3
 14 11 2013  15 21  -21.0254 26066.2 -03471.3 -07.5855 26296.3
 14 11 2013  15 22  -21.0248 26066.2 -03471.3 -07.5856 26296.3
 14 11 2013  15 23  -21.0244 26066.2 -03471.3 -07.5856 26296.4
 14 11 2013  15 24  -21.0239 26066.2 -03471.3 -07.5856 26296.3
 14 11 2013  15 25  -21.0236 26066.1 -03471.3 -07.5856 26296.2
 14 11 2013  15 26  -21.0230 26066.1 -03471.3 -07.5855 26296.2
 14 11 2013  15 27  -21.0220 26065.8 -03471.1 -07.5853 26295.9
 14 11 2013  15 28  -21.0210 26065.6 -03471.0 -07.5851 26295.7
 14 11 2013  15 29  -21.0202 26065.3 -03470.9 -07.5850 26295.4
 14 11 2013  15 30  -21.0195 26065.3 -03471.0 -07.5852 26295.4
 14 11 2013  15 31  -21.0189 26065.3 -03471.0 -07.5853 26295.4
 14 11 2013  15 32  -21.0184 26065.3 -03471.2 -07.5855 26295.4
 14 11 2013  15 33  -21.0178 26065.4 -03471.3 -07.5857 26295.5
 14 11 2013  15 34  -21.0175 26065.6 -03471.4 -07.5860 26295.8
 14 11 2013  15 35  -21.0172 26065.8 -03471.6 -07.5862 26295.9
 14 11 2013  15 36  -21.0169 26066.0 -03471.7 -07.5865 26296.2
 14 11 2013  15 37  -21.0167 26066.0 -03471.7 -07.5865 26296.1
 14 11 2013  15 38  -21.0162 26065.9 -03471.7 -07.5865 26296.1
 14 11 2013  15 39  -21.0157 26065.8 -03471.7 -07.5865 26296.0
 14 11 2013  15 40  -21.0151 26065.6 -03471.6 -07.5864 26295.7
 14 11 2013  15 41  -21.0144 26065.1 -03471.4 -07.5861 26295.3
 14 11 2013  15 42  -21.0136 26064.6 -03471.2 -07.5859 26294.7
 14 11 2013  15 43  -21.0128 26064.0 -03471.1 -07.5857 26294.1
 14 11 2013  15 44  -21.0119 26063.6 -03471.1 -07.5858 26293.8
 14 11 2013  15 45  -21.0112 26063.5 -03471.2 -07.5861 26293.6
 14 11 2013  15 46  -21.0108 26063.1 -03471.3 -07.5864 26293.3
 14 11 2013  15 47  -21.0106 26062.7 -03471.4 -07.5867 26292.9
 14 11 2013  15 48  -21.0103 26062.3 -03471.5 -07.5870 26292.5
 14 11 2013  15 49  -21.0100 26062.4 -03471.7 -07.5875 26292.6
 14 11 2013  15 50  -21.0098 26062.4 -03471.9 -07.5879 26292.6
 14 11 2013  15 51  -21.0101 26062.5 -03472.1 -07.5883 26292.7
 14 11 2013  15 52  -21.0103 26062.6 -03472.2 -07.5886 26292.9
 14 11 2013  15 53  -21.0102 26062.4 -03472.2 -07.5885 26292.7
 14 11 2013  15 54  -21.0099 26062.1 -03472.0 -07.5883 26292.4
 14 11 2013  15 55  -21.0099 26061.9 -03472.0 -07.5884 26292.2
 14 11 2013  15 56  -21.0099 26061.6 -03471.9 -07.5883 26291.9
 14 11 2013  15 57  -21.0099 26061.5 -03471.9 -07.5883 26291.8
 14 11 2013  15 58  -21.0102 26061.3 -03471.9 -07.5882 26291.6
 14 11 2013  15 59  -21.0104 26061.1 -03471.9 -07.5882 26291.3
 14 11 2013  16 00  -21.0106 26061.0 -03471.8 -07.5881 26291.2
 14 11 2013  16 01  -21.0110 26060.9 -03471.8 -07.5881 26291.1
 14 11 2013  16 02  -21.0112 26060.7 -03471.7 -07.5879 26290.9
 14 11 2013  16 03  -21.0111 26060.3 -03471.5 -07.5876 26290.5
 14 11 2013  16 04  -21.0107 26059.9 -03471.3 -07.5874 26290.0
 14 11 2013  16 05  -21.0105 26059.7 -03471.3 -07.5873 26289.9
 14 11 2013  16 06  -21.0109 26059.6 -03471.3 -07.5875 26289.8
 14 11 2013  16 07  -21.0111 26059.6 -03471.4 -07.5876 26289.8
 14 11 2013  16 08  -21.0108 26059.4 -03471.3 -07.5876 26289.6
 14 11 2013  16 09  -21.0104 26059.0 -03471.3 -07.5875 26289.2
 14 11 2013  16 10  -21.0098 26058.8 -03471.3 -07.5876 26288.9
 14 11 2013  16 11  -21.0093 26058.2 -03471.2 -07.5876 26288.3
 14 11 2013  16 12  -21.0086 26057.7 -03471.2 -07.5877 26287.9
 14 11 2013  16 13  -21.0079 26057.5 -03471.3 -07.5881 26287.7
 14 11 2013  16 14  -21.0076 26057.2 -03471.5 -07.5887 26287.5
 14 11 2013  16 15  -21.0074 26056.9 -03471.8 -07.5893 26287.1
 14 11 2013  16 16  -21.0073 26056.6 -03472.0 -07.5899 26286.9
 14 11 2013  16 17  -21.0070 26056.6 -03472.4 -07.5907 26286.9
 14 11 2013  16 18  -21.0068 26056.7 -03472.8 -07.5915 26287.1
 14 11 2013  16 19  -21.0069 26056.7 -03473.1 -07.5922 26287.1
 14 11 2013  16 20  -21.0069 26056.6 -03473.4 -07.5929 26287.1
 14 11 2013  16 21  -21.0072 26056.5 -03473.7 -07.5937 26287.0
 14 11 2013  16 22  -21.0076 26056.4 -03474.1 -07.5944 26286.9
 14 11 2013  16 23  -21.0081 26056.1 -03474.3 -07.5950 26286.8
 14 11 2013  16 24  -21.0084 26055.8 -03474.6 -07.5956 26286.5
 14 11 2013  16 25  -21.0086 26055.8 -03474.9 -07.5964 26286.5
 14 11 2013  16 26  -21.0089 26055.6 -03475.2 -07.5971 26286.3
 14 11 2013  16 27  -21.0091 26055.3 -03475.5 -07.5978 26286.0
 14 11 2013  16 28  -21.0093 26055.0 -03475.8 -07.5985 26285.9
 14 11 2013  16 29  -21.0096 26054.7 -03476.0 -07.5991 26285.6
 14 11 2013  16 30  -21.0101 26054.7 -03476.4 -07.6000 26285.6
 14 11 2013  16 31  -21.0105 26054.7 -03476.8 -07.6007 26285.6
 14 11 2013  16 32  -21.0107 26054.6 -03477.1 -07.6014 26285.6
 14 11 2013  16 33  -21.0108 26054.4 -03477.4 -07.6021 26285.5
 14 11 2013  16 34  -21.0108 26054.3 -03477.6 -07.6027 26285.3
 14 11 2013  16 35  -21.0107 26054.0 -03478.0 -07.6035 26285.1
 14 11 2013  16 36  -21.0108 26053.8 -03478.3 -07.6042 26285.0
 14 11 2013  16 37  -21.0110 26053.8 -03478.7 -07.6051 26285.0
 14 11 2013  16 38  -21.0111 26053.7 -03479.0 -07.6058 26285.0
 14 11 2013  16 39  -21.0112 26053.5 -03479.4 -07.6067 26284.9
 14 11 2013  16 40  -21.0117 26053.3 -03479.7 -07.6075 26284.7
 14 11 2013  16 41  -21.0122 26053.1 -03480.1 -07.6083 26284.5
 14 11 2013  16 42  -21.0127 26052.9 -03480.4 -07.6091 26284.3
 14 11 2013  16 43  -21.0129 26052.5 -03480.7 -07.6098 26284.0
 14 11 2013  16 44  -21.0132 26052.1 -03481.0 -07.6106 26283.6
 14 11 2013  16 45  -21.0137 26051.7 -03481.4 -07.6115 26283.3
 14 11 2013  16 46  -21.0139 26051.4 -03481.7 -07.6123 26283.0
 14 11 2013  16 47  -21.0143 26051.0 -03482.0 -07.6130 26282.7
 14 11 2013  16 48  -21.0148 26050.6 -03482.3 -07.6138 26282.3
 14 11 2013  16 49  -21.0153 26050.6 -03482.7 -07.6148 26282.4
 14 11 2013  16 50  -21.0160 26050.3 -03483.0 -07.6155 26282.2
 14 11 2013  16 51  -21.0168 26050.2 -03483.4 -07.6163 26282.1
 14 11 2013  16 52  -21.0178 26050.3 -03483.9 -07.6173 26282.2
 14 11 2013  16 53  -21.0188 26050.6 -03484.4 -07.6184 26282.6
 14 11 2013  16 54  -21.0195 26050.5 -03484.7 -07.6190 26282.5
 14 11 2013  16 55  -21.0199 26050.4 -03484.9 -07.6196 26282.5
 14 11 2013  16 56  -21.0206 26050.1 -03485.1 -07.6201 26282.2
 14 11 2013  16 57  -21.0207 26049.6 -03485.2 -07.6204 26281.7
 14 11 2013  16 58  -21.0209 26049.0 -03485.3 -07.6207 26281.1
 14 11 2013  16 59  -21.0211 26048.8 -03485.6 -07.6214 26281.0
 14 11 2013  17 00  -21.0216 26048.8 -03486.0 -07.6223 26281.0
 14 11 2013  17 01  -21.0225 26048.7 -03486.3 -07.6231 26280.9
 14 11 2013  17 02  -21.0231 26048.7 -03486.6 -07.6237 26281.0
 14 11 2013  17 03  -21.0240 26048.8 -03487.0 -07.6245 26281.2
 14 11 2013  17 04  -21.0249 26048.8 -03487.3 -07.6251 26281.2
 14 11 2013  17 05  -21.0254 26048.5 -03487.4 -07.6254 26280.9
 14 11 2013  17 06  -21.0262 26048.2 -03487.5 -07.6259 26280.7
 14 11 2013  17 07  -21.0267 26047.8 -03487.7 -07.6263 26280.3
 14 11 2013  17 08  -21.0273 26047.3 -03487.8 -07.6266 26279.7
 14 11 2013  17 09  -21.0281 26046.9 -03488.0 -07.6272 26279.4
 14 11 2013  17 10  -21.0288 26046.8 -03488.3 -07.6279 26279.4
 14 11 2013  17 11  -21.0297 26047.0 -03488.7 -07.6287 26279.6
 14 11 2013  17 12  -21.0305 26047.1 -03489.0 -07.6294 26279.7
 14 11 2013  17 13  -21.0315 26047.5 -03489.5 -07.6303 26280.2
 14 11 2013  17 14  -21.0329 26048.0 -03490.0 -07.6312 26280.7
 14 11 2013  17 15  -21.0341 26048.1 -03490.3 -07.6319 26280.9
 14 11 2013  17 16  -21.0350 26048.4 -03490.7 -07.6325 26281.2
 14 11 2013  17 17  -21.0364 26048.7 -03491.0 -07.6332 26281.6
 14 11 2013  17 18  -21.0376 26048.8 -03491.2 -07.6336 26281.7
 14 11 2013  17 19  -21.0385 26048.5 -03491.2 -07.6336 26281.4
 14 11 2013  17 20  -21.0391 26047.9 -03491.0 -07.6334 26280.8
 14 11 2013  17 21  -21.0398 26047.5 -03491.0 -07.6335 26280.4
 14 11 2013  17 22  -21.0409 26047.0 -03491.0 -07.6336 26279.9
 14 11 2013  17 23  -21.0423 26046.4 -03491.0 -07.6338 26279.3
 14 11 2013  17 24  -21.0435 26046.1 -03491.1 -07.6342 26279.0
 14 11 2013  17 25  -21.0446 26046.1 -03491.4 -07.6348 26279.1
 14 11 2013  17 26  -21.0458 26046.4 -03491.7 -07.6353 26279.4
 14 11 2013  17 27  -21.0473 26046.6 -03491.9 -07.6357 26279.6
 14 11 2013  17 28  -21.0486 26046.6 -03491.9 -07.6358 26279.6
 14 11 2013  17 29  -21.0497 26046.4 -03491.8 -07.6356 26279.4
 14 11 2013  17 30  -21.0508 26045.9 -03491.6 -07.6352 26278.9
 14 11 2013  17 31  -21.0516 26045.7 -03491.5 -07.6350 26278.6
 14 11 2013  17 32  -21.0525 26045.3 -03491.3 -07.6348 26278.3
 14 11 2013  17 33  -21.0531 26045.1 -03491.2 -07.6346 26278.0
 14 11 2013  17 34  -21.0534 26044.9 -03491.0 -07.6343 26277.8
 14 11 2013  17 35  -21.0539 26044.7 -03491.0 -07.6342 26277.6
 14 11 2013  17 36  -21.0545 26044.5 -03491.0 -07.6343 26277.4
 14 11 2013  17 37  -21.0551 26044.7 -03491.1 -07.6345 26277.7
 14 11 2013  17 38  -21.0558 26045.3 -03491.3 -07.6348 26278.2
 14 11 2013  17 39  -21.0563 26045.5 -03491.3 -07.6347 26278.4
 14 11 2013  17 40  -21.0567 26045.1 -03490.9 -07.6340 26278.0
 14 11 2013  17 41  -21.0568 26044.9 -03490.7 -07.6336 26277.7
 14 11 2013  17 42  -21.0571 26044.2 -03490.3 -07.6329 26277.0
 14 11 2013  17 43  -21.0570 26043.4 -03489.9 -07.6323 26276.1
 14 11 2013  17 44  -21.0566 26042.9 -03489.7 -07.6321 26275.7
 14 11 2013  17 45  -21.0566 26042.7 -03489.7 -07.6322 26275.5
 14 11 2013  17 46  -21.0566 26042.6 -03489.8 -07.6324 26275.4
 14 11 2013  17 47  -21.0567 26042.5 -03489.8 -07.6324 26275.3
 14 11 2013  17 48  -21.0566 26042.6 -03489.9 -07.6326 26275.4
 14 11 2013  17 49  -21.0570 26042.8 -03490.1 -07.6329 26275.6
 14 11 2013  17 50  -21.0569 26042.6 -03489.9 -07.6327 26275.4
 14 11 2013  17 51  -21.0565 26042.2 -03489.7 -07.6323 26275.0
 14 11 2013  17 52  -21.0560 26041.9 -03489.6 -07.6320 26274.6
 14 11 2013  17 53  -21.0555 26041.8 -03489.5 -07.6320 26274.6
 14 11 2013  17 54  -21.0551 26042.0 -03489.7 -07.6323 26274.7
 14 11 2013  17 55  -21.0549 26042.2 -03489.8 -07.6324 26275.0
 14 11 2013  17 56  -21.0545 26042.4 -03489.8 -07.6325 26275.2
 14 11 2013  17 57  -21.0540 26042.3 -03489.7 -07.6322 26275.1
 14 11 2013  17 58  -21.0535 26042.2 -03489.6 -07.6320 26274.9
 14 11 2013  17 59  -21.0530 26042.0 -03489.5 -07.6318 26274.7
 14 11 2013  18 00  -21.0527 26042.0 -03489.5 -07.6318 26274.8
 14 11 2013  18 01  -21.0523 26042.2 -03489.5 -07.6319 26274.9
 14 11 2013  18 02  -21.0519 26042.0 -03489.4 -07.6317 26274.8
 14 11 2013  18 03  -21.0514 26041.7 -03489.2 -07.6314 26274.4
 14 11 2013  18 04  -21.0508 26041.4 -03489.1 -07.6312 26274.1
 14 11 2013  18 05  -21.0504 26041.0 -03488.9 -07.6309 26273.7
 14 11 2013  18 06  -21.0501 26040.7 -03488.8 -07.6307 26273.3
 14 11 2013  18 07  -21.0494 26040.3 -03488.7 -07.6306 26273.0
 14 11 2013  18 08  -21.0488 26039.9 -03488.6 -07.6305 26272.5
 14 11 2013  18 09  -21.0480 26039.4 -03488.5 -07.6304 26272.1
 14 11 2013  18 10  -21.0473 26039.0 -03488.4 -07.6304 26271.7
 14 11 2013  18 11  -21.0467 26038.8 -03488.4 -07.6305 26271.5
 14 11 2013  18 12  -21.0463 26038.7 -03488.5 -07.6307 26271.3
 14 11 2013  18 13  -21.0458 26038.4 -03488.5 -07.6308 26271.1
 14 11 2013  18 14  -21.0452 26038.2 -03488.5 -07.6308 26270.8
 14 11 2013  18 15  -21.0446 26037.9 -03488.5 -07.6310 26270.5
 14 11 2013  18 16  -21.0440 26037.8 -03488.6 -07.6312 26270.4
 14 11 2013  18 17  -21.0436 26037.9 -03488.8 -07.6316 26270.6
 14 11 2013  18 18  -21.0431 26037.7 -03489.0 -07.6320 26270.5
 14 11 2013  18 19  -21.0427 26037.5 -03489.1 -07.6322 26270.3
 14 11 2013  18 20  -21.0422 26037.3 -03489.1 -07.6324 26270.0
 14 11 2013  18 21  -21.0418 26037.2 -03489.3 -07.6327 26270.0
 14 11 2013  18 22  -21.0414 26037.0 -03489.3 -07.6329 26269.8
 14 11 2013  18 23  -21.0411 26037.0 -03489.5 -07.6333 26269.8
 14 11 2013  18 24  -21.0411 26036.9 -03489.6 -07.6335 26269.7
 14 11 2013  18 25  -21.0410 26036.8 -03489.7 -07.6338 26269.6
 14 11 2013  18 26  -21.0410 26036.8 -03489.8 -07.6341 26269.7
 14 11 2013  18 27  -21.0407 26036.8 -03490.0 -07.6344 26269.7
 14 11 2013  18 28  -21.0405 26036.8 -03490.1 -07.6347 26269.7
 14 11 2013  18 29  -21.0402 26036.9 -03490.2 -07.6349 26269.8
 14 11 2013  18 30  -21.0402 26036.7 -03490.3 -07.6350 26269.6
 14 11 2013  18 31  -21.0403 26036.5 -03490.3 -07.6352 26269.4
 14 11 2013  18 32  -21.0404 26036.5 -03490.5 -07.6356 26269.4
 14 11 2013  18 33  -21.0403 26036.4 -03490.5 -07.6357 26269.3
 14 11 2013  18 34  -21.0404 26036.3 -03490.7 -07.6361 26269.3
 14 11 2013  18 35  -21.0402 26036.3 -03490.8 -07.6363 26269.3
 14 11 2013  18 36  -21.0401 26036.2 -03490.9 -07.6366 26269.2
 14 11 2013  18 37  -21.0401 26036.2 -03491.0 -07.6369 26269.2
 14 11 2013  18 38  -21.0401 26036.0 -03491.1 -07.6371 26269.1
 14 11 2013  18 39  -21.0399 26035.8 -03491.2 -07.6373 26268.9
 14 11 2013  18 40  -21.0397 26035.8 -03491.3 -07.6375 26268.9
 14 11 2013  18 41  -21.0397 26035.9 -03491.4 -07.6379 26268.9
 14 11 2013  18 42  -21.0396 26035.8 -03491.6 -07.6381 26268.9
 14 11 2013  18 43  -21.0398 26035.8 -03491.8 -07.6386 26268.9
 14 11 2013  18 44  -21.0402 26035.8 -03491.9 -07.6389 26269.0
 14 11 2013  18 45  -21.0406 26035.8 -03492.1 -07.6392 26269.0
 14 11 2013  18 46  -21.0411 26035.7 -03492.1 -07.6394 26268.8
 14 11 2013  18 47  -21.0414 26035.5 -03492.2 -07.6395 26268.7
 14 11 2013  18 48  -21.0416 26035.3 -03492.2 -07.6396 26268.5
 14 11 2013  18 49  -21.0419 26035.2 -03492.2 -07.6397 26268.3
 14 11 2013  18 50  -21.0421 26034.9 -03492.2 -07.6397 26268.0
 14 11 2013  18 51  -21.0420 26034.6 -03492.1 -07.6397 26267.8
 14 11 2013  18 52  -21.0419 26034.6 -03492.2 -07.6399 26267.8
 14 11 2013  18 53  -21.0421 26034.6 -03492.3 -07.6401 26267.7
 14 11 2013  18 54  -21.0422 26034.4 -03492.3 -07.6402 26267.6
 14 11 2013  18 55  -21.0424 26034.5 -03492.4 -07.6403 26267.7
 14 11 2013  18 56  -21.0425 26034.7 -03492.5 -07.6405 26267.9
 14 11 2013  18 57  -21.0428 26034.9 -03492.7 -07.6408 26268.2
 14 11 2013  18 58  -21.0428 26034.9 -03492.7 -07.6409 26268.1
 14 11 2013  18 59  -21.0428 26034.9 -03492.7 -07.6409 26268.1
 14 11 2013  19 00  -21.0430 26034.9 -03492.8 -07.6410 26268.2
 14 11 2013  19 01  -21.0430 26034.8 -03492.8 -07.6411 26268.1
 14 11 2013  19 02  -21.0430 26034.7 -03492.8 -07.6411 26267.9
 14 11 2013  19 03  -21.0429 26034.5 -03492.8 -07.6412 26267.8
 14 11 2013  19 04  -21.0429 26034.5 -03492.9 -07.6414 26267.7
 14 11 2013  19 05  -21.0429 26034.4 -03492.9 -07.6415 26267.6
 14 11 2013  19 06  -21.0429 26034.2 -03492.9 -07.6416 26267.4
 14 11 2013  19 07  -21.0427 26034.0 -03493.0 -07.6417 26267.2
 14 11 2013  19 08  -21.0426 26034.0 -03493.1 -07.6419 26267.3
 14 11 2013  19 09  -21.0426 26033.9 -03493.2 -07.6422 26267.2
 14 11 2013  19 10  -21.0425 26033.5 -03493.2 -07.6422 26266.9
 14 11 2013  19 11  -21.0424 26033.3 -03493.2 -07.6424 26266.6
 14 11 2013  19 12  -21.0426 26033.2 -03493.3 -07.6426 26266.5
 14 11 2013  19 13  -21.0425 26033.1 -03493.3 -07.6427 26266.5
 14 11 2013  19 14  -21.0423 26033.2 -03493.4 -07.6429 26266.5
 14 11 2013  19 15  -21.0422 26033.1 -03493.6 -07.6433 26266.5
 14 11 2013  19 16  -21.0421 26033.0 -03493.6 -07.6433 26266.3
 14 11 2013  19 17  -21.0421 26032.8 -03493.6 -07.6435 26266.2
 14 11 2013  19 18  -21.0421 26032.7 -03493.7 -07.6436 26266.0
 14 11 2013  19 19  -21.0421 26032.5 -03493.7 -07.6438 26265.8
 14 11 2013  19 20  -21.0420 26032.3 -03493.8 -07.6439 26265.7
 14 11 2013  19 21  -21.0421 26032.2 -03493.8 -07.6440 26265.6
 14 11 2013  19 22  -21.0421 26032.2 -03493.9 -07.6443 26265.6
 14 11 2013  19 23  -21.0421 26032.2 -03494.0 -07.6445 26265.7
 14 11 2013  19 24  -21.0421 26032.2 -03494.2 -07.6448 26265.7
 14 11 2013  19 25  -21.0421 26032.0 -03494.2 -07.6449 26265.5
 14 11 2013  19 26  -21.0420 26031.9 -03494.2 -07.6450 26265.4
 14 11 2013  19 27  -21.0421 26031.8 -03494.3 -07.6453 26265.3
 14 11 2013  19 28  -21.0421 26031.8 -03494.5 -07.6455 26265.3
 14 11 2013  19 29  -21.0421 26031.6 -03494.5 -07.6457 26265.1
 14 11 2013  19 30  -21.0421 26031.5 -03494.6 -07.6459 26265.0
 14 11 2013  19 31  -21.0421 26031.4 -03494.6 -07.6460 26265.0
 14 11 2013  19 32  -21.0419 26031.3 -03494.7 -07.6461 26264.8
 14 11 2013  19 33  -21.0418 26031.2 -03494.7 -07.6462 26264.8
 14 11 2013  19 34  -21.0418 26031.0 -03494.7 -07.6463 26264.6
 14 11 2013  19 35  -21.0417 26030.8 -03494.7 -07.6463 26264.4
 14 11 2013  19 36  -21.0415 26030.7 -03494.7 -07.6465 26264.3
 14 11 2013  19 37  -21.0413 26030.6 -03494.8 -07.6466 26264.2
 14 11 2013  19 38  -21.0413 26030.6 -03494.8 -07.6467 26264.1
 14 11 2013  19 39  -21.0413 26030.6 -03495.0 -07.6470 26264.1
 14 11 2013  19 40  -21.0412 26030.5 -03495.0 -07.6471 26264.1
 14 11 2013  19 41  -21.0411 26030.4 -03495.1 -07.6473 26264.0
 14 11 2013  19 42  -21.0408 26030.4 -03495.2 -07.6475 26264.0
 14 11 2013  19 43  -21.0406 26030.4 -03495.2 -07.6476 26264.0
 14 11 2013  19 44  -21.0407 26030.2 -03495.3 -07.6478 26263.9
 14 11 2013  19 45  -21.0405 26030.2 -03495.4 -07.6479 26263.8
 14 11 2013  19 46  -21.0403 26030.1 -03495.4 -07.6481 26263.7
 14 11 2013  19 47  -21.0401 26029.9 -03495.4 -07.6482 26263.5
 14 11 2013  19 48  -21.0399 26029.8 -03495.5 -07.6484 26263.5
 14 11 2013  19 49  -21.0397 26029.7 -03495.6 -07.6486 26263.4
 14 11 2013  19 50  -21.0396 26029.5 -03495.6 -07.6487 26263.2
 14 11 2013  19 51  -21.0395 26029.4 -03495.7 -07.6489 26263.1
 14 11 2013  19 52  -21.0394 26029.3 -03495.8 -07.6491 26263.0
 14 11 2013  19 53  -21.0394 26029.2 -03495.9 -07.6493 26262.9
 14 11 2013  19 54  -21.0393 26029.1 -03495.9 -07.6495 26262.8
 14 11 2013  19 55  -21.0391 26029.1 -03496.0 -07.6497 26262.8
 14 11 2013  19 56  -21.0392 26029.0 -03496.1 -07.6499 26262.7
 14 11 2013  19 57  -21.0391 26028.9 -03496.2 -07.6502 26262.7
 14 11 2013  19 58  -21.0390 26028.8 -03496.3 -07.6504 26262.6
 14 11 2013  19 59  -21.0389 26028.7 -03496.4 -07.6506 26262.4
 14 11 2013  20 00  -21.0388 26028.4 -03496.4 -07.6507 26262.2
 14 11 2013  20 01  -21.0390 26028.3 -03496.4 -07.6508 26262.1
 14 11 2013  20 02  -21.0426 26027.4 -03496.2 -07.6507 26261.2
 14 11 2013  20 03  -21.0435 26026.9 -03496.5 -07.6513 26260.7
 14 11 2013  20 04  -21.0434 26026.7 -03496.5 -07.6515 26260.5
 14 11 2013  20 05  -21.0430 26026.6 -03496.6 -07.6517 26260.5
 14 11 2013  20 06  -21.0395 26027.0 -03496.9 -07.6522 26260.9
 14 11 2013  20 07  -21.0386 26027.1 -03497.1 -07.6526 26261.0
 14 11 2013  20 08  -21.0383 26027.0 -03497.2 -07.6529 26260.9
 14 11 2013  20 09  -21.0380 26026.8 -03497.3 -07.6531 26260.7
 14 11 2013  20 10  -21.0376 26026.9 -03497.4 -07.6534 26260.8
 14 11 2013  20 11  -21.0374 26026.8 -03497.5 -07.6536 26260.7
 14 11 2013  20 12  -21.0371 26026.7 -03497.6 -07.6539 26260.7
 14 11 2013  20 13  -21.0367 26026.9 -03497.9 -07.6543 26260.9
 14 11 2013  20 14  -21.0364 26027.1 -03498.1 -07.6548 26261.1
 14 11 2013  20 15  -21.0362 26027.1 -03498.3 -07.6552 26261.2
 14 11 2013  20 16  -21.0361 26027.3 -03498.5 -07.6556 26261.3
 14 11 2013  20 17  -21.0360 26027.4 -03498.7 -07.6560 26261.5
 14 11 2013  20 18  -21.0358 26027.5 -03498.9 -07.6565 26261.6
 14 11 2013  20 19  -21.0355 26027.5 -03499.0 -07.6567 26261.6
 14 11 2013  20 20  -21.0353 26027.3 -03499.1 -07.6568 26261.5
 14 11 2013  20 21  -21.0351 26027.2 -03499.1 -07.6570 26261.4
 14 11 2013  20 22  -21.0352 26027.1 -03499.2 -07.6572 26261.3
 14 11 2013  20 23  -21.0351 26027.0 -03499.3 -07.6573 26261.2
 14 11 2013  20 24  -21.0351 26026.8 -03499.3 -07.6576 26261.0
 14 11 2013  20 25  -21.0352 26026.7 -03499.4 -07.6578 26260.9
 14 11 2013  20 26  -21.0353 26026.6 -03499.5 -07.6579 26260.8
 14 11 2013  20 27  -21.0353 26026.4 -03499.5 -07.6580 26260.7
 14 11 2013  20 28  -21.0352 26026.2 -03499.5 -07.6581 26260.4
 14 11 2013  20 29  -21.0352 26026.0 -03499.6 -07.6583 26260.2
 14 11 2013  20 30  -21.0352 26025.9 -03499.6 -07.6584 26260.1
 14 11 2013  20 31  -21.0352 26025.8 -03499.7 -07.6586 26260.0
 14 11 2013  20 32  -21.0352 26025.6 -03499.8 -07.6588 26259.9
 14 11 2013  20 33  -21.0353 26025.4 -03499.8 -07.6590 26259.7
 14 11 2013  20 34  -21.0353 26025.5 -03499.9 -07.6592 26259.8
 14 11 2013  20 35  -21.0353 26025.4 -03500.1 -07.6595 26259.7
 14 11 2013  20 36  -21.0353 26025.3 -03500.1 -07.6596 26259.6
 14 11 2013  20 37  -21.0353 26025.3 -03500.2 -07.6598 26259.6
 14 11 2013  20 38  -21.0353 26025.2 -03500.2 -07.6599 26259.5
 14 11 2013  20 39  -21.0353 26025.1 -03500.2 -07.6599 26259.4
 14 11 2013  20 40  -21.0353 26024.9 -03500.2 -07.6600 26259.3
 14 11 2013  20 41  -21.0353 26024.8 -03500.2 -07.6601 26259.1
 14 11 2013  20 42  -21.0352 26024.7 -03500.2 -07.6601 26259.0
 14 11 2013  20 43  -21.0350 26024.6 -03500.2 -07.6601 26258.9
 14 11 2013  20 44  -21.0348 26024.5 -03500.2 -07.6601 26258.8
 14 11 2013  20 45  -21.0345 26024.4 -03500.2 -07.6602 26258.8
 14 11 2013  20 46  -21.0342 26024.3 -03500.2 -07.6601 26258.6
 14 11 2013  20 47  -21.0340 26024.2 -03500.2 -07.6602 26258.6
 14 11 2013  20 48  -21.0337 26024.3 -03500.3 -07.6604 26258.6
 14 11 2013  20 49  -21.0335 26024.2 -03500.3 -07.6604 26258.5
 14 11 2013  20 50  -21.0331 26024.1 -03500.3 -07.6604 26258.4
 14 11 2013  20 51  -21.0327 26024.0 -03500.4 -07.6606 26258.4
 14 11 2013  20 52  -21.0323 26024.0 -03500.5 -07.6608 26258.3
 14 11 2013  20 53  -21.0319 26023.9 -03500.5 -07.6609 26258.2
 14 11 2013  20 54  -21.0315 26023.7 -03500.5 -07.6610 26258.1
 14 11 2013  20 55  -21.0309 26023.7 -03500.6 -07.6611 26258.1
 14 11 2013  20 56  -21.0306 26023.7 -03500.9 -07.6617 26258.1
 14 11 2013  20 57  -21.0303 26023.6 -03501.0 -07.6621 26258.1
 14 11 2013  20 58  -21.0301 26023.5 -03501.2 -07.6624 26258.0
 14 11 2013  20 59  -21.0300 26023.4 -03501.3 -07.6628 26257.9
 14 11 2013  21 00  -21.0298 26023.3 -03501.5 -07.6632 26257.8
 14 11 2013  21 01  -21.0296 26023.3 -03501.6 -07.6636 26257.8
 14 11 2013  21 02  -21.0295 26023.2 -03501.8 -07.6640 26257.8
 14 11 2013  21 03  -21.0296 26023.1 -03502.0 -07.6643 26257.7
 14 11 2013  21 04  -21.0297 26023.0 -03502.1 -07.6647 26257.6
 14 11 2013  21 05  -21.0297 26023.0 -03502.2 -07.6649 26257.6
 14 11 2013  21 06  -21.0296 26022.9 -03502.3 -07.6651 26257.5
 14 11 2013  21 07  -21.0295 26022.8 -03502.3 -07.6652 26257.5
 14 11 2013  21 08  -21.0294 26022.7 -03502.4 -07.6655 26257.4
 14 11 2013  21 09  -21.0294 26022.6 -03502.5 -07.6656 26257.2
 14 11 2013  21 10  -21.0290 26022.5 -03502.5 -07.6656 26257.2
 14 11 2013  21 11  -21.0287 26022.5 -03502.6 -07.6658 26257.2
 14 11 2013  21 12  -21.0287 26022.5 -03502.7 -07.6660 26257.2
 14 11 2013  21 13  -21.0285 26022.4 -03502.7 -07.6660 26257.1
 14 11 2013  21 14  -21.0281 26022.3 -03502.7 -07.6661 26257.0
 14 11 2013  21 15  -21.0279 26022.3 -03502.8 -07.6663 26257.0
 14 11 2013  21 16  -21.0277 26022.2 -03502.8 -07.6665 26256.9
 14 11 2013  21 17  -21.0275 26022.2 -03502.9 -07.6666 26256.9
 14 11 2013  21 18  -21.0273 26022.1 -03503.0 -07.6668 26256.8
 14 11 2013  21 19  -21.0271 26022.1 -03503.1 -07.6670 26256.8
 14 11 2013  21 20  -21.0272 26022.0 -03503.1 -07.6671 26256.7
 14 11 2013  21 21  -21.0271 26021.9 -03503.2 -07.6673 26256.7
 14 11 2013  21 22  -21.0271 26021.9 -03503.3 -07.6675 26256.6
 14 11 2013  21 23  -21.0271 26021.7 -03503.3 -07.6677 26256.5
 14 11 2013  21 24  -21.0270 26021.5 -03503.3 -07.6676 26256.2
 14 11 2013  21 25  -21.0270 26021.2 -03503.2 -07.6676 26256.0
 14 11 2013  21 26  -21.0269 26020.9 -03503.3 -07.6677 26255.7
 14 11 2013  21 27  -21.0267 26020.7 -03503.2 -07.6678 26255.5
 14 11 2013  21 28  -21.0267 26020.5 -03503.2 -07.6678 26255.3
 14 11 2013  21 29  -21.0266 26020.4 -03503.3 -07.6680 26255.1
 14 11 2013  21 30  -21.0264 26020.2 -03503.3 -07.6681 26255.0
 14 11 2013  21 31  -21.0260 26020.3 -03503.4 -07.6683 26255.1
 14 11 2013  21 32  -21.0257 26020.5 -03503.6 -07.6686 26255.3
 14 11 2013  21 33  -21.0253 26020.7 -03503.8 -07.6690 26255.6
 14 11 2013  21 34  -21.0253 26020.9 -03504.0 -07.6693 26255.7
 14 11 2013  21 35  -21.0251 26021.0 -03504.1 -07.6696 26255.9
 14 11 2013  21 36  -21.0249 26021.2 -03504.3 -07.6699 26256.1
 14 11 2013  21 37  -21.0248 26021.3 -03504.4 -07.6702 26256.2
 14 11 2013  21 38  -21.0247 26021.2 -03504.5 -07.6704 26256.1
 14 11 2013  21 39  -21.0245 26021.1 -03504.6 -07.6705 26256.1
 14 11 2013  21 40  -21.0243 26021.1 -03504.6 -07.6705 26256.0
 14 11 2013  21 41  -21.0242 26020.8 -03504.5 -07.6705 26255.8
 14 11 2013  21 42  -21.0242 26020.5 -03504.4 -07.6704 26255.5
 14 11 2013  21 43  -21.0241 26020.3 -03504.3 -07.6703 26255.2
 14 11 2013  21 44  -21.0241 26020.1 -03504.3 -07.6703 26255.0
 14 11 2013  21 45  -21.0239 26019.9 -03504.3 -07.6703 26254.9
 14 11 2013  21 46  -21.0238 26019.8 -03504.3 -07.6703 26254.7
 14 11 2013  21 47  -21.0238 26019.6 -03504.3 -07.6704 26254.6
 14 11 2013  21 48  -21.0238 26019.5 -03504.3 -07.6705 26254.4
 14 11 2013  21 49  -21.0236 26019.5 -03504.4 -07.6706 26254.4
 14 11 2013  21 50  -21.0235 26019.4 -03504.4 -07.6707 26254.3
 14 11 2013  21 51  -21.0235 26019.3 -03504.4 -07.6707 26254.2
 14 11 2013  21 52  -21.0235 26019.2 -03504.4 -07.6708 26254.2
 14 11 2013  21 53  -21.0235 26019.1 -03504.4 -07.6708 26254.0
 14 11 2013  21 54  -21.0233 26018.9 -03504.4 -07.6707 26253.8
 14 11 2013  21 55  -21.0231 26018.7 -03504.3 -07.6707 26253.6
 14 11 2013  21 56  -21.0228 26018.5 -03504.3 -07.6707 26253.5
 14 11 2013  21 57  -21.0224 26018.5 -03504.3 -07.6706 26253.4
 14 11 2013  21 58  -21.0222 26018.4 -03504.3 -07.6707 26253.3
 14 11 2013  21 59  -21.0220 26018.4 -03504.3 -07.6708 26253.3
 14 11 2013  22 00  -21.0219 26018.2 -03504.4 -07.6709 26253.2
 14 11 2013  22 01  -21.0219 26018.1 -03504.4 -07.6709 26253.1
 14 11 2013  22 02  -21.0216 26018.1 -03504.4 -07.6710 26253.1
 14 11 2013  22 03  -21.0214 26018.1 -03504.4 -07.6710 26253.0
 14 11 2013  22 04  -21.0210 26018.0 -03504.4 -07.6710 26253.0
 14 11 2013  22 05  -21.0205 26018.0 -03504.4 -07.6710 26252.9
 14 11 2013  22 06  -21.0202 26018.0 -03504.4 -07.6711 26253.0
 14 11 2013  22 07  -21.0199 26018.1 -03504.5 -07.6712 26253.0
 14 11 2013  22 08  -21.0199 26018.0 -03504.5 -07.6713 26252.9
 14 11 2013  22 09  -21.0200 26017.9 -03504.5 -07.6713 26252.9
 14 11 2013  22 10  -21.0200 26017.9 -03504.5 -07.6713 26252.8
 14 11 2013  22 11  -21.0201 26017.7 -03504.5 -07.6713 26252.7
 14 11 2013  22 12  -21.0200 26017.5 -03504.4 -07.6712 26252.4
 14 11 2013  22 13  -21.0201 26017.3 -03504.3 -07.6710 26252.2
 14 11 2013  22 14  -21.0201 26017.2 -03504.2 -07.6710 26252.1
 14 11 2013  22 15  -21.0200 26017.3 -03504.3 -07.6711 26252.3
 14 11 2013  22 16  -21.0197 26017.5 -03504.4 -07.6713 26252.5
 14 11 2013  22 17  -21.0193 26017.8 -03504.6 -07.6715 26252.7
 14 11 2013  22 18  -21.0188 26018.1 -03504.7 -07.6718 26253.1
 14 11 2013  22 19  -21.0185 26018.2 -03504.9 -07.6720 26253.2
 14 11 2013  22 20  -21.0182 26018.3 -03504.9 -07.6721 26253.3
 14 11 2013  22 21  -21.0179 26018.4 -03505.0 -07.6722 26253.4
 14 11 2013  22 22  -21.0180 26018.3 -03505.0 -07.6722 26253.3
 14 11 2013  22 23  -21.0181 26018.2 -03504.9 -07.6721 26253.2
 14 11 2013  22 24  -21.0182 26018.1 -03504.9 -07.6721 26253.1
 14 11 2013  22 25  -21.0184 26018.0 -03504.9 -07.6720 26253.0
 14 11 2013  22 26  -21.0186 26017.8 -03504.8 -07.6720 26252.8
 14 11 2013  22 27  -21.0186 26017.7 -03504.7 -07.6719 26252.7
 14 11 2013  22 28  -21.0187 26017.5 -03504.7 -07.6718 26252.5
 14 11 2013  22 29  -21.0188 26017.2 -03504.5 -07.6716 26252.1
 14 11 2013  22 30  -21.0187 26017.0 -03504.4 -07.6714 26251.9
 14 11 2013  22 31  -21.0187 26016.9 -03504.5 -07.6715 26251.9
 14 11 2013  22 32  -21.0185 26016.8 -03504.4 -07.6714 26251.8
 14 11 2013  22 33  -21.0183 26016.7 -03504.4 -07.6714 26251.6
 14 11 2013  22 34  -21.0183 26016.6 -03504.4 -07.6714 26251.5
 14 11 2013  22 35  -21.0185 26016.4 -03504.3 -07.6714 26251.4
 14 11 2013  22 36  -21.0186 26016.2 -03504.3 -07.6713 26251.2
 14 11 2013  22 37  -21.0187 26016.1 -03504.2 -07.6712 26251.0
 14 11 2013  22 38  -21.0186 26015.9 -03504.2 -07.6712 26250.9
 14 11 2013  22 39  -21.0186 26015.9 -03504.2 -07.6713 26250.8
 14 11 2013  22 40  -21.0184 26015.8 -03504.2 -07.6713 26250.8
 14 11 2013  22 41  -21.0184 26015.6 -03504.2 -07.6713 26250.5
 14 11 2013  22 42  -21.0182 26015.4 -03504.1 -07.6713 26250.4
 14 11 2013  22 43  -21.0178 26015.3 -03504.1 -07.6711 26250.2
 14 11 2013  22 44  -21.0175 26015.2 -03504.1 -07.6711 26250.1
 14 11 2013  22 45  -21.0170 26015.1 -03504.1 -07.6712 26250.1
 14 11 2013  22 46  -21.0167 26015.1 -03504.1 -07.6712 26250.1
 14 11 2013  22 47  -21.0165 26015.1 -03504.2 -07.6714 26250.1
 14 11 2013  22 48  -21.0161 26015.1 -03504.2 -07.6715 26250.0
 14 11 2013  22 49  -21.0158 26015.1 -03504.2 -07.6715 26250.1
 14 11 2013  22 50  -21.0153 26015.1 -03504.3 -07.6717 26250.1
 14 11 2013  22 51  -21.0150 26015.0 -03504.2 -07.6716 26249.9
 14 11 2013  22 52  -21.0148 26014.8 -03504.2 -07.6715 26249.7
 14 11 2013  22 53  -21.0146 26014.6 -03504.1 -07.6715 26249.5
 14 11 2013  22 54  -21.0144 26014.4 -03504.1 -07.6714 26249.4
 14 11 2013  22 55  -21.0141 26014.3 -03504.1 -07.6714 26249.2
 14 11 2013  22 56  -21.0138 26014.1 -03504.0 -07.6714 26249.0
 14 11 2013  22 57  -21.0136 26013.9 -03504.0 -07.6714 26248.8
 14 11 2013  22 58  -21.0133 26013.8 -03504.0 -07.6714 26248.7
 14 11 2013  22 59  -21.0132 26013.7 -03504.0 -07.6715 26248.6
 14 11 2013  23 00  -21.0131 26013.7 -03504.1 -07.6716 26248.7
 14 11 2013  23 01  -21.0130 26013.7 -03504.1 -07.6717 26248.7
 14 11 2013  23 02  -21.0129 26013.8 -03504.2 -07.6719 26248.7
 14 11 2013  23 03  -21.0128 26013.8 -03504.2 -07.6720 26248.7
 14 11 2013  23 04  -21.0126 26013.8 -03504.3 -07.6720 26248.7
 14 11 2013  23 05  -21.0126 26013.8 -03504.3 -07.6721 26248.7
 14 11 2013  23 06  -21.0124 26013.8 -03504.4 -07.6722 26248.8
 14 11 2013  23 07  -21.0123 26013.8 -03504.4 -07.6723 26248.8
 14 11 2013  23 08  -21.0124 26013.9 -03504.5 -07.6725 26248.9
 14 11 2013  23 09  -21.0124 26014.1 -03504.6 -07.6727 26249.1
 14 11 2013  23 10  -21.0126 26014.3 -03504.7 -07.6728 26249.3
 14 11 2013  23 11  -21.0129 26014.5 -03504.8 -07.6730 26249.5
 14 11 2013  23 12  -21.0131 26014.5 -03504.9 -07.6731 26249.5
 14 11 2013  23 13  -21.0132 26014.6 -03504.9 -07.6730 26249.6
 14 11 2013  23 14  -21.0134 26014.7 -03504.9 -07.6731 26249.7
 14 11 2013  23 15  -21.0135 26014.7 -03504.9 -07.6731 26249.8
 14 11 2013  23 16  -21.0138 26014.7 -03504.9 -07.6731 26249.8
 14 11 2013  23 17  -21.0142 26014.7 -03504.9 -07.6731 26249.7
 14 11 2013  23 18  -21.0144 26014.8 -03504.9 -07.6730 26249.8
 14 11 2013  23 19  -21.0145 26014.8 -03504.9 -07.6730 26249.8
 14 11 2013  23 20  -21.0146 26014.8 -03504.9 -07.6730 26249.8
 14 11 2013  23 21  -21.0149 26014.8 -03504.8 -07.6730 26249.8
 14 11 2013  23 22  -21.0154 26014.7 -03504.8 -07.6729 26249.8
 14 11 2013  23 23  -21.0157 26014.7 -03504.8 -07.6728 26249.8
 14 11 2013  23 24  -21.0159 26014.7 -03504.7 -07.6727 26249.7
 14 11 2013  23 25  -21.0161 26014.6 -03504.7 -07.6726 26249.6
 14 11 2013  23 26  -21.0163 26014.5 -03504.6 -07.6726 26249.5
 14 11 2013  23 27  -21.0165 26014.4 -03504.6 -07.6724 26249.4
 14 11 2013  23 28  -21.0167 26014.3 -03504.5 -07.6723 26249.3
 14 11 2013  23 29  -21.0168 26014.2 -03504.5 -07.6723 26249.2
 14 11 2013  23 30  -21.0168 26014.2 -03504.4 -07.6722 26249.2
 14 11 2013  23 31  -21.0168 26014.2 -03504.4 -07.6722 26249.1
 14 11 2013  23 32  -21.0168 26014.2 -03504.4 -07.6723 26249.2
 14 11 2013  23 33  -21.0168 26014.3 -03504.5 -07.6724 26249.3
 14 11 2013  23 34  -21.0168 26014.3 -03504.6 -07.6725 26249.3
 14 11 2013  23 35  -21.0169 26014.3 -03504.6 -07.6725 26249.3
 14 11 2013  23 36  -21.0172 26014.2 -03504.5 -07.6725 26249.2
 14 11 2013  23 37  -21.0176 26014.1 -03504.5 -07.6725 26249.1
 14 11 2013  23 38  -21.0180 26014.1 -03504.5 -07.6725 26249.0
 14 11 2013  23 39  -21.0181 26013.9 -03504.5 -07.6724 26248.9
 14 11 2013  23 40  -21.0182 26013.8 -03504.4 -07.6723 26248.8
 14 11 2013  23 41  -21.0183 26013.8 -03504.4 -07.6724 26248.8
 14 11 2013  23 42  -21.0186 26013.8 -03504.4 -07.6724 26248.7
 14 11 2013  23 43  -21.0187 26013.8 -03504.5 -07.6725 26248.8
 14 11 2013  23 44  -21.0186 26013.8 -03504.5 -07.6725 26248.8
 14 11 2013  23 45  -21.0185 26013.9 -03504.5 -07.6726 26248.9
 14 11 2013  23 46  -21.0183 26013.9 -03504.6 -07.6727 26248.9
 14 11 2013  23 47  -21.0181 26014.1 -03504.7 -07.6729 26249.1
 14 11 2013  23 48  -21.0177 26014.3 -03504.9 -07.6731 26249.4
 14 11 2013  23 49  -21.0172 26014.6 -03505.0 -07.6734 26249.7
 14 11 2013  23 50  -21.0167 26014.9 -03505.2 -07.6737 26249.9
 14 11 2013  23 51  -21.0163 26015.1 -03505.3 -07.6739 26250.2
 14 11 2013  23 52  -21.0161 26015.2 -03505.4 -07.6741 26250.3
 14 11 2013  23 53  -21.0162 26015.2 -03505.5 -07.6743 26250.3
 14 11 2013  23 54  -21.0165 26015.2 -03505.6 -07.6744 26250.4
 14 11 2013  23 55  -21.0168 26015.1 -03505.6 -07.6744 26250.2
 14 11 2013  23 56  -21.0172 26015.0 -03505.5 -07.6744 26250.2
 14 11 2013  23 57  -21.0178 26015.0 -03505.5 -07.6744 26250.1
