SAO LUIS EMBRACE-03 <259> 1 Min. Reported data

 DD MM YYYY  HH MM   D(Deg)  H(nT)   Z(nT)   I(Deg)   F(nT)

 16 09 2013  00 00  -21.0185 26030.8 -03485.9 -07.6273 26263.2
 16 09 2013  00 01  -21.0185 26030.7 -03485.8 -07.6272 26263.1
 16 09 2013  00 02  -21.0185 26030.7 -03485.8 -07.6272 26263.1
 16 09 2013  00 03  -21.0183 26030.6 -03485.8 -07.6271 26262.9
 16 09 2013  00 04  -21.0181 26030.4 -03485.7 -07.6270 26262.8
 16 09 2013  00 05  -21.0179 26030.4 -03485.7 -07.6270 26262.7
 16 09 2013  00 06  -21.0177 26030.3 -03485.7 -07.6270 26262.6
 16 09 2013  00 07  -21.0178 26030.2 -03485.6 -07.6270 26262.5
 16 09 2013  00 08  -21.0178 26030.1 -03485.6 -07.6270 26262.5
 16 09 2013  00 09  -21.0177 26030.1 -03485.7 -07.6271 26262.4
 16 09 2013  00 10  -21.0176 26030.2 -03485.8 -07.6272 26262.5
 16 09 2013  00 11  -21.0173 26030.3 -03485.8 -07.6273 26262.7
 16 09 2013  00 12  -21.0172 26030.5 -03486.0 -07.6275 26262.9
 16 09 2013  00 13  -21.0171 26030.9 -03486.2 -07.6279 26263.3
 16 09 2013  00 14  -21.0170 26031.2 -03486.4 -07.6282 26263.6
 16 09 2013  00 15  -21.0170 26031.3 -03486.5 -07.6284 26263.8
 16 09 2013  00 16  -21.0169 26031.6 -03486.6 -07.6286 26264.0
 16 09 2013  00 17  -21.0169 26031.8 -03486.7 -07.6287 26264.2
 16 09 2013  00 18  -21.0168 26031.7 -03486.6 -07.6287 26264.1
 16 09 2013  00 19  -21.0167 26031.6 -03486.5 -07.6285 26264.1
 16 09 2013  00 20  -21.0168 26031.6 -03486.5 -07.6285 26264.0
 16 09 2013  00 21  -21.0168 26031.4 -03486.4 -07.6283 26263.9
 16 09 2013  00 22  -21.0169 26031.4 -03486.4 -07.6283 26263.8
 16 09 2013  00 23  -21.0169 26031.3 -03486.4 -07.6283 26263.8
 16 09 2013  00 24  -21.0169 26031.2 -03486.4 -07.6282 26263.7
 16 09 2013  00 25  -21.0168 26031.2 -03486.3 -07.6282 26263.6
 16 09 2013  00 26  -21.0168 26031.2 -03486.3 -07.6282 26263.6
 16 09 2013  00 27  -21.0168 26031.1 -03486.3 -07.6282 26263.5
 16 09 2013  00 28  -21.0166 26031.2 -03486.4 -07.6282 26263.6
 16 09 2013  00 29  -21.0165 26031.2 -03486.4 -07.6282 26263.6
 16 09 2013  00 30  -21.0163 26031.1 -03486.4 -07.6282 26263.5
 16 09 2013  00 31  -21.0162 26031.1 -03486.4 -07.6283 26263.5
 16 09 2013  00 32  -21.0163 26030.9 -03486.3 -07.6282 26263.3
 16 09 2013  00 33  -21.0164 26030.6 -03486.2 -07.6281 26263.0
 16 09 2013  00 34  -21.0165 26030.4 -03486.1 -07.6279 26262.8
 16 09 2013  00 35  -21.0167 26030.2 -03486.0 -07.6278 26262.6
 16 09 2013  00 36  -21.0172 26030.0 -03486.0 -07.6277 26262.4
 16 09 2013  00 37  -21.0176 26029.9 -03486.0 -07.6277 26262.3
 16 09 2013  00 38  -21.0178 26029.8 -03485.9 -07.6277 26262.1
 16 09 2013  00 39  -21.0181 26029.6 -03485.9 -07.6277 26261.9
 16 09 2013  00 40  -21.0183 26029.4 -03485.8 -07.6275 26261.7
 16 09 2013  00 41  -21.0183 26029.2 -03485.8 -07.6275 26261.6
 16 09 2013  00 42  -21.0182 26029.1 -03485.7 -07.6274 26261.5
 16 09 2013  00 43  -21.0182 26029.0 -03485.7 -07.6274 26261.4
 16 09 2013  00 44  -21.0182 26028.8 -03485.7 -07.6274 26261.2
 16 09 2013  00 45  -21.0183 26028.7 -03485.6 -07.6273 26261.0
 16 09 2013  00 46  -21.0182 26028.7 -03485.7 -07.6274 26261.0
 16 09 2013  00 47  -21.0182 26028.5 -03485.6 -07.6273 26260.8
 16 09 2013  00 48  -21.0184 26028.3 -03485.5 -07.6273 26260.6
 16 09 2013  00 49  -21.0185 26028.3 -03485.6 -07.6274 26260.6
 16 09 2013  00 50  -21.0186 26028.3 -03485.7 -07.6275 26260.7
 16 09 2013  00 51  -21.0187 26028.1 -03485.6 -07.6274 26260.5
 16 09 2013  00 52  -21.0190 26028.1 -03485.6 -07.6275 26260.4
 16 09 2013  00 53  -21.0191 26028.0 -03485.6 -07.6275 26260.4
 16 09 2013  00 54  -21.0194 26028.0 -03485.6 -07.6275 26260.3
 16 09 2013  00 55  -21.0195 26028.0 -03485.6 -07.6276 26260.4
 16 09 2013  00 56  -21.0195 26027.8 -03485.6 -07.6275 26260.2
 16 09 2013  00 57  -21.0194 26027.8 -03485.6 -07.6275 26260.1
 16 09 2013  00 58  -21.0194 26027.8 -03485.6 -07.6276 26260.2
 16 09 2013  00 59  -21.0196 26027.8 -03485.6 -07.6276 26260.1
 16 09 2013  01 00  -21.0196 26027.8 -03485.7 -07.6277 26260.2
 16 09 2013  01 01  -21.0196 26027.7 -03485.6 -07.6276 26260.0
 16 09 2013  01 02  -21.0197 26027.4 -03485.5 -07.6274 26259.8
 16 09 2013  01 03  -21.0197 26027.4 -03485.5 -07.6274 26259.7
 16 09 2013  01 04  -21.0200 26027.2 -03485.5 -07.6274 26259.6
 16 09 2013  01 05  -21.0203 26027.1 -03485.5 -07.6275 26259.5
 16 09 2013  01 06  -21.0205 26027.0 -03485.4 -07.6274 26259.3
 16 09 2013  01 07  -21.0206 26026.8 -03485.4 -07.6273 26259.1
 16 09 2013  01 08  -21.0206 26026.8 -03485.3 -07.6273 26259.1
 16 09 2013  01 09  -21.0207 26026.6 -03485.3 -07.6273 26258.9
 16 09 2013  01 10  -21.0207 26026.5 -03485.3 -07.6272 26258.9
 16 09 2013  01 11  -21.0208 26026.4 -03485.3 -07.6273 26258.8
 16 09 2013  01 12  -21.0211 26026.3 -03485.3 -07.6273 26258.7
 16 09 2013  01 13  -21.0210 26026.3 -03485.3 -07.6273 26258.6
 16 09 2013  01 14  -21.0211 26026.2 -03485.2 -07.6273 26258.5
 16 09 2013  01 15  -21.0212 26026.1 -03485.3 -07.6273 26258.5
 16 09 2013  01 16  -21.0211 26026.2 -03485.3 -07.6274 26258.5
 16 09 2013  01 17  -21.0210 26026.3 -03485.4 -07.6275 26258.6
 16 09 2013  01 18  -21.0209 26026.3 -03485.4 -07.6276 26258.6
 16 09 2013  01 19  -21.0208 26026.2 -03485.4 -07.6276 26258.5
 16 09 2013  01 20  -21.0208 26026.0 -03485.4 -07.6276 26258.4
 16 09 2013  01 21  -21.0211 26025.9 -03485.3 -07.6276 26258.2
 16 09 2013  01 22  -21.0209 26025.9 -03485.4 -07.6277 26258.3
 16 09 2013  01 23  -21.0210 26025.7 -03485.3 -07.6276 26258.0
 16 09 2013  01 24  -21.0208 26025.6 -03485.3 -07.6274 26257.9
 16 09 2013  01 25  -21.0208 26025.6 -03485.3 -07.6276 26257.9
 16 09 2013  01 26  -21.0210 26025.4 -03485.3 -07.6276 26257.7
 16 09 2013  01 27  -21.0211 26025.4 -03485.3 -07.6276 26257.8
 16 09 2013  01 28  -21.0216 26025.4 -03485.4 -07.6278 26257.7
 16 09 2013  01 29  -21.0220 26025.4 -03485.4 -07.6278 26257.7
 16 09 2013  01 30  -21.0224 26025.3 -03485.4 -07.6278 26257.7
 16 09 2013  01 31  -21.0225 26025.4 -03485.4 -07.6278 26257.7
 16 09 2013  01 32  -21.0227 26025.2 -03485.4 -07.6278 26257.6
 16 09 2013  01 33  -21.0230 26025.2 -03485.4 -07.6278 26257.6
 16 09 2013  01 34  -21.0232 26025.3 -03485.4 -07.6278 26257.6
 16 09 2013  01 35  -21.0232 26025.2 -03485.3 -07.6277 26257.5
 16 09 2013  01 36  -21.0231 26025.1 -03485.3 -07.6277 26257.4
 16 09 2013  01 37  -21.0232 26024.9 -03485.2 -07.6275 26257.3
 16 09 2013  01 38  -21.0232 26024.8 -03485.2 -07.6275 26257.1
 16 09 2013  01 39  -21.0232 26024.7 -03485.1 -07.6275 26257.0
 16 09 2013  01 40  -21.0233 26024.6 -03485.1 -07.6274 26256.9
 16 09 2013  01 41  -21.0233 26024.5 -03485.1 -07.6273 26256.8
 16 09 2013  01 42  -21.0232 26024.5 -03485.1 -07.6274 26256.9
 16 09 2013  01 43  -21.0231 26024.5 -03485.1 -07.6274 26256.8
 16 09 2013  01 44  -21.0230 26024.4 -03485.1 -07.6274 26256.7
 16 09 2013  01 45  -21.0226 26024.3 -03485.0 -07.6273 26256.6
 16 09 2013  01 46  -21.0220 26024.4 -03485.1 -07.6274 26256.7
 16 09 2013  01 47  -21.0216 26024.4 -03485.1 -07.6275 26256.7
 16 09 2013  01 48  -21.0211 26024.5 -03485.3 -07.6278 26256.9
 16 09 2013  01 49  -21.0210 26024.6 -03485.3 -07.6279 26256.9
 16 09 2013  01 50  -21.0208 26024.7 -03485.5 -07.6281 26257.1
 16 09 2013  01 51  -21.0205 26024.8 -03485.5 -07.6282 26257.2
 16 09 2013  01 52  -21.0202 26024.8 -03485.5 -07.6283 26257.2
 16 09 2013  01 53  -21.0202 26024.8 -03485.5 -07.6283 26257.1
 16 09 2013  01 54  -21.0200 26024.8 -03485.6 -07.6283 26257.1
 16 09 2013  01 55  -21.0195 26024.8 -03485.6 -07.6284 26257.2
 16 09 2013  01 56  -21.0193 26024.8 -03485.6 -07.6285 26257.2
 16 09 2013  01 57  -21.0193 26024.8 -03485.7 -07.6286 26257.1
 16 09 2013  01 58  -21.0193 26024.9 -03485.7 -07.6287 26257.3
 16 09 2013  01 59  -21.0191 26024.8 -03485.8 -07.6288 26257.2
 16 09 2013  02 00  -21.0191 26024.7 -03485.7 -07.6288 26257.1
 16 09 2013  02 01  -21.0191 26024.8 -03485.8 -07.6288 26257.2
 16 09 2013  02 02  -21.0190 26024.8 -03485.8 -07.6289 26257.2
 16 09 2013  02 03  -21.0188 26024.8 -03485.9 -07.6290 26257.2
 16 09 2013  02 04  -21.0187 26024.8 -03485.9 -07.6290 26257.2
 16 09 2013  02 05  -21.0186 26024.8 -03485.9 -07.6290 26257.2
 16 09 2013  02 06  -21.0187 26024.7 -03485.9 -07.6290 26257.1
 16 09 2013  02 07  -21.0189 26024.5 -03485.8 -07.6290 26257.0
 16 09 2013  02 08  -21.0190 26024.5 -03485.9 -07.6291 26256.9
 16 09 2013  02 09  -21.0191 26024.4 -03485.8 -07.6289 26256.8
 16 09 2013  02 10  -21.0192 26024.3 -03485.8 -07.6290 26256.7
 16 09 2013  02 11  -21.0193 26024.3 -03485.8 -07.6290 26256.7
 16 09 2013  02 12  -21.0195 26024.1 -03485.8 -07.6290 26256.5
 16 09 2013  02 13  -21.0195 26024.1 -03485.7 -07.6288 26256.5
 16 09 2013  02 14  -21.0195 26024.0 -03485.7 -07.6289 26256.4
 16 09 2013  02 15  -21.0193 26024.0 -03485.6 -07.6288 26256.4
 16 09 2013  02 16  -21.0193 26023.8 -03485.6 -07.6288 26256.2
 16 09 2013  02 17  -21.0192 26023.9 -03485.7 -07.6288 26256.3
 16 09 2013  02 18  -21.0193 26024.0 -03485.7 -07.6289 26256.4
 16 09 2013  02 19  -21.0195 26023.9 -03485.7 -07.6290 26256.3
 16 09 2013  02 20  -21.0197 26023.9 -03485.8 -07.6290 26256.3
 16 09 2013  02 21  -21.0197 26024.0 -03485.8 -07.6292 26256.5
 16 09 2013  02 22  -21.0199 26024.2 -03485.9 -07.6293 26256.6
 16 09 2013  02 23  -21.0201 26024.4 -03486.1 -07.6296 26256.9
 16 09 2013  02 24  -21.0203 26024.5 -03486.2 -07.6297 26257.0
 16 09 2013  02 25  -21.0205 26024.6 -03486.2 -07.6298 26257.1
 16 09 2013  02 26  -21.0205 26024.6 -03486.2 -07.6297 26257.1
 16 09 2013  02 27  -21.0206 26024.7 -03486.2 -07.6298 26257.2
 16 09 2013  02 28  -21.0206 26024.7 -03486.2 -07.6297 26257.2
 16 09 2013  02 29  -21.0206 26024.8 -03486.2 -07.6298 26257.3
 16 09 2013  02 30  -21.0205 26025.1 -03486.3 -07.6299 26257.5
 16 09 2013  02 31  -21.0205 26025.3 -03486.4 -07.6300 26257.8
 16 09 2013  02 32  -21.0204 26025.3 -03486.5 -07.6301 26257.8
 16 09 2013  02 33  -21.0203 26025.4 -03486.4 -07.6301 26257.9
 16 09 2013  02 34  -21.0200 26025.5 -03486.5 -07.6301 26258.0
 16 09 2013  02 35  -21.0197 26025.5 -03486.5 -07.6301 26258.0
 16 09 2013  02 36  -21.0193 26025.7 -03486.5 -07.6301 26258.2
 16 09 2013  02 37  -21.0190 26025.6 -03486.5 -07.6301 26258.1
 16 09 2013  02 38  -21.0187 26025.7 -03486.5 -07.6300 26258.2
 16 09 2013  02 39  -21.0185 26025.7 -03486.5 -07.6300 26258.2
 16 09 2013  02 40  -21.0184 26025.6 -03486.4 -07.6300 26258.1
 16 09 2013  02 41  -21.0183 26025.7 -03486.5 -07.6301 26258.2
 16 09 2013  02 42  -21.0183 26025.7 -03486.5 -07.6301 26258.2
 16 09 2013  02 43  -21.0182 26025.8 -03486.6 -07.6302 26258.3
 16 09 2013  02 44  -21.0180 26025.7 -03486.6 -07.6303 26258.2
 16 09 2013  02 45  -21.0179 26025.7 -03486.6 -07.6302 26258.2
 16 09 2013  02 46  -21.0178 26025.8 -03486.6 -07.6303 26258.3
 16 09 2013  02 47  -21.0179 26025.8 -03486.6 -07.6304 26258.4
 16 09 2013  02 48  -21.0179 26025.9 -03486.7 -07.6305 26258.4
 16 09 2013  02 49  -21.0179 26025.9 -03486.7 -07.6305 26258.5
 16 09 2013  02 50  -21.0177 26026.0 -03486.7 -07.6306 26258.5
 16 09 2013  02 51  -21.0175 26026.0 -03486.7 -07.6306 26258.5
 16 09 2013  02 52  -21.0172 26026.0 -03486.7 -07.6305 26258.5
 16 09 2013  02 53  -21.0170 26026.0 -03486.7 -07.6305 26258.5
 16 09 2013  02 54  -21.0167 26025.9 -03486.7 -07.6304 26258.4
 16 09 2013  02 55  -21.0164 26025.9 -03486.7 -07.6305 26258.5
 16 09 2013  02 56  -21.0163 26025.9 -03486.7 -07.6305 26258.4
 16 09 2013  02 57  -21.0162 26025.9 -03486.7 -07.6305 26258.4
 16 09 2013  02 58  -21.0161 26025.9 -03486.7 -07.6305 26258.4
 16 09 2013  02 59  -21.0161 26025.9 -03486.7 -07.6306 26258.4
 16 09 2013  03 00  -21.0159 26026.0 -03486.8 -07.6306 26258.5
 16 09 2013  03 01  -21.0158 26025.9 -03486.8 -07.6307 26258.5
 16 09 2013  03 02  -21.0155 26025.9 -03486.8 -07.6306 26258.5
 16 09 2013  03 03  -21.0153 26026.0 -03486.8 -07.6307 26258.5
 16 09 2013  03 04  -21.0150 26026.0 -03486.8 -07.6307 26258.5
 16 09 2013  03 05  -21.0150 26026.0 -03486.8 -07.6308 26258.5
 16 09 2013  03 06  -21.0149 26026.0 -03486.9 -07.6308 26258.6
 16 09 2013  03 07  -21.0149 26026.1 -03486.9 -07.6309 26258.6
 16 09 2013  03 08  -21.0148 26026.0 -03486.9 -07.6308 26258.5
 16 09 2013  03 09  -21.0149 26026.1 -03486.9 -07.6309 26258.6
 16 09 2013  03 10  -21.0148 26026.0 -03486.9 -07.6309 26258.6
 16 09 2013  03 11  -21.0148 26026.1 -03486.9 -07.6309 26258.6
 16 09 2013  03 12  -21.0147 26026.0 -03486.9 -07.6310 26258.6
 16 09 2013  03 13  -21.0146 26026.2 -03487.0 -07.6310 26258.7
 16 09 2013  03 14  -21.0145 26026.2 -03487.0 -07.6310 26258.7
 16 09 2013  03 15  -21.0145 26026.2 -03487.0 -07.6310 26258.7
 16 09 2013  03 16  -21.0144 26026.2 -03487.0 -07.6311 26258.7
 16 09 2013  03 17  -21.0144 26026.1 -03486.9 -07.6310 26258.6
 16 09 2013  03 18  -21.0143 26026.1 -03487.0 -07.6310 26258.7
 16 09 2013  03 19  -21.0142 26026.0 -03487.0 -07.6310 26258.6
 16 09 2013  03 20  -21.0141 26026.1 -03487.0 -07.6310 26258.7
 16 09 2013  03 21  -21.0140 26026.0 -03487.0 -07.6310 26258.6
 16 09 2013  03 22  -21.0141 26026.1 -03487.0 -07.6311 26258.6
 16 09 2013  03 23  -21.0139 26025.9 -03486.9 -07.6310 26258.5
 16 09 2013  03 24  -21.0138 26026.0 -03487.0 -07.6310 26258.5
 16 09 2013  03 25  -21.0137 26025.8 -03486.9 -07.6310 26258.4
 16 09 2013  03 26  -21.0137 26025.8 -03486.9 -07.6310 26258.4
 16 09 2013  03 27  -21.0137 26025.8 -03486.9 -07.6310 26258.4
 16 09 2013  03 28  -21.0137 26025.9 -03486.9 -07.6310 26258.4
 16 09 2013  03 29  -21.0136 26025.9 -03487.0 -07.6311 26258.4
 16 09 2013  03 30  -21.0134 26025.9 -03487.0 -07.6311 26258.5
 16 09 2013  03 31  -21.0132 26026.0 -03487.1 -07.6312 26258.6
 16 09 2013  03 32  -21.0134 26026.0 -03487.1 -07.6313 26258.6
 16 09 2013  03 33  -21.0135 26026.2 -03487.2 -07.6315 26258.8
 16 09 2013  03 34  -21.0135 26026.3 -03487.3 -07.6316 26258.9
 16 09 2013  03 35  -21.0135 26026.3 -03487.3 -07.6316 26258.9
 16 09 2013  03 36  -21.0135 26026.4 -03487.3 -07.6316 26258.9
 16 09 2013  03 37  -21.0133 26026.4 -03487.3 -07.6316 26259.0
 16 09 2013  03 38  -21.0133 26026.4 -03487.3 -07.6316 26259.0
 16 09 2013  03 39  -21.0135 26026.5 -03487.3 -07.6317 26259.1
 16 09 2013  03 40  -21.0136 26026.5 -03487.4 -07.6318 26259.1
 16 09 2013  03 41  -21.0137 26026.5 -03487.4 -07.6318 26259.1
 16 09 2013  03 42  -21.0139 26026.5 -03487.4 -07.6318 26259.1
 16 09 2013  03 43  -21.0141 26026.6 -03487.5 -07.6320 26259.2
 16 09 2013  03 44  -21.0143 26026.6 -03487.5 -07.6320 26259.2
 16 09 2013  03 45  -21.0146 26026.7 -03487.5 -07.6321 26259.3
 16 09 2013  03 46  -21.0147 26026.6 -03487.5 -07.6321 26259.3
 16 09 2013  03 47  -21.0148 26026.7 -03487.5 -07.6320 26259.3
 16 09 2013  03 48  -21.0148 26026.7 -03487.5 -07.6320 26259.3
 16 09 2013  03 49  -21.0149 26026.7 -03487.5 -07.6320 26259.3
 16 09 2013  03 50  -21.0151 26026.6 -03487.5 -07.6320 26259.2
 16 09 2013  03 51  -21.0152 26026.4 -03487.4 -07.6318 26259.0
 16 09 2013  03 52  -21.0150 26026.3 -03487.3 -07.6317 26258.9
 16 09 2013  03 53  -21.0149 26026.2 -03487.3 -07.6316 26258.8
 16 09 2013  03 54  -21.0148 26026.1 -03487.3 -07.6316 26258.7
 16 09 2013  03 55  -21.0147 26026.2 -03487.3 -07.6317 26258.8
 16 09 2013  03 56  -21.0148 26026.1 -03487.3 -07.6317 26258.7
 16 09 2013  03 57  -21.0148 26026.0 -03487.3 -07.6316 26258.6
 16 09 2013  03 58  -21.0146 26025.9 -03487.2 -07.6316 26258.5
 16 09 2013  03 59  -21.0144 26025.7 -03487.2 -07.6315 26258.3
 16 09 2013  04 00  -21.0143 26025.7 -03487.1 -07.6315 26258.2
 16 09 2013  04 01  -21.0142 26025.6 -03487.2 -07.6315 26258.2
 16 09 2013  04 02  -21.0143 26025.7 -03487.2 -07.6317 26258.2
 16 09 2013  04 03  -21.0147 26025.8 -03487.3 -07.6319 26258.4
 16 09 2013  04 04  -21.0151 26025.7 -03487.4 -07.6320 26258.4
 16 09 2013  04 05  -21.0155 26025.8 -03487.4 -07.6321 26258.4
 16 09 2013  04 06  -21.0158 26025.8 -03487.5 -07.6322 26258.5
 16 09 2013  04 07  -21.0160 26026.0 -03487.5 -07.6323 26258.6
 16 09 2013  04 08  -21.0163 26026.1 -03487.6 -07.6324 26258.7
 16 09 2013  04 09  -21.0165 26026.0 -03487.6 -07.6323 26258.7
 16 09 2013  04 10  -21.0166 26026.1 -03487.6 -07.6324 26258.8
 16 09 2013  04 11  -21.0168 26026.2 -03487.6 -07.6324 26258.8
 16 09 2013  04 12  -21.0170 26026.3 -03487.7 -07.6325 26259.0
 16 09 2013  04 13  -21.0172 26026.4 -03487.7 -07.6325 26259.0
 16 09 2013  04 14  -21.0174 26026.4 -03487.7 -07.6325 26259.1
 16 09 2013  04 15  -21.0176 26026.5 -03487.7 -07.6326 26259.1
 16 09 2013  04 16  -21.0178 26026.5 -03487.7 -07.6325 26259.2
 16 09 2013  04 17  -21.0179 26026.5 -03487.7 -07.6324 26259.1
 16 09 2013  04 18  -21.0179 26026.5 -03487.6 -07.6323 26259.1
 16 09 2013  04 19  -21.0178 26026.5 -03487.6 -07.6323 26259.1
 16 09 2013  04 20  -21.0177 26026.5 -03487.6 -07.6323 26259.1
 16 09 2013  04 21  -21.0178 26026.6 -03487.6 -07.6323 26259.2
 16 09 2013  04 22  -21.0178 26026.5 -03487.6 -07.6323 26259.1
 16 09 2013  04 23  -21.0178 26026.5 -03487.6 -07.6323 26259.2
 16 09 2013  04 24  -21.0177 26026.5 -03487.5 -07.6321 26259.1
 16 09 2013  04 25  -21.0177 26026.4 -03487.5 -07.6321 26259.0
 16 09 2013  04 26  -21.0178 26026.4 -03487.5 -07.6321 26259.0
 16 09 2013  04 27  -21.0178 26026.2 -03487.4 -07.6320 26258.9
 16 09 2013  04 28  -21.0175 26026.2 -03487.4 -07.6319 26258.9
 16 09 2013  04 29  -21.0175 26026.1 -03487.4 -07.6319 26258.7
 16 09 2013  04 30  -21.0176 26026.1 -03487.4 -07.6319 26258.7
 16 09 2013  04 31  -21.0175 26026.0 -03487.3 -07.6318 26258.6
 16 09 2013  04 32  -21.0174 26026.0 -03487.3 -07.6317 26258.6
 16 09 2013  04 33  -21.0173 26026.0 -03487.3 -07.6318 26258.6
 16 09 2013  04 34  -21.0173 26026.0 -03487.3 -07.6318 26258.6
 16 09 2013  04 35  -21.0172 26026.1 -03487.4 -07.6319 26258.7
 16 09 2013  04 36  -21.0171 26026.2 -03487.5 -07.6320 26258.8
 16 09 2013  04 37  -21.0171 26026.2 -03487.5 -07.6321 26258.8
 16 09 2013  04 38  -21.0171 26026.3 -03487.5 -07.6322 26259.0
 16 09 2013  04 39  -21.0171 26026.5 -03487.6 -07.6323 26259.1
 16 09 2013  04 40  -21.0172 26026.5 -03487.7 -07.6324 26259.1
 16 09 2013  04 41  -21.0171 26026.7 -03487.7 -07.6324 26259.4
 16 09 2013  04 42  -21.0171 26026.7 -03487.8 -07.6325 26259.4
 16 09 2013  04 43  -21.0171 26026.9 -03487.8 -07.6326 26259.5
 16 09 2013  04 44  -21.0170 26026.9 -03487.8 -07.6326 26259.6
 16 09 2013  04 45  -21.0168 26027.0 -03487.8 -07.6326 26259.6
 16 09 2013  04 46  -21.0166 26027.1 -03487.9 -07.6327 26259.8
 16 09 2013  04 47  -21.0166 26027.1 -03487.9 -07.6327 26259.8
 16 09 2013  04 48  -21.0164 26027.3 -03487.9 -07.6327 26259.9
 16 09 2013  04 49  -21.0159 26027.4 -03488.0 -07.6328 26260.1
 16 09 2013  04 50  -21.0156 26027.4 -03488.0 -07.6328 26260.1
 16 09 2013  04 51  -21.0153 26027.5 -03488.0 -07.6329 26260.2
 16 09 2013  04 52  -21.0150 26027.4 -03488.0 -07.6329 26260.1
 16 09 2013  04 53  -21.0147 26027.3 -03487.9 -07.6328 26260.0
 16 09 2013  04 54  -21.0143 26027.3 -03488.0 -07.6328 26260.0
 16 09 2013  04 55  -21.0139 26027.3 -03488.0 -07.6328 26260.0
 16 09 2013  04 56  -21.0136 26027.4 -03488.0 -07.6329 26260.0
 16 09 2013  04 57  -21.0135 26027.2 -03488.0 -07.6329 26259.9
 16 09 2013  04 58  -21.0132 26027.4 -03488.0 -07.6330 26260.0
 16 09 2013  04 59  -21.0131 26027.3 -03488.1 -07.6330 26260.0
 16 09 2013  05 00  -21.0129 26027.4 -03488.1 -07.6331 26260.1
 16 09 2013  05 01  -21.0127 26027.7 -03488.3 -07.6333 26260.4
 16 09 2013  05 02  -21.0125 26027.7 -03488.3 -07.6334 26260.4
 16 09 2013  05 03  -21.0123 26028.0 -03488.4 -07.6336 26260.7
 16 09 2013  05 04  -21.0121 26028.0 -03488.5 -07.6337 26260.7
 16 09 2013  05 05  -21.0120 26028.0 -03488.5 -07.6338 26260.8
 16 09 2013  05 06  -21.0118 26028.1 -03488.5 -07.6338 26260.8
 16 09 2013  05 07  -21.0115 26028.1 -03488.5 -07.6338 26260.8
 16 09 2013  05 08  -21.0111 26027.9 -03488.5 -07.6337 26260.6
 16 09 2013  05 09  -21.0107 26027.8 -03488.4 -07.6336 26260.6
 16 09 2013  05 10  -21.0104 26027.6 -03488.3 -07.6335 26260.4
 16 09 2013  05 11  -21.0100 26027.5 -03488.3 -07.6334 26260.2
 16 09 2013  05 12  -21.0098 26027.4 -03488.2 -07.6334 26260.1
 16 09 2013  05 13  -21.0097 26027.3 -03488.2 -07.6334 26260.0
 16 09 2013  05 14  -21.0093 26027.3 -03488.2 -07.6334 26260.0
 16 09 2013  05 15  -21.0093 26027.3 -03488.3 -07.6336 26260.0
 16 09 2013  05 16  -21.0092 26027.4 -03488.4 -07.6338 26260.2
 16 09 2013  05 17  -21.0091 26027.5 -03488.5 -07.6339 26260.3
 16 09 2013  05 18  -21.0089 26027.6 -03488.6 -07.6341 26260.4
 16 09 2013  05 19  -21.0087 26027.6 -03488.6 -07.6341 26260.3
 16 09 2013  05 20  -21.0085 26027.6 -03488.6 -07.6341 26260.3
 16 09 2013  05 21  -21.0084 26027.7 -03488.7 -07.6342 26260.5
 16 09 2013  05 22  -21.0083 26027.5 -03488.6 -07.6341 26260.2
 16 09 2013  05 23  -21.0082 26027.5 -03488.6 -07.6341 26260.3
 16 09 2013  05 24  -21.0082 26027.3 -03488.5 -07.6340 26260.0
 16 09 2013  05 25  -21.0083 26027.3 -03488.6 -07.6341 26260.0
 16 09 2013  05 26  -21.0085 26027.3 -03488.6 -07.6342 26260.1
 16 09 2013  05 27  -21.0088 26027.4 -03488.6 -07.6343 26260.1
 16 09 2013  05 28  -21.0089 26027.5 -03488.7 -07.6344 26260.3
 16 09 2013  05 29  -21.0089 26027.7 -03488.8 -07.6345 26260.5
 16 09 2013  05 30  -21.0091 26027.8 -03488.9 -07.6346 26260.6
 16 09 2013  05 31  -21.0091 26027.9 -03488.9 -07.6347 26260.7
 16 09 2013  05 32  -21.0094 26028.0 -03489.0 -07.6348 26260.8
 16 09 2013  05 33  -21.0095 26028.0 -03488.9 -07.6347 26260.8
 16 09 2013  05 34  -21.0097 26028.0 -03488.9 -07.6347 26260.8
 16 09 2013  05 35  -21.0098 26028.0 -03488.9 -07.6346 26260.8
 16 09 2013  05 36  -21.0099 26028.0 -03488.8 -07.6345 26260.8
 16 09 2013  05 37  -21.0098 26028.0 -03488.8 -07.6345 26260.8
 16 09 2013  05 38  -21.0098 26028.0 -03488.8 -07.6345 26260.8
 16 09 2013  05 39  -21.0097 26027.9 -03488.8 -07.6344 26260.7
 16 09 2013  05 40  -21.0096 26027.8 -03488.7 -07.6343 26260.6
 16 09 2013  05 41  -21.0094 26027.7 -03488.6 -07.6342 26260.5
 16 09 2013  05 42  -21.0091 26027.6 -03488.6 -07.6341 26260.4
 16 09 2013  05 43  -21.0089 26027.5 -03488.6 -07.6340 26260.2
 16 09 2013  05 44  -21.0086 26027.4 -03488.5 -07.6340 26260.1
 16 09 2013  05 45  -21.0083 26027.2 -03488.5 -07.6340 26260.0
 16 09 2013  05 46  -21.0079 26027.1 -03488.5 -07.6340 26259.9
 16 09 2013  05 47  -21.0076 26027.0 -03488.5 -07.6340 26259.8
 16 09 2013  05 48  -21.0073 26026.9 -03488.5 -07.6340 26259.7
 16 09 2013  05 49  -21.0070 26026.9 -03488.5 -07.6341 26259.7
 16 09 2013  05 50  -21.0069 26027.0 -03488.6 -07.6342 26259.7
 16 09 2013  05 51  -21.0067 26027.0 -03488.6 -07.6344 26259.8
 16 09 2013  05 52  -21.0066 26027.1 -03488.7 -07.6345 26259.9
 16 09 2013  05 53  -21.0067 26027.0 -03488.8 -07.6347 26259.8
 16 09 2013  05 54  -21.0067 26026.8 -03488.7 -07.6346 26259.5
 16 09 2013  05 55  -21.0067 26026.6 -03488.7 -07.6345 26259.4
 16 09 2013  05 56  -21.0069 26026.5 -03488.7 -07.6345 26259.3
 16 09 2013  05 57  -21.0071 26026.5 -03488.7 -07.6346 26259.3
 16 09 2013  05 58  -21.0075 26026.5 -03488.7 -07.6347 26259.3
 16 09 2013  05 59  -21.0079 26026.6 -03488.8 -07.6348 26259.4
 16 09 2013  06 00  -21.0081 26026.8 -03488.9 -07.6350 26259.6
 16 09 2013  06 01  -21.0084 26026.9 -03489.0 -07.6352 26259.8
 16 09 2013  06 02  -21.0085 26027.0 -03489.0 -07.6352 26259.8
 16 09 2013  06 03  -21.0086 26027.3 -03489.2 -07.6355 26260.1
 16 09 2013  06 04  -21.0086 26027.1 -03489.2 -07.6355 26260.0
 16 09 2013  06 05  -21.0085 26027.2 -03489.1 -07.6354 26260.0
 16 09 2013  06 06  -21.0085 26027.2 -03489.2 -07.6355 26260.0
 16 09 2013  06 07  -21.0087 26027.3 -03489.2 -07.6355 26260.2
 16 09 2013  06 08  -21.0088 26027.5 -03489.3 -07.6357 26260.4
 16 09 2013  06 09  -21.0090 26027.5 -03489.3 -07.6357 26260.4
 16 09 2013  06 10  -21.0092 26027.5 -03489.3 -07.6357 26260.4
 16 09 2013  06 11  -21.0093 26028.0 -03489.5 -07.6360 26260.9
 16 09 2013  06 12  -21.0096 26028.2 -03489.6 -07.6361 26261.0
 16 09 2013  06 13  -21.0096 26028.5 -03489.7 -07.6362 26261.4
 16 09 2013  06 14  -21.0094 26029.0 -03489.9 -07.6365 26262.0
 16 09 2013  06 15  -21.0095 26029.2 -03490.0 -07.6366 26262.1
 16 09 2013  06 16  -21.0092 26029.5 -03490.0 -07.6367 26262.4
 16 09 2013  06 17  -21.0090 26029.6 -03490.0 -07.6366 26262.5
 16 09 2013  06 18  -21.0086 26030.0 -03490.1 -07.6367 26262.9
 16 09 2013  06 19  -21.0087 26029.7 -03490.0 -07.6365 26262.6
 16 09 2013  06 20  -21.0084 26030.0 -03490.0 -07.6365 26262.9
 16 09 2013  06 21  -21.0085 26029.9 -03490.0 -07.6365 26262.9
 16 09 2013  06 22  -21.0084 26030.0 -03490.0 -07.6365 26262.9
 16 09 2013  06 23  -21.0084 26029.9 -03489.9 -07.6362 26262.8
 16 09 2013  06 24  -21.0083 26030.0 -03489.9 -07.6362 26262.9
 16 09 2013  06 25  -21.0082 26030.0 -03489.9 -07.6361 26262.9
 16 09 2013  06 26  -21.0079 26030.0 -03489.8 -07.6360 26262.9
 16 09 2013  06 27  -21.0076 26030.1 -03489.8 -07.6361 26263.0
 16 09 2013  06 28  -21.0072 26030.1 -03489.8 -07.6359 26263.0
 16 09 2013  06 29  -21.0071 26030.3 -03489.8 -07.6360 26263.1
 16 09 2013  06 30  -21.0069 26030.3 -03489.9 -07.6361 26263.2
 16 09 2013  06 31  -21.0067 26030.4 -03489.9 -07.6362 26263.3
 16 09 2013  06 32  -21.0063 26030.4 -03489.9 -07.6360 26263.3
 16 09 2013  06 33  -21.0059 26030.6 -03489.9 -07.6361 26263.5
 16 09 2013  06 34  -21.0055 26030.5 -03489.9 -07.6360 26263.4
 16 09 2013  06 35  -21.0052 26030.4 -03489.9 -07.6360 26263.3
 16 09 2013  06 36  -21.0046 26030.6 -03489.9 -07.6360 26263.5
 16 09 2013  06 37  -21.0043 26030.7 -03489.9 -07.6361 26263.6
 16 09 2013  06 38  -21.0038 26030.8 -03490.0 -07.6362 26263.7
 16 09 2013  06 39  -21.0036 26030.7 -03490.0 -07.6362 26263.7
 16 09 2013  06 40  -21.0035 26030.8 -03490.1 -07.6363 26263.8
 16 09 2013  06 41  -21.0035 26030.8 -03490.1 -07.6363 26263.7
 16 09 2013  06 42  -21.0033 26030.8 -03490.1 -07.6363 26263.7
 16 09 2013  06 43  -21.0032 26030.7 -03490.0 -07.6362 26263.6
 16 09 2013  06 44  -21.0031 26030.7 -03490.0 -07.6362 26263.6
 16 09 2013  06 45  -21.0031 26030.8 -03490.0 -07.6363 26263.7
 16 09 2013  06 46  -21.0030 26030.7 -03490.0 -07.6363 26263.7
 16 09 2013  06 47  -21.0027 26030.7 -03490.0 -07.6362 26263.6
 16 09 2013  06 48  -21.0026 26030.6 -03489.9 -07.6361 26263.5
 16 09 2013  06 49  -21.0024 26030.7 -03490.0 -07.6363 26263.6
 16 09 2013  06 50  -21.0022 26030.8 -03490.1 -07.6363 26263.7
 16 09 2013  06 51  -21.0020 26030.6 -03490.0 -07.6362 26263.6
 16 09 2013  06 52  -21.0017 26030.5 -03489.9 -07.6361 26263.4
 16 09 2013  06 53  -21.0016 26030.4 -03489.8 -07.6359 26263.3
 16 09 2013  06 54  -21.0015 26030.5 -03489.9 -07.6360 26263.4
 16 09 2013  06 55  -21.0014 26030.4 -03489.9 -07.6360 26263.3
 16 09 2013  06 56  -21.0014 26030.4 -03489.8 -07.6360 26263.3
 16 09 2013  06 57  -21.0013 26030.3 -03489.8 -07.6359 26263.1
 16 09 2013  06 58  -21.0012 26030.1 -03489.7 -07.6357 26263.0
 16 09 2013  06 59  -21.0012 26030.0 -03489.6 -07.6357 26262.9
 16 09 2013  07 00  -21.0012 26029.8 -03489.6 -07.6355 26262.7
 16 09 2013  07 01  -21.0014 26029.8 -03489.5 -07.6354 26262.6
 16 09 2013  07 02  -21.0015 26029.8 -03489.5 -07.6354 26262.6
 16 09 2013  07 03  -21.0016 26029.7 -03489.5 -07.6354 26262.5
 16 09 2013  07 04  -21.0015 26029.7 -03489.5 -07.6353 26262.6
 16 09 2013  07 05  -21.0015 26029.5 -03489.3 -07.6351 26262.4
 16 09 2013  07 06  -21.0014 26029.5 -03489.3 -07.6351 26262.4
 16 09 2013  07 07  -21.0014 26029.5 -03489.3 -07.6350 26262.3
 16 09 2013  07 08  -21.0012 26029.4 -03489.2 -07.6349 26262.2
 16 09 2013  07 09  -21.0010 26029.3 -03489.1 -07.6347 26262.1
 16 09 2013  07 10  -21.0010 26029.2 -03489.1 -07.6347 26262.0
 16 09 2013  07 11  -21.0008 26029.3 -03489.1 -07.6347 26262.1
 16 09 2013  07 12  -21.0005 26029.3 -03489.1 -07.6347 26262.1
 16 09 2013  07 13  -21.0004 26029.4 -03489.2 -07.6348 26262.3
 16 09 2013  07 14  -21.0002 26029.6 -03489.3 -07.6350 26262.4
 16 09 2013  07 15  -21.0001 26029.6 -03489.3 -07.6351 26262.4
 16 09 2013  07 16  -21.0001 26029.7 -03489.4 -07.6352 26262.6
 16 09 2013  07 17  -20.9999 26029.9 -03489.4 -07.6352 26262.7
 16 09 2013  07 18  -20.9999 26030.0 -03489.5 -07.6353 26262.8
 16 09 2013  07 19  -20.9999 26030.2 -03489.6 -07.6354 26263.1
 16 09 2013  07 20  -20.9998 26030.3 -03489.6 -07.6355 26263.2
 16 09 2013  07 21  -20.9996 26030.5 -03489.7 -07.6355 26263.4
 16 09 2013  07 22  -20.9996 26030.6 -03489.7 -07.6356 26263.5
 16 09 2013  07 23  -20.9998 26030.5 -03489.6 -07.6355 26263.4
 16 09 2013  07 24  -21.0000 26030.5 -03489.6 -07.6354 26263.4
 16 09 2013  07 25  -21.0002 26030.5 -03489.6 -07.6353 26263.4
 16 09 2013  07 26  -21.0004 26030.4 -03489.5 -07.6353 26263.3
 16 09 2013  07 27  -21.0005 26030.4 -03489.4 -07.6351 26263.2
 16 09 2013  07 28  -21.0005 26030.4 -03489.4 -07.6350 26263.2
 16 09 2013  07 29  -21.0006 26030.4 -03489.3 -07.6349 26263.2
 16 09 2013  07 30  -21.0006 26030.4 -03489.3 -07.6348 26263.2
 16 09 2013  07 31  -21.0007 26030.4 -03489.3 -07.6348 26263.2
 16 09 2013  07 32  -21.0007 26030.4 -03489.2 -07.6346 26263.2
 16 09 2013  07 33  -21.0007 26030.4 -03489.2 -07.6346 26263.2
 16 09 2013  07 34  -21.0006 26030.5 -03489.2 -07.6346 26263.3
 16 09 2013  07 35  -21.0004 26030.4 -03489.1 -07.6344 26263.2
 16 09 2013  07 36  -21.0001 26030.4 -03489.1 -07.6343 26263.2
 16 09 2013  07 37  -20.9999 26030.4 -03489.0 -07.6342 26263.2
 16 09 2013  07 38  -20.9998 26030.3 -03489.0 -07.6341 26263.1
 16 09 2013  07 39  -20.9996 26030.3 -03488.9 -07.6340 26263.0
 16 09 2013  07 40  -20.9994 26030.2 -03488.9 -07.6340 26263.0
 16 09 2013  07 41  -20.9992 26030.2 -03488.9 -07.6339 26263.0
 16 09 2013  07 42  -20.9991 26030.2 -03488.9 -07.6339 26263.0
 16 09 2013  07 43  -20.9988 26030.2 -03488.9 -07.6339 26263.0
 16 09 2013  07 44  -20.9988 26030.1 -03488.8 -07.6338 26262.9
 16 09 2013  07 45  -20.9985 26030.1 -03488.8 -07.6337 26262.9
 16 09 2013  07 46  -20.9984 26030.0 -03488.8 -07.6337 26262.8
 16 09 2013  07 47  -20.9984 26030.0 -03488.8 -07.6337 26262.8
 16 09 2013  07 48  -20.9984 26030.0 -03488.7 -07.6337 26262.7
 16 09 2013  07 49  -20.9982 26029.9 -03488.7 -07.6337 26262.7
 16 09 2013  07 50  -20.9980 26029.8 -03488.6 -07.6336 26262.5
 16 09 2013  07 51  -20.9977 26029.7 -03488.6 -07.6335 26262.4
 16 09 2013  07 52  -20.9975 26029.5 -03488.5 -07.6334 26262.3
 16 09 2013  07 53  -20.9972 26029.6 -03488.6 -07.6335 26262.3
 16 09 2013  07 54  -20.9971 26029.7 -03488.6 -07.6336 26262.4
 16 09 2013  07 55  -20.9968 26029.7 -03488.7 -07.6336 26262.5
 16 09 2013  07 56  -20.9965 26029.7 -03488.7 -07.6337 26262.4
 16 09 2013  07 57  -20.9960 26029.6 -03488.6 -07.6336 26262.4
 16 09 2013  07 58  -20.9958 26029.5 -03488.6 -07.6335 26262.2
 16 09 2013  07 59  -20.9955 26029.4 -03488.6 -07.6336 26262.2
 16 09 2013  08 00  -20.9954 26029.4 -03488.7 -07.6337 26262.2
 16 09 2013  08 01  -20.9952 26029.5 -03488.7 -07.6338 26262.3
 16 09 2013  08 02  -20.9950 26029.3 -03488.6 -07.6337 26262.0
 16 09 2013  08 03  -20.9947 26029.1 -03488.6 -07.6336 26261.9
 16 09 2013  08 04  -20.9944 26029.2 -03488.7 -07.6338 26261.9
 16 09 2013  08 05  -20.9940 26029.0 -03488.7 -07.6339 26261.8
 16 09 2013  08 06  -20.9936 26029.2 -03488.8 -07.6340 26261.9
 16 09 2013  08 07  -20.9930 26029.3 -03488.9 -07.6342 26262.0
 16 09 2013  08 08  -20.9924 26029.3 -03488.9 -07.6343 26262.0
 16 09 2013  08 09  -20.9921 26029.0 -03488.9 -07.6343 26261.8
 16 09 2013  08 10  -20.9919 26029.0 -03488.9 -07.6343 26261.8
 16 09 2013  08 11  -20.9917 26029.1 -03489.0 -07.6346 26261.9
 16 09 2013  08 12  -20.9911 26028.9 -03489.0 -07.6345 26261.7
 16 09 2013  08 13  -20.9907 26028.7 -03489.0 -07.6345 26261.5
 16 09 2013  08 14  -20.9904 26028.8 -03489.0 -07.6346 26261.6
 16 09 2013  08 15  -20.9899 26029.1 -03489.2 -07.6351 26261.9
 16 09 2013  08 16  -20.9894 26029.0 -03489.3 -07.6352 26261.9
 16 09 2013  08 17  -20.9888 26028.8 -03489.3 -07.6353 26261.7
 16 09 2013  08 18  -20.9882 26028.8 -03489.4 -07.6354 26261.6
 16 09 2013  08 19  -20.9877 26028.9 -03489.5 -07.6356 26261.8
 16 09 2013  08 20  -20.9874 26028.9 -03489.5 -07.6358 26261.8
 16 09 2013  08 21  -20.9871 26028.8 -03489.5 -07.6358 26261.7
 16 09 2013  08 22  -20.9868 26028.7 -03489.5 -07.6358 26261.6
 16 09 2013  08 23  -20.9866 26028.7 -03489.6 -07.6358 26261.6
 16 09 2013  08 24  -20.9865 26028.6 -03489.5 -07.6358 26261.4
 16 09 2013  08 25  -20.9865 26028.5 -03489.6 -07.6359 26261.4
 16 09 2013  08 26  -20.9864 26028.4 -03489.6 -07.6360 26261.3
 16 09 2013  08 27  -20.9864 26028.4 -03489.6 -07.6360 26261.2
 16 09 2013  08 28  -20.9863 26028.3 -03489.7 -07.6362 26261.2
 16 09 2013  08 29  -20.9860 26028.2 -03489.6 -07.6361 26261.1
 16 09 2013  08 30  -20.9857 26028.0 -03489.5 -07.6360 26260.9
 16 09 2013  08 31  -20.9857 26028.0 -03489.5 -07.6360 26260.9
 16 09 2013  08 32  -20.9856 26028.0 -03489.5 -07.6360 26260.8
 16 09 2013  08 33  -20.9855 26027.9 -03489.6 -07.6361 26260.8
 16 09 2013  08 34  -20.9855 26027.8 -03489.6 -07.6362 26260.7
 16 09 2013  08 35  -20.9853 26027.7 -03489.6 -07.6362 26260.6
 16 09 2013  08 36  -20.9851 26027.6 -03489.6 -07.6363 26260.5
 16 09 2013  08 37  -20.9847 26027.4 -03489.6 -07.6363 26260.3
 16 09 2013  08 38  -20.9841 26027.4 -03489.6 -07.6363 26260.2
 16 09 2013  08 39  -20.9838 26027.3 -03489.5 -07.6361 26260.1
 16 09 2013  08 40  -20.9833 26027.2 -03489.7 -07.6366 26260.2
 16 09 2013  08 41  -20.9830 26027.0 -03489.8 -07.6368 26260.0
 16 09 2013  08 42  -20.9828 26026.8 -03489.8 -07.6369 26259.7
 16 09 2013  08 43  -20.9826 26026.6 -03489.9 -07.6372 26259.6
 16 09 2013  08 44  -20.9824 26026.5 -03490.0 -07.6375 26259.4
 16 09 2013  08 45  -20.9822 26026.5 -03490.2 -07.6378 26259.5
 16 09 2013  08 46  -20.9817 26026.2 -03490.2 -07.6380 26259.2
 16 09 2013  08 47  -20.9813 26026.0 -03490.3 -07.6382 26259.0
 16 09 2013  08 48  -20.9810 26025.8 -03490.4 -07.6386 26258.8
 16 09 2013  08 49  -20.9810 26025.7 -03490.6 -07.6389 26258.7
 16 09 2013  08 50  -20.9811 26025.6 -03490.7 -07.6393 26258.6
 16 09 2013  08 51  -20.9813 26025.5 -03490.9 -07.6397 26258.6
 16 09 2013  08 52  -20.9812 26025.4 -03491.0 -07.6400 26258.5
 16 09 2013  08 53  -20.9812 26025.3 -03491.2 -07.6404 26258.5
 16 09 2013  08 54  -20.9815 26025.4 -03491.4 -07.6408 26258.5
 16 09 2013  08 55  -20.9817 26025.3 -03491.5 -07.6411 26258.4
 16 09 2013  08 56  -20.9820 26025.2 -03491.7 -07.6415 26258.4
 16 09 2013  08 57  -20.9821 26025.1 -03491.9 -07.6419 26258.3
 16 09 2013  08 58  -20.9823 26025.0 -03492.0 -07.6422 26258.2
 16 09 2013  08 59  -20.9825 26024.9 -03492.1 -07.6425 26258.2
 16 09 2013  09 00  -20.9827 26024.9 -03492.3 -07.6428 26258.2
 16 09 2013  09 01  -20.9827 26024.9 -03492.3 -07.6430 26258.1
 16 09 2013  09 02  -20.9829 26024.9 -03492.5 -07.6434 26258.2
 16 09 2013  09 03  -20.9832 26024.9 -03492.7 -07.6437 26258.2
 16 09 2013  09 04  -20.9836 26024.8 -03492.8 -07.6441 26258.2
 16 09 2013  09 05  -20.9838 26024.9 -03493.0 -07.6445 26258.3
 16 09 2013  09 06  -20.9843 26024.8 -03493.1 -07.6447 26258.2
 16 09 2013  09 07  -20.9845 26025.0 -03493.4 -07.6452 26258.4
 16 09 2013  09 08  -20.9848 26025.2 -03493.6 -07.6457 26258.7
 16 09 2013  09 09  -20.9851 26025.2 -03493.8 -07.6460 26258.7
 16 09 2013  09 10  -20.9857 26025.2 -03493.9 -07.6463 26258.7
 16 09 2013  09 11  -20.9862 26025.5 -03494.2 -07.6468 26259.0
 16 09 2013  09 12  -20.9865 26025.4 -03494.3 -07.6470 26259.0
 16 09 2013  09 13  -20.9868 26025.8 -03494.5 -07.6474 26259.4
 16 09 2013  09 14  -20.9873 26025.7 -03494.5 -07.6475 26259.3
 16 09 2013  09 15  -20.9879 26025.6 -03494.5 -07.6476 26259.2
 16 09 2013  09 16  -20.9880 26025.5 -03494.5 -07.6475 26259.0
 16 09 2013  09 17  -20.9883 26025.5 -03494.7 -07.6479 26259.1
 16 09 2013  09 18  -20.9887 26025.6 -03495.0 -07.6484 26259.2
 16 09 2013  09 19  -20.9889 26025.5 -03495.1 -07.6487 26259.2
 16 09 2013  09 20  -20.9898 26025.6 -03495.2 -07.6490 26259.3
 16 09 2013  09 21  -20.9901 26025.6 -03495.4 -07.6493 26259.3
 16 09 2013  09 22  -20.9905 26025.9 -03495.6 -07.6498 26259.6
 16 09 2013  09 23  -20.9907 26026.2 -03495.9 -07.6502 26260.0
 16 09 2013  09 24  -20.9916 26026.5 -03495.9 -07.6503 26260.2
 16 09 2013  09 25  -20.9927 26026.7 -03496.3 -07.6510 26260.5
 16 09 2013  09 26  -20.9929 26026.8 -03496.5 -07.6513 26260.6
 16 09 2013  09 27  -20.9932 26026.8 -03496.6 -07.6515 26260.6
 16 09 2013  09 28  -20.9937 26026.8 -03496.6 -07.6516 26260.6
 16 09 2013  09 29  -20.9940 26026.9 -03496.7 -07.6518 26260.7
 16 09 2013  09 30  -20.9947 26026.7 -03496.7 -07.6519 26260.5
 16 09 2013  09 31  -20.9952 26026.7 -03496.8 -07.6521 26260.5
 16 09 2013  09 32  -20.9960 26026.6 -03496.9 -07.6523 26260.5
 16 09 2013  09 33  -20.9965 26026.5 -03497.0 -07.6526 26260.3
 16 09 2013  09 34  -20.9971 26026.5 -03497.2 -07.6529 26260.4
 16 09 2013  09 35  -20.9975 26026.5 -03497.2 -07.6531 26260.5
 16 09 2013  09 36  -20.9980 26026.5 -03497.3 -07.6533 26260.5
 16 09 2013  09 37  -20.9984 26026.6 -03497.5 -07.6535 26260.5
 16 09 2013  09 38  -20.9986 26026.8 -03497.6 -07.6538 26260.8
 16 09 2013  09 39  -20.9987 26026.9 -03497.7 -07.6540 26260.9
 16 09 2013  09 40  -20.9990 26026.9 -03497.8 -07.6541 26260.9
 16 09 2013  09 41  -20.9995 26026.7 -03497.7 -07.6541 26260.7
 16 09 2013  09 42  -21.0000 26026.6 -03497.7 -07.6542 26260.5
 16 09 2013  09 43  -21.0004 26026.5 -03497.8 -07.6544 26260.5
 16 09 2013  09 44  -21.0007 26026.4 -03497.9 -07.6546 26260.4
 16 09 2013  09 45  -21.0012 26026.4 -03498.1 -07.6549 26260.4
 16 09 2013  09 46  -21.0016 26026.5 -03498.3 -07.6553 26260.6
 16 09 2013  09 47  -21.0019 26026.6 -03498.4 -07.6556 26260.7
 16 09 2013  09 48  -21.0022 26026.7 -03498.5 -07.6559 26260.8
 16 09 2013  09 49  -21.0026 26026.8 -03498.7 -07.6561 26260.9
 16 09 2013  09 50  -21.0030 26026.9 -03498.8 -07.6564 26261.1
 16 09 2013  09 51  -21.0032 26026.9 -03499.0 -07.6567 26261.1
 16 09 2013  09 52  -21.0037 26027.0 -03499.1 -07.6570 26261.1
 16 09 2013  09 53  -21.0040 26027.1 -03499.2 -07.6573 26261.3
 16 09 2013  09 54  -21.0045 26027.2 -03499.4 -07.6575 26261.4
 16 09 2013  09 55  -21.0047 26027.3 -03499.5 -07.6577 26261.5
 16 09 2013  09 56  -21.0052 26027.5 -03499.6 -07.6580 26261.7
 16 09 2013  09 57  -21.0058 26027.5 -03499.7 -07.6582 26261.8
 16 09 2013  09 58  -21.0065 26027.6 -03499.8 -07.6584 26261.8
 16 09 2013  09 59  -21.0071 26027.6 -03499.9 -07.6584 26261.9
 16 09 2013  10 00  -21.0074 26027.6 -03499.9 -07.6586 26261.9
 16 09 2013  10 01  -21.0079 26027.7 -03500.0 -07.6586 26261.9
 16 09 2013  10 02  -21.0084 26027.7 -03500.1 -07.6588 26262.0
 16 09 2013  10 03  -21.0088 26027.8 -03500.1 -07.6590 26262.1
 16 09 2013  10 04  -21.0095 26027.9 -03500.2 -07.6592 26262.2
 16 09 2013  10 05  -21.0102 26028.0 -03500.3 -07.6593 26262.3
 16 09 2013  10 06  -21.0106 26028.2 -03500.4 -07.6595 26262.5
 16 09 2013  10 07  -21.0110 26028.2 -03500.5 -07.6596 26262.5
 16 09 2013  10 08  -21.0113 26028.3 -03500.5 -07.6597 26262.6
 16 09 2013  10 09  -21.0121 26028.2 -03500.6 -07.6598 26262.6
 16 09 2013  10 10  -21.0127 26028.4 -03500.6 -07.6599 26262.7
 16 09 2013  10 11  -21.0131 26028.5 -03500.7 -07.6601 26262.9
 16 09 2013  10 12  -21.0138 26028.6 -03500.8 -07.6602 26263.0
 16 09 2013  10 13  -21.0143 26028.8 -03500.8 -07.6602 26263.2
 16 09 2013  10 14  -21.0145 26028.9 -03500.9 -07.6602 26263.3
 16 09 2013  10 15  -21.0149 26029.1 -03500.9 -07.6603 26263.4
 16 09 2013  10 16  -21.0156 26029.2 -03500.9 -07.6603 26263.6
 16 09 2013  10 17  -21.0161 26029.3 -03501.0 -07.6604 26263.7
 16 09 2013  10 18  -21.0165 26029.5 -03501.0 -07.6604 26263.9
 16 09 2013  10 19  -21.0167 26029.6 -03501.0 -07.6603 26264.0
 16 09 2013  10 20  -21.0171 26029.8 -03501.0 -07.6602 26264.2
 16 09 2013  10 21  -21.0177 26029.9 -03501.0 -07.6602 26264.3
 16 09 2013  10 22  -21.0182 26030.1 -03501.0 -07.6602 26264.5
 16 09 2013  10 23  -21.0188 26030.2 -03501.0 -07.6602 26264.6
 16 09 2013  10 24  -21.0193 26030.3 -03501.0 -07.6601 26264.7
 16 09 2013  10 25  -21.0199 26030.5 -03500.9 -07.6599 26264.8
 16 09 2013  10 26  -21.0201 26030.7 -03500.9 -07.6597 26265.0
 16 09 2013  10 27  -21.0204 26030.8 -03500.8 -07.6595 26265.1
 16 09 2013  10 28  -21.0207 26030.9 -03500.6 -07.6592 26265.2
 16 09 2013  10 29  -21.0208 26031.0 -03500.6 -07.6590 26265.3
 16 09 2013  10 30  -21.0212 26031.1 -03500.5 -07.6587 26265.4
 16 09 2013  10 31  -21.0217 26031.3 -03500.4 -07.6586 26265.6
 16 09 2013  10 32  -21.0222 26031.5 -03500.3 -07.6584 26265.7
 16 09 2013  10 33  -21.0225 26031.7 -03500.3 -07.6582 26265.9
 16 09 2013  10 34  -21.0231 26031.8 -03500.2 -07.6580 26266.1
 16 09 2013  10 35  -21.0236 26032.0 -03500.1 -07.6577 26266.3
 16 09 2013  10 36  -21.0241 26032.2 -03500.0 -07.6574 26266.5
 16 09 2013  10 37  -21.0244 26032.4 -03499.9 -07.6571 26266.7
 16 09 2013  10 38  -21.0248 26032.5 -03499.7 -07.6566 26266.7
 16 09 2013  10 39  -21.0252 26032.7 -03499.6 -07.6563 26266.9
 16 09 2013  10 40  -21.0258 26032.8 -03499.4 -07.6560 26267.0
 16 09 2013  10 41  -21.0261 26033.1 -03499.3 -07.6557 26267.2
 16 09 2013  10 42  -21.0265 26033.3 -03499.2 -07.6553 26267.4
 16 09 2013  10 43  -21.0269 26033.5 -03499.0 -07.6549 26267.6
 16 09 2013  10 44  -21.0273 26033.7 -03498.9 -07.6546 26267.8
 16 09 2013  10 45  -21.0277 26034.0 -03498.8 -07.6543 26268.0
 16 09 2013  10 46  -21.0282 26034.2 -03498.6 -07.6539 26268.2
 16 09 2013  10 47  -21.0287 26034.3 -03498.5 -07.6535 26268.3
 16 09 2013  10 48  -21.0291 26034.5 -03498.4 -07.6532 26268.4
 16 09 2013  10 49  -21.0296 26034.6 -03498.2 -07.6529 26268.5
 16 09 2013  10 50  -21.0299 26034.8 -03498.1 -07.6526 26268.8
 16 09 2013  10 51  -21.0303 26035.2 -03498.1 -07.6523 26269.2
 16 09 2013  10 52  -21.0308 26035.5 -03497.9 -07.6520 26269.4
 16 09 2013  10 53  -21.0313 26035.6 -03497.8 -07.6517 26269.6
 16 09 2013  10 54  -21.0319 26035.9 -03497.7 -07.6513 26269.8
 16 09 2013  10 55  -21.0325 26036.1 -03497.5 -07.6510 26270.0
 16 09 2013  10 56  -21.0330 26036.4 -03497.4 -07.6507 26270.3
 16 09 2013  10 57  -21.0334 26036.7 -03497.3 -07.6504 26270.5
 16 09 2013  10 58  -21.0338 26037.0 -03497.2 -07.6500 26270.8
 16 09 2013  10 59  -21.0343 26037.1 -03497.0 -07.6495 26270.9
 16 09 2013  11 00  -21.0348 26037.1 -03496.8 -07.6492 26270.9
 16 09 2013  11 01  -21.0352 26037.5 -03496.8 -07.6490 26271.2
 16 09 2013  11 02  -21.0360 26037.6 -03496.7 -07.6488 26271.4
 16 09 2013  11 03  -21.0367 26037.9 -03496.7 -07.6486 26271.6
 16 09 2013  11 04  -21.0371 26038.3 -03496.7 -07.6485 26272.0
 16 09 2013  11 05  -21.0378 26038.5 -03496.6 -07.6482 26272.2
 16 09 2013  11 06  -21.0385 26038.9 -03496.6 -07.6481 26272.7
 16 09 2013  11 07  -21.0392 26039.5 -03496.6 -07.6480 26273.2
 16 09 2013  11 08  -21.0393 26040.2 -03496.7 -07.6479 26273.9
 16 09 2013  11 09  -21.0397 26040.9 -03496.7 -07.6477 26274.7
 16 09 2013  11 10  -21.0400 26041.5 -03496.6 -07.6474 26275.2
 16 09 2013  11 11  -21.0404 26042.1 -03496.6 -07.6471 26275.8
 16 09 2013  11 12  -21.0411 26042.6 -03496.5 -07.6468 26276.2
 16 09 2013  11 13  -21.0418 26043.3 -03496.5 -07.6466 26277.0
 16 09 2013  11 14  -21.0424 26043.7 -03496.3 -07.6461 26277.4
 16 09 2013  11 15  -21.0427 26044.3 -03496.2 -07.6456 26277.9
 16 09 2013  11 16  -21.0427 26044.7 -03495.9 -07.6449 26278.3
 16 09 2013  11 17  -21.0424 26045.3 -03495.7 -07.6443 26278.9
 16 09 2013  11 18  -21.0420 26045.9 -03495.5 -07.6437 26279.4
 16 09 2013  11 19  -21.0419 26046.6 -03495.3 -07.6431 26280.0
 16 09 2013  11 20  -21.0413 26047.3 -03495.2 -07.6427 26280.8
 16 09 2013  11 21  -21.0411 26047.6 -03494.9 -07.6419 26281.0
 16 09 2013  11 22  -21.0420 26047.9 -03494.7 -07.6414 26281.3
 16 09 2013  11 23  -21.0430 26048.6 -03494.7 -07.6411 26282.0
 16 09 2013  11 24  -21.0442 26049.1 -03494.5 -07.6406 26282.4
 16 09 2013  11 25  -21.0456 26049.2 -03494.2 -07.6400 26282.5
 16 09 2013  11 26  -21.0472 26049.4 -03494.0 -07.6394 26282.6
 16 09 2013  11 27  -21.0486 26049.5 -03493.7 -07.6388 26282.7
 16 09 2013  11 28  -21.0495 26049.5 -03493.5 -07.6384 26282.7
 16 09 2013  11 29  -21.0499 26049.4 -03493.2 -07.6378 26282.6
 16 09 2013  11 30  -21.0503 26050.0 -03493.2 -07.6376 26283.2
 16 09 2013  11 31  -21.0504 26050.5 -03493.1 -07.6372 26283.6
 16 09 2013  11 32  -21.0505 26051.1 -03493.0 -07.6368 26284.2
 16 09 2013  11 33  -21.0505 26051.8 -03492.9 -07.6364 26284.9
 16 09 2013  11 34  -21.0506 26052.1 -03492.6 -07.6357 26285.2
 16 09 2013  11 35  -21.0507 26052.4 -03492.3 -07.6350 26285.4
 16 09 2013  11 36  -21.0512 26052.4 -03492.0 -07.6343 26285.4
 16 09 2013  11 37  -21.0518 26052.2 -03491.6 -07.6335 26285.2
 16 09 2013  11 38  -21.0525 26052.0 -03491.3 -07.6329 26284.9
 16 09 2013  11 39  -21.0531 26051.9 -03491.1 -07.6324 26284.7
 16 09 2013  11 40  -21.0535 26051.9 -03490.9 -07.6320 26284.7
 16 09 2013  11 41  -21.0540 26051.8 -03490.7 -07.6315 26284.6
 16 09 2013  11 42  -21.0544 26051.8 -03490.4 -07.6311 26284.5
 16 09 2013  11 43  -21.0544 26051.8 -03490.3 -07.6307 26284.6
 16 09 2013  11 44  -21.0545 26051.6 -03490.0 -07.6301 26284.4
 16 09 2013  11 45  -21.0546 26051.5 -03489.7 -07.6296 26284.2
 16 09 2013  11 46  -21.0547 26051.3 -03489.5 -07.6291 26284.0
 16 09 2013  11 47  -21.0547 26051.4 -03489.3 -07.6288 26284.1
 16 09 2013  11 48  -21.0546 26051.6 -03489.2 -07.6285 26284.3
 16 09 2013  11 49  -21.0545 26051.8 -03489.2 -07.6283 26284.5
 16 09 2013  11 50  -21.0543 26052.3 -03489.1 -07.6280 26284.9
 16 09 2013  11 51  -21.0541 26052.6 -03489.0 -07.6277 26285.2
 16 09 2013  11 52  -21.0541 26052.9 -03488.9 -07.6273 26285.5
 16 09 2013  11 53  -21.0540 26053.3 -03488.8 -07.6271 26285.8
 16 09 2013  11 54  -21.0540 26053.6 -03488.7 -07.6268 26286.2
 16 09 2013  11 55  -21.0540 26054.2 -03488.7 -07.6266 26286.7
 16 09 2013  11 56  -21.0535 26054.7 -03488.6 -07.6262 26287.2
 16 09 2013  11 57  -21.0526 26055.8 -03488.6 -07.6260 26288.3
 16 09 2013  11 58  -21.0519 26056.5 -03488.5 -07.6256 26289.0
 16 09 2013  11 59  -21.0543 26056.4 -03488.0 -07.6245 26288.9
 16 09 2013  12 00  -21.0537 26057.0 -03487.5 -07.6231 26289.3
 16 09 2013  12 01  -21.0528 26057.7 -03487.8 -07.6236 26290.1
 16 09 2013  12 02  -21.0518 26058.7 -03487.7 -07.6232 26291.0
 16 09 2013  12 03  -21.0506 26059.5 -03487.6 -07.6227 26291.9
 16 09 2013  12 04  -21.0496 26060.2 -03487.4 -07.6221 26292.5
 16 09 2013  12 05  -21.0487 26060.6 -03487.1 -07.6214 26292.9
 16 09 2013  12 06  -21.0479 26061.0 -03486.9 -07.6208 26293.3
 16 09 2013  12 07  -21.0473 26061.7 -03486.9 -07.6205 26293.9
 16 09 2013  12 08  -21.0472 26062.2 -03486.7 -07.6200 26294.4
 16 09 2013  12 09  -21.0472 26062.6 -03486.5 -07.6195 26294.7
 16 09 2013  12 10  -21.0473 26063.4 -03486.5 -07.6191 26295.5
 16 09 2013  12 11  -21.0474 26064.0 -03486.3 -07.6186 26296.1
 16 09 2013  12 12  -21.0473 26064.4 -03486.0 -07.6178 26296.4
 16 09 2013  12 13  -21.0475 26064.5 -03485.6 -07.6170 26296.5
 16 09 2013  12 14  -21.0480 26064.5 -03485.3 -07.6162 26296.5
 16 09 2013  12 15  -21.0485 26064.5 -03485.0 -07.6156 26296.4
 16 09 2013  12 16  -21.0489 26064.5 -03484.7 -07.6151 26296.4
 16 09 2013  12 17  -21.0493 26064.2 -03484.4 -07.6145 26296.1
 16 09 2013  12 18  -21.0498 26064.2 -03484.3 -07.6142 26296.1
 16 09 2013  12 19  -21.0502 26064.5 -03484.3 -07.6140 26296.4
 16 09 2013  12 20  -21.0503 26064.7 -03484.1 -07.6137 26296.6
 16 09 2013  12 21  -21.0503 26065.3 -03484.1 -07.6135 26297.1
 16 09 2013  12 22  -21.0502 26065.6 -03484.0 -07.6132 26297.5
 16 09 2013  12 23  -21.0499 26065.9 -03483.8 -07.6127 26297.7
 16 09 2013  12 24  -21.0500 26065.8 -03483.6 -07.6122 26297.6
 16 09 2013  12 25  -21.0500 26065.9 -03483.5 -07.6120 26297.6
 16 09 2013  12 26  -21.0501 26065.6 -03483.4 -07.6118 26297.4
 16 09 2013  12 27  -21.0505 26066.0 -03483.6 -07.6121 26297.8
 16 09 2013  12 28  -21.0509 26066.6 -03483.8 -07.6125 26298.4
 16 09 2013  12 29  -21.0513 26067.1 -03484.0 -07.6126 26298.9
 16 09 2013  12 30  -21.0514 26067.5 -03484.0 -07.6127 26299.3
 16 09 2013  12 31  -21.0518 26068.3 -03484.2 -07.6128 26300.1
 16 09 2013  12 32  -21.0524 26068.6 -03484.2 -07.6126 26300.4
 16 09 2013  12 33  -21.0527 26068.6 -03483.9 -07.6120 26300.4
 16 09 2013  12 34  -21.0523 26068.7 -03483.5 -07.6113 26300.4
 16 09 2013  12 35  -21.0522 26068.7 -03483.2 -07.6106 26300.4
 16 09 2013  12 36  -21.0512 26068.4 -03482.9 -07.6099 26300.1
 16 09 2013  12 37  -21.0489 26068.6 -03482.9 -07.6099 26300.2
 16 09 2013  12 38  -21.0489 26067.8 -03482.6 -07.6095 26299.4
 16 09 2013  12 39  -21.0490 26067.3 -03482.4 -07.6091 26298.8
 16 09 2013  12 40  -21.0491 26066.9 -03482.3 -07.6091 26298.5
 16 09 2013  12 41  -21.0495 26066.9 -03482.4 -07.6093 26298.5
 16 09 2013  12 42  -21.0496 26067.1 -03482.5 -07.6095 26298.7
 16 09 2013  12 43  -21.0498 26067.1 -03482.5 -07.6096 26298.7
 16 09 2013  12 44  -21.0500 26067.0 -03482.5 -07.6096 26298.6
 16 09 2013  12 45  -21.0503 26066.8 -03482.5 -07.6096 26298.4
 16 09 2013  12 46  -21.0509 26067.0 -03482.7 -07.6099 26298.6
 16 09 2013  12 47  -21.0514 26067.5 -03482.9 -07.6102 26299.1
 16 09 2013  12 48  -21.0516 26068.0 -03483.0 -07.6103 26299.6
 16 09 2013  12 49  -21.0519 26068.2 -03482.9 -07.6101 26299.9
 16 09 2013  12 50  -21.0521 26068.5 -03482.9 -07.6100 26300.2
 16 09 2013  12 51  -21.0525 26068.7 -03482.8 -07.6096 26300.3
 16 09 2013  12 52  -21.0530 26068.7 -03482.6 -07.6093 26300.3
 16 09 2013  12 53  -21.0533 26068.6 -03482.4 -07.6088 26300.2
 16 09 2013  12 54  -21.0537 26068.7 -03482.2 -07.6085 26300.3
 16 09 2013  12 55  -21.0540 26068.6 -03482.0 -07.6080 26300.1
 16 09 2013  12 56  -21.0542 26068.4 -03481.8 -07.6075 26299.9
 16 09 2013  12 57  -21.0540 26068.1 -03481.5 -07.6071 26299.6
 16 09 2013  12 58  -21.0538 26067.9 -03481.4 -07.6069 26299.3
 16 09 2013  12 59  -21.0536 26067.6 -03481.2 -07.6065 26299.1
 16 09 2013  13 00  -21.0535 26067.6 -03481.1 -07.6064 26299.0
 16 09 2013  13 01  -21.0532 26067.6 -03481.1 -07.6063 26299.0
 16 09 2013  13 02  -21.0531 26067.6 -03481.0 -07.6061 26299.0
 16 09 2013  13 03  -21.0529 26067.6 -03480.9 -07.6058 26299.0
 16 09 2013  13 04  -21.0527 26067.6 -03480.7 -07.6055 26299.0
 16 09 2013  13 05  -21.0525 26067.7 -03480.6 -07.6053 26299.0
 16 09 2013  13 06  -21.0523 26067.7 -03480.5 -07.6050 26299.1
 16 09 2013  13 07  -21.0521 26067.9 -03480.4 -07.6047 26299.2
 16 09 2013  13 08  -21.0518 26067.8 -03480.2 -07.6043 26299.1
 16 09 2013  13 09  -21.0515 26067.6 -03480.0 -07.6039 26298.9
 16 09 2013  13 10  -21.0512 26067.3 -03479.7 -07.6033 26298.5
 16 09 2013  13 11  -21.0507 26067.1 -03479.5 -07.6030 26298.3
 16 09 2013  13 12  -21.0503 26067.1 -03479.4 -07.6027 26298.3
 16 09 2013  13 13  -21.0500 26067.4 -03479.4 -07.6027 26298.6
 16 09 2013  13 14  -21.0497 26067.4 -03479.3 -07.6024 26298.6
 16 09 2013  13 15  -21.0494 26067.6 -03479.1 -07.6021 26298.7
 16 09 2013  13 16  -21.0490 26067.4 -03478.8 -07.6015 26298.5
 16 09 2013  13 17  -21.0486 26067.5 -03478.8 -07.6013 26298.6
 16 09 2013  13 18  -21.0480 26067.7 -03478.7 -07.6011 26298.8
 16 09 2013  13 19  -21.0475 26067.7 -03478.5 -07.6007 26298.8
 16 09 2013  13 20  -21.0470 26067.5 -03478.3 -07.6003 26298.6
 16 09 2013  13 21  -21.0467 26067.6 -03478.2 -07.6000 26298.6
 16 09 2013  13 22  -21.0464 26067.6 -03478.1 -07.5999 26298.6
 16 09 2013  13 23  -21.0460 26068.0 -03478.2 -07.5999 26299.0
 16 09 2013  13 24  -21.0457 26068.0 -03478.0 -07.5996 26299.0
 16 09 2013  13 25  -21.0451 26068.1 -03477.9 -07.5994 26299.1
 16 09 2013  13 26  -21.0447 26068.2 -03477.9 -07.5992 26299.2
 16 09 2013  13 27  -21.0444 26068.4 -03477.8 -07.5990 26299.4
 16 09 2013  13 28  -21.0440 26068.7 -03477.8 -07.5990 26299.6
 16 09 2013  13 29  -21.0438 26068.8 -03477.8 -07.5988 26299.8
 16 09 2013  13 30  -21.0433 26069.1 -03477.8 -07.5987 26300.0
 16 09 2013  13 31  -21.0429 26069.4 -03477.7 -07.5985 26300.4
 16 09 2013  13 32  -21.0424 26069.6 -03477.7 -07.5984 26300.6
 16 09 2013  13 33  -21.0420 26069.9 -03477.7 -07.5982 26300.9
 16 09 2013  13 34  -21.0417 26070.2 -03477.6 -07.5980 26301.1
 16 09 2013  13 35  -21.0412 26070.3 -03477.5 -07.5978 26301.2
 16 09 2013  13 36  -21.0406 26070.4 -03477.4 -07.5976 26301.3
 16 09 2013  13 37  -21.0400 26070.3 -03477.3 -07.5974 26301.1
 16 09 2013  13 38  -21.0394 26070.4 -03477.3 -07.5974 26301.3
 16 09 2013  13 39  -21.0390 26070.5 -03477.4 -07.5974 26301.4
 16 09 2013  13 40  -21.0385 26070.6 -03477.4 -07.5974 26301.4
 16 09 2013  13 41  -21.0381 26070.7 -03477.4 -07.5975 26301.6
 16 09 2013  13 42  -21.0377 26070.9 -03477.5 -07.5976 26301.8
 16 09 2013  13 43  -21.0372 26070.8 -03477.5 -07.5976 26301.7
 16 09 2013  13 44  -21.0371 26070.6 -03477.5 -07.5976 26301.5
 16 09 2013  13 45  -21.0369 26070.6 -03477.5 -07.5977 26301.5
 16 09 2013  13 46  -21.0367 26070.5 -03477.6 -07.5979 26301.5
 16 09 2013  13 47  -21.0364 26070.6 -03477.6 -07.5980 26301.5
 16 09 2013  13 48  -21.0362 26070.7 -03477.7 -07.5981 26301.7
 16 09 2013  13 49  -21.0358 26070.8 -03477.7 -07.5981 26301.7
 16 09 2013  13 50  -21.0356 26070.6 -03477.6 -07.5979 26301.5
 16 09 2013  13 51  -21.0353 26070.7 -03477.6 -07.5980 26301.6
 16 09 2013  13 52  -21.0350 26070.7 -03477.6 -07.5980 26301.6
 16 09 2013  13 53  -21.0346 26070.7 -03477.7 -07.5980 26301.6
 16 09 2013  13 54  -21.0344 26070.8 -03477.8 -07.5982 26301.7
 16 09 2013  13 55  -21.0343 26070.9 -03477.9 -07.5984 26301.8
 16 09 2013  13 56  -21.0343 26071.1 -03478.0 -07.5986 26302.1
 16 09 2013  13 57  -21.0341 26071.9 -03478.2 -07.5989 26302.9
 16 09 2013  13 58  -21.0340 26072.2 -03478.2 -07.5987 26303.2
 16 09 2013  13 59  -21.0338 26072.9 -03478.2 -07.5986 26303.8
 16 09 2013  14 00  -21.0336 26072.9 -03478.1 -07.5982 26303.9
 16 09 2013  14 01  -21.0336 26072.9 -03477.8 -07.5978 26303.8
 16 09 2013  14 02  -21.0334 26072.9 -03477.8 -07.5976 26303.9
 16 09 2013  14 03  -21.0330 26072.3 -03477.5 -07.5972 26303.2
 16 09 2013  14 04  -21.0326 26071.8 -03477.3 -07.5969 26302.7
 16 09 2013  14 05  -21.0322 26071.0 -03477.2 -07.5969 26301.8
 16 09 2013  14 06  -21.0320 26070.5 -03477.2 -07.5971 26301.3
 16 09 2013  14 07  -21.0318 26070.0 -03477.3 -07.5975 26300.9
 16 09 2013  14 08  -21.0316 26070.0 -03477.5 -07.5980 26300.9
 16 09 2013  14 09  -21.0316 26069.5 -03477.6 -07.5982 26300.5
 16 09 2013  14 10  -21.0317 26069.3 -03477.7 -07.5986 26300.3
 16 09 2013  14 11  -21.0320 26069.1 -03477.9 -07.5989 26300.1
 16 09 2013  14 12  -21.0325 26069.2 -03478.1 -07.5994 26300.2
 16 09 2013  14 13  -21.0328 26069.3 -03478.2 -07.5997 26300.3
 16 09 2013  14 14  -21.0331 26069.4 -03478.4 -07.5999 26300.4
 16 09 2013  14 15  -21.0333 26069.3 -03478.3 -07.5999 26300.3
 16 09 2013  14 16  -21.0335 26069.1 -03478.3 -07.5999 26300.1
 16 09 2013  14 17  -21.0339 26068.7 -03478.3 -07.5999 26299.8
 16 09 2013  14 18  -21.0343 26068.4 -03478.3 -07.6000 26299.4
 16 09 2013  14 19  -21.0345 26067.8 -03478.2 -07.5999 26298.8
 16 09 2013  14 20  -21.0345 26068.0 -03478.4 -07.6003 26299.1
 16 09 2013  14 21  -21.0348 26067.7 -03478.4 -07.6005 26298.8
 16 09 2013  14 22  -21.0349 26067.9 -03478.6 -07.6009 26299.0
 16 09 2013  14 23  -21.0356 26068.1 -03478.8 -07.6013 26299.2
 16 09 2013  14 24  -21.0360 26068.0 -03478.8 -07.6013 26299.1
 16 09 2013  14 25  -21.0359 26068.1 -03478.8 -07.6013 26299.2
 16 09 2013  14 26  -21.0358 26068.1 -03478.9 -07.6014 26299.2
 16 09 2013  14 27  -21.0359 26067.8 -03478.8 -07.6014 26299.0
 16 09 2013  14 28  -21.0360 26068.0 -03479.1 -07.6018 26299.1
 16 09 2013  14 29  -21.0362 26068.5 -03479.3 -07.6022 26299.6
 16 09 2013  14 30  -21.0365 26068.1 -03479.2 -07.6021 26299.3
 16 09 2013  14 31  -21.0365 26067.8 -03479.2 -07.6021 26298.9
 16 09 2013  14 32  -21.0366 26067.8 -03479.3 -07.6024 26299.0
 16 09 2013  14 33  -21.0370 26067.9 -03479.6 -07.6029 26299.1
 16 09 2013  14 34  -21.0374 26068.4 -03479.9 -07.6035 26299.6
 16 09 2013  14 35  -21.0376 26068.4 -03480.0 -07.6036 26299.7
 16 09 2013  14 36  -21.0378 26068.4 -03480.0 -07.6037 26299.6
 16 09 2013  14 37  -21.0377 26068.5 -03480.2 -07.6040 26299.8
 16 09 2013  14 38  -21.0379 26068.4 -03480.2 -07.6042 26299.7
 16 09 2013  14 39  -21.0382 26067.9 -03480.1 -07.6041 26299.2
 16 09 2013  14 40  -21.0382 26067.5 -03480.2 -07.6043 26298.8
 16 09 2013  14 41  -21.0384 26067.5 -03480.4 -07.6048 26298.8
 16 09 2013  14 42  -21.0388 26067.6 -03480.6 -07.6053 26299.0
 16 09 2013  14 43  -21.0393 26067.8 -03480.9 -07.6058 26299.2
 16 09 2013  14 44  -21.0397 26067.9 -03481.1 -07.6062 26299.3
 16 09 2013  14 45  -21.0403 26068.1 -03481.3 -07.6067 26299.6
 16 09 2013  14 46  -21.0404 26067.8 -03481.3 -07.6066 26299.2
 16 09 2013  14 47  -21.0404 26067.3 -03481.1 -07.6065 26298.7
 16 09 2013  14 48  -21.0402 26066.6 -03481.0 -07.6064 26298.0
 16 09 2013  14 49  -21.0404 26066.3 -03481.1 -07.6067 26297.7
 16 09 2013  14 50  -21.0400 26065.4 -03481.0 -07.6068 26296.8
 16 09 2013  14 51  -21.0404 26064.7 -03481.0 -07.6070 26296.2
 16 09 2013  14 52  -21.0409 26064.8 -03481.4 -07.6077 26296.3
 16 09 2013  14 53  -21.0414 26065.3 -03481.8 -07.6084 26296.9
 16 09 2013  14 54  -21.0418 26065.4 -03481.9 -07.6086 26297.0
 16 09 2013  14 55  -21.0422 26065.1 -03481.8 -07.6086 26296.7
 16 09 2013  14 56  -21.0421 26064.4 -03481.7 -07.6085 26295.9
 16 09 2013  14 57  -21.0423 26064.6 -03481.9 -07.6088 26296.1
 16 09 2013  14 58  -21.0428 26064.5 -03481.9 -07.6090 26296.0
 16 09 2013  14 59  -21.0436 26064.6 -03482.0 -07.6092 26296.2
 16 09 2013  15 00  -21.0442 26065.0 -03482.2 -07.6095 26296.6
 16 09 2013  15 01  -21.0446 26064.9 -03482.2 -07.6094 26296.5
 16 09 2013  15 02  -21.0448 26064.7 -03482.1 -07.6092 26296.2
 16 09 2013  15 03  -21.0447 26064.4 -03481.9 -07.6091 26295.9
 16 09 2013  15 04  -21.0449 26064.5 -03482.1 -07.6093 26296.1
 16 09 2013  15 05  -21.0454 26064.6 -03482.2 -07.6095 26296.2
 16 09 2013  15 06  -21.0454 26064.6 -03482.1 -07.6095 26296.2
 16 09 2013  15 07  -21.0452 26064.3 -03482.1 -07.6093 26295.9
 16 09 2013  15 08  -21.0453 26064.2 -03482.1 -07.6094 26295.8
 16 09 2013  15 09  -21.0454 26064.0 -03482.1 -07.6095 26295.5
 16 09 2013  15 10  -21.0456 26064.0 -03482.2 -07.6097 26295.6
 16 09 2013  15 11  -21.0466 26064.5 -03482.5 -07.6102 26296.1
 16 09 2013  15 12  -21.0473 26065.0 -03482.7 -07.6106 26296.7
 16 09 2013  15 13  -21.0473 26065.0 -03482.6 -07.6104 26296.6
 16 09 2013  15 14  -21.0473 26064.7 -03482.5 -07.6102 26296.3
 16 09 2013  15 15  -21.0474 26064.5 -03482.4 -07.6100 26296.1
 16 09 2013  15 16  -21.0476 26064.4 -03482.3 -07.6099 26296.0
 16 09 2013  15 17  -21.0480 26064.2 -03482.3 -07.6098 26295.8
 16 09 2013  15 18  -21.0486 26064.0 -03482.2 -07.6098 26295.6
 16 09 2013  15 19  -21.0489 26063.7 -03482.1 -07.6097 26295.2
 16 09 2013  15 20  -21.0491 26063.4 -03482.2 -07.6098 26295.0
 16 09 2013  15 21  -21.0492 26063.4 -03482.2 -07.6099 26295.0
 16 09 2013  15 22  -21.0496 26063.4 -03482.4 -07.6103 26295.0
 16 09 2013  15 23  -21.0499 26063.1 -03482.4 -07.6103 26294.8
 16 09 2013  15 24  -21.0507 26063.3 -03482.5 -07.6106 26294.9
 16 09 2013  15 25  -21.0513 26063.4 -03482.6 -07.6108 26295.0
 16 09 2013  15 26  -21.0514 26063.2 -03482.6 -07.6108 26294.8
 16 09 2013  15 27  -21.0514 26063.3 -03482.6 -07.6108 26294.9
 16 09 2013  15 28  -21.0518 26063.5 -03482.7 -07.6109 26295.2
 16 09 2013  15 29  -21.0518 26063.4 -03482.5 -07.6107 26295.0
 16 09 2013  15 30  -21.0516 26063.1 -03482.3 -07.6103 26294.7
 16 09 2013  15 31  -21.0515 26063.0 -03482.2 -07.6101 26294.6
 16 09 2013  15 32  -21.0516 26062.9 -03482.2 -07.6100 26294.5
 16 09 2013  15 33  -21.0514 26062.5 -03482.1 -07.6100 26294.1
 16 09 2013  15 34  -21.0513 26062.0 -03482.1 -07.6100 26293.6
 16 09 2013  15 35  -21.0513 26061.6 -03482.1 -07.6101 26293.2
 16 09 2013  15 36  -21.0511 26061.3 -03482.2 -07.6105 26292.9
 16 09 2013  15 37  -21.0508 26060.7 -03482.2 -07.6107 26292.3
 16 09 2013  15 38  -21.0505 26060.2 -03482.2 -07.6109 26291.8
 16 09 2013  15 39  -21.0504 26059.6 -03482.3 -07.6113 26291.2
 16 09 2013  15 40  -21.0505 26059.0 -03482.4 -07.6117 26290.7
 16 09 2013  15 41  -21.0505 26058.6 -03482.6 -07.6121 26290.3
 16 09 2013  15 42  -21.0507 26059.0 -03483.1 -07.6130 26290.7
 16 09 2013  15 43  -21.0507 26059.0 -03483.3 -07.6135 26290.8
 16 09 2013  15 44  -21.0504 26058.4 -03483.3 -07.6137 26290.2
 16 09 2013  15 45  -21.0501 26057.9 -03483.3 -07.6138 26289.7
 16 09 2013  15 46  -21.0498 26057.6 -03483.5 -07.6143 26289.4
 16 09 2013  15 47  -21.0496 26057.5 -03483.7 -07.6149 26289.4
 16 09 2013  15 48  -21.0492 26057.3 -03483.9 -07.6154 26289.1
 16 09 2013  15 49  -21.0490 26057.1 -03484.1 -07.6158 26289.0
 16 09 2013  15 50  -21.0489 26057.0 -03484.3 -07.6163 26288.9
 16 09 2013  15 51  -21.0486 26057.0 -03484.5 -07.6167 26288.9
 16 09 2013  15 52  -21.0485 26057.0 -03484.7 -07.6172 26289.0
 16 09 2013  15 53  -21.0486 26057.2 -03485.0 -07.6177 26289.2
 16 09 2013  15 54  -21.0485 26057.2 -03485.1 -07.6179 26289.2
 16 09 2013  15 55  -21.0482 26056.9 -03485.1 -07.6181 26289.0
 16 09 2013  15 56  -21.0479 26056.5 -03485.2 -07.6183 26288.6
 16 09 2013  15 57  -21.0474 26056.2 -03485.2 -07.6186 26288.3
 16 09 2013  15 58  -21.0470 26056.0 -03485.4 -07.6190 26288.1
 16 09 2013  15 59  -21.0467 26055.7 -03485.5 -07.6194 26287.8
 16 09 2013  16 00  -21.0468 26055.5 -03485.7 -07.6198 26287.6
 16 09 2013  16 01  -21.0470 26055.7 -03486.0 -07.6204 26287.8
 16 09 2013  16 02  -21.0470 26055.7 -03486.2 -07.6207 26287.9
 16 09 2013  16 03  -21.0468 26055.7 -03486.3 -07.6210 26288.0
 16 09 2013  16 04  -21.0469 26055.6 -03486.4 -07.6213 26287.9
 16 09 2013  16 05  -21.0470 26055.6 -03486.6 -07.6216 26287.9
 16 09 2013  16 06  -21.0468 26055.5 -03486.6 -07.6218 26287.8
 16 09 2013  16 07  -21.0468 26055.6 -03486.8 -07.6221 26287.8
 16 09 2013  16 08  -21.0469 26055.6 -03487.0 -07.6225 26287.8
 16 09 2013  16 09  -21.0472 26055.5 -03487.1 -07.6228 26287.8
 16 09 2013  16 10  -21.0472 26055.5 -03487.2 -07.6230 26287.8
 16 09 2013  16 11  -21.0474 26055.5 -03487.3 -07.6233 26287.9
 16 09 2013  16 12  -21.0474 26055.6 -03487.5 -07.6236 26288.0
 16 09 2013  16 13  -21.0476 26055.8 -03487.6 -07.6238 26288.2
 16 09 2013  16 14  -21.0479 26055.8 -03487.8 -07.6241 26288.2
 16 09 2013  16 15  -21.0481 26055.8 -03487.8 -07.6243 26288.2
 16 09 2013  16 16  -21.0484 26055.8 -03487.9 -07.6244 26288.2
 16 09 2013  16 17  -21.0483 26055.6 -03487.8 -07.6243 26288.0
 16 09 2013  16 18  -21.0484 26055.4 -03487.8 -07.6243 26287.8
 16 09 2013  16 19  -21.0486 26055.3 -03487.9 -07.6245 26287.7
 16 09 2013  16 20  -21.0486 26055.2 -03487.9 -07.6245 26287.6
 16 09 2013  16 21  -21.0488 26055.0 -03487.8 -07.6245 26287.5
 16 09 2013  16 22  -21.0487 26054.7 -03487.8 -07.6244 26287.1
 16 09 2013  16 23  -21.0484 26054.4 -03487.7 -07.6244 26286.8
 16 09 2013  16 24  -21.0483 26054.2 -03487.8 -07.6246 26286.6
 16 09 2013  16 25  -21.0484 26054.1 -03487.8 -07.6247 26286.6
 16 09 2013  16 26  -21.0483 26054.0 -03487.8 -07.6248 26286.4
 16 09 2013  16 27  -21.0482 26053.8 -03487.8 -07.6248 26286.3
 16 09 2013  16 28  -21.0482 26053.8 -03487.8 -07.6249 26286.3
 16 09 2013  16 29  -21.0479 26053.9 -03487.9 -07.6251 26286.3
 16 09 2013  16 30  -21.0478 26053.8 -03487.9 -07.6251 26286.2
 16 09 2013  16 31  -21.0476 26053.7 -03487.9 -07.6251 26286.1
 16 09 2013  16 32  -21.0473 26053.5 -03487.9 -07.6251 26285.9
 16 09 2013  16 33  -21.0474 26053.6 -03488.0 -07.6253 26286.0
 16 09 2013  16 34  -21.0477 26053.5 -03488.1 -07.6255 26286.0
 16 09 2013  16 35  -21.0481 26053.7 -03488.1 -07.6255 26286.1
 16 09 2013  16 36  -21.0482 26053.7 -03488.1 -07.6255 26286.2
 16 09 2013  16 37  -21.0479 26053.4 -03487.9 -07.6252 26285.9
 16 09 2013  16 38  -21.0476 26053.2 -03487.8 -07.6249 26285.6
 16 09 2013  16 39  -21.0471 26053.0 -03487.7 -07.6248 26285.4
 16 09 2013  16 40  -21.0468 26052.8 -03487.6 -07.6248 26285.2
 16 09 2013  16 41  -21.0464 26052.4 -03487.6 -07.6247 26284.8
 16 09 2013  16 42  -21.0463 26052.3 -03487.6 -07.6247 26284.7
 16 09 2013  16 43  -21.0464 26052.4 -03487.7 -07.6249 26284.8
 16 09 2013  16 44  -21.0464 26052.4 -03487.7 -07.6250 26284.8
 16 09 2013  16 45  -21.0460 26052.4 -03487.7 -07.6250 26284.8
 16 09 2013  16 46  -21.0458 26052.5 -03487.8 -07.6252 26284.9
 16 09 2013  16 47  -21.0457 26052.5 -03487.9 -07.6253 26285.0
 16 09 2013  16 48  -21.0456 26052.5 -03487.8 -07.6253 26284.9
 16 09 2013  16 49  -21.0456 26052.4 -03487.9 -07.6253 26284.9
 16 09 2013  16 50  -21.0453 26052.4 -03487.8 -07.6253 26284.9
 16 09 2013  16 51  -21.0448 26052.4 -03487.8 -07.6251 26284.8
 16 09 2013  16 52  -21.0444 26052.2 -03487.7 -07.6250 26284.6
 16 09 2013  16 53  -21.0440 26052.1 -03487.7 -07.6250 26284.5
 16 09 2013  16 54  -21.0438 26052.2 -03487.7 -07.6250 26284.6
 16 09 2013  16 55  -21.0434 26051.8 -03487.6 -07.6249 26284.2
 16 09 2013  16 56  -21.0431 26051.7 -03487.6 -07.6249 26284.1
 16 09 2013  16 57  -21.0429 26051.6 -03487.5 -07.6248 26284.0
 16 09 2013  16 58  -21.0428 26051.2 -03487.4 -07.6246 26283.5
 16 09 2013  16 59  -21.0426 26050.9 -03487.3 -07.6246 26283.3
 16 09 2013  17 00  -21.0426 26050.8 -03487.3 -07.6246 26283.2
 16 09 2013  17 01  -21.0428 26050.7 -03487.3 -07.6246 26283.1
 16 09 2013  17 02  -21.0426 26050.4 -03487.2 -07.6244 26282.8
 16 09 2013  17 03  -21.0425 26050.2 -03487.2 -07.6244 26282.5
 16 09 2013  17 04  -21.0425 26050.1 -03487.1 -07.6244 26282.4
 16 09 2013  17 05  -21.0428 26050.1 -03487.1 -07.6243 26282.5
 16 09 2013  17 06  -21.0431 26050.1 -03487.0 -07.6241 26282.5
 16 09 2013  17 07  -21.0433 26050.1 -03486.9 -07.6239 26282.4
 16 09 2013  17 08  -21.0432 26049.7 -03486.6 -07.6234 26282.0
 16 09 2013  17 09  -21.0434 26049.6 -03486.5 -07.6231 26281.8
 16 09 2013  17 10  -21.0433 26049.4 -03486.3 -07.6229 26281.7
 16 09 2013  17 11  -21.0432 26049.2 -03486.1 -07.6225 26281.4
 16 09 2013  17 12  -21.0430 26048.9 -03485.9 -07.6222 26281.2
 16 09 2013  17 13  -21.0427 26048.8 -03485.8 -07.6219 26281.0
 16 09 2013  17 14  -21.0428 26048.7 -03485.7 -07.6218 26280.8
 16 09 2013  17 15  -21.0431 26048.7 -03485.7 -07.6216 26280.9
 16 09 2013  17 16  -21.0433 26048.8 -03485.6 -07.6214 26281.0
 16 09 2013  17 17  -21.0434 26048.8 -03485.4 -07.6211 26281.0
 16 09 2013  17 18  -21.0433 26048.8 -03485.2 -07.6207 26280.9
 16 09 2013  17 19  -21.0433 26048.7 -03485.1 -07.6205 26280.8
 16 09 2013  17 20  -21.0439 26049.0 -03485.1 -07.6204 26281.1
 16 09 2013  17 21  -21.0440 26048.9 -03484.9 -07.6199 26281.0
 16 09 2013  17 22  -21.0440 26048.6 -03484.6 -07.6193 26280.6
 16 09 2013  17 23  -21.0439 26048.3 -03484.3 -07.6188 26280.3
 16 09 2013  17 24  -21.0440 26048.2 -03484.1 -07.6185 26280.2
 16 09 2013  17 25  -21.0442 26048.0 -03483.9 -07.6181 26279.9
 16 09 2013  17 26  -21.0446 26047.7 -03483.7 -07.6176 26279.7
 16 09 2013  17 27  -21.0447 26047.5 -03483.5 -07.6172 26279.4
 16 09 2013  17 28  -21.0449 26047.3 -03483.3 -07.6169 26279.1
 16 09 2013  17 29  -21.0447 26046.8 -03482.9 -07.6162 26278.6
 16 09 2013  17 30  -21.0449 26046.5 -03482.7 -07.6160 26278.4
 16 09 2013  17 31  -21.0451 26046.5 -03482.6 -07.6158 26278.3
 16 09 2013  17 32  -21.0449 26046.1 -03482.4 -07.6154 26277.9
 16 09 2013  17 33  -21.0447 26045.8 -03482.2 -07.6150 26277.5
 16 09 2013  17 34  -21.0444 26045.5 -03482.0 -07.6147 26277.2
 16 09 2013  17 35  -21.0444 26045.3 -03481.9 -07.6146 26277.0
 16 09 2013  17 36  -21.0441 26045.1 -03481.8 -07.6142 26276.8
 16 09 2013  17 37  -21.0440 26044.8 -03481.6 -07.6139 26276.5
 16 09 2013  17 38  -21.0437 26044.5 -03481.4 -07.6137 26276.1
 16 09 2013  17 39  -21.0436 26044.0 -03481.2 -07.6135 26275.7
 16 09 2013  17 40  -21.0433 26043.7 -03481.1 -07.6132 26275.3
 16 09 2013  17 41  -21.0430 26043.4 -03481.0 -07.6130 26275.0
 16 09 2013  17 42  -21.0427 26043.1 -03480.8 -07.6129 26274.7
 16 09 2013  17 43  -21.0426 26042.8 -03480.7 -07.6127 26274.3
 16 09 2013  17 44  -21.0424 26042.5 -03480.6 -07.6125 26274.0
 16 09 2013  17 45  -21.0420 26042.3 -03480.6 -07.6125 26273.9
 16 09 2013  17 46  -21.0417 26042.1 -03480.5 -07.6123 26273.6
 16 09 2013  17 47  -21.0412 26041.8 -03480.4 -07.6122 26273.4
 16 09 2013  17 48  -21.0409 26041.6 -03480.4 -07.6122 26273.2
 16 09 2013  17 49  -21.0408 26041.6 -03480.4 -07.6122 26273.1
 16 09 2013  17 50  -21.0406 26041.4 -03480.3 -07.6121 26272.9
 16 09 2013  17 51  -21.0400 26041.1 -03480.2 -07.6119 26272.7
 16 09 2013  17 52  -21.0400 26041.0 -03480.1 -07.6118 26272.5
 16 09 2013  17 53  -21.0397 26040.7 -03480.0 -07.6117 26272.2
 16 09 2013  17 54  -21.0396 26040.5 -03479.8 -07.6114 26272.0
 16 09 2013  17 55  -21.0395 26040.1 -03479.6 -07.6111 26271.6
 16 09 2013  17 56  -21.0390 26039.9 -03479.5 -07.6108 26271.4
 16 09 2013  17 57  -21.0388 26039.8 -03479.4 -07.6107 26271.3
 16 09 2013  17 58  -21.0386 26039.7 -03479.4 -07.6106 26271.1
 16 09 2013  17 59  -21.0384 26039.6 -03479.3 -07.6106 26271.1
 16 09 2013  18 00  -21.0380 26039.4 -03479.1 -07.6102 26270.8
 16 09 2013  18 01  -21.0376 26039.1 -03478.9 -07.6099 26270.5
 16 09 2013  18 02  -21.0371 26038.9 -03478.8 -07.6096 26270.3
 16 09 2013  18 03  -21.0370 26038.8 -03478.7 -07.6094 26270.2
 16 09 2013  18 04  -21.0371 26039.0 -03478.7 -07.6094 26270.3
 16 09 2013  18 05  -21.0368 26038.7 -03478.4 -07.6089 26270.0
 16 09 2013  18 06  -21.0363 26038.4 -03478.2 -07.6085 26269.7
 16 09 2013  18 07  -21.0358 26038.2 -03478.0 -07.6082 26269.5
 16 09 2013  18 08  -21.0356 26038.1 -03477.9 -07.6079 26269.4
 16 09 2013  18 09  -21.0351 26038.0 -03477.8 -07.6077 26269.2
 16 09 2013  18 10  -21.0345 26037.7 -03477.7 -07.6075 26268.9
 16 09 2013  18 11  -21.0342 26037.7 -03477.6 -07.6074 26268.9
 16 09 2013  18 12  -21.0338 26037.8 -03477.6 -07.6074 26269.0
 16 09 2013  18 13  -21.0334 26038.0 -03477.6 -07.6074 26269.2
 16 09 2013  18 14  -21.0331 26037.9 -03477.5 -07.6071 26269.1
 16 09 2013  18 15  -21.0327 26037.5 -03477.2 -07.6066 26268.6
 16 09 2013  18 16  -21.0320 26037.0 -03476.9 -07.6060 26268.1
 16 09 2013  18 17  -21.0313 26036.7 -03476.7 -07.6057 26267.8
 16 09 2013  18 18  -21.0305 26036.6 -03476.6 -07.6056 26267.7
 16 09 2013  18 19  -21.0298 26036.7 -03476.7 -07.6057 26267.8
 16 09 2013  18 20  -21.0290 26036.6 -03476.6 -07.6056 26267.7
 16 09 2013  18 21  -21.0282 26036.4 -03476.5 -07.6054 26267.5
 16 09 2013  18 22  -21.0276 26036.0 -03476.3 -07.6051 26267.1
 16 09 2013  18 23  -21.0269 26035.5 -03476.1 -07.6048 26266.6
 16 09 2013  18 24  -21.0263 26035.3 -03476.0 -07.6047 26266.4
 16 09 2013  18 25  -21.0263 26035.4 -03476.2 -07.6051 26266.4
 16 09 2013  18 26  -21.0259 26035.5 -03476.3 -07.6053 26266.6
 16 09 2013  18 27  -21.0252 26035.2 -03476.3 -07.6052 26266.2
 16 09 2013  18 28  -21.0251 26035.0 -03476.2 -07.6051 26266.0
 16 09 2013  18 29  -21.0240 26035.1 -03476.3 -07.6053 26266.2
 16 09 2013  18 30  -21.0226 26035.3 -03476.3 -07.6053 26266.4
 16 09 2013  18 31  -21.0219 26035.3 -03476.3 -07.6053 26266.4
 16 09 2013  18 32  -21.0213 26035.1 -03476.2 -07.6052 26266.1
 16 09 2013  18 33  -21.0206 26034.9 -03476.2 -07.6052 26266.0
 16 09 2013  18 34  -21.0202 26034.8 -03476.2 -07.6053 26265.9
 16 09 2013  18 35  -21.0195 26034.5 -03476.2 -07.6052 26265.5
 16 09 2013  18 36  -21.0187 26034.1 -03476.1 -07.6052 26265.1
 16 09 2013  18 37  -21.0180 26033.7 -03476.0 -07.6052 26264.8
 16 09 2013  18 38  -21.0175 26033.6 -03476.1 -07.6053 26264.6
 16 09 2013  18 39  -21.0171 26033.6 -03476.2 -07.6055 26264.7
 16 09 2013  18 40  -21.0170 26033.7 -03476.3 -07.6058 26264.8
 16 09 2013  18 41  -21.0168 26033.8 -03476.4 -07.6059 26264.9
 16 09 2013  18 42  -21.0162 26033.8 -03476.4 -07.6060 26264.9
 16 09 2013  18 43  -21.0158 26033.6 -03476.4 -07.6060 26264.7
 16 09 2013  18 44  -21.0154 26033.6 -03476.4 -07.6059 26264.6
 16 09 2013  18 45  -21.0150 26033.6 -03476.5 -07.6061 26264.7
 16 09 2013  18 46  -21.0147 26033.6 -03476.5 -07.6062 26264.7
 16 09 2013  18 47  -21.0146 26033.5 -03476.4 -07.6061 26264.6
 16 09 2013  18 48  -21.0145 26033.5 -03476.5 -07.6062 26264.6
 16 09 2013  18 49  -21.0146 26033.4 -03476.5 -07.6062 26264.5
 16 09 2013  18 50  -21.0146 26033.4 -03476.5 -07.6062 26264.5
 16 09 2013  18 51  -21.0147 26033.4 -03476.5 -07.6062 26264.5
 16 09 2013  18 52  -21.0147 26033.1 -03476.3 -07.6060 26264.2
 16 09 2013  18 53  -21.0146 26032.9 -03476.2 -07.6057 26264.0
 16 09 2013  18 54  -21.0147 26032.8 -03476.1 -07.6056 26263.8
 16 09 2013  18 55  -21.0147 26032.7 -03476.0 -07.6055 26263.7
 16 09 2013  18 56  -21.0145 26032.5 -03475.9 -07.6052 26263.5
 16 09 2013  18 57  -21.0143 26032.3 -03475.8 -07.6051 26263.3
 16 09 2013  18 58  -21.0140 26032.0 -03475.7 -07.6049 26263.0
 16 09 2013  18 59  -21.0135 26031.9 -03475.6 -07.6048 26262.9
 16 09 2013  19 00  -21.0133 26032.0 -03475.6 -07.6048 26263.0
 16 09 2013  19 01  -21.0131 26032.0 -03475.6 -07.6048 26263.0
 16 09 2013  19 02  -21.0130 26032.1 -03475.6 -07.6048 26263.1
 16 09 2013  19 03  -21.0127 26032.0 -03475.6 -07.6047 26263.0
 16 09 2013  19 04  -21.0125 26031.9 -03475.5 -07.6046 26262.8
 16 09 2013  19 05  -21.0120 26031.6 -03475.4 -07.6044 26262.6
 16 09 2013  19 06  -21.0118 26031.6 -03475.4 -07.6044 26262.5
 16 09 2013  19 07  -21.0116 26031.5 -03475.4 -07.6044 26262.5
 16 09 2013  19 08  -21.0114 26031.4 -03475.3 -07.6043 26262.3
 16 09 2013  19 09  -21.0111 26031.2 -03475.2 -07.6042 26262.2
 16 09 2013  19 10  -21.0108 26031.1 -03475.1 -07.6040 26262.0
 16 09 2013  19 11  -21.0105 26031.2 -03475.2 -07.6041 26262.1
 16 09 2013  19 12  -21.0100 26031.2 -03475.3 -07.6042 26262.2
 16 09 2013  19 13  -21.0098 26031.3 -03475.3 -07.6042 26262.2
 16 09 2013  19 14  -21.0095 26031.3 -03475.3 -07.6042 26262.3
 16 09 2013  19 15  -21.0093 26031.4 -03475.3 -07.6043 26262.4
 16 09 2013  19 16  -21.0091 26031.4 -03475.3 -07.6042 26262.4
 16 09 2013  19 17  -21.0088 26031.5 -03475.3 -07.6042 26262.4
 16 09 2013  19 18  -21.0086 26031.6 -03475.3 -07.6041 26262.5
 16 09 2013  19 19  -21.0084 26031.6 -03475.2 -07.6041 26262.5
 16 09 2013  19 20  -21.0082 26031.5 -03475.2 -07.6040 26262.4
 16 09 2013  19 21  -21.0081 26031.6 -03475.2 -07.6040 26262.5
 16 09 2013  19 22  -21.0081 26031.9 -03475.3 -07.6042 26262.8
 16 09 2013  19 23  -21.0078 26032.0 -03475.3 -07.6042 26262.9
 16 09 2013  19 24  -21.0076 26031.8 -03475.3 -07.6040 26262.8
 16 09 2013  19 25  -21.0073 26031.8 -03475.2 -07.6039 26262.7
 16 09 2013  19 26  -21.0071 26031.6 -03475.1 -07.6037 26262.5
 16 09 2013  19 27  -21.0067 26031.5 -03475.0 -07.6036 26262.4
 16 09 2013  19 28  -21.0063 26031.4 -03475.0 -07.6036 26262.3
 16 09 2013  19 29  -21.0060 26031.5 -03475.0 -07.6037 26262.4
 16 09 2013  19 30  -21.0058 26031.5 -03475.1 -07.6038 26262.5
 16 09 2013  19 31  -21.0055 26031.5 -03475.1 -07.6037 26262.4
 16 09 2013  19 32  -21.0053 26031.4 -03475.1 -07.6038 26262.4
 16 09 2013  19 33  -21.0051 26031.4 -03475.2 -07.6039 26262.3
 16 09 2013  19 34  -21.0049 26031.3 -03475.2 -07.6040 26262.3
 16 09 2013  19 35  -21.0056 26031.4 -03475.2 -07.6041 26262.3
 16 09 2013  19 36  -21.0092 26030.8 -03475.0 -07.6038 26261.8
 16 09 2013  19 37  -21.0097 26030.8 -03475.2 -07.6041 26261.7
 16 09 2013  19 38  -21.0098 26030.7 -03475.2 -07.6043 26261.6
 16 09 2013  19 39  -21.0097 26030.7 -03475.3 -07.6044 26261.6
 16 09 2013  19 40  -21.0094 26030.7 -03475.4 -07.6047 26261.7
 16 09 2013  19 41  -21.0094 26030.7 -03475.5 -07.6049 26261.7
 16 09 2013  19 42  -21.0094 26030.8 -03475.7 -07.6052 26261.8
 16 09 2013  19 43  -21.0095 26030.9 -03475.8 -07.6055 26261.9
 16 09 2013  19 44  -21.0094 26031.0 -03475.9 -07.6057 26262.0
 16 09 2013  19 45  -21.0095 26031.0 -03476.1 -07.6060 26262.0
 16 09 2013  19 46  -21.0096 26031.0 -03476.2 -07.6062 26262.1
 16 09 2013  19 47  -21.0098 26030.9 -03476.2 -07.6063 26262.0
 16 09 2013  19 48  -21.0100 26030.8 -03476.2 -07.6064 26261.8
 16 09 2013  19 49  -21.0102 26030.7 -03476.3 -07.6066 26261.7
 16 09 2013  19 50  -21.0090 26030.7 -03476.3 -07.6066 26261.8
 16 09 2013  19 51  -21.0056 26031.2 -03476.7 -07.6074 26262.4
 16 09 2013  19 52  -21.0058 26031.1 -03476.8 -07.6075 26262.3
 16 09 2013  19 53  -21.0061 26031.0 -03476.9 -07.6077 26262.2
 16 09 2013  19 54  -21.0063 26030.9 -03476.9 -07.6079 26262.1
 16 09 2013  19 55  -21.0065 26030.8 -03477.0 -07.6080 26262.0
 16 09 2013  19 56  -21.0067 26030.6 -03477.0 -07.6081 26261.8
 16 09 2013  19 57  -21.0069 26030.4 -03477.0 -07.6083 26261.6
 16 09 2013  19 58  -21.0070 26030.1 -03477.0 -07.6083 26261.3
 16 09 2013  19 59  -21.0070 26029.8 -03477.0 -07.6084 26261.0
 16 09 2013  20 00  -21.0072 26029.7 -03477.0 -07.6085 26260.9
 16 09 2013  20 01  -21.0072 26029.4 -03477.1 -07.6087 26260.6
 16 09 2013  20 02  -21.0072 26029.4 -03477.2 -07.6089 26260.6
 16 09 2013  20 03  -21.0072 26029.2 -03477.2 -07.6091 26260.5
 16 09 2013  20 04  -21.0073 26029.2 -03477.3 -07.6093 26260.4
 16 09 2013  20 05  -21.0074 26028.9 -03477.4 -07.6095 26260.2
 16 09 2013  20 06  -21.0075 26028.8 -03477.4 -07.6096 26260.0
 16 09 2013  20 07  -21.0075 26028.8 -03477.6 -07.6099 26260.1
 16 09 2013  20 08  -21.0074 26028.8 -03477.7 -07.6102 26260.0
 16 09 2013  20 09  -21.0074 26028.8 -03477.8 -07.6105 26260.1
 16 09 2013  20 10  -21.0074 26028.8 -03478.0 -07.6108 26260.2
 16 09 2013  20 11  -21.0073 26028.9 -03478.1 -07.6110 26260.2
 16 09 2013  20 12  -21.0073 26029.0 -03478.3 -07.6114 26260.3
 16 09 2013  20 13  -21.0073 26029.1 -03478.5 -07.6119 26260.5
 16 09 2013  20 14  -21.0074 26029.2 -03478.7 -07.6122 26260.7
 16 09 2013  20 15  -21.0074 26029.4 -03478.9 -07.6126 26260.8
 16 09 2013  20 16  -21.0074 26029.4 -03479.0 -07.6129 26260.9
 16 09 2013  20 17  -21.0074 26029.4 -03479.1 -07.6131 26260.9
 16 09 2013  20 18  -21.0074 26029.5 -03479.3 -07.6134 26261.0
 16 09 2013  20 19  -21.0074 26029.5 -03479.5 -07.6138 26261.0
 16 09 2013  20 20  -21.0075 26029.6 -03479.6 -07.6141 26261.1
 16 09 2013  20 21  -21.0075 26029.6 -03479.8 -07.6144 26261.2
 16 09 2013  20 22  -21.0075 26029.6 -03479.9 -07.6146 26261.2
 16 09 2013  20 23  -21.0075 26029.7 -03480.0 -07.6148 26261.3
 16 09 2013  20 24  -21.0076 26029.7 -03480.1 -07.6151 26261.4
 16 09 2013  20 25  -21.0075 26029.8 -03480.2 -07.6154 26261.5
 16 09 2013  20 26  -21.0075 26029.9 -03480.3 -07.6156 26261.6
 16 09 2013  20 27  -21.0076 26030.0 -03480.4 -07.6158 26261.6
 16 09 2013  20 28  -21.0075 26030.0 -03480.5 -07.6159 26261.6
 16 09 2013  20 29  -21.0076 26030.0 -03480.6 -07.6162 26261.7
 16 09 2013  20 30  -21.0076 26030.1 -03480.8 -07.6164 26261.8
 16 09 2013  20 31  -21.0077 26030.2 -03480.8 -07.6166 26261.9
 16 09 2013  20 32  -21.0077 26030.2 -03480.9 -07.6167 26261.9
 16 09 2013  20 33  -21.0078 26030.1 -03481.0 -07.6169 26261.8
 16 09 2013  20 34  -21.0080 26030.0 -03481.1 -07.6171 26261.8
 16 09 2013  20 35  -21.0081 26029.9 -03481.1 -07.6172 26261.7
 16 09 2013  20 36  -21.0081 26030.0 -03481.2 -07.6173 26261.7
 16 09 2013  20 37  -21.0083 26030.0 -03481.3 -07.6176 26261.8
 16 09 2013  20 38  -21.0083 26030.0 -03481.3 -07.6177 26261.8
 16 09 2013  20 39  -21.0083 26030.0 -03481.4 -07.6178 26261.8
 16 09 2013  20 40  -21.0084 26030.1 -03481.5 -07.6180 26261.9
 16 09 2013  20 41  -21.0085 26030.1 -03481.6 -07.6182 26261.9
 16 09 2013  20 42  -21.0086 26030.1 -03481.7 -07.6184 26262.0
 16 09 2013  20 43  -21.0087 26030.1 -03481.7 -07.6185 26262.0
 16 09 2013  20 44  -21.0088 26030.0 -03481.8 -07.6186 26261.8
 16 09 2013  20 45  -21.0088 26030.0 -03481.8 -07.6188 26261.9
 16 09 2013  20 46  -21.0088 26029.9 -03481.9 -07.6189 26261.8
 16 09 2013  20 47  -21.0089 26029.8 -03481.8 -07.6189 26261.6
 16 09 2013  20 48  -21.0090 26029.8 -03481.9 -07.6190 26261.6
 16 09 2013  20 49  -21.0091 26029.7 -03481.9 -07.6191 26261.6
 16 09 2013  20 50  -21.0092 26029.8 -03482.0 -07.6192 26261.6
 16 09 2013  20 51  -21.0093 26029.8 -03482.1 -07.6193 26261.6
 16 09 2013  20 52  -21.0095 26029.9 -03482.2 -07.6196 26261.8
 16 09 2013  20 53  -21.0096 26030.0 -03482.3 -07.6197 26261.9
 16 09 2013  20 54  -21.0097 26030.0 -03482.4 -07.6199 26261.9
 16 09 2013  20 55  -21.0100 26030.1 -03482.4 -07.6200 26262.0
 16 09 2013  20 56  -21.0099 26030.1 -03482.3 -07.6198 26262.0
 16 09 2013  20 57  -21.0101 26030.2 -03482.5 -07.6202 26262.1
 16 09 2013  20 58  -21.0102 26030.2 -03482.6 -07.6204 26262.1
 16 09 2013  20 59  -21.0103 26030.2 -03482.6 -07.6205 26262.1
 16 09 2013  21 00  -21.0104 26030.1 -03482.6 -07.6205 26262.1
 16 09 2013  21 01  -21.0105 26030.2 -03482.7 -07.6206 26262.1
 16 09 2013  21 02  -21.0106 26030.2 -03482.8 -07.6207 26262.1
 16 09 2013  21 03  -21.0106 26030.1 -03482.8 -07.6208 26262.1
 16 09 2013  21 04  -21.0107 26030.1 -03482.8 -07.6208 26262.1
 16 09 2013  21 05  -21.0108 26030.1 -03482.8 -07.6209 26262.0
 16 09 2013  21 06  -21.0110 26030.0 -03482.9 -07.6211 26262.0
 16 09 2013  21 07  -21.0111 26030.1 -03482.9 -07.6212 26262.0
 16 09 2013  21 08  -21.0113 26030.0 -03483.0 -07.6213 26262.0
 16 09 2013  21 09  -21.0115 26029.9 -03483.0 -07.6213 26261.9
 16 09 2013  21 10  -21.0116 26029.8 -03483.0 -07.6214 26261.8
 16 09 2013  21 11  -21.0118 26029.8 -03483.1 -07.6215 26261.8
 16 09 2013  21 12  -21.0118 26029.8 -03483.0 -07.6215 26261.8
 16 09 2013  21 13  -21.0120 26029.7 -03483.1 -07.6215 26261.7
 16 09 2013  21 14  -21.0122 26029.6 -03483.1 -07.6215 26261.6
 16 09 2013  21 15  -21.0123 26029.4 -03483.1 -07.6216 26261.5
 16 09 2013  21 16  -21.0124 26029.5 -03483.1 -07.6216 26261.5
 16 09 2013  21 17  -21.0125 26029.5 -03483.2 -07.6218 26261.5
 16 09 2013  21 18  -21.0126 26029.4 -03483.2 -07.6218 26261.4
 16 09 2013  21 19  -21.0127 26029.2 -03483.1 -07.6217 26261.2
 16 09 2013  21 20  -21.0129 26028.9 -03483.0 -07.6216 26260.9
 16 09 2013  21 21  -21.0130 26028.8 -03483.0 -07.6216 26260.8
 16 09 2013  21 22  -21.0130 26028.7 -03482.9 -07.6216 26260.7
 16 09 2013  21 23  -21.0132 26028.6 -03482.9 -07.6216 26260.6
 16 09 2013  21 24  -21.0132 26028.5 -03483.0 -07.6217 26260.5
 16 09 2013  21 25  -21.0133 26028.5 -03483.0 -07.6218 26260.5
 16 09 2013  21 26  -21.0134 26028.5 -03483.1 -07.6219 26260.5
 16 09 2013  21 27  -21.0135 26028.6 -03483.2 -07.6221 26260.6
 16 09 2013  21 28  -21.0136 26028.5 -03483.2 -07.6221 26260.6
 16 09 2013  21 29  -21.0136 26028.5 -03483.2 -07.6221 26260.5
 16 09 2013  21 30  -21.0137 26028.4 -03483.2 -07.6222 26260.5
 16 09 2013  21 31  -21.0137 26028.4 -03483.2 -07.6223 26260.5
 16 09 2013  21 32  -21.0137 26028.3 -03483.2 -07.6222 26260.4
 16 09 2013  21 33  -21.0136 26028.4 -03483.3 -07.6224 26260.5
 16 09 2013  21 34  -21.0136 26028.5 -03483.4 -07.6226 26260.6
 16 09 2013  21 35  -21.0137 26028.6 -03483.5 -07.6228 26260.7
 16 09 2013  21 36  -21.0138 26028.5 -03483.6 -07.6229 26260.6
 16 09 2013  21 37  -21.0140 26028.5 -03483.6 -07.6230 26260.5
 16 09 2013  21 38  -21.0141 26028.4 -03483.5 -07.6229 26260.5
 16 09 2013  21 39  -21.0141 26028.3 -03483.5 -07.6229 26260.4
 16 09 2013  21 40  -21.0143 26028.2 -03483.6 -07.6230 26260.3
 16 09 2013  21 41  -21.0146 26027.9 -03483.5 -07.6229 26260.0
 16 09 2013  21 42  -21.0148 26027.8 -03483.4 -07.6229 26259.8
 16 09 2013  21 43  -21.0150 26027.6 -03483.4 -07.6228 26259.7
 16 09 2013  21 44  -21.0150 26027.7 -03483.4 -07.6228 26259.7
 16 09 2013  21 45  -21.0152 26027.7 -03483.5 -07.6230 26259.7
 16 09 2013  21 46  -21.0154 26027.5 -03483.5 -07.6231 26259.6
 16 09 2013  21 47  -21.0156 26027.5 -03483.5 -07.6231 26259.6
 16 09 2013  21 48  -21.0158 26027.4 -03483.5 -07.6232 26259.5
 16 09 2013  21 49  -21.0158 26027.4 -03483.5 -07.6231 26259.5
 16 09 2013  21 50  -21.0159 26027.3 -03483.5 -07.6232 26259.4
 16 09 2013  21 51  -21.0158 26027.2 -03483.4 -07.6231 26259.2
 16 09 2013  21 52  -21.0158 26027.0 -03483.3 -07.6229 26259.1
 16 09 2013  21 53  -21.0157 26026.9 -03483.3 -07.6229 26258.9
 16 09 2013  21 54  -21.0156 26026.7 -03483.3 -07.6229 26258.8
 16 09 2013  21 55  -21.0155 26026.7 -03483.3 -07.6229 26258.7
 16 09 2013  21 56  -21.0154 26026.6 -03483.3 -07.6229 26258.6
 16 09 2013  21 57  -21.0153 26026.5 -03483.3 -07.6230 26258.6
 16 09 2013  21 58  -21.0152 26026.5 -03483.4 -07.6231 26258.5
 16 09 2013  21 59  -21.0152 26026.4 -03483.4 -07.6232 26258.4
 16 09 2013  22 00  -21.0151 26026.4 -03483.4 -07.6233 26258.4
 16 09 2013  22 01  -21.0151 26026.4 -03483.5 -07.6235 26258.5
 16 09 2013  22 02  -21.0151 26026.6 -03483.6 -07.6237 26258.7
 16 09 2013  22 03  -21.0149 26026.7 -03483.8 -07.6240 26258.9
 16 09 2013  22 04  -21.0147 26026.9 -03484.0 -07.6242 26259.1
 16 09 2013  22 05  -21.0146 26027.1 -03484.0 -07.6244 26259.3
 16 09 2013  22 06  -21.0144 26027.5 -03484.2 -07.6247 26259.6
 16 09 2013  22 07  -21.0143 26027.7 -03484.4 -07.6249 26259.9
 16 09 2013  22 08  -21.0142 26028.0 -03484.5 -07.6252 26260.2
 16 09 2013  22 09  -21.0145 26028.0 -03484.6 -07.6254 26260.3
 16 09 2013  22 10  -21.0146 26028.1 -03484.7 -07.6255 26260.3
 16 09 2013  22 11  -21.0149 26028.2 -03484.7 -07.6256 26260.4
 16 09 2013  22 12  -21.0151 26028.2 -03484.7 -07.6256 26260.4
 16 09 2013  22 13  -21.0152 26028.1 -03484.7 -07.6255 26260.3
 16 09 2013  22 14  -21.0154 26028.2 -03484.7 -07.6255 26260.4
 16 09 2013  22 15  -21.0154 26028.3 -03484.7 -07.6255 26260.6
 16 09 2013  22 16  -21.0157 26027.9 -03484.6 -07.6253 26260.1
 16 09 2013  22 17  -21.0159 26027.9 -03484.5 -07.6252 26260.1
 16 09 2013  22 18  -21.0160 26027.9 -03484.5 -07.6252 26260.1
 16 09 2013  22 19  -21.0159 26027.9 -03484.5 -07.6252 26260.1
 16 09 2013  22 20  -21.0159 26028.0 -03484.6 -07.6252 26260.3
 16 09 2013  22 21  -21.0161 26028.1 -03484.6 -07.6254 26260.4
 16 09 2013  22 22  -21.0161 26028.3 -03484.7 -07.6255 26260.6
 16 09 2013  22 23  -21.0162 26028.5 -03484.8 -07.6256 26260.7
 16 09 2013  22 24  -21.0163 26028.5 -03484.8 -07.6256 26260.7
 16 09 2013  22 25  -21.0163 26028.5 -03484.7 -07.6255 26260.7
 16 09 2013  22 26  -21.0168 26028.1 -03484.6 -07.6253 26260.3
 16 09 2013  22 27  -21.0171 26027.8 -03484.4 -07.6249 26260.0
 16 09 2013  22 28  -21.0175 26027.3 -03484.1 -07.6245 26259.5
 16 09 2013  22 29  -21.0178 26026.9 -03483.9 -07.6242 26259.1
 16 09 2013  22 30  -21.0181 26026.7 -03483.8 -07.6240 26258.8
 16 09 2013  22 31  -21.0181 26026.5 -03483.7 -07.6238 26258.6
 16 09 2013  22 32  -21.0181 26026.4 -03483.7 -07.6238 26258.5
 16 09 2013  22 33  -21.0180 26026.4 -03483.7 -07.6238 26258.5
 16 09 2013  22 34  -20.9806 26036.2 -03432.1 -07.5095 26261.5
 16 09 2013  22 35  -21.0180 26026.4 -03483.8 -07.6240 26258.6
 16 09 2013  22 36  -21.0180 26026.6 -03483.9 -07.6242 26258.7
 16 09 2013  22 37  -21.0179 26026.7 -03483.9 -07.6243 26258.8
 16 09 2013  22 38  -21.0177 26026.9 -03484.1 -07.6245 26259.1
 16 09 2013  22 39  -21.0175 26027.2 -03484.2 -07.6248 26259.4
 16 09 2013  22 40  -21.0173 26027.6 -03484.5 -07.6251 26259.8
 16 09 2013  22 41  -21.0171 26027.9 -03484.6 -07.6254 26260.1
 16 09 2013  22 42  -21.0170 26028.1 -03484.7 -07.6256 26260.3
 16 09 2013  22 43  -21.0169 26028.0 -03484.7 -07.6256 26260.3
 16 09 2013  22 44  -21.0168 26028.2 -03484.8 -07.6256 26260.5
 16 09 2013  22 45  -21.0168 26028.0 -03484.7 -07.6255 26260.2
 16 09 2013  22 46  -21.0166 26028.1 -03484.7 -07.6255 26260.3
 16 09 2013  22 47  -21.0165 26028.2 -03484.7 -07.6256 26260.4
 16 09 2013  22 48  -21.0167 26027.7 -03484.5 -07.6253 26259.9
 16 09 2013  22 49  -21.0168 26027.5 -03484.4 -07.6250 26259.7
 16 09 2013  22 50  -21.0169 26027.4 -03484.4 -07.6250 26259.6
 16 09 2013  22 51  -21.0169 26027.5 -03484.4 -07.6251 26259.7
 16 09 2013  22 52  -21.0170 26027.3 -03484.4 -07.6250 26259.5
 16 09 2013  22 53  -21.0171 26027.3 -03484.3 -07.6249 26259.5
 16 09 2013  22 54  -21.0169 26027.5 -03484.4 -07.6250 26259.7
 16 09 2013  22 55  -21.0166 26027.9 -03484.6 -07.6254 26260.1
 16 09 2013  22 56  -21.0165 26027.6 -03484.5 -07.6252 26259.8
 16 09 2013  22 57  -21.0160 26028.2 -03484.8 -07.6256 26260.5
 16 09 2013  22 58  -21.0158 26028.4 -03484.9 -07.6259 26260.7
 16 09 2013  22 59  -21.0157 26028.2 -03484.9 -07.6258 26260.5
 16 09 2013  23 00  -21.0155 26028.1 -03484.8 -07.6257 26260.3
 16 09 2013  23 01  -21.0152 26028.1 -03484.8 -07.6257 26260.4
 16 09 2013  23 02  -21.0149 26028.1 -03484.8 -07.6258 26260.4
 16 09 2013  23 03  -21.0147 26028.0 -03484.8 -07.6258 26260.3
 16 09 2013  23 04  -21.0145 26028.0 -03484.8 -07.6257 26260.2
 16 09 2013  23 05  -21.0144 26027.9 -03484.8 -07.6257 26260.2
 16 09 2013  23 06  -21.0142 26027.9 -03484.8 -07.6258 26260.1
 16 09 2013  23 07  -21.0141 26027.9 -03484.8 -07.6258 26260.2
 16 09 2013  23 08  -21.0140 26027.9 -03484.9 -07.6259 26260.2
 16 09 2013  23 09  -21.0139 26028.0 -03484.9 -07.6260 26260.2
 16 09 2013  23 10  -21.0138 26027.8 -03484.9 -07.6260 26260.1
 16 09 2013  23 11  -21.0137 26027.7 -03484.8 -07.6259 26260.0
 16 09 2013  23 12  -21.0133 26027.8 -03484.9 -07.6260 26260.0
 16 09 2013  23 13  -21.0129 26028.2 -03485.1 -07.6263 26260.5
 16 09 2013  23 14  -21.0124 26028.7 -03485.4 -07.6268 26261.0
 16 09 2013  23 15  -21.0122 26028.7 -03485.4 -07.6269 26261.0
 16 09 2013  23 16  -21.0121 26029.0 -03485.6 -07.6272 26261.3
 16 09 2013  23 17  -21.0121 26029.0 -03485.6 -07.6273 26261.4
 16 09 2013  23 18  -21.0122 26029.3 -03485.8 -07.6275 26261.6
 16 09 2013  23 19  -21.0123 26029.2 -03485.8 -07.6275 26261.6
 16 09 2013  23 20  -21.0127 26029.1 -03485.6 -07.6273 26261.4
 16 09 2013  23 21  -21.0128 26029.2 -03485.7 -07.6274 26261.5
 16 09 2013  23 22  -21.0131 26029.2 -03485.7 -07.6274 26261.5
 16 09 2013  23 23  -21.0133 26029.3 -03485.8 -07.6275 26261.7
 16 09 2013  23 24  -21.0136 26028.9 -03485.6 -07.6272 26261.3
 16 09 2013  23 25  -21.0135 26029.4 -03485.7 -07.6274 26261.7
 16 09 2013  23 26  -21.0136 26029.3 -03485.7 -07.6273 26261.6
 16 09 2013  23 27  -21.0134 26029.4 -03485.7 -07.6273 26261.7
 16 09 2013  23 28  -21.0133 26029.5 -03485.7 -07.6274 26261.9
 16 09 2013  23 29  -21.0133 26029.4 -03485.7 -07.6273 26261.8
 16 09 2013  23 30  -21.0131 26029.6 -03485.7 -07.6273 26262.0
 16 09 2013  23 31  -21.0130 26029.6 -03485.7 -07.6273 26262.0
 16 09 2013  23 32  -21.0130 26029.6 -03485.7 -07.6273 26262.0
 16 09 2013  23 33  -21.0129 26029.6 -03485.7 -07.6273 26261.9
 16 09 2013  23 34  -21.0128 26029.5 -03485.6 -07.6271 26261.8
 16 09 2013  23 35  -21.0127 26029.4 -03485.6 -07.6270 26261.7
 16 09 2013  23 36  -21.0127 26029.2 -03485.5 -07.6269 26261.5
 16 09 2013  23 37  -21.0127 26029.2 -03485.5 -07.6269 26261.5
 16 09 2013  23 38  -21.0127 26029.0 -03485.4 -07.6269 26261.3
 16 09 2013  23 39  -21.0127 26028.9 -03485.4 -07.6268 26261.3
 16 09 2013  23 40  -21.0127 26029.0 -03485.4 -07.6268 26261.3
 16 09 2013  23 41  -21.0126 26029.0 -03485.4 -07.6269 26261.3
 16 09 2013  23 42  -21.0125 26029.0 -03485.5 -07.6269 26261.4
 16 09 2013  23 43  -21.0124 26029.1 -03485.5 -07.6270 26261.4
 16 09 2013  23 44  -21.0122 26029.2 -03485.6 -07.6271 26261.5
 16 09 2013  23 45  -21.0120 26029.3 -03485.6 -07.6272 26261.7
 16 09 2013  23 46  -21.0119 26029.4 -03485.7 -07.6273 26261.7
 16 09 2013  23 47  -21.0116 26029.4 -03485.7 -07.6273 26261.8
 16 09 2013  23 48  -21.0115 26029.4 -03485.7 -07.6273 26261.8
 16 09 2013  23 49  -21.0114 26029.4 -03485.7 -07.6273 26261.7
 16 09 2013  23 50  -21.0114 26029.4 -03485.7 -07.6274 26261.7
 16 09 2013  23 51  -21.0113 26029.3 -03485.7 -07.6273 26261.6
 16 09 2013  23 52  -21.0111 26029.3 -03485.7 -07.6273 26261.6
 16 09 2013  23 53  -21.0110 26029.3 -03485.7 -07.6273 26261.6
 16 09 2013  23 54  -21.0111 26029.3 -03485.7 -07.6274 26261.7
 16 09 2013  23 55  -21.0111 26029.3 -03485.7 -07.6274 26261.7
 16 09 2013  23 56  -21.0110 26029.4 -03485.8 -07.6275 26261.7
 16 09 2013  23 57  -21.0110 26029.4 -03485.8 -07.6276 26261.8
