SAO LUIS EMBRACE-03 <192> 1 Min. Reported data

 DD MM YYYY  HH MM   D(Deg)  H(nT)   Z(nT)   I(Deg)   F(nT)

 11 07 2013  00 00  -21.0669 25992.5 -03459.4 -07.5810 26221.7
 11 07 2013  00 01  -21.0667 25992.8 -03459.5 -07.5812 26222.0
 11 07 2013  00 02  -21.0664 25993.1 -03459.7 -07.5816 26222.4
 11 07 2013  00 03  -21.0661 25993.4 -03459.9 -07.5819 26222.7
 11 07 2013  00 04  -21.0658 25993.8 -03460.2 -07.5823 26223.1
 11 07 2013  00 05  -21.0658 25994.2 -03460.4 -07.5827 26223.6
 11 07 2013  00 06  -21.0662 25994.8 -03460.7 -07.5832 26224.1
 11 07 2013  00 07  -21.0667 25995.3 -03461.0 -07.5837 26224.6
 11 07 2013  00 08  -21.0672 25995.7 -03461.2 -07.5840 26225.1
 11 07 2013  00 09  -21.0676 25995.9 -03461.2 -07.5840 26225.3
 11 07 2013  00 10  -21.0680 25996.0 -03461.1 -07.5838 26225.4
 11 07 2013  00 11  -21.0684 25996.0 -03461.1 -07.5837 26225.4
 11 07 2013  00 12  -21.0682 25995.9 -03460.9 -07.5834 26225.3
 11 07 2013  00 13  -21.0680 25995.8 -03460.8 -07.5831 26225.2
 11 07 2013  00 14  -21.0677 25995.6 -03460.6 -07.5828 26224.9
 11 07 2013  00 15  -21.0674 25995.4 -03460.5 -07.5825 26224.7
 11 07 2013  00 16  -21.0670 25995.3 -03460.4 -07.5823 26224.6
 11 07 2013  00 17  -21.0670 25995.3 -03460.3 -07.5823 26224.6
 11 07 2013  00 18  -21.0675 25995.4 -03460.4 -07.5825 26224.7
 11 07 2013  00 19  -21.0680 25995.5 -03460.5 -07.5826 26224.8
 11 07 2013  00 20  -21.0685 25995.6 -03460.5 -07.5826 26224.9
 11 07 2013  00 21  -21.0690 25995.6 -03460.6 -07.5827 26224.9
 11 07 2013  00 22  -21.0694 25995.7 -03460.6 -07.5826 26225.0
 11 07 2013  00 23  -21.0697 25995.7 -03460.5 -07.5826 26225.0
 11 07 2013  00 24  -21.0698 25995.6 -03460.5 -07.5825 26224.9
 11 07 2013  00 25  -21.0697 25995.5 -03460.3 -07.5822 26224.8
 11 07 2013  00 26  -21.0698 25995.4 -03460.3 -07.5821 26224.7
 11 07 2013  00 27  -21.0703 25995.3 -03460.2 -07.5819 26224.6
 11 07 2013  00 28  -21.0708 25995.3 -03460.2 -07.5819 26224.6
 11 07 2013  00 29  -21.0713 25995.3 -03460.2 -07.5820 26224.6
 11 07 2013  00 30  -21.0717 25995.2 -03460.1 -07.5818 26224.5
 11 07 2013  00 31  -21.0719 25995.0 -03460.0 -07.5817 26224.3
 11 07 2013  00 32  -21.0722 25994.8 -03459.9 -07.5814 26224.0
 11 07 2013  00 33  -21.0720 25994.4 -03459.6 -07.5810 26223.6
 11 07 2013  00 34  -21.0718 25993.9 -03459.4 -07.5806 26223.1
 11 07 2013  00 35  -21.0715 25993.5 -03459.2 -07.5803 26222.7
 11 07 2013  00 36  -21.0714 25993.1 -03459.0 -07.5799 26222.3
 11 07 2013  00 37  -21.0711 25992.7 -03458.8 -07.5798 26221.8
 11 07 2013  00 38  -21.0710 25992.3 -03458.7 -07.5795 26221.4
 11 07 2013  00 39  -21.0711 25992.2 -03458.7 -07.5796 26221.3
 11 07 2013  00 40  -21.0712 25992.2 -03458.8 -07.5798 26221.3
 11 07 2013  00 41  -21.0712 25992.1 -03458.9 -07.5800 26221.3
 11 07 2013  00 42  -21.0713 25992.0 -03458.8 -07.5800 26221.2
 11 07 2013  00 43  -21.0713 25991.9 -03458.8 -07.5800 26221.0
 11 07 2013  00 44  -21.0716 25991.9 -03458.9 -07.5801 26221.0
 11 07 2013  00 45  -21.0722 25991.8 -03459.0 -07.5803 26221.0
 11 07 2013  00 46  -21.0727 25991.9 -03459.1 -07.5805 26221.0
 11 07 2013  00 47  -21.0732 25991.9 -03459.1 -07.5806 26221.1
 11 07 2013  00 48  -21.0735 25991.9 -03459.1 -07.5806 26221.1
 11 07 2013  00 49  -21.0739 25991.9 -03459.1 -07.5806 26221.1
 11 07 2013  00 50  -21.0743 25992.1 -03459.2 -07.5807 26221.2
 11 07 2013  00 51  -21.0746 25992.3 -03459.3 -07.5809 26221.5
 11 07 2013  00 52  -21.0747 25992.7 -03459.5 -07.5812 26221.9
 11 07 2013  00 53  -21.0744 25992.8 -03459.5 -07.5812 26222.0
 11 07 2013  00 54  -21.0739 25993.0 -03459.5 -07.5812 26222.2
 11 07 2013  00 55  -21.0732 25993.0 -03459.5 -07.5811 26222.2
 11 07 2013  00 56  -21.0723 25993.0 -03459.4 -07.5810 26222.2
 11 07 2013  00 57  -21.0715 25992.8 -03459.3 -07.5807 26222.0
 11 07 2013  00 58  -21.0708 25992.8 -03459.3 -07.5807 26221.9
 11 07 2013  00 59  -21.0704 25992.7 -03459.2 -07.5807 26221.9
 11 07 2013  01 00  -21.0704 25992.6 -03459.3 -07.5808 26221.7
 11 07 2013  01 01  -21.0709 25992.5 -03459.3 -07.5808 26221.7
 11 07 2013  01 02  -21.0715 25992.5 -03459.3 -07.5809 26221.7
 11 07 2013  01 03  -21.0717 25992.6 -03459.4 -07.5811 26221.8
 11 07 2013  01 04  -21.0717 25992.7 -03459.5 -07.5812 26221.9
 11 07 2013  01 05  -21.0718 25992.7 -03459.5 -07.5812 26222.0
 11 07 2013  01 06  -21.0719 25992.9 -03459.6 -07.5813 26222.1
 11 07 2013  01 07  -21.0720 25993.1 -03459.7 -07.5815 26222.3
 11 07 2013  01 08  -21.0722 25993.3 -03459.8 -07.5816 26222.6
 11 07 2013  01 09  -21.0724 25993.7 -03459.9 -07.5818 26222.9
 11 07 2013  01 10  -21.0727 25993.9 -03459.9 -07.5818 26223.2
 11 07 2013  01 11  -21.0731 25994.1 -03460.0 -07.5819 26223.4
 11 07 2013  01 12  -21.0732 25994.2 -03460.0 -07.5819 26223.5
 11 07 2013  01 13  -21.0734 25994.3 -03460.0 -07.5818 26223.6
 11 07 2013  01 14  -21.0737 25994.4 -03460.0 -07.5817 26223.7
 11 07 2013  01 15  -21.0738 25994.6 -03459.9 -07.5816 26223.9
 11 07 2013  01 16  -21.0737 25994.9 -03460.0 -07.5816 26224.1
 11 07 2013  01 17  -21.0739 25995.0 -03460.0 -07.5816 26224.3
 11 07 2013  01 18  -21.0739 25995.1 -03459.9 -07.5814 26224.3
 11 07 2013  01 19  -21.0737 25995.1 -03459.9 -07.5813 26224.4
 11 07 2013  01 20  -21.0734 25995.1 -03459.7 -07.5810 26224.3
 11 07 2013  01 21  -21.0733 25995.1 -03459.7 -07.5809 26224.3
 11 07 2013  01 22  -21.0733 25995.2 -03459.7 -07.5809 26224.4
 11 07 2013  01 23  -21.0735 25995.2 -03459.7 -07.5808 26224.4
 11 07 2013  01 24  -21.0736 25995.2 -03459.6 -07.5807 26224.4
 11 07 2013  01 25  -21.0738 25995.3 -03459.6 -07.5807 26224.5
 11 07 2013  01 26  -21.0738 25995.3 -03459.6 -07.5807 26224.5
 11 07 2013  01 27  -21.0736 25995.2 -03459.5 -07.5805 26224.4
 11 07 2013  01 28  -21.0736 25995.1 -03459.4 -07.5804 26224.3
 11 07 2013  01 29  -21.0735 25995.0 -03459.4 -07.5802 26224.2
 11 07 2013  01 30  -21.0734 25995.0 -03459.3 -07.5802 26224.2
 11 07 2013  01 31  -21.0734 25995.0 -03459.3 -07.5802 26224.2
 11 07 2013  01 32  -21.0734 25994.9 -03459.3 -07.5801 26224.1
 11 07 2013  01 33  -21.0733 25994.9 -03459.3 -07.5801 26224.0
 11 07 2013  01 34  -21.0734 25994.9 -03459.2 -07.5800 26224.0
 11 07 2013  01 35  -21.0734 25994.9 -03459.2 -07.5800 26224.0
 11 07 2013  01 36  -21.0733 25994.8 -03459.2 -07.5800 26224.0
 11 07 2013  01 37  -21.0732 25994.8 -03459.2 -07.5799 26223.9
 11 07 2013  01 38  -21.0732 25994.7 -03459.1 -07.5798 26223.8
 11 07 2013  01 39  -21.0732 25994.6 -03459.1 -07.5798 26223.8
 11 07 2013  01 40  -21.0732 25994.6 -03459.1 -07.5797 26223.7
 11 07 2013  01 41  -21.0731 25994.5 -03459.1 -07.5797 26223.7
 11 07 2013  01 42  -21.0729 25994.4 -03459.0 -07.5796 26223.5
 11 07 2013  01 43  -21.0726 25994.2 -03458.9 -07.5794 26223.3
 11 07 2013  01 44  -21.0723 25994.1 -03458.8 -07.5794 26223.2
 11 07 2013  01 45  -21.0719 25994.1 -03458.9 -07.5795 26223.2
 11 07 2013  01 46  -21.0713 25994.0 -03458.9 -07.5795 26223.1
 11 07 2013  01 47  -21.0709 25994.0 -03458.9 -07.5796 26223.1
 11 07 2013  01 48  -21.0706 25994.0 -03459.0 -07.5797 26223.1
 11 07 2013  01 49  -21.0702 25994.0 -03459.1 -07.5799 26223.2
 11 07 2013  01 50  -21.0700 25994.2 -03459.2 -07.5801 26223.3
 11 07 2013  01 51  -21.0698 25994.3 -03459.3 -07.5802 26223.5
 11 07 2013  01 52  -21.0697 25994.4 -03459.4 -07.5804 26223.6
 11 07 2013  01 53  -21.0697 25994.6 -03459.4 -07.5806 26223.8
 11 07 2013  01 54  -21.0696 25994.7 -03459.5 -07.5807 26223.9
 11 07 2013  01 55  -21.0693 25994.8 -03459.6 -07.5808 26224.0
 11 07 2013  01 56  -21.0690 25995.0 -03459.7 -07.5809 26224.2
 11 07 2013  01 57  -21.0685 25995.2 -03459.8 -07.5811 26224.5
 11 07 2013  01 58  -21.0683 25995.3 -03459.8 -07.5812 26224.5
 11 07 2013  01 59  -21.0682 25995.4 -03459.9 -07.5813 26224.7
 11 07 2013  02 00  -21.0684 25995.7 -03460.0 -07.5815 26225.0
 11 07 2013  02 01  -21.0683 25996.0 -03460.2 -07.5817 26225.3
 11 07 2013  02 02  -21.0685 25996.2 -03460.2 -07.5818 26225.5
 11 07 2013  02 03  -21.0686 25996.2 -03460.2 -07.5817 26225.5
 11 07 2013  02 04  -21.0686 25996.1 -03460.1 -07.5816 26225.4
 11 07 2013  02 05  -21.0687 25996.2 -03460.1 -07.5816 26225.4
 11 07 2013  02 06  -21.0691 25996.0 -03460.0 -07.5814 26225.3
 11 07 2013  02 07  -21.0693 25996.1 -03460.0 -07.5813 26225.3
 11 07 2013  02 08  -21.0696 25996.1 -03460.0 -07.5813 26225.4
 11 07 2013  02 09  -21.0699 25996.0 -03459.9 -07.5812 26225.2
 11 07 2013  02 10  -21.0698 25995.8 -03459.8 -07.5809 26225.0
 11 07 2013  02 11  -21.0695 25995.8 -03459.7 -07.5808 26225.0
 11 07 2013  02 12  -21.0694 25995.6 -03459.6 -07.5806 26224.8
 11 07 2013  02 13  -21.0690 25995.6 -03459.6 -07.5806 26224.8
 11 07 2013  02 14  -21.0686 25995.5 -03459.5 -07.5804 26224.7
 11 07 2013  02 15  -21.0680 25995.4 -03459.5 -07.5804 26224.6
 11 07 2013  02 16  -21.0676 25995.4 -03459.5 -07.5804 26224.6
 11 07 2013  02 17  -21.0669 25995.3 -03459.4 -07.5803 26224.5
 11 07 2013  02 18  -21.0660 25995.4 -03459.5 -07.5804 26224.6
 11 07 2013  02 19  -21.0653 25995.6 -03459.6 -07.5806 26224.8
 11 07 2013  02 20  -21.0645 25995.8 -03459.8 -07.5809 26225.0
 11 07 2013  02 21  -21.0640 25996.1 -03459.9 -07.5811 26225.3
 11 07 2013  02 22  -21.0633 25996.1 -03460.0 -07.5812 26225.4
 11 07 2013  02 23  -21.0626 25996.1 -03460.0 -07.5813 26225.4
 11 07 2013  02 24  -21.0618 25996.1 -03460.0 -07.5813 26225.4
 11 07 2013  02 25  -21.0611 25996.0 -03460.0 -07.5813 26225.3
 11 07 2013  02 26  -21.0607 25996.0 -03460.0 -07.5814 26225.2
 11 07 2013  02 27  -21.0608 25996.0 -03460.1 -07.5816 26225.3
 11 07 2013  02 28  -21.0612 25996.1 -03460.3 -07.5819 26225.4
 11 07 2013  02 29  -21.0615 25996.3 -03460.5 -07.5822 26225.6
 11 07 2013  02 30  -21.0620 25996.5 -03460.6 -07.5825 26225.8
 11 07 2013  02 31  -21.0625 25996.6 -03460.7 -07.5827 26226.0
 11 07 2013  02 32  -21.0629 25996.8 -03460.8 -07.5828 26226.1
 11 07 2013  02 33  -21.0634 25996.9 -03460.8 -07.5829 26226.2
 11 07 2013  02 34  -21.0637 25997.0 -03460.9 -07.5829 26226.3
 11 07 2013  02 35  -21.0640 25997.1 -03460.9 -07.5830 26226.5
 11 07 2013  02 36  -21.0643 25997.4 -03461.0 -07.5831 26226.7
 11 07 2013  02 37  -21.0646 25997.6 -03461.1 -07.5833 26227.0
 11 07 2013  02 38  -21.0647 25997.9 -03461.2 -07.5834 26227.3
 11 07 2013  02 39  -21.0648 25998.1 -03461.3 -07.5835 26227.5
 11 07 2013  02 40  -21.0648 25998.4 -03461.4 -07.5837 26227.8
 11 07 2013  02 41  -21.0648 25998.7 -03461.5 -07.5837 26228.1
 11 07 2013  02 42  -21.0645 25999.0 -03461.5 -07.5838 26228.4
 11 07 2013  02 43  -21.0641 25999.3 -03461.6 -07.5839 26228.7
 11 07 2013  02 44  -21.0640 25999.7 -03461.8 -07.5842 26229.2
 11 07 2013  02 45  -21.0643 26000.0 -03462.0 -07.5845 26229.5
 11 07 2013  02 46  -21.0649 26000.3 -03462.1 -07.5846 26229.8
 11 07 2013  02 47  -21.0652 26000.7 -03462.3 -07.5849 26230.2
 11 07 2013  02 48  -21.0657 26000.8 -03462.3 -07.5849 26230.3
 11 07 2013  02 49  -21.0659 26001.0 -03462.3 -07.5848 26230.5
 11 07 2013  02 50  -21.0660 26001.1 -03462.2 -07.5847 26230.6
 11 07 2013  02 51  -21.0658 26001.3 -03462.2 -07.5847 26230.8
 11 07 2013  02 52  -21.0658 26001.4 -03462.2 -07.5845 26230.9
 11 07 2013  02 53  -21.0658 26001.6 -03462.2 -07.5845 26231.1
 11 07 2013  02 54  -21.0657 26001.7 -03462.2 -07.5845 26231.2
 11 07 2013  02 55  -21.0657 26001.7 -03462.1 -07.5843 26231.2
 11 07 2013  02 56  -21.0659 26001.7 -03462.1 -07.5842 26231.1
 11 07 2013  02 57  -21.0662 26001.7 -03462.0 -07.5841 26231.1
 11 07 2013  02 58  -21.0665 26001.7 -03462.0 -07.5840 26231.1
 11 07 2013  02 59  -21.0670 26001.6 -03461.9 -07.5839 26231.0
 11 07 2013  03 00  -21.0676 26001.7 -03461.9 -07.5838 26231.1
 11 07 2013  03 01  -21.0683 26001.7 -03461.9 -07.5837 26231.1
 11 07 2013  03 02  -21.0685 26001.8 -03461.8 -07.5836 26231.2
 11 07 2013  03 03  -21.0682 26002.1 -03461.9 -07.5836 26231.5
 11 07 2013  03 04  -21.0678 26002.4 -03461.9 -07.5836 26231.8
 11 07 2013  03 05  -21.0676 26002.5 -03461.9 -07.5836 26232.0
 11 07 2013  03 06  -21.0672 26002.7 -03461.9 -07.5835 26232.1
 11 07 2013  03 07  -21.0667 26002.8 -03461.9 -07.5835 26232.3
 11 07 2013  03 08  -21.0661 26003.3 -03462.0 -07.5836 26232.7
 11 07 2013  03 09  -21.0656 26004.2 -03462.4 -07.5842 26233.7
 11 07 2013  03 10  -21.0649 26005.2 -03462.8 -07.5849 26234.7
 11 07 2013  03 11  -21.0641 26006.2 -03463.2 -07.5854 26235.7
 11 07 2013  03 12  -21.0632 26007.0 -03463.6 -07.5859 26236.7
 11 07 2013  03 13  -21.0625 26008.0 -03463.9 -07.5864 26237.7
 11 07 2013  03 14  -21.0618 26008.7 -03464.2 -07.5867 26238.4
 11 07 2013  03 15  -21.0611 26009.4 -03464.4 -07.5870 26239.2
 11 07 2013  03 16  -21.0608 26009.8 -03464.5 -07.5871 26239.6
 11 07 2013  03 17  -21.0612 26010.8 -03464.8 -07.5875 26240.5
 11 07 2013  03 18  -21.0629 26011.2 -03465.1 -07.5879 26241.0
 11 07 2013  03 19  -21.0644 26012.0 -03465.4 -07.5884 26241.8
 11 07 2013  03 20  -21.0650 26012.8 -03465.6 -07.5886 26242.6
 11 07 2013  03 21  -21.0651 26013.1 -03465.6 -07.5885 26242.9
 11 07 2013  03 22  -21.0651 26013.8 -03465.7 -07.5885 26243.6
 11 07 2013  03 23  -21.0653 26014.5 -03465.8 -07.5886 26244.4
 11 07 2013  03 24  -21.0652 26015.5 -03466.1 -07.5889 26245.4
 11 07 2013  03 25  -21.0654 26016.1 -03466.2 -07.5889 26246.0
 11 07 2013  03 26  -21.0650 26017.1 -03466.4 -07.5891 26247.0
 11 07 2013  03 27  -21.0646 26018.0 -03466.6 -07.5893 26247.9
 11 07 2013  03 28  -21.0642 26018.9 -03466.8 -07.5895 26248.8
 11 07 2013  03 29  -21.0635 26019.8 -03467.0 -07.5897 26249.7
 11 07 2013  03 30  -21.0632 26020.6 -03467.2 -07.5898 26250.5
 11 07 2013  03 31  -21.0631 26021.1 -03467.2 -07.5898 26251.1
 11 07 2013  03 32  -21.0630 26021.6 -03467.2 -07.5897 26251.5
 11 07 2013  03 33  -21.0630 26021.8 -03467.2 -07.5894 26251.7
 11 07 2013  03 34  -21.0631 26022.1 -03467.1 -07.5891 26252.0
 11 07 2013  03 35  -21.0634 26022.4 -03467.0 -07.5890 26252.3
 11 07 2013  03 36  -21.0639 26022.8 -03467.1 -07.5889 26252.7
 11 07 2013  03 37  -21.0648 26023.1 -03467.1 -07.5889 26253.1
 11 07 2013  03 38  -21.0653 26023.4 -03467.0 -07.5885 26253.3
 11 07 2013  03 39  -21.0656 26023.5 -03466.8 -07.5882 26253.4
 11 07 2013  03 40  -21.0662 26023.7 -03466.7 -07.5878 26253.6
 11 07 2013  03 41  -21.0661 26023.6 -03466.4 -07.5872 26253.4
 11 07 2013  03 42  -21.0660 26023.3 -03466.0 -07.5864 26253.1
 11 07 2013  03 43  -21.0660 26023.0 -03465.7 -07.5858 26252.8
 11 07 2013  03 44  -21.0657 26022.3 -03465.2 -07.5850 26252.0
 11 07 2013  03 45  -21.0653 26021.6 -03464.6 -07.5840 26251.2
 11 07 2013  03 46  -21.0650 26021.1 -03464.3 -07.5833 26250.7
 11 07 2013  03 47  -21.0646 26020.8 -03464.0 -07.5830 26250.4
 11 07 2013  03 48  -21.0641 26020.5 -03463.8 -07.5825 26250.0
 11 07 2013  03 49  -21.0634 26020.1 -03463.6 -07.5822 26249.6
 11 07 2013  03 50  -21.0632 26019.4 -03463.3 -07.5816 26248.9
 11 07 2013  03 51  -21.0633 26018.8 -03463.0 -07.5812 26248.3
 11 07 2013  03 52  -21.0636 26018.3 -03462.7 -07.5808 26247.7
 11 07 2013  03 53  -21.0631 26018.0 -03462.6 -07.5806 26247.4
 11 07 2013  03 54  -21.0622 26018.0 -03462.6 -07.5806 26247.4
 11 07 2013  03 55  -21.0616 26018.0 -03462.6 -07.5806 26247.4
 11 07 2013  03 56  -21.0612 26018.0 -03462.7 -07.5808 26247.4
 11 07 2013  03 57  -21.0608 26018.0 -03462.7 -07.5810 26247.4
 11 07 2013  03 58  -21.0607 26017.9 -03462.8 -07.5810 26247.3
 11 07 2013  03 59  -21.0604 26017.8 -03462.8 -07.5811 26247.2
 11 07 2013  04 00  -21.0600 26017.6 -03462.7 -07.5810 26247.0
 11 07 2013  04 01  -21.0597 26017.3 -03462.6 -07.5809 26246.8
 11 07 2013  04 02  -21.0598 26017.0 -03462.5 -07.5808 26246.4
 11 07 2013  04 03  -21.0600 26016.3 -03462.3 -07.5805 26245.7
 11 07 2013  04 04  -21.0600 26015.8 -03462.1 -07.5801 26245.1
 11 07 2013  04 05  -21.0598 26015.2 -03461.8 -07.5798 26244.5
 11 07 2013  04 06  -21.0594 26014.9 -03461.7 -07.5795 26244.2
 11 07 2013  04 07  -21.0588 26014.6 -03461.6 -07.5795 26243.9
 11 07 2013  04 08  -21.0583 26014.5 -03461.6 -07.5796 26243.8
 11 07 2013  04 09  -21.0583 26014.6 -03461.8 -07.5799 26243.9
 11 07 2013  04 10  -21.0583 26014.7 -03462.0 -07.5802 26244.0
 11 07 2013  04 11  -21.0582 26014.8 -03462.1 -07.5804 26244.2
 11 07 2013  04 12  -21.0580 26014.8 -03462.2 -07.5806 26244.2
 11 07 2013  04 13  -21.0578 26014.8 -03462.2 -07.5807 26244.2
 11 07 2013  04 14  -21.0578 26014.6 -03462.2 -07.5807 26243.9
 11 07 2013  04 15  -21.0578 26014.3 -03462.1 -07.5806 26243.6
 11 07 2013  04 16  -21.0577 26014.1 -03462.0 -07.5804 26243.4
 11 07 2013  04 17  -21.0576 26014.0 -03462.0 -07.5804 26243.3
 11 07 2013  04 18  -21.0575 26013.9 -03462.0 -07.5805 26243.3
 11 07 2013  04 19  -21.0576 26013.9 -03462.0 -07.5806 26243.2
 11 07 2013  04 20  -21.0577 26013.9 -03462.1 -07.5807 26243.3
 11 07 2013  04 21  -21.0577 26014.1 -03462.2 -07.5809 26243.5
 11 07 2013  04 22  -21.0575 26014.2 -03462.3 -07.5810 26243.6
 11 07 2013  04 23  -21.0573 26014.5 -03462.4 -07.5813 26244.0
 11 07 2013  04 24  -21.0567 26015.0 -03462.7 -07.5817 26244.4
 11 07 2013  04 25  -21.0565 26015.4 -03462.8 -07.5819 26244.8
 11 07 2013  04 26  -21.0563 26015.7 -03463.0 -07.5822 26245.2
 11 07 2013  04 27  -21.0562 26016.0 -03463.2 -07.5824 26245.5
 11 07 2013  04 28  -21.0562 26016.3 -03463.3 -07.5825 26245.8
 11 07 2013  04 29  -21.0562 26016.6 -03463.4 -07.5828 26246.2
 11 07 2013  04 30  -21.0565 26016.9 -03463.5 -07.5829 26246.4
 11 07 2013  04 31  -21.0567 26017.0 -03463.5 -07.5829 26246.5
 11 07 2013  04 32  -21.0567 26016.9 -03463.4 -07.5827 26246.5
 11 07 2013  04 33  -21.0564 26016.9 -03463.3 -07.5825 26246.4
 11 07 2013  04 34  -21.0561 26017.0 -03463.3 -07.5823 26246.5
 11 07 2013  04 35  -21.0555 26017.1 -03463.2 -07.5822 26246.6
 11 07 2013  04 36  -21.0549 26017.0 -03463.1 -07.5820 26246.5
 11 07 2013  04 37  -21.0546 26016.9 -03463.0 -07.5818 26246.3
 11 07 2013  04 38  -21.0544 26016.7 -03462.9 -07.5816 26246.1
 11 07 2013  04 39  -21.0548 26016.4 -03462.7 -07.5813 26245.8
 11 07 2013  04 40  -21.0547 26016.3 -03462.6 -07.5812 26245.7
 11 07 2013  04 41  -21.0547 26016.2 -03462.5 -07.5810 26245.6
 11 07 2013  04 42  -21.0546 26016.0 -03462.4 -07.5809 26245.4
 11 07 2013  04 43  -21.0544 26015.5 -03462.2 -07.5805 26244.9
 11 07 2013  04 44  -21.0542 26015.2 -03462.0 -07.5801 26244.6
 11 07 2013  04 45  -21.0537 26015.0 -03461.9 -07.5799 26244.4
 11 07 2013  04 46  -21.0534 26014.7 -03461.7 -07.5797 26244.0
 11 07 2013  04 47  -21.0533 26014.4 -03461.6 -07.5795 26243.7
 11 07 2013  04 48  -21.0533 26014.3 -03461.5 -07.5794 26243.6
 11 07 2013  04 49  -21.0535 26014.3 -03461.6 -07.5796 26243.6
 11 07 2013  04 50  -21.0536 26014.3 -03461.6 -07.5796 26243.6
 11 07 2013  04 51  -21.0536 26014.4 -03461.7 -07.5797 26243.7
 11 07 2013  04 52  -21.0536 26014.3 -03461.7 -07.5797 26243.6
 11 07 2013  04 53  -21.0538 26014.1 -03461.6 -07.5796 26243.4
 11 07 2013  04 54  -21.0541 26013.7 -03461.4 -07.5794 26243.0
 11 07 2013  04 55  -21.0546 26013.4 -03461.3 -07.5792 26242.7
 11 07 2013  04 56  -21.0551 26013.2 -03461.2 -07.5790 26242.4
 11 07 2013  04 57  -21.0552 26012.7 -03460.9 -07.5786 26241.9
 11 07 2013  04 58  -21.0553 26012.2 -03460.7 -07.5781 26241.3
 11 07 2013  04 59  -21.0549 26011.9 -03460.5 -07.5779 26241.1
 11 07 2013  05 00  -21.0546 26011.9 -03460.6 -07.5780 26241.1
 11 07 2013  05 01  -21.0537 26012.3 -03460.7 -07.5783 26241.5
 11 07 2013  05 02  -21.0528 26012.6 -03461.0 -07.5787 26241.9
 11 07 2013  05 03  -21.0522 26013.0 -03461.2 -07.5791 26242.3
 11 07 2013  05 04  -21.0523 26013.0 -03461.3 -07.5793 26242.3
 11 07 2013  05 05  -21.0528 26012.9 -03461.4 -07.5794 26242.2
 11 07 2013  05 06  -21.0530 26012.8 -03461.3 -07.5793 26242.0
 11 07 2013  05 07  -21.0527 26012.8 -03461.3 -07.5793 26242.1
 11 07 2013  05 08  -21.0522 26013.1 -03461.4 -07.5794 26242.4
 11 07 2013  05 09  -21.0515 26013.5 -03461.6 -07.5797 26242.8
 11 07 2013  05 10  -21.0511 26014.0 -03461.8 -07.5801 26243.3
 11 07 2013  05 11  -21.0513 26014.1 -03461.9 -07.5803 26243.4
 11 07 2013  05 12  -21.0521 26013.6 -03461.8 -07.5801 26243.0
 11 07 2013  05 13  -21.0530 26013.5 -03461.7 -07.5799 26242.8
 11 07 2013  05 14  -21.0535 26013.5 -03461.7 -07.5799 26242.8
 11 07 2013  05 15  -21.0532 26013.6 -03461.7 -07.5798 26242.9
 11 07 2013  05 16  -21.0527 26014.0 -03461.7 -07.5799 26243.3
 11 07 2013  05 17  -21.0524 26014.2 -03461.8 -07.5801 26243.6
 11 07 2013  05 18  -21.0523 26014.3 -03461.9 -07.5801 26243.7
 11 07 2013  05 19  -21.0522 26014.3 -03461.8 -07.5801 26243.6
 11 07 2013  05 20  -21.0522 26014.3 -03461.8 -07.5800 26243.6
 11 07 2013  05 21  -21.0526 26014.0 -03461.7 -07.5798 26243.3
 11 07 2013  05 22  -21.0529 26013.7 -03461.5 -07.5796 26243.0
 11 07 2013  05 23  -21.0532 26013.3 -03461.4 -07.5793 26242.6
 11 07 2013  05 24  -21.0536 26013.0 -03461.2 -07.5791 26242.3
 11 07 2013  05 25  -21.0540 26012.6 -03461.1 -07.5789 26241.9
 11 07 2013  05 26  -21.0546 26012.4 -03460.9 -07.5787 26241.6
 11 07 2013  05 27  -21.0551 26012.2 -03460.9 -07.5786 26241.4
 11 07 2013  05 28  -21.0554 26012.0 -03460.8 -07.5785 26241.3
 11 07 2013  05 29  -21.0558 26012.1 -03460.9 -07.5786 26241.3
 11 07 2013  05 30  -21.0558 26012.1 -03460.9 -07.5787 26241.4
 11 07 2013  05 31  -21.0551 26012.4 -03461.0 -07.5788 26241.6
 11 07 2013  05 32  -21.0544 26012.9 -03461.3 -07.5792 26242.2
 11 07 2013  05 33  -21.0540 26013.2 -03461.4 -07.5795 26242.5
 11 07 2013  05 34  -21.0538 26013.3 -03461.5 -07.5797 26242.6
 11 07 2013  05 35  -21.0535 26013.2 -03461.5 -07.5797 26242.5
 11 07 2013  05 36  -21.0535 26012.7 -03461.3 -07.5794 26242.0
 11 07 2013  05 37  -21.0538 26012.3 -03461.1 -07.5790 26241.6
 11 07 2013  05 38  -21.0540 26012.2 -03461.0 -07.5789 26241.4
 11 07 2013  05 39  -21.0537 26012.2 -03461.0 -07.5789 26241.5
 11 07 2013  05 40  -21.0533 26012.3 -03461.1 -07.5790 26241.5
 11 07 2013  05 41  -21.0532 26012.4 -03461.1 -07.5791 26241.6
 11 07 2013  05 42  -21.0522 26013.0 -03461.4 -07.5795 26242.3
 11 07 2013  05 43  -21.0505 26013.7 -03461.7 -07.5799 26243.0
 11 07 2013  05 44  -21.0490 26014.3 -03462.0 -07.5804 26243.6
 11 07 2013  05 45  -21.0481 26014.6 -03462.2 -07.5808 26244.0
 11 07 2013  05 46  -21.0476 26014.8 -03462.3 -07.5810 26244.2
 11 07 2013  05 47  -21.0473 26015.0 -03462.4 -07.5811 26244.4
 11 07 2013  05 48  -21.0471 26015.2 -03462.5 -07.5812 26244.6
 11 07 2013  05 49  -21.0471 26015.1 -03462.5 -07.5812 26244.5
 11 07 2013  05 50  -21.0474 26015.0 -03462.4 -07.5811 26244.4
 11 07 2013  05 51  -21.0477 26015.0 -03462.4 -07.5810 26244.4
 11 07 2013  05 52  -21.0477 26014.6 -03462.2 -07.5807 26244.0
 11 07 2013  05 53  -21.0477 26014.4 -03462.0 -07.5804 26243.8
 11 07 2013  05 54  -21.0475 26014.3 -03461.9 -07.5802 26243.6
 11 07 2013  05 55  -21.0474 26014.2 -03461.8 -07.5801 26243.5
 11 07 2013  05 56  -21.0474 26014.1 -03461.8 -07.5801 26243.4
 11 07 2013  05 57  -21.0472 26014.0 -03461.8 -07.5800 26243.4
 11 07 2013  05 58  -21.0468 26014.1 -03461.8 -07.5800 26243.4
 11 07 2013  05 59  -21.0459 26014.0 -03461.7 -07.5799 26243.3
 11 07 2013  06 00  -21.0450 26013.8 -03461.6 -07.5797 26243.1
 11 07 2013  06 01  -21.0441 26013.3 -03461.4 -07.5794 26242.5
 11 07 2013  06 02  -21.0437 26012.8 -03461.2 -07.5791 26242.1
 11 07 2013  06 03  -21.0435 26012.4 -03461.0 -07.5789 26241.6
 11 07 2013  06 04  -21.0432 26012.1 -03461.0 -07.5789 26241.3
 11 07 2013  06 05  -21.0429 26012.0 -03461.0 -07.5789 26241.2
 11 07 2013  06 06  -21.0425 26011.9 -03461.0 -07.5790 26241.1
 11 07 2013  06 07  -21.0424 26011.7 -03461.0 -07.5790 26241.0
 11 07 2013  06 08  -21.0424 26011.7 -03461.1 -07.5791 26240.9
 11 07 2013  06 09  -21.0422 26011.5 -03461.0 -07.5791 26240.8
 11 07 2013  06 10  -21.0420 26011.3 -03461.0 -07.5791 26240.5
 11 07 2013  06 11  -21.0415 26011.0 -03460.9 -07.5790 26240.2
 11 07 2013  06 12  -21.0409 26010.5 -03460.7 -07.5787 26239.8
 11 07 2013  06 13  -21.0406 26010.1 -03460.5 -07.5785 26239.3
 11 07 2013  06 14  -21.0404 26010.0 -03460.5 -07.5784 26239.1
 11 07 2013  06 15  -21.0403 26009.9 -03460.6 -07.5786 26239.1
 11 07 2013  06 16  -21.0402 26009.9 -03460.7 -07.5788 26239.1
 11 07 2013  06 17  -21.0401 26009.8 -03460.8 -07.5791 26239.0
 11 07 2013  06 18  -21.0398 26009.7 -03460.8 -07.5791 26238.9
 11 07 2013  06 19  -21.0394 26009.5 -03460.8 -07.5791 26238.8
 11 07 2013  06 20  -21.0392 26009.2 -03460.7 -07.5791 26238.4
 11 07 2013  06 21  -21.0394 26009.0 -03460.6 -07.5790 26238.2
 11 07 2013  06 22  -21.0395 26009.0 -03460.7 -07.5791 26238.2
 11 07 2013  06 23  -21.0394 26009.0 -03460.8 -07.5793 26238.2
 11 07 2013  06 24  -21.0392 26008.9 -03460.8 -07.5793 26238.2
 11 07 2013  06 25  -21.0394 26009.0 -03460.8 -07.5794 26238.2
 11 07 2013  06 26  -21.0392 26008.9 -03460.8 -07.5794 26238.1
 11 07 2013  06 27  -21.0389 26008.8 -03460.8 -07.5795 26238.1
 11 07 2013  06 28  -21.0388 26008.7 -03460.8 -07.5795 26238.0
 11 07 2013  06 29  -21.0387 26008.5 -03460.8 -07.5794 26237.8
 11 07 2013  06 30  -21.0387 26008.2 -03460.7 -07.5794 26237.5
 11 07 2013  06 31  -21.0391 26007.9 -03460.6 -07.5792 26237.1
 11 07 2013  06 32  -21.0397 26007.7 -03460.6 -07.5793 26237.0
 11 07 2013  06 33  -21.0402 26007.8 -03460.7 -07.5794 26237.0
 11 07 2013  06 34  -21.0401 26007.7 -03460.7 -07.5794 26237.0
 11 07 2013  06 35  -21.0404 26007.6 -03460.7 -07.5794 26236.8
 11 07 2013  06 36  -21.0410 26007.5 -03460.6 -07.5794 26236.7
 11 07 2013  06 37  -21.0413 26007.6 -03460.7 -07.5796 26236.9
 11 07 2013  06 38  -21.0413 26007.9 -03460.9 -07.5799 26237.2
 11 07 2013  06 39  -21.0414 26008.1 -03461.0 -07.5801 26237.4
 11 07 2013  06 40  -21.0415 26008.1 -03461.1 -07.5802 26237.4
 11 07 2013  06 41  -21.0415 26008.1 -03461.1 -07.5801 26237.4
 11 07 2013  06 42  -21.0414 26008.0 -03461.0 -07.5800 26237.3
 11 07 2013  06 43  -21.0412 26007.9 -03460.9 -07.5799 26237.2
 11 07 2013  06 44  -21.0408 26007.8 -03460.9 -07.5798 26237.1
 11 07 2013  06 45  -21.0400 26007.6 -03460.8 -07.5797 26236.9
 11 07 2013  06 46  -21.0394 26007.5 -03460.7 -07.5796 26236.8
 11 07 2013  06 47  -21.0385 26007.4 -03460.7 -07.5796 26236.6
 11 07 2013  06 48  -21.0379 26007.1 -03460.6 -07.5795 26236.3
 11 07 2013  06 49  -21.0381 26006.9 -03460.6 -07.5795 26236.1
 11 07 2013  06 50  -21.0390 26006.7 -03460.7 -07.5797 26235.9
 11 07 2013  06 51  -21.0405 26006.5 -03460.7 -07.5798 26235.7
 11 07 2013  06 52  -21.0420 26006.4 -03460.8 -07.5800 26235.6
 11 07 2013  06 53  -21.0435 26006.1 -03460.7 -07.5799 26235.3
 11 07 2013  06 54  -21.0446 26005.9 -03460.6 -07.5797 26235.1
 11 07 2013  06 55  -21.0451 26005.7 -03460.4 -07.5794 26234.9
 11 07 2013  06 56  -21.0450 26005.3 -03460.2 -07.5790 26234.5
 11 07 2013  06 57  -21.0448 26005.1 -03460.0 -07.5787 26234.2
 11 07 2013  06 58  -21.0443 26004.9 -03459.8 -07.5784 26234.1
 11 07 2013  06 59  -21.0437 26004.7 -03459.7 -07.5782 26233.8
 11 07 2013  07 00  -21.0433 26004.1 -03459.5 -07.5779 26233.3
 11 07 2013  07 01  -21.0431 26003.9 -03459.5 -07.5779 26233.0
 11 07 2013  07 02  -21.0433 26003.9 -03459.5 -07.5781 26233.0
 11 07 2013  07 03  -21.0436 26003.9 -03459.7 -07.5784 26233.0
 11 07 2013  07 04  -21.0435 26003.8 -03459.7 -07.5785 26232.9
 11 07 2013  07 05  -21.0434 26003.6 -03459.7 -07.5785 26232.7
 11 07 2013  07 06  -21.0435 26003.4 -03459.6 -07.5784 26232.5
 11 07 2013  07 07  -21.0441 26003.2 -03459.6 -07.5784 26232.3
 11 07 2013  07 08  -21.0449 26003.1 -03459.7 -07.5785 26232.3
 11 07 2013  07 09  -21.0454 26003.3 -03459.8 -07.5787 26232.4
 11 07 2013  07 10  -21.0451 26003.5 -03459.9 -07.5790 26232.7
 11 07 2013  07 11  -21.0445 26003.9 -03460.1 -07.5793 26233.1
 11 07 2013  07 12  -21.0436 26004.3 -03460.3 -07.5797 26233.5
 11 07 2013  07 13  -21.0430 26004.4 -03460.5 -07.5799 26233.7
 11 07 2013  07 14  -21.0429 26004.5 -03460.6 -07.5801 26233.8
 11 07 2013  07 15  -21.0428 26004.6 -03460.6 -07.5802 26233.8
 11 07 2013  07 16  -21.0428 26004.8 -03460.7 -07.5804 26234.0
 11 07 2013  07 17  -21.0425 26004.9 -03460.8 -07.5806 26234.2
 11 07 2013  07 18  -21.0422 26004.9 -03460.8 -07.5806 26234.2
 11 07 2013  07 19  -21.0420 26004.8 -03460.8 -07.5805 26234.1
 11 07 2013  07 20  -21.0418 26004.8 -03460.8 -07.5806 26234.1
 11 07 2013  07 21  -21.0416 26004.8 -03460.8 -07.5806 26234.1
 11 07 2013  07 22  -21.0416 26004.9 -03460.9 -07.5807 26234.2
 11 07 2013  07 23  -21.0420 26005.2 -03461.1 -07.5810 26234.5
 11 07 2013  07 24  -21.0426 26005.3 -03461.2 -07.5813 26234.6
 11 07 2013  07 25  -21.0431 26005.4 -03461.3 -07.5814 26234.8
 11 07 2013  07 26  -21.0438 26005.6 -03461.4 -07.5817 26235.0
 11 07 2013  07 27  -21.0446 26005.8 -03461.5 -07.5818 26235.2
 11 07 2013  07 28  -21.0454 26005.9 -03461.6 -07.5820 26235.3
 11 07 2013  07 29  -21.0465 26005.9 -03461.6 -07.5819 26235.3
 11 07 2013  07 30  -21.0477 26006.2 -03461.7 -07.5821 26235.6
 11 07 2013  07 31  -21.0484 26006.4 -03461.8 -07.5822 26235.8
 11 07 2013  07 32  -21.0485 26006.5 -03461.7 -07.5820 26235.9
 11 07 2013  07 33  -21.0483 26006.4 -03461.6 -07.5817 26235.8
 11 07 2013  07 34  -21.0483 26006.3 -03461.4 -07.5815 26235.6
 11 07 2013  07 35  -21.0485 26006.3 -03461.4 -07.5814 26235.6
 11 07 2013  07 36  -21.0488 26006.3 -03461.4 -07.5814 26235.7
 11 07 2013  07 37  -21.0491 26006.2 -03461.4 -07.5814 26235.5
 11 07 2013  07 38  -21.0493 26005.9 -03461.2 -07.5811 26235.3
 11 07 2013  07 39  -21.0491 26005.6 -03461.0 -07.5807 26234.9
 11 07 2013  07 40  -21.0487 26005.2 -03460.7 -07.5803 26234.4
 11 07 2013  07 41  -21.0481 26004.8 -03460.5 -07.5800 26234.1
 11 07 2013  07 42  -21.0474 26004.6 -03460.4 -07.5797 26233.8
 11 07 2013  07 43  -21.0466 26004.4 -03460.3 -07.5796 26233.6
 11 07 2013  07 44  -21.0458 26004.3 -03460.3 -07.5796 26233.5
 11 07 2013  07 45  -21.0452 26004.2 -03460.3 -07.5796 26233.4
 11 07 2013  07 46  -21.0445 26004.2 -03460.3 -07.5797 26233.4
 11 07 2013  07 47  -21.0436 26004.1 -03460.4 -07.5798 26233.3
 11 07 2013  07 48  -21.0430 26004.0 -03460.4 -07.5799 26233.2
 11 07 2013  07 49  -21.0425 26003.9 -03460.4 -07.5800 26233.1
 11 07 2013  07 50  -21.0414 26003.7 -03460.4 -07.5800 26232.9
 11 07 2013  07 51  -21.0396 26003.8 -03460.5 -07.5801 26233.0
 11 07 2013  07 52  -21.0372 26004.2 -03460.7 -07.5805 26233.4
 11 07 2013  07 53  -21.0347 26004.1 -03460.7 -07.5806 26233.4
 11 07 2013  07 54  -21.0332 26003.9 -03460.7 -07.5807 26233.2
 11 07 2013  07 55  -21.0326 26004.1 -03461.0 -07.5812 26233.4
 11 07 2013  07 56  -21.0316 26004.1 -03461.2 -07.5816 26233.4
 11 07 2013  07 57  -21.0302 26004.1 -03461.3 -07.5818 26233.5
 11 07 2013  07 58  -21.0294 26004.5 -03461.6 -07.5823 26233.9
 11 07 2013  07 59  -21.0295 26004.9 -03462.0 -07.5831 26234.3
 11 07 2013  08 00  -21.0292 26005.3 -03462.3 -07.5837 26234.8
 11 07 2013  08 01  -21.0285 26005.6 -03462.5 -07.5840 26235.1
 11 07 2013  08 02  -21.0282 26005.6 -03462.6 -07.5841 26235.1
 11 07 2013  08 03  -21.0279 26005.4 -03462.6 -07.5842 26234.9
 11 07 2013  08 04  -21.0277 26005.0 -03462.4 -07.5840 26234.5
 11 07 2013  08 05  -21.0282 26005.0 -03462.5 -07.5842 26234.5
 11 07 2013  08 06  -21.0278 26004.5 -03462.3 -07.5839 26234.0
 11 07 2013  08 07  -21.0270 26004.0 -03462.1 -07.5835 26233.5
 11 07 2013  08 08  -21.0269 26003.5 -03461.8 -07.5831 26232.9
 11 07 2013  08 09  -21.0270 26002.8 -03461.6 -07.5827 26232.2
 11 07 2013  08 10  -21.0266 26001.7 -03461.1 -07.5821 26231.1
 11 07 2013  08 11  -21.0269 26001.0 -03460.9 -07.5817 26230.3
 11 07 2013  08 12  -21.0270 26000.0 -03460.5 -07.5812 26229.2
 11 07 2013  08 13  -21.0277 25999.0 -03460.1 -07.5808 26228.2
 11 07 2013  08 14  -21.0283 25998.5 -03460.0 -07.5807 26227.8
 11 07 2013  08 15  -21.0293 25998.3 -03460.1 -07.5809 26227.6
 11 07 2013  08 16  -21.0302 25998.0 -03460.1 -07.5810 26227.2
 11 07 2013  08 17  -21.0302 25997.6 -03460.0 -07.5809 26226.8
 11 07 2013  08 18  -21.0307 25997.8 -03460.2 -07.5812 26227.1
 11 07 2013  08 19  -21.0316 25998.6 -03460.7 -07.5821 26227.9
 11 07 2013  08 20  -21.0323 25999.3 -03461.1 -07.5829 26228.6
 11 07 2013  08 21  -21.0317 25999.5 -03461.3 -07.5831 26228.9
 11 07 2013  08 22  -21.0315 26000.5 -03461.7 -07.5836 26230.0
 11 07 2013  08 23  -21.0321 26001.5 -03462.2 -07.5844 26231.0
 11 07 2013  08 24  -21.0325 26002.6 -03462.7 -07.5853 26232.1
 11 07 2013  08 25  -21.0323 26003.0 -03462.7 -07.5853 26232.6
 11 07 2013  08 26  -21.0324 26003.3 -03462.8 -07.5853 26232.8
 11 07 2013  08 27  -21.0325 26004.1 -03463.1 -07.5858 26233.7
 11 07 2013  08 28  -21.0319 26005.1 -03463.5 -07.5862 26234.7
 11 07 2013  08 29  -21.0308 26007.2 -03464.3 -07.5873 26236.9
 11 07 2013  08 30  -21.0300 26009.1 -03465.2 -07.5887 26239.0
 11 07 2013  08 31  -21.0290 26011.2 -03466.0 -07.5900 26241.1
 11 07 2013  08 32  -21.0269 26013.1 -03466.8 -07.5911 26243.1
 11 07 2013  08 33  -21.0254 26014.8 -03467.4 -07.5919 26244.9
 11 07 2013  08 34  -21.0240 26015.9 -03467.7 -07.5924 26246.0
 11 07 2013  08 35  -21.0228 26017.2 -03468.2 -07.5930 26247.4
 11 07 2013  08 36  -21.0216 26018.2 -03468.5 -07.5935 26248.4
 11 07 2013  08 37  -21.0214 26018.8 -03468.7 -07.5936 26249.0
 11 07 2013  08 38  -21.0204 26019.5 -03468.9 -07.5938 26249.7
 11 07 2013  08 39  -21.0194 26020.7 -03469.2 -07.5942 26251.0
 11 07 2013  08 40  -21.0185 26021.5 -03469.4 -07.5943 26251.7
 11 07 2013  08 41  -21.0174 26022.1 -03469.5 -07.5944 26252.4
 11 07 2013  08 42  -21.0169 26022.7 -03469.6 -07.5943 26253.0
 11 07 2013  08 43  -21.0158 26023.2 -03469.6 -07.5942 26253.5
 11 07 2013  08 44  -21.0149 26023.5 -03469.6 -07.5941 26253.8
 11 07 2013  08 45  -21.0136 26023.8 -03469.6 -07.5940 26254.1
 11 07 2013  08 46  -21.0123 26024.0 -03469.5 -07.5939 26254.2
 11 07 2013  08 47  -21.0110 26024.0 -03469.5 -07.5938 26254.3
 11 07 2013  08 48  -21.0106 26024.2 -03469.5 -07.5938 26254.4
 11 07 2013  08 49  -21.0097 26024.6 -03469.7 -07.5940 26254.8
 11 07 2013  08 50  -21.0084 26024.9 -03469.7 -07.5941 26255.2
 11 07 2013  08 51  -21.0086 26025.3 -03469.9 -07.5943 26255.6
 11 07 2013  08 52  -21.0089 26025.2 -03469.9 -07.5944 26255.5
 11 07 2013  08 53  -21.0099 26025.1 -03469.9 -07.5943 26255.4
 11 07 2013  08 54  -21.0111 26024.9 -03469.6 -07.5938 26255.2
 11 07 2013  08 55  -21.0124 26024.7 -03469.5 -07.5937 26255.0
 11 07 2013  08 56  -21.0137 26024.5 -03469.4 -07.5934 26254.7
 11 07 2013  08 57  -21.0148 26024.3 -03469.2 -07.5932 26254.5
 11 07 2013  08 58  -21.0152 26024.0 -03469.0 -07.5928 26254.2
 11 07 2013  08 59  -21.0149 26023.9 -03468.8 -07.5923 26254.1
 11 07 2013  09 00  -21.0142 26024.0 -03468.7 -07.5920 26254.1
 11 07 2013  09 01  -21.0141 26023.8 -03468.5 -07.5917 26253.9
 11 07 2013  09 02  -21.0146 26023.7 -03468.4 -07.5916 26253.8
 11 07 2013  09 03  -21.0152 26023.9 -03468.4 -07.5916 26254.0
 11 07 2013  09 04  -21.0157 26023.6 -03468.2 -07.5912 26253.7
 11 07 2013  09 05  -21.0160 26023.4 -03468.1 -07.5909 26253.5
 11 07 2013  09 06  -21.0160 26023.2 -03467.9 -07.5906 26253.2
 11 07 2013  09 07  -21.0155 26022.8 -03467.6 -07.5901 26252.9
 11 07 2013  09 08  -21.0157 26022.3 -03467.3 -07.5897 26252.3
 11 07 2013  09 09  -21.0153 26022.0 -03467.1 -07.5893 26251.9
 11 07 2013  09 10  -21.0139 26021.7 -03466.9 -07.5889 26251.7
 11 07 2013  09 11  -21.0126 26021.4 -03466.7 -07.5886 26251.3
 11 07 2013  09 12  -21.0110 26020.9 -03466.6 -07.5884 26250.8
 11 07 2013  09 13  -21.0101 26020.6 -03466.6 -07.5885 26250.5
 11 07 2013  09 14  -21.0092 26020.4 -03466.7 -07.5888 26250.4
 11 07 2013  09 15  -21.0089 26020.2 -03466.8 -07.5891 26250.1
 11 07 2013  09 16  -21.0082 26019.7 -03466.8 -07.5891 26249.6
 11 07 2013  09 17  -21.0072 26019.2 -03466.6 -07.5890 26249.2
 11 07 2013  09 18  -21.0063 26018.7 -03466.7 -07.5892 26248.7
 11 07 2013  09 19  -21.0060 26018.3 -03466.7 -07.5895 26248.2
 11 07 2013  09 20  -21.0045 26018.0 -03466.8 -07.5897 26248.0
 11 07 2013  09 21  -21.0048 26017.7 -03467.0 -07.5902 26247.6
 11 07 2013  09 22  -21.0042 26017.5 -03467.2 -07.5906 26247.5
 11 07 2013  09 23  -21.0034 26017.1 -03467.2 -07.5907 26247.1
 11 07 2013  09 24  -21.0029 26016.5 -03467.2 -07.5909 26246.5
 11 07 2013  09 25  -21.0017 26016.0 -03467.2 -07.5911 26246.0
 11 07 2013  09 26  -21.0006 26015.6 -03467.3 -07.5914 26245.6
 11 07 2013  09 27  -20.9996 26015.2 -03467.4 -07.5918 26245.3
 11 07 2013  09 28  -20.9976 26014.9 -03467.6 -07.5923 26245.0
 11 07 2013  09 29  -20.9963 26014.5 -03467.7 -07.5928 26244.6
 11 07 2013  09 30  -20.9951 26014.1 -03468.0 -07.5934 26244.3
 11 07 2013  09 31  -20.9946 26013.7 -03468.2 -07.5940 26243.9
 11 07 2013  09 32  -20.9945 26013.3 -03468.5 -07.5947 26243.6
 11 07 2013  09 33  -20.9939 26012.8 -03468.6 -07.5952 26243.0
 11 07 2013  09 34  -20.9929 26012.3 -03468.7 -07.5955 26242.6
 11 07 2013  09 35  -20.9926 26012.0 -03469.0 -07.5962 26242.3
 11 07 2013  09 36  -20.9920 26011.7 -03469.2 -07.5967 26242.0
 11 07 2013  09 37  -20.9911 26011.5 -03469.4 -07.5972 26241.8
 11 07 2013  09 38  -20.9903 26011.3 -03469.6 -07.5977 26241.6
 11 07 2013  09 39  -20.9895 26011.0 -03469.8 -07.5982 26241.4
 11 07 2013  09 40  -20.9886 26010.7 -03470.0 -07.5987 26241.1
 11 07 2013  09 41  -20.9878 26010.3 -03470.1 -07.5992 26240.8
 11 07 2013  09 42  -20.9871 26010.1 -03470.3 -07.5997 26240.5
 11 07 2013  09 43  -20.9860 26010.0 -03470.6 -07.6002 26240.5
 11 07 2013  09 44  -20.9854 26009.9 -03470.9 -07.6009 26240.5
 11 07 2013  09 45  -20.9848 26009.8 -03471.2 -07.6015 26240.4
 11 07 2013  09 46  -20.9839 26009.8 -03471.4 -07.6021 26240.5
 11 07 2013  09 47  -20.9834 26009.9 -03471.8 -07.6028 26240.5
 11 07 2013  09 48  -20.9830 26009.7 -03472.0 -07.6034 26240.4
 11 07 2013  09 49  -20.9823 26009.9 -03472.4 -07.6041 26240.7
 11 07 2013  09 50  -20.9823 26009.9 -03472.7 -07.6048 26240.7
 11 07 2013  09 51  -20.9828 26009.7 -03472.8 -07.6052 26240.5
 11 07 2013  09 52  -20.9827 26009.6 -03472.9 -07.6054 26240.4
 11 07 2013  09 53  -20.9829 26009.3 -03473.1 -07.6058 26240.2
 11 07 2013  09 54  -20.9833 26009.0 -03473.1 -07.6061 26239.9
 11 07 2013  09 55  -20.9831 26008.7 -03473.3 -07.6064 26239.5
 11 07 2013  09 56  -20.9832 26008.3 -03473.4 -07.6068 26239.2
 11 07 2013  09 57  -20.9834 26008.0 -03473.6 -07.6074 26238.9
 11 07 2013  09 58  -20.9892 26007.8 -03473.7 -07.6077 26238.8
 11 07 2013  09 59  -20.9893 26007.4 -03473.9 -07.6081 26238.3
 11 07 2013  10 00  -20.9893 26007.2 -03474.1 -07.6087 26238.2
 11 07 2013  10 01  -20.9878 26007.6 -03474.6 -07.6095 26238.6
 11 07 2013  10 02  -20.9820 26007.6 -03475.0 -07.6104 26238.7
 11 07 2013  10 03  -20.9792 26007.6 -03475.4 -07.6113 26238.8
 11 07 2013  10 04  -20.9782 26007.6 -03475.7 -07.6120 26238.8
 11 07 2013  10 05  -20.9773 26007.6 -03476.0 -07.6126 26238.9
 11 07 2013  10 06  -20.9771 26007.7 -03476.3 -07.6133 26239.0
 11 07 2013  10 07  -20.9774 26007.9 -03476.7 -07.6141 26239.2
 11 07 2013  10 08  -20.9779 26008.3 -03477.2 -07.6150 26239.7
 11 07 2013  10 09  -20.9785 26008.6 -03477.6 -07.6157 26240.0
 11 07 2013  10 10  -20.9793 26008.9 -03477.9 -07.6164 26240.4
 11 07 2013  10 11  -20.9798 26009.1 -03478.2 -07.6170 26240.6
 11 07 2013  10 12  -20.9802 26008.9 -03478.3 -07.6173 26240.4
 11 07 2013  10 13  -20.9806 26008.2 -03478.3 -07.6174 26239.8
 11 07 2013  10 14  -20.9806 26007.7 -03478.3 -07.6175 26239.3
 11 07 2013  10 15  -20.9811 26007.4 -03478.4 -07.6179 26239.0
 11 07 2013  10 16  -20.9806 26007.2 -03478.6 -07.6183 26238.9
 11 07 2013  10 17  -20.9798 26007.4 -03478.9 -07.6190 26239.1
 11 07 2013  10 18  -20.9792 26007.6 -03479.3 -07.6197 26239.3
 11 07 2013  10 19  -20.9805 26007.2 -03479.5 -07.6202 26238.9
 11 07 2013  10 20  -20.9817 26006.7 -03479.5 -07.6205 26238.5
 11 07 2013  10 21  -20.9825 26006.6 -03479.7 -07.6208 26238.4
 11 07 2013  10 22  -20.9823 26006.7 -03479.9 -07.6213 26238.4
 11 07 2013  10 23  -20.9813 26006.5 -03480.0 -07.6216 26238.3
 11 07 2013  10 24  -20.9806 26006.2 -03480.1 -07.6219 26238.0
 11 07 2013  10 25  -20.9805 26005.9 -03480.2 -07.6223 26237.7
 11 07 2013  10 26  -20.9805 26006.0 -03480.6 -07.6230 26237.9
 11 07 2013  10 27  -20.9804 26006.4 -03481.0 -07.6237 26238.3
 11 07 2013  10 28  -20.9811 26006.7 -03481.3 -07.6243 26238.7
 11 07 2013  10 29  -20.9813 26007.2 -03481.5 -07.6248 26239.2
 11 07 2013  10 30  -20.9819 26007.4 -03481.7 -07.6251 26239.4
 11 07 2013  10 31  -20.9827 26007.3 -03481.8 -07.6252 26239.3
 11 07 2013  10 32  -20.9836 26007.2 -03481.8 -07.6254 26239.3
 11 07 2013  10 33  -20.9839 26007.2 -03481.9 -07.6254 26239.2
 11 07 2013  10 34  -20.9841 26007.0 -03481.9 -07.6255 26239.1
 11 07 2013  10 35  -20.9849 26006.7 -03481.8 -07.6255 26238.8
 11 07 2013  10 36  -20.9868 26006.4 -03481.8 -07.6255 26238.4
 11 07 2013  10 37  -20.9885 26006.0 -03481.7 -07.6255 26238.0
 11 07 2013  10 38  -20.9889 26005.5 -03481.6 -07.6254 26237.5
 11 07 2013  10 39  -20.9886 26005.1 -03481.6 -07.6254 26237.1
 11 07 2013  10 40  -20.9890 26005.0 -03481.7 -07.6257 26237.0
 11 07 2013  10 41  -20.9901 26005.3 -03482.0 -07.6263 26237.3
 11 07 2013  10 42  -20.9914 26005.4 -03482.2 -07.6267 26237.5
 11 07 2013  10 43  -20.9920 26005.1 -03482.1 -07.6265 26237.2
 11 07 2013  10 44  -20.9920 26004.8 -03481.9 -07.6263 26236.9
 11 07 2013  10 45  -20.9922 26004.6 -03481.9 -07.6263 26236.6
 11 07 2013  10 46  -20.9934 26004.3 -03481.8 -07.6262 26236.3
 11 07 2013  10 47  -20.9953 26004.3 -03481.9 -07.6263 26236.3
 11 07 2013  10 48  -20.9962 26004.5 -03482.0 -07.6264 26236.6
 11 07 2013  10 49  -20.9957 26004.9 -03482.0 -07.6264 26236.9
 11 07 2013  10 50  -20.9951 26004.5 -03481.8 -07.6261 26236.6
 11 07 2013  10 51  -20.9949 26003.8 -03481.4 -07.6255 26235.8
 11 07 2013  10 52  -20.9949 26003.5 -03481.4 -07.6254 26235.5
 11 07 2013  10 53  -20.9951 26003.5 -03481.5 -07.6256 26235.5
 11 07 2013  10 54  -20.9956 26003.5 -03481.6 -07.6259 26235.5
 11 07 2013  10 55  -20.9956 26003.7 -03481.7 -07.6261 26235.7
 11 07 2013  10 56  -20.9965 26003.9 -03481.8 -07.6263 26235.9
 11 07 2013  10 57  -20.9978 26004.3 -03481.9 -07.6264 26236.4
 11 07 2013  10 58  -20.9986 26004.9 -03481.9 -07.6263 26237.0
 11 07 2013  10 59  -20.9988 26004.8 -03481.8 -07.6259 26236.8
 11 07 2013  11 00  -20.9992 26004.7 -03481.6 -07.6256 26236.7
 11 07 2013  11 01  -20.9999 26004.7 -03481.5 -07.6255 26236.7
 11 07 2013  11 02  -21.0007 26004.6 -03481.4 -07.6252 26236.6
 11 07 2013  11 03  -21.0010 26004.2 -03481.2 -07.6248 26236.2
 11 07 2013  11 04  -21.0002 26004.1 -03481.1 -07.6246 26236.0
 11 07 2013  11 05  -21.0000 26003.8 -03480.9 -07.6244 26235.7
 11 07 2013  11 06  -21.0015 26003.0 -03480.7 -07.6241 26235.0
 11 07 2013  11 07  -21.0037 26002.2 -03480.5 -07.6238 26234.1
 11 07 2013  11 08  -21.0027 26002.3 -03480.6 -07.6241 26234.3
 11 07 2013  11 09  -21.0015 26003.3 -03481.0 -07.6247 26235.3
 11 07 2013  11 10  -21.0004 26004.0 -03481.1 -07.6247 26236.0
 11 07 2013  11 11  -20.9987 26004.5 -03481.1 -07.6247 26236.5
 11 07 2013  11 12  -20.9975 26004.6 -03481.0 -07.6244 26236.6
 11 07 2013  11 13  -20.9965 26005.2 -03481.0 -07.6241 26237.1
 11 07 2013  11 14  -20.9969 26005.8 -03481.0 -07.6240 26237.8
 11 07 2013  11 15  -20.9979 26006.0 -03480.9 -07.6236 26237.9
 11 07 2013  11 16  -21.0005 26005.3 -03480.4 -07.6228 26237.2
 11 07 2013  11 17  -21.0019 26004.0 -03479.7 -07.6217 26235.8
 11 07 2013  11 18  -21.0037 26002.4 -03479.1 -07.6209 26234.1
 11 07 2013  11 19  -21.0059 26001.4 -03478.9 -07.6208 26233.1
 11 07 2013  11 20  -21.0069 26001.2 -03479.1 -07.6212 26232.9
 11 07 2013  11 21  -21.0076 26001.8 -03479.5 -07.6219 26233.5
 11 07 2013  11 22  -21.0088 26002.3 -03479.8 -07.6225 26234.1
 11 07 2013  11 23  -21.0102 26002.2 -03479.8 -07.6225 26234.0
 11 07 2013  11 24  -21.0116 26001.8 -03479.7 -07.6223 26233.6
 11 07 2013  11 25  -21.0130 26001.7 -03479.6 -07.6221 26233.5
 11 07 2013  11 26  -21.0140 26001.7 -03479.6 -07.6221 26233.5
 11 07 2013  11 27  -21.0147 26001.9 -03479.5 -07.6219 26233.6
 11 07 2013  11 28  -21.0154 26002.3 -03479.6 -07.6220 26234.1
 11 07 2013  11 29  -21.0168 26002.8 -03479.7 -07.6221 26234.5
 11 07 2013  11 30  -21.0176 26003.1 -03479.7 -07.6219 26234.9
 11 07 2013  11 31  -21.0181 26003.6 -03479.7 -07.6217 26235.4
 11 07 2013  11 32  -21.0187 26004.3 -03479.7 -07.6215 26236.1
 11 07 2013  11 33  -21.0189 26004.8 -03479.5 -07.6211 26236.5
 11 07 2013  11 34  -21.0188 26005.5 -03479.5 -07.6208 26237.3
 11 07 2013  11 35  -21.0179 26006.7 -03479.5 -07.6206 26238.4
 11 07 2013  11 36  -21.0176 26007.8 -03479.6 -07.6203 26239.5
 11 07 2013  11 37  -21.0173 26008.4 -03479.3 -07.6196 26240.1
 11 07 2013  11 38  -21.0182 26009.1 -03479.2 -07.6191 26240.8
 11 07 2013  11 39  -21.0195 26009.3 -03478.8 -07.6181 26240.9
 11 07 2013  11 40  -21.0209 26008.7 -03478.1 -07.6170 26240.2
 11 07 2013  11 41  -21.0222 26007.9 -03477.6 -07.6161 26239.4
 11 07 2013  11 42  -21.0229 26007.4 -03477.3 -07.6155 26238.9
 11 07 2013  11 43  -21.0234 26007.4 -03477.3 -07.6154 26238.8
 11 07 2013  11 44  -21.0236 26007.6 -03477.3 -07.6154 26239.0
 11 07 2013  11 45  -21.0241 26007.5 -03477.2 -07.6152 26238.9
 11 07 2013  11 46  -21.0240 26008.2 -03477.3 -07.6153 26239.6
 11 07 2013  11 47  -21.0242 26009.4 -03477.7 -07.6158 26240.9
 11 07 2013  11 48  -21.0244 26010.8 -03478.0 -07.6161 26242.3
 11 07 2013  11 49  -21.0240 26011.9 -03478.0 -07.6157 26243.4
 11 07 2013  11 50  -21.0237 26013.0 -03477.9 -07.6151 26244.4
 11 07 2013  11 51  -21.0239 26013.6 -03477.6 -07.6143 26245.0
 11 07 2013  11 52  -21.0247 26013.8 -03477.1 -07.6133 26245.2
 11 07 2013  11 53  -21.0255 26014.0 -03476.7 -07.6124 26245.3
 11 07 2013  11 54  -21.0255 26013.7 -03476.2 -07.6112 26245.0
 11 07 2013  11 55  -21.0257 26013.5 -03475.7 -07.6103 26244.7
 11 07 2013  11 56  -21.0270 26012.7 -03475.2 -07.6094 26243.8
 11 07 2013  11 57  -21.0274 26011.1 -03474.4 -07.6081 26242.1
 11 07 2013  11 58  -21.0263 26010.3 -03474.0 -07.6075 26241.3
 11 07 2013  11 59  -21.0260 26009.6 -03473.8 -07.6072 26240.5
 11 07 2013  12 00  -21.0249 26008.7 -03473.4 -07.6067 26239.6
 11 07 2013  12 01  -21.0239 26008.0 -03473.2 -07.6064 26238.9
 11 07 2013  12 02  -21.0239 26007.6 -03473.1 -07.6064 26238.5
 11 07 2013  12 03  -21.0239 26007.4 -03473.2 -07.6066 26238.3
 11 07 2013  12 04  -21.0239 26007.8 -03473.4 -07.6070 26238.7
 11 07 2013  12 05  -21.0242 26007.5 -03473.3 -07.6069 26238.5
 11 07 2013  12 06  -21.0240 26007.4 -03473.2 -07.6067 26238.3
 11 07 2013  12 07  -21.0238 26006.8 -03473.0 -07.6063 26237.7
 11 07 2013  12 08  -21.0232 26006.4 -03472.8 -07.6060 26237.3
 11 07 2013  12 09  -21.0236 26006.6 -03472.8 -07.6061 26237.4
 11 07 2013  12 10  -21.0247 26006.6 -03472.8 -07.6061 26237.5
 11 07 2013  12 11  -21.0256 26007.5 -03473.1 -07.6064 26238.4
 11 07 2013  12 12  -21.0266 26008.3 -03473.3 -07.6066 26239.2
 11 07 2013  12 13  -21.0276 26009.1 -03473.3 -07.6064 26240.0
 11 07 2013  12 14  -21.0287 26009.3 -03473.0 -07.6058 26240.1
 11 07 2013  12 15  -21.0299 26008.4 -03472.4 -07.6046 26239.1
 11 07 2013  12 16  -21.0317 26008.4 -03472.3 -07.6044 26239.2
 11 07 2013  12 17  -21.0331 26009.1 -03472.5 -07.6047 26239.9
 11 07 2013  12 18  -21.0340 26009.3 -03472.4 -07.6043 26240.0
 11 07 2013  12 19  -21.0342 26009.3 -03472.2 -07.6039 26240.0
 11 07 2013  12 20  -21.0349 26009.2 -03472.0 -07.6035 26239.9
 11 07 2013  12 21  -21.0349 26009.2 -03471.8 -07.6032 26239.9
 11 07 2013  12 22  -21.0348 26009.2 -03471.6 -07.6027 26239.9
 11 07 2013  12 23  -21.0345 26009.3 -03471.5 -07.6024 26240.0
 11 07 2013  12 24  -21.0349 26009.7 -03471.5 -07.6024 26240.4
 11 07 2013  12 25  -21.0356 26010.2 -03471.6 -07.6024 26240.9
 11 07 2013  12 26  -21.0362 26010.9 -03471.7 -07.6023 26241.6
 11 07 2013  12 27  -21.0368 26011.2 -03471.5 -07.6019 26241.9
 11 07 2013  12 28  -21.0370 26011.3 -03471.3 -07.6014 26241.9
 11 07 2013  12 29  -21.0375 26011.7 -03471.2 -07.6011 26242.3
 11 07 2013  12 30  -21.0385 26012.4 -03471.2 -07.6009 26243.0
 11 07 2013  12 31  -21.0396 26012.9 -03471.1 -07.6005 26243.4
 11 07 2013  12 32  -21.0397 26013.6 -03471.1 -07.6002 26244.1
 11 07 2013  12 33  -21.0397 26013.8 -03470.8 -07.5995 26244.3
 11 07 2013  12 34  -21.0394 26014.1 -03470.6 -07.5990 26244.6
 11 07 2013  12 35  -21.0393 26014.8 -03470.5 -07.5986 26245.2
 11 07 2013  12 36  -21.0392 26015.1 -03470.3 -07.5981 26245.5
 11 07 2013  12 37  -21.0390 26015.2 -03470.0 -07.5975 26245.6
 11 07 2013  12 38  -21.0389 26014.9 -03469.7 -07.5970 26245.3
 11 07 2013  12 39  -21.0398 26014.8 -03469.5 -07.5966 26245.1
 11 07 2013  12 40  -21.0405 26014.7 -03469.5 -07.5964 26245.0
 11 07 2013  12 41  -21.0405 26014.4 -03469.3 -07.5962 26244.7
 11 07 2013  12 42  -21.0410 26014.5 -03469.4 -07.5963 26244.8
 11 07 2013  12 43  -21.0417 26015.0 -03469.6 -07.5967 26245.3
 11 07 2013  12 44  -21.0419 26015.2 -03469.6 -07.5965 26245.5
 11 07 2013  12 45  -21.0432 26016.0 -03469.8 -07.5969 26246.4
 11 07 2013  12 46  -21.0446 26016.5 -03469.9 -07.5968 26246.9
 11 07 2013  12 47  -21.0452 26017.0 -03469.7 -07.5964 26247.3
 11 07 2013  12 48  -21.0454 26017.3 -03469.5 -07.5959 26247.6
 11 07 2013  12 49  -21.0453 26017.5 -03469.4 -07.5954 26247.8
 11 07 2013  12 50  -21.0451 26018.2 -03469.3 -07.5951 26248.5
 11 07 2013  12 51  -21.0446 26018.7 -03469.2 -07.5948 26248.9
 11 07 2013  12 52  -21.0446 26018.5 -03468.9 -07.5941 26248.8
 11 07 2013  12 53  -21.0444 26018.4 -03468.6 -07.5935 26248.6
 11 07 2013  12 54  -21.0442 26018.5 -03468.4 -07.5931 26248.6
 11 07 2013  12 55  -21.0442 26018.1 -03468.1 -07.5925 26248.2
 11 07 2013  12 56  -21.0445 26017.5 -03467.7 -07.5918 26247.5
 11 07 2013  12 57  -21.0452 26016.9 -03467.4 -07.5914 26246.9
 11 07 2013  12 58  -21.0463 26016.3 -03467.2 -07.5912 26246.3
 11 07 2013  12 59  -21.0475 26016.0 -03467.2 -07.5912 26246.0
 11 07 2013  13 00  -21.0486 26015.4 -03467.0 -07.5910 26245.4
 11 07 2013  13 01  -21.0502 26014.5 -03466.8 -07.5906 26244.4
 11 07 2013  13 02  -21.0513 26014.2 -03466.7 -07.5907 26244.1
 11 07 2013  13 03  -21.0520 26014.3 -03466.8 -07.5909 26244.3
 11 07 2013  13 04  -21.0520 26014.3 -03466.8 -07.5908 26244.3
 11 07 2013  13 05  -21.0525 26013.9 -03466.6 -07.5906 26243.9
 11 07 2013  13 06  -21.0532 26013.7 -03466.6 -07.5905 26243.6
 11 07 2013  13 07  -21.0539 26013.6 -03466.5 -07.5904 26243.5
 11 07 2013  13 08  -21.0543 26013.6 -03466.5 -07.5903 26243.6
 11 07 2013  13 09  -21.0547 26013.6 -03466.4 -07.5900 26243.6
 11 07 2013  13 10  -21.0546 26013.5 -03466.2 -07.5897 26243.4
 11 07 2013  13 11  -21.0546 26013.4 -03466.0 -07.5892 26243.2
 11 07 2013  13 12  -21.0551 26013.0 -03465.7 -07.5888 26242.9
 11 07 2013  13 13  -21.0556 26013.3 -03465.7 -07.5887 26243.2
 11 07 2013  13 14  -21.0555 26013.3 -03465.5 -07.5882 26243.1
 11 07 2013  13 15  -21.0550 26012.7 -03465.0 -07.5874 26242.5
 11 07 2013  13 16  -21.0546 26012.2 -03464.7 -07.5868 26241.9
 11 07 2013  13 17  -21.0546 26011.9 -03464.5 -07.5865 26241.6
 11 07 2013  13 18  -21.0546 26012.3 -03464.6 -07.5866 26242.0
 11 07 2013  13 19  -21.0550 26012.7 -03464.7 -07.5867 26242.4
 11 07 2013  13 20  -21.0568 26011.3 -03463.9 -07.5854 26241.0
 11 07 2013  13 21  -21.0563 26010.6 -03463.6 -07.5850 26240.2
 11 07 2013  13 22  -21.0558 26010.4 -03463.5 -07.5848 26239.9
 11 07 2013  13 23  -21.0552 26009.6 -03463.3 -07.5845 26239.1
 11 07 2013  13 24  -21.0549 26009.2 -03463.2 -07.5844 26238.7
 11 07 2013  13 25  -21.0548 26009.6 -03463.5 -07.5849 26239.2
 11 07 2013  13 26  -21.0539 26009.4 -03463.3 -07.5847 26238.9
 11 07 2013  13 27  -21.0535 26009.1 -03463.2 -07.5845 26238.6
 11 07 2013  13 28  -21.0530 26008.3 -03462.9 -07.5840 26237.8
 11 07 2013  13 29  -21.0526 26008.0 -03462.8 -07.5840 26237.5
 11 07 2013  13 30  -21.0530 26007.3 -03462.6 -07.5838 26236.8
 11 07 2013  13 31  -21.0540 26007.8 -03463.0 -07.5844 26237.4
 11 07 2013  13 32  -21.0543 26009.3 -03463.5 -07.5852 26238.9
 11 07 2013  13 33  -21.0535 26010.6 -03463.8 -07.5853 26240.2
 11 07 2013  13 34  -21.0529 26011.3 -03463.7 -07.5849 26240.9
 11 07 2013  13 35  -21.0518 26011.4 -03463.3 -07.5841 26241.0
 11 07 2013  13 36  -21.0490 26010.6 -03462.6 -07.5829 26240.0
 11 07 2013  13 37  -21.0470 26008.7 -03462.0 -07.5820 26238.1
 11 07 2013  13 38  -21.0465 26007.1 -03461.6 -07.5817 26236.5
 11 07 2013  13 39  -21.0477 26006.6 -03461.9 -07.5825 26236.0
 11 07 2013  13 40  -21.0491 26006.3 -03462.3 -07.5833 26235.8
 11 07 2013  13 41  -21.0499 26005.9 -03462.5 -07.5839 26235.4
 11 07 2013  13 42  -21.0501 26005.5 -03462.6 -07.5843 26235.0
 11 07 2013  13 43  -21.0512 26005.8 -03463.0 -07.5850 26235.3
 11 07 2013  13 44  -21.0525 26007.0 -03463.7 -07.5863 26236.6
 11 07 2013  13 45  -21.0533 26008.8 -03464.5 -07.5874 26238.5
 11 07 2013  13 46  -21.0536 26009.7 -03464.7 -07.5876 26239.4
 11 07 2013  13 47  -21.0535 26009.6 -03464.6 -07.5874 26239.4
 11 07 2013  13 48  -21.0531 26009.0 -03464.4 -07.5871 26238.7
 11 07 2013  13 49  -21.0528 26008.2 -03464.2 -07.5869 26237.9
 11 07 2013  13 50  -21.0535 26007.8 -03464.3 -07.5872 26237.5
 11 07 2013  13 51  -21.0541 26007.5 -03464.4 -07.5876 26237.2
 11 07 2013  13 52  -21.0551 26007.5 -03464.8 -07.5883 26237.3
 11 07 2013  13 53  -21.0557 26007.5 -03465.0 -07.5889 26237.3
 11 07 2013  13 54  -21.0560 26007.8 -03465.3 -07.5894 26237.6
 11 07 2013  13 55  -21.0567 26008.2 -03465.6 -07.5900 26238.1
 11 07 2013  13 56  -21.0579 26008.5 -03465.9 -07.5905 26238.4
 11 07 2013  13 57  -21.0587 26008.8 -03466.0 -07.5907 26238.8
 11 07 2013  13 58  -21.0594 26009.3 -03466.2 -07.5909 26239.2
 11 07 2013  13 59  -21.0605 26010.2 -03466.5 -07.5913 26240.2
 11 07 2013  14 00  -21.0621 26011.5 -03466.8 -07.5917 26241.5
 11 07 2013  14 01  -21.0633 26012.3 -03466.9 -07.5916 26242.4
 11 07 2013  14 02  -21.0634 26012.7 -03466.7 -07.5911 26242.7
 11 07 2013  14 03  -21.0640 26013.2 -03466.6 -07.5908 26243.2
 11 07 2013  14 04  -21.0648 26013.6 -03466.7 -07.5907 26243.6
 11 07 2013  14 05  -21.0655 26014.0 -03466.8 -07.5908 26244.0
 11 07 2013  14 06  -21.0655 26013.7 -03466.5 -07.5904 26243.6
 11 07 2013  14 07  -21.0655 26013.4 -03466.5 -07.5904 26243.4
 11 07 2013  14 08  -21.0660 26013.6 -03466.7 -07.5908 26243.6
 11 07 2013  14 09  -21.0657 26013.5 -03466.8 -07.5911 26243.5
 11 07 2013  14 10  -21.0657 26013.4 -03467.0 -07.5914 26243.4
 11 07 2013  14 11  -21.0659 26013.4 -03467.2 -07.5918 26243.4
 11 07 2013  14 12  -21.0666 26013.5 -03467.4 -07.5924 26243.6
 11 07 2013  14 13  -21.0677 26013.2 -03467.6 -07.5928 26243.3
 11 07 2013  14 14  -21.0687 26013.3 -03467.9 -07.5934 26243.4
 11 07 2013  14 15  -21.0700 26013.9 -03468.4 -07.5943 26244.1
 11 07 2013  14 16  -21.0719 26014.8 -03468.9 -07.5952 26245.0
 11 07 2013  14 17  -21.0735 26015.6 -03469.2 -07.5957 26245.9
 11 07 2013  14 18  -21.0746 26016.3 -03469.4 -07.5959 26246.7
 11 07 2013  14 19  -21.0754 26017.2 -03469.6 -07.5961 26247.5
 11 07 2013  14 20  -21.0760 26017.9 -03469.7 -07.5960 26248.3
 11 07 2013  14 21  -21.0768 26018.2 -03469.6 -07.5957 26248.6
 11 07 2013  14 22  -21.0775 26018.6 -03469.5 -07.5954 26248.9
 11 07 2013  14 23  -21.0779 26018.9 -03469.4 -07.5950 26249.2
 11 07 2013  14 24  -21.0789 26019.6 -03469.5 -07.5952 26249.9
 11 07 2013  14 25  -21.0797 26019.9 -03469.5 -07.5949 26250.2
 11 07 2013  14 26  -21.0804 26020.0 -03469.3 -07.5946 26250.3
 11 07 2013  14 27  -21.0804 26019.7 -03469.1 -07.5941 26250.0
 11 07 2013  14 28  -21.0803 26019.0 -03468.7 -07.5936 26249.2
 11 07 2013  14 29  -21.0802 26017.9 -03468.4 -07.5932 26248.1
 11 07 2013  14 30  -21.0806 26016.9 -03468.2 -07.5931 26247.0
 11 07 2013  14 31  -21.0808 26016.0 -03468.2 -07.5933 26246.2
 11 07 2013  14 32  -21.0814 26015.5 -03468.4 -07.5939 26245.7
 11 07 2013  14 33  -21.0821 26014.7 -03468.5 -07.5944 26244.9
 11 07 2013  14 34  -21.0837 26013.5 -03468.5 -07.5947 26243.8
 11 07 2013  14 35  -21.0855 26012.2 -03468.5 -07.5950 26242.4
 11 07 2013  14 36  -21.0867 26011.0 -03468.4 -07.5952 26241.2
 11 07 2013  14 37  -21.0884 26010.2 -03468.7 -07.5960 26240.4
 11 07 2013  14 38  -21.0894 26009.2 -03468.8 -07.5966 26239.5
 11 07 2013  14 39  -21.0902 26008.4 -03468.9 -07.5971 26238.8
 11 07 2013  14 40  -21.0909 26007.4 -03469.0 -07.5975 26237.8
 11 07 2013  14 41  -21.0920 26006.8 -03469.2 -07.5981 26237.1
 11 07 2013  14 42  -21.0925 26006.0 -03469.2 -07.5983 26236.3
 11 07 2013  14 43  -21.0928 26005.3 -03469.2 -07.5986 26235.7
 11 07 2013  14 44  -21.0928 26004.8 -03469.3 -07.5989 26235.1
 11 07 2013  14 45  -21.0934 26004.5 -03469.5 -07.5995 26235.0
 11 07 2013  14 46  -21.0933 26004.4 -03469.6 -07.5997 26234.8
 11 07 2013  14 47  -21.0928 26004.2 -03469.6 -07.5997 26234.6
 11 07 2013  14 48  -21.0932 26004.0 -03469.6 -07.5999 26234.4
 11 07 2013  14 49  -21.0938 26003.8 -03469.6 -07.6000 26234.2
 11 07 2013  14 50  -21.0943 26003.0 -03469.4 -07.5998 26233.4
 11 07 2013  14 51  -21.0950 26002.6 -03469.4 -07.5999 26233.1
 11 07 2013  14 52  -21.0960 26003.0 -03469.8 -07.6005 26233.5
 11 07 2013  14 53  -21.0961 26003.0 -03469.9 -07.6007 26233.5
 11 07 2013  14 54  -21.0960 26002.7 -03469.8 -07.6006 26233.2
 11 07 2013  14 55  -21.0950 26002.3 -03469.6 -07.6003 26232.8
 11 07 2013  14 56  -21.0941 26001.5 -03469.3 -07.5999 26232.0
 11 07 2013  14 57  -21.0937 26000.8 -03469.2 -07.5999 26231.2
 11 07 2013  14 58  -21.0940 26000.2 -03469.2 -07.6000 26230.6
 11 07 2013  14 59  -21.0946 25999.9 -03469.3 -07.6005 26230.4
 11 07 2013  15 00  -21.0955 26000.0 -03469.6 -07.6010 26230.5
 11 07 2013  15 01  -21.0966 26000.0 -03469.8 -07.6014 26230.5
 11 07 2013  15 02  -21.0967 25999.7 -03469.7 -07.6013 26230.2
 11 07 2013  15 03  -21.0971 25999.8 -03469.8 -07.6015 26230.3
 11 07 2013  15 04  -21.0972 26000.3 -03470.0 -07.6018 26230.9
 11 07 2013  15 05  -21.0986 26001.7 -03470.5 -07.6024 26232.3
 11 07 2013  15 06  -21.1004 26002.9 -03470.7 -07.6026 26233.5
 11 07 2013  15 07  -21.1010 26004.0 -03470.7 -07.6023 26234.5
 11 07 2013  15 08  -21.1013 26004.8 -03470.5 -07.6016 26235.3
 11 07 2013  15 09  -21.1007 26004.7 -03469.8 -07.6001 26235.2
 11 07 2013  15 10  -21.0991 26004.3 -03469.0 -07.5985 26234.7
 11 07 2013  15 11  -21.0979 26004.0 -03468.5 -07.5974 26234.2
 11 07 2013  15 12  -21.0973 26003.7 -03468.1 -07.5966 26233.9
 11 07 2013  15 13  -21.0977 26003.9 -03468.0 -07.5963 26234.1
 11 07 2013  15 14  -21.0980 26004.3 -03468.0 -07.5962 26234.5
 11 07 2013  15 15  -21.0985 26004.4 -03467.8 -07.5958 26234.6
 11 07 2013  15 16  -21.0990 26003.4 -03467.2 -07.5949 26233.5
 11 07 2013  15 17  -21.0990 26002.9 -03466.9 -07.5944 26233.0
 11 07 2013  15 18  -21.0999 26003.5 -03467.2 -07.5947 26233.6
 11 07 2013  15 19  -21.1013 26003.9 -03467.3 -07.5948 26234.0
 11 07 2013  15 20  -21.1019 26003.9 -03467.2 -07.5946 26234.0
 11 07 2013  15 21  -21.1020 26003.5 -03466.9 -07.5941 26233.6
 11 07 2013  15 22  -21.1013 26002.3 -03466.4 -07.5933 26232.3
 11 07 2013  15 23  -21.1002 26001.1 -03465.9 -07.5927 26231.1
 11 07 2013  15 24  -21.0996 26000.2 -03465.8 -07.5926 26230.2
 11 07 2013  15 25  -21.0997 25999.3 -03465.7 -07.5927 26229.3
 11 07 2013  15 26  -21.1003 25998.7 -03465.7 -07.5929 26228.6
 11 07 2013  15 27  -21.1008 25998.6 -03465.9 -07.5935 26228.6
 11 07 2013  15 28  -21.1013 25998.7 -03466.2 -07.5939 26228.7
 11 07 2013  15 29  -21.1010 25998.8 -03466.3 -07.5941 26228.9
 11 07 2013  15 30  -21.1002 25998.9 -03466.2 -07.5940 26228.9
 11 07 2013  15 31  -21.0995 25999.1 -03466.3 -07.5940 26229.2
 11 07 2013  15 32  -21.0989 25998.9 -03466.2 -07.5939 26229.0
 11 07 2013  15 33  -21.0981 25998.6 -03466.0 -07.5936 26228.6
 11 07 2013  15 34  -21.0970 25997.7 -03465.7 -07.5932 26227.7
 11 07 2013  15 35  -21.0953 25996.6 -03465.3 -07.5926 26226.5
 11 07 2013  15 36  -21.0944 25995.7 -03465.2 -07.5926 26225.7
 11 07 2013  15 37  -21.0944 25996.0 -03465.6 -07.5935 26225.9
 11 07 2013  15 38  -21.0942 25995.8 -03465.8 -07.5940 26225.8
 11 07 2013  15 39  -21.0928 25995.1 -03465.6 -07.5937 26225.1
 11 07 2013  15 40  -21.0917 25994.4 -03465.5 -07.5936 26224.4
 11 07 2013  15 41  -21.0905 25993.7 -03465.5 -07.5939 26223.7
 11 07 2013  15 42  -21.0899 25993.2 -03465.6 -07.5942 26223.2
 11 07 2013  15 43  -21.0896 25992.8 -03465.8 -07.5948 26222.8
 11 07 2013  15 44  -21.0892 25992.4 -03466.0 -07.5953 26222.4
 11 07 2013  15 45  -21.0889 25991.9 -03466.1 -07.5958 26222.0
 11 07 2013  15 46  -21.0887 25991.5 -03466.3 -07.5962 26221.6
 11 07 2013  15 47  -21.0888 25991.7 -03466.7 -07.5971 26221.9
 11 07 2013  15 48  -21.0887 25991.9 -03467.1 -07.5979 26222.2
 11 07 2013  15 49  -21.0887 25992.6 -03467.6 -07.5987 26222.9
 11 07 2013  15 50  -21.0887 25993.2 -03467.9 -07.5993 26223.5
 11 07 2013  15 51  -21.0886 25993.8 -03468.2 -07.5996 26224.1
 11 07 2013  15 52  -21.0887 25994.9 -03468.5 -07.6000 26225.3
 11 07 2013  15 53  -21.0892 25995.8 -03468.7 -07.6002 26226.2
 11 07 2013  15 54  -21.0894 25996.9 -03468.8 -07.6002 26227.3
 11 07 2013  15 55  -21.0895 25997.8 -03468.8 -07.5999 26228.2
 11 07 2013  15 56  -21.0890 25998.5 -03468.7 -07.5994 26228.9
 11 07 2013  15 57  -21.0889 25999.5 -03468.7 -07.5992 26229.8
 11 07 2013  15 58  -21.0885 26000.4 -03468.7 -07.5990 26230.7
 11 07 2013  15 59  -21.0879 26001.2 -03468.7 -07.5986 26231.6
 11 07 2013  16 00  -21.0876 26002.1 -03468.6 -07.5982 26232.4
 11 07 2013  16 01  -21.0875 26003.0 -03468.5 -07.5978 26233.3
 11 07 2013  16 02  -21.0873 26003.9 -03468.5 -07.5974 26234.2
 11 07 2013  16 03  -21.0870 26004.3 -03468.1 -07.5966 26234.5
 11 07 2013  16 04  -21.0867 26004.8 -03468.0 -07.5961 26235.1
 11 07 2013  16 05  -21.0859 26005.0 -03467.7 -07.5955 26235.2
 11 07 2013  16 06  -21.0841 26004.7 -03467.3 -07.5946 26234.8
 11 07 2013  16 07  -21.0842 26005.8 -03467.6 -07.5951 26235.9
 11 07 2013  16 08  -21.0848 26007.4 -03468.1 -07.5956 26237.6
 11 07 2013  16 09  -21.0846 26008.2 -03468.1 -07.5953 26238.4
 11 07 2013  16 10  -21.0839 26008.6 -03467.7 -07.5944 26238.7
 11 07 2013  16 11  -21.0847 26009.8 -03467.9 -07.5946 26240.0
 11 07 2013  16 12  -21.0859 26011.7 -03468.3 -07.5948 26242.0
 11 07 2013  16 13  -21.0868 26011.8 -03467.8 -07.5937 26241.9
 11 07 2013  16 14  -21.0873 26011.2 -03467.1 -07.5924 26241.3
 11 07 2013  16 15  -21.0876 26011.0 -03466.7 -07.5915 26241.0
 11 07 2013  16 16  -21.0878 26010.9 -03466.5 -07.5910 26240.9
 11 07 2013  16 17  -21.0883 26011.1 -03466.4 -07.5909 26241.0
 11 07 2013  16 18  -21.0884 26010.9 -03466.2 -07.5905 26240.8
 11 07 2013  16 19  -21.0884 26010.5 -03466.0 -07.5901 26240.4
 11 07 2013  16 20  -21.0885 26010.3 -03465.9 -07.5899 26240.2
 11 07 2013  16 21  -21.0883 26009.6 -03465.6 -07.5895 26239.5
 11 07 2013  16 22  -21.0878 26009.3 -03465.5 -07.5895 26239.1
 11 07 2013  16 23  -21.0870 26008.8 -03465.5 -07.5896 26238.7
 11 07 2013  16 24  -21.0870 26008.8 -03465.8 -07.5901 26238.7
 11 07 2013  16 25  -21.0883 26009.4 -03466.2 -07.5910 26239.3
 11 07 2013  16 26  -21.0889 26009.4 -03466.3 -07.5912 26239.4
 11 07 2013  16 27  -21.0891 26009.2 -03466.3 -07.5912 26239.1
 11 07 2013  16 28  -21.0888 26008.7 -03466.2 -07.5911 26238.7
 11 07 2013  16 29  -21.0879 26007.8 -03465.9 -07.5908 26237.8
 11 07 2013  16 30  -21.0872 26007.2 -03465.9 -07.5908 26237.1
 11 07 2013  16 31  -21.0869 26006.5 -03465.9 -07.5912 26236.4
 11 07 2013  16 32  -21.0860 26005.8 -03465.9 -07.5913 26235.8
 11 07 2013  16 33  -21.0856 26005.1 -03465.9 -07.5915 26235.0
 11 07 2013  16 34  -21.0864 26005.0 -03466.3 -07.5924 26235.0
 11 07 2013  16 35  -21.0860 26004.1 -03466.2 -07.5924 26234.1
 11 07 2013  16 36  -21.0863 26004.3 -03466.6 -07.5932 26234.3
 11 07 2013  16 37  -21.0855 26003.4 -03466.4 -07.5932 26233.5
 11 07 2013  16 38  -21.0853 26004.1 -03466.9 -07.5940 26234.2
 11 07 2013  16 39  -21.0868 26005.3 -03467.7 -07.5953 26235.5
 11 07 2013  16 40  -21.0869 26005.6 -03467.8 -07.5954 26235.8
 11 07 2013  16 41  -21.0867 26005.6 -03467.7 -07.5953 26235.8
 11 07 2013  16 42  -21.0861 26005.1 -03467.5 -07.5949 26235.2
 11 07 2013  16 43  -21.0858 26004.1 -03467.1 -07.5944 26234.2
 11 07 2013  16 44  -21.0852 26003.2 -03466.8 -07.5941 26233.2
 11 07 2013  16 45  -21.0858 26002.9 -03467.0 -07.5945 26233.0
 11 07 2013  16 46  -21.0863 26002.7 -03467.1 -07.5948 26232.8
 11 07 2013  16 47  -21.0866 26002.4 -03467.1 -07.5948 26232.5
 11 07 2013  16 48  -21.0868 26001.8 -03466.9 -07.5946 26231.9
 11 07 2013  16 49  -21.0871 26001.2 -03466.8 -07.5945 26231.3
 11 07 2013  16 50  -21.0867 26000.4 -03466.5 -07.5941 26230.5
 11 07 2013  16 51  -21.0867 25999.8 -03466.4 -07.5940 26229.9
 11 07 2013  16 52  -21.0869 25999.4 -03466.3 -07.5940 26229.4
 11 07 2013  16 53  -21.0873 25998.9 -03466.2 -07.5940 26228.9
 11 07 2013  16 54  -21.0878 25998.4 -03466.2 -07.5941 26228.4
 11 07 2013  16 55  -21.0880 25997.9 -03466.2 -07.5941 26227.9
 11 07 2013  16 56  -21.0881 25997.3 -03466.0 -07.5940 26227.3
 11 07 2013  16 57  -21.0887 25997.2 -03466.1 -07.5943 26227.2
 11 07 2013  16 58  -21.0890 25996.9 -03466.1 -07.5943 26227.0
 11 07 2013  16 59  -21.0890 25996.9 -03466.2 -07.5945 26226.9
 11 07 2013  17 00  -21.0892 25997.0 -03466.3 -07.5947 26227.0
 11 07 2013  17 01  -21.0891 25996.6 -03466.2 -07.5947 26226.7
 11 07 2013  17 02  -21.0890 25996.5 -03466.2 -07.5946 26226.6
 11 07 2013  17 03  -21.0889 25996.5 -03466.2 -07.5947 26226.5
 11 07 2013  17 04  -21.0888 25996.5 -03466.3 -07.5948 26226.6
 11 07 2013  17 05  -21.0886 25996.4 -03466.3 -07.5948 26226.4
 11 07 2013  17 06  -21.0884 25996.2 -03466.3 -07.5948 26226.3
 11 07 2013  17 07  -21.0877 25995.8 -03466.1 -07.5947 26225.8
 11 07 2013  17 08  -21.0870 25995.4 -03466.0 -07.5946 26225.4
 11 07 2013  17 09  -21.0864 25995.1 -03466.1 -07.5947 26225.1
 11 07 2013  17 10  -21.0868 25994.9 -03466.2 -07.5951 26225.0
 11 07 2013  17 11  -21.0864 25994.5 -03466.2 -07.5952 26224.5
 11 07 2013  17 12  -21.0860 25994.0 -03466.2 -07.5953 26224.1
 11 07 2013  17 13  -21.0860 25993.9 -03466.3 -07.5957 26224.0
 11 07 2013  17 14  -21.0856 25993.7 -03466.4 -07.5959 26223.8
 11 07 2013  17 15  -21.0847 25993.4 -03466.5 -07.5962 26223.5
 11 07 2013  17 16  -21.0838 25993.2 -03466.6 -07.5965 26223.3
 11 07 2013  17 17  -21.0823 25992.6 -03466.6 -07.5966 26222.8
 11 07 2013  17 18  -21.0810 25991.9 -03466.6 -07.5969 26222.1
 11 07 2013  17 19  -21.0798 25991.8 -03466.9 -07.5976 26222.0
 11 07 2013  17 20  -21.0789 25991.3 -03467.1 -07.5980 26221.5
 11 07 2013  17 21  -21.0774 25990.1 -03466.9 -07.5980 26220.3
 11 07 2013  17 22  -21.0761 25989.0 -03466.9 -07.5983 26219.2
 11 07 2013  17 23  -21.0747 25988.1 -03467.0 -07.5988 26218.3
 11 07 2013  17 24  -21.0734 25987.0 -03467.2 -07.5995 26217.3
 11 07 2013  17 25  -21.0725 25986.1 -03467.4 -07.6002 26216.4
 11 07 2013  17 26  -21.0714 25985.0 -03467.5 -07.6009 26215.4
 11 07 2013  17 27  -21.0708 25984.5 -03467.9 -07.6018 26214.8
 11 07 2013  17 28  -21.0705 25984.2 -03468.4 -07.6029 26214.7
 11 07 2013  17 29  -21.0697 25983.9 -03468.7 -07.6037 26214.4
 11 07 2013  17 30  -21.0687 25983.6 -03469.0 -07.6045 26214.2
 11 07 2013  17 31  -21.0673 25983.3 -03469.3 -07.6052 26213.9
 11 07 2013  17 32  -21.0661 25983.0 -03469.6 -07.6060 26213.7
 11 07 2013  17 33  -21.0655 25983.3 -03470.2 -07.6071 26214.0
 11 07 2013  17 34  -21.0652 25983.7 -03470.7 -07.6082 26214.5
 11 07 2013  17 35  -21.0649 25984.2 -03471.2 -07.6089 26215.0
 11 07 2013  17 36  -21.0658 25985.6 -03471.9 -07.6101 26216.5
 11 07 2013  17 37  -21.0659 25986.4 -03472.1 -07.6104 26217.4
 11 07 2013  17 38  -21.0656 25987.1 -03472.2 -07.6104 26218.1
 11 07 2013  17 39  -21.0652 25987.7 -03472.2 -07.6103 26218.6
 11 07 2013  17 40  -21.0646 25988.0 -03472.2 -07.6101 26218.9
 11 07 2013  17 41  -21.0638 25988.2 -03472.1 -07.6099 26219.1
 11 07 2013  17 42  -21.0628 25988.4 -03472.1 -07.6098 26219.3
 11 07 2013  17 43  -21.0618 25988.8 -03472.2 -07.6099 26219.7
 11 07 2013  17 44  -21.0609 25989.0 -03472.2 -07.6099 26219.9
 11 07 2013  17 45  -21.0602 25989.2 -03472.2 -07.6098 26220.2
 11 07 2013  17 46  -21.0594 25989.5 -03472.2 -07.6098 26220.4
 11 07 2013  17 47  -21.0589 25989.6 -03472.3 -07.6097 26220.6
 11 07 2013  17 48  -21.0590 25990.0 -03472.4 -07.6099 26220.9
 11 07 2013  17 49  -21.0589 25990.2 -03472.4 -07.6098 26221.2
 11 07 2013  17 50  -21.0587 25990.5 -03472.4 -07.6098 26221.4
 11 07 2013  17 51  -21.0588 25990.5 -03472.3 -07.6097 26221.4
 11 07 2013  17 52  -21.0584 25990.3 -03472.2 -07.6095 26221.2
 11 07 2013  17 53  -21.0585 25990.4 -03472.2 -07.6095 26221.3
 11 07 2013  17 54  -21.0580 25990.1 -03472.1 -07.6093 26221.0
 11 07 2013  17 55  -21.0574 25989.5 -03471.9 -07.6091 26220.4
 11 07 2013  17 56  -21.0568 25988.8 -03471.7 -07.6089 26219.6
 11 07 2013  17 57  -21.0561 25988.1 -03471.7 -07.6089 26219.0
 11 07 2013  17 58  -21.0557 25987.5 -03471.7 -07.6091 26218.4
 11 07 2013  17 59  -21.0549 25986.9 -03471.6 -07.6092 26217.8
 11 07 2013  18 00  -21.0551 25987.2 -03472.0 -07.6100 26218.1
 11 07 2013  18 01  -21.0554 25987.6 -03472.4 -07.6107 26218.6
 11 07 2013  18 02  -21.0554 25987.9 -03472.6 -07.6110 26218.9
 11 07 2013  18 03  -21.0554 25988.0 -03472.7 -07.6112 26219.0
 11 07 2013  18 04  -21.0555 25988.1 -03472.8 -07.6113 26219.1
 11 07 2013  18 05  -21.0557 25988.1 -03472.8 -07.6114 26219.1
 11 07 2013  18 06  -21.0558 25988.1 -03472.8 -07.6114 26219.1
 11 07 2013  18 07  -21.0563 25988.3 -03472.9 -07.6116 26219.3
 11 07 2013  18 08  -21.0567 25988.6 -03473.1 -07.6118 26219.6
 11 07 2013  18 09  -21.0567 25988.6 -03473.0 -07.6117 26219.7
 11 07 2013  18 10  -21.0566 25988.7 -03473.0 -07.6117 26219.8
 11 07 2013  18 11  -21.0565 25988.8 -03473.0 -07.6116 26219.8
 11 07 2013  18 12  -21.0568 25989.0 -03473.1 -07.6117 26220.1
 11 07 2013  18 13  -21.0570 25989.4 -03473.2 -07.6118 26220.4
 11 07 2013  18 14  -21.0576 25989.8 -03473.4 -07.6121 26220.9
 11 07 2013  18 15  -21.0582 25990.3 -03473.5 -07.6122 26221.3
 11 07 2013  18 16  -21.0584 25990.2 -03473.3 -07.6117 26221.3
 11 07 2013  18 17  -21.0583 25989.8 -03473.0 -07.6113 26220.9
 11 07 2013  18 18  -21.0587 25989.7 -03472.8 -07.6110 26220.7
 11 07 2013  18 19  -21.0590 25989.5 -03472.7 -07.6108 26220.5
 11 07 2013  18 20  -21.0593 25989.3 -03472.6 -07.6106 26220.2
 11 07 2013  18 21  -21.0598 25989.3 -03472.6 -07.6106 26220.3
 11 07 2013  18 22  -21.0598 25989.2 -03472.6 -07.6106 26220.2
 11 07 2013  18 23  -21.0595 25988.8 -03472.5 -07.6105 26219.8
 11 07 2013  18 24  -21.0595 25988.5 -03472.4 -07.6104 26219.5
 11 07 2013  18 25  -21.0601 25988.5 -03472.5 -07.6106 26219.5
 11 07 2013  18 26  -21.0609 25988.7 -03472.6 -07.6107 26219.7
 11 07 2013  18 27  -21.0613 25988.6 -03472.5 -07.6106 26219.5
 11 07 2013  18 28  -21.0615 25988.1 -03472.3 -07.6102 26219.0
 11 07 2013  18 29  -21.0614 25987.5 -03472.0 -07.6097 26218.4
 11 07 2013  18 30  -21.0614 25987.0 -03471.7 -07.6094 26217.9
 11 07 2013  18 31  -21.0610 25986.6 -03471.6 -07.6092 26217.5
 11 07 2013  18 32  -21.0610 25986.6 -03471.6 -07.6092 26217.5
 11 07 2013  18 33  -21.0612 25986.9 -03471.7 -07.6093 26217.8
 11 07 2013  18 34  -21.0618 25987.5 -03471.9 -07.6095 26218.4
 11 07 2013  18 35  -21.0625 25988.1 -03472.0 -07.6096 26219.0
 11 07 2013  18 36  -21.0632 25988.7 -03472.0 -07.6095 26219.6
 11 07 2013  18 37  -21.0640 25989.4 -03472.1 -07.6094 26220.3
 11 07 2013  18 38  -21.0653 25990.4 -03472.2 -07.6093 26221.4
 11 07 2013  18 39  -21.0665 25991.2 -03472.1 -07.6090 26222.1
 11 07 2013  18 40  -21.0678 25991.8 -03471.9 -07.6084 26222.7
 11 07 2013  18 41  -21.0692 25992.4 -03471.6 -07.6076 26223.2
 11 07 2013  18 42  -21.0703 25992.9 -03471.3 -07.6068 26223.6
 11 07 2013  18 43  -21.0715 25993.5 -03471.1 -07.6060 26224.2
 11 07 2013  18 44  -21.0729 25994.1 -03470.8 -07.6052 26224.8
 11 07 2013  18 45  -21.0736 25994.5 -03470.4 -07.6042 26225.1
 11 07 2013  18 46  -21.0742 25994.8 -03469.9 -07.6032 26225.3
 11 07 2013  18 47  -21.0748 25995.0 -03469.5 -07.6022 26225.5
 11 07 2013  18 48  -21.0750 25995.0 -03469.0 -07.6012 26225.5
 11 07 2013  18 49  -21.0748 25994.8 -03468.5 -07.6000 26225.2
 11 07 2013  18 50  -21.0756 25995.4 -03468.3 -07.5996 26225.8
 11 07 2013  18 51  -21.0763 25996.1 -03468.2 -07.5992 26226.4
 11 07 2013  18 52  -21.0773 25996.7 -03468.0 -07.5985 26227.0
 11 07 2013  18 53  -21.0780 25997.1 -03467.7 -07.5976 26227.4
 11 07 2013  18 54  -21.0782 25997.3 -03467.2 -07.5966 26227.5
 11 07 2013  18 55  -21.0784 25997.3 -03466.7 -07.5955 26227.4
 11 07 2013  18 56  -21.0789 25997.6 -03466.4 -07.5948 26227.7
 11 07 2013  18 57  -21.0796 25998.1 -03466.2 -07.5942 26228.1
 11 07 2013  18 58  -21.0803 25998.4 -03465.9 -07.5935 26228.4
 11 07 2013  18 59  -21.0808 25998.7 -03465.6 -07.5927 26228.7
 11 07 2013  19 00  -21.0809 25998.9 -03465.2 -07.5917 26228.8
 11 07 2013  19 01  -21.0807 25998.8 -03464.7 -07.5906 26228.7
 11 07 2013  19 02  -21.0809 25999.1 -03464.4 -07.5899 26228.9
 11 07 2013  19 03  -21.0808 25999.2 -03464.0 -07.5891 26229.0
 11 07 2013  19 04  -21.0808 25999.3 -03463.6 -07.5883 26229.0
 11 07 2013  19 05  -21.0809 25999.1 -03463.2 -07.5874 26228.8
 11 07 2013  19 06  -21.0811 25999.1 -03462.9 -07.5866 26228.7
 11 07 2013  19 07  -21.0814 25999.2 -03462.6 -07.5860 26228.7
 11 07 2013  19 08  -21.0816 25999.0 -03462.2 -07.5853 26228.5
 11 07 2013  19 09  -21.0817 25998.9 -03461.9 -07.5847 26228.3
 11 07 2013  19 10  -21.0817 25998.5 -03461.6 -07.5840 26228.0
 11 07 2013  19 11  -21.0816 25998.2 -03461.2 -07.5833 26227.5
 11 07 2013  19 12  -21.0816 25997.8 -03460.9 -07.5828 26227.1
 11 07 2013  19 13  -21.0818 25997.6 -03460.8 -07.5825 26227.0
 11 07 2013  19 14  -21.0818 25997.5 -03460.6 -07.5822 26226.8
 11 07 2013  19 15  -21.0819 25997.3 -03460.4 -07.5819 26226.6
 11 07 2013  19 16  -21.0820 25997.2 -03460.3 -07.5816 26226.5
 11 07 2013  19 17  -21.0820 25997.1 -03460.1 -07.5813 26226.4
 11 07 2013  19 18  -21.0820 25997.1 -03460.0 -07.5810 26226.3
 11 07 2013  19 19  -21.0822 25997.1 -03459.9 -07.5808 26226.3
 11 07 2013  19 20  -21.0821 25996.8 -03459.7 -07.5804 26226.0
 11 07 2013  19 21  -21.0822 25996.7 -03459.5 -07.5800 26225.8
 11 07 2013  19 22  -21.0823 25996.4 -03459.3 -07.5797 26225.6
 11 07 2013  19 23  -21.0826 25996.4 -03459.2 -07.5795 26225.5
 11 07 2013  19 24  -21.0830 25996.3 -03459.1 -07.5794 26225.5
 11 07 2013  19 25  -21.0830 25996.2 -03459.0 -07.5791 26225.3
 11 07 2013  19 26  -21.0832 25996.1 -03458.8 -07.5788 26225.2
 11 07 2013  19 27  -21.0864 25995.5 -03458.4 -07.5781 26224.6
 11 07 2013  19 28  -21.0873 25995.4 -03458.4 -07.5781 26224.5
 11 07 2013  19 29  -21.0875 25995.3 -03458.3 -07.5778 26224.3
 11 07 2013  19 30  -21.0874 25995.0 -03458.1 -07.5774 26224.1
 11 07 2013  19 31  -21.0872 25995.0 -03457.8 -07.5769 26224.0
 11 07 2013  19 32  -21.0868 25994.8 -03457.6 -07.5764 26223.8
 11 07 2013  19 33  -21.0868 25994.6 -03457.4 -07.5761 26223.6
 11 07 2013  19 34  -21.0868 25994.5 -03457.2 -07.5758 26223.4
 11 07 2013  19 35  -21.0852 25995.0 -03457.4 -07.5760 26223.9
 11 07 2013  19 36  -21.0841 25995.6 -03457.6 -07.5763 26224.5
 11 07 2013  19 37  -21.0841 25995.5 -03457.4 -07.5759 26224.4
 11 07 2013  19 38  -21.0840 25995.2 -03457.2 -07.5754 26224.1
 11 07 2013  19 39  -21.0839 25995.0 -03457.0 -07.5751 26223.8
 11 07 2013  19 40  -21.0842 25994.9 -03456.9 -07.5749 26223.7
 11 07 2013  19 41  -21.0844 25994.8 -03456.7 -07.5746 26223.6
 11 07 2013  19 42  -21.0842 25994.4 -03456.6 -07.5744 26223.2
 11 07 2013  19 43  -21.0846 25994.4 -03456.5 -07.5743 26223.2
 11 07 2013  19 44  -21.0846 25994.2 -03456.4 -07.5740 26222.9
 11 07 2013  19 45  -21.0842 25993.7 -03456.1 -07.5735 26222.4
 11 07 2013  19 46  -21.0846 25993.8 -03456.1 -07.5736 26222.5
 11 07 2013  19 47  -21.0853 25994.0 -03456.2 -07.5736 26222.8
 11 07 2013  19 48  -21.0853 25994.0 -03456.1 -07.5735 26222.8
 11 07 2013  19 49  -21.0854 25994.1 -03456.0 -07.5732 26222.8
 11 07 2013  19 50  -21.0859 25994.2 -03456.0 -07.5731 26222.9
 11 07 2013  19 51  -21.0865 25994.3 -03455.9 -07.5730 26223.1
 11 07 2013  19 52  -21.0869 25994.6 -03455.9 -07.5729 26223.3
 11 07 2013  19 53  -21.0873 25995.1 -03456.0 -07.5730 26223.9
 11 07 2013  19 54  -21.0878 25995.6 -03456.2 -07.5732 26224.4
 11 07 2013  19 55  -21.0881 25996.0 -03456.3 -07.5734 26224.8
 11 07 2013  19 56  -21.0896 25996.5 -03456.4 -07.5734 26225.2
 11 07 2013  19 57  -21.0900 25997.1 -03456.4 -07.5732 26225.8
 11 07 2013  19 58  -21.0899 25997.4 -03456.2 -07.5728 26226.1
 11 07 2013  19 59  -21.0899 25997.1 -03455.9 -07.5721 26225.8
 11 07 2013  20 00  -21.0895 25996.8 -03455.6 -07.5715 26225.5
 11 07 2013  20 01  -21.0892 25996.9 -03455.5 -07.5713 26225.5
 11 07 2013  20 02  -21.0890 25996.7 -03455.3 -07.5710 26225.3
 11 07 2013  20 03  -21.0891 25996.9 -03455.4 -07.5711 26225.5
 11 07 2013  20 04  -21.0889 25996.4 -03455.2 -07.5708 26225.0
 11 07 2013  20 05  -21.0887 25995.5 -03454.8 -07.5703 26224.0
 11 07 2013  20 06  -21.0885 25995.0 -03454.6 -07.5700 26223.5
 11 07 2013  20 07  -21.0884 25994.5 -03454.5 -07.5700 26223.0
 11 07 2013  20 08  -21.0887 25994.2 -03454.4 -07.5698 26222.7
 11 07 2013  20 09  -21.0886 25994.1 -03454.4 -07.5698 26222.7
 11 07 2013  20 10  -21.0885 25993.7 -03454.3 -07.5696 26222.2
 11 07 2013  20 11  -21.0885 25993.5 -03454.2 -07.5695 26222.0
 11 07 2013  20 12  -21.0891 25994.1 -03454.6 -07.5701 26222.7
 11 07 2013  20 13  -21.0900 25995.2 -03455.0 -07.5708 26223.8
 11 07 2013  20 14  -21.0910 25996.5 -03455.5 -07.5715 26225.1
 11 07 2013  20 15  -21.0911 25997.3 -03455.7 -07.5718 26226.0
 11 07 2013  20 16  -21.0914 25998.6 -03456.1 -07.5722 26227.3
 11 07 2013  20 17  -21.0919 25999.9 -03456.5 -07.5727 26228.6
 11 07 2013  20 18  -21.0927 26001.4 -03457.0 -07.5732 26230.2
 11 07 2013  20 19  -21.0933 26002.7 -03457.3 -07.5736 26231.6
 11 07 2013  20 20  -21.0939 26004.1 -03457.7 -07.5740 26233.0
 11 07 2013  20 21  -21.0946 26005.5 -03458.1 -07.5744 26234.4
 11 07 2013  20 22  -21.0951 26006.5 -03458.2 -07.5744 26235.4
 11 07 2013  20 23  -21.0954 26007.2 -03458.2 -07.5742 26236.1
 11 07 2013  20 24  -21.0951 26008.0 -03458.2 -07.5740 26236.9
 11 07 2013  20 25  -21.0945 26009.0 -03458.3 -07.5739 26237.9
 11 07 2013  20 26  -21.0936 26009.5 -03458.2 -07.5735 26238.4
 11 07 2013  20 27  -21.0925 26009.9 -03458.1 -07.5731 26238.7
 11 07 2013  20 28  -21.0910 26009.9 -03457.8 -07.5726 26238.7
 11 07 2013  20 29  -21.0894 26009.7 -03457.5 -07.5720 26238.5
 11 07 2013  20 30  -21.0878 26009.4 -03457.3 -07.5716 26238.2
 11 07 2013  20 31  -21.0859 26008.9 -03457.0 -07.5712 26237.7
 11 07 2013  20 32  -21.0840 26008.4 -03456.8 -07.5708 26237.1
 11 07 2013  20 33  -21.0823 26007.9 -03456.6 -07.5706 26236.6
 11 07 2013  20 34  -21.0806 26007.4 -03456.5 -07.5705 26236.0
 11 07 2013  20 35  -21.0791 26006.7 -03456.3 -07.5704 26235.3
 11 07 2013  20 36  -21.0774 26006.0 -03456.2 -07.5703 26234.7
 11 07 2013  20 37  -21.0754 26005.2 -03456.0 -07.5701 26233.8
 11 07 2013  20 38  -21.0734 26004.1 -03455.8 -07.5699 26232.8
 11 07 2013  20 39  -21.0715 26003.1 -03455.6 -07.5698 26231.7
 11 07 2013  20 40  -21.0698 26002.3 -03455.6 -07.5700 26230.9
 11 07 2013  20 41  -21.0683 26001.7 -03455.7 -07.5704 26230.3
 11 07 2013  20 42  -21.0670 26001.2 -03455.8 -07.5708 26229.8
 11 07 2013  20 43  -21.0659 26000.8 -03456.0 -07.5713 26229.5
 11 07 2013  20 44  -21.0649 26000.6 -03456.2 -07.5719 26229.3
 11 07 2013  20 45  -21.0641 26000.3 -03456.4 -07.5724 26229.1
 11 07 2013  20 46  -21.0635 26000.1 -03456.6 -07.5728 26228.9
 11 07 2013  20 47  -21.0628 25999.8 -03456.7 -07.5732 26228.5
 11 07 2013  20 48  -21.0622 25999.4 -03456.9 -07.5736 26228.2
 11 07 2013  20 49  -21.0614 25998.9 -03456.8 -07.5737 26227.7
 11 07 2013  20 50  -21.0605 25998.3 -03456.9 -07.5739 26227.1
 11 07 2013  20 51  -21.0596 25997.8 -03456.9 -07.5742 26226.6
 11 07 2013  20 52  -21.0590 25997.1 -03456.9 -07.5744 26226.0
 11 07 2013  20 53  -21.0589 25996.6 -03457.0 -07.5748 26225.4
 11 07 2013  20 54  -21.0590 25996.3 -03457.3 -07.5754 26225.2
 11 07 2013  20 55  -21.0593 25996.1 -03457.5 -07.5760 26225.0
 11 07 2013  20 56  -21.0597 25996.0 -03457.8 -07.5765 26225.0
 11 07 2013  20 57  -21.0604 25996.1 -03458.1 -07.5772 26225.1
 11 07 2013  20 58  -21.0610 25996.3 -03458.4 -07.5779 26225.4
 11 07 2013  20 59  -21.0614 25996.5 -03458.7 -07.5784 26225.6
 11 07 2013  21 00  -21.0617 25996.9 -03459.1 -07.5790 26226.0
 11 07 2013  21 01  -21.0620 25997.4 -03459.4 -07.5796 26226.5
 11 07 2013  21 02  -21.0620 25997.8 -03459.6 -07.5800 26227.0
 11 07 2013  21 03  -21.0620 25998.2 -03459.8 -07.5804 26227.4
 11 07 2013  21 04  -21.0619 25998.4 -03460.0 -07.5806 26227.7
 11 07 2013  21 05  -21.0619 25998.9 -03460.2 -07.5809 26228.1
 11 07 2013  21 06  -21.0622 25999.4 -03460.4 -07.5812 26228.7
 11 07 2013  21 07  -21.0624 25999.9 -03460.6 -07.5815 26229.2
 11 07 2013  21 08  -21.0628 26000.2 -03460.7 -07.5817 26229.5
 11 07 2013  21 09  -21.0631 26000.4 -03460.8 -07.5817 26229.7
 11 07 2013  21 10  -21.0635 26000.5 -03460.7 -07.5816 26229.8
 11 07 2013  21 11  -21.0639 26000.7 -03460.7 -07.5816 26230.0
 11 07 2013  21 12  -21.0642 26000.9 -03460.7 -07.5815 26230.2
 11 07 2013  21 13  -21.0644 26001.0 -03460.7 -07.5813 26230.2
 11 07 2013  21 14  -21.0644 26001.0 -03460.6 -07.5811 26230.2
 11 07 2013  21 15  -21.0644 26000.9 -03460.4 -07.5809 26230.2
 11 07 2013  21 16  -21.0644 26000.9 -03460.4 -07.5809 26230.1
 11 07 2013  21 17  -21.0644 26000.7 -03460.3 -07.5807 26230.0
 11 07 2013  21 18  -21.0644 26000.6 -03460.2 -07.5805 26229.8
 11 07 2013  21 19  -21.0643 26000.6 -03460.2 -07.5804 26229.9
 11 07 2013  21 20  -21.0643 26000.6 -03460.2 -07.5804 26229.8
 11 07 2013  21 21  -21.0643 26000.7 -03460.2 -07.5805 26229.9
 11 07 2013  21 22  -21.0643 26000.8 -03460.3 -07.5806 26230.1
 11 07 2013  21 23  -21.0643 26001.0 -03460.4 -07.5807 26230.3
 11 07 2013  21 24  -21.0643 26001.2 -03460.4 -07.5808 26230.4
 11 07 2013  21 25  -21.0642 26001.4 -03460.5 -07.5809 26230.6
 11 07 2013  21 26  -21.0643 26001.6 -03460.6 -07.5811 26230.9
 11 07 2013  21 27  -21.0644 26001.8 -03460.7 -07.5812 26231.1
 11 07 2013  21 28  -21.0645 26002.0 -03460.8 -07.5813 26231.3
 11 07 2013  21 29  -21.0646 26002.1 -03460.8 -07.5814 26231.4
 11 07 2013  21 30  -21.0648 26002.2 -03460.9 -07.5815 26231.5
 11 07 2013  21 31  -21.0649 26002.3 -03460.9 -07.5815 26231.6
 11 07 2013  21 32  -21.0649 26002.3 -03460.9 -07.5815 26231.7
 11 07 2013  21 33  -21.0649 26002.4 -03460.9 -07.5814 26231.7
 11 07 2013  21 34  -21.0651 26002.4 -03460.8 -07.5813 26231.7
 11 07 2013  21 35  -21.0651 26002.4 -03460.8 -07.5812 26231.7
 11 07 2013  21 36  -21.0651 26002.4 -03460.8 -07.5812 26231.7
 11 07 2013  21 37  -21.0651 26002.4 -03460.8 -07.5813 26231.7
 11 07 2013  21 38  -21.0650 26002.5 -03460.8 -07.5813 26231.8
 11 07 2013  21 39  -21.0651 26002.4 -03460.8 -07.5813 26231.7
 11 07 2013  21 40  -21.0652 26002.5 -03460.8 -07.5813 26231.8
 11 07 2013  21 41  -21.0653 26002.6 -03460.9 -07.5814 26231.9
 11 07 2013  21 42  -21.0652 26002.7 -03460.9 -07.5814 26232.0
 11 07 2013  21 43  -21.0653 26002.8 -03460.9 -07.5813 26232.1
 11 07 2013  21 44  -21.0652 26002.7 -03460.9 -07.5813 26232.0
 11 07 2013  21 45  -21.0650 26002.8 -03460.9 -07.5813 26232.1
 11 07 2013  21 46  -21.0650 26002.9 -03460.9 -07.5814 26232.2
 11 07 2013  21 47  -21.0649 26002.9 -03460.9 -07.5814 26232.2
 11 07 2013  21 48  -21.0647 26002.9 -03460.9 -07.5813 26232.2
 11 07 2013  21 49  -21.0648 26002.9 -03460.9 -07.5813 26232.2
 11 07 2013  21 50  -21.0647 26002.9 -03460.9 -07.5812 26232.2
 11 07 2013  21 51  -21.0646 26002.9 -03460.8 -07.5811 26232.2
 11 07 2013  21 52  -21.0645 26002.8 -03460.7 -07.5810 26232.1
 11 07 2013  21 53  -21.0645 26002.8 -03460.7 -07.5809 26232.1
 11 07 2013  21 54  -21.0646 26002.8 -03460.8 -07.5810 26232.1
 11 07 2013  21 55  -21.0647 26002.9 -03460.8 -07.5811 26232.1
 11 07 2013  21 56  -21.0646 26002.8 -03460.8 -07.5810 26232.1
 11 07 2013  21 57  -21.0646 26002.8 -03460.7 -07.5810 26232.1
 11 07 2013  21 58  -21.0646 26002.8 -03460.7 -07.5809 26232.1
 11 07 2013  21 59  -21.0646 26002.8 -03460.7 -07.5809 26232.1
 11 07 2013  22 00  -21.0645 26002.7 -03460.7 -07.5809 26232.0
 11 07 2013  22 01  -21.0647 26002.6 -03460.6 -07.5807 26231.9
 11 07 2013  22 02  -21.0648 26002.7 -03460.6 -07.5807 26232.0
 11 07 2013  22 03  -21.0645 26002.7 -03460.6 -07.5807 26232.0
 11 07 2013  22 04  -21.0643 26002.7 -03460.6 -07.5806 26231.9
 11 07 2013  22 05  -21.0641 26002.6 -03460.5 -07.5805 26231.9
 11 07 2013  22 06  -21.0640 26002.6 -03460.5 -07.5805 26231.9
 11 07 2013  22 07  -21.0643 26002.7 -03460.5 -07.5805 26231.9
 11 07 2013  22 08  -21.0648 26002.7 -03460.5 -07.5806 26232.0
 11 07 2013  22 09  -21.0647 26002.7 -03460.5 -07.5806 26232.0
 11 07 2013  22 10  -21.0648 26002.7 -03460.5 -07.5804 26231.9
 11 07 2013  22 11  -21.0649 26002.6 -03460.4 -07.5803 26231.9
 11 07 2013  22 12  -21.0649 26002.6 -03460.4 -07.5803 26231.9
 11 07 2013  22 13  -21.0651 26002.7 -03460.4 -07.5803 26232.0
 11 07 2013  22 14  -21.0653 26002.7 -03460.4 -07.5803 26231.9
 11 07 2013  22 15  -21.0653 26002.7 -03460.3 -07.5802 26231.9
 11 07 2013  22 16  -21.0652 26002.6 -03460.3 -07.5801 26231.8
 11 07 2013  22 17  -21.0653 26002.5 -03460.2 -07.5800 26231.7
 11 07 2013  22 18  -21.0653 26002.5 -03460.2 -07.5798 26231.7
 11 07 2013  22 19  -21.0652 26002.5 -03460.2 -07.5798 26231.7
 11 07 2013  22 20  -21.0650 26002.4 -03460.1 -07.5797 26231.6
 11 07 2013  22 21  -21.0652 26002.2 -03460.0 -07.5795 26231.4
 11 07 2013  22 22  -21.0655 26002.1 -03460.0 -07.5795 26231.3
 11 07 2013  22 23  -21.0657 26001.9 -03459.9 -07.5794 26231.0
 11 07 2013  22 24  -21.0662 26001.8 -03459.8 -07.5793 26231.0
 11 07 2013  22 25  -21.0663 26001.7 -03459.8 -07.5792 26230.9
 11 07 2013  22 26  -21.0664 26001.6 -03459.7 -07.5791 26230.7
 11 07 2013  22 27  -21.0666 26001.5 -03459.7 -07.5790 26230.6
 11 07 2013  22 28  -21.0668 26001.6 -03459.7 -07.5791 26230.7
 11 07 2013  22 29  -21.0668 26001.5 -03459.7 -07.5791 26230.7
 11 07 2013  22 30  -21.0669 26001.5 -03459.6 -07.5790 26230.6
 11 07 2013  22 31  -21.0670 26001.5 -03459.6 -07.5789 26230.6
 11 07 2013  22 32  -21.0670 26001.5 -03459.6 -07.5789 26230.6
 11 07 2013  22 33  -21.0669 26001.5 -03459.6 -07.5789 26230.7
 11 07 2013  22 34  -21.0668 26001.5 -03459.6 -07.5788 26230.6
 11 07 2013  22 35  -21.0668 26001.4 -03459.5 -07.5788 26230.5
 11 07 2013  22 36  -21.0667 26001.3 -03459.5 -07.5788 26230.5
 11 07 2013  22 37  -21.0666 26001.3 -03459.5 -07.5787 26230.5
 11 07 2013  22 38  -21.0662 26001.4 -03459.5 -07.5787 26230.5
 11 07 2013  22 39  -21.0659 26001.4 -03459.5 -07.5788 26230.5
 11 07 2013  22 40  -21.0656 26001.4 -03459.6 -07.5788 26230.6
 11 07 2013  22 41  -21.0654 26001.5 -03459.6 -07.5789 26230.6
 11 07 2013  22 42  -21.0651 26001.5 -03459.6 -07.5789 26230.6
 11 07 2013  22 43  -21.0648 26001.4 -03459.6 -07.5789 26230.6
 11 07 2013  22 44  -21.0645 26001.4 -03459.5 -07.5788 26230.5
 11 07 2013  22 45  -21.0643 26001.3 -03459.5 -07.5788 26230.5
 11 07 2013  22 46  -21.0643 26001.4 -03459.6 -07.5790 26230.6
 11 07 2013  22 47  -21.0642 26001.5 -03459.7 -07.5791 26230.6
 11 07 2013  22 48  -21.0641 26001.5 -03459.7 -07.5792 26230.7
 11 07 2013  22 49  -21.0644 26001.5 -03459.8 -07.5793 26230.7
 11 07 2013  22 50  -21.0645 26001.6 -03459.8 -07.5794 26230.8
 11 07 2013  22 51  -21.0646 26001.6 -03459.8 -07.5794 26230.8
 11 07 2013  22 52  -21.0646 26001.5 -03459.8 -07.5792 26230.7
 11 07 2013  22 53  -21.0644 26001.5 -03459.7 -07.5792 26230.7
 11 07 2013  22 54  -21.0642 26001.4 -03459.7 -07.5791 26230.6
 11 07 2013  22 55  -21.0642 26001.4 -03459.7 -07.5791 26230.5
 11 07 2013  22 56  -21.0640 26001.4 -03459.7 -07.5790 26230.5
 11 07 2013  22 57  -21.0638 26001.3 -03459.6 -07.5790 26230.5
 11 07 2013  22 58  -21.0636 26001.2 -03459.5 -07.5789 26230.3
 11 07 2013  22 59  -21.0635 26001.1 -03459.5 -07.5788 26230.3
 11 07 2013  23 00  -21.0638 26001.1 -03459.6 -07.5789 26230.2
 11 07 2013  23 01  -21.0639 26001.2 -03459.6 -07.5790 26230.3
 11 07 2013  23 02  -21.0643 26001.2 -03459.6 -07.5791 26230.4
 11 07 2013  23 03  -21.0646 26001.3 -03459.7 -07.5792 26230.5
 11 07 2013  23 04  -21.0648 26001.3 -03459.7 -07.5792 26230.5
 11 07 2013  23 05  -21.0648 26001.4 -03459.7 -07.5792 26230.6
 11 07 2013  23 06  -21.0649 26001.3 -03459.6 -07.5790 26230.4
 11 07 2013  23 07  -21.0650 26001.3 -03459.6 -07.5790 26230.4
 11 07 2013  23 08  -21.0651 26001.2 -03459.6 -07.5789 26230.3
 11 07 2013  23 09  -21.0652 26001.1 -03459.5 -07.5789 26230.3
 11 07 2013  23 10  -21.0650 26001.1 -03459.5 -07.5788 26230.3
 11 07 2013  23 11  -21.0648 26001.2 -03459.5 -07.5787 26230.3
 11 07 2013  23 12  -21.0647 26001.2 -03459.5 -07.5787 26230.3
 11 07 2013  23 13  -21.0645 26001.3 -03459.5 -07.5787 26230.4
 11 07 2013  23 14  -21.0644 26001.3 -03459.5 -07.5787 26230.4
 11 07 2013  23 15  -21.0641 26001.2 -03459.5 -07.5787 26230.3
 11 07 2013  23 16  -21.0639 26001.0 -03459.4 -07.5785 26230.2
 11 07 2013  23 17  -21.0637 26000.9 -03459.3 -07.5785 26230.1
 11 07 2013  23 18  -21.0636 26000.8 -03459.3 -07.5784 26229.9
 11 07 2013  23 19  -21.0637 26000.7 -03459.2 -07.5783 26229.8
 11 07 2013  23 20  -21.0638 26000.6 -03459.2 -07.5783 26229.7
 11 07 2013  23 21  -21.0639 26000.4 -03459.1 -07.5782 26229.5
 11 07 2013  23 22  -21.0641 26000.3 -03459.1 -07.5781 26229.4
 11 07 2013  23 23  -21.0642 26000.3 -03459.1 -07.5782 26229.4
 11 07 2013  23 24  -21.0642 26000.3 -03459.1 -07.5782 26229.4
 11 07 2013  23 25  -21.0641 26000.4 -03459.1 -07.5782 26229.4
 11 07 2013  23 26  -21.0641 26000.4 -03459.1 -07.5782 26229.5
 11 07 2013  23 27  -21.0644 26000.4 -03459.2 -07.5783 26229.6
 11 07 2013  23 28  -21.0646 26000.5 -03459.2 -07.5784 26229.6
 11 07 2013  23 29  -21.0649 26000.6 -03459.3 -07.5784 26229.7
 11 07 2013  23 30  -21.0654 26000.7 -03459.3 -07.5785 26229.8
 11 07 2013  23 31  -21.0656 26000.7 -03459.3 -07.5785 26229.8
 11 07 2013  23 32  -21.0657 26000.7 -03459.3 -07.5784 26229.8
 11 07 2013  23 33  -21.0656 26000.6 -03459.2 -07.5783 26229.8
 11 07 2013  23 34  -21.0655 26000.6 -03459.2 -07.5782 26229.7
 11 07 2013  23 35  -21.0659 26000.7 -03459.2 -07.5782 26229.8
 11 07 2013  23 36  -21.0661 26000.8 -03459.2 -07.5783 26229.9
 11 07 2013  23 37  -21.0662 26000.8 -03459.2 -07.5782 26229.9
 11 07 2013  23 38  -21.0662 26000.8 -03459.1 -07.5781 26229.9
 11 07 2013  23 39  -21.0664 26000.8 -03459.1 -07.5781 26229.8
 11 07 2013  23 40  -21.0667 26000.9 -03459.2 -07.5782 26230.0
 11 07 2013  23 41  -21.0669 26001.0 -03459.3 -07.5783 26230.2
 11 07 2013  23 42  -21.0669 26001.1 -03459.3 -07.5783 26230.2
 11 07 2013  23 43  -21.0668 26001.0 -03459.2 -07.5782 26230.1
 11 07 2013  23 44  -21.0668 26001.1 -03459.2 -07.5781 26230.2
 11 07 2013  23 45  -21.0669 26001.1 -03459.2 -07.5781 26230.2
 11 07 2013  23 46  -21.0668 26001.1 -03459.2 -07.5781 26230.2
 11 07 2013  23 47  -21.0666 26001.2 -03459.2 -07.5780 26230.3
 11 07 2013  23 48  -21.0664 26001.2 -03459.1 -07.5780 26230.3
 11 07 2013  23 49  -21.0662 26001.1 -03459.1 -07.5778 26230.2
 11 07 2013  23 50  -21.0655 26001.0 -03459.0 -07.5777 26230.1
 11 07 2013  23 51  -21.0652 26000.9 -03458.9 -07.5776 26229.9
 11 07 2013  23 52  -21.0650 26000.9 -03458.9 -07.5776 26229.9
 11 07 2013  23 53  -21.0650 26000.7 -03458.9 -07.5776 26229.8
 11 07 2013  23 54  -21.0649 26000.6 -03458.9 -07.5776 26229.7
 11 07 2013  23 55  -21.0648 26000.6 -03458.8 -07.5775 26229.6
 11 07 2013  23 56  -21.0646 26000.4 -03458.8 -07.5775 26229.4
 11 07 2013  23 57  -21.0646 26000.3 -03458.7 -07.5774 26229.3
 11 07 2013  23 58  -21.0649 26000.2 -03458.8 -07.5774 26229.3
 11 07 2013  23 59  -21.0651 26000.2 -03458.8 -07.5776 26229.3
