SAO LUIS EMBRACE-03 <169> 1 Min. Reported data

 DD MM YYYY  HH MM   D(Deg)  H(nT)   Z(nT)   I(Deg)   F(nT)

 18 06 2013  00 00  -21.0274 26032.6 -03452.0 -07.5535 26260.5
 18 06 2013  00 01  -21.0274 26032.6 -03452.0 -07.5535 26260.5
 18 06 2013  00 02  -21.0272 26032.6 -03452.0 -07.5536 26260.5
 18 06 2013  00 03  -21.0270 26032.6 -03452.0 -07.5535 26260.5
 18 06 2013  00 04  -21.0269 26032.4 -03452.0 -07.5535 26260.3
 18 06 2013  00 05  -21.0269 26032.4 -03451.9 -07.5535 26260.2
 18 06 2013  00 06  -21.0269 26032.4 -03452.0 -07.5536 26260.3
 18 06 2013  00 07  -21.0268 26032.4 -03452.0 -07.5536 26260.3
 18 06 2013  00 08  -21.0268 26032.3 -03452.0 -07.5536 26260.2
 18 06 2013  00 09  -21.0268 26032.2 -03452.0 -07.5536 26260.1
 18 06 2013  00 10  -21.0267 26032.3 -03452.0 -07.5537 26260.2
 18 06 2013  00 11  -21.0267 26032.2 -03452.0 -07.5537 26260.1
 18 06 2013  00 12  -21.0267 26032.1 -03452.0 -07.5537 26260.0
 18 06 2013  00 13  -21.0266 26032.2 -03452.0 -07.5536 26260.1
 18 06 2013  00 14  -21.0265 26032.2 -03452.0 -07.5537 26260.1
 18 06 2013  00 15  -21.0264 26032.1 -03452.0 -07.5537 26260.0
 18 06 2013  00 16  -21.0264 26032.1 -03452.0 -07.5537 26260.0
 18 06 2013  00 17  -21.0262 26032.0 -03452.0 -07.5537 26259.9
 18 06 2013  00 18  -21.0261 26032.0 -03452.0 -07.5537 26259.9
 18 06 2013  00 19  -21.0261 26032.0 -03452.0 -07.5538 26259.9
 18 06 2013  00 20  -21.0260 26032.0 -03452.0 -07.5538 26259.9
 18 06 2013  00 21  -21.0260 26032.0 -03452.0 -07.5538 26259.9
 18 06 2013  00 22  -21.0260 26031.9 -03452.1 -07.5538 26259.8
 18 06 2013  00 23  -21.0260 26031.8 -03452.0 -07.5538 26259.7
 18 06 2013  00 24  -21.0260 26031.8 -03452.0 -07.5538 26259.7
 18 06 2013  00 25  -21.0259 26031.8 -03452.0 -07.5537 26259.7
 18 06 2013  00 26  -21.0259 26031.7 -03452.0 -07.5537 26259.5
 18 06 2013  00 27  -21.0260 26031.6 -03451.9 -07.5536 26259.5
 18 06 2013  00 28  -21.0260 26031.6 -03452.0 -07.5537 26259.5
 18 06 2013  00 29  -21.0259 26031.7 -03451.9 -07.5537 26259.5
 18 06 2013  00 30  -21.0258 26031.7 -03452.0 -07.5537 26259.6
 18 06 2013  00 31  -21.0258 26031.6 -03452.0 -07.5537 26259.5
 18 06 2013  00 32  -21.0257 26031.5 -03451.9 -07.5537 26259.4
 18 06 2013  00 33  -21.0256 26031.5 -03451.9 -07.5536 26259.4
 18 06 2013  00 34  -21.0253 26031.4 -03451.8 -07.5535 26259.3
 18 06 2013  00 35  -21.0252 26031.4 -03451.9 -07.5535 26259.2
 18 06 2013  00 36  -21.0250 26031.4 -03451.8 -07.5535 26259.2
 18 06 2013  00 37  -21.0250 26031.3 -03451.8 -07.5535 26259.2
 18 06 2013  00 38  -21.0250 26031.4 -03451.8 -07.5535 26259.2
 18 06 2013  00 39  -21.0251 26031.4 -03451.9 -07.5536 26259.2
 18 06 2013  00 40  -21.0251 26031.4 -03451.9 -07.5537 26259.3
 18 06 2013  00 41  -21.0250 26031.3 -03451.9 -07.5537 26259.2
 18 06 2013  00 42  -21.0249 26031.3 -03451.9 -07.5537 26259.2
 18 06 2013  00 43  -21.0247 26031.3 -03451.9 -07.5537 26259.2
 18 06 2013  00 44  -21.0246 26031.3 -03451.9 -07.5537 26259.2
 18 06 2013  00 45  -21.0244 26031.4 -03452.0 -07.5538 26259.2
 18 06 2013  00 46  -21.0241 26031.3 -03451.9 -07.5537 26259.2
 18 06 2013  00 47  -21.0241 26031.3 -03451.9 -07.5537 26259.1
 18 06 2013  00 48  -21.0241 26031.3 -03452.0 -07.5538 26259.2
 18 06 2013  00 49  -21.0241 26031.3 -03452.0 -07.5538 26259.2
 18 06 2013  00 50  -21.0242 26031.3 -03452.0 -07.5539 26259.2
 18 06 2013  00 51  -21.0244 26031.3 -03452.0 -07.5539 26259.2
 18 06 2013  00 52  -21.0246 26031.4 -03452.0 -07.5539 26259.3
 18 06 2013  00 53  -21.0246 26031.5 -03452.0 -07.5539 26259.4
 18 06 2013  00 54  -21.0245 26031.5 -03452.1 -07.5541 26259.4
 18 06 2013  00 55  -21.0245 26031.5 -03452.1 -07.5540 26259.4
 18 06 2013  00 56  -21.0245 26031.5 -03452.1 -07.5540 26259.4
 18 06 2013  00 57  -21.0246 26031.5 -03452.1 -07.5540 26259.4
 18 06 2013  00 58  -21.0246 26031.6 -03452.1 -07.5541 26259.5
 18 06 2013  00 59  -21.0245 26031.6 -03452.1 -07.5541 26259.5
 18 06 2013  01 00  -21.0245 26031.5 -03452.1 -07.5541 26259.4
 18 06 2013  01 01  -21.0245 26031.5 -03452.1 -07.5540 26259.4
 18 06 2013  01 02  -21.0245 26031.5 -03452.1 -07.5540 26259.4
 18 06 2013  01 03  -21.0246 26031.5 -03452.1 -07.5541 26259.4
 18 06 2013  01 04  -21.0247 26031.6 -03452.1 -07.5541 26259.5
 18 06 2013  01 05  -21.0248 26031.6 -03452.1 -07.5541 26259.5
 18 06 2013  01 06  -21.0248 26031.6 -03452.1 -07.5540 26259.5
 18 06 2013  01 07  -21.0248 26031.6 -03452.1 -07.5540 26259.5
 18 06 2013  01 08  -21.0247 26031.6 -03452.1 -07.5540 26259.5
 18 06 2013  01 09  -21.0247 26031.5 -03452.0 -07.5539 26259.4
 18 06 2013  01 10  -21.0245 26031.5 -03452.0 -07.5538 26259.4
 18 06 2013  01 11  -21.0243 26031.6 -03452.1 -07.5539 26259.5
 18 06 2013  01 12  -21.0242 26031.7 -03452.1 -07.5540 26259.6
 18 06 2013  01 13  -21.0242 26031.7 -03452.1 -07.5539 26259.6
 18 06 2013  01 14  -21.0241 26031.7 -03452.1 -07.5541 26259.6
 18 06 2013  01 15  -21.0240 26031.7 -03452.1 -07.5540 26259.6
 18 06 2013  01 16  -21.0240 26031.7 -03452.1 -07.5540 26259.5
 18 06 2013  01 17  -21.0241 26031.6 -03452.1 -07.5540 26259.5
 18 06 2013  01 18  -21.0242 26031.6 -03452.1 -07.5540 26259.5
 18 06 2013  01 19  -21.0241 26031.6 -03452.1 -07.5540 26259.5
 18 06 2013  01 20  -21.0240 26031.6 -03452.1 -07.5539 26259.5
 18 06 2013  01 21  -21.0238 26031.5 -03452.0 -07.5538 26259.4
 18 06 2013  01 22  -21.0237 26031.5 -03452.0 -07.5538 26259.3
 18 06 2013  01 23  -21.0238 26031.4 -03452.0 -07.5538 26259.3
 18 06 2013  01 24  -21.0240 26031.3 -03451.9 -07.5537 26259.1
 18 06 2013  01 25  -21.0241 26031.2 -03451.9 -07.5536 26259.0
 18 06 2013  01 26  -21.0241 26031.1 -03451.9 -07.5536 26258.9
 18 06 2013  01 27  -21.0241 26030.9 -03451.8 -07.5535 26258.8
 18 06 2013  01 28  -21.0243 26030.9 -03451.8 -07.5535 26258.7
 18 06 2013  01 29  -21.0244 26030.8 -03451.7 -07.5534 26258.7
 18 06 2013  01 30  -21.0246 26030.7 -03451.7 -07.5534 26258.5
 18 06 2013  01 31  -21.0249 26030.5 -03451.6 -07.5532 26258.3
 18 06 2013  01 32  -21.0249 26030.5 -03451.5 -07.5531 26258.3
 18 06 2013  01 33  -21.0247 26030.4 -03451.5 -07.5532 26258.2
 18 06 2013  01 34  -21.0245 26030.2 -03451.5 -07.5531 26258.1
 18 06 2013  01 35  -21.0242 26030.2 -03451.4 -07.5529 26258.0
 18 06 2013  01 36  -21.0238 26030.1 -03451.4 -07.5529 26257.9
 18 06 2013  01 37  -21.0234 26030.0 -03451.3 -07.5528 26257.8
 18 06 2013  01 38  -21.0232 26029.7 -03451.3 -07.5527 26257.5
 18 06 2013  01 39  -21.0232 26029.6 -03451.3 -07.5528 26257.4
 18 06 2013  01 40  -21.0232 26029.6 -03451.3 -07.5529 26257.4
 18 06 2013  01 41  -21.0234 26029.5 -03451.3 -07.5528 26257.3
 18 06 2013  01 42  -21.0236 26029.5 -03451.3 -07.5529 26257.3
 18 06 2013  01 43  -21.0238 26029.5 -03451.3 -07.5529 26257.3
 18 06 2013  01 44  -21.0238 26029.4 -03451.3 -07.5528 26257.2
 18 06 2013  01 45  -21.0239 26029.3 -03451.2 -07.5528 26257.1
 18 06 2013  01 46  -21.0239 26029.2 -03451.2 -07.5528 26257.0
 18 06 2013  01 47  -21.0240 26029.0 -03451.2 -07.5528 26256.8
 18 06 2013  01 48  -21.0241 26029.0 -03451.2 -07.5528 26256.8
 18 06 2013  01 49  -21.0242 26029.0 -03451.2 -07.5527 26256.8
 18 06 2013  01 50  -21.0242 26028.9 -03451.1 -07.5527 26256.7
 18 06 2013  01 51  -21.0242 26028.9 -03451.1 -07.5527 26256.7
 18 06 2013  01 52  -21.0242 26028.8 -03451.1 -07.5526 26256.6
 18 06 2013  01 53  -21.0243 26028.7 -03451.0 -07.5526 26256.5
 18 06 2013  01 54  -21.0243 26028.6 -03451.0 -07.5525 26256.4
 18 06 2013  01 55  -21.0245 26028.6 -03451.0 -07.5526 26256.3
 18 06 2013  01 56  -21.0245 26028.4 -03451.0 -07.5525 26256.2
 18 06 2013  01 57  -21.0245 26028.3 -03450.9 -07.5523 26256.0
 18 06 2013  01 58  -21.0245 26028.1 -03450.8 -07.5522 26255.8
 18 06 2013  01 59  -21.0245 26028.0 -03450.8 -07.5522 26255.7
 18 06 2013  02 00  -21.0246 26027.9 -03450.8 -07.5522 26255.6
 18 06 2013  02 01  -21.0246 26027.7 -03450.7 -07.5521 26255.5
 18 06 2013  02 02  -21.0246 26027.6 -03450.7 -07.5521 26255.3
 18 06 2013  02 03  -21.0247 26027.5 -03450.6 -07.5520 26255.2
 18 06 2013  02 04  -21.0248 26027.3 -03450.5 -07.5518 26255.0
 18 06 2013  02 05  -21.0250 26027.0 -03450.4 -07.5516 26254.7
 18 06 2013  02 06  -21.0253 26026.8 -03450.3 -07.5515 26254.5
 18 06 2013  02 07  -21.0253 26026.6 -03450.2 -07.5514 26254.3
 18 06 2013  02 08  -21.0254 26026.4 -03450.1 -07.5513 26254.1
 18 06 2013  02 09  -21.0255 26026.3 -03450.1 -07.5513 26254.0
 18 06 2013  02 10  -21.0256 26026.2 -03450.1 -07.5513 26253.9
 18 06 2013  02 11  -21.0256 26026.1 -03450.1 -07.5513 26253.7
 18 06 2013  02 12  -21.0255 26025.9 -03450.1 -07.5513 26253.6
 18 06 2013  02 13  -21.0253 26025.8 -03450.0 -07.5512 26253.5
 18 06 2013  02 14  -21.0251 26025.8 -03450.0 -07.5512 26253.4
 18 06 2013  02 15  -21.0248 26025.6 -03450.0 -07.5511 26253.3
 18 06 2013  02 16  -21.0247 26025.5 -03450.0 -07.5512 26253.2
 18 06 2013  02 17  -21.0249 26025.5 -03450.0 -07.5512 26253.1
 18 06 2013  02 18  -21.0249 26025.3 -03450.0 -07.5512 26253.0
 18 06 2013  02 19  -21.0250 26025.2 -03450.0 -07.5512 26252.9
 18 06 2013  02 20  -21.0250 26025.2 -03450.0 -07.5512 26252.9
 18 06 2013  02 21  -21.0249 26025.1 -03449.9 -07.5512 26252.7
 18 06 2013  02 22  -21.0250 26025.0 -03450.0 -07.5512 26252.7
 18 06 2013  02 23  -21.0251 26025.0 -03450.0 -07.5513 26252.7
 18 06 2013  02 24  -21.0251 26024.9 -03449.9 -07.5512 26252.6
 18 06 2013  02 25  -21.0250 26025.0 -03450.0 -07.5514 26252.7
 18 06 2013  02 26  -21.0250 26025.0 -03450.0 -07.5514 26252.6
 18 06 2013  02 27  -21.0249 26024.8 -03450.0 -07.5514 26252.5
 18 06 2013  02 28  -21.0249 26024.7 -03449.9 -07.5512 26252.3
 18 06 2013  02 29  -21.0250 26024.5 -03449.9 -07.5512 26252.2
 18 06 2013  02 30  -21.0250 26024.5 -03449.9 -07.5512 26252.1
 18 06 2013  02 31  -21.0249 26024.4 -03449.9 -07.5512 26252.1
 18 06 2013  02 32  -21.0250 26024.2 -03449.8 -07.5513 26251.9
 18 06 2013  02 33  -21.0252 26024.1 -03449.8 -07.5512 26251.8
 18 06 2013  02 34  -21.0248 26024.0 -03449.8 -07.5512 26251.6
 18 06 2013  02 35  -21.0248 26023.9 -03449.7 -07.5511 26251.5
 18 06 2013  02 36  -21.0248 26023.9 -03449.8 -07.5512 26251.6
 18 06 2013  02 37  -21.0248 26023.8 -03449.8 -07.5513 26251.4
 18 06 2013  02 38  -21.0249 26023.6 -03449.7 -07.5512 26251.2
 18 06 2013  02 39  -21.0251 26023.6 -03449.8 -07.5514 26251.3
 18 06 2013  02 40  -21.0252 26023.6 -03449.9 -07.5515 26251.2
 18 06 2013  02 41  -21.0254 26023.4 -03449.8 -07.5514 26251.0
 18 06 2013  02 42  -21.0254 26023.3 -03449.8 -07.5515 26251.0
 18 06 2013  02 43  -21.0255 26023.2 -03449.8 -07.5514 26250.8
 18 06 2013  02 44  -21.0256 26023.0 -03449.7 -07.5513 26250.7
 18 06 2013  02 45  -21.0257 26022.9 -03449.7 -07.5513 26250.6
 18 06 2013  02 46  -21.0259 26022.7 -03449.6 -07.5513 26250.4
 18 06 2013  02 47  -21.0260 26022.6 -03449.6 -07.5512 26250.2
 18 06 2013  02 48  -21.0259 26022.6 -03449.7 -07.5513 26250.3
 18 06 2013  02 49  -21.0256 26022.7 -03449.7 -07.5514 26250.3
 18 06 2013  02 50  -21.0258 26022.7 -03449.8 -07.5516 26250.3
 18 06 2013  02 51  -21.0259 26022.3 -03449.7 -07.5515 26250.0
 18 06 2013  02 52  -21.0258 26022.3 -03449.7 -07.5514 26249.9
 18 06 2013  02 53  -21.0259 26022.1 -03449.7 -07.5514 26249.8
 18 06 2013  02 54  -21.0258 26021.9 -03449.6 -07.5514 26249.5
 18 06 2013  02 55  -21.0258 26021.7 -03449.5 -07.5513 26249.4
 18 06 2013  02 56  -21.0256 26021.6 -03449.6 -07.5514 26249.3
 18 06 2013  02 57  -21.0260 26021.4 -03449.5 -07.5514 26249.0
 18 06 2013  02 58  -21.0260 26021.3 -03449.5 -07.5514 26248.9
 18 06 2013  02 59  -21.0261 26021.2 -03449.5 -07.5515 26248.8
 18 06 2013  03 00  -21.0264 26021.0 -03449.5 -07.5515 26248.7
 18 06 2013  03 01  -21.0263 26021.0 -03449.5 -07.5515 26248.6
 18 06 2013  03 02  -21.0264 26021.0 -03449.6 -07.5516 26248.6
 18 06 2013  03 03  -21.0267 26020.9 -03449.6 -07.5516 26248.5
 18 06 2013  03 04  -21.0267 26020.9 -03449.6 -07.5517 26248.5
 18 06 2013  03 05  -21.0266 26020.8 -03449.6 -07.5517 26248.4
 18 06 2013  03 06  -21.0265 26020.7 -03449.6 -07.5517 26248.4
 18 06 2013  03 07  -21.0263 26020.9 -03449.7 -07.5520 26248.6
 18 06 2013  03 08  -21.0264 26020.9 -03449.8 -07.5521 26248.6
 18 06 2013  03 09  -21.0266 26020.9 -03449.8 -07.5522 26248.6
 18 06 2013  03 10  -21.0265 26020.9 -03449.9 -07.5523 26248.6
 18 06 2013  03 11  -21.0263 26020.9 -03449.9 -07.5524 26248.6
 18 06 2013  03 12  -21.0262 26020.7 -03449.9 -07.5523 26248.4
 18 06 2013  03 13  -21.0261 26020.9 -03450.0 -07.5525 26248.7
 18 06 2013  03 14  -21.0262 26020.7 -03450.0 -07.5525 26248.4
 18 06 2013  03 15  -21.0260 26020.5 -03449.9 -07.5525 26248.2
 18 06 2013  03 16  -21.0259 26020.4 -03449.9 -07.5524 26248.1
 18 06 2013  03 17  -21.0260 26020.2 -03449.9 -07.5524 26248.0
 18 06 2013  03 18  -21.0261 26020.2 -03449.9 -07.5525 26247.9
 18 06 2013  03 19  -21.0262 26020.3 -03450.0 -07.5527 26248.0
 18 06 2013  03 20  -21.0263 26020.2 -03450.0 -07.5527 26247.9
 18 06 2013  03 21  -21.0262 26020.2 -03450.0 -07.5528 26247.9
 18 06 2013  03 22  -21.0261 26020.2 -03450.1 -07.5529 26247.9
 18 06 2013  03 23  -21.0261 26020.0 -03450.1 -07.5529 26247.8
 18 06 2013  03 24  -21.0261 26020.0 -03450.1 -07.5529 26247.7
 18 06 2013  03 25  -21.0261 26019.9 -03450.1 -07.5530 26247.6
 18 06 2013  03 26  -21.0262 26019.8 -03450.1 -07.5530 26247.5
 18 06 2013  03 27  -21.0264 26019.7 -03450.1 -07.5531 26247.5
 18 06 2013  03 28  -21.0269 26019.7 -03450.2 -07.5533 26247.5
 18 06 2013  03 29  -21.0271 26019.7 -03450.2 -07.5534 26247.5
 18 06 2013  03 30  -21.0274 26019.5 -03450.2 -07.5533 26247.3
 18 06 2013  03 31  -21.0276 26019.5 -03450.2 -07.5533 26247.3
 18 06 2013  03 32  -21.0278 26019.5 -03450.2 -07.5534 26247.2
 18 06 2013  03 33  -21.0281 26019.3 -03450.1 -07.5533 26247.0
 18 06 2013  03 34  -21.0283 26019.2 -03450.1 -07.5533 26246.9
 18 06 2013  03 35  -21.0283 26019.1 -03450.1 -07.5532 26246.8
 18 06 2013  03 36  -21.0282 26019.0 -03450.0 -07.5532 26246.7
 18 06 2013  03 37  -21.0282 26019.0 -03450.1 -07.5532 26246.7
 18 06 2013  03 38  -21.0281 26019.1 -03450.2 -07.5534 26246.9
 18 06 2013  03 39  -21.0281 26019.3 -03450.3 -07.5536 26247.0
 18 06 2013  03 40  -21.0282 26019.1 -03450.2 -07.5535 26246.8
 18 06 2013  03 41  -21.0284 26019.0 -03450.2 -07.5536 26246.7
 18 06 2013  03 42  -21.0287 26019.0 -03450.3 -07.5537 26246.8
 18 06 2013  03 43  -21.0290 26018.8 -03450.2 -07.5535 26246.6
 18 06 2013  03 44  -21.0292 26018.7 -03450.1 -07.5535 26246.4
 18 06 2013  03 45  -21.0294 26018.7 -03450.1 -07.5535 26246.4
 18 06 2013  03 46  -21.0297 26018.5 -03450.1 -07.5534 26246.2
 18 06 2013  03 47  -21.0297 26018.3 -03450.0 -07.5533 26246.0
 18 06 2013  03 48  -21.0295 26018.3 -03450.0 -07.5532 26246.0
 18 06 2013  03 49  -21.0295 26018.2 -03450.0 -07.5533 26246.0
 18 06 2013  03 50  -21.0296 26018.0 -03449.9 -07.5532 26245.7
 18 06 2013  03 51  -21.0297 26018.0 -03449.9 -07.5532 26245.7
 18 06 2013  03 52  -21.0300 26018.1 -03450.1 -07.5535 26245.8
 18 06 2013  03 53  -21.0304 26018.0 -03450.0 -07.5535 26245.7
 18 06 2013  03 54  -21.0306 26017.9 -03450.1 -07.5535 26245.6
 18 06 2013  03 55  -21.0308 26017.9 -03450.1 -07.5536 26245.6
 18 06 2013  03 56  -21.0309 26018.0 -03450.2 -07.5537 26245.8
 18 06 2013  03 57  -21.0309 26018.1 -03450.2 -07.5538 26245.9
 18 06 2013  03 58  -21.0309 26018.2 -03450.3 -07.5539 26246.0
 18 06 2013  03 59  -21.0310 26018.2 -03450.3 -07.5540 26246.0
 18 06 2013  04 00  -21.0310 26018.3 -03450.4 -07.5541 26246.1
 18 06 2013  04 01  -21.0311 26018.3 -03450.4 -07.5541 26246.1
 18 06 2013  04 02  -21.0313 26018.3 -03450.4 -07.5542 26246.1
 18 06 2013  04 03  -21.0314 26018.2 -03450.3 -07.5540 26246.0
 18 06 2013  04 04  -21.0316 26018.0 -03450.3 -07.5540 26245.8
 18 06 2013  04 05  -21.0318 26018.0 -03450.2 -07.5539 26245.7
 18 06 2013  04 06  -21.0319 26017.7 -03450.1 -07.5537 26245.5
 18 06 2013  04 07  -21.0321 26017.6 -03450.1 -07.5537 26245.4
 18 06 2013  04 08  -21.0323 26017.6 -03450.1 -07.5538 26245.4
 18 06 2013  04 09  -21.0327 26017.5 -03450.1 -07.5538 26245.3
 18 06 2013  04 10  -21.0330 26017.4 -03450.1 -07.5537 26245.1
 18 06 2013  04 11  -21.0332 26017.3 -03450.1 -07.5537 26245.1
 18 06 2013  04 12  -21.0334 26017.3 -03450.1 -07.5537 26245.0
 18 06 2013  04 13  -21.0335 26017.2 -03450.0 -07.5536 26244.9
 18 06 2013  04 14  -21.0336 26017.2 -03450.0 -07.5537 26244.9
 18 06 2013  04 15  -21.0338 26017.1 -03450.0 -07.5537 26244.9
 18 06 2013  04 16  -21.0339 26017.1 -03450.0 -07.5537 26244.9
 18 06 2013  04 17  -21.0339 26017.1 -03450.1 -07.5538 26244.9
 18 06 2013  04 18  -21.0340 26017.1 -03450.1 -07.5538 26244.9
 18 06 2013  04 19  -21.0341 26017.2 -03450.1 -07.5538 26244.9
 18 06 2013  04 20  -21.0342 26017.2 -03450.1 -07.5539 26245.0
 18 06 2013  04 21  -21.0343 26017.2 -03450.2 -07.5540 26245.0
 18 06 2013  04 22  -21.0342 26017.3 -03450.2 -07.5540 26245.0
 18 06 2013  04 23  -21.0341 26017.3 -03450.2 -07.5540 26245.1
 18 06 2013  04 24  -21.0340 26017.3 -03450.2 -07.5539 26245.0
 18 06 2013  04 25  -21.0338 26017.2 -03450.1 -07.5539 26245.0
 18 06 2013  04 26  -21.0336 26017.2 -03450.1 -07.5539 26245.0
 18 06 2013  04 27  -21.0334 26017.2 -03450.1 -07.5539 26245.0
 18 06 2013  04 28  -21.0330 26017.3 -03450.1 -07.5539 26245.0
 18 06 2013  04 29  -21.0326 26017.3 -03450.2 -07.5540 26245.0
 18 06 2013  04 30  -21.0323 26017.2 -03450.2 -07.5540 26245.0
 18 06 2013  04 31  -21.0322 26017.3 -03450.3 -07.5541 26245.0
 18 06 2013  04 32  -21.0321 26017.5 -03450.4 -07.5544 26245.3
 18 06 2013  04 33  -21.0321 26017.7 -03450.5 -07.5546 26245.6
 18 06 2013  04 34  -21.0321 26017.8 -03450.6 -07.5547 26245.6
 18 06 2013  04 35  -21.0319 26018.1 -03450.7 -07.5550 26245.9
 18 06 2013  04 36  -21.0319 26018.2 -03450.8 -07.5551 26246.0
 18 06 2013  04 37  -21.0318 26018.3 -03450.9 -07.5551 26246.1
 18 06 2013  04 38  -21.0318 26018.2 -03450.9 -07.5552 26246.1
 18 06 2013  04 39  -21.0318 26018.3 -03450.9 -07.5551 26246.1
 18 06 2013  04 40  -21.0318 26018.2 -03450.9 -07.5552 26246.1
 18 06 2013  04 41  -21.0319 26018.2 -03450.9 -07.5552 26246.1
 18 06 2013  04 42  -21.0319 26018.3 -03450.9 -07.5553 26246.1
 18 06 2013  04 43  -21.0320 26018.4 -03451.0 -07.5553 26246.3
 18 06 2013  04 44  -21.0321 26018.6 -03451.1 -07.5555 26246.5
 18 06 2013  04 45  -21.0323 26018.4 -03451.0 -07.5554 26246.3
 18 06 2013  04 46  -21.0325 26018.7 -03451.1 -07.5556 26246.6
 18 06 2013  04 47  -21.0327 26018.5 -03451.1 -07.5555 26246.4
 18 06 2013  04 48  -21.0326 26018.5 -03451.0 -07.5554 26246.4
 18 06 2013  04 49  -21.0325 26018.5 -03451.0 -07.5554 26246.4
 18 06 2013  04 50  -21.0324 26018.6 -03451.0 -07.5554 26246.5
 18 06 2013  04 51  -21.0324 26018.5 -03451.0 -07.5554 26246.4
 18 06 2013  04 52  -21.0325 26018.5 -03451.0 -07.5555 26246.4
 18 06 2013  04 53  -21.0326 26018.5 -03451.0 -07.5554 26246.4
 18 06 2013  04 54  -21.0327 26018.5 -03451.0 -07.5555 26246.4
 18 06 2013  04 55  -21.0327 26018.5 -03451.0 -07.5555 26246.4
 18 06 2013  04 56  -21.0327 26018.6 -03451.1 -07.5555 26246.4
 18 06 2013  04 57  -21.0328 26018.5 -03451.0 -07.5555 26246.4
 18 06 2013  04 58  -21.0328 26018.6 -03451.1 -07.5556 26246.5
 18 06 2013  04 59  -21.0326 26018.5 -03451.1 -07.5555 26246.3
 18 06 2013  05 00  -21.0323 26018.6 -03451.1 -07.5555 26246.5
 18 06 2013  05 01  -21.0320 26018.5 -03451.0 -07.5554 26246.4
 18 06 2013  05 02  -21.0316 26018.5 -03451.0 -07.5555 26246.4
 18 06 2013  05 03  -21.0313 26018.5 -03451.1 -07.5555 26246.3
 18 06 2013  05 04  -21.0311 26018.5 -03451.1 -07.5557 26246.4
 18 06 2013  05 05  -21.0310 26018.5 -03451.1 -07.5557 26246.4
 18 06 2013  05 06  -21.0308 26018.6 -03451.2 -07.5558 26246.5
 18 06 2013  05 07  -21.0307 26018.6 -03451.2 -07.5559 26246.5
 18 06 2013  05 08  -21.0306 26018.8 -03451.3 -07.5561 26246.7
 18 06 2013  05 09  -21.0304 26018.8 -03451.3 -07.5560 26246.7
 18 06 2013  05 10  -21.0302 26018.8 -03451.4 -07.5562 26246.8
 18 06 2013  05 11  -21.0301 26018.9 -03451.5 -07.5563 26246.8
 18 06 2013  05 12  -21.0300 26019.0 -03451.5 -07.5564 26246.9
 18 06 2013  05 13  -21.0299 26019.0 -03451.6 -07.5565 26246.9
 18 06 2013  05 14  -21.0298 26019.1 -03451.6 -07.5566 26247.0
 18 06 2013  05 15  -21.0298 26019.2 -03451.7 -07.5567 26247.1
 18 06 2013  05 16  -21.0298 26019.2 -03451.7 -07.5568 26247.2
 18 06 2013  05 17  -21.0299 26019.4 -03451.8 -07.5570 26247.3
 18 06 2013  05 18  -21.0300 26019.4 -03451.9 -07.5571 26247.4
 18 06 2013  05 19  -21.0301 26019.5 -03451.9 -07.5571 26247.5
 18 06 2013  05 20  -21.0301 26019.5 -03451.9 -07.5571 26247.5
 18 06 2013  05 21  -21.0302 26019.4 -03451.9 -07.5571 26247.4
 18 06 2013  05 22  -21.0302 26019.4 -03451.9 -07.5570 26247.4
 18 06 2013  05 23  -21.0300 26019.3 -03451.8 -07.5570 26247.3
 18 06 2013  05 24  -21.0298 26019.3 -03451.8 -07.5570 26247.3
 18 06 2013  05 25  -21.0297 26019.3 -03451.8 -07.5569 26247.2
 18 06 2013  05 26  -21.0295 26019.3 -03451.8 -07.5570 26247.2
 18 06 2013  05 27  -21.0294 26019.2 -03451.8 -07.5570 26247.2
 18 06 2013  05 28  -21.0293 26019.2 -03451.8 -07.5570 26247.2
 18 06 2013  05 29  -21.0292 26019.3 -03451.9 -07.5571 26247.3
 18 06 2013  05 30  -21.0291 26019.3 -03451.9 -07.5571 26247.3
 18 06 2013  05 31  -21.0292 26019.3 -03451.9 -07.5572 26247.3
 18 06 2013  05 32  -21.0293 26019.4 -03452.0 -07.5573 26247.4
 18 06 2013  05 33  -21.0293 26019.5 -03452.1 -07.5575 26247.5
 18 06 2013  05 34  -21.0294 26019.5 -03452.1 -07.5575 26247.5
 18 06 2013  05 35  -21.0295 26019.6 -03452.1 -07.5575 26247.6
 18 06 2013  05 36  -21.0295 26019.6 -03452.1 -07.5575 26247.7
 18 06 2013  05 37  -21.0295 26019.7 -03452.2 -07.5576 26247.7
 18 06 2013  05 38  -21.0295 26019.8 -03452.2 -07.5576 26247.9
 18 06 2013  05 39  -21.0294 26019.9 -03452.2 -07.5576 26247.9
 18 06 2013  05 40  -21.0294 26019.9 -03452.2 -07.5576 26247.9
 18 06 2013  05 41  -21.0296 26019.8 -03452.2 -07.5576 26247.8
 18 06 2013  05 42  -21.0298 26019.8 -03452.2 -07.5576 26247.8
 18 06 2013  05 43  -21.0299 26019.6 -03452.1 -07.5574 26247.6
 18 06 2013  05 44  -21.0297 26019.6 -03452.0 -07.5573 26247.6
 18 06 2013  05 45  -21.0296 26019.6 -03452.0 -07.5572 26247.5
 18 06 2013  05 46  -21.0295 26019.7 -03452.1 -07.5573 26247.7
 18 06 2013  05 47  -21.0294 26019.9 -03452.1 -07.5574 26247.9
 18 06 2013  05 48  -21.0293 26020.0 -03452.2 -07.5575 26248.0
 18 06 2013  05 49  -21.0291 26020.0 -03452.2 -07.5576 26248.0
 18 06 2013  05 50  -21.0289 26020.0 -03452.2 -07.5576 26248.0
 18 06 2013  05 51  -21.0288 26020.0 -03452.2 -07.5575 26248.0
 18 06 2013  05 52  -21.0288 26020.0 -03452.1 -07.5575 26248.0
 18 06 2013  05 53  -21.0288 26020.0 -03452.1 -07.5574 26248.0
 18 06 2013  05 54  -21.0290 26020.0 -03452.1 -07.5574 26248.0
 18 06 2013  05 55  -21.0292 26020.0 -03452.2 -07.5575 26248.1
 18 06 2013  05 56  -21.0294 26020.1 -03452.2 -07.5575 26248.1
 18 06 2013  05 57  -21.0296 26020.2 -03452.3 -07.5577 26248.2
 18 06 2013  05 58  -21.0296 26020.3 -03452.3 -07.5576 26248.3
 18 06 2013  05 59  -21.0294 26020.5 -03452.3 -07.5577 26248.5
 18 06 2013  06 00  -21.0292 26020.6 -03452.4 -07.5577 26248.6
 18 06 2013  06 01  -21.0290 26020.7 -03452.4 -07.5577 26248.7
 18 06 2013  06 02  -21.0288 26020.8 -03452.4 -07.5577 26248.8
 18 06 2013  06 03  -21.0287 26020.9 -03452.4 -07.5577 26248.9
 18 06 2013  06 04  -21.0287 26021.0 -03452.5 -07.5579 26249.1
 18 06 2013  06 05  -21.0289 26021.1 -03452.5 -07.5580 26249.1
 18 06 2013  06 06  -21.0290 26021.3 -03452.6 -07.5580 26249.3
 18 06 2013  06 07  -21.0289 26021.4 -03452.6 -07.5581 26249.5
 18 06 2013  06 08  -21.0287 26021.4 -03452.6 -07.5580 26249.5
 18 06 2013  06 09  -21.0285 26021.4 -03452.5 -07.5579 26249.4
 18 06 2013  06 10  -21.0283 26021.4 -03452.5 -07.5578 26249.5
 18 06 2013  06 11  -21.0284 26021.5 -03452.5 -07.5578 26249.5
 18 06 2013  06 12  -21.0286 26021.6 -03452.6 -07.5579 26249.6
 18 06 2013  06 13  -21.0290 26021.7 -03452.6 -07.5580 26249.7
 18 06 2013  06 14  -21.0292 26021.7 -03452.6 -07.5580 26249.8
 18 06 2013  06 15  -21.0293 26021.8 -03452.7 -07.5581 26249.9
 18 06 2013  06 16  -21.0295 26021.9 -03452.6 -07.5579 26249.9
 18 06 2013  06 17  -21.0296 26022.0 -03452.7 -07.5580 26250.0
 18 06 2013  06 18  -21.0298 26022.1 -03452.7 -07.5580 26250.1
 18 06 2013  06 19  -21.0299 26022.2 -03452.7 -07.5581 26250.3
 18 06 2013  06 20  -21.0301 26022.3 -03452.8 -07.5581 26250.3
 18 06 2013  06 21  -21.0302 26022.4 -03452.8 -07.5581 26250.5
 18 06 2013  06 22  -21.0303 26022.5 -03452.8 -07.5581 26250.5
 18 06 2013  06 23  -21.0303 26022.5 -03452.8 -07.5581 26250.6
 18 06 2013  06 24  -21.0301 26022.5 -03452.7 -07.5579 26250.6
 18 06 2013  06 25  -21.0298 26022.5 -03452.7 -07.5578 26250.6
 18 06 2013  06 26  -21.0296 26022.5 -03452.6 -07.5577 26250.5
 18 06 2013  06 27  -21.0292 26022.5 -03452.6 -07.5576 26250.5
 18 06 2013  06 28  -21.0288 26022.4 -03452.5 -07.5574 26250.4
 18 06 2013  06 29  -21.0284 26022.4 -03452.5 -07.5574 26250.5
 18 06 2013  06 30  -21.0281 26022.5 -03452.5 -07.5574 26250.5
 18 06 2013  06 31  -21.0278 26022.5 -03452.5 -07.5575 26250.6
 18 06 2013  06 32  -21.0274 26022.5 -03452.5 -07.5575 26250.6
 18 06 2013  06 33  -21.0270 26022.5 -03452.5 -07.5574 26250.5
 18 06 2013  06 34  -21.0265 26022.4 -03452.4 -07.5574 26250.4
 18 06 2013  06 35  -21.0260 26022.4 -03452.4 -07.5574 26250.4
 18 06 2013  06 36  -21.0256 26022.4 -03452.4 -07.5574 26250.4
 18 06 2013  06 37  -21.0253 26022.3 -03452.4 -07.5573 26250.3
 18 06 2013  06 38  -21.0250 26022.2 -03452.4 -07.5574 26250.3
 18 06 2013  06 39  -21.0247 26022.2 -03452.4 -07.5574 26250.2
 18 06 2013  06 40  -21.0246 26022.2 -03452.4 -07.5574 26250.2
 18 06 2013  06 41  -21.0245 26022.2 -03452.5 -07.5576 26250.2
 18 06 2013  06 42  -21.0246 26022.2 -03452.6 -07.5577 26250.2
 18 06 2013  06 43  -21.0245 26022.3 -03452.6 -07.5578 26250.4
 18 06 2013  06 44  -21.0243 26022.3 -03452.6 -07.5579 26250.4
 18 06 2013  06 45  -21.0241 26022.4 -03452.7 -07.5578 26250.4
 18 06 2013  06 46  -21.0239 26022.5 -03452.7 -07.5580 26250.6
 18 06 2013  06 47  -21.0238 26022.6 -03452.8 -07.5581 26250.7
 18 06 2013  06 48  -21.0237 26022.6 -03452.8 -07.5582 26250.7
 18 06 2013  06 49  -21.0236 26022.6 -03452.8 -07.5582 26250.7
 18 06 2013  06 50  -21.0236 26022.6 -03452.8 -07.5581 26250.7
 18 06 2013  06 51  -21.0235 26022.6 -03452.8 -07.5581 26250.6
 18 06 2013  06 52  -21.0234 26022.6 -03452.8 -07.5581 26250.6
 18 06 2013  06 53  -21.0233 26022.7 -03452.8 -07.5582 26250.7
 18 06 2013  06 54  -21.0232 26022.7 -03452.9 -07.5582 26250.8
 18 06 2013  06 55  -21.0231 26022.7 -03452.9 -07.5582 26250.8
 18 06 2013  06 56  -21.0230 26022.8 -03452.9 -07.5583 26250.8
 18 06 2013  06 57  -21.0230 26022.8 -03452.9 -07.5582 26250.8
 18 06 2013  06 58  -21.0229 26022.7 -03452.8 -07.5582 26250.8
 18 06 2013  06 59  -21.0227 26022.7 -03452.8 -07.5581 26250.7
 18 06 2013  07 00  -21.0228 26022.6 -03452.9 -07.5582 26250.7
 18 06 2013  07 01  -21.0229 26022.7 -03452.9 -07.5582 26250.8
 18 06 2013  07 02  -21.0230 26022.6 -03452.8 -07.5582 26250.7
 18 06 2013  07 03  -21.0231 26022.7 -03452.8 -07.5582 26250.7
 18 06 2013  07 04  -21.0231 26022.8 -03452.8 -07.5581 26250.8
 18 06 2013  07 05  -21.0229 26022.9 -03452.9 -07.5583 26250.9
 18 06 2013  07 06  -21.0227 26022.8 -03452.9 -07.5583 26250.9
 18 06 2013  07 07  -21.0225 26022.9 -03452.9 -07.5583 26251.0
 18 06 2013  07 08  -21.0223 26022.9 -03452.9 -07.5583 26251.0
 18 06 2013  07 09  -21.0222 26022.9 -03452.9 -07.5583 26251.0
 18 06 2013  07 10  -21.0222 26022.8 -03452.9 -07.5583 26250.9
 18 06 2013  07 11  -21.0222 26022.9 -03453.0 -07.5584 26251.0
 18 06 2013  07 12  -21.0222 26022.9 -03453.0 -07.5584 26251.0
 18 06 2013  07 13  -21.0221 26023.0 -03453.0 -07.5584 26251.1
 18 06 2013  07 14  -21.0221 26023.0 -03453.0 -07.5584 26251.1
 18 06 2013  07 15  -21.0221 26023.0 -03453.0 -07.5584 26251.1
 18 06 2013  07 16  -21.0221 26022.9 -03453.0 -07.5584 26251.0
 18 06 2013  07 17  -21.0221 26022.9 -03452.9 -07.5583 26251.0
 18 06 2013  07 18  -21.0220 26023.0 -03453.0 -07.5584 26251.1
 18 06 2013  07 19  -21.0220 26022.9 -03452.9 -07.5583 26251.0
 18 06 2013  07 20  -21.0220 26022.9 -03452.9 -07.5583 26251.0
 18 06 2013  07 21  -21.0218 26022.9 -03452.9 -07.5583 26251.0
 18 06 2013  07 22  -21.0216 26022.9 -03452.9 -07.5582 26251.0
 18 06 2013  07 23  -21.0214 26022.9 -03452.9 -07.5582 26251.0
 18 06 2013  07 24  -21.0213 26022.9 -03452.9 -07.5583 26251.0
 18 06 2013  07 25  -21.0211 26022.9 -03452.9 -07.5583 26251.0
 18 06 2013  07 26  -21.0209 26022.9 -03452.9 -07.5583 26251.0
 18 06 2013  07 27  -21.0206 26022.9 -03452.9 -07.5583 26251.0
 18 06 2013  07 28  -21.0204 26022.9 -03452.9 -07.5583 26250.9
 18 06 2013  07 29  -21.0203 26023.0 -03453.0 -07.5584 26251.1
 18 06 2013  07 30  -21.0203 26022.9 -03452.9 -07.5583 26251.0
 18 06 2013  07 31  -21.0204 26022.9 -03453.0 -07.5584 26250.9
 18 06 2013  07 32  -21.0205 26022.8 -03452.9 -07.5583 26250.8
 18 06 2013  07 33  -21.0206 26022.8 -03452.9 -07.5583 26250.8
 18 06 2013  07 34  -21.0208 26022.8 -03453.0 -07.5584 26250.9
 18 06 2013  07 35  -21.0208 26022.9 -03453.0 -07.5584 26251.0
 18 06 2013  07 36  -21.0208 26023.0 -03453.0 -07.5585 26251.1
 18 06 2013  07 37  -21.0207 26023.2 -03453.1 -07.5586 26251.3
 18 06 2013  07 38  -21.0207 26023.4 -03453.2 -07.5587 26251.5
 18 06 2013  07 39  -21.0206 26023.4 -03453.2 -07.5588 26251.5
 18 06 2013  07 40  -21.0206 26023.4 -03453.2 -07.5587 26251.6
 18 06 2013  07 41  -21.0205 26023.4 -03453.2 -07.5587 26251.5
 18 06 2013  07 42  -21.0204 26023.4 -03453.2 -07.5586 26251.5
 18 06 2013  07 43  -21.0204 26023.5 -03453.2 -07.5587 26251.6
 18 06 2013  07 44  -21.0205 26023.7 -03453.2 -07.5587 26251.8
 18 06 2013  07 45  -21.0203 26023.7 -03453.2 -07.5587 26251.8
 18 06 2013  07 46  -21.0202 26023.7 -03453.2 -07.5587 26251.8
 18 06 2013  07 47  -21.0201 26023.7 -03453.2 -07.5586 26251.8
 18 06 2013  07 48  -21.0199 26023.8 -03453.2 -07.5587 26251.9
 18 06 2013  07 49  -21.0197 26023.9 -03453.3 -07.5587 26252.0
 18 06 2013  07 50  -21.0194 26024.1 -03453.4 -07.5589 26252.3
 18 06 2013  07 51  -21.0191 26024.4 -03453.4 -07.5590 26252.5
 18 06 2013  07 52  -21.0190 26024.6 -03453.6 -07.5592 26252.8
 18 06 2013  07 53  -21.0190 26024.6 -03453.6 -07.5592 26252.8
 18 06 2013  07 54  -21.0190 26024.7 -03453.6 -07.5592 26252.8
 18 06 2013  07 55  -21.0189 26024.7 -03453.6 -07.5592 26252.9
 18 06 2013  07 56  -21.0189 26024.8 -03453.6 -07.5592 26253.0
 18 06 2013  07 57  -21.0187 26024.9 -03453.6 -07.5592 26253.1
 18 06 2013  07 58  -21.0187 26025.0 -03453.6 -07.5592 26253.2
 18 06 2013  07 59  -21.0186 26025.1 -03453.7 -07.5592 26253.2
 18 06 2013  08 00  -21.0186 26025.2 -03453.7 -07.5592 26253.3
 18 06 2013  08 01  -21.0185 26025.2 -03453.7 -07.5593 26253.4
 18 06 2013  08 02  -21.0183 26025.3 -03453.7 -07.5593 26253.5
 18 06 2013  08 03  -21.0182 26025.3 -03453.7 -07.5592 26253.5
 18 06 2013  08 04  -21.0180 26025.4 -03453.6 -07.5591 26253.5
 18 06 2013  08 05  -21.0179 26025.4 -03453.6 -07.5591 26253.6
 18 06 2013  08 06  -21.0178 26025.4 -03453.6 -07.5591 26253.6
 18 06 2013  08 07  -21.0176 26025.4 -03453.5 -07.5589 26253.5
 18 06 2013  08 08  -21.0175 26025.3 -03453.5 -07.5589 26253.4
 18 06 2013  08 09  -21.0174 26025.2 -03453.4 -07.5587 26253.3
 18 06 2013  08 10  -21.0172 26025.1 -03453.4 -07.5586 26253.2
 18 06 2013  08 11  -21.0173 26025.0 -03453.3 -07.5585 26253.1
 18 06 2013  08 12  -21.0173 26025.0 -03453.2 -07.5584 26253.1
 18 06 2013  08 13  -21.0174 26024.9 -03453.2 -07.5584 26253.0
 18 06 2013  08 14  -21.0174 26024.9 -03453.3 -07.5584 26253.0
 18 06 2013  08 15  -21.0173 26024.9 -03453.2 -07.5584 26253.0
 18 06 2013  08 16  -21.0173 26024.9 -03453.2 -07.5584 26253.0
 18 06 2013  08 17  -21.0173 26024.9 -03453.3 -07.5585 26253.0
 18 06 2013  08 18  -21.0173 26025.1 -03453.3 -07.5586 26253.2
 18 06 2013  08 19  -21.0171 26025.3 -03453.4 -07.5586 26253.4
 18 06 2013  08 20  -21.0168 26025.3 -03453.4 -07.5586 26253.4
 18 06 2013  08 21  -21.0165 26025.2 -03453.4 -07.5586 26253.4
 18 06 2013  08 22  -21.0166 26025.1 -03453.3 -07.5586 26253.2
 18 06 2013  08 23  -21.0166 26024.9 -03453.3 -07.5585 26253.0
 18 06 2013  08 24  -21.0166 26025.0 -03453.3 -07.5585 26253.1
 18 06 2013  08 25  -21.0167 26025.0 -03453.3 -07.5585 26253.1
 18 06 2013  08 26  -21.0168 26025.2 -03453.4 -07.5586 26253.3
 18 06 2013  08 27  -21.0169 26025.3 -03453.4 -07.5586 26253.5
 18 06 2013  08 28  -21.0167 26025.4 -03453.4 -07.5586 26253.5
 18 06 2013  08 29  -21.0165 26025.4 -03453.4 -07.5586 26253.5
 18 06 2013  08 30  -21.0160 26025.4 -03453.4 -07.5586 26253.5
 18 06 2013  08 31  -21.0155 26025.4 -03453.3 -07.5584 26253.5
 18 06 2013  08 32  -21.0150 26025.4 -03453.3 -07.5584 26253.5
 18 06 2013  08 33  -21.0147 26025.3 -03453.2 -07.5582 26253.4
 18 06 2013  08 34  -21.0143 26025.2 -03453.1 -07.5581 26253.3
 18 06 2013  08 35  -21.0139 26025.1 -03453.1 -07.5581 26253.2
 18 06 2013  08 36  -21.0134 26025.1 -03453.1 -07.5581 26253.2
 18 06 2013  08 37  -21.0130 26025.1 -03453.1 -07.5580 26253.2
 18 06 2013  08 38  -21.0125 26025.1 -03453.1 -07.5581 26253.2
 18 06 2013  08 39  -21.0123 26025.1 -03453.2 -07.5582 26253.2
 18 06 2013  08 40  -21.0121 26025.1 -03453.2 -07.5583 26253.2
 18 06 2013  08 41  -21.0119 26025.2 -03453.2 -07.5583 26253.3
 18 06 2013  08 42  -21.0117 26025.3 -03453.3 -07.5584 26253.4
 18 06 2013  08 43  -21.0113 26025.3 -03453.3 -07.5585 26253.4
 18 06 2013  08 44  -21.0110 26025.4 -03453.4 -07.5586 26253.6
 18 06 2013  08 45  -21.0108 26025.6 -03453.4 -07.5585 26253.7
 18 06 2013  08 46  -21.0103 26025.7 -03453.4 -07.5585 26253.8
 18 06 2013  08 47  -21.0098 26025.7 -03453.3 -07.5583 26253.8
 18 06 2013  08 48  -21.0094 26025.7 -03453.3 -07.5584 26253.8
 18 06 2013  08 49  -21.0089 26025.7 -03453.3 -07.5582 26253.8
 18 06 2013  08 50  -21.0083 26025.6 -03453.2 -07.5581 26253.7
 18 06 2013  08 51  -21.0079 26025.7 -03453.2 -07.5581 26253.8
 18 06 2013  08 52  -21.0075 26025.7 -03453.2 -07.5582 26253.8
 18 06 2013  08 53  -21.0070 26025.8 -03453.2 -07.5580 26253.8
 18 06 2013  08 54  -21.0064 26025.8 -03453.1 -07.5578 26253.9
 18 06 2013  08 55  -21.0057 26025.8 -03453.0 -07.5576 26253.9
 18 06 2013  08 56  -21.0050 26025.9 -03453.0 -07.5577 26253.9
 18 06 2013  08 57  -21.0043 26025.8 -03453.0 -07.5576 26253.9
 18 06 2013  08 58  -21.0035 26025.8 -03453.0 -07.5576 26253.8
 18 06 2013  08 59  -21.0025 26025.7 -03452.9 -07.5575 26253.8
 18 06 2013  09 00  -21.0018 26025.7 -03453.0 -07.5576 26253.8
 18 06 2013  09 01  -21.0010 26025.7 -03453.0 -07.5576 26253.7
 18 06 2013  09 02  -21.0002 26025.7 -03453.0 -07.5576 26253.8
 18 06 2013  09 03  -20.9994 26025.7 -03453.0 -07.5578 26253.8
 18 06 2013  09 04  -20.9986 26025.7 -03453.1 -07.5578 26253.8
 18 06 2013  09 05  -20.9979 26025.8 -03453.2 -07.5580 26253.9
 18 06 2013  09 06  -20.9973 26025.8 -03453.3 -07.5582 26253.9
 18 06 2013  09 07  -20.9964 26025.8 -03453.4 -07.5584 26253.9
 18 06 2013  09 08  -20.9953 26025.8 -03453.4 -07.5585 26253.9
 18 06 2013  09 09  -20.9943 26025.8 -03453.4 -07.5586 26253.9
 18 06 2013  09 10  -20.9936 26026.0 -03453.6 -07.5589 26254.1
 18 06 2013  09 11  -20.9931 26026.1 -03453.8 -07.5593 26254.2
 18 06 2013  09 12  -20.9927 26026.2 -03454.0 -07.5597 26254.4
 18 06 2013  09 13  -20.9921 26026.3 -03454.2 -07.5601 26254.5
 18 06 2013  09 14  -20.9916 26026.5 -03454.4 -07.5605 26254.7
 18 06 2013  09 15  -20.9908 26026.5 -03454.5 -07.5607 26254.8
 18 06 2013  09 16  -20.9901 26026.5 -03454.6 -07.5610 26254.8
 18 06 2013  09 17  -20.9896 26026.6 -03454.8 -07.5613 26254.9
 18 06 2013  09 18  -20.9887 26026.7 -03455.0 -07.5617 26255.0
 18 06 2013  09 19  -20.9882 26026.8 -03455.2 -07.5620 26255.2
 18 06 2013  09 20  -20.9876 26027.0 -03455.3 -07.5623 26255.3
 18 06 2013  09 21  -20.9869 26027.0 -03455.5 -07.5626 26255.4
 18 06 2013  09 22  -20.9862 26027.1 -03455.6 -07.5629 26255.5
 18 06 2013  09 23  -20.9857 26027.2 -03455.8 -07.5633 26255.6
 18 06 2013  09 24  -20.9855 26027.3 -03456.0 -07.5637 26255.7
 18 06 2013  09 25  -20.9851 26027.4 -03456.2 -07.5641 26255.9
 18 06 2013  09 26  -20.9847 26027.5 -03456.4 -07.5645 26256.0
 18 06 2013  09 27  -20.9845 26027.7 -03456.6 -07.5649 26256.2
 18 06 2013  09 28  -20.9841 26027.8 -03456.8 -07.5653 26256.4
 18 06 2013  09 29  -20.9841 26027.9 -03457.0 -07.5657 26256.5
 18 06 2013  09 30  -20.9840 26027.9 -03457.2 -07.5660 26256.5
 18 06 2013  09 31  -20.9836 26028.0 -03457.3 -07.5663 26256.6
 18 06 2013  09 32  -20.9831 26028.0 -03457.4 -07.5665 26256.6
 18 06 2013  09 33  -20.9831 26028.1 -03457.5 -07.5668 26256.7
 18 06 2013  09 34  -20.9833 26028.0 -03457.7 -07.5671 26256.7
 18 06 2013  09 35  -20.9833 26028.0 -03457.8 -07.5674 26256.7
 18 06 2013  09 36  -20.9830 26028.2 -03458.0 -07.5677 26256.9
 18 06 2013  09 37  -20.9828 26028.1 -03458.1 -07.5679 26256.9
 18 06 2013  09 38  -20.9823 26028.4 -03458.3 -07.5683 26257.1
 18 06 2013  09 39  -20.9818 26028.5 -03458.4 -07.5686 26257.2
 18 06 2013  09 40  -20.9816 26028.6 -03458.7 -07.5690 26257.4
 18 06 2013  09 41  -20.9811 26028.8 -03458.8 -07.5693 26257.6
 18 06 2013  09 42  -20.9809 26029.0 -03459.0 -07.5697 26257.8
 18 06 2013  09 43  -20.9806 26029.1 -03459.2 -07.5701 26258.0
 18 06 2013  09 44  -20.9805 26029.2 -03459.3 -07.5703 26258.1
 18 06 2013  09 45  -20.9805 26029.4 -03459.5 -07.5707 26258.3
 18 06 2013  09 46  -20.9804 26029.5 -03459.7 -07.5710 26258.4
 18 06 2013  09 47  -20.9806 26029.6 -03459.8 -07.5713 26258.5
 18 06 2013  09 48  -20.9808 26029.6 -03460.0 -07.5717 26258.6
 18 06 2013  09 49  -20.9807 26029.7 -03460.2 -07.5720 26258.7
 18 06 2013  09 50  -20.9808 26029.9 -03460.3 -07.5723 26258.9
 18 06 2013  09 51  -20.9808 26030.0 -03460.5 -07.5727 26259.1
 18 06 2013  09 52  -20.9806 26030.2 -03460.7 -07.5730 26259.3
 18 06 2013  09 53  -20.9804 26030.4 -03460.9 -07.5734 26259.5
 18 06 2013  09 54  -20.9803 26030.6 -03461.1 -07.5737 26259.6
 18 06 2013  09 55  -20.9804 26030.7 -03461.3 -07.5741 26259.9
 18 06 2013  09 56  -20.9805 26030.9 -03461.5 -07.5745 26260.0
 18 06 2013  09 57  -20.9807 26030.9 -03461.6 -07.5747 26260.1
 18 06 2013  09 58  -20.9808 26031.0 -03461.7 -07.5750 26260.2
 18 06 2013  09 59  -20.9811 26031.0 -03461.9 -07.5754 26260.2
 18 06 2013  10 00  -20.9813 26031.2 -03462.1 -07.5757 26260.4
 18 06 2013  10 01  -20.9813 26031.3 -03462.2 -07.5760 26260.5
 18 06 2013  10 02  -20.9814 26031.3 -03462.3 -07.5761 26260.6
 18 06 2013  10 03  -20.9814 26031.4 -03462.4 -07.5764 26260.7
 18 06 2013  10 04  -20.9814 26031.5 -03462.6 -07.5767 26260.8
 18 06 2013  10 05  -20.9812 26031.8 -03462.7 -07.5769 26261.0
 18 06 2013  10 06  -20.9815 26031.8 -03462.8 -07.5771 26261.1
 18 06 2013  10 07  -20.9819 26031.8 -03462.9 -07.5772 26261.1
 18 06 2013  10 08  -20.9822 26031.9 -03462.9 -07.5774 26261.2
 18 06 2013  10 09  -20.9825 26031.9 -03463.1 -07.5776 26261.3
 18 06 2013  10 10  -20.9827 26032.1 -03463.2 -07.5779 26261.4
 18 06 2013  10 11  -20.9830 26032.1 -03463.3 -07.5780 26261.5
 18 06 2013  10 12  -20.9833 26032.3 -03463.4 -07.5783 26261.7
 18 06 2013  10 13  -20.9834 26032.6 -03463.5 -07.5785 26262.0
 18 06 2013  10 14  -20.9837 26032.7 -03463.6 -07.5787 26262.1
 18 06 2013  10 15  -20.9840 26032.8 -03463.7 -07.5789 26262.2
 18 06 2013  10 16  -20.9840 26033.0 -03463.9 -07.5791 26262.4
 18 06 2013  10 17  -20.9842 26033.2 -03464.1 -07.5794 26262.7
 18 06 2013  10 18  -20.9843 26033.4 -03464.2 -07.5796 26262.9
 18 06 2013  10 19  -20.9846 26033.5 -03464.3 -07.5799 26263.0
 18 06 2013  10 20  -20.9849 26033.6 -03464.4 -07.5801 26263.1
 18 06 2013  10 21  -20.9852 26033.9 -03464.6 -07.5804 26263.4
 18 06 2013  10 22  -20.9855 26034.1 -03464.7 -07.5806 26263.6
 18 06 2013  10 23  -20.9860 26034.3 -03464.9 -07.5809 26263.8
 18 06 2013  10 24  -20.9865 26034.5 -03465.0 -07.5811 26264.1
 18 06 2013  10 25  -20.9869 26034.7 -03465.1 -07.5813 26264.3
 18 06 2013  10 26  -20.9871 26034.9 -03465.2 -07.5815 26264.5
 18 06 2013  10 27  -20.9873 26035.1 -03465.3 -07.5816 26264.7
 18 06 2013  10 28  -20.9876 26035.3 -03465.4 -07.5818 26265.0
 18 06 2013  10 29  -20.9881 26035.6 -03465.6 -07.5820 26265.2
 18 06 2013  10 30  -20.9885 26035.8 -03465.7 -07.5821 26265.4
 18 06 2013  10 31  -20.9890 26036.1 -03465.8 -07.5823 26265.7
 18 06 2013  10 32  -20.9896 26036.3 -03465.9 -07.5825 26266.0
 18 06 2013  10 33  -20.9903 26036.5 -03466.0 -07.5826 26266.1
 18 06 2013  10 34  -20.9911 26036.6 -03466.1 -07.5828 26266.3
 18 06 2013  10 35  -20.9917 26036.8 -03466.2 -07.5829 26266.5
 18 06 2013  10 36  -20.9920 26037.0 -03466.2 -07.5830 26266.8
 18 06 2013  10 37  -20.9928 26037.2 -03466.3 -07.5830 26266.9
 18 06 2013  10 38  -20.9934 26037.3 -03466.3 -07.5830 26267.1
 18 06 2013  10 39  -20.9940 26037.4 -03466.2 -07.5829 26267.2
 18 06 2013  10 40  -20.9946 26037.6 -03466.2 -07.5829 26267.3
 18 06 2013  10 41  -20.9951 26037.8 -03466.3 -07.5829 26267.5
 18 06 2013  10 42  -20.9955 26038.0 -03466.3 -07.5829 26267.7
 18 06 2013  10 43  -20.9957 26038.2 -03466.3 -07.5829 26267.9
 18 06 2013  10 44  -20.9961 26038.5 -03466.4 -07.5829 26268.2
 18 06 2013  10 45  -20.9965 26038.8 -03466.4 -07.5828 26268.5
 18 06 2013  10 46  -20.9971 26038.9 -03466.4 -07.5827 26268.7
 18 06 2013  10 47  -20.9976 26039.2 -03466.4 -07.5827 26268.9
 18 06 2013  10 48  -20.9981 26039.4 -03466.4 -07.5826 26269.1
 18 06 2013  10 49  -20.9986 26039.5 -03466.4 -07.5826 26269.3
 18 06 2013  10 50  -20.9990 26039.8 -03466.4 -07.5826 26269.5
 18 06 2013  10 51  -20.9994 26040.0 -03466.4 -07.5825 26269.7
 18 06 2013  10 52  -20.9997 26040.2 -03466.4 -07.5824 26269.9
 18 06 2013  10 53  -21.0001 26040.4 -03466.4 -07.5824 26270.1
 18 06 2013  10 54  -21.0005 26040.7 -03466.4 -07.5824 26270.5
 18 06 2013  10 55  -21.0009 26041.0 -03466.5 -07.5824 26270.7
 18 06 2013  10 56  -21.0013 26041.2 -03466.4 -07.5823 26270.9
 18 06 2013  10 57  -21.0016 26041.4 -03466.4 -07.5822 26271.1
 18 06 2013  10 58  -21.0022 26041.6 -03466.4 -07.5821 26271.3
 18 06 2013  10 59  -21.0026 26041.8 -03466.4 -07.5821 26271.5
 18 06 2013  11 00  -21.0031 26042.0 -03466.5 -07.5821 26271.7
 18 06 2013  11 01  -21.0037 26042.2 -03466.5 -07.5821 26271.9
 18 06 2013  11 02  -21.0043 26042.5 -03466.5 -07.5821 26272.2
 18 06 2013  11 03  -21.0049 26042.8 -03466.6 -07.5821 26272.5
 18 06 2013  11 04  -21.0053 26043.0 -03466.6 -07.5821 26272.7
 18 06 2013  11 05  -21.0059 26043.2 -03466.6 -07.5820 26272.9
 18 06 2013  11 06  -21.0063 26043.4 -03466.6 -07.5819 26273.1
 18 06 2013  11 07  -21.0068 26043.4 -03466.6 -07.5819 26273.1
 18 06 2013  11 08  -21.0076 26043.5 -03466.6 -07.5819 26273.2
 18 06 2013  11 09  -21.0084 26043.6 -03466.6 -07.5820 26273.3
 18 06 2013  11 10  -21.0090 26043.9 -03466.7 -07.5821 26273.6
 18 06 2013  11 11  -21.0095 26044.1 -03466.7 -07.5821 26273.8
 18 06 2013  11 12  -21.0100 26044.2 -03466.7 -07.5819 26273.9
 18 06 2013  11 13  -21.0104 26044.4 -03466.7 -07.5819 26274.1
 18 06 2013  11 14  -21.0109 26044.6 -03466.7 -07.5818 26274.4
 18 06 2013  11 15  -21.0114 26044.9 -03466.7 -07.5817 26274.6
 18 06 2013  11 16  -21.0122 26045.0 -03466.7 -07.5816 26274.7
 18 06 2013  11 17  -21.0130 26045.1 -03466.6 -07.5815 26274.8
 18 06 2013  11 18  -21.0134 26045.4 -03466.6 -07.5814 26275.0
 18 06 2013  11 19  -21.0139 26045.7 -03466.6 -07.5813 26275.3
 18 06 2013  11 20  -21.0147 26045.9 -03466.6 -07.5812 26275.5
 18 06 2013  11 21  -21.0154 26046.2 -03466.6 -07.5811 26275.8
 18 06 2013  11 22  -21.0158 26046.5 -03466.5 -07.5810 26276.2
 18 06 2013  11 23  -21.0163 26046.8 -03466.5 -07.5808 26276.5
 18 06 2013  11 24  -21.0168 26047.1 -03466.5 -07.5807 26276.8
 18 06 2013  11 25  -21.0175 26047.4 -03466.4 -07.5805 26277.0
 18 06 2013  11 26  -21.0182 26047.7 -03466.4 -07.5804 26277.3
 18 06 2013  11 27  -21.0187 26047.9 -03466.4 -07.5803 26277.6
 18 06 2013  11 28  -21.0192 26048.3 -03466.4 -07.5801 26277.9
 18 06 2013  11 29  -21.0197 26048.5 -03466.4 -07.5800 26278.2
 18 06 2013  11 30  -21.0203 26049.0 -03466.4 -07.5799 26278.6
 18 06 2013  11 31  -21.0208 26049.4 -03466.3 -07.5797 26279.0
 18 06 2013  11 32  -21.0214 26049.6 -03466.3 -07.5795 26279.2
 18 06 2013  11 33  -21.0219 26049.8 -03466.2 -07.5792 26279.4
 18 06 2013  11 34  -21.0222 26050.2 -03466.1 -07.5790 26279.8
 18 06 2013  11 35  -21.0225 26050.5 -03466.1 -07.5789 26280.1
 18 06 2013  11 36  -21.0230 26050.7 -03466.0 -07.5787 26280.3
 18 06 2013  11 37  -21.0239 26050.8 -03465.9 -07.5784 26280.4
 18 06 2013  11 38  -21.0244 26051.0 -03465.9 -07.5783 26280.6
 18 06 2013  11 39  -21.0250 26051.6 -03465.9 -07.5782 26281.1
 18 06 2013  11 40  -21.0255 26052.0 -03465.9 -07.5780 26281.6
 18 06 2013  11 41  -21.0260 26052.4 -03465.9 -07.5778 26281.9
 18 06 2013  11 42  -21.0265 26052.7 -03465.8 -07.5775 26282.2
 18 06 2013  11 43  -21.0271 26053.0 -03465.7 -07.5772 26282.4
 18 06 2013  11 44  -21.0277 26053.4 -03465.6 -07.5770 26282.9
 18 06 2013  11 45  -21.0284 26053.7 -03465.5 -07.5767 26283.2
 18 06 2013  11 46  -21.0292 26053.9 -03465.4 -07.5764 26283.4
 18 06 2013  11 47  -21.0302 26054.0 -03465.3 -07.5761 26283.5
 18 06 2013  11 48  -21.0311 26054.2 -03465.2 -07.5758 26283.6
 18 06 2013  11 49  -21.0319 26054.3 -03465.0 -07.5755 26283.7
 18 06 2013  11 50  -21.0325 26054.5 -03464.9 -07.5752 26283.9
 18 06 2013  11 51  -21.0333 26054.7 -03464.9 -07.5750 26284.1
 18 06 2013  11 52  -21.0338 26055.0 -03464.8 -07.5747 26284.3
 18 06 2013  11 53  -21.0345 26055.1 -03464.7 -07.5745 26284.5
 18 06 2013  11 54  -21.0353 26055.3 -03464.6 -07.5742 26284.6
 18 06 2013  11 55  -21.0359 26055.5 -03464.5 -07.5740 26284.8
 18 06 2013  11 56  -21.0364 26055.7 -03464.5 -07.5738 26285.0
 18 06 2013  11 57  -21.0370 26055.8 -03464.4 -07.5736 26285.1
 18 06 2013  11 58  -21.0377 26055.8 -03464.3 -07.5734 26285.1
 18 06 2013  11 59  -21.0385 26056.0 -03464.3 -07.5733 26285.2
 18 06 2013  12 00  -21.0393 26056.1 -03464.2 -07.5732 26285.4
 18 06 2013  12 01  -21.0400 26056.4 -03464.2 -07.5730 26285.7
 18 06 2013  12 02  -21.0407 26056.6 -03464.1 -07.5727 26285.8
 18 06 2013  12 03  -21.0414 26056.9 -03464.0 -07.5726 26286.1
 18 06 2013  12 04  -21.0421 26057.0 -03463.9 -07.5723 26286.3
 18 06 2013  12 05  -21.0427 26057.1 -03463.9 -07.5721 26286.4
 18 06 2013  12 06  -21.0433 26057.3 -03463.8 -07.5719 26286.5
 18 06 2013  12 07  -21.0439 26057.5 -03463.7 -07.5716 26286.7
 18 06 2013  12 08  -21.0446 26057.6 -03463.6 -07.5714 26286.8
 18 06 2013  12 09  -21.0451 26057.8 -03463.5 -07.5711 26286.9
 18 06 2013  12 10  -21.0456 26057.8 -03463.4 -07.5709 26286.9
 18 06 2013  12 11  -21.0460 26058.0 -03463.3 -07.5707 26287.1
 18 06 2013  12 12  -21.0462 26058.4 -03463.3 -07.5706 26287.5
 18 06 2013  12 13  -21.0466 26058.5 -03463.2 -07.5704 26287.6
 18 06 2013  12 14  -21.0469 26058.8 -03463.2 -07.5702 26287.9
 18 06 2013  12 15  -21.0472 26059.0 -03463.1 -07.5700 26288.1
 18 06 2013  12 16  -21.0510 26058.9 -03462.7 -07.5692 26288.0
 18 06 2013  12 17  -21.0519 26059.0 -03462.6 -07.5689 26288.0
 18 06 2013  12 18  -21.0523 26059.3 -03462.6 -07.5687 26288.3
 18 06 2013  12 19  -21.0526 26059.7 -03462.6 -07.5687 26288.7
 18 06 2013  12 20  -21.0530 26059.8 -03462.5 -07.5684 26288.8
 18 06 2013  12 21  -21.0535 26060.1 -03462.5 -07.5684 26289.1
 18 06 2013  12 22  -21.0539 26060.5 -03462.5 -07.5683 26289.5
 18 06 2013  12 23  -21.0545 26060.6 -03462.4 -07.5680 26289.6
 18 06 2013  12 24  -21.0558 26060.6 -03462.4 -07.5680 26289.6
 18 06 2013  12 25  -21.0565 26060.8 -03462.4 -07.5678 26289.8
 18 06 2013  12 26  -21.0572 26061.2 -03462.4 -07.5678 26290.2
 18 06 2013  12 27  -21.0579 26061.2 -03462.3 -07.5675 26290.2
 18 06 2013  12 28  -21.0587 26061.4 -03462.2 -07.5672 26290.3
 18 06 2013  12 29  -21.0594 26061.7 -03462.1 -07.5671 26290.6
 18 06 2013  12 30  -21.0598 26061.9 -03462.0 -07.5667 26290.8
 18 06 2013  12 31  -21.0571 26062.2 -03462.1 -07.5668 26291.2
 18 06 2013  12 32  -21.0565 26062.6 -03462.2 -07.5669 26291.5
 18 06 2013  12 33  -21.0573 26062.8 -03462.1 -07.5666 26291.7
 18 06 2013  12 34  -21.0579 26063.1 -03462.0 -07.5664 26292.0
 18 06 2013  12 35  -21.0584 26063.1 -03461.8 -07.5660 26292.1
 18 06 2013  12 36  -21.0590 26063.4 -03461.7 -07.5656 26292.3
 18 06 2013  12 37  -21.0595 26063.8 -03461.7 -07.5654 26292.7
 18 06 2013  12 38  -21.0601 26064.1 -03461.6 -07.5651 26293.0
 18 06 2013  12 39  -21.0611 26064.0 -03461.3 -07.5647 26292.9
 18 06 2013  12 40  -21.0621 26064.0 -03461.2 -07.5643 26292.8
 18 06 2013  12 41  -21.0630 26064.2 -03461.0 -07.5640 26292.9
 18 06 2013  12 42  -21.0639 26064.3 -03460.9 -07.5636 26293.1
 18 06 2013  12 43  -21.0643 26064.6 -03460.8 -07.5633 26293.4
 18 06 2013  12 44  -21.0648 26064.8 -03460.7 -07.5630 26293.6
 18 06 2013  12 45  -21.0653 26065.0 -03460.5 -07.5626 26293.7
 18 06 2013  12 46  -21.0657 26065.2 -03460.4 -07.5624 26293.9
 18 06 2013  12 47  -21.0660 26065.5 -03460.4 -07.5621 26294.2
 18 06 2013  12 48  -21.0663 26065.8 -03460.2 -07.5618 26294.4
 18 06 2013  12 49  -21.0666 26066.0 -03460.1 -07.5614 26294.6
 18 06 2013  12 50  -21.0668 26066.3 -03460.0 -07.5611 26294.9
 18 06 2013  12 51  -21.0669 26066.7 -03459.8 -07.5606 26295.3
 18 06 2013  12 52  -21.0671 26067.1 -03459.7 -07.5602 26295.7
 18 06 2013  12 53  -21.0675 26067.6 -03459.5 -07.5597 26296.1
 18 06 2013  12 54  -21.0678 26068.1 -03459.3 -07.5592 26296.6
 18 06 2013  12 55  -21.0682 26068.4 -03459.1 -07.5585 26296.9
 18 06 2013  12 56  -21.0685 26068.9 -03458.8 -07.5578 26297.3
 18 06 2013  12 57  -21.0689 26069.2 -03458.5 -07.5571 26297.6
 18 06 2013  12 58  -21.0691 26069.5 -03458.2 -07.5563 26297.8
 18 06 2013  12 59  -21.0694 26069.8 -03457.9 -07.5556 26298.2
 18 06 2013  13 00  -21.0696 26070.2 -03457.5 -07.5547 26298.5
 18 06 2013  13 01  -21.0698 26070.3 -03457.0 -07.5536 26298.5
 18 06 2013  13 02  -21.0699 26070.3 -03456.6 -07.5526 26298.5
 18 06 2013  13 03  -21.0699 26070.4 -03456.2 -07.5517 26298.5
 18 06 2013  13 04  -21.0698 26070.8 -03455.9 -07.5510 26298.8
 18 06 2013  13 05  -21.0699 26071.0 -03455.5 -07.5501 26299.0
 18 06 2013  13 06  -21.0699 26071.0 -03455.1 -07.5491 26298.9
 18 06 2013  13 07  -21.0696 26071.1 -03454.7 -07.5483 26298.9
 18 06 2013  13 08  -21.0694 26071.3 -03454.4 -07.5475 26299.1
 18 06 2013  13 09  -21.0691 26071.4 -03454.0 -07.5467 26299.2
 18 06 2013  13 10  -21.0686 26071.3 -03453.6 -07.5458 26299.0
 18 06 2013  13 11  -21.0681 26071.4 -03453.2 -07.5451 26299.1
 18 06 2013  13 12  -21.0677 26071.5 -03452.9 -07.5443 26299.1
 18 06 2013  13 13  -21.0673 26071.6 -03452.7 -07.5438 26299.3
 18 06 2013  13 14  -21.0671 26071.7 -03452.4 -07.5431 26299.3
 18 06 2013  13 15  -21.0667 26071.7 -03452.0 -07.5423 26299.2
 18 06 2013  13 16  -21.0662 26071.6 -03451.6 -07.5416 26299.1
 18 06 2013  13 17  -21.0658 26071.5 -03451.3 -07.5409 26299.0
 18 06 2013  13 18  -21.0656 26071.7 -03451.1 -07.5404 26299.1
 18 06 2013  13 19  -21.0654 26071.8 -03450.9 -07.5399 26299.2
 18 06 2013  13 20  -21.0653 26071.8 -03450.5 -07.5391 26299.1
 18 06 2013  13 21  -21.0651 26072.0 -03450.3 -07.5385 26299.3
 18 06 2013  13 22  -21.0649 26072.2 -03450.0 -07.5379 26299.5
 18 06 2013  13 23  -21.0647 26072.3 -03449.7 -07.5372 26299.5
 18 06 2013  13 24  -21.0642 26072.5 -03449.4 -07.5365 26299.7
 18 06 2013  13 25  -21.0639 26072.6 -03449.1 -07.5357 26299.7
 18 06 2013  13 26  -21.0637 26072.6 -03448.7 -07.5350 26299.7
 18 06 2013  13 27  -21.0634 26072.7 -03448.4 -07.5343 26299.7
 18 06 2013  13 28  -21.0630 26072.7 -03448.1 -07.5336 26299.7
 18 06 2013  13 29  -21.0623 26072.8 -03447.7 -07.5328 26299.7
 18 06 2013  13 30  -21.0617 26072.8 -03447.4 -07.5321 26299.7
 18 06 2013  13 31  -21.0612 26072.7 -03447.0 -07.5313 26299.5
 18 06 2013  13 32  -21.0606 26072.5 -03446.7 -07.5306 26299.3
 18 06 2013  13 33  -21.0603 26072.5 -03446.4 -07.5299 26299.2
 18 06 2013  13 34  -21.0598 26072.3 -03446.1 -07.5293 26299.1
 18 06 2013  13 35  -21.0594 26072.2 -03445.7 -07.5286 26298.9
 18 06 2013  13 36  -21.0590 26072.1 -03445.5 -07.5281 26298.8
 18 06 2013  13 37  -21.0587 26072.0 -03445.2 -07.5275 26298.6
 18 06 2013  13 38  -21.0582 26071.7 -03444.8 -07.5268 26298.3
 18 06 2013  13 39  -21.0576 26071.6 -03444.6 -07.5263 26298.1
 18 06 2013  13 40  -21.0571 26071.4 -03444.3 -07.5258 26297.9
 18 06 2013  13 41  -21.0564 26071.3 -03444.1 -07.5254 26297.8
 18 06 2013  13 42  -21.0556 26071.4 -03443.9 -07.5250 26297.8
 18 06 2013  13 43  -21.0548 26071.1 -03443.7 -07.5245 26297.6
 18 06 2013  13 44  -21.0540 26071.0 -03443.5 -07.5241 26297.4
 18 06 2013  13 45  -21.0532 26071.0 -03443.3 -07.5238 26297.4
 18 06 2013  13 46  -21.0524 26070.8 -03443.2 -07.5235 26297.2
 18 06 2013  13 47  -21.0518 26070.5 -03443.0 -07.5231 26296.9
 18 06 2013  13 48  -21.0511 26070.2 -03442.8 -07.5228 26296.6
 18 06 2013  13 49  -21.0503 26070.0 -03442.6 -07.5226 26296.3
 18 06 2013  13 50  -21.0495 26069.8 -03442.6 -07.5225 26296.1
 18 06 2013  13 51  -21.0486 26069.5 -03442.4 -07.5223 26295.8
 18 06 2013  13 52  -21.0477 26069.3 -03442.4 -07.5222 26295.6
 18 06 2013  13 53  -21.0469 26069.1 -03442.3 -07.5222 26295.4
 18 06 2013  13 54  -21.0459 26069.1 -03442.4 -07.5223 26295.4
 18 06 2013  13 55  -21.0449 26069.1 -03442.5 -07.5224 26295.4
 18 06 2013  13 56  -21.0438 26069.0 -03442.5 -07.5225 26295.3
 18 06 2013  13 57  -21.0427 26068.8 -03442.5 -07.5226 26295.2
 18 06 2013  13 58  -21.0416 26068.7 -03442.5 -07.5227 26295.0
 18 06 2013  13 59  -21.0408 26068.4 -03442.5 -07.5228 26294.7
 18 06 2013  14 00  -21.0398 26068.2 -03442.6 -07.5231 26294.5
 18 06 2013  14 01  -21.0388 26068.2 -03442.8 -07.5235 26294.6
 18 06 2013  14 02  -21.0379 26067.9 -03442.9 -07.5236 26294.3
 18 06 2013  14 03  -21.0369 26067.6 -03442.9 -07.5238 26294.0
 18 06 2013  14 04  -21.0359 26067.7 -03443.2 -07.5245 26294.1
 18 06 2013  14 05  -21.0348 26067.7 -03443.4 -07.5249 26294.1
 18 06 2013  14 06  -21.0340 26067.6 -03443.6 -07.5254 26294.0
 18 06 2013  14 07  -21.0335 26067.5 -03443.8 -07.5259 26294.0
 18 06 2013  14 08  -21.0327 26067.4 -03444.0 -07.5263 26294.0
 18 06 2013  14 09  -21.0322 26067.4 -03444.3 -07.5268 26293.9
 18 06 2013  14 10  -21.0316 26067.2 -03444.4 -07.5272 26293.8
 18 06 2013  14 11  -21.0310 26067.1 -03444.5 -07.5275 26293.7
 18 06 2013  14 12  -21.0302 26066.7 -03444.6 -07.5278 26293.3
 18 06 2013  14 13  -21.0291 26066.6 -03444.8 -07.5282 26293.2
 18 06 2013  14 14  -21.0287 26066.7 -03445.1 -07.5289 26293.4
 18 06 2013  14 15  -21.0283 26066.1 -03445.2 -07.5292 26292.7
 18 06 2013  14 16  -21.0273 26065.7 -03445.3 -07.5296 26292.4
 18 06 2013  14 17  -21.0267 26065.7 -03445.7 -07.5303 26292.5
 18 06 2013  14 18  -21.0261 26065.4 -03445.9 -07.5309 26292.2
 18 06 2013  14 19  -21.0255 26065.6 -03446.2 -07.5316 26292.4
 18 06 2013  14 20  -21.0248 26065.7 -03446.6 -07.5323 26292.5
 18 06 2013  14 21  -21.0241 26065.3 -03446.7 -07.5328 26292.2
 18 06 2013  14 22  -21.0234 26065.0 -03447.0 -07.5333 26291.9
 18 06 2013  14 23  -21.0229 26065.0 -03447.3 -07.5342 26292.0
 18 06 2013  14 24  -21.0227 26065.4 -03447.9 -07.5352 26292.4
 18 06 2013  14 25  -21.0224 26065.7 -03448.3 -07.5360 26292.8
 18 06 2013  14 26  -21.0225 26065.8 -03448.6 -07.5367 26293.0
 18 06 2013  14 27  -21.0223 26065.8 -03448.9 -07.5374 26293.0
 18 06 2013  14 28  -21.0222 26065.9 -03449.3 -07.5381 26293.1
 18 06 2013  14 29  -21.0220 26065.6 -03449.4 -07.5385 26292.8
 18 06 2013  14 30  -21.0217 26065.5 -03449.8 -07.5392 26292.8
 18 06 2013  14 31  -21.0215 26065.5 -03450.1 -07.5400 26292.9
 18 06 2013  14 32  -21.0215 26065.3 -03450.4 -07.5406 26292.7
 18 06 2013  14 33  -21.0215 26065.4 -03450.7 -07.5414 26292.8
 18 06 2013  14 34  -21.0219 26065.8 -03451.2 -07.5422 26293.2
 18 06 2013  14 35  -21.0225 26065.8 -03451.3 -07.5426 26293.3
 18 06 2013  14 36  -21.0227 26065.9 -03451.7 -07.5432 26293.5
 18 06 2013  14 37  -21.0233 26066.1 -03452.0 -07.5439 26293.7
 18 06 2013  14 38  -21.0238 26065.9 -03452.2 -07.5443 26293.5
 18 06 2013  14 39  -21.0243 26065.7 -03452.3 -07.5447 26293.3
 18 06 2013  14 40  -21.0248 26065.7 -03452.5 -07.5451 26293.3
 18 06 2013  14 41  -21.0254 26066.0 -03452.8 -07.5456 26293.6
 18 06 2013  14 42  -21.0260 26066.0 -03452.9 -07.5460 26293.7
 18 06 2013  14 43  -21.0265 26066.0 -03453.1 -07.5464 26293.8
 18 06 2013  14 44  -21.0270 26065.8 -03453.2 -07.5465 26293.6
 18 06 2013  14 45  -21.0275 26065.6 -03453.2 -07.5467 26293.4
 18 06 2013  14 46  -21.0281 26065.1 -03453.2 -07.5467 26292.9
 18 06 2013  14 47  -21.0286 26064.6 -03453.2 -07.5468 26292.3
 18 06 2013  14 48  -21.0290 26064.2 -03453.2 -07.5471 26292.0
 18 06 2013  14 49  -21.0293 26064.0 -03453.4 -07.5474 26291.8
 18 06 2013  14 50  -21.0295 26063.8 -03453.4 -07.5477 26291.5
 18 06 2013  14 51  -21.0298 26063.7 -03453.7 -07.5482 26291.6
 18 06 2013  14 52  -21.0305 26063.8 -03453.8 -07.5486 26291.6
 18 06 2013  14 53  -21.0311 26063.2 -03453.8 -07.5487 26291.1
 18 06 2013  14 54  -21.0314 26062.8 -03453.8 -07.5488 26290.6
 18 06 2013  14 55  -21.0321 26062.7 -03454.0 -07.5491 26290.6
 18 06 2013  14 56  -21.0328 26062.7 -03454.2 -07.5496 26290.6
 18 06 2013  14 57  -21.0335 26062.7 -03454.3 -07.5499 26290.6
 18 06 2013  14 58  -21.0340 26062.4 -03454.4 -07.5501 26290.3
 18 06 2013  14 59  -21.0343 26062.2 -03454.4 -07.5503 26290.2
 18 06 2013  15 00  -21.0348 26062.0 -03454.5 -07.5504 26290.0
 18 06 2013  15 01  -21.0356 26061.9 -03454.6 -07.5508 26289.9
 18 06 2013  15 02  -21.0361 26061.7 -03454.7 -07.5509 26289.7
 18 06 2013  15 03  -21.0365 26061.5 -03454.8 -07.5512 26289.5
 18 06 2013  15 04  -21.0370 26061.6 -03455.0 -07.5517 26289.6
 18 06 2013  15 05  -21.0374 26061.6 -03455.1 -07.5519 26289.7
 18 06 2013  15 06  -21.0378 26061.7 -03455.3 -07.5522 26289.8
 18 06 2013  15 07  -21.0384 26061.7 -03455.3 -07.5523 26289.8
 18 06 2013  15 08  -21.0388 26061.5 -03455.3 -07.5524 26289.6
 18 06 2013  15 09  -21.0392 26061.8 -03455.5 -07.5526 26289.8
 18 06 2013  15 10  -21.0399 26062.1 -03455.7 -07.5530 26290.2
 18 06 2013  15 11  -21.0409 26062.5 -03455.8 -07.5532 26290.6
 18 06 2013  15 12  -21.0418 26062.5 -03455.8 -07.5531 26290.6
 18 06 2013  15 13  -21.0425 26062.6 -03455.7 -07.5529 26290.7
 18 06 2013  15 14  -21.0432 26062.6 -03455.7 -07.5528 26290.7
 18 06 2013  15 15  -21.0434 26062.6 -03455.6 -07.5526 26290.7
 18 06 2013  15 16  -21.0438 26062.5 -03455.5 -07.5526 26290.6
 18 06 2013  15 17  -21.0442 26062.3 -03455.5 -07.5525 26290.4
 18 06 2013  15 18  -21.0446 26062.5 -03455.6 -07.5528 26290.6
 18 06 2013  15 19  -21.0453 26062.4 -03455.6 -07.5528 26290.5
 18 06 2013  15 20  -21.0460 26062.2 -03455.5 -07.5527 26290.3
 18 06 2013  15 21  -21.0467 26062.2 -03455.6 -07.5528 26290.3
 18 06 2013  15 22  -21.0473 26061.9 -03455.5 -07.5527 26290.0
 18 06 2013  15 23  -21.0476 26061.5 -03455.4 -07.5525 26289.6
 18 06 2013  15 24  -21.0479 26061.0 -03455.2 -07.5524 26289.1
 18 06 2013  15 25  -21.0482 26060.6 -03455.2 -07.5525 26288.6
 18 06 2013  15 26  -21.0486 26060.2 -03455.2 -07.5525 26288.2
 18 06 2013  15 27  -21.0489 26060.0 -03455.2 -07.5526 26288.0
 18 06 2013  15 28  -21.0494 26059.8 -03455.3 -07.5528 26287.8
 18 06 2013  15 29  -21.0496 26059.4 -03455.3 -07.5530 26287.5
 18 06 2013  15 30  -21.0495 26059.1 -03455.3 -07.5531 26287.2
 18 06 2013  15 31  -21.0497 26059.2 -03455.5 -07.5535 26287.3
 18 06 2013  15 32  -21.0504 26059.1 -03455.6 -07.5538 26287.2
 18 06 2013  15 33  -21.0506 26059.0 -03455.7 -07.5539 26287.1
 18 06 2013  15 34  -21.0509 26059.2 -03455.9 -07.5544 26287.4
 18 06 2013  15 35  -21.0514 26059.5 -03456.1 -07.5546 26287.7
 18 06 2013  15 36  -21.0515 26059.1 -03455.9 -07.5544 26287.3
 18 06 2013  15 37  -21.0512 26058.5 -03455.7 -07.5540 26286.6
 18 06 2013  15 38  -21.0509 26057.9 -03455.6 -07.5540 26286.0
 18 06 2013  15 39  -21.0510 26057.5 -03455.6 -07.5542 26285.6
 18 06 2013  15 40  -21.0512 26057.3 -03455.8 -07.5545 26285.4
 18 06 2013  15 41  -21.0514 26057.2 -03455.9 -07.5550 26285.4
 18 06 2013  15 42  -21.0515 26057.1 -03456.1 -07.5552 26285.3
 18 06 2013  15 43  -21.0517 26056.9 -03456.2 -07.5555 26285.1
 18 06 2013  15 44  -21.0517 26056.7 -03456.2 -07.5557 26285.0
 18 06 2013  15 45  -21.0516 26056.7 -03456.3 -07.5559 26284.9
 18 06 2013  15 46  -21.0514 26056.8 -03456.4 -07.5562 26285.0
 18 06 2013  15 47  -21.0511 26056.9 -03456.5 -07.5563 26285.2
 18 06 2013  15 48  -21.0509 26056.8 -03456.5 -07.5564 26285.1
 18 06 2013  15 49  -21.0508 26056.7 -03456.6 -07.5566 26284.9
 18 06 2013  15 50  -21.0507 26056.8 -03456.8 -07.5569 26285.0
 18 06 2013  15 51  -21.0504 26056.5 -03456.7 -07.5569 26284.8
 18 06 2013  15 52  -21.0500 26056.4 -03456.7 -07.5569 26284.7
 18 06 2013  15 53  -21.0501 26056.7 -03456.9 -07.5573 26285.0
 18 06 2013  15 54  -21.0503 26056.9 -03457.1 -07.5575 26285.3
 18 06 2013  15 55  -21.0502 26056.9 -03457.1 -07.5576 26285.2
 18 06 2013  15 56  -21.0502 26056.8 -03457.1 -07.5576 26285.1
 18 06 2013  15 57  -21.0501 26056.8 -03457.1 -07.5577 26285.1
 18 06 2013  15 58  -21.0501 26056.7 -03457.2 -07.5578 26285.0
 18 06 2013  15 59  -21.0498 26056.6 -03457.2 -07.5579 26285.0
 18 06 2013  16 00  -21.0495 26056.2 -03457.1 -07.5577 26284.5
 18 06 2013  16 01  -21.0490 26055.6 -03457.0 -07.5577 26284.0
 18 06 2013  16 02  -21.0488 26055.3 -03457.0 -07.5579 26283.6
 18 06 2013  16 03  -21.0485 26055.1 -03457.1 -07.5581 26283.5
 18 06 2013  16 04  -21.0486 26055.0 -03457.2 -07.5584 26283.4
 18 06 2013  16 05  -21.0485 26054.8 -03457.3 -07.5585 26283.2
 18 06 2013  16 06  -21.0482 26054.3 -03457.2 -07.5585 26282.7
 18 06 2013  16 07  -21.0480 26053.9 -03457.2 -07.5587 26282.3
 18 06 2013  16 08  -21.0476 26053.5 -03457.3 -07.5589 26281.9
 18 06 2013  16 09  -21.0473 26053.2 -03457.4 -07.5592 26281.6
 18 06 2013  16 10  -21.0470 26053.1 -03457.5 -07.5595 26281.5
 18 06 2013  16 11  -21.0470 26052.7 -03457.5 -07.5597 26281.1
 18 06 2013  16 12  -21.0470 26052.4 -03457.6 -07.5600 26280.8
 18 06 2013  16 13  -21.0468 26052.3 -03457.7 -07.5603 26280.7
 18 06 2013  16 14  -21.0467 26052.3 -03457.9 -07.5607 26280.8
 18 06 2013  16 15  -21.0464 26052.0 -03457.9 -07.5607 26280.5
 18 06 2013  16 16  -21.0461 26051.5 -03457.9 -07.5608 26280.0
 18 06 2013  16 17  -21.0460 26051.0 -03457.9 -07.5610 26279.5
 18 06 2013  16 18  -21.0459 26050.6 -03457.9 -07.5612 26279.1
 18 06 2013  16 19  -21.0459 26050.4 -03458.1 -07.5615 26279.0
 18 06 2013  16 20  -21.0460 26050.4 -03458.2 -07.5619 26279.0
 18 06 2013  16 21  -21.0462 26050.5 -03458.4 -07.5622 26279.1
 18 06 2013  16 22  -21.0462 26050.1 -03458.3 -07.5622 26278.6
 18 06 2013  16 23  -21.0458 26049.3 -03458.2 -07.5620 26277.8
 18 06 2013  16 24  -21.0457 26049.1 -03458.3 -07.5624 26277.7
 18 06 2013  16 25  -21.0456 26049.0 -03458.4 -07.5627 26277.6
 18 06 2013  16 26  -21.0456 26048.9 -03458.5 -07.5629 26277.5
 18 06 2013  16 27  -21.0458 26048.8 -03458.6 -07.5631 26277.4
 18 06 2013  16 28  -21.0460 26048.6 -03458.6 -07.5631 26277.2
 18 06 2013  16 29  -21.0462 26048.4 -03458.6 -07.5632 26277.0
 18 06 2013  16 30  -21.0463 26048.2 -03458.6 -07.5632 26276.8
 18 06 2013  16 31  -21.0463 26047.9 -03458.5 -07.5632 26276.5
 18 06 2013  16 32  -21.0465 26047.6 -03458.4 -07.5631 26276.2
 18 06 2013  16 33  -21.0467 26047.2 -03458.3 -07.5629 26275.7
 18 06 2013  16 34  -21.0470 26047.0 -03458.3 -07.5630 26275.5
 18 06 2013  16 35  -21.0473 26046.7 -03458.2 -07.5629 26275.3
 18 06 2013  16 36  -21.0475 26046.4 -03458.1 -07.5627 26275.0
 18 06 2013  16 37  -21.0474 26046.0 -03458.0 -07.5625 26274.6
 18 06 2013  16 38  -21.0473 26045.8 -03457.9 -07.5625 26274.3
 18 06 2013  16 39  -21.0476 26045.6 -03457.9 -07.5625 26274.1
 18 06 2013  16 40  -21.0480 26045.4 -03457.8 -07.5625 26273.9
 18 06 2013  16 41  -21.0481 26045.2 -03457.7 -07.5623 26273.7
 18 06 2013  16 42  -21.0485 26045.0 -03457.7 -07.5622 26273.6
 18 06 2013  16 43  -21.0485 26044.8 -03457.5 -07.5620 26273.3
 18 06 2013  16 44  -21.0484 26044.4 -03457.3 -07.5617 26272.8
 18 06 2013  16 45  -21.0485 26044.2 -03457.3 -07.5616 26272.7
 18 06 2013  16 46  -21.0485 26044.0 -03457.2 -07.5614 26272.4
 18 06 2013  16 47  -21.0483 26043.8 -03457.0 -07.5612 26272.2
 18 06 2013  16 48  -21.0482 26043.4 -03456.9 -07.5610 26271.9
 18 06 2013  16 49  -21.0483 26043.3 -03456.8 -07.5608 26271.7
 18 06 2013  16 50  -21.0484 26043.2 -03456.7 -07.5606 26271.6
 18 06 2013  16 51  -21.0480 26042.7 -03456.4 -07.5601 26271.1
 18 06 2013  16 52  -21.0477 26042.4 -03456.3 -07.5599 26270.8
 18 06 2013  16 53  -21.0478 26042.4 -03456.2 -07.5599 26270.7
 18 06 2013  16 54  -21.0478 26042.3 -03456.2 -07.5597 26270.6
 18 06 2013  16 55  -21.0479 26042.1 -03456.0 -07.5594 26270.4
 18 06 2013  16 56  -21.0479 26041.9 -03455.9 -07.5593 26270.2
 18 06 2013  16 57  -21.0480 26041.7 -03455.8 -07.5590 26270.0
 18 06 2013  16 58  -21.0480 26041.5 -03455.6 -07.5587 26269.8
 18 06 2013  16 59  -21.0482 26041.5 -03455.5 -07.5586 26269.7
 18 06 2013  17 00  -21.0482 26041.2 -03455.4 -07.5584 26269.5
 18 06 2013  17 01  -21.0482 26040.8 -03455.2 -07.5580 26269.0
 18 06 2013  17 02  -21.0483 26040.4 -03455.0 -07.5577 26268.6
 18 06 2013  17 03  -21.0484 26040.0 -03454.9 -07.5577 26268.2
 18 06 2013  17 04  -21.0485 26039.7 -03454.8 -07.5575 26267.8
 18 06 2013  17 05  -21.0489 26039.5 -03454.8 -07.5575 26267.7
 18 06 2013  17 06  -21.0493 26039.5 -03454.8 -07.5575 26267.7
 18 06 2013  17 07  -21.0496 26039.3 -03454.6 -07.5573 26267.5
 18 06 2013  17 08  -21.0496 26038.8 -03454.4 -07.5570 26267.0
 18 06 2013  17 09  -21.0498 26038.5 -03454.3 -07.5568 26266.6
 18 06 2013  17 10  -21.0501 26038.0 -03454.2 -07.5568 26266.1
 18 06 2013  17 11  -21.0502 26037.7 -03454.2 -07.5569 26265.8
 18 06 2013  17 12  -21.0505 26037.4 -03454.2 -07.5570 26265.5
 18 06 2013  17 13  -21.0508 26037.2 -03454.3 -07.5571 26265.3
 18 06 2013  17 14  -21.0511 26037.0 -03454.3 -07.5571 26265.1
 18 06 2013  17 15  -21.0513 26036.7 -03454.3 -07.5572 26264.9
 18 06 2013  17 16  -21.0513 26036.5 -03454.3 -07.5573 26264.6
 18 06 2013  17 17  -21.0518 26036.6 -03454.4 -07.5576 26264.7
 18 06 2013  17 18  -21.0522 26036.6 -03454.5 -07.5577 26264.7
 18 06 2013  17 19  -21.0524 26036.4 -03454.4 -07.5577 26264.6
 18 06 2013  17 20  -21.0529 26036.4 -03454.5 -07.5578 26264.5
 18 06 2013  17 21  -21.0530 26036.3 -03454.5 -07.5578 26264.4
 18 06 2013  17 22  -21.0532 26036.1 -03454.5 -07.5579 26264.3
 18 06 2013  17 23  -21.0538 26035.8 -03454.5 -07.5580 26264.0
 18 06 2013  17 24  -21.0543 26035.8 -03454.5 -07.5581 26264.0
 18 06 2013  17 25  -21.0551 26036.0 -03454.7 -07.5583 26264.2
 18 06 2013  17 26  -21.0555 26036.1 -03454.7 -07.5583 26264.3
 18 06 2013  17 27  -21.0555 26035.7 -03454.6 -07.5582 26263.9
 18 06 2013  17 28  -21.0556 26035.6 -03454.5 -07.5581 26263.8
 18 06 2013  17 29  -21.0562 26035.8 -03454.8 -07.5586 26264.0
 18 06 2013  17 30  -21.0567 26036.1 -03455.0 -07.5589 26264.3
 18 06 2013  17 31  -21.0571 26036.1 -03455.0 -07.5590 26264.4
 18 06 2013  17 32  -21.0569 26036.0 -03454.9 -07.5588 26264.2
 18 06 2013  17 33  -21.0567 26036.0 -03454.9 -07.5588 26264.2
 18 06 2013  17 34  -21.0568 26036.0 -03454.9 -07.5588 26264.2
 18 06 2013  17 35  -21.0567 26035.6 -03454.8 -07.5586 26263.8
 18 06 2013  17 36  -21.0562 26034.8 -03454.5 -07.5582 26263.0
 18 06 2013  17 37  -21.0559 26034.3 -03454.4 -07.5582 26262.4
 18 06 2013  17 38  -21.0553 26033.3 -03454.1 -07.5579 26261.5
 18 06 2013  17 39  -21.0545 26032.6 -03454.0 -07.5578 26260.7
 18 06 2013  17 40  -21.0541 26032.1 -03454.0 -07.5580 26260.3
 18 06 2013  17 41  -21.0533 26031.4 -03454.0 -07.5581 26259.5
 18 06 2013  17 42  -21.0525 26030.8 -03454.0 -07.5583 26258.9
 18 06 2013  17 43  -21.0523 26030.6 -03454.2 -07.5589 26258.8
 18 06 2013  17 44  -21.0519 26030.4 -03454.4 -07.5593 26258.6
 18 06 2013  17 45  -21.0518 26030.2 -03454.5 -07.5596 26258.4
 18 06 2013  17 46  -21.0518 26030.2 -03454.7 -07.5600 26258.4
 18 06 2013  17 47  -21.0515 26029.9 -03454.7 -07.5602 26258.1
 18 06 2013  17 48  -21.0512 26029.7 -03454.8 -07.5604 26257.9
 18 06 2013  17 49  -21.0511 26029.6 -03454.9 -07.5606 26257.9
 18 06 2013  17 50  -21.0509 26029.4 -03454.9 -07.5607 26257.7
 18 06 2013  17 51  -21.0509 26029.2 -03455.0 -07.5609 26257.5
 18 06 2013  17 52  -21.0510 26029.0 -03455.0 -07.5611 26257.3
 18 06 2013  17 53  -21.0510 26028.6 -03455.0 -07.5611 26256.9
 18 06 2013  17 54  -21.0510 26028.4 -03455.0 -07.5613 26256.7
 18 06 2013  17 55  -21.0513 26028.2 -03455.0 -07.5614 26256.5
 18 06 2013  17 56  -21.0514 26028.0 -03455.0 -07.5614 26256.3
 18 06 2013  17 57  -21.0513 26027.7 -03455.0 -07.5615 26256.0
 18 06 2013  17 58  -21.0511 26027.0 -03454.9 -07.5613 26255.3
 18 06 2013  17 59  -21.0509 26026.6 -03454.9 -07.5614 26254.9
 18 06 2013  18 00  -21.0507 26026.2 -03454.9 -07.5615 26254.5
 18 06 2013  18 01  -21.0506 26025.8 -03454.9 -07.5618 26254.1
 18 06 2013  18 02  -21.0505 26025.2 -03454.9 -07.5619 26253.5
 18 06 2013  18 03  -21.0502 26024.6 -03454.8 -07.5619 26252.9
 18 06 2013  18 04  -21.0502 26024.0 -03454.8 -07.5620 26252.3
 18 06 2013  18 05  -21.0501 26023.5 -03454.8 -07.5621 26251.8
 18 06 2013  18 06  -21.0504 26023.2 -03454.9 -07.5625 26251.6
 18 06 2013  18 07  -21.0506 26023.0 -03455.0 -07.5627 26251.4
 18 06 2013  18 08  -21.0508 26022.8 -03455.0 -07.5627 26251.1
 18 06 2013  18 09  -21.0511 26022.5 -03455.0 -07.5629 26250.9
 18 06 2013  18 10  -21.0511 26022.2 -03455.0 -07.5629 26250.5
 18 06 2013  18 11  -21.0511 26022.0 -03455.0 -07.5631 26250.4
 18 06 2013  18 12  -21.0509 26021.7 -03455.0 -07.5632 26250.1
 18 06 2013  18 13  -21.0509 26021.5 -03455.1 -07.5633 26249.9
 18 06 2013  18 14  -21.0512 26021.6 -03455.2 -07.5635 26250.0
 18 06 2013  18 15  -21.0511 26021.5 -03455.2 -07.5635 26249.9
 18 06 2013  18 16  -21.0510 26021.4 -03455.2 -07.5636 26249.8
 18 06 2013  18 17  -21.0508 26021.2 -03455.2 -07.5636 26249.6
 18 06 2013  18 18  -21.0506 26021.0 -03455.1 -07.5637 26249.4
 18 06 2013  18 19  -21.0504 26020.8 -03455.2 -07.5638 26249.2
 18 06 2013  18 20  -21.0502 26020.7 -03455.3 -07.5640 26249.1
 18 06 2013  18 21  -21.0501 26020.6 -03455.3 -07.5641 26249.0
 18 06 2013  18 22  -21.0501 26020.5 -03455.4 -07.5644 26249.0
 18 06 2013  18 23  -21.0499 26020.2 -03455.4 -07.5644 26248.6
 18 06 2013  18 24  -21.0498 26019.8 -03455.4 -07.5645 26248.2
 18 06 2013  18 25  -21.0500 26019.6 -03455.4 -07.5646 26248.0
 18 06 2013  18 26  -21.0500 26019.4 -03455.3 -07.5645 26247.9
 18 06 2013  18 27  -21.0501 26019.4 -03455.3 -07.5645 26247.8
 18 06 2013  18 28  -21.0502 26019.3 -03455.3 -07.5645 26247.8
 18 06 2013  18 29  -21.0503 26019.3 -03455.3 -07.5644 26247.7
 18 06 2013  18 30  -21.0506 26019.4 -03455.3 -07.5644 26247.9
 18 06 2013  18 31  -21.0508 26019.7 -03455.3 -07.5643 26248.1
 18 06 2013  18 32  -21.0510 26019.9 -03455.3 -07.5643 26248.3
 18 06 2013  18 33  -21.0514 26020.0 -03455.2 -07.5640 26248.5
 18 06 2013  18 34  -21.0519 26020.2 -03455.1 -07.5637 26248.6
 18 06 2013  18 35  -21.0524 26020.5 -03454.9 -07.5633 26248.9
 18 06 2013  18 36  -21.0527 26020.7 -03454.7 -07.5628 26249.1
 18 06 2013  18 37  -21.0529 26020.9 -03454.4 -07.5621 26249.2
 18 06 2013  18 38  -21.0531 26021.1 -03454.2 -07.5615 26249.3
 18 06 2013  18 39  -21.0532 26021.1 -03453.8 -07.5608 26249.4
 18 06 2013  18 40  -21.0529 26021.0 -03453.5 -07.5601 26249.2
 18 06 2013  18 41  -21.0525 26020.9 -03453.1 -07.5593 26249.0
 18 06 2013  18 42  -21.0522 26020.8 -03452.7 -07.5585 26248.9
 18 06 2013  18 43  -21.0516 26020.5 -03452.3 -07.5576 26248.6
 18 06 2013  18 44  -21.0508 26020.4 -03452.0 -07.5570 26248.4
 18 06 2013  18 45  -21.0501 26020.2 -03451.7 -07.5565 26248.1
 18 06 2013  18 46  -21.0492 26019.8 -03451.4 -07.5559 26247.8
 18 06 2013  18 47  -21.0482 26019.3 -03451.1 -07.5554 26247.2
 18 06 2013  18 48  -21.0475 26018.9 -03450.9 -07.5551 26246.7
 18 06 2013  18 49  -21.0469 26018.4 -03450.8 -07.5550 26246.3
 18 06 2013  18 50  -21.0464 26017.9 -03450.7 -07.5549 26245.7
 18 06 2013  18 51  -21.0460 26017.5 -03450.6 -07.5549 26245.3
 18 06 2013  18 52  -21.0460 26017.3 -03450.7 -07.5550 26245.1
 18 06 2013  18 53  -21.0460 26017.0 -03450.7 -07.5552 26244.9
 18 06 2013  18 54  -21.0463 26016.9 -03450.7 -07.5553 26244.7
 18 06 2013  18 55  -21.0467 26016.8 -03450.8 -07.5554 26244.7
 18 06 2013  18 56  -21.0471 26016.7 -03450.8 -07.5554 26244.6
 18 06 2013  18 57  -21.0472 26016.6 -03450.8 -07.5554 26244.5
 18 06 2013  18 58  -21.0475 26016.4 -03450.8 -07.5555 26244.3
 18 06 2013  18 59  -21.0479 26016.3 -03450.7 -07.5554 26244.2
 18 06 2013  19 00  -21.0481 26016.2 -03450.7 -07.5554 26244.0
 18 06 2013  19 01  -21.0509 26015.7 -03450.4 -07.5549 26243.6
 18 06 2013  19 02  -21.0525 26015.4 -03450.3 -07.5547 26243.2
 18 06 2013  19 03  -21.0525 26015.2 -03450.3 -07.5549 26243.0
 18 06 2013  19 04  -21.0526 26015.1 -03450.4 -07.5551 26243.0
 18 06 2013  19 05  -21.0526 26015.1 -03450.5 -07.5553 26243.0
 18 06 2013  19 06  -21.0529 26015.2 -03450.6 -07.5555 26243.0
 18 06 2013  19 07  -21.0530 26015.2 -03450.6 -07.5556 26243.0
 18 06 2013  19 08  -21.0533 26015.1 -03450.7 -07.5558 26243.0
 18 06 2013  19 09  -21.0536 26015.2 -03450.8 -07.5560 26243.0
 18 06 2013  19 10  -21.0540 26015.2 -03450.9 -07.5561 26243.0
 18 06 2013  19 11  -21.0544 26015.2 -03450.9 -07.5562 26243.1
 18 06 2013  19 12  -21.0550 26015.2 -03451.0 -07.5563 26243.0
 18 06 2013  19 13  -21.0523 26015.3 -03451.2 -07.5567 26243.2
 18 06 2013  19 14  -21.0510 26015.6 -03451.5 -07.5572 26243.6
 18 06 2013  19 15  -21.0514 26015.6 -03451.5 -07.5572 26243.6
 18 06 2013  19 16  -21.0516 26015.6 -03451.5 -07.5572 26243.6
 18 06 2013  19 17  -21.0519 26015.7 -03451.6 -07.5574 26243.7
 18 06 2013  19 18  -21.0521 26015.9 -03451.6 -07.5575 26243.9
 18 06 2013  19 19  -21.0525 26016.1 -03451.7 -07.5577 26244.1
 18 06 2013  19 20  -21.0527 26016.2 -03451.7 -07.5576 26244.1
 18 06 2013  19 21  -21.0557 26015.7 -03451.3 -07.5569 26243.7
 18 06 2013  19 22  -21.0576 26015.5 -03451.2 -07.5566 26243.5
 18 06 2013  19 23  -21.0576 26015.6 -03451.2 -07.5565 26243.5
 18 06 2013  19 24  -21.0534 26016.1 -03451.5 -07.5571 26244.0
 18 06 2013  19 25  -21.0534 26016.3 -03451.5 -07.5571 26244.3
 18 06 2013  19 26  -21.0536 26016.5 -03451.5 -07.5570 26244.4
 18 06 2013  19 27  -21.0538 26016.6 -03451.4 -07.5569 26244.5
 18 06 2013  19 28  -21.0540 26016.7 -03451.4 -07.5568 26244.6
 18 06 2013  19 29  -21.0542 26016.8 -03451.4 -07.5566 26244.7
 18 06 2013  19 30  -21.0543 26016.9 -03451.3 -07.5565 26244.8
 18 06 2013  19 31  -21.0543 26016.8 -03451.2 -07.5562 26244.7
 18 06 2013  19 32  -21.0543 26016.9 -03451.1 -07.5560 26244.7
 18 06 2013  19 33  -21.0544 26017.0 -03451.1 -07.5560 26244.9
 18 06 2013  19 34  -21.0545 26017.1 -03451.1 -07.5560 26245.0
 18 06 2013  19 35  -21.0546 26017.1 -03451.1 -07.5559 26245.0
 18 06 2013  19 36  -21.0548 26017.4 -03451.1 -07.5559 26245.3
 18 06 2013  19 37  -21.0551 26017.6 -03451.1 -07.5559 26245.5
 18 06 2013  19 38  -21.0553 26017.8 -03451.1 -07.5559 26245.7
 18 06 2013  19 39  -21.0555 26017.9 -03451.1 -07.5558 26245.8
 18 06 2013  19 40  -21.0558 26018.1 -03451.2 -07.5559 26246.0
 18 06 2013  19 41  -21.0560 26018.4 -03451.2 -07.5559 26246.3
 18 06 2013  19 42  -21.0564 26018.6 -03451.3 -07.5560 26246.5
 18 06 2013  19 43  -21.0565 26018.8 -03451.3 -07.5560 26246.7
 18 06 2013  19 44  -21.0568 26019.0 -03451.3 -07.5560 26246.9
 18 06 2013  19 45  -21.0570 26019.2 -03451.4 -07.5560 26247.2
 18 06 2013  19 46  -21.0572 26019.4 -03451.4 -07.5560 26247.3
 18 06 2013  19 47  -21.0574 26019.6 -03451.4 -07.5559 26247.5
 18 06 2013  19 48  -21.0575 26019.8 -03451.4 -07.5559 26247.7
 18 06 2013  19 49  -21.0577 26020.0 -03451.4 -07.5558 26247.9
 18 06 2013  19 50  -21.0578 26020.2 -03451.4 -07.5558 26248.1
 18 06 2013  19 51  -21.0579 26020.3 -03451.4 -07.5557 26248.2
 18 06 2013  19 52  -21.0579 26020.3 -03451.3 -07.5556 26248.2
 18 06 2013  19 53  -21.0577 26020.3 -03451.2 -07.5554 26248.2
 18 06 2013  19 54  -21.0574 26020.3 -03451.2 -07.5553 26248.2
 18 06 2013  19 55  -21.0571 26020.3 -03451.1 -07.5552 26248.2
 18 06 2013  19 56  -21.0568 26020.2 -03451.0 -07.5550 26248.0
 18 06 2013  19 57  -21.0565 26020.1 -03451.0 -07.5549 26248.0
 18 06 2013  19 58  -21.0563 26020.1 -03451.0 -07.5549 26247.9
 18 06 2013  19 59  -21.0560 26020.0 -03450.9 -07.5548 26247.8
 18 06 2013  20 00  -21.0558 26020.0 -03451.0 -07.5549 26247.8
 18 06 2013  20 01  -21.0554 26019.9 -03450.9 -07.5549 26247.8
 18 06 2013  20 02  -21.0549 26019.8 -03450.9 -07.5548 26247.6
 18 06 2013  20 03  -21.0546 26019.7 -03450.9 -07.5549 26247.6
 18 06 2013  20 04  -21.0543 26019.8 -03450.9 -07.5549 26247.6
 18 06 2013  20 05  -21.0540 26019.6 -03450.9 -07.5549 26247.5
 18 06 2013  20 06  -21.0539 26019.8 -03451.0 -07.5551 26247.6
 18 06 2013  20 07  -21.0538 26020.0 -03451.1 -07.5553 26247.9
 18 06 2013  20 08  -21.0537 26020.1 -03451.2 -07.5554 26248.0
 18 06 2013  20 09  -21.0535 26020.1 -03451.2 -07.5554 26248.0
 18 06 2013  20 10  -21.0534 26020.0 -03451.2 -07.5554 26247.9
 18 06 2013  20 11  -21.0533 26020.2 -03451.3 -07.5556 26248.1
 18 06 2013  20 12  -21.0531 26020.2 -03451.3 -07.5555 26248.0
 18 06 2013  20 13  -21.0527 26020.2 -03451.3 -07.5556 26248.1
 18 06 2013  20 14  -21.0523 26020.4 -03451.3 -07.5556 26248.3
 18 06 2013  20 15  -21.0521 26020.3 -03451.3 -07.5556 26248.2
 18 06 2013  20 16  -21.0520 26020.2 -03451.3 -07.5555 26248.1
 18 06 2013  20 17  -21.0521 26020.6 -03451.4 -07.5556 26248.5
 18 06 2013  20 18  -21.0521 26020.8 -03451.4 -07.5557 26248.7
 18 06 2013  20 19  -21.0519 26020.6 -03451.4 -07.5556 26248.5
 18 06 2013  20 20  -21.0518 26020.7 -03451.4 -07.5556 26248.6
 18 06 2013  20 21  -21.0516 26020.9 -03451.4 -07.5556 26248.8
 18 06 2013  20 22  -21.0513 26020.9 -03451.4 -07.5555 26248.8
 18 06 2013  20 23  -21.0511 26020.9 -03451.4 -07.5555 26248.8
 18 06 2013  20 24  -21.0509 26021.1 -03451.3 -07.5554 26249.0
 18 06 2013  20 25  -21.0508 26021.1 -03451.4 -07.5555 26249.0
 18 06 2013  20 26  -21.0507 26021.2 -03451.4 -07.5555 26249.1
 18 06 2013  20 27  -21.0506 26021.3 -03451.4 -07.5554 26249.2
 18 06 2013  20 28  -21.0505 26021.4 -03451.4 -07.5554 26249.3
 18 06 2013  20 29  -21.0504 26021.5 -03451.4 -07.5555 26249.4
 18 06 2013  20 30  -21.0503 26021.7 -03451.5 -07.5555 26249.6
 18 06 2013  20 31  -21.0501 26021.7 -03451.4 -07.5554 26249.6
 18 06 2013  20 32  -21.0499 26021.7 -03451.4 -07.5553 26249.6
 18 06 2013  20 33  -21.0496 26021.9 -03451.4 -07.5552 26249.7
 18 06 2013  20 34  -21.0492 26021.9 -03451.3 -07.5551 26249.7
 18 06 2013  20 35  -21.0489 26021.8 -03451.3 -07.5550 26249.7
 18 06 2013  20 36  -21.0486 26021.8 -03451.3 -07.5551 26249.7
 18 06 2013  20 37  -21.0483 26021.9 -03451.3 -07.5551 26249.8
 18 06 2013  20 38  -21.0479 26022.0 -03451.3 -07.5551 26249.8
 18 06 2013  20 39  -21.0475 26022.0 -03451.4 -07.5551 26249.9
 18 06 2013  20 40  -21.0471 26022.0 -03451.3 -07.5551 26249.9
 18 06 2013  20 41  -21.0468 26021.9 -03451.3 -07.5551 26249.8
 18 06 2013  20 42  -21.0463 26021.9 -03451.3 -07.5551 26249.8
 18 06 2013  20 43  -21.0461 26021.9 -03451.3 -07.5551 26249.8
 18 06 2013  20 44  -21.0458 26021.9 -03451.4 -07.5552 26249.8
 18 06 2013  20 45  -21.0455 26021.9 -03451.4 -07.5553 26249.8
 18 06 2013  20 46  -21.0453 26022.0 -03451.4 -07.5553 26249.9
 18 06 2013  20 47  -21.0451 26022.0 -03451.5 -07.5555 26249.9
 18 06 2013  20 48  -21.0449 26022.1 -03451.6 -07.5556 26250.0
 18 06 2013  20 49  -21.0447 26022.2 -03451.6 -07.5557 26250.2
 18 06 2013  20 50  -21.0444 26022.3 -03451.6 -07.5557 26250.2
 18 06 2013  20 51  -21.0442 26022.3 -03451.7 -07.5558 26250.3
 18 06 2013  20 52  -21.0439 26022.4 -03451.7 -07.5559 26250.4
 18 06 2013  20 53  -21.0438 26022.5 -03451.8 -07.5559 26250.4
 18 06 2013  20 54  -21.0435 26022.6 -03451.9 -07.5561 26250.6
 18 06 2013  20 55  -21.0433 26022.8 -03451.9 -07.5561 26250.7
 18 06 2013  20 56  -21.0431 26022.8 -03451.9 -07.5562 26250.8
 18 06 2013  20 57  -21.0429 26022.9 -03452.0 -07.5563 26250.9
 18 06 2013  20 58  -21.0428 26023.0 -03452.0 -07.5563 26251.0
 18 06 2013  20 59  -21.0425 26023.2 -03452.1 -07.5564 26251.2
 18 06 2013  21 00  -21.0422 26023.4 -03452.2 -07.5566 26251.4
 18 06 2013  21 01  -21.0419 26023.5 -03452.2 -07.5566 26251.5
 18 06 2013  21 02  -21.0417 26023.6 -03452.2 -07.5566 26251.6
 18 06 2013  21 03  -21.0416 26023.6 -03452.2 -07.5566 26251.6
 18 06 2013  21 04  -21.0414 26023.7 -03452.2 -07.5565 26251.7
 18 06 2013  21 05  -21.0412 26023.8 -03452.2 -07.5566 26251.8
 18 06 2013  21 06  -21.0410 26023.9 -03452.4 -07.5567 26251.9
 18 06 2013  21 07  -21.0409 26024.2 -03452.4 -07.5568 26252.2
 18 06 2013  21 08  -21.0409 26024.3 -03452.5 -07.5569 26252.3
 18 06 2013  21 09  -21.0408 26024.4 -03452.5 -07.5570 26252.4
 18 06 2013  21 10  -21.0407 26024.5 -03452.5 -07.5569 26252.5
 18 06 2013  21 11  -21.0406 26024.6 -03452.5 -07.5569 26252.6
 18 06 2013  21 12  -21.0403 26024.6 -03452.5 -07.5568 26252.6
 18 06 2013  21 13  -21.0401 26024.6 -03452.4 -07.5566 26252.6
 18 06 2013  21 14  -21.0399 26024.7 -03452.4 -07.5567 26252.7
 18 06 2013  21 15  -21.0397 26024.8 -03452.4 -07.5567 26252.8
 18 06 2013  21 16  -21.0394 26024.9 -03452.4 -07.5567 26252.9
 18 06 2013  21 17  -21.0391 26024.9 -03452.4 -07.5566 26252.9
 18 06 2013  21 18  -21.0388 26024.9 -03452.4 -07.5566 26252.9
 18 06 2013  21 19  -21.0387 26024.9 -03452.4 -07.5565 26252.9
 18 06 2013  21 20  -21.0386 26024.9 -03452.4 -07.5565 26252.9
 18 06 2013  21 21  -21.0384 26024.9 -03452.3 -07.5564 26252.9
 18 06 2013  21 22  -21.0382 26025.0 -03452.3 -07.5563 26252.9
 18 06 2013  21 23  -21.0380 26025.0 -03452.3 -07.5563 26253.0
 18 06 2013  21 24  -21.0378 26025.0 -03452.3 -07.5563 26253.0
 18 06 2013  21 25  -21.0377 26025.1 -03452.3 -07.5562 26253.0
 18 06 2013  21 26  -21.0376 26025.1 -03452.3 -07.5562 26253.0
 18 06 2013  21 27  -21.0374 26025.1 -03452.3 -07.5562 26253.1
 18 06 2013  21 28  -21.0373 26025.3 -03452.4 -07.5564 26253.3
 18 06 2013  21 29  -21.0371 26025.6 -03452.4 -07.5565 26253.6
 18 06 2013  21 30  -21.0369 26025.7 -03452.5 -07.5566 26253.7
 18 06 2013  21 31  -21.0368 26025.9 -03452.6 -07.5566 26253.9
 18 06 2013  21 32  -21.0367 26026.0 -03452.6 -07.5567 26254.1
 18 06 2013  21 33  -21.0365 26026.2 -03452.7 -07.5568 26254.2
 18 06 2013  21 34  -21.0365 26026.3 -03452.7 -07.5568 26254.4
 18 06 2013  21 35  -21.0365 26026.5 -03452.7 -07.5569 26254.5
 18 06 2013  21 36  -21.0364 26026.6 -03452.8 -07.5569 26254.7
 18 06 2013  21 37  -21.0363 26026.8 -03452.8 -07.5569 26254.8
 18 06 2013  21 38  -21.0363 26026.9 -03452.8 -07.5569 26254.9
 18 06 2013  21 39  -21.0362 26027.0 -03452.8 -07.5569 26255.0
 18 06 2013  21 40  -21.0362 26027.1 -03452.8 -07.5569 26255.1
 18 06 2013  21 41  -21.0362 26027.2 -03452.8 -07.5568 26255.2
 18 06 2013  21 42  -21.0362 26027.3 -03452.8 -07.5568 26255.4
 18 06 2013  21 43  -21.0363 26027.5 -03452.9 -07.5569 26255.5
 18 06 2013  21 44  -21.0363 26027.7 -03452.9 -07.5569 26255.7
 18 06 2013  21 45  -21.0364 26027.8 -03452.9 -07.5568 26255.8
 18 06 2013  21 46  -21.0364 26027.8 -03452.9 -07.5568 26255.9
 18 06 2013  21 47  -21.0364 26027.9 -03452.9 -07.5568 26256.0
 18 06 2013  21 48  -21.0365 26028.0 -03452.9 -07.5567 26256.0
 18 06 2013  21 49  -21.0366 26028.1 -03452.8 -07.5566 26256.1
 18 06 2013  21 50  -21.0367 26028.3 -03452.9 -07.5567 26256.3
 18 06 2013  21 51  -21.0368 26028.4 -03452.9 -07.5567 26256.5
 18 06 2013  21 52  -21.0369 26028.6 -03452.9 -07.5567 26256.6
 18 06 2013  21 53  -21.0369 26028.8 -03452.9 -07.5566 26256.8
 18 06 2013  21 54  -21.0370 26028.8 -03452.8 -07.5564 26256.8
 18 06 2013  21 55  -21.0370 26028.7 -03452.8 -07.5563 26256.7
 18 06 2013  21 56  -21.0371 26028.7 -03452.7 -07.5561 26256.7
 18 06 2013  21 57  -21.0372 26028.6 -03452.6 -07.5559 26256.6
 18 06 2013  21 58  -21.0372 26028.7 -03452.6 -07.5558 26256.7
 18 06 2013  21 59  -21.0372 26028.7 -03452.5 -07.5558 26256.7
 18 06 2013  22 00  -21.0371 26028.5 -03452.4 -07.5555 26256.5
 18 06 2013  22 01  -21.0370 26028.4 -03452.3 -07.5553 26256.4
 18 06 2013  22 02  -21.0369 26028.4 -03452.2 -07.5551 26256.3
 18 06 2013  22 03  -21.0368 26028.3 -03452.1 -07.5549 26256.2
 18 06 2013  22 04  -21.0368 26028.1 -03452.0 -07.5548 26256.1
 18 06 2013  22 05  -21.0367 26028.0 -03451.9 -07.5546 26255.9
 18 06 2013  22 06  -21.0367 26027.9 -03451.9 -07.5545 26255.8
 18 06 2013  22 07  -21.0367 26027.9 -03451.8 -07.5545 26255.8
 18 06 2013  22 08  -21.0365 26027.9 -03451.8 -07.5544 26255.8
 18 06 2013  22 09  -21.0364 26027.8 -03451.8 -07.5544 26255.7
 18 06 2013  22 10  -21.0362 26027.8 -03451.7 -07.5543 26255.7
 18 06 2013  22 11  -21.0360 26027.7 -03451.7 -07.5542 26255.6
 18 06 2013  22 12  -21.0360 26027.8 -03451.7 -07.5543 26255.6
 18 06 2013  22 13  -21.0360 26027.8 -03451.7 -07.5543 26255.7
 18 06 2013  22 14  -21.0360 26027.8 -03451.7 -07.5543 26255.7
 18 06 2013  22 15  -21.0359 26027.8 -03451.7 -07.5543 26255.7
 18 06 2013  22 16  -21.0358 26027.8 -03451.7 -07.5543 26255.7
 18 06 2013  22 17  -21.0359 26027.8 -03451.8 -07.5544 26255.7
 18 06 2013  22 18  -21.0358 26027.8 -03451.7 -07.5543 26255.7
 18 06 2013  22 19  -21.0357 26027.7 -03451.7 -07.5543 26255.6
 18 06 2013  22 20  -21.0356 26027.7 -03451.7 -07.5542 26255.6
 18 06 2013  22 21  -21.0355 26027.7 -03451.7 -07.5542 26255.6
 18 06 2013  22 22  -21.0353 26027.7 -03451.7 -07.5543 26255.6
 18 06 2013  22 23  -21.0353 26027.7 -03451.7 -07.5543 26255.6
 18 06 2013  22 24  -21.0353 26027.7 -03451.7 -07.5543 26255.6
 18 06 2013  22 25  -21.0352 26027.7 -03451.8 -07.5544 26255.6
 18 06 2013  22 26  -21.0354 26027.8 -03451.8 -07.5544 26255.7
 18 06 2013  22 27  -21.0355 26027.8 -03451.8 -07.5545 26255.7
 18 06 2013  22 28  -21.0355 26027.9 -03451.8 -07.5545 26255.8
 18 06 2013  22 29  -21.0355 26028.0 -03451.9 -07.5546 26255.9
 18 06 2013  22 30  -21.0355 26028.1 -03451.9 -07.5547 26256.0
 18 06 2013  22 31  -21.0355 26028.2 -03452.0 -07.5547 26256.1
 18 06 2013  22 32  -21.0353 26028.3 -03452.0 -07.5547 26256.2
 18 06 2013  22 33  -21.0354 26028.4 -03452.0 -07.5548 26256.3
 18 06 2013  22 34  -21.0354 26028.4 -03452.1 -07.5548 26256.3
 18 06 2013  22 35  -21.0354 26028.4 -03452.0 -07.5548 26256.3
 18 06 2013  22 36  -21.0354 26028.5 -03452.1 -07.5549 26256.4
 18 06 2013  22 37  -21.0354 26028.5 -03452.1 -07.5549 26256.4
 18 06 2013  22 38  -21.0353 26028.5 -03452.1 -07.5549 26256.5
 18 06 2013  22 39  -21.0354 26028.6 -03452.1 -07.5549 26256.5
 18 06 2013  22 40  -21.0355 26028.7 -03452.1 -07.5549 26256.6
 18 06 2013  22 41  -21.0356 26028.7 -03452.2 -07.5550 26256.7
 18 06 2013  22 42  -21.0357 26028.9 -03452.2 -07.5551 26256.8
 18 06 2013  22 43  -21.0357 26029.0 -03452.2 -07.5551 26256.9
 18 06 2013  22 44  -21.0358 26029.0 -03452.3 -07.5551 26257.0
 18 06 2013  22 45  -21.0360 26029.0 -03452.3 -07.5551 26257.0
 18 06 2013  22 46  -21.0362 26029.1 -03452.3 -07.5551 26257.0
 18 06 2013  22 47  -21.0363 26029.1 -03452.3 -07.5551 26257.0
 18 06 2013  22 48  -21.0365 26029.1 -03452.2 -07.5550 26257.1
 18 06 2013  22 49  -21.0367 26029.2 -03452.3 -07.5551 26257.1
 18 06 2013  22 50  -21.0367 26029.3 -03452.3 -07.5551 26257.3
 18 06 2013  22 51  -21.0366 26029.4 -03452.3 -07.5551 26257.4
 18 06 2013  22 52  -21.0365 26029.5 -03452.4 -07.5552 26257.4
 18 06 2013  22 53  -21.0365 26029.5 -03452.4 -07.5552 26257.5
 18 06 2013  22 54  -21.0364 26029.5 -03452.3 -07.5551 26257.5
 18 06 2013  22 55  -21.0363 26029.5 -03452.3 -07.5551 26257.5
 18 06 2013  22 56  -21.0363 26029.6 -03452.3 -07.5551 26257.5
 18 06 2013  22 57  -21.0363 26029.7 -03452.4 -07.5552 26257.7
 18 06 2013  22 58  -21.0361 26029.8 -03452.4 -07.5552 26257.7
 18 06 2013  22 59  -21.0358 26029.9 -03452.4 -07.5552 26257.8
 18 06 2013  23 00  -21.0357 26029.9 -03452.4 -07.5552 26257.8
 18 06 2013  23 01  -21.0355 26029.8 -03452.4 -07.5552 26257.8
 18 06 2013  23 02  -21.0353 26029.8 -03452.4 -07.5552 26257.8
 18 06 2013  23 03  -21.0350 26029.9 -03452.4 -07.5551 26257.8
 18 06 2013  23 04  -21.0347 26029.9 -03452.4 -07.5552 26257.9
 18 06 2013  23 05  -21.0345 26029.9 -03452.4 -07.5552 26257.9
 18 06 2013  23 06  -21.0344 26029.9 -03452.5 -07.5553 26257.9
 18 06 2013  23 07  -21.0342 26029.9 -03452.5 -07.5553 26257.9
 18 06 2013  23 08  -21.0341 26030.0 -03452.5 -07.5554 26257.9
 18 06 2013  23 09  -21.0341 26030.0 -03452.6 -07.5555 26258.0
 18 06 2013  23 10  -21.0340 26030.0 -03452.6 -07.5555 26258.0
 18 06 2013  23 11  -21.0340 26030.1 -03452.6 -07.5556 26258.1
 18 06 2013  23 12  -21.0340 26030.1 -03452.7 -07.5557 26258.1
 18 06 2013  23 13  -21.0340 26030.1 -03452.7 -07.5557 26258.1
 18 06 2013  23 14  -21.0339 26030.1 -03452.7 -07.5557 26258.1
 18 06 2013  23 15  -21.0339 26030.0 -03452.6 -07.5556 26258.0
 18 06 2013  23 16  -21.0338 26030.0 -03452.6 -07.5556 26258.0
 18 06 2013  23 17  -21.0338 26030.0 -03452.6 -07.5556 26258.0
 18 06 2013  23 18  -21.0337 26030.0 -03452.6 -07.5557 26258.0
 18 06 2013  23 19  -21.0337 26030.0 -03452.7 -07.5557 26258.0
 18 06 2013  23 20  -21.0337 26030.0 -03452.7 -07.5557 26258.0
 18 06 2013  23 21  -21.0336 26030.0 -03452.7 -07.5557 26258.0
 18 06 2013  23 22  -21.0335 26030.0 -03452.6 -07.5557 26258.0
 18 06 2013  23 23  -21.0335 26029.9 -03452.7 -07.5557 26257.9
 18 06 2013  23 24  -21.0336 26029.9 -03452.7 -07.5557 26257.9
 18 06 2013  23 25  -21.0337 26029.9 -03452.7 -07.5557 26257.9
 18 06 2013  23 26  -21.0337 26030.0 -03452.7 -07.5558 26258.0
 18 06 2013  23 27  -21.0337 26030.0 -03452.7 -07.5558 26258.0
 18 06 2013  23 28  -21.0338 26030.1 -03452.7 -07.5558 26258.1
 18 06 2013  23 29  -21.0339 26030.1 -03452.8 -07.5558 26258.1
 18 06 2013  23 30  -21.0340 26030.1 -03452.7 -07.5558 26258.1
 18 06 2013  23 31  -21.0341 26030.1 -03452.7 -07.5558 26258.1
 18 06 2013  23 32  -21.0342 26030.0 -03452.7 -07.5558 26258.0
 18 06 2013  23 33  -21.0344 26029.8 -03452.6 -07.5556 26257.8
 18 06 2013  23 34  -21.0346 26029.6 -03452.5 -07.5554 26257.6
 18 06 2013  23 35  -21.0347 26029.4 -03452.4 -07.5553 26257.4
 18 06 2013  23 36  -21.0346 26029.3 -03452.3 -07.5552 26257.2
 18 06 2013  23 37  -21.0345 26029.1 -03452.3 -07.5551 26257.1
 18 06 2013  23 38  -21.0344 26029.1 -03452.3 -07.5550 26257.1
 18 06 2013  23 39  -21.0342 26029.1 -03452.3 -07.5551 26257.1
 18 06 2013  23 40  -21.0341 26029.2 -03452.3 -07.5552 26257.1
 18 06 2013  23 41  -21.0340 26029.2 -03452.4 -07.5552 26257.2
 18 06 2013  23 42  -21.0338 26029.4 -03452.4 -07.5554 26257.3
 18 06 2013  23 43  -21.0335 26029.5 -03452.5 -07.5555 26257.5
 18 06 2013  23 44  -21.0334 26029.7 -03452.6 -07.5557 26257.7
 18 06 2013  23 45  -21.0334 26029.8 -03452.7 -07.5558 26257.8
 18 06 2013  23 46  -21.0334 26029.9 -03452.7 -07.5559 26257.9
 18 06 2013  23 47  -21.0335 26029.9 -03452.8 -07.5559 26257.9
 18 06 2013  23 48  -21.0336 26029.9 -03452.7 -07.5559 26257.9
 18 06 2013  23 49  -21.0336 26029.8 -03452.7 -07.5558 26257.8
 18 06 2013  23 50  -21.0336 26029.7 -03452.6 -07.5557 26257.7
 18 06 2013  23 51  -21.0334 26029.6 -03452.6 -07.5557 26257.6
 18 06 2013  23 52  -21.0334 26029.7 -03452.6 -07.5557 26257.6
 18 06 2013  23 53  -21.0333 26029.8 -03452.7 -07.5557 26257.7
 18 06 2013  23 54  -21.0332 26029.9 -03452.7 -07.5559 26257.9
 18 06 2013  23 55  -21.0331 26029.9 -03452.8 -07.5559 26257.9
 18 06 2013  23 56  -21.0329 26029.9 -03452.8 -07.5559 26257.9
 18 06 2013  23 57  -21.0328 26030.0 -03452.8 -07.5560 26258.0
 18 06 2013  23 58  -21.0327 26030.0 -03452.8 -07.5560 26258.0
