SAO LUIS EMBRACE-03 <106> 1 Min. Reported data

 DD MM YYYY  HH MM   D(Deg)  H(nT)   Z(nT)   I(Deg)   F(nT)

 16 04 2013  00 00  -21.0371 26030.4 -03427.2 -07.5004 26255.1
 16 04 2013  00 01  -21.0371 26029.9 -03426.9 -07.5000 26254.5
 16 04 2013  00 02  -21.0370 26029.6 -03426.8 -07.4998 26254.2
 16 04 2013  00 03  -21.0367 26029.6 -03426.8 -07.5000 26254.2
 16 04 2013  00 04  -21.0365 26029.8 -03427.1 -07.5003 26254.4
 16 04 2013  00 05  -21.0363 26030.2 -03427.3 -07.5009 26254.9
 16 04 2013  00 06  -21.0360 26030.8 -03427.7 -07.5015 26255.5
 16 04 2013  00 07  -21.0356 26031.5 -03428.2 -07.5023 26256.3
 16 04 2013  00 08  -21.0355 26032.0 -03428.5 -07.5028 26256.8
 16 04 2013  00 09  -21.0354 26032.3 -03428.7 -07.5031 26257.1
 16 04 2013  00 10  -21.0356 26032.2 -03428.7 -07.5032 26257.0
 16 04 2013  00 11  -21.0357 26031.9 -03428.5 -07.5029 26256.7
 16 04 2013  00 12  -21.0360 26031.7 -03428.4 -07.5027 26256.5
 16 04 2013  00 13  -21.0361 26031.6 -03428.4 -07.5027 26256.4
 16 04 2013  00 14  -21.0361 26031.6 -03428.3 -07.5026 26256.4
 16 04 2013  00 15  -21.0361 26031.5 -03428.3 -07.5026 26256.3
 16 04 2013  00 16  -21.0361 26031.5 -03428.3 -07.5026 26256.3
 16 04 2013  00 17  -21.0360 26031.6 -03428.4 -07.5027 26256.4
 16 04 2013  00 18  -21.0359 26031.7 -03428.5 -07.5029 26256.5
 16 04 2013  00 19  -21.0359 26031.8 -03428.5 -07.5030 26256.6
 16 04 2013  00 20  -21.0359 26032.0 -03428.6 -07.5031 26256.8
 16 04 2013  00 21  -21.0358 26032.0 -03428.7 -07.5032 26256.8
 16 04 2013  00 22  -21.0358 26032.1 -03428.7 -07.5032 26256.9
 16 04 2013  00 23  -21.0356 26032.1 -03428.7 -07.5033 26256.9
 16 04 2013  00 24  -21.0354 26032.1 -03428.7 -07.5033 26257.0
 16 04 2013  00 25  -21.0352 26032.1 -03428.7 -07.5033 26257.0
 16 04 2013  00 26  -21.0351 26032.1 -03428.7 -07.5033 26256.9
 16 04 2013  00 27  -21.0351 26032.2 -03428.8 -07.5033 26257.0
 16 04 2013  00 28  -21.0350 26032.1 -03428.8 -07.5034 26257.0
 16 04 2013  00 29  -21.0349 26032.0 -03428.8 -07.5034 26256.9
 16 04 2013  00 30  -21.0348 26032.0 -03428.7 -07.5033 26256.8
 16 04 2013  00 31  -21.0347 26032.0 -03428.7 -07.5033 26256.8
 16 04 2013  00 32  -21.0346 26031.9 -03428.7 -07.5033 26256.7
 16 04 2013  00 33  -21.0346 26031.9 -03428.7 -07.5034 26256.7
 16 04 2013  00 34  -21.0344 26032.1 -03428.8 -07.5035 26256.9
 16 04 2013  00 35  -21.0342 26032.3 -03429.0 -07.5037 26257.2
 16 04 2013  00 36  -21.0340 26032.5 -03429.1 -07.5040 26257.3
 16 04 2013  00 37  -21.0339 26032.6 -03429.2 -07.5041 26257.5
 16 04 2013  00 38  -21.0338 26032.7 -03429.3 -07.5043 26257.6
 16 04 2013  00 39  -21.0339 26032.8 -03429.3 -07.5043 26257.7
 16 04 2013  00 40  -21.0340 26032.7 -03429.3 -07.5043 26257.6
 16 04 2013  00 41  -21.0341 26032.5 -03429.2 -07.5041 26257.4
 16 04 2013  00 42  -21.0342 26032.2 -03429.0 -07.5039 26257.1
 16 04 2013  00 43  -21.0343 26031.9 -03428.8 -07.5036 26256.7
 16 04 2013  00 44  -21.0342 26031.6 -03428.7 -07.5034 26256.5
 16 04 2013  00 45  -21.0337 26031.6 -03428.7 -07.5035 26256.4
 16 04 2013  00 46  -21.0333 26031.9 -03428.9 -07.5037 26256.7
 16 04 2013  00 47  -21.0330 26032.3 -03429.1 -07.5041 26257.2
 16 04 2013  00 48  -21.0327 26032.7 -03429.4 -07.5046 26257.6
 16 04 2013  00 49  -21.0324 26033.1 -03429.6 -07.5049 26258.1
 16 04 2013  00 50  -21.0322 26033.4 -03429.8 -07.5053 26258.4
 16 04 2013  00 51  -21.0323 26033.5 -03429.9 -07.5054 26258.5
 16 04 2013  00 52  -21.0323 26033.4 -03429.8 -07.5053 26258.4
 16 04 2013  00 53  -21.0325 26033.3 -03429.8 -07.5052 26258.3
 16 04 2013  00 54  -21.0326 26033.1 -03429.7 -07.5051 26258.1
 16 04 2013  00 55  -21.0327 26032.9 -03429.6 -07.5049 26257.8
 16 04 2013  00 56  -21.0328 26032.7 -03429.5 -07.5048 26257.6
 16 04 2013  00 57  -21.0328 26032.7 -03429.5 -07.5047 26257.6
 16 04 2013  00 58  -21.0327 26032.6 -03429.5 -07.5048 26257.5
 16 04 2013  00 59  -21.0327 26032.5 -03429.5 -07.5048 26257.5
 16 04 2013  01 00  -21.0326 26032.6 -03429.5 -07.5049 26257.5
 16 04 2013  01 01  -21.0325 26032.7 -03429.6 -07.5050 26257.6
 16 04 2013  01 02  -21.0324 26032.7 -03429.6 -07.5050 26257.7
 16 04 2013  01 03  -21.0323 26032.7 -03429.6 -07.5051 26257.7
 16 04 2013  01 04  -21.0323 26032.8 -03429.7 -07.5052 26257.7
 16 04 2013  01 05  -21.0321 26032.8 -03429.7 -07.5053 26257.8
 16 04 2013  01 06  -21.0320 26032.9 -03429.8 -07.5053 26257.8
 16 04 2013  01 07  -21.0319 26032.9 -03429.8 -07.5054 26257.9
 16 04 2013  01 08  -21.0318 26033.0 -03429.8 -07.5054 26257.9
 16 04 2013  01 09  -21.0317 26033.0 -03429.8 -07.5054 26257.9
 16 04 2013  01 10  -21.0317 26033.0 -03429.8 -07.5055 26257.9
 16 04 2013  01 11  -21.0317 26033.0 -03429.9 -07.5055 26257.9
 16 04 2013  01 12  -21.0316 26033.0 -03429.9 -07.5056 26257.9
 16 04 2013  01 13  -21.0317 26032.9 -03429.9 -07.5056 26257.9
 16 04 2013  01 14  -21.0317 26033.0 -03429.9 -07.5057 26258.0
 16 04 2013  01 15  -21.0317 26033.1 -03430.0 -07.5058 26258.1
 16 04 2013  01 16  -21.0315 26033.2 -03430.1 -07.5059 26258.2
 16 04 2013  01 17  -21.0314 26033.3 -03430.1 -07.5059 26258.3
 16 04 2013  01 18  -21.0312 26033.4 -03430.1 -07.5060 26258.4
 16 04 2013  01 19  -21.0310 26033.5 -03430.2 -07.5061 26258.5
 16 04 2013  01 20  -21.0309 26033.7 -03430.3 -07.5062 26258.7
 16 04 2013  01 21  -21.0308 26033.7 -03430.3 -07.5062 26258.7
 16 04 2013  01 22  -21.0307 26033.7 -03430.3 -07.5063 26258.8
 16 04 2013  01 23  -21.0306 26033.8 -03430.3 -07.5063 26258.8
 16 04 2013  01 24  -21.0304 26033.7 -03430.3 -07.5063 26258.8
 16 04 2013  01 25  -21.0303 26033.7 -03430.3 -07.5063 26258.7
 16 04 2013  01 26  -21.0302 26033.8 -03430.3 -07.5063 26258.9
 16 04 2013  01 27  -21.0300 26033.8 -03430.3 -07.5063 26258.9
 16 04 2013  01 28  -21.0299 26033.8 -03430.4 -07.5063 26258.9
 16 04 2013  01 29  -21.0298 26033.9 -03430.4 -07.5064 26258.9
 16 04 2013  01 30  -21.0298 26033.8 -03430.4 -07.5064 26258.9
 16 04 2013  01 31  -21.0298 26033.7 -03430.3 -07.5063 26258.7
 16 04 2013  01 32  -21.0299 26033.7 -03430.3 -07.5063 26258.7
 16 04 2013  01 33  -21.0300 26033.6 -03430.3 -07.5062 26258.6
 16 04 2013  01 34  -21.0301 26033.4 -03430.2 -07.5061 26258.4
 16 04 2013  01 35  -21.0301 26033.3 -03430.1 -07.5060 26258.3
 16 04 2013  01 36  -21.0301 26033.2 -03430.1 -07.5060 26258.2
 16 04 2013  01 37  -21.0301 26033.3 -03430.1 -07.5060 26258.3
 16 04 2013  01 38  -21.0301 26033.4 -03430.2 -07.5062 26258.4
 16 04 2013  01 39  -21.0302 26033.3 -03430.2 -07.5062 26258.3
 16 04 2013  01 40  -21.0302 26033.5 -03430.3 -07.5064 26258.6
 16 04 2013  01 41  -21.0304 26033.3 -03430.2 -07.5062 26258.3
 16 04 2013  01 42  -21.0305 26033.3 -03430.2 -07.5062 26258.3
 16 04 2013  01 43  -21.0305 26033.2 -03430.2 -07.5063 26258.2
 16 04 2013  01 44  -21.0306 26033.0 -03430.2 -07.5062 26258.1
 16 04 2013  01 45  -21.0307 26033.0 -03430.1 -07.5061 26258.0
 16 04 2013  01 46  -21.0308 26033.0 -03430.1 -07.5061 26258.0
 16 04 2013  01 47  -21.0310 26033.0 -03430.1 -07.5061 26258.0
 16 04 2013  01 48  -21.0311 26033.0 -03430.2 -07.5061 26258.0
 16 04 2013  01 49  -21.0312 26032.9 -03430.1 -07.5061 26257.9
 16 04 2013  01 50  -21.0312 26032.9 -03430.1 -07.5061 26257.9
 16 04 2013  01 51  -21.0312 26032.9 -03430.1 -07.5061 26257.9
 16 04 2013  01 52  -21.0311 26032.8 -03430.1 -07.5060 26257.8
 16 04 2013  01 53  -21.0310 26032.7 -03430.0 -07.5059 26257.7
 16 04 2013  01 54  -21.0310 26032.7 -03430.0 -07.5060 26257.7
 16 04 2013  01 55  -21.0310 26032.6 -03430.0 -07.5059 26257.6
 16 04 2013  01 56  -21.0309 26032.4 -03429.9 -07.5058 26257.4
 16 04 2013  01 57  -21.0310 26032.3 -03429.9 -07.5059 26257.3
 16 04 2013  01 58  -21.0312 26032.2 -03429.9 -07.5058 26257.1
 16 04 2013  01 59  -21.0312 26032.1 -03429.8 -07.5057 26257.0
 16 04 2013  02 00  -21.0313 26031.9 -03429.8 -07.5056 26256.9
 16 04 2013  02 01  -21.0312 26031.8 -03429.7 -07.5056 26256.8
 16 04 2013  02 02  -21.0311 26031.8 -03429.7 -07.5056 26256.7
 16 04 2013  02 03  -21.0311 26031.8 -03429.8 -07.5058 26256.8
 16 04 2013  02 04  -21.0311 26031.9 -03429.9 -07.5059 26256.8
 16 04 2013  02 05  -21.0310 26031.9 -03429.9 -07.5059 26256.9
 16 04 2013  02 06  -21.0310 26032.1 -03430.0 -07.5061 26257.1
 16 04 2013  02 07  -21.0309 26032.2 -03430.1 -07.5063 26257.2
 16 04 2013  02 08  -21.0306 26032.3 -03430.2 -07.5064 26257.3
 16 04 2013  02 09  -21.0306 26032.5 -03430.3 -07.5065 26257.5
 16 04 2013  02 10  -21.0305 26032.6 -03430.4 -07.5067 26257.7
 16 04 2013  02 11  -21.0305 26032.8 -03430.4 -07.5068 26257.8
 16 04 2013  02 12  -21.0306 26032.8 -03430.5 -07.5069 26257.8
 16 04 2013  02 13  -21.0306 26032.7 -03430.4 -07.5068 26257.8
 16 04 2013  02 14  -21.0307 26032.7 -03430.4 -07.5068 26257.8
 16 04 2013  02 15  -21.0307 26032.8 -03430.5 -07.5068 26257.8
 16 04 2013  02 16  -21.0306 26032.8 -03430.5 -07.5069 26257.9
 16 04 2013  02 17  -21.0304 26032.8 -03430.4 -07.5068 26257.8
 16 04 2013  02 18  -21.0302 26032.7 -03430.4 -07.5067 26257.7
 16 04 2013  02 19  -21.0301 26032.6 -03430.4 -07.5067 26257.6
 16 04 2013  02 20  -21.0300 26032.7 -03430.4 -07.5068 26257.7
 16 04 2013  02 21  -21.0300 26032.8 -03430.5 -07.5070 26257.9
 16 04 2013  02 22  -21.0301 26032.9 -03430.6 -07.5072 26258.0
 16 04 2013  02 23  -21.0303 26032.8 -03430.6 -07.5071 26257.8
 16 04 2013  02 24  -21.0302 26033.0 -03430.6 -07.5071 26258.0
 16 04 2013  02 25  -21.0302 26032.9 -03430.6 -07.5071 26258.0
 16 04 2013  02 26  -21.0302 26032.8 -03430.5 -07.5070 26257.8
 16 04 2013  02 27  -21.0304 26032.7 -03430.5 -07.5070 26257.8
 16 04 2013  02 28  -21.0306 26032.6 -03430.5 -07.5070 26257.7
 16 04 2013  02 29  -21.0306 26033.0 -03430.6 -07.5071 26258.1
 16 04 2013  02 30  -21.0303 26033.8 -03431.0 -07.5078 26258.9
 16 04 2013  02 31  -21.0311 26032.7 -03430.6 -07.5071 26257.8
 16 04 2013  02 32  -21.0312 26033.2 -03430.7 -07.5072 26258.3
 16 04 2013  02 33  -21.0303 26033.9 -03431.0 -07.5078 26259.0
 16 04 2013  02 34  -21.0309 26033.1 -03430.7 -07.5073 26258.2
 16 04 2013  02 35  -21.0308 26033.3 -03430.7 -07.5073 26258.4
 16 04 2013  02 36  -21.0306 26033.7 -03430.9 -07.5076 26258.8
 16 04 2013  02 37  -21.0305 26033.9 -03431.0 -07.5077 26259.0
 16 04 2013  02 38  -21.0305 26033.8 -03430.9 -07.5076 26258.9
 16 04 2013  02 39  -21.0304 26034.1 -03431.0 -07.5077 26259.2
 16 04 2013  02 40  -21.0303 26034.1 -03431.1 -07.5078 26259.2
 16 04 2013  02 41  -21.0304 26034.0 -03431.1 -07.5078 26259.2
 16 04 2013  02 42  -21.0304 26034.3 -03431.1 -07.5078 26259.4
 16 04 2013  02 43  -21.0304 26034.4 -03431.2 -07.5079 26259.5
 16 04 2013  02 44  -21.0303 26034.4 -03431.1 -07.5078 26259.5
 16 04 2013  02 45  -21.0303 26034.4 -03431.1 -07.5077 26259.5
 16 04 2013  02 46  -21.0302 26034.3 -03431.0 -07.5076 26259.4
 16 04 2013  02 47  -21.0302 26034.3 -03431.0 -07.5075 26259.4
 16 04 2013  02 48  -21.0300 26034.3 -03430.9 -07.5074 26259.4
 16 04 2013  02 49  -21.0299 26034.2 -03430.9 -07.5073 26259.3
 16 04 2013  02 50  -21.0299 26034.1 -03430.8 -07.5073 26259.2
 16 04 2013  02 51  -21.0299 26034.0 -03430.7 -07.5071 26259.1
 16 04 2013  02 52  -21.0299 26033.9 -03430.7 -07.5070 26259.0
 16 04 2013  02 53  -21.0299 26033.8 -03430.6 -07.5069 26258.9
 16 04 2013  02 54  -21.0300 26033.5 -03430.5 -07.5067 26258.6
 16 04 2013  02 55  -21.0301 26033.5 -03430.4 -07.5066 26258.5
 16 04 2013  02 56  -21.0301 26033.5 -03430.4 -07.5066 26258.6
 16 04 2013  02 57  -21.0301 26033.3 -03430.4 -07.5066 26258.4
 16 04 2013  02 58  -21.0300 26033.3 -03430.4 -07.5065 26258.3
 16 04 2013  02 59  -21.0300 26033.3 -03430.4 -07.5065 26258.3
 16 04 2013  03 00  -21.0300 26033.2 -03430.3 -07.5065 26258.2
 16 04 2013  03 01  -21.0299 26033.2 -03430.4 -07.5065 26258.3
 16 04 2013  03 02  -21.0300 26033.2 -03430.3 -07.5065 26258.3
 16 04 2013  03 03  -21.0299 26033.4 -03430.4 -07.5066 26258.4
 16 04 2013  03 04  -21.0299 26033.5 -03430.5 -07.5068 26258.6
 16 04 2013  03 05  -21.0299 26033.5 -03430.5 -07.5067 26258.5
 16 04 2013  03 06  -21.0298 26033.6 -03430.5 -07.5067 26258.6
 16 04 2013  03 07  -21.0298 26033.7 -03430.5 -07.5068 26258.7
 16 04 2013  03 08  -21.0299 26033.6 -03430.5 -07.5068 26258.7
 16 04 2013  03 09  -21.0300 26033.7 -03430.5 -07.5067 26258.7
 16 04 2013  03 10  -21.0299 26033.7 -03430.5 -07.5067 26258.7
 16 04 2013  03 11  -21.0298 26033.7 -03430.5 -07.5067 26258.7
 16 04 2013  03 12  -21.0297 26033.6 -03430.4 -07.5066 26258.6
 16 04 2013  03 13  -21.0297 26033.5 -03430.4 -07.5065 26258.6
 16 04 2013  03 14  -21.0298 26033.5 -03430.4 -07.5065 26258.5
 16 04 2013  03 15  -21.0298 26033.4 -03430.3 -07.5064 26258.4
 16 04 2013  03 16  -21.0298 26033.2 -03430.2 -07.5063 26258.2
 16 04 2013  03 17  -21.0298 26033.2 -03430.2 -07.5062 26258.2
 16 04 2013  03 18  -21.0298 26033.2 -03430.2 -07.5062 26258.2
 16 04 2013  03 19  -21.0297 26033.2 -03430.2 -07.5062 26258.2
 16 04 2013  03 20  -21.0296 26033.2 -03430.2 -07.5063 26258.3
 16 04 2013  03 21  -21.0296 26033.2 -03430.3 -07.5063 26258.3
 16 04 2013  03 22  -21.0296 26033.2 -03430.3 -07.5064 26258.3
 16 04 2013  03 23  -21.0295 26033.3 -03430.3 -07.5065 26258.3
 16 04 2013  03 24  -21.0293 26033.3 -03430.3 -07.5065 26258.3
 16 04 2013  03 25  -21.0293 26033.2 -03430.3 -07.5064 26258.2
 16 04 2013  03 26  -21.0294 26033.1 -03430.2 -07.5063 26258.1
 16 04 2013  03 27  -21.0295 26033.0 -03430.2 -07.5062 26258.0
 16 04 2013  03 28  -21.0296 26032.9 -03430.1 -07.5061 26257.9
 16 04 2013  03 29  -21.0297 26032.8 -03430.1 -07.5061 26257.8
 16 04 2013  03 30  -21.0297 26032.8 -03430.1 -07.5061 26257.8
 16 04 2013  03 31  -21.0297 26032.9 -03430.1 -07.5061 26257.9
 16 04 2013  03 32  -21.0295 26032.9 -03430.1 -07.5061 26257.9
 16 04 2013  03 33  -21.0293 26032.9 -03430.2 -07.5062 26257.9
 16 04 2013  03 34  -21.0292 26033.0 -03430.2 -07.5062 26258.0
 16 04 2013  03 35  -21.0291 26033.0 -03430.3 -07.5064 26258.0
 16 04 2013  03 36  -21.0291 26033.0 -03430.3 -07.5064 26258.1
 16 04 2013  03 37  -21.0291 26033.1 -03430.3 -07.5064 26258.1
 16 04 2013  03 38  -21.0292 26033.1 -03430.3 -07.5065 26258.1
 16 04 2013  03 39  -21.0293 26033.1 -03430.3 -07.5065 26258.1
 16 04 2013  03 40  -21.0293 26033.1 -03430.3 -07.5065 26258.1
 16 04 2013  03 41  -21.0294 26033.1 -03430.3 -07.5065 26258.1
 16 04 2013  03 42  -21.0295 26033.1 -03430.3 -07.5065 26258.1
 16 04 2013  03 43  -21.0295 26033.1 -03430.3 -07.5065 26258.2
 16 04 2013  03 44  -21.0296 26033.2 -03430.4 -07.5065 26258.2
 16 04 2013  03 45  -21.0296 26033.2 -03430.4 -07.5065 26258.2
 16 04 2013  03 46  -21.0295 26033.2 -03430.4 -07.5065 26258.2
 16 04 2013  03 47  -21.0294 26033.2 -03430.4 -07.5065 26258.3
 16 04 2013  03 48  -21.0293 26033.2 -03430.4 -07.5066 26258.2
 16 04 2013  03 49  -21.0292 26033.2 -03430.4 -07.5065 26258.2
 16 04 2013  03 50  -21.0291 26033.2 -03430.3 -07.5065 26258.3
 16 04 2013  03 51  -21.0291 26033.3 -03430.4 -07.5067 26258.4
 16 04 2013  03 52  -21.0290 26033.4 -03430.5 -07.5067 26258.5
 16 04 2013  03 53  -21.0289 26033.4 -03430.5 -07.5067 26258.5
 16 04 2013  03 54  -21.0288 26033.5 -03430.5 -07.5068 26258.6
 16 04 2013  03 55  -21.0287 26033.6 -03430.6 -07.5069 26258.7
 16 04 2013  03 56  -21.0287 26033.7 -03430.6 -07.5069 26258.7
 16 04 2013  03 57  -21.0287 26033.7 -03430.6 -07.5070 26258.8
 16 04 2013  03 58  -21.0286 26033.9 -03430.7 -07.5071 26259.0
 16 04 2013  03 59  -21.0286 26034.0 -03430.7 -07.5071 26259.1
 16 04 2013  04 00  -21.0285 26034.0 -03430.7 -07.5071 26259.1
 16 04 2013  04 01  -21.0285 26034.0 -03430.7 -07.5071 26259.1
 16 04 2013  04 02  -21.0285 26034.0 -03430.7 -07.5070 26259.1
 16 04 2013  04 03  -21.0286 26034.0 -03430.7 -07.5070 26259.1
 16 04 2013  04 04  -21.0286 26033.9 -03430.6 -07.5069 26258.9
 16 04 2013  04 05  -21.0287 26033.7 -03430.5 -07.5068 26258.8
 16 04 2013  04 06  -21.0288 26033.7 -03430.5 -07.5067 26258.8
 16 04 2013  04 07  -21.0288 26033.7 -03430.5 -07.5067 26258.7
 16 04 2013  04 08  -21.0289 26033.6 -03430.5 -07.5066 26258.6
 16 04 2013  04 09  -21.0289 26033.5 -03430.4 -07.5065 26258.5
 16 04 2013  04 10  -21.0289 26033.5 -03430.4 -07.5065 26258.5
 16 04 2013  04 11  -21.0289 26033.7 -03430.5 -07.5067 26258.7
 16 04 2013  04 12  -21.0288 26034.0 -03430.7 -07.5070 26259.1
 16 04 2013  04 13  -21.0286 26034.0 -03430.7 -07.5070 26259.0
 16 04 2013  04 14  -21.0285 26034.0 -03430.7 -07.5070 26259.1
 16 04 2013  04 15  -21.0284 26034.0 -03430.7 -07.5070 26259.1
 16 04 2013  04 16  -21.0285 26033.9 -03430.6 -07.5068 26258.9
 16 04 2013  04 17  -21.0285 26034.0 -03430.6 -07.5069 26259.1
 16 04 2013  04 18  -21.0286 26034.1 -03430.7 -07.5070 26259.2
 16 04 2013  04 19  -21.0285 26034.0 -03430.7 -07.5070 26259.0
 16 04 2013  04 20  -21.0285 26034.1 -03430.7 -07.5070 26259.2
 16 04 2013  04 21  -21.0284 26034.1 -03430.7 -07.5070 26259.2
 16 04 2013  04 22  -21.0284 26034.0 -03430.7 -07.5070 26259.1
 16 04 2013  04 23  -21.0285 26033.9 -03430.6 -07.5069 26259.0
 16 04 2013  04 24  -21.0287 26033.9 -03430.6 -07.5069 26258.9
 16 04 2013  04 25  -21.0288 26033.9 -03430.6 -07.5069 26258.9
 16 04 2013  04 26  -21.0289 26033.9 -03430.6 -07.5069 26258.9
 16 04 2013  04 27  -21.0290 26033.8 -03430.6 -07.5069 26258.9
 16 04 2013  04 28  -21.0291 26033.8 -03430.6 -07.5068 26258.9
 16 04 2013  04 29  -21.0293 26033.8 -03430.6 -07.5068 26258.8
 16 04 2013  04 30  -21.0294 26033.7 -03430.5 -07.5068 26258.8
 16 04 2013  04 31  -21.0295 26033.7 -03430.5 -07.5067 26258.7
 16 04 2013  04 32  -21.0297 26033.7 -03430.5 -07.5067 26258.7
 16 04 2013  04 33  -21.0298 26033.5 -03430.5 -07.5067 26258.6
 16 04 2013  04 34  -21.0299 26033.4 -03430.4 -07.5066 26258.5
 16 04 2013  04 35  -21.0299 26033.5 -03430.4 -07.5066 26258.5
 16 04 2013  04 36  -21.0299 26033.5 -03430.5 -07.5067 26258.6
 16 04 2013  04 37  -21.0299 26033.6 -03430.5 -07.5068 26258.7
 16 04 2013  04 38  -21.0297 26033.7 -03430.6 -07.5069 26258.8
 16 04 2013  04 39  -21.0295 26033.8 -03430.6 -07.5069 26258.9
 16 04 2013  04 40  -21.0294 26033.9 -03430.7 -07.5071 26259.0
 16 04 2013  04 41  -21.0291 26034.0 -03430.8 -07.5072 26259.1
 16 04 2013  04 42  -21.0289 26034.1 -03430.8 -07.5072 26259.2
 16 04 2013  04 43  -21.0288 26034.2 -03430.9 -07.5073 26259.3
 16 04 2013  04 44  -21.0288 26034.2 -03430.9 -07.5074 26259.2
 16 04 2013  04 45  -21.0289 26034.2 -03430.9 -07.5074 26259.3
 16 04 2013  04 46  -21.0290 26034.2 -03430.9 -07.5075 26259.3
 16 04 2013  04 47  -21.0291 26034.2 -03430.9 -07.5075 26259.3
 16 04 2013  04 48  -21.0292 26034.1 -03430.9 -07.5074 26259.2
 16 04 2013  04 49  -21.0293 26034.1 -03430.9 -07.5074 26259.2
 16 04 2013  04 50  -21.0294 26034.0 -03430.9 -07.5074 26259.1
 16 04 2013  04 51  -21.0295 26034.1 -03430.9 -07.5074 26259.2
 16 04 2013  04 52  -21.0293 26034.2 -03430.9 -07.5075 26259.3
 16 04 2013  04 53  -21.0293 26034.2 -03431.0 -07.5075 26259.3
 16 04 2013  04 54  -21.0292 26034.1 -03430.9 -07.5075 26259.2
 16 04 2013  04 55  -21.0293 26034.0 -03430.9 -07.5074 26259.1
 16 04 2013  04 56  -21.0295 26034.1 -03430.9 -07.5074 26259.1
 16 04 2013  04 57  -21.0295 26034.0 -03430.9 -07.5074 26259.1
 16 04 2013  04 58  -21.0296 26033.9 -03430.8 -07.5073 26259.0
 16 04 2013  04 59  -21.0297 26033.9 -03430.8 -07.5074 26259.0
 16 04 2013  05 00  -21.0298 26033.8 -03430.9 -07.5074 26258.9
 16 04 2013  05 01  -21.0299 26033.8 -03430.8 -07.5074 26258.9
 16 04 2013  05 02  -21.0299 26033.8 -03430.8 -07.5074 26258.9
 16 04 2013  05 03  -21.0298 26033.8 -03430.8 -07.5074 26258.9
 16 04 2013  05 04  -21.0298 26033.8 -03430.8 -07.5074 26258.9
 16 04 2013  05 05  -21.0298 26033.8 -03430.9 -07.5075 26258.9
 16 04 2013  05 06  -21.0299 26033.9 -03430.9 -07.5075 26259.0
 16 04 2013  05 07  -21.0299 26033.9 -03430.9 -07.5076 26259.0
 16 04 2013  05 08  -21.0299 26033.9 -03431.0 -07.5076 26259.0
 16 04 2013  05 09  -21.0300 26033.9 -03431.0 -07.5076 26259.0
 16 04 2013  05 10  -21.0300 26033.9 -03430.9 -07.5076 26259.0
 16 04 2013  05 11  -21.0300 26033.8 -03430.9 -07.5076 26258.9
 16 04 2013  05 12  -21.0300 26033.8 -03430.9 -07.5076 26258.9
 16 04 2013  05 13  -21.0300 26033.8 -03430.9 -07.5076 26258.9
 16 04 2013  05 14  -21.0301 26033.8 -03430.9 -07.5076 26258.9
 16 04 2013  05 15  -21.0302 26033.8 -03430.9 -07.5076 26258.9
 16 04 2013  05 16  -21.0303 26033.8 -03430.9 -07.5076 26258.9
 16 04 2013  05 17  -21.0304 26033.8 -03430.9 -07.5076 26258.9
 16 04 2013  05 18  -21.0305 26033.7 -03430.9 -07.5076 26258.8
 16 04 2013  05 19  -21.0305 26033.7 -03430.9 -07.5076 26258.8
 16 04 2013  05 20  -21.0306 26033.7 -03430.9 -07.5076 26258.8
 16 04 2013  05 21  -21.0307 26033.7 -03430.9 -07.5076 26258.8
 16 04 2013  05 22  -21.0307 26033.7 -03430.9 -07.5076 26258.8
 16 04 2013  05 23  -21.0306 26033.7 -03430.9 -07.5076 26258.8
 16 04 2013  05 24  -21.0306 26033.7 -03430.9 -07.5076 26258.8
 16 04 2013  05 25  -21.0305 26033.8 -03431.0 -07.5077 26258.9
 16 04 2013  05 26  -21.0305 26033.8 -03431.0 -07.5078 26259.0
 16 04 2013  05 27  -21.0304 26033.9 -03431.1 -07.5078 26259.1
 16 04 2013  05 28  -21.0304 26034.0 -03431.1 -07.5079 26259.1
 16 04 2013  05 29  -21.0304 26034.0 -03431.1 -07.5079 26259.1
 16 04 2013  05 30  -21.0304 26034.0 -03431.1 -07.5080 26259.2
 16 04 2013  05 31  -21.0304 26034.1 -03431.2 -07.5081 26259.2
 16 04 2013  05 32  -21.0305 26034.3 -03431.3 -07.5082 26259.4
 16 04 2013  05 33  -21.0306 26034.3 -03431.3 -07.5083 26259.5
 16 04 2013  05 34  -21.0306 26034.3 -03431.3 -07.5082 26259.5
 16 04 2013  05 35  -21.0306 26034.4 -03431.3 -07.5083 26259.6
 16 04 2013  05 36  -21.0307 26034.4 -03431.3 -07.5083 26259.6
 16 04 2013  05 37  -21.0307 26034.5 -03431.3 -07.5083 26259.6
 16 04 2013  05 38  -21.0307 26034.4 -03431.3 -07.5083 26259.6
 16 04 2013  05 39  -21.0307 26034.5 -03431.3 -07.5082 26259.6
 16 04 2013  05 40  -21.0308 26034.5 -03431.3 -07.5082 26259.6
 16 04 2013  05 41  -21.0309 26034.5 -03431.3 -07.5083 26259.7
 16 04 2013  05 42  -21.0309 26034.6 -03431.3 -07.5082 26259.7
 16 04 2013  05 43  -21.0308 26034.6 -03431.3 -07.5082 26259.7
 16 04 2013  05 44  -21.0308 26034.6 -03431.3 -07.5082 26259.7
 16 04 2013  05 45  -21.0308 26034.6 -03431.3 -07.5082 26259.8
 16 04 2013  05 46  -21.0308 26034.7 -03431.3 -07.5082 26259.8
 16 04 2013  05 47  -21.0309 26034.7 -03431.3 -07.5082 26259.8
 16 04 2013  05 48  -21.0309 26034.7 -03431.4 -07.5083 26259.9
 16 04 2013  05 49  -21.0310 26034.8 -03431.4 -07.5083 26260.0
 16 04 2013  05 50  -21.0309 26034.8 -03431.4 -07.5084 26260.0
 16 04 2013  05 51  -21.0308 26034.8 -03431.4 -07.5083 26260.0
 16 04 2013  05 52  -21.0309 26034.8 -03431.4 -07.5083 26260.0
 16 04 2013  05 53  -21.0308 26034.8 -03431.4 -07.5083 26260.0
 16 04 2013  05 54  -21.0308 26034.8 -03431.4 -07.5083 26260.0
 16 04 2013  05 55  -21.0308 26034.8 -03431.4 -07.5083 26260.0
 16 04 2013  05 56  -21.0309 26034.8 -03431.4 -07.5083 26260.0
 16 04 2013  05 57  -21.0310 26034.9 -03431.4 -07.5083 26260.0
 16 04 2013  05 58  -21.0311 26034.9 -03431.4 -07.5083 26260.1
 16 04 2013  05 59  -21.0311 26035.1 -03431.5 -07.5084 26260.2
 16 04 2013  06 00  -21.0311 26035.0 -03431.4 -07.5083 26260.1
 16 04 2013  06 01  -21.0309 26035.0 -03431.4 -07.5083 26260.1
 16 04 2013  06 02  -21.0310 26035.0 -03431.4 -07.5083 26260.2
 16 04 2013  06 03  -21.0310 26035.0 -03431.4 -07.5083 26260.1
 16 04 2013  06 04  -21.0310 26035.0 -03431.4 -07.5083 26260.2
 16 04 2013  06 05  -21.0309 26035.0 -03431.4 -07.5083 26260.2
 16 04 2013  06 06  -21.0310 26035.0 -03431.4 -07.5082 26260.2
 16 04 2013  06 07  -21.0311 26035.0 -03431.4 -07.5082 26260.2
 16 04 2013  06 08  -21.0311 26035.0 -03431.4 -07.5082 26260.2
 16 04 2013  06 09  -21.0311 26035.0 -03431.4 -07.5082 26260.2
 16 04 2013  06 10  -21.0312 26035.0 -03431.3 -07.5081 26260.2
 16 04 2013  06 11  -21.0312 26035.0 -03431.3 -07.5081 26260.2
 16 04 2013  06 12  -21.0312 26035.0 -03431.3 -07.5081 26260.2
 16 04 2013  06 13  -21.0312 26035.1 -03431.4 -07.5081 26260.2
 16 04 2013  06 14  -21.0313 26035.2 -03431.4 -07.5081 26260.3
 16 04 2013  06 15  -21.0314 26035.2 -03431.4 -07.5082 26260.4
 16 04 2013  06 16  -21.0313 26035.2 -03431.4 -07.5081 26260.4
 16 04 2013  06 17  -21.0312 26035.3 -03431.4 -07.5081 26260.4
 16 04 2013  06 18  -21.0312 26035.3 -03431.4 -07.5081 26260.4
 16 04 2013  06 19  -21.0312 26035.3 -03431.4 -07.5082 26260.5
 16 04 2013  06 20  -21.0310 26035.3 -03431.4 -07.5082 26260.5
 16 04 2013  06 21  -21.0310 26035.4 -03431.4 -07.5082 26260.5
 16 04 2013  06 22  -21.0309 26035.4 -03431.5 -07.5083 26260.6
 16 04 2013  06 23  -21.0308 26035.5 -03431.5 -07.5083 26260.6
 16 04 2013  06 24  -21.0308 26035.5 -03431.5 -07.5082 26260.6
 16 04 2013  06 25  -21.0307 26035.4 -03431.5 -07.5082 26260.6
 16 04 2013  06 26  -21.0308 26035.4 -03431.4 -07.5082 26260.6
 16 04 2013  06 27  -21.0308 26035.4 -03431.4 -07.5082 26260.6
 16 04 2013  06 28  -21.0308 26035.4 -03431.4 -07.5082 26260.6
 16 04 2013  06 29  -21.0308 26035.4 -03431.4 -07.5082 26260.6
 16 04 2013  06 30  -21.0309 26035.4 -03431.4 -07.5081 26260.5
 16 04 2013  06 31  -21.0310 26035.4 -03431.4 -07.5081 26260.6
 16 04 2013  06 32  -21.0311 26035.5 -03431.4 -07.5081 26260.6
 16 04 2013  06 33  -21.0310 26035.5 -03431.4 -07.5081 26260.6
 16 04 2013  06 34  -21.0308 26035.5 -03431.4 -07.5082 26260.7
 16 04 2013  06 35  -21.0308 26035.6 -03431.4 -07.5081 26260.7
 16 04 2013  06 36  -21.0307 26035.7 -03431.5 -07.5082 26260.8
 16 04 2013  06 37  -21.0306 26035.7 -03431.5 -07.5082 26260.9
 16 04 2013  06 38  -21.0305 26035.7 -03431.5 -07.5082 26260.9
 16 04 2013  06 39  -21.0305 26035.8 -03431.5 -07.5082 26260.9
 16 04 2013  06 40  -21.0303 26035.8 -03431.5 -07.5082 26260.9
 16 04 2013  06 41  -21.0302 26035.8 -03431.5 -07.5082 26261.0
 16 04 2013  06 42  -21.0301 26035.9 -03431.5 -07.5083 26261.0
 16 04 2013  06 43  -21.0300 26035.9 -03431.6 -07.5083 26261.1
 16 04 2013  06 44  -21.0298 26036.0 -03431.6 -07.5084 26261.1
 16 04 2013  06 45  -21.0297 26036.0 -03431.6 -07.5085 26261.2
 16 04 2013  06 46  -21.0296 26036.1 -03431.7 -07.5085 26261.3
 16 04 2013  06 47  -21.0295 26036.2 -03431.7 -07.5085 26261.3
 16 04 2013  06 48  -21.0294 26036.2 -03431.7 -07.5085 26261.4
 16 04 2013  06 49  -21.0294 26036.2 -03431.7 -07.5086 26261.4
 16 04 2013  06 50  -21.0295 26036.1 -03431.7 -07.5085 26261.3
 16 04 2013  06 51  -21.0295 26036.1 -03431.7 -07.5085 26261.3
 16 04 2013  06 52  -21.0296 26036.0 -03431.6 -07.5084 26261.2
 16 04 2013  06 53  -21.0297 26036.0 -03431.6 -07.5084 26261.1
 16 04 2013  06 54  -21.0298 26035.9 -03431.6 -07.5084 26261.1
 16 04 2013  06 55  -21.0299 26035.9 -03431.6 -07.5083 26261.1
 16 04 2013  06 56  -21.0300 26036.0 -03431.6 -07.5084 26261.1
 16 04 2013  06 57  -21.0300 26036.0 -03431.6 -07.5083 26261.1
 16 04 2013  06 58  -21.0301 26036.0 -03431.5 -07.5083 26261.1
 16 04 2013  06 59  -21.0301 26035.9 -03431.5 -07.5083 26261.1
 16 04 2013  07 00  -21.0299 26035.9 -03431.5 -07.5083 26261.1
 16 04 2013  07 01  -21.0299 26035.9 -03431.5 -07.5083 26261.1
 16 04 2013  07 02  -21.0299 26036.0 -03431.5 -07.5083 26261.1
 16 04 2013  07 03  -21.0298 26036.0 -03431.6 -07.5083 26261.2
 16 04 2013  07 04  -21.0297 26035.9 -03431.6 -07.5084 26261.1
 16 04 2013  07 05  -21.0298 26035.9 -03431.6 -07.5083 26261.1
 16 04 2013  07 06  -21.0297 26035.9 -03431.6 -07.5084 26261.1
 16 04 2013  07 07  -21.0297 26036.0 -03431.6 -07.5084 26261.1
 16 04 2013  07 08  -21.0296 26036.0 -03431.6 -07.5084 26261.1
 16 04 2013  07 09  -21.0296 26036.0 -03431.7 -07.5085 26261.2
 16 04 2013  07 10  -21.0295 26036.1 -03431.7 -07.5086 26261.3
 16 04 2013  07 11  -21.0295 26036.1 -03431.7 -07.5086 26261.3
 16 04 2013  07 12  -21.0294 26036.1 -03431.7 -07.5086 26261.3
 16 04 2013  07 13  -21.0295 26036.2 -03431.7 -07.5087 26261.3
 16 04 2013  07 14  -21.0294 26036.1 -03431.7 -07.5086 26261.3
 16 04 2013  07 15  -21.0294 26036.1 -03431.7 -07.5086 26261.3
 16 04 2013  07 16  -21.0293 26036.2 -03431.7 -07.5087 26261.4
 16 04 2013  07 17  -21.0293 26036.1 -03431.7 -07.5087 26261.3
 16 04 2013  07 18  -21.0292 26036.1 -03431.8 -07.5087 26261.3
 16 04 2013  07 19  -21.0292 26036.2 -03431.8 -07.5088 26261.4
 16 04 2013  07 20  -21.0293 26036.2 -03431.8 -07.5088 26261.4
 16 04 2013  07 21  -21.0292 26036.2 -03431.8 -07.5088 26261.4
 16 04 2013  07 22  -21.0291 26036.2 -03431.8 -07.5088 26261.4
 16 04 2013  07 23  -21.0291 26036.2 -03431.8 -07.5088 26261.4
 16 04 2013  07 24  -21.0290 26036.2 -03431.8 -07.5089 26261.4
 16 04 2013  07 25  -21.0290 26036.2 -03431.9 -07.5089 26261.4
 16 04 2013  07 26  -21.0289 26036.3 -03431.9 -07.5089 26261.5
 16 04 2013  07 27  -21.0287 26036.3 -03431.9 -07.5089 26261.5
 16 04 2013  07 28  -21.0286 26036.2 -03431.8 -07.5089 26261.4
 16 04 2013  07 29  -21.0286 26036.2 -03431.8 -07.5089 26261.4
 16 04 2013  07 30  -21.0285 26036.1 -03431.9 -07.5089 26261.3
 16 04 2013  07 31  -21.0285 26035.9 -03431.8 -07.5088 26261.1
 16 04 2013  07 32  -21.0287 26036.0 -03431.8 -07.5088 26261.2
 16 04 2013  07 33  -21.0287 26035.9 -03431.8 -07.5089 26261.1
 16 04 2013  07 34  -21.0287 26035.9 -03431.8 -07.5089 26261.1
 16 04 2013  07 35  -21.0288 26035.9 -03431.8 -07.5089 26261.1
 16 04 2013  07 36  -21.0289 26036.0 -03431.9 -07.5090 26261.2
 16 04 2013  07 37  -21.0289 26036.0 -03431.9 -07.5090 26261.2
 16 04 2013  07 38  -21.0288 26036.0 -03431.9 -07.5091 26261.2
 16 04 2013  07 39  -21.0288 26036.0 -03431.9 -07.5091 26261.2
 16 04 2013  07 40  -21.0288 26036.1 -03431.9 -07.5091 26261.3
 16 04 2013  07 41  -21.0287 26036.1 -03432.0 -07.5092 26261.3
 16 04 2013  07 42  -21.0286 26036.1 -03432.0 -07.5092 26261.3
 16 04 2013  07 43  -21.0285 26036.1 -03432.0 -07.5093 26261.4
 16 04 2013  07 44  -21.0284 26036.2 -03432.0 -07.5093 26261.4
 16 04 2013  07 45  -21.0283 26036.1 -03432.0 -07.5093 26261.4
 16 04 2013  07 46  -21.0283 26036.1 -03432.0 -07.5093 26261.4
 16 04 2013  07 47  -21.0283 26036.2 -03432.1 -07.5094 26261.4
 16 04 2013  07 48  -21.0282 26036.2 -03432.1 -07.5095 26261.4
 16 04 2013  07 49  -21.0282 26036.1 -03432.1 -07.5095 26261.4
 16 04 2013  07 50  -21.0282 26036.2 -03432.1 -07.5095 26261.4
 16 04 2013  07 51  -21.0283 26036.2 -03432.1 -07.5095 26261.4
 16 04 2013  07 52  -21.0283 26036.2 -03432.1 -07.5095 26261.4
 16 04 2013  07 53  -21.0284 26036.2 -03432.1 -07.5095 26261.5
 16 04 2013  07 54  -21.0284 26036.3 -03432.2 -07.5095 26261.5
 16 04 2013  07 55  -21.0284 26036.2 -03432.2 -07.5096 26261.5
 16 04 2013  07 56  -21.0283 26036.3 -03432.2 -07.5096 26261.5
 16 04 2013  07 57  -21.0283 26036.3 -03432.2 -07.5096 26261.5
 16 04 2013  07 58  -21.0283 26036.3 -03432.2 -07.5096 26261.6
 16 04 2013  07 59  -21.0283 26036.3 -03432.2 -07.5097 26261.5
 16 04 2013  08 00  -21.0284 26036.3 -03432.2 -07.5097 26261.5
 16 04 2013  08 01  -21.0284 26036.3 -03432.3 -07.5098 26261.6
 16 04 2013  08 02  -21.0283 26036.4 -03432.3 -07.5099 26261.6
 16 04 2013  08 03  -21.0282 26036.4 -03432.3 -07.5099 26261.6
 16 04 2013  08 04  -21.0283 26036.3 -03432.3 -07.5099 26261.6
 16 04 2013  08 05  -21.0283 26036.4 -03432.4 -07.5100 26261.6
 16 04 2013  08 06  -21.0283 26036.4 -03432.4 -07.5100 26261.7
 16 04 2013  08 07  -21.0282 26036.5 -03432.4 -07.5101 26261.8
 16 04 2013  08 08  -21.0281 26036.5 -03432.5 -07.5101 26261.8
 16 04 2013  08 09  -21.0280 26036.5 -03432.5 -07.5102 26261.8
 16 04 2013  08 10  -21.0279 26036.5 -03432.5 -07.5102 26261.8
 16 04 2013  08 11  -21.0279 26036.5 -03432.5 -07.5103 26261.8
 16 04 2013  08 12  -21.0280 26036.5 -03432.6 -07.5104 26261.8
 16 04 2013  08 13  -21.0280 26036.4 -03432.5 -07.5103 26261.7
 16 04 2013  08 14  -21.0281 26036.5 -03432.6 -07.5104 26261.8
 16 04 2013  08 15  -21.0282 26036.4 -03432.6 -07.5106 26261.7
 16 04 2013  08 16  -21.0283 26036.4 -03432.6 -07.5105 26261.7
 16 04 2013  08 17  -21.0285 26036.4 -03432.7 -07.5106 26261.7
 16 04 2013  08 18  -21.0286 26036.4 -03432.6 -07.5105 26261.7
 16 04 2013  08 19  -21.0289 26036.4 -03432.6 -07.5106 26261.7
 16 04 2013  08 20  -21.0290 26036.4 -03432.6 -07.5105 26261.7
 16 04 2013  08 21  -21.0291 26036.4 -03432.7 -07.5106 26261.7
 16 04 2013  08 22  -21.0292 26036.5 -03432.7 -07.5107 26261.8
 16 04 2013  08 23  -21.0292 26036.5 -03432.7 -07.5107 26261.8
 16 04 2013  08 24  -21.0293 26036.6 -03432.7 -07.5107 26261.9
 16 04 2013  08 25  -21.0292 26036.6 -03432.8 -07.5108 26261.9
 16 04 2013  08 26  -21.0292 26036.5 -03432.7 -07.5107 26261.8
 16 04 2013  08 27  -21.0292 26036.4 -03432.7 -07.5107 26261.8
 16 04 2013  08 28  -21.0292 26036.4 -03432.7 -07.5108 26261.7
 16 04 2013  08 29  -21.0293 26036.4 -03432.8 -07.5109 26261.7
 16 04 2013  08 30  -21.0294 26036.4 -03432.8 -07.5110 26261.7
 16 04 2013  08 31  -21.0296 26036.4 -03432.9 -07.5110 26261.7
 16 04 2013  08 32  -21.0298 26036.4 -03432.9 -07.5111 26261.7
 16 04 2013  08 33  -21.0301 26036.4 -03432.9 -07.5112 26261.7
 16 04 2013  08 34  -21.0302 26036.4 -03433.0 -07.5113 26261.7
 16 04 2013  08 35  -21.0305 26036.4 -03433.0 -07.5113 26261.7
 16 04 2013  08 36  -21.0308 26036.4 -03433.1 -07.5114 26261.8
 16 04 2013  08 37  -21.0311 26036.5 -03433.1 -07.5116 26261.9
 16 04 2013  08 38  -21.0314 26036.5 -03433.2 -07.5116 26261.9
 16 04 2013  08 39  -21.0316 26036.5 -03433.2 -07.5117 26261.9
 16 04 2013  08 40  -21.0320 26036.5 -03433.2 -07.5117 26261.9
 16 04 2013  08 41  -21.0323 26036.5 -03433.2 -07.5118 26261.9
 16 04 2013  08 42  -21.0326 26036.6 -03433.2 -07.5118 26261.9
 16 04 2013  08 43  -21.0328 26036.6 -03433.3 -07.5119 26262.0
 16 04 2013  08 44  -21.0331 26036.5 -03433.3 -07.5118 26261.9
 16 04 2013  08 45  -21.0335 26036.4 -03433.3 -07.5119 26261.8
 16 04 2013  08 46  -21.0339 26036.5 -03433.3 -07.5120 26261.9
 16 04 2013  08 47  -21.0343 26036.5 -03433.4 -07.5121 26261.9
 16 04 2013  08 48  -21.0348 26036.5 -03433.4 -07.5121 26261.9
 16 04 2013  08 49  -21.0352 26036.6 -03433.4 -07.5121 26262.0
 16 04 2013  08 50  -21.0356 26036.7 -03433.4 -07.5121 26262.1
 16 04 2013  08 51  -21.0359 26036.7 -03433.4 -07.5120 26262.1
 16 04 2013  08 52  -21.0362 26036.7 -03433.3 -07.5118 26262.1
 16 04 2013  08 53  -21.0366 26036.7 -03433.2 -07.5117 26262.1
 16 04 2013  08 54  -21.0368 26036.7 -03433.2 -07.5117 26262.0
 16 04 2013  08 55  -21.0372 26036.6 -03433.1 -07.5116 26262.0
 16 04 2013  08 56  -21.0375 26036.6 -03433.1 -07.5115 26262.0
 16 04 2013  08 57  -21.0379 26036.6 -03433.1 -07.5114 26262.0
 16 04 2013  08 58  -21.0382 26036.6 -03433.0 -07.5113 26262.0
 16 04 2013  08 59  -21.0385 26036.5 -03432.9 -07.5111 26261.8
 16 04 2013  09 00  -21.0390 26036.4 -03432.8 -07.5109 26261.7
 16 04 2013  09 01  -21.0392 26036.3 -03432.6 -07.5106 26261.6
 16 04 2013  09 02  -21.0396 26036.2 -03432.6 -07.5106 26261.5
 16 04 2013  09 03  -21.0400 26036.1 -03432.6 -07.5106 26261.4
 16 04 2013  09 04  -21.0403 26036.1 -03432.6 -07.5106 26261.4
 16 04 2013  09 05  -21.0404 26036.1 -03432.6 -07.5105 26261.4
 16 04 2013  09 06  -21.0406 26036.1 -03432.6 -07.5105 26261.4
 16 04 2013  09 07  -21.0406 26036.1 -03432.5 -07.5104 26261.4
 16 04 2013  09 08  -21.0405 26036.3 -03432.5 -07.5103 26261.5
 16 04 2013  09 09  -21.0403 26036.3 -03432.4 -07.5101 26261.6
 16 04 2013  09 10  -21.0403 26036.2 -03432.4 -07.5100 26261.5
 16 04 2013  09 11  -21.0402 26036.2 -03432.3 -07.5099 26261.5
 16 04 2013  09 12  -21.0404 26036.2 -03432.3 -07.5098 26261.5
 16 04 2013  09 13  -21.0406 26036.2 -03432.3 -07.5098 26261.5
 16 04 2013  09 14  -21.0408 26036.1 -03432.2 -07.5097 26261.4
 16 04 2013  09 15  -21.0412 26036.0 -03432.3 -07.5098 26261.3
 16 04 2013  09 16  -21.0414 26036.0 -03432.2 -07.5098 26261.2
 16 04 2013  09 17  -21.0417 26035.9 -03432.2 -07.5098 26261.2
 16 04 2013  09 18  -21.0418 26035.9 -03432.2 -07.5098 26261.2
 16 04 2013  09 19  -21.0419 26036.0 -03432.3 -07.5099 26261.3
 16 04 2013  09 20  -21.0420 26036.1 -03432.3 -07.5098 26261.4
 16 04 2013  09 21  -21.0421 26036.2 -03432.2 -07.5096 26261.4
 16 04 2013  09 22  -21.0422 26036.1 -03432.1 -07.5096 26261.4
 16 04 2013  09 23  -21.0424 26036.1 -03432.2 -07.5096 26261.4
 16 04 2013  09 24  -21.0427 26036.0 -03432.1 -07.5095 26261.2
 16 04 2013  09 25  -21.0433 26035.9 -03432.1 -07.5095 26261.1
 16 04 2013  09 26  -21.0435 26035.8 -03432.1 -07.5095 26261.0
 16 04 2013  09 27  -21.0440 26035.7 -03432.0 -07.5094 26260.9
 16 04 2013  09 28  -21.0443 26035.6 -03432.0 -07.5095 26260.8
 16 04 2013  09 29  -21.0444 26035.7 -03432.1 -07.5095 26261.0
 16 04 2013  09 30  -21.0450 26035.8 -03432.1 -07.5095 26261.0
 16 04 2013  09 31  -21.0448 26035.8 -03432.1 -07.5095 26261.0
 16 04 2013  09 32  -21.0453 26035.9 -03432.0 -07.5094 26261.1
 16 04 2013  09 33  -21.0452 26036.0 -03432.1 -07.5094 26261.2
 16 04 2013  09 34  -21.0455 26035.8 -03431.9 -07.5092 26261.0
 16 04 2013  09 35  -21.0456 26035.7 -03431.9 -07.5091 26261.0
 16 04 2013  09 36  -21.0458 26035.7 -03431.9 -07.5090 26260.9
 16 04 2013  09 37  -21.0462 26035.6 -03431.8 -07.5090 26260.8
 16 04 2013  09 38  -21.0462 26035.5 -03431.8 -07.5089 26260.7
 16 04 2013  09 39  -21.0469 26035.5 -03431.8 -07.5089 26260.7
 16 04 2013  09 40  -21.0474 26035.7 -03431.8 -07.5090 26260.9
 16 04 2013  09 41  -21.0476 26035.7 -03431.9 -07.5091 26261.0
 16 04 2013  09 42  -21.0482 26035.8 -03431.9 -07.5091 26261.1
 16 04 2013  09 43  -21.0488 26036.0 -03431.9 -07.5091 26261.2
 16 04 2013  09 44  -21.0490 26036.1 -03431.9 -07.5091 26261.3
 16 04 2013  09 45  -21.0488 26036.2 -03431.9 -07.5089 26261.4
 16 04 2013  09 46  -21.0490 26036.3 -03431.8 -07.5088 26261.5
 16 04 2013  09 47  -21.0491 26036.6 -03431.9 -07.5089 26261.8
 16 04 2013  09 48  -21.0490 26036.6 -03431.8 -07.5087 26261.8
 16 04 2013  09 49  -21.0489 26036.8 -03431.8 -07.5086 26262.0
 16 04 2013  09 50  -21.0492 26037.0 -03431.8 -07.5086 26262.2
 16 04 2013  09 51  -21.0496 26037.1 -03431.8 -07.5085 26262.3
 16 04 2013  09 52  -21.0500 26037.2 -03431.8 -07.5084 26262.3
 16 04 2013  09 53  -21.0505 26037.3 -03431.7 -07.5084 26262.4
 16 04 2013  09 54  -21.0510 26037.3 -03431.7 -07.5082 26262.5
 16 04 2013  09 55  -21.0517 26037.3 -03431.6 -07.5081 26262.5
 16 04 2013  09 56  -21.0523 26037.4 -03431.6 -07.5080 26262.5
 16 04 2013  09 57  -21.0525 26037.5 -03431.5 -07.5078 26262.6
 16 04 2013  09 58  -21.0530 26037.5 -03431.4 -07.5076 26262.7
 16 04 2013  09 59  -21.0531 26037.6 -03431.4 -07.5074 26262.7
 16 04 2013  10 00  -21.0534 26037.6 -03431.3 -07.5072 26262.7
 16 04 2013  10 01  -21.0536 26037.7 -03431.2 -07.5071 26262.8
 16 04 2013  10 02  -21.0537 26037.8 -03431.2 -07.5069 26262.9
 16 04 2013  10 03  -21.0540 26037.8 -03431.0 -07.5067 26262.9
 16 04 2013  10 04  -21.0543 26037.9 -03431.0 -07.5065 26263.0
 16 04 2013  10 05  -21.0543 26038.0 -03430.9 -07.5063 26263.1
 16 04 2013  10 06  -21.0547 26038.0 -03430.8 -07.5061 26263.1
 16 04 2013  10 07  -21.0550 26038.1 -03430.7 -07.5059 26263.2
 16 04 2013  10 08  -21.0555 26038.2 -03430.6 -07.5057 26263.2
 16 04 2013  10 09  -21.0560 26038.2 -03430.5 -07.5055 26263.2
 16 04 2013  10 10  -21.0567 26038.1 -03430.4 -07.5052 26263.1
 16 04 2013  10 11  -21.0573 26038.2 -03430.4 -07.5051 26263.2
 16 04 2013  10 12  -21.0577 26038.2 -03430.3 -07.5050 26263.2
 16 04 2013  10 13  -21.0580 26038.2 -03430.2 -07.5048 26263.2
 16 04 2013  10 14  -21.0582 26038.4 -03430.2 -07.5047 26263.4
 16 04 2013  10 15  -21.0585 26038.4 -03430.1 -07.5044 26263.4
 16 04 2013  10 16  -21.0589 26038.5 -03430.0 -07.5042 26263.4
 16 04 2013  10 17  -21.0592 26038.6 -03429.9 -07.5040 26263.5
 16 04 2013  10 18  -21.0597 26038.6 -03429.7 -07.5036 26263.5
 16 04 2013  10 19  -21.0601 26038.7 -03429.6 -07.5034 26263.6
 16 04 2013  10 20  -21.0607 26038.7 -03429.5 -07.5031 26263.6
 16 04 2013  10 21  -21.0611 26038.8 -03429.4 -07.5029 26263.7
 16 04 2013  10 22  -21.0616 26038.8 -03429.3 -07.5026 26263.6
 16 04 2013  10 23  -21.0619 26038.9 -03429.2 -07.5024 26263.7
 16 04 2013  10 24  -21.0617 26039.1 -03429.1 -07.5021 26263.9
 16 04 2013  10 25  -21.0620 26039.1 -03428.9 -07.5018 26263.9
 16 04 2013  10 26  -21.0623 26039.2 -03428.9 -07.5016 26264.0
 16 04 2013  10 27  -21.0626 26039.4 -03428.8 -07.5014 26264.2
 16 04 2013  10 28  -21.0626 26039.6 -03428.7 -07.5011 26264.3
 16 04 2013  10 29  -21.0628 26039.6 -03428.5 -07.5008 26264.4
 16 04 2013  10 30  -21.0631 26039.7 -03428.4 -07.5004 26264.4
 16 04 2013  10 31  -21.0634 26039.7 -03428.3 -07.5001 26264.5
 16 04 2013  10 32  -21.0637 26039.8 -03428.1 -07.4998 26264.5
 16 04 2013  10 33  -21.0642 26039.9 -03428.0 -07.4994 26264.5
 16 04 2013  10 34  -21.0645 26040.0 -03427.8 -07.4991 26264.6
 16 04 2013  10 35  -21.0648 26040.1 -03427.8 -07.4989 26264.7
 16 04 2013  10 36  -21.0650 26040.3 -03427.7 -07.4987 26264.9
 16 04 2013  10 37  -21.0651 26040.4 -03427.5 -07.4984 26265.0
 16 04 2013  10 38  -21.0650 26040.6 -03427.4 -07.4981 26265.2
 16 04 2013  10 39  -21.0648 26040.8 -03427.3 -07.4978 26265.3
 16 04 2013  10 40  -21.0651 26040.8 -03427.1 -07.4974 26265.3
 16 04 2013  10 41  -21.0652 26040.9 -03427.0 -07.4971 26265.4
 16 04 2013  10 42  -21.0654 26041.0 -03426.9 -07.4968 26265.5
 16 04 2013  10 43  -21.0658 26041.1 -03426.8 -07.4966 26265.6
 16 04 2013  10 44  -21.0660 26041.2 -03426.7 -07.4963 26265.7
 16 04 2013  10 45  -21.0661 26041.3 -03426.6 -07.4961 26265.8
 16 04 2013  10 46  -21.0661 26041.4 -03426.5 -07.4958 26265.9
 16 04 2013  10 47  -21.0662 26041.5 -03426.4 -07.4956 26265.9
 16 04 2013  10 48  -21.0663 26041.6 -03426.3 -07.4954 26266.0
 16 04 2013  10 49  -21.0665 26041.6 -03426.2 -07.4951 26266.0
 16 04 2013  10 50  -21.0667 26041.7 -03426.1 -07.4949 26266.1
 16 04 2013  10 51  -21.0667 26041.7 -03426.0 -07.4947 26266.1
 16 04 2013  10 52  -21.0669 26041.7 -03425.9 -07.4944 26266.1
 16 04 2013  10 53  -21.0667 26041.9 -03425.9 -07.4943 26266.2
 16 04 2013  10 54  -21.0666 26041.9 -03425.8 -07.4941 26266.3
 16 04 2013  10 55  -21.0667 26042.0 -03425.7 -07.4939 26266.3
 16 04 2013  10 56  -21.0667 26042.2 -03425.6 -07.4937 26266.5
 16 04 2013  10 57  -21.0667 26042.3 -03425.5 -07.4935 26266.7
 16 04 2013  10 58  -21.0667 26042.5 -03425.5 -07.4933 26266.8
 16 04 2013  10 59  -21.0666 26042.7 -03425.4 -07.4932 26267.0
 16 04 2013  11 00  -21.0664 26043.0 -03425.4 -07.4929 26267.3
 16 04 2013  11 01  -21.0661 26043.1 -03425.3 -07.4927 26267.4
 16 04 2013  11 02  -21.0660 26043.1 -03425.1 -07.4924 26267.4
 16 04 2013  11 03  -21.0659 26043.2 -03425.0 -07.4921 26267.5
 16 04 2013  11 04  -21.0656 26043.5 -03425.0 -07.4919 26267.7
 16 04 2013  11 05  -21.0653 26043.5 -03424.8 -07.4916 26267.7
 16 04 2013  11 06  -21.0652 26043.5 -03424.7 -07.4914 26267.7
 16 04 2013  11 07  -21.0650 26043.7 -03424.7 -07.4912 26267.9
 16 04 2013  11 08  -21.0648 26043.8 -03424.6 -07.4909 26268.0
 16 04 2013  11 09  -21.0645 26044.0 -03424.5 -07.4907 26268.1
 16 04 2013  11 10  -21.0644 26044.1 -03424.4 -07.4905 26268.3
 16 04 2013  11 11  -21.0641 26044.3 -03424.3 -07.4903 26268.4
 16 04 2013  11 12  -21.0639 26044.4 -03424.2 -07.4900 26268.6
 16 04 2013  11 13  -21.0637 26044.5 -03424.1 -07.4898 26268.7
 16 04 2013  11 14  -21.0637 26044.6 -03424.0 -07.4896 26268.7
 16 04 2013  11 15  -21.0630 26044.8 -03423.9 -07.4893 26268.9
 16 04 2013  11 16  -21.0629 26045.0 -03423.9 -07.4892 26269.1
 16 04 2013  11 17  -21.0626 26045.3 -03423.8 -07.4890 26269.3
 16 04 2013  11 18  -21.0623 26045.4 -03423.7 -07.4887 26269.5
 16 04 2013  11 19  -21.0620 26045.5 -03423.5 -07.4883 26269.5
 16 04 2013  11 20  -21.0619 26045.6 -03423.5 -07.4881 26269.7
 16 04 2013  11 21  -21.0616 26045.6 -03423.3 -07.4877 26269.6
 16 04 2013  11 22  -21.0613 26046.0 -03423.3 -07.4876 26270.0
 16 04 2013  11 23  -21.0612 26045.9 -03423.1 -07.4872 26269.9
 16 04 2013  11 24  -21.0608 26046.4 -03423.2 -07.4872 26270.4
 16 04 2013  11 25  -21.0605 26046.3 -03422.9 -07.4867 26270.3
 16 04 2013  11 26  -21.0604 26046.4 -03422.8 -07.4864 26270.4
 16 04 2013  11 27  -21.0602 26046.6 -03422.8 -07.4863 26270.6
 16 04 2013  11 28  -21.0601 26046.8 -03422.6 -07.4860 26270.7
 16 04 2013  11 29  -21.0599 26046.9 -03422.5 -07.4857 26270.8
 16 04 2013  11 30  -21.0595 26047.1 -03422.4 -07.4854 26271.0
 16 04 2013  11 31  -21.0591 26047.1 -03422.3 -07.4851 26271.0
 16 04 2013  11 32  -21.0589 26047.4 -03422.3 -07.4849 26271.3
 16 04 2013  11 33  -21.0585 26047.6 -03422.2 -07.4847 26271.5
 16 04 2013  11 34  -21.0583 26047.5 -03421.9 -07.4843 26271.3
 16 04 2013  11 35  -21.0578 26047.9 -03421.9 -07.4841 26271.7
 16 04 2013  11 36  -21.0576 26047.8 -03421.7 -07.4837 26271.6
 16 04 2013  11 37  -21.0575 26048.0 -03421.7 -07.4836 26271.8
 16 04 2013  11 38  -21.0574 26048.1 -03421.6 -07.4833 26271.9
 16 04 2013  11 39  -21.0572 26048.4 -03421.5 -07.4831 26272.1
 16 04 2013  11 40  -21.0569 26048.3 -03421.4 -07.4828 26272.1
 16 04 2013  11 41  -21.0566 26048.4 -03421.3 -07.4826 26272.2
 16 04 2013  11 42  -21.0563 26048.6 -03421.2 -07.4823 26272.3
 16 04 2013  11 43  -21.0560 26048.8 -03421.2 -07.4822 26272.5
 16 04 2013  11 44  -21.0557 26048.9 -03421.0 -07.4819 26272.6
 16 04 2013  11 45  -21.0554 26048.9 -03420.9 -07.4816 26272.6
 16 04 2013  11 46  -21.0551 26048.9 -03420.8 -07.4813 26272.6
 16 04 2013  11 47  -21.0548 26049.2 -03420.8 -07.4812 26272.8
 16 04 2013  11 48  -21.0543 26049.5 -03420.8 -07.4812 26273.2
 16 04 2013  11 49  -21.0538 26049.7 -03420.8 -07.4811 26273.4
 16 04 2013  11 50  -21.0534 26050.0 -03420.8 -07.4810 26273.6
 16 04 2013  11 51  -21.0531 26050.3 -03420.8 -07.4809 26273.9
 16 04 2013  11 52  -21.0528 26050.8 -03420.9 -07.4810 26274.4
 16 04 2013  11 53  -21.0522 26050.9 -03420.8 -07.4808 26274.6
 16 04 2013  11 54  -21.0520 26051.0 -03420.7 -07.4806 26274.6
 16 04 2013  11 55  -21.0517 26051.3 -03420.7 -07.4806 26275.0
 16 04 2013  11 56  -21.0514 26051.5 -03420.7 -07.4804 26275.1
 16 04 2013  11 57  -21.0511 26051.8 -03420.8 -07.4805 26275.4
 16 04 2013  11 58  -21.0510 26051.9 -03420.7 -07.4803 26275.6
 16 04 2013  11 59  -21.0509 26052.1 -03420.7 -07.4802 26275.7
 16 04 2013  12 00  -21.0508 26052.2 -03420.7 -07.4801 26275.8
 16 04 2013  12 01  -21.0507 26052.4 -03420.7 -07.4801 26276.0
 16 04 2013  12 02  -21.0507 26052.6 -03420.7 -07.4801 26276.2
 16 04 2013  12 03  -21.0505 26052.8 -03420.7 -07.4800 26276.4
 16 04 2013  12 04  -21.0503 26053.1 -03420.8 -07.4801 26276.7
 16 04 2013  12 05  -21.0501 26053.0 -03420.7 -07.4800 26276.6
 16 04 2013  12 06  -21.0501 26053.1 -03420.6 -07.4798 26276.7
 16 04 2013  12 07  -21.0494 26053.3 -03420.7 -07.4798 26276.9
 16 04 2013  12 08  -21.0514 26053.2 -03420.6 -07.4797 26276.8
 16 04 2013  12 09  -21.0533 26053.0 -03420.5 -07.4795 26276.6
 16 04 2013  12 10  -21.0531 26053.3 -03420.6 -07.4796 26276.9
 16 04 2013  12 11  -21.0529 26053.5 -03420.6 -07.4796 26277.1
 16 04 2013  12 12  -21.0527 26053.6 -03420.6 -07.4796 26277.1
 16 04 2013  12 13  -21.0525 26053.6 -03420.6 -07.4797 26277.2
 16 04 2013  12 14  -21.0523 26053.9 -03420.7 -07.4798 26277.5
 16 04 2013  12 15  -21.0522 26054.0 -03420.8 -07.4799 26277.6
 16 04 2013  12 16  -21.0521 26054.3 -03420.9 -07.4801 26277.9
 16 04 2013  12 17  -21.0521 26054.4 -03420.9 -07.4801 26278.0
 16 04 2013  12 18  -21.0520 26054.4 -03420.9 -07.4801 26278.0
 16 04 2013  12 19  -21.0520 26054.5 -03421.0 -07.4802 26278.2
 16 04 2013  12 20  -21.0520 26054.7 -03421.1 -07.4803 26278.4
 16 04 2013  12 21  -21.0520 26054.8 -03421.1 -07.4804 26278.5
 16 04 2013  12 22  -21.0519 26054.9 -03421.3 -07.4807 26278.6
 16 04 2013  12 23  -21.0519 26055.0 -03421.4 -07.4808 26278.6
 16 04 2013  12 24  -21.0518 26055.2 -03421.5 -07.4811 26278.9
 16 04 2013  12 25  -21.0518 26055.3 -03421.6 -07.4813 26279.0
 16 04 2013  12 26  -21.0480 26056.1 -03422.1 -07.4820 26279.8
 16 04 2013  12 27  -21.0477 26056.3 -03422.2 -07.4823 26280.0
 16 04 2013  12 28  -21.0501 26056.1 -03422.0 -07.4820 26279.9
 16 04 2013  12 29  -21.0516 26056.1 -03422.0 -07.4820 26279.9
 16 04 2013  12 30  -21.0517 26056.3 -03422.1 -07.4821 26280.0
 16 04 2013  12 31  -21.0518 26056.2 -03422.1 -07.4821 26280.0
 16 04 2013  12 32  -21.0519 26056.4 -03422.2 -07.4824 26280.2
 16 04 2013  12 33  -21.0519 26056.6 -03422.3 -07.4825 26280.4
 16 04 2013  12 34  -21.0517 26056.7 -03422.3 -07.4825 26280.5
 16 04 2013  12 35  -21.0516 26057.0 -03422.5 -07.4827 26280.8
 16 04 2013  12 36  -21.0516 26057.2 -03422.6 -07.4828 26281.0
 16 04 2013  12 37  -21.0515 26057.4 -03422.6 -07.4828 26281.2
 16 04 2013  12 38  -21.0504 26057.7 -03422.7 -07.4829 26281.5
 16 04 2013  12 39  -21.0465 26058.3 -03422.9 -07.4834 26282.1
 16 04 2013  12 40  -21.0464 26058.4 -03423.0 -07.4835 26282.3
 16 04 2013  12 41  -21.0462 26058.6 -03423.0 -07.4834 26282.5
 16 04 2013  12 42  -21.0459 26058.8 -03423.0 -07.4834 26282.6
 16 04 2013  12 43  -21.0457 26059.0 -03423.1 -07.4835 26282.9
 16 04 2013  12 44  -21.0453 26059.1 -03423.1 -07.4834 26283.0
 16 04 2013  12 45  -21.0450 26059.3 -03423.1 -07.4834 26283.2
 16 04 2013  12 46  -21.0447 26059.4 -03423.1 -07.4833 26283.3
 16 04 2013  12 47  -21.0443 26059.5 -03423.1 -07.4833 26283.4
 16 04 2013  12 48  -21.0439 26059.5 -03423.0 -07.4832 26283.4
 16 04 2013  12 49  -21.0435 26059.8 -03423.1 -07.4833 26283.7
 16 04 2013  12 50  -21.0431 26060.0 -03423.2 -07.4833 26283.9
 16 04 2013  12 51  -21.0426 26060.1 -03423.2 -07.4834 26284.0
 16 04 2013  12 52  -21.0420 26060.3 -03423.2 -07.4833 26284.1
 16 04 2013  12 53  -21.0415 26060.5 -03423.3 -07.4834 26284.4
 16 04 2013  12 54  -21.0409 26060.7 -03423.3 -07.4833 26284.5
 16 04 2013  12 55  -21.0403 26060.9 -03423.3 -07.4834 26284.8
 16 04 2013  12 56  -21.0398 26061.0 -03423.3 -07.4834 26284.8
 16 04 2013  12 57  -21.0392 26061.1 -03423.3 -07.4834 26285.0
 16 04 2013  12 58  -21.0387 26061.5 -03423.5 -07.4836 26285.4
 16 04 2013  12 59  -21.0382 26061.8 -03423.5 -07.4836 26285.7
 16 04 2013  13 00  -21.0376 26062.0 -03423.6 -07.4837 26285.9
 16 04 2013  13 01  -21.0371 26062.2 -03423.7 -07.4838 26286.1
 16 04 2013  13 02  -21.0367 26062.3 -03423.7 -07.4838 26286.2
 16 04 2013  13 03  -21.0364 26062.4 -03423.7 -07.4838 26286.4
 16 04 2013  13 04  -21.0361 26062.6 -03423.8 -07.4839 26286.6
 16 04 2013  13 05  -21.0357 26062.8 -03423.8 -07.4840 26286.8
 16 04 2013  13 06  -21.0354 26062.9 -03423.9 -07.4840 26286.9
 16 04 2013  13 07  -21.0353 26063.1 -03423.9 -07.4841 26287.0
 16 04 2013  13 08  -21.0351 26063.3 -03424.0 -07.4842 26287.2
 16 04 2013  13 09  -21.0349 26063.4 -03424.0 -07.4842 26287.3
 16 04 2013  13 10  -21.0348 26063.4 -03424.0 -07.4842 26287.4
 16 04 2013  13 11  -21.0347 26063.6 -03424.1 -07.4844 26287.6
 16 04 2013  13 12  -21.0346 26063.8 -03424.2 -07.4844 26287.8
 16 04 2013  13 13  -21.0346 26064.0 -03424.2 -07.4844 26288.0
 16 04 2013  13 14  -21.0347 26064.2 -03424.2 -07.4844 26288.1
 16 04 2013  13 15  -21.0348 26064.5 -03424.3 -07.4845 26288.4
 16 04 2013  13 16  -21.0350 26064.6 -03424.3 -07.4845 26288.6
 16 04 2013  13 17  -21.0350 26064.7 -03424.2 -07.4843 26288.7
 16 04 2013  13 18  -21.0351 26064.8 -03424.2 -07.4842 26288.7
 16 04 2013  13 19  -21.0353 26064.7 -03424.1 -07.4841 26288.6
 16 04 2013  13 20  -21.0354 26064.7 -03424.1 -07.4841 26288.6
 16 04 2013  13 21  -21.0357 26064.8 -03424.1 -07.4840 26288.7
 16 04 2013  13 22  -21.0360 26065.0 -03424.1 -07.4840 26288.9
 16 04 2013  13 23  -21.0363 26065.1 -03424.1 -07.4839 26289.1
 16 04 2013  13 24  -21.0364 26065.4 -03424.1 -07.4839 26289.4
 16 04 2013  13 25  -21.0366 26065.6 -03424.1 -07.4837 26289.5
 16 04 2013  13 26  -21.0367 26065.7 -03423.9 -07.4834 26289.6
 16 04 2013  13 27  -21.0367 26065.9 -03423.9 -07.4833 26289.8
 16 04 2013  13 28  -21.0369 26066.0 -03423.8 -07.4830 26289.9
 16 04 2013  13 29  -21.0370 26066.1 -03423.7 -07.4827 26290.0
 16 04 2013  13 30  -21.0371 26066.2 -03423.6 -07.4825 26290.1
 16 04 2013  13 31  -21.0371 26066.3 -03423.5 -07.4824 26290.2
 16 04 2013  13 32  -21.0372 26066.5 -03423.5 -07.4822 26290.4
 16 04 2013  13 33  -21.0373 26066.6 -03423.4 -07.4821 26290.5
 16 04 2013  13 34  -21.0374 26066.9 -03423.4 -07.4819 26290.7
 16 04 2013  13 35  -21.0375 26067.2 -03423.4 -07.4818 26291.0
 16 04 2013  13 36  -21.0374 26067.5 -03423.4 -07.4816 26291.3
 16 04 2013  13 37  -21.0376 26067.5 -03423.2 -07.4813 26291.3
 16 04 2013  13 38  -21.0377 26067.5 -03423.1 -07.4810 26291.3
 16 04 2013  13 39  -21.0379 26067.6 -03422.9 -07.4807 26291.4
 16 04 2013  13 40  -21.0380 26067.6 -03422.8 -07.4804 26291.4
 16 04 2013  13 41  -21.0381 26067.9 -03422.8 -07.4803 26291.7
 16 04 2013  13 42  -21.0382 26068.2 -03422.8 -07.4802 26292.0
 16 04 2013  13 43  -21.0383 26068.3 -03422.7 -07.4800 26292.0
 16 04 2013  13 44  -21.0384 26068.3 -03422.5 -07.4796 26292.0
 16 04 2013  13 45  -21.0384 26068.3 -03422.4 -07.4793 26292.0
 16 04 2013  13 46  -21.0384 26068.5 -03422.3 -07.4792 26292.2
 16 04 2013  13 47  -21.0385 26068.6 -03422.2 -07.4788 26292.2
 16 04 2013  13 48  -21.0385 26068.6 -03422.1 -07.4785 26292.3
 16 04 2013  13 49  -21.0385 26068.7 -03421.9 -07.4782 26292.3
 16 04 2013  13 50  -21.0386 26068.6 -03421.8 -07.4779 26292.2
 16 04 2013  13 51  -21.0385 26068.6 -03421.6 -07.4776 26292.2
 16 04 2013  13 52  -21.0383 26068.8 -03421.6 -07.4775 26292.4
 16 04 2013  13 53  -21.0381 26069.0 -03421.6 -07.4773 26292.6
 16 04 2013  13 54  -21.0377 26069.0 -03421.4 -07.4769 26292.5
 16 04 2013  13 55  -21.0372 26068.7 -03421.1 -07.4765 26292.2
 16 04 2013  13 56  -21.0368 26068.6 -03421.0 -07.4763 26292.1
 16 04 2013  13 57  -21.0364 26068.6 -03421.0 -07.4762 26292.1
 16 04 2013  13 58  -21.0360 26068.6 -03421.0 -07.4761 26292.1
 16 04 2013  13 59  -21.0356 26068.6 -03420.9 -07.4761 26292.1
 16 04 2013  14 00  -21.0352 26068.8 -03421.1 -07.4763 26292.3
 16 04 2013  14 01  -21.0348 26069.1 -03421.2 -07.4764 26292.6
 16 04 2013  14 02  -21.0343 26069.4 -03421.2 -07.4765 26292.9
 16 04 2013  14 03  -21.0338 26069.6 -03421.3 -07.4766 26293.1
 16 04 2013  14 04  -21.0333 26069.9 -03421.4 -07.4767 26293.4
 16 04 2013  14 05  -21.0330 26070.2 -03421.5 -07.4768 26293.7
 16 04 2013  14 06  -21.0326 26070.2 -03421.5 -07.4768 26293.8
 16 04 2013  14 07  -21.0324 26070.3 -03421.5 -07.4768 26293.9
 16 04 2013  14 08  -21.0321 26070.4 -03421.6 -07.4769 26294.0
 16 04 2013  14 09  -21.0319 26070.4 -03421.6 -07.4769 26294.0
 16 04 2013  14 10  -21.0318 26070.5 -03421.6 -07.4770 26294.1
 16 04 2013  14 11  -21.0317 26070.7 -03421.7 -07.4771 26294.2
 16 04 2013  14 12  -21.0315 26070.9 -03421.8 -07.4772 26294.5
 16 04 2013  14 13  -21.0313 26071.1 -03421.8 -07.4773 26294.7
 16 04 2013  14 14  -21.0312 26071.3 -03421.8 -07.4772 26294.9
 16 04 2013  14 15  -21.0312 26071.4 -03421.8 -07.4772 26295.0
 16 04 2013  14 16  -21.0312 26071.5 -03421.8 -07.4772 26295.1
 16 04 2013  14 17  -21.0312 26071.5 -03421.7 -07.4770 26295.1
 16 04 2013  14 18  -21.0311 26071.5 -03421.7 -07.4769 26295.1
 16 04 2013  14 19  -21.0310 26071.5 -03421.6 -07.4768 26295.1
 16 04 2013  14 20  -21.0309 26071.3 -03421.5 -07.4766 26294.9
 16 04 2013  14 21  -21.0308 26071.1 -03421.4 -07.4765 26294.7
 16 04 2013  14 22  -21.0308 26070.9 -03421.4 -07.4764 26294.5
 16 04 2013  14 23  -21.0308 26071.0 -03421.4 -07.4765 26294.5
 16 04 2013  14 24  -21.0309 26071.2 -03421.5 -07.4766 26294.7
 16 04 2013  14 25  -21.0309 26071.1 -03421.5 -07.4766 26294.7
 16 04 2013  14 26  -21.0309 26071.1 -03421.5 -07.4766 26294.6
 16 04 2013  14 27  -21.0310 26071.0 -03421.5 -07.4766 26294.6
 16 04 2013  14 28  -21.0311 26070.9 -03421.5 -07.4766 26294.5
 16 04 2013  14 29  -21.0313 26070.9 -03421.5 -07.4767 26294.4
 16 04 2013  14 30  -21.0315 26071.0 -03421.5 -07.4767 26294.5
 16 04 2013  14 31  -21.0317 26070.9 -03421.5 -07.4766 26294.5
 16 04 2013  14 32  -21.0318 26070.6 -03421.3 -07.4763 26294.1
 16 04 2013  14 33  -21.0318 26070.1 -03421.1 -07.4760 26293.6
 16 04 2013  14 34  -21.0321 26070.1 -03421.1 -07.4760 26293.6
 16 04 2013  14 35  -21.0323 26070.3 -03421.2 -07.4761 26293.8
 16 04 2013  14 36  -21.0324 26070.3 -03421.1 -07.4760 26293.8
 16 04 2013  14 37  -21.0324 26070.1 -03421.0 -07.4758 26293.6
 16 04 2013  14 38  -21.0324 26069.9 -03420.9 -07.4757 26293.3
 16 04 2013  14 39  -21.0323 26069.7 -03420.9 -07.4757 26293.2
 16 04 2013  14 40  -21.0322 26069.5 -03420.8 -07.4756 26293.0
 16 04 2013  14 41  -21.0323 26069.4 -03420.8 -07.4756 26292.9
 16 04 2013  14 42  -21.0325 26069.3 -03420.8 -07.4755 26292.8
 16 04 2013  14 43  -21.0325 26069.1 -03420.7 -07.4754 26292.6
 16 04 2013  14 44  -21.0325 26069.0 -03420.7 -07.4754 26292.5
 16 04 2013  14 45  -21.0326 26069.0 -03420.6 -07.4753 26292.5
 16 04 2013  14 46  -21.0325 26068.8 -03420.5 -07.4751 26292.3
 16 04 2013  14 47  -21.0323 26068.5 -03420.3 -07.4748 26291.9
 16 04 2013  14 48  -21.0322 26068.4 -03420.3 -07.4748 26291.8
 16 04 2013  14 49  -21.0321 26068.4 -03420.3 -07.4748 26291.8
 16 04 2013  14 50  -21.0318 26068.3 -03420.3 -07.4749 26291.8
 16 04 2013  14 51  -21.0313 26068.1 -03420.2 -07.4747 26291.5
 16 04 2013  14 52  -21.0309 26068.1 -03420.3 -07.4749 26291.5
 16 04 2013  14 53  -21.0308 26068.3 -03420.4 -07.4750 26291.7
 16 04 2013  14 54  -21.0304 26068.1 -03420.3 -07.4748 26291.5
 16 04 2013  14 55  -21.0297 26067.8 -03420.1 -07.4746 26291.2
 16 04 2013  14 56  -21.0292 26068.0 -03420.3 -07.4749 26291.4
 16 04 2013  14 57  -21.0288 26068.1 -03420.3 -07.4749 26291.5
 16 04 2013  14 58  -21.0283 26067.8 -03420.2 -07.4748 26291.2
 16 04 2013  14 59  -21.0278 26067.5 -03420.2 -07.4748 26290.9
 16 04 2013  15 00  -21.0274 26067.5 -03420.3 -07.4750 26290.9
 16 04 2013  15 01  -21.0271 26067.4 -03420.3 -07.4751 26290.9
 16 04 2013  15 02  -21.0267 26067.2 -03420.3 -07.4752 26290.6
 16 04 2013  15 03  -21.0264 26067.0 -03420.4 -07.4754 26290.5
 16 04 2013  15 04  -21.0261 26067.0 -03420.6 -07.4758 26290.5
 16 04 2013  15 05  -21.0260 26066.9 -03420.7 -07.4760 26290.4
 16 04 2013  15 06  -21.0259 26066.9 -03420.8 -07.4762 26290.4
 16 04 2013  15 07  -21.0258 26067.0 -03421.0 -07.4766 26290.5
 16 04 2013  15 08  -21.0257 26067.1 -03421.1 -07.4769 26290.6
 16 04 2013  15 09  -21.0256 26066.9 -03421.1 -07.4770 26290.5
 16 04 2013  15 10  -21.0255 26066.8 -03421.3 -07.4773 26290.4
 16 04 2013  15 11  -21.0255 26066.8 -03421.4 -07.4776 26290.4
 16 04 2013  15 12  -21.0256 26066.7 -03421.5 -07.4778 26290.3
 16 04 2013  15 13  -21.0256 26066.7 -03421.6 -07.4781 26290.3
 16 04 2013  15 14  -21.0256 26066.7 -03421.7 -07.4783 26290.4
 16 04 2013  15 15  -21.0257 26066.8 -03421.9 -07.4786 26290.4
 16 04 2013  15 16  -21.0258 26066.9 -03422.1 -07.4790 26290.5
 16 04 2013  15 17  -21.0259 26066.9 -03422.2 -07.4793 26290.6
 16 04 2013  15 18  -21.0260 26066.7 -03422.2 -07.4794 26290.4
 16 04 2013  15 19  -21.0261 26066.5 -03422.3 -07.4796 26290.2
 16 04 2013  15 20  -21.0261 26066.8 -03422.5 -07.4801 26290.5
 16 04 2013  15 21  -21.0262 26067.1 -03422.8 -07.4806 26290.9
 16 04 2013  15 22  -21.0262 26067.4 -03423.0 -07.4809 26291.1
 16 04 2013  15 23  -21.0262 26067.3 -03423.0 -07.4810 26291.1
 16 04 2013  15 24  -21.0262 26067.2 -03423.1 -07.4810 26291.0
 16 04 2013  15 25  -21.0262 26067.2 -03423.1 -07.4811 26291.0
 16 04 2013  15 26  -21.0261 26067.2 -03423.1 -07.4812 26291.0
 16 04 2013  15 27  -21.0261 26067.2 -03423.2 -07.4813 26291.0
 16 04 2013  15 28  -21.0259 26067.3 -03423.2 -07.4814 26291.1
 16 04 2013  15 29  -21.0259 26067.3 -03423.3 -07.4816 26291.1
 16 04 2013  15 30  -21.0259 26067.3 -03423.4 -07.4817 26291.1
 16 04 2013  15 31  -21.0258 26067.4 -03423.4 -07.4818 26291.2
 16 04 2013  15 32  -21.0257 26067.7 -03423.6 -07.4821 26291.5
 16 04 2013  15 33  -21.0257 26067.8 -03423.7 -07.4822 26291.6
 16 04 2013  15 34  -21.0255 26067.6 -03423.6 -07.4822 26291.5
 16 04 2013  15 35  -21.0256 26067.6 -03423.7 -07.4823 26291.5
 16 04 2013  15 36  -21.0255 26067.7 -03423.8 -07.4824 26291.6
 16 04 2013  15 37  -21.0256 26067.7 -03423.8 -07.4825 26291.6
 16 04 2013  15 38  -21.0257 26067.7 -03423.8 -07.4825 26291.5
 16 04 2013  15 39  -21.0260 26067.9 -03423.9 -07.4827 26291.8
 16 04 2013  15 40  -21.0265 26068.4 -03424.0 -07.4829 26292.3
 16 04 2013  15 41  -21.0271 26068.8 -03424.1 -07.4829 26292.8
 16 04 2013  15 42  -21.0275 26069.1 -03424.0 -07.4826 26293.0
 16 04 2013  15 43  -21.0278 26069.4 -03423.9 -07.4822 26293.2
 16 04 2013  15 44  -21.0276 26069.7 -03423.7 -07.4818 26293.6
 16 04 2013  15 45  -21.0278 26070.1 -03423.6 -07.4813 26293.9
 16 04 2013  15 46  -21.0281 26070.2 -03423.3 -07.4808 26294.0
 16 04 2013  15 47  -21.0284 26070.0 -03423.0 -07.4801 26293.7
 16 04 2013  15 48  -21.0280 26069.6 -03422.6 -07.4793 26293.3
 16 04 2013  15 49  -21.0278 26069.7 -03422.4 -07.4789 26293.4
 16 04 2013  15 50  -21.0278 26069.9 -03422.3 -07.4786 26293.6
 16 04 2013  15 51  -21.0279 26070.7 -03422.4 -07.4786 26294.4
 16 04 2013  15 52  -21.0279 26071.3 -03422.2 -07.4780 26294.9
 16 04 2013  15 53  -21.0281 26070.5 -03421.4 -07.4767 26294.0
 16 04 2013  15 54  -21.0277 26069.8 -03420.9 -07.4757 26293.3
 16 04 2013  15 55  -21.0274 26069.4 -03420.7 -07.4753 26292.9
 16 04 2013  15 56  -21.0267 26069.2 -03420.4 -07.4747 26292.6
 16 04 2013  15 57  -21.0268 26068.6 -03420.1 -07.4742 26292.0
 16 04 2013  15 58  -21.0268 26068.7 -03420.1 -07.4743 26292.1
 16 04 2013  15 59  -21.0267 26068.8 -03420.1 -07.4742 26292.1
 16 04 2013  16 00  -21.0266 26068.6 -03419.9 -07.4738 26292.0
 16 04 2013  16 01  -21.0259 26068.3 -03419.7 -07.4735 26291.6
 16 04 2013  16 02  -21.0253 26068.5 -03419.7 -07.4735 26291.9
 16 04 2013  16 03  -21.0254 26068.7 -03419.8 -07.4737 26292.1
 16 04 2013  16 04  -21.0256 26068.6 -03419.7 -07.4734 26291.9
 16 04 2013  16 05  -21.0255 26068.5 -03419.6 -07.4731 26291.8
 16 04 2013  16 06  -21.0254 26068.2 -03419.3 -07.4727 26291.5
 16 04 2013  16 07  -21.0251 26067.6 -03419.0 -07.4722 26290.9
 16 04 2013  16 08  -21.0249 26067.3 -03418.9 -07.4721 26290.6
 16 04 2013  16 09  -21.0249 26067.7 -03419.1 -07.4724 26291.0
 16 04 2013  16 10  -21.0250 26067.6 -03419.0 -07.4721 26290.9
 16 04 2013  16 11  -21.0251 26067.3 -03418.8 -07.4718 26290.6
 16 04 2013  16 12  -21.0252 26067.6 -03418.9 -07.4719 26290.8
 16 04 2013  16 13  -21.0254 26068.1 -03418.9 -07.4719 26291.3
 16 04 2013  16 14  -21.0258 26068.2 -03418.7 -07.4714 26291.4
 16 04 2013  16 15  -21.0262 26067.5 -03418.2 -07.4704 26290.6
 16 04 2013  16 16  -21.0266 26066.5 -03417.6 -07.4695 26289.6
 16 04 2013  16 17  -21.0267 26066.0 -03417.3 -07.4691 26289.0
 16 04 2013  16 18  -21.0268 26065.6 -03417.1 -07.4687 26288.6
 16 04 2013  16 19  -21.0271 26065.3 -03416.9 -07.4684 26288.3
 16 04 2013  16 20  -21.0273 26064.9 -03416.7 -07.4681 26287.9
 16 04 2013  16 21  -21.0275 26064.5 -03416.6 -07.4679 26287.5
 16 04 2013  16 22  -21.0277 26064.4 -03416.5 -07.4676 26287.4
 16 04 2013  16 23  -21.0277 26064.0 -03416.2 -07.4671 26286.9
 16 04 2013  16 24  -21.0278 26063.5 -03415.9 -07.4666 26286.4
 16 04 2013  16 25  -21.0280 26063.4 -03415.7 -07.4663 26286.3
 16 04 2013  16 26  -21.0284 26063.1 -03415.5 -07.4658 26286.0
 16 04 2013  16 27  -21.0285 26062.5 -03415.1 -07.4652 26285.3
 16 04 2013  16 28  -21.0283 26062.2 -03414.9 -07.4648 26285.0
 16 04 2013  16 29  -21.0279 26062.0 -03414.7 -07.4645 26284.8
 16 04 2013  16 30  -21.0275 26061.8 -03414.5 -07.4641 26284.5
 16 04 2013  16 31  -21.0273 26061.4 -03414.3 -07.4637 26284.1
 16 04 2013  16 32  -21.0274 26061.2 -03414.1 -07.4633 26283.9
 16 04 2013  16 33  -21.0275 26060.9 -03413.8 -07.4628 26283.5
 16 04 2013  16 34  -21.0271 26060.4 -03413.4 -07.4622 26283.0
 16 04 2013  16 35  -21.0267 26059.9 -03413.2 -07.4618 26282.5
 16 04 2013  16 36  -21.0264 26059.5 -03413.0 -07.4614 26282.0
 16 04 2013  16 37  -21.0261 26059.2 -03412.8 -07.4612 26281.8
 16 04 2013  16 38  -21.0260 26059.1 -03412.7 -07.4609 26281.6
 16 04 2013  16 39  -21.0259 26058.9 -03412.5 -07.4606 26281.4
 16 04 2013  16 40  -21.0258 26058.5 -03412.2 -07.4600 26281.0
 16 04 2013  16 41  -21.0253 26057.7 -03411.7 -07.4592 26280.1
 16 04 2013  16 42  -21.0247 26057.2 -03411.5 -07.4588 26279.6
 16 04 2013  16 43  -21.0248 26057.5 -03411.6 -07.4591 26279.9
 16 04 2013  16 44  -21.0244 26057.7 -03411.5 -07.4587 26280.1
 16 04 2013  16 45  -21.0241 26057.5 -03411.1 -07.4581 26279.8
 16 04 2013  16 46  -21.0235 26056.9 -03410.6 -07.4572 26279.2
 16 04 2013  16 47  -21.0227 26056.3 -03410.2 -07.4564 26278.6
 16 04 2013  16 48  -21.0220 26056.0 -03409.9 -07.4559 26278.2
 16 04 2013  16 49  -21.0215 26056.0 -03409.8 -07.4556 26278.1
 16 04 2013  16 50  -21.0212 26056.1 -03409.7 -07.4553 26278.2
 16 04 2013  16 51  -21.0204 26056.1 -03409.5 -07.4549 26278.3
 16 04 2013  16 52  -21.0199 26055.9 -03409.1 -07.4542 26278.0
 16 04 2013  16 53  -21.0191 26055.8 -03408.8 -07.4535 26277.8
 16 04 2013  16 54  -21.0181 26055.7 -03408.4 -07.4527 26277.7
 16 04 2013  16 55  -21.0172 26055.0 -03408.0 -07.4519 26277.0
 16 04 2013  16 56  -21.0166 26053.5 -03407.2 -07.4507 26275.3
 16 04 2013  16 57  -21.0157 26053.8 -03407.3 -07.4507 26275.7
 16 04 2013  16 58  -21.0154 26053.9 -03407.2 -07.4506 26275.8
 16 04 2013  16 59  -21.0144 26054.0 -03407.0 -07.4501 26275.8
 16 04 2013  17 00  -21.0137 26053.8 -03406.9 -07.4498 26275.6
 16 04 2013  17 01  -21.0132 26053.4 -03406.6 -07.4494 26275.2
 16 04 2013  17 02  -21.0125 26053.5 -03406.5 -07.4492 26275.2
 16 04 2013  17 03  -21.0122 26054.2 -03406.7 -07.4494 26276.0
 16 04 2013  17 04  -21.0121 26054.6 -03406.6 -07.4492 26276.3
 16 04 2013  17 05  -21.0114 26053.5 -03405.9 -07.4478 26275.1
 16 04 2013  17 06  -21.0105 26052.6 -03405.4 -07.4470 26274.3
 16 04 2013  17 07  -21.0096 26052.2 -03405.2 -07.4467 26273.8
 16 04 2013  17 08  -21.0086 26052.3 -03405.3 -07.4468 26273.9
 16 04 2013  17 09  -21.0082 26052.4 -03405.3 -07.4469 26274.0
 16 04 2013  17 10  -21.0080 26052.7 -03405.4 -07.4471 26274.3
 16 04 2013  17 11  -21.0076 26052.9 -03405.5 -07.4471 26274.6
 16 04 2013  17 12  -21.0073 26052.7 -03405.2 -07.4466 26274.3
 16 04 2013  17 13  -21.0066 26052.7 -03405.0 -07.4462 26274.3
 16 04 2013  17 14  -21.0060 26052.4 -03404.8 -07.4459 26273.9
 16 04 2013  17 15  -21.0057 26051.9 -03404.6 -07.4455 26273.4
 16 04 2013  17 16  -21.0051 26051.1 -03404.3 -07.4450 26272.6
 16 04 2013  17 17  -21.0044 26050.2 -03404.0 -07.4446 26271.6
 16 04 2013  17 18  -21.0035 26049.2 -03403.8 -07.4444 26270.7
 16 04 2013  17 19  -21.0027 26048.7 -03403.8 -07.4446 26270.1
 16 04 2013  17 20  -21.0020 26048.2 -03403.9 -07.4450 26269.7
 16 04 2013  17 21  -21.0012 26047.5 -03403.8 -07.4450 26268.9
 16 04 2013  17 22  -21.0006 26047.4 -03403.9 -07.4453 26268.9
 16 04 2013  17 23  -21.0000 26047.3 -03403.9 -07.4454 26268.7
 16 04 2013  17 24  -20.9997 26047.2 -03404.0 -07.4456 26268.6
 16 04 2013  17 25  -20.9995 26047.2 -03404.1 -07.4457 26268.7
 16 04 2013  17 26  -20.9994 26047.0 -03404.0 -07.4455 26268.5
 16 04 2013  17 27  -20.9986 26046.4 -03403.7 -07.4450 26267.8
 16 04 2013  17 28  -20.9976 26046.1 -03403.6 -07.4450 26267.5
 16 04 2013  17 29  -20.9972 26045.7 -03403.6 -07.4451 26267.1
 16 04 2013  17 30  -20.9965 26045.6 -03403.7 -07.4453 26267.0
 16 04 2013  17 31  -20.9958 26045.5 -03403.7 -07.4455 26267.0
 16 04 2013  17 32  -20.9950 26045.3 -03403.7 -07.4454 26266.8
 16 04 2013  17 33  -20.9943 26045.1 -03403.6 -07.4453 26266.5
 16 04 2013  17 34  -20.9937 26044.9 -03403.6 -07.4454 26266.3
 16 04 2013  17 35  -20.9934 26044.6 -03403.7 -07.4457 26266.1
 16 04 2013  17 36  -20.9929 26044.1 -03403.6 -07.4454 26265.5
 16 04 2013  17 37  -20.9919 26043.4 -03403.4 -07.4453 26264.8
 16 04 2013  17 38  -20.9915 26043.5 -03403.7 -07.4458 26264.9
 16 04 2013  17 39  -20.9915 26043.2 -03403.8 -07.4463 26264.7
 16 04 2013  17 40  -20.9910 26043.0 -03403.9 -07.4465 26264.5
 16 04 2013  17 41  -20.9904 26043.0 -03404.0 -07.4468 26264.5
 16 04 2013  17 42  -20.9897 26042.7 -03404.1 -07.4470 26264.3
 16 04 2013  17 43  -20.9890 26042.3 -03404.2 -07.4473 26263.9
 16 04 2013  17 44  -20.9887 26042.1 -03404.3 -07.4476 26263.7
 16 04 2013  17 45  -20.9885 26042.2 -03404.5 -07.4481 26263.8
 16 04 2013  17 46  -20.9883 26042.0 -03404.6 -07.4483 26263.6
 16 04 2013  17 47  -20.9874 26041.8 -03404.7 -07.4486 26263.4
 16 04 2013  17 48  -20.9869 26041.7 -03405.0 -07.4492 26263.4
 16 04 2013  17 49  -20.9867 26042.0 -03405.4 -07.4500 26263.7
 16 04 2013  17 50  -20.9866 26041.5 -03405.4 -07.4503 26263.2
 16 04 2013  17 51  -20.9864 26041.7 -03405.8 -07.4510 26263.4
 16 04 2013  17 52  -20.9864 26042.1 -03406.2 -07.4517 26264.0
 16 04 2013  17 53  -20.9860 26042.1 -03406.3 -07.4520 26264.0
 16 04 2013  17 54  -20.9856 26041.3 -03406.2 -07.4520 26263.1
 16 04 2013  17 55  -20.9851 26040.3 -03406.2 -07.4521 26262.2
 16 04 2013  17 56  -20.9854 26039.8 -03406.3 -07.4526 26261.7
 16 04 2013  17 57  -20.9854 26039.4 -03406.4 -07.4530 26261.3
 16 04 2013  17 58  -20.9855 26039.1 -03406.7 -07.4536 26261.0
 16 04 2013  17 59  -20.9857 26038.8 -03406.9 -07.4542 26260.7
 16 04 2013  18 00  -20.9857 26038.6 -03407.2 -07.4549 26260.6
 16 04 2013  18 01  -20.9857 26038.4 -03407.5 -07.4556 26260.4
 16 04 2013  18 02  -20.9859 26038.2 -03407.8 -07.4563 26260.3
 16 04 2013  18 03  -20.9861 26038.0 -03408.0 -07.4567 26260.1
 16 04 2013  18 04  -20.9863 26037.8 -03408.1 -07.4571 26259.9
 16 04 2013  18 05  -20.9864 26037.1 -03408.1 -07.4574 26259.2
 16 04 2013  18 06  -20.9869 26037.1 -03408.5 -07.4581 26259.3
 16 04 2013  18 07  -20.9869 26036.5 -03408.5 -07.4583 26258.7
 16 04 2013  18 08  -20.9869 26036.4 -03408.7 -07.4588 26258.5
 16 04 2013  18 09  -20.9875 26036.3 -03409.1 -07.4596 26258.5
 16 04 2013  18 10  -20.9877 26036.3 -03409.4 -07.4602 26258.6
 16 04 2013  18 11  -20.9880 26036.2 -03409.6 -07.4607 26258.5
 16 04 2013  18 12  -20.9884 26036.0 -03409.7 -07.4611 26258.4
 16 04 2013  18 13  -20.9886 26035.7 -03409.8 -07.4613 26258.0
 16 04 2013  18 14  -20.9891 26035.7 -03410.1 -07.4620 26258.1
 16 04 2013  18 15  -20.9896 26036.1 -03410.5 -07.4627 26258.5
 16 04 2013  18 16  -20.9898 26035.8 -03410.5 -07.4629 26258.3
 16 04 2013  18 17  -20.9893 26035.3 -03410.5 -07.4630 26257.7
 16 04 2013  18 18  -20.9898 26035.1 -03410.6 -07.4634 26257.5
 16 04 2013  18 19  -20.9902 26034.8 -03410.7 -07.4636 26257.3
 16 04 2013  18 20  -20.9904 26034.5 -03410.8 -07.4638 26257.0
 16 04 2013  18 21  -20.9904 26034.5 -03411.1 -07.4644 26257.1
 16 04 2013  18 22  -20.9908 26034.3 -03411.2 -07.4648 26256.8
 16 04 2013  18 23  -20.9906 26033.7 -03411.3 -07.4651 26256.2
 16 04 2013  18 24  -20.9904 26033.2 -03411.3 -07.4653 26255.7
 16 04 2013  18 25  -20.9904 26033.0 -03411.5 -07.4658 26255.5
 16 04 2013  18 26  -20.9911 26032.7 -03411.6 -07.4660 26255.3
 16 04 2013  18 27  -20.9916 26033.0 -03411.9 -07.4667 26255.6
 16 04 2013  18 28  -20.9919 26032.6 -03412.1 -07.4671 26255.3
 16 04 2013  18 29  -20.9918 26032.3 -03412.2 -07.4674 26255.0
 16 04 2013  18 30  -20.9920 26032.0 -03412.4 -07.4680 26254.7
 16 04 2013  18 31  -20.9920 26031.8 -03412.6 -07.4686 26254.5
 16 04 2013  18 32  -20.9919 26031.6 -03412.8 -07.4691 26254.3
 16 04 2013  18 33  -20.9921 26031.5 -03413.2 -07.4698 26254.3
 16 04 2013  18 34  -20.9924 26031.6 -03413.4 -07.4704 26254.5
 16 04 2013  18 35  -20.9924 26031.3 -03413.5 -07.4707 26254.1
 16 04 2013  18 36  -20.9928 26030.5 -03413.4 -07.4707 26253.4
 16 04 2013  18 37  -20.9926 26029.9 -03413.4 -07.4707 26252.8
 16 04 2013  18 38  -20.9920 26029.4 -03413.4 -07.4710 26252.2
 16 04 2013  18 39  -20.9923 26029.2 -03413.8 -07.4718 26252.1
 16 04 2013  18 40  -20.9925 26028.8 -03414.0 -07.4725 26251.7
 16 04 2013  18 41  -20.9928 26028.2 -03414.1 -07.4729 26251.2
 16 04 2013  18 42  -20.9929 26027.8 -03414.3 -07.4732 26250.7
 16 04 2013  18 43  -20.9928 26027.2 -03414.4 -07.4737 26250.2
 16 04 2013  18 44  -20.9927 26027.1 -03414.7 -07.4744 26250.1
 16 04 2013  18 45  -20.9931 26027.1 -03415.1 -07.4752 26250.2
 16 04 2013  18 46  -20.9935 26027.1 -03415.4 -07.4759 26250.2
 16 04 2013  18 47  -20.9939 26026.7 -03415.6 -07.4764 26249.9
 16 04 2013  18 48  -20.9944 26026.6 -03415.8 -07.4769 26249.8
 16 04 2013  18 49  -20.9946 26026.5 -03416.1 -07.4775 26249.8
 16 04 2013  18 50  -20.9950 26026.4 -03416.3 -07.4781 26249.7
 16 04 2013  18 51  -20.9954 26026.0 -03416.4 -07.4784 26249.3
 16 04 2013  18 52  -20.9956 26025.5 -03416.5 -07.4787 26248.8
 16 04 2013  18 53  -20.9956 26025.1 -03416.7 -07.4792 26248.4
 16 04 2013  18 54  -20.9958 26024.8 -03416.9 -07.4799 26248.1
 16 04 2013  18 55  -20.9962 26024.6 -03417.2 -07.4805 26248.0
 16 04 2013  18 56  -20.9965 26024.4 -03417.5 -07.4812 26247.8
 16 04 2013  18 57  -20.9968 26024.1 -03417.7 -07.4817 26247.6
 16 04 2013  18 58  -20.9968 26023.8 -03417.9 -07.4822 26247.3
 16 04 2013  18 59  -20.9972 26023.7 -03418.2 -07.4829 26247.2
 16 04 2013  19 00  -20.9978 26023.7 -03418.5 -07.4836 26247.3
 16 04 2013  19 01  -20.9983 26023.6 -03418.7 -07.4841 26247.2
 16 04 2013  19 02  -20.9990 26023.5 -03419.0 -07.4847 26247.1
 16 04 2013  19 03  -20.9997 26023.4 -03419.2 -07.4852 26247.1
 16 04 2013  19 04  -20.9998 26023.3 -03419.4 -07.4856 26246.9
 16 04 2013  19 05  -21.0003 26023.2 -03419.6 -07.4861 26246.9
 16 04 2013  19 06  -21.0039 26022.8 -03419.6 -07.4862 26246.5
 16 04 2013  19 07  -21.0053 26022.3 -03419.6 -07.4864 26246.0
 16 04 2013  19 08  -21.0054 26022.2 -03419.7 -07.4867 26245.9
 16 04 2013  19 09  -21.0055 26022.1 -03420.0 -07.4872 26245.9
 16 04 2013  19 10  -21.0057 26022.1 -03420.2 -07.4877 26245.9
 16 04 2013  19 11  -21.0063 26021.9 -03420.4 -07.4882 26245.7
 16 04 2013  19 12  -21.0064 26021.6 -03420.5 -07.4885 26245.4
 16 04 2013  19 13  -21.0069 26021.6 -03420.7 -07.4890 26245.5
 16 04 2013  19 14  -21.0074 26021.6 -03421.0 -07.4896 26245.5
 16 04 2013  19 15  -21.0077 26021.5 -03421.1 -07.4899 26245.4
 16 04 2013  19 16  -21.0080 26021.4 -03421.3 -07.4903 26245.3
 16 04 2013  19 17  -21.0085 26021.4 -03421.5 -07.4906 26245.4
 16 04 2013  19 18  -21.0085 26021.1 -03421.5 -07.4908 26245.0
 16 04 2013  19 19  -21.0087 26020.8 -03421.6 -07.4911 26244.8
 16 04 2013  19 20  -21.0090 26020.7 -03421.8 -07.4916 26244.7
 16 04 2013  19 21  -21.0094 26020.6 -03422.0 -07.4921 26244.7
 16 04 2013  19 22  -21.0099 26020.6 -03422.2 -07.4925 26244.7
 16 04 2013  19 23  -21.0093 26020.8 -03422.6 -07.4932 26244.9
 16 04 2013  19 24  -21.0069 26021.2 -03422.9 -07.4938 26245.4
 16 04 2013  19 25  -21.0073 26021.1 -03423.0 -07.4940 26245.3
 16 04 2013  19 26  -21.0079 26021.2 -03423.1 -07.4943 26245.4
 16 04 2013  19 27  -21.0084 26021.5 -03423.4 -07.4948 26245.7
 16 04 2013  19 28  -21.0089 26021.5 -03423.6 -07.4952 26245.8
 16 04 2013  19 29  -21.0093 26021.6 -03423.7 -07.4954 26245.9
 16 04 2013  19 30  -21.0098 26021.7 -03423.8 -07.4956 26246.0
 16 04 2013  19 31  -21.0103 26021.9 -03424.0 -07.4960 26246.2
 16 04 2013  19 32  -21.0108 26022.2 -03424.2 -07.4963 26246.5
 16 04 2013  19 33  -21.0115 26022.4 -03424.4 -07.4968 26246.8
 16 04 2013  19 34  -21.0118 26022.3 -03424.5 -07.4969 26246.7
 16 04 2013  19 35  -21.0119 26022.0 -03424.4 -07.4968 26246.4
 16 04 2013  19 36  -21.0123 26022.0 -03424.5 -07.4970 26246.4
 16 04 2013  19 37  -21.0125 26021.9 -03424.5 -07.4970 26246.2
 16 04 2013  19 38  -21.0124 26021.6 -03424.5 -07.4971 26246.0
 16 04 2013  19 39  -21.0123 26021.5 -03424.5 -07.4973 26245.9
 16 04 2013  19 40  -21.0124 26021.5 -03424.7 -07.4977 26245.9
 16 04 2013  19 41  -21.0124 26021.5 -03424.9 -07.4980 26245.9
 16 04 2013  19 42  -21.0124 26021.3 -03425.0 -07.4983 26245.7
 16 04 2013  19 43  -21.0125 26021.2 -03425.1 -07.4987 26245.7
 16 04 2013  19 44  -21.0127 26021.3 -03425.4 -07.4991 26245.8
 16 04 2013  19 45  -21.0128 26021.3 -03425.6 -07.4995 26245.9
 16 04 2013  19 46  -21.0130 26021.4 -03425.7 -07.4998 26245.9
 16 04 2013  19 47  -21.0134 26021.5 -03425.8 -07.5001 26246.1
 16 04 2013  19 48  -21.0136 26021.7 -03426.0 -07.5004 26246.2
 16 04 2013  19 49  -21.0138 26021.6 -03426.1 -07.5006 26246.2
 16 04 2013  19 50  -21.0140 26021.6 -03426.2 -07.5009 26246.2
 16 04 2013  19 51  -21.0145 26021.9 -03426.4 -07.5013 26246.5
 16 04 2013  19 52  -21.0148 26022.0 -03426.6 -07.5015 26246.7
 16 04 2013  19 53  -21.0149 26022.1 -03426.7 -07.5017 26246.7
 16 04 2013  19 54  -21.0148 26022.0 -03426.6 -07.5016 26246.7
 16 04 2013  19 55  -21.0150 26021.9 -03426.6 -07.5017 26246.6
 16 04 2013  19 56  -21.0150 26021.8 -03426.7 -07.5018 26246.4
 16 04 2013  19 57  -21.0150 26021.8 -03426.8 -07.5020 26246.5
 16 04 2013  19 58  -21.0153 26022.0 -03426.9 -07.5023 26246.6
 16 04 2013  19 59  -21.0154 26022.2 -03427.1 -07.5027 26246.9
 16 04 2013  20 00  -21.0156 26022.4 -03427.3 -07.5029 26247.1
 16 04 2013  20 01  -21.0158 26022.5 -03427.3 -07.5030 26247.2
 16 04 2013  20 02  -21.0162 26022.6 -03427.4 -07.5031 26247.3
 16 04 2013  20 03  -21.0163 26022.7 -03427.4 -07.5031 26247.4
 16 04 2013  20 04  -21.0164 26022.7 -03427.4 -07.5031 26247.5
 16 04 2013  20 05  -21.0164 26022.8 -03427.4 -07.5031 26247.5
 16 04 2013  20 06  -21.0164 26022.7 -03427.4 -07.5031 26247.5
 16 04 2013  20 07  -21.0165 26022.8 -03427.4 -07.5032 26247.5
 16 04 2013  20 08  -21.0166 26022.8 -03427.5 -07.5033 26247.5
 16 04 2013  20 09  -21.0168 26022.8 -03427.5 -07.5034 26247.6
 16 04 2013  20 10  -21.0167 26022.9 -03427.5 -07.5034 26247.6
 16 04 2013  20 11  -21.0164 26022.8 -03427.5 -07.5034 26247.6
 16 04 2013  20 12  -21.0163 26022.8 -03427.5 -07.5034 26247.5
 16 04 2013  20 13  -21.0163 26022.7 -03427.6 -07.5035 26247.5
 16 04 2013  20 14  -21.0164 26022.7 -03427.7 -07.5037 26247.5
 16 04 2013  20 15  -21.0164 26022.8 -03427.8 -07.5039 26247.6
 16 04 2013  20 16  -21.0165 26023.0 -03427.9 -07.5040 26247.7
 16 04 2013  20 17  -21.0168 26023.0 -03427.9 -07.5041 26247.8
 16 04 2013  20 18  -21.0172 26023.0 -03428.0 -07.5042 26247.9
 16 04 2013  20 19  -21.0172 26023.1 -03428.0 -07.5043 26248.0
 16 04 2013  20 20  -21.0171 26023.1 -03427.9 -07.5041 26247.9
 16 04 2013  20 21  -21.0170 26023.1 -03428.0 -07.5042 26247.9
 16 04 2013  20 22  -21.0169 26023.2 -03428.0 -07.5044 26248.0
 16 04 2013  20 23  -21.0169 26023.1 -03428.1 -07.5044 26247.9
 16 04 2013  20 24  -21.0169 26023.3 -03428.1 -07.5046 26248.1
 16 04 2013  20 25  -21.0170 26023.5 -03428.3 -07.5048 26248.4
 16 04 2013  20 26  -21.0171 26023.9 -03428.5 -07.5051 26248.7
 16 04 2013  20 27  -21.0172 26024.1 -03428.6 -07.5053 26248.9
 16 04 2013  20 28  -21.0173 26024.1 -03428.6 -07.5053 26249.0
 16 04 2013  20 29  -21.0175 26024.2 -03428.6 -07.5052 26249.0
 16 04 2013  20 30  -21.0177 26024.2 -03428.6 -07.5052 26249.0
 16 04 2013  20 31  -21.0179 26024.2 -03428.5 -07.5051 26249.0
 16 04 2013  20 32  -21.0181 26024.3 -03428.5 -07.5051 26249.2
 16 04 2013  20 33  -21.0183 26024.5 -03428.7 -07.5054 26249.4
 16 04 2013  20 34  -21.0186 26024.6 -03428.7 -07.5054 26249.5
 16 04 2013  20 35  -21.0187 26024.6 -03428.7 -07.5053 26249.5
 16 04 2013  20 36  -21.0187 26024.6 -03428.7 -07.5053 26249.5
 16 04 2013  20 37  -21.0189 26024.7 -03428.7 -07.5053 26249.6
 16 04 2013  20 38  -21.0190 26024.8 -03428.7 -07.5053 26249.6
 16 04 2013  20 39  -21.0190 26024.8 -03428.7 -07.5053 26249.7
 16 04 2013  20 40  -21.0190 26024.7 -03428.7 -07.5053 26249.6
 16 04 2013  20 41  -21.0190 26024.8 -03428.8 -07.5054 26249.7
 16 04 2013  20 42  -21.0191 26025.1 -03428.9 -07.5056 26250.0
 16 04 2013  20 43  -21.0193 26025.2 -03429.0 -07.5058 26250.1
 16 04 2013  20 44  -21.0195 26025.3 -03429.0 -07.5059 26250.3
 16 04 2013  20 45  -21.0196 26025.5 -03429.1 -07.5060 26250.5
 16 04 2013  20 46  -21.0198 26025.8 -03429.2 -07.5061 26250.7
 16 04 2013  20 47  -21.0201 26026.0 -03429.2 -07.5062 26250.9
 16 04 2013  20 48  -21.0202 26026.2 -03429.3 -07.5062 26251.2
 16 04 2013  20 49  -21.0204 26026.3 -03429.3 -07.5062 26251.3
 16 04 2013  20 50  -21.0205 26026.4 -03429.3 -07.5062 26251.3
 16 04 2013  20 51  -21.0208 26026.5 -03429.2 -07.5060 26251.4
 16 04 2013  20 52  -21.0213 26026.6 -03429.2 -07.5059 26251.5
 16 04 2013  20 53  -21.0216 26026.7 -03429.2 -07.5059 26251.7
 16 04 2013  20 54  -21.0220 26026.8 -03429.3 -07.5060 26251.8
 16 04 2013  20 55  -21.0224 26027.0 -03429.4 -07.5062 26252.0
 16 04 2013  20 56  -21.0228 26027.0 -03429.4 -07.5062 26252.0
 16 04 2013  20 57  -21.0228 26027.4 -03429.5 -07.5064 26252.4
 16 04 2013  20 58  -21.0229 26027.9 -03429.7 -07.5066 26252.9
 16 04 2013  20 59  -21.0232 26027.9 -03429.8 -07.5067 26252.9
 16 04 2013  21 00  -21.0235 26027.6 -03429.6 -07.5064 26252.6
 16 04 2013  21 01  -21.0233 26027.8 -03429.5 -07.5062 26252.7
 16 04 2013  21 02  -21.0232 26027.8 -03429.4 -07.5060 26252.7
 16 04 2013  21 03  -21.0234 26027.6 -03429.3 -07.5057 26252.5
 16 04 2013  21 04  -21.0233 26027.7 -03429.2 -07.5056 26252.6
 16 04 2013  21 05  -21.0234 26027.7 -03429.2 -07.5056 26252.6
 16 04 2013  21 06  -21.0233 26027.7 -03429.1 -07.5055 26252.6
 16 04 2013  21 07  -21.0237 26027.8 -03429.2 -07.5055 26252.7
 16 04 2013  21 08  -21.0241 26027.9 -03429.2 -07.5056 26252.8
 16 04 2013  21 09  -21.0244 26028.1 -03429.3 -07.5057 26253.0
 16 04 2013  21 10  -21.0250 26028.2 -03429.3 -07.5057 26253.1
 16 04 2013  21 11  -21.0254 26028.5 -03429.4 -07.5059 26253.5
 16 04 2013  21 12  -21.0260 26028.8 -03429.5 -07.5060 26253.7
 16 04 2013  21 13  -21.0265 26029.0 -03429.6 -07.5062 26254.0
 16 04 2013  21 14  -21.0268 26029.0 -03429.6 -07.5060 26254.0
 16 04 2013  21 15  -21.0269 26029.1 -03429.5 -07.5059 26254.0
 16 04 2013  21 16  -21.0272 26029.1 -03429.4 -07.5057 26254.0
 16 04 2013  21 17  -21.0274 26029.1 -03429.4 -07.5055 26254.1
 16 04 2013  21 18  -21.0276 26029.3 -03429.4 -07.5056 26254.2
 16 04 2013  21 19  -21.0281 26029.1 -03429.3 -07.5054 26254.1
 16 04 2013  21 20  -21.0285 26029.1 -03429.2 -07.5052 26254.0
 16 04 2013  21 21  -21.0290 26029.1 -03429.2 -07.5051 26254.0
 16 04 2013  21 22  -21.0295 26029.1 -03429.1 -07.5051 26254.0
 16 04 2013  21 23  -21.0297 26029.0 -03429.0 -07.5048 26253.9
 16 04 2013  21 24  -21.0301 26028.8 -03428.9 -07.5046 26253.7
 16 04 2013  21 25  -21.0303 26028.9 -03428.9 -07.5046 26253.8
 16 04 2013  21 26  -21.0305 26028.9 -03428.9 -07.5045 26253.7
 16 04 2013  21 27  -21.0307 26028.8 -03428.8 -07.5043 26253.6
 16 04 2013  21 28  -21.0311 26028.5 -03428.6 -07.5041 26253.4
 16 04 2013  21 29  -21.0316 26028.4 -03428.5 -07.5040 26253.2
 16 04 2013  21 30  -21.0319 26028.5 -03428.6 -07.5040 26253.4
 16 04 2013  21 31  -21.0323 26028.6 -03428.6 -07.5041 26253.4
 16 04 2013  21 32  -21.0329 26028.4 -03428.6 -07.5040 26253.3
 16 04 2013  21 33  -21.0337 26028.2 -03428.5 -07.5038 26253.0
 16 04 2013  21 34  -21.0343 26028.3 -03428.4 -07.5037 26253.1
 16 04 2013  21 35  -21.0347 26028.3 -03428.4 -07.5037 26253.1
 16 04 2013  21 36  -21.0352 26028.0 -03428.3 -07.5036 26252.8
 16 04 2013  21 37  -21.0357 26028.0 -03428.3 -07.5034 26252.8
 16 04 2013  21 38  -21.0362 26028.1 -03428.3 -07.5035 26252.9
 16 04 2013  21 39  -21.0366 26028.2 -03428.3 -07.5035 26253.0
 16 04 2013  21 40  -21.0368 26028.3 -03428.3 -07.5035 26253.1
 16 04 2013  21 41  -21.0368 26028.3 -03428.3 -07.5034 26253.1
 16 04 2013  21 42  -21.0367 26028.2 -03428.1 -07.5032 26253.0
 16 04 2013  21 43  -21.0367 26028.0 -03428.1 -07.5031 26252.8
 16 04 2013  21 44  -21.0368 26027.9 -03428.0 -07.5029 26252.7
 16 04 2013  21 45  -21.0367 26027.9 -03428.0 -07.5028 26252.6
 16 04 2013  21 46  -21.0368 26027.9 -03427.9 -07.5028 26252.6
 16 04 2013  21 47  -21.0367 26027.9 -03428.0 -07.5028 26252.7
 16 04 2013  21 48  -21.0366 26027.9 -03427.9 -07.5027 26252.6
 16 04 2013  21 49  -21.0366 26027.9 -03427.9 -07.5028 26252.6
 16 04 2013  21 50  -21.0366 26027.9 -03427.9 -07.5028 26252.7
 16 04 2013  21 51  -21.0366 26027.8 -03427.9 -07.5027 26252.6
 16 04 2013  21 52  -21.0366 26027.8 -03427.9 -07.5026 26252.5
 16 04 2013  21 53  -21.0364 26027.8 -03427.8 -07.5026 26252.5
 16 04 2013  21 54  -21.0363 26027.7 -03427.8 -07.5026 26252.5
 16 04 2013  21 55  -21.0364 26027.8 -03427.8 -07.5026 26252.5
 16 04 2013  21 56  -21.0365 26027.8 -03427.9 -07.5027 26252.5
 16 04 2013  21 57  -21.0365 26027.8 -03427.9 -07.5027 26252.5
 16 04 2013  21 58  -21.0366 26027.8 -03427.9 -07.5027 26252.6
 16 04 2013  21 59  -21.0367 26027.9 -03427.9 -07.5028 26252.7
 16 04 2013  22 00  -21.0367 26027.8 -03427.9 -07.5027 26252.5
 16 04 2013  22 01  -21.0365 26027.7 -03427.8 -07.5026 26252.5
 16 04 2013  22 02  -21.0365 26027.7 -03427.8 -07.5026 26252.5
 16 04 2013  22 03  -21.0365 26027.7 -03427.8 -07.5026 26252.5
 16 04 2013  22 04  -21.0365 26027.6 -03427.8 -07.5026 26252.4
 16 04 2013  22 05  -21.0366 26027.6 -03427.8 -07.5026 26252.3
 16 04 2013  22 06  -21.0368 26027.4 -03427.8 -07.5026 26252.2
 16 04 2013  22 07  -21.0370 26027.3 -03427.7 -07.5025 26252.0
 16 04 2013  22 08  -21.0372 26027.3 -03427.7 -07.5025 26252.0
 16 04 2013  22 09  -21.0373 26027.2 -03427.7 -07.5025 26252.0
 16 04 2013  22 10  -21.0376 26027.1 -03427.7 -07.5025 26251.9
 16 04 2013  22 11  -21.0378 26027.2 -03427.7 -07.5025 26251.9
 16 04 2013  22 12  -21.0381 26027.2 -03427.7 -07.5026 26251.9
 16 04 2013  22 13  -21.0380 26027.2 -03427.8 -07.5026 26252.0
 16 04 2013  22 14  -21.0380 26027.2 -03427.7 -07.5026 26251.9
 16 04 2013  22 15  -21.0378 26027.2 -03427.7 -07.5025 26251.9
 16 04 2013  22 16  -21.0377 26027.1 -03427.7 -07.5025 26251.9
 16 04 2013  22 17  -21.0377 26027.1 -03427.7 -07.5025 26251.8
 16 04 2013  22 18  -21.0378 26027.0 -03427.7 -07.5025 26251.7
 16 04 2013  22 19  -21.0378 26026.9 -03427.6 -07.5024 26251.6
 16 04 2013  22 20  -21.0381 26026.8 -03427.6 -07.5024 26251.5
 16 04 2013  22 21  -21.0384 26026.7 -03427.6 -07.5024 26251.5
 16 04 2013  22 22  -21.0389 26026.7 -03427.6 -07.5025 26251.4
 16 04 2013  22 23  -21.0391 26026.6 -03427.6 -07.5025 26251.4
 16 04 2013  22 24  -21.0392 26026.6 -03427.6 -07.5025 26251.3
 16 04 2013  22 25  -21.0392 26026.7 -03427.6 -07.5025 26251.4
 16 04 2013  22 26  -21.0393 26026.5 -03427.6 -07.5024 26251.3
 16 04 2013  22 27  -21.0394 26026.4 -03427.5 -07.5024 26251.1
 16 04 2013  22 28  -21.0394 26026.3 -03427.5 -07.5024 26251.1
 16 04 2013  22 29  -21.0393 26026.2 -03427.5 -07.5023 26251.0
 16 04 2013  22 30  -21.0393 26026.1 -03427.4 -07.5023 26250.8
 16 04 2013  22 31  -21.0394 26025.9 -03427.4 -07.5022 26250.6
 16 04 2013  22 32  -21.0394 26025.6 -03427.3 -07.5021 26250.4
 16 04 2013  22 33  -21.0393 26025.6 -03427.3 -07.5021 26250.3
 16 04 2013  22 34  -21.0392 26025.7 -03427.4 -07.5022 26250.4
 16 04 2013  22 35  -21.0395 26025.5 -03427.4 -07.5023 26250.3
 16 04 2013  22 36  -21.0398 26025.3 -03427.3 -07.5022 26250.0
 16 04 2013  22 37  -21.0399 26025.2 -03427.3 -07.5021 26249.9
 16 04 2013  22 38  -21.0399 26025.2 -03427.3 -07.5022 26249.9
 16 04 2013  22 39  -21.0399 26025.3 -03427.4 -07.5023 26250.0
 16 04 2013  22 40  -21.0399 26025.4 -03427.4 -07.5024 26250.1
 16 04 2013  22 41  -21.0398 26025.4 -03427.5 -07.5025 26250.2
 16 04 2013  22 42  -21.0398 26025.6 -03427.6 -07.5027 26250.3
 16 04 2013  22 43  -21.0399 26025.6 -03427.7 -07.5029 26250.4
 16 04 2013  22 44  -21.0398 26025.8 -03427.7 -07.5030 26250.5
 16 04 2013  22 45  -21.0399 26025.9 -03427.8 -07.5032 26250.7
 16 04 2013  22 46  -21.0401 26025.9 -03427.9 -07.5033 26250.7
 16 04 2013  22 47  -21.0403 26026.0 -03428.0 -07.5034 26250.8
 16 04 2013  22 48  -21.0405 26026.0 -03428.0 -07.5034 26250.8
 16 04 2013  22 49  -21.0406 26026.1 -03428.0 -07.5035 26250.8
 16 04 2013  22 50  -21.0407 26026.1 -03428.0 -07.5035 26250.9
 16 04 2013  22 51  -21.0407 26026.3 -03428.1 -07.5036 26251.1
 16 04 2013  22 52  -21.0409 26026.3 -03428.1 -07.5036 26251.1
 16 04 2013  22 53  -21.0410 26026.3 -03428.1 -07.5037 26251.1
 16 04 2013  22 54  -21.0412 26026.2 -03428.1 -07.5037 26251.0
 16 04 2013  22 55  -21.0414 26026.3 -03428.1 -07.5037 26251.1
 16 04 2013  22 56  -21.0416 26026.3 -03428.2 -07.5037 26251.1
 16 04 2013  22 57  -21.0418 26026.3 -03428.2 -07.5038 26251.1
 16 04 2013  22 58  -21.0420 26026.2 -03428.1 -07.5037 26251.0
 16 04 2013  22 59  -21.0421 26026.1 -03428.1 -07.5037 26250.9
 16 04 2013  23 00  -21.0422 26026.0 -03428.1 -07.5036 26250.8
 16 04 2013  23 01  -21.0422 26026.0 -03428.0 -07.5035 26250.8
 16 04 2013  23 02  -21.0421 26026.0 -03428.0 -07.5035 26250.8
 16 04 2013  23 03  -21.0422 26026.0 -03428.1 -07.5036 26250.8
 16 04 2013  23 04  -21.0423 26026.1 -03428.1 -07.5037 26250.9
 16 04 2013  23 05  -21.0425 26026.1 -03428.1 -07.5038 26250.9
 16 04 2013  23 06  -21.0428 26026.1 -03428.2 -07.5038 26250.9
 16 04 2013  23 07  -21.0431 26026.0 -03428.2 -07.5038 26250.9
 16 04 2013  23 08  -21.0433 26026.0 -03428.2 -07.5039 26250.8
 16 04 2013  23 09  -21.0434 26025.9 -03428.1 -07.5038 26250.7
 16 04 2013  23 10  -21.0435 26025.9 -03428.1 -07.5037 26250.7
 16 04 2013  23 11  -21.0435 26025.9 -03428.1 -07.5037 26250.7
 16 04 2013  23 12  -21.0434 26026.0 -03428.2 -07.5038 26250.8
 16 04 2013  23 13  -21.0435 26026.0 -03428.2 -07.5039 26250.8
 16 04 2013  23 14  -21.0435 26026.0 -03428.2 -07.5039 26250.8
 16 04 2013  23 15  -21.0434 26026.1 -03428.2 -07.5040 26250.9
 16 04 2013  23 16  -21.0433 26026.1 -03428.3 -07.5040 26250.9
 16 04 2013  23 17  -21.0431 26026.2 -03428.3 -07.5041 26251.0
 16 04 2013  23 18  -21.0432 26026.3 -03428.4 -07.5042 26251.1
 16 04 2013  23 19  -21.0433 26026.4 -03428.5 -07.5044 26251.2
 16 04 2013  23 20  -21.0433 26026.5 -03428.5 -07.5045 26251.3
 16 04 2013  23 21  -21.0434 26026.6 -03428.6 -07.5046 26251.4
 16 04 2013  23 22  -21.0435 26026.8 -03428.7 -07.5047 26251.6
 16 04 2013  23 23  -21.0436 26026.9 -03428.8 -07.5049 26251.7
 16 04 2013  23 24  -21.0436 26027.1 -03428.8 -07.5050 26252.0
 16 04 2013  23 25  -21.0435 26027.2 -03428.9 -07.5051 26252.1
 16 04 2013  23 26  -21.0435 26027.3 -03428.9 -07.5051 26252.2
 16 04 2013  23 27  -21.0434 26027.3 -03429.0 -07.5052 26252.2
 16 04 2013  23 28  -21.0434 26027.4 -03429.0 -07.5052 26252.3
 16 04 2013  23 29  -21.0434 26027.3 -03429.0 -07.5052 26252.2
 16 04 2013  23 30  -21.0432 26027.3 -03428.9 -07.5051 26252.2
 16 04 2013  23 31  -21.0431 26027.3 -03428.9 -07.5050 26252.2
 16 04 2013  23 32  -21.0431 26027.3 -03428.9 -07.5051 26252.2
 16 04 2013  23 33  -21.0432 26027.3 -03428.9 -07.5051 26252.2
 16 04 2013  23 34  -21.0432 26027.3 -03428.9 -07.5051 26252.2
 16 04 2013  23 35  -21.0431 26027.3 -03429.0 -07.5052 26252.2
 16 04 2013  23 36  -21.0430 26027.4 -03429.0 -07.5052 26252.3
 16 04 2013  23 37  -21.0429 26027.5 -03429.0 -07.5053 26252.4
 16 04 2013  23 38  -21.0430 26027.5 -03429.1 -07.5053 26252.4
 16 04 2013  23 39  -21.0431 26027.5 -03429.1 -07.5054 26252.4
 16 04 2013  23 40  -21.0433 26027.5 -03429.1 -07.5055 26252.5
 16 04 2013  23 41  -21.0433 26027.6 -03429.2 -07.5055 26252.5
 16 04 2013  23 42  -21.0433 26027.7 -03429.2 -07.5056 26252.6
 16 04 2013  23 43  -21.0433 26027.9 -03429.3 -07.5058 26252.9
 16 04 2013  23 44  -21.0433 26028.0 -03429.4 -07.5059 26253.0
 16 04 2013  23 45  -21.0433 26028.0 -03429.4 -07.5059 26253.0
 16 04 2013  23 46  -21.0432 26028.0 -03429.4 -07.5059 26252.9
 16 04 2013  23 47  -21.0431 26028.0 -03429.3 -07.5058 26252.9
 16 04 2013  23 48  -21.0430 26028.0 -03429.4 -07.5058 26253.0
 16 04 2013  23 49  -21.0430 26027.8 -03429.3 -07.5058 26252.8
 16 04 2013  23 50  -21.0430 26027.9 -03429.3 -07.5058 26252.8
 16 04 2013  23 51  -21.0429 26028.0 -03429.4 -07.5059 26253.0
 16 04 2013  23 52  -21.0428 26028.0 -03429.4 -07.5059 26252.9
 16 04 2013  23 53  -21.0428 26027.9 -03429.3 -07.5058 26252.9
 16 04 2013  23 54  -21.0427 26027.9 -03429.3 -07.5058 26252.8
 16 04 2013  23 55  -21.0427 26027.8 -03429.3 -07.5058 26252.8
 16 04 2013  23 56  -21.0426 26027.8 -03429.4 -07.5059 26252.8
 16 04 2013  23 57  -21.0427 26027.8 -03429.3 -07.5059 26252.7
 16 04 2013  23 58  -21.0426 26027.7 -03429.3 -07.5058 26252.6
