SAO LUIS EMBRACE-03 <258> 1 Min. Reported data

 DD MM YYYY  HH MM   D(Deg)  H(nT)   Z(nT)   I(Deg)   F(nT)

 15 09 2013  00 00  -21.0158 26030.2 -03485.2 -07.6261 26262.4
 15 09 2013  00 01  -21.0158 26030.4 -03485.3 -07.6262 26262.7
 15 09 2013  00 02  -21.0159 26030.3 -03485.3 -07.6262 26262.5
 15 09 2013  00 03  -21.0159 26030.4 -03485.3 -07.6263 26262.7
 15 09 2013  00 04  -21.0159 26030.3 -03485.4 -07.6263 26262.6
 15 09 2013  00 05  -21.0159 26030.3 -03485.4 -07.6263 26262.6
 15 09 2013  00 06  -21.0158 26030.3 -03485.3 -07.6262 26262.6
 15 09 2013  00 07  -21.0158 26030.2 -03485.3 -07.6262 26262.5
 15 09 2013  00 08  -21.0160 26030.1 -03485.3 -07.6263 26262.4
 15 09 2013  00 09  -21.0159 26030.2 -03485.3 -07.6263 26262.5
 15 09 2013  00 10  -21.0159 26030.2 -03485.4 -07.6264 26262.5
 15 09 2013  00 11  -21.0158 26030.2 -03485.4 -07.6264 26262.5
 15 09 2013  00 12  -21.0158 26030.2 -03485.4 -07.6264 26262.5
 15 09 2013  00 13  -21.0159 26030.0 -03485.3 -07.6263 26262.3
 15 09 2013  00 14  -21.0158 26030.4 -03485.5 -07.6266 26262.7
 15 09 2013  00 15  -21.0157 26030.3 -03485.5 -07.6266 26262.6
 15 09 2013  00 16  -21.0157 26030.3 -03485.5 -07.6266 26262.6
 15 09 2013  00 17  -21.0157 26030.4 -03485.6 -07.6267 26262.7
 15 09 2013  00 18  -21.0158 26030.3 -03485.6 -07.6268 26262.7
 15 09 2013  00 19  -21.0157 26030.4 -03485.6 -07.6268 26262.7
 15 09 2013  00 20  -21.0156 26030.3 -03485.5 -07.6267 26262.6
 15 09 2013  00 21  -21.0155 26030.2 -03485.5 -07.6267 26262.6
 15 09 2013  00 22  -21.0154 26030.2 -03485.5 -07.6266 26262.6
 15 09 2013  00 23  -21.0154 26030.0 -03485.5 -07.6266 26262.4
 15 09 2013  00 24  -21.0154 26030.1 -03485.5 -07.6267 26262.4
 15 09 2013  00 25  -21.0153 26030.1 -03485.5 -07.6267 26262.4
 15 09 2013  00 26  -21.0153 26029.9 -03485.4 -07.6266 26262.2
 15 09 2013  00 27  -21.0153 26029.9 -03485.4 -07.6266 26262.2
 15 09 2013  00 28  -21.0153 26029.8 -03485.4 -07.6266 26262.1
 15 09 2013  00 29  -21.0155 26029.7 -03485.4 -07.6265 26262.0
 15 09 2013  00 30  -21.0155 26029.7 -03485.4 -07.6265 26262.0
 15 09 2013  00 31  -21.0155 26029.6 -03485.4 -07.6266 26262.0
 15 09 2013  00 32  -21.0153 26030.1 -03485.6 -07.6268 26262.4
 15 09 2013  00 33  -21.0156 26029.5 -03485.4 -07.6267 26261.8
 15 09 2013  00 34  -21.0155 26030.0 -03485.6 -07.6268 26262.3
 15 09 2013  00 35  -21.0155 26030.0 -03485.7 -07.6272 26262.3
 15 09 2013  00 36  -21.0158 26029.8 -03485.6 -07.6269 26262.2
 15 09 2013  00 37  -21.0158 26030.6 -03485.9 -07.6275 26262.9
 15 09 2013  00 38  -21.0156 26031.0 -03486.1 -07.6278 26263.4
 15 09 2013  00 39  -21.0157 26031.2 -03486.3 -07.6282 26263.6
 15 09 2013  00 40  -21.0155 26031.9 -03486.5 -07.6284 26264.3
 15 09 2013  00 41  -21.0156 26031.6 -03486.5 -07.6284 26264.0
 15 09 2013  00 42  -21.0154 26031.7 -03486.5 -07.6283 26264.1
 15 09 2013  00 43  -21.0151 26031.8 -03486.4 -07.6282 26264.2
 15 09 2013  00 44  -21.0147 26032.5 -03486.8 -07.6287 26265.0
 15 09 2013  00 45  -21.0144 26033.0 -03487.0 -07.6290 26265.5
 15 09 2013  00 46  -21.0147 26032.9 -03487.0 -07.6290 26265.4
 15 09 2013  00 47  -21.0147 26033.1 -03487.0 -07.6291 26265.6
 15 09 2013  00 48  -21.0151 26032.2 -03486.6 -07.6285 26264.6
 15 09 2013  00 49  -21.0150 26031.9 -03486.3 -07.6279 26264.3
 15 09 2013  00 50  -21.0151 26031.5 -03486.1 -07.6275 26263.8
 15 09 2013  00 51  -21.0151 26031.3 -03486.0 -07.6274 26263.7
 15 09 2013  00 52  -21.0150 26031.2 -03486.0 -07.6274 26263.6
 15 09 2013  00 53  -21.0152 26031.0 -03485.9 -07.6273 26263.3
 15 09 2013  00 54  -21.0152 26030.8 -03485.8 -07.6272 26263.2
 15 09 2013  00 55  -21.0153 26030.7 -03485.8 -07.6272 26263.1
 15 09 2013  00 56  -21.0153 26030.6 -03485.8 -07.6272 26263.0
 15 09 2013  00 57  -21.0153 26030.7 -03485.8 -07.6272 26263.0
 15 09 2013  00 58  -21.0153 26030.6 -03485.8 -07.6272 26262.9
 15 09 2013  00 59  -21.0153 26030.6 -03485.9 -07.6273 26262.9
 15 09 2013  01 00  -21.0152 26030.5 -03485.9 -07.6273 26262.9
 15 09 2013  01 01  -21.0150 26030.6 -03485.9 -07.6274 26262.9
 15 09 2013  01 02  -21.0145 26031.0 -03486.1 -07.6276 26263.3
 15 09 2013  01 03  -21.0142 26031.3 -03486.3 -07.6280 26263.7
 15 09 2013  01 04  -21.0139 26031.5 -03486.3 -07.6281 26263.9
 15 09 2013  01 05  -21.0135 26032.4 -03486.9 -07.6289 26264.9
 15 09 2013  01 06  -21.0136 26032.4 -03486.9 -07.6291 26264.9
 15 09 2013  01 07  -21.0136 26032.8 -03487.1 -07.6294 26265.3
 15 09 2013  01 08  -21.0134 26033.4 -03487.4 -07.6297 26265.9
 15 09 2013  01 09  -21.0135 26033.1 -03487.2 -07.6296 26265.7
 15 09 2013  01 10  -21.0133 26033.8 -03487.5 -07.6299 26266.4
 15 09 2013  01 11  -21.0135 26033.9 -03487.6 -07.6301 26266.5
 15 09 2013  01 12  -21.0135 26034.2 -03487.6 -07.6301 26266.8
 15 09 2013  01 13  -21.0133 26034.5 -03487.7 -07.6302 26267.1
 15 09 2013  01 14  -21.0133 26034.3 -03487.6 -07.6300 26266.8
 15 09 2013  01 15  -21.0130 26034.9 -03487.8 -07.6302 26267.5
 15 09 2013  01 16  -21.0131 26034.6 -03487.7 -07.6301 26267.2
 15 09 2013  01 17  -21.0130 26034.7 -03487.6 -07.6299 26267.2
 15 09 2013  01 18  -21.0131 26034.7 -03487.6 -07.6299 26267.2
 15 09 2013  01 19  -21.0132 26034.3 -03487.4 -07.6295 26266.8
 15 09 2013  01 20  -21.0133 26034.3 -03487.3 -07.6294 26266.8
 15 09 2013  01 21  -21.0134 26034.0 -03487.1 -07.6291 26266.5
 15 09 2013  01 22  -21.0134 26033.9 -03487.0 -07.6289 26266.4
 15 09 2013  01 23  -21.0136 26033.6 -03486.9 -07.6287 26266.0
 15 09 2013  01 24  -21.0136 26033.4 -03486.8 -07.6285 26265.9
 15 09 2013  01 25  -21.0136 26033.2 -03486.7 -07.6283 26265.6
 15 09 2013  01 26  -21.0135 26033.0 -03486.6 -07.6282 26265.5
 15 09 2013  01 27  -21.0135 26032.9 -03486.5 -07.6281 26265.3
 15 09 2013  01 28  -21.0135 26032.7 -03486.5 -07.6280 26265.1
 15 09 2013  01 29  -21.0136 26032.5 -03486.4 -07.6280 26264.9
 15 09 2013  01 30  -21.0138 26032.3 -03486.3 -07.6278 26264.7
 15 09 2013  01 31  -21.0140 26032.3 -03486.3 -07.6279 26264.7
 15 09 2013  01 32  -21.0141 26032.3 -03486.4 -07.6279 26264.7
 15 09 2013  01 33  -21.0143 26032.2 -03486.4 -07.6279 26264.6
 15 09 2013  01 34  -21.0144 26032.0 -03486.3 -07.6279 26264.5
 15 09 2013  01 35  -21.0144 26032.0 -03486.3 -07.6278 26264.4
 15 09 2013  01 36  -21.0144 26031.9 -03486.2 -07.6277 26264.3
 15 09 2013  01 37  -21.0144 26032.0 -03486.3 -07.6278 26264.4
 15 09 2013  01 38  -21.0144 26032.0 -03486.3 -07.6278 26264.4
 15 09 2013  01 39  -21.0141 26032.1 -03486.4 -07.6279 26264.5
 15 09 2013  01 40  -21.0140 26031.9 -03486.3 -07.6278 26264.3
 15 09 2013  01 41  -21.0140 26032.1 -03486.4 -07.6281 26264.6
 15 09 2013  01 42  -21.0142 26032.0 -03486.4 -07.6281 26264.4
 15 09 2013  01 43  -21.0141 26032.1 -03486.4 -07.6281 26264.6
 15 09 2013  01 44  -21.0143 26032.0 -03486.4 -07.6280 26264.4
 15 09 2013  01 45  -21.0141 26032.3 -03486.5 -07.6283 26264.7
 15 09 2013  01 46  -21.0142 26032.0 -03486.5 -07.6282 26264.5
 15 09 2013  01 47  -21.0140 26032.3 -03486.6 -07.6283 26264.8
 15 09 2013  01 48  -21.0140 26032.1 -03486.5 -07.6282 26264.6
 15 09 2013  01 49  -21.0138 26032.5 -03486.7 -07.6285 26265.0
 15 09 2013  01 50  -21.0138 26032.4 -03486.6 -07.6284 26264.8
 15 09 2013  01 51  -21.0135 26032.8 -03486.8 -07.6287 26265.3
 15 09 2013  01 52  -21.0135 26032.8 -03486.8 -07.6287 26265.2
 15 09 2013  01 53  -21.0134 26032.9 -03486.8 -07.6288 26265.4
 15 09 2013  01 54  -21.0133 26033.0 -03486.9 -07.6288 26265.5
 15 09 2013  01 55  -21.0130 26033.2 -03487.0 -07.6290 26265.7
 15 09 2013  01 56  -21.0130 26033.0 -03486.9 -07.6289 26265.5
 15 09 2013  01 57  -21.0129 26033.3 -03487.0 -07.6289 26265.8
 15 09 2013  01 58  -21.0129 26033.1 -03486.9 -07.6289 26265.6
 15 09 2013  01 59  -21.0127 26033.3 -03487.0 -07.6289 26265.7
 15 09 2013  02 00  -21.0127 26032.9 -03486.8 -07.6287 26265.4
 15 09 2013  02 01  -21.0125 26033.0 -03486.8 -07.6287 26265.5
 15 09 2013  02 02  -21.0124 26033.0 -03486.8 -07.6287 26265.5
 15 09 2013  02 03  -21.0123 26033.1 -03486.9 -07.6288 26265.5
 15 09 2013  02 04  -21.0125 26032.9 -03486.8 -07.6287 26265.4
 15 09 2013  02 05  -21.0127 26033.0 -03486.9 -07.6289 26265.5
 15 09 2013  02 06  -21.0129 26032.8 -03486.8 -07.6288 26265.2
 15 09 2013  02 07  -21.0130 26032.9 -03486.9 -07.6289 26265.4
 15 09 2013  02 08  -21.0132 26032.7 -03486.9 -07.6288 26265.2
 15 09 2013  02 09  -21.0134 26032.5 -03486.7 -07.6286 26265.0
 15 09 2013  02 10  -21.0135 26032.6 -03486.8 -07.6287 26265.0
 15 09 2013  02 11  -21.0136 26032.2 -03486.6 -07.6284 26264.7
 15 09 2013  02 12  -21.0137 26032.2 -03486.6 -07.6284 26264.7
 15 09 2013  02 13  -21.0139 26031.8 -03486.4 -07.6282 26264.3
 15 09 2013  02 14  -21.0140 26031.7 -03486.4 -07.6281 26264.1
 15 09 2013  02 15  -21.0141 26031.6 -03486.3 -07.6280 26264.0
 15 09 2013  02 16  -21.0141 26031.6 -03486.3 -07.6281 26264.1
 15 09 2013  02 17  -21.0141 26031.6 -03486.4 -07.6281 26264.0
 15 09 2013  02 18  -21.0141 26031.8 -03486.5 -07.6283 26264.2
 15 09 2013  02 19  -21.0140 26031.9 -03486.6 -07.6285 26264.3
 15 09 2013  02 20  -21.0139 26032.0 -03486.6 -07.6286 26264.4
 15 09 2013  02 21  -21.0138 26032.0 -03486.7 -07.6287 26264.5
 15 09 2013  02 22  -21.0136 26032.0 -03486.7 -07.6287 26264.5
 15 09 2013  02 23  -21.0134 26032.0 -03486.7 -07.6287 26264.5
 15 09 2013  02 24  -21.0132 26032.0 -03486.7 -07.6287 26264.5
 15 09 2013  02 25  -21.0132 26032.0 -03486.7 -07.6288 26264.5
 15 09 2013  02 26  -21.0133 26031.8 -03486.6 -07.6286 26264.2
 15 09 2013  02 27  -21.0136 26031.8 -03486.7 -07.6287 26264.3
 15 09 2013  02 28  -21.0136 26031.9 -03486.7 -07.6287 26264.3
 15 09 2013  02 29  -21.0140 26031.5 -03486.6 -07.6287 26264.0
 15 09 2013  02 30  -21.0141 26031.9 -03486.7 -07.6288 26264.4
 15 09 2013  02 31  -21.0144 26031.5 -03486.6 -07.6287 26264.0
 15 09 2013  02 32  -21.0146 26031.8 -03486.7 -07.6288 26264.2
 15 09 2013  02 33  -21.0148 26031.7 -03486.7 -07.6289 26264.2
 15 09 2013  02 34  -21.0148 26031.6 -03486.6 -07.6287 26264.0
 15 09 2013  02 35  -21.0146 26031.6 -03486.6 -07.6287 26264.1
 15 09 2013  02 36  -21.0146 26031.5 -03486.6 -07.6285 26264.0
 15 09 2013  02 37  -21.0144 26031.6 -03486.6 -07.6286 26264.1
 15 09 2013  02 38  -21.0146 26031.5 -03486.5 -07.6285 26263.9
 15 09 2013  02 39  -21.0145 26031.5 -03486.6 -07.6287 26264.0
 15 09 2013  02 40  -21.0146 26031.3 -03486.5 -07.6284 26263.7
 15 09 2013  02 41  -21.0146 26031.3 -03486.5 -07.6285 26263.7
 15 09 2013  02 42  -21.0146 26031.0 -03486.3 -07.6282 26263.4
 15 09 2013  02 43  -21.0146 26030.9 -03486.3 -07.6282 26263.4
 15 09 2013  02 44  -21.0145 26031.0 -03486.3 -07.6282 26263.4
 15 09 2013  02 45  -21.0145 26031.1 -03486.4 -07.6284 26263.5
 15 09 2013  02 46  -21.0145 26031.3 -03486.5 -07.6286 26263.7
 15 09 2013  02 47  -21.0144 26031.3 -03486.6 -07.6287 26263.7
 15 09 2013  02 48  -21.0143 26031.3 -03486.6 -07.6287 26263.7
 15 09 2013  02 49  -21.0143 26031.2 -03486.6 -07.6287 26263.7
 15 09 2013  02 50  -21.0143 26031.3 -03486.6 -07.6288 26263.8
 15 09 2013  02 51  -21.0144 26031.4 -03486.6 -07.6288 26263.8
 15 09 2013  02 52  -21.0146 26031.5 -03486.8 -07.6290 26264.0
 15 09 2013  02 53  -21.0149 26031.5 -03486.8 -07.6291 26264.0
 15 09 2013  02 54  -21.0150 26031.7 -03486.8 -07.6291 26264.1
 15 09 2013  02 55  -21.0151 26031.7 -03486.9 -07.6292 26264.2
 15 09 2013  02 56  -21.0150 26031.7 -03486.8 -07.6291 26264.2
 15 09 2013  02 57  -21.0149 26031.7 -03486.8 -07.6290 26264.1
 15 09 2013  02 58  -21.0148 26031.6 -03486.8 -07.6290 26264.1
 15 09 2013  02 59  -21.0147 26031.6 -03486.7 -07.6289 26264.0
 15 09 2013  03 00  -21.0146 26031.6 -03486.7 -07.6289 26264.1
 15 09 2013  03 01  -21.0146 26031.4 -03486.7 -07.6289 26263.9
 15 09 2013  03 02  -21.0144 26031.2 -03486.6 -07.6287 26263.7
 15 09 2013  03 03  -21.0144 26031.1 -03486.5 -07.6286 26263.6
 15 09 2013  03 04  -21.0142 26031.1 -03486.5 -07.6286 26263.6
 15 09 2013  03 05  -21.0141 26031.1 -03486.6 -07.6287 26263.6
 15 09 2013  03 06  -21.0139 26031.3 -03486.7 -07.6289 26263.8
 15 09 2013  03 07  -21.0136 26031.5 -03486.8 -07.6291 26264.0
 15 09 2013  03 08  -21.0135 26031.6 -03486.9 -07.6293 26264.1
 15 09 2013  03 09  -21.0134 26031.8 -03487.0 -07.6294 26264.3
 15 09 2013  03 10  -21.0132 26031.9 -03487.1 -07.6295 26264.4
 15 09 2013  03 11  -21.0131 26032.1 -03487.2 -07.6297 26264.6
 15 09 2013  03 12  -21.0130 26032.2 -03487.2 -07.6298 26264.7
 15 09 2013  03 13  -21.0130 26032.2 -03487.3 -07.6299 26264.8
 15 09 2013  03 14  -21.0129 26032.3 -03487.3 -07.6299 26264.8
 15 09 2013  03 15  -21.0129 26032.3 -03487.3 -07.6299 26264.8
 15 09 2013  03 16  -21.0131 26032.3 -03487.3 -07.6299 26264.8
 15 09 2013  03 17  -21.0132 26032.2 -03487.2 -07.6298 26264.7
 15 09 2013  03 18  -21.0132 26032.1 -03487.1 -07.6296 26264.6
 15 09 2013  03 19  -21.0132 26032.1 -03487.1 -07.6296 26264.6
 15 09 2013  03 20  -21.0133 26032.1 -03487.1 -07.6296 26264.6
 15 09 2013  03 21  -21.0133 26032.1 -03487.1 -07.6295 26264.6
 15 09 2013  03 22  -21.0132 26032.0 -03487.1 -07.6295 26264.5
 15 09 2013  03 23  -21.0131 26032.0 -03487.1 -07.6295 26264.5
 15 09 2013  03 24  -21.0130 26032.1 -03487.1 -07.6296 26264.6
 15 09 2013  03 25  -21.0130 26032.1 -03487.1 -07.6296 26264.6
 15 09 2013  03 26  -21.0130 26032.1 -03487.1 -07.6295 26264.6
 15 09 2013  03 27  -21.0130 26031.9 -03487.0 -07.6294 26264.5
 15 09 2013  03 28  -21.0132 26031.8 -03487.0 -07.6293 26264.3
 15 09 2013  03 29  -21.0133 26031.8 -03486.9 -07.6293 26264.3
 15 09 2013  03 30  -21.0132 26031.7 -03486.9 -07.6292 26264.2
 15 09 2013  03 31  -21.0132 26031.7 -03486.9 -07.6292 26264.1
 15 09 2013  03 32  -21.0133 26031.7 -03486.9 -07.6293 26264.2
 15 09 2013  03 33  -21.0133 26031.6 -03486.9 -07.6292 26264.1
 15 09 2013  03 34  -21.0133 26031.7 -03486.9 -07.6293 26264.2
 15 09 2013  03 35  -21.0135 26031.7 -03487.0 -07.6294 26264.2
 15 09 2013  03 36  -21.0135 26031.8 -03487.0 -07.6295 26264.3
 15 09 2013  03 37  -21.0134 26031.9 -03487.1 -07.6295 26264.4
 15 09 2013  03 38  -21.0132 26031.9 -03487.1 -07.6297 26264.5
 15 09 2013  03 39  -21.0131 26032.2 -03487.2 -07.6297 26264.7
 15 09 2013  03 40  -21.0132 26032.3 -03487.3 -07.6298 26264.8
 15 09 2013  03 41  -21.0132 26032.4 -03487.3 -07.6299 26265.0
 15 09 2013  03 42  -21.0132 26032.4 -03487.3 -07.6299 26264.9
 15 09 2013  03 43  -21.0132 26032.4 -03487.3 -07.6300 26265.0
 15 09 2013  03 44  -21.0131 26032.3 -03487.3 -07.6299 26264.9
 15 09 2013  03 45  -21.0132 26032.1 -03487.2 -07.6298 26264.6
 15 09 2013  03 46  -21.0132 26032.0 -03487.2 -07.6297 26264.6
 15 09 2013  03 47  -21.0133 26032.0 -03487.2 -07.6298 26264.5
 15 09 2013  03 48  -21.0134 26031.9 -03487.2 -07.6297 26264.4
 15 09 2013  03 49  -21.0135 26031.7 -03487.1 -07.6297 26264.2
 15 09 2013  03 50  -21.0136 26031.6 -03487.0 -07.6296 26264.1
 15 09 2013  03 51  -21.0136 26031.5 -03487.0 -07.6295 26264.0
 15 09 2013  03 52  -21.0135 26031.5 -03487.0 -07.6296 26264.0
 15 09 2013  03 53  -21.0134 26031.5 -03487.0 -07.6296 26264.0
 15 09 2013  03 54  -21.0134 26031.4 -03487.1 -07.6297 26264.0
 15 09 2013  03 55  -21.0133 26031.4 -03487.1 -07.6297 26263.9
 15 09 2013  03 56  -21.0133 26031.4 -03487.1 -07.6298 26264.0
 15 09 2013  03 57  -21.0133 26031.4 -03487.1 -07.6298 26264.0
 15 09 2013  03 58  -21.0134 26031.5 -03487.2 -07.6299 26264.0
 15 09 2013  03 59  -21.0134 26031.4 -03487.2 -07.6299 26264.0
 15 09 2013  04 00  -21.0134 26031.4 -03487.2 -07.6299 26264.0
 15 09 2013  04 01  -21.0134 26031.5 -03487.2 -07.6299 26264.0
 15 09 2013  04 02  -21.0134 26031.6 -03487.3 -07.6301 26264.1
 15 09 2013  04 03  -21.0134 26031.6 -03487.4 -07.6302 26264.2
 15 09 2013  04 04  -21.0135 26031.8 -03487.4 -07.6303 26264.3
 15 09 2013  04 05  -21.0134 26031.8 -03487.4 -07.6303 26264.4
 15 09 2013  04 06  -21.0134 26031.9 -03487.5 -07.6304 26264.5
 15 09 2013  04 07  -21.0134 26032.0 -03487.5 -07.6305 26264.6
 15 09 2013  04 08  -21.0134 26032.0 -03487.5 -07.6305 26264.6
 15 09 2013  04 09  -21.0134 26031.9 -03487.5 -07.6305 26264.5
 15 09 2013  04 10  -21.0134 26031.8 -03487.4 -07.6304 26264.4
 15 09 2013  04 11  -21.0135 26031.7 -03487.4 -07.6303 26264.3
 15 09 2013  04 12  -21.0136 26031.6 -03487.3 -07.6302 26264.1
 15 09 2013  04 13  -21.0137 26031.4 -03487.3 -07.6301 26264.0
 15 09 2013  04 14  -21.0137 26031.3 -03487.2 -07.6299 26263.9
 15 09 2013  04 15  -21.0135 26031.5 -03487.2 -07.6300 26264.0
 15 09 2013  04 16  -21.0134 26031.5 -03487.3 -07.6301 26264.0
 15 09 2013  04 17  -21.0135 26031.5 -03487.3 -07.6302 26264.1
 15 09 2013  04 18  -21.0133 26031.5 -03487.3 -07.6301 26264.0
 15 09 2013  04 19  -21.0131 26031.5 -03487.3 -07.6302 26264.0
 15 09 2013  04 20  -21.0131 26031.4 -03487.3 -07.6302 26264.0
 15 09 2013  04 21  -21.0130 26031.4 -03487.3 -07.6302 26263.9
 15 09 2013  04 22  -21.0129 26031.2 -03487.2 -07.6301 26263.8
 15 09 2013  04 23  -21.0129 26031.2 -03487.2 -07.6301 26263.7
 15 09 2013  04 24  -21.0128 26031.1 -03487.2 -07.6301 26263.7
 15 09 2013  04 25  -21.0126 26031.1 -03487.2 -07.6300 26263.6
 15 09 2013  04 26  -21.0124 26031.1 -03487.2 -07.6301 26263.6
 15 09 2013  04 27  -21.0123 26031.0 -03487.3 -07.6302 26263.6
 15 09 2013  04 28  -21.0121 26031.0 -03487.2 -07.6302 26263.5
 15 09 2013  04 29  -21.0120 26030.9 -03487.2 -07.6302 26263.4
 15 09 2013  04 30  -21.0117 26030.9 -03487.2 -07.6302 26263.4
 15 09 2013  04 31  -21.0115 26030.8 -03487.2 -07.6302 26263.4
 15 09 2013  04 32  -21.0113 26030.8 -03487.2 -07.6302 26263.4
 15 09 2013  04 33  -21.0111 26030.8 -03487.3 -07.6303 26263.3
 15 09 2013  04 34  -21.0110 26030.7 -03487.3 -07.6303 26263.3
 15 09 2013  04 35  -21.0109 26030.7 -03487.3 -07.6304 26263.3
 15 09 2013  04 36  -21.0109 26030.8 -03487.4 -07.6305 26263.3
 15 09 2013  04 37  -21.0108 26030.8 -03487.4 -07.6306 26263.3
 15 09 2013  04 38  -21.0107 26030.8 -03487.4 -07.6307 26263.3
 15 09 2013  04 39  -21.0107 26030.8 -03487.5 -07.6308 26263.4
 15 09 2013  04 40  -21.0108 26030.9 -03487.6 -07.6309 26263.5
 15 09 2013  04 41  -21.0108 26031.0 -03487.6 -07.6310 26263.6
 15 09 2013  04 42  -21.0108 26031.0 -03487.7 -07.6311 26263.7
 15 09 2013  04 43  -21.0109 26031.1 -03487.7 -07.6311 26263.7
 15 09 2013  04 44  -21.0110 26031.1 -03487.7 -07.6312 26263.7
 15 09 2013  04 45  -21.0111 26031.2 -03487.8 -07.6313 26263.8
 15 09 2013  04 46  -21.0111 26031.2 -03487.8 -07.6313 26263.8
 15 09 2013  04 47  -21.0112 26031.1 -03487.7 -07.6312 26263.8
 15 09 2013  04 48  -21.0113 26031.1 -03487.7 -07.6312 26263.7
 15 09 2013  04 49  -21.0112 26031.1 -03487.7 -07.6311 26263.7
 15 09 2013  04 50  -21.0111 26031.1 -03487.7 -07.6311 26263.7
 15 09 2013  04 51  -21.0111 26031.2 -03487.8 -07.6312 26263.8
 15 09 2013  04 52  -21.0110 26031.3 -03487.8 -07.6313 26263.9
 15 09 2013  04 53  -21.0109 26031.4 -03487.8 -07.6314 26264.0
 15 09 2013  04 54  -21.0108 26031.4 -03487.8 -07.6314 26264.0
 15 09 2013  04 55  -21.0107 26031.4 -03487.8 -07.6313 26264.0
 15 09 2013  04 56  -21.0107 26031.3 -03487.8 -07.6313 26263.9
 15 09 2013  04 57  -21.0106 26031.3 -03487.8 -07.6313 26264.0
 15 09 2013  04 58  -21.0106 26031.3 -03487.8 -07.6313 26263.9
 15 09 2013  04 59  -21.0104 26031.3 -03487.8 -07.6312 26263.9
 15 09 2013  05 00  -21.0104 26031.3 -03487.8 -07.6313 26263.9
 15 09 2013  05 01  -21.0102 26031.3 -03487.8 -07.6313 26263.9
 15 09 2013  05 02  -21.0101 26031.3 -03487.8 -07.6314 26264.0
 15 09 2013  05 03  -21.0099 26031.4 -03487.9 -07.6315 26264.0
 15 09 2013  05 04  -21.0097 26031.5 -03487.9 -07.6315 26264.1
 15 09 2013  05 05  -21.0095 26031.7 -03488.0 -07.6317 26264.3
 15 09 2013  05 06  -21.0094 26031.7 -03488.1 -07.6317 26264.4
 15 09 2013  05 07  -21.0094 26031.7 -03488.1 -07.6318 26264.3
 15 09 2013  05 08  -21.0094 26031.6 -03488.0 -07.6317 26264.2
 15 09 2013  05 09  -21.0093 26031.5 -03488.0 -07.6316 26264.1
 15 09 2013  05 10  -21.0091 26031.4 -03487.9 -07.6315 26264.0
 15 09 2013  05 11  -21.0090 26031.2 -03487.9 -07.6314 26263.9
 15 09 2013  05 12  -21.0088 26031.1 -03487.8 -07.6314 26263.8
 15 09 2013  05 13  -21.0086 26031.1 -03487.8 -07.6314 26263.7
 15 09 2013  05 14  -21.0086 26031.1 -03487.8 -07.6315 26263.7
 15 09 2013  05 15  -21.0086 26031.1 -03487.9 -07.6316 26263.7
 15 09 2013  05 16  -21.0085 26031.1 -03487.9 -07.6316 26263.7
 15 09 2013  05 17  -21.0084 26031.1 -03487.9 -07.6317 26263.7
 15 09 2013  05 18  -21.0081 26031.2 -03488.0 -07.6318 26263.8
 15 09 2013  05 19  -21.0078 26031.3 -03488.1 -07.6319 26264.0
 15 09 2013  05 20  -21.0076 26031.3 -03488.2 -07.6321 26264.0
 15 09 2013  05 21  -21.0074 26031.3 -03488.2 -07.6322 26264.0
 15 09 2013  05 22  -21.0072 26031.3 -03488.2 -07.6322 26264.0
 15 09 2013  05 23  -21.0068 26031.2 -03488.2 -07.6321 26263.9
 15 09 2013  05 24  -21.0065 26031.1 -03488.2 -07.6321 26263.8
 15 09 2013  05 25  -21.0064 26031.0 -03488.1 -07.6321 26263.7
 15 09 2013  05 26  -21.0063 26031.0 -03488.1 -07.6321 26263.6
 15 09 2013  05 27  -21.0063 26030.9 -03488.1 -07.6321 26263.6
 15 09 2013  05 28  -21.0063 26030.8 -03488.1 -07.6321 26263.5
 15 09 2013  05 29  -21.0062 26030.8 -03488.1 -07.6321 26263.4
 15 09 2013  05 30  -21.0063 26030.7 -03488.1 -07.6322 26263.4
 15 09 2013  05 31  -21.0064 26030.6 -03488.1 -07.6322 26263.3
 15 09 2013  05 32  -21.0063 26030.6 -03488.1 -07.6322 26263.3
 15 09 2013  05 33  -21.0063 26030.6 -03488.1 -07.6322 26263.3
 15 09 2013  05 34  -21.0064 26030.6 -03488.2 -07.6323 26263.3
 15 09 2013  05 35  -21.0065 26030.7 -03488.2 -07.6324 26263.3
 15 09 2013  05 36  -21.0065 26030.7 -03488.3 -07.6325 26263.4
 15 09 2013  05 37  -21.0065 26030.7 -03488.3 -07.6325 26263.4
 15 09 2013  05 38  -21.0065 26030.7 -03488.3 -07.6325 26263.4
 15 09 2013  05 39  -21.0065 26030.7 -03488.3 -07.6325 26263.3
 15 09 2013  05 40  -21.0065 26030.7 -03488.3 -07.6325 26263.4
 15 09 2013  05 41  -21.0064 26030.6 -03488.3 -07.6325 26263.3
 15 09 2013  05 42  -21.0064 26030.6 -03488.3 -07.6325 26263.3
 15 09 2013  05 43  -21.0063 26030.7 -03488.3 -07.6325 26263.4
 15 09 2013  05 44  -21.0062 26030.6 -03488.3 -07.6325 26263.3
 15 09 2013  05 45  -21.0061 26030.6 -03488.3 -07.6325 26263.3
 15 09 2013  05 46  -21.0059 26030.6 -03488.3 -07.6325 26263.3
 15 09 2013  05 47  -21.0057 26030.6 -03488.3 -07.6326 26263.3
 15 09 2013  05 48  -21.0056 26030.6 -03488.3 -07.6326 26263.2
 15 09 2013  05 49  -21.0056 26030.5 -03488.3 -07.6326 26263.2
 15 09 2013  05 50  -21.0055 26030.5 -03488.3 -07.6326 26263.2
 15 09 2013  05 51  -21.0055 26030.4 -03488.3 -07.6327 26263.1
 15 09 2013  05 52  -21.0054 26030.4 -03488.3 -07.6327 26263.1
 15 09 2013  05 53  -21.0053 26030.4 -03488.3 -07.6327 26263.1
 15 09 2013  05 54  -21.0052 26030.4 -03488.4 -07.6328 26263.1
 15 09 2013  05 55  -21.0050 26030.5 -03488.4 -07.6329 26263.2
 15 09 2013  05 56  -21.0049 26030.5 -03488.5 -07.6330 26263.2
 15 09 2013  05 57  -21.0047 26030.5 -03488.5 -07.6331 26263.3
 15 09 2013  05 58  -21.0045 26030.6 -03488.6 -07.6332 26263.3
 15 09 2013  05 59  -21.0044 26030.6 -03488.6 -07.6332 26263.3
 15 09 2013  06 00  -21.0042 26030.6 -03488.7 -07.6334 26263.4
 15 09 2013  06 01  -21.0041 26030.7 -03488.7 -07.6334 26263.4
 15 09 2013  06 02  -21.0040 26030.7 -03488.7 -07.6335 26263.4
 15 09 2013  06 03  -21.0038 26030.6 -03488.7 -07.6335 26263.4
 15 09 2013  06 04  -21.0038 26030.7 -03488.8 -07.6336 26263.5
 15 09 2013  06 05  -21.0038 26030.9 -03488.9 -07.6338 26263.6
 15 09 2013  06 06  -21.0037 26030.9 -03488.9 -07.6338 26263.7
 15 09 2013  06 07  -21.0036 26031.0 -03489.0 -07.6339 26263.8
 15 09 2013  06 08  -21.0037 26031.1 -03489.0 -07.6340 26263.8
 15 09 2013  06 09  -21.0037 26031.2 -03489.1 -07.6340 26264.0
 15 09 2013  06 10  -21.0038 26031.2 -03489.1 -07.6341 26263.9
 15 09 2013  06 11  -21.0039 26031.0 -03489.0 -07.6339 26263.7
 15 09 2013  06 12  -21.0039 26031.1 -03489.0 -07.6340 26263.9
 15 09 2013  06 13  -21.0039 26031.2 -03489.1 -07.6341 26264.0
 15 09 2013  06 14  -21.0041 26031.1 -03489.1 -07.6341 26263.9
 15 09 2013  06 15  -21.0041 26031.1 -03489.0 -07.6340 26263.9
 15 09 2013  06 16  -21.0042 26031.1 -03489.0 -07.6340 26263.9
 15 09 2013  06 17  -21.0045 26031.2 -03489.0 -07.6340 26263.9
 15 09 2013  06 18  -21.0045 26031.2 -03489.0 -07.6340 26264.0
 15 09 2013  06 19  -21.0048 26031.2 -03489.1 -07.6340 26264.0
 15 09 2013  06 20  -21.0049 26031.3 -03489.0 -07.6340 26264.0
 15 09 2013  06 21  -21.0050 26031.3 -03489.1 -07.6340 26264.1
 15 09 2013  06 22  -21.0050 26031.3 -03489.1 -07.6340 26264.1
 15 09 2013  06 23  -21.0049 26031.4 -03489.1 -07.6340 26264.2
 15 09 2013  06 24  -21.0049 26031.4 -03489.0 -07.6340 26264.2
 15 09 2013  06 25  -21.0048 26031.4 -03489.0 -07.6339 26264.2
 15 09 2013  06 26  -21.0047 26031.5 -03489.1 -07.6340 26264.3
 15 09 2013  06 27  -21.0047 26031.5 -03489.0 -07.6339 26264.3
 15 09 2013  06 28  -21.0045 26031.4 -03489.0 -07.6339 26264.2
 15 09 2013  06 29  -21.0044 26031.4 -03489.0 -07.6338 26264.2
 15 09 2013  06 30  -21.0042 26031.5 -03489.0 -07.6338 26264.3
 15 09 2013  06 31  -21.0041 26031.5 -03489.0 -07.6338 26264.3
 15 09 2013  06 32  -21.0040 26031.6 -03489.0 -07.6339 26264.4
 15 09 2013  06 33  -21.0040 26031.6 -03489.0 -07.6339 26264.4
 15 09 2013  06 34  -21.0039 26031.5 -03489.0 -07.6338 26264.3
 15 09 2013  06 35  -21.0038 26031.6 -03489.0 -07.6339 26264.3
 15 09 2013  06 36  -21.0037 26031.6 -03489.0 -07.6339 26264.4
 15 09 2013  06 37  -21.0036 26031.6 -03489.0 -07.6339 26264.4
 15 09 2013  06 38  -21.0035 26031.6 -03489.0 -07.6339 26264.4
 15 09 2013  06 39  -21.0034 26031.6 -03489.0 -07.6339 26264.4
 15 09 2013  06 40  -21.0033 26031.6 -03489.1 -07.6339 26264.4
 15 09 2013  06 41  -21.0032 26031.6 -03489.0 -07.6339 26264.4
 15 09 2013  06 42  -21.0030 26031.7 -03489.0 -07.6338 26264.5
 15 09 2013  06 43  -21.0027 26031.8 -03489.0 -07.6339 26264.6
 15 09 2013  06 44  -21.0026 26031.8 -03489.1 -07.6339 26264.6
 15 09 2013  06 45  -21.0024 26031.8 -03489.1 -07.6339 26264.6
 15 09 2013  06 46  -21.0024 26031.9 -03489.1 -07.6340 26264.6
 15 09 2013  06 47  -21.0021 26032.0 -03489.2 -07.6341 26264.8
 15 09 2013  06 48  -21.0020 26032.0 -03489.2 -07.6341 26264.8
 15 09 2013  06 49  -21.0019 26032.1 -03489.2 -07.6342 26264.9
 15 09 2013  06 50  -21.0019 26032.1 -03489.3 -07.6343 26264.9
 15 09 2013  06 51  -21.0018 26032.0 -03489.3 -07.6342 26264.8
 15 09 2013  06 52  -21.0017 26032.1 -03489.3 -07.6342 26264.9
 15 09 2013  06 53  -21.0016 26032.1 -03489.3 -07.6343 26264.9
 15 09 2013  06 54  -21.0015 26032.2 -03489.3 -07.6343 26265.0
 15 09 2013  06 55  -21.0014 26032.2 -03489.3 -07.6344 26265.0
 15 09 2013  06 56  -21.0013 26032.2 -03489.3 -07.6344 26265.0
 15 09 2013  06 57  -21.0013 26032.1 -03489.3 -07.6343 26264.9
 15 09 2013  06 58  -21.0011 26032.2 -03489.3 -07.6343 26265.0
 15 09 2013  06 59  -21.0011 26032.1 -03489.3 -07.6343 26264.9
 15 09 2013  07 00  -21.0009 26032.1 -03489.2 -07.6342 26264.9
 15 09 2013  07 01  -21.0008 26032.0 -03489.2 -07.6342 26264.8
 15 09 2013  07 02  -21.0006 26032.1 -03489.2 -07.6342 26264.9
 15 09 2013  07 03  -21.0004 26032.2 -03489.3 -07.6343 26265.0
 15 09 2013  07 04  -21.0002 26032.3 -03489.4 -07.6344 26265.1
 15 09 2013  07 05  -21.0001 26032.4 -03489.4 -07.6345 26265.2
 15 09 2013  07 06  -21.0000 26032.5 -03489.5 -07.6346 26265.3
 15 09 2013  07 07  -20.9999 26032.6 -03489.5 -07.6346 26265.4
 15 09 2013  07 08  -20.9997 26032.7 -03489.5 -07.6347 26265.5
 15 09 2013  07 09  -20.9994 26032.7 -03489.5 -07.6347 26265.6
 15 09 2013  07 10  -20.9993 26032.7 -03489.6 -07.6347 26265.5
 15 09 2013  07 11  -20.9992 26032.7 -03489.6 -07.6347 26265.6
 15 09 2013  07 12  -20.9993 26032.6 -03489.5 -07.6347 26265.4
 15 09 2013  07 13  -20.9994 26032.5 -03489.5 -07.6346 26265.3
 15 09 2013  07 14  -20.9993 26032.5 -03489.5 -07.6346 26265.4
 15 09 2013  07 15  -20.9991 26032.6 -03489.5 -07.6346 26265.5
 15 09 2013  07 16  -20.9990 26032.7 -03489.5 -07.6346 26265.5
 15 09 2013  07 17  -20.9990 26032.7 -03489.5 -07.6346 26265.5
 15 09 2013  07 18  -20.9988 26032.7 -03489.5 -07.6345 26265.5
 15 09 2013  07 19  -20.9986 26032.7 -03489.5 -07.6345 26265.5
 15 09 2013  07 20  -20.9986 26032.7 -03489.5 -07.6346 26265.6
 15 09 2013  07 21  -20.9984 26032.7 -03489.5 -07.6346 26265.5
 15 09 2013  07 22  -20.9984 26032.7 -03489.5 -07.6346 26265.5
 15 09 2013  07 23  -20.9982 26032.7 -03489.5 -07.6346 26265.6
 15 09 2013  07 24  -20.9981 26032.8 -03489.5 -07.6346 26265.6
 15 09 2013  07 25  -20.9980 26032.8 -03489.6 -07.6347 26265.6
 15 09 2013  07 26  -20.9980 26032.7 -03489.5 -07.6346 26265.5
 15 09 2013  07 27  -20.9978 26032.7 -03489.5 -07.6345 26265.5
 15 09 2013  07 28  -20.9976 26032.8 -03489.5 -07.6345 26265.6
 15 09 2013  07 29  -20.9973 26032.9 -03489.6 -07.6347 26265.7
 15 09 2013  07 30  -20.9970 26032.7 -03489.5 -07.6346 26265.5
 15 09 2013  07 31  -20.9968 26032.7 -03489.5 -07.6345 26265.5
 15 09 2013  07 32  -20.9966 26032.7 -03489.5 -07.6346 26265.6
 15 09 2013  07 33  -20.9964 26032.7 -03489.5 -07.6346 26265.6
 15 09 2013  07 34  -20.9961 26032.7 -03489.5 -07.6345 26265.5
 15 09 2013  07 35  -20.9958 26032.6 -03489.5 -07.6345 26265.5
 15 09 2013  07 36  -20.9955 26032.5 -03489.4 -07.6345 26265.3
 15 09 2013  07 37  -20.9953 26032.6 -03489.5 -07.6345 26265.4
 15 09 2013  07 38  -20.9950 26032.5 -03489.5 -07.6345 26265.4
 15 09 2013  07 39  -20.9948 26032.6 -03489.5 -07.6346 26265.4
 15 09 2013  07 40  -20.9946 26032.6 -03489.5 -07.6346 26265.4
 15 09 2013  07 41  -20.9944 26032.5 -03489.5 -07.6346 26265.4
 15 09 2013  07 42  -20.9943 26032.5 -03489.5 -07.6347 26265.4
 15 09 2013  07 43  -20.9942 26032.5 -03489.5 -07.6347 26265.3
 15 09 2013  07 44  -20.9941 26032.6 -03489.6 -07.6348 26265.4
 15 09 2013  07 45  -20.9940 26032.6 -03489.6 -07.6348 26265.5
 15 09 2013  07 46  -20.9936 26032.7 -03489.6 -07.6348 26265.5
 15 09 2013  07 47  -20.9934 26032.7 -03489.6 -07.6348 26265.6
 15 09 2013  07 48  -20.9932 26032.7 -03489.6 -07.6349 26265.5
 15 09 2013  07 49  -20.9930 26032.6 -03489.6 -07.6348 26265.4
 15 09 2013  07 50  -20.9928 26032.4 -03489.6 -07.6348 26265.3
 15 09 2013  07 51  -20.9926 26032.4 -03489.5 -07.6347 26265.2
 15 09 2013  07 52  -20.9924 26032.3 -03489.5 -07.6347 26265.2
 15 09 2013  07 53  -20.9922 26032.3 -03489.5 -07.6347 26265.1
 15 09 2013  07 54  -20.9920 26032.3 -03489.5 -07.6347 26265.1
 15 09 2013  07 55  -20.9918 26032.3 -03489.6 -07.6348 26265.2
 15 09 2013  07 56  -20.9916 26032.3 -03489.6 -07.6348 26265.2
 15 09 2013  07 57  -20.9913 26032.3 -03489.6 -07.6349 26265.2
 15 09 2013  07 58  -20.9910 26032.3 -03489.6 -07.6349 26265.2
 15 09 2013  07 59  -20.9906 26032.4 -03489.6 -07.6349 26265.2
 15 09 2013  08 00  -20.9903 26032.4 -03489.6 -07.6349 26265.2
 15 09 2013  08 01  -20.9900 26032.5 -03489.7 -07.6350 26265.3
 15 09 2013  08 02  -20.9898 26032.5 -03489.7 -07.6352 26265.4
 15 09 2013  08 03  -20.9895 26032.5 -03489.7 -07.6352 26265.4
 15 09 2013  08 04  -20.9890 26032.5 -03489.7 -07.6351 26265.4
 15 09 2013  08 05  -20.9886 26032.5 -03489.7 -07.6351 26265.4
 15 09 2013  08 06  -20.9882 26032.4 -03489.7 -07.6351 26265.3
 15 09 2013  08 07  -20.9879 26032.3 -03489.6 -07.6350 26265.1
 15 09 2013  08 08  -20.9876 26032.3 -03489.7 -07.6351 26265.1
 15 09 2013  08 09  -20.9873 26032.3 -03489.7 -07.6352 26265.2
 15 09 2013  08 10  -20.9871 26032.3 -03489.8 -07.6352 26265.2
 15 09 2013  08 11  -20.9868 26032.4 -03489.8 -07.6354 26265.2
 15 09 2013  08 12  -20.9865 26032.4 -03489.9 -07.6354 26265.2
 15 09 2013  08 13  -20.9862 26032.4 -03489.9 -07.6355 26265.3
 15 09 2013  08 14  -20.9859 26032.4 -03489.9 -07.6355 26265.3
 15 09 2013  08 15  -20.9855 26032.4 -03489.9 -07.6355 26265.3
 15 09 2013  08 16  -20.9852 26032.3 -03489.9 -07.6355 26265.2
 15 09 2013  08 17  -20.9849 26032.2 -03489.9 -07.6355 26265.1
 15 09 2013  08 18  -20.9846 26032.2 -03489.9 -07.6355 26265.1
 15 09 2013  08 19  -20.9842 26032.2 -03489.9 -07.6355 26265.1
 15 09 2013  08 20  -20.9840 26032.3 -03490.0 -07.6357 26265.2
 15 09 2013  08 21  -20.9836 26032.4 -03490.0 -07.6357 26265.3
 15 09 2013  08 22  -20.9832 26032.4 -03489.9 -07.6356 26265.2
 15 09 2013  08 23  -20.9829 26032.4 -03490.0 -07.6356 26265.3
 15 09 2013  08 24  -20.9826 26032.4 -03490.0 -07.6356 26265.2
 15 09 2013  08 25  -20.9823 26032.3 -03489.9 -07.6356 26265.1
 15 09 2013  08 26  -20.9819 26032.2 -03489.9 -07.6355 26265.0
 15 09 2013  08 27  -20.9817 26032.1 -03489.8 -07.6354 26264.9
 15 09 2013  08 28  -20.9814 26032.0 -03489.8 -07.6353 26264.8
 15 09 2013  08 29  -20.9811 26031.8 -03489.7 -07.6353 26264.7
 15 09 2013  08 30  -20.9806 26031.8 -03489.7 -07.6352 26264.7
 15 09 2013  08 31  -20.9802 26031.8 -03489.6 -07.6351 26264.6
 15 09 2013  08 32  -20.9797 26031.7 -03489.6 -07.6351 26264.6
 15 09 2013  08 33  -20.9791 26031.6 -03489.5 -07.6350 26264.5
 15 09 2013  08 34  -20.9785 26031.5 -03489.5 -07.6348 26264.3
 15 09 2013  08 35  -20.9779 26031.4 -03489.4 -07.6347 26264.2
 15 09 2013  08 36  -20.9772 26031.5 -03489.5 -07.6350 26264.4
 15 09 2013  08 37  -20.9765 26031.4 -03489.6 -07.6351 26264.3
 15 09 2013  08 38  -20.9757 26031.4 -03489.6 -07.6352 26264.2
 15 09 2013  08 39  -20.9749 26031.2 -03489.6 -07.6352 26264.1
 15 09 2013  08 40  -20.9743 26031.2 -03489.7 -07.6354 26264.1
 15 09 2013  08 41  -20.9736 26031.2 -03489.8 -07.6356 26264.0
 15 09 2013  08 42  -20.9730 26031.1 -03489.9 -07.6359 26264.0
 15 09 2013  08 43  -20.9725 26031.0 -03490.0 -07.6361 26263.9
 15 09 2013  08 44  -20.9719 26030.9 -03490.1 -07.6364 26263.9
 15 09 2013  08 45  -20.9713 26030.9 -03490.3 -07.6368 26263.9
 15 09 2013  08 46  -20.9708 26030.8 -03490.4 -07.6371 26263.8
 15 09 2013  08 47  -20.9703 26030.8 -03490.6 -07.6375 26263.7
 15 09 2013  08 48  -20.9698 26030.7 -03490.7 -07.6379 26263.7
 15 09 2013  08 49  -20.9695 26030.6 -03490.9 -07.6382 26263.7
 15 09 2013  08 50  -20.9692 26030.6 -03491.1 -07.6387 26263.7
 15 09 2013  08 51  -20.9690 26030.6 -03491.4 -07.6392 26263.7
 15 09 2013  08 52  -20.9687 26030.5 -03491.6 -07.6397 26263.6
 15 09 2013  08 53  -20.9684 26030.5 -03491.7 -07.6401 26263.6
 15 09 2013  08 54  -20.9682 26030.4 -03491.9 -07.6405 26263.6
 15 09 2013  08 55  -20.9681 26030.3 -03492.1 -07.6409 26263.5
 15 09 2013  08 56  -20.9680 26030.1 -03492.3 -07.6413 26263.4
 15 09 2013  08 57  -20.9680 26030.0 -03492.4 -07.6416 26263.2
 15 09 2013  08 58  -20.9679 26029.8 -03492.6 -07.6420 26263.1
 15 09 2013  08 59  -20.9679 26029.7 -03492.7 -07.6424 26263.0
 15 09 2013  09 00  -20.9679 26029.8 -03493.0 -07.6430 26263.1
 15 09 2013  09 01  -20.9680 26029.7 -03493.2 -07.6435 26263.0
 15 09 2013  09 02  -20.9676 26029.8 -03493.4 -07.6439 26263.1
 15 09 2013  09 03  -20.9678 26029.8 -03493.7 -07.6444 26263.2
 15 09 2013  09 04  -20.9681 26029.7 -03493.9 -07.6449 26263.2
 15 09 2013  09 05  -20.9685 26029.7 -03494.1 -07.6453 26263.1
 15 09 2013  09 06  -20.9687 26029.6 -03494.2 -07.6457 26263.1
 15 09 2013  09 07  -20.9690 26029.5 -03494.4 -07.6461 26263.0
 15 09 2013  09 08  -20.9693 26029.4 -03494.5 -07.6464 26262.9
 15 09 2013  09 09  -20.9695 26029.1 -03494.6 -07.6466 26262.7
 15 09 2013  09 10  -20.9699 26028.9 -03494.6 -07.6467 26262.5
 15 09 2013  09 11  -20.9703 26028.9 -03494.7 -07.6470 26262.5
 15 09 2013  09 12  -20.9705 26028.9 -03494.9 -07.6474 26262.5
 15 09 2013  09 13  -20.9707 26028.8 -03495.0 -07.6477 26262.4
 15 09 2013  09 14  -20.9710 26028.6 -03495.1 -07.6479 26262.2
 15 09 2013  09 15  -20.9715 26028.5 -03495.3 -07.6483 26262.2
 15 09 2013  09 16  -20.9717 26028.5 -03495.5 -07.6487 26262.1
 15 09 2013  09 17  -20.9718 26028.6 -03495.7 -07.6493 26262.3
 15 09 2013  09 18  -20.9720 26028.6 -03495.9 -07.6497 26262.3
 15 09 2013  09 19  -20.9723 26028.7 -03496.2 -07.6501 26262.4
 15 09 2013  09 20  -20.9727 26028.8 -03496.4 -07.6506 26262.6
 15 09 2013  09 21  -20.9730 26029.0 -03496.6 -07.6510 26262.8
 15 09 2013  09 22  -20.9733 26029.1 -03496.8 -07.6514 26262.9
 15 09 2013  09 23  -20.9738 26029.2 -03497.0 -07.6517 26263.1
 15 09 2013  09 24  -20.9744 26029.1 -03497.1 -07.6520 26263.0
 15 09 2013  09 25  -20.9748 26029.1 -03497.2 -07.6522 26263.0
 15 09 2013  09 26  -20.9751 26029.1 -03497.3 -07.6524 26263.0
 15 09 2013  09 27  -20.9755 26029.0 -03497.4 -07.6527 26262.9
 15 09 2013  09 28  -20.9759 26029.0 -03497.5 -07.6529 26262.9
 15 09 2013  09 29  -20.9763 26028.9 -03497.5 -07.6531 26262.8
 15 09 2013  09 30  -20.9766 26028.7 -03497.6 -07.6533 26262.7
 15 09 2013  09 31  -20.9769 26028.5 -03497.7 -07.6535 26262.5
 15 09 2013  09 32  -20.9774 26028.5 -03497.8 -07.6538 26262.5
 15 09 2013  09 33  -20.9778 26028.4 -03497.9 -07.6541 26262.4
 15 09 2013  09 34  -20.9781 26028.5 -03498.2 -07.6545 26262.5
 15 09 2013  09 35  -20.9785 26028.4 -03498.3 -07.6548 26262.5
 15 09 2013  09 36  -20.9790 26028.6 -03498.5 -07.6553 26262.6
 15 09 2013  09 37  -20.9794 26028.7 -03498.7 -07.6556 26262.8
 15 09 2013  09 38  -20.9799 26028.8 -03498.9 -07.6560 26262.9
 15 09 2013  09 39  -20.9806 26028.9 -03499.1 -07.6563 26263.0
 15 09 2013  09 40  -20.9813 26028.9 -03499.2 -07.6566 26263.1
 15 09 2013  09 41  -20.9816 26029.0 -03499.3 -07.6569 26263.1
 15 09 2013  09 42  -20.9821 26028.9 -03499.4 -07.6571 26263.1
 15 09 2013  09 43  -20.9828 26029.0 -03499.5 -07.6573 26263.2
 15 09 2013  09 44  -20.9834 26028.9 -03499.6 -07.6575 26263.1
 15 09 2013  09 45  -20.9840 26029.0 -03499.7 -07.6577 26263.2
 15 09 2013  09 46  -20.9845 26029.0 -03499.8 -07.6580 26263.2
 15 09 2013  09 47  -20.9851 26029.1 -03500.0 -07.6583 26263.3
 15 09 2013  09 48  -20.9856 26029.0 -03500.1 -07.6585 26263.3
 15 09 2013  09 49  -20.9861 26029.1 -03500.2 -07.6588 26263.4
 15 09 2013  09 50  -20.9866 26029.1 -03500.3 -07.6589 26263.4
 15 09 2013  09 51  -20.9871 26029.1 -03500.4 -07.6591 26263.4
 15 09 2013  09 52  -20.9877 26029.1 -03500.5 -07.6593 26263.4
 15 09 2013  09 53  -20.9883 26029.1 -03500.6 -07.6595 26263.5
 15 09 2013  09 54  -20.9889 26029.2 -03500.7 -07.6598 26263.5
 15 09 2013  09 55  -20.9895 26029.2 -03500.8 -07.6599 26263.6
 15 09 2013  09 56  -20.9902 26029.3 -03500.8 -07.6600 26263.6
 15 09 2013  09 57  -20.9910 26029.1 -03500.8 -07.6601 26263.5
 15 09 2013  09 58  -20.9917 26029.1 -03500.8 -07.6601 26263.4
 15 09 2013  09 59  -20.9921 26029.0 -03500.8 -07.6600 26263.4
 15 09 2013  10 00  -20.9927 26028.9 -03500.8 -07.6600 26263.3
 15 09 2013  10 01  -20.9936 26028.9 -03500.8 -07.6601 26263.2
 15 09 2013  10 02  -20.9942 26028.9 -03500.9 -07.6604 26263.2
 15 09 2013  10 03  -20.9947 26029.0 -03501.1 -07.6606 26263.4
 15 09 2013  10 04  -20.9952 26029.0 -03501.2 -07.6608 26263.4
 15 09 2013  10 05  -20.9957 26029.1 -03501.2 -07.6610 26263.5
 15 09 2013  10 06  -20.9961 26029.1 -03501.3 -07.6610 26263.6
 15 09 2013  10 07  -20.9964 26029.2 -03501.3 -07.6611 26263.6
 15 09 2013  10 08  -20.9969 26029.5 -03501.4 -07.6613 26263.9
 15 09 2013  10 09  -20.9975 26029.6 -03501.5 -07.6614 26264.1
 15 09 2013  10 10  -20.9978 26029.9 -03501.6 -07.6615 26264.3
 15 09 2013  10 11  -20.9981 26030.1 -03501.6 -07.6616 26264.6
 15 09 2013  10 12  -20.9984 26030.3 -03501.7 -07.6616 26264.8
 15 09 2013  10 13  -20.9986 26030.5 -03501.7 -07.6616 26265.0
 15 09 2013  10 14  -20.9991 26030.7 -03501.7 -07.6615 26265.2
 15 09 2013  10 15  -20.9997 26030.7 -03501.6 -07.6613 26265.2
 15 09 2013  10 16  -21.0002 26030.9 -03501.6 -07.6613 26265.4
 15 09 2013  10 17  -21.0007 26031.2 -03501.7 -07.6613 26265.6
 15 09 2013  10 18  -21.0010 26031.3 -03501.6 -07.6612 26265.8
 15 09 2013  10 19  -21.0015 26031.4 -03501.6 -07.6610 26265.9
 15 09 2013  10 20  -21.0019 26031.6 -03501.6 -07.6610 26266.1
 15 09 2013  10 21  -21.0024 26031.7 -03501.5 -07.6607 26266.1
 15 09 2013  10 22  -21.0029 26031.6 -03501.4 -07.6605 26266.1
 15 09 2013  10 23  -21.0034 26031.8 -03501.3 -07.6604 26266.2
 15 09 2013  10 24  -21.0039 26031.9 -03501.4 -07.6604 26266.3
 15 09 2013  10 25  -21.0046 26032.2 -03501.4 -07.6605 26266.6
 15 09 2013  10 26  -21.0051 26032.7 -03501.6 -07.6607 26267.2
 15 09 2013  10 27  -21.0055 26033.0 -03501.6 -07.6606 26267.5
 15 09 2013  10 28  -21.0059 26033.3 -03501.5 -07.6605 26267.7
 15 09 2013  10 29  -21.0063 26033.5 -03501.5 -07.6602 26267.9
 15 09 2013  10 30  -21.0069 26033.6 -03501.4 -07.6601 26268.0
 15 09 2013  10 31  -21.0073 26033.8 -03501.4 -07.6599 26268.2
 15 09 2013  10 32  -21.0078 26033.9 -03501.3 -07.6597 26268.3
 15 09 2013  10 33  -21.0084 26034.0 -03501.2 -07.6596 26268.4
 15 09 2013  10 34  -21.0090 26034.2 -03501.2 -07.6595 26268.6
 15 09 2013  10 35  -21.0095 26034.4 -03501.2 -07.6594 26268.8
 15 09 2013  10 36  -21.0100 26034.7 -03501.2 -07.6593 26269.1
 15 09 2013  10 37  -21.0107 26034.9 -03501.2 -07.6592 26269.2
 15 09 2013  10 38  -21.0114 26035.2 -03501.2 -07.6592 26269.5
 15 09 2013  10 39  -21.0120 26035.6 -03501.3 -07.6592 26269.9
 15 09 2013  10 40  -21.0127 26035.8 -03501.2 -07.6590 26270.2
 15 09 2013  10 41  -21.0131 26036.0 -03501.2 -07.6589 26270.4
 15 09 2013  10 42  -21.0135 26036.2 -03501.1 -07.6587 26270.5
 15 09 2013  10 43  -21.0140 26036.3 -03501.1 -07.6585 26270.7
 15 09 2013  10 44  -21.0145 26036.5 -03501.0 -07.6584 26270.8
 15 09 2013  10 45  -21.0148 26036.7 -03501.0 -07.6584 26271.0
 15 09 2013  10 46  -21.0152 26036.9 -03501.0 -07.6582 26271.2
 15 09 2013  10 47  -21.0156 26036.9 -03500.9 -07.6580 26271.2
 15 09 2013  10 48  -21.0161 26037.0 -03500.9 -07.6580 26271.3
 15 09 2013  10 49  -21.0165 26037.2 -03500.9 -07.6579 26271.5
 15 09 2013  10 50  -21.0170 26037.4 -03500.9 -07.6579 26271.8
 15 09 2013  10 51  -21.0176 26037.6 -03500.9 -07.6578 26272.0
 15 09 2013  10 52  -21.0180 26037.9 -03501.0 -07.6578 26272.2
 15 09 2013  10 53  -21.0184 26038.3 -03501.0 -07.6578 26272.6
 15 09 2013  10 54  -21.0187 26038.5 -03500.8 -07.6573 26272.7
 15 09 2013  10 55  -21.0189 26038.6 -03500.8 -07.6573 26272.9
 15 09 2013  10 56  -21.0192 26038.8 -03500.9 -07.6573 26273.1
 15 09 2013  10 57  -21.0195 26039.0 -03500.8 -07.6572 26273.3
 15 09 2013  10 58  -21.0198 26039.3 -03500.8 -07.6571 26273.6
 15 09 2013  10 59  -21.0201 26039.6 -03500.8 -07.6570 26273.9
 15 09 2013  11 00  -21.0205 26040.0 -03500.8 -07.6568 26274.3
 15 09 2013  11 01  -21.0210 26040.2 -03500.7 -07.6566 26274.5
 15 09 2013  11 02  -21.0215 26040.4 -03500.6 -07.6564 26274.7
 15 09 2013  11 03  -21.0219 26040.7 -03500.6 -07.6562 26274.9
 15 09 2013  11 04  -21.0223 26041.0 -03500.5 -07.6559 26275.2
 15 09 2013  11 05  -21.0225 26041.4 -03500.5 -07.6558 26275.6
 15 09 2013  11 06  -21.0228 26041.8 -03500.4 -07.6555 26276.0
 15 09 2013  11 07  -21.0230 26042.2 -03500.3 -07.6553 26276.3
 15 09 2013  11 08  -21.0234 26042.4 -03500.3 -07.6550 26276.6
 15 09 2013  11 09  -21.0237 26042.7 -03500.1 -07.6546 26276.9
 15 09 2013  11 10  -21.0242 26042.9 -03500.0 -07.6543 26277.1
 15 09 2013  11 11  -21.0246 26043.1 -03499.9 -07.6540 26277.3
 15 09 2013  11 12  -21.0250 26043.5 -03499.8 -07.6536 26277.6
 15 09 2013  11 13  -21.0254 26043.8 -03499.7 -07.6533 26277.9
 15 09 2013  11 14  -21.0260 26044.1 -03499.5 -07.6529 26278.1
 15 09 2013  11 15  -21.0266 26044.3 -03499.4 -07.6526 26278.4
 15 09 2013  11 16  -21.0272 26044.4 -03499.2 -07.6521 26278.4
 15 09 2013  11 17  -21.0277 26044.5 -03499.0 -07.6517 26278.5
 15 09 2013  11 18  -21.0283 26044.5 -03498.8 -07.6513 26278.5
 15 09 2013  11 19  -21.0289 26044.7 -03498.7 -07.6509 26278.6
 15 09 2013  11 20  -21.0294 26044.8 -03498.6 -07.6506 26278.8
 15 09 2013  11 21  -21.0298 26045.0 -03498.4 -07.6503 26278.9
 15 09 2013  11 22  -21.0303 26045.1 -03498.2 -07.6499 26279.0
 15 09 2013  11 23  -21.0308 26045.3 -03498.1 -07.6495 26279.2
 15 09 2013  11 24  -21.0313 26045.4 -03497.9 -07.6491 26279.3
 15 09 2013  11 25  -21.0319 26045.6 -03497.8 -07.6487 26279.4
 15 09 2013  11 26  -21.0324 26045.6 -03497.6 -07.6483 26279.4
 15 09 2013  11 27  -21.0328 26045.7 -03497.4 -07.6479 26279.5
 15 09 2013  11 28  -21.0332 26045.7 -03497.2 -07.6474 26279.5
 15 09 2013  11 29  -21.0335 26045.8 -03497.1 -07.6471 26279.5
 15 09 2013  11 30  -21.0339 26045.9 -03496.9 -07.6468 26279.6
 15 09 2013  11 31  -21.0344 26046.2 -03496.9 -07.6467 26279.9
 15 09 2013  11 32  -21.0347 26046.4 -03496.8 -07.6464 26280.0
 15 09 2013  11 33  -21.0351 26046.6 -03496.7 -07.6461 26280.2
 15 09 2013  11 34  -21.0355 26046.6 -03496.5 -07.6457 26280.3
 15 09 2013  11 35  -21.0358 26046.7 -03496.4 -07.6454 26280.3
 15 09 2013  11 36  -21.0360 26047.0 -03496.3 -07.6452 26280.7
 15 09 2013  11 37  -21.0363 26047.4 -03496.3 -07.6450 26281.0
 15 09 2013  11 38  -21.0367 26047.7 -03496.2 -07.6448 26281.3
 15 09 2013  11 39  -21.0370 26048.1 -03496.2 -07.6445 26281.7
 15 09 2013  11 40  -21.0373 26048.4 -03496.1 -07.6443 26282.0
 15 09 2013  11 41  -21.0376 26048.7 -03496.0 -07.6440 26282.2
 15 09 2013  11 42  -21.0377 26049.0 -03495.9 -07.6436 26282.6
 15 09 2013  11 43  -21.0379 26049.3 -03495.8 -07.6433 26282.8
 15 09 2013  11 44  -21.0380 26049.5 -03495.6 -07.6430 26283.0
 15 09 2013  11 45  -21.0383 26049.5 -03495.5 -07.6427 26283.0
 15 09 2013  11 46  -21.0387 26049.6 -03495.4 -07.6424 26283.0
 15 09 2013  11 47  -21.0390 26049.7 -03495.3 -07.6423 26283.2
 15 09 2013  11 48  -21.0391 26050.0 -03495.3 -07.6422 26283.4
 15 09 2013  11 49  -21.0391 26050.5 -03495.4 -07.6422 26283.9
 15 09 2013  11 50  -21.0392 26050.9 -03495.4 -07.6421 26284.3
 15 09 2013  11 51  -21.0392 26051.2 -03495.4 -07.6420 26284.7
 15 09 2013  11 52  -21.0393 26051.5 -03495.3 -07.6417 26284.9
 15 09 2013  11 53  -21.0393 26051.6 -03495.2 -07.6415 26285.0
 15 09 2013  11 54  -21.0394 26051.9 -03495.3 -07.6414 26285.4
 15 09 2013  11 55  -21.0395 26052.4 -03495.3 -07.6415 26285.8
 15 09 2013  11 56  -21.0396 26052.8 -03495.4 -07.6414 26286.3
 15 09 2013  11 57  -21.0396 26053.1 -03495.4 -07.6413 26286.6
 15 09 2013  11 58  -21.0396 26053.5 -03495.3 -07.6412 26286.9
 15 09 2013  11 59  -21.0396 26053.8 -03495.3 -07.6409 26287.2
 15 09 2013  12 00  -21.0395 26053.9 -03495.2 -07.6406 26287.3
 15 09 2013  12 01  -21.0395 26053.9 -03495.0 -07.6404 26287.3
 15 09 2013  12 02  -21.0395 26053.8 -03495.0 -07.6402 26287.2
 15 09 2013  12 03  -21.0396 26054.1 -03495.1 -07.6404 26287.5
 15 09 2013  12 04  -21.0398 26054.4 -03495.1 -07.6405 26287.8
 15 09 2013  12 05  -21.0399 26054.8 -03495.2 -07.6406 26288.2
 15 09 2013  12 06  -21.0401 26055.1 -03495.2 -07.6405 26288.5
 15 09 2013  12 07  -21.0403 26055.3 -03495.2 -07.6404 26288.7
 15 09 2013  12 08  -21.0406 26055.4 -03495.2 -07.6403 26288.7
 15 09 2013  12 09  -21.0408 26055.6 -03495.3 -07.6404 26289.0
 15 09 2013  12 10  -21.0413 26055.9 -03495.3 -07.6405 26289.3
 15 09 2013  12 11  -21.0417 26056.2 -03495.4 -07.6405 26289.6
 15 09 2013  12 12  -21.0420 26056.4 -03495.4 -07.6405 26289.8
 15 09 2013  12 13  -21.0423 26056.7 -03495.5 -07.6405 26290.1
 15 09 2013  12 14  -21.0426 26056.9 -03495.5 -07.6405 26290.3
 15 09 2013  12 15  -21.0430 26057.2 -03495.6 -07.6407 26290.7
 15 09 2013  12 16  -21.0434 26058.0 -03495.8 -07.6409 26291.4
 15 09 2013  12 17  -21.0437 26058.5 -03495.9 -07.6409 26291.9
 15 09 2013  12 18  -21.0440 26059.0 -03495.9 -07.6408 26292.4
 15 09 2013  12 19  -21.0443 26059.3 -03495.9 -07.6407 26292.8
 15 09 2013  12 20  -21.0445 26059.8 -03495.9 -07.6406 26293.3
 15 09 2013  12 21  -21.0448 26060.1 -03495.9 -07.6404 26293.6
 15 09 2013  12 22  -21.0450 26060.5 -03495.9 -07.6403 26293.9
 15 09 2013  12 23  -21.0454 26060.9 -03495.9 -07.6401 26294.4
 15 09 2013  12 24  -21.0459 26061.3 -03495.8 -07.6398 26294.7
 15 09 2013  12 25  -21.0462 26061.3 -03495.5 -07.6393 26294.7
 15 09 2013  12 26  -21.0464 26061.1 -03495.3 -07.6389 26294.5
 15 09 2013  12 27  -21.0467 26061.2 -03495.2 -07.6387 26294.5
 15 09 2013  12 28  -21.0469 26061.1 -03495.1 -07.6384 26294.4
 15 09 2013  12 29  -21.0471 26061.3 -03495.1 -07.6383 26294.6
 15 09 2013  12 30  -21.0473 26061.6 -03495.1 -07.6383 26294.9
 15 09 2013  12 31  -21.0474 26061.9 -03495.1 -07.6382 26295.2
 15 09 2013  12 32  -21.0475 26062.3 -03495.1 -07.6381 26295.6
 15 09 2013  12 33  -21.0474 26062.7 -03495.1 -07.6381 26296.0
 15 09 2013  12 34  -21.0474 26063.2 -03495.2 -07.6380 26296.5
 15 09 2013  12 35  -21.0473 26063.6 -03495.2 -07.6380 26296.9
 15 09 2013  12 36  -21.0474 26064.3 -03495.3 -07.6380 26297.7
 15 09 2013  12 37  -21.0475 26064.8 -03495.3 -07.6378 26298.1
 15 09 2013  12 38  -21.0476 26065.3 -03495.3 -07.6376 26298.6
 15 09 2013  12 39  -21.0476 26065.6 -03495.1 -07.6372 26298.9
 15 09 2013  12 40  -21.0474 26066.0 -03495.1 -07.6370 26299.3
 15 09 2013  12 41  -21.0475 26066.3 -03495.0 -07.6368 26299.6
 15 09 2013  12 42  -21.0477 26066.5 -03494.9 -07.6365 26299.8
 15 09 2013  12 43  -21.0477 26067.0 -03494.9 -07.6363 26300.2
 15 09 2013  12 44  -21.0477 26067.3 -03494.8 -07.6360 26300.5
 15 09 2013  12 45  -21.0477 26067.6 -03494.7 -07.6356 26300.8
 15 09 2013  12 46  -21.0477 26067.5 -03494.5 -07.6352 26300.7
 15 09 2013  12 47  -21.0475 26067.7 -03494.3 -07.6349 26300.8
 15 09 2013  12 48  -21.0471 26067.8 -03494.2 -07.6346 26300.9
 15 09 2013  12 49  -21.0468 26068.2 -03494.2 -07.6345 26301.4
 15 09 2013  12 50  -21.0466 26068.6 -03494.2 -07.6344 26301.7
 15 09 2013  12 51  -21.0461 26068.7 -03494.1 -07.6340 26301.9
 15 09 2013  12 52  -21.0458 26069.0 -03494.0 -07.6339 26302.1
 15 09 2013  12 53  -21.0454 26068.9 -03493.8 -07.6335 26302.0
 15 09 2013  12 54  -21.0450 26068.9 -03493.7 -07.6332 26302.0
 15 09 2013  12 55  -21.0444 26069.3 -03493.8 -07.6334 26302.4
 15 09 2013  12 56  -21.0443 26070.1 -03494.1 -07.6337 26303.2
 15 09 2013  12 57  -21.0441 26070.9 -03494.3 -07.6338 26304.0
 15 09 2013  12 58  -21.0439 26071.4 -03494.2 -07.6336 26304.5
 15 09 2013  12 59  -21.0433 26071.6 -03494.1 -07.6332 26304.7
 15 09 2013  13 00  -21.0426 26072.0 -03494.0 -07.6330 26305.1
 15 09 2013  13 01  -21.0422 26072.1 -03493.9 -07.6326 26305.2
 15 09 2013  13 02  -21.0419 26072.3 -03493.8 -07.6324 26305.3
 15 09 2013  13 03  -21.0418 26072.3 -03493.6 -07.6320 26305.3
 15 09 2013  13 04  -21.0417 26072.3 -03493.5 -07.6317 26305.3
 15 09 2013  13 05  -21.0416 26072.4 -03493.4 -07.6315 26305.4
 15 09 2013  13 06  -21.0416 26072.6 -03493.4 -07.6315 26305.6
 15 09 2013  13 07  -21.0415 26072.7 -03493.4 -07.6313 26305.7
 15 09 2013  13 08  -21.0413 26072.8 -03493.3 -07.6311 26305.7
 15 09 2013  13 09  -21.0411 26072.9 -03493.2 -07.6310 26305.9
 15 09 2013  13 10  -21.0408 26073.0 -03493.1 -07.6308 26306.0
 15 09 2013  13 11  -21.0403 26073.0 -03493.0 -07.6305 26306.0
 15 09 2013  13 12  -21.0400 26073.1 -03493.0 -07.6304 26306.1
 15 09 2013  13 13  -21.0396 26073.1 -03492.9 -07.6302 26306.0
 15 09 2013  13 14  -21.0390 26073.2 -03492.9 -07.6302 26306.1
 15 09 2013  13 15  -21.0386 26073.6 -03493.0 -07.6304 26306.5
 15 09 2013  13 16  -21.0382 26074.0 -03493.1 -07.6304 26306.9
 15 09 2013  13 17  -21.0378 26074.3 -03493.1 -07.6304 26307.2
 15 09 2013  13 18  -21.0373 26074.3 -03493.0 -07.6300 26307.2
 15 09 2013  13 19  -21.0366 26074.4 -03492.9 -07.6299 26307.3
 15 09 2013  13 20  -21.0360 26074.5 -03492.9 -07.6298 26307.4
 15 09 2013  13 21  -21.0354 26074.7 -03492.9 -07.6297 26307.6
 15 09 2013  13 22  -21.0348 26074.7 -03492.8 -07.6296 26307.6
 15 09 2013  13 23  -21.0343 26074.8 -03492.8 -07.6296 26307.7
 15 09 2013  13 24  -21.0339 26075.0 -03492.9 -07.6296 26307.9
 15 09 2013  13 25  -21.0336 26075.0 -03492.8 -07.6295 26307.9
 15 09 2013  13 26  -21.0331 26074.8 -03492.7 -07.6293 26307.7
 15 09 2013  13 27  -21.0327 26074.7 -03492.7 -07.6293 26307.6
 15 09 2013  13 28  -21.0323 26074.8 -03492.7 -07.6294 26307.7
 15 09 2013  13 29  -21.0319 26075.2 -03492.9 -07.6297 26308.1
 15 09 2013  13 30  -21.0314 26075.6 -03493.1 -07.6298 26308.5
 15 09 2013  13 31  -21.0309 26075.8 -03493.1 -07.6298 26308.8
 15 09 2013  13 32  -21.0303 26076.0 -03493.1 -07.6298 26308.9
 15 09 2013  13 33  -21.0298 26076.1 -03493.1 -07.6298 26309.1
 15 09 2013  13 34  -21.0293 26076.4 -03493.2 -07.6299 26309.3
 15 09 2013  13 35  -21.0287 26076.6 -03493.2 -07.6299 26309.5
 15 09 2013  13 36  -21.0281 26076.9 -03493.3 -07.6300 26309.8
 15 09 2013  13 37  -21.0277 26077.2 -03493.4 -07.6301 26310.1
 15 09 2013  13 38  -21.0270 26077.1 -03493.3 -07.6299 26310.1
 15 09 2013  13 39  -21.0261 26077.2 -03493.3 -07.6299 26310.1
 15 09 2013  13 40  -21.0254 26077.5 -03493.4 -07.6300 26310.4
 15 09 2013  13 41  -21.0247 26077.8 -03493.5 -07.6302 26310.8
 15 09 2013  13 42  -21.0242 26077.8 -03493.4 -07.6300 26310.7
 15 09 2013  13 43  -21.0234 26077.8 -03493.4 -07.6299 26310.7
 15 09 2013  13 44  -21.0230 26078.0 -03493.4 -07.6300 26310.9
 15 09 2013  13 45  -21.0221 26077.6 -03493.3 -07.6297 26310.6
 15 09 2013  13 46  -21.0212 26077.5 -03493.2 -07.6297 26310.4
 15 09 2013  13 47  -21.0204 26077.6 -03493.4 -07.6300 26310.6
 15 09 2013  13 48  -21.0201 26078.2 -03493.7 -07.6304 26311.2
 15 09 2013  13 49  -21.0199 26078.5 -03493.8 -07.6306 26311.5
 15 09 2013  13 50  -21.0194 26078.7 -03493.8 -07.6306 26311.7
 15 09 2013  13 51  -21.0189 26078.7 -03493.8 -07.6305 26311.7
 15 09 2013  13 52  -21.0185 26078.8 -03493.8 -07.6304 26311.7
 15 09 2013  13 53  -21.0180 26078.9 -03493.8 -07.6305 26311.9
 15 09 2013  13 54  -21.0177 26079.2 -03493.9 -07.6305 26312.2
 15 09 2013  13 55  -21.0174 26079.3 -03493.8 -07.6304 26312.3
 15 09 2013  13 56  -21.0171 26079.1 -03493.7 -07.6303 26312.1
 15 09 2013  13 57  -21.0166 26079.1 -03493.7 -07.6302 26312.0
 15 09 2013  13 58  -21.0166 26079.4 -03493.9 -07.6305 26312.4
 15 09 2013  13 59  -21.0165 26079.4 -03493.8 -07.6303 26312.4
 15 09 2013  14 00  -21.0161 26079.2 -03493.6 -07.6301 26312.2
 15 09 2013  14 01  -21.0158 26079.0 -03493.6 -07.6300 26312.0
 15 09 2013  14 02  -21.0155 26079.1 -03493.6 -07.6301 26312.0
 15 09 2013  14 03  -21.0153 26079.3 -03493.7 -07.6302 26312.3
 15 09 2013  14 04  -21.0151 26079.5 -03493.8 -07.6304 26312.5
 15 09 2013  14 05  -21.0150 26079.5 -03493.8 -07.6303 26312.5
 15 09 2013  14 06  -21.0148 26079.6 -03493.8 -07.6303 26312.5
 15 09 2013  14 07  -21.0147 26079.5 -03493.7 -07.6302 26312.5
 15 09 2013  14 08  -21.0145 26079.5 -03493.7 -07.6302 26312.5
 15 09 2013  14 09  -21.0143 26079.5 -03493.8 -07.6302 26312.5
 15 09 2013  14 10  -21.0144 26079.6 -03493.8 -07.6302 26312.5
 15 09 2013  14 11  -21.0144 26079.3 -03493.7 -07.6301 26312.3
 15 09 2013  14 12  -21.0143 26079.1 -03493.6 -07.6299 26312.0
 15 09 2013  14 13  -21.0142 26079.2 -03493.7 -07.6301 26312.1
 15 09 2013  14 14  -21.0143 26079.3 -03493.8 -07.6303 26312.3
 15 09 2013  14 15  -21.0142 26079.5 -03493.9 -07.6305 26312.5
 15 09 2013  14 16  -21.0143 26079.7 -03494.0 -07.6307 26312.7
 15 09 2013  14 17  -21.0143 26079.8 -03494.0 -07.6307 26312.8
 15 09 2013  14 18  -21.0143 26079.8 -03494.0 -07.6307 26312.8
 15 09 2013  14 19  -21.0141 26079.9 -03494.1 -07.6308 26312.9
 15 09 2013  14 20  -21.0142 26080.0 -03494.2 -07.6309 26313.1
 15 09 2013  14 21  -21.0141 26080.1 -03494.2 -07.6310 26313.2
 15 09 2013  14 22  -21.0141 26080.3 -03494.3 -07.6313 26313.4
 15 09 2013  14 23  -21.0141 26080.4 -03494.4 -07.6314 26313.5
 15 09 2013  14 24  -21.0140 26080.5 -03494.5 -07.6315 26313.5
 15 09 2013  14 25  -21.0137 26080.5 -03494.5 -07.6315 26313.6
 15 09 2013  14 26  -21.0135 26080.6 -03494.6 -07.6317 26313.6
 15 09 2013  14 27  -21.0134 26080.7 -03494.7 -07.6319 26313.8
 15 09 2013  14 28  -21.0133 26080.9 -03494.8 -07.6321 26314.1
 15 09 2013  14 29  -21.0133 26081.1 -03494.9 -07.6323 26314.3
 15 09 2013  14 30  -21.0132 26081.0 -03494.9 -07.6322 26314.1
 15 09 2013  14 31  -21.0129 26080.8 -03494.8 -07.6321 26313.9
 15 09 2013  14 32  -21.0129 26080.8 -03494.9 -07.6324 26313.9
 15 09 2013  14 33  -21.0130 26081.0 -03495.2 -07.6328 26314.2
 15 09 2013  14 34  -21.0131 26081.2 -03495.3 -07.6330 26314.4
 15 09 2013  14 35  -21.0130 26081.2 -03495.3 -07.6332 26314.4
 15 09 2013  14 36  -21.0128 26081.2 -03495.4 -07.6333 26314.4
 15 09 2013  14 37  -21.0126 26081.2 -03495.5 -07.6335 26314.4
 15 09 2013  14 38  -21.0125 26081.3 -03495.6 -07.6338 26314.5
 15 09 2013  14 39  -21.0126 26081.4 -03495.8 -07.6342 26314.6
 15 09 2013  14 40  -21.0127 26081.5 -03496.0 -07.6345 26314.8
 15 09 2013  14 41  -21.0128 26081.5 -03496.1 -07.6347 26314.8
 15 09 2013  14 42  -21.0131 26081.8 -03496.3 -07.6351 26315.1
 15 09 2013  14 43  -21.0134 26081.8 -03496.4 -07.6353 26315.1
 15 09 2013  14 44  -21.0135 26081.6 -03496.4 -07.6353 26314.9
 15 09 2013  14 45  -21.0136 26081.3 -03496.4 -07.6353 26314.6
 15 09 2013  14 46  -21.0139 26081.3 -03496.5 -07.6356 26314.6
 15 09 2013  14 47  -21.0142 26081.1 -03496.5 -07.6357 26314.4
 15 09 2013  14 48  -21.0142 26080.8 -03496.5 -07.6358 26314.1
 15 09 2013  14 49  -21.0143 26080.6 -03496.6 -07.6360 26313.9
 15 09 2013  14 50  -21.0145 26080.5 -03496.7 -07.6362 26313.8
 15 09 2013  14 51  -21.0146 26080.5 -03496.8 -07.6365 26313.9
 15 09 2013  14 52  -21.0149 26080.4 -03496.9 -07.6367 26313.8
 15 09 2013  14 53  -21.0151 26080.4 -03497.0 -07.6370 26313.8
 15 09 2013  14 54  -21.0154 26080.3 -03497.0 -07.6371 26313.7
 15 09 2013  14 55  -21.0156 26080.1 -03497.1 -07.6372 26313.5
 15 09 2013  14 56  -21.0158 26080.2 -03497.2 -07.6374 26313.6
 15 09 2013  14 57  -21.0161 26080.4 -03497.4 -07.6378 26313.9
 15 09 2013  14 58  -21.0164 26080.6 -03497.5 -07.6379 26314.1
 15 09 2013  14 59  -21.0167 26080.6 -03497.5 -07.6380 26314.0
 15 09 2013  15 00  -21.0169 26080.6 -03497.5 -07.6380 26314.0
 15 09 2013  15 01  -21.0171 26080.5 -03497.5 -07.6380 26313.9
 15 09 2013  15 02  -21.0173 26080.4 -03497.5 -07.6380 26313.8
 15 09 2013  15 03  -21.0175 26080.3 -03497.5 -07.6381 26313.7
 15 09 2013  15 04  -21.0177 26080.2 -03497.5 -07.6382 26313.7
 15 09 2013  15 05  -21.0181 26080.1 -03497.6 -07.6382 26313.6
 15 09 2013  15 06  -21.0182 26079.9 -03497.5 -07.6382 26313.4
 15 09 2013  15 07  -21.0183 26079.6 -03497.4 -07.6381 26313.1
 15 09 2013  15 08  -21.0185 26079.6 -03497.6 -07.6384 26313.1
 15 09 2013  15 09  -21.0187 26079.8 -03497.7 -07.6386 26313.3
 15 09 2013  15 10  -21.0188 26079.7 -03497.7 -07.6387 26313.2
 15 09 2013  15 11  -21.0191 26079.8 -03497.9 -07.6390 26313.4
 15 09 2013  15 12  -21.0193 26079.9 -03497.9 -07.6391 26313.5
 15 09 2013  15 13  -21.0195 26080.1 -03498.0 -07.6392 26313.6
 15 09 2013  15 14  -21.0199 26080.3 -03498.1 -07.6393 26313.9
 15 09 2013  15 15  -21.0202 26080.3 -03498.0 -07.6392 26313.9
 15 09 2013  15 16  -21.0204 26080.3 -03497.9 -07.6390 26313.8
 15 09 2013  15 17  -21.0208 26080.1 -03497.8 -07.6389 26313.7
 15 09 2013  15 18  -21.0210 26079.9 -03497.7 -07.6387 26313.4
 15 09 2013  15 19  -21.0211 26079.5 -03497.5 -07.6384 26313.0
 15 09 2013  15 20  -21.0214 26079.5 -03497.6 -07.6385 26313.0
 15 09 2013  15 21  -21.0218 26079.0 -03497.3 -07.6381 26312.5
 15 09 2013  15 22  -21.0214 26078.3 -03497.1 -07.6377 26311.7
 15 09 2013  15 23  -21.0215 26078.1 -03497.1 -07.6380 26311.5
 15 09 2013  15 24  -21.0217 26078.2 -03497.3 -07.6383 26311.6
 15 09 2013  15 25  -21.0222 26078.3 -03497.5 -07.6386 26311.8
 15 09 2013  15 26  -21.0226 26078.6 -03497.6 -07.6388 26312.1
 15 09 2013  15 27  -21.0229 26078.6 -03497.6 -07.6387 26312.1
 15 09 2013  15 28  -21.0230 26078.2 -03497.3 -07.6383 26311.7
 15 09 2013  15 29  -21.0230 26077.7 -03497.1 -07.6379 26311.1
 15 09 2013  15 30  -21.0232 26077.2 -03497.0 -07.6379 26310.7
 15 09 2013  15 31  -21.0235 26076.9 -03496.9 -07.6378 26310.3
 15 09 2013  15 32  -21.0238 26076.8 -03497.0 -07.6379 26310.2
 15 09 2013  15 33  -21.0242 26076.8 -03497.0 -07.6381 26310.2
 15 09 2013  15 34  -21.0246 26076.6 -03497.0 -07.6381 26310.0
 15 09 2013  15 35  -21.0249 26076.5 -03497.0 -07.6380 26309.9
 15 09 2013  15 36  -21.0254 26076.3 -03496.9 -07.6379 26309.7
 15 09 2013  15 37  -21.0256 26076.1 -03496.8 -07.6379 26309.5
 15 09 2013  15 38  -21.0259 26076.0 -03496.8 -07.6378 26309.4
 15 09 2013  15 39  -21.0262 26075.9 -03496.8 -07.6379 26309.3
 15 09 2013  15 40  -21.0267 26075.9 -03496.9 -07.6380 26309.4
 15 09 2013  15 41  -21.0273 26076.2 -03497.0 -07.6381 26309.6
 15 09 2013  15 42  -21.0279 26076.4 -03497.0 -07.6381 26309.8
 15 09 2013  15 43  -21.0286 26076.6 -03497.0 -07.6381 26310.1
 15 09 2013  15 44  -21.0292 26076.8 -03497.0 -07.6380 26310.2
 15 09 2013  15 45  -21.0298 26077.0 -03497.0 -07.6379 26310.4
 15 09 2013  15 46  -21.0305 26077.3 -03497.0 -07.6379 26310.7
 15 09 2013  15 47  -21.0312 26077.5 -03497.0 -07.6378 26310.9
 15 09 2013  15 48  -21.0317 26077.5 -03496.9 -07.6375 26310.9
 15 09 2013  15 49  -21.0322 26077.6 -03496.8 -07.6373 26311.0
 15 09 2013  15 50  -21.0329 26077.9 -03496.8 -07.6373 26311.3
 15 09 2013  15 51  -21.0337 26078.2 -03496.8 -07.6373 26311.6
 15 09 2013  15 52  -21.0341 26078.2 -03496.7 -07.6370 26311.6
 15 09 2013  15 53  -21.0347 26078.1 -03496.6 -07.6367 26311.5
 15 09 2013  15 54  -21.0353 26078.1 -03496.4 -07.6364 26311.5
 15 09 2013  15 55  -21.0360 26078.2 -03496.4 -07.6363 26311.5
 15 09 2013  15 56  -21.0368 26078.1 -03496.2 -07.6360 26311.4
 15 09 2013  15 57  -21.0370 26077.8 -03496.0 -07.6356 26311.1
 15 09 2013  15 58  -21.0372 26077.5 -03495.8 -07.6353 26310.8
 15 09 2013  15 59  -21.0374 26077.2 -03495.7 -07.6351 26310.4
 15 09 2013  16 00  -21.0374 26076.8 -03495.5 -07.6348 26310.0
 15 09 2013  16 01  -21.0377 26076.5 -03495.5 -07.6348 26309.7
 15 09 2013  16 02  -21.0381 26076.3 -03495.5 -07.6348 26309.5
 15 09 2013  16 03  -21.0383 26076.2 -03495.5 -07.6348 26309.4
 15 09 2013  16 04  -21.0387 26076.1 -03495.4 -07.6348 26309.3
 15 09 2013  16 05  -21.0388 26075.8 -03495.3 -07.6347 26309.0
 15 09 2013  16 06  -21.0389 26075.5 -03495.2 -07.6345 26308.7
 15 09 2013  16 07  -21.0390 26075.3 -03495.1 -07.6344 26308.5
 15 09 2013  16 08  -21.0392 26075.2 -03495.1 -07.6344 26308.4
 15 09 2013  16 09  -21.0396 26075.1 -03495.0 -07.6343 26308.3
 15 09 2013  16 10  -21.0400 26075.0 -03495.0 -07.6341 26308.2
 15 09 2013  16 11  -21.0404 26074.8 -03494.8 -07.6338 26308.0
 15 09 2013  16 12  -21.0404 26074.5 -03494.5 -07.6334 26307.7
 15 09 2013  16 13  -21.0403 26074.3 -03494.4 -07.6331 26307.4
 15 09 2013  16 14  -21.0401 26074.1 -03494.3 -07.6329 26307.2
 15 09 2013  16 15  -21.0401 26073.9 -03494.2 -07.6327 26307.0
 15 09 2013  16 16  -21.0401 26073.8 -03494.0 -07.6325 26306.9
 15 09 2013  16 17  -21.0401 26073.7 -03493.9 -07.6322 26306.8
 15 09 2013  16 18  -21.0401 26073.6 -03493.8 -07.6319 26306.7
 15 09 2013  16 19  -21.0400 26073.5 -03493.6 -07.6316 26306.5
 15 09 2013  16 20  -21.0399 26073.5 -03493.5 -07.6313 26306.5
 15 09 2013  16 21  -21.0401 26073.5 -03493.4 -07.6311 26306.5
 15 09 2013  16 22  -21.0401 26073.3 -03493.1 -07.6306 26306.2
 15 09 2013  16 23  -21.0400 26072.9 -03492.8 -07.6301 26305.8
 15 09 2013  16 24  -21.0396 26072.6 -03492.4 -07.6294 26305.5
 15 09 2013  16 25  -21.0395 26072.4 -03492.4 -07.6294 26305.2
 15 09 2013  16 26  -21.0395 26072.3 -03492.4 -07.6293 26305.2
 15 09 2013  16 27  -21.0395 26072.1 -03492.2 -07.6291 26305.0
 15 09 2013  16 28  -21.0395 26071.9 -03492.0 -07.6287 26304.7
 15 09 2013  16 29  -21.0398 26071.9 -03491.9 -07.6284 26304.7
 15 09 2013  16 30  -21.0401 26071.8 -03491.8 -07.6282 26304.6
 15 09 2013  16 31  -21.0401 26071.9 -03491.6 -07.6279 26304.6
 15 09 2013  16 32  -21.0403 26071.9 -03491.5 -07.6276 26304.7
 15 09 2013  16 33  -21.0405 26071.9 -03491.4 -07.6272 26304.6
 15 09 2013  16 34  -21.0405 26071.7 -03491.1 -07.6267 26304.4
 15 09 2013  16 35  -21.0406 26071.5 -03490.8 -07.6262 26304.2
 15 09 2013  16 36  -21.0407 26071.3 -03490.6 -07.6258 26303.9
 15 09 2013  16 37  -21.0407 26071.2 -03490.5 -07.6255 26303.9
 15 09 2013  16 38  -21.0411 26071.3 -03490.4 -07.6253 26304.0
 15 09 2013  16 39  -21.0411 26071.4 -03490.2 -07.6249 26304.0
 15 09 2013  16 40  -21.0412 26071.3 -03490.0 -07.6246 26303.8
 15 09 2013  16 41  -21.0413 26071.2 -03489.8 -07.6241 26303.7
 15 09 2013  16 42  -21.0414 26071.1 -03489.7 -07.6238 26303.6
 15 09 2013  16 43  -21.0413 26071.0 -03489.5 -07.6234 26303.5
 15 09 2013  16 44  -21.0413 26070.9 -03489.3 -07.6231 26303.4
 15 09 2013  16 45  -21.0414 26070.8 -03489.2 -07.6228 26303.3
 15 09 2013  16 46  -21.0414 26070.6 -03489.0 -07.6225 26303.1
 15 09 2013  16 47  -21.0413 26070.5 -03488.8 -07.6222 26302.9
 15 09 2013  16 48  -21.0412 26070.3 -03488.7 -07.6219 26302.7
 15 09 2013  16 49  -21.0410 26070.2 -03488.6 -07.6217 26302.6
 15 09 2013  16 50  -21.0410 26070.2 -03488.5 -07.6216 26302.6
 15 09 2013  16 51  -21.0411 26070.2 -03488.4 -07.6214 26302.5
 15 09 2013  16 52  -21.0409 26070.1 -03488.3 -07.6212 26302.4
 15 09 2013  16 53  -21.0407 26070.0 -03488.2 -07.6210 26302.3
 15 09 2013  16 54  -21.0405 26069.9 -03488.1 -07.6208 26302.2
 15 09 2013  16 55  -21.0404 26070.0 -03488.1 -07.6206 26302.4
 15 09 2013  16 56  -21.0402 26069.5 -03487.8 -07.6202 26301.8
 15 09 2013  16 57  -21.0397 26069.4 -03487.6 -07.6199 26301.7
 15 09 2013  16 58  -21.0394 26069.4 -03487.6 -07.6199 26301.7
 15 09 2013  16 59  -21.0389 26069.1 -03487.4 -07.6196 26301.3
 15 09 2013  17 00  -21.0384 26069.1 -03487.4 -07.6195 26301.3
 15 09 2013  17 01  -21.0382 26068.9 -03487.3 -07.6194 26301.2
 15 09 2013  17 02  -21.0377 26068.8 -03487.2 -07.6191 26301.0
 15 09 2013  17 03  -21.0373 26068.8 -03487.1 -07.6190 26301.0
 15 09 2013  17 04  -21.0369 26068.8 -03487.1 -07.6189 26301.0
 15 09 2013  17 05  -21.0366 26068.6 -03486.9 -07.6186 26300.8
 15 09 2013  17 06  -21.0364 26068.5 -03486.9 -07.6185 26300.7
 15 09 2013  17 07  -21.0358 26068.2 -03486.6 -07.6181 26300.3
 15 09 2013  17 08  -21.0353 26068.2 -03486.6 -07.6181 26300.4
 15 09 2013  17 09  -21.0350 26068.2 -03486.6 -07.6180 26300.3
 15 09 2013  17 10  -21.0346 26068.1 -03486.5 -07.6179 26300.2
 15 09 2013  17 11  -21.0343 26068.1 -03486.5 -07.6178 26300.2
 15 09 2013  17 12  -21.0339 26067.9 -03486.3 -07.6175 26300.0
 15 09 2013  17 13  -21.0337 26067.8 -03486.2 -07.6174 26299.8
 15 09 2013  17 14  -21.0334 26067.5 -03486.1 -07.6172 26299.6
 15 09 2013  17 15  -21.0332 26067.4 -03486.0 -07.6170 26299.4
 15 09 2013  17 16  -21.0330 26067.3 -03485.9 -07.6168 26299.4
 15 09 2013  17 17  -21.0327 26067.1 -03485.8 -07.6165 26299.1
 15 09 2013  17 18  -21.0323 26066.6 -03485.5 -07.6162 26298.6
 15 09 2013  17 19  -21.0317 26066.2 -03485.4 -07.6160 26298.2
 15 09 2013  17 20  -21.0314 26066.1 -03485.4 -07.6159 26298.1
 15 09 2013  17 21  -21.0312 26066.3 -03485.4 -07.6160 26298.3
 15 09 2013  17 22  -21.0310 26066.4 -03485.5 -07.6161 26298.4
 15 09 2013  17 23  -21.0309 26066.4 -03485.4 -07.6160 26298.4
 15 09 2013  17 24  -21.0307 26066.3 -03485.3 -07.6158 26298.3
 15 09 2013  17 25  -21.0308 26066.4 -03485.3 -07.6158 26298.4
 15 09 2013  17 26  -21.0308 26066.6 -03485.3 -07.6156 26298.6
 15 09 2013  17 27  -21.0309 26066.7 -03485.2 -07.6154 26298.7
 15 09 2013  17 28  -21.0306 26066.5 -03484.8 -07.6147 26298.5
 15 09 2013  17 29  -21.0305 26066.4 -03484.6 -07.6143 26298.3
 15 09 2013  17 30  -21.0304 26066.2 -03484.3 -07.6138 26298.0
 15 09 2013  17 31  -21.0299 26065.6 -03484.0 -07.6131 26297.4
 15 09 2013  17 32  -21.0298 26064.9 -03483.6 -07.6125 26296.7
 15 09 2013  17 33  -21.0293 26064.3 -03483.3 -07.6121 26296.0
 15 09 2013  17 34  -21.0290 26063.9 -03483.2 -07.6120 26295.6
 15 09 2013  17 35  -21.0286 26063.7 -03483.3 -07.6121 26295.5
 15 09 2013  17 36  -21.0284 26063.6 -03483.2 -07.6121 26295.3
 15 09 2013  17 37  -21.0281 26063.3 -03483.0 -07.6118 26295.0
 15 09 2013  17 38  -21.0281 26062.7 -03482.8 -07.6114 26294.4
 15 09 2013  17 39  -21.0281 26062.0 -03482.4 -07.6108 26293.7
 15 09 2013  17 40  -21.0277 26061.3 -03482.1 -07.6104 26292.9
 15 09 2013  17 41  -21.0275 26061.2 -03482.2 -07.6106 26292.8
 15 09 2013  17 42  -21.0275 26061.2 -03482.3 -07.6108 26292.8
 15 09 2013  17 43  -21.0274 26061.7 -03482.5 -07.6111 26293.3
 15 09 2013  17 44  -21.0277 26061.6 -03482.5 -07.6111 26293.3
 15 09 2013  17 45  -21.0275 26061.4 -03482.4 -07.6108 26293.1
 15 09 2013  17 46  -21.0278 26061.9 -03482.5 -07.6110 26293.5
 15 09 2013  17 47  -21.0279 26061.7 -03482.3 -07.6107 26293.3
 15 09 2013  17 48  -21.0277 26061.0 -03482.0 -07.6101 26292.6
 15 09 2013  17 49  -21.0274 26060.4 -03481.6 -07.6095 26291.9
 15 09 2013  17 50  -21.0272 26059.8 -03481.4 -07.6091 26291.4
 15 09 2013  17 51  -21.0271 26059.3 -03481.2 -07.6089 26290.8
 15 09 2013  17 52  -21.0267 26058.7 -03481.0 -07.6086 26290.1
 15 09 2013  17 53  -21.0266 26058.7 -03481.1 -07.6089 26290.2
 15 09 2013  17 54  -21.0265 26058.1 -03480.9 -07.6087 26289.5
 15 09 2013  17 55  -21.0262 26058.3 -03481.1 -07.6090 26289.8
 15 09 2013  17 56  -21.0261 26058.2 -03481.1 -07.6091 26289.7
 15 09 2013  17 57  -21.0259 26058.3 -03481.2 -07.6092 26289.8
 15 09 2013  17 58  -21.0259 26058.5 -03481.3 -07.6093 26290.0
 15 09 2013  17 59  -21.0258 26058.3 -03481.1 -07.6091 26289.8
 15 09 2013  18 00  -21.0253 26057.8 -03480.9 -07.6087 26289.3
 15 09 2013  18 01  -21.0249 26057.5 -03480.7 -07.6085 26288.9
 15 09 2013  18 02  -21.0248 26057.5 -03480.8 -07.6086 26288.9
 15 09 2013  18 03  -21.0250 26057.9 -03480.9 -07.6088 26289.3
 15 09 2013  18 04  -21.0247 26057.6 -03480.7 -07.6084 26289.0
 15 09 2013  18 05  -21.0244 26057.1 -03480.4 -07.6079 26288.5
 15 09 2013  18 06  -21.0241 26056.6 -03480.1 -07.6074 26288.0
 15 09 2013  18 07  -21.0238 26056.2 -03480.0 -07.6071 26287.6
 15 09 2013  18 08  -21.0236 26056.2 -03480.0 -07.6073 26287.5
 15 09 2013  18 09  -21.0236 26056.1 -03480.0 -07.6072 26287.4
 15 09 2013  18 10  -21.0235 26055.8 -03479.8 -07.6069 26287.2
 15 09 2013  18 11  -21.0231 26055.4 -03479.5 -07.6065 26286.7
 15 09 2013  18 12  -21.0225 26055.3 -03479.5 -07.6064 26286.6
 15 09 2013  18 13  -21.0222 26055.4 -03479.5 -07.6065 26286.7
 15 09 2013  18 14  -21.0221 26055.1 -03479.4 -07.6063 26286.4
 15 09 2013  18 15  -21.0219 26055.1 -03479.4 -07.6063 26286.4
 15 09 2013  18 16  -21.0217 26054.9 -03479.3 -07.6061 26286.2
 15 09 2013  18 17  -21.0215 26054.9 -03479.3 -07.6060 26286.2
 15 09 2013  18 18  -21.0212 26054.8 -03479.2 -07.6059 26286.1
 15 09 2013  18 19  -21.0211 26054.6 -03479.1 -07.6058 26285.9
 15 09 2013  18 20  -21.0210 26054.6 -03479.1 -07.6057 26285.8
 15 09 2013  18 21  -21.0208 26054.4 -03479.0 -07.6055 26285.7
 15 09 2013  18 22  -21.0207 26054.3 -03478.9 -07.6054 26285.5
 15 09 2013  18 23  -21.0207 26054.1 -03478.8 -07.6053 26285.4
 15 09 2013  18 24  -21.0206 26053.9 -03478.7 -07.6052 26285.2
 15 09 2013  18 25  -21.0204 26053.9 -03478.7 -07.6051 26285.1
 15 09 2013  18 26  -21.0204 26053.8 -03478.7 -07.6051 26285.0
 15 09 2013  18 27  -21.0203 26053.7 -03478.6 -07.6050 26284.9
 15 09 2013  18 28  -21.0202 26053.7 -03478.5 -07.6048 26284.9
 15 09 2013  18 29  -21.0199 26053.6 -03478.5 -07.6048 26284.8
 15 09 2013  18 30  -21.0199 26053.6 -03478.5 -07.6047 26284.8
 15 09 2013  18 31  -21.0197 26053.5 -03478.4 -07.6046 26284.7
 15 09 2013  18 32  -21.0198 26053.4 -03478.3 -07.6045 26284.6
 15 09 2013  18 33  -21.0196 26053.2 -03478.2 -07.6042 26284.4
 15 09 2013  18 34  -21.0192 26053.0 -03478.0 -07.6039 26284.1
 15 09 2013  18 35  -21.0192 26053.0 -03478.1 -07.6041 26284.1
 15 09 2013  18 36  -21.0193 26053.1 -03478.1 -07.6041 26284.2
 15 09 2013  18 37  -21.0192 26052.9 -03478.1 -07.6040 26284.1
 15 09 2013  18 38  -21.0192 26052.7 -03477.9 -07.6038 26283.9
 15 09 2013  18 39  -21.0191 26052.5 -03477.8 -07.6035 26283.6
 15 09 2013  18 40  -21.0191 26052.4 -03477.7 -07.6034 26283.5
 15 09 2013  18 41  -21.0191 26052.2 -03477.6 -07.6031 26283.3
 15 09 2013  18 42  -21.0189 26052.0 -03477.4 -07.6029 26283.0
 15 09 2013  18 43  -21.0188 26051.7 -03477.2 -07.6026 26282.7
 15 09 2013  18 44  -21.0185 26051.3 -03477.0 -07.6023 26282.3
 15 09 2013  18 45  -21.0181 26050.9 -03476.9 -07.6021 26281.9
 15 09 2013  18 46  -21.0176 26050.7 -03476.9 -07.6021 26281.7
 15 09 2013  18 47  -21.0172 26050.6 -03476.9 -07.6021 26281.6
 15 09 2013  18 48  -21.0170 26050.6 -03476.9 -07.6022 26281.6
 15 09 2013  18 49  -21.0168 26050.6 -03476.9 -07.6023 26281.6
 15 09 2013  18 50  -21.0166 26050.6 -03476.9 -07.6022 26281.6
 15 09 2013  18 51  -21.0163 26050.3 -03476.9 -07.6022 26281.3
 15 09 2013  18 52  -21.0161 26050.2 -03476.9 -07.6022 26281.2
 15 09 2013  18 53  -21.0159 26050.1 -03476.9 -07.6022 26281.1
 15 09 2013  18 54  -21.0157 26049.9 -03476.8 -07.6021 26280.9
 15 09 2013  18 55  -21.0154 26049.5 -03476.6 -07.6019 26280.5
 15 09 2013  18 56  -21.0150 26049.1 -03476.5 -07.6018 26280.1
 15 09 2013  18 57  -21.0146 26048.7 -03476.5 -07.6018 26279.7
 15 09 2013  18 58  -21.0143 26048.6 -03476.6 -07.6020 26279.6
 15 09 2013  18 59  -21.0142 26048.6 -03476.7 -07.6022 26279.6
 15 09 2013  19 00  -21.0140 26048.5 -03476.7 -07.6024 26279.5
 15 09 2013  19 01  -21.0136 26048.2 -03476.7 -07.6024 26279.2
 15 09 2013  19 02  -21.0133 26047.9 -03476.7 -07.6024 26278.9
 15 09 2013  19 03  -21.0129 26047.6 -03476.7 -07.6025 26278.6
 15 09 2013  19 04  -21.0125 26047.4 -03476.7 -07.6027 26278.4
 15 09 2013  19 05  -21.0122 26047.2 -03476.9 -07.6030 26278.2
 15 09 2013  19 06  -21.0117 26047.2 -03477.0 -07.6033 26278.2
 15 09 2013  19 07  -21.0116 26047.2 -03477.2 -07.6038 26278.3
 15 09 2013  19 08  -21.0113 26047.1 -03477.3 -07.6040 26278.2
 15 09 2013  19 09  -21.0110 26046.9 -03477.3 -07.6042 26278.0
 15 09 2013  19 10  -21.0106 26046.8 -03477.4 -07.6044 26277.9
 15 09 2013  19 11  -21.0105 26046.8 -03477.5 -07.6047 26277.9
 15 09 2013  19 12  -21.0104 26046.8 -03477.7 -07.6050 26277.9
 15 09 2013  19 13  -21.0104 26046.7 -03477.8 -07.6052 26277.8
 15 09 2013  19 14  -21.0103 26046.6 -03477.9 -07.6054 26277.7
 15 09 2013  19 15  -21.0101 26046.4 -03477.9 -07.6056 26277.6
 15 09 2013  19 16  -21.0100 26046.4 -03478.1 -07.6059 26277.6
 15 09 2013  19 17  -21.0101 26046.4 -03478.2 -07.6062 26277.6
 15 09 2013  19 18  -21.0102 26046.3 -03478.3 -07.6064 26277.6
 15 09 2013  19 19  -21.0104 26046.1 -03478.3 -07.6064 26277.3
 15 09 2013  19 20  -21.0106 26046.1 -03478.4 -07.6066 26277.4
 15 09 2013  19 21  -21.0107 26046.0 -03478.4 -07.6067 26277.2
 15 09 2013  19 22  -21.0102 26045.8 -03478.4 -07.6068 26277.1
 15 09 2013  19 23  -21.0103 26045.8 -03478.6 -07.6071 26277.1
 15 09 2013  19 24  -21.0099 26045.8 -03478.6 -07.6073 26277.1
 15 09 2013  19 25  -21.0099 26045.7 -03478.7 -07.6075 26277.0
 15 09 2013  19 26  -21.0098 26045.5 -03478.8 -07.6077 26276.8
 15 09 2013  19 27  -21.0098 26045.4 -03478.9 -07.6079 26276.8
 15 09 2013  19 28  -21.0096 26045.3 -03478.9 -07.6080 26276.6
 15 09 2013  19 29  -21.0095 26045.2 -03478.9 -07.6081 26276.5
 15 09 2013  19 30  -21.0093 26044.9 -03478.9 -07.6082 26276.3
 15 09 2013  19 31  -21.0092 26044.6 -03478.9 -07.6082 26275.9
 15 09 2013  19 32  -21.0089 26044.2 -03478.8 -07.6082 26275.5
 15 09 2013  19 33  -21.0086 26043.9 -03478.8 -07.6082 26275.2
 15 09 2013  19 34  -21.0082 26043.6 -03478.7 -07.6082 26274.9
 15 09 2013  19 35  -21.0077 26043.4 -03478.8 -07.6083 26274.7
 15 09 2013  19 36  -21.0075 26043.3 -03478.8 -07.6084 26274.6
 15 09 2013  19 37  -21.0073 26043.1 -03478.9 -07.6087 26274.5
 15 09 2013  19 38  -21.0072 26042.9 -03478.9 -07.6088 26274.2
 15 09 2013  19 39  -21.0070 26042.7 -03479.0 -07.6089 26274.0
 15 09 2013  19 40  -21.0067 26042.7 -03479.1 -07.6093 26274.1
 15 09 2013  19 41  -21.0070 26043.0 -03479.4 -07.6098 26274.4
 15 09 2013  19 42  -21.0069 26043.0 -03479.5 -07.6100 26274.4
 15 09 2013  19 43  -21.0072 26042.9 -03479.5 -07.6101 26274.4
 15 09 2013  19 44  -21.0072 26043.0 -03479.6 -07.6102 26274.4
 15 09 2013  19 45  -21.0074 26042.8 -03479.6 -07.6103 26274.3
 15 09 2013  19 46  -21.0074 26042.6 -03479.6 -07.6102 26274.0
 15 09 2013  19 47  -21.0076 26042.4 -03479.5 -07.6102 26273.8
 15 09 2013  19 48  -21.0074 26042.1 -03479.5 -07.6102 26273.5
 15 09 2013  19 49  -21.0074 26041.9 -03479.5 -07.6103 26273.3
 15 09 2013  19 50  -21.0073 26041.8 -03479.6 -07.6105 26273.3
 15 09 2013  19 51  -21.0071 26041.8 -03479.7 -07.6108 26273.3
 15 09 2013  19 52  -21.0073 26042.0 -03479.9 -07.6111 26273.4
 15 09 2013  19 53  -21.0074 26042.1 -03480.0 -07.6114 26273.6
 15 09 2013  19 54  -21.0077 26042.0 -03480.1 -07.6116 26273.5
 15 09 2013  19 55  -21.0077 26041.8 -03480.1 -07.6115 26273.3
 15 09 2013  19 56  -21.0076 26041.6 -03480.0 -07.6115 26273.1
 15 09 2013  19 57  -21.0074 26041.5 -03480.1 -07.6117 26273.0
 15 09 2013  19 58  -21.0073 26041.4 -03480.2 -07.6120 26272.9
 15 09 2013  19 59  -21.0072 26041.3 -03480.3 -07.6122 26272.8
 15 09 2013  20 00  -21.0070 26041.2 -03480.3 -07.6123 26272.7
 15 09 2013  20 01  -21.0070 26041.1 -03480.4 -07.6125 26272.6
 15 09 2013  20 02  -21.0070 26040.9 -03480.4 -07.6126 26272.4
 15 09 2013  20 03  -21.0071 26040.5 -03480.4 -07.6126 26272.0
 15 09 2013  20 04  -21.0070 26039.9 -03480.2 -07.6123 26271.4
 15 09 2013  20 05  -21.0069 26039.4 -03480.1 -07.6124 26270.9
 15 09 2013  20 06  -21.0068 26039.3 -03480.3 -07.6128 26270.9
 15 09 2013  20 07  -21.0068 26039.6 -03480.7 -07.6135 26271.2
 15 09 2013  20 08  -21.0070 26039.8 -03480.9 -07.6139 26271.4
 15 09 2013  20 09  -21.0070 26039.8 -03481.0 -07.6141 26271.4
 15 09 2013  20 10  -21.0070 26039.8 -03481.0 -07.6142 26271.4
 15 09 2013  20 11  -21.0071 26039.9 -03481.2 -07.6145 26271.5
 15 09 2013  20 12  -21.0072 26039.9 -03481.3 -07.6147 26271.5
 15 09 2013  20 13  -21.0072 26039.9 -03481.4 -07.6150 26271.6
 15 09 2013  20 14  -21.0075 26039.9 -03481.5 -07.6152 26271.6
 15 09 2013  20 15  -21.0077 26039.8 -03481.6 -07.6153 26271.6
 15 09 2013  20 16  -21.0077 26039.6 -03481.5 -07.6153 26271.3
 15 09 2013  20 17  -21.0077 26039.4 -03481.5 -07.6154 26271.1
 15 09 2013  20 18  -21.0079 26039.2 -03481.6 -07.6155 26270.9
 15 09 2013  20 19  -21.0079 26039.1 -03481.6 -07.6156 26270.8
 15 09 2013  20 20  -21.0080 26039.0 -03481.6 -07.6156 26270.7
 15 09 2013  20 21  -21.0081 26038.9 -03481.6 -07.6157 26270.6
 15 09 2013  20 22  -21.0082 26038.7 -03481.6 -07.6157 26270.5
 15 09 2013  20 23  -21.0083 26038.6 -03481.6 -07.6158 26270.3
 15 09 2013  20 24  -21.0085 26038.3 -03481.5 -07.6157 26270.0
 15 09 2013  20 25  -21.0084 26038.2 -03481.5 -07.6158 26269.9
 15 09 2013  20 26  -21.0085 26038.1 -03481.6 -07.6159 26269.8
 15 09 2013  20 27  -21.0086 26038.1 -03481.6 -07.6160 26269.8
 15 09 2013  20 28  -21.0086 26037.9 -03481.7 -07.6161 26269.6
 15 09 2013  20 29  -21.0087 26037.6 -03481.6 -07.6162 26269.3
 15 09 2013  20 30  -21.0087 26037.4 -03481.7 -07.6162 26269.2
 15 09 2013  20 31  -21.0087 26037.3 -03481.7 -07.6164 26269.0
 15 09 2013  20 32  -21.0088 26037.2 -03481.7 -07.6165 26268.9
 15 09 2013  20 33  -21.0089 26037.0 -03481.8 -07.6167 26268.8
 15 09 2013  20 34  -21.0089 26037.0 -03481.9 -07.6168 26268.8
 15 09 2013  20 35  -21.0090 26036.8 -03481.9 -07.6169 26268.6
 15 09 2013  20 36  -21.0091 26036.7 -03481.9 -07.6171 26268.5
 15 09 2013  20 37  -21.0092 26036.6 -03482.0 -07.6173 26268.4
 15 09 2013  20 38  -21.0094 26036.4 -03482.1 -07.6175 26268.3
 15 09 2013  20 39  -21.0095 26036.4 -03482.2 -07.6176 26268.2
 15 09 2013  20 40  -21.0097 26036.4 -03482.3 -07.6179 26268.3
 15 09 2013  20 41  -21.0097 26036.5 -03482.4 -07.6182 26268.3
 15 09 2013  20 42  -21.0098 26036.5 -03482.6 -07.6184 26268.4
 15 09 2013  20 43  -21.0100 26036.5 -03482.6 -07.6186 26268.4
 15 09 2013  20 44  -21.0100 26036.4 -03482.6 -07.6186 26268.3
 15 09 2013  20 45  -21.0102 26036.1 -03482.6 -07.6186 26268.0
 15 09 2013  20 46  -21.0102 26036.1 -03482.6 -07.6188 26268.0
 15 09 2013  20 47  -21.0103 26036.1 -03482.8 -07.6190 26268.0
 15 09 2013  20 48  -21.0104 26036.2 -03482.9 -07.6193 26268.1
 15 09 2013  20 49  -21.0104 26036.2 -03483.0 -07.6195 26268.2
 15 09 2013  20 50  -21.0104 26036.3 -03483.1 -07.6196 26268.3
 15 09 2013  20 51  -21.0104 26036.1 -03483.1 -07.6197 26268.1
 15 09 2013  20 52  -21.0104 26035.9 -03483.0 -07.6196 26267.9
 15 09 2013  20 53  -21.0105 26035.7 -03483.0 -07.6196 26267.6
 15 09 2013  20 54  -21.0106 26035.6 -03483.0 -07.6196 26267.5
 15 09 2013  20 55  -21.0107 26035.5 -03483.0 -07.6198 26267.5
 15 09 2013  20 56  -21.0109 26035.5 -03483.1 -07.6200 26267.4
 15 09 2013  20 57  -21.0109 26035.3 -03483.1 -07.6200 26267.3
 15 09 2013  20 58  -21.0110 26035.3 -03483.2 -07.6201 26267.3
 15 09 2013  20 59  -21.0109 26035.6 -03483.4 -07.6205 26267.6
 15 09 2013  21 00  -21.0107 26036.0 -03483.6 -07.6209 26268.0
 15 09 2013  21 01  -21.0105 26036.2 -03483.7 -07.6211 26268.2
 15 09 2013  21 02  -21.0101 26036.4 -03483.9 -07.6213 26268.5
 15 09 2013  21 03  -21.0101 26036.6 -03484.0 -07.6215 26268.6
 15 09 2013  21 04  -21.0102 26036.6 -03484.1 -07.6217 26268.7
 15 09 2013  21 05  -21.0105 26036.6 -03484.1 -07.6218 26268.7
 15 09 2013  21 06  -21.0108 26036.5 -03484.1 -07.6218 26268.6
 15 09 2013  21 07  -21.0112 26036.3 -03484.1 -07.6219 26268.4
 15 09 2013  21 08  -21.0114 26036.0 -03484.0 -07.6217 26268.0
 15 09 2013  21 09  -21.0117 26035.5 -03483.8 -07.6214 26267.5
 15 09 2013  21 10  -21.0121 26034.9 -03483.5 -07.6210 26266.9
 15 09 2013  21 11  -21.0123 26034.6 -03483.4 -07.6209 26266.6
 15 09 2013  21 12  -21.0123 26034.4 -03483.4 -07.6209 26266.4
 15 09 2013  21 13  -21.0123 26034.3 -03483.4 -07.6210 26266.3
 15 09 2013  21 14  -21.0121 26034.5 -03483.6 -07.6213 26266.5
 15 09 2013  21 15  -21.0117 26034.6 -03483.7 -07.6216 26266.7
 15 09 2013  21 16  -21.0115 26034.6 -03483.9 -07.6218 26266.7
 15 09 2013  21 17  -21.0113 26034.6 -03483.9 -07.6220 26266.7
 15 09 2013  21 18  -21.0112 26034.7 -03484.0 -07.6222 26266.8
 15 09 2013  21 19  -21.0112 26034.7 -03484.1 -07.6223 26266.8
 15 09 2013  21 20  -21.0113 26034.6 -03484.1 -07.6224 26266.7
 15 09 2013  21 21  -21.0116 26034.5 -03484.1 -07.6224 26266.6
 15 09 2013  21 22  -21.0118 26034.6 -03484.2 -07.6227 26266.7
 15 09 2013  21 23  -21.0117 26034.6 -03484.3 -07.6228 26266.7
 15 09 2013  21 24  -21.0120 26034.5 -03484.3 -07.6227 26266.6
 15 09 2013  21 25  -21.0119 26034.6 -03484.3 -07.6229 26266.8
 15 09 2013  21 26  -21.0118 26034.9 -03484.5 -07.6231 26267.0
 15 09 2013  21 27  -21.0122 26034.7 -03484.5 -07.6231 26266.9
 15 09 2013  21 28  -21.0124 26034.5 -03484.4 -07.6230 26266.6
 15 09 2013  21 29  -21.0127 26034.5 -03484.4 -07.6230 26266.7
 15 09 2013  21 30  -21.0126 26034.8 -03484.5 -07.6232 26266.9
 15 09 2013  21 31  -21.0131 26034.9 -03484.6 -07.6234 26267.0
 15 09 2013  21 32  -21.0134 26034.9 -03484.7 -07.6235 26267.1
 15 09 2013  21 33  -21.0138 26034.7 -03484.6 -07.6234 26266.8
 15 09 2013  21 34  -21.0145 26034.3 -03484.4 -07.6231 26266.5
 15 09 2013  21 35  -21.0146 26034.5 -03484.4 -07.6231 26266.6
 15 09 2013  21 36  -21.0146 26034.4 -03484.4 -07.6231 26266.6
 15 09 2013  21 37  -21.0151 26034.2 -03484.3 -07.6230 26266.3
 15 09 2013  21 38  -21.0151 26034.2 -03484.3 -07.6230 26266.3
 15 09 2013  21 39  -21.0152 26034.0 -03484.2 -07.6228 26266.1
 15 09 2013  21 40  -21.0154 26033.9 -03484.2 -07.6229 26266.1
 15 09 2013  21 41  -21.0154 26033.7 -03484.2 -07.6227 26265.8
 15 09 2013  21 42  -21.0156 26033.4 -03484.0 -07.6225 26265.5
 15 09 2013  21 43  -21.0157 26033.3 -03484.0 -07.6225 26265.4
 15 09 2013  21 44  -21.0160 26033.2 -03484.0 -07.6226 26265.3
 15 09 2013  21 45  -21.0163 26033.2 -03484.1 -07.6227 26265.3
 15 09 2013  21 46  -21.0166 26033.0 -03484.0 -07.6226 26265.1
 15 09 2013  21 47  -21.0170 26032.7 -03483.9 -07.6225 26264.8
 15 09 2013  21 48  -21.0167 26032.8 -03483.9 -07.6224 26264.9
 15 09 2013  21 49  -21.0167 26032.7 -03483.9 -07.6225 26264.8
 15 09 2013  21 50  -21.0171 26032.5 -03483.9 -07.6225 26264.6
 15 09 2013  21 51  -21.0171 26032.6 -03484.0 -07.6226 26264.7
 15 09 2013  21 52  -21.0171 26032.6 -03483.9 -07.6226 26264.7
 15 09 2013  21 53  -21.0176 26032.4 -03483.9 -07.6225 26264.5
 15 09 2013  21 54  -21.0177 26032.3 -03483.9 -07.6225 26264.4
 15 09 2013  21 55  -21.0183 26032.0 -03483.8 -07.6224 26264.0
 15 09 2013  21 56  -21.0188 26031.6 -03483.6 -07.6222 26263.6
 15 09 2013  21 57  -21.0189 26031.7 -03483.7 -07.6222 26263.7
 15 09 2013  21 58  -21.0193 26031.8 -03483.8 -07.6226 26263.9
 15 09 2013  21 59  -21.0195 26031.8 -03483.9 -07.6227 26263.9
 15 09 2013  22 00  -21.0196 26031.9 -03483.9 -07.6227 26264.0
 15 09 2013  22 01  -21.0198 26031.7 -03483.8 -07.6226 26263.8
 15 09 2013  22 02  -21.0200 26031.8 -03483.9 -07.6227 26263.9
 15 09 2013  22 03  -21.0200 26031.8 -03483.9 -07.6228 26263.9
 15 09 2013  22 04  -21.0201 26031.7 -03483.9 -07.6228 26263.8
 15 09 2013  22 05  -21.0200 26031.5 -03483.8 -07.6227 26263.6
 15 09 2013  22 06  -21.0201 26031.3 -03483.7 -07.6225 26263.3
 15 09 2013  22 07  -21.0203 26031.3 -03483.8 -07.6226 26263.4
 15 09 2013  22 08  -21.0202 26031.8 -03484.1 -07.6231 26263.9
 15 09 2013  22 09  -21.0203 26032.0 -03484.2 -07.6234 26264.1
 15 09 2013  22 10  -21.0204 26032.0 -03484.3 -07.6235 26264.2
 15 09 2013  22 11  -21.0204 26032.1 -03484.3 -07.6235 26264.2
 15 09 2013  22 12  -21.0205 26032.1 -03484.3 -07.6236 26264.2
 15 09 2013  22 13  -21.0206 26032.0 -03484.3 -07.6235 26264.2
 15 09 2013  22 14  -21.0205 26032.2 -03484.3 -07.6236 26264.3
 15 09 2013  22 15  -21.0207 26032.0 -03484.3 -07.6235 26264.2
 15 09 2013  22 16  -21.0207 26032.1 -03484.4 -07.6237 26264.2
 15 09 2013  22 17  -21.0209 26031.9 -03484.3 -07.6237 26264.1
 15 09 2013  22 18  -21.0210 26031.9 -03484.3 -07.6236 26264.0
 15 09 2013  22 19  -21.0210 26031.9 -03484.3 -07.6236 26264.0
 15 09 2013  22 20  -21.0212 26031.8 -03484.3 -07.6236 26263.9
 15 09 2013  22 21  -21.0212 26031.7 -03484.3 -07.6236 26263.9
 15 09 2013  22 22  -21.0211 26031.7 -03484.3 -07.6236 26263.8
 15 09 2013  22 23  -21.0210 26031.7 -03484.3 -07.6236 26263.9
 15 09 2013  22 24  -21.0210 26031.7 -03484.3 -07.6236 26263.9
 15 09 2013  22 25  -21.0210 26031.7 -03484.3 -07.6237 26263.8
 15 09 2013  22 26  -21.0210 26031.5 -03484.3 -07.6236 26263.6
 15 09 2013  22 27  -21.0211 26031.3 -03484.2 -07.6235 26263.4
 15 09 2013  22 28  -21.0210 26031.1 -03484.1 -07.6234 26263.2
 15 09 2013  22 29  -21.0212 26030.9 -03484.1 -07.6234 26263.0
 15 09 2013  22 30  -21.0211 26030.8 -03484.0 -07.6233 26262.9
 15 09 2013  22 31  -21.0212 26030.7 -03484.0 -07.6233 26262.9
 15 09 2013  22 32  -21.0212 26030.7 -03484.1 -07.6234 26262.9
 15 09 2013  22 33  -21.0212 26030.8 -03484.2 -07.6236 26263.0
 15 09 2013  22 34  -21.0213 26030.9 -03484.2 -07.6237 26263.0
 15 09 2013  22 35  -21.0213 26030.9 -03484.3 -07.6238 26263.1
 15 09 2013  22 36  -21.0212 26031.0 -03484.3 -07.6239 26263.1
 15 09 2013  22 37  -21.0212 26031.1 -03484.4 -07.6240 26263.2
 15 09 2013  22 38  -21.0213 26031.1 -03484.5 -07.6241 26263.3
 15 09 2013  22 39  -21.0215 26031.1 -03484.5 -07.6242 26263.3
 15 09 2013  22 40  -21.0216 26031.1 -03484.5 -07.6242 26263.3
 15 09 2013  22 41  -21.0217 26031.0 -03484.5 -07.6242 26263.2
 15 09 2013  22 42  -21.0218 26031.0 -03484.4 -07.6241 26263.1
 15 09 2013  22 43  -21.0217 26030.9 -03484.4 -07.6241 26263.1
 15 09 2013  22 44  -21.0216 26030.9 -03484.4 -07.6241 26263.1
 15 09 2013  22 45  -21.0216 26030.9 -03484.4 -07.6241 26263.1
 15 09 2013  22 46  -21.0214 26031.1 -03484.5 -07.6243 26263.3
 15 09 2013  22 47  -21.0215 26031.3 -03484.7 -07.6245 26263.5
 15 09 2013  22 48  -21.0214 26031.4 -03484.8 -07.6247 26263.6
 15 09 2013  22 49  -21.0213 26031.5 -03484.8 -07.6248 26263.7
 15 09 2013  22 50  -21.0213 26031.4 -03484.8 -07.6247 26263.7
 15 09 2013  22 51  -21.0212 26031.2 -03484.7 -07.6246 26263.4
 15 09 2013  22 52  -21.0213 26031.0 -03484.6 -07.6245 26263.2
 15 09 2013  22 53  -21.0213 26030.9 -03484.6 -07.6244 26263.1
 15 09 2013  22 54  -21.0212 26030.9 -03484.6 -07.6245 26263.1
 15 09 2013  22 55  -21.0210 26031.0 -03484.7 -07.6246 26263.2
 15 09 2013  22 56  -21.0209 26031.0 -03484.7 -07.6247 26263.2
 15 09 2013  22 57  -21.0208 26030.9 -03484.7 -07.6247 26263.2
 15 09 2013  22 58  -21.0207 26030.8 -03484.7 -07.6247 26263.0
 15 09 2013  22 59  -21.0204 26030.8 -03484.7 -07.6247 26263.0
 15 09 2013  23 00  -21.0202 26030.8 -03484.7 -07.6248 26263.0
 15 09 2013  23 01  -21.0200 26030.7 -03484.7 -07.6248 26262.9
 15 09 2013  23 02  -21.0200 26030.7 -03484.7 -07.6249 26262.9
 15 09 2013  23 03  -21.0201 26030.6 -03484.8 -07.6249 26262.9
 15 09 2013  23 04  -21.0202 26030.7 -03484.8 -07.6250 26262.9
 15 09 2013  23 05  -21.0201 26030.7 -03484.9 -07.6251 26262.9
 15 09 2013  23 06  -21.0201 26030.8 -03484.9 -07.6253 26263.0
 15 09 2013  23 07  -21.0202 26030.8 -03485.0 -07.6254 26263.0
 15 09 2013  23 08  -21.0203 26030.8 -03485.0 -07.6254 26263.1
 15 09 2013  23 09  -21.0204 26030.8 -03485.0 -07.6255 26263.1
 15 09 2013  23 10  -21.0204 26030.8 -03485.1 -07.6255 26263.0
 15 09 2013  23 11  -21.0205 26030.9 -03485.1 -07.6256 26263.1
 15 09 2013  23 12  -21.0206 26030.9 -03485.2 -07.6257 26263.2
 15 09 2013  23 13  -21.0205 26031.1 -03485.2 -07.6258 26263.3
 15 09 2013  23 14  -21.0205 26031.1 -03485.3 -07.6259 26263.4
 15 09 2013  23 15  -21.0204 26031.1 -03485.3 -07.6259 26263.4
 15 09 2013  23 16  -21.0205 26031.0 -03485.3 -07.6259 26263.3
 15 09 2013  23 17  -21.0206 26031.0 -03485.2 -07.6259 26263.2
 15 09 2013  23 18  -21.0208 26030.9 -03485.2 -07.6259 26263.2
 15 09 2013  23 19  -21.0210 26031.0 -03485.3 -07.6260 26263.3
 15 09 2013  23 20  -21.0211 26031.1 -03485.4 -07.6261 26263.4
 15 09 2013  23 21  -21.0211 26030.9 -03485.2 -07.6259 26263.2
 15 09 2013  23 22  -21.0212 26031.1 -03485.3 -07.6260 26263.4
 15 09 2013  23 23  -21.0212 26031.4 -03485.5 -07.6262 26263.8
 15 09 2013  23 24  -21.0211 26031.4 -03485.5 -07.6262 26263.7
 15 09 2013  23 25  -21.0211 26031.3 -03485.5 -07.6262 26263.6
 15 09 2013  23 26  -21.0212 26031.2 -03485.4 -07.6261 26263.5
 15 09 2013  23 27  -21.0210 26031.3 -03485.4 -07.6261 26263.6
 15 09 2013  23 28  -21.0208 26031.4 -03485.5 -07.6262 26263.7
 15 09 2013  23 29  -21.0208 26031.4 -03485.5 -07.6263 26263.7
 15 09 2013  23 30  -21.0206 26031.5 -03485.6 -07.6264 26263.8
 15 09 2013  23 31  -21.0204 26031.5 -03485.5 -07.6263 26263.8
 15 09 2013  23 32  -21.0205 26031.4 -03485.5 -07.6263 26263.8
 15 09 2013  23 33  -21.0205 26031.4 -03485.5 -07.6264 26263.7
 15 09 2013  23 34  -21.0204 26031.5 -03485.6 -07.6264 26263.8
 15 09 2013  23 35  -21.0204 26031.3 -03485.5 -07.6263 26263.6
 15 09 2013  23 36  -21.0204 26031.1 -03485.4 -07.6261 26263.4
 15 09 2013  23 37  -21.0204 26030.9 -03485.3 -07.6261 26263.2
 15 09 2013  23 38  -21.0202 26030.7 -03485.2 -07.6259 26263.0
 15 09 2013  23 39  -21.0201 26030.6 -03485.2 -07.6258 26262.9
 15 09 2013  23 40  -21.0200 26030.6 -03485.2 -07.6259 26262.9
 15 09 2013  23 41  -21.0199 26030.6 -03485.2 -07.6260 26262.9
 15 09 2013  23 42  -21.0198 26030.7 -03485.3 -07.6261 26263.0
 15 09 2013  23 43  -21.0198 26030.7 -03485.4 -07.6262 26263.0
 15 09 2013  23 44  -21.0198 26030.6 -03485.3 -07.6262 26262.9
 15 09 2013  23 45  -21.0199 26030.5 -03485.3 -07.6262 26262.8
 15 09 2013  23 46  -21.0199 26030.4 -03485.3 -07.6262 26262.7
 15 09 2013  23 47  -21.0198 26030.3 -03485.3 -07.6262 26262.6
 15 09 2013  23 48  -21.0197 26030.2 -03485.3 -07.6262 26262.5
 15 09 2013  23 49  -21.0195 26030.2 -03485.3 -07.6261 26262.5
 15 09 2013  23 50  -21.0194 26030.3 -03485.3 -07.6263 26262.6
 15 09 2013  23 51  -21.0193 26030.3 -03485.4 -07.6264 26262.6
 15 09 2013  23 52  -21.0193 26030.3 -03485.4 -07.6265 26262.6
 15 09 2013  23 53  -21.0191 26030.4 -03485.5 -07.6266 26262.7
 15 09 2013  23 54  -21.0190 26030.5 -03485.6 -07.6267 26262.8
 15 09 2013  23 55  -21.0189 26030.6 -03485.6 -07.6269 26262.9
 15 09 2013  23 56  -21.0189 26030.7 -03485.7 -07.6270 26263.0
 15 09 2013  23 57  -21.0188 26030.7 -03485.8 -07.6271 26263.1
