SAO LUIS EMBRACE-03 <014> 1 Min. Reported data

 DD MM YYYY  HH MM   D(Deg)  H(nT)   Z(nT)   I(Deg)   F(nT)

 14 01 2013  00 00  -21.0125 26035.8 -03389.5 -07.4175 26255.5
 14 01 2013  00 01  -21.0124 26036.1 -03389.7 -07.4178 26255.8
 14 01 2013  00 02  -21.0122 26036.3 -03389.9 -07.4181 26256.0
 14 01 2013  00 03  -21.0123 26036.6 -03390.1 -07.4185 26256.4
 14 01 2013  00 04  -21.0126 26036.7 -03390.2 -07.4186 26256.5
 14 01 2013  00 05  -21.0128 26037.0 -03390.4 -07.4189 26256.8
 14 01 2013  00 06  -21.0131 26037.3 -03390.6 -07.4192 26257.1
 14 01 2013  00 07  -21.0130 26037.6 -03390.7 -07.4195 26257.4
 14 01 2013  00 08  -21.0131 26037.6 -03390.7 -07.4196 26257.5
 14 01 2013  00 09  -21.0130 26037.4 -03390.6 -07.4194 26257.3
 14 01 2013  00 10  -21.0124 26037.3 -03390.5 -07.4192 26257.1
 14 01 2013  00 11  -21.0121 26037.0 -03390.4 -07.4190 26256.8
 14 01 2013  00 12  -21.0125 26036.3 -03390.1 -07.4186 26256.1
 14 01 2013  00 13  -21.0129 26036.1 -03390.0 -07.4184 26255.9
 14 01 2013  00 14  -21.0130 26035.7 -03389.9 -07.4183 26255.4
 14 01 2013  00 15  -21.0132 26035.2 -03389.7 -07.4181 26254.9
 14 01 2013  00 16  -21.0140 26034.9 -03389.7 -07.4180 26254.6
 14 01 2013  00 17  -21.0148 26034.8 -03389.7 -07.4181 26254.5
 14 01 2013  00 18  -21.0157 26034.5 -03389.6 -07.4180 26254.2
 14 01 2013  00 19  -21.0162 26034.6 -03389.7 -07.4181 26254.3
 14 01 2013  00 20  -21.0165 26034.9 -03389.9 -07.4184 26254.6
 14 01 2013  00 21  -21.0171 26034.9 -03389.9 -07.4185 26254.6
 14 01 2013  00 22  -21.0175 26035.0 -03390.0 -07.4187 26254.8
 14 01 2013  00 23  -21.0178 26034.9 -03390.0 -07.4187 26254.7
 14 01 2013  00 24  -21.0182 26034.8 -03390.0 -07.4187 26254.6
 14 01 2013  00 25  -21.0181 26034.7 -03389.9 -07.4186 26254.5
 14 01 2013  00 26  -21.0180 26034.5 -03389.9 -07.4185 26254.3
 14 01 2013  00 27  -21.0180 26034.4 -03389.8 -07.4185 26254.1
 14 01 2013  00 28  -21.0183 26034.3 -03389.8 -07.4185 26254.0
 14 01 2013  00 29  -21.0186 26034.3 -03389.8 -07.4185 26254.0
 14 01 2013  00 30  -21.0191 26034.2 -03389.9 -07.4187 26254.0
 14 01 2013  00 31  -21.0194 26034.4 -03390.0 -07.4189 26254.2
 14 01 2013  00 32  -21.0197 26034.2 -03390.0 -07.4189 26254.0
 14 01 2013  00 33  -21.0205 26034.0 -03389.9 -07.4187 26253.8
 14 01 2013  00 34  -21.0213 26033.6 -03389.7 -07.4185 26253.4
 14 01 2013  00 35  -21.0218 26033.2 -03389.5 -07.4181 26253.0
 14 01 2013  00 36  -21.0224 26032.9 -03389.3 -07.4179 26252.6
 14 01 2013  00 37  -21.0233 26032.5 -03389.2 -07.4176 26252.2
 14 01 2013  00 38  -21.0241 26032.3 -03389.0 -07.4174 26252.0
 14 01 2013  00 39  -21.0252 26032.1 -03389.0 -07.4173 26251.8
 14 01 2013  00 40  -21.0264 26032.0 -03388.9 -07.4172 26251.6
 14 01 2013  00 41  -21.0277 26031.8 -03388.8 -07.4170 26251.4
 14 01 2013  00 42  -21.0287 26031.5 -03388.7 -07.4168 26251.2
 14 01 2013  00 43  -21.0295 26031.1 -03388.4 -07.4164 26250.7
 14 01 2013  00 44  -21.0300 26030.7 -03388.2 -07.4159 26250.3
 14 01 2013  00 45  -21.0303 26030.4 -03388.0 -07.4156 26249.9
 14 01 2013  00 46  -21.0305 26030.1 -03387.8 -07.4153 26249.6
 14 01 2013  00 47  -21.0306 26029.7 -03387.6 -07.4150 26249.2
 14 01 2013  00 48  -21.0307 26029.5 -03387.5 -07.4148 26249.0
 14 01 2013  00 49  -21.0307 26029.2 -03387.4 -07.4147 26248.7
 14 01 2013  00 50  -21.0310 26028.9 -03387.3 -07.4146 26248.4
 14 01 2013  00 51  -21.0315 26028.7 -03387.3 -07.4145 26248.2
 14 01 2013  00 52  -21.0321 26028.5 -03387.2 -07.4146 26248.0
 14 01 2013  00 53  -21.0320 26028.3 -03387.2 -07.4144 26247.7
 14 01 2013  00 54  -21.0315 26028.3 -03387.2 -07.4144 26247.7
 14 01 2013  00 55  -21.0306 26028.3 -03387.2 -07.4145 26247.8
 14 01 2013  00 56  -21.0300 26028.4 -03387.3 -07.4147 26247.9
 14 01 2013  00 57  -21.0297 26028.4 -03387.4 -07.4149 26247.9
 14 01 2013  00 58  -21.0295 26028.5 -03387.5 -07.4151 26248.0
 14 01 2013  00 59  -21.0294 26028.4 -03387.5 -07.4152 26248.0
 14 01 2013  01 00  -21.0289 26028.4 -03387.6 -07.4153 26247.9
 14 01 2013  01 01  -21.0282 26028.5 -03387.6 -07.4154 26248.1
 14 01 2013  01 02  -21.0274 26029.0 -03387.9 -07.4158 26248.5
 14 01 2013  01 03  -21.0266 26029.5 -03388.2 -07.4164 26249.1
 14 01 2013  01 04  -21.0261 26030.0 -03388.6 -07.4169 26249.7
 14 01 2013  01 05  -21.0257 26030.5 -03388.8 -07.4174 26250.1
 14 01 2013  01 06  -21.0248 26030.6 -03388.9 -07.4176 26250.2
 14 01 2013  01 07  -21.0238 26030.4 -03388.8 -07.4174 26250.1
 14 01 2013  01 08  -21.0231 26030.3 -03388.8 -07.4173 26250.0
 14 01 2013  01 09  -21.0221 26030.3 -03388.8 -07.4174 26250.0
 14 01 2013  01 10  -21.0211 26030.0 -03388.7 -07.4172 26249.7
 14 01 2013  01 11  -21.0205 26029.7 -03388.6 -07.4171 26249.3
 14 01 2013  01 12  -21.0204 26029.7 -03388.6 -07.4172 26249.3
 14 01 2013  01 13  -21.0207 26030.3 -03389.0 -07.4179 26250.0
 14 01 2013  01 14  -21.0208 26030.6 -03389.3 -07.4184 26250.3
 14 01 2013  01 15  -21.0206 26030.5 -03389.3 -07.4184 26250.2
 14 01 2013  01 16  -21.0205 26030.3 -03389.2 -07.4183 26250.0
 14 01 2013  01 17  -21.0208 26030.0 -03389.2 -07.4183 26249.7
 14 01 2013  01 18  -21.0207 26029.4 -03388.9 -07.4179 26249.1
 14 01 2013  01 19  -21.0203 26029.1 -03388.7 -07.4175 26248.7
 14 01 2013  01 20  -21.0195 26029.0 -03388.7 -07.4175 26248.7
 14 01 2013  01 21  -21.0187 26028.8 -03388.6 -07.4175 26248.5
 14 01 2013  01 22  -21.0182 26028.8 -03388.7 -07.4176 26248.4
 14 01 2013  01 23  -21.0182 26028.7 -03388.8 -07.4178 26248.4
 14 01 2013  01 24  -21.0193 26028.9 -03389.1 -07.4184 26248.6
 14 01 2013  01 25  -21.0215 26028.9 -03389.2 -07.4187 26248.6
 14 01 2013  01 26  -21.0240 26028.7 -03389.3 -07.4189 26248.5
 14 01 2013  01 27  -21.0256 26028.4 -03389.2 -07.4187 26248.2
 14 01 2013  01 28  -21.0257 26027.8 -03388.8 -07.4181 26247.5
 14 01 2013  01 29  -21.0251 26027.2 -03388.4 -07.4175 26246.9
 14 01 2013  01 30  -21.0248 26026.6 -03388.2 -07.4171 26246.2
 14 01 2013  01 31  -21.0244 26026.0 -03387.9 -07.4167 26245.6
 14 01 2013  01 32  -21.0247 26025.6 -03387.8 -07.4166 26245.2
 14 01 2013  01 33  -21.0257 26025.3 -03387.8 -07.4167 26244.9
 14 01 2013  01 34  -21.0272 26025.4 -03387.9 -07.4169 26244.9
 14 01 2013  01 35  -21.0287 26025.5 -03388.1 -07.4172 26245.1
 14 01 2013  01 36  -21.0297 26025.6 -03388.1 -07.4173 26245.2
 14 01 2013  01 37  -21.0302 26025.6 -03388.2 -07.4173 26245.3
 14 01 2013  01 38  -21.0303 26025.4 -03388.1 -07.4172 26245.0
 14 01 2013  01 39  -21.0304 26025.2 -03388.0 -07.4170 26244.8
 14 01 2013  01 40  -21.0307 26025.1 -03387.9 -07.4170 26244.7
 14 01 2013  01 41  -21.0313 26025.1 -03388.0 -07.4171 26244.7
 14 01 2013  01 42  -21.0320 26025.2 -03388.1 -07.4172 26244.8
 14 01 2013  01 43  -21.0324 26025.3 -03388.1 -07.4173 26244.9
 14 01 2013  01 44  -21.0329 26025.6 -03388.2 -07.4175 26245.2
 14 01 2013  01 45  -21.0332 26025.7 -03388.3 -07.4176 26245.3
 14 01 2013  01 46  -21.0338 26026.3 -03388.5 -07.4180 26245.9
 14 01 2013  01 47  -21.0344 26026.8 -03388.8 -07.4183 26246.5
 14 01 2013  01 48  -21.0346 26027.0 -03388.8 -07.4184 26246.7
 14 01 2013  01 49  -21.0342 26027.4 -03388.9 -07.4185 26247.1
 14 01 2013  01 50  -21.0327 26027.5 -03389.0 -07.4187 26247.2
 14 01 2013  01 51  -21.0308 26027.4 -03388.9 -07.4185 26247.1
 14 01 2013  01 52  -21.0304 26028.1 -03389.3 -07.4191 26247.8
 14 01 2013  01 53  -21.0315 26029.1 -03389.9 -07.4201 26249.0
 14 01 2013  01 54  -21.0324 26029.8 -03390.3 -07.4207 26249.7
 14 01 2013  01 55  -21.0325 26029.9 -03390.3 -07.4207 26249.8
 14 01 2013  01 56  -21.0321 26029.5 -03390.0 -07.4202 26249.3
 14 01 2013  01 57  -21.0318 26029.1 -03389.7 -07.4196 26248.9
 14 01 2013  01 58  -21.0322 26029.0 -03389.5 -07.4193 26248.7
 14 01 2013  01 59  -21.0325 26028.9 -03389.4 -07.4192 26248.6
 14 01 2013  02 00  -21.0323 26028.7 -03389.3 -07.4189 26248.5
 14 01 2013  02 01  -21.0321 26028.6 -03389.2 -07.4187 26248.3
 14 01 2013  02 02  -21.0324 26028.5 -03389.1 -07.4186 26248.2
 14 01 2013  02 03  -21.0324 26028.3 -03389.0 -07.4183 26248.0
 14 01 2013  02 04  -21.0320 26028.1 -03388.8 -07.4181 26247.7
 14 01 2013  02 05  -21.0315 26028.0 -03388.7 -07.4179 26247.7
 14 01 2013  02 06  -21.0314 26027.9 -03388.7 -07.4179 26247.6
 14 01 2013  02 07  -21.0315 26028.0 -03388.7 -07.4179 26247.7
 14 01 2013  02 08  -21.0315 26028.0 -03388.7 -07.4179 26247.6
 14 01 2013  02 09  -21.0322 26028.1 -03388.7 -07.4179 26247.7
 14 01 2013  02 10  -21.0326 26028.0 -03388.7 -07.4178 26247.7
 14 01 2013  02 11  -21.0321 26028.2 -03388.7 -07.4178 26247.9
 14 01 2013  02 12  -21.0315 26028.6 -03388.9 -07.4180 26248.3
 14 01 2013  02 13  -21.0309 26028.9 -03389.0 -07.4182 26248.6
 14 01 2013  02 14  -21.0303 26029.3 -03389.2 -07.4185 26249.1
 14 01 2013  02 15  -21.0296 26029.3 -03389.1 -07.4183 26249.0
 14 01 2013  02 16  -21.0290 26029.3 -03389.1 -07.4183 26249.0
 14 01 2013  02 17  -21.0290 26029.4 -03389.1 -07.4184 26249.1
 14 01 2013  02 18  -21.0291 26029.6 -03389.2 -07.4185 26249.3
 14 01 2013  02 19  -21.0291 26029.8 -03389.3 -07.4187 26249.5
 14 01 2013  02 20  -21.0293 26029.9 -03389.4 -07.4188 26249.7
 14 01 2013  02 21  -21.0296 26030.1 -03389.4 -07.4189 26249.9
 14 01 2013  02 22  -21.0299 26030.6 -03389.6 -07.4191 26250.4
 14 01 2013  02 23  -21.0303 26030.9 -03389.8 -07.4194 26250.7
 14 01 2013  02 24  -21.0303 26031.5 -03389.9 -07.4196 26251.3
 14 01 2013  02 25  -21.0304 26031.9 -03390.1 -07.4198 26251.8
 14 01 2013  02 26  -21.0306 26032.3 -03390.2 -07.4199 26252.2
 14 01 2013  02 27  -21.0307 26032.9 -03390.3 -07.4200 26252.7
 14 01 2013  02 28  -21.0306 26033.9 -03390.7 -07.4206 26253.8
 14 01 2013  02 29  -21.0305 26035.2 -03391.2 -07.4212 26255.1
 14 01 2013  02 30  -21.0305 26036.7 -03391.8 -07.4221 26256.6
 14 01 2013  02 31  -21.0309 26037.6 -03392.1 -07.4224 26257.6
 14 01 2013  02 32  -21.0310 26038.7 -03392.4 -07.4229 26258.8
 14 01 2013  02 33  -21.0309 26039.7 -03392.7 -07.4233 26259.8
 14 01 2013  02 34  -21.0311 26040.7 -03393.0 -07.4236 26260.8
 14 01 2013  02 35  -21.0316 26041.0 -03393.0 -07.4234 26261.1
 14 01 2013  02 36  -21.0323 26042.0 -03393.2 -07.4236 26262.1
 14 01 2013  02 37  -21.0328 26043.0 -03393.4 -07.4239 26263.2
 14 01 2013  02 38  -21.0331 26043.5 -03393.4 -07.4237 26263.7
 14 01 2013  02 39  -21.0331 26043.8 -03393.3 -07.4234 26264.0
 14 01 2013  02 40  -21.0329 26044.5 -03393.3 -07.4232 26264.6
 14 01 2013  02 41  -21.0332 26045.1 -03393.4 -07.4232 26265.2
 14 01 2013  02 42  -21.0342 26045.6 -03393.4 -07.4232 26265.7
 14 01 2013  02 43  -21.0350 26045.7 -03393.3 -07.4228 26265.9
 14 01 2013  02 44  -21.0353 26045.7 -03393.0 -07.4221 26265.8
 14 01 2013  02 45  -21.0346 26046.1 -03392.8 -07.4217 26266.2
 14 01 2013  02 46  -21.0337 26046.6 -03392.9 -07.4216 26266.7
 14 01 2013  02 47  -21.0329 26047.2 -03392.9 -07.4216 26267.2
 14 01 2013  02 48  -21.0321 26047.4 -03392.9 -07.4215 26267.5
 14 01 2013  02 49  -21.0314 26047.3 -03392.7 -07.4211 26267.3
 14 01 2013  02 50  -21.0307 26046.9 -03392.4 -07.4204 26266.9
 14 01 2013  02 51  -21.0299 26046.5 -03392.0 -07.4197 26266.4
 14 01 2013  02 52  -21.0289 26046.3 -03391.7 -07.4192 26266.2
 14 01 2013  02 53  -21.0281 26046.2 -03391.6 -07.4190 26266.1
 14 01 2013  02 54  -21.0276 26046.4 -03391.7 -07.4191 26266.3
 14 01 2013  02 55  -21.0272 26046.5 -03391.7 -07.4191 26266.4
 14 01 2013  02 56  -21.0271 26046.6 -03391.8 -07.4192 26266.5
 14 01 2013  02 57  -21.0272 26046.8 -03391.8 -07.4192 26266.7
 14 01 2013  02 58  -21.0273 26046.9 -03391.8 -07.4193 26266.8
 14 01 2013  02 59  -21.0273 26046.9 -03391.8 -07.4191 26266.8
 14 01 2013  03 00  -21.0274 26046.9 -03391.7 -07.4191 26266.8
 14 01 2013  03 01  -21.0276 26046.8 -03391.6 -07.4189 26266.7
 14 01 2013  03 02  -21.0278 26046.7 -03391.5 -07.4187 26266.6
 14 01 2013  03 03  -21.0279 26046.7 -03391.4 -07.4185 26266.5
 14 01 2013  03 04  -21.0281 26046.6 -03391.3 -07.4183 26266.5
 14 01 2013  03 05  -21.0281 26046.4 -03391.2 -07.4180 26266.2
 14 01 2013  03 06  -21.0278 26046.2 -03391.0 -07.4177 26266.0
 14 01 2013  03 07  -21.0274 26045.8 -03390.8 -07.4173 26265.6
 14 01 2013  03 08  -21.0271 26045.7 -03390.6 -07.4171 26265.5
 14 01 2013  03 09  -21.0270 26045.5 -03390.5 -07.4169 26265.2
 14 01 2013  03 10  -21.0269 26045.4 -03390.5 -07.4169 26265.2
 14 01 2013  03 11  -21.0266 26045.4 -03390.5 -07.4168 26265.1
 14 01 2013  03 12  -21.0265 26045.2 -03390.4 -07.4167 26264.9
 14 01 2013  03 13  -21.0263 26045.0 -03390.3 -07.4165 26264.7
 14 01 2013  03 14  -21.0259 26045.0 -03390.3 -07.4165 26264.7
 14 01 2013  03 15  -21.0259 26045.0 -03390.4 -07.4166 26264.7
 14 01 2013  03 16  -21.0259 26045.0 -03390.4 -07.4167 26264.8
 14 01 2013  03 17  -21.0257 26045.3 -03390.5 -07.4169 26265.1
 14 01 2013  03 18  -21.0255 26045.5 -03390.6 -07.4171 26265.3
 14 01 2013  03 19  -21.0253 26045.7 -03390.7 -07.4173 26265.5
 14 01 2013  03 20  -21.0253 26045.4 -03390.7 -07.4172 26265.2
 14 01 2013  03 21  -21.0253 26045.1 -03390.5 -07.4169 26264.9
 14 01 2013  03 22  -21.0253 26044.9 -03390.4 -07.4167 26264.6
 14 01 2013  03 23  -21.0252 26044.7 -03390.3 -07.4166 26264.5
 14 01 2013  03 24  -21.0250 26044.6 -03390.2 -07.4165 26264.4
 14 01 2013  03 25  -21.0246 26044.5 -03390.2 -07.4164 26264.3
 14 01 2013  03 26  -21.0243 26044.4 -03390.2 -07.4164 26264.2
 14 01 2013  03 27  -21.0239 26044.5 -03390.2 -07.4164 26264.2
 14 01 2013  03 28  -21.0240 26044.5 -03390.3 -07.4166 26264.3
 14 01 2013  03 29  -21.0241 26044.5 -03390.3 -07.4167 26264.3
 14 01 2013  03 30  -21.0242 26044.6 -03390.3 -07.4167 26264.3
 14 01 2013  03 31  -21.0242 26044.6 -03390.4 -07.4168 26264.4
 14 01 2013  03 32  -21.0241 26044.6 -03390.4 -07.4168 26264.4
 14 01 2013  03 33  -21.0240 26044.7 -03390.4 -07.4168 26264.4
 14 01 2013  03 34  -21.0238 26044.7 -03390.4 -07.4169 26264.5
 14 01 2013  03 35  -21.0237 26044.7 -03390.4 -07.4169 26264.4
 14 01 2013  03 36  -21.0237 26044.5 -03390.3 -07.4167 26264.2
 14 01 2013  03 37  -21.0236 26044.1 -03390.1 -07.4164 26263.8
 14 01 2013  03 38  -21.0235 26043.6 -03389.9 -07.4161 26263.3
 14 01 2013  03 39  -21.0235 26043.2 -03389.7 -07.4158 26262.9
 14 01 2013  03 40  -21.0236 26043.0 -03389.6 -07.4156 26262.7
 14 01 2013  03 41  -21.0238 26042.8 -03389.6 -07.4156 26262.5
 14 01 2013  03 42  -21.0241 26042.7 -03389.6 -07.4156 26262.3
 14 01 2013  03 43  -21.0243 26042.5 -03389.5 -07.4155 26262.2
 14 01 2013  03 44  -21.0243 26042.3 -03389.4 -07.4154 26261.9
 14 01 2013  03 45  -21.0246 26041.9 -03389.3 -07.4152 26261.5
 14 01 2013  03 46  -21.0246 26041.8 -03389.3 -07.4152 26261.4
 14 01 2013  03 47  -21.0247 26041.9 -03389.3 -07.4153 26261.5
 14 01 2013  03 48  -21.0247 26042.1 -03389.4 -07.4155 26261.7
 14 01 2013  03 49  -21.0248 26042.6 -03389.7 -07.4160 26262.3
 14 01 2013  03 50  -21.0249 26043.0 -03390.0 -07.4164 26262.7
 14 01 2013  03 51  -21.0249 26042.9 -03390.0 -07.4164 26262.6
 14 01 2013  03 52  -21.0246 26042.4 -03389.7 -07.4160 26262.1
 14 01 2013  03 53  -21.0246 26041.9 -03389.5 -07.4156 26261.6
 14 01 2013  03 54  -21.0245 26041.5 -03389.3 -07.4154 26261.2
 14 01 2013  03 55  -21.0243 26041.2 -03389.1 -07.4151 26260.8
 14 01 2013  03 56  -21.0243 26041.0 -03389.1 -07.4150 26260.6
 14 01 2013  03 57  -21.0242 26041.0 -03389.1 -07.4151 26260.6
 14 01 2013  03 58  -21.0242 26041.4 -03389.3 -07.4155 26261.0
 14 01 2013  03 59  -21.0242 26042.1 -03389.7 -07.4161 26261.7
 14 01 2013  04 00  -21.0243 26042.8 -03390.1 -07.4168 26262.5
 14 01 2013  04 01  -21.0242 26043.2 -03390.4 -07.4173 26263.0
 14 01 2013  04 02  -21.0238 26042.7 -03390.2 -07.4170 26262.5
 14 01 2013  04 03  -21.0236 26041.7 -03389.7 -07.4161 26261.4
 14 01 2013  04 04  -21.0229 26040.9 -03389.2 -07.4153 26260.5
 14 01 2013  04 05  -21.0220 26040.8 -03389.1 -07.4151 26260.4
 14 01 2013  04 06  -21.0219 26041.3 -03389.4 -07.4156 26260.9
 14 01 2013  04 07  -21.0223 26042.0 -03389.9 -07.4164 26261.7
 14 01 2013  04 08  -21.0226 26042.4 -03390.2 -07.4170 26262.1
 14 01 2013  04 09  -21.0221 26042.5 -03390.3 -07.4172 26262.3
 14 01 2013  04 10  -21.0217 26042.5 -03390.3 -07.4172 26262.3
 14 01 2013  04 11  -21.0215 26042.5 -03390.2 -07.4171 26262.2
 14 01 2013  04 12  -21.0206 26042.6 -03390.3 -07.4172 26262.4
 14 01 2013  04 13  -21.0208 26042.8 -03390.4 -07.4173 26262.6
 14 01 2013  04 14  -21.0211 26043.2 -03390.6 -07.4178 26262.9
 14 01 2013  04 15  -21.0218 26043.5 -03390.9 -07.4182 26263.3
 14 01 2013  04 16  -21.0222 26043.6 -03390.9 -07.4183 26263.4
 14 01 2013  04 17  -21.0223 26043.4 -03390.8 -07.4182 26263.2
 14 01 2013  04 18  -21.0223 26043.2 -03390.7 -07.4179 26263.0
 14 01 2013  04 19  -21.0224 26043.1 -03390.6 -07.4176 26262.9
 14 01 2013  04 20  -21.0224 26042.9 -03390.5 -07.4175 26262.7
 14 01 2013  04 21  -21.0224 26042.9 -03390.4 -07.4174 26262.6
 14 01 2013  04 22  -21.0218 26043.2 -03390.5 -07.4176 26263.0
 14 01 2013  04 23  -21.0213 26043.5 -03390.7 -07.4178 26263.3
 14 01 2013  04 24  -21.0206 26043.7 -03390.8 -07.4180 26263.5
 14 01 2013  04 25  -21.0201 26043.6 -03390.8 -07.4180 26263.4
 14 01 2013  04 26  -21.0198 26043.5 -03390.8 -07.4180 26263.3
 14 01 2013  04 27  -21.0200 26043.4 -03390.8 -07.4180 26263.2
 14 01 2013  04 28  -21.0203 26043.4 -03390.8 -07.4180 26263.2
 14 01 2013  04 29  -21.0206 26043.2 -03390.7 -07.4180 26263.0
 14 01 2013  04 30  -21.0209 26043.1 -03390.7 -07.4179 26262.9
 14 01 2013  04 31  -21.0208 26043.1 -03390.7 -07.4180 26262.9
 14 01 2013  04 32  -21.0204 26043.1 -03390.7 -07.4180 26262.9
 14 01 2013  04 33  -21.0199 26042.9 -03390.6 -07.4178 26262.7
 14 01 2013  04 34  -21.0196 26042.7 -03390.5 -07.4176 26262.5
 14 01 2013  04 35  -21.0192 26042.6 -03390.5 -07.4176 26262.4
 14 01 2013  04 36  -21.0191 26042.6 -03390.5 -07.4176 26262.3
 14 01 2013  04 37  -21.0190 26042.6 -03390.5 -07.4177 26262.4
 14 01 2013  04 38  -21.0193 26042.5 -03390.6 -07.4179 26262.3
 14 01 2013  04 39  -21.0192 26042.4 -03390.6 -07.4179 26262.2
 14 01 2013  04 40  -21.0191 26042.0 -03390.4 -07.4176 26261.8
 14 01 2013  04 41  -21.0188 26041.5 -03390.2 -07.4173 26261.3
 14 01 2013  04 42  -21.0188 26041.1 -03390.0 -07.4170 26260.8
 14 01 2013  04 43  -21.0189 26041.0 -03389.9 -07.4169 26260.7
 14 01 2013  04 44  -21.0194 26041.1 -03390.1 -07.4171 26260.9
 14 01 2013  04 45  -21.0199 26041.3 -03390.2 -07.4174 26261.0
 14 01 2013  04 46  -21.0202 26041.3 -03390.3 -07.4176 26261.1
 14 01 2013  04 47  -21.0202 26041.2 -03390.3 -07.4175 26261.0
 14 01 2013  04 48  -21.0200 26041.0 -03390.2 -07.4174 26260.7
 14 01 2013  04 49  -21.0199 26040.8 -03390.0 -07.4172 26260.5
 14 01 2013  04 50  -21.0202 26040.6 -03390.0 -07.4171 26260.4
 14 01 2013  04 51  -21.0208 26040.7 -03390.1 -07.4173 26260.5
 14 01 2013  04 52  -21.0216 26040.9 -03390.3 -07.4176 26260.7
 14 01 2013  04 53  -21.0224 26041.2 -03390.4 -07.4178 26261.0
 14 01 2013  04 54  -21.0233 26041.4 -03390.6 -07.4181 26261.2
 14 01 2013  04 55  -21.0241 26041.6 -03390.6 -07.4182 26261.4
 14 01 2013  04 56  -21.0247 26041.8 -03390.7 -07.4183 26261.7
 14 01 2013  04 57  -21.0253 26042.0 -03390.7 -07.4183 26261.8
 14 01 2013  04 58  -21.0259 26042.2 -03390.7 -07.4183 26262.0
 14 01 2013  04 59  -21.0262 26042.2 -03390.7 -07.4181 26262.0
 14 01 2013  05 00  -21.0266 26042.2 -03390.6 -07.4180 26261.9
 14 01 2013  05 01  -21.0268 26041.9 -03390.4 -07.4177 26261.7
 14 01 2013  05 02  -21.0268 26041.7 -03390.2 -07.4173 26261.4
 14 01 2013  05 03  -21.0268 26041.4 -03390.0 -07.4169 26261.2
 14 01 2013  05 04  -21.0267 26041.2 -03389.9 -07.4167 26260.9
 14 01 2013  05 05  -21.0267 26041.2 -03389.8 -07.4166 26260.9
 14 01 2013  05 06  -21.0266 26041.2 -03389.8 -07.4166 26260.9
 14 01 2013  05 07  -21.0268 26041.0 -03389.8 -07.4165 26260.7
 14 01 2013  05 08  -21.0270 26040.6 -03389.6 -07.4162 26260.3
 14 01 2013  05 09  -21.0272 26040.5 -03389.5 -07.4161 26260.2
 14 01 2013  05 10  -21.0276 26040.4 -03389.5 -07.4161 26260.1
 14 01 2013  05 11  -21.0282 26040.2 -03389.4 -07.4159 26259.9
 14 01 2013  05 12  -21.0288 26040.1 -03389.4 -07.4159 26259.8
 14 01 2013  05 13  -21.0293 26040.0 -03389.3 -07.4158 26259.6
 14 01 2013  05 14  -21.0295 26040.0 -03389.2 -07.4157 26259.6
 14 01 2013  05 15  -21.0293 26040.2 -03389.3 -07.4158 26259.9
 14 01 2013  05 16  -21.0287 26040.5 -03389.5 -07.4160 26260.1
 14 01 2013  05 17  -21.0282 26040.5 -03389.5 -07.4161 26260.2
 14 01 2013  05 18  -21.0278 26040.8 -03389.6 -07.4163 26260.5
 14 01 2013  05 19  -21.0277 26041.4 -03389.9 -07.4167 26261.1
 14 01 2013  05 20  -21.0280 26041.9 -03390.2 -07.4172 26261.6
 14 01 2013  05 21  -21.0281 26042.1 -03390.4 -07.4175 26261.9
 14 01 2013  05 22  -21.0279 26042.3 -03390.4 -07.4176 26262.1
 14 01 2013  05 23  -21.0276 26042.5 -03390.5 -07.4176 26262.3
 14 01 2013  05 24  -21.0272 26042.7 -03390.6 -07.4177 26262.5
 14 01 2013  05 25  -21.0269 26042.2 -03390.3 -07.4174 26262.0
 14 01 2013  05 26  -21.0264 26042.0 -03390.1 -07.4170 26261.7
 14 01 2013  05 27  -21.0262 26042.1 -03390.1 -07.4170 26261.8
 14 01 2013  05 28  -21.0259 26042.2 -03390.2 -07.4171 26261.9
 14 01 2013  05 29  -21.0258 26042.1 -03390.2 -07.4171 26261.9
 14 01 2013  05 30  -21.0256 26042.0 -03390.2 -07.4171 26261.7
 14 01 2013  05 31  -21.0252 26042.0 -03390.2 -07.4171 26261.7
 14 01 2013  05 32  -21.0247 26041.9 -03390.1 -07.4170 26261.6
 14 01 2013  05 33  -21.0239 26041.8 -03390.1 -07.4170 26261.5
 14 01 2013  05 34  -21.0233 26041.8 -03390.1 -07.4170 26261.5
 14 01 2013  05 35  -21.0229 26041.9 -03390.2 -07.4172 26261.6
 14 01 2013  05 36  -21.0225 26042.0 -03390.3 -07.4174 26261.8
 14 01 2013  05 37  -21.0220 26042.1 -03390.4 -07.4176 26261.9
 14 01 2013  05 38  -21.0216 26042.0 -03390.4 -07.4176 26261.8
 14 01 2013  05 39  -21.0207 26041.8 -03390.3 -07.4175 26261.6
 14 01 2013  05 40  -21.0198 26041.8 -03390.3 -07.4175 26261.5
 14 01 2013  05 41  -21.0190 26041.9 -03390.5 -07.4177 26261.7
 14 01 2013  05 42  -21.0186 26042.1 -03390.6 -07.4180 26261.9
 14 01 2013  05 43  -21.0183 26042.2 -03390.7 -07.4183 26262.0
 14 01 2013  05 44  -21.0179 26042.0 -03390.7 -07.4183 26261.8
 14 01 2013  05 45  -21.0178 26041.9 -03390.7 -07.4183 26261.8
 14 01 2013  05 46  -21.0179 26042.0 -03390.8 -07.4184 26261.8
 14 01 2013  05 47  -21.0184 26041.9 -03390.8 -07.4185 26261.8
 14 01 2013  05 48  -21.0191 26041.9 -03390.9 -07.4186 26261.7
 14 01 2013  05 49  -21.0197 26041.9 -03390.9 -07.4187 26261.7
 14 01 2013  05 50  -21.0202 26041.9 -03390.9 -07.4187 26261.7
 14 01 2013  05 51  -21.0207 26042.0 -03390.9 -07.4187 26261.8
 14 01 2013  05 52  -21.0213 26042.1 -03391.0 -07.4188 26262.0
 14 01 2013  05 53  -21.0219 26042.4 -03391.1 -07.4189 26262.2
 14 01 2013  05 54  -21.0222 26042.6 -03391.2 -07.4191 26262.5
 14 01 2013  05 55  -21.0223 26042.8 -03391.2 -07.4192 26262.7
 14 01 2013  05 56  -21.0219 26042.9 -03391.2 -07.4191 26262.7
 14 01 2013  05 57  -21.0213 26042.9 -03391.2 -07.4190 26262.7
 14 01 2013  05 58  -21.0208 26042.9 -03391.1 -07.4190 26262.7
 14 01 2013  05 59  -21.0204 26042.8 -03391.1 -07.4189 26262.6
 14 01 2013  06 00  -21.0201 26042.7 -03391.0 -07.4188 26262.5
 14 01 2013  06 01  -21.0198 26042.6 -03391.0 -07.4187 26262.4
 14 01 2013  06 02  -21.0199 26042.5 -03391.0 -07.4187 26262.3
 14 01 2013  06 03  -21.0202 26042.5 -03391.1 -07.4188 26262.4
 14 01 2013  06 04  -21.0203 26042.5 -03391.0 -07.4188 26262.3
 14 01 2013  06 05  -21.0204 26042.4 -03391.0 -07.4188 26262.3
 14 01 2013  06 06  -21.0202 26042.1 -03390.9 -07.4186 26262.0
 14 01 2013  06 07  -21.0202 26041.7 -03390.7 -07.4182 26261.5
 14 01 2013  06 08  -21.0202 26041.6 -03390.6 -07.4181 26261.4
 14 01 2013  06 09  -21.0203 26041.7 -03390.6 -07.4182 26261.5
 14 01 2013  06 10  -21.0206 26041.9 -03390.8 -07.4185 26261.7
 14 01 2013  06 11  -21.0208 26041.9 -03390.8 -07.4185 26261.7
 14 01 2013  06 12  -21.0210 26042.0 -03390.9 -07.4186 26261.9
 14 01 2013  06 13  -21.0211 26042.1 -03390.9 -07.4187 26261.9
 14 01 2013  06 14  -21.0212 26042.0 -03390.9 -07.4187 26261.9
 14 01 2013  06 15  -21.0210 26042.0 -03390.9 -07.4186 26261.8
 14 01 2013  06 16  -21.0204 26041.8 -03390.8 -07.4184 26261.6
 14 01 2013  06 17  -21.0197 26041.5 -03390.6 -07.4181 26261.3
 14 01 2013  06 18  -21.0189 26041.4 -03390.5 -07.4180 26261.2
 14 01 2013  06 19  -21.0184 26041.4 -03390.5 -07.4181 26261.2
 14 01 2013  06 20  -21.0181 26041.4 -03390.6 -07.4182 26261.2
 14 01 2013  06 21  -21.0179 26041.5 -03390.7 -07.4184 26261.3
 14 01 2013  06 22  -21.0181 26041.6 -03390.8 -07.4187 26261.5
 14 01 2013  06 23  -21.0184 26041.6 -03390.9 -07.4188 26261.4
 14 01 2013  06 24  -21.0189 26041.5 -03390.9 -07.4188 26261.4
 14 01 2013  06 25  -21.0194 26041.6 -03390.9 -07.4189 26261.4
 14 01 2013  06 26  -21.0198 26041.4 -03390.9 -07.4188 26261.3
 14 01 2013  06 27  -21.0199 26041.3 -03390.8 -07.4187 26261.1
 14 01 2013  06 28  -21.0197 26041.2 -03390.7 -07.4186 26261.0
 14 01 2013  06 29  -21.0193 26041.1 -03390.7 -07.4184 26260.9
 14 01 2013  06 30  -21.0190 26041.1 -03390.7 -07.4184 26260.9
 14 01 2013  06 31  -21.0186 26041.0 -03390.7 -07.4184 26260.8
 14 01 2013  06 32  -21.0181 26041.0 -03390.6 -07.4184 26260.8
 14 01 2013  06 33  -21.0177 26041.0 -03390.6 -07.4184 26260.8
 14 01 2013  06 34  -21.0175 26040.9 -03390.7 -07.4185 26260.7
 14 01 2013  06 35  -21.0173 26040.8 -03390.7 -07.4185 26260.6
 14 01 2013  06 36  -21.0174 26040.7 -03390.7 -07.4185 26260.6
 14 01 2013  06 37  -21.0182 26040.8 -03390.7 -07.4187 26260.6
 14 01 2013  06 38  -21.0187 26040.9 -03390.9 -07.4189 26260.8
 14 01 2013  06 39  -21.0189 26041.0 -03390.9 -07.4190 26260.9
 14 01 2013  06 40  -21.0185 26041.1 -03391.0 -07.4191 26261.0
 14 01 2013  06 41  -21.0177 26041.2 -03391.0 -07.4191 26261.1
 14 01 2013  06 42  -21.0169 26041.1 -03391.0 -07.4190 26261.0
 14 01 2013  06 43  -21.0169 26041.0 -03390.9 -07.4190 26260.9
 14 01 2013  06 44  -21.0175 26041.1 -03391.1 -07.4193 26261.0
 14 01 2013  06 45  -21.0179 26041.2 -03391.1 -07.4194 26261.0
 14 01 2013  06 46  -21.0183 26041.2 -03391.2 -07.4195 26261.1
 14 01 2013  06 47  -21.0184 26041.2 -03391.1 -07.4194 26261.1
 14 01 2013  06 48  -21.0182 26041.1 -03391.0 -07.4192 26260.9
 14 01 2013  06 49  -21.0181 26041.0 -03390.9 -07.4190 26260.8
 14 01 2013  06 50  -21.0184 26041.0 -03390.9 -07.4190 26260.8
 14 01 2013  06 51  -21.0187 26040.8 -03390.9 -07.4189 26260.7
 14 01 2013  06 52  -21.0190 26040.7 -03390.7 -07.4187 26260.5
 14 01 2013  06 53  -21.0191 26040.7 -03390.7 -07.4186 26260.6
 14 01 2013  06 54  -21.0193 26040.7 -03390.7 -07.4186 26260.5
 14 01 2013  06 55  -21.0196 26040.8 -03390.7 -07.4186 26260.6
 14 01 2013  06 56  -21.0198 26040.9 -03390.8 -07.4188 26260.8
 14 01 2013  06 57  -21.0199 26041.0 -03390.8 -07.4188 26260.9
 14 01 2013  06 58  -21.0201 26041.1 -03390.9 -07.4188 26260.9
 14 01 2013  06 59  -21.0205 26041.1 -03390.8 -07.4188 26260.9
 14 01 2013  07 00  -21.0210 26041.0 -03390.8 -07.4187 26260.8
 14 01 2013  07 01  -21.0216 26040.9 -03390.7 -07.4185 26260.7
 14 01 2013  07 02  -21.0221 26040.9 -03390.6 -07.4184 26260.7
 14 01 2013  07 03  -21.0228 26040.8 -03390.5 -07.4182 26260.6
 14 01 2013  07 04  -21.0236 26040.8 -03390.5 -07.4181 26260.5
 14 01 2013  07 05  -21.0243 26040.8 -03390.4 -07.4180 26260.6
 14 01 2013  07 06  -21.0249 26041.0 -03390.5 -07.4180 26260.8
 14 01 2013  07 07  -21.0254 26041.1 -03390.5 -07.4180 26260.9
 14 01 2013  07 08  -21.0259 26041.1 -03390.4 -07.4178 26260.8
 14 01 2013  07 09  -21.0263 26041.2 -03390.4 -07.4178 26261.0
 14 01 2013  07 10  -21.0268 26041.4 -03390.5 -07.4179 26261.2
 14 01 2013  07 11  -21.0271 26041.7 -03390.6 -07.4180 26261.5
 14 01 2013  07 12  -21.0274 26041.9 -03390.6 -07.4181 26261.7
 14 01 2013  07 13  -21.0278 26042.1 -03390.7 -07.4182 26261.9
 14 01 2013  07 14  -21.0283 26042.3 -03390.8 -07.4183 26262.1
 14 01 2013  07 15  -21.0288 26042.5 -03390.8 -07.4183 26262.3
 14 01 2013  07 16  -21.0294 26042.7 -03390.8 -07.4183 26262.5
 14 01 2013  07 17  -21.0299 26042.9 -03390.8 -07.4183 26262.7
 14 01 2013  07 18  -21.0302 26043.0 -03390.8 -07.4182 26262.8
 14 01 2013  07 19  -21.0303 26043.1 -03390.8 -07.4181 26262.9
 14 01 2013  07 20  -21.0302 26043.1 -03390.7 -07.4179 26262.9
 14 01 2013  07 21  -21.0299 26043.1 -03390.6 -07.4177 26262.9
 14 01 2013  07 22  -21.0299 26043.1 -03390.6 -07.4177 26262.9
 14 01 2013  07 23  -21.0302 26043.2 -03390.6 -07.4177 26262.9
 14 01 2013  07 24  -21.0306 26043.2 -03390.6 -07.4176 26263.0
 14 01 2013  07 25  -21.0311 26043.3 -03390.6 -07.4176 26263.0
 14 01 2013  07 26  -21.0313 26043.5 -03390.6 -07.4177 26263.3
 14 01 2013  07 27  -21.0312 26043.3 -03390.5 -07.4174 26263.1
 14 01 2013  07 28  -21.0308 26042.9 -03390.1 -07.4168 26262.6
 14 01 2013  07 29  -21.0304 26042.5 -03389.8 -07.4162 26262.2
 14 01 2013  07 30  -21.0300 26042.4 -03389.7 -07.4160 26262.1
 14 01 2013  07 31  -21.0296 26042.5 -03389.7 -07.4160 26262.1
 14 01 2013  07 32  -21.0290 26042.6 -03389.8 -07.4161 26262.3
 14 01 2013  07 33  -21.0286 26042.9 -03390.0 -07.4164 26262.6
 14 01 2013  07 34  -21.0285 26043.0 -03390.1 -07.4167 26262.7
 14 01 2013  07 35  -21.0285 26043.0 -03390.1 -07.4167 26262.7
 14 01 2013  07 36  -21.0284 26042.9 -03390.1 -07.4167 26262.7
 14 01 2013  07 37  -21.0284 26042.9 -03390.1 -07.4167 26262.6
 14 01 2013  07 38  -21.0286 26042.8 -03390.1 -07.4167 26262.5
 14 01 2013  07 39  -21.0287 26042.7 -03390.0 -07.4166 26262.4
 14 01 2013  07 40  -21.0287 26042.5 -03389.9 -07.4164 26262.2
 14 01 2013  07 41  -21.0288 26042.7 -03390.0 -07.4164 26262.4
 14 01 2013  07 42  -21.0291 26043.1 -03390.2 -07.4168 26262.8
 14 01 2013  07 43  -21.0295 26043.7 -03390.6 -07.4174 26263.5
 14 01 2013  07 44  -21.0299 26044.2 -03390.8 -07.4179 26264.0
 14 01 2013  07 45  -21.0299 26044.3 -03390.9 -07.4180 26264.1
 14 01 2013  07 46  -21.0296 26044.1 -03390.7 -07.4177 26263.9
 14 01 2013  07 47  -21.0293 26043.5 -03390.4 -07.4171 26263.3
 14 01 2013  07 48  -21.0291 26042.9 -03390.0 -07.4164 26262.6
 14 01 2013  07 49  -21.0288 26042.7 -03389.8 -07.4162 26262.4
 14 01 2013  07 50  -21.0286 26042.8 -03389.9 -07.4163 26262.5
 14 01 2013  07 51  -21.0285 26042.9 -03390.0 -07.4165 26262.6
 14 01 2013  07 52  -21.0283 26043.0 -03390.2 -07.4168 26262.8
 14 01 2013  07 53  -21.0280 26043.1 -03390.2 -07.4169 26262.9
 14 01 2013  07 54  -21.0278 26043.2 -03390.3 -07.4170 26263.0
 14 01 2013  07 55  -21.0276 26043.4 -03390.4 -07.4173 26263.2
 14 01 2013  07 56  -21.0279 26043.5 -03390.5 -07.4175 26263.3
 14 01 2013  07 57  -21.0283 26043.7 -03390.7 -07.4177 26263.5
 14 01 2013  07 58  -21.0287 26043.9 -03390.8 -07.4179 26263.7
 14 01 2013  07 59  -21.0290 26043.9 -03390.8 -07.4178 26263.7
 14 01 2013  08 00  -21.0292 26043.9 -03390.7 -07.4177 26263.7
 14 01 2013  08 01  -21.0291 26044.0 -03390.7 -07.4176 26263.8
 14 01 2013  08 02  -21.0292 26043.9 -03390.6 -07.4176 26263.7
 14 01 2013  08 03  -21.0293 26043.5 -03390.4 -07.4172 26263.2
 14 01 2013  08 04  -21.0291 26043.2 -03390.2 -07.4168 26263.0
 14 01 2013  08 05  -21.0287 26043.3 -03390.2 -07.4168 26263.1
 14 01 2013  08 06  -21.0285 26043.7 -03390.4 -07.4171 26263.5
 14 01 2013  08 07  -21.0285 26044.1 -03390.7 -07.4175 26263.9
 14 01 2013  08 08  -21.0286 26044.3 -03390.8 -07.4178 26264.1
 14 01 2013  08 09  -21.0288 26044.2 -03390.8 -07.4178 26264.0
 14 01 2013  08 10  -21.0288 26043.8 -03390.6 -07.4175 26263.6
 14 01 2013  08 11  -21.0288 26043.6 -03390.4 -07.4172 26263.4
 14 01 2013  08 12  -21.0288 26043.8 -03390.5 -07.4173 26263.6
 14 01 2013  08 13  -21.0289 26044.2 -03390.8 -07.4178 26264.0
 14 01 2013  08 14  -21.0291 26044.4 -03390.9 -07.4180 26264.2
 14 01 2013  08 15  -21.0293 26044.4 -03390.9 -07.4181 26264.2
 14 01 2013  08 16  -21.0292 26044.4 -03390.9 -07.4180 26264.2
 14 01 2013  08 17  -21.0289 26044.4 -03390.9 -07.4180 26264.2
 14 01 2013  08 18  -21.0288 26044.4 -03390.9 -07.4180 26264.2
 14 01 2013  08 19  -21.0286 26044.4 -03390.9 -07.4180 26264.2
 14 01 2013  08 20  -21.0286 26044.5 -03391.0 -07.4181 26264.3
 14 01 2013  08 21  -21.0288 26044.5 -03391.0 -07.4183 26264.4
 14 01 2013  08 22  -21.0287 26044.4 -03391.0 -07.4183 26264.2
 14 01 2013  08 23  -21.0284 26044.3 -03391.0 -07.4182 26264.1
 14 01 2013  08 24  -21.0282 26044.1 -03390.9 -07.4180 26263.9
 14 01 2013  08 25  -21.0279 26044.1 -03390.8 -07.4179 26263.9
 14 01 2013  08 26  -21.0277 26044.0 -03390.9 -07.4180 26263.9
 14 01 2013  08 27  -21.0275 26043.9 -03390.9 -07.4181 26263.8
 14 01 2013  08 28  -21.0275 26043.9 -03390.9 -07.4181 26263.7
 14 01 2013  08 29  -21.0274 26043.9 -03390.9 -07.4182 26263.7
 14 01 2013  08 30  -21.0273 26043.8 -03390.9 -07.4182 26263.6
 14 01 2013  08 31  -21.0271 26043.8 -03390.9 -07.4182 26263.6
 14 01 2013  08 32  -21.0270 26043.9 -03390.9 -07.4182 26263.7
 14 01 2013  08 33  -21.0271 26043.9 -03391.0 -07.4184 26263.7
 14 01 2013  08 34  -21.0273 26044.1 -03391.1 -07.4185 26263.9
 14 01 2013  08 35  -21.0276 26044.2 -03391.2 -07.4187 26264.1
 14 01 2013  08 36  -21.0281 26044.4 -03391.3 -07.4188 26264.3
 14 01 2013  08 37  -21.0284 26044.6 -03391.3 -07.4189 26264.5
 14 01 2013  08 38  -21.0287 26044.7 -03391.3 -07.4188 26264.5
 14 01 2013  08 39  -21.0290 26044.8 -03391.4 -07.4189 26264.6
 14 01 2013  08 40  -21.0290 26045.0 -03391.4 -07.4190 26264.8
 14 01 2013  08 41  -21.0292 26045.1 -03391.5 -07.4190 26265.0
 14 01 2013  08 42  -21.0293 26044.9 -03391.3 -07.4187 26264.8
 14 01 2013  08 43  -21.0291 26045.1 -03391.3 -07.4187 26264.9
 14 01 2013  08 44  -21.0291 26045.4 -03391.5 -07.4189 26265.3
 14 01 2013  08 45  -21.0289 26045.5 -03391.5 -07.4190 26265.4
 14 01 2013  08 46  -21.0288 26045.7 -03391.6 -07.4191 26265.5
 14 01 2013  08 47  -21.0282 26045.7 -03391.5 -07.4190 26265.6
 14 01 2013  08 48  -21.0273 26045.7 -03391.5 -07.4189 26265.6
 14 01 2013  08 49  -21.0266 26045.7 -03391.5 -07.4189 26265.6
 14 01 2013  08 50  -21.0257 26045.7 -03391.6 -07.4191 26265.6
 14 01 2013  08 51  -21.0249 26045.5 -03391.6 -07.4191 26265.4
 14 01 2013  08 52  -21.0243 26045.4 -03391.6 -07.4191 26265.2
 14 01 2013  08 53  -21.0241 26045.5 -03391.7 -07.4195 26265.4
 14 01 2013  08 54  -21.0245 26045.7 -03392.0 -07.4200 26265.7
 14 01 2013  08 55  -21.0245 26046.0 -03392.3 -07.4205 26266.0
 14 01 2013  08 56  -21.0245 26046.1 -03392.5 -07.4210 26266.1
 14 01 2013  08 57  -21.0243 26045.5 -03392.4 -07.4209 26265.5
 14 01 2013  08 58  -21.0244 26045.8 -03392.5 -07.4212 26265.8
 14 01 2013  08 59  -21.0248 26046.4 -03393.0 -07.4220 26266.4
 14 01 2013  09 00  -21.0254 26046.6 -03393.3 -07.4225 26266.7
 14 01 2013  09 01  -21.0260 26046.6 -03393.3 -07.4227 26266.7
 14 01 2013  09 02  -21.0272 26046.8 -03393.5 -07.4229 26266.9
 14 01 2013  09 03  -21.0275 26046.8 -03393.5 -07.4230 26267.0
 14 01 2013  09 04  -21.0272 26046.9 -03393.5 -07.4230 26267.0
 14 01 2013  09 05  -21.0267 26046.8 -03393.5 -07.4229 26266.9
 14 01 2013  09 06  -21.0266 26046.7 -03393.5 -07.4230 26266.9
 14 01 2013  09 07  -21.0271 26046.8 -03393.7 -07.4233 26266.9
 14 01 2013  09 08  -21.0275 26047.0 -03393.9 -07.4237 26267.2
 14 01 2013  09 09  -21.0278 26047.2 -03394.0 -07.4240 26267.4
 14 01 2013  09 10  -21.0283 26047.3 -03394.2 -07.4243 26267.6
 14 01 2013  09 11  -21.0288 26047.4 -03394.3 -07.4245 26267.6
 14 01 2013  09 12  -21.0291 26047.3 -03394.3 -07.4245 26267.6
 14 01 2013  09 13  -21.0294 26047.2 -03394.3 -07.4245 26267.5
 14 01 2013  09 14  -21.0299 26047.1 -03394.3 -07.4245 26267.4
 14 01 2013  09 15  -21.0305 26047.0 -03394.3 -07.4246 26267.2
 14 01 2013  09 16  -21.0310 26047.0 -03394.3 -07.4246 26267.2
 14 01 2013  09 17  -21.0314 26047.0 -03394.3 -07.4247 26267.2
 14 01 2013  09 18  -21.0320 26047.0 -03394.4 -07.4248 26267.2
 14 01 2013  09 19  -21.0323 26046.8 -03394.3 -07.4246 26267.0
 14 01 2013  09 20  -21.0328 26046.6 -03394.2 -07.4245 26266.8
 14 01 2013  09 21  -21.0333 26046.5 -03394.2 -07.4245 26266.7
 14 01 2013  09 22  -21.0344 26046.3 -03394.1 -07.4244 26266.5
 14 01 2013  09 23  -21.0353 26046.1 -03394.1 -07.4243 26266.3
 14 01 2013  09 24  -21.0363 26045.9 -03394.0 -07.4242 26266.1
 14 01 2013  09 25  -21.0371 26045.7 -03393.9 -07.4242 26265.9
 14 01 2013  09 26  -21.0384 26045.8 -03394.0 -07.4244 26266.0
 14 01 2013  09 27  -21.0398 26046.0 -03394.2 -07.4246 26266.2
 14 01 2013  09 28  -21.0410 26046.0 -03394.1 -07.4245 26266.2
 14 01 2013  09 29  -21.0423 26045.8 -03394.0 -07.4243 26266.0
 14 01 2013  09 30  -21.0439 26046.0 -03394.0 -07.4242 26266.2
 14 01 2013  09 31  -21.0458 26046.2 -03394.0 -07.4241 26266.4
 14 01 2013  09 32  -21.0473 26046.3 -03393.9 -07.4239 26266.5
 14 01 2013  09 33  -21.0487 26046.3 -03393.7 -07.4234 26266.5
 14 01 2013  09 34  -21.0501 26046.4 -03393.6 -07.4232 26266.5
 14 01 2013  09 35  -21.0513 26046.6 -03393.5 -07.4230 26266.7
 14 01 2013  09 36  -21.0524 26046.5 -03393.3 -07.4226 26266.6
 14 01 2013  09 37  -21.0532 26046.5 -03393.1 -07.4222 26266.6
 14 01 2013  09 38  -21.0542 26046.5 -03393.0 -07.4220 26266.6
 14 01 2013  09 39  -21.0555 26046.7 -03392.9 -07.4217 26266.8
 14 01 2013  09 40  -21.0572 26047.0 -03392.8 -07.4214 26267.0
 14 01 2013  09 41  -21.0583 26047.2 -03392.6 -07.4209 26267.2
 14 01 2013  09 42  -21.0590 26047.2 -03392.3 -07.4202 26267.2
 14 01 2013  09 43  -21.0600 26047.2 -03392.0 -07.4196 26267.2
 14 01 2013  09 44  -21.0611 26047.4 -03391.8 -07.4192 26267.4
 14 01 2013  09 45  -21.0618 26047.7 -03391.7 -07.4188 26267.6
 14 01 2013  09 46  -21.0626 26048.1 -03391.6 -07.4186 26268.0
 14 01 2013  09 47  -21.0633 26048.4 -03391.5 -07.4183 26268.3
 14 01 2013  09 48  -21.0642 26048.7 -03391.4 -07.4178 26268.6
 14 01 2013  09 49  -21.0651 26048.8 -03391.2 -07.4173 26268.7
 14 01 2013  09 50  -21.0661 26048.9 -03390.9 -07.4167 26268.6
 14 01 2013  09 51  -21.0676 26048.8 -03390.7 -07.4164 26268.6
 14 01 2013  09 52  -21.0691 26048.6 -03390.5 -07.4158 26268.3
 14 01 2013  09 53  -21.0698 26048.5 -03390.2 -07.4152 26268.2
 14 01 2013  09 54  -21.0701 26048.3 -03389.9 -07.4147 26267.9
 14 01 2013  09 55  -21.0708 26048.4 -03389.8 -07.4145 26268.1
 14 01 2013  09 56  -21.0715 26048.9 -03389.9 -07.4146 26268.6
 14 01 2013  09 57  -21.0726 26049.2 -03389.9 -07.4144 26268.8
 14 01 2013  09 58  -21.0735 26049.5 -03389.8 -07.4141 26269.1
 14 01 2013  09 59  -21.0744 26049.9 -03389.7 -07.4138 26269.5
 14 01 2013  10 00  -21.0751 26050.2 -03389.6 -07.4135 26269.8
 14 01 2013  10 01  -21.0755 26050.6 -03389.5 -07.4131 26270.2
 14 01 2013  10 02  -21.0762 26051.2 -03389.5 -07.4131 26270.8
 14 01 2013  10 03  -21.0769 26051.2 -03389.3 -07.4126 26270.8
 14 01 2013  10 04  -21.0772 26051.0 -03389.0 -07.4119 26270.5
 14 01 2013  10 05  -21.0775 26050.7 -03388.6 -07.4112 26270.2
 14 01 2013  10 06  -21.0781 26050.7 -03388.4 -07.4108 26270.2
 14 01 2013  10 07  -21.0784 26050.6 -03388.2 -07.4104 26270.0
 14 01 2013  10 08  -21.0784 26050.5 -03387.9 -07.4099 26269.9
 14 01 2013  10 09  -21.0786 26050.4 -03387.7 -07.4094 26269.7
 14 01 2013  10 10  -21.0788 26050.3 -03387.5 -07.4090 26269.6
 14 01 2013  10 11  -21.0796 26050.5 -03387.5 -07.4089 26269.8
 14 01 2013  10 12  -21.0805 26050.8 -03387.5 -07.4087 26270.1
 14 01 2013  10 13  -21.0817 26051.2 -03387.5 -07.4087 26270.6
 14 01 2013  10 14  -21.0831 26051.6 -03387.5 -07.4085 26270.9
 14 01 2013  10 15  -21.0844 26051.9 -03387.3 -07.4082 26271.2
 14 01 2013  10 16  -21.0853 26052.1 -03387.2 -07.4077 26271.4
 14 01 2013  10 17  -21.0864 26052.3 -03387.0 -07.4072 26271.6
 14 01 2013  10 18  -21.0877 26052.4 -03386.7 -07.4067 26271.6
 14 01 2013  10 19  -21.0887 26052.6 -03386.4 -07.4061 26271.7
 14 01 2013  10 20  -21.0894 26052.6 -03386.1 -07.4054 26271.7
 14 01 2013  10 21  -21.0896 26052.5 -03385.8 -07.4046 26271.6
 14 01 2013  10 22  -21.0899 26052.5 -03385.5 -07.4041 26271.6
 14 01 2013  10 23  -21.0903 26052.7 -03385.4 -07.4037 26271.8
 14 01 2013  10 24  -21.0908 26053.1 -03385.3 -07.4033 26272.1
 14 01 2013  10 25  -21.0911 26053.5 -03385.2 -07.4031 26272.5
 14 01 2013  10 26  -21.0917 26053.6 -03385.0 -07.4027 26272.6
 14 01 2013  10 27  -21.0920 26053.8 -03384.8 -07.4021 26272.8
 14 01 2013  10 28  -21.0922 26053.9 -03384.6 -07.4016 26272.9
 14 01 2013  10 29  -21.0922 26054.1 -03384.3 -07.4010 26273.0
 14 01 2013  10 30  -21.0922 26054.4 -03384.2 -07.4006 26273.2
 14 01 2013  10 31  -21.0922 26054.6 -03384.0 -07.4003 26273.5
 14 01 2013  10 32  -21.0924 26054.8 -03383.9 -07.3999 26273.6
 14 01 2013  10 33  -21.0924 26054.9 -03383.7 -07.3995 26273.7
 14 01 2013  10 34  -21.0926 26055.0 -03383.5 -07.3990 26273.8
 14 01 2013  10 35  -21.0929 26055.3 -03383.4 -07.3986 26274.1
 14 01 2013  10 36  -21.0934 26055.7 -03383.2 -07.3982 26274.4
 14 01 2013  10 37  -21.0938 26055.6 -03383.0 -07.3978 26274.3
 14 01 2013  10 38  -21.0942 26055.4 -03382.8 -07.3973 26274.1
 14 01 2013  10 39  -21.0948 26055.4 -03382.6 -07.3970 26274.1
 14 01 2013  10 40  -21.0950 26055.6 -03382.4 -07.3965 26274.2
 14 01 2013  10 41  -21.0957 26055.9 -03382.4 -07.3963 26274.5
 14 01 2013  10 42  -21.0964 26056.5 -03382.4 -07.3962 26275.1
 14 01 2013  10 43  -21.0970 26057.3 -03382.5 -07.3961 26275.9
 14 01 2013  10 44  -21.0973 26058.4 -03382.5 -07.3960 26277.0
 14 01 2013  10 45  -21.0977 26059.3 -03382.7 -07.3960 26278.0
 14 01 2013  10 46  -21.0981 26060.1 -03382.6 -07.3956 26278.7
 14 01 2013  10 47  -21.0995 26061.0 -03382.7 -07.3955 26279.6
 14 01 2013  10 48  -21.1003 26061.5 -03382.5 -07.3951 26280.1
 14 01 2013  10 49  -21.1007 26061.8 -03382.3 -07.3944 26280.3
 14 01 2013  10 50  -21.1010 26062.1 -03382.0 -07.3938 26280.6
 14 01 2013  10 51  -21.1012 26062.1 -03381.7 -07.3932 26280.6
 14 01 2013  10 52  -21.1011 26062.1 -03381.5 -07.3926 26280.6
 14 01 2013  10 53  -21.1012 26062.2 -03381.3 -07.3922 26280.6
 14 01 2013  10 54  -21.1018 26062.6 -03381.2 -07.3919 26281.0
 14 01 2013  10 55  -21.1020 26063.1 -03381.1 -07.3915 26281.5
 14 01 2013  10 56  -21.1022 26063.9 -03381.0 -07.3912 26282.3
 14 01 2013  10 57  -21.1023 26064.6 -03381.0 -07.3908 26283.0
 14 01 2013  10 58  -21.1026 26065.3 -03380.9 -07.3905 26283.7
 14 01 2013  10 59  -21.1028 26065.6 -03380.7 -07.3900 26283.9
 14 01 2013  11 00  -21.1024 26065.8 -03380.4 -07.3893 26284.1
 14 01 2013  11 01  -21.1026 26066.5 -03380.3 -07.3890 26284.7
 14 01 2013  11 02  -21.1027 26067.3 -03380.3 -07.3887 26285.6
 14 01 2013  11 03  -21.1030 26068.1 -03380.3 -07.3884 26286.4
 14 01 2013  11 04  -21.1028 26068.6 -03380.0 -07.3877 26286.8
 14 01 2013  11 05  -21.1027 26068.9 -03379.8 -07.3871 26287.1
 14 01 2013  11 06  -21.1029 26069.1 -03379.6 -07.3866 26287.3
 14 01 2013  11 07  -21.1032 26069.4 -03379.4 -07.3861 26287.5
 14 01 2013  11 08  -21.1033 26069.4 -03379.0 -07.3852 26287.4
 14 01 2013  11 09  -21.1030 26069.2 -03378.6 -07.3845 26287.2
 14 01 2013  11 10  -21.1023 26069.4 -03378.5 -07.3841 26287.4
 14 01 2013  11 11  -21.1016 26069.6 -03378.4 -07.3839 26287.6
 14 01 2013  11 12  -21.1013 26069.7 -03378.3 -07.3837 26287.6
 14 01 2013  11 13  -21.1026 26069.6 -03378.2 -07.3834 26287.5
 14 01 2013  11 14  -21.1041 26069.5 -03378.0 -07.3830 26287.5
 14 01 2013  11 15  -21.1033 26069.7 -03377.7 -07.3824 26287.6
 14 01 2013  11 16  -21.1020 26069.6 -03377.4 -07.3817 26287.5
 14 01 2013  11 17  -21.1022 26070.3 -03377.7 -07.3821 26288.2
 14 01 2013  11 18  -21.1039 26070.8 -03377.8 -07.3823 26288.7
 14 01 2013  11 19  -21.1050 26070.8 -03377.7 -07.3820 26288.7
 14 01 2013  11 20  -21.1055 26070.6 -03377.5 -07.3816 26288.5
 14 01 2013  11 21  -21.1062 26070.2 -03377.3 -07.3813 26288.0
 14 01 2013  11 22  -21.1065 26069.7 -03377.1 -07.3810 26287.6
 14 01 2013  11 23  -21.1072 26069.4 -03376.9 -07.3807 26287.2
 14 01 2013  11 24  -21.1083 26069.8 -03377.0 -07.3808 26287.6
 14 01 2013  11 25  -21.1089 26070.4 -03377.1 -07.3809 26288.3
 14 01 2013  11 26  -21.1096 26070.4 -03377.0 -07.3806 26288.2
 14 01 2013  11 27  -21.1104 26070.5 -03376.9 -07.3804 26288.3
 14 01 2013  11 28  -21.1111 26070.7 -03376.8 -07.3801 26288.5
 14 01 2013  11 29  -21.1118 26071.0 -03376.7 -07.3798 26288.8
 14 01 2013  11 30  -21.1130 26071.8 -03376.8 -07.3797 26289.6
 14 01 2013  11 31  -21.1137 26072.2 -03376.7 -07.3794 26290.0
 14 01 2013  11 32  -21.1145 26072.4 -03376.5 -07.3791 26290.1
 14 01 2013  11 33  -21.1146 26072.5 -03376.3 -07.3785 26290.2
 14 01 2013  11 34  -21.1151 26072.6 -03376.1 -07.3780 26290.3
 14 01 2013  11 35  -21.1156 26072.9 -03375.9 -07.3776 26290.5
 14 01 2013  11 36  -21.1160 26073.0 -03375.7 -07.3770 26290.6
 14 01 2013  11 37  -21.1165 26073.2 -03375.5 -07.3766 26290.8
 14 01 2013  11 38  -21.1162 26073.3 -03375.2 -07.3760 26290.8
 14 01 2013  11 39  -21.1165 26073.4 -03375.0 -07.3754 26291.0
 14 01 2013  11 40  -21.1162 26073.5 -03374.7 -07.3748 26290.9
 14 01 2013  11 41  -21.1168 26073.4 -03374.4 -07.3742 26290.9
 14 01 2013  11 42  -21.1175 26073.7 -03374.2 -07.3738 26291.1
 14 01 2013  11 43  -21.1178 26074.3 -03374.2 -07.3734 26291.7
 14 01 2013  11 44  -21.1187 26074.8 -03374.0 -07.3730 26292.2
 14 01 2013  11 45  -21.1188 26075.4 -03373.9 -07.3725 26292.7
 14 01 2013  11 46  -21.1183 26075.2 -03373.5 -07.3716 26292.5
 14 01 2013  11 47  -21.1185 26075.1 -03373.1 -07.3709 26292.4
 14 01 2013  11 48  -21.1187 26074.9 -03372.8 -07.3702 26292.1
 14 01 2013  11 49  -21.1194 26074.8 -03372.5 -07.3698 26292.0
 14 01 2013  11 50  -21.1205 26074.5 -03372.2 -07.3691 26291.7
 14 01 2013  11 51  -21.1214 26074.5 -03372.0 -07.3687 26291.6
 14 01 2013  11 52  -21.1216 26075.0 -03372.0 -07.3684 26292.2
 14 01 2013  11 53  -21.1203 26074.5 -03371.4 -07.3673 26291.6
 14 01 2013  11 54  -21.1192 26073.7 -03370.7 -07.3661 26290.7
 14 01 2013  11 55  -21.1183 26074.1 -03370.6 -07.3658 26291.0
 14 01 2013  11 56  -21.1176 26074.8 -03370.7 -07.3658 26291.8
 14 01 2013  11 57  -21.1180 26075.1 -03370.7 -07.3656 26292.1
 14 01 2013  11 58  -21.1188 26074.9 -03370.5 -07.3653 26291.9
 14 01 2013  11 59  -21.1183 26075.0 -03370.4 -07.3651 26291.9
 14 01 2013  12 00  -21.1172 26075.5 -03370.5 -07.3652 26292.4
 14 01 2013  12 01  -21.1174 26075.8 -03370.5 -07.3650 26292.8
 14 01 2013  12 02  -21.1184 26076.1 -03370.3 -07.3646 26293.0
 14 01 2013  12 03  -21.1195 26076.5 -03370.1 -07.3639 26293.4
 14 01 2013  12 04  -21.1205 26077.2 -03369.9 -07.3633 26294.0
 14 01 2013  12 05  -21.1209 26077.7 -03369.7 -07.3629 26294.5
 14 01 2013  12 06  -21.1208 26077.7 -03369.5 -07.3623 26294.5
 14 01 2013  12 07  -21.1204 26077.4 -03369.0 -07.3615 26294.1
 14 01 2013  12 08  -21.1202 26076.9 -03368.6 -07.3606 26293.6
 14 01 2013  12 09  -21.1198 26076.9 -03368.3 -07.3599 26293.5
 14 01 2013  12 10  -21.1193 26076.8 -03367.9 -07.3591 26293.4
 14 01 2013  12 11  -21.1193 26076.9 -03367.5 -07.3583 26293.4
 14 01 2013  12 12  -21.1192 26077.2 -03367.3 -07.3579 26293.7
 14 01 2013  12 13  -21.1192 26077.4 -03367.2 -07.3575 26293.9
 14 01 2013  12 14  -21.1174 26078.0 -03367.0 -07.3570 26294.4
 14 01 2013  12 15  -21.1158 26078.4 -03366.9 -07.3566 26294.9
 14 01 2013  12 16  -21.1152 26078.9 -03366.9 -07.3563 26295.4
 14 01 2013  12 17  -21.1149 26079.8 -03366.9 -07.3561 26296.2
 14 01 2013  12 18  -21.1141 26080.6 -03366.8 -07.3558 26297.0
 14 01 2013  12 19  -21.1140 26082.2 -03367.2 -07.3562 26298.7
 14 01 2013  12 20  -21.1135 26082.9 -03367.2 -07.3558 26299.4
 14 01 2013  12 21  -21.1136 26082.8 -03366.7 -07.3550 26299.2
 14 01 2013  12 22  -21.1141 26082.3 -03366.2 -07.3539 26298.6
 14 01 2013  12 23  -21.1146 26081.8 -03365.7 -07.3530 26298.1
 14 01 2013  12 24  -21.1149 26081.5 -03365.3 -07.3521 26297.7
 14 01 2013  12 25  -21.1151 26081.2 -03364.9 -07.3514 26297.4
 14 01 2013  12 26  -21.1147 26081.2 -03364.7 -07.3510 26297.4
 14 01 2013  12 27  -21.1147 26081.5 -03364.6 -07.3507 26297.6
 14 01 2013  12 28  -21.1142 26081.8 -03364.4 -07.3503 26297.9
 14 01 2013  12 29  -21.1140 26081.6 -03364.1 -07.3495 26297.7
 14 01 2013  12 30  -21.1139 26082.1 -03363.9 -07.3492 26298.1
 14 01 2013  12 31  -21.1143 26082.1 -03363.7 -07.3486 26298.1
 14 01 2013  12 32  -21.1146 26081.5 -03363.1 -07.3476 26297.4
 14 01 2013  12 33  -21.1144 26081.2 -03362.7 -07.3467 26297.1
 14 01 2013  12 34  -21.1138 26081.7 -03362.7 -07.3465 26297.6
 14 01 2013  12 35  -21.1135 26081.3 -03362.2 -07.3457 26297.1
 14 01 2013  12 36  -21.1131 26081.7 -03362.0 -07.3451 26297.5
 14 01 2013  12 37  -21.1127 26081.7 -03361.6 -07.3443 26297.5
 14 01 2013  12 38  -21.1121 26081.5 -03361.4 -07.3438 26297.2
 14 01 2013  12 39  -21.1110 26081.7 -03361.3 -07.3435 26297.4
 14 01 2013  12 40  -21.1092 26082.0 -03361.2 -07.3433 26297.7
 14 01 2013  12 41  -21.1078 26081.8 -03360.9 -07.3426 26297.4
 14 01 2013  12 42  -21.1060 26082.9 -03360.9 -07.3425 26298.5
 14 01 2013  12 43  -21.1062 26084.8 -03361.3 -07.3426 26300.5
 14 01 2013  12 44  -21.1070 26086.2 -03361.3 -07.3423 26301.8
 14 01 2013  12 45  -21.1070 26086.4 -03360.8 -07.3412 26302.0
 14 01 2013  12 46  -21.1060 26085.6 -03360.0 -07.3396 26301.1
 14 01 2013  12 47  -21.1045 26084.8 -03359.2 -07.3382 26300.2
 14 01 2013  12 48  -21.1028 26085.3 -03359.1 -07.3377 26300.7
 14 01 2013  12 49  -21.1012 26086.0 -03359.0 -07.3374 26301.4
 14 01 2013  12 50  -21.0999 26086.6 -03358.9 -07.3370 26301.9
 14 01 2013  12 51  -21.0990 26086.6 -03358.5 -07.3362 26301.9
 14 01 2013  12 52  -21.0980 26086.2 -03358.1 -07.3353 26301.4
 14 01 2013  12 53  -21.0966 26085.9 -03357.6 -07.3344 26301.1
 14 01 2013  12 54  -21.0948 26085.8 -03357.3 -07.3337 26300.9
 14 01 2013  12 55  -21.0931 26085.6 -03357.0 -07.3332 26300.7
 14 01 2013  12 56  -21.0921 26085.4 -03356.8 -07.3328 26300.5
 14 01 2013  12 57  -21.0917 26086.2 -03357.0 -07.3330 26301.3
 14 01 2013  12 58  -21.0910 26086.7 -03357.0 -07.3328 26301.8
 14 01 2013  12 59  -21.0902 26087.3 -03357.0 -07.3326 26302.4
 14 01 2013  13 00  -21.0895 26087.6 -03356.8 -07.3323 26302.6
 14 01 2013  13 01  -21.0887 26087.5 -03356.6 -07.3318 26302.6
 14 01 2013  13 02  -21.0881 26087.2 -03356.3 -07.3313 26302.3
 14 01 2013  13 03  -21.0874 26087.0 -03356.1 -07.3309 26302.0
 14 01 2013  13 04  -21.0872 26087.1 -03356.1 -07.3308 26302.1
 14 01 2013  13 05  -21.0869 26087.0 -03356.0 -07.3306 26302.0
 14 01 2013  13 06  -21.0866 26086.3 -03355.7 -07.3301 26301.3
 14 01 2013  13 07  -21.0862 26085.9 -03355.4 -07.3297 26300.8
 14 01 2013  13 08  -21.0863 26085.5 -03355.3 -07.3295 26300.4
 14 01 2013  13 09  -21.0862 26085.4 -03355.3 -07.3296 26300.3
 14 01 2013  13 10  -21.0864 26085.3 -03355.3 -07.3296 26300.2
 14 01 2013  13 11  -21.0862 26085.2 -03355.4 -07.3297 26300.1
 14 01 2013  13 12  -21.0850 26085.4 -03355.4 -07.3298 26300.3
 14 01 2013  13 13  -21.0832 26084.9 -03355.2 -07.3296 26299.8
 14 01 2013  13 14  -21.0819 26084.9 -03355.3 -07.3297 26299.8
 14 01 2013  13 15  -21.0811 26085.5 -03355.6 -07.3302 26300.4
 14 01 2013  13 16  -21.0807 26085.8 -03355.8 -07.3304 26300.8
 14 01 2013  13 17  -21.0801 26085.5 -03355.5 -07.3300 26300.5
 14 01 2013  13 18  -21.0795 26085.5 -03355.4 -07.3298 26300.5
 14 01 2013  13 19  -21.0794 26085.8 -03355.5 -07.3299 26300.7
 14 01 2013  13 20  -21.0787 26085.8 -03355.5 -07.3298 26300.7
 14 01 2013  13 21  -21.0777 26086.0 -03355.5 -07.3299 26301.0
 14 01 2013  13 22  -21.0764 26086.2 -03355.5 -07.3298 26301.2
 14 01 2013  13 23  -21.0752 26086.1 -03355.5 -07.3298 26301.0
 14 01 2013  13 24  -21.0741 26086.2 -03355.6 -07.3299 26301.1
 14 01 2013  13 25  -21.0735 26086.1 -03355.7 -07.3302 26301.1
 14 01 2013  13 26  -21.0726 26086.4 -03355.8 -07.3304 26301.4
 14 01 2013  13 27  -21.0717 26087.2 -03356.2 -07.3309 26302.2
 14 01 2013  13 28  -21.0714 26087.9 -03356.4 -07.3313 26302.9
 14 01 2013  13 29  -21.0711 26088.2 -03356.6 -07.3316 26303.3
 14 01 2013  13 30  -21.0705 26088.0 -03356.5 -07.3315 26303.0
 14 01 2013  13 31  -21.0690 26087.6 -03356.4 -07.3313 26302.6
 14 01 2013  13 32  -21.0678 26087.4 -03356.4 -07.3314 26302.4
 14 01 2013  13 33  -21.0667 26088.0 -03356.9 -07.3322 26303.1
 14 01 2013  13 34  -21.0659 26088.2 -03357.0 -07.3325 26303.3
 14 01 2013  13 35  -21.0658 26088.6 -03357.3 -07.3331 26303.7
 14 01 2013  13 36  -21.0654 26088.1 -03357.3 -07.3331 26303.3
 14 01 2013  13 37  -21.0651 26087.5 -03357.2 -07.3330 26302.6
 14 01 2013  13 38  -21.0650 26087.1 -03357.2 -07.3332 26302.3
 14 01 2013  13 39  -21.0650 26087.7 -03357.5 -07.3337 26302.9
 14 01 2013  13 40  -21.0656 26088.3 -03357.8 -07.3342 26303.5
 14 01 2013  13 41  -21.0662 26088.9 -03358.1 -07.3345 26304.1
 14 01 2013  13 42  -21.0662 26089.0 -03358.1 -07.3345 26304.2
 14 01 2013  13 43  -21.0662 26088.2 -03357.7 -07.3339 26303.4
 14 01 2013  13 44  -21.0659 26087.9 -03357.6 -07.3338 26303.0
 14 01 2013  13 45  -21.0646 26087.7 -03357.6 -07.3338 26302.8
 14 01 2013  13 46  -21.0632 26087.9 -03357.8 -07.3342 26303.1
 14 01 2013  13 47  -21.0627 26087.9 -03357.9 -07.3344 26303.1
 14 01 2013  13 48  -21.0626 26087.1 -03357.7 -07.3342 26302.3
 14 01 2013  13 49  -21.0620 26086.8 -03357.6 -07.3342 26302.0
 14 01 2013  13 50  -21.0616 26086.6 -03357.7 -07.3344 26301.8
 14 01 2013  13 51  -21.0607 26084.8 -03357.1 -07.3336 26300.0
 14 01 2013  13 52  -21.0606 26084.2 -03357.2 -07.3340 26299.4
 14 01 2013  13 53  -21.0602 26084.3 -03357.6 -07.3348 26299.5
 14 01 2013  13 54  -21.0594 26083.5 -03357.7 -07.3352 26298.8
 14 01 2013  13 55  -21.0596 26082.3 -03357.6 -07.3353 26297.5
 14 01 2013  13 56  -21.0601 26082.6 -03358.1 -07.3364 26297.9
 14 01 2013  13 57  -21.0596 26082.4 -03358.4 -07.3371 26297.8
 14 01 2013  13 58  -21.0582 26083.5 -03359.1 -07.3383 26298.9
 14 01 2013  13 59  -21.0569 26083.1 -03359.0 -07.3383 26298.5
 14 01 2013  14 00  -21.0564 26082.5 -03359.0 -07.3384 26297.9
 14 01 2013  14 01  -21.0563 26081.7 -03359.0 -07.3386 26297.1
 14 01 2013  14 02  -21.0556 26080.7 -03359.0 -07.3388 26296.1
 14 01 2013  14 03  -21.0557 26080.6 -03359.3 -07.3395 26296.1
 14 01 2013  14 04  -21.0555 26081.4 -03360.0 -07.3408 26296.9
 14 01 2013  14 05  -21.0539 26081.5 -03360.2 -07.3412 26297.0
 14 01 2013  14 06  -21.0526 26081.7 -03360.3 -07.3414 26297.3
 14 01 2013  14 07  -21.0530 26081.1 -03360.2 -07.3413 26296.7
 14 01 2013  14 08  -21.0544 26080.6 -03360.3 -07.3417 26296.2
 14 01 2013  14 09  -21.0550 26080.7 -03360.6 -07.3422 26296.3
 14 01 2013  14 10  -21.0550 26081.6 -03361.0 -07.3430 26297.2
 14 01 2013  14 11  -21.0545 26082.9 -03361.6 -07.3438 26298.7
 14 01 2013  14 12  -21.0552 26084.5 -03362.1 -07.3445 26300.2
 14 01 2013  14 13  -21.0563 26085.7 -03362.4 -07.3448 26301.5
 14 01 2013  14 14  -21.0569 26085.8 -03362.1 -07.3441 26301.5
 14 01 2013  14 15  -21.0568 26085.6 -03361.7 -07.3433 26301.3
 14 01 2013  14 16  -21.0559 26085.0 -03361.3 -07.3425 26300.7
 14 01 2013  14 17  -21.0549 26083.6 -03360.6 -07.3416 26299.2
 14 01 2013  14 18  -21.0536 26081.9 -03360.1 -07.3409 26297.5
 14 01 2013  14 19  -21.0524 26081.3 -03360.2 -07.3414 26296.8
 14 01 2013  14 20  -21.0520 26081.6 -03360.8 -07.3426 26297.3
 14 01 2013  14 21  -21.0519 26082.3 -03361.5 -07.3437 26298.1
 14 01 2013  14 22  -21.0520 26083.9 -03362.2 -07.3449 26299.7
 14 01 2013  14 23  -21.0524 26085.0 -03362.5 -07.3452 26300.9
 14 01 2013  14 24  -21.0524 26085.1 -03362.3 -07.3447 26300.9
 14 01 2013  14 25  -21.0523 26084.0 -03361.7 -07.3437 26299.8
 14 01 2013  14 26  -21.0516 26082.8 -03361.2 -07.3429 26298.5
 14 01 2013  14 27  -21.0517 26082.2 -03361.1 -07.3429 26297.9
 14 01 2013  14 28  -21.0525 26082.3 -03361.2 -07.3433 26298.0
 14 01 2013  14 29  -21.0526 26082.2 -03361.3 -07.3434 26297.9
 14 01 2013  14 30  -21.0527 26082.4 -03361.4 -07.3436 26298.1
 14 01 2013  14 31  -21.0526 26082.5 -03361.4 -07.3436 26298.2
 14 01 2013  14 32  -21.0524 26082.5 -03361.4 -07.3436 26298.2
 14 01 2013  14 33  -21.0524 26082.2 -03361.3 -07.3433 26297.9
 14 01 2013  14 34  -21.0525 26082.0 -03361.2 -07.3433 26297.7
 14 01 2013  14 35  -21.0526 26082.1 -03361.2 -07.3432 26297.8
 14 01 2013  14 36  -21.0528 26082.2 -03361.2 -07.3431 26297.9
 14 01 2013  14 37  -21.0529 26081.8 -03361.0 -07.3428 26297.5
 14 01 2013  14 38  -21.0528 26081.3 -03360.6 -07.3422 26296.9
 14 01 2013  14 39  -21.0529 26081.2 -03360.6 -07.3421 26296.9
 14 01 2013  14 40  -21.0532 26081.4 -03360.6 -07.3420 26297.0
 14 01 2013  14 41  -21.0530 26081.3 -03360.4 -07.3416 26296.9
 14 01 2013  14 42  -21.0533 26081.6 -03360.4 -07.3415 26297.2
 14 01 2013  14 43  -21.0530 26080.8 -03359.9 -07.3407 26296.4
 14 01 2013  14 44  -21.0526 26080.4 -03359.6 -07.3401 26295.9
 14 01 2013  14 45  -21.0526 26080.0 -03359.4 -07.3399 26295.5
 14 01 2013  14 46  -21.0526 26079.8 -03359.3 -07.3398 26295.3
 14 01 2013  14 47  -21.0519 26080.0 -03359.4 -07.3398 26295.4
 14 01 2013  14 48  -21.0516 26080.1 -03359.3 -07.3397 26295.6
 14 01 2013  14 49  -21.0514 26080.0 -03359.2 -07.3394 26295.5
 14 01 2013  14 50  -21.0511 26080.2 -03359.2 -07.3395 26295.7
 14 01 2013  14 51  -21.0506 26080.2 -03359.1 -07.3393 26295.6
 14 01 2013  14 52  -21.0506 26080.1 -03359.1 -07.3393 26295.6
 14 01 2013  14 53  -21.0507 26080.3 -03359.1 -07.3392 26295.7
 14 01 2013  14 54  -21.0511 26081.1 -03359.4 -07.3396 26296.5
 14 01 2013  14 55  -21.0506 26080.5 -03359.0 -07.3389 26296.0
 14 01 2013  14 56  -21.0503 26080.3 -03358.8 -07.3385 26295.7
 14 01 2013  14 57  -21.0500 26080.6 -03358.9 -07.3386 26296.0
 14 01 2013  14 58  -21.0498 26080.8 -03358.9 -07.3385 26296.2
 14 01 2013  14 59  -21.0499 26080.5 -03358.6 -07.3380 26295.9
 14 01 2013  15 00  -21.0495 26080.5 -03358.5 -07.3377 26295.9
 14 01 2013  15 01  -21.0494 26080.7 -03358.4 -07.3376 26296.0
 14 01 2013  15 02  -21.0493 26080.8 -03358.4 -07.3375 26296.1
 14 01 2013  15 03  -21.0491 26081.4 -03358.4 -07.3373 26296.7
 14 01 2013  15 04  -21.0498 26082.0 -03358.4 -07.3373 26297.3
 14 01 2013  15 05  -21.0505 26082.2 -03358.2 -07.3366 26297.5
 14 01 2013  15 06  -21.0512 26082.5 -03357.9 -07.3359 26297.8
 14 01 2013  15 07  -21.0518 26082.3 -03357.4 -07.3349 26297.5
 14 01 2013  15 08  -21.0515 26080.9 -03356.4 -07.3332 26296.0
 14 01 2013  15 09  -21.0511 26079.2 -03355.6 -07.3318 26294.2
 14 01 2013  15 10  -21.0506 26077.9 -03355.0 -07.3310 26292.9
 14 01 2013  15 11  -21.0491 26076.6 -03354.5 -07.3303 26291.5
 14 01 2013  15 12  -21.0472 26075.7 -03354.3 -07.3301 26290.6
 14 01 2013  15 13  -21.0443 26076.0 -03354.7 -07.3310 26291.0
 14 01 2013  15 14  -21.0421 26076.5 -03355.1 -07.3317 26291.4
 14 01 2013  15 15  -21.0417 26076.7 -03355.5 -07.3323 26291.7
 14 01 2013  15 16  -21.0418 26077.1 -03355.8 -07.3330 26292.2
 14 01 2013  15 17  -21.0419 26077.0 -03355.8 -07.3330 26292.0
 14 01 2013  15 18  -21.0415 26077.2 -03355.9 -07.3332 26292.3
 14 01 2013  15 19  -21.0405 26077.4 -03356.0 -07.3333 26292.5
 14 01 2013  15 20  -21.0404 26079.4 -03356.6 -07.3341 26294.5
 14 01 2013  15 21  -21.0429 26081.0 -03357.1 -07.3347 26296.2
 14 01 2013  15 22  -21.0444 26081.6 -03357.0 -07.3343 26296.7
 14 01 2013  15 23  -21.0411 26078.5 -03355.4 -07.3317 26293.5
 14 01 2013  15 24  -21.0368 26076.1 -03354.5 -07.3304 26291.0
 14 01 2013  15 25  -21.0335 26073.9 -03354.1 -07.3301 26288.8
 14 01 2013  15 26  -21.0318 26073.9 -03354.6 -07.3313 26288.8
 14 01 2013  15 27  -21.0316 26075.3 -03355.9 -07.3336 26290.4
 14 01 2013  15 28  -21.0303 26076.8 -03356.8 -07.3351 26292.0
 14 01 2013  15 29  -21.0275 26077.3 -03357.1 -07.3358 26292.5
 14 01 2013  15 30  -21.0259 26076.9 -03357.0 -07.3357 26292.1
 14 01 2013  15 31  -21.0275 26076.9 -03357.2 -07.3361 26292.1
 14 01 2013  15 32  -21.0294 26077.1 -03357.4 -07.3364 26292.4
 14 01 2013  15 33  -21.0298 26077.3 -03357.4 -07.3364 26292.5
 14 01 2013  15 34  -21.0290 26077.4 -03357.4 -07.3363 26292.7
 14 01 2013  15 35  -21.0284 26077.3 -03357.4 -07.3363 26292.6
 14 01 2013  15 36  -21.0285 26077.3 -03357.4 -07.3364 26292.5
 14 01 2013  15 37  -21.0288 26077.5 -03357.6 -07.3367 26292.8
 14 01 2013  15 38  -21.0293 26077.8 -03357.8 -07.3371 26293.1
 14 01 2013  15 39  -21.0297 26078.0 -03357.9 -07.3373 26293.3
 14 01 2013  15 40  -21.0293 26077.3 -03357.6 -07.3368 26292.5
 14 01 2013  15 41  -21.0295 26077.1 -03357.6 -07.3367 26292.4
 14 01 2013  15 42  -21.0300 26076.5 -03357.3 -07.3364 26291.8
 14 01 2013  15 43  -21.0303 26076.7 -03357.4 -07.3365 26291.9
 14 01 2013  15 44  -21.0301 26076.5 -03357.3 -07.3364 26291.8
 14 01 2013  15 45  -21.0297 26075.6 -03357.1 -07.3361 26290.8
 14 01 2013  15 46  -21.0296 26075.2 -03357.1 -07.3362 26290.4
 14 01 2013  15 47  -21.0298 26075.0 -03357.2 -07.3366 26290.2
 14 01 2013  15 48  -21.0295 26074.5 -03357.3 -07.3368 26289.8
 14 01 2013  15 49  -21.0297 26073.8 -03357.3 -07.3371 26289.1
 14 01 2013  15 50  -21.0304 26073.7 -03357.6 -07.3379 26289.0
 14 01 2013  15 51  -21.0310 26073.8 -03358.1 -07.3388 26289.2
 14 01 2013  15 52  -21.0311 26073.9 -03358.5 -07.3396 26289.3
 14 01 2013  15 53  -21.0308 26073.7 -03358.6 -07.3399 26289.1
 14 01 2013  15 54  -21.0303 26073.5 -03358.7 -07.3402 26289.0
 14 01 2013  15 55  -21.0301 26073.3 -03358.9 -07.3407 26288.7
 14 01 2013  15 56  -21.0298 26072.7 -03359.0 -07.3411 26288.2
 14 01 2013  15 57  -21.0290 26071.9 -03359.0 -07.3413 26287.4
 14 01 2013  15 58  -21.0287 26071.2 -03359.1 -07.3418 26286.7
 14 01 2013  15 59  -21.0284 26070.2 -03359.1 -07.3421 26285.7
 14 01 2013  16 00  -21.0276 26069.4 -03359.3 -07.3425 26285.0
 14 01 2013  16 01  -21.0273 26068.0 -03359.2 -07.3427 26283.6
 14 01 2013  16 02  -21.0272 26067.6 -03359.5 -07.3436 26283.2
 14 01 2013  16 03  -21.0268 26066.3 -03359.6 -07.3441 26281.9
 14 01 2013  16 04  -21.0274 26065.9 -03360.0 -07.3452 26281.5
 14 01 2013  16 05  -21.0278 26065.7 -03360.4 -07.3461 26281.4
 14 01 2013  16 06  -21.0281 26065.4 -03360.8 -07.3470 26281.1
 14 01 2013  16 07  -21.0271 26065.6 -03361.2 -07.3478 26281.4
 14 01 2013  16 08  -21.0263 26065.8 -03361.4 -07.3482 26281.6
 14 01 2013  16 09  -21.0265 26065.6 -03361.6 -07.3487 26281.5
 14 01 2013  16 10  -21.0265 26065.3 -03361.8 -07.3492 26281.2
 14 01 2013  16 11  -21.0262 26065.4 -03362.1 -07.3499 26281.3
 14 01 2013  16 12  -21.0263 26065.7 -03362.4 -07.3505 26281.7
 14 01 2013  16 13  -21.0266 26066.5 -03363.0 -07.3514 26282.5
 14 01 2013  16 14  -21.0267 26066.8 -03363.1 -07.3516 26282.8
 14 01 2013  16 15  -21.0269 26066.9 -03363.2 -07.3517 26283.0
 14 01 2013  16 16  -21.0266 26066.9 -03363.2 -07.3517 26283.0
 14 01 2013  16 17  -21.0262 26067.0 -03363.3 -07.3519 26283.1
 14 01 2013  16 18  -21.0261 26067.1 -03363.4 -07.3521 26283.2
 14 01 2013  16 19  -21.0271 26067.1 -03363.4 -07.3521 26283.2
 14 01 2013  16 20  -21.0281 26067.5 -03363.6 -07.3524 26283.6
 14 01 2013  16 21  -21.0288 26067.7 -03363.6 -07.3524 26283.8
 14 01 2013  16 22  -21.0294 26068.1 -03363.7 -07.3525 26284.2
 14 01 2013  16 23  -21.0295 26068.6 -03363.8 -07.3525 26284.7
 14 01 2013  16 24  -21.0294 26068.7 -03363.7 -07.3524 26284.8
 14 01 2013  16 25  -21.0296 26068.7 -03363.6 -07.3522 26284.8
 14 01 2013  16 26  -21.0291 26067.9 -03363.1 -07.3514 26284.0
 14 01 2013  16 27  -21.0291 26068.0 -03363.2 -07.3514 26284.1
 14 01 2013  16 28  -21.0292 26068.1 -03363.2 -07.3515 26284.2
 14 01 2013  16 29  -21.0293 26068.2 -03363.3 -07.3515 26284.2
 14 01 2013  16 30  -21.0291 26068.0 -03363.1 -07.3513 26284.0
 14 01 2013  16 31  -21.0287 26067.8 -03363.0 -07.3511 26283.9
 14 01 2013  16 32  -21.0286 26067.6 -03363.0 -07.3511 26283.6
 14 01 2013  16 33  -21.0281 26067.4 -03362.9 -07.3509 26283.4
 14 01 2013  16 34  -21.0280 26067.4 -03362.9 -07.3510 26283.4
 14 01 2013  16 35  -21.0281 26067.4 -03363.0 -07.3512 26283.5
 14 01 2013  16 36  -21.0282 26067.5 -03363.0 -07.3513 26283.6
 14 01 2013  16 37  -21.0280 26067.5 -03363.0 -07.3512 26283.5
 14 01 2013  16 38  -21.0270 26067.3 -03362.9 -07.3509 26283.4
 14 01 2013  16 39  -21.0264 26067.3 -03362.8 -07.3509 26283.4
 14 01 2013  16 40  -21.0259 26066.9 -03362.6 -07.3505 26282.9
 14 01 2013  16 41  -21.0258 26066.5 -03362.5 -07.3503 26282.5
 14 01 2013  16 42  -21.0254 26065.5 -03362.0 -07.3495 26281.4
 14 01 2013  16 43  -21.0252 26065.3 -03361.9 -07.3494 26281.2
 14 01 2013  16 44  -21.0249 26065.3 -03361.9 -07.3494 26281.2
 14 01 2013  16 45  -21.0246 26065.5 -03361.9 -07.3495 26281.4
 14 01 2013  16 46  -21.0240 26065.6 -03362.0 -07.3495 26281.5
 14 01 2013  16 47  -21.0233 26065.5 -03362.0 -07.3495 26281.5
 14 01 2013  16 48  -21.0225 26065.8 -03362.1 -07.3497 26281.7
 14 01 2013  16 49  -21.0220 26065.7 -03362.1 -07.3498 26281.6
 14 01 2013  16 50  -21.0215 26065.4 -03362.1 -07.3498 26281.4
 14 01 2013  16 51  -21.0206 26064.1 -03361.5 -07.3489 26280.0
 14 01 2013  16 52  -21.0197 26064.7 -03361.9 -07.3495 26280.6
 14 01 2013  16 53  -21.0190 26064.6 -03361.9 -07.3496 26280.5
 14 01 2013  16 54  -21.0195 26065.0 -03362.2 -07.3501 26280.9
 14 01 2013  16 55  -21.0193 26065.5 -03362.4 -07.3505 26281.5
 14 01 2013  16 56  -21.0186 26065.9 -03362.5 -07.3506 26281.9
 14 01 2013  16 57  -21.0172 26065.4 -03362.2 -07.3501 26281.3
 14 01 2013  16 58  -21.0162 26064.8 -03362.1 -07.3500 26280.8
 14 01 2013  16 59  -21.0156 26064.4 -03362.1 -07.3502 26280.4
 14 01 2013  17 00  -21.0149 26064.5 -03362.3 -07.3505 26280.5
 14 01 2013  17 01  -21.0146 26064.5 -03362.5 -07.3510 26280.5
 14 01 2013  17 02  -21.0142 26064.2 -03362.6 -07.3512 26280.2
 14 01 2013  17 03  -21.0135 26063.9 -03362.6 -07.3513 26279.9
 14 01 2013  17 04  -21.0124 26063.4 -03362.6 -07.3514 26279.5
 14 01 2013  17 05  -21.0116 26063.8 -03363.0 -07.3521 26279.8
 14 01 2013  17 06  -21.0109 26064.2 -03363.3 -07.3528 26280.3
 14 01 2013  17 07  -21.0104 26064.7 -03363.7 -07.3535 26280.8
 14 01 2013  17 08  -21.0098 26064.7 -03363.8 -07.3538 26280.8
 14 01 2013  17 09  -21.0098 26064.6 -03363.9 -07.3540 26280.8
 14 01 2013  17 10  -21.0102 26064.7 -03364.0 -07.3541 26280.8
 14 01 2013  17 11  -21.0099 26064.6 -03364.0 -07.3541 26280.8
 14 01 2013  17 12  -21.0092 26064.3 -03363.8 -07.3538 26280.5
 14 01 2013  17 13  -21.0087 26064.1 -03363.7 -07.3535 26280.2
 14 01 2013  17 14  -21.0085 26064.1 -03363.6 -07.3535 26280.3
 14 01 2013  17 15  -21.0083 26064.3 -03363.7 -07.3535 26280.4
 14 01 2013  17 16  -21.0080 26064.2 -03363.5 -07.3532 26280.3
 14 01 2013  17 17  -21.0072 26064.2 -03363.5 -07.3531 26280.3
 14 01 2013  17 18  -21.0070 26064.4 -03363.5 -07.3531 26280.5
 14 01 2013  17 19  -21.0061 26064.1 -03363.3 -07.3529 26280.2
 14 01 2013  17 20  -21.0053 26063.5 -03363.1 -07.3526 26279.6
 14 01 2013  17 21  -21.0047 26063.0 -03363.0 -07.3525 26279.1
 14 01 2013  17 22  -21.0040 26062.6 -03362.9 -07.3524 26278.7
 14 01 2013  17 23  -21.0035 26062.1 -03362.9 -07.3524 26278.1
 14 01 2013  17 24  -21.0033 26061.9 -03362.9 -07.3526 26278.0
 14 01 2013  17 25  -21.0034 26061.8 -03363.0 -07.3528 26277.9
 14 01 2013  17 26  -21.0020 26061.2 -03362.9 -07.3527 26277.3
 14 01 2013  17 27  -21.0009 26060.8 -03363.0 -07.3531 26276.9
 14 01 2013  17 28  -21.0003 26060.4 -03363.1 -07.3533 26276.5
 14 01 2013  17 29  -21.0004 26060.1 -03363.2 -07.3538 26276.2
 14 01 2013  17 30  -20.9998 26059.8 -03363.4 -07.3542 26276.0
 14 01 2013  17 31  -20.9988 26059.1 -03363.4 -07.3544 26275.2
 14 01 2013  17 32  -20.9976 26058.2 -03363.3 -07.3545 26274.4
 14 01 2013  17 33  -20.9970 26057.6 -03363.4 -07.3549 26273.7
 14 01 2013  17 34  -20.9973 26057.6 -03363.9 -07.3558 26273.9
 14 01 2013  17 35  -20.9967 26057.3 -03364.0 -07.3562 26273.6
 14 01 2013  17 36  -20.9954 26056.7 -03364.1 -07.3565 26273.0
 14 01 2013  17 37  -20.9944 26056.0 -03364.2 -07.3570 26272.3
 14 01 2013  17 38  -20.9937 26055.8 -03364.5 -07.3576 26272.1
 14 01 2013  17 39  -20.9939 26055.8 -03364.8 -07.3584 26272.1
 14 01 2013  17 40  -20.9947 26055.8 -03365.2 -07.3591 26272.2
 14 01 2013  17 41  -20.9949 26055.7 -03365.3 -07.3594 26272.2
 14 01 2013  17 42  -20.9940 26055.0 -03365.1 -07.3592 26271.4
 14 01 2013  17 43  -20.9937 26054.8 -03365.2 -07.3595 26271.2
 14 01 2013  17 44  -20.9937 26054.5 -03365.4 -07.3599 26271.0
 14 01 2013  17 45  -20.9936 26054.4 -03365.5 -07.3603 26270.8
 14 01 2013  17 46  -20.9934 26054.4 -03365.7 -07.3607 26270.8
 14 01 2013  17 47  -20.9933 26054.6 -03366.0 -07.3613 26271.1
 14 01 2013  17 48  -20.9929 26054.4 -03366.2 -07.3617 26271.0
 14 01 2013  17 49  -20.9923 26054.2 -03366.3 -07.3621 26270.8
 14 01 2013  17 50  -20.9920 26053.8 -03366.4 -07.3624 26270.4
 14 01 2013  17 51  -20.9917 26054.0 -03366.8 -07.3632 26270.6
 14 01 2013  17 52  -20.9920 26054.6 -03367.3 -07.3641 26271.3
 14 01 2013  17 53  -20.9925 26055.2 -03367.8 -07.3651 26272.0
 14 01 2013  17 54  -20.9924 26055.3 -03368.0 -07.3654 26272.1
 14 01 2013  17 55  -20.9918 26054.9 -03368.0 -07.3655 26271.7
 14 01 2013  17 56  -20.9905 26053.9 -03367.7 -07.3651 26270.7
 14 01 2013  17 57  -20.9896 26053.0 -03367.5 -07.3649 26269.7
 14 01 2013  17 58  -20.9896 26052.7 -03367.7 -07.3655 26269.5
 14 01 2013  17 59  -20.9900 26052.8 -03368.1 -07.3664 26269.6
 14 01 2013  18 00  -20.9901 26053.0 -03368.5 -07.3672 26269.9
 14 01 2013  18 01  -20.9892 26052.8 -03368.8 -07.3677 26269.7
 14 01 2013  18 02  -20.9882 26052.4 -03368.9 -07.3681 26269.3
 14 01 2013  18 03  -20.9880 26052.5 -03369.2 -07.3689 26269.4
 14 01 2013  18 04  -20.9881 26052.6 -03369.6 -07.3697 26269.6
 14 01 2013  18 05  -20.9875 26052.3 -03369.7 -07.3700 26269.3
 14 01 2013  18 06  -20.9870 26052.5 -03370.1 -07.3708 26269.5
 14 01 2013  18 07  -20.9868 26052.7 -03370.5 -07.3715 26269.8
 14 01 2013  18 08  -20.9865 26053.2 -03371.0 -07.3724 26270.4
 14 01 2013  18 09  -20.9864 26053.1 -03371.2 -07.3729 26270.3
 14 01 2013  18 10  -20.9861 26053.3 -03371.5 -07.3735 26270.5
 14 01 2013  18 11  -20.9858 26052.7 -03371.4 -07.3735 26269.9
 14 01 2013  18 12  -20.9855 26052.4 -03371.5 -07.3738 26269.6
 14 01 2013  18 13  -20.9853 26052.4 -03371.7 -07.3743 26269.6
 14 01 2013  18 14  -20.9852 26052.3 -03371.9 -07.3748 26269.6
 14 01 2013  18 15  -20.9852 26052.5 -03372.3 -07.3754 26269.9
 14 01 2013  18 16  -20.9851 26052.7 -03372.6 -07.3760 26270.0
 14 01 2013  18 17  -20.9848 26052.9 -03372.9 -07.3766 26270.3
 14 01 2013  18 18  -20.9844 26052.8 -03373.1 -07.3770 26270.2
 14 01 2013  18 19  -20.9842 26052.8 -03373.3 -07.3775 26270.2
 14 01 2013  18 20  -20.9838 26052.8 -03373.5 -07.3780 26270.3
 14 01 2013  18 21  -20.9837 26052.7 -03373.7 -07.3784 26270.2
 14 01 2013  18 22  -20.9833 26052.6 -03373.8 -07.3787 26270.1
 14 01 2013  18 23  -20.9833 26052.4 -03373.9 -07.3791 26269.9
 14 01 2013  18 24  -20.9832 26052.3 -03374.2 -07.3796 26269.9
 14 01 2013  18 25  -20.9833 26052.2 -03374.3 -07.3800 26269.8
 14 01 2013  18 26  -20.9832 26052.4 -03374.6 -07.3805 26270.1
 14 01 2013  18 27  -20.9834 26052.7 -03374.9 -07.3812 26270.3
 14 01 2013  18 28  -20.9835 26052.7 -03375.2 -07.3816 26270.4
 14 01 2013  18 29  -20.9835 26053.1 -03375.5 -07.3823 26270.8
 14 01 2013  18 30  -20.9835 26053.0 -03375.7 -07.3826 26270.8
 14 01 2013  18 31  -20.9837 26053.0 -03375.8 -07.3829 26270.8
 14 01 2013  18 32  -20.9834 26052.8 -03375.9 -07.3831 26270.6
 14 01 2013  18 33  -20.9832 26052.1 -03375.7 -07.3830 26269.9
 14 01 2013  18 34  -20.9837 26051.8 -03375.8 -07.3833 26269.6
 14 01 2013  18 35  -20.9834 26052.1 -03376.1 -07.3839 26270.0
 14 01 2013  18 36  -20.9832 26052.0 -03376.3 -07.3842 26269.8
 14 01 2013  18 37  -20.9830 26051.7 -03376.4 -07.3845 26269.6
 14 01 2013  18 38  -20.9827 26051.8 -03376.6 -07.3849 26269.7
 14 01 2013  18 39  -20.9833 26051.6 -03376.7 -07.3852 26269.5
 14 01 2013  18 40  -20.9832 26051.7 -03376.9 -07.3856 26269.7
 14 01 2013  18 41  -20.9830 26051.9 -03377.1 -07.3861 26269.9
 14 01 2013  18 42  -20.9833 26052.1 -03377.3 -07.3865 26270.1
 14 01 2013  18 43  -20.9835 26052.3 -03377.6 -07.3870 26270.3
 14 01 2013  18 44  -20.9836 26052.2 -03377.7 -07.3873 26270.2
 14 01 2013  18 45  -20.9841 26052.3 -03378.0 -07.3878 26270.4
 14 01 2013  18 46  -20.9841 26052.1 -03378.0 -07.3880 26270.2
 14 01 2013  18 47  -20.9849 26052.2 -03378.2 -07.3883 26270.4
 14 01 2013  18 48  -20.9852 26052.5 -03378.4 -07.3887 26270.6
 14 01 2013  18 49  -20.9857 26052.1 -03378.4 -07.3887 26270.3
 14 01 2013  18 50  -20.9861 26051.7 -03378.3 -07.3887 26269.8
 14 01 2013  18 51  -20.9868 26052.1 -03378.6 -07.3892 26270.3
 14 01 2013  18 52  -20.9879 26052.1 -03378.8 -07.3896 26270.3
 14 01 2013  18 53  -20.9885 26052.1 -03378.8 -07.3897 26270.3
 14 01 2013  18 54  -20.9888 26051.8 -03378.8 -07.3896 26270.0
 14 01 2013  18 55  -20.9891 26051.8 -03378.9 -07.3899 26270.0
 14 01 2013  18 56  -20.9898 26051.9 -03379.1 -07.3903 26270.2
 14 01 2013  18 57  -20.9902 26052.2 -03379.3 -07.3907 26270.4
 14 01 2013  18 58  -20.9908 26052.0 -03379.3 -07.3908 26270.3
 14 01 2013  18 59  -20.9914 26051.7 -03379.3 -07.3908 26269.9
 14 01 2013  19 00  -20.9913 26051.1 -03379.1 -07.3905 26269.3
 14 01 2013  19 01  -20.9913 26050.5 -03378.9 -07.3903 26268.7
 14 01 2013  19 02  -20.9922 26049.9 -03378.7 -07.3900 26268.1
 14 01 2013  19 03  -20.9926 26049.8 -03378.8 -07.3904 26268.0
 14 01 2013  19 04  -20.9932 26049.9 -03379.0 -07.3908 26268.2
 14 01 2013  19 05  -20.9936 26050.5 -03379.4 -07.3914 26268.8
 14 01 2013  19 06  -20.9941 26050.8 -03379.6 -07.3917 26269.1
 14 01 2013  19 07  -20.9940 26050.6 -03379.6 -07.3918 26269.0
 14 01 2013  19 08  -20.9940 26050.0 -03379.4 -07.3915 26268.3
 14 01 2013  19 09  -20.9946 26050.3 -03379.7 -07.3921 26268.7
 14 01 2013  19 10  -20.9947 26050.7 -03380.0 -07.3926 26269.0
 14 01 2013  19 11  -20.9947 26051.3 -03380.3 -07.3931 26269.7
 14 01 2013  19 12  -20.9949 26051.7 -03380.6 -07.3936 26270.1
 14 01 2013  19 13  -20.9953 26051.9 -03380.8 -07.3939 26270.4
 14 01 2013  19 14  -20.9963 26051.9 -03380.8 -07.3940 26270.4
 14 01 2013  19 15  -20.9970 26052.3 -03381.0 -07.3942 26270.8
 14 01 2013  19 16  -20.9975 26051.9 -03380.9 -07.3942 26270.3
 14 01 2013  19 17  -20.9976 26051.2 -03380.6 -07.3938 26269.6
 14 01 2013  19 18  -20.9978 26050.6 -03380.4 -07.3936 26269.0
 14 01 2013  19 19  -20.9979 26050.4 -03380.4 -07.3937 26268.8
 14 01 2013  19 20  -20.9983 26050.4 -03380.5 -07.3938 26268.8
 14 01 2013  19 21  -20.9985 26050.3 -03380.6 -07.3940 26268.7
 14 01 2013  19 22  -20.9990 26050.5 -03380.8 -07.3943 26269.0
 14 01 2013  19 23  -20.9994 26051.0 -03381.0 -07.3947 26269.5
 14 01 2013  19 24  -20.9997 26051.2 -03381.2 -07.3952 26269.8
 14 01 2013  19 25  -21.0000 26051.4 -03381.3 -07.3952 26269.9
 14 01 2013  19 26  -21.0003 26051.9 -03381.6 -07.3958 26270.5
 14 01 2013  19 27  -21.0006 26051.8 -03381.6 -07.3959 26270.4
 14 01 2013  19 28  -21.0008 26052.1 -03381.8 -07.3960 26270.7
 14 01 2013  19 29  -21.0012 26052.1 -03381.9 -07.3962 26270.7
 14 01 2013  19 30  -21.0016 26052.3 -03381.9 -07.3964 26270.8
 14 01 2013  19 31  -21.0018 26052.2 -03381.9 -07.3964 26270.8
 14 01 2013  19 32  -21.0022 26052.2 -03382.0 -07.3965 26270.8
 14 01 2013  19 33  -21.0027 26052.0 -03381.9 -07.3965 26270.6
 14 01 2013  19 34  -21.0030 26051.7 -03381.8 -07.3962 26270.3
 14 01 2013  19 35  -21.0034 26051.6 -03381.7 -07.3961 26270.1
 14 01 2013  19 36  -21.0038 26051.3 -03381.7 -07.3961 26269.9
 14 01 2013  19 37  -21.0042 26050.9 -03381.5 -07.3958 26269.5
 14 01 2013  19 38  -21.0046 26051.0 -03381.5 -07.3959 26269.5
 14 01 2013  19 39  -21.0051 26051.0 -03381.6 -07.3960 26269.5
 14 01 2013  19 40  -21.0051 26050.9 -03381.6 -07.3960 26269.5
 14 01 2013  19 41  -21.0053 26050.7 -03381.5 -07.3960 26269.3
 14 01 2013  19 42  -21.0053 26050.7 -03381.5 -07.3960 26269.2
 14 01 2013  19 43  -21.0056 26050.5 -03381.6 -07.3961 26269.1
 14 01 2013  19 44  -21.0058 26050.6 -03381.6 -07.3962 26269.2
 14 01 2013  19 45  -21.0065 26050.7 -03381.8 -07.3964 26269.3
 14 01 2013  19 46  -21.0070 26050.4 -03381.6 -07.3962 26269.0
 14 01 2013  19 47  -21.0080 26050.0 -03381.4 -07.3960 26268.5
 14 01 2013  19 48  -21.0089 26049.9 -03381.5 -07.3961 26268.5
 14 01 2013  19 49  -21.0098 26050.0 -03381.6 -07.3963 26268.6
 14 01 2013  19 50  -21.0104 26050.4 -03381.8 -07.3967 26269.0
 14 01 2013  19 51  -21.0107 26050.7 -03382.0 -07.3970 26269.3
 14 01 2013  19 52  -21.0110 26050.7 -03382.0 -07.3970 26269.3
 14 01 2013  19 53  -21.0113 26050.4 -03381.9 -07.3969 26269.0
 14 01 2013  19 54  -21.0115 26050.1 -03381.8 -07.3967 26268.7
 14 01 2013  19 55  -21.0118 26050.1 -03381.8 -07.3967 26268.7
 14 01 2013  19 56  -21.0121 26050.1 -03381.9 -07.3969 26268.7
 14 01 2013  19 57  -21.0124 26050.0 -03381.9 -07.3969 26268.6
 14 01 2013  19 58  -21.0128 26049.9 -03381.9 -07.3969 26268.5
 14 01 2013  19 59  -21.0131 26050.1 -03382.0 -07.3972 26268.7
 14 01 2013  20 00  -21.0132 26050.2 -03382.2 -07.3975 26268.9
 14 01 2013  20 01  -21.0136 26050.4 -03382.3 -07.3977 26269.0
 14 01 2013  20 02  -21.0140 26050.4 -03382.3 -07.3978 26269.0
 14 01 2013  20 03  -21.0146 26050.4 -03382.4 -07.3979 26269.1
 14 01 2013  20 04  -21.0153 26050.3 -03382.4 -07.3978 26269.0
 14 01 2013  20 05  -21.0160 26050.1 -03382.3 -07.3977 26268.7
 14 01 2013  20 06  -21.0167 26049.9 -03382.1 -07.3975 26268.5
 14 01 2013  20 07  -21.0172 26049.9 -03382.2 -07.3976 26268.5
 14 01 2013  20 08  -21.0179 26049.8 -03382.2 -07.3976 26268.5
 14 01 2013  20 09  -21.0184 26049.7 -03382.1 -07.3975 26268.3
 14 01 2013  20 10  -21.0189 26049.5 -03382.1 -07.3975 26268.2
 14 01 2013  20 11  -21.0195 26049.4 -03382.0 -07.3974 26268.0
 14 01 2013  20 12  -21.0197 26049.5 -03382.1 -07.3975 26268.1
 14 01 2013  20 13  -21.0200 26049.3 -03382.1 -07.3976 26267.9
 14 01 2013  20 14  -21.0205 26048.8 -03381.9 -07.3973 26267.4
 14 01 2013  20 15  -21.0207 26048.7 -03381.9 -07.3972 26267.4
 14 01 2013  20 16  -21.0209 26048.4 -03381.8 -07.3972 26267.0
 14 01 2013  20 17  -21.0213 26047.9 -03381.6 -07.3969 26266.5
 14 01 2013  20 18  -21.0213 26047.7 -03381.6 -07.3968 26266.3
 14 01 2013  20 19  -21.0215 26047.8 -03381.6 -07.3970 26266.3
 14 01 2013  20 20  -21.0221 26047.2 -03381.5 -07.3968 26265.7
 14 01 2013  20 21  -21.0223 26047.0 -03381.4 -07.3968 26265.6
 14 01 2013  20 22  -21.0225 26046.8 -03381.4 -07.3968 26265.4
 14 01 2013  20 23  -21.0226 26046.9 -03381.5 -07.3970 26265.5
 14 01 2013  20 24  -21.0225 26047.1 -03381.7 -07.3973 26265.7
 14 01 2013  20 25  -21.0226 26047.1 -03381.8 -07.3975 26265.7
 14 01 2013  20 26  -21.0226 26047.1 -03381.9 -07.3977 26265.8
 14 01 2013  20 27  -21.0228 26047.1 -03382.0 -07.3979 26265.7
 14 01 2013  20 28  -21.0230 26047.1 -03382.0 -07.3980 26265.7
 14 01 2013  20 29  -21.0231 26047.2 -03382.1 -07.3982 26265.9
 14 01 2013  20 30  -21.0232 26047.4 -03382.3 -07.3986 26266.1
 14 01 2013  20 31  -21.0231 26047.6 -03382.5 -07.3989 26266.3
 14 01 2013  20 32  -21.0231 26047.5 -03382.4 -07.3988 26266.2
 14 01 2013  20 33  -21.0231 26047.4 -03382.5 -07.3989 26266.1
 14 01 2013  20 34  -21.0233 26047.4 -03382.5 -07.3990 26266.1
 14 01 2013  20 35  -21.0234 26047.5 -03382.6 -07.3992 26266.2
 14 01 2013  20 36  -21.0235 26047.2 -03382.5 -07.3990 26265.9
 14 01 2013  20 37  -21.0235 26047.2 -03382.5 -07.3991 26266.0
 14 01 2013  20 38  -21.0235 26047.3 -03382.5 -07.3991 26266.0
 14 01 2013  20 39  -21.0234 26047.5 -03382.7 -07.3994 26266.3
 14 01 2013  20 40  -21.0234 26048.0 -03383.0 -07.3999 26266.8
 14 01 2013  20 41  -21.0234 26048.3 -03383.2 -07.4002 26267.1
 14 01 2013  20 42  -21.0236 26048.8 -03383.5 -07.4007 26267.7
 14 01 2013  20 43  -21.0238 26049.3 -03383.8 -07.4012 26268.2
 14 01 2013  20 44  -21.0240 26049.3 -03383.8 -07.4013 26268.2
 14 01 2013  20 45  -21.0240 26049.0 -03383.7 -07.4011 26267.8
 14 01 2013  20 46  -21.0238 26048.7 -03383.5 -07.4008 26267.5
 14 01 2013  20 47  -21.0236 26048.7 -03383.5 -07.4007 26267.5
 14 01 2013  20 48  -21.0235 26049.0 -03383.6 -07.4008 26267.8
 14 01 2013  20 49  -21.0237 26048.9 -03383.6 -07.4010 26267.7
 14 01 2013  20 50  -21.0238 26049.4 -03383.9 -07.4014 26268.2
 14 01 2013  20 51  -21.0238 26049.8 -03384.1 -07.4018 26268.7
 14 01 2013  20 52  -21.0236 26050.2 -03384.4 -07.4022 26269.2
 14 01 2013  20 53  -21.0235 26050.5 -03384.6 -07.4025 26269.5
 14 01 2013  20 54  -21.0235 26050.8 -03384.7 -07.4028 26269.8
 14 01 2013  20 55  -21.0235 26051.0 -03384.8 -07.4029 26269.9
 14 01 2013  20 56  -21.0235 26051.1 -03384.8 -07.4030 26270.1
 14 01 2013  20 57  -21.0235 26050.9 -03384.8 -07.4029 26269.9
 14 01 2013  20 58  -21.0236 26050.6 -03384.6 -07.4027 26269.5
 14 01 2013  20 59  -21.0236 26050.4 -03384.5 -07.4025 26269.3
 14 01 2013  21 00  -21.0232 26050.4 -03384.5 -07.4025 26269.3
 14 01 2013  21 01  -21.0231 26050.4 -03384.6 -07.4026 26269.3
 14 01 2013  21 02  -21.0231 26050.5 -03384.6 -07.4027 26269.4
 14 01 2013  21 03  -21.0230 26050.6 -03384.8 -07.4030 26269.6
 14 01 2013  21 04  -21.0229 26050.8 -03384.9 -07.4032 26269.8
 14 01 2013  21 05  -21.0228 26050.9 -03384.9 -07.4033 26269.9
 14 01 2013  21 06  -21.0225 26051.0 -03385.0 -07.4034 26270.0
 14 01 2013  21 07  -21.0223 26051.0 -03385.1 -07.4035 26270.1
 14 01 2013  21 08  -21.0221 26051.1 -03385.1 -07.4036 26270.1
 14 01 2013  21 09  -21.0218 26051.1 -03385.1 -07.4037 26270.1
 14 01 2013  21 10  -21.0215 26051.1 -03385.2 -07.4037 26270.1
 14 01 2013  21 11  -21.0211 26051.1 -03385.2 -07.4038 26270.1
 14 01 2013  21 12  -21.0205 26051.1 -03385.2 -07.4038 26270.1
 14 01 2013  21 13  -21.0200 26051.1 -03385.2 -07.4038 26270.2
 14 01 2013  21 14  -21.0195 26051.2 -03385.4 -07.4042 26270.3
 14 01 2013  21 15  -21.0191 26051.3 -03385.5 -07.4045 26270.3
 14 01 2013  21 16  -21.0186 26051.2 -03385.6 -07.4047 26270.3
 14 01 2013  21 17  -21.0181 26051.1 -03385.7 -07.4048 26270.2
 14 01 2013  21 18  -21.0176 26051.0 -03385.8 -07.4050 26270.1
 14 01 2013  21 19  -21.0172 26051.0 -03385.8 -07.4052 26270.1
 14 01 2013  21 20  -21.0167 26051.0 -03385.9 -07.4054 26270.1
 14 01 2013  21 21  -21.0164 26050.9 -03386.0 -07.4057 26270.0
 14 01 2013  21 22  -21.0162 26050.7 -03386.1 -07.4059 26269.9
 14 01 2013  21 23  -21.0161 26050.6 -03386.2 -07.4061 26269.8
 14 01 2013  21 24  -21.0162 26050.5 -03386.3 -07.4063 26269.7
 14 01 2013  21 25  -21.0163 26050.6 -03386.5 -07.4067 26269.8
 14 01 2013  21 26  -21.0164 26050.6 -03386.6 -07.4068 26269.8
 14 01 2013  21 27  -21.0163 26050.5 -03386.6 -07.4070 26269.7
 14 01 2013  21 28  -21.0163 26050.5 -03386.8 -07.4074 26269.8
 14 01 2013  21 29  -21.0164 26050.4 -03386.8 -07.4075 26269.7
 14 01 2013  21 30  -21.0164 26050.3 -03386.8 -07.4076 26269.6
 14 01 2013  21 31  -21.0165 26050.1 -03386.8 -07.4075 26269.4
 14 01 2013  21 32  -21.0167 26049.9 -03386.7 -07.4074 26269.2
 14 01 2013  21 33  -21.0168 26049.8 -03386.7 -07.4073 26269.0
 14 01 2013  21 34  -21.0167 26049.8 -03386.6 -07.4073 26269.0
 14 01 2013  21 35  -21.0167 26049.6 -03386.6 -07.4072 26268.8
 14 01 2013  21 36  -21.0202 26049.0 -03386.2 -07.4065 26268.2
 14 01 2013  21 37  -21.0205 26048.8 -03386.1 -07.4065 26267.9
 14 01 2013  21 38  -21.0204 26048.8 -03386.2 -07.4065 26268.0
 14 01 2013  21 39  -21.0167 26049.3 -03386.5 -07.4071 26268.5
 14 01 2013  21 40  -21.0164 26049.4 -03386.6 -07.4073 26268.6
 14 01 2013  21 41  -21.0163 26049.4 -03386.7 -07.4075 26268.6
 14 01 2013  21 42  -21.0162 26049.4 -03386.7 -07.4076 26268.6
 14 01 2013  21 43  -21.0160 26049.6 -03386.9 -07.4078 26268.8
 14 01 2013  21 44  -21.0160 26049.7 -03387.0 -07.4081 26269.0
 14 01 2013  21 45  -21.0160 26049.7 -03387.1 -07.4082 26268.9
 14 01 2013  21 46  -21.0160 26049.8 -03387.1 -07.4083 26269.0
 14 01 2013  21 47  -21.0159 26049.9 -03387.3 -07.4086 26269.2
 14 01 2013  21 48  -21.0158 26049.9 -03387.3 -07.4087 26269.2
 14 01 2013  21 49  -21.0159 26049.9 -03387.4 -07.4089 26269.2
 14 01 2013  21 50  -21.0159 26049.9 -03387.4 -07.4090 26269.2
 14 01 2013  21 51  -21.0158 26049.8 -03387.5 -07.4090 26269.2
 14 01 2013  21 52  -21.0158 26049.8 -03387.5 -07.4090 26269.1
 14 01 2013  21 53  -21.0156 26049.8 -03387.5 -07.4092 26269.2
 14 01 2013  21 54  -21.0154 26049.9 -03387.6 -07.4093 26269.3
 14 01 2013  21 55  -21.0153 26050.0 -03387.7 -07.4095 26269.3
 14 01 2013  21 56  -21.0151 26049.9 -03387.7 -07.4095 26269.3
 14 01 2013  21 57  -21.0149 26049.9 -03387.7 -07.4096 26269.2
 14 01 2013  21 58  -21.0148 26049.8 -03387.8 -07.4096 26269.2
 14 01 2013  21 59  -21.0145 26049.9 -03387.8 -07.4097 26269.3
 14 01 2013  22 00  -21.0143 26049.9 -03387.8 -07.4098 26269.2
 14 01 2013  22 01  -21.0142 26049.8 -03387.9 -07.4099 26269.2
 14 01 2013  22 02  -21.0141 26049.8 -03387.9 -07.4099 26269.2
 14 01 2013  22 03  -21.0138 26049.8 -03387.9 -07.4100 26269.2
 14 01 2013  22 04  -21.0137 26049.7 -03387.9 -07.4101 26269.1
 14 01 2013  22 05  -21.0135 26049.7 -03388.0 -07.4101 26269.1
 14 01 2013  22 06  -21.0133 26049.7 -03388.0 -07.4103 26269.1
 14 01 2013  22 07  -21.0131 26049.8 -03388.1 -07.4104 26269.2
 14 01 2013  22 08  -21.0131 26049.6 -03388.0 -07.4103 26269.0
 14 01 2013  22 09  -21.0130 26049.5 -03388.0 -07.4103 26268.9
 14 01 2013  22 10  -21.0129 26049.5 -03388.1 -07.4104 26268.9
 14 01 2013  22 11  -21.0127 26049.4 -03388.1 -07.4105 26268.8
 14 01 2013  22 12  -21.0125 26049.4 -03388.1 -07.4105 26268.8
 14 01 2013  22 13  -21.0122 26049.4 -03388.1 -07.4106 26268.8
 14 01 2013  22 14  -21.0120 26049.5 -03388.2 -07.4107 26268.9
 14 01 2013  22 15  -21.0119 26049.4 -03388.2 -07.4108 26268.8
 14 01 2013  22 16  -21.0117 26049.4 -03388.3 -07.4109 26268.8
 14 01 2013  22 17  -21.0116 26049.4 -03388.3 -07.4110 26268.8
 14 01 2013  22 18  -21.0116 26049.3 -03388.3 -07.4110 26268.7
 14 01 2013  22 19  -21.0114 26049.1 -03388.2 -07.4109 26268.6
 14 01 2013  22 20  -21.0113 26049.1 -03388.2 -07.4109 26268.5
 14 01 2013  22 21  -21.0112 26048.9 -03388.2 -07.4108 26268.3
 14 01 2013  22 22  -21.0111 26048.7 -03388.1 -07.4108 26268.2
 14 01 2013  22 23  -21.0110 26048.7 -03388.2 -07.4109 26268.2
 14 01 2013  22 24  -21.0109 26048.9 -03388.3 -07.4111 26268.3
 14 01 2013  22 25  -21.0107 26048.9 -03388.3 -07.4112 26268.4
 14 01 2013  22 26  -21.0106 26048.9 -03388.4 -07.4112 26268.3
 14 01 2013  22 27  -21.0106 26048.8 -03388.3 -07.4112 26268.2
 14 01 2013  22 28  -21.0104 26048.7 -03388.3 -07.4112 26268.1
 14 01 2013  22 29  -21.0103 26048.7 -03388.3 -07.4112 26268.1
 14 01 2013  22 30  -21.0102 26048.6 -03388.4 -07.4113 26268.1
 14 01 2013  22 31  -21.0101 26048.6 -03388.4 -07.4113 26268.0
 14 01 2013  22 32  -21.0099 26048.6 -03388.4 -07.4114 26268.1
 14 01 2013  22 33  -21.0097 26048.7 -03388.5 -07.4115 26268.1
 14 01 2013  22 34  -21.0095 26048.7 -03388.5 -07.4116 26268.2
 14 01 2013  22 35  -21.0092 26048.6 -03388.5 -07.4116 26268.1
 14 01 2013  22 36  -21.0090 26048.6 -03388.5 -07.4116 26268.0
 14 01 2013  22 37  -21.0088 26048.6 -03388.5 -07.4117 26268.0
 14 01 2013  22 38  -21.0085 26048.4 -03388.5 -07.4116 26267.9
 14 01 2013  22 39  -21.0084 26048.3 -03388.4 -07.4116 26267.8
 14 01 2013  22 40  -21.0083 26048.2 -03388.4 -07.4116 26267.6
 14 01 2013  22 41  -21.0081 26048.1 -03388.4 -07.4116 26267.5
 14 01 2013  22 42  -21.0082 26047.8 -03388.3 -07.4114 26267.2
 14 01 2013  22 43  -21.0084 26047.7 -03388.3 -07.4114 26267.1
 14 01 2013  22 44  -21.0085 26047.5 -03388.3 -07.4114 26266.9
 14 01 2013  22 45  -21.0086 26047.5 -03388.3 -07.4114 26266.9
 14 01 2013  22 46  -21.0086 26047.3 -03388.2 -07.4114 26266.8
 14 01 2013  22 47  -21.0084 26047.3 -03388.2 -07.4114 26266.8
 14 01 2013  22 48  -21.0083 26047.2 -03388.2 -07.4114 26266.7
 14 01 2013  22 49  -21.0083 26047.3 -03388.3 -07.4114 26266.8
 14 01 2013  22 50  -21.0086 26047.4 -03388.4 -07.4116 26266.9
 14 01 2013  22 51  -21.0085 26047.6 -03388.5 -07.4119 26267.1
 14 01 2013  22 52  -21.0086 26047.6 -03388.5 -07.4119 26267.1
 14 01 2013  22 53  -21.0087 26047.6 -03388.5 -07.4119 26267.1
 14 01 2013  22 54  -21.0088 26047.8 -03388.6 -07.4121 26267.3
 14 01 2013  22 55  -21.0088 26048.0 -03388.7 -07.4123 26267.5
 14 01 2013  22 56  -21.0089 26048.2 -03388.8 -07.4123 26267.7
 14 01 2013  22 57  -21.0090 26048.3 -03388.9 -07.4125 26267.8
 14 01 2013  22 58  -21.0090 26048.6 -03389.0 -07.4126 26268.1
 14 01 2013  22 59  -21.0090 26048.8 -03389.0 -07.4127 26268.3
 14 01 2013  23 00  -21.0090 26048.8 -03389.0 -07.4127 26268.4
 14 01 2013  23 01  -21.0090 26048.9 -03389.0 -07.4127 26268.4
 14 01 2013  23 02  -21.0092 26048.8 -03388.9 -07.4125 26268.3
 14 01 2013  23 03  -21.0093 26048.5 -03388.8 -07.4122 26268.1
 14 01 2013  23 04  -21.0096 26048.4 -03388.7 -07.4120 26267.9
 14 01 2013  23 05  -21.0098 26048.3 -03388.6 -07.4119 26267.8
 14 01 2013  23 06  -21.0100 26048.2 -03388.5 -07.4118 26267.7
 14 01 2013  23 07  -21.0103 26048.0 -03388.4 -07.4116 26267.5
 14 01 2013  23 08  -21.0106 26047.9 -03388.4 -07.4116 26267.4
 14 01 2013  23 09  -21.0108 26047.9 -03388.4 -07.4116 26267.4
 14 01 2013  23 10  -21.0110 26048.0 -03388.4 -07.4116 26267.5
 14 01 2013  23 11  -21.0113 26047.9 -03388.4 -07.4116 26267.4
 14 01 2013  23 12  -21.0114 26047.9 -03388.4 -07.4116 26267.3
 14 01 2013  23 13  -21.0115 26047.8 -03388.4 -07.4115 26267.3
 14 01 2013  23 14  -21.0117 26047.8 -03388.3 -07.4115 26267.2
 14 01 2013  23 15  -21.0118 26047.7 -03388.3 -07.4114 26267.2
 14 01 2013  23 16  -21.0118 26047.6 -03388.3 -07.4114 26267.1
 14 01 2013  23 17  -21.0120 26047.5 -03388.2 -07.4114 26267.0
 14 01 2013  23 18  -21.0121 26047.5 -03388.2 -07.4114 26266.9
 14 01 2013  23 19  -21.0123 26047.3 -03388.2 -07.4113 26266.8
 14 01 2013  23 20  -21.0126 26047.1 -03388.1 -07.4112 26266.5
 14 01 2013  23 21  -21.0127 26046.8 -03388.0 -07.4110 26266.2
 14 01 2013  23 22  -21.0128 26046.7 -03387.9 -07.4109 26266.1
 14 01 2013  23 23  -21.0129 26046.6 -03387.9 -07.4109 26266.0
 14 01 2013  23 24  -21.0131 26046.4 -03387.9 -07.4108 26265.8
 14 01 2013  23 25  -21.0134 26046.2 -03387.8 -07.4107 26265.6
 14 01 2013  23 26  -21.0136 26046.1 -03387.8 -07.4107 26265.5
 14 01 2013  23 27  -21.0139 26046.0 -03387.7 -07.4107 26265.4
 14 01 2013  23 28  -21.0142 26045.9 -03387.7 -07.4107 26265.2
 14 01 2013  23 29  -21.0144 26045.9 -03387.7 -07.4107 26265.2
 14 01 2013  23 30  -21.0147 26045.8 -03387.8 -07.4108 26265.2
 14 01 2013  23 31  -21.0150 26045.9 -03387.9 -07.4110 26265.3
 14 01 2013  23 32  -21.0153 26046.0 -03387.9 -07.4111 26265.4
 14 01 2013  23 33  -21.0158 26045.9 -03387.9 -07.4111 26265.3
 14 01 2013  23 34  -21.0158 26045.8 -03387.8 -07.4109 26265.2
 14 01 2013  23 35  -21.0158 26045.6 -03387.7 -07.4108 26265.0
 14 01 2013  23 36  -21.0159 26045.4 -03387.6 -07.4106 26264.8
 14 01 2013  23 37  -21.0160 26045.2 -03387.5 -07.4105 26264.6
 14 01 2013  23 38  -21.0160 26045.0 -03387.5 -07.4104 26264.4
 14 01 2013  23 39  -21.0157 26044.8 -03387.4 -07.4102 26264.2
 14 01 2013  23 40  -21.0155 26044.7 -03387.3 -07.4102 26264.1
 14 01 2013  23 41  -21.0153 26044.7 -03387.4 -07.4102 26264.0
 14 01 2013  23 42  -21.0151 26044.8 -03387.4 -07.4104 26264.1
 14 01 2013  23 43  -21.0151 26044.8 -03387.5 -07.4106 26264.2
 14 01 2013  23 44  -21.0155 26044.8 -03387.6 -07.4108 26264.2
 14 01 2013  23 45  -21.0158 26044.9 -03387.8 -07.4111 26264.3
 14 01 2013  23 46  -21.0161 26045.1 -03387.9 -07.4113 26264.5
 14 01 2013  23 47  -21.0163 26045.1 -03388.0 -07.4114 26264.6
 14 01 2013  23 48  -21.0164 26045.2 -03388.0 -07.4115 26264.6
 14 01 2013  23 49  -21.0168 26045.1 -03388.0 -07.4115 26264.5
 14 01 2013  23 50  -21.0170 26045.0 -03388.0 -07.4114 26264.5
 14 01 2013  23 51  -21.0171 26044.9 -03387.9 -07.4113 26264.3
 14 01 2013  23 52  -21.0171 26044.9 -03387.9 -07.4113 26264.3
 14 01 2013  23 53  -21.0169 26045.0 -03387.9 -07.4114 26264.5
 14 01 2013  23 54  -21.0167 26045.2 -03388.0 -07.4116 26264.6
 14 01 2013  23 55  -21.0165 26045.1 -03388.0 -07.4116 26264.6
 14 01 2013  23 56  -21.0163 26045.0 -03388.0 -07.4115 26264.4
 14 01 2013  23 57  -21.0162 26045.0 -03388.0 -07.4115 26264.5
 14 01 2013  23 58  -21.0159 26045.3 -03388.2 -07.4118 26264.8
