SAO LUIS EMBRACE-03 <164> 1 Min. Reported data

 DD MM YYYY  HH MM   D(Deg)  H(nT)   Z(nT)   I(Deg)   F(nT)

 13 06 2013  00 00  -21.0329 26022.9 -03449.2 -07.5503 26250.5
 13 06 2013  00 01  -21.0323 26024.5 -03449.9 -07.5514 26252.2
 13 06 2013  00 02  -21.0318 26025.0 -03450.3 -07.5519 26252.7
 13 06 2013  00 03  -21.0326 26025.8 -03450.5 -07.5523 26253.5
 13 06 2013  00 04  -21.0318 26026.8 -03451.1 -07.5531 26254.6
 13 06 2013  00 05  -21.0325 26027.0 -03451.1 -07.5532 26254.8
 13 06 2013  00 06  -21.0322 26028.0 -03451.5 -07.5538 26255.8
 13 06 2013  00 07  -21.0316 26028.9 -03451.9 -07.5543 26256.8
 13 06 2013  00 08  -21.0327 26028.2 -03451.5 -07.5536 26256.1
 13 06 2013  00 09  -21.0324 26029.4 -03451.9 -07.5541 26257.3
 13 06 2013  00 10  -21.0326 26029.5 -03451.8 -07.5540 26257.4
 13 06 2013  00 11  -21.0326 26029.8 -03451.8 -07.5539 26257.7
 13 06 2013  00 12  -21.0329 26029.6 -03451.6 -07.5535 26257.4
 13 06 2013  00 13  -21.0327 26029.8 -03451.6 -07.5535 26257.7
 13 06 2013  00 14  -21.0329 26029.6 -03451.4 -07.5530 26257.4
 13 06 2013  00 15  -21.0329 26029.5 -03451.3 -07.5528 26257.3
 13 06 2013  00 16  -21.0331 26029.3 -03451.1 -07.5525 26257.1
 13 06 2013  00 17  -21.0329 26029.2 -03451.0 -07.5523 26257.0
 13 06 2013  00 18  -21.0332 26028.7 -03450.6 -07.5517 26256.4
 13 06 2013  00 19  -21.0330 26028.5 -03450.6 -07.5516 26256.2
 13 06 2013  00 20  -21.0330 26028.1 -03450.3 -07.5512 26255.8
 13 06 2013  00 21  -21.0330 26027.7 -03450.1 -07.5508 26255.3
 13 06 2013  00 22  -21.0327 26027.6 -03450.0 -07.5507 26255.3
 13 06 2013  00 23  -21.0325 26027.2 -03449.9 -07.5505 26254.8
 13 06 2013  00 24  -21.0324 26026.9 -03449.7 -07.5502 26254.5
 13 06 2013  00 25  -21.0323 26026.6 -03449.6 -07.5501 26254.3
 13 06 2013  00 26  -21.0324 26026.3 -03449.5 -07.5500 26253.9
 13 06 2013  00 27  -21.0324 26026.0 -03449.5 -07.5499 26253.6
 13 06 2013  00 28  -21.0321 26025.9 -03449.4 -07.5497 26253.5
 13 06 2013  00 29  -21.0320 26025.6 -03449.3 -07.5497 26253.2
 13 06 2013  00 30  -21.0319 26025.5 -03449.3 -07.5496 26253.0
 13 06 2013  00 31  -21.0318 26025.2 -03449.2 -07.5496 26252.8
 13 06 2013  00 32  -21.0317 26025.1 -03449.2 -07.5497 26252.7
 13 06 2013  00 33  -21.0318 26024.8 -03449.1 -07.5495 26252.4
 13 06 2013  00 34  -21.0314 26025.0 -03449.2 -07.5497 26252.6
 13 06 2013  00 35  -21.0315 26024.9 -03449.2 -07.5497 26252.5
 13 06 2013  00 36  -21.0316 26024.7 -03449.2 -07.5496 26252.3
 13 06 2013  00 37  -21.0315 26024.7 -03449.2 -07.5497 26252.2
 13 06 2013  00 38  -21.0314 26024.4 -03449.1 -07.5495 26252.0
 13 06 2013  00 39  -21.0314 26024.4 -03449.1 -07.5496 26251.9
 13 06 2013  00 40  -21.0316 26024.1 -03449.0 -07.5495 26251.6
 13 06 2013  00 41  -21.0316 26024.3 -03449.1 -07.5497 26251.9
 13 06 2013  00 42  -21.0319 26024.2 -03449.2 -07.5498 26251.8
 13 06 2013  00 43  -21.0323 26024.1 -03449.2 -07.5498 26251.7
 13 06 2013  00 44  -21.0323 26024.2 -03449.2 -07.5498 26251.7
 13 06 2013  00 45  -21.0326 26024.0 -03449.2 -07.5499 26251.6
 13 06 2013  00 46  -21.0327 26024.0 -03449.2 -07.5499 26251.5
 13 06 2013  00 47  -21.0327 26023.9 -03449.2 -07.5499 26251.4
 13 06 2013  00 48  -21.0327 26023.6 -03449.0 -07.5497 26251.1
 13 06 2013  00 49  -21.0324 26023.5 -03449.0 -07.5496 26251.1
 13 06 2013  00 50  -21.0325 26023.4 -03448.9 -07.5495 26250.9
 13 06 2013  00 51  -21.0326 26023.3 -03449.0 -07.5496 26250.9
 13 06 2013  00 52  -21.0326 26023.2 -03448.9 -07.5495 26250.8
 13 06 2013  00 53  -21.0327 26023.1 -03448.9 -07.5496 26250.6
 13 06 2013  00 54  -21.0326 26023.1 -03448.9 -07.5496 26250.6
 13 06 2013  00 55  -21.0326 26023.0 -03448.9 -07.5496 26250.6
 13 06 2013  00 56  -21.0325 26023.0 -03448.9 -07.5496 26250.6
 13 06 2013  00 57  -21.0322 26023.1 -03449.0 -07.5498 26250.7
 13 06 2013  00 58  -21.0320 26023.1 -03449.0 -07.5498 26250.7
 13 06 2013  00 59  -21.0320 26023.1 -03449.0 -07.5498 26250.7
 13 06 2013  01 00  -21.0319 26023.2 -03449.1 -07.5499 26250.7
 13 06 2013  01 01  -21.0318 26023.1 -03449.1 -07.5499 26250.7
 13 06 2013  01 02  -21.0318 26023.1 -03449.1 -07.5500 26250.7
 13 06 2013  01 03  -21.0320 26023.0 -03449.1 -07.5500 26250.6
 13 06 2013  01 04  -21.0319 26022.9 -03449.1 -07.5499 26250.5
 13 06 2013  01 05  -21.0319 26022.8 -03449.0 -07.5498 26250.4
 13 06 2013  01 06  -21.0318 26022.7 -03449.0 -07.5498 26250.3
 13 06 2013  01 07  -21.0317 26022.6 -03449.0 -07.5498 26250.2
 13 06 2013  01 08  -21.0317 26022.5 -03448.9 -07.5497 26250.1
 13 06 2013  01 09  -21.0318 26022.4 -03448.9 -07.5498 26250.0
 13 06 2013  01 10  -21.0318 26022.4 -03448.9 -07.5497 26249.9
 13 06 2013  01 11  -21.0319 26022.2 -03448.9 -07.5497 26249.8
 13 06 2013  01 12  -21.0320 26022.2 -03448.9 -07.5497 26249.8
 13 06 2013  01 13  -21.0321 26022.3 -03449.0 -07.5499 26249.9
 13 06 2013  01 14  -21.0323 26022.4 -03449.0 -07.5500 26249.9
 13 06 2013  01 15  -21.0325 26022.4 -03449.0 -07.5501 26250.0
 13 06 2013  01 16  -21.0325 26022.4 -03449.1 -07.5501 26250.0
 13 06 2013  01 17  -21.0325 26022.4 -03449.1 -07.5501 26250.0
 13 06 2013  01 18  -21.0325 26022.4 -03449.1 -07.5501 26250.0
 13 06 2013  01 19  -21.0326 26022.3 -03449.1 -07.5501 26249.9
 13 06 2013  01 20  -21.0326 26022.3 -03449.1 -07.5501 26249.9
 13 06 2013  01 21  -21.0326 26022.3 -03449.0 -07.5501 26249.9
 13 06 2013  01 22  -21.0326 26022.3 -03449.0 -07.5500 26249.8
 13 06 2013  01 23  -21.0326 26022.1 -03449.0 -07.5500 26249.7
 13 06 2013  01 24  -21.0327 26022.1 -03449.0 -07.5500 26249.7
 13 06 2013  01 25  -21.0327 26022.1 -03449.0 -07.5500 26249.6
 13 06 2013  01 26  -21.0326 26022.1 -03449.0 -07.5499 26249.6
 13 06 2013  01 27  -21.0326 26022.0 -03448.9 -07.5500 26249.6
 13 06 2013  01 28  -21.0326 26021.9 -03448.9 -07.5500 26249.5
 13 06 2013  01 29  -21.0326 26021.9 -03448.9 -07.5500 26249.5
 13 06 2013  01 30  -21.0326 26021.8 -03448.9 -07.5499 26249.4
 13 06 2013  01 31  -21.0326 26021.7 -03448.9 -07.5499 26249.3
 13 06 2013  01 32  -21.0325 26021.7 -03448.9 -07.5499 26249.2
 13 06 2013  01 33  -21.0325 26021.6 -03448.9 -07.5498 26249.2
 13 06 2013  01 34  -21.0324 26021.5 -03448.8 -07.5498 26249.1
 13 06 2013  01 35  -21.0322 26021.4 -03448.8 -07.5497 26248.9
 13 06 2013  01 36  -21.0322 26021.3 -03448.8 -07.5497 26248.8
 13 06 2013  01 37  -21.0322 26021.3 -03448.8 -07.5497 26248.8
 13 06 2013  01 38  -21.0320 26021.5 -03448.9 -07.5499 26249.0
 13 06 2013  01 39  -21.0320 26021.5 -03448.9 -07.5500 26249.0
 13 06 2013  01 40  -21.0319 26021.5 -03448.9 -07.5500 26249.0
 13 06 2013  01 41  -21.0320 26021.5 -03448.9 -07.5501 26249.1
 13 06 2013  01 42  -21.0321 26021.5 -03449.0 -07.5502 26249.1
 13 06 2013  01 43  -21.0322 26021.5 -03449.0 -07.5502 26249.1
 13 06 2013  01 44  -21.0324 26021.6 -03449.0 -07.5503 26249.2
 13 06 2013  01 45  -21.0325 26021.5 -03449.0 -07.5503 26249.1
 13 06 2013  01 46  -21.0325 26021.5 -03449.0 -07.5503 26249.0
 13 06 2013  01 47  -21.0325 26021.5 -03449.0 -07.5502 26249.1
 13 06 2013  01 48  -21.0326 26021.5 -03449.0 -07.5502 26249.1
 13 06 2013  01 49  -21.0327 26021.6 -03449.1 -07.5503 26249.2
 13 06 2013  01 50  -21.0328 26021.7 -03449.1 -07.5504 26249.3
 13 06 2013  01 51  -21.0329 26021.7 -03449.1 -07.5503 26249.3
 13 06 2013  01 52  -21.0330 26021.8 -03449.2 -07.5504 26249.4
 13 06 2013  01 53  -21.0330 26021.8 -03449.1 -07.5504 26249.4
 13 06 2013  01 54  -21.0330 26021.8 -03449.1 -07.5504 26249.4
 13 06 2013  01 55  -21.0329 26021.8 -03449.1 -07.5503 26249.3
 13 06 2013  01 56  -21.0327 26021.7 -03449.1 -07.5503 26249.3
 13 06 2013  01 57  -21.0327 26021.7 -03449.1 -07.5503 26249.3
 13 06 2013  01 58  -21.0329 26021.7 -03449.1 -07.5504 26249.3
 13 06 2013  01 59  -21.0331 26021.9 -03449.2 -07.5506 26249.5
 13 06 2013  02 00  -21.0333 26022.0 -03449.3 -07.5506 26249.6
 13 06 2013  02 01  -21.0336 26022.1 -03449.3 -07.5507 26249.7
 13 06 2013  02 02  -21.0338 26022.2 -03449.3 -07.5507 26249.8
 13 06 2013  02 03  -21.0339 26022.3 -03449.4 -07.5508 26249.9
 13 06 2013  02 04  -21.0338 26022.5 -03449.5 -07.5509 26250.2
 13 06 2013  02 05  -21.0337 26022.7 -03449.5 -07.5510 26250.4
 13 06 2013  02 06  -21.0336 26023.1 -03449.7 -07.5512 26250.7
 13 06 2013  02 07  -21.0338 26023.1 -03449.7 -07.5512 26250.8
 13 06 2013  02 08  -21.0339 26023.1 -03449.7 -07.5512 26250.8
 13 06 2013  02 09  -21.0340 26023.2 -03449.6 -07.5510 26250.8
 13 06 2013  02 10  -21.0343 26022.9 -03449.5 -07.5509 26250.5
 13 06 2013  02 11  -21.0344 26022.8 -03449.4 -07.5507 26250.5
 13 06 2013  02 12  -21.0343 26022.7 -03449.3 -07.5505 26250.4
 13 06 2013  02 13  -21.0342 26022.5 -03449.2 -07.5503 26250.1
 13 06 2013  02 14  -21.0342 26022.3 -03449.1 -07.5501 26249.9
 13 06 2013  02 15  -21.0342 26022.3 -03449.0 -07.5501 26249.9
 13 06 2013  02 16  -21.0343 26022.1 -03449.0 -07.5500 26249.7
 13 06 2013  02 17  -21.0343 26022.1 -03449.0 -07.5500 26249.7
 13 06 2013  02 18  -21.0344 26022.0 -03449.0 -07.5500 26249.6
 13 06 2013  02 19  -21.0343 26022.0 -03448.9 -07.5499 26249.6
 13 06 2013  02 20  -21.0344 26021.8 -03448.9 -07.5498 26249.4
 13 06 2013  02 21  -21.0343 26021.8 -03448.9 -07.5499 26249.3
 13 06 2013  02 22  -21.0342 26021.7 -03448.8 -07.5498 26249.2
 13 06 2013  02 23  -21.0342 26021.6 -03448.8 -07.5498 26249.2
 13 06 2013  02 24  -21.0342 26021.6 -03448.8 -07.5498 26249.2
 13 06 2013  02 25  -21.0341 26021.8 -03448.9 -07.5500 26249.3
 13 06 2013  02 26  -21.0341 26021.9 -03449.1 -07.5503 26249.5
 13 06 2013  02 27  -21.0339 26022.2 -03449.2 -07.5504 26249.8
 13 06 2013  02 28  -21.0339 26022.1 -03449.2 -07.5505 26249.7
 13 06 2013  02 29  -21.0337 26022.3 -03449.3 -07.5505 26249.9
 13 06 2013  02 30  -21.0337 26022.3 -03449.3 -07.5506 26249.9
 13 06 2013  02 31  -21.0336 26022.4 -03449.3 -07.5507 26250.0
 13 06 2013  02 32  -21.0336 26022.3 -03449.3 -07.5506 26249.9
 13 06 2013  02 33  -21.0334 26022.2 -03449.2 -07.5505 26249.9
 13 06 2013  02 34  -21.0333 26022.5 -03449.3 -07.5507 26250.1
 13 06 2013  02 35  -21.0334 26022.4 -03449.4 -07.5507 26250.0
 13 06 2013  02 36  -21.0333 26022.5 -03449.4 -07.5508 26250.2
 13 06 2013  02 37  -21.0333 26022.6 -03449.4 -07.5508 26250.2
 13 06 2013  02 38  -21.0333 26022.6 -03449.5 -07.5509 26250.3
 13 06 2013  02 39  -21.0333 26022.8 -03449.5 -07.5510 26250.4
 13 06 2013  02 40  -21.0333 26022.8 -03449.6 -07.5510 26250.5
 13 06 2013  02 41  -21.0332 26022.9 -03449.6 -07.5510 26250.5
 13 06 2013  02 42  -21.0333 26023.0 -03449.6 -07.5511 26250.7
 13 06 2013  02 43  -21.0333 26023.0 -03449.6 -07.5511 26250.7
 13 06 2013  02 44  -21.0331 26023.1 -03449.6 -07.5511 26250.7
 13 06 2013  02 45  -21.0330 26023.1 -03449.6 -07.5510 26250.8
 13 06 2013  02 46  -21.0331 26023.2 -03449.6 -07.5510 26250.8
 13 06 2013  02 47  -21.0332 26023.2 -03449.6 -07.5510 26250.9
 13 06 2013  02 48  -21.0333 26023.3 -03449.7 -07.5511 26251.0
 13 06 2013  02 49  -21.0333 26023.4 -03449.7 -07.5511 26251.1
 13 06 2013  02 50  -21.0332 26023.5 -03449.7 -07.5511 26251.2
 13 06 2013  02 51  -21.0331 26023.6 -03449.7 -07.5512 26251.3
 13 06 2013  02 52  -21.0330 26023.7 -03449.7 -07.5511 26251.3
 13 06 2013  02 53  -21.0328 26023.8 -03449.8 -07.5512 26251.5
 13 06 2013  02 54  -21.0328 26023.8 -03449.7 -07.5511 26251.4
 13 06 2013  02 55  -21.0326 26023.9 -03449.7 -07.5511 26251.6
 13 06 2013  02 56  -21.0324 26024.0 -03449.8 -07.5511 26251.7
 13 06 2013  02 57  -21.0323 26024.0 -03449.8 -07.5511 26251.7
 13 06 2013  02 58  -21.0323 26024.0 -03449.7 -07.5511 26251.7
 13 06 2013  02 59  -21.0324 26024.1 -03449.7 -07.5511 26251.7
 13 06 2013  03 00  -21.0327 26024.0 -03449.7 -07.5511 26251.7
 13 06 2013  03 01  -21.0334 26023.9 -03449.7 -07.5509 26251.6
 13 06 2013  03 02  -21.0336 26024.0 -03449.7 -07.5510 26251.7
 13 06 2013  03 03  -21.0337 26023.8 -03449.5 -07.5507 26251.5
 13 06 2013  03 04  -21.0336 26023.8 -03449.5 -07.5505 26251.4
 13 06 2013  03 05  -21.0335 26023.6 -03449.4 -07.5504 26251.3
 13 06 2013  03 06  -21.0334 26023.6 -03449.3 -07.5502 26251.2
 13 06 2013  03 07  -21.0330 26023.6 -03449.3 -07.5502 26251.2
 13 06 2013  03 08  -21.0330 26023.5 -03449.2 -07.5501 26251.1
 13 06 2013  03 09  -21.0329 26023.5 -03449.2 -07.5501 26251.1
 13 06 2013  03 10  -21.0327 26023.5 -03449.2 -07.5500 26251.1
 13 06 2013  03 11  -21.0327 26023.4 -03449.2 -07.5501 26251.0
 13 06 2013  03 12  -21.0326 26023.4 -03449.2 -07.5500 26251.0
 13 06 2013  03 13  -21.0324 26023.4 -03449.2 -07.5501 26251.0
 13 06 2013  03 14  -21.0322 26023.5 -03449.2 -07.5501 26251.1
 13 06 2013  03 15  -21.0318 26023.6 -03449.3 -07.5503 26251.2
 13 06 2013  03 16  -21.0316 26023.7 -03449.3 -07.5503 26251.3
 13 06 2013  03 17  -21.0316 26023.7 -03449.4 -07.5504 26251.3
 13 06 2013  03 18  -21.0315 26023.7 -03449.4 -07.5505 26251.3
 13 06 2013  03 19  -21.0314 26023.8 -03449.4 -07.5505 26251.4
 13 06 2013  03 20  -21.0313 26023.8 -03449.5 -07.5505 26251.4
 13 06 2013  03 21  -21.0312 26023.9 -03449.5 -07.5506 26251.5
 13 06 2013  03 22  -21.0311 26024.0 -03449.6 -07.5507 26251.6
 13 06 2013  03 23  -21.0311 26024.1 -03449.7 -07.5509 26251.8
 13 06 2013  03 24  -21.0311 26024.0 -03449.6 -07.5508 26251.6
 13 06 2013  03 25  -21.0309 26024.2 -03449.7 -07.5509 26251.9
 13 06 2013  03 26  -21.0308 26024.7 -03449.9 -07.5513 26252.4
 13 06 2013  03 27  -21.0301 26025.6 -03450.3 -07.5519 26253.3
 13 06 2013  03 28  -21.0299 26025.6 -03450.4 -07.5520 26253.3
 13 06 2013  03 29  -21.0293 26026.3 -03450.7 -07.5525 26254.0
 13 06 2013  03 30  -21.0290 26026.4 -03450.7 -07.5524 26254.1
 13 06 2013  03 31  -21.0290 26026.3 -03450.7 -07.5525 26254.1
 13 06 2013  03 32  -21.0285 26026.8 -03450.8 -07.5527 26254.6
 13 06 2013  03 33  -21.0288 26026.7 -03450.9 -07.5527 26254.5
 13 06 2013  03 34  -21.0285 26027.4 -03451.1 -07.5530 26255.2
 13 06 2013  03 35  -21.0288 26027.8 -03451.4 -07.5535 26255.7
 13 06 2013  03 36  -21.0289 26028.1 -03451.5 -07.5537 26256.0
 13 06 2013  03 37  -21.0289 26028.8 -03451.7 -07.5540 26256.6
 13 06 2013  03 38  -21.0291 26029.0 -03451.8 -07.5542 26256.9
 13 06 2013  03 39  -21.0291 26029.2 -03451.9 -07.5542 26257.1
 13 06 2013  03 40  -21.0291 26029.6 -03452.0 -07.5543 26257.5
 13 06 2013  03 41  -21.0292 26029.5 -03451.9 -07.5542 26257.4
 13 06 2013  03 42  -21.0293 26029.7 -03451.9 -07.5541 26257.6
 13 06 2013  03 43  -21.0292 26030.0 -03451.9 -07.5541 26257.9
 13 06 2013  03 44  -21.0292 26030.1 -03451.9 -07.5540 26258.0
 13 06 2013  03 45  -21.0294 26030.1 -03451.9 -07.5539 26258.0
 13 06 2013  03 46  -21.0295 26030.2 -03451.8 -07.5538 26258.1
 13 06 2013  03 47  -21.0295 26030.2 -03451.8 -07.5537 26258.0
 13 06 2013  03 48  -21.0298 26030.1 -03451.6 -07.5535 26258.0
 13 06 2013  03 49  -21.0301 26030.0 -03451.6 -07.5533 26257.8
 13 06 2013  03 50  -21.0304 26029.9 -03451.5 -07.5531 26257.7
 13 06 2013  03 51  -21.0306 26029.8 -03451.3 -07.5529 26257.6
 13 06 2013  03 52  -21.0308 26029.6 -03451.2 -07.5527 26257.4
 13 06 2013  03 53  -21.0310 26029.5 -03451.1 -07.5524 26257.2
 13 06 2013  03 54  -21.0311 26029.3 -03451.0 -07.5522 26257.1
 13 06 2013  03 55  -21.0310 26029.2 -03450.9 -07.5520 26256.9
 13 06 2013  03 56  -21.0310 26029.0 -03450.8 -07.5519 26256.7
 13 06 2013  03 57  -21.0309 26028.9 -03450.7 -07.5517 26256.6
 13 06 2013  03 58  -21.0308 26028.8 -03450.7 -07.5517 26256.5
 13 06 2013  03 59  -21.0307 26028.7 -03450.6 -07.5517 26256.4
 13 06 2013  04 00  -21.0307 26028.6 -03450.6 -07.5516 26256.3
 13 06 2013  04 01  -21.0307 26028.7 -03450.6 -07.5516 26256.4
 13 06 2013  04 02  -21.0308 26028.6 -03450.5 -07.5515 26256.3
 13 06 2013  04 03  -21.0304 26028.9 -03450.7 -07.5518 26256.6
 13 06 2013  04 04  -21.0303 26028.7 -03450.6 -07.5516 26256.4
 13 06 2013  04 05  -21.0302 26029.0 -03450.8 -07.5519 26256.7
 13 06 2013  04 06  -21.0304 26028.7 -03450.7 -07.5517 26256.4
 13 06 2013  04 07  -21.0303 26029.0 -03450.8 -07.5520 26256.8
 13 06 2013  04 08  -21.0302 26029.2 -03450.9 -07.5520 26257.0
 13 06 2013  04 09  -21.0304 26029.1 -03450.9 -07.5520 26256.9
 13 06 2013  04 10  -21.0302 26029.1 -03450.9 -07.5520 26256.9
 13 06 2013  04 11  -21.0300 26029.3 -03450.9 -07.5521 26257.0
 13 06 2013  04 12  -21.0299 26029.2 -03450.9 -07.5520 26256.9
 13 06 2013  04 13  -21.0298 26029.0 -03450.8 -07.5519 26256.8
 13 06 2013  04 14  -21.0298 26029.0 -03450.8 -07.5519 26256.8
 13 06 2013  04 15  -21.0299 26028.9 -03450.8 -07.5519 26256.7
 13 06 2013  04 16  -21.0300 26029.0 -03450.8 -07.5519 26256.8
 13 06 2013  04 17  -21.0302 26029.0 -03450.8 -07.5520 26256.8
 13 06 2013  04 18  -21.0303 26028.9 -03450.8 -07.5520 26256.7
 13 06 2013  04 19  -21.0303 26029.0 -03450.8 -07.5519 26256.8
 13 06 2013  04 20  -21.0303 26029.0 -03450.8 -07.5520 26256.8
 13 06 2013  04 21  -21.0304 26029.1 -03450.9 -07.5521 26256.8
 13 06 2013  04 22  -21.0305 26029.0 -03450.8 -07.5520 26256.8
 13 06 2013  04 23  -21.0306 26029.1 -03450.8 -07.5520 26256.9
 13 06 2013  04 24  -21.0307 26029.2 -03450.9 -07.5521 26257.0
 13 06 2013  04 25  -21.0307 26029.1 -03450.9 -07.5521 26256.9
 13 06 2013  04 26  -21.0306 26029.2 -03450.9 -07.5520 26257.0
 13 06 2013  04 27  -21.0306 26029.2 -03450.9 -07.5521 26256.9
 13 06 2013  04 28  -21.0306 26029.2 -03450.9 -07.5521 26256.9
 13 06 2013  04 29  -21.0306 26029.2 -03450.9 -07.5520 26256.9
 13 06 2013  04 30  -21.0306 26029.3 -03450.9 -07.5521 26257.1
 13 06 2013  04 31  -21.0306 26029.2 -03450.9 -07.5520 26257.0
 13 06 2013  04 32  -21.0306 26029.2 -03450.8 -07.5520 26256.9
 13 06 2013  04 33  -21.0305 26029.2 -03450.8 -07.5520 26256.9
 13 06 2013  04 34  -21.0306 26029.2 -03450.8 -07.5519 26256.9
 13 06 2013  04 35  -21.0306 26029.2 -03450.8 -07.5519 26256.9
 13 06 2013  04 36  -21.0305 26029.0 -03450.8 -07.5518 26256.8
 13 06 2013  04 37  -21.0305 26029.0 -03450.8 -07.5518 26256.8
 13 06 2013  04 38  -21.0304 26029.1 -03450.8 -07.5518 26256.8
 13 06 2013  04 39  -21.0305 26029.1 -03450.8 -07.5519 26256.8
 13 06 2013  04 40  -21.0305 26029.2 -03450.8 -07.5520 26256.9
 13 06 2013  04 41  -21.0304 26029.2 -03450.9 -07.5520 26256.9
 13 06 2013  04 42  -21.0302 26029.2 -03450.9 -07.5520 26257.0
 13 06 2013  04 43  -21.0301 26029.2 -03450.8 -07.5520 26257.0
 13 06 2013  04 44  -21.0300 26029.2 -03450.9 -07.5520 26257.0
 13 06 2013  04 45  -21.0300 26029.2 -03450.9 -07.5520 26257.0
 13 06 2013  04 46  -21.0300 26029.2 -03450.9 -07.5520 26256.9
 13 06 2013  04 47  -21.0300 26029.2 -03450.9 -07.5520 26256.9
 13 06 2013  04 48  -21.0300 26029.1 -03450.9 -07.5520 26256.9
 13 06 2013  04 49  -21.0300 26029.1 -03450.8 -07.5520 26256.8
 13 06 2013  04 50  -21.0299 26029.0 -03450.8 -07.5520 26256.8
 13 06 2013  04 51  -21.0298 26028.9 -03450.8 -07.5520 26256.7
 13 06 2013  04 52  -21.0297 26028.9 -03450.8 -07.5519 26256.7
 13 06 2013  04 53  -21.0296 26028.9 -03450.7 -07.5519 26256.6
 13 06 2013  04 54  -21.0294 26029.0 -03450.8 -07.5520 26256.7
 13 06 2013  04 55  -21.0296 26028.9 -03450.8 -07.5521 26256.7
 13 06 2013  04 56  -21.0295 26028.9 -03450.8 -07.5520 26256.6
 13 06 2013  04 57  -21.0294 26028.9 -03450.8 -07.5520 26256.6
 13 06 2013  04 58  -21.0292 26028.8 -03450.8 -07.5520 26256.5
 13 06 2013  04 59  -21.0290 26028.7 -03450.7 -07.5519 26256.5
 13 06 2013  05 00  -21.0288 26028.7 -03450.7 -07.5519 26256.5
 13 06 2013  05 01  -21.0286 26028.7 -03450.8 -07.5520 26256.4
 13 06 2013  05 02  -21.0286 26028.7 -03450.8 -07.5520 26256.5
 13 06 2013  05 03  -21.0285 26028.6 -03450.8 -07.5521 26256.4
 13 06 2013  05 04  -21.0286 26028.6 -03450.8 -07.5521 26256.4
 13 06 2013  05 05  -21.0287 26028.6 -03450.8 -07.5521 26256.4
 13 06 2013  05 06  -21.0287 26028.7 -03450.9 -07.5522 26256.4
 13 06 2013  05 07  -21.0286 26028.7 -03450.9 -07.5522 26256.4
 13 06 2013  05 08  -21.0285 26028.7 -03450.9 -07.5522 26256.4
 13 06 2013  05 09  -21.0285 26028.7 -03450.9 -07.5522 26256.4
 13 06 2013  05 10  -21.0284 26028.8 -03450.9 -07.5523 26256.5
 13 06 2013  05 11  -21.0284 26028.8 -03451.0 -07.5524 26256.6
 13 06 2013  05 12  -21.0285 26028.8 -03451.0 -07.5524 26256.6
 13 06 2013  05 13  -21.0286 26028.8 -03451.0 -07.5524 26256.5
 13 06 2013  05 14  -21.0287 26028.8 -03451.0 -07.5524 26256.6
 13 06 2013  05 15  -21.0289 26028.7 -03451.0 -07.5524 26256.5
 13 06 2013  05 16  -21.0290 26028.7 -03450.9 -07.5524 26256.5
 13 06 2013  05 17  -21.0291 26028.6 -03450.9 -07.5523 26256.4
 13 06 2013  05 18  -21.0291 26028.6 -03450.9 -07.5522 26256.3
 13 06 2013  05 19  -21.0291 26028.5 -03450.8 -07.5522 26256.3
 13 06 2013  05 20  -21.0289 26028.5 -03450.8 -07.5521 26256.2
 13 06 2013  05 21  -21.0288 26028.5 -03450.8 -07.5521 26256.2
 13 06 2013  05 22  -21.0287 26028.4 -03450.8 -07.5521 26256.2
 13 06 2013  05 23  -21.0288 26028.5 -03450.8 -07.5522 26256.2
 13 06 2013  05 24  -21.0289 26028.5 -03450.9 -07.5522 26256.3
 13 06 2013  05 25  -21.0290 26028.6 -03450.9 -07.5523 26256.3
 13 06 2013  05 26  -21.0291 26028.6 -03451.0 -07.5524 26256.4
 13 06 2013  05 27  -21.0293 26028.7 -03451.0 -07.5526 26256.5
 13 06 2013  05 28  -21.0293 26028.8 -03451.1 -07.5526 26256.5
 13 06 2013  05 29  -21.0294 26028.8 -03451.1 -07.5525 26256.6
 13 06 2013  05 30  -21.0294 26028.9 -03451.1 -07.5526 26256.7
 13 06 2013  05 31  -21.0293 26028.9 -03451.1 -07.5525 26256.7
 13 06 2013  05 32  -21.0291 26028.9 -03451.1 -07.5526 26256.7
 13 06 2013  05 33  -21.0290 26029.0 -03451.1 -07.5526 26256.7
 13 06 2013  05 34  -21.0290 26029.0 -03451.1 -07.5526 26256.8
 13 06 2013  05 35  -21.0290 26029.0 -03451.1 -07.5526 26256.8
 13 06 2013  05 36  -21.0289 26029.0 -03451.1 -07.5527 26256.8
 13 06 2013  05 37  -21.0290 26029.0 -03451.2 -07.5527 26256.8
 13 06 2013  05 38  -21.0290 26029.0 -03451.2 -07.5527 26256.8
 13 06 2013  05 39  -21.0291 26029.0 -03451.1 -07.5527 26256.8
 13 06 2013  05 40  -21.0291 26029.0 -03451.2 -07.5527 26256.8
 13 06 2013  05 41  -21.0291 26028.9 -03451.1 -07.5526 26256.7
 13 06 2013  05 42  -21.0290 26028.9 -03451.1 -07.5526 26256.7
 13 06 2013  05 43  -21.0288 26028.9 -03451.1 -07.5526 26256.7
 13 06 2013  05 44  -21.0287 26028.9 -03451.1 -07.5527 26256.7
 13 06 2013  05 45  -21.0286 26028.9 -03451.1 -07.5527 26256.7
 13 06 2013  05 46  -21.0285 26028.9 -03451.2 -07.5528 26256.7
 13 06 2013  05 47  -21.0284 26028.9 -03451.1 -07.5527 26256.7
 13 06 2013  05 48  -21.0283 26028.9 -03451.2 -07.5528 26256.7
 13 06 2013  05 49  -21.0281 26028.9 -03451.2 -07.5528 26256.7
 13 06 2013  05 50  -21.0280 26028.9 -03451.2 -07.5529 26256.7
 13 06 2013  05 51  -21.0279 26029.0 -03451.2 -07.5529 26256.8
 13 06 2013  05 52  -21.0279 26029.0 -03451.3 -07.5530 26256.8
 13 06 2013  05 53  -21.0280 26029.0 -03451.3 -07.5530 26256.8
 13 06 2013  05 54  -21.0279 26029.0 -03451.3 -07.5531 26256.8
 13 06 2013  05 55  -21.0280 26029.0 -03451.3 -07.5531 26256.8
 13 06 2013  05 56  -21.0280 26029.0 -03451.3 -07.5531 26256.8
 13 06 2013  05 57  -21.0281 26029.0 -03451.3 -07.5531 26256.9
 13 06 2013  05 58  -21.0280 26029.0 -03451.4 -07.5532 26256.9
 13 06 2013  05 59  -21.0280 26029.1 -03451.4 -07.5532 26257.0
 13 06 2013  06 00  -21.0280 26029.2 -03451.5 -07.5533 26257.0
 13 06 2013  06 01  -21.0279 26029.3 -03451.5 -07.5534 26257.1
 13 06 2013  06 02  -21.0280 26029.3 -03451.6 -07.5535 26257.2
 13 06 2013  06 03  -21.0279 26029.3 -03451.6 -07.5535 26257.1
 13 06 2013  06 04  -21.0279 26029.3 -03451.5 -07.5534 26257.1
 13 06 2013  06 05  -21.0278 26029.3 -03451.5 -07.5534 26257.1
 13 06 2013  06 06  -21.0279 26029.3 -03451.5 -07.5534 26257.1
 13 06 2013  06 07  -21.0279 26029.2 -03451.5 -07.5534 26257.1
 13 06 2013  06 08  -21.0278 26029.1 -03451.5 -07.5533 26257.0
 13 06 2013  06 09  -21.0277 26029.1 -03451.4 -07.5533 26257.0
 13 06 2013  06 10  -21.0277 26029.0 -03451.4 -07.5532 26256.9
 13 06 2013  06 11  -21.0276 26029.0 -03451.4 -07.5532 26256.8
 13 06 2013  06 12  -21.0276 26029.0 -03451.4 -07.5533 26256.8
 13 06 2013  06 13  -21.0276 26029.0 -03451.5 -07.5534 26256.9
 13 06 2013  06 14  -21.0276 26029.1 -03451.5 -07.5535 26256.9
 13 06 2013  06 15  -21.0276 26029.1 -03451.6 -07.5535 26257.0
 13 06 2013  06 16  -21.0276 26029.2 -03451.6 -07.5536 26257.1
 13 06 2013  06 17  -21.0275 26029.3 -03451.7 -07.5537 26257.1
 13 06 2013  06 18  -21.0275 26029.3 -03451.7 -07.5537 26257.2
 13 06 2013  06 19  -21.0274 26029.4 -03451.7 -07.5537 26257.2
 13 06 2013  06 20  -21.0272 26029.3 -03451.7 -07.5537 26257.2
 13 06 2013  06 21  -21.0272 26029.4 -03451.7 -07.5537 26257.2
 13 06 2013  06 22  -21.0271 26029.4 -03451.7 -07.5537 26257.3
 13 06 2013  06 23  -21.0271 26029.5 -03451.7 -07.5538 26257.3
 13 06 2013  06 24  -21.0270 26029.5 -03451.7 -07.5538 26257.4
 13 06 2013  06 25  -21.0270 26029.5 -03451.7 -07.5538 26257.4
 13 06 2013  06 26  -21.0270 26029.6 -03451.8 -07.5539 26257.5
 13 06 2013  06 27  -21.0269 26029.6 -03451.8 -07.5539 26257.4
 13 06 2013  06 28  -21.0268 26029.6 -03451.8 -07.5539 26257.4
 13 06 2013  06 29  -21.0267 26029.5 -03451.7 -07.5538 26257.4
 13 06 2013  06 30  -21.0266 26029.5 -03451.7 -07.5538 26257.4
 13 06 2013  06 31  -21.0265 26029.6 -03451.7 -07.5538 26257.4
 13 06 2013  06 32  -21.0265 26029.5 -03451.8 -07.5539 26257.4
 13 06 2013  06 33  -21.0265 26029.5 -03451.8 -07.5539 26257.4
 13 06 2013  06 34  -21.0265 26029.5 -03451.8 -07.5539 26257.4
 13 06 2013  06 35  -21.0265 26029.5 -03451.8 -07.5539 26257.3
 13 06 2013  06 36  -21.0265 26029.4 -03451.8 -07.5539 26257.3
 13 06 2013  06 37  -21.0265 26029.4 -03451.7 -07.5538 26257.2
 13 06 2013  06 38  -21.0264 26029.3 -03451.7 -07.5538 26257.2
 13 06 2013  06 39  -21.0264 26029.3 -03451.7 -07.5538 26257.2
 13 06 2013  06 40  -21.0263 26029.3 -03451.7 -07.5538 26257.1
 13 06 2013  06 41  -21.0263 26029.2 -03451.7 -07.5538 26257.1
 13 06 2013  06 42  -21.0262 26029.2 -03451.7 -07.5538 26257.1
 13 06 2013  06 43  -21.0261 26029.2 -03451.7 -07.5538 26257.1
 13 06 2013  06 44  -21.0261 26029.2 -03451.7 -07.5539 26257.1
 13 06 2013  06 45  -21.0260 26029.3 -03451.8 -07.5540 26257.2
 13 06 2013  06 46  -21.0259 26029.4 -03451.8 -07.5540 26257.3
 13 06 2013  06 47  -21.0260 26029.5 -03451.8 -07.5541 26257.4
 13 06 2013  06 48  -21.0259 26029.5 -03451.9 -07.5541 26257.4
 13 06 2013  06 49  -21.0258 26029.5 -03451.9 -07.5542 26257.4
 13 06 2013  06 50  -21.0258 26029.6 -03451.9 -07.5542 26257.4
 13 06 2013  06 51  -21.0257 26029.6 -03452.0 -07.5543 26257.5
 13 06 2013  06 52  -21.0256 26029.6 -03452.0 -07.5543 26257.5
 13 06 2013  06 53  -21.0255 26029.7 -03452.0 -07.5544 26257.6
 13 06 2013  06 54  -21.0255 26029.8 -03452.1 -07.5544 26257.7
 13 06 2013  06 55  -21.0255 26029.8 -03452.1 -07.5545 26257.7
 13 06 2013  06 56  -21.0253 26029.9 -03452.1 -07.5545 26257.8
 13 06 2013  06 57  -21.0252 26029.9 -03452.1 -07.5545 26257.8
 13 06 2013  06 58  -21.0250 26029.8 -03452.1 -07.5544 26257.7
 13 06 2013  06 59  -21.0249 26029.8 -03452.0 -07.5544 26257.7
 13 06 2013  07 00  -21.0247 26029.7 -03452.0 -07.5544 26257.6
 13 06 2013  07 01  -21.0247 26029.7 -03452.0 -07.5543 26257.6
 13 06 2013  07 02  -21.0248 26029.6 -03452.0 -07.5543 26257.5
 13 06 2013  07 03  -21.0248 26029.7 -03452.0 -07.5544 26257.6
 13 06 2013  07 04  -21.0248 26029.6 -03452.0 -07.5544 26257.5
 13 06 2013  07 05  -21.0247 26029.6 -03452.0 -07.5544 26257.6
 13 06 2013  07 06  -21.0246 26029.6 -03452.0 -07.5544 26257.5
 13 06 2013  07 07  -21.0244 26029.6 -03452.0 -07.5544 26257.5
 13 06 2013  07 08  -21.0243 26029.6 -03452.0 -07.5544 26257.5
 13 06 2013  07 09  -21.0242 26029.6 -03452.0 -07.5543 26257.5
 13 06 2013  07 10  -21.0241 26029.5 -03452.0 -07.5544 26257.4
 13 06 2013  07 11  -21.0240 26029.5 -03452.0 -07.5544 26257.4
 13 06 2013  07 12  -21.0240 26029.5 -03452.0 -07.5544 26257.4
 13 06 2013  07 13  -21.0240 26029.5 -03452.0 -07.5545 26257.4
 13 06 2013  07 14  -21.0239 26029.6 -03452.0 -07.5544 26257.5
 13 06 2013  07 15  -21.0239 26029.6 -03452.1 -07.5545 26257.5
 13 06 2013  07 16  -21.0237 26029.6 -03452.1 -07.5546 26257.5
 13 06 2013  07 17  -21.0237 26029.6 -03452.1 -07.5546 26257.5
 13 06 2013  07 18  -21.0236 26029.6 -03452.1 -07.5546 26257.5
 13 06 2013  07 19  -21.0234 26029.6 -03452.1 -07.5546 26257.5
 13 06 2013  07 20  -21.0232 26029.6 -03452.1 -07.5546 26257.5
 13 06 2013  07 21  -21.0230 26029.5 -03452.1 -07.5546 26257.4
 13 06 2013  07 22  -21.0228 26029.5 -03452.1 -07.5545 26257.4
 13 06 2013  07 23  -21.0226 26029.5 -03452.1 -07.5546 26257.4
 13 06 2013  07 24  -21.0225 26029.5 -03452.1 -07.5547 26257.4
 13 06 2013  07 25  -21.0223 26029.4 -03452.1 -07.5546 26257.4
 13 06 2013  07 26  -21.0222 26029.4 -03452.1 -07.5546 26257.3
 13 06 2013  07 27  -21.0220 26029.3 -03452.1 -07.5546 26257.2
 13 06 2013  07 28  -21.0220 26029.2 -03452.1 -07.5546 26257.1
 13 06 2013  07 29  -21.0219 26029.2 -03452.1 -07.5546 26257.1
 13 06 2013  07 30  -21.0218 26029.2 -03452.1 -07.5547 26257.1
 13 06 2013  07 31  -21.0218 26029.3 -03452.1 -07.5547 26257.2
 13 06 2013  07 32  -21.0219 26029.3 -03452.2 -07.5548 26257.2
 13 06 2013  07 33  -21.0219 26029.3 -03452.2 -07.5549 26257.3
 13 06 2013  07 34  -21.0218 26029.3 -03452.2 -07.5549 26257.3
 13 06 2013  07 35  -21.0216 26029.4 -03452.2 -07.5549 26257.3
 13 06 2013  07 36  -21.0214 26029.4 -03452.2 -07.5550 26257.3
 13 06 2013  07 37  -21.0213 26029.4 -03452.2 -07.5550 26257.4
 13 06 2013  07 38  -21.0212 26029.4 -03452.3 -07.5550 26257.4
 13 06 2013  07 39  -21.0211 26029.4 -03452.3 -07.5550 26257.4
 13 06 2013  07 40  -21.0211 26029.4 -03452.3 -07.5550 26257.4
 13 06 2013  07 41  -21.0210 26029.5 -03452.3 -07.5551 26257.5
 13 06 2013  07 42  -21.0208 26029.4 -03452.3 -07.5551 26257.4
 13 06 2013  07 43  -21.0207 26029.5 -03452.3 -07.5550 26257.4
 13 06 2013  07 44  -21.0207 26029.4 -03452.3 -07.5551 26257.3
 13 06 2013  07 45  -21.0206 26029.4 -03452.3 -07.5551 26257.4
 13 06 2013  07 46  -21.0206 26029.4 -03452.3 -07.5551 26257.3
 13 06 2013  07 47  -21.0204 26029.2 -03452.2 -07.5550 26257.2
 13 06 2013  07 48  -21.0203 26029.1 -03452.2 -07.5549 26257.0
 13 06 2013  07 49  -21.0202 26028.9 -03452.1 -07.5549 26256.8
 13 06 2013  07 50  -21.0202 26028.8 -03452.1 -07.5548 26256.7
 13 06 2013  07 51  -21.0201 26028.7 -03452.1 -07.5548 26256.6
 13 06 2013  07 52  -21.0200 26028.7 -03452.1 -07.5548 26256.6
 13 06 2013  07 53  -21.0199 26028.7 -03452.1 -07.5549 26256.6
 13 06 2013  07 54  -21.0198 26028.6 -03452.2 -07.5550 26256.6
 13 06 2013  07 55  -21.0197 26028.6 -03452.2 -07.5550 26256.6
 13 06 2013  07 56  -21.0196 26028.6 -03452.2 -07.5550 26256.5
 13 06 2013  07 57  -21.0195 26028.6 -03452.2 -07.5551 26256.5
 13 06 2013  07 58  -21.0194 26028.5 -03452.2 -07.5551 26256.5
 13 06 2013  07 59  -21.0193 26028.5 -03452.2 -07.5552 26256.5
 13 06 2013  08 00  -21.0192 26028.5 -03452.2 -07.5552 26256.4
 13 06 2013  08 01  -21.0190 26028.5 -03452.3 -07.5553 26256.5
 13 06 2013  08 02  -21.0188 26028.5 -03452.3 -07.5554 26256.5
 13 06 2013  08 03  -21.0187 26028.6 -03452.4 -07.5554 26256.5
 13 06 2013  08 04  -21.0185 26028.5 -03452.4 -07.5555 26256.5
 13 06 2013  08 05  -21.0184 26028.5 -03452.4 -07.5555 26256.5
 13 06 2013  08 06  -21.0183 26028.5 -03452.4 -07.5556 26256.5
 13 06 2013  08 07  -21.0183 26028.5 -03452.5 -07.5557 26256.5
 13 06 2013  08 08  -21.0182 26028.5 -03452.5 -07.5558 26256.5
 13 06 2013  08 09  -21.0182 26028.5 -03452.5 -07.5558 26256.5
 13 06 2013  08 10  -21.0181 26028.5 -03452.5 -07.5558 26256.5
 13 06 2013  08 11  -21.0180 26028.4 -03452.5 -07.5559 26256.4
 13 06 2013  08 12  -21.0178 26028.4 -03452.6 -07.5559 26256.4
 13 06 2013  08 13  -21.0177 26028.4 -03452.6 -07.5559 26256.4
 13 06 2013  08 14  -21.0176 26028.4 -03452.6 -07.5560 26256.3
 13 06 2013  08 15  -21.0174 26028.3 -03452.6 -07.5559 26256.3
 13 06 2013  08 16  -21.0172 26028.3 -03452.6 -07.5560 26256.3
 13 06 2013  08 17  -21.0170 26028.3 -03452.6 -07.5560 26256.3
 13 06 2013  08 18  -21.0167 26028.3 -03452.6 -07.5560 26256.2
 13 06 2013  08 19  -21.0165 26028.2 -03452.6 -07.5560 26256.2
 13 06 2013  08 20  -21.0165 26028.2 -03452.6 -07.5560 26256.2
 13 06 2013  08 21  -21.0165 26028.1 -03452.6 -07.5561 26256.1
 13 06 2013  08 22  -21.0164 26028.0 -03452.6 -07.5561 26256.0
 13 06 2013  08 23  -21.0163 26028.0 -03452.6 -07.5561 26256.0
 13 06 2013  08 24  -21.0163 26028.0 -03452.6 -07.5561 26256.0
 13 06 2013  08 25  -21.0163 26028.0 -03452.7 -07.5564 26256.1
 13 06 2013  08 26  -21.0162 26027.9 -03452.7 -07.5563 26255.9
 13 06 2013  08 27  -21.0159 26027.8 -03452.6 -07.5562 26255.8
 13 06 2013  08 28  -21.0157 26027.7 -03452.5 -07.5561 26255.6
 13 06 2013  08 29  -21.0155 26027.6 -03452.5 -07.5560 26255.6
 13 06 2013  08 30  -21.0153 26027.5 -03452.5 -07.5560 26255.5
 13 06 2013  08 31  -21.0150 26027.5 -03452.5 -07.5561 26255.4
 13 06 2013  08 32  -21.0148 26027.5 -03452.6 -07.5562 26255.5
 13 06 2013  08 33  -21.0145 26027.5 -03452.6 -07.5562 26255.5
 13 06 2013  08 34  -21.0143 26027.5 -03452.6 -07.5562 26255.4
 13 06 2013  08 35  -21.0140 26027.5 -03452.6 -07.5563 26255.5
 13 06 2013  08 36  -21.0136 26027.5 -03452.6 -07.5563 26255.5
 13 06 2013  08 37  -21.0131 26027.4 -03452.5 -07.5561 26255.4
 13 06 2013  08 38  -21.0125 26027.4 -03452.5 -07.5561 26255.4
 13 06 2013  08 39  -21.0123 26027.4 -03452.5 -07.5562 26255.4
 13 06 2013  08 40  -21.0120 26027.3 -03452.5 -07.5562 26255.3
 13 06 2013  08 41  -21.0117 26027.2 -03452.5 -07.5562 26255.2
 13 06 2013  08 42  -21.0113 26027.2 -03452.6 -07.5563 26255.2
 13 06 2013  08 43  -21.0108 26027.3 -03452.6 -07.5563 26255.3
 13 06 2013  08 44  -21.0100 26027.4 -03452.7 -07.5564 26255.4
 13 06 2013  08 45  -21.0096 26027.3 -03452.6 -07.5564 26255.3
 13 06 2013  08 46  -21.0091 26027.4 -03452.7 -07.5566 26255.4
 13 06 2013  08 47  -21.0087 26027.5 -03452.8 -07.5568 26255.5
 13 06 2013  08 48  -21.0083 26027.5 -03452.9 -07.5570 26255.5
 13 06 2013  08 49  -21.0082 26027.5 -03453.0 -07.5571 26255.5
 13 06 2013  08 50  -21.0081 26027.4 -03453.0 -07.5572 26255.5
 13 06 2013  08 51  -21.0083 26027.4 -03453.1 -07.5574 26255.5
 13 06 2013  08 52  -21.0082 26027.5 -03453.2 -07.5575 26255.6
 13 06 2013  08 53  -21.0083 26027.4 -03453.1 -07.5574 26255.4
 13 06 2013  08 54  -21.0082 26027.6 -03453.2 -07.5575 26255.6
 13 06 2013  08 55  -21.0081 26027.4 -03453.1 -07.5574 26255.5
 13 06 2013  08 56  -21.0079 26027.6 -03453.1 -07.5572 26255.6
 13 06 2013  08 57  -21.0076 26027.5 -03453.0 -07.5572 26255.5
 13 06 2013  08 58  -21.0076 26027.6 -03453.1 -07.5573 26255.6
 13 06 2013  08 59  -21.0070 26027.6 -03453.0 -07.5571 26255.6
 13 06 2013  09 00  -21.0064 26027.5 -03452.9 -07.5569 26255.5
 13 06 2013  09 01  -21.0057 26027.6 -03452.9 -07.5568 26255.6
 13 06 2013  09 02  -21.0051 26027.5 -03452.8 -07.5567 26255.6
 13 06 2013  09 03  -21.0042 26027.4 -03452.7 -07.5566 26255.4
 13 06 2013  09 04  -21.0034 26027.4 -03452.7 -07.5564 26255.4
 13 06 2013  09 05  -21.0024 26027.4 -03452.6 -07.5564 26255.4
 13 06 2013  09 06  -21.0017 26027.2 -03452.5 -07.5562 26255.2
 13 06 2013  09 07  -21.0006 26027.3 -03452.6 -07.5562 26255.2
 13 06 2013  09 08  -20.9994 26027.3 -03452.5 -07.5562 26255.3
 13 06 2013  09 09  -20.9985 26027.1 -03452.5 -07.5561 26255.1
 13 06 2013  09 10  -20.9976 26027.0 -03452.5 -07.5562 26255.0
 13 06 2013  09 11  -20.9967 26026.9 -03452.5 -07.5562 26254.9
 13 06 2013  09 12  -20.9961 26026.8 -03452.6 -07.5564 26254.8
 13 06 2013  09 13  -20.9952 26026.7 -03452.6 -07.5566 26254.7
 13 06 2013  09 14  -20.9943 26026.8 -03452.8 -07.5570 26254.9
 13 06 2013  09 15  -20.9929 26026.6 -03452.8 -07.5569 26254.6
 13 06 2013  09 16  -20.9921 26026.5 -03452.9 -07.5572 26254.5
 13 06 2013  09 17  -20.9913 26026.3 -03453.0 -07.5574 26254.3
 13 06 2013  09 18  -20.9907 26026.1 -03453.1 -07.5578 26254.2
 13 06 2013  09 19  -20.9900 26026.1 -03453.3 -07.5581 26254.2
 13 06 2013  09 20  -20.9894 26026.0 -03453.4 -07.5585 26254.1
 13 06 2013  09 21  -20.9887 26025.8 -03453.5 -07.5588 26253.9
 13 06 2013  09 22  -20.9881 26025.7 -03453.7 -07.5592 26253.9
 13 06 2013  09 23  -20.9874 26025.5 -03453.8 -07.5595 26253.6
 13 06 2013  09 24  -20.9869 26025.5 -03454.1 -07.5601 26253.7
 13 06 2013  09 25  -20.9856 26025.5 -03454.3 -07.5605 26253.8
 13 06 2013  09 26  -20.9849 26025.5 -03454.4 -07.5608 26253.8
 13 06 2013  09 27  -20.9840 26025.8 -03454.9 -07.5617 26254.1
 13 06 2013  09 28  -20.9828 26025.9 -03455.2 -07.5622 26254.3
 13 06 2013  09 29  -20.9814 26026.0 -03455.4 -07.5628 26254.4
 13 06 2013  09 30  -20.9807 26025.9 -03455.6 -07.5633 26254.4
 13 06 2013  09 31  -20.9801 26026.1 -03456.0 -07.5640 26254.6
 13 06 2013  09 32  -20.9798 26026.2 -03456.3 -07.5646 26254.7
 13 06 2013  09 33  -20.9788 26026.4 -03456.6 -07.5652 26254.9
 13 06 2013  09 34  -20.9782 26026.1 -03456.7 -07.5654 26254.7
 13 06 2013  09 35  -20.9784 26025.9 -03456.8 -07.5658 26254.4
 13 06 2013  09 36  -20.9782 26025.9 -03457.0 -07.5663 26254.5
 13 06 2013  09 37  -20.9782 26025.4 -03457.1 -07.5665 26254.0
 13 06 2013  09 38  -20.9780 26025.3 -03457.3 -07.5670 26254.0
 13 06 2013  09 39  -20.9777 26025.2 -03457.5 -07.5675 26253.8
 13 06 2013  09 40  -20.9773 26025.0 -03457.7 -07.5679 26253.7
 13 06 2013  09 41  -20.9771 26025.1 -03457.9 -07.5685 26253.8
 13 06 2013  09 42  -20.9768 26025.1 -03458.2 -07.5691 26253.9
 13 06 2013  09 43  -20.9762 26025.3 -03458.5 -07.5697 26254.1
 13 06 2013  09 44  -20.9753 26025.3 -03458.7 -07.5702 26254.1
 13 06 2013  09 45  -20.9749 26025.3 -03458.9 -07.5706 26254.1
 13 06 2013  09 46  -20.9743 26025.4 -03459.2 -07.5711 26254.3
 13 06 2013  09 47  -20.9738 26025.4 -03459.3 -07.5714 26254.3
 13 06 2013  09 48  -20.9736 26025.4 -03459.5 -07.5719 26254.3
 13 06 2013  09 49  -20.9736 26025.3 -03459.7 -07.5723 26254.3
 13 06 2013  09 50  -20.9737 26025.2 -03459.9 -07.5727 26254.2
 13 06 2013  09 51  -20.9739 26025.4 -03460.2 -07.5733 26254.4
 13 06 2013  09 52  -20.9732 26025.6 -03460.4 -07.5738 26254.6
 13 06 2013  09 53  -20.9724 26025.8 -03460.6 -07.5742 26254.8
 13 06 2013  09 54  -20.9720 26025.9 -03460.8 -07.5745 26255.0
 13 06 2013  09 55  -20.9718 26025.9 -03461.0 -07.5749 26255.1
 13 06 2013  09 56  -20.9719 26026.0 -03461.1 -07.5752 26255.1
 13 06 2013  09 57  -20.9719 26026.0 -03461.3 -07.5756 26255.2
 13 06 2013  09 58  -20.9716 26025.9 -03461.4 -07.5759 26255.1
 13 06 2013  09 59  -20.9714 26026.0 -03461.6 -07.5762 26255.2
 13 06 2013  10 00  -20.9711 26025.9 -03461.7 -07.5765 26255.1
 13 06 2013  10 01  -20.9713 26025.9 -03461.9 -07.5769 26255.2
 13 06 2013  10 02  -20.9713 26025.9 -03462.1 -07.5772 26255.2
 13 06 2013  10 03  -20.9712 26025.8 -03462.1 -07.5774 26255.1
 13 06 2013  10 04  -20.9712 26025.9 -03462.3 -07.5777 26255.2
 13 06 2013  10 05  -20.9713 26025.8 -03462.4 -07.5780 26255.1
 13 06 2013  10 06  -20.9716 26025.7 -03462.5 -07.5783 26255.1
 13 06 2013  10 07  -20.9719 26025.7 -03462.7 -07.5786 26255.1
 13 06 2013  10 08  -20.9723 26025.8 -03462.9 -07.5790 26255.2
 13 06 2013  10 09  -20.9728 26025.7 -03463.0 -07.5793 26255.1
 13 06 2013  10 10  -20.9731 26025.7 -03463.1 -07.5795 26255.1
 13 06 2013  10 11  -20.9731 26025.8 -03463.2 -07.5797 26255.2
 13 06 2013  10 12  -20.9737 26025.8 -03463.3 -07.5799 26255.2
 13 06 2013  10 13  -20.9742 26025.6 -03463.3 -07.5800 26255.1
 13 06 2013  10 14  -20.9745 26025.5 -03463.4 -07.5802 26254.9
 13 06 2013  10 15  -20.9751 26025.4 -03463.5 -07.5804 26254.8
 13 06 2013  10 16  -20.9752 26025.4 -03463.6 -07.5807 26254.8
 13 06 2013  10 17  -20.9753 26025.3 -03463.7 -07.5809 26254.8
 13 06 2013  10 18  -20.9755 26025.3 -03463.8 -07.5812 26254.8
 13 06 2013  10 19  -20.9757 26025.2 -03464.0 -07.5815 26254.8
 13 06 2013  10 20  -20.9758 26025.3 -03464.1 -07.5818 26254.8
 13 06 2013  10 21  -20.9760 26025.3 -03464.3 -07.5822 26254.9
 13 06 2013  10 22  -20.9760 26025.3 -03464.4 -07.5824 26254.9
 13 06 2013  10 23  -20.9761 26025.3 -03464.5 -07.5827 26254.9
 13 06 2013  10 24  -20.9761 26025.3 -03464.6 -07.5829 26254.9
 13 06 2013  10 25  -20.9762 26025.3 -03464.7 -07.5831 26254.9
 13 06 2013  10 26  -20.9767 26025.3 -03464.8 -07.5834 26254.9
 13 06 2013  10 27  -20.9769 26025.3 -03465.0 -07.5836 26255.0
 13 06 2013  10 28  -20.9771 26025.2 -03465.0 -07.5838 26254.9
 13 06 2013  10 29  -20.9774 26025.2 -03465.1 -07.5840 26254.8
 13 06 2013  10 30  -20.9774 26025.2 -03465.2 -07.5843 26254.9
 13 06 2013  10 31  -20.9775 26025.2 -03465.3 -07.5844 26254.9
 13 06 2013  10 32  -20.9780 26025.1 -03465.3 -07.5845 26254.8
 13 06 2013  10 33  -20.9782 26025.1 -03465.4 -07.5847 26254.8
 13 06 2013  10 34  -20.9780 26025.2 -03465.6 -07.5850 26255.0
 13 06 2013  10 35  -20.9778 26025.4 -03465.7 -07.5851 26255.2
 13 06 2013  10 36  -20.9776 26025.7 -03465.8 -07.5853 26255.4
 13 06 2013  10 37  -20.9777 26025.8 -03465.9 -07.5855 26255.6
 13 06 2013  10 38  -20.9778 26026.0 -03465.9 -07.5855 26255.7
 13 06 2013  10 39  -20.9780 26026.1 -03466.0 -07.5856 26255.8
 13 06 2013  10 40  -20.9784 26026.2 -03466.0 -07.5857 26256.0
 13 06 2013  10 41  -20.9788 26026.4 -03466.1 -07.5857 26256.1
 13 06 2013  10 42  -20.9792 26026.5 -03466.1 -07.5857 26256.3
 13 06 2013  10 43  -20.9795 26026.5 -03466.1 -07.5857 26256.3
 13 06 2013  10 44  -20.9797 26026.6 -03466.1 -07.5857 26256.4
 13 06 2013  10 45  -20.9800 26026.7 -03466.1 -07.5857 26256.5
 13 06 2013  10 46  -20.9804 26026.9 -03466.1 -07.5857 26256.7
 13 06 2013  10 47  -20.9807 26027.1 -03466.1 -07.5856 26256.9
 13 06 2013  10 48  -20.9812 26027.1 -03466.1 -07.5855 26256.9
 13 06 2013  10 49  -20.9817 26026.9 -03466.0 -07.5853 26256.7
 13 06 2013  10 50  -20.9820 26026.9 -03465.9 -07.5853 26256.7
 13 06 2013  10 51  -20.9817 26027.4 -03466.1 -07.5854 26257.1
 13 06 2013  10 52  -20.9822 26027.5 -03466.0 -07.5853 26257.3
 13 06 2013  10 53  -20.9830 26027.8 -03466.1 -07.5854 26257.6
 13 06 2013  10 54  -20.9833 26027.8 -03466.0 -07.5852 26257.6
 13 06 2013  10 55  -20.9837 26027.7 -03465.9 -07.5850 26257.4
 13 06 2013  10 56  -20.9839 26028.0 -03466.0 -07.5851 26257.8
 13 06 2013  10 57  -20.9844 26028.4 -03466.0 -07.5851 26258.2
 13 06 2013  10 58  -20.9851 26028.6 -03466.0 -07.5850 26258.4
 13 06 2013  10 59  -20.9860 26028.7 -03465.9 -07.5847 26258.4
 13 06 2013  11 00  -20.9862 26029.2 -03466.0 -07.5848 26258.9
 13 06 2013  11 01  -20.9864 26029.8 -03466.1 -07.5848 26259.6
 13 06 2013  11 02  -20.9870 26030.4 -03466.1 -07.5847 26260.2
 13 06 2013  11 03  -20.9877 26030.7 -03466.0 -07.5843 26260.4
 13 06 2013  11 04  -20.9886 26031.0 -03465.8 -07.5838 26260.7
 13 06 2013  11 05  -20.9893 26031.1 -03465.5 -07.5832 26260.8
 13 06 2013  11 06  -20.9904 26031.2 -03465.2 -07.5825 26260.9
 13 06 2013  11 07  -20.9913 26031.5 -03465.0 -07.5819 26261.1
 13 06 2013  11 08  -20.9923 26031.6 -03464.7 -07.5813 26261.2
 13 06 2013  11 09  -20.9930 26031.7 -03464.3 -07.5805 26261.2
 13 06 2013  11 10  -20.9938 26031.9 -03464.0 -07.5796 26261.4
 13 06 2013  11 11  -20.9945 26032.1 -03463.7 -07.5789 26261.5
 13 06 2013  11 12  -20.9948 26032.3 -03463.3 -07.5780 26261.7
 13 06 2013  11 13  -20.9949 26032.6 -03462.9 -07.5771 26261.9
 13 06 2013  11 14  -20.9947 26032.7 -03462.5 -07.5761 26262.0
 13 06 2013  11 15  -20.9944 26033.1 -03462.1 -07.5752 26262.3
 13 06 2013  11 16  -20.9942 26033.3 -03461.7 -07.5742 26262.5
 13 06 2013  11 17  -20.9940 26033.5 -03461.3 -07.5734 26262.6
 13 06 2013  11 18  -20.9936 26033.8 -03461.0 -07.5727 26262.9
 13 06 2013  11 19  -20.9931 26034.1 -03460.7 -07.5720 26263.2
 13 06 2013  11 20  -20.9925 26034.5 -03460.5 -07.5714 26263.5
 13 06 2013  11 21  -20.9919 26034.8 -03460.3 -07.5707 26263.7
 13 06 2013  11 22  -20.9911 26034.9 -03460.0 -07.5701 26263.8
 13 06 2013  11 23  -20.9904 26035.3 -03459.9 -07.5697 26264.2
 13 06 2013  11 24  -20.9893 26036.0 -03459.8 -07.5694 26264.8
 13 06 2013  11 25  -20.9891 26036.2 -03459.5 -07.5687 26265.0
 13 06 2013  11 26  -20.9891 26036.1 -03459.2 -07.5680 26264.9
 13 06 2013  11 27  -20.9886 26036.6 -03459.1 -07.5677 26265.4
 13 06 2013  11 28  -20.9892 26036.4 -03458.9 -07.5672 26265.2
 13 06 2013  11 29  -20.9899 26036.6 -03458.9 -07.5673 26265.3
 13 06 2013  11 30  -20.9888 26037.8 -03459.3 -07.5679 26266.6
 13 06 2013  11 31  -20.9882 26038.9 -03459.6 -07.5680 26267.7
 13 06 2013  11 32  -20.9879 26039.6 -03459.5 -07.5678 26268.4
 13 06 2013  11 33  -20.9873 26040.3 -03459.4 -07.5674 26269.1
 13 06 2013  11 34  -20.9868 26040.6 -03459.2 -07.5667 26269.4
 13 06 2013  11 35  -20.9866 26041.0 -03459.0 -07.5662 26269.7
 13 06 2013  11 36  -20.9866 26041.2 -03458.8 -07.5657 26269.9
 13 06 2013  11 37  -20.9865 26041.5 -03458.6 -07.5653 26270.2
 13 06 2013  11 38  -20.9865 26041.8 -03458.5 -07.5649 26270.4
 13 06 2013  11 39  -20.9868 26041.9 -03458.4 -07.5646 26270.5
 13 06 2013  11 40  -20.9870 26042.1 -03458.2 -07.5643 26270.7
 13 06 2013  11 41  -20.9870 26042.3 -03458.1 -07.5640 26270.9
 13 06 2013  11 42  -20.9870 26042.7 -03458.1 -07.5638 26271.2
 13 06 2013  11 43  -20.9871 26042.9 -03458.1 -07.5636 26271.5
 13 06 2013  11 44  -20.9871 26043.2 -03458.0 -07.5635 26271.8
 13 06 2013  11 45  -20.9872 26043.7 -03458.1 -07.5634 26272.3
 13 06 2013  11 46  -20.9875 26044.2 -03458.1 -07.5633 26272.7
 13 06 2013  11 47  -20.9876 26044.6 -03458.1 -07.5632 26273.2
 13 06 2013  11 48  -20.9877 26044.9 -03458.0 -07.5629 26273.5
 13 06 2013  11 49  -20.9878 26045.2 -03457.9 -07.5626 26273.7
 13 06 2013  11 50  -20.9878 26045.4 -03457.8 -07.5624 26274.0
 13 06 2013  11 51  -20.9878 26045.7 -03457.8 -07.5622 26274.3
 13 06 2013  11 52  -20.9877 26046.1 -03457.7 -07.5620 26274.6
 13 06 2013  11 53  -20.9876 26046.4 -03457.7 -07.5618 26274.9
 13 06 2013  11 54  -20.9876 26046.6 -03457.6 -07.5616 26275.1
 13 06 2013  11 55  -20.9876 26046.9 -03457.6 -07.5614 26275.3
 13 06 2013  11 56  -20.9878 26047.1 -03457.5 -07.5613 26275.6
 13 06 2013  11 57  -20.9880 26047.4 -03457.5 -07.5612 26275.8
 13 06 2013  11 58  -20.9881 26047.7 -03457.6 -07.5612 26276.2
 13 06 2013  11 59  -20.9882 26048.0 -03457.5 -07.5611 26276.5
 13 06 2013  12 00  -20.9882 26048.3 -03457.5 -07.5610 26276.7
 13 06 2013  12 01  -20.9883 26048.5 -03457.5 -07.5609 26277.0
 13 06 2013  12 02  -20.9884 26048.9 -03457.6 -07.5609 26277.3
 13 06 2013  12 03  -20.9885 26049.2 -03457.6 -07.5609 26277.7
 13 06 2013  12 04  -20.9886 26049.7 -03457.7 -07.5609 26278.2
 13 06 2013  12 05  -20.9888 26050.1 -03457.7 -07.5608 26278.6
 13 06 2013  12 06  -20.9889 26050.6 -03457.7 -07.5607 26279.0
 13 06 2013  12 07  -20.9890 26051.0 -03457.7 -07.5605 26279.5
 13 06 2013  12 08  -20.9891 26051.2 -03457.6 -07.5603 26279.7
 13 06 2013  12 09  -20.9892 26051.5 -03457.5 -07.5600 26279.9
 13 06 2013  12 10  -20.9892 26051.6 -03457.5 -07.5598 26280.1
 13 06 2013  12 11  -20.9895 26051.9 -03457.4 -07.5597 26280.3
 13 06 2013  12 12  -20.9898 26052.1 -03457.4 -07.5596 26280.5
 13 06 2013  12 13  -20.9901 26052.5 -03457.4 -07.5596 26280.9
 13 06 2013  12 14  -20.9903 26053.0 -03457.5 -07.5595 26281.4
 13 06 2013  12 15  -20.9906 26053.3 -03457.5 -07.5595 26281.7
 13 06 2013  12 16  -20.9908 26053.7 -03457.5 -07.5593 26282.1
 13 06 2013  12 17  -20.9909 26054.0 -03457.4 -07.5591 26282.4
 13 06 2013  12 18  -20.9912 26054.3 -03457.4 -07.5590 26282.7
 13 06 2013  12 19  -20.9915 26054.7 -03457.4 -07.5588 26283.1
 13 06 2013  12 20  -20.9917 26055.2 -03457.4 -07.5587 26283.6
 13 06 2013  12 21  -20.9920 26055.5 -03457.4 -07.5585 26283.9
 13 06 2013  12 22  -20.9921 26055.8 -03457.3 -07.5583 26284.2
 13 06 2013  12 23  -20.9925 26056.0 -03457.2 -07.5580 26284.4
 13 06 2013  12 24  -20.9928 26056.3 -03457.2 -07.5579 26284.7
 13 06 2013  12 25  -20.9933 26056.6 -03457.1 -07.5576 26284.9
 13 06 2013  12 26  -20.9938 26056.9 -03457.1 -07.5575 26285.2
 13 06 2013  12 27  -20.9942 26057.1 -03457.0 -07.5573 26285.4
 13 06 2013  12 28  -20.9947 26057.4 -03457.0 -07.5572 26285.8
 13 06 2013  12 29  -20.9953 26057.7 -03457.0 -07.5570 26286.0
 13 06 2013  12 30  -20.9958 26058.0 -03456.9 -07.5569 26286.3
 13 06 2013  12 31  -20.9964 26058.4 -03456.9 -07.5567 26286.7
 13 06 2013  12 32  -20.9969 26058.8 -03456.9 -07.5566 26287.1
 13 06 2013  12 33  -20.9974 26059.3 -03456.9 -07.5565 26287.6
 13 06 2013  12 34  -20.9980 26059.6 -03456.9 -07.5564 26287.9
 13 06 2013  12 35  -20.9985 26059.9 -03456.8 -07.5561 26288.2
 13 06 2013  12 36  -20.9989 26060.3 -03456.7 -07.5558 26288.5
 13 06 2013  12 37  -20.9992 26060.5 -03456.6 -07.5555 26288.8
 13 06 2013  12 38  -20.9998 26060.8 -03456.5 -07.5553 26289.0
 13 06 2013  12 39  -21.0004 26060.9 -03456.4 -07.5550 26289.1
 13 06 2013  12 40  -21.0010 26061.0 -03456.3 -07.5546 26289.2
 13 06 2013  12 41  -21.0017 26061.0 -03456.1 -07.5543 26289.2
 13 06 2013  12 42  -21.0021 26061.2 -03456.0 -07.5541 26289.3
 13 06 2013  12 43  -21.0027 26061.4 -03456.0 -07.5539 26289.6
 13 06 2013  12 44  -21.0033 26061.7 -03455.9 -07.5536 26289.8
 13 06 2013  12 45  -21.0039 26061.9 -03455.9 -07.5535 26290.0
 13 06 2013  12 46  -21.0042 26062.2 -03455.8 -07.5533 26290.3
 13 06 2013  12 47  -21.0047 26062.4 -03455.7 -07.5530 26290.5
 13 06 2013  12 48  -21.0051 26062.8 -03455.7 -07.5529 26290.9
 13 06 2013  12 49  -21.0054 26063.2 -03455.6 -07.5526 26291.2
 13 06 2013  12 50  -21.0057 26063.6 -03455.6 -07.5524 26291.6
 13 06 2013  12 51  -21.0058 26064.0 -03455.5 -07.5521 26292.1
 13 06 2013  12 52  -21.0084 26064.2 -03455.2 -07.5513 26292.2
 13 06 2013  12 53  -21.0108 26064.2 -03455.0 -07.5508 26292.2
 13 06 2013  12 54  -21.0111 26064.6 -03454.9 -07.5506 26292.6
 13 06 2013  12 55  -21.0113 26065.0 -03454.8 -07.5503 26292.9
 13 06 2013  12 56  -21.0117 26065.4 -03454.8 -07.5501 26293.3
 13 06 2013  12 57  -21.0121 26065.9 -03454.8 -07.5500 26293.9
 13 06 2013  12 58  -21.0125 26066.5 -03454.7 -07.5497 26294.4
 13 06 2013  12 59  -21.0126 26067.0 -03454.6 -07.5493 26295.0
 13 06 2013  13 00  -21.0128 26067.5 -03454.5 -07.5489 26295.4
 13 06 2013  13 01  -21.0129 26067.8 -03454.3 -07.5485 26295.7
 13 06 2013  13 02  -21.0132 26068.2 -03454.2 -07.5481 26296.0
 13 06 2013  13 03  -21.0134 26068.3 -03454.0 -07.5475 26296.1
 13 06 2013  13 04  -21.0137 26068.5 -03453.8 -07.5471 26296.3
 13 06 2013  13 05  -21.0139 26068.5 -03453.6 -07.5466 26296.3
 13 06 2013  13 06  -21.0141 26068.7 -03453.4 -07.5462 26296.4
 13 06 2013  13 07  -21.0143 26068.9 -03453.2 -07.5457 26296.6
 13 06 2013  13 08  -21.0145 26069.1 -03453.0 -07.5453 26296.8
 13 06 2013  13 09  -21.0145 26069.0 -03452.8 -07.5447 26296.7
 13 06 2013  13 10  -21.0142 26069.2 -03452.6 -07.5442 26296.8
 13 06 2013  13 11  -21.0143 26069.3 -03452.4 -07.5439 26296.9
 13 06 2013  13 12  -21.0140 26069.6 -03452.2 -07.5434 26297.2
 13 06 2013  13 13  -21.0138 26069.7 -03452.1 -07.5431 26297.3
 13 06 2013  13 14  -21.0131 26069.9 -03451.8 -07.5425 26297.4
 13 06 2013  13 15  -21.0126 26070.0 -03451.7 -07.5421 26297.6
 13 06 2013  13 16  -21.0124 26070.1 -03451.5 -07.5417 26297.5
 13 06 2013  13 17  -21.0121 26070.1 -03451.4 -07.5414 26297.6
 13 06 2013  13 18  -21.0119 26070.3 -03451.2 -07.5411 26297.7
 13 06 2013  13 19  -21.0116 26070.4 -03451.1 -07.5408 26297.8
 13 06 2013  13 20  -21.0115 26070.3 -03450.9 -07.5404 26297.8
 13 06 2013  13 21  -21.0112 26070.4 -03450.8 -07.5402 26297.8
 13 06 2013  13 22  -21.0108 26070.6 -03450.8 -07.5400 26298.0
 13 06 2013  13 23  -21.0104 26070.7 -03450.7 -07.5398 26298.0
 13 06 2013  13 24  -21.0101 26070.7 -03450.6 -07.5396 26298.1
 13 06 2013  13 25  -21.0097 26070.7 -03450.5 -07.5394 26298.1
 13 06 2013  13 26  -21.0097 26070.9 -03450.5 -07.5393 26298.2
 13 06 2013  13 27  -21.0096 26071.1 -03450.5 -07.5392 26298.4
 13 06 2013  13 28  -21.0097 26071.2 -03450.4 -07.5391 26298.5
 13 06 2013  13 29  -21.0097 26071.2 -03450.4 -07.5389 26298.6
 13 06 2013  13 30  -21.0072 26071.7 -03450.4 -07.5388 26299.0
 13 06 2013  13 31  -21.0052 26072.0 -03450.5 -07.5390 26299.4
 13 06 2013  13 32  -21.0054 26071.8 -03450.2 -07.5384 26299.1
 13 06 2013  13 33  -21.0056 26071.6 -03450.0 -07.5380 26298.9
 13 06 2013  13 34  -21.0057 26071.6 -03449.8 -07.5376 26298.9
 13 06 2013  13 35  -21.0058 26071.7 -03449.7 -07.5373 26298.9
 13 06 2013  13 36  -21.0060 26071.9 -03449.6 -07.5370 26299.1
 13 06 2013  13 37  -21.0062 26071.9 -03449.4 -07.5366 26299.1
 13 06 2013  13 38  -21.0063 26071.9 -03449.2 -07.5362 26299.1
 13 06 2013  13 39  -21.0064 26072.1 -03449.1 -07.5359 26299.3
 13 06 2013  13 40  -21.0066 26072.3 -03449.0 -07.5356 26299.4
 13 06 2013  13 41  -21.0069 26072.4 -03448.8 -07.5352 26299.5
 13 06 2013  13 42  -21.0070 26072.6 -03448.7 -07.5348 26299.7
 13 06 2013  13 43  -21.0071 26072.6 -03448.4 -07.5344 26299.7
 13 06 2013  13 44  -21.0072 26072.8 -03448.2 -07.5339 26299.8
 13 06 2013  13 45  -21.0074 26072.7 -03448.0 -07.5334 26299.7
 13 06 2013  13 46  -21.0076 26072.6 -03447.7 -07.5329 26299.5
 13 06 2013  13 47  -21.0079 26072.6 -03447.5 -07.5324 26299.5
 13 06 2013  13 48  -21.0083 26072.6 -03447.3 -07.5320 26299.5
 13 06 2013  13 49  -21.0086 26072.6 -03447.1 -07.5316 26299.5
 13 06 2013  13 50  -21.0090 26072.5 -03446.9 -07.5311 26299.4
 13 06 2013  13 51  -21.0093 26072.4 -03446.7 -07.5307 26299.2
 13 06 2013  13 52  -21.0096 26072.4 -03446.5 -07.5303 26299.2
 13 06 2013  13 53  -21.0100 26072.6 -03446.5 -07.5301 26299.4
 13 06 2013  13 54  -21.0104 26072.6 -03446.3 -07.5298 26299.3
 13 06 2013  13 55  -21.0107 26072.4 -03446.1 -07.5294 26299.2
 13 06 2013  13 56  -21.0111 26072.3 -03446.0 -07.5292 26299.1
 13 06 2013  13 57  -21.0116 26072.3 -03445.8 -07.5288 26299.0
 13 06 2013  13 58  -21.0121 26072.1 -03445.7 -07.5286 26298.8
 13 06 2013  13 59  -21.0124 26072.1 -03445.6 -07.5284 26298.7
 13 06 2013  14 00  -21.0130 26072.0 -03445.5 -07.5282 26298.7
 13 06 2013  14 01  -21.0134 26072.0 -03445.4 -07.5280 26298.7
 13 06 2013  14 02  -21.0140 26071.9 -03445.2 -07.5277 26298.5
 13 06 2013  14 03  -21.0143 26071.7 -03445.1 -07.5273 26298.4
 13 06 2013  14 04  -21.0147 26071.7 -03445.0 -07.5271 26298.3
 13 06 2013  14 05  -21.0151 26071.7 -03444.8 -07.5268 26298.3
 13 06 2013  14 06  -21.0153 26071.7 -03444.7 -07.5265 26298.2
 13 06 2013  14 07  -21.0155 26071.7 -03444.6 -07.5263 26298.3
 13 06 2013  14 08  -21.0157 26071.8 -03444.5 -07.5261 26298.4
 13 06 2013  14 09  -21.0158 26071.9 -03444.4 -07.5258 26298.4
 13 06 2013  14 10  -21.0159 26071.9 -03444.3 -07.5255 26298.4
 13 06 2013  14 11  -21.0157 26072.0 -03444.2 -07.5253 26298.5
 13 06 2013  14 12  -21.0155 26072.2 -03444.1 -07.5250 26298.7
 13 06 2013  14 13  -21.0152 26072.3 -03444.0 -07.5248 26298.8
 13 06 2013  14 14  -21.0148 26072.2 -03443.8 -07.5245 26298.7
 13 06 2013  14 15  -21.0145 26072.3 -03443.7 -07.5243 26298.7
 13 06 2013  14 16  -21.0142 26072.4 -03443.7 -07.5242 26298.8
 13 06 2013  14 17  -21.0140 26072.5 -03443.7 -07.5241 26298.9
 13 06 2013  14 18  -21.0137 26072.5 -03443.7 -07.5241 26299.0
 13 06 2013  14 19  -21.0135 26072.5 -03443.7 -07.5240 26299.0
 13 06 2013  14 20  -21.0133 26072.4 -03443.6 -07.5240 26298.9
 13 06 2013  14 21  -21.0130 26072.4 -03443.6 -07.5240 26298.8
 13 06 2013  14 22  -21.0128 26072.3 -03443.6 -07.5240 26298.7
 13 06 2013  14 23  -21.0124 26072.1 -03443.6 -07.5241 26298.5
 13 06 2013  14 24  -21.0120 26071.9 -03443.7 -07.5243 26298.4
 13 06 2013  14 25  -21.0117 26071.9 -03443.8 -07.5245 26298.3
 13 06 2013  14 26  -21.0117 26071.9 -03444.0 -07.5249 26298.4
 13 06 2013  14 27  -21.0117 26072.0 -03444.1 -07.5253 26298.5
 13 06 2013  14 28  -21.0117 26072.1 -03444.3 -07.5256 26298.6
 13 06 2013  14 29  -21.0117 26072.1 -03444.4 -07.5258 26298.6
 13 06 2013  14 30  -21.0117 26072.3 -03444.6 -07.5261 26298.8
 13 06 2013  14 31  -21.0119 26072.3 -03444.7 -07.5264 26298.9
 13 06 2013  14 32  -21.0121 26072.4 -03444.8 -07.5266 26299.0
 13 06 2013  14 33  -21.0123 26072.5 -03445.0 -07.5269 26299.1
 13 06 2013  14 34  -21.0127 26072.5 -03445.1 -07.5271 26299.2
 13 06 2013  14 35  -21.0131 26072.5 -03445.1 -07.5272 26299.1
 13 06 2013  14 36  -21.0134 26072.4 -03445.1 -07.5272 26299.1
 13 06 2013  14 37  -21.0138 26072.5 -03445.2 -07.5273 26299.1
 13 06 2013  14 38  -21.0142 26072.7 -03445.2 -07.5275 26299.3
 13 06 2013  14 39  -21.0147 26072.8 -03445.3 -07.5276 26299.5
 13 06 2013  14 40  -21.0151 26072.8 -03445.3 -07.5275 26299.5
 13 06 2013  14 41  -21.0154 26072.8 -03445.2 -07.5274 26299.4
 13 06 2013  14 42  -21.0158 26072.8 -03445.2 -07.5273 26299.4
 13 06 2013  14 43  -21.0161 26072.8 -03445.1 -07.5272 26299.5
 13 06 2013  14 44  -21.0165 26072.8 -03445.1 -07.5271 26299.4
 13 06 2013  14 45  -21.0167 26072.7 -03445.0 -07.5270 26299.3
 13 06 2013  14 46  -21.0169 26072.7 -03445.0 -07.5270 26299.3
 13 06 2013  14 47  -21.0171 26072.7 -03445.0 -07.5270 26299.3
 13 06 2013  14 48  -21.0172 26072.7 -03445.0 -07.5269 26299.3
 13 06 2013  14 49  -21.0174 26072.7 -03445.0 -07.5268 26299.3
 13 06 2013  14 50  -21.0176 26072.6 -03444.9 -07.5268 26299.2
 13 06 2013  14 51  -21.0178 26072.5 -03444.9 -07.5267 26299.1
 13 06 2013  14 52  -21.0180 26072.3 -03444.8 -07.5266 26298.9
 13 06 2013  14 53  -21.0182 26072.2 -03444.8 -07.5266 26298.8
 13 06 2013  14 54  -21.0186 26072.2 -03444.8 -07.5266 26298.8
 13 06 2013  14 55  -21.0189 26072.3 -03444.9 -07.5267 26298.9
 13 06 2013  14 56  -21.0192 26072.2 -03444.8 -07.5266 26298.8
 13 06 2013  14 57  -21.0195 26072.1 -03444.7 -07.5265 26298.7
 13 06 2013  14 58  -21.0197 26071.8 -03444.6 -07.5263 26298.4
 13 06 2013  14 59  -21.0198 26071.5 -03444.4 -07.5261 26298.0
 13 06 2013  15 00  -21.0200 26071.2 -03444.4 -07.5259 26297.8
 13 06 2013  15 01  -21.0200 26070.9 -03444.3 -07.5259 26297.5
 13 06 2013  15 02  -21.0201 26070.7 -03444.2 -07.5258 26297.2
 13 06 2013  15 03  -21.0203 26070.5 -03444.2 -07.5259 26297.1
 13 06 2013  15 04  -21.0204 26070.3 -03444.2 -07.5259 26296.8
 13 06 2013  15 05  -21.0205 26070.2 -03444.2 -07.5259 26296.7
 13 06 2013  15 06  -21.0205 26069.9 -03444.2 -07.5259 26296.5
 13 06 2013  15 07  -21.0204 26069.7 -03444.1 -07.5259 26296.3
 13 06 2013  15 08  -21.0202 26069.6 -03444.1 -07.5259 26296.1
 13 06 2013  15 09  -21.0202 26069.6 -03444.1 -07.5259 26296.1
 13 06 2013  15 10  -21.0201 26069.6 -03444.1 -07.5259 26296.1
 13 06 2013  15 11  -21.0203 26069.7 -03444.1 -07.5259 26296.2
 13 06 2013  15 12  -21.0202 26069.7 -03444.1 -07.5258 26296.2
 13 06 2013  15 13  -21.0201 26069.6 -03444.0 -07.5257 26296.1
 13 06 2013  15 14  -21.0199 26069.3 -03443.9 -07.5255 26295.8
 13 06 2013  15 15  -21.0198 26069.2 -03443.9 -07.5255 26295.7
 13 06 2013  15 16  -21.0197 26069.0 -03443.9 -07.5255 26295.5
 13 06 2013  15 17  -21.0197 26069.0 -03443.9 -07.5257 26295.5
 13 06 2013  15 18  -21.0197 26068.9 -03444.0 -07.5258 26295.4
 13 06 2013  15 19  -21.0196 26068.9 -03444.1 -07.5259 26295.4
 13 06 2013  15 20  -21.0197 26069.0 -03444.2 -07.5262 26295.5
 13 06 2013  15 21  -21.0199 26068.9 -03444.2 -07.5263 26295.5
 13 06 2013  15 22  -21.0200 26069.1 -03444.3 -07.5265 26295.6
 13 06 2013  15 23  -21.0204 26069.3 -03444.5 -07.5268 26295.9
 13 06 2013  15 24  -21.0208 26069.3 -03444.5 -07.5268 26295.9
 13 06 2013  15 25  -21.0212 26069.3 -03444.5 -07.5267 26295.8
 13 06 2013  15 26  -21.0215 26069.3 -03444.5 -07.5267 26295.9
 13 06 2013  15 27  -21.0218 26069.3 -03444.4 -07.5267 26295.8
 13 06 2013  15 28  -21.0224 26069.3 -03444.5 -07.5267 26295.9
 13 06 2013  15 29  -21.0226 26068.9 -03444.2 -07.5263 26295.5
 13 06 2013  15 30  -21.0227 26069.1 -03444.3 -07.5265 26295.7
 13 06 2013  15 31  -21.0232 26069.1 -03444.2 -07.5263 26295.6
 13 06 2013  15 32  -21.0233 26068.8 -03444.1 -07.5260 26295.3
 13 06 2013  15 33  -21.0236 26068.5 -03443.9 -07.5258 26295.0
 13 06 2013  15 34  -21.0240 26068.1 -03443.8 -07.5256 26294.6
 13 06 2013  15 35  -21.0241 26068.1 -03443.8 -07.5257 26294.6
 13 06 2013  15 36  -21.0244 26067.8 -03443.8 -07.5256 26294.3
 13 06 2013  15 37  -21.0246 26067.7 -03443.8 -07.5257 26294.2
 13 06 2013  15 38  -21.0250 26067.6 -03443.8 -07.5257 26294.1
 13 06 2013  15 39  -21.0253 26067.5 -03443.8 -07.5257 26294.0
 13 06 2013  15 40  -21.0255 26067.5 -03443.8 -07.5258 26294.1
 13 06 2013  15 41  -21.0258 26067.5 -03443.8 -07.5259 26294.0
 13 06 2013  15 42  -21.0261 26067.4 -03443.7 -07.5257 26293.9
 13 06 2013  15 43  -21.0261 26067.0 -03443.6 -07.5255 26293.5
 13 06 2013  15 44  -21.0264 26066.9 -03443.6 -07.5255 26293.4
 13 06 2013  15 45  -21.0269 26066.9 -03443.6 -07.5255 26293.4
 13 06 2013  15 46  -21.0271 26066.7 -03443.5 -07.5253 26293.2
 13 06 2013  15 47  -21.0272 26066.8 -03443.5 -07.5254 26293.3
 13 06 2013  15 48  -21.0277 26067.1 -03443.6 -07.5255 26293.5
 13 06 2013  15 49  -21.0281 26067.0 -03443.5 -07.5253 26293.5
 13 06 2013  15 50  -21.0284 26066.9 -03443.4 -07.5250 26293.3
 13 06 2013  15 51  -21.0284 26066.9 -03443.3 -07.5249 26293.4
 13 06 2013  15 52  -21.0289 26067.3 -03443.4 -07.5250 26293.7
 13 06 2013  15 53  -21.0293 26067.3 -03443.3 -07.5247 26293.7
 13 06 2013  15 54  -21.0292 26066.8 -03443.0 -07.5242 26293.2
 13 06 2013  15 55  -21.0291 26066.7 -03442.9 -07.5241 26293.1
 13 06 2013  15 56  -21.0295 26066.5 -03442.8 -07.5239 26292.9
 13 06 2013  15 57  -21.0297 26067.0 -03443.0 -07.5242 26293.4
 13 06 2013  15 58  -21.0305 26067.6 -03443.2 -07.5245 26294.0
 13 06 2013  15 59  -21.0306 26067.5 -03443.0 -07.5241 26293.9
 13 06 2013  16 00  -21.0306 26067.8 -03443.0 -07.5241 26294.2
 13 06 2013  16 01  -21.0309 26068.2 -03443.1 -07.5241 26294.6
 13 06 2013  16 02  -21.0308 26068.4 -03443.0 -07.5239 26294.8
 13 06 2013  16 03  -21.0308 26068.7 -03443.0 -07.5238 26295.1
 13 06 2013  16 04  -21.0310 26069.0 -03443.0 -07.5236 26295.4
 13 06 2013  16 05  -21.0313 26069.4 -03443.0 -07.5235 26295.8
 13 06 2013  16 06  -21.0318 26069.6 -03442.8 -07.5231 26296.0
 13 06 2013  16 07  -21.0322 26069.7 -03442.7 -07.5227 26296.0
 13 06 2013  16 08  -21.0327 26069.8 -03442.5 -07.5223 26296.1
 13 06 2013  16 09  -21.0333 26069.8 -03442.2 -07.5217 26296.1
 13 06 2013  16 10  -21.0336 26069.7 -03441.9 -07.5212 26296.0
 13 06 2013  16 11  -21.0335 26069.5 -03441.6 -07.5205 26295.7
 13 06 2013  16 12  -21.0334 26069.3 -03441.3 -07.5199 26295.4
 13 06 2013  16 13  -21.0334 26069.1 -03441.0 -07.5194 26295.2
 13 06 2013  16 14  -21.0334 26068.6 -03440.7 -07.5189 26294.7
 13 06 2013  16 15  -21.0332 26068.2 -03440.5 -07.5184 26294.2
 13 06 2013  16 16  -21.0332 26067.7 -03440.2 -07.5180 26293.7
 13 06 2013  16 17  -21.0333 26067.3 -03440.0 -07.5177 26293.3
 13 06 2013  16 18  -21.0335 26067.1 -03439.9 -07.5175 26293.1
 13 06 2013  16 19  -21.0338 26066.9 -03439.8 -07.5172 26292.9
 13 06 2013  16 20  -21.0342 26066.9 -03439.7 -07.5171 26292.9
 13 06 2013  16 21  -21.0345 26066.8 -03439.6 -07.5170 26292.7
 13 06 2013  16 22  -21.0347 26066.6 -03439.4 -07.5166 26292.5
 13 06 2013  16 23  -21.0348 26066.4 -03439.3 -07.5164 26292.3
 13 06 2013  16 24  -21.0348 26066.0 -03439.1 -07.5161 26291.9
 13 06 2013  16 25  -21.0350 26065.7 -03439.0 -07.5159 26291.6
 13 06 2013  16 26  -21.0350 26065.4 -03438.8 -07.5156 26291.3
 13 06 2013  16 27  -21.0352 26065.2 -03438.7 -07.5154 26291.1
 13 06 2013  16 28  -21.0354 26065.1 -03438.6 -07.5153 26291.0
 13 06 2013  16 29  -21.0357 26064.9 -03438.5 -07.5151 26290.8
 13 06 2013  16 30  -21.0358 26064.7 -03438.3 -07.5148 26290.5
 13 06 2013  16 31  -21.0358 26064.5 -03438.2 -07.5146 26290.3
 13 06 2013  16 32  -21.0361 26064.3 -03438.1 -07.5144 26290.1
 13 06 2013  16 33  -21.0361 26063.9 -03437.9 -07.5142 26289.6
 13 06 2013  16 34  -21.0361 26063.5 -03437.8 -07.5139 26289.3
 13 06 2013  16 35  -21.0361 26063.3 -03437.7 -07.5138 26289.0
 13 06 2013  16 36  -21.0363 26063.0 -03437.6 -07.5137 26288.8
 13 06 2013  16 37  -21.0363 26062.7 -03437.5 -07.5135 26288.4
 13 06 2013  16 38  -21.0363 26062.5 -03437.4 -07.5134 26288.3
 13 06 2013  16 39  -21.0364 26062.4 -03437.4 -07.5133 26288.1
 13 06 2013  16 40  -21.0363 26062.1 -03437.3 -07.5132 26287.8
 13 06 2013  16 41  -21.0362 26061.8 -03437.2 -07.5131 26287.5
 13 06 2013  16 42  -21.0361 26061.6 -03437.1 -07.5130 26287.3
 13 06 2013  16 43  -21.0359 26061.3 -03437.0 -07.5130 26287.0
 13 06 2013  16 44  -21.0359 26061.1 -03437.0 -07.5129 26286.8
 13 06 2013  16 45  -21.0358 26060.9 -03436.9 -07.5129 26286.5
 13 06 2013  16 46  -21.0357 26060.7 -03436.9 -07.5128 26286.3
 13 06 2013  16 47  -21.0356 26060.5 -03436.8 -07.5127 26286.1
 13 06 2013  16 48  -21.0357 26060.2 -03436.7 -07.5126 26285.8
 13 06 2013  16 49  -21.0356 26060.2 -03436.7 -07.5125 26285.8
 13 06 2013  16 50  -21.0358 26060.1 -03436.6 -07.5124 26285.7
 13 06 2013  16 51  -21.0355 26060.0 -03436.6 -07.5123 26285.6
 13 06 2013  16 52  -21.0352 26059.9 -03436.6 -07.5123 26285.5
 13 06 2013  16 53  -21.0352 26059.9 -03436.5 -07.5122 26285.5
 13 06 2013  16 54  -21.0352 26059.7 -03436.4 -07.5121 26285.3
 13 06 2013  16 55  -21.0351 26059.5 -03436.4 -07.5120 26285.1
 13 06 2013  16 56  -21.0350 26059.6 -03436.4 -07.5121 26285.2
 13 06 2013  16 57  -21.0347 26059.5 -03436.5 -07.5123 26285.2
 13 06 2013  16 58  -21.0345 26059.5 -03436.5 -07.5123 26285.1
 13 06 2013  16 59  -21.0344 26059.4 -03436.5 -07.5124 26285.0
 13 06 2013  17 00  -21.0345 26059.4 -03436.6 -07.5127 26285.0
 13 06 2013  17 01  -21.0345 26059.3 -03436.8 -07.5129 26285.0
 13 06 2013  17 02  -21.0345 26059.3 -03436.9 -07.5131 26284.9
 13 06 2013  17 03  -21.0346 26059.3 -03437.0 -07.5135 26284.9
 13 06 2013  17 04  -21.0347 26059.2 -03437.1 -07.5138 26284.9
 13 06 2013  17 05  -21.0351 26059.2 -03437.3 -07.5141 26284.9
 13 06 2013  17 06  -21.0354 26059.0 -03437.4 -07.5145 26284.8
 13 06 2013  17 07  -21.0358 26059.0 -03437.6 -07.5148 26284.7
 13 06 2013  17 08  -21.0363 26058.9 -03437.7 -07.5151 26284.7
 13 06 2013  17 09  -21.0369 26058.8 -03437.8 -07.5153 26284.6
 13 06 2013  17 10  -21.0375 26058.7 -03437.9 -07.5156 26284.5
 13 06 2013  17 11  -21.0382 26058.7 -03438.0 -07.5159 26284.5
 13 06 2013  17 12  -21.0389 26058.5 -03438.1 -07.5159 26284.3
 13 06 2013  17 13  -21.0394 26058.2 -03438.0 -07.5160 26284.0
 13 06 2013  17 14  -21.0399 26058.0 -03438.1 -07.5162 26283.9
 13 06 2013  17 15  -21.0406 26057.8 -03438.1 -07.5162 26283.6
 13 06 2013  17 16  -21.0411 26057.6 -03438.1 -07.5163 26283.5
 13 06 2013  17 17  -21.0417 26057.5 -03438.2 -07.5165 26283.3
 13 06 2013  17 18  -21.0423 26057.4 -03438.2 -07.5166 26283.2
 13 06 2013  17 19  -21.0428 26057.3 -03438.2 -07.5167 26283.1
 13 06 2013  17 20  -21.0436 26057.0 -03438.2 -07.5166 26282.9
 13 06 2013  17 21  -21.0441 26057.1 -03438.2 -07.5167 26282.9
 13 06 2013  17 22  -21.0447 26057.0 -03438.2 -07.5166 26282.8
 13 06 2013  17 23  -21.0451 26056.7 -03438.0 -07.5164 26282.5
 13 06 2013  17 24  -21.0455 26056.6 -03438.0 -07.5164 26282.5
 13 06 2013  17 25  -21.0460 26056.6 -03438.0 -07.5163 26282.4
 13 06 2013  17 26  -21.0465 26056.5 -03437.9 -07.5162 26282.3
 13 06 2013  17 27  -21.0469 26056.6 -03437.9 -07.5161 26282.4
 13 06 2013  17 28  -21.0473 26056.5 -03437.8 -07.5159 26282.3
 13 06 2013  17 29  -21.0475 26056.4 -03437.6 -07.5157 26282.2
 13 06 2013  17 30  -21.0477 26056.1 -03437.5 -07.5153 26281.9
 13 06 2013  17 31  -21.0476 26055.9 -03437.3 -07.5151 26281.6
 13 06 2013  17 32  -21.0476 26055.6 -03437.2 -07.5149 26281.3
 13 06 2013  17 33  -21.0476 26055.3 -03437.1 -07.5147 26281.0
 13 06 2013  17 34  -21.0477 26055.1 -03437.0 -07.5147 26280.8
 13 06 2013  17 35  -21.0479 26054.8 -03436.9 -07.5146 26280.6
 13 06 2013  17 36  -21.0480 26054.7 -03436.9 -07.5145 26280.4
 13 06 2013  17 37  -21.0482 26054.5 -03436.8 -07.5144 26280.2
 13 06 2013  17 38  -21.0482 26054.2 -03436.7 -07.5143 26279.9
 13 06 2013  17 39  -21.0482 26053.7 -03436.6 -07.5141 26279.4
 13 06 2013  17 40  -21.0483 26053.4 -03436.5 -07.5140 26279.0
 13 06 2013  17 41  -21.0482 26053.1 -03436.5 -07.5141 26278.7
 13 06 2013  17 42  -21.0484 26052.7 -03436.4 -07.5141 26278.4
 13 06 2013  17 43  -21.0484 26052.3 -03436.3 -07.5139 26277.9
 13 06 2013  17 44  -21.0486 26052.1 -03436.3 -07.5141 26277.7
 13 06 2013  17 45  -21.0487 26051.7 -03436.3 -07.5141 26277.3
 13 06 2013  17 46  -21.0490 26051.4 -03436.3 -07.5141 26277.0
 13 06 2013  17 47  -21.0491 26050.9 -03436.2 -07.5141 26276.6
 13 06 2013  17 48  -21.0490 26050.7 -03436.2 -07.5143 26276.3
 13 06 2013  17 49  -21.0493 26050.5 -03436.3 -07.5145 26276.1
 13 06 2013  17 50  -21.0495 26050.2 -03436.2 -07.5144 26275.9
 13 06 2013  17 51  -21.0496 26049.9 -03436.2 -07.5144 26275.5
 13 06 2013  17 52  -21.0497 26049.7 -03436.2 -07.5145 26275.4
 13 06 2013  17 53  -21.0497 26049.4 -03436.2 -07.5146 26275.1
 13 06 2013  17 54  -21.0497 26049.1 -03436.2 -07.5147 26274.7
 13 06 2013  17 55  -21.0496 26048.8 -03436.2 -07.5148 26274.5
 13 06 2013  17 56  -21.0498 26048.5 -03436.2 -07.5149 26274.2
 13 06 2013  17 57  -21.0497 26048.2 -03436.2 -07.5148 26273.9
 13 06 2013  17 58  -21.0496 26047.9 -03436.2 -07.5149 26273.6
 13 06 2013  17 59  -21.0496 26047.6 -03436.2 -07.5149 26273.3
 13 06 2013  18 00  -21.0494 26047.4 -03436.2 -07.5151 26273.1
 13 06 2013  18 01  -21.0494 26047.1 -03436.2 -07.5151 26272.7
 13 06 2013  18 02  -21.0492 26046.7 -03436.1 -07.5151 26272.3
 13 06 2013  18 03  -21.0491 26046.4 -03436.1 -07.5152 26272.0
 13 06 2013  18 04  -21.0488 26046.1 -03436.1 -07.5153 26271.7
 13 06 2013  18 05  -21.0485 26045.7 -03436.1 -07.5154 26271.4
 13 06 2013  18 06  -21.0483 26045.4 -03436.1 -07.5155 26271.1
 13 06 2013  18 07  -21.0479 26045.0 -03436.1 -07.5156 26270.7
 13 06 2013  18 08  -21.0477 26044.7 -03436.1 -07.5157 26270.4
 13 06 2013  18 09  -21.0473 26044.2 -03436.1 -07.5158 26269.9
 13 06 2013  18 10  -21.0468 26043.9 -03436.2 -07.5160 26269.6
 13 06 2013  18 11  -21.0464 26043.6 -03436.2 -07.5163 26269.3
 13 06 2013  18 12  -21.0460 26043.2 -03436.3 -07.5165 26268.9
 13 06 2013  18 13  -21.0456 26042.8 -03436.3 -07.5167 26268.6
 13 06 2013  18 14  -21.0452 26042.4 -03436.4 -07.5169 26268.2
 13 06 2013  18 15  -21.0447 26042.0 -03436.4 -07.5170 26267.7
 13 06 2013  18 16  -21.0442 26041.7 -03436.5 -07.5173 26267.4
 13 06 2013  18 17  -21.0437 26041.3 -03436.6 -07.5176 26267.1
 13 06 2013  18 18  -21.0433 26041.1 -03436.7 -07.5179 26266.9
 13 06 2013  18 19  -21.0429 26040.6 -03436.7 -07.5181 26266.4
 13 06 2013  18 20  -21.0423 26040.2 -03436.8 -07.5184 26266.0
 13 06 2013  18 21  -21.0416 26039.8 -03436.8 -07.5186 26265.6
 13 06 2013  18 22  -21.0410 26039.4 -03436.9 -07.5190 26265.3
 13 06 2013  18 23  -21.0405 26039.2 -03437.1 -07.5193 26265.1
 13 06 2013  18 24  -21.0398 26038.9 -03437.2 -07.5197 26264.7
 13 06 2013  18 25  -21.0393 26038.6 -03437.3 -07.5200 26264.5
 13 06 2013  18 26  -21.0387 26038.4 -03437.5 -07.5204 26264.3
 13 06 2013  18 27  -21.0384 26038.2 -03437.6 -07.5208 26264.1
 13 06 2013  18 28  -21.0379 26038.1 -03437.8 -07.5212 26264.0
 13 06 2013  18 29  -21.0378 26038.0 -03438.0 -07.5216 26264.0
 13 06 2013  18 30  -21.0374 26037.9 -03438.1 -07.5219 26263.9
 13 06 2013  18 31  -21.0371 26037.8 -03438.3 -07.5224 26263.8
 13 06 2013  18 32  -21.0368 26037.6 -03438.4 -07.5226 26263.6
 13 06 2013  18 33  -21.0364 26037.5 -03438.5 -07.5230 26263.6
 13 06 2013  18 34  -21.0361 26037.4 -03438.6 -07.5233 26263.4
 13 06 2013  18 35  -21.0358 26037.0 -03438.7 -07.5235 26263.1
 13 06 2013  18 36  -21.0355 26036.9 -03438.9 -07.5239 26263.0
 13 06 2013  18 37  -21.0353 26036.6 -03439.0 -07.5243 26262.8
 13 06 2013  18 38  -21.0350 26036.4 -03439.2 -07.5246 26262.6
 13 06 2013  18 39  -21.0348 26036.2 -03439.3 -07.5251 26262.3
 13 06 2013  18 40  -21.0347 26035.8 -03439.5 -07.5255 26262.0
 13 06 2013  18 41  -21.0344 26035.5 -03439.6 -07.5258 26261.7
 13 06 2013  18 42  -21.0343 26035.4 -03439.8 -07.5263 26261.6
 13 06 2013  18 43  -21.0342 26035.2 -03440.0 -07.5267 26261.5
 13 06 2013  18 44  -21.0340 26034.7 -03440.0 -07.5269 26261.0
 13 06 2013  18 45  -21.0339 26034.6 -03440.2 -07.5274 26260.9
 13 06 2013  18 46  -21.0339 26034.6 -03440.5 -07.5280 26261.0
 13 06 2013  18 47  -21.0338 26034.3 -03440.6 -07.5283 26260.7
 13 06 2013  18 48  -21.0336 26033.9 -03440.6 -07.5286 26260.3
 13 06 2013  18 49  -21.0336 26033.7 -03440.8 -07.5290 26260.1
 13 06 2013  18 50  -21.0337 26033.6 -03441.0 -07.5294 26260.0
 13 06 2013  18 51  -21.0337 26033.3 -03441.1 -07.5298 26259.7
 13 06 2013  18 52  -21.0338 26033.1 -03441.3 -07.5302 26259.6
 13 06 2013  18 53  -21.0339 26032.8 -03441.4 -07.5306 26259.3
 13 06 2013  18 54  -21.0340 26032.5 -03441.6 -07.5309 26259.0
 13 06 2013  18 55  -21.0340 26032.5 -03441.8 -07.5314 26259.0
 13 06 2013  18 56  -21.0344 26032.5 -03442.0 -07.5319 26259.0
 13 06 2013  18 57  -21.0345 26032.2 -03442.1 -07.5321 26258.8
 13 06 2013  18 58  -21.0345 26031.9 -03442.2 -07.5324 26258.5
 13 06 2013  18 59  -21.0348 26031.8 -03442.3 -07.5328 26258.4
 13 06 2013  19 00  -21.0350 26031.7 -03442.5 -07.5331 26258.3
 13 06 2013  19 01  -21.0352 26031.4 -03442.6 -07.5334 26258.1
 13 06 2013  19 02  -21.0356 26031.2 -03442.6 -07.5336 26257.8
 13 06 2013  19 03  -21.0358 26031.0 -03442.7 -07.5339 26257.6
 13 06 2013  19 04  -21.0359 26030.7 -03442.8 -07.5341 26257.4
 13 06 2013  19 05  -21.0361 26030.5 -03442.9 -07.5343 26257.2
 13 06 2013  19 06  -21.0363 26030.3 -03442.9 -07.5345 26257.0
 13 06 2013  19 07  -21.0364 26030.1 -03443.0 -07.5347 26256.8
 13 06 2013  19 08  -21.0366 26029.9 -03443.0 -07.5349 26256.6
 13 06 2013  19 09  -21.0367 26029.7 -03443.1 -07.5350 26256.5
 13 06 2013  19 10  -21.0367 26029.5 -03443.1 -07.5351 26256.2
 13 06 2013  19 11  -21.0368 26029.4 -03443.2 -07.5353 26256.1
 13 06 2013  19 12  -21.0370 26029.3 -03443.3 -07.5355 26256.1
 13 06 2013  19 13  -21.0371 26029.3 -03443.3 -07.5357 26256.0
 13 06 2013  19 14  -21.0373 26029.3 -03443.4 -07.5359 26256.0
 13 06 2013  19 15  -21.0374 26029.3 -03443.5 -07.5362 26256.1
 13 06 2013  19 16  -21.0376 26029.2 -03443.6 -07.5362 26256.0
 13 06 2013  19 17  -21.0378 26029.4 -03443.7 -07.5364 26256.2
 13 06 2013  19 18  -21.0380 26029.4 -03443.7 -07.5365 26256.2
 13 06 2013  19 19  -21.0382 26029.4 -03443.8 -07.5366 26256.2
 13 06 2013  19 20  -21.0383 26029.2 -03443.7 -07.5366 26256.0
 13 06 2013  19 21  -21.0384 26029.1 -03443.7 -07.5366 26255.9
 13 06 2013  19 22  -21.0385 26029.0 -03443.7 -07.5366 26255.8
 13 06 2013  19 23  -21.0385 26028.8 -03443.7 -07.5366 26255.6
 13 06 2013  19 24  -21.0386 26028.7 -03443.7 -07.5368 26255.5
 13 06 2013  19 25  -21.0386 26028.5 -03443.7 -07.5368 26255.4
 13 06 2013  19 26  -21.0387 26028.5 -03443.8 -07.5370 26255.3
 13 06 2013  19 27  -21.0387 26028.3 -03443.8 -07.5370 26255.2
 13 06 2013  19 28  -21.0388 26028.1 -03443.8 -07.5371 26255.0
 13 06 2013  19 29  -21.0387 26027.9 -03443.9 -07.5373 26254.8
 13 06 2013  19 30  -21.0385 26027.8 -03443.9 -07.5374 26254.7
 13 06 2013  19 31  -21.0385 26027.5 -03443.9 -07.5375 26254.4
 13 06 2013  19 32  -21.0385 26027.3 -03443.9 -07.5376 26254.2
 13 06 2013  19 33  -21.0384 26027.3 -03444.0 -07.5378 26254.2
 13 06 2013  19 34  -21.0385 26027.3 -03444.1 -07.5380 26254.2
 13 06 2013  19 35  -21.0385 26027.5 -03444.3 -07.5383 26254.4
 13 06 2013  19 36  -21.0388 26027.5 -03444.4 -07.5385 26254.4
 13 06 2013  19 37  -21.0389 26027.4 -03444.4 -07.5386 26254.4
 13 06 2013  19 38  -21.0391 26027.4 -03444.5 -07.5388 26254.3
 13 06 2013  19 39  -21.0394 26027.4 -03444.5 -07.5387 26254.3
 13 06 2013  19 40  -21.0394 26027.3 -03444.5 -07.5388 26254.2
 13 06 2013  19 41  -21.0397 26027.3 -03444.6 -07.5389 26254.2
 13 06 2013  19 42  -21.0398 26027.1 -03444.5 -07.5388 26254.1
 13 06 2013  19 43  -21.0399 26027.0 -03444.5 -07.5389 26253.9
 13 06 2013  19 44  -21.0401 26026.9 -03444.5 -07.5389 26253.8
 13 06 2013  19 45  -21.0402 26027.0 -03444.6 -07.5391 26253.9
 13 06 2013  19 46  -21.0403 26027.0 -03444.6 -07.5392 26253.9
 13 06 2013  19 47  -21.0436 26026.5 -03444.4 -07.5387 26253.5
 13 06 2013  19 48  -21.0447 26026.6 -03444.5 -07.5389 26253.5
 13 06 2013  19 49  -21.0448 26026.7 -03444.6 -07.5391 26253.7
 13 06 2013  19 50  -21.0447 26026.8 -03444.7 -07.5394 26253.8
 13 06 2013  19 51  -21.0447 26026.6 -03444.6 -07.5393 26253.5
 13 06 2013  19 52  -21.0445 26026.5 -03444.5 -07.5391 26253.5
 13 06 2013  19 53  -21.0444 26026.2 -03444.5 -07.5391 26253.2
 13 06 2013  19 54  -21.0442 26026.0 -03444.4 -07.5391 26252.9
 13 06 2013  19 55  -21.0439 26025.9 -03444.5 -07.5392 26252.8
 13 06 2013  19 56  -21.0438 26025.8 -03444.5 -07.5393 26252.7
 13 06 2013  19 57  -21.0436 26025.8 -03444.6 -07.5395 26252.8
 13 06 2013  19 58  -21.0399 26026.1 -03445.0 -07.5402 26253.1
 13 06 2013  19 59  -21.0394 26025.8 -03445.0 -07.5404 26252.9
 13 06 2013  20 00  -21.0393 26025.7 -03445.1 -07.5405 26252.8
 13 06 2013  20 01  -21.0392 26025.5 -03445.1 -07.5406 26252.6
 13 06 2013  20 02  -21.0390 26025.3 -03445.2 -07.5409 26252.3
 13 06 2013  20 03  -21.0388 26025.0 -03445.2 -07.5410 26252.1
 13 06 2013  20 04  -21.0387 26024.9 -03445.3 -07.5413 26252.0
 13 06 2013  20 05  -21.0386 26024.8 -03445.5 -07.5416 26251.8
 13 06 2013  20 06  -21.0386 26024.6 -03445.5 -07.5418 26251.7
 13 06 2013  20 07  -21.0385 26024.5 -03445.6 -07.5419 26251.6
 13 06 2013  20 08  -21.0384 26024.6 -03445.7 -07.5423 26251.7
 13 06 2013  20 09  -21.0384 26024.3 -03445.8 -07.5425 26251.5
 13 06 2013  20 10  -21.0383 26024.2 -03445.9 -07.5427 26251.4
 13 06 2013  20 11  -21.0383 26024.2 -03446.0 -07.5430 26251.4
 13 06 2013  20 12  -21.0383 26024.1 -03446.1 -07.5432 26251.3
 13 06 2013  20 13  -21.0383 26024.2 -03446.3 -07.5435 26251.4
 13 06 2013  20 14  -21.0383 26024.1 -03446.4 -07.5437 26251.3
 13 06 2013  20 15  -21.0383 26024.2 -03446.5 -07.5440 26251.4
 13 06 2013  20 16  -21.0384 26024.0 -03446.5 -07.5441 26251.2
 13 06 2013  20 17  -21.0382 26024.1 -03446.6 -07.5444 26251.3
 13 06 2013  20 18  -21.0382 26024.0 -03446.7 -07.5446 26251.3
 13 06 2013  20 19  -21.0382 26023.8 -03446.7 -07.5446 26251.1
 13 06 2013  20 20  -21.0381 26024.1 -03446.9 -07.5450 26251.4
 13 06 2013  20 21  -21.0380 26023.9 -03447.0 -07.5451 26251.2
 13 06 2013  20 22  -21.0381 26023.8 -03447.0 -07.5452 26251.1
 13 06 2013  20 23  -21.0379 26024.1 -03447.2 -07.5455 26251.4
 13 06 2013  20 24  -21.0380 26024.1 -03447.2 -07.5457 26251.4
 13 06 2013  20 25  -21.0379 26024.0 -03447.3 -07.5458 26251.4
 13 06 2013  20 26  -21.0378 26024.1 -03447.4 -07.5460 26251.4
 13 06 2013  20 27  -21.0378 26024.0 -03447.5 -07.5462 26251.4
 13 06 2013  20 28  -21.0379 26023.9 -03447.5 -07.5463 26251.3
 13 06 2013  20 29  -21.0378 26024.0 -03447.6 -07.5464 26251.3
 13 06 2013  20 30  -21.0377 26023.9 -03447.7 -07.5467 26251.3
 13 06 2013  20 31  -21.0378 26023.9 -03447.7 -07.5468 26251.3
 13 06 2013  20 32  -21.0378 26023.9 -03447.8 -07.5470 26251.3
 13 06 2013  20 33  -21.0379 26023.9 -03447.9 -07.5472 26251.3
 13 06 2013  20 34  -21.0378 26023.9 -03448.0 -07.5473 26251.3
 13 06 2013  20 35  -21.0379 26023.8 -03448.0 -07.5474 26251.2
 13 06 2013  20 36  -21.0379 26023.8 -03448.1 -07.5475 26251.2
 13 06 2013  20 37  -21.0379 26023.8 -03448.1 -07.5477 26251.2
 13 06 2013  20 38  -21.0380 26023.7 -03448.2 -07.5478 26251.2
 13 06 2013  20 39  -21.0380 26023.7 -03448.2 -07.5479 26251.2
 13 06 2013  20 40  -21.0381 26023.6 -03448.3 -07.5480 26251.1
 13 06 2013  20 41  -21.0382 26023.7 -03448.4 -07.5482 26251.2
 13 06 2013  20 42  -21.0382 26023.7 -03448.4 -07.5483 26251.2
 13 06 2013  20 43  -21.0383 26023.7 -03448.5 -07.5485 26251.2
 13 06 2013  20 44  -21.0384 26023.6 -03448.5 -07.5486 26251.1
 13 06 2013  20 45  -21.0385 26023.5 -03448.6 -07.5487 26251.0
 13 06 2013  20 46  -21.0387 26023.5 -03448.7 -07.5489 26251.1
 13 06 2013  20 47  -21.0388 26023.5 -03448.7 -07.5490 26251.0
 13 06 2013  20 48  -21.0390 26023.5 -03448.8 -07.5492 26251.1
 13 06 2013  20 49  -21.0392 26023.5 -03448.9 -07.5494 26251.0
 13 06 2013  20 50  -21.0391 26023.6 -03449.0 -07.5496 26251.2
 13 06 2013  20 51  -21.0392 26023.7 -03449.1 -07.5498 26251.2
 13 06 2013  20 52  -21.0392 26023.9 -03449.3 -07.5501 26251.5
 13 06 2013  20 53  -21.0390 26024.1 -03449.3 -07.5502 26251.7
 13 06 2013  20 54  -21.0389 26024.1 -03449.4 -07.5503 26251.8
 13 06 2013  20 55  -21.0390 26024.2 -03449.5 -07.5505 26251.8
 13 06 2013  20 56  -21.0388 26024.3 -03449.5 -07.5505 26251.9
 13 06 2013  20 57  -21.0389 26024.4 -03449.6 -07.5506 26252.0
 13 06 2013  20 58  -21.0389 26024.5 -03449.7 -07.5508 26252.2
 13 06 2013  20 59  -21.0389 26024.5 -03449.7 -07.5508 26252.1
 13 06 2013  21 00  -21.0389 26024.5 -03449.7 -07.5508 26252.2
 13 06 2013  21 01  -21.0389 26024.5 -03449.6 -07.5506 26252.2
 13 06 2013  21 02  -21.0389 26024.6 -03449.7 -07.5509 26252.3
 13 06 2013  21 03  -21.0387 26024.7 -03449.8 -07.5509 26252.3
 13 06 2013  21 04  -21.0387 26024.8 -03449.8 -07.5510 26252.5
 13 06 2013  21 05  -21.0385 26024.9 -03449.8 -07.5510 26252.6
 13 06 2013  21 06  -21.0384 26024.9 -03449.8 -07.5510 26252.6
 13 06 2013  21 07  -21.0384 26024.9 -03449.8 -07.5510 26252.6
 13 06 2013  21 08  -21.0385 26024.9 -03449.8 -07.5509 26252.6
 13 06 2013  21 09  -21.0384 26024.9 -03449.8 -07.5509 26252.6
 13 06 2013  21 10  -21.0383 26024.9 -03449.7 -07.5508 26252.6
 13 06 2013  21 11  -21.0382 26025.0 -03449.7 -07.5508 26252.6
 13 06 2013  21 12  -21.0382 26025.0 -03449.8 -07.5509 26252.7
 13 06 2013  21 13  -21.0380 26025.1 -03449.8 -07.5508 26252.7
 13 06 2013  21 14  -21.0378 26025.2 -03449.8 -07.5509 26252.8
 13 06 2013  21 15  -21.0374 26025.3 -03449.8 -07.5509 26253.0
 13 06 2013  21 16  -21.0372 26025.3 -03449.8 -07.5509 26253.0
 13 06 2013  21 17  -21.0368 26025.6 -03449.9 -07.5510 26253.3
 13 06 2013  21 18  -21.0361 26025.6 -03449.9 -07.5509 26253.3
 13 06 2013  21 19  -21.0358 26025.7 -03449.9 -07.5509 26253.4
 13 06 2013  21 20  -21.0354 26025.8 -03449.9 -07.5509 26253.5
 13 06 2013  21 21  -21.0350 26025.9 -03449.9 -07.5508 26253.6
 13 06 2013  21 22  -21.0344 26026.1 -03449.9 -07.5509 26253.7
 13 06 2013  21 23  -21.0343 26026.2 -03450.1 -07.5511 26253.9
 13 06 2013  21 24  -21.0339 26026.3 -03450.0 -07.5510 26253.9
 13 06 2013  21 25  -21.0337 26026.3 -03450.0 -07.5510 26253.9
 13 06 2013  21 26  -21.0335 26026.1 -03449.9 -07.5508 26253.8
 13 06 2013  21 27  -21.0333 26026.2 -03449.9 -07.5508 26253.9
 13 06 2013  21 28  -21.0329 26026.0 -03449.8 -07.5507 26253.7
 13 06 2013  21 29  -21.0328 26025.9 -03449.8 -07.5506 26253.6
 13 06 2013  21 30  -21.0323 26025.8 -03449.7 -07.5504 26253.5
 13 06 2013  21 31  -21.0322 26026.0 -03449.8 -07.5506 26253.6
 13 06 2013  21 32  -21.0319 26026.0 -03449.8 -07.5506 26253.6
 13 06 2013  21 33  -21.0317 26026.0 -03449.8 -07.5505 26253.6
 13 06 2013  21 34  -21.0317 26026.0 -03449.7 -07.5503 26253.6
 13 06 2013  21 35  -21.0317 26026.0 -03449.8 -07.5506 26253.7
 13 06 2013  21 36  -21.0317 26026.2 -03449.9 -07.5507 26253.9
 13 06 2013  21 37  -21.0318 26026.3 -03449.9 -07.5508 26254.0
 13 06 2013  21 38  -21.0316 26026.6 -03450.0 -07.5508 26254.3
 13 06 2013  21 39  -21.0315 26026.7 -03450.0 -07.5509 26254.4
 13 06 2013  21 40  -21.0315 26026.7 -03450.0 -07.5509 26254.4
 13 06 2013  21 41  -21.0314 26026.9 -03450.0 -07.5508 26254.5
 13 06 2013  21 42  -21.0312 26026.9 -03450.0 -07.5508 26254.6
 13 06 2013  21 43  -21.0312 26027.0 -03450.0 -07.5507 26254.6
 13 06 2013  21 44  -21.0313 26027.1 -03450.0 -07.5508 26254.8
 13 06 2013  21 45  -21.0315 26027.2 -03450.0 -07.5508 26254.8
 13 06 2013  21 46  -21.0316 26027.3 -03450.0 -07.5507 26254.9
 13 06 2013  21 47  -21.0317 26027.4 -03450.0 -07.5508 26255.0
 13 06 2013  21 48  -21.0319 26027.4 -03450.0 -07.5507 26255.1
 13 06 2013  21 49  -21.0321 26027.5 -03450.0 -07.5506 26255.1
 13 06 2013  21 50  -21.0323 26027.4 -03449.9 -07.5505 26255.1
 13 06 2013  21 51  -21.0323 26027.4 -03449.9 -07.5504 26255.1
 13 06 2013  21 52  -21.0324 26027.3 -03449.8 -07.5502 26255.0
 13 06 2013  21 53  -21.0324 26027.3 -03449.7 -07.5501 26254.9
 13 06 2013  21 54  -21.0325 26027.3 -03449.7 -07.5500 26254.9
 13 06 2013  21 55  -21.0326 26027.2 -03449.7 -07.5500 26254.9
 13 06 2013  21 56  -21.0327 26027.2 -03449.6 -07.5498 26254.8
 13 06 2013  21 57  -21.0329 26027.1 -03449.5 -07.5497 26254.7
 13 06 2013  21 58  -21.0330 26027.1 -03449.5 -07.5496 26254.7
 13 06 2013  21 59  -21.0332 26027.0 -03449.4 -07.5495 26254.6
 13 06 2013  22 00  -21.0334 26026.9 -03449.4 -07.5495 26254.5
 13 06 2013  22 01  -21.0334 26026.9 -03449.4 -07.5494 26254.5
 13 06 2013  22 02  -21.0335 26026.9 -03449.3 -07.5494 26254.5
 13 06 2013  22 03  -21.0336 26026.8 -03449.3 -07.5493 26254.4
 13 06 2013  22 04  -21.0339 26026.8 -03449.3 -07.5493 26254.3
 13 06 2013  22 05  -21.0341 26026.8 -03449.3 -07.5493 26254.4
 13 06 2013  22 06  -21.0343 26026.8 -03449.3 -07.5493 26254.4
 13 06 2013  22 07  -21.0344 26026.8 -03449.3 -07.5493 26254.4
 13 06 2013  22 08  -21.0345 26026.8 -03449.3 -07.5493 26254.4
 13 06 2013  22 09  -21.0347 26026.7 -03449.2 -07.5492 26254.3
 13 06 2013  22 10  -21.0349 26026.7 -03449.2 -07.5492 26254.2
 13 06 2013  22 11  -21.0350 26026.7 -03449.2 -07.5492 26254.3
 13 06 2013  22 12  -21.0351 26026.7 -03449.2 -07.5492 26254.3
 13 06 2013  22 13  -21.0352 26026.7 -03449.2 -07.5492 26254.2
 13 06 2013  22 14  -21.0352 26026.7 -03449.2 -07.5492 26254.3
 13 06 2013  22 15  -21.0351 26026.8 -03449.2 -07.5492 26254.4
 13 06 2013  22 16  -21.0352 26026.9 -03449.3 -07.5493 26254.4
 13 06 2013  22 17  -21.0352 26026.8 -03449.3 -07.5493 26254.4
 13 06 2013  22 18  -21.0354 26026.8 -03449.2 -07.5492 26254.3
 13 06 2013  22 19  -21.0354 26026.8 -03449.3 -07.5492 26254.3
 13 06 2013  22 20  -21.0352 26026.8 -03449.3 -07.5492 26254.4
 13 06 2013  22 21  -21.0353 26026.7 -03449.2 -07.5491 26254.3
 13 06 2013  22 22  -21.0353 26026.7 -03449.2 -07.5491 26254.2
 13 06 2013  22 23  -21.0352 26026.7 -03449.2 -07.5492 26254.3
 13 06 2013  22 24  -21.0351 26026.8 -03449.3 -07.5493 26254.4
 13 06 2013  22 25  -21.0350 26026.9 -03449.3 -07.5493 26254.4
 13 06 2013  22 26  -21.0349 26026.9 -03449.3 -07.5493 26254.5
 13 06 2013  22 27  -21.0349 26026.9 -03449.4 -07.5494 26254.5
 13 06 2013  22 28  -21.0350 26026.9 -03449.4 -07.5495 26254.5
 13 06 2013  22 29  -21.0349 26026.9 -03449.4 -07.5494 26254.5
 13 06 2013  22 30  -21.0348 26026.9 -03449.4 -07.5494 26254.5
 13 06 2013  22 31  -21.0348 26026.9 -03449.4 -07.5495 26254.5
 13 06 2013  22 32  -21.0347 26026.9 -03449.4 -07.5495 26254.5
 13 06 2013  22 33  -21.0346 26026.8 -03449.3 -07.5494 26254.4
 13 06 2013  22 34  -21.0347 26026.8 -03449.3 -07.5494 26254.3
 13 06 2013  22 35  -21.0347 26026.7 -03449.3 -07.5494 26254.2
 13 06 2013  22 36  -21.0348 26026.7 -03449.4 -07.5495 26254.3
 13 06 2013  22 37  -21.0346 26026.7 -03449.4 -07.5496 26254.3
 13 06 2013  22 38  -21.0346 26026.7 -03449.4 -07.5496 26254.3
 13 06 2013  22 39  -21.0345 26026.7 -03449.4 -07.5496 26254.3
 13 06 2013  22 40  -21.0344 26026.8 -03449.4 -07.5496 26254.4
 13 06 2013  22 41  -21.0344 26026.8 -03449.5 -07.5497 26254.4
 13 06 2013  22 42  -21.0344 26026.8 -03449.5 -07.5498 26254.4
 13 06 2013  22 43  -21.0344 26026.8 -03449.5 -07.5497 26254.4
 13 06 2013  22 44  -21.0344 26026.9 -03449.5 -07.5497 26254.5
 13 06 2013  22 45  -21.0344 26026.9 -03449.5 -07.5498 26254.5
 13 06 2013  22 46  -21.0344 26026.8 -03449.5 -07.5498 26254.4
 13 06 2013  22 47  -21.0344 26026.7 -03449.5 -07.5497 26254.3
 13 06 2013  22 48  -21.0344 26026.7 -03449.5 -07.5497 26254.3
 13 06 2013  22 49  -21.0344 26026.7 -03449.5 -07.5498 26254.3
 13 06 2013  22 50  -21.0342 26026.6 -03449.4 -07.5496 26254.2
 13 06 2013  22 51  -21.0342 26026.5 -03449.4 -07.5496 26254.1
 13 06 2013  22 52  -21.0342 26026.5 -03449.4 -07.5496 26254.1
 13 06 2013  22 53  -21.0340 26026.4 -03449.3 -07.5495 26253.9
 13 06 2013  22 54  -21.0341 26026.3 -03449.3 -07.5495 26253.8
 13 06 2013  22 55  -21.0341 26026.2 -03449.3 -07.5495 26253.7
 13 06 2013  22 56  -21.0343 26026.1 -03449.3 -07.5495 26253.6
 13 06 2013  22 57  -21.0344 26026.0 -03449.3 -07.5495 26253.6
 13 06 2013  22 58  -21.0345 26025.9 -03449.3 -07.5495 26253.5
 13 06 2013  22 59  -21.0345 26026.0 -03449.3 -07.5496 26253.6
 13 06 2013  23 00  -21.0346 26026.0 -03449.3 -07.5496 26253.6
 13 06 2013  23 01  -21.0346 26026.0 -03449.3 -07.5497 26253.6
 13 06 2013  23 02  -21.0344 26026.0 -03449.3 -07.5497 26253.6
 13 06 2013  23 03  -21.0345 26026.0 -03449.3 -07.5496 26253.6
 13 06 2013  23 04  -21.0344 26026.0 -03449.4 -07.5497 26253.6
 13 06 2013  23 05  -21.0340 26026.0 -03449.3 -07.5497 26253.6
 13 06 2013  23 06  -21.0337 26025.9 -03449.3 -07.5496 26253.5
 13 06 2013  23 07  -21.0336 26025.8 -03449.3 -07.5495 26253.4
 13 06 2013  23 08  -21.0335 26025.8 -03449.2 -07.5495 26253.3
 13 06 2013  23 09  -21.0333 26025.8 -03449.3 -07.5496 26253.4
 13 06 2013  23 10  -21.0334 26025.8 -03449.3 -07.5496 26253.4
 13 06 2013  23 11  -21.0334 26025.8 -03449.4 -07.5497 26253.4
 13 06 2013  23 12  -21.0334 26026.0 -03449.4 -07.5499 26253.5
 13 06 2013  23 13  -21.0332 26026.1 -03449.5 -07.5499 26253.7
 13 06 2013  23 14  -21.0333 26025.9 -03449.4 -07.5498 26253.4
 13 06 2013  23 15  -21.0333 26025.7 -03449.3 -07.5497 26253.3
 13 06 2013  23 16  -21.0335 26025.7 -03449.4 -07.5498 26253.3
 13 06 2013  23 17  -21.0336 26025.7 -03449.4 -07.5498 26253.3
 13 06 2013  23 18  -21.0336 26025.9 -03449.5 -07.5500 26253.5
 13 06 2013  23 19  -21.0335 26026.3 -03449.8 -07.5505 26254.0
 13 06 2013  23 20  -21.0338 26025.6 -03449.3 -07.5498 26253.2
 13 06 2013  23 21  -21.0333 26026.4 -03449.7 -07.5503 26254.0
 13 06 2013  23 22  -21.0335 26026.0 -03449.6 -07.5502 26253.6
 13 06 2013  23 23  -21.0335 26025.6 -03449.4 -07.5498 26253.2
 13 06 2013  23 24  -21.0332 26025.8 -03449.4 -07.5499 26253.4
 13 06 2013  23 25  -21.0336 26025.4 -03449.3 -07.5498 26253.0
 13 06 2013  23 26  -21.0334 26025.8 -03449.4 -07.5499 26253.4
 13 06 2013  23 27  -21.0338 26025.4 -03449.3 -07.5498 26253.0
 13 06 2013  23 28  -21.0340 26025.5 -03449.4 -07.5498 26253.1
 13 06 2013  23 29  -21.0342 26025.5 -03449.4 -07.5499 26253.1
 13 06 2013  23 30  -21.0346 26025.5 -03449.4 -07.5499 26253.0
 13 06 2013  23 31  -21.0345 26025.7 -03449.4 -07.5500 26253.3
 13 06 2013  23 32  -21.0345 26025.7 -03449.4 -07.5500 26253.3
 13 06 2013  23 33  -21.0342 26025.8 -03449.5 -07.5500 26253.4
 13 06 2013  23 34  -21.0343 26025.8 -03449.5 -07.5500 26253.4
 13 06 2013  23 35  -21.0345 26025.7 -03449.4 -07.5499 26253.3
 13 06 2013  23 36  -21.0345 26025.8 -03449.5 -07.5500 26253.4
 13 06 2013  23 37  -21.0347 26026.0 -03449.6 -07.5502 26253.6
 13 06 2013  23 38  -21.0346 26025.9 -03449.6 -07.5502 26253.5
 13 06 2013  23 39  -21.0344 26025.9 -03449.5 -07.5500 26253.5
 13 06 2013  23 40  -21.0344 26026.4 -03449.8 -07.5504 26254.0
 13 06 2013  23 41  -21.0344 26025.7 -03449.4 -07.5499 26253.3
 13 06 2013  23 42  -21.0343 26025.8 -03449.4 -07.5499 26253.4
 13 06 2013  23 43  -21.0341 26025.6 -03449.4 -07.5498 26253.2
 13 06 2013  23 44  -21.0340 26025.6 -03449.3 -07.5497 26253.1
 13 06 2013  23 45  -21.0338 26025.5 -03449.3 -07.5497 26253.1
 13 06 2013  23 46  -21.0339 26025.3 -03449.2 -07.5496 26252.8
 13 06 2013  23 47  -21.0338 26025.4 -03449.3 -07.5497 26253.0
 13 06 2013  23 48  -21.0338 26025.3 -03449.3 -07.5497 26252.8
 13 06 2013  23 49  -21.0338 26025.1 -03449.2 -07.5496 26252.7
 13 06 2013  23 50  -21.0339 26024.9 -03449.1 -07.5495 26252.5
 13 06 2013  23 51  -21.0340 26025.1 -03449.3 -07.5498 26252.7
 13 06 2013  23 52  -21.0336 26025.0 -03449.2 -07.5497 26252.6
 13 06 2013  23 53  -21.0334 26025.2 -03449.3 -07.5498 26252.8
 13 06 2013  23 54  -21.0331 26024.9 -03449.2 -07.5497 26252.5
 13 06 2013  23 55  -21.0328 26025.0 -03449.3 -07.5498 26252.6
 13 06 2013  23 56  -21.0326 26025.0 -03449.3 -07.5499 26252.6
 13 06 2013  23 57  -21.0328 26024.8 -03449.3 -07.5499 26252.4
 13 06 2013  23 58  -21.0325 26025.0 -03449.4 -07.5500 26252.6
