SAO LUIS EMBRACE-03 <228> 1 Min. Reported data

 DD MM YYYY  HH MM   D(Deg)  H(nT)   Z(nT)   I(Deg)   F(nT)

 16 08 2013  00 00  -21.0503 26009.4 -03475.0 -07.6099 26240.5
 16 08 2013  00 01  -21.0505 26010.1 -03475.2 -07.6103 26241.3
 16 08 2013  00 02  -21.0505 26010.9 -03475.5 -07.6106 26242.1
 16 08 2013  00 03  -21.0505 26011.6 -03475.7 -07.6108 26242.8
 16 08 2013  00 04  -21.0506 26012.1 -03475.8 -07.6108 26243.3
 16 08 2013  00 05  -21.0505 26012.7 -03475.9 -07.6110 26243.9
 16 08 2013  00 06  -21.0503 26013.3 -03476.0 -07.6110 26244.5
 16 08 2013  00 07  -21.0503 26013.5 -03476.0 -07.6110 26244.8
 16 08 2013  00 08  -21.0500 26014.2 -03476.1 -07.6110 26245.4
 16 08 2013  00 09  -21.0503 26014.1 -03476.0 -07.6108 26245.3
 16 08 2013  00 10  -21.0505 26014.0 -03475.8 -07.6103 26245.2
 16 08 2013  00 11  -21.0506 26014.2 -03475.7 -07.6102 26245.3
 16 08 2013  00 12  -21.0503 26014.2 -03475.6 -07.6099 26245.4
 16 08 2013  00 13  -21.0497 26015.0 -03475.8 -07.6102 26246.2
 16 08 2013  00 14  -21.0493 26014.7 -03475.7 -07.6099 26245.9
 16 08 2013  00 15  -21.0483 26015.4 -03475.8 -07.6100 26246.5
 16 08 2013  00 16  -21.0479 26015.4 -03475.8 -07.6099 26246.6
 16 08 2013  00 17  -21.0476 26015.7 -03475.9 -07.6101 26246.9
 16 08 2013  00 18  -21.0475 26015.8 -03475.9 -07.6100 26247.0
 16 08 2013  00 19  -21.0470 26016.3 -03476.0 -07.6102 26247.5
 16 08 2013  00 20  -21.0461 26016.9 -03476.3 -07.6105 26248.1
 16 08 2013  00 21  -21.0451 26017.2 -03476.4 -07.6106 26248.5
 16 08 2013  00 22  -21.0443 26017.9 -03476.6 -07.6110 26249.2
 16 08 2013  00 23  -21.0435 26018.3 -03476.8 -07.6112 26249.6
 16 08 2013  00 24  -21.0436 26018.5 -03476.9 -07.6114 26249.8
 16 08 2013  00 25  -21.0436 26019.1 -03477.1 -07.6118 26250.5
 16 08 2013  00 26  -21.0436 26020.0 -03477.5 -07.6123 26251.3
 16 08 2013  00 27  -21.0438 26020.5 -03477.7 -07.6125 26251.8
 16 08 2013  00 28  -21.0438 26021.0 -03477.9 -07.6128 26252.4
 16 08 2013  00 29  -21.0440 26021.3 -03477.9 -07.6129 26252.7
 16 08 2013  00 30  -21.0442 26021.4 -03477.9 -07.6127 26252.8
 16 08 2013  00 31  -21.0444 26021.5 -03477.8 -07.6126 26252.9
 16 08 2013  00 32  -21.0440 26021.8 -03477.8 -07.6123 26253.2
 16 08 2013  00 33  -21.0438 26021.9 -03477.7 -07.6121 26253.2
 16 08 2013  00 34  -21.0437 26022.5 -03477.9 -07.6124 26253.9
 16 08 2013  00 35  -21.0437 26022.8 -03478.0 -07.6125 26254.2
 16 08 2013  00 36  -21.0432 26022.6 -03477.7 -07.6120 26254.0
 16 08 2013  00 37  -21.0423 26022.8 -03477.7 -07.6118 26254.2
 16 08 2013  00 38  -21.0417 26022.8 -03477.6 -07.6116 26254.1
 16 08 2013  00 39  -21.0416 26022.7 -03477.5 -07.6114 26254.0
 16 08 2013  00 40  -21.0417 26022.7 -03477.4 -07.6114 26254.0
 16 08 2013  00 41  -21.0416 26022.7 -03477.4 -07.6113 26254.1
 16 08 2013  00 42  -21.0415 26023.0 -03477.5 -07.6115 26254.4
 16 08 2013  00 43  -21.0416 26022.9 -03477.4 -07.6112 26254.2
 16 08 2013  00 44  -21.0414 26023.2 -03477.5 -07.6113 26254.6
 16 08 2013  00 45  -21.0414 26023.2 -03477.5 -07.6113 26254.5
 16 08 2013  00 46  -21.0417 26023.2 -03477.4 -07.6112 26254.5
 16 08 2013  00 47  -21.0424 26023.3 -03477.5 -07.6113 26254.7
 16 08 2013  00 48  -21.0429 26023.4 -03477.5 -07.6113 26254.8
 16 08 2013  00 49  -21.0431 26024.1 -03477.7 -07.6115 26255.4
 16 08 2013  00 50  -21.0434 26024.3 -03477.8 -07.6117 26255.7
 16 08 2013  00 51  -21.0441 26024.2 -03477.7 -07.6115 26255.6
 16 08 2013  00 52  -21.0444 26024.2 -03477.5 -07.6112 26255.5
 16 08 2013  00 53  -21.0449 26024.0 -03477.4 -07.6109 26255.3
 16 08 2013  00 54  -21.0456 26023.9 -03477.3 -07.6107 26255.2
 16 08 2013  00 55  -21.0464 26024.1 -03477.3 -07.6107 26255.4
 16 08 2013  00 56  -21.0472 26024.4 -03477.4 -07.6109 26255.7
 16 08 2013  00 57  -21.0482 26024.6 -03477.4 -07.6108 26255.9
 16 08 2013  00 58  -21.0489 26024.6 -03477.4 -07.6107 26255.9
 16 08 2013  00 59  -21.0496 26024.5 -03477.2 -07.6103 26255.7
 16 08 2013  01 00  -21.0499 26024.4 -03477.0 -07.6100 26255.7
 16 08 2013  01 01  -21.0504 26024.1 -03476.8 -07.6095 26255.3
 16 08 2013  01 02  -21.0506 26023.3 -03476.3 -07.6087 26254.5
 16 08 2013  01 03  -21.0505 26022.7 -03475.8 -07.6079 26253.8
 16 08 2013  01 04  -21.0501 26022.3 -03475.5 -07.6074 26253.4
 16 08 2013  01 05  -21.0498 26021.9 -03475.3 -07.6070 26252.9
 16 08 2013  01 06  -21.0494 26021.4 -03475.0 -07.6065 26252.5
 16 08 2013  01 07  -21.0492 26021.4 -03475.0 -07.6066 26252.5
 16 08 2013  01 08  -21.0491 26021.1 -03474.9 -07.6064 26252.1
 16 08 2013  01 09  -21.0490 26020.8 -03474.8 -07.6063 26251.8
 16 08 2013  01 10  -21.0493 26020.6 -03474.8 -07.6062 26251.6
 16 08 2013  01 11  -21.0498 26020.6 -03474.8 -07.6063 26251.6
 16 08 2013  01 12  -21.0499 26020.5 -03474.8 -07.6064 26251.5
 16 08 2013  01 13  -21.0497 26020.8 -03474.9 -07.6064 26251.8
 16 08 2013  01 14  -21.0498 26021.0 -03475.0 -07.6066 26252.0
 16 08 2013  01 15  -21.0499 26020.7 -03474.9 -07.6064 26251.7
 16 08 2013  01 16  -21.0498 26020.1 -03474.5 -07.6059 26251.0
 16 08 2013  01 17  -21.0493 26019.0 -03474.0 -07.6050 26249.9
 16 08 2013  01 18  -21.0486 26018.1 -03473.5 -07.6042 26249.0
 16 08 2013  01 19  -21.0478 26017.6 -03473.2 -07.6037 26248.4
 16 08 2013  01 20  -21.0468 26017.1 -03473.0 -07.6035 26247.9
 16 08 2013  01 21  -21.0463 26016.8 -03473.0 -07.6035 26247.6
 16 08 2013  01 22  -21.0462 26016.6 -03473.1 -07.6038 26247.4
 16 08 2013  01 23  -21.0462 26016.5 -03473.2 -07.6040 26247.4
 16 08 2013  01 24  -21.0466 26016.5 -03473.3 -07.6043 26247.3
 16 08 2013  01 25  -21.0468 26016.2 -03473.3 -07.6044 26247.0
 16 08 2013  01 26  -21.0467 26016.0 -03473.3 -07.6043 26246.8
 16 08 2013  01 27  -21.0472 26015.6 -03473.2 -07.6042 26246.4
 16 08 2013  01 28  -21.0480 26015.4 -03473.2 -07.6043 26246.2
 16 08 2013  01 29  -21.0485 26015.4 -03473.3 -07.6045 26246.3
 16 08 2013  01 30  -21.0486 26015.3 -03473.2 -07.6044 26246.2
 16 08 2013  01 31  -21.0482 26015.0 -03473.1 -07.6042 26245.8
 16 08 2013  01 32  -21.0474 26014.5 -03472.9 -07.6039 26245.3
 16 08 2013  01 33  -21.0463 26014.1 -03472.7 -07.6036 26244.9
 16 08 2013  01 34  -21.0452 26013.7 -03472.6 -07.6034 26244.5
 16 08 2013  01 35  -21.0443 26013.4 -03472.5 -07.6035 26244.1
 16 08 2013  01 36  -21.0440 26013.2 -03472.6 -07.6036 26244.0
 16 08 2013  01 37  -21.0437 26013.4 -03472.8 -07.6041 26244.2
 16 08 2013  01 38  -21.0434 26013.6 -03473.1 -07.6046 26244.4
 16 08 2013  01 39  -21.0433 26013.4 -03473.2 -07.6049 26244.3
 16 08 2013  01 40  -21.0433 26013.2 -03473.2 -07.6050 26244.0
 16 08 2013  01 41  -21.0432 26012.9 -03473.1 -07.6049 26243.7
 16 08 2013  01 42  -21.0428 26012.6 -03473.0 -07.6048 26243.4
 16 08 2013  01 43  -21.0423 26012.5 -03473.0 -07.6048 26243.3
 16 08 2013  01 44  -21.0421 26012.4 -03473.1 -07.6050 26243.2
 16 08 2013  01 45  -21.0416 26012.4 -03473.2 -07.6052 26243.2
 16 08 2013  01 46  -21.0407 26012.2 -03473.2 -07.6052 26243.1
 16 08 2013  01 47  -21.0399 26012.0 -03473.2 -07.6053 26242.9
 16 08 2013  01 48  -21.0392 26011.8 -03473.2 -07.6053 26242.7
 16 08 2013  01 49  -21.0385 26012.0 -03473.3 -07.6056 26242.8
 16 08 2013  01 50  -21.0377 26012.5 -03473.7 -07.6063 26243.4
 16 08 2013  01 51  -21.0368 26013.0 -03474.1 -07.6069 26244.0
 16 08 2013  01 52  -21.0364 26013.4 -03474.4 -07.6075 26244.4
 16 08 2013  01 53  -21.0363 26013.8 -03474.7 -07.6080 26244.8
 16 08 2013  01 54  -21.0364 26014.3 -03475.0 -07.6086 26245.4
 16 08 2013  01 55  -21.0366 26014.4 -03475.2 -07.6089 26245.5
 16 08 2013  01 56  -21.0368 26014.4 -03475.2 -07.6089 26245.5
 16 08 2013  01 57  -21.0370 26014.5 -03475.3 -07.6091 26245.6
 16 08 2013  01 58  -21.0375 26014.5 -03475.3 -07.6092 26245.6
 16 08 2013  01 59  -21.0381 26014.2 -03475.2 -07.6090 26245.3
 16 08 2013  02 00  -21.0387 26013.8 -03475.0 -07.6087 26244.9
 16 08 2013  02 01  -21.0394 26013.5 -03474.9 -07.6085 26244.6
 16 08 2013  02 02  -21.0402 26013.3 -03474.7 -07.6083 26244.3
 16 08 2013  02 03  -21.0409 26013.1 -03474.7 -07.6081 26244.1
 16 08 2013  02 04  -21.0411 26013.1 -03474.7 -07.6082 26244.2
 16 08 2013  02 05  -21.0412 26013.0 -03474.6 -07.6081 26244.0
 16 08 2013  02 06  -21.0414 26012.8 -03474.5 -07.6079 26243.8
 16 08 2013  02 07  -21.0413 26012.6 -03474.4 -07.6078 26243.6
 16 08 2013  02 08  -21.0413 26012.5 -03474.4 -07.6077 26243.5
 16 08 2013  02 09  -21.0412 26012.6 -03474.5 -07.6079 26243.6
 16 08 2013  02 10  -21.0408 26012.6 -03474.5 -07.6080 26243.6
 16 08 2013  02 11  -21.0405 26012.4 -03474.5 -07.6079 26243.5
 16 08 2013  02 12  -21.0401 26012.4 -03474.5 -07.6080 26243.4
 16 08 2013  02 13  -21.0401 26012.5 -03474.6 -07.6082 26243.5
 16 08 2013  02 14  -21.0403 26012.5 -03474.6 -07.6083 26243.5
 16 08 2013  02 15  -21.0406 26012.4 -03474.7 -07.6084 26243.5
 16 08 2013  02 16  -21.0407 26012.4 -03474.7 -07.6085 26243.4
 16 08 2013  02 17  -21.0409 26012.4 -03474.7 -07.6085 26243.5
 16 08 2013  02 18  -21.0408 26012.6 -03474.8 -07.6085 26243.6
 16 08 2013  02 19  -21.0403 26013.4 -03475.1 -07.6091 26244.5
 16 08 2013  02 20  -21.0400 26013.6 -03475.3 -07.6095 26244.7
 16 08 2013  02 21  -21.0400 26012.9 -03475.0 -07.6090 26244.0
 16 08 2013  02 22  -21.0403 26012.2 -03474.6 -07.6083 26243.2
 16 08 2013  02 23  -21.0405 26011.3 -03474.2 -07.6077 26242.3
 16 08 2013  02 24  -21.0404 26010.7 -03473.9 -07.6071 26241.6
 16 08 2013  02 25  -21.0403 26010.6 -03473.8 -07.6071 26241.5
 16 08 2013  02 26  -21.0403 26010.6 -03474.0 -07.6074 26241.6
 16 08 2013  02 27  -21.0400 26010.8 -03474.1 -07.6076 26241.8
 16 08 2013  02 28  -21.0400 26010.7 -03474.2 -07.6078 26241.7
 16 08 2013  02 29  -21.0400 26010.7 -03474.2 -07.6079 26241.7
 16 08 2013  02 30  -21.0403 26010.6 -03474.3 -07.6080 26241.6
 16 08 2013  02 31  -21.0408 26010.2 -03474.2 -07.6079 26241.2
 16 08 2013  02 32  -21.0415 26010.0 -03474.1 -07.6079 26241.0
 16 08 2013  02 33  -21.0421 26010.0 -03474.2 -07.6080 26241.0
 16 08 2013  02 34  -21.0422 26010.2 -03474.2 -07.6081 26241.2
 16 08 2013  02 35  -21.0421 26010.6 -03474.4 -07.6084 26241.6
 16 08 2013  02 36  -21.0424 26010.7 -03474.5 -07.6085 26241.7
 16 08 2013  02 37  -21.0432 26010.5 -03474.4 -07.6084 26241.5
 16 08 2013  02 38  -21.0440 26009.9 -03474.2 -07.6080 26240.9
 16 08 2013  02 39  -21.0441 26009.6 -03474.0 -07.6076 26240.6
 16 08 2013  02 40  -21.0438 26009.3 -03473.7 -07.6073 26240.2
 16 08 2013  02 41  -21.0434 26009.2 -03473.7 -07.6071 26240.1
 16 08 2013  02 42  -21.0429 26008.9 -03473.5 -07.6069 26239.8
 16 08 2013  02 43  -21.0426 26008.5 -03473.3 -07.6066 26239.4
 16 08 2013  02 44  -21.0427 26008.1 -03473.2 -07.6064 26239.0
 16 08 2013  02 45  -21.0418 26009.1 -03473.6 -07.6070 26240.0
 16 08 2013  02 46  -21.0404 26011.1 -03474.6 -07.6086 26242.1
 16 08 2013  02 47  -21.0389 26012.9 -03475.6 -07.6101 26244.1
 16 08 2013  02 48  -21.0380 26014.7 -03476.5 -07.6117 26246.0
 16 08 2013  02 49  -21.0378 26016.0 -03477.1 -07.6126 26247.3
 16 08 2013  02 50  -21.0379 26017.3 -03477.7 -07.6136 26248.7
 16 08 2013  02 51  -21.0383 26018.5 -03478.2 -07.6143 26250.0
 16 08 2013  02 52  -21.0391 26019.6 -03478.6 -07.6148 26251.1
 16 08 2013  02 53  -21.0400 26020.4 -03478.8 -07.6149 26251.9
 16 08 2013  02 54  -21.0408 26020.8 -03478.7 -07.6147 26252.4
 16 08 2013  02 55  -21.0411 26021.3 -03478.7 -07.6146 26252.8
 16 08 2013  02 56  -21.0415 26021.8 -03478.7 -07.6143 26253.3
 16 08 2013  02 57  -21.0423 26021.6 -03478.4 -07.6137 26253.1
 16 08 2013  02 58  -21.0429 26020.9 -03477.7 -07.6125 26252.3
 16 08 2013  02 59  -21.0436 26019.9 -03477.0 -07.6112 26251.2
 16 08 2013  03 00  -21.0444 26019.0 -03476.3 -07.6101 26250.2
 16 08 2013  03 01  -21.0449 26017.9 -03475.6 -07.6089 26249.1
 16 08 2013  03 02  -21.0445 26018.6 -03475.7 -07.6087 26249.8
 16 08 2013  03 03  -21.0437 26019.5 -03476.0 -07.6092 26250.7
 16 08 2013  03 04  -21.0436 26020.2 -03476.4 -07.6098 26251.4
 16 08 2013  03 05  -21.0433 26021.2 -03476.8 -07.6104 26252.4
 16 08 2013  03 06  -21.0431 26021.8 -03477.1 -07.6109 26253.1
 16 08 2013  03 07  -21.0424 26022.2 -03477.1 -07.6108 26253.5
 16 08 2013  03 08  -21.0419 26022.8 -03477.3 -07.6110 26254.1
 16 08 2013  03 09  -21.0413 26023.1 -03477.4 -07.6112 26254.5
 16 08 2013  03 10  -21.0406 26023.4 -03477.4 -07.6111 26254.7
 16 08 2013  03 11  -21.0395 26024.0 -03477.6 -07.6113 26255.3
 16 08 2013  03 12  -21.0387 26024.2 -03477.6 -07.6112 26255.5
 16 08 2013  03 13  -21.0379 26024.4 -03477.6 -07.6112 26255.7
 16 08 2013  03 14  -21.0374 26024.8 -03477.7 -07.6113 26256.1
 16 08 2013  03 15  -21.0371 26024.6 -03477.5 -07.6111 26255.9
 16 08 2013  03 16  -21.0374 26025.0 -03477.6 -07.6111 26256.3
 16 08 2013  03 17  -21.0380 26025.0 -03477.7 -07.6112 26256.3
 16 08 2013  03 18  -21.0380 26024.7 -03477.4 -07.6108 26256.0
 16 08 2013  03 19  -21.0378 26025.1 -03477.5 -07.6108 26256.4
 16 08 2013  03 20  -21.0380 26025.2 -03477.5 -07.6108 26256.5
 16 08 2013  03 21  -21.0387 26025.0 -03477.4 -07.6107 26256.3
 16 08 2013  03 22  -21.0404 26024.4 -03477.1 -07.6103 26255.7
 16 08 2013  03 23  -21.0425 26023.5 -03476.7 -07.6095 26254.7
 16 08 2013  03 24  -21.0441 26023.4 -03476.5 -07.6091 26254.6
 16 08 2013  03 25  -21.0452 26023.2 -03476.3 -07.6088 26254.4
 16 08 2013  03 26  -21.0465 26023.8 -03476.5 -07.6090 26255.0
 16 08 2013  03 27  -21.0474 26024.6 -03476.8 -07.6094 26255.8
 16 08 2013  03 28  -21.0480 26025.4 -03477.1 -07.6099 26256.6
 16 08 2013  03 29  -21.0485 26025.9 -03477.2 -07.6099 26257.1
 16 08 2013  03 30  -21.0488 26026.8 -03477.5 -07.6103 26258.1
 16 08 2013  03 31  -21.0500 26027.2 -03477.6 -07.6104 26258.5
 16 08 2013  03 32  -21.0506 26027.5 -03477.6 -07.6103 26258.8
 16 08 2013  03 33  -21.0509 26028.4 -03477.8 -07.6105 26259.7
 16 08 2013  03 34  -21.0513 26029.0 -03478.0 -07.6107 26260.4
 16 08 2013  03 35  -21.0515 26029.2 -03477.9 -07.6104 26260.5
 16 08 2013  03 36  -21.0520 26028.9 -03477.6 -07.6099 26260.2
 16 08 2013  03 37  -21.0529 26027.7 -03476.8 -07.6086 26258.9
 16 08 2013  03 38  -21.0540 26026.5 -03476.0 -07.6072 26257.6
 16 08 2013  03 39  -21.0550 26025.2 -03475.2 -07.6058 26256.2
 16 08 2013  03 40  -21.0560 26024.0 -03474.5 -07.6046 26254.9
 16 08 2013  03 41  -21.0562 26023.1 -03474.0 -07.6037 26254.0
 16 08 2013  03 42  -21.0557 26022.4 -03473.5 -07.6030 26253.2
 16 08 2013  03 43  -21.0551 26021.5 -03473.1 -07.6023 26252.3
 16 08 2013  03 44  -21.0545 26021.0 -03472.9 -07.6020 26251.7
 16 08 2013  03 45  -21.0545 26020.0 -03472.5 -07.6015 26250.6
 16 08 2013  03 46  -21.0546 26019.1 -03472.2 -07.6010 26249.7
 16 08 2013  03 47  -21.0539 26018.5 -03472.0 -07.6008 26249.2
 16 08 2013  03 48  -21.0529 26018.0 -03471.8 -07.6006 26248.6
 16 08 2013  03 49  -21.0523 26017.8 -03471.9 -07.6007 26248.4
 16 08 2013  03 50  -21.0518 26017.7 -03472.0 -07.6011 26248.3
 16 08 2013  03 51  -21.0512 26017.3 -03472.0 -07.6012 26247.9
 16 08 2013  03 52  -21.0504 26017.3 -03472.1 -07.6015 26248.0
 16 08 2013  03 53  -21.0495 26017.2 -03472.2 -07.6017 26247.9
 16 08 2013  03 54  -21.0481 26017.1 -03472.3 -07.6019 26247.8
 16 08 2013  03 55  -21.0462 26016.8 -03472.3 -07.6019 26247.5
 16 08 2013  03 56  -21.0451 26017.4 -03472.7 -07.6026 26248.2
 16 08 2013  03 57  -21.0449 26018.5 -03473.4 -07.6039 26249.3
 16 08 2013  03 58  -21.0456 26018.8 -03473.8 -07.6047 26249.7
 16 08 2013  03 59  -21.0466 26018.6 -03473.9 -07.6050 26249.5
 16 08 2013  04 00  -21.0469 26018.7 -03474.0 -07.6051 26249.6
 16 08 2013  04 01  -21.0469 26018.8 -03474.0 -07.6051 26249.7
 16 08 2013  04 02  -21.0475 26018.6 -03474.0 -07.6050 26249.5
 16 08 2013  04 03  -21.0486 26018.3 -03473.9 -07.6050 26249.2
 16 08 2013  04 04  -21.0504 26018.6 -03474.0 -07.6051 26249.5
 16 08 2013  04 05  -21.0522 26018.9 -03474.2 -07.6055 26249.8
 16 08 2013  04 06  -21.0533 26019.4 -03474.4 -07.6057 26250.3
 16 08 2013  04 07  -21.0538 26019.6 -03474.4 -07.6057 26250.6
 16 08 2013  04 08  -21.0544 26019.8 -03474.4 -07.6057 26250.8
 16 08 2013  04 09  -21.0553 26020.2 -03474.5 -07.6058 26251.1
 16 08 2013  04 10  -21.0565 26020.4 -03474.5 -07.6058 26251.3
 16 08 2013  04 11  -21.0572 26020.2 -03474.4 -07.6054 26251.1
 16 08 2013  04 12  -21.0578 26019.8 -03474.0 -07.6048 26250.7
 16 08 2013  04 13  -21.0589 26019.4 -03473.7 -07.6043 26250.2
 16 08 2013  04 14  -21.0601 26018.8 -03473.4 -07.6037 26249.6
 16 08 2013  04 15  -21.0616 26018.2 -03473.0 -07.6031 26249.0
 16 08 2013  04 16  -21.0627 26017.5 -03472.6 -07.6023 26248.2
 16 08 2013  04 17  -21.0637 26017.3 -03472.4 -07.6019 26248.0
 16 08 2013  04 18  -21.0646 26016.6 -03472.0 -07.6013 26247.2
 16 08 2013  04 19  -21.0654 26015.7 -03471.5 -07.6006 26246.3
 16 08 2013  04 20  -21.0649 26014.8 -03470.9 -07.5995 26245.3
 16 08 2013  04 21  -21.0637 26014.1 -03470.5 -07.5987 26244.6
 16 08 2013  04 22  -21.0627 26013.4 -03470.1 -07.5983 26243.8
 16 08 2013  04 23  -21.0613 26012.9 -03470.0 -07.5980 26243.4
 16 08 2013  04 24  -21.0601 26012.4 -03469.8 -07.5979 26242.8
 16 08 2013  04 25  -21.0593 26011.7 -03469.6 -07.5976 26242.1
 16 08 2013  04 26  -21.0585 26011.7 -03469.7 -07.5979 26242.1
 16 08 2013  04 27  -21.0574 26012.7 -03470.4 -07.5990 26243.2
 16 08 2013  04 28  -21.0564 26013.1 -03470.8 -07.5998 26243.6
 16 08 2013  04 29  -21.0555 26012.5 -03470.7 -07.5997 26243.0
 16 08 2013  04 30  -21.0549 26012.4 -03470.6 -07.5997 26242.9
 16 08 2013  04 31  -21.0543 26012.6 -03470.9 -07.6001 26243.1
 16 08 2013  04 32  -21.0537 26013.3 -03471.4 -07.6011 26243.9
 16 08 2013  04 33  -21.0527 26014.3 -03472.0 -07.6020 26245.0
 16 08 2013  04 34  -21.0523 26015.4 -03472.7 -07.6033 26246.1
 16 08 2013  04 35  -21.0534 26015.1 -03472.8 -07.6036 26245.8
 16 08 2013  04 36  -21.0553 26014.2 -03472.5 -07.6032 26245.0
 16 08 2013  04 37  -21.0566 26013.3 -03472.0 -07.6024 26244.0
 16 08 2013  04 38  -21.0573 26012.8 -03471.7 -07.6018 26243.4
 16 08 2013  04 39  -21.0575 26012.7 -03471.6 -07.6017 26243.4
 16 08 2013  04 40  -21.0579 26012.4 -03471.5 -07.6015 26243.1
 16 08 2013  04 41  -21.0580 26011.5 -03471.0 -07.6008 26242.0
 16 08 2013  04 42  -21.0571 26011.0 -03470.7 -07.6002 26241.5
 16 08 2013  04 43  -21.0556 26010.9 -03470.6 -07.6000 26241.5
 16 08 2013  04 44  -21.0544 26010.8 -03470.6 -07.6000 26241.3
 16 08 2013  04 45  -21.0536 26010.9 -03470.8 -07.6004 26241.4
 16 08 2013  04 46  -21.0525 26010.7 -03470.8 -07.6005 26241.2
 16 08 2013  04 47  -21.0515 26011.4 -03471.2 -07.6012 26242.0
 16 08 2013  04 48  -21.0506 26012.6 -03472.0 -07.6024 26243.3
 16 08 2013  04 49  -21.0501 26014.2 -03472.9 -07.6040 26245.0
 16 08 2013  04 50  -21.0512 26014.5 -03473.4 -07.6050 26245.4
 16 08 2013  04 51  -21.0530 26013.6 -03473.0 -07.6045 26244.4
 16 08 2013  04 52  -21.0542 26012.0 -03472.2 -07.6031 26242.7
 16 08 2013  04 53  -21.0545 26011.1 -03471.6 -07.6021 26241.7
 16 08 2013  04 54  -21.0539 26010.7 -03471.3 -07.6016 26241.3
 16 08 2013  04 55  -21.0530 26010.7 -03471.2 -07.6015 26241.3
 16 08 2013  04 56  -21.0523 26010.4 -03471.2 -07.6015 26241.0
 16 08 2013  04 57  -21.0514 26009.8 -03471.0 -07.6011 26240.3
 16 08 2013  04 58  -21.0504 26009.4 -03470.9 -07.6010 26240.0
 16 08 2013  04 59  -21.0495 26009.6 -03471.1 -07.6014 26240.2
 16 08 2013  05 00  -21.0487 26009.8 -03471.3 -07.6019 26240.4
 16 08 2013  05 01  -21.0479 26009.8 -03471.5 -07.6022 26240.4
 16 08 2013  05 02  -21.0471 26009.8 -03471.6 -07.6025 26240.4
 16 08 2013  05 03  -21.0465 26009.2 -03471.5 -07.6025 26239.8
 16 08 2013  05 04  -21.0460 26008.6 -03471.3 -07.6022 26239.2
 16 08 2013  05 05  -21.0456 26008.2 -03471.2 -07.6022 26238.8
 16 08 2013  05 06  -21.0453 26007.7 -03471.2 -07.6021 26238.3
 16 08 2013  05 07  -21.0449 26007.2 -03471.1 -07.6021 26237.8
 16 08 2013  05 08  -21.0447 26006.8 -03471.1 -07.6022 26237.4
 16 08 2013  05 09  -21.0450 26006.3 -03471.0 -07.6022 26236.9
 16 08 2013  05 10  -21.0452 26005.9 -03470.9 -07.6022 26236.5
 16 08 2013  05 11  -21.0453 26005.8 -03471.1 -07.6025 26236.4
 16 08 2013  05 12  -21.0457 26005.6 -03471.2 -07.6027 26236.3
 16 08 2013  05 13  -21.0459 26005.3 -03471.2 -07.6028 26236.0
 16 08 2013  05 14  -21.0456 26005.6 -03471.3 -07.6031 26236.3
 16 08 2013  05 15  -21.0454 26005.7 -03471.5 -07.6035 26236.4
 16 08 2013  05 16  -21.0453 26005.5 -03471.6 -07.6036 26236.2
 16 08 2013  05 17  -21.0452 26005.1 -03471.4 -07.6035 26235.8
 16 08 2013  05 18  -21.0449 26004.7 -03471.3 -07.6034 26235.4
 16 08 2013  05 19  -21.0443 26004.5 -03471.3 -07.6034 26235.2
 16 08 2013  05 20  -21.0434 26004.5 -03471.4 -07.6035 26235.1
 16 08 2013  05 21  -21.0428 26004.6 -03471.5 -07.6038 26235.3
 16 08 2013  05 22  -21.0422 26004.3 -03471.6 -07.6040 26235.0
 16 08 2013  05 23  -21.0416 26004.2 -03471.6 -07.6040 26234.9
 16 08 2013  05 24  -21.0411 26004.1 -03471.7 -07.6043 26234.8
 16 08 2013  05 25  -21.0409 26003.9 -03471.7 -07.6045 26234.6
 16 08 2013  05 26  -21.0407 26003.7 -03471.8 -07.6046 26234.5
 16 08 2013  05 27  -21.0409 26003.4 -03471.8 -07.6046 26234.2
 16 08 2013  05 28  -21.0408 26003.2 -03471.7 -07.6046 26233.9
 16 08 2013  05 29  -21.0406 26003.4 -03471.9 -07.6050 26234.1
 16 08 2013  05 30  -21.0405 26003.4 -03472.1 -07.6054 26234.2
 16 08 2013  05 31  -21.0411 26003.4 -03472.2 -07.6056 26234.2
 16 08 2013  05 32  -21.0414 26003.8 -03472.5 -07.6061 26234.6
 16 08 2013  05 33  -21.0412 26003.9 -03472.6 -07.6063 26234.7
 16 08 2013  05 34  -21.0412 26004.2 -03472.8 -07.6066 26235.0
 16 08 2013  05 35  -21.0413 26005.0 -03473.2 -07.6074 26235.9
 16 08 2013  05 36  -21.0419 26005.7 -03473.7 -07.6082 26236.7
 16 08 2013  05 37  -21.0422 26005.9 -03473.8 -07.6085 26236.9
 16 08 2013  05 38  -21.0425 26005.7 -03473.8 -07.6083 26236.7
 16 08 2013  05 39  -21.0425 26005.6 -03473.6 -07.6080 26236.5
 16 08 2013  05 40  -21.0426 26005.5 -03473.5 -07.6079 26236.5
 16 08 2013  05 41  -21.0429 26005.4 -03473.5 -07.6078 26236.3
 16 08 2013  05 42  -21.0428 26005.5 -03473.5 -07.6078 26236.4
 16 08 2013  05 43  -21.0428 26005.7 -03473.6 -07.6079 26236.6
 16 08 2013  05 44  -21.0426 26006.0 -03473.8 -07.6083 26237.0
 16 08 2013  05 45  -21.0426 26005.8 -03473.7 -07.6081 26236.8
 16 08 2013  05 46  -21.0424 26005.4 -03473.5 -07.6078 26236.3
 16 08 2013  05 47  -21.0417 26005.0 -03473.3 -07.6074 26235.9
 16 08 2013  05 48  -21.0408 26005.0 -03473.2 -07.6074 26235.9
 16 08 2013  05 49  -21.0401 26005.2 -03473.3 -07.6076 26236.1
 16 08 2013  05 50  -21.0394 26005.5 -03473.6 -07.6080 26236.5
 16 08 2013  05 51  -21.0387 26005.7 -03473.8 -07.6084 26236.7
 16 08 2013  05 52  -21.0379 26005.5 -03473.7 -07.6084 26236.5
 16 08 2013  05 53  -21.0374 26005.2 -03473.6 -07.6082 26236.2
 16 08 2013  05 54  -21.0370 26005.0 -03473.6 -07.6082 26236.0
 16 08 2013  05 55  -21.0367 26005.0 -03473.7 -07.6083 26236.0
 16 08 2013  05 56  -21.0366 26005.4 -03474.0 -07.6089 26236.4
 16 08 2013  05 57  -21.0367 26006.0 -03474.4 -07.6096 26237.1
 16 08 2013  05 58  -21.0368 26006.1 -03474.6 -07.6100 26237.2
 16 08 2013  05 59  -21.0372 26006.4 -03474.7 -07.6103 26237.5
 16 08 2013  06 00  -21.0373 26006.7 -03474.9 -07.6105 26237.8
 16 08 2013  06 01  -21.0372 26006.9 -03475.0 -07.6107 26238.1
 16 08 2013  06 02  -21.0368 26007.3 -03475.1 -07.6109 26238.4
 16 08 2013  06 03  -21.0366 26007.2 -03475.1 -07.6108 26238.4
 16 08 2013  06 04  -21.0367 26006.5 -03474.8 -07.6104 26237.7
 16 08 2013  06 05  -21.0367 26006.0 -03474.5 -07.6098 26237.1
 16 08 2013  06 06  -21.0364 26006.4 -03474.7 -07.6101 26237.5
 16 08 2013  06 07  -21.0362 26007.3 -03475.2 -07.6109 26238.5
 16 08 2013  06 08  -21.0363 26007.8 -03475.4 -07.6114 26239.0
 16 08 2013  06 09  -21.0367 26007.9 -03475.6 -07.6116 26239.1
 16 08 2013  06 10  -21.0367 26007.5 -03475.4 -07.6114 26238.7
 16 08 2013  06 11  -21.0368 26006.9 -03475.0 -07.6107 26238.1
 16 08 2013  06 12  -21.0363 26006.6 -03474.8 -07.6103 26237.7
 16 08 2013  06 13  -21.0354 26006.8 -03474.8 -07.6103 26237.9
 16 08 2013  06 14  -21.0355 26006.8 -03474.9 -07.6105 26237.9
 16 08 2013  06 15  -21.0356 26006.8 -03475.0 -07.6107 26238.0
 16 08 2013  06 16  -21.0358 26007.1 -03475.1 -07.6109 26238.3
 16 08 2013  06 17  -21.0364 26007.7 -03475.5 -07.6116 26238.9
 16 08 2013  06 18  -21.0368 26008.2 -03475.7 -07.6119 26239.4
 16 08 2013  06 19  -21.0366 26008.6 -03475.9 -07.6122 26239.9
 16 08 2013  06 20  -21.0356 26008.8 -03476.0 -07.6122 26240.1
 16 08 2013  06 21  -21.0345 26009.3 -03476.1 -07.6124 26240.6
 16 08 2013  06 22  -21.0340 26009.7 -03476.3 -07.6127 26241.0
 16 08 2013  06 23  -21.0338 26009.4 -03476.2 -07.6125 26240.6
 16 08 2013  06 24  -21.0334 26008.7 -03475.8 -07.6118 26239.9
 16 08 2013  06 25  -21.0332 26008.1 -03475.4 -07.6113 26239.3
 16 08 2013  06 26  -21.0331 26008.2 -03475.5 -07.6113 26239.4
 16 08 2013  06 27  -21.0328 26008.7 -03475.7 -07.6118 26239.9
 16 08 2013  06 28  -21.0327 26009.5 -03476.2 -07.6126 26240.8
 16 08 2013  06 29  -21.0328 26010.4 -03476.7 -07.6134 26241.7
 16 08 2013  06 30  -21.0330 26010.8 -03477.0 -07.6138 26242.2
 16 08 2013  06 31  -21.0331 26010.8 -03477.0 -07.6139 26242.2
 16 08 2013  06 32  -21.0333 26010.5 -03476.8 -07.6136 26241.8
 16 08 2013  06 33  -21.0330 26009.9 -03476.5 -07.6130 26241.2
 16 08 2013  06 34  -21.0328 26009.1 -03476.0 -07.6122 26240.3
 16 08 2013  06 35  -21.0328 26008.2 -03475.5 -07.6114 26239.4
 16 08 2013  06 36  -21.0329 26007.6 -03475.2 -07.6108 26238.7
 16 08 2013  06 37  -21.0330 26007.0 -03474.9 -07.6104 26238.1
 16 08 2013  06 38  -21.0323 26007.2 -03475.0 -07.6105 26238.4
 16 08 2013  06 39  -21.0311 26008.2 -03475.5 -07.6114 26239.3
 16 08 2013  06 40  -21.0302 26008.7 -03475.9 -07.6121 26240.0
 16 08 2013  06 41  -21.0292 26008.7 -03475.9 -07.6122 26239.9
 16 08 2013  06 42  -21.0277 26008.4 -03475.8 -07.6120 26239.6
 16 08 2013  06 43  -21.0258 26008.0 -03475.6 -07.6116 26239.2
 16 08 2013  06 44  -21.0246 26007.8 -03475.5 -07.6116 26239.0
 16 08 2013  06 45  -21.0236 26007.6 -03475.5 -07.6116 26238.8
 16 08 2013  06 46  -21.0222 26007.6 -03475.6 -07.6118 26238.8
 16 08 2013  06 47  -21.0214 26007.8 -03475.9 -07.6123 26239.1
 16 08 2013  06 48  -21.0208 26008.2 -03476.2 -07.6129 26239.5
 16 08 2013  06 49  -21.0207 26008.6 -03476.6 -07.6136 26239.9
 16 08 2013  06 50  -21.0211 26008.9 -03476.9 -07.6141 26240.3
 16 08 2013  06 51  -21.0218 26009.2 -03477.1 -07.6146 26240.6
 16 08 2013  06 52  -21.0219 26009.4 -03477.3 -07.6149 26240.9
 16 08 2013  06 53  -21.0221 26009.8 -03477.5 -07.6153 26241.3
 16 08 2013  06 54  -21.0224 26010.4 -03477.8 -07.6157 26241.9
 16 08 2013  06 55  -21.0225 26010.8 -03478.0 -07.6161 26242.3
 16 08 2013  06 56  -21.0227 26011.0 -03478.1 -07.6162 26242.5
 16 08 2013  06 57  -21.0228 26011.0 -03478.0 -07.6160 26242.5
 16 08 2013  06 58  -21.0223 26011.3 -03478.0 -07.6159 26242.8
 16 08 2013  06 59  -21.0218 26011.8 -03478.2 -07.6162 26243.3
 16 08 2013  07 00  -21.0218 26011.8 -03478.2 -07.6162 26243.3
 16 08 2013  07 01  -21.0217 26011.4 -03478.0 -07.6158 26242.9
 16 08 2013  07 02  -21.0205 26011.1 -03477.7 -07.6152 26242.5
 16 08 2013  07 03  -21.0197 26010.8 -03477.4 -07.6147 26242.2
 16 08 2013  07 04  -21.0192 26010.1 -03477.1 -07.6142 26241.5
 16 08 2013  07 05  -21.0187 26009.4 -03476.7 -07.6136 26240.7
 16 08 2013  07 06  -21.0182 26008.8 -03476.3 -07.6130 26240.1
 16 08 2013  07 07  -21.0174 26008.7 -03476.3 -07.6130 26240.0
 16 08 2013  07 08  -21.0171 26009.0 -03476.5 -07.6134 26240.3
 16 08 2013  07 09  -21.0169 26009.3 -03476.9 -07.6140 26240.7
 16 08 2013  07 10  -21.0162 26009.8 -03477.2 -07.6145 26241.2
 16 08 2013  07 11  -21.0158 26010.2 -03477.4 -07.6149 26241.6
 16 08 2013  07 12  -21.0152 26010.4 -03477.6 -07.6152 26241.9
 16 08 2013  07 13  -21.0153 26010.6 -03477.8 -07.6156 26242.1
 16 08 2013  07 14  -21.0155 26010.3 -03477.6 -07.6154 26241.8
 16 08 2013  07 15  -21.0161 26009.7 -03477.3 -07.6148 26241.1
 16 08 2013  07 16  -21.0168 26009.3 -03477.0 -07.6144 26240.6
 16 08 2013  07 17  -21.0176 26010.0 -03477.3 -07.6148 26241.5
 16 08 2013  07 18  -21.0178 26011.3 -03478.0 -07.6159 26242.8
 16 08 2013  07 19  -21.0165 26012.3 -03478.4 -07.6165 26243.9
 16 08 2013  07 20  -21.0166 26013.3 -03478.8 -07.6170 26244.8
 16 08 2013  07 21  -21.0171 26014.1 -03479.1 -07.6175 26245.7
 16 08 2013  07 22  -21.0183 26014.9 -03479.4 -07.6178 26246.5
 16 08 2013  07 23  -21.0213 26014.2 -03479.2 -07.6177 26245.9
 16 08 2013  07 24  -21.0225 26014.2 -03478.8 -07.6169 26245.7
 16 08 2013  07 25  -21.0222 26014.3 -03478.6 -07.6163 26245.8
 16 08 2013  07 26  -21.0226 26015.1 -03478.7 -07.6164 26246.6
 16 08 2013  07 27  -21.0241 26015.4 -03478.9 -07.6166 26247.0
 16 08 2013  07 28  -21.0242 26015.7 -03478.8 -07.6164 26247.3
 16 08 2013  07 29  -21.0237 26016.1 -03478.8 -07.6162 26247.6
 16 08 2013  07 30  -21.0237 26016.2 -03478.7 -07.6159 26247.7
 16 08 2013  07 31  -21.0235 26015.9 -03478.4 -07.6154 26247.4
 16 08 2013  07 32  -21.0234 26015.5 -03478.0 -07.6146 26247.0
 16 08 2013  07 33  -21.0235 26015.8 -03478.0 -07.6145 26247.3
 16 08 2013  07 34  -21.0221 26016.7 -03478.2 -07.6148 26248.2
 16 08 2013  07 35  -21.0206 26016.8 -03478.2 -07.6148 26248.3
 16 08 2013  07 36  -21.0198 26016.8 -03478.1 -07.6145 26248.3
 16 08 2013  07 37  -21.0198 26016.4 -03477.9 -07.6141 26247.8
 16 08 2013  07 38  -21.0197 26016.8 -03477.9 -07.6142 26248.3
 16 08 2013  07 39  -21.0192 26017.3 -03478.1 -07.6144 26248.7
 16 08 2013  07 40  -21.0186 26017.5 -03478.2 -07.6145 26249.0
 16 08 2013  07 41  -21.0175 26017.8 -03478.2 -07.6145 26249.2
 16 08 2013  07 42  -21.0172 26018.7 -03478.6 -07.6150 26250.2
 16 08 2013  07 43  -21.0175 26019.7 -03479.1 -07.6158 26251.3
 16 08 2013  07 44  -21.0175 26020.5 -03479.5 -07.6165 26252.1
 16 08 2013  07 45  -21.0163 26020.0 -03479.2 -07.6160 26251.6
 16 08 2013  07 46  -21.0171 26018.1 -03478.1 -07.6142 26249.6
 16 08 2013  07 47  -21.0181 26018.0 -03477.9 -07.6137 26249.5
 16 08 2013  07 48  -21.0195 26019.1 -03478.5 -07.6147 26250.6
 16 08 2013  07 49  -21.0187 26020.3 -03479.0 -07.6155 26251.8
 16 08 2013  07 50  -21.0179 26020.3 -03479.1 -07.6156 26251.9
 16 08 2013  07 51  -21.0185 26019.3 -03478.6 -07.6148 26250.8
 16 08 2013  07 52  -21.0183 26019.1 -03478.2 -07.6142 26250.5
 16 08 2013  07 53  -21.0176 26019.6 -03478.4 -07.6144 26251.1
 16 08 2013  07 54  -21.0159 26020.1 -03478.6 -07.6146 26251.5
 16 08 2013  07 55  -21.0141 26020.2 -03478.6 -07.6146 26251.7
 16 08 2013  07 56  -21.0124 26020.0 -03478.5 -07.6144 26251.5
 16 08 2013  07 57  -21.0109 26019.5 -03478.2 -07.6140 26250.9
 16 08 2013  07 58  -21.0092 26019.7 -03478.3 -07.6141 26251.1
 16 08 2013  07 59  -21.0072 26019.7 -03478.4 -07.6144 26251.2
 16 08 2013  08 00  -21.0049 26019.4 -03478.3 -07.6141 26250.9
 16 08 2013  08 01  -21.0027 26018.8 -03478.0 -07.6138 26250.3
 16 08 2013  08 02  -21.0020 26018.9 -03478.2 -07.6141 26250.3
 16 08 2013  08 03  -21.0021 26019.1 -03478.6 -07.6149 26250.6
 16 08 2013  08 04  -21.0019 26019.3 -03478.9 -07.6155 26250.9
 16 08 2013  08 05  -21.0014 26019.2 -03479.0 -07.6158 26250.7
 16 08 2013  08 06  -21.0006 26019.5 -03479.2 -07.6161 26251.1
 16 08 2013  08 07  -21.0001 26020.1 -03479.6 -07.6167 26251.7
 16 08 2013  08 08  -21.0010 26020.9 -03480.1 -07.6178 26252.5
 16 08 2013  08 09  -21.0023 26021.2 -03480.5 -07.6184 26253.0
 16 08 2013  08 10  -21.0025 26021.3 -03480.5 -07.6184 26253.0
 16 08 2013  08 11  -21.0030 26021.6 -03480.6 -07.6185 26253.4
 16 08 2013  08 12  -21.0026 26022.3 -03480.9 -07.6189 26254.1
 16 08 2013  08 13  -21.0023 26022.5 -03480.9 -07.6189 26254.3
 16 08 2013  08 14  -21.0023 26022.7 -03480.9 -07.6189 26254.4
 16 08 2013  08 15  -21.0013 26022.7 -03480.8 -07.6187 26254.4
 16 08 2013  08 16  -21.0001 26023.0 -03480.8 -07.6186 26254.8
 16 08 2013  08 17  -20.9992 26023.4 -03480.9 -07.6187 26255.2
 16 08 2013  08 18  -20.9982 26024.2 -03481.3 -07.6192 26256.0
 16 08 2013  08 19  -20.9972 26023.9 -03481.2 -07.6191 26255.7
 16 08 2013  08 20  -20.9964 26023.6 -03480.9 -07.6185 26255.3
 16 08 2013  08 21  -20.9953 26022.5 -03480.4 -07.6178 26254.2
 16 08 2013  08 22  -20.9957 26021.4 -03479.7 -07.6167 26253.0
 16 08 2013  08 23  -20.9964 26021.3 -03479.7 -07.6167 26252.9
 16 08 2013  08 24  -20.9976 26022.0 -03480.3 -07.6178 26253.7
 16 08 2013  08 25  -20.9976 26023.1 -03480.8 -07.6186 26254.9
 16 08 2013  08 26  -20.9982 26024.4 -03481.5 -07.6197 26256.2
 16 08 2013  08 27  -20.9988 26025.0 -03481.9 -07.6203 26256.9
 16 08 2013  08 28  -20.9978 26025.0 -03481.8 -07.6201 26256.9
 16 08 2013  08 29  -20.9971 26025.3 -03481.7 -07.6198 26257.2
 16 08 2013  08 30  -20.9976 26024.9 -03481.5 -07.6195 26256.7
 16 08 2013  08 31  -20.9973 26024.2 -03481.0 -07.6186 26256.0
 16 08 2013  08 32  -20.9963 26023.8 -03480.6 -07.6179 26255.6
 16 08 2013  08 33  -20.9968 26024.4 -03480.9 -07.6184 26256.1
 16 08 2013  08 34  -20.9974 26024.6 -03481.1 -07.6187 26256.4
 16 08 2013  08 35  -20.9970 26024.3 -03480.9 -07.6185 26256.1
 16 08 2013  08 36  -20.9969 26023.9 -03480.6 -07.6180 26255.6
 16 08 2013  08 37  -20.9970 26023.2 -03480.3 -07.6174 26254.9
 16 08 2013  08 38  -20.9975 26023.0 -03480.3 -07.6175 26254.7
 16 08 2013  08 39  -20.9970 26023.3 -03480.5 -07.6179 26255.0
 16 08 2013  08 40  -20.9966 26023.5 -03480.6 -07.6181 26255.2
 16 08 2013  08 41  -20.9958 26023.2 -03480.4 -07.6177 26254.9
 16 08 2013  08 42  -20.9953 26023.1 -03480.4 -07.6177 26254.8
 16 08 2013  08 43  -20.9956 26022.8 -03480.4 -07.6177 26254.6
 16 08 2013  08 44  -20.9953 26022.4 -03480.1 -07.6173 26254.1
 16 08 2013  08 45  -20.9947 26021.7 -03479.8 -07.6167 26253.3
 16 08 2013  08 46  -20.9948 26021.4 -03479.5 -07.6163 26253.0
 16 08 2013  08 47  -20.9937 26021.0 -03479.4 -07.6161 26252.6
 16 08 2013  08 48  -20.9911 26020.7 -03479.1 -07.6156 26252.3
 16 08 2013  08 49  -20.9893 26020.7 -03479.1 -07.6156 26252.2
 16 08 2013  08 50  -20.9896 26020.4 -03479.3 -07.6161 26252.0
 16 08 2013  08 51  -20.9919 26021.1 -03480.0 -07.6175 26252.8
 16 08 2013  08 52  -20.9932 26021.0 -03480.3 -07.6181 26252.7
 16 08 2013  08 53  -20.9950 26020.8 -03480.4 -07.6184 26252.6
 16 08 2013  08 54  -20.9960 26020.6 -03480.4 -07.6184 26252.3
 16 08 2013  08 55  -20.9962 26020.9 -03480.6 -07.6187 26252.6
 16 08 2013  08 56  -20.9965 26021.4 -03481.0 -07.6196 26253.2
 16 08 2013  08 57  -20.9953 26021.5 -03481.1 -07.6197 26253.3
 16 08 2013  08 58  -20.9952 26021.0 -03480.8 -07.6191 26252.7
 16 08 2013  08 59  -20.9948 26019.5 -03480.0 -07.6178 26251.2
 16 08 2013  09 00  -20.9947 26018.7 -03479.4 -07.6168 26250.3
 16 08 2013  09 01  -20.9942 26017.9 -03478.9 -07.6159 26249.5
 16 08 2013  09 02  -20.9953 26017.8 -03479.1 -07.6163 26249.4
 16 08 2013  09 03  -20.9954 26017.9 -03479.3 -07.6169 26249.5
 16 08 2013  09 04  -20.9965 26018.2 -03479.8 -07.6178 26249.8
 16 08 2013  09 05  -20.9954 26017.5 -03479.5 -07.6174 26249.1
 16 08 2013  09 06  -20.9949 26016.3 -03478.9 -07.6164 26247.9
 16 08 2013  09 07  -20.9942 26015.5 -03478.4 -07.6156 26247.0
 16 08 2013  09 08  -20.9944 26015.2 -03478.3 -07.6154 26246.7
 16 08 2013  09 09  -20.9935 26015.2 -03478.2 -07.6152 26246.7
 16 08 2013  09 10  -20.9929 26015.0 -03478.2 -07.6152 26246.4
 16 08 2013  09 11  -20.9925 26014.5 -03477.9 -07.6148 26245.9
 16 08 2013  09 12  -20.9936 26014.2 -03477.9 -07.6147 26245.7
 16 08 2013  09 13  -20.9948 26014.1 -03478.0 -07.6151 26245.5
 16 08 2013  09 14  -20.9947 26015.4 -03478.8 -07.6164 26246.9
 16 08 2013  09 15  -20.9927 26015.4 -03479.0 -07.6168 26247.0
 16 08 2013  09 16  -20.9898 26015.2 -03478.8 -07.6165 26246.8
 16 08 2013  09 17  -20.9894 26015.1 -03478.7 -07.6163 26246.6
 16 08 2013  09 18  -20.9894 26015.4 -03479.0 -07.6169 26247.0
 16 08 2013  09 19  -20.9881 26015.4 -03479.2 -07.6173 26247.0
 16 08 2013  09 20  -20.9875 26015.4 -03479.2 -07.6173 26247.0
 16 08 2013  09 21  -20.9867 26015.4 -03479.3 -07.6175 26247.0
 16 08 2013  09 22  -20.9861 26015.5 -03479.4 -07.6178 26247.1
 16 08 2013  09 23  -20.9857 26015.6 -03479.7 -07.6182 26247.3
 16 08 2013  09 24  -20.9853 26015.6 -03479.8 -07.6186 26247.3
 16 08 2013  09 25  -20.9844 26015.7 -03480.0 -07.6190 26247.5
 16 08 2013  09 26  -20.9832 26015.6 -03480.1 -07.6191 26247.3
 16 08 2013  09 27  -20.9826 26015.5 -03480.1 -07.6193 26247.2
 16 08 2013  09 28  -20.9819 26015.3 -03480.2 -07.6195 26247.1
 16 08 2013  09 29  -20.9818 26014.9 -03480.1 -07.6194 26246.7
 16 08 2013  09 30  -20.9821 26015.2 -03480.5 -07.6202 26247.0
 16 08 2013  09 31  -20.9821 26015.3 -03480.7 -07.6207 26247.1
 16 08 2013  09 32  -20.9809 26014.9 -03480.7 -07.6207 26246.7
 16 08 2013  09 33  -20.9800 26014.7 -03480.7 -07.6207 26246.5
 16 08 2013  09 34  -20.9798 26014.5 -03480.8 -07.6210 26246.4
 16 08 2013  09 35  -20.9802 26014.8 -03481.2 -07.6218 26246.6
 16 08 2013  09 36  -20.9794 26014.6 -03481.3 -07.6221 26246.5
 16 08 2013  09 37  -20.9780 26014.3 -03481.4 -07.6223 26246.2
 16 08 2013  09 38  -20.9752 26013.7 -03481.2 -07.6221 26245.6
 16 08 2013  09 39  -20.9745 26013.4 -03481.2 -07.6223 26245.3
 16 08 2013  09 40  -20.9763 26013.3 -03481.5 -07.6229 26245.2
 16 08 2013  09 41  -20.9755 26013.7 -03481.9 -07.6237 26245.7
 16 08 2013  09 42  -20.9760 26013.6 -03482.1 -07.6240 26245.6
 16 08 2013  09 43  -20.9756 26012.7 -03481.8 -07.6238 26244.7
 16 08 2013  09 44  -20.9762 26012.3 -03481.7 -07.6237 26244.3
 16 08 2013  09 45  -20.9782 26012.5 -03481.9 -07.6241 26244.5
 16 08 2013  09 46  -20.9790 26012.5 -03482.2 -07.6246 26244.6
 16 08 2013  09 47  -20.9796 26012.6 -03482.5 -07.6252 26244.7
 16 08 2013  09 48  -20.9816 26012.2 -03482.5 -07.6254 26244.2
 16 08 2013  09 49  -20.9790 26013.5 -03482.9 -07.6259 26245.7
 16 08 2013  09 50  -20.9808 26014.5 -03483.6 -07.6270 26246.7
 16 08 2013  09 51  -20.9867 26015.0 -03484.4 -07.6286 26247.4
 16 08 2013  09 52  -20.9853 26014.7 -03484.3 -07.6285 26247.0
 16 08 2013  09 53  -20.9827 26015.1 -03484.0 -07.6278 26247.4
 16 08 2013  09 54  -20.9837 26015.4 -03483.9 -07.6274 26247.7
 16 08 2013  09 55  -20.9873 26015.4 -03483.8 -07.6273 26247.6
 16 08 2013  09 56  -20.9882 26015.6 -03484.0 -07.6276 26247.8
 16 08 2013  09 57  -20.9870 26015.4 -03483.8 -07.6273 26247.6
 16 08 2013  09 58  -20.9862 26015.9 -03484.0 -07.6275 26248.1
 16 08 2013  09 59  -20.9860 26016.3 -03484.2 -07.6278 26248.6
 16 08 2013  10 00  -20.9866 26016.3 -03484.3 -07.6280 26248.6
 16 08 2013  10 01  -20.9872 26016.2 -03484.3 -07.6282 26248.5
 16 08 2013  10 02  -20.9873 26016.4 -03484.5 -07.6285 26248.7
 16 08 2013  10 03  -20.9867 26016.6 -03484.7 -07.6288 26249.0
 16 08 2013  10 04  -20.9877 26016.7 -03484.9 -07.6292 26249.1
 16 08 2013  10 05  -20.9876 26016.8 -03485.0 -07.6295 26249.2
 16 08 2013  10 06  -20.9882 26016.9 -03485.2 -07.6298 26249.3
 16 08 2013  10 07  -20.9870 26017.2 -03485.3 -07.6301 26249.6
 16 08 2013  10 08  -20.9845 26017.6 -03485.4 -07.6301 26250.0
 16 08 2013  10 09  -20.9850 26017.3 -03485.3 -07.6299 26249.7
 16 08 2013  10 10  -20.9869 26016.9 -03485.2 -07.6299 26249.3
 16 08 2013  10 11  -20.9886 26017.3 -03485.5 -07.6305 26249.7
 16 08 2013  10 12  -20.9896 26017.3 -03485.8 -07.6309 26249.8
 16 08 2013  10 13  -20.9923 26017.1 -03485.9 -07.6314 26249.6
 16 08 2013  10 14  -20.9908 26017.0 -03485.8 -07.6312 26249.5
 16 08 2013  10 15  -20.9895 26018.0 -03486.3 -07.6318 26250.5
 16 08 2013  10 16  -20.9935 26018.4 -03486.9 -07.6330 26251.0
 16 08 2013  10 17  -20.9951 26017.9 -03487.0 -07.6334 26250.6
 16 08 2013  10 18  -20.9923 26018.0 -03486.7 -07.6328 26250.6
 16 08 2013  10 19  -20.9931 26019.0 -03486.9 -07.6329 26251.6
 16 08 2013  10 20  -20.9971 26019.6 -03487.3 -07.6337 26252.3
 16 08 2013  10 21  -20.9978 26019.6 -03487.2 -07.6333 26252.3
 16 08 2013  10 22  -20.9979 26019.8 -03487.1 -07.6331 26252.5
 16 08 2013  10 23  -20.9992 26019.9 -03487.1 -07.6331 26252.6
 16 08 2013  10 24  -21.0010 26019.9 -03487.2 -07.6332 26252.5
 16 08 2013  10 25  -21.0023 26019.9 -03487.2 -07.6333 26252.5
 16 08 2013  10 26  -21.0026 26019.8 -03487.1 -07.6332 26252.4
 16 08 2013  10 27  -21.0031 26019.6 -03487.0 -07.6331 26252.3
 16 08 2013  10 28  -21.0032 26019.4 -03486.9 -07.6328 26252.0
 16 08 2013  10 29  -21.0040 26019.2 -03486.9 -07.6329 26251.8
 16 08 2013  10 30  -21.0042 26019.1 -03487.2 -07.6335 26251.8
 16 08 2013  10 31  -21.0040 26019.0 -03487.3 -07.6337 26251.7
 16 08 2013  10 32  -21.0044 26019.6 -03487.5 -07.6341 26252.3
 16 08 2013  10 33  -21.0037 26020.1 -03487.6 -07.6342 26252.8
 16 08 2013  10 34  -21.0036 26020.2 -03487.6 -07.6341 26252.9
 16 08 2013  10 35  -21.0024 26020.6 -03487.6 -07.6339 26253.3
 16 08 2013  10 36  -21.0012 26021.8 -03487.8 -07.6341 26254.5
 16 08 2013  10 37  -21.0009 26021.8 -03487.8 -07.6341 26254.5
 16 08 2013  10 38  -21.0012 26021.4 -03487.8 -07.6341 26254.1
 16 08 2013  10 39  -21.0003 26022.3 -03488.1 -07.6345 26255.0
 16 08 2013  10 40  -21.0024 26023.4 -03488.5 -07.6351 26256.1
 16 08 2013  10 41  -21.0069 26023.9 -03488.7 -07.6353 26256.7
 16 08 2013  10 42  -21.0069 26024.0 -03488.3 -07.6346 26256.7
 16 08 2013  10 43  -21.0100 26023.4 -03487.8 -07.6336 26256.1
 16 08 2013  10 44  -21.0118 26023.5 -03487.7 -07.6333 26256.2
 16 08 2013  10 45  -21.0111 26023.3 -03487.4 -07.6328 26255.9
 16 08 2013  10 46  -21.0129 26021.9 -03486.9 -07.6321 26254.5
 16 08 2013  10 47  -21.0137 26021.3 -03486.8 -07.6319 26253.9
 16 08 2013  10 48  -21.0156 26021.4 -03486.9 -07.6323 26254.0
 16 08 2013  10 49  -21.0144 26024.7 -03488.2 -07.6340 26257.4
 16 08 2013  10 50  -21.0169 26027.2 -03489.0 -07.6352 26260.1
 16 08 2013  10 51  -21.0199 26028.5 -03489.1 -07.6350 26261.3
 16 08 2013  10 52  -21.0174 26029.6 -03488.8 -07.6340 26262.4
 16 08 2013  10 53  -21.0194 26029.9 -03488.4 -07.6330 26262.7
 16 08 2013  10 54  -21.0242 26029.2 -03487.9 -07.6322 26261.8
 16 08 2013  10 55  -21.0252 26028.6 -03487.5 -07.6313 26261.2
 16 08 2013  10 56  -21.0264 26028.2 -03487.1 -07.6307 26260.7
 16 08 2013  10 57  -21.0278 26028.1 -03487.0 -07.6306 26260.6
 16 08 2013  10 58  -21.0280 26028.0 -03487.0 -07.6305 26260.6
 16 08 2013  10 59  -21.0281 26027.8 -03486.8 -07.6301 26260.4
 16 08 2013  11 00  -21.0288 26027.9 -03486.7 -07.6299 26260.4
 16 08 2013  11 01  -21.0309 26028.2 -03486.8 -07.6300 26260.7
 16 08 2013  11 02  -21.0322 26028.8 -03486.9 -07.6301 26261.3
 16 08 2013  11 03  -21.0319 26030.2 -03487.2 -07.6303 26262.8
 16 08 2013  11 04  -21.0317 26031.6 -03487.3 -07.6302 26264.1
 16 08 2013  11 05  -21.0320 26031.6 -03486.8 -07.6291 26264.1
 16 08 2013  11 06  -21.0319 26031.0 -03486.1 -07.6278 26263.4
 16 08 2013  11 07  -21.0333 26030.5 -03485.8 -07.6272 26262.9
 16 08 2013  11 08  -21.0351 26030.5 -03485.7 -07.6271 26262.8
 16 08 2013  11 09  -21.0352 26031.4 -03485.9 -07.6272 26263.7
 16 08 2013  11 10  -21.0351 26032.0 -03485.8 -07.6269 26264.3
 16 08 2013  11 11  -21.0369 26032.1 -03485.6 -07.6263 26264.4
 16 08 2013  11 12  -21.0389 26032.0 -03485.4 -07.6258 26264.3
 16 08 2013  11 13  -21.0401 26031.9 -03485.1 -07.6254 26264.1
 16 08 2013  11 14  -21.0408 26032.0 -03485.0 -07.6251 26264.2
 16 08 2013  11 15  -21.0410 26032.0 -03484.9 -07.6248 26264.2
 16 08 2013  11 16  -21.0422 26032.2 -03484.9 -07.6248 26264.4
 16 08 2013  11 17  -21.0442 26032.2 -03485.0 -07.6249 26264.4
 16 08 2013  11 18  -21.0444 26032.5 -03485.0 -07.6250 26264.7
 16 08 2013  11 19  -21.0451 26032.9 -03485.1 -07.6251 26265.1
 16 08 2013  11 20  -21.0439 26034.1 -03485.4 -07.6252 26266.3
 16 08 2013  11 21  -21.0422 26036.5 -03485.9 -07.6257 26268.8
 16 08 2013  11 22  -21.0417 26039.1 -03486.3 -07.6259 26271.5
 16 08 2013  11 23  -21.0419 26040.8 -03486.2 -07.6251 26273.1
 16 08 2013  11 24  -21.0418 26041.1 -03485.6 -07.6237 26273.4
 16 08 2013  11 25  -21.0425 26041.9 -03485.2 -07.6225 26274.1
 16 08 2013  11 26  -21.0447 26043.1 -03485.0 -07.6219 26275.2
 16 08 2013  11 27  -21.0463 26043.8 -03484.6 -07.6208 26275.9
 16 08 2013  11 28  -21.0477 26044.5 -03484.3 -07.6199 26276.5
 16 08 2013  11 29  -21.0481 26045.8 -03484.3 -07.6195 26277.8
 16 08 2013  11 30  -21.0499 26047.0 -03484.2 -07.6190 26279.0
 16 08 2013  11 31  -21.0516 26047.4 -03483.8 -07.6180 26279.3
 16 08 2013  11 32  -21.0533 26046.5 -03483.0 -07.6165 26278.3
 16 08 2013  11 33  -21.0548 26045.3 -03482.2 -07.6150 26277.0
 16 08 2013  11 34  -21.0561 26044.1 -03481.5 -07.6139 26275.8
 16 08 2013  11 35  -21.0572 26043.7 -03481.2 -07.6134 26275.3
 16 08 2013  11 36  -21.0581 26043.6 -03481.1 -07.6131 26275.3
 16 08 2013  11 37  -21.0585 26043.9 -03480.9 -07.6128 26275.5
 16 08 2013  11 38  -21.0594 26044.5 -03481.0 -07.6127 26276.1
 16 08 2013  11 39  -21.0599 26044.8 -03480.8 -07.6123 26276.3
 16 08 2013  11 40  -21.0610 26044.5 -03480.5 -07.6117 26276.0
 16 08 2013  11 41  -21.0620 26044.8 -03480.4 -07.6113 26276.3
 16 08 2013  11 42  -21.0630 26045.9 -03480.4 -07.6112 26277.4
 16 08 2013  11 43  -21.0640 26046.4 -03480.3 -07.6108 26277.9
 16 08 2013  11 44  -21.0651 26045.8 -03479.8 -07.6097 26277.2
 16 08 2013  11 45  -21.0660 26045.9 -03479.6 -07.6093 26277.3
 16 08 2013  11 46  -21.0670 26046.4 -03479.5 -07.6089 26277.8
 16 08 2013  11 47  -21.0671 26047.0 -03479.3 -07.6084 26278.4
 16 08 2013  11 48  -21.0677 26046.5 -03478.8 -07.6074 26277.7
 16 08 2013  11 49  -21.0686 26045.2 -03478.0 -07.6061 26276.4
 16 08 2013  11 50  -21.0701 26044.9 -03477.7 -07.6055 26276.1
 16 08 2013  11 51  -21.0705 26046.5 -03478.1 -07.6059 26277.7
 16 08 2013  11 52  -21.0707 26048.0 -03478.3 -07.6058 26279.2
 16 08 2013  11 53  -21.0709 26048.4 -03478.0 -07.6052 26279.6
 16 08 2013  11 54  -21.0717 26048.5 -03477.7 -07.6046 26279.6
 16 08 2013  11 55  -21.0737 26048.1 -03477.2 -07.6036 26279.2
 16 08 2013  11 56  -21.0752 26047.8 -03476.8 -07.6028 26278.9
 16 08 2013  11 57  -21.0762 26047.7 -03476.5 -07.6021 26278.7
 16 08 2013  11 58  -21.0772 26048.5 -03476.5 -07.6018 26279.5
 16 08 2013  11 59  -21.0785 26048.7 -03476.2 -07.6012 26279.7
 16 08 2013  12 00  -21.0791 26049.3 -03475.9 -07.6005 26280.1
 16 08 2013  12 01  -21.0788 26050.1 -03475.8 -07.5999 26280.9
 16 08 2013  12 02  -21.0783 26050.5 -03475.4 -07.5989 26281.3
 16 08 2013  12 03  -21.0782 26051.6 -03475.3 -07.5984 26282.4
 16 08 2013  12 04  -21.0785 26052.4 -03475.1 -07.5978 26283.1
 16 08 2013  12 05  -21.0787 26052.6 -03474.6 -07.5966 26283.3
 16 08 2013  12 06  -21.0790 26052.4 -03474.0 -07.5953 26283.0
 16 08 2013  12 07  -21.0782 26052.6 -03473.6 -07.5944 26283.1
 16 08 2013  12 08  -21.0773 26052.8 -03473.3 -07.5937 26283.3
 16 08 2013  12 09  -21.0770 26053.7 -03473.3 -07.5934 26284.2
 16 08 2013  12 10  -21.0787 26054.1 -03473.2 -07.5932 26284.5
 16 08 2013  12 11  -21.0807 26053.9 -03473.0 -07.5927 26284.3
 16 08 2013  12 12  -21.0831 26053.7 -03472.7 -07.5922 26284.1
 16 08 2013  12 13  -21.0856 26053.4 -03472.5 -07.5919 26283.8
 16 08 2013  12 14  -21.0876 26053.8 -03472.5 -07.5918 26284.1
 16 08 2013  12 15  -21.0877 26055.3 -03472.8 -07.5920 26285.8
 16 08 2013  12 16  -21.0864 26058.0 -03473.4 -07.5924 26288.5
 16 08 2013  12 17  -21.0841 26059.7 -03473.3 -07.5919 26290.1
 16 08 2013  12 18  -21.0835 26059.4 -03472.6 -07.5903 26289.8
 16 08 2013  12 19  -21.0828 26060.2 -03472.4 -07.5897 26290.6
 16 08 2013  12 20  -21.0826 26061.5 -03472.5 -07.5894 26291.8
 16 08 2013  12 21  -21.0841 26061.9 -03472.2 -07.5888 26292.2
 16 08 2013  12 22  -21.0855 26061.3 -03471.5 -07.5874 26291.5
 16 08 2013  12 23  -21.0859 26062.0 -03471.3 -07.5867 26292.2
 16 08 2013  12 24  -21.0876 26061.8 -03470.9 -07.5860 26291.9
 16 08 2013  12 25  -21.0890 26060.4 -03470.1 -07.5847 26290.4
 16 08 2013  12 26  -21.0883 26060.5 -03470.0 -07.5844 26290.5
 16 08 2013  12 27  -21.0882 26061.6 -03470.1 -07.5843 26291.7
 16 08 2013  12 28  -21.0886 26062.5 -03470.1 -07.5841 26292.5
 16 08 2013  12 29  -21.0905 26061.6 -03469.5 -07.5831 26291.6
 16 08 2013  12 30  -21.0930 26060.2 -03468.8 -07.5820 26290.1
 16 08 2013  12 31  -21.0952 26060.6 -03468.9 -07.5820 26290.4
 16 08 2013  12 32  -21.0965 26059.9 -03468.5 -07.5814 26289.8
 16 08 2013  12 33  -21.0968 26057.9 -03467.7 -07.5802 26287.7
 16 08 2013  12 34  -21.0979 26055.3 -03466.9 -07.5791 26285.0
 16 08 2013  12 35  -21.0993 26052.8 -03466.3 -07.5785 26282.4
 16 08 2013  12 36  -21.1002 26051.9 -03466.4 -07.5790 26281.5
 16 08 2013  12 37  -21.1011 26049.5 -03465.9 -07.5786 26279.0
 16 08 2013  12 38  -21.1015 26045.6 -03464.8 -07.5775 26275.1
 16 08 2013  12 39  -21.1014 26043.1 -03464.6 -07.5776 26272.6
 16 08 2013  12 40  -21.1020 26041.8 -03464.9 -07.5788 26271.3
 16 08 2013  12 41  -21.1028 26040.6 -03465.2 -07.5798 26270.2
 16 08 2013  12 42  -21.1027 26039.8 -03465.6 -07.5808 26269.4
 16 08 2013  12 43  -21.1020 26040.4 -03466.4 -07.5825 26270.1
 16 08 2013  12 44  -21.1006 26039.8 -03467.0 -07.5838 26269.6
 16 08 2013  12 45  -21.0988 26041.2 -03468.1 -07.5858 26271.1
 16 08 2013  12 46  -21.0974 26044.2 -03469.4 -07.5879 26274.3
 16 08 2013  12 47  -21.0996 26046.2 -03470.1 -07.5887 26276.3
 16 08 2013  12 48  -21.1033 26044.7 -03469.1 -07.5871 26274.8
 16 08 2013  12 49  -21.1048 26041.6 -03467.5 -07.5845 26271.4
 16 08 2013  12 50  -21.1048 26041.4 -03467.3 -07.5842 26271.2
 16 08 2013  12 51  -21.1060 26042.1 -03467.8 -07.5849 26272.0
 16 08 2013  12 52  -21.1062 26041.8 -03467.7 -07.5848 26271.6
 16 08 2013  12 53  -21.1056 26041.9 -03467.7 -07.5848 26271.8
 16 08 2013  12 54  -21.1063 26043.2 -03468.3 -07.5858 26273.1
 16 08 2013  12 55  -21.1065 26043.2 -03468.3 -07.5856 26273.1
 16 08 2013  12 56  -21.1067 26043.2 -03468.1 -07.5853 26273.1
 16 08 2013  12 57  -21.1063 26042.7 -03467.7 -07.5846 26272.6
 16 08 2013  12 58  -21.1058 26043.6 -03468.0 -07.5848 26273.5
 16 08 2013  12 59  -21.1056 26045.2 -03468.5 -07.5855 26275.2
 16 08 2013  13 00  -21.1051 26045.9 -03468.6 -07.5856 26275.8
 16 08 2013  13 01  -21.1040 26046.1 -03468.5 -07.5853 26276.0
 16 08 2013  13 02  -21.1032 26047.3 -03468.7 -07.5854 26277.2
 16 08 2013  13 03  -21.1037 26049.7 -03469.4 -07.5862 26279.7
 16 08 2013  13 04  -21.1045 26051.5 -03469.7 -07.5864 26281.5
 16 08 2013  13 05  -21.1044 26052.3 -03469.5 -07.5858 26282.4
 16 08 2013  13 06  -21.1042 26054.0 -03469.6 -07.5855 26284.0
 16 08 2013  13 07  -21.1044 26055.7 -03469.7 -07.5852 26285.7
 16 08 2013  13 08  -21.1043 26056.5 -03469.5 -07.5844 26286.4
 16 08 2013  13 09  -21.1036 26057.0 -03469.2 -07.5836 26286.9
 16 08 2013  13 10  -21.1030 26058.3 -03469.2 -07.5832 26288.2
 16 08 2013  13 11  -21.1029 26059.2 -03469.1 -07.5828 26289.1
 16 08 2013  13 12  -21.1030 26060.5 -03469.1 -07.5826 26290.4
 16 08 2013  13 13  -21.1028 26061.7 -03469.1 -07.5822 26291.6
 16 08 2013  13 14  -21.1022 26062.9 -03469.0 -07.5816 26292.7
 16 08 2013  13 15  -21.1014 26064.1 -03469.0 -07.5812 26294.0
 16 08 2013  13 16  -21.1007 26065.5 -03469.0 -07.5809 26295.3
 16 08 2013  13 17  -21.1004 26067.2 -03469.2 -07.5807 26297.0
 16 08 2013  13 18  -21.1001 26068.1 -03469.0 -07.5801 26297.9
 16 08 2013  13 19  -21.1000 26068.6 -03468.7 -07.5793 26298.4
 16 08 2013  13 20  -21.1003 26069.7 -03468.8 -07.5791 26299.5
 16 08 2013  13 21  -21.1007 26071.4 -03468.9 -07.5788 26301.2
 16 08 2013  13 22  -21.0999 26072.2 -03468.6 -07.5779 26301.9
 16 08 2013  13 23  -21.0986 26073.4 -03468.5 -07.5775 26303.1
 16 08 2013  13 24  -21.0986 26074.1 -03468.5 -07.5772 26303.8
 16 08 2013  13 25  -21.0989 26072.9 -03467.9 -07.5763 26302.5
 16 08 2013  13 26  -21.0990 26073.4 -03468.0 -07.5764 26303.1
 16 08 2013  13 27  -21.0992 26074.6 -03468.5 -07.5770 26304.3
 16 08 2013  13 28  -21.0994 26076.8 -03469.0 -07.5777 26306.5
 16 08 2013  13 29  -21.1008 26076.3 -03468.5 -07.5766 26306.0
 16 08 2013  13 30  -21.1011 26072.7 -03466.7 -07.5737 26302.1
 16 08 2013  13 31  -21.1011 26069.7 -03465.6 -07.5723 26299.1
 16 08 2013  13 32  -21.1017 26067.8 -03465.3 -07.5722 26297.2
 16 08 2013  13 33  -21.1025 26067.2 -03465.6 -07.5730 26296.5
 16 08 2013  13 34  -21.1028 26064.9 -03465.2 -07.5727 26294.2
 16 08 2013  13 35  -21.1027 26063.1 -03464.9 -07.5727 26292.4
 16 08 2013  13 36  -21.1032 26062.8 -03465.6 -07.5742 26292.2
 16 08 2013  13 37  -21.1026 26061.9 -03465.9 -07.5752 26291.3
 16 08 2013  13 38  -21.1022 26061.7 -03466.6 -07.5767 26291.3
 16 08 2013  13 39  -21.1024 26062.0 -03467.5 -07.5786 26291.7
 16 08 2013  13 40  -21.1034 26061.7 -03468.1 -07.5800 26291.4
 16 08 2013  13 41  -21.1057 26061.4 -03468.5 -07.5809 26291.2
 16 08 2013  13 42  -21.1061 26062.1 -03468.8 -07.5814 26291.9
 16 08 2013  13 43  -21.1040 26063.3 -03469.0 -07.5815 26293.1
 16 08 2013  13 44  -21.1024 26063.9 -03469.2 -07.5817 26293.7
 16 08 2013  13 45  -21.1020 26064.5 -03469.5 -07.5822 26294.4
 16 08 2013  13 46  -21.1020 26065.4 -03469.9 -07.5828 26295.3
 16 08 2013  13 47  -21.1019 26065.9 -03470.0 -07.5829 26295.9
 16 08 2013  13 48  -21.1020 26066.5 -03470.3 -07.5833 26296.4
 16 08 2013  13 49  -21.1027 26067.0 -03470.5 -07.5837 26297.0
 16 08 2013  13 50  -21.1035 26067.1 -03470.5 -07.5835 26297.1
 16 08 2013  13 51  -21.1043 26066.9 -03470.4 -07.5834 26296.9
 16 08 2013  13 52  -21.1050 26067.4 -03470.5 -07.5835 26297.4
 16 08 2013  13 53  -21.1054 26067.8 -03470.6 -07.5837 26297.9
 16 08 2013  13 54  -21.1056 26068.2 -03470.7 -07.5837 26298.2
 16 08 2013  13 55  -21.1058 26068.7 -03470.9 -07.5839 26298.8
 16 08 2013  13 56  -21.1059 26069.4 -03471.1 -07.5841 26299.5
 16 08 2013  13 57  -21.1058 26069.7 -03471.2 -07.5844 26299.8
 16 08 2013  13 58  -21.1057 26069.4 -03471.1 -07.5842 26299.5
 16 08 2013  13 59  -21.1055 26069.1 -03471.0 -07.5841 26299.1
 16 08 2013  14 00  -21.1059 26068.3 -03470.9 -07.5841 26298.3
 16 08 2013  14 01  -21.1062 26067.3 -03470.7 -07.5840 26297.4
 16 08 2013  14 02  -21.1070 26066.6 -03470.7 -07.5841 26296.7
 16 08 2013  14 03  -21.1082 26066.8 -03471.0 -07.5846 26296.9
 16 08 2013  14 04  -21.1094 26067.0 -03471.1 -07.5848 26297.1
 16 08 2013  14 05  -21.1098 26066.0 -03470.7 -07.5843 26296.0
 16 08 2013  14 06  -21.1095 26064.1 -03470.2 -07.5837 26294.1
 16 08 2013  14 07  -21.1081 26061.9 -03469.7 -07.5833 26291.9
 16 08 2013  14 08  -21.1066 26061.1 -03469.9 -07.5841 26291.1
 16 08 2013  14 09  -21.1076 26062.7 -03471.2 -07.5864 26292.8
 16 08 2013  14 10  -21.1082 26063.2 -03471.8 -07.5875 26293.5
 16 08 2013  14 11  -21.1077 26062.5 -03471.7 -07.5875 26292.7
 16 08 2013  14 12  -21.1067 26061.7 -03471.7 -07.5877 26291.9
 16 08 2013  14 13  -21.1062 26060.8 -03471.7 -07.5881 26291.0
 16 08 2013  14 14  -21.1059 26060.7 -03472.2 -07.5890 26291.0
 16 08 2013  14 15  -21.1064 26061.1 -03472.8 -07.5903 26291.5
 16 08 2013  14 16  -21.1069 26061.1 -03473.2 -07.5912 26291.5
 16 08 2013  14 17  -21.1076 26061.5 -03473.8 -07.5922 26292.0
 16 08 2013  14 18  -21.1083 26062.1 -03474.2 -07.5931 26292.6
 16 08 2013  14 19  -21.1095 26063.4 -03474.9 -07.5942 26294.0
 16 08 2013  14 20  -21.1111 26064.5 -03475.4 -07.5949 26295.2
 16 08 2013  14 21  -21.1119 26065.0 -03475.4 -07.5948 26295.7
 16 08 2013  14 22  -21.1120 26065.2 -03475.4 -07.5946 26295.8
 16 08 2013  14 23  -21.1116 26065.1 -03475.1 -07.5940 26295.7
 16 08 2013  14 24  -21.1111 26064.8 -03474.9 -07.5937 26295.4
 16 08 2013  14 25  -21.1107 26064.6 -03474.9 -07.5938 26295.2
 16 08 2013  14 26  -21.1103 26064.2 -03474.9 -07.5940 26294.9
 16 08 2013  14 27  -21.1109 26064.2 -03475.2 -07.5945 26294.8
 16 08 2013  14 28  -21.1118 26064.0 -03475.4 -07.5951 26294.7
 16 08 2013  14 29  -21.1142 26065.0 -03476.1 -07.5962 26295.7
 16 08 2013  14 30  -21.1153 26065.6 -03476.3 -07.5965 26296.4
 16 08 2013  14 31  -21.1151 26065.6 -03476.0 -07.5959 26296.3
 16 08 2013  14 32  -21.1144 26065.4 -03475.7 -07.5954 26296.2
 16 08 2013  14 33  -21.1140 26065.1 -03475.5 -07.5950 26295.8
 16 08 2013  14 34  -21.1136 26065.2 -03475.6 -07.5952 26295.9
 16 08 2013  14 35  -21.1143 26065.5 -03475.8 -07.5956 26296.2
 16 08 2013  14 36  -21.1145 26066.7 -03476.2 -07.5960 26297.4
 16 08 2013  14 37  -21.1160 26068.2 -03476.6 -07.5965 26299.0
 16 08 2013  14 38  -21.1161 26068.8 -03476.5 -07.5960 26299.6
 16 08 2013  14 39  -21.1155 26068.7 -03476.1 -07.5952 26299.4
 16 08 2013  14 40  -21.1140 26068.4 -03475.8 -07.5946 26299.1
 16 08 2013  14 41  -21.1141 26069.1 -03476.0 -07.5949 26299.8
 16 08 2013  14 42  -21.1138 26069.8 -03476.1 -07.5949 26300.5
 16 08 2013  14 43  -21.1137 26068.7 -03475.5 -07.5939 26299.4
 16 08 2013  14 44  -21.1120 26066.7 -03474.6 -07.5926 26297.3
 16 08 2013  14 45  -21.1102 26064.7 -03474.1 -07.5921 26295.2
 16 08 2013  14 46  -21.1095 26064.3 -03474.4 -07.5928 26294.8
 16 08 2013  14 47  -21.1098 26064.7 -03474.9 -07.5937 26295.3
 16 08 2013  14 48  -21.1098 26065.4 -03475.4 -07.5946 26296.1
 16 08 2013  14 49  -21.1094 26065.4 -03475.3 -07.5945 26296.1
 16 08 2013  14 50  -21.1089 26064.8 -03475.1 -07.5942 26295.4
 16 08 2013  14 51  -21.1078 26063.4 -03474.5 -07.5933 26293.9
 16 08 2013  14 52  -21.1075 26062.8 -03474.5 -07.5934 26293.4
 16 08 2013  14 53  -21.1081 26063.1 -03474.7 -07.5939 26293.7
 16 08 2013  14 54  -21.1091 26063.9 -03475.2 -07.5946 26294.6
 16 08 2013  14 55  -21.1096 26064.1 -03475.2 -07.5947 26294.8
 16 08 2013  14 56  -21.1093 26064.0 -03475.1 -07.5944 26294.6
 16 08 2013  14 57  -21.1091 26063.8 -03475.0 -07.5943 26294.5
 16 08 2013  14 58  -21.1093 26064.2 -03475.2 -07.5945 26294.8
 16 08 2013  14 59  -21.1100 26064.6 -03475.4 -07.5948 26295.3
 16 08 2013  15 00  -21.1106 26065.5 -03475.6 -07.5950 26296.2
 16 08 2013  15 01  -21.1106 26065.8 -03475.5 -07.5947 26296.5
 16 08 2013  15 02  -21.1112 26066.1 -03475.5 -07.5946 26296.7
 16 08 2013  15 03  -21.1114 26065.7 -03475.2 -07.5942 26296.3
 16 08 2013  15 04  -21.1112 26065.2 -03475.0 -07.5939 26295.8
 16 08 2013  15 05  -21.1108 26065.4 -03475.2 -07.5942 26296.0
 16 08 2013  15 06  -21.1111 26066.1 -03475.6 -07.5950 26296.8
 16 08 2013  15 07  -21.1128 26067.3 -03476.1 -07.5956 26298.0
 16 08 2013  15 08  -21.1146 26069.7 -03476.7 -07.5962 26300.5
 16 08 2013  15 09  -21.1164 26072.3 -03477.2 -07.5965 26303.1
 16 08 2013  15 10  -21.1161 26073.0 -03476.6 -07.5950 26303.7
 16 08 2013  15 11  -21.1153 26073.0 -03475.8 -07.5933 26303.7
 16 08 2013  15 12  -21.1144 26073.1 -03475.0 -07.5917 26303.6
 16 08 2013  15 13  -21.1137 26073.3 -03474.5 -07.5904 26303.8
 16 08 2013  15 14  -21.1129 26074.1 -03474.3 -07.5897 26304.5
 16 08 2013  15 15  -21.1121 26074.4 -03473.9 -07.5888 26304.8
 16 08 2013  15 16  -21.1113 26074.9 -03473.5 -07.5879 26305.2
 16 08 2013  15 17  -21.1099 26074.8 -03473.0 -07.5867 26305.1
 16 08 2013  15 18  -21.1089 26075.2 -03472.6 -07.5857 26305.4
 16 08 2013  15 19  -21.1092 26075.0 -03472.0 -07.5846 26305.1
 16 08 2013  15 20  -21.1089 26074.5 -03471.4 -07.5833 26304.5
 16 08 2013  15 21  -21.1096 26075.0 -03471.3 -07.5831 26305.0
 16 08 2013  15 22  -21.1095 26075.3 -03471.0 -07.5824 26305.3
 16 08 2013  15 23  -21.1093 26075.3 -03470.6 -07.5814 26305.3
 16 08 2013  15 24  -21.1099 26075.9 -03470.5 -07.5811 26305.8
 16 08 2013  15 25  -21.1115 26076.1 -03470.3 -07.5805 26306.0
 16 08 2013  15 26  -21.1119 26075.6 -03469.6 -07.5792 26305.4
 16 08 2013  15 27  -21.1135 26075.8 -03469.3 -07.5786 26305.6
 16 08 2013  15 28  -21.1147 26075.5 -03468.9 -07.5777 26305.2
 16 08 2013  15 29  -21.1150 26075.6 -03468.6 -07.5770 26305.3
 16 08 2013  15 30  -21.1161 26075.9 -03468.4 -07.5766 26305.6
 16 08 2013  15 31  -21.1169 26076.1 -03468.2 -07.5760 26305.7
 16 08 2013  15 32  -21.1168 26075.3 -03467.5 -07.5748 26304.8
 16 08 2013  15 33  -21.1172 26074.2 -03466.9 -07.5737 26303.6
 16 08 2013  15 34  -21.1186 26073.2 -03466.5 -07.5732 26302.7
 16 08 2013  15 35  -21.1193 26072.1 -03466.0 -07.5725 26301.4
 16 08 2013  15 36  -21.1209 26070.5 -03465.6 -07.5720 26299.8
 16 08 2013  15 37  -21.1223 26069.2 -03465.3 -07.5718 26298.5
 16 08 2013  15 38  -21.1231 26068.3 -03465.2 -07.5718 26297.7
 16 08 2013  15 39  -21.1234 26067.9 -03465.1 -07.5717 26297.2
 16 08 2013  15 40  -21.1238 26067.9 -03465.1 -07.5717 26297.2
 16 08 2013  15 41  -21.1240 26067.6 -03465.0 -07.5715 26296.8
 16 08 2013  15 42  -21.1238 26066.9 -03464.6 -07.5709 26296.2
 16 08 2013  15 43  -21.1244 26064.9 -03463.8 -07.5698 26294.1
 16 08 2013  15 44  -21.1251 26064.2 -03463.6 -07.5696 26293.3
 16 08 2013  15 45  -21.1246 26064.7 -03463.8 -07.5699 26293.8
 16 08 2013  15 46  -21.1234 26064.0 -03463.2 -07.5688 26293.0
 16 08 2013  15 47  -21.1223 26062.7 -03462.5 -07.5676 26291.7
 16 08 2013  15 48  -21.1228 26063.2 -03462.8 -07.5681 26292.2
 16 08 2013  15 49  -21.1231 26062.8 -03462.9 -07.5683 26291.9
 16 08 2013  15 50  -21.1237 26061.7 -03462.5 -07.5679 26290.7
 16 08 2013  15 51  -21.1245 26060.1 -03462.1 -07.5675 26289.1
 16 08 2013  15 52  -21.1245 26058.3 -03461.6 -07.5669 26287.2
 16 08 2013  15 53  -21.1244 26057.3 -03461.5 -07.5670 26286.2
 16 08 2013  15 54  -21.1259 26056.7 -03461.6 -07.5674 26285.6
 16 08 2013  15 55  -21.1268 26057.2 -03462.0 -07.5680 26286.1
 16 08 2013  15 56  -21.1273 26058.0 -03462.3 -07.5684 26287.0
 16 08 2013  15 57  -21.1281 26057.6 -03462.0 -07.5680 26286.6
 16 08 2013  15 58  -21.1270 26056.0 -03461.1 -07.5665 26284.9
 16 08 2013  15 59  -21.1255 26055.4 -03460.7 -07.5657 26284.2
 16 08 2013  16 00  -21.1246 26054.8 -03460.4 -07.5653 26283.6
 16 08 2013  16 01  -21.1238 26054.8 -03460.5 -07.5654 26283.6
 16 08 2013  16 02  -21.1235 26054.8 -03460.2 -07.5649 26283.6
 16 08 2013  16 03  -21.1230 26054.5 -03459.9 -07.5643 26283.3
 16 08 2013  16 04  -21.1223 26054.0 -03459.7 -07.5639 26282.7
 16 08 2013  16 05  -21.1231 26054.3 -03460.0 -07.5646 26283.0
 16 08 2013  16 06  -21.1223 26052.9 -03459.6 -07.5641 26281.6
 16 08 2013  16 07  -21.1236 26053.3 -03459.9 -07.5647 26282.0
 16 08 2013  16 08  -21.1215 26052.0 -03459.3 -07.5636 26280.7
 16 08 2013  16 09  -21.1193 26049.8 -03458.5 -07.5627 26278.3
 16 08 2013  16 10  -21.1192 26048.8 -03458.6 -07.5632 26277.4
 16 08 2013  16 11  -21.1197 26048.8 -03459.1 -07.5641 26277.5
 16 08 2013  16 12  -21.1194 26048.9 -03459.3 -07.5646 26277.6
 16 08 2013  16 13  -21.1195 26048.8 -03459.5 -07.5650 26277.5
 16 08 2013  16 14  -21.1197 26048.7 -03459.6 -07.5653 26277.4
 16 08 2013  16 15  -21.1183 26048.5 -03459.5 -07.5652 26277.2
 16 08 2013  16 16  -21.1170 26049.6 -03460.0 -07.5660 26278.3
 16 08 2013  16 17  -21.1186 26051.0 -03460.8 -07.5672 26279.9
 16 08 2013  16 18  -21.1191 26051.6 -03460.8 -07.5670 26280.5
 16 08 2013  16 19  -21.1175 26051.8 -03460.5 -07.5664 26280.6
 16 08 2013  16 20  -21.1165 26051.8 -03460.3 -07.5659 26280.6
 16 08 2013  16 21  -21.1161 26052.4 -03460.5 -07.5661 26281.3
 16 08 2013  16 22  -21.1165 26053.1 -03460.6 -07.5662 26281.9
 16 08 2013  16 23  -21.1170 26053.8 -03460.7 -07.5663 26282.6
 16 08 2013  16 24  -21.1166 26053.9 -03460.6 -07.5659 26282.7
 16 08 2013  16 25  -21.1165 26052.7 -03460.1 -07.5652 26281.4
 16 08 2013  16 26  -21.1157 26051.1 -03459.5 -07.5643 26279.8
 16 08 2013  16 27  -21.1158 26051.3 -03459.7 -07.5648 26280.0
 16 08 2013  16 28  -21.1169 26051.7 -03460.1 -07.5654 26280.5
 16 08 2013  16 29  -21.1175 26052.2 -03460.3 -07.5659 26281.0
 16 08 2013  16 30  -21.1189 26053.0 -03460.6 -07.5663 26281.8
 16 08 2013  16 31  -21.1189 26053.6 -03460.7 -07.5664 26282.4
 16 08 2013  16 32  -21.1200 26054.4 -03460.9 -07.5664 26283.3
 16 08 2013  16 33  -21.1200 26055.0 -03460.8 -07.5661 26283.8
 16 08 2013  16 34  -21.1205 26054.1 -03460.2 -07.5650 26282.9
 16 08 2013  16 35  -21.1206 26053.3 -03459.7 -07.5642 26282.0
 16 08 2013  16 36  -21.1205 26052.6 -03459.3 -07.5636 26281.3
 16 08 2013  16 37  -21.1188 26051.9 -03459.0 -07.5631 26280.5
 16 08 2013  16 38  -21.1190 26050.2 -03458.5 -07.5626 26278.8
 16 08 2013  16 39  -21.1170 26047.3 -03457.6 -07.5614 26275.7
 16 08 2013  16 40  -21.1144 26043.3 -03456.3 -07.5598 26271.6
 16 08 2013  16 41  -21.1126 26040.9 -03456.2 -07.5602 26269.2
 16 08 2013  16 42  -21.1136 26040.5 -03457.0 -07.5620 26269.0
 16 08 2013  16 43  -21.1149 26041.1 -03457.8 -07.5636 26269.6
 16 08 2013  16 44  -21.1144 26040.3 -03457.8 -07.5639 26268.9
 16 08 2013  16 45  -21.1110 26036.7 -03456.7 -07.5625 26265.2
 16 08 2013  16 46  -21.1093 26036.2 -03457.2 -07.5638 26264.8
 16 08 2013  16 47  -21.1093 26037.5 -03458.6 -07.5664 26266.2
 16 08 2013  16 48  -21.1105 26038.8 -03459.8 -07.5687 26267.6
 16 08 2013  16 49  -21.1105 26038.7 -03460.2 -07.5694 26267.6
 16 08 2013  16 50  -21.1092 26036.9 -03459.6 -07.5687 26265.7
 16 08 2013  16 51  -21.1071 26035.5 -03459.4 -07.5687 26264.4
 16 08 2013  16 52  -21.1067 26035.5 -03460.0 -07.5699 26264.4
 16 08 2013  16 53  -21.1062 26035.2 -03460.5 -07.5711 26264.2
 16 08 2013  16 54  -21.1055 26034.7 -03460.7 -07.5718 26263.7
 16 08 2013  16 55  -21.1051 26033.9 -03460.9 -07.5724 26262.9
 16 08 2013  16 56  -21.1042 26032.5 -03460.8 -07.5727 26261.6
 16 08 2013  16 57  -21.1035 26031.7 -03461.1 -07.5735 26260.8
 16 08 2013  16 58  -21.1027 26030.3 -03461.1 -07.5739 26259.4
 16 08 2013  16 59  -21.1024 26029.3 -03461.3 -07.5745 26258.4
 16 08 2013  17 00  -21.1020 26028.6 -03461.5 -07.5753 26257.8
 16 08 2013  17 01  -21.1019 26028.0 -03461.9 -07.5762 26257.2
 16 08 2013  17 02  -21.1020 26027.7 -03462.2 -07.5770 26257.0
 16 08 2013  17 03  -21.1027 26027.3 -03462.5 -07.5777 26256.6
 16 08 2013  17 04  -21.1037 26027.5 -03462.9 -07.5786 26256.9
 16 08 2013  17 05  -21.1048 26027.9 -03463.4 -07.5794 26257.3
 16 08 2013  17 06  -21.1049 26028.1 -03463.5 -07.5797 26257.5
 16 08 2013  17 07  -21.1052 26028.4 -03463.8 -07.5801 26257.8
 16 08 2013  17 08  -21.1059 26029.2 -03464.1 -07.5808 26258.7
 16 08 2013  17 09  -21.1068 26030.2 -03464.5 -07.5813 26259.7
 16 08 2013  17 10  -21.1074 26030.9 -03464.7 -07.5816 26260.5
 16 08 2013  17 11  -21.1068 26031.2 -03464.6 -07.5811 26260.7
 16 08 2013  17 12  -21.1064 26031.8 -03464.7 -07.5811 26261.3
 16 08 2013  17 13  -21.1064 26032.6 -03464.9 -07.5814 26262.1
 16 08 2013  17 14  -21.1067 26033.5 -03465.1 -07.5817 26263.1
 16 08 2013  17 15  -21.1073 26034.3 -03465.2 -07.5816 26263.9
 16 08 2013  17 16  -21.1069 26034.6 -03465.0 -07.5810 26264.2
 16 08 2013  17 17  -21.1068 26035.0 -03464.9 -07.5807 26264.6
 16 08 2013  17 18  -21.1058 26034.8 -03464.5 -07.5798 26264.3
 16 08 2013  17 19  -21.1055 26035.6 -03464.6 -07.5799 26265.1
 16 08 2013  17 20  -21.1063 26036.4 -03464.8 -07.5801 26265.9
 16 08 2013  17 21  -21.1053 26036.6 -03464.5 -07.5795 26266.1
 16 08 2013  17 22  -21.1045 26037.1 -03464.6 -07.5794 26266.6
 16 08 2013  17 23  -21.1038 26036.9 -03464.3 -07.5789 26266.3
 16 08 2013  17 24  -21.1028 26036.3 -03463.9 -07.5782 26265.7
 16 08 2013  17 25  -21.1012 26035.6 -03463.4 -07.5774 26265.0
 16 08 2013  17 26  -21.0997 26034.7 -03463.0 -07.5767 26264.0
 16 08 2013  17 27  -21.0978 26033.7 -03462.7 -07.5762 26263.0
 16 08 2013  17 28  -21.0973 26033.4 -03462.6 -07.5763 26262.7
 16 08 2013  17 29  -21.0970 26033.0 -03462.6 -07.5762 26262.2
 16 08 2013  17 30  -21.0960 26032.6 -03462.4 -07.5760 26261.8
 16 08 2013  17 31  -21.0954 26032.5 -03462.4 -07.5761 26261.8
 16 08 2013  17 32  -21.0950 26032.3 -03462.3 -07.5759 26261.5
 16 08 2013  17 33  -21.0950 26031.7 -03462.1 -07.5756 26260.9
 16 08 2013  17 34  -21.0943 26030.8 -03461.7 -07.5751 26259.9
 16 08 2013  17 35  -21.0932 26030.8 -03461.8 -07.5752 26260.0
 16 08 2013  17 36  -21.0930 26031.2 -03462.1 -07.5757 26260.4
 16 08 2013  17 37  -21.0933 26031.3 -03462.3 -07.5760 26260.6
 16 08 2013  17 38  -21.0930 26030.4 -03461.7 -07.5752 26259.5
 16 08 2013  17 39  -21.0928 26029.8 -03461.5 -07.5748 26259.0
 16 08 2013  17 40  -21.0921 26029.1 -03461.2 -07.5743 26258.2
 16 08 2013  17 41  -21.0910 26028.2 -03460.8 -07.5738 26257.3
 16 08 2013  17 42  -21.0900 26027.9 -03460.8 -07.5740 26257.0
 16 08 2013  17 43  -21.0897 26027.6 -03460.9 -07.5743 26256.7
 16 08 2013  17 44  -21.0901 26027.4 -03461.1 -07.5747 26256.5
 16 08 2013  17 45  -21.0898 26026.6 -03460.9 -07.5746 26255.7
 16 08 2013  17 46  -21.0898 26026.6 -03461.1 -07.5748 26255.7
 16 08 2013  17 47  -21.0905 26027.6 -03461.7 -07.5758 26256.8
 16 08 2013  17 48  -21.0913 26027.4 -03461.6 -07.5759 26256.6
 16 08 2013  17 49  -21.0904 26025.8 -03460.8 -07.5745 26254.9
 16 08 2013  17 50  -21.0891 26025.6 -03460.7 -07.5743 26254.7
 16 08 2013  17 51  -21.0900 26026.5 -03461.3 -07.5754 26255.6
 16 08 2013  17 52  -21.0899 26026.3 -03461.4 -07.5757 26255.4
 16 08 2013  17 53  -21.0900 26025.8 -03461.2 -07.5753 26255.0
 16 08 2013  17 54  -21.0894 26025.0 -03460.9 -07.5748 26254.1
 16 08 2013  17 55  -21.0914 26026.1 -03461.5 -07.5759 26255.3
 16 08 2013  17 56  -21.0916 26025.9 -03461.4 -07.5757 26255.1
 16 08 2013  17 57  -21.0908 26025.0 -03460.9 -07.5749 26254.1
 16 08 2013  17 58  -21.0901 26024.4 -03460.8 -07.5748 26253.5
 16 08 2013  17 59  -21.0890 26023.2 -03460.4 -07.5743 26252.3
 16 08 2013  18 00  -21.0874 26021.8 -03460.0 -07.5740 26250.8
 16 08 2013  18 01  -21.0878 26021.6 -03460.3 -07.5746 26250.7
 16 08 2013  18 02  -21.0868 26020.6 -03460.1 -07.5745 26249.6
 16 08 2013  18 03  -21.0852 26019.2 -03459.8 -07.5743 26248.2
 16 08 2013  18 04  -21.0830 26017.9 -03459.7 -07.5743 26246.9
 16 08 2013  18 05  -21.0816 26017.2 -03459.9 -07.5750 26246.2
 16 08 2013  18 06  -21.0817 26017.6 -03460.6 -07.5765 26246.8
 16 08 2013  18 07  -21.0799 26016.0 -03460.4 -07.5764 26245.1
 16 08 2013  18 08  -21.0784 26015.3 -03460.4 -07.5767 26244.4
 16 08 2013  18 09  -21.0789 26015.9 -03461.2 -07.5782 26245.1
 16 08 2013  18 10  -21.0777 26015.3 -03461.3 -07.5787 26244.6
 16 08 2013  18 11  -21.0765 26014.6 -03461.4 -07.5789 26243.8
 16 08 2013  18 12  -21.0754 26013.7 -03461.4 -07.5793 26243.0
 16 08 2013  18 13  -21.0742 26012.7 -03461.3 -07.5795 26241.9
 16 08 2013  18 14  -21.0738 26012.3 -03461.6 -07.5802 26241.6
 16 08 2013  18 15  -21.0733 26012.1 -03462.0 -07.5811 26241.5
 16 08 2013  18 16  -21.0729 26011.9 -03462.3 -07.5817 26241.4
 16 08 2013  18 17  -21.0725 26011.7 -03462.5 -07.5822 26241.2
 16 08 2013  18 18  -21.0719 26011.4 -03462.6 -07.5825 26240.9
 16 08 2013  18 19  -21.0718 26011.5 -03462.9 -07.5832 26241.0
 16 08 2013  18 20  -21.0713 26011.7 -03463.3 -07.5839 26241.3
 16 08 2013  18 21  -21.0708 26011.9 -03463.5 -07.5843 26241.4
 16 08 2013  18 22  -21.0706 26012.0 -03463.8 -07.5849 26241.6
 16 08 2013  18 23  -21.0704 26012.1 -03464.0 -07.5853 26241.8
 16 08 2013  18 24  -21.0700 26012.3 -03464.1 -07.5856 26241.9
 16 08 2013  18 25  -21.0693 26012.1 -03464.3 -07.5860 26241.8
 16 08 2013  18 26  -21.0691 26012.2 -03464.5 -07.5864 26241.9
 16 08 2013  18 27  -21.0696 26013.0 -03464.9 -07.5872 26242.7
 16 08 2013  18 28  -21.0697 26013.3 -03465.1 -07.5874 26243.0
 16 08 2013  18 29  -21.0691 26012.9 -03464.9 -07.5871 26242.7
 16 08 2013  18 30  -21.0696 26013.3 -03465.1 -07.5875 26243.1
 16 08 2013  18 31  -21.0697 26013.4 -03465.2 -07.5875 26243.2
 16 08 2013  18 32  -21.0687 26012.7 -03464.9 -07.5871 26242.5
 16 08 2013  18 33  -21.0683 26012.8 -03465.0 -07.5873 26242.5
 16 08 2013  18 34  -21.0681 26012.8 -03465.2 -07.5877 26242.6
 16 08 2013  18 35  -21.0673 26012.8 -03465.3 -07.5880 26242.6
 16 08 2013  18 36  -21.0673 26013.0 -03465.6 -07.5884 26242.9
 16 08 2013  18 37  -21.0672 26013.1 -03465.6 -07.5884 26242.9
 16 08 2013  18 38  -21.0658 26012.4 -03465.4 -07.5882 26242.2
 16 08 2013  18 39  -21.0662 26013.3 -03465.8 -07.5889 26243.2
 16 08 2013  18 40  -21.0681 26015.0 -03466.6 -07.5902 26244.9
 16 08 2013  18 41  -21.0676 26014.5 -03466.3 -07.5896 26244.4
 16 08 2013  18 42  -21.0663 26013.3 -03465.7 -07.5886 26243.2
 16 08 2013  18 43  -21.0661 26013.0 -03465.6 -07.5887 26242.8
 16 08 2013  18 44  -21.0656 26012.7 -03465.6 -07.5887 26242.6
 16 08 2013  18 45  -21.0650 26012.3 -03465.6 -07.5887 26242.1
 16 08 2013  18 46  -21.0643 26011.8 -03465.5 -07.5886 26241.6
 16 08 2013  18 47  -21.0645 26011.8 -03465.7 -07.5890 26241.6
 16 08 2013  18 48  -21.0650 26011.4 -03465.6 -07.5890 26241.2
 16 08 2013  18 49  -21.0646 26010.6 -03465.3 -07.5886 26240.4
 16 08 2013  18 50  -21.0646 26010.0 -03465.0 -07.5881 26239.8
 16 08 2013  18 51  -21.0643 26009.8 -03464.9 -07.5881 26239.6
 16 08 2013  18 52  -21.0639 26009.9 -03465.0 -07.5883 26239.7
 16 08 2013  18 53  -21.0637 26010.2 -03465.3 -07.5886 26240.0
 16 08 2013  18 54  -21.0644 26010.8 -03465.5 -07.5890 26240.6
 16 08 2013  18 55  -21.0653 26011.1 -03465.5 -07.5890 26240.9
 16 08 2013  18 56  -21.0658 26011.4 -03465.5 -07.5888 26241.2
 16 08 2013  18 57  -21.0646 26011.6 -03465.4 -07.5886 26241.4
 16 08 2013  18 58  -21.0624 26011.7 -03465.5 -07.5887 26241.5
 16 08 2013  18 59  -21.0624 26012.7 -03466.3 -07.5901 26242.7
 16 08 2013  19 00  -21.0639 26013.2 -03466.6 -07.5906 26243.2
 16 08 2013  19 01  -21.0654 26013.1 -03466.4 -07.5902 26243.1
 16 08 2013  19 02  -21.0647 26011.8 -03465.5 -07.5886 26241.6
 16 08 2013  19 03  -21.0638 26011.0 -03465.0 -07.5879 26240.8
 16 08 2013  19 04  -21.0635 26010.5 -03464.9 -07.5877 26240.2
 16 08 2013  19 05  -21.0640 26011.7 -03465.5 -07.5886 26241.5
 16 08 2013  19 06  -21.0659 26013.5 -03466.3 -07.5899 26243.4
 16 08 2013  19 07  -21.0666 26013.0 -03465.9 -07.5891 26242.9
 16 08 2013  19 08  -21.0656 26010.5 -03464.5 -07.5868 26240.2
 16 08 2013  19 09  -21.0651 26009.2 -03463.6 -07.5854 26238.8
 16 08 2013  19 10  -21.0650 26009.7 -03463.8 -07.5856 26239.3
 16 08 2013  19 11  -21.0627 26009.8 -03464.0 -07.5860 26239.5
 16 08 2013  19 12  -21.0612 26010.6 -03464.6 -07.5871 26240.3
 16 08 2013  19 13  -21.0622 26013.1 -03466.0 -07.5895 26243.0
 16 08 2013  19 14  -21.0637 26014.2 -03466.5 -07.5902 26244.1
 16 08 2013  19 15  -21.0643 26013.3 -03465.9 -07.5890 26243.2
 16 08 2013  19 16  -21.0639 26010.6 -03464.3 -07.5864 26240.3
 16 08 2013  19 17  -21.0618 26009.0 -03463.3 -07.5848 26238.6
 16 08 2013  19 18  -21.0610 26009.7 -03463.9 -07.5858 26239.3
 16 08 2013  19 19  -21.0617 26011.5 -03464.9 -07.5875 26241.3
 16 08 2013  19 20  -21.0621 26011.7 -03465.1 -07.5879 26241.5
 16 08 2013  19 21  -21.0615 26010.5 -03464.4 -07.5868 26240.2
 16 08 2013  19 22  -21.0609 26009.7 -03463.9 -07.5859 26239.4
 16 08 2013  19 23  -21.0615 26010.0 -03464.0 -07.5860 26239.6
 16 08 2013  19 24  -21.0611 26010.3 -03464.1 -07.5862 26239.9
 16 08 2013  19 25  -21.0614 26010.6 -03464.4 -07.5867 26240.3
 16 08 2013  19 26  -21.0610 26010.3 -03464.3 -07.5865 26240.0
 16 08 2013  19 27  -21.0597 26009.3 -03463.8 -07.5858 26238.9
 16 08 2013  19 28  -21.0586 26008.4 -03463.5 -07.5854 26238.0
 16 08 2013  19 29  -21.0590 26009.2 -03464.1 -07.5864 26238.9
 16 08 2013  19 30  -21.0597 26010.0 -03464.8 -07.5877 26239.7
 16 08 2013  19 31  -21.0599 26009.7 -03464.8 -07.5878 26239.4
 16 08 2013  19 32  -21.0595 26009.7 -03464.8 -07.5877 26239.4
 16 08 2013  19 33  -21.0591 26010.1 -03465.2 -07.5884 26239.9
 16 08 2013  19 34  -21.0593 26010.7 -03465.7 -07.5895 26240.6
 16 08 2013  19 35  -21.0591 26010.2 -03465.7 -07.5896 26240.1
 16 08 2013  19 36  -21.0588 26009.9 -03465.6 -07.5894 26239.8
 16 08 2013  19 37  -21.0589 26010.0 -03465.7 -07.5897 26239.9
 16 08 2013  19 38  -21.0590 26010.1 -03465.8 -07.5899 26240.0
 16 08 2013  19 39  -21.0596 26010.0 -03465.9 -07.5902 26239.9
 16 08 2013  19 40  -21.0598 26009.2 -03465.5 -07.5894 26239.0
 16 08 2013  19 41  -21.0596 26009.4 -03465.4 -07.5893 26239.2
 16 08 2013  19 42  -21.0595 26009.0 -03465.3 -07.5891 26238.8
 16 08 2013  19 43  -21.0587 26008.0 -03464.9 -07.5885 26237.8
 16 08 2013  19 44  -21.0594 26008.3 -03465.1 -07.5888 26238.1
 16 08 2013  19 45  -21.0593 26008.8 -03465.4 -07.5894 26238.6
 16 08 2013  19 46  -21.0587 26008.6 -03465.4 -07.5894 26238.5
 16 08 2013  19 47  -21.0582 26008.8 -03465.4 -07.5894 26238.7
 16 08 2013  19 48  -21.0577 26009.0 -03465.5 -07.5895 26238.9
 16 08 2013  19 49  -21.0568 26008.4 -03465.1 -07.5889 26238.2
 16 08 2013  19 50  -21.0561 26008.0 -03465.0 -07.5887 26237.8
 16 08 2013  19 51  -21.0550 26007.3 -03464.8 -07.5886 26237.0
 16 08 2013  19 52  -21.0540 26006.5 -03464.7 -07.5886 26236.2
 16 08 2013  19 53  -21.0537 26005.8 -03464.8 -07.5889 26235.5
 16 08 2013  19 54  -21.0534 26005.4 -03464.9 -07.5892 26235.2
 16 08 2013  19 55  -21.0529 26005.4 -03465.0 -07.5895 26235.2
 16 08 2013  19 56  -21.0525 26005.5 -03465.3 -07.5900 26235.4
 16 08 2013  19 57  -21.0516 26005.8 -03465.5 -07.5905 26235.7
 16 08 2013  19 58  -21.0508 26005.5 -03465.7 -07.5909 26235.4
 16 08 2013  19 59  -21.0502 26005.1 -03465.7 -07.5911 26235.0
 16 08 2013  20 00  -21.0495 26004.7 -03465.7 -07.5912 26234.6
 16 08 2013  20 01  -21.0487 26003.9 -03465.6 -07.5912 26233.8
 16 08 2013  20 02  -21.0478 26003.4 -03465.6 -07.5914 26233.4
 16 08 2013  20 03  -21.0473 26003.3 -03465.8 -07.5919 26233.3
 16 08 2013  20 04  -21.0468 26003.2 -03466.1 -07.5924 26233.1
 16 08 2013  20 05  -21.0463 26002.8 -03466.2 -07.5927 26232.8
 16 08 2013  20 06  -21.0458 26002.8 -03466.4 -07.5932 26232.8
 16 08 2013  20 07  -21.0455 26002.9 -03466.7 -07.5938 26233.0
 16 08 2013  20 08  -21.0454 26003.4 -03467.1 -07.5946 26233.5
 16 08 2013  20 09  -21.0453 26003.6 -03467.4 -07.5952 26233.7
 16 08 2013  20 10  -21.0454 26003.6 -03467.6 -07.5955 26233.8
 16 08 2013  20 11  -21.0456 26003.7 -03467.7 -07.5958 26233.9
 16 08 2013  20 12  -21.0456 26003.8 -03467.8 -07.5960 26234.0
 16 08 2013  20 13  -21.0455 26003.4 -03467.7 -07.5959 26233.6
 16 08 2013  20 14  -21.0449 26002.9 -03467.5 -07.5957 26233.1
 16 08 2013  20 15  -21.0444 26003.0 -03467.7 -07.5960 26233.3
 16 08 2013  20 16  -21.0441 26003.7 -03468.1 -07.5968 26233.9
 16 08 2013  20 17  -21.0439 26004.4 -03468.6 -07.5976 26234.7
 16 08 2013  20 18  -21.0435 26004.9 -03468.9 -07.5981 26235.3
 16 08 2013  20 19  -21.0431 26005.0 -03469.0 -07.5983 26235.3
 16 08 2013  20 20  -21.0426 26005.2 -03469.2 -07.5986 26235.6
 16 08 2013  20 21  -21.0423 26006.1 -03469.7 -07.5995 26236.6
 16 08 2013  20 22  -21.0418 26007.3 -03470.5 -07.6007 26237.9
 16 08 2013  20 23  -21.0417 26007.8 -03470.9 -07.6015 26238.4
 16 08 2013  20 24  -21.0419 26007.9 -03471.0 -07.6017 26238.5
 16 08 2013  20 25  -21.0418 26008.3 -03471.2 -07.6020 26238.9
 16 08 2013  20 26  -21.0418 26008.7 -03471.4 -07.6024 26239.4
 16 08 2013  20 27  -21.0424 26008.9 -03471.6 -07.6027 26239.6
 16 08 2013  20 28  -21.0429 26008.8 -03471.5 -07.6026 26239.5
 16 08 2013  20 29  -21.0433 26008.8 -03471.5 -07.6025 26239.5
 16 08 2013  20 30  -21.0436 26009.2 -03471.7 -07.6028 26239.9
 16 08 2013  20 31  -21.0440 26009.9 -03472.0 -07.6033 26240.6
 16 08 2013  20 32  -21.0444 26010.6 -03472.4 -07.6039 26241.4
 16 08 2013  20 33  -21.0449 26011.1 -03472.6 -07.6043 26241.9
 16 08 2013  20 34  -21.0451 26011.3 -03472.7 -07.6044 26242.1
 16 08 2013  20 35  -21.0452 26011.2 -03472.6 -07.6043 26242.0
 16 08 2013  20 36  -21.0447 26011.4 -03472.7 -07.6044 26242.2
 16 08 2013  20 37  -21.0441 26012.0 -03473.0 -07.6048 26242.8
 16 08 2013  20 38  -21.0440 26012.7 -03473.3 -07.6053 26243.6
 16 08 2013  20 39  -21.0436 26013.1 -03473.5 -07.6056 26243.9
 16 08 2013  20 40  -21.0433 26013.2 -03473.5 -07.6057 26244.1
 16 08 2013  20 41  -21.0433 26013.7 -03473.8 -07.6061 26244.6
 16 08 2013  20 42  -21.0436 26014.1 -03473.9 -07.6063 26245.0
 16 08 2013  20 43  -21.0438 26014.4 -03474.1 -07.6065 26245.4
 16 08 2013  20 44  -21.0433 26014.6 -03474.1 -07.6065 26245.5
 16 08 2013  20 45  -21.0425 26014.3 -03474.1 -07.6065 26245.2
 16 08 2013  20 46  -21.0422 26013.8 -03473.9 -07.6063 26244.8
 16 08 2013  20 47  -21.0419 26013.8 -03473.9 -07.6063 26244.7
 16 08 2013  20 48  -21.0419 26013.6 -03473.8 -07.6062 26244.6
 16 08 2013  20 49  -21.0422 26013.5 -03473.8 -07.6061 26244.4
 16 08 2013  20 50  -21.0425 26013.3 -03473.7 -07.6061 26244.2
 16 08 2013  20 51  -21.0427 26012.8 -03473.6 -07.6059 26243.7
 16 08 2013  20 52  -21.0427 26012.5 -03473.5 -07.6057 26243.4
 16 08 2013  20 53  -21.0424 26012.3 -03473.4 -07.6056 26243.2
 16 08 2013  20 54  -21.0421 26012.2 -03473.4 -07.6057 26243.1
 16 08 2013  20 55  -21.0419 26012.6 -03473.6 -07.6060 26243.5
 16 08 2013  20 56  -21.0420 26013.0 -03473.9 -07.6065 26244.0
 16 08 2013  20 57  -21.0420 26013.3 -03474.0 -07.6067 26244.2
 16 08 2013  20 58  -21.0422 26013.3 -03474.0 -07.6067 26244.2
 16 08 2013  20 59  -21.0419 26012.9 -03473.9 -07.6065 26243.9
 16 08 2013  21 00  -21.0416 26012.9 -03473.8 -07.6064 26243.8
 16 08 2013  21 01  -21.0414 26012.9 -03473.9 -07.6065 26243.9
 16 08 2013  21 02  -21.0409 26012.9 -03473.9 -07.6066 26243.8
 16 08 2013  21 03  -21.0400 26012.3 -03473.7 -07.6062 26243.2
 16 08 2013  21 04  -21.0392 26011.8 -03473.4 -07.6059 26242.7
 16 08 2013  21 05  -21.0383 26011.3 -03473.2 -07.6055 26242.1
 16 08 2013  21 06  -21.0379 26010.6 -03473.0 -07.6053 26241.4
 16 08 2013  21 07  -21.0380 26010.1 -03472.9 -07.6053 26241.0
 16 08 2013  21 08  -21.0382 26009.8 -03473.0 -07.6054 26240.7
 16 08 2013  21 09  -21.0385 26009.6 -03473.1 -07.6057 26240.5
 16 08 2013  21 10  -21.0381 26009.5 -03473.1 -07.6058 26240.4
 16 08 2013  21 11  -21.0381 26009.5 -03473.2 -07.6060 26240.3
 16 08 2013  21 12  -21.0385 26009.6 -03473.4 -07.6063 26240.5
 16 08 2013  21 13  -21.0388 26010.1 -03473.7 -07.6070 26241.0
 16 08 2013  21 14  -21.0392 26010.5 -03474.0 -07.6074 26241.4
 16 08 2013  21 15  -21.0398 26010.8 -03474.2 -07.6079 26241.8
 16 08 2013  21 16  -21.0406 26010.9 -03474.3 -07.6080 26241.9
 16 08 2013  21 17  -21.0414 26010.2 -03474.0 -07.6075 26241.2
 16 08 2013  21 18  -21.0416 26009.4 -03473.4 -07.6066 26240.3
 16 08 2013  21 19  -21.0416 26009.2 -03473.3 -07.6063 26240.1
 16 08 2013  21 20  -21.0416 26009.4 -03473.4 -07.6065 26240.3
 16 08 2013  21 21  -21.0411 26009.4 -03473.4 -07.6064 26240.3
 16 08 2013  21 22  -21.0406 26009.5 -03473.5 -07.6066 26240.4
 16 08 2013  21 23  -21.0404 26009.7 -03473.6 -07.6069 26240.7
 16 08 2013  21 24  -21.0400 26010.3 -03473.9 -07.6073 26241.3
 16 08 2013  21 25  -21.0397 26010.5 -03474.0 -07.6075 26241.4
 16 08 2013  21 26  -21.0400 26010.8 -03474.1 -07.6077 26241.8
 16 08 2013  21 27  -21.0411 26011.0 -03474.3 -07.6080 26242.0
 16 08 2013  21 28  -21.0421 26011.2 -03474.5 -07.6083 26242.2
 16 08 2013  21 29  -21.0426 26010.8 -03474.2 -07.6079 26241.8
 16 08 2013  21 30  -21.0428 26010.6 -03474.0 -07.6074 26241.6
 16 08 2013  21 31  -21.0432 26010.6 -03474.0 -07.6073 26241.6
 16 08 2013  21 32  -21.0431 26010.9 -03474.0 -07.6073 26241.9
 16 08 2013  21 33  -21.0431 26010.9 -03474.0 -07.6073 26241.9
 16 08 2013  21 34  -21.0431 26010.9 -03474.0 -07.6073 26241.8
 16 08 2013  21 35  -21.0431 26010.3 -03473.7 -07.6068 26241.2
 16 08 2013  21 36  -21.0439 26010.2 -03473.6 -07.6066 26241.1
 16 08 2013  21 37  -21.0443 26010.1 -03473.6 -07.6068 26241.0
 16 08 2013  21 38  -21.0432 26009.5 -03473.3 -07.6063 26240.4
 16 08 2013  21 39  -21.0410 26007.7 -03472.3 -07.6046 26238.5
 16 08 2013  21 40  -21.0397 26006.2 -03471.5 -07.6033 26236.9
 16 08 2013  21 41  -21.0387 26006.5 -03471.7 -07.6036 26237.2
 16 08 2013  21 42  -21.0378 26007.0 -03472.1 -07.6045 26237.8
 16 08 2013  21 43  -21.0373 26007.3 -03472.5 -07.6052 26238.1
 16 08 2013  21 44  -21.0368 26007.2 -03472.7 -07.6055 26238.1
 16 08 2013  21 45  -21.0365 26006.9 -03472.6 -07.6055 26237.7
 16 08 2013  21 46  -21.0361 26006.6 -03472.5 -07.6055 26237.4
 16 08 2013  21 47  -21.0356 26006.3 -03472.5 -07.6054 26237.1
 16 08 2013  21 48  -21.0349 26006.3 -03472.5 -07.6055 26237.1
 16 08 2013  21 49  -21.0343 26006.7 -03472.8 -07.6059 26237.5
 16 08 2013  21 50  -21.0343 26007.3 -03473.2 -07.6067 26238.2
 16 08 2013  21 51  -21.0353 26008.1 -03473.8 -07.6076 26239.1
 16 08 2013  21 52  -21.0357 26008.8 -03474.2 -07.6085 26239.8
 16 08 2013  21 53  -21.0357 26009.0 -03474.3 -07.6086 26240.1
 16 08 2013  21 54  -21.0360 26009.5 -03474.5 -07.6088 26240.5
 16 08 2013  21 55  -21.0363 26009.9 -03474.7 -07.6091 26240.9
 16 08 2013  21 56  -21.0367 26010.1 -03474.7 -07.6091 26241.2
 16 08 2013  21 57  -21.0368 26010.8 -03475.0 -07.6095 26241.9
 16 08 2013  21 58  -21.0367 26011.8 -03475.4 -07.6102 26243.0
 16 08 2013  21 59  -21.0367 26011.9 -03475.5 -07.6103 26243.1
 16 08 2013  22 00  -21.0371 26012.1 -03475.5 -07.6102 26243.3
 16 08 2013  22 01  -21.0375 26012.2 -03475.5 -07.6102 26243.4
 16 08 2013  22 02  -21.0373 26012.4 -03475.5 -07.6101 26243.6
 16 08 2013  22 03  -21.0370 26012.1 -03475.2 -07.6097 26243.2
 16 08 2013  22 04  -21.0367 26011.8 -03475.0 -07.6091 26242.9
 16 08 2013  22 05  -21.0369 26011.7 -03474.8 -07.6089 26242.7
 16 08 2013  22 06  -21.0370 26011.8 -03474.8 -07.6089 26242.8
 16 08 2013  22 07  -21.0372 26011.9 -03474.9 -07.6090 26242.9
 16 08 2013  22 08  -21.0380 26012.1 -03475.0 -07.6092 26243.2
 16 08 2013  22 09  -21.0386 26012.1 -03475.0 -07.6091 26243.2
 16 08 2013  22 10  -21.0392 26012.1 -03474.9 -07.6090 26243.1
 16 08 2013  22 11  -21.0395 26012.3 -03475.0 -07.6090 26243.4
 16 08 2013  22 12  -21.0399 26012.5 -03475.0 -07.6091 26243.6
 16 08 2013  22 13  -21.0405 26012.5 -03475.0 -07.6090 26243.6
 16 08 2013  22 14  -21.0410 26012.6 -03475.0 -07.6089 26243.7
 16 08 2013  22 15  -21.0415 26012.9 -03475.0 -07.6090 26244.0
 16 08 2013  22 16  -21.0421 26012.6 -03474.9 -07.6087 26243.7
 16 08 2013  22 17  -21.0424 26012.2 -03474.6 -07.6082 26243.3
 16 08 2013  22 18  -21.0422 26011.9 -03474.3 -07.6077 26242.9
 16 08 2013  22 19  -21.0416 26011.7 -03474.1 -07.6074 26242.6
 16 08 2013  22 20  -21.0410 26011.5 -03474.0 -07.6072 26242.4
 16 08 2013  22 21  -21.0400 26011.0 -03473.7 -07.6067 26241.9
 16 08 2013  22 22  -21.0395 26011.0 -03473.8 -07.6068 26242.0
 16 08 2013  22 23  -21.0394 26011.3 -03474.0 -07.6072 26242.2
 16 08 2013  22 24  -21.0399 26010.5 -03473.7 -07.6069 26241.4
 16 08 2013  22 25  -21.0399 26010.1 -03473.5 -07.6064 26241.0
 16 08 2013  22 26  -21.0393 26011.3 -03474.0 -07.6072 26242.3
 16 08 2013  22 27  -21.0392 26011.3 -03474.2 -07.6076 26242.3
 16 08 2013  22 28  -21.0394 26011.8 -03474.4 -07.6080 26242.9
 16 08 2013  22 29  -21.0397 26012.6 -03474.9 -07.6087 26243.7
 16 08 2013  22 30  -21.0399 26013.1 -03475.1 -07.6092 26244.2
 16 08 2013  22 31  -21.0403 26013.4 -03475.2 -07.6093 26244.5
 16 08 2013  22 32  -21.0408 26013.5 -03475.3 -07.6095 26244.7
 16 08 2013  22 33  -21.0406 26013.1 -03475.1 -07.6090 26244.2
 16 08 2013  22 34  -21.0403 26012.8 -03474.8 -07.6085 26243.8
 16 08 2013  22 35  -21.0398 26012.6 -03474.6 -07.6082 26243.7
 16 08 2013  22 36  -21.0394 26013.0 -03474.7 -07.6083 26244.1
 16 08 2013  22 37  -21.0393 26013.5 -03475.0 -07.6087 26244.6
 16 08 2013  22 38  -21.0395 26013.7 -03475.2 -07.6091 26244.8
 16 08 2013  22 39  -21.0396 26013.9 -03475.2 -07.6091 26245.0
 16 08 2013  22 40  -21.0395 26014.1 -03475.3 -07.6092 26245.3
 16 08 2013  22 41  -21.0393 26014.1 -03475.2 -07.6091 26245.2
 16 08 2013  22 42  -21.0389 26014.4 -03475.3 -07.6092 26245.5
 16 08 2013  22 43  -21.0386 26014.3 -03475.2 -07.6090 26245.4
 16 08 2013  22 44  -21.0384 26014.4 -03475.2 -07.6090 26245.5
 16 08 2013  22 45  -21.0384 26014.4 -03475.2 -07.6090 26245.5
 16 08 2013  22 46  -21.0387 26014.0 -03475.1 -07.6088 26245.1
 16 08 2013  22 47  -21.0391 26013.5 -03474.8 -07.6084 26244.6
 16 08 2013  22 48  -21.0390 26013.4 -03474.7 -07.6082 26244.5
 16 08 2013  22 49  -21.0388 26013.4 -03474.7 -07.6081 26244.4
 16 08 2013  22 50  -21.0387 26013.5 -03474.7 -07.6081 26244.5
 16 08 2013  22 51  -21.0385 26013.7 -03474.9 -07.6084 26244.7
 16 08 2013  22 52  -21.0382 26013.6 -03474.9 -07.6084 26244.7
 16 08 2013  22 53  -21.0378 26013.3 -03474.7 -07.6083 26244.4
 16 08 2013  22 54  -21.0374 26013.0 -03474.6 -07.6080 26244.0
 16 08 2013  22 55  -21.0369 26012.6 -03474.4 -07.6078 26243.6
 16 08 2013  22 56  -21.0366 26012.2 -03474.3 -07.6076 26243.2
 16 08 2013  22 57  -21.0361 26012.0 -03474.2 -07.6076 26243.0
 16 08 2013  22 58  -21.0359 26011.8 -03474.2 -07.6076 26242.8
 16 08 2013  22 59  -21.0358 26011.7 -03474.3 -07.6077 26242.7
 16 08 2013  23 00  -21.0358 26011.6 -03474.3 -07.6078 26242.6
 16 08 2013  23 01  -21.0358 26011.7 -03474.4 -07.6081 26242.8
 16 08 2013  23 02  -21.0358 26012.0 -03474.6 -07.6084 26243.1
 16 08 2013  23 03  -21.0363 26012.5 -03474.9 -07.6089 26243.5
 16 08 2013  23 04  -21.0365 26013.0 -03475.2 -07.6094 26244.1
 16 08 2013  23 05  -21.0368 26013.9 -03475.7 -07.6101 26245.0
 16 08 2013  23 06  -21.0370 26014.0 -03475.8 -07.6104 26245.2
 16 08 2013  23 07  -21.0373 26014.1 -03475.8 -07.6103 26245.3
 16 08 2013  23 08  -21.0373 26014.8 -03476.1 -07.6108 26246.0
 16 08 2013  23 09  -21.0372 26015.1 -03476.2 -07.6109 26246.3
 16 08 2013  23 10  -21.0371 26015.4 -03476.3 -07.6110 26246.6
 16 08 2013  23 11  -21.0369 26016.1 -03476.6 -07.6115 26247.4
 16 08 2013  23 12  -21.0368 26016.7 -03476.8 -07.6118 26248.0
 16 08 2013  23 13  -21.0367 26017.3 -03477.1 -07.6122 26248.6
 16 08 2013  23 14  -21.0366 26017.8 -03477.2 -07.6124 26249.1
 16 08 2013  23 15  -21.0362 26018.1 -03477.3 -07.6125 26249.5
 16 08 2013  23 16  -21.0357 26018.1 -03477.2 -07.6123 26249.5
 16 08 2013  23 17  -21.0349 26018.4 -03477.2 -07.6122 26249.8
 16 08 2013  23 18  -21.0341 26018.7 -03477.3 -07.6122 26250.1
 16 08 2013  23 19  -21.0336 26018.7 -03477.2 -07.6120 26250.1
 16 08 2013  23 20  -21.0332 26018.5 -03477.1 -07.6118 26249.8
 16 08 2013  23 21  -21.0327 26018.1 -03476.9 -07.6115 26249.4
 16 08 2013  23 22  -21.0318 26017.9 -03476.6 -07.6110 26249.2
 16 08 2013  23 23  -21.0308 26018.1 -03476.7 -07.6111 26249.4
 16 08 2013  23 24  -21.0303 26017.7 -03476.5 -07.6108 26249.0
 16 08 2013  23 25  -21.0297 26018.5 -03476.8 -07.6113 26249.8
 16 08 2013  23 26  -21.0294 26018.5 -03476.9 -07.6115 26249.8
 16 08 2013  23 27  -21.0291 26018.3 -03476.8 -07.6113 26249.6
 16 08 2013  23 28  -21.0292 26018.8 -03477.1 -07.6117 26250.1
 16 08 2013  23 29  -21.0299 26019.1 -03477.3 -07.6121 26250.4
 16 08 2013  23 30  -21.0305 26019.2 -03477.4 -07.6123 26250.6
 16 08 2013  23 31  -21.0309 26019.3 -03477.4 -07.6123 26250.7
 16 08 2013  23 32  -21.0308 26019.6 -03477.5 -07.6123 26250.9
 16 08 2013  23 33  -21.0307 26019.1 -03477.2 -07.6119 26250.4
 16 08 2013  23 34  -21.0305 26018.7 -03476.9 -07.6114 26250.0
 16 08 2013  23 35  -21.0299 26018.6 -03476.8 -07.6111 26249.8
 16 08 2013  23 36  -21.0293 26019.0 -03477.0 -07.6114 26250.3
 16 08 2013  23 37  -21.0290 26019.0 -03477.0 -07.6115 26250.3
 16 08 2013  23 38  -21.0291 26018.7 -03476.9 -07.6114 26250.0
 16 08 2013  23 39  -21.0300 26017.6 -03476.5 -07.6108 26248.8
 16 08 2013  23 40  -21.0312 26015.8 -03475.7 -07.6095 26247.0
 16 08 2013  23 41  -21.0315 26015.0 -03475.2 -07.6087 26246.0
 16 08 2013  23 42  -21.0312 26014.6 -03474.9 -07.6083 26245.7
 16 08 2013  23 43  -21.0305 26015.1 -03475.1 -07.6086 26246.2
 16 08 2013  23 44  -21.0300 26015.4 -03475.5 -07.6092 26246.5
 16 08 2013  23 45  -21.0301 26015.4 -03475.6 -07.6096 26246.6
 16 08 2013  23 46  -21.0308 26015.0 -03475.6 -07.6096 26246.2
 16 08 2013  23 47  -21.0314 26014.8 -03475.5 -07.6095 26245.9
 16 08 2013  23 48  -21.0317 26014.8 -03475.6 -07.6096 26246.0
 16 08 2013  23 49  -21.0318 26014.8 -03475.6 -07.6097 26246.0
 16 08 2013  23 50  -21.0320 26014.8 -03475.7 -07.6098 26245.9
 16 08 2013  23 51  -21.0324 26014.6 -03475.6 -07.6098 26245.8
 16 08 2013  23 52  -21.0328 26014.3 -03475.5 -07.6096 26245.5
 16 08 2013  23 53  -21.0330 26014.4 -03475.5 -07.6097 26245.6
 16 08 2013  23 54  -21.0330 26014.5 -03475.6 -07.6097 26245.6
 16 08 2013  23 55  -21.0330 26014.5 -03475.6 -07.6098 26245.7
 16 08 2013  23 56  -21.0330 26014.6 -03475.7 -07.6099 26245.8
 16 08 2013  23 57  -21.0331 26014.7 -03475.7 -07.6100 26245.9
 16 08 2013  23 58  -21.0330 26014.9 -03475.8 -07.6101 26246.1
