SAO LUIS EMBRACE-03 <191> 1 Min. Reported data

 DD MM YYYY  HH MM   D(Deg)  H(nT)   Z(nT)   I(Deg)   F(nT)

 10 07 2013  00 00  -21.0454 26030.7 -03457.5 -07.5659 26259.3
 10 07 2013  00 01  -21.0451 26030.5 -03457.3 -07.5657 26259.1
 10 07 2013  00 02  -21.0450 26030.3 -03457.2 -07.5655 26258.9
 10 07 2013  00 03  -21.0449 26030.0 -03457.1 -07.5652 26258.6
 10 07 2013  00 04  -21.0449 26029.7 -03456.9 -07.5650 26258.2
 10 07 2013  00 05  -21.0448 26029.5 -03456.8 -07.5648 26258.0
 10 07 2013  00 06  -21.0437 26029.5 -03456.7 -07.5647 26258.0
 10 07 2013  00 07  -21.0432 26029.0 -03456.6 -07.5644 26257.5
 10 07 2013  00 08  -21.0429 26028.6 -03456.4 -07.5642 26257.1
 10 07 2013  00 09  -21.0426 26028.2 -03456.2 -07.5639 26256.7
 10 07 2013  00 10  -21.0424 26027.9 -03456.1 -07.5638 26256.3
 10 07 2013  00 11  -21.0423 26027.4 -03455.9 -07.5635 26255.8
 10 07 2013  00 12  -21.0434 26027.0 -03455.9 -07.5635 26255.5
 10 07 2013  00 13  -21.0443 26027.1 -03456.0 -07.5638 26255.5
 10 07 2013  00 14  -21.0445 26027.4 -03456.2 -07.5641 26255.8
 10 07 2013  00 15  -21.0444 26027.0 -03456.1 -07.5640 26255.5
 10 07 2013  00 16  -21.0443 26026.6 -03455.9 -07.5638 26255.0
 10 07 2013  00 17  -21.0450 26026.1 -03455.7 -07.5634 26254.5
 10 07 2013  00 18  -21.0455 26026.0 -03455.8 -07.5635 26254.5
 10 07 2013  00 19  -21.0459 26026.1 -03455.8 -07.5637 26254.5
 10 07 2013  00 20  -21.0460 26026.3 -03455.9 -07.5638 26254.7
 10 07 2013  00 21  -21.0457 26026.6 -03456.1 -07.5642 26255.1
 10 07 2013  00 22  -21.0459 26026.7 -03456.2 -07.5644 26255.1
 10 07 2013  00 23  -21.0462 26026.7 -03456.3 -07.5644 26255.2
 10 07 2013  00 24  -21.0466 26026.8 -03456.4 -07.5646 26255.3
 10 07 2013  00 25  -21.0467 26026.5 -03456.2 -07.5644 26255.0
 10 07 2013  00 26  -21.0470 26026.2 -03456.1 -07.5643 26254.7
 10 07 2013  00 27  -21.0476 26025.8 -03455.9 -07.5638 26254.2
 10 07 2013  00 28  -21.0483 26025.8 -03455.8 -07.5637 26254.2
 10 07 2013  00 29  -21.0485 26025.6 -03455.8 -07.5637 26254.0
 10 07 2013  00 30  -21.0483 26025.2 -03455.6 -07.5635 26253.7
 10 07 2013  00 31  -21.0482 26024.7 -03455.4 -07.5631 26253.1
 10 07 2013  00 32  -21.0476 26024.1 -03455.1 -07.5627 26252.4
 10 07 2013  00 33  -21.0468 26023.7 -03455.0 -07.5624 26252.0
 10 07 2013  00 34  -21.0458 26023.0 -03454.7 -07.5622 26251.4
 10 07 2013  00 35  -21.0447 26022.1 -03454.4 -07.5616 26250.4
 10 07 2013  00 36  -21.0437 26021.5 -03454.1 -07.5613 26249.7
 10 07 2013  00 37  -21.0427 26020.9 -03454.0 -07.5612 26249.2
 10 07 2013  00 38  -21.0417 26020.8 -03454.1 -07.5615 26249.0
 10 07 2013  00 39  -21.0406 26020.4 -03454.1 -07.5615 26248.7
 10 07 2013  00 40  -21.0395 26020.2 -03454.1 -07.5617 26248.5
 10 07 2013  00 41  -21.0387 26020.0 -03454.2 -07.5618 26248.3
 10 07 2013  00 42  -21.0378 26019.8 -03454.3 -07.5621 26248.0
 10 07 2013  00 43  -21.0370 26019.5 -03454.4 -07.5624 26247.8
 10 07 2013  00 44  -21.0362 26019.2 -03454.4 -07.5625 26247.5
 10 07 2013  00 45  -21.0356 26018.7 -03454.3 -07.5625 26247.0
 10 07 2013  00 46  -21.0350 26018.4 -03454.3 -07.5625 26246.7
 10 07 2013  00 47  -21.0347 26018.0 -03454.3 -07.5626 26246.3
 10 07 2013  00 48  -21.0344 26017.9 -03454.4 -07.5628 26246.2
 10 07 2013  00 49  -21.0342 26017.9 -03454.5 -07.5631 26246.2
 10 07 2013  00 50  -21.0342 26017.9 -03454.7 -07.5636 26246.2
 10 07 2013  00 51  -21.0342 26017.8 -03454.8 -07.5639 26246.2
 10 07 2013  00 52  -21.0339 26018.2 -03455.1 -07.5644 26246.6
 10 07 2013  00 53  -21.0338 26018.4 -03455.4 -07.5648 26246.9
 10 07 2013  00 54  -21.0335 26018.9 -03455.6 -07.5652 26247.3
 10 07 2013  00 55  -21.0330 26019.0 -03455.7 -07.5655 26247.5
 10 07 2013  00 56  -21.0325 26018.8 -03455.7 -07.5655 26247.3
 10 07 2013  00 57  -21.0321 26018.9 -03455.8 -07.5656 26247.4
 10 07 2013  00 58  -21.0317 26019.1 -03455.9 -07.5658 26247.6
 10 07 2013  00 59  -21.0310 26019.2 -03456.0 -07.5660 26247.8
 10 07 2013  01 00  -21.0304 26019.2 -03456.1 -07.5661 26247.8
 10 07 2013  01 01  -21.0294 26019.2 -03456.1 -07.5662 26247.8
 10 07 2013  01 02  -21.0288 26018.8 -03456.0 -07.5660 26247.3
 10 07 2013  01 03  -21.0279 26018.6 -03455.9 -07.5659 26247.1
 10 07 2013  01 04  -21.0276 26018.5 -03455.9 -07.5661 26247.0
 10 07 2013  01 05  -21.0277 26018.0 -03455.9 -07.5661 26246.5
 10 07 2013  01 06  -21.0279 26017.9 -03455.9 -07.5662 26246.5
 10 07 2013  01 07  -21.0283 26017.8 -03456.0 -07.5664 26246.4
 10 07 2013  01 08  -21.0293 26017.7 -03456.1 -07.5667 26246.3
 10 07 2013  01 09  -21.0303 26017.7 -03456.2 -07.5669 26246.3
 10 07 2013  01 10  -21.0311 26017.7 -03456.3 -07.5671 26246.3
 10 07 2013  01 11  -21.0314 26017.9 -03456.5 -07.5674 26246.5
 10 07 2013  01 12  -21.0316 26018.0 -03456.6 -07.5677 26246.6
 10 07 2013  01 13  -21.0318 26018.0 -03456.7 -07.5678 26246.6
 10 07 2013  01 14  -21.0320 26017.9 -03456.6 -07.5678 26246.5
 10 07 2013  01 15  -21.0322 26017.7 -03456.6 -07.5677 26246.3
 10 07 2013  01 16  -21.0323 26017.7 -03456.6 -07.5678 26246.3
 10 07 2013  01 17  -21.0324 26017.5 -03456.6 -07.5678 26246.2
 10 07 2013  01 18  -21.0327 26017.6 -03456.7 -07.5680 26246.3
 10 07 2013  01 19  -21.0333 26017.6 -03456.8 -07.5682 26246.2
 10 07 2013  01 20  -21.0343 26017.5 -03456.9 -07.5684 26246.2
 10 07 2013  01 21  -21.0356 26017.4 -03456.9 -07.5685 26246.1
 10 07 2013  01 22  -21.0371 26017.4 -03456.9 -07.5685 26246.0
 10 07 2013  01 23  -21.0383 26017.8 -03457.1 -07.5689 26246.4
 10 07 2013  01 24  -21.0392 26018.4 -03457.5 -07.5694 26247.1
 10 07 2013  01 25  -21.0400 26018.8 -03457.7 -07.5697 26247.5
 10 07 2013  01 26  -21.0405 26018.9 -03457.7 -07.5698 26247.7
 10 07 2013  01 27  -21.0406 26018.9 -03457.6 -07.5696 26247.7
 10 07 2013  01 28  -21.0405 26019.0 -03457.6 -07.5695 26247.7
 10 07 2013  01 29  -21.0401 26019.0 -03457.6 -07.5694 26247.7
 10 07 2013  01 30  -21.0400 26018.6 -03457.4 -07.5691 26247.3
 10 07 2013  01 31  -21.0405 26018.3 -03457.2 -07.5688 26247.0
 10 07 2013  01 32  -21.0408 26017.9 -03457.0 -07.5685 26246.5
 10 07 2013  01 33  -21.0410 26017.4 -03456.8 -07.5682 26246.0
 10 07 2013  01 34  -21.0407 26017.0 -03456.6 -07.5679 26245.6
 10 07 2013  01 35  -21.0399 26016.9 -03456.5 -07.5678 26245.5
 10 07 2013  01 36  -21.0391 26016.8 -03456.6 -07.5679 26245.4
 10 07 2013  01 37  -21.0384 26016.9 -03456.7 -07.5681 26245.5
 10 07 2013  01 38  -21.0380 26017.1 -03456.9 -07.5685 26245.8
 10 07 2013  01 39  -21.0379 26017.3 -03457.1 -07.5689 26246.0
 10 07 2013  01 40  -21.0380 26017.7 -03457.4 -07.5694 26246.4
 10 07 2013  01 41  -21.0385 26017.7 -03457.5 -07.5696 26246.4
 10 07 2013  01 42  -21.0393 26017.8 -03457.6 -07.5699 26246.6
 10 07 2013  01 43  -21.0399 26017.6 -03457.6 -07.5698 26246.3
 10 07 2013  01 44  -21.0405 26017.6 -03457.5 -07.5698 26246.4
 10 07 2013  01 45  -21.0410 26017.7 -03457.6 -07.5700 26246.4
 10 07 2013  01 46  -21.0411 26017.6 -03457.6 -07.5700 26246.4
 10 07 2013  01 47  -21.0409 26017.5 -03457.6 -07.5699 26246.3
 10 07 2013  01 48  -21.0408 26017.1 -03457.4 -07.5697 26245.9
 10 07 2013  01 49  -21.0407 26016.7 -03457.2 -07.5693 26245.4
 10 07 2013  01 50  -21.0403 26016.5 -03457.1 -07.5692 26245.2
 10 07 2013  01 51  -21.0405 26016.1 -03457.0 -07.5690 26244.8
 10 07 2013  01 52  -21.0406 26015.9 -03456.9 -07.5690 26244.5
 10 07 2013  01 53  -21.0404 26015.3 -03456.8 -07.5688 26243.9
 10 07 2013  01 54  -21.0404 26014.9 -03456.6 -07.5686 26243.5
 10 07 2013  01 55  -21.0401 26014.7 -03456.7 -07.5688 26243.3
 10 07 2013  01 56  -21.0397 26014.4 -03456.6 -07.5687 26243.0
 10 07 2013  01 57  -21.0396 26014.1 -03456.6 -07.5687 26242.7
 10 07 2013  01 58  -21.0396 26013.6 -03456.5 -07.5687 26242.2
 10 07 2013  01 59  -21.0398 26013.4 -03456.5 -07.5689 26242.0
 10 07 2013  02 00  -21.0402 26013.0 -03456.5 -07.5689 26241.6
 10 07 2013  02 01  -21.0407 26012.7 -03456.5 -07.5689 26241.4
 10 07 2013  02 02  -21.0411 26012.5 -03456.5 -07.5690 26241.1
 10 07 2013  02 03  -21.0415 26012.1 -03456.4 -07.5689 26240.7
 10 07 2013  02 04  -21.0415 26011.8 -03456.3 -07.5688 26240.4
 10 07 2013  02 05  -21.0413 26011.7 -03456.3 -07.5689 26240.3
 10 07 2013  02 06  -21.0413 26011.5 -03456.4 -07.5690 26240.2
 10 07 2013  02 07  -21.0410 26011.1 -03456.2 -07.5688 26239.7
 10 07 2013  02 08  -21.0405 26010.8 -03456.1 -07.5687 26239.4
 10 07 2013  02 09  -21.0403 26010.2 -03455.9 -07.5684 26238.8
 10 07 2013  02 10  -21.0400 26010.0 -03455.9 -07.5684 26238.5
 10 07 2013  02 11  -21.0394 26009.9 -03455.9 -07.5685 26238.4
 10 07 2013  02 12  -21.0390 26009.4 -03455.8 -07.5684 26238.0
 10 07 2013  02 13  -21.0389 26009.4 -03456.0 -07.5687 26238.0
 10 07 2013  02 14  -21.0388 26009.0 -03455.9 -07.5687 26237.5
 10 07 2013  02 15  -21.0389 26008.1 -03455.7 -07.5685 26236.7
 10 07 2013  02 16  -21.0390 26006.8 -03455.2 -07.5678 26235.4
 10 07 2013  02 17  -21.0396 26005.5 -03454.8 -07.5673 26234.0
 10 07 2013  02 18  -21.0404 26004.4 -03454.4 -07.5669 26232.8
 10 07 2013  02 19  -21.0409 26003.4 -03454.1 -07.5665 26231.8
 10 07 2013  02 20  -21.0411 26003.1 -03454.1 -07.5665 26231.5
 10 07 2013  02 21  -21.0409 26003.2 -03454.2 -07.5667 26231.6
 10 07 2013  02 22  -21.0406 26003.0 -03454.2 -07.5668 26231.5
 10 07 2013  02 23  -21.0402 26003.0 -03454.2 -07.5669 26231.4
 10 07 2013  02 24  -21.0395 26003.3 -03454.5 -07.5672 26231.8
 10 07 2013  02 25  -21.0391 26003.4 -03454.6 -07.5674 26231.9
 10 07 2013  02 26  -21.0387 26003.6 -03454.7 -07.5678 26232.1
 10 07 2013  02 27  -21.0388 26003.7 -03454.9 -07.5681 26232.3
 10 07 2013  02 28  -21.0393 26003.9 -03455.1 -07.5684 26232.4
 10 07 2013  02 29  -21.0399 26004.2 -03455.3 -07.5688 26232.7
 10 07 2013  02 30  -21.0397 26004.4 -03455.4 -07.5690 26233.0
 10 07 2013  02 31  -21.0395 26004.5 -03455.5 -07.5691 26233.1
 10 07 2013  02 32  -21.0391 26005.1 -03455.7 -07.5695 26233.7
 10 07 2013  02 33  -21.0387 26005.6 -03456.0 -07.5699 26234.2
 10 07 2013  02 34  -21.0383 26006.5 -03456.4 -07.5706 26235.2
 10 07 2013  02 35  -21.0376 26007.3 -03456.9 -07.5713 26236.0
 10 07 2013  02 36  -21.0364 26008.1 -03457.2 -07.5719 26236.9
 10 07 2013  02 37  -21.0357 26008.9 -03457.7 -07.5725 26237.7
 10 07 2013  02 38  -21.0346 26009.6 -03458.0 -07.5731 26238.4
 10 07 2013  02 39  -21.0333 26009.9 -03458.1 -07.5732 26238.7
 10 07 2013  02 40  -21.0330 26010.5 -03458.4 -07.5738 26239.4
 10 07 2013  02 41  -21.0331 26011.1 -03458.7 -07.5742 26240.0
 10 07 2013  02 42  -21.0330 26011.6 -03459.1 -07.5748 26240.6
 10 07 2013  02 43  -21.0329 26011.6 -03459.1 -07.5750 26240.6
 10 07 2013  02 44  -21.0326 26012.3 -03459.5 -07.5757 26241.4
 10 07 2013  02 45  -21.0324 26013.3 -03460.0 -07.5764 26242.4
 10 07 2013  02 46  -21.0323 26015.2 -03461.0 -07.5780 26244.4
 10 07 2013  02 47  -21.0320 26016.4 -03461.5 -07.5787 26245.7
 10 07 2013  02 48  -21.0319 26017.2 -03461.8 -07.5792 26246.5
 10 07 2013  02 49  -21.0316 26017.2 -03461.8 -07.5791 26246.5
 10 07 2013  02 50  -21.0311 26016.8 -03461.5 -07.5786 26246.1
 10 07 2013  02 51  -21.0308 26017.0 -03461.5 -07.5785 26246.3
 10 07 2013  02 52  -21.0301 26017.3 -03461.4 -07.5783 26246.6
 10 07 2013  02 53  -21.0292 26017.7 -03461.4 -07.5782 26247.0
 10 07 2013  02 54  -21.0292 26018.8 -03461.9 -07.5789 26248.1
 10 07 2013  02 55  -21.0292 26019.5 -03462.1 -07.5792 26248.9
 10 07 2013  02 56  -21.0300 26021.0 -03462.8 -07.5802 26250.4
 10 07 2013  02 57  -21.0312 26021.9 -03463.1 -07.5806 26251.3
 10 07 2013  02 58  -21.0327 26022.7 -03463.4 -07.5810 26252.2
 10 07 2013  02 59  -21.0339 26023.1 -03463.3 -07.5807 26252.5
 10 07 2013  03 00  -21.0353 26024.0 -03463.4 -07.5806 26253.4
 10 07 2013  03 01  -21.0368 26024.5 -03463.4 -07.5804 26254.0
 10 07 2013  03 02  -21.0380 26023.9 -03462.6 -07.5790 26253.2
 10 07 2013  03 03  -21.0402 26023.9 -03462.3 -07.5783 26253.2
 10 07 2013  03 04  -21.0426 26023.6 -03461.9 -07.5775 26252.8
 10 07 2013  03 05  -21.0444 26023.3 -03461.5 -07.5768 26252.6
 10 07 2013  03 06  -21.0462 26022.6 -03461.0 -07.5759 26251.8
 10 07 2013  03 07  -21.0474 26021.6 -03460.3 -07.5747 26250.6
 10 07 2013  03 08  -21.0487 26021.2 -03460.0 -07.5741 26250.3
 10 07 2013  03 09  -21.0496 26020.8 -03459.8 -07.5736 26249.8
 10 07 2013  03 10  -21.0506 26020.4 -03459.4 -07.5731 26249.4
 10 07 2013  03 11  -21.0513 26019.7 -03459.0 -07.5723 26248.6
 10 07 2013  03 12  -21.0519 26019.2 -03458.5 -07.5714 26248.0
 10 07 2013  03 13  -21.0529 26018.8 -03458.2 -07.5709 26247.6
 10 07 2013  03 14  -21.0540 26018.2 -03457.8 -07.5702 26246.9
 10 07 2013  03 15  -21.0552 26017.7 -03457.4 -07.5695 26246.4
 10 07 2013  03 16  -21.0558 26017.4 -03457.1 -07.5690 26246.1
 10 07 2013  03 17  -21.0561 26017.2 -03456.9 -07.5686 26245.8
 10 07 2013  03 18  -21.0566 26016.9 -03456.7 -07.5681 26245.5
 10 07 2013  03 19  -21.0567 26016.7 -03456.4 -07.5677 26245.3
 10 07 2013  03 20  -21.0571 26016.4 -03456.2 -07.5673 26245.0
 10 07 2013  03 21  -21.0577 26016.2 -03456.1 -07.5670 26244.8
 10 07 2013  03 22  -21.0580 26016.2 -03456.0 -07.5669 26244.7
 10 07 2013  03 23  -21.0583 26016.0 -03455.9 -07.5667 26244.6
 10 07 2013  03 24  -21.0584 26015.9 -03455.8 -07.5665 26244.4
 10 07 2013  03 25  -21.0589 26015.6 -03455.7 -07.5663 26244.1
 10 07 2013  03 26  -21.0596 26015.5 -03455.7 -07.5664 26244.0
 10 07 2013  03 27  -21.0603 26015.6 -03455.7 -07.5664 26244.1
 10 07 2013  03 28  -21.0609 26015.8 -03455.8 -07.5666 26244.3
 10 07 2013  03 29  -21.0615 26015.9 -03455.9 -07.5667 26244.4
 10 07 2013  03 30  -21.0622 26015.9 -03455.9 -07.5668 26244.4
 10 07 2013  03 31  -21.0626 26015.7 -03455.8 -07.5666 26244.3
 10 07 2013  03 32  -21.0626 26015.7 -03455.7 -07.5664 26244.2
 10 07 2013  03 33  -21.0626 26015.8 -03455.7 -07.5664 26244.3
 10 07 2013  03 34  -21.0624 26015.3 -03455.5 -07.5660 26243.8
 10 07 2013  03 35  -21.0622 26015.0 -03455.3 -07.5658 26243.5
 10 07 2013  03 36  -21.0623 26014.8 -03455.3 -07.5658 26243.2
 10 07 2013  03 37  -21.0624 26013.8 -03454.9 -07.5651 26242.2
 10 07 2013  03 38  -21.0619 26013.1 -03454.5 -07.5645 26241.5
 10 07 2013  03 39  -21.0612 26012.5 -03454.2 -07.5639 26240.8
 10 07 2013  03 40  -21.0610 26012.2 -03454.1 -07.5639 26240.6
 10 07 2013  03 41  -21.0607 26011.9 -03454.1 -07.5640 26240.2
 10 07 2013  03 42  -21.0603 26011.6 -03454.2 -07.5642 26240.0
 10 07 2013  03 43  -21.0602 26011.3 -03454.2 -07.5644 26239.7
 10 07 2013  03 44  -21.0602 26011.2 -03454.3 -07.5647 26239.6
 10 07 2013  03 45  -21.0603 26011.1 -03454.5 -07.5651 26239.5
 10 07 2013  03 46  -21.0601 26011.0 -03454.7 -07.5655 26239.4
 10 07 2013  03 47  -21.0595 26011.1 -03454.8 -07.5658 26239.5
 10 07 2013  03 48  -21.0588 26011.1 -03455.0 -07.5662 26239.5
 10 07 2013  03 49  -21.0585 26011.2 -03455.2 -07.5667 26239.7
 10 07 2013  03 50  -21.0581 26011.2 -03455.4 -07.5671 26239.7
 10 07 2013  03 51  -21.0578 26011.4 -03455.7 -07.5676 26240.0
 10 07 2013  03 52  -21.0579 26011.8 -03456.1 -07.5684 26240.4
 10 07 2013  03 53  -21.0582 26011.9 -03456.3 -07.5687 26240.5
 10 07 2013  03 54  -21.0584 26012.0 -03456.4 -07.5690 26240.6
 10 07 2013  03 55  -21.0584 26012.2 -03456.6 -07.5694 26240.8
 10 07 2013  03 56  -21.0582 26012.1 -03456.6 -07.5694 26240.8
 10 07 2013  03 57  -21.0581 26012.3 -03456.7 -07.5696 26241.0
 10 07 2013  03 58  -21.0581 26012.2 -03456.7 -07.5696 26240.9
 10 07 2013  03 59  -21.0582 26012.2 -03456.8 -07.5697 26240.9
 10 07 2013  04 00  -21.0583 26012.2 -03456.8 -07.5698 26240.9
 10 07 2013  04 01  -21.0584 26012.1 -03456.8 -07.5698 26240.8
 10 07 2013  04 02  -21.0583 26011.9 -03456.8 -07.5698 26240.6
 10 07 2013  04 03  -21.0580 26011.7 -03456.7 -07.5696 26240.4
 10 07 2013  04 04  -21.0581 26011.7 -03456.6 -07.5695 26240.4
 10 07 2013  04 05  -21.0585 26011.7 -03456.7 -07.5697 26240.4
 10 07 2013  04 06  -21.0586 26011.6 -03456.6 -07.5695 26240.2
 10 07 2013  04 07  -21.0586 26011.6 -03456.6 -07.5695 26240.3
 10 07 2013  04 08  -21.0588 26011.6 -03456.6 -07.5695 26240.3
 10 07 2013  04 09  -21.0587 26011.6 -03456.6 -07.5695 26240.3
 10 07 2013  04 10  -21.0586 26011.6 -03456.6 -07.5694 26240.3
 10 07 2013  04 11  -21.0584 26011.6 -03456.6 -07.5694 26240.2
 10 07 2013  04 12  -21.0583 26011.5 -03456.5 -07.5694 26240.1
 10 07 2013  04 13  -21.0584 26011.6 -03456.6 -07.5695 26240.2
 10 07 2013  04 14  -21.0585 26011.4 -03456.6 -07.5695 26240.1
 10 07 2013  04 15  -21.0587 26011.4 -03456.6 -07.5695 26240.0
 10 07 2013  04 16  -21.0588 26011.3 -03456.6 -07.5696 26240.0
 10 07 2013  04 17  -21.0588 26011.2 -03456.5 -07.5694 26239.9
 10 07 2013  04 18  -21.0588 26011.3 -03456.6 -07.5695 26240.0
 10 07 2013  04 19  -21.0587 26011.3 -03456.6 -07.5695 26240.0
 10 07 2013  04 20  -21.0587 26011.4 -03456.6 -07.5696 26240.1
 10 07 2013  04 21  -21.0591 26011.5 -03456.7 -07.5698 26240.2
 10 07 2013  04 22  -21.0591 26011.9 -03456.9 -07.5700 26240.6
 10 07 2013  04 23  -21.0592 26012.1 -03456.9 -07.5701 26240.8
 10 07 2013  04 24  -21.0588 26011.9 -03456.8 -07.5698 26240.5
 10 07 2013  04 25  -21.0584 26011.8 -03456.8 -07.5698 26240.5
 10 07 2013  04 26  -21.0581 26011.9 -03456.8 -07.5698 26240.6
 10 07 2013  04 27  -21.0578 26012.2 -03456.9 -07.5699 26240.9
 10 07 2013  04 28  -21.0578 26012.3 -03456.9 -07.5700 26241.0
 10 07 2013  04 29  -21.0576 26012.2 -03456.9 -07.5699 26240.9
 10 07 2013  04 30  -21.0572 26012.1 -03456.9 -07.5699 26240.8
 10 07 2013  04 31  -21.0571 26012.0 -03456.8 -07.5699 26240.7
 10 07 2013  04 32  -21.0571 26012.2 -03456.9 -07.5701 26240.9
 10 07 2013  04 33  -21.0573 26012.1 -03457.0 -07.5701 26240.8
 10 07 2013  04 34  -21.0576 26012.0 -03457.0 -07.5702 26240.7
 10 07 2013  04 35  -21.0585 26012.0 -03457.0 -07.5703 26240.7
 10 07 2013  04 36  -21.0592 26011.8 -03457.0 -07.5702 26240.5
 10 07 2013  04 37  -21.0599 26011.8 -03457.0 -07.5703 26240.5
 10 07 2013  04 38  -21.0609 26011.8 -03457.0 -07.5704 26240.5
 10 07 2013  04 39  -21.0618 26011.8 -03457.1 -07.5704 26240.5
 10 07 2013  04 40  -21.0622 26011.8 -03457.0 -07.5703 26240.5
 10 07 2013  04 41  -21.0626 26011.8 -03457.0 -07.5703 26240.6
 10 07 2013  04 42  -21.0629 26012.0 -03457.1 -07.5704 26240.7
 10 07 2013  04 43  -21.0634 26012.0 -03457.1 -07.5705 26240.7
 10 07 2013  04 44  -21.0637 26012.0 -03457.1 -07.5704 26240.7
 10 07 2013  04 45  -21.0638 26012.2 -03457.2 -07.5706 26240.9
 10 07 2013  04 46  -21.0643 26012.4 -03457.3 -07.5707 26241.1
 10 07 2013  04 47  -21.0646 26012.4 -03457.3 -07.5707 26241.1
 10 07 2013  04 48  -21.0647 26012.4 -03457.3 -07.5707 26241.2
 10 07 2013  04 49  -21.0649 26012.3 -03457.2 -07.5706 26241.0
 10 07 2013  04 50  -21.0649 26012.4 -03457.2 -07.5706 26241.2
 10 07 2013  04 51  -21.0651 26012.5 -03457.2 -07.5706 26241.2
 10 07 2013  04 52  -21.0654 26012.5 -03457.2 -07.5706 26241.3
 10 07 2013  04 53  -21.0657 26012.7 -03457.3 -07.5707 26241.4
 10 07 2013  04 54  -21.0658 26012.7 -03457.3 -07.5706 26241.4
 10 07 2013  04 55  -21.0662 26012.7 -03457.3 -07.5706 26241.4
 10 07 2013  04 56  -21.0664 26012.6 -03457.2 -07.5705 26241.3
 10 07 2013  04 57  -21.0662 26012.5 -03457.1 -07.5703 26241.2
 10 07 2013  04 58  -21.0659 26012.6 -03457.1 -07.5703 26241.3
 10 07 2013  04 59  -21.0658 26012.3 -03457.0 -07.5702 26241.1
 10 07 2013  05 00  -21.0656 26012.1 -03456.9 -07.5699 26240.8
 10 07 2013  05 01  -21.0652 26011.9 -03456.8 -07.5697 26240.5
 10 07 2013  05 02  -21.0650 26011.6 -03456.7 -07.5697 26240.3
 10 07 2013  05 03  -21.0649 26011.4 -03456.6 -07.5695 26240.1
 10 07 2013  05 04  -21.0649 26011.3 -03456.5 -07.5695 26239.9
 10 07 2013  05 05  -21.0648 26011.2 -03456.6 -07.5695 26239.9
 10 07 2013  05 06  -21.0646 26011.0 -03456.5 -07.5694 26239.6
 10 07 2013  05 07  -21.0645 26010.7 -03456.4 -07.5693 26239.3
 10 07 2013  05 08  -21.0642 26010.5 -03456.4 -07.5693 26239.2
 10 07 2013  05 09  -21.0639 26010.4 -03456.3 -07.5693 26239.0
 10 07 2013  05 10  -21.0640 26010.2 -03456.3 -07.5693 26238.9
 10 07 2013  05 11  -21.0644 26010.1 -03456.4 -07.5695 26238.7
 10 07 2013  05 12  -21.0647 26009.8 -03456.3 -07.5694 26238.5
 10 07 2013  05 13  -21.0650 26009.6 -03456.2 -07.5693 26238.3
 10 07 2013  05 14  -21.0654 26009.4 -03456.1 -07.5692 26238.0
 10 07 2013  05 15  -21.0658 26009.3 -03456.1 -07.5692 26237.9
 10 07 2013  05 16  -21.0664 26009.2 -03456.1 -07.5691 26237.8
 10 07 2013  05 17  -21.0669 26009.2 -03456.1 -07.5692 26237.8
 10 07 2013  05 18  -21.0669 26009.2 -03456.1 -07.5692 26237.8
 10 07 2013  05 19  -21.0668 26009.2 -03456.1 -07.5692 26237.8
 10 07 2013  05 20  -21.0668 26009.2 -03456.2 -07.5693 26237.8
 10 07 2013  05 21  -21.0667 26009.0 -03456.1 -07.5691 26237.6
 10 07 2013  05 22  -21.0668 26008.8 -03456.0 -07.5689 26237.4
 10 07 2013  05 23  -21.0670 26008.4 -03455.8 -07.5687 26237.0
 10 07 2013  05 24  -21.0669 26008.1 -03455.7 -07.5684 26236.7
 10 07 2013  05 25  -21.0667 26007.9 -03455.6 -07.5684 26236.5
 10 07 2013  05 26  -21.0666 26007.6 -03455.5 -07.5683 26236.2
 10 07 2013  05 27  -21.0666 26007.3 -03455.4 -07.5681 26235.9
 10 07 2013  05 28  -21.0666 26007.2 -03455.3 -07.5681 26235.7
 10 07 2013  05 29  -21.0666 26007.1 -03455.4 -07.5682 26235.6
 10 07 2013  05 30  -21.0664 26007.2 -03455.5 -07.5684 26235.8
 10 07 2013  05 31  -21.0665 26007.2 -03455.6 -07.5686 26235.8
 10 07 2013  05 32  -21.0666 26007.1 -03455.6 -07.5686 26235.6
 10 07 2013  05 33  -21.0668 26006.9 -03455.6 -07.5686 26235.4
 10 07 2013  05 34  -21.0670 26006.7 -03455.5 -07.5685 26235.2
 10 07 2013  05 35  -21.0672 26006.5 -03455.5 -07.5685 26235.1
 10 07 2013  05 36  -21.0676 26006.4 -03455.5 -07.5685 26235.0
 10 07 2013  05 37  -21.0683 26006.3 -03455.5 -07.5686 26234.9
 10 07 2013  05 38  -21.0690 26006.1 -03455.4 -07.5685 26234.7
 10 07 2013  05 39  -21.0697 26005.9 -03455.4 -07.5684 26234.5
 10 07 2013  05 40  -21.0702 26005.9 -03455.3 -07.5684 26234.5
 10 07 2013  05 41  -21.0706 26005.9 -03455.3 -07.5684 26234.4
 10 07 2013  05 42  -21.0708 26005.7 -03455.3 -07.5683 26234.2
 10 07 2013  05 43  -21.0711 26005.4 -03455.1 -07.5681 26234.0
 10 07 2013  05 44  -21.0712 26005.2 -03455.0 -07.5680 26233.7
 10 07 2013  05 45  -21.0712 26004.9 -03454.9 -07.5677 26233.4
 10 07 2013  05 46  -21.0714 26004.5 -03454.7 -07.5674 26232.9
 10 07 2013  05 47  -21.0717 26003.7 -03454.4 -07.5669 26232.2
 10 07 2013  05 48  -21.0720 26003.1 -03454.1 -07.5665 26231.5
 10 07 2013  05 49  -21.0721 26002.7 -03453.9 -07.5662 26231.1
 10 07 2013  05 50  -21.0724 26002.3 -03453.8 -07.5661 26230.7
 10 07 2013  05 51  -21.0725 26002.0 -03453.7 -07.5660 26230.4
 10 07 2013  05 52  -21.0723 26002.0 -03453.8 -07.5662 26230.3
 10 07 2013  05 53  -21.0719 26001.7 -03453.8 -07.5662 26230.1
 10 07 2013  05 54  -21.0716 26001.5 -03453.8 -07.5663 26229.8
 10 07 2013  05 55  -21.0715 26001.3 -03453.8 -07.5664 26229.7
 10 07 2013  05 56  -21.0715 26001.2 -03453.9 -07.5666 26229.6
 10 07 2013  05 57  -21.0713 26000.9 -03453.9 -07.5667 26229.2
 10 07 2013  05 58  -21.0710 26000.7 -03453.9 -07.5668 26229.1
 10 07 2013  05 59  -21.0707 26000.5 -03453.9 -07.5668 26228.9
 10 07 2013  06 00  -21.0705 26000.2 -03453.9 -07.5669 26228.6
 10 07 2013  06 01  -21.0704 26000.1 -03454.0 -07.5671 26228.5
 10 07 2013  06 02  -21.0703 26000.0 -03454.0 -07.5672 26228.4
 10 07 2013  06 03  -21.0704 25999.9 -03454.1 -07.5675 26228.3
 10 07 2013  06 04  -21.0708 26000.1 -03454.4 -07.5680 26228.5
 10 07 2013  06 05  -21.0714 26000.5 -03454.7 -07.5686 26229.0
 10 07 2013  06 06  -21.0720 26000.9 -03455.0 -07.5692 26229.4
 10 07 2013  06 07  -21.0726 26001.3 -03455.3 -07.5697 26229.9
 10 07 2013  06 08  -21.0730 26001.6 -03455.6 -07.5702 26230.2
 10 07 2013  06 09  -21.0732 26001.8 -03455.7 -07.5703 26230.5
 10 07 2013  06 10  -21.0731 26002.0 -03455.7 -07.5703 26230.6
 10 07 2013  06 11  -21.0731 26002.3 -03455.9 -07.5706 26231.0
 10 07 2013  06 12  -21.0732 26002.5 -03456.0 -07.5709 26231.2
 10 07 2013  06 13  -21.0733 26002.5 -03456.0 -07.5708 26231.2
 10 07 2013  06 14  -21.0735 26002.5 -03456.0 -07.5708 26231.2
 10 07 2013  06 15  -21.0736 26002.5 -03456.0 -07.5708 26231.2
 10 07 2013  06 16  -21.0737 26002.5 -03456.0 -07.5709 26231.2
 10 07 2013  06 17  -21.0740 26002.8 -03456.1 -07.5710 26231.4
 10 07 2013  06 18  -21.0746 26003.1 -03456.3 -07.5713 26231.8
 10 07 2013  06 19  -21.0753 26003.3 -03456.5 -07.5716 26232.0
 10 07 2013  06 20  -21.0757 26003.5 -03456.5 -07.5717 26232.2
 10 07 2013  06 21  -21.0759 26003.6 -03456.5 -07.5717 26232.3
 10 07 2013  06 22  -21.0760 26003.9 -03456.6 -07.5717 26232.6
 10 07 2013  06 23  -21.0763 26004.0 -03456.7 -07.5718 26232.8
 10 07 2013  06 24  -21.0764 26004.3 -03456.8 -07.5720 26233.0
 10 07 2013  06 25  -21.0769 26004.5 -03456.9 -07.5721 26233.2
 10 07 2013  06 26  -21.0771 26004.7 -03456.9 -07.5722 26233.4
 10 07 2013  06 27  -21.0772 26004.7 -03456.9 -07.5721 26233.5
 10 07 2013  06 28  -21.0773 26004.8 -03456.9 -07.5721 26233.6
 10 07 2013  06 29  -21.0775 26004.9 -03456.9 -07.5720 26233.6
 10 07 2013  06 30  -21.0775 26005.0 -03456.9 -07.5720 26233.7
 10 07 2013  06 31  -21.0773 26005.1 -03456.9 -07.5720 26233.8
 10 07 2013  06 32  -21.0771 26005.0 -03456.8 -07.5719 26233.8
 10 07 2013  06 33  -21.0764 26005.0 -03456.8 -07.5718 26233.7
 10 07 2013  06 34  -21.0755 26004.8 -03456.7 -07.5716 26233.5
 10 07 2013  06 35  -21.0744 26004.6 -03456.5 -07.5713 26233.3
 10 07 2013  06 36  -21.0733 26004.4 -03456.4 -07.5711 26233.1
 10 07 2013  06 37  -21.0723 26004.2 -03456.4 -07.5711 26232.9
 10 07 2013  06 38  -21.0718 26004.1 -03456.4 -07.5711 26232.8
 10 07 2013  06 39  -21.0715 26004.1 -03456.5 -07.5714 26232.8
 10 07 2013  06 40  -21.0714 26004.2 -03456.6 -07.5716 26232.9
 10 07 2013  06 41  -21.0716 26004.3 -03456.8 -07.5720 26233.0
 10 07 2013  06 42  -21.0720 26004.3 -03456.9 -07.5723 26233.1
 10 07 2013  06 43  -21.0726 26004.4 -03457.1 -07.5725 26233.2
 10 07 2013  06 44  -21.0733 26004.5 -03457.2 -07.5728 26233.3
 10 07 2013  06 45  -21.0738 26004.6 -03457.2 -07.5729 26233.4
 10 07 2013  06 46  -21.0742 26004.7 -03457.3 -07.5729 26233.5
 10 07 2013  06 47  -21.0742 26004.7 -03457.2 -07.5728 26233.5
 10 07 2013  06 48  -21.0743 26004.5 -03457.1 -07.5726 26233.3
 10 07 2013  06 49  -21.0741 26004.4 -03457.1 -07.5725 26233.2
 10 07 2013  06 50  -21.0735 26004.4 -03457.0 -07.5724 26233.1
 10 07 2013  06 51  -21.0731 26004.4 -03457.0 -07.5725 26233.2
 10 07 2013  06 52  -21.0727 26004.4 -03457.0 -07.5725 26233.2
 10 07 2013  06 53  -21.0722 26004.5 -03457.1 -07.5727 26233.3
 10 07 2013  06 54  -21.0718 26004.7 -03457.3 -07.5729 26233.5
 10 07 2013  06 55  -21.0714 26005.1 -03457.5 -07.5732 26233.9
 10 07 2013  06 56  -21.0709 26005.4 -03457.7 -07.5736 26234.3
 10 07 2013  06 57  -21.0705 26005.9 -03458.0 -07.5741 26234.8
 10 07 2013  06 58  -21.0705 26006.2 -03458.2 -07.5744 26235.2
 10 07 2013  06 59  -21.0704 26006.6 -03458.4 -07.5747 26235.5
 10 07 2013  07 00  -21.0704 26006.9 -03458.5 -07.5750 26235.9
 10 07 2013  07 01  -21.0704 26007.2 -03458.6 -07.5752 26236.1
 10 07 2013  07 02  -21.0704 26007.3 -03458.8 -07.5754 26236.3
 10 07 2013  07 03  -21.0709 26007.6 -03458.9 -07.5756 26236.6
 10 07 2013  07 04  -21.0713 26007.9 -03459.0 -07.5758 26236.9
 10 07 2013  07 05  -21.0714 26007.9 -03458.9 -07.5756 26236.9
 10 07 2013  07 06  -21.0717 26007.8 -03458.9 -07.5755 26236.8
 10 07 2013  07 07  -21.0718 26008.0 -03458.9 -07.5755 26237.0
 10 07 2013  07 08  -21.0718 26008.2 -03458.9 -07.5755 26237.2
 10 07 2013  07 09  -21.0718 26008.5 -03459.0 -07.5756 26237.5
 10 07 2013  07 10  -21.0718 26009.0 -03459.2 -07.5758 26238.0
 10 07 2013  07 11  -21.0720 26009.6 -03459.4 -07.5762 26238.6
 10 07 2013  07 12  -21.0721 26010.0 -03459.6 -07.5764 26239.1
 10 07 2013  07 13  -21.0724 26010.4 -03459.7 -07.5766 26239.5
 10 07 2013  07 14  -21.0726 26011.2 -03460.0 -07.5770 26240.3
 10 07 2013  07 15  -21.0724 26011.9 -03460.2 -07.5773 26241.0
 10 07 2013  07 16  -21.0723 26012.0 -03460.2 -07.5771 26241.2
 10 07 2013  07 17  -21.0715 26012.1 -03460.1 -07.5769 26241.2
 10 07 2013  07 18  -21.0705 26012.3 -03460.0 -07.5767 26241.4
 10 07 2013  07 19  -21.0698 26012.5 -03460.0 -07.5766 26241.6
 10 07 2013  07 20  -21.0695 26012.7 -03460.1 -07.5767 26241.8
 10 07 2013  07 21  -21.0696 26013.0 -03460.2 -07.5768 26242.1
 10 07 2013  07 22  -21.0702 26012.9 -03460.1 -07.5768 26242.0
 10 07 2013  07 23  -21.0709 26012.8 -03460.1 -07.5767 26241.9
 10 07 2013  07 24  -21.0715 26012.9 -03460.1 -07.5767 26242.0
 10 07 2013  07 25  -21.0719 26012.8 -03460.0 -07.5766 26241.9
 10 07 2013  07 26  -21.0723 26012.6 -03459.9 -07.5763 26241.7
 10 07 2013  07 27  -21.0724 26012.7 -03459.9 -07.5763 26241.7
 10 07 2013  07 28  -21.0723 26012.2 -03459.6 -07.5758 26241.3
 10 07 2013  07 29  -21.0723 26011.7 -03459.3 -07.5753 26240.7
 10 07 2013  07 30  -21.0729 26011.5 -03459.2 -07.5751 26240.5
 10 07 2013  07 31  -21.0735 26011.2 -03459.1 -07.5750 26240.2
 10 07 2013  07 32  -21.0743 26010.8 -03458.9 -07.5747 26239.7
 10 07 2013  07 33  -21.0750 26010.0 -03458.6 -07.5742 26238.9
 10 07 2013  07 34  -21.0756 26009.4 -03458.3 -07.5738 26238.3
 10 07 2013  07 35  -21.0761 26009.0 -03458.1 -07.5736 26237.9
 10 07 2013  07 36  -21.0765 26009.0 -03458.2 -07.5737 26237.9
 10 07 2013  07 37  -21.0769 26009.1 -03458.3 -07.5739 26238.0
 10 07 2013  07 38  -21.0768 26009.2 -03458.4 -07.5740 26238.1
 10 07 2013  07 39  -21.0768 26009.1 -03458.4 -07.5740 26238.0
 10 07 2013  07 40  -21.0770 26009.1 -03458.4 -07.5742 26238.1
 10 07 2013  07 41  -21.0775 26009.1 -03458.5 -07.5742 26238.1
 10 07 2013  07 42  -21.0776 26009.0 -03458.4 -07.5742 26237.9
 10 07 2013  07 43  -21.0773 26008.8 -03458.3 -07.5739 26237.7
 10 07 2013  07 44  -21.0768 26008.8 -03458.2 -07.5738 26237.7
 10 07 2013  07 45  -21.0760 26008.8 -03458.2 -07.5738 26237.7
 10 07 2013  07 46  -21.0748 26008.8 -03458.2 -07.5737 26237.7
 10 07 2013  07 47  -21.0739 26008.7 -03458.2 -07.5737 26237.6
 10 07 2013  07 48  -21.0734 26008.6 -03458.1 -07.5737 26237.5
 10 07 2013  07 49  -21.0733 26008.4 -03458.1 -07.5737 26237.3
 10 07 2013  07 50  -21.0732 26007.9 -03457.9 -07.5734 26236.8
 10 07 2013  07 51  -21.0732 26007.4 -03457.7 -07.5731 26236.3
 10 07 2013  07 52  -21.0732 26007.2 -03457.7 -07.5731 26236.0
 10 07 2013  07 53  -21.0729 26006.9 -03457.6 -07.5730 26235.8
 10 07 2013  07 54  -21.0723 26006.8 -03457.6 -07.5730 26235.6
 10 07 2013  07 55  -21.0717 26006.8 -03457.6 -07.5731 26235.7
 10 07 2013  07 56  -21.0713 26006.9 -03457.8 -07.5734 26235.7
 10 07 2013  07 57  -21.0702 26007.3 -03458.0 -07.5737 26236.2
 10 07 2013  07 58  -21.0688 26008.0 -03458.3 -07.5743 26236.9
 10 07 2013  07 59  -21.0682 26008.4 -03458.7 -07.5749 26237.4
 10 07 2013  08 00  -21.0679 26008.5 -03458.8 -07.5752 26237.5
 10 07 2013  08 01  -21.0677 26008.9 -03459.0 -07.5754 26237.9
 10 07 2013  08 02  -21.0676 26009.0 -03459.1 -07.5756 26238.1
 10 07 2013  08 03  -21.0679 26009.1 -03459.2 -07.5758 26238.1
 10 07 2013  08 04  -21.0688 26009.2 -03459.2 -07.5759 26238.2
 10 07 2013  08 05  -21.0694 26009.3 -03459.3 -07.5760 26238.3
 10 07 2013  08 06  -21.0698 26009.3 -03459.2 -07.5758 26238.3
 10 07 2013  08 07  -21.0700 26009.4 -03459.2 -07.5757 26238.4
 10 07 2013  08 08  -21.0701 26009.2 -03459.1 -07.5755 26238.3
 10 07 2013  08 09  -21.0702 26009.1 -03458.9 -07.5753 26238.1
 10 07 2013  08 10  -21.0704 26009.0 -03458.8 -07.5750 26238.0
 10 07 2013  08 11  -21.0710 26008.7 -03458.6 -07.5747 26237.6
 10 07 2013  08 12  -21.0719 26008.4 -03458.5 -07.5745 26237.3
 10 07 2013  08 13  -21.0725 26008.2 -03458.4 -07.5743 26237.1
 10 07 2013  08 14  -21.0734 26008.2 -03458.3 -07.5742 26237.1
 10 07 2013  08 15  -21.0738 26008.3 -03458.4 -07.5743 26237.2
 10 07 2013  08 16  -21.0739 26008.3 -03458.3 -07.5742 26237.3
 10 07 2013  08 17  -21.0742 26008.5 -03458.4 -07.5742 26237.4
 10 07 2013  08 18  -21.0749 26008.8 -03458.5 -07.5745 26237.7
 10 07 2013  08 19  -21.0753 26008.8 -03458.5 -07.5744 26237.7
 10 07 2013  08 20  -21.0753 26008.8 -03458.4 -07.5742 26237.7
 10 07 2013  08 21  -21.0753 26008.6 -03458.2 -07.5739 26237.5
 10 07 2013  08 22  -21.0756 26008.4 -03458.1 -07.5736 26237.3
 10 07 2013  08 23  -21.0760 26008.3 -03457.9 -07.5733 26237.2
 10 07 2013  08 24  -21.0762 26008.2 -03457.8 -07.5731 26237.1
 10 07 2013  08 25  -21.0762 26008.6 -03457.9 -07.5731 26237.4
 10 07 2013  08 26  -21.0764 26008.8 -03458.1 -07.5735 26237.7
 10 07 2013  08 27  -21.0766 26008.9 -03458.1 -07.5735 26237.7
 10 07 2013  08 28  -21.0762 26009.0 -03458.1 -07.5734 26237.9
 10 07 2013  08 29  -21.0758 26009.1 -03458.0 -07.5732 26238.0
 10 07 2013  08 30  -21.0750 26009.3 -03458.0 -07.5731 26238.1
 10 07 2013  08 31  -21.0741 26009.4 -03458.0 -07.5731 26238.2
 10 07 2013  08 32  -21.0740 26009.4 -03457.9 -07.5730 26238.3
 10 07 2013  08 33  -21.0741 26009.3 -03457.9 -07.5729 26238.2
 10 07 2013  08 34  -21.0737 26009.1 -03457.7 -07.5725 26238.0
 10 07 2013  08 35  -21.0736 26008.9 -03457.4 -07.5721 26237.7
 10 07 2013  08 36  -21.0733 26008.6 -03457.2 -07.5717 26237.4
 10 07 2013  08 37  -21.0729 26008.4 -03457.0 -07.5714 26237.1
 10 07 2013  08 38  -21.0726 26008.2 -03456.9 -07.5711 26237.0
 10 07 2013  08 39  -21.0726 26008.0 -03456.8 -07.5709 26236.7
 10 07 2013  08 40  -21.0726 26008.0 -03456.7 -07.5708 26236.7
 10 07 2013  08 41  -21.0720 26007.9 -03456.6 -07.5705 26236.6
 10 07 2013  08 42  -21.0714 26007.8 -03456.4 -07.5701 26236.4
 10 07 2013  08 43  -21.0711 26007.9 -03456.4 -07.5701 26236.5
 10 07 2013  08 44  -21.0703 26007.8 -03456.3 -07.5699 26236.5
 10 07 2013  08 45  -21.0692 26007.8 -03456.2 -07.5696 26236.5
 10 07 2013  08 46  -21.0682 26007.9 -03456.1 -07.5695 26236.5
 10 07 2013  08 47  -21.0669 26007.7 -03456.0 -07.5693 26236.3
 10 07 2013  08 48  -21.0661 26007.4 -03455.8 -07.5691 26236.0
 10 07 2013  08 49  -21.0661 26006.6 -03455.5 -07.5685 26235.1
 10 07 2013  08 50  -21.0650 26005.5 -03454.7 -07.5671 26234.0
 10 07 2013  08 51  -21.0641 26005.1 -03454.3 -07.5665 26233.5
 10 07 2013  08 52  -21.0628 26004.8 -03454.2 -07.5662 26233.2
 10 07 2013  08 53  -21.0609 26004.4 -03453.9 -07.5658 26232.8
 10 07 2013  08 54  -21.0589 26004.2 -03453.7 -07.5654 26232.6
 10 07 2013  08 55  -21.0574 26004.2 -03453.9 -07.5657 26232.6
 10 07 2013  08 56  -21.0561 26004.6 -03454.2 -07.5664 26233.0
 10 07 2013  08 57  -21.0553 26005.0 -03454.6 -07.5671 26233.4
 10 07 2013  08 58  -21.0550 26005.5 -03455.0 -07.5678 26234.0
 10 07 2013  08 59  -21.0544 26006.0 -03455.4 -07.5686 26234.6
 10 07 2013  09 00  -21.0533 26006.2 -03455.6 -07.5689 26234.8
 10 07 2013  09 01  -21.0526 26006.4 -03455.8 -07.5693 26235.0
 10 07 2013  09 02  -21.0515 26006.4 -03456.0 -07.5696 26235.0
 10 07 2013  09 03  -21.0502 26006.4 -03456.1 -07.5698 26235.1
 10 07 2013  09 04  -21.0486 26006.2 -03456.1 -07.5699 26234.8
 10 07 2013  09 05  -21.0472 26006.0 -03456.1 -07.5701 26234.7
 10 07 2013  09 06  -21.0450 26005.9 -03456.3 -07.5704 26234.6
 10 07 2013  09 07  -21.0433 26005.9 -03456.4 -07.5707 26234.6
 10 07 2013  09 08  -21.0407 26005.7 -03456.4 -07.5708 26234.4
 10 07 2013  09 09  -21.0390 26005.6 -03456.5 -07.5711 26234.3
 10 07 2013  09 10  -21.0371 26005.5 -03456.7 -07.5714 26234.2
 10 07 2013  09 11  -21.0366 26005.4 -03457.0 -07.5721 26234.2
 10 07 2013  09 12  -21.0361 26005.7 -03457.4 -07.5730 26234.5
 10 07 2013  09 13  -21.0361 26006.4 -03458.1 -07.5742 26235.3
 10 07 2013  09 14  -21.0358 26006.6 -03458.4 -07.5749 26235.6
 10 07 2013  09 15  -21.0352 26007.0 -03458.8 -07.5755 26236.0
 10 07 2013  09 16  -21.0347 26007.3 -03459.1 -07.5760 26236.4
 10 07 2013  09 17  -21.0345 26007.6 -03459.4 -07.5767 26236.7
 10 07 2013  09 18  -21.0332 26007.9 -03459.7 -07.5772 26237.0
 10 07 2013  09 19  -21.0315 26008.1 -03459.9 -07.5777 26237.2
 10 07 2013  09 20  -21.0299 26008.3 -03460.2 -07.5782 26237.4
 10 07 2013  09 21  -21.0290 26008.3 -03460.5 -07.5788 26237.5
 10 07 2013  09 22  -21.0278 26008.1 -03460.7 -07.5794 26237.3
 10 07 2013  09 23  -21.0270 26008.2 -03461.1 -07.5801 26237.5
 10 07 2013  09 24  -21.0262 26008.4 -03461.6 -07.5811 26237.8
 10 07 2013  09 25  -21.0251 26008.9 -03462.1 -07.5821 26238.3
 10 07 2013  09 26  -21.0235 26009.2 -03462.5 -07.5829 26238.7
 10 07 2013  09 27  -21.0220 26009.9 -03463.0 -07.5839 26239.4
 10 07 2013  09 28  -21.0207 26010.4 -03463.5 -07.5848 26239.9
 10 07 2013  09 29  -21.0188 26011.0 -03464.0 -07.5857 26240.6
 10 07 2013  09 30  -21.0170 26011.6 -03464.5 -07.5866 26241.3
 10 07 2013  09 31  -21.0167 26011.9 -03464.9 -07.5875 26241.7
 10 07 2013  09 32  -21.0159 26012.3 -03465.4 -07.5884 26242.2
 10 07 2013  09 33  -21.0147 26012.8 -03465.9 -07.5893 26242.7
 10 07 2013  09 34  -21.0120 26013.1 -03466.2 -07.5899 26243.0
 10 07 2013  09 35  -21.0109 26013.1 -03466.6 -07.5906 26243.1
 10 07 2013  09 36  -21.0107 26013.1 -03467.0 -07.5915 26243.2
 10 07 2013  09 37  -21.0083 26013.6 -03467.5 -07.5924 26243.7
 10 07 2013  09 38  -21.0062 26013.9 -03467.9 -07.5932 26244.0
 10 07 2013  09 39  -21.0063 26013.9 -03468.3 -07.5941 26244.1
 10 07 2013  09 40  -21.0046 26014.6 -03468.9 -07.5952 26244.9
 10 07 2013  09 41  -21.0024 26014.9 -03469.2 -07.5959 26245.2
 10 07 2013  09 42  -21.0002 26014.8 -03469.5 -07.5966 26245.2
 10 07 2013  09 43  -20.9981 26014.9 -03469.9 -07.5973 26245.2
 10 07 2013  09 44  -20.9972 26015.5 -03470.6 -07.5987 26246.0
 10 07 2013  09 45  -20.9940 26016.0 -03471.1 -07.5996 26246.6
 10 07 2013  09 46  -20.9916 26016.5 -03471.6 -07.6006 26247.1
 10 07 2013  09 47  -20.9900 26016.6 -03471.9 -07.6012 26247.2
 10 07 2013  09 48  -20.9891 26016.3 -03472.1 -07.6018 26246.9
 10 07 2013  09 49  -20.9887 26016.0 -03472.3 -07.6022 26246.7
 10 07 2013  09 50  -20.9879 26016.3 -03472.8 -07.6032 26247.1
 10 07 2013  09 51  -20.9877 26016.5 -03473.3 -07.6041 26247.4
 10 07 2013  09 52  -20.9868 26016.7 -03473.6 -07.6048 26247.6
 10 07 2013  09 53  -20.9862 26016.5 -03473.8 -07.6053 26247.4
 10 07 2013  09 54  -20.9869 26015.9 -03473.8 -07.6056 26246.8
 10 07 2013  09 55  -20.9876 26015.4 -03474.0 -07.6060 26246.3
 10 07 2013  09 56  -20.9887 26014.5 -03474.0 -07.6063 26245.4
 10 07 2013  09 57  -20.9893 26014.2 -03474.2 -07.6069 26245.1
 10 07 2013  09 58  -20.9893 26014.2 -03474.6 -07.6076 26245.2
 10 07 2013  09 59  -20.9892 26014.2 -03475.0 -07.6084 26245.3
 10 07 2013  10 00  -20.9900 26014.3 -03475.4 -07.6094 26245.4
 10 07 2013  10 01  -20.9910 26014.4 -03475.7 -07.6101 26245.5
 10 07 2013  10 02  -20.9917 26014.3 -03476.0 -07.6107 26245.5
 10 07 2013  10 03  -20.9921 26014.2 -03476.2 -07.6111 26245.5
 10 07 2013  10 04  -20.9924 26013.6 -03476.1 -07.6112 26244.8
 10 07 2013  10 05  -20.9931 26012.8 -03476.0 -07.6112 26244.0
 10 07 2013  10 06  -20.9942 26012.8 -03476.3 -07.6117 26244.1
 10 07 2013  10 07  -20.9944 26012.7 -03476.5 -07.6122 26244.0
 10 07 2013  10 08  -20.9938 26012.5 -03476.6 -07.6125 26243.8
 10 07 2013  10 09  -20.9940 26012.3 -03476.7 -07.6129 26243.6
 10 07 2013  10 10  -20.9939 26011.9 -03476.9 -07.6133 26243.2
 10 07 2013  10 11  -20.9938 26011.9 -03477.2 -07.6140 26243.3
 10 07 2013  10 12  -20.9945 26012.2 -03477.7 -07.6149 26243.7
 10 07 2013  10 13  -20.9950 26012.4 -03478.0 -07.6156 26243.8
 10 07 2013  10 14  -20.9955 26012.5 -03478.2 -07.6160 26244.0
 10 07 2013  10 15  -20.9965 26012.6 -03478.5 -07.6167 26244.1
 10 07 2013  10 16  -20.9973 26012.9 -03478.8 -07.6172 26244.5
 10 07 2013  10 17  -20.9967 26012.9 -03478.9 -07.6173 26244.5
 10 07 2013  10 18  -20.9965 26013.0 -03478.9 -07.6174 26244.6
 10 07 2013  10 19  -20.9975 26013.6 -03479.3 -07.6180 26245.2
 10 07 2013  10 20  -20.9994 26013.4 -03479.4 -07.6182 26245.1
 10 07 2013  10 21  -21.0006 26013.4 -03479.4 -07.6182 26245.0
 10 07 2013  10 22  -21.0016 26013.5 -03479.4 -07.6182 26245.1
 10 07 2013  10 23  -21.0011 26013.4 -03479.3 -07.6181 26245.0
 10 07 2013  10 24  -21.0007 26013.3 -03479.2 -07.6178 26245.0
 10 07 2013  10 25  -21.0014 26013.5 -03479.3 -07.6180 26245.2
 10 07 2013  10 26  -21.0021 26013.7 -03479.3 -07.6181 26245.3
 10 07 2013  10 27  -21.0017 26013.7 -03479.3 -07.6180 26245.4
 10 07 2013  10 28  -21.0006 26013.5 -03479.1 -07.6176 26245.1
 10 07 2013  10 29  -20.9999 26013.0 -03478.9 -07.6173 26244.6
 10 07 2013  10 30  -20.9983 26012.7 -03478.9 -07.6173 26244.3
 10 07 2013  10 31  -20.9964 26012.7 -03479.0 -07.6177 26244.3
 10 07 2013  10 32  -20.9935 26013.2 -03479.4 -07.6184 26244.8
 10 07 2013  10 33  -20.9906 26013.6 -03479.8 -07.6192 26245.4
 10 07 2013  10 34  -20.9898 26014.0 -03480.3 -07.6200 26245.7
 10 07 2013  10 35  -20.9897 26014.1 -03480.5 -07.6206 26245.9
 10 07 2013  10 36  -20.9889 26014.6 -03480.8 -07.6209 26246.5
 10 07 2013  10 37  -20.9891 26015.3 -03481.0 -07.6212 26247.2
 10 07 2013  10 38  -20.9915 26015.6 -03481.2 -07.6215 26247.5
 10 07 2013  10 39  -20.9938 26016.2 -03481.4 -07.6217 26248.1
 10 07 2013  10 40  -20.9950 26016.9 -03481.5 -07.6218 26248.8
 10 07 2013  10 41  -20.9952 26016.7 -03481.1 -07.6211 26248.5
 10 07 2013  10 42  -20.9955 26016.2 -03480.8 -07.6205 26248.0
 10 07 2013  10 43  -20.9941 26016.2 -03480.6 -07.6202 26248.0
 10 07 2013  10 44  -20.9915 26016.6 -03480.7 -07.6203 26248.4
 10 07 2013  10 45  -20.9888 26017.4 -03481.3 -07.6212 26249.3
 10 07 2013  10 46  -20.9860 26018.4 -03482.0 -07.6224 26250.4
 10 07 2013  10 47  -20.9832 26020.2 -03482.9 -07.6239 26252.2
 10 07 2013  10 48  -20.9834 26021.2 -03483.4 -07.6247 26253.4
 10 07 2013  10 49  -20.9833 26022.2 -03483.7 -07.6250 26254.3
 10 07 2013  10 50  -20.9839 26023.7 -03483.9 -07.6251 26255.9
 10 07 2013  10 51  -20.9856 26024.6 -03483.8 -07.6245 26256.7
 10 07 2013  10 52  -20.9902 26025.1 -03483.6 -07.6240 26257.2
 10 07 2013  10 53  -20.9939 26025.8 -03483.4 -07.6233 26257.9
 10 07 2013  10 54  -20.9977 26026.6 -03483.1 -07.6224 26258.7
 10 07 2013  10 55  -21.0009 26027.0 -03482.5 -07.6211 26258.9
 10 07 2013  10 56  -21.0020 26025.3 -03481.2 -07.6187 26257.1
 10 07 2013  10 57  -21.0052 26023.3 -03480.2 -07.6171 26254.9
 10 07 2013  10 58  -21.0087 26022.7 -03480.2 -07.6174 26254.4
 10 07 2013  10 59  -21.0095 26023.3 -03480.6 -07.6180 26255.0
 10 07 2013  11 00  -21.0081 26022.7 -03480.1 -07.6172 26254.3
 10 07 2013  11 01  -21.0077 26020.7 -03479.2 -07.6159 26252.2
 10 07 2013  11 02  -21.0077 26018.9 -03478.8 -07.6154 26250.4
 10 07 2013  11 03  -21.0090 26017.5 -03478.7 -07.6157 26249.0
 10 07 2013  11 04  -21.0101 26016.6 -03479.1 -07.6167 26248.2
 10 07 2013  11 05  -21.0095 26015.9 -03479.4 -07.6176 26247.5
 10 07 2013  11 06  -21.0078 26015.2 -03479.7 -07.6184 26246.8
 10 07 2013  11 07  -21.0069 26014.8 -03480.1 -07.6195 26246.6
 10 07 2013  11 08  -21.0075 26014.6 -03480.6 -07.6206 26246.4
 10 07 2013  11 09  -21.0097 26013.7 -03480.8 -07.6212 26245.6
 10 07 2013  11 10  -21.0136 26012.4 -03480.8 -07.6216 26244.2
 10 07 2013  11 11  -21.0168 26010.9 -03480.7 -07.6219 26242.8
 10 07 2013  11 12  -21.0193 26009.9 -03480.8 -07.6224 26241.8
 10 07 2013  11 13  -21.0216 26009.3 -03481.2 -07.6234 26241.3
 10 07 2013  11 14  -21.0230 26008.2 -03481.2 -07.6238 26240.1
 10 07 2013  11 15  -21.0245 26006.9 -03481.1 -07.6239 26238.9
 10 07 2013  11 16  -21.0252 26005.5 -03481.0 -07.6240 26237.4
 10 07 2013  11 17  -21.0246 26004.3 -03480.9 -07.6241 26236.2
 10 07 2013  11 18  -21.0250 26003.5 -03481.1 -07.6248 26235.5
 10 07 2013  11 19  -21.0262 26002.5 -03481.2 -07.6255 26234.5
 10 07 2013  11 20  -21.0268 26002.1 -03481.5 -07.6262 26234.1
 10 07 2013  11 21  -21.0249 26003.0 -03482.2 -07.6274 26235.2
 10 07 2013  11 22  -21.0227 26003.7 -03483.0 -07.6290 26235.9
 10 07 2013  11 23  -21.0229 26003.8 -03483.5 -07.6300 26236.0
 10 07 2013  11 24  -21.0253 26003.8 -03483.7 -07.6303 26236.1
 10 07 2013  11 25  -21.0283 26004.0 -03483.7 -07.6303 26236.3
 10 07 2013  11 26  -21.0308 26003.8 -03483.4 -07.6298 26236.1
 10 07 2013  11 27  -21.0317 26004.4 -03483.4 -07.6296 26236.6
 10 07 2013  11 28  -21.0323 26004.3 -03483.3 -07.6295 26236.5
 10 07 2013  11 29  -21.0328 26003.5 -03483.0 -07.6289 26235.8
 10 07 2013  11 30  -21.0325 26004.0 -03483.2 -07.6293 26236.3
 10 07 2013  11 31  -21.0318 26004.5 -03483.5 -07.6298 26236.8
 10 07 2013  11 32  -21.0307 26005.3 -03483.7 -07.6299 26237.6
 10 07 2013  11 33  -21.0304 26006.3 -03483.8 -07.6299 26238.6
 10 07 2013  11 34  -21.0305 26007.1 -03483.9 -07.6298 26239.4
 10 07 2013  11 35  -21.0293 26007.6 -03483.7 -07.6293 26239.9
 10 07 2013  11 36  -21.0267 26008.6 -03483.7 -07.6291 26240.9
 10 07 2013  11 37  -21.0255 26009.7 -03484.0 -07.6294 26242.0
 10 07 2013  11 38  -21.0293 26009.7 -03484.0 -07.6293 26242.0
 10 07 2013  11 39  -21.0356 26009.6 -03483.6 -07.6284 26241.9
 10 07 2013  11 40  -21.0418 26009.1 -03482.7 -07.6268 26241.3
 10 07 2013  11 41  -21.0470 26007.6 -03481.3 -07.6241 26239.5
 10 07 2013  11 42  -21.0505 26005.5 -03479.7 -07.6213 26237.3
 10 07 2013  11 43  -21.0531 26003.0 -03478.4 -07.6191 26234.6
 10 07 2013  11 44  -21.0548 25999.9 -03477.2 -07.6173 26231.4
 10 07 2013  11 45  -21.0548 25997.0 -03476.4 -07.6167 26228.4
 10 07 2013  11 46  -21.0536 25994.2 -03476.1 -07.6167 26225.6
 10 07 2013  11 47  -21.0528 25992.4 -03476.4 -07.6178 26223.9
 10 07 2013  11 48  -21.0522 25992.5 -03477.3 -07.6199 26224.1
 10 07 2013  11 49  -21.0526 25993.2 -03478.4 -07.6219 26224.9
 10 07 2013  11 50  -21.0532 25993.3 -03478.9 -07.6231 26225.1
 10 07 2013  11 51  -21.0530 25993.5 -03479.2 -07.6237 26225.3
 10 07 2013  11 52  -21.0528 25993.8 -03479.5 -07.6242 26225.6
 10 07 2013  11 53  -21.0521 25994.5 -03479.9 -07.6248 26226.4
 10 07 2013  11 54  -21.0511 25995.3 -03480.2 -07.6252 26227.2
 10 07 2013  11 55  -21.0504 25995.9 -03480.3 -07.6253 26227.8
 10 07 2013  11 56  -21.0502 25996.9 -03480.5 -07.6256 26228.8
 10 07 2013  11 57  -21.0511 25997.5 -03480.6 -07.6256 26229.5
 10 07 2013  11 58  -21.0520 25997.8 -03480.5 -07.6253 26229.8
 10 07 2013  11 59  -21.0533 25998.5 -03480.6 -07.6251 26230.4
 10 07 2013  12 00  -21.0539 25999.2 -03480.6 -07.6250 26231.1
 10 07 2013  12 01  -21.0537 25999.9 -03480.5 -07.6246 26231.8
 10 07 2013  12 02  -21.0538 26000.6 -03480.5 -07.6243 26232.6
 10 07 2013  12 03  -21.0541 26001.7 -03480.5 -07.6241 26233.6
 10 07 2013  12 04  -21.0540 26002.6 -03480.5 -07.6238 26234.5
 10 07 2013  12 05  -21.0533 26003.4 -03480.3 -07.6232 26235.2
 10 07 2013  12 06  -21.0536 26004.1 -03480.2 -07.6228 26236.0
 10 07 2013  12 07  -21.0534 26004.8 -03480.1 -07.6222 26236.6
 10 07 2013  12 08  -21.0536 26005.2 -03479.8 -07.6216 26237.0
 10 07 2013  12 09  -21.0540 26005.8 -03479.7 -07.6212 26237.6
 10 07 2013  12 10  -21.0550 26006.6 -03479.6 -07.6208 26238.3
 10 07 2013  12 11  -21.0563 26007.0 -03479.5 -07.6203 26238.7
 10 07 2013  12 12  -21.0572 26007.3 -03479.3 -07.6198 26239.0
 10 07 2013  12 13  -21.0575 26007.7 -03479.0 -07.6192 26239.3
 10 07 2013  12 14  -21.0587 26008.5 -03479.0 -07.6189 26240.2
 10 07 2013  12 15  -21.0606 26008.7 -03478.8 -07.6184 26240.4
 10 07 2013  12 16  -21.0618 26008.8 -03478.5 -07.6178 26240.4
 10 07 2013  12 17  -21.0621 26008.9 -03478.2 -07.6171 26240.4
 10 07 2013  12 18  -21.0621 26009.4 -03478.2 -07.6168 26240.9
 10 07 2013  12 19  -21.0624 26010.1 -03478.2 -07.6166 26241.6
 10 07 2013  12 20  -21.0648 26010.8 -03478.1 -07.6162 26242.3
 10 07 2013  12 21  -21.0685 26011.4 -03477.9 -07.6156 26242.9
 10 07 2013  12 22  -21.0693 26011.8 -03477.7 -07.6150 26243.3
 10 07 2013  12 23  -21.0699 26012.3 -03477.4 -07.6143 26243.7
 10 07 2013  12 24  -21.0705 26012.5 -03477.1 -07.6135 26243.9
 10 07 2013  12 25  -21.0706 26012.8 -03476.8 -07.6129 26244.1
 10 07 2013  12 26  -21.0710 26013.0 -03476.5 -07.6122 26244.3
 10 07 2013  12 27  -21.0712 26013.4 -03476.3 -07.6116 26244.7
 10 07 2013  12 28  -21.0713 26013.6 -03476.0 -07.6109 26244.8
 10 07 2013  12 29  -21.0714 26013.3 -03475.6 -07.6101 26244.5
 10 07 2013  12 30  -21.0717 26013.3 -03475.4 -07.6097 26244.4
 10 07 2013  12 31  -21.0721 26013.6 -03475.4 -07.6096 26244.7
 10 07 2013  12 32  -21.0725 26013.8 -03475.2 -07.6092 26244.9
 10 07 2013  12 33  -21.0733 26014.1 -03475.1 -07.6088 26245.2
 10 07 2013  12 34  -21.0711 26014.7 -03475.1 -07.6087 26245.8
 10 07 2013  12 35  -21.0697 26015.6 -03475.2 -07.6086 26246.7
 10 07 2013  12 36  -21.0712 26014.8 -03474.5 -07.6074 26245.8
 10 07 2013  12 37  -21.0711 26013.9 -03473.8 -07.6061 26244.9
 10 07 2013  12 38  -21.0714 26013.9 -03473.8 -07.6060 26244.8
 10 07 2013  12 39  -21.0720 26014.2 -03473.8 -07.6060 26245.1
 10 07 2013  12 40  -21.0731 26014.5 -03473.9 -07.6062 26245.4
 10 07 2013  12 41  -21.0746 26014.9 -03474.0 -07.6062 26245.9
 10 07 2013  12 42  -21.0762 26015.2 -03473.9 -07.6059 26246.1
 10 07 2013  12 43  -21.0771 26014.9 -03473.5 -07.6051 26245.8
 10 07 2013  12 44  -21.0777 26014.8 -03473.1 -07.6044 26245.6
 10 07 2013  12 45  -21.0786 26014.5 -03472.8 -07.6037 26245.3
 10 07 2013  12 46  -21.0790 26014.4 -03472.5 -07.6032 26245.1
 10 07 2013  12 47  -21.0789 26014.4 -03472.2 -07.6025 26245.1
 10 07 2013  12 48  -21.0795 26015.8 -03472.6 -07.6028 26246.5
 10 07 2013  12 49  -21.0798 26016.5 -03472.5 -07.6024 26247.2
 10 07 2013  12 50  -21.0799 26017.2 -03472.3 -07.6018 26247.8
 10 07 2013  12 51  -21.0805 26017.8 -03472.1 -07.6013 26248.4
 10 07 2013  12 52  -21.0797 26017.7 -03471.5 -07.6000 26248.3
 10 07 2013  12 53  -21.0788 26017.9 -03471.1 -07.5990 26248.5
 10 07 2013  12 54  -21.0785 26019.3 -03471.2 -07.5989 26249.8
 10 07 2013  12 55  -21.0779 26020.4 -03471.2 -07.5985 26250.9
 10 07 2013  12 56  -21.0769 26021.2 -03470.9 -07.5976 26251.7
 10 07 2013  12 57  -21.0773 26021.5 -03470.5 -07.5967 26251.9
 10 07 2013  12 58  -21.0770 26021.8 -03470.0 -07.5955 26252.1
 10 07 2013  12 59  -21.0763 26022.3 -03469.6 -07.5946 26252.6
 10 07 2013  13 00  -21.0762 26022.8 -03469.3 -07.5938 26253.1
 10 07 2013  13 01  -21.0757 26023.1 -03468.9 -07.5928 26253.3
 10 07 2013  13 02  -21.0755 26024.2 -03468.9 -07.5925 26254.4
 10 07 2013  13 03  -21.0756 26024.6 -03468.6 -07.5917 26254.8
 10 07 2013  13 04  -21.0755 26024.5 -03468.1 -07.5907 26254.6
 10 07 2013  13 05  -21.0750 26025.2 -03468.0 -07.5902 26255.3
 10 07 2013  13 06  -21.0759 26026.2 -03468.0 -07.5900 26256.3
 10 07 2013  13 07  -21.0767 26026.3 -03467.7 -07.5893 26256.3
 10 07 2013  13 08  -21.0773 26026.1 -03467.2 -07.5883 26256.0
 10 07 2013  13 09  -21.0780 26025.4 -03466.7 -07.5873 26255.3
 10 07 2013  13 10  -21.0793 26024.6 -03466.2 -07.5864 26254.4
 10 07 2013  13 11  -21.0810 26024.6 -03466.0 -07.5862 26254.4
 10 07 2013  13 12  -21.0831 26024.2 -03465.8 -07.5858 26254.0
 10 07 2013  13 13  -21.0843 26023.3 -03465.3 -07.5850 26253.0
 10 07 2013  13 14  -21.0853 26022.7 -03465.1 -07.5847 26252.4
 10 07 2013  13 15  -21.0864 26022.1 -03464.9 -07.5845 26251.8
 10 07 2013  13 16  -21.0869 26021.0 -03464.6 -07.5840 26250.6
 10 07 2013  13 17  -21.0862 26019.6 -03464.0 -07.5833 26249.2
 10 07 2013  13 18  -21.0860 26019.4 -03464.1 -07.5835 26248.9
 10 07 2013  13 19  -21.0862 26019.2 -03464.2 -07.5837 26248.8
 10 07 2013  13 20  -21.0861 26019.2 -03464.3 -07.5840 26248.8
 10 07 2013  13 21  -21.0866 26019.3 -03464.5 -07.5843 26248.9
 10 07 2013  13 22  -21.0870 26019.7 -03464.7 -07.5847 26249.3
 10 07 2013  13 23  -21.0873 26019.6 -03464.6 -07.5846 26249.2
 10 07 2013  13 24  -21.0876 26020.0 -03464.8 -07.5847 26249.7
 10 07 2013  13 25  -21.0877 26020.5 -03464.9 -07.5849 26250.1
 10 07 2013  13 26  -21.0878 26020.4 -03464.7 -07.5845 26250.0
 10 07 2013  13 27  -21.0889 26019.9 -03464.5 -07.5842 26249.6
 10 07 2013  13 28  -21.0887 26019.0 -03464.1 -07.5837 26248.6
 10 07 2013  13 29  -21.0886 26018.6 -03464.1 -07.5836 26248.2
 10 07 2013  13 30  -21.0888 26018.3 -03464.2 -07.5839 26247.9
 10 07 2013  13 31  -21.0880 26017.1 -03463.9 -07.5836 26246.7
 10 07 2013  13 32  -21.0872 26017.2 -03464.1 -07.5841 26246.8
 10 07 2013  13 33  -21.0874 26017.7 -03464.6 -07.5851 26247.3
 10 07 2013  13 34  -21.0874 26018.1 -03464.9 -07.5857 26247.8
 10 07 2013  13 35  -21.0868 26018.0 -03465.0 -07.5857 26247.7
 10 07 2013  13 36  -21.0862 26018.4 -03465.2 -07.5860 26248.1
 10 07 2013  13 37  -21.0859 26019.3 -03465.6 -07.5867 26249.1
 10 07 2013  13 38  -21.0856 26020.0 -03465.8 -07.5870 26249.8
 10 07 2013  13 39  -21.0861 26020.3 -03466.0 -07.5873 26250.1
 10 07 2013  13 40  -21.0844 26021.2 -03466.0 -07.5872 26251.0
 10 07 2013  13 41  -21.0837 26021.9 -03466.2 -07.5874 26251.8
 10 07 2013  13 42  -21.0826 26021.7 -03465.9 -07.5868 26251.5
 10 07 2013  13 43  -21.0803 26021.5 -03465.8 -07.5865 26251.3
 10 07 2013  13 44  -21.0790 26021.3 -03465.8 -07.5865 26251.1
 10 07 2013  13 45  -21.0769 26020.8 -03465.5 -07.5861 26250.5
 10 07 2013  13 46  -21.0760 26020.6 -03465.7 -07.5866 26250.4
 10 07 2013  13 47  -21.0760 26020.8 -03466.0 -07.5872 26250.6
 10 07 2013  13 48  -21.0756 26020.8 -03466.1 -07.5874 26250.6
 10 07 2013  13 49  -21.0752 26020.8 -03466.2 -07.5876 26250.7
 10 07 2013  13 50  -21.0744 26020.8 -03466.3 -07.5878 26250.7
 10 07 2013  13 51  -21.0727 26020.8 -03466.3 -07.5878 26250.7
 10 07 2013  13 52  -21.0726 26020.4 -03466.2 -07.5877 26250.3
 10 07 2013  13 53  -21.0726 26020.3 -03466.3 -07.5879 26250.1
 10 07 2013  13 54  -21.0730 26020.5 -03466.4 -07.5881 26250.4
 10 07 2013  13 55  -21.0733 26020.6 -03466.4 -07.5881 26250.4
 10 07 2013  13 56  -21.0735 26020.8 -03466.4 -07.5880 26250.7
 10 07 2013  13 57  -21.0745 26020.9 -03466.4 -07.5880 26250.8
 10 07 2013  13 58  -21.0754 26020.6 -03466.3 -07.5878 26250.4
 10 07 2013  13 59  -21.0761 26020.5 -03466.2 -07.5878 26250.3
 10 07 2013  14 00  -21.0769 26020.3 -03466.2 -07.5878 26250.1
 10 07 2013  14 01  -21.0779 26020.1 -03466.1 -07.5876 26250.0
 10 07 2013  14 02  -21.0785 26019.5 -03465.9 -07.5873 26249.4
 10 07 2013  14 03  -21.0791 26019.1 -03465.8 -07.5872 26248.9
 10 07 2013  14 04  -21.0801 26018.9 -03465.9 -07.5875 26248.7
 10 07 2013  14 05  -21.0809 26018.5 -03465.8 -07.5874 26248.3
 10 07 2013  14 06  -21.0820 26018.7 -03466.0 -07.5877 26248.5
 10 07 2013  14 07  -21.0832 26018.4 -03465.9 -07.5877 26248.2
 10 07 2013  14 08  -21.0839 26017.9 -03465.9 -07.5877 26247.8
 10 07 2013  14 09  -21.0848 26017.6 -03465.8 -07.5878 26247.4
 10 07 2013  14 10  -21.0860 26017.5 -03465.9 -07.5879 26247.3
 10 07 2013  14 11  -21.0862 26017.3 -03465.8 -07.5878 26247.1
 10 07 2013  14 12  -21.0867 26017.0 -03465.8 -07.5878 26246.9
 10 07 2013  14 13  -21.0874 26017.4 -03465.9 -07.5879 26247.2
 10 07 2013  14 14  -21.0877 26017.1 -03465.7 -07.5877 26246.9
 10 07 2013  14 15  -21.0877 26016.9 -03465.6 -07.5873 26246.7
 10 07 2013  14 16  -21.0879 26017.2 -03465.6 -07.5873 26247.0
 10 07 2013  14 17  -21.0879 26017.4 -03465.6 -07.5872 26247.2
 10 07 2013  14 18  -21.0881 26017.7 -03465.5 -07.5871 26247.5
 10 07 2013  14 19  -21.0880 26018.0 -03465.4 -07.5868 26247.7
 10 07 2013  14 20  -21.0879 26017.8 -03465.2 -07.5862 26247.6
 10 07 2013  14 21  -21.0878 26017.3 -03464.7 -07.5854 26247.0
 10 07 2013  14 22  -21.0877 26016.0 -03464.1 -07.5845 26245.7
 10 07 2013  14 23  -21.0873 26014.8 -03463.6 -07.5837 26244.3
 10 07 2013  14 24  -21.0869 26014.2 -03463.5 -07.5836 26243.7
 10 07 2013  14 25  -21.0877 26014.2 -03463.8 -07.5843 26243.8
 10 07 2013  14 26  -21.0886 26014.4 -03464.1 -07.5849 26244.0
 10 07 2013  14 27  -21.0890 26014.5 -03464.2 -07.5851 26244.1
 10 07 2013  14 28  -21.0892 26014.6 -03464.3 -07.5852 26244.3
 10 07 2013  14 29  -21.0891 26014.8 -03464.3 -07.5852 26244.5
 10 07 2013  14 30  -21.0888 26014.7 -03464.1 -07.5849 26244.3
 10 07 2013  14 31  -21.0894 26015.0 -03464.3 -07.5851 26244.6
 10 07 2013  14 32  -21.0898 26016.0 -03464.7 -07.5857 26245.7
 10 07 2013  14 33  -21.0901 26017.1 -03464.9 -07.5859 26246.8
 10 07 2013  14 34  -21.0898 26017.6 -03464.8 -07.5855 26247.3
 10 07 2013  14 35  -21.0898 26018.1 -03464.6 -07.5850 26247.8
 10 07 2013  14 36  -21.0902 26018.7 -03464.6 -07.5848 26248.4
 10 07 2013  14 37  -21.0901 26019.3 -03464.6 -07.5845 26249.0
 10 07 2013  14 38  -21.0891 26020.0 -03464.4 -07.5840 26249.6
 10 07 2013  14 39  -21.0879 26020.2 -03464.0 -07.5830 26249.7
 10 07 2013  14 40  -21.0873 26021.0 -03464.0 -07.5828 26250.5
 10 07 2013  14 41  -21.0875 26021.6 -03463.9 -07.5824 26251.1
 10 07 2013  14 42  -21.0872 26022.4 -03463.7 -07.5818 26251.9
 10 07 2013  14 43  -21.0872 26023.4 -03463.7 -07.5815 26252.9
 10 07 2013  14 44  -21.0874 26024.1 -03463.5 -07.5809 26253.6
 10 07 2013  14 45  -21.0874 26024.8 -03463.3 -07.5801 26254.3
 10 07 2013  14 46  -21.0871 26025.1 -03462.8 -07.5790 26254.5
 10 07 2013  14 47  -21.0869 26025.2 -03462.4 -07.5780 26254.5
 10 07 2013  14 48  -21.0872 26025.2 -03462.0 -07.5773 26254.5
 10 07 2013  14 49  -21.0876 26025.1 -03461.6 -07.5764 26254.3
 10 07 2013  14 50  -21.0878 26024.7 -03461.2 -07.5756 26253.9
 10 07 2013  14 51  -21.0881 26024.5 -03460.9 -07.5750 26253.6
 10 07 2013  14 52  -21.0888 26024.2 -03460.6 -07.5746 26253.3
 10 07 2013  14 53  -21.0897 26023.9 -03460.5 -07.5744 26253.0
 10 07 2013  14 54  -21.0898 26023.3 -03460.2 -07.5739 26252.3
 10 07 2013  14 55  -21.0910 26023.4 -03460.3 -07.5741 26252.4
 10 07 2013  14 56  -21.0920 26023.2 -03460.3 -07.5741 26252.3
 10 07 2013  14 57  -21.0928 26022.8 -03460.1 -07.5738 26251.8
 10 07 2013  14 58  -21.0923 26021.8 -03459.6 -07.5731 26250.8
 10 07 2013  14 59  -21.0923 26021.2 -03459.4 -07.5728 26250.1
 10 07 2013  15 00  -21.0929 26020.8 -03459.4 -07.5729 26249.8
 10 07 2013  15 01  -21.0933 26020.6 -03459.4 -07.5731 26249.5
 10 07 2013  15 02  -21.0940 26019.9 -03459.3 -07.5730 26248.9
 10 07 2013  15 03  -21.0946 26019.3 -03459.2 -07.5730 26248.3
 10 07 2013  15 04  -21.0946 26018.5 -03459.0 -07.5728 26247.4
 10 07 2013  15 05  -21.0945 26017.9 -03458.9 -07.5727 26246.8
 10 07 2013  15 06  -21.0944 26017.2 -03458.9 -07.5728 26246.1
 10 07 2013  15 07  -21.0941 26016.1 -03458.6 -07.5725 26245.0
 10 07 2013  15 08  -21.0937 26015.2 -03458.4 -07.5725 26244.0
 10 07 2013  15 09  -21.0936 26014.5 -03458.5 -07.5727 26243.4
 10 07 2013  15 10  -21.0938 26014.2 -03458.6 -07.5731 26243.1
 10 07 2013  15 11  -21.0941 26014.2 -03458.8 -07.5735 26243.1
 10 07 2013  15 12  -21.0941 26014.2 -03458.9 -07.5737 26243.1
 10 07 2013  15 13  -21.0950 26014.8 -03459.2 -07.5742 26243.8
 10 07 2013  15 14  -21.0957 26015.2 -03459.3 -07.5744 26244.2
 10 07 2013  15 15  -21.0958 26015.6 -03459.3 -07.5742 26244.6
 10 07 2013  15 16  -21.0957 26015.8 -03459.2 -07.5738 26244.7
 10 07 2013  15 17  -21.0954 26015.9 -03459.0 -07.5734 26244.8
 10 07 2013  15 18  -21.0950 26015.8 -03458.8 -07.5730 26244.7
 10 07 2013  15 19  -21.0945 26015.4 -03458.5 -07.5725 26244.2
 10 07 2013  15 20  -21.0941 26015.7 -03458.5 -07.5725 26244.6
 10 07 2013  15 21  -21.0943 26016.5 -03458.7 -07.5727 26245.4
 10 07 2013  15 22  -21.0943 26017.2 -03458.8 -07.5727 26246.1
 10 07 2013  15 23  -21.0942 26017.6 -03458.7 -07.5723 26246.5
 10 07 2013  15 24  -21.0940 26017.7 -03458.4 -07.5716 26246.5
 10 07 2013  15 25  -21.0940 26017.9 -03458.2 -07.5712 26246.7
 10 07 2013  15 26  -21.0942 26018.2 -03458.1 -07.5708 26247.0
 10 07 2013  15 27  -21.0941 26018.2 -03457.9 -07.5703 26247.0
 10 07 2013  15 28  -21.0939 26018.2 -03457.6 -07.5698 26246.9
 10 07 2013  15 29  -21.0939 26018.0 -03457.4 -07.5693 26246.7
 10 07 2013  15 30  -21.0942 26017.9 -03457.2 -07.5690 26246.6
 10 07 2013  15 31  -21.0946 26018.3 -03457.2 -07.5689 26247.0
 10 07 2013  15 32  -21.0942 26018.4 -03457.1 -07.5686 26247.1
 10 07 2013  15 33  -21.0934 26018.6 -03456.9 -07.5682 26247.2
 10 07 2013  15 34  -21.0926 26018.6 -03456.8 -07.5680 26247.2
 10 07 2013  15 35  -21.0921 26018.5 -03456.6 -07.5676 26247.1
 10 07 2013  15 36  -21.0917 26018.6 -03456.6 -07.5675 26247.2
 10 07 2013  15 37  -21.0918 26019.1 -03456.7 -07.5676 26247.7
 10 07 2013  15 38  -21.0918 26019.1 -03456.6 -07.5673 26247.7
 10 07 2013  15 39  -21.0918 26019.2 -03456.4 -07.5670 26247.8
 10 07 2013  15 40  -21.0916 26019.0 -03456.2 -07.5666 26247.5
 10 07 2013  15 41  -21.0914 26018.6 -03456.0 -07.5661 26247.1
 10 07 2013  15 42  -21.0912 26018.1 -03455.8 -07.5659 26246.6
 10 07 2013  15 43  -21.0911 26017.9 -03455.7 -07.5658 26246.4
 10 07 2013  15 44  -21.0913 26017.9 -03455.8 -07.5659 26246.4
 10 07 2013  15 45  -21.0913 26018.0 -03455.8 -07.5659 26246.5
 10 07 2013  15 46  -21.0916 26018.0 -03455.7 -07.5657 26246.5
 10 07 2013  15 47  -21.0917 26017.8 -03455.5 -07.5654 26246.3
 10 07 2013  15 48  -21.0918 26017.9 -03455.5 -07.5653 26246.4
 10 07 2013  15 49  -21.0917 26018.0 -03455.4 -07.5652 26246.4
 10 07 2013  15 50  -21.0917 26017.9 -03455.3 -07.5649 26246.3
 10 07 2013  15 51  -21.0915 26017.8 -03455.2 -07.5646 26246.2
 10 07 2013  15 52  -21.0915 26017.9 -03455.2 -07.5646 26246.3
 10 07 2013  15 53  -21.0914 26018.1 -03455.1 -07.5644 26246.5
 10 07 2013  15 54  -21.0918 26018.3 -03455.0 -07.5642 26246.7
 10 07 2013  15 55  -21.0918 26018.1 -03454.8 -07.5638 26246.5
 10 07 2013  15 56  -21.0919 26017.7 -03454.5 -07.5633 26246.1
 10 07 2013  15 57  -21.0916 26017.0 -03454.2 -07.5627 26245.3
 10 07 2013  15 58  -21.0912 26016.4 -03453.9 -07.5623 26244.6
 10 07 2013  15 59  -21.0915 26016.0 -03453.8 -07.5622 26244.2
 10 07 2013  16 00  -21.0924 26016.1 -03454.0 -07.5625 26244.4
 10 07 2013  16 01  -21.0927 26016.2 -03454.0 -07.5625 26244.5
 10 07 2013  16 02  -21.0934 26016.7 -03454.1 -07.5627 26245.0
 10 07 2013  16 03  -21.0936 26016.6 -03454.0 -07.5624 26244.9
 10 07 2013  16 04  -21.0933 26016.3 -03453.7 -07.5619 26244.5
 10 07 2013  16 05  -21.0937 26016.2 -03453.6 -07.5617 26244.4
 10 07 2013  16 06  -21.0944 26016.5 -03453.8 -07.5619 26244.8
 10 07 2013  16 07  -21.0954 26017.0 -03453.9 -07.5621 26245.3
 10 07 2013  16 08  -21.0955 26016.5 -03453.5 -07.5614 26244.7
 10 07 2013  16 09  -21.0958 26015.9 -03453.2 -07.5609 26244.1
 10 07 2013  16 10  -21.0961 26014.9 -03452.8 -07.5604 26243.0
 10 07 2013  16 11  -21.0964 26013.8 -03452.6 -07.5601 26242.0
 10 07 2013  16 12  -21.0967 26013.2 -03452.5 -07.5601 26241.3
 10 07 2013  16 13  -21.0966 26012.5 -03452.4 -07.5602 26240.6
 10 07 2013  16 14  -21.0961 26011.8 -03452.4 -07.5604 26239.9
 10 07 2013  16 15  -21.0960 26011.1 -03452.4 -07.5606 26239.3
 10 07 2013  16 16  -21.0962 26010.6 -03452.5 -07.5610 26238.8
 10 07 2013  16 17  -21.0964 26009.9 -03452.5 -07.5612 26238.0
 10 07 2013  16 18  -21.0960 26009.0 -03452.4 -07.5612 26237.1
 10 07 2013  16 19  -21.0958 26008.7 -03452.6 -07.5616 26236.8
 10 07 2013  16 20  -21.0963 26008.8 -03452.9 -07.5624 26237.0
 10 07 2013  16 21  -21.0965 26008.7 -03453.1 -07.5628 26237.0
 10 07 2013  16 22  -21.0967 26008.7 -03453.3 -07.5631 26236.9
 10 07 2013  16 23  -21.0973 26008.4 -03453.3 -07.5632 26236.7
 10 07 2013  16 24  -21.0971 26008.0 -03453.2 -07.5632 26236.2
 10 07 2013  16 25  -21.0973 26007.5 -03453.2 -07.5632 26235.8
 10 07 2013  16 26  -21.0972 26006.7 -03452.9 -07.5630 26235.0
 10 07 2013  16 27  -21.0975 26006.2 -03452.9 -07.5629 26234.5
 10 07 2013  16 28  -21.0972 26005.5 -03452.7 -07.5628 26233.7
 10 07 2013  16 29  -21.0964 26004.8 -03452.6 -07.5627 26233.0
 10 07 2013  16 30  -21.0968 26005.0 -03452.8 -07.5632 26233.2
 10 07 2013  16 31  -21.0975 26005.5 -03453.2 -07.5638 26233.8
 10 07 2013  16 32  -21.0977 26005.5 -03453.2 -07.5638 26233.8
 10 07 2013  16 33  -21.0973 26005.1 -03453.0 -07.5635 26233.4
 10 07 2013  16 34  -21.0965 26004.7 -03452.8 -07.5633 26232.9
 10 07 2013  16 35  -21.0958 26004.4 -03452.8 -07.5633 26232.7
 10 07 2013  16 36  -21.0951 26004.6 -03452.9 -07.5635 26232.8
 10 07 2013  16 37  -21.0946 26004.9 -03453.1 -07.5639 26233.1
 10 07 2013  16 38  -21.0944 26005.2 -03453.2 -07.5640 26233.4
 10 07 2013  16 39  -21.0938 26004.9 -03453.1 -07.5639 26233.2
 10 07 2013  16 40  -21.0930 26004.8 -03453.1 -07.5638 26233.0
 10 07 2013  16 41  -21.0921 26004.8 -03453.1 -07.5639 26233.1
 10 07 2013  16 42  -21.0917 26005.1 -03453.3 -07.5642 26233.4
 10 07 2013  16 43  -21.0908 26005.6 -03453.4 -07.5643 26233.9
 10 07 2013  16 44  -21.0899 26005.9 -03453.4 -07.5643 26234.2
 10 07 2013  16 45  -21.0881 26005.0 -03453.0 -07.5636 26233.3
 10 07 2013  16 46  -21.0862 26004.3 -03452.8 -07.5634 26232.5
 10 07 2013  16 47  -21.0855 26004.1 -03453.0 -07.5638 26232.3
 10 07 2013  16 48  -21.0845 26003.8 -03453.0 -07.5640 26232.0
 10 07 2013  16 49  -21.0842 26003.7 -03453.2 -07.5644 26232.0
 10 07 2013  16 50  -21.0841 26003.1 -03453.1 -07.5644 26231.4
 10 07 2013  16 51  -21.0837 26003.1 -03453.1 -07.5645 26231.3
 10 07 2013  16 52  -21.0836 26002.7 -03453.2 -07.5647 26231.0
 10 07 2013  16 53  -21.0837 26002.6 -03453.3 -07.5650 26230.9
 10 07 2013  16 54  -21.0831 26001.8 -03453.2 -07.5649 26230.1
 10 07 2013  16 55  -21.0825 26001.6 -03453.3 -07.5652 26229.9
 10 07 2013  16 56  -21.0824 26001.9 -03453.6 -07.5659 26230.2
 10 07 2013  16 57  -21.0821 26001.3 -03453.6 -07.5660 26229.7
 10 07 2013  16 58  -21.0815 26000.6 -03453.5 -07.5659 26228.9
 10 07 2013  16 59  -21.0808 26000.1 -03453.5 -07.5661 26228.4
 10 07 2013  17 00  -21.0802 25999.8 -03453.7 -07.5666 26228.1
 10 07 2013  17 01  -21.0794 25999.7 -03454.0 -07.5672 26228.1
 10 07 2013  17 02  -21.0788 25999.7 -03454.2 -07.5678 26228.1
 10 07 2013  17 03  -21.0790 26000.4 -03454.8 -07.5689 26228.9
 10 07 2013  17 04  -21.0791 26001.3 -03455.3 -07.5697 26229.9
 10 07 2013  17 05  -21.0788 26002.2 -03455.5 -07.5699 26230.8
 10 07 2013  17 06  -21.0788 26003.3 -03455.8 -07.5701 26231.9
 10 07 2013  17 07  -21.0795 26004.1 -03456.0 -07.5703 26232.8
 10 07 2013  17 08  -21.0804 26004.9 -03456.0 -07.5701 26233.5
 10 07 2013  17 09  -21.0820 26006.0 -03456.1 -07.5700 26234.7
 10 07 2013  17 10  -21.0832 26007.1 -03456.1 -07.5697 26235.8
 10 07 2013  17 11  -21.0837 26007.5 -03455.7 -07.5688 26236.1
 10 07 2013  17 12  -21.0835 26007.6 -03455.3 -07.5679 26236.2
 10 07 2013  17 13  -21.0825 26007.6 -03454.9 -07.5669 26236.1
 10 07 2013  17 14  -21.0823 26007.3 -03454.5 -07.5661 26235.8
 10 07 2013  17 15  -21.0816 26006.4 -03453.9 -07.5651 26234.8
 10 07 2013  17 16  -21.0813 26004.9 -03453.2 -07.5641 26233.2
 10 07 2013  17 17  -21.0806 26003.5 -03452.7 -07.5635 26231.7
 10 07 2013  17 18  -21.0805 26002.9 -03452.7 -07.5636 26231.1
 10 07 2013  17 19  -21.0798 26002.5 -03452.8 -07.5638 26230.7
 10 07 2013  17 20  -21.0793 26001.8 -03452.7 -07.5640 26230.0
 10 07 2013  17 21  -21.0785 26000.9 -03452.6 -07.5639 26229.1
 10 07 2013  17 22  -21.0787 26000.3 -03452.7 -07.5642 26228.6
 10 07 2013  17 23  -21.0785 25999.3 -03452.5 -07.5641 26227.5
 10 07 2013  17 24  -21.0789 25998.6 -03452.5 -07.5644 26226.9
 10 07 2013  17 25  -21.0796 25998.3 -03452.6 -07.5648 26226.5
 10 07 2013  17 26  -21.0799 25997.8 -03452.7 -07.5650 26226.1
 10 07 2013  17 27  -21.0807 25997.7 -03452.9 -07.5654 26226.0
 10 07 2013  17 28  -21.0819 25998.4 -03453.3 -07.5661 26226.7
 10 07 2013  17 29  -21.0820 25998.8 -03453.5 -07.5664 26227.1
 10 07 2013  17 30  -21.0829 25999.4 -03453.8 -07.5669 26227.8
 10 07 2013  17 31  -21.0833 25999.8 -03453.9 -07.5670 26228.2
 10 07 2013  17 32  -21.0827 25999.4 -03453.6 -07.5665 26227.8
 10 07 2013  17 33  -21.0831 25999.7 -03453.8 -07.5668 26228.1
 10 07 2013  17 34  -21.0816 25998.1 -03453.2 -07.5659 26226.5
 10 07 2013  17 35  -21.0781 25995.5 -03452.1 -07.5645 26223.7
 10 07 2013  17 36  -21.0764 25994.1 -03452.1 -07.5647 26222.3
 10 07 2013  17 37  -21.0756 25993.4 -03452.4 -07.5656 26221.6
 10 07 2013  17 38  -21.0733 25991.7 -03452.3 -07.5658 26220.0
 10 07 2013  17 39  -21.0709 25990.8 -03452.5 -07.5665 26219.1
 10 07 2013  17 40  -21.0693 25990.3 -03453.0 -07.5677 26218.7
 10 07 2013  17 41  -21.0701 25993.0 -03454.6 -07.5706 26221.6
 10 07 2013  17 42  -21.0761 25998.1 -03457.2 -07.5747 26227.0
 10 07 2013  17 43  -21.0791 25999.7 -03457.5 -07.5748 26228.6
 10 07 2013  17 44  -21.0795 25999.9 -03456.8 -07.5734 26228.7
 10 07 2013  17 45  -21.0815 26000.8 -03456.8 -07.5730 26229.6
 10 07 2013  17 46  -21.0828 26001.3 -03456.5 -07.5721 26230.0
 10 07 2013  17 47  -21.0840 26002.2 -03456.3 -07.5716 26230.9
 10 07 2013  17 48  -21.0846 26002.5 -03456.1 -07.5709 26231.2
 10 07 2013  17 49  -21.0847 26002.0 -03455.4 -07.5697 26230.6
 10 07 2013  17 50  -21.0848 26001.3 -03454.9 -07.5687 26229.8
 10 07 2013  17 51  -21.0835 25999.5 -03454.1 -07.5675 26228.0
 10 07 2013  17 52  -21.0810 25997.2 -03453.2 -07.5663 26225.6
 10 07 2013  17 53  -21.0770 25994.3 -03452.3 -07.5652 26222.5
 10 07 2013  17 54  -21.0760 25992.8 -03452.4 -07.5657 26221.1
 10 07 2013  17 55  -21.0746 25991.4 -03452.5 -07.5664 26219.7
 10 07 2013  17 56  -21.0745 25990.1 -03452.7 -07.5673 26218.5
 10 07 2013  17 57  -21.0725 25987.9 -03452.5 -07.5675 26216.2
 10 07 2013  17 58  -21.0710 25985.5 -03452.4 -07.5680 26213.8
 10 07 2013  17 59  -21.0697 25983.0 -03452.5 -07.5689 26211.4
 10 07 2013  18 00  -21.0686 25981.1 -03452.9 -07.5702 26209.5
 10 07 2013  18 01  -21.0690 25979.7 -03453.6 -07.5722 26208.3
 10 07 2013  18 02  -21.0694 25978.8 -03454.4 -07.5741 26207.5
 10 07 2013  18 03  -21.0704 25979.3 -03455.6 -07.5766 26208.1
 10 07 2013  18 04  -21.0734 25980.6 -03457.0 -07.5793 26209.6
 10 07 2013  18 05  -21.0733 25979.6 -03456.9 -07.5794 26208.6
 10 07 2013  18 06  -21.0720 25977.9 -03456.6 -07.5792 26206.9
 10 07 2013  18 07  -21.0716 25976.6 -03456.7 -07.5799 26205.6
 10 07 2013  18 08  -21.0725 25976.3 -03457.4 -07.5814 26205.4
 10 07 2013  18 09  -21.0724 25976.0 -03457.9 -07.5825 26205.1
 10 07 2013  18 10  -21.0720 25975.9 -03458.3 -07.5836 26205.1
 10 07 2013  18 11  -21.0715 25976.3 -03459.0 -07.5848 26205.6
 10 07 2013  18 12  -21.0715 25977.4 -03459.7 -07.5862 26206.7
 10 07 2013  18 13  -21.0717 25978.4 -03460.3 -07.5872 26207.9
 10 07 2013  18 14  -21.0721 25980.1 -03461.0 -07.5881 26209.6
 10 07 2013  18 15  -21.0729 25982.6 -03461.8 -07.5891 26212.2
 10 07 2013  18 16  -21.0740 25985.5 -03462.7 -07.5902 26215.2
 10 07 2013  18 17  -21.0757 25988.5 -03463.4 -07.5909 26218.3
 10 07 2013  18 18  -21.0762 25990.3 -03463.4 -07.5903 26220.0
 10 07 2013  18 19  -21.0756 25991.4 -03463.1 -07.5893 26221.1
 10 07 2013  18 20  -21.0761 25993.3 -03463.2 -07.5891 26223.0
 10 07 2013  18 21  -21.0771 25995.0 -03463.2 -07.5887 26224.7
 10 07 2013  18 22  -21.0776 25996.0 -03463.0 -07.5878 26225.7
 10 07 2013  18 23  -21.0773 25996.4 -03462.4 -07.5865 26225.9
 10 07 2013  18 24  -21.0769 25996.4 -03461.9 -07.5853 26225.9
 10 07 2013  18 25  -21.0758 25994.8 -03460.8 -07.5835 26224.2
 10 07 2013  18 26  -21.0727 25992.0 -03459.5 -07.5813 26221.2
 10 07 2013  18 27  -21.0713 25989.8 -03458.9 -07.5807 26218.9
 10 07 2013  18 28  -21.0708 25990.1 -03459.5 -07.5820 26219.4
 10 07 2013  18 29  -21.0731 25992.3 -03461.0 -07.5846 26221.8
 10 07 2013  18 30  -21.0736 25992.7 -03461.4 -07.5852 26222.2
 10 07 2013  18 31  -21.0735 25991.6 -03460.9 -07.5845 26221.0
 10 07 2013  18 32  -21.0724 25990.2 -03460.4 -07.5839 26219.5
 10 07 2013  18 33  -21.0709 25988.5 -03460.1 -07.5836 26217.9
 10 07 2013  18 34  -21.0693 25986.5 -03459.7 -07.5834 26215.8
 10 07 2013  18 35  -21.0683 25984.9 -03459.6 -07.5836 26214.2
 10 07 2013  18 36  -21.0669 25983.7 -03459.6 -07.5839 26213.0
 10 07 2013  18 37  -21.0656 25983.0 -03459.7 -07.5845 26212.3
 10 07 2013  18 38  -21.0650 25982.6 -03460.1 -07.5854 26211.9
 10 07 2013  18 39  -21.0652 25982.3 -03460.5 -07.5864 26211.7
 10 07 2013  18 40  -21.0652 25982.0 -03460.8 -07.5872 26211.5
 10 07 2013  18 41  -21.0658 25982.1 -03461.3 -07.5882 26211.6
 10 07 2013  18 42  -21.0668 25982.3 -03461.8 -07.5892 26211.9
 10 07 2013  18 43  -21.0665 25982.2 -03462.0 -07.5897 26211.8
 10 07 2013  18 44  -21.0670 25982.1 -03462.3 -07.5904 26211.8
 10 07 2013  18 45  -21.0679 25982.3 -03462.8 -07.5913 26212.0
 10 07 2013  18 46  -21.0680 25982.5 -03463.1 -07.5919 26212.3
 10 07 2013  18 47  -21.0683 25982.9 -03463.4 -07.5925 26212.7
 10 07 2013  18 48  -21.0683 25982.8 -03463.5 -07.5927 26212.6
 10 07 2013  18 49  -21.0685 25982.6 -03463.6 -07.5930 26212.5
 10 07 2013  18 50  -21.0686 25982.5 -03463.7 -07.5932 26212.3
 10 07 2013  18 51  -21.0685 25982.8 -03463.9 -07.5936 26212.6
 10 07 2013  18 52  -21.0691 25982.9 -03464.1 -07.5941 26212.8
 10 07 2013  18 53  -21.0690 25982.6 -03464.1 -07.5941 26212.5
 10 07 2013  18 54  -21.0683 25981.9 -03464.0 -07.5940 26211.8
 10 07 2013  18 55  -21.0679 25981.3 -03463.9 -07.5941 26211.2
 10 07 2013  18 56  -21.0675 25980.9 -03464.0 -07.5944 26210.8
 10 07 2013  18 57  -21.0676 25980.9 -03464.3 -07.5950 26210.8
 10 07 2013  18 58  -21.0677 25981.1 -03464.6 -07.5957 26211.1
 10 07 2013  18 59  -21.0682 25981.8 -03465.0 -07.5962 26211.9
 10 07 2013  19 00  -21.0687 25982.8 -03465.3 -07.5966 26212.8
 10 07 2013  19 01  -21.0689 25983.3 -03465.3 -07.5965 26213.4
 10 07 2013  19 02  -21.0686 25982.8 -03464.9 -07.5958 26212.8
 10 07 2013  19 03  -21.0685 25982.3 -03464.6 -07.5952 26212.3
 10 07 2013  19 04  -21.0690 25982.7 -03464.6 -07.5952 26212.7
 10 07 2013  19 05  -21.0695 25982.9 -03464.6 -07.5951 26212.9
 10 07 2013  19 06  -21.0699 25982.8 -03464.5 -07.5948 26212.8
 10 07 2013  19 07  -21.0701 25983.0 -03464.4 -07.5946 26212.9
 10 07 2013  19 08  -21.0704 25983.4 -03464.5 -07.5947 26213.3
 10 07 2013  19 09  -21.0716 25984.3 -03464.7 -07.5949 26214.3
 10 07 2013  19 10  -21.0724 25985.2 -03464.8 -07.5949 26215.2
 10 07 2013  19 11  -21.0735 25986.3 -03465.0 -07.5949 26216.3
 10 07 2013  19 12  -21.0740 25986.7 -03464.8 -07.5943 26216.7
 10 07 2013  19 13  -21.0754 25987.9 -03464.8 -07.5941 26217.8
 10 07 2013  19 14  -21.0772 25990.1 -03465.3 -07.5945 26220.1
 10 07 2013  19 15  -21.0784 25991.4 -03465.3 -07.5942 26221.4
 10 07 2013  19 16  -21.0800 25993.0 -03465.4 -07.5940 26223.0
 10 07 2013  19 17  -21.0816 25994.8 -03465.6 -07.5938 26224.7
 10 07 2013  19 18  -21.0826 25996.1 -03465.5 -07.5933 26226.1
 10 07 2013  19 19  -21.0833 25997.1 -03465.3 -07.5925 26227.1
 10 07 2013  19 20  -21.0843 25998.0 -03465.1 -07.5918 26227.9
 10 07 2013  19 21  -21.0847 25998.3 -03464.6 -07.5906 26228.1
 10 07 2013  19 22  -21.0859 25998.5 -03464.1 -07.5894 26228.3
 10 07 2013  19 23  -21.0881 25997.9 -03463.3 -07.5880 26227.6
 10 07 2013  19 24  -21.0883 25997.7 -03462.7 -07.5867 26227.3
 10 07 2013  19 25  -21.0883 25997.4 -03462.1 -07.5856 26226.9
 10 07 2013  19 26  -21.0881 25996.6 -03461.4 -07.5843 26226.0
 10 07 2013  19 27  -21.0880 25995.5 -03460.8 -07.5831 26224.9
 10 07 2013  19 28  -21.0884 25995.0 -03460.3 -07.5824 26224.3
 10 07 2013  19 29  -21.0894 25994.8 -03460.2 -07.5821 26224.1
 10 07 2013  19 30  -21.0904 25994.7 -03460.1 -07.5819 26224.0
 10 07 2013  19 31  -21.0906 25994.1 -03459.7 -07.5813 26223.4
 10 07 2013  19 32  -21.0913 25993.8 -03459.6 -07.5810 26223.1
 10 07 2013  19 33  -21.0916 25993.7 -03459.4 -07.5807 26222.9
 10 07 2013  19 34  -21.0921 25993.6 -03459.3 -07.5805 26222.8
 10 07 2013  19 35  -21.0925 25993.7 -03459.3 -07.5805 26222.8
 10 07 2013  19 36  -21.0915 25994.0 -03459.3 -07.5805 26223.1
 10 07 2013  19 37  -21.0911 25994.9 -03459.6 -07.5808 26224.1
 10 07 2013  19 38  -21.0915 25994.9 -03459.4 -07.5804 26224.1
 10 07 2013  19 39  -21.0917 25994.9 -03459.2 -07.5799 26224.0
 10 07 2013  19 40  -21.0913 25994.7 -03458.9 -07.5793 26223.8
 10 07 2013  19 41  -21.0912 25994.9 -03458.8 -07.5790 26223.9
 10 07 2013  19 42  -21.0909 25994.9 -03458.6 -07.5787 26224.0
 10 07 2013  19 43  -21.0907 25994.9 -03458.4 -07.5782 26223.9
 10 07 2013  19 44  -21.0910 25994.4 -03458.1 -07.5776 26223.4
 10 07 2013  19 45  -21.0906 25994.0 -03457.7 -07.5769 26223.0
 10 07 2013  19 46  -21.0899 25993.3 -03457.3 -07.5763 26222.2
 10 07 2013  19 47  -21.0891 25992.6 -03457.0 -07.5758 26221.5
 10 07 2013  19 48  -21.0884 25992.0 -03456.7 -07.5754 26220.9
 10 07 2013  19 49  -21.0878 25991.7 -03456.6 -07.5752 26220.5
 10 07 2013  19 50  -21.0872 25992.1 -03456.8 -07.5756 26221.0
 10 07 2013  19 51  -21.0869 25992.4 -03457.0 -07.5758 26221.3
 10 07 2013  19 52  -21.0869 25992.6 -03457.0 -07.5759 26221.4
 10 07 2013  19 53  -21.0872 25992.8 -03457.1 -07.5761 26221.7
 10 07 2013  19 54  -21.0878 25993.1 -03457.2 -07.5761 26222.0
 10 07 2013  19 55  -21.0887 25993.3 -03457.3 -07.5763 26222.2
 10 07 2013  19 56  -21.0895 25993.6 -03457.3 -07.5762 26222.5
 10 07 2013  19 57  -21.0900 25993.9 -03457.3 -07.5761 26222.8
 10 07 2013  19 58  -21.0899 25994.4 -03457.3 -07.5760 26223.3
 10 07 2013  19 59  -21.0903 25994.8 -03457.3 -07.5759 26223.7
 10 07 2013  20 00  -21.0896 25994.2 -03456.9 -07.5751 26223.1
 10 07 2013  20 01  -21.0891 25994.1 -03456.7 -07.5747 26222.9
 10 07 2013  20 02  -21.0881 25993.4 -03456.3 -07.5741 26222.2
 10 07 2013  20 03  -21.0870 25992.7 -03456.0 -07.5737 26221.4
 10 07 2013  20 04  -21.0856 25992.5 -03456.1 -07.5738 26221.2
 10 07 2013  20 05  -21.0846 25992.2 -03456.1 -07.5740 26221.0
 10 07 2013  20 06  -21.0843 25993.1 -03456.6 -07.5747 26221.9
 10 07 2013  20 07  -21.0833 25993.8 -03456.9 -07.5754 26222.6
 10 07 2013  20 08  -21.0830 25994.7 -03457.4 -07.5760 26223.6
 10 07 2013  20 09  -21.0837 25995.9 -03457.8 -07.5767 26224.9
 10 07 2013  20 10  -21.0834 25996.4 -03457.9 -07.5768 26225.4
 10 07 2013  20 11  -21.0834 25996.8 -03457.9 -07.5766 26225.8
 10 07 2013  20 12  -21.0836 25997.2 -03457.9 -07.5764 26226.1
 10 07 2013  20 13  -21.0828 25996.9 -03457.6 -07.5758 26225.8
 10 07 2013  20 14  -21.0822 25996.4 -03457.1 -07.5750 26225.3
 10 07 2013  20 15  -21.0824 25996.6 -03457.1 -07.5748 26225.4
 10 07 2013  20 16  -21.0818 25996.6 -03456.9 -07.5745 26225.5
 10 07 2013  20 17  -21.0808 25996.5 -03456.8 -07.5742 26225.3
 10 07 2013  20 18  -21.0801 25995.8 -03456.6 -07.5740 26224.6
 10 07 2013  20 19  -21.0794 25994.4 -03456.1 -07.5733 26223.1
 10 07 2013  20 20  -21.0790 25992.8 -03455.5 -07.5726 26221.5
 10 07 2013  20 21  -21.0780 25991.2 -03455.0 -07.5719 26219.8
 10 07 2013  20 22  -21.0777 25990.3 -03454.9 -07.5719 26219.0
 10 07 2013  20 23  -21.0775 25989.6 -03454.8 -07.5720 26218.2
 10 07 2013  20 24  -21.0770 25989.3 -03455.0 -07.5724 26217.9
 10 07 2013  20 25  -21.0764 25989.0 -03455.2 -07.5729 26217.7
 10 07 2013  20 26  -21.0762 25989.1 -03455.6 -07.5737 26217.8
 10 07 2013  20 27  -21.0761 25989.0 -03455.9 -07.5745 26217.8
 10 07 2013  20 28  -21.0762 25988.1 -03455.9 -07.5747 26216.9
 10 07 2013  20 29  -21.0769 25987.2 -03455.7 -07.5746 26215.9
 10 07 2013  20 30  -21.0778 25986.6 -03455.7 -07.5748 26215.4
 10 07 2013  20 31  -21.0783 25986.4 -03455.8 -07.5749 26215.2
 10 07 2013  20 32  -21.0778 25986.2 -03455.8 -07.5750 26215.0
 10 07 2013  20 33  -21.0773 25986.2 -03456.0 -07.5754 26215.0
 10 07 2013  20 34  -21.0767 25986.1 -03456.1 -07.5757 26215.0
 10 07 2013  20 35  -21.0764 25986.3 -03456.4 -07.5762 26215.2
 10 07 2013  20 36  -21.0764 25986.2 -03456.5 -07.5766 26215.1
 10 07 2013  20 37  -21.0765 25985.5 -03456.3 -07.5764 26214.4
 10 07 2013  20 38  -21.0763 25984.8 -03456.1 -07.5762 26213.6
 10 07 2013  20 39  -21.0762 25984.3 -03456.1 -07.5762 26213.1
 10 07 2013  20 40  -21.0764 25984.2 -03456.2 -07.5764 26213.0
 10 07 2013  20 41  -21.0768 25984.1 -03456.3 -07.5768 26213.0
 10 07 2013  20 42  -21.0764 25983.6 -03456.2 -07.5767 26212.4
 10 07 2013  20 43  -21.0760 25982.8 -03456.0 -07.5764 26211.6
 10 07 2013  20 44  -21.0754 25981.9 -03455.7 -07.5761 26210.7
 10 07 2013  20 45  -21.0750 25981.5 -03455.6 -07.5760 26210.3
 10 07 2013  20 46  -21.0749 25981.5 -03455.8 -07.5764 26210.3
 10 07 2013  20 47  -21.0746 25981.5 -03456.0 -07.5768 26210.4
 10 07 2013  20 48  -21.0744 25981.7 -03456.2 -07.5773 26210.5
 10 07 2013  20 49  -21.0742 25982.5 -03456.6 -07.5780 26211.4
 10 07 2013  20 50  -21.0740 25983.3 -03457.1 -07.5788 26212.3
 10 07 2013  20 51  -21.0734 25983.6 -03457.3 -07.5790 26212.6
 10 07 2013  20 52  -21.0729 25983.5 -03457.2 -07.5790 26212.5
 10 07 2013  20 53  -21.0723 25983.6 -03457.3 -07.5792 26212.6
 10 07 2013  20 54  -21.0717 25983.9 -03457.5 -07.5794 26212.9
 10 07 2013  20 55  -21.0710 25984.3 -03457.7 -07.5798 26213.3
 10 07 2013  20 56  -21.0703 25984.8 -03458.0 -07.5803 26213.9
 10 07 2013  20 57  -21.0696 25984.9 -03458.1 -07.5804 26213.9
 10 07 2013  20 58  -21.0693 25985.0 -03458.3 -07.5807 26214.1
 10 07 2013  20 59  -21.0694 25985.2 -03458.4 -07.5811 26214.3
 10 07 2013  21 00  -21.0697 25985.6 -03458.7 -07.5814 26214.8
 10 07 2013  21 01  -21.0699 25985.6 -03458.7 -07.5816 26214.7
 10 07 2013  21 02  -21.0701 25985.3 -03458.6 -07.5814 26214.5
 10 07 2013  21 03  -21.0703 25985.2 -03458.6 -07.5813 26214.4
 10 07 2013  21 04  -21.0706 25985.3 -03458.6 -07.5814 26214.5
 10 07 2013  21 05  -21.0709 25985.5 -03458.7 -07.5815 26214.7
 10 07 2013  21 06  -21.0709 25985.3 -03458.6 -07.5814 26214.5
 10 07 2013  21 07  -21.0708 25985.0 -03458.4 -07.5811 26214.1
 10 07 2013  21 08  -21.0709 25984.9 -03458.4 -07.5811 26214.0
 10 07 2013  21 09  -21.0712 25984.9 -03458.4 -07.5811 26214.0
 10 07 2013  21 10  -21.0712 25985.0 -03458.5 -07.5812 26214.1
 10 07 2013  21 11  -21.0711 25985.1 -03458.6 -07.5814 26214.2
 10 07 2013  21 12  -21.0711 25985.3 -03458.7 -07.5816 26214.4
 10 07 2013  21 13  -21.0715 25985.4 -03458.8 -07.5817 26214.6
 10 07 2013  21 14  -21.0719 25985.7 -03459.0 -07.5821 26214.9
 10 07 2013  21 15  -21.0722 25986.0 -03459.1 -07.5823 26215.2
 10 07 2013  21 16  -21.0725 25986.2 -03459.2 -07.5824 26215.4
 10 07 2013  21 17  -21.0728 25986.4 -03459.3 -07.5825 26215.6
 10 07 2013  21 18  -21.0731 25986.7 -03459.4 -07.5827 26216.0
 10 07 2013  21 19  -21.0734 25987.1 -03459.5 -07.5827 26216.4
 10 07 2013  21 20  -21.0737 25987.3 -03459.5 -07.5828 26216.6
 10 07 2013  21 21  -21.0739 25987.7 -03459.7 -07.5830 26217.0
 10 07 2013  21 22  -21.0742 25988.1 -03459.7 -07.5831 26217.4
 10 07 2013  21 23  -21.0745 25988.2 -03459.7 -07.5830 26217.5
 10 07 2013  21 24  -21.0750 25988.2 -03459.6 -07.5827 26217.5
 10 07 2013  21 25  -21.0754 25988.3 -03459.5 -07.5825 26217.5
 10 07 2013  21 26  -21.0756 25988.2 -03459.3 -07.5822 26217.4
 10 07 2013  21 27  -21.0758 25988.1 -03459.2 -07.5818 26217.3
 10 07 2013  21 28  -21.0758 25988.1 -03459.1 -07.5816 26217.3
 10 07 2013  21 29  -21.0758 25988.2 -03459.0 -07.5815 26217.4
 10 07 2013  21 30  -21.0760 25988.1 -03458.9 -07.5812 26217.3
 10 07 2013  21 31  -21.0763 25988.1 -03458.8 -07.5811 26217.3
 10 07 2013  21 32  -21.0763 25988.0 -03458.8 -07.5810 26217.1
 10 07 2013  21 33  -21.0764 25987.8 -03458.6 -07.5808 26216.9
 10 07 2013  21 34  -21.0763 25987.6 -03458.6 -07.5806 26216.8
 10 07 2013  21 35  -21.0765 25987.6 -03458.5 -07.5805 26216.8
 10 07 2013  21 36  -21.0769 25987.6 -03458.5 -07.5806 26216.8
 10 07 2013  21 37  -21.0770 25987.5 -03458.5 -07.5804 26216.7
 10 07 2013  21 38  -21.0771 25987.5 -03458.4 -07.5803 26216.6
 10 07 2013  21 39  -21.0772 25987.2 -03458.2 -07.5801 26216.3
 10 07 2013  21 40  -21.0771 25987.1 -03458.2 -07.5800 26216.2
 10 07 2013  21 41  -21.0770 25987.0 -03458.1 -07.5798 26216.1
 10 07 2013  21 42  -21.0768 25986.9 -03458.1 -07.5798 26216.0
 10 07 2013  21 43  -21.0764 25986.9 -03458.0 -07.5797 26216.0
 10 07 2013  21 44  -21.0764 25986.8 -03458.0 -07.5796 26215.8
 10 07 2013  21 45  -21.0763 25986.6 -03457.9 -07.5795 26215.7
 10 07 2013  21 46  -21.0763 25986.5 -03457.9 -07.5795 26215.5
 10 07 2013  21 47  -21.0762 25986.3 -03457.8 -07.5793 26215.3
 10 07 2013  21 48  -21.0764 25986.1 -03457.7 -07.5792 26215.1
 10 07 2013  21 49  -21.0763 25985.9 -03457.6 -07.5791 26214.9
 10 07 2013  21 50  -21.0766 25985.9 -03457.6 -07.5792 26214.9
 10 07 2013  21 51  -21.0767 25985.8 -03457.6 -07.5791 26214.8
 10 07 2013  21 52  -21.0770 25985.7 -03457.6 -07.5792 26214.7
 10 07 2013  21 53  -21.0771 25985.7 -03457.6 -07.5792 26214.7
 10 07 2013  21 54  -21.0773 25985.8 -03457.7 -07.5792 26214.8
 10 07 2013  21 55  -21.0776 25986.0 -03457.8 -07.5794 26215.0
 10 07 2013  21 56  -21.0778 25986.1 -03457.8 -07.5795 26215.1
 10 07 2013  21 57  -21.0779 25986.2 -03457.9 -07.5795 26215.3
 10 07 2013  21 58  -21.0781 25986.3 -03457.9 -07.5795 26215.3
 10 07 2013  21 59  -21.0783 25986.5 -03458.0 -07.5797 26215.5
 10 07 2013  22 00  -21.0782 25986.5 -03457.9 -07.5796 26215.6
 10 07 2013  22 01  -21.0782 25986.8 -03458.0 -07.5797 26215.8
 10 07 2013  22 02  -21.0779 25987.1 -03458.2 -07.5800 26216.2
 10 07 2013  22 03  -21.0776 25987.2 -03458.1 -07.5799 26216.2
 10 07 2013  22 04  -21.0775 25987.2 -03458.1 -07.5798 26216.3
 10 07 2013  22 05  -21.0772 25987.2 -03458.1 -07.5797 26216.2
 10 07 2013  22 06  -21.0770 25987.1 -03458.0 -07.5796 26216.1
 10 07 2013  22 07  -21.0770 25986.9 -03457.9 -07.5795 26216.0
 10 07 2013  22 08  -21.0771 25986.8 -03457.9 -07.5794 26215.8
 10 07 2013  22 09  -21.0771 25986.9 -03457.9 -07.5795 26216.0
 10 07 2013  22 10  -21.0773 25987.0 -03458.0 -07.5796 26216.0
 10 07 2013  22 11  -21.0773 25987.1 -03458.0 -07.5796 26216.1
 10 07 2013  22 12  -21.0771 25987.0 -03458.0 -07.5796 26216.1
 10 07 2013  22 13  -21.0770 25987.0 -03457.9 -07.5794 26216.0
 10 07 2013  22 14  -21.0768 25986.9 -03457.8 -07.5793 26215.9
 10 07 2013  22 15  -21.0766 25986.8 -03457.8 -07.5792 26215.8
 10 07 2013  22 16  -21.0767 25986.7 -03457.8 -07.5792 26215.7
 10 07 2013  22 17  -21.0769 25986.8 -03457.8 -07.5792 26215.8
 10 07 2013  22 18  -21.0773 25986.9 -03457.9 -07.5795 26216.0
 10 07 2013  22 19  -21.0776 25987.2 -03458.1 -07.5798 26216.3
 10 07 2013  22 20  -21.0773 25987.5 -03458.2 -07.5799 26216.5
 10 07 2013  22 21  -21.0769 25987.6 -03458.2 -07.5800 26216.7
 10 07 2013  22 22  -21.0763 25987.9 -03458.3 -07.5801 26217.0
 10 07 2013  22 23  -21.0760 25987.9 -03458.3 -07.5800 26217.0
 10 07 2013  22 24  -21.0756 25988.1 -03458.4 -07.5802 26217.2
 10 07 2013  22 25  -21.0754 25988.3 -03458.5 -07.5804 26217.4
 10 07 2013  22 26  -21.0753 25988.5 -03458.6 -07.5804 26217.6
 10 07 2013  22 27  -21.0753 25988.6 -03458.7 -07.5806 26217.8
 10 07 2013  22 28  -21.0754 25988.9 -03458.8 -07.5808 26218.1
 10 07 2013  22 29  -21.0756 25989.2 -03459.0 -07.5811 26218.4
 10 07 2013  22 30  -21.0757 25989.3 -03459.0 -07.5810 26218.4
 10 07 2013  22 31  -21.0757 25989.3 -03458.9 -07.5810 26218.5
 10 07 2013  22 32  -21.0754 25989.2 -03458.9 -07.5809 26218.3
 10 07 2013  22 33  -21.0751 25988.9 -03458.7 -07.5806 26218.1
 10 07 2013  22 34  -21.0746 25988.7 -03458.6 -07.5803 26217.8
 10 07 2013  22 35  -21.0743 25988.4 -03458.4 -07.5800 26217.5
 10 07 2013  22 36  -21.0743 25988.3 -03458.3 -07.5799 26217.4
 10 07 2013  22 37  -21.0745 25987.9 -03458.2 -07.5798 26217.0
 10 07 2013  22 38  -21.0746 25987.5 -03458.1 -07.5796 26216.5
 10 07 2013  22 39  -21.0752 25987.1 -03457.9 -07.5794 26216.1
 10 07 2013  22 40  -21.0756 25986.9 -03457.8 -07.5792 26215.9
 10 07 2013  22 41  -21.0762 25986.6 -03457.7 -07.5791 26215.6
 10 07 2013  22 42  -21.0769 25986.1 -03457.6 -07.5789 26215.1
 10 07 2013  22 43  -21.0775 25985.8 -03457.4 -07.5787 26214.8
 10 07 2013  22 44  -21.0783 25985.7 -03457.4 -07.5786 26214.7
 10 07 2013  22 45  -21.0793 25986.0 -03457.6 -07.5789 26215.0
 10 07 2013  22 46  -21.0802 25986.2 -03457.6 -07.5791 26215.2
 10 07 2013  22 47  -21.0814 25986.4 -03457.8 -07.5793 26215.4
 10 07 2013  22 48  -21.0824 25986.6 -03457.9 -07.5795 26215.6
 10 07 2013  22 49  -21.0834 25986.8 -03458.0 -07.5796 26215.9
 10 07 2013  22 50  -21.0845 25987.3 -03458.2 -07.5799 26216.4
 10 07 2013  22 51  -21.0852 25987.8 -03458.3 -07.5801 26216.9
 10 07 2013  22 52  -21.0855 25988.5 -03458.5 -07.5803 26217.6
 10 07 2013  22 53  -21.0855 25989.1 -03458.7 -07.5805 26218.2
 10 07 2013  22 54  -21.0855 25989.8 -03458.9 -07.5807 26218.9
 10 07 2013  22 55  -21.0853 25990.5 -03459.1 -07.5810 26219.7
 10 07 2013  22 56  -21.0847 25991.1 -03459.3 -07.5811 26220.3
 10 07 2013  22 57  -21.0841 25991.7 -03459.4 -07.5813 26220.9
 10 07 2013  22 58  -21.0834 25992.1 -03459.5 -07.5814 26221.3
 10 07 2013  22 59  -21.0825 25992.2 -03459.4 -07.5812 26221.4
 10 07 2013  23 00  -21.0812 25992.4 -03459.4 -07.5811 26221.6
 10 07 2013  23 01  -21.0805 25992.6 -03459.4 -07.5810 26221.8
 10 07 2013  23 02  -21.0799 25992.8 -03459.4 -07.5810 26222.0
 10 07 2013  23 03  -21.0793 25992.8 -03459.4 -07.5810 26222.0
 10 07 2013  23 04  -21.0789 25992.8 -03459.4 -07.5809 26222.0
 10 07 2013  23 05  -21.0785 25992.7 -03459.3 -07.5808 26221.9
 10 07 2013  23 06  -21.0780 25992.6 -03459.2 -07.5806 26221.7
 10 07 2013  23 07  -21.0775 25992.2 -03459.0 -07.5804 26221.4
 10 07 2013  23 08  -21.0769 25992.1 -03458.9 -07.5801 26221.2
 10 07 2013  23 09  -21.0763 25991.9 -03458.8 -07.5800 26221.0
 10 07 2013  23 10  -21.0756 25991.8 -03458.8 -07.5799 26220.9
 10 07 2013  23 11  -21.0750 25991.6 -03458.7 -07.5798 26220.7
 10 07 2013  23 12  -21.0743 25991.4 -03458.7 -07.5798 26220.5
 10 07 2013  23 13  -21.0734 25991.4 -03458.6 -07.5797 26220.5
 10 07 2013  23 14  -21.0722 25991.2 -03458.6 -07.5797 26220.3
 10 07 2013  23 15  -21.0710 25990.9 -03458.5 -07.5796 26220.0
 10 07 2013  23 16  -21.0697 25990.8 -03458.6 -07.5797 26219.9
 10 07 2013  23 17  -21.0688 25990.7 -03458.6 -07.5798 26219.8
 10 07 2013  23 18  -21.0678 25990.7 -03458.7 -07.5801 26219.8
 10 07 2013  23 19  -21.0672 25990.5 -03458.7 -07.5802 26219.6
 10 07 2013  23 20  -21.0669 25990.4 -03458.8 -07.5804 26219.5
 10 07 2013  23 21  -21.0667 25990.3 -03458.9 -07.5806 26219.4
 10 07 2013  23 22  -21.0666 25990.2 -03458.9 -07.5807 26219.4
 10 07 2013  23 23  -21.0669 25990.3 -03459.1 -07.5810 26219.4
 10 07 2013  23 24  -21.0670 25990.4 -03459.2 -07.5812 26219.6
 10 07 2013  23 25  -21.0673 25990.5 -03459.3 -07.5814 26219.7
 10 07 2013  23 26  -21.0675 25990.8 -03459.5 -07.5818 26220.0
 10 07 2013  23 27  -21.0678 25991.2 -03459.7 -07.5821 26220.4
 10 07 2013  23 28  -21.0680 25991.7 -03460.0 -07.5826 26221.0
 10 07 2013  23 29  -21.0686 25992.3 -03460.3 -07.5831 26221.6
 10 07 2013  23 30  -21.0691 25992.9 -03460.6 -07.5835 26222.3
 10 07 2013  23 31  -21.0696 25993.5 -03460.8 -07.5839 26222.9
 10 07 2013  23 32  -21.0702 25994.1 -03461.1 -07.5842 26223.5
 10 07 2013  23 33  -21.0711 25994.8 -03461.3 -07.5846 26224.2
 10 07 2013  23 34  -21.0721 25995.4 -03461.6 -07.5849 26224.9
 10 07 2013  23 35  -21.0729 25996.0 -03461.7 -07.5850 26225.4
 10 07 2013  23 36  -21.0735 25996.4 -03461.7 -07.5850 26225.9
 10 07 2013  23 37  -21.0738 25996.5 -03461.6 -07.5847 26226.0
 10 07 2013  23 38  -21.0739 25996.4 -03461.4 -07.5842 26225.8
 10 07 2013  23 39  -21.0738 25996.1 -03461.1 -07.5836 26225.5
 10 07 2013  23 40  -21.0734 25995.8 -03460.7 -07.5830 26225.1
 10 07 2013  23 41  -21.0730 25995.4 -03460.4 -07.5824 26224.7
 10 07 2013  23 42  -21.0726 25994.9 -03460.0 -07.5817 26224.1
 10 07 2013  23 43  -21.0717 25994.5 -03459.7 -07.5812 26223.7
 10 07 2013  23 44  -21.0708 25993.9 -03459.5 -07.5808 26223.1
 10 07 2013  23 45  -21.0701 25993.3 -03459.2 -07.5803 26222.5
 10 07 2013  23 46  -21.0696 25993.0 -03459.1 -07.5802 26222.1
 10 07 2013  23 47  -21.0693 25992.7 -03459.0 -07.5801 26221.8
 10 07 2013  23 48  -21.0690 25992.5 -03459.0 -07.5801 26221.6
 10 07 2013  23 49  -21.0689 25992.4 -03459.0 -07.5802 26221.5
 10 07 2013  23 50  -21.0688 25992.5 -03459.2 -07.5805 26221.7
 10 07 2013  23 51  -21.0689 25992.7 -03459.3 -07.5808 26221.9
 10 07 2013  23 52  -21.0691 25993.0 -03459.6 -07.5813 26222.2
 10 07 2013  23 53  -21.0694 25993.2 -03459.7 -07.5815 26222.4
 10 07 2013  23 54  -21.0694 25993.3 -03459.8 -07.5816 26222.6
 10 07 2013  23 55  -21.0692 25993.4 -03459.8 -07.5817 26222.7
 10 07 2013  23 56  -21.0690 25993.4 -03459.8 -07.5817 26222.6
 10 07 2013  23 57  -21.0685 25993.2 -03459.7 -07.5815 26222.4
 10 07 2013  23 58  -21.0679 25993.0 -03459.6 -07.5812 26222.2
 10 07 2013  23 59  -21.0673 25992.8 -03459.4 -07.5811 26222.0
