SAO LUIS EMBRACE-03 <320> 1 Min. Reported data

 DD MM YYYY  HH MM   D(Deg)  H(nT)   Z(nT)   I(Deg)   F(nT)

 16 11 2013  00 00  -21.0334 25978.9 -03503.6 -07.6808 26214.1
 16 11 2013  00 01  -21.0332 25978.6 -03503.6 -07.6807 26213.8
 16 11 2013  00 02  -21.0332 25978.3 -03503.5 -07.6808 26213.5
 16 11 2013  00 03  -21.0331 25977.9 -03503.4 -07.6807 26213.1
 16 11 2013  00 04  -21.0330 25977.7 -03503.4 -07.6807 26212.8
 16 11 2013  00 05  -21.0331 25977.3 -03503.4 -07.6807 26212.5
 16 11 2013  00 06  -21.0333 25977.0 -03503.3 -07.6807 26212.1
 16 11 2013  00 07  -21.0331 25976.8 -03503.3 -07.6807 26211.9
 16 11 2013  00 08  -21.0331 25976.6 -03503.3 -07.6808 26211.8
 16 11 2013  00 09  -21.0331 25976.4 -03503.3 -07.6809 26211.6
 16 11 2013  00 10  -21.0332 25976.4 -03503.4 -07.6811 26211.6
 16 11 2013  00 11  -21.0335 25976.3 -03503.5 -07.6813 26211.5
 16 11 2013  00 12  -21.0338 25976.2 -03503.6 -07.6815 26211.4
 16 11 2013  00 13  -21.0342 25976.1 -03503.6 -07.6816 26211.3
 16 11 2013  00 14  -21.0345 25975.9 -03503.6 -07.6816 26211.1
 16 11 2013  00 15  -21.0346 25975.6 -03503.6 -07.6816 26210.8
 16 11 2013  00 16  -21.0349 25975.5 -03503.6 -07.6817 26210.7
 16 11 2013  00 17  -21.0352 25975.5 -03503.7 -07.6819 26210.8
 16 11 2013  00 18  -21.0355 25975.5 -03503.7 -07.6820 26210.8
 16 11 2013  00 19  -21.0359 25975.5 -03503.8 -07.6822 26210.7
 16 11 2013  00 20  -21.0363 25975.5 -03503.9 -07.6823 26210.7
 16 11 2013  00 21  -21.0365 25975.4 -03504.0 -07.6825 26210.7
 16 11 2013  00 22  -21.0366 25975.4 -03503.9 -07.6825 26210.6
 16 11 2013  00 23  -21.0370 25975.3 -03504.0 -07.6826 26210.5
 16 11 2013  00 24  -21.0375 25975.2 -03504.0 -07.6827 26210.5
 16 11 2013  00 25  -21.0380 25975.2 -03504.0 -07.6828 26210.5
 16 11 2013  00 26  -21.0387 25975.1 -03504.1 -07.6829 26210.4
 16 11 2013  00 27  -21.0394 25975.1 -03504.1 -07.6830 26210.4
 16 11 2013  00 28  -21.0402 25975.1 -03504.2 -07.6832 26210.4
 16 11 2013  00 29  -21.0409 25975.2 -03504.2 -07.6832 26210.5
 16 11 2013  00 30  -21.0414 25975.1 -03504.2 -07.6832 26210.4
 16 11 2013  00 31  -21.0418 25975.0 -03504.2 -07.6831 26210.3
 16 11 2013  00 32  -21.0421 25975.0 -03504.2 -07.6831 26210.3
 16 11 2013  00 33  -21.0423 25975.0 -03504.2 -07.6831 26210.3
 16 11 2013  00 34  -21.0423 25975.1 -03504.2 -07.6831 26210.4
 16 11 2013  00 35  -21.0424 25975.1 -03504.2 -07.6832 26210.4
 16 11 2013  00 36  -21.0425 25974.9 -03504.2 -07.6832 26210.2
 16 11 2013  00 37  -21.0425 25974.7 -03504.1 -07.6830 26210.0
 16 11 2013  00 38  -21.0421 25974.6 -03504.0 -07.6829 26209.9
 16 11 2013  00 39  -21.0417 25974.6 -03504.0 -07.6830 26209.9
 16 11 2013  00 40  -21.0413 25974.7 -03504.1 -07.6831 26210.0
 16 11 2013  00 41  -21.0407 25974.7 -03504.2 -07.6833 26210.0
 16 11 2013  00 42  -21.0403 25974.7 -03504.3 -07.6835 26210.0
 16 11 2013  00 43  -21.0397 25974.7 -03504.3 -07.6836 26210.0
 16 11 2013  00 44  -21.0390 25974.7 -03504.4 -07.6837 26210.1
 16 11 2013  00 45  -21.0384 25974.7 -03504.5 -07.6839 26210.0
 16 11 2013  00 46  -21.0379 25974.6 -03504.6 -07.6841 26210.0
 16 11 2013  00 47  -21.0376 25974.6 -03504.7 -07.6843 26210.0
 16 11 2013  00 48  -21.0376 25974.4 -03504.6 -07.6843 26209.8
 16 11 2013  00 49  -21.0376 25974.1 -03504.6 -07.6843 26209.4
 16 11 2013  00 50  -21.0376 25973.8 -03504.5 -07.6843 26209.2
 16 11 2013  00 51  -21.0377 25973.5 -03504.5 -07.6843 26208.8
 16 11 2013  00 52  -21.0378 25973.0 -03504.3 -07.6841 26208.3
 16 11 2013  00 53  -21.0379 25972.6 -03504.3 -07.6840 26207.9
 16 11 2013  00 54  -21.0380 25972.3 -03504.2 -07.6839 26207.6
 16 11 2013  00 55  -21.0382 25972.1 -03504.2 -07.6840 26207.5
 16 11 2013  00 56  -21.0384 25971.9 -03504.2 -07.6842 26207.3
 16 11 2013  00 57  -21.0384 25971.6 -03504.1 -07.6840 26206.9
 16 11 2013  00 58  -21.0386 25971.2 -03504.1 -07.6840 26206.5
 16 11 2013  00 59  -21.0386 25970.9 -03504.0 -07.6839 26206.2
 16 11 2013  01 00  -21.0386 25970.6 -03503.9 -07.6839 26205.9
 16 11 2013  01 01  -21.0386 25970.4 -03504.0 -07.6840 26205.7
 16 11 2013  01 02  -21.0387 25970.4 -03504.0 -07.6842 26205.7
 16 11 2013  01 03  -21.0387 25970.7 -03504.3 -07.6846 26206.0
 16 11 2013  01 04  -21.0388 25970.9 -03504.5 -07.6850 26206.3
 16 11 2013  01 05  -21.0390 25971.1 -03504.7 -07.6854 26206.5
 16 11 2013  01 06  -21.0389 25971.1 -03504.8 -07.6857 26206.6
 16 11 2013  01 07  -21.0385 25971.1 -03504.8 -07.6857 26206.5
 16 11 2013  01 08  -21.0383 25971.0 -03504.8 -07.6856 26206.4
 16 11 2013  01 09  -21.0383 25971.0 -03504.9 -07.6858 26206.5
 16 11 2013  01 10  -21.0384 25971.1 -03505.0 -07.6860 26206.6
 16 11 2013  01 11  -21.0383 25971.3 -03505.2 -07.6865 26206.8
 16 11 2013  01 12  -21.0383 25971.6 -03505.4 -07.6867 26207.1
 16 11 2013  01 13  -21.0386 25971.7 -03505.6 -07.6871 26207.2
 16 11 2013  01 14  -21.0388 25971.9 -03505.6 -07.6872 26207.4
 16 11 2013  01 15  -21.0389 25972.0 -03505.8 -07.6874 26207.5
 16 11 2013  01 16  -21.0391 25972.0 -03505.8 -07.6874 26207.5
 16 11 2013  01 17  -21.0394 25971.9 -03505.8 -07.6875 26207.5
 16 11 2013  01 18  -21.0395 25971.9 -03505.8 -07.6875 26207.5
 16 11 2013  01 19  -21.0398 25971.9 -03505.8 -07.6876 26207.4
 16 11 2013  01 20  -21.0402 25971.8 -03505.8 -07.6876 26207.4
 16 11 2013  01 21  -21.0404 25971.8 -03505.8 -07.6876 26207.4
 16 11 2013  01 22  -21.0406 25971.7 -03505.8 -07.6876 26207.3
 16 11 2013  01 23  -21.0409 25971.6 -03505.8 -07.6876 26207.2
 16 11 2013  01 24  -21.0413 25971.6 -03505.9 -07.6877 26207.2
 16 11 2013  01 25  -21.0418 25971.6 -03505.9 -07.6878 26207.2
 16 11 2013  01 26  -21.0417 25971.8 -03506.0 -07.6879 26207.3
 16 11 2013  01 27  -21.0413 25972.2 -03506.1 -07.6882 26207.8
 16 11 2013  01 28  -21.0410 25972.6 -03506.4 -07.6886 26208.2
 16 11 2013  01 29  -21.0408 25972.8 -03506.6 -07.6889 26208.5
 16 11 2013  01 30  -21.0406 25973.0 -03506.7 -07.6891 26208.7
 16 11 2013  01 31  -21.0405 25973.1 -03506.8 -07.6893 26208.8
 16 11 2013  01 32  -21.0405 25973.1 -03506.8 -07.6893 26208.8
 16 11 2013  01 33  -21.0408 25973.2 -03506.8 -07.6894 26208.9
 16 11 2013  01 34  -21.0412 25973.3 -03506.9 -07.6896 26209.0
 16 11 2013  01 35  -21.0418 25973.2 -03506.9 -07.6896 26208.9
 16 11 2013  01 36  -21.0424 25973.0 -03506.9 -07.6895 26208.7
 16 11 2013  01 37  -21.0425 25972.9 -03506.8 -07.6894 26208.5
 16 11 2013  01 38  -21.0426 25972.5 -03506.5 -07.6890 26208.1
 16 11 2013  01 39  -21.0426 25972.1 -03506.4 -07.6887 26207.8
 16 11 2013  01 40  -21.0425 25971.8 -03506.3 -07.6886 26207.4
 16 11 2013  01 41  -21.0423 25971.7 -03506.2 -07.6885 26207.3
 16 11 2013  01 42  -21.0422 25971.5 -03506.2 -07.6885 26207.1
 16 11 2013  01 43  -21.0422 25971.5 -03506.3 -07.6887 26207.1
 16 11 2013  01 44  -21.0422 25971.4 -03506.3 -07.6888 26207.0
 16 11 2013  01 45  -21.0423 25971.2 -03506.3 -07.6888 26206.8
 16 11 2013  01 46  -21.0424 25971.1 -03506.4 -07.6890 26206.8
 16 11 2013  01 47  -21.0424 25971.2 -03506.5 -07.6892 26206.8
 16 11 2013  01 48  -21.0427 25971.3 -03506.6 -07.6896 26207.0
 16 11 2013  01 49  -21.0428 25971.4 -03506.8 -07.6898 26207.1
 16 11 2013  01 50  -21.0428 25971.6 -03506.9 -07.6900 26207.3
 16 11 2013  01 51  -21.0429 25971.8 -03507.0 -07.6903 26207.5
 16 11 2013  01 52  -21.0429 25971.9 -03507.1 -07.6905 26207.6
 16 11 2013  01 53  -21.0427 25971.9 -03507.2 -07.6906 26207.6
 16 11 2013  01 54  -21.0426 25971.8 -03507.3 -07.6907 26207.6
 16 11 2013  01 55  -21.0425 25971.7 -03507.2 -07.6907 26207.4
 16 11 2013  01 56  -21.0425 25971.5 -03507.1 -07.6906 26207.3
 16 11 2013  01 57  -21.0422 25971.5 -03507.2 -07.6906 26207.2
 16 11 2013  01 58  -21.0422 25971.6 -03507.3 -07.6908 26207.3
 16 11 2013  01 59  -21.0425 25971.6 -03507.4 -07.6910 26207.4
 16 11 2013  02 00  -21.0427 25971.6 -03507.4 -07.6912 26207.4
 16 11 2013  02 01  -21.0429 25971.6 -03507.5 -07.6913 26207.4
 16 11 2013  02 02  -21.0431 25971.6 -03507.5 -07.6913 26207.4
 16 11 2013  02 03  -21.0432 25971.6 -03507.5 -07.6914 26207.4
 16 11 2013  02 04  -21.0431 25971.7 -03507.5 -07.6914 26207.4
 16 11 2013  02 05  -21.0431 25971.6 -03507.6 -07.6915 26207.4
 16 11 2013  02 06  -21.0430 25971.6 -03507.6 -07.6915 26207.4
 16 11 2013  02 07  -21.0430 25971.6 -03507.6 -07.6916 26207.4
 16 11 2013  02 08  -21.0432 25971.6 -03507.7 -07.6917 26207.4
 16 11 2013  02 09  -21.0432 25971.7 -03507.7 -07.6918 26207.5
 16 11 2013  02 10  -21.0434 25972.0 -03507.9 -07.6921 26207.9
 16 11 2013  02 11  -21.0436 25972.5 -03508.2 -07.6925 26208.3
 16 11 2013  02 12  -21.0440 25972.9 -03508.4 -07.6929 26208.8
 16 11 2013  02 13  -21.0443 25973.2 -03508.5 -07.6931 26209.1
 16 11 2013  02 14  -21.0447 25973.0 -03508.5 -07.6931 26208.9
 16 11 2013  02 15  -21.0452 25972.8 -03508.3 -07.6928 26208.6
 16 11 2013  02 16  -21.0454 25972.7 -03508.2 -07.6926 26208.5
 16 11 2013  02 17  -21.0454 25972.7 -03508.2 -07.6925 26208.6
 16 11 2013  02 18  -21.0458 25972.8 -03508.3 -07.6927 26208.7
 16 11 2013  02 19  -21.0462 25973.0 -03508.4 -07.6929 26208.9
 16 11 2013  02 20  -21.0463 25973.2 -03508.5 -07.6930 26209.1
 16 11 2013  02 21  -21.0462 25973.5 -03508.6 -07.6932 26209.5
 16 11 2013  02 22  -21.0461 25973.8 -03508.7 -07.6933 26209.7
 16 11 2013  02 23  -21.0462 25973.8 -03508.7 -07.6933 26209.8
 16 11 2013  02 24  -21.0464 25973.9 -03508.8 -07.6934 26209.9
 16 11 2013  02 25  -21.0466 25973.9 -03508.8 -07.6934 26209.8
 16 11 2013  02 26  -21.0467 25973.6 -03508.6 -07.6931 26209.5
 16 11 2013  02 27  -21.0468 25973.1 -03508.3 -07.6926 26209.0
 16 11 2013  02 28  -21.0466 25972.7 -03508.0 -07.6921 26208.5
 16 11 2013  02 29  -21.0464 25972.4 -03507.9 -07.6919 26208.2
 16 11 2013  02 30  -21.0461 25972.2 -03507.8 -07.6918 26208.1
 16 11 2013  02 31  -21.0455 25972.8 -03508.1 -07.6922 26208.7
 16 11 2013  02 32  -21.0450 25973.9 -03508.6 -07.6930 26209.8
 16 11 2013  02 33  -21.0438 25976.4 -03509.8 -07.6950 26212.5
 16 11 2013  02 34  -21.0432 25978.5 -03511.0 -07.6969 26214.7
 16 11 2013  02 35  -21.0429 25980.4 -03511.9 -07.6983 26216.7
 16 11 2013  02 36  -21.0429 25981.6 -03512.4 -07.6991 26217.9
 16 11 2013  02 37  -21.0430 25982.2 -03512.6 -07.6993 26218.6
 16 11 2013  02 38  -21.0430 25983.0 -03512.8 -07.6995 26219.4
 16 11 2013  02 39  -21.0438 25983.0 -03512.7 -07.6992 26219.4
 16 11 2013  02 40  -21.0445 25982.6 -03512.3 -07.6984 26218.9
 16 11 2013  02 41  -21.0450 25982.1 -03511.8 -07.6975 26218.4
 16 11 2013  02 42  -21.0455 25982.0 -03511.5 -07.6969 26218.2
 16 11 2013  02 43  -21.0461 25981.9 -03511.3 -07.6965 26218.0
 16 11 2013  02 44  -21.0466 25982.3 -03511.3 -07.6965 26218.5
 16 11 2013  02 45  -21.0475 25982.6 -03511.4 -07.6966 26218.8
 16 11 2013  02 46  -21.0481 25983.1 -03511.5 -07.6967 26219.3
 16 11 2013  02 47  -21.0487 25983.5 -03511.6 -07.6968 26219.7
 16 11 2013  02 48  -21.0494 25984.2 -03511.8 -07.6970 26220.4
 16 11 2013  02 49  -21.0504 25984.5 -03511.9 -07.6970 26220.8
 16 11 2013  02 50  -21.0510 25985.1 -03511.9 -07.6970 26221.3
 16 11 2013  02 51  -21.0515 25985.4 -03512.0 -07.6969 26221.6
 16 11 2013  02 52  -21.0517 25985.4 -03511.7 -07.6964 26221.7
 16 11 2013  02 53  -21.0519 25985.7 -03511.6 -07.6962 26221.9
 16 11 2013  02 54  -21.0520 25986.1 -03511.7 -07.6961 26222.3
 16 11 2013  02 55  -21.0520 25986.5 -03511.7 -07.6961 26222.7
 16 11 2013  02 56  -21.0520 25986.6 -03511.6 -07.6958 26222.8
 16 11 2013  02 57  -21.0517 25987.0 -03511.6 -07.6956 26223.2
 16 11 2013  02 58  -21.0507 25987.9 -03511.7 -07.6957 26224.1
 16 11 2013  02 59  -21.0498 25988.4 -03511.9 -07.6959 26224.6
 16 11 2013  03 00  -21.0491 25988.7 -03511.9 -07.6958 26224.9
 16 11 2013  03 01  -21.0481 25989.0 -03511.9 -07.6957 26225.2
 16 11 2013  03 02  -21.0472 25988.8 -03511.6 -07.6952 26225.0
 16 11 2013  03 03  -21.0460 25988.9 -03511.5 -07.6950 26225.0
 16 11 2013  03 04  -21.0450 25989.0 -03511.5 -07.6949 26225.2
 16 11 2013  03 05  -21.0448 25988.8 -03511.4 -07.6946 26224.9
 16 11 2013  03 06  -21.0445 25989.5 -03511.6 -07.6950 26225.7
 16 11 2013  03 07  -21.0445 25989.9 -03511.8 -07.6954 26226.1
 16 11 2013  03 08  -21.0444 25990.3 -03512.0 -07.6955 26226.5
 16 11 2013  03 09  -21.0446 25990.7 -03512.1 -07.6958 26227.0
 16 11 2013  03 10  -21.0446 25991.4 -03512.3 -07.6960 26227.6
 16 11 2013  03 11  -21.0445 25992.2 -03512.6 -07.6963 26228.4
 16 11 2013  03 12  -21.0444 25993.0 -03512.9 -07.6968 26229.3
 16 11 2013  03 13  -21.0441 25993.6 -03513.1 -07.6970 26230.0
 16 11 2013  03 14  -21.0438 25994.1 -03513.2 -07.6970 26230.4
 16 11 2013  03 15  -21.0436 25994.6 -03513.2 -07.6970 26230.9
 16 11 2013  03 16  -21.0438 25995.1 -03513.4 -07.6972 26231.5
 16 11 2013  03 17  -21.0440 25995.5 -03513.4 -07.6972 26231.9
 16 11 2013  03 18  -21.0441 25995.9 -03513.4 -07.6971 26232.2
 16 11 2013  03 19  -21.0440 25996.0 -03513.4 -07.6970 26232.4
 16 11 2013  03 20  -21.0441 25996.0 -03513.2 -07.6965 26232.3
 16 11 2013  03 21  -21.0440 25995.9 -03513.0 -07.6961 26232.2
 16 11 2013  03 22  -21.0438 25995.9 -03512.8 -07.6956 26232.2
 16 11 2013  03 23  -21.0435 25996.0 -03512.7 -07.6954 26232.3
 16 11 2013  03 24  -21.0430 25996.0 -03512.6 -07.6951 26232.3
 16 11 2013  03 25  -21.0423 25995.8 -03512.3 -07.6947 26232.0
 16 11 2013  03 26  -21.0414 25995.7 -03512.2 -07.6944 26231.9
 16 11 2013  03 27  -21.0404 25995.4 -03511.9 -07.6939 26231.5
 16 11 2013  03 28  -21.0394 25995.0 -03511.7 -07.6936 26231.1
 16 11 2013  03 29  -21.0384 25994.6 -03511.5 -07.6932 26230.7
 16 11 2013  03 30  -21.0378 25994.1 -03511.3 -07.6929 26230.2
 16 11 2013  03 31  -21.0373 25993.7 -03511.1 -07.6927 26229.8
 16 11 2013  03 32  -21.0372 25993.3 -03510.9 -07.6924 26229.3
 16 11 2013  03 33  -21.0370 25992.9 -03510.8 -07.6922 26228.9
 16 11 2013  03 34  -21.0370 25992.5 -03510.7 -07.6921 26228.6
 16 11 2013  03 35  -21.0368 25992.3 -03510.6 -07.6921 26228.3
 16 11 2013  03 36  -21.0367 25992.1 -03510.6 -07.6920 26228.1
 16 11 2013  03 37  -21.0370 25992.0 -03510.6 -07.6921 26228.0
 16 11 2013  03 38  -21.0374 25991.8 -03510.6 -07.6921 26227.8
 16 11 2013  03 39  -21.0376 25991.7 -03510.6 -07.6921 26227.7
 16 11 2013  03 40  -21.0376 25991.7 -03510.6 -07.6921 26227.7
 16 11 2013  03 41  -21.0376 25991.7 -03510.6 -07.6922 26227.7
 16 11 2013  03 42  -21.0378 25991.7 -03510.7 -07.6923 26227.7
 16 11 2013  03 43  -21.0378 25991.7 -03510.7 -07.6924 26227.7
 16 11 2013  03 44  -21.0376 25991.7 -03510.7 -07.6924 26227.7
 16 11 2013  03 45  -21.0373 25991.7 -03510.8 -07.6925 26227.8
 16 11 2013  03 46  -21.0372 25991.8 -03510.8 -07.6926 26227.8
 16 11 2013  03 47  -21.0371 25991.7 -03510.8 -07.6926 26227.8
 16 11 2013  03 48  -21.0370 25991.6 -03510.8 -07.6925 26227.6
 16 11 2013  03 49  -21.0368 25991.4 -03510.7 -07.6924 26227.4
 16 11 2013  03 50  -21.0368 25991.2 -03510.6 -07.6923 26227.2
 16 11 2013  03 51  -21.0368 25991.1 -03510.6 -07.6924 26227.1
 16 11 2013  03 52  -21.0368 25990.9 -03510.6 -07.6923 26227.0
 16 11 2013  03 53  -21.0370 25991.0 -03510.6 -07.6924 26227.0
 16 11 2013  03 54  -21.0371 25991.4 -03510.8 -07.6927 26227.5
 16 11 2013  03 55  -21.0370 25992.1 -03511.1 -07.6932 26228.2
 16 11 2013  03 56  -21.0368 25992.8 -03511.5 -07.6939 26229.0
 16 11 2013  03 57  -21.0364 25993.4 -03511.8 -07.6942 26229.6
 16 11 2013  03 58  -21.0358 25993.8 -03512.0 -07.6946 26230.0
 16 11 2013  03 59  -21.0353 25994.1 -03512.1 -07.6947 26230.3
 16 11 2013  04 00  -21.0346 25994.1 -03512.1 -07.6947 26230.3
 16 11 2013  04 01  -21.0339 25993.9 -03511.9 -07.6943 26230.0
 16 11 2013  04 02  -21.0329 25993.5 -03511.6 -07.6939 26229.6
 16 11 2013  04 03  -21.0324 25993.3 -03511.5 -07.6937 26229.4
 16 11 2013  04 04  -21.0322 25993.3 -03511.5 -07.6937 26229.4
 16 11 2013  04 05  -21.0322 25993.4 -03511.6 -07.6938 26229.5
 16 11 2013  04 06  -21.0323 25993.3 -03511.6 -07.6939 26229.4
 16 11 2013  04 07  -21.0323 25993.2 -03511.6 -07.6939 26229.3
 16 11 2013  04 08  -21.0320 25993.2 -03511.6 -07.6938 26229.3
 16 11 2013  04 09  -21.0317 25993.0 -03511.5 -07.6937 26229.2
 16 11 2013  04 10  -21.0316 25992.9 -03511.4 -07.6936 26229.0
 16 11 2013  04 11  -21.0315 25992.8 -03511.4 -07.6935 26228.9
 16 11 2013  04 12  -21.0314 25992.7 -03511.3 -07.6934 26228.8
 16 11 2013  04 13  -21.0312 25992.6 -03511.3 -07.6934 26228.7
 16 11 2013  04 14  -21.0312 25992.5 -03511.3 -07.6934 26228.6
 16 11 2013  04 15  -21.0309 25992.3 -03511.2 -07.6932 26228.4
 16 11 2013  04 16  -21.0305 25992.1 -03511.1 -07.6931 26228.1
 16 11 2013  04 17  -21.0302 25991.9 -03511.1 -07.6931 26228.0
 16 11 2013  04 18  -21.0300 25992.1 -03511.1 -07.6932 26228.1
 16 11 2013  04 19  -21.0301 25992.2 -03511.3 -07.6936 26228.4
 16 11 2013  04 20  -21.0302 25992.4 -03511.5 -07.6938 26228.5
 16 11 2013  04 21  -21.0305 25992.6 -03511.6 -07.6940 26228.7
 16 11 2013  04 22  -21.0307 25992.8 -03511.7 -07.6942 26228.9
 16 11 2013  04 23  -21.0307 25992.9 -03511.8 -07.6944 26229.0
 16 11 2013  04 24  -21.0305 25992.9 -03511.8 -07.6943 26229.1
 16 11 2013  04 25  -21.0301 25992.9 -03511.8 -07.6943 26229.0
 16 11 2013  04 26  -21.0297 25993.0 -03511.8 -07.6943 26229.1
 16 11 2013  04 27  -21.0294 25993.0 -03511.8 -07.6943 26229.1
 16 11 2013  04 28  -21.0293 25993.0 -03511.8 -07.6944 26229.1
 16 11 2013  04 29  -21.0293 25993.0 -03511.9 -07.6945 26229.2
 16 11 2013  04 30  -21.0293 25993.1 -03511.9 -07.6945 26229.2
 16 11 2013  04 31  -21.0293 25993.1 -03511.9 -07.6945 26229.3
 16 11 2013  04 32  -21.0291 25993.3 -03512.0 -07.6946 26229.5
 16 11 2013  04 33  -21.0289 25993.6 -03512.1 -07.6948 26229.8
 16 11 2013  04 34  -21.0288 25994.1 -03512.4 -07.6953 26230.4
 16 11 2013  04 35  -21.0289 25994.5 -03512.6 -07.6956 26230.7
 16 11 2013  04 36  -21.0289 25994.6 -03512.7 -07.6957 26230.9
 16 11 2013  04 37  -21.0289 25994.6 -03512.6 -07.6957 26230.9
 16 11 2013  04 38  -21.0289 25994.6 -03512.6 -07.6956 26230.8
 16 11 2013  04 39  -21.0289 25994.6 -03512.6 -07.6956 26230.8
 16 11 2013  04 40  -21.0289 25994.6 -03512.5 -07.6954 26230.9
 16 11 2013  04 41  -21.0291 25994.6 -03512.5 -07.6954 26230.9
 16 11 2013  04 42  -21.0295 25994.7 -03512.5 -07.6954 26230.9
 16 11 2013  04 43  -21.0300 25994.8 -03512.6 -07.6955 26231.0
 16 11 2013  04 44  -21.0306 25995.0 -03512.7 -07.6958 26231.3
 16 11 2013  04 45  -21.0311 25995.2 -03512.8 -07.6959 26231.5
 16 11 2013  04 46  -21.0317 25995.4 -03512.8 -07.6959 26231.6
 16 11 2013  04 47  -21.0321 25995.5 -03512.8 -07.6958 26231.7
 16 11 2013  04 48  -21.0324 25995.6 -03512.8 -07.6958 26231.8
 16 11 2013  04 49  -21.0327 25995.6 -03512.8 -07.6957 26231.8
 16 11 2013  04 50  -21.0330 25995.6 -03512.7 -07.6956 26231.8
 16 11 2013  04 51  -21.0334 25995.6 -03512.7 -07.6955 26231.9
 16 11 2013  04 52  -21.0337 25995.7 -03512.6 -07.6954 26231.9
 16 11 2013  04 53  -21.0340 25995.9 -03512.7 -07.6954 26232.1
 16 11 2013  04 54  -21.0343 25996.2 -03512.7 -07.6955 26232.4
 16 11 2013  04 55  -21.0349 25996.4 -03512.8 -07.6956 26232.7
 16 11 2013  04 56  -21.0354 25996.6 -03512.9 -07.6956 26232.9
 16 11 2013  04 57  -21.0359 25996.6 -03512.8 -07.6956 26232.9
 16 11 2013  04 58  -21.0364 25996.5 -03512.7 -07.6952 26232.7
 16 11 2013  04 59  -21.0370 25996.3 -03512.5 -07.6949 26232.5
 16 11 2013  05 00  -21.0376 25996.2 -03512.3 -07.6945 26232.4
 16 11 2013  05 01  -21.0381 25996.2 -03512.2 -07.6944 26232.4
 16 11 2013  05 02  -21.0384 25996.5 -03512.3 -07.6944 26232.6
 16 11 2013  05 03  -21.0385 25996.9 -03512.4 -07.6945 26233.1
 16 11 2013  05 04  -21.0384 25997.4 -03512.6 -07.6947 26233.7
 16 11 2013  05 05  -21.0384 25998.0 -03512.8 -07.6950 26234.2
 16 11 2013  05 06  -21.0383 25998.4 -03512.9 -07.6952 26234.6
 16 11 2013  05 07  -21.0385 25998.6 -03512.9 -07.6952 26234.9
 16 11 2013  05 08  -21.0385 25998.5 -03512.8 -07.6949 26234.7
 16 11 2013  05 09  -21.0382 25998.0 -03512.4 -07.6942 26234.2
 16 11 2013  05 10  -21.0376 25997.3 -03511.9 -07.6933 26233.4
 16 11 2013  05 11  -21.0372 25996.6 -03511.5 -07.6926 26232.7
 16 11 2013  05 12  -21.0370 25996.0 -03511.1 -07.6919 26232.0
 16 11 2013  05 13  -21.0369 25995.3 -03510.7 -07.6913 26231.3
 16 11 2013  05 14  -21.0372 25995.0 -03510.6 -07.6911 26231.0
 16 11 2013  05 15  -21.0379 25995.1 -03510.6 -07.6912 26231.1
 16 11 2013  05 16  -21.0384 25995.4 -03510.8 -07.6915 26231.4
 16 11 2013  05 17  -21.0391 25995.7 -03511.0 -07.6918 26231.8
 16 11 2013  05 18  -21.0395 25996.1 -03511.2 -07.6921 26232.2
 16 11 2013  05 19  -21.0399 25996.5 -03511.4 -07.6924 26232.6
 16 11 2013  05 20  -21.0401 25996.9 -03511.5 -07.6925 26233.0
 16 11 2013  05 21  -21.0403 25997.2 -03511.6 -07.6927 26233.3
 16 11 2013  05 22  -21.0403 25997.5 -03511.7 -07.6927 26233.6
 16 11 2013  05 23  -21.0402 25997.8 -03511.7 -07.6928 26233.9
 16 11 2013  05 24  -21.0400 25998.0 -03511.7 -07.6928 26234.2
 16 11 2013  05 25  -21.0401 25998.1 -03511.7 -07.6927 26234.2
 16 11 2013  05 26  -21.0402 25997.9 -03511.6 -07.6925 26234.0
 16 11 2013  05 27  -21.0403 25997.8 -03511.4 -07.6922 26233.9
 16 11 2013  05 28  -21.0403 25997.7 -03511.3 -07.6919 26233.8
 16 11 2013  05 29  -21.0406 25997.9 -03511.3 -07.6919 26233.9
 16 11 2013  05 30  -21.0410 25998.1 -03511.4 -07.6920 26234.2
 16 11 2013  05 31  -21.0414 25998.5 -03511.6 -07.6923 26234.5
 16 11 2013  05 32  -21.0420 25998.9 -03511.7 -07.6925 26235.0
 16 11 2013  05 33  -21.0425 25999.1 -03511.8 -07.6926 26235.2
 16 11 2013  05 34  -21.0428 25999.4 -03511.8 -07.6926 26235.5
 16 11 2013  05 35  -21.0428 25999.5 -03511.8 -07.6925 26235.6
 16 11 2013  05 36  -21.0429 25999.8 -03511.8 -07.6925 26235.9
 16 11 2013  05 37  -21.0430 26000.0 -03511.9 -07.6924 26236.2
 16 11 2013  05 38  -21.0431 26000.4 -03512.0 -07.6926 26236.6
 16 11 2013  05 39  -21.0431 26000.8 -03512.1 -07.6926 26236.9
 16 11 2013  05 40  -21.0431 26001.1 -03512.1 -07.6927 26237.2
 16 11 2013  05 41  -21.0431 26001.3 -03512.1 -07.6927 26237.4
 16 11 2013  05 42  -21.0430 26001.4 -03512.1 -07.6925 26237.6
 16 11 2013  05 43  -21.0430 26001.5 -03512.1 -07.6924 26237.6
 16 11 2013  05 44  -21.0430 26001.5 -03512.0 -07.6923 26237.6
 16 11 2013  05 45  -21.0428 26001.4 -03511.8 -07.6920 26237.5
 16 11 2013  05 46  -21.0425 26001.5 -03511.8 -07.6918 26237.6
 16 11 2013  05 47  -21.0422 26001.6 -03511.8 -07.6918 26237.7
 16 11 2013  05 48  -21.0420 26001.7 -03511.8 -07.6917 26237.8
 16 11 2013  05 49  -21.0420 26002.0 -03511.8 -07.6918 26238.1
 16 11 2013  05 50  -21.0422 26002.3 -03512.0 -07.6920 26238.4
 16 11 2013  05 51  -21.0423 26002.7 -03512.1 -07.6923 26238.8
 16 11 2013  05 52  -21.0424 26003.0 -03512.3 -07.6924 26239.2
 16 11 2013  05 53  -21.0425 26003.2 -03512.3 -07.6925 26239.3
 16 11 2013  05 54  -21.0424 26003.2 -03512.2 -07.6922 26239.3
 16 11 2013  05 55  -21.0422 26003.1 -03512.0 -07.6919 26239.2
 16 11 2013  05 56  -21.0420 26003.2 -03512.0 -07.6918 26239.3
 16 11 2013  05 57  -21.0420 26003.5 -03512.1 -07.6919 26239.6
 16 11 2013  05 58  -21.0419 26003.8 -03512.2 -07.6921 26239.9
 16 11 2013  05 59  -21.0419 26004.2 -03512.4 -07.6923 26240.3
 16 11 2013  06 00  -21.0420 26004.4 -03512.4 -07.6924 26240.6
 16 11 2013  06 01  -21.0420 26004.5 -03512.4 -07.6923 26240.6
 16 11 2013  06 02  -21.0419 26004.0 -03512.1 -07.6918 26240.1
 16 11 2013  06 03  -21.0419 26003.6 -03511.8 -07.6912 26239.6
 16 11 2013  06 04  -21.0417 26003.2 -03511.4 -07.6906 26239.2
 16 11 2013  06 05  -21.0416 26003.0 -03511.3 -07.6903 26239.0
 16 11 2013  06 06  -21.0416 26003.0 -03511.3 -07.6904 26239.0
 16 11 2013  06 07  -21.0417 26003.1 -03511.3 -07.6903 26239.1
 16 11 2013  06 08  -21.0416 26003.3 -03511.4 -07.6904 26239.3
 16 11 2013  06 09  -21.0416 26003.4 -03511.4 -07.6905 26239.4
 16 11 2013  06 10  -21.0416 26003.5 -03511.5 -07.6906 26239.5
 16 11 2013  06 11  -21.0414 26003.8 -03511.5 -07.6907 26239.8
 16 11 2013  06 12  -21.0413 26004.1 -03511.7 -07.6909 26240.1
 16 11 2013  06 13  -21.0410 26004.3 -03511.7 -07.6909 26240.4
 16 11 2013  06 14  -21.0408 26005.0 -03512.0 -07.6913 26241.1
 16 11 2013  06 15  -21.0405 26005.5 -03512.2 -07.6916 26241.6
 16 11 2013  06 16  -21.0405 26005.8 -03512.3 -07.6918 26241.9
 16 11 2013  06 17  -21.0403 26006.0 -03512.4 -07.6919 26242.1
 16 11 2013  06 18  -21.0399 26005.8 -03512.2 -07.6916 26241.9
 16 11 2013  06 19  -21.0397 26005.4 -03512.0 -07.6911 26241.5
 16 11 2013  06 20  -21.0394 26005.1 -03511.7 -07.6906 26241.1
 16 11 2013  06 21  -21.0392 26004.7 -03511.4 -07.6901 26240.7
 16 11 2013  06 22  -21.0393 26004.8 -03511.4 -07.6900 26240.8
 16 11 2013  06 23  -21.0394 26005.0 -03511.5 -07.6901 26241.0
 16 11 2013  06 24  -21.0399 26005.3 -03511.6 -07.6904 26241.3
 16 11 2013  06 25  -21.0401 26005.5 -03511.7 -07.6905 26241.5
 16 11 2013  06 26  -21.0402 26005.4 -03511.6 -07.6903 26241.4
 16 11 2013  06 27  -21.0401 26005.3 -03511.5 -07.6902 26241.3
 16 11 2013  06 28  -21.0399 26005.3 -03511.4 -07.6899 26241.3
 16 11 2013  06 29  -21.0398 26005.4 -03511.4 -07.6899 26241.4
 16 11 2013  06 30  -21.0398 26005.6 -03511.4 -07.6899 26241.6
 16 11 2013  06 31  -21.0397 26005.9 -03511.6 -07.6901 26241.9
 16 11 2013  06 32  -21.0398 26006.3 -03511.7 -07.6903 26242.3
 16 11 2013  06 33  -21.0398 26006.7 -03511.9 -07.6906 26242.8
 16 11 2013  06 34  -21.0399 26006.9 -03512.0 -07.6907 26242.9
 16 11 2013  06 35  -21.0397 26006.9 -03511.9 -07.6904 26242.9
 16 11 2013  06 36  -21.0397 26006.6 -03511.6 -07.6900 26242.6
 16 11 2013  06 37  -21.0394 26006.3 -03511.4 -07.6896 26242.3
 16 11 2013  06 38  -21.0392 26006.2 -03511.2 -07.6893 26242.1
 16 11 2013  06 39  -21.0392 26006.2 -03511.2 -07.6892 26242.2
 16 11 2013  06 40  -21.0394 26006.6 -03511.3 -07.6894 26242.6
 16 11 2013  06 41  -21.0396 26006.9 -03511.5 -07.6896 26242.9
 16 11 2013  06 42  -21.0397 26007.2 -03511.6 -07.6897 26243.2
 16 11 2013  06 43  -21.0396 26007.5 -03511.6 -07.6896 26243.5
 16 11 2013  06 44  -21.0396 26007.6 -03511.6 -07.6897 26243.6
 16 11 2013  06 45  -21.0395 26007.7 -03511.5 -07.6895 26243.6
 16 11 2013  06 46  -21.0392 26007.7 -03511.4 -07.6892 26243.6
 16 11 2013  06 47  -21.0390 26007.7 -03511.3 -07.6890 26243.6
 16 11 2013  06 48  -21.0388 26007.9 -03511.3 -07.6890 26243.9
 16 11 2013  06 49  -21.0386 26008.1 -03511.5 -07.6892 26244.1
 16 11 2013  06 50  -21.0386 26008.3 -03511.5 -07.6892 26244.2
 16 11 2013  06 51  -21.0385 26008.2 -03511.4 -07.6890 26244.2
 16 11 2013  06 52  -21.0383 26008.0 -03511.2 -07.6886 26244.0
 16 11 2013  06 53  -21.0381 26007.9 -03511.1 -07.6884 26243.8
 16 11 2013  06 54  -21.0381 26007.8 -03510.9 -07.6882 26243.7
 16 11 2013  06 55  -21.0381 26007.8 -03510.9 -07.6881 26243.7
 16 11 2013  06 56  -21.0380 26007.9 -03510.9 -07.6881 26243.8
 16 11 2013  06 57  -21.0381 26007.9 -03510.9 -07.6880 26243.8
 16 11 2013  06 58  -21.0381 26007.7 -03510.7 -07.6878 26243.6
 16 11 2013  06 59  -21.0380 26007.5 -03510.6 -07.6875 26243.4
 16 11 2013  07 00  -21.0376 26007.4 -03510.5 -07.6873 26243.3
 16 11 2013  07 01  -21.0374 26007.4 -03510.5 -07.6873 26243.3
 16 11 2013  07 02  -21.0372 26007.5 -03510.5 -07.6873 26243.4
 16 11 2013  07 03  -21.0371 26007.7 -03510.6 -07.6874 26243.6
 16 11 2013  07 04  -21.0370 26007.8 -03510.7 -07.6876 26243.6
 16 11 2013  07 05  -21.0369 26007.9 -03510.7 -07.6876 26243.8
 16 11 2013  07 06  -21.0366 26007.9 -03510.7 -07.6876 26243.7
 16 11 2013  07 07  -21.0363 26007.7 -03510.5 -07.6873 26243.5
 16 11 2013  07 08  -21.0361 26007.5 -03510.4 -07.6870 26243.3
 16 11 2013  07 09  -21.0359 26007.3 -03510.3 -07.6869 26243.2
 16 11 2013  07 10  -21.0358 26007.4 -03510.2 -07.6868 26243.2
 16 11 2013  07 11  -21.0357 26007.5 -03510.4 -07.6870 26243.4
 16 11 2013  07 12  -21.0355 26007.7 -03510.5 -07.6872 26243.6
 16 11 2013  07 13  -21.0355 26007.9 -03510.5 -07.6873 26243.8
 16 11 2013  07 14  -21.0354 26008.1 -03510.6 -07.6874 26243.9
 16 11 2013  07 15  -21.0353 26008.3 -03510.7 -07.6875 26244.2
 16 11 2013  07 16  -21.0353 26008.5 -03510.8 -07.6876 26244.4
 16 11 2013  07 17  -21.0352 26008.6 -03510.8 -07.6877 26244.5
 16 11 2013  07 18  -21.0350 26008.7 -03510.9 -07.6877 26244.6
 16 11 2013  07 19  -21.0348 26008.8 -03510.8 -07.6877 26244.6
 16 11 2013  07 20  -21.0346 26008.7 -03510.8 -07.6876 26244.5
 16 11 2013  07 21  -21.0345 26008.6 -03510.7 -07.6875 26244.5
 16 11 2013  07 22  -21.0345 26008.6 -03510.7 -07.6874 26244.4
 16 11 2013  07 23  -21.0344 26008.6 -03510.6 -07.6872 26244.5
 16 11 2013  07 24  -21.0343 26008.7 -03510.7 -07.6873 26244.6
 16 11 2013  07 25  -21.0342 26008.9 -03510.7 -07.6874 26244.8
 16 11 2013  07 26  -21.0339 26009.2 -03510.9 -07.6877 26245.1
 16 11 2013  07 27  -21.0337 26009.5 -03511.0 -07.6878 26245.4
 16 11 2013  07 28  -21.0335 26009.8 -03511.2 -07.6881 26245.7
 16 11 2013  07 29  -21.0331 26009.9 -03511.2 -07.6882 26245.9
 16 11 2013  07 30  -21.0326 26010.1 -03511.3 -07.6883 26246.0
 16 11 2013  07 31  -21.0321 26010.2 -03511.3 -07.6882 26246.1
 16 11 2013  07 32  -21.0316 26010.1 -03511.2 -07.6880 26246.0
 16 11 2013  07 33  -21.0313 26009.8 -03511.0 -07.6878 26245.7
 16 11 2013  07 34  -21.0308 26009.8 -03510.9 -07.6876 26245.7
 16 11 2013  07 35  -21.0302 26010.5 -03511.2 -07.6880 26246.4
 16 11 2013  07 36  -21.0296 26011.1 -03511.6 -07.6886 26247.1
 16 11 2013  07 37  -21.0297 26011.7 -03511.9 -07.6892 26247.7
 16 11 2013  07 38  -21.0293 26012.0 -03512.2 -07.6896 26248.1
 16 11 2013  07 39  -21.0291 26012.2 -03512.2 -07.6897 26248.3
 16 11 2013  07 40  -21.0286 26012.4 -03512.3 -07.6898 26248.4
 16 11 2013  07 41  -21.0275 26012.2 -03512.2 -07.6897 26248.3
 16 11 2013  07 42  -21.0257 26011.5 -03511.9 -07.6891 26247.5
 16 11 2013  07 43  -21.0245 26010.3 -03511.2 -07.6880 26246.2
 16 11 2013  07 44  -21.0240 26010.1 -03511.0 -07.6877 26246.0
 16 11 2013  07 45  -21.0233 26010.3 -03511.2 -07.6879 26246.2
 16 11 2013  07 46  -21.0225 26010.4 -03511.4 -07.6883 26246.4
 16 11 2013  07 47  -21.0220 26010.2 -03511.4 -07.6884 26246.1
 16 11 2013  07 48  -21.0212 26010.1 -03511.3 -07.6884 26246.1
 16 11 2013  07 49  -21.0202 26010.1 -03511.4 -07.6886 26246.1
 16 11 2013  07 50  -21.0192 26010.0 -03511.5 -07.6887 26246.0
 16 11 2013  07 51  -21.0175 26009.9 -03511.4 -07.6886 26245.8
 16 11 2013  07 52  -21.0160 26009.4 -03511.2 -07.6882 26245.3
 16 11 2013  07 53  -21.0148 26008.8 -03510.9 -07.6879 26244.7
 16 11 2013  07 54  -21.0142 26008.3 -03510.7 -07.6876 26244.2
 16 11 2013  07 55  -21.0142 26007.9 -03510.7 -07.6876 26243.8
 16 11 2013  07 56  -21.0143 26007.8 -03510.7 -07.6878 26243.7
 16 11 2013  07 57  -21.0152 26007.9 -03510.9 -07.6881 26243.8
 16 11 2013  07 58  -21.0165 26008.1 -03511.3 -07.6888 26244.0
 16 11 2013  07 59  -21.0185 26008.5 -03511.7 -07.6896 26244.5
 16 11 2013  08 00  -21.0202 26009.2 -03512.2 -07.6904 26245.3
 16 11 2013  08 01  -21.0218 26009.9 -03512.6 -07.6911 26246.0
 16 11 2013  08 02  -21.0236 26010.6 -03513.0 -07.6918 26246.8
 16 11 2013  08 03  -21.0256 26011.3 -03513.3 -07.6923 26247.5
 16 11 2013  08 04  -21.0278 26011.9 -03513.5 -07.6926 26248.2
 16 11 2013  08 05  -21.0301 26012.5 -03513.7 -07.6929 26248.7
 16 11 2013  08 06  -21.0323 26012.9 -03513.7 -07.6927 26249.1
 16 11 2013  08 07  -21.0344 26013.2 -03513.7 -07.6926 26249.4
 16 11 2013  08 08  -21.0359 26013.2 -03513.5 -07.6920 26249.4
 16 11 2013  08 09  -21.0366 26013.1 -03513.1 -07.6913 26249.3
 16 11 2013  08 10  -21.0368 26012.9 -03512.6 -07.6903 26249.0
 16 11 2013  08 11  -21.0368 26012.5 -03512.1 -07.6893 26248.5
 16 11 2013  08 12  -21.0370 26012.0 -03511.6 -07.6884 26248.0
 16 11 2013  08 13  -21.0374 26011.7 -03511.3 -07.6877 26247.6
 16 11 2013  08 14  -21.0381 26011.7 -03511.1 -07.6874 26247.5
 16 11 2013  08 15  -21.0387 26011.5 -03511.0 -07.6872 26247.4
 16 11 2013  08 16  -21.0390 26011.6 -03510.9 -07.6869 26247.4
 16 11 2013  08 17  -21.0391 26011.8 -03510.8 -07.6867 26247.6
 16 11 2013  08 18  -21.0391 26012.1 -03510.9 -07.6868 26248.0
 16 11 2013  08 19  -21.0391 26012.2 -03510.8 -07.6866 26248.1
 16 11 2013  08 20  -21.0390 26012.4 -03510.8 -07.6865 26248.2
 16 11 2013  08 21  -21.0387 26012.4 -03510.6 -07.6862 26248.2
 16 11 2013  08 22  -21.0385 26012.3 -03510.5 -07.6859 26248.1
 16 11 2013  08 23  -21.0383 26012.6 -03510.5 -07.6859 26248.4
 16 11 2013  08 24  -21.0378 26013.1 -03510.7 -07.6861 26248.9
 16 11 2013  08 25  -21.0378 26013.3 -03510.7 -07.6861 26249.1
 16 11 2013  08 26  -21.0379 26013.4 -03510.8 -07.6862 26249.2
 16 11 2013  08 27  -21.0378 26013.4 -03510.8 -07.6862 26249.3
 16 11 2013  08 28  -21.0378 26013.3 -03510.7 -07.6860 26249.2
 16 11 2013  08 29  -21.0378 26013.3 -03510.6 -07.6859 26249.1
 16 11 2013  08 30  -21.0375 26013.3 -03510.6 -07.6859 26249.1
 16 11 2013  08 31  -21.0377 26013.1 -03510.6 -07.6859 26248.9
 16 11 2013  08 32  -21.0379 26013.4 -03510.7 -07.6861 26249.2
 16 11 2013  08 33  -21.0381 26014.1 -03511.1 -07.6867 26250.0
 16 11 2013  08 34  -21.0376 26015.4 -03511.9 -07.6880 26251.3
 16 11 2013  08 35  -21.0366 26015.5 -03512.1 -07.6885 26251.5
 16 11 2013  08 36  -21.0363 26014.9 -03511.9 -07.6881 26250.9
 16 11 2013  08 37  -21.0365 26015.0 -03511.9 -07.6881 26251.0
 16 11 2013  08 38  -21.0377 26015.5 -03512.1 -07.6885 26251.5
 16 11 2013  08 39  -21.0381 26015.6 -03512.2 -07.6887 26251.6
 16 11 2013  08 40  -21.0389 26015.6 -03512.3 -07.6888 26251.7
 16 11 2013  08 41  -21.0394 26015.8 -03512.3 -07.6888 26251.8
 16 11 2013  08 42  -21.0399 26016.4 -03512.5 -07.6891 26252.4
 16 11 2013  08 43  -21.0404 26016.8 -03512.8 -07.6895 26252.9
 16 11 2013  08 44  -21.0406 26017.1 -03512.8 -07.6896 26253.2
 16 11 2013  08 45  -21.0407 26017.0 -03512.7 -07.6894 26253.1
 16 11 2013  08 46  -21.0410 26016.9 -03512.7 -07.6893 26253.0
 16 11 2013  08 47  -21.0407 26016.9 -03512.6 -07.6891 26252.9
 16 11 2013  08 48  -21.0407 26016.8 -03512.5 -07.6890 26252.9
 16 11 2013  08 49  -21.0413 26017.3 -03512.7 -07.6892 26253.4
 16 11 2013  08 50  -21.0409 26017.9 -03512.9 -07.6895 26254.0
 16 11 2013  08 51  -21.0401 26017.8 -03512.9 -07.6894 26253.9
 16 11 2013  08 52  -21.0396 26018.1 -03513.0 -07.6897 26254.2
 16 11 2013  08 53  -21.0388 26018.6 -03513.3 -07.6902 26254.7
 16 11 2013  08 54  -21.0387 26019.4 -03513.7 -07.6909 26255.6
 16 11 2013  08 55  -21.0388 26020.4 -03514.2 -07.6915 26256.6
 16 11 2013  08 56  -21.0383 26021.5 -03514.7 -07.6922 26257.7
 16 11 2013  08 57  -21.0386 26022.3 -03515.0 -07.6928 26258.6
 16 11 2013  08 58  -21.0394 26022.8 -03515.1 -07.6928 26259.1
 16 11 2013  08 59  -21.0405 26023.6 -03515.1 -07.6926 26259.9
 16 11 2013  09 00  -21.0413 26024.1 -03514.9 -07.6920 26260.4
 16 11 2013  09 01  -21.0417 26024.5 -03514.7 -07.6914 26260.8
 16 11 2013  09 02  -21.0422 26024.5 -03514.3 -07.6907 26260.7
 16 11 2013  09 03  -21.0422 26024.5 -03514.1 -07.6901 26260.6
 16 11 2013  09 04  -21.0412 26023.4 -03513.4 -07.6889 26259.5
 16 11 2013  09 05  -21.0408 26022.5 -03512.8 -07.6880 26258.6
 16 11 2013  09 06  -21.0436 26022.7 -03512.8 -07.6879 26258.7
 16 11 2013  09 07  -21.0470 26023.1 -03512.8 -07.6878 26259.1
 16 11 2013  09 08  -21.0474 26022.0 -03512.0 -07.6863 26257.9
 16 11 2013  09 09  -21.0473 26020.9 -03511.2 -07.6850 26256.7
 16 11 2013  09 10  -21.0471 26019.8 -03510.7 -07.6842 26255.5
 16 11 2013  09 11  -21.0464 26018.7 -03510.3 -07.6836 26254.4
 16 11 2013  09 12  -21.0451 26018.0 -03510.2 -07.6837 26253.8
 16 11 2013  09 13  -21.0444 26017.7 -03510.5 -07.6844 26253.4
 16 11 2013  09 14  -21.0439 26017.5 -03510.9 -07.6854 26253.3
 16 11 2013  09 15  -21.0434 26017.5 -03511.5 -07.6864 26253.4
 16 11 2013  09 16  -21.0432 26017.5 -03511.9 -07.6875 26253.5
 16 11 2013  09 17  -21.0437 26017.6 -03512.3 -07.6883 26253.6
 16 11 2013  09 18  -21.0450 26017.9 -03512.7 -07.6890 26254.0
 16 11 2013  09 19  -21.0464 26018.5 -03513.0 -07.6896 26254.6
 16 11 2013  09 20  -21.0473 26018.8 -03513.2 -07.6898 26254.9
 16 11 2013  09 21  -21.0476 26018.7 -03513.0 -07.6895 26254.8
 16 11 2013  09 22  -21.0479 26018.7 -03513.0 -07.6895 26254.8
 16 11 2013  09 23  -21.0490 26019.2 -03513.3 -07.6900 26255.3
 16 11 2013  09 24  -21.0495 26019.8 -03513.7 -07.6906 26255.9
 16 11 2013  09 25  -21.0500 26020.0 -03513.8 -07.6909 26256.2
 16 11 2013  09 26  -21.0505 26020.3 -03513.9 -07.6910 26256.5
 16 11 2013  09 27  -21.0513 26020.9 -03514.2 -07.6913 26257.1
 16 11 2013  09 28  -21.0520 26021.4 -03514.3 -07.6915 26257.7
 16 11 2013  09 29  -21.0524 26021.9 -03514.3 -07.6914 26258.1
 16 11 2013  09 30  -21.0528 26022.4 -03514.3 -07.6913 26258.6
 16 11 2013  09 31  -21.0530 26022.6 -03514.2 -07.6909 26258.8
 16 11 2013  09 32  -21.0535 26023.2 -03514.2 -07.6908 26259.4
 16 11 2013  09 33  -21.0534 26023.4 -03514.2 -07.6906 26259.6
 16 11 2013  09 34  -21.0534 26023.9 -03514.3 -07.6907 26260.2
 16 11 2013  09 35  -21.0532 26024.3 -03514.4 -07.6908 26260.6
 16 11 2013  09 36  -21.0534 26024.9 -03514.5 -07.6910 26261.1
 16 11 2013  09 37  -21.0531 26025.0 -03514.5 -07.6908 26261.2
 16 11 2013  09 38  -21.0542 26025.5 -03514.6 -07.6909 26261.7
 16 11 2013  09 39  -21.0548 26025.6 -03514.5 -07.6908 26261.9
 16 11 2013  09 40  -21.0550 26025.3 -03514.2 -07.6902 26261.5
 16 11 2013  09 41  -21.0572 26026.0 -03514.4 -07.6905 26262.2
 16 11 2013  09 42  -21.0595 26027.4 -03514.8 -07.6909 26263.6
 16 11 2013  09 43  -21.0595 26027.7 -03514.7 -07.6905 26263.9
 16 11 2013  09 44  -21.0596 26027.4 -03514.3 -07.6898 26263.6
 16 11 2013  09 45  -21.0594 26027.0 -03514.2 -07.6896 26263.2
 16 11 2013  09 46  -21.0590 26026.6 -03514.1 -07.6895 26262.8
 16 11 2013  09 47  -21.0582 26026.6 -03514.1 -07.6896 26262.7
 16 11 2013  09 48  -21.0577 26027.2 -03514.4 -07.6899 26263.4
 16 11 2013  09 49  -21.0586 26029.0 -03515.1 -07.6909 26265.3
 16 11 2013  09 50  -21.0596 26030.6 -03515.6 -07.6916 26266.9
 16 11 2013  09 51  -21.0605 26031.3 -03515.6 -07.6914 26267.7
 16 11 2013  09 52  -21.0609 26031.6 -03515.4 -07.6908 26267.9
 16 11 2013  09 53  -21.0614 26032.2 -03515.2 -07.6903 26268.4
 16 11 2013  09 54  -21.0622 26032.8 -03515.2 -07.6901 26269.0
 16 11 2013  09 55  -21.0632 26033.4 -03515.2 -07.6900 26269.7
 16 11 2013  09 56  -21.0641 26033.7 -03515.1 -07.6895 26269.9
 16 11 2013  09 57  -21.0649 26033.6 -03514.8 -07.6890 26269.8
 16 11 2013  09 58  -21.0655 26033.8 -03514.7 -07.6888 26269.9
 16 11 2013  09 59  -21.0663 26033.7 -03514.5 -07.6884 26269.8
 16 11 2013  10 00  -21.0661 26033.3 -03514.3 -07.6881 26269.4
 16 11 2013  10 01  -21.0663 26032.7 -03514.1 -07.6877 26268.8
 16 11 2013  10 02  -21.0667 26032.3 -03514.0 -07.6876 26268.4
 16 11 2013  10 03  -21.0664 26031.9 -03513.9 -07.6875 26268.0
 16 11 2013  10 04  -21.0664 26031.5 -03513.8 -07.6874 26267.5
 16 11 2013  10 05  -21.0665 26030.8 -03513.7 -07.6874 26266.9
 16 11 2013  10 06  -21.0664 26030.2 -03513.6 -07.6875 26266.2
 16 11 2013  10 07  -21.0657 26029.3 -03513.5 -07.6874 26265.4
 16 11 2013  10 08  -21.0654 26029.1 -03513.6 -07.6878 26265.2
 16 11 2013  10 09  -21.0647 26029.0 -03513.8 -07.6883 26265.1
 16 11 2013  10 10  -21.0642 26028.7 -03513.9 -07.6884 26264.8
 16 11 2013  10 11  -21.0640 26028.0 -03513.8 -07.6884 26264.1
 16 11 2013  10 12  -21.0640 26027.5 -03513.9 -07.6888 26263.6
 16 11 2013  10 13  -21.0642 26027.2 -03514.0 -07.6892 26263.4
 16 11 2013  10 14  -21.0645 26027.2 -03514.3 -07.6898 26263.4
 16 11 2013  10 15  -21.0646 26027.0 -03514.5 -07.6902 26263.2
 16 11 2013  10 16  -21.0645 26026.5 -03514.5 -07.6904 26262.8
 16 11 2013  10 17  -21.0652 26026.5 -03514.7 -07.6908 26262.8
 16 11 2013  10 18  -21.0657 26026.7 -03514.9 -07.6912 26263.0
 16 11 2013  10 19  -21.0660 26026.5 -03514.8 -07.6912 26262.8
 16 11 2013  10 20  -21.0663 26026.6 -03515.0 -07.6914 26262.9
 16 11 2013  10 21  -21.0664 26027.0 -03515.1 -07.6916 26263.3
 16 11 2013  10 22  -21.0664 26027.0 -03515.1 -07.6917 26263.3
 16 11 2013  10 23  -21.0659 26026.7 -03515.1 -07.6917 26263.0
 16 11 2013  10 24  -21.0653 26026.9 -03515.3 -07.6921 26263.2
 16 11 2013  10 25  -21.0649 26027.3 -03515.6 -07.6927 26263.7
 16 11 2013  10 26  -21.0645 26027.8 -03515.9 -07.6931 26264.2
 16 11 2013  10 27  -21.0648 26028.3 -03516.1 -07.6934 26264.7
 16 11 2013  10 28  -21.0651 26028.7 -03516.3 -07.6936 26265.1
 16 11 2013  10 29  -21.0653 26028.9 -03516.3 -07.6937 26265.3
 16 11 2013  10 30  -21.0652 26029.1 -03516.4 -07.6937 26265.5
 16 11 2013  10 31  -21.0650 26029.4 -03516.4 -07.6937 26265.8
 16 11 2013  10 32  -21.0644 26029.5 -03516.4 -07.6936 26266.0
 16 11 2013  10 33  -21.0636 26029.6 -03516.4 -07.6936 26266.0
 16 11 2013  10 34  -21.0634 26029.8 -03516.4 -07.6936 26266.2
 16 11 2013  10 35  -21.0636 26030.1 -03516.6 -07.6939 26266.6
 16 11 2013  10 36  -21.0639 26030.5 -03516.7 -07.6941 26267.0
 16 11 2013  10 37  -21.0642 26031.0 -03516.8 -07.6942 26267.5
 16 11 2013  10 38  -21.0644 26031.6 -03516.9 -07.6941 26268.1
 16 11 2013  10 39  -21.0639 26031.9 -03516.8 -07.6939 26268.4
 16 11 2013  10 40  -21.0635 26032.0 -03516.8 -07.6937 26268.5
 16 11 2013  10 41  -21.0633 26032.2 -03516.7 -07.6935 26268.6
 16 11 2013  10 42  -21.0632 26032.5 -03516.8 -07.6936 26268.9
 16 11 2013  10 43  -21.0635 26032.9 -03516.9 -07.6937 26269.4
 16 11 2013  10 44  -21.0630 26033.2 -03516.9 -07.6937 26269.7
 16 11 2013  10 45  -21.0628 26033.5 -03517.0 -07.6937 26270.0
 16 11 2013  10 46  -21.0627 26034.2 -03517.2 -07.6939 26270.7
 16 11 2013  10 47  -21.0627 26034.7 -03517.3 -07.6940 26271.2
 16 11 2013  10 48  -21.0620 26035.0 -03517.2 -07.6939 26271.5
 16 11 2013  10 49  -21.0617 26035.6 -03517.4 -07.6940 26272.1
 16 11 2013  10 50  -21.0616 26036.0 -03517.5 -07.6941 26272.5
 16 11 2013  10 51  -21.0611 26036.1 -03517.5 -07.6941 26272.7
 16 11 2013  10 52  -21.0598 26036.3 -03517.6 -07.6943 26272.8
 16 11 2013  10 53  -21.0582 26036.3 -03517.7 -07.6946 26272.9
 16 11 2013  10 54  -21.0575 26036.9 -03518.1 -07.6952 26273.5
 16 11 2013  10 55  -21.0571 26038.4 -03518.7 -07.6960 26275.0
 16 11 2013  10 56  -21.0568 26040.1 -03519.2 -07.6966 26276.9
 16 11 2013  10 57  -21.0562 26041.7 -03519.4 -07.6965 26278.4
 16 11 2013  10 58  -21.0560 26043.0 -03519.3 -07.6959 26279.7
 16 11 2013  10 59  -21.0565 26044.4 -03519.2 -07.6953 26281.1
 16 11 2013  11 00  -21.0571 26046.2 -03519.3 -07.6950 26282.9
 16 11 2013  11 01  -21.0579 26047.5 -03519.2 -07.6944 26284.1
 16 11 2013  11 02  -21.0583 26048.7 -03519.1 -07.6939 26285.4
 16 11 2013  11 03  -21.0581 26050.3 -03519.2 -07.6936 26286.9
 16 11 2013  11 04  -21.0580 26051.2 -03519.0 -07.6929 26287.8
 16 11 2013  11 05  -21.0576 26052.1 -03518.8 -07.6922 26288.7
 16 11 2013  11 06  -21.0575 26052.8 -03518.5 -07.6914 26289.3
 16 11 2013  11 07  -21.0570 26053.9 -03518.5 -07.6910 26290.4
 16 11 2013  11 08  -21.0578 26054.4 -03518.3 -07.6905 26290.9
 16 11 2013  11 09  -21.0572 26054.2 -03517.8 -07.6894 26290.6
 16 11 2013  11 10  -21.0564 26053.3 -03517.1 -07.6883 26289.6
 16 11 2013  11 11  -21.0563 26052.2 -03516.6 -07.6875 26288.4
 16 11 2013  11 12  -21.0556 26051.6 -03516.4 -07.6873 26287.8
 16 11 2013  11 13  -21.0554 26051.0 -03516.3 -07.6872 26287.3
 16 11 2013  11 14  -21.0545 26051.0 -03516.4 -07.6873 26287.2
 16 11 2013  11 15  -21.0541 26050.2 -03516.1 -07.6870 26286.4
 16 11 2013  11 16  -21.0538 26049.3 -03515.8 -07.6867 26285.5
 16 11 2013  11 17  -21.0535 26048.9 -03515.8 -07.6868 26285.1
 16 11 2013  11 18  -21.0533 26048.7 -03516.0 -07.6873 26285.0
 16 11 2013  11 19  -21.0535 26048.8 -03516.3 -07.6879 26285.0
 16 11 2013  11 20  -21.0541 26049.0 -03516.7 -07.6885 26285.3
 16 11 2013  11 21  -21.0541 26049.4 -03516.9 -07.6890 26285.8
 16 11 2013  11 22  -21.0543 26049.2 -03516.9 -07.6889 26285.5
 16 11 2013  11 23  -21.0549 26049.1 -03516.8 -07.6888 26285.4
 16 11 2013  11 24  -21.0557 26048.9 -03516.7 -07.6886 26285.2
 16 11 2013  11 25  -21.0556 26048.7 -03516.6 -07.6885 26285.0
 16 11 2013  11 26  -21.0556 26048.4 -03516.6 -07.6885 26284.7
 16 11 2013  11 27  -21.0552 26048.3 -03516.6 -07.6887 26284.6
 16 11 2013  11 28  -21.0554 26048.2 -03516.8 -07.6890 26284.5
 16 11 2013  11 29  -21.0557 26048.4 -03516.9 -07.6893 26284.7
 16 11 2013  11 30  -21.0561 26048.8 -03517.1 -07.6896 26285.1
 16 11 2013  11 31  -21.0561 26048.9 -03517.2 -07.6897 26285.3
 16 11 2013  11 32  -21.0561 26048.7 -03517.1 -07.6896 26285.0
 16 11 2013  11 33  -21.0559 26048.4 -03517.0 -07.6894 26284.7
 16 11 2013  11 34  -21.0562 26048.5 -03517.1 -07.6896 26284.9
 16 11 2013  11 35  -21.0572 26048.6 -03517.2 -07.6897 26285.0
 16 11 2013  11 36  -21.0572 26048.7 -03517.2 -07.6898 26285.1
 16 11 2013  11 37  -21.0575 26048.4 -03517.1 -07.6896 26284.8
 16 11 2013  11 38  -21.0573 26048.4 -03517.1 -07.6896 26284.8
 16 11 2013  11 39  -21.0575 26048.1 -03517.0 -07.6895 26284.5
 16 11 2013  11 40  -21.0578 26047.8 -03516.9 -07.6895 26284.1
 16 11 2013  11 41  -21.0579 26047.8 -03517.0 -07.6896 26284.1
 16 11 2013  11 42  -21.0584 26048.1 -03517.2 -07.6900 26284.5
 16 11 2013  11 43  -21.0585 26048.2 -03517.3 -07.6901 26284.6
 16 11 2013  11 44  -21.0580 26048.4 -03517.3 -07.6902 26284.8
 16 11 2013  11 45  -21.0586 26048.5 -03517.4 -07.6902 26284.9
 16 11 2013  11 46  -21.0588 26048.8 -03517.5 -07.6904 26285.2
 16 11 2013  11 47  -21.0590 26048.7 -03517.3 -07.6900 26285.1
 16 11 2013  11 48  -21.0595 26048.8 -03517.2 -07.6899 26285.2
 16 11 2013  11 49  -21.0599 26048.9 -03517.2 -07.6897 26285.3
 16 11 2013  11 50  -21.0606 26048.7 -03517.0 -07.6893 26285.0
 16 11 2013  11 51  -21.0600 26047.9 -03516.6 -07.6886 26284.2
 16 11 2013  11 52  -21.0600 26047.0 -03516.3 -07.6884 26283.3
 16 11 2013  11 53  -21.0611 26046.5 -03516.3 -07.6886 26282.8
 16 11 2013  11 54  -21.0622 26045.4 -03516.2 -07.6886 26281.7
 16 11 2013  11 55  -21.0624 26044.9 -03516.3 -07.6890 26281.2
 16 11 2013  11 56  -21.0622 26044.2 -03516.4 -07.6894 26280.5
 16 11 2013  11 57  -21.0620 26043.9 -03516.7 -07.6902 26280.3
 16 11 2013  11 58  -21.0619 26044.3 -03517.3 -07.6913 26280.8
 16 11 2013  11 59  -21.0620 26044.6 -03517.6 -07.6919 26281.1
 16 11 2013  12 00  -21.0622 26044.9 -03517.9 -07.6924 26281.5
 16 11 2013  12 01  -21.0629 26045.2 -03518.0 -07.6926 26281.7
 16 11 2013  12 02  -21.0635 26045.6 -03518.3 -07.6930 26282.2
 16 11 2013  12 03  -21.0643 26046.0 -03518.4 -07.6931 26282.5
 16 11 2013  12 04  -21.0647 26045.8 -03518.2 -07.6928 26282.4
 16 11 2013  12 05  -21.0647 26046.0 -03518.2 -07.6927 26282.6
 16 11 2013  12 06  -21.0643 26046.3 -03518.2 -07.6926 26282.9
 16 11 2013  12 07  -21.0642 26046.2 -03518.0 -07.6922 26282.7
 16 11 2013  12 08  -21.0644 26046.1 -03517.9 -07.6921 26282.6
 16 11 2013  12 09  -21.0641 26045.9 -03517.9 -07.6920 26282.4
 16 11 2013  12 10  -21.0642 26045.6 -03517.7 -07.6918 26282.1
 16 11 2013  12 11  -21.0645 26045.4 -03517.7 -07.6919 26281.9
 16 11 2013  12 12  -21.0651 26045.2 -03517.8 -07.6921 26281.7
 16 11 2013  12 13  -21.0654 26045.4 -03518.0 -07.6924 26282.0
 16 11 2013  12 14  -21.0663 26045.7 -03518.2 -07.6928 26282.3
 16 11 2013  12 15  -21.0672 26045.9 -03518.3 -07.6929 26282.4
 16 11 2013  12 16  -21.0682 26045.8 -03518.1 -07.6926 26282.4
 16 11 2013  12 17  -21.0689 26045.3 -03517.8 -07.6922 26281.8
 16 11 2013  12 18  -21.0698 26044.6 -03517.7 -07.6920 26281.1
 16 11 2013  12 19  -21.0698 26044.7 -03518.0 -07.6926 26281.3
 16 11 2013  12 20  -21.0700 26045.0 -03518.1 -07.6929 26281.5
 16 11 2013  12 21  -21.0699 26045.1 -03518.3 -07.6932 26281.6
 16 11 2013  12 22  -21.0694 26046.0 -03518.7 -07.6938 26282.6
 16 11 2013  12 23  -21.0697 26045.3 -03518.3 -07.6931 26281.9
 16 11 2013  12 24  -21.0691 26045.1 -03518.2 -07.6930 26281.7
 16 11 2013  12 25  -21.0692 26045.2 -03518.4 -07.6933 26281.8
 16 11 2013  12 26  -21.0691 26044.2 -03518.0 -07.6928 26280.8
 16 11 2013  12 27  -21.0692 26044.1 -03518.2 -07.6933 26280.6
 16 11 2013  12 28  -21.0694 26044.3 -03518.5 -07.6938 26280.8
 16 11 2013  12 29  -21.0696 26045.0 -03519.0 -07.6947 26281.6
 16 11 2013  12 30  -21.0702 26045.7 -03519.3 -07.6951 26282.4
 16 11 2013  12 31  -21.0699 26045.3 -03518.9 -07.6945 26281.9
 16 11 2013  12 32  -21.0697 26044.9 -03518.7 -07.6940 26281.5
 16 11 2013  12 33  -21.0695 26045.4 -03518.9 -07.6943 26282.0
 16 11 2013  12 34  -21.0698 26046.9 -03519.3 -07.6949 26283.6
 16 11 2013  12 35  -21.0703 26047.6 -03519.3 -07.6947 26284.3
 16 11 2013  12 36  -21.0707 26049.2 -03519.6 -07.6948 26285.9
 16 11 2013  12 37  -21.0710 26050.0 -03519.5 -07.6944 26286.7
 16 11 2013  12 38  -21.0717 26049.9 -03519.0 -07.6933 26286.5
 16 11 2013  12 39  -21.0712 26050.2 -03518.8 -07.6927 26286.8
 16 11 2013  12 40  -21.0714 26049.6 -03518.2 -07.6916 26286.1
 16 11 2013  12 41  -21.0709 26049.9 -03518.1 -07.6914 26286.4
 16 11 2013  12 42  -21.0705 26050.6 -03518.2 -07.6914 26287.1
 16 11 2013  12 43  -21.0709 26052.0 -03518.6 -07.6919 26288.5
 16 11 2013  12 44  -21.0711 26052.8 -03518.7 -07.6917 26289.4
 16 11 2013  12 45  -21.0714 26053.5 -03518.5 -07.6912 26290.0
 16 11 2013  12 46  -21.0715 26054.1 -03518.4 -07.6907 26290.6
 16 11 2013  12 47  -21.0721 26054.3 -03518.1 -07.6902 26290.8
 16 11 2013  12 48  -21.0727 26054.7 -03518.0 -07.6898 26291.1
 16 11 2013  12 49  -21.0729 26054.9 -03517.8 -07.6893 26291.3
 16 11 2013  12 50  -21.0726 26054.8 -03517.5 -07.6886 26291.2
 16 11 2013  12 51  -21.0722 26054.2 -03516.9 -07.6875 26290.5
 16 11 2013  12 52  -21.0723 26054.8 -03517.0 -07.6877 26291.1
 16 11 2013  12 53  -21.0717 26054.7 -03516.9 -07.6873 26290.9
 16 11 2013  12 54  -21.0714 26054.7 -03516.8 -07.6871 26291.0
 16 11 2013  12 55  -21.0707 26055.5 -03517.0 -07.6874 26291.8
 16 11 2013  12 56  -21.0702 26056.0 -03517.0 -07.6871 26292.2
 16 11 2013  12 57  -21.0699 26056.5 -03517.0 -07.6870 26292.8
 16 11 2013  12 58  -21.0702 26056.8 -03516.8 -07.6865 26293.1
 16 11 2013  12 59  -21.0710 26056.6 -03516.3 -07.6856 26292.8
 16 11 2013  13 00  -21.0712 26056.6 -03515.8 -07.6845 26292.7
 16 11 2013  13 01  -21.0712 26056.5 -03515.3 -07.6835 26292.5
 16 11 2013  13 02  -21.0712 26056.7 -03515.1 -07.6830 26292.8
 16 11 2013  13 03  -21.0712 26057.5 -03515.1 -07.6828 26293.5
 16 11 2013  13 04  -21.0709 26058.3 -03515.3 -07.6828 26294.4
 16 11 2013  13 05  -21.0702 26058.5 -03515.0 -07.6822 26294.5
 16 11 2013  13 06  -21.0701 26058.0 -03514.5 -07.6813 26294.0
 16 11 2013  13 07  -21.0703 26057.1 -03513.9 -07.6803 26293.0
 16 11 2013  13 08  -21.0703 26055.9 -03513.4 -07.6795 26291.7
 16 11 2013  13 09  -21.0697 26055.4 -03513.3 -07.6795 26291.2
 16 11 2013  13 10  -21.0679 26054.4 -03513.0 -07.6791 26290.2
 16 11 2013  13 11  -21.0670 26054.7 -03513.6 -07.6803 26290.6
 16 11 2013  13 12  -21.0666 26055.6 -03514.3 -07.6816 26291.5
 16 11 2013  13 13  -21.0658 26058.1 -03515.6 -07.6836 26294.2
 16 11 2013  13 14  -21.0653 26060.8 -03516.5 -07.6847 26296.9
 16 11 2013  13 15  -21.0650 26063.1 -03516.8 -07.6848 26299.3
 16 11 2013  13 16  -21.0657 26064.8 -03516.6 -07.6839 26300.9
 16 11 2013  13 17  -21.0665 26065.3 -03516.0 -07.6823 26301.4
 16 11 2013  13 18  -21.0666 26064.8 -03515.0 -07.6804 26300.8
 16 11 2013  13 19  -21.0657 26064.3 -03514.2 -07.6788 26300.1
 16 11 2013  13 20  -21.0647 26062.1 -03512.9 -07.6766 26297.7
 16 11 2013  13 21  -21.0640 26059.9 -03512.1 -07.6755 26295.5
 16 11 2013  13 22  -21.0632 26058.4 -03511.8 -07.6754 26294.0
 16 11 2013  13 23  -21.0627 26057.6 -03512.1 -07.6761 26293.2
 16 11 2013  13 24  -21.0620 26058.0 -03512.8 -07.6775 26293.7
 16 11 2013  13 25  -21.0616 26059.5 -03513.7 -07.6792 26295.3
 16 11 2013  13 26  -21.0618 26061.4 -03514.7 -07.6806 26297.3
 16 11 2013  13 27  -21.0619 26063.4 -03515.3 -07.6813 26299.4
 16 11 2013  13 28  -21.0629 26064.4 -03515.3 -07.6812 26300.4
 16 11 2013  13 29  -21.0638 26064.6 -03515.0 -07.6804 26300.6
 16 11 2013  13 30  -21.0633 26064.3 -03514.4 -07.6791 26300.2
 16 11 2013  13 31  -21.0631 26063.6 -03513.7 -07.6779 26299.4
 16 11 2013  13 32  -21.0631 26062.4 -03513.0 -07.6768 26298.1
 16 11 2013  13 33  -21.0630 26062.0 -03513.0 -07.6768 26297.7
 16 11 2013  13 34  -21.0632 26061.9 -03513.1 -07.6771 26297.6
 16 11 2013  13 35  -21.0636 26061.8 -03513.3 -07.6774 26297.5
 16 11 2013  13 36  -21.0634 26061.6 -03513.3 -07.6776 26297.4
 16 11 2013  13 37  -21.0635 26062.9 -03513.8 -07.6783 26298.7
 16 11 2013  13 38  -21.0639 26063.2 -03513.9 -07.6783 26299.0
 16 11 2013  13 39  -21.0631 26062.9 -03513.6 -07.6778 26298.6
 16 11 2013  13 40  -21.0628 26064.0 -03514.0 -07.6785 26299.8
 16 11 2013  13 41  -21.0632 26064.6 -03514.2 -07.6786 26300.5
 16 11 2013  13 42  -21.0638 26065.3 -03514.3 -07.6787 26301.2
 16 11 2013  13 43  -21.0641 26066.0 -03514.4 -07.6787 26301.8
 16 11 2013  13 44  -21.0641 26066.0 -03514.3 -07.6784 26301.9
 16 11 2013  13 45  -21.0640 26066.5 -03514.2 -07.6780 26302.3
 16 11 2013  13 46  -21.0645 26065.8 -03513.6 -07.6769 26301.5
 16 11 2013  13 47  -21.0647 26065.6 -03513.3 -07.6765 26301.3
 16 11 2013  13 48  -21.0647 26065.6 -03513.3 -07.6763 26301.3
 16 11 2013  13 49  -21.0643 26066.0 -03513.4 -07.6765 26301.7
 16 11 2013  13 50  -21.0637 26066.4 -03513.5 -07.6766 26302.2
 16 11 2013  13 51  -21.0639 26066.2 -03513.2 -07.6761 26301.9
 16 11 2013  13 52  -21.0645 26067.0 -03513.4 -07.6763 26302.7
 16 11 2013  13 53  -21.0651 26066.8 -03513.1 -07.6757 26302.5
 16 11 2013  13 54  -21.0652 26065.9 -03512.5 -07.6747 26301.5
 16 11 2013  13 55  -21.0643 26065.2 -03512.1 -07.6741 26300.7
 16 11 2013  13 56  -21.0638 26064.7 -03512.0 -07.6738 26300.3
 16 11 2013  13 57  -21.0638 26064.5 -03511.9 -07.6737 26300.1
 16 11 2013  13 58  -21.0626 26063.6 -03511.6 -07.6733 26299.1
 16 11 2013  13 59  -21.0610 26063.7 -03511.8 -07.6737 26299.2
 16 11 2013  14 00  -21.0606 26064.5 -03512.3 -07.6746 26300.1
 16 11 2013  14 01  -21.0605 26065.8 -03512.8 -07.6754 26301.5
 16 11 2013  14 02  -21.0607 26067.0 -03513.2 -07.6758 26302.7
 16 11 2013  14 03  -21.0611 26068.3 -03513.5 -07.6760 26304.0
 16 11 2013  14 04  -21.0612 26068.9 -03513.3 -07.6755 26304.6
 16 11 2013  14 05  -21.0612 26069.3 -03513.1 -07.6749 26304.9
 16 11 2013  14 06  -21.0615 26069.7 -03513.0 -07.6745 26305.3
 16 11 2013  14 07  -21.0623 26070.7 -03513.2 -07.6747 26306.3
 16 11 2013  14 08  -21.0634 26072.1 -03513.4 -07.6748 26307.7
 16 11 2013  14 09  -21.0647 26073.9 -03513.6 -07.6748 26309.5
 16 11 2013  14 10  -21.0655 26076.3 -03514.0 -07.6748 26312.0
 16 11 2013  14 11  -21.0671 26078.6 -03514.1 -07.6743 26314.3
 16 11 2013  14 12  -21.0669 26080.7 -03513.9 -07.6733 26316.3
 16 11 2013  14 13  -21.0658 26083.8 -03514.2 -07.6731 26319.5
 16 11 2013  14 14  -21.0653 26087.5 -03514.6 -07.6730 26323.2
 16 11 2013  14 15  -21.0649 26090.5 -03514.7 -07.6721 26326.2
 16 11 2013  14 16  -21.0632 26091.9 -03514.0 -07.6704 26327.5
 16 11 2013  14 17  -21.0608 26090.9 -03512.6 -07.6677 26326.3
 16 11 2013  14 18  -21.0595 26089.6 -03511.6 -07.6658 26324.9
 16 11 2013  14 19  -21.0578 26086.4 -03510.0 -07.6633 26321.5
 16 11 2013  14 20  -21.0561 26082.2 -03508.4 -07.6611 26317.1
 16 11 2013  14 21  -21.0543 26078.3 -03507.4 -07.6600 26313.1
 16 11 2013  14 22  -21.0535 26077.4 -03508.0 -07.6615 26312.2
 16 11 2013  14 23  -21.0527 26075.1 -03507.9 -07.6620 26310.0
 16 11 2013  14 24  -21.0527 26074.3 -03508.6 -07.6637 26309.3
 16 11 2013  14 25  -21.0524 26074.1 -03509.4 -07.6655 26309.2
 16 11 2013  14 26  -21.0518 26073.9 -03509.9 -07.6668 26309.1
 16 11 2013  14 27  -21.0518 26073.7 -03510.4 -07.6678 26308.9
 16 11 2013  14 28  -21.0522 26073.0 -03510.6 -07.6684 26308.3
 16 11 2013  14 29  -21.0526 26072.5 -03510.8 -07.6690 26307.9
 16 11 2013  14 30  -21.0527 26071.5 -03510.7 -07.6690 26306.8
 16 11 2013  14 31  -21.0532 26071.3 -03511.0 -07.6699 26306.7
 16 11 2013  14 32  -21.0532 26071.2 -03511.2 -07.6704 26306.6
 16 11 2013  14 33  -21.0537 26071.7 -03511.6 -07.6711 26307.1
 16 11 2013  14 34  -21.0541 26071.5 -03511.6 -07.6711 26306.9
 16 11 2013  14 35  -21.0538 26070.2 -03511.1 -07.6703 26305.5
 16 11 2013  14 36  -21.0545 26070.0 -03511.2 -07.6707 26305.4
 16 11 2013  14 37  -21.0552 26070.2 -03511.5 -07.6712 26305.6
 16 11 2013  14 38  -21.0563 26069.8 -03511.4 -07.6710 26305.2
 16 11 2013  14 39  -21.0573 26069.0 -03511.1 -07.6706 26304.4
 16 11 2013  14 40  -21.0575 26068.2 -03510.7 -07.6700 26303.6
 16 11 2013  14 41  -21.0574 26066.8 -03510.2 -07.6693 26302.1
 16 11 2013  14 42  -21.0572 26066.7 -03510.4 -07.6698 26302.0
 16 11 2013  14 43  -21.0575 26066.8 -03510.6 -07.6704 26302.1
 16 11 2013  14 44  -21.0578 26066.8 -03510.8 -07.6708 26302.2
 16 11 2013  14 45  -21.0582 26067.2 -03511.1 -07.6711 26302.6
 16 11 2013  14 46  -21.0583 26068.5 -03511.6 -07.6718 26303.9
 16 11 2013  14 47  -21.0600 26068.3 -03511.4 -07.6715 26303.7
 16 11 2013  14 48  -21.0604 26066.8 -03510.5 -07.6700 26302.2
 16 11 2013  14 49  -21.0596 26065.9 -03510.0 -07.6692 26301.1
 16 11 2013  14 50  -21.0600 26066.3 -03510.3 -07.6697 26301.6
 16 11 2013  14 51  -21.0603 26064.0 -03509.2 -07.6682 26299.1
 16 11 2013  14 52  -21.0587 26063.2 -03509.1 -07.6681 26298.4
 16 11 2013  14 53  -21.0578 26064.2 -03509.9 -07.6696 26299.5
 16 11 2013  14 54  -21.0582 26064.9 -03510.4 -07.6704 26300.3
 16 11 2013  14 55  -21.0587 26065.5 -03510.7 -07.6707 26300.9
 16 11 2013  14 56  -21.0586 26066.1 -03510.7 -07.6707 26301.4
 16 11 2013  14 57  -21.0584 26066.2 -03510.5 -07.6703 26301.5
 16 11 2013  14 58  -21.0580 26065.9 -03510.2 -07.6698 26301.2
 16 11 2013  14 59  -21.0578 26065.5 -03509.9 -07.6692 26300.7
 16 11 2013  15 00  -21.0577 26065.3 -03509.8 -07.6690 26300.6
 16 11 2013  15 01  -21.0576 26065.6 -03509.9 -07.6692 26300.8
 16 11 2013  15 02  -21.0580 26066.2 -03510.1 -07.6694 26301.5
 16 11 2013  15 03  -21.0586 26066.9 -03510.2 -07.6695 26302.2
 16 11 2013  15 04  -21.0594 26067.6 -03510.3 -07.6694 26302.9
 16 11 2013  15 05  -21.0603 26068.3 -03510.3 -07.6691 26303.5
 16 11 2013  15 06  -21.0607 26069.1 -03510.3 -07.6689 26304.4
 16 11 2013  15 07  -21.0606 26069.8 -03510.2 -07.6684 26305.0
 16 11 2013  15 08  -21.0602 26069.9 -03509.7 -07.6675 26305.1
 16 11 2013  15 09  -21.0597 26070.0 -03509.5 -07.6669 26305.1
 16 11 2013  15 10  -21.0598 26070.2 -03509.3 -07.6664 26305.3
 16 11 2013  15 11  -21.0606 26070.8 -03509.3 -07.6663 26306.0
 16 11 2013  15 12  -21.0609 26071.1 -03509.1 -07.6658 26306.2
 16 11 2013  15 13  -21.0615 26070.7 -03508.5 -07.6647 26305.7
 16 11 2013  15 14  -21.0612 26069.7 -03507.7 -07.6632 26304.6
 16 11 2013  15 15  -21.0604 26068.6 -03507.2 -07.6623 26303.5
 16 11 2013  15 16  -21.0594 26068.0 -03506.9 -07.6620 26302.8
 16 11 2013  15 17  -21.0588 26067.4 -03506.8 -07.6620 26302.2
 16 11 2013  15 18  -21.0588 26066.7 -03506.7 -07.6618 26301.5
 16 11 2013  15 19  -21.0585 26065.6 -03506.4 -07.6614 26300.4
 16 11 2013  15 20  -21.0584 26065.2 -03506.4 -07.6616 26300.0
 16 11 2013  15 21  -21.0579 26064.6 -03506.4 -07.6617 26299.4
 16 11 2013  15 22  -21.0570 26063.9 -03506.3 -07.6618 26298.7
 16 11 2013  15 23  -21.0566 26064.0 -03506.6 -07.6625 26298.9
 16 11 2013  15 24  -21.0558 26064.4 -03507.0 -07.6632 26299.3
 16 11 2013  15 25  -21.0552 26066.1 -03507.8 -07.6643 26301.0
 16 11 2013  15 26  -21.0547 26068.3 -03508.5 -07.6654 26303.3
 16 11 2013  15 27  -21.0545 26069.9 -03508.9 -07.6657 26305.0
 16 11 2013  15 28  -21.0542 26071.4 -03509.1 -07.6657 26306.5
 16 11 2013  15 29  -21.0548 26072.4 -03509.1 -07.6653 26307.5
 16 11 2013  15 30  -21.0550 26072.5 -03508.6 -07.6643 26307.5
 16 11 2013  15 31  -21.0542 26072.3 -03508.1 -07.6634 26307.3
 16 11 2013  15 32  -21.0532 26072.6 -03508.0 -07.6630 26307.6
 16 11 2013  15 33  -21.0528 26072.2 -03507.7 -07.6624 26307.1
 16 11 2013  15 34  -21.0527 26071.5 -03507.2 -07.6616 26306.3
 16 11 2013  15 35  -21.0526 26070.7 -03506.7 -07.6607 26305.4
 16 11 2013  15 36  -21.0525 26070.0 -03506.3 -07.6602 26304.7
 16 11 2013  15 37  -21.0526 26069.6 -03506.3 -07.6601 26304.4
 16 11 2013  15 38  -21.0526 26069.5 -03506.3 -07.6601 26304.2
 16 11 2013  15 39  -21.0532 26069.7 -03506.4 -07.6604 26304.5
 16 11 2013  15 40  -21.0537 26069.7 -03506.3 -07.6601 26304.5
 16 11 2013  15 41  -21.0535 26070.0 -03506.4 -07.6602 26304.8
 16 11 2013  15 42  -21.0534 26069.7 -03506.1 -07.6597 26304.4
 16 11 2013  15 43  -21.0534 26069.5 -03505.9 -07.6593 26304.1
 16 11 2013  15 44  -21.0537 26069.1 -03505.6 -07.6588 26303.7
 16 11 2013  15 45  -21.0536 26069.0 -03505.4 -07.6585 26303.6
 16 11 2013  15 46  -21.0531 26068.9 -03505.2 -07.6580 26303.5
 16 11 2013  15 47  -21.0528 26068.8 -03505.0 -07.6576 26303.3
 16 11 2013  15 48  -21.0532 26068.8 -03504.9 -07.6573 26303.4
 16 11 2013  15 49  -21.0532 26068.7 -03504.6 -07.6568 26303.2
 16 11 2013  15 50  -21.0542 26069.1 -03504.6 -07.6567 26303.6
 16 11 2013  15 51  -21.0560 26069.2 -03504.3 -07.6561 26303.7
 16 11 2013  15 52  -21.0561 26068.6 -03503.7 -07.6549 26303.0
 16 11 2013  15 53  -21.0557 26068.8 -03503.5 -07.6543 26303.1
 16 11 2013  15 54  -21.0560 26068.9 -03503.2 -07.6537 26303.3
 16 11 2013  15 55  -21.0567 26069.9 -03503.4 -07.6537 26304.2
 16 11 2013  15 56  -21.0565 26070.5 -03503.2 -07.6532 26304.8
 16 11 2013  15 57  -21.0567 26071.7 -03503.2 -07.6528 26306.0
 16 11 2013  15 58  -21.0572 26073.6 -03503.6 -07.6531 26307.9
 16 11 2013  15 59  -21.0571 26074.2 -03503.2 -07.6522 26308.5
 16 11 2013  16 00  -21.0565 26074.6 -03502.8 -07.6512 26308.9
 16 11 2013  16 01  -21.0557 26074.1 -03502.2 -07.6500 26308.2
 16 11 2013  16 02  -21.0540 26073.3 -03501.5 -07.6486 26307.4
 16 11 2013  16 03  -21.0533 26072.2 -03500.7 -07.6473 26306.2
 16 11 2013  16 04  -21.0529 26072.0 -03500.3 -07.6466 26305.9
 16 11 2013  16 05  -21.0532 26071.8 -03500.1 -07.6460 26305.7
 16 11 2013  16 06  -21.0532 26071.8 -03499.9 -07.6457 26305.7
 16 11 2013  16 07  -21.0532 26071.9 -03499.8 -07.6454 26305.8
 16 11 2013  16 08  -21.0531 26071.7 -03499.5 -07.6448 26305.5
 16 11 2013  16 09  -21.0530 26070.8 -03498.9 -07.6439 26304.6
 16 11 2013  16 10  -21.0518 26069.7 -03498.3 -07.6428 26303.3
 16 11 2013  16 11  -21.0508 26069.1 -03498.2 -07.6427 26302.7
 16 11 2013  16 12  -21.0499 26069.4 -03498.4 -07.6431 26303.1
 16 11 2013  16 13  -21.0498 26070.1 -03498.7 -07.6436 26303.8
 16 11 2013  16 14  -21.0488 26071.1 -03499.1 -07.6442 26304.9
 16 11 2013  16 15  -21.0473 26071.3 -03499.1 -07.6441 26305.1
 16 11 2013  16 16  -21.0492 26071.6 -03499.2 -07.6442 26305.3
 16 11 2013  16 17  -21.0498 26070.8 -03498.8 -07.6436 26304.5
 16 11 2013  16 18  -21.0485 26070.6 -03498.5 -07.6431 26304.3
 16 11 2013  16 19  -21.0477 26070.5 -03498.6 -07.6433 26304.2
 16 11 2013  16 20  -21.0469 26069.8 -03498.4 -07.6431 26303.5
 16 11 2013  16 21  -21.0464 26069.2 -03498.3 -07.6430 26302.9
 16 11 2013  16 22  -21.0460 26068.2 -03498.0 -07.6427 26301.8
 16 11 2013  16 23  -21.0449 26067.1 -03497.7 -07.6423 26300.7
 16 11 2013  16 24  -21.0438 26066.6 -03497.8 -07.6426 26300.2
 16 11 2013  16 25  -21.0430 26066.3 -03498.0 -07.6431 26300.0
 16 11 2013  16 26  -21.0427 26066.4 -03498.3 -07.6438 26300.1
 16 11 2013  16 27  -21.0428 26066.6 -03498.5 -07.6443 26300.3
 16 11 2013  16 28  -21.0423 26066.4 -03498.6 -07.6444 26300.2
 16 11 2013  16 29  -21.0416 26066.4 -03498.7 -07.6447 26300.1
 16 11 2013  16 30  -21.0411 26066.6 -03498.8 -07.6449 26300.4
 16 11 2013  16 31  -21.0407 26066.8 -03498.9 -07.6451 26300.5
 16 11 2013  16 32  -21.0399 26066.9 -03499.0 -07.6452 26300.7
 16 11 2013  16 33  -21.0395 26067.5 -03499.4 -07.6459 26301.4
 16 11 2013  16 34  -21.0388 26067.9 -03499.6 -07.6461 26301.8
 16 11 2013  16 35  -21.0387 26068.5 -03499.8 -07.6463 26302.4
 16 11 2013  16 36  -21.0383 26068.4 -03499.6 -07.6461 26302.3
 16 11 2013  16 37  -21.0376 26068.1 -03499.5 -07.6458 26301.9
 16 11 2013  16 38  -21.0376 26068.0 -03499.5 -07.6459 26301.8
 16 11 2013  16 39  -21.0375 26067.4 -03499.3 -07.6456 26301.2
 16 11 2013  16 40  -21.0374 26066.8 -03499.0 -07.6453 26300.5
 16 11 2013  16 41  -21.0375 26066.8 -03499.1 -07.6455 26300.6
 16 11 2013  16 42  -21.0376 26066.6 -03499.1 -07.6454 26300.4
 16 11 2013  16 43  -21.0379 26066.4 -03499.1 -07.6455 26300.2
 16 11 2013  16 44  -21.0383 26065.9 -03498.9 -07.6452 26299.7
 16 11 2013  16 45  -21.0383 26065.6 -03498.7 -07.6450 26299.3
 16 11 2013  16 46  -21.0386 26065.8 -03498.8 -07.6452 26299.5
 16 11 2013  16 47  -21.0393 26066.7 -03499.3 -07.6458 26300.6
 16 11 2013  16 48  -21.0411 26067.1 -03499.3 -07.6458 26300.9
 16 11 2013  16 49  -21.0414 26067.1 -03499.0 -07.6452 26300.9
 16 11 2013  16 50  -21.0408 26066.7 -03498.7 -07.6445 26300.4
 16 11 2013  16 51  -21.0404 26066.4 -03498.4 -07.6441 26300.1
 16 11 2013  16 52  -21.0401 26065.6 -03498.2 -07.6437 26299.3
 16 11 2013  16 53  -21.0404 26065.2 -03498.1 -07.6437 26298.8
 16 11 2013  16 54  -21.0408 26064.7 -03497.9 -07.6435 26298.3
 16 11 2013  16 55  -21.0406 26063.7 -03497.5 -07.6428 26297.3
 16 11 2013  16 56  -21.0406 26063.4 -03497.4 -07.6428 26297.0
 16 11 2013  16 57  -21.0405 26063.6 -03497.6 -07.6432 26297.3
 16 11 2013  16 58  -21.0403 26063.8 -03497.6 -07.6432 26297.5
 16 11 2013  16 59  -21.0401 26063.9 -03497.6 -07.6429 26297.6
 16 11 2013  17 00  -21.0400 26064.4 -03497.6 -07.6429 26298.0
 16 11 2013  17 01  -21.0400 26065.2 -03497.9 -07.6432 26298.9
 16 11 2013  17 02  -21.0404 26065.7 -03497.9 -07.6431 26299.4
 16 11 2013  17 03  -21.0408 26065.7 -03497.6 -07.6425 26299.4
 16 11 2013  17 04  -21.0414 26065.3 -03497.2 -07.6417 26298.9
 16 11 2013  17 05  -21.0419 26064.8 -03496.7 -07.6409 26298.4
 16 11 2013  17 06  -21.0424 26064.6 -03496.5 -07.6405 26298.1
 16 11 2013  17 07  -21.0426 26064.9 -03496.5 -07.6403 26298.4
 16 11 2013  17 08  -21.0420 26065.0 -03496.4 -07.6400 26298.5
 16 11 2013  17 09  -21.0414 26064.7 -03496.1 -07.6396 26298.1
 16 11 2013  17 10  -21.0410 26064.5 -03495.9 -07.6393 26297.9
 16 11 2013  17 11  -21.0408 26064.8 -03496.0 -07.6394 26298.3
 16 11 2013  17 12  -21.0414 26065.7 -03496.3 -07.6397 26299.1
 16 11 2013  17 13  -21.0412 26065.9 -03496.3 -07.6396 26299.3
 16 11 2013  17 14  -21.0402 26065.9 -03496.0 -07.6390 26299.3
 16 11 2013  17 15  -21.0401 26066.3 -03496.2 -07.6392 26299.7
 16 11 2013  17 16  -21.0397 26065.9 -03495.9 -07.6387 26299.3
 16 11 2013  17 17  -21.0408 26066.3 -03496.0 -07.6389 26299.7
 16 11 2013  17 18  -21.0421 26066.1 -03495.9 -07.6387 26299.5
 16 11 2013  17 19  -21.0421 26065.3 -03495.5 -07.6381 26298.7
 16 11 2013  17 20  -21.0413 26064.1 -03495.0 -07.6373 26297.3
 16 11 2013  17 21  -21.0409 26062.9 -03494.5 -07.6367 26296.1
 16 11 2013  17 22  -21.0417 26062.5 -03494.6 -07.6369 26295.7
 16 11 2013  17 23  -21.0419 26061.7 -03494.4 -07.6367 26294.9
 16 11 2013  17 24  -21.0409 26060.6 -03494.0 -07.6361 26293.8
 16 11 2013  17 25  -21.0403 26060.0 -03493.9 -07.6362 26293.1
 16 11 2013  17 26  -21.0406 26059.6 -03494.1 -07.6366 26292.8
 16 11 2013  17 27  -21.0405 26059.5 -03494.2 -07.6369 26292.7
 16 11 2013  17 28  -21.0408 26058.7 -03494.0 -07.6367 26291.9
 16 11 2013  17 29  -21.0405 26058.1 -03493.8 -07.6365 26291.3
 16 11 2013  17 30  -21.0400 26057.5 -03493.7 -07.6364 26290.7
 16 11 2013  17 31  -21.0398 26056.9 -03493.6 -07.6364 26290.1
 16 11 2013  17 32  -21.0390 26056.3 -03493.6 -07.6366 26289.5
 16 11 2013  17 33  -21.0382 26056.2 -03493.9 -07.6372 26289.4
 16 11 2013  17 34  -21.0383 26056.1 -03494.1 -07.6376 26289.3
 16 11 2013  17 35  -21.0389 26055.5 -03493.9 -07.6374 26288.7
 16 11 2013  17 36  -21.0391 26055.3 -03493.8 -07.6373 26288.5
 16 11 2013  17 37  -21.0386 26055.1 -03493.9 -07.6375 26288.3
 16 11 2013  17 38  -21.0378 26055.2 -03494.0 -07.6378 26288.4
 16 11 2013  17 39  -21.0379 26056.1 -03494.6 -07.6388 26289.4
 16 11 2013  17 40  -21.0386 26056.2 -03494.7 -07.6390 26289.6
 16 11 2013  17 41  -21.0396 26055.9 -03494.4 -07.6384 26289.1
 16 11 2013  17 42  -21.0407 26055.4 -03494.0 -07.6377 26288.6
 16 11 2013  17 43  -21.0412 26055.2 -03493.8 -07.6373 26288.4
 16 11 2013  17 44  -21.0417 26054.9 -03493.6 -07.6370 26288.1
 16 11 2013  17 45  -21.0414 26054.4 -03493.3 -07.6366 26287.5
 16 11 2013  17 46  -21.0407 26054.4 -03493.4 -07.6367 26287.6
 16 11 2013  17 47  -21.0405 26054.2 -03493.3 -07.6366 26287.3
 16 11 2013  17 48  -21.0409 26054.4 -03493.5 -07.6368 26287.6
 16 11 2013  17 49  -21.0407 26054.4 -03493.4 -07.6367 26287.6
 16 11 2013  17 50  -21.0400 26054.2 -03493.3 -07.6365 26287.3
 16 11 2013  17 51  -21.0397 26054.2 -03493.3 -07.6366 26287.4
 16 11 2013  17 52  -21.0397 26053.7 -03493.2 -07.6364 26286.9
 16 11 2013  17 53  -21.0393 26053.2 -03493.0 -07.6361 26286.3
 16 11 2013  17 54  -21.0393 26052.6 -03492.8 -07.6360 26285.7
 16 11 2013  17 55  -21.0391 26052.0 -03492.7 -07.6359 26285.1
 16 11 2013  17 56  -21.0385 26051.8 -03492.8 -07.6361 26284.9
 16 11 2013  17 57  -21.0383 26051.9 -03493.0 -07.6366 26285.0
 16 11 2013  17 58  -21.0383 26051.7 -03493.0 -07.6367 26284.9
 16 11 2013  17 59  -21.0387 26052.1 -03493.3 -07.6372 26285.3
 16 11 2013  18 00  -21.0387 26052.1 -03493.4 -07.6373 26285.3
 16 11 2013  18 01  -21.0388 26052.3 -03493.5 -07.6376 26285.5
 16 11 2013  18 02  -21.0388 26052.3 -03493.7 -07.6379 26285.5
 16 11 2013  18 03  -21.0387 26052.0 -03493.6 -07.6379 26285.2
 16 11 2013  18 04  -21.0385 26051.9 -03493.7 -07.6381 26285.1
 16 11 2013  18 05  -21.0384 26051.6 -03493.7 -07.6381 26284.8
 16 11 2013  18 06  -21.0387 26051.6 -03493.8 -07.6383 26284.9
 16 11 2013  18 07  -21.0392 26051.3 -03493.7 -07.6384 26284.5
 16 11 2013  18 08  -21.0388 26050.4 -03493.5 -07.6380 26283.6
 16 11 2013  18 09  -21.0390 26049.8 -03493.4 -07.6381 26283.0
 16 11 2013  18 10  -21.0384 26049.2 -03493.2 -07.6379 26282.4
 16 11 2013  18 11  -21.0393 26049.2 -03493.5 -07.6385 26282.4
 16 11 2013  18 12  -21.0396 26048.9 -03493.6 -07.6386 26282.2
 16 11 2013  18 13  -21.0414 26049.1 -03493.9 -07.6393 26282.4
 16 11 2013  18 14  -21.0427 26048.4 -03493.7 -07.6391 26281.7
 16 11 2013  18 15  -21.0425 26047.5 -03493.4 -07.6386 26280.7
 16 11 2013  18 16  -21.0430 26046.5 -03493.1 -07.6384 26279.7
 16 11 2013  18 17  -21.0427 26045.2 -03492.8 -07.6381 26278.3
 16 11 2013  18 18  -21.0418 26044.1 -03492.6 -07.6381 26277.2
 16 11 2013  18 19  -21.0415 26043.3 -03492.7 -07.6383 26276.5
 16 11 2013  18 20  -21.0419 26043.0 -03493.0 -07.6391 26276.2
 16 11 2013  18 21  -21.0418 26042.6 -03493.1 -07.6395 26275.8
 16 11 2013  18 22  -21.0414 26042.3 -03493.3 -07.6400 26275.5
 16 11 2013  18 23  -21.0414 26042.1 -03493.5 -07.6406 26275.4
 16 11 2013  18 24  -21.0412 26041.8 -03493.6 -07.6409 26275.1
 16 11 2013  18 25  -21.0410 26041.5 -03493.8 -07.6413 26274.8
 16 11 2013  18 26  -21.0411 26041.3 -03494.0 -07.6418 26274.7
 16 11 2013  18 27  -21.0413 26041.2 -03494.2 -07.6422 26274.6
 16 11 2013  18 28  -21.0418 26041.0 -03494.3 -07.6425 26274.4
 16 11 2013  18 29  -21.0413 26040.2 -03494.1 -07.6424 26273.6
 16 11 2013  18 30  -21.0409 26039.7 -03494.1 -07.6426 26273.1
 16 11 2013  18 31  -21.0405 26039.3 -03494.2 -07.6429 26272.7
 16 11 2013  18 32  -21.0406 26039.5 -03494.6 -07.6437 26272.9
 16 11 2013  18 33  -21.0407 26039.3 -03494.8 -07.6441 26272.8
 16 11 2013  18 34  -21.0412 26040.1 -03495.3 -07.6451 26273.6
 16 11 2013  18 35  -21.0408 26040.5 -03495.6 -07.6456 26274.0
 16 11 2013  18 36  -21.0408 26040.9 -03495.9 -07.6460 26274.5
 16 11 2013  18 37  -21.0406 26041.3 -03496.2 -07.6466 26274.9
 16 11 2013  18 38  -21.0400 26041.8 -03496.5 -07.6472 26275.5
 16 11 2013  18 39  -21.0398 26042.2 -03496.9 -07.6477 26276.0
 16 11 2013  18 40  -21.0403 26042.5 -03497.1 -07.6481 26276.2
 16 11 2013  18 41  -21.0407 26042.3 -03497.0 -07.6480 26276.0
 16 11 2013  18 42  -21.0417 26042.1 -03496.9 -07.6478 26275.8
 16 11 2013  18 43  -21.0421 26041.6 -03496.8 -07.6477 26275.3
 16 11 2013  18 44  -21.0420 26041.2 -03496.6 -07.6475 26274.9
 16 11 2013  18 45  -21.0422 26041.3 -03496.8 -07.6478 26275.0
 16 11 2013  18 46  -21.0429 26041.5 -03497.0 -07.6482 26275.3
 16 11 2013  18 47  -21.0432 26041.0 -03496.8 -07.6479 26274.7
 16 11 2013  18 48  -21.0437 26040.8 -03496.7 -07.6478 26274.5
 16 11 2013  18 49  -21.0442 26040.6 -03496.7 -07.6478 26274.4
 16 11 2013  18 50  -21.0441 26040.4 -03496.7 -07.6479 26274.1
 16 11 2013  18 51  -21.0443 26040.3 -03496.7 -07.6479 26274.0
 16 11 2013  18 52  -21.0452 26040.5 -03496.8 -07.6482 26274.2
 16 11 2013  18 53  -21.0454 26040.8 -03497.1 -07.6486 26274.6
 16 11 2013  18 54  -21.0452 26040.9 -03497.2 -07.6488 26274.7
 16 11 2013  18 55  -21.0452 26040.6 -03497.1 -07.6488 26274.4
 16 11 2013  18 56  -21.0446 26040.1 -03497.0 -07.6487 26273.9
 16 11 2013  18 57  -21.0446 26039.8 -03497.1 -07.6488 26273.6
 16 11 2013  18 58  -21.0450 26039.3 -03497.0 -07.6488 26273.0
 16 11 2013  18 59  -21.0451 26038.9 -03496.9 -07.6488 26272.7
 16 11 2013  19 00  -21.0449 26038.8 -03497.0 -07.6489 26272.6
 16 11 2013  19 01  -21.0447 26038.7 -03497.1 -07.6492 26272.5
 16 11 2013  19 02  -21.0449 26038.6 -03497.2 -07.6494 26272.4
 16 11 2013  19 03  -21.0452 26038.5 -03497.3 -07.6498 26272.3
 16 11 2013  19 04  -21.0450 26038.1 -03497.3 -07.6498 26271.9
 16 11 2013  19 05  -21.0449 26037.5 -03497.1 -07.6496 26271.3
 16 11 2013  19 06  -21.0446 26037.4 -03497.2 -07.6498 26271.2
 16 11 2013  19 07  -21.0443 26037.2 -03497.2 -07.6500 26271.0
 16 11 2013  19 08  -21.0443 26037.0 -03497.4 -07.6503 26270.8
 16 11 2013  19 09  -21.0443 26036.8 -03497.4 -07.6505 26270.6
 16 11 2013  19 10  -21.0444 26036.4 -03497.4 -07.6506 26270.3
 16 11 2013  19 11  -21.0440 26036.1 -03497.4 -07.6508 26270.0
 16 11 2013  19 12  -21.0437 26035.9 -03497.5 -07.6510 26269.8
 16 11 2013  19 13  -21.0437 26035.7 -03497.6 -07.6513 26269.6
 16 11 2013  19 14  -21.0434 26035.4 -03497.5 -07.6512 26269.3
 16 11 2013  19 15  -21.0432 26035.2 -03497.6 -07.6513 26269.0
 16 11 2013  19 16  -21.0425 26034.6 -03497.4 -07.6512 26268.4
 16 11 2013  19 17  -21.0418 26034.7 -03497.7 -07.6517 26268.6
 16 11 2013  19 18  -21.0418 26034.4 -03497.8 -07.6519 26268.3
 16 11 2013  19 19  -21.0416 26033.9 -03497.7 -07.6520 26267.9
 16 11 2013  19 20  -21.0412 26033.7 -03497.8 -07.6522 26267.7
 16 11 2013  19 21  -21.0409 26033.8 -03498.0 -07.6526 26267.7
 16 11 2013  19 22  -21.0406 26033.9 -03498.2 -07.6531 26267.8
 16 11 2013  19 23  -21.0405 26033.8 -03498.4 -07.6535 26267.8
 16 11 2013  19 24  -21.0408 26033.7 -03498.5 -07.6537 26267.7
 16 11 2013  19 25  -21.0409 26033.4 -03498.5 -07.6539 26267.5
 16 11 2013  19 26  -21.0408 26033.0 -03498.5 -07.6539 26267.0
 16 11 2013  19 27  -21.0407 26032.8 -03498.5 -07.6540 26266.8
 16 11 2013  19 28  -21.0406 26032.8 -03498.7 -07.6544 26266.9
 16 11 2013  19 29  -21.0406 26032.6 -03498.8 -07.6546 26266.7
 16 11 2013  19 30  -21.0405 26032.7 -03498.9 -07.6549 26266.8
 16 11 2013  19 31  -21.0406 26032.9 -03499.1 -07.6552 26267.0
 16 11 2013  19 32  -21.0405 26033.2 -03499.4 -07.6558 26267.3
 16 11 2013  19 33  -21.0403 26033.6 -03499.6 -07.6562 26267.7
 16 11 2013  19 34  -21.0400 26034.1 -03499.9 -07.6567 26268.3
 16 11 2013  19 35  -21.0402 26034.1 -03500.0 -07.6570 26268.3
 16 11 2013  19 36  -21.0401 26034.1 -03500.1 -07.6570 26268.3
 16 11 2013  19 37  -21.0401 26034.1 -03500.1 -07.6571 26268.3
 16 11 2013  19 38  -21.0400 26034.0 -03500.1 -07.6571 26268.2
 16 11 2013  19 39  -21.0401 26034.0 -03500.2 -07.6572 26268.2
 16 11 2013  19 40  -21.0401 26034.0 -03500.2 -07.6574 26268.3
 16 11 2013  19 41  -21.0396 26034.2 -03500.4 -07.6576 26268.4
 16 11 2013  19 42  -21.0394 26034.1 -03500.4 -07.6577 26268.4
 16 11 2013  19 43  -21.0397 26033.7 -03500.3 -07.6575 26268.0
 16 11 2013  19 44  -21.0399 26033.4 -03500.1 -07.6572 26267.7
 16 11 2013  19 45  -21.0393 26033.3 -03500.0 -07.6572 26267.6
 16 11 2013  19 46  -21.0392 26033.0 -03500.0 -07.6571 26267.2
 16 11 2013  19 47  -21.0394 26033.2 -03500.2 -07.6575 26267.4
 16 11 2013  19 48  -21.0392 26033.0 -03500.1 -07.6575 26267.2
 16 11 2013  19 49  -21.0389 26033.2 -03500.2 -07.6577 26267.4
 16 11 2013  19 50  -21.0388 26033.3 -03500.4 -07.6579 26267.6
 16 11 2013  19 51  -21.0389 26033.1 -03500.3 -07.6578 26267.4
 16 11 2013  19 52  -21.0387 26033.3 -03500.4 -07.6580 26267.6
 16 11 2013  19 53  -21.0386 26033.4 -03500.5 -07.6582 26267.7
 16 11 2013  19 54  -21.0383 26033.5 -03500.5 -07.6582 26267.8
 16 11 2013  19 55  -21.0381 26033.3 -03500.5 -07.6582 26267.6
 16 11 2013  19 56  -21.0381 26033.4 -03500.6 -07.6583 26267.7
 16 11 2013  19 57  -21.0381 26033.3 -03500.5 -07.6582 26267.5
 16 11 2013  19 58  -21.0382 26033.0 -03500.4 -07.6581 26267.3
 16 11 2013  19 59  -21.0383 26032.9 -03500.4 -07.6582 26267.2
 16 11 2013  20 00  -21.0381 26033.0 -03500.5 -07.6582 26267.3
 16 11 2013  20 01  -21.0376 26033.2 -03500.6 -07.6585 26267.5
 16 11 2013  20 02  -21.0375 26033.2 -03500.7 -07.6586 26267.6
 16 11 2013  20 03  -21.0372 26033.2 -03500.7 -07.6585 26267.5
 16 11 2013  20 04  -21.0374 26033.2 -03500.6 -07.6585 26267.5
 16 11 2013  20 05  -21.0377 26033.2 -03500.7 -07.6586 26267.6
 16 11 2013  20 06  -21.0375 26033.1 -03500.7 -07.6586 26267.5
 16 11 2013  20 07  -21.0373 26033.1 -03500.7 -07.6586 26267.4
 16 11 2013  20 08  -21.0370 26033.1 -03500.6 -07.6585 26267.4
 16 11 2013  20 09  -21.0366 26033.1 -03500.7 -07.6586 26267.4
 16 11 2013  20 10  -21.0363 26033.2 -03500.7 -07.6587 26267.5
 16 11 2013  20 11  -21.0361 26033.2 -03500.7 -07.6587 26267.5
 16 11 2013  20 12  -21.0356 26033.1 -03500.7 -07.6587 26267.4
 16 11 2013  20 13  -21.0350 26033.1 -03500.7 -07.6587 26267.4
 16 11 2013  20 14  -21.0347 26033.0 -03500.7 -07.6588 26267.4
 16 11 2013  20 15  -21.0344 26033.0 -03500.8 -07.6588 26267.3
 16 11 2013  20 16  -21.0341 26033.1 -03500.8 -07.6589 26267.4
 16 11 2013  20 17  -21.0337 26033.1 -03500.9 -07.6591 26267.4
 16 11 2013  20 18  -21.0333 26033.2 -03501.0 -07.6592 26267.6
 16 11 2013  20 19  -21.0331 26033.4 -03501.1 -07.6594 26267.7
 16 11 2013  20 20  -21.0332 26033.2 -03501.0 -07.6594 26267.6
 16 11 2013  20 21  -21.0333 26032.9 -03500.9 -07.6592 26267.2
 16 11 2013  20 22  -21.0334 26032.7 -03500.8 -07.6591 26267.0
 16 11 2013  20 23  -21.0336 26032.4 -03500.7 -07.6589 26266.7
 16 11 2013  20 24  -21.0333 26032.4 -03500.8 -07.6590 26266.7
 16 11 2013  20 25  -21.0330 26032.2 -03500.7 -07.6590 26266.6
 16 11 2013  20 26  -21.0325 26032.2 -03500.8 -07.6591 26266.5
 16 11 2013  20 27  -21.0317 26032.2 -03500.9 -07.6593 26266.6
 16 11 2013  20 28  -21.0309 26032.4 -03501.0 -07.6596 26266.7
 16 11 2013  20 29  -21.0302 26032.3 -03501.1 -07.6598 26266.6
 16 11 2013  20 30  -21.0298 26032.1 -03501.1 -07.6599 26266.5
 16 11 2013  20 31  -21.0293 26031.8 -03501.1 -07.6598 26266.2
 16 11 2013  20 32  -21.0284 26031.4 -03500.9 -07.6596 26265.8
 16 11 2013  20 33  -21.0278 26031.2 -03500.9 -07.6597 26265.6
 16 11 2013  20 34  -21.0271 26031.1 -03501.0 -07.6599 26265.5
 16 11 2013  20 35  -21.0265 26031.2 -03501.1 -07.6602 26265.6
 16 11 2013  20 36  -21.0260 26031.1 -03501.2 -07.6604 26265.5
 16 11 2013  20 37  -21.0257 26030.8 -03501.2 -07.6605 26265.3
 16 11 2013  20 38  -21.0254 26030.6 -03501.3 -07.6606 26265.0
 16 11 2013  20 39  -21.0251 26030.5 -03501.3 -07.6608 26264.9
 16 11 2013  20 40  -21.0250 26030.2 -03501.3 -07.6609 26264.6
 16 11 2013  20 41  -21.0246 26029.8 -03501.2 -07.6607 26264.2
 16 11 2013  20 42  -21.0243 26029.8 -03501.3 -07.6610 26264.2
 16 11 2013  20 43  -21.0236 26029.7 -03501.4 -07.6612 26264.1
 16 11 2013  20 44  -21.0229 26029.6 -03501.5 -07.6615 26264.1
 16 11 2013  20 45  -21.0225 26029.4 -03501.6 -07.6617 26263.9
 16 11 2013  20 46  -21.0221 26029.0 -03501.5 -07.6617 26263.4
 16 11 2013  20 47  -21.0217 26028.6 -03501.5 -07.6618 26263.1
 16 11 2013  20 48  -21.0214 26028.4 -03501.6 -07.6619 26262.9
 16 11 2013  20 49  -21.0212 26028.0 -03501.5 -07.6620 26262.4
 16 11 2013  20 50  -21.0209 26027.8 -03501.6 -07.6622 26262.3
 16 11 2013  20 51  -21.0209 26027.5 -03501.7 -07.6624 26262.0
 16 11 2013  20 52  -21.0208 26027.0 -03501.5 -07.6623 26261.5
 16 11 2013  20 53  -21.0207 26027.0 -03501.7 -07.6627 26261.5
 16 11 2013  20 54  -21.0209 26026.5 -03501.7 -07.6628 26261.0
 16 11 2013  20 55  -21.0210 26026.3 -03501.8 -07.6630 26260.8
 16 11 2013  20 56  -21.0211 26026.0 -03501.9 -07.6632 26260.5
 16 11 2013  20 57  -21.0211 26025.9 -03502.0 -07.6636 26260.4
 16 11 2013  20 58  -21.0214 26025.7 -03502.1 -07.6639 26260.2
 16 11 2013  20 59  -21.0217 26025.6 -03502.3 -07.6644 26260.2
 16 11 2013  21 00  -21.0221 26025.0 -03502.3 -07.6645 26259.6
 16 11 2013  21 01  -21.0221 26024.9 -03502.4 -07.6647 26259.5
 16 11 2013  21 02  -21.0221 26025.1 -03502.7 -07.6653 26259.7
 16 11 2013  21 03  -21.0220 26025.4 -03503.0 -07.6659 26260.1
 16 11 2013  21 04  -21.0222 26025.4 -03503.3 -07.6664 26260.1
 16 11 2013  21 05  -21.0224 26025.5 -03503.5 -07.6669 26260.2
 16 11 2013  21 06  -21.0224 26025.8 -03503.7 -07.6673 26260.5
 16 11 2013  21 07  -21.0223 26026.2 -03504.0 -07.6679 26261.0
 16 11 2013  21 08  -21.0226 26026.5 -03504.4 -07.6685 26261.4
 16 11 2013  21 09  -21.0231 26026.8 -03504.6 -07.6690 26261.6
 16 11 2013  21 10  -21.0238 26026.8 -03504.8 -07.6693 26261.7
 16 11 2013  21 11  -21.0244 26026.6 -03504.8 -07.6694 26261.5
 16 11 2013  21 12  -21.0245 26025.9 -03504.5 -07.6689 26260.8
 16 11 2013  21 13  -21.0248 26025.1 -03504.2 -07.6685 26260.0
 16 11 2013  21 14  -21.0243 26024.8 -03504.0 -07.6683 26259.6
 16 11 2013  21 15  -21.0238 26024.3 -03503.8 -07.6680 26259.1
 16 11 2013  21 16  -21.0236 26023.7 -03503.6 -07.6677 26258.5
 16 11 2013  21 17  -21.0233 26023.4 -03503.6 -07.6677 26258.1
 16 11 2013  21 18  -21.0233 26023.0 -03503.5 -07.6677 26257.7
 16 11 2013  21 19  -21.0233 26023.0 -03503.6 -07.6680 26257.8
 16 11 2013  21 20  -21.0235 26023.1 -03503.9 -07.6685 26257.9
 16 11 2013  21 21  -21.0241 26022.8 -03504.0 -07.6687 26257.6
 16 11 2013  21 22  -21.0243 26022.1 -03503.8 -07.6685 26256.9
 16 11 2013  21 23  -21.0240 26021.6 -03503.6 -07.6682 26256.4
 16 11 2013  21 24  -21.0238 26021.1 -03503.4 -07.6681 26255.9
 16 11 2013  21 25  -21.0234 26021.0 -03503.5 -07.6683 26255.8
 16 11 2013  21 26  -21.0232 26021.0 -03503.6 -07.6685 26255.8
 16 11 2013  21 27  -21.0234 26021.0 -03503.8 -07.6689 26255.8
 16 11 2013  21 28  -21.0235 26021.1 -03504.0 -07.6694 26256.0
 16 11 2013  21 29  -21.0242 26021.0 -03504.2 -07.6697 26255.9
 16 11 2013  21 30  -21.0244 26020.6 -03504.1 -07.6697 26255.5
 16 11 2013  21 31  -21.0242 26020.5 -03504.1 -07.6696 26255.3
 16 11 2013  21 32  -21.0242 26020.3 -03504.1 -07.6698 26255.2
 16 11 2013  21 33  -21.0241 26020.4 -03504.2 -07.6700 26255.3
 16 11 2013  21 34  -21.0246 26020.2 -03504.3 -07.6702 26255.1
 16 11 2013  21 35  -21.0246 26020.0 -03504.4 -07.6704 26255.0
 16 11 2013  21 36  -21.0249 26019.6 -03504.2 -07.6702 26254.5
 16 11 2013  21 37  -21.0247 26019.2 -03504.1 -07.6701 26254.1
 16 11 2013  21 38  -21.0245 26019.3 -03504.2 -07.6703 26254.2
 16 11 2013  21 39  -21.0244 26019.4 -03504.4 -07.6706 26254.4
 16 11 2013  21 40  -21.0244 26019.5 -03504.5 -07.6709 26254.5
 16 11 2013  21 41  -21.0242 26019.6 -03504.7 -07.6712 26254.6
 16 11 2013  21 42  -21.0244 26019.3 -03504.7 -07.6713 26254.2
 16 11 2013  21 43  -21.0243 26018.8 -03504.5 -07.6711 26253.8
 16 11 2013  21 44  -21.0243 26018.5 -03504.4 -07.6710 26253.5
 16 11 2013  21 45  -21.0245 26017.8 -03504.2 -07.6707 26252.7
 16 11 2013  21 46  -21.0242 26017.5 -03504.1 -07.6706 26252.4
 16 11 2013  21 47  -21.0244 26016.7 -03503.9 -07.6703 26251.6
 16 11 2013  21 48  -21.0234 26016.5 -03503.8 -07.6701 26251.3
 16 11 2013  21 49  -21.0228 26016.3 -03503.8 -07.6702 26251.1
 16 11 2013  21 50  -21.0225 26016.2 -03503.9 -07.6705 26251.1
 16 11 2013  21 51  -21.0217 26016.3 -03504.1 -07.6709 26251.2
 16 11 2013  21 52  -21.0221 26016.0 -03504.2 -07.6712 26251.0
 16 11 2013  21 53  -21.0214 26016.2 -03504.4 -07.6715 26251.1
 16 11 2013  21 54  -21.0210 26016.5 -03504.7 -07.6721 26251.5
 16 11 2013  21 55  -21.0204 26016.7 -03504.9 -07.6726 26251.8
 16 11 2013  21 56  -21.0201 26016.8 -03505.1 -07.6729 26251.9
 16 11 2013  21 57  -21.0204 26017.1 -03505.4 -07.6735 26252.2
 16 11 2013  21 58  -21.0206 26017.3 -03505.6 -07.6740 26252.4
 16 11 2013  21 59  -21.0208 26017.1 -03505.6 -07.6740 26252.2
 16 11 2013  22 00  -21.0210 26016.6 -03505.4 -07.6737 26251.7
 16 11 2013  22 01  -21.0207 26016.4 -03505.4 -07.6736 26251.4
 16 11 2013  22 02  -21.0205 26016.1 -03505.2 -07.6734 26251.2
 16 11 2013  22 03  -21.0203 26016.1 -03505.3 -07.6736 26251.2
 16 11 2013  22 04  -21.0205 26016.0 -03505.4 -07.6738 26251.1
 16 11 2013  22 05  -21.0202 26015.9 -03505.4 -07.6738 26251.0
 16 11 2013  22 06  -21.0203 26015.5 -03505.3 -07.6737 26250.6
 16 11 2013  22 07  -21.0197 26015.7 -03505.4 -07.6739 26250.8
 16 11 2013  22 08  -21.0199 26015.9 -03505.6 -07.6742 26251.0
 16 11 2013  22 09  -21.0200 26016.1 -03505.8 -07.6746 26251.3
 16 11 2013  22 10  -21.0201 26016.3 -03506.0 -07.6750 26251.4
 16 11 2013  22 11  -21.0201 26016.3 -03506.1 -07.6751 26251.5
 16 11 2013  22 12  -21.0202 26016.3 -03506.1 -07.6751 26251.4
 16 11 2013  22 13  -21.0199 26016.5 -03506.2 -07.6754 26251.7
 16 11 2013  22 14  -21.0201 26016.9 -03506.5 -07.6759 26252.1
 16 11 2013  22 15  -21.0208 26017.0 -03506.7 -07.6762 26252.3
 16 11 2013  22 16  -21.0224 26016.9 -03506.7 -07.6764 26252.1
 16 11 2013  22 17  -21.0242 26016.3 -03506.6 -07.6762 26251.6
 16 11 2013  22 18  -21.0254 26015.5 -03506.2 -07.6757 26250.7
 16 11 2013  22 19  -21.0253 26014.7 -03505.7 -07.6749 26249.8
 16 11 2013  22 20  -21.0250 26014.2 -03505.5 -07.6745 26249.4
 16 11 2013  22 21  -21.0236 26014.2 -03505.4 -07.6742 26249.3
 16 11 2013  22 22  -21.0232 26014.5 -03505.6 -07.6746 26249.6
 16 11 2013  22 23  -21.0238 26014.7 -03505.9 -07.6753 26249.9
 16 11 2013  22 24  -21.0243 26014.8 -03506.1 -07.6756 26250.0
 16 11 2013  22 25  -21.0244 26014.4 -03506.0 -07.6756 26249.5
 16 11 2013  22 26  -21.0233 26013.9 -03505.8 -07.6752 26249.1
 16 11 2013  22 27  -21.0220 26013.7 -03505.6 -07.6749 26248.8
 16 11 2013  22 28  -21.0216 26013.6 -03505.6 -07.6750 26248.8
 16 11 2013  22 29  -21.0218 26013.7 -03505.9 -07.6755 26248.9
 16 11 2013  22 30  -21.0220 26013.8 -03506.1 -07.6759 26249.0
 16 11 2013  22 31  -21.0221 26013.7 -03506.1 -07.6761 26249.0
 16 11 2013  22 32  -21.0220 26013.9 -03506.3 -07.6763 26249.1
 16 11 2013  22 33  -21.0219 26013.8 -03506.3 -07.6765 26249.0
 16 11 2013  22 34  -21.0222 26013.5 -03506.3 -07.6764 26248.8
 16 11 2013  22 35  -21.0227 26013.0 -03506.1 -07.6762 26248.2
 16 11 2013  22 36  -21.0229 26012.7 -03506.0 -07.6760 26247.9
 16 11 2013  22 37  -21.0231 26012.3 -03505.9 -07.6759 26247.5
 16 11 2013  22 38  -21.0229 26012.2 -03505.8 -07.6758 26247.4
 16 11 2013  22 39  -21.0224 26012.2 -03505.9 -07.6759 26247.4
 16 11 2013  22 40  -21.0214 26012.4 -03506.0 -07.6761 26247.6
 16 11 2013  22 41  -21.0210 26012.5 -03506.1 -07.6764 26247.8
 16 11 2013  22 42  -21.0213 26012.4 -03506.2 -07.6766 26247.7
 16 11 2013  22 43  -21.0215 26012.1 -03506.2 -07.6766 26247.4
 16 11 2013  22 44  -21.0215 26011.9 -03506.1 -07.6765 26247.1
 16 11 2013  22 45  -21.0209 26011.7 -03506.0 -07.6764 26246.9
 16 11 2013  22 46  -21.0199 26011.5 -03505.9 -07.6761 26246.7
 16 11 2013  22 47  -21.0196 26011.2 -03505.8 -07.6761 26246.4
 16 11 2013  22 48  -21.0195 26011.1 -03505.9 -07.6764 26246.3
 16 11 2013  22 49  -21.0200 26011.1 -03506.0 -07.6766 26246.3
 16 11 2013  22 50  -21.0203 26011.1 -03506.2 -07.6769 26246.4
 16 11 2013  22 51  -21.0202 26011.1 -03506.1 -07.6767 26246.3
 16 11 2013  22 52  -21.0202 26010.9 -03506.1 -07.6768 26246.1
 16 11 2013  22 53  -21.0199 26010.3 -03505.9 -07.6765 26245.5
 16 11 2013  22 54  -21.0199 26009.6 -03505.6 -07.6760 26244.8
 16 11 2013  22 55  -21.0196 26009.6 -03505.5 -07.6760 26244.7
 16 11 2013  22 56  -21.0196 26009.6 -03505.7 -07.6762 26244.8
 16 11 2013  22 57  -21.0198 26009.7 -03505.8 -07.6766 26244.9
 16 11 2013  22 58  -21.0198 26009.8 -03506.0 -07.6768 26245.0
 16 11 2013  22 59  -21.0199 26009.8 -03506.0 -07.6770 26245.0
 16 11 2013  23 00  -21.0199 26009.8 -03506.1 -07.6770 26245.0
 16 11 2013  23 01  -21.0198 26009.7 -03506.0 -07.6771 26244.9
 16 11 2013  23 02  -21.0196 26009.7 -03506.0 -07.6770 26244.9
 16 11 2013  23 03  -21.0195 26009.6 -03506.1 -07.6771 26244.9
 16 11 2013  23 04  -21.0193 26009.5 -03506.0 -07.6771 26244.8
 16 11 2013  23 05  -21.0191 26009.5 -03506.0 -07.6770 26244.7
 16 11 2013  23 06  -21.0189 26009.4 -03506.0 -07.6771 26244.7
 16 11 2013  23 07  -21.0185 26009.5 -03506.1 -07.6771 26244.8
 16 11 2013  23 08  -21.0180 26009.6 -03506.1 -07.6773 26244.9
 16 11 2013  23 09  -21.0177 26009.6 -03506.2 -07.6773 26244.9
 16 11 2013  23 10  -21.0175 26009.7 -03506.2 -07.6774 26245.0
 16 11 2013  23 11  -21.0172 26009.8 -03506.3 -07.6776 26245.0
 16 11 2013  23 12  -21.0169 26009.8 -03506.3 -07.6776 26245.0
 16 11 2013  23 13  -21.0167 26009.8 -03506.3 -07.6776 26245.0
 16 11 2013  23 14  -21.0164 26009.8 -03506.4 -07.6777 26245.1
 16 11 2013  23 15  -21.0161 26009.9 -03506.4 -07.6778 26245.2
 16 11 2013  23 16  -21.0157 26009.9 -03506.4 -07.6778 26245.1
 16 11 2013  23 17  -21.0155 26009.9 -03506.5 -07.6779 26245.1
 16 11 2013  23 18  -21.0152 26009.9 -03506.5 -07.6780 26245.2
 16 11 2013  23 19  -21.0151 26009.9 -03506.6 -07.6781 26245.3
 16 11 2013  23 20  -21.0149 26009.9 -03506.5 -07.6780 26245.2
 16 11 2013  23 21  -21.0145 26009.9 -03506.5 -07.6780 26245.2
 16 11 2013  23 22  -21.0143 26010.0 -03506.6 -07.6781 26245.3
 16 11 2013  23 23  -21.0144 26010.1 -03506.7 -07.6783 26245.4
 16 11 2013  23 24  -21.0144 26010.2 -03506.7 -07.6783 26245.5
 16 11 2013  23 25  -21.0143 26010.3 -03506.8 -07.6785 26245.6
 16 11 2013  23 26  -21.0143 26010.3 -03506.8 -07.6785 26245.6
 16 11 2013  23 27  -21.0141 26010.5 -03506.9 -07.6785 26245.9
 16 11 2013  23 28  -21.0138 26010.7 -03506.9 -07.6787 26246.1
 16 11 2013  23 29  -21.0132 26011.3 -03507.2 -07.6790 26246.6
 16 11 2013  23 30  -21.0129 26011.9 -03507.5 -07.6795 26247.3
 16 11 2013  23 31  -21.0128 26012.2 -03507.6 -07.6798 26247.6
 16 11 2013  23 32  -21.0129 26012.2 -03507.6 -07.6798 26247.6
 16 11 2013  23 33  -21.0133 26012.1 -03507.6 -07.6797 26247.5
 16 11 2013  23 34  -21.0135 26011.9 -03507.4 -07.6794 26247.3
 16 11 2013  23 35  -21.0138 26011.6 -03507.2 -07.6791 26247.0
 16 11 2013  23 36  -21.0139 26011.5 -03507.1 -07.6788 26246.8
 16 11 2013  23 37  -21.0136 26011.3 -03507.0 -07.6786 26246.6
 16 11 2013  23 38  -21.0135 26011.3 -03507.0 -07.6785 26246.6
 16 11 2013  23 39  -21.0131 26011.4 -03507.0 -07.6786 26246.7
 16 11 2013  23 40  -21.0126 26011.5 -03507.1 -07.6787 26246.9
 16 11 2013  23 41  -21.0121 26011.8 -03507.2 -07.6790 26247.2
 16 11 2013  23 42  -21.0116 26012.1 -03507.4 -07.6793 26247.5
 16 11 2013  23 43  -21.0111 26012.5 -03507.6 -07.6796 26248.0
 16 11 2013  23 44  -21.0107 26012.9 -03507.8 -07.6799 26248.3
 16 11 2013  23 45  -21.0107 26012.7 -03507.8 -07.6799 26248.2
 16 11 2013  23 46  -21.0110 26012.5 -03507.7 -07.6799 26247.9
 16 11 2013  23 47  -21.0113 26012.3 -03507.6 -07.6797 26247.7
 16 11 2013  23 48  -21.0114 26012.0 -03507.5 -07.6794 26247.4
 16 11 2013  23 49  -21.0116 26011.8 -03507.3 -07.6792 26247.2
 16 11 2013  23 50  -21.0114 26011.6 -03507.2 -07.6789 26247.0
 16 11 2013  23 51  -21.0109 26011.6 -03507.2 -07.6789 26247.0
 16 11 2013  23 52  -21.0106 26011.6 -03507.2 -07.6791 26247.0
 16 11 2013  23 53  -21.0106 26011.7 -03507.3 -07.6792 26247.1
 16 11 2013  23 54  -21.0108 26011.8 -03507.4 -07.6794 26247.2
 16 11 2013  23 55  -21.0106 26011.8 -03507.5 -07.6795 26247.2
 16 11 2013  23 56  -21.0104 26011.8 -03507.4 -07.6795 26247.2
 16 11 2013  23 57  -21.0106 26012.0 -03507.6 -07.6797 26247.4
