SAO LUIS EMBRACE-03 <166> 1 Min. Reported data

 DD MM YYYY  HH MM   D(Deg)  H(nT)   Z(nT)   I(Deg)   F(nT)

 15 06 2013  00 00  -21.0373 26028.5 -03449.1 -07.5485 26256.1
 15 06 2013  00 01  -21.0374 26028.3 -03449.0 -07.5483 26255.8
 15 06 2013  00 02  -21.0377 26028.1 -03448.9 -07.5482 26255.6
 15 06 2013  00 03  -21.0377 26028.0 -03448.9 -07.5482 26255.5
 15 06 2013  00 04  -21.0378 26028.0 -03448.9 -07.5482 26255.5
 15 06 2013  00 05  -21.0375 26028.1 -03449.0 -07.5483 26255.7
 15 06 2013  00 06  -21.0377 26028.2 -03449.1 -07.5484 26255.7
 15 06 2013  00 07  -21.0379 26028.4 -03449.2 -07.5486 26255.9
 15 06 2013  00 08  -21.0379 26028.5 -03449.3 -07.5487 26256.0
 15 06 2013  00 09  -21.0378 26028.6 -03449.3 -07.5488 26256.1
 15 06 2013  00 10  -21.0379 26028.5 -03449.3 -07.5488 26256.0
 15 06 2013  00 11  -21.0377 26028.5 -03449.2 -07.5487 26256.0
 15 06 2013  00 12  -21.0372 26028.6 -03449.2 -07.5487 26256.1
 15 06 2013  00 13  -21.0371 26028.1 -03449.0 -07.5483 26255.6
 15 06 2013  00 14  -21.0365 26028.5 -03449.1 -07.5485 26256.0
 15 06 2013  00 15  -21.0364 26028.3 -03449.1 -07.5484 26255.9
 15 06 2013  00 16  -21.0359 26028.5 -03449.1 -07.5485 26256.0
 15 06 2013  00 17  -21.0358 26028.3 -03449.1 -07.5485 26255.9
 15 06 2013  00 18  -21.0356 26028.3 -03449.1 -07.5485 26255.9
 15 06 2013  00 19  -21.0354 26028.3 -03449.1 -07.5485 26255.8
 15 06 2013  00 20  -21.0352 26028.4 -03449.2 -07.5486 26255.9
 15 06 2013  00 21  -21.0349 26028.0 -03449.0 -07.5484 26255.6
 15 06 2013  00 22  -21.0345 26028.0 -03449.0 -07.5484 26255.6
 15 06 2013  00 23  -21.0346 26027.9 -03449.0 -07.5484 26255.4
 15 06 2013  00 24  -21.0346 26027.9 -03449.0 -07.5485 26255.4
 15 06 2013  00 25  -21.0345 26027.8 -03449.0 -07.5484 26255.3
 15 06 2013  00 26  -21.0349 26027.7 -03449.0 -07.5484 26255.2
 15 06 2013  00 27  -21.0354 26027.7 -03449.0 -07.5485 26255.3
 15 06 2013  00 28  -21.0362 26027.5 -03449.0 -07.5485 26255.1
 15 06 2013  00 29  -21.0367 26027.4 -03448.9 -07.5483 26254.9
 15 06 2013  00 30  -21.0373 26027.2 -03448.8 -07.5482 26254.7
 15 06 2013  00 31  -21.0374 26027.2 -03448.8 -07.5481 26254.7
 15 06 2013  00 32  -21.0373 26027.0 -03448.7 -07.5480 26254.5
 15 06 2013  00 33  -21.0371 26026.9 -03448.6 -07.5478 26254.4
 15 06 2013  00 34  -21.0375 26026.7 -03448.6 -07.5478 26254.2
 15 06 2013  00 35  -21.0375 26026.7 -03448.6 -07.5478 26254.2
 15 06 2013  00 36  -21.0374 26026.6 -03448.5 -07.5477 26254.0
 15 06 2013  00 37  -21.0370 26026.5 -03448.5 -07.5477 26254.0
 15 06 2013  00 38  -21.0366 26026.4 -03448.4 -07.5476 26253.8
 15 06 2013  00 39  -21.0361 26026.4 -03448.5 -07.5477 26253.8
 15 06 2013  00 40  -21.0358 26026.4 -03448.5 -07.5477 26253.8
 15 06 2013  00 41  -21.0354 26026.4 -03448.5 -07.5477 26253.8
 15 06 2013  00 42  -21.0351 26026.2 -03448.4 -07.5476 26253.6
 15 06 2013  00 43  -21.0347 26026.1 -03448.4 -07.5476 26253.5
 15 06 2013  00 44  -21.0345 26026.1 -03448.5 -07.5477 26253.6
 15 06 2013  00 45  -21.0344 26026.0 -03448.5 -07.5478 26253.5
 15 06 2013  00 46  -21.0339 26026.2 -03448.6 -07.5480 26253.7
 15 06 2013  00 47  -21.0335 26026.4 -03448.7 -07.5482 26253.9
 15 06 2013  00 48  -21.0333 26026.5 -03448.9 -07.5485 26254.0
 15 06 2013  00 49  -21.0332 26026.6 -03449.0 -07.5487 26254.1
 15 06 2013  00 50  -21.0331 26026.5 -03449.0 -07.5487 26254.1
 15 06 2013  00 51  -21.0332 26026.7 -03449.1 -07.5489 26254.3
 15 06 2013  00 52  -21.0330 26026.8 -03449.1 -07.5489 26254.3
 15 06 2013  00 53  -21.0327 26027.0 -03449.2 -07.5491 26254.5
 15 06 2013  00 54  -21.0326 26027.0 -03449.3 -07.5492 26254.5
 15 06 2013  00 55  -21.0323 26027.0 -03449.3 -07.5492 26254.6
 15 06 2013  00 56  -21.0320 26027.0 -03449.3 -07.5492 26254.5
 15 06 2013  00 57  -21.0318 26027.0 -03449.3 -07.5492 26254.6
 15 06 2013  00 58  -21.0316 26027.0 -03449.3 -07.5492 26254.5
 15 06 2013  00 59  -21.0316 26027.1 -03449.3 -07.5493 26254.7
 15 06 2013  01 00  -21.0314 26027.1 -03449.4 -07.5494 26254.7
 15 06 2013  01 01  -21.0312 26027.1 -03449.4 -07.5494 26254.7
 15 06 2013  01 02  -21.0311 26027.3 -03449.5 -07.5496 26254.8
 15 06 2013  01 03  -21.0312 26027.4 -03449.6 -07.5497 26255.0
 15 06 2013  01 04  -21.0312 26027.7 -03449.7 -07.5500 26255.3
 15 06 2013  01 05  -21.0312 26028.0 -03449.9 -07.5503 26255.7
 15 06 2013  01 06  -21.0309 26028.2 -03450.0 -07.5504 26255.9
 15 06 2013  01 07  -21.0305 26028.7 -03450.2 -07.5507 26256.3
 15 06 2013  01 08  -21.0303 26028.9 -03450.3 -07.5509 26256.6
 15 06 2013  01 09  -21.0298 26029.4 -03450.5 -07.5511 26257.1
 15 06 2013  01 10  -21.0292 26030.0 -03450.7 -07.5515 26257.7
 15 06 2013  01 11  -21.0288 26030.4 -03451.0 -07.5519 26258.1
 15 06 2013  01 12  -21.0284 26030.9 -03451.2 -07.5523 26258.7
 15 06 2013  01 13  -21.0279 26031.4 -03451.4 -07.5526 26259.2
 15 06 2013  01 14  -21.0275 26031.9 -03451.7 -07.5530 26259.7
 15 06 2013  01 15  -21.0274 26032.4 -03451.8 -07.5532 26260.2
 15 06 2013  01 16  -21.0274 26032.9 -03452.1 -07.5535 26260.8
 15 06 2013  01 17  -21.0276 26033.4 -03452.2 -07.5538 26261.3
 15 06 2013  01 18  -21.0278 26033.7 -03452.3 -07.5538 26261.6
 15 06 2013  01 19  -21.0280 26033.8 -03452.3 -07.5537 26261.7
 15 06 2013  01 20  -21.0281 26033.9 -03452.1 -07.5534 26261.7
 15 06 2013  01 21  -21.0282 26033.8 -03451.9 -07.5530 26261.6
 15 06 2013  01 22  -21.0285 26033.6 -03451.7 -07.5525 26261.4
 15 06 2013  01 23  -21.0286 26033.3 -03451.4 -07.5520 26261.1
 15 06 2013  01 24  -21.0288 26033.1 -03451.2 -07.5515 26260.9
 15 06 2013  01 25  -21.0289 26032.7 -03450.9 -07.5511 26260.5
 15 06 2013  01 26  -21.0287 26032.5 -03450.6 -07.5506 26260.2
 15 06 2013  01 27  -21.0285 26032.4 -03450.5 -07.5504 26260.1
 15 06 2013  01 28  -21.0285 26032.0 -03450.4 -07.5501 26259.7
 15 06 2013  01 29  -21.0284 26031.9 -03450.2 -07.5499 26259.5
 15 06 2013  01 30  -21.0285 26031.7 -03450.1 -07.5497 26259.3
 15 06 2013  01 31  -21.0285 26031.7 -03450.1 -07.5498 26259.3
 15 06 2013  01 32  -21.0286 26031.7 -03450.2 -07.5499 26259.3
 15 06 2013  01 33  -21.0285 26031.5 -03450.1 -07.5497 26259.1
 15 06 2013  01 34  -21.0284 26031.6 -03450.2 -07.5499 26259.3
 15 06 2013  01 35  -21.0284 26031.7 -03450.3 -07.5500 26259.3
 15 06 2013  01 36  -21.0282 26031.6 -03450.3 -07.5501 26259.3
 15 06 2013  01 37  -21.0280 26031.7 -03450.3 -07.5502 26259.3
 15 06 2013  01 38  -21.0280 26031.5 -03450.3 -07.5501 26259.1
 15 06 2013  01 39  -21.0281 26031.3 -03450.2 -07.5500 26258.9
 15 06 2013  01 40  -21.0281 26031.2 -03450.1 -07.5498 26258.8
 15 06 2013  01 41  -21.0281 26031.0 -03450.1 -07.5498 26258.7
 15 06 2013  01 42  -21.0280 26030.7 -03449.9 -07.5495 26258.3
 15 06 2013  01 43  -21.0279 26030.6 -03449.9 -07.5495 26258.2
 15 06 2013  01 44  -21.0277 26030.6 -03449.9 -07.5496 26258.3
 15 06 2013  01 45  -21.0276 26030.8 -03450.1 -07.5498 26258.4
 15 06 2013  01 46  -21.0274 26030.8 -03450.1 -07.5500 26258.4
 15 06 2013  01 47  -21.0272 26030.8 -03450.2 -07.5501 26258.4
 15 06 2013  01 48  -21.0270 26031.0 -03450.3 -07.5504 26258.6
 15 06 2013  01 49  -21.0269 26031.0 -03450.4 -07.5505 26258.6
 15 06 2013  01 50  -21.0266 26031.1 -03450.5 -07.5506 26258.8
 15 06 2013  01 51  -21.0265 26031.2 -03450.5 -07.5508 26258.9
 15 06 2013  01 52  -21.0266 26031.2 -03450.6 -07.5508 26258.9
 15 06 2013  01 53  -21.0269 26031.1 -03450.6 -07.5509 26258.8
 15 06 2013  01 54  -21.0272 26031.0 -03450.6 -07.5509 26258.8
 15 06 2013  01 55  -21.0276 26030.9 -03450.5 -07.5508 26258.6
 15 06 2013  01 56  -21.0278 26030.8 -03450.5 -07.5508 26258.5
 15 06 2013  01 57  -21.0282 26030.9 -03450.5 -07.5508 26258.6
 15 06 2013  01 58  -21.0286 26031.0 -03450.6 -07.5510 26258.7
 15 06 2013  01 59  -21.0288 26031.1 -03450.6 -07.5510 26258.8
 15 06 2013  02 00  -21.0290 26031.2 -03450.7 -07.5511 26258.9
 15 06 2013  02 01  -21.0291 26031.3 -03450.7 -07.5511 26259.0
 15 06 2013  02 02  -21.0292 26031.4 -03450.7 -07.5511 26259.1
 15 06 2013  02 03  -21.0292 26031.4 -03450.8 -07.5511 26259.1
 15 06 2013  02 04  -21.0292 26031.3 -03450.7 -07.5511 26259.0
 15 06 2013  02 05  -21.0292 26031.4 -03450.7 -07.5510 26259.1
 15 06 2013  02 06  -21.0293 26031.4 -03450.7 -07.5510 26259.1
 15 06 2013  02 07  -21.0293 26031.4 -03450.7 -07.5510 26259.1
 15 06 2013  02 08  -21.0295 26031.4 -03450.6 -07.5509 26259.1
 15 06 2013  02 09  -21.0296 26031.3 -03450.6 -07.5508 26259.0
 15 06 2013  02 10  -21.0297 26031.2 -03450.5 -07.5507 26258.9
 15 06 2013  02 11  -21.0296 26031.2 -03450.5 -07.5507 26258.9
 15 06 2013  02 12  -21.0295 26031.1 -03450.5 -07.5506 26258.8
 15 06 2013  02 13  -21.0294 26031.1 -03450.5 -07.5506 26258.7
 15 06 2013  02 14  -21.0293 26031.1 -03450.4 -07.5506 26258.8
 15 06 2013  02 15  -21.0292 26031.3 -03450.6 -07.5508 26259.0
 15 06 2013  02 16  -21.0291 26031.5 -03450.7 -07.5510 26259.2
 15 06 2013  02 17  -21.0289 26031.8 -03450.9 -07.5513 26259.5
 15 06 2013  02 18  -21.0290 26031.9 -03450.9 -07.5514 26259.7
 15 06 2013  02 19  -21.0291 26031.9 -03450.9 -07.5514 26259.6
 15 06 2013  02 20  -21.0291 26031.9 -03450.9 -07.5513 26259.6
 15 06 2013  02 21  -21.0291 26031.8 -03450.9 -07.5513 26259.6
 15 06 2013  02 22  -21.0291 26031.8 -03450.9 -07.5513 26259.6
 15 06 2013  02 23  -21.0291 26031.7 -03450.8 -07.5512 26259.5
 15 06 2013  02 24  -21.0290 26031.8 -03450.8 -07.5512 26259.5
 15 06 2013  02 25  -21.0289 26032.0 -03451.0 -07.5514 26259.7
 15 06 2013  02 26  -21.0286 26032.2 -03451.0 -07.5515 26260.0
 15 06 2013  02 27  -21.0284 26032.4 -03451.1 -07.5517 26260.1
 15 06 2013  02 28  -21.0282 26032.6 -03451.2 -07.5518 26260.3
 15 06 2013  02 29  -21.0281 26032.8 -03451.3 -07.5519 26260.5
 15 06 2013  02 30  -21.0280 26032.9 -03451.3 -07.5519 26260.7
 15 06 2013  02 31  -21.0280 26033.2 -03451.4 -07.5521 26261.0
 15 06 2013  02 32  -21.0280 26033.3 -03451.5 -07.5522 26261.1
 15 06 2013  02 33  -21.0280 26033.4 -03451.5 -07.5523 26261.2
 15 06 2013  02 34  -21.0281 26033.5 -03451.6 -07.5523 26261.4
 15 06 2013  02 35  -21.0280 26033.7 -03451.6 -07.5523 26261.5
 15 06 2013  02 36  -21.0279 26033.7 -03451.5 -07.5522 26261.6
 15 06 2013  02 37  -21.0278 26033.8 -03451.6 -07.5523 26261.6
 15 06 2013  02 38  -21.0278 26034.0 -03451.6 -07.5522 26261.8
 15 06 2013  02 39  -21.0278 26034.1 -03451.6 -07.5523 26261.9
 15 06 2013  02 40  -21.0278 26034.2 -03451.7 -07.5523 26262.0
 15 06 2013  02 41  -21.0279 26034.2 -03451.6 -07.5523 26262.0
 15 06 2013  02 42  -21.0280 26034.3 -03451.7 -07.5523 26262.1
 15 06 2013  02 43  -21.0283 26034.5 -03451.7 -07.5524 26262.3
 15 06 2013  02 44  -21.0284 26034.7 -03451.8 -07.5525 26262.5
 15 06 2013  02 45  -21.0286 26034.8 -03451.8 -07.5525 26262.6
 15 06 2013  02 46  -21.0285 26034.9 -03451.9 -07.5525 26262.7
 15 06 2013  02 47  -21.0285 26035.0 -03451.9 -07.5525 26262.9
 15 06 2013  02 48  -21.0283 26035.2 -03451.9 -07.5526 26263.0
 15 06 2013  02 49  -21.0281 26035.2 -03451.9 -07.5525 26263.0
 15 06 2013  02 50  -21.0282 26035.2 -03451.8 -07.5524 26263.0
 15 06 2013  02 51  -21.0281 26035.2 -03451.8 -07.5524 26263.0
 15 06 2013  02 52  -21.0280 26035.2 -03451.8 -07.5523 26263.0
 15 06 2013  02 53  -21.0280 26035.2 -03451.7 -07.5522 26263.0
 15 06 2013  02 54  -21.0279 26035.2 -03451.7 -07.5522 26263.0
 15 06 2013  02 55  -21.0280 26035.2 -03451.7 -07.5522 26263.0
 15 06 2013  02 56  -21.0281 26035.3 -03451.7 -07.5522 26263.1
 15 06 2013  02 57  -21.0282 26035.2 -03451.7 -07.5522 26263.1
 15 06 2013  02 58  -21.0283 26035.3 -03451.7 -07.5522 26263.1
 15 06 2013  02 59  -21.0284 26035.2 -03451.7 -07.5520 26263.0
 15 06 2013  03 00  -21.0284 26035.2 -03451.6 -07.5520 26263.0
 15 06 2013  03 01  -21.0283 26035.2 -03451.6 -07.5519 26263.0
 15 06 2013  03 02  -21.0282 26035.2 -03451.6 -07.5519 26263.0
 15 06 2013  03 03  -21.0281 26035.2 -03451.6 -07.5519 26263.0
 15 06 2013  03 04  -21.0279 26035.2 -03451.6 -07.5519 26263.0
 15 06 2013  03 05  -21.0278 26035.2 -03451.6 -07.5518 26263.0
 15 06 2013  03 06  -21.0275 26035.3 -03451.6 -07.5519 26263.1
 15 06 2013  03 07  -21.0273 26035.4 -03451.7 -07.5520 26263.2
 15 06 2013  03 08  -21.0273 26035.3 -03451.6 -07.5519 26263.1
 15 06 2013  03 09  -21.0271 26035.3 -03451.6 -07.5519 26263.1
 15 06 2013  03 10  -21.0270 26035.3 -03451.6 -07.5519 26263.1
 15 06 2013  03 11  -21.0269 26035.2 -03451.6 -07.5519 26263.0
 15 06 2013  03 12  -21.0268 26035.3 -03451.7 -07.5520 26263.1
 15 06 2013  03 13  -21.0267 26035.4 -03451.8 -07.5522 26263.3
 15 06 2013  03 14  -21.0268 26035.4 -03451.7 -07.5521 26263.2
 15 06 2013  03 15  -21.0269 26035.5 -03451.8 -07.5522 26263.4
 15 06 2013  03 16  -21.0271 26035.5 -03451.8 -07.5522 26263.3
 15 06 2013  03 17  -21.0272 26035.6 -03451.8 -07.5522 26263.4
 15 06 2013  03 18  -21.0274 26035.6 -03451.8 -07.5523 26263.4
 15 06 2013  03 19  -21.0275 26035.7 -03451.9 -07.5523 26263.5
 15 06 2013  03 20  -21.0276 26035.6 -03451.8 -07.5522 26263.5
 15 06 2013  03 21  -21.0276 26035.6 -03451.8 -07.5521 26263.4
 15 06 2013  03 22  -21.0276 26035.6 -03451.7 -07.5521 26263.4
 15 06 2013  03 23  -21.0275 26035.5 -03451.7 -07.5519 26263.3
 15 06 2013  03 24  -21.0272 26035.5 -03451.7 -07.5519 26263.3
 15 06 2013  03 25  -21.0270 26035.5 -03451.6 -07.5519 26263.3
 15 06 2013  03 26  -21.0268 26035.5 -03451.7 -07.5519 26263.3
 15 06 2013  03 27  -21.0267 26035.7 -03451.7 -07.5520 26263.5
 15 06 2013  03 28  -21.0266 26035.8 -03451.8 -07.5521 26263.6
 15 06 2013  03 29  -21.0266 26035.9 -03451.8 -07.5522 26263.7
 15 06 2013  03 30  -21.0265 26035.9 -03451.8 -07.5522 26263.8
 15 06 2013  03 31  -21.0265 26036.1 -03451.9 -07.5523 26263.9
 15 06 2013  03 32  -21.0266 26036.1 -03451.9 -07.5523 26264.0
 15 06 2013  03 33  -21.0266 26036.2 -03451.9 -07.5523 26264.1
 15 06 2013  03 34  -21.0266 26036.3 -03452.0 -07.5524 26264.2
 15 06 2013  03 35  -21.0267 26036.4 -03452.0 -07.5524 26264.2
 15 06 2013  03 36  -21.0267 26036.3 -03451.9 -07.5523 26264.1
 15 06 2013  03 37  -21.0267 26036.3 -03451.9 -07.5523 26264.2
 15 06 2013  03 38  -21.0265 26036.3 -03451.9 -07.5522 26264.1
 15 06 2013  03 39  -21.0263 26036.2 -03451.8 -07.5521 26264.1
 15 06 2013  03 40  -21.0261 26036.3 -03451.8 -07.5521 26264.1
 15 06 2013  03 41  -21.0262 26036.3 -03451.8 -07.5521 26264.1
 15 06 2013  03 42  -21.0261 26036.3 -03451.9 -07.5522 26264.2
 15 06 2013  03 43  -21.0263 26036.4 -03451.9 -07.5522 26264.2
 15 06 2013  03 44  -21.0263 26036.5 -03452.0 -07.5523 26264.4
 15 06 2013  03 45  -21.0264 26036.7 -03452.0 -07.5524 26264.5
 15 06 2013  03 46  -21.0265 26036.7 -03452.1 -07.5525 26264.6
 15 06 2013  03 47  -21.0266 26036.9 -03452.1 -07.5525 26264.7
 15 06 2013  03 48  -21.0267 26037.0 -03452.2 -07.5526 26264.9
 15 06 2013  03 49  -21.0270 26037.1 -03452.2 -07.5527 26265.0
 15 06 2013  03 50  -21.0271 26037.2 -03452.2 -07.5527 26265.1
 15 06 2013  03 51  -21.0271 26037.4 -03452.3 -07.5527 26265.2
 15 06 2013  03 52  -21.0269 26037.4 -03452.2 -07.5527 26265.2
 15 06 2013  03 53  -21.0266 26037.3 -03452.2 -07.5526 26265.2
 15 06 2013  03 54  -21.0266 26037.3 -03452.2 -07.5525 26265.1
 15 06 2013  03 55  -21.0267 26037.4 -03452.2 -07.5526 26265.3
 15 06 2013  03 56  -21.0268 26037.5 -03452.3 -07.5527 26265.4
 15 06 2013  03 57  -21.0269 26037.5 -03452.3 -07.5527 26265.3
 15 06 2013  03 58  -21.0269 26037.6 -03452.3 -07.5527 26265.5
 15 06 2013  03 59  -21.0270 26037.7 -03452.3 -07.5527 26265.6
 15 06 2013  04 00  -21.0270 26037.8 -03452.3 -07.5527 26265.7
 15 06 2013  04 01  -21.0271 26037.7 -03452.3 -07.5526 26265.6
 15 06 2013  04 02  -21.0273 26037.6 -03452.2 -07.5525 26265.4
 15 06 2013  04 03  -21.0275 26037.4 -03452.1 -07.5524 26265.3
 15 06 2013  04 04  -21.0275 26037.3 -03452.0 -07.5522 26265.2
 15 06 2013  04 05  -21.0276 26037.1 -03451.9 -07.5520 26264.9
 15 06 2013  04 06  -21.0277 26036.9 -03451.8 -07.5518 26264.8
 15 06 2013  04 07  -21.0279 26036.6 -03451.6 -07.5516 26264.4
 15 06 2013  04 08  -21.0281 26036.4 -03451.5 -07.5514 26264.2
 15 06 2013  04 09  -21.0281 26036.3 -03451.5 -07.5513 26264.1
 15 06 2013  04 10  -21.0281 26036.1 -03451.4 -07.5512 26263.9
 15 06 2013  04 11  -21.0281 26036.0 -03451.3 -07.5511 26263.8
 15 06 2013  04 12  -21.0278 26036.0 -03451.3 -07.5511 26263.7
 15 06 2013  04 13  -21.0277 26036.0 -03451.3 -07.5510 26263.8
 15 06 2013  04 14  -21.0276 26036.0 -03451.3 -07.5511 26263.8
 15 06 2013  04 15  -21.0273 26036.1 -03451.5 -07.5513 26263.9
 15 06 2013  04 16  -21.0271 26036.1 -03451.5 -07.5515 26263.9
 15 06 2013  04 17  -21.0271 26036.3 -03451.6 -07.5516 26264.1
 15 06 2013  04 18  -21.0272 26036.4 -03451.7 -07.5518 26264.2
 15 06 2013  04 19  -21.0272 26036.6 -03451.8 -07.5520 26264.4
 15 06 2013  04 20  -21.0273 26036.7 -03451.9 -07.5521 26264.5
 15 06 2013  04 21  -21.0274 26036.8 -03452.0 -07.5522 26264.7
 15 06 2013  04 22  -21.0273 26037.0 -03452.0 -07.5523 26264.8
 15 06 2013  04 23  -21.0273 26037.2 -03452.1 -07.5524 26265.0
 15 06 2013  04 24  -21.0273 26037.3 -03452.2 -07.5525 26265.2
 15 06 2013  04 25  -21.0273 26037.5 -03452.2 -07.5526 26265.3
 15 06 2013  04 26  -21.0272 26037.6 -03452.3 -07.5526 26265.5
 15 06 2013  04 27  -21.0273 26037.7 -03452.3 -07.5526 26265.5
 15 06 2013  04 28  -21.0274 26037.8 -03452.3 -07.5527 26265.6
 15 06 2013  04 29  -21.0277 26037.8 -03452.3 -07.5527 26265.7
 15 06 2013  04 30  -21.0277 26037.8 -03452.3 -07.5526 26265.6
 15 06 2013  04 31  -21.0277 26037.8 -03452.3 -07.5526 26265.7
 15 06 2013  04 32  -21.0277 26037.8 -03452.2 -07.5524 26265.6
 15 06 2013  04 33  -21.0275 26037.8 -03452.2 -07.5524 26265.6
 15 06 2013  04 34  -21.0275 26037.7 -03452.1 -07.5523 26265.6
 15 06 2013  04 35  -21.0275 26037.7 -03452.1 -07.5523 26265.6
 15 06 2013  04 36  -21.0275 26037.7 -03452.1 -07.5523 26265.6
 15 06 2013  04 37  -21.0274 26037.7 -03452.1 -07.5523 26265.6
 15 06 2013  04 38  -21.0274 26037.7 -03452.1 -07.5522 26265.6
 15 06 2013  04 39  -21.0273 26037.8 -03452.1 -07.5523 26265.6
 15 06 2013  04 40  -21.0272 26037.7 -03452.1 -07.5523 26265.6
 15 06 2013  04 41  -21.0272 26037.8 -03452.1 -07.5523 26265.7
 15 06 2013  04 42  -21.0273 26037.9 -03452.2 -07.5523 26265.7
 15 06 2013  04 43  -21.0276 26037.9 -03452.2 -07.5524 26265.7
 15 06 2013  04 44  -21.0278 26037.9 -03452.2 -07.5524 26265.8
 15 06 2013  04 45  -21.0278 26038.1 -03452.2 -07.5525 26266.0
 15 06 2013  04 46  -21.0277 26038.2 -03452.3 -07.5526 26266.1
 15 06 2013  04 47  -21.0274 26038.6 -03452.4 -07.5527 26266.5
 15 06 2013  04 48  -21.0270 26038.8 -03452.5 -07.5529 26266.7
 15 06 2013  04 49  -21.0267 26039.1 -03452.7 -07.5531 26267.1
 15 06 2013  04 50  -21.0265 26039.4 -03452.8 -07.5533 26267.3
 15 06 2013  04 51  -21.0263 26039.8 -03453.0 -07.5536 26267.8
 15 06 2013  04 52  -21.0264 26040.2 -03453.1 -07.5538 26268.1
 15 06 2013  04 53  -21.0265 26040.3 -03453.2 -07.5539 26268.3
 15 06 2013  04 54  -21.0267 26040.4 -03453.2 -07.5538 26268.4
 15 06 2013  04 55  -21.0268 26040.4 -03453.2 -07.5538 26268.4
 15 06 2013  04 56  -21.0268 26040.5 -03453.1 -07.5537 26268.5
 15 06 2013  04 57  -21.0269 26040.6 -03453.1 -07.5537 26268.5
 15 06 2013  04 58  -21.0269 26040.6 -03453.1 -07.5536 26268.6
 15 06 2013  04 59  -21.0267 26040.7 -03453.1 -07.5535 26268.7
 15 06 2013  05 00  -21.0265 26040.8 -03453.1 -07.5536 26268.8
 15 06 2013  05 01  -21.0262 26040.9 -03453.1 -07.5535 26268.9
 15 06 2013  05 02  -21.0259 26041.1 -03453.1 -07.5535 26269.0
 15 06 2013  05 03  -21.0259 26041.0 -03453.1 -07.5534 26269.0
 15 06 2013  05 04  -21.0260 26040.9 -03453.0 -07.5533 26268.8
 15 06 2013  05 05  -21.0261 26040.6 -03452.8 -07.5530 26268.5
 15 06 2013  05 06  -21.0264 26040.4 -03452.7 -07.5528 26268.3
 15 06 2013  05 07  -21.0266 26040.2 -03452.6 -07.5525 26268.1
 15 06 2013  05 08  -21.0267 26040.3 -03452.6 -07.5526 26268.2
 15 06 2013  05 09  -21.0267 26040.2 -03452.5 -07.5525 26268.1
 15 06 2013  05 10  -21.0266 26040.3 -03452.6 -07.5525 26268.2
 15 06 2013  05 11  -21.0264 26040.4 -03452.6 -07.5525 26268.3
 15 06 2013  05 12  -21.0263 26040.4 -03452.6 -07.5525 26268.3
 15 06 2013  05 13  -21.0261 26040.6 -03452.7 -07.5527 26268.5
 15 06 2013  05 14  -21.0258 26040.9 -03452.8 -07.5529 26268.8
 15 06 2013  05 15  -21.0257 26041.2 -03452.9 -07.5531 26269.1
 15 06 2013  05 16  -21.0255 26041.4 -03453.1 -07.5533 26269.3
 15 06 2013  05 17  -21.0254 26041.7 -03453.2 -07.5534 26269.6
 15 06 2013  05 18  -21.0254 26042.0 -03453.3 -07.5536 26270.0
 15 06 2013  05 19  -21.0256 26042.2 -03453.4 -07.5538 26270.2
 15 06 2013  05 20  -21.0258 26042.3 -03453.4 -07.5537 26270.2
 15 06 2013  05 21  -21.0261 26042.3 -03453.3 -07.5536 26270.2
 15 06 2013  05 22  -21.0263 26042.3 -03453.3 -07.5536 26270.3
 15 06 2013  05 23  -21.0263 26042.4 -03453.2 -07.5534 26270.3
 15 06 2013  05 24  -21.0263 26042.2 -03453.1 -07.5532 26270.1
 15 06 2013  05 25  -21.0264 26042.0 -03453.0 -07.5529 26269.9
 15 06 2013  05 26  -21.0264 26041.8 -03452.8 -07.5527 26269.7
 15 06 2013  05 27  -21.0263 26041.7 -03452.7 -07.5525 26269.6
 15 06 2013  05 28  -21.0261 26041.5 -03452.6 -07.5523 26269.4
 15 06 2013  05 29  -21.0258 26041.3 -03452.5 -07.5520 26269.2
 15 06 2013  05 30  -21.0254 26041.1 -03452.3 -07.5518 26269.0
 15 06 2013  05 31  -21.0250 26041.0 -03452.3 -07.5517 26268.9
 15 06 2013  05 32  -21.0247 26040.9 -03452.3 -07.5517 26268.7
 15 06 2013  05 33  -21.0245 26040.8 -03452.2 -07.5517 26268.7
 15 06 2013  05 34  -21.0243 26040.8 -03452.3 -07.5517 26268.7
 15 06 2013  05 35  -21.0242 26040.9 -03452.3 -07.5518 26268.7
 15 06 2013  05 36  -21.0242 26040.8 -03452.3 -07.5519 26268.7
 15 06 2013  05 37  -21.0240 26040.9 -03452.4 -07.5519 26268.8
 15 06 2013  05 38  -21.0239 26040.8 -03452.3 -07.5519 26268.7
 15 06 2013  05 39  -21.0238 26040.8 -03452.3 -07.5519 26268.7
 15 06 2013  05 40  -21.0237 26040.9 -03452.4 -07.5520 26268.8
 15 06 2013  05 41  -21.0235 26040.9 -03452.4 -07.5520 26268.7
 15 06 2013  05 42  -21.0232 26041.0 -03452.5 -07.5521 26268.9
 15 06 2013  05 43  -21.0229 26041.2 -03452.5 -07.5522 26269.0
 15 06 2013  05 44  -21.0228 26041.3 -03452.6 -07.5523 26269.1
 15 06 2013  05 45  -21.0226 26041.3 -03452.7 -07.5524 26269.2
 15 06 2013  05 46  -21.0223 26041.4 -03452.7 -07.5524 26269.3
 15 06 2013  05 47  -21.0220 26041.4 -03452.7 -07.5524 26269.3
 15 06 2013  05 48  -21.0219 26041.3 -03452.6 -07.5523 26269.2
 15 06 2013  05 49  -21.0218 26041.3 -03452.6 -07.5523 26269.2
 15 06 2013  05 50  -21.0218 26041.2 -03452.6 -07.5523 26269.1
 15 06 2013  05 51  -21.0220 26041.2 -03452.6 -07.5524 26269.1
 15 06 2013  05 52  -21.0221 26041.2 -03452.6 -07.5523 26269.0
 15 06 2013  05 53  -21.0223 26041.3 -03452.7 -07.5524 26269.2
 15 06 2013  05 54  -21.0226 26041.3 -03452.7 -07.5524 26269.2
 15 06 2013  05 55  -21.0229 26041.2 -03452.6 -07.5524 26269.1
 15 06 2013  05 56  -21.0231 26041.1 -03452.6 -07.5523 26269.0
 15 06 2013  05 57  -21.0232 26041.1 -03452.5 -07.5523 26268.9
 15 06 2013  05 58  -21.0234 26041.1 -03452.6 -07.5523 26269.0
 15 06 2013  05 59  -21.0234 26041.2 -03452.6 -07.5524 26269.1
 15 06 2013  06 00  -21.0234 26041.4 -03452.7 -07.5525 26269.3
 15 06 2013  06 01  -21.0234 26041.5 -03452.7 -07.5526 26269.4
 15 06 2013  06 02  -21.0233 26041.5 -03452.7 -07.5525 26269.4
 15 06 2013  06 03  -21.0233 26041.6 -03452.7 -07.5525 26269.5
 15 06 2013  06 04  -21.0232 26041.7 -03452.8 -07.5525 26269.6
 15 06 2013  06 05  -21.0231 26041.8 -03452.8 -07.5527 26269.7
 15 06 2013  06 06  -21.0231 26041.8 -03452.8 -07.5526 26269.7
 15 06 2013  06 07  -21.0231 26042.0 -03452.9 -07.5527 26269.9
 15 06 2013  06 08  -21.0229 26042.1 -03453.0 -07.5528 26270.0
 15 06 2013  06 09  -21.0227 26042.2 -03453.0 -07.5528 26270.1
 15 06 2013  06 10  -21.0224 26042.5 -03453.0 -07.5529 26270.4
 15 06 2013  06 11  -21.0222 26042.6 -03453.1 -07.5530 26270.5
 15 06 2013  06 12  -21.0220 26042.6 -03453.1 -07.5530 26270.5
 15 06 2013  06 13  -21.0219 26042.4 -03453.0 -07.5528 26270.3
 15 06 2013  06 14  -21.0216 26042.3 -03452.8 -07.5526 26270.2
 15 06 2013  06 15  -21.0212 26042.2 -03452.8 -07.5525 26270.1
 15 06 2013  06 16  -21.0209 26042.0 -03452.8 -07.5524 26269.9
 15 06 2013  06 17  -21.0208 26042.0 -03452.8 -07.5525 26269.9
 15 06 2013  06 18  -21.0208 26042.1 -03452.8 -07.5525 26270.0
 15 06 2013  06 19  -21.0206 26042.4 -03453.0 -07.5528 26270.4
 15 06 2013  06 20  -21.0205 26042.7 -03453.2 -07.5531 26270.7
 15 06 2013  06 21  -21.0205 26042.8 -03453.2 -07.5533 26270.8
 15 06 2013  06 22  -21.0205 26042.8 -03453.3 -07.5533 26270.8
 15 06 2013  06 23  -21.0204 26042.8 -03453.2 -07.5533 26270.7
 15 06 2013  06 24  -21.0202 26042.8 -03453.2 -07.5531 26270.7
 15 06 2013  06 25  -21.0201 26042.7 -03453.2 -07.5531 26270.7
 15 06 2013  06 26  -21.0198 26042.7 -03453.1 -07.5530 26270.6
 15 06 2013  06 27  -21.0195 26042.8 -03453.1 -07.5530 26270.7
 15 06 2013  06 28  -21.0195 26042.8 -03453.1 -07.5531 26270.7
 15 06 2013  06 29  -21.0194 26042.8 -03453.2 -07.5531 26270.8
 15 06 2013  06 30  -21.0193 26042.9 -03453.2 -07.5532 26270.9
 15 06 2013  06 31  -21.0192 26043.0 -03453.3 -07.5533 26271.0
 15 06 2013  06 32  -21.0192 26043.0 -03453.3 -07.5534 26271.0
 15 06 2013  06 33  -21.0193 26043.0 -03453.3 -07.5534 26271.0
 15 06 2013  06 34  -21.0195 26043.0 -03453.3 -07.5533 26270.9
 15 06 2013  06 35  -21.0196 26043.0 -03453.3 -07.5533 26271.0
 15 06 2013  06 36  -21.0196 26043.0 -03453.3 -07.5534 26270.9
 15 06 2013  06 37  -21.0196 26043.0 -03453.3 -07.5534 26270.9
 15 06 2013  06 38  -21.0196 26042.8 -03453.2 -07.5532 26270.8
 15 06 2013  06 39  -21.0194 26042.8 -03453.2 -07.5532 26270.8
 15 06 2013  06 40  -21.0192 26042.8 -03453.2 -07.5531 26270.7
 15 06 2013  06 41  -21.0190 26042.9 -03453.2 -07.5532 26270.8
 15 06 2013  06 42  -21.0187 26042.9 -03453.2 -07.5532 26270.8
 15 06 2013  06 43  -21.0185 26042.8 -03453.2 -07.5532 26270.8
 15 06 2013  06 44  -21.0182 26042.9 -03453.2 -07.5532 26270.8
 15 06 2013  06 45  -21.0180 26042.9 -03453.3 -07.5533 26270.8
 15 06 2013  06 46  -21.0178 26042.9 -03453.3 -07.5533 26270.8
 15 06 2013  06 47  -21.0177 26042.7 -03453.2 -07.5533 26270.7
 15 06 2013  06 48  -21.0177 26042.6 -03453.2 -07.5532 26270.5
 15 06 2013  06 49  -21.0175 26042.6 -03453.1 -07.5531 26270.5
 15 06 2013  06 50  -21.0171 26042.5 -03453.1 -07.5531 26270.4
 15 06 2013  06 51  -21.0168 26042.3 -03453.1 -07.5531 26270.3
 15 06 2013  06 52  -21.0164 26042.4 -03453.1 -07.5532 26270.4
 15 06 2013  06 53  -21.0161 26042.6 -03453.3 -07.5534 26270.6
 15 06 2013  06 54  -21.0160 26042.6 -03453.3 -07.5535 26270.6
 15 06 2013  06 55  -21.0159 26042.6 -03453.3 -07.5535 26270.5
 15 06 2013  06 56  -21.0159 26041.9 -03453.1 -07.5531 26269.8
 15 06 2013  06 57  -21.0161 26041.3 -03452.8 -07.5527 26269.2
 15 06 2013  06 58  -21.0164 26040.8 -03452.5 -07.5523 26268.7
 15 06 2013  06 59  -21.0165 26040.5 -03452.4 -07.5521 26268.4
 15 06 2013  07 00  -21.0166 26040.5 -03452.4 -07.5522 26268.4
 15 06 2013  07 01  -21.0166 26040.7 -03452.6 -07.5524 26268.6
 15 06 2013  07 02  -21.0165 26040.6 -03452.6 -07.5526 26268.5
 15 06 2013  07 03  -21.0170 26040.0 -03452.4 -07.5523 26267.9
 15 06 2013  07 04  -21.0173 26039.3 -03452.1 -07.5518 26267.2
 15 06 2013  07 05  -21.0173 26038.7 -03451.8 -07.5513 26266.5
 15 06 2013  07 06  -21.0171 26037.8 -03451.3 -07.5506 26265.6
 15 06 2013  07 07  -21.0170 26037.3 -03451.1 -07.5502 26265.0
 15 06 2013  07 08  -21.0170 26036.9 -03451.0 -07.5501 26264.7
 15 06 2013  07 09  -21.0170 26036.9 -03451.1 -07.5503 26264.6
 15 06 2013  07 10  -21.0169 26037.0 -03451.3 -07.5507 26264.7
 15 06 2013  07 11  -21.0165 26037.5 -03451.6 -07.5513 26265.3
 15 06 2013  07 12  -21.0162 26037.8 -03451.9 -07.5518 26265.6
 15 06 2013  07 13  -21.0161 26038.1 -03452.2 -07.5523 26265.9
 15 06 2013  07 14  -21.0159 26038.4 -03452.4 -07.5527 26266.2
 15 06 2013  07 15  -21.0155 26038.6 -03452.5 -07.5529 26266.5
 15 06 2013  07 16  -21.0154 26038.7 -03452.7 -07.5532 26266.6
 15 06 2013  07 17  -21.0152 26038.9 -03452.8 -07.5534 26266.8
 15 06 2013  07 18  -21.0152 26038.9 -03452.8 -07.5535 26266.8
 15 06 2013  07 19  -21.0151 26039.0 -03452.9 -07.5536 26266.9
 15 06 2013  07 20  -21.0150 26039.1 -03452.9 -07.5535 26267.0
 15 06 2013  07 21  -21.0147 26039.1 -03452.9 -07.5536 26267.1
 15 06 2013  07 22  -21.0146 26039.0 -03452.9 -07.5536 26267.0
 15 06 2013  07 23  -21.0145 26039.0 -03452.9 -07.5536 26267.0
 15 06 2013  07 24  -21.0145 26039.0 -03452.9 -07.5537 26267.0
 15 06 2013  07 25  -21.0145 26039.1 -03453.0 -07.5538 26267.0
 15 06 2013  07 26  -21.0143 26039.1 -03453.0 -07.5538 26267.1
 15 06 2013  07 27  -21.0141 26039.2 -03453.1 -07.5539 26267.2
 15 06 2013  07 28  -21.0139 26039.2 -03453.1 -07.5539 26267.2
 15 06 2013  07 29  -21.0136 26039.2 -03453.1 -07.5540 26267.2
 15 06 2013  07 30  -21.0135 26039.0 -03453.0 -07.5538 26266.9
 15 06 2013  07 31  -21.0132 26039.0 -03453.0 -07.5539 26267.0
 15 06 2013  07 32  -21.0129 26039.0 -03453.1 -07.5540 26267.0
 15 06 2013  07 33  -21.0127 26039.0 -03453.1 -07.5540 26267.0
 15 06 2013  07 34  -21.0127 26039.0 -03453.2 -07.5542 26266.9
 15 06 2013  07 35  -21.0128 26039.2 -03453.3 -07.5545 26267.1
 15 06 2013  07 36  -21.0133 26038.8 -03453.3 -07.5544 26266.8
 15 06 2013  07 37  -21.0144 26038.4 -03453.1 -07.5541 26266.3
 15 06 2013  07 38  -21.0154 26037.9 -03452.8 -07.5538 26265.8
 15 06 2013  07 39  -21.0158 26037.6 -03452.7 -07.5535 26265.5
 15 06 2013  07 40  -21.0164 26037.4 -03452.6 -07.5534 26265.3
 15 06 2013  07 41  -21.0169 26037.3 -03452.6 -07.5535 26265.2
 15 06 2013  07 42  -21.0175 26037.4 -03452.7 -07.5537 26265.3
 15 06 2013  07 43  -21.0180 26037.5 -03452.8 -07.5539 26265.5
 15 06 2013  07 44  -21.0184 26037.8 -03453.0 -07.5542 26265.7
 15 06 2013  07 45  -21.0186 26037.9 -03453.1 -07.5543 26265.9
 15 06 2013  07 46  -21.0186 26038.1 -03453.2 -07.5545 26266.1
 15 06 2013  07 47  -21.0185 26038.1 -03453.2 -07.5544 26266.0
 15 06 2013  07 48  -21.0185 26037.9 -03453.1 -07.5544 26265.9
 15 06 2013  07 49  -21.0186 26037.8 -03453.0 -07.5543 26265.7
 15 06 2013  07 50  -21.0186 26037.7 -03453.0 -07.5542 26265.6
 15 06 2013  07 51  -21.0183 26037.6 -03452.9 -07.5541 26265.5
 15 06 2013  07 52  -21.0180 26037.5 -03452.9 -07.5541 26265.5
 15 06 2013  07 53  -21.0176 26037.5 -03452.9 -07.5541 26265.4
 15 06 2013  07 54  -21.0173 26037.5 -03453.0 -07.5542 26265.5
 15 06 2013  07 55  -21.0170 26037.5 -03453.0 -07.5543 26265.5
 15 06 2013  07 56  -21.0168 26037.5 -03453.1 -07.5544 26265.5
 15 06 2013  07 57  -21.0167 26037.4 -03453.1 -07.5545 26265.4
 15 06 2013  07 58  -21.0163 26037.3 -03453.0 -07.5544 26265.3
 15 06 2013  07 59  -21.0160 26037.2 -03453.0 -07.5543 26265.2
 15 06 2013  08 00  -21.0159 26037.0 -03452.9 -07.5542 26265.0
 15 06 2013  08 01  -21.0160 26036.8 -03452.9 -07.5542 26264.7
 15 06 2013  08 02  -21.0162 26036.6 -03452.9 -07.5542 26264.6
 15 06 2013  08 03  -21.0164 26036.4 -03452.9 -07.5543 26264.4
 15 06 2013  08 04  -21.0166 26036.3 -03452.8 -07.5542 26264.3
 15 06 2013  08 05  -21.0167 26036.3 -03452.9 -07.5543 26264.2
 15 06 2013  08 06  -21.0165 26036.4 -03452.9 -07.5544 26264.3
 15 06 2013  08 07  -21.0163 26036.4 -03453.0 -07.5546 26264.4
 15 06 2013  08 08  -21.0160 26036.6 -03453.1 -07.5548 26264.6
 15 06 2013  08 09  -21.0157 26036.8 -03453.3 -07.5550 26264.8
 15 06 2013  08 10  -21.0155 26037.0 -03453.5 -07.5554 26265.1
 15 06 2013  08 11  -21.0151 26037.1 -03453.5 -07.5555 26265.1
 15 06 2013  08 12  -21.0148 26037.3 -03453.6 -07.5557 26265.3
 15 06 2013  08 13  -21.0143 26037.5 -03453.7 -07.5558 26265.6
 15 06 2013  08 14  -21.0136 26037.7 -03453.8 -07.5560 26265.8
 15 06 2013  08 15  -21.0131 26037.7 -03453.8 -07.5560 26265.8
 15 06 2013  08 16  -21.0131 26037.7 -03453.9 -07.5561 26265.8
 15 06 2013  08 17  -21.0130 26037.6 -03453.8 -07.5560 26265.7
 15 06 2013  08 18  -21.0128 26037.7 -03453.8 -07.5560 26265.7
 15 06 2013  08 19  -21.0125 26037.9 -03453.9 -07.5561 26266.0
 15 06 2013  08 20  -21.0119 26038.0 -03454.0 -07.5563 26266.1
 15 06 2013  08 21  -21.0114 26038.1 -03454.1 -07.5565 26266.2
 15 06 2013  08 22  -21.0110 26037.9 -03454.1 -07.5565 26266.0
 15 06 2013  08 23  -21.0108 26037.8 -03454.0 -07.5563 26265.9
 15 06 2013  08 24  -21.0107 26037.8 -03453.9 -07.5562 26265.8
 15 06 2013  08 25  -21.0108 26037.6 -03453.9 -07.5562 26265.7
 15 06 2013  08 26  -21.0109 26037.6 -03453.9 -07.5561 26265.6
 15 06 2013  08 27  -21.0111 26037.6 -03453.9 -07.5561 26265.7
 15 06 2013  08 28  -21.0114 26037.7 -03453.9 -07.5563 26265.8
 15 06 2013  08 29  -21.0118 26037.7 -03454.0 -07.5563 26265.8
 15 06 2013  08 30  -21.0119 26037.7 -03454.0 -07.5563 26265.8
 15 06 2013  08 31  -21.0120 26037.6 -03454.0 -07.5563 26265.7
 15 06 2013  08 32  -21.0119 26037.7 -03454.0 -07.5564 26265.8
 15 06 2013  08 33  -21.0118 26037.8 -03454.1 -07.5565 26265.9
 15 06 2013  08 34  -21.0117 26037.9 -03454.1 -07.5565 26266.0
 15 06 2013  08 35  -21.0116 26038.0 -03454.1 -07.5565 26266.1
 15 06 2013  08 36  -21.0113 26038.0 -03454.1 -07.5565 26266.1
 15 06 2013  08 37  -21.0114 26037.9 -03454.0 -07.5564 26266.0
 15 06 2013  08 38  -21.0115 26037.9 -03454.1 -07.5565 26266.0
 15 06 2013  08 39  -21.0114 26038.0 -03454.1 -07.5564 26266.0
 15 06 2013  08 40  -21.0112 26038.0 -03454.0 -07.5564 26266.1
 15 06 2013  08 41  -21.0110 26037.9 -03454.0 -07.5562 26266.0
 15 06 2013  08 42  -21.0109 26037.9 -03453.9 -07.5561 26266.0
 15 06 2013  08 43  -21.0106 26037.8 -03453.9 -07.5560 26265.9
 15 06 2013  08 44  -21.0104 26037.7 -03453.8 -07.5560 26265.7
 15 06 2013  08 45  -21.0103 26037.7 -03453.8 -07.5559 26265.8
 15 06 2013  08 46  -21.0101 26037.7 -03453.8 -07.5560 26265.8
 15 06 2013  08 47  -21.0100 26037.8 -03453.8 -07.5560 26265.9
 15 06 2013  08 48  -21.0095 26037.8 -03453.8 -07.5559 26265.8
 15 06 2013  08 49  -21.0088 26037.9 -03453.8 -07.5559 26265.9
 15 06 2013  08 50  -21.0084 26037.9 -03453.9 -07.5561 26266.0
 15 06 2013  08 51  -21.0084 26038.0 -03454.0 -07.5563 26266.1
 15 06 2013  08 52  -21.0083 26037.9 -03454.0 -07.5563 26266.0
 15 06 2013  08 53  -21.0075 26037.7 -03453.9 -07.5561 26265.8
 15 06 2013  08 54  -21.0071 26037.6 -03453.8 -07.5559 26265.7
 15 06 2013  08 55  -21.0068 26037.5 -03453.7 -07.5559 26265.6
 15 06 2013  08 56  -21.0066 26037.4 -03453.7 -07.5558 26265.5
 15 06 2013  08 57  -21.0063 26037.4 -03453.7 -07.5558 26265.4
 15 06 2013  08 58  -21.0060 26037.3 -03453.7 -07.5558 26265.3
 15 06 2013  08 59  -21.0058 26037.2 -03453.7 -07.5558 26265.2
 15 06 2013  09 00  -21.0054 26037.0 -03453.7 -07.5558 26265.1
 15 06 2013  09 01  -21.0047 26036.9 -03453.6 -07.5558 26265.0
 15 06 2013  09 02  -21.0043 26036.9 -03453.7 -07.5559 26265.0
 15 06 2013  09 03  -21.0040 26037.0 -03453.8 -07.5562 26265.0
 15 06 2013  09 04  -21.0035 26036.9 -03453.9 -07.5563 26265.0
 15 06 2013  09 05  -21.0030 26036.8 -03453.9 -07.5564 26264.9
 15 06 2013  09 06  -21.0024 26036.8 -03454.0 -07.5566 26264.9
 15 06 2013  09 07  -21.0016 26036.7 -03454.0 -07.5565 26264.8
 15 06 2013  09 08  -21.0007 26036.8 -03454.0 -07.5567 26264.9
 15 06 2013  09 09  -21.0001 26036.7 -03454.1 -07.5568 26264.9
 15 06 2013  09 10  -20.9996 26036.6 -03454.1 -07.5569 26264.7
 15 06 2013  09 11  -20.9986 26036.5 -03454.1 -07.5569 26264.6
 15 06 2013  09 12  -20.9979 26036.3 -03454.1 -07.5570 26264.5
 15 06 2013  09 13  -20.9973 26036.2 -03454.2 -07.5573 26264.3
 15 06 2013  09 14  -20.9970 26036.0 -03454.3 -07.5575 26264.2
 15 06 2013  09 15  -20.9964 26036.0 -03454.5 -07.5579 26264.1
 15 06 2013  09 16  -20.9956 26035.9 -03454.6 -07.5583 26264.1
 15 06 2013  09 17  -20.9951 26035.8 -03454.8 -07.5586 26264.0
 15 06 2013  09 18  -20.9950 26035.7 -03455.0 -07.5591 26264.0
 15 06 2013  09 19  -20.9947 26035.7 -03455.1 -07.5594 26263.9
 15 06 2013  09 20  -20.9941 26035.7 -03455.4 -07.5599 26264.0
 15 06 2013  09 21  -20.9934 26035.7 -03455.5 -07.5603 26264.0
 15 06 2013  09 22  -20.9929 26035.7 -03455.7 -07.5607 26264.0
 15 06 2013  09 23  -20.9925 26035.6 -03455.9 -07.5611 26264.0
 15 06 2013  09 24  -20.9923 26035.6 -03456.1 -07.5616 26264.0
 15 06 2013  09 25  -20.9920 26035.5 -03456.3 -07.5620 26263.9
 15 06 2013  09 26  -20.9918 26035.4 -03456.5 -07.5623 26263.9
 15 06 2013  09 27  -20.9913 26035.3 -03456.6 -07.5627 26263.8
 15 06 2013  09 28  -20.9908 26035.2 -03456.7 -07.5629 26263.6
 15 06 2013  09 29  -20.9902 26035.1 -03456.8 -07.5632 26263.6
 15 06 2013  09 30  -20.9898 26035.1 -03456.9 -07.5635 26263.6
 15 06 2013  09 31  -20.9896 26035.1 -03457.2 -07.5639 26263.6
 15 06 2013  09 32  -20.9893 26035.1 -03457.3 -07.5644 26263.7
 15 06 2013  09 33  -20.9888 26035.3 -03457.6 -07.5649 26263.9
 15 06 2013  09 34  -20.9885 26035.4 -03457.8 -07.5653 26264.0
 15 06 2013  09 35  -20.9883 26035.5 -03458.1 -07.5659 26264.2
 15 06 2013  09 36  -20.9880 26035.7 -03458.3 -07.5663 26264.4
 15 06 2013  09 37  -20.9877 26035.8 -03458.6 -07.5668 26264.5
 15 06 2013  09 38  -20.9872 26035.9 -03458.8 -07.5672 26264.6
 15 06 2013  09 39  -20.9873 26035.9 -03458.9 -07.5675 26264.6
 15 06 2013  09 40  -20.9871 26035.8 -03459.0 -07.5678 26264.6
 15 06 2013  09 41  -20.9867 26035.8 -03459.1 -07.5680 26264.6
 15 06 2013  09 42  -20.9864 26035.9 -03459.3 -07.5683 26264.7
 15 06 2013  09 43  -20.9863 26035.9 -03459.4 -07.5686 26264.8
 15 06 2013  09 44  -20.9863 26036.0 -03459.6 -07.5689 26264.9
 15 06 2013  09 45  -20.9863 26036.1 -03459.8 -07.5693 26264.9
 15 06 2013  09 46  -20.9860 26036.1 -03459.9 -07.5697 26265.0
 15 06 2013  09 47  -20.9855 26036.1 -03460.1 -07.5700 26265.0
 15 06 2013  09 48  -20.9853 26036.1 -03460.2 -07.5703 26265.0
 15 06 2013  09 49  -20.9850 26036.1 -03460.4 -07.5707 26265.0
 15 06 2013  09 50  -20.9847 26036.1 -03460.5 -07.5709 26265.0
 15 06 2013  09 51  -20.9845 26036.0 -03460.6 -07.5712 26265.0
 15 06 2013  09 52  -20.9844 26035.9 -03460.7 -07.5714 26264.9
 15 06 2013  09 53  -20.9841 26035.9 -03460.8 -07.5716 26264.9
 15 06 2013  09 54  -20.9837 26035.9 -03460.9 -07.5719 26264.9
 15 06 2013  09 55  -20.9834 26035.8 -03461.0 -07.5721 26264.8
 15 06 2013  09 56  -20.9832 26035.9 -03461.2 -07.5724 26264.9
 15 06 2013  09 57  -20.9829 26035.9 -03461.3 -07.5727 26265.0
 15 06 2013  09 58  -20.9827 26036.0 -03461.5 -07.5730 26265.1
 15 06 2013  09 59  -20.9827 26036.1 -03461.6 -07.5733 26265.2
 15 06 2013  10 00  -20.9828 26036.2 -03461.8 -07.5736 26265.3
 15 06 2013  10 01  -20.9829 26036.2 -03461.9 -07.5739 26265.4
 15 06 2013  10 02  -20.9830 26036.3 -03462.0 -07.5741 26265.4
 15 06 2013  10 03  -20.9827 26036.4 -03462.2 -07.5744 26265.6
 15 06 2013  10 04  -20.9825 26036.6 -03462.3 -07.5747 26265.8
 15 06 2013  10 05  -20.9822 26036.9 -03462.5 -07.5750 26266.1
 15 06 2013  10 06  -20.9818 26037.2 -03462.7 -07.5753 26266.4
 15 06 2013  10 07  -20.9818 26037.4 -03462.9 -07.5756 26266.7
 15 06 2013  10 08  -20.9818 26037.6 -03463.0 -07.5759 26266.9
 15 06 2013  10 09  -20.9815 26037.9 -03463.1 -07.5761 26267.2
 15 06 2013  10 10  -20.9811 26038.2 -03463.3 -07.5763 26267.5
 15 06 2013  10 11  -20.9814 26038.4 -03463.4 -07.5765 26267.7
 15 06 2013  10 12  -20.9813 26038.5 -03463.4 -07.5765 26267.9
 15 06 2013  10 13  -20.9813 26038.7 -03463.5 -07.5766 26268.0
 15 06 2013  10 14  -20.9815 26038.9 -03463.6 -07.5768 26268.3
 15 06 2013  10 15  -20.9817 26039.3 -03463.8 -07.5772 26268.7
 15 06 2013  10 16  -20.9818 26039.6 -03464.0 -07.5774 26269.0
 15 06 2013  10 17  -20.9820 26039.7 -03464.1 -07.5776 26269.1
 15 06 2013  10 18  -20.9822 26039.7 -03464.2 -07.5779 26269.1
 15 06 2013  10 19  -20.9825 26039.7 -03464.3 -07.5780 26269.1
 15 06 2013  10 20  -20.9829 26039.8 -03464.3 -07.5781 26269.2
 15 06 2013  10 21  -20.9829 26039.9 -03464.4 -07.5782 26269.3
 15 06 2013  10 22  -20.9828 26039.9 -03464.4 -07.5783 26269.3
 15 06 2013  10 23  -20.9829 26039.7 -03464.4 -07.5783 26269.2
 15 06 2013  10 24  -20.9836 26039.7 -03464.4 -07.5783 26269.2
 15 06 2013  10 25  -20.9841 26039.7 -03464.5 -07.5785 26269.2
 15 06 2013  10 26  -20.9844 26039.7 -03464.6 -07.5786 26269.2
 15 06 2013  10 27  -20.9847 26039.8 -03464.7 -07.5788 26269.2
 15 06 2013  10 28  -20.9851 26039.8 -03464.7 -07.5790 26269.3
 15 06 2013  10 29  -20.9854 26039.9 -03464.9 -07.5793 26269.4
 15 06 2013  10 30  -20.9856 26039.9 -03465.0 -07.5795 26269.5
 15 06 2013  10 31  -20.9859 26040.0 -03465.1 -07.5797 26269.5
 15 06 2013  10 32  -20.9862 26040.1 -03465.2 -07.5800 26269.7
 15 06 2013  10 33  -20.9866 26040.2 -03465.4 -07.5802 26269.8
 15 06 2013  10 34  -20.9873 26040.3 -03465.4 -07.5803 26269.9
 15 06 2013  10 35  -20.9876 26040.3 -03465.5 -07.5805 26269.9
 15 06 2013  10 36  -20.9878 26040.3 -03465.6 -07.5806 26269.9
 15 06 2013  10 37  -20.9881 26040.2 -03465.6 -07.5807 26269.8
 15 06 2013  10 38  -20.9883 26040.2 -03465.7 -07.5809 26269.8
 15 06 2013  10 39  -20.9883 26040.3 -03465.8 -07.5810 26269.9
 15 06 2013  10 40  -20.9883 26040.5 -03465.9 -07.5813 26270.1
 15 06 2013  10 41  -20.9886 26040.5 -03465.9 -07.5814 26270.2
 15 06 2013  10 42  -20.9891 26040.5 -03466.0 -07.5815 26270.2
 15 06 2013  10 43  -20.9894 26040.4 -03466.0 -07.5815 26270.1
 15 06 2013  10 44  -20.9900 26040.3 -03466.0 -07.5816 26270.0
 15 06 2013  10 45  -20.9901 26040.2 -03466.0 -07.5817 26269.9
 15 06 2013  10 46  -20.9903 26040.1 -03466.1 -07.5818 26269.8
 15 06 2013  10 47  -20.9907 26040.0 -03466.1 -07.5819 26269.7
 15 06 2013  10 48  -20.9908 26040.1 -03466.2 -07.5820 26269.8
 15 06 2013  10 49  -20.9909 26040.2 -03466.3 -07.5822 26269.9
 15 06 2013  10 50  -20.9911 26040.4 -03466.4 -07.5823 26270.1
 15 06 2013  10 51  -20.9911 26040.6 -03466.4 -07.5824 26270.3
 15 06 2013  10 52  -20.9913 26040.7 -03466.4 -07.5824 26270.4
 15 06 2013  10 53  -20.9915 26040.8 -03466.4 -07.5824 26270.5
 15 06 2013  10 54  -20.9918 26041.0 -03466.4 -07.5823 26270.7
 15 06 2013  10 55  -20.9919 26041.1 -03466.5 -07.5823 26270.8
 15 06 2013  10 56  -20.9921 26041.2 -03466.5 -07.5823 26270.9
 15 06 2013  10 57  -20.9923 26041.5 -03466.5 -07.5823 26271.2
 15 06 2013  10 58  -20.9926 26041.8 -03466.5 -07.5823 26271.5
 15 06 2013  10 59  -20.9929 26042.0 -03466.5 -07.5822 26271.7
 15 06 2013  11 00  -20.9930 26042.2 -03466.5 -07.5822 26271.9
 15 06 2013  11 01  -20.9931 26042.4 -03466.5 -07.5821 26272.1
 15 06 2013  11 02  -20.9931 26042.6 -03466.5 -07.5820 26272.3
 15 06 2013  11 03  -20.9931 26042.9 -03466.5 -07.5820 26272.6
 15 06 2013  11 04  -20.9935 26043.1 -03466.5 -07.5818 26272.8
 15 06 2013  11 05  -20.9940 26043.3 -03466.5 -07.5818 26273.0
 15 06 2013  11 06  -20.9942 26043.6 -03466.5 -07.5817 26273.3
 15 06 2013  11 07  -20.9944 26043.8 -03466.5 -07.5816 26273.5
 15 06 2013  11 08  -20.9943 26044.0 -03466.4 -07.5814 26273.7
 15 06 2013  11 09  -20.9942 26044.2 -03466.4 -07.5812 26273.9
 15 06 2013  11 10  -20.9940 26044.4 -03466.3 -07.5810 26274.1
 15 06 2013  11 11  -20.9940 26044.6 -03466.2 -07.5808 26274.3
 15 06 2013  11 12  -20.9939 26045.0 -03466.2 -07.5807 26274.7
 15 06 2013  11 13  -20.9941 26045.4 -03466.2 -07.5805 26275.0
 15 06 2013  11 14  -20.9943 26045.7 -03466.1 -07.5803 26275.3
 15 06 2013  11 15  -20.9944 26046.0 -03466.1 -07.5801 26275.6
 15 06 2013  11 16  -20.9944 26046.3 -03466.0 -07.5798 26275.9
 15 06 2013  11 17  -20.9947 26046.5 -03465.9 -07.5795 26276.0
 15 06 2013  11 18  -20.9949 26046.7 -03465.8 -07.5793 26276.3
 15 06 2013  11 19  -20.9950 26046.9 -03465.7 -07.5791 26276.5
 15 06 2013  11 20  -20.9953 26047.2 -03465.7 -07.5789 26276.7
 15 06 2013  11 21  -20.9956 26047.5 -03465.6 -07.5787 26277.0
 15 06 2013  11 22  -20.9958 26047.9 -03465.6 -07.5786 26277.4
 15 06 2013  11 23  -20.9961 26048.3 -03465.6 -07.5784 26277.8
 15 06 2013  11 24  -20.9964 26048.7 -03465.6 -07.5784 26278.2
 15 06 2013  11 25  -20.9966 26049.0 -03465.6 -07.5781 26278.5
 15 06 2013  11 26  -20.9967 26049.3 -03465.5 -07.5778 26278.8
 15 06 2013  11 27  -20.9968 26049.6 -03465.4 -07.5776 26279.1
 15 06 2013  11 28  -20.9970 26050.0 -03465.3 -07.5774 26279.4
 15 06 2013  11 29  -20.9973 26050.2 -03465.3 -07.5771 26279.7
 15 06 2013  11 30  -20.9978 26050.5 -03465.2 -07.5769 26280.0
 15 06 2013  11 31  -20.9983 26050.8 -03465.2 -07.5768 26280.2
 15 06 2013  11 32  -20.9988 26051.1 -03465.1 -07.5766 26280.6
 15 06 2013  11 33  -20.9995 26051.3 -03465.0 -07.5763 26280.7
 15 06 2013  11 34  -20.9998 26051.5 -03465.0 -07.5762 26281.0
 15 06 2013  11 35  -21.0004 26051.7 -03464.9 -07.5760 26281.1
 15 06 2013  11 36  -21.0007 26052.0 -03464.8 -07.5757 26281.4
 15 06 2013  11 37  -21.0010 26052.2 -03464.8 -07.5754 26281.6
 15 06 2013  11 38  -21.0015 26052.3 -03464.6 -07.5752 26281.6
 15 06 2013  11 39  -21.0018 26052.3 -03464.5 -07.5750 26281.7
 15 06 2013  11 40  -21.0023 26052.4 -03464.5 -07.5748 26281.8
 15 06 2013  11 41  -21.0026 26052.5 -03464.4 -07.5747 26281.8
 15 06 2013  11 42  -21.0029 26052.7 -03464.5 -07.5747 26282.1
 15 06 2013  11 43  -21.0034 26052.9 -03464.5 -07.5746 26282.3
 15 06 2013  11 44  -21.0038 26053.1 -03464.5 -07.5747 26282.4
 15 06 2013  11 45  -21.0043 26053.2 -03464.5 -07.5746 26282.6
 15 06 2013  11 46  -21.0048 26053.2 -03464.4 -07.5744 26282.6
 15 06 2013  11 47  -21.0053 26053.4 -03464.4 -07.5744 26282.7
 15 06 2013  11 48  -21.0056 26053.7 -03464.4 -07.5743 26283.0
 15 06 2013  11 49  -21.0057 26054.1 -03464.5 -07.5743 26283.5
 15 06 2013  11 50  -21.0059 26054.7 -03464.5 -07.5742 26284.1
 15 06 2013  11 51  -21.0062 26055.3 -03464.5 -07.5740 26284.6
 15 06 2013  11 52  -21.0066 26055.7 -03464.4 -07.5738 26285.0
 15 06 2013  11 53  -21.0070 26056.1 -03464.4 -07.5735 26285.4
 15 06 2013  11 54  -21.0072 26056.5 -03464.2 -07.5731 26285.8
 15 06 2013  11 55  -21.0074 26056.9 -03464.1 -07.5728 26286.1
 15 06 2013  11 56  -21.0078 26057.2 -03464.0 -07.5724 26286.4
 15 06 2013  11 57  -21.0080 26057.5 -03463.9 -07.5720 26286.7
 15 06 2013  11 58  -21.0084 26057.8 -03463.7 -07.5717 26287.0
 15 06 2013  11 59  -21.0086 26058.3 -03463.6 -07.5713 26287.4
 15 06 2013  12 00  -21.0089 26058.6 -03463.5 -07.5708 26287.8
 15 06 2013  12 01  -21.0091 26059.1 -03463.3 -07.5704 26288.2
 15 06 2013  12 02  -21.0093 26059.5 -03463.3 -07.5701 26288.7
 15 06 2013  12 03  -21.0095 26060.0 -03463.1 -07.5697 26289.1
 15 06 2013  12 04  -21.0098 26060.5 -03463.0 -07.5693 26289.6
 15 06 2013  12 05  -21.0102 26060.9 -03462.9 -07.5689 26290.0
 15 06 2013  12 06  -21.0106 26061.4 -03462.8 -07.5685 26290.4
 15 06 2013  12 07  -21.0109 26061.8 -03462.6 -07.5680 26290.8
 15 06 2013  12 08  -21.0112 26062.2 -03462.4 -07.5676 26291.2
 15 06 2013  12 09  -21.0115 26062.6 -03462.3 -07.5671 26291.6
 15 06 2013  12 10  -21.0117 26062.8 -03462.1 -07.5667 26291.8
 15 06 2013  12 11  -21.0119 26063.1 -03461.9 -07.5662 26292.0
 15 06 2013  12 12  -21.0122 26063.3 -03461.8 -07.5658 26292.2
 15 06 2013  12 13  -21.0125 26063.7 -03461.6 -07.5655 26292.5
 15 06 2013  12 14  -21.0129 26063.9 -03461.5 -07.5651 26292.8
 15 06 2013  12 15  -21.0132 26064.3 -03461.4 -07.5648 26293.1
 15 06 2013  12 16  -21.0136 26064.6 -03461.4 -07.5646 26293.4
 15 06 2013  12 17  -21.0140 26064.9 -03461.3 -07.5643 26293.7
 15 06 2013  12 18  -21.0145 26065.0 -03461.1 -07.5640 26293.8
 15 06 2013  12 19  -21.0149 26065.1 -03461.0 -07.5637 26293.9
 15 06 2013  12 20  -21.0154 26065.4 -03461.0 -07.5636 26294.2
 15 06 2013  12 21  -21.0159 26065.7 -03460.9 -07.5634 26294.4
 15 06 2013  12 22  -21.0165 26065.9 -03460.9 -07.5631 26294.7
 15 06 2013  12 23  -21.0169 26066.4 -03460.8 -07.5629 26295.1
 15 06 2013  12 24  -21.0176 26066.8 -03460.8 -07.5628 26295.6
 15 06 2013  12 25  -21.0182 26067.1 -03460.7 -07.5625 26295.8
 15 06 2013  12 26  -21.0188 26067.3 -03460.6 -07.5622 26296.0
 15 06 2013  12 27  -21.0194 26067.5 -03460.5 -07.5619 26296.2
 15 06 2013  12 28  -21.0200 26067.7 -03460.4 -07.5616 26296.4
 15 06 2013  12 29  -21.0204 26067.8 -03460.2 -07.5612 26296.4
 15 06 2013  12 30  -21.0211 26067.9 -03460.1 -07.5610 26296.6
 15 06 2013  12 31  -21.0217 26068.2 -03460.1 -07.5607 26296.8
 15 06 2013  12 32  -21.0223 26068.4 -03459.9 -07.5604 26297.0
 15 06 2013  12 33  -21.0229 26068.6 -03459.8 -07.5601 26297.2
 15 06 2013  12 34  -21.0233 26068.7 -03459.7 -07.5597 26297.3
 15 06 2013  12 35  -21.0238 26068.9 -03459.6 -07.5595 26297.4
 15 06 2013  12 36  -21.0245 26069.3 -03459.6 -07.5594 26297.9
 15 06 2013  12 37  -21.0252 26069.7 -03459.5 -07.5590 26298.3
 15 06 2013  12 38  -21.0260 26069.9 -03459.4 -07.5588 26298.5
 15 06 2013  12 39  -21.0266 26070.3 -03459.3 -07.5585 26298.8
 15 06 2013  12 40  -21.0270 26070.7 -03459.2 -07.5582 26299.2
 15 06 2013  12 41  -21.0274 26071.0 -03459.2 -07.5580 26299.5
 15 06 2013  12 42  -21.0279 26071.4 -03459.1 -07.5577 26299.9
 15 06 2013  12 43  -21.0286 26071.6 -03458.9 -07.5573 26300.1
 15 06 2013  12 44  -21.0294 26071.7 -03458.8 -07.5570 26300.2
 15 06 2013  12 45  -21.0302 26071.9 -03458.7 -07.5567 26300.3
 15 06 2013  12 46  -21.0310 26072.0 -03458.6 -07.5564 26300.4
 15 06 2013  12 47  -21.0317 26072.4 -03458.5 -07.5562 26300.7
 15 06 2013  12 48  -21.0325 26072.6 -03458.4 -07.5559 26301.0
 15 06 2013  12 49  -21.0332 26072.8 -03458.3 -07.5556 26301.1
 15 06 2013  12 50  -21.0338 26072.9 -03458.2 -07.5553 26301.2
 15 06 2013  12 51  -21.0345 26072.9 -03458.0 -07.5550 26301.2
 15 06 2013  12 52  -21.0351 26073.1 -03457.9 -07.5547 26301.4
 15 06 2013  12 53  -21.0358 26073.4 -03457.9 -07.5546 26301.7
 15 06 2013  12 54  -21.0365 26073.7 -03457.9 -07.5544 26302.0
 15 06 2013  12 55  -21.0372 26073.9 -03457.8 -07.5542 26302.2
 15 06 2013  12 56  -21.0380 26074.1 -03457.7 -07.5539 26302.3
 15 06 2013  12 57  -21.0388 26074.4 -03457.7 -07.5538 26302.6
 15 06 2013  12 58  -21.0394 26074.7 -03457.6 -07.5535 26302.9
 15 06 2013  12 59  -21.0401 26074.9 -03457.5 -07.5533 26303.2
 15 06 2013  13 00  -21.0407 26075.1 -03457.4 -07.5529 26303.3
 15 06 2013  13 01  -21.0413 26075.4 -03457.3 -07.5527 26303.6
 15 06 2013  13 02  -21.0419 26075.7 -03457.2 -07.5525 26303.9
 15 06 2013  13 03  -21.0425 26076.0 -03457.1 -07.5522 26304.1
 15 06 2013  13 04  -21.0433 26076.3 -03457.1 -07.5519 26304.4
 15 06 2013  13 05  -21.0440 26076.7 -03457.0 -07.5516 26304.8
 15 06 2013  13 06  -21.0446 26077.1 -03456.9 -07.5514 26305.2
 15 06 2013  13 07  -21.0453 26077.4 -03456.8 -07.5511 26305.5
 15 06 2013  13 08  -21.0459 26077.6 -03456.6 -07.5506 26305.7
 15 06 2013  13 09  -21.0464 26077.7 -03456.5 -07.5502 26305.8
 15 06 2013  13 10  -21.0467 26077.9 -03456.3 -07.5498 26305.9
 15 06 2013  13 11  -21.0471 26078.0 -03456.2 -07.5495 26306.0
 15 06 2013  13 12  -21.0477 26078.1 -03456.0 -07.5491 26306.1
 15 06 2013  13 13  -21.0482 26078.3 -03455.9 -07.5489 26306.3
 15 06 2013  13 14  -21.0486 26078.4 -03455.8 -07.5486 26306.4
 15 06 2013  13 15  -21.0489 26078.5 -03455.6 -07.5482 26306.4
 15 06 2013  13 16  -21.0496 26078.5 -03455.5 -07.5480 26306.5
 15 06 2013  13 17  -21.0502 26078.7 -03455.4 -07.5477 26306.6
 15 06 2013  13 18  -21.0508 26078.9 -03455.3 -07.5473 26306.8
 15 06 2013  13 19  -21.0512 26079.1 -03455.2 -07.5471 26307.0
 15 06 2013  13 20  -21.0516 26079.4 -03455.1 -07.5468 26307.3
 15 06 2013  13 21  -21.0521 26079.5 -03455.0 -07.5465 26307.4
 15 06 2013  13 22  -21.0525 26079.5 -03454.7 -07.5460 26307.3
 15 06 2013  13 23  -21.0531 26079.6 -03454.6 -07.5457 26307.4
 15 06 2013  13 24  -21.0537 26079.7 -03454.5 -07.5454 26307.5
 15 06 2013  13 25  -21.0544 26080.0 -03454.4 -07.5452 26307.7
 15 06 2013  13 26  -21.0551 26080.1 -03454.2 -07.5447 26307.8
 15 06 2013  13 27  -21.0556 26080.3 -03454.1 -07.5443 26308.1
 15 06 2013  13 28  -21.0562 26080.5 -03453.9 -07.5439 26308.3
 15 06 2013  13 29  -21.0567 26080.6 -03453.7 -07.5434 26308.3
 15 06 2013  13 30  -21.0572 26080.7 -03453.5 -07.5430 26308.3
 15 06 2013  13 31  -21.0578 26080.9 -03453.3 -07.5426 26308.5
 15 06 2013  13 32  -21.0586 26081.0 -03453.2 -07.5422 26308.6
 15 06 2013  13 33  -21.0592 26081.1 -03452.9 -07.5416 26308.7
 15 06 2013  13 34  -21.0598 26081.2 -03452.7 -07.5411 26308.8
 15 06 2013  13 35  -21.0603 26081.4 -03452.5 -07.5406 26308.9
 15 06 2013  13 36  -21.0606 26081.4 -03452.2 -07.5400 26308.9
 15 06 2013  13 37  -21.0609 26081.4 -03452.0 -07.5395 26308.8
 15 06 2013  13 38  -21.0614 26081.3 -03451.8 -07.5391 26308.8
 15 06 2013  13 39  -21.0618 26081.4 -03451.6 -07.5387 26308.8
 15 06 2013  13 40  -21.0621 26081.4 -03451.4 -07.5383 26308.8
 15 06 2013  13 41  -21.0626 26081.5 -03451.2 -07.5378 26308.8
 15 06 2013  13 42  -21.0631 26081.4 -03451.0 -07.5374 26308.7
 15 06 2013  13 43  -21.0636 26081.4 -03450.8 -07.5369 26308.6
 15 06 2013  13 44  -21.0642 26081.6 -03450.6 -07.5365 26308.8
 15 06 2013  13 45  -21.0648 26081.6 -03450.4 -07.5360 26308.9
 15 06 2013  13 46  -21.0653 26081.5 -03450.1 -07.5354 26308.7
 15 06 2013  13 47  -21.0656 26081.7 -03449.9 -07.5349 26308.9
 15 06 2013  13 48  -21.0660 26081.8 -03449.7 -07.5345 26308.9
 15 06 2013  13 49  -21.0661 26081.9 -03449.5 -07.5340 26309.0
 15 06 2013  13 50  -21.0664 26082.1 -03449.4 -07.5337 26309.2
 15 06 2013  13 51  -21.0666 26082.2 -03449.3 -07.5335 26309.3
 15 06 2013  13 52  -21.0667 26082.5 -03449.2 -07.5332 26309.6
 15 06 2013  13 53  -21.0669 26082.5 -03449.1 -07.5329 26309.6
 15 06 2013  13 54  -21.0670 26082.5 -03448.9 -07.5326 26309.6
 15 06 2013  13 55  -21.0672 26082.7 -03448.8 -07.5323 26309.7
 15 06 2013  13 56  -21.0674 26082.9 -03448.7 -07.5321 26309.9
 15 06 2013  13 57  -21.0678 26083.1 -03448.6 -07.5317 26310.1
 15 06 2013  13 58  -21.0680 26083.4 -03448.5 -07.5314 26310.4
 15 06 2013  13 59  -21.0682 26083.6 -03448.3 -07.5309 26310.5
 15 06 2013  14 00  -21.0683 26083.7 -03448.1 -07.5304 26310.6
 15 06 2013  14 01  -21.0684 26083.8 -03447.9 -07.5300 26310.7
 15 06 2013  14 02  -21.0684 26083.9 -03447.7 -07.5295 26310.7
 15 06 2013  14 03  -21.0685 26084.0 -03447.5 -07.5291 26310.8
 15 06 2013  14 04  -21.0684 26084.5 -03447.5 -07.5289 26311.3
 15 06 2013  14 05  -21.0685 26084.7 -03447.3 -07.5285 26311.6
 15 06 2013  14 06  -21.0687 26085.1 -03447.2 -07.5281 26311.9
 15 06 2013  14 07  -21.0688 26085.3 -03447.0 -07.5276 26312.0
 15 06 2013  14 08  -21.0689 26085.6 -03446.8 -07.5271 26312.3
 15 06 2013  14 09  -21.0692 26085.7 -03446.6 -07.5267 26312.4
 15 06 2013  14 10  -21.0690 26085.8 -03446.3 -07.5260 26312.5
 15 06 2013  14 11  -21.0691 26086.0 -03446.1 -07.5255 26312.6
 15 06 2013  14 12  -21.0693 26086.0 -03445.8 -07.5249 26312.6
 15 06 2013  14 13  -21.0694 26086.1 -03445.6 -07.5243 26312.7
 15 06 2013  14 14  -21.0698 26086.4 -03445.4 -07.5239 26312.9
 15 06 2013  14 15  -21.0698 26086.1 -03445.0 -07.5231 26312.6
 15 06 2013  14 16  -21.0697 26086.0 -03444.7 -07.5225 26312.5
 15 06 2013  14 17  -21.0697 26086.0 -03444.5 -07.5220 26312.4
 15 06 2013  14 18  -21.0696 26085.7 -03444.2 -07.5214 26312.1
 15 06 2013  14 19  -21.0694 26085.4 -03443.9 -07.5209 26311.8
 15 06 2013  14 20  -21.0693 26085.2 -03443.7 -07.5205 26311.5
 15 06 2013  14 21  -21.0691 26085.0 -03443.5 -07.5202 26311.3
 15 06 2013  14 22  -21.0691 26085.1 -03443.5 -07.5201 26311.4
 15 06 2013  14 23  -21.0692 26085.2 -03443.5 -07.5201 26311.5
 15 06 2013  14 24  -21.0688 26085.1 -03443.4 -07.5200 26311.4
 15 06 2013  14 25  -21.0685 26085.2 -03443.5 -07.5201 26311.5
 15 06 2013  14 26  -21.0683 26085.3 -03443.5 -07.5201 26311.6
 15 06 2013  14 27  -21.0681 26085.4 -03443.6 -07.5202 26311.7
 15 06 2013  14 28  -21.0678 26085.3 -03443.5 -07.5201 26311.7
 15 06 2013  14 29  -21.0677 26085.6 -03443.6 -07.5201 26312.0
 15 06 2013  14 30  -21.0677 26085.8 -03443.6 -07.5201 26312.1
 15 06 2013  14 31  -21.0673 26085.6 -03443.5 -07.5199 26311.9
 15 06 2013  14 32  -21.0672 26085.6 -03443.4 -07.5197 26311.8
 15 06 2013  14 33  -21.0668 26085.6 -03443.3 -07.5196 26311.9
 15 06 2013  14 34  -21.0667 26085.6 -03443.3 -07.5195 26311.9
 15 06 2013  14 35  -21.0665 26085.5 -03443.2 -07.5194 26311.8
 15 06 2013  14 36  -21.0662 26085.5 -03443.1 -07.5192 26311.7
 15 06 2013  14 37  -21.0658 26085.5 -03443.0 -07.5190 26311.7
 15 06 2013  14 38  -21.0655 26085.3 -03442.9 -07.5189 26311.5
 15 06 2013  14 39  -21.0653 26085.2 -03442.9 -07.5187 26311.4
 15 06 2013  14 40  -21.0650 26085.0 -03442.8 -07.5186 26311.2
 15 06 2013  14 41  -21.0648 26084.8 -03442.7 -07.5186 26311.0
 15 06 2013  14 42  -21.0647 26084.8 -03442.7 -07.5186 26311.0
 15 06 2013  14 43  -21.0646 26084.7 -03442.7 -07.5186 26310.9
 15 06 2013  14 44  -21.0646 26084.6 -03442.7 -07.5185 26310.8
 15 06 2013  14 45  -21.0644 26084.6 -03442.6 -07.5183 26310.8
 15 06 2013  14 46  -21.0641 26084.4 -03442.5 -07.5181 26310.6
 15 06 2013  14 47  -21.0638 26084.2 -03442.4 -07.5180 26310.4
 15 06 2013  14 48  -21.0636 26084.1 -03442.4 -07.5180 26310.3
 15 06 2013  14 49  -21.0635 26084.0 -03442.3 -07.5179 26310.2
 15 06 2013  14 50  -21.0633 26083.9 -03442.3 -07.5179 26310.1
 15 06 2013  14 51  -21.0631 26083.8 -03442.2 -07.5178 26309.9
 15 06 2013  14 52  -21.0629 26083.6 -03442.2 -07.5177 26309.8
 15 06 2013  14 53  -21.0629 26083.7 -03442.2 -07.5177 26309.8
 15 06 2013  14 54  -21.0629 26083.7 -03442.2 -07.5177 26309.8
 15 06 2013  14 55  -21.0629 26083.5 -03442.0 -07.5174 26309.6
 15 06 2013  14 56  -21.0626 26082.9 -03441.8 -07.5170 26309.0
 15 06 2013  14 57  -21.0625 26082.5 -03441.6 -07.5169 26308.6
 15 06 2013  14 58  -21.0626 26082.2 -03441.6 -07.5169 26308.3
 15 06 2013  14 59  -21.0629 26081.9 -03441.6 -07.5168 26308.0
 15 06 2013  15 00  -21.0631 26081.7 -03441.5 -07.5168 26307.8
 15 06 2013  15 01  -21.0633 26081.5 -03441.4 -07.5167 26307.5
 15 06 2013  15 02  -21.0637 26081.2 -03441.4 -07.5167 26307.2
 15 06 2013  15 03  -21.0638 26081.0 -03441.4 -07.5167 26307.1
 15 06 2013  15 04  -21.0643 26080.8 -03441.3 -07.5166 26306.8
 15 06 2013  15 05  -21.0645 26080.5 -03441.2 -07.5165 26306.6
 15 06 2013  15 06  -21.0648 26080.5 -03441.2 -07.5165 26306.5
 15 06 2013  15 07  -21.0651 26080.3 -03441.1 -07.5164 26306.4
 15 06 2013  15 08  -21.0654 26080.4 -03441.1 -07.5163 26306.4
 15 06 2013  15 09  -21.0658 26080.3 -03441.1 -07.5162 26306.4
 15 06 2013  15 10  -21.0660 26080.2 -03440.9 -07.5159 26306.2
 15 06 2013  15 11  -21.0662 26080.0 -03440.8 -07.5157 26305.9
 15 06 2013  15 12  -21.0663 26079.8 -03440.6 -07.5155 26305.7
 15 06 2013  15 13  -21.0664 26079.3 -03440.5 -07.5152 26305.3
 15 06 2013  15 14  -21.0665 26079.0 -03440.3 -07.5150 26304.9
 15 06 2013  15 15  -21.0665 26078.6 -03440.2 -07.5149 26304.5
 15 06 2013  15 16  -21.0666 26078.3 -03440.2 -07.5148 26304.3
 15 06 2013  15 17  -21.0667 26078.1 -03440.1 -07.5148 26304.1
 15 06 2013  15 18  -21.0669 26078.2 -03440.2 -07.5149 26304.1
 15 06 2013  15 19  -21.0671 26078.2 -03440.3 -07.5151 26304.2
 15 06 2013  15 20  -21.0675 26078.6 -03440.4 -07.5152 26304.6
 15 06 2013  15 21  -21.0677 26078.8 -03440.4 -07.5152 26304.8
 15 06 2013  15 22  -21.0677 26079.0 -03440.3 -07.5150 26304.9
 15 06 2013  15 23  -21.0677 26079.2 -03440.3 -07.5149 26305.2
 15 06 2013  15 24  -21.0679 26079.7 -03440.3 -07.5148 26305.6
 15 06 2013  15 25  -21.0680 26080.1 -03440.2 -07.5145 26306.0
 15 06 2013  15 26  -21.0678 26080.2 -03440.0 -07.5140 26306.1
 15 06 2013  15 27  -21.0676 26080.3 -03439.8 -07.5135 26306.1
 15 06 2013  15 28  -21.0674 26080.2 -03439.5 -07.5130 26306.1
 15 06 2013  15 29  -21.0671 26080.0 -03439.3 -07.5124 26305.8
 15 06 2013  15 30  -21.0668 26079.7 -03439.0 -07.5119 26305.5
 15 06 2013  15 31  -21.0664 26079.4 -03438.7 -07.5115 26305.1
 15 06 2013  15 32  -21.0663 26079.1 -03438.6 -07.5112 26304.8
 15 06 2013  15 33  -21.0664 26079.0 -03438.5 -07.5110 26304.7
 15 06 2013  15 34  -21.0662 26078.8 -03438.3 -07.5107 26304.4
 15 06 2013  15 35  -21.0662 26078.5 -03438.2 -07.5105 26304.2
 15 06 2013  15 36  -21.0664 26078.6 -03438.1 -07.5103 26304.3
 15 06 2013  15 37  -21.0666 26078.8 -03438.1 -07.5102 26304.4
 15 06 2013  15 38  -21.0667 26078.9 -03438.0 -07.5100 26304.5
 15 06 2013  15 39  -21.0666 26079.0 -03437.9 -07.5098 26304.6
 15 06 2013  15 40  -21.0663 26079.0 -03437.7 -07.5095 26304.6
 15 06 2013  15 41  -21.0662 26079.0 -03437.6 -07.5092 26304.6
 15 06 2013  15 42  -21.0659 26079.0 -03437.5 -07.5090 26304.5
 15 06 2013  15 43  -21.0657 26078.8 -03437.4 -07.5088 26304.4
 15 06 2013  15 44  -21.0655 26078.5 -03437.2 -07.5084 26304.0
 15 06 2013  15 45  -21.0654 26078.1 -03437.0 -07.5081 26303.6
 15 06 2013  15 46  -21.0656 26077.7 -03436.8 -07.5078 26303.2
 15 06 2013  15 47  -21.0654 26077.4 -03436.7 -07.5076 26302.9
 15 06 2013  15 48  -21.0654 26077.1 -03436.6 -07.5075 26302.5
 15 06 2013  15 49  -21.0653 26076.6 -03436.5 -07.5074 26302.1
 15 06 2013  15 50  -21.0653 26076.3 -03436.4 -07.5074 26301.8
 15 06 2013  15 51  -21.0651 26076.1 -03436.5 -07.5075 26301.6
 15 06 2013  15 52  -21.0650 26075.9 -03436.4 -07.5075 26301.4
 15 06 2013  15 53  -21.0649 26075.7 -03436.5 -07.5076 26301.2
 15 06 2013  15 54  -21.0648 26075.7 -03436.6 -07.5078 26301.2
 15 06 2013  15 55  -21.0650 26076.0 -03436.8 -07.5082 26301.5
 15 06 2013  15 56  -21.0654 26076.2 -03436.9 -07.5085 26301.7
 15 06 2013  15 57  -21.0649 26075.6 -03436.7 -07.5081 26301.1
 15 06 2013  15 58  -21.0650 26075.9 -03436.9 -07.5084 26301.4
 15 06 2013  15 59  -21.0651 26076.0 -03437.0 -07.5087 26301.6
 15 06 2013  16 00  -21.0647 26075.7 -03436.9 -07.5085 26301.3
 15 06 2013  16 01  -21.0646 26075.3 -03436.8 -07.5085 26300.8
 15 06 2013  16 02  -21.0645 26075.1 -03436.9 -07.5087 26300.7
 15 06 2013  16 03  -21.0642 26075.1 -03436.9 -07.5088 26300.6
 15 06 2013  16 04  -21.0644 26075.1 -03437.1 -07.5091 26300.7
 15 06 2013  16 05  -21.0644 26074.5 -03436.9 -07.5089 26300.0
 15 06 2013  16 06  -21.0641 26074.0 -03436.8 -07.5087 26299.6
 15 06 2013  16 07  -21.0643 26074.0 -03436.8 -07.5089 26299.5
 15 06 2013  16 08  -21.0645 26073.7 -03436.8 -07.5090 26299.3
 15 06 2013  16 09  -21.0645 26073.5 -03436.9 -07.5091 26299.1
 15 06 2013  16 10  -21.0646 26073.4 -03436.9 -07.5092 26299.0
 15 06 2013  16 11  -21.0644 26073.0 -03436.8 -07.5091 26298.5
 15 06 2013  16 12  -21.0644 26072.8 -03436.8 -07.5092 26298.3
 15 06 2013  16 13  -21.0644 26072.5 -03436.8 -07.5092 26298.0
 15 06 2013  16 14  -21.0642 26072.2 -03436.7 -07.5092 26297.7
 15 06 2013  16 15  -21.0639 26071.8 -03436.7 -07.5093 26297.3
 15 06 2013  16 16  -21.0639 26071.6 -03436.8 -07.5095 26297.1
 15 06 2013  16 17  -21.0637 26071.3 -03436.8 -07.5096 26296.8
 15 06 2013  16 18  -21.0634 26071.0 -03436.8 -07.5098 26296.5
 15 06 2013  16 19  -21.0632 26070.7 -03436.9 -07.5100 26296.3
 15 06 2013  16 20  -21.0631 26070.5 -03437.0 -07.5102 26296.1
 15 06 2013  16 21  -21.0630 26070.5 -03437.1 -07.5105 26296.1
 15 06 2013  16 22  -21.0631 26070.5 -03437.3 -07.5109 26296.1
 15 06 2013  16 23  -21.0628 26070.4 -03437.4 -07.5111 26296.0
 15 06 2013  16 24  -21.0624 26070.1 -03437.4 -07.5112 26295.8
 15 06 2013  16 25  -21.0621 26069.9 -03437.5 -07.5115 26295.6
 15 06 2013  16 26  -21.0618 26069.7 -03437.6 -07.5117 26295.4
 15 06 2013  16 27  -21.0615 26069.5 -03437.7 -07.5120 26295.2
 15 06 2013  16 28  -21.0612 26069.4 -03437.8 -07.5122 26295.1
 15 06 2013  16 29  -21.0607 26069.1 -03437.8 -07.5124 26294.8
 15 06 2013  16 30  -21.0604 26068.9 -03438.0 -07.5128 26294.7
 15 06 2013  16 31  -21.0600 26068.8 -03438.1 -07.5131 26294.5
 15 06 2013  16 32  -21.0597 26068.7 -03438.2 -07.5134 26294.4
 15 06 2013  16 33  -21.0595 26068.5 -03438.3 -07.5137 26294.3
 15 06 2013  16 34  -21.0591 26068.3 -03438.4 -07.5139 26294.0
 15 06 2013  16 35  -21.0589 26067.8 -03438.4 -07.5141 26293.6
 15 06 2013  16 36  -21.0583 26067.2 -03438.3 -07.5141 26293.0
 15 06 2013  16 37  -21.0576 26066.6 -03438.3 -07.5141 26292.4
 15 06 2013  16 38  -21.0578 26067.0 -03438.7 -07.5149 26292.8
 15 06 2013  16 39  -21.0576 26066.2 -03438.6 -07.5149 26292.1
 15 06 2013  16 40  -21.0574 26066.1 -03438.7 -07.5152 26292.0
 15 06 2013  16 41  -21.0576 26066.1 -03439.0 -07.5157 26292.0
 15 06 2013  16 42  -21.0575 26065.7 -03438.9 -07.5157 26291.6
 15 06 2013  16 43  -21.0576 26065.6 -03439.0 -07.5160 26291.5
 15 06 2013  16 44  -21.0575 26065.2 -03439.0 -07.5161 26291.1
 15 06 2013  16 45  -21.0574 26065.2 -03439.1 -07.5163 26291.1
 15 06 2013  16 46  -21.0575 26064.9 -03439.1 -07.5165 26290.9
 15 06 2013  16 47  -21.0573 26064.8 -03439.1 -07.5165 26290.7
 15 06 2013  16 48  -21.0572 26064.7 -03439.2 -07.5167 26290.6
 15 06 2013  16 49  -21.0573 26064.6 -03439.3 -07.5169 26290.5
 15 06 2013  16 50  -21.0573 26064.4 -03439.3 -07.5170 26290.4
 15 06 2013  16 51  -21.0575 26064.4 -03439.4 -07.5171 26290.3
 15 06 2013  16 52  -21.0577 26064.5 -03439.5 -07.5173 26290.4
 15 06 2013  16 53  -21.0579 26064.4 -03439.5 -07.5174 26290.3
 15 06 2013  16 54  -21.0581 26064.2 -03439.5 -07.5174 26290.1
 15 06 2013  16 55  -21.0580 26063.7 -03439.3 -07.5172 26289.7
 15 06 2013  16 56  -21.0578 26063.3 -03439.3 -07.5172 26289.3
 15 06 2013  16 57  -21.0576 26062.8 -03439.2 -07.5171 26288.7
 15 06 2013  16 58  -21.0578 26062.7 -03439.3 -07.5174 26288.6
 15 06 2013  16 59  -21.0578 26062.5 -03439.3 -07.5176 26288.4
 15 06 2013  17 00  -21.0579 26062.5 -03439.4 -07.5177 26288.5
 15 06 2013  17 01  -21.0578 26062.2 -03439.4 -07.5177 26288.2
 15 06 2013  17 02  -21.0576 26062.1 -03439.4 -07.5179 26288.0
 15 06 2013  17 03  -21.0576 26061.9 -03439.4 -07.5180 26287.9
 15 06 2013  17 04  -21.0575 26061.7 -03439.5 -07.5181 26287.7
 15 06 2013  17 05  -21.0575 26061.5 -03439.5 -07.5182 26287.5
 15 06 2013  17 06  -21.0576 26061.3 -03439.5 -07.5183 26287.3
 15 06 2013  17 07  -21.0575 26061.1 -03439.5 -07.5183 26287.0
 15 06 2013  17 08  -21.0574 26060.7 -03439.5 -07.5183 26286.7
 15 06 2013  17 09  -21.0574 26060.5 -03439.5 -07.5184 26286.5
 15 06 2013  17 10  -21.0573 26060.1 -03439.4 -07.5184 26286.1
 15 06 2013  17 11  -21.0571 26060.0 -03439.5 -07.5186 26286.0
 15 06 2013  17 12  -21.0569 26059.8 -03439.5 -07.5188 26285.8
 15 06 2013  17 13  -21.0566 26059.5 -03439.5 -07.5188 26285.5
 15 06 2013  17 14  -21.0565 26059.3 -03439.5 -07.5190 26285.3
 15 06 2013  17 15  -21.0565 26059.3 -03439.7 -07.5192 26285.3
 15 06 2013  17 16  -21.0565 26059.2 -03439.7 -07.5194 26285.2
 15 06 2013  17 17  -21.0565 26059.1 -03439.8 -07.5195 26285.1
 15 06 2013  17 18  -21.0564 26058.9 -03439.8 -07.5196 26285.0
 15 06 2013  17 19  -21.0563 26058.7 -03439.8 -07.5196 26284.7
 15 06 2013  17 20  -21.0562 26058.5 -03439.8 -07.5197 26284.5
 15 06 2013  17 21  -21.0561 26058.3 -03439.8 -07.5198 26284.3
 15 06 2013  17 22  -21.0560 26057.9 -03439.8 -07.5199 26284.0
 15 06 2013  17 23  -21.0559 26057.7 -03439.8 -07.5199 26283.7
 15 06 2013  17 24  -21.0557 26057.3 -03439.8 -07.5200 26283.4
 15 06 2013  17 25  -21.0557 26057.2 -03439.8 -07.5202 26283.2
 15 06 2013  17 26  -21.0557 26056.9 -03439.8 -07.5202 26282.9
 15 06 2013  17 27  -21.0556 26056.7 -03439.9 -07.5204 26282.8
 15 06 2013  17 28  -21.0555 26056.7 -03439.9 -07.5205 26282.8
 15 06 2013  17 29  -21.0555 26056.5 -03439.9 -07.5205 26282.6
 15 06 2013  17 30  -21.0553 26056.4 -03439.9 -07.5205 26282.4
 15 06 2013  17 31  -21.0552 26056.3 -03439.9 -07.5206 26282.3
 15 06 2013  17 32  -21.0553 26056.3 -03439.9 -07.5206 26282.4
 15 06 2013  17 33  -21.0552 26056.2 -03439.9 -07.5206 26282.3
 15 06 2013  17 34  -21.0551 26056.0 -03439.8 -07.5204 26282.1
 15 06 2013  17 35  -21.0547 26055.6 -03439.6 -07.5202 26281.7
 15 06 2013  17 36  -21.0544 26055.2 -03439.5 -07.5201 26281.2
 15 06 2013  17 37  -21.0541 26054.9 -03439.5 -07.5201 26280.9
 15 06 2013  17 38  -21.0540 26054.6 -03439.5 -07.5202 26280.6
 15 06 2013  17 39  -21.0539 26054.4 -03439.5 -07.5202 26280.4
 15 06 2013  17 40  -21.0538 26054.3 -03439.5 -07.5203 26280.3
 15 06 2013  17 41  -21.0538 26054.1 -03439.5 -07.5204 26280.1
 15 06 2013  17 42  -21.0536 26053.9 -03439.5 -07.5204 26279.9
 15 06 2013  17 43  -21.0536 26053.8 -03439.5 -07.5205 26279.8
 15 06 2013  17 44  -21.0535 26053.6 -03439.5 -07.5206 26279.6
 15 06 2013  17 45  -21.0534 26053.4 -03439.5 -07.5206 26279.5
 15 06 2013  17 46  -21.0535 26053.4 -03439.6 -07.5207 26279.5
 15 06 2013  17 47  -21.0535 26053.2 -03439.6 -07.5207 26279.3
 15 06 2013  17 48  -21.0536 26053.1 -03439.6 -07.5208 26279.2
 15 06 2013  17 49  -21.0536 26053.0 -03439.6 -07.5208 26279.1
 15 06 2013  17 50  -21.0535 26052.8 -03439.6 -07.5208 26278.9
 15 06 2013  17 51  -21.0536 26052.7 -03439.6 -07.5209 26278.8
 15 06 2013  17 52  -21.0537 26052.6 -03439.6 -07.5211 26278.7
 15 06 2013  17 53  -21.0538 26052.4 -03439.7 -07.5211 26278.5
 15 06 2013  17 54  -21.0539 26052.3 -03439.7 -07.5214 26278.4
 15 06 2013  17 55  -21.0540 26052.1 -03439.7 -07.5214 26278.2
 15 06 2013  17 56  -21.0540 26051.8 -03439.8 -07.5216 26277.9
 15 06 2013  17 57  -21.0538 26051.6 -03439.8 -07.5217 26277.7
 15 06 2013  17 58  -21.0538 26051.3 -03439.9 -07.5219 26277.5
 15 06 2013  17 59  -21.0539 26051.2 -03440.0 -07.5222 26277.4
 15 06 2013  18 00  -21.0540 26051.1 -03440.1 -07.5225 26277.3
 15 06 2013  18 01  -21.0540 26051.0 -03440.2 -07.5226 26277.1
 15 06 2013  18 02  -21.0541 26050.9 -03440.2 -07.5229 26277.0
 15 06 2013  18 03  -21.0541 26050.7 -03440.4 -07.5231 26276.9
 15 06 2013  18 04  -21.0542 26050.6 -03440.5 -07.5234 26276.8
 15 06 2013  18 05  -21.0543 26050.4 -03440.5 -07.5236 26276.6
 15 06 2013  18 06  -21.0543 26050.3 -03440.7 -07.5239 26276.5
 15 06 2013  18 07  -21.0544 26050.3 -03440.9 -07.5244 26276.5
 15 06 2013  18 08  -21.0544 26050.1 -03441.0 -07.5246 26276.4
 15 06 2013  18 09  -21.0544 26050.0 -03441.1 -07.5250 26276.3
 15 06 2013  18 10  -21.0545 26049.8 -03441.2 -07.5253 26276.2
 15 06 2013  18 11  -21.0544 26049.7 -03441.4 -07.5257 26276.0
 15 06 2013  18 12  -21.0545 26049.6 -03441.6 -07.5261 26276.0
 15 06 2013  18 13  -21.0546 26049.6 -03441.8 -07.5265 26276.0
 15 06 2013  18 14  -21.0548 26049.6 -03441.9 -07.5269 26276.0
 15 06 2013  18 15  -21.0550 26049.6 -03442.1 -07.5272 26276.0
 15 06 2013  18 16  -21.0551 26049.5 -03442.2 -07.5275 26276.0
 15 06 2013  18 17  -21.0553 26049.5 -03442.3 -07.5278 26275.9
 15 06 2013  18 18  -21.0555 26049.4 -03442.4 -07.5280 26275.9
 15 06 2013  18 19  -21.0556 26049.4 -03442.6 -07.5283 26275.9
 15 06 2013  18 20  -21.0558 26049.3 -03442.7 -07.5285 26275.8
 15 06 2013  18 21  -21.0560 26049.2 -03442.7 -07.5287 26275.8
 15 06 2013  18 22  -21.0561 26049.2 -03442.9 -07.5290 26275.7
 15 06 2013  18 23  -21.0562 26049.2 -03443.0 -07.5292 26275.7
 15 06 2013  18 24  -21.0563 26049.2 -03443.0 -07.5293 26275.7
 15 06 2013  18 25  -21.0564 26049.1 -03443.1 -07.5295 26275.7
 15 06 2013  18 26  -21.0565 26049.1 -03443.2 -07.5296 26275.7
 15 06 2013  18 27  -21.0565 26049.1 -03443.2 -07.5298 26275.6
 15 06 2013  18 28  -21.0566 26049.0 -03443.2 -07.5298 26275.6
 15 06 2013  18 29  -21.0567 26049.0 -03443.3 -07.5299 26275.6
 15 06 2013  18 30  -21.0567 26048.9 -03443.3 -07.5300 26275.5
 15 06 2013  18 31  -21.0568 26048.7 -03443.3 -07.5300 26275.3
 15 06 2013  18 32  -21.0569 26048.6 -03443.3 -07.5301 26275.2
 15 06 2013  18 33  -21.0571 26048.5 -03443.3 -07.5302 26275.1
 15 06 2013  18 34  -21.0569 26048.3 -03443.3 -07.5303 26274.9
 15 06 2013  18 35  -21.0571 26048.2 -03443.4 -07.5304 26274.8
 15 06 2013  18 36  -21.0573 26048.1 -03443.4 -07.5305 26274.7
 15 06 2013  18 37  -21.0575 26047.9 -03443.4 -07.5305 26274.6
 15 06 2013  18 38  -21.0576 26047.8 -03443.4 -07.5306 26274.4
 15 06 2013  18 39  -21.0579 26047.7 -03443.4 -07.5307 26274.4
 15 06 2013  18 40  -21.0581 26047.6 -03443.5 -07.5307 26274.3
 15 06 2013  18 41  -21.0583 26047.5 -03443.5 -07.5308 26274.2
 15 06 2013  18 42  -21.0585 26047.5 -03443.5 -07.5308 26274.1
 15 06 2013  18 43  -21.0588 26047.3 -03443.5 -07.5308 26274.0
 15 06 2013  18 44  -21.0590 26047.2 -03443.5 -07.5308 26273.8
 15 06 2013  18 45  -21.0590 26047.0 -03443.4 -07.5309 26273.7
 15 06 2013  18 46  -21.0591 26046.9 -03443.4 -07.5309 26273.5
 15 06 2013  18 47  -21.0593 26046.7 -03443.4 -07.5309 26273.4
 15 06 2013  18 48  -21.0594 26046.6 -03443.4 -07.5310 26273.2
 15 06 2013  18 49  -21.0595 26046.5 -03443.4 -07.5310 26273.2
 15 06 2013  18 50  -21.0597 26046.5 -03443.5 -07.5311 26273.1
 15 06 2013  18 51  -21.0599 26046.4 -03443.5 -07.5312 26273.0
 15 06 2013  18 52  -21.0600 26046.3 -03443.5 -07.5313 26273.0
 15 06 2013  18 53  -21.0601 26046.2 -03443.6 -07.5314 26272.9
 15 06 2013  18 54  -21.0602 26046.0 -03443.5 -07.5314 26272.7
 15 06 2013  18 55  -21.0603 26045.9 -03443.6 -07.5315 26272.5
 15 06 2013  18 56  -21.0602 26045.6 -03443.5 -07.5315 26272.3
 15 06 2013  18 57  -21.0602 26045.5 -03443.6 -07.5316 26272.1
 15 06 2013  18 58  -21.0602 26045.3 -03443.6 -07.5317 26272.0
 15 06 2013  18 59  -21.0602 26045.1 -03443.6 -07.5318 26271.8
 15 06 2013  19 00  -21.0601 26044.9 -03443.7 -07.5319 26271.6
 15 06 2013  19 01  -21.0601 26044.8 -03443.7 -07.5321 26271.5
 15 06 2013  19 02  -21.0600 26044.7 -03443.8 -07.5322 26271.3
 15 06 2013  19 03  -21.0599 26044.5 -03443.8 -07.5323 26271.2
 15 06 2013  19 04  -21.0598 26044.4 -03443.9 -07.5325 26271.1
 15 06 2013  19 05  -21.0596 26044.2 -03443.9 -07.5326 26271.0
 15 06 2013  19 06  -21.0595 26044.1 -03443.9 -07.5327 26270.9
 15 06 2013  19 07  -21.0592 26044.0 -03444.0 -07.5329 26270.7
 15 06 2013  19 08  -21.0590 26044.0 -03444.1 -07.5331 26270.7
 15 06 2013  19 09  -21.0588 26044.0 -03444.2 -07.5333 26270.7
 15 06 2013  19 10  -21.0586 26043.9 -03444.2 -07.5335 26270.7
 15 06 2013  19 11  -21.0585 26043.9 -03444.3 -07.5336 26270.7
 15 06 2013  19 12  -21.0581 26043.9 -03444.4 -07.5338 26270.7
 15 06 2013  19 13  -21.0578 26043.9 -03444.5 -07.5339 26270.7
 15 06 2013  19 14  -21.0577 26043.9 -03444.5 -07.5342 26270.7
 15 06 2013  19 15  -21.0575 26043.8 -03444.6 -07.5343 26270.6
 15 06 2013  19 16  -21.0572 26043.7 -03444.6 -07.5344 26270.5
 15 06 2013  19 17  -21.0570 26043.5 -03444.6 -07.5345 26270.4
 15 06 2013  19 18  -21.0568 26043.4 -03444.7 -07.5346 26270.2
 15 06 2013  19 19  -21.0566 26043.1 -03444.7 -07.5346 26270.0
 15 06 2013  19 20  -21.0564 26042.9 -03444.7 -07.5348 26269.8
 15 06 2013  19 21  -21.0563 26042.7 -03444.8 -07.5349 26269.6
 15 06 2013  19 22  -21.0561 26042.5 -03444.8 -07.5350 26269.3
 15 06 2013  19 23  -21.0559 26042.2 -03444.8 -07.5351 26269.1
 15 06 2013  19 24  -21.0557 26042.0 -03444.8 -07.5354 26268.8
 15 06 2013  19 25  -21.0556 26041.8 -03444.9 -07.5356 26268.6
 15 06 2013  19 26  -21.0554 26041.6 -03445.0 -07.5358 26268.5
 15 06 2013  19 27  -21.0553 26041.5 -03445.1 -07.5360 26268.4
 15 06 2013  19 28  -21.0551 26041.4 -03445.2 -07.5362 26268.3
 15 06 2013  19 29  -21.0551 26041.4 -03445.3 -07.5364 26268.3
 15 06 2013  19 30  -21.0550 26041.3 -03445.3 -07.5366 26268.2
 15 06 2013  19 31  -21.0550 26041.3 -03445.4 -07.5367 26268.2
 15 06 2013  19 32  -21.0549 26041.2 -03445.4 -07.5368 26268.1
 15 06 2013  19 33  -21.0548 26041.0 -03445.4 -07.5369 26267.9
 15 06 2013  19 34  -21.0547 26040.8 -03445.4 -07.5369 26267.8
 15 06 2013  19 35  -21.0545 26040.8 -03445.5 -07.5371 26267.7
 15 06 2013  19 36  -21.0544 26040.6 -03445.5 -07.5371 26267.6
 15 06 2013  19 37  -21.0544 26040.6 -03445.5 -07.5372 26267.5
 15 06 2013  19 38  -21.0543 26040.4 -03445.5 -07.5373 26267.4
 15 06 2013  19 39  -21.0542 26040.3 -03445.5 -07.5373 26267.2
 15 06 2013  19 40  -21.0541 26040.2 -03445.5 -07.5373 26267.2
 15 06 2013  19 41  -21.0541 26040.0 -03445.5 -07.5373 26267.0
 15 06 2013  19 42  -21.0541 26039.9 -03445.5 -07.5373 26266.9
 15 06 2013  19 43  -21.0541 26039.8 -03445.5 -07.5374 26266.7
 15 06 2013  19 44  -21.0542 26039.6 -03445.5 -07.5373 26266.6
 15 06 2013  19 45  -21.0544 26039.4 -03445.4 -07.5373 26266.4
 15 06 2013  19 46  -21.0544 26039.1 -03445.3 -07.5372 26266.1
 15 06 2013  19 47  -21.0544 26038.9 -03445.3 -07.5371 26265.9
 15 06 2013  19 48  -21.0544 26038.6 -03445.2 -07.5370 26265.5
 15 06 2013  19 49  -21.0543 26038.4 -03445.1 -07.5369 26265.3
 15 06 2013  19 50  -21.0542 26038.1 -03445.0 -07.5369 26265.0
 15 06 2013  19 51  -21.0543 26037.8 -03445.0 -07.5369 26264.7
 15 06 2013  19 52  -21.0542 26037.6 -03445.0 -07.5369 26264.5
 15 06 2013  19 53  -21.0545 26037.5 -03445.1 -07.5371 26264.5
 15 06 2013  19 54  -21.0544 26037.2 -03445.0 -07.5371 26264.1
 15 06 2013  19 55  -21.0542 26036.9 -03445.0 -07.5371 26263.9
 15 06 2013  19 56  -21.0540 26036.7 -03445.0 -07.5372 26263.6
 15 06 2013  19 57  -21.0538 26036.5 -03445.1 -07.5374 26263.4
 15 06 2013  19 58  -21.0535 26036.4 -03445.2 -07.5377 26263.4
 15 06 2013  19 59  -21.0534 26036.6 -03445.4 -07.5382 26263.6
 15 06 2013  20 00  -21.0533 26036.9 -03445.7 -07.5386 26263.9
 15 06 2013  20 01  -21.0533 26037.3 -03445.9 -07.5390 26264.3
 15 06 2013  20 02  -21.0532 26037.6 -03446.1 -07.5393 26264.6
 15 06 2013  20 03  -21.0532 26037.8 -03446.2 -07.5394 26264.8
 15 06 2013  20 04  -21.0531 26037.9 -03446.2 -07.5395 26265.0
 15 06 2013  20 05  -21.0530 26038.0 -03446.2 -07.5395 26265.0
 15 06 2013  20 06  -21.0529 26037.9 -03446.2 -07.5394 26264.9
 15 06 2013  20 07  -21.0526 26037.7 -03446.1 -07.5392 26264.7
 15 06 2013  20 08  -21.0523 26037.4 -03446.0 -07.5391 26264.5
 15 06 2013  20 09  -21.0520 26037.2 -03445.9 -07.5391 26264.3
 15 06 2013  20 10  -21.0518 26037.0 -03445.9 -07.5390 26264.0
 15 06 2013  20 11  -21.0516 26036.8 -03445.9 -07.5391 26263.9
 15 06 2013  20 12  -21.0514 26036.7 -03445.9 -07.5392 26263.7
 15 06 2013  20 13  -21.0512 26036.6 -03446.0 -07.5393 26263.7
 15 06 2013  20 14  -21.0511 26036.5 -03446.0 -07.5395 26263.6
 15 06 2013  20 15  -21.0509 26036.5 -03446.1 -07.5395 26263.6
 15 06 2013  20 16  -21.0508 26036.4 -03446.1 -07.5396 26263.4
 15 06 2013  20 17  -21.0507 26036.3 -03446.2 -07.5399 26263.4
 15 06 2013  20 18  -21.0505 26036.3 -03446.2 -07.5400 26263.4
 15 06 2013  20 19  -21.0505 26036.2 -03446.3 -07.5401 26263.3
 15 06 2013  20 20  -21.0503 26036.2 -03446.3 -07.5402 26263.3
 15 06 2013  20 21  -21.0502 26036.1 -03446.4 -07.5404 26263.2
 15 06 2013  20 22  -21.0501 26036.0 -03446.5 -07.5405 26263.1
 15 06 2013  20 23  -21.0499 26035.9 -03446.5 -07.5406 26263.0
 15 06 2013  20 24  -21.0498 26035.9 -03446.6 -07.5409 26263.0
 15 06 2013  20 25  -21.0497 26035.9 -03446.7 -07.5410 26263.0
 15 06 2013  20 26  -21.0496 26036.0 -03446.8 -07.5413 26263.2
 15 06 2013  20 27  -21.0494 26036.1 -03446.9 -07.5416 26263.3
 15 06 2013  20 28  -21.0493 26036.1 -03447.0 -07.5418 26263.3
 15 06 2013  20 29  -21.0491 26036.1 -03447.1 -07.5419 26263.3
 15 06 2013  20 30  -21.0490 26036.2 -03447.2 -07.5421 26263.4
 15 06 2013  20 31  -21.0489 26036.2 -03447.3 -07.5422 26263.4
 15 06 2013  20 32  -21.0488 26036.1 -03447.3 -07.5423 26263.3
 15 06 2013  20 33  -21.0486 26036.0 -03447.3 -07.5424 26263.3
 15 06 2013  20 34  -21.0485 26036.0 -03447.4 -07.5426 26263.2
 15 06 2013  20 35  -21.0483 26035.9 -03447.5 -07.5427 26263.2
 15 06 2013  20 36  -21.0482 26035.9 -03447.5 -07.5428 26263.1
 15 06 2013  20 37  -21.0480 26035.9 -03447.6 -07.5430 26263.1
 15 06 2013  20 38  -21.0478 26035.9 -03447.7 -07.5432 26263.1
 15 06 2013  20 39  -21.0477 26035.8 -03447.7 -07.5433 26263.1
 15 06 2013  20 40  -21.0475 26035.9 -03447.8 -07.5435 26263.2
 15 06 2013  20 41  -21.0474 26036.0 -03447.9 -07.5436 26263.3
 15 06 2013  20 42  -21.0472 26036.0 -03447.9 -07.5438 26263.3
 15 06 2013  20 43  -21.0469 26036.1 -03448.0 -07.5439 26263.4
 15 06 2013  20 44  -21.0468 26036.2 -03448.1 -07.5441 26263.5
 15 06 2013  20 45  -21.0466 26036.2 -03448.2 -07.5441 26263.6
 15 06 2013  20 46  -21.0464 26036.3 -03448.2 -07.5443 26263.7
 15 06 2013  20 47  -21.0461 26036.4 -03448.3 -07.5444 26263.7
 15 06 2013  20 48  -21.0460 26036.4 -03448.3 -07.5444 26263.8
 15 06 2013  20 49  -21.0457 26036.5 -03448.4 -07.5445 26263.9
 15 06 2013  20 50  -21.0456 26036.5 -03448.4 -07.5446 26263.9
 15 06 2013  20 51  -21.0454 26036.6 -03448.4 -07.5447 26264.0
 15 06 2013  20 52  -21.0452 26036.6 -03448.5 -07.5447 26264.0
 15 06 2013  20 53  -21.0451 26036.6 -03448.5 -07.5447 26264.0
 15 06 2013  20 54  -21.0449 26036.7 -03448.5 -07.5447 26264.0
 15 06 2013  20 55  -21.0446 26036.7 -03448.4 -07.5446 26264.0
 15 06 2013  20 56  -21.0444 26036.6 -03448.4 -07.5445 26264.0
 15 06 2013  20 57  -21.0441 26036.5 -03448.3 -07.5444 26263.9
 15 06 2013  20 58  -21.0438 26036.5 -03448.3 -07.5443 26263.8
 15 06 2013  20 59  -21.0436 26036.5 -03448.3 -07.5443 26263.8
 15 06 2013  21 00  -21.0435 26036.5 -03448.2 -07.5442 26263.8
 15 06 2013  21 01  -21.0432 26036.6 -03448.3 -07.5443 26264.0
 15 06 2013  21 02  -21.0428 26036.6 -03448.2 -07.5442 26264.0
 15 06 2013  21 03  -21.0424 26036.6 -03448.2 -07.5441 26263.9
 15 06 2013  21 04  -21.0420 26036.5 -03448.1 -07.5440 26263.9
 15 06 2013  21 05  -21.0417 26036.5 -03448.1 -07.5440 26263.8
 15 06 2013  21 06  -21.0414 26036.5 -03448.1 -07.5439 26263.8
 15 06 2013  21 07  -21.0411 26036.5 -03448.1 -07.5440 26263.8
 15 06 2013  21 08  -21.0407 26036.5 -03448.1 -07.5439 26263.8
 15 06 2013  21 09  -21.0403 26036.5 -03448.0 -07.5438 26263.8
 15 06 2013  21 10  -21.0400 26036.4 -03448.0 -07.5439 26263.8
 15 06 2013  21 11  -21.0397 26036.5 -03448.0 -07.5438 26263.8
 15 06 2013  21 12  -21.0395 26036.4 -03448.0 -07.5439 26263.7
 15 06 2013  21 13  -21.0393 26036.3 -03448.0 -07.5439 26263.7
 15 06 2013  21 14  -21.0392 26036.3 -03448.0 -07.5439 26263.6
 15 06 2013  21 15  -21.0390 26036.2 -03448.0 -07.5439 26263.5
 15 06 2013  21 16  -21.0390 26036.1 -03448.0 -07.5439 26263.5
 15 06 2013  21 17  -21.0389 26036.0 -03448.0 -07.5440 26263.4
 15 06 2013  21 18  -21.0388 26035.9 -03448.0 -07.5439 26263.3
 15 06 2013  21 19  -21.0386 26035.9 -03448.0 -07.5440 26263.2
 15 06 2013  21 20  -21.0384 26035.7 -03448.0 -07.5439 26263.0
 15 06 2013  21 21  -21.0383 26035.5 -03447.9 -07.5439 26262.8
 15 06 2013  21 22  -21.0382 26035.4 -03448.0 -07.5440 26262.8
 15 06 2013  21 23  -21.0381 26035.4 -03448.0 -07.5441 26262.8
 15 06 2013  21 24  -21.0380 26035.4 -03448.1 -07.5442 26262.7
 15 06 2013  21 25  -21.0378 26035.4 -03448.1 -07.5443 26262.8
 15 06 2013  21 26  -21.0376 26035.4 -03448.2 -07.5444 26262.7
 15 06 2013  21 27  -21.0375 26035.4 -03448.2 -07.5445 26262.7
 15 06 2013  21 28  -21.0374 26035.4 -03448.3 -07.5447 26262.8
 15 06 2013  21 29  -21.0372 26035.4 -03448.4 -07.5449 26262.8
 15 06 2013  21 30  -21.0370 26035.4 -03448.4 -07.5449 26262.7
 15 06 2013  21 31  -21.0369 26035.4 -03448.5 -07.5451 26262.8
 15 06 2013  21 32  -21.0368 26035.4 -03448.6 -07.5453 26262.8
 15 06 2013  21 33  -21.0365 26035.4 -03448.6 -07.5454 26262.8
 15 06 2013  21 34  -21.0364 26035.3 -03448.6 -07.5454 26262.8
 15 06 2013  21 35  -21.0363 26035.3 -03448.7 -07.5456 26262.7
 15 06 2013  21 36  -21.0362 26035.3 -03448.8 -07.5457 26262.7
 15 06 2013  21 37  -21.0359 26035.2 -03448.8 -07.5458 26262.7
 15 06 2013  21 38  -21.0358 26035.2 -03448.8 -07.5459 26262.7
 15 06 2013  21 39  -21.0358 26035.2 -03448.9 -07.5461 26262.7
 15 06 2013  21 40  -21.0357 26035.1 -03449.0 -07.5462 26262.6
 15 06 2013  21 41  -21.0357 26035.0 -03449.0 -07.5462 26262.5
 15 06 2013  21 42  -21.0356 26035.0 -03449.0 -07.5463 26262.4
 15 06 2013  21 43  -21.0355 26034.9 -03449.0 -07.5463 26262.4
 15 06 2013  21 44  -21.0354 26034.9 -03449.1 -07.5465 26262.4
 15 06 2013  21 45  -21.0353 26035.0 -03449.1 -07.5467 26262.4
 15 06 2013  21 46  -21.0354 26035.0 -03449.2 -07.5469 26262.5
 15 06 2013  21 47  -21.0355 26035.0 -03449.3 -07.5470 26262.5
 15 06 2013  21 48  -21.0355 26035.0 -03449.4 -07.5471 26262.5
 15 06 2013  21 49  -21.0356 26035.0 -03449.4 -07.5472 26262.5
 15 06 2013  21 50  -21.0354 26035.1 -03449.5 -07.5473 26262.6
 15 06 2013  21 51  -21.0354 26035.0 -03449.5 -07.5474 26262.5
 15 06 2013  21 52  -21.0354 26034.8 -03449.4 -07.5473 26262.3
 15 06 2013  21 53  -21.0351 26034.8 -03449.4 -07.5473 26262.4
 15 06 2013  21 54  -21.0351 26034.8 -03449.5 -07.5474 26262.3
 15 06 2013  21 55  -21.0351 26034.6 -03449.4 -07.5474 26262.1
 15 06 2013  21 56  -21.0349 26034.4 -03449.4 -07.5473 26261.9
 15 06 2013  21 57  -21.0351 26034.3 -03449.4 -07.5474 26261.8
 15 06 2013  21 58  -21.0353 26034.3 -03449.4 -07.5475 26261.8
 15 06 2013  21 59  -21.0350 26034.3 -03449.5 -07.5476 26261.9
 15 06 2013  22 00  -21.0351 26034.3 -03449.5 -07.5477 26261.8
 15 06 2013  22 01  -21.0351 26034.3 -03449.6 -07.5478 26261.8
 15 06 2013  22 02  -21.0351 26034.2 -03449.6 -07.5479 26261.7
 15 06 2013  22 03  -21.0350 26034.1 -03449.6 -07.5479 26261.7
 15 06 2013  22 04  -21.0350 26034.2 -03449.7 -07.5480 26261.7
 15 06 2013  22 05  -21.0349 26034.1 -03449.7 -07.5481 26261.7
 15 06 2013  22 06  -21.0347 26034.1 -03449.7 -07.5481 26261.7
 15 06 2013  22 07  -21.0347 26034.1 -03449.7 -07.5482 26261.6
 15 06 2013  22 08  -21.0346 26034.2 -03449.8 -07.5484 26261.8
 15 06 2013  22 09  -21.0346 26034.2 -03449.9 -07.5486 26261.8
 15 06 2013  22 10  -21.0346 26034.2 -03449.9 -07.5486 26261.8
 15 06 2013  22 11  -21.0345 26034.2 -03450.0 -07.5487 26261.8
 15 06 2013  22 12  -21.0346 26034.1 -03450.0 -07.5487 26261.7
 15 06 2013  22 13  -21.0346 26034.1 -03450.0 -07.5487 26261.7
 15 06 2013  22 14  -21.0346 26034.0 -03449.9 -07.5487 26261.6
 15 06 2013  22 15  -21.0345 26034.2 -03450.1 -07.5489 26261.8
 15 06 2013  22 16  -21.0349 26033.9 -03450.0 -07.5488 26261.5
 15 06 2013  22 17  -21.0348 26033.9 -03450.0 -07.5487 26261.5
 15 06 2013  22 18  -21.0352 26033.8 -03450.0 -07.5488 26261.4
 15 06 2013  22 19  -21.0352 26033.8 -03450.0 -07.5488 26261.4
 15 06 2013  22 20  -21.0354 26033.6 -03450.0 -07.5488 26261.2
 15 06 2013  22 21  -21.0353 26033.6 -03450.0 -07.5488 26261.2
 15 06 2013  22 22  -21.0351 26033.5 -03449.9 -07.5488 26261.1
 15 06 2013  22 23  -21.0351 26033.5 -03449.9 -07.5488 26261.1
 15 06 2013  22 24  -21.0350 26033.5 -03450.0 -07.5489 26261.1
 15 06 2013  22 25  -21.0350 26033.4 -03450.0 -07.5489 26261.0
 15 06 2013  22 26  -21.0351 26033.4 -03450.0 -07.5490 26261.0
 15 06 2013  22 27  -21.0352 26033.3 -03450.0 -07.5490 26260.9
 15 06 2013  22 28  -21.0355 26033.3 -03450.0 -07.5491 26261.0
 15 06 2013  22 29  -21.0358 26033.3 -03450.1 -07.5492 26260.9
 15 06 2013  22 30  -21.0361 26033.2 -03450.1 -07.5491 26260.8
 15 06 2013  22 31  -21.0361 26033.1 -03450.0 -07.5491 26260.7
 15 06 2013  22 32  -21.0363 26033.1 -03450.1 -07.5492 26260.7
 15 06 2013  22 33  -21.0363 26033.1 -03450.1 -07.5493 26260.7
 15 06 2013  22 34  -21.0365 26033.0 -03450.0 -07.5491 26260.6
 15 06 2013  22 35  -21.0362 26032.9 -03450.0 -07.5491 26260.5
 15 06 2013  22 36  -21.0362 26032.9 -03450.0 -07.5491 26260.5
 15 06 2013  22 37  -21.0364 26032.8 -03450.0 -07.5491 26260.4
 15 06 2013  22 38  -21.0364 26032.8 -03450.0 -07.5492 26260.5
 15 06 2013  22 39  -21.0362 26032.8 -03450.1 -07.5493 26260.5
 15 06 2013  22 40  -21.0361 26032.8 -03450.1 -07.5492 26260.4
 15 06 2013  22 41  -21.0362 26032.7 -03450.1 -07.5493 26260.3
 15 06 2013  22 42  -21.0359 26032.7 -03450.1 -07.5493 26260.4
 15 06 2013  22 43  -21.0358 26032.7 -03450.1 -07.5494 26260.3
 15 06 2013  22 44  -21.0356 26032.7 -03450.1 -07.5494 26260.3
 15 06 2013  22 45  -21.0354 26032.7 -03450.1 -07.5494 26260.3
 15 06 2013  22 46  -21.0352 26032.8 -03450.2 -07.5496 26260.4
 15 06 2013  22 47  -21.0351 26032.8 -03450.3 -07.5498 26260.4
 15 06 2013  22 48  -21.0352 26032.8 -03450.4 -07.5499 26260.4
 15 06 2013  22 49  -21.0352 26032.8 -03450.4 -07.5500 26260.5
 15 06 2013  22 50  -21.0356 26032.8 -03450.4 -07.5501 26260.5
 15 06 2013  22 51  -21.0358 26032.7 -03450.4 -07.5501 26260.4
 15 06 2013  22 52  -21.0359 26032.6 -03450.4 -07.5500 26260.3
 15 06 2013  22 53  -21.0359 26032.6 -03450.4 -07.5500 26260.3
 15 06 2013  22 54  -21.0357 26032.7 -03450.4 -07.5501 26260.4
 15 06 2013  22 55  -21.0358 26032.7 -03450.5 -07.5502 26260.4
 15 06 2013  22 56  -21.0355 26032.7 -03450.5 -07.5502 26260.3
 15 06 2013  22 57  -21.0354 26032.6 -03450.5 -07.5502 26260.3
 15 06 2013  22 58  -21.0351 26032.6 -03450.5 -07.5502 26260.3
 15 06 2013  22 59  -21.0352 26032.5 -03450.5 -07.5503 26260.2
 15 06 2013  23 00  -21.0353 26032.6 -03450.6 -07.5504 26260.2
 15 06 2013  23 01  -21.0355 26032.5 -03450.6 -07.5506 26260.2
 15 06 2013  23 02  -21.0356 26032.5 -03450.7 -07.5507 26260.3
 15 06 2013  23 03  -21.0359 26032.6 -03450.7 -07.5508 26260.4
 15 06 2013  23 04  -21.0359 26032.5 -03450.7 -07.5507 26260.2
 15 06 2013  23 05  -21.0360 26032.3 -03450.6 -07.5505 26260.0
 15 06 2013  23 06  -21.0360 26032.3 -03450.6 -07.5506 26260.0
 15 06 2013  23 07  -21.0361 26032.2 -03450.6 -07.5506 26259.9
 15 06 2013  23 08  -21.0358 26032.4 -03450.7 -07.5507 26260.1
 15 06 2013  23 09  -21.0359 26032.2 -03450.6 -07.5506 26259.8
 15 06 2013  23 10  -21.0358 26032.2 -03450.7 -07.5507 26259.9
 15 06 2013  23 11  -21.0357 26032.3 -03450.7 -07.5509 26260.0
 15 06 2013  23 12  -21.0355 26031.9 -03450.6 -07.5507 26259.6
 15 06 2013  23 13  -21.0350 26031.8 -03450.5 -07.5506 26259.5
 15 06 2013  23 14  -21.0349 26032.1 -03450.7 -07.5509 26259.8
 15 06 2013  23 15  -21.0352 26032.0 -03450.7 -07.5510 26259.7
 15 06 2013  23 16  -21.0351 26032.1 -03450.8 -07.5511 26259.8
 15 06 2013  23 17  -21.0355 26032.1 -03450.9 -07.5512 26259.9
 15 06 2013  23 18  -21.0353 26032.2 -03450.9 -07.5513 26259.9
 15 06 2013  23 19  -21.0353 26032.1 -03450.9 -07.5512 26259.9
 15 06 2013  23 20  -21.0353 26032.1 -03450.9 -07.5513 26259.9
 15 06 2013  23 21  -21.0352 26032.1 -03450.9 -07.5513 26259.9
 15 06 2013  23 22  -21.0352 26032.0 -03450.9 -07.5513 26259.8
 15 06 2013  23 23  -21.0353 26032.0 -03450.9 -07.5513 26259.8
 15 06 2013  23 24  -21.0355 26031.8 -03450.8 -07.5512 26259.6
 15 06 2013  23 25  -21.0354 26031.7 -03450.8 -07.5512 26259.4
 15 06 2013  23 26  -21.0353 26031.7 -03450.7 -07.5510 26259.4
 15 06 2013  23 27  -21.0356 26031.7 -03450.8 -07.5511 26259.4
 15 06 2013  23 28  -21.0355 26031.7 -03450.8 -07.5512 26259.5
 15 06 2013  23 29  -21.0355 26031.8 -03450.9 -07.5513 26259.5
 15 06 2013  23 30  -21.0356 26032.0 -03451.0 -07.5514 26259.7
 15 06 2013  23 31  -21.0358 26031.9 -03451.0 -07.5515 26259.7
 15 06 2013  23 32  -21.0357 26031.9 -03451.0 -07.5514 26259.7
 15 06 2013  23 33  -21.0353 26031.9 -03450.9 -07.5514 26259.7
 15 06 2013  23 34  -21.0349 26031.9 -03450.9 -07.5514 26259.6
 15 06 2013  23 35  -21.0351 26031.9 -03451.0 -07.5515 26259.7
 15 06 2013  23 36  -21.0352 26032.0 -03451.0 -07.5516 26259.7
 15 06 2013  23 37  -21.0351 26032.2 -03451.1 -07.5518 26259.9
 15 06 2013  23 38  -21.0344 26032.1 -03451.1 -07.5516 26259.9
 15 06 2013  23 39  -21.0339 26032.1 -03451.1 -07.5516 26259.9
 15 06 2013  23 40  -21.0338 26032.3 -03451.2 -07.5518 26260.1
 15 06 2013  23 41  -21.0336 26032.5 -03451.3 -07.5520 26260.3
 15 06 2013  23 42  -21.0334 26032.7 -03451.4 -07.5522 26260.5
 15 06 2013  23 43  -21.0333 26032.2 -03451.2 -07.5519 26260.0
 15 06 2013  23 44  -21.0327 26033.0 -03451.5 -07.5524 26260.8
 15 06 2013  23 45  -21.0326 26032.8 -03451.5 -07.5525 26260.7
 15 06 2013  23 46  -21.0322 26033.1 -03451.6 -07.5526 26260.9
 15 06 2013  23 47  -21.0325 26032.8 -03451.6 -07.5526 26260.6
 15 06 2013  23 48  -21.0321 26032.9 -03451.6 -07.5525 26260.7
 15 06 2013  23 49  -21.0319 26033.2 -03451.8 -07.5528 26261.1
 15 06 2013  23 50  -21.0320 26033.4 -03451.9 -07.5530 26261.2
 15 06 2013  23 51  -21.0320 26033.4 -03451.9 -07.5530 26261.2
 15 06 2013  23 52  -21.0321 26033.3 -03451.8 -07.5529 26261.1
 15 06 2013  23 53  -21.0316 26033.3 -03451.8 -07.5529 26261.2
 15 06 2013  23 54  -21.0314 26033.5 -03451.9 -07.5530 26261.3
 15 06 2013  23 55  -21.0315 26033.4 -03451.9 -07.5531 26261.3
 15 06 2013  23 56  -21.0316 26033.5 -03452.0 -07.5532 26261.4
 15 06 2013  23 57  -21.0319 26033.5 -03452.0 -07.5533 26261.4
 15 06 2013  23 58  -21.0317 26033.4 -03452.0 -07.5532 26261.3
