SAO LUIS EMBRACE-03 <168> 1 Min. Reported data

 DD MM YYYY  HH MM   D(Deg)  H(nT)   Z(nT)   I(Deg)   F(nT)

 17 06 2013  00 00  -21.0301 26036.5 -03451.7 -07.5517 26264.3
 17 06 2013  00 01  -21.0300 26036.4 -03451.7 -07.5517 26264.2
 17 06 2013  00 02  -21.0299 26036.3 -03451.7 -07.5517 26264.1
 17 06 2013  00 03  -21.0298 26036.3 -03451.6 -07.5517 26264.1
 17 06 2013  00 04  -21.0296 26036.2 -03451.6 -07.5517 26264.0
 17 06 2013  00 05  -21.0294 26036.2 -03451.7 -07.5518 26264.0
 17 06 2013  00 06  -21.0293 26036.0 -03451.6 -07.5517 26263.8
 17 06 2013  00 07  -21.0291 26035.9 -03451.6 -07.5517 26263.7
 17 06 2013  00 08  -21.0290 26035.8 -03451.6 -07.5517 26263.6
 17 06 2013  00 09  -21.0288 26035.7 -03451.6 -07.5518 26263.5
 17 06 2013  00 10  -21.0289 26035.7 -03451.6 -07.5519 26263.5
 17 06 2013  00 11  -21.0292 26035.6 -03451.7 -07.5520 26263.4
 17 06 2013  00 12  -21.0293 26035.7 -03451.7 -07.5520 26263.5
 17 06 2013  00 13  -21.0295 26035.6 -03451.8 -07.5521 26263.5
 17 06 2013  00 14  -21.0297 26035.6 -03451.8 -07.5522 26263.5
 17 06 2013  00 15  -21.0297 26035.6 -03451.8 -07.5523 26263.4
 17 06 2013  00 16  -21.0297 26035.6 -03451.8 -07.5523 26263.4
 17 06 2013  00 17  -21.0296 26035.6 -03451.8 -07.5523 26263.4
 17 06 2013  00 18  -21.0295 26035.5 -03451.8 -07.5523 26263.4
 17 06 2013  00 19  -21.0295 26035.6 -03451.9 -07.5524 26263.4
 17 06 2013  00 20  -21.0296 26035.6 -03451.9 -07.5525 26263.5
 17 06 2013  00 21  -21.0297 26035.6 -03452.0 -07.5526 26263.5
 17 06 2013  00 22  -21.0298 26035.6 -03452.0 -07.5526 26263.5
 17 06 2013  00 23  -21.0298 26035.7 -03452.0 -07.5527 26263.5
 17 06 2013  00 24  -21.0296 26035.7 -03452.0 -07.5527 26263.5
 17 06 2013  00 25  -21.0295 26035.6 -03452.0 -07.5527 26263.5
 17 06 2013  00 26  -21.0294 26035.5 -03452.0 -07.5526 26263.4
 17 06 2013  00 27  -21.0294 26035.5 -03452.0 -07.5528 26263.4
 17 06 2013  00 28  -21.0293 26035.5 -03452.0 -07.5526 26263.3
 17 06 2013  00 29  -21.0294 26035.3 -03451.9 -07.5526 26263.2
 17 06 2013  00 30  -21.0296 26035.3 -03452.0 -07.5527 26263.2
 17 06 2013  00 31  -21.0296 26035.2 -03452.0 -07.5527 26263.1
 17 06 2013  00 32  -21.0297 26035.2 -03452.0 -07.5527 26263.0
 17 06 2013  00 33  -21.0298 26035.2 -03452.0 -07.5528 26263.0
 17 06 2013  00 34  -21.0302 26035.1 -03452.0 -07.5528 26263.0
 17 06 2013  00 35  -21.0303 26035.2 -03452.0 -07.5528 26263.0
 17 06 2013  00 36  -21.0301 26035.2 -03452.0 -07.5528 26263.1
 17 06 2013  00 37  -21.0300 26035.3 -03452.0 -07.5528 26263.1
 17 06 2013  00 38  -21.0302 26035.1 -03452.0 -07.5528 26263.0
 17 06 2013  00 39  -21.0302 26034.9 -03451.9 -07.5527 26262.8
 17 06 2013  00 40  -21.0301 26034.9 -03451.9 -07.5526 26262.7
 17 06 2013  00 41  -21.0300 26035.0 -03451.9 -07.5527 26262.8
 17 06 2013  00 42  -21.0300 26034.9 -03451.9 -07.5527 26262.8
 17 06 2013  00 43  -21.0300 26034.9 -03452.0 -07.5527 26262.8
 17 06 2013  00 44  -21.0299 26034.9 -03452.0 -07.5528 26262.8
 17 06 2013  00 45  -21.0300 26034.9 -03452.0 -07.5528 26262.8
 17 06 2013  00 46  -21.0301 26035.0 -03452.0 -07.5528 26262.8
 17 06 2013  00 47  -21.0300 26035.0 -03452.0 -07.5529 26262.8
 17 06 2013  00 48  -21.0300 26035.0 -03452.0 -07.5529 26262.8
 17 06 2013  00 49  -21.0300 26035.1 -03452.1 -07.5530 26263.0
 17 06 2013  00 50  -21.0302 26035.0 -03452.1 -07.5531 26262.9
 17 06 2013  00 51  -21.0302 26035.0 -03452.1 -07.5530 26262.9
 17 06 2013  00 52  -21.0301 26035.0 -03452.1 -07.5530 26262.9
 17 06 2013  00 53  -21.0301 26035.0 -03452.1 -07.5530 26262.8
 17 06 2013  00 54  -21.0301 26035.0 -03452.1 -07.5530 26262.8
 17 06 2013  00 55  -21.0301 26034.9 -03452.1 -07.5530 26262.8
 17 06 2013  00 56  -21.0300 26034.8 -03452.0 -07.5529 26262.7
 17 06 2013  00 57  -21.0300 26034.8 -03452.0 -07.5529 26262.7
 17 06 2013  00 58  -21.0300 26034.8 -03452.1 -07.5531 26262.7
 17 06 2013  00 59  -21.0300 26034.8 -03452.1 -07.5531 26262.7
 17 06 2013  01 00  -21.0299 26034.8 -03452.1 -07.5531 26262.6
 17 06 2013  01 01  -21.0299 26034.7 -03452.1 -07.5531 26262.6
 17 06 2013  01 02  -21.0298 26034.8 -03452.1 -07.5531 26262.7
 17 06 2013  01 03  -21.0298 26034.8 -03452.1 -07.5532 26262.7
 17 06 2013  01 04  -21.0300 26034.8 -03452.1 -07.5532 26262.6
 17 06 2013  01 05  -21.0300 26034.7 -03452.1 -07.5532 26262.6
 17 06 2013  01 06  -21.0300 26034.7 -03452.1 -07.5532 26262.6
 17 06 2013  01 07  -21.0300 26034.7 -03452.1 -07.5532 26262.6
 17 06 2013  01 08  -21.0299 26034.7 -03452.2 -07.5533 26262.6
 17 06 2013  01 09  -21.0297 26034.8 -03452.2 -07.5533 26262.6
 17 06 2013  01 10  -21.0296 26034.8 -03452.2 -07.5533 26262.7
 17 06 2013  01 11  -21.0296 26034.9 -03452.3 -07.5534 26262.8
 17 06 2013  01 12  -21.0296 26034.9 -03452.3 -07.5535 26262.8
 17 06 2013  01 13  -21.0296 26034.9 -03452.3 -07.5535 26262.8
 17 06 2013  01 14  -21.0297 26034.9 -03452.3 -07.5536 26262.8
 17 06 2013  01 15  -21.0300 26035.0 -03452.4 -07.5536 26262.9
 17 06 2013  01 16  -21.0301 26035.0 -03452.4 -07.5536 26262.9
 17 06 2013  01 17  -21.0300 26035.1 -03452.4 -07.5537 26263.0
 17 06 2013  01 18  -21.0299 26035.1 -03452.4 -07.5537 26263.0
 17 06 2013  01 19  -21.0300 26035.1 -03452.4 -07.5537 26263.0
 17 06 2013  01 20  -21.0299 26035.2 -03452.5 -07.5538 26263.1
 17 06 2013  01 21  -21.0298 26035.2 -03452.5 -07.5538 26263.1
 17 06 2013  01 22  -21.0300 26035.2 -03452.5 -07.5538 26263.1
 17 06 2013  01 23  -21.0301 26035.1 -03452.5 -07.5538 26263.1
 17 06 2013  01 24  -21.0302 26035.2 -03452.5 -07.5538 26263.1
 17 06 2013  01 25  -21.0301 26035.1 -03452.5 -07.5538 26263.0
 17 06 2013  01 26  -21.0300 26035.0 -03452.5 -07.5538 26263.0
 17 06 2013  01 27  -21.0300 26035.0 -03452.5 -07.5538 26262.9
 17 06 2013  01 28  -21.0299 26035.0 -03452.4 -07.5538 26262.9
 17 06 2013  01 29  -21.0298 26035.0 -03452.4 -07.5538 26262.9
 17 06 2013  01 30  -21.0297 26034.9 -03452.4 -07.5538 26262.8
 17 06 2013  01 31  -21.0294 26034.9 -03452.4 -07.5537 26262.8
 17 06 2013  01 32  -21.0291 26034.8 -03452.4 -07.5537 26262.7
 17 06 2013  01 33  -21.0291 26034.7 -03452.3 -07.5536 26262.6
 17 06 2013  01 34  -21.0290 26034.6 -03452.3 -07.5536 26262.5
 17 06 2013  01 35  -21.0290 26034.5 -03452.3 -07.5536 26262.4
 17 06 2013  01 36  -21.0290 26034.3 -03452.3 -07.5536 26262.2
 17 06 2013  01 37  -21.0291 26034.2 -03452.3 -07.5536 26262.1
 17 06 2013  01 38  -21.0292 26034.1 -03452.3 -07.5537 26262.0
 17 06 2013  01 39  -21.0294 26034.0 -03452.2 -07.5536 26261.9
 17 06 2013  01 40  -21.0295 26033.8 -03452.2 -07.5535 26261.7
 17 06 2013  01 41  -21.0294 26033.7 -03452.1 -07.5534 26261.6
 17 06 2013  01 42  -21.0292 26033.6 -03452.1 -07.5534 26261.5
 17 06 2013  01 43  -21.0291 26033.6 -03452.1 -07.5535 26261.5
 17 06 2013  01 44  -21.0291 26033.5 -03452.1 -07.5535 26261.4
 17 06 2013  01 45  -21.0291 26033.5 -03452.1 -07.5535 26261.4
 17 06 2013  01 46  -21.0289 26033.5 -03452.2 -07.5536 26261.4
 17 06 2013  01 47  -21.0290 26033.4 -03452.1 -07.5536 26261.3
 17 06 2013  01 48  -21.0292 26033.3 -03452.1 -07.5536 26261.2
 17 06 2013  01 49  -21.0294 26033.2 -03452.2 -07.5537 26261.1
 17 06 2013  01 50  -21.0297 26033.1 -03452.1 -07.5536 26260.9
 17 06 2013  01 51  -21.0298 26032.9 -03452.0 -07.5535 26260.7
 17 06 2013  01 52  -21.0298 26032.6 -03452.0 -07.5534 26260.5
 17 06 2013  01 53  -21.0298 26032.5 -03451.9 -07.5533 26260.4
 17 06 2013  01 54  -21.0298 26032.4 -03451.9 -07.5533 26260.2
 17 06 2013  01 55  -21.0299 26032.2 -03451.8 -07.5532 26260.0
 17 06 2013  01 56  -21.0301 26032.1 -03451.8 -07.5532 26259.9
 17 06 2013  01 57  -21.0302 26032.0 -03451.8 -07.5532 26259.9
 17 06 2013  01 58  -21.0302 26032.0 -03451.8 -07.5532 26259.8
 17 06 2013  01 59  -21.0301 26031.9 -03451.7 -07.5532 26259.7
 17 06 2013  02 00  -21.0299 26031.8 -03451.7 -07.5532 26259.7
 17 06 2013  02 01  -21.0298 26031.8 -03451.8 -07.5532 26259.6
 17 06 2013  02 02  -21.0297 26031.8 -03451.8 -07.5532 26259.6
 17 06 2013  02 03  -21.0296 26031.7 -03451.7 -07.5532 26259.5
 17 06 2013  02 04  -21.0295 26031.6 -03451.7 -07.5532 26259.4
 17 06 2013  02 05  -21.0292 26031.7 -03451.8 -07.5533 26259.5
 17 06 2013  02 06  -21.0291 26031.6 -03451.8 -07.5534 26259.5
 17 06 2013  02 07  -21.0292 26031.6 -03451.8 -07.5534 26259.5
 17 06 2013  02 08  -21.0292 26031.6 -03451.9 -07.5535 26259.5
 17 06 2013  02 09  -21.0292 26031.6 -03451.9 -07.5536 26259.4
 17 06 2013  02 10  -21.0293 26031.4 -03451.8 -07.5535 26259.3
 17 06 2013  02 11  -21.0293 26031.3 -03451.8 -07.5535 26259.2
 17 06 2013  02 12  -21.0292 26031.3 -03451.8 -07.5535 26259.2
 17 06 2013  02 13  -21.0292 26031.3 -03451.9 -07.5536 26259.2
 17 06 2013  02 14  -21.0293 26031.3 -03451.9 -07.5537 26259.1
 17 06 2013  02 15  -21.0295 26031.2 -03451.9 -07.5536 26259.0
 17 06 2013  02 16  -21.0297 26031.1 -03451.9 -07.5537 26259.0
 17 06 2013  02 17  -21.0297 26031.0 -03451.9 -07.5537 26258.9
 17 06 2013  02 18  -21.0298 26030.9 -03451.8 -07.5536 26258.8
 17 06 2013  02 19  -21.0300 26030.9 -03451.9 -07.5537 26258.8
 17 06 2013  02 20  -21.0301 26030.9 -03451.9 -07.5538 26258.8
 17 06 2013  02 21  -21.0300 26030.9 -03451.8 -07.5537 26258.7
 17 06 2013  02 22  -21.0299 26030.8 -03451.8 -07.5537 26258.7
 17 06 2013  02 23  -21.0301 26030.7 -03451.8 -07.5537 26258.6
 17 06 2013  02 24  -21.0303 26030.6 -03451.8 -07.5536 26258.5
 17 06 2013  02 25  -21.0304 26030.6 -03451.8 -07.5537 26258.5
 17 06 2013  02 26  -21.0305 26030.6 -03451.8 -07.5536 26258.5
 17 06 2013  02 27  -21.0303 26030.6 -03451.8 -07.5536 26258.5
 17 06 2013  02 28  -21.0302 26030.6 -03451.8 -07.5536 26258.4
 17 06 2013  02 29  -21.0302 26030.4 -03451.7 -07.5534 26258.2
 17 06 2013  02 30  -21.0304 26030.3 -03451.7 -07.5534 26258.1
 17 06 2013  02 31  -21.0305 26030.2 -03451.6 -07.5534 26258.1
 17 06 2013  02 32  -21.0304 26030.1 -03451.6 -07.5533 26257.9
 17 06 2013  02 33  -21.0304 26029.9 -03451.5 -07.5533 26257.7
 17 06 2013  02 34  -21.0303 26029.8 -03451.5 -07.5532 26257.6
 17 06 2013  02 35  -21.0301 26029.6 -03451.4 -07.5531 26257.4
 17 06 2013  02 36  -21.0299 26029.3 -03451.3 -07.5529 26257.1
 17 06 2013  02 37  -21.0299 26029.2 -03451.3 -07.5529 26257.0
 17 06 2013  02 38  -21.0298 26029.1 -03451.3 -07.5529 26256.9
 17 06 2013  02 39  -21.0296 26029.2 -03451.4 -07.5531 26257.0
 17 06 2013  02 40  -21.0295 26029.6 -03451.6 -07.5535 26257.4
 17 06 2013  02 41  -21.0296 26029.3 -03451.6 -07.5535 26257.2
 17 06 2013  02 42  -21.0297 26029.1 -03451.5 -07.5533 26257.0
 17 06 2013  02 43  -21.0298 26029.1 -03451.4 -07.5533 26256.9
 17 06 2013  02 44  -21.0299 26028.9 -03451.4 -07.5532 26256.7
 17 06 2013  02 45  -21.0297 26029.0 -03451.4 -07.5533 26256.8
 17 06 2013  02 46  -21.0298 26028.8 -03451.4 -07.5532 26256.7
 17 06 2013  02 47  -21.0295 26029.2 -03451.5 -07.5535 26257.0
 17 06 2013  02 48  -21.0295 26029.0 -03451.5 -07.5534 26256.8
 17 06 2013  02 49  -21.0295 26029.1 -03451.5 -07.5535 26256.9
 17 06 2013  02 50  -21.0295 26029.2 -03451.6 -07.5536 26257.0
 17 06 2013  02 51  -21.0294 26029.2 -03451.6 -07.5537 26257.1
 17 06 2013  02 52  -21.0290 26029.2 -03451.6 -07.5536 26257.0
 17 06 2013  02 53  -21.0286 26029.0 -03451.5 -07.5535 26256.9
 17 06 2013  02 54  -21.0282 26029.3 -03451.7 -07.5537 26257.2
 17 06 2013  02 55  -21.0277 26029.7 -03451.9 -07.5540 26257.6
 17 06 2013  02 56  -21.0277 26029.5 -03451.8 -07.5540 26257.4
 17 06 2013  02 57  -21.0273 26029.6 -03451.9 -07.5541 26257.5
 17 06 2013  02 58  -21.0274 26029.5 -03451.8 -07.5540 26257.4
 17 06 2013  02 59  -21.0274 26029.7 -03451.9 -07.5542 26257.6
 17 06 2013  03 00  -21.0275 26029.4 -03451.8 -07.5540 26257.2
 17 06 2013  03 01  -21.0273 26029.7 -03451.9 -07.5542 26257.5
 17 06 2013  03 02  -21.0269 26030.1 -03452.2 -07.5546 26258.0
 17 06 2013  03 03  -21.0269 26030.1 -03452.2 -07.5546 26258.0
 17 06 2013  03 04  -21.0270 26030.0 -03452.2 -07.5546 26257.9
 17 06 2013  03 05  -21.0271 26030.0 -03452.2 -07.5546 26257.9
 17 06 2013  03 06  -21.0273 26030.0 -03452.2 -07.5546 26258.0
 17 06 2013  03 07  -21.0275 26030.0 -03452.2 -07.5546 26258.0
 17 06 2013  03 08  -21.0274 26030.2 -03452.3 -07.5548 26258.2
 17 06 2013  03 09  -21.0272 26030.2 -03452.2 -07.5547 26258.1
 17 06 2013  03 10  -21.0271 26030.2 -03452.2 -07.5546 26258.1
 17 06 2013  03 11  -21.0270 26030.3 -03452.3 -07.5548 26258.2
 17 06 2013  03 12  -21.0272 26030.1 -03452.2 -07.5547 26258.1
 17 06 2013  03 13  -21.0273 26030.1 -03452.2 -07.5547 26258.1
 17 06 2013  03 14  -21.0273 26030.1 -03452.2 -07.5547 26258.0
 17 06 2013  03 15  -21.0273 26030.0 -03452.2 -07.5546 26257.9
 17 06 2013  03 16  -21.0272 26029.9 -03452.1 -07.5545 26257.8
 17 06 2013  03 17  -21.0270 26029.8 -03452.0 -07.5544 26257.7
 17 06 2013  03 18  -21.0269 26029.7 -03452.0 -07.5544 26257.6
 17 06 2013  03 19  -21.0269 26029.8 -03452.0 -07.5544 26257.7
 17 06 2013  03 20  -21.0268 26029.9 -03452.1 -07.5545 26257.8
 17 06 2013  03 21  -21.0269 26030.0 -03452.2 -07.5547 26257.9
 17 06 2013  03 22  -21.0269 26029.9 -03452.2 -07.5547 26257.9
 17 06 2013  03 23  -21.0269 26029.9 -03452.2 -07.5546 26257.9
 17 06 2013  03 24  -21.0270 26029.9 -03452.2 -07.5547 26257.8
 17 06 2013  03 25  -21.0270 26029.8 -03452.1 -07.5546 26257.7
 17 06 2013  03 26  -21.0270 26029.8 -03452.1 -07.5545 26257.7
 17 06 2013  03 27  -21.0270 26029.9 -03452.1 -07.5546 26257.8
 17 06 2013  03 28  -21.0268 26029.9 -03452.1 -07.5546 26257.8
 17 06 2013  03 29  -21.0267 26029.9 -03452.1 -07.5545 26257.8
 17 06 2013  03 30  -21.0267 26029.9 -03452.1 -07.5546 26257.8
 17 06 2013  03 31  -21.0268 26029.9 -03452.1 -07.5546 26257.8
 17 06 2013  03 32  -21.0268 26029.8 -03452.1 -07.5545 26257.8
 17 06 2013  03 33  -21.0269 26029.8 -03452.0 -07.5544 26257.7
 17 06 2013  03 34  -21.0271 26029.8 -03452.1 -07.5545 26257.8
 17 06 2013  03 35  -21.0272 26029.7 -03452.0 -07.5544 26257.6
 17 06 2013  03 36  -21.0274 26029.6 -03452.0 -07.5543 26257.5
 17 06 2013  03 37  -21.0276 26029.6 -03452.0 -07.5543 26257.5
 17 06 2013  03 38  -21.0277 26029.5 -03452.0 -07.5543 26257.4
 17 06 2013  03 39  -21.0279 26029.5 -03451.9 -07.5542 26257.4
 17 06 2013  03 40  -21.0281 26029.7 -03452.0 -07.5543 26257.6
 17 06 2013  03 41  -21.0284 26029.8 -03452.0 -07.5544 26257.7
 17 06 2013  03 42  -21.0287 26029.8 -03452.0 -07.5544 26257.7
 17 06 2013  03 43  -21.0289 26029.9 -03452.1 -07.5544 26257.8
 17 06 2013  03 44  -21.0290 26029.8 -03452.0 -07.5543 26257.7
 17 06 2013  03 45  -21.0289 26029.9 -03452.0 -07.5543 26257.8
 17 06 2013  03 46  -21.0286 26029.9 -03452.0 -07.5542 26257.8
 17 06 2013  03 47  -21.0283 26030.0 -03451.9 -07.5541 26257.9
 17 06 2013  03 48  -21.0283 26030.0 -03452.0 -07.5541 26257.9
 17 06 2013  03 49  -21.0283 26030.2 -03452.0 -07.5542 26258.1
 17 06 2013  03 50  -21.0282 26030.2 -03452.0 -07.5542 26258.1
 17 06 2013  03 51  -21.0281 26030.4 -03452.1 -07.5543 26258.3
 17 06 2013  03 52  -21.0279 26030.4 -03452.1 -07.5543 26258.3
 17 06 2013  03 53  -21.0278 26030.5 -03452.1 -07.5542 26258.4
 17 06 2013  03 54  -21.0278 26030.4 -03452.0 -07.5541 26258.3
 17 06 2013  03 55  -21.0280 26030.2 -03451.9 -07.5540 26258.1
 17 06 2013  03 56  -21.0279 26030.2 -03451.9 -07.5539 26258.0
 17 06 2013  03 57  -21.0277 26030.0 -03451.8 -07.5538 26257.9
 17 06 2013  03 58  -21.0278 26029.9 -03451.7 -07.5537 26257.8
 17 06 2013  03 59  -21.0279 26029.8 -03451.7 -07.5536 26257.7
 17 06 2013  04 00  -21.0279 26029.7 -03451.6 -07.5535 26257.5
 17 06 2013  04 01  -21.0279 26029.5 -03451.5 -07.5534 26257.4
 17 06 2013  04 02  -21.0280 26029.5 -03451.5 -07.5533 26257.3
 17 06 2013  04 03  -21.0284 26029.5 -03451.5 -07.5534 26257.3
 17 06 2013  04 04  -21.0288 26029.5 -03451.6 -07.5535 26257.3
 17 06 2013  04 05  -21.0292 26029.4 -03451.6 -07.5535 26257.2
 17 06 2013  04 06  -21.0294 26029.3 -03451.5 -07.5533 26257.1
 17 06 2013  04 07  -21.0295 26029.1 -03451.4 -07.5532 26257.0
 17 06 2013  04 08  -21.0294 26029.0 -03451.3 -07.5530 26256.8
 17 06 2013  04 09  -21.0292 26028.9 -03451.3 -07.5530 26256.8
 17 06 2013  04 10  -21.0291 26028.9 -03451.2 -07.5529 26256.7
 17 06 2013  04 11  -21.0289 26028.9 -03451.2 -07.5529 26256.7
 17 06 2013  04 12  -21.0287 26028.8 -03451.2 -07.5529 26256.6
 17 06 2013  04 13  -21.0286 26028.7 -03451.2 -07.5529 26256.5
 17 06 2013  04 14  -21.0286 26028.7 -03451.2 -07.5529 26256.5
 17 06 2013  04 15  -21.0285 26028.7 -03451.2 -07.5530 26256.5
 17 06 2013  04 16  -21.0285 26028.6 -03451.2 -07.5529 26256.4
 17 06 2013  04 17  -21.0284 26028.6 -03451.2 -07.5530 26256.4
 17 06 2013  04 18  -21.0284 26028.5 -03451.2 -07.5530 26256.3
 17 06 2013  04 19  -21.0282 26028.5 -03451.2 -07.5529 26256.3
 17 06 2013  04 20  -21.0281 26028.5 -03451.2 -07.5530 26256.3
 17 06 2013  04 21  -21.0280 26028.4 -03451.2 -07.5530 26256.2
 17 06 2013  04 22  -21.0278 26028.4 -03451.2 -07.5530 26256.2
 17 06 2013  04 23  -21.0277 26028.4 -03451.2 -07.5531 26256.2
 17 06 2013  04 24  -21.0276 26028.4 -03451.3 -07.5532 26256.2
 17 06 2013  04 25  -21.0275 26028.5 -03451.4 -07.5533 26256.3
 17 06 2013  04 26  -21.0275 26028.5 -03451.4 -07.5533 26256.3
 17 06 2013  04 27  -21.0273 26028.4 -03451.4 -07.5534 26256.2
 17 06 2013  04 28  -21.0272 26028.4 -03451.3 -07.5533 26256.2
 17 06 2013  04 29  -21.0271 26028.4 -03451.4 -07.5534 26256.2
 17 06 2013  04 30  -21.0271 26028.3 -03451.4 -07.5534 26256.2
 17 06 2013  04 31  -21.0270 26028.3 -03451.4 -07.5534 26256.2
 17 06 2013  04 32  -21.0270 26028.3 -03451.4 -07.5534 26256.1
 17 06 2013  04 33  -21.0270 26028.3 -03451.4 -07.5535 26256.1
 17 06 2013  04 34  -21.0269 26028.3 -03451.5 -07.5536 26256.1
 17 06 2013  04 35  -21.0269 26028.2 -03451.5 -07.5536 26256.1
 17 06 2013  04 36  -21.0268 26028.3 -03451.5 -07.5537 26256.1
 17 06 2013  04 37  -21.0267 26028.2 -03451.5 -07.5537 26256.0
 17 06 2013  04 38  -21.0267 26028.2 -03451.5 -07.5537 26256.1
 17 06 2013  04 39  -21.0268 26028.2 -03451.5 -07.5538 26256.0
 17 06 2013  04 40  -21.0269 26028.2 -03451.6 -07.5538 26256.1
 17 06 2013  04 41  -21.0269 26028.2 -03451.6 -07.5538 26256.1
 17 06 2013  04 42  -21.0270 26028.3 -03451.6 -07.5539 26256.1
 17 06 2013  04 43  -21.0269 26028.2 -03451.6 -07.5539 26256.1
 17 06 2013  04 44  -21.0268 26028.2 -03451.6 -07.5540 26256.0
 17 06 2013  04 45  -21.0267 26028.2 -03451.6 -07.5540 26256.1
 17 06 2013  04 46  -21.0268 26028.2 -03451.6 -07.5540 26256.0
 17 06 2013  04 47  -21.0267 26028.1 -03451.6 -07.5540 26256.0
 17 06 2013  04 48  -21.0266 26028.1 -03451.6 -07.5540 26256.0
 17 06 2013  04 49  -21.0265 26028.1 -03451.7 -07.5541 26256.0
 17 06 2013  04 50  -21.0264 26028.1 -03451.7 -07.5541 26256.0
 17 06 2013  04 51  -21.0263 26028.1 -03451.7 -07.5541 26256.0
 17 06 2013  04 52  -21.0261 26028.1 -03451.7 -07.5541 26255.9
 17 06 2013  04 53  -21.0259 26028.1 -03451.7 -07.5542 26255.9
 17 06 2013  04 54  -21.0259 26028.0 -03451.7 -07.5541 26255.9
 17 06 2013  04 55  -21.0261 26028.0 -03451.7 -07.5542 26255.9
 17 06 2013  04 56  -21.0261 26028.0 -03451.7 -07.5542 26255.9
 17 06 2013  04 57  -21.0260 26028.0 -03451.7 -07.5543 26255.9
 17 06 2013  04 58  -21.0259 26028.0 -03451.8 -07.5543 26255.9
 17 06 2013  04 59  -21.0260 26028.0 -03451.8 -07.5544 26255.8
 17 06 2013  05 00  -21.0259 26028.1 -03451.8 -07.5544 26256.0
 17 06 2013  05 01  -21.0261 26028.1 -03451.9 -07.5545 26256.0
 17 06 2013  05 02  -21.0263 26028.2 -03451.9 -07.5546 26256.1
 17 06 2013  05 03  -21.0264 26028.3 -03452.0 -07.5548 26256.2
 17 06 2013  05 04  -21.0264 26028.3 -03452.0 -07.5547 26256.2
 17 06 2013  05 05  -21.0263 26028.3 -03452.0 -07.5548 26256.2
 17 06 2013  05 06  -21.0263 26028.4 -03452.0 -07.5548 26256.3
 17 06 2013  05 07  -21.0263 26028.5 -03452.1 -07.5549 26256.4
 17 06 2013  05 08  -21.0264 26028.4 -03452.1 -07.5549 26256.4
 17 06 2013  05 09  -21.0265 26028.5 -03452.1 -07.5549 26256.4
 17 06 2013  05 10  -21.0265 26028.6 -03452.2 -07.5550 26256.5
 17 06 2013  05 11  -21.0264 26028.6 -03452.2 -07.5550 26256.5
 17 06 2013  05 12  -21.0261 26028.8 -03452.2 -07.5551 26256.7
 17 06 2013  05 13  -21.0260 26028.8 -03452.2 -07.5551 26256.7
 17 06 2013  05 14  -21.0258 26028.9 -03452.3 -07.5552 26256.9
 17 06 2013  05 15  -21.0259 26028.8 -03452.3 -07.5552 26256.8
 17 06 2013  05 16  -21.0257 26028.9 -03452.4 -07.5553 26256.9
 17 06 2013  05 17  -21.0258 26028.9 -03452.4 -07.5554 26256.9
 17 06 2013  05 18  -21.0258 26029.0 -03452.4 -07.5554 26257.0
 17 06 2013  05 19  -21.0259 26029.1 -03452.5 -07.5555 26257.0
 17 06 2013  05 20  -21.0261 26029.1 -03452.5 -07.5555 26257.1
 17 06 2013  05 21  -21.0260 26029.2 -03452.5 -07.5556 26257.2
 17 06 2013  05 22  -21.0260 26029.1 -03452.5 -07.5555 26257.1
 17 06 2013  05 23  -21.0260 26029.1 -03452.5 -07.5556 26257.1
 17 06 2013  05 24  -21.0258 26029.2 -03452.5 -07.5555 26257.2
 17 06 2013  05 25  -21.0257 26029.1 -03452.4 -07.5554 26257.1
 17 06 2013  05 26  -21.0254 26029.2 -03452.5 -07.5555 26257.2
 17 06 2013  05 27  -21.0254 26029.2 -03452.5 -07.5555 26257.1
 17 06 2013  05 28  -21.0253 26029.2 -03452.5 -07.5556 26257.2
 17 06 2013  05 29  -21.0253 26029.2 -03452.5 -07.5556 26257.2
 17 06 2013  05 30  -21.0255 26029.2 -03452.5 -07.5556 26257.2
 17 06 2013  05 31  -21.0256 26029.2 -03452.5 -07.5556 26257.2
 17 06 2013  05 32  -21.0256 26029.2 -03452.5 -07.5556 26257.1
 17 06 2013  05 33  -21.0257 26029.1 -03452.5 -07.5555 26257.1
 17 06 2013  05 34  -21.0258 26029.1 -03452.4 -07.5555 26257.1
 17 06 2013  05 35  -21.0260 26029.1 -03452.5 -07.5555 26257.1
 17 06 2013  05 36  -21.0259 26029.0 -03452.4 -07.5555 26257.0
 17 06 2013  05 37  -21.0260 26029.1 -03452.5 -07.5556 26257.1
 17 06 2013  05 38  -21.0259 26029.2 -03452.5 -07.5555 26257.2
 17 06 2013  05 39  -21.0261 26029.1 -03452.5 -07.5555 26257.1
 17 06 2013  05 40  -21.0259 26029.3 -03452.5 -07.5556 26257.2
 17 06 2013  05 41  -21.0259 26029.2 -03452.5 -07.5556 26257.2
 17 06 2013  05 42  -21.0259 26029.2 -03452.5 -07.5556 26257.2
 17 06 2013  05 43  -21.0259 26029.3 -03452.5 -07.5556 26257.3
 17 06 2013  05 44  -21.0259 26029.5 -03452.6 -07.5557 26257.4
 17 06 2013  05 45  -21.0260 26029.3 -03452.5 -07.5556 26257.3
 17 06 2013  05 46  -21.0259 26029.9 -03452.8 -07.5560 26257.9
 17 06 2013  05 47  -21.0259 26030.1 -03452.9 -07.5562 26258.1
 17 06 2013  05 48  -21.0256 26030.4 -03453.0 -07.5563 26258.4
 17 06 2013  05 49  -21.0256 26030.3 -03453.0 -07.5563 26258.3
 17 06 2013  05 50  -21.0254 26030.5 -03453.0 -07.5563 26258.5
 17 06 2013  05 51  -21.0254 26030.5 -03453.0 -07.5564 26258.5
 17 06 2013  05 52  -21.0252 26030.5 -03453.0 -07.5562 26258.5
 17 06 2013  05 53  -21.0252 26030.5 -03453.0 -07.5562 26258.5
 17 06 2013  05 54  -21.0252 26030.4 -03452.9 -07.5561 26258.4
 17 06 2013  05 55  -21.0250 26030.4 -03452.8 -07.5560 26258.4
 17 06 2013  05 56  -21.0248 26030.5 -03452.9 -07.5561 26258.5
 17 06 2013  05 57  -21.0247 26030.8 -03453.1 -07.5563 26258.8
 17 06 2013  05 58  -21.0246 26030.9 -03453.1 -07.5563 26259.0
 17 06 2013  05 59  -21.0241 26031.8 -03453.5 -07.5570 26259.9
 17 06 2013  06 00  -21.0240 26031.9 -03453.5 -07.5569 26259.9
 17 06 2013  06 01  -21.0238 26032.2 -03453.6 -07.5572 26260.3
 17 06 2013  06 02  -21.0236 26032.2 -03453.6 -07.5570 26260.3
 17 06 2013  06 03  -21.0236 26032.4 -03453.7 -07.5572 26260.5
 17 06 2013  06 04  -21.0237 26032.2 -03453.5 -07.5570 26260.3
 17 06 2013  06 05  -21.0235 26032.3 -03453.5 -07.5569 26260.4
 17 06 2013  06 06  -21.0235 26032.2 -03453.5 -07.5568 26260.3
 17 06 2013  06 07  -21.0234 26032.2 -03453.5 -07.5568 26260.3
 17 06 2013  06 08  -21.0233 26032.2 -03453.4 -07.5567 26260.2
 17 06 2013  06 09  -21.0232 26032.1 -03453.4 -07.5566 26260.2
 17 06 2013  06 10  -21.0232 26032.1 -03453.3 -07.5565 26260.1
 17 06 2013  06 11  -21.0231 26032.0 -03453.3 -07.5564 26260.0
 17 06 2013  06 12  -21.0229 26031.9 -03453.2 -07.5563 26260.0
 17 06 2013  06 13  -21.0228 26031.8 -03453.1 -07.5561 26259.8
 17 06 2013  06 14  -21.0226 26031.8 -03453.1 -07.5562 26259.8
 17 06 2013  06 15  -21.0224 26031.7 -03453.1 -07.5562 26259.7
 17 06 2013  06 16  -21.0222 26031.7 -03453.1 -07.5561 26259.7
 17 06 2013  06 17  -21.0222 26031.6 -03453.1 -07.5561 26259.6
 17 06 2013  06 18  -21.0222 26031.6 -03453.1 -07.5561 26259.6
 17 06 2013  06 19  -21.0222 26031.5 -03453.0 -07.5561 26259.5
 17 06 2013  06 20  -21.0222 26031.4 -03453.0 -07.5560 26259.4
 17 06 2013  06 21  -21.0221 26031.3 -03453.0 -07.5560 26259.3
 17 06 2013  06 22  -21.0220 26031.3 -03453.0 -07.5560 26259.3
 17 06 2013  06 23  -21.0219 26031.2 -03452.9 -07.5559 26259.2
 17 06 2013  06 24  -21.0219 26031.1 -03452.9 -07.5559 26259.1
 17 06 2013  06 25  -21.0220 26031.1 -03452.9 -07.5559 26259.1
 17 06 2013  06 26  -21.0220 26031.0 -03452.9 -07.5559 26259.0
 17 06 2013  06 27  -21.0221 26030.9 -03452.9 -07.5560 26258.9
 17 06 2013  06 28  -21.0221 26030.8 -03452.9 -07.5559 26258.8
 17 06 2013  06 29  -21.0221 26030.8 -03452.8 -07.5558 26258.8
 17 06 2013  06 30  -21.0220 26030.7 -03452.8 -07.5559 26258.7
 17 06 2013  06 31  -21.0220 26030.6 -03452.8 -07.5559 26258.6
 17 06 2013  06 32  -21.0221 26030.7 -03452.9 -07.5559 26258.7
 17 06 2013  06 33  -21.0224 26030.7 -03452.9 -07.5559 26258.7
 17 06 2013  06 34  -21.0225 26030.7 -03452.9 -07.5560 26258.7
 17 06 2013  06 35  -21.0224 26030.7 -03452.9 -07.5560 26258.7
 17 06 2013  06 36  -21.0223 26030.6 -03452.8 -07.5559 26258.6
 17 06 2013  06 37  -21.0221 26030.5 -03452.8 -07.5559 26258.5
 17 06 2013  06 38  -21.0220 26030.4 -03452.8 -07.5558 26258.3
 17 06 2013  06 39  -21.0218 26030.3 -03452.7 -07.5558 26258.3
 17 06 2013  06 40  -21.0217 26030.2 -03452.7 -07.5557 26258.2
 17 06 2013  06 41  -21.0216 26030.2 -03452.7 -07.5557 26258.2
 17 06 2013  06 42  -21.0215 26030.1 -03452.7 -07.5557 26258.1
 17 06 2013  06 43  -21.0215 26030.0 -03452.7 -07.5557 26258.0
 17 06 2013  06 44  -21.0216 26030.0 -03452.7 -07.5558 26258.0
 17 06 2013  06 45  -21.0215 26029.9 -03452.7 -07.5557 26257.9
 17 06 2013  06 46  -21.0214 26029.9 -03452.7 -07.5558 26257.8
 17 06 2013  06 47  -21.0213 26029.8 -03452.7 -07.5558 26257.8
 17 06 2013  06 48  -21.0211 26029.7 -03452.6 -07.5557 26257.7
 17 06 2013  06 49  -21.0209 26029.6 -03452.6 -07.5557 26257.6
 17 06 2013  06 50  -21.0206 26029.8 -03452.7 -07.5558 26257.8
 17 06 2013  06 51  -21.0205 26029.6 -03452.6 -07.5557 26257.6
 17 06 2013  06 52  -21.0204 26029.8 -03452.7 -07.5559 26257.8
 17 06 2013  06 53  -21.0205 26029.7 -03452.7 -07.5559 26257.7
 17 06 2013  06 54  -21.0206 26029.7 -03452.8 -07.5560 26257.7
 17 06 2013  06 55  -21.0206 26029.6 -03452.7 -07.5559 26257.6
 17 06 2013  06 56  -21.0206 26029.6 -03452.7 -07.5559 26257.6
 17 06 2013  06 57  -21.0206 26029.6 -03452.7 -07.5560 26257.6
 17 06 2013  06 58  -21.0206 26029.5 -03452.7 -07.5559 26257.5
 17 06 2013  06 59  -21.0206 26029.6 -03452.7 -07.5559 26257.6
 17 06 2013  07 00  -21.0205 26029.5 -03452.7 -07.5560 26257.5
 17 06 2013  07 01  -21.0205 26029.5 -03452.7 -07.5560 26257.5
 17 06 2013  07 02  -21.0205 26029.6 -03452.7 -07.5560 26257.6
 17 06 2013  07 03  -21.0204 26029.6 -03452.7 -07.5560 26257.6
 17 06 2013  07 04  -21.0204 26029.6 -03452.7 -07.5560 26257.6
 17 06 2013  07 05  -21.0203 26029.5 -03452.8 -07.5561 26257.5
 17 06 2013  07 06  -21.0202 26029.5 -03452.8 -07.5561 26257.5
 17 06 2013  07 07  -21.0202 26029.5 -03452.8 -07.5561 26257.5
 17 06 2013  07 08  -21.0202 26029.6 -03452.8 -07.5561 26257.6
 17 06 2013  07 09  -21.0201 26029.6 -03452.8 -07.5562 26257.6
 17 06 2013  07 10  -21.0200 26029.5 -03452.8 -07.5561 26257.5
 17 06 2013  07 11  -21.0198 26029.5 -03452.8 -07.5561 26257.5
 17 06 2013  07 12  -21.0197 26029.4 -03452.7 -07.5560 26257.4
 17 06 2013  07 13  -21.0196 26029.4 -03452.7 -07.5560 26257.4
 17 06 2013  07 14  -21.0195 26029.3 -03452.7 -07.5560 26257.3
 17 06 2013  07 15  -21.0195 26029.3 -03452.7 -07.5561 26257.3
 17 06 2013  07 16  -21.0195 26029.2 -03452.7 -07.5561 26257.2
 17 06 2013  07 17  -21.0194 26029.1 -03452.7 -07.5559 26257.1
 17 06 2013  07 18  -21.0194 26029.0 -03452.7 -07.5559 26257.0
 17 06 2013  07 19  -21.0194 26029.0 -03452.6 -07.5559 26256.9
 17 06 2013  07 20  -21.0192 26028.8 -03452.6 -07.5559 26256.8
 17 06 2013  07 21  -21.0191 26028.8 -03452.6 -07.5559 26256.8
 17 06 2013  07 22  -21.0191 26028.9 -03452.7 -07.5561 26256.9
 17 06 2013  07 23  -21.0192 26028.9 -03452.7 -07.5561 26256.9
 17 06 2013  07 24  -21.0191 26028.9 -03452.7 -07.5561 26257.0
 17 06 2013  07 25  -21.0190 26028.9 -03452.7 -07.5561 26256.9
 17 06 2013  07 26  -21.0188 26028.9 -03452.7 -07.5561 26256.9
 17 06 2013  07 27  -21.0186 26028.8 -03452.7 -07.5561 26256.8
 17 06 2013  07 28  -21.0186 26028.8 -03452.7 -07.5561 26256.8
 17 06 2013  07 29  -21.0184 26028.7 -03452.7 -07.5561 26256.7
 17 06 2013  07 30  -21.0182 26028.7 -03452.7 -07.5561 26256.7
 17 06 2013  07 31  -21.0180 26028.8 -03452.7 -07.5561 26256.8
 17 06 2013  07 32  -21.0179 26028.7 -03452.7 -07.5561 26256.7
 17 06 2013  07 33  -21.0176 26028.7 -03452.7 -07.5562 26256.7
 17 06 2013  07 34  -21.0174 26028.7 -03452.7 -07.5561 26256.7
 17 06 2013  07 35  -21.0171 26028.7 -03452.7 -07.5562 26256.7
 17 06 2013  07 36  -21.0167 26028.7 -03452.7 -07.5562 26256.7
 17 06 2013  07 37  -21.0164 26028.8 -03452.8 -07.5563 26256.8
 17 06 2013  07 38  -21.0161 26028.8 -03452.8 -07.5563 26256.8
 17 06 2013  07 39  -21.0156 26028.8 -03452.8 -07.5563 26256.8
 17 06 2013  07 40  -21.0152 26028.8 -03452.8 -07.5563 26256.8
 17 06 2013  07 41  -21.0147 26028.7 -03452.8 -07.5564 26256.8
 17 06 2013  07 42  -21.0142 26028.8 -03452.9 -07.5565 26256.8
 17 06 2013  07 43  -21.0138 26028.7 -03452.9 -07.5565 26256.8
 17 06 2013  07 44  -21.0133 26028.7 -03452.9 -07.5565 26256.7
 17 06 2013  07 45  -21.0130 26028.8 -03452.9 -07.5566 26256.8
 17 06 2013  07 46  -21.0128 26028.8 -03453.0 -07.5567 26256.9
 17 06 2013  07 47  -21.0126 26028.8 -03453.0 -07.5567 26256.8
 17 06 2013  07 48  -21.0122 26028.9 -03453.1 -07.5569 26256.9
 17 06 2013  07 49  -21.0118 26028.9 -03453.1 -07.5569 26257.0
 17 06 2013  07 50  -21.0117 26028.8 -03453.1 -07.5570 26256.9
 17 06 2013  07 51  -21.0112 26028.9 -03453.2 -07.5571 26257.0
 17 06 2013  07 52  -21.0113 26029.0 -03453.2 -07.5571 26257.0
 17 06 2013  07 53  -21.0112 26029.1 -03453.3 -07.5573 26257.1
 17 06 2013  07 54  -21.0111 26029.0 -03453.3 -07.5573 26257.1
 17 06 2013  07 55  -21.0110 26029.0 -03453.3 -07.5573 26257.0
 17 06 2013  07 56  -21.0109 26029.1 -03453.3 -07.5574 26257.2
 17 06 2013  07 57  -21.0109 26029.2 -03453.4 -07.5576 26257.3
 17 06 2013  07 58  -21.0109 26029.2 -03453.4 -07.5576 26257.3
 17 06 2013  07 59  -21.0110 26029.3 -03453.5 -07.5577 26257.4
 17 06 2013  08 00  -21.0109 26029.4 -03453.5 -07.5576 26257.5
 17 06 2013  08 01  -21.0110 26029.5 -03453.6 -07.5578 26257.6
 17 06 2013  08 02  -21.0110 26029.6 -03453.6 -07.5579 26257.7
 17 06 2013  08 03  -21.0113 26029.7 -03453.7 -07.5581 26257.8
 17 06 2013  08 04  -21.0114 26029.8 -03453.8 -07.5581 26258.0
 17 06 2013  08 05  -21.0117 26029.8 -03453.8 -07.5581 26258.0
 17 06 2013  08 06  -21.0120 26029.9 -03453.8 -07.5582 26258.0
 17 06 2013  08 07  -21.0118 26030.0 -03453.8 -07.5582 26258.1
 17 06 2013  08 08  -21.0118 26029.9 -03453.8 -07.5581 26258.0
 17 06 2013  08 09  -21.0117 26030.1 -03453.8 -07.5581 26258.2
 17 06 2013  08 10  -21.0115 26030.2 -03453.8 -07.5581 26258.3
 17 06 2013  08 11  -21.0116 26030.4 -03453.9 -07.5582 26258.5
 17 06 2013  08 12  -21.0115 26030.4 -03453.9 -07.5582 26258.5
 17 06 2013  08 13  -21.0115 26030.4 -03453.9 -07.5582 26258.5
 17 06 2013  08 14  -21.0116 26030.5 -03453.9 -07.5583 26258.6
 17 06 2013  08 15  -21.0117 26030.1 -03453.8 -07.5580 26258.3
 17 06 2013  08 16  -21.0118 26030.3 -03453.8 -07.5581 26258.5
 17 06 2013  08 17  -21.0115 26030.6 -03453.9 -07.5581 26258.7
 17 06 2013  08 18  -21.0110 26030.6 -03453.8 -07.5580 26258.8
 17 06 2013  08 19  -21.0107 26030.7 -03453.8 -07.5580 26258.9
 17 06 2013  08 20  -21.0104 26030.7 -03453.8 -07.5579 26258.8
 17 06 2013  08 21  -21.0102 26031.0 -03453.9 -07.5582 26259.2
 17 06 2013  08 22  -21.0097 26031.3 -03454.0 -07.5582 26259.4
 17 06 2013  08 23  -21.0095 26031.4 -03454.1 -07.5583 26259.6
 17 06 2013  08 24  -21.0091 26031.5 -03454.1 -07.5584 26259.7
 17 06 2013  08 25  -21.0088 26031.7 -03454.2 -07.5586 26259.9
 17 06 2013  08 26  -21.0087 26031.9 -03454.3 -07.5587 26260.1
 17 06 2013  08 27  -21.0086 26032.1 -03454.4 -07.5588 26260.3
 17 06 2013  08 28  -21.0083 26032.2 -03454.5 -07.5589 26260.4
 17 06 2013  08 29  -21.0079 26032.4 -03454.5 -07.5589 26260.6
 17 06 2013  08 30  -21.0076 26032.6 -03454.6 -07.5590 26260.8
 17 06 2013  08 31  -21.0072 26032.6 -03454.5 -07.5589 26260.8
 17 06 2013  08 32  -21.0069 26032.4 -03454.5 -07.5589 26260.6
 17 06 2013  08 33  -21.0069 26032.7 -03454.5 -07.5589 26260.9
 17 06 2013  08 34  -21.0065 26032.7 -03454.5 -07.5589 26260.9
 17 06 2013  08 35  -21.0064 26032.9 -03454.6 -07.5590 26261.1
 17 06 2013  08 36  -21.0060 26033.2 -03454.7 -07.5591 26261.4
 17 06 2013  08 37  -21.0058 26033.4 -03454.7 -07.5591 26261.6
 17 06 2013  08 38  -21.0056 26033.4 -03454.7 -07.5591 26261.6
 17 06 2013  08 39  -21.0057 26033.5 -03454.7 -07.5592 26261.7
 17 06 2013  08 40  -21.0056 26033.7 -03454.8 -07.5592 26262.0
 17 06 2013  08 41  -21.0050 26033.6 -03454.6 -07.5588 26261.8
 17 06 2013  08 42  -21.0046 26033.8 -03454.6 -07.5588 26262.0
 17 06 2013  08 43  -21.0041 26033.7 -03454.6 -07.5587 26261.9
 17 06 2013  08 44  -21.0039 26033.8 -03454.6 -07.5588 26262.0
 17 06 2013  08 45  -21.0038 26034.0 -03454.8 -07.5591 26262.2
 17 06 2013  08 46  -21.0035 26034.1 -03454.8 -07.5590 26262.3
 17 06 2013  08 47  -21.0032 26034.3 -03454.9 -07.5593 26262.5
 17 06 2013  08 48  -21.0028 26034.4 -03455.0 -07.5594 26262.6
 17 06 2013  08 49  -21.0024 26034.4 -03454.9 -07.5593 26262.6
 17 06 2013  08 50  -21.0021 26034.3 -03454.9 -07.5593 26262.5
 17 06 2013  08 51  -21.0020 26034.1 -03454.8 -07.5592 26262.3
 17 06 2013  08 52  -21.0018 26034.1 -03454.8 -07.5592 26262.3
 17 06 2013  08 53  -21.0016 26034.2 -03454.9 -07.5593 26262.4
 17 06 2013  08 54  -21.0014 26034.4 -03455.0 -07.5594 26262.7
 17 06 2013  08 55  -21.0009 26034.5 -03455.0 -07.5593 26262.8
 17 06 2013  08 56  -21.0004 26034.6 -03455.0 -07.5593 26262.8
 17 06 2013  08 57  -20.9999 26034.7 -03455.0 -07.5593 26263.0
 17 06 2013  08 58  -20.9995 26034.8 -03455.0 -07.5593 26263.0
 17 06 2013  08 59  -20.9993 26034.8 -03455.0 -07.5594 26263.1
 17 06 2013  09 00  -20.9989 26035.0 -03455.1 -07.5595 26263.3
 17 06 2013  09 01  -20.9986 26035.1 -03455.2 -07.5597 26263.4
 17 06 2013  09 02  -20.9982 26035.2 -03455.2 -07.5597 26263.5
 17 06 2013  09 03  -20.9975 26035.2 -03455.2 -07.5597 26263.5
 17 06 2013  09 04  -20.9966 26035.2 -03455.2 -07.5596 26263.5
 17 06 2013  09 05  -20.9959 26035.3 -03455.2 -07.5596 26263.5
 17 06 2013  09 06  -20.9954 26035.3 -03455.2 -07.5596 26263.5
 17 06 2013  09 07  -20.9950 26035.3 -03455.2 -07.5597 26263.5
 17 06 2013  09 08  -20.9945 26035.3 -03455.3 -07.5598 26263.6
 17 06 2013  09 09  -20.9939 26035.2 -03455.2 -07.5598 26263.5
 17 06 2013  09 10  -20.9933 26035.1 -03455.2 -07.5598 26263.4
 17 06 2013  09 11  -20.9927 26035.1 -03455.3 -07.5598 26263.4
 17 06 2013  09 12  -20.9922 26035.0 -03455.3 -07.5599 26263.3
 17 06 2013  09 13  -20.9916 26034.9 -03455.3 -07.5600 26263.2
 17 06 2013  09 14  -20.9907 26034.7 -03455.2 -07.5599 26263.0
 17 06 2013  09 15  -20.9901 26034.7 -03455.3 -07.5600 26263.0
 17 06 2013  09 16  -20.9894 26034.6 -03455.4 -07.5602 26262.9
 17 06 2013  09 17  -20.9892 26034.5 -03455.4 -07.5603 26262.8
 17 06 2013  09 18  -20.9890 26034.4 -03455.5 -07.5605 26262.8
 17 06 2013  09 19  -20.9890 26034.4 -03455.7 -07.5609 26262.7
 17 06 2013  09 20  -20.9891 26034.4 -03455.9 -07.5614 26262.7
 17 06 2013  09 21  -20.9892 26034.4 -03456.1 -07.5618 26262.8
 17 06 2013  09 22  -20.9893 26034.4 -03456.2 -07.5621 26262.8
 17 06 2013  09 23  -20.9892 26034.5 -03456.4 -07.5626 26262.9
 17 06 2013  09 24  -20.9891 26034.6 -03456.6 -07.5629 26263.0
 17 06 2013  09 25  -20.9889 26034.6 -03456.7 -07.5632 26263.1
 17 06 2013  09 26  -20.9886 26034.6 -03456.9 -07.5636 26263.1
 17 06 2013  09 27  -20.9880 26034.8 -03457.1 -07.5639 26263.3
 17 06 2013  09 28  -20.9877 26034.7 -03457.2 -07.5641 26263.2
 17 06 2013  09 29  -20.9872 26034.7 -03457.3 -07.5643 26263.3
 17 06 2013  09 30  -20.9868 26034.8 -03457.4 -07.5646 26263.3
 17 06 2013  09 31  -20.9867 26034.7 -03457.5 -07.5648 26263.2
 17 06 2013  09 32  -20.9868 26034.6 -03457.6 -07.5650 26263.1
 17 06 2013  09 33  -20.9867 26034.5 -03457.7 -07.5653 26263.1
 17 06 2013  09 34  -20.9866 26034.5 -03457.8 -07.5655 26263.1
 17 06 2013  09 35  -20.9865 26034.5 -03457.9 -07.5657 26263.1
 17 06 2013  09 36  -20.9863 26034.5 -03458.0 -07.5659 26263.2
 17 06 2013  09 37  -20.9864 26034.5 -03458.1 -07.5662 26263.2
 17 06 2013  09 38  -20.9865 26034.5 -03458.2 -07.5664 26263.2
 17 06 2013  09 39  -20.9866 26034.5 -03458.4 -07.5668 26263.2
 17 06 2013  09 40  -20.9869 26034.5 -03458.5 -07.5671 26263.2
 17 06 2013  09 41  -20.9867 26034.6 -03458.7 -07.5673 26263.3
 17 06 2013  09 42  -20.9865 26034.7 -03458.8 -07.5676 26263.5
 17 06 2013  09 43  -20.9864 26034.8 -03459.0 -07.5679 26263.6
 17 06 2013  09 44  -20.9863 26034.9 -03459.1 -07.5682 26263.7
 17 06 2013  09 45  -20.9864 26035.1 -03459.3 -07.5686 26263.9
 17 06 2013  09 46  -20.9866 26035.2 -03459.4 -07.5688 26264.0
 17 06 2013  09 47  -20.9867 26035.2 -03459.6 -07.5691 26264.1
 17 06 2013  09 48  -20.9866 26035.3 -03459.7 -07.5693 26264.2
 17 06 2013  09 49  -20.9866 26035.4 -03459.8 -07.5696 26264.3
 17 06 2013  09 50  -20.9865 26035.5 -03460.0 -07.5699 26264.4
 17 06 2013  09 51  -20.9865 26035.6 -03460.1 -07.5701 26264.5
 17 06 2013  09 52  -20.9864 26035.7 -03460.2 -07.5703 26264.6
 17 06 2013  09 53  -20.9862 26035.8 -03460.3 -07.5705 26264.7
 17 06 2013  09 54  -20.9861 26035.8 -03460.3 -07.5706 26264.8
 17 06 2013  09 55  -20.9861 26035.8 -03460.4 -07.5706 26264.8
 17 06 2013  09 56  -20.9861 26035.8 -03460.4 -07.5707 26264.8
 17 06 2013  09 57  -20.9860 26035.8 -03460.4 -07.5708 26264.8
 17 06 2013  09 58  -20.9859 26035.9 -03460.5 -07.5709 26264.8
 17 06 2013  09 59  -20.9858 26035.9 -03460.5 -07.5710 26264.8
 17 06 2013  10 00  -20.9860 26035.8 -03460.6 -07.5711 26264.8
 17 06 2013  10 01  -20.9864 26035.8 -03460.6 -07.5712 26264.8
 17 06 2013  10 02  -20.9869 26035.7 -03460.7 -07.5714 26264.7
 17 06 2013  10 03  -20.9872 26035.7 -03460.8 -07.5716 26264.7
 17 06 2013  10 04  -20.9873 26035.7 -03460.9 -07.5719 26264.7
 17 06 2013  10 05  -20.9873 26035.8 -03461.0 -07.5721 26264.8
 17 06 2013  10 06  -20.9876 26035.8 -03461.1 -07.5723 26264.8
 17 06 2013  10 07  -20.9878 26035.9 -03461.2 -07.5725 26264.9
 17 06 2013  10 08  -20.9879 26036.0 -03461.3 -07.5726 26265.0
 17 06 2013  10 09  -20.9879 26036.0 -03461.4 -07.5728 26265.0
 17 06 2013  10 10  -20.9880 26035.9 -03461.5 -07.5730 26265.0
 17 06 2013  10 11  -20.9880 26036.0 -03461.5 -07.5731 26265.1
 17 06 2013  10 12  -20.9882 26035.9 -03461.6 -07.5733 26265.0
 17 06 2013  10 13  -20.9885 26036.0 -03461.7 -07.5735 26265.1
 17 06 2013  10 14  -20.9886 26036.2 -03461.8 -07.5737 26265.3
 17 06 2013  10 15  -20.9885 26036.3 -03461.9 -07.5738 26265.4
 17 06 2013  10 16  -20.9886 26036.4 -03461.9 -07.5739 26265.5
 17 06 2013  10 17  -20.9887 26036.4 -03462.0 -07.5741 26265.6
 17 06 2013  10 18  -20.9891 26036.5 -03462.1 -07.5742 26265.6
 17 06 2013  10 19  -20.9895 26036.5 -03462.1 -07.5742 26265.7
 17 06 2013  10 20  -20.9898 26036.6 -03462.2 -07.5744 26265.8
 17 06 2013  10 21  -20.9900 26036.7 -03462.3 -07.5745 26265.9
 17 06 2013  10 22  -20.9903 26036.8 -03462.3 -07.5746 26266.0
 17 06 2013  10 23  -20.9909 26036.8 -03462.4 -07.5748 26266.0
 17 06 2013  10 24  -20.9914 26036.9 -03462.5 -07.5750 26266.1
 17 06 2013  10 25  -20.9918 26037.0 -03462.6 -07.5751 26266.2
 17 06 2013  10 26  -20.9920 26037.1 -03462.6 -07.5751 26266.3
 17 06 2013  10 27  -20.9921 26037.2 -03462.7 -07.5752 26266.4
 17 06 2013  10 28  -20.9923 26037.2 -03462.7 -07.5753 26266.4
 17 06 2013  10 29  -20.9925 26037.3 -03462.7 -07.5754 26266.5
 17 06 2013  10 30  -20.9928 26037.4 -03462.8 -07.5755 26266.6
 17 06 2013  10 31  -20.9930 26037.4 -03462.8 -07.5755 26266.7
 17 06 2013  10 32  -20.9932 26037.5 -03462.8 -07.5755 26266.8
 17 06 2013  10 33  -20.9932 26037.7 -03462.9 -07.5756 26267.0
 17 06 2013  10 34  -20.9930 26037.9 -03463.0 -07.5757 26267.2
 17 06 2013  10 35  -20.9926 26038.2 -03463.0 -07.5757 26267.5
 17 06 2013  10 36  -20.9924 26038.4 -03463.1 -07.5757 26267.7
 17 06 2013  10 37  -20.9920 26038.7 -03463.1 -07.5757 26267.9
 17 06 2013  10 38  -20.9921 26038.7 -03463.1 -07.5757 26268.0
 17 06 2013  10 39  -20.9922 26038.9 -03463.1 -07.5757 26268.2
 17 06 2013  10 40  -20.9924 26039.2 -03463.2 -07.5757 26268.5
 17 06 2013  10 41  -20.9927 26039.4 -03463.2 -07.5758 26268.7
 17 06 2013  10 42  -20.9931 26039.6 -03463.2 -07.5757 26268.9
 17 06 2013  10 43  -20.9933 26039.9 -03463.2 -07.5757 26269.2
 17 06 2013  10 44  -20.9937 26040.1 -03463.3 -07.5757 26269.4
 17 06 2013  10 45  -20.9940 26040.3 -03463.3 -07.5757 26269.5
 17 06 2013  10 46  -20.9939 26040.3 -03463.2 -07.5756 26269.6
 17 06 2013  10 47  -20.9941 26040.4 -03463.2 -07.5756 26269.7
 17 06 2013  10 48  -20.9944 26040.5 -03463.3 -07.5756 26269.8
 17 06 2013  10 49  -20.9946 26040.8 -03463.3 -07.5757 26270.0
 17 06 2013  10 50  -20.9947 26040.9 -03463.4 -07.5757 26270.2
 17 06 2013  10 51  -20.9948 26041.2 -03463.4 -07.5758 26270.5
 17 06 2013  10 52  -20.9950 26041.4 -03463.4 -07.5757 26270.7
 17 06 2013  10 53  -20.9949 26041.7 -03463.4 -07.5756 26271.0
 17 06 2013  10 54  -20.9951 26041.9 -03463.4 -07.5756 26271.2
 17 06 2013  10 55  -20.9952 26042.2 -03463.5 -07.5756 26271.5
 17 06 2013  10 56  -20.9954 26042.3 -03463.5 -07.5756 26271.6
 17 06 2013  10 57  -20.9957 26042.4 -03463.4 -07.5754 26271.7
 17 06 2013  10 58  -20.9959 26042.6 -03463.5 -07.5754 26271.9
 17 06 2013  10 59  -20.9961 26042.7 -03463.5 -07.5754 26272.0
 17 06 2013  11 00  -20.9963 26042.8 -03463.5 -07.5754 26272.1
 17 06 2013  11 01  -20.9965 26043.0 -03463.5 -07.5754 26272.3
 17 06 2013  11 02  -20.9967 26043.1 -03463.5 -07.5753 26272.4
 17 06 2013  11 03  -20.9968 26043.3 -03463.5 -07.5753 26272.6
 17 06 2013  11 04  -20.9973 26043.4 -03463.5 -07.5753 26272.7
 17 06 2013  11 05  -20.9979 26043.7 -03463.6 -07.5755 26273.0
 17 06 2013  11 06  -20.9984 26044.0 -03463.7 -07.5755 26273.3
 17 06 2013  11 07  -20.9988 26044.2 -03463.7 -07.5755 26273.5
 17 06 2013  11 08  -20.9992 26044.4 -03463.7 -07.5755 26273.7
 17 06 2013  11 09  -20.9996 26044.5 -03463.7 -07.5755 26273.8
 17 06 2013  11 10  -20.9995 26044.7 -03463.8 -07.5755 26274.0
 17 06 2013  11 11  -20.9996 26044.9 -03463.8 -07.5754 26274.2
 17 06 2013  11 12  -20.9994 26045.0 -03463.8 -07.5755 26274.3
 17 06 2013  11 13  -20.9992 26045.2 -03463.9 -07.5756 26274.5
 17 06 2013  11 14  -20.9994 26045.3 -03464.0 -07.5758 26274.7
 17 06 2013  11 15  -20.9995 26045.5 -03464.1 -07.5759 26274.9
 17 06 2013  11 16  -20.9997 26045.8 -03464.2 -07.5760 26275.2
 17 06 2013  11 17  -21.0000 26045.8 -03464.3 -07.5762 26275.2
 17 06 2013  11 18  -21.0004 26045.9 -03464.3 -07.5763 26275.3
 17 06 2013  11 19  -21.0007 26046.0 -03464.4 -07.5765 26275.4
 17 06 2013  11 20  -21.0012 26046.0 -03464.5 -07.5767 26275.4
 17 06 2013  11 21  -21.0019 26046.0 -03464.7 -07.5770 26275.4
 17 06 2013  11 22  -21.0020 26046.0 -03464.6 -07.5769 26275.4
 17 06 2013  11 23  -21.0023 26045.9 -03464.6 -07.5770 26275.3
 17 06 2013  11 24  -21.0024 26045.8 -03464.7 -07.5771 26275.2
 17 06 2013  11 25  -21.0024 26045.8 -03464.7 -07.5772 26275.2
 17 06 2013  11 26  -21.0025 26045.8 -03464.8 -07.5774 26275.3
 17 06 2013  11 27  -21.0026 26045.9 -03464.9 -07.5775 26275.4
 17 06 2013  11 28  -21.0028 26045.9 -03464.9 -07.5776 26275.4
 17 06 2013  11 29  -21.0029 26046.0 -03465.0 -07.5778 26275.5
 17 06 2013  11 30  -21.0031 26046.2 -03465.1 -07.5780 26275.6
 17 06 2013  11 31  -21.0034 26046.4 -03465.2 -07.5782 26275.9
 17 06 2013  11 32  -21.0037 26046.6 -03465.4 -07.5784 26276.1
 17 06 2013  11 33  -21.0042 26046.8 -03465.5 -07.5786 26276.4
 17 06 2013  11 34  -21.0046 26046.9 -03465.5 -07.5787 26276.4
 17 06 2013  11 35  -21.0047 26047.1 -03465.6 -07.5788 26276.6
 17 06 2013  11 36  -21.0049 26047.4 -03465.8 -07.5790 26276.9
 17 06 2013  11 37  -21.0051 26047.6 -03465.9 -07.5792 26277.2
 17 06 2013  11 38  -21.0046 26047.9 -03465.8 -07.5791 26277.5
 17 06 2013  11 39  -21.0047 26048.1 -03465.9 -07.5791 26277.7
 17 06 2013  11 40  -21.0057 26048.3 -03466.1 -07.5795 26277.9
 17 06 2013  11 41  -21.0055 26048.7 -03466.3 -07.5798 26278.3
 17 06 2013  11 42  -21.0055 26049.1 -03466.4 -07.5799 26278.8
 17 06 2013  11 43  -21.0056 26049.5 -03466.5 -07.5801 26279.1
 17 06 2013  11 44  -21.0056 26049.8 -03466.6 -07.5802 26279.5
 17 06 2013  11 45  -21.0058 26050.2 -03466.7 -07.5803 26279.8
 17 06 2013  11 46  -21.0060 26050.5 -03466.8 -07.5804 26280.1
 17 06 2013  11 47  -21.0063 26050.8 -03466.9 -07.5805 26280.4
 17 06 2013  11 48  -21.0065 26051.2 -03467.0 -07.5806 26280.9
 17 06 2013  11 49  -21.0066 26051.6 -03467.1 -07.5808 26281.3
 17 06 2013  11 50  -21.0068 26051.9 -03467.2 -07.5808 26281.6
 17 06 2013  11 51  -21.0072 26052.4 -03467.3 -07.5809 26282.1
 17 06 2013  11 52  -21.0074 26052.7 -03467.4 -07.5809 26282.4
 17 06 2013  11 53  -21.0074 26053.0 -03467.4 -07.5809 26282.7
 17 06 2013  11 54  -21.0076 26053.3 -03467.5 -07.5810 26283.0
 17 06 2013  11 55  -21.0080 26053.5 -03467.5 -07.5811 26283.3
 17 06 2013  11 56  -21.0088 26053.8 -03467.6 -07.5812 26283.6
 17 06 2013  11 57  -21.0095 26054.1 -03467.7 -07.5812 26283.9
 17 06 2013  11 58  -21.0097 26054.4 -03467.7 -07.5811 26284.1
 17 06 2013  11 59  -21.0097 26054.7 -03467.7 -07.5812 26284.5
 17 06 2013  12 00  -21.0104 26054.8 -03467.8 -07.5812 26284.6
 17 06 2013  12 01  -21.0110 26055.1 -03467.9 -07.5813 26284.9
 17 06 2013  12 02  -21.0113 26055.3 -03467.9 -07.5813 26285.1
 17 06 2013  12 03  -21.0116 26055.2 -03467.8 -07.5812 26284.9
 17 06 2013  12 04  -21.0123 26055.2 -03467.8 -07.5812 26285.0
 17 06 2013  12 05  -21.0128 26055.4 -03467.9 -07.5814 26285.1
 17 06 2013  12 06  -21.0131 26055.8 -03468.0 -07.5815 26285.5
 17 06 2013  12 07  -21.0135 26055.9 -03468.0 -07.5814 26285.7
 17 06 2013  12 08  -21.0142 26056.3 -03468.1 -07.5815 26286.1
 17 06 2013  12 09  -21.0149 26056.6 -03468.3 -07.5818 26286.4
 17 06 2013  12 10  -21.0160 26056.6 -03468.3 -07.5819 26286.4
 17 06 2013  12 11  -21.0165 26057.1 -03468.5 -07.5822 26287.0
 17 06 2013  12 12  -21.0168 26057.4 -03468.6 -07.5822 26287.3
 17 06 2013  12 13  -21.0169 26057.9 -03468.6 -07.5822 26287.7
 17 06 2013  12 14  -21.0171 26058.5 -03468.7 -07.5822 26288.4
 17 06 2013  12 15  -21.0173 26059.0 -03468.7 -07.5821 26288.8
 17 06 2013  12 16  -21.0175 26059.7 -03468.8 -07.5821 26289.6
 17 06 2013  12 17  -21.0179 26060.2 -03468.8 -07.5818 26290.1
 17 06 2013  12 18  -21.0183 26060.5 -03468.7 -07.5815 26290.4
 17 06 2013  12 19  -21.0188 26061.0 -03468.6 -07.5813 26290.8
 17 06 2013  12 20  -21.0194 26061.1 -03468.5 -07.5810 26290.9
 17 06 2013  12 21  -21.0201 26061.3 -03468.4 -07.5807 26291.0
 17 06 2013  12 22  -21.0206 26061.6 -03468.4 -07.5806 26291.4
 17 06 2013  12 23  -21.0211 26061.7 -03468.3 -07.5803 26291.4
 17 06 2013  12 24  -21.0217 26062.0 -03468.3 -07.5803 26291.8
 17 06 2013  12 25  -21.0223 26062.3 -03468.3 -07.5801 26292.1
 17 06 2013  12 26  -21.0229 26062.5 -03468.2 -07.5799 26292.3
 17 06 2013  12 27  -21.0235 26062.7 -03468.2 -07.5798 26292.5
 17 06 2013  12 28  -21.0241 26063.0 -03468.2 -07.5797 26292.8
 17 06 2013  12 29  -21.0246 26063.5 -03468.2 -07.5797 26293.2
 17 06 2013  12 30  -21.0251 26063.6 -03468.1 -07.5794 26293.3
 17 06 2013  12 31  -21.0254 26063.9 -03468.1 -07.5793 26293.6
 17 06 2013  12 32  -21.0258 26064.3 -03468.1 -07.5792 26294.0
 17 06 2013  12 33  -21.0264 26064.6 -03468.1 -07.5790 26294.3
 17 06 2013  12 34  -21.0272 26064.1 -03467.8 -07.5785 26293.8
 17 06 2013  12 35  -21.0280 26064.4 -03467.8 -07.5785 26294.1
 17 06 2013  12 36  -21.0289 26064.5 -03467.7 -07.5783 26294.1
 17 06 2013  12 37  -21.0296 26064.2 -03467.5 -07.5780 26293.9
 17 06 2013  12 38  -21.0302 26064.1 -03467.5 -07.5779 26293.8
 17 06 2013  12 39  -21.0309 26064.0 -03467.3 -07.5777 26293.6
 17 06 2013  12 40  -21.0315 26064.2 -03467.5 -07.5778 26293.8
 17 06 2013  12 41  -21.0321 26064.3 -03467.5 -07.5778 26293.9
 17 06 2013  12 42  -21.0327 26064.5 -03467.5 -07.5779 26294.2
 17 06 2013  12 43  -21.0333 26064.6 -03467.5 -07.5778 26294.2
 17 06 2013  12 44  -21.0340 26064.7 -03467.4 -07.5777 26294.3
 17 06 2013  12 45  -21.0346 26064.9 -03467.5 -07.5777 26294.5
 17 06 2013  12 46  -21.0351 26065.0 -03467.4 -07.5775 26294.6
 17 06 2013  12 47  -21.0358 26065.3 -03467.5 -07.5776 26294.9
 17 06 2013  12 48  -21.0365 26065.2 -03467.3 -07.5772 26294.8
 17 06 2013  12 49  -21.0370 26065.1 -03467.2 -07.5769 26294.7
 17 06 2013  12 50  -21.0377 26065.1 -03467.1 -07.5767 26294.7
 17 06 2013  12 51  -21.0384 26065.6 -03467.2 -07.5768 26295.2
 17 06 2013  12 52  -21.0390 26065.8 -03467.1 -07.5766 26295.4
 17 06 2013  12 53  -21.0397 26065.6 -03466.9 -07.5762 26295.1
 17 06 2013  12 54  -21.0403 26065.6 -03466.8 -07.5760 26295.1
 17 06 2013  12 55  -21.0409 26065.5 -03466.6 -07.5757 26295.1
 17 06 2013  12 56  -21.0414 26065.4 -03466.5 -07.5754 26294.9
 17 06 2013  12 57  -21.0419 26065.6 -03466.5 -07.5754 26295.1
 17 06 2013  12 58  -21.0424 26065.5 -03466.4 -07.5752 26295.0
 17 06 2013  12 59  -21.0431 26065.5 -03466.4 -07.5751 26295.0
 17 06 2013  13 00  -21.0438 26065.6 -03466.3 -07.5750 26295.0
 17 06 2013  13 01  -21.0445 26065.7 -03466.3 -07.5750 26295.2
 17 06 2013  13 02  -21.0451 26065.9 -03466.3 -07.5749 26295.4
 17 06 2013  13 03  -21.0456 26066.1 -03466.3 -07.5747 26295.5
 17 06 2013  13 04  -21.0461 26066.2 -03466.2 -07.5745 26295.6
 17 06 2013  13 05  -21.0483 26066.2 -03466.0 -07.5741 26295.6
 17 06 2013  13 06  -21.0516 26066.1 -03465.7 -07.5736 26295.4
 17 06 2013  13 07  -21.0522 26065.9 -03465.6 -07.5733 26295.3
 17 06 2013  13 08  -21.0526 26066.3 -03465.6 -07.5733 26295.7
 17 06 2013  13 09  -21.0528 26066.5 -03465.6 -07.5731 26295.9
 17 06 2013  13 10  -21.0532 26067.0 -03465.6 -07.5731 26296.4
 17 06 2013  13 11  -21.0534 26067.1 -03465.5 -07.5727 26296.4
 17 06 2013  13 12  -21.0534 26067.3 -03465.4 -07.5724 26296.6
 17 06 2013  13 13  -21.0538 26067.9 -03465.4 -07.5723 26297.2
 17 06 2013  13 14  -21.0541 26068.2 -03465.3 -07.5721 26297.5
 17 06 2013  13 15  -21.0547 26068.6 -03465.2 -07.5718 26297.9
 17 06 2013  13 16  -21.0553 26068.7 -03465.0 -07.5713 26298.0
 17 06 2013  13 17  -21.0559 26069.1 -03465.0 -07.5710 26298.4
 17 06 2013  13 18  -21.0565 26069.1 -03464.8 -07.5706 26298.3
 17 06 2013  13 19  -21.0571 26068.8 -03464.5 -07.5701 26298.0
 17 06 2013  13 20  -21.0579 26068.9 -03464.4 -07.5700 26298.1
 17 06 2013  13 21  -21.0586 26069.1 -03464.4 -07.5698 26298.3
 17 06 2013  13 22  -21.0593 26069.4 -03464.4 -07.5697 26298.6
 17 06 2013  13 23  -21.0600 26069.5 -03464.3 -07.5695 26298.7
 17 06 2013  13 24  -21.0604 26070.0 -03464.3 -07.5693 26299.1
 17 06 2013  13 25  -21.0609 26070.2 -03464.2 -07.5691 26299.3
 17 06 2013  13 26  -21.0614 26070.3 -03464.1 -07.5688 26299.5
 17 06 2013  13 27  -21.0601 26070.6 -03464.1 -07.5687 26299.7
 17 06 2013  13 28  -21.0578 26071.0 -03464.3 -07.5690 26300.2
 17 06 2013  13 29  -21.0582 26071.1 -03464.2 -07.5688 26300.3
 17 06 2013  13 30  -21.0587 26071.1 -03464.1 -07.5686 26300.2
 17 06 2013  13 31  -21.0590 26071.1 -03464.0 -07.5684 26300.2
 17 06 2013  13 32  -21.0593 26071.1 -03463.9 -07.5683 26300.2
 17 06 2013  13 33  -21.0597 26071.1 -03463.9 -07.5681 26300.2
 17 06 2013  13 34  -21.0599 26071.0 -03463.8 -07.5680 26300.1
 17 06 2013  13 35  -21.0601 26071.0 -03463.7 -07.5678 26300.1
 17 06 2013  13 36  -21.0604 26071.0 -03463.7 -07.5678 26300.1
 17 06 2013  13 37  -21.0605 26071.2 -03463.8 -07.5679 26300.3
 17 06 2013  13 38  -21.0608 26071.2 -03463.8 -07.5679 26300.3
 17 06 2013  13 39  -21.0611 26071.2 -03463.8 -07.5679 26300.3
 17 06 2013  13 40  -21.0612 26071.2 -03463.8 -07.5680 26300.3
 17 06 2013  13 41  -21.0613 26071.2 -03463.8 -07.5679 26300.3
 17 06 2013  13 42  -21.0613 26071.0 -03463.7 -07.5677 26300.1
 17 06 2013  13 43  -21.0614 26070.8 -03463.6 -07.5676 26299.9
 17 06 2013  13 44  -21.0615 26070.8 -03463.6 -07.5676 26299.9
 17 06 2013  13 45  -21.0617 26070.8 -03463.6 -07.5676 26299.9
 17 06 2013  13 46  -21.0617 26070.8 -03463.6 -07.5675 26299.8
 17 06 2013  13 47  -21.0615 26070.7 -03463.5 -07.5675 26299.7
 17 06 2013  13 48  -21.0615 26070.7 -03463.6 -07.5676 26299.8
 17 06 2013  13 49  -21.0615 26070.6 -03463.6 -07.5676 26299.7
 17 06 2013  13 50  -21.0615 26070.6 -03463.6 -07.5677 26299.7
 17 06 2013  13 51  -21.0612 26070.7 -03463.7 -07.5678 26299.7
 17 06 2013  13 52  -21.0609 26070.7 -03463.7 -07.5679 26299.8
 17 06 2013  13 53  -21.0606 26070.7 -03463.8 -07.5680 26299.8
 17 06 2013  13 54  -21.0602 26070.7 -03463.8 -07.5682 26299.8
 17 06 2013  13 55  -21.0600 26070.7 -03463.9 -07.5684 26299.8
 17 06 2013  13 56  -21.0600 26070.8 -03464.1 -07.5686 26299.9
 17 06 2013  13 57  -21.0599 26070.7 -03464.1 -07.5688 26299.9
 17 06 2013  13 58  -21.0598 26070.9 -03464.3 -07.5691 26300.0
 17 06 2013  13 59  -21.0598 26071.1 -03464.4 -07.5694 26300.2
 17 06 2013  14 00  -21.0597 26071.1 -03464.5 -07.5695 26300.3
 17 06 2013  14 01  -21.0595 26071.1 -03464.6 -07.5697 26300.3
 17 06 2013  14 02  -21.0593 26071.1 -03464.6 -07.5698 26300.3
 17 06 2013  14 03  -21.0592 26070.9 -03464.7 -07.5700 26300.2
 17 06 2013  14 04  -21.0593 26070.8 -03464.8 -07.5703 26300.0
 17 06 2013  14 05  -21.0593 26070.8 -03465.0 -07.5706 26300.1
 17 06 2013  14 06  -21.0592 26070.9 -03465.1 -07.5709 26300.1
 17 06 2013  14 07  -21.0593 26071.1 -03465.3 -07.5712 26300.4
 17 06 2013  14 08  -21.0594 26071.2 -03465.4 -07.5715 26300.5
 17 06 2013  14 09  -21.0594 26071.2 -03465.6 -07.5717 26300.6
 17 06 2013  14 10  -21.0594 26071.3 -03465.7 -07.5720 26300.6
 17 06 2013  14 11  -21.0594 26071.2 -03465.8 -07.5722 26300.6
 17 06 2013  14 12  -21.0593 26071.4 -03465.9 -07.5725 26300.8
 17 06 2013  14 13  -21.0593 26071.5 -03466.0 -07.5727 26300.9
 17 06 2013  14 14  -21.0593 26071.7 -03466.2 -07.5729 26301.1
 17 06 2013  14 15  -21.0592 26071.8 -03466.3 -07.5731 26301.2
 17 06 2013  14 16  -21.0591 26072.0 -03466.4 -07.5732 26301.4
 17 06 2013  14 17  -21.0588 26072.1 -03466.4 -07.5733 26301.5
 17 06 2013  14 18  -21.0585 26072.1 -03466.5 -07.5734 26301.6
 17 06 2013  14 19  -21.0583 26072.0 -03466.5 -07.5735 26301.4
 17 06 2013  14 20  -21.0580 26071.9 -03466.6 -07.5737 26301.4
 17 06 2013  14 21  -21.0576 26072.0 -03466.7 -07.5739 26301.4
 17 06 2013  14 22  -21.0573 26072.0 -03466.8 -07.5741 26301.5
 17 06 2013  14 23  -21.0569 26071.9 -03466.8 -07.5743 26301.4
 17 06 2013  14 24  -21.0566 26071.9 -03466.9 -07.5745 26301.4
 17 06 2013  14 25  -21.0563 26072.0 -03467.1 -07.5748 26301.5
 17 06 2013  14 26  -21.0562 26072.0 -03467.3 -07.5752 26301.6
 17 06 2013  14 27  -21.0561 26072.2 -03467.4 -07.5755 26301.7
 17 06 2013  14 28  -21.0559 26072.4 -03467.6 -07.5758 26302.0
 17 06 2013  14 29  -21.0558 26072.5 -03467.7 -07.5761 26302.1
 17 06 2013  14 30  -21.0558 26072.6 -03467.8 -07.5762 26302.2
 17 06 2013  14 31  -21.0555 26072.7 -03467.9 -07.5763 26302.3
 17 06 2013  14 32  -21.0555 26072.7 -03467.9 -07.5764 26302.3
 17 06 2013  14 33  -21.0554 26072.7 -03468.0 -07.5765 26302.3
 17 06 2013  14 34  -21.0556 26072.7 -03468.1 -07.5768 26302.3
 17 06 2013  14 35  -21.0557 26072.9 -03468.2 -07.5770 26302.5
 17 06 2013  14 36  -21.0560 26073.1 -03468.4 -07.5773 26302.8
 17 06 2013  14 37  -21.0559 26073.1 -03468.5 -07.5775 26302.8
 17 06 2013  14 38  -21.0559 26073.0 -03468.4 -07.5774 26302.7
 17 06 2013  14 39  -21.0559 26072.9 -03468.4 -07.5775 26302.6
 17 06 2013  14 40  -21.0562 26072.7 -03468.5 -07.5777 26302.5
 17 06 2013  14 41  -21.0565 26072.7 -03468.6 -07.5779 26302.4
 17 06 2013  14 42  -21.0569 26072.7 -03468.7 -07.5781 26302.4
 17 06 2013  14 43  -21.0573 26072.8 -03468.8 -07.5784 26302.5
 17 06 2013  14 44  -21.0579 26072.8 -03468.9 -07.5785 26302.6
 17 06 2013  14 45  -21.0584 26073.0 -03469.1 -07.5787 26302.8
 17 06 2013  14 46  -21.0588 26073.1 -03469.1 -07.5789 26302.9
 17 06 2013  14 47  -21.0590 26073.1 -03469.2 -07.5790 26302.9
 17 06 2013  14 48  -21.0594 26073.3 -03469.3 -07.5792 26303.1
 17 06 2013  14 49  -21.0598 26073.2 -03469.3 -07.5792 26303.0
 17 06 2013  14 50  -21.0599 26073.2 -03469.4 -07.5794 26303.0
 17 06 2013  14 51  -21.0603 26073.3 -03469.5 -07.5796 26303.1
 17 06 2013  14 52  -21.0605 26073.3 -03469.6 -07.5798 26303.1
 17 06 2013  14 53  -21.0607 26073.1 -03469.6 -07.5800 26303.0
 17 06 2013  14 54  -21.0608 26073.0 -03469.7 -07.5802 26302.9
 17 06 2013  14 55  -21.0612 26073.0 -03469.8 -07.5803 26302.9
 17 06 2013  14 56  -21.0613 26072.9 -03469.9 -07.5805 26302.7
 17 06 2013  14 57  -21.0615 26072.8 -03469.9 -07.5807 26302.7
 17 06 2013  14 58  -21.0616 26072.4 -03470.0 -07.5809 26302.3
 17 06 2013  14 59  -21.0619 26072.3 -03470.1 -07.5811 26302.2
 17 06 2013  15 00  -21.0623 26072.4 -03470.3 -07.5816 26302.3
 17 06 2013  15 01  -21.0628 26072.5 -03470.4 -07.5819 26302.5
 17 06 2013  15 02  -21.0634 26072.6 -03470.5 -07.5821 26302.5
 17 06 2013  15 03  -21.0641 26072.8 -03470.7 -07.5823 26302.7
 17 06 2013  15 04  -21.0648 26072.8 -03470.7 -07.5824 26302.8
 17 06 2013  15 05  -21.0654 26072.8 -03470.7 -07.5824 26302.8
 17 06 2013  15 06  -21.0657 26072.8 -03470.6 -07.5822 26302.7
 17 06 2013  15 07  -21.0662 26072.9 -03470.7 -07.5823 26302.9
 17 06 2013  15 08  -21.0668 26073.0 -03470.7 -07.5823 26303.0
 17 06 2013  15 09  -21.0673 26073.0 -03470.6 -07.5821 26303.0
 17 06 2013  15 10  -21.0679 26073.2 -03470.6 -07.5821 26303.2
 17 06 2013  15 11  -21.0685 26073.3 -03470.6 -07.5819 26303.3
 17 06 2013  15 12  -21.0692 26073.2 -03470.4 -07.5816 26303.2
 17 06 2013  15 13  -21.0697 26073.3 -03470.3 -07.5814 26303.2
 17 06 2013  15 14  -21.0701 26073.3 -03470.2 -07.5811 26303.2
 17 06 2013  15 15  -21.0705 26073.2 -03470.0 -07.5807 26303.1
 17 06 2013  15 16  -21.0708 26073.2 -03469.9 -07.5804 26303.0
 17 06 2013  15 17  -21.0713 26073.2 -03469.7 -07.5802 26303.1
 17 06 2013  15 18  -21.0717 26073.1 -03469.6 -07.5799 26303.0
 17 06 2013  15 19  -21.0719 26072.9 -03469.3 -07.5794 26302.7
 17 06 2013  15 20  -21.0721 26072.8 -03469.2 -07.5791 26302.6
 17 06 2013  15 21  -21.0726 26073.0 -03469.1 -07.5790 26302.7
 17 06 2013  15 22  -21.0729 26073.0 -03469.0 -07.5786 26302.7
 17 06 2013  15 23  -21.0732 26073.1 -03468.9 -07.5784 26302.8
 17 06 2013  15 24  -21.0737 26073.2 -03468.8 -07.5781 26303.0
 17 06 2013  15 25  -21.0739 26073.3 -03468.6 -07.5776 26303.0
 17 06 2013  15 26  -21.0743 26073.4 -03468.4 -07.5772 26303.1
 17 06 2013  15 27  -21.0744 26073.3 -03468.0 -07.5765 26302.9
 17 06 2013  15 28  -21.0745 26073.2 -03467.8 -07.5760 26302.8
 17 06 2013  15 29  -21.0747 26073.2 -03467.6 -07.5756 26302.8
 17 06 2013  15 30  -21.0749 26073.3 -03467.4 -07.5751 26302.8
 17 06 2013  15 31  -21.0749 26073.3 -03467.2 -07.5746 26302.8
 17 06 2013  15 32  -21.0753 26073.5 -03467.0 -07.5743 26303.0
 17 06 2013  15 33  -21.0755 26073.7 -03466.9 -07.5738 26303.2
 17 06 2013  15 34  -21.0758 26073.9 -03466.6 -07.5732 26303.3
 17 06 2013  15 35  -21.0760 26074.0 -03466.3 -07.5725 26303.4
 17 06 2013  15 36  -21.0760 26074.1 -03466.0 -07.5718 26303.4
 17 06 2013  15 37  -21.0760 26074.2 -03465.7 -07.5711 26303.5
 17 06 2013  15 38  -21.0760 26074.3 -03465.4 -07.5704 26303.5
 17 06 2013  15 39  -21.0761 26074.2 -03465.0 -07.5697 26303.4
 17 06 2013  15 40  -21.0760 26074.1 -03464.6 -07.5689 26303.3
 17 06 2013  15 41  -21.0759 26074.2 -03464.3 -07.5682 26303.4
 17 06 2013  15 42  -21.0758 26074.3 -03464.0 -07.5675 26303.4
 17 06 2013  15 43  -21.0756 26074.2 -03463.7 -07.5668 26303.3
 17 06 2013  15 44  -21.0753 26074.1 -03463.3 -07.5659 26303.1
 17 06 2013  15 45  -21.0750 26074.1 -03463.0 -07.5653 26303.1
 17 06 2013  15 46  -21.0750 26074.2 -03462.7 -07.5647 26303.1
 17 06 2013  15 47  -21.0748 26074.1 -03462.4 -07.5640 26303.0
 17 06 2013  15 48  -21.0744 26074.0 -03462.0 -07.5632 26302.8
 17 06 2013  15 49  -21.0741 26074.0 -03461.7 -07.5626 26302.7
 17 06 2013  15 50  -21.0739 26073.8 -03461.3 -07.5619 26302.6
 17 06 2013  15 51  -21.0736 26073.8 -03461.1 -07.5613 26302.5
 17 06 2013  15 52  -21.0734 26073.8 -03460.8 -07.5608 26302.5
 17 06 2013  15 53  -21.0732 26073.8 -03460.5 -07.5602 26302.4
 17 06 2013  15 54  -21.0729 26073.7 -03460.2 -07.5595 26302.3
 17 06 2013  15 55  -21.0726 26073.6 -03460.0 -07.5590 26302.2
 17 06 2013  15 56  -21.0723 26073.5 -03459.6 -07.5582 26302.1
 17 06 2013  15 57  -21.0719 26073.4 -03459.3 -07.5576 26301.9
 17 06 2013  15 58  -21.0713 26073.3 -03459.0 -07.5570 26301.7
 17 06 2013  15 59  -21.0706 26073.1 -03458.7 -07.5563 26301.5
 17 06 2013  16 00  -21.0701 26073.1 -03458.5 -07.5559 26301.5
 17 06 2013  16 01  -21.0696 26073.1 -03458.2 -07.5553 26301.4
 17 06 2013  16 02  -21.0691 26073.1 -03458.0 -07.5548 26301.4
 17 06 2013  16 03  -21.0686 26073.2 -03457.8 -07.5544 26301.4
 17 06 2013  16 04  -21.0680 26073.0 -03457.4 -07.5537 26301.2
 17 06 2013  16 05  -21.0676 26072.8 -03457.1 -07.5530 26301.0
 17 06 2013  16 06  -21.0669 26072.5 -03456.7 -07.5523 26300.7
 17 06 2013  16 07  -21.0663 26072.3 -03456.4 -07.5517 26300.4
 17 06 2013  16 08  -21.0657 26072.1 -03456.2 -07.5513 26300.2
 17 06 2013  16 09  -21.0650 26072.1 -03456.0 -07.5509 26300.1
 17 06 2013  16 10  -21.0645 26071.8 -03455.8 -07.5505 26299.8
 17 06 2013  16 11  -21.0640 26071.5 -03455.6 -07.5500 26299.5
 17 06 2013  16 12  -21.0634 26071.3 -03455.4 -07.5497 26299.2
 17 06 2013  16 13  -21.0629 26071.1 -03455.2 -07.5493 26299.1
 17 06 2013  16 14  -21.0626 26071.1 -03455.0 -07.5491 26299.0
 17 06 2013  16 15  -21.0620 26070.8 -03454.8 -07.5487 26298.7
 17 06 2013  16 16  -21.0617 26070.6 -03454.7 -07.5484 26298.5
 17 06 2013  16 17  -21.0615 26070.3 -03454.5 -07.5481 26298.2
 17 06 2013  16 18  -21.0612 26070.2 -03454.3 -07.5478 26298.1
 17 06 2013  16 19  -21.0609 26069.9 -03454.2 -07.5475 26297.8
 17 06 2013  16 20  -21.0607 26069.6 -03454.0 -07.5473 26297.4
 17 06 2013  16 21  -21.0607 26069.5 -03453.9 -07.5471 26297.3
 17 06 2013  16 22  -21.0608 26069.4 -03453.9 -07.5470 26297.2
 17 06 2013  16 23  -21.0606 26069.2 -03453.7 -07.5468 26297.0
 17 06 2013  16 24  -21.0608 26069.2 -03453.7 -07.5467 26297.0
 17 06 2013  16 25  -21.0609 26069.2 -03453.6 -07.5465 26297.0
 17 06 2013  16 26  -21.0611 26069.3 -03453.6 -07.5464 26297.1
 17 06 2013  16 27  -21.0612 26069.3 -03453.5 -07.5462 26297.0
 17 06 2013  16 28  -21.0612 26069.0 -03453.3 -07.5458 26296.7
 17 06 2013  16 29  -21.0611 26068.8 -03453.1 -07.5455 26296.5
 17 06 2013  16 30  -21.0611 26068.5 -03453.0 -07.5453 26296.2
 17 06 2013  16 31  -21.0611 26068.2 -03452.8 -07.5450 26295.8
 17 06 2013  16 32  -21.0610 26067.9 -03452.7 -07.5448 26295.5
 17 06 2013  16 33  -21.0608 26067.7 -03452.6 -07.5447 26295.3
 17 06 2013  16 34  -21.0610 26067.4 -03452.5 -07.5447 26295.0
 17 06 2013  16 35  -21.0610 26067.1 -03452.4 -07.5445 26294.7
 17 06 2013  16 36  -21.0608 26066.7 -03452.3 -07.5443 26294.3
 17 06 2013  16 37  -21.0607 26066.4 -03452.2 -07.5443 26294.0
 17 06 2013  16 38  -21.0609 26066.2 -03452.2 -07.5442 26293.8
 17 06 2013  16 39  -21.0611 26066.0 -03452.0 -07.5440 26293.5
 17 06 2013  16 40  -21.0611 26065.7 -03451.9 -07.5438 26293.3
 17 06 2013  16 41  -21.0611 26065.5 -03451.8 -07.5437 26293.0
 17 06 2013  16 42  -21.0612 26065.2 -03451.7 -07.5435 26292.7
 17 06 2013  16 43  -21.0615 26065.0 -03451.6 -07.5434 26292.5
 17 06 2013  16 44  -21.0616 26064.8 -03451.6 -07.5433 26292.4
 17 06 2013  16 45  -21.0618 26064.7 -03451.5 -07.5432 26292.2
 17 06 2013  16 46  -21.0621 26064.7 -03451.4 -07.5431 26292.2
 17 06 2013  16 47  -21.0621 26064.5 -03451.3 -07.5428 26292.0
 17 06 2013  16 48  -21.0623 26064.4 -03451.2 -07.5426 26291.9
 17 06 2013  16 49  -21.0624 26064.2 -03451.0 -07.5423 26291.7
 17 06 2013  16 50  -21.0625 26064.1 -03450.9 -07.5421 26291.6
 17 06 2013  16 51  -21.0624 26064.0 -03450.7 -07.5417 26291.4
 17 06 2013  16 52  -21.0622 26063.6 -03450.5 -07.5414 26291.0
 17 06 2013  16 53  -21.0620 26063.3 -03450.3 -07.5410 26290.7
 17 06 2013  16 54  -21.0617 26062.9 -03450.1 -07.5407 26290.3
 17 06 2013  16 55  -21.0614 26062.7 -03450.0 -07.5406 26290.0
 17 06 2013  16 56  -21.0612 26062.6 -03450.0 -07.5405 26289.9
 17 06 2013  16 57  -21.0610 26062.5 -03449.9 -07.5405 26289.8
 17 06 2013  16 58  -21.0606 26062.4 -03449.9 -07.5404 26289.7
 17 06 2013  16 59  -21.0603 26062.4 -03449.9 -07.5404 26289.7
 17 06 2013  17 00  -21.0598 26062.3 -03449.9 -07.5404 26289.7
 17 06 2013  17 01  -21.0594 26062.3 -03449.9 -07.5404 26289.6
 17 06 2013  17 02  -21.0591 26062.3 -03449.9 -07.5404 26289.7
 17 06 2013  17 03  -21.0587 26062.3 -03449.8 -07.5403 26289.6
 17 06 2013  17 04  -21.0584 26062.3 -03449.9 -07.5404 26289.6
 17 06 2013  17 05  -21.0581 26062.2 -03449.8 -07.5404 26289.5
 17 06 2013  17 06  -21.0575 26062.1 -03449.8 -07.5403 26289.5
 17 06 2013  17 07  -21.0569 26062.0 -03449.7 -07.5402 26289.3
 17 06 2013  17 08  -21.0563 26061.8 -03449.7 -07.5402 26289.1
 17 06 2013  17 09  -21.0560 26061.7 -03449.8 -07.5403 26289.0
 17 06 2013  17 10  -21.0557 26061.6 -03449.8 -07.5405 26289.0
 17 06 2013  17 11  -21.0557 26061.7 -03449.9 -07.5406 26289.0
 17 06 2013  17 12  -21.0556 26061.8 -03450.0 -07.5407 26289.1
 17 06 2013  17 13  -21.0555 26061.8 -03450.0 -07.5407 26289.2
 17 06 2013  17 14  -21.0554 26061.9 -03449.9 -07.5407 26289.2
 17 06 2013  17 15  -21.0554 26061.9 -03449.9 -07.5406 26289.3
 17 06 2013  17 16  -21.0555 26062.0 -03449.9 -07.5406 26289.3
 17 06 2013  17 17  -21.0556 26062.1 -03449.9 -07.5405 26289.4
 17 06 2013  17 18  -21.0556 26062.0 -03449.8 -07.5403 26289.4
 17 06 2013  17 19  -21.0556 26061.8 -03449.6 -07.5399 26289.1
 17 06 2013  17 20  -21.0556 26061.7 -03449.4 -07.5397 26289.0
 17 06 2013  17 21  -21.0560 26061.6 -03449.4 -07.5395 26288.9
 17 06 2013  17 22  -21.0560 26061.4 -03449.2 -07.5393 26288.7
 17 06 2013  17 23  -21.0562 26061.3 -03449.1 -07.5390 26288.5
 17 06 2013  17 24  -21.0564 26061.2 -03449.0 -07.5388 26288.5
 17 06 2013  17 25  -21.0565 26061.2 -03448.9 -07.5386 26288.4
 17 06 2013  17 26  -21.0566 26061.1 -03448.8 -07.5384 26288.3
 17 06 2013  17 27  -21.0569 26061.1 -03448.7 -07.5382 26288.3
 17 06 2013  17 28  -21.0572 26061.1 -03448.6 -07.5379 26288.3
 17 06 2013  17 29  -21.0575 26061.0 -03448.4 -07.5376 26288.2
 17 06 2013  17 30  -21.0576 26060.9 -03448.2 -07.5373 26288.1
 17 06 2013  17 31  -21.0577 26060.8 -03448.1 -07.5369 26287.9
 17 06 2013  17 32  -21.0579 26060.6 -03447.9 -07.5365 26287.7
 17 06 2013  17 33  -21.0579 26060.4 -03447.7 -07.5362 26287.5
 17 06 2013  17 34  -21.0579 26060.3 -03447.5 -07.5358 26287.3
 17 06 2013  17 35  -21.0579 26060.3 -03447.3 -07.5355 26287.3
 17 06 2013  17 36  -21.0578 26060.3 -03447.2 -07.5353 26287.3
 17 06 2013  17 37  -21.0574 26060.1 -03447.0 -07.5349 26287.1
 17 06 2013  17 38  -21.0569 26059.9 -03446.9 -07.5346 26286.9
 17 06 2013  17 39  -21.0564 26059.6 -03446.7 -07.5344 26286.6
 17 06 2013  17 40  -21.0560 26059.3 -03446.6 -07.5342 26286.2
 17 06 2013  17 41  -21.0556 26059.0 -03446.4 -07.5339 26285.9
 17 06 2013  17 42  -21.0551 26058.7 -03446.3 -07.5338 26285.6
 17 06 2013  17 43  -21.0548 26058.3 -03446.3 -07.5338 26285.2
 17 06 2013  17 44  -21.0543 26058.0 -03446.2 -07.5338 26284.9
 17 06 2013  17 45  -21.0540 26057.8 -03446.2 -07.5338 26284.7
 17 06 2013  17 46  -21.0538 26057.6 -03446.3 -07.5340 26284.5
 17 06 2013  17 47  -21.0536 26057.5 -03446.4 -07.5342 26284.4
 17 06 2013  17 48  -21.0536 26057.4 -03446.4 -07.5343 26284.3
 17 06 2013  17 49  -21.0535 26057.1 -03446.4 -07.5344 26284.0
 17 06 2013  17 50  -21.0535 26056.9 -03446.4 -07.5344 26283.8
 17 06 2013  17 51  -21.0535 26056.7 -03446.4 -07.5345 26283.6
 17 06 2013  17 52  -21.0537 26056.5 -03446.5 -07.5347 26283.5
 17 06 2013  17 53  -21.0539 26056.3 -03446.5 -07.5348 26283.3
 17 06 2013  17 54  -21.0540 26056.0 -03446.5 -07.5349 26283.0
 17 06 2013  17 55  -21.0541 26055.8 -03446.5 -07.5350 26282.7
 17 06 2013  17 56  -21.0542 26055.6 -03446.5 -07.5351 26282.5
 17 06 2013  17 57  -21.0542 26055.3 -03446.6 -07.5352 26282.3
 17 06 2013  17 58  -21.0543 26055.0 -03446.6 -07.5353 26282.0
 17 06 2013  17 59  -21.0543 26054.8 -03446.6 -07.5355 26281.7
 17 06 2013  18 00  -21.0545 26054.5 -03446.6 -07.5356 26281.5
 17 06 2013  18 01  -21.0546 26054.3 -03446.7 -07.5358 26281.3
 17 06 2013  18 02  -21.0548 26054.1 -03446.7 -07.5359 26281.1
 17 06 2013  18 03  -21.0550 26053.8 -03446.7 -07.5360 26280.8
 17 06 2013  18 04  -21.0550 26053.5 -03446.7 -07.5360 26280.5
 17 06 2013  18 05  -21.0553 26053.3 -03446.7 -07.5361 26280.3
 17 06 2013  18 06  -21.0556 26053.3 -03446.8 -07.5363 26280.3
 17 06 2013  18 07  -21.0558 26053.1 -03446.8 -07.5364 26280.1
 17 06 2013  18 08  -21.0559 26052.9 -03446.8 -07.5364 26279.9
 17 06 2013  18 09  -21.0561 26052.7 -03446.7 -07.5363 26279.7
 17 06 2013  18 10  -21.0562 26052.6 -03446.7 -07.5363 26279.6
 17 06 2013  18 11  -21.0562 26052.4 -03446.7 -07.5363 26279.4
 17 06 2013  18 12  -21.0563 26052.4 -03446.7 -07.5363 26279.4
 17 06 2013  18 13  -21.0563 26052.3 -03446.6 -07.5363 26279.3
 17 06 2013  18 14  -21.0564 26052.2 -03446.6 -07.5361 26279.2
 17 06 2013  18 15  -21.0565 26052.1 -03446.5 -07.5360 26279.1
 17 06 2013  18 16  -21.0566 26052.0 -03446.4 -07.5358 26279.0
 17 06 2013  18 17  -21.0566 26051.7 -03446.2 -07.5356 26278.7
 17 06 2013  18 18  -21.0567 26051.6 -03446.1 -07.5354 26278.5
 17 06 2013  18 19  -21.0568 26051.4 -03446.1 -07.5353 26278.4
 17 06 2013  18 20  -21.0570 26051.3 -03446.0 -07.5351 26278.2
 17 06 2013  18 21  -21.0572 26051.1 -03445.9 -07.5350 26278.0
 17 06 2013  18 22  -21.0574 26050.8 -03445.7 -07.5348 26277.7
 17 06 2013  18 23  -21.0575 26050.6 -03445.7 -07.5347 26277.5
 17 06 2013  18 24  -21.0575 26050.4 -03445.6 -07.5346 26277.3
 17 06 2013  18 25  -21.0575 26050.2 -03445.6 -07.5346 26277.1
 17 06 2013  18 26  -21.0576 26050.1 -03445.5 -07.5345 26276.9
 17 06 2013  18 27  -21.0578 26049.9 -03445.5 -07.5345 26276.8
 17 06 2013  18 28  -21.0580 26049.8 -03445.5 -07.5345 26276.7
 17 06 2013  18 29  -21.0583 26049.7 -03445.4 -07.5344 26276.5
 17 06 2013  18 30  -21.0584 26049.5 -03445.4 -07.5344 26276.3
 17 06 2013  18 31  -21.0588 26049.4 -03445.4 -07.5344 26276.3
 17 06 2013  18 32  -21.0591 26049.1 -03445.3 -07.5342 26276.0
 17 06 2013  18 33  -21.0593 26048.8 -03445.2 -07.5341 26275.6
 17 06 2013  18 34  -21.0595 26048.7 -03445.1 -07.5341 26275.5
 17 06 2013  18 35  -21.0596 26048.3 -03445.0 -07.5339 26275.2
 17 06 2013  18 36  -21.0598 26048.0 -03444.9 -07.5337 26274.8
 17 06 2013  18 37  -21.0599 26047.8 -03444.8 -07.5335 26274.5
 17 06 2013  18 38  -21.0601 26047.5 -03444.7 -07.5335 26274.3
 17 06 2013  18 39  -21.0604 26047.3 -03444.6 -07.5333 26274.1
 17 06 2013  18 40  -21.0605 26047.0 -03444.4 -07.5330 26273.8
 17 06 2013  18 41  -21.0606 26046.7 -03444.3 -07.5329 26273.5
 17 06 2013  18 42  -21.0607 26046.5 -03444.3 -07.5328 26273.3
 17 06 2013  18 43  -21.0609 26046.4 -03444.2 -07.5327 26273.2
 17 06 2013  18 44  -21.0611 26046.3 -03444.1 -07.5325 26273.0
 17 06 2013  18 45  -21.0611 26046.1 -03444.0 -07.5323 26272.8
 17 06 2013  18 46  -21.0612 26046.1 -03443.9 -07.5321 26272.8
 17 06 2013  18 47  -21.0611 26045.9 -03443.7 -07.5318 26272.6
 17 06 2013  18 48  -21.0612 26045.8 -03443.7 -07.5318 26272.5
 17 06 2013  18 49  -21.0611 26045.7 -03443.6 -07.5316 26272.4
 17 06 2013  18 50  -21.0612 26045.8 -03443.6 -07.5315 26272.4
 17 06 2013  18 51  -21.0612 26045.8 -03443.5 -07.5313 26272.4
 17 06 2013  18 52  -21.0611 26045.6 -03443.4 -07.5311 26272.2
 17 06 2013  18 53  -21.0642 26044.9 -03442.9 -07.5303 26271.5
 17 06 2013  18 54  -21.0645 26044.5 -03442.7 -07.5299 26271.1
 17 06 2013  18 55  -21.0644 26044.3 -03442.6 -07.5299 26270.9
 17 06 2013  18 56  -21.0641 26044.1 -03442.6 -07.5298 26270.7
 17 06 2013  18 57  -21.0638 26044.0 -03442.5 -07.5297 26270.5
 17 06 2013  18 58  -21.0635 26043.8 -03442.4 -07.5295 26270.3
 17 06 2013  18 59  -21.0633 26043.6 -03442.3 -07.5294 26270.1
 17 06 2013  19 00  -21.0631 26043.4 -03442.2 -07.5292 26269.9
 17 06 2013  19 01  -21.0630 26043.3 -03442.1 -07.5291 26269.8
 17 06 2013  19 02  -21.0629 26043.2 -03442.1 -07.5290 26269.7
 17 06 2013  19 03  -21.0588 26043.3 -03442.2 -07.5293 26269.8
 17 06 2013  19 04  -21.0588 26043.4 -03442.3 -07.5293 26269.9
 17 06 2013  19 05  -21.0587 26043.2 -03442.2 -07.5292 26269.7
 17 06 2013  19 06  -21.0585 26043.0 -03442.1 -07.5292 26269.5
 17 06 2013  19 07  -21.0585 26042.9 -03442.0 -07.5290 26269.4
 17 06 2013  19 08  -21.0584 26042.6 -03442.0 -07.5290 26269.1
 17 06 2013  19 09  -21.0583 26042.6 -03442.0 -07.5290 26269.1
 17 06 2013  19 10  -21.0582 26042.4 -03441.9 -07.5288 26268.9
 17 06 2013  19 11  -21.0581 26042.2 -03441.8 -07.5288 26268.7
 17 06 2013  19 12  -21.0580 26042.0 -03441.8 -07.5287 26268.4
 17 06 2013  19 13  -21.0579 26041.9 -03441.8 -07.5288 26268.3
 17 06 2013  19 14  -21.0579 26041.9 -03441.8 -07.5287 26268.3
 17 06 2013  19 15  -21.0578 26041.8 -03441.8 -07.5288 26268.2
 17 06 2013  19 16  -21.0578 26041.8 -03441.8 -07.5288 26268.2
 17 06 2013  19 17  -21.0579 26041.7 -03441.8 -07.5287 26268.1
 17 06 2013  19 18  -21.0579 26041.6 -03441.7 -07.5287 26268.0
 17 06 2013  19 19  -21.0580 26041.5 -03441.7 -07.5286 26267.9
 17 06 2013  19 20  -21.0580 26041.4 -03441.6 -07.5286 26267.8
 17 06 2013  19 21  -21.0579 26041.2 -03441.5 -07.5284 26267.6
 17 06 2013  19 22  -21.0578 26041.0 -03441.5 -07.5283 26267.4
 17 06 2013  19 23  -21.0579 26040.9 -03441.4 -07.5283 26267.3
 17 06 2013  19 24  -21.0579 26040.8 -03441.4 -07.5282 26267.2
 17 06 2013  19 25  -21.0580 26040.6 -03441.3 -07.5281 26267.0
 17 06 2013  19 26  -21.0580 26040.4 -03441.3 -07.5280 26266.8
 17 06 2013  19 27  -21.0581 26040.2 -03441.2 -07.5280 26266.6
 17 06 2013  19 28  -21.0581 26040.0 -03441.1 -07.5279 26266.4
 17 06 2013  19 29  -21.0581 26039.8 -03441.1 -07.5279 26266.2
 17 06 2013  19 30  -21.0581 26039.6 -03441.1 -07.5279 26266.0
 17 06 2013  19 31  -21.0582 26039.4 -03441.0 -07.5278 26265.7
 17 06 2013  19 32  -21.0582 26039.2 -03441.0 -07.5278 26265.5
 17 06 2013  19 33  -21.0582 26039.0 -03441.0 -07.5279 26265.4
 17 06 2013  19 34  -21.0582 26038.8 -03441.0 -07.5279 26265.2
 17 06 2013  19 35  -21.0582 26038.6 -03440.9 -07.5279 26264.9
 17 06 2013  19 36  -21.0582 26038.3 -03440.9 -07.5279 26264.7
 17 06 2013  19 37  -21.0581 26038.2 -03440.9 -07.5279 26264.5
 17 06 2013  19 38  -21.0581 26038.0 -03440.9 -07.5279 26264.4
 17 06 2013  19 39  -21.0581 26037.9 -03440.9 -07.5280 26264.2
 17 06 2013  19 40  -21.0582 26037.6 -03440.9 -07.5280 26264.0
 17 06 2013  19 41  -21.0582 26037.4 -03440.8 -07.5280 26263.8
 17 06 2013  19 42  -21.0582 26037.2 -03440.8 -07.5280 26263.6
 17 06 2013  19 43  -21.0582 26037.0 -03440.8 -07.5281 26263.4
 17 06 2013  19 44  -21.0580 26036.9 -03440.8 -07.5281 26263.2
 17 06 2013  19 45  -21.0578 26036.7 -03440.9 -07.5282 26263.1
 17 06 2013  19 46  -21.0576 26036.5 -03440.8 -07.5282 26262.9
 17 06 2013  19 47  -21.0573 26036.3 -03440.9 -07.5283 26262.7
 17 06 2013  19 48  -21.0569 26036.3 -03440.9 -07.5285 26262.7
 17 06 2013  19 49  -21.0567 26036.5 -03441.1 -07.5287 26263.0
 17 06 2013  19 50  -21.0565 26035.5 -03440.7 -07.5283 26261.8
 17 06 2013  19 51  -21.0561 26035.3 -03440.8 -07.5284 26261.7
 17 06 2013  19 52  -21.0557 26035.5 -03440.9 -07.5287 26261.9
 17 06 2013  19 53  -21.0554 26035.8 -03441.2 -07.5292 26262.3
 17 06 2013  19 54  -21.0551 26035.1 -03441.0 -07.5289 26261.5
 17 06 2013  19 55  -21.0547 26034.6 -03440.9 -07.5289 26261.0
 17 06 2013  19 56  -21.0542 26034.8 -03441.0 -07.5292 26261.2
 17 06 2013  19 57  -21.0537 26035.0 -03441.3 -07.5297 26261.4
 17 06 2013  19 58  -21.0531 26035.1 -03441.5 -07.5300 26261.6
 17 06 2013  19 59  -21.0528 26034.6 -03441.3 -07.5299 26261.0
 17 06 2013  20 00  -21.0524 26034.2 -03441.3 -07.5299 26260.7
 17 06 2013  20 01  -21.0519 26034.4 -03441.6 -07.5304 26260.9
 17 06 2013  20 02  -21.0515 26034.6 -03441.8 -07.5309 26261.1
 17 06 2013  20 03  -21.0512 26034.1 -03441.8 -07.5310 26260.6
 17 06 2013  20 04  -21.0508 26033.9 -03441.8 -07.5311 26260.5
 17 06 2013  20 05  -21.0505 26034.0 -03442.0 -07.5315 26260.6
 17 06 2013  20 06  -21.0501 26034.1 -03442.2 -07.5319 26260.7
 17 06 2013  20 07  -21.0498 26034.0 -03442.3 -07.5322 26260.6
 17 06 2013  20 08  -21.0496 26033.9 -03442.5 -07.5325 26260.5
 17 06 2013  20 09  -21.0494 26033.8 -03442.6 -07.5327 26260.5
 17 06 2013  20 10  -21.0491 26033.7 -03442.7 -07.5330 26260.3
 17 06 2013  20 11  -21.0487 26033.6 -03442.8 -07.5333 26260.2
 17 06 2013  20 12  -21.0484 26033.4 -03442.9 -07.5335 26260.0
 17 06 2013  20 13  -21.0481 26033.3 -03443.0 -07.5339 26260.0
 17 06 2013  20 14  -21.0477 26033.4 -03443.2 -07.5343 26260.1
 17 06 2013  20 15  -21.0475 26033.3 -03443.3 -07.5346 26260.0
 17 06 2013  20 16  -21.0472 26033.2 -03443.5 -07.5349 26259.9
 17 06 2013  20 17  -21.0469 26033.2 -03443.7 -07.5353 26260.0
 17 06 2013  20 18  -21.0466 26033.1 -03443.8 -07.5356 26259.9
 17 06 2013  20 19  -21.0463 26033.0 -03443.9 -07.5358 26259.8
 17 06 2013  20 20  -21.0460 26032.9 -03444.0 -07.5361 26259.7
 17 06 2013  20 21  -21.0457 26032.9 -03444.1 -07.5363 26259.7
 17 06 2013  20 22  -21.0454 26032.8 -03444.2 -07.5366 26259.6
 17 06 2013  20 23  -21.0450 26032.7 -03444.3 -07.5368 26259.6
 17 06 2013  20 24  -21.0446 26032.6 -03444.3 -07.5370 26259.5
 17 06 2013  20 25  -21.0443 26032.5 -03444.4 -07.5370 26259.4
 17 06 2013  20 26  -21.0440 26032.4 -03444.4 -07.5371 26259.3
 17 06 2013  20 27  -21.0438 26032.4 -03444.6 -07.5376 26259.3
 17 06 2013  20 28  -21.0435 26032.4 -03444.8 -07.5379 26259.3
 17 06 2013  20 29  -21.0433 26032.3 -03444.8 -07.5381 26259.3
 17 06 2013  20 30  -21.0429 26032.5 -03445.0 -07.5384 26259.4
 17 06 2013  20 31  -21.0428 26032.2 -03445.0 -07.5385 26259.2
 17 06 2013  20 32  -21.0426 26032.0 -03445.0 -07.5385 26259.0
 17 06 2013  20 33  -21.0425 26031.9 -03445.0 -07.5386 26258.8
 17 06 2013  20 34  -21.0422 26032.0 -03445.1 -07.5388 26259.0
 17 06 2013  20 35  -21.0419 26031.9 -03445.2 -07.5390 26258.9
 17 06 2013  20 36  -21.0417 26031.6 -03445.1 -07.5389 26258.6
 17 06 2013  20 37  -21.0415 26031.5 -03445.1 -07.5390 26258.4
 17 06 2013  20 38  -21.0413 26031.3 -03445.1 -07.5390 26258.3
 17 06 2013  20 39  -21.0412 26031.2 -03445.2 -07.5391 26258.2
 17 06 2013  20 40  -21.0408 26031.2 -03445.2 -07.5392 26258.2
 17 06 2013  20 41  -21.0406 26031.1 -03445.3 -07.5394 26258.1
 17 06 2013  20 42  -21.0404 26031.0 -03445.3 -07.5395 26258.0
 17 06 2013  20 43  -21.0403 26030.9 -03445.4 -07.5397 26257.9
 17 06 2013  20 44  -21.0401 26030.9 -03445.5 -07.5399 26258.0
 17 06 2013  20 45  -21.0400 26030.8 -03445.5 -07.5400 26257.9
 17 06 2013  20 46  -21.0399 26030.8 -03445.6 -07.5401 26257.8
 17 06 2013  20 47  -21.0396 26030.7 -03445.6 -07.5402 26257.7
 17 06 2013  20 48  -21.0394 26030.6 -03445.6 -07.5403 26257.7
 17 06 2013  20 49  -21.0394 26030.5 -03445.7 -07.5404 26257.6
 17 06 2013  20 50  -21.0392 26030.6 -03445.8 -07.5406 26257.6
 17 06 2013  20 51  -21.0391 26030.5 -03445.8 -07.5408 26257.6
 17 06 2013  20 52  -21.0390 26030.4 -03445.9 -07.5409 26257.5
 17 06 2013  20 53  -21.0387 26030.4 -03445.9 -07.5410 26257.5
 17 06 2013  20 54  -21.0386 26030.3 -03446.0 -07.5411 26257.4
 17 06 2013  20 55  -21.0386 26030.2 -03446.0 -07.5412 26257.4
 17 06 2013  20 56  -21.0384 26030.4 -03446.1 -07.5414 26257.5
 17 06 2013  20 57  -21.0383 26030.3 -03446.2 -07.5416 26257.4
 17 06 2013  20 58  -21.0384 26030.2 -03446.2 -07.5417 26257.4
 17 06 2013  20 59  -21.0380 26030.3 -03446.3 -07.5419 26257.4
 17 06 2013  21 00  -21.0380 26030.1 -03446.3 -07.5419 26257.3
 17 06 2013  21 01  -21.0380 26030.1 -03446.4 -07.5420 26257.3
 17 06 2013  21 02  -21.0378 26030.0 -03446.4 -07.5420 26257.2
 17 06 2013  21 03  -21.0376 26030.0 -03446.4 -07.5421 26257.1
 17 06 2013  21 04  -21.0373 26029.9 -03446.4 -07.5422 26257.1
 17 06 2013  21 05  -21.0371 26029.9 -03446.5 -07.5423 26257.1
 17 06 2013  21 06  -21.0368 26030.0 -03446.5 -07.5424 26257.2
 17 06 2013  21 07  -21.0365 26030.0 -03446.6 -07.5425 26257.2
 17 06 2013  21 08  -21.0364 26029.9 -03446.6 -07.5426 26257.1
 17 06 2013  21 09  -21.0363 26029.9 -03446.7 -07.5427 26257.1
 17 06 2013  21 10  -21.0362 26029.8 -03446.7 -07.5427 26257.0
 17 06 2013  21 11  -21.0361 26029.8 -03446.7 -07.5428 26257.0
 17 06 2013  21 12  -21.0362 26029.8 -03446.7 -07.5428 26257.0
 17 06 2013  21 13  -21.0362 26029.7 -03446.8 -07.5430 26256.9
 17 06 2013  21 14  -21.0364 26029.7 -03446.8 -07.5430 26256.9
 17 06 2013  21 15  -21.0364 26029.7 -03446.9 -07.5432 26256.9
 17 06 2013  21 16  -21.0364 26029.7 -03446.9 -07.5433 26257.0
 17 06 2013  21 17  -21.0362 26029.8 -03446.9 -07.5433 26257.1
 17 06 2013  21 18  -21.0361 26029.8 -03446.9 -07.5434 26257.1
 17 06 2013  21 19  -21.0360 26029.8 -03447.0 -07.5435 26257.1
 17 06 2013  21 20  -21.0358 26029.9 -03447.0 -07.5435 26257.2
 17 06 2013  21 21  -21.0357 26029.9 -03447.0 -07.5435 26257.2
 17 06 2013  21 22  -21.0356 26029.9 -03447.1 -07.5436 26257.1
 17 06 2013  21 23  -21.0354 26029.9 -03447.1 -07.5437 26257.1
 17 06 2013  21 24  -21.0352 26029.9 -03447.1 -07.5438 26257.2
 17 06 2013  21 25  -21.0350 26030.0 -03447.2 -07.5439 26257.2
 17 06 2013  21 26  -21.0347 26030.1 -03447.3 -07.5440 26257.4
 17 06 2013  21 27  -21.0346 26030.0 -03447.3 -07.5441 26257.3
 17 06 2013  21 28  -21.0342 26030.1 -03447.4 -07.5442 26257.4
 17 06 2013  21 29  -21.0338 26030.2 -03447.4 -07.5443 26257.5
 17 06 2013  21 30  -21.0340 26030.1 -03447.5 -07.5444 26257.4
 17 06 2013  21 31  -21.0335 26030.2 -03447.6 -07.5446 26257.5
 17 06 2013  21 32  -21.0333 26030.2 -03447.5 -07.5445 26257.5
 17 06 2013  21 33  -21.0334 26030.1 -03447.5 -07.5445 26257.5
 17 06 2013  21 34  -21.0329 26030.2 -03447.6 -07.5448 26257.5
 17 06 2013  21 35  -21.0328 26030.2 -03447.7 -07.5449 26257.5
 17 06 2013  21 36  -21.0324 26030.4 -03447.9 -07.5452 26257.7
 17 06 2013  21 37  -21.0321 26030.3 -03447.9 -07.5453 26257.7
 17 06 2013  21 38  -21.0322 26030.2 -03447.9 -07.5454 26257.5
 17 06 2013  21 39  -21.0316 26030.2 -03447.9 -07.5454 26257.6
 17 06 2013  21 40  -21.0317 26030.3 -03448.1 -07.5457 26257.7
 17 06 2013  21 41  -21.0319 26030.3 -03448.2 -07.5459 26257.7
 17 06 2013  21 42  -21.0318 26030.5 -03448.3 -07.5461 26257.9
 17 06 2013  21 43  -21.0317 26030.4 -03448.3 -07.5462 26257.8
 17 06 2013  21 44  -21.0314 26030.5 -03448.4 -07.5462 26258.0
 17 06 2013  21 45  -21.0313 26030.7 -03448.5 -07.5465 26258.1
 17 06 2013  21 46  -21.0315 26030.9 -03448.6 -07.5467 26258.3
 17 06 2013  21 47  -21.0311 26031.1 -03448.7 -07.5469 26258.6
 17 06 2013  21 48  -21.0309 26031.0 -03448.7 -07.5469 26258.5
 17 06 2013  21 49  -21.0307 26031.0 -03448.8 -07.5470 26258.5
 17 06 2013  21 50  -21.0305 26031.1 -03448.8 -07.5470 26258.6
 17 06 2013  21 51  -21.0304 26031.2 -03448.9 -07.5472 26258.7
 17 06 2013  21 52  -21.0304 26031.3 -03448.9 -07.5473 26258.8
 17 06 2013  21 53  -21.0302 26031.4 -03449.0 -07.5474 26258.9
 17 06 2013  21 54  -21.0300 26031.5 -03449.1 -07.5475 26259.0
 17 06 2013  21 55  -21.0300 26031.5 -03449.1 -07.5476 26259.0
 17 06 2013  21 56  -21.0299 26031.6 -03449.2 -07.5477 26259.2
 17 06 2013  21 57  -21.0299 26031.8 -03449.3 -07.5479 26259.3
 17 06 2013  21 58  -21.0300 26031.9 -03449.4 -07.5480 26259.4
 17 06 2013  21 59  -21.0299 26031.9 -03449.4 -07.5481 26259.4
 17 06 2013  22 00  -21.0300 26031.9 -03449.4 -07.5482 26259.5
 17 06 2013  22 01  -21.0297 26032.1 -03449.5 -07.5482 26259.6
 17 06 2013  22 02  -21.0298 26032.1 -03449.5 -07.5482 26259.6
 17 06 2013  22 03  -21.0299 26032.0 -03449.5 -07.5482 26259.6
 17 06 2013  22 04  -21.0300 26032.0 -03449.4 -07.5481 26259.5
 17 06 2013  22 05  -21.0300 26032.0 -03449.4 -07.5481 26259.5
 17 06 2013  22 06  -21.0301 26032.0 -03449.5 -07.5482 26259.6
 17 06 2013  22 07  -21.0302 26032.0 -03449.5 -07.5483 26259.6
 17 06 2013  22 08  -21.0303 26032.1 -03449.5 -07.5483 26259.6
 17 06 2013  22 09  -21.0306 26032.0 -03449.6 -07.5484 26259.6
 17 06 2013  22 10  -21.0307 26032.0 -03449.6 -07.5484 26259.5
 17 06 2013  22 11  -21.0308 26031.9 -03449.6 -07.5485 26259.5
 17 06 2013  22 12  -21.0308 26031.9 -03449.6 -07.5484 26259.5
 17 06 2013  22 13  -21.0308 26032.0 -03449.6 -07.5484 26259.5
 17 06 2013  22 14  -21.0308 26032.0 -03449.6 -07.5485 26259.6
 17 06 2013  22 15  -21.0308 26032.1 -03449.7 -07.5486 26259.7
 17 06 2013  22 16  -21.0307 26032.1 -03449.7 -07.5486 26259.7
 17 06 2013  22 17  -21.0305 26032.1 -03449.7 -07.5486 26259.6
 17 06 2013  22 18  -21.0303 26032.0 -03449.7 -07.5486 26259.6
 17 06 2013  22 19  -21.0304 26031.9 -03449.6 -07.5486 26259.5
 17 06 2013  22 20  -21.0304 26032.0 -03449.7 -07.5486 26259.6
 17 06 2013  22 21  -21.0303 26032.0 -03449.7 -07.5487 26259.6
 17 06 2013  22 22  -21.0304 26032.0 -03449.7 -07.5488 26259.6
 17 06 2013  22 23  -21.0304 26032.0 -03449.8 -07.5490 26259.6
 17 06 2013  22 24  -21.0304 26032.0 -03449.8 -07.5490 26259.6
 17 06 2013  22 25  -21.0305 26032.1 -03449.9 -07.5491 26259.7
 17 06 2013  22 26  -21.0304 26032.1 -03449.9 -07.5491 26259.7
 17 06 2013  22 27  -21.0305 26032.1 -03449.9 -07.5492 26259.7
 17 06 2013  22 28  -21.0306 26032.0 -03449.9 -07.5492 26259.7
 17 06 2013  22 29  -21.0306 26032.1 -03450.0 -07.5492 26259.7
 17 06 2013  22 30  -21.0306 26032.2 -03450.0 -07.5493 26259.8
 17 06 2013  22 31  -21.0307 26032.2 -03450.0 -07.5494 26259.8
 17 06 2013  22 32  -21.0308 26032.2 -03450.0 -07.5494 26259.8
 17 06 2013  22 33  -21.0309 26032.2 -03450.1 -07.5495 26259.8
 17 06 2013  22 34  -21.0309 26032.2 -03450.1 -07.5495 26259.8
 17 06 2013  22 35  -21.0310 26032.2 -03450.1 -07.5496 26259.9
 17 06 2013  22 36  -21.0308 26032.2 -03450.2 -07.5496 26259.9
 17 06 2013  22 37  -21.0308 26032.2 -03450.2 -07.5497 26259.8
 17 06 2013  22 38  -21.0308 26032.1 -03450.2 -07.5497 26259.8
 17 06 2013  22 39  -21.0308 26032.1 -03450.2 -07.5497 26259.7
 17 06 2013  22 40  -21.0308 26032.2 -03450.2 -07.5497 26259.8
 17 06 2013  22 41  -21.0307 26032.2 -03450.2 -07.5498 26259.8
 17 06 2013  22 42  -21.0308 26032.2 -03450.3 -07.5499 26259.9
 17 06 2013  22 43  -21.0308 26032.3 -03450.3 -07.5499 26259.9
 17 06 2013  22 44  -21.0308 26032.3 -03450.4 -07.5501 26260.0
 17 06 2013  22 45  -21.0306 26032.3 -03450.3 -07.5500 26259.9
 17 06 2013  22 46  -21.0305 26032.3 -03450.4 -07.5500 26259.9
 17 06 2013  22 47  -21.0302 26032.3 -03450.3 -07.5500 26259.9
 17 06 2013  22 48  -21.0302 26032.3 -03450.4 -07.5502 26260.0
 17 06 2013  22 49  -21.0301 26032.4 -03450.5 -07.5503 26260.0
 17 06 2013  22 50  -21.0301 26032.4 -03450.5 -07.5504 26260.1
 17 06 2013  22 51  -21.0300 26032.4 -03450.6 -07.5505 26260.1
 17 06 2013  22 52  -21.0301 26032.5 -03450.7 -07.5506 26260.2
 17 06 2013  22 53  -21.0300 26032.6 -03450.7 -07.5507 26260.3
 17 06 2013  22 54  -21.0301 26032.6 -03450.7 -07.5508 26260.3
 17 06 2013  22 55  -21.0302 26032.6 -03450.8 -07.5509 26260.3
 17 06 2013  22 56  -21.0301 26032.6 -03450.8 -07.5510 26260.4
 17 06 2013  22 57  -21.0301 26032.7 -03450.9 -07.5510 26260.4
 17 06 2013  22 58  -21.0302 26032.7 -03450.9 -07.5511 26260.5
 17 06 2013  22 59  -21.0301 26032.7 -03451.0 -07.5512 26260.5
 17 06 2013  23 00  -21.0301 26032.8 -03451.0 -07.5513 26260.6
 17 06 2013  23 01  -21.0302 26032.9 -03451.1 -07.5514 26260.6
 17 06 2013  23 02  -21.0302 26032.9 -03451.1 -07.5514 26260.6
 17 06 2013  23 03  -21.0302 26032.9 -03451.1 -07.5514 26260.7
 17 06 2013  23 04  -21.0302 26032.9 -03451.1 -07.5516 26260.7
 17 06 2013  23 05  -21.0302 26033.0 -03451.2 -07.5516 26260.8
 17 06 2013  23 06  -21.0301 26033.0 -03451.2 -07.5516 26260.8
 17 06 2013  23 07  -21.0301 26033.0 -03451.2 -07.5517 26260.8
 17 06 2013  23 08  -21.0299 26033.0 -03451.2 -07.5517 26260.8
 17 06 2013  23 09  -21.0298 26033.0 -03451.2 -07.5517 26260.8
 17 06 2013  23 10  -21.0297 26033.0 -03451.3 -07.5518 26260.8
 17 06 2013  23 11  -21.0296 26033.1 -03451.3 -07.5519 26260.9
 17 06 2013  23 12  -21.0296 26033.1 -03451.3 -07.5519 26260.9
 17 06 2013  23 13  -21.0296 26033.1 -03451.3 -07.5519 26260.8
 17 06 2013  23 14  -21.0296 26033.1 -03451.4 -07.5520 26260.9
 17 06 2013  23 15  -21.0296 26033.1 -03451.4 -07.5520 26260.9
 17 06 2013  23 16  -21.0295 26033.1 -03451.4 -07.5521 26260.9
 17 06 2013  23 17  -21.0295 26033.1 -03451.4 -07.5521 26260.9
 17 06 2013  23 18  -21.0296 26033.1 -03451.4 -07.5521 26260.9
 17 06 2013  23 19  -21.0296 26033.1 -03451.5 -07.5523 26260.9
 17 06 2013  23 20  -21.0295 26033.0 -03451.5 -07.5522 26260.8
 17 06 2013  23 21  -21.0296 26033.0 -03451.5 -07.5523 26260.8
 17 06 2013  23 22  -21.0296 26033.0 -03451.5 -07.5523 26260.8
 17 06 2013  23 23  -21.0296 26032.9 -03451.5 -07.5522 26260.7
 17 06 2013  23 24  -21.0296 26032.9 -03451.5 -07.5523 26260.8
 17 06 2013  23 25  -21.0295 26033.0 -03451.5 -07.5523 26260.8
 17 06 2013  23 26  -21.0295 26033.1 -03451.6 -07.5525 26260.9
 17 06 2013  23 27  -21.0293 26033.0 -03451.6 -07.5525 26260.9
 17 06 2013  23 28  -21.0292 26033.0 -03451.6 -07.5526 26260.8
 17 06 2013  23 29  -21.0291 26033.0 -03451.6 -07.5525 26260.9
 17 06 2013  23 30  -21.0290 26033.1 -03451.7 -07.5526 26260.9
 17 06 2013  23 31  -21.0289 26033.0 -03451.6 -07.5526 26260.8
 17 06 2013  23 32  -21.0288 26033.0 -03451.6 -07.5526 26260.8
 17 06 2013  23 33  -21.0286 26033.0 -03451.7 -07.5527 26260.8
 17 06 2013  23 34  -21.0285 26032.9 -03451.7 -07.5527 26260.8
 17 06 2013  23 35  -21.0285 26032.9 -03451.7 -07.5528 26260.7
 17 06 2013  23 36  -21.0283 26032.9 -03451.7 -07.5528 26260.7
 17 06 2013  23 37  -21.0283 26033.0 -03451.7 -07.5529 26260.8
 17 06 2013  23 38  -21.0283 26033.0 -03451.8 -07.5530 26260.9
 17 06 2013  23 39  -21.0282 26033.0 -03451.8 -07.5530 26260.9
 17 06 2013  23 40  -21.0282 26033.0 -03451.8 -07.5530 26260.9
 17 06 2013  23 41  -21.0281 26033.1 -03451.9 -07.5531 26260.9
 17 06 2013  23 42  -21.0280 26033.1 -03451.9 -07.5532 26260.9
 17 06 2013  23 43  -21.0280 26033.0 -03451.9 -07.5532 26260.9
 17 06 2013  23 44  -21.0280 26033.0 -03451.9 -07.5532 26260.9
 17 06 2013  23 45  -21.0279 26033.1 -03451.8 -07.5530 26260.9
 17 06 2013  23 46  -21.0280 26032.9 -03451.9 -07.5532 26260.8
 17 06 2013  23 47  -21.0279 26032.9 -03451.9 -07.5532 26260.8
 17 06 2013  23 48  -21.0278 26032.8 -03451.9 -07.5532 26260.7
 17 06 2013  23 49  -21.0279 26032.8 -03451.9 -07.5532 26260.6
 17 06 2013  23 50  -21.0278 26032.8 -03451.9 -07.5533 26260.7
 17 06 2013  23 51  -21.0279 26032.9 -03452.0 -07.5534 26260.7
 17 06 2013  23 52  -21.0280 26032.9 -03452.0 -07.5535 26260.8
 17 06 2013  23 53  -21.0279 26032.9 -03452.0 -07.5535 26260.8
 17 06 2013  23 54  -21.0279 26032.8 -03452.0 -07.5534 26260.7
 17 06 2013  23 55  -21.0278 26032.8 -03452.0 -07.5534 26260.7
 17 06 2013  23 56  -21.0277 26032.8 -03452.0 -07.5534 26260.7
 17 06 2013  23 57  -21.0276 26032.8 -03452.0 -07.5535 26260.7
 17 06 2013  23 58  -21.0274 26032.8 -03452.0 -07.5534 26260.6
