SAO LUIS EMBRACE-03 <135> 1 Min. Reported data

 DD MM YYYY  HH MM   D(Deg)  H(nT)   Z(nT)   I(Deg)   F(nT)

 15 05 2013  00 00  -21.0426 26030.4 -03439.3 -07.5267 26256.6
 15 05 2013  00 01  -21.0427 26030.1 -03439.2 -07.5266 26256.4
 15 05 2013  00 02  -21.0426 26030.0 -03439.2 -07.5265 26256.2
 15 05 2013  00 03  -21.0426 26029.8 -03439.1 -07.5264 26256.0
 15 05 2013  00 04  -21.0426 26029.6 -03439.1 -07.5264 26255.8
 15 05 2013  00 05  -21.0424 26029.4 -03439.0 -07.5264 26255.6
 15 05 2013  00 06  -21.0424 26029.4 -03439.1 -07.5264 26255.6
 15 05 2013  00 07  -21.0424 26029.4 -03439.1 -07.5266 26255.6
 15 05 2013  00 08  -21.0423 26029.5 -03439.2 -07.5268 26255.7
 15 05 2013  00 09  -21.0422 26029.6 -03439.3 -07.5270 26255.8
 15 05 2013  00 10  -21.0421 26029.6 -03439.4 -07.5271 26255.9
 15 05 2013  00 11  -21.0420 26029.7 -03439.4 -07.5272 26255.9
 15 05 2013  00 12  -21.0419 26029.8 -03439.5 -07.5273 26256.0
 15 05 2013  00 13  -21.0419 26029.8 -03439.6 -07.5274 26256.1
 15 05 2013  00 14  -21.0417 26029.9 -03439.6 -07.5275 26256.2
 15 05 2013  00 15  -21.0416 26029.9 -03439.6 -07.5275 26256.2
 15 05 2013  00 16  -21.0415 26030.0 -03439.7 -07.5276 26256.2
 15 05 2013  00 17  -21.0414 26030.0 -03439.7 -07.5276 26256.3
 15 05 2013  00 18  -21.0413 26030.1 -03439.7 -07.5277 26256.4
 15 05 2013  00 19  -21.0411 26030.1 -03439.8 -07.5277 26256.4
 15 05 2013  00 20  -21.0411 26030.0 -03439.7 -07.5277 26256.3
 15 05 2013  00 21  -21.0410 26030.0 -03439.7 -07.5277 26256.3
 15 05 2013  00 22  -21.0408 26030.0 -03439.7 -07.5277 26256.3
 15 05 2013  00 23  -21.0407 26030.0 -03439.7 -07.5277 26256.2
 15 05 2013  00 24  -21.0406 26029.9 -03439.7 -07.5278 26256.2
 15 05 2013  00 25  -21.0404 26029.9 -03439.8 -07.5278 26256.2
 15 05 2013  00 26  -21.0404 26029.9 -03439.8 -07.5278 26256.2
 15 05 2013  00 27  -21.0402 26030.0 -03439.8 -07.5279 26256.3
 15 05 2013  00 28  -21.0401 26030.0 -03439.8 -07.5279 26256.3
 15 05 2013  00 29  -21.0400 26030.0 -03439.8 -07.5280 26256.3
 15 05 2013  00 30  -21.0399 26030.0 -03439.9 -07.5280 26256.3
 15 05 2013  00 31  -21.0398 26030.0 -03439.9 -07.5280 26256.3
 15 05 2013  00 32  -21.0397 26029.9 -03439.9 -07.5281 26256.2
 15 05 2013  00 33  -21.0396 26029.9 -03439.9 -07.5281 26256.2
 15 05 2013  00 34  -21.0395 26030.0 -03439.9 -07.5282 26256.3
 15 05 2013  00 35  -21.0395 26030.0 -03439.9 -07.5282 26256.3
 15 05 2013  00 36  -21.0394 26030.0 -03440.0 -07.5283 26256.3
 15 05 2013  00 37  -21.0393 26030.1 -03440.0 -07.5283 26256.4
 15 05 2013  00 38  -21.0392 26030.1 -03440.0 -07.5284 26256.5
 15 05 2013  00 39  -21.0390 26030.2 -03440.1 -07.5284 26256.5
 15 05 2013  00 40  -21.0389 26030.2 -03440.1 -07.5284 26256.5
 15 05 2013  00 41  -21.0389 26030.2 -03440.1 -07.5284 26256.5
 15 05 2013  00 42  -21.0388 26030.2 -03440.1 -07.5284 26256.6
 15 05 2013  00 43  -21.0387 26030.3 -03440.1 -07.5285 26256.6
 15 05 2013  00 44  -21.0386 26030.3 -03440.1 -07.5285 26256.6
 15 05 2013  00 45  -21.0385 26030.2 -03440.1 -07.5284 26256.6
 15 05 2013  00 46  -21.0384 26030.2 -03440.1 -07.5284 26256.5
 15 05 2013  00 47  -21.0383 26030.2 -03440.0 -07.5283 26256.5
 15 05 2013  00 48  -21.0380 26030.2 -03440.1 -07.5283 26256.6
 15 05 2013  00 49  -21.0378 26030.4 -03440.1 -07.5285 26256.7
 15 05 2013  00 50  -21.0376 26030.5 -03440.2 -07.5286 26256.9
 15 05 2013  00 51  -21.0375 26030.7 -03440.3 -07.5287 26257.0
 15 05 2013  00 52  -21.0374 26030.8 -03440.3 -07.5287 26257.1
 15 05 2013  00 53  -21.0374 26030.9 -03440.4 -07.5289 26257.3
 15 05 2013  00 54  -21.0374 26031.0 -03440.4 -07.5290 26257.3
 15 05 2013  00 55  -21.0375 26031.0 -03440.4 -07.5289 26257.4
 15 05 2013  00 56  -21.0374 26031.1 -03440.4 -07.5288 26257.4
 15 05 2013  00 57  -21.0372 26031.1 -03440.4 -07.5288 26257.5
 15 05 2013  00 58  -21.0371 26031.2 -03440.4 -07.5289 26257.6
 15 05 2013  00 59  -21.0369 26031.3 -03440.4 -07.5289 26257.7
 15 05 2013  01 00  -21.0369 26031.3 -03440.4 -07.5289 26257.7
 15 05 2013  01 01  -21.0369 26031.3 -03440.4 -07.5289 26257.6
 15 05 2013  01 02  -21.0371 26031.2 -03440.4 -07.5288 26257.6
 15 05 2013  01 03  -21.0372 26031.1 -03440.4 -07.5287 26257.5
 15 05 2013  01 04  -21.0373 26031.1 -03440.3 -07.5287 26257.5
 15 05 2013  01 05  -21.0372 26031.1 -03440.3 -07.5286 26257.4
 15 05 2013  01 06  -21.0372 26031.0 -03440.2 -07.5285 26257.4
 15 05 2013  01 07  -21.0371 26030.9 -03440.2 -07.5284 26257.3
 15 05 2013  01 08  -21.0370 26030.9 -03440.2 -07.5284 26257.2
 15 05 2013  01 09  -21.0369 26030.9 -03440.2 -07.5284 26257.3
 15 05 2013  01 10  -21.0367 26031.0 -03440.2 -07.5285 26257.4
 15 05 2013  01 11  -21.0367 26031.0 -03440.2 -07.5285 26257.3
 15 05 2013  01 12  -21.0366 26030.9 -03440.2 -07.5284 26257.2
 15 05 2013  01 13  -21.0365 26030.9 -03440.2 -07.5284 26257.3
 15 05 2013  01 14  -21.0364 26031.0 -03440.2 -07.5285 26257.4
 15 05 2013  01 15  -21.0365 26030.9 -03440.2 -07.5285 26257.3
 15 05 2013  01 16  -21.0366 26030.7 -03440.1 -07.5283 26257.0
 15 05 2013  01 17  -21.0366 26030.4 -03440.0 -07.5281 26256.8
 15 05 2013  01 18  -21.0366 26030.2 -03439.8 -07.5279 26256.5
 15 05 2013  01 19  -21.0366 26030.1 -03439.8 -07.5278 26256.4
 15 05 2013  01 20  -21.0364 26030.0 -03439.8 -07.5278 26256.3
 15 05 2013  01 21  -21.0363 26030.0 -03439.8 -07.5278 26256.3
 15 05 2013  01 22  -21.0361 26030.0 -03439.8 -07.5279 26256.3
 15 05 2013  01 23  -21.0359 26030.0 -03439.8 -07.5279 26256.3
 15 05 2013  01 24  -21.0358 26029.9 -03439.8 -07.5279 26256.2
 15 05 2013  01 25  -21.0357 26029.9 -03439.8 -07.5280 26256.2
 15 05 2013  01 26  -21.0356 26029.9 -03439.8 -07.5280 26256.2
 15 05 2013  01 27  -21.0356 26029.9 -03439.9 -07.5280 26256.2
 15 05 2013  01 28  -21.0356 26029.9 -03439.9 -07.5281 26256.2
 15 05 2013  01 29  -21.0356 26029.9 -03439.9 -07.5282 26256.2
 15 05 2013  01 30  -21.0357 26029.9 -03440.0 -07.5282 26256.2
 15 05 2013  01 31  -21.0359 26029.9 -03440.0 -07.5283 26256.2
 15 05 2013  01 32  -21.0359 26029.9 -03440.0 -07.5283 26256.2
 15 05 2013  01 33  -21.0359 26029.9 -03440.0 -07.5283 26256.2
 15 05 2013  01 34  -21.0358 26029.9 -03440.0 -07.5283 26256.3
 15 05 2013  01 35  -21.0357 26029.9 -03440.0 -07.5283 26256.3
 15 05 2013  01 36  -21.0356 26030.0 -03440.0 -07.5283 26256.3
 15 05 2013  01 37  -21.0353 26030.0 -03440.0 -07.5284 26256.3
 15 05 2013  01 38  -21.0352 26030.0 -03440.0 -07.5284 26256.3
 15 05 2013  01 39  -21.0351 26030.1 -03440.1 -07.5284 26256.4
 15 05 2013  01 40  -21.0349 26030.1 -03440.1 -07.5284 26256.4
 15 05 2013  01 41  -21.0348 26030.2 -03440.1 -07.5285 26256.5
 15 05 2013  01 42  -21.0347 26030.2 -03440.1 -07.5285 26256.6
 15 05 2013  01 43  -21.0345 26030.3 -03440.1 -07.5285 26256.6
 15 05 2013  01 44  -21.0344 26030.3 -03440.2 -07.5286 26256.7
 15 05 2013  01 45  -21.0342 26030.4 -03440.2 -07.5286 26256.7
 15 05 2013  01 46  -21.0342 26030.3 -03440.2 -07.5286 26256.7
 15 05 2013  01 47  -21.0341 26030.3 -03440.2 -07.5286 26256.7
 15 05 2013  01 48  -21.0340 26030.3 -03440.2 -07.5286 26256.7
 15 05 2013  01 49  -21.0339 26030.3 -03440.2 -07.5286 26256.7
 15 05 2013  01 50  -21.0339 26030.3 -03440.2 -07.5286 26256.6
 15 05 2013  01 51  -21.0339 26030.2 -03440.2 -07.5286 26256.6
 15 05 2013  01 52  -21.0339 26030.3 -03440.2 -07.5286 26256.6
 15 05 2013  01 53  -21.0339 26030.3 -03440.2 -07.5287 26256.7
 15 05 2013  01 54  -21.0339 26030.4 -03440.3 -07.5287 26256.7
 15 05 2013  01 55  -21.0339 26030.4 -03440.3 -07.5288 26256.7
 15 05 2013  01 56  -21.0340 26030.4 -03440.3 -07.5287 26256.7
 15 05 2013  01 57  -21.0340 26030.3 -03440.2 -07.5287 26256.7
 15 05 2013  01 58  -21.0341 26030.3 -03440.2 -07.5287 26256.7
 15 05 2013  01 59  -21.0341 26030.2 -03440.2 -07.5286 26256.6
 15 05 2013  02 00  -21.0341 26030.2 -03440.1 -07.5286 26256.5
 15 05 2013  02 01  -21.0341 26030.1 -03440.1 -07.5285 26256.4
 15 05 2013  02 02  -21.0341 26030.0 -03440.1 -07.5284 26256.4
 15 05 2013  02 03  -21.0342 26029.9 -03440.0 -07.5283 26256.2
 15 05 2013  02 04  -21.0343 26029.8 -03440.0 -07.5283 26256.1
 15 05 2013  02 05  -21.0344 26029.7 -03439.9 -07.5282 26256.0
 15 05 2013  02 06  -21.0343 26029.6 -03439.9 -07.5282 26255.9
 15 05 2013  02 07  -21.0343 26029.6 -03439.9 -07.5282 26255.9
 15 05 2013  02 08  -21.0342 26029.6 -03439.9 -07.5282 26255.9
 15 05 2013  02 09  -21.0341 26029.7 -03439.9 -07.5283 26256.0
 15 05 2013  02 10  -21.0340 26029.7 -03440.0 -07.5283 26256.0
 15 05 2013  02 11  -21.0340 26029.7 -03440.0 -07.5283 26256.0
 15 05 2013  02 12  -21.0340 26029.7 -03440.0 -07.5284 26256.1
 15 05 2013  02 13  -21.0340 26029.8 -03440.0 -07.5285 26256.1
 15 05 2013  02 14  -21.0340 26029.8 -03440.1 -07.5285 26256.1
 15 05 2013  02 15  -21.0340 26029.8 -03440.1 -07.5285 26256.1
 15 05 2013  02 16  -21.0340 26029.7 -03440.1 -07.5285 26256.1
 15 05 2013  02 17  -21.0341 26029.7 -03440.1 -07.5285 26256.0
 15 05 2013  02 18  -21.0341 26029.7 -03440.1 -07.5285 26256.1
 15 05 2013  02 19  -21.0342 26029.8 -03440.1 -07.5286 26256.1
 15 05 2013  02 20  -21.0343 26029.8 -03440.1 -07.5286 26256.1
 15 05 2013  02 21  -21.0344 26029.7 -03440.1 -07.5286 26256.0
 15 05 2013  02 22  -21.0345 26029.6 -03440.1 -07.5286 26256.0
 15 05 2013  02 23  -21.0345 26029.6 -03440.1 -07.5285 26255.9
 15 05 2013  02 24  -21.0345 26029.5 -03440.0 -07.5285 26255.9
 15 05 2013  02 25  -21.0345 26029.5 -03440.0 -07.5285 26255.9
 15 05 2013  02 26  -21.0346 26029.5 -03440.0 -07.5285 26255.9
 15 05 2013  02 27  -21.0346 26029.5 -03440.0 -07.5285 26255.8
 15 05 2013  02 28  -21.0346 26029.5 -03440.0 -07.5285 26255.8
 15 05 2013  02 29  -21.0345 26029.4 -03440.0 -07.5284 26255.8
 15 05 2013  02 30  -21.0345 26029.4 -03440.0 -07.5284 26255.7
 15 05 2013  02 31  -21.0346 26029.3 -03439.9 -07.5284 26255.7
 15 05 2013  02 32  -21.0347 26029.3 -03439.9 -07.5284 26255.6
 15 05 2013  02 33  -21.0347 26029.3 -03439.9 -07.5283 26255.6
 15 05 2013  02 34  -21.0348 26029.4 -03440.0 -07.5284 26255.7
 15 05 2013  02 35  -21.0348 26029.4 -03440.0 -07.5285 26255.7
 15 05 2013  02 36  -21.0348 26029.4 -03440.0 -07.5285 26255.7
 15 05 2013  02 37  -21.0347 26029.4 -03440.0 -07.5285 26255.8
 15 05 2013  02 38  -21.0346 26029.5 -03440.0 -07.5286 26255.8
 15 05 2013  02 39  -21.0346 26029.6 -03440.1 -07.5286 26255.9
 15 05 2013  02 40  -21.0345 26029.6 -03440.1 -07.5286 26255.9
 15 05 2013  02 41  -21.0345 26029.6 -03440.1 -07.5286 26256.0
 15 05 2013  02 42  -21.0346 26029.7 -03440.1 -07.5287 26256.1
 15 05 2013  02 43  -21.0346 26029.8 -03440.2 -07.5288 26256.1
 15 05 2013  02 44  -21.0347 26029.9 -03440.2 -07.5288 26256.2
 15 05 2013  02 45  -21.0347 26029.9 -03440.2 -07.5288 26256.3
 15 05 2013  02 46  -21.0347 26030.0 -03440.2 -07.5288 26256.3
 15 05 2013  02 47  -21.0347 26030.0 -03440.2 -07.5287 26256.4
 15 05 2013  02 48  -21.0347 26030.1 -03440.2 -07.5288 26256.4
 15 05 2013  02 49  -21.0348 26030.1 -03440.2 -07.5288 26256.4
 15 05 2013  02 50  -21.0350 26030.1 -03440.2 -07.5287 26256.4
 15 05 2013  02 51  -21.0351 26030.1 -03440.2 -07.5286 26256.5
 15 05 2013  02 52  -21.0352 26030.1 -03440.2 -07.5286 26256.5
 15 05 2013  02 53  -21.0353 26030.1 -03440.1 -07.5286 26256.5
 15 05 2013  02 54  -21.0353 26030.1 -03440.1 -07.5285 26256.4
 15 05 2013  02 55  -21.0354 26030.0 -03440.1 -07.5284 26256.3
 15 05 2013  02 56  -21.0355 26030.0 -03440.0 -07.5284 26256.3
 15 05 2013  02 57  -21.0356 26029.9 -03440.0 -07.5283 26256.3
 15 05 2013  02 58  -21.0356 26029.9 -03440.0 -07.5282 26256.2
 15 05 2013  02 59  -21.0356 26029.9 -03439.9 -07.5282 26256.2
 15 05 2013  03 00  -21.0357 26029.8 -03439.9 -07.5282 26256.1
 15 05 2013  03 01  -21.0358 26029.7 -03439.9 -07.5282 26256.1
 15 05 2013  03 02  -21.0358 26029.7 -03439.9 -07.5281 26256.0
 15 05 2013  03 03  -21.0359 26029.7 -03439.9 -07.5281 26256.0
 15 05 2013  03 04  -21.0359 26029.6 -03439.9 -07.5281 26256.0
 15 05 2013  03 05  -21.0360 26029.6 -03439.8 -07.5281 26255.9
 15 05 2013  03 06  -21.0361 26029.5 -03439.8 -07.5281 26255.8
 15 05 2013  03 07  -21.0362 26029.5 -03439.8 -07.5280 26255.8
 15 05 2013  03 08  -21.0364 26029.5 -03439.8 -07.5280 26255.8
 15 05 2013  03 09  -21.0365 26029.4 -03439.8 -07.5280 26255.7
 15 05 2013  03 10  -21.0365 26029.3 -03439.8 -07.5280 26255.6
 15 05 2013  03 11  -21.0365 26029.3 -03439.8 -07.5280 26255.6
 15 05 2013  03 12  -21.0365 26029.4 -03439.8 -07.5280 26255.7
 15 05 2013  03 13  -21.0366 26029.4 -03439.8 -07.5280 26255.7
 15 05 2013  03 14  -21.0365 26029.4 -03439.8 -07.5281 26255.7
 15 05 2013  03 15  -21.0366 26029.5 -03439.9 -07.5281 26255.8
 15 05 2013  03 16  -21.0366 26029.6 -03439.9 -07.5282 26255.9
 15 05 2013  03 17  -21.0367 26029.6 -03439.9 -07.5283 26255.9
 15 05 2013  03 18  -21.0368 26029.6 -03440.0 -07.5283 26256.0
 15 05 2013  03 19  -21.0368 26029.7 -03440.0 -07.5283 26256.0
 15 05 2013  03 20  -21.0368 26029.8 -03440.0 -07.5284 26256.1
 15 05 2013  03 21  -21.0367 26029.9 -03440.0 -07.5284 26256.2
 15 05 2013  03 22  -21.0364 26030.0 -03440.1 -07.5285 26256.3
 15 05 2013  03 23  -21.0363 26030.0 -03440.1 -07.5285 26256.3
 15 05 2013  03 24  -21.0361 26030.1 -03440.1 -07.5286 26256.4
 15 05 2013  03 25  -21.0360 26030.1 -03440.2 -07.5286 26256.5
 15 05 2013  03 26  -21.0359 26030.3 -03440.2 -07.5288 26256.6
 15 05 2013  03 27  -21.0357 26030.4 -03440.3 -07.5289 26256.8
 15 05 2013  03 28  -21.0356 26030.6 -03440.4 -07.5289 26256.9
 15 05 2013  03 29  -21.0354 26030.7 -03440.5 -07.5291 26257.1
 15 05 2013  03 30  -21.0354 26030.8 -03440.5 -07.5292 26257.2
 15 05 2013  03 31  -21.0354 26030.9 -03440.6 -07.5293 26257.3
 15 05 2013  03 32  -21.0355 26031.0 -03440.6 -07.5293 26257.4
 15 05 2013  03 33  -21.0356 26031.0 -03440.6 -07.5294 26257.4
 15 05 2013  03 34  -21.0358 26031.1 -03440.7 -07.5294 26257.5
 15 05 2013  03 35  -21.0360 26031.1 -03440.7 -07.5294 26257.5
 15 05 2013  03 36  -21.0360 26031.1 -03440.7 -07.5294 26257.5
 15 05 2013  03 37  -21.0361 26031.2 -03440.7 -07.5294 26257.6
 15 05 2013  03 38  -21.0361 26031.2 -03440.7 -07.5294 26257.6
 15 05 2013  03 39  -21.0361 26031.3 -03440.7 -07.5293 26257.7
 15 05 2013  03 40  -21.0360 26031.4 -03440.7 -07.5294 26257.8
 15 05 2013  03 41  -21.0360 26031.5 -03440.7 -07.5294 26257.9
 15 05 2013  03 42  -21.0360 26031.7 -03440.8 -07.5295 26258.1
 15 05 2013  03 43  -21.0361 26031.8 -03440.9 -07.5296 26258.2
 15 05 2013  03 44  -21.0362 26032.0 -03440.9 -07.5297 26258.4
 15 05 2013  03 45  -21.0363 26032.0 -03440.9 -07.5297 26258.5
 15 05 2013  03 46  -21.0363 26032.2 -03441.0 -07.5298 26258.6
 15 05 2013  03 47  -21.0363 26032.2 -03441.0 -07.5298 26258.7
 15 05 2013  03 48  -21.0363 26032.2 -03441.0 -07.5298 26258.7
 15 05 2013  03 49  -21.0363 26032.3 -03441.0 -07.5297 26258.7
 15 05 2013  03 50  -21.0364 26032.3 -03440.9 -07.5297 26258.8
 15 05 2013  03 51  -21.0365 26032.3 -03440.9 -07.5296 26258.8
 15 05 2013  03 52  -21.0366 26032.3 -03440.9 -07.5296 26258.7
 15 05 2013  03 53  -21.0367 26032.3 -03440.8 -07.5295 26258.7
 15 05 2013  03 54  -21.0367 26032.2 -03440.8 -07.5294 26258.6
 15 05 2013  03 55  -21.0367 26032.2 -03440.8 -07.5294 26258.6
 15 05 2013  03 56  -21.0367 26032.1 -03440.8 -07.5293 26258.6
 15 05 2013  03 57  -21.0367 26032.2 -03440.7 -07.5293 26258.6
 15 05 2013  03 58  -21.0367 26032.1 -03440.7 -07.5292 26258.5
 15 05 2013  03 59  -21.0367 26032.1 -03440.7 -07.5292 26258.5
 15 05 2013  04 00  -21.0367 26032.1 -03440.7 -07.5292 26258.5
 15 05 2013  04 01  -21.0367 26032.2 -03440.7 -07.5292 26258.6
 15 05 2013  04 02  -21.0367 26032.3 -03440.7 -07.5293 26258.7
 15 05 2013  04 03  -21.0368 26032.3 -03440.8 -07.5293 26258.7
 15 05 2013  04 04  -21.0368 26032.4 -03440.8 -07.5293 26258.8
 15 05 2013  04 05  -21.0368 26032.4 -03440.8 -07.5293 26258.8
 15 05 2013  04 06  -21.0366 26032.5 -03440.8 -07.5294 26258.9
 15 05 2013  04 07  -21.0365 26032.5 -03440.8 -07.5294 26258.9
 15 05 2013  04 08  -21.0364 26032.6 -03440.9 -07.5294 26259.0
 15 05 2013  04 09  -21.0363 26032.7 -03440.9 -07.5294 26259.1
 15 05 2013  04 10  -21.0361 26032.8 -03440.9 -07.5294 26259.2
 15 05 2013  04 11  -21.0359 26032.9 -03440.9 -07.5295 26259.3
 15 05 2013  04 12  -21.0358 26033.1 -03441.0 -07.5296 26259.5
 15 05 2013  04 13  -21.0357 26033.1 -03441.0 -07.5296 26259.6
 15 05 2013  04 14  -21.0356 26033.2 -03441.0 -07.5297 26259.6
 15 05 2013  04 15  -21.0355 26033.3 -03441.1 -07.5297 26259.8
 15 05 2013  04 16  -21.0355 26033.4 -03441.1 -07.5297 26259.8
 15 05 2013  04 17  -21.0355 26033.4 -03441.1 -07.5298 26259.9
 15 05 2013  04 18  -21.0355 26033.5 -03441.1 -07.5298 26259.9
 15 05 2013  04 19  -21.0356 26033.5 -03441.1 -07.5298 26259.9
 15 05 2013  04 20  -21.0357 26033.4 -03441.1 -07.5297 26259.9
 15 05 2013  04 21  -21.0358 26033.5 -03441.1 -07.5297 26259.9
 15 05 2013  04 22  -21.0359 26033.5 -03441.1 -07.5296 26259.9
 15 05 2013  04 23  -21.0359 26033.5 -03441.1 -07.5296 26259.9
 15 05 2013  04 24  -21.0358 26033.5 -03441.0 -07.5295 26260.0
 15 05 2013  04 25  -21.0356 26033.6 -03441.1 -07.5296 26260.0
 15 05 2013  04 26  -21.0354 26033.7 -03441.1 -07.5296 26260.1
 15 05 2013  04 27  -21.0352 26033.8 -03441.2 -07.5297 26260.2
 15 05 2013  04 28  -21.0349 26033.9 -03441.2 -07.5298 26260.3
 15 05 2013  04 29  -21.0347 26033.9 -03441.2 -07.5298 26260.4
 15 05 2013  04 30  -21.0345 26034.0 -03441.2 -07.5298 26260.4
 15 05 2013  04 31  -21.0345 26034.0 -03441.2 -07.5298 26260.4
 15 05 2013  04 32  -21.0345 26034.0 -03441.2 -07.5298 26260.4
 15 05 2013  04 33  -21.0345 26033.9 -03441.2 -07.5298 26260.4
 15 05 2013  04 34  -21.0346 26033.9 -03441.2 -07.5297 26260.3
 15 05 2013  04 35  -21.0346 26033.9 -03441.1 -07.5297 26260.4
 15 05 2013  04 36  -21.0346 26033.9 -03441.1 -07.5297 26260.3
 15 05 2013  04 37  -21.0347 26033.9 -03441.1 -07.5297 26260.3
 15 05 2013  04 38  -21.0346 26034.0 -03441.2 -07.5297 26260.4
 15 05 2013  04 39  -21.0343 26034.2 -03441.3 -07.5298 26260.6
 15 05 2013  04 40  -21.0341 26034.4 -03441.4 -07.5300 26260.9
 15 05 2013  04 41  -21.0338 26034.8 -03441.5 -07.5303 26261.3
 15 05 2013  04 42  -21.0333 26035.2 -03441.7 -07.5305 26261.7
 15 05 2013  04 43  -21.0329 26035.6 -03441.9 -07.5308 26262.1
 15 05 2013  04 44  -21.0325 26035.8 -03442.0 -07.5310 26262.3
 15 05 2013  04 45  -21.0321 26035.9 -03442.0 -07.5310 26262.4
 15 05 2013  04 46  -21.0319 26035.9 -03442.0 -07.5310 26262.4
 15 05 2013  04 47  -21.0320 26035.8 -03442.0 -07.5309 26262.4
 15 05 2013  04 48  -21.0323 26035.9 -03442.0 -07.5309 26262.4
 15 05 2013  04 49  -21.0323 26035.9 -03442.0 -07.5309 26262.4
 15 05 2013  04 50  -21.0323 26036.0 -03442.0 -07.5309 26262.5
 15 05 2013  04 51  -21.0324 26036.0 -03442.0 -07.5309 26262.5
 15 05 2013  04 52  -21.0324 26036.0 -03442.0 -07.5308 26262.5
 15 05 2013  04 53  -21.0324 26036.0 -03441.9 -07.5308 26262.5
 15 05 2013  04 54  -21.0325 26035.8 -03441.9 -07.5307 26262.4
 15 05 2013  04 55  -21.0328 26035.5 -03441.7 -07.5304 26262.0
 15 05 2013  04 56  -21.0331 26035.3 -03441.6 -07.5302 26261.8
 15 05 2013  04 57  -21.0332 26035.4 -03441.6 -07.5302 26261.9
 15 05 2013  04 58  -21.0330 26035.6 -03441.7 -07.5303 26262.1
 15 05 2013  04 59  -21.0327 26035.7 -03441.7 -07.5304 26262.2
 15 05 2013  05 00  -21.0325 26035.8 -03441.8 -07.5305 26262.3
 15 05 2013  05 01  -21.0323 26035.9 -03441.8 -07.5306 26262.5
 15 05 2013  05 02  -21.0323 26036.0 -03441.9 -07.5307 26262.5
 15 05 2013  05 03  -21.0323 26036.1 -03441.9 -07.5307 26262.6
 15 05 2013  05 04  -21.0323 26036.1 -03442.0 -07.5308 26262.7
 15 05 2013  05 05  -21.0323 26036.2 -03442.0 -07.5308 26262.7
 15 05 2013  05 06  -21.0323 26036.2 -03442.0 -07.5308 26262.7
 15 05 2013  05 07  -21.0325 26036.2 -03442.0 -07.5308 26262.7
 15 05 2013  05 08  -21.0326 26036.3 -03442.0 -07.5308 26262.8
 15 05 2013  05 09  -21.0327 26036.3 -03442.0 -07.5308 26262.8
 15 05 2013  05 10  -21.0328 26036.2 -03441.9 -07.5306 26262.7
 15 05 2013  05 11  -21.0330 26036.1 -03441.8 -07.5305 26262.6
 15 05 2013  05 12  -21.0329 26036.0 -03441.7 -07.5304 26262.5
 15 05 2013  05 13  -21.0329 26035.9 -03441.7 -07.5302 26262.4
 15 05 2013  05 14  -21.0329 26035.9 -03441.7 -07.5302 26262.4
 15 05 2013  05 15  -21.0329 26036.0 -03441.7 -07.5303 26262.5
 15 05 2013  05 16  -21.0327 26036.2 -03441.8 -07.5304 26262.7
 15 05 2013  05 17  -21.0325 26036.6 -03442.0 -07.5307 26263.1
 15 05 2013  05 18  -21.0320 26037.1 -03442.2 -07.5310 26263.6
 15 05 2013  05 19  -21.0315 26037.6 -03442.4 -07.5314 26264.2
 15 05 2013  05 20  -21.0311 26037.9 -03442.6 -07.5316 26264.4
 15 05 2013  05 21  -21.0311 26037.9 -03442.6 -07.5316 26264.5
 15 05 2013  05 22  -21.0311 26037.9 -03442.5 -07.5315 26264.5
 15 05 2013  05 23  -21.0310 26037.9 -03442.5 -07.5314 26264.5
 15 05 2013  05 24  -21.0308 26038.1 -03442.5 -07.5315 26264.7
 15 05 2013  05 25  -21.0306 26038.3 -03442.6 -07.5316 26264.9
 15 05 2013  05 26  -21.0304 26038.6 -03442.7 -07.5317 26265.2
 15 05 2013  05 27  -21.0301 26038.7 -03442.8 -07.5319 26265.4
 15 05 2013  05 28  -21.0298 26038.9 -03442.9 -07.5320 26265.5
 15 05 2013  05 29  -21.0297 26039.0 -03442.9 -07.5320 26265.6
 15 05 2013  05 30  -21.0296 26039.0 -03442.9 -07.5320 26265.7
 15 05 2013  05 31  -21.0295 26039.1 -03442.9 -07.5319 26265.7
 15 05 2013  05 32  -21.0294 26039.0 -03442.8 -07.5318 26265.6
 15 05 2013  05 33  -21.0294 26038.9 -03442.7 -07.5317 26265.5
 15 05 2013  11 59  -21.0275 26066.1 -03442.4 -07.5232 26292.5
 15 05 2013  12 00  -21.0275 26066.2 -03442.2 -07.5228 26292.5
 15 05 2013  12 01  -21.0272 26065.9 -03441.9 -07.5222 26292.2
 15 05 2013  12 02  -21.0263 26066.2 -03441.8 -07.5218 26292.5
 15 05 2013  12 03  -21.0256 26067.1 -03441.8 -07.5216 26293.3
 15 05 2013  12 04  -21.0254 26067.6 -03441.7 -07.5212 26293.9
 15 05 2013  12 05  -21.0249 26067.7 -03441.3 -07.5203 26293.9
 15 05 2013  12 06  -21.0242 26067.7 -03440.9 -07.5194 26293.8
 15 05 2013  12 07  -21.0244 26067.1 -03440.4 -07.5185 26293.2
 15 05 2013  12 08  -21.0249 26067.3 -03440.2 -07.5181 26293.3
 15 05 2013  12 09  -21.0238 26068.0 -03440.2 -07.5179 26294.0
 15 05 2013  12 10  -21.0236 26067.9 -03439.9 -07.5172 26293.8
 15 05 2013  12 11  -21.0237 26067.4 -03439.4 -07.5164 26293.3
 15 05 2013  12 12  -21.0242 26067.2 -03439.3 -07.5161 26293.1
 15 05 2013  12 13  -21.0246 26067.1 -03439.1 -07.5157 26293.0
 15 05 2013  12 14  -21.0245 26067.0 -03438.9 -07.5154 26292.8
 15 05 2013  12 15  -21.0242 26066.8 -03438.7 -07.5150 26292.6
 15 05 2013  12 16  -21.0240 26066.9 -03438.6 -07.5147 26292.8
 15 05 2013  12 17  -21.0232 26067.2 -03438.5 -07.5144 26293.0
 15 05 2013  12 18  -21.0225 26066.6 -03438.1 -07.5137 26292.4
 15 05 2013  12 19  -21.0222 26066.0 -03437.8 -07.5133 26291.7
 15 05 2013  12 20  -21.0220 26066.2 -03438.0 -07.5137 26291.9
 15 05 2013  12 21  -21.0214 26065.9 -03438.0 -07.5138 26291.7
 15 05 2013  12 22  -21.0217 26065.7 -03438.1 -07.5139 26291.5
 15 05 2013  12 23  -21.0216 26065.9 -03438.2 -07.5142 26291.7
 15 05 2013  12 24  -21.0208 26065.8 -03438.3 -07.5143 26291.6
 15 05 2013  12 25  -21.0213 26065.6 -03438.4 -07.5146 26291.4
 15 05 2013  12 26  -21.0221 26065.7 -03438.7 -07.5152 26291.5
 15 05 2013  12 27  -21.0218 26066.4 -03439.1 -07.5159 26292.3
 15 05 2013  12 28  -21.0220 26067.0 -03439.3 -07.5161 26292.9
 15 05 2013  12 29  -21.0223 26067.3 -03439.3 -07.5162 26293.2
 15 05 2013  12 30  -21.0232 26066.3 -03439.0 -07.5157 26292.2
 15 05 2013  12 31  -21.0238 26066.7 -03439.2 -07.5162 26292.6
 15 05 2013  12 32  -21.0242 26066.6 -03439.4 -07.5164 26292.5
 15 05 2013  12 33  -21.0248 26067.6 -03439.8 -07.5172 26293.5
 15 05 2013  12 34  -21.0254 26068.3 -03440.0 -07.5174 26294.2
 15 05 2013  12 35  -21.0249 26068.5 -03439.9 -07.5171 26294.5
 15 05 2013  12 36  -21.0249 26068.5 -03439.8 -07.5168 26294.5
 15 05 2013  12 37  -21.0251 26068.4 -03439.6 -07.5166 26294.3
 15 05 2013  12 38  -21.0259 26068.2 -03439.5 -07.5164 26294.2
 15 05 2013  12 39  -21.0268 26068.3 -03439.5 -07.5162 26294.2
 15 05 2013  12 40  -21.0282 26067.5 -03439.1 -07.5156 26293.4
 15 05 2013  12 41  -21.0295 26067.1 -03439.1 -07.5158 26293.0
 15 05 2013  12 42  -21.0304 26068.3 -03439.7 -07.5168 26294.2
 15 05 2013  12 43  -21.0305 26068.5 -03439.7 -07.5166 26294.5
 15 05 2013  12 44  -21.0305 26068.8 -03439.6 -07.5163 26294.7
 15 05 2013  12 45  -21.0296 26069.0 -03439.5 -07.5160 26294.9
 15 05 2013  12 46  -21.0287 26068.8 -03439.3 -07.5156 26294.7
 15 05 2013  12 47  -21.0289 26067.5 -03438.8 -07.5150 26293.3
 15 05 2013  12 48  -21.0297 26066.9 -03439.0 -07.5157 26292.8
 15 05 2013  12 49  -21.0311 26066.8 -03439.5 -07.5166 26292.7
 15 05 2013  12 50  -21.0316 26066.0 -03439.6 -07.5171 26292.0
 15 05 2013  12 51  -21.0324 26065.6 -03440.0 -07.5182 26291.6
 15 05 2013  12 52  -21.0332 26066.0 -03440.8 -07.5197 26292.2
 15 05 2013  12 53  -21.0344 26066.4 -03441.2 -07.5206 26292.5
 15 05 2013  12 54  -21.0346 26066.4 -03441.4 -07.5209 26292.6
 15 05 2013  12 55  -21.0347 26066.4 -03441.5 -07.5212 26292.6
 15 05 2013  12 56  -21.0356 26066.6 -03441.8 -07.5216 26292.8
 15 05 2013  12 57  -21.0367 26067.1 -03442.0 -07.5221 26293.3
 15 05 2013  12 58  -21.0380 26067.1 -03442.1 -07.5223 26293.4
 15 05 2013  12 59  -21.0390 26067.3 -03442.4 -07.5229 26293.6
 15 05 2013  13 00  -21.0397 26068.0 -03442.9 -07.5238 26294.4
 15 05 2013  13 01  -21.0398 26069.8 -03443.8 -07.5252 26296.3
 15 05 2013  13 02  -21.0400 26071.8 -03444.6 -07.5263 26298.3
 15 05 2013  13 03  -21.0403 26073.9 -03445.1 -07.5269 26300.5
 15 05 2013  13 04  -21.0397 26075.6 -03445.3 -07.5268 26302.2
 15 05 2013  13 05  -21.0388 26076.6 -03445.3 -07.5265 26303.2
 15 05 2013  13 06  -21.0388 26077.0 -03445.1 -07.5259 26303.6
 15 05 2013  13 07  -21.0405 26077.3 -03444.8 -07.5252 26303.8
 15 05 2013  13 08  -21.0411 26077.9 -03444.6 -07.5245 26304.4
 15 05 2013  13 09  -21.0407 26076.8 -03443.7 -07.5229 26303.2
 15 05 2013  13 10  -21.0408 26075.6 -03443.2 -07.5223 26302.0
 15 05 2013  13 11  -21.0421 26075.5 -03443.5 -07.5228 26301.9
 15 05 2013  13 12  -21.0431 26075.9 -03443.7 -07.5233 26302.3
 15 05 2013  13 13  -21.0442 26075.6 -03443.7 -07.5233 26302.0
 15 05 2013  13 14  -21.0449 26076.5 -03444.0 -07.5236 26303.0
 15 05 2013  13 15  -21.0451 26077.3 -03444.0 -07.5234 26303.7
 15 05 2013  13 16  -21.0447 26077.6 -03443.7 -07.5227 26304.0
 15 05 2013  13 17  -21.0446 26077.7 -03443.5 -07.5223 26304.0
 15 05 2013  13 18  -21.0450 26077.7 -03443.4 -07.5221 26304.1
 15 05 2013  13 19  -21.0453 26077.6 -03443.5 -07.5223 26304.0
 15 05 2013  13 20  -21.0451 26078.5 -03444.0 -07.5230 26304.9
 15 05 2013  13 21  -21.0450 26079.8 -03444.4 -07.5237 26306.3
 15 05 2013  13 22  -21.0464 26081.2 -03444.9 -07.5243 26307.7
 15 05 2013  13 23  -21.0458 26082.8 -03445.3 -07.5246 26309.3
 15 05 2013  13 24  -21.0443 26085.9 -03446.2 -07.5256 26312.6
 15 05 2013  13 25  -21.0440 26087.1 -03446.0 -07.5250 26313.8
 15 05 2013  13 26  -21.0439 26088.3 -03445.9 -07.5243 26314.9
 15 05 2013  13 27  -21.0448 26088.4 -03445.4 -07.5234 26314.9
 15 05 2013  13 28  -21.0465 26088.4 -03445.0 -07.5225 26314.9
 15 05 2013  13 29  -21.0471 26088.9 -03444.8 -07.5218 26315.3
 15 05 2013  13 30  -21.0477 26089.3 -03444.6 -07.5212 26315.7
 15 05 2013  13 31  -21.0489 26089.5 -03444.4 -07.5208 26315.9
 15 05 2013  13 32  -21.0497 26090.5 -03444.5 -07.5207 26316.9
 15 05 2013  13 33  -21.0504 26091.1 -03444.3 -07.5201 26317.5
 15 05 2013  13 34  -21.0524 26090.8 -03443.7 -07.5190 26317.1
 15 05 2013  13 35  -21.0536 26089.8 -03443.0 -07.5176 26316.0
 15 05 2013  13 36  -21.0550 26088.9 -03442.4 -07.5167 26315.0
 15 05 2013  13 37  -21.0555 26088.2 -03442.1 -07.5163 26314.3
 15 05 2013  13 38  -21.0560 26087.4 -03441.9 -07.5160 26313.5
 15 05 2013  13 39  -21.0563 26087.4 -03442.2 -07.5166 26313.5
 15 05 2013  13 40  -21.0578 26086.3 -03442.2 -07.5169 26312.4
 15 05 2013  13 41  -21.0586 26086.4 -03442.5 -07.5177 26312.5
 15 05 2013  13 42  -21.0593 26087.4 -03443.3 -07.5189 26313.7
 15 05 2013  13 43  -21.0600 26086.5 -03442.9 -07.5184 26312.8
 15 05 2013  13 44  -21.0602 26086.2 -03442.8 -07.5183 26312.5
 15 05 2013  13 45  -21.0608 26086.5 -03443.0 -07.5187 26312.7
 15 05 2013  13 46  -21.0609 26085.7 -03442.8 -07.5184 26311.9
 15 05 2013  13 47  -21.0600 26086.1 -03443.0 -07.5187 26312.4
 15 05 2013  13 48  -21.0599 26086.1 -03443.1 -07.5190 26312.4
 15 05 2013  13 49  -21.0596 26085.4 -03442.9 -07.5188 26311.6
 15 05 2013  13 50  -21.0591 26084.9 -03442.9 -07.5190 26311.1
 15 05 2013  13 51  -21.0591 26084.8 -03443.1 -07.5195 26311.0
 15 05 2013  13 52  -21.0594 26084.1 -03443.2 -07.5198 26310.4
 15 05 2013  13 53  -21.0601 26084.9 -03443.7 -07.5206 26311.2
 15 05 2013  13 54  -21.0603 26083.3 -03443.3 -07.5201 26309.6
 15 05 2013  13 55  -21.0604 26082.8 -03443.4 -07.5205 26309.2
 15 05 2013  13 56  -21.0615 26081.8 -03443.0 -07.5201 26308.1
 15 05 2013  13 57  -21.0614 26080.0 -03442.4 -07.5192 26306.2
 15 05 2013  13 58  -21.0632 26077.7 -03442.0 -07.5191 26303.8
 15 05 2013  13 59  -21.0621 26075.5 -03441.5 -07.5185 26301.6
 15 05 2013  14 00  -21.0616 26074.6 -03442.3 -07.5205 26300.9
 15 05 2013  14 01  -21.0610 26075.0 -03443.7 -07.5234 26301.5
 15 05 2013  14 02  -21.0604 26079.6 -03446.6 -07.5284 26306.4
 15 05 2013  14 03  -21.0580 26080.9 -03446.9 -07.5287 26307.7
 15 05 2013  14 04  -21.0563 26078.6 -03445.7 -07.5266 26305.3
 15 05 2013  14 05  -21.0569 26076.2 -03444.9 -07.5256 26302.8
 15 05 2013  14 06  -21.0577 26075.9 -03444.8 -07.5255 26302.4
 15 05 2013  14 07  -21.0576 26074.4 -03444.3 -07.5249 26300.9
 15 05 2013  14 08  -21.0590 26076.5 -03446.3 -07.5286 26303.3
 15 05 2013  14 09  -21.0620 26079.1 -03448.1 -07.5318 26306.0
 15 05 2013  14 10  -21.0621 26078.9 -03447.6 -07.5306 26305.8
 15 05 2013  14 11  -21.0624 26077.4 -03446.6 -07.5290 26304.2
 15 05 2013  14 12  -21.0617 26077.8 -03446.9 -07.5295 26304.6
 15 05 2013  14 13  -21.0631 26076.0 -03446.4 -07.5289 26302.8
 15 05 2013  14 14  -21.0650 26071.8 -03443.3 -07.5235 26298.2
 15 05 2013  14 15  -21.0615 26063.5 -03438.5 -07.5155 26289.4
 15 05 2013  14 16  -21.0632 26056.3 -03437.4 -07.5152 26282.0
 15 05 2013  14 17  -21.0675 26053.1 -03438.8 -07.5191 26279.1
 15 05 2013  14 18  -21.0706 26052.6 -03440.2 -07.5222 26278.8
 15 05 2013  14 19  -21.0715 26052.7 -03441.4 -07.5248 26279.1
 15 05 2013  14 20  -21.0735 26053.7 -03443.1 -07.5282 26280.3
 15 05 2013  14 21  -21.0752 26055.2 -03444.5 -07.5309 26281.9
 15 05 2013  14 22  -21.0750 26056.8 -03445.4 -07.5324 26283.7
 15 05 2013  14 23  -21.0741 26058.2 -03446.1 -07.5335 26285.1
 15 05 2013  14 24  -21.0729 26060.2 -03447.1 -07.5350 26287.2
 15 05 2013  14 25  -21.0705 26063.5 -03448.6 -07.5373 26290.6
 15 05 2013  14 26  -21.0704 26065.5 -03449.7 -07.5392 26292.7
 15 05 2013  14 27  -21.0702 26068.1 -03450.4 -07.5399 26295.5
 15 05 2013  14 28  -21.0687 26070.9 -03450.8 -07.5400 26298.3
 15 05 2013  14 29  -21.0667 26073.2 -03451.2 -07.5402 26300.6
 15 05 2013  14 30  -21.0660 26075.0 -03451.7 -07.5408 26302.4
 15 05 2013  14 31  -21.0660 26075.4 -03451.4 -07.5399 26302.8
 15 05 2013  14 32  -21.0651 26076.3 -03451.1 -07.5390 26303.7
 15 05 2013  14 33  -21.0643 26078.7 -03451.7 -07.5398 26306.2
 15 05 2013  14 34  -21.0638 26080.1 -03452.2 -07.5403 26307.6
 15 05 2013  14 35  -21.0641 26079.4 -03451.6 -07.5392 26306.9
 15 05 2013  14 36  -21.0641 26078.8 -03450.9 -07.5379 26306.1
 15 05 2013  14 37  -21.0609 26080.1 -03451.3 -07.5383 26307.4
 15 05 2013  14 38  -21.0627 26081.8 -03452.6 -07.5407 26309.3
 15 05 2013  14 39  -21.0632 26082.4 -03452.4 -07.5400 26309.9
 15 05 2013  14 40  -21.0620 26083.0 -03451.9 -07.5390 26310.4
 15 05 2013  14 41  -21.0622 26083.2 -03451.9 -07.5388 26310.6
 15 05 2013  14 42  -21.0625 26081.0 -03450.7 -07.5368 26308.3
 15 05 2013  14 43  -21.0627 26078.1 -03449.0 -07.5340 26305.2
 15 05 2013  14 44  -21.0611 26075.7 -03447.9 -07.5322 26302.7
 15 05 2013  14 45  -21.0607 26071.8 -03446.9 -07.5313 26298.6
 15 05 2013  14 46  -21.0617 26069.5 -03447.0 -07.5322 26296.4
 15 05 2013  14 47  -21.0628 26070.1 -03448.2 -07.5346 26297.2
 15 05 2013  14 48  -21.0653 26071.0 -03449.3 -07.5366 26298.2
 15 05 2013  14 49  -21.0660 26071.8 -03449.6 -07.5372 26299.0
 15 05 2013  14 50  -21.0659 26072.6 -03450.0 -07.5377 26299.9
 15 05 2013  14 51  -21.0658 26073.4 -03450.3 -07.5381 26300.7
 15 05 2013  14 52  -21.0657 26073.4 -03450.2 -07.5380 26300.7
 15 05 2013  14 53  -21.0659 26073.6 -03450.3 -07.5381 26300.9
 15 05 2013  14 54  -21.0664 26073.3 -03450.2 -07.5380 26300.6
 15 05 2013  14 55  -21.0665 26073.3 -03450.2 -07.5380 26300.6
 15 05 2013  14 56  -21.0666 26073.8 -03450.5 -07.5384 26301.1
 15 05 2013  14 57  -21.0674 26074.9 -03451.0 -07.5392 26302.2
 15 05 2013  14 58  -21.0681 26075.4 -03451.0 -07.5392 26302.7
 15 05 2013  14 59  -21.0682 26075.8 -03450.9 -07.5388 26303.1
 15 05 2013  15 00  -21.0681 26076.4 -03451.0 -07.5388 26303.7
 15 05 2013  15 01  -21.0681 26076.9 -03451.1 -07.5388 26304.2
 15 05 2013  15 02  -21.0679 26077.6 -03451.2 -07.5388 26305.0
 15 05 2013  15 03  -21.0681 26078.6 -03451.3 -07.5389 26306.0
 15 05 2013  15 04  -21.0682 26078.7 -03451.1 -07.5383 26306.0
 15 05 2013  15 05  -21.0677 26077.7 -03450.3 -07.5370 26304.9
 15 05 2013  15 06  -21.0672 26077.5 -03450.2 -07.5369 26304.8
 15 05 2013  15 07  -21.0677 26078.0 -03450.5 -07.5373 26305.3
 15 05 2013  15 08  -21.0685 26077.6 -03450.2 -07.5368 26304.9
 15 05 2013  15 09  -21.0687 26076.8 -03449.7 -07.5360 26304.0
 15 05 2013  15 10  -21.0690 26076.4 -03449.6 -07.5357 26303.6
 15 05 2013  15 11  -21.0696 26076.6 -03449.7 -07.5360 26303.8
 15 05 2013  15 12  -21.0698 26077.3 -03450.0 -07.5363 26304.5
 15 05 2013  15 13  -21.0702 26078.1 -03450.2 -07.5366 26305.4
 15 05 2013  15 14  -21.0706 26078.3 -03450.0 -07.5362 26305.5
 15 05 2013  15 15  -21.0705 26078.3 -03449.8 -07.5356 26305.5
 15 05 2013  15 16  -21.0714 26079.7 -03450.2 -07.5362 26306.9
 15 05 2013  15 17  -21.0716 26079.6 -03449.8 -07.5353 26306.8
 15 05 2013  15 18  -21.0715 26079.7 -03449.5 -07.5347 26306.9
 15 05 2013  15 19  -21.0718 26080.0 -03449.5 -07.5345 26307.1
 15 05 2013  15 20  -21.0714 26081.3 -03449.7 -07.5347 26308.4
 15 05 2013  15 21  -21.0704 26084.7 -03451.0 -07.5365 26312.0
 15 05 2013  15 22  -21.0720 26087.9 -03452.1 -07.5380 26315.3
 15 05 2013  15 23  -21.0759 26091.1 -03452.8 -07.5384 26318.6
 15 05 2013  15 24  -21.0753 26087.6 -03449.5 -07.5323 26314.7
 15 05 2013  15 25  -21.0717 26081.4 -03445.7 -07.5260 26308.0
 15 05 2013  15 26  -21.0687 26078.2 -03444.7 -07.5246 26304.7
 15 05 2013  15 27  -21.0687 26078.1 -03445.4 -07.5262 26304.7
 15 05 2013  15 28  -21.0693 26078.0 -03445.7 -07.5270 26304.7
 15 05 2013  15 29  -21.0702 26078.8 -03446.3 -07.5280 26305.5
 15 05 2013  15 30  -21.0719 26082.0 -03447.8 -07.5304 26308.9
 15 05 2013  15 31  -21.0733 26081.4 -03447.1 -07.5290 26308.3
 15 05 2013  15 32  -21.0721 26079.5 -03445.7 -07.5265 26306.1
 15 05 2013  15 33  -21.0710 26080.0 -03446.1 -07.5271 26306.7
 15 05 2013  15 34  -21.0716 26081.6 -03447.0 -07.5287 26308.4
 15 05 2013  15 35  -21.0723 26082.3 -03447.2 -07.5288 26309.1
 15 05 2013  15 36  -21.0725 26082.2 -03446.7 -07.5279 26309.0
 15 05 2013  15 37  -21.0722 26081.6 -03446.1 -07.5268 26308.2
 15 05 2013  15 38  -21.0721 26080.8 -03445.6 -07.5258 26307.4
 15 05 2013  15 39  -21.0716 26080.2 -03445.2 -07.5252 26306.7
 15 05 2013  15 40  -21.0713 26079.4 -03444.8 -07.5247 26305.9
 15 05 2013  15 41  -21.0720 26078.6 -03444.5 -07.5242 26305.1
 15 05 2013  15 42  -21.0721 26077.3 -03443.9 -07.5233 26303.7
 15 05 2013  15 43  -21.0714 26076.0 -03443.6 -07.5229 26302.4
 15 05 2013  15 44  -21.0718 26076.5 -03444.2 -07.5242 26303.0
 15 05 2013  15 45  -21.0735 26078.2 -03445.3 -07.5259 26304.8
 15 05 2013  15 46  -21.0750 26079.8 -03445.8 -07.5267 26306.4
 15 05 2013  15 47  -21.0759 26081.0 -03446.0 -07.5268 26307.6
 15 05 2013  15 48  -21.0761 26081.6 -03446.0 -07.5264 26308.2
 15 05 2013  15 49  -21.0764 26081.5 -03445.6 -07.5257 26308.1
 15 05 2013  15 50  -21.0765 26081.2 -03445.2 -07.5249 26307.7
 15 05 2013  15 51  -21.0766 26080.8 -03444.8 -07.5242 26307.3
 15 05 2013  15 52  -21.0767 26080.2 -03444.5 -07.5236 26306.7
 15 05 2013  15 53  -21.0767 26079.9 -03444.2 -07.5232 26306.4
 15 05 2013  15 54  -21.0773 26080.0 -03444.2 -07.5232 26306.5
 15 05 2013  15 55  -21.0781 26080.6 -03444.4 -07.5233 26307.1
 15 05 2013  15 56  -21.0780 26080.7 -03444.2 -07.5229 26307.1
 15 05 2013  15 57  -21.0785 26081.2 -03444.3 -07.5230 26307.7
 15 05 2013  15 58  -21.0794 26082.8 -03444.9 -07.5237 26309.3
 15 05 2013  15 59  -21.0800 26082.2 -03444.2 -07.5226 26308.7
 15 05 2013  16 00  -21.0800 26081.0 -03443.4 -07.5210 26307.3
 15 05 2013  16 01  -21.0801 26079.6 -03442.7 -07.5199 26305.8
 15 05 2013  16 02  -21.0795 26077.3 -03441.6 -07.5182 26303.4
 15 05 2013  16 03  -21.0794 26077.1 -03441.7 -07.5186 26303.3
 15 05 2013  16 04  -21.0803 26078.8 -03442.7 -07.5202 26305.1
 15 05 2013  16 05  -21.0813 26079.0 -03442.7 -07.5201 26305.2
 15 05 2013  16 06  -21.0815 26077.7 -03441.8 -07.5187 26303.8
 15 05 2013  16 07  -21.0815 26076.6 -03441.3 -07.5178 26302.7
 15 05 2013  16 08  -21.0821 26076.1 -03441.2 -07.5177 26302.2
 15 05 2013  16 09  -21.0823 26075.5 -03441.0 -07.5175 26301.6
 15 05 2013  16 10  -21.0828 26075.2 -03440.9 -07.5173 26301.2
 15 05 2013  16 11  -21.0832 26075.0 -03440.8 -07.5172 26301.0
 15 05 2013  16 12  -21.0836 26075.0 -03440.8 -07.5173 26301.1
 15 05 2013  16 13  -21.0842 26075.5 -03441.0 -07.5175 26301.6
 15 05 2013  16 14  -21.0846 26075.8 -03441.1 -07.5176 26301.9
 15 05 2013  16 15  -21.0848 26075.9 -03441.0 -07.5174 26302.0
 15 05 2013  16 16  -21.0848 26076.0 -03440.9 -07.5170 26302.0
 15 05 2013  16 17  -21.0849 26076.0 -03440.7 -07.5167 26302.0
 15 05 2013  16 18  -21.0849 26075.9 -03440.5 -07.5164 26301.9
 15 05 2013  16 19  -21.0849 26075.5 -03440.3 -07.5159 26301.5
 15 05 2013  16 20  -21.0845 26074.9 -03439.9 -07.5153 26300.8
 15 05 2013  16 21  -21.0843 26074.7 -03439.8 -07.5151 26300.6
 15 05 2013  16 22  -21.0840 26074.6 -03439.7 -07.5149 26300.5
 15 05 2013  16 23  -21.0838 26074.8 -03439.7 -07.5149 26300.7
 15 05 2013  16 24  -21.0837 26075.4 -03439.9 -07.5150 26301.3
 15 05 2013  16 25  -21.0839 26075.6 -03439.8 -07.5148 26301.5
 15 05 2013  16 26  -21.0835 26075.3 -03439.4 -07.5140 26301.2
 15 05 2013  16 27  -21.0829 26075.0 -03439.0 -07.5133 26300.8
 15 05 2013  16 28  -21.0823 26074.7 -03438.8 -07.5129 26300.5
 15 05 2013  16 29  -21.0820 26074.5 -03438.5 -07.5124 26300.2
 15 05 2013  16 30  -21.0818 26074.2 -03438.3 -07.5120 26300.0
 15 05 2013  16 31  -21.0813 26074.1 -03438.1 -07.5116 26299.8
 15 05 2013  16 32  -21.0808 26073.8 -03437.9 -07.5112 26299.5
 15 05 2013  16 33  -21.0804 26072.8 -03437.3 -07.5102 26298.4
 15 05 2013  16 34  -21.0795 26072.1 -03436.9 -07.5095 26297.7
 15 05 2013  16 35  -21.0789 26071.9 -03436.8 -07.5093 26297.5
 15 05 2013  16 36  -21.0786 26071.9 -03436.7 -07.5093 26297.5
 15 05 2013  16 37  -21.0785 26072.0 -03436.7 -07.5091 26297.6
 15 05 2013  16 38  -21.0780 26072.0 -03436.5 -07.5088 26297.5
 15 05 2013  16 39  -21.0773 26071.5 -03436.2 -07.5082 26297.0
 15 05 2013  16 40  -21.0768 26071.8 -03436.2 -07.5082 26297.3
 15 05 2013  16 41  -21.0765 26072.0 -03436.2 -07.5080 26297.5
 15 05 2013  16 42  -21.0764 26072.4 -03436.2 -07.5079 26297.8
 15 05 2013  16 43  -21.0761 26071.8 -03435.7 -07.5070 26297.2
 15 05 2013  16 44  -21.0752 26071.1 -03435.2 -07.5061 26296.4
 15 05 2013  16 45  -21.0749 26070.5 -03434.8 -07.5055 26295.7
 15 05 2013  16 46  -21.0742 26069.7 -03434.5 -07.5050 26295.0
 15 05 2013  16 47  -21.0737 26069.4 -03434.3 -07.5047 26294.6
 15 05 2013  16 48  -21.0730 26069.2 -03434.2 -07.5045 26294.4
 15 05 2013  16 49  -21.0726 26068.9 -03434.0 -07.5043 26294.1
 15 05 2013  16 50  -21.0720 26068.4 -03433.8 -07.5039 26293.5
 15 05 2013  16 51  -21.0710 26068.0 -03433.6 -07.5036 26293.1
 15 05 2013  16 52  -21.0701 26068.0 -03433.7 -07.5037 26293.1
 15 05 2013  16 53  -21.0699 26068.3 -03433.9 -07.5041 26293.5
 15 05 2013  16 54  -21.0699 26068.3 -03433.8 -07.5039 26293.4
 15 05 2013  16 55  -21.0693 26067.6 -03433.4 -07.5033 26292.8
 15 05 2013  16 56  -21.0685 26065.9 -03432.5 -07.5019 26291.0
 15 05 2013  16 57  -21.0677 26063.6 -03431.5 -07.5003 26288.5
 15 05 2013  16 58  -21.0663 26062.2 -03431.0 -07.4996 26287.1
 15 05 2013  16 59  -21.0654 26062.7 -03431.5 -07.5006 26287.6
 15 05 2013  17 00  -21.0655 26063.9 -03432.3 -07.5020 26288.9
 15 05 2013  17 01  -21.0655 26064.1 -03432.4 -07.5021 26289.2
 15 05 2013  17 02  -21.0648 26063.5 -03432.0 -07.5014 26288.5
 15 05 2013  17 03  -21.0641 26063.1 -03431.8 -07.5011 26288.0
 15 05 2013  17 04  -21.0631 26062.5 -03431.6 -07.5009 26287.5
 15 05 2013  17 05  -21.0631 26062.7 -03431.9 -07.5014 26287.7
 15 05 2013  17 06  -21.0634 26063.4 -03432.2 -07.5020 26288.4
 15 05 2013  17 07  -21.0632 26063.8 -03432.3 -07.5021 26288.8
 15 05 2013  17 08  -21.0628 26063.6 -03432.1 -07.5017 26288.6
 15 05 2013  17 09  -21.0619 26063.0 -03431.7 -07.5010 26287.9
 15 05 2013  17 10  -21.0597 26062.1 -03431.3 -07.5004 26287.0
 15 05 2013  17 11  -21.0596 26064.1 -03432.5 -07.5022 26289.2
 15 05 2013  17 12  -21.0606 26068.0 -03434.1 -07.5048 26293.2
 15 05 2013  17 13  -21.0614 26067.5 -03433.4 -07.5034 26292.6
 15 05 2013  17 14  -21.0599 26065.1 -03431.9 -07.5007 26290.1
 15 05 2013  17 15  -21.0581 26064.6 -03431.6 -07.5002 26289.5
 15 05 2013  17 16  -21.0573 26064.6 -03431.7 -07.5004 26289.5
 15 05 2013  17 17  -21.0576 26064.9 -03431.8 -07.5006 26289.9
 15 05 2013  17 18  -21.0571 26065.0 -03431.6 -07.5002 26289.9
 15 05 2013  17 19  -21.0560 26064.5 -03431.2 -07.4995 26289.4
 15 05 2013  17 20  -21.0553 26064.8 -03431.2 -07.4993 26289.6
 15 05 2013  17 21  -21.0545 26065.4 -03431.3 -07.4995 26290.3
 15 05 2013  17 22  -21.0538 26066.6 -03431.8 -07.5001 26291.6
 15 05 2013  17 23  -21.0535 26067.5 -03432.0 -07.5003 26292.4
 15 05 2013  17 24  -21.0536 26067.5 -03431.8 -07.4998 26292.4
 15 05 2013  17 25  -21.0539 26067.2 -03431.3 -07.4988 26292.1
 15 05 2013  17 26  -21.0540 26065.1 -03430.0 -07.4967 26289.8
 15 05 2013  17 27  -21.0525 26061.8 -03428.4 -07.4941 26286.3
 15 05 2013  17 28  -21.0498 26059.7 -03427.7 -07.4933 26284.2
 15 05 2013  17 29  -21.0482 26060.5 -03428.7 -07.4952 26285.1
 15 05 2013  17 30  -21.0482 26062.5 -03430.1 -07.4976 26287.2
 15 05 2013  17 31  -21.0485 26063.9 -03430.8 -07.4988 26288.7
 15 05 2013  17 32  -21.0487 26064.8 -03431.1 -07.4992 26289.6
 15 05 2013  17 33  -21.0488 26065.2 -03431.2 -07.4993 26290.1
 15 05 2013  17 34  -21.0489 26065.0 -03431.1 -07.4990 26289.8
 15 05 2013  17 35  -21.0489 26064.5 -03430.8 -07.4985 26289.3
 15 05 2013  17 36  -21.0490 26064.0 -03430.5 -07.4981 26288.8
 15 05 2013  17 37  -21.0487 26063.5 -03430.3 -07.4977 26288.2
 15 05 2013  17 38  -21.0480 26062.6 -03429.9 -07.4971 26287.3
 15 05 2013  17 39  -21.0473 26062.0 -03429.7 -07.4968 26286.6
 15 05 2013  17 40  -21.0467 26061.7 -03429.7 -07.4970 26286.4
 15 05 2013  17 41  -21.0464 26061.6 -03429.9 -07.4973 26286.3
 15 05 2013  17 42  -21.0465 26061.6 -03430.0 -07.4976 26286.4
 15 05 2013  17 43  -21.0466 26061.3 -03430.0 -07.4977 26286.1
 15 05 2013  17 44  -21.0466 26060.9 -03429.9 -07.4977 26285.6
 15 05 2013  17 45  -21.0466 26060.4 -03429.9 -07.4978 26285.2
 15 05 2013  17 46  -21.0466 26059.9 -03429.9 -07.4979 26284.6
 15 05 2013  17 47  -21.0467 26059.5 -03430.0 -07.4982 26284.3
 15 05 2013  17 48  -21.0467 26059.2 -03430.0 -07.4984 26284.0
 15 05 2013  17 49  -21.0467 26058.9 -03430.2 -07.4988 26283.7
 15 05 2013  17 50  -21.0469 26058.6 -03430.2 -07.4991 26283.4
 15 05 2013  17 51  -21.0470 26058.4 -03430.4 -07.4995 26283.2
 15 05 2013  17 52  -21.0473 26058.3 -03430.6 -07.4999 26283.1
 15 05 2013  17 53  -21.0476 26058.0 -03430.7 -07.5002 26282.9
 15 05 2013  17 54  -21.0479 26057.7 -03430.7 -07.5003 26282.6
 15 05 2013  17 55  -21.0481 26057.4 -03430.8 -07.5005 26282.3
 15 05 2013  17 56  -21.0483 26057.2 -03430.9 -07.5008 26282.1
 15 05 2013  17 57  -21.0485 26056.9 -03431.0 -07.5011 26281.9
 15 05 2013  17 58  -21.0486 26056.6 -03431.0 -07.5013 26281.6
 15 05 2013  17 59  -21.0488 26056.6 -03431.2 -07.5016 26281.5
 15 05 2013  18 00  -21.0489 26056.6 -03431.4 -07.5021 26281.6
 15 05 2013  18 01  -21.0492 26056.6 -03431.5 -07.5024 26281.6
 15 05 2013  18 02  -21.0493 26056.4 -03431.6 -07.5025 26281.4
 15 05 2013  18 03  -21.0494 26056.3 -03431.7 -07.5028 26281.3
 15 05 2013  18 04  -21.0496 26056.0 -03431.7 -07.5030 26281.0
 15 05 2013  18 05  -21.0497 26055.8 -03431.8 -07.5032 26280.9
 15 05 2013  18 06  -21.0499 26055.5 -03431.8 -07.5033 26280.5
 15 05 2013  18 07  -21.0499 26055.0 -03431.8 -07.5034 26280.1
 15 05 2013  18 08  -21.0501 26054.8 -03431.8 -07.5035 26279.8
 15 05 2013  18 09  -21.0505 26054.6 -03431.9 -07.5037 26279.6
 15 05 2013  18 10  -21.0510 26054.2 -03431.8 -07.5037 26279.2
 15 05 2013  18 11  -21.0512 26053.8 -03431.8 -07.5038 26278.8
 15 05 2013  18 12  -21.0514 26053.4 -03431.8 -07.5038 26278.5
 15 05 2013  18 13  -21.0515 26053.0 -03431.8 -07.5040 26278.0
 15 05 2013  18 14  -21.0516 26052.7 -03431.9 -07.5042 26277.8
 15 05 2013  18 15  -21.0519 26052.6 -03432.0 -07.5046 26277.7
 15 05 2013  18 16  -21.0521 26052.6 -03432.2 -07.5050 26277.7
 15 05 2013  18 17  -21.0523 26052.4 -03432.3 -07.5052 26277.6
 15 05 2013  18 18  -21.0526 26052.2 -03432.3 -07.5054 26277.3
 15 05 2013  18 19  -21.0528 26051.8 -03432.3 -07.5054 26276.9
 15 05 2013  18 20  -21.0529 26051.4 -03432.3 -07.5054 26276.5
 15 05 2013  18 21  -21.0532 26050.9 -03432.3 -07.5056 26276.1
 15 05 2013  18 22  -21.0534 26050.6 -03432.3 -07.5057 26275.7
 15 05 2013  18 23  -21.0536 26050.4 -03432.3 -07.5058 26275.5
 15 05 2013  18 24  -21.0539 26050.3 -03432.4 -07.5061 26275.4
 15 05 2013  18 25  -21.0543 26050.2 -03432.5 -07.5062 26275.3
 15 05 2013  18 26  -21.0548 26049.9 -03432.4 -07.5062 26275.1
 15 05 2013  18 27  -21.0553 26049.2 -03432.2 -07.5059 26274.3
 15 05 2013  18 28  -21.0557 26047.9 -03431.6 -07.5050 26273.0
 15 05 2013  18 29  -21.0556 26046.3 -03430.9 -07.5040 26271.3
 15 05 2013  18 30  -21.0552 26045.0 -03430.6 -07.5036 26270.0
 15 05 2013  18 31  -21.0547 26044.7 -03430.8 -07.5041 26269.6
 15 05 2013  18 32  -21.0547 26045.2 -03431.4 -07.5053 26270.2
 15 05 2013  18 33  -21.0549 26046.0 -03432.1 -07.5065 26271.2
 15 05 2013  18 34  -21.0553 26046.6 -03432.5 -07.5073 26271.8
 15 05 2013  18 35  -21.0558 26046.8 -03432.7 -07.5076 26272.1
 15 05 2013  18 36  -21.0561 26046.6 -03432.6 -07.5075 26271.8
 15 05 2013  18 37  -21.0560 26046.1 -03432.4 -07.5073 26271.2
 15 05 2013  18 38  -21.0559 26045.5 -03432.3 -07.5072 26270.7
 15 05 2013  18 39  -21.0560 26045.0 -03432.2 -07.5072 26270.2
 15 05 2013  18 40  -21.0560 26044.7 -03432.2 -07.5073 26269.9
 15 05 2013  18 41  -21.0561 26044.4 -03432.2 -07.5074 26269.6
 15 05 2013  18 42  -21.0558 26044.2 -03432.2 -07.5075 26269.4
 15 05 2013  18 43  -21.0555 26044.0 -03432.3 -07.5076 26269.2
 15 05 2013  18 44  -21.0553 26044.0 -03432.4 -07.5079 26269.2
 15 05 2013  18 45  -21.0552 26044.0 -03432.6 -07.5083 26269.3
 15 05 2013  18 46  -21.0550 26044.0 -03432.7 -07.5086 26269.3
 15 05 2013  18 47  -21.0548 26044.0 -03432.9 -07.5089 26269.2
 15 05 2013  18 48  -21.0546 26043.8 -03433.0 -07.5092 26269.1
 15 05 2013  18 49  -21.0541 26043.8 -03433.1 -07.5095 26269.1
 15 05 2013  18 50  -21.0541 26044.2 -03433.6 -07.5103 26269.6
 15 05 2013  18 51  -21.0545 26044.9 -03434.1 -07.5112 26270.4
 15 05 2013  18 52  -21.0547 26045.2 -03434.3 -07.5116 26270.6
 15 05 2013  18 53  -21.0531 26045.0 -03434.0 -07.5111 26270.4
 15 05 2013  18 54  -21.0532 26044.6 -03434.0 -07.5111 26270.0
 15 05 2013  18 55  -21.0531 26044.1 -03433.8 -07.5109 26269.5
 15 05 2013  18 56  -21.0530 26043.5 -03433.7 -07.5108 26268.9
 15 05 2013  18 57  -21.0528 26043.2 -03433.7 -07.5109 26268.6
 15 05 2013  18 58  -21.0528 26043.1 -03433.7 -07.5110 26268.5
 15 05 2013  18 59  -21.0527 26042.9 -03433.8 -07.5112 26268.3
 15 05 2013  19 00  -21.0526 26043.0 -03434.0 -07.5117 26268.4
 15 05 2013  19 01  -21.0526 26043.4 -03434.4 -07.5123 26268.8
 15 05 2013  19 02  -21.0526 26043.6 -03434.7 -07.5129 26269.2
 15 05 2013  19 03  -21.0528 26044.0 -03435.0 -07.5135 26269.5
 15 05 2013  19 04  -21.0531 26044.2 -03435.2 -07.5139 26269.7
 15 05 2013  19 05  -21.0554 26044.2 -03435.6 -07.5146 26269.8
 15 05 2013  19 06  -21.0555 26044.1 -03435.7 -07.5150 26269.7
 15 05 2013  19 07  -21.0560 26043.9 -03435.7 -07.5151 26269.5
 15 05 2013  19 08  -21.0562 26043.5 -03435.6 -07.5150 26269.1
 15 05 2013  19 09  -21.0563 26043.0 -03435.5 -07.5148 26268.6
 15 05 2013  19 10  -21.0564 26042.5 -03435.4 -07.5148 26268.1
 15 05 2013  19 11  -21.0564 26042.3 -03435.5 -07.5151 26268.0
 15 05 2013  19 12  -21.0566 26042.5 -03435.8 -07.5156 26268.2
 15 05 2013  19 13  -21.0569 26043.1 -03436.2 -07.5164 26268.8
 15 05 2013  19 14  -21.0573 26043.7 -03436.6 -07.5170 26269.5
 15 05 2013  19 15  -21.0577 26044.1 -03436.8 -07.5173 26269.9
 15 05 2013  19 16  -21.0582 26044.1 -03436.8 -07.5173 26269.9
 15 05 2013  19 17  -21.0586 26043.8 -03436.6 -07.5170 26269.5
 15 05 2013  19 18  -21.0588 26043.2 -03436.3 -07.5165 26268.9
 15 05 2013  19 19  -21.0589 26042.5 -03435.9 -07.5159 26268.2
 15 05 2013  19 20  -21.0589 26041.9 -03435.7 -07.5156 26267.6
 15 05 2013  19 21  -21.0585 26041.5 -03435.6 -07.5155 26267.2
 15 05 2013  19 22  -21.0581 26041.3 -03435.6 -07.5156 26266.9
 15 05 2013  19 23  -21.0578 26041.4 -03435.8 -07.5160 26267.0
 15 05 2013  19 24  -21.0576 26041.7 -03436.2 -07.5167 26267.5
 15 05 2013  19 25  -21.0575 26042.2 -03436.5 -07.5173 26268.0
 15 05 2013  19 26  -21.0576 26042.3 -03436.7 -07.5176 26268.0
 15 05 2013  19 27  -21.0576 26042.0 -03436.6 -07.5175 26267.8
 15 05 2013  19 28  -21.0574 26041.5 -03436.5 -07.5174 26267.3
 15 05 2013  19 29  -21.0571 26042.0 -03436.9 -07.5181 26267.8
 15 05 2013  19 30  -21.0566 26043.3 -03437.6 -07.5194 26269.2
 15 05 2013  19 31  -21.0569 26045.9 -03439.0 -07.5216 26272.0
 15 05 2013  19 32  -21.0574 26048.5 -03440.1 -07.5233 26274.7
 15 05 2013  19 33  -21.0576 26049.6 -03440.4 -07.5236 26275.8
 15 05 2013  19 34  -21.0582 26049.4 -03440.0 -07.5228 26275.5
 15 05 2013  19 35  -21.0584 26048.2 -03439.2 -07.5213 26274.2
 15 05 2013  19 36  -21.0580 26046.3 -03438.2 -07.5197 26272.3
 15 05 2013  19 37  -21.0579 26045.2 -03437.7 -07.5190 26271.1
 15 05 2013  19 38  -21.0580 26045.1 -03437.8 -07.5192 26271.0
 15 05 2013  19 39  -21.0578 26045.8 -03438.2 -07.5198 26271.8
 15 05 2013  19 40  -21.0576 26045.5 -03438.1 -07.5198 26271.5
 15 05 2013  19 41  -21.0579 26045.2 -03438.0 -07.5196 26271.2
 15 05 2013  19 42  -21.0584 26045.1 -03437.9 -07.5195 26271.0
 15 05 2013  19 43  -21.0584 26044.8 -03437.8 -07.5194 26270.7
 15 05 2013  19 44  -21.0584 26043.8 -03437.5 -07.5189 26269.7
 15 05 2013  19 45  -21.0581 26042.8 -03437.1 -07.5184 26268.6
 15 05 2013  19 46  -21.0575 26042.0 -03436.9 -07.5183 26267.8
 15 05 2013  19 47  -21.0568 26042.1 -03437.2 -07.5189 26267.9
 15 05 2013  19 48  -21.0568 26042.9 -03437.9 -07.5200 26268.9
 15 05 2013  19 49  -21.0572 26043.9 -03438.5 -07.5210 26269.9
 15 05 2013  19 50  -21.0574 26044.4 -03438.8 -07.5215 26270.4
 15 05 2013  19 51  -21.0576 26044.7 -03439.0 -07.5218 26270.8
 15 05 2013  19 52  -21.0576 26044.5 -03438.9 -07.5217 26270.6
 15 05 2013  19 53  -21.0579 26044.6 -03438.9 -07.5218 26270.6
 15 05 2013  19 54  -21.0582 26044.4 -03438.9 -07.5217 26270.4
 15 05 2013  19 55  -21.0587 26044.5 -03439.0 -07.5219 26270.6
 15 05 2013  19 56  -21.0587 26044.3 -03438.8 -07.5215 26270.4
 15 05 2013  19 57  -21.0586 26043.9 -03438.6 -07.5212 26269.9
 15 05 2013  19 58  -21.0587 26043.3 -03438.3 -07.5207 26269.3
 15 05 2013  19 59  -21.0590 26042.7 -03437.9 -07.5201 26268.6
 15 05 2013  20 00  -21.0590 26041.5 -03437.4 -07.5194 26267.4
 15 05 2013  20 01  -21.0589 26040.6 -03437.2 -07.5192 26266.5
 15 05 2013  20 02  -21.0582 26040.3 -03437.3 -07.5195 26266.2
 15 05 2013  20 03  -21.0580 26040.0 -03437.5 -07.5200 26265.9
 15 05 2013  20 04  -21.0576 26039.7 -03437.6 -07.5203 26265.6
 15 05 2013  20 05  -21.0574 26039.7 -03437.8 -07.5208 26265.7
 15 05 2013  20 06  -21.0570 26040.3 -03438.3 -07.5218 26266.4
 15 05 2013  20 07  -21.0565 26040.6 -03438.6 -07.5222 26266.7
 15 05 2013  20 08  -21.0565 26040.7 -03438.8 -07.5226 26266.8
 15 05 2013  20 09  -21.0564 26041.1 -03439.1 -07.5232 26267.2
 15 05 2013  20 10  -21.0563 26041.8 -03439.5 -07.5238 26267.9
 15 05 2013  20 11  -21.0563 26042.4 -03439.8 -07.5244 26268.6
 15 05 2013  20 12  -21.0563 26043.2 -03440.2 -07.5250 26269.4
 15 05 2013  20 13  -21.0565 26043.7 -03440.5 -07.5255 26270.0
 15 05 2013  20 14  -21.0566 26044.7 -03440.9 -07.5261 26271.0
 15 05 2013  20 15  -21.0568 26045.9 -03441.4 -07.5268 26272.3
 15 05 2013  20 16  -21.0567 26046.7 -03441.5 -07.5268 26273.1
 15 05 2013  20 17  -21.0565 26046.5 -03441.1 -07.5259 26272.9
 15 05 2013  20 18  -21.0563 26045.7 -03440.3 -07.5245 26271.9
 15 05 2013  20 19  -21.0561 26044.3 -03439.5 -07.5231 26270.4
 15 05 2013  20 20  -21.0558 26042.8 -03438.7 -07.5219 26268.9
 15 05 2013  20 21  -21.0554 26043.1 -03438.9 -07.5223 26269.1
 15 05 2013  20 22  -21.0547 26043.9 -03439.5 -07.5231 26270.0
 15 05 2013  20 23  -21.0540 26044.8 -03439.9 -07.5239 26271.0
 15 05 2013  20 24  -21.0538 26045.6 -03440.3 -07.5244 26271.8
 15 05 2013  20 25  -21.0536 26046.4 -03440.6 -07.5249 26272.7
 15 05 2013  20 26  -21.0536 26046.5 -03440.6 -07.5248 26272.7
 15 05 2013  20 27  -21.0534 26045.8 -03440.1 -07.5240 26272.0
 15 05 2013  20 28  -21.0534 26045.1 -03439.7 -07.5233 26271.3
 15 05 2013  20 29  -21.0533 26044.9 -03439.6 -07.5232 26271.1
 15 05 2013  20 30  -21.0529 26045.4 -03439.9 -07.5236 26271.5
 15 05 2013  20 31  -21.0524 26045.9 -03440.1 -07.5240 26272.1
 15 05 2013  20 32  -21.0522 26046.5 -03440.3 -07.5243 26272.7
 15 05 2013  20 33  -21.0518 26047.0 -03440.5 -07.5246 26273.2
 15 05 2013  20 34  -21.0515 26047.4 -03440.7 -07.5248 26273.7
 15 05 2013  20 35  -21.0514 26047.4 -03440.6 -07.5246 26273.6
 15 05 2013  20 36  -21.0513 26047.3 -03440.5 -07.5243 26273.5
 15 05 2013  20 37  -21.0513 26046.9 -03440.2 -07.5238 26273.1
 15 05 2013  20 38  -21.0515 26046.4 -03439.8 -07.5233 26272.6
 15 05 2013  20 39  -21.0515 26046.2 -03439.7 -07.5231 26272.4
 15 05 2013  20 40  -21.0513 26046.2 -03439.7 -07.5229 26272.4
 15 05 2013  20 41  -21.0511 26046.1 -03439.5 -07.5227 26272.3
 15 05 2013  20 42  -21.0509 26045.7 -03439.3 -07.5223 26271.8
 15 05 2013  20 43  -21.0508 26045.2 -03439.0 -07.5219 26271.3
 15 05 2013  20 44  -21.0507 26044.9 -03438.9 -07.5216 26271.0
 15 05 2013  20 45  -21.0505 26045.0 -03439.0 -07.5217 26271.0
 15 05 2013  20 46  -21.0503 26045.4 -03439.1 -07.5221 26271.5
 15 05 2013  20 47  -21.0502 26045.9 -03439.4 -07.5224 26272.0
 15 05 2013  20 48  -21.0500 26046.3 -03439.6 -07.5227 26272.4
 15 05 2013  20 49  -21.0499 26046.4 -03439.6 -07.5227 26272.5
 15 05 2013  20 50  -21.0498 26046.4 -03439.5 -07.5225 26272.5
 15 05 2013  20 51  -21.0499 26046.2 -03439.3 -07.5222 26272.3
 15 05 2013  20 52  -21.0500 26045.7 -03439.1 -07.5218 26271.8
 15 05 2013  20 53  -21.0497 26044.9 -03438.6 -07.5211 26271.0
 15 05 2013  20 54  -21.0495 26044.0 -03438.1 -07.5201 26269.9
 15 05 2013  20 55  -21.0494 26043.2 -03437.7 -07.5195 26269.1
 15 05 2013  20 56  -21.0494 26042.8 -03437.5 -07.5192 26268.6
 15 05 2013  20 57  -21.0492 26042.8 -03437.6 -07.5194 26268.7
 15 05 2013  20 58  -21.0491 26042.8 -03437.7 -07.5196 26268.7
 15 05 2013  20 59  -21.0488 26042.7 -03437.7 -07.5197 26268.6
 15 05 2013  21 00  -21.0485 26042.6 -03437.7 -07.5197 26268.5
 15 05 2013  21 01  -21.0485 26042.5 -03437.7 -07.5197 26268.4
 15 05 2013  21 02  -21.0484 26042.6 -03437.7 -07.5198 26268.5
 15 05 2013  21 03  -21.0482 26042.7 -03437.9 -07.5200 26268.6
 15 05 2013  21 04  -21.0479 26043.0 -03438.0 -07.5203 26268.9
 15 05 2013  21 05  -21.0476 26043.4 -03438.3 -07.5207 26269.4
 15 05 2013  21 06  -21.0473 26043.6 -03438.4 -07.5209 26269.6
 15 05 2013  21 07  -21.0468 26043.6 -03438.3 -07.5208 26269.6
 15 05 2013  21 08  -21.0463 26043.3 -03438.1 -07.5205 26269.2
 15 05 2013  21 09  -21.0461 26042.7 -03437.8 -07.5200 26268.6
 15 05 2013  21 10  -21.0460 26042.3 -03437.7 -07.5197 26268.2
 15 05 2013  21 11  -21.0458 26042.3 -03437.7 -07.5198 26268.3
 15 05 2013  21 12  -21.0453 26042.3 -03437.7 -07.5199 26268.3
 15 05 2013  21 13  -21.0450 26042.4 -03437.8 -07.5200 26268.3
 15 05 2013  21 14  -21.0446 26042.6 -03437.9 -07.5202 26268.6
 15 05 2013  21 15  -21.0445 26043.0 -03438.2 -07.5207 26269.0
 15 05 2013  21 16  -21.0443 26043.5 -03438.5 -07.5211 26269.5
 15 05 2013  21 17  -21.0440 26043.8 -03438.7 -07.5214 26269.8
 15 05 2013  21 18  -21.0438 26044.0 -03438.8 -07.5216 26270.0
 15 05 2013  21 19  -21.0435 26044.0 -03438.8 -07.5216 26270.1
 15 05 2013  21 20  -21.0433 26044.0 -03438.8 -07.5216 26270.1
 15 05 2013  21 21  -21.0432 26043.9 -03438.7 -07.5214 26269.9
 15 05 2013  21 22  -21.0429 26043.8 -03438.6 -07.5213 26269.8
 15 05 2013  21 23  -21.0431 26043.8 -03438.7 -07.5215 26269.9
 15 05 2013  21 24  -21.0430 26044.0 -03438.8 -07.5217 26270.0
 15 05 2013  21 25  -21.0429 26044.0 -03438.8 -07.5217 26270.1
 15 05 2013  21 26  -21.0425 26044.0 -03438.8 -07.5216 26270.1
 15 05 2013  21 27  -21.0424 26044.1 -03438.8 -07.5217 26270.1
 15 05 2013  21 28  -21.0423 26044.1 -03438.8 -07.5217 26270.2
 15 05 2013  21 29  -21.0419 26044.1 -03438.8 -07.5218 26270.2
 15 05 2013  21 30  -21.0416 26044.0 -03438.8 -07.5217 26270.0
 15 05 2013  21 31  -21.0415 26044.0 -03438.8 -07.5217 26270.0
 15 05 2013  21 32  -21.0416 26044.0 -03438.8 -07.5217 26270.1
 15 05 2013  21 33  -21.0416 26044.3 -03439.0 -07.5220 26270.3
 15 05 2013  21 34  -21.0416 26044.5 -03439.2 -07.5223 26270.6
 15 05 2013  21 35  -21.0417 26044.8 -03439.3 -07.5226 26270.9
 15 05 2013  21 36  -21.0417 26044.9 -03439.4 -07.5227 26271.0
 15 05 2013  21 37  -21.0417 26045.1 -03439.4 -07.5228 26271.2
 15 05 2013  21 38  -21.0417 26045.1 -03439.4 -07.5228 26271.2
 15 05 2013  21 39  -21.0417 26045.0 -03439.4 -07.5227 26271.1
 15 05 2013  21 40  -21.0418 26045.0 -03439.4 -07.5226 26271.1
 15 05 2013  21 41  -21.0417 26045.3 -03439.5 -07.5228 26271.4
 15 05 2013  21 42  -21.0414 26045.4 -03439.5 -07.5228 26271.5
 15 05 2013  21 43  -21.0413 26045.3 -03439.5 -07.5228 26271.4
 15 05 2013  21 44  -21.0416 26045.4 -03439.5 -07.5228 26271.5
 15 05 2013  21 45  -21.0419 26045.5 -03439.5 -07.5228 26271.6
 15 05 2013  21 46  -21.0421 26045.5 -03439.5 -07.5228 26271.6
 15 05 2013  21 47  -21.0424 26045.6 -03439.5 -07.5228 26271.7
 15 05 2013  21 48  -21.0425 26045.6 -03439.5 -07.5228 26271.8
 15 05 2013  21 49  -21.0425 26045.6 -03439.5 -07.5228 26271.7
 15 05 2013  21 50  -21.0423 26045.6 -03439.5 -07.5227 26271.7
 15 05 2013  21 51  -21.0424 26045.3 -03439.3 -07.5224 26271.4
 15 05 2013  21 52  -21.0425 26045.2 -03439.2 -07.5222 26271.3
 15 05 2013  21 53  -21.0426 26045.1 -03439.1 -07.5221 26271.2
 15 05 2013  21 54  -21.0427 26045.1 -03439.1 -07.5221 26271.2
 15 05 2013  21 55  -21.0425 26045.2 -03439.2 -07.5222 26271.3
 15 05 2013  21 56  -21.0424 26045.3 -03439.2 -07.5222 26271.3
 15 05 2013  21 57  -21.0424 26045.3 -03439.3 -07.5223 26271.4
 15 05 2013  21 58  -21.0424 26045.2 -03439.2 -07.5223 26271.3
 15 05 2013  21 59  -21.0423 26045.1 -03439.1 -07.5221 26271.1
 15 05 2013  22 00  -21.0422 26045.0 -03439.1 -07.5220 26271.1
 15 05 2013  22 01  -21.0423 26045.0 -03439.1 -07.5221 26271.1
 15 05 2013  22 02  -21.0424 26045.2 -03439.3 -07.5223 26271.3
 15 05 2013  22 03  -21.0424 26045.3 -03439.3 -07.5224 26271.4
 15 05 2013  22 04  -21.0423 26045.2 -03439.3 -07.5224 26271.3
 15 05 2013  22 05  -21.0425 26045.3 -03439.3 -07.5225 26271.4
 15 05 2013  22 06  -21.0428 26045.3 -03439.4 -07.5226 26271.4
 15 05 2013  22 07  -21.0428 26045.3 -03439.4 -07.5225 26271.4
 15 05 2013  22 08  -21.0429 26045.0 -03439.2 -07.5224 26271.1
 15 05 2013  22 09  -21.0426 26044.5 -03439.0 -07.5220 26270.6
 15 05 2013  22 10  -21.0422 26044.0 -03438.8 -07.5216 26270.1
 15 05 2013  22 11  -21.0422 26043.9 -03438.7 -07.5215 26269.9
 15 05 2013  22 12  -21.0422 26044.1 -03438.9 -07.5218 26270.2
 15 05 2013  22 13  -21.0423 26044.6 -03439.2 -07.5223 26270.7
 15 05 2013  22 14  -21.0424 26045.1 -03439.5 -07.5229 26271.2
 15 05 2013  22 15  -21.0424 26045.5 -03439.7 -07.5232 26271.6
 15 05 2013  22 16  -21.0423 26045.8 -03439.9 -07.5236 26272.0
 15 05 2013  22 17  -21.0424 26046.0 -03440.0 -07.5238 26272.2
 15 05 2013  22 18  -21.0424 26045.8 -03439.9 -07.5236 26271.9
 15 05 2013  22 19  -21.0427 26045.4 -03439.7 -07.5233 26271.5
 15 05 2013  22 20  -21.0430 26045.1 -03439.5 -07.5230 26271.2
 15 05 2013  22 21  -21.0429 26045.0 -03439.5 -07.5229 26271.1
 15 05 2013  22 22  -21.0428 26045.1 -03439.5 -07.5229 26271.2
 15 05 2013  22 23  -21.0425 26045.4 -03439.7 -07.5232 26271.6
 15 05 2013  22 24  -21.0423 26045.9 -03439.9 -07.5236 26272.1
 15 05 2013  22 25  -21.0421 26046.3 -03440.2 -07.5240 26272.5
 15 05 2013  22 26  -21.0419 26046.4 -03440.3 -07.5242 26272.6
 15 05 2013  22 27  -21.0418 26046.2 -03440.2 -07.5240 26272.4
 15 05 2013  22 28  -21.0416 26045.8 -03440.0 -07.5238 26272.0
 15 05 2013  22 29  -21.0418 26045.4 -03439.8 -07.5235 26271.6
 15 05 2013  22 30  -21.0421 26045.3 -03439.7 -07.5234 26271.4
 15 05 2013  22 31  -21.0423 26045.2 -03439.7 -07.5233 26271.4
 15 05 2013  22 32  -21.0423 26045.3 -03439.8 -07.5234 26271.5
 15 05 2013  22 33  -21.0422 26045.7 -03440.0 -07.5238 26271.8
 15 05 2013  22 34  -21.0419 26046.0 -03440.2 -07.5241 26272.2
 15 05 2013  22 35  -21.0415 26046.1 -03440.3 -07.5243 26272.3
 15 05 2013  22 36  -21.0415 26046.1 -03440.3 -07.5243 26272.4
 15 05 2013  22 37  -21.0417 26046.1 -03440.3 -07.5243 26272.3
 15 05 2013  22 38  -21.0417 26045.9 -03440.2 -07.5242 26272.1
 15 05 2013  22 39  -21.0417 26045.4 -03440.0 -07.5239 26271.6
 15 05 2013  22 40  -21.0423 26045.1 -03439.8 -07.5236 26271.3
 15 05 2013  22 41  -21.0428 26044.8 -03439.7 -07.5235 26271.0
 15 05 2013  22 42  -21.0427 26044.2 -03439.4 -07.5230 26270.4
 15 05 2013  22 43  -21.0429 26043.6 -03439.2 -07.5226 26269.7
 15 05 2013  22 44  -21.0431 26043.5 -03439.1 -07.5225 26269.6
 15 05 2013  22 45  -21.0431 26043.4 -03439.1 -07.5225 26269.5
 15 05 2013  22 46  -21.0429 26043.4 -03439.2 -07.5226 26269.5
 15 05 2013  22 47  -21.0430 26043.4 -03439.2 -07.5228 26269.5
 15 05 2013  22 48  -21.0428 26043.4 -03439.3 -07.5229 26269.5
 15 05 2013  22 49  -21.0426 26043.4 -03439.3 -07.5230 26269.5
 15 05 2013  22 50  -21.0428 26043.4 -03439.4 -07.5232 26269.5
 15 05 2013  22 51  -21.0430 26043.5 -03439.5 -07.5233 26269.6
 15 05 2013  22 52  -21.0431 26043.4 -03439.5 -07.5234 26269.6
 15 05 2013  22 53  -21.0431 26043.4 -03439.5 -07.5234 26269.6
 15 05 2013  22 54  -21.0429 26043.6 -03439.6 -07.5236 26269.8
 15 05 2013  22 55  -21.0427 26044.2 -03439.9 -07.5240 26270.4
 15 05 2013  22 56  -21.0425 26045.0 -03440.3 -07.5247 26271.2
 15 05 2013  22 57  -21.0426 26045.7 -03440.7 -07.5254 26272.0
 15 05 2013  22 58  -21.0424 26046.1 -03440.9 -07.5257 26272.4
 15 05 2013  22 59  -21.0416 26045.8 -03440.8 -07.5254 26272.1
 15 05 2013  23 00  -21.0412 26045.1 -03440.4 -07.5248 26271.3
 15 05 2013  23 01  -21.0414 26044.3 -03440.0 -07.5242 26270.5
 15 05 2013  23 02  -21.0421 26043.8 -03439.8 -07.5238 26270.0
 15 05 2013  23 03  -21.0423 26043.7 -03439.7 -07.5238 26269.9
 15 05 2013  23 04  -21.0420 26043.8 -03439.8 -07.5239 26270.0
 15 05 2013  23 05  -21.0417 26043.7 -03439.8 -07.5239 26269.9
 15 05 2013  23 06  -21.0416 26043.5 -03439.8 -07.5239 26269.7
 15 05 2013  23 07  -21.0414 26043.2 -03439.6 -07.5237 26269.3
 15 05 2013  23 08  -21.0414 26042.9 -03439.6 -07.5237 26269.1
 15 05 2013  23 09  -21.0416 26042.8 -03439.6 -07.5237 26269.0
 15 05 2013  23 10  -21.0417 26043.0 -03439.7 -07.5239 26269.2
 15 05 2013  23 11  -21.0419 26043.2 -03439.9 -07.5242 26269.4
 15 05 2013  23 12  -21.0422 26043.3 -03440.0 -07.5244 26269.5
 15 05 2013  23 13  -21.0423 26043.2 -03440.0 -07.5244 26269.4
 15 05 2013  23 14  -21.0420 26043.0 -03439.9 -07.5243 26269.2
 15 05 2013  23 15  -21.0418 26042.8 -03439.8 -07.5241 26269.0
 15 05 2013  23 16  -21.0418 26042.7 -03439.7 -07.5241 26268.9
 15 05 2013  23 17  -21.0415 26042.6 -03439.7 -07.5241 26268.8
 15 05 2013  23 18  -21.0414 26042.7 -03439.8 -07.5242 26268.9
 15 05 2013  23 19  -21.0415 26043.0 -03440.0 -07.5246 26269.2
 15 05 2013  23 20  -21.0415 26043.3 -03440.2 -07.5249 26269.6
 15 05 2013  23 21  -21.0417 26043.5 -03440.3 -07.5251 26269.7
 15 05 2013  23 22  -21.0418 26043.4 -03440.3 -07.5251 26269.7
 15 05 2013  23 23  -21.0418 26043.2 -03440.2 -07.5249 26269.4
 15 05 2013  23 24  -21.0419 26042.7 -03439.9 -07.5245 26268.9
 15 05 2013  23 25  -21.0421 26042.4 -03439.8 -07.5243 26268.6
 15 05 2013  23 26  -21.0422 26042.3 -03439.7 -07.5242 26268.5
 15 05 2013  23 27  -21.0421 26042.3 -03439.7 -07.5242 26268.4
 15 05 2013  23 28  -21.0418 26042.2 -03439.7 -07.5242 26268.4
 15 05 2013  23 29  -21.0415 26042.2 -03439.8 -07.5243 26268.4
 15 05 2013  23 30  -21.0413 26042.5 -03439.9 -07.5245 26268.7
 15 05 2013  23 31  -21.0413 26042.8 -03440.1 -07.5249 26269.0
 15 05 2013  23 32  -21.0414 26043.1 -03440.3 -07.5252 26269.4
 15 05 2013  23 33  -21.0414 26043.5 -03440.5 -07.5256 26269.8
 15 05 2013  23 34  -21.0413 26043.9 -03440.7 -07.5259 26270.2
 15 05 2013  23 35  -21.0411 26044.0 -03440.8 -07.5260 26270.4
 15 05 2013  23 36  -21.0409 26044.0 -03440.8 -07.5259 26270.3
 15 05 2013  23 37  -21.0408 26043.6 -03440.6 -07.5257 26269.9
 15 05 2013  23 38  -21.0409 26043.2 -03440.4 -07.5253 26269.5
 15 05 2013  23 39  -21.0408 26042.7 -03440.1 -07.5249 26268.9
 15 05 2013  23 40  -21.0410 26042.4 -03439.9 -07.5246 26268.6
 15 05 2013  23 41  -21.0409 26042.3 -03439.9 -07.5245 26268.5
 15 05 2013  23 42  -21.0408 26042.3 -03440.0 -07.5247 26268.5
 15 05 2013  23 43  -21.0407 26042.5 -03440.1 -07.5249 26268.7
 15 05 2013  23 44  -21.0404 26042.6 -03440.2 -07.5251 26268.8
 15 05 2013  23 45  -21.0401 26042.5 -03440.2 -07.5252 26268.8
 15 05 2013  23 46  -21.0400 26042.4 -03440.2 -07.5252 26268.6
 15 05 2013  23 47  -21.0401 26042.5 -03440.2 -07.5253 26268.7
 15 05 2013  23 48  -21.0401 26042.6 -03440.3 -07.5254 26268.9
 15 05 2013  23 49  -21.0400 26042.7 -03440.4 -07.5256 26268.9
 15 05 2013  23 50  -21.0398 26042.7 -03440.5 -07.5257 26269.0
 15 05 2013  23 51  -21.0397 26042.9 -03440.6 -07.5258 26269.2
 15 05 2013  23 52  -21.0398 26042.8 -03440.6 -07.5259 26269.1
 15 05 2013  23 53  -21.0400 26042.6 -03440.5 -07.5258 26268.9
 15 05 2013  23 54  -21.0400 26042.2 -03440.3 -07.5255 26268.5
 15 05 2013  23 55  -21.0402 26041.8 -03440.1 -07.5251 26268.0
 15 05 2013  23 56  -21.0403 26041.6 -03440.0 -07.5251 26267.9
 15 05 2013  23 57  -21.0404 26041.7 -03440.1 -07.5251 26267.9
 15 05 2013  23 58  -21.0401 26041.8 -03440.1 -07.5252 26268.1
