SAO LUIS EMBRACE-03 <230> 1 Min. Reported data

 DD MM YYYY  HH MM   D(Deg)  H(nT)   Z(nT)   I(Deg)   F(nT)

 18 08 2013  00 00  -21.0268 26024.8 -03475.5 -07.6067 26255.8
 18 08 2013  00 01  -21.0271 26024.7 -03475.5 -07.6066 26255.8
 18 08 2013  00 02  -21.0274 26024.8 -03475.6 -07.6068 26255.9
 18 08 2013  00 03  -21.0275 26024.9 -03475.6 -07.6068 26255.9
 18 08 2013  00 04  -21.0276 26024.9 -03475.6 -07.6068 26256.0
 18 08 2013  00 05  -21.0277 26025.0 -03475.6 -07.6068 26256.0
 18 08 2013  00 06  -21.0276 26025.2 -03475.7 -07.6069 26256.2
 18 08 2013  00 07  -21.0275 26025.4 -03475.8 -07.6070 26256.5
 18 08 2013  00 08  -21.0274 26025.6 -03475.9 -07.6071 26256.7
 18 08 2013  00 09  -21.0274 26025.8 -03475.9 -07.6072 26256.9
 18 08 2013  00 10  -21.0273 26025.9 -03476.0 -07.6073 26257.0
 18 08 2013  00 11  -21.0272 26026.1 -03476.0 -07.6074 26257.2
 18 08 2013  00 12  -21.0272 26026.2 -03476.1 -07.6075 26257.3
 18 08 2013  00 13  -21.0272 26026.0 -03476.0 -07.6073 26257.1
 18 08 2013  00 14  -21.0273 26025.9 -03475.9 -07.6071 26257.0
 18 08 2013  00 15  -21.0273 26026.1 -03476.0 -07.6072 26257.2
 18 08 2013  00 16  -21.0273 26026.0 -03476.0 -07.6072 26257.1
 18 08 2013  00 17  -21.0275 26025.9 -03475.9 -07.6071 26257.0
 18 08 2013  00 18  -21.0279 26025.9 -03475.9 -07.6071 26257.0
 18 08 2013  00 19  -21.0283 26025.9 -03475.9 -07.6071 26256.9
 18 08 2013  00 20  -21.0286 26025.8 -03475.8 -07.6070 26256.9
 18 08 2013  00 21  -21.0286 26025.6 -03475.7 -07.6068 26256.7
 18 08 2013  00 22  -21.0286 26025.3 -03475.6 -07.6065 26256.4
 18 08 2013  00 23  -21.0287 26025.3 -03475.5 -07.6064 26256.3
 18 08 2013  00 24  -21.0288 26025.2 -03475.5 -07.6064 26256.2
 18 08 2013  00 25  -21.0287 26025.0 -03475.4 -07.6062 26256.1
 18 08 2013  00 26  -21.0286 26025.1 -03475.4 -07.6063 26256.1
 18 08 2013  00 27  -21.0285 26025.2 -03475.5 -07.6064 26256.2
 18 08 2013  00 28  -21.0286 26025.2 -03475.5 -07.6065 26256.2
 18 08 2013  00 29  -21.0285 26025.1 -03475.4 -07.6064 26256.1
 18 08 2013  00 30  -21.0285 26025.0 -03475.4 -07.6064 26256.0
 18 08 2013  00 31  -21.0285 26024.9 -03475.4 -07.6063 26256.0
 18 08 2013  00 32  -21.0282 26025.1 -03475.5 -07.6064 26256.2
 18 08 2013  00 33  -21.0280 26025.1 -03475.5 -07.6065 26256.2
 18 08 2013  00 34  -21.0277 26025.0 -03475.4 -07.6064 26256.0
 18 08 2013  00 35  -21.0275 26024.7 -03475.3 -07.6062 26255.8
 18 08 2013  00 36  -21.0273 26024.6 -03475.3 -07.6062 26255.6
 18 08 2013  00 37  -21.0273 26024.6 -03475.3 -07.6063 26255.6
 18 08 2013  00 38  -21.0272 26024.6 -03475.4 -07.6064 26255.6
 18 08 2013  00 39  -21.0269 26024.7 -03475.4 -07.6064 26255.7
 18 08 2013  00 40  -21.0265 26024.7 -03475.5 -07.6066 26255.8
 18 08 2013  00 41  -21.0263 26024.9 -03475.6 -07.6067 26255.9
 18 08 2013  00 42  -21.0262 26025.1 -03475.7 -07.6069 26256.2
 18 08 2013  00 43  -21.0264 26025.3 -03475.8 -07.6071 26256.3
 18 08 2013  00 44  -21.0265 26025.4 -03475.9 -07.6073 26256.5
 18 08 2013  00 45  -21.0268 26025.3 -03475.9 -07.6073 26256.4
 18 08 2013  00 46  -21.0272 26025.1 -03475.8 -07.6071 26256.2
 18 08 2013  00 47  -21.0275 26025.0 -03475.7 -07.6069 26256.0
 18 08 2013  00 48  -21.0275 26024.8 -03475.6 -07.6067 26255.9
 18 08 2013  00 49  -21.0275 26024.7 -03475.5 -07.6066 26255.8
 18 08 2013  00 50  -21.0274 26024.6 -03475.4 -07.6065 26255.6
 18 08 2013  00 51  -21.0274 26024.3 -03475.3 -07.6063 26255.3
 18 08 2013  00 52  -21.0273 26024.2 -03475.2 -07.6062 26255.2
 18 08 2013  00 53  -21.0271 26024.1 -03475.2 -07.6062 26255.2
 18 08 2013  00 54  -21.0269 26024.0 -03475.1 -07.6060 26255.0
 18 08 2013  00 55  -21.0267 26023.8 -03475.1 -07.6059 26254.8
 18 08 2013  00 56  -21.0264 26023.7 -03475.0 -07.6059 26254.7
 18 08 2013  00 57  -21.0261 26023.6 -03475.1 -07.6060 26254.6
 18 08 2013  00 58  -21.0258 26023.6 -03475.1 -07.6060 26254.6
 18 08 2013  00 59  -21.0254 26023.8 -03475.2 -07.6062 26254.9
 18 08 2013  01 00  -21.0251 26024.0 -03475.3 -07.6065 26255.0
 18 08 2013  01 01  -21.0251 26023.9 -03475.4 -07.6065 26254.9
 18 08 2013  01 02  -21.0253 26023.8 -03475.4 -07.6066 26254.8
 18 08 2013  01 03  -21.0255 26023.6 -03475.3 -07.6065 26254.6
 18 08 2013  01 04  -21.0256 26023.4 -03475.2 -07.6064 26254.4
 18 08 2013  01 05  -21.0255 26023.3 -03475.2 -07.6063 26254.3
 18 08 2013  01 06  -21.0253 26023.3 -03475.2 -07.6064 26254.3
 18 08 2013  01 07  -21.0252 26023.3 -03475.2 -07.6064 26254.3
 18 08 2013  01 08  -21.0252 26023.3 -03475.3 -07.6066 26254.4
 18 08 2013  01 09  -21.0254 26023.3 -03475.4 -07.6067 26254.3
 18 08 2013  01 10  -21.0255 26023.3 -03475.4 -07.6067 26254.4
 18 08 2013  01 11  -21.0256 26023.3 -03475.4 -07.6068 26254.4
 18 08 2013  01 12  -21.0257 26023.3 -03475.4 -07.6069 26254.3
 18 08 2013  01 13  -21.0258 26023.3 -03475.5 -07.6070 26254.4
 18 08 2013  01 14  -21.0257 26023.6 -03475.6 -07.6072 26254.7
 18 08 2013  01 15  -21.0254 26023.7 -03475.7 -07.6073 26254.8
 18 08 2013  01 16  -21.0251 26023.9 -03475.8 -07.6075 26254.9
 18 08 2013  01 17  -21.0250 26023.9 -03475.8 -07.6075 26255.0
 18 08 2013  01 18  -21.0250 26023.9 -03475.8 -07.6075 26255.0
 18 08 2013  01 19  -21.0251 26023.8 -03475.8 -07.6076 26254.9
 18 08 2013  01 20  -21.0252 26023.8 -03475.8 -07.6076 26254.9
 18 08 2013  01 21  -21.0254 26023.7 -03475.8 -07.6076 26254.8
 18 08 2013  01 22  -21.0254 26023.9 -03475.9 -07.6077 26255.0
 18 08 2013  01 23  -21.0253 26024.1 -03476.0 -07.6079 26255.2
 18 08 2013  01 24  -21.0252 26024.2 -03476.1 -07.6080 26255.3
 18 08 2013  01 25  -21.0254 26024.3 -03476.1 -07.6081 26255.4
 18 08 2013  01 26  -21.0256 26024.4 -03476.2 -07.6082 26255.5
 18 08 2013  01 27  -21.0258 26024.5 -03476.3 -07.6083 26255.6
 18 08 2013  01 28  -21.0260 26024.5 -03476.3 -07.6083 26255.7
 18 08 2013  01 29  -21.0262 26024.5 -03476.2 -07.6083 26255.7
 18 08 2013  01 30  -21.0265 26024.4 -03476.2 -07.6081 26255.5
 18 08 2013  01 31  -21.0267 26024.3 -03476.1 -07.6080 26255.4
 18 08 2013  01 32  -21.0268 26024.1 -03475.9 -07.6078 26255.2
 18 08 2013  01 33  -21.0268 26023.9 -03475.9 -07.6077 26255.1
 18 08 2013  01 34  -21.0269 26023.8 -03475.8 -07.6075 26254.9
 18 08 2013  01 35  -21.0270 26023.7 -03475.8 -07.6075 26254.8
 18 08 2013  01 36  -21.0269 26023.7 -03475.7 -07.6074 26254.7
 18 08 2013  01 37  -21.0268 26023.5 -03475.7 -07.6073 26254.6
 18 08 2013  01 38  -21.0268 26023.5 -03475.7 -07.6073 26254.6
 18 08 2013  01 39  -21.0268 26023.5 -03475.7 -07.6074 26254.6
 18 08 2013  01 40  -21.0269 26023.5 -03475.7 -07.6074 26254.6
 18 08 2013  01 41  -21.0270 26023.5 -03475.8 -07.6075 26254.6
 18 08 2013  01 42  -21.0270 26023.5 -03475.8 -07.6075 26254.6
 18 08 2013  01 43  -21.0270 26023.5 -03475.7 -07.6075 26254.6
 18 08 2013  01 44  -21.0269 26023.5 -03475.7 -07.6075 26254.5
 18 08 2013  01 45  -21.0269 26023.4 -03475.7 -07.6075 26254.5
 18 08 2013  01 46  -21.0269 26023.6 -03475.8 -07.6076 26254.7
 18 08 2013  01 47  -21.0270 26023.6 -03475.8 -07.6076 26254.7
 18 08 2013  01 48  -21.0270 26023.6 -03475.9 -07.6077 26254.7
 18 08 2013  01 49  -21.0270 26023.6 -03475.9 -07.6077 26254.7
 18 08 2013  01 50  -21.0270 26023.7 -03475.9 -07.6077 26254.8
 18 08 2013  01 51  -21.0269 26023.9 -03476.0 -07.6080 26255.1
 18 08 2013  01 52  -21.0269 26023.9 -03476.0 -07.6080 26255.0
 18 08 2013  01 53  -21.0271 26023.6 -03475.9 -07.6078 26254.7
 18 08 2013  01 54  -21.0272 26023.5 -03475.8 -07.6077 26254.5
 18 08 2013  01 55  -21.0271 26023.4 -03475.8 -07.6076 26254.5
 18 08 2013  01 56  -21.0271 26023.4 -03475.8 -07.6077 26254.5
 18 08 2013  01 57  -21.0271 26023.5 -03475.9 -07.6077 26254.6
 18 08 2013  01 58  -21.0271 26023.4 -03475.8 -07.6077 26254.5
 18 08 2013  01 59  -21.0271 26023.3 -03475.8 -07.6077 26254.4
 18 08 2013  02 00  -21.0270 26023.3 -03475.8 -07.6077 26254.4
 18 08 2013  02 01  -21.0271 26023.5 -03475.9 -07.6078 26254.6
 18 08 2013  02 02  -21.0272 26023.8 -03476.1 -07.6081 26255.0
 18 08 2013  02 03  -21.0269 26024.2 -03476.2 -07.6084 26255.3
 18 08 2013  02 04  -21.0267 26024.4 -03476.4 -07.6086 26255.5
 18 08 2013  02 05  -21.0266 26024.4 -03476.4 -07.6086 26255.6
 18 08 2013  02 06  -21.0265 26024.5 -03476.4 -07.6086 26255.7
 18 08 2013  02 07  -21.0267 26024.6 -03476.5 -07.6087 26255.8
 18 08 2013  02 08  -21.0268 26024.7 -03476.4 -07.6087 26255.8
 18 08 2013  02 09  -21.0267 26024.5 -03476.3 -07.6085 26255.7
 18 08 2013  02 10  -21.0266 26024.3 -03476.2 -07.6083 26255.5
 18 08 2013  02 11  -21.0267 26024.2 -03476.1 -07.6081 26255.3
 18 08 2013  02 12  -21.0267 26024.2 -03476.2 -07.6082 26255.3
 18 08 2013  02 13  -21.0267 26024.1 -03476.2 -07.6082 26255.2
 18 08 2013  02 14  -21.0268 26024.0 -03476.1 -07.6081 26255.1
 18 08 2013  02 15  -21.0268 26023.9 -03476.1 -07.6081 26255.0
 18 08 2013  02 16  -21.0269 26023.8 -03476.0 -07.6080 26254.9
 18 08 2013  02 17  -21.0269 26023.7 -03476.0 -07.6080 26254.8
 18 08 2013  02 18  -21.0267 26023.7 -03476.0 -07.6079 26254.8
 18 08 2013  02 19  -21.0267 26023.7 -03476.0 -07.6080 26254.8
 18 08 2013  02 20  -21.0268 26023.4 -03475.9 -07.6079 26254.5
 18 08 2013  02 21  -21.0269 26023.1 -03475.8 -07.6077 26254.2
 18 08 2013  02 22  -21.0272 26023.0 -03475.8 -07.6077 26254.1
 18 08 2013  02 23  -21.0272 26023.2 -03475.8 -07.6077 26254.3
 18 08 2013  02 24  -21.0271 26023.3 -03475.9 -07.6080 26254.5
 18 08 2013  02 25  -21.0272 26023.3 -03476.0 -07.6080 26254.4
 18 08 2013  02 26  -21.0273 26023.2 -03475.9 -07.6079 26254.3
 18 08 2013  02 27  -21.0274 26023.0 -03475.9 -07.6079 26254.1
 18 08 2013  02 28  -21.0275 26022.7 -03475.7 -07.6076 26253.8
 18 08 2013  02 29  -21.0273 26022.7 -03475.7 -07.6076 26253.8
 18 08 2013  02 30  -21.0267 26023.1 -03475.9 -07.6079 26254.3
 18 08 2013  02 31  -21.0263 26023.5 -03476.0 -07.6081 26254.6
 18 08 2013  02 32  -21.0262 26023.7 -03476.2 -07.6083 26254.8
 18 08 2013  02 33  -21.0264 26023.7 -03476.2 -07.6084 26254.8
 18 08 2013  02 34  -21.0266 26023.6 -03476.2 -07.6085 26254.7
 18 08 2013  02 35  -21.0267 26023.4 -03476.1 -07.6083 26254.6
 18 08 2013  02 36  -21.0266 26023.1 -03475.9 -07.6080 26254.3
 18 08 2013  02 37  -21.0264 26022.9 -03475.8 -07.6078 26254.0
 18 08 2013  02 38  -21.0262 26022.8 -03475.8 -07.6077 26253.9
 18 08 2013  02 39  -21.0258 26022.9 -03475.8 -07.6079 26254.0
 18 08 2013  02 40  -21.0253 26023.4 -03476.1 -07.6083 26254.5
 18 08 2013  02 41  -21.0252 26023.3 -03476.1 -07.6084 26254.4
 18 08 2013  02 42  -21.0254 26023.2 -03476.1 -07.6084 26254.4
 18 08 2013  02 43  -21.0256 26023.2 -03476.2 -07.6085 26254.3
 18 08 2013  02 44  -21.0260 26023.1 -03476.2 -07.6085 26254.3
 18 08 2013  02 45  -21.0261 26022.9 -03476.0 -07.6083 26254.0
 18 08 2013  02 46  -21.0262 26022.6 -03475.9 -07.6081 26253.7
 18 08 2013  02 47  -21.0262 26022.6 -03475.9 -07.6081 26253.7
 18 08 2013  02 48  -21.0261 26022.7 -03476.0 -07.6082 26253.8
 18 08 2013  02 49  -21.0258 26023.0 -03476.1 -07.6084 26254.1
 18 08 2013  02 50  -21.0252 26023.2 -03476.3 -07.6087 26254.4
 18 08 2013  02 51  -21.0248 26023.2 -03476.3 -07.6088 26254.3
 18 08 2013  02 52  -21.0246 26023.0 -03476.2 -07.6087 26254.1
 18 08 2013  02 53  -21.0245 26022.8 -03476.2 -07.6086 26254.0
 18 08 2013  02 54  -21.0246 26022.7 -03476.2 -07.6087 26253.9
 18 08 2013  02 55  -21.0246 26022.7 -03476.2 -07.6087 26253.9
 18 08 2013  02 56  -21.0248 26022.7 -03476.3 -07.6088 26253.9
 18 08 2013  02 57  -21.0249 26022.8 -03476.3 -07.6089 26254.0
 18 08 2013  02 58  -21.0250 26022.8 -03476.4 -07.6091 26254.0
 18 08 2013  02 59  -21.0252 26022.8 -03476.4 -07.6091 26254.0
 18 08 2013  03 00  -21.0253 26022.9 -03476.5 -07.6092 26254.1
 18 08 2013  03 01  -21.0252 26023.0 -03476.5 -07.6093 26254.2
 18 08 2013  03 02  -21.0252 26023.0 -03476.5 -07.6093 26254.2
 18 08 2013  03 03  -21.0254 26022.9 -03476.5 -07.6093 26254.1
 18 08 2013  03 04  -21.0255 26022.9 -03476.5 -07.6093 26254.1
 18 08 2013  03 05  -21.0256 26022.8 -03476.5 -07.6093 26254.0
 18 08 2013  03 06  -21.0258 26022.6 -03476.4 -07.6091 26253.8
 18 08 2013  03 07  -21.0258 26022.5 -03476.3 -07.6090 26253.7
 18 08 2013  03 08  -21.0259 26022.3 -03476.3 -07.6089 26253.5
 18 08 2013  03 09  -21.0259 26022.3 -03476.3 -07.6089 26253.5
 18 08 2013  03 10  -21.0258 26022.3 -03476.3 -07.6090 26253.5
 18 08 2013  03 11  -21.0256 26022.3 -03476.3 -07.6091 26253.5
 18 08 2013  03 12  -21.0254 26022.3 -03476.3 -07.6091 26253.5
 18 08 2013  03 13  -21.0252 26022.4 -03476.4 -07.6092 26253.5
 18 08 2013  03 14  -21.0250 26022.5 -03476.4 -07.6093 26253.6
 18 08 2013  03 15  -21.0247 26022.7 -03476.6 -07.6095 26253.9
 18 08 2013  03 16  -21.0244 26022.8 -03476.7 -07.6097 26254.1
 18 08 2013  03 17  -21.0244 26022.8 -03476.7 -07.6097 26254.1
 18 08 2013  03 18  -21.0245 26022.8 -03476.7 -07.6098 26254.0
 18 08 2013  03 19  -21.0245 26022.8 -03476.7 -07.6098 26254.0
 18 08 2013  03 20  -21.0245 26022.9 -03476.7 -07.6098 26254.1
 18 08 2013  03 21  -21.0245 26022.9 -03476.8 -07.6099 26254.1
 18 08 2013  03 22  -21.0245 26023.0 -03476.8 -07.6099 26254.2
 18 08 2013  03 23  -21.0246 26023.1 -03476.8 -07.6100 26254.3
 18 08 2013  03 24  -21.0248 26023.1 -03476.8 -07.6100 26254.3
 18 08 2013  03 25  -21.0249 26023.1 -03476.9 -07.6101 26254.4
 18 08 2013  03 26  -21.0252 26023.0 -03476.8 -07.6100 26254.2
 18 08 2013  03 27  -21.0255 26022.7 -03476.7 -07.6098 26253.9
 18 08 2013  03 28  -21.0259 26022.4 -03476.6 -07.6096 26253.6
 18 08 2013  03 29  -21.0262 26022.2 -03476.5 -07.6094 26253.4
 18 08 2013  03 30  -21.0263 26022.0 -03476.3 -07.6092 26253.1
 18 08 2013  03 31  -21.0265 26022.0 -03476.3 -07.6092 26253.2
 18 08 2013  03 32  -21.0260 26022.2 -03476.4 -07.6093 26253.3
 18 08 2013  03 33  -21.0258 26022.4 -03476.5 -07.6095 26253.6
 18 08 2013  03 34  -21.0255 26022.7 -03476.6 -07.6097 26253.9
 18 08 2013  03 35  -21.0252 26022.9 -03476.8 -07.6098 26254.2
 18 08 2013  03 36  -21.0252 26023.0 -03476.9 -07.6101 26254.2
 18 08 2013  03 37  -21.0252 26022.9 -03476.8 -07.6100 26254.2
 18 08 2013  03 38  -21.0251 26023.0 -03476.8 -07.6100 26254.2
 18 08 2013  03 39  -21.0250 26022.8 -03476.7 -07.6098 26254.0
 18 08 2013  03 40  -21.0249 26022.6 -03476.7 -07.6097 26253.8
 18 08 2013  03 41  -21.0246 26022.7 -03476.7 -07.6097 26253.9
 18 08 2013  03 42  -21.0243 26022.8 -03476.7 -07.6098 26254.0
 18 08 2013  03 43  -21.0241 26022.9 -03476.8 -07.6099 26254.1
 18 08 2013  03 44  -21.0241 26022.6 -03476.7 -07.6099 26253.8
 18 08 2013  03 45  -21.0238 26022.5 -03476.6 -07.6097 26253.7
 18 08 2013  03 46  -21.0235 26022.5 -03476.7 -07.6098 26253.8
 18 08 2013  03 47  -21.0232 26022.8 -03476.8 -07.6100 26254.0
 18 08 2013  03 48  -21.0233 26022.9 -03476.9 -07.6102 26254.1
 18 08 2013  03 49  -21.0237 26022.9 -03477.0 -07.6105 26254.1
 18 08 2013  03 50  -21.0244 26022.8 -03477.0 -07.6105 26254.1
 18 08 2013  03 51  -21.0252 26022.7 -03477.0 -07.6104 26253.9
 18 08 2013  03 52  -21.0258 26022.4 -03476.8 -07.6102 26253.6
 18 08 2013  03 53  -21.0261 26022.5 -03476.8 -07.6102 26253.7
 18 08 2013  03 54  -21.0263 26022.8 -03477.0 -07.6104 26254.0
 18 08 2013  03 55  -21.0264 26022.9 -03477.0 -07.6104 26254.1
 18 08 2013  03 56  -21.0264 26022.7 -03476.9 -07.6102 26254.0
 18 08 2013  03 57  -21.0265 26022.5 -03476.8 -07.6100 26253.7
 18 08 2013  03 58  -21.0264 26022.3 -03476.7 -07.6098 26253.5
 18 08 2013  03 59  -21.0263 26022.2 -03476.6 -07.6097 26253.4
 18 08 2013  04 00  -21.0261 26022.2 -03476.6 -07.6097 26253.5
 18 08 2013  04 01  -21.0260 26022.2 -03476.6 -07.6097 26253.4
 18 08 2013  04 02  -21.0261 26022.0 -03476.5 -07.6096 26253.2
 18 08 2013  04 03  -21.0262 26021.9 -03476.5 -07.6096 26253.1
 18 08 2013  04 04  -21.0261 26021.8 -03476.5 -07.6095 26253.0
 18 08 2013  04 05  -21.0260 26021.8 -03476.5 -07.6095 26253.0
 18 08 2013  04 06  -21.0258 26021.9 -03476.5 -07.6096 26253.1
 18 08 2013  04 07  -21.0256 26022.1 -03476.6 -07.6098 26253.3
 18 08 2013  04 08  -21.0255 26022.1 -03476.7 -07.6099 26253.3
 18 08 2013  04 09  -21.0255 26022.0 -03476.7 -07.6099 26253.2
 18 08 2013  04 10  -21.0254 26021.9 -03476.6 -07.6098 26253.1
 18 08 2013  04 11  -21.0254 26021.6 -03476.5 -07.6097 26252.8
 18 08 2013  04 12  -21.0253 26021.5 -03476.4 -07.6095 26252.7
 18 08 2013  04 13  -21.0252 26021.5 -03476.4 -07.6096 26252.7
 18 08 2013  04 14  -21.0250 26021.6 -03476.5 -07.6096 26252.8
 18 08 2013  04 15  -21.0249 26021.7 -03476.5 -07.6097 26252.9
 18 08 2013  04 16  -21.0249 26021.7 -03476.6 -07.6099 26252.9
 18 08 2013  04 17  -21.0248 26021.7 -03476.6 -07.6099 26252.9
 18 08 2013  04 18  -21.0247 26021.7 -03476.7 -07.6100 26253.0
 18 08 2013  04 19  -21.0247 26021.8 -03476.7 -07.6101 26253.0
 18 08 2013  04 20  -21.0245 26021.8 -03476.7 -07.6101 26253.0
 18 08 2013  04 21  -21.0244 26021.8 -03476.8 -07.6102 26253.1
 18 08 2013  04 22  -21.0244 26021.8 -03476.8 -07.6102 26253.0
 18 08 2013  04 23  -21.0245 26021.7 -03476.8 -07.6102 26253.0
 18 08 2013  04 24  -21.0247 26021.7 -03476.8 -07.6102 26252.9
 18 08 2013  04 25  -21.0247 26021.7 -03476.8 -07.6102 26252.9
 18 08 2013  04 26  -21.0247 26021.6 -03476.7 -07.6102 26252.9
 18 08 2013  04 27  -21.0247 26021.6 -03476.8 -07.6103 26252.9
 18 08 2013  04 28  -21.0246 26021.6 -03476.8 -07.6103 26252.9
 18 08 2013  04 29  -21.0247 26021.6 -03476.8 -07.6103 26252.8
 18 08 2013  04 30  -21.0247 26021.6 -03476.8 -07.6104 26252.8
 18 08 2013  04 31  -21.0247 26021.6 -03476.8 -07.6103 26252.9
 18 08 2013  04 32  -21.0247 26021.7 -03476.9 -07.6105 26253.0
 18 08 2013  04 33  -21.0246 26021.8 -03476.9 -07.6105 26253.0
 18 08 2013  04 34  -21.0246 26021.8 -03476.9 -07.6105 26253.1
 18 08 2013  04 35  -21.0245 26021.8 -03476.9 -07.6105 26253.1
 18 08 2013  04 36  -21.0244 26021.8 -03477.0 -07.6106 26253.1
 18 08 2013  04 37  -21.0243 26021.9 -03477.0 -07.6106 26253.2
 18 08 2013  04 38  -21.0242 26022.0 -03477.0 -07.6107 26253.3
 18 08 2013  04 39  -21.0242 26022.2 -03477.1 -07.6109 26253.5
 18 08 2013  04 40  -21.0242 26022.5 -03477.3 -07.6111 26253.8
 18 08 2013  04 41  -21.0241 26022.7 -03477.4 -07.6113 26254.1
 18 08 2013  04 42  -21.0238 26023.0 -03477.5 -07.6114 26254.3
 18 08 2013  04 43  -21.0237 26023.0 -03477.5 -07.6114 26254.3
 18 08 2013  04 44  -21.0236 26022.9 -03477.5 -07.6114 26254.3
 18 08 2013  04 45  -21.0236 26022.8 -03477.4 -07.6113 26254.2
 18 08 2013  04 46  -21.0235 26023.1 -03477.5 -07.6114 26254.4
 18 08 2013  04 47  -21.0233 26023.3 -03477.6 -07.6116 26254.6
 18 08 2013  04 48  -21.0233 26023.3 -03477.6 -07.6115 26254.6
 18 08 2013  04 49  -21.0234 26023.2 -03477.5 -07.6115 26254.5
 18 08 2013  04 50  -21.0235 26023.0 -03477.4 -07.6113 26254.3
 18 08 2013  04 51  -21.0235 26023.2 -03477.5 -07.6114 26254.5
 18 08 2013  04 52  -21.0235 26023.2 -03477.5 -07.6114 26254.5
 18 08 2013  04 53  -21.0235 26023.2 -03477.5 -07.6114 26254.5
 18 08 2013  04 54  -21.0235 26023.1 -03477.5 -07.6113 26254.4
 18 08 2013  04 55  -21.0237 26023.0 -03477.4 -07.6112 26254.3
 18 08 2013  04 56  -21.0238 26022.8 -03477.3 -07.6111 26254.1
 18 08 2013  04 57  -21.0240 26022.9 -03477.3 -07.6111 26254.2
 18 08 2013  04 58  -21.0241 26022.8 -03477.3 -07.6110 26254.1
 18 08 2013  04 59  -21.0242 26022.9 -03477.3 -07.6111 26254.2
 18 08 2013  05 00  -21.0241 26023.0 -03477.3 -07.6111 26254.3
 18 08 2013  05 01  -21.0239 26023.1 -03477.4 -07.6112 26254.5
 18 08 2013  05 02  -21.0238 26023.1 -03477.4 -07.6112 26254.4
 18 08 2013  05 03  -21.0239 26022.9 -03477.4 -07.6111 26254.2
 18 08 2013  05 04  -21.0238 26023.0 -03477.4 -07.6112 26254.3
 18 08 2013  05 05  -21.0237 26023.1 -03477.4 -07.6113 26254.4
 18 08 2013  05 06  -21.0236 26023.1 -03477.4 -07.6113 26254.4
 18 08 2013  05 07  -21.0233 26023.1 -03477.5 -07.6113 26254.4
 18 08 2013  05 08  -21.0232 26022.8 -03477.3 -07.6110 26254.1
 18 08 2013  05 09  -21.0230 26023.0 -03477.3 -07.6111 26254.3
 18 08 2013  05 10  -21.0226 26023.2 -03477.5 -07.6113 26254.5
 18 08 2013  05 11  -21.0224 26023.2 -03477.5 -07.6114 26254.5
 18 08 2013  05 12  -21.0220 26023.3 -03477.5 -07.6114 26254.6
 18 08 2013  05 13  -21.0218 26023.2 -03477.5 -07.6114 26254.6
 18 08 2013  05 14  -21.0214 26023.3 -03477.6 -07.6114 26254.6
 18 08 2013  05 15  -21.0212 26023.2 -03477.5 -07.6115 26254.6
 18 08 2013  05 16  -21.0210 26023.1 -03477.5 -07.6114 26254.4
 18 08 2013  05 17  -21.0210 26022.9 -03477.4 -07.6113 26254.2
 18 08 2013  05 18  -21.0208 26023.0 -03477.4 -07.6113 26254.3
 18 08 2013  05 19  -21.0205 26023.1 -03477.6 -07.6115 26254.5
 18 08 2013  05 20  -21.0204 26023.1 -03477.6 -07.6115 26254.4
 18 08 2013  05 21  -21.0201 26023.1 -03477.6 -07.6116 26254.4
 18 08 2013  05 22  -21.0199 26023.2 -03477.6 -07.6117 26254.5
 18 08 2013  05 23  -21.0197 26023.2 -03477.7 -07.6118 26254.5
 18 08 2013  05 24  -21.0196 26023.2 -03477.7 -07.6118 26254.5
 18 08 2013  05 25  -21.0195 26023.1 -03477.7 -07.6119 26254.5
 18 08 2013  05 26  -21.0195 26023.0 -03477.7 -07.6119 26254.4
 18 08 2013  05 27  -21.0195 26023.1 -03477.7 -07.6119 26254.4
 18 08 2013  05 28  -21.0196 26023.2 -03477.8 -07.6121 26254.6
 18 08 2013  05 29  -21.0197 26023.3 -03477.9 -07.6122 26254.6
 18 08 2013  05 30  -21.0196 26023.3 -03477.9 -07.6122 26254.6
 18 08 2013  05 31  -21.0197 26023.2 -03477.9 -07.6122 26254.6
 18 08 2013  05 32  -21.0197 26023.3 -03477.9 -07.6122 26254.7
 18 08 2013  05 33  -21.0199 26023.2 -03477.9 -07.6122 26254.5
 18 08 2013  05 34  -21.0200 26023.1 -03477.8 -07.6122 26254.4
 18 08 2013  05 35  -21.0198 26022.9 -03477.8 -07.6120 26254.3
 18 08 2013  05 36  -21.0196 26023.0 -03477.8 -07.6120 26254.4
 18 08 2013  05 37  -21.0196 26022.9 -03477.8 -07.6121 26254.3
 18 08 2013  05 38  -21.0197 26022.9 -03477.8 -07.6121 26254.3
 18 08 2013  05 39  -21.0197 26022.9 -03477.8 -07.6121 26254.3
 18 08 2013  05 40  -21.0196 26022.9 -03477.8 -07.6121 26254.2
 18 08 2013  05 41  -21.0194 26022.9 -03477.8 -07.6122 26254.3
 18 08 2013  05 42  -21.0190 26022.9 -03477.8 -07.6122 26254.3
 18 08 2013  05 43  -21.0189 26023.0 -03477.9 -07.6123 26254.4
 18 08 2013  05 44  -21.0188 26023.0 -03478.0 -07.6124 26254.4
 18 08 2013  05 45  -21.0187 26023.0 -03478.0 -07.6125 26254.4
 18 08 2013  05 46  -21.0188 26023.1 -03478.0 -07.6125 26254.5
 18 08 2013  05 47  -21.0186 26022.9 -03477.9 -07.6124 26254.3
 18 08 2013  05 48  -21.0184 26023.0 -03477.9 -07.6124 26254.4
 18 08 2013  05 49  -21.0183 26023.2 -03478.1 -07.6126 26254.6
 18 08 2013  05 50  -21.0184 26023.1 -03478.1 -07.6126 26254.5
 18 08 2013  05 51  -21.0184 26023.1 -03478.1 -07.6126 26254.5
 18 08 2013  05 52  -21.0185 26023.3 -03478.2 -07.6128 26254.7
 18 08 2013  05 53  -21.0186 26023.5 -03478.3 -07.6130 26254.9
 18 08 2013  05 54  -21.0187 26023.5 -03478.3 -07.6131 26254.9
 18 08 2013  05 55  -21.0187 26023.5 -03478.3 -07.6130 26254.9
 18 08 2013  05 56  -21.0186 26023.4 -03478.2 -07.6129 26254.8
 18 08 2013  05 57  -21.0185 26023.7 -03478.3 -07.6130 26255.1
 18 08 2013  05 58  -21.0183 26023.7 -03478.3 -07.6130 26255.1
 18 08 2013  05 59  -21.0182 26023.9 -03478.4 -07.6132 26255.4
 18 08 2013  06 00  -21.0181 26024.1 -03478.5 -07.6133 26255.6
 18 08 2013  06 01  -21.0179 26024.1 -03478.5 -07.6133 26255.5
 18 08 2013  06 02  -21.0178 26024.2 -03478.6 -07.6134 26255.6
 18 08 2013  06 03  -21.0175 26024.3 -03478.6 -07.6134 26255.8
 18 08 2013  06 04  -21.0172 26024.3 -03478.6 -07.6134 26255.7
 18 08 2013  06 05  -21.0171 26024.2 -03478.6 -07.6134 26255.7
 18 08 2013  06 06  -21.0171 26024.1 -03478.5 -07.6133 26255.6
 18 08 2013  06 07  -21.0171 26024.1 -03478.5 -07.6133 26255.6
 18 08 2013  06 08  -21.0171 26024.2 -03478.5 -07.6133 26255.6
 18 08 2013  06 09  -21.0170 26024.2 -03478.6 -07.6134 26255.6
 18 08 2013  06 10  -21.0167 26024.2 -03478.6 -07.6134 26255.6
 18 08 2013  06 11  -21.0164 26024.2 -03478.6 -07.6134 26255.6
 18 08 2013  06 12  -21.0162 26024.2 -03478.6 -07.6134 26255.7
 18 08 2013  06 13  -21.0160 26024.3 -03478.7 -07.6136 26255.8
 18 08 2013  06 14  -21.0157 26024.2 -03478.6 -07.6135 26255.6
 18 08 2013  06 15  -21.0152 26023.9 -03478.5 -07.6134 26255.4
 18 08 2013  06 16  -21.0148 26023.9 -03478.5 -07.6134 26255.4
 18 08 2013  06 17  -21.0147 26023.9 -03478.6 -07.6135 26255.4
 18 08 2013  06 18  -21.0147 26023.9 -03478.6 -07.6135 26255.3
 18 08 2013  06 19  -21.0146 26023.8 -03478.6 -07.6135 26255.3
 18 08 2013  06 20  -21.0145 26023.8 -03478.6 -07.6136 26255.3
 18 08 2013  06 21  -21.0143 26023.6 -03478.5 -07.6135 26255.1
 18 08 2013  06 22  -21.0143 26023.4 -03478.5 -07.6134 26254.9
 18 08 2013  06 23  -21.0143 26023.4 -03478.5 -07.6135 26254.9
 18 08 2013  06 24  -21.0143 26023.2 -03478.5 -07.6134 26254.7
 18 08 2013  06 25  -21.0142 26023.2 -03478.4 -07.6134 26254.6
 18 08 2013  06 26  -21.0142 26023.1 -03478.4 -07.6133 26254.5
 18 08 2013  06 27  -21.0140 26023.2 -03478.4 -07.6134 26254.6
 18 08 2013  06 28  -21.0140 26023.1 -03478.5 -07.6135 26254.5
 18 08 2013  06 29  -21.0140 26022.9 -03478.4 -07.6134 26254.4
 18 08 2013  06 30  -21.0142 26022.9 -03478.4 -07.6135 26254.4
 18 08 2013  06 31  -21.0147 26022.8 -03478.4 -07.6135 26254.3
 18 08 2013  06 32  -21.0148 26022.6 -03478.3 -07.6133 26254.0
 18 08 2013  06 33  -21.0150 26022.6 -03478.3 -07.6132 26254.0
 18 08 2013  06 34  -21.0152 26022.8 -03478.4 -07.6135 26254.3
 18 08 2013  06 35  -21.0154 26022.8 -03478.4 -07.6134 26254.3
 18 08 2013  06 36  -21.0156 26023.0 -03478.5 -07.6135 26254.5
 18 08 2013  06 37  -21.0157 26023.2 -03478.6 -07.6137 26254.7
 18 08 2013  06 38  -21.0158 26023.3 -03478.6 -07.6137 26254.8
 18 08 2013  06 39  -21.0156 26023.3 -03478.6 -07.6136 26254.8
 18 08 2013  06 40  -21.0154 26023.4 -03478.5 -07.6136 26254.9
 18 08 2013  06 41  -21.0156 26023.6 -03478.7 -07.6137 26255.1
 18 08 2013  06 42  -21.0158 26023.5 -03478.6 -07.6137 26254.9
 18 08 2013  06 43  -21.0159 26023.7 -03478.7 -07.6137 26255.2
 18 08 2013  06 44  -21.0158 26023.9 -03478.8 -07.6139 26255.4
 18 08 2013  06 45  -21.0158 26023.9 -03478.7 -07.6137 26255.3
 18 08 2013  06 46  -21.0157 26023.9 -03478.7 -07.6137 26255.4
 18 08 2013  06 47  -21.0155 26023.9 -03478.6 -07.6136 26255.4
 18 08 2013  06 48  -21.0153 26024.1 -03478.7 -07.6137 26255.5
 18 08 2013  06 49  -21.0149 26024.0 -03478.6 -07.6136 26255.5
 18 08 2013  06 50  -21.0146 26024.0 -03478.6 -07.6135 26255.5
 18 08 2013  06 51  -21.0143 26024.1 -03478.7 -07.6137 26255.6
 18 08 2013  06 52  -21.0142 26024.2 -03478.7 -07.6138 26255.6
 18 08 2013  06 53  -21.0139 26024.2 -03478.8 -07.6138 26255.7
 18 08 2013  06 54  -21.0134 26024.4 -03478.8 -07.6139 26255.8
 18 08 2013  06 55  -21.0128 26024.3 -03478.8 -07.6139 26255.8
 18 08 2013  06 56  -21.0121 26024.2 -03478.7 -07.6137 26255.6
 18 08 2013  06 57  -21.0118 26024.3 -03478.8 -07.6138 26255.8
 18 08 2013  06 58  -21.0117 26024.6 -03479.0 -07.6141 26256.1
 18 08 2013  06 59  -21.0118 26024.8 -03479.1 -07.6144 26256.4
 18 08 2013  07 00  -21.0118 26025.0 -03479.2 -07.6145 26256.5
 18 08 2013  07 01  -21.0119 26025.2 -03479.3 -07.6147 26256.7
 18 08 2013  07 02  -21.0119 26025.2 -03479.3 -07.6147 26256.7
 18 08 2013  07 03  -21.0120 26025.2 -03479.3 -07.6147 26256.8
 18 08 2013  07 04  -21.0121 26025.2 -03479.3 -07.6147 26256.8
 18 08 2013  07 05  -21.0124 26025.3 -03479.3 -07.6147 26256.9
 18 08 2013  07 06  -21.0126 26025.3 -03479.3 -07.6146 26256.9
 18 08 2013  07 07  -21.0129 26025.4 -03479.3 -07.6146 26256.9
 18 08 2013  07 08  -21.0135 26025.4 -03479.3 -07.6146 26257.0
 18 08 2013  07 09  -21.0139 26025.4 -03479.3 -07.6145 26257.0
 18 08 2013  07 10  -21.0145 26025.4 -03479.2 -07.6144 26256.9
 18 08 2013  07 11  -21.0150 26025.1 -03479.0 -07.6141 26256.6
 18 08 2013  07 12  -21.0154 26024.9 -03478.8 -07.6138 26256.4
 18 08 2013  07 13  -21.0156 26024.9 -03478.8 -07.6137 26256.3
 18 08 2013  07 14  -21.0157 26025.0 -03478.8 -07.6136 26256.4
 18 08 2013  07 15  -21.0158 26024.9 -03478.7 -07.6135 26256.4
 18 08 2013  07 16  -21.0156 26024.7 -03478.5 -07.6132 26256.1
 18 08 2013  07 17  -21.0153 26024.4 -03478.4 -07.6129 26255.8
 18 08 2013  07 18  -21.0148 26024.1 -03478.2 -07.6126 26255.6
 18 08 2013  07 19  -21.0143 26023.9 -03478.1 -07.6124 26255.2
 18 08 2013  07 20  -21.0139 26023.7 -03478.0 -07.6122 26255.0
 18 08 2013  07 21  -21.0136 26023.5 -03477.9 -07.6121 26254.9
 18 08 2013  07 22  -21.0133 26023.3 -03477.8 -07.6120 26254.7
 18 08 2013  07 23  -21.0132 26023.2 -03477.8 -07.6120 26254.6
 18 08 2013  07 24  -21.0128 26023.0 -03477.7 -07.6119 26254.4
 18 08 2013  07 25  -21.0128 26022.9 -03477.7 -07.6119 26254.3
 18 08 2013  07 26  -21.0128 26022.9 -03477.7 -07.6120 26254.2
 18 08 2013  07 27  -21.0132 26022.9 -03477.8 -07.6121 26254.3
 18 08 2013  07 28  -21.0130 26022.8 -03477.8 -07.6120 26254.1
 18 08 2013  07 29  -21.0124 26022.5 -03477.6 -07.6118 26253.8
 18 08 2013  07 30  -21.0117 26022.2 -03477.5 -07.6116 26253.5
 18 08 2013  07 31  -21.0110 26021.9 -03477.4 -07.6115 26253.2
 18 08 2013  07 32  -21.0103 26021.7 -03477.3 -07.6114 26253.0
 18 08 2013  07 33  -21.0098 26021.6 -03477.3 -07.6114 26252.9
 18 08 2013  07 34  -21.0094 26021.6 -03477.4 -07.6115 26252.9
 18 08 2013  07 35  -21.0089 26021.6 -03477.4 -07.6117 26253.0
 18 08 2013  07 36  -21.0083 26021.6 -03477.5 -07.6117 26252.9
 18 08 2013  07 37  -21.0076 26021.7 -03477.5 -07.6119 26253.0
 18 08 2013  07 38  -21.0070 26021.7 -03477.6 -07.6121 26253.1
 18 08 2013  07 39  -21.0066 26021.9 -03477.7 -07.6122 26253.2
 18 08 2013  07 40  -21.0059 26021.9 -03477.8 -07.6124 26253.3
 18 08 2013  07 41  -21.0049 26021.8 -03477.8 -07.6125 26253.2
 18 08 2013  07 42  -21.0041 26021.6 -03477.8 -07.6124 26253.0
 18 08 2013  07 43  -21.0034 26021.4 -03477.7 -07.6123 26252.7
 18 08 2013  07 44  -21.0032 26021.4 -03477.7 -07.6124 26252.7
 18 08 2013  07 45  -21.0029 26021.4 -03477.8 -07.6126 26252.8
 18 08 2013  07 46  -21.0023 26021.4 -03477.9 -07.6128 26252.8
 18 08 2013  07 47  -21.0017 26021.4 -03478.0 -07.6129 26252.8
 18 08 2013  07 48  -21.0011 26021.5 -03478.0 -07.6130 26252.9
 18 08 2013  07 49  -21.0008 26021.5 -03478.1 -07.6132 26252.9
 18 08 2013  07 50  -21.0003 26021.4 -03478.1 -07.6133 26252.9
 18 08 2013  07 51  -21.0001 26021.4 -03478.2 -07.6135 26252.9
 18 08 2013  07 52  -20.9997 26021.4 -03478.3 -07.6136 26252.8
 18 08 2013  07 53  -20.9992 26021.2 -03478.3 -07.6136 26252.7
 18 08 2013  07 54  -20.9992 26021.4 -03478.5 -07.6140 26252.9
 18 08 2013  07 55  -20.9992 26021.6 -03478.6 -07.6143 26253.1
 18 08 2013  07 56  -20.9990 26021.6 -03478.7 -07.6143 26253.1
 18 08 2013  07 57  -20.9986 26021.6 -03478.7 -07.6143 26253.1
 18 08 2013  07 58  -20.9981 26021.8 -03478.7 -07.6144 26253.3
 18 08 2013  07 59  -20.9975 26021.8 -03478.8 -07.6146 26253.3
 18 08 2013  08 00  -20.9971 26022.0 -03478.9 -07.6148 26253.5
 18 08 2013  08 01  -20.9968 26021.8 -03478.9 -07.6148 26253.3
 18 08 2013  08 02  -20.9965 26021.4 -03478.7 -07.6145 26252.9
 18 08 2013  08 03  -20.9963 26020.7 -03478.4 -07.6141 26252.2
 18 08 2013  08 04  -20.9965 26020.1 -03478.1 -07.6136 26251.6
 18 08 2013  08 05  -20.9964 26019.8 -03477.9 -07.6133 26251.2
 18 08 2013  08 06  -20.9961 26019.7 -03477.9 -07.6133 26251.1
 18 08 2013  08 07  -20.9957 26019.7 -03477.9 -07.6133 26251.1
 18 08 2013  08 08  -20.9955 26020.1 -03478.2 -07.6138 26251.5
 18 08 2013  08 09  -20.9955 26021.1 -03478.9 -07.6151 26252.6
 18 08 2013  08 10  -20.9954 26022.1 -03479.6 -07.6163 26253.7
 18 08 2013  08 11  -20.9948 26022.3 -03479.8 -07.6165 26253.9
 18 08 2013  08 12  -20.9941 26022.5 -03479.9 -07.6167 26254.1
 18 08 2013  08 13  -20.9934 26022.5 -03479.9 -07.6167 26254.2
 18 08 2013  08 14  -20.9936 26022.5 -03479.9 -07.6168 26254.2
 18 08 2013  08 15  -20.9940 26022.3 -03479.8 -07.6166 26254.0
 18 08 2013  08 16  -20.9944 26022.4 -03479.8 -07.6166 26254.0
 18 08 2013  08 17  -20.9946 26022.6 -03479.9 -07.6168 26254.3
 18 08 2013  08 18  -20.9954 26022.4 -03479.8 -07.6166 26254.1
 18 08 2013  08 19  -20.9957 26022.0 -03479.5 -07.6161 26253.6
 18 08 2013  08 20  -20.9954 26021.7 -03479.3 -07.6157 26253.3
 18 08 2013  08 21  -20.9954 26021.6 -03479.3 -07.6157 26253.1
 18 08 2013  08 22  -20.9955 26021.3 -03479.1 -07.6155 26252.9
 18 08 2013  08 23  -20.9950 26021.1 -03478.9 -07.6151 26252.6
 18 08 2013  08 24  -20.9948 26021.0 -03478.9 -07.6150 26252.5
 18 08 2013  08 25  -20.9944 26021.0 -03478.9 -07.6150 26252.5
 18 08 2013  08 26  -20.9944 26020.9 -03478.9 -07.6150 26252.4
 18 08 2013  08 27  -20.9944 26021.0 -03479.0 -07.6152 26252.5
 18 08 2013  08 28  -20.9943 26021.0 -03479.0 -07.6153 26252.5
 18 08 2013  08 29  -20.9946 26021.0 -03479.0 -07.6153 26252.5
 18 08 2013  08 30  -20.9947 26020.9 -03478.9 -07.6151 26252.4
 18 08 2013  08 31  -20.9949 26020.9 -03479.0 -07.6152 26252.4
 18 08 2013  08 32  -20.9950 26021.1 -03479.1 -07.6154 26252.6
 18 08 2013  08 33  -20.9949 26020.9 -03479.0 -07.6152 26252.5
 18 08 2013  08 34  -20.9947 26020.7 -03478.8 -07.6149 26252.2
 18 08 2013  08 35  -20.9949 26020.4 -03478.8 -07.6149 26252.0
 18 08 2013  08 36  -20.9954 26020.3 -03478.8 -07.6149 26251.8
 18 08 2013  08 37  -20.9955 26020.1 -03478.7 -07.6147 26251.6
 18 08 2013  08 38  -20.9955 26020.0 -03478.6 -07.6146 26251.5
 18 08 2013  08 39  -20.9953 26019.7 -03478.4 -07.6144 26251.2
 18 08 2013  08 40  -20.9955 26019.7 -03478.5 -07.6145 26251.1
 18 08 2013  08 41  -20.9954 26019.6 -03478.5 -07.6145 26251.1
 18 08 2013  08 42  -20.9953 26019.3 -03478.4 -07.6143 26250.8
 18 08 2013  08 43  -20.9947 26019.1 -03478.1 -07.6140 26250.5
 18 08 2013  08 44  -20.9944 26018.9 -03478.0 -07.6138 26250.3
 18 08 2013  08 45  -20.9940 26018.7 -03478.0 -07.6138 26250.2
 18 08 2013  08 46  -20.9940 26018.7 -03478.1 -07.6139 26250.1
 18 08 2013  08 47  -20.9936 26018.7 -03478.2 -07.6141 26250.2
 18 08 2013  08 48  -20.9931 26018.5 -03478.1 -07.6141 26250.0
 18 08 2013  08 49  -20.9925 26018.5 -03478.2 -07.6142 26249.9
 18 08 2013  08 50  -20.9920 26018.5 -03478.3 -07.6144 26250.0
 18 08 2013  08 51  -20.9918 26018.7 -03478.5 -07.6148 26250.2
 18 08 2013  08 52  -20.9909 26018.8 -03478.5 -07.6149 26250.3
 18 08 2013  08 53  -20.9903 26018.7 -03478.6 -07.6150 26250.2
 18 08 2013  08 54  -20.9900 26018.9 -03478.8 -07.6154 26250.5
 18 08 2013  08 55  -20.9897 26019.4 -03479.1 -07.6160 26251.0
 18 08 2013  08 56  -20.9900 26019.6 -03479.3 -07.6163 26251.2
 18 08 2013  08 57  -20.9906 26019.5 -03479.4 -07.6166 26251.1
 18 08 2013  08 58  -20.9905 26019.1 -03479.2 -07.6163 26250.7
 18 08 2013  08 59  -20.9899 26018.7 -03479.0 -07.6159 26250.3
 18 08 2013  09 00  -20.9896 26018.4 -03478.8 -07.6156 26250.0
 18 08 2013  09 01  -20.9889 26018.1 -03478.7 -07.6153 26249.6
 18 08 2013  09 02  -20.9883 26017.7 -03478.5 -07.6151 26249.2
 18 08 2013  09 03  -20.9881 26017.4 -03478.3 -07.6149 26248.9
 18 08 2013  09 04  -20.9874 26017.4 -03478.4 -07.6149 26248.8
 18 08 2013  09 05  -20.9878 26017.7 -03478.7 -07.6156 26249.2
 18 08 2013  09 06  -20.9877 26017.6 -03478.9 -07.6159 26249.1
 18 08 2013  09 07  -20.9875 26017.8 -03479.1 -07.6164 26249.4
 18 08 2013  09 08  -20.9872 26017.9 -03479.3 -07.6167 26249.5
 18 08 2013  09 09  -20.9865 26017.9 -03479.4 -07.6170 26249.5
 18 08 2013  09 10  -20.9853 26017.6 -03479.3 -07.6169 26249.2
 18 08 2013  09 11  -20.9852 26018.1 -03479.7 -07.6176 26249.8
 18 08 2013  09 12  -20.9857 26018.3 -03480.1 -07.6183 26250.0
 18 08 2013  09 13  -20.9863 26018.7 -03480.4 -07.6190 26250.4
 18 08 2013  09 14  -20.9867 26019.1 -03480.8 -07.6197 26250.9
 18 08 2013  09 15  -20.9881 26019.3 -03481.1 -07.6204 26251.1
 18 08 2013  09 16  -20.9886 26019.4 -03481.3 -07.6207 26251.2
 18 08 2013  09 17  -20.9885 26019.2 -03481.2 -07.6206 26251.0
 18 08 2013  09 18  -20.9887 26019.3 -03481.3 -07.6207 26251.2
 18 08 2013  09 19  -20.9888 26019.3 -03481.3 -07.6208 26251.2
 18 08 2013  09 20  -20.9892 26019.4 -03481.5 -07.6211 26251.3
 18 08 2013  09 21  -20.9886 26019.2 -03481.6 -07.6213 26251.1
 18 08 2013  09 22  -20.9886 26019.2 -03481.5 -07.6213 26251.1
 18 08 2013  09 23  -20.9894 26019.2 -03481.7 -07.6216 26251.2
 18 08 2013  09 24  -20.9896 26019.3 -03481.7 -07.6216 26251.2
 18 08 2013  09 25  -20.9897 26019.1 -03481.6 -07.6215 26251.0
 18 08 2013  09 26  -20.9893 26018.8 -03481.6 -07.6215 26250.7
 18 08 2013  09 27  -20.9886 26018.5 -03481.5 -07.6213 26250.4
 18 08 2013  09 28  -20.9888 26018.5 -03481.5 -07.6215 26250.4
 18 08 2013  09 29  -20.9893 26018.6 -03481.7 -07.6218 26250.5
 18 08 2013  09 30  -20.9898 26018.6 -03481.9 -07.6222 26250.5
 18 08 2013  09 31  -20.9904 26018.5 -03482.0 -07.6224 26250.4
 18 08 2013  09 32  -20.9915 26018.6 -03482.2 -07.6229 26250.6
 18 08 2013  09 33  -20.9917 26018.8 -03482.4 -07.6232 26250.8
 18 08 2013  09 34  -20.9919 26018.9 -03482.4 -07.6233 26250.9
 18 08 2013  09 35  -20.9920 26019.2 -03482.6 -07.6236 26251.3
 18 08 2013  09 36  -20.9924 26019.7 -03482.9 -07.6240 26251.7
 18 08 2013  09 37  -20.9935 26020.0 -03483.2 -07.6245 26252.1
 18 08 2013  09 38  -20.9943 26020.3 -03483.4 -07.6250 26252.4
 18 08 2013  09 39  -20.9938 26020.3 -03483.5 -07.6251 26252.4
 18 08 2013  09 40  -20.9931 26020.4 -03483.5 -07.6250 26252.6
 18 08 2013  09 41  -20.9935 26020.6 -03483.6 -07.6252 26252.8
 18 08 2013  09 42  -20.9941 26020.9 -03483.7 -07.6255 26253.1
 18 08 2013  09 43  -20.9947 26021.1 -03483.9 -07.6258 26253.3
 18 08 2013  09 44  -20.9951 26021.3 -03484.0 -07.6260 26253.5
 18 08 2013  09 45  -20.9956 26021.4 -03484.0 -07.6260 26253.6
 18 08 2013  09 46  -20.9954 26021.5 -03484.0 -07.6260 26253.7
 18 08 2013  09 47  -20.9961 26021.3 -03484.0 -07.6260 26253.5
 18 08 2013  09 48  -20.9959 26021.6 -03484.2 -07.6263 26253.8
 18 08 2013  09 49  -20.9962 26021.8 -03484.4 -07.6266 26254.0
 18 08 2013  09 50  -20.9981 26021.3 -03484.3 -07.6267 26253.6
 18 08 2013  09 51  -20.9982 26021.6 -03484.5 -07.6270 26253.9
 18 08 2013  09 52  -20.9992 26021.6 -03484.6 -07.6272 26253.9
 18 08 2013  09 53  -20.9984 26022.2 -03484.9 -07.6276 26254.5
 18 08 2013  09 54  -20.9965 26022.1 -03484.7 -07.6273 26254.4
 18 08 2013  09 55  -20.9962 26022.5 -03484.8 -07.6273 26254.8
 18 08 2013  09 56  -20.9960 26022.6 -03484.8 -07.6273 26254.9
 18 08 2013  09 57  -20.9979 26022.5 -03484.7 -07.6273 26254.8
 18 08 2013  09 58  -20.9991 26022.5 -03484.8 -07.6274 26254.8
 18 08 2013  09 59  -20.9995 26022.6 -03484.8 -07.6274 26254.9
 18 08 2013  10 00  -20.9995 26022.5 -03484.8 -07.6274 26254.8
 18 08 2013  10 01  -21.0000 26022.5 -03484.9 -07.6275 26254.8
 18 08 2013  10 02  -21.0015 26022.6 -03485.0 -07.6277 26254.9
 18 08 2013  10 03  -21.0038 26022.7 -03485.1 -07.6280 26255.1
 18 08 2013  10 04  -21.0046 26023.1 -03485.4 -07.6284 26255.5
 18 08 2013  10 05  -21.0055 26023.2 -03485.4 -07.6285 26255.5
 18 08 2013  10 06  -21.0063 26023.2 -03485.4 -07.6286 26255.6
 18 08 2013  10 07  -21.0072 26023.6 -03485.6 -07.6288 26256.0
 18 08 2013  10 08  -21.0078 26023.9 -03485.7 -07.6289 26256.3
 18 08 2013  10 09  -21.0084 26024.2 -03485.7 -07.6289 26256.6
 18 08 2013  10 10  -21.0088 26024.4 -03485.7 -07.6288 26256.8
 18 08 2013  10 11  -21.0094 26024.6 -03485.7 -07.6287 26257.0
 18 08 2013  10 12  -21.0097 26024.7 -03485.6 -07.6285 26257.1
 18 08 2013  10 13  -21.0099 26025.0 -03485.6 -07.6283 26257.4
 18 08 2013  10 14  -21.0101 26025.1 -03485.5 -07.6281 26257.5
 18 08 2013  10 15  -21.0104 26025.3 -03485.5 -07.6280 26257.6
 18 08 2013  10 16  -21.0105 26025.4 -03485.4 -07.6278 26257.7
 18 08 2013  10 17  -21.0109 26025.5 -03485.4 -07.6277 26257.8
 18 08 2013  10 18  -21.0115 26025.6 -03485.4 -07.6277 26257.9
 18 08 2013  10 19  -21.0120 26025.9 -03485.4 -07.6277 26258.2
 18 08 2013  10 20  -21.0120 26026.2 -03485.4 -07.6277 26258.5
 18 08 2013  10 21  -21.0122 26026.4 -03485.4 -07.6275 26258.7
 18 08 2013  10 22  -21.0123 26026.5 -03485.3 -07.6272 26258.9
 18 08 2013  10 23  -21.0125 26026.6 -03485.1 -07.6269 26258.9
 18 08 2013  10 24  -21.0124 26026.6 -03485.0 -07.6266 26258.9
 18 08 2013  10 25  -21.0123 26026.9 -03485.0 -07.6264 26259.2
 18 08 2013  10 26  -21.0125 26027.2 -03484.9 -07.6263 26259.4
 18 08 2013  10 27  -21.0128 26027.4 -03484.9 -07.6262 26259.6
 18 08 2013  10 28  -21.0137 26027.7 -03485.0 -07.6262 26260.0
 18 08 2013  10 29  -21.0140 26027.9 -03484.9 -07.6261 26260.1
 18 08 2013  10 30  -21.0146 26028.1 -03484.9 -07.6260 26260.3
 18 08 2013  10 31  -21.0156 26028.3 -03484.9 -07.6260 26260.6
 18 08 2013  10 32  -21.0163 26028.8 -03485.0 -07.6261 26261.1
 18 08 2013  10 33  -21.0167 26029.1 -03485.0 -07.6260 26261.4
 18 08 2013  10 34  -21.0166 26029.6 -03485.1 -07.6259 26261.8
 18 08 2013  10 35  -21.0172 26029.8 -03485.0 -07.6257 26262.0
 18 08 2013  10 36  -21.0181 26029.8 -03484.9 -07.6254 26262.0
 18 08 2013  10 37  -21.0188 26029.9 -03484.8 -07.6253 26262.2
 18 08 2013  10 38  -21.0197 26030.1 -03484.8 -07.6251 26262.3
 18 08 2013  10 39  -21.0205 26030.3 -03484.8 -07.6250 26262.5
 18 08 2013  10 40  -21.0216 26030.6 -03484.8 -07.6250 26262.8
 18 08 2013  10 41  -21.0228 26030.6 -03484.6 -07.6246 26262.8
 18 08 2013  10 42  -21.0238 26030.7 -03484.5 -07.6243 26262.9
 18 08 2013  10 43  -21.0242 26030.7 -03484.3 -07.6239 26262.9
 18 08 2013  10 44  -21.0251 26030.8 -03484.1 -07.6235 26262.9
 18 08 2013  10 45  -21.0258 26030.8 -03484.0 -07.6233 26262.9
 18 08 2013  10 46  -21.0266 26030.6 -03483.8 -07.6228 26262.7
 18 08 2013  10 47  -21.0270 26030.8 -03483.7 -07.6226 26262.9
 18 08 2013  10 48  -21.0276 26030.8 -03483.6 -07.6223 26262.9
 18 08 2013  10 49  -21.0286 26031.1 -03483.5 -07.6222 26263.1
 18 08 2013  10 50  -21.0302 26031.3 -03483.6 -07.6222 26263.4
 18 08 2013  10 51  -21.0314 26031.7 -03483.6 -07.6222 26263.8
 18 08 2013  10 52  -21.0325 26032.1 -03483.6 -07.6219 26264.2
 18 08 2013  10 53  -21.0328 26032.5 -03483.4 -07.6215 26264.5
 18 08 2013  10 54  -21.0333 26032.5 -03483.2 -07.6210 26264.5
 18 08 2013  10 55  -21.0343 26032.4 -03482.9 -07.6205 26264.3
 18 08 2013  10 56  -21.0350 26032.5 -03482.8 -07.6201 26264.4
 18 08 2013  10 57  -21.0349 26032.5 -03482.6 -07.6197 26264.5
 18 08 2013  10 58  -21.0353 26032.9 -03482.6 -07.6196 26264.8
 18 08 2013  10 59  -21.0356 26033.5 -03482.7 -07.6196 26265.5
 18 08 2013  11 00  -21.0356 26034.1 -03482.6 -07.6192 26266.0
 18 08 2013  11 01  -21.0350 26034.5 -03482.5 -07.6189 26266.4
 18 08 2013  11 02  -21.0355 26034.4 -03482.2 -07.6183 26266.2
 18 08 2013  11 03  -21.0370 26034.3 -03482.1 -07.6181 26266.1
 18 08 2013  11 04  -21.0388 26035.1 -03482.4 -07.6185 26267.0
 18 08 2013  11 05  -21.0397 26036.5 -03482.8 -07.6190 26268.4
 18 08 2013  11 06  -21.0388 26038.2 -03483.1 -07.6192 26270.2
 18 08 2013  11 07  -21.0374 26039.6 -03483.2 -07.6189 26271.5
 18 08 2013  11 08  -21.0380 26039.5 -03482.7 -07.6179 26271.4
 18 08 2013  11 09  -21.0404 26038.8 -03482.1 -07.6169 26270.6
 18 08 2013  11 10  -21.0424 26038.5 -03481.8 -07.6163 26270.3
 18 08 2013  11 11  -21.0434 26038.4 -03481.6 -07.6158 26270.1
 18 08 2013  11 12  -21.0444 26038.3 -03481.4 -07.6155 26270.0
 18 08 2013  11 13  -21.0456 26038.8 -03481.5 -07.6155 26270.6
 18 08 2013  11 14  -21.0466 26039.6 -03481.6 -07.6156 26271.4
 18 08 2013  11 15  -21.0472 26040.6 -03481.7 -07.6155 26272.3
 18 08 2013  11 16  -21.0471 26041.6 -03481.7 -07.6152 26273.3
 18 08 2013  11 17  -21.0464 26041.8 -03481.3 -07.6143 26273.5
 18 08 2013  11 18  -21.0466 26041.1 -03480.7 -07.6130 26272.7
 18 08 2013  11 19  -21.0471 26041.2 -03480.4 -07.6125 26272.8
 18 08 2013  11 20  -21.0476 26042.5 -03480.6 -07.6126 26274.0
 18 08 2013  11 21  -21.0472 26043.2 -03480.6 -07.6123 26274.8
 18 08 2013  11 22  -21.0469 26043.3 -03480.2 -07.6113 26274.8
 18 08 2013  11 23  -21.0478 26043.3 -03479.9 -07.6108 26274.8
 18 08 2013  11 24  -21.0497 26044.2 -03480.0 -07.6107 26275.6
 18 08 2013  11 25  -21.0501 26045.3 -03480.1 -07.6106 26276.8
 18 08 2013  11 26  -21.0510 26045.4 -03479.8 -07.6098 26276.8
 18 08 2013  11 27  -21.0528 26046.0 -03479.7 -07.6095 26277.4
 18 08 2013  11 28  -21.0550 26047.0 -03479.8 -07.6096 26278.5
 18 08 2013  11 29  -21.0568 26047.4 -03479.6 -07.6089 26278.8
 18 08 2013  11 30  -21.0578 26048.1 -03479.5 -07.6084 26279.5
 18 08 2013  11 31  -21.0582 26047.5 -03478.8 -07.6072 26278.8
 18 08 2013  11 32  -21.0591 26046.7 -03478.1 -07.6059 26277.9
 18 08 2013  11 33  -21.0594 26046.9 -03477.9 -07.6054 26278.1
 18 08 2013  11 34  -21.0594 26047.0 -03477.7 -07.6049 26278.2
 18 08 2013  11 35  -21.0593 26047.3 -03477.5 -07.6045 26278.4
 18 08 2013  11 36  -21.0595 26047.9 -03477.5 -07.6043 26279.0
 18 08 2013  11 37  -21.0593 26048.6 -03477.5 -07.6040 26279.7
 18 08 2013  11 38  -21.0581 26049.6 -03477.5 -07.6036 26280.7
 18 08 2013  11 39  -21.0582 26050.0 -03477.2 -07.6029 26281.0
 18 08 2013  11 40  -21.0576 26051.4 -03477.3 -07.6027 26282.4
 18 08 2013  11 41  -21.0581 26051.9 -03477.1 -07.6022 26282.9
 18 08 2013  11 42  -21.0592 26051.0 -03476.3 -07.6008 26281.9
 18 08 2013  11 43  -21.0590 26050.8 -03475.9 -07.5999 26281.7
 18 08 2013  11 44  -21.0596 26050.4 -03475.6 -07.5993 26281.2
 18 08 2013  11 45  -21.0603 26050.5 -03475.5 -07.5992 26281.3
 18 08 2013  11 46  -21.0620 26050.1 -03475.3 -07.5989 26280.9
 18 08 2013  11 47  -21.0626 26050.3 -03475.3 -07.5987 26281.1
 18 08 2013  11 48  -21.0640 26049.7 -03475.0 -07.5983 26280.5
 18 08 2013  11 49  -21.0642 26050.2 -03475.2 -07.5986 26281.0
 18 08 2013  11 50  -21.0649 26050.6 -03475.4 -07.5989 26281.4
 18 08 2013  11 51  -21.0649 26051.6 -03475.7 -07.5993 26282.5
 18 08 2013  11 52  -21.0650 26052.2 -03475.7 -07.5992 26283.0
 18 08 2013  11 53  -21.0659 26052.0 -03475.5 -07.5986 26282.8
 18 08 2013  11 54  -21.0663 26052.4 -03475.4 -07.5984 26283.2
 18 08 2013  11 55  -21.0663 26053.4 -03475.6 -07.5985 26284.2
 18 08 2013  11 56  -21.0662 26054.2 -03475.6 -07.5983 26285.0
 18 08 2013  11 57  -21.0662 26055.2 -03475.7 -07.5982 26286.0
 18 08 2013  11 58  -21.0661 26055.8 -03475.5 -07.5977 26286.6
 18 08 2013  11 59  -21.0662 26056.0 -03475.2 -07.5970 26286.7
 18 08 2013  12 00  -21.0670 26055.8 -03474.9 -07.5964 26286.5
 18 08 2013  12 01  -21.0678 26055.6 -03474.6 -07.5958 26286.3
 18 08 2013  12 02  -21.0679 26056.2 -03474.6 -07.5957 26286.8
 18 08 2013  12 03  -21.0677 26057.0 -03474.7 -07.5957 26287.6
 18 08 2013  12 04  -21.0679 26057.4 -03474.7 -07.5954 26288.1
 18 08 2013  12 05  -21.0677 26058.3 -03474.7 -07.5952 26289.0
 18 08 2013  12 06  -21.0674 26059.1 -03474.7 -07.5949 26289.7
 18 08 2013  12 07  -21.0675 26059.2 -03474.3 -07.5941 26289.8
 18 08 2013  12 08  -21.0675 26059.0 -03473.9 -07.5934 26289.5
 18 08 2013  12 09  -21.0681 26058.9 -03473.7 -07.5929 26289.4
 18 08 2013  12 10  -21.0685 26058.3 -03473.3 -07.5922 26288.8
 18 08 2013  12 11  -21.0690 26057.3 -03472.8 -07.5914 26287.7
 18 08 2013  12 12  -21.0691 26058.4 -03473.1 -07.5918 26288.8
 18 08 2013  12 13  -21.0693 26059.6 -03473.5 -07.5921 26290.0
 18 08 2013  12 14  -21.0697 26060.5 -03473.6 -07.5921 26290.9
 18 08 2013  12 15  -21.0689 26060.9 -03473.4 -07.5916 26291.3
 18 08 2013  12 16  -21.0688 26061.6 -03473.3 -07.5913 26292.0
 18 08 2013  12 17  -21.0683 26061.9 -03473.2 -07.5908 26292.4
 18 08 2013  12 18  -21.0689 26061.4 -03472.7 -07.5900 26291.8
 18 08 2013  12 19  -21.0689 26062.9 -03473.1 -07.5903 26293.3
 18 08 2013  12 20  -21.0685 26062.9 -03472.8 -07.5898 26293.2
 18 08 2013  12 21  -21.0683 26062.2 -03472.3 -07.5889 26292.5
 18 08 2013  12 22  -21.0683 26062.1 -03472.2 -07.5887 26292.4
 18 08 2013  12 23  -21.0687 26061.9 -03472.1 -07.5885 26292.1
 18 08 2013  12 24  -21.0690 26063.0 -03472.5 -07.5890 26293.4
 18 08 2013  12 25  -21.0687 26064.2 -03472.7 -07.5893 26294.5
 18 08 2013  12 26  -21.0688 26065.0 -03472.8 -07.5891 26295.3
 18 08 2013  12 27  -21.0691 26065.8 -03472.8 -07.5890 26296.2
 18 08 2013  12 28  -21.0691 26066.2 -03472.6 -07.5885 26296.5
 18 08 2013  12 29  -21.0691 26066.2 -03472.4 -07.5878 26296.5
 18 08 2013  12 30  -21.0690 26066.2 -03472.1 -07.5872 26296.4
 18 08 2013  12 31  -21.0690 26066.3 -03471.9 -07.5868 26296.5
 18 08 2013  12 32  -21.0691 26066.7 -03471.8 -07.5866 26296.9
 18 08 2013  12 33  -21.0695 26066.8 -03471.7 -07.5863 26296.9
 18 08 2013  12 34  -21.0697 26067.2 -03471.7 -07.5861 26297.4
 18 08 2013  12 35  -21.0701 26067.6 -03471.6 -07.5859 26297.8
 18 08 2013  12 36  -21.0705 26068.0 -03471.6 -07.5857 26298.1
 18 08 2013  12 37  -21.0705 26068.9 -03471.7 -07.5856 26299.0
 18 08 2013  12 38  -21.0700 26069.6 -03471.7 -07.5854 26299.7
 18 08 2013  12 39  -21.0696 26070.6 -03471.8 -07.5853 26300.7
 18 08 2013  12 40  -21.0695 26071.4 -03471.8 -07.5852 26301.5
 18 08 2013  12 41  -21.0696 26071.6 -03471.7 -07.5848 26301.7
 18 08 2013  12 42  -21.0693 26071.8 -03471.5 -07.5843 26301.9
 18 08 2013  12 43  -21.0692 26072.2 -03471.5 -07.5842 26302.3
 18 08 2013  12 44  -21.0699 26072.5 -03471.4 -07.5839 26302.5
 18 08 2013  12 45  -21.0703 26072.5 -03471.2 -07.5836 26302.5
 18 08 2013  12 46  -21.0705 26073.3 -03471.4 -07.5837 26303.4
 18 08 2013  12 47  -21.0705 26074.0 -03471.5 -07.5837 26304.1
 18 08 2013  12 48  -21.0709 26074.5 -03471.5 -07.5835 26304.6
 18 08 2013  12 49  -21.0710 26075.0 -03471.4 -07.5832 26305.1
 18 08 2013  12 50  -21.0714 26075.8 -03471.4 -07.5831 26305.8
 18 08 2013  12 51  -21.0716 26076.3 -03471.3 -07.5827 26306.4
 18 08 2013  12 52  -21.0716 26076.5 -03471.0 -07.5821 26306.5
 18 08 2013  12 53  -21.0717 26076.2 -03470.7 -07.5813 26306.1
 18 08 2013  12 54  -21.0724 26076.0 -03470.4 -07.5808 26305.9
 18 08 2013  12 55  -21.0726 26076.3 -03470.4 -07.5806 26306.2
 18 08 2013  12 56  -21.0730 26076.4 -03470.2 -07.5802 26306.3
 18 08 2013  12 57  -21.0738 26076.2 -03469.9 -07.5798 26306.0
 18 08 2013  12 58  -21.0742 26075.9 -03469.7 -07.5793 26305.7
 18 08 2013  12 59  -21.0750 26076.2 -03469.7 -07.5793 26306.0
 18 08 2013  13 00  -21.0750 26077.0 -03469.8 -07.5793 26306.8
 18 08 2013  13 01  -21.0753 26077.2 -03469.7 -07.5790 26307.0
 18 08 2013  13 02  -21.0757 26078.5 -03470.0 -07.5793 26308.4
 18 08 2013  13 03  -21.0754 26078.7 -03469.8 -07.5788 26308.6
 18 08 2013  13 04  -21.0749 26077.7 -03469.3 -07.5779 26307.4
 18 08 2013  13 05  -21.0752 26076.9 -03468.9 -07.5773 26306.6
 18 08 2013  13 06  -21.0759 26078.4 -03469.5 -07.5782 26308.2
 18 08 2013  13 07  -21.0766 26080.3 -03470.1 -07.5790 26310.1
 18 08 2013  13 08  -21.0775 26081.4 -03470.2 -07.5789 26311.3
 18 08 2013  13 09  -21.0782 26082.6 -03470.2 -07.5785 26312.4
 18 08 2013  13 10  -21.0781 26083.1 -03469.9 -07.5777 26312.9
 18 08 2013  13 11  -21.0783 26082.7 -03469.3 -07.5766 26312.5
 18 08 2013  13 12  -21.0789 26082.8 -03469.0 -07.5759 26312.5
 18 08 2013  13 13  -21.0795 26083.6 -03469.0 -07.5755 26313.3
 18 08 2013  13 14  -21.0800 26084.4 -03468.9 -07.5751 26314.1
 18 08 2013  13 15  -21.0803 26084.9 -03468.6 -07.5743 26314.5
 18 08 2013  13 16  -21.0808 26084.7 -03468.0 -07.5732 26314.2
 18 08 2013  13 17  -21.0807 26084.1 -03467.4 -07.5720 26313.5
 18 08 2013  13 18  -21.0811 26083.3 -03466.9 -07.5711 26312.7
 18 08 2013  13 19  -21.0815 26083.2 -03466.7 -07.5707 26312.6
 18 08 2013  13 20  -21.0820 26083.8 -03466.8 -07.5707 26313.2
 18 08 2013  13 21  -21.0827 26084.3 -03466.8 -07.5706 26313.6
 18 08 2013  13 22  -21.0836 26085.2 -03466.9 -07.5705 26314.6
 18 08 2013  13 23  -21.0834 26086.2 -03466.8 -07.5702 26315.5
 18 08 2013  13 24  -21.0831 26086.9 -03466.7 -07.5697 26316.2
 18 08 2013  13 25  -21.0828 26087.7 -03466.6 -07.5692 26317.0
 18 08 2013  13 26  -21.0827 26088.8 -03466.5 -07.5687 26318.1
 18 08 2013  13 27  -21.0823 26089.6 -03466.3 -07.5681 26318.9
 18 08 2013  13 28  -21.0820 26089.6 -03465.8 -07.5670 26318.8
 18 08 2013  13 29  -21.0818 26089.4 -03465.4 -07.5661 26318.6
 18 08 2013  13 30  -21.0814 26088.9 -03464.9 -07.5652 26318.0
 18 08 2013  13 31  -21.0816 26088.5 -03464.5 -07.5646 26317.5
 18 08 2013  13 32  -21.0818 26088.1 -03464.3 -07.5642 26317.1
 18 08 2013  13 33  -21.0820 26087.7 -03464.1 -07.5638 26316.7
 18 08 2013  13 34  -21.0823 26087.5 -03464.0 -07.5637 26316.5
 18 08 2013  13 35  -21.0826 26087.6 -03464.0 -07.5637 26316.6
 18 08 2013  13 36  -21.0830 26087.6 -03463.9 -07.5635 26316.6
 18 08 2013  13 37  -21.0832 26087.6 -03463.9 -07.5634 26316.5
 18 08 2013  13 38  -21.0836 26087.6 -03463.9 -07.5634 26316.6
 18 08 2013  13 39  -21.0842 26087.8 -03463.9 -07.5634 26316.8
 18 08 2013  13 40  -21.0849 26088.1 -03463.9 -07.5634 26317.1
 18 08 2013  13 41  -21.0851 26088.2 -03463.8 -07.5631 26317.1
 18 08 2013  13 42  -21.0852 26088.3 -03463.7 -07.5629 26317.2
 18 08 2013  13 43  -21.0855 26088.6 -03463.7 -07.5627 26317.5
 18 08 2013  13 44  -21.0857 26088.4 -03463.5 -07.5623 26317.3
 18 08 2013  13 45  -21.0858 26088.3 -03463.3 -07.5620 26317.2
 18 08 2013  13 46  -21.0860 26088.4 -03463.3 -07.5619 26317.3
 18 08 2013  13 47  -21.0864 26088.5 -03463.2 -07.5618 26317.4
 18 08 2013  13 48  -21.0869 26088.5 -03463.2 -07.5617 26317.4
 18 08 2013  13 49  -21.0871 26088.2 -03463.0 -07.5614 26317.0
 18 08 2013  13 50  -21.0873 26087.5 -03462.8 -07.5611 26316.3
 18 08 2013  13 51  -21.0874 26086.9 -03462.6 -07.5608 26315.7
 18 08 2013  13 52  -21.0877 26086.5 -03462.6 -07.5609 26315.3
 18 08 2013  14 04  -21.0941 26087.9 -03461.9 -07.5591 26316.6
 18 08 2013  14 05  -21.0939 26087.9 -03462.0 -07.5592 26316.6
 18 08 2013  14 06  -21.0946 26089.5 -03462.7 -07.5604 26318.3
 18 08 2013  14 07  -21.0941 26089.5 -03462.5 -07.5599 26318.2
 18 08 2013  14 08  -21.0938 26089.6 -03462.3 -07.5595 26318.3
 18 08 2013  14 09  -21.0937 26089.7 -03462.2 -07.5591 26318.4
 18 08 2013  14 10  -21.0931 26089.0 -03461.7 -07.5582 26317.7
 18 08 2013  14 11  -21.0926 26087.7 -03461.0 -07.5572 26316.3
 18 08 2013  14 12  -21.0927 26086.9 -03460.8 -07.5569 26315.5
 18 08 2013  14 13  -21.0925 26086.4 -03460.7 -07.5568 26315.0
 18 08 2013  14 14  -21.0921 26086.0 -03460.6 -07.5568 26314.5
 18 08 2013  14 15  -21.0916 26086.0 -03460.7 -07.5571 26314.5
 18 08 2013  14 16  -21.0910 26085.5 -03460.7 -07.5571 26314.1
 18 08 2013  14 17  -21.0907 26085.7 -03461.0 -07.5577 26314.3
 18 08 2013  14 18  -21.0909 26086.2 -03461.3 -07.5582 26314.8
 18 08 2013  14 19  -21.0911 26086.7 -03461.5 -07.5586 26315.4
 18 08 2013  14 20  -21.0912 26087.4 -03461.8 -07.5589 26316.1
 18 08 2013  14 21  -21.0916 26087.7 -03461.8 -07.5589 26316.4
 18 08 2013  14 22  -21.0913 26087.4 -03461.5 -07.5583 26316.0
 18 08 2013  14 23  -21.0906 26087.0 -03461.3 -07.5579 26315.6
 18 08 2013  14 24  -21.0903 26087.0 -03461.2 -07.5578 26315.6
 18 08 2013  14 25  -21.0903 26087.0 -03461.2 -07.5579 26315.6
 18 08 2013  14 26  -21.0901 26087.2 -03461.3 -07.5580 26315.8
 18 08 2013  14 27  -21.0900 26086.8 -03461.1 -07.5577 26315.4
 18 08 2013  14 28  -21.0900 26086.7 -03461.0 -07.5574 26315.3
 18 08 2013  14 29  -21.0897 26086.9 -03461.0 -07.5573 26315.4
 18 08 2013  14 30  -21.0894 26086.4 -03460.8 -07.5570 26315.0
 18 08 2013  14 31  -21.0894 26086.2 -03460.6 -07.5568 26314.8
 18 08 2013  14 32  -21.0891 26086.2 -03460.6 -07.5567 26314.7
 18 08 2013  14 33  -21.0886 26085.9 -03460.4 -07.5565 26314.4
 18 08 2013  14 34  -21.0883 26085.6 -03460.4 -07.5564 26314.2
 18 08 2013  14 35  -21.0882 26085.8 -03460.4 -07.5564 26314.3
 18 08 2013  14 36  -21.0880 26086.1 -03460.5 -07.5566 26314.6
 18 08 2013  14 37  -21.0882 26086.1 -03460.5 -07.5565 26314.6
 18 08 2013  14 38  -21.0879 26085.8 -03460.3 -07.5561 26314.3
 18 08 2013  14 39  -21.0873 26085.9 -03460.3 -07.5561 26314.4
 18 08 2013  14 40  -21.0870 26085.7 -03460.1 -07.5558 26314.1
 18 08 2013  14 41  -21.0870 26085.5 -03460.0 -07.5557 26313.9
 18 08 2013  14 42  -21.0867 26085.7 -03460.1 -07.5558 26314.2
 18 08 2013  14 43  -21.0864 26086.0 -03460.2 -07.5559 26314.5
 18 08 2013  14 44  -21.0860 26086.4 -03460.3 -07.5559 26314.9
 18 08 2013  14 45  -21.0862 26086.7 -03460.3 -07.5560 26315.2
 18 08 2013  14 46  -21.0860 26086.8 -03460.2 -07.5556 26315.3
 18 08 2013  14 47  -21.0853 26086.8 -03460.0 -07.5552 26315.3
 18 08 2013  14 48  -21.0848 26086.0 -03459.5 -07.5545 26314.4
 18 08 2013  14 49  -21.0846 26085.8 -03459.3 -07.5541 26314.2
 18 08 2013  14 50  -21.0841 26085.9 -03459.3 -07.5541 26314.3
 18 08 2013  14 51  -21.0841 26085.3 -03459.1 -07.5537 26313.6
 18 08 2013  14 52  -21.0835 26084.2 -03458.5 -07.5528 26312.5
 18 08 2013  14 53  -21.0827 26084.1 -03458.6 -07.5529 26312.4
 18 08 2013  14 54  -21.0826 26084.3 -03458.7 -07.5532 26312.6
 18 08 2013  14 55  -21.0820 26084.7 -03458.9 -07.5534 26313.0
 18 08 2013  14 56  -21.0827 26084.6 -03458.8 -07.5533 26312.9
 18 08 2013  14 57  -21.0817 26084.6 -03458.5 -07.5527 26312.9
 18 08 2013  14 58  -21.0807 26084.6 -03458.6 -07.5528 26312.9
 18 08 2013  14 59  -21.0808 26084.2 -03458.3 -07.5524 26312.4
 18 08 2013  15 00  -21.0801 26084.3 -03458.2 -07.5520 26312.6
 18 08 2013  15 01  -21.0792 26083.6 -03457.7 -07.5513 26311.8
 18 08 2013  15 02  -21.0786 26083.2 -03457.6 -07.5512 26311.4
 18 08 2013  15 03  -21.0781 26082.6 -03457.4 -07.5508 26310.7
 18 08 2013  15 04  -21.0769 26081.8 -03457.1 -07.5504 26309.9
 18 08 2013  15 05  -21.0764 26081.6 -03457.2 -07.5507 26309.8
 18 08 2013  15 06  -21.0759 26081.5 -03457.3 -07.5508 26309.6
 18 08 2013  15 07  -21.0755 26081.5 -03457.3 -07.5510 26309.7
 18 08 2013  15 08  -21.0753 26081.5 -03457.4 -07.5511 26309.6
 18 08 2013  15 09  -21.0749 26081.0 -03457.2 -07.5508 26309.1
 18 08 2013  15 10  -21.0743 26080.5 -03457.0 -07.5505 26308.6
 18 08 2013  15 11  -21.0737 26080.2 -03456.9 -07.5505 26308.4
 18 08 2013  15 12  -21.0731 26080.0 -03456.9 -07.5504 26308.1
 18 08 2013  15 13  -21.0723 26079.5 -03456.7 -07.5501 26307.6
 18 08 2013  15 14  -21.0714 26079.1 -03456.6 -07.5500 26307.1
 18 08 2013  15 15  -21.0706 26078.5 -03456.4 -07.5499 26306.6
 18 08 2013  15 16  -21.0699 26078.4 -03456.5 -07.5501 26306.5
 18 08 2013  15 17  -21.0697 26078.6 -03456.7 -07.5505 26306.7
 18 08 2013  15 18  -21.0693 26078.6 -03456.7 -07.5505 26306.7
 18 08 2013  15 19  -21.0686 26078.1 -03456.5 -07.5503 26306.2
 18 08 2013  15 20  -21.0675 26077.8 -03456.5 -07.5502 26305.9
 18 08 2013  15 21  -21.0667 26077.7 -03456.6 -07.5505 26305.8
 18 08 2013  15 22  -21.0659 26077.8 -03456.7 -07.5508 26305.9
 18 08 2013  15 23  -21.0653 26077.9 -03456.9 -07.5511 26306.0
 18 08 2013  15 24  -21.0647 26077.9 -03456.9 -07.5512 26306.1
 18 08 2013  15 25  -21.0637 26077.6 -03456.9 -07.5512 26305.8
 18 08 2013  15 26  -21.0630 26077.5 -03456.9 -07.5513 26305.6
 18 08 2013  15 27  -21.0623 26077.3 -03456.9 -07.5514 26305.4
 18 08 2013  15 28  -21.0615 26076.9 -03456.9 -07.5514 26305.1
 18 08 2013  15 29  -21.0607 26076.3 -03456.8 -07.5514 26304.4
 18 08 2013  15 30  -21.0596 26075.5 -03456.7 -07.5515 26303.7
 18 08 2013  15 31  -21.0588 26075.3 -03456.9 -07.5519 26303.4
 18 08 2013  15 32  -21.0583 26075.4 -03457.2 -07.5526 26303.6
 18 08 2013  15 33  -21.0579 26075.2 -03457.4 -07.5530 26303.5
 18 08 2013  15 34  -21.0573 26075.1 -03457.6 -07.5533 26303.3
 18 08 2013  15 35  -21.0565 26074.5 -03457.5 -07.5535 26302.7
 18 08 2013  15 36  -21.0558 26073.9 -03457.5 -07.5536 26302.2
 18 08 2013  15 37  -21.0554 26073.4 -03457.6 -07.5539 26301.7
 18 08 2013  15 38  -21.0551 26073.5 -03457.9 -07.5545 26301.8
 18 08 2013  15 39  -21.0545 26073.2 -03458.0 -07.5548 26301.5
 18 08 2013  15 40  -21.0538 26073.0 -03458.2 -07.5553 26301.3
 18 08 2013  15 41  -21.0533 26073.3 -03458.5 -07.5560 26301.7
 18 08 2013  15 42  -21.0531 26073.6 -03458.9 -07.5566 26302.1
 18 08 2013  15 43  -21.0529 26073.5 -03459.0 -07.5568 26302.0
 18 08 2013  15 44  -21.0523 26072.8 -03458.7 -07.5566 26301.2
 18 08 2013  15 45  -21.0514 26071.9 -03458.6 -07.5565 26300.3
 18 08 2013  15 46  -21.0505 26071.4 -03458.7 -07.5568 26299.8
 18 08 2013  15 47  -21.0502 26071.7 -03459.1 -07.5577 26300.2
 18 08 2013  15 48  -21.0500 26071.9 -03459.5 -07.5584 26300.5
 18 08 2013  15 49  -21.0499 26071.7 -03459.6 -07.5587 26300.2
 18 08 2013  15 50  -21.0496 26071.4 -03459.7 -07.5590 26300.0
 18 08 2013  15 51  -21.0497 26071.1 -03459.7 -07.5592 26299.7
 18 08 2013  15 52  -21.0498 26070.9 -03459.8 -07.5593 26299.4
 18 08 2013  15 53  -21.0498 26070.5 -03459.7 -07.5593 26299.0
 18 08 2013  15 54  -21.0496 26070.6 -03459.9 -07.5596 26299.1
 18 08 2013  15 55  -21.0501 26070.2 -03459.8 -07.5596 26298.8
 18 08 2013  15 56  -21.0500 26069.2 -03459.5 -07.5592 26297.8
 18 08 2013  15 57  -21.0500 26068.9 -03459.6 -07.5595 26297.5
 18 08 2013  15 58  -21.0495 26068.3 -03459.5 -07.5595 26296.8
 18 08 2013  15 59  -21.0490 26067.8 -03459.5 -07.5596 26296.4
 18 08 2013  16 00  -21.0490 26068.2 -03459.9 -07.5603 26296.8
 18 08 2013  16 01  -21.0493 26068.6 -03460.1 -07.5607 26297.3
 18 08 2013  16 02  -21.0494 26068.7 -03460.2 -07.5609 26297.3
 18 08 2013  16 03  -21.0490 26068.5 -03460.1 -07.5608 26297.2
 18 08 2013  16 04  -21.0487 26068.4 -03460.1 -07.5607 26297.0
 18 08 2013  16 05  -21.0484 26068.3 -03460.0 -07.5606 26296.9
 18 08 2013  16 06  -21.0481 26068.2 -03460.0 -07.5605 26296.8
 18 08 2013  16 07  -21.0479 26067.9 -03459.9 -07.5605 26296.5
 18 08 2013  16 08  -21.0479 26068.1 -03460.0 -07.5607 26296.8
 18 08 2013  16 09  -21.0480 26068.2 -03460.0 -07.5606 26296.8
 18 08 2013  16 10  -21.0478 26068.1 -03459.9 -07.5604 26296.8
 18 08 2013  16 11  -21.0478 26068.4 -03459.9 -07.5603 26297.0
 18 08 2013  16 12  -21.0475 26068.2 -03459.8 -07.5601 26296.8
 18 08 2013  16 13  -21.0475 26068.0 -03459.7 -07.5599 26296.6
 18 08 2013  16 14  -21.0477 26067.8 -03459.6 -07.5598 26296.4
 18 08 2013  16 15  -21.0479 26067.9 -03459.6 -07.5598 26296.5
 18 08 2013  16 16  -21.0479 26067.7 -03459.4 -07.5594 26296.2
 18 08 2013  16 17  -21.0477 26067.5 -03459.2 -07.5591 26296.0
 18 08 2013  16 18  -21.0476 26067.6 -03459.1 -07.5589 26296.1
 18 08 2013  16 19  -21.0474 26067.4 -03459.0 -07.5586 26295.9
 18 08 2013  16 20  -21.0475 26067.5 -03459.0 -07.5585 26296.0
 18 08 2013  16 21  -21.0471 26067.3 -03458.8 -07.5582 26295.8
 18 08 2013  16 22  -21.0466 26067.0 -03458.6 -07.5579 26295.5
 18 08 2013  16 23  -21.0462 26066.5 -03458.3 -07.5575 26294.9
 18 08 2013  16 24  -21.0458 26065.9 -03458.0 -07.5570 26294.3
 18 08 2013  16 25  -21.0453 26065.2 -03457.7 -07.5565 26293.6
 18 08 2013  16 26  -21.0447 26064.7 -03457.5 -07.5562 26293.0
 18 08 2013  16 27  -21.0444 26064.6 -03457.5 -07.5563 26292.9
 18 08 2013  16 28  -21.0444 26064.3 -03457.4 -07.5562 26292.6
 18 08 2013  16 29  -21.0440 26063.9 -03457.2 -07.5559 26292.2
 18 08 2013  16 30  -21.0436 26063.6 -03457.2 -07.5558 26291.9
 18 08 2013  16 31  -21.0433 26063.4 -03457.1 -07.5558 26291.7
 18 08 2013  16 32  -21.0429 26063.1 -03457.1 -07.5558 26291.4
 18 08 2013  16 33  -21.0425 26062.5 -03457.0 -07.5557 26290.8
 18 08 2013  16 34  -21.0418 26061.9 -03456.8 -07.5556 26290.1
 18 08 2013  16 35  -21.0412 26061.6 -03456.9 -07.5557 26289.8
 18 08 2013  16 36  -21.0411 26061.3 -03456.9 -07.5559 26289.5
 18 08 2013  16 37  -21.0407 26060.8 -03456.9 -07.5560 26289.0
 18 08 2013  16 38  -21.0404 26060.4 -03456.9 -07.5562 26288.6
 18 08 2013  16 39  -21.0400 26059.9 -03456.9 -07.5563 26288.2
 18 08 2013  16 40  -21.0398 26059.7 -03457.1 -07.5567 26288.0
 18 08 2013  16 41  -21.0396 26059.1 -03457.1 -07.5569 26287.4
 18 08 2013  16 42  -21.0397 26058.8 -03457.2 -07.5572 26287.1
 18 08 2013  16 43  -21.0394 26058.1 -03457.1 -07.5572 26286.4
 18 08 2013  16 44  -21.0387 26057.4 -03457.0 -07.5573 26285.7
 18 08 2013  16 45  -21.0381 26056.7 -03457.0 -07.5574 26285.0
 18 08 2013  16 46  -21.0380 26056.3 -03457.2 -07.5578 26284.7
 18 08 2013  16 47  -21.0379 26055.8 -03457.2 -07.5581 26284.1
 18 08 2013  16 48  -21.0371 26055.1 -03457.1 -07.5581 26283.4
 18 08 2013  16 49  -21.0366 26054.4 -03457.1 -07.5584 26282.7
 18 08 2013  16 50  -21.0362 26053.8 -03457.2 -07.5587 26282.2
 18 08 2013  16 51  -21.0359 26053.5 -03457.4 -07.5592 26281.9
 18 08 2013  16 52  -21.0359 26053.5 -03457.7 -07.5599 26281.9
 18 08 2013  16 53  -21.0361 26053.5 -03458.0 -07.5605 26281.9
 18 08 2013  16 54  -21.0356 26052.5 -03457.8 -07.5604 26281.0
 18 08 2013  16 55  -21.0352 26052.0 -03457.9 -07.5607 26280.4
 18 08 2013  16 56  -21.0349 26051.6 -03458.1 -07.5612 26280.1
 18 08 2013  16 57  -21.0347 26051.1 -03458.2 -07.5615 26279.6
 18 08 2013  16 58  -21.0339 26050.5 -03458.2 -07.5617 26279.1
 18 08 2013  16 59  -21.0339 26050.6 -03458.6 -07.5625 26279.2
 18 08 2013  17 00  -21.0341 26050.6 -03458.9 -07.5632 26279.2
 18 08 2013  17 01  -21.0344 26050.3 -03459.0 -07.5637 26279.0
 18 08 2013  17 02  -21.0343 26049.7 -03459.0 -07.5637 26278.3
 18 08 2013  17 03  -21.0337 26048.9 -03458.9 -07.5637 26277.5
 18 08 2013  17 04  -21.0332 26048.1 -03458.9 -07.5640 26276.8
 18 08 2013  17 05  -21.0330 26047.4 -03459.0 -07.5644 26276.1
 18 08 2013  17 06  -21.0328 26046.7 -03459.1 -07.5648 26275.4
 18 08 2013  17 07  -21.0327 26045.9 -03459.2 -07.5653 26274.6
 18 08 2013  17 08  -21.0330 26045.5 -03459.5 -07.5659 26274.3
 18 08 2013  17 09  -21.0335 26045.5 -03459.8 -07.5666 26274.2
 18 08 2013  17 10  -21.0339 26045.2 -03459.9 -07.5671 26274.0
 18 08 2013  17 11  -21.0343 26045.1 -03460.1 -07.5675 26273.9
 18 08 2013  17 12  -21.0343 26044.5 -03460.1 -07.5676 26273.3
 18 08 2013  17 13  -21.0341 26043.7 -03460.1 -07.5678 26272.6
 18 08 2013  17 14  -21.0342 26043.2 -03460.2 -07.5682 26272.1
 18 08 2013  17 15  -21.0337 26042.6 -03460.3 -07.5686 26271.5
 18 08 2013  17 16  -21.0336 26042.0 -03460.5 -07.5691 26270.9
 18 08 2013  17 17  -21.0336 26041.6 -03460.6 -07.5696 26270.5
 18 08 2013  17 18  -21.0339 26041.5 -03461.0 -07.5704 26270.5
 18 08 2013  17 19  -21.0340 26041.1 -03461.1 -07.5707 26270.1
 18 08 2013  17 20  -21.0338 26040.9 -03461.2 -07.5710 26269.9
 18 08 2013  17 21  -21.0333 26040.7 -03461.4 -07.5714 26269.8
 18 08 2013  17 22  -21.0331 26040.3 -03461.4 -07.5716 26269.3
 18 08 2013  17 23  -21.0337 26039.7 -03461.5 -07.5720 26268.7
 18 08 2013  17 24  -21.0342 26039.3 -03461.7 -07.5725 26268.4
 18 08 2013  17 25  -21.0339 26039.3 -03462.0 -07.5732 26268.4
 18 08 2013  17 26  -21.0333 26038.5 -03462.0 -07.5735 26267.7
 18 08 2013  17 27  -21.0329 26037.2 -03461.7 -07.5733 26266.3
 18 08 2013  17 28  -21.0324 26036.0 -03461.6 -07.5732 26265.1
 18 08 2013  17 29  -21.0320 26035.3 -03461.7 -07.5737 26264.4
 18 08 2013  17 30  -21.0324 26035.1 -03462.1 -07.5747 26264.3
 18 08 2013  17 31  -21.0329 26035.1 -03462.6 -07.5757 26264.3
 18 08 2013  17 32  -21.0334 26035.0 -03462.9 -07.5764 26264.3
 18 08 2013  17 33  -21.0338 26034.7 -03463.1 -07.5769 26264.0
 18 08 2013  17 34  -21.0334 26034.2 -03463.2 -07.5772 26263.6
 18 08 2013  17 35  -21.0328 26033.5 -03463.2 -07.5775 26262.9
 18 08 2013  17 36  -21.0324 26032.7 -03463.2 -07.5777 26262.0
 18 08 2013  17 37  -21.0326 26032.3 -03463.5 -07.5785 26261.7
 18 08 2013  17 38  -21.0332 26032.6 -03464.0 -07.5796 26262.1
 18 08 2013  17 39  -21.0340 26032.6 -03464.3 -07.5801 26262.1
 18 08 2013  17 40  -21.0341 26032.1 -03464.2 -07.5801 26261.6
 18 08 2013  17 41  -21.0343 26031.6 -03464.2 -07.5802 26261.1
 18 08 2013  17 42  -21.0342 26031.1 -03464.3 -07.5804 26260.6
 18 08 2013  17 43  -21.0340 26030.8 -03464.4 -07.5808 26260.4
 18 08 2013  17 44  -21.0338 26030.6 -03464.6 -07.5813 26260.2
 18 08 2013  17 45  -21.0337 26030.3 -03464.8 -07.5819 26259.9
 18 08 2013  17 46  -21.0342 26030.4 -03465.2 -07.5826 26260.0
 18 08 2013  17 47  -21.0343 26029.9 -03465.2 -07.5828 26259.5
 18 08 2013  17 48  -21.0347 26029.8 -03465.5 -07.5834 26259.5
 18 08 2013  17 49  -21.0350 26029.9 -03465.7 -07.5840 26259.6
 18 08 2013  17 50  -21.0356 26029.8 -03466.0 -07.5847 26259.6
 18 08 2013  17 51  -21.0358 26028.3 -03465.5 -07.5840 26258.0
 18 08 2013  17 52  -21.0361 26027.6 -03465.4 -07.5840 26257.3
 18 08 2013  17 53  -21.0371 26027.5 -03465.7 -07.5847 26257.2
 18 08 2013  17 54  -21.0379 26027.5 -03466.0 -07.5853 26257.3
 18 08 2013  17 55  -21.0386 26027.3 -03466.1 -07.5856 26257.1
 18 08 2013  17 56  -21.0391 26027.2 -03466.2 -07.5859 26257.0
 18 08 2013  17 57  -21.0395 26026.9 -03466.3 -07.5862 26256.7
 18 08 2013  17 58  -21.0402 26027.0 -03466.6 -07.5867 26256.8
 18 08 2013  17 59  -21.0412 26027.3 -03466.9 -07.5872 26257.2
 18 08 2013  18 00  -21.0421 26027.4 -03467.0 -07.5874 26257.3
 18 08 2013  18 01  -21.0425 26026.9 -03466.8 -07.5871 26256.8
 18 08 2013  18 02  -21.0426 26026.3 -03466.6 -07.5869 26256.2
 18 08 2013  18 03  -21.0431 26026.0 -03466.6 -07.5871 26255.8
 18 08 2013  18 04  -21.0438 26025.7 -03466.7 -07.5872 26255.6
 18 08 2013  18 05  -21.0441 26025.4 -03466.6 -07.5871 26255.2
 18 08 2013  18 06  -21.0444 26025.1 -03466.5 -07.5871 26255.0
 18 08 2013  18 07  -21.0446 26024.7 -03466.4 -07.5870 26254.5
 18 08 2013  18 08  -21.0444 26024.5 -03466.4 -07.5871 26254.4
 18 08 2013  18 09  -21.0446 26024.7 -03466.7 -07.5876 26254.6
 18 08 2013  18 10  -21.0451 26024.8 -03466.9 -07.5879 26254.7
 18 08 2013  18 11  -21.0459 26024.7 -03467.0 -07.5883 26254.7
 18 08 2013  18 12  -21.0460 26024.8 -03467.3 -07.5888 26254.8
 18 08 2013  18 13  -21.0467 26025.9 -03468.0 -07.5901 26256.0
 18 08 2013  18 14  -21.0484 26026.7 -03468.5 -07.5909 26256.8
 18 08 2013  18 15  -21.0490 26026.2 -03468.1 -07.5903 26256.3
 18 08 2013  18 16  -21.0491 26025.3 -03467.5 -07.5890 26255.3
 18 08 2013  18 17  -21.0482 26024.3 -03466.9 -07.5880 26254.2
 18 08 2013  18 18  -21.0477 26023.5 -03466.7 -07.5878 26253.4
 18 08 2013  18 19  -21.0477 26023.0 -03466.7 -07.5881 26252.9
 18 08 2013  18 20  -21.0479 26023.0 -03467.1 -07.5889 26253.0
 18 08 2013  18 21  -21.0486 26023.7 -03467.7 -07.5901 26253.7
 18 08 2013  18 22  -21.0493 26024.3 -03468.2 -07.5909 26254.4
 18 08 2013  18 23  -21.0497 26024.3 -03468.2 -07.5910 26254.4
 18 08 2013  18 24  -21.0491 26023.6 -03467.8 -07.5903 26253.6
 18 08 2013  18 25  -21.0484 26022.5 -03467.3 -07.5894 26252.5
 18 08 2013  18 26  -21.0475 26021.7 -03466.9 -07.5889 26251.6
 18 08 2013  18 27  -21.0472 26021.5 -03467.1 -07.5893 26251.5
 18 08 2013  18 28  -21.0481 26021.6 -03467.4 -07.5899 26251.6
 18 08 2013  18 29  -21.0479 26021.7 -03467.5 -07.5902 26251.7
 18 08 2013  18 30  -21.0485 26021.7 -03467.7 -07.5906 26251.8
 18 08 2013  18 31  -21.0491 26021.8 -03467.8 -07.5909 26251.8
 18 08 2013  18 32  -21.0497 26021.9 -03468.0 -07.5912 26251.9
 18 08 2013  18 33  -21.0501 26021.7 -03467.9 -07.5910 26251.8
 18 08 2013  18 34  -21.0505 26021.4 -03467.8 -07.5909 26251.5
 18 08 2013  18 35  -21.0505 26021.1 -03467.7 -07.5907 26251.1
 18 08 2013  18 36  -21.0505 26020.4 -03467.5 -07.5905 26250.5
 18 08 2013  18 37  -21.0504 26019.7 -03467.3 -07.5903 26249.7
 18 08 2013  18 38  -21.0502 26019.0 -03467.2 -07.5902 26249.0
 18 08 2013  18 39  -21.0502 26018.4 -03467.1 -07.5903 26248.4
 18 08 2013  18 40  -21.0505 26017.9 -03467.1 -07.5904 26247.9
 18 08 2013  18 41  -21.0506 26017.6 -03467.1 -07.5904 26247.6
 18 08 2013  18 42  -21.0507 26017.4 -03467.1 -07.5905 26247.4
 18 08 2013  18 43  -21.0508 26017.1 -03467.1 -07.5906 26247.1
 18 08 2013  18 44  -21.0508 26016.8 -03467.1 -07.5907 26246.8
 18 08 2013  18 45  -21.0509 26016.5 -03467.0 -07.5907 26246.5
 18 08 2013  18 46  -21.0508 26016.0 -03466.9 -07.5906 26246.0
 18 08 2013  18 47  -21.0506 26015.4 -03466.8 -07.5906 26245.4
 18 08 2013  18 48  -21.0503 26014.7 -03466.7 -07.5905 26244.7
 18 08 2013  18 49  -21.0500 26014.0 -03466.6 -07.5904 26243.9
 18 08 2013  18 50  -21.0498 26013.5 -03466.6 -07.5906 26243.5
 18 08 2013  18 51  -21.0495 26013.0 -03466.6 -07.5908 26243.0
 18 08 2013  18 52  -21.0493 26012.6 -03466.6 -07.5909 26242.6
 18 08 2013  18 53  -21.0495 26012.4 -03466.7 -07.5912 26242.4
 18 08 2013  18 54  -21.0496 26012.3 -03466.9 -07.5915 26242.4
 18 08 2013  18 55  -21.0498 26012.4 -03467.0 -07.5918 26242.4
 18 08 2013  18 56  -21.0496 26012.2 -03467.0 -07.5918 26242.2
 18 08 2013  18 57  -21.0499 26012.3 -03467.1 -07.5921 26242.3
 18 08 2013  18 58  -21.0508 26012.4 -03467.4 -07.5925 26242.5
 18 08 2013  18 59  -21.0511 26012.2 -03467.3 -07.5925 26242.3
 18 08 2013  19 00  -21.0516 26012.4 -03467.4 -07.5927 26242.5
 18 08 2013  19 01  -21.0519 26012.4 -03467.5 -07.5928 26242.5
 18 08 2013  19 02  -21.0517 26011.9 -03467.3 -07.5925 26242.0
 18 08 2013  19 03  -21.0511 26011.4 -03467.1 -07.5922 26241.5
 18 08 2013  19 04  -21.0503 26010.9 -03466.9 -07.5921 26240.9
 18 08 2013  19 05  -21.0500 26010.3 -03466.9 -07.5921 26240.4
 18 08 2013  19 06  -21.0497 26010.0 -03466.9 -07.5922 26240.1
 18 08 2013  19 07  -21.0491 26010.3 -03467.1 -07.5927 26240.4
 18 08 2013  19 08  -21.0492 26011.7 -03467.9 -07.5940 26241.9
 18 08 2013  19 09  -21.0488 26011.4 -03467.9 -07.5941 26241.5
 18 08 2013  19 10  -21.0488 26011.5 -03468.0 -07.5942 26241.7
 18 08 2013  19 11  -21.0484 26011.7 -03468.1 -07.5944 26241.8
 18 08 2013  19 12  -21.0478 26011.8 -03468.2 -07.5946 26242.0
 18 08 2013  19 13  -21.0469 26011.5 -03468.2 -07.5947 26241.7
 18 08 2013  19 14  -21.0465 26011.4 -03468.3 -07.5948 26241.6
 18 08 2013  19 15  -21.0462 26011.6 -03468.5 -07.5952 26241.8
 18 08 2013  19 16  -21.0454 26011.2 -03468.5 -07.5953 26241.4
 18 08 2013  19 17  -21.0450 26010.6 -03468.4 -07.5953 26240.8
 18 08 2013  19 18  -21.0442 26010.1 -03468.4 -07.5954 26240.4
 18 08 2013  19 19  -21.0436 26010.0 -03468.5 -07.5958 26240.2
 18 08 2013  19 20  -21.0430 26010.0 -03468.8 -07.5964 26240.2
 18 08 2013  19 21  -21.0424 26009.9 -03469.0 -07.5968 26240.2
 18 08 2013  19 22  -21.0419 26009.9 -03469.2 -07.5972 26240.2
 18 08 2013  19 23  -21.0415 26010.0 -03469.4 -07.5977 26240.4
 18 08 2013  19 24  -21.0412 26010.2 -03469.7 -07.5982 26240.6
 18 08 2013  19 25  -21.0408 26010.3 -03469.8 -07.5985 26240.7
 18 08 2013  19 26  -21.0404 26010.1 -03469.9 -07.5987 26240.5
 18 08 2013  19 27  -21.0398 26009.8 -03469.9 -07.5987 26240.2
 18 08 2013  19 28  -21.0391 26009.6 -03469.9 -07.5988 26240.0
 18 08 2013  19 29  -21.0385 26009.4 -03469.9 -07.5989 26239.9
 18 08 2013  19 30  -21.0377 26009.3 -03470.0 -07.5991 26239.7
 18 08 2013  19 31  -21.0367 26009.1 -03470.0 -07.5992 26239.5
 18 08 2013  19 32  -21.0360 26009.0 -03470.1 -07.5994 26239.5
 18 08 2013  19 33  -21.0356 26009.1 -03470.3 -07.5998 26239.6
 18 08 2013  19 34  -21.0353 26009.2 -03470.4 -07.6001 26239.7
 18 08 2013  19 35  -21.0349 26009.3 -03470.6 -07.6004 26239.9
 18 08 2013  19 36  -21.0348 26009.5 -03470.7 -07.6007 26240.0
 18 08 2013  19 37  -21.0347 26009.7 -03470.9 -07.6010 26240.2
 18 08 2013  19 38  -21.0345 26009.8 -03471.0 -07.6013 26240.3
 18 08 2013  19 39  -21.0344 26009.8 -03471.1 -07.6014 26240.4
 18 08 2013  19 40  -21.0342 26009.7 -03471.1 -07.6015 26240.3
 18 08 2013  19 41  -21.0337 26009.7 -03471.2 -07.6016 26240.3
 18 08 2013  19 42  -21.0331 26009.5 -03471.2 -07.6017 26240.1
 18 08 2013  19 43  -21.0325 26009.6 -03471.3 -07.6019 26240.2
 18 08 2013  19 44  -21.0320 26009.5 -03471.4 -07.6022 26240.2
 18 08 2013  19 45  -21.0313 26009.4 -03471.5 -07.6023 26240.0
 18 08 2013  19 46  -21.0309 26009.9 -03471.7 -07.6027 26240.5
 18 08 2013  19 47  -21.0306 26010.0 -03471.9 -07.6031 26240.7
 18 08 2013  19 48  -21.0304 26010.1 -03472.0 -07.6033 26240.8
 18 08 2013  19 49  -21.0297 26010.2 -03472.1 -07.6034 26240.9
 18 08 2013  19 50  -21.0291 26010.0 -03472.1 -07.6034 26240.7
 18 08 2013  19 51  -21.0289 26010.0 -03472.1 -07.6035 26240.7
 18 08 2013  19 52  -21.0283 26010.1 -03472.1 -07.6036 26240.8
 18 08 2013  19 53  -21.0281 26010.4 -03472.4 -07.6039 26241.2
 18 08 2013  19 54  -21.0277 26010.2 -03472.3 -07.6038 26240.9
 18 08 2013  19 55  -21.0267 26009.8 -03472.1 -07.6036 26240.5
 18 08 2013  19 56  -21.0261 26009.5 -03472.2 -07.6039 26240.3
 18 08 2013  19 57  -21.0259 26009.1 -03472.2 -07.6039 26239.9
 18 08 2013  19 58  -21.0257 26009.2 -03472.2 -07.6040 26239.9
 18 08 2013  19 59  -21.0251 26009.2 -03472.3 -07.6042 26239.9
 18 08 2013  20 00  -21.0245 26009.2 -03472.5 -07.6046 26240.0
 18 08 2013  20 01  -21.0240 26009.0 -03472.6 -07.6049 26239.8
 18 08 2013  20 02  -21.0234 26009.0 -03472.8 -07.6052 26239.8
 18 08 2013  20 03  -21.0230 26009.3 -03473.1 -07.6058 26240.2
 18 08 2013  20 04  -21.0225 26009.5 -03473.3 -07.6063 26240.4
 18 08 2013  20 05  -21.0219 26009.8 -03473.5 -07.6067 26240.7
 18 08 2013  20 06  -21.0213 26009.9 -03473.7 -07.6070 26240.9
 18 08 2013  20 07  -21.0206 26009.9 -03473.8 -07.6073 26240.9
 18 08 2013  20 08  -21.0200 26010.0 -03473.9 -07.6075 26240.9
 18 08 2013  20 09  -21.0194 26009.9 -03474.1 -07.6078 26240.9
 18 08 2013  20 10  -21.0187 26010.0 -03474.1 -07.6079 26240.9
 18 08 2013  20 11  -21.0182 26010.0 -03474.3 -07.6083 26241.0
 18 08 2013  20 12  -21.0180 26010.3 -03474.6 -07.6087 26241.3
 18 08 2013  20 13  -21.0178 26010.4 -03474.7 -07.6091 26241.5
 18 08 2013  20 14  -21.0178 26010.6 -03474.9 -07.6094 26241.7
 18 08 2013  20 15  -21.0179 26010.8 -03475.1 -07.6097 26241.9
 18 08 2013  20 16  -21.0180 26010.8 -03475.1 -07.6098 26241.9
 18 08 2013  20 17  -21.0182 26010.6 -03475.1 -07.6097 26241.7
 18 08 2013  20 18  -21.0185 26010.2 -03474.9 -07.6095 26241.3
 18 08 2013  20 19  -21.0186 26009.9 -03474.7 -07.6093 26240.9
 18 08 2013  20 20  -21.0187 26009.8 -03474.7 -07.6092 26240.9
 18 08 2013  20 21  -21.0192 26010.3 -03474.9 -07.6095 26241.4
 18 08 2013  20 22  -21.0192 26010.7 -03475.1 -07.6097 26241.8
 18 08 2013  20 23  -21.0191 26011.1 -03475.2 -07.6100 26242.2
 18 08 2013  20 24  -21.0191 26011.4 -03475.4 -07.6101 26242.5
 18 08 2013  20 25  -21.0190 26011.5 -03475.4 -07.6103 26242.6
 18 08 2013  20 26  -21.0191 26011.6 -03475.6 -07.6105 26242.7
 18 08 2013  20 27  -21.0193 26011.5 -03475.6 -07.6106 26242.6
 18 08 2013  20 28  -21.0196 26011.4 -03475.6 -07.6106 26242.6
 18 08 2013  20 29  -21.0200 26011.6 -03475.7 -07.6107 26242.8
 18 08 2013  20 30  -21.0200 26011.8 -03475.8 -07.6109 26242.9
 18 08 2013  20 31  -21.0198 26011.6 -03475.6 -07.6107 26242.7
 18 08 2013  20 32  -21.0194 26011.1 -03475.5 -07.6104 26242.3
 18 08 2013  20 33  -21.0189 26010.8 -03475.3 -07.6102 26241.9
 18 08 2013  20 34  -21.0188 26011.0 -03475.4 -07.6103 26242.1
 18 08 2013  20 35  -21.0189 26011.1 -03475.5 -07.6106 26242.3
 18 08 2013  20 36  -21.0191 26011.4 -03475.7 -07.6109 26242.6
 18 08 2013  20 37  -21.0193 26012.0 -03476.1 -07.6115 26243.3
 18 08 2013  20 38  -21.0195 26012.5 -03476.4 -07.6120 26243.8
 18 08 2013  20 39  -21.0196 26012.8 -03476.5 -07.6122 26244.1
 18 08 2013  20 40  -21.0197 26012.6 -03476.4 -07.6120 26243.9
 18 08 2013  20 41  -21.0198 26012.4 -03476.2 -07.6118 26243.7
 18 08 2013  20 42  -21.0199 26012.3 -03476.1 -07.6115 26243.5
 18 08 2013  20 43  -21.0195 26012.6 -03476.2 -07.6117 26243.9
 18 08 2013  20 44  -21.0193 26012.7 -03476.3 -07.6119 26244.0
 18 08 2013  20 45  -21.0195 26012.5 -03476.2 -07.6117 26243.8
 18 08 2013  20 46  -21.0192 26013.0 -03476.5 -07.6121 26244.3
 18 08 2013  20 47  -21.0189 26013.7 -03476.8 -07.6127 26245.0
 18 08 2013  20 48  -21.0186 26014.2 -03477.0 -07.6130 26245.5
 18 08 2013  20 49  -21.0191 26014.6 -03477.2 -07.6132 26246.0
 18 08 2013  20 50  -21.0191 26015.2 -03477.3 -07.6133 26246.6
 18 08 2013  20 51  -21.0188 26015.7 -03477.5 -07.6135 26247.1
 18 08 2013  20 52  -21.0181 26015.9 -03477.4 -07.6133 26247.3
 18 08 2013  20 53  -21.0174 26016.1 -03477.4 -07.6132 26247.5
 18 08 2013  20 54  -21.0172 26016.3 -03477.4 -07.6132 26247.6
 18 08 2013  20 55  -21.0173 26016.5 -03477.5 -07.6133 26247.9
 18 08 2013  20 56  -21.0174 26016.6 -03477.5 -07.6133 26248.0
 18 08 2013  20 57  -21.0175 26016.9 -03477.6 -07.6134 26248.3
 18 08 2013  20 58  -21.0175 26017.0 -03477.6 -07.6135 26248.4
 18 08 2013  20 59  -21.0173 26016.9 -03477.4 -07.6130 26248.2
 18 08 2013  21 00  -21.0170 26016.8 -03477.3 -07.6127 26248.1
 18 08 2013  21 01  -21.0164 26016.3 -03477.0 -07.6122 26247.6
 18 08 2013  21 02  -21.0158 26016.1 -03476.8 -07.6119 26247.4
 18 08 2013  21 03  -21.0152 26016.1 -03476.8 -07.6118 26247.4
 18 08 2013  21 04  -21.0150 26016.4 -03476.9 -07.6121 26247.7
 18 08 2013  21 05  -21.0150 26016.6 -03477.1 -07.6123 26247.9
 18 08 2013  21 06  -21.0152 26016.6 -03477.1 -07.6124 26247.9
 18 08 2013  21 07  -21.0154 26016.8 -03477.2 -07.6125 26248.1
 18 08 2013  21 08  -21.0156 26017.1 -03477.3 -07.6127 26248.5
 18 08 2013  21 09  -21.0159 26017.3 -03477.4 -07.6128 26248.7
 18 08 2013  21 10  -21.0161 26017.5 -03477.4 -07.6128 26248.8
 18 08 2013  21 11  -21.0163 26017.6 -03477.4 -07.6127 26248.9
 18 08 2013  21 12  -21.0165 26017.8 -03477.4 -07.6128 26249.1
 18 08 2013  21 13  -21.0167 26017.9 -03477.4 -07.6127 26249.3
 18 08 2013  21 14  -21.0169 26018.3 -03477.5 -07.6127 26249.6
 18 08 2013  21 15  -21.0171 26018.5 -03477.4 -07.6126 26249.8
 18 08 2013  21 16  -21.0172 26018.8 -03477.5 -07.6126 26250.2
 18 08 2013  21 17  -21.0174 26019.2 -03477.6 -07.6127 26250.6
 18 08 2013  21 18  -21.0176 26019.7 -03477.7 -07.6128 26251.1
 18 08 2013  21 19  -21.0179 26020.1 -03477.8 -07.6128 26251.5
 18 08 2013  21 20  -21.0181 26020.5 -03477.8 -07.6129 26251.9
 18 08 2013  21 21  -21.0183 26021.0 -03477.9 -07.6129 26252.4
 18 08 2013  21 22  -21.0185 26021.4 -03478.0 -07.6129 26252.8
 18 08 2013  21 23  -21.0186 26021.9 -03478.0 -07.6129 26253.3
 18 08 2013  21 24  -21.0187 26022.4 -03478.1 -07.6129 26253.8
 18 08 2013  21 25  -21.0188 26022.8 -03478.2 -07.6129 26254.2
 18 08 2013  21 26  -21.0189 26023.1 -03478.1 -07.6127 26254.5
 18 08 2013  21 27  -21.0190 26023.2 -03478.0 -07.6124 26254.6
 18 08 2013  21 28  -21.0190 26023.1 -03477.8 -07.6120 26254.4
 18 08 2013  21 29  -21.0191 26022.8 -03477.6 -07.6116 26254.2
 18 08 2013  21 30  -21.0191 26022.6 -03477.3 -07.6112 26253.9
 18 08 2013  21 31  -21.0190 26022.4 -03477.2 -07.6109 26253.7
 18 08 2013  21 32  -21.0187 26022.4 -03477.0 -07.6106 26253.6
 18 08 2013  21 33  -21.0186 26022.4 -03477.0 -07.6105 26253.6
 18 08 2013  21 34  -21.0183 26022.5 -03477.0 -07.6105 26253.8
 18 08 2013  21 35  -21.0182 26022.7 -03477.0 -07.6105 26253.9
 18 08 2013  21 36  -21.0183 26022.7 -03477.0 -07.6104 26254.0
 18 08 2013  21 37  -21.0184 26023.0 -03477.1 -07.6105 26254.3
 18 08 2013  21 38  -21.0187 26023.2 -03477.1 -07.6105 26254.4
 18 08 2013  21 39  -21.0190 26023.3 -03477.1 -07.6105 26254.6
 18 08 2013  21 40  -21.0192 26023.4 -03477.1 -07.6105 26254.7
 18 08 2013  21 41  -21.0194 26023.5 -03477.0 -07.6103 26254.7
 18 08 2013  21 42  -21.0193 26023.5 -03476.9 -07.6101 26254.8
 18 08 2013  21 43  -21.0193 26023.6 -03476.9 -07.6100 26254.9
 18 08 2013  21 44  -21.0193 26023.8 -03476.9 -07.6099 26255.0
 18 08 2013  21 45  -21.0193 26023.8 -03476.8 -07.6097 26255.1
 18 08 2013  21 46  -21.0192 26023.9 -03476.8 -07.6096 26255.1
 18 08 2013  21 47  -21.0192 26023.8 -03476.6 -07.6093 26255.0
 18 08 2013  21 48  -21.0192 26023.9 -03476.6 -07.6093 26255.1
 18 08 2013  21 49  -21.0192 26023.9 -03476.6 -07.6091 26255.1
 18 08 2013  21 50  -21.0193 26023.9 -03476.5 -07.6090 26255.1
 18 08 2013  21 51  -21.0195 26024.0 -03476.5 -07.6090 26255.2
 18 08 2013  21 52  -21.0195 26024.0 -03476.5 -07.6089 26255.2
 18 08 2013  21 53  -21.0195 26024.0 -03476.4 -07.6088 26255.2
 18 08 2013  21 54  -21.0196 26024.1 -03476.4 -07.6087 26255.3
 18 08 2013  21 55  -21.0195 26024.3 -03476.4 -07.6087 26255.4
 18 08 2013  21 56  -21.0196 26024.4 -03476.4 -07.6087 26255.5
 18 08 2013  21 57  -21.0197 26024.4 -03476.3 -07.6085 26255.5
 18 08 2013  21 58  -21.0198 26024.3 -03476.3 -07.6084 26255.4
 18 08 2013  21 59  -21.0201 26024.2 -03476.1 -07.6082 26255.3
 18 08 2013  22 00  -21.0203 26023.9 -03476.0 -07.6080 26255.0
 18 08 2013  22 01  -21.0203 26023.7 -03475.9 -07.6077 26254.8
 18 08 2013  22 02  -21.0204 26023.8 -03475.9 -07.6077 26254.9
 18 08 2013  22 03  -21.0205 26023.9 -03475.9 -07.6077 26255.0
 18 08 2013  22 04  -21.0206 26024.3 -03476.0 -07.6079 26255.4
 18 08 2013  22 05  -21.0206 26024.7 -03476.3 -07.6082 26255.9
 18 08 2013  22 06  -21.0206 26025.1 -03476.4 -07.6084 26256.2
 18 08 2013  22 07  -21.0207 26025.3 -03476.4 -07.6085 26256.5
 18 08 2013  22 08  -21.0209 26025.4 -03476.5 -07.6085 26256.6
 18 08 2013  22 09  -21.0211 26025.4 -03476.4 -07.6084 26256.6
 18 08 2013  22 10  -21.0214 26025.5 -03476.4 -07.6083 26256.6
 18 08 2013  22 11  -21.0214 26025.6 -03476.3 -07.6082 26256.7
 18 08 2013  22 12  -21.0214 26025.7 -03476.4 -07.6082 26256.8
 18 08 2013  22 13  -21.0215 26025.7 -03476.3 -07.6081 26256.8
 18 08 2013  22 14  -21.0216 26025.9 -03476.3 -07.6080 26257.0
 18 08 2013  22 15  -21.0217 26026.0 -03476.3 -07.6080 26257.2
 18 08 2013  22 16  -21.0217 26026.1 -03476.3 -07.6080 26257.2
 18 08 2013  22 17  -21.0217 26026.3 -03476.4 -07.6081 26257.5
 18 08 2013  22 18  -21.0218 26026.6 -03476.5 -07.6082 26257.7
 18 08 2013  22 19  -21.0216 26026.8 -03476.6 -07.6083 26258.0
 18 08 2013  22 20  -21.0216 26026.9 -03476.5 -07.6082 26258.0
 18 08 2013  22 21  -21.0219 26026.8 -03476.5 -07.6081 26258.0
 18 08 2013  22 22  -21.0219 26026.6 -03476.3 -07.6078 26257.7
 18 08 2013  22 23  -21.0222 26026.3 -03476.2 -07.6075 26257.5
 18 08 2013  22 24  -21.0223 26026.2 -03476.1 -07.6074 26257.3
 18 08 2013  22 25  -21.0225 26026.1 -03475.9 -07.6072 26257.2
 18 08 2013  22 26  -21.0226 26026.0 -03475.9 -07.6072 26257.1
 18 08 2013  22 27  -21.0227 26026.1 -03475.9 -07.6071 26257.2
 18 08 2013  22 28  -21.0227 26026.2 -03475.9 -07.6072 26257.3
 18 08 2013  22 29  -21.0227 26026.2 -03475.9 -07.6071 26257.3
 18 08 2013  22 30  -21.0228 26026.3 -03476.0 -07.6072 26257.4
 18 08 2013  22 31  -21.0230 26026.4 -03476.0 -07.6073 26257.5
 18 08 2013  22 32  -21.0231 26026.4 -03476.0 -07.6072 26257.5
 18 08 2013  22 33  -21.0233 26026.5 -03476.0 -07.6072 26257.6
 18 08 2013  22 34  -21.0233 26026.6 -03476.0 -07.6072 26257.7
 18 08 2013  22 35  -21.0234 26026.7 -03476.1 -07.6072 26257.8
 18 08 2013  22 36  -21.0234 26026.8 -03476.1 -07.6072 26257.9
 18 08 2013  22 37  -21.0235 26026.8 -03476.1 -07.6072 26257.9
 18 08 2013  22 38  -21.0236 26026.8 -03476.1 -07.6073 26257.9
 18 08 2013  22 39  -21.0239 26026.7 -03476.0 -07.6072 26257.8
 18 08 2013  22 40  -21.0240 26026.6 -03475.9 -07.6070 26257.7
 18 08 2013  22 41  -21.0240 26026.5 -03475.9 -07.6069 26257.6
 18 08 2013  22 42  -21.0240 26026.4 -03475.8 -07.6067 26257.4
 18 08 2013  22 43  -21.0237 26026.3 -03475.7 -07.6066 26257.3
 18 08 2013  22 44  -21.0234 26026.3 -03475.7 -07.6066 26257.4
 18 08 2013  22 45  -21.0232 26026.4 -03475.7 -07.6066 26257.4
 18 08 2013  22 46  -21.0231 26026.4 -03475.7 -07.6066 26257.5
 18 08 2013  22 47  -21.0231 26026.5 -03475.8 -07.6067 26257.6
 18 08 2013  22 48  -21.0232 26026.4 -03475.8 -07.6068 26257.5
 18 08 2013  22 49  -21.0234 26026.4 -03475.8 -07.6068 26257.5
 18 08 2013  22 50  -21.0235 26026.4 -03475.9 -07.6069 26257.5
 18 08 2013  22 51  -21.0236 26026.5 -03475.9 -07.6070 26257.6
 18 08 2013  22 52  -21.0236 26026.5 -03475.9 -07.6070 26257.6
 18 08 2013  22 53  -21.0235 26026.6 -03475.9 -07.6070 26257.7
 18 08 2013  22 54  -21.0236 26026.7 -03475.9 -07.6069 26257.8
 18 08 2013  22 55  -21.0236 26026.8 -03476.0 -07.6070 26257.8
 18 08 2013  22 56  -21.0237 26026.8 -03476.0 -07.6071 26257.9
 18 08 2013  22 57  -21.0239 26026.9 -03476.0 -07.6072 26258.0
 18 08 2013  22 58  -21.0241 26027.0 -03476.1 -07.6072 26258.1
 18 08 2013  22 59  -21.0243 26027.2 -03476.2 -07.6073 26258.3
 18 08 2013  23 00  -21.0244 26027.2 -03476.2 -07.6073 26258.3
 18 08 2013  23 01  -21.0246 26027.3 -03476.2 -07.6074 26258.4
 18 08 2013  23 02  -21.0247 26027.4 -03476.2 -07.6074 26258.5
 18 08 2013  23 03  -21.0248 26027.5 -03476.2 -07.6074 26258.6
 18 08 2013  23 04  -21.0247 26027.5 -03476.2 -07.6073 26258.6
 18 08 2013  23 05  -21.0247 26027.5 -03476.2 -07.6074 26258.6
 18 08 2013  23 06  -21.0247 26027.5 -03476.2 -07.6073 26258.6
 18 08 2013  23 07  -21.0247 26027.6 -03476.2 -07.6073 26258.7
 18 08 2013  23 08  -21.0246 26027.6 -03476.2 -07.6073 26258.7
 18 08 2013  23 09  -21.0246 26027.7 -03476.2 -07.6073 26258.8
 18 08 2013  23 10  -21.0246 26027.6 -03476.2 -07.6072 26258.7
 18 08 2013  23 11  -21.0247 26027.5 -03476.1 -07.6071 26258.6
 18 08 2013  23 12  -21.0248 26027.3 -03476.0 -07.6070 26258.4
 18 08 2013  23 13  -21.0248 26027.2 -03476.0 -07.6069 26258.3
 18 08 2013  23 14  -21.0248 26027.0 -03475.9 -07.6068 26258.1
 18 08 2013  23 15  -21.0249 26026.9 -03475.8 -07.6066 26257.9
 18 08 2013  23 16  -21.0249 26026.7 -03475.8 -07.6066 26257.8
 18 08 2013  23 17  -21.0249 26026.7 -03475.8 -07.6066 26257.8
 18 08 2013  23 18  -21.0248 26026.8 -03475.8 -07.6067 26257.9
 18 08 2013  23 19  -21.0247 26027.0 -03475.9 -07.6068 26258.0
 18 08 2013  23 20  -21.0247 26027.1 -03476.0 -07.6070 26258.2
 18 08 2013  23 21  -21.0246 26027.3 -03476.1 -07.6071 26258.4
 18 08 2013  23 22  -21.0247 26027.4 -03476.2 -07.6073 26258.5
 18 08 2013  23 23  -21.0247 26027.3 -03476.1 -07.6073 26258.4
 18 08 2013  23 24  -21.0248 26027.2 -03476.1 -07.6072 26258.3
 18 08 2013  23 25  -21.0247 26027.2 -03476.1 -07.6071 26258.3
 18 08 2013  23 26  -21.0247 26027.2 -03476.1 -07.6071 26258.3
 18 08 2013  23 27  -21.0247 26027.3 -03476.1 -07.6072 26258.4
 18 08 2013  23 28  -21.0247 26027.3 -03476.2 -07.6073 26258.4
 18 08 2013  23 29  -21.0248 26027.3 -03476.2 -07.6073 26258.4
 18 08 2013  23 30  -21.0249 26027.2 -03476.1 -07.6073 26258.3
 18 08 2013  23 31  -21.0250 26027.0 -03476.1 -07.6072 26258.1
 18 08 2013  23 32  -21.0251 26027.0 -03476.1 -07.6072 26258.1
 18 08 2013  23 33  -21.0251 26027.0 -03476.1 -07.6072 26258.1
 18 08 2013  23 34  -21.0250 26027.0 -03476.0 -07.6071 26258.1
 18 08 2013  23 35  -21.0251 26026.9 -03476.1 -07.6072 26258.0
 18 08 2013  23 36  -21.0252 26026.9 -03476.1 -07.6072 26258.0
 18 08 2013  23 37  -21.0253 26026.8 -03476.0 -07.6071 26257.9
 18 08 2013  23 38  -21.0253 26026.8 -03476.0 -07.6070 26257.9
 18 08 2013  23 39  -21.0252 26026.7 -03475.9 -07.6070 26257.8
 18 08 2013  23 40  -21.0252 26026.6 -03475.9 -07.6070 26257.7
 18 08 2013  23 41  -21.0252 26026.5 -03475.9 -07.6069 26257.6
 18 08 2013  23 42  -21.0251 26026.5 -03475.9 -07.6070 26257.6
 18 08 2013  23 43  -21.0251 26026.6 -03476.0 -07.6071 26257.7
 18 08 2013  23 44  -21.0250 26026.7 -03476.0 -07.6072 26257.8
 18 08 2013  23 45  -21.0249 26026.6 -03476.0 -07.6072 26257.7
 18 08 2013  23 46  -21.0250 26026.4 -03476.0 -07.6071 26257.5
 18 08 2013  23 47  -21.0250 26026.2 -03475.9 -07.6070 26257.3
 18 08 2013  23 48  -21.0249 26026.1 -03475.8 -07.6070 26257.2
 18 08 2013  23 49  -21.0248 26026.1 -03475.9 -07.6071 26257.2
 18 08 2013  23 50  -21.0248 26026.1 -03476.0 -07.6072 26257.2
 18 08 2013  23 51  -21.0248 26026.2 -03476.0 -07.6072 26257.3
 18 08 2013  23 52  -21.0247 26026.2 -03476.0 -07.6073 26257.3
 18 08 2013  23 53  -21.0246 26026.3 -03476.1 -07.6075 26257.4
 18 08 2013  23 54  -21.0246 26026.2 -03476.1 -07.6074 26257.3
 18 08 2013  23 55  -21.0246 26026.3 -03476.1 -07.6075 26257.4
 18 08 2013  23 56  -21.0244 26026.3 -03476.1 -07.6075 26257.4
 18 08 2013  23 57  -21.0243 26026.3 -03476.1 -07.6075 26257.4
