SAO LUIS EMBRACE-03 <345> 1 Min. Reported data

 DD MM YYYY  HH MM   D(Deg)  H(nT)   Z(nT)   I(Deg)   F(nT)

 11 12 2013  00 00  -21.0079 26020.4 -03518.3 -07.7005 26257.1
 11 12 2013  00 01  -21.0078 26020.3 -03518.3 -07.7004 26257.1
 11 12 2013  00 02  -21.0080 26020.3 -03518.3 -07.7004 26257.1
 11 12 2013  00 03  -21.0080 26020.3 -03518.3 -07.7004 26257.1
 11 12 2013  00 04  -21.0080 26020.3 -03518.2 -07.7003 26257.1
 11 12 2013  00 05  -21.0082 26020.2 -03518.2 -07.7002 26257.0
 11 12 2013  00 06  -21.0085 26020.2 -03518.2 -07.7002 26257.0
 11 12 2013  00 07  -21.0086 26020.1 -03518.1 -07.7001 26256.8
 11 12 2013  00 08  -21.0086 26019.9 -03518.0 -07.6999 26256.6
 11 12 2013  00 09  -21.0086 26019.9 -03518.0 -07.6998 26256.6
 11 12 2013  00 10  -21.0083 26019.9 -03517.9 -07.6998 26256.7
 11 12 2013  00 11  -21.0083 26020.0 -03517.9 -07.6998 26256.7
 11 12 2013  00 12  -21.0085 26020.2 -03518.0 -07.6999 26256.9
 11 12 2013  00 13  -21.0088 26020.0 -03518.0 -07.7000 26256.7
 11 12 2013  00 14  -21.0091 26020.1 -03518.0 -07.6998 26256.9
 11 12 2013  00 15  -21.0092 26020.0 -03518.0 -07.6998 26256.7
 11 12 2013  00 16  -21.0095 26020.0 -03517.9 -07.6997 26256.7
 11 12 2013  00 17  -21.0096 26020.0 -03517.9 -07.6997 26256.7
 11 12 2013  00 18  -21.0097 26019.9 -03517.8 -07.6996 26256.6
 11 12 2013  00 19  -21.0098 26019.9 -03517.8 -07.6996 26256.7
 11 12 2013  00 20  -21.0098 26020.0 -03517.9 -07.6996 26256.7
 11 12 2013  00 21  -21.0097 26020.0 -03517.9 -07.6996 26256.8
 11 12 2013  00 22  -21.0096 26020.2 -03517.9 -07.6996 26256.9
 11 12 2013  00 23  -21.0095 26020.2 -03517.9 -07.6995 26256.9
 11 12 2013  00 24  -21.0093 26020.4 -03517.9 -07.6996 26257.1
 11 12 2013  00 25  -21.0094 26020.5 -03517.9 -07.6996 26257.2
 11 12 2013  00 26  -21.0096 26020.6 -03518.0 -07.6997 26257.3
 11 12 2013  00 27  -21.0099 26020.7 -03518.0 -07.6997 26257.4
 11 12 2013  00 28  -21.0101 26020.6 -03517.9 -07.6995 26257.4
 11 12 2013  00 29  -21.0104 26020.6 -03517.8 -07.6993 26257.4
 11 12 2013  00 30  -21.0108 26020.5 -03517.7 -07.6992 26257.2
 11 12 2013  00 31  -21.0113 26020.4 -03517.6 -07.6990 26257.1
 11 12 2013  00 32  -21.0116 26020.3 -03517.6 -07.6988 26257.0
 11 12 2013  00 33  -21.0117 26020.3 -03517.5 -07.6988 26257.0
 11 12 2013  00 34  -21.0118 26020.3 -03517.5 -07.6987 26257.0
 11 12 2013  00 35  -21.0120 26020.3 -03517.5 -07.6988 26257.0
 11 12 2013  00 36  -21.0123 26020.4 -03517.6 -07.6988 26257.1
 11 12 2013  00 37  -21.0125 26020.5 -03517.6 -07.6989 26257.2
 11 12 2013  00 38  -21.0125 26020.5 -03517.6 -07.6989 26257.2
 11 12 2013  00 39  -21.0128 26020.5 -03517.6 -07.6988 26257.2
 11 12 2013  00 40  -21.0129 26020.5 -03517.6 -07.6988 26257.2
 11 12 2013  00 41  -21.0129 26020.5 -03517.6 -07.6989 26257.2
 11 12 2013  00 42  -21.0131 26020.4 -03517.6 -07.6988 26257.1
 11 12 2013  00 43  -21.0133 26020.4 -03517.5 -07.6987 26257.0
 11 12 2013  00 44  -21.0132 26020.6 -03517.6 -07.6989 26257.3
 11 12 2013  00 45  -21.0130 26020.5 -03517.6 -07.6989 26257.2
 11 12 2013  00 46  -21.0130 26020.6 -03517.7 -07.6990 26257.3
 11 12 2013  00 47  -21.0126 26020.7 -03517.7 -07.6991 26257.4
 11 12 2013  00 48  -21.0125 26020.6 -03517.7 -07.6992 26257.3
 11 12 2013  00 49  -21.0127 26020.7 -03517.8 -07.6993 26257.4
 11 12 2013  00 50  -21.0127 26020.7 -03517.9 -07.6994 26257.4
 11 12 2013  00 51  -21.0128 26020.8 -03517.9 -07.6995 26257.5
 11 12 2013  00 52  -21.0129 26020.6 -03517.9 -07.6995 26257.4
 11 12 2013  00 53  -21.0129 26020.6 -03517.9 -07.6995 26257.3
 11 12 2013  00 54  -21.0129 26020.6 -03517.9 -07.6996 26257.4
 11 12 2013  00 55  -21.0129 26020.6 -03517.9 -07.6996 26257.3
 11 12 2013  00 56  -21.0129 26020.6 -03517.9 -07.6996 26257.3
 11 12 2013  00 57  -21.0128 26020.6 -03517.9 -07.6996 26257.3
 11 12 2013  00 58  -21.0127 26020.4 -03517.8 -07.6994 26257.1
 11 12 2013  00 59  -21.0127 26020.5 -03518.0 -07.6996 26257.3
 11 12 2013  01 00  -21.0128 26020.3 -03517.8 -07.6994 26257.0
 11 12 2013  01 01  -21.0131 26020.4 -03517.9 -07.6995 26257.1
 11 12 2013  01 02  -21.0130 26020.4 -03517.9 -07.6995 26257.2
 11 12 2013  01 03  -21.0132 26020.3 -03517.8 -07.6994 26257.1
 11 12 2013  01 04  -21.0132 26020.4 -03517.8 -07.6994 26257.1
 11 12 2013  01 05  -21.0133 26020.4 -03517.9 -07.6995 26257.2
 11 12 2013  01 06  -21.0135 26020.4 -03517.8 -07.6994 26257.1
 11 12 2013  01 07  -21.0135 26020.4 -03517.9 -07.6994 26257.1
 11 12 2013  01 08  -21.0134 26020.5 -03517.8 -07.6994 26257.3
 11 12 2013  01 09  -21.0133 26020.6 -03517.8 -07.6994 26257.3
 11 12 2013  01 10  -21.0132 26020.7 -03517.9 -07.6994 26257.5
 11 12 2013  01 11  -21.0130 26020.8 -03517.9 -07.6994 26257.5
 11 12 2013  01 12  -21.0131 26020.8 -03517.9 -07.6995 26257.5
 11 12 2013  01 13  -21.0132 26020.9 -03518.0 -07.6995 26257.7
 11 12 2013  01 14  -21.0133 26021.0 -03517.9 -07.6995 26257.7
 11 12 2013  01 15  -21.0134 26021.0 -03517.9 -07.6994 26257.7
 11 12 2013  01 16  -21.0135 26021.0 -03517.9 -07.6993 26257.7
 11 12 2013  01 17  -21.0135 26021.0 -03517.8 -07.6992 26257.7
 11 12 2013  01 18  -21.0135 26021.0 -03517.8 -07.6992 26257.7
 11 12 2013  01 19  -21.0134 26021.0 -03517.8 -07.6991 26257.8
 11 12 2013  01 20  -21.0136 26021.1 -03517.8 -07.6992 26257.8
 11 12 2013  01 21  -21.0137 26021.0 -03517.8 -07.6991 26257.7
 11 12 2013  01 22  -21.0139 26021.0 -03517.7 -07.6990 26257.7
 11 12 2013  01 23  -21.0140 26021.0 -03517.7 -07.6990 26257.7
 11 12 2013  01 24  -21.0140 26020.9 -03517.6 -07.6989 26257.6
 11 12 2013  01 25  -21.0140 26020.8 -03517.6 -07.6987 26257.5
 11 12 2013  01 26  -21.0143 26020.7 -03517.5 -07.6987 26257.4
 11 12 2013  01 27  -21.0144 26020.7 -03517.5 -07.6987 26257.4
 11 12 2013  01 28  -21.0146 26020.7 -03517.5 -07.6986 26257.4
 11 12 2013  01 29  -21.0147 26020.7 -03517.5 -07.6985 26257.4
 11 12 2013  01 30  -21.0147 26020.7 -03517.5 -07.6985 26257.3
 11 12 2013  01 31  -21.0147 26020.5 -03517.3 -07.6983 26257.1
 11 12 2013  01 32  -21.0145 26020.3 -03517.2 -07.6981 26257.0
 11 12 2013  01 33  -21.0144 26020.1 -03517.1 -07.6979 26256.7
 11 12 2013  01 34  -21.0142 26019.9 -03517.0 -07.6978 26256.6
 11 12 2013  01 35  -21.0141 26019.7 -03516.9 -07.6976 26256.3
 11 12 2013  01 36  -21.0142 26019.5 -03516.8 -07.6975 26256.0
 11 12 2013  01 37  -21.0142 26019.3 -03516.8 -07.6975 26255.9
 11 12 2013  01 38  -21.0145 26019.3 -03516.8 -07.6976 26255.9
 11 12 2013  01 39  -21.0149 26019.5 -03516.9 -07.6977 26256.1
 11 12 2013  01 40  -21.0154 26019.7 -03517.1 -07.6980 26256.3
 11 12 2013  01 41  -21.0157 26019.9 -03517.2 -07.6982 26256.5
 11 12 2013  01 42  -21.0161 26020.1 -03517.3 -07.6984 26256.7
 11 12 2013  01 43  -21.0164 26020.2 -03517.4 -07.6985 26256.9
 11 12 2013  01 44  -21.0163 26020.3 -03517.4 -07.6985 26257.0
 11 12 2013  01 45  -21.0162 26020.3 -03517.4 -07.6985 26257.0
 11 12 2013  01 46  -21.0161 26020.4 -03517.4 -07.6985 26257.0
 11 12 2013  01 47  -21.0160 26020.2 -03517.3 -07.6984 26256.8
 11 12 2013  01 48  -21.0159 26020.0 -03517.2 -07.6982 26256.6
 11 12 2013  01 49  -21.0158 26019.8 -03517.1 -07.6980 26256.4
 11 12 2013  01 50  -21.0159 26019.7 -03517.0 -07.6979 26256.3
 11 12 2013  01 51  -21.0163 26019.6 -03517.0 -07.6979 26256.2
 11 12 2013  01 52  -21.0163 26019.6 -03517.0 -07.6979 26256.2
 11 12 2013  01 53  -21.0165 26019.5 -03517.0 -07.6979 26256.1
 11 12 2013  01 54  -21.0164 26019.6 -03517.1 -07.6980 26256.2
 11 12 2013  01 55  -21.0164 26019.6 -03517.1 -07.6980 26256.2
 11 12 2013  01 56  -21.0165 26019.6 -03517.2 -07.6982 26256.3
 11 12 2013  01 57  -21.0166 26019.7 -03517.2 -07.6983 26256.4
 11 12 2013  01 58  -21.0167 26019.7 -03517.2 -07.6983 26256.3
 11 12 2013  01 59  -21.0167 26019.7 -03517.3 -07.6984 26256.3
 11 12 2013  02 00  -21.0166 26019.6 -03517.3 -07.6984 26256.3
 11 12 2013  02 01  -21.0165 26019.6 -03517.3 -07.6984 26256.2
 11 12 2013  02 02  -21.0165 26019.6 -03517.3 -07.6985 26256.2
 11 12 2013  02 03  -21.0166 26019.4 -03517.3 -07.6985 26256.1
 11 12 2013  02 04  -21.0166 26019.3 -03517.3 -07.6986 26255.9
 11 12 2013  02 05  -21.0168 26019.3 -03517.3 -07.6986 26255.9
 11 12 2013  02 06  -21.0169 26019.1 -03517.3 -07.6986 26255.8
 11 12 2013  02 07  -21.0171 26019.1 -03517.3 -07.6986 26255.7
 11 12 2013  02 08  -21.0170 26019.0 -03517.3 -07.6986 26255.7
 11 12 2013  02 09  -21.0171 26018.9 -03517.3 -07.6986 26255.6
 11 12 2013  02 10  -21.0173 26018.8 -03517.3 -07.6986 26255.4
 11 12 2013  02 11  -21.0173 26018.7 -03517.2 -07.6986 26255.3
 11 12 2013  02 12  -21.0173 26018.6 -03517.2 -07.6986 26255.2
 11 12 2013  02 13  -21.0174 26018.6 -03517.2 -07.6986 26255.2
 11 12 2013  02 14  -21.0174 26018.6 -03517.3 -07.6987 26255.2
 11 12 2013  02 15  -21.0174 26018.6 -03517.3 -07.6988 26255.3
 11 12 2013  02 16  -21.0175 26018.7 -03517.3 -07.6988 26255.4
 11 12 2013  02 17  -21.0176 26018.7 -03517.4 -07.6989 26255.4
 11 12 2013  02 18  -21.0177 26018.8 -03517.4 -07.6990 26255.4
 11 12 2013  02 19  -21.0177 26018.8 -03517.5 -07.6991 26255.5
 11 12 2013  02 20  -21.0178 26019.0 -03517.5 -07.6991 26255.6
 11 12 2013  02 21  -21.0179 26019.0 -03517.5 -07.6992 26255.7
 11 12 2013  02 22  -21.0179 26019.1 -03517.6 -07.6992 26255.8
 11 12 2013  02 23  -21.0178 26019.0 -03517.5 -07.6991 26255.7
 11 12 2013  02 24  -21.0177 26018.9 -03517.5 -07.6991 26255.6
 11 12 2013  02 25  -21.0175 26019.1 -03517.5 -07.6992 26255.8
 11 12 2013  02 26  -21.0174 26019.0 -03517.5 -07.6991 26255.7
 11 12 2013  02 27  -21.0173 26019.1 -03517.5 -07.6991 26255.8
 11 12 2013  02 28  -21.0170 26019.2 -03517.5 -07.6991 26255.9
 11 12 2013  02 29  -21.0169 26019.3 -03517.6 -07.6992 26256.0
 11 12 2013  02 30  -21.0169 26019.5 -03517.7 -07.6993 26256.2
 11 12 2013  02 31  -21.0169 26019.8 -03517.8 -07.6996 26256.5
 11 12 2013  02 32  -21.0170 26020.0 -03517.9 -07.6997 26256.7
 11 12 2013  02 33  -21.0170 26020.1 -03518.0 -07.6998 26256.8
 11 12 2013  02 34  -21.0169 26020.1 -03518.0 -07.6998 26256.8
 11 12 2013  02 35  -21.0167 26020.0 -03517.9 -07.6996 26256.7
 11 12 2013  02 36  -21.0165 26019.8 -03517.7 -07.6993 26256.5
 11 12 2013  02 37  -21.0165 26019.5 -03517.6 -07.6991 26256.2
 11 12 2013  02 38  -21.0167 26019.4 -03517.5 -07.6989 26256.1
 11 12 2013  02 39  -21.0168 26019.3 -03517.4 -07.6989 26256.0
 11 12 2013  02 40  -21.0171 26019.1 -03517.3 -07.6987 26255.8
 11 12 2013  02 41  -21.0173 26019.0 -03517.3 -07.6986 26255.7
 11 12 2013  02 42  -21.0175 26019.0 -03517.2 -07.6985 26255.7
 11 12 2013  02 43  -21.0176 26019.1 -03517.3 -07.6986 26255.7
 11 12 2013  02 44  -21.0176 26019.2 -03517.3 -07.6986 26255.9
 11 12 2013  02 45  -21.0176 26019.4 -03517.4 -07.6987 26256.1
 11 12 2013  02 46  -21.0175 26019.6 -03517.5 -07.6989 26256.3
 11 12 2013  02 47  -21.0172 26019.6 -03517.5 -07.6989 26256.3
 11 12 2013  02 48  -21.0169 26019.7 -03517.4 -07.6988 26256.3
 11 12 2013  02 49  -21.0167 26019.5 -03517.3 -07.6986 26256.2
 11 12 2013  02 50  -21.0166 26019.4 -03517.2 -07.6983 26256.0
 11 12 2013  02 51  -21.0166 26019.3 -03517.2 -07.6983 26255.9
 11 12 2013  02 52  -21.0167 26019.2 -03517.1 -07.6982 26255.9
 11 12 2013  02 53  -21.0168 26019.2 -03517.1 -07.6982 26255.9
 11 12 2013  02 54  -21.0168 26019.1 -03517.1 -07.6981 26255.8
 11 12 2013  02 55  -21.0168 26019.1 -03517.1 -07.6981 26255.8
 11 12 2013  02 56  -21.0167 26019.2 -03517.1 -07.6981 26255.8
 11 12 2013  02 57  -21.0166 26019.2 -03517.1 -07.6982 26255.9
 11 12 2013  02 58  -21.0165 26019.2 -03517.1 -07.6982 26255.9
 11 12 2013  02 59  -21.0164 26019.3 -03517.1 -07.6983 26255.9
 11 12 2013  03 00  -21.0164 26019.3 -03517.1 -07.6983 26256.0
 11 12 2013  03 01  -21.0162 26019.4 -03517.1 -07.6982 26256.0
 11 12 2013  03 02  -21.0161 26019.4 -03517.2 -07.6983 26256.1
 11 12 2013  03 03  -21.0159 26019.5 -03517.2 -07.6983 26256.1
 11 12 2013  03 04  -21.0158 26019.6 -03517.2 -07.6983 26256.2
 11 12 2013  03 05  -21.0157 26019.6 -03517.2 -07.6982 26256.2
 11 12 2013  03 06  -21.0156 26019.6 -03517.2 -07.6983 26256.3
 11 12 2013  03 07  -21.0155 26019.7 -03517.2 -07.6982 26256.3
 11 12 2013  03 08  -21.0155 26019.7 -03517.2 -07.6983 26256.4
 11 12 2013  03 09  -21.0154 26019.7 -03517.2 -07.6982 26256.4
 11 12 2013  03 10  -21.0153 26019.6 -03517.1 -07.6980 26256.2
 11 12 2013  03 11  -21.0151 26019.3 -03516.9 -07.6977 26255.9
 11 12 2013  03 12  -21.0148 26019.0 -03516.7 -07.6974 26255.6
 11 12 2013  03 13  -21.0146 26018.7 -03516.6 -07.6972 26255.3
 11 12 2013  03 14  -21.0144 26018.3 -03516.4 -07.6970 26254.9
 11 12 2013  03 15  -21.0143 26018.0 -03516.2 -07.6967 26254.5
 11 12 2013  03 16  -21.0142 26017.9 -03516.2 -07.6966 26254.4
 11 12 2013  03 17  -21.0142 26017.9 -03516.2 -07.6967 26254.4
 11 12 2013  03 18  -21.0143 26018.1 -03516.4 -07.6969 26254.6
 11 12 2013  03 19  -21.0143 26018.2 -03516.5 -07.6972 26254.7
 11 12 2013  03 20  -21.0142 26018.2 -03516.6 -07.6973 26254.8
 11 12 2013  03 21  -21.0141 26018.2 -03516.6 -07.6973 26254.8
 11 12 2013  03 22  -21.0140 26018.2 -03516.6 -07.6974 26254.8
 11 12 2013  03 23  -21.0139 26018.3 -03516.6 -07.6974 26254.8
 11 12 2013  03 24  -21.0138 26018.3 -03516.6 -07.6975 26254.8
 11 12 2013  03 25  -21.0138 26018.2 -03516.6 -07.6975 26254.8
 11 12 2013  03 26  -21.0139 26018.2 -03516.7 -07.6975 26254.8
 11 12 2013  03 27  -21.0141 26018.2 -03516.7 -07.6976 26254.8
 11 12 2013  03 28  -21.0143 26018.2 -03516.7 -07.6976 26254.8
 11 12 2013  03 29  -21.0146 26018.2 -03516.7 -07.6976 26254.8
 11 12 2013  03 30  -21.0148 26018.1 -03516.7 -07.6976 26254.7
 11 12 2013  03 31  -21.0151 26018.0 -03516.7 -07.6976 26254.6
 11 12 2013  03 32  -21.0152 26018.1 -03516.7 -07.6975 26254.7
 11 12 2013  03 33  -21.0155 26018.1 -03516.7 -07.6976 26254.7
 11 12 2013  03 34  -21.0158 26018.1 -03516.7 -07.6976 26254.7
 11 12 2013  03 35  -21.0160 26018.1 -03516.7 -07.6976 26254.7
 11 12 2013  03 36  -21.0162 26018.0 -03516.7 -07.6976 26254.6
 11 12 2013  03 37  -21.0164 26018.2 -03516.7 -07.6977 26254.7
 11 12 2013  03 38  -21.0165 26018.3 -03516.8 -07.6979 26254.9
 11 12 2013  03 39  -21.0167 26018.4 -03516.9 -07.6980 26255.0
 11 12 2013  03 40  -21.0170 26018.4 -03516.9 -07.6979 26255.0
 11 12 2013  03 41  -21.0173 26018.4 -03516.9 -07.6979 26255.0
 11 12 2013  03 42  -21.0175 26018.3 -03516.8 -07.6978 26254.9
 11 12 2013  03 43  -21.0178 26018.3 -03516.7 -07.6977 26254.9
 11 12 2013  03 44  -21.0179 26018.3 -03516.7 -07.6976 26254.9
 11 12 2013  03 45  -21.0181 26018.2 -03516.7 -07.6976 26254.8
 11 12 2013  03 46  -21.0184 26018.2 -03516.7 -07.6976 26254.8
 11 12 2013  03 47  -21.0186 26018.2 -03516.7 -07.6976 26254.8
 11 12 2013  03 48  -21.0188 26018.3 -03516.7 -07.6976 26254.9
 11 12 2013  03 49  -21.0190 26018.4 -03516.8 -07.6977 26255.0
 11 12 2013  03 50  -21.0190 26018.5 -03516.8 -07.6977 26255.1
 11 12 2013  03 51  -21.0190 26018.5 -03516.8 -07.6978 26255.1
 11 12 2013  03 52  -21.0191 26018.4 -03516.7 -07.6976 26255.0
 11 12 2013  03 53  -21.0192 26018.4 -03516.7 -07.6976 26255.0
 11 12 2013  03 54  -21.0195 26018.4 -03516.7 -07.6975 26255.0
 11 12 2013  03 55  -21.0196 26018.4 -03516.7 -07.6976 26255.0
 11 12 2013  03 56  -21.0198 26018.4 -03516.7 -07.6976 26255.0
 11 12 2013  03 57  -21.0198 26018.5 -03516.7 -07.6976 26255.1
 11 12 2013  03 58  -21.0198 26018.5 -03516.7 -07.6976 26255.1
 11 12 2013  03 59  -21.0198 26018.6 -03516.7 -07.6975 26255.2
 11 12 2013  04 00  -21.0197 26018.6 -03516.8 -07.6976 26255.2
 11 12 2013  04 01  -21.0196 26018.7 -03516.8 -07.6976 26255.3
 11 12 2013  04 02  -21.0195 26018.7 -03516.8 -07.6976 26255.3
 11 12 2013  04 03  -21.0194 26018.7 -03516.8 -07.6976 26255.2
 11 12 2013  04 04  -21.0191 26018.6 -03516.7 -07.6976 26255.2
 11 12 2013  04 05  -21.0190 26018.6 -03516.7 -07.6975 26255.2
 11 12 2013  04 06  -21.0190 26018.6 -03516.7 -07.6975 26255.1
 11 12 2013  04 07  -21.0191 26018.5 -03516.7 -07.6976 26255.1
 11 12 2013  04 08  -21.0191 26018.4 -03516.7 -07.6975 26255.0
 11 12 2013  04 09  -21.0190 26018.4 -03516.7 -07.6975 26255.0
 11 12 2013  04 10  -21.0188 26018.4 -03516.7 -07.6975 26255.0
 11 12 2013  04 11  -21.0186 26018.4 -03516.7 -07.6975 26255.0
 11 12 2013  04 12  -21.0186 26018.4 -03516.7 -07.6976 26255.0
 11 12 2013  04 13  -21.0186 26018.4 -03516.7 -07.6976 26255.0
 11 12 2013  04 14  -21.0186 26018.3 -03516.7 -07.6975 26254.9
 11 12 2013  04 15  -21.0187 26018.2 -03516.7 -07.6975 26254.8
 11 12 2013  04 16  -21.0188 26018.0 -03516.6 -07.6974 26254.6
 11 12 2013  04 17  -21.0190 26018.0 -03516.6 -07.6975 26254.6
 11 12 2013  04 18  -21.0190 26018.0 -03516.6 -07.6975 26254.6
 11 12 2013  04 19  -21.0191 26018.0 -03516.6 -07.6975 26254.6
 11 12 2013  04 20  -21.0192 26018.0 -03516.6 -07.6975 26254.6
 11 12 2013  04 21  -21.0193 26018.0 -03516.6 -07.6975 26254.6
 11 12 2013  04 22  -21.0194 26018.0 -03516.6 -07.6975 26254.6
 11 12 2013  04 23  -21.0193 26017.9 -03516.6 -07.6975 26254.5
 11 12 2013  04 24  -21.0193 26017.8 -03516.5 -07.6974 26254.4
 11 12 2013  04 25  -21.0195 26017.8 -03516.5 -07.6974 26254.4
 11 12 2013  04 26  -21.0196 26017.7 -03516.5 -07.6974 26254.3
 11 12 2013  04 27  -21.0197 26017.7 -03516.5 -07.6974 26254.2
 11 12 2013  04 28  -21.0198 26017.7 -03516.5 -07.6974 26254.3
 11 12 2013  04 29  -21.0198 26017.7 -03516.5 -07.6974 26254.3
 11 12 2013  04 30  -21.0198 26017.6 -03516.5 -07.6973 26254.2
 11 12 2013  04 31  -21.0198 26017.6 -03516.5 -07.6973 26254.1
 11 12 2013  04 32  -21.0198 26017.5 -03516.4 -07.6972 26254.0
 11 12 2013  04 33  -21.0197 26017.4 -03516.4 -07.6972 26254.0
 11 12 2013  04 34  -21.0196 26017.4 -03516.4 -07.6972 26254.0
 11 12 2013  04 35  -21.0196 26017.5 -03516.4 -07.6972 26254.0
 11 12 2013  04 36  -21.0196 26017.4 -03516.4 -07.6973 26254.0
 11 12 2013  04 37  -21.0194 26017.4 -03516.4 -07.6972 26253.9
 11 12 2013  04 38  -21.0194 26017.3 -03516.4 -07.6972 26253.9
 11 12 2013  04 39  -21.0193 26017.3 -03516.4 -07.6972 26253.9
 11 12 2013  04 40  -21.0193 26017.3 -03516.4 -07.6973 26253.9
 11 12 2013  04 41  -21.0192 26017.3 -03516.4 -07.6972 26253.8
 11 12 2013  04 42  -21.0191 26017.3 -03516.4 -07.6972 26253.8
 11 12 2013  04 43  -21.0191 26017.2 -03516.4 -07.6972 26253.8
 11 12 2013  04 44  -21.0191 26017.3 -03516.4 -07.6973 26253.8
 11 12 2013  04 45  -21.0193 26017.2 -03516.4 -07.6973 26253.8
 11 12 2013  04 46  -21.0195 26017.2 -03516.4 -07.6973 26253.8
 11 12 2013  04 47  -21.0195 26017.3 -03516.4 -07.6973 26253.8
 11 12 2013  04 48  -21.0197 26017.3 -03516.4 -07.6973 26253.9
 11 12 2013  04 49  -21.0198 26017.3 -03516.4 -07.6973 26253.9
 11 12 2013  04 50  -21.0199 26017.3 -03516.5 -07.6974 26253.9
 11 12 2013  04 51  -21.0200 26017.3 -03516.4 -07.6973 26253.9
 11 12 2013  04 52  -21.0200 26017.4 -03516.5 -07.6974 26254.0
 11 12 2013  04 53  -21.0200 26017.5 -03516.5 -07.6974 26254.0
 11 12 2013  04 54  -21.0201 26017.5 -03516.5 -07.6974 26254.0
 11 12 2013  04 55  -21.0202 26017.4 -03516.5 -07.6974 26254.0
 11 12 2013  04 56  -21.0203 26017.5 -03516.5 -07.6975 26254.0
 11 12 2013  04 57  -21.0203 26017.5 -03516.6 -07.6975 26254.1
 11 12 2013  04 58  -21.0204 26017.5 -03516.6 -07.6975 26254.1
 11 12 2013  04 59  -21.0204 26017.5 -03516.5 -07.6975 26254.1
 11 12 2013  05 00  -21.0204 26017.5 -03516.5 -07.6975 26254.1
 11 12 2013  05 01  -21.0205 26017.5 -03516.5 -07.6975 26254.1
 11 12 2013  05 02  -21.0207 26017.5 -03516.6 -07.6976 26254.1
 11 12 2013  05 03  -21.0207 26017.5 -03516.6 -07.6976 26254.1
 11 12 2013  05 04  -21.0207 26017.6 -03516.6 -07.6975 26254.2
 11 12 2013  05 05  -21.0210 26017.6 -03516.6 -07.6976 26254.2
 11 12 2013  05 06  -21.0209 26017.7 -03516.6 -07.6977 26254.2
 11 12 2013  05 07  -21.0210 26017.6 -03516.7 -07.6977 26254.2
 11 12 2013  05 08  -21.0213 26017.6 -03516.7 -07.6977 26254.2
 11 12 2013  05 09  -21.0214 26017.7 -03516.7 -07.6977 26254.3
 11 12 2013  05 10  -21.0215 26017.8 -03516.7 -07.6977 26254.3
 11 12 2013  05 11  -21.0217 26017.8 -03516.7 -07.6978 26254.4
 11 12 2013  05 12  -21.0218 26017.8 -03516.7 -07.6978 26254.4
 11 12 2013  05 13  -21.0219 26017.9 -03516.7 -07.6977 26254.5
 11 12 2013  05 14  -21.0219 26017.8 -03516.7 -07.6977 26254.4
 11 12 2013  05 15  -21.0218 26017.8 -03516.6 -07.6976 26254.4
 11 12 2013  05 16  -21.0220 26017.7 -03516.6 -07.6975 26254.3
 11 12 2013  05 17  -21.0221 26017.6 -03516.6 -07.6975 26254.2
 11 12 2013  05 18  -21.0222 26017.6 -03516.6 -07.6975 26254.2
 11 12 2013  05 19  -21.0223 26017.8 -03516.6 -07.6976 26254.3
 11 12 2013  05 20  -21.0225 26017.7 -03516.6 -07.6976 26254.3
 11 12 2013  05 21  -21.0225 26017.9 -03516.7 -07.6976 26254.4
 11 12 2013  05 22  -21.0228 26017.7 -03516.7 -07.6977 26254.3
 11 12 2013  05 23  -21.0229 26017.7 -03516.6 -07.6975 26254.3
 11 12 2013  05 24  -21.0229 26017.6 -03516.5 -07.6974 26254.2
 11 12 2013  05 25  -21.0229 26017.7 -03516.5 -07.6973 26254.3
 11 12 2013  05 26  -21.0231 26017.7 -03516.5 -07.6973 26254.2
 11 12 2013  05 27  -21.0231 26017.7 -03516.5 -07.6973 26254.3
 11 12 2013  05 28  -21.0234 26017.6 -03516.5 -07.6973 26254.2
 11 12 2013  05 29  -21.0235 26017.7 -03516.5 -07.6973 26254.3
 11 12 2013  05 30  -21.0235 26017.7 -03516.5 -07.6972 26254.2
 11 12 2013  05 31  -21.0234 26017.8 -03516.5 -07.6973 26254.3
 11 12 2013  05 32  -21.0236 26017.8 -03516.5 -07.6972 26254.4
 11 12 2013  05 33  -21.0238 26017.7 -03516.4 -07.6972 26254.3
 11 12 2013  05 34  -21.0237 26017.8 -03516.4 -07.6971 26254.3
 11 12 2013  05 35  -21.0236 26017.6 -03516.4 -07.6971 26254.2
 11 12 2013  05 36  -21.0236 26017.5 -03516.3 -07.6970 26254.1
 11 12 2013  05 37  -21.0235 26017.5 -03516.2 -07.6968 26254.0
 11 12 2013  05 38  -21.0236 26017.5 -03516.3 -07.6969 26254.0
 11 12 2013  05 39  -21.0237 26017.5 -03516.3 -07.6969 26254.1
 11 12 2013  05 40  -21.0239 26017.6 -03516.3 -07.6969 26254.1
 11 12 2013  05 41  -21.0240 26017.4 -03516.2 -07.6967 26253.9
 11 12 2013  05 42  -21.0239 26017.5 -03516.2 -07.6967 26254.0
 11 12 2013  05 43  -21.0238 26017.4 -03516.1 -07.6966 26253.9
 11 12 2013  05 44  -21.0240 26017.4 -03516.1 -07.6966 26253.9
 11 12 2013  05 45  -21.0240 26017.5 -03516.2 -07.6968 26254.0
 11 12 2013  05 46  -21.0242 26017.5 -03516.2 -07.6968 26254.1
 11 12 2013  05 47  -21.0241 26017.6 -03516.2 -07.6968 26254.1
 11 12 2013  05 48  -21.0241 26017.7 -03516.3 -07.6968 26254.3
 11 12 2013  05 49  -21.0240 26017.7 -03516.3 -07.6968 26254.2
 11 12 2013  05 50  -21.0240 26017.6 -03516.3 -07.6968 26254.2
 11 12 2013  05 51  -21.0239 26017.7 -03516.2 -07.6967 26254.2
 11 12 2013  05 52  -21.0239 26017.6 -03516.2 -07.6967 26254.1
 11 12 2013  05 53  -21.0239 26017.6 -03516.2 -07.6967 26254.2
 11 12 2013  05 54  -21.0239 26017.6 -03516.2 -07.6966 26254.1
 11 12 2013  05 55  -21.0239 26017.6 -03516.1 -07.6966 26254.1
 11 12 2013  05 56  -21.0240 26017.5 -03516.1 -07.6966 26254.0
 11 12 2013  05 57  -21.0241 26017.5 -03516.2 -07.6967 26254.0
 11 12 2013  05 58  -21.0243 26017.7 -03516.2 -07.6967 26254.3
 11 12 2013  05 59  -21.0247 26017.6 -03516.2 -07.6968 26254.1
 11 12 2013  06 00  -21.0245 26017.8 -03516.2 -07.6967 26254.3
 11 12 2013  06 01  -21.0251 26017.7 -03516.3 -07.6968 26254.2
 11 12 2013  06 02  -21.0253 26017.9 -03516.3 -07.6969 26254.4
 11 12 2013  06 03  -21.0256 26017.9 -03516.3 -07.6969 26254.5
 11 12 2013  06 04  -21.0259 26018.0 -03516.4 -07.6970 26254.6
 11 12 2013  06 05  -21.0261 26018.2 -03516.4 -07.6971 26254.7
 11 12 2013  06 06  -21.0262 26018.1 -03516.4 -07.6969 26254.6
 11 12 2013  06 07  -21.0261 26018.2 -03516.4 -07.6969 26254.8
 11 12 2013  06 08  -21.0259 26018.1 -03516.3 -07.6967 26254.6
 11 12 2013  06 09  -21.0259 26018.1 -03516.2 -07.6966 26254.6
 11 12 2013  06 10  -21.0257 26018.1 -03516.3 -07.6967 26254.6
 11 12 2013  06 11  -21.0254 26018.0 -03516.2 -07.6965 26254.6
 11 12 2013  06 12  -21.0253 26018.1 -03516.2 -07.6965 26254.6
 11 12 2013  06 13  -21.0250 26018.0 -03516.2 -07.6965 26254.6
 11 12 2013  06 14  -21.0250 26018.0 -03516.2 -07.6965 26254.5
 11 12 2013  06 15  -21.0251 26018.1 -03516.3 -07.6967 26254.6
 11 12 2013  06 16  -21.0251 26018.2 -03516.3 -07.6968 26254.7
 11 12 2013  06 17  -21.0252 26018.2 -03516.3 -07.6968 26254.7
 11 12 2013  06 18  -21.0251 26018.1 -03516.3 -07.6968 26254.7
 11 12 2013  06 19  -21.0251 26018.1 -03516.3 -07.6968 26254.6
 11 12 2013  06 20  -21.0251 26018.1 -03516.3 -07.6968 26254.6
 11 12 2013  06 21  -21.0250 26018.1 -03516.3 -07.6967 26254.6
 11 12 2013  06 22  -21.0247 26018.0 -03516.2 -07.6966 26254.5
 11 12 2013  06 23  -21.0247 26017.9 -03516.2 -07.6966 26254.4
 11 12 2013  06 24  -21.0246 26017.9 -03516.2 -07.6967 26254.4
 11 12 2013  06 25  -21.0246 26017.8 -03516.2 -07.6966 26254.3
 11 12 2013  06 26  -21.0246 26017.7 -03516.2 -07.6966 26254.3
 11 12 2013  06 27  -21.0246 26017.6 -03516.1 -07.6965 26254.2
 11 12 2013  06 28  -21.0248 26017.6 -03516.1 -07.6966 26254.1
 11 12 2013  06 29  -21.0251 26017.6 -03516.2 -07.6967 26254.2
 11 12 2013  06 30  -21.0253 26017.6 -03516.2 -07.6967 26254.2
 11 12 2013  06 31  -21.0257 26017.7 -03516.2 -07.6967 26254.2
 11 12 2013  06 32  -21.0260 26017.6 -03516.2 -07.6968 26254.2
 11 12 2013  06 33  -21.0263 26017.7 -03516.2 -07.6967 26254.2
 11 12 2013  06 34  -21.0266 26017.6 -03516.2 -07.6967 26254.1
 11 12 2013  06 35  -21.0269 26017.6 -03516.2 -07.6968 26254.2
 11 12 2013  06 36  -21.0270 26017.6 -03516.2 -07.6967 26254.1
 11 12 2013  06 37  -21.0269 26017.6 -03516.2 -07.6967 26254.2
 11 12 2013  06 38  -21.0268 26017.5 -03516.1 -07.6966 26254.1
 11 12 2013  06 39  -21.0266 26017.5 -03516.1 -07.6966 26254.1
 11 12 2013  06 40  -21.0264 26017.5 -03516.1 -07.6966 26254.0
 11 12 2013  06 41  -21.0265 26017.5 -03516.2 -07.6966 26254.0
 11 12 2013  06 42  -21.0264 26017.6 -03516.2 -07.6968 26254.1
 11 12 2013  06 43  -21.0264 26017.5 -03516.2 -07.6968 26254.1
 11 12 2013  06 44  -21.0264 26017.6 -03516.2 -07.6968 26254.1
 11 12 2013  06 45  -21.0263 26017.6 -03516.3 -07.6969 26254.1
 11 12 2013  06 46  -21.0262 26017.7 -03516.3 -07.6969 26254.2
 11 12 2013  06 47  -21.0262 26017.6 -03516.3 -07.6969 26254.2
 11 12 2013  06 48  -21.0260 26017.6 -03516.3 -07.6968 26254.2
 11 12 2013  06 49  -21.0260 26017.7 -03516.3 -07.6969 26254.2
 11 12 2013  06 50  -21.0258 26017.7 -03516.4 -07.6971 26254.2
 11 12 2013  06 51  -21.0257 26017.7 -03516.4 -07.6972 26254.3
 11 12 2013  06 52  -21.0257 26017.8 -03516.5 -07.6973 26254.4
 11 12 2013  06 53  -21.0257 26017.9 -03516.5 -07.6973 26254.4
 11 12 2013  06 54  -21.0259 26018.0 -03516.6 -07.6975 26254.6
 11 12 2013  06 55  -21.0258 26018.0 -03516.6 -07.6975 26254.6
 11 12 2013  06 56  -21.0258 26018.1 -03516.7 -07.6976 26254.6
 11 12 2013  06 57  -21.0258 26018.1 -03516.7 -07.6976 26254.7
 11 12 2013  06 58  -21.0258 26018.2 -03516.7 -07.6977 26254.8
 11 12 2013  06 59  -21.0258 26018.2 -03516.7 -07.6977 26254.8
 11 12 2013  07 00  -21.0258 26018.3 -03516.8 -07.6977 26254.9
 11 12 2013  07 01  -21.0258 26018.4 -03516.8 -07.6977 26254.9
 11 12 2013  07 02  -21.0259 26018.5 -03516.9 -07.6980 26255.1
 11 12 2013  07 03  -21.0260 26018.6 -03516.9 -07.6980 26255.2
 11 12 2013  07 04  -21.0263 26018.5 -03516.9 -07.6980 26255.1
 11 12 2013  07 05  -21.0262 26018.6 -03517.0 -07.6981 26255.3
 11 12 2013  07 06  -21.0265 26018.8 -03517.0 -07.6981 26255.4
 11 12 2013  07 07  -21.0266 26018.9 -03517.1 -07.6983 26255.5
 11 12 2013  07 08  -21.0270 26018.8 -03517.0 -07.6982 26255.4
 11 12 2013  07 09  -21.0272 26018.9 -03517.1 -07.6982 26255.5
 11 12 2013  07 10  -21.0273 26019.0 -03517.1 -07.6982 26255.6
 11 12 2013  07 11  -21.0274 26019.2 -03517.1 -07.6983 26255.8
 11 12 2013  07 12  -21.0278 26019.1 -03517.1 -07.6981 26255.7
 11 12 2013  07 13  -21.0279 26019.4 -03517.1 -07.6982 26256.0
 11 12 2013  07 14  -21.0280 26019.5 -03517.2 -07.6984 26256.1
 11 12 2013  07 15  -21.0277 26019.5 -03517.2 -07.6983 26256.2
 11 12 2013  07 16  -21.0279 26019.4 -03517.1 -07.6982 26256.0
 11 12 2013  07 17  -21.0277 26019.5 -03517.2 -07.6982 26256.1
 11 12 2013  07 18  -21.0279 26019.5 -03517.2 -07.6982 26256.2
 11 12 2013  07 19  -21.0279 26019.7 -03517.2 -07.6982 26256.3
 11 12 2013  07 20  -21.0277 26019.7 -03517.2 -07.6983 26256.4
 11 12 2013  07 21  -21.0276 26019.8 -03517.3 -07.6983 26256.4
 11 12 2013  07 22  -21.0275 26019.8 -03517.3 -07.6984 26256.5
 11 12 2013  07 23  -21.0274 26019.8 -03517.2 -07.6982 26256.4
 11 12 2013  07 24  -21.0270 26019.8 -03517.2 -07.6982 26256.5
 11 12 2013  07 25  -21.0267 26019.8 -03517.2 -07.6981 26256.5
 11 12 2013  07 26  -21.0265 26019.9 -03517.2 -07.6982 26256.5
 11 12 2013  07 27  -21.0261 26019.8 -03517.2 -07.6981 26256.4
 11 12 2013  07 28  -21.0256 26019.7 -03517.1 -07.6981 26256.4
 11 12 2013  07 29  -21.0252 26019.7 -03517.1 -07.6979 26256.3
 11 12 2013  07 30  -21.0247 26019.7 -03517.1 -07.6980 26256.4
 11 12 2013  07 31  -21.0242 26019.7 -03517.2 -07.6982 26256.4
 11 12 2013  07 32  -21.0238 26019.8 -03517.2 -07.6983 26256.4
 11 12 2013  07 33  -21.0235 26019.8 -03517.2 -07.6983 26256.4
 11 12 2013  07 34  -21.0233 26019.8 -03517.3 -07.6984 26256.5
 11 12 2013  07 35  -21.0231 26019.8 -03517.3 -07.6985 26256.5
 11 12 2013  07 36  -21.0230 26019.8 -03517.4 -07.6985 26256.5
 11 12 2013  07 37  -21.0229 26020.0 -03517.4 -07.6986 26256.6
 11 12 2013  07 38  -21.0227 26019.9 -03517.4 -07.6987 26256.6
 11 12 2013  07 39  -21.0227 26019.9 -03517.5 -07.6987 26256.6
 11 12 2013  07 40  -21.0225 26020.0 -03517.5 -07.6988 26256.7
 11 12 2013  07 41  -21.0223 26020.0 -03517.5 -07.6988 26256.6
 11 12 2013  07 42  -21.0222 26020.0 -03517.5 -07.6989 26256.7
 11 12 2013  07 43  -21.0221 26020.0 -03517.6 -07.6990 26256.7
 11 12 2013  07 44  -21.0220 26020.0 -03517.6 -07.6990 26256.7
 11 12 2013  07 45  -21.0220 26020.1 -03517.6 -07.6991 26256.8
 11 12 2013  07 46  -21.0221 26020.1 -03517.7 -07.6991 26256.8
 11 12 2013  07 47  -21.0222 26020.1 -03517.7 -07.6991 26256.8
 11 12 2013  07 48  -21.0221 26020.1 -03517.6 -07.6991 26256.8
 11 12 2013  07 49  -21.0221 26020.0 -03517.6 -07.6991 26256.7
 11 12 2013  07 50  -21.0221 26020.0 -03517.6 -07.6990 26256.7
 11 12 2013  07 51  -21.0221 26020.0 -03517.6 -07.6991 26256.7
 11 12 2013  07 52  -21.0220 26020.0 -03517.6 -07.6991 26256.7
 11 12 2013  07 53  -21.0220 26020.0 -03517.6 -07.6990 26256.7
 11 12 2013  07 54  -21.0221 26020.0 -03517.6 -07.6991 26256.6
 11 12 2013  07 55  -21.0221 26020.0 -03517.6 -07.6990 26256.7
 11 12 2013  07 56  -21.0222 26019.9 -03517.6 -07.6990 26256.6
 11 12 2013  07 57  -21.0221 26019.9 -03517.6 -07.6990 26256.6
 11 12 2013  07 58  -21.0221 26020.0 -03517.6 -07.6990 26256.6
 11 12 2013  07 59  -21.0222 26019.9 -03517.5 -07.6989 26256.6
 11 12 2013  08 00  -21.0222 26020.0 -03517.5 -07.6989 26256.7
 11 12 2013  08 01  -21.0220 26019.9 -03517.5 -07.6989 26256.6
 11 12 2013  08 02  -21.0220 26019.9 -03517.5 -07.6988 26256.6
 11 12 2013  08 03  -21.0219 26020.0 -03517.5 -07.6988 26256.7
 11 12 2013  08 04  -21.0220 26020.0 -03517.4 -07.6987 26256.6
 11 12 2013  08 05  -21.0220 26020.0 -03517.4 -07.6987 26256.6
 11 12 2013  08 06  -21.0221 26020.0 -03517.4 -07.6986 26256.7
 11 12 2013  08 07  -21.0222 26020.1 -03517.4 -07.6986 26256.7
 11 12 2013  08 08  -21.0223 26020.1 -03517.4 -07.6986 26256.8
 11 12 2013  08 09  -21.0223 26020.1 -03517.4 -07.6985 26256.8
 11 12 2013  08 10  -21.0225 26020.2 -03517.4 -07.6985 26256.8
 11 12 2013  08 11  -21.0226 26020.2 -03517.3 -07.6984 26256.9
 11 12 2013  08 12  -21.0226 26020.3 -03517.3 -07.6983 26256.9
 11 12 2013  08 13  -21.0227 26020.2 -03517.2 -07.6982 26256.9
 11 12 2013  08 14  -21.0228 26020.2 -03517.2 -07.6981 26256.8
 11 12 2013  08 15  -21.0228 26020.3 -03517.2 -07.6981 26256.9
 11 12 2013  08 16  -21.0229 26020.3 -03517.1 -07.6980 26256.9
 11 12 2013  08 17  -21.0229 26020.4 -03517.1 -07.6978 26257.0
 11 12 2013  08 18  -21.0229 26020.4 -03517.1 -07.6978 26257.0
 11 12 2013  08 19  -21.0229 26020.4 -03517.1 -07.6978 26257.0
 11 12 2013  08 20  -21.0229 26020.5 -03517.0 -07.6977 26257.1
 11 12 2013  08 21  -21.0230 26020.5 -03517.0 -07.6976 26257.1
 11 12 2013  08 22  -21.0230 26020.5 -03516.9 -07.6974 26257.1
 11 12 2013  08 23  -21.0232 26020.5 -03516.8 -07.6972 26257.1
 11 12 2013  08 24  -21.0233 26020.5 -03516.8 -07.6971 26257.1
 11 12 2013  08 25  -21.0235 26020.5 -03516.8 -07.6971 26257.1
 11 12 2013  08 26  -21.0236 26020.4 -03516.7 -07.6969 26257.0
 11 12 2013  08 27  -21.0237 26020.4 -03516.5 -07.6966 26256.9
 11 12 2013  08 28  -21.0237 26020.3 -03516.5 -07.6965 26256.8
 11 12 2013  08 29  -21.0234 26020.2 -03516.4 -07.6963 26256.7
 11 12 2013  08 30  -21.0231 26020.1 -03516.2 -07.6961 26256.6
 11 12 2013  08 31  -21.0227 26020.1 -03516.2 -07.6959 26256.6
 11 12 2013  08 32  -21.0223 26020.0 -03516.1 -07.6959 26256.5
 11 12 2013  08 33  -21.0218 26020.0 -03516.2 -07.6959 26256.5
 11 12 2013  08 34  -21.0214 26020.0 -03516.2 -07.6960 26256.5
 11 12 2013  08 35  -21.0214 26020.1 -03516.3 -07.6962 26256.6
 11 12 2013  08 36  -21.0213 26020.2 -03516.4 -07.6963 26256.7
 11 12 2013  08 37  -21.0211 26020.3 -03516.4 -07.6964 26256.8
 11 12 2013  08 38  -21.0208 26020.3 -03516.5 -07.6965 26256.9
 11 12 2013  08 39  -21.0207 26020.4 -03516.6 -07.6967 26257.0
 11 12 2013  08 40  -21.0204 26020.5 -03516.7 -07.6969 26257.1
 11 12 2013  08 41  -21.0202 26020.6 -03516.7 -07.6969 26257.2
 11 12 2013  08 42  -21.0201 26020.7 -03516.8 -07.6971 26257.2
 11 12 2013  08 43  -21.0200 26020.7 -03516.8 -07.6971 26257.3
 11 12 2013  08 44  -21.0200 26020.7 -03516.8 -07.6971 26257.3
 11 12 2013  08 45  -21.0201 26020.7 -03516.8 -07.6972 26257.3
 11 12 2013  08 46  -21.0201 26020.6 -03516.8 -07.6971 26257.2
 11 12 2013  08 47  -21.0202 26020.7 -03516.8 -07.6971 26257.3
 11 12 2013  08 48  -21.0202 26020.6 -03516.8 -07.6971 26257.2
 11 12 2013  08 49  -21.0201 26020.5 -03516.7 -07.6970 26257.1
 11 12 2013  08 50  -21.0199 26020.4 -03516.6 -07.6969 26256.9
 11 12 2013  08 51  -21.0196 26020.2 -03516.6 -07.6968 26256.8
 11 12 2013  08 52  -21.0193 26020.0 -03516.5 -07.6966 26256.5
 11 12 2013  08 53  -21.0188 26019.8 -03516.5 -07.6967 26256.4
 11 12 2013  08 54  -21.0184 26019.7 -03516.5 -07.6967 26256.3
 11 12 2013  08 55  -21.0182 26019.7 -03516.6 -07.6968 26256.3
 11 12 2013  08 56  -21.0180 26019.8 -03516.7 -07.6971 26256.4
 11 12 2013  08 57  -21.0180 26019.9 -03516.7 -07.6972 26256.5
 11 12 2013  08 58  -21.0179 26020.1 -03516.8 -07.6974 26256.7
 11 12 2013  08 59  -21.0179 26020.2 -03517.0 -07.6977 26256.9
 11 12 2013  09 00  -21.0178 26020.4 -03517.1 -07.6979 26257.0
 11 12 2013  09 01  -21.0178 26020.6 -03517.2 -07.6981 26257.2
 11 12 2013  09 02  -21.0177 26020.7 -03517.3 -07.6982 26257.4
 11 12 2013  09 03  -21.0178 26020.8 -03517.4 -07.6984 26257.5
 11 12 2013  09 04  -21.0177 26021.0 -03517.5 -07.6985 26257.6
 11 12 2013  09 05  -21.0176 26021.1 -03517.6 -07.6986 26257.8
 11 12 2013  09 06  -21.0178 26021.3 -03517.6 -07.6987 26258.0
 11 12 2013  09 07  -21.0179 26021.5 -03517.7 -07.6988 26258.2
 11 12 2013  09 08  -21.0179 26021.6 -03517.7 -07.6988 26258.3
 11 12 2013  09 09  -21.0181 26021.7 -03517.7 -07.6988 26258.4
 11 12 2013  09 10  -21.0183 26021.9 -03517.8 -07.6989 26258.6
 11 12 2013  09 11  -21.0184 26022.0 -03517.9 -07.6991 26258.7
 11 12 2013  09 12  -21.0185 26022.0 -03518.0 -07.6992 26258.7
 11 12 2013  09 13  -21.0185 26022.0 -03518.0 -07.6992 26258.8
 11 12 2013  09 14  -21.0184 26022.1 -03518.0 -07.6993 26258.8
 11 12 2013  09 15  -21.0183 26022.0 -03518.0 -07.6993 26258.8
 11 12 2013  09 16  -21.0183 26022.1 -03518.1 -07.6994 26258.8
 11 12 2013  09 17  -21.0185 26022.2 -03517.9 -07.6990 26258.9
 11 12 2013  09 18  -21.0185 26022.3 -03518.1 -07.6994 26259.0
 11 12 2013  09 19  -21.0185 26022.3 -03518.2 -07.6997 26259.1
 11 12 2013  09 20  -21.0187 26022.4 -03518.3 -07.6999 26259.2
 11 12 2013  09 21  -21.0188 26022.5 -03518.4 -07.7000 26259.3
 11 12 2013  09 22  -21.0188 26022.6 -03518.4 -07.7001 26259.4
 11 12 2013  09 23  -21.0187 26022.6 -03518.4 -07.7001 26259.4
 11 12 2013  09 24  -21.0189 26022.7 -03518.5 -07.7002 26259.4
 11 12 2013  09 25  -21.0191 26022.9 -03518.6 -07.7004 26259.7
 11 12 2013  09 26  -21.0195 26022.9 -03518.7 -07.7005 26259.7
 11 12 2013  09 27  -21.0196 26023.0 -03518.8 -07.7007 26259.8
 11 12 2013  09 28  -21.0198 26023.0 -03518.8 -07.7007 26259.9
 11 12 2013  09 29  -21.0201 26023.2 -03518.9 -07.7009 26260.1
 11 12 2013  09 30  -21.0204 26023.2 -03518.9 -07.7009 26260.1
 11 12 2013  09 31  -21.0203 26023.2 -03518.9 -07.7010 26260.0
 11 12 2013  09 32  -21.0206 26023.2 -03518.9 -07.7010 26260.0
 11 12 2013  09 33  -21.0207 26023.3 -03519.0 -07.7011 26260.2
 11 12 2013  09 34  -21.0209 26023.5 -03519.1 -07.7012 26260.4
 11 12 2013  09 35  -21.0212 26023.6 -03519.2 -07.7013 26260.5
 11 12 2013  09 36  -21.0213 26023.7 -03519.2 -07.7014 26260.5
 11 12 2013  09 37  -21.0215 26023.8 -03519.3 -07.7015 26260.7
 11 12 2013  09 38  -21.0218 26023.9 -03519.3 -07.7015 26260.8
 11 12 2013  09 39  -21.0219 26024.0 -03519.3 -07.7015 26260.8
 11 12 2013  09 40  -21.0224 26024.2 -03519.3 -07.7016 26261.1
 11 12 2013  09 41  -21.0224 26024.3 -03519.4 -07.7016 26261.1
 11 12 2013  09 42  -21.0231 26024.6 -03519.5 -07.7017 26261.5
 11 12 2013  09 43  -21.0233 26024.9 -03519.6 -07.7019 26261.8
 11 12 2013  09 44  -21.0235 26024.9 -03519.5 -07.7018 26261.8
 11 12 2013  09 45  -21.0237 26025.0 -03519.5 -07.7017 26261.9
 11 12 2013  09 46  -21.0243 26025.2 -03519.6 -07.7018 26262.1
 11 12 2013  09 47  -21.0245 26025.2 -03519.6 -07.7018 26262.2
 11 12 2013  09 48  -21.0251 26025.5 -03519.6 -07.7018 26262.4
 11 12 2013  09 49  -21.0253 26025.7 -03519.7 -07.7018 26262.6
 11 12 2013  09 50  -21.0253 26025.8 -03519.7 -07.7018 26262.7
 11 12 2013  09 51  -21.0253 26025.8 -03519.6 -07.7017 26262.7
 11 12 2013  09 52  -21.0257 26026.0 -03519.7 -07.7018 26262.9
 11 12 2013  09 53  -21.0258 26026.2 -03519.7 -07.7018 26263.2
 11 12 2013  09 54  -21.0258 26026.3 -03519.7 -07.7018 26263.2
 11 12 2013  09 55  -21.0258 26026.4 -03519.8 -07.7018 26263.4
 11 12 2013  09 56  -21.0259 26026.7 -03519.9 -07.7020 26263.6
 11 12 2013  09 57  -21.0259 26026.8 -03519.9 -07.7019 26263.7
 11 12 2013  09 58  -21.0260 26027.0 -03519.9 -07.7020 26263.9
 11 12 2013  09 59  -21.0260 26027.1 -03519.9 -07.7020 26264.0
 11 12 2013  10 00  -21.0260 26027.3 -03520.0 -07.7021 26264.3
 11 12 2013  10 01  -21.0261 26027.6 -03520.1 -07.7022 26264.5
 11 12 2013  10 02  -21.0263 26027.8 -03520.1 -07.7022 26264.8
 11 12 2013  10 03  -21.0264 26028.0 -03520.1 -07.7022 26265.0
 11 12 2013  10 04  -21.0267 26028.2 -03520.2 -07.7022 26265.2
 11 12 2013  10 05  -21.0270 26028.4 -03520.2 -07.7021 26265.3
 11 12 2013  10 06  -21.0271 26028.5 -03520.1 -07.7020 26265.5
 11 12 2013  10 07  -21.0271 26028.7 -03520.1 -07.7019 26265.6
 11 12 2013  10 08  -21.0269 26028.7 -03520.0 -07.7017 26265.6
 11 12 2013  10 09  -21.0268 26028.7 -03520.0 -07.7016 26265.6
 11 12 2013  10 10  -21.0268 26028.7 -03519.9 -07.7015 26265.6
 11 12 2013  10 11  -21.0264 26028.5 -03519.8 -07.7014 26265.4
 11 12 2013  10 12  -21.0287 26028.3 -03519.8 -07.7013 26265.2
 11 12 2013  10 13  -21.0295 26028.3 -03519.8 -07.7014 26265.2
 11 12 2013  10 14  -21.0294 26028.3 -03519.9 -07.7016 26265.2
 11 12 2013  10 15  -21.0296 26028.6 -03520.1 -07.7018 26265.5
 11 12 2013  10 16  -21.0276 26028.6 -03520.1 -07.7018 26265.5
 11 12 2013  10 17  -21.0259 26028.5 -03520.0 -07.7017 26265.4
 11 12 2013  10 18  -21.0257 26028.5 -03520.0 -07.7017 26265.4
 11 12 2013  10 19  -21.0254 26028.4 -03520.0 -07.7017 26265.3
 11 12 2013  10 20  -21.0255 26028.6 -03520.1 -07.7020 26265.6
 11 12 2013  10 21  -21.0255 26028.7 -03520.2 -07.7020 26265.7
 11 12 2013  10 22  -21.0254 26028.8 -03520.2 -07.7021 26265.8
 11 12 2013  10 23  -21.0253 26028.9 -03520.3 -07.7022 26265.9
 11 12 2013  10 24  -21.0253 26029.2 -03520.4 -07.7023 26266.2
 11 12 2013  10 25  -21.0254 26029.5 -03520.5 -07.7025 26266.5
 11 12 2013  10 26  -21.0254 26029.8 -03520.5 -07.7025 26266.8
 11 12 2013  10 27  -21.0254 26030.0 -03520.6 -07.7026 26267.0
 11 12 2013  10 28  -21.0257 26030.3 -03520.7 -07.7027 26267.4
 11 12 2013  10 29  -21.0257 26030.5 -03520.7 -07.7027 26267.5
 11 12 2013  10 30  -21.0256 26030.7 -03520.7 -07.7026 26267.7
 11 12 2013  10 31  -21.0254 26030.7 -03520.7 -07.7026 26267.7
 11 12 2013  10 32  -21.0251 26030.7 -03520.7 -07.7026 26267.7
 11 12 2013  10 33  -21.0252 26030.8 -03520.7 -07.7026 26267.8
 11 12 2013  10 34  -21.0250 26031.0 -03520.8 -07.7028 26268.1
 11 12 2013  10 35  -21.0249 26031.3 -03520.9 -07.7029 26268.4
 11 12 2013  10 36  -21.0249 26031.6 -03521.0 -07.7030 26268.7
 11 12 2013  10 37  -21.0248 26032.1 -03521.1 -07.7031 26269.1
 11 12 2013  10 38  -21.0246 26032.4 -03521.1 -07.7030 26269.4
 11 12 2013  10 39  -21.0242 26032.5 -03521.1 -07.7029 26269.5
 11 12 2013  10 40  -21.0237 26032.7 -03521.1 -07.7030 26269.7
 11 12 2013  10 41  -21.0237 26032.9 -03521.2 -07.7031 26269.9
 11 12 2013  10 42  -21.0237 26033.3 -03521.4 -07.7034 26270.4
 11 12 2013  10 43  -21.0234 26033.5 -03521.4 -07.7034 26270.6
 11 12 2013  10 44  -21.0233 26033.7 -03521.6 -07.7036 26270.8
 11 12 2013  10 45  -21.0225 26033.6 -03521.6 -07.7036 26270.7
 11 12 2013  10 46  -21.0218 26033.7 -03521.5 -07.7036 26270.7
 11 12 2013  10 47  -21.0218 26033.9 -03521.8 -07.7040 26271.1
 11 12 2013  10 48  -21.0217 26034.1 -03522.0 -07.7044 26271.3
 11 12 2013  10 49  -21.0219 26034.5 -03522.2 -07.7047 26271.7
 11 12 2013  10 50  -21.0221 26035.0 -03522.4 -07.7050 26272.2
 11 12 2013  10 51  -21.0221 26035.3 -03522.5 -07.7051 26272.6
 11 12 2013  10 52  -21.0219 26035.5 -03522.5 -07.7051 26272.7
 11 12 2013  10 53  -21.0217 26035.6 -03522.5 -07.7051 26272.8
 11 12 2013  10 54  -21.0214 26035.7 -03522.6 -07.7051 26273.0
 11 12 2013  10 55  -21.0207 26035.8 -03522.5 -07.7051 26273.0
 11 12 2013  10 56  -21.0206 26036.1 -03522.6 -07.7052 26273.3
 11 12 2013  10 57  -21.0204 26036.3 -03522.7 -07.7054 26273.5
 11 12 2013  10 58  -21.0204 26036.4 -03522.8 -07.7055 26273.6
 11 12 2013  10 59  -21.0205 26036.6 -03523.0 -07.7057 26273.9
 11 12 2013  11 00  -21.0200 26036.6 -03523.0 -07.7058 26273.9
 11 12 2013  11 01  -21.0196 26036.8 -03523.1 -07.7061 26274.1
 11 12 2013  11 02  -21.0191 26037.1 -03523.3 -07.7064 26274.4
 11 12 2013  11 03  -21.0192 26037.6 -03523.5 -07.7067 26274.9
 11 12 2013  11 04  -21.0192 26037.9 -03523.7 -07.7069 26275.3
 11 12 2013  11 05  -21.0191 26038.3 -03523.8 -07.7070 26275.7
 11 12 2013  11 06  -21.0192 26038.6 -03523.8 -07.7070 26276.0
 11 12 2013  11 07  -21.0192 26038.9 -03523.9 -07.7071 26276.3
 11 12 2013  11 08  -21.0191 26039.1 -03523.8 -07.7069 26276.5
 11 12 2013  11 09  -21.0192 26039.2 -03523.8 -07.7068 26276.6
 11 12 2013  11 10  -21.0193 26039.4 -03523.8 -07.7068 26276.8
 11 12 2013  11 11  -21.0196 26039.4 -03523.7 -07.7067 26276.7
 11 12 2013  11 12  -21.0198 26039.4 -03523.7 -07.7066 26276.8
 11 12 2013  11 13  -21.0196 26039.4 -03523.7 -07.7065 26276.7
 11 12 2013  11 14  -21.0196 26039.7 -03523.8 -07.7066 26277.0
 11 12 2013  11 15  -21.0196 26039.9 -03523.8 -07.7066 26277.3
 11 12 2013  11 16  -21.0197 26040.2 -03523.9 -07.7067 26277.5
 11 12 2013  11 17  -21.0193 26040.2 -03523.8 -07.7065 26277.5
 11 12 2013  11 18  -21.0191 26040.2 -03523.7 -07.7063 26277.5
 11 12 2013  11 19  -21.0188 26040.4 -03523.7 -07.7062 26277.8
 11 12 2013  11 20  -21.0188 26040.7 -03523.7 -07.7062 26278.0
 11 12 2013  11 21  -21.0187 26041.2 -03523.8 -07.7063 26278.5
 11 12 2013  11 22  -21.0181 26041.5 -03523.8 -07.7062 26278.9
 11 12 2013  11 23  -21.0181 26041.6 -03523.7 -07.7060 26278.9
 11 12 2013  11 24  -21.0180 26041.8 -03523.7 -07.7058 26279.1
 11 12 2013  11 25  -21.0175 26042.0 -03523.7 -07.7058 26279.3
 11 12 2013  11 26  -21.0172 26042.2 -03523.7 -07.7057 26279.5
 11 12 2013  11 27  -21.0167 26042.3 -03523.6 -07.7054 26279.6
 11 12 2013  11 28  -21.0162 26042.2 -03523.5 -07.7053 26279.5
 11 12 2013  11 29  -21.0160 26042.4 -03523.5 -07.7053 26279.7
 11 12 2013  11 30  -21.0161 26042.7 -03523.6 -07.7053 26280.0
 11 12 2013  11 31  -21.0163 26043.4 -03523.8 -07.7055 26280.7
 11 12 2013  11 32  -21.0156 26043.5 -03523.6 -07.7051 26280.8
 11 12 2013  11 33  -21.0151 26043.7 -03523.4 -07.7046 26281.0
 11 12 2013  11 34  -21.0147 26043.5 -03523.2 -07.7042 26280.8
 11 12 2013  11 35  -21.0151 26043.6 -03523.1 -07.7041 26280.8
 11 12 2013  11 36  -21.0152 26043.6 -03523.1 -07.7040 26280.9
 11 12 2013  11 37  -21.0150 26043.5 -03523.0 -07.7038 26280.7
 11 12 2013  11 38  -21.0148 26043.5 -03522.9 -07.7036 26280.7
 11 12 2013  11 39  -21.0145 26043.7 -03522.9 -07.7036 26280.9
 11 12 2013  11 40  -21.0142 26044.0 -03522.9 -07.7036 26281.2
 11 12 2013  11 41  -21.0136 26044.3 -03522.9 -07.7034 26281.5
 11 12 2013  11 42  -21.0133 26044.7 -03522.9 -07.7033 26281.8
 11 12 2013  11 43  -21.0127 26045.3 -03522.9 -07.7032 26282.4
 11 12 2013  11 44  -21.0119 26045.8 -03522.9 -07.7030 26283.0
 11 12 2013  11 45  -21.0109 26046.0 -03522.7 -07.7024 26283.2
 11 12 2013  11 46  -21.0096 26045.6 -03522.3 -07.7016 26282.7
 11 12 2013  11 47  -21.0095 26045.6 -03522.1 -07.7013 26282.6
 11 12 2013  11 48  -21.0103 26046.0 -03522.2 -07.7014 26283.0
 11 12 2013  11 49  -21.0110 26046.4 -03522.3 -07.7014 26283.4
 11 12 2013  11 50  -21.0117 26046.9 -03522.3 -07.7013 26284.0
 11 12 2013  11 51  -21.0125 26048.1 -03522.6 -07.7016 26285.2
 11 12 2013  11 52  -21.0121 26049.1 -03522.7 -07.7015 26286.2
 11 12 2013  11 53  -21.0114 26049.9 -03522.6 -07.7010 26287.0
 11 12 2013  11 54  -21.0106 26050.9 -03522.4 -07.7004 26288.0
 11 12 2013  11 55  -21.0103 26051.8 -03522.3 -07.6998 26288.8
 11 12 2013  11 56  -21.0099 26052.1 -03521.8 -07.6988 26289.1
 11 12 2013  11 57  -21.0093 26051.7 -03521.1 -07.6974 26288.6
 11 12 2013  11 58  -21.0079 26051.0 -03520.4 -07.6961 26287.8
 11 12 2013  11 59  -21.0070 26050.3 -03519.9 -07.6951 26287.0
 11 12 2013  12 00  -21.0061 26049.4 -03519.5 -07.6944 26286.1
 11 12 2013  12 01  -21.0060 26049.1 -03519.3 -07.6943 26285.8
 11 12 2013  12 02  -21.0068 26049.8 -03519.7 -07.6949 26286.5
 11 12 2013  12 03  -21.0075 26050.5 -03520.0 -07.6953 26287.2
 11 12 2013  12 04  -21.0082 26050.8 -03520.0 -07.6953 26287.6
 11 12 2013  12 05  -21.0083 26051.1 -03520.0 -07.6950 26287.8
 11 12 2013  12 06  -21.0078 26051.0 -03519.7 -07.6946 26287.7
 11 12 2013  12 07  -21.0071 26050.8 -03519.5 -07.6941 26287.5
 11 12 2013  12 08  -21.0065 26050.5 -03519.3 -07.6937 26287.2
 11 12 2013  12 09  -21.0059 26050.2 -03519.0 -07.6933 26286.9
 11 12 2013  12 10  -21.0059 26049.9 -03518.8 -07.6928 26286.5
 11 12 2013  12 11  -21.0061 26049.9 -03518.7 -07.6927 26286.5
 11 12 2013  12 12  -21.0058 26050.0 -03518.7 -07.6927 26286.6
 11 12 2013  12 13  -21.0054 26049.9 -03518.5 -07.6923 26286.5
 11 12 2013  12 14  -21.0044 26049.6 -03518.4 -07.6920 26286.2
 11 12 2013  12 15  -21.0030 26049.7 -03518.5 -07.6922 26286.2
 11 12 2013  12 16  -21.0031 26050.0 -03518.5 -07.6923 26286.5
 11 12 2013  12 17  -21.0028 26050.2 -03518.5 -07.6922 26286.7
 11 12 2013  12 18  -21.0026 26050.4 -03518.5 -07.6920 26287.0
 11 12 2013  12 19  -21.0023 26050.7 -03518.4 -07.6917 26287.2
 11 12 2013  12 20  -21.0019 26050.9 -03518.2 -07.6913 26287.3
 11 12 2013  12 21  -21.0015 26050.9 -03518.0 -07.6909 26287.4
 11 12 2013  12 22  -21.0012 26051.0 -03517.8 -07.6905 26287.4
 11 12 2013  12 23  -21.0008 26051.5 -03517.8 -07.6903 26287.9
 11 12 2013  12 24  -21.0006 26051.7 -03517.7 -07.6900 26288.1
 11 12 2013  12 25  -21.0003 26051.9 -03517.5 -07.6895 26288.2
 11 12 2013  12 26  -20.9998 26052.2 -03517.4 -07.6891 26288.6
 11 12 2013  12 27  -20.9992 26052.5 -03517.2 -07.6886 26288.9
 11 12 2013  12 28  -20.9988 26052.9 -03517.0 -07.6882 26289.2
 11 12 2013  12 29  -20.9985 26053.1 -03516.9 -07.6877 26289.4
 11 12 2013  12 30  -20.9982 26053.5 -03516.7 -07.6872 26289.8
 11 12 2013  12 31  -20.9978 26053.8 -03516.5 -07.6868 26290.1
 11 12 2013  12 32  -20.9972 26053.9 -03516.2 -07.6862 26290.2
 11 12 2013  12 33  -20.9966 26054.2 -03516.0 -07.6857 26290.3
 11 12 2013  12 34  -20.9961 26054.2 -03515.8 -07.6851 26290.3
 11 12 2013  12 35  -20.9957 26054.2 -03515.5 -07.6846 26290.3
 11 12 2013  12 36  -20.9953 26054.5 -03515.4 -07.6843 26290.6
 11 12 2013  12 37  -20.9947 26055.0 -03515.4 -07.6841 26291.1
 11 12 2013  12 38  -20.9941 26054.8 -03515.1 -07.6834 26290.8
 11 12 2013  12 39  -20.9933 26054.9 -03514.9 -07.6830 26290.9
 11 12 2013  12 40  -20.9925 26055.2 -03514.9 -07.6828 26291.2
 11 12 2013  12 41  -20.9919 26055.6 -03514.8 -07.6826 26291.6
 11 12 2013  12 42  -20.9912 26055.5 -03514.6 -07.6823 26291.5
 11 12 2013  12 43  -20.9907 26056.2 -03514.8 -07.6823 26292.2
 11 12 2013  12 44  -20.9905 26056.4 -03514.6 -07.6820 26292.3
 11 12 2013  12 45  -20.9897 26056.7 -03514.6 -07.6818 26292.6
 11 12 2013  12 46  -20.9895 26057.0 -03514.6 -07.6817 26292.9
 11 12 2013  12 47  -20.9890 26057.2 -03514.4 -07.6812 26293.1
 11 12 2013  12 48  -20.9885 26057.8 -03514.4 -07.6810 26293.7
 11 12 2013  12 49  -20.9883 26058.0 -03514.2 -07.6806 26293.9
 11 12 2013  12 50  -20.9878 26057.8 -03513.9 -07.6801 26293.6
 11 12 2013  12 51  -20.9864 26057.4 -03513.6 -07.6795 26293.2
 11 12 2013  12 52  -20.9856 26057.0 -03513.4 -07.6791 26292.8
 11 12 2013  12 53  -20.9852 26057.2 -03513.4 -07.6791 26293.0
 11 12 2013  12 54  -20.9846 26057.6 -03513.5 -07.6792 26293.4
 11 12 2013  12 55  -20.9844 26057.1 -03513.2 -07.6787 26292.9
 11 12 2013  12 56  -20.9834 26057.2 -03513.2 -07.6787 26293.0
 11 12 2013  12 57  -20.9832 26056.9 -03513.2 -07.6787 26292.7
 11 12 2013  12 58  -20.9826 26056.1 -03512.9 -07.6784 26291.8
 11 12 2013  12 59  -20.9815 26055.4 -03512.8 -07.6782 26291.2
 11 12 2013  13 00  -20.9812 26055.0 -03512.9 -07.6786 26290.8
 11 12 2013  13 01  -20.9803 26055.0 -03513.0 -07.6789 26290.7
 11 12 2013  13 02  -20.9798 26054.8 -03513.1 -07.6791 26290.6
 11 12 2013  13 03  -20.9798 26054.0 -03513.0 -07.6791 26289.8
 11 12 2013  13 04  -20.9790 26053.6 -03513.0 -07.6793 26289.4
 11 12 2013  13 05  -20.9788 26053.4 -03513.2 -07.6797 26289.2
 11 12 2013  13 06  -20.9783 26053.2 -03513.3 -07.6800 26289.0
 11 12 2013  13 07  -20.9783 26053.1 -03513.5 -07.6805 26288.9
 11 12 2013  13 08  -20.9781 26052.8 -03513.6 -07.6808 26288.7
 11 12 2013  13 09  -20.9778 26052.6 -03513.7 -07.6811 26288.5
 11 12 2013  13 10  -20.9778 26052.7 -03513.9 -07.6816 26288.7
 11 12 2013  13 11  -20.9776 26053.1 -03514.2 -07.6820 26289.1
 11 12 2013  13 12  -20.9775 26053.5 -03514.4 -07.6824 26289.5
 11 12 2013  13 13  -20.9775 26054.1 -03514.7 -07.6828 26290.1
 11 12 2013  13 14  -20.9773 26054.5 -03514.7 -07.6827 26290.5
 11 12 2013  13 15  -20.9773 26054.8 -03514.8 -07.6827 26290.8
 11 12 2013  13 16  -20.9771 26055.1 -03514.8 -07.6826 26291.1
 11 12 2013  13 17  -20.9765 26055.3 -03514.7 -07.6824 26291.3
 11 12 2013  13 18  -20.9763 26055.4 -03514.6 -07.6823 26291.4
 11 12 2013  13 19  -20.9763 26055.7 -03514.7 -07.6823 26291.7
 11 12 2013  13 20  -20.9760 26056.0 -03514.7 -07.6822 26292.0
 11 12 2013  13 21  -20.9756 26056.0 -03514.5 -07.6819 26291.9
 11 12 2013  13 22  -20.9752 26056.2 -03514.5 -07.6818 26292.1
 11 12 2013  13 23  -20.9745 26056.3 -03514.5 -07.6818 26292.3
 11 12 2013  13 24  -20.9744 26056.4 -03514.5 -07.6817 26292.4
 11 12 2013  13 25  -20.9741 26056.7 -03514.5 -07.6817 26292.6
 11 12 2013  13 26  -20.9740 26056.7 -03514.5 -07.6816 26292.6
 11 12 2013  13 27  -20.9739 26056.8 -03514.5 -07.6815 26292.8
 11 12 2013  13 28  -20.9736 26056.9 -03514.4 -07.6814 26292.9
 11 12 2013  13 29  -20.9733 26057.1 -03514.5 -07.6814 26293.1
 11 12 2013  13 30  -20.9728 26057.3 -03514.4 -07.6813 26293.2
 11 12 2013  13 31  -20.9724 26057.1 -03514.3 -07.6811 26293.1
 11 12 2013  13 32  -20.9724 26057.5 -03514.5 -07.6813 26293.4
 11 12 2013  13 33  -20.9722 26057.6 -03514.5 -07.6813 26293.6
 11 12 2013  13 34  -20.9718 26057.6 -03514.4 -07.6811 26293.6
 11 12 2013  13 35  -20.9715 26057.8 -03514.4 -07.6811 26293.8
 11 12 2013  13 36  -20.9716 26058.1 -03514.5 -07.6812 26294.0
 11 12 2013  13 37  -20.9716 26058.5 -03514.6 -07.6813 26294.4
 11 12 2013  13 38  -20.9717 26058.7 -03514.6 -07.6813 26294.7
 11 12 2013  13 39  -20.9711 26058.7 -03514.5 -07.6811 26294.7
 11 12 2013  13 40  -20.9706 26058.7 -03514.5 -07.6810 26294.7
 11 12 2013  13 41  -20.9702 26058.7 -03514.5 -07.6810 26294.7
 11 12 2013  13 42  -20.9699 26058.8 -03514.5 -07.6810 26294.7
 11 12 2013  13 43  -20.9695 26059.0 -03514.6 -07.6812 26294.9
 11 12 2013  13 44  -20.9690 26059.2 -03514.7 -07.6813 26295.1
 11 12 2013  13 45  -20.9687 26059.4 -03514.8 -07.6815 26295.4
 11 12 2013  13 46  -20.9683 26059.6 -03514.9 -07.6816 26295.6
 11 12 2013  13 47  -20.9681 26059.7 -03514.9 -07.6817 26295.7
 11 12 2013  13 48  -20.9680 26059.8 -03515.0 -07.6818 26295.8
 11 12 2013  13 49  -20.9678 26059.8 -03515.0 -07.6818 26295.8
 11 12 2013  13 50  -20.9676 26059.9 -03515.1 -07.6820 26295.9
 11 12 2013  13 51  -20.9675 26060.0 -03515.2 -07.6821 26296.0
 11 12 2013  13 52  -20.9676 26060.1 -03515.3 -07.6823 26296.1
 11 12 2013  13 53  -20.9675 26060.1 -03515.3 -07.6824 26296.2
 11 12 2013  13 54  -20.9675 26060.1 -03515.4 -07.6825 26296.1
 11 12 2013  13 55  -20.9675 26060.1 -03515.4 -07.6826 26296.1
 11 12 2013  13 56  -20.9671 26060.1 -03515.5 -07.6827 26296.2
 11 12 2013  13 57  -20.9670 26060.3 -03515.6 -07.6829 26296.3
 11 12 2013  13 58  -20.9671 26060.4 -03515.7 -07.6831 26296.5
 11 12 2013  13 59  -20.9672 26060.5 -03515.7 -07.6832 26296.6
 11 12 2013  14 00  -20.9674 26060.9 -03515.9 -07.6834 26297.0
 11 12 2013  14 01  -20.9678 26061.1 -03515.9 -07.6834 26297.2
 11 12 2013  14 02  -20.9680 26061.1 -03515.8 -07.6832 26297.2
 11 12 2013  14 03  -20.9682 26061.0 -03515.8 -07.6831 26297.1
 11 12 2013  14 04  -20.9681 26061.0 -03515.8 -07.6831 26297.1
 11 12 2013  14 05  -20.9682 26061.0 -03515.7 -07.6830 26297.0
 11 12 2013  14 06  -20.9681 26061.2 -03515.8 -07.6832 26297.3
 11 12 2013  14 07  -20.9678 26061.0 -03515.7 -07.6830 26297.1
 11 12 2013  14 08  -20.9678 26061.0 -03515.7 -07.6830 26297.0
 11 12 2013  14 09  -20.9680 26061.0 -03515.8 -07.6831 26297.0
 11 12 2013  14 10  -20.9681 26060.7 -03515.7 -07.6830 26296.8
 11 12 2013  14 11  -20.9681 26060.7 -03515.8 -07.6832 26296.8
 11 12 2013  14 12  -20.9680 26060.5 -03515.7 -07.6832 26296.5
 11 12 2013  14 13  -20.9678 26060.3 -03515.8 -07.6833 26296.4
 11 12 2013  14 14  -20.9684 26060.5 -03516.0 -07.6837 26296.6
 11 12 2013  14 15  -20.9687 26060.4 -03515.9 -07.6837 26296.5
 11 12 2013  14 16  -20.9691 26060.0 -03515.8 -07.6836 26296.1
 11 12 2013  14 17  -20.9698 26059.5 -03515.8 -07.6836 26295.6
 11 12 2013  14 18  -20.9701 26058.8 -03515.6 -07.6835 26294.9
 11 12 2013  14 19  -20.9701 26058.4 -03515.7 -07.6838 26294.5
 11 12 2013  14 20  -20.9703 26058.6 -03516.0 -07.6843 26294.7
 11 12 2013  14 21  -20.9708 26058.9 -03516.3 -07.6849 26295.1
 11 12 2013  14 22  -20.9713 26059.1 -03516.5 -07.6852 26295.3
 11 12 2013  14 23  -20.9715 26059.6 -03516.8 -07.6857 26295.8
 11 12 2013  14 24  -20.9717 26060.0 -03516.9 -07.6859 26296.3
 11 12 2013  14 25  -20.9719 26060.3 -03517.0 -07.6860 26296.5
 11 12 2013  14 26  -20.9721 26060.5 -03517.1 -07.6861 26296.8
 11 12 2013  14 27  -20.9724 26061.1 -03517.2 -07.6863 26297.3
 11 12 2013  14 28  -20.9726 26061.5 -03517.3 -07.6863 26297.7
 11 12 2013  14 29  -20.9728 26061.9 -03517.4 -07.6864 26298.2
 11 12 2013  14 30  -20.9732 26062.3 -03517.5 -07.6865 26298.6
 11 12 2013  14 31  -20.9736 26062.8 -03517.6 -07.6866 26299.2
 11 12 2013  14 32  -20.9738 26063.2 -03517.6 -07.6863 26299.5
 11 12 2013  14 33  -20.9738 26063.4 -03517.5 -07.6861 26299.6
 11 12 2013  14 34  -20.9738 26063.3 -03517.3 -07.6857 26299.5
 11 12 2013  14 35  -20.9743 26063.5 -03517.4 -07.6858 26299.8
 11 12 2013  14 36  -20.9749 26063.7 -03517.4 -07.6860 26300.0
 11 12 2013  14 37  -20.9751 26063.9 -03517.5 -07.6859 26300.2
 11 12 2013  14 38  -20.9752 26064.4 -03517.6 -07.6860 26300.7
 11 12 2013  14 39  -20.9754 26064.8 -03517.6 -07.6860 26301.1
 11 12 2013  14 40  -20.9757 26065.4 -03517.7 -07.6860 26301.7
 11 12 2013  14 41  -20.9759 26065.6 -03517.7 -07.6858 26301.8
 11 12 2013  14 42  -20.9764 26065.8 -03517.6 -07.6857 26302.0
 11 12 2013  14 43  -20.9769 26066.1 -03517.7 -07.6857 26302.4
 11 12 2013  14 44  -20.9773 26066.4 -03517.6 -07.6856 26302.7
 11 12 2013  14 45  -20.9774 26066.6 -03517.6 -07.6855 26302.8
 11 12 2013  14 46  -20.9779 26066.7 -03517.5 -07.6853 26303.0
 11 12 2013  14 47  -20.9786 26066.8 -03517.5 -07.6851 26303.1
 11 12 2013  14 48  -20.9796 26067.1 -03517.5 -07.6850 26303.3
 11 12 2013  14 49  -20.9804 26067.0 -03517.4 -07.6848 26303.3
 11 12 2013  14 50  -20.9807 26066.9 -03517.1 -07.6842 26303.1
 11 12 2013  14 51  -20.9814 26066.9 -03517.0 -07.6840 26303.0
 11 12 2013  14 52  -20.9820 26066.9 -03516.9 -07.6838 26303.0
 11 12 2013  14 53  -20.9828 26066.9 -03516.7 -07.6835 26303.1
 11 12 2013  14 54  -20.9836 26067.0 -03516.7 -07.6834 26303.2
 11 12 2013  14 55  -20.9845 26067.1 -03516.6 -07.6831 26303.2
 11 12 2013  14 56  -20.9855 26067.1 -03516.5 -07.6830 26303.3
 11 12 2013  14 57  -20.9865 26067.3 -03516.5 -07.6828 26303.5
 11 12 2013  14 58  -20.9876 26067.5 -03516.3 -07.6824 26303.6
 11 12 2013  14 59  -20.9885 26067.6 -03516.2 -07.6821 26303.7
 11 12 2013  15 00  -20.9889 26067.5 -03515.9 -07.6816 26303.5
 11 12 2013  15 01  -20.9893 26067.3 -03515.7 -07.6810 26303.3
 11 12 2013  15 02  -20.9903 26067.1 -03515.4 -07.6806 26303.1
 11 12 2013  15 03  -20.9916 26067.1 -03515.3 -07.6803 26303.1
 11 12 2013  15 04  -20.9928 26067.3 -03515.2 -07.6800 26303.2
 11 12 2013  15 05  -20.9940 26067.3 -03515.1 -07.6797 26303.2
 11 12 2013  15 06  -20.9955 26067.5 -03515.0 -07.6795 26303.4
 11 12 2013  15 07  -20.9964 26067.5 -03514.7 -07.6790 26303.4
 11 12 2013  15 08  -20.9973 26067.5 -03514.4 -07.6783 26303.3
 11 12 2013  15 09  -20.9982 26067.4 -03514.1 -07.6777 26303.2
 11 12 2013  15 10  -20.9992 26067.1 -03513.8 -07.6770 26302.8
 11 12 2013  15 11  -21.0000 26066.9 -03513.5 -07.6764 26302.6
 11 12 2013  15 12  -21.0010 26067.0 -03513.3 -07.6760 26302.7
 11 12 2013  15 13  -21.0016 26067.0 -03513.1 -07.6756 26302.7
 11 12 2013  15 14  -21.0024 26067.2 -03513.0 -07.6754 26302.8
 11 12 2013  15 15  -21.0036 26067.4 -03512.9 -07.6751 26303.0
 11 12 2013  15 16  -21.0048 26067.7 -03512.8 -07.6748 26303.3
 11 12 2013  15 17  -21.0057 26068.1 -03512.7 -07.6743 26303.7
 11 12 2013  15 18  -21.0064 26068.1 -03512.3 -07.6736 26303.6
 11 12 2013  15 19  -21.0071 26068.0 -03512.0 -07.6730 26303.6
 11 12 2013  15 20  -21.0081 26068.2 -03511.8 -07.6724 26303.7
 11 12 2013  15 21  -21.0091 26068.2 -03511.5 -07.6718 26303.7
 11 12 2013  15 22  -21.0102 26068.2 -03511.2 -07.6711 26303.6
 11 12 2013  15 23  -21.0113 26068.3 -03511.0 -07.6706 26303.7
 11 12 2013  15 24  -21.0122 26068.1 -03510.6 -07.6699 26303.4
 11 12 2013  15 25  -21.0131 26068.0 -03510.3 -07.6693 26303.3
 11 12 2013  15 26  -21.0137 26067.9 -03510.0 -07.6687 26303.1
 11 12 2013  15 27  -21.0143 26067.6 -03509.6 -07.6680 26302.8
 11 12 2013  15 28  -21.0150 26067.3 -03509.3 -07.6674 26302.4
 11 12 2013  15 29  -21.0155 26067.0 -03509.0 -07.6668 26302.1
 11 12 2013  15 30  -21.0160 26066.7 -03508.8 -07.6663 26301.8
 11 12 2013  15 31  -21.0169 26066.6 -03508.6 -07.6660 26301.7
 11 12 2013  15 32  -21.0174 26066.2 -03508.2 -07.6653 26301.2
 11 12 2013  15 33  -21.0178 26065.9 -03508.0 -07.6649 26300.9
 11 12 2013  15 34  -21.0184 26065.7 -03507.8 -07.6645 26300.7
 11 12 2013  15 35  -21.0189 26065.5 -03507.6 -07.6641 26300.5
 11 12 2013  15 36  -21.0194 26065.3 -03507.3 -07.6637 26300.2
 11 12 2013  15 37  -21.0201 26065.1 -03507.1 -07.6633 26300.0
 11 12 2013  15 38  -21.0208 26065.1 -03507.0 -07.6629 26300.0
 11 12 2013  15 39  -21.0217 26065.0 -03506.7 -07.6625 26299.8
 11 12 2013  15 40  -21.0225 26064.8 -03506.5 -07.6620 26299.6
 11 12 2013  15 41  -21.0231 26064.5 -03506.2 -07.6613 26299.3
 11 12 2013  15 42  -21.0236 26064.4 -03505.9 -07.6608 26299.1
 11 12 2013  15 43  -21.0243 26064.2 -03505.7 -07.6604 26298.9
 11 12 2013  15 44  -21.0250 26064.0 -03505.4 -07.6599 26298.7
 11 12 2013  15 45  -21.0258 26064.0 -03505.2 -07.6595 26298.6
 11 12 2013  15 46  -21.0264 26064.1 -03505.1 -07.6591 26298.7
 11 12 2013  15 47  -21.0265 26063.9 -03504.7 -07.6584 26298.5
 11 12 2013  15 48  -21.0269 26064.0 -03504.5 -07.6579 26298.6
 11 12 2013  15 49  -21.0275 26064.0 -03504.2 -07.6573 26298.5
 11 12 2013  15 50  -21.0278 26063.9 -03503.9 -07.6566 26298.3
 11 12 2013  15 51  -21.0282 26063.7 -03503.6 -07.6560 26298.1
 11 12 2013  15 52  -21.0286 26063.4 -03503.2 -07.6553 26297.8
 11 12 2013  15 53  -21.0291 26063.2 -03502.9 -07.6546 26297.5
 11 12 2013  15 54  -21.0296 26063.2 -03502.6 -07.6541 26297.5
 11 12 2013  15 55  -21.0298 26063.0 -03502.3 -07.6535 26297.3
 11 12 2013  15 56  -21.0301 26063.0 -03502.1 -07.6530 26297.2
 11 12 2013  15 57  -21.0301 26062.9 -03501.8 -07.6525 26297.1
 11 12 2013  15 58  -21.0301 26063.0 -03501.6 -07.6520 26297.1
 11 12 2013  15 59  -21.0302 26062.9 -03501.3 -07.6514 26297.0
 11 12 2013  16 00  -21.0303 26062.6 -03501.0 -07.6508 26296.7
 11 12 2013  16 01  -21.0301 26062.4 -03500.8 -07.6503 26296.5
 11 12 2013  16 02  -21.0299 26062.1 -03500.5 -07.6498 26296.1
 11 12 2013  16 03  -21.0297 26062.0 -03500.4 -07.6496 26296.0
 11 12 2013  16 04  -21.0296 26061.9 -03500.2 -07.6493 26295.9
 11 12 2013  16 05  -21.0296 26061.7 -03500.1 -07.6491 26295.7
 11 12 2013  16 06  -21.0296 26061.8 -03500.1 -07.6490 26295.8
 11 12 2013  16 07  -21.0296 26061.8 -03500.0 -07.6487 26295.8
 11 12 2013  16 08  -21.0293 26061.8 -03499.8 -07.6484 26295.7
 11 12 2013  16 09  -21.0290 26061.7 -03499.7 -07.6482 26295.6
 11 12 2013  16 10  -21.0286 26061.6 -03499.5 -07.6479 26295.5
 11 12 2013  16 11  -21.0283 26061.4 -03499.3 -07.6475 26295.3
 11 12 2013  16 12  -21.0280 26061.2 -03499.2 -07.6473 26295.0
 11 12 2013  16 13  -21.0278 26061.1 -03499.1 -07.6472 26295.0
 11 12 2013  16 14  -21.0275 26061.0 -03499.0 -07.6468 26294.8
 11 12 2013  16 15  -21.0270 26060.8 -03498.8 -07.6466 26294.6
 11 12 2013  16 16  -21.0268 26060.6 -03498.7 -07.6463 26294.4
 11 12 2013  16 17  -21.0264 26060.3 -03498.4 -07.6458 26294.0
 11 12 2013  16 18  -21.0259 26060.0 -03498.2 -07.6455 26293.8
 11 12 2013  16 19  -21.0253 26059.8 -03498.1 -07.6453 26293.6
 11 12 2013  16 20  -21.0247 26059.6 -03497.9 -07.6450 26293.3
 11 12 2013  16 21  -21.0243 26059.3 -03497.8 -07.6447 26293.0
 11 12 2013  16 22  -21.0240 26059.2 -03497.7 -07.6446 26292.9
 11 12 2013  16 23  -21.0236 26058.9 -03497.5 -07.6443 26292.6
 11 12 2013  16 24  -21.0231 26058.8 -03497.5 -07.6442 26292.5
 11 12 2013  16 25  -21.0228 26058.8 -03497.4 -07.6441 26292.5
 11 12 2013  16 26  -21.0224 26058.8 -03497.3 -07.6439 26292.4
 11 12 2013  16 27  -21.0222 26058.7 -03497.3 -07.6438 26292.3
 11 12 2013  16 28  -21.0217 26058.5 -03497.1 -07.6435 26292.1
 11 12 2013  16 29  -21.0212 26058.4 -03497.0 -07.6433 26292.0
 11 12 2013  16 30  -21.0208 26058.3 -03496.9 -07.6431 26291.9
 11 12 2013  16 31  -21.0204 26058.1 -03496.7 -07.6428 26291.6
 11 12 2013  16 32  -21.0200 26058.0 -03496.6 -07.6427 26291.6
 11 12 2013  16 33  -21.0199 26058.0 -03496.6 -07.6426 26291.5
 11 12 2013  16 34  -21.0197 26057.9 -03496.5 -07.6424 26291.4
 11 12 2013  16 35  -21.0194 26057.9 -03496.4 -07.6422 26291.4
 11 12 2013  16 36  -21.0190 26057.8 -03496.3 -07.6420 26291.3
 11 12 2013  16 37  -21.0187 26057.6 -03496.2 -07.6418 26291.1
 11 12 2013  16 38  -21.0189 26057.5 -03496.1 -07.6417 26290.9
 11 12 2013  16 39  -21.0187 26057.3 -03496.0 -07.6416 26290.8
 11 12 2013  16 40  -21.0185 26056.9 -03495.8 -07.6413 26290.3
 11 12 2013  16 41  -21.0184 26056.7 -03495.7 -07.6411 26290.1
 11 12 2013  16 42  -21.0182 26056.5 -03495.7 -07.6412 26289.9
 11 12 2013  16 43  -21.0182 26056.4 -03495.7 -07.6412 26289.8
 11 12 2013  16 44  -21.0180 26056.0 -03495.5 -07.6409 26289.4
 11 12 2013  16 45  -21.0173 26055.8 -03495.5 -07.6408 26289.2
 11 12 2013  16 46  -21.0174 26055.7 -03495.5 -07.6409 26289.1
 11 12 2013  16 47  -21.0171 26055.4 -03495.4 -07.6408 26288.8
 11 12 2013  16 48  -21.0169 26055.3 -03495.5 -07.6409 26288.8
 11 12 2013  16 49  -21.0168 26055.2 -03495.4 -07.6409 26288.6
 11 12 2013  16 50  -21.0166 26055.3 -03495.5 -07.6409 26288.7
 11 12 2013  16 51  -21.0168 26055.4 -03495.5 -07.6410 26288.9
 11 12 2013  16 52  -21.0167 26055.3 -03495.4 -07.6408 26288.8
 11 12 2013  16 53  -21.0167 26055.2 -03495.4 -07.6407 26288.7
 11 12 2013  16 54  -21.0168 26055.0 -03495.2 -07.6403 26288.4
 11 12 2013  16 55  -21.0164 26054.7 -03495.0 -07.6400 26288.0
 11 12 2013  16 56  -21.0162 26054.6 -03494.9 -07.6399 26288.0
 11 12 2013  16 57  -21.0159 26054.3 -03494.7 -07.6397 26287.6
 11 12 2013  16 58  -21.0157 26054.1 -03494.7 -07.6396 26287.5
 11 12 2013  16 59  -21.0154 26054.2 -03494.7 -07.6397 26287.5
 11 12 2013  17 00  -21.0157 26054.3 -03494.9 -07.6399 26287.7
 11 12 2013  17 01  -21.0159 26054.0 -03494.7 -07.6397 26287.4
 11 12 2013  17 02  -21.0158 26054.1 -03494.7 -07.6396 26287.4
 11 12 2013  17 03  -21.0162 26054.2 -03494.7 -07.6396 26287.5
 11 12 2013  17 04  -21.0160 26053.8 -03494.5 -07.6393 26287.1
 11 12 2013  17 05  -21.0160 26053.9 -03494.6 -07.6394 26287.3
 11 12 2013  17 06  -21.0160 26053.7 -03494.4 -07.6391 26287.0
 11 12 2013  17 07  -21.0158 26053.5 -03494.3 -07.6390 26286.7
 11 12 2013  17 08  -21.0159 26053.4 -03494.3 -07.6390 26286.7
 11 12 2013  17 09  -21.0163 26053.5 -03494.4 -07.6391 26286.8
 11 12 2013  17 10  -21.0164 26053.2 -03494.2 -07.6387 26286.5
 11 12 2013  17 11  -21.0162 26053.0 -03494.0 -07.6385 26286.2
 11 12 2013  17 12  -21.0167 26053.0 -03494.0 -07.6384 26286.2
 11 12 2013  17 13  -21.0168 26052.9 -03493.9 -07.6382 26286.1
 11 12 2013  17 14  -21.0169 26052.7 -03493.8 -07.6380 26286.0
 11 12 2013  17 15  -21.0170 26052.4 -03493.5 -07.6376 26285.6
 11 12 2013  17 16  -21.0168 26052.2 -03493.4 -07.6373 26285.4
 11 12 2013  17 17  -21.0169 26052.0 -03493.3 -07.6372 26285.2
 11 12 2013  17 18  -21.0168 26052.0 -03493.3 -07.6371 26285.1
 11 12 2013  17 19  -21.0172 26052.0 -03493.2 -07.6371 26285.1
 11 12 2013  17 20  -21.0169 26051.6 -03493.0 -07.6366 26284.8
 11 12 2013  17 21  -21.0171 26051.4 -03492.8 -07.6364 26284.5
 11 12 2013  17 22  -21.0191 26051.1 -03492.8 -07.6363 26284.2
 11 12 2013  17 23  -21.0190 26051.1 -03492.8 -07.6364 26284.2
 11 12 2013  17 24  -21.0180 26050.6 -03492.5 -07.6359 26283.7
 11 12 2013  17 25  -21.0174 26050.8 -03492.6 -07.6360 26283.9
 11 12 2013  17 26  -21.0176 26050.7 -03492.6 -07.6360 26283.7
 11 12 2013  17 27  -21.0176 26050.6 -03492.6 -07.6361 26283.6
 11 12 2013  17 28  -21.0177 26050.6 -03492.7 -07.6363 26283.7
 11 12 2013  17 29  -21.0179 26050.7 -03492.7 -07.6364 26283.8
 11 12 2013  17 30  -21.0178 26050.6 -03492.7 -07.6364 26283.7
 11 12 2013  17 31  -21.0179 26050.4 -03492.7 -07.6363 26283.5
 11 12 2013  17 32  -21.0179 26050.5 -03492.8 -07.6366 26283.6
 11 12 2013  17 33  -21.0183 26050.6 -03492.9 -07.6368 26283.7
 11 12 2013  17 34  -21.0182 26050.4 -03492.9 -07.6367 26283.5
 11 12 2013  17 35  -21.0180 26050.5 -03493.0 -07.6369 26283.7
 11 12 2013  17 36  -21.0185 26050.6 -03493.1 -07.6371 26283.8
 11 12 2013  17 37  -21.0181 26050.6 -03493.1 -07.6371 26283.7
 11 12 2013  17 38  -21.0185 26050.7 -03493.3 -07.6375 26283.9
 11 12 2013  17 39  -21.0183 26050.7 -03493.3 -07.6376 26283.9
 11 12 2013  17 40  -21.0187 26050.7 -03493.4 -07.6378 26283.9
 11 12 2013  17 41  -21.0187 26050.8 -03493.5 -07.6380 26284.0
 11 12 2013  17 42  -21.0188 26050.4 -03493.4 -07.6380 26283.6
 11 12 2013  17 43  -21.0187 26050.3 -03493.5 -07.6382 26283.5
 11 12 2013  17 44  -21.0188 26050.2 -03493.7 -07.6386 26283.5
 11 12 2013  17 45  -21.0191 26050.2 -03493.9 -07.6390 26283.4
 11 12 2013  17 46  -21.0184 26050.5 -03494.2 -07.6396 26283.8
 11 12 2013  17 47  -21.0172 26050.9 -03494.6 -07.6404 26284.2
 11 12 2013  17 48  -21.0170 26050.9 -03494.8 -07.6407 26284.3
 11 12 2013  17 49  -21.0171 26050.8 -03494.9 -07.6411 26284.2
 11 12 2013  17 50  -21.0171 26050.8 -03495.1 -07.6414 26284.3
 11 12 2013  17 51  -21.0173 26051.0 -03495.4 -07.6419 26284.5
 11 12 2013  17 52  -21.0175 26051.2 -03495.6 -07.6424 26284.7
 11 12 2013  17 53  -21.0177 26051.4 -03495.7 -07.6427 26284.9
 11 12 2013  17 54  -21.0179 26051.7 -03496.0 -07.6431 26285.2
 11 12 2013  17 55  -21.0181 26051.7 -03496.1 -07.6433 26285.2
 11 12 2013  17 56  -21.0181 26051.6 -03496.1 -07.6435 26285.2
 11 12 2013  17 57  -21.0180 26051.7 -03496.3 -07.6437 26285.3
 11 12 2013  17 58  -21.0178 26051.5 -03496.3 -07.6438 26285.1
 11 12 2013  17 59  -21.0178 26051.3 -03496.4 -07.6441 26284.9
 11 12 2013  18 00  -21.0175 26051.4 -03496.6 -07.6444 26285.0
 11 12 2013  18 01  -21.0175 26051.5 -03496.7 -07.6448 26285.1
 11 12 2013  18 02  -21.0175 26051.7 -03497.0 -07.6452 26285.3
 11 12 2013  18 03  -21.0174 26051.7 -03497.2 -07.6457 26285.4
 11 12 2013  18 04  -21.0172 26051.7 -03497.3 -07.6460 26285.4
 11 12 2013  18 05  -21.0172 26051.7 -03497.6 -07.6465 26285.5
 11 12 2013  18 06  -21.0173 26051.7 -03497.8 -07.6470 26285.5
 11 12 2013  18 07  -21.0171 26051.8 -03498.0 -07.6475 26285.6
 11 12 2013  18 08  -21.0172 26051.7 -03498.3 -07.6480 26285.5
 11 12 2013  18 09  -21.0172 26051.8 -03498.5 -07.6485 26285.6
 11 12 2013  18 10  -21.0172 26051.5 -03498.6 -07.6489 26285.4
 11 12 2013  18 11  -21.0174 26051.5 -03498.9 -07.6495 26285.5
 11 12 2013  18 12  -21.0174 26051.2 -03499.0 -07.6498 26285.1
 11 12 2013  18 13  -21.0175 26051.3 -03499.4 -07.6505 26285.2
 11 12 2013  18 14  -21.0178 26050.8 -03499.4 -07.6508 26284.8
 11 12 2013  18 15  -21.0179 26050.9 -03499.7 -07.6514 26284.9
 11 12 2013  18 16  -21.0181 26050.8 -03500.0 -07.6519 26284.8
 11 12 2013  18 17  -21.0185 26050.6 -03500.2 -07.6525 26284.7
 11 12 2013  18 18  -21.0188 26050.6 -03500.5 -07.6531 26284.7
 11 12 2013  18 19  -21.0190 26050.4 -03500.7 -07.6535 26284.5
 11 12 2013  18 20  -21.0194 26050.5 -03501.0 -07.6542 26284.7
 11 12 2013  18 21  -21.0197 26050.3 -03501.2 -07.6547 26284.6
 11 12 2013  18 22  -21.0201 26050.3 -03501.4 -07.6552 26284.6
 11 12 2013  18 23  -21.0207 26050.3 -03501.6 -07.6557 26284.5
 11 12 2013  18 24  -21.0213 26050.3 -03501.9 -07.6563 26284.6
 11 12 2013  18 25  -21.0218 26050.4 -03502.2 -07.6568 26284.8
 11 12 2013  18 26  -21.0223 26050.4 -03502.3 -07.6572 26284.8
 11 12 2013  18 27  -21.0226 26050.5 -03502.5 -07.6575 26284.9
 11 12 2013  18 28  -21.0231 26050.4 -03502.6 -07.6578 26284.9
 11 12 2013  18 29  -21.0237 26050.4 -03502.8 -07.6581 26284.8
 11 12 2013  18 30  -21.0243 26050.4 -03502.8 -07.6583 26284.8
 11 12 2013  18 31  -21.0248 26050.4 -03503.0 -07.6586 26284.9
 11 12 2013  18 32  -21.0254 26050.5 -03503.2 -07.6590 26285.0
 11 12 2013  18 33  -21.0259 26050.5 -03503.3 -07.6593 26285.0
 11 12 2013  18 34  -21.0262 26050.5 -03503.4 -07.6595 26285.0
 11 12 2013  18 35  -21.0267 26050.5 -03503.5 -07.6596 26285.0
 11 12 2013  18 36  -21.0272 26050.6 -03503.6 -07.6598 26285.1
 11 12 2013  18 37  -21.0273 26050.8 -03503.7 -07.6601 26285.3
 11 12 2013  18 38  -21.0277 26051.0 -03503.9 -07.6604 26285.6
 11 12 2013  18 39  -21.0279 26051.1 -03504.1 -07.6608 26285.7
 11 12 2013  18 40  -21.0281 26051.1 -03504.1 -07.6609 26285.7
 11 12 2013  18 41  -21.0283 26051.0 -03504.2 -07.6609 26285.6
 11 12 2013  18 42  -21.0287 26051.0 -03504.2 -07.6611 26285.6
 11 12 2013  18 43  -21.0289 26051.1 -03504.3 -07.6611 26285.7
 11 12 2013  18 44  -21.0291 26051.1 -03504.3 -07.6612 26285.7
 11 12 2013  18 45  -21.0292 26051.1 -03504.3 -07.6613 26285.7
 11 12 2013  18 46  -21.0294 26050.8 -03504.3 -07.6613 26285.4
 11 12 2013  18 47  -21.0295 26051.0 -03504.4 -07.6615 26285.6
 11 12 2013  18 48  -21.0296 26050.8 -03504.3 -07.6613 26285.4
 11 12 2013  18 49  -21.0298 26050.7 -03504.3 -07.6613 26285.4
 11 12 2013  18 50  -21.0301 26050.7 -03504.3 -07.6614 26285.4
 11 12 2013  18 51  -21.0304 26050.8 -03504.3 -07.6614 26285.4
 11 12 2013  18 52  -21.0302 26050.7 -03504.4 -07.6616 26285.4
 11 12 2013  18 53  -21.0304 26050.6 -03504.4 -07.6616 26285.2
 11 12 2013  18 54  -21.0306 26050.6 -03504.5 -07.6617 26285.2
 11 12 2013  18 55  -21.0306 26050.5 -03504.5 -07.6618 26285.2
 11 12 2013  18 56  -21.0305 26050.4 -03504.5 -07.6620 26285.1
 11 12 2013  18 57  -21.0306 26050.3 -03504.6 -07.6621 26284.9
 11 12 2013  18 58  -21.0306 26050.2 -03504.6 -07.6622 26284.9
 11 12 2013  18 59  -21.0306 26050.1 -03504.7 -07.6624 26284.8
 11 12 2013  19 00  -21.0306 26050.0 -03504.8 -07.6626 26284.7
 11 12 2013  19 01  -21.0306 26049.8 -03504.8 -07.6628 26284.5
 11 12 2013  19 02  -21.0307 26049.6 -03504.9 -07.6630 26284.4
 11 12 2013  19 03  -21.0307 26049.5 -03505.0 -07.6631 26284.2
 11 12 2013  19 04  -21.0307 26049.4 -03505.0 -07.6633 26284.2
 11 12 2013  19 05  -21.0306 26049.3 -03505.1 -07.6635 26284.1
 11 12 2013  19 06  -21.0305 26049.2 -03505.2 -07.6637 26284.0
 11 12 2013  19 07  -21.0304 26049.1 -03505.3 -07.6640 26283.9
 11 12 2013  19 08  -21.0304 26049.0 -03505.4 -07.6641 26283.8
 11 12 2013  19 09  -21.0303 26048.8 -03505.5 -07.6644 26283.6
 11 12 2013  19 10  -21.0301 26048.7 -03505.5 -07.6646 26283.5
 11 12 2013  19 11  -21.0301 26048.5 -03505.6 -07.6648 26283.3
 11 12 2013  19 12  -21.0299 26048.3 -03505.7 -07.6649 26283.2
 11 12 2013  19 13  -21.0299 26048.1 -03505.7 -07.6651 26283.0
 11 12 2013  19 14  -21.0299 26047.9 -03505.8 -07.6653 26282.8
 11 12 2013  19 15  -21.0298 26047.8 -03505.9 -07.6656 26282.6
 11 12 2013  19 16  -21.0297 26047.6 -03506.0 -07.6659 26282.5
 11 12 2013  19 17  -21.0296 26047.4 -03506.0 -07.6661 26282.3
 11 12 2013  19 18  -21.0295 26047.2 -03506.2 -07.6664 26282.1
 11 12 2013  19 19  -21.0295 26047.0 -03506.3 -07.6667 26282.0
 11 12 2013  19 20  -21.0294 26046.9 -03506.4 -07.6669 26281.8
 11 12 2013  19 21  -21.0292 26046.7 -03506.4 -07.6671 26281.7
 11 12 2013  19 22  -21.0292 26046.7 -03506.6 -07.6674 26281.6
 11 12 2013  19 23  -21.0292 26046.6 -03506.7 -07.6676 26281.6
 11 12 2013  19 24  -21.0291 26046.5 -03506.7 -07.6678 26281.5
 11 12 2013  19 25  -21.0290 26046.3 -03506.8 -07.6679 26281.3
 11 12 2013  19 26  -21.0289 26046.1 -03506.8 -07.6680 26281.1
 11 12 2013  19 27  -21.0288 26046.0 -03506.8 -07.6681 26281.0
 11 12 2013  19 28  -21.0287 26045.9 -03506.8 -07.6681 26280.9
 11 12 2013  19 29  -21.0287 26045.7 -03506.8 -07.6682 26280.8
 11 12 2013  19 30  -21.0286 26045.7 -03506.8 -07.6683 26280.7
 11 12 2013  19 31  -21.0284 26045.6 -03506.9 -07.6684 26280.7
 11 12 2013  19 32  -21.0284 26045.6 -03506.9 -07.6685 26280.6
 11 12 2013  19 33  -21.0281 26045.5 -03506.9 -07.6685 26280.5
 11 12 2013  19 34  -21.0278 26045.5 -03507.0 -07.6687 26280.5
 11 12 2013  19 35  -21.0275 26045.4 -03507.0 -07.6688 26280.5
 11 12 2013  19 36  -21.0272 26045.3 -03507.1 -07.6689 26280.3
 11 12 2013  19 37  -21.0268 26045.2 -03507.1 -07.6690 26280.3
 11 12 2013  19 38  -21.0265 26045.2 -03507.2 -07.6692 26280.2
 11 12 2013  19 39  -21.0260 26045.0 -03507.2 -07.6692 26280.1
 11 12 2013  19 40  -21.0257 26044.9 -03507.3 -07.6694 26280.0
 11 12 2013  19 41  -21.0254 26044.8 -03507.3 -07.6695 26279.8
 11 12 2013  19 42  -21.0250 26044.6 -03507.3 -07.6696 26279.7
 11 12 2013  19 43  -21.0248 26044.4 -03507.4 -07.6698 26279.5
 11 12 2013  19 44  -21.0244 26044.3 -03507.4 -07.6699 26279.4
 11 12 2013  19 45  -21.0241 26044.1 -03507.4 -07.6700 26279.2
 11 12 2013  19 46  -21.0238 26043.8 -03507.4 -07.6701 26279.0
 11 12 2013  19 47  -21.0248 26043.5 -03507.5 -07.6704 26278.6
 11 12 2013  19 48  -21.0246 26043.2 -03507.5 -07.6705 26278.3
 11 12 2013  19 49  -21.0244 26043.0 -03507.6 -07.6707 26278.2
 11 12 2013  19 50  -21.0245 26042.8 -03507.6 -07.6708 26277.9
 11 12 2013  19 51  -21.0252 26042.2 -03507.5 -07.6707 26277.4
 11 12 2013  19 52  -21.0245 26042.1 -03507.5 -07.6707 26277.2
 11 12 2013  19 53  -21.0267 26041.9 -03507.7 -07.6711 26277.0
 11 12 2013  19 54  -21.0256 26041.7 -03507.8 -07.6715 26276.9
 11 12 2013  19 55  -21.0252 26041.6 -03508.0 -07.6719 26276.8
 11 12 2013  19 56  -21.0252 26041.4 -03508.2 -07.6724 26276.7
 11 12 2013  19 57  -21.0251 26041.2 -03508.3 -07.6727 26276.4
 11 12 2013  19 58  -21.0250 26040.9 -03508.4 -07.6730 26276.2
 11 12 2013  19 59  -21.0251 26040.6 -03508.5 -07.6733 26275.9
 11 12 2013  20 00  -21.0251 26040.2 -03508.5 -07.6734 26275.5
 11 12 2013  20 01  -21.0252 26039.8 -03508.5 -07.6736 26275.1
 11 12 2013  20 02  -21.0252 26039.4 -03508.5 -07.6737 26274.7
 11 12 2013  20 03  -21.0252 26039.0 -03508.5 -07.6739 26274.3
 11 12 2013  20 04  -21.0251 26038.7 -03508.6 -07.6741 26274.0
 11 12 2013  20 05  -21.0249 26038.4 -03508.6 -07.6743 26273.7
 11 12 2013  20 06  -21.0249 26038.1 -03508.7 -07.6746 26273.5
 11 12 2013  20 07  -21.0249 26037.9 -03508.8 -07.6748 26273.3
 11 12 2013  20 08  -21.0250 26037.6 -03508.9 -07.6750 26272.9
 11 12 2013  20 09  -21.0239 26037.2 -03508.9 -07.6752 26272.6
 11 12 2013  20 10  -21.0219 26036.8 -03508.8 -07.6752 26272.2
 11 12 2013  20 11  -21.0220 26036.5 -03508.9 -07.6753 26271.8
 11 12 2013  20 12  -21.0235 26035.8 -03508.7 -07.6752 26271.2
 11 12 2013  20 13  -21.0252 26035.3 -03508.7 -07.6754 26270.7
 11 12 2013  20 14  -21.0253 26035.0 -03508.8 -07.6757 26270.4
 11 12 2013  20 15  -21.0252 26034.8 -03508.9 -07.6759 26270.1
 11 12 2013  20 16  -21.0251 26034.7 -03509.0 -07.6762 26270.1
 11 12 2013  20 17  -21.0250 26034.5 -03509.1 -07.6765 26270.0
 11 12 2013  20 18  -21.0245 26034.4 -03509.2 -07.6767 26269.9
 11 12 2013  20 19  -21.0239 26034.3 -03509.3 -07.6769 26269.8
 11 12 2013  20 20  -21.0240 26034.0 -03509.4 -07.6771 26269.5
 11 12 2013  20 21  -21.0240 26033.8 -03509.4 -07.6772 26269.3
 11 12 2013  20 22  -21.0242 26033.6 -03509.5 -07.6775 26269.0
 11 12 2013  20 23  -21.0238 26033.4 -03509.4 -07.6774 26268.8
 11 12 2013  20 24  -21.0238 26033.0 -03509.4 -07.6775 26268.5
 11 12 2013  20 25  -21.0245 26032.7 -03509.4 -07.6777 26268.2
 11 12 2013  20 26  -21.0232 26032.6 -03509.5 -07.6779 26268.1
 11 12 2013  20 27  -21.0225 26032.4 -03509.6 -07.6780 26267.9
 11 12 2013  20 28  -21.0226 26032.2 -03509.6 -07.6782 26267.7
 11 12 2013  20 29  -21.0227 26032.0 -03509.7 -07.6784 26267.5
 11 12 2013  20 30  -21.0227 26031.8 -03509.7 -07.6786 26267.3
 11 12 2013  20 31  -21.0228 26031.5 -03509.8 -07.6788 26267.1
 11 12 2013  20 32  -21.0229 26031.3 -03509.8 -07.6789 26266.9
 11 12 2013  20 33  -21.0231 26031.1 -03509.8 -07.6790 26266.6
 11 12 2013  20 34  -21.0231 26030.9 -03509.9 -07.6792 26266.4
 11 12 2013  20 35  -21.0231 26030.7 -03509.9 -07.6793 26266.3
 11 12 2013  20 36  -21.0235 26030.5 -03509.9 -07.6794 26266.0
 11 12 2013  20 37  -21.0237 26030.2 -03510.0 -07.6795 26265.8
 11 12 2013  20 38  -21.0238 26030.0 -03509.9 -07.6795 26265.6
 11 12 2013  20 39  -21.0239 26029.8 -03510.0 -07.6797 26265.4
 11 12 2013  20 40  -21.0240 26029.6 -03509.9 -07.6796 26265.1
 11 12 2013  20 41  -21.0241 26029.3 -03509.9 -07.6798 26264.9
 11 12 2013  20 42  -21.0242 26029.0 -03509.9 -07.6798 26264.6
 11 12 2013  20 43  -21.0243 26028.8 -03509.9 -07.6799 26264.4
 11 12 2013  20 44  -21.0243 26028.5 -03509.9 -07.6799 26264.1
 11 12 2013  20 45  -21.0242 26028.2 -03509.9 -07.6799 26263.8
 11 12 2013  20 46  -21.0242 26028.0 -03509.8 -07.6799 26263.6
 11 12 2013  20 47  -21.0242 26027.8 -03509.8 -07.6799 26263.4
 11 12 2013  20 48  -21.0241 26027.6 -03509.8 -07.6799 26263.2
 11 12 2013  20 49  -21.0240 26027.5 -03509.7 -07.6797 26263.0
 11 12 2013  20 50  -21.0239 26027.3 -03509.8 -07.6799 26262.9
 11 12 2013  20 51  -21.0237 26027.1 -03509.7 -07.6799 26262.7
 11 12 2013  20 52  -21.0236 26026.9 -03509.8 -07.6800 26262.5
 11 12 2013  20 53  -21.0232 26026.7 -03509.7 -07.6801 26262.3
 11 12 2013  20 54  -21.0229 26026.5 -03509.7 -07.6801 26262.1
 11 12 2013  20 55  -21.0226 26026.3 -03509.8 -07.6802 26261.9
 11 12 2013  20 56  -21.0222 26026.1 -03509.8 -07.6804 26261.7
 11 12 2013  20 57  -21.0219 26025.9 -03509.9 -07.6807 26261.5
 11 12 2013  20 58  -21.0217 26025.7 -03510.0 -07.6810 26261.3
 11 12 2013  20 59  -21.0215 26025.5 -03510.1 -07.6812 26261.1
 11 12 2013  21 00  -21.0212 26025.3 -03510.3 -07.6817 26261.0
 11 12 2013  21 01  -21.0209 26025.2 -03510.4 -07.6820 26260.8
 11 12 2013  21 02  -21.0208 26025.0 -03510.6 -07.6824 26260.7
 11 12 2013  21 03  -21.0207 26024.8 -03510.8 -07.6829 26260.6
 11 12 2013  21 04  -21.0207 26024.7 -03510.9 -07.6832 26260.4
 11 12 2013  21 05  -21.0207 26024.4 -03511.0 -07.6835 26260.2
 11 12 2013  21 06  -21.0207 26024.2 -03511.1 -07.6838 26260.0
 11 12 2013  21 07  -21.0208 26023.9 -03511.2 -07.6840 26259.7
 11 12 2013  21 08  -21.0209 26023.6 -03511.2 -07.6842 26259.4
 11 12 2013  21 09  -21.0210 26023.5 -03511.3 -07.6844 26259.3
 11 12 2013  21 10  -21.0212 26023.2 -03511.3 -07.6844 26259.0
 11 12 2013  21 11  -21.0213 26023.0 -03511.4 -07.6847 26258.8
 11 12 2013  21 12  -21.0214 26022.7 -03511.3 -07.6846 26258.5
 11 12 2013  21 13  -21.0215 26022.5 -03511.3 -07.6846 26258.3
 11 12 2013  21 14  -21.0214 26022.3 -03511.2 -07.6845 26258.1
 11 12 2013  21 15  -21.0213 26021.7 -03511.0 -07.6843 26257.5
 11 12 2013  21 16  -21.0210 26021.6 -03511.0 -07.6842 26257.4
 11 12 2013  21 17  -21.0207 26021.3 -03510.9 -07.6841 26257.1
 11 12 2013  21 18  -21.0202 26021.1 -03510.8 -07.6840 26256.9
 11 12 2013  21 19  -21.0197 26021.2 -03510.9 -07.6842 26257.0
 11 12 2013  21 20  -21.0193 26020.8 -03510.9 -07.6842 26256.6
 11 12 2013  21 21  -21.0189 26020.6 -03510.8 -07.6842 26256.4
 11 12 2013  21 22  -21.0184 26020.6 -03510.9 -07.6845 26256.4
 11 12 2013  21 23  -21.0181 26020.6 -03511.1 -07.6848 26256.4
 11 12 2013  21 24  -21.0179 26020.3 -03511.1 -07.6848 26256.1
 11 12 2013  21 25  -21.0177 26020.0 -03511.1 -07.6849 26255.8
 11 12 2013  21 26  -21.0175 26020.1 -03511.2 -07.6853 26255.9
 11 12 2013  21 27  -21.0171 26019.9 -03511.2 -07.6853 26255.7
 11 12 2013  21 28  -21.0171 26019.5 -03511.2 -07.6853 26255.4
 11 12 2013  21 29  -21.0170 26019.3 -03511.2 -07.6854 26255.2
 11 12 2013  21 30  -21.0167 26019.3 -03511.3 -07.6857 26255.1
 11 12 2013  21 31  -21.0164 26019.1 -03511.4 -07.6859 26255.0
 11 12 2013  21 32  -21.0162 26018.9 -03511.5 -07.6861 26254.8
 11 12 2013  21 33  -21.0161 26018.7 -03511.5 -07.6862 26254.6
 11 12 2013  21 34  -21.0160 26018.5 -03511.5 -07.6864 26254.4
 11 12 2013  21 35  -21.0155 26018.5 -03511.6 -07.6866 26254.4
 11 12 2013  21 36  -21.0152 26018.5 -03511.8 -07.6869 26254.4
 11 12 2013  21 37  -21.0149 26018.3 -03511.9 -07.6871 26254.3
 11 12 2013  21 38  -21.0146 26018.2 -03511.9 -07.6873 26254.1
 11 12 2013  21 39  -21.0144 26018.1 -03512.0 -07.6875 26254.1
 11 12 2013  21 40  -21.0142 26018.1 -03512.2 -07.6878 26254.1
 11 12 2013  21 41  -21.0139 26018.1 -03512.3 -07.6882 26254.1
 11 12 2013  21 42  -21.0138 26018.0 -03512.3 -07.6882 26254.0
 11 12 2013  21 43  -21.0137 26018.0 -03512.4 -07.6884 26254.0
 11 12 2013  21 44  -21.0135 26017.8 -03512.5 -07.6887 26253.9
 11 12 2013  21 45  -21.0133 26017.7 -03512.5 -07.6886 26253.8
 11 12 2013  21 46  -21.0132 26017.7 -03512.6 -07.6889 26253.7
 11 12 2013  21 47  -21.0133 26017.5 -03512.6 -07.6890 26253.5
 11 12 2013  21 48  -21.0135 26017.3 -03512.6 -07.6890 26253.3
 11 12 2013  21 49  -21.0135 26017.1 -03512.6 -07.6891 26253.1
 11 12 2013  21 50  -21.0135 26016.9 -03512.6 -07.6891 26252.9
 11 12 2013  21 51  -21.0136 26016.6 -03512.6 -07.6892 26252.7
 11 12 2013  21 52  -21.0137 26016.4 -03512.5 -07.6891 26252.5
 11 12 2013  21 53  -21.0139 26016.2 -03512.5 -07.6892 26252.3
 11 12 2013  21 54  -21.0141 26016.0 -03512.5 -07.6892 26252.1
 11 12 2013  21 55  -21.0138 26015.9 -03512.5 -07.6892 26251.9
 11 12 2013  21 56  -21.0136 26015.5 -03512.4 -07.6891 26251.5
 11 12 2013  21 57  -21.0133 26015.2 -03512.3 -07.6891 26251.2
 11 12 2013  21 58  -21.0134 26014.9 -03512.3 -07.6891 26251.0
 11 12 2013  21 59  -21.0133 26014.9 -03512.4 -07.6893 26250.9
 11 12 2013  22 00  -21.0132 26015.0 -03512.5 -07.6896 26251.0
 11 12 2013  22 01  -21.0131 26014.9 -03512.6 -07.6897 26251.0
 11 12 2013  22 02  -21.0129 26014.8 -03512.7 -07.6899 26250.9
 11 12 2013  22 03  -21.0124 26014.9 -03512.8 -07.6900 26251.0
 11 12 2013  22 04  -21.0124 26014.8 -03512.8 -07.6902 26250.9
 11 12 2013  22 05  -21.0122 26014.9 -03512.9 -07.6904 26251.0
 11 12 2013  22 06  -21.0119 26014.9 -03513.0 -07.6906 26251.0
 11 12 2013  22 07  -21.0114 26014.9 -03513.1 -07.6907 26251.0
 11 12 2013  22 08  -21.0112 26014.8 -03513.1 -07.6908 26250.9
 11 12 2013  22 09  -21.0111 26014.6 -03513.0 -07.6907 26250.8
 11 12 2013  22 10  -21.0109 26014.6 -03513.1 -07.6909 26250.7
 11 12 2013  22 11  -21.0108 26014.5 -03513.1 -07.6910 26250.6
 11 12 2013  22 12  -21.0106 26014.3 -03513.1 -07.6909 26250.4
 11 12 2013  22 13  -21.0106 26014.2 -03513.1 -07.6910 26250.3
 11 12 2013  22 14  -21.0104 26014.0 -03513.1 -07.6910 26250.2
 11 12 2013  22 15  -21.0103 26013.9 -03513.1 -07.6911 26250.0
 11 12 2013  22 16  -21.0099 26014.0 -03513.2 -07.6913 26250.1
 11 12 2013  22 17  -21.0097 26013.9 -03513.2 -07.6914 26250.0
 11 12 2013  22 18  -21.0095 26013.7 -03513.2 -07.6914 26249.9
 11 12 2013  22 19  -21.0090 26013.7 -03513.2 -07.6914 26249.9
 11 12 2013  22 20  -21.0089 26013.7 -03513.3 -07.6916 26249.8
 11 12 2013  22 21  -21.0086 26013.7 -03513.4 -07.6919 26249.9
 11 12 2013  22 22  -21.0083 26013.8 -03513.5 -07.6920 26250.0
 11 12 2013  22 23  -21.0082 26013.8 -03513.6 -07.6921 26250.0
 11 12 2013  22 24  -21.0081 26013.8 -03513.7 -07.6924 26250.0
 11 12 2013  22 25  -21.0081 26013.8 -03513.7 -07.6925 26250.0
 11 12 2013  22 26  -21.0080 26013.8 -03513.8 -07.6926 26250.1
 11 12 2013  22 27  -21.0077 26014.0 -03513.9 -07.6929 26250.3
 11 12 2013  22 28  -21.0076 26014.2 -03514.1 -07.6931 26250.5
 11 12 2013  22 29  -21.0075 26014.3 -03514.2 -07.6933 26250.6
 11 12 2013  22 30  -21.0075 26014.3 -03514.2 -07.6934 26250.6
 11 12 2013  22 31  -21.0074 26014.3 -03514.3 -07.6935 26250.6
 11 12 2013  22 32  -21.0072 26014.3 -03514.3 -07.6936 26250.6
 11 12 2013  22 33  -21.0072 26014.2 -03514.3 -07.6936 26250.5
 11 12 2013  22 34  -21.0073 26014.1 -03514.4 -07.6938 26250.4
 11 12 2013  22 35  -21.0074 26014.1 -03514.4 -07.6938 26250.4
 11 12 2013  22 36  -21.0073 26014.1 -03514.4 -07.6939 26250.4
 11 12 2013  22 37  -21.0072 26014.2 -03514.5 -07.6941 26250.5
 11 12 2013  22 38  -21.0072 26014.2 -03514.6 -07.6942 26250.6
 11 12 2013  22 39  -21.0070 26014.2 -03514.6 -07.6943 26250.5
 11 12 2013  22 40  -21.0071 26014.0 -03514.7 -07.6944 26250.4
 11 12 2013  22 41  -21.0071 26013.9 -03514.7 -07.6944 26250.3
 11 12 2013  22 42  -21.0070 26013.6 -03514.6 -07.6944 26250.0
 11 12 2013  22 43  -21.0070 26013.4 -03514.5 -07.6942 26249.7
 11 12 2013  22 44  -21.0069 26013.3 -03514.4 -07.6941 26249.6
 11 12 2013  22 45  -21.0071 26013.0 -03514.4 -07.6942 26249.3
 11 12 2013  22 46  -21.0072 26013.0 -03514.5 -07.6943 26249.3
 11 12 2013  22 47  -21.0071 26012.9 -03514.4 -07.6943 26249.2
 11 12 2013  22 48  -21.0070 26012.8 -03514.5 -07.6944 26249.1
 11 12 2013  22 49  -21.0068 26012.7 -03514.5 -07.6945 26249.0
 11 12 2013  22 50  -21.0066 26012.8 -03514.6 -07.6947 26249.1
 11 12 2013  22 51  -21.0064 26012.9 -03514.7 -07.6948 26249.3
 11 12 2013  22 52  -21.0065 26013.0 -03514.8 -07.6950 26249.4
 11 12 2013  22 53  -21.0066 26012.9 -03514.9 -07.6952 26249.3
 11 12 2013  22 54  -21.0065 26012.9 -03514.9 -07.6953 26249.3
 11 12 2013  22 55  -21.0065 26013.0 -03514.9 -07.6953 26249.4
 11 12 2013  22 56  -21.0064 26013.0 -03515.0 -07.6954 26249.4
 11 12 2013  22 57  -21.0063 26013.0 -03515.0 -07.6955 26249.4
 11 12 2013  22 58  -21.0064 26012.9 -03515.0 -07.6956 26249.4
 11 12 2013  22 59  -21.0063 26013.0 -03515.0 -07.6956 26249.4
 11 12 2013  23 00  -21.0063 26012.9 -03515.1 -07.6956 26249.3
 11 12 2013  23 01  -21.0063 26012.9 -03515.1 -07.6957 26249.3
 11 12 2013  23 02  -21.0063 26012.9 -03515.1 -07.6956 26249.3
 11 12 2013  23 03  -21.0064 26012.9 -03515.1 -07.6957 26249.3
 11 12 2013  23 04  -21.0062 26012.9 -03515.1 -07.6957 26249.3
 11 12 2013  23 05  -21.0062 26012.8 -03515.1 -07.6958 26249.3
 11 12 2013  23 06  -21.0061 26012.8 -03515.1 -07.6957 26249.2
 11 12 2013  23 07  -21.0062 26012.7 -03515.1 -07.6958 26249.1
 11 12 2013  23 08  -21.0061 26012.7 -03515.1 -07.6958 26249.1
 11 12 2013  23 09  -21.0060 26012.6 -03515.1 -07.6958 26249.0
 11 12 2013  23 10  -21.0059 26012.6 -03515.1 -07.6958 26249.0
 11 12 2013  23 11  -21.0057 26012.6 -03515.1 -07.6958 26249.0
 11 12 2013  23 12  -21.0057 26012.6 -03515.2 -07.6959 26249.1
 11 12 2013  23 13  -21.0058 26012.6 -03515.2 -07.6961 26249.1
 11 12 2013  23 14  -21.0058 26012.7 -03515.3 -07.6961 26249.1
 11 12 2013  23 15  -21.0057 26012.7 -03515.3 -07.6962 26249.1
 11 12 2013  23 16  -21.0057 26012.6 -03515.3 -07.6961 26249.0
 11 12 2013  23 17  -21.0058 26012.6 -03515.3 -07.6961 26249.1
 11 12 2013  23 18  -21.0058 26012.6 -03515.3 -07.6962 26249.1
 11 12 2013  23 19  -21.0058 26012.7 -03515.3 -07.6962 26249.1
 11 12 2013  23 20  -21.0058 26012.6 -03515.3 -07.6963 26249.1
 11 12 2013  23 21  -21.0056 26012.6 -03515.3 -07.6963 26249.0
 11 12 2013  23 22  -21.0053 26012.6 -03515.3 -07.6962 26249.0
 11 12 2013  23 23  -21.0052 26012.6 -03515.3 -07.6963 26249.0
 11 12 2013  23 24  -21.0051 26012.5 -03515.3 -07.6963 26249.0
 11 12 2013  23 25  -21.0051 26012.5 -03515.4 -07.6964 26249.0
 11 12 2013  23 26  -21.0049 26012.6 -03515.4 -07.6964 26249.0
 11 12 2013  23 27  -21.0048 26012.5 -03515.4 -07.6965 26249.0
 11 12 2013  23 28  -21.0046 26012.5 -03515.4 -07.6964 26248.9
 11 12 2013  23 29  -21.0046 26012.3 -03515.3 -07.6963 26248.7
 11 12 2013  23 30  -21.0048 26012.1 -03515.2 -07.6962 26248.5
 11 12 2013  23 31  -21.0048 26011.8 -03515.1 -07.6960 26248.2
 11 12 2013  23 32  -21.0048 26011.6 -03515.0 -07.6959 26248.1
 11 12 2013  23 33  -21.0050 26011.5 -03515.0 -07.6959 26247.9
 11 12 2013  23 34  -21.0052 26011.4 -03515.0 -07.6960 26247.8
 11 12 2013  23 35  -21.0052 26011.3 -03515.0 -07.6960 26247.7
 11 12 2013  23 36  -21.0052 26011.2 -03515.0 -07.6959 26247.6
 11 12 2013  23 37  -21.0052 26011.2 -03515.0 -07.6960 26247.6
 11 12 2013  23 38  -21.0053 26011.2 -03515.0 -07.6960 26247.6
 11 12 2013  23 39  -21.0052 26011.2 -03515.1 -07.6961 26247.6
 11 12 2013  23 40  -21.0053 26011.3 -03515.1 -07.6963 26247.7
 11 12 2013  23 41  -21.0053 26011.4 -03515.2 -07.6964 26247.8
 11 12 2013  23 42  -21.0053 26011.4 -03515.3 -07.6965 26247.9
 11 12 2013  23 43  -21.0054 26011.4 -03515.3 -07.6966 26247.9
 11 12 2013  23 44  -21.0055 26011.4 -03515.3 -07.6966 26247.8
 11 12 2013  23 45  -21.0054 26011.4 -03515.3 -07.6966 26247.8
 11 12 2013  23 46  -21.0056 26011.4 -03515.4 -07.6968 26247.9
 11 12 2013  23 47  -21.0054 26011.4 -03515.4 -07.6967 26247.9
 11 12 2013  23 48  -21.0055 26011.4 -03515.4 -07.6967 26247.9
 11 12 2013  23 49  -21.0054 26011.4 -03515.4 -07.6969 26247.9
 11 12 2013  23 50  -21.0054 26011.4 -03515.4 -07.6968 26247.8
 11 12 2013  23 51  -21.0053 26011.3 -03515.4 -07.6968 26247.8
 11 12 2013  23 52  -21.0053 26011.3 -03515.4 -07.6968 26247.8
 11 12 2013  23 53  -21.0051 26011.3 -03515.4 -07.6969 26247.8
 11 12 2013  23 54  -21.0050 26011.3 -03515.5 -07.6969 26247.8
 11 12 2013  23 55  -21.0050 26011.3 -03515.5 -07.6970 26247.8
 11 12 2013  23 56  -21.0054 26011.3 -03515.5 -07.6971 26247.8
 11 12 2013  23 57  -21.0059 26011.4 -03515.6 -07.6973 26247.9
 11 12 2013  23 58  -21.0062 26011.4 -03515.7 -07.6974 26247.9
