SAO LUIS EMBRACE-03 <290> 1 Min. Reported data

 DD MM YYYY  HH MM   D(Deg)  H(nT)   Z(nT)   I(Deg)   F(nT)

 17 10 2013  00 00  -21.0092 26011.7 -03496.2 -07.6551 26245.6
 17 10 2013  00 01  -21.0093 26011.6 -03496.1 -07.6550 26245.5
 17 10 2013  00 02  -21.0096 26011.5 -03496.1 -07.6549 26245.4
 17 10 2013  00 03  -21.0100 26011.2 -03495.9 -07.6547 26245.1
 17 10 2013  00 04  -21.0106 26011.0 -03495.8 -07.6546 26244.9
 17 10 2013  00 05  -21.0111 26010.8 -03495.7 -07.6544 26244.7
 17 10 2013  00 06  -21.0117 26010.7 -03495.7 -07.6543 26244.6
 17 10 2013  00 07  -21.0121 26010.8 -03495.7 -07.6543 26244.6
 17 10 2013  00 08  -21.0125 26010.6 -03495.6 -07.6542 26244.4
 17 10 2013  00 09  -21.0128 26010.6 -03495.5 -07.6540 26244.4
 17 10 2013  00 10  -21.0129 26010.6 -03495.5 -07.6540 26244.4
 17 10 2013  00 11  -21.0130 26010.7 -03495.5 -07.6540 26244.5
 17 10 2013  00 12  -21.0132 26010.5 -03495.5 -07.6539 26244.4
 17 10 2013  00 13  -21.0141 26010.2 -03495.4 -07.6538 26244.0
 17 10 2013  00 14  -21.0146 26009.8 -03495.1 -07.6534 26243.5
 17 10 2013  00 15  -21.0147 26009.4 -03494.9 -07.6530 26243.1
 17 10 2013  00 16  -21.0145 26009.0 -03494.7 -07.6527 26242.8
 17 10 2013  00 17  -21.0143 26009.0 -03494.6 -07.6526 26242.7
 17 10 2013  00 18  -21.0142 26008.9 -03494.7 -07.6527 26242.6
 17 10 2013  00 19  -21.0139 26008.6 -03494.6 -07.6525 26242.4
 17 10 2013  00 20  -21.0137 26008.3 -03494.4 -07.6523 26242.0
 17 10 2013  00 21  -21.0136 26008.1 -03494.3 -07.6521 26241.8
 17 10 2013  00 22  -21.0138 26008.1 -03494.4 -07.6523 26241.8
 17 10 2013  00 23  -21.0139 26008.7 -03494.6 -07.6526 26242.4
 17 10 2013  00 24  -21.0136 26009.1 -03495.0 -07.6533 26242.9
 17 10 2013  00 25  -21.0133 26009.9 -03495.4 -07.6539 26243.7
 17 10 2013  00 26  -21.0132 26010.3 -03495.6 -07.6543 26244.1
 17 10 2013  00 27  -21.0132 26010.2 -03495.6 -07.6543 26244.0
 17 10 2013  00 28  -21.0131 26010.6 -03495.7 -07.6544 26244.4
 17 10 2013  00 29  -21.0127 26011.0 -03495.9 -07.6546 26244.9
 17 10 2013  00 30  -21.0124 26011.2 -03495.9 -07.6547 26245.1
 17 10 2013  00 31  -21.0123 26011.3 -03496.0 -07.6547 26245.2
 17 10 2013  00 32  -21.0125 26011.4 -03496.0 -07.6547 26245.3
 17 10 2013  00 33  -21.0127 26011.6 -03496.0 -07.6548 26245.4
 17 10 2013  00 34  -21.0130 26011.4 -03495.9 -07.6547 26245.3
 17 10 2013  00 35  -21.0131 26011.2 -03495.7 -07.6543 26245.0
 17 10 2013  00 36  -21.0129 26011.1 -03495.6 -07.6540 26245.0
 17 10 2013  00 37  -21.0127 26011.1 -03495.6 -07.6541 26245.0
 17 10 2013  00 38  -21.0126 26011.1 -03495.5 -07.6538 26244.9
 17 10 2013  00 39  -21.0123 26011.0 -03495.4 -07.6537 26244.8
 17 10 2013  00 40  -21.0119 26011.1 -03495.5 -07.6538 26244.9
 17 10 2013  00 41  -21.0107 26011.1 -03495.5 -07.6538 26244.9
 17 10 2013  00 42  -21.0091 26011.0 -03495.4 -07.6536 26244.8
 17 10 2013  00 43  -21.0077 26011.0 -03495.3 -07.6535 26244.8
 17 10 2013  00 44  -21.0066 26011.1 -03495.4 -07.6536 26244.9
 17 10 2013  00 45  -21.0062 26011.2 -03495.6 -07.6540 26245.0
 17 10 2013  00 46  -21.0061 26011.2 -03495.7 -07.6543 26245.1
 17 10 2013  00 47  -21.0058 26011.1 -03495.8 -07.6544 26245.0
 17 10 2013  00 48  -21.0055 26011.3 -03495.9 -07.6546 26245.2
 17 10 2013  00 49  -21.0053 26011.5 -03496.0 -07.6548 26245.4
 17 10 2013  00 50  -21.0055 26011.5 -03496.1 -07.6550 26245.4
 17 10 2013  00 51  -21.0057 26011.6 -03496.2 -07.6551 26245.5
 17 10 2013  00 52  -21.0058 26011.5 -03496.1 -07.6551 26245.4
 17 10 2013  00 53  -21.0057 26011.1 -03496.0 -07.6548 26245.0
 17 10 2013  00 54  -21.0055 26010.9 -03495.8 -07.6546 26244.8
 17 10 2013  00 55  -21.0054 26010.6 -03495.7 -07.6544 26244.5
 17 10 2013  00 56  -21.0056 26010.5 -03495.7 -07.6544 26244.3
 17 10 2013  00 57  -21.0061 26010.5 -03495.7 -07.6545 26244.4
 17 10 2013  00 58  -21.0069 26010.8 -03495.9 -07.6549 26244.6
 17 10 2013  00 59  -21.0077 26011.1 -03496.1 -07.6552 26245.0
 17 10 2013  01 00  -21.0085 26011.4 -03496.3 -07.6555 26245.3
 17 10 2013  01 01  -21.0092 26011.8 -03496.5 -07.6559 26245.7
 17 10 2013  01 02  -21.0096 26012.2 -03496.7 -07.6561 26246.1
 17 10 2013  01 03  -21.0102 26012.3 -03496.7 -07.6560 26246.2
 17 10 2013  01 04  -21.0108 26012.1 -03496.6 -07.6559 26246.1
 17 10 2013  01 05  -21.0114 26011.8 -03496.4 -07.6556 26245.8
 17 10 2013  01 06  -21.0118 26011.5 -03496.2 -07.6552 26245.4
 17 10 2013  01 07  -21.0120 26011.1 -03496.0 -07.6548 26245.0
 17 10 2013  01 08  -21.0120 26010.8 -03495.8 -07.6545 26244.7
 17 10 2013  01 09  -21.0116 26010.5 -03495.6 -07.6542 26244.3
 17 10 2013  01 10  -21.0115 26010.2 -03495.5 -07.6540 26244.1
 17 10 2013  01 11  -21.0115 26010.0 -03495.4 -07.6540 26243.8
 17 10 2013  01 12  -21.0114 26009.8 -03495.4 -07.6540 26243.6
 17 10 2013  01 13  -21.0114 26009.7 -03495.4 -07.6541 26243.5
 17 10 2013  01 14  -21.0113 26009.6 -03495.5 -07.6543 26243.4
 17 10 2013  01 15  -21.0114 26009.3 -03495.5 -07.6543 26243.1
 17 10 2013  01 16  -21.0114 26009.1 -03495.4 -07.6542 26242.9
 17 10 2013  01 17  -21.0115 26008.9 -03495.4 -07.6543 26242.7
 17 10 2013  01 18  -21.0117 26008.7 -03495.5 -07.6544 26242.6
 17 10 2013  01 19  -21.0119 26008.5 -03495.4 -07.6544 26242.4
 17 10 2013  01 20  -21.0119 26008.4 -03495.5 -07.6545 26242.2
 17 10 2013  01 21  -21.0119 26008.3 -03495.5 -07.6546 26242.1
 17 10 2013  01 22  -21.0121 26008.3 -03495.6 -07.6548 26242.1
 17 10 2013  01 23  -21.0124 26008.2 -03495.7 -07.6550 26242.1
 17 10 2013  01 24  -21.0128 26008.2 -03495.7 -07.6552 26242.1
 17 10 2013  01 25  -21.0129 26008.3 -03495.8 -07.6553 26242.2
 17 10 2013  01 26  -21.0129 26008.4 -03495.9 -07.6555 26242.3
 17 10 2013  01 27  -21.0130 26008.5 -03496.0 -07.6557 26242.4
 17 10 2013  01 28  -21.0128 26008.4 -03496.0 -07.6557 26242.3
 17 10 2013  01 29  -21.0124 26008.3 -03495.9 -07.6556 26242.2
 17 10 2013  01 30  -21.0118 26008.2 -03495.9 -07.6555 26242.1
 17 10 2013  01 31  -21.0111 26008.2 -03495.9 -07.6555 26242.1
 17 10 2013  01 32  -21.0109 26007.9 -03495.8 -07.6554 26241.8
 17 10 2013  01 33  -21.0111 26007.6 -03495.7 -07.6553 26241.4
 17 10 2013  01 34  -21.0114 26007.2 -03495.6 -07.6551 26241.1
 17 10 2013  01 35  -21.0118 26006.9 -03495.5 -07.6549 26240.8
 17 10 2013  01 36  -21.0123 26006.7 -03495.4 -07.6549 26240.6
 17 10 2013  01 37  -21.0128 26006.6 -03495.4 -07.6550 26240.4
 17 10 2013  01 38  -21.0134 26006.5 -03495.5 -07.6551 26240.4
 17 10 2013  01 39  -21.0139 26006.6 -03495.6 -07.6553 26240.5
 17 10 2013  01 40  -21.0140 26006.6 -03495.6 -07.6553 26240.5
 17 10 2013  01 41  -21.0138 26006.5 -03495.5 -07.6552 26240.3
 17 10 2013  01 42  -21.0139 26006.2 -03495.4 -07.6551 26240.1
 17 10 2013  01 43  -21.0143 26005.9 -03495.3 -07.6550 26239.8
 17 10 2013  01 44  -21.0148 26005.7 -03495.3 -07.6550 26239.6
 17 10 2013  01 45  -21.0155 26005.6 -03495.3 -07.6551 26239.4
 17 10 2013  01 46  -21.0162 26005.7 -03495.4 -07.6552 26239.6
 17 10 2013  01 47  -21.0172 26006.0 -03495.6 -07.6555 26239.8
 17 10 2013  01 48  -21.0181 26006.3 -03495.8 -07.6559 26240.2
 17 10 2013  01 49  -21.0190 26006.7 -03496.0 -07.6563 26240.6
 17 10 2013  01 50  -21.0198 26007.0 -03496.2 -07.6565 26241.0
 17 10 2013  01 51  -21.0204 26007.1 -03496.2 -07.6565 26241.1
 17 10 2013  01 52  -21.0207 26006.9 -03496.1 -07.6563 26240.8
 17 10 2013  01 53  -21.0212 26006.6 -03495.9 -07.6561 26240.5
 17 10 2013  01 54  -21.0216 26006.5 -03495.8 -07.6558 26240.4
 17 10 2013  01 55  -21.0218 26006.4 -03495.8 -07.6557 26240.3
 17 10 2013  01 56  -21.0220 26006.1 -03495.6 -07.6554 26240.0
 17 10 2013  01 57  -21.0221 26006.0 -03495.5 -07.6554 26239.9
 17 10 2013  01 58  -21.0223 26005.9 -03495.5 -07.6553 26239.8
 17 10 2013  01 59  -21.0225 26006.0 -03495.5 -07.6554 26239.9
 17 10 2013  02 00  -21.0225 26006.0 -03495.5 -07.6554 26239.9
 17 10 2013  02 01  -21.0228 26006.0 -03495.6 -07.6555 26239.9
 17 10 2013  02 02  -21.0231 26006.0 -03495.6 -07.6555 26239.9
 17 10 2013  02 03  -21.0233 26006.0 -03495.6 -07.6555 26239.9
 17 10 2013  02 04  -21.0234 26005.9 -03495.6 -07.6555 26239.8
 17 10 2013  02 05  -21.0236 26005.8 -03495.5 -07.6554 26239.7
 17 10 2013  02 06  -21.0238 26005.7 -03495.5 -07.6554 26239.6
 17 10 2013  02 07  -21.0241 26005.6 -03495.5 -07.6553 26239.4
 17 10 2013  02 08  -21.0244 26005.5 -03495.4 -07.6553 26239.4
 17 10 2013  02 09  -21.0241 26005.8 -03495.6 -07.6556 26239.7
 17 10 2013  02 10  -21.0239 26005.9 -03495.6 -07.6556 26239.8
 17 10 2013  02 11  -21.0239 26006.0 -03495.7 -07.6557 26239.9
 17 10 2013  02 12  -21.0239 26006.0 -03495.7 -07.6558 26239.9
 17 10 2013  02 13  -21.0240 26005.8 -03495.7 -07.6557 26239.7
 17 10 2013  02 14  -21.0242 26005.7 -03495.6 -07.6557 26239.6
 17 10 2013  02 15  -21.0247 26005.7 -03495.7 -07.6559 26239.6
 17 10 2013  02 16  -21.0252 26005.7 -03495.8 -07.6560 26239.6
 17 10 2013  02 17  -21.0259 26005.9 -03495.9 -07.6562 26239.8
 17 10 2013  02 18  -21.0268 26005.9 -03495.9 -07.6563 26239.9
 17 10 2013  02 19  -21.0276 26005.9 -03496.0 -07.6563 26239.9
 17 10 2013  02 20  -21.0280 26005.8 -03495.9 -07.6562 26239.7
 17 10 2013  02 21  -21.0283 26005.6 -03495.7 -07.6559 26239.5
 17 10 2013  02 22  -21.0287 26005.5 -03495.6 -07.6557 26239.4
 17 10 2013  02 23  -21.0288 26005.3 -03495.5 -07.6555 26239.1
 17 10 2013  02 24  -21.0287 26005.1 -03495.4 -07.6553 26239.0
 17 10 2013  02 25  -21.0286 26005.0 -03495.3 -07.6551 26238.8
 17 10 2013  02 26  -21.0285 26004.9 -03495.2 -07.6551 26238.7
 17 10 2013  02 27  -21.0284 26004.7 -03495.2 -07.6550 26238.6
 17 10 2013  02 28  -21.0284 26004.6 -03495.1 -07.6549 26238.4
 17 10 2013  02 29  -21.0282 26004.4 -03495.1 -07.6548 26238.3
 17 10 2013  02 30  -21.0280 26004.3 -03495.0 -07.6548 26238.1
 17 10 2013  02 31  -21.0277 26004.2 -03495.0 -07.6547 26238.0
 17 10 2013  02 32  -21.0274 26004.2 -03495.0 -07.6548 26238.0
 17 10 2013  02 33  -21.0272 26004.3 -03495.1 -07.6549 26238.1
 17 10 2013  02 34  -21.0273 26004.3 -03495.2 -07.6551 26238.1
 17 10 2013  02 35  -21.0273 26004.3 -03495.2 -07.6552 26238.1
 17 10 2013  02 36  -21.0272 26004.2 -03495.2 -07.6552 26238.1
 17 10 2013  02 37  -21.0272 26004.2 -03495.2 -07.6552 26238.0
 17 10 2013  02 38  -21.0273 26004.2 -03495.3 -07.6553 26238.0
 17 10 2013  02 39  -21.0274 26004.2 -03495.3 -07.6554 26238.1
 17 10 2013  02 40  -21.0275 26004.3 -03495.4 -07.6556 26238.2
 17 10 2013  02 41  -21.0277 26004.4 -03495.5 -07.6557 26238.3
 17 10 2013  02 42  -21.0279 26004.5 -03495.5 -07.6558 26238.4
 17 10 2013  02 43  -21.0279 26004.5 -03495.5 -07.6557 26238.3
 17 10 2013  02 44  -21.0279 26004.3 -03495.4 -07.6556 26238.2
 17 10 2013  02 45  -21.0279 26004.2 -03495.3 -07.6555 26238.1
 17 10 2013  02 46  -21.0279 26004.1 -03495.3 -07.6555 26238.0
 17 10 2013  02 47  -21.0280 26004.1 -03495.3 -07.6555 26238.0
 17 10 2013  02 48  -21.0280 26004.0 -03495.3 -07.6555 26237.9
 17 10 2013  02 49  -21.0279 26004.1 -03495.3 -07.6555 26237.9
 17 10 2013  02 50  -21.0278 26004.0 -03495.3 -07.6555 26237.9
 17 10 2013  02 51  -21.0276 26004.0 -03495.3 -07.6555 26237.8
 17 10 2013  02 52  -21.0275 26004.0 -03495.4 -07.6556 26237.9
 17 10 2013  02 53  -21.0273 26004.1 -03495.4 -07.6556 26238.0
 17 10 2013  02 54  -21.0270 26004.2 -03495.4 -07.6557 26238.0
 17 10 2013  02 55  -21.0267 26004.2 -03495.5 -07.6558 26238.1
 17 10 2013  02 56  -21.0264 26004.2 -03495.5 -07.6558 26238.1
 17 10 2013  02 57  -21.0262 26004.1 -03495.5 -07.6558 26238.0
 17 10 2013  02 58  -21.0262 26004.0 -03495.5 -07.6558 26237.9
 17 10 2013  02 59  -21.0262 26003.9 -03495.5 -07.6558 26237.8
 17 10 2013  03 00  -21.0263 26003.9 -03495.4 -07.6558 26237.8
 17 10 2013  03 01  -21.0261 26003.8 -03495.4 -07.6558 26237.7
 17 10 2013  03 02  -21.0261 26003.8 -03495.4 -07.6558 26237.6
 17 10 2013  03 03  -21.0260 26003.7 -03495.4 -07.6558 26237.5
 17 10 2013  03 04  -21.0259 26003.6 -03495.4 -07.6557 26237.5
 17 10 2013  03 05  -21.0259 26003.5 -03495.4 -07.6558 26237.3
 17 10 2013  03 06  -21.0261 26003.4 -03495.4 -07.6558 26237.3
 17 10 2013  03 07  -21.0261 26003.7 -03495.5 -07.6560 26237.6
 17 10 2013  03 08  -21.0254 26004.9 -03496.1 -07.6568 26238.9
 17 10 2013  03 09  -21.0247 26006.7 -03496.9 -07.6582 26240.7
 17 10 2013  03 10  -21.0242 26007.4 -03497.4 -07.6590 26241.5
 17 10 2013  03 11  -21.0236 26008.4 -03497.8 -07.6596 26242.5
 17 10 2013  03 12  -21.0233 26009.1 -03498.2 -07.6602 26243.3
 17 10 2013  03 13  -21.0228 26009.8 -03498.4 -07.6604 26244.0
 17 10 2013  03 14  -21.0224 26010.5 -03498.6 -07.6608 26244.7
 17 10 2013  03 15  -21.0221 26011.0 -03498.8 -07.6611 26245.3
 17 10 2013  03 16  -21.0224 26011.3 -03498.9 -07.6611 26245.6
 17 10 2013  03 17  -21.0221 26011.7 -03499.0 -07.6612 26246.0
 17 10 2013  03 18  -21.0221 26011.7 -03498.9 -07.6610 26245.9
 17 10 2013  03 19  -21.0223 26012.0 -03498.9 -07.6610 26246.3
 17 10 2013  03 20  -21.0225 26012.6 -03499.1 -07.6612 26246.9
 17 10 2013  03 21  -21.0229 26012.9 -03499.2 -07.6614 26247.2
 17 10 2013  03 22  -21.0231 26013.1 -03499.3 -07.6614 26247.4
 17 10 2013  03 23  -21.0227 26013.4 -03499.3 -07.6613 26247.7
 17 10 2013  03 24  -21.0225 26013.5 -03499.2 -07.6611 26247.8
 17 10 2013  03 25  -21.0223 26013.8 -03499.2 -07.6611 26248.1
 17 10 2013  03 26  -21.0218 26014.4 -03499.4 -07.6613 26248.7
 17 10 2013  03 27  -21.0214 26015.3 -03499.8 -07.6619 26249.7
 17 10 2013  03 28  -21.0215 26016.2 -03500.2 -07.6625 26250.6
 17 10 2013  03 29  -21.0216 26016.8 -03500.4 -07.6628 26251.2
 17 10 2013  03 30  -21.0214 26017.1 -03500.5 -07.6629 26251.6
 17 10 2013  03 31  -21.0212 26017.3 -03500.4 -07.6627 26251.7
 17 10 2013  03 32  -21.0210 26017.3 -03500.3 -07.6625 26251.8
 17 10 2013  03 33  -21.0213 26017.2 -03500.2 -07.6622 26251.6
 17 10 2013  03 34  -21.0211 26017.0 -03500.0 -07.6618 26251.3
 17 10 2013  03 35  -21.0210 26017.0 -03499.9 -07.6615 26251.3
 17 10 2013  03 36  -21.0213 26017.0 -03499.8 -07.6615 26251.3
 17 10 2013  03 37  -21.0216 26017.2 -03499.9 -07.6615 26251.5
 17 10 2013  03 38  -21.0215 26017.2 -03499.8 -07.6614 26251.6
 17 10 2013  03 39  -21.0214 26017.2 -03499.7 -07.6612 26251.5
 17 10 2013  03 40  -21.0212 26017.4 -03499.8 -07.6612 26251.7
 17 10 2013  03 41  -21.0213 26017.6 -03499.8 -07.6612 26251.9
 17 10 2013  03 42  -21.0210 26017.6 -03499.8 -07.6611 26252.0
 17 10 2013  03 43  -21.0208 26017.5 -03499.7 -07.6610 26251.8
 17 10 2013  03 44  -21.0205 26017.3 -03499.5 -07.6607 26251.6
 17 10 2013  03 45  -21.0204 26017.1 -03499.4 -07.6605 26251.4
 17 10 2013  03 46  -21.0203 26017.0 -03499.3 -07.6604 26251.3
 17 10 2013  03 47  -21.0202 26016.8 -03499.2 -07.6601 26251.0
 17 10 2013  03 48  -21.0197 26016.6 -03499.1 -07.6600 26250.9
 17 10 2013  03 49  -21.0196 26016.6 -03499.0 -07.6598 26250.8
 17 10 2013  03 50  -21.0194 26016.7 -03499.1 -07.6600 26250.9
 17 10 2013  03 51  -21.0195 26016.7 -03499.1 -07.6601 26251.0
 17 10 2013  03 52  -21.0196 26016.8 -03499.2 -07.6601 26251.0
 17 10 2013  03 53  -21.0196 26016.6 -03499.2 -07.6601 26250.9
 17 10 2013  03 54  -21.0196 26016.7 -03499.2 -07.6602 26250.9
 17 10 2013  03 55  -21.0194 26016.5 -03499.1 -07.6601 26250.8
 17 10 2013  03 56  -21.0193 26016.4 -03499.0 -07.6599 26250.7
 17 10 2013  03 57  -21.0192 26016.4 -03499.0 -07.6599 26250.6
 17 10 2013  03 58  -21.0188 26016.3 -03499.0 -07.6599 26250.6
 17 10 2013  03 59  -21.0184 26016.3 -03499.0 -07.6598 26250.5
 17 10 2013  04 00  -21.0181 26016.2 -03499.0 -07.6599 26250.4
 17 10 2013  04 01  -21.0179 26016.0 -03498.9 -07.6598 26250.3
 17 10 2013  04 02  -21.0176 26015.8 -03498.8 -07.6596 26250.0
 17 10 2013  04 03  -21.0172 26015.6 -03498.7 -07.6595 26249.8
 17 10 2013  04 04  -21.0172 26015.4 -03498.7 -07.6595 26249.6
 17 10 2013  04 05  -21.0172 26015.2 -03498.6 -07.6594 26249.4
 17 10 2013  04 06  -21.0174 26015.1 -03498.6 -07.6595 26249.3
 17 10 2013  04 07  -21.0175 26014.9 -03498.6 -07.6594 26249.1
 17 10 2013  04 08  -21.0178 26014.9 -03498.6 -07.6594 26249.1
 17 10 2013  04 09  -21.0183 26015.0 -03498.7 -07.6596 26249.2
 17 10 2013  04 10  -21.0192 26015.2 -03498.9 -07.6599 26249.5
 17 10 2013  04 11  -21.0200 26015.3 -03499.0 -07.6601 26249.5
 17 10 2013  04 12  -21.0210 26015.5 -03499.1 -07.6602 26249.8
 17 10 2013  04 13  -21.0220 26015.6 -03499.1 -07.6603 26249.9
 17 10 2013  04 14  -21.0230 26015.7 -03499.1 -07.6603 26249.9
 17 10 2013  04 15  -21.0239 26015.5 -03499.0 -07.6600 26249.7
 17 10 2013  04 16  -21.0244 26015.4 -03498.8 -07.6597 26249.6
 17 10 2013  04 17  -21.0246 26015.2 -03498.6 -07.6594 26249.4
 17 10 2013  04 18  -21.0247 26014.9 -03498.4 -07.6590 26249.1
 17 10 2013  04 19  -21.0247 26014.8 -03498.3 -07.6588 26248.9
 17 10 2013  04 20  -21.0248 26014.7 -03498.2 -07.6586 26248.8
 17 10 2013  04 21  -21.0247 26014.5 -03498.1 -07.6584 26248.6
 17 10 2013  04 22  -21.0241 26014.3 -03497.9 -07.6582 26248.4
 17 10 2013  04 23  -21.0235 26014.1 -03497.8 -07.6579 26248.2
 17 10 2013  04 24  -21.0229 26013.9 -03497.7 -07.6578 26248.0
 17 10 2013  04 25  -21.0223 26013.7 -03497.6 -07.6577 26247.8
 17 10 2013  04 26  -21.0221 26013.7 -03497.6 -07.6577 26247.8
 17 10 2013  04 27  -21.0222 26013.7 -03497.7 -07.6579 26247.8
 17 10 2013  04 28  -21.0223 26013.8 -03497.8 -07.6580 26247.9
 17 10 2013  04 29  -21.0229 26014.0 -03497.9 -07.6582 26248.1
 17 10 2013  04 30  -21.0235 26014.2 -03498.1 -07.6584 26248.3
 17 10 2013  04 31  -21.0242 26014.2 -03498.1 -07.6586 26248.3
 17 10 2013  04 32  -21.0246 26014.1 -03498.1 -07.6585 26248.3
 17 10 2013  04 33  -21.0250 26014.1 -03498.0 -07.6584 26248.3
 17 10 2013  04 34  -21.0257 26014.1 -03498.0 -07.6583 26248.2
 17 10 2013  04 35  -21.0264 26014.1 -03498.0 -07.6583 26248.3
 17 10 2013  04 36  -21.0271 26014.1 -03497.9 -07.6582 26248.2
 17 10 2013  04 37  -21.0277 26014.1 -03497.9 -07.6581 26248.2
 17 10 2013  04 38  -21.0279 26014.0 -03497.8 -07.6579 26248.1
 17 10 2013  04 39  -21.0281 26013.9 -03497.7 -07.6578 26248.0
 17 10 2013  04 40  -21.0280 26014.0 -03497.6 -07.6576 26248.1
 17 10 2013  04 41  -21.0282 26014.0 -03497.6 -07.6576 26248.1
 17 10 2013  04 42  -21.0286 26014.0 -03497.6 -07.6575 26248.0
 17 10 2013  04 43  -21.0291 26013.9 -03497.6 -07.6575 26247.9
 17 10 2013  04 44  -21.0290 26013.8 -03497.5 -07.6573 26247.8
 17 10 2013  04 45  -21.0288 26013.5 -03497.3 -07.6570 26247.6
 17 10 2013  04 46  -21.0283 26013.5 -03497.2 -07.6569 26247.5
 17 10 2013  04 47  -21.0279 26013.5 -03497.2 -07.6568 26247.5
 17 10 2013  04 48  -21.0277 26013.6 -03497.3 -07.6570 26247.6
 17 10 2013  04 49  -21.0278 26013.7 -03497.4 -07.6571 26247.7
 17 10 2013  04 50  -21.0277 26013.8 -03497.5 -07.6573 26247.8
 17 10 2013  04 51  -21.0273 26013.7 -03497.5 -07.6573 26247.8
 17 10 2013  04 52  -21.0267 26013.6 -03497.4 -07.6571 26247.7
 17 10 2013  04 53  -21.0262 26013.6 -03497.3 -07.6570 26247.6
 17 10 2013  04 54  -21.0260 26013.5 -03497.3 -07.6571 26247.5
 17 10 2013  04 55  -21.0259 26013.4 -03497.3 -07.6571 26247.4
 17 10 2013  04 56  -21.0259 26013.3 -03497.3 -07.6571 26247.3
 17 10 2013  04 57  -21.0257 26013.1 -03497.3 -07.6571 26247.2
 17 10 2013  04 58  -21.0257 26013.1 -03497.3 -07.6571 26247.1
 17 10 2013  04 59  -21.0258 26013.1 -03497.3 -07.6571 26247.1
 17 10 2013  05 00  -21.0263 26013.2 -03497.4 -07.6573 26247.2
 17 10 2013  05 01  -21.0267 26013.2 -03497.5 -07.6575 26247.3
 17 10 2013  05 02  -21.0270 26013.3 -03497.5 -07.6575 26247.4
 17 10 2013  05 03  -21.0275 26013.4 -03497.6 -07.6576 26247.5
 17 10 2013  05 04  -21.0281 26013.6 -03497.6 -07.6577 26247.7
 17 10 2013  05 05  -21.0286 26013.6 -03497.6 -07.6577 26247.7
 17 10 2013  05 06  -21.0288 26013.5 -03497.5 -07.6576 26247.5
 17 10 2013  05 07  -21.0289 26013.3 -03497.4 -07.6574 26247.3
 17 10 2013  05 08  -21.0291 26013.1 -03497.3 -07.6572 26247.2
 17 10 2013  05 09  -21.0291 26013.0 -03497.2 -07.6570 26247.1
 17 10 2013  05 10  -21.0291 26012.9 -03497.2 -07.6569 26246.9
 17 10 2013  05 11  -21.0290 26012.8 -03497.1 -07.6568 26246.8
 17 10 2013  05 12  -21.0288 26012.7 -03497.1 -07.6568 26246.7
 17 10 2013  05 13  -21.0287 26012.6 -03497.0 -07.6567 26246.6
 17 10 2013  05 14  -21.0288 26012.7 -03497.1 -07.6568 26246.7
 17 10 2013  05 15  -21.0290 26012.7 -03497.2 -07.6569 26246.8
 17 10 2013  05 16  -21.0293 26012.7 -03497.2 -07.6570 26246.7
 17 10 2013  05 17  -21.0294 26012.6 -03497.1 -07.6569 26246.6
 17 10 2013  05 18  -21.0290 26012.4 -03497.0 -07.6567 26246.4
 17 10 2013  05 19  -21.0284 26012.1 -03496.9 -07.6565 26246.1
 17 10 2013  05 20  -21.0276 26011.8 -03496.7 -07.6562 26245.8
 17 10 2013  05 21  -21.0272 26011.5 -03496.6 -07.6561 26245.5
 17 10 2013  05 22  -21.0269 26011.3 -03496.6 -07.6560 26245.3
 17 10 2013  05 23  -21.0265 26011.2 -03496.6 -07.6561 26245.1
 17 10 2013  05 24  -21.0258 26011.1 -03496.6 -07.6561 26245.1
 17 10 2013  05 25  -21.0253 26011.1 -03496.7 -07.6563 26245.1
 17 10 2013  05 26  -21.0254 26011.2 -03496.8 -07.6566 26245.2
 17 10 2013  05 27  -21.0257 26011.4 -03497.0 -07.6570 26245.5
 17 10 2013  05 28  -21.0258 26011.5 -03497.2 -07.6573 26245.6
 17 10 2013  05 29  -21.0255 26011.5 -03497.2 -07.6573 26245.5
 17 10 2013  05 30  -21.0241 26010.9 -03496.9 -07.6569 26245.0
 17 10 2013  05 31  -21.0221 26010.3 -03496.5 -07.6563 26244.2
 17 10 2013  05 32  -21.0209 26009.9 -03496.4 -07.6560 26243.8
 17 10 2013  05 33  -21.0210 26009.8 -03496.4 -07.6562 26243.7
 17 10 2013  05 34  -21.0216 26009.8 -03496.6 -07.6566 26243.8
 17 10 2013  05 35  -21.0223 26009.8 -03496.8 -07.6570 26243.8
 17 10 2013  05 36  -21.0225 26009.8 -03496.9 -07.6572 26243.8
 17 10 2013  05 37  -21.0229 26009.8 -03496.9 -07.6573 26243.8
 17 10 2013  05 38  -21.0234 26009.7 -03497.0 -07.6574 26243.7
 17 10 2013  05 39  -21.0238 26009.7 -03497.0 -07.6575 26243.8
 17 10 2013  05 40  -21.0243 26009.7 -03497.1 -07.6577 26243.8
 17 10 2013  05 41  -21.0249 26009.7 -03497.1 -07.6577 26243.7
 17 10 2013  05 42  -21.0253 26009.7 -03497.1 -07.6577 26243.8
 17 10 2013  05 43  -21.0258 26009.7 -03497.1 -07.6577 26243.8
 17 10 2013  05 44  -21.0263 26009.7 -03497.1 -07.6578 26243.8
 17 10 2013  05 45  -21.0269 26009.8 -03497.2 -07.6579 26243.8
 17 10 2013  05 46  -21.0272 26009.8 -03497.2 -07.6579 26243.9
 17 10 2013  05 47  -21.0270 26009.7 -03497.1 -07.6577 26243.8
 17 10 2013  05 48  -21.0266 26009.6 -03497.0 -07.6575 26243.6
 17 10 2013  05 49  -21.0261 26009.4 -03496.9 -07.6573 26243.4
 17 10 2013  05 50  -21.0255 26009.2 -03496.8 -07.6571 26243.2
 17 10 2013  05 51  -21.0250 26009.0 -03496.7 -07.6570 26243.0
 17 10 2013  05 52  -21.0246 26008.9 -03496.7 -07.6570 26242.9
 17 10 2013  05 53  -21.0245 26008.8 -03496.7 -07.6571 26242.8
 17 10 2013  05 54  -21.0244 26008.8 -03496.7 -07.6572 26242.8
 17 10 2013  05 55  -21.0241 26008.8 -03496.8 -07.6572 26242.8
 17 10 2013  05 56  -21.0241 26008.8 -03496.9 -07.6574 26242.8
 17 10 2013  05 57  -21.0242 26008.8 -03496.9 -07.6576 26242.9
 17 10 2013  05 58  -21.0244 26008.9 -03497.0 -07.6578 26243.0
 17 10 2013  05 59  -21.0247 26008.9 -03497.1 -07.6579 26243.0
 17 10 2013  06 00  -21.0249 26008.9 -03497.1 -07.6579 26242.9
 17 10 2013  06 01  -21.0248 26008.9 -03497.1 -07.6579 26242.9
 17 10 2013  06 02  -21.0248 26008.8 -03497.1 -07.6579 26242.9
 17 10 2013  06 03  -21.0250 26008.9 -03497.1 -07.6580 26243.0
 17 10 2013  06 04  -21.0253 26009.0 -03497.2 -07.6581 26243.1
 17 10 2013  06 05  -21.0255 26009.0 -03497.2 -07.6581 26243.1
 17 10 2013  06 06  -21.0256 26009.0 -03497.2 -07.6582 26243.1
 17 10 2013  06 07  -21.0259 26009.0 -03497.2 -07.6581 26243.1
 17 10 2013  06 08  -21.0261 26009.0 -03497.2 -07.6581 26243.1
 17 10 2013  06 09  -21.0266 26009.0 -03497.2 -07.6582 26243.1
 17 10 2013  06 10  -21.0271 26009.1 -03497.3 -07.6582 26243.2
 17 10 2013  06 11  -21.0278 26009.2 -03497.3 -07.6583 26243.2
 17 10 2013  06 12  -21.0284 26009.2 -03497.3 -07.6583 26243.2
 17 10 2013  06 13  -21.0289 26009.0 -03497.2 -07.6581 26243.1
 17 10 2013  06 14  -21.0292 26008.9 -03497.2 -07.6580 26243.0
 17 10 2013  06 15  -21.0295 26008.9 -03497.1 -07.6579 26243.0
 17 10 2013  06 16  -21.0296 26009.0 -03497.1 -07.6578 26243.0
 17 10 2013  06 17  -21.0297 26009.1 -03497.1 -07.6578 26243.1
 17 10 2013  06 18  -21.0295 26009.0 -03497.0 -07.6577 26243.1
 17 10 2013  06 19  -21.0293 26009.0 -03497.0 -07.6576 26243.0
 17 10 2013  06 20  -21.0291 26009.1 -03497.0 -07.6577 26243.1
 17 10 2013  06 21  -21.0290 26009.3 -03497.1 -07.6578 26243.3
 17 10 2013  06 22  -21.0289 26009.6 -03497.2 -07.6580 26243.6
 17 10 2013  06 23  -21.0290 26009.9 -03497.4 -07.6583 26244.0
 17 10 2013  06 24  -21.0292 26010.0 -03497.5 -07.6584 26244.1
 17 10 2013  06 25  -21.0294 26010.0 -03497.5 -07.6584 26244.1
 17 10 2013  06 26  -21.0294 26010.0 -03497.4 -07.6583 26244.1
 17 10 2013  06 27  -21.0294 26009.9 -03497.4 -07.6582 26244.0
 17 10 2013  06 28  -21.0293 26009.8 -03497.3 -07.6581 26243.9
 17 10 2013  06 29  -21.0291 26009.8 -03497.2 -07.6580 26243.8
 17 10 2013  06 30  -21.0289 26009.7 -03497.2 -07.6579 26243.7
 17 10 2013  06 31  -21.0291 26009.8 -03497.2 -07.6579 26243.8
 17 10 2013  06 32  -21.0293 26009.7 -03497.2 -07.6580 26243.8
 17 10 2013  06 33  -21.0292 26009.8 -03497.3 -07.6580 26243.9
 17 10 2013  06 34  -21.0289 26009.8 -03497.3 -07.6580 26243.8
 17 10 2013  06 35  -21.0284 26009.6 -03497.2 -07.6579 26243.7
 17 10 2013  06 36  -21.0281 26009.5 -03497.1 -07.6578 26243.6
 17 10 2013  06 37  -21.0277 26009.4 -03497.1 -07.6578 26243.4
 17 10 2013  06 38  -21.0274 26009.1 -03497.1 -07.6578 26243.2
 17 10 2013  06 39  -21.0271 26008.9 -03497.0 -07.6577 26243.0
 17 10 2013  06 40  -21.0269 26008.7 -03497.0 -07.6577 26242.8
 17 10 2013  06 41  -21.0269 26008.7 -03497.0 -07.6578 26242.8
 17 10 2013  06 42  -21.0271 26008.6 -03497.1 -07.6579 26242.7
 17 10 2013  06 43  -21.0277 26008.7 -03497.2 -07.6582 26242.8
 17 10 2013  06 44  -21.0279 26008.7 -03497.2 -07.6583 26242.7
 17 10 2013  06 45  -21.0280 26008.7 -03497.3 -07.6583 26242.7
 17 10 2013  06 46  -21.0280 26008.6 -03497.2 -07.6582 26242.7
 17 10 2013  06 47  -21.0276 26008.7 -03497.2 -07.6583 26242.7
 17 10 2013  06 48  -21.0272 26008.8 -03497.3 -07.6584 26242.8
 17 10 2013  06 49  -21.0269 26008.7 -03497.3 -07.6584 26242.8
 17 10 2013  06 50  -21.0265 26008.7 -03497.3 -07.6584 26242.8
 17 10 2013  06 51  -21.0261 26008.7 -03497.4 -07.6585 26242.8
 17 10 2013  06 52  -21.0259 26008.8 -03497.4 -07.6587 26242.9
 17 10 2013  06 53  -21.0258 26008.8 -03497.5 -07.6588 26242.9
 17 10 2013  06 54  -21.0259 26008.8 -03497.5 -07.6589 26242.9
 17 10 2013  06 55  -21.0261 26008.7 -03497.6 -07.6590 26242.8
 17 10 2013  06 56  -21.0261 26008.5 -03497.5 -07.6589 26242.6
 17 10 2013  06 57  -21.0267 26008.2 -03497.5 -07.6589 26242.3
 17 10 2013  06 58  -21.0271 26008.3 -03497.5 -07.6590 26242.5
 17 10 2013  06 59  -21.0273 26008.2 -03497.5 -07.6590 26242.3
 17 10 2013  07 00  -21.0279 26007.9 -03497.4 -07.6589 26242.0
 17 10 2013  07 01  -21.0279 26007.6 -03497.3 -07.6587 26241.7
 17 10 2013  07 02  -21.0283 26007.3 -03497.1 -07.6585 26241.3
 17 10 2013  07 03  -21.0285 26007.1 -03497.1 -07.6584 26241.1
 17 10 2013  07 04  -21.0286 26006.8 -03497.0 -07.6582 26240.8
 17 10 2013  07 05  -21.0289 26006.4 -03496.8 -07.6581 26240.4
 17 10 2013  07 06  -21.0294 26006.2 -03496.8 -07.6580 26240.3
 17 10 2013  07 07  -21.0295 26006.1 -03496.7 -07.6579 26240.1
 17 10 2013  07 08  -21.0292 26006.0 -03496.7 -07.6579 26240.0
 17 10 2013  07 09  -21.0285 26006.1 -03496.8 -07.6580 26240.2
 17 10 2013  07 10  -21.0276 26006.3 -03496.8 -07.6580 26240.3
 17 10 2013  07 11  -21.0269 26006.3 -03496.9 -07.6581 26240.4
 17 10 2013  07 12  -21.0261 26006.5 -03497.0 -07.6583 26240.6
 17 10 2013  07 13  -21.0252 26006.8 -03497.1 -07.6585 26240.8
 17 10 2013  07 14  -21.0242 26007.0 -03497.2 -07.6587 26241.0
 17 10 2013  07 15  -21.0232 26007.1 -03497.3 -07.6588 26241.2
 17 10 2013  07 16  -21.0222 26007.3 -03497.4 -07.6590 26241.4
 17 10 2013  07 17  -21.0215 26007.4 -03497.4 -07.6591 26241.5
 17 10 2013  07 18  -21.0210 26007.4 -03497.5 -07.6593 26241.5
 17 10 2013  07 19  -21.0211 26007.4 -03497.6 -07.6595 26241.5
 17 10 2013  07 20  -21.0213 26007.5 -03497.8 -07.6598 26241.7
 17 10 2013  07 21  -21.0215 26007.9 -03498.0 -07.6602 26242.1
 17 10 2013  07 22  -21.0216 26007.9 -03498.0 -07.6602 26242.1
 17 10 2013  07 23  -21.0211 26008.2 -03498.0 -07.6602 26242.3
 17 10 2013  07 24  -21.0208 26008.4 -03498.1 -07.6603 26242.6
 17 10 2013  07 25  -21.0209 26008.4 -03498.2 -07.6604 26242.6
 17 10 2013  07 26  -21.0210 26008.4 -03498.2 -07.6605 26242.6
 17 10 2013  07 27  -21.0208 26008.3 -03498.2 -07.6605 26242.5
 17 10 2013  07 28  -21.0204 26008.4 -03498.2 -07.6605 26242.6
 17 10 2013  07 29  -21.0200 26008.4 -03498.2 -07.6605 26242.6
 17 10 2013  07 30  -21.0196 26008.5 -03498.3 -07.6607 26242.7
 17 10 2013  07 31  -21.0191 26008.6 -03498.4 -07.6607 26242.8
 17 10 2013  07 32  -21.0189 26008.5 -03498.4 -07.6609 26242.7
 17 10 2013  07 33  -21.0189 26008.6 -03498.5 -07.6611 26242.9
 17 10 2013  07 34  -21.0190 26008.7 -03498.7 -07.6614 26243.0
 17 10 2013  07 35  -21.0191 26008.9 -03498.9 -07.6617 26243.2
 17 10 2013  07 36  -21.0190 26009.3 -03499.0 -07.6620 26243.6
 17 10 2013  07 37  -21.0192 26009.4 -03499.2 -07.6623 26243.8
 17 10 2013  07 38  -21.0193 26009.9 -03499.4 -07.6625 26244.3
 17 10 2013  07 39  -21.0196 26010.3 -03499.5 -07.6627 26244.6
 17 10 2013  07 40  -21.0200 26010.5 -03499.6 -07.6628 26244.9
 17 10 2013  07 41  -21.0203 26010.7 -03499.7 -07.6629 26245.1
 17 10 2013  07 42  -21.0204 26011.0 -03499.7 -07.6629 26245.4
 17 10 2013  07 43  -21.0205 26011.0 -03499.6 -07.6627 26245.4
 17 10 2013  07 44  -21.0206 26010.8 -03499.5 -07.6626 26245.2
 17 10 2013  07 45  -21.0204 26010.7 -03499.5 -07.6625 26245.1
 17 10 2013  07 46  -21.0202 26010.6 -03499.4 -07.6625 26245.0
 17 10 2013  07 47  -21.0201 26010.5 -03499.4 -07.6625 26244.9
 17 10 2013  07 48  -21.0202 26010.7 -03499.5 -07.6627 26245.0
 17 10 2013  07 49  -21.0203 26010.6 -03499.5 -07.6627 26245.0
 17 10 2013  07 50  -21.0202 26010.6 -03499.5 -07.6627 26245.0
 17 10 2013  07 51  -21.0203 26010.8 -03499.7 -07.6629 26245.2
 17 10 2013  07 52  -21.0207 26010.9 -03499.7 -07.6629 26245.3
 17 10 2013  07 53  -21.0207 26011.2 -03499.7 -07.6629 26245.5
 17 10 2013  07 54  -21.0205 26011.4 -03499.7 -07.6628 26245.8
 17 10 2013  07 55  -21.0201 26011.7 -03499.7 -07.6628 26246.1
 17 10 2013  07 56  -21.0197 26012.0 -03499.7 -07.6627 26246.4
 17 10 2013  07 57  -21.0195 26012.3 -03499.8 -07.6627 26246.7
 17 10 2013  07 58  -21.0195 26012.4 -03499.9 -07.6629 26246.8
 17 10 2013  07 59  -21.0194 26012.4 -03500.0 -07.6631 26246.8
 17 10 2013  08 00  -21.0191 26012.4 -03500.0 -07.6632 26246.8
 17 10 2013  08 01  -21.0189 26012.6 -03500.1 -07.6633 26247.0
 17 10 2013  08 02  -21.0188 26012.6 -03500.1 -07.6634 26247.0
 17 10 2013  08 03  -21.0186 26012.4 -03500.1 -07.6633 26246.8
 17 10 2013  08 04  -21.0188 26012.3 -03500.1 -07.6633 26246.7
 17 10 2013  08 05  -21.0188 26012.3 -03500.1 -07.6635 26246.7
 17 10 2013  08 06  -21.0188 26012.0 -03500.0 -07.6633 26246.4
 17 10 2013  08 07  -21.0189 26011.6 -03499.8 -07.6630 26246.0
 17 10 2013  08 08  -21.0189 26011.3 -03499.6 -07.6627 26245.6
 17 10 2013  08 09  -21.0185 26010.7 -03499.4 -07.6623 26245.1
 17 10 2013  08 10  -21.0184 26010.6 -03499.3 -07.6622 26245.0
 17 10 2013  08 11  -21.0187 26010.5 -03499.3 -07.6623 26244.9
 17 10 2013  08 12  -21.0187 26010.5 -03499.5 -07.6626 26244.9
 17 10 2013  08 13  -21.0184 26010.5 -03499.5 -07.6627 26244.9
 17 10 2013  08 14  -21.0178 26010.6 -03499.5 -07.6627 26244.9
 17 10 2013  08 15  -21.0178 26010.4 -03499.5 -07.6626 26244.8
 17 10 2013  08 16  -21.0181 26010.3 -03499.4 -07.6625 26244.7
 17 10 2013  08 17  -21.0182 26010.4 -03499.4 -07.6624 26244.7
 17 10 2013  08 18  -21.0181 26010.5 -03499.4 -07.6623 26244.8
 17 10 2013  08 19  -21.0182 26010.6 -03499.3 -07.6623 26244.9
 17 10 2013  08 20  -21.0181 26010.7 -03499.3 -07.6622 26245.0
 17 10 2013  08 21  -21.0180 26010.7 -03499.2 -07.6620 26245.1
 17 10 2013  08 22  -21.0180 26010.7 -03499.2 -07.6620 26245.0
 17 10 2013  08 23  -21.0175 26010.5 -03499.1 -07.6617 26244.8
 17 10 2013  08 24  -21.0170 26010.4 -03498.9 -07.6614 26244.7
 17 10 2013  08 25  -21.0164 26010.3 -03498.8 -07.6613 26244.6
 17 10 2013  08 26  -21.0157 26010.2 -03498.8 -07.6612 26244.5
 17 10 2013  08 27  -21.0147 26010.0 -03498.7 -07.6611 26244.3
 17 10 2013  08 28  -21.0140 26009.9 -03498.7 -07.6611 26244.2
 17 10 2013  08 29  -21.0134 26009.8 -03498.7 -07.6611 26244.0
 17 10 2013  08 30  -21.0130 26009.8 -03498.8 -07.6613 26244.0
 17 10 2013  08 31  -21.0127 26009.8 -03498.9 -07.6616 26244.1
 17 10 2013  08 32  -21.0124 26009.9 -03499.1 -07.6619 26244.2
 17 10 2013  08 33  -21.0121 26009.9 -03499.2 -07.6621 26244.2
 17 10 2013  08 34  -21.0116 26009.8 -03499.3 -07.6623 26244.2
 17 10 2013  08 35  -21.0112 26009.8 -03499.3 -07.6624 26244.1
 17 10 2013  08 36  -21.0112 26009.8 -03499.5 -07.6627 26244.2
 17 10 2013  08 37  -21.0108 26009.8 -03499.6 -07.6630 26244.2
 17 10 2013  08 38  -21.0105 26009.8 -03499.7 -07.6632 26244.2
 17 10 2013  08 39  -21.0101 26009.8 -03499.8 -07.6635 26244.2
 17 10 2013  08 40  -21.0097 26009.9 -03499.9 -07.6637 26244.3
 17 10 2013  08 41  -21.0096 26009.8 -03500.0 -07.6640 26244.3
 17 10 2013  08 42  -21.0093 26009.8 -03500.0 -07.6640 26244.3
 17 10 2013  08 43  -21.0089 26009.7 -03500.2 -07.6644 26244.1
 17 10 2013  08 44  -21.0088 26009.5 -03500.4 -07.6648 26244.0
 17 10 2013  08 45  -21.0085 26009.4 -03500.5 -07.6651 26243.9
 17 10 2013  08 46  -21.0087 26009.4 -03500.6 -07.6654 26244.0
 17 10 2013  08 47  -21.0090 26009.5 -03500.8 -07.6658 26244.0
 17 10 2013  08 48  -21.0089 26009.3 -03500.9 -07.6660 26243.9
 17 10 2013  08 49  -21.0090 26009.2 -03501.0 -07.6662 26243.7
 17 10 2013  08 50  -21.0089 26009.0 -03501.1 -07.6665 26243.6
 17 10 2013  08 51  -21.0087 26008.7 -03501.1 -07.6667 26243.2
 17 10 2013  08 52  -21.0084 26008.4 -03501.2 -07.6669 26243.0
 17 10 2013  08 53  -21.0085 26008.5 -03501.4 -07.6674 26243.2
 17 10 2013  08 54  -21.0090 26008.7 -03501.7 -07.6680 26243.3
 17 10 2013  08 55  -21.0093 26008.6 -03501.8 -07.6682 26243.3
 17 10 2013  08 56  -21.0091 26008.4 -03501.9 -07.6684 26243.1
 17 10 2013  08 57  -21.0095 26008.4 -03502.1 -07.6688 26243.1
 17 10 2013  08 58  -21.0097 26008.1 -03502.1 -07.6691 26242.9
 17 10 2013  08 59  -21.0100 26008.0 -03502.3 -07.6694 26242.7
 17 10 2013  09 00  -21.0100 26007.9 -03502.4 -07.6698 26242.7
 17 10 2013  09 01  -21.0106 26008.0 -03502.6 -07.6701 26242.8
 17 10 2013  09 02  -21.0115 26008.4 -03502.9 -07.6707 26243.2
 17 10 2013  09 03  -21.0124 26008.7 -03503.2 -07.6711 26243.6
 17 10 2013  09 04  -21.0134 26009.0 -03503.3 -07.6714 26243.9
 17 10 2013  09 05  -21.0135 26008.8 -03503.3 -07.6714 26243.7
 17 10 2013  09 06  -21.0134 26008.7 -03503.3 -07.6714 26243.6
 17 10 2013  09 07  -21.0137 26008.7 -03503.4 -07.6717 26243.6
 17 10 2013  09 08  -21.0143 26008.8 -03503.6 -07.6720 26243.7
 17 10 2013  09 09  -21.0147 26008.9 -03503.8 -07.6724 26243.9
 17 10 2013  09 10  -21.0146 26008.9 -03503.9 -07.6726 26243.8
 17 10 2013  09 11  -21.0146 26009.0 -03503.8 -07.6724 26243.9
 17 10 2013  09 12  -21.0150 26009.0 -03504.2 -07.6732 26244.0
 17 10 2013  09 13  -21.0155 26009.2 -03504.4 -07.6736 26244.2
 17 10 2013  09 14  -21.0160 26009.6 -03504.6 -07.6739 26244.6
 17 10 2013  09 15  -21.0165 26010.0 -03504.7 -07.6741 26245.1
 17 10 2013  09 16  -21.0169 26010.3 -03504.8 -07.6743 26245.4
 17 10 2013  09 17  -21.0173 26010.3 -03504.9 -07.6744 26245.4
 17 10 2013  09 18  -21.0174 26010.1 -03504.9 -07.6744 26245.2
 17 10 2013  09 19  -21.0173 26009.8 -03504.9 -07.6746 26244.9
 17 10 2013  09 20  -21.0176 26009.6 -03505.1 -07.6750 26244.7
 17 10 2013  09 21  -21.0177 26009.6 -03505.3 -07.6755 26244.7
 17 10 2013  09 22  -21.0176 26009.6 -03505.5 -07.6758 26244.8
 17 10 2013  09 23  -21.0178 26009.8 -03505.7 -07.6762 26245.0
 17 10 2013  09 24  -21.0180 26009.9 -03505.9 -07.6766 26245.1
 17 10 2013  09 25  -21.0184 26010.3 -03506.1 -07.6770 26245.5
 17 10 2013  09 26  -21.0194 26010.7 -03506.4 -07.6775 26246.0
 17 10 2013  09 27  -21.0208 26011.4 -03506.8 -07.6781 26246.8
 17 10 2013  09 28  -21.0219 26011.9 -03507.0 -07.6784 26247.2
 17 10 2013  09 29  -21.0227 26012.3 -03507.1 -07.6785 26247.7
 17 10 2013  09 30  -21.0235 26012.9 -03507.2 -07.6787 26248.3
 17 10 2013  09 31  -21.0241 26013.4 -03507.3 -07.6787 26248.7
 17 10 2013  09 32  -21.0244 26013.8 -03507.3 -07.6786 26249.2
 17 10 2013  09 33  -21.0245 26014.0 -03507.2 -07.6784 26249.4
 17 10 2013  09 34  -21.0252 26014.2 -03507.2 -07.6783 26249.6
 17 10 2013  09 35  -21.0259 26014.2 -03507.2 -07.6783 26249.5
 17 10 2013  09 36  -21.0264 26014.1 -03507.2 -07.6782 26249.4
 17 10 2013  09 37  -21.0266 26014.2 -03507.2 -07.6783 26249.5
 17 10 2013  09 38  -21.0267 26014.0 -03507.2 -07.6782 26249.4
 17 10 2013  09 39  -21.0270 26014.5 -03507.4 -07.6785 26249.8
 17 10 2013  09 40  -21.0278 26015.0 -03507.6 -07.6789 26250.4
 17 10 2013  09 41  -21.0292 26015.7 -03508.0 -07.6795 26251.2
 17 10 2013  09 42  -21.0300 26016.1 -03508.2 -07.6798 26251.6
 17 10 2013  09 43  -21.0303 26016.1 -03508.2 -07.6798 26251.6
 17 10 2013  09 44  -21.0309 26016.3 -03508.3 -07.6799 26251.7
 17 10 2013  09 45  -21.0318 26016.4 -03508.4 -07.6801 26251.9
 17 10 2013  09 46  -21.0317 26016.6 -03508.5 -07.6802 26252.1
 17 10 2013  09 47  -21.0315 26016.7 -03508.5 -07.6804 26252.3
 17 10 2013  09 48  -21.0315 26017.1 -03508.6 -07.6805 26252.6
 17 10 2013  09 49  -21.0313 26017.4 -03508.8 -07.6808 26252.9
 17 10 2013  09 50  -21.0315 26017.7 -03509.0 -07.6811 26253.3
 17 10 2013  09 51  -21.0313 26017.9 -03509.1 -07.6812 26253.5
 17 10 2013  09 52  -21.0315 26018.0 -03509.3 -07.6816 26253.6
 17 10 2013  09 53  -21.0319 26018.2 -03509.5 -07.6820 26253.8
 17 10 2013  09 54  -21.0324 26018.3 -03509.6 -07.6823 26253.9
 17 10 2013  09 55  -21.0324 26018.4 -03509.7 -07.6824 26254.0
 17 10 2013  09 56  -21.0323 26018.5 -03509.7 -07.6823 26254.1
 17 10 2013  09 57  -21.0326 26018.7 -03509.8 -07.6825 26254.3
 17 10 2013  09 58  -21.0330 26018.8 -03509.9 -07.6827 26254.4
 17 10 2013  09 59  -21.0332 26018.9 -03510.0 -07.6830 26254.5
 17 10 2013  10 00  -21.0335 26019.0 -03510.2 -07.6833 26254.7
 17 10 2013  10 01  -21.0336 26019.1 -03510.3 -07.6835 26254.8
 17 10 2013  10 02  -21.0334 26019.2 -03510.4 -07.6836 26254.9
 17 10 2013  10 03  -21.0340 26019.5 -03510.5 -07.6838 26255.2
 17 10 2013  10 04  -21.0351 26019.8 -03510.7 -07.6841 26255.6
 17 10 2013  10 05  -21.0358 26020.2 -03510.9 -07.6844 26256.0
 17 10 2013  10 06  -21.0369 26020.8 -03511.1 -07.6848 26256.6
 17 10 2013  10 07  -21.0376 26021.3 -03511.3 -07.6851 26257.2
 17 10 2013  10 08  -21.0376 26021.7 -03511.4 -07.6852 26257.6
 17 10 2013  10 09  -21.0375 26022.3 -03511.5 -07.6852 26258.1
 17 10 2013  10 10  -21.0370 26022.8 -03511.5 -07.6851 26258.6
 17 10 2013  10 11  -21.0373 26023.2 -03511.5 -07.6850 26259.0
 17 10 2013  10 12  -21.0386 26023.5 -03511.6 -07.6849 26259.3
 17 10 2013  10 13  -21.0400 26023.7 -03511.5 -07.6849 26259.5
 17 10 2013  10 14  -21.0408 26023.9 -03511.6 -07.6850 26259.8
 17 10 2013  10 15  -21.0410 26024.3 -03511.7 -07.6851 26260.2
 17 10 2013  10 16  -21.0405 26024.7 -03511.8 -07.6851 26260.6
 17 10 2013  10 17  -21.0401 26025.4 -03511.9 -07.6851 26261.3
 17 10 2013  10 18  -21.0404 26026.1 -03512.0 -07.6850 26262.0
 17 10 2013  10 19  -21.0417 26027.0 -03512.1 -07.6850 26262.9
 17 10 2013  10 20  -21.0429 26027.7 -03512.1 -07.6848 26263.5
 17 10 2013  10 21  -21.0432 26028.0 -03511.9 -07.6844 26263.9
 17 10 2013  10 22  -21.0432 26028.0 -03511.7 -07.6839 26263.8
 17 10 2013  10 23  -21.0435 26028.1 -03511.6 -07.6836 26263.9
 17 10 2013  10 24  -21.0434 26028.3 -03511.4 -07.6833 26264.1
 17 10 2013  10 25  -21.0439 26028.4 -03511.4 -07.6831 26264.2
 17 10 2013  10 26  -21.0441 26028.6 -03511.4 -07.6831 26264.3
 17 10 2013  10 27  -21.0442 26028.8 -03511.4 -07.6830 26264.5
 17 10 2013  10 28  -21.0450 26029.1 -03511.5 -07.6832 26264.9
 17 10 2013  10 29  -21.0456 26029.6 -03511.7 -07.6834 26265.4
 17 10 2013  10 30  -21.0463 26029.9 -03511.8 -07.6835 26265.8
 17 10 2013  10 31  -21.0471 26030.0 -03511.8 -07.6835 26265.8
 17 10 2013  10 32  -21.0480 26030.0 -03511.8 -07.6836 26265.8
 17 10 2013  10 33  -21.0487 26030.0 -03511.9 -07.6837 26265.9
 17 10 2013  10 34  -21.0494 26030.3 -03511.9 -07.6838 26266.1
 17 10 2013  10 35  -21.0499 26030.2 -03511.9 -07.6837 26266.1
 17 10 2013  10 36  -21.0499 26030.0 -03511.8 -07.6835 26265.9
 17 10 2013  10 37  -21.0492 26029.6 -03511.5 -07.6831 26265.4
 17 10 2013  10 38  -21.0486 26029.7 -03511.5 -07.6830 26265.5
 17 10 2013  10 39  -21.0490 26030.0 -03511.6 -07.6832 26265.8
 17 10 2013  10 40  -21.0501 26030.7 -03511.8 -07.6834 26266.5
 17 10 2013  10 41  -21.0510 26030.9 -03511.8 -07.6833 26266.7
 17 10 2013  10 42  -21.0514 26031.1 -03511.7 -07.6830 26266.9
 17 10 2013  10 43  -21.0521 26031.9 -03511.8 -07.6830 26267.7
 17 10 2013  10 44  -21.0524 26032.7 -03511.8 -07.6829 26268.5
 17 10 2013  10 45  -21.0531 26033.0 -03511.6 -07.6823 26268.7
 17 10 2013  10 46  -21.0534 26033.4 -03511.5 -07.6819 26269.1
 17 10 2013  10 47  -21.0539 26033.9 -03511.4 -07.6816 26269.7
 17 10 2013  10 48  -21.0553 26033.9 -03511.2 -07.6810 26269.6
 17 10 2013  10 49  -21.0563 26034.0 -03510.9 -07.6805 26269.6
 17 10 2013  10 50  -21.0569 26034.5 -03510.9 -07.6803 26270.2
 17 10 2013  10 51  -21.0570 26034.6 -03510.7 -07.6798 26270.2
 17 10 2013  10 52  -21.0573 26034.5 -03510.4 -07.6793 26270.1
 17 10 2013  10 53  -21.0580 26034.7 -03510.3 -07.6790 26270.3
 17 10 2013  10 54  -21.0583 26034.7 -03510.2 -07.6786 26270.2
 17 10 2013  10 55  -21.0587 26034.7 -03510.0 -07.6783 26270.2
 17 10 2013  10 56  -21.0591 26035.0 -03510.0 -07.6781 26270.6
 17 10 2013  10 57  -21.0596 26035.1 -03509.8 -07.6777 26270.6
 17 10 2013  10 58  -21.0599 26035.2 -03509.7 -07.6775 26270.7
 17 10 2013  10 59  -21.0603 26035.4 -03509.6 -07.6773 26270.9
 17 10 2013  11 00  -21.0614 26035.4 -03509.5 -07.6770 26270.9
 17 10 2013  11 01  -21.0613 26035.6 -03509.4 -07.6767 26271.0
 17 10 2013  11 02  -21.0611 26035.7 -03509.2 -07.6762 26271.1
 17 10 2013  11 03  -21.0610 26035.8 -03509.0 -07.6759 26271.2
 17 10 2013  11 04  -21.0608 26036.0 -03508.9 -07.6755 26271.4
 17 10 2013  11 05  -21.0604 26036.3 -03508.8 -07.6752 26271.6
 17 10 2013  11 06  -21.0607 26036.4 -03508.6 -07.6748 26271.7
 17 10 2013  11 07  -21.0611 26036.5 -03508.5 -07.6745 26271.8
 17 10 2013  11 08  -21.0616 26036.9 -03508.4 -07.6742 26272.2
 17 10 2013  11 09  -21.0622 26037.4 -03508.4 -07.6741 26272.7
 17 10 2013  11 10  -21.0628 26037.9 -03508.4 -07.6739 26273.2
 17 10 2013  11 11  -21.0631 26038.2 -03508.3 -07.6735 26273.5
 17 10 2013  11 12  -21.0632 26038.5 -03508.1 -07.6730 26273.8
 17 10 2013  11 13  -21.0642 26038.5 -03507.9 -07.6726 26273.8
 17 10 2013  11 14  -21.0648 26038.6 -03507.7 -07.6722 26273.8
 17 10 2013  11 15  -21.0658 26038.8 -03507.6 -07.6720 26274.0
 17 10 2013  11 16  -21.0662 26039.2 -03507.5 -07.6717 26274.4
 17 10 2013  11 17  -21.0668 26039.5 -03507.4 -07.6713 26274.6
 17 10 2013  11 18  -21.0673 26039.2 -03507.0 -07.6705 26274.3
 17 10 2013  11 19  -21.0679 26038.7 -03506.5 -07.6696 26273.7
 17 10 2013  11 20  -21.0681 26038.6 -03506.2 -07.6690 26273.6
 17 10 2013  11 21  -21.0686 26038.6 -03506.0 -07.6686 26273.6
 17 10 2013  11 22  -21.0689 26039.0 -03506.0 -07.6685 26273.9
 17 10 2013  11 23  -21.0693 26039.4 -03506.0 -07.6683 26274.4
 17 10 2013  11 24  -21.0690 26039.9 -03506.0 -07.6682 26274.8
 17 10 2013  11 25  -21.0682 26040.2 -03505.9 -07.6678 26275.1
 17 10 2013  11 26  -21.0676 26040.6 -03505.8 -07.6675 26275.5
 17 10 2013  11 27  -21.0670 26041.4 -03505.9 -07.6675 26276.3
 17 10 2013  11 28  -21.0657 26042.7 -03506.1 -07.6676 26277.7
 17 10 2013  11 29  -21.0648 26044.1 -03506.3 -07.6676 26279.0
 17 10 2013  11 30  -21.0652 26044.4 -03506.1 -07.6670 26279.3
 17 10 2013  11 31  -21.0656 26044.9 -03505.9 -07.6665 26279.8
 17 10 2013  11 32  -21.0663 26045.5 -03505.8 -07.6662 26280.4
 17 10 2013  11 33  -21.0666 26046.4 -03505.9 -07.6660 26281.3
 17 10 2013  11 34  -21.0666 26046.9 -03505.7 -07.6654 26281.8
 17 10 2013  11 35  -21.0672 26047.8 -03505.6 -07.6650 26282.6
 17 10 2013  11 36  -21.0681 26048.5 -03505.5 -07.6646 26283.4
 17 10 2013  11 37  -21.0684 26048.9 -03505.2 -07.6639 26283.7
 17 10 2013  11 38  -21.0693 26048.9 -03504.8 -07.6628 26283.7
 17 10 2013  11 39  -21.0697 26048.9 -03504.4 -07.6621 26283.6
 17 10 2013  11 40  -21.0688 26049.5 -03504.3 -07.6616 26284.2
 17 10 2013  11 41  -21.0682 26050.0 -03504.2 -07.6613 26284.6
 17 10 2013  11 42  -21.0672 26050.3 -03504.1 -07.6609 26284.9
 17 10 2013  11 43  -21.0674 26050.9 -03504.1 -07.6608 26285.5
 17 10 2013  11 44  -21.0680 26052.0 -03504.3 -07.6610 26286.6
 17 10 2013  11 45  -21.0688 26053.0 -03504.4 -07.6610 26287.6
 17 10 2013  11 46  -21.0700 26054.2 -03504.6 -07.6610 26288.9
 17 10 2013  11 47  -21.0707 26055.8 -03504.8 -07.6610 26290.5
 17 10 2013  11 48  -21.0712 26056.0 -03504.5 -07.6601 26290.6
 17 10 2013  11 49  -21.0716 26055.4 -03503.9 -07.6590 26289.9
 17 10 2013  11 50  -21.0718 26055.1 -03503.4 -07.6581 26289.6
 17 10 2013  11 51  -21.0721 26054.6 -03503.0 -07.6574 26289.1
 17 10 2013  11 52  -21.0734 26054.6 -03502.9 -07.6571 26289.0
 17 10 2013  11 53  -21.0745 26054.7 -03502.8 -07.6569 26289.1
 17 10 2013  11 54  -21.0747 26054.6 -03502.6 -07.6565 26289.0
 17 10 2013  11 55  -21.0753 26054.2 -03502.3 -07.6560 26288.5
 17 10 2013  11 56  -21.0761 26054.1 -03502.2 -07.6558 26288.5
 17 10 2013  11 57  -21.0770 26053.9 -03502.0 -07.6555 26288.2
 17 10 2013  11 58  -21.0781 26053.4 -03501.8 -07.6552 26287.7
 17 10 2013  11 59  -21.0787 26053.0 -03501.6 -07.6549 26287.3
 17 10 2013  12 00  -21.0784 26053.6 -03501.8 -07.6551 26287.8
 17 10 2013  12 01  -21.0787 26053.7 -03501.9 -07.6553 26288.0
 17 10 2013  12 02  -21.0788 26054.2 -03502.1 -07.6555 26288.5
 17 10 2013  12 03  -21.0798 26054.8 -03502.2 -07.6556 26289.2
 17 10 2013  12 04  -21.0810 26055.9 -03502.5 -07.6560 26290.3
 17 10 2013  12 05  -21.0826 26056.4 -03502.4 -07.6557 26290.7
 17 10 2013  12 06  -21.0834 26056.7 -03502.3 -07.6552 26291.0
 17 10 2013  12 07  -21.0840 26056.7 -03502.0 -07.6547 26291.0
 17 10 2013  12 08  -21.0837 26056.2 -03501.6 -07.6538 26290.4
 17 10 2013  12 09  -21.0822 26056.0 -03501.2 -07.6531 26290.1
 17 10 2013  12 10  -21.0807 26055.9 -03501.1 -07.6528 26290.1
 17 10 2013  12 11  -21.0802 26055.5 -03500.9 -07.6526 26289.6
 17 10 2013  12 12  -21.0803 26055.3 -03500.9 -07.6526 26289.4
 17 10 2013  12 13  -21.0811 26055.6 -03501.2 -07.6531 26289.8
 17 10 2013  12 14  -21.0825 26056.2 -03501.6 -07.6538 26290.5
 17 10 2013  12 15  -21.0838 26057.0 -03501.9 -07.6543 26291.3
 17 10 2013  12 16  -21.0850 26057.6 -03502.1 -07.6545 26291.9
 17 10 2013  12 17  -21.0858 26057.5 -03501.9 -07.6542 26291.8
 17 10 2013  12 18  -21.0864 26057.6 -03501.8 -07.6540 26291.9
 17 10 2013  12 19  -21.0870 26057.9 -03501.9 -07.6540 26292.1
 17 10 2013  12 20  -21.0876 26057.9 -03501.8 -07.6539 26292.1
 17 10 2013  12 21  -21.0881 26058.1 -03501.8 -07.6539 26292.4
 17 10 2013  12 22  -21.0878 26058.3 -03501.8 -07.6537 26292.5
 17 10 2013  12 23  -21.0869 26058.5 -03501.8 -07.6537 26292.7
 17 10 2013  12 24  -21.0866 26058.9 -03502.0 -07.6540 26293.2
 17 10 2013  12 25  -21.0869 26058.8 -03502.0 -07.6540 26293.1
 17 10 2013  12 26  -21.0872 26058.6 -03501.9 -07.6539 26292.9
 17 10 2013  12 27  -21.0874 26059.1 -03502.2 -07.6543 26293.4
 17 10 2013  12 28  -21.0876 26059.7 -03502.4 -07.6546 26294.0
 17 10 2013  12 29  -21.0877 26059.9 -03502.4 -07.6547 26294.2
 17 10 2013  12 30  -21.0878 26060.6 -03502.7 -07.6551 26295.0
 17 10 2013  12 31  -21.0878 26061.5 -03503.0 -07.6554 26295.9
 17 10 2013  12 32  -21.0877 26062.1 -03503.1 -07.6554 26296.5
 17 10 2013  12 33  -21.0876 26062.9 -03503.2 -07.6554 26297.3
 17 10 2013  12 34  -21.0873 26063.4 -03503.2 -07.6552 26297.7
 17 10 2013  12 35  -21.0871 26063.5 -03503.1 -07.6550 26297.9
 17 10 2013  12 36  -21.0867 26063.6 -03502.9 -07.6546 26298.0
 17 10 2013  12 37  -21.0869 26064.0 -03503.0 -07.6547 26298.4
 17 10 2013  12 38  -21.0871 26064.3 -03503.0 -07.6546 26298.6
 17 10 2013  12 39  -21.0870 26064.3 -03502.8 -07.6542 26298.6
 17 10 2013  12 40  -21.0866 26064.0 -03502.6 -07.6539 26298.3
 17 10 2013  12 41  -21.0863 26063.9 -03502.6 -07.6538 26298.2
 17 10 2013  12 42  -21.0861 26064.2 -03502.7 -07.6540 26298.5
 17 10 2013  12 43  -21.0857 26064.2 -03502.7 -07.6540 26298.5
 17 10 2013  12 44  -21.0854 26064.3 -03502.8 -07.6542 26298.6
 17 10 2013  12 45  -21.0855 26064.2 -03502.9 -07.6543 26298.5
 17 10 2013  12 46  -21.0857 26064.1 -03502.9 -07.6545 26298.4
 17 10 2013  12 47  -21.0864 26064.3 -03503.0 -07.6547 26298.6
 17 10 2013  12 48  -21.0864 26065.0 -03503.3 -07.6550 26299.4
 17 10 2013  12 49  -21.0860 26065.5 -03503.3 -07.6549 26299.9
 17 10 2013  12 50  -21.0854 26066.0 -03503.3 -07.6548 26300.4
 17 10 2013  12 51  -21.0842 26067.0 -03503.5 -07.6548 26301.4
 17 10 2013  12 52  -21.0828 26067.7 -03503.5 -07.6546 26302.0
 17 10 2013  12 53  -21.0816 26068.2 -03503.5 -07.6544 26302.6
 17 10 2013  12 54  -21.0808 26068.9 -03503.5 -07.6544 26303.2
 17 10 2013  12 55  -21.0800 26069.4 -03503.5 -07.6541 26303.8
 17 10 2013  12 56  -21.0793 26070.0 -03503.5 -07.6540 26304.4
 17 10 2013  12 57  -21.0790 26070.4 -03503.5 -07.6538 26304.8
 17 10 2013  12 58  -21.0788 26070.9 -03503.4 -07.6536 26305.2
 17 10 2013  12 59  -21.0786 26071.4 -03503.4 -07.6535 26305.7
 17 10 2013  13 00  -21.0784 26072.4 -03503.6 -07.6535 26306.7
 17 10 2013  13 01  -21.0784 26073.0 -03503.5 -07.6532 26307.4
 17 10 2013  13 02  -21.0783 26073.5 -03503.4 -07.6528 26307.8
 17 10 2013  13 03  -21.0781 26073.9 -03503.3 -07.6524 26308.2
 17 10 2013  13 04  -21.0777 26074.5 -03503.2 -07.6521 26308.8
 17 10 2013  13 05  -21.0774 26074.7 -03503.1 -07.6518 26309.0
 17 10 2013  13 06  -21.0775 26075.0 -03503.0 -07.6514 26309.3
 17 10 2013  13 07  -21.0775 26075.3 -03502.9 -07.6512 26309.5
 17 10 2013  13 08  -21.0770 26075.6 -03502.9 -07.6510 26309.8
 17 10 2013  13 09  -21.0768 26075.9 -03502.8 -07.6508 26310.1
 17 10 2013  13 10  -21.0769 26076.3 -03502.9 -07.6509 26310.6
 17 10 2013  13 11  -21.0770 26076.4 -03502.8 -07.6507 26310.6
 17 10 2013  13 12  -21.0768 26076.8 -03502.8 -07.6506 26311.0
 17 10 2013  13 13  -21.0766 26077.5 -03503.0 -07.6507 26311.7
 17 10 2013  13 14  -21.0761 26078.3 -03503.1 -07.6508 26312.5
 17 10 2013  13 15  -21.0756 26078.8 -03503.1 -07.6506 26313.1
 17 10 2013  13 16  -21.0750 26079.2 -03503.1 -07.6504 26313.4
 17 10 2013  13 17  -21.0748 26079.4 -03502.9 -07.6501 26313.6
 17 10 2013  13 18  -21.0746 26080.0 -03503.0 -07.6500 26314.2
 17 10 2013  13 19  -21.0741 26080.4 -03502.9 -07.6498 26314.6
 17 10 2013  13 20  -21.0738 26080.7 -03502.9 -07.6496 26314.8
 17 10 2013  13 21  -21.0737 26081.0 -03502.9 -07.6494 26315.2
 17 10 2013  13 22  -21.0736 26081.2 -03502.7 -07.6491 26315.3
 17 10 2013  13 23  -21.0735 26081.3 -03502.6 -07.6488 26315.5
 17 10 2013  13 24  -21.0732 26081.2 -03502.5 -07.6486 26315.4
 17 10 2013  13 25  -21.0730 26081.8 -03502.6 -07.6486 26315.9
 17 10 2013  13 26  -21.0729 26082.4 -03502.7 -07.6487 26316.6
 17 10 2013  13 27  -21.0726 26082.5 -03502.6 -07.6483 26316.6
 17 10 2013  13 28  -21.0720 26082.7 -03502.5 -07.6481 26316.8
 17 10 2013  13 29  -21.0714 26082.8 -03502.3 -07.6478 26316.9
 17 10 2013  13 30  -21.0712 26082.8 -03502.3 -07.6476 26316.9
 17 10 2013  13 31  -21.0706 26083.1 -03502.3 -07.6476 26317.2
 17 10 2013  13 32  -21.0693 26083.6 -03502.4 -07.6477 26317.7
 17 10 2013  13 33  -21.0690 26083.7 -03502.3 -07.6476 26317.7
 17 10 2013  13 34  -21.0690 26083.9 -03502.4 -07.6476 26318.0
 17 10 2013  13 35  -21.0691 26084.3 -03502.5 -07.6477 26318.4
 17 10 2013  13 36  -21.0693 26084.6 -03502.5 -07.6476 26318.7
 17 10 2013  13 37  -21.0691 26084.5 -03502.3 -07.6472 26318.6
 17 10 2013  13 38  -21.0693 26084.0 -03502.0 -07.6468 26318.1
 17 10 2013  13 39  -21.0696 26084.3 -03502.1 -07.6469 26318.3
 17 10 2013  13 40  -21.0695 26084.6 -03502.2 -07.6469 26318.7
 17 10 2013  13 41  -21.0694 26084.9 -03502.2 -07.6469 26319.0
 17 10 2013  13 42  -21.0691 26084.6 -03502.0 -07.6465 26318.6
 17 10 2013  13 43  -21.0684 26084.3 -03501.8 -07.6462 26318.4
 17 10 2013  13 44  -21.0682 26083.5 -03501.4 -07.6457 26317.4
 17 10 2013  13 45  -21.0685 26082.0 -03500.9 -07.6450 26315.9
 17 10 2013  13 46  -21.0687 26081.3 -03500.8 -07.6449 26315.2
 17 10 2013  13 47  -21.0681 26081.2 -03501.0 -07.6453 26315.2
 17 10 2013  13 48  -21.0688 26081.0 -03501.1 -07.6456 26314.9
 17 10 2013  13 49  -21.0682 26080.4 -03501.0 -07.6455 26314.3
 17 10 2013  13 50  -21.0679 26079.5 -03500.9 -07.6455 26313.5
 17 10 2013  13 51  -21.0677 26078.5 -03500.7 -07.6456 26312.5
 17 10 2013  13 52  -21.0678 26077.4 -03500.6 -07.6456 26311.3
 17 10 2013  13 53  -21.0679 26076.4 -03500.5 -07.6458 26310.4
 17 10 2013  13 54  -21.0681 26075.9 -03500.6 -07.6461 26309.8
 17 10 2013  13 55  -21.0689 26074.8 -03500.5 -07.6461 26308.7
 17 10 2013  13 56  -21.0694 26074.5 -03500.6 -07.6464 26308.4
 17 10 2013  13 57  -21.0701 26075.1 -03501.0 -07.6471 26309.1
 17 10 2013  13 58  -21.0708 26075.7 -03501.3 -07.6476 26309.7
 17 10 2013  13 59  -21.0713 26075.9 -03501.3 -07.6476 26309.9
 17 10 2013  14 00  -21.0716 26076.3 -03501.4 -07.6476 26310.3
 17 10 2013  14 01  -21.0720 26076.7 -03501.4 -07.6475 26310.7
 17 10 2013  14 02  -21.0725 26077.2 -03501.4 -07.6474 26311.2
 17 10 2013  14 03  -21.0720 26077.6 -03501.3 -07.6470 26311.6
 17 10 2013  14 04  -21.0715 26077.2 -03500.8 -07.6460 26311.1
 17 10 2013  14 05  -21.0717 26076.8 -03500.4 -07.6453 26310.7
 17 10 2013  14 06  -21.0717 26076.6 -03500.2 -07.6449 26310.5
 17 10 2013  14 07  -21.0721 26077.1 -03500.2 -07.6448 26310.9
 17 10 2013  14 08  -21.0719 26077.1 -03500.0 -07.6444 26310.9
 17 10 2013  14 09  -21.0719 26076.5 -03499.7 -07.6438 26310.3
 17 10 2013  14 10  -21.0719 26075.8 -03499.4 -07.6434 26309.5
 17 10 2013  14 11  -21.0716 26075.1 -03499.1 -07.6431 26308.8
 17 10 2013  14 12  -21.0712 26074.9 -03499.2 -07.6432 26308.6
 17 10 2013  14 13  -21.0713 26074.6 -03499.1 -07.6432 26308.4
 17 10 2013  14 14  -21.0719 26074.4 -03499.1 -07.6432 26308.2
 17 10 2013  14 15  -21.0727 26075.0 -03499.4 -07.6437 26308.8
 17 10 2013  14 16  -21.0732 26075.6 -03499.6 -07.6439 26309.4
 17 10 2013  14 17  -21.0735 26076.0 -03499.5 -07.6436 26309.8
 17 10 2013  14 18  -21.0737 26076.4 -03499.4 -07.6433 26310.1
 17 10 2013  14 19  -21.0735 26076.7 -03499.3 -07.6429 26310.5
 17 10 2013  14 20  -21.0731 26077.0 -03499.1 -07.6425 26310.7
 17 10 2013  14 21  -21.0726 26077.2 -03498.9 -07.6420 26310.9
 17 10 2013  14 22  -21.0723 26077.3 -03498.8 -07.6418 26311.0
 17 10 2013  14 23  -21.0720 26077.1 -03498.6 -07.6413 26310.8
 17 10 2013  14 24  -21.0724 26077.6 -03498.7 -07.6414 26311.2
 17 10 2013  14 25  -21.0728 26077.7 -03498.6 -07.6412 26311.3
 17 10 2013  14 26  -21.0727 26077.2 -03498.2 -07.6406 26310.8
 17 10 2013  14 27  -21.0729 26076.7 -03498.0 -07.6402 26310.2
 17 10 2013  14 28  -21.0727 26076.1 -03497.8 -07.6399 26309.6
 17 10 2013  14 29  -21.0729 26075.4 -03497.7 -07.6398 26308.9
 17 10 2013  14 30  -21.0735 26074.9 -03497.7 -07.6400 26308.4
 17 10 2013  14 31  -21.0742 26074.6 -03497.7 -07.6402 26308.2
 17 10 2013  14 32  -21.0750 26074.3 -03497.8 -07.6404 26307.9
 17 10 2013  14 33  -21.0758 26073.8 -03497.7 -07.6404 26307.3
 17 10 2013  14 34  -21.0759 26072.8 -03497.4 -07.6401 26306.4
 17 10 2013  14 35  -21.0767 26072.7 -03497.5 -07.6404 26306.2
 17 10 2013  14 36  -21.0777 26072.8 -03497.7 -07.6407 26306.4
 17 10 2013  14 37  -21.0787 26073.4 -03498.0 -07.6411 26307.0
 17 10 2013  14 38  -21.0794 26073.1 -03497.8 -07.6407 26306.6
 17 10 2013  14 39  -21.0796 26072.5 -03497.4 -07.6400 26306.0
 17 10 2013  14 40  -21.0802 26072.0 -03497.1 -07.6396 26305.4
 17 10 2013  14 41  -21.0812 26071.1 -03496.8 -07.6392 26304.5
 17 10 2013  14 42  -21.0823 26071.0 -03496.8 -07.6393 26304.5
 17 10 2013  14 43  -21.0832 26071.4 -03497.0 -07.6395 26304.9
 17 10 2013  14 44  -21.0841 26071.1 -03496.8 -07.6392 26304.6
 17 10 2013  14 45  -21.0847 26070.6 -03496.4 -07.6386 26304.1
 17 10 2013  14 46  -21.0845 26069.8 -03496.0 -07.6379 26303.2
 17 10 2013  14 47  -21.0849 26069.2 -03495.8 -07.6375 26302.5
 17 10 2013  14 48  -21.0850 26068.9 -03495.7 -07.6376 26302.3
 17 10 2013  14 49  -21.0852 26068.3 -03495.6 -07.6375 26301.6
 17 10 2013  14 50  -21.0854 26067.5 -03495.4 -07.6373 26300.9
 17 10 2013  14 51  -21.0857 26067.4 -03495.6 -07.6376 26300.7
 17 10 2013  14 52  -21.0862 26066.9 -03495.6 -07.6377 26300.3
 17 10 2013  14 53  -21.0862 26065.9 -03495.3 -07.6375 26299.2
 17 10 2013  14 54  -21.0858 26065.1 -03495.2 -07.6375 26298.4
 17 10 2013  14 55  -21.0855 26064.8 -03495.3 -07.6379 26298.1
 17 10 2013  14 56  -21.0854 26065.0 -03495.7 -07.6385 26298.4
 17 10 2013  14 57  -21.0853 26065.2 -03495.9 -07.6390 26298.6
 17 10 2013  14 58  -21.0855 26065.2 -03496.0 -07.6392 26298.6
 17 10 2013  14 59  -21.0857 26065.2 -03496.1 -07.6393 26298.6
 17 10 2013  15 00  -21.0855 26065.1 -03496.0 -07.6393 26298.5
 17 10 2013  15 01  -21.0849 26065.2 -03496.1 -07.6394 26298.6
 17 10 2013  15 02  -21.0843 26065.2 -03496.1 -07.6394 26298.6
 17 10 2013  15 03  -21.0842 26064.6 -03495.9 -07.6391 26298.0
 17 10 2013  15 04  -21.0843 26064.3 -03495.8 -07.6390 26297.6
 17 10 2013  15 05  -21.0836 26064.0 -03495.8 -07.6390 26297.4
 17 10 2013  15 06  -21.0829 26063.3 -03495.5 -07.6387 26296.6
 17 10 2013  15 07  -21.0827 26062.3 -03495.3 -07.6385 26295.6
 17 10 2013  15 08  -21.0828 26062.0 -03495.4 -07.6388 26295.3
 17 10 2013  15 09  -21.0825 26061.7 -03495.6 -07.6392 26295.1
 17 10 2013  15 10  -21.0819 26061.5 -03495.7 -07.6395 26294.9
 17 10 2013  15 11  -21.0820 26061.7 -03495.9 -07.6400 26295.1
 17 10 2013  15 12  -21.0820 26061.5 -03496.0 -07.6402 26294.9
 17 10 2013  15 13  -21.0818 26060.5 -03495.6 -07.6397 26293.9
 17 10 2013  15 14  -21.0822 26059.4 -03495.4 -07.6396 26292.8
 17 10 2013  15 15  -21.0831 26059.0 -03495.6 -07.6401 26292.4
 17 10 2013  15 16  -21.0834 26059.2 -03495.9 -07.6407 26292.6
 17 10 2013  15 17  -21.0840 26059.2 -03496.1 -07.6411 26292.6
 17 10 2013  15 18  -21.0848 26059.2 -03496.2 -07.6414 26292.7
 17 10 2013  15 19  -21.0856 26058.7 -03496.1 -07.6414 26292.2
 17 10 2013  15 20  -21.0860 26057.8 -03495.9 -07.6410 26291.3
 17 10 2013  15 21  -21.0867 26056.8 -03495.6 -07.6408 26290.2
 17 10 2013  15 22  -21.0873 26056.4 -03495.6 -07.6409 26289.8
 17 10 2013  15 23  -21.0881 26056.2 -03495.7 -07.6412 26289.6
 17 10 2013  15 24  -21.0884 26056.2 -03495.9 -07.6416 26289.7
 17 10 2013  15 25  -21.0888 26056.2 -03496.1 -07.6419 26289.7
 17 10 2013  15 26  -21.0887 26055.9 -03496.0 -07.6420 26289.4
 17 10 2013  15 27  -21.0881 26055.3 -03495.9 -07.6419 26288.8
 17 10 2013  15 28  -21.0869 26054.7 -03495.8 -07.6418 26288.1
 17 10 2013  15 29  -21.0867 26054.6 -03496.0 -07.6422 26288.1
 17 10 2013  15 30  -21.0865 26054.6 -03496.1 -07.6425 26288.1
 17 10 2013  15 31  -21.0863 26054.7 -03496.2 -07.6427 26288.2
 17 10 2013  15 32  -21.0861 26054.7 -03496.3 -07.6429 26288.3
 17 10 2013  15 33  -21.0860 26054.3 -03496.2 -07.6428 26287.9
 17 10 2013  15 34  -21.0856 26054.2 -03496.2 -07.6429 26287.7
 17 10 2013  15 35  -21.0850 26054.7 -03496.5 -07.6434 26288.3
 17 10 2013  15 36  -21.0841 26055.1 -03496.6 -07.6435 26288.7
 17 10 2013  15 37  -21.0836 26055.3 -03496.7 -07.6436 26288.9
 17 10 2013  15 38  -21.0832 26055.3 -03496.6 -07.6434 26288.9
 17 10 2013  15 39  -21.0826 26055.1 -03496.5 -07.6432 26288.6
 17 10 2013  15 40  -21.0819 26055.1 -03496.5 -07.6431 26288.7
 17 10 2013  15 41  -21.0815 26055.4 -03496.6 -07.6432 26289.0
 17 10 2013  15 42  -21.0814 26055.5 -03496.6 -07.6433 26289.1
 17 10 2013  15 43  -21.0811 26055.5 -03496.5 -07.6431 26289.1
 17 10 2013  15 44  -21.0807 26055.2 -03496.3 -07.6428 26288.7
 17 10 2013  15 45  -21.0806 26055.0 -03496.2 -07.6426 26288.5
 17 10 2013  15 46  -21.0805 26055.0 -03496.2 -07.6426 26288.5
 17 10 2013  15 47  -21.0811 26054.9 -03496.2 -07.6426 26288.5
 17 10 2013  15 48  -21.0819 26054.4 -03496.0 -07.6423 26287.9
 17 10 2013  15 49  -21.0818 26053.7 -03495.8 -07.6421 26287.2
 17 10 2013  15 50  -21.0811 26053.1 -03495.7 -07.6421 26286.6
 17 10 2013  15 51  -21.0804 26052.5 -03495.6 -07.6421 26285.9
 17 10 2013  15 52  -21.0807 26052.5 -03495.9 -07.6428 26286.0
 17 10 2013  15 53  -21.0805 26052.0 -03496.0 -07.6429 26285.5
 17 10 2013  15 54  -21.0804 26051.7 -03496.0 -07.6432 26285.3
 17 10 2013  15 55  -21.0806 26051.8 -03496.2 -07.6435 26285.4
 17 10 2013  15 56  -21.0798 26051.7 -03496.3 -07.6437 26285.3
 17 10 2013  15 57  -21.0789 26051.3 -03496.2 -07.6436 26284.8
 17 10 2013  15 58  -21.0783 26051.0 -03496.3 -07.6439 26284.6
 17 10 2013  15 59  -21.0779 26050.7 -03496.3 -07.6440 26284.3
 17 10 2013  16 00  -21.0774 26050.1 -03496.3 -07.6441 26283.7
 17 10 2013  16 01  -21.0770 26049.5 -03496.2 -07.6442 26283.1
 17 10 2013  16 02  -21.0764 26048.9 -03496.2 -07.6443 26282.5
 17 10 2013  16 03  -21.0757 26048.0 -03496.0 -07.6443 26281.5
 17 10 2013  16 04  -21.0753 26046.9 -03495.9 -07.6444 26280.4
 17 10 2013  16 05  -21.0749 26046.0 -03496.0 -07.6447 26279.5
 17 10 2013  16 06  -21.0744 26045.3 -03496.1 -07.6452 26278.9
 17 10 2013  16 07  -21.0744 26044.5 -03496.2 -07.6456 26278.2
 17 10 2013  16 08  -21.0741 26043.6 -03496.3 -07.6461 26277.3
 17 10 2013  16 09  -21.0739 26042.8 -03496.4 -07.6466 26276.5
 17 10 2013  16 10  -21.0737 26041.8 -03496.4 -07.6469 26275.5
 17 10 2013  16 11  -21.0733 26040.6 -03496.5 -07.6473 26274.3
 17 10 2013  16 12  -21.0728 26039.3 -03496.5 -07.6478 26273.0
 17 10 2013  16 13  -21.0726 26038.3 -03496.7 -07.6486 26272.1
 17 10 2013  16 14  -21.0727 26037.7 -03497.2 -07.6498 26271.5
 17 10 2013  16 15  -21.0726 26037.6 -03497.8 -07.6510 26271.5
 17 10 2013  16 16  -21.0723 26037.5 -03498.3 -07.6521 26271.5
 17 10 2013  16 17  -21.0727 26037.9 -03498.9 -07.6533 26271.9
 17 10 2013  16 18  -21.0738 26038.2 -03499.4 -07.6544 26272.3
 17 10 2013  16 19  -21.0751 26038.8 -03499.9 -07.6553 26273.0
 17 10 2013  16 20  -21.0762 26039.9 -03500.4 -07.6560 26274.1
 17 10 2013  16 21  -21.0765 26039.8 -03500.2 -07.6556 26274.0
 17 10 2013  16 22  -21.0766 26039.0 -03499.7 -07.6549 26273.1
 17 10 2013  16 23  -21.0766 26038.0 -03499.3 -07.6542 26272.1
 17 10 2013  16 24  -21.0775 26038.4 -03499.5 -07.6546 26272.5
 17 10 2013  16 25  -21.0790 26038.9 -03499.8 -07.6550 26273.0
 17 10 2013  16 26  -21.0799 26038.1 -03499.4 -07.6544 26272.2
 17 10 2013  16 27  -21.0802 26037.1 -03498.9 -07.6536 26271.1
 17 10 2013  16 28  -21.0806 26036.9 -03498.9 -07.6536 26270.9
 17 10 2013  16 29  -21.0811 26036.4 -03498.7 -07.6534 26270.5
 17 10 2013  16 30  -21.0815 26036.1 -03498.6 -07.6533 26270.1
 17 10 2013  16 31  -21.0816 26035.7 -03498.5 -07.6532 26269.7
 17 10 2013  16 32  -21.0816 26035.7 -03498.5 -07.6533 26269.7
 17 10 2013  16 33  -21.0818 26035.4 -03498.4 -07.6531 26269.4
 17 10 2013  16 34  -21.0818 26035.4 -03498.4 -07.6531 26269.4
 17 10 2013  16 35  -21.0816 26035.7 -03498.5 -07.6532 26269.7
 17 10 2013  16 36  -21.0814 26035.8 -03498.6 -07.6532 26269.8
 17 10 2013  16 37  -21.0813 26035.5 -03498.4 -07.6530 26269.5
 17 10 2013  16 38  -21.0807 26035.1 -03498.2 -07.6526 26269.1
 17 10 2013  16 39  -21.0809 26034.7 -03498.0 -07.6523 26268.6
 17 10 2013  16 40  -21.0809 26034.3 -03497.9 -07.6522 26268.3
 17 10 2013  16 41  -21.0808 26034.2 -03497.9 -07.6523 26268.1
 17 10 2013  16 42  -21.0808 26034.0 -03497.9 -07.6523 26268.0
 17 10 2013  16 43  -21.0811 26033.6 -03497.8 -07.6522 26267.5
 17 10 2013  16 44  -21.0822 26033.2 -03497.7 -07.6522 26267.1
 17 10 2013  16 45  -21.0829 26033.0 -03497.7 -07.6523 26266.9
 17 10 2013  16 46  -21.0833 26032.9 -03497.7 -07.6523 26266.8
 17 10 2013  16 47  -21.0836 26033.2 -03497.9 -07.6526 26267.1
 17 10 2013  16 48  -21.0837 26032.9 -03497.7 -07.6523 26266.8
 17 10 2013  16 49  -21.0837 26032.1 -03497.5 -07.6520 26266.0
 17 10 2013  16 50  -21.0832 26031.5 -03497.3 -07.6518 26265.4
 17 10 2013  16 51  -21.0830 26031.1 -03497.3 -07.6519 26265.0
 17 10 2013  16 52  -21.0830 26030.8 -03497.4 -07.6522 26264.7
 17 10 2013  16 53  -21.0824 26030.5 -03497.4 -07.6524 26264.5
 17 10 2013  16 54  -21.0824 26030.3 -03497.5 -07.6525 26264.2
 17 10 2013  16 55  -21.0831 26030.5 -03497.7 -07.6530 26264.4
 17 10 2013  16 56  -21.0838 26030.6 -03497.9 -07.6533 26264.6
 17 10 2013  16 57  -21.0842 26030.4 -03497.8 -07.6532 26264.4
 17 10 2013  16 58  -21.0847 26030.0 -03497.6 -07.6529 26263.9
 17 10 2013  16 59  -21.0844 26029.6 -03497.5 -07.6527 26263.6
 17 10 2013  17 00  -21.0848 26029.6 -03497.5 -07.6528 26263.5
 17 10 2013  17 01  -21.0857 26029.5 -03497.5 -07.6529 26263.4
 17 10 2013  17 02  -21.0855 26028.9 -03497.4 -07.6527 26262.8
 17 10 2013  17 03  -21.0851 26028.2 -03497.2 -07.6524 26262.1
 17 10 2013  17 04  -21.0846 26027.2 -03496.9 -07.6522 26261.1
 17 10 2013  17 05  -21.0843 26026.4 -03496.9 -07.6523 26260.3
 17 10 2013  17 06  -21.0845 26026.1 -03497.0 -07.6528 26260.0
 17 10 2013  17 07  -21.0849 26025.9 -03497.2 -07.6532 26259.8
 17 10 2013  17 08  -21.0850 26025.9 -03497.5 -07.6537 26259.8
 17 10 2013  17 09  -21.0849 26025.6 -03497.6 -07.6540 26259.6
 17 10 2013  17 10  -21.0848 26025.6 -03497.8 -07.6545 26259.6
 17 10 2013  17 11  -21.0848 26025.5 -03497.9 -07.6548 26259.5
 17 10 2013  17 12  -21.0849 26025.3 -03497.9 -07.6550 26259.4
 17 10 2013  17 13  -21.0853 26025.4 -03498.1 -07.6552 26259.4
 17 10 2013  17 14  -21.0851 26025.5 -03498.2 -07.6554 26259.5
 17 10 2013  17 15  -21.0852 26025.4 -03498.2 -07.6554 26259.5
 17 10 2013  17 16  -21.0854 26025.2 -03498.1 -07.6553 26259.2
 17 10 2013  17 17  -21.0857 26025.1 -03498.0 -07.6552 26259.2
 17 10 2013  17 18  -21.0861 26025.2 -03498.0 -07.6552 26259.3
 17 10 2013  17 19  -21.0865 26024.9 -03497.9 -07.6549 26258.9
 17 10 2013  17 20  -21.0867 26024.4 -03497.7 -07.6546 26258.4
 17 10 2013  17 21  -21.0869 26023.9 -03497.4 -07.6543 26257.8
 17 10 2013  17 22  -21.0872 26023.5 -03497.3 -07.6541 26257.4
 17 10 2013  17 23  -21.0868 26023.0 -03497.1 -07.6537 26256.9
 17 10 2013  17 24  -21.0867 26022.8 -03497.0 -07.6537 26256.7
 17 10 2013  17 25  -21.0863 26022.4 -03496.8 -07.6534 26256.3
 17 10 2013  17 26  -21.0863 26021.7 -03496.6 -07.6531 26255.5
 17 10 2013  17 27  -21.0862 26020.9 -03496.4 -07.6528 26254.7
 17 10 2013  17 28  -21.0857 26020.0 -03496.1 -07.6525 26253.8
 17 10 2013  17 29  -21.0856 26020.1 -03496.3 -07.6530 26253.9
 17 10 2013  17 30  -21.0861 26020.7 -03496.8 -07.6538 26254.6
 17 10 2013  17 31  -21.0869 26021.5 -03497.2 -07.6545 26255.4
 17 10 2013  17 32  -21.0875 26021.8 -03497.3 -07.6546 26255.8
 17 10 2013  17 33  -21.0875 26021.9 -03497.3 -07.6545 26255.8
 17 10 2013  17 34  -21.0870 26021.8 -03497.2 -07.6543 26255.7
 17 10 2013  17 35  -21.0868 26021.5 -03497.0 -07.6541 26255.4
 17 10 2013  17 36  -21.0869 26021.3 -03497.0 -07.6541 26255.2
 17 10 2013  17 37  -21.0872 26021.1 -03497.0 -07.6542 26255.1
 17 10 2013  17 38  -21.0880 26021.4 -03497.2 -07.6545 26255.4
 17 10 2013  17 39  -21.0885 26022.3 -03497.6 -07.6551 26256.3
 17 10 2013  17 40  -21.0886 26022.9 -03497.7 -07.6552 26256.9
 17 10 2013  17 41  -21.0883 26022.9 -03497.6 -07.6549 26256.9
 17 10 2013  17 42  -21.0879 26022.8 -03497.4 -07.6546 26256.8
 17 10 2013  17 43  -21.0876 26022.7 -03497.3 -07.6544 26256.7
 17 10 2013  17 44  -21.0876 26022.7 -03497.2 -07.6542 26256.6
 17 10 2013  17 45  -21.0879 26022.6 -03497.2 -07.6541 26256.5
 17 10 2013  17 46  -21.0885 26022.5 -03497.1 -07.6539 26256.5
 17 10 2013  17 47  -21.0890 26022.6 -03497.0 -07.6538 26256.6
 17 10 2013  17 48  -21.0891 26022.5 -03496.9 -07.6535 26256.4
 17 10 2013  17 49  -21.0888 26022.6 -03496.8 -07.6532 26256.4
 17 10 2013  17 50  -21.0887 26022.4 -03496.6 -07.6529 26256.3
 17 10 2013  17 51  -21.0886 26022.3 -03496.4 -07.6525 26256.1
 17 10 2013  17 52  -21.0882 26021.9 -03496.2 -07.6521 26255.8
 17 10 2013  17 53  -21.0882 26021.7 -03496.1 -07.6519 26255.5
 17 10 2013  17 54  -21.0887 26021.6 -03496.0 -07.6518 26255.3
 17 10 2013  17 55  -21.0893 26021.7 -03496.0 -07.6519 26255.5
 17 10 2013  17 56  -21.0900 26021.7 -03496.0 -07.6518 26255.5
 17 10 2013  17 57  -21.0906 26022.0 -03496.0 -07.6518 26255.8
 17 10 2013  17 58  -21.0910 26022.3 -03496.0 -07.6516 26256.1
 17 10 2013  17 59  -21.0912 26022.5 -03495.9 -07.6513 26256.2
 17 10 2013  18 00  -21.0910 26022.6 -03495.7 -07.6509 26256.3
 17 10 2013  18 01  -21.0908 26022.6 -03495.5 -07.6504 26256.3
 17 10 2013  18 02  -21.0907 26022.6 -03495.3 -07.6500 26256.2
 17 10 2013  18 03  -21.0909 26022.7 -03495.1 -07.6497 26256.4
 17 10 2013  18 04  -21.0914 26023.1 -03495.1 -07.6494 26256.7
 17 10 2013  18 05  -21.0915 26023.1 -03494.8 -07.6489 26256.7
 17 10 2013  18 06  -21.0914 26023.0 -03494.5 -07.6482 26256.6
 17 10 2013  18 07  -21.0910 26022.8 -03494.1 -07.6475 26256.4
 17 10 2013  18 08  -21.0910 26022.9 -03493.9 -07.6470 26256.4
 17 10 2013  18 09  -21.0911 26023.4 -03493.9 -07.6468 26256.8
 17 10 2013  18 10  -21.0912 26023.7 -03493.8 -07.6465 26257.1
 17 10 2013  18 11  -21.0910 26023.6 -03493.5 -07.6458 26257.1
 17 10 2013  18 12  -21.0910 26023.5 -03493.2 -07.6453 26256.9
 17 10 2013  18 13  -21.0909 26023.3 -03492.9 -07.6447 26256.7
 17 10 2013  18 14  -21.0906 26023.5 -03492.8 -07.6444 26256.9
 17 10 2013  18 15  -21.0905 26023.6 -03492.6 -07.6439 26256.9
 17 10 2013  18 16  -21.0905 26023.6 -03492.4 -07.6434 26256.9
 17 10 2013  18 17  -21.0905 26023.7 -03492.1 -07.6429 26257.0
 17 10 2013  18 18  -21.0905 26023.8 -03491.9 -07.6423 26257.0
 17 10 2013  18 19  -21.0905 26023.8 -03491.6 -07.6417 26257.0
 17 10 2013  18 20  -21.0903 26023.6 -03491.2 -07.6409 26256.8
 17 10 2013  18 21  -21.0902 26023.5 -03490.8 -07.6401 26256.6
 17 10 2013  18 22  -21.0900 26023.3 -03490.5 -07.6395 26256.4
 17 10 2013  18 23  -21.0900 26023.5 -03490.4 -07.6391 26256.5
 17 10 2013  18 24  -21.0900 26024.0 -03490.3 -07.6389 26257.0
 17 10 2013  18 25  -21.0897 26024.4 -03490.2 -07.6386 26257.4
 17 10 2013  18 26  -21.0891 26024.4 -03490.0 -07.6379 26257.4
 17 10 2013  18 27  -21.0884 26024.3 -03489.7 -07.6373 26257.3
 17 10 2013  18 28  -21.0878 26024.3 -03489.4 -07.6367 26257.2
 17 10 2013  18 29  -21.0871 26024.2 -03489.1 -07.6362 26257.0
 17 10 2013  18 30  -21.0868 26024.2 -03489.0 -07.6359 26257.1
 17 10 2013  18 31  -21.0866 26024.3 -03488.8 -07.6355 26257.1
 17 10 2013  18 32  -21.0863 26024.3 -03488.6 -07.6351 26257.1
 17 10 2013  18 33  -21.0859 26024.2 -03488.4 -07.6346 26257.0
 17 10 2013  18 34  -21.0853 26024.0 -03488.1 -07.6342 26256.7
 17 10 2013  18 35  -21.0848 26023.7 -03487.9 -07.6336 26256.4
 17 10 2013  18 36  -21.0843 26023.4 -03487.6 -07.6332 26256.0
 17 10 2013  18 37  -21.0838 26023.2 -03487.5 -07.6330 26255.8
 17 10 2013  18 38  -21.0831 26023.1 -03487.4 -07.6328 26255.8
 17 10 2013  18 39  -21.0822 26023.2 -03487.3 -07.6326 26255.8
 17 10 2013  18 40  -21.0813 26023.2 -03487.3 -07.6325 26255.9
 17 10 2013  18 41  -21.0804 26023.2 -03487.2 -07.6323 26255.8
 17 10 2013  18 42  -21.0798 26023.1 -03487.1 -07.6321 26255.7
 17 10 2013  18 43  -21.0795 26023.0 -03487.0 -07.6319 26255.6
 17 10 2013  18 44  -21.0789 26022.8 -03486.8 -07.6315 26255.4
 17 10 2013  18 45  -21.0786 26022.6 -03486.6 -07.6312 26255.1
 17 10 2013  18 46  -21.0779 26022.4 -03486.4 -07.6309 26254.9
 17 10 2013  18 47  -21.0772 26022.3 -03486.3 -07.6307 26254.8
 17 10 2013  18 48  -21.0766 26022.1 -03486.2 -07.6305 26254.6
 17 10 2013  18 49  -21.0760 26022.0 -03486.1 -07.6304 26254.5
 17 10 2013  18 50  -21.0753 26021.8 -03486.0 -07.6301 26254.3
 17 10 2013  18 51  -21.0747 26021.8 -03485.9 -07.6300 26254.2
 17 10 2013  18 52  -21.0742 26021.8 -03485.9 -07.6299 26254.2
 17 10 2013  18 53  -21.0738 26021.7 -03485.8 -07.6299 26254.2
 17 10 2013  18 54  -21.0732 26021.9 -03485.9 -07.6299 26254.3
 17 10 2013  18 55  -21.0730 26022.1 -03485.9 -07.6300 26254.5
 17 10 2013  18 56  -21.0727 26022.2 -03485.9 -07.6299 26254.6
 17 10 2013  18 57  -21.0721 26022.0 -03485.8 -07.6297 26254.5
 17 10 2013  18 58  -21.0715 26021.9 -03485.7 -07.6295 26254.3
 17 10 2013  18 59  -21.0708 26021.7 -03485.6 -07.6293 26254.1
 17 10 2013  19 00  -21.0701 26021.7 -03485.6 -07.6293 26254.1
 17 10 2013  19 01  -21.0694 26021.8 -03485.6 -07.6294 26254.2
 17 10 2013  19 02  -21.0688 26021.9 -03485.7 -07.6295 26254.3
 17 10 2013  19 03  -21.0681 26021.9 -03485.7 -07.6295 26254.3
 17 10 2013  19 04  -21.0674 26021.9 -03485.7 -07.6296 26254.3
 17 10 2013  19 05  -21.0667 26021.9 -03485.7 -07.6296 26254.3
 17 10 2013  19 06  -21.0660 26021.9 -03485.8 -07.6296 26254.3
 17 10 2013  19 07  -21.0654 26022.0 -03485.8 -07.6297 26254.4
 17 10 2013  19 08  -21.0648 26022.1 -03485.8 -07.6297 26254.5
 17 10 2013  19 09  -21.0642 26022.1 -03485.8 -07.6296 26254.5
 17 10 2013  19 10  -21.0637 26022.0 -03485.7 -07.6295 26254.5
 17 10 2013  19 11  -21.0631 26021.9 -03485.7 -07.6294 26254.4
 17 10 2013  19 12  -21.0625 26021.8 -03485.6 -07.6292 26254.2
 17 10 2013  19 13  -21.0620 26021.7 -03485.6 -07.6292 26254.1
 17 10 2013  19 14  -21.0618 26021.7 -03485.6 -07.6292 26254.1
 17 10 2013  19 15  -21.0614 26021.7 -03485.6 -07.6293 26254.1
 17 10 2013  19 16  -21.0611 26021.7 -03485.6 -07.6293 26254.1
 17 10 2013  19 17  -21.0605 26021.5 -03485.5 -07.6292 26253.9
 17 10 2013  19 18  -21.0599 26021.3 -03485.4 -07.6291 26253.7
 17 10 2013  19 19  -21.0594 26021.1 -03485.4 -07.6291 26253.5
 17 10 2013  19 20  -21.0587 26021.1 -03485.5 -07.6292 26253.5
 17 10 2013  19 21  -21.0581 26021.2 -03485.6 -07.6295 26253.6
 17 10 2013  19 22  -21.0579 26021.2 -03485.6 -07.6296 26253.6
 17 10 2013  19 23  -21.0575 26021.2 -03485.7 -07.6297 26253.7
 17 10 2013  19 24  -21.0569 26021.1 -03485.7 -07.6297 26253.5
 17 10 2013  19 25  -21.0566 26020.9 -03485.7 -07.6297 26253.3
 17 10 2013  19 26  -21.0562 26020.9 -03485.7 -07.6298 26253.3
 17 10 2013  19 27  -21.0558 26020.9 -03485.8 -07.6300 26253.3
 17 10 2013  19 28  -21.0552 26020.9 -03485.9 -07.6301 26253.3
 17 10 2013  19 29  -21.0547 26020.9 -03486.0 -07.6303 26253.3
 17 10 2013  19 30  -21.0541 26020.9 -03486.0 -07.6305 26253.4
 17 10 2013  19 31  -21.0538 26020.9 -03486.1 -07.6307 26253.4
 17 10 2013  19 32  -21.0532 26020.8 -03486.2 -07.6308 26253.3
 17 10 2013  19 33  -21.0526 26020.9 -03486.3 -07.6310 26253.4
 17 10 2013  19 34  -21.0520 26020.9 -03486.4 -07.6313 26253.4
 17 10 2013  19 35  -21.0514 26020.8 -03486.5 -07.6315 26253.4
 17 10 2013  19 36  -21.0510 26020.8 -03486.6 -07.6318 26253.3
 17 10 2013  19 37  -21.0503 26020.8 -03486.7 -07.6319 26253.3
 17 10 2013  19 38  -21.0498 26020.8 -03486.8 -07.6322 26253.3
 17 10 2013  19 39  -21.0492 26020.8 -03487.0 -07.6325 26253.4
 17 10 2013  19 40  -21.0488 26020.8 -03487.1 -07.6328 26253.4
 17 10 2013  19 41  -21.0483 26020.7 -03487.2 -07.6330 26253.4
 17 10 2013  19 42  -21.0478 26020.7 -03487.3 -07.6332 26253.3
 17 10 2013  19 43  -21.0473 26020.6 -03487.4 -07.6335 26253.2
 17 10 2013  19 44  -21.0467 26020.5 -03487.4 -07.6337 26253.1
 17 10 2013  19 45  -21.0462 26020.4 -03487.5 -07.6339 26253.0
 17 10 2013  19 46  -21.0456 26020.2 -03487.6 -07.6341 26252.9
 17 10 2013  19 47  -21.0450 26020.1 -03487.7 -07.6344 26252.8
 17 10 2013  19 48  -21.0445 26020.0 -03487.9 -07.6347 26252.8
 17 10 2013  19 49  -21.0441 26019.9 -03488.0 -07.6351 26252.7
 17 10 2013  19 50  -21.0435 26019.9 -03488.2 -07.6354 26252.7
 17 10 2013  19 51  -21.0430 26019.9 -03488.3 -07.6357 26252.7
 17 10 2013  19 52  -21.0425 26019.9 -03488.4 -07.6360 26252.7
 17 10 2013  19 53  -21.0420 26019.8 -03488.6 -07.6364 26252.7
 17 10 2013  19 54  -21.0414 26019.8 -03488.8 -07.6367 26252.7
 17 10 2013  19 55  -21.0408 26019.7 -03488.9 -07.6370 26252.6
 17 10 2013  19 56  -21.0404 26019.6 -03489.0 -07.6372 26252.5
 17 10 2013  19 57  -21.0400 26019.4 -03489.0 -07.6373 26252.2
 17 10 2013  19 58  -21.0395 26019.1 -03489.1 -07.6375 26252.0
 17 10 2013  19 59  -21.0393 26019.0 -03489.2 -07.6378 26251.9
 17 10 2013  20 00  -21.0388 26018.9 -03489.2 -07.6380 26251.8
 17 10 2013  20 01  -21.0384 26018.8 -03489.3 -07.6382 26251.7
 17 10 2013  20 02  -21.0381 26018.7 -03489.4 -07.6384 26251.6
 17 10 2013  20 03  -21.0377 26018.7 -03489.5 -07.6387 26251.6
 17 10 2013  20 04  -21.0374 26018.7 -03489.7 -07.6390 26251.7
 17 10 2013  20 05  -21.0372 26018.8 -03489.8 -07.6393 26251.8
 17 10 2013  20 06  -21.0370 26018.7 -03489.9 -07.6395 26251.7
 17 10 2013  20 07  -21.0368 26018.7 -03490.0 -07.6397 26251.7
 17 10 2013  20 08  -21.0366 26018.8 -03490.2 -07.6401 26251.9
 17 10 2013  20 09  -21.0364 26018.8 -03490.3 -07.6404 26251.9
 17 10 2013  20 10  -21.0362 26018.8 -03490.4 -07.6405 26251.8
 17 10 2013  20 11  -21.0362 26018.9 -03490.5 -07.6408 26252.0
 17 10 2013  20 12  -21.0361 26018.9 -03490.6 -07.6410 26252.0
 17 10 2013  20 13  -21.0360 26018.8 -03490.7 -07.6411 26251.9
 17 10 2013  20 14  -21.0359 26018.7 -03490.7 -07.6412 26251.8
 17 10 2013  20 15  -21.0359 26018.6 -03490.7 -07.6413 26251.8
 17 10 2013  20 16  -21.0358 26018.5 -03490.7 -07.6414 26251.6
 17 10 2013  20 17  -21.0356 26018.5 -03490.8 -07.6415 26251.6
 17 10 2013  20 18  -21.0353 26018.5 -03490.9 -07.6416 26251.6
 17 10 2013  20 19  -21.0349 26018.4 -03490.9 -07.6418 26251.6
 17 10 2013  20 20  -21.0345 26018.4 -03491.0 -07.6419 26251.5
 17 10 2013  20 21  -21.0342 26018.3 -03491.0 -07.6420 26251.4
 17 10 2013  20 22  -21.0340 26018.1 -03491.0 -07.6421 26251.3
 17 10 2013  20 23  -21.0335 26018.0 -03491.0 -07.6421 26251.2
 17 10 2013  20 24  -21.0331 26018.0 -03491.1 -07.6423 26251.2
 17 10 2013  20 25  -21.0329 26017.7 -03491.0 -07.6422 26250.9
 17 10 2013  20 26  -21.0324 26017.8 -03491.1 -07.6423 26251.0
 17 10 2013  20 27  -21.0320 26017.8 -03491.2 -07.6426 26251.0
 17 10 2013  20 28  -21.0331 26017.4 -03491.2 -07.6426 26250.6
 17 10 2013  20 29  -21.0341 26017.0 -03491.1 -07.6426 26250.2
 17 10 2013  20 30  -21.0338 26017.1 -03491.2 -07.6428 26250.3
 17 10 2013  20 31  -21.0336 26017.2 -03491.4 -07.6432 26250.4
 17 10 2013  20 32  -21.0333 26017.1 -03491.4 -07.6433 26250.3
 17 10 2013  20 33  -21.0333 26016.8 -03491.5 -07.6434 26250.1
 17 10 2013  20 34  -21.0321 26016.8 -03491.4 -07.6433 26250.0
 17 10 2013  20 35  -21.0300 26017.0 -03491.6 -07.6436 26250.3
 17 10 2013  20 36  -21.0297 26016.9 -03491.6 -07.6437 26250.1
 17 10 2013  20 37  -21.0293 26016.7 -03491.6 -07.6437 26250.0
 17 10 2013  20 38  -21.0289 26016.6 -03491.6 -07.6437 26249.8
 17 10 2013  20 39  -21.0286 26016.4 -03491.6 -07.6438 26249.7
 17 10 2013  20 40  -21.0281 26016.3 -03491.6 -07.6440 26249.6
 17 10 2013  20 41  -21.0277 26016.1 -03491.7 -07.6440 26249.4
 17 10 2013  20 42  -21.0272 26015.9 -03491.7 -07.6441 26249.2
 17 10 2013  20 43  -21.0266 26015.7 -03491.7 -07.6442 26249.0
 17 10 2013  20 44  -21.0259 26015.6 -03491.8 -07.6444 26248.9
 17 10 2013  20 45  -21.0252 26015.4 -03491.8 -07.6445 26248.7
 17 10 2013  20 46  -21.0247 26015.2 -03491.8 -07.6446 26248.5
 17 10 2013  20 47  -21.0243 26015.0 -03491.9 -07.6448 26248.3
 17 10 2013  20 48  -21.0236 26014.9 -03491.9 -07.6450 26248.3
 17 10 2013  20 49  -21.0231 26014.9 -03492.0 -07.6452 26248.2
 17 10 2013  20 50  -21.0226 26014.9 -03492.1 -07.6455 26248.2
 17 10 2013  20 51  -21.0219 26014.7 -03492.2 -07.6457 26248.1
 17 10 2013  20 52  -21.0215 26014.6 -03492.3 -07.6459 26248.0
 17 10 2013  20 53  -21.0209 26014.6 -03492.4 -07.6462 26248.0
 17 10 2013  20 54  -21.0205 26014.6 -03492.6 -07.6466 26248.0
 17 10 2013  20 55  -21.0201 26014.5 -03492.8 -07.6469 26248.0
 17 10 2013  20 56  -21.0197 26014.5 -03492.9 -07.6472 26247.9
 17 10 2013  20 57  -21.0192 26014.4 -03493.0 -07.6475 26247.8
 17 10 2013  20 58  -21.0187 26014.3 -03493.2 -07.6479 26247.8
 17 10 2013  20 59  -21.0184 26014.2 -03493.3 -07.6482 26247.7
 17 10 2013  21 00  -21.0180 26014.3 -03493.5 -07.6487 26247.8
 17 10 2013  21 01  -21.0177 26014.2 -03493.6 -07.6487 26247.7
 17 10 2013  21 02  -21.0174 26014.2 -03493.9 -07.6496 26247.8
 17 10 2013  21 03  -21.0173 26014.2 -03494.2 -07.6501 26247.8
 17 10 2013  21 04  -21.0169 26014.2 -03494.3 -07.6504 26247.8
 17 10 2013  21 05  -21.0166 26014.2 -03494.5 -07.6509 26247.9
 17 10 2013  21 06  -21.0164 26014.2 -03494.7 -07.6512 26247.9
 17 10 2013  21 07  -21.0163 26014.2 -03494.9 -07.6516 26247.9
 17 10 2013  21 08  -21.0162 26014.3 -03495.0 -07.6519 26248.1
 17 10 2013  21 09  -21.0162 26014.5 -03495.3 -07.6523 26248.2
 17 10 2013  21 10  -21.0161 26014.7 -03495.4 -07.6526 26248.4
 17 10 2013  21 11  -21.0159 26014.8 -03495.6 -07.6529 26248.6
 17 10 2013  21 12  -21.0156 26014.8 -03495.7 -07.6531 26248.6
 17 10 2013  21 13  -21.0155 26014.8 -03495.7 -07.6532 26248.6
 17 10 2013  21 14  -21.0154 26014.8 -03495.7 -07.6533 26248.6
 17 10 2013  21 15  -21.0153 26014.8 -03495.8 -07.6533 26248.6
 17 10 2013  21 16  -21.0152 26014.9 -03495.8 -07.6534 26248.7
 17 10 2013  21 17  -21.0151 26014.8 -03495.9 -07.6535 26248.6
 17 10 2013  21 18  -21.0151 26014.7 -03495.9 -07.6536 26248.6
 17 10 2013  21 19  -21.0150 26014.6 -03495.9 -07.6537 26248.5
 17 10 2013  21 20  -21.0149 26014.6 -03495.9 -07.6538 26248.5
 17 10 2013  21 21  -21.0148 26014.6 -03496.0 -07.6539 26248.4
 17 10 2013  21 22  -21.0148 26014.5 -03496.1 -07.6541 26248.4
 17 10 2013  21 23  -21.0148 26014.5 -03496.1 -07.6542 26248.4
 17 10 2013  21 24  -21.0148 26014.4 -03496.1 -07.6542 26248.3
 17 10 2013  21 25  -21.0149 26014.3 -03496.1 -07.6542 26248.1
 17 10 2013  21 26  -21.0148 26014.2 -03496.1 -07.6543 26248.0
 17 10 2013  21 27  -21.0149 26014.1 -03496.2 -07.6544 26248.0
 17 10 2013  21 28  -21.0148 26014.0 -03496.2 -07.6545 26247.9
 17 10 2013  21 29  -21.0149 26014.0 -03496.2 -07.6545 26247.9
 17 10 2013  21 30  -21.0149 26013.9 -03496.2 -07.6546 26247.8
 17 10 2013  21 31  -21.0149 26013.8 -03496.3 -07.6547 26247.7
 17 10 2013  21 32  -21.0150 26013.7 -03496.3 -07.6547 26247.6
 17 10 2013  21 33  -21.0151 26013.5 -03496.3 -07.6548 26247.4
 17 10 2013  21 34  -21.0152 26013.4 -03496.3 -07.6548 26247.3
 17 10 2013  21 35  -21.0153 26013.4 -03496.3 -07.6549 26247.3
 17 10 2013  21 36  -21.0154 26013.3 -03496.3 -07.6549 26247.2
 17 10 2013  21 37  -21.0155 26013.1 -03496.2 -07.6548 26247.0
 17 10 2013  21 38  -21.0156 26013.0 -03496.2 -07.6548 26246.9
 17 10 2013  21 39  -21.0157 26012.9 -03496.2 -07.6548 26246.8
 17 10 2013  21 40  -21.0157 26012.7 -03496.2 -07.6548 26246.6
 17 10 2013  21 41  -21.0158 26012.6 -03496.1 -07.6548 26246.5
 17 10 2013  21 42  -21.0159 26012.4 -03496.1 -07.6548 26246.3
 17 10 2013  21 43  -21.0162 26012.3 -03496.1 -07.6548 26246.2
 17 10 2013  21 44  -21.0163 26012.2 -03496.1 -07.6548 26246.1
 17 10 2013  21 45  -21.0164 26012.1 -03496.1 -07.6548 26246.0
 17 10 2013  21 46  -21.0166 26012.0 -03496.1 -07.6549 26245.9
 17 10 2013  21 47  -21.0167 26011.9 -03496.1 -07.6548 26245.8
 17 10 2013  21 48  -21.0168 26011.8 -03496.1 -07.6549 26245.7
 17 10 2013  21 49  -21.0169 26011.8 -03496.1 -07.6550 26245.7
 17 10 2013  21 50  -21.0169 26011.7 -03496.1 -07.6550 26245.6
 17 10 2013  21 51  -21.0170 26011.7 -03496.1 -07.6550 26245.6
 17 10 2013  21 52  -21.0168 26011.6 -03496.1 -07.6550 26245.5
 17 10 2013  21 53  -21.0168 26011.5 -03496.1 -07.6551 26245.4
 17 10 2013  21 54  -21.0168 26011.6 -03496.2 -07.6552 26245.5
 17 10 2013  21 55  -21.0169 26011.5 -03496.2 -07.6552 26245.4
 17 10 2013  21 56  -21.0170 26011.4 -03496.2 -07.6553 26245.4
 17 10 2013  21 57  -21.0170 26011.4 -03496.2 -07.6553 26245.3
 17 10 2013  21 58  -21.0170 26011.3 -03496.2 -07.6553 26245.2
 17 10 2013  21 59  -21.0170 26011.3 -03496.2 -07.6554 26245.2
 17 10 2013  22 00  -21.0171 26011.3 -03496.3 -07.6555 26245.2
 17 10 2013  22 01  -21.0173 26011.3 -03496.3 -07.6555 26245.2
 17 10 2013  22 02  -21.0174 26011.3 -03496.4 -07.6556 26245.2
 17 10 2013  22 03  -21.0176 26011.3 -03496.4 -07.6557 26245.3
 17 10 2013  22 04  -21.0177 26011.3 -03496.4 -07.6557 26245.2
 17 10 2013  22 05  -21.0179 26011.2 -03496.4 -07.6557 26245.1
 17 10 2013  22 06  -21.0182 26011.1 -03496.3 -07.6556 26245.0
 17 10 2013  22 07  -21.0183 26011.0 -03496.3 -07.6556 26244.9
 17 10 2013  22 08  -21.0183 26010.8 -03496.3 -07.6556 26244.8
 17 10 2013  22 09  -21.0183 26010.8 -03496.2 -07.6555 26244.7
 17 10 2013  22 10  -21.0182 26010.7 -03496.2 -07.6554 26244.6
 17 10 2013  22 11  -21.0183 26010.7 -03496.2 -07.6555 26244.6
 17 10 2013  22 12  -21.0182 26010.6 -03496.2 -07.6555 26244.5
 17 10 2013  22 13  -21.0184 26010.6 -03496.2 -07.6556 26244.5
 17 10 2013  22 14  -21.0184 26010.5 -03496.2 -07.6556 26244.4
 17 10 2013  22 15  -21.0184 26010.5 -03496.3 -07.6556 26244.4
 17 10 2013  22 16  -21.0185 26010.5 -03496.3 -07.6556 26244.5
 17 10 2013  22 17  -21.0187 26010.5 -03496.3 -07.6558 26244.4
 17 10 2013  22 18  -21.0190 26010.5 -03496.3 -07.6558 26244.5
 17 10 2013  22 19  -21.0193 26010.5 -03496.4 -07.6559 26244.4
 17 10 2013  22 20  -21.0195 26010.4 -03496.3 -07.6558 26244.4
 17 10 2013  22 21  -21.0196 26010.3 -03496.3 -07.6558 26244.3
 17 10 2013  22 22  -21.0196 26010.3 -03496.3 -07.6557 26244.3
 17 10 2013  22 23  -21.0199 26010.2 -03496.2 -07.6557 26244.2
 17 10 2013  22 24  -21.0200 26010.1 -03496.2 -07.6556 26244.1
 17 10 2013  22 25  -21.0201 26010.0 -03496.2 -07.6556 26243.9
 17 10 2013  22 26  -21.0201 26010.0 -03496.1 -07.6555 26243.9
 17 10 2013  22 27  -21.0203 26009.9 -03496.1 -07.6554 26243.8
 17 10 2013  22 28  -21.0204 26009.9 -03496.0 -07.6553 26243.8
 17 10 2013  22 29  -21.0205 26009.8 -03496.1 -07.6554 26243.7
 17 10 2013  22 30  -21.0207 26009.7 -03496.0 -07.6553 26243.6
 17 10 2013  22 31  -21.0209 26009.6 -03496.0 -07.6553 26243.5
 17 10 2013  22 32  -21.0208 26009.4 -03495.9 -07.6552 26243.3
 17 10 2013  22 33  -21.0208 26009.4 -03495.8 -07.6550 26243.2
 17 10 2013  22 34  -21.0207 26009.3 -03495.8 -07.6550 26243.1
 17 10 2013  22 35  -21.0206 26009.1 -03495.7 -07.6549 26243.0
 17 10 2013  22 36  -21.0204 26009.0 -03495.7 -07.6548 26242.9
 17 10 2013  22 37  -21.0205 26009.1 -03495.7 -07.6549 26242.9
 17 10 2013  22 38  -21.0205 26009.1 -03495.8 -07.6550 26242.9
 17 10 2013  22 39  -21.0204 26009.1 -03495.8 -07.6551 26243.0
 17 10 2013  22 40  -21.0204 26009.1 -03495.9 -07.6552 26243.0
 17 10 2013  22 41  -21.0201 26009.1 -03495.9 -07.6552 26243.0
 17 10 2013  22 42  -21.0200 26009.2 -03495.9 -07.6553 26243.0
 17 10 2013  22 43  -21.0199 26009.1 -03495.9 -07.6552 26243.0
 17 10 2013  22 44  -21.0199 26009.0 -03495.8 -07.6552 26242.9
 17 10 2013  22 45  -21.0198 26008.9 -03495.8 -07.6551 26242.8
 17 10 2013  22 46  -21.0196 26008.8 -03495.7 -07.6550 26242.6
 17 10 2013  22 47  -21.0197 26008.7 -03495.7 -07.6550 26242.6
 17 10 2013  22 48  -21.0197 26008.6 -03495.8 -07.6551 26242.5
 17 10 2013  22 49  -21.0196 26008.5 -03495.7 -07.6551 26242.4
 17 10 2013  22 50  -21.0196 26008.5 -03495.7 -07.6551 26242.3
 17 10 2013  22 51  -21.0192 26008.4 -03495.7 -07.6551 26242.3
 17 10 2013  22 52  -21.0189 26008.3 -03495.7 -07.6550 26242.2
 17 10 2013  22 53  -21.0185 26008.2 -03495.6 -07.6549 26242.0
 17 10 2013  22 54  -21.0182 26008.1 -03495.6 -07.6550 26242.0
 17 10 2013  22 55  -21.0179 26008.1 -03495.6 -07.6549 26242.0
 17 10 2013  22 56  -21.0177 26008.1 -03495.6 -07.6550 26241.9
 17 10 2013  22 57  -21.0177 26008.1 -03495.7 -07.6551 26242.0
 17 10 2013  22 58  -21.0177 26008.1 -03495.7 -07.6552 26242.0
 17 10 2013  22 59  -21.0177 26008.1 -03495.7 -07.6552 26242.0
 17 10 2013  23 00  -21.0178 26008.1 -03495.8 -07.6553 26242.0
 17 10 2013  23 01  -21.0176 26008.1 -03495.8 -07.6553 26242.0
 17 10 2013  23 02  -21.0176 26008.1 -03495.8 -07.6554 26242.0
 17 10 2013  23 03  -21.0176 26008.0 -03495.8 -07.6553 26241.9
 17 10 2013  23 04  -21.0175 26008.0 -03495.8 -07.6553 26241.9
 17 10 2013  23 05  -21.0172 26007.9 -03495.7 -07.6552 26241.8
 17 10 2013  23 06  -21.0170 26007.8 -03495.7 -07.6552 26241.7
 17 10 2013  23 07  -21.0168 26007.8 -03495.6 -07.6551 26241.6
 17 10 2013  23 08  -21.0167 26007.8 -03495.6 -07.6551 26241.6
 17 10 2013  23 09  -21.0167 26007.7 -03495.7 -07.6551 26241.6
 17 10 2013  23 10  -21.0165 26007.7 -03495.6 -07.6551 26241.6
 17 10 2013  23 11  -21.0165 26007.7 -03495.7 -07.6552 26241.6
 17 10 2013  23 12  -21.0165 26007.8 -03495.7 -07.6553 26241.7
 17 10 2013  23 13  -21.0165 26007.9 -03495.8 -07.6553 26241.8
 17 10 2013  23 14  -21.0164 26007.9 -03495.8 -07.6553 26241.8
 17 10 2013  23 15  -21.0163 26007.9 -03495.8 -07.6554 26241.8
 17 10 2013  23 16  -21.0162 26008.0 -03495.8 -07.6553 26241.9
 17 10 2013  23 17  -21.0161 26008.2 -03495.9 -07.6556 26242.1
 17 10 2013  23 18  -21.0162 26008.3 -03496.0 -07.6557 26242.2
 17 10 2013  23 19  -21.0163 26008.3 -03496.0 -07.6557 26242.3
 17 10 2013  23 20  -21.0162 26008.3 -03496.0 -07.6556 26242.2
 17 10 2013  23 21  -21.0158 26008.3 -03495.9 -07.6555 26242.2
 17 10 2013  23 22  -21.0155 26008.4 -03495.9 -07.6555 26242.3
 17 10 2013  23 23  -21.0152 26008.5 -03495.9 -07.6555 26242.4
 17 10 2013  23 24  -21.0150 26008.6 -03496.0 -07.6556 26242.5
 17 10 2013  23 25  -21.0148 26008.7 -03496.0 -07.6556 26242.6
 17 10 2013  23 26  -21.0148 26008.9 -03496.1 -07.6557 26242.8
 17 10 2013  23 27  -21.0147 26009.0 -03496.1 -07.6558 26242.9
 17 10 2013  23 28  -21.0145 26009.0 -03496.1 -07.6558 26243.0
 17 10 2013  23 29  -21.0143 26009.1 -03496.1 -07.6558 26243.0
 17 10 2013  23 30  -21.0139 26009.1 -03496.1 -07.6557 26243.0
 17 10 2013  23 31  -21.0137 26009.1 -03496.1 -07.6556 26243.0
 17 10 2013  23 32  -21.0138 26009.1 -03496.1 -07.6557 26243.1
 17 10 2013  23 33  -21.0137 26009.1 -03496.0 -07.6555 26243.0
 17 10 2013  23 34  -21.0135 26009.1 -03496.0 -07.6555 26243.0
 17 10 2013  23 35  -21.0133 26009.2 -03496.0 -07.6554 26243.1
 17 10 2013  23 36  -21.0131 26009.2 -03496.0 -07.6554 26243.1
 17 10 2013  23 37  -21.0131 26009.3 -03496.0 -07.6554 26243.2
 17 10 2013  23 38  -21.0131 26009.3 -03496.0 -07.6554 26243.2
 17 10 2013  23 39  -21.0131 26009.3 -03496.0 -07.6554 26243.2
 17 10 2013  23 40  -21.0132 26009.3 -03496.0 -07.6554 26243.2
 17 10 2013  23 41  -21.0132 26009.3 -03496.0 -07.6554 26243.2
 17 10 2013  23 42  -21.0131 26009.3 -03495.9 -07.6553 26243.2
 17 10 2013  23 43  -21.0131 26009.3 -03495.9 -07.6552 26243.2
 17 10 2013  23 44  -21.0132 26009.4 -03495.9 -07.6552 26243.3
 17 10 2013  23 45  -21.0134 26009.4 -03495.9 -07.6553 26243.3
 17 10 2013  23 46  -21.0135 26009.5 -03495.9 -07.6552 26243.4
 17 10 2013  23 47  -21.0135 26009.4 -03495.9 -07.6551 26243.3
 17 10 2013  23 48  -21.0135 26009.4 -03495.8 -07.6550 26243.2
 17 10 2013  23 49  -21.0135 26009.3 -03495.8 -07.6550 26243.2
 17 10 2013  23 50  -21.0136 26009.3 -03495.8 -07.6549 26243.1
 17 10 2013  23 51  -21.0134 26009.1 -03495.7 -07.6548 26243.0
 17 10 2013  23 52  -21.0134 26009.1 -03495.7 -07.6548 26242.9
 17 10 2013  23 53  -21.0136 26009.0 -03495.6 -07.6547 26242.8
 17 10 2013  23 54  -21.0135 26008.9 -03495.6 -07.6547 26242.8
 17 10 2013  23 55  -21.0135 26008.9 -03495.6 -07.6546 26242.7
 17 10 2013  23 56  -21.0135 26008.8 -03495.6 -07.6546 26242.7
 17 10 2013  23 57  -21.0135 26008.9 -03495.6 -07.6547 26242.7
