SAO LUIS EMBRACE-03 <012> 1 Min. Reported data

 DD MM YYYY  HH MM   D(Deg)  H(nT)   Z(nT)   I(Deg)   F(nT)

 12 01 2013  00 00  -21.0171 26040.4 -03384.3 -07.4049 26259.4
 12 01 2013  00 01  -21.0181 26040.4 -03384.5 -07.4052 26259.5
 12 01 2013  00 02  -21.0186 26040.6 -03384.6 -07.4055 26259.6
 12 01 2013  00 03  -21.0185 26040.7 -03384.7 -07.4056 26259.7
 12 01 2013  00 04  -21.0183 26040.6 -03384.7 -07.4056 26259.7
 12 01 2013  00 05  -21.0181 26040.5 -03384.6 -07.4055 26259.6
 12 01 2013  00 06  -21.0179 26040.4 -03384.6 -07.4055 26259.5
 12 01 2013  00 07  -21.0176 26040.5 -03384.7 -07.4057 26259.5
 12 01 2013  00 08  -21.0175 26040.5 -03384.8 -07.4058 26259.6
 12 01 2013  00 09  -21.0173 26040.7 -03384.9 -07.4060 26259.7
 12 01 2013  00 10  -21.0171 26040.8 -03385.0 -07.4062 26259.8
 12 01 2013  00 11  -21.0167 26040.8 -03385.0 -07.4063 26259.8
 12 01 2013  00 12  -21.0165 26040.8 -03385.1 -07.4064 26259.9
 12 01 2013  00 13  -21.0165 26040.9 -03385.2 -07.4066 26260.0
 12 01 2013  00 14  -21.0164 26040.9 -03385.3 -07.4068 26260.1
 12 01 2013  00 15  -21.0162 26040.9 -03385.3 -07.4068 26260.1
 12 01 2013  00 16  -21.0161 26040.8 -03385.3 -07.4069 26260.0
 12 01 2013  00 17  -21.0162 26040.9 -03385.4 -07.4070 26260.1
 12 01 2013  00 18  -21.0164 26041.2 -03385.6 -07.4074 26260.3
 12 01 2013  00 19  -21.0161 26041.3 -03385.7 -07.4075 26260.5
 12 01 2013  00 20  -21.0157 26041.4 -03385.7 -07.4076 26260.6
 12 01 2013  00 21  -21.0155 26041.7 -03385.9 -07.4078 26260.9
 12 01 2013  00 22  -21.0155 26042.3 -03386.2 -07.4084 26261.5
 12 01 2013  00 23  -21.0155 26042.7 -03386.5 -07.4089 26262.0
 12 01 2013  00 24  -21.0154 26043.1 -03386.7 -07.4093 26262.4
 12 01 2013  00 25  -21.0151 26043.5 -03386.9 -07.4096 26262.8
 12 01 2013  00 26  -21.0149 26043.5 -03386.9 -07.4097 26262.8
 12 01 2013  00 27  -21.0153 26043.9 -03387.1 -07.4099 26263.3
 12 01 2013  00 28  -21.0157 26044.8 -03387.6 -07.4107 26264.2
 12 01 2013  00 29  -21.0162 26045.5 -03388.0 -07.4114 26264.9
 12 01 2013  00 30  -21.0167 26045.6 -03388.0 -07.4115 26265.0
 12 01 2013  00 31  -21.0167 26045.7 -03388.0 -07.4114 26265.1
 12 01 2013  00 32  -21.0165 26045.7 -03387.9 -07.4111 26265.1
 12 01 2013  00 33  -21.0161 26045.7 -03387.8 -07.4109 26265.1
 12 01 2013  00 34  -21.0159 26045.8 -03387.8 -07.4109 26265.2
 12 01 2013  00 35  -21.0155 26045.7 -03387.7 -07.4107 26265.1
 12 01 2013  00 36  -21.0155 26045.6 -03387.6 -07.4105 26265.0
 12 01 2013  00 37  -21.0158 26045.6 -03387.6 -07.4106 26265.0
 12 01 2013  00 38  -21.0162 26045.8 -03387.8 -07.4108 26265.2
 12 01 2013  00 39  -21.0167 26045.9 -03387.8 -07.4109 26265.3
 12 01 2013  00 40  -21.0173 26045.8 -03387.8 -07.4109 26265.2
 12 01 2013  00 41  -21.0179 26045.9 -03387.8 -07.4109 26265.3
 12 01 2013  00 42  -21.0184 26045.9 -03387.8 -07.4108 26265.3
 12 01 2013  00 43  -21.0190 26045.9 -03387.8 -07.4108 26265.3
 12 01 2013  00 44  -21.0193 26045.9 -03387.7 -07.4107 26265.3
 12 01 2013  00 45  -21.0192 26045.7 -03387.6 -07.4105 26265.1
 12 01 2013  00 46  -21.0190 26045.6 -03387.5 -07.4103 26265.0
 12 01 2013  00 47  -21.0185 26045.4 -03387.4 -07.4101 26264.8
 12 01 2013  00 48  -21.0181 26045.3 -03387.3 -07.4099 26264.6
 12 01 2013  00 49  -21.0179 26045.1 -03387.2 -07.4099 26264.5
 12 01 2013  00 50  -21.0176 26045.0 -03387.2 -07.4099 26264.4
 12 01 2013  00 51  -21.0173 26044.9 -03387.2 -07.4099 26264.3
 12 01 2013  00 52  -21.0172 26045.0 -03387.3 -07.4101 26264.3
 12 01 2013  00 53  -21.0170 26044.9 -03387.3 -07.4101 26264.3
 12 01 2013  00 54  -21.0167 26044.8 -03387.3 -07.4102 26264.1
 12 01 2013  00 55  -21.0165 26044.8 -03387.3 -07.4102 26264.1
 12 01 2013  00 56  -21.0165 26044.8 -03387.4 -07.4104 26264.2
 12 01 2013  00 57  -21.0164 26044.8 -03387.5 -07.4105 26264.2
 12 01 2013  00 58  -21.0165 26044.8 -03387.5 -07.4106 26264.1
 12 01 2013  00 59  -21.0167 26044.7 -03387.6 -07.4107 26264.1
 12 01 2013  01 00  -21.0168 26044.6 -03387.5 -07.4107 26264.0
 12 01 2013  01 01  -21.0168 26044.4 -03387.5 -07.4106 26263.8
 12 01 2013  01 02  -21.0170 26044.2 -03387.4 -07.4106 26263.6
 12 01 2013  01 03  -21.0172 26044.2 -03387.4 -07.4106 26263.6
 12 01 2013  01 04  -21.0174 26044.2 -03387.5 -07.4106 26263.6
 12 01 2013  01 05  -21.0174 26044.1 -03387.5 -07.4106 26263.5
 12 01 2013  01 06  -21.0172 26044.1 -03387.4 -07.4106 26263.5
 12 01 2013  01 07  -21.0170 26044.0 -03387.4 -07.4106 26263.4
 12 01 2013  01 08  -21.0167 26044.0 -03387.4 -07.4106 26263.3
 12 01 2013  01 09  -21.0164 26043.9 -03387.4 -07.4106 26263.3
 12 01 2013  01 10  -21.0163 26043.8 -03387.4 -07.4106 26263.2
 12 01 2013  01 11  -21.0161 26043.7 -03387.4 -07.4106 26263.0
 12 01 2013  01 12  -21.0160 26043.7 -03387.5 -07.4108 26263.1
 12 01 2013  01 13  -21.0159 26043.8 -03387.6 -07.4109 26263.2
 12 01 2013  01 14  -21.0158 26043.9 -03387.6 -07.4111 26263.3
 12 01 2013  01 15  -21.0158 26043.9 -03387.7 -07.4112 26263.3
 12 01 2013  01 16  -21.0158 26043.8 -03387.7 -07.4113 26263.2
 12 01 2013  01 17  -21.0159 26043.7 -03387.7 -07.4113 26263.1
 12 01 2013  01 18  -21.0159 26043.6 -03387.7 -07.4112 26263.0
 12 01 2013  01 19  -21.0159 26043.6 -03387.7 -07.4113 26263.0
 12 01 2013  01 20  -21.0159 26043.6 -03387.7 -07.4113 26263.0
 12 01 2013  01 21  -21.0158 26043.6 -03387.7 -07.4114 26263.0
 12 01 2013  01 22  -21.0156 26043.7 -03387.8 -07.4115 26263.2
 12 01 2013  01 23  -21.0155 26043.9 -03387.9 -07.4117 26263.3
 12 01 2013  01 24  -21.0157 26044.1 -03388.1 -07.4120 26263.6
 12 01 2013  01 25  -21.0159 26044.3 -03388.2 -07.4122 26263.7
 12 01 2013  01 26  -21.0161 26044.6 -03388.4 -07.4125 26264.1
 12 01 2013  01 27  -21.0162 26044.8 -03388.5 -07.4127 26264.4
 12 01 2013  01 28  -21.0163 26045.0 -03388.6 -07.4129 26264.6
 12 01 2013  01 29  -21.0162 26045.1 -03388.6 -07.4129 26264.6
 12 01 2013  01 30  -21.0160 26045.0 -03388.5 -07.4127 26264.5
 12 01 2013  01 31  -21.0160 26044.7 -03388.4 -07.4124 26264.2
 12 01 2013  01 32  -21.0158 26044.7 -03388.3 -07.4124 26264.2
 12 01 2013  01 33  -21.0154 26044.5 -03388.2 -07.4122 26264.0
 12 01 2013  01 34  -21.0151 26044.3 -03388.1 -07.4120 26263.7
 12 01 2013  01 35  -21.0150 26044.0 -03388.0 -07.4118 26263.5
 12 01 2013  01 36  -21.0148 26043.8 -03387.9 -07.4116 26263.2
 12 01 2013  01 37  -21.0146 26043.5 -03387.8 -07.4115 26262.9
 12 01 2013  01 38  -21.0144 26043.2 -03387.7 -07.4113 26262.6
 12 01 2013  01 39  -21.0147 26043.1 -03387.7 -07.4113 26262.5
 12 01 2013  01 40  -21.0148 26042.9 -03387.6 -07.4113 26262.3
 12 01 2013  01 41  -21.0150 26042.8 -03387.6 -07.4114 26262.2
 12 01 2013  01 42  -21.0150 26042.6 -03387.6 -07.4114 26262.1
 12 01 2013  01 43  -21.0152 26042.5 -03387.6 -07.4115 26262.0
 12 01 2013  01 44  -21.0153 26042.5 -03387.7 -07.4115 26261.9
 12 01 2013  01 45  -21.0154 26042.5 -03387.7 -07.4116 26261.9
 12 01 2013  01 46  -21.0154 26042.5 -03387.8 -07.4117 26261.9
 12 01 2013  01 47  -21.0156 26042.4 -03387.8 -07.4118 26261.8
 12 01 2013  01 48  -21.0159 26042.5 -03387.9 -07.4120 26261.9
 12 01 2013  01 49  -21.0163 26042.6 -03388.0 -07.4122 26262.0
 12 01 2013  01 50  -21.0167 26042.6 -03388.0 -07.4123 26262.0
 12 01 2013  01 51  -21.0167 26042.6 -03388.1 -07.4124 26262.1
 12 01 2013  01 52  -21.0168 26042.7 -03388.1 -07.4125 26262.1
 12 01 2013  01 53  -21.0169 26042.7 -03388.2 -07.4125 26262.1
 12 01 2013  01 54  -21.0170 26042.7 -03388.2 -07.4126 26262.2
 12 01 2013  01 55  -21.0171 26042.7 -03388.2 -07.4127 26262.2
 12 01 2013  01 56  -21.0171 26042.9 -03388.3 -07.4129 26262.4
 12 01 2013  01 57  -21.0172 26043.0 -03388.4 -07.4130 26262.5
 12 01 2013  01 58  -21.0175 26043.1 -03388.5 -07.4131 26262.6
 12 01 2013  01 59  -21.0176 26043.1 -03388.5 -07.4132 26262.6
 12 01 2013  02 00  -21.0178 26043.3 -03388.6 -07.4133 26262.8
 12 01 2013  02 01  -21.0180 26043.4 -03388.7 -07.4135 26262.9
 12 01 2013  02 02  -21.0183 26043.4 -03388.7 -07.4135 26263.0
 12 01 2013  02 03  -21.0184 26043.5 -03388.7 -07.4135 26263.0
 12 01 2013  02 04  -21.0183 26043.5 -03388.7 -07.4134 26263.0
 12 01 2013  02 05  -21.0183 26043.5 -03388.7 -07.4134 26263.1
 12 01 2013  02 06  -21.0182 26043.5 -03388.7 -07.4134 26263.1
 12 01 2013  02 07  -21.0181 26043.6 -03388.7 -07.4134 26263.1
 12 01 2013  02 08  -21.0181 26043.7 -03388.7 -07.4135 26263.2
 12 01 2013  02 09  -21.0180 26043.9 -03388.8 -07.4136 26263.4
 12 01 2013  02 10  -21.0180 26044.0 -03388.9 -07.4137 26263.5
 12 01 2013  02 11  -21.0180 26044.1 -03388.9 -07.4138 26263.6
 12 01 2013  02 12  -21.0180 26044.1 -03388.9 -07.4138 26263.7
 12 01 2013  02 13  -21.0178 26044.2 -03388.9 -07.4138 26263.7
 12 01 2013  02 14  -21.0175 26044.2 -03388.9 -07.4138 26263.8
 12 01 2013  02 15  -21.0173 26044.3 -03389.0 -07.4139 26263.9
 12 01 2013  02 16  -21.0172 26044.3 -03389.0 -07.4139 26263.9
 12 01 2013  02 17  -21.0169 26044.4 -03389.0 -07.4139 26263.9
 12 01 2013  02 18  -21.0166 26044.2 -03388.9 -07.4138 26263.7
 12 01 2013  02 19  -21.0164 26044.2 -03388.9 -07.4138 26263.7
 12 01 2013  02 20  -21.0161 26044.1 -03388.9 -07.4137 26263.6
 12 01 2013  02 21  -21.0160 26044.0 -03388.9 -07.4137 26263.5
 12 01 2013  02 22  -21.0158 26044.1 -03388.9 -07.4138 26263.7
 12 01 2013  02 23  -21.0155 26044.3 -03389.0 -07.4140 26263.8
 12 01 2013  02 24  -21.0154 26043.9 -03388.9 -07.4138 26263.5
 12 01 2013  02 25  -21.0153 26044.0 -03388.9 -07.4138 26263.6
 12 01 2013  02 26  -21.0148 26044.2 -03389.1 -07.4141 26263.8
 12 01 2013  02 27  -21.0150 26044.0 -03389.0 -07.4141 26263.6
 12 01 2013  02 28  -21.0154 26044.2 -03389.1 -07.4142 26263.8
 12 01 2013  02 29  -21.0151 26044.3 -03389.2 -07.4144 26263.9
 12 01 2013  02 30  -21.0153 26044.2 -03389.2 -07.4143 26263.8
 12 01 2013  02 31  -21.0155 26044.4 -03389.3 -07.4144 26264.0
 12 01 2013  02 32  -21.0155 26044.5 -03389.3 -07.4146 26264.1
 12 01 2013  02 33  -21.0154 26044.5 -03389.3 -07.4146 26264.1
 12 01 2013  02 34  -21.0156 26044.6 -03389.4 -07.4146 26264.2
 12 01 2013  02 35  -21.0159 26044.7 -03389.4 -07.4147 26264.3
 12 01 2013  02 36  -21.0161 26044.8 -03389.5 -07.4148 26264.4
 12 01 2013  02 37  -21.0166 26044.9 -03389.5 -07.4149 26264.5
 12 01 2013  02 38  -21.0168 26045.1 -03389.6 -07.4150 26264.7
 12 01 2013  02 39  -21.0172 26045.4 -03389.7 -07.4152 26265.0
 12 01 2013  02 40  -21.0177 26045.4 -03389.8 -07.4152 26265.1
 12 01 2013  02 41  -21.0183 26045.7 -03389.8 -07.4153 26265.4
 12 01 2013  02 42  -21.0189 26045.8 -03389.8 -07.4153 26265.5
 12 01 2013  02 43  -21.0196 26045.8 -03389.8 -07.4152 26265.5
 12 01 2013  02 44  -21.0201 26046.1 -03389.8 -07.4152 26265.7
 12 01 2013  02 45  -21.0207 26046.2 -03389.8 -07.4152 26265.8
 12 01 2013  02 46  -21.0212 26046.3 -03389.9 -07.4152 26266.0
 12 01 2013  02 47  -21.0216 26046.4 -03389.8 -07.4151 26266.1
 12 01 2013  02 48  -21.0219 26046.4 -03389.8 -07.4149 26266.1
 12 01 2013  02 49  -21.0220 26046.4 -03389.7 -07.4147 26266.0
 12 01 2013  02 50  -21.0219 26046.3 -03389.5 -07.4145 26266.0
 12 01 2013  02 51  -21.0219 26046.2 -03389.4 -07.4142 26265.8
 12 01 2013  02 52  -21.0220 26046.3 -03389.4 -07.4142 26265.9
 12 01 2013  02 53  -21.0221 26046.3 -03389.3 -07.4141 26265.9
 12 01 2013  02 54  -21.0222 26046.3 -03389.3 -07.4141 26265.9
 12 01 2013  02 55  -21.0223 26046.3 -03389.3 -07.4140 26265.9
 12 01 2013  02 56  -21.0224 26046.3 -03389.3 -07.4140 26265.9
 12 01 2013  02 57  -21.0225 26046.3 -03389.3 -07.4139 26265.9
 12 01 2013  02 58  -21.0225 26046.3 -03389.2 -07.4139 26265.9
 12 01 2013  02 59  -21.0225 26046.3 -03389.2 -07.4138 26265.9
 12 01 2013  03 00  -21.0225 26046.3 -03389.2 -07.4138 26265.9
 12 01 2013  03 01  -21.0224 26046.3 -03389.2 -07.4137 26265.9
 12 01 2013  03 02  -21.0227 26046.4 -03389.2 -07.4137 26266.0
 12 01 2013  03 03  -21.0230 26046.6 -03389.3 -07.4139 26266.2
 12 01 2013  03 04  -21.0233 26046.8 -03389.4 -07.4141 26266.4
 12 01 2013  03 05  -21.0235 26047.0 -03389.5 -07.4142 26266.6
 12 01 2013  03 06  -21.0239 26046.9 -03389.4 -07.4140 26266.5
 12 01 2013  03 07  -21.0240 26047.2 -03389.5 -07.4142 26266.8
 12 01 2013  03 08  -21.0242 26047.2 -03389.5 -07.4142 26266.8
 12 01 2013  03 09  -21.0243 26047.3 -03389.5 -07.4141 26266.9
 12 01 2013  03 10  -21.0244 26047.3 -03389.5 -07.4141 26266.9
 12 01 2013  03 11  -21.0246 26047.5 -03389.5 -07.4142 26267.1
 12 01 2013  03 12  -21.0244 26047.8 -03389.7 -07.4144 26267.4
 12 01 2013  03 13  -21.0244 26047.8 -03389.6 -07.4143 26267.5
 12 01 2013  03 14  -21.0244 26047.9 -03389.7 -07.4143 26267.6
 12 01 2013  03 15  -21.0242 26048.0 -03389.6 -07.4142 26267.6
 12 01 2013  03 16  -21.0239 26047.9 -03389.6 -07.4141 26267.5
 12 01 2013  03 17  -21.0237 26047.9 -03389.5 -07.4141 26267.5
 12 01 2013  03 18  -21.0237 26047.9 -03389.6 -07.4142 26267.5
 12 01 2013  03 19  -21.0237 26047.9 -03389.6 -07.4141 26267.5
 12 01 2013  03 20  -21.0237 26047.8 -03389.6 -07.4141 26267.4
 12 01 2013  03 21  -21.0237 26047.7 -03389.5 -07.4140 26267.3
 12 01 2013  03 22  -21.0236 26047.6 -03389.4 -07.4139 26267.2
 12 01 2013  03 23  -21.0234 26047.7 -03389.5 -07.4139 26267.3
 12 01 2013  03 24  -21.0235 26047.7 -03389.5 -07.4140 26267.3
 12 01 2013  03 25  -21.0237 26047.8 -03389.6 -07.4142 26267.4
 12 01 2013  03 26  -21.0238 26047.8 -03389.6 -07.4143 26267.4
 12 01 2013  03 27  -21.0240 26048.2 -03389.8 -07.4146 26267.9
 12 01 2013  03 28  -21.0243 26048.6 -03390.1 -07.4150 26268.3
 12 01 2013  03 29  -21.0247 26049.0 -03390.2 -07.4152 26268.7
 12 01 2013  03 30  -21.0251 26049.5 -03390.5 -07.4157 26269.2
 12 01 2013  03 31  -21.0250 26050.1 -03390.7 -07.4160 26269.8
 12 01 2013  03 32  -21.0250 26050.4 -03390.8 -07.4161 26270.2
 12 01 2013  03 33  -21.0256 26050.6 -03390.9 -07.4162 26270.4
 12 01 2013  03 34  -21.0259 26050.9 -03391.0 -07.4164 26270.7
 12 01 2013  03 35  -21.0263 26051.3 -03391.1 -07.4165 26271.1
 12 01 2013  03 36  -21.0267 26051.3 -03391.1 -07.4164 26271.1
 12 01 2013  03 37  -21.0266 26051.1 -03390.9 -07.4160 26270.9
 12 01 2013  03 38  -21.0262 26050.8 -03390.6 -07.4155 26270.5
 12 01 2013  03 39  -21.0259 26050.7 -03390.5 -07.4153 26270.4
 12 01 2013  03 40  -21.0261 26050.4 -03390.4 -07.4151 26270.1
 12 01 2013  03 41  -21.0263 26050.4 -03390.3 -07.4151 26270.1
 12 01 2013  03 42  -21.0263 26050.3 -03390.2 -07.4149 26270.0
 12 01 2013  03 43  -21.0262 26050.1 -03390.1 -07.4148 26269.8
 12 01 2013  03 44  -21.0259 26049.9 -03390.1 -07.4146 26269.6
 12 01 2013  03 45  -21.0256 26049.8 -03389.9 -07.4144 26269.4
 12 01 2013  03 46  -21.0256 26049.6 -03389.9 -07.4143 26269.3
 12 01 2013  03 47  -21.0258 26049.7 -03389.9 -07.4144 26269.3
 12 01 2013  03 48  -21.0261 26049.9 -03390.1 -07.4146 26269.6
 12 01 2013  03 49  -21.0265 26049.7 -03390.0 -07.4146 26269.4
 12 01 2013  03 50  -21.0266 26049.7 -03390.0 -07.4145 26269.3
 12 01 2013  03 51  -21.0268 26049.7 -03390.0 -07.4145 26269.3
 12 01 2013  03 52  -21.0271 26049.5 -03389.9 -07.4144 26269.2
 12 01 2013  03 53  -21.0274 26049.5 -03389.9 -07.4144 26269.2
 12 01 2013  03 54  -21.0278 26049.4 -03389.8 -07.4142 26269.1
 12 01 2013  03 55  -21.0281 26049.6 -03389.9 -07.4144 26269.2
 12 01 2013  03 56  -21.0284 26049.8 -03390.0 -07.4145 26269.4
 12 01 2013  03 57  -21.0287 26050.1 -03390.2 -07.4148 26269.8
 12 01 2013  03 58  -21.0292 26050.1 -03390.2 -07.4148 26269.7
 12 01 2013  03 59  -21.0294 26050.5 -03390.3 -07.4150 26270.2
 12 01 2013  04 00  -21.0296 26050.7 -03390.4 -07.4151 26270.4
 12 01 2013  04 01  -21.0299 26050.7 -03390.3 -07.4150 26270.3
 12 01 2013  04 02  -21.0300 26051.0 -03390.4 -07.4151 26270.7
 12 01 2013  04 03  -21.0303 26050.9 -03390.4 -07.4150 26270.6
 12 01 2013  04 04  -21.0300 26050.8 -03390.2 -07.4147 26270.4
 12 01 2013  04 05  -21.0300 26050.6 -03390.1 -07.4144 26270.3
 12 01 2013  04 06  -21.0301 26050.7 -03390.1 -07.4144 26270.3
 12 01 2013  04 07  -21.0301 26050.8 -03390.1 -07.4144 26270.5
 12 01 2013  04 08  -21.0302 26050.8 -03390.1 -07.4144 26270.5
 12 01 2013  04 09  -21.0301 26051.0 -03390.1 -07.4145 26270.7
 12 01 2013  04 10  -21.0300 26050.9 -03390.1 -07.4144 26270.6
 12 01 2013  04 11  -21.0299 26050.9 -03390.1 -07.4144 26270.6
 12 01 2013  04 12  -21.0298 26051.1 -03390.2 -07.4145 26270.8
 12 01 2013  04 13  -21.0299 26051.1 -03390.2 -07.4145 26270.7
 12 01 2013  04 14  -21.0300 26051.2 -03390.2 -07.4146 26270.9
 12 01 2013  04 15  -21.0302 26051.3 -03390.2 -07.4146 26270.9
 12 01 2013  04 16  -21.0303 26051.2 -03390.2 -07.4146 26270.9
 12 01 2013  04 17  -21.0305 26051.3 -03390.2 -07.4146 26271.0
 12 01 2013  04 18  -21.0307 26051.3 -03390.2 -07.4145 26271.0
 12 01 2013  04 19  -21.0307 26051.4 -03390.3 -07.4146 26271.1
 12 01 2013  04 20  -21.0307 26051.2 -03390.1 -07.4144 26270.9
 12 01 2013  04 21  -21.0306 26051.1 -03390.0 -07.4142 26270.8
 12 01 2013  04 22  -21.0304 26051.1 -03390.0 -07.4142 26270.8
 12 01 2013  04 23  -21.0302 26051.2 -03390.0 -07.4141 26270.8
 12 01 2013  04 24  -21.0303 26051.2 -03390.0 -07.4141 26270.8
 12 01 2013  04 25  -21.0303 26051.2 -03390.0 -07.4142 26270.9
 12 01 2013  04 26  -21.0304 26051.1 -03390.0 -07.4141 26270.8
 12 01 2013  04 27  -21.0303 26051.0 -03389.8 -07.4139 26270.6
 12 01 2013  04 28  -21.0301 26050.9 -03389.8 -07.4138 26270.6
 12 01 2013  04 29  -21.0301 26050.8 -03389.7 -07.4137 26270.4
 12 01 2013  04 30  -21.0301 26050.7 -03389.7 -07.4136 26270.3
 12 01 2013  04 31  -21.0303 26050.7 -03389.7 -07.4136 26270.3
 12 01 2013  04 32  -21.0305 26050.7 -03389.7 -07.4137 26270.4
 12 01 2013  04 33  -21.0308 26050.7 -03389.8 -07.4138 26270.3
 12 01 2013  04 34  -21.0307 26050.6 -03389.7 -07.4136 26270.2
 12 01 2013  04 35  -21.0306 26050.5 -03389.6 -07.4135 26270.1
 12 01 2013  04 36  -21.0304 26050.3 -03389.5 -07.4133 26269.9
 12 01 2013  04 37  -21.0302 26050.3 -03389.5 -07.4132 26269.8
 12 01 2013  04 38  -21.0303 26050.1 -03389.4 -07.4132 26269.7
 12 01 2013  04 39  -21.0304 26050.1 -03389.4 -07.4131 26269.6
 12 01 2013  04 40  -21.0303 26050.1 -03389.4 -07.4131 26269.7
 12 01 2013  04 41  -21.0305 26050.1 -03389.4 -07.4132 26269.7
 12 01 2013  04 42  -21.0304 26049.9 -03389.4 -07.4131 26269.5
 12 01 2013  04 43  -21.0303 26049.9 -03389.3 -07.4130 26269.4
 12 01 2013  04 44  -21.0302 26049.9 -03389.3 -07.4129 26269.4
 12 01 2013  04 45  -21.0303 26049.8 -03389.3 -07.4129 26269.4
 12 01 2013  04 46  -21.0303 26049.9 -03389.3 -07.4130 26269.5
 12 01 2013  04 47  -21.0304 26050.0 -03389.4 -07.4131 26269.6
 12 01 2013  04 48  -21.0308 26050.2 -03389.5 -07.4132 26269.8
 12 01 2013  04 49  -21.0313 26050.3 -03389.6 -07.4134 26269.9
 12 01 2013  04 50  -21.0316 26050.4 -03389.6 -07.4134 26270.0
 12 01 2013  04 51  -21.0319 26050.6 -03389.6 -07.4134 26270.2
 12 01 2013  04 52  -21.0322 26050.6 -03389.6 -07.4133 26270.2
 12 01 2013  04 53  -21.0322 26050.5 -03389.5 -07.4132 26270.1
 12 01 2013  04 54  -21.0322 26050.6 -03389.4 -07.4131 26270.1
 12 01 2013  04 55  -21.0321 26050.5 -03389.3 -07.4129 26270.1
 12 01 2013  04 56  -21.0319 26050.4 -03389.3 -07.4128 26270.0
 12 01 2013  04 57  -21.0318 26050.3 -03389.2 -07.4126 26269.8
 12 01 2013  04 58  -21.0317 26050.3 -03389.2 -07.4126 26269.8
 12 01 2013  04 59  -21.0314 26050.3 -03389.1 -07.4125 26269.8
 12 01 2013  05 00  -21.0314 26050.4 -03389.2 -07.4125 26270.0
 12 01 2013  05 01  -21.0314 26050.4 -03389.2 -07.4126 26270.0
 12 01 2013  05 02  -21.0315 26050.6 -03389.3 -07.4127 26270.2
 12 01 2013  05 03  -21.0315 26050.6 -03389.3 -07.4127 26270.1
 12 01 2013  05 04  -21.0315 26050.6 -03389.2 -07.4127 26270.1
 12 01 2013  05 05  -21.0315 26050.5 -03389.2 -07.4126 26270.1
 12 01 2013  05 06  -21.0315 26050.5 -03389.2 -07.4125 26270.0
 12 01 2013  05 07  -21.0315 26050.4 -03389.1 -07.4124 26270.0
 12 01 2013  05 08  -21.0314 26050.5 -03389.1 -07.4124 26270.0
 12 01 2013  05 09  -21.0313 26050.6 -03389.1 -07.4125 26270.1
 12 01 2013  05 10  -21.0313 26050.6 -03389.1 -07.4124 26270.1
 12 01 2013  05 11  -21.0312 26050.8 -03389.2 -07.4126 26270.4
 12 01 2013  05 12  -21.0311 26050.9 -03389.3 -07.4126 26270.4
 12 01 2013  05 13  -21.0309 26051.1 -03389.3 -07.4127 26270.7
 12 01 2013  05 14  -21.0310 26051.3 -03389.5 -07.4129 26270.9
 12 01 2013  05 15  -21.0309 26051.5 -03389.6 -07.4131 26271.1
 12 01 2013  05 16  -21.0307 26051.7 -03389.6 -07.4131 26271.3
 12 01 2013  05 17  -21.0304 26051.7 -03389.6 -07.4131 26271.3
 12 01 2013  05 18  -21.0301 26051.7 -03389.5 -07.4130 26271.2
 12 01 2013  05 19  -21.0299 26051.6 -03389.5 -07.4129 26271.1
 12 01 2013  05 20  -21.0298 26051.3 -03389.3 -07.4125 26270.8
 12 01 2013  05 21  -21.0298 26051.1 -03389.2 -07.4124 26270.7
 12 01 2013  05 22  -21.0300 26050.9 -03389.1 -07.4122 26270.5
 12 01 2013  05 23  -21.0297 26050.6 -03388.9 -07.4119 26270.1
 12 01 2013  05 24  -21.0297 26050.3 -03388.7 -07.4116 26269.8
 12 01 2013  05 25  -21.0296 26050.2 -03388.7 -07.4116 26269.7
 12 01 2013  05 26  -21.0296 26050.2 -03388.7 -07.4116 26269.7
 12 01 2013  05 27  -21.0293 26050.1 -03388.7 -07.4116 26269.6
 12 01 2013  05 28  -21.0292 26050.2 -03388.8 -07.4118 26269.7
 12 01 2013  05 29  -21.0292 26050.3 -03388.9 -07.4120 26269.9
 12 01 2013  05 30  -21.0294 26050.4 -03389.0 -07.4122 26269.9
 12 01 2013  05 31  -21.0295 26050.5 -03389.0 -07.4122 26270.0
 12 01 2013  05 32  -21.0298 26050.5 -03389.0 -07.4122 26270.0
 12 01 2013  05 33  -21.0298 26050.5 -03389.0 -07.4122 26270.1
 12 01 2013  05 34  -21.0298 26050.7 -03389.1 -07.4123 26270.2
 12 01 2013  05 35  -21.0297 26050.9 -03389.1 -07.4124 26270.4
 12 01 2013  05 36  -21.0296 26051.0 -03389.2 -07.4125 26270.5
 12 01 2013  05 37  -21.0294 26051.1 -03389.2 -07.4125 26270.6
 12 01 2013  05 38  -21.0293 26051.0 -03389.2 -07.4125 26270.6
 12 01 2013  05 39  -21.0292 26051.1 -03389.2 -07.4125 26270.6
 12 01 2013  05 40  -21.0291 26051.1 -03389.3 -07.4126 26270.7
 12 01 2013  05 41  -21.0290 26051.2 -03389.3 -07.4126 26270.7
 12 01 2013  05 42  -21.0291 26051.2 -03389.3 -07.4126 26270.7
 12 01 2013  05 43  -21.0290 26051.3 -03389.4 -07.4127 26270.9
 12 01 2013  05 44  -21.0291 26051.4 -03389.4 -07.4128 26271.0
 12 01 2013  05 45  -21.0293 26051.6 -03389.5 -07.4130 26271.2
 12 01 2013  05 46  -21.0294 26051.8 -03389.6 -07.4132 26271.4
 12 01 2013  05 47  -21.0295 26051.9 -03389.7 -07.4132 26271.5
 12 01 2013  05 48  -21.0293 26052.1 -03389.7 -07.4133 26271.7
 12 01 2013  05 49  -21.0292 26052.0 -03389.7 -07.4132 26271.6
 12 01 2013  05 50  -21.0290 26052.1 -03389.7 -07.4132 26271.7
 12 01 2013  05 51  -21.0290 26052.0 -03389.7 -07.4132 26271.6
 12 01 2013  05 52  -21.0289 26052.0 -03389.6 -07.4131 26271.6
 12 01 2013  05 53  -21.0288 26052.0 -03389.6 -07.4130 26271.6
 12 01 2013  05 54  -21.0288 26052.0 -03389.5 -07.4129 26271.5
 12 01 2013  05 55  -21.0287 26051.9 -03389.6 -07.4129 26271.5
 12 01 2013  05 56  -21.0286 26052.0 -03389.6 -07.4130 26271.6
 12 01 2013  05 57  -21.0285 26052.1 -03389.6 -07.4130 26271.6
 12 01 2013  05 58  -21.0284 26052.1 -03389.6 -07.4131 26271.7
 12 01 2013  05 59  -21.0284 26052.3 -03389.7 -07.4131 26271.9
 12 01 2013  06 00  -21.0284 26052.4 -03389.7 -07.4132 26272.0
 12 01 2013  06 01  -21.0285 26052.5 -03389.8 -07.4133 26272.1
 12 01 2013  06 02  -21.0285 26052.5 -03389.8 -07.4133 26272.1
 12 01 2013  06 03  -21.0286 26052.6 -03389.8 -07.4133 26272.2
 12 01 2013  06 04  -21.0285 26052.5 -03389.8 -07.4133 26272.1
 12 01 2013  06 05  -21.0286 26052.5 -03389.7 -07.4132 26272.1
 12 01 2013  06 06  -21.0288 26052.4 -03389.7 -07.4131 26272.0
 12 01 2013  06 07  -21.0288 26052.4 -03389.6 -07.4130 26271.9
 12 01 2013  06 08  -21.0287 26052.2 -03389.5 -07.4128 26271.8
 12 01 2013  06 09  -21.0286 26052.3 -03389.5 -07.4128 26271.8
 12 01 2013  06 10  -21.0286 26052.1 -03389.5 -07.4128 26271.7
 12 01 2013  06 11  -21.0287 26052.0 -03389.4 -07.4127 26271.5
 12 01 2013  06 12  -21.0285 26051.8 -03389.3 -07.4125 26271.4
 12 01 2013  06 13  -21.0284 26051.8 -03389.3 -07.4124 26271.3
 12 01 2013  06 14  -21.0283 26051.8 -03389.3 -07.4124 26271.4
 12 01 2013  06 15  -21.0281 26051.9 -03389.4 -07.4126 26271.5
 12 01 2013  06 16  -21.0282 26052.2 -03389.5 -07.4129 26271.8
 12 01 2013  06 17  -21.0282 26052.5 -03389.7 -07.4131 26272.1
 12 01 2013  06 18  -21.0281 26052.7 -03389.8 -07.4133 26272.3
 12 01 2013  06 19  -21.0280 26052.7 -03389.8 -07.4133 26272.3
 12 01 2013  06 20  -21.0280 26052.7 -03389.8 -07.4133 26272.3
 12 01 2013  06 21  -21.0279 26052.8 -03389.8 -07.4133 26272.4
 12 01 2013  06 22  -21.0279 26053.0 -03389.9 -07.4134 26272.6
 12 01 2013  06 23  -21.0279 26053.0 -03389.9 -07.4134 26272.6
 12 01 2013  06 24  -21.0281 26053.2 -03390.1 -07.4137 26272.9
 12 01 2013  06 25  -21.0280 26053.5 -03390.2 -07.4139 26273.1
 12 01 2013  06 26  -21.0281 26053.4 -03390.2 -07.4139 26273.1
 12 01 2013  06 27  -21.0280 26053.4 -03390.1 -07.4138 26273.0
 12 01 2013  06 28  -21.0277 26053.2 -03390.0 -07.4136 26272.8
 12 01 2013  06 29  -21.0274 26053.1 -03389.9 -07.4135 26272.7
 12 01 2013  06 30  -21.0272 26052.9 -03389.9 -07.4133 26272.5
 12 01 2013  06 31  -21.0269 26052.7 -03389.8 -07.4132 26272.3
 12 01 2013  06 32  -21.0267 26052.6 -03389.7 -07.4131 26272.2
 12 01 2013  06 33  -21.0265 26052.6 -03389.7 -07.4131 26272.2
 12 01 2013  06 34  -21.0264 26052.6 -03389.7 -07.4132 26272.2
 12 01 2013  06 35  -21.0264 26052.6 -03389.8 -07.4133 26272.2
 12 01 2013  06 36  -21.0264 26052.7 -03389.9 -07.4135 26272.3
 12 01 2013  06 37  -21.0264 26052.7 -03390.0 -07.4136 26272.4
 12 01 2013  06 38  -21.0263 26052.7 -03390.0 -07.4137 26272.3
 12 01 2013  06 39  -21.0262 26052.7 -03390.0 -07.4137 26272.3
 12 01 2013  06 40  -21.0261 26052.8 -03390.1 -07.4138 26272.4
 12 01 2013  06 41  -21.0260 26052.9 -03390.2 -07.4141 26272.6
 12 01 2013  06 42  -21.0261 26053.0 -03390.3 -07.4142 26272.6
 12 01 2013  06 43  -21.0261 26052.9 -03390.3 -07.4143 26272.6
 12 01 2013  06 44  -21.0261 26052.9 -03390.3 -07.4143 26272.6
 12 01 2013  06 45  -21.0261 26052.8 -03390.3 -07.4143 26272.5
 12 01 2013  06 46  -21.0261 26052.9 -03390.3 -07.4143 26272.5
 12 01 2013  06 47  -21.0262 26052.8 -03390.3 -07.4143 26272.5
 12 01 2013  06 48  -21.0262 26052.8 -03390.3 -07.4143 26272.5
 12 01 2013  06 49  -21.0263 26052.5 -03390.2 -07.4142 26272.2
 12 01 2013  06 50  -21.0262 26052.4 -03390.1 -07.4141 26272.0
 12 01 2013  06 51  -21.0261 26052.0 -03390.0 -07.4138 26271.7
 12 01 2013  06 52  -21.0261 26052.0 -03389.9 -07.4138 26271.7
 12 01 2013  06 53  -21.0262 26051.9 -03389.9 -07.4138 26271.6
 12 01 2013  06 54  -21.0264 26051.9 -03390.0 -07.4139 26271.5
 12 01 2013  06 55  -21.0264 26051.9 -03390.0 -07.4139 26271.5
 12 01 2013  06 56  -21.0266 26051.9 -03390.0 -07.4139 26271.5
 12 01 2013  06 57  -21.0265 26051.9 -03390.0 -07.4140 26271.6
 12 01 2013  06 58  -21.0266 26052.0 -03390.1 -07.4141 26271.6
 12 01 2013  06 59  -21.0266 26052.2 -03390.2 -07.4142 26271.8
 12 01 2013  07 00  -21.0265 26052.3 -03390.3 -07.4144 26272.0
 12 01 2013  07 01  -21.0264 26052.3 -03390.3 -07.4145 26272.0
 12 01 2013  07 02  -21.0262 26052.3 -03390.3 -07.4145 26272.0
 12 01 2013  07 03  -21.0260 26052.4 -03390.4 -07.4146 26272.1
 12 01 2013  07 04  -21.0257 26052.4 -03390.4 -07.4147 26272.0
 12 01 2013  07 05  -21.0253 26052.3 -03390.4 -07.4146 26272.0
 12 01 2013  07 06  -21.0250 26052.3 -03390.4 -07.4146 26272.0
 12 01 2013  07 07  -21.0246 26052.4 -03390.4 -07.4148 26272.1
 12 01 2013  07 08  -21.0244 26052.3 -03390.4 -07.4148 26272.0
 12 01 2013  07 09  -21.0241 26052.4 -03390.5 -07.4149 26272.1
 12 01 2013  07 10  -21.0238 26052.3 -03390.5 -07.4148 26272.0
 12 01 2013  07 11  -21.0235 26052.3 -03390.5 -07.4148 26272.0
 12 01 2013  07 12  -21.0234 26052.4 -03390.5 -07.4149 26272.1
 12 01 2013  07 13  -21.0231 26052.3 -03390.5 -07.4149 26272.0
 12 01 2013  07 14  -21.0229 26052.3 -03390.5 -07.4149 26272.0
 12 01 2013  07 15  -21.0227 26052.3 -03390.5 -07.4149 26272.0
 12 01 2013  07 16  -21.0225 26052.3 -03390.5 -07.4149 26272.0
 12 01 2013  07 17  -21.0223 26052.3 -03390.5 -07.4149 26272.0
 12 01 2013  07 18  -21.0222 26052.3 -03390.5 -07.4149 26272.0
 12 01 2013  07 19  -21.0221 26052.4 -03390.6 -07.4150 26272.1
 12 01 2013  07 20  -21.0219 26052.4 -03390.6 -07.4150 26272.1
 12 01 2013  07 21  -21.0219 26052.4 -03390.6 -07.4150 26272.1
 12 01 2013  07 22  -21.0218 26052.4 -03390.6 -07.4150 26272.1
 12 01 2013  07 23  -21.0216 26052.4 -03390.6 -07.4150 26272.1
 12 01 2013  07 24  -21.0214 26052.3 -03390.6 -07.4150 26272.0
 12 01 2013  07 25  -21.0213 26052.4 -03390.6 -07.4151 26272.1
 12 01 2013  07 26  -21.0212 26052.5 -03390.7 -07.4152 26272.2
 12 01 2013  07 27  -21.0210 26052.6 -03390.7 -07.4153 26272.3
 12 01 2013  07 28  -21.0211 26052.6 -03390.8 -07.4154 26272.4
 12 01 2013  07 29  -21.0211 26052.7 -03390.8 -07.4155 26272.5
 12 01 2013  07 30  -21.0210 26052.9 -03390.9 -07.4156 26272.7
 12 01 2013  07 31  -21.0209 26053.1 -03391.0 -07.4157 26272.8
 12 01 2013  07 32  -21.0208 26053.0 -03391.0 -07.4158 26272.8
 12 01 2013  07 33  -21.0208 26053.0 -03391.0 -07.4157 26272.7
 12 01 2013  07 34  -21.0207 26053.0 -03390.9 -07.4157 26272.7
 12 01 2013  07 35  -21.0205 26053.0 -03390.9 -07.4156 26272.7
 12 01 2013  07 36  -21.0205 26053.0 -03390.9 -07.4156 26272.7
 12 01 2013  07 37  -21.0205 26053.0 -03390.9 -07.4156 26272.8
 12 01 2013  07 38  -21.0204 26053.0 -03390.9 -07.4156 26272.8
 12 01 2013  07 39  -21.0203 26053.1 -03391.0 -07.4157 26272.9
 12 01 2013  07 40  -21.0203 26053.1 -03391.0 -07.4157 26272.9
 12 01 2013  07 41  -21.0202 26053.2 -03391.0 -07.4158 26273.0
 12 01 2013  07 42  -21.0202 26053.4 -03391.1 -07.4159 26273.1
 12 01 2013  07 43  -21.0202 26053.4 -03391.2 -07.4160 26273.2
 12 01 2013  07 44  -21.0201 26053.6 -03391.2 -07.4161 26273.4
 12 01 2013  07 45  -21.0200 26053.7 -03391.3 -07.4162 26273.5
 12 01 2013  07 46  -21.0198 26053.8 -03391.3 -07.4163 26273.6
 12 01 2013  07 47  -21.0197 26053.8 -03391.3 -07.4163 26273.6
 12 01 2013  07 48  -21.0195 26053.9 -03391.4 -07.4163 26273.7
 12 01 2013  07 49  -21.0193 26053.9 -03391.4 -07.4163 26273.7
 12 01 2013  07 50  -21.0191 26053.9 -03391.4 -07.4164 26273.7
 12 01 2013  07 51  -21.0190 26053.9 -03391.4 -07.4163 26273.7
 12 01 2013  07 52  -21.0188 26054.0 -03391.4 -07.4164 26273.8
 12 01 2013  07 53  -21.0186 26054.0 -03391.4 -07.4164 26273.8
 12 01 2013  07 54  -21.0185 26053.9 -03391.4 -07.4164 26273.6
 12 01 2013  07 55  -21.0185 26053.9 -03391.4 -07.4164 26273.7
 12 01 2013  07 56  -21.0185 26054.0 -03391.5 -07.4165 26273.8
 12 01 2013  07 57  -21.0185 26054.0 -03391.4 -07.4165 26273.8
 12 01 2013  07 58  -21.0185 26054.0 -03391.5 -07.4165 26273.8
 12 01 2013  07 59  -21.0187 26054.0 -03391.5 -07.4166 26273.8
 12 01 2013  08 00  -21.0188 26054.2 -03391.6 -07.4167 26274.0
 12 01 2013  08 01  -21.0190 26054.2 -03391.6 -07.4168 26274.1
 12 01 2013  08 02  -21.0191 26054.3 -03391.7 -07.4169 26274.2
 12 01 2013  08 03  -21.0193 26054.5 -03391.7 -07.4170 26274.3
 12 01 2013  08 04  -21.0194 26054.5 -03391.8 -07.4170 26274.4
 12 01 2013  08 05  -21.0195 26054.6 -03391.8 -07.4170 26274.4
 12 01 2013  08 06  -21.0195 26054.6 -03391.8 -07.4170 26274.4
 12 01 2013  08 07  -21.0196 26054.6 -03391.8 -07.4170 26274.5
 12 01 2013  08 08  -21.0196 26054.6 -03391.7 -07.4169 26274.5
 12 01 2013  08 09  -21.0198 26054.6 -03391.7 -07.4169 26274.5
 12 01 2013  08 10  -21.0198 26054.7 -03391.8 -07.4169 26274.6
 12 01 2013  08 11  -21.0200 26054.7 -03391.7 -07.4169 26274.6
 12 01 2013  08 12  -21.0202 26054.7 -03391.7 -07.4169 26274.5
 12 01 2013  08 13  -21.0204 26054.7 -03391.7 -07.4168 26274.6
 12 01 2013  08 14  -21.0205 26054.7 -03391.7 -07.4168 26274.5
 12 01 2013  08 15  -21.0206 26054.7 -03391.7 -07.4167 26274.5
 12 01 2013  08 16  -21.0207 26054.8 -03391.7 -07.4167 26274.6
 12 01 2013  08 17  -21.0208 26054.9 -03391.7 -07.4168 26274.7
 12 01 2013  08 18  -21.0210 26055.0 -03391.7 -07.4168 26274.8
 12 01 2013  08 19  -21.0211 26055.0 -03391.7 -07.4168 26274.8
 12 01 2013  08 20  -21.0213 26055.0 -03391.8 -07.4168 26274.8
 12 01 2013  08 21  -21.0216 26055.0 -03391.7 -07.4168 26274.9
 12 01 2013  08 22  -21.0217 26055.1 -03391.8 -07.4168 26274.9
 12 01 2013  08 23  -21.0218 26055.2 -03391.8 -07.4168 26275.0
 12 01 2013  08 24  -21.0220 26055.2 -03391.7 -07.4167 26275.0
 12 01 2013  08 25  -21.0221 26055.2 -03391.7 -07.4167 26275.1
 12 01 2013  08 26  -21.0222 26055.2 -03391.7 -07.4166 26275.1
 12 01 2013  08 27  -21.0222 26055.3 -03391.7 -07.4166 26275.1
 12 01 2013  08 28  -21.0222 26055.4 -03391.7 -07.4165 26275.2
 12 01 2013  08 29  -21.0224 26055.4 -03391.7 -07.4165 26275.2
 12 01 2013  08 30  -21.0224 26055.4 -03391.7 -07.4165 26275.2
 12 01 2013  08 31  -21.0224 26055.5 -03391.6 -07.4164 26275.3
 12 01 2013  08 32  -21.0224 26055.6 -03391.6 -07.4164 26275.4
 12 01 2013  08 33  -21.0224 26055.6 -03391.6 -07.4163 26275.4
 12 01 2013  08 34  -21.0225 26055.6 -03391.5 -07.4162 26275.4
 12 01 2013  08 35  -21.0226 26055.7 -03391.5 -07.4161 26275.5
 12 01 2013  08 36  -21.0226 26055.7 -03391.5 -07.4161 26275.5
 12 01 2013  08 37  -21.0226 26055.8 -03391.5 -07.4160 26275.6
 12 01 2013  08 38  -21.0226 26056.0 -03391.5 -07.4160 26275.7
 12 01 2013  08 39  -21.0228 26056.0 -03391.4 -07.4159 26275.8
 12 01 2013  08 40  -21.0228 26056.0 -03391.4 -07.4159 26275.8
 12 01 2013  08 41  -21.0229 26056.1 -03391.4 -07.4158 26275.8
 12 01 2013  08 42  -21.0230 26056.0 -03391.3 -07.4157 26275.8
 12 01 2013  08 43  -21.0231 26056.1 -03391.4 -07.4157 26275.9
 12 01 2013  08 44  -21.0232 26056.1 -03391.3 -07.4156 26275.9
 12 01 2013  08 45  -21.0232 26056.2 -03391.3 -07.4155 26276.0
 12 01 2013  08 46  -21.0232 26056.3 -03391.3 -07.4155 26276.1
 12 01 2013  08 47  -21.0232 26056.3 -03391.3 -07.4155 26276.1
 12 01 2013  08 48  -21.0232 26056.4 -03391.3 -07.4155 26276.2
 12 01 2013  08 49  -21.0235 26056.4 -03391.3 -07.4155 26276.2
 12 01 2013  08 50  -21.0237 26056.5 -03391.3 -07.4155 26276.3
 12 01 2013  08 51  -21.0237 26056.6 -03391.3 -07.4155 26276.4
 12 01 2013  08 52  -21.0242 26056.7 -03391.4 -07.4156 26276.4
 12 01 2013  08 53  -21.0246 26056.7 -03391.4 -07.4156 26276.5
 12 01 2013  08 54  -21.0250 26056.8 -03391.4 -07.4156 26276.6
 12 01 2013  08 55  -21.0254 26056.8 -03391.4 -07.4156 26276.6
 12 01 2013  08 56  -21.0256 26057.0 -03391.4 -07.4156 26276.8
 12 01 2013  08 57  -21.0261 26056.9 -03391.4 -07.4155 26276.7
 12 01 2013  08 58  -21.0266 26057.0 -03391.3 -07.4154 26276.8
 12 01 2013  08 59  -21.0271 26057.1 -03391.4 -07.4154 26276.9
 12 01 2013  09 00  -21.0278 26057.2 -03391.3 -07.4153 26276.9
 12 01 2013  09 01  -21.0281 26057.2 -03391.2 -07.4151 26277.0
 12 01 2013  09 02  -21.0282 26057.4 -03391.3 -07.4151 26277.2
 12 01 2013  09 03  -21.0290 26057.4 -03391.2 -07.4149 26277.1
 12 01 2013  09 04  -21.0294 26057.5 -03391.2 -07.4149 26277.3
 12 01 2013  09 05  -21.0296 26057.7 -03391.1 -07.4147 26277.4
 12 01 2013  09 06  -21.0299 26057.9 -03391.1 -07.4147 26277.6
 12 01 2013  09 07  -21.0301 26057.8 -03391.0 -07.4144 26277.5
 12 01 2013  09 08  -21.0305 26058.3 -03391.1 -07.4145 26278.0
 12 01 2013  09 09  -21.0310 26058.3 -03391.1 -07.4144 26278.1
 12 01 2013  09 10  -21.0313 26058.6 -03391.0 -07.4142 26278.3
 12 01 2013  09 11  -21.0318 26058.9 -03391.0 -07.4142 26278.6
 12 01 2013  09 12  -21.0325 26058.9 -03390.9 -07.4138 26278.6
 12 01 2013  09 13  -21.0325 26059.1 -03390.8 -07.4136 26278.8
 12 01 2013  09 14  -21.0332 26059.4 -03390.8 -07.4135 26279.1
 12 01 2013  09 15  -21.0336 26059.4 -03390.6 -07.4132 26279.0
 12 01 2013  09 16  -21.0339 26059.4 -03390.5 -07.4129 26279.0
 12 01 2013  09 17  -21.0342 26059.5 -03390.5 -07.4128 26279.2
 12 01 2013  09 18  -21.0345 26059.7 -03390.4 -07.4126 26279.3
 12 01 2013  09 19  -21.0351 26059.6 -03390.2 -07.4121 26279.2
 12 01 2013  09 20  -21.0350 26059.8 -03390.2 -07.4121 26279.4
 12 01 2013  09 21  -21.0354 26060.0 -03390.1 -07.4120 26279.6
 12 01 2013  09 22  -21.0363 26060.1 -03390.1 -07.4118 26279.7
 12 01 2013  09 23  -21.0371 26060.4 -03390.0 -07.4116 26280.0
 12 01 2013  09 24  -21.0375 26060.7 -03390.1 -07.4116 26280.2
 12 01 2013  09 25  -21.0377 26060.5 -03389.8 -07.4110 26280.0
 12 01 2013  09 26  -21.0381 26060.7 -03389.7 -07.4108 26280.2
 12 01 2013  09 27  -21.0391 26060.9 -03389.7 -07.4107 26280.4
 12 01 2013  09 28  -21.0397 26061.2 -03389.6 -07.4105 26280.7
 12 01 2013  09 29  -21.0402 26061.3 -03389.5 -07.4101 26280.8
 12 01 2013  09 30  -21.0398 26061.3 -03389.3 -07.4098 26280.8
 12 01 2013  09 31  -21.0411 26061.7 -03389.3 -07.4097 26281.2
 12 01 2013  09 32  -21.0415 26061.8 -03389.2 -07.4095 26281.3
 12 01 2013  09 33  -21.0417 26061.7 -03389.0 -07.4090 26281.2
 12 01 2013  09 34  -21.0426 26062.1 -03389.0 -07.4088 26281.5
 12 01 2013  09 35  -21.0428 26062.2 -03388.8 -07.4085 26281.6
 12 01 2013  09 36  -21.0433 26062.5 -03388.8 -07.4083 26281.9
 12 01 2013  09 37  -21.0439 26062.6 -03388.6 -07.4079 26281.9
 12 01 2013  09 38  -21.0439 26062.4 -03388.3 -07.4074 26281.8
 12 01 2013  09 39  -21.0449 26062.7 -03388.3 -07.4072 26282.1
 12 01 2013  09 40  -21.0452 26063.0 -03388.2 -07.4069 26282.3
 12 01 2013  09 41  -21.0451 26063.2 -03388.1 -07.4067 26282.5
 12 01 2013  09 42  -21.0461 26063.4 -03388.0 -07.4064 26282.7
 12 01 2013  09 43  -21.0466 26063.9 -03388.1 -07.4063 26283.2
 12 01 2013  09 44  -21.0462 26063.8 -03387.7 -07.4057 26283.0
 12 01 2013  09 45  -21.0466 26064.3 -03387.8 -07.4056 26283.6
 12 01 2013  09 46  -21.0470 26064.5 -03387.6 -07.4053 26283.7
 12 01 2013  09 47  -21.0475 26065.4 -03387.9 -07.4055 26284.6
 12 01 2013  09 48  -21.0481 26065.6 -03387.7 -07.4052 26284.9
 12 01 2013  09 49  -21.0482 26065.8 -03387.5 -07.4047 26285.0
 12 01 2013  09 50  -21.0484 26066.1 -03387.4 -07.4044 26285.2
 12 01 2013  09 51  -21.0484 26066.3 -03387.3 -07.4040 26285.5
 12 01 2013  09 52  -21.0495 26066.8 -03387.3 -07.4038 26285.9
 12 01 2013  09 53  -21.0494 26067.3 -03387.2 -07.4037 26286.4
 12 01 2013  09 54  -21.0492 26067.5 -03387.0 -07.4031 26286.6
 12 01 2013  09 55  -21.0502 26068.0 -03387.0 -07.4028 26287.1
 12 01 2013  09 56  -21.0496 26068.0 -03386.7 -07.4022 26287.1
 12 01 2013  09 57  -21.0494 26068.2 -03386.6 -07.4019 26287.3
 12 01 2013  09 58  -21.0497 26068.3 -03386.3 -07.4013 26287.3
 12 01 2013  09 59  -21.0499 26068.8 -03386.3 -07.4013 26287.8
 12 01 2013  10 00  -21.0501 26068.9 -03386.1 -07.4007 26287.9
 12 01 2013  10 01  -21.0503 26069.5 -03386.0 -07.4004 26288.4
 12 01 2013  10 02  -21.0497 26069.7 -03385.9 -07.4000 26288.6
 12 01 2013  10 03  -21.0501 26069.9 -03385.7 -07.3995 26288.8
 12 01 2013  10 04  -21.0498 26070.3 -03385.6 -07.3992 26289.2
 12 01 2013  10 05  -21.0501 26070.6 -03385.5 -07.3989 26289.5
 12 01 2013  10 06  -21.0502 26071.1 -03385.4 -07.3986 26290.0
 12 01 2013  10 07  -21.0501 26071.3 -03385.2 -07.3981 26290.2
 12 01 2013  10 08  -21.0501 26071.7 -03385.1 -07.3977 26290.5
 12 01 2013  10 09  -21.0501 26072.1 -03385.0 -07.3974 26290.9
 12 01 2013  10 10  -21.0504 26072.7 -03384.9 -07.3970 26291.5
 12 01 2013  10 11  -21.0498 26073.0 -03384.7 -07.3965 26291.8
 12 01 2013  10 12  -21.0495 26073.2 -03384.4 -07.3959 26292.0
 12 01 2013  10 13  -21.0491 26073.4 -03384.2 -07.3953 26292.1
 12 01 2013  10 14  -21.0483 26073.5 -03383.9 -07.3947 26292.1
 12 01 2013  10 15  -21.0478 26073.6 -03383.7 -07.3941 26292.2
 12 01 2013  10 16  -21.0476 26073.9 -03383.6 -07.3939 26292.6
 12 01 2013  10 17  -21.0471 26074.2 -03383.4 -07.3935 26292.8
 12 01 2013  10 18  -21.0463 26074.2 -03383.2 -07.3930 26292.8
 12 01 2013  10 19  -21.0456 26074.3 -03383.0 -07.3925 26292.9
 12 01 2013  10 20  -21.0449 26074.4 -03382.8 -07.3920 26292.9
 12 01 2013  10 21  -21.0439 26074.3 -03382.5 -07.3915 26292.8
 12 01 2013  10 22  -21.0431 26074.4 -03382.4 -07.3912 26292.8
 12 01 2013  10 23  -21.0426 26074.5 -03382.4 -07.3911 26293.0
 12 01 2013  10 24  -21.0418 26074.4 -03382.2 -07.3907 26292.9
 12 01 2013  10 25  -21.0410 26074.5 -03382.0 -07.3904 26292.9
 12 01 2013  10 26  -21.0405 26074.5 -03381.9 -07.3902 26292.9
 12 01 2013  10 27  -21.0400 26074.6 -03381.8 -07.3899 26293.0
 12 01 2013  10 28  -21.0394 26074.6 -03381.7 -07.3896 26293.0
 12 01 2013  10 29  -21.0388 26074.8 -03381.6 -07.3895 26293.1
 12 01 2013  10 30  -21.0382 26074.9 -03381.6 -07.3893 26293.3
 12 01 2013  10 31  -21.0375 26075.0 -03381.5 -07.3891 26293.3
 12 01 2013  10 32  -21.0368 26074.9 -03381.4 -07.3888 26293.3
 12 01 2013  10 33  -21.0363 26075.1 -03381.3 -07.3886 26293.4
 12 01 2013  10 34  -21.0359 26075.1 -03381.2 -07.3884 26293.4
 12 01 2013  10 35  -21.0352 26075.1 -03381.1 -07.3882 26293.4
 12 01 2013  10 36  -21.0346 26075.2 -03381.0 -07.3880 26293.5
 12 01 2013  10 37  -21.0340 26075.3 -03380.9 -07.3878 26293.6
 12 01 2013  10 38  -21.0337 26075.4 -03380.9 -07.3877 26293.7
 12 01 2013  10 39  -21.0329 26075.6 -03380.8 -07.3874 26293.9
 12 01 2013  10 40  -21.0321 26075.8 -03380.8 -07.3873 26294.1
 12 01 2013  10 41  -21.0315 26076.1 -03380.8 -07.3872 26294.3
 12 01 2013  10 42  -21.0311 26076.3 -03380.7 -07.3870 26294.5
 12 01 2013  10 43  -21.0306 26076.5 -03380.7 -07.3869 26294.7
 12 01 2013  10 44  -21.0299 26076.6 -03380.6 -07.3867 26294.8
 12 01 2013  10 45  -21.0290 26076.8 -03380.5 -07.3865 26295.0
 12 01 2013  10 46  -21.0280 26076.8 -03380.5 -07.3863 26295.0
 12 01 2013  10 47  -21.0277 26077.2 -03380.5 -07.3863 26295.5
 12 01 2013  10 48  -21.0273 26077.6 -03380.6 -07.3863 26295.8
 12 01 2013  10 49  -21.0264 26077.6 -03380.4 -07.3860 26295.8
 12 01 2013  10 50  -21.0256 26077.7 -03380.3 -07.3858 26295.9
 12 01 2013  10 51  -21.0249 26078.0 -03380.3 -07.3857 26296.1
 12 01 2013  10 52  -21.0243 26078.3 -03380.3 -07.3855 26296.4
 12 01 2013  10 53  -21.0236 26078.3 -03380.2 -07.3853 26296.5
 12 01 2013  10 54  -21.0223 26078.1 -03380.0 -07.3848 26296.3
 12 01 2013  10 55  -21.0211 26078.2 -03379.9 -07.3846 26296.3
 12 01 2013  10 56  -21.0202 26078.6 -03379.9 -07.3846 26296.7
 12 01 2013  10 57  -21.0187 26078.7 -03379.8 -07.3845 26296.8
 12 01 2013  10 58  -21.0177 26078.5 -03379.6 -07.3841 26296.6
 12 01 2013  10 59  -21.0180 26079.0 -03379.8 -07.3843 26297.1
 12 01 2013  11 00  -21.0174 26079.1 -03379.7 -07.3841 26297.2
 12 01 2013  11 01  -21.0161 26079.7 -03379.8 -07.3841 26297.8
 12 01 2013  11 02  -21.0158 26079.4 -03379.6 -07.3837 26297.4
 12 01 2013  11 03  -21.0151 26079.7 -03379.5 -07.3834 26297.8
 12 01 2013  11 04  -21.0138 26080.0 -03379.4 -07.3832 26298.0
 12 01 2013  11 05  -21.0129 26080.7 -03379.6 -07.3833 26298.8
 12 01 2013  11 06  -21.0132 26081.0 -03379.6 -07.3832 26299.1
 12 01 2013  11 07  -21.0135 26081.7 -03379.7 -07.3833 26299.8
 12 01 2013  11 08  -21.0119 26081.8 -03379.5 -07.3828 26299.8
 12 01 2013  11 09  -21.0107 26081.6 -03379.2 -07.3822 26299.6
 12 01 2013  11 10  -21.0106 26081.7 -03379.1 -07.3820 26299.7
 12 01 2013  11 11  -21.0097 26081.9 -03379.0 -07.3817 26299.8
 12 01 2013  11 12  -21.0082 26081.8 -03378.7 -07.3811 26299.7
 12 01 2013  11 13  -21.0083 26081.9 -03378.6 -07.3809 26299.8
 12 01 2013  11 14  -21.0076 26082.1 -03378.6 -07.3808 26300.1
 12 01 2013  11 15  -21.0066 26082.2 -03378.5 -07.3805 26300.1
 12 01 2013  11 16  -21.0060 26082.3 -03378.4 -07.3803 26300.2
 12 01 2013  11 17  -21.0054 26082.4 -03378.3 -07.3801 26300.2
 12 01 2013  11 18  -21.0046 26082.3 -03378.1 -07.3797 26300.1
 12 01 2013  11 19  -21.0036 26082.2 -03378.0 -07.3795 26300.0
 12 01 2013  11 20  -21.0028 26082.1 -03377.9 -07.3792 26300.0
 12 01 2013  11 21  -21.0022 26082.2 -03377.8 -07.3790 26300.0
 12 01 2013  11 22  -21.0017 26082.5 -03377.8 -07.3790 26300.4
 12 01 2013  11 23  -21.0010 26082.6 -03377.7 -07.3788 26300.4
 12 01 2013  11 24  -21.0004 26082.4 -03377.5 -07.3783 26300.2
 12 01 2013  11 25  -20.9997 26082.4 -03377.4 -07.3781 26300.2
 12 01 2013  11 26  -20.9998 26082.3 -03377.3 -07.3778 26300.1
 12 01 2013  11 27  -20.9992 26082.5 -03377.2 -07.3778 26300.3
 12 01 2013  11 28  -20.9982 26082.5 -03377.1 -07.3775 26300.2
 12 01 2013  11 29  -20.9976 26082.6 -03377.0 -07.3773 26300.3
 12 01 2013  11 30  -20.9970 26082.7 -03377.0 -07.3771 26300.4
 12 01 2013  11 31  -20.9959 26082.7 -03376.8 -07.3769 26300.4
 12 01 2013  11 32  -20.9949 26082.5 -03376.7 -07.3765 26300.2
 12 01 2013  11 33  -20.9948 26082.4 -03376.6 -07.3763 26300.1
 12 01 2013  11 34  -20.9947 26083.1 -03376.7 -07.3765 26300.8
 12 01 2013  11 35  -20.9941 26083.2 -03376.7 -07.3764 26300.9
 12 01 2013  11 36  -20.9936 26083.3 -03376.6 -07.3761 26300.9
 12 01 2013  11 37  -20.9931 26083.4 -03376.5 -07.3760 26301.1
 12 01 2013  11 38  -20.9927 26083.8 -03376.6 -07.3760 26301.4
 12 01 2013  11 39  -20.9915 26084.1 -03376.6 -07.3759 26301.7
 12 01 2013  11 40  -20.9906 26083.7 -03376.3 -07.3754 26301.4
 12 01 2013  11 41  -20.9902 26084.2 -03376.4 -07.3756 26301.8
 12 01 2013  11 42  -20.9896 26084.8 -03376.6 -07.3758 26302.4
 12 01 2013  11 43  -20.9888 26085.1 -03376.6 -07.3757 26302.7
 12 01 2013  11 44  -20.9884 26085.0 -03376.5 -07.3754 26302.6
 12 01 2013  11 45  -20.9878 26084.9 -03376.3 -07.3751 26302.5
 12 01 2013  11 46  -20.9875 26084.9 -03376.2 -07.3748 26302.5
 12 01 2013  11 47  -20.9875 26084.9 -03376.1 -07.3746 26302.5
 12 01 2013  11 48  -20.9872 26085.3 -03376.1 -07.3746 26302.9
 12 01 2013  11 49  -20.9868 26085.0 -03375.9 -07.3742 26302.5
 12 01 2013  11 50  -20.9859 26085.0 -03375.8 -07.3739 26302.5
 12 01 2013  11 51  -20.9852 26085.3 -03375.8 -07.3739 26302.8
 12 01 2013  11 52  -20.9845 26085.5 -03375.8 -07.3738 26303.0
 12 01 2013  11 53  -20.9839 26085.5 -03375.7 -07.3736 26303.1
 12 01 2013  11 54  -20.9831 26085.6 -03375.6 -07.3733 26303.1
 12 01 2013  11 55  -20.9822 26086.0 -03375.6 -07.3733 26303.5
 12 01 2013  11 56  -20.9818 26086.4 -03375.6 -07.3732 26303.9
 12 01 2013  11 57  -20.9815 26086.2 -03375.3 -07.3726 26303.6
 12 01 2013  11 58  -20.9810 26086.4 -03375.3 -07.3724 26303.8
 12 01 2013  11 59  -20.9804 26086.3 -03375.1 -07.3720 26303.7
 12 01 2013  12 00  -20.9795 26086.8 -03375.1 -07.3719 26304.3
 12 01 2013  12 01  -20.9788 26086.8 -03375.0 -07.3716 26304.2
 12 01 2013  12 02  -20.9786 26086.8 -03374.8 -07.3713 26304.2
 12 01 2013  12 03  -20.9779 26087.1 -03374.8 -07.3711 26304.5
 12 01 2013  12 04  -20.9768 26086.8 -03374.5 -07.3706 26304.1
 12 01 2013  12 05  -20.9764 26087.2 -03374.6 -07.3707 26304.6
 12 01 2013  12 06  -20.9757 26087.5 -03374.6 -07.3706 26304.9
 12 01 2013  12 07  -20.9745 26087.6 -03374.4 -07.3702 26304.9
 12 01 2013  12 08  -20.9734 26087.7 -03374.3 -07.3699 26305.0
 12 01 2013  12 09  -20.9728 26088.3 -03374.4 -07.3700 26305.7
 12 01 2013  12 10  -20.9723 26088.7 -03374.4 -07.3699 26306.0
 12 01 2013  12 11  -20.9720 26088.9 -03374.3 -07.3697 26306.2
 12 01 2013  12 12  -20.9717 26089.4 -03374.3 -07.3695 26306.7
 12 01 2013  12 13  -20.9713 26089.9 -03374.3 -07.3693 26307.2
 12 01 2013  12 14  -20.9712 26090.6 -03374.3 -07.3691 26307.9
 12 01 2013  12 15  -20.9711 26091.5 -03374.4 -07.3690 26308.8
 12 01 2013  12 16  -20.9708 26092.2 -03374.3 -07.3687 26309.5
 12 01 2013  12 17  -20.9704 26092.6 -03374.1 -07.3681 26309.9
 12 01 2013  12 18  -20.9703 26093.2 -03374.0 -07.3677 26310.4
 12 01 2013  12 19  -20.9700 26093.7 -03373.8 -07.3672 26310.9
 12 01 2013  12 20  -20.9700 26094.0 -03373.6 -07.3667 26311.2
 12 01 2013  12 21  -20.9698 26094.5 -03373.5 -07.3662 26311.7
 12 01 2013  12 22  -20.9693 26094.8 -03373.2 -07.3655 26311.9
 12 01 2013  12 23  -20.9689 26095.0 -03372.9 -07.3648 26312.1
 12 01 2013  12 24  -20.9686 26095.6 -03372.7 -07.3643 26312.6
 12 01 2013  12 25  -20.9683 26095.8 -03372.4 -07.3637 26312.8
 12 01 2013  12 26  -20.9685 26096.2 -03372.2 -07.3631 26313.1
 12 01 2013  12 27  -20.9686 26096.7 -03372.1 -07.3626 26313.7
 12 01 2013  12 28  -20.9685 26097.3 -03371.9 -07.3620 26314.2
 12 01 2013  12 29  -20.9683 26097.5 -03371.5 -07.3612 26314.3
 12 01 2013  12 30  -20.9682 26097.6 -03371.2 -07.3606 26314.4
 12 01 2013  12 31  -20.9682 26097.7 -03370.9 -07.3599 26314.5
 12 01 2013  12 32  -20.9681 26097.8 -03370.7 -07.3593 26314.6
 12 01 2013  12 33  -20.9680 26098.1 -03370.5 -07.3588 26314.8
 12 01 2013  12 34  -20.9679 26098.1 -03370.2 -07.3582 26314.8
 12 01 2013  12 35  -20.9678 26098.0 -03369.9 -07.3576 26314.7
 12 01 2013  12 36  -20.9680 26098.2 -03369.8 -07.3573 26314.8
 12 01 2013  12 37  -20.9683 26098.2 -03369.6 -07.3568 26314.8
 12 01 2013  12 38  -20.9684 26098.2 -03369.4 -07.3564 26314.8
 12 01 2013  12 39  -20.9682 26097.9 -03369.1 -07.3558 26314.5
 12 01 2013  12 40  -20.9681 26097.7 -03368.9 -07.3554 26314.3
 12 01 2013  12 41  -20.9684 26097.7 -03368.7 -07.3551 26314.2
 12 01 2013  12 42  -20.9684 26098.0 -03368.7 -07.3551 26314.5
 12 01 2013  12 43  -20.9684 26097.5 -03368.4 -07.3545 26314.0
 12 01 2013  12 44  -20.9686 26097.2 -03368.2 -07.3541 26313.7
 12 01 2013  12 45  -20.9686 26097.4 -03368.2 -07.3540 26313.8
 12 01 2013  12 46  -20.9686 26097.3 -03368.1 -07.3539 26313.8
 12 01 2013  12 47  -20.9686 26097.1 -03368.0 -07.3536 26313.6
 12 01 2013  12 48  -20.9684 26097.0 -03367.9 -07.3535 26313.5
 12 01 2013  12 49  -20.9684 26096.9 -03367.8 -07.3533 26313.3
 12 01 2013  12 50  -20.9684 26096.8 -03367.7 -07.3532 26313.2
 12 01 2013  12 51  -20.9684 26096.6 -03367.6 -07.3531 26313.0
 12 01 2013  12 52  -20.9686 26096.4 -03367.5 -07.3529 26312.7
 12 01 2013  12 53  -20.9688 26096.3 -03367.5 -07.3529 26312.7
 12 01 2013  12 54  -20.9688 26096.3 -03367.5 -07.3530 26312.7
 12 01 2013  12 55  -20.9686 26096.1 -03367.5 -07.3529 26312.5
 12 01 2013  12 56  -20.9684 26096.0 -03367.5 -07.3529 26312.4
 12 01 2013  12 57  -20.9683 26096.0 -03367.5 -07.3531 26312.4
 12 01 2013  12 58  -20.9683 26096.2 -03367.7 -07.3533 26312.6
 12 01 2013  12 59  -20.9681 26096.3 -03367.7 -07.3532 26312.7
 12 01 2013  13 00  -20.9681 26096.4 -03367.7 -07.3533 26312.8
 12 01 2013  13 01  -20.9681 26096.3 -03367.6 -07.3532 26312.7
 12 01 2013  13 02  -20.9680 26096.2 -03367.6 -07.3531 26312.6
 12 01 2013  13 03  -20.9682 26096.5 -03367.7 -07.3533 26312.9
 12 01 2013  13 04  -20.9683 26096.7 -03367.8 -07.3534 26313.1
 12 01 2013  13 05  -20.9685 26097.0 -03367.8 -07.3534 26313.4
 12 01 2013  13 06  -20.9688 26097.4 -03368.0 -07.3536 26313.9
 12 01 2013  13 07  -20.9691 26097.9 -03368.1 -07.3538 26314.4
 12 01 2013  13 08  -20.9692 26098.1 -03368.0 -07.3535 26314.5
 12 01 2013  13 09  -20.9695 26098.4 -03368.0 -07.3534 26314.8
 12 01 2013  13 10  -20.9698 26098.6 -03368.0 -07.3534 26315.0
 12 01 2013  13 11  -20.9698 26098.6 -03368.0 -07.3532 26315.1
 12 01 2013  13 12  -20.9695 26098.7 -03367.9 -07.3531 26315.1
 12 01 2013  13 13  -20.9688 26098.2 -03367.7 -07.3527 26314.6
 12 01 2013  13 14  -20.9684 26097.8 -03367.5 -07.3526 26314.2
 12 01 2013  13 15  -20.9683 26097.7 -03367.6 -07.3527 26314.0
 12 01 2013  13 16  -20.9687 26097.9 -03367.9 -07.3533 26314.3
 12 01 2013  13 17  -20.9688 26097.7 -03367.9 -07.3534 26314.1
 12 01 2013  13 18  -20.9686 26097.3 -03367.9 -07.3535 26313.7
 12 01 2013  13 19  -20.9684 26097.1 -03368.0 -07.3538 26313.6
 12 01 2013  13 20  -20.9681 26097.2 -03368.2 -07.3542 26313.6
 12 01 2013  13 21  -20.9681 26097.1 -03368.4 -07.3546 26313.6
 12 01 2013  13 22  -20.9684 26097.2 -03368.7 -07.3553 26313.7
 12 01 2013  13 23  -20.9687 26097.3 -03369.0 -07.3559 26313.9
 12 01 2013  13 24  -20.9687 26097.1 -03369.2 -07.3562 26313.7
 12 01 2013  13 25  -20.9686 26096.9 -03369.3 -07.3566 26313.5
 12 01 2013  13 26  -20.9687 26096.6 -03369.4 -07.3570 26313.2
 12 01 2013  13 27  -20.9689 26096.5 -03369.7 -07.3576 26313.1
 12 01 2013  13 28  -20.9690 26096.5 -03370.0 -07.3582 26313.2
 12 01 2013  13 29  -20.9693 26096.6 -03370.3 -07.3589 26313.3
 12 01 2013  13 30  -20.9701 26096.9 -03370.7 -07.3597 26313.7
 12 01 2013  13 31  -20.9702 26097.1 -03371.1 -07.3603 26313.9
 12 01 2013  13 32  -20.9708 26096.9 -03371.2 -07.3606 26313.7
 12 01 2013  13 33  -20.9713 26096.8 -03371.4 -07.3611 26313.7
 12 01 2013  13 34  -20.9715 26095.9 -03371.3 -07.3612 26312.8
 12 01 2013  13 35  -20.9719 26095.5 -03371.5 -07.3617 26312.4
 12 01 2013  13 36  -20.9720 26095.6 -03371.9 -07.3625 26312.5
 12 01 2013  13 37  -20.9722 26094.5 -03371.8 -07.3626 26311.4
 12 01 2013  13 38  -20.9721 26094.1 -03372.1 -07.3634 26311.1
 12 01 2013  13 39  -20.9726 26094.4 -03372.6 -07.3645 26311.4
 12 01 2013  13 40  -20.9734 26094.6 -03373.1 -07.3655 26311.7
 12 01 2013  13 41  -20.9739 26095.0 -03373.6 -07.3664 26312.1
 12 01 2013  13 42  -20.9746 26095.1 -03373.9 -07.3670 26312.3
 12 01 2013  13 43  -20.9752 26095.2 -03374.1 -07.3674 26312.4
 12 01 2013  13 44  -20.9754 26094.8 -03374.1 -07.3675 26312.0
 12 01 2013  13 45  -20.9760 26094.7 -03374.2 -07.3677 26311.9
 12 01 2013  13 46  -20.9760 26094.8 -03374.3 -07.3679 26312.0
 12 01 2013  13 47  -20.9762 26094.6 -03374.3 -07.3681 26311.9
 12 01 2013  13 48  -20.9764 26094.6 -03374.5 -07.3684 26311.9
 12 01 2013  13 49  -20.9769 26094.6 -03374.6 -07.3687 26311.9
 12 01 2013  13 50  -20.9773 26094.5 -03374.7 -07.3689 26311.8
 12 01 2013  13 51  -20.9778 26094.3 -03374.8 -07.3691 26311.6
 12 01 2013  13 52  -20.9784 26094.2 -03374.9 -07.3693 26311.5
 12 01 2013  13 53  -20.9790 26094.0 -03374.9 -07.3695 26311.3
 12 01 2013  13 54  -20.9797 26093.6 -03374.9 -07.3696 26311.0
 12 01 2013  13 55  -20.9803 26093.3 -03374.8 -07.3695 26310.6
 12 01 2013  13 56  -20.9807 26092.9 -03374.8 -07.3696 26310.3
 12 01 2013  13 57  -20.9813 26092.8 -03374.9 -07.3699 26310.2
 12 01 2013  13 58  -20.9816 26092.5 -03374.9 -07.3699 26309.9
 12 01 2013  13 59  -20.9820 26092.1 -03374.8 -07.3699 26309.4
 12 01 2013  14 00  -20.9825 26091.8 -03374.9 -07.3701 26309.1
 12 01 2013  14 01  -20.9828 26091.5 -03374.9 -07.3701 26308.8
 12 01 2013  14 02  -20.9828 26090.9 -03374.7 -07.3700 26308.3
 12 01 2013  14 03  -20.9830 26090.7 -03374.8 -07.3701 26308.0
 12 01 2013  14 04  -20.9838 26090.6 -03374.9 -07.3704 26307.9
 12 01 2013  14 05  -20.9843 26090.1 -03374.7 -07.3701 26307.4
 12 01 2013  14 06  -20.9847 26090.0 -03374.7 -07.3701 26307.4
 12 01 2013  14 07  -20.9852 26090.0 -03374.6 -07.3700 26307.3
 12 01 2013  14 08  -20.9857 26089.9 -03374.5 -07.3698 26307.2
 12 01 2013  14 09  -20.9860 26089.8 -03374.4 -07.3696 26307.1
 12 01 2013  14 10  -20.9861 26089.2 -03374.1 -07.3691 26306.5
 12 01 2013  14 11  -20.9859 26088.8 -03373.9 -07.3688 26306.1
 12 01 2013  14 12  -20.9857 26088.6 -03373.8 -07.3687 26305.8
 12 01 2013  14 13  -20.9856 26088.0 -03373.6 -07.3683 26305.2
 12 01 2013  14 14  -20.9857 26087.7 -03373.5 -07.3683 26305.0
 12 01 2013  14 15  -20.9859 26087.8 -03373.6 -07.3684 26305.1
 12 01 2013  14 16  -20.9859 26087.8 -03373.5 -07.3683 26305.0
 12 01 2013  14 17  -20.9858 26087.5 -03373.4 -07.3681 26304.7
 12 01 2013  14 18  -20.9855 26087.1 -03373.2 -07.3677 26304.2
 12 01 2013  14 19  -20.9848 26086.6 -03372.9 -07.3673 26303.7
 12 01 2013  14 20  -20.9841 26086.4 -03372.9 -07.3673 26303.5
 12 01 2013  14 21  -20.9833 26086.1 -03372.8 -07.3672 26303.3
 12 01 2013  14 22  -20.9829 26086.2 -03372.9 -07.3674 26303.3
 12 01 2013  14 23  -20.9825 26086.2 -03372.9 -07.3674 26303.4
 12 01 2013  14 24  -20.9821 26086.7 -03373.1 -07.3676 26303.9
 12 01 2013  14 25  -20.9818 26086.8 -03373.0 -07.3674 26303.9
 12 01 2013  14 26  -20.9817 26086.9 -03373.0 -07.3673 26304.1
 12 01 2013  14 27  -20.9816 26087.0 -03372.9 -07.3671 26304.1
 12 01 2013  14 28  -20.9817 26086.9 -03372.8 -07.3669 26304.0
 12 01 2013  14 29  -20.9810 26086.5 -03372.5 -07.3664 26303.6
 12 01 2013  14 30  -20.9804 26086.0 -03372.2 -07.3659 26303.1
 12 01 2013  14 31  -20.9800 26085.8 -03372.1 -07.3657 26302.8
 12 01 2013  14 32  -20.9796 26085.6 -03372.0 -07.3656 26302.7
 12 01 2013  14 33  -20.9791 26085.4 -03371.9 -07.3655 26302.4
 12 01 2013  14 34  -20.9784 26084.8 -03371.7 -07.3652 26301.9
 12 01 2013  14 35  -20.9778 26084.4 -03371.6 -07.3651 26301.4
 12 01 2013  14 36  -20.9774 26084.2 -03371.7 -07.3653 26301.2
 12 01 2013  14 37  -20.9769 26083.9 -03371.6 -07.3653 26300.9
 12 01 2013  14 38  -20.9763 26083.5 -03371.6 -07.3653 26300.6
 12 01 2013  14 39  -20.9758 26083.4 -03371.7 -07.3656 26300.5
 12 01 2013  14 40  -20.9755 26083.3 -03371.9 -07.3659 26300.4
 12 01 2013  14 41  -20.9753 26083.2 -03371.9 -07.3661 26300.2
 12 01 2013  14 42  -20.9750 26082.9 -03372.0 -07.3663 26299.9
 12 01 2013  14 43  -20.9745 26082.8 -03372.1 -07.3665 26299.9
 12 01 2013  14 44  -20.9742 26082.8 -03372.2 -07.3668 26299.9
 12 01 2013  14 45  -20.9741 26082.7 -03372.3 -07.3670 26299.8
 12 01 2013  14 46  -20.9739 26082.2 -03372.2 -07.3670 26299.3
 12 01 2013  14 47  -20.9733 26081.7 -03372.1 -07.3669 26298.8
 12 01 2013  14 48  -20.9730 26081.4 -03372.2 -07.3671 26298.4
 12 01 2013  14 49  -20.9731 26081.1 -03372.3 -07.3674 26298.2
 12 01 2013  14 50  -20.9730 26080.7 -03372.3 -07.3676 26297.9
 12 01 2013  14 51  -20.9728 26080.3 -03372.3 -07.3676 26297.4
 12 01 2013  14 52  -20.9727 26079.8 -03372.2 -07.3676 26296.9
 12 01 2013  14 53  -20.9722 26079.2 -03372.2 -07.3678 26296.4
 12 01 2013  14 54  -20.9719 26078.7 -03372.2 -07.3679 26295.8
 12 01 2013  14 55  -20.9715 26078.0 -03372.2 -07.3682 26295.2
 12 01 2013  14 56  -20.9712 26077.7 -03372.4 -07.3686 26294.8
 12 01 2013  14 57  -20.9711 26077.6 -03372.7 -07.3692 26294.8
 12 01 2013  14 58  -20.9710 26077.3 -03372.8 -07.3696 26294.5
 12 01 2013  14 59  -20.9710 26077.1 -03373.0 -07.3700 26294.3
 12 01 2013  15 00  -20.9712 26076.8 -03373.1 -07.3703 26294.0
 12 01 2013  15 01  -20.9711 26076.1 -03373.0 -07.3704 26293.3
 12 01 2013  15 02  -20.9710 26075.6 -03373.1 -07.3707 26292.9
 12 01 2013  15 03  -20.9710 26075.5 -03373.3 -07.3713 26292.8
 12 01 2013  15 04  -20.9708 26075.2 -03373.5 -07.3716 26292.5
 12 01 2013  15 05  -20.9700 26074.8 -03373.6 -07.3720 26292.1
 12 01 2013  15 06  -20.9697 26074.6 -03373.9 -07.3726 26292.0
 12 01 2013  15 07  -20.9698 26074.6 -03374.1 -07.3732 26292.0
 12 01 2013  15 08  -20.9694 26074.3 -03374.2 -07.3735 26291.7
 12 01 2013  15 09  -20.9692 26073.9 -03374.3 -07.3739 26291.4
 12 01 2013  15 10  -20.9688 26073.7 -03374.5 -07.3744 26291.2
 12 01 2013  15 11  -20.9687 26073.5 -03374.8 -07.3750 26291.0
 12 01 2013  15 12  -20.9686 26073.4 -03375.1 -07.3756 26291.0
 12 01 2013  15 13  -20.9684 26073.2 -03375.3 -07.3761 26290.8
 12 01 2013  15 14  -20.9682 26073.0 -03375.4 -07.3765 26290.6
 12 01 2013  15 15  -20.9680 26072.8 -03375.6 -07.3770 26290.4
 12 01 2013  15 16  -20.9679 26072.6 -03375.8 -07.3774 26290.2
 12 01 2013  15 17  -20.9678 26072.3 -03376.0 -07.3779 26289.9
 12 01 2013  15 18  -20.9675 26071.8 -03376.0 -07.3782 26289.5
 12 01 2013  15 19  -20.9671 26071.5 -03376.2 -07.3787 26289.2
 12 01 2013  15 20  -20.9669 26071.0 -03376.4 -07.3792 26288.8
 12 01 2013  15 21  -20.9666 26070.8 -03376.6 -07.3798 26288.5
 12 01 2013  15 22  -20.9663 26070.6 -03376.9 -07.3803 26288.4
 12 01 2013  15 23  -20.9661 26070.4 -03377.1 -07.3809 26288.2
 12 01 2013  15 24  -20.9657 26070.4 -03377.4 -07.3816 26288.2
 12 01 2013  15 25  -20.9653 26070.4 -03377.7 -07.3822 26288.3
 12 01 2013  15 26  -20.9649 26070.4 -03378.0 -07.3827 26288.3
 12 01 2013  15 27  -20.9645 26070.3 -03378.2 -07.3833 26288.3
 12 01 2013  15 28  -20.9639 26070.1 -03378.3 -07.3836 26288.1
 12 01 2013  15 29  -20.9632 26070.0 -03378.6 -07.3841 26288.0
 12 01 2013  15 30  -20.9629 26070.2 -03378.9 -07.3848 26288.3
 12 01 2013  15 31  -20.9624 26070.3 -03379.2 -07.3853 26288.4
 12 01 2013  15 32  -20.9616 26070.3 -03379.4 -07.3858 26288.4
 12 01 2013  15 33  -20.9609 26070.4 -03379.6 -07.3863 26288.5
 12 01 2013  15 34  -20.9602 26070.5 -03379.9 -07.3869 26288.6
 12 01 2013  15 35  -20.9595 26070.6 -03380.2 -07.3875 26288.8
 12 01 2013  15 36  -20.9589 26070.6 -03380.5 -07.3880 26288.8
 12 01 2013  15 37  -20.9583 26070.4 -03380.6 -07.3885 26288.7
 12 01 2013  15 38  -20.9577 26070.3 -03380.9 -07.3891 26288.7
 12 01 2013  15 39  -20.9572 26070.2 -03381.2 -07.3898 26288.5
 12 01 2013  15 40  -20.9567 26070.0 -03381.5 -07.3905 26288.4
 12 01 2013  15 41  -20.9563 26069.8 -03381.8 -07.3913 26288.3
 12 01 2013  15 42  -20.9558 26069.8 -03382.3 -07.3922 26288.3
 12 01 2013  15 43  -20.9556 26069.6 -03382.6 -07.3930 26288.2
 12 01 2013  15 44  -20.9554 26069.5 -03382.9 -07.3937 26288.0
 12 01 2013  15 45  -20.9551 26069.3 -03383.3 -07.3945 26287.9
 12 01 2013  15 46  -20.9549 26069.1 -03383.6 -07.3953 26287.7
 12 01 2013  15 47  -20.9548 26069.1 -03384.1 -07.3963 26287.8
 12 01 2013  15 48  -20.9547 26069.0 -03384.5 -07.3972 26287.8
 12 01 2013  15 49  -20.9548 26069.0 -03384.9 -07.3981 26287.9
 12 01 2013  15 50  -20.9548 26068.8 -03385.2 -07.3988 26287.7
 12 01 2013  15 51  -20.9548 26068.7 -03385.6 -07.3996 26287.6
 12 01 2013  15 52  -20.9550 26068.5 -03386.0 -07.4005 26287.5
 12 01 2013  15 53  -20.9551 26068.3 -03386.3 -07.4013 26287.3
 12 01 2013  15 54  -20.9553 26068.0 -03386.6 -07.4021 26287.1
 12 01 2013  15 55  -20.9554 26067.9 -03387.0 -07.4030 26287.0
 12 01 2013  15 56  -20.9557 26067.7 -03387.4 -07.4038 26286.9
 12 01 2013  15 57  -20.9558 26067.3 -03387.6 -07.4044 26286.5
 12 01 2013  15 58  -20.9557 26066.8 -03387.9 -07.4052 26286.1
 12 01 2013  15 59  -20.9557 26066.7 -03388.3 -07.4061 26286.0
 12 01 2013  16 00  -20.9557 26066.5 -03388.7 -07.4070 26285.8
 12 01 2013  16 01  -20.9557 26066.5 -03389.2 -07.4080 26285.9
 12 01 2013  16 02  -20.9559 26066.6 -03389.7 -07.4091 26286.0
 12 01 2013  16 03  -20.9558 26066.6 -03390.2 -07.4101 26286.2
 12 01 2013  16 04  -20.9559 26066.9 -03390.7 -07.4113 26286.5
 12 01 2013  16 05  -20.9562 26066.9 -03391.1 -07.4122 26286.6
 12 01 2013  16 06  -20.9561 26066.9 -03391.5 -07.4129 26286.6
 12 01 2013  16 07  -20.9561 26067.1 -03391.9 -07.4138 26286.8
 12 01 2013  16 08  -20.9562 26067.3 -03392.3 -07.4146 26287.1
 12 01 2013  16 09  -20.9560 26067.4 -03392.7 -07.4154 26287.2
 12 01 2013  16 10  -20.9560 26067.3 -03393.0 -07.4161 26287.2
 12 01 2013  16 11  -20.9559 26067.2 -03393.3 -07.4167 26287.2
 12 01 2013  16 12  -20.9561 26066.8 -03393.4 -07.4171 26286.8
 12 01 2013  16 13  -20.9556 26066.3 -03393.5 -07.4174 26286.3
 12 01 2013  16 14  -20.9557 26066.4 -03394.0 -07.4186 26286.4
 12 01 2013  16 15  -20.9560 26066.3 -03394.4 -07.4194 26286.4
 12 01 2013  16 16  -20.9558 26066.0 -03394.7 -07.4200 26286.2
 12 01 2013  16 17  -20.9563 26065.8 -03394.9 -07.4207 26286.0
 12 01 2013  16 18  -20.9566 26065.4 -03395.1 -07.4211 26285.6
 12 01 2013  16 19  -20.9571 26065.2 -03395.4 -07.4218 26285.4
 12 01 2013  16 20  -20.9578 26065.2 -03395.7 -07.4225 26285.5
 12 01 2013  16 21  -20.9584 26065.2 -03396.0 -07.4231 26285.5
 12 01 2013  16 22  -20.9589 26065.0 -03396.2 -07.4237 26285.4
 12 01 2013  16 23  -20.9592 26065.0 -03396.6 -07.4244 26285.4
 12 01 2013  16 24  -20.9596 26064.9 -03396.9 -07.4251 26285.4
 12 01 2013  16 25  -20.9600 26064.9 -03397.1 -07.4257 26285.3
 12 01 2013  16 26  -20.9602 26064.8 -03397.5 -07.4264 26285.3
 12 01 2013  16 27  -20.9604 26064.8 -03397.7 -07.4270 26285.3
 12 01 2013  16 28  -20.9606 26064.8 -03398.0 -07.4276 26285.4
 12 01 2013  16 29  -20.9609 26064.7 -03398.3 -07.4282 26285.3
 12 01 2013  16 30  -20.9611 26064.7 -03398.6 -07.4288 26285.3
 12 01 2013  16 31  -20.9615 26064.7 -03398.8 -07.4295 26285.3
 12 01 2013  16 32  -20.9616 26064.7 -03399.1 -07.4299 26285.4
 12 01 2013  16 33  -20.9618 26064.7 -03399.3 -07.4304 26285.5
 12 01 2013  16 34  -20.9624 26064.6 -03399.5 -07.4308 26285.4
 12 01 2013  16 35  -20.9625 26064.4 -03399.6 -07.4311 26285.2
 12 01 2013  16 36  -20.9629 26064.4 -03399.8 -07.4316 26285.2
 12 01 2013  16 37  -20.9633 26064.2 -03399.9 -07.4319 26285.0
 12 01 2013  16 38  -20.9636 26064.2 -03400.1 -07.4323 26285.0
 12 01 2013  16 39  -20.9637 26064.2 -03400.3 -07.4327 26285.1
 12 01 2013  16 40  -20.9643 26064.3 -03400.5 -07.4332 26285.2
 12 01 2013  16 41  -20.9645 26064.1 -03400.6 -07.4334 26285.0
 12 01 2013  16 42  -20.9647 26064.0 -03400.7 -07.4337 26284.9
 12 01 2013  16 43  -20.9650 26064.0 -03400.9 -07.4342 26285.0
 12 01 2013  16 44  -20.9654 26063.9 -03401.1 -07.4345 26284.9
 12 01 2013  16 45  -20.9654 26063.7 -03401.2 -07.4347 26284.7
 12 01 2013  16 46  -20.9655 26063.6 -03401.3 -07.4351 26284.6
 12 01 2013  16 47  -20.9659 26063.7 -03401.5 -07.4355 26284.7
 12 01 2013  16 48  -20.9660 26063.8 -03401.7 -07.4359 26284.8
 12 01 2013  16 49  -20.9661 26063.7 -03401.9 -07.4362 26284.8
 12 01 2013  16 50  -20.9666 26063.7 -03402.0 -07.4365 26284.8
 12 01 2013  16 51  -20.9666 26063.6 -03402.1 -07.4367 26284.7
 12 01 2013  16 52  -20.9670 26063.8 -03402.3 -07.4371 26284.9
 12 01 2013  16 53  -20.9675 26063.8 -03402.4 -07.4374 26284.9
 12 01 2013  16 54  -20.9675 26063.7 -03402.5 -07.4375 26284.9
 12 01 2013  16 55  -20.9677 26063.6 -03402.6 -07.4379 26284.8
 12 01 2013  16 56  -20.9678 26063.8 -03402.8 -07.4382 26285.0
 12 01 2013  16 57  -20.9678 26063.7 -03402.9 -07.4384 26284.9
 12 01 2013  16 58  -20.9682 26063.7 -03403.0 -07.4387 26284.9
 12 01 2013  16 59  -20.9682 26063.6 -03403.0 -07.4388 26284.8
 12 01 2013  17 00  -20.9679 26063.6 -03403.2 -07.4392 26284.9
 12 01 2013  17 01  -20.9684 26063.6 -03403.4 -07.4396 26284.9
 12 01 2013  17 02  -20.9685 26063.6 -03403.5 -07.4398 26284.9
 12 01 2013  17 03  -20.9684 26063.5 -03403.6 -07.4400 26284.8
 12 01 2013  17 04  -20.9686 26063.7 -03403.8 -07.4404 26285.0
 12 01 2013  17 05  -20.9686 26063.8 -03404.0 -07.4408 26285.1
 12 01 2013  17 06  -20.9685 26063.6 -03404.0 -07.4410 26285.0
 12 01 2013  17 07  -20.9683 26063.6 -03404.2 -07.4412 26285.0
 12 01 2013  17 08  -20.9680 26063.7 -03404.4 -07.4416 26285.1
 12 01 2013  17 09  -20.9686 26063.7 -03404.5 -07.4419 26285.1
 12 01 2013  17 10  -20.9684 26063.8 -03404.6 -07.4421 26285.2
 12 01 2013  17 11  -20.9676 26063.6 -03404.7 -07.4424 26285.1
 12 01 2013  17 12  -20.9684 26064.1 -03405.1 -07.4431 26285.6
 12 01 2013  17 13  -20.9681 26063.8 -03405.0 -07.4431 26285.3
 12 01 2013  17 14  -20.9680 26064.0 -03405.3 -07.4435 26285.5
 12 01 2013  17 15  -20.9682 26064.0 -03405.4 -07.4438 26285.5
 12 01 2013  17 16  -20.9673 26063.9 -03405.5 -07.4440 26285.5
 12 01 2013  17 17  -20.9676 26064.2 -03405.9 -07.4448 26285.7
 12 01 2013  17 18  -20.9678 26064.4 -03406.1 -07.4452 26286.1
 12 01 2013  17 19  -20.9677 26064.3 -03406.0 -07.4451 26285.9
 12 01 2013  17 20  -20.9676 26064.5 -03406.2 -07.4453 26286.1
 12 01 2013  17 21  -20.9673 26064.8 -03406.4 -07.4458 26286.4
 12 01 2013  17 22  -20.9675 26065.1 -03406.6 -07.4462 26286.8
 12 01 2013  17 23  -20.9677 26065.3 -03406.7 -07.4463 26286.9
 12 01 2013  17 24  -20.9674 26065.1 -03406.6 -07.4461 26286.8
 12 01 2013  17 25  -20.9675 26065.4 -03406.8 -07.4463 26287.1
 12 01 2013  17 26  -20.9675 26065.5 -03406.8 -07.4465 26287.2
 12 01 2013  17 27  -20.9676 26065.9 -03407.0 -07.4468 26287.6
 12 01 2013  17 28  -20.9680 26066.0 -03407.0 -07.4468 26287.7
 12 01 2013  17 29  -20.9678 26066.0 -03407.0 -07.4466 26287.7
 12 01 2013  17 30  -20.9675 26066.2 -03407.1 -07.4468 26287.9
 12 01 2013  17 31  -20.9679 26066.3 -03407.2 -07.4470 26288.0
 12 01 2013  17 32  -20.9680 26066.4 -03407.2 -07.4470 26288.1
 12 01 2013  17 33  -20.9679 26066.4 -03407.1 -07.4469 26288.1
 12 01 2013  17 34  -20.9680 26066.8 -03407.3 -07.4472 26288.6
 12 01 2013  17 35  -20.9677 26067.1 -03407.4 -07.4474 26288.8
 12 01 2013  17 36  -20.9684 26067.5 -03407.6 -07.4476 26289.2
 12 01 2013  17 37  -20.9685 26067.4 -03407.5 -07.4474 26289.2
 12 01 2013  17 38  -20.9683 26067.5 -03407.5 -07.4474 26289.3
 12 01 2013  17 39  -20.9685 26068.0 -03407.7 -07.4477 26289.8
 12 01 2013  17 40  -20.9689 26068.2 -03407.7 -07.4476 26290.0
 12 01 2013  17 41  -20.9686 26068.3 -03407.7 -07.4475 26290.1
 12 01 2013  17 42  -20.9687 26068.4 -03407.6 -07.4474 26290.2
 12 01 2013  17 43  -20.9694 26068.5 -03407.6 -07.4473 26290.3
 12 01 2013  17 44  -20.9687 26068.8 -03407.6 -07.4473 26290.6
 12 01 2013  17 45  -20.9691 26069.2 -03407.8 -07.4476 26291.0
 12 01 2013  17 46  -20.9695 26069.7 -03408.0 -07.4477 26291.5
 12 01 2013  17 47  -20.9694 26069.9 -03407.9 -07.4476 26291.7
 12 01 2013  17 48  -20.9694 26070.1 -03407.8 -07.4474 26291.9
 12 01 2013  17 49  -20.9698 26070.6 -03408.0 -07.4475 26292.4
 12 01 2013  17 50  -20.9697 26070.6 -03407.8 -07.4472 26292.4
 12 01 2013  17 51  -20.9699 26070.9 -03407.8 -07.4471 26292.7
 12 01 2013  17 52  -20.9698 26070.9 -03407.7 -07.4469 26292.7
 12 01 2013  17 53  -20.9697 26071.2 -03407.8 -07.4469 26293.0
 12 01 2013  17 54  -20.9701 26071.3 -03407.8 -07.4469 26293.0
 12 01 2013  17 55  -20.9708 26071.5 -03407.8 -07.4469 26293.3
 12 01 2013  17 56  -20.9706 26071.6 -03407.7 -07.4467 26293.4
 12 01 2013  17 57  -20.9710 26072.0 -03407.8 -07.4468 26293.8
 12 01 2013  17 58  -20.9710 26072.2 -03407.7 -07.4466 26293.9
 12 01 2013  17 59  -20.9714 26072.3 -03407.7 -07.4464 26294.1
 12 01 2013  18 00  -20.9717 26072.4 -03407.6 -07.4461 26294.2
 12 01 2013  18 01  -20.9720 26072.6 -03407.5 -07.4459 26294.4
 12 01 2013  18 02  -20.9722 26072.9 -03407.4 -07.4457 26294.6
 12 01 2013  18 03  -20.9723 26073.0 -03407.3 -07.4453 26294.7
 12 01 2013  18 04  -20.9720 26073.2 -03407.2 -07.4451 26294.9
 12 01 2013  18 05  -20.9720 26073.3 -03407.1 -07.4449 26295.0
 12 01 2013  18 06  -20.9723 26073.3 -03406.9 -07.4445 26295.0
 12 01 2013  18 07  -20.9723 26073.5 -03406.9 -07.4443 26295.2
 12 01 2013  18 08  -20.9727 26073.8 -03406.9 -07.4442 26295.4
 12 01 2013  18 09  -20.9727 26073.9 -03406.8 -07.4440 26295.5
 12 01 2013  18 10  -20.9727 26074.2 -03406.8 -07.4439 26295.8
 12 01 2013  18 11  -20.9730 26074.4 -03406.8 -07.4438 26296.0
 12 01 2013  18 12  -20.9728 26074.5 -03406.7 -07.4436 26296.1
 12 01 2013  18 13  -20.9733 26074.9 -03406.8 -07.4437 26296.6
 12 01 2013  18 14  -20.9734 26075.1 -03406.7 -07.4434 26296.7
 12 01 2013  18 15  -20.9732 26075.5 -03406.7 -07.4434 26297.1
 12 01 2013  18 16  -20.9736 26075.6 -03406.7 -07.4433 26297.2
 12 01 2013  18 17  -20.9737 26075.7 -03406.5 -07.4429 26297.2
 12 01 2013  18 18  -20.9738 26075.7 -03406.3 -07.4425 26297.3
 12 01 2013  18 19  -20.9744 26075.6 -03406.1 -07.4421 26297.1
 12 01 2013  18 20  -20.9749 26075.5 -03405.9 -07.4416 26297.0
 12 01 2013  18 21  -20.9756 26075.5 -03405.7 -07.4412 26297.0
 12 01 2013  18 22  -20.9759 26075.2 -03405.4 -07.4406 26296.6
 12 01 2013  18 23  -20.9759 26075.1 -03405.2 -07.4402 26296.5
 12 01 2013  18 24  -20.9762 26075.0 -03405.1 -07.4401 26296.4
 12 01 2013  18 25  -20.9765 26075.0 -03405.1 -07.4400 26296.4
 12 01 2013  18 26  -20.9766 26075.1 -03405.0 -07.4398 26296.5
 12 01 2013  18 27  -20.9769 26075.3 -03405.0 -07.4398 26296.6
 12 01 2013  18 28  -20.9770 26075.1 -03404.8 -07.4395 26296.5
 12 01 2013  18 29  -20.9775 26075.2 -03404.9 -07.4395 26296.5
 12 01 2013  18 30  -20.9780 26075.3 -03404.8 -07.4394 26296.6
 12 01 2013  18 31  -20.9787 26075.3 -03404.7 -07.4392 26296.6
 12 01 2013  18 32  -20.9793 26075.3 -03404.7 -07.4391 26296.6
 12 01 2013  18 33  -20.9796 26075.1 -03404.5 -07.4388 26296.4
 12 01 2013  18 34  -20.9798 26075.0 -03404.4 -07.4386 26296.3
 12 01 2013  18 35  -20.9801 26074.8 -03404.3 -07.4384 26296.1
 12 01 2013  18 36  -20.9804 26074.7 -03404.2 -07.4382 26296.0
 12 01 2013  18 37  -20.9808 26074.5 -03404.0 -07.4379 26295.8
 12 01 2013  18 38  -20.9812 26074.4 -03403.9 -07.4376 26295.7
 12 01 2013  18 39  -20.9813 26074.7 -03403.9 -07.4375 26295.9
 12 01 2013  18 40  -20.9816 26074.6 -03403.8 -07.4373 26295.9
 12 01 2013  18 41  -20.9817 26074.6 -03403.6 -07.4370 26295.8
 12 01 2013  18 42  -20.9818 26074.7 -03403.6 -07.4368 26295.9
 12 01 2013  18 43  -20.9818 26074.9 -03403.5 -07.4366 26296.1
 12 01 2013  18 44  -20.9816 26075.1 -03403.4 -07.4363 26296.2
 12 01 2013  18 45  -20.9816 26074.9 -03403.2 -07.4360 26296.0
 12 01 2013  18 46  -20.9815 26075.2 -03403.2 -07.4360 26296.4
 12 01 2013  18 47  -20.9814 26075.4 -03403.2 -07.4358 26296.6
 12 01 2013  18 48  -20.9809 26075.5 -03403.1 -07.4355 26296.6
 12 01 2013  18 49  -20.9805 26075.8 -03403.1 -07.4356 26296.9
 12 01 2013  18 50  -20.9802 26076.1 -03403.2 -07.4356 26297.2
 12 01 2013  18 51  -20.9802 26076.2 -03403.1 -07.4353 26297.3
 12 01 2013  18 52  -20.9799 26076.5 -03403.0 -07.4351 26297.6
 12 01 2013  18 53  -20.9799 26076.7 -03402.9 -07.4349 26297.8
 12 01 2013  18 54  -20.9805 26077.0 -03402.9 -07.4348 26298.1
 12 01 2013  18 55  -20.9815 26077.0 -03402.8 -07.4345 26298.1
 12 01 2013  18 56  -20.9819 26076.9 -03402.5 -07.4339 26298.0
 12 01 2013  18 57  -20.9819 26076.8 -03402.3 -07.4336 26297.8
 12 01 2013  18 58  -20.9820 26076.8 -03402.3 -07.4334 26297.8
 12 01 2013  18 59  -20.9825 26076.7 -03402.2 -07.4333 26297.7
 12 01 2013  19 00  -20.9826 26076.7 -03402.1 -07.4332 26297.7
 12 01 2013  19 01  -20.9828 26076.6 -03402.0 -07.4329 26297.6
 12 01 2013  19 02  -20.9829 26076.5 -03401.9 -07.4327 26297.5
 12 01 2013  19 03  -20.9830 26076.5 -03401.8 -07.4325 26297.5
 12 01 2013  19 04  -20.9834 26076.3 -03401.7 -07.4323 26297.3
 12 01 2013  19 05  -20.9834 26076.0 -03401.5 -07.4319 26296.9
 12 01 2013  19 06  -20.9839 26075.7 -03401.3 -07.4316 26296.6
 12 01 2013  19 07  -20.9841 26075.3 -03401.0 -07.4312 26296.1
 12 01 2013  19 08  -20.9841 26075.4 -03401.0 -07.4311 26296.3
 12 01 2013  19 09  -20.9842 26075.6 -03401.1 -07.4312 26296.4
 12 01 2013  19 10  -20.9843 26075.5 -03401.0 -07.4311 26296.4
 12 01 2013  19 11  -20.9841 26075.6 -03401.0 -07.4310 26296.5
 12 01 2013  19 12  -20.9840 26075.7 -03401.1 -07.4311 26296.6
 12 01 2013  19 13  -20.9839 26075.7 -03401.0 -07.4311 26296.6
 12 01 2013  19 14  -20.9835 26075.9 -03401.1 -07.4311 26296.8
 12 01 2013  19 15  -20.9835 26076.2 -03401.2 -07.4313 26297.1
 12 01 2013  19 16  -20.9833 26076.1 -03401.1 -07.4311 26297.0
 12 01 2013  19 17  -20.9829 26076.4 -03401.2 -07.4312 26297.3
 12 01 2013  19 18  -20.9828 26076.6 -03401.2 -07.4312 26297.5
 12 01 2013  19 19  -20.9826 26076.8 -03401.2 -07.4312 26297.6
 12 01 2013  19 20  -20.9822 26077.0 -03401.2 -07.4311 26297.9
 12 01 2013  19 21  -20.9817 26077.5 -03401.4 -07.4313 26298.4
 12 01 2013  19 22  -20.9812 26077.8 -03401.4 -07.4314 26298.7
 12 01 2013  19 23  -20.9808 26077.9 -03401.4 -07.4313 26298.8
 12 01 2013  19 24  -20.9809 26077.5 -03401.2 -07.4309 26298.4
 12 01 2013  19 25  -20.9810 26076.9 -03400.8 -07.4302 26297.7
 12 01 2013  19 26  -20.9808 26076.7 -03400.5 -07.4297 26297.5
 12 01 2013  19 27  -20.9808 26076.3 -03400.3 -07.4294 26297.1
 12 01 2013  19 28  -20.9808 26076.2 -03400.2 -07.4291 26297.0
 12 01 2013  19 29  -20.9808 26076.0 -03400.1 -07.4289 26296.8
 12 01 2013  19 30  -20.9805 26076.2 -03400.1 -07.4290 26296.9
 12 01 2013  19 31  -20.9808 26076.5 -03400.4 -07.4294 26297.2
 12 01 2013  19 32  -20.9812 26076.3 -03400.2 -07.4291 26297.0
 12 01 2013  19 33  -20.9810 26076.5 -03400.1 -07.4288 26297.3
 12 01 2013  19 34  -20.9810 26076.4 -03399.9 -07.4285 26297.1
 12 01 2013  19 35  -20.9812 26076.4 -03399.9 -07.4284 26297.1
 12 01 2013  19 36  -20.9819 26076.0 -03399.6 -07.4278 26296.7
 12 01 2013  19 37  -20.9826 26075.3 -03399.1 -07.4269 26295.9
 12 01 2013  19 38  -20.9829 26075.2 -03398.9 -07.4265 26295.8
 12 01 2013  19 39  -20.9834 26075.0 -03398.7 -07.4262 26295.5
 12 01 2013  19 40  -20.9839 26074.7 -03398.4 -07.4257 26295.2
 12 01 2013  19 41  -20.9844 26074.6 -03398.3 -07.4254 26295.1
 12 01 2013  19 42  -20.9850 26074.5 -03398.1 -07.4250 26295.0
 12 01 2013  19 43  -20.9854 26074.5 -03397.9 -07.4247 26294.9
 12 01 2013  19 44  -20.9860 26074.3 -03397.8 -07.4244 26294.8
 12 01 2013  19 45  -20.9864 26074.4 -03397.7 -07.4242 26294.8
 12 01 2013  19 46  -20.9866 26074.7 -03397.7 -07.4242 26295.2
 12 01 2013  19 47  -20.9869 26075.0 -03397.8 -07.4243 26295.5
 12 01 2013  19 48  -20.9871 26075.2 -03397.8 -07.4242 26295.6
 12 01 2013  19 49  -20.9873 26075.3 -03397.7 -07.4240 26295.7
 12 01 2013  19 50  -20.9874 26075.4 -03397.7 -07.4239 26295.8
 12 01 2013  19 51  -20.9876 26075.5 -03397.6 -07.4237 26295.9
 12 01 2013  19 52  -20.9879 26075.4 -03397.4 -07.4234 26295.8
 12 01 2013  19 53  -20.9885 26075.0 -03397.1 -07.4228 26295.4
 12 01 2013  19 54  -20.9890 26074.7 -03396.8 -07.4222 26295.0
 12 01 2013  19 55  -20.9893 26074.5 -03396.5 -07.4217 26294.8
 12 01 2013  19 56  -20.9893 26074.5 -03396.4 -07.4214 26294.8
 12 01 2013  19 57  -20.9896 26074.5 -03396.3 -07.4213 26294.8
 12 01 2013  19 58  -20.9898 26074.5 -03396.2 -07.4211 26294.8
 12 01 2013  19 59  -20.9898 26074.7 -03396.2 -07.4209 26294.9
 12 01 2013  20 00  -20.9899 26074.6 -03396.0 -07.4206 26294.8
 12 01 2013  20 01  -20.9899 26074.7 -03396.0 -07.4204 26295.0
 12 01 2013  20 02  -20.9899 26074.8 -03395.9 -07.4203 26295.0
 12 01 2013  20 03  -20.9899 26074.8 -03395.8 -07.4201 26295.0
 12 01 2013  20 04  -20.9900 26074.8 -03395.7 -07.4198 26295.0
 12 01 2013  20 05  -20.9903 26074.7 -03395.5 -07.4195 26294.8
 12 01 2013  20 06  -20.9906 26074.6 -03395.4 -07.4191 26294.7
 12 01 2013  20 07  -20.9911 26074.5 -03395.2 -07.4188 26294.6
 12 01 2013  20 08  -20.9914 26074.2 -03394.9 -07.4183 26294.3
 12 01 2013  20 09  -20.9917 26074.0 -03394.7 -07.4179 26294.0
 12 01 2013  20 10  -20.9919 26073.8 -03394.5 -07.4176 26293.8
 12 01 2013  20 11  -20.9920 26073.7 -03394.4 -07.4174 26293.8
 12 01 2013  20 12  -20.9921 26073.8 -03394.4 -07.4172 26293.8
 12 01 2013  20 13  -20.9921 26073.8 -03394.3 -07.4171 26293.8
 12 01 2013  20 14  -20.9921 26073.8 -03394.2 -07.4169 26293.8
 12 01 2013  20 15  -20.9921 26073.7 -03394.1 -07.4166 26293.7
 12 01 2013  20 16  -20.9921 26073.7 -03394.0 -07.4164 26293.6
 12 01 2013  20 17  -20.9921 26073.5 -03393.8 -07.4161 26293.5
 12 01 2013  20 18  -20.9921 26073.6 -03393.8 -07.4160 26293.5
 12 01 2013  20 19  -20.9919 26073.7 -03393.7 -07.4159 26293.7
 12 01 2013  20 20  -20.9919 26073.7 -03393.7 -07.4157 26293.6
 12 01 2013  20 21  -20.9919 26073.8 -03393.6 -07.4156 26293.7
 12 01 2013  20 22  -20.9920 26073.8 -03393.5 -07.4154 26293.7
 12 01 2013  20 23  -20.9920 26073.9 -03393.5 -07.4152 26293.8
 12 01 2013  20 24  -20.9921 26074.0 -03393.4 -07.4151 26293.8
 12 01 2013  20 25  -20.9922 26073.9 -03393.3 -07.4149 26293.8
 12 01 2013  20 26  -20.9923 26073.9 -03393.2 -07.4146 26293.8
 12 01 2013  20 27  -20.9925 26074.0 -03393.1 -07.4144 26293.8
 12 01 2013  20 28  -20.9926 26074.2 -03393.1 -07.4144 26294.1
 12 01 2013  20 29  -20.9928 26074.4 -03393.1 -07.4143 26294.2
 12 01 2013  20 30  -20.9930 26074.4 -03393.0 -07.4140 26294.3
 12 01 2013  20 31  -20.9932 26074.5 -03392.9 -07.4138 26294.3
 12 01 2013  20 32  -20.9935 26074.5 -03392.8 -07.4135 26294.3
 12 01 2013  20 33  -20.9937 26074.5 -03392.7 -07.4133 26294.3
 12 01 2013  20 34  -20.9938 26074.5 -03392.5 -07.4130 26294.3
 12 01 2013  20 35  -20.9941 26074.4 -03392.3 -07.4126 26294.2
 12 01 2013  20 36  -20.9944 26074.3 -03392.1 -07.4123 26294.1
 12 01 2013  20 37  -20.9947 26074.2 -03391.9 -07.4119 26293.9
 12 01 2013  20 38  -20.9948 26074.2 -03391.8 -07.4115 26293.8
 12 01 2013  20 39  -20.9949 26074.1 -03391.6 -07.4112 26293.8
 12 01 2013  20 40  -20.9949 26074.3 -03391.6 -07.4111 26294.0
 12 01 2013  20 41  -20.9949 26074.3 -03391.5 -07.4109 26294.0
 12 01 2013  20 42  -20.9949 26074.2 -03391.4 -07.4106 26293.9
 12 01 2013  20 43  -20.9949 26074.0 -03391.1 -07.4102 26293.6
 12 01 2013  20 44  -20.9951 26073.6 -03390.8 -07.4096 26293.1
 12 01 2013  20 45  -20.9952 26073.2 -03390.5 -07.4091 26292.8
 12 01 2013  20 46  -20.9954 26073.0 -03390.3 -07.4087 26292.5
 12 01 2013  20 47  -20.9956 26072.5 -03390.0 -07.4082 26292.0
 12 01 2013  20 48  -20.9960 26071.9 -03389.6 -07.4075 26291.3
 12 01 2013  20 49  -20.9963 26071.4 -03389.3 -07.4070 26290.8
 12 01 2013  20 50  -20.9966 26071.2 -03389.1 -07.4067 26290.6
 12 01 2013  20 51  -20.9966 26071.0 -03389.0 -07.4063 26290.3
 12 01 2013  20 52  -20.9965 26071.1 -03388.9 -07.4062 26290.4
 12 01 2013  20 53  -20.9960 26071.4 -03389.0 -07.4063 26290.7
 12 01 2013  20 54  -20.9953 26071.6 -03389.0 -07.4063 26290.9
 12 01 2013  20 55  -20.9947 26071.5 -03388.9 -07.4061 26290.8
 12 01 2013  20 56  -20.9942 26071.3 -03388.8 -07.4058 26290.7
 12 01 2013  20 57  -20.9936 26071.2 -03388.6 -07.4055 26290.5
 12 01 2013  20 58  -20.9932 26071.1 -03388.5 -07.4052 26290.4
 12 01 2013  20 59  -20.9930 26070.8 -03388.3 -07.4049 26290.1
 12 01 2013  21 00  -20.9926 26070.7 -03388.2 -07.4046 26290.0
 12 01 2013  21 01  -20.9924 26070.6 -03388.0 -07.4044 26289.8
 12 01 2013  21 02  -20.9922 26070.3 -03387.8 -07.4040 26289.5
 12 01 2013  21 03  -20.9919 26070.1 -03387.7 -07.4038 26289.3
 12 01 2013  21 04  -20.9917 26069.9 -03387.5 -07.4035 26289.1
 12 01 2013  21 05  -20.9914 26069.7 -03387.4 -07.4034 26288.9
 12 01 2013  21 06  -20.9910 26069.5 -03387.3 -07.4032 26288.7
 12 01 2013  21 07  -20.9906 26069.4 -03387.3 -07.4031 26288.6
 12 01 2013  21 08  -20.9902 26069.3 -03387.2 -07.4030 26288.4
 12 01 2013  21 09  -20.9897 26069.1 -03387.2 -07.4030 26288.2
 12 01 2013  21 10  -20.9896 26068.8 -03387.1 -07.4030 26287.9
 12 01 2013  21 11  -20.9893 26068.6 -03387.1 -07.4030 26287.7
 12 01 2013  21 12  -20.9890 26068.2 -03387.1 -07.4030 26287.3
 12 01 2013  21 13  -20.9889 26067.8 -03387.0 -07.4029 26286.9
 12 01 2013  21 14  -20.9888 26067.5 -03386.9 -07.4030 26286.6
 12 01 2013  21 15  -20.9886 26067.2 -03387.0 -07.4031 26286.4
 12 01 2013  21 16  -20.9884 26067.1 -03387.1 -07.4034 26286.2
 12 01 2013  21 17  -20.9882 26067.1 -03387.3 -07.4039 26286.3
 12 01 2013  21 18  -20.9880 26067.3 -03387.6 -07.4045 26286.5
 12 01 2013  21 19  -20.9881 26067.3 -03387.9 -07.4050 26286.5
 12 01 2013  21 20  -20.9882 26067.1 -03388.0 -07.4054 26286.4
 12 01 2013  21 21  -20.9883 26067.2 -03388.2 -07.4058 26286.5
 12 01 2013  21 22  -20.9882 26067.4 -03388.5 -07.4063 26286.7
 12 01 2013  21 23  -20.9888 26067.0 -03388.5 -07.4064 26286.3
 12 01 2013  21 24  -20.9897 26066.3 -03388.3 -07.4062 26285.6
 12 01 2013  21 25  -20.9908 26065.6 -03388.0 -07.4058 26284.8
 12 01 2013  21 26  -20.9916 26065.1 -03387.9 -07.4056 26284.4
 12 01 2013  21 27  -20.9922 26065.0 -03387.8 -07.4055 26284.3
 12 01 2013  21 28  -20.9926 26065.0 -03387.9 -07.4056 26284.3
 12 01 2013  21 29  -20.9930 26065.0 -03387.9 -07.4057 26284.2
 12 01 2013  21 30  -20.9931 26064.9 -03387.8 -07.4056 26284.1
 12 01 2013  21 31  -20.9931 26064.7 -03387.7 -07.4054 26283.9
 12 01 2013  21 32  -20.9932 26064.0 -03387.4 -07.4049 26283.2
 12 01 2013  21 33  -20.9931 26063.6 -03387.1 -07.4044 26282.8
 12 01 2013  21 34  -20.9923 26064.1 -03387.3 -07.4046 26283.3
 12 01 2013  21 35  -20.9917 26064.4 -03387.5 -07.4050 26283.6
 12 01 2013  21 36  -20.9913 26064.5 -03387.6 -07.4053 26283.7
 12 01 2013  21 37  -20.9907 26064.8 -03387.8 -07.4056 26284.0
 12 01 2013  21 38  -20.9903 26064.8 -03387.9 -07.4057 26284.1
 12 01 2013  21 39  -20.9897 26064.9 -03388.0 -07.4059 26284.2
 12 01 2013  21 40  -20.9893 26065.0 -03388.0 -07.4060 26284.2
 12 01 2013  21 41  -20.9890 26065.0 -03388.1 -07.4062 26284.3
 12 01 2013  21 42  -20.9887 26065.0 -03388.2 -07.4063 26284.3
 12 01 2013  21 43  -20.9884 26064.9 -03388.2 -07.4064 26284.1
 12 01 2013  21 44  -20.9883 26064.7 -03388.2 -07.4064 26284.0
 12 01 2013  21 45  -20.9883 26064.4 -03388.1 -07.4064 26283.7
 12 01 2013  21 46  -20.9884 26064.1 -03388.0 -07.4063 26283.4
 12 01 2013  21 47  -20.9887 26063.9 -03388.0 -07.4062 26283.1
 12 01 2013  21 48  -20.9889 26063.6 -03387.9 -07.4061 26282.9
 12 01 2013  21 49  -20.9890 26063.5 -03387.9 -07.4061 26282.8
 12 01 2013  21 50  -20.9893 26063.2 -03387.8 -07.4061 26282.5
 12 01 2013  21 51  -20.9895 26062.9 -03387.8 -07.4060 26282.2
 12 01 2013  21 52  -20.9897 26062.7 -03387.7 -07.4060 26281.9
 12 01 2013  21 53  -20.9898 26062.6 -03387.7 -07.4060 26281.9
 12 01 2013  21 54  -20.9898 26062.5 -03387.8 -07.4061 26281.8
 12 01 2013  21 55  -20.9897 26062.5 -03387.8 -07.4062 26281.8
 12 01 2013  21 56  -20.9895 26062.6 -03387.9 -07.4064 26281.9
 12 01 2013  21 57  -20.9895 26062.4 -03388.0 -07.4065 26281.7
 12 01 2013  21 58  -20.9894 26062.2 -03387.9 -07.4065 26281.5
 12 01 2013  21 59  -20.9892 26062.1 -03387.9 -07.4065 26281.4
 12 01 2013  22 00  -20.9891 26062.0 -03387.9 -07.4065 26281.3
 12 01 2013  22 01  -20.9891 26061.9 -03387.9 -07.4066 26281.2
 12 01 2013  22 02  -20.9892 26061.8 -03387.9 -07.4066 26281.1
 12 01 2013  22 03  -20.9892 26061.7 -03387.9 -07.4067 26280.9
 12 01 2013  22 04  -20.9890 26061.8 -03388.0 -07.4068 26281.1
 12 01 2013  22 05  -20.9889 26061.8 -03388.1 -07.4070 26281.1
 12 01 2013  22 06  -20.9891 26061.6 -03388.1 -07.4071 26281.0
 12 01 2013  22 07  -20.9892 26061.5 -03388.1 -07.4071 26280.8
 12 01 2013  22 08  -20.9893 26061.3 -03388.0 -07.4070 26280.6
 12 01 2013  22 09  -20.9894 26061.2 -03388.0 -07.4070 26280.5
 12 01 2013  22 10  -20.9895 26061.0 -03388.0 -07.4070 26280.3
 12 01 2013  22 11  -20.9896 26060.7 -03387.9 -07.4068 26280.0
 12 01 2013  22 12  -20.9901 26060.2 -03387.7 -07.4067 26279.5
 12 01 2013  22 13  -20.9905 26059.9 -03387.6 -07.4065 26279.2
 12 01 2013  22 14  -20.9904 26059.8 -03387.6 -07.4065 26279.1
 12 01 2013  22 15  -20.9904 26059.8 -03387.6 -07.4066 26279.1
 12 01 2013  22 16  -20.9904 26059.7 -03387.6 -07.4066 26279.0
 12 01 2013  22 17  -20.9904 26059.5 -03387.6 -07.4066 26278.8
 12 01 2013  22 18  -20.9904 26059.4 -03387.6 -07.4066 26278.7
 12 01 2013  22 19  -20.9900 26059.4 -03387.6 -07.4067 26278.7
 12 01 2013  22 20  -20.9898 26059.5 -03387.7 -07.4068 26278.8
 12 01 2013  22 21  -20.9897 26059.6 -03387.8 -07.4071 26278.9
 12 01 2013  22 22  -20.9896 26059.7 -03387.9 -07.4073 26279.0
 12 01 2013  22 23  -20.9894 26059.8 -03388.0 -07.4075 26279.1
 12 01 2013  22 24  -20.9894 26059.8 -03388.1 -07.4076 26279.1
 12 01 2013  22 25  -20.9892 26059.8 -03388.2 -07.4078 26279.2
 12 01 2013  22 26  -20.9892 26059.8 -03388.2 -07.4079 26279.1
 12 01 2013  22 27  -20.9893 26059.8 -03388.3 -07.4079 26279.1
 12 01 2013  22 28  -20.9895 26059.8 -03388.3 -07.4080 26279.1
 12 01 2013  22 29  -20.9897 26059.8 -03388.3 -07.4081 26279.2
 12 01 2013  22 30  -20.9899 26059.7 -03388.3 -07.4081 26279.1
 12 01 2013  22 31  -20.9899 26059.7 -03388.4 -07.4082 26279.1
 12 01 2013  22 32  -20.9901 26059.7 -03388.3 -07.4082 26279.0
 12 01 2013  22 33  -20.9901 26059.6 -03388.3 -07.4081 26279.0
 12 01 2013  22 34  -20.9901 26059.5 -03388.3 -07.4081 26278.9
 12 01 2013  22 35  -20.9901 26059.6 -03388.3 -07.4081 26278.9
 12 01 2013  22 36  -20.9900 26059.6 -03388.3 -07.4082 26279.0
 12 01 2013  22 37  -20.9900 26059.7 -03388.4 -07.4083 26279.0
 12 01 2013  22 38  -20.9900 26059.6 -03388.4 -07.4083 26278.9
 12 01 2013  22 39  -20.9900 26059.5 -03388.4 -07.4082 26278.8
 12 01 2013  22 40  -20.9898 26059.6 -03388.4 -07.4083 26278.9
 12 01 2013  22 41  -20.9898 26059.6 -03388.4 -07.4084 26279.0
 12 01 2013  22 42  -20.9900 26059.5 -03388.4 -07.4084 26278.9
 12 01 2013  22 43  -20.9901 26059.3 -03388.3 -07.4083 26278.6
 12 01 2013  22 44  -20.9901 26059.2 -03388.3 -07.4081 26278.5
 12 01 2013  22 45  -20.9900 26059.0 -03388.2 -07.4081 26278.4
 12 01 2013  22 46  -20.9900 26058.9 -03388.2 -07.4080 26278.2
 12 01 2013  22 47  -20.9900 26058.7 -03388.1 -07.4079 26278.0
 12 01 2013  22 48  -20.9900 26058.5 -03388.0 -07.4078 26277.8
 12 01 2013  22 49  -20.9901 26058.4 -03388.0 -07.4078 26277.7
 12 01 2013  22 50  -20.9901 26058.2 -03388.0 -07.4077 26277.6
 12 01 2013  22 51  -20.9901 26058.2 -03388.0 -07.4078 26277.5
 12 01 2013  22 52  -20.9900 26058.1 -03387.9 -07.4077 26277.4
 12 01 2013  22 53  -20.9900 26057.9 -03387.9 -07.4077 26277.3
 12 01 2013  22 54  -20.9901 26057.8 -03387.9 -07.4077 26277.1
 12 01 2013  22 55  -20.9900 26057.7 -03387.9 -07.4077 26277.0
 12 01 2013  22 56  -20.9900 26057.6 -03387.9 -07.4077 26276.9
 12 01 2013  22 57  -20.9902 26057.5 -03387.9 -07.4077 26276.8
 12 01 2013  22 58  -20.9902 26057.5 -03387.9 -07.4077 26276.8
 12 01 2013  22 59  -20.9904 26057.4 -03387.9 -07.4078 26276.7
 12 01 2013  23 00  -20.9904 26057.4 -03387.9 -07.4078 26276.7
 12 01 2013  23 01  -20.9905 26057.4 -03387.9 -07.4079 26276.7
 12 01 2013  23 02  -20.9905 26057.4 -03387.9 -07.4079 26276.7
 12 01 2013  23 03  -20.9904 26057.4 -03388.0 -07.4080 26276.8
 12 01 2013  23 04  -20.9904 26057.5 -03388.0 -07.4081 26276.8
 12 01 2013  23 05  -20.9903 26057.6 -03388.1 -07.4082 26276.9
 12 01 2013  23 06  -20.9905 26057.7 -03388.2 -07.4083 26277.0
 12 01 2013  23 07  -20.9906 26057.7 -03388.2 -07.4084 26277.1
 12 01 2013  23 08  -20.9908 26057.6 -03388.2 -07.4084 26276.9
 12 01 2013  23 09  -20.9907 26057.5 -03388.1 -07.4082 26276.8
 12 01 2013  23 10  -20.9906 26057.4 -03388.0 -07.4081 26276.7
 12 01 2013  23 11  -20.9905 26057.3 -03388.0 -07.4081 26276.6
 12 01 2013  23 12  -20.9905 26057.2 -03388.0 -07.4080 26276.5
 12 01 2013  23 13  -20.9906 26057.2 -03388.0 -07.4080 26276.5
 12 01 2013  23 14  -20.9906 26057.2 -03388.0 -07.4081 26276.5
 12 01 2013  23 15  -20.9908 26057.0 -03388.0 -07.4081 26276.4
 12 01 2013  23 16  -20.9909 26056.9 -03387.9 -07.4080 26276.2
 12 01 2013  23 17  -20.9908 26056.8 -03387.9 -07.4079 26276.1
 12 01 2013  23 18  -20.9905 26056.8 -03387.8 -07.4079 26276.1
 12 01 2013  23 19  -20.9904 26056.8 -03387.8 -07.4079 26276.1
 12 01 2013  23 20  -20.9906 26056.8 -03387.9 -07.4080 26276.1
 12 01 2013  23 21  -20.9907 26056.9 -03388.0 -07.4081 26276.2
 12 01 2013  23 22  -20.9909 26057.0 -03388.1 -07.4083 26276.3
 12 01 2013  23 23  -20.9909 26057.0 -03388.1 -07.4084 26276.4
 12 01 2013  23 24  -20.9910 26057.0 -03388.1 -07.4084 26276.4
 12 01 2013  23 25  -20.9910 26056.9 -03388.1 -07.4083 26276.3
 12 01 2013  23 26  -20.9913 26056.9 -03388.0 -07.4083 26276.2
 12 01 2013  23 27  -20.9915 26056.9 -03388.1 -07.4083 26276.3
 12 01 2013  23 28  -20.9917 26056.7 -03388.0 -07.4083 26276.1
 12 01 2013  23 29  -20.9918 26056.6 -03387.9 -07.4081 26275.9
 12 01 2013  23 30  -20.9921 26056.6 -03387.9 -07.4081 26276.0
 12 01 2013  23 31  -20.9922 26056.6 -03388.0 -07.4082 26275.9
 12 01 2013  23 32  -20.9923 26056.4 -03387.9 -07.4080 26275.7
 12 01 2013  23 33  -20.9923 26056.2 -03387.7 -07.4079 26275.5
 12 01 2013  23 34  -20.9925 26056.1 -03387.7 -07.4078 26275.4
 12 01 2013  23 35  -20.9927 26056.0 -03387.7 -07.4078 26275.3
 12 01 2013  23 36  -20.9929 26055.9 -03387.7 -07.4078 26275.2
 12 01 2013  23 37  -20.9931 26055.7 -03387.6 -07.4077 26275.0
 12 01 2013  23 38  -20.9932 26055.6 -03387.6 -07.4077 26274.9
 12 01 2013  23 39  -20.9935 26055.5 -03387.6 -07.4077 26274.8
 12 01 2013  23 40  -20.9936 26055.4 -03387.6 -07.4077 26274.7
 12 01 2013  23 41  -20.9939 26055.3 -03387.6 -07.4077 26274.6
 12 01 2013  23 42  -20.9938 26055.2 -03387.6 -07.4077 26274.5
 12 01 2013  23 43  -20.9938 26055.2 -03387.6 -07.4077 26274.5
 12 01 2013  23 44  -20.9941 26055.3 -03387.7 -07.4079 26274.6
 12 01 2013  23 45  -20.9942 26055.5 -03387.8 -07.4081 26274.8
 12 01 2013  23 46  -20.9943 26055.5 -03387.8 -07.4082 26274.8
 12 01 2013  23 47  -20.9947 26055.7 -03387.9 -07.4084 26275.0
 12 01 2013  23 48  -20.9946 26055.8 -03388.0 -07.4086 26275.2
 12 01 2013  23 49  -20.9950 26056.1 -03388.2 -07.4088 26275.5
 12 01 2013  23 50  -20.9952 26056.3 -03388.3 -07.4090 26275.7
 12 01 2013  23 51  -20.9953 26056.3 -03388.3 -07.4091 26275.7
 12 01 2013  23 52  -20.9954 26056.4 -03388.4 -07.4092 26275.8
 12 01 2013  23 53  -20.9954 26056.5 -03388.4 -07.4092 26275.9
 12 01 2013  23 54  -20.9954 26056.5 -03388.4 -07.4092 26275.9
 12 01 2013  23 55  -20.9953 26056.5 -03388.4 -07.4093 26275.9
 12 01 2013  23 56  -20.9955 26056.5 -03388.4 -07.4093 26275.9
 12 01 2013  23 57  -20.9955 26056.4 -03388.4 -07.4093 26275.7
 12 01 2013  23 58  -20.9957 26056.2 -03388.3 -07.4091 26275.6
