SAO LUIS EMBRACE-03 <102> 1 Min. Reported data

 DD MM YYYY  HH MM   D(Deg)  H(nT)   Z(nT)   I(Deg)   F(nT)

 12 04 2013  00 00  -21.0375 26030.5 -03425.4 -07.4966 26254.9
 12 04 2013  00 01  -21.0377 26030.6 -03425.5 -07.4967 26255.1
 12 04 2013  00 02  -21.0375 26030.7 -03425.5 -07.4967 26255.1
 12 04 2013  00 03  -21.0370 26030.8 -03425.5 -07.4966 26255.2
 12 04 2013  00 04  -21.0366 26030.8 -03425.5 -07.4967 26255.2
 12 04 2013  00 05  -21.0363 26030.9 -03425.6 -07.4968 26255.4
 12 04 2013  00 06  -21.0362 26031.1 -03425.7 -07.4969 26255.5
 12 04 2013  00 07  -21.0361 26030.7 -03425.5 -07.4968 26255.2
 12 04 2013  00 08  -21.0359 26030.8 -03425.5 -07.4967 26255.2
 12 04 2013  00 09  -21.0357 26031.0 -03425.7 -07.4970 26255.5
 12 04 2013  00 10  -21.0357 26031.2 -03425.8 -07.4973 26255.7
 12 04 2013  00 11  -21.0357 26031.5 -03426.0 -07.4975 26256.0
 12 04 2013  00 12  -21.0357 26031.6 -03426.0 -07.4976 26256.1
 12 04 2013  00 13  -21.0357 26031.6 -03426.1 -07.4977 26256.1
 12 04 2013  00 14  -21.0352 26031.6 -03426.1 -07.4977 26256.1
 12 04 2013  00 15  -21.0350 26031.6 -03426.1 -07.4977 26256.1
 12 04 2013  00 16  -21.0351 26031.7 -03426.1 -07.4978 26256.2
 12 04 2013  00 17  -21.0352 26031.6 -03426.1 -07.4977 26256.1
 12 04 2013  00 18  -21.0355 26031.5 -03426.0 -07.4977 26256.0
 12 04 2013  00 19  -21.0357 26031.4 -03426.0 -07.4976 26255.9
 12 04 2013  00 20  -21.0360 26031.4 -03426.0 -07.4975 26255.8
 12 04 2013  00 21  -21.0363 26031.3 -03425.9 -07.4975 26255.8
 12 04 2013  00 22  -21.0366 26031.3 -03425.9 -07.4975 26255.8
 12 04 2013  00 23  -21.0367 26031.1 -03425.9 -07.4974 26255.6
 12 04 2013  00 24  -21.0368 26030.9 -03425.7 -07.4972 26255.4
 12 04 2013  00 25  -21.0370 26030.7 -03425.6 -07.4970 26255.1
 12 04 2013  00 26  -21.0371 26030.3 -03425.5 -07.4967 26254.8
 12 04 2013  00 27  -21.0371 26030.1 -03425.4 -07.4966 26254.5
 12 04 2013  00 28  -21.0371 26029.9 -03425.3 -07.4965 26254.3
 12 04 2013  00 29  -21.0370 26029.8 -03425.3 -07.4965 26254.2
 12 04 2013  00 30  -21.0366 26029.7 -03425.2 -07.4964 26254.1
 12 04 2013  00 31  -21.0365 26029.8 -03425.3 -07.4966 26254.2
 12 04 2013  00 32  -21.0366 26029.9 -03425.5 -07.4969 26254.3
 12 04 2013  00 33  -21.0367 26029.9 -03425.5 -07.4970 26254.3
 12 04 2013  00 34  -21.0370 26029.6 -03425.5 -07.4970 26254.0
 12 04 2013  00 35  -21.0374 26029.6 -03425.5 -07.4970 26254.0
 12 04 2013  00 36  -21.0376 26029.5 -03425.4 -07.4969 26253.9
 12 04 2013  00 37  -21.0376 26029.2 -03425.3 -07.4968 26253.6
 12 04 2013  00 38  -21.0375 26029.0 -03425.2 -07.4966 26253.4
 12 04 2013  00 39  -21.0373 26028.7 -03425.1 -07.4964 26253.1
 12 04 2013  00 40  -21.0373 26028.5 -03425.0 -07.4963 26252.9
 12 04 2013  00 41  -21.0375 26028.3 -03425.0 -07.4963 26252.7
 12 04 2013  00 42  -21.0377 26028.1 -03424.9 -07.4963 26252.5
 12 04 2013  00 43  -21.0377 26028.0 -03425.0 -07.4963 26252.4
 12 04 2013  00 44  -21.0378 26027.8 -03424.9 -07.4962 26252.2
 12 04 2013  00 45  -21.0375 26028.0 -03425.0 -07.4964 26252.4
 12 04 2013  00 46  -21.0374 26027.9 -03425.0 -07.4965 26252.3
 12 04 2013  00 47  -21.0374 26027.7 -03425.0 -07.4965 26252.1
 12 04 2013  00 48  -21.0373 26027.5 -03424.9 -07.4964 26251.9
 12 04 2013  00 49  -21.0371 26027.6 -03425.0 -07.4965 26252.0
 12 04 2013  00 50  -21.0369 26027.5 -03425.0 -07.4966 26251.9
 12 04 2013  00 51  -21.0366 26027.6 -03425.1 -07.4968 26252.0
 12 04 2013  00 52  -21.0361 26027.9 -03425.3 -07.4971 26252.3
 12 04 2013  00 53  -21.0359 26028.3 -03425.6 -07.4975 26252.8
 12 04 2013  00 54  -21.0358 26028.8 -03425.9 -07.4980 26253.3
 12 04 2013  00 55  -21.0359 26029.2 -03426.1 -07.4985 26253.7
 12 04 2013  00 56  -21.0361 26029.3 -03426.2 -07.4987 26253.8
 12 04 2013  00 57  -21.0366 26029.2 -03426.2 -07.4987 26253.8
 12 04 2013  00 58  -21.0370 26028.9 -03426.1 -07.4985 26253.4
 12 04 2013  00 59  -21.0374 26028.4 -03425.9 -07.4981 26252.9
 12 04 2013  01 00  -21.0373 26027.9 -03425.5 -07.4976 26252.3
 12 04 2013  01 01  -21.0370 26027.1 -03425.1 -07.4970 26251.5
 12 04 2013  01 02  -21.0365 26027.2 -03425.1 -07.4969 26251.6
 12 04 2013  01 03  -21.0360 26027.0 -03425.1 -07.4969 26251.4
 12 04 2013  01 04  -21.0357 26026.8 -03425.1 -07.4969 26251.2
 12 04 2013  01 05  -21.0353 26027.1 -03425.2 -07.4972 26251.6
 12 04 2013  01 06  -21.0352 26027.6 -03425.6 -07.4978 26252.1
 12 04 2013  01 07  -21.0353 26028.2 -03425.9 -07.4984 26252.7
 12 04 2013  01 08  -21.0355 26028.7 -03426.3 -07.4990 26253.2
 12 04 2013  01 09  -21.0356 26029.2 -03426.5 -07.4994 26253.7
 12 04 2013  01 10  -21.0357 26029.3 -03426.6 -07.4995 26253.9
 12 04 2013  01 11  -21.0358 26029.8 -03426.8 -07.4998 26254.4
 12 04 2013  01 12  -21.0359 26030.0 -03426.9 -07.4999 26254.6
 12 04 2013  01 13  -21.0363 26030.0 -03426.9 -07.4999 26254.6
 12 04 2013  01 14  -21.0365 26029.9 -03426.8 -07.4997 26254.5
 12 04 2013  01 15  -21.0366 26029.6 -03426.6 -07.4994 26254.1
 12 04 2013  01 16  -21.0367 26029.4 -03426.4 -07.4991 26253.9
 12 04 2013  01 17  -21.0369 26029.2 -03426.3 -07.4989 26253.8
 12 04 2013  01 18  -21.0370 26029.0 -03426.2 -07.4987 26253.5
 12 04 2013  01 19  -21.0370 26029.0 -03426.2 -07.4986 26253.5
 12 04 2013  01 20  -21.0370 26028.9 -03426.1 -07.4986 26253.4
 12 04 2013  01 21  -21.0372 26028.8 -03426.1 -07.4986 26253.3
 12 04 2013  01 22  -21.0371 26029.0 -03426.2 -07.4988 26253.5
 12 04 2013  01 23  -21.0372 26029.0 -03426.3 -07.4989 26253.6
 12 04 2013  01 24  -21.0372 26029.1 -03426.3 -07.4989 26253.6
 12 04 2013  01 25  -21.0371 26029.3 -03426.4 -07.4991 26253.8
 12 04 2013  01 26  -21.0370 26029.3 -03426.5 -07.4992 26253.9
 12 04 2013  01 27  -21.0370 26029.6 -03426.6 -07.4993 26254.2
 12 04 2013  01 28  -21.0370 26030.0 -03426.8 -07.4997 26254.6
 12 04 2013  01 29  -21.0370 26030.2 -03426.9 -07.4999 26254.8
 12 04 2013  01 30  -21.0370 26030.1 -03426.9 -07.4999 26254.7
 12 04 2013  01 31  -21.0371 26030.0 -03426.8 -07.4998 26254.6
 12 04 2013  01 32  -21.0370 26029.9 -03426.8 -07.4997 26254.5
 12 04 2013  01 33  -21.0370 26030.0 -03426.8 -07.4997 26254.6
 12 04 2013  01 34  -21.0370 26030.1 -03426.9 -07.4998 26254.7
 12 04 2013  01 35  -21.0370 26030.2 -03426.9 -07.4998 26254.8
 12 04 2013  01 36  -21.0371 26030.2 -03426.9 -07.4998 26254.8
 12 04 2013  01 37  -21.0372 26030.3 -03426.9 -07.4998 26254.9
 12 04 2013  01 38  -21.0372 26030.4 -03427.0 -07.4999 26255.0
 12 04 2013  01 39  -21.0370 26030.5 -03427.0 -07.5001 26255.1
 12 04 2013  01 40  -21.0369 26030.5 -03427.0 -07.5000 26255.1
 12 04 2013  01 41  -21.0366 26030.6 -03427.0 -07.5000 26255.2
 12 04 2013  01 42  -21.0363 26030.7 -03427.1 -07.5001 26255.3
 12 04 2013  01 43  -21.0360 26030.9 -03427.2 -07.5002 26255.5
 12 04 2013  01 44  -21.0358 26030.9 -03427.2 -07.5003 26255.6
 12 04 2013  01 45  -21.0357 26031.0 -03427.2 -07.5004 26255.6
 12 04 2013  01 46  -21.0358 26030.9 -03427.2 -07.5004 26255.5
 12 04 2013  01 47  -21.0360 26030.8 -03427.2 -07.5004 26255.4
 12 04 2013  01 48  -21.0362 26030.6 -03427.1 -07.5003 26255.3
 12 04 2013  01 49  -21.0364 26030.5 -03427.1 -07.5003 26255.1
 12 04 2013  01 50  -21.0365 26030.3 -03427.0 -07.5001 26254.9
 12 04 2013  01 51  -21.0364 26030.3 -03427.0 -07.5001 26255.0
 12 04 2013  01 52  -21.0363 26030.5 -03427.1 -07.5003 26255.2
 12 04 2013  01 53  -21.0362 26030.5 -03427.1 -07.5003 26255.1
 12 04 2013  01 54  -21.0363 26030.6 -03427.2 -07.5004 26255.2
 12 04 2013  01 55  -21.0363 26030.6 -03427.2 -07.5005 26255.2
 12 04 2013  01 56  -21.0365 26030.5 -03427.2 -07.5004 26255.1
 12 04 2013  01 57  -21.0367 26030.3 -03427.1 -07.5004 26255.0
 12 04 2013  01 58  -21.0366 26030.1 -03427.0 -07.5002 26254.7
 12 04 2013  01 59  -21.0365 26030.0 -03427.0 -07.5001 26254.6
 12 04 2013  02 00  -21.0367 26030.0 -03427.0 -07.5002 26254.7
 12 04 2013  02 01  -21.0366 26030.2 -03427.1 -07.5004 26254.8
 12 04 2013  02 02  -21.0364 26030.2 -03427.1 -07.5004 26254.8
 12 04 2013  02 03  -21.0361 26030.3 -03427.2 -07.5006 26254.9
 12 04 2013  02 04  -21.0361 26030.4 -03427.3 -07.5007 26255.0
 12 04 2013  02 05  -21.0360 26030.5 -03427.4 -07.5009 26255.1
 12 04 2013  02 06  -21.0360 26030.6 -03427.4 -07.5009 26255.3
 12 04 2013  02 07  -21.0358 26030.8 -03427.6 -07.5012 26255.5
 12 04 2013  02 08  -21.0357 26030.9 -03427.7 -07.5014 26255.6
 12 04 2013  02 09  -21.0355 26031.0 -03427.7 -07.5014 26255.7
 12 04 2013  02 10  -21.0354 26031.0 -03427.7 -07.5014 26255.7
 12 04 2013  02 11  -21.0354 26030.8 -03427.7 -07.5014 26255.5
 12 04 2013  02 12  -21.0356 26030.6 -03427.6 -07.5013 26255.3
 12 04 2013  02 13  -21.0355 26030.3 -03427.5 -07.5011 26255.0
 12 04 2013  02 14  -21.0355 26030.0 -03427.3 -07.5009 26254.7
 12 04 2013  02 15  -21.0352 26030.2 -03427.4 -07.5011 26254.9
 12 04 2013  02 16  -21.0351 26030.1 -03427.4 -07.5011 26254.8
 12 04 2013  02 17  -21.0351 26030.4 -03427.6 -07.5014 26255.1
 12 04 2013  02 18  -21.0348 26030.3 -03427.6 -07.5013 26255.0
 12 04 2013  02 19  -21.0346 26030.5 -03427.7 -07.5015 26255.2
 12 04 2013  02 20  -21.0345 26030.6 -03427.8 -07.5017 26255.3
 12 04 2013  02 21  -21.0344 26030.6 -03427.8 -07.5018 26255.3
 12 04 2013  02 22  -21.0345 26030.5 -03427.8 -07.5017 26255.2
 12 04 2013  02 23  -21.0345 26030.5 -03427.8 -07.5018 26255.3
 12 04 2013  02 24  -21.0346 26030.6 -03427.9 -07.5019 26255.3
 12 04 2013  02 25  -21.0347 26030.8 -03427.9 -07.5020 26255.5
 12 04 2013  02 26  -21.0347 26031.0 -03428.1 -07.5022 26255.7
 12 04 2013  02 27  -21.0346 26031.4 -03428.3 -07.5025 26256.1
 12 04 2013  02 28  -21.0345 26031.6 -03428.4 -07.5027 26256.4
 12 04 2013  02 29  -21.0344 26031.8 -03428.4 -07.5028 26256.6
 12 04 2013  02 30  -21.0342 26031.9 -03428.5 -07.5029 26256.7
 12 04 2013  02 31  -21.0342 26032.1 -03428.6 -07.5029 26256.9
 12 04 2013  02 32  -21.0341 26032.2 -03428.7 -07.5031 26257.1
 12 04 2013  02 33  -21.0341 26032.1 -03428.6 -07.5030 26256.9
 12 04 2013  02 34  -21.0340 26031.9 -03428.4 -07.5028 26256.7
 12 04 2013  02 35  -21.0341 26031.6 -03428.3 -07.5025 26256.4
 12 04 2013  02 36  -21.0340 26031.5 -03428.2 -07.5023 26256.2
 12 04 2013  02 37  -21.0341 26031.2 -03428.1 -07.5021 26256.0
 12 04 2013  02 38  -21.0341 26031.3 -03428.1 -07.5022 26256.0
 12 04 2013  02 39  -21.0341 26031.1 -03428.1 -07.5022 26255.9
 12 04 2013  02 40  -21.0341 26031.1 -03428.1 -07.5022 26255.9
 12 04 2013  02 41  -21.0340 26030.9 -03428.0 -07.5020 26255.7
 12 04 2013  02 42  -21.0340 26030.7 -03427.9 -07.5019 26255.5
 12 04 2013  02 43  -21.0340 26030.5 -03427.8 -07.5018 26255.2
 12 04 2013  02 44  -21.0340 26030.4 -03427.8 -07.5018 26255.2
 12 04 2013  02 45  -21.0341 26030.3 -03427.7 -07.5017 26255.0
 12 04 2013  02 46  -21.0340 26030.2 -03427.7 -07.5017 26254.9
 12 04 2013  02 47  -21.0341 26030.2 -03427.8 -07.5017 26254.9
 12 04 2013  02 48  -21.0341 26030.3 -03427.9 -07.5019 26255.1
 12 04 2013  02 49  -21.0341 26030.4 -03427.9 -07.5020 26255.1
 12 04 2013  02 50  -21.0342 26030.4 -03427.9 -07.5020 26255.1
 12 04 2013  02 51  -21.0346 26030.3 -03427.9 -07.5020 26255.0
 12 04 2013  02 52  -21.0349 26030.2 -03427.8 -07.5019 26254.9
 12 04 2013  02 53  -21.0352 26030.1 -03427.8 -07.5018 26254.8
 12 04 2013  02 54  -21.0355 26029.8 -03427.6 -07.5016 26254.5
 12 04 2013  02 55  -21.0359 26029.5 -03427.5 -07.5015 26254.2
 12 04 2013  02 56  -21.0365 26029.5 -03427.5 -07.5015 26254.2
 12 04 2013  02 57  -21.0370 26029.2 -03427.4 -07.5013 26253.9
 12 04 2013  02 58  -21.0370 26029.1 -03427.4 -07.5012 26253.8
 12 04 2013  02 59  -21.0370 26029.1 -03427.3 -07.5011 26253.8
 12 04 2013  03 00  -21.0369 26029.5 -03427.5 -07.5013 26254.1
 12 04 2013  03 01  -21.0368 26029.7 -03427.6 -07.5015 26254.4
 12 04 2013  03 02  -21.0368 26029.9 -03427.7 -07.5016 26254.6
 12 04 2013  03 03  -21.0370 26030.1 -03427.8 -07.5018 26254.8
 12 04 2013  03 04  -21.0372 26029.9 -03427.6 -07.5016 26254.6
 12 04 2013  03 05  -21.0372 26030.3 -03427.8 -07.5018 26255.0
 12 04 2013  03 06  -21.0375 26030.4 -03427.8 -07.5019 26255.1
 12 04 2013  03 07  -21.0376 26030.8 -03428.0 -07.5021 26255.6
 12 04 2013  03 08  -21.0374 26031.0 -03428.0 -07.5021 26255.7
 12 04 2013  03 09  -21.0372 26031.1 -03428.0 -07.5021 26255.9
 12 04 2013  03 10  -21.0372 26031.4 -03428.1 -07.5022 26256.1
 12 04 2013  03 11  -21.0372 26031.4 -03428.1 -07.5021 26256.1
 12 04 2013  03 12  -21.0373 26031.3 -03428.0 -07.5019 26256.0
 12 04 2013  03 13  -21.0374 26031.2 -03427.9 -07.5018 26255.9
 12 04 2013  03 14  -21.0376 26031.1 -03427.8 -07.5016 26255.8
 12 04 2013  03 15  -21.0376 26031.3 -03427.9 -07.5017 26256.1
 12 04 2013  03 16  -21.0378 26031.3 -03427.9 -07.5017 26256.0
 12 04 2013  03 17  -21.0381 26031.3 -03427.9 -07.5017 26256.1
 12 04 2013  03 18  -21.0382 26031.2 -03427.8 -07.5016 26255.9
 12 04 2013  03 19  -21.0382 26031.0 -03427.7 -07.5014 26255.7
 12 04 2013  03 20  -21.0383 26030.9 -03427.6 -07.5011 26255.6
 12 04 2013  03 21  -21.0384 26030.7 -03427.5 -07.5009 26255.4
 12 04 2013  03 22  -21.0389 26030.5 -03427.4 -07.5008 26255.2
 12 04 2013  03 23  -21.0394 26030.3 -03427.3 -07.5007 26255.0
 12 04 2013  03 24  -21.0391 26031.0 -03427.6 -07.5011 26255.6
 12 04 2013  03 25  -21.0394 26030.8 -03427.5 -07.5011 26255.5
 12 04 2013  03 26  -21.0397 26031.6 -03427.9 -07.5017 26256.3
 12 04 2013  03 27  -21.0397 26031.8 -03428.0 -07.5018 26256.6
 12 04 2013  03 28  -21.0396 26032.2 -03428.2 -07.5021 26257.0
 12 04 2013  03 29  -21.0395 26032.4 -03428.2 -07.5021 26257.2
 12 04 2013  03 30  -21.0395 26032.6 -03428.2 -07.5021 26257.4
 12 04 2013  03 31  -21.0394 26032.7 -03428.2 -07.5021 26257.4
 12 04 2013  03 32  -21.0395 26032.4 -03428.0 -07.5017 26257.2
 12 04 2013  03 33  -21.0392 26032.5 -03428.0 -07.5016 26257.2
 12 04 2013  03 34  -21.0391 26032.2 -03427.8 -07.5012 26256.9
 12 04 2013  03 35  -21.0390 26032.0 -03427.6 -07.5009 26256.7
 12 04 2013  03 36  -21.0386 26032.0 -03427.6 -07.5008 26256.7
 12 04 2013  03 37  -21.0385 26031.9 -03427.5 -07.5008 26256.6
 12 04 2013  03 38  -21.0386 26031.8 -03427.5 -07.5007 26256.5
 12 04 2013  03 39  -21.0385 26031.8 -03427.5 -07.5007 26256.5
 12 04 2013  03 40  -21.0384 26031.7 -03427.4 -07.5006 26256.4
 12 04 2013  03 41  -21.0386 26031.7 -03427.4 -07.5006 26256.4
 12 04 2013  03 42  -21.0384 26031.7 -03427.4 -07.5006 26256.4
 12 04 2013  03 43  -21.0387 26031.4 -03427.3 -07.5005 26256.1
 12 04 2013  03 44  -21.0388 26031.4 -03427.3 -07.5004 26256.1
 12 04 2013  03 45  -21.0390 26031.4 -03427.3 -07.5003 26256.0
 12 04 2013  03 46  -21.0392 26031.5 -03427.3 -07.5005 26256.1
 12 04 2013  03 47  -21.0394 26031.4 -03427.3 -07.5004 26256.0
 12 04 2013  03 48  -21.0394 26031.5 -03427.4 -07.5005 26256.1
 12 04 2013  03 49  -21.0394 26031.5 -03427.4 -07.5005 26256.1
 12 04 2013  03 50  -21.0394 26031.5 -03427.3 -07.5005 26256.2
 12 04 2013  03 51  -21.0390 26031.9 -03427.5 -07.5007 26256.6
 12 04 2013  03 52  -21.0390 26031.6 -03427.4 -07.5006 26256.3
 12 04 2013  03 53  -21.0388 26031.4 -03427.3 -07.5003 26256.1
 12 04 2013  03 54  -21.0386 26031.5 -03427.3 -07.5004 26256.2
 12 04 2013  03 55  -21.0387 26031.3 -03427.3 -07.5003 26256.0
 12 04 2013  03 56  -21.0386 26031.3 -03427.2 -07.5003 26255.9
 12 04 2013  03 57  -21.0382 26031.3 -03427.2 -07.5003 26256.0
 12 04 2013  03 58  -21.0381 26031.7 -03427.4 -07.5006 26256.3
 12 04 2013  03 59  -21.0383 26031.9 -03427.6 -07.5009 26256.6
 12 04 2013  04 00  -21.0383 26032.2 -03427.8 -07.5012 26256.9
 12 04 2013  04 01  -21.0380 26032.2 -03427.7 -07.5012 26256.9
 12 04 2013  04 02  -21.0376 26032.6 -03427.9 -07.5015 26257.3
 12 04 2013  04 03  -21.0376 26032.7 -03428.0 -07.5015 26257.4
 12 04 2013  04 04  -21.0371 26033.1 -03428.1 -07.5017 26257.8
 12 04 2013  04 05  -21.0369 26033.2 -03428.2 -07.5018 26257.9
 12 04 2013  04 06  -21.0370 26032.6 -03427.9 -07.5013 26257.3
 12 04 2013  04 07  -21.0370 26032.7 -03427.9 -07.5013 26257.4
 12 04 2013  04 08  -21.0370 26032.5 -03427.8 -07.5011 26257.2
 12 04 2013  04 09  -21.0369 26032.7 -03427.8 -07.5012 26257.5
 12 04 2013  04 10  -21.0369 26032.4 -03427.7 -07.5010 26257.1
 12 04 2013  04 11  -21.0367 26032.3 -03427.6 -07.5008 26257.0
 12 04 2013  04 12  -21.0364 26032.2 -03427.6 -07.5008 26256.9
 12 04 2013  04 13  -21.0361 26032.3 -03427.6 -07.5008 26257.0
 12 04 2013  04 14  -21.0361 26032.4 -03427.6 -07.5009 26257.0
 12 04 2013  04 15  -21.0359 26032.4 -03427.7 -07.5009 26257.1
 12 04 2013  04 16  -21.0357 26032.3 -03427.6 -07.5009 26257.0
 12 04 2013  04 17  -21.0354 26032.6 -03427.7 -07.5009 26257.3
 12 04 2013  04 18  -21.0348 26032.7 -03427.8 -07.5010 26257.4
 12 04 2013  04 19  -21.0343 26032.7 -03427.8 -07.5011 26257.4
 12 04 2013  04 20  -21.0340 26032.6 -03427.7 -07.5010 26257.3
 12 04 2013  04 21  -21.0335 26032.7 -03427.7 -07.5009 26257.4
 12 04 2013  04 22  -21.0334 26032.5 -03427.7 -07.5009 26257.2
 12 04 2013  04 23  -21.0332 26032.5 -03427.6 -07.5009 26257.1
 12 04 2013  04 24  -21.0333 26032.3 -03427.6 -07.5008 26257.0
 12 04 2013  04 25  -21.0333 26032.1 -03427.5 -07.5007 26256.8
 12 04 2013  04 26  -21.0332 26031.9 -03427.5 -07.5007 26256.6
 12 04 2013  04 27  -21.0329 26031.7 -03427.4 -07.5005 26256.3
 12 04 2013  04 28  -21.0330 26031.4 -03427.3 -07.5004 26256.0
 12 04 2013  04 29  -21.0327 26031.2 -03427.3 -07.5004 26255.9
 12 04 2013  04 30  -21.0327 26030.9 -03427.2 -07.5003 26255.6
 12 04 2013  04 31  -21.0328 26030.8 -03427.2 -07.5003 26255.4
 12 04 2013  04 32  -21.0331 26030.9 -03427.3 -07.5005 26255.5
 12 04 2013  04 33  -21.0331 26031.2 -03427.5 -07.5009 26255.9
 12 04 2013  04 34  -21.0333 26031.5 -03427.7 -07.5013 26256.2
 12 04 2013  04 35  -21.0336 26031.6 -03427.9 -07.5016 26256.3
 12 04 2013  04 36  -21.0334 26031.5 -03427.9 -07.5016 26256.2
 12 04 2013  04 37  -21.0329 26031.8 -03428.0 -07.5019 26256.6
 12 04 2013  04 38  -21.0329 26031.9 -03428.1 -07.5020 26256.6
 12 04 2013  04 39  -21.0324 26032.2 -03428.2 -07.5022 26257.0
 12 04 2013  04 40  -21.0321 26032.5 -03428.4 -07.5025 26257.3
 12 04 2013  04 41  -21.0324 26032.7 -03428.5 -07.5027 26257.5
 12 04 2013  04 42  -21.0326 26032.8 -03428.6 -07.5029 26257.6
 12 04 2013  04 43  -21.0327 26033.2 -03428.8 -07.5032 26258.0
 12 04 2013  04 44  -21.0330 26033.4 -03429.0 -07.5034 26258.2
 12 04 2013  04 45  -21.0332 26033.4 -03429.0 -07.5034 26258.2
 12 04 2013  04 46  -21.0327 26033.5 -03429.0 -07.5034 26258.4
 12 04 2013  04 47  -21.0321 26033.8 -03429.1 -07.5035 26258.7
 12 04 2013  04 48  -21.0319 26033.6 -03429.0 -07.5034 26258.4
 12 04 2013  04 49  -21.0317 26033.4 -03428.8 -07.5032 26258.2
 12 04 2013  04 50  -21.0316 26033.3 -03428.9 -07.5032 26258.2
 12 04 2013  04 51  -21.0316 26033.3 -03428.8 -07.5032 26258.1
 12 04 2013  04 52  -21.0314 26033.4 -03428.9 -07.5033 26258.2
 12 04 2013  04 53  -21.0311 26033.3 -03428.9 -07.5034 26258.1
 12 04 2013  04 54  -21.0308 26033.2 -03428.9 -07.5034 26258.1
 12 04 2013  04 55  -21.0303 26033.2 -03428.9 -07.5034 26258.0
 12 04 2013  04 56  -21.0298 26033.1 -03428.9 -07.5034 26258.0
 12 04 2013  04 57  -21.0294 26033.1 -03429.0 -07.5035 26258.0
 12 04 2013  04 58  -21.0292 26033.1 -03429.0 -07.5037 26258.0
 12 04 2013  04 59  -21.0292 26033.1 -03429.1 -07.5038 26258.0
 12 04 2013  05 00  -21.0291 26033.0 -03429.1 -07.5039 26257.9
 12 04 2013  05 01  -21.0289 26032.9 -03429.1 -07.5039 26257.8
 12 04 2013  05 02  -21.0286 26032.9 -03429.1 -07.5039 26257.8
 12 04 2013  05 03  -21.0284 26032.9 -03429.2 -07.5041 26257.8
 12 04 2013  05 04  -21.0283 26032.9 -03429.2 -07.5041 26257.7
 12 04 2013  05 05  -21.0283 26032.9 -03429.3 -07.5043 26257.8
 12 04 2013  05 06  -21.0284 26032.9 -03429.3 -07.5043 26257.8
 12 04 2013  05 07  -21.0283 26033.2 -03429.5 -07.5046 26258.1
 12 04 2013  05 08  -21.0282 26033.9 -03429.9 -07.5053 26258.9
 12 04 2013  05 09  -21.0286 26033.6 -03429.8 -07.5051 26258.5
 12 04 2013  05 10  -21.0283 26034.1 -03430.0 -07.5055 26259.1
 12 04 2013  05 11  -21.0288 26034.0 -03430.0 -07.5055 26259.0
 12 04 2013  05 12  -21.0287 26034.2 -03430.0 -07.5055 26259.2
 12 04 2013  05 13  -21.0287 26034.5 -03430.2 -07.5058 26259.5
 12 04 2013  05 14  -21.0289 26034.2 -03430.0 -07.5055 26259.2
 12 04 2013  05 15  -21.0287 26034.5 -03430.1 -07.5056 26259.5
 12 04 2013  05 16  -21.0292 26034.5 -03430.1 -07.5056 26259.5
 12 04 2013  05 17  -21.0293 26034.7 -03430.2 -07.5056 26259.7
 12 04 2013  05 18  -21.0296 26034.8 -03430.2 -07.5058 26259.8
 12 04 2013  05 19  -21.0299 26034.9 -03430.2 -07.5058 26259.9
 12 04 2013  05 20  -21.0303 26034.6 -03430.1 -07.5055 26259.6
 12 04 2013  05 21  -21.0305 26034.8 -03430.1 -07.5055 26259.8
 12 04 2013  05 22  -21.0309 26034.9 -03430.1 -07.5055 26259.9
 12 04 2013  05 23  -21.0309 26035.3 -03430.3 -07.5057 26260.3
 12 04 2013  05 24  -21.0312 26035.2 -03430.2 -07.5056 26260.2
 12 04 2013  05 25  -21.0311 26035.6 -03430.3 -07.5057 26260.6
 12 04 2013  05 26  -21.0315 26035.5 -03430.2 -07.5056 26260.5
 12 04 2013  05 27  -21.0313 26035.9 -03430.3 -07.5057 26260.9
 12 04 2013  05 28  -21.0314 26036.1 -03430.4 -07.5058 26261.1
 12 04 2013  05 29  -21.0313 26036.2 -03430.4 -07.5058 26261.2
 12 04 2013  05 30  -21.0310 26036.6 -03430.5 -07.5059 26261.6
 12 04 2013  05 31  -21.0308 26036.7 -03430.5 -07.5059 26261.7
 12 04 2013  05 32  -21.0305 26036.7 -03430.5 -07.5059 26261.8
 12 04 2013  05 33  -21.0302 26036.7 -03430.5 -07.5058 26261.7
 12 04 2013  05 34  -21.0297 26037.1 -03430.6 -07.5060 26262.1
 12 04 2013  05 35  -21.0295 26037.3 -03430.7 -07.5062 26262.3
 12 04 2013  05 36  -21.0292 26037.1 -03430.6 -07.5060 26262.1
 12 04 2013  05 37  -21.0291 26037.1 -03430.6 -07.5060 26262.1
 12 04 2013  05 38  -21.0290 26037.0 -03430.6 -07.5059 26262.0
 12 04 2013  05 39  -21.0289 26037.0 -03430.6 -07.5060 26262.0
 12 04 2013  05 40  -21.0290 26036.8 -03430.5 -07.5058 26261.8
 12 04 2013  05 41  -21.0290 26036.9 -03430.6 -07.5059 26261.9
 12 04 2013  05 42  -21.0291 26036.8 -03430.6 -07.5059 26261.9
 12 04 2013  05 43  -21.0292 26036.8 -03430.6 -07.5060 26261.9
 12 04 2013  05 44  -21.0293 26036.7 -03430.5 -07.5059 26261.8
 12 04 2013  05 45  -21.0292 26036.8 -03430.6 -07.5060 26261.9
 12 04 2013  05 46  -21.0286 26036.7 -03430.6 -07.5060 26261.7
 12 04 2013  05 47  -21.0275 26036.9 -03430.6 -07.5060 26261.9
 12 04 2013  05 48  -21.0273 26037.0 -03430.7 -07.5063 26262.1
 12 04 2013  05 49  -21.0271 26037.0 -03430.8 -07.5064 26262.0
 12 04 2013  05 50  -21.0270 26036.9 -03430.9 -07.5066 26262.0
 12 04 2013  05 51  -21.0268 26036.6 -03430.7 -07.5064 26261.7
 12 04 2013  05 52  -21.0264 26036.5 -03430.7 -07.5064 26261.6
 12 04 2013  05 53  -21.0262 26036.4 -03430.7 -07.5064 26261.5
 12 04 2013  05 54  -21.0260 26036.2 -03430.7 -07.5064 26261.3
 12 04 2013  05 55  -21.0257 26035.9 -03430.6 -07.5062 26261.0
 12 04 2013  05 56  -21.0253 26035.9 -03430.6 -07.5063 26261.0
 12 04 2013  05 57  -21.0250 26035.5 -03430.5 -07.5062 26260.5
 12 04 2013  05 58  -21.0251 26035.3 -03430.5 -07.5061 26260.3
 12 04 2013  05 59  -21.0252 26035.3 -03430.5 -07.5063 26260.3
 12 04 2013  06 00  -21.0253 26035.0 -03430.5 -07.5063 26260.1
 12 04 2013  06 01  -21.0254 26034.9 -03430.5 -07.5063 26259.9
 12 04 2013  06 02  -21.0256 26034.8 -03430.5 -07.5064 26259.8
 12 04 2013  06 03  -21.0259 26034.9 -03430.6 -07.5066 26260.0
 12 04 2013  06 04  -21.0263 26035.0 -03430.7 -07.5067 26260.0
 12 04 2013  06 05  -21.0265 26035.0 -03430.7 -07.5067 26260.1
 12 04 2013  06 06  -21.0266 26034.9 -03430.7 -07.5067 26259.9
 12 04 2013  06 07  -21.0265 26035.0 -03430.8 -07.5069 26260.1
 12 04 2013  06 08  -21.0267 26035.0 -03430.8 -07.5070 26260.1
 12 04 2013  06 09  -21.0272 26034.9 -03430.8 -07.5070 26260.0
 12 04 2013  06 10  -21.0276 26034.7 -03430.7 -07.5068 26259.8
 12 04 2013  06 11  -21.0280 26034.5 -03430.6 -07.5068 26259.6
 12 04 2013  06 12  -21.0281 26034.7 -03430.7 -07.5069 26259.7
 12 04 2013  06 13  -21.0287 26034.9 -03430.9 -07.5072 26260.0
 12 04 2013  06 14  -21.0294 26034.9 -03430.9 -07.5072 26259.9
 12 04 2013  06 15  -21.0301 26035.1 -03431.0 -07.5073 26260.2
 12 04 2013  06 16  -21.0305 26035.2 -03431.0 -07.5073 26260.3
 12 04 2013  06 17  -21.0304 26034.9 -03430.8 -07.5070 26260.0
 12 04 2013  06 18  -21.0301 26034.9 -03430.7 -07.5069 26260.0
 12 04 2013  06 19  -21.0296 26034.5 -03430.6 -07.5066 26259.6
 12 04 2013  06 20  -21.0293 26034.7 -03430.6 -07.5067 26259.7
 12 04 2013  06 21  -21.0293 26034.7 -03430.7 -07.5068 26259.8
 12 04 2013  06 22  -21.0295 26034.8 -03430.8 -07.5070 26259.9
 12 04 2013  06 23  -21.0298 26034.9 -03430.8 -07.5070 26260.0
 12 04 2013  06 24  -21.0301 26035.0 -03430.9 -07.5071 26260.1
 12 04 2013  06 25  -21.0303 26034.9 -03430.8 -07.5070 26260.0
 12 04 2013  06 26  -21.0305 26035.0 -03430.8 -07.5070 26260.1
 12 04 2013  06 27  -21.0304 26034.8 -03430.7 -07.5068 26259.8
 12 04 2013  06 28  -21.0302 26034.8 -03430.7 -07.5068 26259.9
 12 04 2013  06 29  -21.0303 26034.9 -03430.7 -07.5069 26260.0
 12 04 2013  06 30  -21.0306 26035.1 -03430.9 -07.5071 26260.2
 12 04 2013  06 31  -21.0309 26035.3 -03431.0 -07.5073 26260.4
 12 04 2013  06 32  -21.0312 26035.7 -03431.1 -07.5075 26260.8
 12 04 2013  06 33  -21.0312 26036.0 -03431.3 -07.5077 26261.2
 12 04 2013  06 34  -21.0313 26036.3 -03431.4 -07.5078 26261.5
 12 04 2013  06 35  -21.0317 26036.3 -03431.3 -07.5077 26261.4
 12 04 2013  06 36  -21.0318 26036.2 -03431.2 -07.5075 26261.3
 12 04 2013  06 37  -21.0311 26035.8 -03431.0 -07.5071 26260.9
 12 04 2013  06 38  -21.0305 26035.5 -03430.8 -07.5068 26260.6
 12 04 2013  06 39  -21.0300 26035.3 -03430.7 -07.5067 26260.3
 12 04 2013  06 40  -21.0290 26035.1 -03430.7 -07.5066 26260.2
 12 04 2013  06 41  -21.0287 26035.0 -03430.7 -07.5068 26260.1
 12 04 2013  06 42  -21.0287 26034.7 -03430.6 -07.5067 26259.7
 12 04 2013  06 43  -21.0288 26034.6 -03430.6 -07.5068 26259.7
 12 04 2013  06 44  -21.0289 26034.7 -03430.8 -07.5070 26259.8
 12 04 2013  06 45  -21.0288 26034.5 -03430.7 -07.5068 26259.5
 12 04 2013  06 46  -21.0282 26034.4 -03430.6 -07.5068 26259.4
 12 04 2013  06 47  -21.0273 26034.0 -03430.5 -07.5065 26259.0
 12 04 2013  06 48  -21.0271 26034.2 -03430.7 -07.5069 26259.3
 12 04 2013  06 49  -21.0273 26034.2 -03430.7 -07.5069 26259.2
 12 04 2013  06 50  -21.0278 26034.2 -03430.8 -07.5072 26259.3
 12 04 2013  06 51  -21.0281 26034.3 -03430.9 -07.5073 26259.4
 12 04 2013  06 52  -21.0284 26034.2 -03430.9 -07.5074 26259.3
 12 04 2013  06 53  -21.0285 26034.0 -03430.8 -07.5073 26259.1
 12 04 2013  06 54  -21.0288 26034.3 -03431.0 -07.5076 26259.5
 12 04 2013  06 55  -21.0292 26034.5 -03431.2 -07.5079 26259.6
 12 04 2013  06 56  -21.0295 26034.7 -03431.2 -07.5080 26259.8
 12 04 2013  06 57  -21.0301 26035.1 -03431.4 -07.5082 26260.2
 12 04 2013  06 58  -21.0305 26035.0 -03431.4 -07.5082 26260.2
 12 04 2013  06 59  -21.0309 26035.3 -03431.5 -07.5083 26260.5
 12 04 2013  07 00  -21.0313 26035.1 -03431.4 -07.5082 26260.3
 12 04 2013  07 01  -21.0312 26035.1 -03431.3 -07.5080 26260.2
 12 04 2013  07 02  -21.0311 26034.7 -03431.0 -07.5076 26259.9
 12 04 2013  07 03  -21.0311 26034.7 -03430.9 -07.5074 26259.8
 12 04 2013  07 04  -21.0313 26034.4 -03430.8 -07.5072 26259.5
 12 04 2013  07 05  -21.0310 26034.9 -03431.0 -07.5075 26260.0
 12 04 2013  07 06  -21.0305 26034.5 -03430.8 -07.5071 26259.5
 12 04 2013  07 07  -21.0302 26034.8 -03430.9 -07.5072 26259.9
 12 04 2013  07 08  -21.0307 26034.4 -03430.6 -07.5068 26259.5
 12 04 2013  07 09  -21.0309 26035.0 -03430.9 -07.5071 26260.1
 12 04 2013  07 10  -21.0314 26035.6 -03431.2 -07.5076 26260.7
 12 04 2013  07 11  -21.0309 26036.2 -03431.5 -07.5080 26261.4
 12 04 2013  07 12  -21.0305 26036.2 -03431.4 -07.5080 26261.4
 12 04 2013  07 13  -21.0303 26036.2 -03431.3 -07.5078 26261.3
 12 04 2013  07 14  -21.0293 26035.4 -03430.9 -07.5070 26260.5
 12 04 2013  07 15  -21.0288 26035.6 -03431.0 -07.5071 26260.7
 12 04 2013  07 16  -21.0281 26035.1 -03430.7 -07.5067 26260.2
 12 04 2013  07 17  -21.0287 26035.5 -03431.0 -07.5073 26260.6
 12 04 2013  07 18  -21.0288 26035.5 -03431.1 -07.5074 26260.6
 12 04 2013  07 19  -21.0291 26035.7 -03431.2 -07.5076 26260.8
 12 04 2013  07 20  -21.0290 26035.7 -03431.2 -07.5075 26260.8
 12 04 2013  07 21  -21.0291 26035.8 -03431.2 -07.5075 26260.9
 12 04 2013  07 22  -21.0288 26036.0 -03431.2 -07.5075 26261.1
 12 04 2013  07 23  -21.0287 26035.8 -03431.2 -07.5075 26260.9
 12 04 2013  07 24  -21.0285 26036.1 -03431.3 -07.5077 26261.2
 12 04 2013  07 25  -21.0285 26036.1 -03431.3 -07.5078 26261.3
 12 04 2013  07 26  -21.0284 26036.2 -03431.3 -07.5078 26261.4
 12 04 2013  07 27  -21.0284 26036.2 -03431.3 -07.5077 26261.3
 12 04 2013  07 28  -21.0285 26036.3 -03431.3 -07.5078 26261.4
 12 04 2013  07 29  -21.0284 26036.3 -03431.3 -07.5077 26261.4
 12 04 2013  07 30  -21.0282 26036.2 -03431.3 -07.5078 26261.4
 12 04 2013  07 31  -21.0281 26036.2 -03431.3 -07.5077 26261.3
 12 04 2013  07 32  -21.0281 26036.2 -03431.3 -07.5077 26261.4
 12 04 2013  07 33  -21.0280 26036.2 -03431.3 -07.5077 26261.4
 12 04 2013  07 34  -21.0278 26036.3 -03431.3 -07.5077 26261.5
 12 04 2013  07 35  -21.0274 26036.3 -03431.3 -07.5076 26261.4
 12 04 2013  07 36  -21.0269 26036.3 -03431.2 -07.5075 26261.4
 12 04 2013  07 37  -21.0266 26036.2 -03431.2 -07.5075 26261.3
 12 04 2013  07 38  -21.0263 26036.1 -03431.2 -07.5076 26261.2
 12 04 2013  07 39  -21.0262 26036.2 -03431.4 -07.5078 26261.4
 12 04 2013  07 40  -21.0260 26036.2 -03431.4 -07.5079 26261.3
 12 04 2013  07 41  -21.0261 26036.4 -03431.4 -07.5080 26261.5
 12 04 2013  07 42  -21.0263 26036.3 -03431.4 -07.5079 26261.4
 12 04 2013  07 43  -21.0267 26036.2 -03431.4 -07.5080 26261.4
 12 04 2013  07 44  -21.0271 26036.2 -03431.4 -07.5079 26261.4
 12 04 2013  07 45  -21.0273 26036.2 -03431.4 -07.5079 26261.4
 12 04 2013  07 46  -21.0274 26036.0 -03431.2 -07.5076 26261.1
 12 04 2013  07 47  -21.0276 26036.0 -03431.3 -07.5077 26261.2
 12 04 2013  07 48  -21.0278 26035.9 -03431.2 -07.5077 26261.1
 12 04 2013  07 49  -21.0280 26035.9 -03431.2 -07.5077 26261.1
 12 04 2013  07 50  -21.0283 26036.0 -03431.3 -07.5078 26261.1
 12 04 2013  07 51  -21.0283 26035.9 -03431.3 -07.5077 26261.1
 12 04 2013  07 52  -21.0283 26035.8 -03431.2 -07.5075 26260.9
 12 04 2013  07 53  -21.0282 26035.8 -03431.2 -07.5075 26260.9
 12 04 2013  07 54  -21.0281 26035.6 -03431.1 -07.5074 26260.8
 12 04 2013  07 55  -21.0280 26035.6 -03431.1 -07.5074 26260.7
 12 04 2013  07 56  -21.0279 26035.5 -03431.1 -07.5074 26260.6
 12 04 2013  07 57  -21.0280 26035.6 -03431.1 -07.5076 26260.7
 12 04 2013  07 58  -21.0279 26035.6 -03431.2 -07.5077 26260.7
 12 04 2013  07 59  -21.0280 26035.8 -03431.3 -07.5078 26260.9
 12 04 2013  08 00  -21.0280 26035.9 -03431.4 -07.5079 26261.0
 12 04 2013  08 01  -21.0280 26035.8 -03431.3 -07.5079 26260.9
 12 04 2013  08 02  -21.0280 26035.8 -03431.4 -07.5079 26261.0
 12 04 2013  08 03  -21.0281 26035.9 -03431.4 -07.5080 26261.0
 12 04 2013  08 04  -21.0283 26036.0 -03431.5 -07.5082 26261.2
 12 04 2013  08 05  -21.0289 26036.0 -03431.5 -07.5082 26261.1
 12 04 2013  08 06  -21.0293 26036.0 -03431.5 -07.5082 26261.1
 12 04 2013  08 07  -21.0284 26036.0 -03431.4 -07.5081 26261.2
 12 04 2013  08 08  -21.0278 26036.0 -03431.4 -07.5080 26261.2
 12 04 2013  08 09  -21.0277 26036.3 -03431.6 -07.5083 26261.5
 12 04 2013  08 10  -21.0277 26036.1 -03431.5 -07.5081 26261.3
 12 04 2013  08 11  -21.0279 26036.2 -03431.6 -07.5083 26261.4
 12 04 2013  08 12  -21.0282 26036.1 -03431.5 -07.5082 26261.2
 12 04 2013  08 13  -21.0279 26035.9 -03431.4 -07.5080 26261.0
 12 04 2013  08 14  -21.0274 26035.5 -03431.1 -07.5075 26260.6
 12 04 2013  08 15  -21.0273 26035.7 -03431.1 -07.5074 26260.8
 12 04 2013  08 16  -21.0273 26035.7 -03431.1 -07.5074 26260.8
 12 04 2013  08 17  -21.0274 26035.8 -03431.2 -07.5077 26261.0
 12 04 2013  08 18  -21.0274 26035.6 -03431.2 -07.5077 26260.8
 12 04 2013  08 19  -21.0274 26035.6 -03431.2 -07.5077 26260.8
 12 04 2013  08 20  -21.0275 26035.6 -03431.3 -07.5078 26260.8
 12 04 2013  08 21  -21.0275 26035.6 -03431.3 -07.5080 26260.7
 12 04 2013  08 22  -21.0274 26035.4 -03431.3 -07.5079 26260.6
 12 04 2013  08 23  -21.0276 26035.3 -03431.2 -07.5078 26260.5
 12 04 2013  08 24  -21.0277 26035.4 -03431.2 -07.5078 26260.5
 12 04 2013  08 25  -21.0279 26035.4 -03431.3 -07.5078 26260.5
 12 04 2013  08 26  -21.0283 26035.5 -03431.4 -07.5080 26260.7
 12 04 2013  08 27  -21.0283 26035.0 -03431.1 -07.5076 26260.1
 12 04 2013  08 28  -21.0282 26035.0 -03431.0 -07.5075 26260.1
 12 04 2013  08 29  -21.0277 26034.6 -03430.8 -07.5070 26259.7
 12 04 2013  08 30  -21.0274 26034.5 -03430.7 -07.5069 26259.6
 12 04 2013  08 31  -21.0273 26034.7 -03430.8 -07.5070 26259.8
 12 04 2013  08 32  -21.0274 26034.6 -03430.8 -07.5071 26259.7
 12 04 2013  08 33  -21.0277 26034.9 -03431.0 -07.5074 26260.0
 12 04 2013  08 34  -21.0278 26035.6 -03431.3 -07.5079 26260.7
 12 04 2013  08 35  -21.0276 26035.7 -03431.4 -07.5080 26260.8
 12 04 2013  08 36  -21.0272 26035.2 -03431.1 -07.5076 26260.3
 12 04 2013  08 37  -21.0267 26035.0 -03431.0 -07.5073 26260.1
 12 04 2013  08 38  -21.0261 26034.6 -03430.6 -07.5067 26259.6
 12 04 2013  08 39  -21.0256 26034.3 -03430.4 -07.5064 26259.3
 12 04 2013  08 40  -21.0251 26033.7 -03430.2 -07.5060 26258.7
 12 04 2013  08 41  -21.0249 26033.6 -03430.2 -07.5060 26258.6
 12 04 2013  08 42  -21.0246 26033.3 -03430.1 -07.5060 26258.3
 12 04 2013  08 43  -21.0243 26033.7 -03430.4 -07.5064 26258.8
 12 04 2013  08 44  -21.0238 26033.5 -03430.4 -07.5065 26258.6
 12 04 2013  08 45  -21.0236 26033.9 -03430.7 -07.5071 26259.0
 12 04 2013  08 46  -21.0235 26034.4 -03431.1 -07.5078 26259.5
 12 04 2013  08 47  -21.0234 26034.6 -03431.4 -07.5083 26259.8
 12 04 2013  08 48  -21.0231 26035.0 -03431.7 -07.5089 26260.2
 12 04 2013  08 49  -21.0225 26035.3 -03431.9 -07.5093 26260.6
 12 04 2013  08 50  -21.0220 26035.7 -03432.2 -07.5097 26261.0
 12 04 2013  08 51  -21.0215 26035.6 -03432.2 -07.5098 26260.8
 12 04 2013  08 52  -21.0212 26035.5 -03432.3 -07.5100 26260.8
 12 04 2013  08 53  -21.0210 26035.2 -03432.1 -07.5098 26260.4
 12 04 2013  08 54  -21.0209 26034.8 -03432.0 -07.5096 26260.1
 12 04 2013  08 55  -21.0207 26034.6 -03431.9 -07.5095 26259.9
 12 04 2013  08 56  -21.0204 26034.6 -03431.9 -07.5095 26259.8
 12 04 2013  08 57  -21.0206 26034.8 -03432.0 -07.5097 26260.0
 12 04 2013  08 58  -21.0203 26034.8 -03432.2 -07.5100 26260.1
 12 04 2013  08 59  -21.0201 26035.0 -03432.4 -07.5104 26260.3
 12 04 2013  09 00  -21.0198 26035.0 -03432.5 -07.5107 26260.3
 12 04 2013  09 01  -21.0197 26034.9 -03432.6 -07.5109 26260.2
 12 04 2013  09 02  -21.0193 26034.7 -03432.7 -07.5111 26260.1
 12 04 2013  09 03  -21.0194 26034.7 -03432.8 -07.5113 26260.0
 12 04 2013  09 04  -21.0197 26034.6 -03432.9 -07.5116 26259.9
 12 04 2013  09 05  -21.0205 26034.6 -03433.1 -07.5120 26260.0
 12 04 2013  09 06  -21.0206 26034.8 -03433.2 -07.5123 26260.2
 12 04 2013  09 07  -21.0205 26034.9 -03433.3 -07.5125 26260.3
 12 04 2013  09 08  -21.0204 26035.0 -03433.5 -07.5128 26260.4
 12 04 2013  09 09  -21.0203 26035.2 -03433.7 -07.5131 26260.6
 12 04 2013  09 10  -21.0200 26035.4 -03433.8 -07.5134 26260.8
 12 04 2013  09 11  -21.0200 26035.7 -03434.1 -07.5138 26261.2
 12 04 2013  09 12  -21.0197 26035.9 -03434.2 -07.5142 26261.4
 12 04 2013  09 13  -21.0195 26036.1 -03434.4 -07.5146 26261.6
 12 04 2013  09 14  -21.0193 26036.2 -03434.6 -07.5149 26261.8
 12 04 2013  09 15  -21.0194 26036.1 -03434.7 -07.5151 26261.7
 12 04 2013  09 16  -21.0195 26035.9 -03434.7 -07.5151 26261.5
 12 04 2013  09 17  -21.0192 26035.8 -03434.7 -07.5151 26261.4
 12 04 2013  09 18  -21.0192 26035.9 -03434.7 -07.5151 26261.5
 12 04 2013  09 19  -21.0189 26036.0 -03434.8 -07.5153 26261.6
 12 04 2013  09 20  -21.0188 26036.1 -03435.0 -07.5157 26261.7
 12 04 2013  09 21  -21.0187 26036.1 -03435.1 -07.5160 26261.7
 12 04 2013  09 22  -21.0188 26036.3 -03435.3 -07.5164 26262.0
 12 04 2013  09 23  -21.0194 26036.3 -03435.6 -07.5170 26262.0
 12 04 2013  09 24  -21.0194 26036.5 -03435.9 -07.5176 26262.2
 12 04 2013  09 25  -21.0196 26036.5 -03436.2 -07.5181 26262.3
 12 04 2013  09 26  -21.0197 26036.5 -03436.3 -07.5184 26262.3
 12 04 2013  09 27  -21.0196 26036.8 -03436.5 -07.5188 26262.6
 12 04 2013  09 28  -21.0199 26036.7 -03436.6 -07.5190 26262.5
 12 04 2013  09 29  -21.0200 26037.0 -03436.8 -07.5193 26262.9
 12 04 2013  09 30  -21.0200 26037.4 -03437.0 -07.5197 26263.3
 12 04 2013  09 31  -21.0196 26037.7 -03437.2 -07.5201 26263.6
 12 04 2013  09 32  -21.0198 26037.8 -03437.4 -07.5204 26263.7
 12 04 2013  09 33  -21.0200 26038.0 -03437.5 -07.5207 26263.9
 12 04 2013  09 34  -21.0201 26038.0 -03437.6 -07.5208 26264.0
 12 04 2013  09 35  -21.0203 26038.0 -03437.6 -07.5209 26263.9
 12 04 2013  09 36  -21.0207 26038.1 -03437.6 -07.5209 26264.0
 12 04 2013  09 37  -21.0211 26038.1 -03437.6 -07.5208 26264.0
 12 04 2013  09 38  -21.0213 26038.1 -03437.7 -07.5209 26264.1
 12 04 2013  09 39  -21.0214 26038.1 -03437.6 -07.5208 26264.1
 12 04 2013  09 40  -21.0220 26037.9 -03437.6 -07.5208 26263.8
 12 04 2013  09 41  -21.0225 26037.7 -03437.5 -07.5208 26263.7
 12 04 2013  09 42  -21.0231 26038.0 -03437.8 -07.5211 26264.0
 12 04 2013  09 43  -21.0241 26038.1 -03437.8 -07.5213 26264.0
 12 04 2013  09 44  -21.0250 26038.2 -03438.0 -07.5217 26264.2
 12 04 2013  09 45  -21.0256 26038.1 -03438.1 -07.5220 26264.1
 12 04 2013  09 46  -21.0261 26038.1 -03438.4 -07.5224 26264.2
 12 04 2013  09 47  -21.0268 26038.3 -03438.6 -07.5229 26264.4
 12 04 2013  09 48  -21.0271 26038.7 -03438.9 -07.5235 26264.9
 12 04 2013  09 49  -21.0272 26038.9 -03439.1 -07.5238 26265.0
 12 04 2013  09 50  -21.0271 26039.2 -03439.3 -07.5242 26265.4
 12 04 2013  09 51  -21.0270 26039.4 -03439.4 -07.5242 26265.6
 12 04 2013  09 52  -21.0269 26039.6 -03439.5 -07.5244 26265.8
 12 04 2013  09 53  -21.0270 26039.7 -03439.5 -07.5244 26265.9
 12 04 2013  09 54  -21.0272 26039.9 -03439.5 -07.5245 26266.0
 12 04 2013  09 55  -21.0272 26039.9 -03439.5 -07.5244 26266.1
 12 04 2013  09 56  -21.0281 26040.2 -03439.6 -07.5246 26266.4
 12 04 2013  09 57  -21.0290 26040.5 -03439.7 -07.5247 26266.7
 12 04 2013  09 58  -21.0297 26040.6 -03439.8 -07.5249 26266.8
 12 04 2013  09 59  -21.0302 26041.1 -03440.0 -07.5251 26267.3
 12 04 2013  10 00  -21.0311 26041.5 -03440.2 -07.5255 26267.7
 12 04 2013  10 01  -21.0318 26041.8 -03440.4 -07.5259 26268.1
 12 04 2013  10 02  -21.0324 26042.1 -03440.6 -07.5261 26268.4
 12 04 2013  10 03  -21.0331 26042.4 -03440.6 -07.5261 26268.7
 12 04 2013  10 04  -21.0338 26042.6 -03440.6 -07.5261 26268.9
 12 04 2013  10 05  -21.0346 26042.8 -03440.6 -07.5260 26269.1
 12 04 2013  10 06  -21.0353 26043.0 -03440.6 -07.5260 26269.3
 12 04 2013  10 07  -21.0357 26043.3 -03440.6 -07.5259 26269.6
 12 04 2013  10 08  -21.0359 26043.5 -03440.6 -07.5258 26269.7
 12 04 2013  10 09  -21.0362 26043.2 -03440.4 -07.5255 26269.5
 12 04 2013  10 10  -21.0365 26043.3 -03440.4 -07.5254 26269.6
 12 04 2013  10 11  -21.0376 26043.7 -03440.6 -07.5256 26270.0
 12 04 2013  10 12  -21.0386 26044.4 -03440.8 -07.5260 26270.7
 12 04 2013  10 13  -21.0393 26044.9 -03441.0 -07.5262 26271.2
 12 04 2013  10 14  -21.0402 26044.8 -03440.9 -07.5260 26271.1
 12 04 2013  10 15  -21.0409 26044.9 -03440.9 -07.5259 26271.2
 12 04 2013  10 16  -21.0414 26045.3 -03441.0 -07.5260 26271.6
 12 04 2013  10 17  -21.0425 26045.6 -03441.1 -07.5262 26271.9
 12 04 2013  10 18  -21.0437 26045.9 -03441.2 -07.5262 26272.2
 12 04 2013  10 19  -21.0446 26046.1 -03441.2 -07.5263 26272.4
 12 04 2013  10 20  -21.0452 26046.3 -03441.2 -07.5263 26272.6
 12 04 2013  10 21  -21.0459 26046.4 -03441.3 -07.5263 26272.8
 12 04 2013  10 22  -21.0464 26046.6 -03441.3 -07.5263 26273.0
 12 04 2013  10 23  -21.0470 26046.8 -03441.2 -07.5261 26273.1
 12 04 2013  10 24  -21.0477 26047.1 -03441.2 -07.5261 26273.4
 12 04 2013  10 25  -21.0486 26047.6 -03441.3 -07.5260 26273.9
 12 04 2013  10 26  -21.0496 26047.9 -03441.2 -07.5258 26274.2
 12 04 2013  10 27  -21.0504 26048.1 -03441.2 -07.5257 26274.4
 12 04 2013  10 28  -21.0510 26048.2 -03441.1 -07.5255 26274.5
 12 04 2013  10 29  -21.0517 26048.4 -03441.1 -07.5254 26274.7
 12 04 2013  10 30  -21.0527 26048.4 -03441.1 -07.5253 26274.7
 12 04 2013  10 31  -21.0540 26048.8 -03441.2 -07.5255 26275.1
 12 04 2013  10 32  -21.0545 26049.1 -03441.2 -07.5255 26275.4
 12 04 2013  10 33  -21.0552 26049.5 -03441.3 -07.5255 26275.8
 12 04 2013  10 34  -21.0561 26050.0 -03441.3 -07.5254 26276.3
 12 04 2013  10 35  -21.0570 26050.4 -03441.2 -07.5252 26276.7
 12 04 2013  10 36  -21.0579 26050.7 -03441.2 -07.5249 26277.0
 12 04 2013  10 37  -21.0589 26051.1 -03441.1 -07.5246 26277.4
 12 04 2013  10 38  -21.0594 26051.6 -03441.0 -07.5244 26277.9
 12 04 2013  10 39  -21.0602 26051.8 -03440.9 -07.5239 26278.0
 12 04 2013  10 40  -21.0610 26052.0 -03440.8 -07.5236 26278.3
 12 04 2013  10 41  -21.0619 26052.2 -03440.6 -07.5234 26278.4
 12 04 2013  10 42  -21.0624 26052.3 -03440.5 -07.5231 26278.5
 12 04 2013  10 43  -21.0626 26052.8 -03440.6 -07.5230 26279.0
 12 04 2013  10 44  -21.0625 26053.0 -03440.6 -07.5229 26279.2
 12 04 2013  10 45  -21.0621 26053.3 -03440.5 -07.5227 26279.5
 12 04 2013  10 46  -21.0625 26053.2 -03440.3 -07.5224 26279.4
 12 04 2013  10 47  -21.0624 26053.9 -03440.5 -07.5226 26280.0
 12 04 2013  10 48  -21.0630 26054.4 -03440.6 -07.5227 26280.6
 12 04 2013  10 49  -21.0638 26054.8 -03440.6 -07.5224 26281.0
 12 04 2013  10 50  -21.0644 26055.5 -03440.6 -07.5223 26281.7
 12 04 2013  10 51  -21.0647 26056.1 -03440.5 -07.5219 26282.2
 12 04 2013  10 52  -21.0653 26056.2 -03440.3 -07.5214 26282.3
 12 04 2013  10 53  -21.0657 26056.5 -03440.2 -07.5211 26282.6
 12 04 2013  10 54  -21.0669 26056.5 -03440.0 -07.5208 26282.6
 12 04 2013  10 55  -21.0686 26056.8 -03440.1 -07.5208 26282.9
 12 04 2013  10 56  -21.0698 26057.1 -03440.1 -07.5207 26283.2
 12 04 2013  10 57  -21.0701 26057.7 -03440.1 -07.5206 26283.8
 12 04 2013  10 58  -21.0699 26058.4 -03440.1 -07.5203 26284.5
 12 04 2013  10 59  -21.0698 26058.9 -03440.0 -07.5200 26285.0
 12 04 2013  11 00  -21.0696 26059.0 -03439.8 -07.5196 26285.0
 12 04 2013  11 01  -21.0701 26059.0 -03439.7 -07.5193 26285.0
 12 04 2013  11 02  -21.0710 26058.7 -03439.5 -07.5189 26284.7
 12 04 2013  11 03  -21.0720 26059.5 -03439.6 -07.5191 26285.5
 12 04 2013  11 04  -21.0722 26060.3 -03439.8 -07.5191 26286.3
 12 04 2013  11 05  -21.0716 26060.6 -03439.6 -07.5188 26286.6
 12 04 2013  11 06  -21.0712 26060.8 -03439.5 -07.5185 26286.8
 12 04 2013  11 07  -21.0714 26061.1 -03439.5 -07.5184 26287.1
 12 04 2013  11 08  -21.0717 26061.4 -03439.6 -07.5184 26287.4
 12 04 2013  11 09  -21.0721 26061.9 -03439.7 -07.5185 26287.9
 12 04 2013  11 10  -21.0722 26062.8 -03440.0 -07.5189 26288.8
 12 04 2013  11 11  -21.0724 26063.9 -03440.3 -07.5192 26290.0
 12 04 2013  11 12  -21.0724 26064.5 -03440.2 -07.5190 26290.6
 12 04 2013  11 13  -21.0722 26065.7 -03440.4 -07.5189 26291.8
 12 04 2013  11 14  -21.0719 26066.7 -03440.5 -07.5188 26292.8
 12 04 2013  11 15  -21.0723 26066.2 -03439.9 -07.5178 26292.2
 12 04 2013  11 16  -21.0728 26066.7 -03439.9 -07.5176 26292.7
 12 04 2013  11 17  -21.0736 26067.3 -03440.1 -07.5178 26293.3
 12 04 2013  11 18  -21.0741 26066.8 -03439.7 -07.5171 26292.8
 12 04 2013  11 19  -21.0746 26067.9 -03440.0 -07.5174 26293.9
 12 04 2013  11 20  -21.0751 26068.3 -03440.0 -07.5173 26294.2
 12 04 2013  11 21  -21.0753 26068.6 -03439.9 -07.5171 26294.6
 12 04 2013  11 22  -21.0756 26069.3 -03440.0 -07.5171 26295.3
 12 04 2013  11 23  -21.0759 26069.5 -03439.9 -07.5169 26295.5
 12 04 2013  11 24  -21.0760 26070.3 -03440.1 -07.5170 26296.3
 12 04 2013  11 25  -21.0760 26070.8 -03440.1 -07.5169 26296.8
 12 04 2013  11 26  -21.0759 26070.9 -03440.0 -07.5166 26296.8
 12 04 2013  11 27  -21.0762 26071.2 -03440.0 -07.5165 26297.2
 12 04 2013  11 28  -21.0765 26071.5 -03440.0 -07.5164 26297.5
 12 04 2013  11 29  -21.0771 26071.8 -03439.9 -07.5162 26297.7
 12 04 2013  11 30  -21.0776 26072.1 -03439.9 -07.5161 26298.1
 12 04 2013  11 31  -21.0780 26072.6 -03440.0 -07.5161 26298.6
 12 04 2013  11 32  -21.0782 26073.0 -03440.0 -07.5159 26299.0
 12 04 2013  11 33  -21.0785 26073.6 -03440.0 -07.5159 26299.6
 12 04 2013  11 34  -21.0793 26074.1 -03440.1 -07.5159 26300.1
 12 04 2013  11 35  -21.0797 26075.1 -03440.2 -07.5159 26301.0
 12 04 2013  11 36  -21.0800 26075.5 -03440.1 -07.5156 26301.4
 12 04 2013  11 37  -21.0799 26076.1 -03440.1 -07.5153 26302.0
 12 04 2013  11 38  -21.0799 26076.4 -03440.0 -07.5150 26302.3
 12 04 2013  11 39  -21.0799 26076.6 -03439.8 -07.5145 26302.5
 12 04 2013  11 40  -21.0799 26077.5 -03439.9 -07.5145 26303.4
 12 04 2013  11 41  -21.0801 26077.6 -03439.6 -07.5139 26303.5
 12 04 2013  11 42  -21.0802 26077.9 -03439.5 -07.5135 26303.7
 12 04 2013  11 43  -21.0804 26077.9 -03439.3 -07.5131 26303.7
 12 04 2013  11 44  -21.0808 26078.6 -03439.4 -07.5131 26304.4
 12 04 2013  11 45  -21.0811 26078.8 -03439.4 -07.5130 26304.6
 12 04 2013  11 46  -21.0808 26079.2 -03439.3 -07.5128 26305.0
 12 04 2013  11 47  -21.0808 26080.3 -03439.6 -07.5131 26306.1
 12 04 2013  11 48  -21.0810 26080.7 -03439.6 -07.5129 26306.6
 12 04 2013  11 49  -21.0810 26081.1 -03439.5 -07.5125 26307.0
 12 04 2013  11 50  -21.0811 26081.7 -03439.5 -07.5124 26307.5
 12 04 2013  11 51  -21.0813 26081.7 -03439.3 -07.5119 26307.5
 12 04 2013  11 52  -21.0815 26082.1 -03439.2 -07.5117 26307.9
 12 04 2013  11 53  -21.0817 26082.3 -03439.1 -07.5114 26308.1
 12 04 2013  11 54  -21.0820 26082.5 -03439.0 -07.5112 26308.3
 12 04 2013  11 55  -21.0824 26082.9 -03439.0 -07.5110 26308.6
 12 04 2013  11 56  -21.0827 26083.3 -03439.0 -07.5109 26309.1
 12 04 2013  11 57  -21.0826 26083.8 -03438.9 -07.5106 26309.5
 12 04 2013  11 58  -21.0827 26084.1 -03438.9 -07.5104 26309.8
 12 04 2013  11 59  -21.0828 26084.7 -03438.9 -07.5102 26310.4
 12 04 2013  12 00  -21.0829 26085.1 -03438.8 -07.5099 26310.8
 12 04 2013  12 01  -21.0827 26085.8 -03438.7 -07.5097 26311.4
 12 04 2013  12 02  -21.0826 26086.6 -03438.8 -07.5095 26312.3
 12 04 2013  12 03  -21.0821 26087.1 -03438.7 -07.5091 26312.8
 12 04 2013  12 04  -21.0817 26088.0 -03438.7 -07.5089 26313.6
 12 04 2013  12 05  -21.0812 26088.5 -03438.5 -07.5085 26314.1
 12 04 2013  12 06  -21.0810 26089.0 -03438.4 -07.5080 26314.6
 12 04 2013  12 07  -21.0810 26089.4 -03438.3 -07.5076 26315.0
 12 04 2013  12 08  -21.0804 26089.5 -03437.9 -07.5069 26315.0
 12 04 2013  12 09  -21.0803 26090.1 -03437.9 -07.5067 26315.7
 12 04 2013  12 10  -21.0803 26090.5 -03437.8 -07.5063 26316.0
 12 04 2013  12 11  -21.0802 26090.7 -03437.6 -07.5058 26316.2
 12 04 2013  12 12  -21.0800 26091.1 -03437.5 -07.5054 26316.6
 12 04 2013  12 13  -21.0798 26091.9 -03437.5 -07.5053 26317.3
 12 04 2013  12 14  -21.0792 26092.3 -03437.4 -07.5049 26317.8
 12 04 2013  12 15  -21.0790 26092.8 -03437.3 -07.5045 26318.3
 12 04 2013  12 16  -21.0784 26093.3 -03437.2 -07.5042 26318.8
 12 04 2013  12 17  -21.0783 26094.0 -03437.1 -07.5038 26319.3
 12 04 2013  12 18  -21.0776 26094.3 -03436.8 -07.5031 26319.6
 12 04 2013  12 19  -21.0780 26095.6 -03437.1 -07.5032 26321.0
 12 04 2013  12 20  -21.0777 26096.5 -03436.9 -07.5027 26321.8
 12 04 2013  12 21  -21.0773 26096.9 -03436.6 -07.5019 26322.2
 12 04 2013  12 22  -21.0765 26096.9 -03436.1 -07.5008 26322.1
 12 04 2013  12 23  -21.0759 26096.4 -03435.6 -07.4999 26321.5
 12 04 2013  12 24  -21.0754 26096.2 -03435.3 -07.4993 26321.3
 12 04 2013  12 25  -21.0753 26096.2 -03435.2 -07.4990 26321.3
 12 04 2013  12 26  -21.0757 26096.5 -03435.2 -07.4989 26321.6
 12 04 2013  12 27  -21.0761 26096.8 -03435.1 -07.4987 26321.9
 12 04 2013  12 34  -21.0742 26101.1 -03434.5 -07.4962 26326.1
 12 04 2013  12 35  -21.0739 26101.3 -03434.3 -07.4957 26326.2
 12 04 2013  12 36  -21.0729 26101.0 -03433.9 -07.4949 26325.9
 12 04 2013  12 37  -21.0720 26100.5 -03433.5 -07.4943 26325.4
 12 04 2013  12 38  -21.0711 26099.6 -03433.1 -07.4935 26324.4
 12 04 2013  12 39  -21.0704 26099.8 -03433.5 -07.4944 26324.6
 12 04 2013  12 40  -21.0694 26100.3 -03433.5 -07.4942 26325.1
 12 04 2013  12 41  -21.0682 26100.2 -03433.3 -07.4939 26325.0
 12 04 2013  12 42  -21.0678 26101.6 -03433.7 -07.4944 26326.5
 12 04 2013  12 43  -21.0672 26102.6 -03433.8 -07.4941 26327.5
 12 04 2013  12 44  -21.0663 26102.9 -03433.4 -07.4933 26327.7
 12 04 2013  12 45  -21.0657 26103.2 -03433.1 -07.4926 26328.0
 12 04 2013  12 46  -21.0653 26103.5 -03432.9 -07.4919 26328.3
 12 04 2013  12 47  -21.0651 26103.5 -03432.5 -07.4911 26328.2
 12 04 2013  12 48  -21.0646 26102.7 -03432.0 -07.4903 26327.4
 12 04 2013  12 49  -21.0646 26102.7 -03431.9 -07.4902 26327.3
 12 04 2013  12 50  -21.0644 26103.0 -03432.0 -07.4901 26327.6
 12 04 2013  12 51  -21.0640 26103.7 -03432.1 -07.4903 26328.4
 12 04 2013  12 52  -21.0624 26104.9 -03432.2 -07.4902 26329.5
 12 04 2013  12 53  -21.0608 26106.3 -03432.4 -07.4902 26331.0
 12 04 2013  12 54  -21.0595 26107.4 -03432.4 -07.4898 26332.1
 12 04 2013  12 55  -21.0588 26108.6 -03432.4 -07.4895 26333.3
 12 04 2013  12 56  -21.0582 26109.3 -03432.1 -07.4887 26333.9
 12 04 2013  12 57  -21.0576 26109.5 -03431.7 -07.4878 26334.1
 12 04 2013  12 58  -21.0579 26109.7 -03431.4 -07.4870 26334.2
 12 04 2013  12 59  -21.0584 26110.2 -03431.2 -07.4864 26334.6
 12 04 2013  13 00  -21.0583 26110.7 -03430.9 -07.4857 26335.2
 12 04 2013  13 01  -21.0581 26111.5 -03430.8 -07.4852 26336.0
 12 04 2013  13 02  -21.0577 26112.4 -03430.6 -07.4846 26336.8
 12 04 2013  13 03  -21.0573 26112.7 -03430.2 -07.4835 26337.0
 12 04 2013  13 04  -21.0567 26113.2 -03429.8 -07.4826 26337.5
 12 04 2013  13 05  -21.0561 26113.8 -03429.5 -07.4817 26338.0
 12 04 2013  13 06  -21.0551 26113.5 -03428.8 -07.4803 26337.6
 12 04 2013  13 07  -21.0545 26112.9 -03428.1 -07.4790 26337.0
 12 04 2013  13 08  -21.0543 26112.6 -03427.7 -07.4782 26336.6
 12 04 2013  13 09  -21.0538 26112.7 -03427.4 -07.4775 26336.7
 12 04 2013  13 10  -21.0539 26113.3 -03427.4 -07.4773 26337.3
 12 04 2013  13 11  -21.0533 26113.2 -03426.9 -07.4763 26337.1
 12 04 2013  13 12  -21.0528 26113.0 -03426.5 -07.4756 26336.8
 12 04 2013  13 13  -21.0523 26112.7 -03426.1 -07.4748 26336.5
 12 04 2013  13 14  -21.0516 26112.6 -03425.8 -07.4741 26336.4
 12 04 2013  13 15  -21.0511 26112.2 -03425.4 -07.4734 26335.9
 12 04 2013  13 16  -21.0500 26111.8 -03425.0 -07.4727 26335.5
 12 04 2013  13 17  -21.0499 26111.4 -03424.8 -07.4723 26335.1
 12 04 2013  13 18  -21.0489 26110.7 -03424.3 -07.4715 26334.3
 12 04 2013  13 19  -21.0481 26109.9 -03424.0 -07.4709 26333.5
 12 04 2013  13 20  -21.0474 26109.5 -03423.8 -07.4707 26333.1
 12 04 2013  13 21  -21.0471 26110.1 -03424.0 -07.4710 26333.6
 12 04 2013  13 22  -21.0465 26109.6 -03423.7 -07.4704 26333.1
 12 04 2013  13 23  -21.0452 26108.8 -03423.3 -07.4698 26332.3
 12 04 2013  13 24  -21.0440 26108.7 -03423.2 -07.4697 26332.1
 12 04 2013  13 25  -21.0429 26108.6 -03423.2 -07.4697 26332.1
 12 04 2013  13 26  -21.0418 26108.7 -03423.2 -07.4697 26332.1
 12 04 2013  13 27  -21.0405 26109.3 -03423.4 -07.4700 26332.8
 12 04 2013  13 28  -21.0395 26109.9 -03423.5 -07.4699 26333.4
 12 04 2013  13 29  -21.0381 26110.4 -03423.5 -07.4697 26333.9
 12 04 2013  13 30  -21.0379 26110.8 -03423.4 -07.4695 26334.3
 12 04 2013  13 31  -21.0374 26110.9 -03423.1 -07.4688 26334.3
 12 04 2013  13 32  -21.0367 26110.4 -03422.7 -07.4680 26333.8
 12 04 2013  13 33  -21.0368 26110.9 -03422.7 -07.4679 26334.3
 12 04 2013  13 34  -21.0359 26110.9 -03422.4 -07.4674 26334.3
 12 04 2013  13 35  -21.0358 26111.3 -03422.4 -07.4672 26334.6
 12 04 2013  13 36  -21.0350 26111.5 -03422.3 -07.4668 26334.9
 12 04 2013  13 37  -21.0345 26111.7 -03422.1 -07.4665 26335.0
 12 04 2013  13 38  -21.0340 26112.1 -03422.0 -07.4661 26335.3
 12 04 2013  13 39  -21.0333 26112.3 -03421.8 -07.4656 26335.5
 12 04 2013  13 40  -21.0332 26112.3 -03421.6 -07.4651 26335.5
 12 04 2013  13 41  -21.0327 26112.4 -03421.4 -07.4646 26335.6
 12 04 2013  13 42  -21.0329 26112.2 -03421.1 -07.4641 26335.3
 12 04 2013  13 43  -21.0327 26111.5 -03420.6 -07.4633 26334.6
 12 04 2013  13 44  -21.0316 26110.9 -03420.2 -07.4625 26333.9
 12 04 2013  13 45  -21.0306 26110.9 -03420.1 -07.4624 26334.0
 12 04 2013  13 46  -21.0308 26110.7 -03420.1 -07.4623 26333.7
 12 04 2013  13 47  -21.0306 26110.7 -03420.1 -07.4623 26333.8
 12 04 2013  13 48  -21.0317 26110.6 -03420.0 -07.4623 26333.6
 12 04 2013  13 49  -21.0311 26110.0 -03419.8 -07.4620 26333.0
 12 04 2013  13 50  -21.0313 26110.7 -03420.1 -07.4624 26333.7
 12 04 2013  13 51  -21.0314 26110.5 -03419.9 -07.4621 26333.5
 12 04 2013  13 52  -21.0306 26110.0 -03419.6 -07.4615 26333.0
 12 04 2013  13 53  -21.0298 26110.0 -03419.6 -07.4614 26333.0
 12 04 2013  13 54  -21.0308 26109.7 -03419.5 -07.4613 26332.6
 12 04 2013  13 55  -21.0318 26109.8 -03419.6 -07.4615 26332.8
 12 04 2013  13 56  -21.0316 26109.8 -03419.6 -07.4615 26332.8
 12 04 2013  13 57  -21.0306 26110.6 -03419.7 -07.4615 26333.6
 12 04 2013  13 58  -21.0289 26110.4 -03419.4 -07.4608 26333.4
 12 04 2013  13 59  -21.0297 26110.3 -03419.2 -07.4606 26333.2
 12 04 2013  14 00  -21.0317 26110.5 -03419.3 -07.4606 26333.5
 12 04 2013  14 01  -21.0323 26110.5 -03419.2 -07.4605 26333.4
 12 04 2013  14 02  -21.0308 26110.8 -03419.1 -07.4602 26333.7
 12 04 2013  14 03  -21.0305 26111.0 -03419.1 -07.4602 26333.9
 12 04 2013  14 04  -21.0305 26110.4 -03418.6 -07.4592 26333.3
 12 04 2013  14 05  -21.0306 26110.3 -03418.4 -07.4589 26333.1
 12 04 2013  14 06  -21.0304 26110.4 -03418.4 -07.4587 26333.3
 12 04 2013  14 07  -21.0293 26109.4 -03417.8 -07.4578 26332.2
 12 04 2013  14 08  -21.0289 26109.5 -03417.9 -07.4579 26332.3
 12 04 2013  14 09  -21.0288 26109.1 -03417.7 -07.4575 26331.8
 12 04 2013  14 10  -21.0280 26108.9 -03417.5 -07.4573 26331.6
 12 04 2013  14 11  -21.0271 26109.8 -03417.8 -07.4576 26332.5
 12 04 2013  14 12  -21.0273 26109.3 -03417.5 -07.4571 26332.0
 12 04 2013  14 13  -21.0268 26109.7 -03417.6 -07.4572 26332.4
 12 04 2013  14 14  -21.0265 26108.7 -03417.2 -07.4566 26331.4
 12 04 2013  14 15  -21.0261 26109.6 -03417.5 -07.4572 26332.3
 12 04 2013  14 16  -21.0261 26110.0 -03417.7 -07.4573 26332.8
 12 04 2013  14 17  -21.0260 26109.8 -03417.4 -07.4569 26332.5
 12 04 2013  14 19  -21.0255 26110.5 -03417.5 -07.4569 26333.2
 12 04 2013  14 20  -21.0246 26110.1 -03417.2 -07.4563 26332.8
 12 04 2013  14 21  -21.0258 26111.5 -03417.8 -07.4571 26334.2
 12 04 2013  14 22  -21.0244 26110.7 -03417.1 -07.4559 26333.3
 12 04 2013  14 23  -21.0247 26111.4 -03417.4 -07.4563 26334.0
 12 04 2013  14 24  -21.0248 26112.1 -03417.5 -07.4563 26334.8
 12 04 2013  14 25  -21.0241 26111.2 -03416.9 -07.4552 26333.8
 12 04 2013  14 26  -21.0238 26111.5 -03416.9 -07.4553 26334.2
 12 04 2013  14 27  -21.0231 26111.3 -03416.7 -07.4549 26333.9
 12 04 2013  14 28  -21.0227 26110.9 -03416.5 -07.4546 26333.4
 12 04 2013  14 29  -21.0223 26111.4 -03416.7 -07.4549 26334.0
 12 04 2013  14 30  -21.0216 26111.2 -03416.5 -07.4546 26333.8
 12 04 2013  14 31  -21.0215 26112.2 -03417.0 -07.4553 26334.9
 12 04 2013  14 32  -21.0209 26111.6 -03416.6 -07.4547 26334.2
 12 04 2013  14 33  -21.0211 26112.3 -03416.9 -07.4550 26334.9
 12 04 2013  14 34  -21.0218 26112.9 -03417.0 -07.4551 26335.5
 12 04 2013  14 35  -21.0221 26112.9 -03416.9 -07.4548 26335.5
 12 04 2013  14 36  -21.0218 26112.9 -03416.6 -07.4543 26335.5
 12 04 2013  14 37  -21.0220 26113.3 -03416.6 -07.4541 26335.9
 12 04 2013  14 38  -21.0211 26112.5 -03416.0 -07.4530 26335.0
 12 04 2013  14 39  -21.0206 26112.7 -03416.0 -07.4529 26335.1
 12 04 2013  14 40  -21.0207 26112.5 -03415.9 -07.4528 26335.0
 12 04 2013  14 41  -21.0203 26111.9 -03415.6 -07.4522 26334.4
 12 04 2013  14 42  -21.0202 26111.3 -03415.3 -07.4520 26333.7
 12 04 2013  14 43  -21.0202 26111.3 -03415.4 -07.4522 26333.7
 12 04 2013  14 44  -21.0200 26110.8 -03415.3 -07.4520 26333.3
 12 04 2013  14 45  -21.0202 26110.7 -03415.4 -07.4521 26333.2
 12 04 2013  14 46  -21.0202 26110.8 -03415.4 -07.4523 26333.2
 12 04 2013  14 47  -21.0203 26110.9 -03415.5 -07.4523 26333.4
 12 04 2013  14 48  -21.0204 26111.0 -03415.5 -07.4523 26333.4
 12 04 2013  14 49  -21.0204 26111.0 -03415.5 -07.4523 26333.4
 12 04 2013  14 50  -21.0202 26110.7 -03415.3 -07.4519 26333.1
 12 04 2013  14 51  -21.0205 26110.6 -03415.2 -07.4519 26333.0
 12 04 2013  14 52  -21.0202 26110.0 -03414.9 -07.4514 26332.4
 12 04 2013  14 53  -21.0203 26109.6 -03414.8 -07.4513 26332.0
 12 04 2013  14 54  -21.0200 26109.2 -03414.7 -07.4511 26331.5
 12 04 2013  14 55  -21.0207 26109.3 -03414.8 -07.4514 26331.6
 12 04 2013  14 56  -21.0204 26108.8 -03414.6 -07.4511 26331.1
 12 04 2013  14 57  -21.0201 26108.1 -03414.5 -07.4509 26330.4
 12 04 2013  14 58  -21.0201 26108.4 -03414.7 -07.4514 26330.7
 12 04 2013  14 59  -21.0201 26108.0 -03414.6 -07.4513 26330.3
 12 04 2013  15 00  -21.0197 26107.7 -03414.6 -07.4513 26330.0
 12 04 2013  15 01  -21.0197 26107.8 -03414.7 -07.4516 26330.2
 12 04 2013  15 02  -21.0201 26107.7 -03414.8 -07.4517 26330.1
 12 04 2013  15 03  -21.0200 26107.3 -03414.6 -07.4515 26329.7
 12 04 2013  15 04  -21.0203 26107.3 -03414.7 -07.4516 26329.7
 12 04 2013  15 05  -21.0203 26107.0 -03414.6 -07.4515 26329.3
 12 04 2013  15 06  -21.0203 26107.0 -03414.6 -07.4516 26329.3
 12 04 2013  15 07  -21.0205 26107.0 -03414.7 -07.4517 26329.3
 12 04 2013  15 08  -21.0208 26106.9 -03414.6 -07.4516 26329.3
 12 04 2013  15 09  -21.0202 26106.3 -03414.3 -07.4511 26328.6
 12 04 2013  15 10  -21.0205 26106.6 -03414.5 -07.4515 26328.9
 12 04 2013  15 11  -21.0208 26106.4 -03414.5 -07.4514 26328.7
 12 04 2013  15 12  -21.0210 26106.0 -03414.3 -07.4512 26328.3
 12 04 2013  15 13  -21.0211 26106.0 -03414.4 -07.4513 26328.3
 12 04 2013  15 14  -21.0204 26105.0 -03414.0 -07.4509 26327.3
 12 04 2013  15 15  -21.0206 26105.3 -03414.4 -07.4515 26327.6
 12 04 2013  15 16  -21.0209 26105.3 -03414.5 -07.4517 26327.6
 12 04 2013  15 17  -21.0212 26105.5 -03414.6 -07.4520 26327.8
 12 04 2013  15 18  -21.0218 26105.6 -03414.7 -07.4522 26328.0
 12 04 2013  15 19  -21.0216 26105.2 -03414.6 -07.4521 26327.5
 12 04 2013  15 20  -21.0216 26105.0 -03414.7 -07.4524 26327.4
 12 04 2013  15 21  -21.0219 26104.8 -03414.8 -07.4527 26327.2
 12 04 2013  15 22  -21.0218 26104.3 -03414.8 -07.4527 26326.7
 12 04 2013  15 23  -21.0220 26103.8 -03414.9 -07.4530 26326.2
 12 04 2013  15 24  -21.0223 26103.5 -03415.0 -07.4535 26325.9
 12 04 2013  15 25  -21.0230 26103.2 -03415.2 -07.4540 26325.7
 12 04 2013  15 26  -21.0232 26102.8 -03415.3 -07.4543 26325.3
 12 04 2013  15 27  -21.0236 26102.7 -03415.5 -07.4547 26325.2
 12 04 2013  15 28  -21.0239 26102.6 -03415.7 -07.4552 26325.1
 12 04 2013  15 29  -21.0242 26102.2 -03415.8 -07.4555 26324.8
 12 04 2013  15 30  -21.0244 26101.9 -03415.8 -07.4557 26324.4
 12 04 2013  15 31  -21.0245 26101.5 -03415.9 -07.4559 26324.1
 12 04 2013  15 32  -21.0245 26101.2 -03416.0 -07.4561 26323.7
 12 04 2013  15 33  -21.0245 26100.8 -03416.1 -07.4564 26323.4
 12 04 2013  15 34  -21.0248 26100.5 -03416.2 -07.4568 26323.1
 12 04 2013  15 35  -21.0251 26100.3 -03416.3 -07.4572 26322.9
 12 04 2013  15 36  -21.0257 26100.4 -03416.6 -07.4577 26323.1
 12 04 2013  15 37  -21.0265 26100.3 -03416.7 -07.4580 26323.0
 12 04 2013  15 38  -21.0272 26100.3 -03416.8 -07.4582 26323.0
 12 04 2013  15 39  -21.0280 26100.2 -03416.9 -07.4584 26322.9
 12 04 2013  15 40  -21.0286 26099.6 -03416.7 -07.4582 26322.3
 12 04 2013  15 41  -21.0293 26099.2 -03416.7 -07.4583 26321.9
 12 04 2013  15 42  -21.0299 26098.8 -03416.7 -07.4585 26321.5
 12 04 2013  15 43  -21.0308 26098.6 -03416.8 -07.4587 26321.3
 12 04 2013  15 44  -21.0317 26098.2 -03416.8 -07.4587 26320.9
 12 04 2013  15 45  -21.0325 26097.7 -03416.7 -07.4586 26320.4
 12 04 2013  15 46  -21.0335 26097.5 -03416.7 -07.4589 26320.2
 12 04 2013  15 47  -21.0346 26096.8 -03416.6 -07.4587 26319.5
 12 04 2013  15 48  -21.0350 26095.5 -03416.2 -07.4582 26318.2
 12 04 2013  15 49  -21.0358 26095.4 -03416.4 -07.4587 26318.1
 12 04 2013  15 50  -21.0365 26095.3 -03416.5 -07.4589 26318.0
 12 04 2013  15 51  -21.0373 26093.8 -03416.1 -07.4584 26316.5
 12 04 2013  15 52  -21.0381 26093.5 -03416.1 -07.4586 26316.2
 12 04 2013  15 53  -21.0395 26093.4 -03416.2 -07.4589 26316.0
 12 04 2013  15 54  -21.0404 26092.5 -03416.0 -07.4586 26315.2
 12 04 2013  15 55  -21.0409 26092.0 -03415.9 -07.4585 26314.6
 12 04 2013  15 56  -21.0418 26091.9 -03416.0 -07.4588 26314.6
 12 04 2013  15 57  -21.0424 26091.0 -03415.7 -07.4585 26313.6
 12 04 2013  15 58  -21.0428 26090.1 -03415.5 -07.4583 26312.7
 12 04 2013  15 59  -21.0433 26089.9 -03415.6 -07.4586 26312.5
 12 04 2013  16 00  -21.0438 26089.4 -03415.6 -07.4586 26312.1
 12 04 2013  16 01  -21.0444 26089.5 -03415.7 -07.4589 26312.2
 12 04 2013  16 02  -21.0455 26089.1 -03415.7 -07.4589 26311.7
 12 04 2013  16 03  -21.0459 26089.1 -03415.7 -07.4589 26311.8
 12 04 2013  16 04  -21.0472 26089.3 -03415.8 -07.4591 26312.0
 12 04 2013  16 05  -21.0479 26089.1 -03415.6 -07.4587 26311.8
 12 04 2013  16 06  -21.0487 26088.8 -03415.4 -07.4584 26311.4
 12 04 2013  16 07  -21.0496 26089.1 -03415.5 -07.4584 26311.7
 12 04 2013  16 08  -21.0502 26088.4 -03415.1 -07.4578 26311.0
 12 04 2013  16 09  -21.0508 26088.1 -03415.0 -07.4577 26310.7
 12 04 2013  16 10  -21.0513 26087.5 -03414.7 -07.4573 26310.0
 12 04 2013  16 11  -21.0517 26086.8 -03414.5 -07.4571 26309.4
 12 04 2013  16 12  -21.0519 26086.6 -03414.5 -07.4571 26309.1
 12 04 2013  16 13  -21.0527 26086.6 -03414.6 -07.4573 26309.1
 12 04 2013  16 14  -21.0533 26086.0 -03414.4 -07.4570 26308.5
 12 04 2013  16 15  -21.0537 26085.7 -03414.2 -07.4568 26308.1
 12 04 2013  16 16  -21.0544 26085.3 -03414.1 -07.4566 26307.8
 12 04 2013  16 17  -21.0549 26084.8 -03413.9 -07.4563 26307.3
 12 04 2013  16 18  -21.0554 26084.5 -03413.8 -07.4562 26306.9
 12 04 2013  16 19  -21.0557 26083.9 -03413.5 -07.4558 26306.3
 12 04 2013  16 20  -21.0560 26083.6 -03413.4 -07.4556 26306.0
 12 04 2013  16 21  -21.0566 26083.6 -03413.4 -07.4556 26306.0
 12 04 2013  16 22  -21.0568 26082.7 -03413.1 -07.4552 26305.1
 12 04 2013  16 23  -21.0571 26082.6 -03413.1 -07.4552 26304.9
 12 04 2013  16 24  -21.0574 26081.7 -03412.9 -07.4550 26304.1
 12 04 2013  16 25  -21.0577 26081.8 -03413.1 -07.4553 26304.2
 12 04 2013  16 26  -21.0581 26081.8 -03413.1 -07.4555 26304.2
 12 04 2013  16 27  -21.0587 26081.2 -03413.0 -07.4553 26303.6
 12 04 2013  16 28  -21.0588 26080.4 -03412.6 -07.4548 26302.7
 12 04 2013  16 29  -21.0597 26080.4 -03412.8 -07.4551 26302.7
 12 04 2013  16 30  -21.0604 26079.5 -03412.5 -07.4549 26301.8
 12 04 2013  16 31  -21.0605 26078.8 -03412.4 -07.4547 26301.1
 12 04 2013  16 32  -21.0610 26078.5 -03412.4 -07.4549 26300.8
 12 04 2013  16 33  -21.0614 26077.5 -03412.2 -07.4548 26299.8
 12 04 2013  16 34  -21.0619 26077.4 -03412.4 -07.4552 26299.7
 12 04 2013  16 35  -21.0624 26077.2 -03412.6 -07.4556 26299.5
 12 04 2013  16 36  -21.0632 26077.0 -03412.6 -07.4558 26299.3
 12 04 2013  16 37  -21.0643 26076.5 -03412.7 -07.4560 26298.9
 12 04 2013  16 38  -21.0651 26076.2 -03412.6 -07.4560 26298.5
 12 04 2013  16 39  -21.0657 26075.5 -03412.5 -07.4558 26297.9
 12 04 2013  16 40  -21.0662 26074.8 -03412.3 -07.4557 26297.2
 12 04 2013  16 41  -21.0669 26075.0 -03412.5 -07.4561 26297.4
 12 04 2013  16 42  -21.0676 26073.9 -03412.2 -07.4558 26296.2
 12 04 2013  16 43  -21.0678 26073.4 -03412.1 -07.4557 26295.7
 12 04 2013  16 44  -21.0682 26073.0 -03412.2 -07.4559 26295.3
 12 04 2013  16 45  -21.0687 26072.1 -03412.0 -07.4557 26294.4
 12 04 2013  16 46  -21.0691 26072.1 -03412.1 -07.4561 26294.5
 12 04 2013  16 47  -21.0696 26071.7 -03412.1 -07.4561 26294.0
 12 04 2013  16 48  -21.0699 26071.6 -03412.1 -07.4562 26293.9
 12 04 2013  16 49  -21.0705 26071.8 -03412.2 -07.4564 26294.2
 12 04 2013  16 50  -21.0707 26071.8 -03412.2 -07.4563 26294.2
 12 04 2013  16 51  -21.0708 26071.6 -03412.0 -07.4560 26293.9
 12 04 2013  16 52  -21.0710 26071.4 -03411.8 -07.4556 26293.7
 12 04 2013  16 53  -21.0708 26070.8 -03411.5 -07.4550 26293.1
 12 04 2013  16 54  -21.0718 26070.3 -03411.2 -07.4547 26292.6
 12 04 2013  16 55  -21.0731 26069.5 -03410.9 -07.4541 26291.7
 12 04 2013  16 56  -21.0733 26069.8 -03411.0 -07.4543 26292.0
 12 04 2013  16 57  -21.0734 26069.6 -03410.7 -07.4538 26291.7
 12 04 2013  16 58  -21.0728 26069.1 -03410.3 -07.4531 26291.2
 12 04 2013  16 59  -21.0724 26068.3 -03410.0 -07.4525 26290.4
 12 04 2013  17 00  -21.0721 26067.5 -03409.6 -07.4519 26289.5
 12 04 2013  17 01  -21.0689 26067.2 -03409.5 -07.4518 26289.2
 12 04 2013  17 02  -21.0684 26067.2 -03409.5 -07.4518 26289.3
 12 04 2013  17 03  -21.0683 26067.0 -03409.5 -07.4517 26289.1
 12 04 2013  17 04  -21.0682 26067.4 -03409.6 -07.4519 26289.4
 12 04 2013  17 05  -21.0683 26066.6 -03409.2 -07.4513 26288.6
 12 04 2013  17 06  -21.0673 26066.6 -03409.1 -07.4510 26288.5
 12 04 2013  17 07  -21.0670 26066.1 -03408.9 -07.4507 26288.1
 12 04 2013  17 08  -21.0669 26065.3 -03408.6 -07.4503 26287.2
 12 04 2013  17 09  -21.0664 26065.0 -03408.5 -07.4502 26286.9
 12 04 2013  17 10  -21.0657 26064.6 -03408.4 -07.4501 26286.5
 12 04 2013  17 11  -21.0652 26064.3 -03408.4 -07.4501 26286.2
 12 04 2013  17 12  -21.0653 26064.3 -03408.4 -07.4503 26286.2
 12 04 2013  17 13  -21.0635 26064.0 -03408.3 -07.4501 26285.9
 12 04 2013  17 14  -21.0628 26064.0 -03408.4 -07.4503 26285.9
 12 04 2013  17 15  -21.0627 26064.2 -03408.5 -07.4505 26286.1
 12 04 2013  17 16  -21.0623 26064.0 -03408.4 -07.4503 26285.9
 12 04 2013  17 17  -21.0615 26063.2 -03408.2 -07.4500 26285.1
 12 04 2013  17 18  -21.0609 26062.8 -03408.1 -07.4501 26284.7
 12 04 2013  17 19  -21.0606 26062.2 -03408.1 -07.4501 26284.1
 12 04 2013  17 20  -21.0602 26061.7 -03408.1 -07.4502 26283.6
 12 04 2013  17 21  -21.0595 26061.2 -03408.1 -07.4505 26283.1
 12 04 2013  17 22  -21.0589 26060.7 -03408.1 -07.4507 26282.6
 12 04 2013  17 23  -21.0582 26060.1 -03408.2 -07.4510 26282.0
 12 04 2013  17 24  -21.0581 26060.2 -03408.6 -07.4518 26282.2
 12 04 2013  17 25  -21.0581 26060.2 -03408.8 -07.4523 26282.2
 12 04 2013  17 26  -21.0578 26059.8 -03408.8 -07.4524 26281.8
 12 04 2013  17 27  -21.0574 26058.8 -03408.7 -07.4523 26280.8
 12 04 2013  17 28  -21.0572 26058.6 -03408.8 -07.4527 26280.6
 12 04 2013  17 29  -21.0571 26058.1 -03408.8 -07.4529 26280.1
 12 04 2013  17 30  -21.0565 26057.6 -03408.8 -07.4530 26279.6
 12 04 2013  17 31  -21.0559 26057.1 -03409.0 -07.4535 26279.1
 12 04 2013  17 32  -21.0554 26056.6 -03409.1 -07.4539 26278.6
 12 04 2013  17 33  -21.0571 26056.5 -03409.4 -07.4545 26278.6
 12 04 2013  17 34  -21.0576 26056.0 -03409.5 -07.4549 26278.2
 12 04 2013  17 35  -21.0562 26056.0 -03409.7 -07.4554 26278.2
 12 04 2013  17 36  -21.0561 26055.7 -03409.8 -07.4556 26277.9
 12 04 2013  17 37  -21.0561 26055.2 -03409.7 -07.4556 26277.3
 12 04 2013  17 38  -21.0552 26054.6 -03409.7 -07.4558 26276.8
 12 04 2013  17 39  -21.0537 26054.0 -03409.7 -07.4559 26276.2
 12 04 2013  17 40  -21.0528 26053.6 -03409.8 -07.4563 26275.8
 12 04 2013  17 41  -21.0524 26053.4 -03410.1 -07.4570 26275.7
 12 04 2013  17 42  -21.0521 26053.2 -03410.3 -07.4574 26275.4
 12 04 2013  17 43  -21.0517 26052.7 -03410.4 -07.4578 26275.0
 12 04 2013  17 44  -21.0517 26052.6 -03410.7 -07.4584 26274.9
 12 04 2013  17 45  -21.0514 26052.0 -03410.7 -07.4587 26274.3
 12 04 2013  17 46  -21.0511 26052.0 -03411.0 -07.4593 26274.4
 12 04 2013  17 47  -21.0511 26052.1 -03411.4 -07.4601 26274.5
 12 04 2013  17 48  -21.0509 26051.9 -03411.5 -07.4605 26274.3
 12 04 2013  17 49  -21.0514 26051.4 -03411.6 -07.4607 26273.9
 12 04 2013  17 50  -21.0537 26051.2 -03411.7 -07.4610 26273.6
 12 04 2013  17 51  -21.0543 26051.0 -03411.8 -07.4614 26273.5
 12 04 2013  17 52  -21.0540 26050.8 -03412.0 -07.4618 26273.3
 12 04 2013  17 53  -21.0539 26050.3 -03412.2 -07.4623 26272.8
 12 04 2013  17 54  -21.0539 26049.9 -03412.4 -07.4630 26272.5
 12 04 2013  17 55  -21.0545 26050.5 -03413.1 -07.4643 26273.1
 12 04 2013  17 56  -21.0554 26051.0 -03413.5 -07.4651 26273.7
 12 04 2013  17 57  -21.0554 26050.6 -03413.4 -07.4649 26273.3
 12 04 2013  17 58  -21.0549 26050.1 -03413.3 -07.4648 26272.8
 12 04 2013  17 59  -21.0547 26049.4 -03413.1 -07.4646 26272.0
 12 04 2013  18 00  -21.0546 26049.8 -03413.5 -07.4654 26272.5
 12 04 2013  18 01  -21.0544 26048.9 -03413.3 -07.4652 26271.6
 12 04 2013  18 02  -21.0538 26047.7 -03413.0 -07.4649 26270.3
 12 04 2013  18 03  -21.0538 26047.3 -03413.2 -07.4654 26270.0
 12 04 2013  18 04  -21.0536 26046.9 -03413.4 -07.4659 26269.6
 12 04 2013  18 05  -21.0536 26046.9 -03413.6 -07.4664 26269.6
 12 04 2013  18 06  -21.0537 26046.8 -03413.8 -07.4669 26269.6
 12 04 2013  18 07  -21.0538 26046.7 -03414.1 -07.4674 26269.5
 12 04 2013  18 08  -21.0533 26046.2 -03414.1 -07.4676 26269.0
 12 04 2013  18 09  -21.0531 26045.9 -03414.2 -07.4680 26268.7
 12 04 2013  18 10  -21.0526 26045.5 -03414.3 -07.4683 26268.3
 12 04 2013  18 11  -21.0521 26045.5 -03414.6 -07.4690 26268.4
 12 04 2013  18 12  -21.0520 26045.6 -03414.8 -07.4694 26268.5
 12 04 2013  18 13  -21.0513 26045.8 -03415.1 -07.4700 26268.7
 12 04 2013  18 14  -21.0507 26045.8 -03415.4 -07.4706 26268.8
 12 04 2013  18 15  -21.0507 26046.0 -03415.7 -07.4712 26269.0
 12 04 2013  18 16  -21.0506 26045.9 -03415.9 -07.4717 26268.9
 12 04 2013  18 17  -21.0498 26045.2 -03415.9 -07.4718 26268.2
 12 04 2013  18 18  -21.0492 26045.2 -03416.2 -07.4725 26268.3
 12 04 2013  18 19  -21.0492 26045.5 -03416.6 -07.4733 26268.7
 12 04 2013  18 20  -21.0489 26045.4 -03416.8 -07.4737 26268.5
 12 04 2013  18 21  -21.0486 26044.8 -03416.9 -07.4741 26268.0
 12 04 2013  18 22  -21.0482 26044.3 -03416.9 -07.4743 26267.5
 12 04 2013  18 23  -21.0477 26043.7 -03417.0 -07.4746 26266.9
 12 04 2013  18 24  -21.0455 26043.3 -03417.1 -07.4749 26266.5
 12 04 2013  18 25  -21.0434 26043.4 -03417.4 -07.4756 26266.7
 12 04 2013  18 26  -21.0434 26043.5 -03417.7 -07.4762 26266.8
 12 04 2013  18 27  -21.0427 26043.1 -03417.7 -07.4764 26266.4
 12 04 2013  18 28  -21.0426 26043.1 -03418.0 -07.4771 26266.4
 12 04 2013  18 29  -21.0427 26043.1 -03418.3 -07.4777 26266.5
 12 04 2013  18 30  -21.0423 26042.6 -03418.3 -07.4778 26266.0
 12 04 2013  18 31  -21.0423 26042.6 -03418.6 -07.4783 26266.0
 12 04 2013  18 32  -21.0424 26042.4 -03418.7 -07.4786 26265.8
 12 04 2013  18 33  -21.0423 26041.8 -03418.6 -07.4787 26265.2
 12 04 2013  18 34  -21.0415 26041.4 -03418.7 -07.4789 26264.8
 12 04 2013  18 35  -21.0414 26042.0 -03419.2 -07.4799 26265.5
 12 04 2013  18 36  -21.0423 26043.0 -03419.8 -07.4809 26266.6
 12 04 2013  18 37  -21.0424 26043.0 -03419.8 -07.4810 26266.5
 12 04 2013  18 38  -21.0419 26042.7 -03419.8 -07.4809 26266.3
 12 04 2013  18 39  -21.0416 26042.4 -03419.8 -07.4811 26265.9
 12 04 2013  18 40  -21.0413 26042.0 -03419.9 -07.4813 26265.5
 12 04 2013  18 41  -21.0409 26041.4 -03419.8 -07.4814 26265.0
 12 04 2013  18 42  -21.0404 26040.8 -03419.9 -07.4816 26264.4
 12 04 2013  18 43  -21.0398 26040.3 -03419.9 -07.4819 26263.9
 12 04 2013  18 44  -21.0395 26040.1 -03420.1 -07.4825 26263.7
 12 04 2013  18 45  -21.0391 26040.0 -03420.4 -07.4830 26263.6
 12 04 2013  18 46  -21.0388 26040.0 -03420.7 -07.4836 26263.7
 12 04 2013  18 47  -21.0387 26040.2 -03421.0 -07.4843 26264.0
 12 04 2013  18 48  -21.0385 26040.3 -03421.3 -07.4849 26264.1
 12 04 2013  18 49  -21.0385 26040.2 -03421.4 -07.4852 26264.0
 12 04 2013  18 50  -21.0383 26039.8 -03421.4 -07.4853 26263.6
 12 04 2013  18 51  -21.0378 26039.5 -03421.5 -07.4855 26263.3
 12 04 2013  18 52  -21.0377 26039.3 -03421.6 -07.4858 26263.1
 12 04 2013  18 53  -21.0372 26038.7 -03421.6 -07.4859 26262.5
 12 04 2013  18 54  -21.0369 26038.1 -03421.6 -07.4862 26262.0
 12 04 2013  18 55  -21.0373 26037.7 -03421.8 -07.4866 26261.5
 12 04 2013  18 56  -21.0368 26037.7 -03422.0 -07.4872 26261.6
 12 04 2013  18 57  -21.0363 26037.9 -03422.3 -07.4878 26261.9
 12 04 2013  18 58  -21.0362 26038.1 -03422.7 -07.4885 26262.1
 12 04 2013  18 59  -21.0361 26038.5 -03423.1 -07.4893 26262.5
 12 04 2013  19 00  -21.0362 26038.8 -03423.4 -07.4899 26262.9
 12 04 2013  19 01  -21.0360 26039.0 -03423.6 -07.4903 26263.1
 12 04 2013  19 02  -21.0363 26039.3 -03423.9 -07.4907 26263.5
 12 04 2013  19 03  -21.0364 26039.5 -03424.0 -07.4910 26263.6
 12 04 2013  19 04  -21.0366 26039.4 -03424.0 -07.4911 26263.6
 12 04 2013  19 05  -21.0366 26038.9 -03423.9 -07.4909 26263.1
 12 04 2013  19 06  -21.0363 26038.5 -03423.9 -07.4910 26262.7
 12 04 2013  19 07  -21.0363 26038.8 -03424.2 -07.4915 26263.0
 12 04 2013  19 08  -21.0364 26039.1 -03424.5 -07.4922 26263.3
 12 04 2013  19 09  -21.0362 26039.0 -03424.6 -07.4924 26263.3
 12 04 2013  19 10  -21.0361 26038.8 -03424.6 -07.4925 26263.1
 12 04 2013  19 11  -21.0359 26038.9 -03424.7 -07.4928 26263.1
 12 04 2013  19 12  -21.0357 26038.9 -03425.0 -07.4932 26263.2
 12 04 2013  19 13  -21.0355 26039.0 -03425.1 -07.4935 26263.3
 12 04 2013  19 14  -21.0355 26039.0 -03425.2 -07.4937 26263.3
 12 04 2013  19 15  -21.0353 26038.9 -03425.2 -07.4938 26263.3
 12 04 2013  19 16  -21.0353 26039.0 -03425.4 -07.4941 26263.3
 12 04 2013  19 17  -21.0350 26039.1 -03425.5 -07.4942 26263.4
 12 04 2013  19 18  -21.0350 26038.7 -03425.4 -07.4943 26263.1
 12 04 2013  19 19  -21.0350 26038.5 -03425.5 -07.4944 26262.8
 12 04 2013  19 20  -21.0348 26038.2 -03425.5 -07.4946 26262.6
 12 04 2013  19 21  -21.0348 26038.1 -03425.5 -07.4946 26262.5
 12 04 2013  19 22  -21.0347 26038.0 -03425.6 -07.4948 26262.4
 12 04 2013  19 23  -21.0346 26037.9 -03425.6 -07.4950 26262.3
 12 04 2013  19 24  -21.0345 26038.0 -03425.8 -07.4952 26262.4
 12 04 2013  19 25  -21.0354 26038.1 -03426.0 -07.4956 26262.6
 12 04 2013  19 26  -21.0342 26038.4 -03426.0 -07.4957 26262.8
 12 04 2013  19 27  -21.0338 26038.4 -03426.1 -07.4958 26262.9
 12 04 2013  19 28  -21.0337 26038.5 -03426.2 -07.4960 26262.9
 12 04 2013  19 29  -21.0336 26038.7 -03426.3 -07.4962 26263.1
 12 04 2013  19 30  -21.0334 26038.5 -03426.3 -07.4962 26263.0
 12 04 2013  19 31  -21.0332 26038.3 -03426.3 -07.4963 26262.7
 12 04 2013  19 32  -21.0331 26038.4 -03426.5 -07.4966 26262.9
 12 04 2013  19 33  -21.0331 26038.5 -03426.6 -07.4968 26263.0
 12 04 2013  19 34  -21.0330 26038.5 -03426.6 -07.4969 26263.0
 12 04 2013  19 35  -21.0330 26038.6 -03426.6 -07.4970 26263.1
 12 04 2013  19 36  -21.0330 26038.6 -03426.7 -07.4972 26263.1
 12 04 2013  19 37  -21.0332 26038.7 -03426.8 -07.4973 26263.2
 12 04 2013  19 38  -21.0332 26038.7 -03426.8 -07.4973 26263.2
 12 04 2013  19 39  -21.0331 26038.6 -03426.8 -07.4973 26263.1
 12 04 2013  19 40  -21.0332 26038.6 -03426.8 -07.4974 26263.1
 12 04 2013  19 41  -21.0333 26038.7 -03426.9 -07.4976 26263.3
 12 04 2013  19 42  -21.0333 26038.9 -03427.0 -07.4977 26263.4
 12 04 2013  19 43  -21.0333 26038.9 -03427.0 -07.4977 26263.4
 12 04 2013  19 44  -21.0333 26038.9 -03427.1 -07.4978 26263.4
 12 04 2013  19 45  -21.0332 26039.0 -03427.1 -07.4979 26263.6
 12 04 2013  19 46  -21.0332 26039.0 -03427.1 -07.4979 26263.6
 12 04 2013  19 47  -21.0332 26039.0 -03427.1 -07.4979 26263.6
 12 04 2013  19 48  -21.0333 26039.2 -03427.2 -07.4980 26263.8
 12 04 2013  19 49  -21.0332 26039.2 -03427.2 -07.4979 26263.8
 12 04 2013  19 50  -21.0330 26039.2 -03427.2 -07.4979 26263.8
 12 04 2013  19 51  -21.0330 26039.4 -03427.2 -07.4980 26263.9
 12 04 2013  19 52  -21.0329 26039.4 -03427.2 -07.4979 26263.9
 12 04 2013  19 53  -21.0328 26039.2 -03427.1 -07.4977 26263.8
 12 04 2013  19 54  -21.0327 26039.1 -03427.0 -07.4976 26263.6
 12 04 2013  19 55  -21.0323 26039.1 -03427.1 -07.4978 26263.7
 12 04 2013  19 56  -21.0323 26039.6 -03427.3 -07.4982 26264.2
 12 04 2013  19 57  -21.0324 26039.8 -03427.4 -07.4982 26264.4
 12 04 2013  19 58  -21.0323 26040.1 -03427.4 -07.4982 26264.7
 12 04 2013  19 59  -21.0323 26040.1 -03427.4 -07.4982 26264.7
 12 04 2013  20 00  -21.0321 26040.2 -03427.4 -07.4980 26264.8
 12 04 2013  20 01  -21.0317 26040.2 -03427.3 -07.4979 26264.8
 12 04 2013  20 02  -21.0315 26040.3 -03427.3 -07.4979 26264.9
 12 04 2013  20 03  -21.0314 26040.4 -03427.3 -07.4979 26265.0
 12 04 2013  20 04  -21.0313 26040.2 -03427.2 -07.4976 26264.7
 12 04 2013  20 05  -21.0310 26039.9 -03427.0 -07.4974 26264.5
 12 04 2013  20 06  -21.0309 26040.0 -03427.1 -07.4975 26264.5
 12 04 2013  20 07  -21.0306 26040.0 -03427.1 -07.4975 26264.5
 12 04 2013  20 08  -21.0302 26039.9 -03427.1 -07.4975 26264.5
 12 04 2013  20 09  -21.0300 26039.9 -03427.1 -07.4975 26264.5
 12 04 2013  20 10  -21.0299 26040.1 -03427.1 -07.4975 26264.6
 12 04 2013  20 11  -21.0298 26040.4 -03427.2 -07.4977 26264.9
 12 04 2013  20 12  -21.0301 26040.6 -03427.2 -07.4976 26265.1
 12 04 2013  20 13  -21.0303 26040.5 -03427.0 -07.4973 26265.0
 12 04 2013  20 14  -21.0304 26040.3 -03426.8 -07.4968 26264.8
 12 04 2013  20 15  -21.0304 26040.0 -03426.6 -07.4965 26264.5
 12 04 2013  20 16  -21.0304 26040.3 -03426.6 -07.4964 26264.8
 12 04 2013  20 17  -21.0303 26040.4 -03426.5 -07.4961 26264.8
 12 04 2013  20 18  -21.0303 26040.2 -03426.3 -07.4958 26264.7
 12 04 2013  20 19  -21.0302 26040.3 -03426.2 -07.4956 26264.8
 12 04 2013  20 20  -21.0299 26040.4 -03426.2 -07.4955 26264.8
 12 04 2013  20 21  -21.0296 26040.5 -03426.2 -07.4955 26264.9
 12 04 2013  20 22  -21.0293 26040.7 -03426.2 -07.4955 26265.1
 12 04 2013  20 23  -21.0290 26040.8 -03426.2 -07.4953 26265.2
 12 04 2013  20 24  -21.0287 26040.7 -03426.2 -07.4953 26265.1
 12 04 2013  20 25  -21.0284 26040.6 -03426.1 -07.4952 26265.0
 12 04 2013  20 26  -21.0280 26040.6 -03426.1 -07.4952 26265.0
 12 04 2013  20 27  -21.0277 26040.8 -03426.2 -07.4953 26265.2
 12 04 2013  20 28  -21.0274 26041.0 -03426.2 -07.4954 26265.4
 12 04 2013  20 29  -21.0270 26041.1 -03426.3 -07.4955 26265.5
 12 04 2013  20 30  -21.0268 26041.1 -03426.3 -07.4955 26265.6
 12 04 2013  20 31  -21.0266 26040.8 -03426.1 -07.4952 26265.2
 12 04 2013  20 32  -21.0262 26040.3 -03425.9 -07.4949 26264.7
 12 04 2013  20 33  -21.0257 26040.1 -03425.9 -07.4949 26264.5
 12 04 2013  20 34  -21.0255 26040.1 -03425.9 -07.4949 26264.5
 12 04 2013  20 35  -21.0251 26039.9 -03425.9 -07.4949 26264.3
 12 04 2013  20 36  -21.0247 26039.6 -03425.8 -07.4948 26264.0
 12 04 2013  20 37  -21.0243 26039.3 -03425.7 -07.4948 26263.7
 12 04 2013  20 38  -21.0240 26039.1 -03425.7 -07.4948 26263.5
 12 04 2013  20 39  -21.0237 26039.0 -03425.8 -07.4950 26263.3
 12 04 2013  20 40  -21.0234 26039.1 -03425.9 -07.4952 26263.5
 12 04 2013  20 41  -21.0232 26039.4 -03426.1 -07.4955 26263.8
 12 04 2013  20 42  -21.0231 26039.6 -03426.2 -07.4957 26264.1
 12 04 2013  20 43  -21.0230 26039.9 -03426.3 -07.4958 26264.4
 12 04 2013  20 44  -21.0228 26040.2 -03426.3 -07.4958 26264.6
 12 04 2013  20 45  -21.0226 26040.5 -03426.4 -07.4959 26264.9
 12 04 2013  20 46  -21.0222 26040.8 -03426.4 -07.4959 26265.3
 12 04 2013  20 47  -21.0217 26041.1 -03426.5 -07.4959 26265.5
 12 04 2013  20 48  -21.0214 26041.2 -03426.4 -07.4957 26265.6
 12 04 2013  20 49  -21.0211 26041.3 -03426.5 -07.4958 26265.8
 12 04 2013  20 50  -21.0206 26041.5 -03426.5 -07.4958 26265.9
 12 04 2013  20 51  -21.0204 26041.7 -03426.5 -07.4957 26266.2
 12 04 2013  20 52  -21.0202 26041.9 -03426.5 -07.4956 26266.4
 12 04 2013  20 53  -21.0200 26041.9 -03426.4 -07.4955 26266.4
 12 04 2013  20 54  -21.0198 26041.9 -03426.3 -07.4953 26266.3
 12 04 2013  20 55  -21.0196 26041.9 -03426.3 -07.4953 26266.3
 12 04 2013  20 56  -21.0196 26042.0 -03426.3 -07.4952 26266.4
 12 04 2013  20 57  -21.0193 26042.3 -03426.4 -07.4953 26266.7
 12 04 2013  20 58  -21.0193 26042.4 -03426.4 -07.4953 26266.8
 12 04 2013  20 59  -21.0194 26042.5 -03426.4 -07.4954 26266.9
 12 04 2013  21 00  -21.0195 26042.5 -03426.4 -07.4953 26266.9
 12 04 2013  21 01  -21.0195 26042.6 -03426.4 -07.4953 26267.1
 12 04 2013  21 02  -21.0195 26042.6 -03426.4 -07.4952 26267.0
 12 04 2013  21 03  -21.0197 26042.6 -03426.4 -07.4953 26267.1
 12 04 2013  21 04  -21.0197 26042.8 -03426.4 -07.4953 26267.2
 12 04 2013  21 05  -21.0198 26042.9 -03426.5 -07.4954 26267.4
 12 04 2013  21 06  -21.0199 26043.1 -03426.6 -07.4955 26267.6
 12 04 2013  21 07  -21.0199 26043.4 -03426.7 -07.4956 26267.9
 12 04 2013  21 08  -21.0200 26043.6 -03426.8 -07.4958 26268.1
 12 04 2013  21 09  -21.0201 26043.8 -03426.8 -07.4959 26268.2
 12 04 2013  21 10  -21.0202 26043.8 -03426.8 -07.4959 26268.3
 12 04 2013  21 11  -21.0203 26044.0 -03426.9 -07.4960 26268.5
 12 04 2013  21 12  -21.0203 26044.1 -03426.9 -07.4960 26268.6
 12 04 2013  21 13  -21.0206 26044.0 -03426.9 -07.4959 26268.5
 12 04 2013  21 14  -21.0205 26044.1 -03426.9 -07.4959 26268.6
 12 04 2013  21 15  -21.0204 26044.1 -03426.9 -07.4959 26268.6
 12 04 2013  21 16  -21.0208 26043.9 -03426.8 -07.4958 26268.4
 12 04 2013  21 17  -21.0205 26044.2 -03426.9 -07.4959 26268.7
 12 04 2013  21 18  -21.0206 26044.1 -03426.9 -07.4959 26268.6
 12 04 2013  21 19  -21.0206 26044.2 -03426.9 -07.4960 26268.6
 12 04 2013  21 20  -21.0207 26044.2 -03427.0 -07.4961 26268.7
 12 04 2013  21 21  -21.0205 26044.4 -03427.1 -07.4962 26268.9
 12 04 2013  21 22  -21.0205 26044.5 -03427.1 -07.4963 26269.0
 12 04 2013  21 23  -21.0207 26044.5 -03427.2 -07.4964 26269.1
 12 04 2013  21 24  -21.0209 26044.7 -03427.3 -07.4966 26269.3
 12 04 2013  21 25  -21.0209 26045.0 -03427.4 -07.4968 26269.5
 12 04 2013  21 26  -21.0207 26045.2 -03427.5 -07.4969 26269.8
 12 04 2013  21 27  -21.0212 26045.0 -03427.5 -07.4969 26269.6
 12 04 2013  21 28  -21.0215 26044.9 -03427.4 -07.4968 26269.4
 12 04 2013  21 29  -21.0215 26045.0 -03427.5 -07.4969 26269.6
 12 04 2013  21 30  -21.0217 26044.9 -03427.4 -07.4968 26269.4
 12 04 2013  21 31  -21.0218 26044.9 -03427.4 -07.4968 26269.5
 12 04 2013  21 32  -21.0218 26045.0 -03427.4 -07.4967 26269.6
 12 04 2013  21 33  -21.0220 26044.9 -03427.4 -07.4968 26269.4
 12 04 2013  21 34  -21.0221 26044.9 -03427.4 -07.4968 26269.5
 12 04 2013  21 35  -21.0221 26045.0 -03427.4 -07.4968 26269.6
 12 04 2013  21 36  -21.0225 26044.8 -03427.3 -07.4967 26269.3
 12 04 2013  21 37  -21.0226 26044.8 -03427.4 -07.4968 26269.3
 12 04 2013  21 38  -21.0229 26044.8 -03427.5 -07.4969 26269.4
 12 04 2013  21 39  -21.0227 26044.9 -03427.5 -07.4970 26269.5
 12 04 2013  21 40  -21.0228 26044.8 -03427.5 -07.4969 26269.4
 12 04 2013  21 41  -21.0229 26044.8 -03427.4 -07.4969 26269.4
 12 04 2013  21 42  -21.0229 26044.8 -03427.5 -07.4970 26269.4
 12 04 2013  21 43  -21.0231 26044.7 -03427.4 -07.4969 26269.2
 12 04 2013  21 44  -21.0235 26044.6 -03427.4 -07.4968 26269.1
 12 04 2013  21 45  -21.0237 26044.7 -03427.5 -07.4971 26269.3
 12 04 2013  21 46  -21.0239 26044.8 -03427.6 -07.4972 26269.4
 12 04 2013  21 47  -21.0241 26044.7 -03427.5 -07.4971 26269.3
 12 04 2013  21 48  -21.0245 26044.6 -03427.6 -07.4972 26269.2
 12 04 2013  21 49  -21.0247 26044.5 -03427.5 -07.4971 26269.1
 12 04 2013  21 50  -21.0250 26044.5 -03427.5 -07.4972 26269.1
 12 04 2013  21 51  -21.0251 26044.4 -03427.5 -07.4972 26269.0
 12 04 2013  21 52  -21.0252 26044.4 -03427.5 -07.4972 26269.0
 12 04 2013  21 53  -21.0254 26044.5 -03427.5 -07.4972 26269.0
 12 04 2013  21 54  -21.0255 26044.5 -03427.6 -07.4974 26269.1
 12 04 2013  21 55  -21.0255 26044.5 -03427.6 -07.4974 26269.1
 12 04 2013  21 56  -21.0255 26044.5 -03427.6 -07.4974 26269.1
 12 04 2013  21 57  -21.0256 26044.4 -03427.6 -07.4974 26269.0
 12 04 2013  21 58  -21.0258 26044.3 -03427.6 -07.4974 26268.9
 12 04 2013  21 59  -21.0259 26044.3 -03427.6 -07.4974 26268.8
 12 04 2013  22 00  -21.0263 26044.3 -03427.6 -07.4975 26268.8
 12 04 2013  22 01  -21.0265 26044.2 -03427.6 -07.4975 26268.8
 12 04 2013  22 02  -21.0266 26044.2 -03427.6 -07.4975 26268.8
 12 04 2013  22 03  -21.0269 26044.2 -03427.6 -07.4975 26268.8
 12 04 2013  22 04  -21.0272 26044.2 -03427.7 -07.4976 26268.7
 12 04 2013  22 05  -21.0275 26044.0 -03427.6 -07.4975 26268.6
 12 04 2013  22 06  -21.0277 26043.8 -03427.5 -07.4974 26268.4
 12 04 2013  22 07  -21.0280 26043.7 -03427.4 -07.4972 26268.2
 12 04 2013  22 08  -21.0281 26043.5 -03427.4 -07.4971 26268.0
 12 04 2013  22 09  -21.0283 26043.4 -03427.3 -07.4971 26267.9
 12 04 2013  22 10  -21.0286 26043.4 -03427.4 -07.4972 26268.0
 12 04 2013  22 11  -21.0288 26043.5 -03427.5 -07.4973 26268.1
 12 04 2013  22 12  -21.0288 26043.6 -03427.5 -07.4975 26268.2
 12 04 2013  22 13  -21.0288 26043.7 -03427.6 -07.4975 26268.3
 12 04 2013  22 14  -21.0289 26043.7 -03427.6 -07.4976 26268.3
 12 04 2013  22 15  -21.0291 26043.8 -03427.7 -07.4977 26268.4
 12 04 2013  22 16  -21.0293 26043.8 -03427.6 -07.4976 26268.4
 12 04 2013  22 17  -21.0296 26043.7 -03427.6 -07.4977 26268.3
 12 04 2013  22 18  -21.0298 26043.7 -03427.6 -07.4976 26268.3
 12 04 2013  22 19  -21.0300 26043.7 -03427.6 -07.4976 26268.3
 12 04 2013  22 20  -21.0301 26043.9 -03427.7 -07.4977 26268.5
 12 04 2013  22 21  -21.0299 26044.1 -03427.8 -07.4979 26268.7
 12 04 2013  22 22  -21.0299 26044.1 -03427.8 -07.4979 26268.7
 12 04 2013  22 23  -21.0300 26044.1 -03427.8 -07.4979 26268.7
 12 04 2013  22 24  -21.0301 26043.9 -03427.7 -07.4978 26268.5
 12 04 2013  22 25  -21.0303 26043.8 -03427.7 -07.4977 26268.4
 12 04 2013  22 26  -21.0306 26043.7 -03427.7 -07.4977 26268.3
 12 04 2013  22 27  -21.0308 26043.7 -03427.6 -07.4976 26268.3
 12 04 2013  22 28  -21.0308 26043.6 -03427.6 -07.4975 26268.1
 12 04 2013  22 29  -21.0308 26043.5 -03427.5 -07.4975 26268.1
 12 04 2013  22 30  -21.0308 26043.7 -03427.6 -07.4976 26268.3
 12 04 2013  22 31  -21.0308 26043.8 -03427.7 -07.4977 26268.4
 12 04 2013  22 32  -21.0308 26043.8 -03427.7 -07.4977 26268.3
 12 04 2013  22 33  -21.0309 26043.8 -03427.7 -07.4977 26268.4
 12 04 2013  22 34  -21.0309 26043.9 -03427.7 -07.4978 26268.5
 12 04 2013  22 35  -21.0310 26043.9 -03427.7 -07.4978 26268.5
 12 04 2013  22 36  -21.0313 26043.8 -03427.7 -07.4978 26268.4
 12 04 2013  22 37  -21.0315 26043.8 -03427.7 -07.4977 26268.4
 12 04 2013  22 38  -21.0317 26043.6 -03427.6 -07.4976 26268.2
 12 04 2013  22 39  -21.0318 26043.5 -03427.5 -07.4975 26268.1
 12 04 2013  22 40  -21.0319 26043.4 -03427.5 -07.4974 26267.9
 12 04 2013  22 41  -21.0320 26043.3 -03427.4 -07.4973 26267.8
 12 04 2013  22 42  -21.0321 26043.2 -03427.4 -07.4973 26267.8
 12 04 2013  22 43  -21.0322 26043.2 -03427.4 -07.4973 26267.8
 12 04 2013  22 44  -21.0322 26043.2 -03427.4 -07.4973 26267.8
 12 04 2013  22 45  -21.0323 26043.2 -03427.5 -07.4974 26267.8
 12 04 2013  22 46  -21.0325 26043.3 -03427.5 -07.4975 26267.8
 12 04 2013  22 47  -21.0325 26043.2 -03427.5 -07.4975 26267.8
 12 04 2013  22 48  -21.0325 26043.2 -03427.5 -07.4975 26267.8
 12 04 2013  22 49  -21.0326 26043.2 -03427.5 -07.4975 26267.8
 12 04 2013  22 50  -21.0328 26043.1 -03427.5 -07.4976 26267.7
 12 04 2013  22 51  -21.0327 26043.1 -03427.5 -07.4975 26267.7
 12 04 2013  22 52  -21.0327 26042.9 -03427.4 -07.4974 26267.5
 12 04 2013  22 53  -21.0327 26042.9 -03427.4 -07.4973 26267.4
 12 04 2013  22 54  -21.0327 26042.8 -03427.4 -07.4973 26267.4
 12 04 2013  22 55  -21.0327 26042.6 -03427.3 -07.4973 26267.2
 12 04 2013  22 56  -21.0327 26042.5 -03427.3 -07.4973 26267.1
 12 04 2013  22 57  -21.0328 26042.5 -03427.3 -07.4974 26267.0
 12 04 2013  22 58  -21.0329 26042.6 -03427.4 -07.4975 26267.1
 12 04 2013  22 59  -21.0328 26042.7 -03427.5 -07.4976 26267.3
 12 04 2013  23 00  -21.0328 26042.7 -03427.6 -07.4978 26267.3
 12 04 2013  23 01  -21.0328 26042.8 -03427.7 -07.4979 26267.4
 12 04 2013  23 02  -21.0328 26042.9 -03427.7 -07.4981 26267.5
 12 04 2013  23 03  -21.0329 26042.9 -03427.8 -07.4982 26267.5
 12 04 2013  23 04  -21.0330 26043.0 -03427.8 -07.4982 26267.6
 12 04 2013  23 05  -21.0331 26043.1 -03427.8 -07.4983 26267.7
 12 04 2013  23 06  -21.0331 26043.1 -03427.8 -07.4983 26267.7
 12 04 2013  23 07  -21.0331 26043.0 -03427.9 -07.4983 26267.7
 12 04 2013  23 08  -21.0332 26043.0 -03427.9 -07.4983 26267.6
 12 04 2013  23 09  -21.0333 26042.8 -03427.8 -07.4983 26267.5
 12 04 2013  23 10  -21.0334 26042.8 -03427.8 -07.4982 26267.4
 12 04 2013  23 11  -21.0336 26042.6 -03427.7 -07.4982 26267.2
 12 04 2013  23 12  -21.0337 26042.5 -03427.7 -07.4981 26267.1
 12 04 2013  23 13  -21.0338 26042.4 -03427.7 -07.4981 26267.0
 12 04 2013  23 14  -21.0338 26042.3 -03427.6 -07.4980 26266.9
 12 04 2013  23 15  -21.0338 26042.1 -03427.6 -07.4979 26266.7
 12 04 2013  23 16  -21.0337 26041.9 -03427.5 -07.4979 26266.5
 12 04 2013  23 17  -21.0337 26041.9 -03427.5 -07.4979 26266.5
 12 04 2013  23 18  -21.0338 26041.8 -03427.5 -07.4979 26266.4
 12 04 2013  23 19  -21.0338 26041.6 -03427.5 -07.4979 26266.2
 12 04 2013  23 20  -21.0337 26041.5 -03427.5 -07.4979 26266.1
 12 04 2013  23 21  -21.0337 26041.5 -03427.5 -07.4979 26266.1
 12 04 2013  23 22  -21.0336 26041.6 -03427.5 -07.4980 26266.2
 12 04 2013  23 23  -21.0336 26041.8 -03427.7 -07.4983 26266.4
 12 04 2013  23 24  -21.0336 26041.9 -03427.8 -07.4984 26266.5
 12 04 2013  23 25  -21.0336 26042.0 -03427.9 -07.4986 26266.6
 12 04 2013  23 26  -21.0336 26042.2 -03428.0 -07.4988 26266.8
 12 04 2013  23 27  -21.0335 26042.3 -03428.1 -07.4989 26267.0
 12 04 2013  23 28  -21.0335 26042.4 -03428.1 -07.4991 26267.0
 12 04 2013  23 29  -21.0336 26042.4 -03428.1 -07.4991 26267.0
 12 04 2013  23 30  -21.0336 26042.3 -03428.1 -07.4990 26266.9
 12 04 2013  23 31  -21.0336 26042.2 -03428.0 -07.4989 26266.8
 12 04 2013  23 32  -21.0336 26042.0 -03428.0 -07.4988 26266.7
 12 04 2013  23 33  -21.0337 26041.9 -03427.9 -07.4988 26266.6
 12 04 2013  23 34  -21.0338 26041.8 -03427.9 -07.4987 26266.5
 12 04 2013  23 35  -21.0338 26041.6 -03427.8 -07.4986 26266.3
 12 04 2013  23 36  -21.0338 26041.5 -03427.8 -07.4985 26266.1
 12 04 2013  23 37  -21.0337 26041.4 -03427.7 -07.4985 26266.0
 12 04 2013  23 38  -21.0336 26041.3 -03427.7 -07.4985 26265.9
 12 04 2013  23 39  -21.0336 26041.2 -03427.7 -07.4985 26265.8
 12 04 2013  23 40  -21.0335 26041.0 -03427.6 -07.4984 26265.6
 12 04 2013  23 41  -21.0333 26040.9 -03427.6 -07.4984 26265.5
 12 04 2013  23 42  -21.0333 26040.9 -03427.7 -07.4985 26265.6
 12 04 2013  23 43  -21.0332 26041.0 -03427.7 -07.4986 26265.6
 12 04 2013  23 44  -21.0333 26040.9 -03427.8 -07.4987 26265.6
 12 04 2013  23 45  -21.0333 26040.9 -03427.8 -07.4988 26265.6
 12 04 2013  23 46  -21.0331 26041.0 -03427.9 -07.4990 26265.6
 12 04 2013  23 47  -21.0331 26041.0 -03427.9 -07.4990 26265.6
 12 04 2013  23 48  -21.0330 26040.9 -03427.9 -07.4991 26265.6
 12 04 2013  23 49  -21.0331 26040.9 -03428.0 -07.4992 26265.6
 12 04 2013  23 50  -21.0331 26040.9 -03428.0 -07.4992 26265.6
 12 04 2013  23 51  -21.0329 26041.0 -03428.0 -07.4993 26265.6
 12 04 2013  23 52  -21.0328 26040.9 -03428.1 -07.4994 26265.6
 12 04 2013  23 53  -21.0326 26041.0 -03428.1 -07.4994 26265.7
 12 04 2013  23 54  -21.0324 26041.1 -03428.2 -07.4996 26265.8
 12 04 2013  23 55  -21.0323 26041.2 -03428.3 -07.4998 26265.9
 12 04 2013  23 56  -21.0323 26041.3 -03428.4 -07.4999 26266.0
 12 04 2013  23 57  -21.0323 26041.4 -03428.4 -07.5000 26266.1
 12 04 2013  23 58  -21.0322 26041.4 -03428.5 -07.5001 26266.2
