SAO LUIS EMBRACE-03 <073> 1 Min. Reported data

 DD MM YYYY  HH MM   D(Deg)  H(nT)   Z(nT)   I(Deg)   F(nT)

 14 03 2013  00 00  -21.0340 26051.8 -03418.6 -07.4758 26275.1
 14 03 2013  00 01  -21.0339 26051.7 -03418.5 -07.4757 26275.0
 14 03 2013  00 02  -21.0339 26051.6 -03418.5 -07.4757 26274.9
 14 03 2013  00 03  -21.0339 26051.6 -03418.6 -07.4758 26275.0
 14 03 2013  00 04  -21.0338 26051.6 -03418.6 -07.4758 26274.9
 14 03 2013  00 05  -21.0338 26051.5 -03418.5 -07.4758 26274.9
 14 03 2013  00 06  -21.0338 26051.4 -03418.6 -07.4758 26274.7
 14 03 2013  00 07  -21.0338 26051.3 -03418.5 -07.4758 26274.7
 14 03 2013  00 08  -21.0338 26051.1 -03418.4 -07.4756 26274.4
 14 03 2013  00 09  -21.0337 26050.9 -03418.3 -07.4755 26274.2
 14 03 2013  00 10  -21.0337 26050.6 -03418.2 -07.4754 26273.9
 14 03 2013  00 11  -21.0338 26050.4 -03418.2 -07.4752 26273.7
 14 03 2013  00 12  -21.0339 26050.2 -03418.1 -07.4752 26273.5
 14 03 2013  00 13  -21.0341 26050.1 -03418.1 -07.4752 26273.4
 14 03 2013  00 14  -21.0343 26049.9 -03418.0 -07.4751 26273.2
 14 03 2013  00 15  -21.0346 26049.9 -03418.0 -07.4751 26273.1
 14 03 2013  00 16  -21.0348 26049.8 -03418.1 -07.4752 26273.1
 14 03 2013  00 17  -21.0347 26049.8 -03418.1 -07.4752 26273.1
 14 03 2013  00 18  -21.0345 26049.7 -03418.0 -07.4752 26273.0
 14 03 2013  00 19  -21.0343 26049.8 -03418.1 -07.4752 26273.1
 14 03 2013  00 20  -21.0342 26050.0 -03418.2 -07.4754 26273.3
 14 03 2013  00 21  -21.0339 26050.2 -03418.3 -07.4757 26273.5
 14 03 2013  00 22  -21.0335 26050.4 -03418.4 -07.4758 26273.7
 14 03 2013  00 23  -21.0333 26050.6 -03418.5 -07.4760 26273.9
 14 03 2013  00 24  -21.0331 26050.7 -03418.6 -07.4761 26274.1
 14 03 2013  00 25  -21.0327 26050.8 -03418.6 -07.4762 26274.1
 14 03 2013  00 26  -21.0325 26050.7 -03418.6 -07.4762 26274.0
 14 03 2013  00 27  -21.0325 26050.6 -03418.6 -07.4761 26273.9
 14 03 2013  00 28  -21.0324 26050.5 -03418.6 -07.4761 26273.8
 14 03 2013  00 29  -21.0323 26050.4 -03418.5 -07.4760 26273.7
 14 03 2013  00 30  -21.0322 26050.2 -03418.5 -07.4760 26273.5
 14 03 2013  00 31  -21.0322 26050.2 -03418.5 -07.4759 26273.5
 14 03 2013  00 32  -21.0321 26050.1 -03418.4 -07.4759 26273.4
 14 03 2013  00 33  -21.0320 26049.9 -03418.4 -07.4758 26273.2
 14 03 2013  00 34  -21.0318 26049.8 -03418.3 -07.4758 26273.1
 14 03 2013  00 35  -21.0318 26049.8 -03418.4 -07.4759 26273.1
 14 03 2013  00 36  -21.0317 26049.7 -03418.4 -07.4759 26273.1
 14 03 2013  00 37  -21.0317 26049.7 -03418.4 -07.4759 26273.0
 14 03 2013  00 38  -21.0317 26049.6 -03418.3 -07.4758 26272.9
 14 03 2013  00 39  -21.0315 26049.6 -03418.4 -07.4759 26273.0
 14 03 2013  00 40  -21.0314 26049.6 -03418.4 -07.4760 26272.9
 14 03 2013  00 41  -21.0313 26049.4 -03418.4 -07.4759 26272.7
 14 03 2013  00 42  -21.0309 26049.3 -03418.3 -07.4759 26272.6
 14 03 2013  00 43  -21.0307 26049.3 -03418.3 -07.4759 26272.6
 14 03 2013  00 44  -21.0307 26049.3 -03418.4 -07.4760 26272.6
 14 03 2013  00 45  -21.0305 26049.3 -03418.4 -07.4761 26272.6
 14 03 2013  00 46  -21.0302 26049.2 -03418.4 -07.4761 26272.6
 14 03 2013  00 47  -21.0300 26049.4 -03418.5 -07.4763 26272.7
 14 03 2013  00 48  -21.0300 26049.4 -03418.5 -07.4764 26272.7
 14 03 2013  00 49  -21.0299 26049.4 -03418.6 -07.4765 26272.7
 14 03 2013  00 50  -21.0298 26049.4 -03418.6 -07.4766 26272.8
 14 03 2013  00 51  -21.0297 26049.5 -03418.7 -07.4767 26272.9
 14 03 2013  00 52  -21.0297 26049.5 -03418.8 -07.4769 26272.9
 14 03 2013  00 53  -21.0297 26049.5 -03418.8 -07.4769 26272.9
 14 03 2013  00 54  -21.0295 26049.5 -03418.8 -07.4769 26272.9
 14 03 2013  00 55  -21.0294 26049.4 -03418.8 -07.4769 26272.8
 14 03 2013  00 56  -21.0292 26049.4 -03418.8 -07.4769 26272.8
 14 03 2013  00 57  -21.0290 26049.3 -03418.8 -07.4769 26272.7
 14 03 2013  00 58  -21.0290 26049.4 -03418.8 -07.4769 26272.8
 14 03 2013  00 59  -21.0291 26049.4 -03418.8 -07.4770 26272.8
 14 03 2013  01 00  -21.0292 26049.4 -03418.9 -07.4771 26272.8
 14 03 2013  01 01  -21.0293 26049.4 -03418.9 -07.4772 26272.8
 14 03 2013  01 02  -21.0292 26049.4 -03418.9 -07.4772 26272.8
 14 03 2013  01 03  -21.0291 26049.4 -03419.0 -07.4772 26272.8
 14 03 2013  01 04  -21.0290 26049.5 -03419.0 -07.4773 26272.9
 14 03 2013  01 05  -21.0287 26049.4 -03419.0 -07.4774 26272.9
 14 03 2013  01 06  -21.0285 26049.5 -03419.1 -07.4774 26273.0
 14 03 2013  01 07  -21.0284 26049.6 -03419.1 -07.4775 26273.0
 14 03 2013  01 08  -21.0283 26049.6 -03419.1 -07.4776 26273.0
 14 03 2013  01 09  -21.0281 26049.7 -03419.2 -07.4776 26273.1
 14 03 2013  01 10  -21.0280 26049.5 -03419.1 -07.4776 26272.9
 14 03 2013  01 11  -21.0279 26049.5 -03419.1 -07.4776 26273.0
 14 03 2013  01 12  -21.0279 26049.6 -03419.2 -07.4778 26273.0
 14 03 2013  01 13  -21.0279 26049.6 -03419.3 -07.4779 26273.1
 14 03 2013  01 14  -21.0277 26049.7 -03419.3 -07.4779 26273.2
 14 03 2013  01 15  -21.0276 26049.8 -03419.4 -07.4780 26273.3
 14 03 2013  01 16  -21.0276 26049.7 -03419.3 -07.4780 26273.1
 14 03 2013  01 17  -21.0275 26049.8 -03419.4 -07.4781 26273.2
 14 03 2013  01 18  -21.0274 26049.7 -03419.4 -07.4780 26273.1
 14 03 2013  01 19  -21.0273 26049.7 -03419.4 -07.4780 26273.2
 14 03 2013  01 20  -21.0271 26049.6 -03419.4 -07.4781 26273.0
 14 03 2013  01 21  -21.0269 26049.6 -03419.3 -07.4780 26273.1
 14 03 2013  01 22  -21.0267 26049.8 -03419.5 -07.4782 26273.3
 14 03 2013  01 23  -21.0267 26049.6 -03419.4 -07.4782 26273.1
 14 03 2013  01 24  -21.0268 26049.6 -03419.4 -07.4783 26273.1
 14 03 2013  01 25  -21.0267 26049.6 -03419.5 -07.4783 26273.1
 14 03 2013  01 26  -21.0267 26049.7 -03419.5 -07.4783 26273.1
 14 03 2013  01 27  -21.0266 26049.6 -03419.5 -07.4784 26273.1
 14 03 2013  01 28  -21.0264 26049.6 -03419.5 -07.4784 26273.1
 14 03 2013  01 29  -21.0264 26049.6 -03419.5 -07.4783 26273.1
 14 03 2013  01 30  -21.0262 26049.6 -03419.5 -07.4784 26273.0
 14 03 2013  01 31  -21.0261 26049.6 -03419.6 -07.4785 26273.1
 14 03 2013  01 32  -21.0261 26049.7 -03419.6 -07.4786 26273.2
 14 03 2013  01 33  -21.0261 26049.7 -03419.6 -07.4786 26273.2
 14 03 2013  01 34  -21.0262 26049.6 -03419.6 -07.4787 26273.1
 14 03 2013  01 35  -21.0262 26049.7 -03419.7 -07.4788 26273.2
 14 03 2013  01 36  -21.0262 26049.7 -03419.7 -07.4788 26273.2
 14 03 2013  01 37  -21.0263 26049.6 -03419.7 -07.4787 26273.1
 14 03 2013  01 38  -21.0262 26049.7 -03419.7 -07.4788 26273.3
 14 03 2013  01 39  -21.0261 26049.7 -03419.7 -07.4788 26273.2
 14 03 2013  01 40  -21.0260 26049.6 -03419.7 -07.4788 26273.1
 14 03 2013  01 41  -21.0259 26049.8 -03419.8 -07.4789 26273.3
 14 03 2013  01 42  -21.0257 26049.9 -03419.8 -07.4790 26273.4
 14 03 2013  01 43  -21.0256 26049.9 -03419.8 -07.4790 26273.4
 14 03 2013  01 44  -21.0253 26049.9 -03419.8 -07.4790 26273.4
 14 03 2013  01 45  -21.0252 26049.8 -03419.8 -07.4790 26273.3
 14 03 2013  01 46  -21.0250 26050.0 -03419.9 -07.4792 26273.5
 14 03 2013  01 47  -21.0248 26049.9 -03420.0 -07.4793 26273.5
 14 03 2013  01 48  -21.0247 26049.7 -03419.8 -07.4791 26273.2
 14 03 2013  01 49  -21.0245 26049.9 -03419.9 -07.4792 26273.4
 14 03 2013  01 50  -21.0246 26049.9 -03420.0 -07.4794 26273.4
 14 03 2013  01 51  -21.0246 26049.8 -03420.0 -07.4794 26273.4
 14 03 2013  01 52  -21.0245 26049.8 -03420.0 -07.4794 26273.4
 14 03 2013  01 53  -21.0244 26049.9 -03420.0 -07.4794 26273.5
 14 03 2013  01 54  -21.0244 26049.9 -03420.1 -07.4795 26273.5
 14 03 2013  01 55  -21.0245 26049.9 -03420.1 -07.4795 26273.4
 14 03 2013  01 56  -21.0245 26049.9 -03420.1 -07.4796 26273.5
 14 03 2013  01 57  -21.0245 26049.8 -03420.1 -07.4796 26273.3
 14 03 2013  01 58  -21.0245 26049.8 -03420.1 -07.4795 26273.3
 14 03 2013  01 59  -21.0244 26049.7 -03420.1 -07.4795 26273.3
 14 03 2013  02 00  -21.0243 26049.7 -03420.0 -07.4795 26273.3
 14 03 2013  02 01  -21.0242 26049.7 -03420.0 -07.4795 26273.3
 14 03 2013  02 02  -21.0242 26049.7 -03420.0 -07.4795 26273.3
 14 03 2013  02 03  -21.0242 26049.7 -03420.1 -07.4796 26273.3
 14 03 2013  02 04  -21.0242 26049.7 -03420.1 -07.4796 26273.3
 14 03 2013  02 05  -21.0242 26049.7 -03420.1 -07.4796 26273.3
 14 03 2013  02 06  -21.0242 26049.7 -03420.1 -07.4796 26273.3
 14 03 2013  02 07  -21.0242 26049.7 -03420.1 -07.4796 26273.3
 14 03 2013  02 08  -21.0241 26049.8 -03420.1 -07.4797 26273.3
 14 03 2013  02 09  -21.0240 26049.8 -03420.1 -07.4797 26273.4
 14 03 2013  02 10  -21.0240 26049.8 -03420.2 -07.4797 26273.4
 14 03 2013  02 11  -21.0239 26049.8 -03420.1 -07.4797 26273.4
 14 03 2013  02 12  -21.0239 26049.9 -03420.1 -07.4797 26273.4
 14 03 2013  02 13  -21.0239 26049.8 -03420.2 -07.4798 26273.4
 14 03 2013  02 14  -21.0239 26049.8 -03420.2 -07.4798 26273.4
 14 03 2013  02 15  -21.0240 26049.8 -03420.2 -07.4797 26273.3
 14 03 2013  02 16  -21.0239 26049.7 -03420.2 -07.4798 26273.3
 14 03 2013  02 17  -21.0239 26049.8 -03420.1 -07.4797 26273.3
 14 03 2013  02 18  -21.0239 26049.8 -03420.2 -07.4798 26273.4
 14 03 2013  02 19  -21.0240 26049.8 -03420.2 -07.4799 26273.4
 14 03 2013  02 20  -21.0241 26049.9 -03420.3 -07.4799 26273.5
 14 03 2013  02 21  -21.0239 26049.9 -03420.2 -07.4799 26273.4
 14 03 2013  02 22  -21.0238 26049.8 -03420.2 -07.4799 26273.4
 14 03 2013  02 23  -21.0237 26049.7 -03420.2 -07.4798 26273.3
 14 03 2013  02 24  -21.0237 26049.7 -03420.1 -07.4797 26273.3
 14 03 2013  02 25  -21.0237 26049.6 -03420.1 -07.4797 26273.1
 14 03 2013  02 26  -21.0237 26049.4 -03420.0 -07.4795 26273.0
 14 03 2013  02 27  -21.0237 26049.3 -03420.0 -07.4795 26272.9
 14 03 2013  02 28  -21.0238 26049.2 -03420.0 -07.4795 26272.8
 14 03 2013  02 29  -21.0239 26049.2 -03420.0 -07.4796 26272.7
 14 03 2013  02 30  -21.0241 26049.2 -03420.0 -07.4796 26272.7
 14 03 2013  02 31  -21.0243 26049.2 -03420.0 -07.4796 26272.7
 14 03 2013  02 32  -21.0244 26049.1 -03420.0 -07.4796 26272.7
 14 03 2013  02 33  -21.0245 26049.2 -03420.0 -07.4797 26272.7
 14 03 2013  02 34  -21.0244 26049.2 -03420.1 -07.4798 26272.7
 14 03 2013  02 35  -21.0244 26049.1 -03420.1 -07.4797 26272.6
 14 03 2013  02 36  -21.0242 26049.1 -03420.0 -07.4796 26272.6
 14 03 2013  02 37  -21.0240 26049.1 -03420.0 -07.4797 26272.6
 14 03 2013  02 38  -21.0239 26049.1 -03420.0 -07.4797 26272.6
 14 03 2013  02 39  -21.0238 26049.1 -03420.1 -07.4798 26272.7
 14 03 2013  02 40  -21.0238 26049.2 -03420.2 -07.4799 26272.8
 14 03 2013  02 41  -21.0238 26049.2 -03420.2 -07.4801 26272.8
 14 03 2013  02 42  -21.0237 26049.3 -03420.3 -07.4802 26272.9
 14 03 2013  02 43  -21.0236 26049.3 -03420.3 -07.4802 26272.9
 14 03 2013  02 44  -21.0236 26049.3 -03420.3 -07.4802 26272.9
 14 03 2013  02 45  -21.0236 26049.3 -03420.4 -07.4803 26272.9
 14 03 2013  02 46  -21.0238 26049.3 -03420.4 -07.4804 26272.9
 14 03 2013  02 47  -21.0239 26049.3 -03420.4 -07.4805 26272.9
 14 03 2013  02 48  -21.0239 26049.3 -03420.4 -07.4805 26272.9
 14 03 2013  02 49  -21.0240 26049.2 -03420.4 -07.4804 26272.8
 14 03 2013  02 50  -21.0241 26049.1 -03420.4 -07.4804 26272.7
 14 03 2013  02 51  -21.0241 26049.1 -03420.4 -07.4804 26272.7
 14 03 2013  02 52  -21.0241 26049.2 -03420.5 -07.4806 26272.8
 14 03 2013  02 53  -21.0241 26049.1 -03420.5 -07.4806 26272.7
 14 03 2013  02 54  -21.0241 26049.2 -03420.6 -07.4808 26272.9
 14 03 2013  02 55  -21.0240 26049.2 -03420.6 -07.4809 26272.8
 14 03 2013  02 56  -21.0238 26049.3 -03420.7 -07.4810 26272.9
 14 03 2013  02 57  -21.0237 26049.3 -03420.7 -07.4811 26272.9
 14 03 2013  02 58  -21.0238 26049.2 -03420.7 -07.4811 26272.9
 14 03 2013  02 59  -21.0237 26049.4 -03420.8 -07.4813 26273.0
 14 03 2013  03 00  -21.0239 26049.3 -03420.9 -07.4814 26273.0
 14 03 2013  03 01  -21.0240 26049.3 -03420.9 -07.4814 26272.9
 14 03 2013  03 02  -21.0240 26049.2 -03420.8 -07.4814 26272.8
 14 03 2013  03 03  -21.0241 26048.9 -03420.8 -07.4813 26272.6
 14 03 2013  03 04  -21.0242 26048.8 -03420.7 -07.4812 26272.4
 14 03 2013  03 05  -21.0242 26048.7 -03420.7 -07.4812 26272.3
 14 03 2013  03 06  -21.0242 26048.6 -03420.7 -07.4813 26272.3
 14 03 2013  03 07  -21.0240 26048.7 -03420.8 -07.4814 26272.3
 14 03 2013  03 08  -21.0239 26048.6 -03420.7 -07.4814 26272.2
 14 03 2013  03 09  -21.0239 26048.6 -03420.8 -07.4814 26272.2
 14 03 2013  03 10  -21.0239 26048.6 -03420.8 -07.4814 26272.2
 14 03 2013  03 11  -21.0239 26048.6 -03420.8 -07.4815 26272.3
 14 03 2013  03 12  -21.0237 26048.6 -03420.9 -07.4816 26272.3
 14 03 2013  03 13  -21.0237 26048.6 -03420.9 -07.4817 26272.2
 14 03 2013  03 14  -21.0235 26048.6 -03421.0 -07.4819 26272.3
 14 03 2013  03 15  -21.0231 26048.7 -03421.1 -07.4820 26272.4
 14 03 2013  03 16  -21.0230 26048.8 -03421.1 -07.4821 26272.5
 14 03 2013  03 17  -21.0232 26048.9 -03421.2 -07.4822 26272.6
 14 03 2013  03 18  -21.0234 26048.9 -03421.3 -07.4824 26272.6
 14 03 2013  03 19  -21.0235 26048.9 -03421.2 -07.4823 26272.6
 14 03 2013  03 20  -21.0235 26048.7 -03421.1 -07.4822 26272.4
 14 03 2013  03 21  -21.0235 26048.7 -03421.1 -07.4821 26272.4
 14 03 2013  03 22  -21.0236 26048.8 -03421.1 -07.4821 26272.5
 14 03 2013  03 23  -21.0239 26048.8 -03421.2 -07.4822 26272.6
 14 03 2013  03 24  -21.0243 26048.9 -03421.2 -07.4823 26272.6
 14 03 2013  03 25  -21.0247 26048.8 -03421.2 -07.4822 26272.5
 14 03 2013  03 26  -21.0251 26048.7 -03421.1 -07.4821 26272.4
 14 03 2013  03 27  -21.0254 26048.7 -03421.1 -07.4820 26272.4
 14 03 2013  03 28  -21.0256 26048.7 -03421.0 -07.4820 26272.4
 14 03 2013  03 29  -21.0256 26048.7 -03421.0 -07.4819 26272.3
 14 03 2013  03 30  -21.0256 26048.6 -03420.9 -07.4817 26272.3
 14 03 2013  03 31  -21.0258 26048.5 -03420.8 -07.4816 26272.2
 14 03 2013  03 32  -21.0259 26048.4 -03420.8 -07.4815 26272.1
 14 03 2013  03 33  -21.0261 26048.4 -03420.8 -07.4815 26272.0
 14 03 2013  03 34  -21.0262 26048.3 -03420.8 -07.4814 26272.0
 14 03 2013  03 35  -21.0262 26048.3 -03420.8 -07.4815 26271.9
 14 03 2013  03 36  -21.0263 26048.3 -03420.8 -07.4816 26271.9
 14 03 2013  03 37  -21.0265 26048.3 -03420.8 -07.4816 26271.9
 14 03 2013  03 38  -21.0266 26048.4 -03420.9 -07.4817 26272.0
 14 03 2013  03 39  -21.0267 26048.4 -03420.9 -07.4817 26272.0
 14 03 2013  03 40  -21.0267 26048.4 -03420.9 -07.4817 26272.1
 14 03 2013  03 41  -21.0268 26048.5 -03420.9 -07.4817 26272.2
 14 03 2013  03 42  -21.0270 26048.5 -03420.9 -07.4817 26272.2
 14 03 2013  03 43  -21.0272 26048.6 -03420.9 -07.4817 26272.2
 14 03 2013  03 44  -21.0274 26048.6 -03421.0 -07.4818 26272.3
 14 03 2013  03 45  -21.0277 26048.7 -03421.0 -07.4818 26272.4
 14 03 2013  03 46  -21.0279 26048.8 -03421.0 -07.4819 26272.5
 14 03 2013  03 47  -21.0281 26048.8 -03421.0 -07.4819 26272.5
 14 03 2013  03 48  -21.0283 26048.8 -03421.0 -07.4819 26272.5
 14 03 2013  03 49  -21.0283 26048.9 -03421.0 -07.4819 26272.5
 14 03 2013  03 50  -21.0284 26048.9 -03421.0 -07.4819 26272.5
 14 03 2013  03 51  -21.0285 26048.9 -03421.0 -07.4818 26272.6
 14 03 2013  03 52  -21.0285 26048.9 -03421.0 -07.4818 26272.6
 14 03 2013  03 53  -21.0287 26049.0 -03421.1 -07.4819 26272.7
 14 03 2013  03 54  -21.0290 26049.0 -03421.0 -07.4819 26272.7
 14 03 2013  03 55  -21.0292 26049.0 -03421.0 -07.4819 26272.7
 14 03 2013  03 56  -21.0294 26048.9 -03421.0 -07.4818 26272.6
 14 03 2013  03 57  -21.0295 26048.9 -03421.0 -07.4818 26272.6
 14 03 2013  03 58  -21.0297 26048.9 -03421.0 -07.4818 26272.6
 14 03 2013  03 59  -21.0299 26048.9 -03421.0 -07.4819 26272.6
 14 03 2013  04 00  -21.0301 26048.9 -03421.1 -07.4820 26272.6
 14 03 2013  04 01  -21.0303 26048.8 -03421.0 -07.4819 26272.5
 14 03 2013  04 02  -21.0305 26048.8 -03421.1 -07.4820 26272.5
 14 03 2013  04 03  -21.0307 26048.8 -03421.1 -07.4820 26272.5
 14 03 2013  04 04  -21.0309 26048.7 -03421.1 -07.4820 26272.4
 14 03 2013  04 05  -21.0312 26048.6 -03421.0 -07.4820 26272.3
 14 03 2013  04 06  -21.0316 26048.5 -03421.0 -07.4820 26272.2
 14 03 2013  04 07  -21.0320 26048.4 -03421.0 -07.4820 26272.1
 14 03 2013  04 08  -21.0322 26048.5 -03421.0 -07.4820 26272.2
 14 03 2013  04 09  -21.0324 26048.5 -03421.1 -07.4821 26272.2
 14 03 2013  04 10  -21.0327 26048.4 -03421.1 -07.4822 26272.1
 14 03 2013  04 11  -21.0330 26048.4 -03421.1 -07.4822 26272.1
 14 03 2013  04 12  -21.0334 26048.3 -03421.1 -07.4822 26272.0
 14 03 2013  04 13  -21.0338 26048.2 -03421.1 -07.4821 26271.9
 14 03 2013  04 14  -21.0343 26048.1 -03421.0 -07.4821 26271.8
 14 03 2013  04 15  -21.0346 26048.0 -03421.0 -07.4820 26271.7
 14 03 2013  04 16  -21.0349 26047.8 -03420.9 -07.4818 26271.5
 14 03 2013  04 17  -21.0350 26047.6 -03420.8 -07.4817 26271.3
 14 03 2013  04 18  -21.0350 26047.3 -03420.7 -07.4815 26271.0
 14 03 2013  04 19  -21.0352 26046.8 -03420.5 -07.4812 26270.4
 14 03 2013  04 20  -21.0355 26046.2 -03420.1 -07.4807 26269.8
 14 03 2013  04 21  -21.0358 26045.6 -03419.9 -07.4803 26269.2
 14 03 2013  04 22  -21.0361 26045.1 -03419.7 -07.4800 26268.7
 14 03 2013  04 23  -21.0367 26044.9 -03419.6 -07.4799 26268.4
 14 03 2013  04 24  -21.0372 26044.9 -03419.6 -07.4800 26268.4
 14 03 2013  04 25  -21.0376 26045.0 -03419.8 -07.4802 26268.6
 14 03 2013  04 26  -21.0380 26045.3 -03420.0 -07.4806 26268.9
 14 03 2013  04 27  -21.0384 26045.5 -03420.1 -07.4808 26269.1
 14 03 2013  04 28  -21.0389 26045.7 -03420.1 -07.4809 26269.3
 14 03 2013  04 29  -21.0388 26045.8 -03420.2 -07.4809 26269.4
 14 03 2013  04 30  -21.0386 26045.9 -03420.1 -07.4808 26269.5
 14 03 2013  04 31  -21.0384 26045.8 -03420.0 -07.4806 26269.4
 14 03 2013  04 32  -21.0382 26045.7 -03420.0 -07.4805 26269.3
 14 03 2013  04 33  -21.0379 26045.6 -03419.9 -07.4803 26269.2
 14 03 2013  04 34  -21.0378 26045.3 -03419.7 -07.4801 26268.9
 14 03 2013  04 35  -21.0378 26045.1 -03419.6 -07.4799 26268.6
 14 03 2013  04 36  -21.0378 26044.8 -03419.4 -07.4796 26268.3
 14 03 2013  04 37  -21.0379 26044.5 -03419.3 -07.4794 26268.0
 14 03 2013  04 38  -21.0380 26044.4 -03419.2 -07.4793 26267.9
 14 03 2013  04 39  -21.0381 26044.3 -03419.2 -07.4792 26267.8
 14 03 2013  04 40  -21.0384 26044.2 -03419.2 -07.4792 26267.7
 14 03 2013  04 41  -21.0386 26044.1 -03419.2 -07.4792 26267.6
 14 03 2013  04 42  -21.0387 26044.1 -03419.1 -07.4791 26267.5
 14 03 2013  04 43  -21.0388 26044.0 -03419.1 -07.4791 26267.5
 14 03 2013  04 44  -21.0389 26044.0 -03419.1 -07.4790 26267.5
 14 03 2013  04 45  -21.0389 26044.0 -03419.1 -07.4790 26267.5
 14 03 2013  04 46  -21.0389 26044.1 -03419.1 -07.4790 26267.5
 14 03 2013  04 47  -21.0387 26044.2 -03419.1 -07.4790 26267.6
 14 03 2013  04 48  -21.0387 26044.2 -03419.1 -07.4790 26267.7
 14 03 2013  04 49  -21.0385 26044.3 -03419.1 -07.4790 26267.7
 14 03 2013  04 50  -21.0383 26044.4 -03419.2 -07.4792 26267.9
 14 03 2013  04 51  -21.0382 26044.6 -03419.2 -07.4793 26268.0
 14 03 2013  04 52  -21.0379 26044.7 -03419.3 -07.4793 26268.1
 14 03 2013  04 53  -21.0376 26044.7 -03419.3 -07.4793 26268.2
 14 03 2013  04 54  -21.0373 26044.9 -03419.3 -07.4794 26268.4
 14 03 2013  04 55  -21.0369 26045.0 -03419.3 -07.4793 26268.5
 14 03 2013  04 56  -21.0365 26045.0 -03419.4 -07.4794 26268.5
 14 03 2013  04 57  -21.0362 26045.0 -03419.3 -07.4793 26268.5
 14 03 2013  04 58  -21.0359 26044.9 -03419.3 -07.4792 26268.4
 14 03 2013  04 59  -21.0357 26044.9 -03419.3 -07.4792 26268.4
 14 03 2013  05 00  -21.0353 26045.0 -03419.2 -07.4791 26268.5
 14 03 2013  05 01  -21.0351 26045.0 -03419.3 -07.4792 26268.5
 14 03 2013  05 02  -21.0349 26045.0 -03419.3 -07.4792 26268.5
 14 03 2013  05 03  -21.0346 26045.1 -03419.3 -07.4793 26268.6
 14 03 2013  05 04  -21.0343 26045.3 -03419.4 -07.4793 26268.8
 14 03 2013  05 05  -21.0339 26045.4 -03419.4 -07.4794 26268.9
 14 03 2013  05 06  -21.0336 26045.4 -03419.4 -07.4794 26268.9
 14 03 2013  05 07  -21.0334 26045.4 -03419.4 -07.4794 26268.9
 14 03 2013  05 08  -21.0332 26045.3 -03419.4 -07.4794 26268.8
 14 03 2013  05 09  -21.0330 26045.2 -03419.3 -07.4793 26268.7
 14 03 2013  05 10  -21.0331 26045.1 -03419.3 -07.4792 26268.6
 14 03 2013  05 11  -21.0331 26045.0 -03419.2 -07.4791 26268.4
 14 03 2013  05 12  -21.0331 26044.9 -03419.2 -07.4791 26268.4
 14 03 2013  05 13  -21.0331 26044.8 -03419.2 -07.4791 26268.3
 14 03 2013  05 14  -21.0330 26044.8 -03419.2 -07.4791 26268.2
 14 03 2013  05 15  -21.0330 26044.8 -03419.2 -07.4791 26268.3
 14 03 2013  05 16  -21.0329 26044.9 -03419.3 -07.4792 26268.4
 14 03 2013  05 17  -21.0330 26044.9 -03419.3 -07.4793 26268.4
 14 03 2013  05 18  -21.0330 26045.0 -03419.3 -07.4793 26268.5
 14 03 2013  05 19  -21.0330 26045.0 -03419.3 -07.4793 26268.5
 14 03 2013  05 20  -21.0328 26045.1 -03419.4 -07.4794 26268.6
 14 03 2013  05 21  -21.0327 26045.2 -03419.4 -07.4794 26268.7
 14 03 2013  05 22  -21.0326 26045.2 -03419.4 -07.4794 26268.7
 14 03 2013  05 23  -21.0325 26045.3 -03419.4 -07.4794 26268.8
 14 03 2013  05 24  -21.0324 26045.4 -03419.5 -07.4795 26268.9
 14 03 2013  05 25  -21.0324 26045.5 -03419.5 -07.4796 26269.0
 14 03 2013  05 26  -21.0323 26045.6 -03419.5 -07.4796 26269.1
 14 03 2013  05 27  -21.0322 26045.6 -03419.5 -07.4796 26269.1
 14 03 2013  05 28  -21.0321 26045.6 -03419.5 -07.4796 26269.1
 14 03 2013  05 29  -21.0319 26045.7 -03419.5 -07.4795 26269.2
 14 03 2013  05 30  -21.0318 26045.7 -03419.6 -07.4796 26269.2
 14 03 2013  05 31  -21.0317 26045.7 -03419.6 -07.4797 26269.2
 14 03 2013  05 32  -21.0316 26045.7 -03419.6 -07.4797 26269.3
 14 03 2013  05 33  -21.0314 26045.8 -03419.6 -07.4797 26269.3
 14 03 2013  05 34  -21.0313 26045.8 -03419.7 -07.4798 26269.4
 14 03 2013  05 35  -21.0313 26045.9 -03419.7 -07.4798 26269.4
 14 03 2013  05 36  -21.0311 26045.8 -03419.7 -07.4798 26269.4
 14 03 2013  05 37  -21.0311 26045.8 -03419.7 -07.4798 26269.3
 14 03 2013  05 38  -21.0310 26045.9 -03419.7 -07.4799 26269.4
 14 03 2013  05 39  -21.0308 26045.9 -03419.7 -07.4799 26269.5
 14 03 2013  05 40  -21.0306 26046.1 -03419.9 -07.4801 26269.7
 14 03 2013  05 41  -21.0305 26046.2 -03419.9 -07.4803 26269.8
 14 03 2013  05 42  -21.0304 26046.4 -03420.0 -07.4804 26270.0
 14 03 2013  05 43  -21.0303 26046.6 -03420.2 -07.4806 26270.2
 14 03 2013  05 44  -21.0302 26046.7 -03420.2 -07.4808 26270.3
 14 03 2013  05 45  -21.0301 26046.8 -03420.3 -07.4809 26270.4
 14 03 2013  05 46  -21.0299 26046.9 -03420.3 -07.4809 26270.5
 14 03 2013  05 47  -21.0299 26047.0 -03420.3 -07.4809 26270.6
 14 03 2013  05 48  -21.0298 26047.0 -03420.3 -07.4809 26270.6
 14 03 2013  05 49  -21.0297 26047.0 -03420.3 -07.4808 26270.6
 14 03 2013  05 50  -21.0297 26047.1 -03420.3 -07.4809 26270.7
 14 03 2013  05 51  -21.0297 26047.1 -03420.3 -07.4809 26270.7
 14 03 2013  05 52  -21.0297 26047.1 -03420.4 -07.4809 26270.7
 14 03 2013  05 53  -21.0296 26047.2 -03420.4 -07.4810 26270.8
 14 03 2013  05 54  -21.0297 26047.2 -03420.4 -07.4809 26270.8
 14 03 2013  05 55  -21.0296 26047.3 -03420.4 -07.4809 26270.9
 14 03 2013  05 56  -21.0296 26047.3 -03420.4 -07.4809 26270.9
 14 03 2013  05 57  -21.0296 26047.3 -03420.4 -07.4809 26270.9
 14 03 2013  05 58  -21.0296 26047.3 -03420.4 -07.4809 26270.9
 14 03 2013  05 59  -21.0294 26047.3 -03420.4 -07.4809 26270.9
 14 03 2013  06 00  -21.0293 26047.3 -03420.4 -07.4809 26270.9
 14 03 2013  06 01  -21.0293 26047.3 -03420.4 -07.4809 26270.9
 14 03 2013  06 02  -21.0293 26047.3 -03420.4 -07.4809 26270.9
 14 03 2013  06 03  -21.0293 26047.3 -03420.3 -07.4808 26270.9
 14 03 2013  06 04  -21.0293 26047.3 -03420.4 -07.4809 26271.0
 14 03 2013  06 05  -21.0294 26047.4 -03420.4 -07.4809 26271.0
 14 03 2013  06 06  -21.0293 26047.4 -03420.4 -07.4809 26271.0
 14 03 2013  06 07  -21.0294 26047.4 -03420.4 -07.4809 26271.0
 14 03 2013  06 08  -21.0295 26047.5 -03420.4 -07.4810 26271.1
 14 03 2013  06 09  -21.0295 26047.5 -03420.4 -07.4809 26271.1
 14 03 2013  06 10  -21.0294 26047.5 -03420.4 -07.4809 26271.1
 14 03 2013  06 11  -21.0295 26047.5 -03420.4 -07.4810 26271.2
 14 03 2013  06 12  -21.0297 26047.5 -03420.5 -07.4810 26271.2
 14 03 2013  06 13  -21.0299 26047.6 -03420.5 -07.4810 26271.2
 14 03 2013  06 14  -21.0300 26047.6 -03420.5 -07.4811 26271.3
 14 03 2013  06 15  -21.0300 26047.7 -03420.5 -07.4810 26271.3
 14 03 2013  06 16  -21.0300 26047.7 -03420.5 -07.4810 26271.3
 14 03 2013  06 17  -21.0299 26047.7 -03420.5 -07.4810 26271.3
 14 03 2013  06 18  -21.0300 26047.6 -03420.4 -07.4810 26271.2
 14 03 2013  06 19  -21.0300 26047.7 -03420.4 -07.4809 26271.3
 14 03 2013  06 20  -21.0301 26047.7 -03420.4 -07.4809 26271.3
 14 03 2013  06 21  -21.0303 26047.7 -03420.4 -07.4809 26271.3
 14 03 2013  06 22  -21.0305 26047.8 -03420.5 -07.4810 26271.4
 14 03 2013  06 23  -21.0306 26047.8 -03420.5 -07.4811 26271.4
 14 03 2013  06 24  -21.0305 26047.8 -03420.5 -07.4810 26271.4
 14 03 2013  06 25  -21.0306 26047.8 -03420.5 -07.4810 26271.4
 14 03 2013  06 26  -21.0307 26047.8 -03420.4 -07.4809 26271.4
 14 03 2013  06 27  -21.0308 26047.8 -03420.5 -07.4809 26271.4
 14 03 2013  06 28  -21.0308 26047.8 -03420.5 -07.4810 26271.4
 14 03 2013  06 29  -21.0308 26047.8 -03420.5 -07.4810 26271.4
 14 03 2013  06 30  -21.0308 26047.8 -03420.4 -07.4809 26271.4
 14 03 2013  06 31  -21.0308 26047.7 -03420.4 -07.4809 26271.4
 14 03 2013  06 32  -21.0308 26047.8 -03420.4 -07.4809 26271.4
 14 03 2013  06 33  -21.0309 26047.8 -03420.5 -07.4810 26271.4
 14 03 2013  06 34  -21.0309 26047.9 -03420.5 -07.4810 26271.5
 14 03 2013  06 35  -21.0309 26047.9 -03420.5 -07.4810 26271.5
 14 03 2013  06 36  -21.0308 26048.0 -03420.6 -07.4811 26271.6
 14 03 2013  06 37  -21.0307 26048.0 -03420.5 -07.4811 26271.6
 14 03 2013  06 38  -21.0305 26048.0 -03420.5 -07.4811 26271.7
 14 03 2013  06 39  -21.0304 26048.1 -03420.5 -07.4811 26271.7
 14 03 2013  06 40  -21.0303 26048.0 -03420.5 -07.4810 26271.7
 14 03 2013  06 41  -21.0302 26048.1 -03420.6 -07.4811 26271.7
 14 03 2013  06 42  -21.0301 26048.1 -03420.6 -07.4812 26271.7
 14 03 2013  06 43  -21.0300 26048.1 -03420.6 -07.4812 26271.8
 14 03 2013  06 44  -21.0299 26048.2 -03420.6 -07.4812 26271.9
 14 03 2013  06 45  -21.0298 26048.3 -03420.7 -07.4813 26272.0
 14 03 2013  06 46  -21.0295 26048.3 -03420.7 -07.4813 26272.0
 14 03 2013  06 47  -21.0294 26048.4 -03420.7 -07.4813 26272.0
 14 03 2013  06 48  -21.0293 26048.4 -03420.8 -07.4814 26272.1
 14 03 2013  06 49  -21.0292 26048.5 -03420.8 -07.4815 26272.1
 14 03 2013  06 50  -21.0291 26048.5 -03420.8 -07.4815 26272.1
 14 03 2013  06 51  -21.0290 26048.5 -03420.8 -07.4816 26272.1
 14 03 2013  06 52  -21.0290 26048.5 -03420.8 -07.4816 26272.2
 14 03 2013  06 53  -21.0289 26048.5 -03420.9 -07.4816 26272.2
 14 03 2013  06 54  -21.0287 26048.6 -03420.9 -07.4816 26272.2
 14 03 2013  06 55  -21.0288 26048.6 -03420.9 -07.4818 26272.3
 14 03 2013  06 56  -21.0288 26048.7 -03421.0 -07.4818 26272.4
 14 03 2013  06 57  -21.0286 26048.8 -03421.0 -07.4818 26272.4
 14 03 2013  06 58  -21.0285 26048.8 -03421.0 -07.4818 26272.4
 14 03 2013  06 59  -21.0284 26048.8 -03421.0 -07.4819 26272.5
 14 03 2013  07 00  -21.0283 26048.9 -03421.1 -07.4820 26272.6
 14 03 2013  07 01  -21.0281 26048.9 -03421.1 -07.4820 26272.6
 14 03 2013  07 02  -21.0280 26049.0 -03421.1 -07.4821 26272.7
 14 03 2013  07 03  -21.0278 26049.0 -03421.1 -07.4821 26272.7
 14 03 2013  07 04  -21.0276 26048.9 -03421.1 -07.4820 26272.6
 14 03 2013  07 05  -21.0275 26048.9 -03421.1 -07.4820 26272.6
 14 03 2013  07 06  -21.0275 26048.8 -03421.1 -07.4820 26272.5
 14 03 2013  07 07  -21.0275 26048.8 -03421.1 -07.4820 26272.5
 14 03 2013  07 08  -21.0276 26048.7 -03421.1 -07.4820 26272.4
 14 03 2013  07 09  -21.0275 26048.9 -03421.1 -07.4821 26272.5
 14 03 2013  07 10  -21.0273 26048.8 -03421.1 -07.4822 26272.5
 14 03 2013  07 11  -21.0273 26048.8 -03421.2 -07.4822 26272.5
 14 03 2013  07 12  -21.0273 26048.9 -03421.2 -07.4823 26272.6
 14 03 2013  07 13  -21.0272 26048.8 -03421.2 -07.4823 26272.5
 14 03 2013  07 14  -21.0269 26048.7 -03421.2 -07.4823 26272.4
 14 03 2013  07 15  -21.0267 26048.7 -03421.2 -07.4824 26272.4
 14 03 2013  07 16  -21.0274 26048.5 -03421.2 -07.4824 26272.2
 14 03 2013  07 17  -21.0276 26048.5 -03421.2 -07.4824 26272.2
 14 03 2013  07 18  -21.0273 26048.6 -03421.2 -07.4824 26272.3
 14 03 2013  07 19  -21.0275 26048.5 -03421.2 -07.4823 26272.2
 14 03 2013  07 20  -21.0274 26048.4 -03421.2 -07.4824 26272.1
 14 03 2013  07 21  -21.0274 26048.4 -03421.3 -07.4825 26272.1
 14 03 2013  07 22  -21.0275 26048.4 -03421.2 -07.4825 26272.1
 14 03 2013  07 23  -21.0274 26048.4 -03421.3 -07.4825 26272.1
 14 03 2013  07 24  -21.0273 26048.4 -03421.3 -07.4826 26272.1
 14 03 2013  07 25  -21.0273 26048.4 -03421.3 -07.4825 26272.1
 14 03 2013  07 26  -21.0273 26048.4 -03421.3 -07.4825 26272.1
 14 03 2013  07 27  -21.0273 26048.4 -03421.3 -07.4826 26272.1
 14 03 2013  07 28  -21.0274 26048.4 -03421.3 -07.4826 26272.1
 14 03 2013  07 29  -21.0276 26048.5 -03421.4 -07.4827 26272.2
 14 03 2013  07 30  -21.0275 26048.5 -03421.3 -07.4826 26272.2
 14 03 2013  07 31  -21.0275 26048.6 -03421.3 -07.4826 26272.3
 14 03 2013  07 32  -21.0275 26048.7 -03421.4 -07.4826 26272.4
 14 03 2013  07 33  -21.0276 26048.7 -03421.4 -07.4827 26272.5
 14 03 2013  07 34  -21.0277 26048.8 -03421.4 -07.4827 26272.5
 14 03 2013  07 35  -21.0278 26048.8 -03421.4 -07.4826 26272.5
 14 03 2013  07 36  -21.0278 26048.8 -03421.3 -07.4826 26272.5
 14 03 2013  07 37  -21.0279 26048.7 -03421.3 -07.4826 26272.5
 14 03 2013  07 38  -21.0278 26048.7 -03421.3 -07.4826 26272.5
 14 03 2013  07 39  -21.0278 26048.8 -03421.3 -07.4826 26272.5
 14 03 2013  07 40  -21.0278 26048.7 -03421.4 -07.4826 26272.4
 14 03 2013  07 41  -21.0279 26048.6 -03421.4 -07.4827 26272.3
 14 03 2013  07 42  -21.0279 26048.5 -03421.3 -07.4827 26272.2
 14 03 2013  07 43  -21.0279 26048.5 -03421.3 -07.4827 26272.2
 14 03 2013  07 44  -21.0279 26048.5 -03421.3 -07.4827 26272.2
 14 03 2013  07 45  -21.0279 26048.4 -03421.4 -07.4828 26272.2
 14 03 2013  07 46  -21.0280 26048.4 -03421.4 -07.4828 26272.1
 14 03 2013  07 47  -21.0281 26048.4 -03421.4 -07.4829 26272.1
 14 03 2013  07 48  -21.0282 26048.4 -03421.4 -07.4829 26272.2
 14 03 2013  07 49  -21.0284 26048.5 -03421.5 -07.4829 26272.3
 14 03 2013  07 50  -21.0285 26048.5 -03421.4 -07.4829 26272.2
 14 03 2013  07 51  -21.0287 26048.6 -03421.5 -07.4829 26272.3
 14 03 2013  07 52  -21.0287 26048.6 -03421.5 -07.4829 26272.3
 14 03 2013  07 53  -21.0289 26048.6 -03421.5 -07.4829 26272.3
 14 03 2013  07 54  -21.0289 26048.6 -03421.4 -07.4829 26272.3
 14 03 2013  07 55  -21.0289 26048.6 -03421.5 -07.4829 26272.4
 14 03 2013  07 56  -21.0289 26048.6 -03421.4 -07.4829 26272.3
 14 03 2013  07 57  -21.0289 26048.5 -03421.4 -07.4828 26272.3
 14 03 2013  07 58  -21.0289 26048.6 -03421.5 -07.4830 26272.3
 14 03 2013  07 59  -21.0289 26048.6 -03421.5 -07.4830 26272.3
 14 03 2013  08 00  -21.0287 26048.7 -03421.5 -07.4831 26272.4
 14 03 2013  08 01  -21.0287 26048.8 -03421.6 -07.4832 26272.6
 14 03 2013  08 02  -21.0285 26048.8 -03421.7 -07.4833 26272.6
 14 03 2013  08 03  -21.0283 26048.8 -03421.7 -07.4833 26272.6
 14 03 2013  08 04  -21.0281 26048.9 -03421.8 -07.4835 26272.7
 14 03 2013  08 05  -21.0278 26048.9 -03421.7 -07.4834 26272.7
 14 03 2013  08 06  -21.0277 26048.9 -03421.8 -07.4836 26272.7
 14 03 2013  08 07  -21.0277 26049.0 -03421.8 -07.4836 26272.7
 14 03 2013  08 08  -21.0276 26048.9 -03421.8 -07.4836 26272.7
 14 03 2013  08 09  -21.0278 26049.0 -03421.9 -07.4837 26272.8
 14 03 2013  08 10  -21.0278 26049.0 -03421.9 -07.4837 26272.8
 14 03 2013  08 11  -21.0278 26049.1 -03421.9 -07.4837 26272.9
 14 03 2013  08 12  -21.0278 26049.1 -03422.0 -07.4838 26272.9
 14 03 2013  08 13  -21.0278 26049.0 -03421.9 -07.4837 26272.8
 14 03 2013  08 14  -21.0278 26049.1 -03422.0 -07.4838 26272.9
 14 03 2013  08 15  -21.0278 26049.1 -03422.0 -07.4839 26272.9
 14 03 2013  08 16  -21.0278 26049.0 -03421.9 -07.4838 26272.8
 14 03 2013  08 17  -21.0279 26049.0 -03421.9 -07.4838 26272.8
 14 03 2013  08 18  -21.0279 26049.0 -03421.9 -07.4838 26272.8
 14 03 2013  08 19  -21.0280 26049.0 -03422.0 -07.4839 26272.9
 14 03 2013  08 20  -21.0280 26049.0 -03422.0 -07.4839 26272.9
 14 03 2013  08 21  -21.0281 26049.0 -03422.0 -07.4839 26272.8
 14 03 2013  08 22  -21.0281 26049.0 -03422.0 -07.4839 26272.8
 14 03 2013  08 23  -21.0280 26049.0 -03422.0 -07.4839 26272.8
 14 03 2013  08 24  -21.0281 26048.9 -03422.0 -07.4840 26272.7
 14 03 2013  08 25  -21.0281 26048.9 -03422.0 -07.4841 26272.7
 14 03 2013  08 26  -21.0282 26048.9 -03422.1 -07.4842 26272.7
 14 03 2013  08 27  -21.0283 26048.8 -03422.1 -07.4842 26272.7
 14 03 2013  08 28  -21.0285 26048.8 -03422.1 -07.4842 26272.6
 14 03 2013  08 29  -21.0288 26048.7 -03422.1 -07.4842 26272.6
 14 03 2013  08 30  -21.0290 26048.7 -03422.1 -07.4842 26272.5
 14 03 2013  08 31  -21.0294 26048.7 -03422.1 -07.4842 26272.6
 14 03 2013  08 32  -21.0296 26048.7 -03422.1 -07.4843 26272.6
 14 03 2013  08 33  -21.0300 26048.8 -03422.2 -07.4844 26272.6
 14 03 2013  08 34  -21.0301 26048.7 -03422.2 -07.4844 26272.6
 14 03 2013  08 35  -21.0305 26048.8 -03422.2 -07.4844 26272.6
 14 03 2013  08 36  -21.0308 26048.8 -03422.2 -07.4844 26272.6
 14 03 2013  08 37  -21.0308 26048.8 -03422.1 -07.4843 26272.6
 14 03 2013  08 38  -21.0309 26048.8 -03422.2 -07.4843 26272.7
 14 03 2013  08 39  -21.0312 26048.8 -03422.1 -07.4843 26272.6
 14 03 2013  08 40  -21.0313 26048.8 -03422.2 -07.4843 26272.6
 14 03 2013  08 41  -21.0317 26048.8 -03422.2 -07.4844 26272.6
 14 03 2013  08 42  -21.0321 26048.8 -03422.2 -07.4844 26272.6
 14 03 2013  08 43  -21.0324 26048.7 -03422.2 -07.4844 26272.6
 14 03 2013  08 44  -21.0328 26048.7 -03422.2 -07.4844 26272.6
 14 03 2013  08 45  -21.0333 26048.7 -03422.2 -07.4844 26272.5
 14 03 2013  08 46  -21.0336 26048.7 -03422.2 -07.4844 26272.6
 14 03 2013  08 47  -21.0338 26048.7 -03422.2 -07.4844 26272.5
 14 03 2013  08 48  -21.0342 26048.7 -03422.1 -07.4843 26272.5
 14 03 2013  08 49  -21.0344 26048.8 -03422.1 -07.4843 26272.6
 14 03 2013  08 50  -21.0348 26048.8 -03422.2 -07.4843 26272.7
 14 03 2013  08 51  -21.0351 26048.9 -03422.2 -07.4844 26272.7
 14 03 2013  08 52  -21.0356 26049.0 -03422.3 -07.4846 26272.9
 14 03 2013  08 53  -21.0360 26049.1 -03422.3 -07.4845 26273.0
 14 03 2013  08 54  -21.0365 26049.3 -03422.5 -07.4848 26273.2
 14 03 2013  08 55  -21.0370 26049.4 -03422.5 -07.4850 26273.2
 14 03 2013  08 56  -21.0375 26049.4 -03422.6 -07.4851 26273.3
 14 03 2013  08 57  -21.0380 26049.5 -03422.6 -07.4852 26273.4
 14 03 2013  08 58  -21.0388 26049.5 -03422.7 -07.4853 26273.4
 14 03 2013  08 59  -21.0396 26049.6 -03422.7 -07.4854 26273.5
 14 03 2013  09 00  -21.0406 26049.7 -03422.8 -07.4854 26273.6
 14 03 2013  09 01  -21.0415 26049.8 -03422.7 -07.4853 26273.7
 14 03 2013  09 02  -21.0422 26049.8 -03422.7 -07.4852 26273.7
 14 03 2013  09 03  -21.0429 26049.8 -03422.6 -07.4850 26273.7
 14 03 2013  09 04  -21.0437 26049.8 -03422.5 -07.4847 26273.7
 14 03 2013  09 05  -21.0443 26049.7 -03422.3 -07.4843 26273.6
 14 03 2013  09 06  -21.0450 26049.8 -03422.2 -07.4841 26273.6
 14 03 2013  09 07  -21.0455 26049.9 -03422.1 -07.4838 26273.7
 14 03 2013  09 08  -21.0459 26049.9 -03421.9 -07.4835 26273.7
 14 03 2013  09 09  -21.0461 26050.1 -03421.9 -07.4834 26273.9
 14 03 2013  09 10  -21.0462 26050.2 -03421.9 -07.4834 26274.0
 14 03 2013  09 11  -21.0466 26050.4 -03421.9 -07.4833 26274.2
 14 03 2013  09 12  -21.0468 26050.7 -03421.9 -07.4833 26274.5
 14 03 2013  09 13  -21.0470 26050.9 -03421.9 -07.4832 26274.7
 14 03 2013  09 14  -21.0471 26050.7 -03421.7 -07.4829 26274.4
 14 03 2013  09 15  -21.0472 26050.8 -03421.7 -07.4828 26274.5
 14 03 2013  09 16  -21.0476 26051.0 -03421.7 -07.4827 26274.8
 14 03 2013  09 17  -21.0479 26051.0 -03421.6 -07.4825 26274.8
 14 03 2013  09 18  -21.0484 26051.2 -03421.7 -07.4826 26275.0
 14 03 2013  09 19  -21.0485 26051.5 -03421.7 -07.4826 26275.3
 14 03 2013  09 20  -21.0485 26051.6 -03421.6 -07.4824 26275.4
 14 03 2013  09 21  -21.0489 26051.9 -03421.8 -07.4827 26275.6
 14 03 2013  09 22  -21.0492 26052.2 -03422.0 -07.4830 26276.0
 14 03 2013  09 23  -21.0499 26052.4 -03422.0 -07.4831 26276.2
 14 03 2013  09 24  -21.0502 26052.7 -03422.0 -07.4830 26276.5
 14 03 2013  09 25  -21.0510 26053.0 -03422.0 -07.4828 26276.8
 14 03 2013  09 26  -21.0519 26053.1 -03421.9 -07.4825 26276.8
 14 03 2013  09 27  -21.0528 26053.2 -03421.7 -07.4822 26276.9
 14 03 2013  09 28  -21.0535 26053.3 -03421.5 -07.4818 26277.0
 14 03 2013  09 29  -21.0544 26053.2 -03421.3 -07.4813 26276.9
 14 03 2013  09 30  -21.0546 26053.0 -03421.0 -07.4806 26276.7
 14 03 2013  09 31  -21.0539 26052.8 -03420.7 -07.4800 26276.4
 14 03 2013  09 32  -21.0538 26052.7 -03420.5 -07.4796 26276.2
 14 03 2013  09 33  -21.0544 26052.6 -03420.4 -07.4795 26276.2
 14 03 2013  09 34  -21.0550 26052.6 -03420.4 -07.4795 26276.1
 14 03 2013  09 35  -21.0557 26052.5 -03420.4 -07.4794 26276.1
 14 03 2013  09 36  -21.0561 26052.5 -03420.3 -07.4793 26276.1
 14 03 2013  09 37  -21.0562 26052.5 -03420.2 -07.4791 26276.1
 14 03 2013  09 38  -21.0563 26052.5 -03420.2 -07.4790 26276.1
 14 03 2013  09 39  -21.0566 26052.4 -03420.0 -07.4787 26275.9
 14 03 2013  09 40  -21.0573 26052.8 -03420.1 -07.4788 26276.3
 14 03 2013  09 41  -21.0580 26053.3 -03420.3 -07.4790 26276.9
 14 03 2013  09 42  -21.0583 26052.5 -03419.9 -07.4784 26276.0
 14 03 2013  09 43  -21.0578 26052.9 -03420.0 -07.4785 26276.4
 14 03 2013  09 44  -21.0576 26052.6 -03419.8 -07.4781 26276.1
 14 03 2013  09 45  -21.0575 26052.2 -03419.6 -07.4777 26275.6
 14 03 2013  09 46  -21.0579 26052.0 -03419.5 -07.4778 26275.5
 14 03 2013  09 47  -21.0583 26052.1 -03419.6 -07.4779 26275.5
 14 03 2013  09 48  -21.0590 26052.1 -03419.6 -07.4778 26275.5
 14 03 2013  09 49  -21.0598 26052.2 -03419.5 -07.4777 26275.7
 14 03 2013  09 50  -21.0599 26052.4 -03419.5 -07.4775 26275.9
 14 03 2013  09 51  -21.0603 26053.2 -03419.6 -07.4775 26276.6
 14 03 2013  09 52  -21.0614 26052.5 -03419.4 -07.4772 26276.0
 14 03 2013  09 53  -21.0613 26052.5 -03419.3 -07.4771 26276.0
 14 03 2013  09 54  -21.0599 26053.1 -03419.4 -07.4772 26276.5
 14 03 2013  09 55  -21.0602 26053.3 -03419.5 -07.4773 26276.7
 14 03 2013  09 56  -21.0606 26054.2 -03419.7 -07.4776 26277.7
 14 03 2013  09 57  -21.0618 26055.0 -03419.9 -07.4778 26278.5
 14 03 2013  09 58  -21.0631 26055.3 -03419.9 -07.4776 26278.8
 14 03 2013  09 59  -21.0632 26055.6 -03419.8 -07.4773 26279.1
 14 03 2013  10 00  -21.0633 26056.1 -03419.8 -07.4772 26279.5
 14 03 2013  10 01  -21.0632 26056.3 -03419.7 -07.4770 26279.7
 14 03 2013  10 02  -21.0632 26055.8 -03419.4 -07.4763 26279.2
 14 03 2013  10 03  -21.0624 26055.5 -03419.0 -07.4757 26278.8
 14 03 2013  10 04  -21.0619 26055.6 -03418.9 -07.4755 26279.0
 14 03 2013  10 05  -21.0616 26056.1 -03419.0 -07.4755 26279.5
 14 03 2013  10 06  -21.0614 26056.3 -03419.0 -07.4754 26279.7
 14 03 2013  10 07  -21.0619 26056.9 -03419.1 -07.4755 26280.2
 14 03 2013  10 08  -21.0631 26057.6 -03419.4 -07.4758 26281.0
 14 03 2013  10 09  -21.0642 26057.9 -03419.4 -07.4758 26281.3
 14 03 2013  10 10  -21.0648 26058.3 -03419.3 -07.4756 26281.7
 14 03 2013  10 11  -21.0656 26058.0 -03419.0 -07.4749 26281.3
 14 03 2013  10 12  -21.0663 26057.8 -03418.7 -07.4742 26281.1
 14 03 2013  10 13  -21.0669 26057.6 -03418.3 -07.4735 26280.9
 14 03 2013  10 14  -21.0672 26057.3 -03417.8 -07.4726 26280.5
 14 03 2013  10 15  -21.0677 26057.1 -03417.5 -07.4720 26280.2
 14 03 2013  10 16  -21.0680 26056.5 -03417.2 -07.4714 26279.6
 14 03 2013  10 17  -21.0669 26055.9 -03416.8 -07.4708 26278.9
 14 03 2013  10 18  -21.0653 26054.8 -03416.5 -07.4704 26277.8
 14 03 2013  10 19  -21.0636 26054.1 -03416.4 -07.4704 26277.1
 14 03 2013  10 20  -21.0625 26053.6 -03416.5 -07.4708 26276.7
 14 03 2013  10 21  -21.0622 26053.3 -03416.7 -07.4712 26276.4
 14 03 2013  10 22  -21.0622 26053.5 -03417.0 -07.4718 26276.6
 14 03 2013  10 23  -21.0625 26053.6 -03417.3 -07.4725 26276.8
 14 03 2013  10 24  -21.0627 26053.9 -03417.6 -07.4730 26277.1
 14 03 2013  10 25  -21.0630 26054.1 -03417.8 -07.4734 26277.3
 14 03 2013  10 26  -21.0630 26054.4 -03418.0 -07.4737 26277.6
 14 03 2013  10 27  -21.0632 26054.6 -03418.1 -07.4739 26277.9
 14 03 2013  10 28  -21.0635 26054.9 -03418.2 -07.4741 26278.2
 14 03 2013  10 29  -21.0642 26055.2 -03418.3 -07.4742 26278.4
 14 03 2013  10 30  -21.0648 26055.4 -03418.4 -07.4743 26278.7
 14 03 2013  10 31  -21.0651 26055.6 -03418.4 -07.4744 26278.9
 14 03 2013  10 32  -21.0653 26055.6 -03418.4 -07.4742 26278.9
 14 03 2013  10 33  -21.0654 26055.8 -03418.3 -07.4741 26279.0
 14 03 2013  10 34  -21.0652 26055.8 -03418.3 -07.4740 26279.0
 14 03 2013  10 35  -21.0651 26055.8 -03418.2 -07.4739 26279.1
 14 03 2013  10 36  -21.0650 26056.0 -03418.3 -07.4739 26279.3
 14 03 2013  10 37  -21.0649 26056.2 -03418.4 -07.4740 26279.5
 14 03 2013  10 38  -21.0645 26056.4 -03418.4 -07.4740 26279.6
 14 03 2013  10 39  -21.0643 26056.4 -03418.4 -07.4741 26279.6
 14 03 2013  10 40  -21.0642 26056.6 -03418.5 -07.4741 26279.9
 14 03 2013  10 41  -21.0644 26057.0 -03418.6 -07.4743 26280.3
 14 03 2013  10 42  -21.0640 26057.4 -03418.6 -07.4742 26280.7
 14 03 2013  10 43  -21.0637 26057.7 -03418.5 -07.4739 26280.9
 14 03 2013  10 44  -21.0638 26057.8 -03418.4 -07.4738 26281.1
 14 03 2013  10 45  -21.0639 26057.9 -03418.4 -07.4736 26281.2
 14 03 2013  10 46  -21.0636 26058.0 -03418.3 -07.4734 26281.2
 14 03 2013  10 47  -21.0633 26057.9 -03418.1 -07.4731 26281.1
 14 03 2013  10 48  -21.0630 26058.0 -03418.2 -07.4731 26281.3
 14 03 2013  10 49  -21.0626 26058.0 -03418.1 -07.4730 26281.3
 14 03 2013  10 50  -21.0624 26058.1 -03418.1 -07.4730 26281.3
 14 03 2013  10 51  -21.0624 26058.1 -03418.1 -07.4730 26281.4
 14 03 2013  10 52  -21.0624 26058.6 -03418.3 -07.4733 26281.8
 14 03 2013  10 53  -21.0624 26058.9 -03418.4 -07.4734 26282.1
 14 03 2013  10 54  -21.0620 26059.0 -03418.4 -07.4733 26282.3
 14 03 2013  10 55  -21.0616 26059.2 -03418.4 -07.4733 26282.4
 14 03 2013  10 56  -21.0616 26059.4 -03418.4 -07.4732 26282.6
 14 03 2013  10 57  -21.0619 26059.6 -03418.5 -07.4733 26282.8
 14 03 2013  10 58  -21.0618 26059.6 -03418.4 -07.4732 26282.9
 14 03 2013  10 59  -21.0615 26059.9 -03418.4 -07.4731 26283.1
 14 03 2013  11 00  -21.0612 26060.2 -03418.5 -07.4732 26283.4
 14 03 2013  11 01  -21.0608 26060.6 -03418.5 -07.4732 26283.8
 14 03 2013  11 02  -21.0602 26060.9 -03418.6 -07.4732 26284.2
 14 03 2013  11 03  -21.0596 26061.1 -03418.6 -07.4732 26284.4
 14 03 2013  11 04  -21.0597 26061.4 -03418.6 -07.4732 26284.6
 14 03 2013  11 05  -21.0597 26062.0 -03418.8 -07.4734 26285.3
 14 03 2013  11 06  -21.0595 26062.5 -03418.9 -07.4735 26285.8
 14 03 2013  11 07  -21.0591 26063.1 -03419.0 -07.4734 26286.4
 14 03 2013  11 08  -21.0589 26063.6 -03419.0 -07.4734 26286.9
 14 03 2013  11 09  -21.0586 26064.0 -03419.0 -07.4732 26287.3
 14 03 2013  11 10  -21.0586 26064.5 -03419.0 -07.4731 26287.8
 14 03 2013  11 11  -21.0586 26064.8 -03419.1 -07.4731 26288.1
 14 03 2013  11 12  -21.0584 26064.9 -03419.0 -07.4730 26288.2
 14 03 2013  11 13  -21.0585 26065.1 -03419.0 -07.4730 26288.4
 14 03 2013  11 14  -21.0584 26065.4 -03419.1 -07.4730 26288.7
 14 03 2013  11 15  -21.0584 26065.5 -03419.0 -07.4728 26288.8
 14 03 2013  11 16  -21.0581 26065.8 -03419.0 -07.4728 26289.1
 14 03 2013  11 17  -21.0579 26066.2 -03419.1 -07.4728 26289.5
 14 03 2013  11 18  -21.0578 26066.5 -03419.1 -07.4727 26289.8
 14 03 2013  11 19  -21.0579 26066.6 -03419.1 -07.4726 26289.9
 14 03 2013  11 20  -21.0574 26066.8 -03419.1 -07.4727 26290.1
 14 03 2013  11 21  -21.0567 26067.1 -03419.2 -07.4728 26290.4
 14 03 2013  11 22  -21.0567 26067.4 -03419.4 -07.4730 26290.7
 14 03 2013  11 23  -21.0565 26068.1 -03419.6 -07.4733 26291.4
 14 03 2013  11 24  -21.0561 26068.5 -03419.7 -07.4734 26291.8
 14 03 2013  11 25  -21.0561 26068.8 -03419.6 -07.4732 26292.1
 14 03 2013  11 26  -21.0567 26069.2 -03419.7 -07.4732 26292.6
 14 03 2013  11 27  -21.0566 26069.3 -03419.5 -07.4728 26292.6
 14 03 2013  11 28  -21.0567 26069.1 -03419.4 -07.4725 26292.4
 14 03 2013  11 29  -21.0569 26069.1 -03419.3 -07.4724 26292.4
 14 03 2013  11 30  -21.0572 26069.2 -03419.2 -07.4723 26292.4
 14 03 2013  11 31  -21.0574 26069.3 -03419.2 -07.4722 26292.5
 14 03 2013  11 32  -21.0576 26069.2 -03419.1 -07.4721 26292.4
 14 03 2013  11 33  -21.0579 26068.9 -03419.0 -07.4719 26292.2
 14 03 2013  11 34  -21.0584 26068.7 -03419.0 -07.4719 26292.0
 14 03 2013  11 35  -21.0587 26068.3 -03418.9 -07.4717 26291.5
 14 03 2013  11 36  -21.0594 26067.7 -03418.8 -07.4716 26291.0
 14 03 2013  11 37  -21.0597 26067.6 -03418.8 -07.4718 26290.8
 14 03 2013  11 38  -21.0597 26067.6 -03419.0 -07.4721 26290.8
 14 03 2013  11 39  -21.0596 26067.4 -03419.0 -07.4722 26290.7
 14 03 2013  11 40  -21.0595 26067.4 -03419.0 -07.4723 26290.7
 14 03 2013  11 41  -21.0597 26067.5 -03419.2 -07.4725 26290.8
 14 03 2013  11 42  -21.0597 26067.8 -03419.3 -07.4727 26291.1
 14 03 2013  11 43  -21.0596 26068.2 -03419.4 -07.4728 26291.5
 14 03 2013  11 44  -21.0593 26068.3 -03419.3 -07.4727 26291.6
 14 03 2013  11 45  -21.0591 26068.5 -03419.4 -07.4727 26291.8
 14 03 2013  11 46  -21.0592 26068.4 -03419.3 -07.4726 26291.7
 14 03 2013  11 47  -21.0592 26068.5 -03419.3 -07.4725 26291.8
 14 03 2013  11 48  -21.0590 26068.8 -03419.4 -07.4726 26292.1
 14 03 2013  11 49  -21.0590 26069.0 -03419.4 -07.4727 26292.2
 14 03 2013  11 50  -21.0591 26069.1 -03419.4 -07.4726 26292.4
 14 03 2013  11 51  -21.0592 26069.5 -03419.5 -07.4726 26292.8
 14 03 2013  11 52  -21.0592 26069.9 -03419.5 -07.4726 26293.2
 14 03 2013  11 53  -21.0590 26070.3 -03419.5 -07.4725 26293.6
 14 03 2013  11 54  -21.0587 26070.7 -03419.5 -07.4723 26294.0
 14 03 2013  11 55  -21.0587 26070.9 -03419.3 -07.4719 26294.2
 14 03 2013  11 56  -21.0587 26071.2 -03419.3 -07.4718 26294.5
 14 03 2013  11 57  -21.0587 26071.5 -03419.2 -07.4715 26294.8
 14 03 2013  11 58  -21.0588 26072.0 -03419.2 -07.4714 26295.2
 14 03 2013  11 59  -21.0589 26072.3 -03419.2 -07.4712 26295.5
 14 03 2013  12 00  -21.0590 26072.5 -03419.1 -07.4710 26295.8
 14 03 2013  12 01  -21.0591 26072.7 -03419.0 -07.4707 26295.9
 14 03 2013  12 02  -21.0591 26073.0 -03418.9 -07.4705 26296.2
 14 03 2013  12 03  -21.0590 26073.3 -03418.8 -07.4702 26296.5
 14 03 2013  12 04  -21.0588 26073.4 -03418.7 -07.4699 26296.6
 14 03 2013  12 05  -21.0587 26073.3 -03418.5 -07.4695 26296.4
 14 03 2013  12 06  -21.0588 26073.2 -03418.4 -07.4692 26296.3
 14 03 2013  12 07  -21.0585 26073.4 -03418.4 -07.4692 26296.6
 14 03 2013  12 08  -21.0581 26073.5 -03418.3 -07.4691 26296.6
 14 03 2013  12 09  -21.0576 26073.4 -03418.2 -07.4689 26296.6
 14 03 2013  12 10  -21.0573 26073.6 -03418.3 -07.4689 26296.7
 14 03 2013  12 11  -21.0572 26073.7 -03418.3 -07.4689 26296.8
 14 03 2013  12 12  -21.0572 26073.4 -03418.1 -07.4687 26296.5
 14 03 2013  12 13  -21.0574 26073.6 -03418.2 -07.4687 26296.7
 14 03 2013  12 14  -21.0561 26075.5 -03418.8 -07.4695 26298.6
 14 03 2013  12 15  -21.0555 26075.1 -03418.5 -07.4690 26298.3
 14 03 2013  12 16  -21.0554 26075.2 -03418.3 -07.4685 26298.3
 14 03 2013  12 17  -21.0547 26076.3 -03418.7 -07.4690 26299.4
 14 03 2013  12 18  -21.0542 26076.2 -03418.4 -07.4684 26299.3
 14 03 2013  12 19  -21.0534 26076.5 -03418.3 -07.4682 26299.6
 14 03 2013  12 20  -21.0533 26076.8 -03418.4 -07.4682 26299.9
 14 03 2013  12 21  -21.0529 26077.3 -03418.5 -07.4682 26300.5
 14 03 2013  12 22  -21.0524 26077.4 -03418.3 -07.4679 26300.5
 14 03 2013  12 23  -21.0518 26077.1 -03418.1 -07.4675 26300.1
 14 03 2013  12 24  -21.0517 26076.5 -03417.8 -07.4672 26299.5
 14 03 2013  12 25  -21.0511 26076.8 -03418.1 -07.4676 26299.9
 14 03 2013  12 26  -21.0511 26077.0 -03418.2 -07.4677 26300.0
 14 03 2013  12 27  -21.0510 26076.8 -03418.1 -07.4676 26299.9
 14 03 2013  12 28  -21.0513 26077.0 -03418.2 -07.4678 26300.1
 14 03 2013  12 29  -21.0516 26077.5 -03418.4 -07.4680 26300.6
 14 03 2013  12 30  -21.0519 26077.8 -03418.4 -07.4681 26300.9
 14 03 2013  12 31  -21.0522 26077.5 -03418.2 -07.4677 26300.6
 14 03 2013  12 32  -21.0523 26077.2 -03418.1 -07.4675 26300.3
 14 03 2013  12 33  -21.0522 26077.3 -03418.1 -07.4675 26300.3
 14 03 2013  12 34  -21.0520 26077.6 -03418.2 -07.4677 26300.7
 14 03 2013  12 35  -21.0521 26078.1 -03418.4 -07.4678 26301.2
 14 03 2013  12 36  -21.0520 26078.5 -03418.4 -07.4678 26301.6
 14 03 2013  12 37  -21.0518 26078.7 -03418.4 -07.4677 26301.8
 14 03 2013  12 38  -21.0516 26078.8 -03418.3 -07.4676 26301.8
 14 03 2013  12 39  -21.0514 26079.0 -03418.4 -07.4677 26302.1
 14 03 2013  12 40  -21.0511 26078.8 -03418.3 -07.4674 26301.9
 14 03 2013  12 41  -21.0512 26079.0 -03418.3 -07.4674 26302.0
 14 03 2013  12 42  -21.0510 26079.5 -03418.4 -07.4676 26302.6
 14 03 2013  12 43  -21.0507 26079.5 -03418.3 -07.4672 26302.6
 14 03 2013  12 44  -21.0506 26079.4 -03418.2 -07.4670 26302.5
 14 03 2013  12 45  -21.0505 26079.4 -03418.1 -07.4670 26302.5
 14 03 2013  12 46  -21.0501 26079.7 -03418.2 -07.4670 26302.7
 14 03 2013  12 47  -21.0496 26079.9 -03418.2 -07.4670 26302.9
 14 03 2013  12 48  -21.0494 26080.1 -03418.3 -07.4670 26303.2
 14 03 2013  12 49  -21.0491 26080.4 -03418.4 -07.4672 26303.5
 14 03 2013  12 50  -21.0479 26080.9 -03418.8 -07.4680 26304.0
 14 03 2013  12 51  -21.0451 26084.6 -03420.7 -07.4710 26307.9
 14 03 2013  12 52  -21.0436 26087.5 -03421.8 -07.4725 26310.9
 14 03 2013  12 53  -21.0429 26091.0 -03422.8 -07.4738 26314.6
 14 03 2013  12 54  -21.0419 26094.8 -03423.8 -07.4748 26318.4
 14 03 2013  12 55  -21.0403 26097.8 -03424.1 -07.4747 26321.5
 14 03 2013  12 56  -21.0391 26099.7 -03424.0 -07.4739 26323.4
 14 03 2013  12 57  -21.0386 26101.3 -03423.7 -07.4727 26324.9
 14 03 2013  12 58  -21.0381 26102.3 -03423.2 -07.4713 26325.8
 14 03 2013  12 59  -21.0373 26102.1 -03422.2 -07.4694 26325.5
 14 03 2013  13 00  -21.0365 26101.2 -03421.3 -07.4676 26324.5
 14 03 2013  13 01  -21.0360 26100.2 -03420.6 -07.4664 26323.4
 14 03 2013  13 02  -21.0358 26100.3 -03420.4 -07.4660 26323.5
 14 03 2013  13 03  -21.0353 26099.9 -03420.2 -07.4656 26323.1
 14 03 2013  13 04  -21.0351 26099.3 -03419.9 -07.4651 26322.4
 14 03 2013  13 05  -21.0351 26099.1 -03419.9 -07.4652 26322.2
 14 03 2013  13 06  -21.0348 26098.4 -03419.7 -07.4649 26321.5
 14 03 2013  13 07  -21.0346 26098.3 -03419.8 -07.4652 26321.4
 14 03 2013  13 08  -21.0347 26097.6 -03419.7 -07.4652 26320.7
 14 03 2013  13 09  -21.0345 26097.2 -03419.7 -07.4653 26320.3
 14 03 2013  13 10  -21.0346 26097.1 -03419.9 -07.4659 26320.2
 14 03 2013  13 11  -21.0343 26097.1 -03420.1 -07.4663 26320.3
 14 03 2013  13 12  -21.0339 26097.3 -03420.4 -07.4667 26320.5
 14 03 2013  13 13  -21.0336 26096.9 -03420.3 -07.4668 26320.0
 14 03 2013  13 14  -21.0337 26096.4 -03420.2 -07.4667 26319.5
 14 03 2013  13 15  -21.0347 26095.9 -03420.1 -07.4665 26319.0
 14 03 2013  13 16  -21.0348 26094.6 -03419.4 -07.4654 26317.7
 14 03 2013  13 17  -21.0345 26093.7 -03419.1 -07.4651 26316.8
 14 03 2013  13 18  -21.0343 26092.5 -03418.9 -07.4648 26315.5
 14 03 2013  13 19  -21.0341 26091.2 -03418.7 -07.4649 26314.3
 14 03 2013  13 20  -21.0340 26090.3 -03418.8 -07.4653 26313.4
 14 03 2013  13 21  -21.0335 26090.1 -03419.1 -07.4660 26313.2
 14 03 2013  13 22  -21.0331 26090.1 -03419.4 -07.4668 26313.2
 14 03 2013  13 23  -21.0330 26090.2 -03419.7 -07.4673 26313.3
 14 03 2013  13 24  -21.0323 26090.2 -03420.0 -07.4679 26313.4
 14 03 2013  13 25  -21.0315 26090.0 -03420.1 -07.4682 26313.3
 14 03 2013  13 26  -21.0308 26090.1 -03420.3 -07.4686 26313.3
 14 03 2013  13 27  -21.0307 26090.7 -03420.7 -07.4694 26314.0
 14 03 2013  13 28  -21.0305 26090.8 -03420.8 -07.4695 26314.1
 14 03 2013  13 29  -21.0296 26090.9 -03420.9 -07.4697 26314.2
 14 03 2013  13 30  -21.0286 26091.0 -03421.1 -07.4701 26314.3
 14 03 2013  13 31  -21.0274 26091.4 -03421.4 -07.4705 26314.8
 14 03 2013  13 32  -21.0267 26092.1 -03421.7 -07.4711 26315.5
 14 03 2013  13 33  -21.0261 26092.6 -03421.8 -07.4712 26316.0
 14 03 2013  13 34  -21.0255 26093.3 -03422.1 -07.4715 26316.7
 14 03 2013  13 35  -21.0250 26094.0 -03422.2 -07.4716 26317.4
 14 03 2013  13 36  -21.0245 26094.7 -03422.3 -07.4715 26318.1
 14 03 2013  13 37  -21.0242 26095.0 -03422.1 -07.4712 26318.4
 14 03 2013  13 38  -21.0234 26094.6 -03421.8 -07.4705 26318.0
 14 03 2013  13 39  -21.0222 26094.7 -03421.7 -07.4704 26318.1
 14 03 2013  13 40  -21.0214 26095.2 -03421.9 -07.4706 26318.6
 14 03 2013  13 41  -21.0211 26095.7 -03422.0 -07.4706 26319.1
 14 03 2013  13 42  -21.0207 26096.0 -03421.9 -07.4703 26319.4
 14 03 2013  13 43  -21.0200 26096.3 -03421.8 -07.4701 26319.6
 14 03 2013  13 44  -21.0194 26096.7 -03421.8 -07.4701 26320.1
 14 03 2013  13 45  -21.0191 26096.9 -03421.8 -07.4699 26320.3
 14 03 2013  13 46  -21.0185 26096.7 -03421.5 -07.4695 26320.0
 14 03 2013  13 47  -21.0177 26096.5 -03421.4 -07.4692 26319.8
 14 03 2013  13 48  -21.0176 26096.9 -03421.6 -07.4695 26320.3
 14 03 2013  13 49  -21.0177 26097.7 -03421.9 -07.4700 26321.1
 14 03 2013  13 50  -21.0178 26097.9 -03421.9 -07.4698 26321.2
 14 03 2013  13 51  -21.0172 26097.2 -03421.3 -07.4687 26320.5
 14 03 2013  13 52  -21.0178 26097.4 -03421.2 -07.4686 26320.7
 14 03 2013  13 53  -21.0177 26095.9 -03420.2 -07.4667 26319.1
 14 03 2013  13 54  -21.0164 26093.1 -03418.9 -07.4647 26316.2
 14 03 2013  13 55  -21.0160 26090.9 -03418.4 -07.4644 26313.9
 14 03 2013  13 56  -21.0157 26088.7 -03418.2 -07.4645 26311.7
 14 03 2013  13 57  -21.0158 26087.9 -03418.7 -07.4658 26310.9
 14 03 2013  13 58  -21.0165 26087.9 -03419.4 -07.4674 26311.0
 14 03 2013  13 59  -21.0169 26087.7 -03419.9 -07.4684 26310.9
 14 03 2013  14 00  -21.0172 26088.8 -03420.8 -07.4700 26312.1
 14 03 2013  14 01  -21.0175 26090.1 -03421.4 -07.4711 26313.4
 14 03 2013  14 02  -21.0172 26090.8 -03421.6 -07.4713 26314.2
 14 03 2013  14 03  -21.0166 26091.2 -03421.7 -07.4713 26314.6
 14 03 2013  14 04  -21.0160 26092.5 -03422.1 -07.4718 26316.0
 14 03 2013  14 05  -21.0157 26094.6 -03422.7 -07.4726 26318.1
 14 03 2013  14 06  -21.0148 26095.7 -03422.8 -07.4725 26319.2
 14 03 2013  14 07  -21.0143 26098.4 -03423.6 -07.4735 26322.0
 14 03 2013  14 08  -21.0146 26101.5 -03424.3 -07.4740 26325.1
 14 03 2013  14 09  -21.0146 26104.6 -03424.6 -07.4738 26328.3
 14 03 2013  14 10  -21.0148 26107.3 -03424.6 -07.4731 26331.0
 14 03 2013  14 11  -21.0151 26109.2 -03424.2 -07.4717 26332.8
 14 03 2013  14 12  -21.0150 26110.8 -03423.8 -07.4703 26334.3
 14 03 2013  14 13  -21.0150 26111.6 -03423.2 -07.4687 26335.0
 14 03 2013  14 14  -21.0138 26110.8 -03422.2 -07.4668 26334.1
 14 03 2013  14 15  -21.0131 26111.6 -03422.2 -07.4666 26334.9
 14 03 2013  14 16  -21.0131 26112.0 -03422.0 -07.4661 26335.3
 14 03 2013  14 17  -21.0124 26112.5 -03421.8 -07.4655 26335.7
 14 03 2013  14 18  -21.0121 26113.7 -03421.9 -07.4655 26336.9
 14 03 2013  14 19  -21.0113 26114.3 -03421.7 -07.4649 26337.6
 14 03 2013  14 20  -21.0104 26114.6 -03421.3 -07.4639 26337.7
 14 03 2013  14 21  -21.0099 26114.1 -03420.9 -07.4631 26337.2
 14 03 2013  14 22  -21.0095 26112.3 -03420.1 -07.4618 26335.3
 14 03 2013  14 23  -21.0088 26111.2 -03419.7 -07.4615 26334.2
 14 03 2013  14 24  -21.0087 26110.3 -03419.7 -07.4615 26333.3
 14 03 2013  14 25  -21.0087 26109.3 -03419.6 -07.4617 26332.3
 14 03 2013  14 26  -21.0084 26108.5 -03419.6 -07.4619 26331.5
 14 03 2013  14 27  -21.0080 26107.9 -03419.7 -07.4623 26330.9
 14 03 2013  14 28  -21.0075 26107.4 -03419.9 -07.4629 26330.4
 14 03 2013  14 29  -21.0073 26106.8 -03420.2 -07.4636 26329.9
 14 03 2013  14 30  -21.0070 26106.4 -03420.4 -07.4642 26329.5
 14 03 2013  14 31  -21.0070 26106.2 -03420.7 -07.4650 26329.4
 14 03 2013  14 32  -21.0070 26106.0 -03420.9 -07.4655 26329.2
 14 03 2013  14 33  -21.0068 26105.6 -03421.1 -07.4659 26328.8
 14 03 2013  14 34  -21.0069 26105.6 -03421.3 -07.4665 26328.9
 14 03 2013  14 35  -21.0067 26105.4 -03421.5 -07.4669 26328.7
 14 03 2013  14 36  -21.0064 26105.0 -03421.6 -07.4672 26328.3
 14 03 2013  14 37  -21.0063 26104.7 -03421.7 -07.4676 26328.0
 14 03 2013  14 38  -21.0066 26105.0 -03422.2 -07.4685 26328.4
 14 03 2013  14 39  -21.0068 26105.3 -03422.5 -07.4690 26328.7
 14 03 2013  14 40  -21.0069 26105.2 -03422.5 -07.4690 26328.5
 14 03 2013  14 41  -21.0067 26104.5 -03422.3 -07.4688 26327.9
 14 03 2013  14 42  -21.0059 26103.8 -03422.1 -07.4687 26327.1
 14 03 2013  14 43  -21.0055 26103.5 -03422.3 -07.4691 26326.8
 14 03 2013  14 44  -21.0051 26102.8 -03422.2 -07.4692 26326.2
 14 03 2013  14 45  -21.0048 26102.9 -03422.4 -07.4696 26326.3
 14 03 2013  14 46  -21.0047 26102.9 -03422.6 -07.4701 26326.3
 14 03 2013  14 47  -21.0042 26102.1 -03422.5 -07.4699 26325.6
 14 03 2013  14 48  -21.0042 26101.7 -03422.5 -07.4701 26325.2
 14 03 2013  14 49  -21.0043 26101.7 -03422.6 -07.4704 26325.1
 14 03 2013  14 50  -21.0045 26101.8 -03422.7 -07.4705 26325.3
 14 03 2013  14 51  -21.0044 26101.4 -03422.6 -07.4703 26324.9
 14 03 2013  14 52  -21.0041 26101.1 -03422.5 -07.4702 26324.5
 14 03 2013  14 53  -21.0036 26100.6 -03422.3 -07.4701 26324.0
 14 03 2013  14 54  -21.0031 26100.3 -03422.3 -07.4701 26323.8
 14 03 2013  14 55  -21.0026 26100.1 -03422.3 -07.4702 26323.5
 14 03 2013  14 56  -21.0025 26100.5 -03422.6 -07.4706 26323.9
 14 03 2013  14 57  -21.0020 26100.1 -03422.5 -07.4706 26323.6
 14 03 2013  14 58  -21.0013 26099.7 -03422.4 -07.4704 26323.1
 14 03 2013  14 59  -21.0012 26100.3 -03422.7 -07.4709 26323.8
 14 03 2013  15 00  -21.0013 26101.3 -03423.0 -07.4714 26324.8
 14 03 2013  15 01  -21.0016 26102.3 -03423.3 -07.4717 26325.8
 14 03 2013  15 02  -21.0016 26102.5 -03423.2 -07.4713 26326.0
 14 03 2013  15 03  -21.0014 26102.7 -03423.0 -07.4709 26326.2
 14 03 2013  15 04  -21.0011 26102.8 -03422.8 -07.4705 26326.2
 14 03 2013  15 05  -21.0006 26103.0 -03422.7 -07.4702 26326.4
 14 03 2013  15 06  -21.0005 26103.0 -03422.6 -07.4699 26326.4
 14 03 2013  15 07  -21.0000 26102.6 -03422.4 -07.4695 26326.0
 14 03 2013  15 08  -20.9998 26102.8 -03422.4 -07.4697 26326.2
 14 03 2013  15 09  -21.0002 26103.4 -03422.8 -07.4702 26326.9
 14 03 2013  15 10  -21.0006 26104.2 -03423.0 -07.4704 26327.7
 14 03 2013  15 11  -21.0007 26104.5 -03422.9 -07.4702 26328.0
 14 03 2013  15 12  -21.0005 26104.6 -03422.7 -07.4697 26328.0
 14 03 2013  15 13  -21.0003 26104.4 -03422.5 -07.4692 26327.8
 14 03 2013  15 14  -20.9999 26104.3 -03422.3 -07.4690 26327.7
 14 03 2013  15 15  -20.9998 26103.6 -03421.9 -07.4683 26326.9
 14 03 2013  15 16  -20.9997 26103.0 -03421.6 -07.4678 26326.3
 14 03 2013  15 17  -20.9998 26102.7 -03421.4 -07.4674 26326.0
 14 03 2013  15 18  -20.9993 26101.9 -03420.9 -07.4666 26325.1
 14 03 2013  15 19  -20.9986 26101.1 -03420.7 -07.4663 26324.3
 14 03 2013  15 20  -20.9979 26100.4 -03420.5 -07.4660 26323.5
 14 03 2013  15 21  -20.9968 26100.4 -03420.6 -07.4663 26323.6
 14 03 2013  15 22  -20.9958 26100.6 -03420.9 -07.4670 26323.9
 14 03 2013  15 23  -20.9959 26100.5 -03421.2 -07.4676 26323.8
 14 03 2013  15 24  -20.9954 26100.5 -03421.3 -07.4678 26323.7
 14 03 2013  15 25  -20.9952 26102.3 -03422.1 -07.4690 26325.6
 14 03 2013  15 26  -20.9957 26104.6 -03422.8 -07.4698 26328.1
 14 03 2013  15 27  -20.9958 26106.0 -03422.8 -07.4695 26329.5
 14 03 2013  15 28  -20.9956 26106.8 -03422.5 -07.4686 26330.2
 14 03 2013  15 29  -20.9949 26106.3 -03421.7 -07.4671 26329.6
 14 03 2013  15 30  -20.9937 26105.9 -03421.2 -07.4661 26329.1
 14 03 2013  15 31  -20.9929 26106.0 -03421.2 -07.4660 26329.2
 14 03 2013  15 32  -20.9925 26106.0 -03421.2 -07.4660 26329.2
 14 03 2013  15 33  -20.9920 26106.4 -03421.2 -07.4660 26329.6
 14 03 2013  15 34  -20.9917 26106.5 -03421.2 -07.4659 26329.7
 14 03 2013  15 35  -20.9910 26105.8 -03420.7 -07.4652 26328.9
 14 03 2013  15 36  -20.9902 26105.0 -03420.4 -07.4646 26328.1
 14 03 2013  15 37  -20.9891 26103.9 -03420.1 -07.4643 26327.0
 14 03 2013  15 38  -20.9887 26103.8 -03420.4 -07.4650 26326.9
 14 03 2013  15 39  -20.9887 26103.4 -03420.6 -07.4655 26326.6
 14 03 2013  15 40  -20.9885 26102.9 -03420.5 -07.4655 26326.1
 14 03 2013  15 41  -20.9882 26102.5 -03420.4 -07.4653 26325.6
 14 03 2013  15 42  -20.9881 26102.2 -03420.3 -07.4653 26325.3
 14 03 2013  15 43  -20.9887 26101.3 -03420.0 -07.4648 26324.4
 14 03 2013  15 44  -20.9882 26099.8 -03419.5 -07.4642 26322.9
 14 03 2013  15 45  -20.9877 26098.6 -03419.5 -07.4645 26321.7
 14 03 2013  15 46  -20.9872 26097.2 -03419.4 -07.4646 26320.3
 14 03 2013  15 47  -20.9865 26096.5 -03419.7 -07.4655 26319.6
 14 03 2013  15 48  -20.9867 26096.4 -03420.3 -07.4669 26319.5
 14 03 2013  15 49  -20.9871 26096.4 -03420.8 -07.4680 26319.7
 14 03 2013  15 50  -20.9883 26097.9 -03421.8 -07.4695 26321.3
 14 03 2013  15 51  -20.9905 26098.3 -03421.8 -07.4696 26321.7
 14 03 2013  15 52  -20.9909 26097.6 -03421.2 -07.4684 26320.9
 14 03 2013  15 53  -20.9911 26097.2 -03421.0 -07.4681 26320.5
 14 03 2013  15 54  -20.9895 26094.9 -03420.0 -07.4666 26318.1
 14 03 2013  15 55  -20.9888 26094.1 -03420.0 -07.4669 26317.3
 14 03 2013  15 56  -20.9889 26094.1 -03420.5 -07.4680 26317.3
 14 03 2013  15 57  -20.9883 26094.2 -03421.0 -07.4690 26317.5
 14 03 2013  15 58  -20.9897 26095.8 -03422.0 -07.4707 26319.3
 14 03 2013  15 59  -20.9914 26097.3 -03422.5 -07.4713 26320.8
 14 03 2013  16 00  -20.9929 26098.0 -03422.4 -07.4709 26321.4
 14 03 2013  16 01  -20.9938 26098.1 -03422.0 -07.4700 26321.5
 14 03 2013  16 02  -20.9948 26097.5 -03421.4 -07.4688 26320.8
 14 03 2013  16 03  -20.9949 26096.6 -03420.7 -07.4677 26319.8
 14 03 2013  16 04  -20.9942 26094.9 -03419.9 -07.4664 26318.1
 14 03 2013  16 05  -20.9938 26093.5 -03419.5 -07.4660 26316.7
 14 03 2013  16 06  -20.9938 26092.8 -03419.6 -07.4663 26315.9
 14 03 2013  16 07  -20.9946 26092.5 -03419.7 -07.4667 26315.6
 14 03 2013  16 08  -20.9949 26091.7 -03419.5 -07.4664 26314.9
 14 03 2013  16 09  -20.9943 26091.1 -03419.4 -07.4664 26314.3
 14 03 2013  16 10  -20.9943 26090.3 -03419.4 -07.4666 26313.4
 14 03 2013  16 11  -20.9939 26089.4 -03419.3 -07.4667 26312.5
 14 03 2013  16 12  -20.9936 26089.0 -03419.4 -07.4671 26312.1
 14 03 2013  16 13  -20.9931 26088.5 -03419.6 -07.4676 26311.7
 14 03 2013  16 14  -20.9926 26088.1 -03419.8 -07.4680 26311.2
 14 03 2013  16 15  -20.9918 26088.2 -03420.2 -07.4690 26311.4
 14 03 2013  16 16  -20.9918 26089.3 -03421.1 -07.4706 26312.7
 14 03 2013  16 17  -20.9926 26090.3 -03421.7 -07.4715 26313.7
 14 03 2013  16 18  -20.9923 26090.9 -03421.9 -07.4718 26314.4
 14 03 2013  16 19  -20.9922 26091.4 -03422.1 -07.4720 26314.8
 14 03 2013  16 20  -20.9922 26091.6 -03422.2 -07.4723 26315.1
 14 03 2013  16 21  -20.9924 26091.9 -03422.3 -07.4725 26315.4
 14 03 2013  16 22  -20.9921 26092.4 -03422.6 -07.4729 26316.0
 14 03 2013  16 23  -20.9920 26093.0 -03422.9 -07.4733 26316.5
 14 03 2013  16 24  -20.9924 26093.4 -03423.2 -07.4739 26317.0
 14 03 2013  16 25  -20.9926 26094.0 -03423.4 -07.4743 26317.6
 14 03 2013  16 26  -20.9928 26094.4 -03423.5 -07.4744 26318.0
 14 03 2013  16 27  -20.9929 26094.6 -03423.7 -07.4746 26318.2
 14 03 2013  16 28  -20.9936 26094.8 -03423.9 -07.4750 26318.5
 14 03 2013  16 29  -20.9938 26094.6 -03423.7 -07.4748 26318.3
 14 03 2013  16 30  -20.9938 26094.3 -03423.6 -07.4745 26317.9
 14 03 2013  16 31  -20.9943 26093.7 -03423.5 -07.4744 26317.3
 14 03 2013  16 32  -20.9946 26092.7 -03423.2 -07.4742 26316.3
 14 03 2013  16 33  -20.9953 26091.6 -03423.0 -07.4740 26315.2
 14 03 2013  16 34  -20.9957 26090.3 -03422.7 -07.4737 26313.8
 14 03 2013  16 35  -20.9962 26088.7 -03422.5 -07.4737 26312.2
 14 03 2013  16 36  -20.9967 26087.2 -03422.3 -07.4739 26310.7
 14 03 2013  16 37  -20.9973 26086.2 -03422.5 -07.4746 26309.7
 14 03 2013  16 38  -20.9980 26086.0 -03423.1 -07.4757 26309.6
 14 03 2013  16 39  -20.9990 26085.9 -03423.5 -07.4767 26309.6
 14 03 2013  16 40  -20.9998 26085.7 -03423.7 -07.4773 26309.4
 14 03 2013  16 41  -21.0007 26085.5 -03423.9 -07.4778 26309.3
 14 03 2013  16 42  -21.0014 26085.0 -03424.0 -07.4780 26308.8
 14 03 2013  16 43  -21.0018 26084.9 -03424.2 -07.4785 26308.7
 14 03 2013  16 44  -21.0022 26084.7 -03424.4 -07.4791 26308.5
 14 03 2013  16 45  -21.0023 26085.0 -03424.8 -07.4797 26308.8
 14 03 2013  16 46  -21.0030 26085.4 -03425.1 -07.4804 26309.3
 14 03 2013  16 47  -21.0034 26086.0 -03425.4 -07.4808 26309.9
 14 03 2013  16 48  -21.0036 26086.7 -03425.8 -07.4814 26310.7
 14 03 2013  16 49  -21.0044 26087.4 -03426.0 -07.4818 26311.4
 14 03 2013  16 50  -21.0051 26087.4 -03425.8 -07.4814 26311.3
 14 03 2013  16 51  -21.0055 26087.5 -03425.8 -07.4812 26311.5
 14 03 2013  16 52  -21.0059 26087.6 -03425.6 -07.4808 26311.6
 14 03 2013  16 53  -21.0059 26088.0 -03425.7 -07.4809 26311.9
 14 03 2013  16 54  -21.0062 26088.2 -03425.7 -07.4808 26312.1
 14 03 2013  16 55  -21.0064 26088.0 -03425.4 -07.4803 26311.9
 14 03 2013  16 56  -21.0065 26088.1 -03425.4 -07.4802 26312.0
 14 03 2013  16 57  -21.0066 26088.0 -03425.3 -07.4801 26311.9
 14 03 2013  16 58  -21.0073 26088.3 -03425.4 -07.4802 26312.2
 14 03 2013  16 59  -21.0082 26088.7 -03425.5 -07.4802 26312.6
 14 03 2013  17 00  -21.0088 26088.7 -03425.3 -07.4798 26312.6
 14 03 2013  17 01  -21.0093 26088.3 -03424.9 -07.4791 26312.2
 14 03 2013  17 02  -21.0096 26087.6 -03424.5 -07.4783 26311.4
 14 03 2013  17 03  -21.0100 26086.9 -03424.1 -07.4777 26310.6
 14 03 2013  17 04  -21.0103 26086.1 -03423.8 -07.4773 26309.9
 14 03 2013  17 05  -21.0107 26085.6 -03423.6 -07.4770 26309.3
 14 03 2013  17 06  -21.0114 26085.2 -03423.5 -07.4770 26308.9
 14 03 2013  17 07  -21.0122 26084.9 -03423.5 -07.4771 26308.6
 14 03 2013  17 08  -21.0135 26084.5 -03423.4 -07.4770 26308.2
 14 03 2013  17 09  -21.0138 26084.4 -03423.3 -07.4768 26308.1
 14 03 2013  17 10  -21.0146 26084.5 -03423.3 -07.4768 26308.2
 14 03 2013  17 11  -21.0150 26084.5 -03423.4 -07.4769 26308.2
 14 03 2013  17 12  -21.0157 26084.6 -03423.4 -07.4769 26308.3
 14 03 2013  17 13  -21.0163 26084.9 -03423.5 -07.4771 26308.6
 14 03 2013  17 14  -21.0166 26085.3 -03423.7 -07.4773 26309.0
 14 03 2013  17 15  -21.0176 26086.3 -03424.2 -07.4782 26310.0
 14 03 2013  17 16  -21.0191 26086.4 -03424.2 -07.4780 26310.2
 14 03 2013  17 17  -21.0200 26086.4 -03423.9 -07.4774 26310.1
 14 03 2013  17 18  -21.0204 26086.1 -03423.5 -07.4766 26309.8
 14 03 2013  17 19  -21.0207 26085.6 -03423.1 -07.4760 26309.3
 14 03 2013  17 20  -21.0208 26084.2 -03422.5 -07.4751 26307.8
 14 03 2013  17 21  -21.0213 26083.2 -03422.2 -07.4747 26306.8
 14 03 2013  17 22  -21.0223 26082.9 -03422.2 -07.4749 26306.4
 14 03 2013  17 23  -21.0231 26082.5 -03422.1 -07.4748 26306.1
 14 03 2013  17 24  -21.0241 26082.3 -03422.1 -07.4747 26305.8
 14 03 2013  17 25  -21.0249 26082.1 -03422.0 -07.4746 26305.6
 14 03 2013  17 26  -21.0260 26082.1 -03422.0 -07.4746 26305.6
 14 03 2013  17 27  -21.0269 26082.0 -03421.9 -07.4744 26305.5
 14 03 2013  17 28  -21.0279 26082.3 -03421.9 -07.4743 26305.8
 14 03 2013  17 29  -21.0287 26082.4 -03421.8 -07.4741 26305.9
 14 03 2013  17 30  -21.0293 26082.5 -03421.7 -07.4737 26306.0
 14 03 2013  17 31  -21.0303 26082.7 -03421.6 -07.4735 26306.2
 14 03 2013  17 32  -21.0311 26082.7 -03421.3 -07.4729 26306.2
 14 03 2013  17 33  -21.0316 26082.9 -03421.2 -07.4726 26306.3
 14 03 2013  17 34  -21.0324 26083.1 -03421.0 -07.4722 26306.5
 14 03 2013  17 35  -21.0333 26083.1 -03420.7 -07.4715 26306.4
 14 03 2013  17 36  -21.0340 26082.7 -03420.2 -07.4706 26306.0
 14 03 2013  17 37  -21.0339 26082.2 -03419.6 -07.4695 26305.4
 14 03 2013  17 38  -21.0345 26082.1 -03419.5 -07.4691 26305.3
 14 03 2013  17 39  -21.0356 26081.9 -03419.2 -07.4685 26305.1
 14 03 2013  17 40  -21.0359 26080.8 -03418.4 -07.4672 26303.9
 14 03 2013  17 41  -21.0359 26080.1 -03417.9 -07.4663 26303.1
 14 03 2013  17 42  -21.0360 26079.4 -03417.6 -07.4658 26302.4
 14 03 2013  17 43  -21.0365 26078.9 -03417.3 -07.4653 26301.8
 14 03 2013  17 44  -21.0371 26078.5 -03417.1 -07.4650 26301.4
 14 03 2013  17 45  -21.0376 26078.2 -03416.9 -07.4646 26301.1
 14 03 2013  17 46  -21.0384 26078.1 -03416.8 -07.4645 26301.0
 14 03 2013  17 47  -21.0393 26078.3 -03416.8 -07.4644 26301.1
 14 03 2013  17 48  -21.0399 26078.3 -03416.6 -07.4639 26301.1
 14 03 2013  17 49  -21.0402 26078.2 -03416.3 -07.4633 26301.0
 14 03 2013  17 50  -21.0406 26078.1 -03416.0 -07.4628 26300.9
 14 03 2013  17 51  -21.0410 26077.8 -03415.8 -07.4623 26300.6
 14 03 2013  17 52  -21.0416 26077.7 -03415.5 -07.4618 26300.4
 14 03 2013  17 53  -21.0422 26077.8 -03415.3 -07.4614 26300.4
 14 03 2013  17 54  -21.0430 26077.8 -03415.1 -07.4609 26300.4
 14 03 2013  17 55  -21.0438 26077.8 -03414.8 -07.4603 26300.4
 14 03 2013  17 56  -21.0441 26077.6 -03414.5 -07.4596 26300.2
 14 03 2013  17 57  -21.0442 26077.4 -03414.2 -07.4590 26300.0
 14 03 2013  17 58  -21.0444 26077.4 -03413.9 -07.4584 26300.0
 14 03 2013  17 59  -21.0448 26077.6 -03413.8 -07.4580 26300.0
 14 03 2013  18 00  -21.0455 26077.6 -03413.6 -07.4576 26300.1
 14 03 2013  18 01  -21.0462 26077.7 -03413.4 -07.4572 26300.1
 14 03 2013  18 02  -21.0464 26077.5 -03413.1 -07.4566 26299.9
 14 03 2013  18 03  -21.0464 26077.3 -03412.8 -07.4560 26299.6
 14 03 2013  18 04  -21.0466 26077.1 -03412.5 -07.4555 26299.5
 14 03 2013  18 05  -21.0466 26076.8 -03412.2 -07.4550 26299.1
 14 03 2013  18 06  -21.0465 26076.6 -03412.0 -07.4546 26298.9
 14 03 2013  18 07  -21.0466 26076.5 -03411.9 -07.4543 26298.8
 14 03 2013  18 08  -21.0466 26076.2 -03411.6 -07.4538 26298.4
 14 03 2013  18 09  -21.0465 26075.8 -03411.4 -07.4534 26298.0
 14 03 2013  18 10  -21.0464 26075.4 -03411.2 -07.4530 26297.6
 14 03 2013  18 11  -21.0463 26074.9 -03410.9 -07.4526 26297.1
 14 03 2013  18 12  -21.0462 26074.7 -03410.7 -07.4523 26296.8
 14 03 2013  18 13  -21.0459 26074.3 -03410.6 -07.4521 26296.4
 14 03 2013  18 14  -21.0457 26074.1 -03410.5 -07.4519 26296.1
 14 03 2013  18 15  -21.0457 26073.8 -03410.3 -07.4516 26295.9
 14 03 2013  18 16  -21.0455 26073.6 -03410.1 -07.4513 26295.6
 14 03 2013  18 17  -21.0452 26073.5 -03410.0 -07.4511 26295.5
 14 03 2013  18 18  -21.0451 26073.3 -03409.8 -07.4508 26295.4
 14 03 2013  18 19  -21.0451 26073.1 -03409.7 -07.4505 26295.1
 14 03 2013  18 20  -21.0450 26073.0 -03409.5 -07.4502 26295.0
 14 03 2013  18 21  -21.0448 26072.8 -03409.3 -07.4499 26294.8
 14 03 2013  18 22  -21.0444 26072.7 -03409.2 -07.4495 26294.6
 14 03 2013  18 23  -21.0443 26072.5 -03409.0 -07.4492 26294.4
 14 03 2013  18 24  -21.0439 26072.2 -03408.8 -07.4488 26294.0
 14 03 2013  18 25  -21.0434 26071.7 -03408.5 -07.4483 26293.5
 14 03 2013  18 26  -21.0427 26071.3 -03408.2 -07.4477 26293.1
 14 03 2013  18 27  -21.0421 26071.2 -03408.0 -07.4475 26293.0
 14 03 2013  18 28  -21.0415 26070.7 -03407.8 -07.4472 26292.5
 14 03 2013  18 29  -21.0410 26070.4 -03407.7 -07.4469 26292.2
 14 03 2013  18 30  -21.0410 26070.4 -03407.7 -07.4470 26292.2
 14 03 2013  18 31  -21.0406 26070.2 -03407.5 -07.4467 26292.0
 14 03 2013  18 32  -21.0403 26070.0 -03407.4 -07.4464 26291.8
 14 03 2013  18 33  -21.0401 26069.9 -03407.2 -07.4461 26291.6
 14 03 2013  18 34  -21.0397 26069.7 -03407.0 -07.4457 26291.3
 14 03 2013  18 35  -21.0390 26069.3 -03406.7 -07.4452 26291.0
 14 03 2013  18 36  -21.0382 26068.9 -03406.5 -07.4448 26290.5
 14 03 2013  18 37  -21.0378 26068.6 -03406.3 -07.4445 26290.2
 14 03 2013  18 38  -21.0374 26068.5 -03406.3 -07.4444 26290.1
 14 03 2013  18 39  -21.0366 26068.4 -03406.2 -07.4443 26290.0
 14 03 2013  18 40  -21.0360 26068.1 -03406.0 -07.4440 26289.7
 14 03 2013  18 41  -21.0352 26067.7 -03405.9 -07.4438 26289.3
 14 03 2013  18 42  -21.0344 26067.3 -03405.7 -07.4436 26288.9
 14 03 2013  18 43  -21.0336 26067.0 -03405.6 -07.4435 26288.6
 14 03 2013  18 44  -21.0330 26066.8 -03405.6 -07.4435 26288.4
 14 03 2013  18 45  -21.0322 26066.6 -03405.5 -07.4433 26288.1
 14 03 2013  18 46  -21.0315 26066.5 -03405.5 -07.4433 26288.0
 14 03 2013  18 47  -21.0308 26066.3 -03405.4 -07.4432 26287.8
 14 03 2013  18 48  -21.0301 26066.2 -03405.3 -07.4431 26287.7
 14 03 2013  18 49  -21.0295 26066.0 -03405.3 -07.4430 26287.5
 14 03 2013  18 50  -21.0288 26065.7 -03405.2 -07.4429 26287.2
 14 03 2013  18 51  -21.0280 26065.6 -03405.2 -07.4428 26287.1
 14 03 2013  18 52  -21.0272 26065.6 -03405.2 -07.4428 26287.0
 14 03 2013  18 53  -21.0267 26065.7 -03405.3 -07.4430 26287.2
 14 03 2013  18 54  -21.0262 26065.6 -03405.2 -07.4429 26287.1
 14 03 2013  18 55  -21.0254 26065.4 -03405.1 -07.4428 26286.9
 14 03 2013  18 56  -21.0247 26065.5 -03405.2 -07.4429 26286.9
 14 03 2013  18 57  -21.0242 26065.4 -03405.2 -07.4430 26286.9
 14 03 2013  18 58  -21.0236 26065.2 -03405.2 -07.4430 26286.7
 14 03 2013  18 59  -21.0229 26065.1 -03405.1 -07.4429 26286.5
 14 03 2013  19 00  -21.0223 26065.1 -03405.2 -07.4430 26286.6
 14 03 2013  19 01  -21.0220 26065.1 -03405.2 -07.4431 26286.6
 14 03 2013  19 02  -21.0218 26065.1 -03405.2 -07.4431 26286.6
 14 03 2013  19 03  -21.0215 26065.4 -03405.3 -07.4432 26286.9
 14 03 2013  19 04  -21.0212 26065.1 -03405.2 -07.4431 26286.6
 14 03 2013  19 05  -21.0206 26064.8 -03405.1 -07.4429 26286.3
 14 03 2013  19 06  -21.0204 26064.8 -03405.2 -07.4431 26286.3
 14 03 2013  19 07  -21.0204 26064.5 -03405.1 -07.4431 26286.0
 14 03 2013  19 08  -21.0198 26064.0 -03404.9 -07.4428 26285.4
 14 03 2013  19 09  -21.0195 26064.1 -03405.1 -07.4431 26285.6
 14 03 2013  19 10  -21.0194 26064.0 -03405.1 -07.4432 26285.5
 14 03 2013  19 11  -21.0191 26063.8 -03405.1 -07.4432 26285.3
 14 03 2013  19 12  -21.0188 26063.8 -03405.2 -07.4434 26285.3
 14 03 2013  19 13  -21.0184 26063.5 -03405.2 -07.4435 26285.0
 14 03 2013  19 14  -21.0178 26063.1 -03405.2 -07.4435 26284.7
 14 03 2013  19 15  -21.0169 26063.0 -03405.2 -07.4436 26284.5
 14 03 2013  19 16  -21.0162 26063.3 -03405.4 -07.4441 26284.8
 14 03 2013  19 17  -21.0161 26063.6 -03406.1 -07.4454 26285.3
 14 03 2013  19 18  -21.0158 26064.2 -03406.4 -07.4460 26285.9
 14 03 2013  19 19  -21.0159 26064.8 -03406.8 -07.4466 26286.5
 14 03 2013  19 20  -21.0158 26065.2 -03407.0 -07.4469 26286.9
 14 03 2013  19 21  -21.0154 26065.4 -03407.1 -07.4471 26287.2
 14 03 2013  19 22  -21.0153 26065.3 -03407.2 -07.4472 26287.1
 14 03 2013  19 23  -21.0152 26065.0 -03407.1 -07.4472 26286.7
 14 03 2013  19 24  -21.0146 26064.1 -03406.8 -07.4468 26285.8
 14 03 2013  19 25  -21.0137 26063.3 -03406.6 -07.4466 26285.0
 14 03 2013  19 26  -21.0136 26062.8 -03406.7 -07.4469 26284.5
 14 03 2013  19 27  -21.0131 26062.4 -03406.8 -07.4472 26284.2
 14 03 2013  19 28  -21.0125 26062.5 -03407.0 -07.4477 26284.2
 14 03 2013  19 29  -21.0124 26062.8 -03407.4 -07.4485 26284.6
 14 03 2013  19 30  -21.0123 26063.1 -03407.7 -07.4491 26285.0
 14 03 2013  19 31  -21.0119 26063.2 -03407.9 -07.4495 26285.0
 14 03 2013  19 32  -21.0117 26063.4 -03408.1 -07.4499 26285.3
 14 03 2013  19 33  -21.0115 26063.7 -03408.4 -07.4504 26285.6
 14 03 2013  19 34  -21.0119 26063.9 -03408.6 -07.4509 26285.8
 14 03 2013  19 35  -21.0117 26063.5 -03408.6 -07.4509 26285.4
 14 03 2013  19 36  -21.0115 26063.1 -03408.6 -07.4509 26285.0
 14 03 2013  19 37  -21.0112 26062.5 -03408.5 -07.4509 26284.5
 14 03 2013  19 38  -21.0110 26061.9 -03408.4 -07.4509 26283.8
 14 03 2013  19 39  -21.0108 26061.4 -03408.4 -07.4510 26283.3
 14 03 2013  19 40  -21.0107 26061.0 -03408.5 -07.4513 26283.0
 14 03 2013  19 41  -21.0106 26060.8 -03408.6 -07.4517 26282.8
 14 03 2013  19 42  -21.0103 26060.6 -03408.8 -07.4520 26282.6
 14 03 2013  19 43  -21.0105 26061.0 -03409.1 -07.4527 26283.1
 14 03 2013  19 44  -21.0100 26062.0 -03409.8 -07.4538 26284.1
 14 03 2013  19 45  -21.0104 26063.1 -03410.5 -07.4550 26285.3
 14 03 2013  19 46  -21.0105 26063.6 -03410.8 -07.4557 26285.9
 14 03 2013  19 47  -21.0103 26063.7 -03410.9 -07.4559 26286.0
 14 03 2013  19 48  -21.0100 26063.7 -03411.0 -07.4560 26285.9
 14 03 2013  19 49  -21.0099 26063.5 -03411.1 -07.4563 26285.7
 14 03 2013  19 50  -21.0099 26062.7 -03410.9 -07.4560 26284.9
 14 03 2013  19 51  -21.0100 26062.3 -03410.9 -07.4561 26284.5
 14 03 2013  19 52  -21.0099 26061.5 -03410.7 -07.4560 26283.7
 14 03 2013  19 53  -21.0098 26061.0 -03410.8 -07.4563 26283.3
 14 03 2013  19 54  -21.0101 26060.7 -03411.0 -07.4568 26283.0
 14 03 2013  19 55  -21.0101 26060.4 -03411.0 -07.4570 26282.6
 14 03 2013  19 56  -21.0103 26060.0 -03411.1 -07.4572 26282.3
 14 03 2013  19 57  -21.0102 26059.6 -03411.0 -07.4573 26281.9
 14 03 2013  19 58  -21.0100 26059.3 -03411.1 -07.4575 26281.6
 14 03 2013  19 59  -21.0100 26058.8 -03411.1 -07.4576 26281.1
 14 03 2013  20 00  -21.0100 26058.7 -03411.2 -07.4579 26281.0
 14 03 2013  20 01  -21.0100 26058.8 -03411.4 -07.4584 26281.1
 14 03 2013  20 02  -21.0101 26058.9 -03411.7 -07.4589 26281.2
 14 03 2013  20 03  -21.0103 26058.8 -03411.8 -07.4591 26281.2
 14 03 2013  20 04  -21.0104 26058.5 -03411.8 -07.4593 26280.9
 14 03 2013  20 05  -21.0104 26058.5 -03411.9 -07.4595 26280.9
 14 03 2013  20 06  -21.0105 26058.3 -03411.9 -07.4596 26280.7
 14 03 2013  20 07  -21.0107 26058.2 -03412.0 -07.4598 26280.6
 14 03 2013  20 08  -21.0109 26058.4 -03412.2 -07.4601 26280.9
 14 03 2013  20 09  -21.0110 26058.3 -03412.3 -07.4603 26280.8
 14 03 2013  20 10  -21.0111 26058.6 -03412.5 -07.4606 26281.1
 14 03 2013  20 11  -21.0112 26058.6 -03412.6 -07.4609 26281.2
 14 03 2013  20 12  -21.0115 26058.9 -03412.8 -07.4613 26281.4
 14 03 2013  20 13  -21.0118 26059.1 -03413.0 -07.4616 26281.7
 14 03 2013  20 14  -21.0119 26059.2 -03413.1 -07.4618 26281.8
 14 03 2013  20 15  -21.0119 26059.2 -03413.1 -07.4619 26281.7
 14 03 2013  20 16  -21.0119 26059.2 -03413.3 -07.4622 26281.8
 14 03 2013  20 17  -21.0120 26059.1 -03413.4 -07.4624 26281.7
 14 03 2013  20 18  -21.0118 26059.1 -03413.4 -07.4626 26281.7
 14 03 2013  20 19  -21.0117 26059.1 -03413.5 -07.4628 26281.7
 14 03 2013  20 20  -21.0115 26058.9 -03413.5 -07.4628 26281.5
 14 03 2013  20 21  -21.0112 26058.6 -03413.6 -07.4630 26281.2
 14 03 2013  20 22  -21.0109 26058.4 -03413.6 -07.4631 26281.1
 14 03 2013  20 23  -21.0108 26058.3 -03413.7 -07.4633 26280.9
 14 03 2013  20 24  -21.0108 26058.2 -03413.8 -07.4636 26280.9
 14 03 2013  20 25  -21.0107 26058.4 -03414.0 -07.4640 26281.1
 14 03 2013  20 26  -21.0108 26058.5 -03414.2 -07.4645 26281.3
 14 03 2013  20 27  -21.0108 26058.6 -03414.4 -07.4647 26281.4
 14 03 2013  20 28  -21.0108 26058.8 -03414.5 -07.4650 26281.6
 14 03 2013  20 29  -21.0109 26058.8 -03414.6 -07.4651 26281.6
 14 03 2013  20 30  -21.0109 26058.7 -03414.6 -07.4652 26281.4
 14 03 2013  20 31  -21.0108 26058.6 -03414.7 -07.4654 26281.3
 14 03 2013  20 32  -21.0109 26058.6 -03414.8 -07.4656 26281.4
 14 03 2013  20 33  -21.0108 26058.7 -03414.9 -07.4659 26281.5
 14 03 2013  20 34  -21.0110 26058.7 -03415.0 -07.4661 26281.5
 14 03 2013  20 35  -21.0111 26058.4 -03414.9 -07.4660 26281.2
 14 03 2013  20 36  -21.0111 26058.2 -03414.9 -07.4660 26281.0
 14 03 2013  20 37  -21.0111 26058.1 -03414.9 -07.4661 26280.9
 14 03 2013  20 38  -21.0113 26058.1 -03415.0 -07.4663 26280.9
 14 03 2013  20 39  -21.0113 26058.1 -03415.1 -07.4665 26280.9
 14 03 2013  20 40  -21.0115 26058.1 -03415.2 -07.4667 26280.9
 14 03 2013  20 41  -21.0118 26058.1 -03415.3 -07.4668 26281.0
 14 03 2013  20 42  -21.0119 26058.2 -03415.4 -07.4670 26281.1
 14 03 2013  20 43  -21.0120 26058.3 -03415.5 -07.4672 26281.2
 14 03 2013  20 44  -21.0122 26058.5 -03415.6 -07.4675 26281.4
 14 03 2013  20 45  -21.0125 26058.6 -03415.7 -07.4676 26281.5
 14 03 2013  20 46  -21.0127 26058.7 -03415.7 -07.4676 26281.6
 14 03 2013  20 47  -21.0130 26058.6 -03415.7 -07.4677 26281.6
 14 03 2013  20 48  -21.0133 26058.6 -03415.8 -07.4678 26281.6
 14 03 2013  20 49  -21.0134 26058.6 -03415.8 -07.4679 26281.5
 14 03 2013  20 50  -21.0137 26058.6 -03415.8 -07.4678 26281.5
 14 03 2013  20 51  -21.0140 26058.5 -03415.8 -07.4678 26281.4
 14 03 2013  20 52  -21.0144 26058.2 -03415.7 -07.4678 26281.1
 14 03 2013  20 53  -21.0148 26058.0 -03415.7 -07.4678 26281.0
 14 03 2013  20 54  -21.0152 26058.0 -03415.7 -07.4677 26280.9
 14 03 2013  20 55  -21.0155 26058.0 -03415.7 -07.4679 26280.9
 14 03 2013  20 56  -21.0158 26058.0 -03415.8 -07.4681 26280.9
 14 03 2013  20 57  -21.0162 26057.9 -03415.9 -07.4682 26280.9
 14 03 2013  20 58  -21.0164 26057.9 -03415.9 -07.4682 26280.8
 14 03 2013  20 59  -21.0167 26057.8 -03415.9 -07.4682 26280.8
 14 03 2013  21 00  -21.0171 26057.7 -03415.9 -07.4682 26280.7
 14 03 2013  21 01  -21.0174 26057.7 -03415.9 -07.4684 26280.6
 14 03 2013  21 02  -21.0178 26057.6 -03416.0 -07.4685 26280.6
 14 03 2013  21 03  -21.0180 26057.6 -03416.0 -07.4685 26280.6
 14 03 2013  21 04  -21.0183 26057.6 -03416.0 -07.4686 26280.6
 14 03 2013  21 05  -21.0187 26057.6 -03416.1 -07.4688 26280.6
 14 03 2013  21 06  -21.0191 26057.8 -03416.3 -07.4691 26280.8
 14 03 2013  21 07  -21.0195 26057.9 -03416.4 -07.4693 26280.9
 14 03 2013  21 08  -21.0198 26058.1 -03416.5 -07.4695 26281.1
 14 03 2013  21 09  -21.0202 26058.1 -03416.6 -07.4697 26281.2
 14 03 2013  21 10  -21.0202 26058.1 -03416.6 -07.4698 26281.1
 14 03 2013  21 11  -21.0205 26058.0 -03416.6 -07.4697 26281.0
 14 03 2013  21 12  -21.0209 26057.8 -03416.5 -07.4695 26280.8
 14 03 2013  21 13  -21.0211 26057.6 -03416.5 -07.4695 26280.6
 14 03 2013  21 14  -21.0215 26057.4 -03416.5 -07.4696 26280.4
 14 03 2013  21 15  -21.0216 26057.2 -03416.4 -07.4696 26280.3
 14 03 2013  21 16  -21.0217 26057.1 -03416.4 -07.4696 26280.1
 14 03 2013  21 17  -21.0218 26056.9 -03416.4 -07.4695 26279.9
 14 03 2013  21 18  -21.0218 26056.9 -03416.4 -07.4696 26279.9
 14 03 2013  21 19  -21.0220 26056.9 -03416.5 -07.4698 26279.9
 14 03 2013  21 20  -21.0222 26056.9 -03416.5 -07.4699 26279.9
 14 03 2013  21 21  -21.0223 26057.0 -03416.7 -07.4702 26280.0
 14 03 2013  21 22  -21.0225 26057.1 -03416.9 -07.4706 26280.2
 14 03 2013  21 23  -21.0228 26057.4 -03417.1 -07.4710 26280.5
 14 03 2013  21 24  -21.0231 26057.5 -03417.2 -07.4712 26280.6
 14 03 2013  21 25  -21.0234 26057.5 -03417.3 -07.4714 26280.7
 14 03 2013  21 26  -21.0237 26057.5 -03417.4 -07.4716 26280.7
 14 03 2013  21 27  -21.0241 26057.4 -03417.4 -07.4717 26280.6
 14 03 2013  21 28  -21.0245 26057.2 -03417.4 -07.4716 26280.3
 14 03 2013  21 29  -21.0248 26056.9 -03417.3 -07.4715 26280.1
 14 03 2013  21 30  -21.0251 26056.7 -03417.1 -07.4712 26279.8
 14 03 2013  21 31  -21.0254 26056.5 -03417.1 -07.4712 26279.6
 14 03 2013  21 32  -21.0255 26056.5 -03417.2 -07.4714 26279.7
 14 03 2013  21 33  -21.0257 26056.5 -03417.2 -07.4715 26279.6
 14 03 2013  21 34  -21.0259 26056.4 -03417.2 -07.4716 26279.5
 14 03 2013  21 35  -21.0261 26056.2 -03417.2 -07.4716 26279.4
 14 03 2013  21 36  -21.0263 26056.1 -03417.2 -07.4716 26279.3
 14 03 2013  21 37  -21.0265 26056.0 -03417.2 -07.4717 26279.1
 14 03 2013  21 38  -21.0269 26055.8 -03417.2 -07.4716 26278.9
 14 03 2013  21 39  -21.0271 26055.4 -03417.1 -07.4715 26278.5
 14 03 2013  21 40  -21.0273 26055.2 -03417.0 -07.4714 26278.3
 14 03 2013  21 41  -21.0274 26055.3 -03417.1 -07.4716 26278.4
 14 03 2013  21 42  -21.0274 26055.6 -03417.3 -07.4719 26278.7
 14 03 2013  21 43  -21.0273 26055.8 -03417.5 -07.4723 26279.0
 14 03 2013  21 44  -21.0273 26056.0 -03417.7 -07.4726 26279.2
 14 03 2013  21 45  -21.0273 26056.1 -03417.8 -07.4728 26279.3
 14 03 2013  21 46  -21.0274 26056.1 -03417.8 -07.4729 26279.3
 14 03 2013  21 47  -21.0277 26056.0 -03417.8 -07.4729 26279.2
 14 03 2013  21 48  -21.0278 26056.0 -03417.8 -07.4729 26279.2
 14 03 2013  21 49  -21.0280 26056.0 -03417.9 -07.4730 26279.2
 14 03 2013  21 50  -21.0280 26056.0 -03417.8 -07.4730 26279.2
 14 03 2013  21 51  -21.0281 26056.0 -03417.9 -07.4731 26279.2
 14 03 2013  21 52  -21.0282 26055.9 -03417.9 -07.4730 26279.1
 14 03 2013  21 53  -21.0284 26055.8 -03417.9 -07.4731 26279.1
 14 03 2013  21 54  -21.0286 26055.7 -03417.9 -07.4731 26279.0
 14 03 2013  21 55  -21.0287 26055.7 -03417.9 -07.4731 26278.9
 14 03 2013  21 56  -21.0288 26055.7 -03417.9 -07.4732 26279.0
 14 03 2013  21 57  -21.0288 26055.6 -03417.9 -07.4731 26278.8
 14 03 2013  21 58  -21.0289 26055.3 -03417.8 -07.4730 26278.5
 14 03 2013  21 59  -21.0291 26055.0 -03417.6 -07.4728 26278.2
 14 03 2013  22 00  -21.0292 26054.7 -03417.5 -07.4726 26277.9
 14 03 2013  22 01  -21.0294 26054.6 -03417.4 -07.4725 26277.7
 14 03 2013  22 02  -21.0294 26054.4 -03417.4 -07.4725 26277.6
 14 03 2013  22 03  -21.0294 26054.1 -03417.3 -07.4724 26277.3
 14 03 2013  22 04  -21.0296 26053.8 -03417.3 -07.4723 26277.0
 14 03 2013  22 05  -21.0297 26053.6 -03417.2 -07.4722 26276.7
 14 03 2013  22 06  -21.0298 26053.4 -03417.1 -07.4722 26276.6
 14 03 2013  22 07  -21.0299 26053.3 -03417.2 -07.4723 26276.5
 14 03 2013  22 08  -21.0299 26053.2 -03417.2 -07.4723 26276.4
 14 03 2013  22 09  -21.0299 26053.1 -03417.2 -07.4725 26276.3
 14 03 2013  22 10  -21.0297 26053.3 -03417.3 -07.4726 26276.5
 14 03 2013  22 11  -21.0296 26053.5 -03417.5 -07.4730 26276.7
 14 03 2013  22 12  -21.0294 26053.7 -03417.7 -07.4733 26276.9
 14 03 2013  22 13  -21.0292 26054.1 -03417.9 -07.4738 26277.3
 14 03 2013  22 14  -21.0292 26054.3 -03418.1 -07.4740 26277.6
 14 03 2013  22 15  -21.0291 26054.4 -03418.2 -07.4743 26277.7
 14 03 2013  22 16  -21.0290 26054.3 -03418.3 -07.4744 26277.5
 14 03 2013  22 17  -21.0288 26054.1 -03418.2 -07.4742 26277.4
 14 03 2013  22 18  -21.0287 26053.9 -03418.1 -07.4741 26277.2
 14 03 2013  22 19  -21.0286 26053.8 -03418.0 -07.4740 26277.1
 14 03 2013  22 20  -21.0286 26053.7 -03418.0 -07.4740 26277.0
 14 03 2013  22 21  -21.0286 26053.6 -03418.0 -07.4740 26276.9
 14 03 2013  22 22  -21.0287 26053.6 -03418.0 -07.4740 26276.8
 14 03 2013  22 23  -21.0288 26053.6 -03418.1 -07.4742 26276.9
 14 03 2013  22 24  -21.0290 26053.7 -03418.2 -07.4744 26277.0
 14 03 2013  22 25  -21.0292 26053.9 -03418.3 -07.4747 26277.1
 14 03 2013  22 26  -21.0293 26053.9 -03418.4 -07.4748 26277.2
 14 03 2013  22 27  -21.0295 26054.1 -03418.5 -07.4749 26277.4
 14 03 2013  22 28  -21.0296 26054.2 -03418.6 -07.4751 26277.6
 14 03 2013  22 29  -21.0296 26054.4 -03418.7 -07.4752 26277.7
 14 03 2013  22 30  -21.0296 26054.4 -03418.7 -07.4753 26277.7
 14 03 2013  22 31  -21.0296 26054.3 -03418.6 -07.4752 26277.7
 14 03 2013  22 32  -21.0296 26054.2 -03418.6 -07.4751 26277.6
 14 03 2013  22 33  -21.0294 26054.0 -03418.5 -07.4749 26277.3
 14 03 2013  22 34  -21.0293 26053.7 -03418.3 -07.4746 26276.9
 14 03 2013  22 35  -21.0294 26053.3 -03418.1 -07.4744 26276.5
 14 03 2013  22 36  -21.0292 26052.9 -03418.0 -07.4741 26276.2
 14 03 2013  22 37  -21.0291 26052.4 -03417.8 -07.4739 26275.6
 14 03 2013  22 38  -21.0291 26051.8 -03417.6 -07.4735 26275.0
 14 03 2013  22 39  -21.0291 26051.2 -03417.3 -07.4732 26274.4
 14 03 2013  22 40  -21.0290 26050.7 -03417.1 -07.4729 26273.8
 14 03 2013  22 41  -21.0290 26050.2 -03416.9 -07.4727 26273.4
 14 03 2013  22 42  -21.0291 26049.8 -03416.8 -07.4725 26272.9
 14 03 2013  22 43  -21.0295 26049.5 -03416.8 -07.4725 26272.6
 14 03 2013  22 44  -21.0298 26049.3 -03416.8 -07.4726 26272.4
 14 03 2013  22 45  -21.0302 26049.1 -03416.8 -07.4726 26272.3
 14 03 2013  22 46  -21.0304 26049.2 -03416.9 -07.4728 26272.3
 14 03 2013  22 47  -21.0307 26049.4 -03417.0 -07.4731 26272.5
 14 03 2013  22 48  -21.0310 26049.5 -03417.1 -07.4733 26272.7
 14 03 2013  22 49  -21.0313 26049.6 -03417.2 -07.4734 26272.8
 14 03 2013  22 50  -21.0314 26049.7 -03417.3 -07.4736 26272.9
 14 03 2013  22 51  -21.0318 26049.7 -03417.3 -07.4736 26272.8
 14 03 2013  22 52  -21.0320 26049.5 -03417.3 -07.4735 26272.7
 14 03 2013  22 53  -21.0323 26049.5 -03417.2 -07.4734 26272.6
 14 03 2013  22 54  -21.0326 26049.3 -03417.2 -07.4734 26272.5
 14 03 2013  22 55  -21.0328 26049.3 -03417.1 -07.4733 26272.4
 14 03 2013  22 56  -21.0330 26049.1 -03417.0 -07.4732 26272.3
 14 03 2013  22 57  -21.0331 26049.0 -03417.0 -07.4731 26272.1
 14 03 2013  22 58  -21.0333 26048.9 -03416.9 -07.4731 26272.0
 14 03 2013  22 59  -21.0334 26048.9 -03417.0 -07.4731 26272.0
 14 03 2013  23 00  -21.0336 26049.0 -03417.0 -07.4732 26272.2
 14 03 2013  23 01  -21.0338 26049.2 -03417.1 -07.4734 26272.3
 14 03 2013  23 02  -21.0340 26049.1 -03417.1 -07.4733 26272.2
 14 03 2013  23 03  -21.0343 26048.9 -03417.0 -07.4732 26272.0
 14 03 2013  23 04  -21.0344 26048.7 -03416.9 -07.4730 26271.8
 14 03 2013  23 05  -21.0344 26048.5 -03416.8 -07.4729 26271.7
 14 03 2013  23 06  -21.0344 26048.5 -03416.8 -07.4729 26271.6
 14 03 2013  23 07  -21.0345 26048.5 -03416.8 -07.4728 26271.6
 14 03 2013  23 08  -21.0345 26048.8 -03416.9 -07.4731 26271.9
 14 03 2013  23 09  -21.0344 26049.2 -03417.2 -07.4735 26272.4
 14 03 2013  23 10  -21.0344 26049.7 -03417.4 -07.4738 26272.9
 14 03 2013  23 11  -21.0342 26050.1 -03417.7 -07.4743 26273.4
 14 03 2013  23 12  -21.0342 26050.5 -03417.8 -07.4746 26273.7
 14 03 2013  23 13  -21.0341 26050.8 -03418.0 -07.4748 26274.1
 14 03 2013  23 14  -21.0339 26051.0 -03418.1 -07.4749 26274.3
 14 03 2013  23 15  -21.0336 26051.0 -03418.1 -07.4749 26274.3
 14 03 2013  23 16  -21.0331 26050.9 -03418.0 -07.4747 26274.2
 14 03 2013  23 17  -21.0328 26050.6 -03417.8 -07.4745 26273.9
 14 03 2013  23 18  -21.0325 26050.2 -03417.6 -07.4741 26273.4
 14 03 2013  23 19  -21.0323 26049.6 -03417.3 -07.4737 26272.8
 14 03 2013  23 20  -21.0321 26049.0 -03417.1 -07.4733 26272.2
 14 03 2013  23 21  -21.0319 26048.5 -03416.8 -07.4730 26271.6
 14 03 2013  23 22  -21.0317 26047.9 -03416.6 -07.4726 26271.0
 14 03 2013  23 23  -21.0316 26047.6 -03416.5 -07.4725 26270.7
 14 03 2013  23 24  -21.0314 26047.5 -03416.6 -07.4727 26270.7
 14 03 2013  23 25  -21.0317 26047.7 -03416.7 -07.4730 26270.8
 14 03 2013  23 26  -21.0321 26047.9 -03416.9 -07.4733 26271.0
 14 03 2013  23 27  -21.0325 26048.0 -03417.1 -07.4737 26271.2
 14 03 2013  23 28  -21.0330 26047.9 -03417.2 -07.4738 26271.1
 14 03 2013  23 29  -21.0333 26047.8 -03417.2 -07.4738 26271.0
 14 03 2013  23 30  -21.0335 26047.7 -03417.1 -07.4737 26270.9
 14 03 2013  23 31  -21.0338 26047.6 -03417.1 -07.4737 26270.8
 14 03 2013  23 32  -21.0341 26047.7 -03417.2 -07.4739 26270.9
 14 03 2013  23 33  -21.0344 26047.8 -03417.2 -07.4739 26271.0
 14 03 2013  23 34  -21.0349 26047.8 -03417.2 -07.4740 26271.0
 14 03 2013  23 35  -21.0352 26047.7 -03417.2 -07.4740 26270.9
 14 03 2013  23 36  -21.0354 26047.6 -03417.2 -07.4739 26270.8
 14 03 2013  23 37  -21.0356 26047.5 -03417.1 -07.4738 26270.7
 14 03 2013  23 38  -21.0356 26047.4 -03417.1 -07.4738 26270.6
 14 03 2013  23 39  -21.0356 26047.4 -03417.1 -07.4738 26270.6
 14 03 2013  23 40  -21.0356 26047.5 -03417.2 -07.4739 26270.7
 14 03 2013  23 41  -21.0357 26047.5 -03417.2 -07.4740 26270.7
 14 03 2013  23 42  -21.0357 26047.6 -03417.2 -07.4741 26270.8
 14 03 2013  23 43  -21.0356 26047.5 -03417.3 -07.4741 26270.7
 14 03 2013  23 44  -21.0354 26047.5 -03417.3 -07.4741 26270.7
 14 03 2013  23 45  -21.0353 26047.6 -03417.3 -07.4742 26270.8
 14 03 2013  23 46  -21.0353 26047.7 -03417.4 -07.4744 26270.9
 14 03 2013  23 47  -21.0354 26047.8 -03417.5 -07.4745 26271.1
 14 03 2013  23 48  -21.0355 26048.0 -03417.6 -07.4747 26271.2
 14 03 2013  23 49  -21.0354 26048.0 -03417.6 -07.4747 26271.2
 14 03 2013  23 50  -21.0354 26048.0 -03417.6 -07.4748 26271.3
 14 03 2013  23 51  -21.0353 26048.1 -03417.7 -07.4749 26271.4
 14 03 2013  23 52  -21.0353 26048.2 -03417.8 -07.4751 26271.5
 14 03 2013  23 53  -21.0353 26048.3 -03417.9 -07.4752 26271.6
 14 03 2013  23 54  -21.0352 26048.4 -03417.9 -07.4753 26271.6
 14 03 2013  23 55  -21.0350 26048.4 -03418.0 -07.4754 26271.7
 14 03 2013  23 56  -21.0348 26048.4 -03418.0 -07.4754 26271.7
 14 03 2013  23 57  -21.0345 26048.3 -03417.9 -07.4754 26271.6
 14 03 2013  23 58  -21.0342 26048.3 -03417.9 -07.4753 26271.5
