SAO LUIS EMBRACE-03 <107> 1 Min. Reported data

 DD MM YYYY  HH MM   D(Deg)  H(nT)   Z(nT)   I(Deg)   F(nT)

 17 04 2013  00 00  -21.0424 26027.7 -03429.3 -07.5059 26252.7
 17 04 2013  00 01  -21.0423 26027.7 -03429.3 -07.5059 26252.6
 17 04 2013  00 02  -21.0423 26027.6 -03429.3 -07.5059 26252.6
 17 04 2013  00 03  -21.0425 26027.5 -03429.3 -07.5059 26252.5
 17 04 2013  00 04  -21.0427 26027.5 -03429.4 -07.5060 26252.5
 17 04 2013  00 05  -21.0428 26027.4 -03429.3 -07.5059 26252.4
 17 04 2013  00 06  -21.0430 26027.3 -03429.3 -07.5059 26252.3
 17 04 2013  00 07  -21.0432 26027.3 -03429.3 -07.5059 26252.2
 17 04 2013  00 08  -21.0432 26027.3 -03429.3 -07.5058 26252.2
 17 04 2013  00 09  -21.0427 26027.2 -03429.2 -07.5058 26252.2
 17 04 2013  00 10  -21.0431 26027.2 -03429.3 -07.5059 26252.2
 17 04 2013  00 11  -21.0433 26027.2 -03429.3 -07.5060 26252.1
 17 04 2013  00 12  -21.0434 26027.2 -03429.3 -07.5060 26252.1
 17 04 2013  00 13  -21.0434 26027.2 -03429.3 -07.5060 26252.1
 17 04 2013  00 14  -21.0435 26027.1 -03429.3 -07.5060 26252.1
 17 04 2013  00 15  -21.0435 26027.1 -03429.3 -07.5060 26252.1
 17 04 2013  00 16  -21.0435 26027.1 -03429.3 -07.5060 26252.0
 17 04 2013  00 17  -21.0436 26027.0 -03429.3 -07.5059 26252.0
 17 04 2013  00 18  -21.0435 26026.9 -03429.3 -07.5059 26251.9
 17 04 2013  00 19  -21.0435 26026.9 -03429.3 -07.5059 26251.8
 17 04 2013  00 20  -21.0434 26026.7 -03429.2 -07.5059 26251.7
 17 04 2013  00 21  -21.0433 26026.7 -03429.2 -07.5058 26251.6
 17 04 2013  00 22  -21.0434 26026.6 -03429.2 -07.5058 26251.6
 17 04 2013  00 23  -21.0432 26026.5 -03429.1 -07.5058 26251.4
 17 04 2013  00 24  -21.0430 26026.4 -03429.1 -07.5058 26251.4
 17 04 2013  00 25  -21.0429 26026.5 -03429.2 -07.5059 26251.4
 17 04 2013  00 26  -21.0428 26026.5 -03429.2 -07.5060 26251.4
 17 04 2013  00 27  -21.0429 26026.5 -03429.3 -07.5061 26251.4
 17 04 2013  00 28  -21.0430 26026.5 -03429.3 -07.5062 26251.5
 17 04 2013  00 29  -21.0430 26026.6 -03429.4 -07.5063 26251.5
 17 04 2013  00 30  -21.0432 26026.6 -03429.4 -07.5063 26251.5
 17 04 2013  00 31  -21.0432 26026.5 -03429.4 -07.5063 26251.5
 17 04 2013  00 32  -21.0431 26026.5 -03429.4 -07.5063 26251.4
 17 04 2013  00 33  -21.0430 26026.3 -03429.3 -07.5062 26251.3
 17 04 2013  00 34  -21.0430 26026.3 -03429.3 -07.5061 26251.2
 17 04 2013  00 35  -21.0429 26026.2 -03429.2 -07.5061 26251.2
 17 04 2013  00 36  -21.0428 26026.2 -03429.3 -07.5062 26251.2
 17 04 2013  00 37  -21.0428 26026.2 -03429.3 -07.5063 26251.2
 17 04 2013  00 38  -21.0428 26026.2 -03429.4 -07.5063 26251.2
 17 04 2013  00 39  -21.0428 26026.2 -03429.4 -07.5064 26251.2
 17 04 2013  00 40  -21.0428 26026.2 -03429.4 -07.5065 26251.2
 17 04 2013  00 41  -21.0429 26026.3 -03429.4 -07.5065 26251.2
 17 04 2013  00 42  -21.0428 26026.2 -03429.4 -07.5065 26251.2
 17 04 2013  00 43  -21.0427 26026.2 -03429.4 -07.5065 26251.2
 17 04 2013  00 44  -21.0426 26026.1 -03429.4 -07.5065 26251.1
 17 04 2013  00 45  -21.0424 26026.0 -03429.4 -07.5065 26251.0
 17 04 2013  00 46  -21.0422 26026.0 -03429.4 -07.5064 26250.9
 17 04 2013  00 47  -21.0422 26025.9 -03429.4 -07.5065 26250.9
 17 04 2013  00 48  -21.0422 26026.0 -03429.5 -07.5067 26251.0
 17 04 2013  00 49  -21.0420 26026.1 -03429.6 -07.5068 26251.1
 17 04 2013  00 50  -21.0418 26026.1 -03429.6 -07.5069 26251.1
 17 04 2013  00 51  -21.0418 26026.1 -03429.6 -07.5070 26251.1
 17 04 2013  00 52  -21.0419 26026.1 -03429.7 -07.5071 26251.1
 17 04 2013  00 53  -21.0420 26026.2 -03429.7 -07.5071 26251.2
 17 04 2013  00 54  -21.0421 26026.1 -03429.7 -07.5071 26251.1
 17 04 2013  00 55  -21.0421 26026.0 -03429.7 -07.5071 26251.0
 17 04 2013  00 56  -21.0421 26025.9 -03429.6 -07.5070 26250.9
 17 04 2013  00 57  -21.0419 26025.9 -03429.6 -07.5070 26250.9
 17 04 2013  00 58  -21.0415 26025.8 -03429.6 -07.5069 26250.8
 17 04 2013  00 59  -21.0412 26025.7 -03429.5 -07.5068 26250.7
 17 04 2013  01 00  -21.0412 26025.6 -03429.5 -07.5068 26250.6
 17 04 2013  01 01  -21.0411 26025.4 -03429.4 -07.5067 26250.4
 17 04 2013  01 02  -21.0409 26025.2 -03429.4 -07.5066 26250.2
 17 04 2013  01 03  -21.0407 26025.0 -03429.3 -07.5066 26250.0
 17 04 2013  01 04  -21.0406 26024.8 -03429.2 -07.5065 26249.8
 17 04 2013  01 05  -21.0402 26024.6 -03429.2 -07.5064 26249.6
 17 04 2013  01 06  -21.0400 26024.5 -03429.2 -07.5064 26249.4
 17 04 2013  01 07  -21.0400 26024.4 -03429.2 -07.5065 26249.3
 17 04 2013  01 08  -21.0400 26024.4 -03429.2 -07.5066 26249.3
 17 04 2013  01 09  -21.0402 26024.4 -03429.3 -07.5068 26249.3
 17 04 2013  01 10  -21.0403 26024.4 -03429.4 -07.5069 26249.4
 17 04 2013  01 11  -21.0405 26024.4 -03429.4 -07.5071 26249.4
 17 04 2013  01 12  -21.0406 26024.4 -03429.5 -07.5071 26249.4
 17 04 2013  01 13  -21.0407 26024.3 -03429.5 -07.5072 26249.3
 17 04 2013  01 14  -21.0408 26024.3 -03429.5 -07.5073 26249.3
 17 04 2013  01 15  -21.0410 26024.4 -03429.6 -07.5074 26249.5
 17 04 2013  01 16  -21.0411 26024.5 -03429.6 -07.5074 26249.5
 17 04 2013  01 17  -21.0412 26024.5 -03429.7 -07.5075 26249.5
 17 04 2013  01 18  -21.0412 26024.5 -03429.7 -07.5075 26249.5
 17 04 2013  01 19  -21.0413 26024.5 -03429.7 -07.5075 26249.5
 17 04 2013  01 20  -21.0415 26024.5 -03429.7 -07.5076 26249.5
 17 04 2013  01 21  -21.0416 26024.4 -03429.7 -07.5076 26249.4
 17 04 2013  01 22  -21.0417 26024.4 -03429.6 -07.5075 26249.4
 17 04 2013  01 23  -21.0418 26024.3 -03429.6 -07.5075 26249.3
 17 04 2013  01 24  -21.0417 26024.2 -03429.6 -07.5075 26249.2
 17 04 2013  01 25  -21.0417 26024.2 -03429.6 -07.5074 26249.2
 17 04 2013  01 26  -21.0416 26024.1 -03429.6 -07.5074 26249.1
 17 04 2013  01 27  -21.0417 26024.0 -03429.5 -07.5073 26249.0
 17 04 2013  01 28  -21.0417 26023.9 -03429.5 -07.5073 26248.9
 17 04 2013  01 29  -21.0417 26023.8 -03429.5 -07.5073 26248.8
 17 04 2013  01 30  -21.0417 26023.8 -03429.5 -07.5073 26248.8
 17 04 2013  01 31  -21.0418 26023.7 -03429.5 -07.5074 26248.7
 17 04 2013  01 32  -21.0419 26023.8 -03429.5 -07.5074 26248.8
 17 04 2013  01 33  -21.0420 26023.8 -03429.6 -07.5075 26248.8
 17 04 2013  01 34  -21.0422 26023.9 -03429.6 -07.5076 26248.9
 17 04 2013  01 35  -21.0424 26024.0 -03429.7 -07.5077 26249.0
 17 04 2013  01 36  -21.0424 26023.9 -03429.7 -07.5077 26248.9
 17 04 2013  01 37  -21.0425 26023.9 -03429.7 -07.5077 26248.9
 17 04 2013  01 38  -21.0427 26023.9 -03429.7 -07.5077 26248.9
 17 04 2013  01 39  -21.0428 26023.9 -03429.6 -07.5076 26248.9
 17 04 2013  01 40  -21.0428 26023.8 -03429.6 -07.5076 26248.8
 17 04 2013  01 41  -21.0427 26023.8 -03429.6 -07.5076 26248.8
 17 04 2013  01 42  -21.0427 26023.8 -03429.6 -07.5076 26248.9
 17 04 2013  01 43  -21.0426 26023.7 -03429.6 -07.5075 26248.7
 17 04 2013  01 44  -21.0425 26023.7 -03429.6 -07.5075 26248.7
 17 04 2013  01 45  -21.0426 26023.7 -03429.5 -07.5075 26248.7
 17 04 2013  01 46  -21.0429 26023.7 -03429.6 -07.5076 26248.7
 17 04 2013  01 47  -21.0431 26023.6 -03429.6 -07.5076 26248.7
 17 04 2013  01 48  -21.0430 26023.6 -03429.6 -07.5076 26248.6
 17 04 2013  01 49  -21.0431 26023.7 -03429.6 -07.5076 26248.7
 17 04 2013  01 50  -21.0430 26023.5 -03429.5 -07.5075 26248.5
 17 04 2013  01 51  -21.0429 26023.5 -03429.5 -07.5074 26248.5
 17 04 2013  01 52  -21.0429 26023.4 -03429.5 -07.5074 26248.5
 17 04 2013  01 53  -21.0431 26023.5 -03429.6 -07.5076 26248.5
 17 04 2013  01 54  -21.0431 26023.6 -03429.6 -07.5076 26248.6
 17 04 2013  01 55  -21.0430 26023.6 -03429.6 -07.5077 26248.7
 17 04 2013  01 56  -21.0430 26023.7 -03429.7 -07.5077 26248.7
 17 04 2013  01 57  -21.0430 26023.8 -03429.7 -07.5078 26248.8
 17 04 2013  01 58  -21.0431 26023.8 -03429.7 -07.5078 26248.8
 17 04 2013  01 59  -21.0430 26023.8 -03429.7 -07.5078 26248.8
 17 04 2013  02 00  -21.0428 26023.8 -03429.7 -07.5078 26248.8
 17 04 2013  02 01  -21.0429 26023.8 -03429.7 -07.5078 26248.8
 17 04 2013  02 02  -21.0428 26023.8 -03429.7 -07.5078 26248.8
 17 04 2013  02 03  -21.0428 26023.8 -03429.7 -07.5078 26248.8
 17 04 2013  02 04  -21.0428 26023.8 -03429.7 -07.5078 26248.8
 17 04 2013  02 05  -21.0428 26023.7 -03429.7 -07.5077 26248.7
 17 04 2013  02 06  -21.0426 26023.7 -03429.7 -07.5077 26248.8
 17 04 2013  02 07  -21.0424 26023.6 -03429.6 -07.5077 26248.7
 17 04 2013  02 08  -21.0423 26023.6 -03429.6 -07.5077 26248.6
 17 04 2013  02 09  -21.0423 26023.6 -03429.6 -07.5077 26248.6
 17 04 2013  02 10  -21.0423 26023.6 -03429.6 -07.5076 26248.6
 17 04 2013  02 11  -21.0422 26023.6 -03429.6 -07.5077 26248.6
 17 04 2013  02 12  -21.0423 26023.6 -03429.6 -07.5077 26248.6
 17 04 2013  02 13  -21.0425 26023.7 -03429.7 -07.5078 26248.7
 17 04 2013  02 14  -21.0425 26023.7 -03429.7 -07.5078 26248.7
 17 04 2013  02 15  -21.0425 26023.7 -03429.7 -07.5077 26248.7
 17 04 2013  02 16  -21.0424 26023.6 -03429.6 -07.5077 26248.6
 17 04 2013  02 17  -21.0423 26023.6 -03429.6 -07.5076 26248.6
 17 04 2013  02 18  -21.0423 26023.7 -03429.7 -07.5077 26248.7
 17 04 2013  02 19  -21.0423 26023.7 -03429.7 -07.5077 26248.7
 17 04 2013  02 20  -21.0424 26023.8 -03429.7 -07.5078 26248.8
 17 04 2013  02 21  -21.0425 26023.9 -03429.8 -07.5079 26248.9
 17 04 2013  02 22  -21.0424 26023.9 -03429.7 -07.5078 26248.9
 17 04 2013  02 23  -21.0425 26024.0 -03429.8 -07.5079 26249.1
 17 04 2013  02 24  -21.0425 26024.2 -03429.8 -07.5080 26249.2
 17 04 2013  02 25  -21.0425 26024.3 -03429.9 -07.5080 26249.3
 17 04 2013  02 26  -21.0424 26024.3 -03429.9 -07.5080 26249.3
 17 04 2013  02 27  -21.0423 26024.3 -03429.9 -07.5080 26249.3
 17 04 2013  02 28  -21.0422 26024.3 -03429.8 -07.5079 26249.3
 17 04 2013  02 29  -21.0420 26024.2 -03429.7 -07.5077 26249.2
 17 04 2013  02 30  -21.0421 26024.2 -03429.7 -07.5077 26249.2
 17 04 2013  02 31  -21.0420 26024.1 -03429.7 -07.5077 26249.2
 17 04 2013  02 32  -21.0421 26024.2 -03429.7 -07.5077 26249.2
 17 04 2013  02 33  -21.0422 26024.3 -03429.7 -07.5077 26249.3
 17 04 2013  02 34  -21.0422 26024.2 -03429.7 -07.5076 26249.2
 17 04 2013  02 35  -21.0423 26024.2 -03429.7 -07.5076 26249.2
 17 04 2013  02 36  -21.0423 26024.2 -03429.7 -07.5076 26249.2
 17 04 2013  02 37  -21.0422 26024.2 -03429.6 -07.5075 26249.2
 17 04 2013  02 38  -21.0420 26024.2 -03429.6 -07.5074 26249.2
 17 04 2013  02 39  -21.0421 26024.2 -03429.7 -07.5076 26249.3
 17 04 2013  02 40  -21.0420 26024.2 -03429.6 -07.5075 26249.2
 17 04 2013  02 41  -21.0419 26024.0 -03429.5 -07.5073 26249.0
 17 04 2013  02 42  -21.0419 26024.0 -03429.4 -07.5072 26249.0
 17 04 2013  02 43  -21.0419 26024.0 -03429.5 -07.5073 26249.0
 17 04 2013  02 44  -21.0419 26024.0 -03429.5 -07.5072 26249.0
 17 04 2013  02 45  -21.0420 26023.9 -03429.4 -07.5072 26248.9
 17 04 2013  02 46  -21.0420 26023.9 -03429.4 -07.5072 26248.9
 17 04 2013  02 47  -21.0419 26023.9 -03429.5 -07.5072 26248.9
 17 04 2013  02 48  -21.0418 26023.9 -03429.5 -07.5072 26248.9
 17 04 2013  02 49  -21.0418 26023.9 -03429.5 -07.5073 26248.9
 17 04 2013  02 50  -21.0419 26023.9 -03429.5 -07.5073 26248.9
 17 04 2013  02 51  -21.0420 26024.0 -03429.6 -07.5074 26249.0
 17 04 2013  02 52  -21.0421 26023.9 -03429.6 -07.5074 26248.9
 17 04 2013  02 53  -21.0422 26023.9 -03429.5 -07.5074 26248.9
 17 04 2013  02 54  -21.0423 26024.0 -03429.6 -07.5074 26249.0
 17 04 2013  02 55  -21.0423 26024.0 -03429.6 -07.5075 26249.0
 17 04 2013  02 56  -21.0422 26024.1 -03429.6 -07.5075 26249.1
 17 04 2013  02 57  -21.0421 26024.1 -03429.6 -07.5076 26249.1
 17 04 2013  02 58  -21.0422 26024.1 -03429.6 -07.5076 26249.1
 17 04 2013  02 59  -21.0421 26024.1 -03429.7 -07.5076 26249.1
 17 04 2013  03 00  -21.0420 26024.0 -03429.6 -07.5076 26249.1
 17 04 2013  03 01  -21.0418 26024.0 -03429.6 -07.5075 26249.0
 17 04 2013  03 02  -21.0417 26023.9 -03429.5 -07.5074 26248.9
 17 04 2013  03 03  -21.0416 26023.8 -03429.5 -07.5074 26248.8
 17 04 2013  03 04  -21.0415 26023.8 -03429.5 -07.5073 26248.8
 17 04 2013  03 05  -21.0413 26023.8 -03429.5 -07.5074 26248.8
 17 04 2013  03 06  -21.0413 26023.8 -03429.5 -07.5074 26248.8
 17 04 2013  03 07  -21.0413 26023.8 -03429.6 -07.5075 26248.9
 17 04 2013  03 08  -21.0411 26023.8 -03429.6 -07.5075 26248.8
 17 04 2013  03 09  -21.0409 26023.8 -03429.6 -07.5075 26248.8
 17 04 2013  03 10  -21.0408 26023.8 -03429.6 -07.5076 26248.8
 17 04 2013  03 11  -21.0408 26023.8 -03429.6 -07.5076 26248.8
 17 04 2013  03 12  -21.0405 26023.7 -03429.6 -07.5076 26248.7
 17 04 2013  03 13  -21.0404 26023.7 -03429.6 -07.5076 26248.7
 17 04 2013  03 14  -21.0404 26023.6 -03429.6 -07.5076 26248.6
 17 04 2013  03 15  -21.0406 26023.6 -03429.7 -07.5077 26248.7
 17 04 2013  03 16  -21.0406 26023.5 -03429.6 -07.5077 26248.6
 17 04 2013  03 17  -21.0407 26023.5 -03429.7 -07.5078 26248.5
 17 04 2013  03 18  -21.0408 26023.5 -03429.6 -07.5077 26248.5
 17 04 2013  03 19  -21.0408 26023.5 -03429.7 -07.5078 26248.5
 17 04 2013  03 20  -21.0407 26023.5 -03429.6 -07.5077 26248.5
 17 04 2013  03 21  -21.0406 26023.5 -03429.7 -07.5078 26248.5
 17 04 2013  03 22  -21.0405 26023.5 -03429.7 -07.5078 26248.5
 17 04 2013  03 23  -21.0405 26023.5 -03429.7 -07.5079 26248.5
 17 04 2013  03 24  -21.0402 26023.5 -03429.8 -07.5080 26248.5
 17 04 2013  03 25  -21.0402 26023.6 -03429.8 -07.5080 26248.6
 17 04 2013  03 26  -21.0404 26023.6 -03429.9 -07.5082 26248.7
 17 04 2013  03 27  -21.0407 26023.7 -03429.9 -07.5083 26248.8
 17 04 2013  03 28  -21.0408 26023.8 -03430.0 -07.5084 26248.8
 17 04 2013  03 29  -21.0406 26023.8 -03430.0 -07.5084 26248.9
 17 04 2013  03 30  -21.0404 26023.7 -03429.9 -07.5083 26248.8
 17 04 2013  03 31  -21.0403 26023.8 -03429.9 -07.5083 26248.8
 17 04 2013  03 32  -21.0402 26023.8 -03430.0 -07.5084 26248.8
 17 04 2013  03 33  -21.0401 26023.8 -03430.0 -07.5085 26248.8
 17 04 2013  03 34  -21.0399 26023.8 -03430.0 -07.5085 26248.9
 17 04 2013  03 35  -21.0398 26023.8 -03430.0 -07.5084 26248.9
 17 04 2013  03 36  -21.0397 26023.9 -03430.1 -07.5086 26249.0
 17 04 2013  03 37  -21.0396 26023.9 -03430.1 -07.5087 26249.0
 17 04 2013  03 38  -21.0395 26024.0 -03430.2 -07.5088 26249.1
 17 04 2013  03 39  -21.0396 26024.1 -03430.3 -07.5089 26249.2
 17 04 2013  03 40  -21.0396 26024.1 -03430.3 -07.5089 26249.2
 17 04 2013  03 41  -21.0396 26024.2 -03430.3 -07.5090 26249.3
 17 04 2013  03 42  -21.0395 26024.2 -03430.3 -07.5090 26249.3
 17 04 2013  03 43  -21.0393 26024.2 -03430.3 -07.5090 26249.3
 17 04 2013  03 44  -21.0392 26024.2 -03430.3 -07.5090 26249.3
 17 04 2013  03 45  -21.0392 26024.2 -03430.3 -07.5090 26249.3
 17 04 2013  03 46  -21.0392 26024.2 -03430.4 -07.5092 26249.3
 17 04 2013  03 47  -21.0393 26024.3 -03430.5 -07.5093 26249.4
 17 04 2013  03 48  -21.0394 26024.4 -03430.5 -07.5094 26249.5
 17 04 2013  03 49  -21.0394 26024.5 -03430.6 -07.5096 26249.7
 17 04 2013  03 50  -21.0395 26024.7 -03430.7 -07.5098 26249.8
 17 04 2013  03 51  -21.0394 26024.8 -03430.8 -07.5099 26250.0
 17 04 2013  03 52  -21.0393 26024.9 -03430.9 -07.5100 26250.1
 17 04 2013  03 53  -21.0394 26025.1 -03431.0 -07.5102 26250.3
 17 04 2013  03 54  -21.0395 26025.2 -03431.0 -07.5103 26250.4
 17 04 2013  03 55  -21.0394 26025.2 -03431.1 -07.5104 26250.4
 17 04 2013  03 56  -21.0394 26025.2 -03431.1 -07.5103 26250.4
 17 04 2013  03 57  -21.0394 26025.2 -03431.0 -07.5103 26250.4
 17 04 2013  03 58  -21.0395 26025.2 -03431.0 -07.5103 26250.4
 17 04 2013  03 59  -21.0395 26025.1 -03431.0 -07.5103 26250.3
 17 04 2013  04 00  -21.0394 26025.0 -03431.0 -07.5102 26250.1
 17 04 2013  04 01  -21.0393 26024.9 -03431.0 -07.5102 26250.1
 17 04 2013  04 02  -21.0394 26024.8 -03431.0 -07.5102 26250.0
 17 04 2013  04 03  -21.0396 26024.9 -03431.1 -07.5104 26250.1
 17 04 2013  04 04  -21.0400 26025.0 -03431.1 -07.5105 26250.2
 17 04 2013  04 05  -21.0404 26025.0 -03431.2 -07.5106 26250.2
 17 04 2013  04 06  -21.0407 26025.0 -03431.2 -07.5107 26250.3
 17 04 2013  04 07  -21.0408 26025.1 -03431.2 -07.5108 26250.3
 17 04 2013  04 08  -21.0411 26025.2 -03431.3 -07.5108 26250.4
 17 04 2013  04 09  -21.0412 26025.3 -03431.3 -07.5108 26250.5
 17 04 2013  04 10  -21.0412 26025.3 -03431.3 -07.5109 26250.6
 17 04 2013  04 11  -21.0411 26025.3 -03431.3 -07.5109 26250.6
 17 04 2013  04 12  -21.0413 26025.4 -03431.3 -07.5109 26250.6
 17 04 2013  04 13  -21.0414 26025.5 -03431.4 -07.5110 26250.7
 17 04 2013  04 14  -21.0417 26025.5 -03431.4 -07.5110 26250.8
 17 04 2013  04 15  -21.0419 26025.6 -03431.4 -07.5110 26250.8
 17 04 2013  04 16  -21.0419 26025.6 -03431.4 -07.5109 26250.8
 17 04 2013  04 17  -21.0419 26025.6 -03431.4 -07.5109 26250.8
 17 04 2013  04 18  -21.0419 26025.6 -03431.3 -07.5107 26250.8
 17 04 2013  04 19  -21.0422 26025.5 -03431.3 -07.5107 26250.7
 17 04 2013  04 20  -21.0423 26025.6 -03431.3 -07.5108 26250.8
 17 04 2013  04 21  -21.0426 26025.6 -03431.3 -07.5108 26250.8
 17 04 2013  04 22  -21.0428 26025.7 -03431.3 -07.5108 26250.9
 17 04 2013  04 23  -21.0429 26025.7 -03431.3 -07.5107 26250.9
 17 04 2013  04 24  -21.0429 26025.7 -03431.3 -07.5107 26250.9
 17 04 2013  04 25  -21.0428 26025.7 -03431.3 -07.5107 26250.9
 17 04 2013  04 26  -21.0428 26025.8 -03431.3 -07.5107 26251.0
 17 04 2013  04 27  -21.0427 26025.9 -03431.3 -07.5107 26251.1
 17 04 2013  04 28  -21.0427 26026.0 -03431.4 -07.5108 26251.2
 17 04 2013  04 29  -21.0428 26026.0 -03431.4 -07.5108 26251.2
 17 04 2013  04 30  -21.0428 26026.0 -03431.4 -07.5107 26251.2
 17 04 2013  04 31  -21.0428 26026.0 -03431.4 -07.5107 26251.3
 17 04 2013  04 32  -21.0426 26026.1 -03431.4 -07.5108 26251.3
 17 04 2013  04 33  -21.0424 26026.2 -03431.4 -07.5108 26251.4
 17 04 2013  04 34  -21.0423 26026.3 -03431.5 -07.5109 26251.5
 17 04 2013  04 35  -21.0422 26026.4 -03431.5 -07.5110 26251.7
 17 04 2013  04 36  -21.0421 26026.5 -03431.5 -07.5109 26251.7
 17 04 2013  04 37  -21.0421 26026.7 -03431.6 -07.5111 26251.9
 17 04 2013  04 38  -21.0419 26026.8 -03431.7 -07.5112 26252.0
 17 04 2013  04 39  -21.0419 26026.9 -03431.7 -07.5113 26252.2
 17 04 2013  04 40  -21.0418 26027.1 -03431.8 -07.5114 26252.3
 17 04 2013  04 41  -21.0418 26027.1 -03431.8 -07.5114 26252.4
 17 04 2013  04 42  -21.0418 26027.2 -03431.8 -07.5114 26252.4
 17 04 2013  04 43  -21.0418 26027.2 -03431.8 -07.5114 26252.5
 17 04 2013  04 44  -21.0418 26027.2 -03431.8 -07.5114 26252.5
 17 04 2013  04 45  -21.0418 26027.4 -03431.9 -07.5115 26252.7
 17 04 2013  04 46  -21.0419 26027.4 -03431.9 -07.5115 26252.7
 17 04 2013  04 47  -21.0419 26027.4 -03431.9 -07.5114 26252.7
 17 04 2013  04 48  -21.0418 26027.4 -03431.9 -07.5114 26252.7
 17 04 2013  04 49  -21.0418 26027.4 -03431.8 -07.5114 26252.7
 17 04 2013  04 50  -21.0419 26027.4 -03431.8 -07.5113 26252.7
 17 04 2013  04 51  -21.0421 26027.5 -03431.8 -07.5113 26252.8
 17 04 2013  04 52  -21.0422 26027.5 -03431.8 -07.5113 26252.8
 17 04 2013  04 53  -21.0423 26027.5 -03431.8 -07.5113 26252.8
 17 04 2013  04 54  -21.0423 26027.6 -03431.8 -07.5113 26252.9
 17 04 2013  04 55  -21.0424 26027.7 -03431.8 -07.5113 26252.9
 17 04 2013  04 56  -21.0423 26027.7 -03431.8 -07.5112 26252.9
 17 04 2013  04 57  -21.0421 26027.7 -03431.8 -07.5112 26253.0
 17 04 2013  04 58  -21.0421 26027.8 -03431.8 -07.5112 26253.0
 17 04 2013  04 59  -21.0421 26027.8 -03431.8 -07.5112 26253.0
 17 04 2013  05 00  -21.0421 26027.8 -03431.8 -07.5111 26253.0
 17 04 2013  05 01  -21.0421 26027.7 -03431.7 -07.5111 26253.0
 17 04 2013  05 02  -21.0421 26027.8 -03431.7 -07.5110 26253.0
 17 04 2013  05 03  -21.0421 26027.8 -03431.7 -07.5110 26253.0
 17 04 2013  05 04  -21.0423 26027.9 -03431.7 -07.5110 26253.1
 17 04 2013  05 05  -21.0424 26027.9 -03431.8 -07.5111 26253.2
 17 04 2013  05 06  -21.0425 26027.9 -03431.8 -07.5111 26253.2
 17 04 2013  05 07  -21.0424 26027.9 -03431.7 -07.5109 26253.1
 17 04 2013  05 08  -21.0424 26027.8 -03431.6 -07.5108 26253.0
 17 04 2013  05 09  -21.0424 26027.6 -03431.5 -07.5106 26252.8
 17 04 2013  05 10  -21.0425 26027.5 -03431.4 -07.5105 26252.7
 17 04 2013  05 11  -21.0423 26027.4 -03431.4 -07.5104 26252.6
 17 04 2013  05 12  -21.0423 26027.2 -03431.3 -07.5102 26252.4
 17 04 2013  05 13  -21.0423 26027.1 -03431.2 -07.5101 26252.3
 17 04 2013  05 14  -21.0423 26027.1 -03431.2 -07.5101 26252.3
 17 04 2013  05 15  -21.0424 26027.1 -03431.2 -07.5101 26252.3
 17 04 2013  05 16  -21.0424 26027.1 -03431.2 -07.5101 26252.3
 17 04 2013  05 17  -21.0423 26027.1 -03431.2 -07.5101 26252.3
 17 04 2013  05 18  -21.0422 26027.2 -03431.3 -07.5102 26252.4
 17 04 2013  05 19  -21.0422 26027.3 -03431.3 -07.5103 26252.6
 17 04 2013  05 20  -21.0423 26027.5 -03431.4 -07.5104 26252.7
 17 04 2013  05 21  -21.0424 26027.8 -03431.5 -07.5106 26253.0
 17 04 2013  05 22  -21.0427 26028.0 -03431.6 -07.5107 26253.2
 17 04 2013  05 23  -21.0428 26028.2 -03431.7 -07.5108 26253.4
 17 04 2013  05 24  -21.0428 26028.2 -03431.7 -07.5108 26253.5
 17 04 2013  05 25  -21.0428 26028.3 -03431.7 -07.5108 26253.6
 17 04 2013  05 26  -21.0429 26028.4 -03431.7 -07.5108 26253.6
 17 04 2013  05 27  -21.0430 26028.3 -03431.6 -07.5106 26253.6
 17 04 2013  05 28  -21.0430 26028.3 -03431.5 -07.5104 26253.5
 17 04 2013  05 29  -21.0431 26028.2 -03431.4 -07.5103 26253.4
 17 04 2013  05 30  -21.0431 26028.1 -03431.4 -07.5102 26253.3
 17 04 2013  05 31  -21.0431 26028.0 -03431.3 -07.5101 26253.2
 17 04 2013  05 32  -21.0431 26027.9 -03431.2 -07.5099 26253.1
 17 04 2013  05 33  -21.0430 26027.8 -03431.2 -07.5098 26253.0
 17 04 2013  05 34  -21.0430 26027.7 -03431.2 -07.5098 26252.9
 17 04 2013  05 35  -21.0429 26027.8 -03431.2 -07.5098 26252.9
 17 04 2013  05 36  -21.0428 26027.7 -03431.1 -07.5097 26252.9
 17 04 2013  05 37  -21.0427 26027.8 -03431.1 -07.5097 26252.9
 17 04 2013  05 38  -21.0428 26027.7 -03431.1 -07.5098 26252.9
 17 04 2013  05 39  -21.0427 26027.8 -03431.2 -07.5098 26253.0
 17 04 2013  05 40  -21.0427 26027.8 -03431.2 -07.5099 26253.0
 17 04 2013  05 41  -21.0426 26027.8 -03431.2 -07.5099 26253.0
 17 04 2013  05 42  -21.0425 26027.7 -03431.2 -07.5099 26252.9
 17 04 2013  05 43  -21.0423 26027.7 -03431.2 -07.5098 26252.9
 17 04 2013  05 44  -21.0421 26027.7 -03431.2 -07.5098 26252.9
 17 04 2013  05 45  -21.0419 26027.7 -03431.2 -07.5099 26252.8
 17 04 2013  05 46  -21.0417 26027.6 -03431.2 -07.5098 26252.8
 17 04 2013  05 47  -21.0416 26027.7 -03431.2 -07.5100 26252.8
 17 04 2013  05 48  -21.0415 26027.6 -03431.2 -07.5100 26252.8
 17 04 2013  05 49  -21.0414 26027.7 -03431.3 -07.5101 26252.9
 17 04 2013  05 50  -21.0415 26027.7 -03431.3 -07.5101 26252.9
 17 04 2013  05 51  -21.0413 26027.7 -03431.3 -07.5101 26252.9
 17 04 2013  05 52  -21.0413 26027.6 -03431.3 -07.5101 26252.8
 17 04 2013  05 53  -21.0413 26027.6 -03431.3 -07.5101 26252.8
 17 04 2013  05 54  -21.0414 26027.6 -03431.3 -07.5102 26252.8
 17 04 2013  05 55  -21.0415 26027.5 -03431.3 -07.5102 26252.7
 17 04 2013  05 56  -21.0415 26027.5 -03431.3 -07.5102 26252.7
 17 04 2013  05 57  -21.0416 26027.5 -03431.3 -07.5102 26252.7
 17 04 2013  05 58  -21.0418 26027.5 -03431.3 -07.5102 26252.7
 17 04 2013  05 59  -21.0419 26027.5 -03431.4 -07.5103 26252.8
 17 04 2013  06 00  -21.0418 26027.4 -03431.3 -07.5103 26252.6
 17 04 2013  06 01  -21.0417 26027.4 -03431.3 -07.5103 26252.6
 17 04 2013  06 02  -21.0417 26027.4 -03431.4 -07.5103 26252.6
 17 04 2013  06 03  -21.0418 26027.5 -03431.4 -07.5104 26252.7
 17 04 2013  06 04  -21.0419 26027.5 -03431.4 -07.5105 26252.8
 17 04 2013  06 05  -21.0419 26027.7 -03431.5 -07.5106 26252.9
 17 04 2013  06 06  -21.0420 26027.5 -03431.5 -07.5105 26252.8
 17 04 2013  06 07  -21.0419 26027.6 -03431.4 -07.5105 26252.8
 17 04 2013  06 08  -21.0418 26027.7 -03431.5 -07.5106 26252.9
 17 04 2013  06 09  -21.0419 26027.5 -03431.4 -07.5104 26252.7
 17 04 2013  06 10  -21.0419 26027.6 -03431.5 -07.5105 26252.9
 17 04 2013  06 11  -21.0423 26027.6 -03431.5 -07.5106 26252.8
 17 04 2013  06 12  -21.0425 26027.6 -03431.5 -07.5106 26252.8
 17 04 2013  06 13  -21.0427 26027.7 -03431.6 -07.5108 26253.0
 17 04 2013  06 14  -21.0428 26027.7 -03431.6 -07.5107 26252.9
 17 04 2013  06 15  -21.0429 26027.7 -03431.6 -07.5107 26253.0
 17 04 2013  06 16  -21.0432 26027.7 -03431.6 -07.5107 26253.0
 17 04 2013  06 17  -21.0435 26027.8 -03431.6 -07.5107 26253.0
 17 04 2013  06 18  -21.0438 26027.8 -03431.5 -07.5106 26253.0
 17 04 2013  06 19  -21.0439 26027.7 -03431.5 -07.5105 26252.9
 17 04 2013  06 20  -21.0440 26027.6 -03431.4 -07.5104 26252.9
 17 04 2013  06 21  -21.0441 26027.6 -03431.4 -07.5103 26252.8
 17 04 2013  06 22  -21.0441 26027.6 -03431.3 -07.5102 26252.9
 17 04 2013  06 23  -21.0443 26027.7 -03431.3 -07.5102 26252.9
 17 04 2013  06 24  -21.0443 26027.8 -03431.4 -07.5102 26253.0
 17 04 2013  06 25  -21.0444 26027.8 -03431.4 -07.5103 26253.1
 17 04 2013  06 26  -21.0444 26027.8 -03431.4 -07.5103 26253.0
 17 04 2013  06 27  -21.0445 26027.8 -03431.4 -07.5102 26253.0
 17 04 2013  06 28  -21.0447 26027.9 -03431.4 -07.5103 26253.1
 17 04 2013  06 29  -21.0448 26027.8 -03431.3 -07.5102 26253.0
 17 04 2013  06 30  -21.0448 26027.7 -03431.3 -07.5101 26252.9
 17 04 2013  06 31  -21.0449 26027.6 -03431.2 -07.5100 26252.8
 17 04 2013  06 32  -21.0449 26027.7 -03431.2 -07.5100 26252.9
 17 04 2013  06 33  -21.0449 26027.7 -03431.2 -07.5100 26252.9
 17 04 2013  06 34  -21.0449 26027.7 -03431.2 -07.5100 26252.9
 17 04 2013  06 35  -21.0450 26027.9 -03431.3 -07.5101 26253.1
 17 04 2013  06 36  -21.0453 26028.0 -03431.4 -07.5102 26253.2
 17 04 2013  06 37  -21.0453 26028.1 -03431.4 -07.5103 26253.3
 17 04 2013  06 38  -21.0453 26028.1 -03431.4 -07.5102 26253.4
 17 04 2013  06 39  -21.0452 26028.2 -03431.4 -07.5103 26253.4
 17 04 2013  06 40  -21.0452 26028.2 -03431.4 -07.5103 26253.4
 17 04 2013  06 41  -21.0450 26028.2 -03431.5 -07.5103 26253.5
 17 04 2013  06 42  -21.0448 26028.3 -03431.4 -07.5102 26253.5
 17 04 2013  06 43  -21.0445 26028.3 -03431.5 -07.5103 26253.5
 17 04 2013  06 44  -21.0442 26028.1 -03431.4 -07.5102 26253.4
 17 04 2013  06 45  -21.0438 26028.1 -03431.4 -07.5102 26253.4
 17 04 2013  06 46  -21.0438 26027.9 -03431.3 -07.5101 26253.1
 17 04 2013  06 47  -21.0438 26028.0 -03431.4 -07.5102 26253.2
 17 04 2013  06 48  -21.0440 26027.9 -03431.4 -07.5102 26253.1
 17 04 2013  06 49  -21.0439 26027.9 -03431.4 -07.5103 26253.1
 17 04 2013  06 50  -21.0439 26027.8 -03431.4 -07.5103 26253.0
 17 04 2013  06 51  -21.0439 26027.8 -03431.4 -07.5103 26253.1
 17 04 2013  06 52  -21.0437 26027.8 -03431.4 -07.5104 26253.0
 17 04 2013  06 53  -21.0437 26028.0 -03431.5 -07.5106 26253.2
 17 04 2013  06 54  -21.0438 26028.0 -03431.6 -07.5107 26253.3
 17 04 2013  06 55  -21.0440 26028.1 -03431.7 -07.5108 26253.4
 17 04 2013  06 56  -21.0442 26028.4 -03431.8 -07.5110 26253.7
 17 04 2013  06 57  -21.0444 26028.5 -03431.9 -07.5111 26253.8
 17 04 2013  06 58  -21.0442 26028.7 -03431.9 -07.5111 26253.9
 17 04 2013  06 59  -21.0441 26028.7 -03431.9 -07.5111 26254.0
 17 04 2013  07 00  -21.0440 26028.6 -03431.8 -07.5110 26253.9
 17 04 2013  07 01  -21.0440 26028.8 -03431.9 -07.5111 26254.0
 17 04 2013  07 02  -21.0440 26028.6 -03431.8 -07.5109 26253.9
 17 04 2013  07 03  -21.0437 26028.6 -03431.7 -07.5108 26253.8
 17 04 2013  07 04  -21.0436 26028.4 -03431.7 -07.5107 26253.7
 17 04 2013  07 05  -21.0437 26028.4 -03431.6 -07.5107 26253.7
 17 04 2013  07 06  -21.0440 26028.5 -03431.7 -07.5107 26253.8
 17 04 2013  07 07  -21.0439 26028.4 -03431.6 -07.5107 26253.6
 17 04 2013  07 08  -21.0437 26028.3 -03431.6 -07.5105 26253.5
 17 04 2013  07 09  -21.0438 26028.2 -03431.5 -07.5105 26253.5
 17 04 2013  07 10  -21.0439 26028.2 -03431.6 -07.5106 26253.5
 17 04 2013  07 11  -21.0441 26028.2 -03431.6 -07.5106 26253.4
 17 04 2013  07 12  -21.0442 26028.3 -03431.6 -07.5107 26253.5
 17 04 2013  07 13  -21.0441 26028.3 -03431.6 -07.5107 26253.5
 17 04 2013  07 14  -21.0440 26028.3 -03431.6 -07.5106 26253.5
 17 04 2013  07 15  -21.0438 26028.2 -03431.6 -07.5106 26253.4
 17 04 2013  07 16  -21.0436 26028.1 -03431.5 -07.5105 26253.3
 17 04 2013  07 17  -21.0436 26028.0 -03431.5 -07.5105 26253.3
 17 04 2013  07 18  -21.0433 26028.1 -03431.6 -07.5106 26253.3
 17 04 2013  07 19  -21.0431 26028.2 -03431.7 -07.5108 26253.5
 17 04 2013  07 20  -21.0430 26028.3 -03431.8 -07.5109 26253.6
 17 04 2013  07 21  -21.0427 26028.5 -03431.8 -07.5111 26253.8
 17 04 2013  07 22  -21.0424 26028.8 -03432.0 -07.5113 26254.0
 17 04 2013  07 23  -21.0422 26029.0 -03432.1 -07.5115 26254.3
 17 04 2013  07 24  -21.0421 26029.2 -03432.2 -07.5116 26254.5
 17 04 2013  07 25  -21.0419 26029.3 -03432.2 -07.5117 26254.6
 17 04 2013  07 26  -21.0418 26029.2 -03432.2 -07.5117 26254.5
 17 04 2013  07 27  -21.0417 26029.3 -03432.2 -07.5117 26254.6
 17 04 2013  07 28  -21.0415 26029.3 -03432.2 -07.5117 26254.6
 17 04 2013  07 29  -21.0414 26029.2 -03432.2 -07.5117 26254.6
 17 04 2013  07 30  -21.0413 26029.3 -03432.3 -07.5118 26254.6
 17 04 2013  07 31  -21.0415 26029.3 -03432.3 -07.5118 26254.7
 17 04 2013  07 32  -21.0416 26029.4 -03432.3 -07.5119 26254.7
 17 04 2013  07 33  -21.0417 26029.4 -03432.3 -07.5118 26254.7
 17 04 2013  07 34  -21.0417 26029.4 -03432.3 -07.5118 26254.7
 17 04 2013  07 35  -21.0415 26029.4 -03432.3 -07.5118 26254.7
 17 04 2013  07 36  -21.0413 26029.4 -03432.3 -07.5117 26254.7
 17 04 2013  07 37  -21.0412 26029.3 -03432.2 -07.5117 26254.6
 17 04 2013  07 38  -21.0411 26029.3 -03432.2 -07.5116 26254.6
 17 04 2013  07 39  -21.0409 26029.3 -03432.2 -07.5116 26254.6
 17 04 2013  07 40  -21.0408 26029.2 -03432.2 -07.5117 26254.6
 17 04 2013  07 41  -21.0409 26029.3 -03432.2 -07.5117 26254.6
 17 04 2013  07 42  -21.0408 26029.2 -03432.3 -07.5118 26254.6
 17 04 2013  07 43  -21.0410 26029.3 -03432.3 -07.5119 26254.6
 17 04 2013  07 44  -21.0411 26029.3 -03432.3 -07.5119 26254.6
 17 04 2013  07 45  -21.0411 26029.4 -03432.4 -07.5120 26254.7
 17 04 2013  07 46  -21.0411 26029.4 -03432.4 -07.5119 26254.7
 17 04 2013  07 47  -21.0412 26029.3 -03432.4 -07.5120 26254.7
 17 04 2013  07 48  -21.0411 26029.3 -03432.3 -07.5119 26254.7
 17 04 2013  07 49  -21.0410 26029.3 -03432.3 -07.5118 26254.6
 17 04 2013  07 50  -21.0409 26029.3 -03432.3 -07.5118 26254.6
 17 04 2013  07 51  -21.0408 26029.2 -03432.3 -07.5118 26254.6
 17 04 2013  07 52  -21.0408 26029.2 -03432.2 -07.5118 26254.5
 17 04 2013  07 53  -21.0409 26029.3 -03432.3 -07.5118 26254.6
 17 04 2013  07 54  -21.0409 26029.3 -03432.3 -07.5119 26254.6
 17 04 2013  07 55  -21.0410 26029.4 -03432.4 -07.5120 26254.7
 17 04 2013  07 56  -21.0411 26029.4 -03432.4 -07.5120 26254.7
 17 04 2013  07 57  -21.0411 26029.4 -03432.4 -07.5120 26254.8
 17 04 2013  07 58  -21.0412 26029.5 -03432.4 -07.5120 26254.8
 17 04 2013  07 59  -21.0412 26029.5 -03432.4 -07.5120 26254.8
 17 04 2013  08 00  -21.0413 26029.6 -03432.5 -07.5121 26254.9
 17 04 2013  08 01  -21.0414 26029.6 -03432.5 -07.5121 26254.9
 17 04 2013  08 02  -21.0413 26029.6 -03432.5 -07.5121 26255.0
 17 04 2013  08 03  -21.0412 26029.7 -03432.5 -07.5121 26255.0
 17 04 2013  08 04  -21.0410 26029.6 -03432.4 -07.5120 26255.0
 17 04 2013  08 05  -21.0409 26029.6 -03432.4 -07.5120 26254.9
 17 04 2013  08 06  -21.0409 26029.6 -03432.4 -07.5120 26254.9
 17 04 2013  08 07  -21.0409 26029.5 -03432.4 -07.5119 26254.9
 17 04 2013  08 08  -21.0409 26029.5 -03432.4 -07.5119 26254.8
 17 04 2013  08 09  -21.0410 26029.5 -03432.3 -07.5119 26254.8
 17 04 2013  08 10  -21.0409 26029.5 -03432.3 -07.5119 26254.8
 17 04 2013  08 11  -21.0410 26029.5 -03432.3 -07.5119 26254.8
 17 04 2013  08 12  -21.0411 26029.6 -03432.4 -07.5119 26254.9
 17 04 2013  08 13  -21.0411 26029.6 -03432.4 -07.5119 26254.9
 17 04 2013  08 14  -21.0411 26029.7 -03432.4 -07.5119 26255.0
 17 04 2013  08 15  -21.0411 26029.7 -03432.4 -07.5119 26255.0
 17 04 2013  08 16  -21.0411 26029.7 -03432.4 -07.5119 26255.0
 17 04 2013  08 17  -21.0413 26029.7 -03432.4 -07.5120 26255.1
 17 04 2013  08 18  -21.0413 26029.7 -03432.4 -07.5119 26255.0
 17 04 2013  08 19  -21.0413 26029.7 -03432.4 -07.5119 26255.1
 17 04 2013  08 20  -21.0413 26029.7 -03432.3 -07.5117 26255.0
 17 04 2013  08 21  -21.0413 26029.7 -03432.4 -07.5118 26255.0
 17 04 2013  08 22  -21.0412 26029.7 -03432.3 -07.5118 26255.0
 17 04 2013  08 23  -21.0410 26029.8 -03432.4 -07.5119 26255.2
 17 04 2013  08 24  -21.0410 26029.8 -03432.4 -07.5119 26255.1
 17 04 2013  08 25  -21.0411 26029.8 -03432.4 -07.5119 26255.1
 17 04 2013  08 26  -21.0411 26029.8 -03432.4 -07.5119 26255.1
 17 04 2013  08 27  -21.0412 26029.7 -03432.4 -07.5119 26255.0
 17 04 2013  08 28  -21.0411 26029.8 -03432.4 -07.5119 26255.1
 17 04 2013  08 29  -21.0411 26029.7 -03432.4 -07.5119 26255.1
 17 04 2013  08 30  -21.0410 26029.7 -03432.4 -07.5119 26255.0
 17 04 2013  08 31  -21.0411 26029.6 -03432.4 -07.5119 26255.0
 17 04 2013  08 32  -21.0410 26029.6 -03432.4 -07.5120 26254.9
 17 04 2013  08 33  -21.0410 26029.7 -03432.4 -07.5120 26255.0
 17 04 2013  08 34  -21.0409 26029.7 -03432.5 -07.5121 26255.1
 17 04 2013  08 35  -21.0408 26029.8 -03432.5 -07.5121 26255.1
 17 04 2013  08 36  -21.0408 26029.8 -03432.4 -07.5119 26255.1
 17 04 2013  08 37  -21.0409 26029.8 -03432.4 -07.5119 26255.1
 17 04 2013  08 38  -21.0409 26029.8 -03432.4 -07.5120 26255.2
 17 04 2013  08 39  -21.0407 26029.8 -03432.4 -07.5119 26255.1
 17 04 2013  08 40  -21.0405 26029.8 -03432.4 -07.5119 26255.1
 17 04 2013  08 41  -21.0404 26029.8 -03432.4 -07.5119 26255.1
 17 04 2013  08 42  -21.0404 26029.8 -03432.4 -07.5120 26255.1
 17 04 2013  08 43  -21.0405 26029.7 -03432.4 -07.5120 26255.1
 17 04 2013  08 44  -21.0405 26029.8 -03432.4 -07.5120 26255.1
 17 04 2013  08 45  -21.0406 26029.8 -03432.4 -07.5120 26255.1
 17 04 2013  08 46  -21.0405 26029.7 -03432.4 -07.5119 26255.0
 17 04 2013  08 47  -21.0405 26029.7 -03432.4 -07.5120 26255.0
 17 04 2013  08 48  -21.0403 26029.6 -03432.4 -07.5119 26254.9
 17 04 2013  08 49  -21.0403 26029.5 -03432.4 -07.5119 26254.8
 17 04 2013  08 50  -21.0403 26029.3 -03432.4 -07.5120 26254.6
 17 04 2013  08 51  -21.0402 26029.4 -03432.5 -07.5122 26254.8
 17 04 2013  08 52  -21.0402 26029.5 -03432.6 -07.5123 26254.8
 17 04 2013  08 53  -21.0403 26029.7 -03432.6 -07.5125 26255.0
 17 04 2013  08 54  -21.0402 26029.7 -03432.6 -07.5124 26255.1
 17 04 2013  08 55  -21.0401 26029.7 -03432.6 -07.5124 26255.0
 17 04 2013  08 56  -21.0401 26029.7 -03432.7 -07.5126 26255.1
 17 04 2013  08 57  -21.0401 26029.7 -03432.7 -07.5126 26255.1
 17 04 2013  08 58  -21.0397 26029.8 -03432.8 -07.5127 26255.1
 17 04 2013  08 59  -21.0394 26029.6 -03432.7 -07.5126 26255.0
 17 04 2013  09 00  -21.0394 26029.7 -03432.7 -07.5127 26255.1
 17 04 2013  09 01  -21.0392 26029.6 -03432.7 -07.5127 26255.0
 17 04 2013  09 02  -21.0390 26029.7 -03432.9 -07.5129 26255.0
 17 04 2013  09 03  -21.0389 26029.5 -03432.8 -07.5129 26254.9
 17 04 2013  09 04  -21.0387 26029.4 -03432.9 -07.5130 26254.8
 17 04 2013  09 05  -21.0389 26029.4 -03433.0 -07.5132 26254.8
 17 04 2013  09 06  -21.0385 26029.2 -03433.0 -07.5133 26254.7
 17 04 2013  09 07  -21.0383 26029.2 -03433.0 -07.5134 26254.6
 17 04 2013  09 08  -21.0382 26029.1 -03433.1 -07.5135 26254.6
 17 04 2013  09 09  -21.0382 26029.2 -03433.2 -07.5138 26254.6
 17 04 2013  09 10  -21.0381 26029.1 -03433.3 -07.5140 26254.6
 17 04 2013  09 11  -21.0382 26029.0 -03433.3 -07.5141 26254.5
 17 04 2013  09 12  -21.0380 26029.0 -03433.5 -07.5144 26254.5
 17 04 2013  09 13  -21.0379 26029.0 -03433.5 -07.5146 26254.5
 17 04 2013  09 14  -21.0380 26028.9 -03433.6 -07.5147 26254.4
 17 04 2013  09 15  -21.0379 26028.9 -03433.7 -07.5150 26254.5
 17 04 2013  09 16  -21.0379 26028.9 -03433.9 -07.5153 26254.4
 17 04 2013  09 17  -21.0383 26029.1 -03434.1 -07.5157 26254.6
 17 04 2013  09 18  -21.0380 26029.1 -03434.2 -07.5160 26254.7
 17 04 2013  09 19  -21.0382 26029.1 -03434.3 -07.5162 26254.6
 17 04 2013  09 20  -21.0384 26029.2 -03434.5 -07.5166 26254.8
 17 04 2013  09 21  -21.0388 26029.2 -03434.6 -07.5168 26254.8
 17 04 2013  09 22  -21.0391 26029.4 -03434.8 -07.5172 26255.0
 17 04 2013  09 23  -21.0393 26029.3 -03435.0 -07.5177 26255.0
 17 04 2013  09 24  -21.0394 26029.3 -03435.1 -07.5178 26255.0
 17 04 2013  09 25  -21.0397 26029.5 -03435.3 -07.5182 26255.2
 17 04 2013  09 26  -21.0397 26029.5 -03435.3 -07.5184 26255.2
 17 04 2013  09 27  -21.0400 26029.5 -03435.4 -07.5185 26255.2
 17 04 2013  09 28  -21.0402 26029.4 -03435.5 -07.5188 26255.2
 17 04 2013  09 29  -21.0400 26029.4 -03435.6 -07.5189 26255.1
 17 04 2013  09 30  -21.0398 26029.3 -03435.6 -07.5190 26255.1
 17 04 2013  09 31  -21.0396 26029.3 -03435.7 -07.5191 26255.0
 17 04 2013  09 32  -21.0396 26029.2 -03435.7 -07.5191 26255.0
 17 04 2013  09 33  -21.0399 26029.2 -03435.7 -07.5193 26255.0
 17 04 2013  09 34  -21.0402 26029.2 -03435.8 -07.5195 26254.9
 17 04 2013  09 35  -21.0406 26029.2 -03435.9 -07.5197 26255.0
 17 04 2013  09 36  -21.0410 26029.2 -03436.0 -07.5198 26255.0
 17 04 2013  09 37  -21.0414 26029.3 -03436.1 -07.5201 26255.1
 17 04 2013  09 38  -21.0418 26029.3 -03436.2 -07.5203 26255.2
 17 04 2013  09 39  -21.0423 26029.5 -03436.4 -07.5206 26255.4
 17 04 2013  09 40  -21.0426 26029.6 -03436.5 -07.5208 26255.5
 17 04 2013  09 41  -21.0430 26029.6 -03436.5 -07.5209 26255.5
 17 04 2013  09 42  -21.0434 26029.7 -03436.7 -07.5212 26255.6
 17 04 2013  09 43  -21.0435 26029.9 -03436.8 -07.5214 26255.8
 17 04 2013  09 44  -21.0437 26030.0 -03436.9 -07.5216 26255.9
 17 04 2013  09 45  -21.0439 26030.1 -03437.0 -07.5218 26256.1
 17 04 2013  09 46  -21.0444 26030.3 -03437.1 -07.5220 26256.2
 17 04 2013  09 47  -21.0450 26030.4 -03437.2 -07.5222 26256.3
 17 04 2013  09 48  -21.0454 26030.5 -03437.4 -07.5224 26256.5
 17 04 2013  09 49  -21.0460 26030.5 -03437.4 -07.5225 26256.5
 17 04 2013  09 50  -21.0463 26030.7 -03437.5 -07.5227 26256.7
 17 04 2013  09 51  -21.0465 26030.9 -03437.6 -07.5228 26256.9
 17 04 2013  09 52  -21.0471 26030.9 -03437.6 -07.5229 26256.9
 17 04 2013  09 53  -21.0476 26030.9 -03437.7 -07.5230 26256.9
 17 04 2013  09 54  -21.0481 26031.0 -03437.8 -07.5232 26257.0
 17 04 2013  09 55  -21.0481 26031.1 -03437.8 -07.5233 26257.1
 17 04 2013  09 56  -21.0483 26031.0 -03437.9 -07.5234 26257.1
 17 04 2013  09 57  -21.0489 26031.0 -03437.9 -07.5234 26257.1
 17 04 2013  09 58  -21.0493 26031.3 -03438.0 -07.5237 26257.4
 17 04 2013  09 59  -21.0494 26031.4 -03438.1 -07.5238 26257.5
 17 04 2013  10 00  -21.0498 26031.4 -03438.1 -07.5239 26257.5
 17 04 2013  10 01  -21.0500 26031.8 -03438.3 -07.5240 26257.9
 17 04 2013  10 02  -21.0507 26031.9 -03438.4 -07.5242 26258.0
 17 04 2013  10 03  -21.0514 26031.9 -03438.4 -07.5243 26258.0
 17 04 2013  10 04  -21.0520 26032.3 -03438.6 -07.5246 26258.4
 17 04 2013  10 05  -21.0528 26032.2 -03438.6 -07.5247 26258.3
 17 04 2013  10 06  -21.0531 26032.4 -03438.7 -07.5249 26258.5
 17 04 2013  10 07  -21.0535 26032.4 -03438.7 -07.5249 26258.5
 17 04 2013  10 08  -21.0543 26032.2 -03438.8 -07.5250 26258.4
 17 04 2013  10 09  -21.0547 26032.6 -03439.0 -07.5253 26258.7
 17 04 2013  10 10  -21.0548 26032.6 -03439.1 -07.5255 26258.8
 17 04 2013  10 11  -21.0549 26032.8 -03439.1 -07.5256 26259.0
 17 04 2013  10 12  -21.0554 26032.9 -03439.2 -07.5258 26259.1
 17 04 2013  10 13  -21.0562 26032.9 -03439.2 -07.5258 26259.1
 17 04 2013  10 14  -21.0569 26033.0 -03439.3 -07.5260 26259.2
 17 04 2013  10 15  -21.0572 26033.0 -03439.4 -07.5261 26259.3
 17 04 2013  10 16  -21.0574 26033.1 -03439.4 -07.5260 26259.3
 17 04 2013  10 17  -21.0581 26033.2 -03439.4 -07.5260 26259.4
 17 04 2013  10 18  -21.0588 26033.2 -03439.5 -07.5262 26259.5
 17 04 2013  10 19  -21.0589 26033.3 -03439.4 -07.5261 26259.5
 17 04 2013  10 20  -21.0592 26033.3 -03439.4 -07.5261 26259.5
 17 04 2013  10 21  -21.0599 26033.2 -03439.4 -07.5260 26259.5
 17 04 2013  10 22  -21.0607 26033.2 -03439.4 -07.5260 26259.4
 17 04 2013  10 23  -21.0616 26033.2 -03439.4 -07.5260 26259.4
 17 04 2013  10 24  -21.0623 26033.4 -03439.4 -07.5261 26259.6
 17 04 2013  10 25  -21.0629 26033.5 -03439.4 -07.5261 26259.7
 17 04 2013  10 26  -21.0636 26033.5 -03439.4 -07.5260 26259.7
 17 04 2013  10 27  -21.0640 26033.5 -03439.4 -07.5260 26259.7
 17 04 2013  10 28  -21.0640 26033.8 -03439.5 -07.5260 26260.0
 17 04 2013  10 29  -21.0647 26033.6 -03439.3 -07.5258 26259.8
 17 04 2013  10 30  -21.0657 26033.7 -03439.4 -07.5258 26259.9
 17 04 2013  10 31  -21.0657 26034.2 -03439.5 -07.5260 26260.5
 17 04 2013  10 32  -21.0665 26034.3 -03439.4 -07.5258 26260.5
 17 04 2013  10 33  -21.0666 26034.6 -03439.4 -07.5258 26260.8
 17 04 2013  10 34  -21.0670 26034.5 -03439.3 -07.5255 26260.7
 17 04 2013  10 35  -21.0672 26034.6 -03439.3 -07.5254 26260.8
 17 04 2013  10 36  -21.0682 26034.7 -03439.2 -07.5253 26260.8
 17 04 2013  10 37  -21.0692 26034.8 -03439.3 -07.5253 26261.0
 17 04 2013  10 38  -21.0699 26034.9 -03439.3 -07.5253 26261.1
 17 04 2013  10 39  -21.0708 26035.2 -03439.3 -07.5254 26261.4
 17 04 2013  10 40  -21.0713 26035.3 -03439.3 -07.5253 26261.5
 17 04 2013  10 41  -21.0717 26035.6 -03439.3 -07.5251 26261.7
 17 04 2013  10 42  -21.0719 26035.6 -03439.2 -07.5249 26261.8
 17 04 2013  10 43  -21.0720 26035.8 -03439.1 -07.5247 26261.9
 17 04 2013  10 44  -21.0726 26035.9 -03439.0 -07.5245 26262.0
 17 04 2013  10 45  -21.0734 26036.0 -03439.0 -07.5244 26262.1
 17 04 2013  10 46  -21.0738 26036.2 -03439.0 -07.5244 26262.4
 17 04 2013  10 47  -21.0739 26036.5 -03439.0 -07.5242 26262.7
 17 04 2013  10 48  -21.0746 26036.6 -03438.8 -07.5239 26262.7
 17 04 2013  10 49  -21.0749 26036.8 -03438.8 -07.5237 26262.9
 17 04 2013  10 50  -21.0753 26037.0 -03438.7 -07.5235 26263.1
 17 04 2013  10 51  -21.0760 26037.3 -03438.7 -07.5233 26263.3
 17 04 2013  10 52  -21.0762 26037.5 -03438.6 -07.5232 26263.6
 17 04 2013  10 53  -21.0764 26037.7 -03438.5 -07.5228 26263.8
 17 04 2013  10 54  -21.0770 26037.7 -03438.3 -07.5225 26263.8
 17 04 2013  10 55  -21.0774 26038.0 -03438.3 -07.5223 26264.1
 17 04 2013  10 56  -21.0779 26038.1 -03438.1 -07.5219 26264.1
 17 04 2013  10 57  -21.0783 26038.3 -03438.0 -07.5216 26264.3
 17 04 2013  10 58  -21.0787 26038.7 -03438.0 -07.5214 26264.6
 17 04 2013  10 59  -21.0790 26039.0 -03437.9 -07.5211 26265.0
 17 04 2013  11 00  -21.0792 26039.2 -03437.8 -07.5208 26265.2
 17 04 2013  11 01  -21.0793 26039.5 -03437.6 -07.5204 26265.5
 17 04 2013  11 02  -21.0792 26039.8 -03437.5 -07.5201 26265.7
 17 04 2013  11 03  -21.0791 26040.1 -03437.4 -07.5197 26266.0
 17 04 2013  11 04  -21.0793 26040.4 -03437.2 -07.5192 26266.2
 17 04 2013  11 05  -21.0796 26040.5 -03437.0 -07.5189 26266.3
 17 04 2013  11 06  -21.0798 26040.6 -03436.9 -07.5185 26266.4
 17 04 2013  11 07  -21.0800 26040.9 -03436.8 -07.5182 26266.7
 17 04 2013  11 08  -21.0800 26041.1 -03436.6 -07.5178 26266.9
 17 04 2013  11 09  -21.0800 26041.3 -03436.5 -07.5174 26267.1
 17 04 2013  11 10  -21.0800 26041.6 -03436.3 -07.5170 26267.3
 17 04 2013  11 11  -21.0801 26041.8 -03436.1 -07.5166 26267.5
 17 04 2013  11 12  -21.0800 26042.3 -03436.1 -07.5163 26268.0
 17 04 2013  11 13  -21.0799 26042.6 -03435.9 -07.5158 26268.3
 17 04 2013  11 14  -21.0797 26042.8 -03435.7 -07.5153 26268.5
 17 04 2013  11 15  -21.0796 26043.0 -03435.5 -07.5148 26268.6
 17 04 2013  11 16  -21.0795 26043.5 -03435.4 -07.5144 26269.1
 17 04 2013  11 17  -21.0796 26043.8 -03435.2 -07.5139 26269.4
 17 04 2013  11 18  -21.0796 26044.0 -03435.0 -07.5135 26269.6
 17 04 2013  11 19  -21.0795 26044.3 -03434.8 -07.5130 26269.8
 17 04 2013  11 20  -21.0793 26044.5 -03434.6 -07.5125 26269.9
 17 04 2013  11 21  -21.0792 26044.6 -03434.4 -07.5120 26270.0
 17 04 2013  11 22  -21.0791 26045.2 -03434.4 -07.5119 26270.6
 17 04 2013  11 23  -21.0790 26045.3 -03434.2 -07.5115 26270.8
 17 04 2013  11 24  -21.0789 26045.8 -03434.2 -07.5112 26271.2
 17 04 2013  11 25  -21.0786 26046.2 -03434.0 -07.5108 26271.6
 17 04 2013  11 26  -21.0780 26046.7 -03434.0 -07.5106 26272.1
 17 04 2013  11 27  -21.0774 26046.7 -03433.7 -07.5100 26272.1
 17 04 2013  11 28  -21.0772 26046.6 -03433.5 -07.5096 26272.0
 17 04 2013  11 29  -21.0769 26047.0 -03433.5 -07.5094 26272.3
 17 04 2013  11 30  -21.0768 26047.4 -03433.5 -07.5093 26272.7
 17 04 2013  11 31  -21.0766 26047.8 -03433.5 -07.5092 26273.2
 17 04 2013  11 32  -21.0798 26047.9 -03433.2 -07.5085 26273.2
 17 04 2013  11 33  -21.0804 26047.9 -03433.0 -07.5082 26273.2
 17 04 2013  11 34  -21.0803 26048.3 -03433.0 -07.5080 26273.6
 17 04 2013  11 35  -21.0803 26048.5 -03433.0 -07.5078 26273.8
 17 04 2013  11 36  -21.0804 26049.1 -03433.0 -07.5077 26274.3
 17 04 2013  11 37  -21.0806 26049.1 -03432.9 -07.5074 26274.4
 17 04 2013  11 38  -21.0810 26049.5 -03432.9 -07.5073 26274.8
 17 04 2013  11 39  -21.0812 26049.7 -03432.8 -07.5070 26274.9
 17 04 2013  11 40  -21.0813 26050.1 -03432.7 -07.5068 26275.3
 17 04 2013  11 41  -21.0816 26050.2 -03432.6 -07.5065 26275.3
 17 04 2013  11 42  -21.0818 26050.3 -03432.5 -07.5062 26275.5
 17 04 2013  11 43  -21.0820 26050.8 -03432.5 -07.5062 26276.0
 17 04 2013  11 44  -21.0819 26051.0 -03432.4 -07.5058 26276.1
 17 04 2013  11 45  -21.0804 26051.4 -03432.4 -07.5057 26276.5
 17 04 2013  11 46  -21.0778 26051.9 -03432.5 -07.5059 26277.1
 17 04 2013  11 47  -21.0778 26052.2 -03432.5 -07.5058 26277.4
 17 04 2013  11 48  -21.0778 26052.6 -03432.5 -07.5056 26277.8
 17 04 2013  11 49  -21.0777 26052.8 -03432.4 -07.5053 26278.0
 17 04 2013  11 50  -21.0777 26052.9 -03432.2 -07.5050 26278.0
 17 04 2013  11 51  -21.0776 26053.0 -03432.2 -07.5048 26278.1
 17 04 2013  11 52  -21.0777 26053.4 -03432.2 -07.5047 26278.5
 17 04 2013  11 53  -21.0777 26053.8 -03432.2 -07.5046 26278.9
 17 04 2013  11 54  -21.0778 26053.8 -03432.1 -07.5044 26278.9
 17 04 2013  11 55  -21.0780 26054.2 -03432.1 -07.5044 26279.3
 17 04 2013  11 56  -21.0780 26054.4 -03432.0 -07.5041 26279.4
 17 04 2013  11 57  -21.0781 26054.6 -03432.0 -07.5039 26279.7
 17 04 2013  11 58  -21.0780 26054.9 -03432.0 -07.5038 26280.0
 17 04 2013  11 59  -21.0780 26055.2 -03431.9 -07.5036 26280.3
 17 04 2013  12 00  -21.0779 26055.7 -03431.9 -07.5035 26280.7
 17 04 2013  12 01  -21.0778 26055.8 -03431.8 -07.5032 26280.8
 17 04 2013  12 02  -21.0782 26056.4 -03431.9 -07.5032 26281.4
 17 04 2013  12 03  -21.0780 26056.5 -03431.7 -07.5029 26281.5
 17 04 2013  12 04  -21.0783 26057.0 -03431.8 -07.5028 26282.0
 17 04 2013  12 05  -21.0778 26057.3 -03431.7 -07.5025 26282.3
 17 04 2013  12 06  -21.0779 26057.6 -03431.6 -07.5022 26282.6
 17 04 2013  12 07  -21.0776 26057.9 -03431.5 -07.5018 26282.9
 17 04 2013  12 08  -21.0775 26058.2 -03431.3 -07.5014 26283.1
 17 04 2013  12 09  -21.0771 26058.2 -03431.1 -07.5009 26283.1
 17 04 2013  12 10  -21.0769 26058.3 -03430.9 -07.5006 26283.2
 17 04 2013  12 11  -21.0766 26058.8 -03430.9 -07.5004 26283.7
 17 04 2013  12 12  -21.0765 26059.1 -03430.8 -07.5001 26283.9
 17 04 2013  12 13  -21.0761 26059.3 -03430.7 -07.4997 26284.1
 17 04 2013  12 14  -21.0760 26059.4 -03430.5 -07.4994 26284.2
 17 04 2013  12 15  -21.0756 26059.8 -03430.4 -07.4991 26284.6
 17 04 2013  12 16  -21.0756 26060.1 -03430.3 -07.4988 26284.9
 17 04 2013  12 17  -21.0752 26060.6 -03430.2 -07.4985 26285.3
 17 04 2013  12 18  -21.0749 26060.8 -03430.0 -07.4980 26285.5
 17 04 2013  12 19  -21.0744 26061.0 -03429.9 -07.4976 26285.7
 17 04 2013  12 20  -21.0740 26061.4 -03429.8 -07.4972 26286.1
 17 04 2013  12 21  -21.0735 26061.8 -03429.6 -07.4968 26286.5
 17 04 2013  12 22  -21.0732 26062.1 -03429.6 -07.4966 26286.7
 17 04 2013  12 23  -21.0728 26062.3 -03429.4 -07.4962 26287.0
 17 04 2013  12 24  -21.0722 26062.6 -03429.3 -07.4959 26287.3
 17 04 2013  12 25  -21.0717 26063.1 -03429.3 -07.4957 26287.8
 17 04 2013  12 26  -21.0711 26063.5 -03429.2 -07.4954 26288.1
 17 04 2013  12 27  -21.0707 26063.9 -03429.1 -07.4952 26288.5
 17 04 2013  12 28  -21.0703 26064.7 -03429.2 -07.4951 26289.3
 17 04 2013  12 29  -21.0699 26065.0 -03429.0 -07.4946 26289.6
 17 04 2013  12 30  -21.0693 26066.0 -03429.1 -07.4945 26290.6
 17 04 2013  12 31  -21.0685 26066.8 -03429.1 -07.4941 26291.4
 17 04 2013  12 32  -21.0675 26067.2 -03428.9 -07.4937 26291.8
 17 04 2013  12 33  -21.0667 26067.5 -03428.7 -07.4932 26292.0
 17 04 2013  12 34  -21.0659 26067.9 -03428.5 -07.4927 26292.4
 17 04 2013  12 35  -21.0653 26068.4 -03428.5 -07.4924 26292.9
 17 04 2013  12 36  -21.0651 26068.7 -03428.4 -07.4921 26293.2
 17 04 2013  12 37  -21.0647 26069.1 -03428.3 -07.4918 26293.6
 17 04 2013  12 38  -21.0647 26069.0 -03428.0 -07.4913 26293.4
 17 04 2013  12 39  -21.0647 26068.5 -03427.7 -07.4908 26292.9
 17 04 2013  12 40  -21.0648 26068.1 -03427.5 -07.4905 26292.4
 17 04 2013  12 41  -21.0648 26067.6 -03427.4 -07.4904 26292.0
 17 04 2013  12 42  -21.0647 26067.5 -03427.4 -07.4904 26291.8
 17 04 2013  12 43  -21.0643 26067.4 -03427.5 -07.4905 26291.8
 17 04 2013  12 44  -21.0635 26067.5 -03427.5 -07.4906 26291.9
 17 04 2013  12 45  -21.0629 26068.1 -03427.7 -07.4909 26292.5
 17 04 2013  12 46  -21.0623 26068.4 -03427.8 -07.4910 26292.8
 17 04 2013  12 47  -21.0618 26068.4 -03427.8 -07.4909 26292.8
 17 04 2013  12 48  -21.0615 26068.4 -03427.7 -07.4908 26292.8
 17 04 2013  12 49  -21.0609 26068.5 -03427.7 -07.4908 26292.9
 17 04 2013  12 50  -21.0605 26068.6 -03427.7 -07.4908 26293.0
 17 04 2013  12 51  -21.0600 26068.6 -03427.7 -07.4907 26293.0
 17 04 2013  12 52  -21.0596 26068.3 -03427.6 -07.4906 26292.7
 17 04 2013  12 53  -21.0592 26068.3 -03427.6 -07.4907 26292.7
 17 04 2013  12 54  -21.0588 26068.4 -03427.7 -07.4908 26292.8
 17 04 2013  12 55  -21.0584 26068.5 -03427.7 -07.4908 26292.9
 17 04 2013  12 56  -21.0581 26068.8 -03427.8 -07.4909 26293.2
 17 04 2013  12 57  -21.0578 26068.9 -03427.9 -07.4909 26293.3
 17 04 2013  12 58  -21.0575 26068.9 -03427.8 -07.4908 26293.3
 17 04 2013  12 59  -21.0573 26068.9 -03427.7 -07.4907 26293.2
 17 04 2013  13 00  -21.0570 26068.8 -03427.6 -07.4905 26293.2
 17 04 2013  13 01  -21.0565 26068.7 -03427.6 -07.4904 26293.1
 17 04 2013  13 02  -21.0563 26068.9 -03427.6 -07.4904 26293.3
 17 04 2013  13 03  -21.0558 26068.9 -03427.6 -07.4903 26293.3
 17 04 2013  13 04  -21.0555 26068.9 -03427.5 -07.4902 26293.2
 17 04 2013  13 05  -21.0551 26068.5 -03427.4 -07.4900 26292.9
 17 04 2013  13 06  -21.0549 26068.3 -03427.3 -07.4898 26292.6
 17 04 2013  13 07  -21.0546 26068.2 -03427.2 -07.4898 26292.5
 17 04 2013  13 08  -21.0541 26067.9 -03427.1 -07.4897 26292.2
 17 04 2013  13 09  -21.0536 26067.9 -03427.2 -07.4898 26292.3
 17 04 2013  13 10  -21.0532 26067.7 -03427.1 -07.4897 26292.0
 17 04 2013  13 11  -21.0529 26067.7 -03427.1 -07.4898 26292.0
 17 04 2013  13 12  -21.0528 26067.5 -03427.1 -07.4898 26291.8
 17 04 2013  13 13  -21.0526 26067.4 -03427.1 -07.4898 26291.7
 17 04 2013  13 14  -21.0524 26067.1 -03427.0 -07.4897 26291.4
 17 04 2013  13 15  -21.0523 26066.9 -03427.0 -07.4897 26291.2
 17 04 2013  13 16  -21.0520 26066.7 -03427.0 -07.4897 26291.0
 17 04 2013  13 17  -21.0518 26066.6 -03427.0 -07.4898 26290.9
 17 04 2013  13 18  -21.0517 26066.7 -03427.1 -07.4899 26291.0
 17 04 2013  13 19  -21.0516 26066.6 -03427.1 -07.4899 26290.9
 17 04 2013  13 20  -21.0513 26066.5 -03427.1 -07.4899 26290.8
 17 04 2013  13 21  -21.0512 26066.5 -03427.1 -07.4899 26290.8
 17 04 2013  13 22  -21.0509 26066.5 -03427.1 -07.4899 26290.8
 17 04 2013  13 23  -21.0506 26066.5 -03427.1 -07.4900 26290.9
 17 04 2013  13 24  -21.0505 26066.6 -03427.1 -07.4900 26290.9
 17 04 2013  13 25  -21.0502 26066.7 -03427.1 -07.4900 26291.0
 17 04 2013  13 26  -21.0501 26066.9 -03427.2 -07.4901 26291.3
 17 04 2013  13 27  -21.0500 26066.9 -03427.2 -07.4900 26291.2
 17 04 2013  13 28  -21.0498 26066.8 -03427.1 -07.4898 26291.1
 17 04 2013  13 29  -21.0497 26066.5 -03427.0 -07.4897 26290.8
 17 04 2013  13 30  -21.0495 26066.2 -03426.9 -07.4896 26290.5
 17 04 2013  13 31  -21.0491 26066.0 -03426.8 -07.4896 26290.3
 17 04 2013  13 32  -21.0489 26066.0 -03426.9 -07.4896 26290.2
 17 04 2013  13 33  -21.0485 26066.0 -03427.0 -07.4898 26290.3
 17 04 2013  13 34  -21.0481 26066.0 -03427.0 -07.4899 26290.3
 17 04 2013  13 35  -21.0478 26065.8 -03427.0 -07.4900 26290.1
 17 04 2013  13 36  -21.0475 26065.7 -03427.0 -07.4900 26290.0
 17 04 2013  13 37  -21.0473 26065.7 -03427.1 -07.4902 26290.0
 17 04 2013  13 38  -21.0470 26065.5 -03427.1 -07.4902 26289.8
 17 04 2013  13 39  -21.0467 26065.5 -03427.2 -07.4904 26289.9
 17 04 2013  13 40  -21.0464 26065.6 -03427.3 -07.4907 26290.0
 17 04 2013  13 41  -21.0462 26065.6 -03427.4 -07.4908 26290.0
 17 04 2013  13 42  -21.0461 26065.8 -03427.5 -07.4911 26290.1
 17 04 2013  13 43  -21.0459 26065.7 -03427.5 -07.4912 26290.1
 17 04 2013  13 44  -21.0457 26066.0 -03427.7 -07.4915 26290.5
 17 04 2013  13 45  -21.0454 26065.9 -03427.7 -07.4914 26290.4
 17 04 2013  13 46  -21.0449 26065.8 -03427.7 -07.4914 26290.2
 17 04 2013  13 47  -21.0447 26065.6 -03427.7 -07.4916 26290.0
 17 04 2013  13 48  -21.0441 26065.7 -03427.9 -07.4919 26290.1
 17 04 2013  13 49  -21.0435 26065.8 -03428.0 -07.4921 26290.3
 17 04 2013  13 50  -21.0433 26065.8 -03428.0 -07.4921 26290.2
 17 04 2013  13 51  -21.0431 26065.9 -03428.1 -07.4924 26290.4
 17 04 2013  13 52  -21.0428 26066.0 -03428.2 -07.4926 26290.4
 17 04 2013  13 53  -21.0426 26066.1 -03428.4 -07.4929 26290.6
 17 04 2013  13 54  -21.0424 26066.1 -03428.4 -07.4930 26290.6
 17 04 2013  13 55  -21.0422 26066.0 -03428.5 -07.4931 26290.5
 17 04 2013  13 56  -21.0421 26066.0 -03428.5 -07.4932 26290.5
 17 04 2013  13 57  -21.0420 26066.0 -03428.6 -07.4934 26290.5
 17 04 2013  13 58  -21.0417 26066.1 -03428.8 -07.4938 26290.7
 17 04 2013  13 59  -21.0418 26066.3 -03428.9 -07.4940 26290.9
 17 04 2013  14 00  -21.0416 26066.3 -03429.0 -07.4942 26290.9
 17 04 2013  14 01  -21.0413 26066.2 -03429.1 -07.4944 26290.8
 17 04 2013  14 02  -21.0409 26066.0 -03429.1 -07.4945 26290.6
 17 04 2013  14 03  -21.0405 26065.9 -03429.2 -07.4947 26290.5
 17 04 2013  14 04  -21.0402 26065.7 -03429.3 -07.4951 26290.3
 17 04 2013  14 05  -21.0400 26065.5 -03429.5 -07.4954 26290.2
 17 04 2013  14 06  -21.0397 26065.4 -03429.6 -07.4957 26290.0
 17 04 2013  14 07  -21.0396 26065.3 -03429.8 -07.4962 26290.0
 17 04 2013  14 08  -21.0394 26065.1 -03430.0 -07.4966 26289.8
 17 04 2013  14 09  -21.0395 26064.5 -03430.0 -07.4968 26289.2
 17 04 2013  14 10  -21.0398 26064.8 -03430.4 -07.4976 26289.6
 17 04 2013  14 11  -21.0400 26064.4 -03430.5 -07.4978 26289.2
 17 04 2013  14 12  -21.0400 26064.4 -03430.7 -07.4983 26289.2
 17 04 2013  14 13  -21.0400 26064.4 -03430.9 -07.4988 26289.2
 17 04 2013  14 14  -21.0402 26064.5 -03431.1 -07.4993 26289.3
 17 04 2013  14 15  -21.0405 26064.4 -03431.3 -07.4998 26289.3
 17 04 2013  14 16  -21.0407 26064.3 -03431.5 -07.5001 26289.2
 17 04 2013  14 17  -21.0407 26064.6 -03431.8 -07.5007 26289.5
 17 04 2013  14 18  -21.0409 26064.8 -03432.0 -07.5011 26289.8
 17 04 2013  14 19  -21.0411 26065.0 -03432.2 -07.5015 26290.0
 17 04 2013  14 20  -21.0415 26064.9 -03432.3 -07.5016 26289.9
 17 04 2013  14 21  -21.0417 26065.1 -03432.5 -07.5020 26290.1
 17 04 2013  14 22  -21.0420 26065.0 -03432.6 -07.5023 26290.1
 17 04 2013  14 23  -21.0424 26065.1 -03432.7 -07.5025 26290.2
 17 04 2013  14 24  -21.0429 26065.4 -03432.9 -07.5029 26290.5
 17 04 2013  14 25  -21.0433 26065.5 -03433.0 -07.5031 26290.7
 17 04 2013  14 26  -21.0439 26065.6 -03433.1 -07.5033 26290.7
 17 04 2013  14 27  -21.0445 26065.9 -03433.3 -07.5036 26291.1
 17 04 2013  14 28  -21.0448 26065.8 -03433.3 -07.5035 26290.9
 17 04 2013  14 29  -21.0449 26065.5 -03433.1 -07.5034 26290.6
 17 04 2013  14 30  -21.0452 26065.3 -03433.2 -07.5036 26290.5
 17 04 2013  14 31  -21.0456 26065.3 -03433.3 -07.5038 26290.4
 17 04 2013  14 32  -21.0458 26065.2 -03433.4 -07.5041 26290.4
 17 04 2013  14 33  -21.0461 26065.3 -03433.6 -07.5043 26290.4
 17 04 2013  14 34  -21.0466 26065.2 -03433.6 -07.5045 26290.4
 17 04 2013  14 35  -21.0467 26064.8 -03433.5 -07.5043 26289.9
 17 04 2013  14 36  -21.0469 26064.7 -03433.7 -07.5047 26289.9
 17 04 2013  14 37  -21.0476 26064.9 -03433.9 -07.5051 26290.2
 17 04 2013  14 38  -21.0478 26064.8 -03433.9 -07.5051 26290.0
 17 04 2013  14 39  -21.0477 26064.6 -03433.8 -07.5051 26289.8
 17 04 2013  14 40  -21.0482 26064.4 -03434.0 -07.5054 26289.7
 17 04 2013  14 41  -21.0486 26064.2 -03434.0 -07.5056 26289.5
 17 04 2013  14 42  -21.0489 26063.9 -03434.0 -07.5056 26289.2
 17 04 2013  14 43  -21.0492 26063.7 -03434.0 -07.5058 26288.9
 17 04 2013  14 44  -21.0496 26063.4 -03434.1 -07.5060 26288.7
 17 04 2013  14 45  -21.0497 26063.2 -03434.1 -07.5061 26288.5
 17 04 2013  14 46  -21.0501 26063.0 -03434.3 -07.5065 26288.3
 17 04 2013  14 47  -21.0503 26062.7 -03434.3 -07.5067 26288.0
 17 04 2013  14 48  -21.0507 26062.5 -03434.4 -07.5069 26287.8
 17 04 2013  14 49  -21.0509 26062.2 -03434.4 -07.5071 26287.5
 17 04 2013  14 50  -21.0513 26062.4 -03434.7 -07.5075 26287.7
 17 04 2013  14 51  -21.0515 26062.1 -03434.7 -07.5076 26287.4
 17 04 2013  14 52  -21.0515 26061.7 -03434.7 -07.5077 26287.1
 17 04 2013  14 53  -21.0517 26061.9 -03434.9 -07.5081 26287.2
 17 04 2013  14 54  -21.0521 26061.6 -03434.9 -07.5082 26287.0
 17 04 2013  14 55  -21.0522 26061.8 -03435.0 -07.5085 26287.2
 17 04 2013  14 56  -21.0527 26061.8 -03435.2 -07.5088 26287.2
 17 04 2013  14 57  -21.0530 26061.7 -03435.2 -07.5089 26287.1
 17 04 2013  14 58  -21.0537 26062.1 -03435.4 -07.5092 26287.6
 17 04 2013  14 59  -21.0544 26062.2 -03435.5 -07.5093 26287.7
 17 04 2013  15 00  -21.0546 26061.7 -03435.2 -07.5089 26287.2
 17 04 2013  15 01  -21.0548 26061.2 -03435.0 -07.5087 26286.6
 17 04 2013  15 02  -21.0551 26060.3 -03434.8 -07.5084 26285.6
 17 04 2013  15 03  -21.0552 26059.8 -03434.8 -07.5086 26285.2
 17 04 2013  15 04  -21.0557 26059.8 -03435.1 -07.5091 26285.3
 17 04 2013  15 05  -21.0558 26059.6 -03435.1 -07.5092 26285.0
 17 04 2013  15 06  -21.0556 26059.0 -03435.0 -07.5092 26284.4
 17 04 2013  15 07  -21.0561 26058.9 -03435.1 -07.5096 26284.3
 17 04 2013  15 08  -21.0565 26058.7 -03435.2 -07.5097 26284.2
 17 04 2013  15 09  -21.0569 26058.8 -03435.3 -07.5099 26284.3
 17 04 2013  15 10  -21.0575 26059.0 -03435.5 -07.5102 26284.5
 17 04 2013  15 11  -21.0579 26058.6 -03435.3 -07.5100 26284.1
 17 04 2013  15 12  -21.0582 26058.5 -03435.3 -07.5100 26284.0
 17 04 2013  15 13  -21.0581 26058.3 -03435.2 -07.5099 26283.8
 17 04 2013  15 14  -21.0583 26058.4 -03435.3 -07.5101 26283.8
 17 04 2013  15 15  -21.0584 26058.1 -03435.2 -07.5099 26283.5
 17 04 2013  15 16  -21.0583 26057.9 -03435.1 -07.5098 26283.3
 17 04 2013  15 17  -21.0588 26058.1 -03435.3 -07.5101 26283.6
 17 04 2013  15 18  -21.0593 26057.9 -03435.2 -07.5099 26283.3
 17 04 2013  15 19  -21.0593 26057.9 -03435.1 -07.5097 26283.3
 17 04 2013  15 20  -21.0597 26057.8 -03435.1 -07.5097 26283.2
 17 04 2013  15 21  -21.0600 26057.4 -03434.9 -07.5095 26282.8
 17 04 2013  15 22  -21.0600 26057.3 -03434.8 -07.5093 26282.8
 17 04 2013  15 23  -21.0607 26057.9 -03435.0 -07.5096 26283.3
 17 04 2013  15 24  -21.0608 26057.6 -03434.8 -07.5092 26283.0
 17 04 2013  15 25  -21.0605 26057.0 -03434.5 -07.5086 26282.3
 17 04 2013  15 26  -21.0605 26056.9 -03434.4 -07.5085 26282.3
 17 04 2013  15 27  -21.0605 26056.9 -03434.4 -07.5086 26282.3
 17 04 2013  15 28  -21.0607 26057.0 -03434.4 -07.5086 26282.4
 17 04 2013  15 29  -21.0607 26056.9 -03434.4 -07.5084 26282.2
 17 04 2013  15 30  -21.0610 26056.8 -03434.3 -07.5084 26282.2
 17 04 2013  15 31  -21.0610 26056.8 -03434.3 -07.5083 26282.1
 17 04 2013  15 32  -21.0611 26056.7 -03434.2 -07.5082 26282.0
 17 04 2013  15 33  -21.0614 26056.9 -03434.3 -07.5083 26282.2
 17 04 2013  15 34  -21.0617 26056.6 -03434.1 -07.5080 26281.9
 17 04 2013  15 35  -21.0618 26056.5 -03434.0 -07.5077 26281.8
 17 04 2013  15 36  -21.0625 26056.3 -03433.9 -07.5075 26281.6
 17 04 2013  15 37  -21.0625 26056.0 -03433.7 -07.5072 26281.3
 17 04 2013  15 38  -21.0626 26056.0 -03433.6 -07.5071 26281.2
 17 04 2013  15 39  -21.0628 26055.5 -03433.4 -07.5067 26280.7
 17 04 2013  15 40  -21.0628 26055.4 -03433.3 -07.5066 26280.6
 17 04 2013  15 41  -21.0629 26055.0 -03433.2 -07.5064 26280.2
 17 04 2013  15 42  -21.0627 26054.5 -03432.9 -07.5060 26279.6
 17 04 2013  15 43  -21.0629 26054.4 -03433.0 -07.5062 26279.6
 17 04 2013  15 44  -21.0635 26054.6 -03433.1 -07.5063 26279.8
 17 04 2013  15 45  -21.0637 26054.3 -03432.9 -07.5060 26279.5
 17 04 2013  15 46  -21.0637 26054.4 -03432.9 -07.5059 26279.6
 17 04 2013  15 47  -21.0644 26054.4 -03432.9 -07.5059 26279.6
 17 04 2013  15 48  -21.0646 26054.4 -03432.8 -07.5057 26279.6
 17 04 2013  15 49  -21.0649 26054.5 -03432.8 -07.5057 26279.6
 17 04 2013  15 50  -21.0654 26054.4 -03432.6 -07.5054 26279.6
 17 04 2013  15 51  -21.0661 26054.6 -03432.6 -07.5053 26279.8
 17 04 2013  15 52  -21.0663 26054.0 -03432.2 -07.5047 26279.1
 17 04 2013  15 53  -21.0665 26053.8 -03432.1 -07.5044 26278.9
 17 04 2013  15 54  -21.0666 26053.4 -03431.9 -07.5041 26278.4
 17 04 2013  15 55  -21.0669 26053.5 -03431.9 -07.5041 26278.5
 17 04 2013  15 56  -21.0678 26053.8 -03432.0 -07.5042 26278.8
 17 04 2013  15 57  -21.0682 26053.6 -03431.8 -07.5038 26278.7
 17 04 2013  15 58  -21.0685 26053.5 -03431.5 -07.5033 26278.5
 17 04 2013  15 59  -21.0689 26053.9 -03431.6 -07.5032 26278.9
 17 04 2013  16 00  -21.0692 26053.7 -03431.3 -07.5027 26278.7
 17 04 2013  16 01  -21.0696 26053.8 -03431.2 -07.5024 26278.7
 17 04 2013  16 02  -21.0700 26053.8 -03431.0 -07.5020 26278.7
 17 04 2013  16 03  -21.0700 26053.5 -03430.7 -07.5014 26278.4
 17 04 2013  16 04  -21.0704 26053.7 -03430.6 -07.5012 26278.6
 17 04 2013  16 05  -21.0708 26053.7 -03430.4 -07.5008 26278.6
 17 04 2013  16 06  -21.0711 26054.1 -03430.3 -07.5005 26279.0
 17 04 2013  16 07  -21.0714 26054.1 -03430.1 -07.4999 26278.9
 17 04 2013  16 08  -21.0716 26054.0 -03429.7 -07.4991 26278.7
 17 04 2013  16 09  -21.0715 26054.0 -03429.4 -07.4986 26278.7
 17 04 2013  16 10  -21.0714 26054.1 -03429.2 -07.4981 26278.8
 17 04 2013  16 11  -21.0717 26054.3 -03429.1 -07.4977 26279.0
 17 04 2013  16 12  -21.0717 26054.5 -03428.8 -07.4972 26279.2
 17 04 2013  16 13  -21.0717 26054.7 -03428.6 -07.4966 26279.3
 17 04 2013  16 14  -21.0713 26054.4 -03428.1 -07.4956 26279.0
 17 04 2013  16 15  -21.0709 26054.0 -03427.7 -07.4948 26278.5
 17 04 2013  16 16  -21.0703 26053.8 -03427.2 -07.4939 26278.2
 17 04 2013  16 17  -21.0697 26053.5 -03426.9 -07.4933 26278.0
 17 04 2013  16 18  -21.0694 26053.8 -03426.8 -07.4931 26278.2
 17 04 2013  16 19  -21.0690 26054.1 -03426.7 -07.4927 26278.4
 17 04 2013  16 20  -21.0689 26054.5 -03426.7 -07.4925 26278.9
 17 04 2013  16 21  -21.0682 26054.7 -03426.5 -07.4921 26279.0
 17 04 2013  16 22  -21.0671 26054.6 -03426.2 -07.4914 26278.9
 17 04 2013  16 23  -21.0664 26054.7 -03426.1 -07.4911 26279.0
 17 04 2013  16 24  -21.0654 26054.9 -03426.0 -07.4909 26279.2
 17 04 2013  16 25  -21.0645 26055.6 -03426.1 -07.4909 26279.9
 17 04 2013  16 26  -21.0639 26056.5 -03426.3 -07.4911 26280.8
 17 04 2013  16 27  -21.0635 26057.1 -03426.3 -07.4909 26281.4
 17 04 2013  16 28  -21.0630 26057.6 -03426.2 -07.4905 26281.9
 17 04 2013  16 29  -21.0628 26057.9 -03426.0 -07.4901 26282.1
 17 04 2013  16 30  -21.0620 26057.9 -03425.7 -07.4894 26282.1
 17 04 2013  16 31  -21.0615 26057.9 -03425.4 -07.4888 26282.1
 17 04 2013  16 32  -21.0608 26057.8 -03425.1 -07.4881 26281.9
 17 04 2013  16 33  -21.0598 26057.5 -03424.8 -07.4875 26281.6
 17 04 2013  16 34  -21.0589 26057.4 -03424.6 -07.4872 26281.5
 17 04 2013  16 35  -21.0582 26057.2 -03424.4 -07.4869 26281.2
 17 04 2013  16 36  -21.0576 26056.9 -03424.3 -07.4866 26280.9
 17 04 2013  16 37  -21.0570 26056.6 -03424.1 -07.4864 26280.7
 17 04 2013  16 38  -21.0563 26056.5 -03424.1 -07.4863 26280.5
 17 04 2013  16 39  -21.0559 26056.6 -03424.1 -07.4863 26280.6
 17 04 2013  16 40  -21.0554 26056.7 -03424.1 -07.4863 26280.7
 17 04 2013  16 41  -21.0548 26056.7 -03424.0 -07.4860 26280.7
 17 04 2013  16 42  -21.0542 26056.6 -03423.9 -07.4858 26280.6
 17 04 2013  16 43  -21.0534 26056.4 -03423.8 -07.4856 26280.4
 17 04 2013  16 44  -21.0527 26056.4 -03423.7 -07.4855 26280.3
 17 04 2013  16 45  -21.0522 26056.4 -03423.6 -07.4854 26280.4
 17 04 2013  16 46  -21.0518 26056.5 -03423.6 -07.4853 26280.4
 17 04 2013  16 47  -21.0512 26056.4 -03423.5 -07.4851 26280.4
 17 04 2013  16 48  -21.0504 26056.1 -03423.3 -07.4848 26280.0
 17 04 2013  16 49  -21.0496 26055.9 -03423.2 -07.4845 26279.8
 17 04 2013  16 50  -21.0490 26055.7 -03423.1 -07.4845 26279.6
 17 04 2013  16 51  -21.0484 26055.4 -03423.0 -07.4843 26279.3
 17 04 2013  16 52  -21.0478 26055.2 -03423.0 -07.4843 26279.1
 17 04 2013  16 53  -21.0472 26055.1 -03422.9 -07.4842 26278.9
 17 04 2013  16 54  -21.0466 26054.9 -03422.9 -07.4842 26278.7
 17 04 2013  16 55  -21.0461 26054.7 -03422.9 -07.4843 26278.6
 17 04 2013  16 56  -21.0457 26054.6 -03422.9 -07.4844 26278.5
 17 04 2013  16 57  -21.0452 26054.7 -03423.0 -07.4845 26278.6
 17 04 2013  16 58  -21.0448 26054.7 -03422.9 -07.4844 26278.5
 17 04 2013  16 59  -21.0443 26054.6 -03423.0 -07.4844 26278.5
 17 04 2013  17 00  -21.0439 26054.7 -03423.0 -07.4844 26278.6
 17 04 2013  17 01  -21.0436 26054.7 -03422.9 -07.4844 26278.6
 17 04 2013  17 02  -21.0431 26054.8 -03422.9 -07.4843 26278.7
 17 04 2013  17 03  -21.0427 26054.8 -03422.9 -07.4842 26278.6
 17 04 2013  17 04  -21.0422 26054.7 -03422.7 -07.4840 26278.5
 17 04 2013  17 05  -21.0416 26054.5 -03422.6 -07.4837 26278.3
 17 04 2013  17 06  -21.0409 26054.3 -03422.5 -07.4835 26278.1
 17 04 2013  17 07  -21.0401 26054.0 -03422.4 -07.4834 26277.9
 17 04 2013  17 08  -21.0394 26053.9 -03422.3 -07.4832 26277.7
 17 04 2013  17 09  -21.0387 26053.7 -03422.3 -07.4832 26277.5
 17 04 2013  17 10  -21.0381 26053.7 -03422.3 -07.4832 26277.5
 17 04 2013  17 11  -21.0375 26053.7 -03422.2 -07.4830 26277.4
 17 04 2013  17 12  -21.0370 26053.6 -03422.1 -07.4829 26277.4
 17 04 2013  17 13  -21.0363 26053.5 -03422.0 -07.4827 26277.3
 17 04 2013  17 14  -21.0355 26053.3 -03421.9 -07.4825 26277.1
 17 04 2013  17 15  -21.0347 26053.2 -03421.9 -07.4825 26277.0
 17 04 2013  17 16  -21.0341 26053.2 -03421.9 -07.4826 26277.0
 17 04 2013  17 17  -21.0335 26053.3 -03422.0 -07.4827 26277.0
 17 04 2013  17 18  -21.0331 26053.3 -03422.0 -07.4827 26277.0
 17 04 2013  17 19  -21.0326 26053.3 -03422.0 -07.4826 26277.1
 17 04 2013  17 20  -21.0321 26053.3 -03421.9 -07.4826 26277.1
 17 04 2013  17 21  -21.0316 26053.2 -03421.9 -07.4825 26277.0
 17 04 2013  17 22  -21.0311 26053.1 -03421.9 -07.4825 26276.9
 17 04 2013  17 23  -21.0307 26053.0 -03421.8 -07.4825 26276.8
 17 04 2013  17 24  -21.0301 26053.0 -03421.9 -07.4825 26276.7
 17 04 2013  17 25  -21.0296 26052.9 -03421.8 -07.4825 26276.7
 17 04 2013  17 26  -21.0291 26052.9 -03421.8 -07.4825 26276.6
 17 04 2013  17 27  -21.0288 26052.8 -03421.8 -07.4824 26276.6
 17 04 2013  17 28  -21.0284 26052.8 -03421.8 -07.4824 26276.5
 17 04 2013  17 29  -21.0281 26052.7 -03421.7 -07.4823 26276.4
 17 04 2013  17 30  -21.0275 26052.5 -03421.6 -07.4821 26276.2
 17 04 2013  17 31  -21.0270 26052.4 -03421.6 -07.4820 26276.1
 17 04 2013  17 32  -21.0267 26052.3 -03421.5 -07.4820 26276.0
 17 04 2013  17 33  -21.0262 26052.2 -03421.5 -07.4819 26275.9
 17 04 2013  17 34  -21.0258 26052.1 -03421.5 -07.4820 26275.8
 17 04 2013  17 35  -21.0253 26051.9 -03421.4 -07.4818 26275.6
 17 04 2013  17 36  -21.0249 26051.6 -03421.4 -07.4819 26275.3
 17 04 2013  17 37  -21.0244 26051.5 -03421.4 -07.4819 26275.2
 17 04 2013  17 38  -21.0240 26051.3 -03421.4 -07.4820 26275.0
 17 04 2013  17 39  -21.0235 26051.2 -03421.4 -07.4821 26274.9
 17 04 2013  17 40  -21.0230 26051.1 -03421.5 -07.4823 26274.8
 17 04 2013  17 41  -21.0225 26051.1 -03421.6 -07.4825 26274.8
 17 04 2013  17 42  -21.0222 26051.0 -03421.7 -07.4827 26274.8
 17 04 2013  17 43  -21.0219 26050.9 -03421.7 -07.4828 26274.7
 17 04 2013  17 44  -21.0215 26050.8 -03421.7 -07.4829 26274.6
 17 04 2013  17 45  -21.0212 26050.7 -03421.8 -07.4831 26274.4
 17 04 2013  17 46  -21.0208 26050.5 -03421.9 -07.4833 26274.3
 17 04 2013  17 47  -21.0202 26050.3 -03421.9 -07.4834 26274.1
 17 04 2013  17 48  -21.0196 26050.1 -03422.0 -07.4836 26273.9
 17 04 2013  17 49  -21.0192 26050.0 -03422.2 -07.4840 26273.9
 17 04 2013  17 50  -21.0189 26050.1 -03422.3 -07.4843 26273.9
 17 04 2013  17 51  -21.0187 26050.1 -03422.5 -07.4847 26274.0
 17 04 2013  17 52  -21.0185 26050.1 -03422.6 -07.4850 26274.0
 17 04 2013  17 53  -21.0183 26049.9 -03422.7 -07.4852 26273.8
 17 04 2013  17 54  -21.0183 26049.8 -03422.7 -07.4853 26273.7
 17 04 2013  17 55  -21.0181 26049.6 -03422.8 -07.4854 26273.5
 17 04 2013  17 56  -21.0180 26049.3 -03422.8 -07.4856 26273.2
 17 04 2013  17 57  -21.0178 26049.2 -03422.9 -07.4858 26273.1
 17 04 2013  17 58  -21.0178 26049.1 -03423.0 -07.4861 26273.0
 17 04 2013  17 59  -21.0178 26049.1 -03423.1 -07.4864 26273.0
 17 04 2013  18 00  -21.0177 26049.0 -03423.2 -07.4866 26273.0
 17 04 2013  18 01  -21.0178 26049.0 -03423.3 -07.4868 26273.0
 17 04 2013  18 02  -21.0178 26049.0 -03423.4 -07.4870 26273.0
 17 04 2013  18 03  -21.0180 26049.0 -03423.5 -07.4872 26273.0
 17 04 2013  18 04  -21.0181 26049.0 -03423.6 -07.4873 26273.0
 17 04 2013  18 05  -21.0181 26048.8 -03423.6 -07.4873 26272.9
 17 04 2013  18 06  -21.0181 26048.8 -03423.6 -07.4875 26272.8
 17 04 2013  18 07  -21.0180 26048.6 -03423.6 -07.4875 26272.6
 17 04 2013  18 08  -21.0178 26048.4 -03423.6 -07.4876 26272.4
 17 04 2013  18 09  -21.0179 26048.3 -03423.7 -07.4878 26272.4
 17 04 2013  18 10  -21.0178 26048.1 -03423.7 -07.4879 26272.2
 17 04 2013  18 11  -21.0178 26048.0 -03423.7 -07.4880 26272.0
 17 04 2013  18 12  -21.0178 26047.8 -03423.7 -07.4880 26271.9
 17 04 2013  18 13  -21.0177 26047.6 -03423.8 -07.4881 26271.7
 17 04 2013  18 14  -21.0177 26047.5 -03423.8 -07.4883 26271.6
 17 04 2013  18 15  -21.0176 26047.3 -03423.8 -07.4884 26271.4
 17 04 2013  18 16  -21.0176 26047.2 -03423.9 -07.4886 26271.3
 17 04 2013  18 17  -21.0177 26047.1 -03424.0 -07.4888 26271.1
 17 04 2013  18 18  -21.0177 26046.9 -03424.0 -07.4889 26271.0
 17 04 2013  18 19  -21.0177 26046.6 -03424.0 -07.4889 26270.7
 17 04 2013  18 20  -21.0176 26046.3 -03423.9 -07.4889 26270.4
 17 04 2013  18 21  -21.0177 26046.2 -03424.0 -07.4890 26270.2
 17 04 2013  18 22  -21.0176 26045.9 -03424.0 -07.4891 26270.0
 17 04 2013  18 23  -21.0176 26045.7 -03424.0 -07.4892 26269.8
 17 04 2013  18 24  -21.0176 26045.7 -03424.0 -07.4893 26269.8
 17 04 2013  18 25  -21.0178 26045.6 -03424.1 -07.4895 26269.7
 17 04 2013  18 26  -21.0179 26045.6 -03424.2 -07.4897 26269.8
 17 04 2013  18 27  -21.0181 26045.7 -03424.3 -07.4898 26269.8
 17 04 2013  18 28  -21.0183 26045.7 -03424.3 -07.4899 26269.8
 17 04 2013  18 29  -21.0183 26045.7 -03424.3 -07.4899 26269.8
 17 04 2013  18 30  -21.0184 26045.7 -03424.4 -07.4900 26269.8
 17 04 2013  18 31  -21.0187 26045.8 -03424.4 -07.4901 26269.9
 17 04 2013  18 32  -21.0188 26045.8 -03424.4 -07.4900 26269.9
 17 04 2013  18 33  -21.0189 26045.7 -03424.3 -07.4899 26269.8
 17 04 2013  18 34  -21.0189 26045.5 -03424.3 -07.4899 26269.6
 17 04 2013  18 35  -21.0190 26045.4 -03424.3 -07.4899 26269.5
 17 04 2013  18 36  -21.0191 26045.2 -03424.2 -07.4899 26269.4
 17 04 2013  18 37  -21.0191 26045.1 -03424.2 -07.4898 26269.2
 17 04 2013  18 38  -21.0191 26044.9 -03424.2 -07.4898 26269.1
 17 04 2013  18 39  -21.0191 26044.8 -03424.2 -07.4898 26268.9
 17 04 2013  18 40  -21.0193 26044.7 -03424.1 -07.4898 26268.8
 17 04 2013  18 41  -21.0195 26044.5 -03424.1 -07.4898 26268.7
 17 04 2013  18 42  -21.0195 26044.4 -03424.1 -07.4899 26268.6
 17 04 2013  18 43  -21.0197 26044.3 -03424.1 -07.4898 26268.4
 17 04 2013  18 44  -21.0198 26044.2 -03424.1 -07.4899 26268.3
 17 04 2013  18 45  -21.0199 26044.1 -03424.1 -07.4899 26268.2
 17 04 2013  18 46  -21.0201 26044.0 -03424.1 -07.4899 26268.2
 17 04 2013  18 47  -21.0203 26043.9 -03424.1 -07.4899 26268.1
 17 04 2013  18 48  -21.0204 26043.8 -03424.1 -07.4899 26268.0
 17 04 2013  18 49  -21.0207 26043.8 -03424.1 -07.4900 26267.9
 17 04 2013  18 50  -21.0208 26043.7 -03424.1 -07.4900 26267.9
 17 04 2013  18 51  -21.0209 26043.7 -03424.1 -07.4900 26267.8
 17 04 2013  18 52  -21.0210 26043.6 -03424.1 -07.4900 26267.7
 17 04 2013  18 53  -21.0211 26043.5 -03424.1 -07.4901 26267.6
 17 04 2013  18 54  -21.0212 26043.4 -03424.1 -07.4901 26267.5
 17 04 2013  18 55  -21.0213 26043.4 -03424.1 -07.4901 26267.5
 17 04 2013  18 56  -21.0213 26043.3 -03424.1 -07.4901 26267.4
 17 04 2013  18 57  -21.0212 26043.2 -03424.1 -07.4901 26267.3
 17 04 2013  18 58  -21.0213 26043.1 -03424.1 -07.4902 26267.3
 17 04 2013  18 59  -21.0213 26043.1 -03424.2 -07.4903 26267.2
 17 04 2013  19 00  -21.0212 26043.1 -03424.3 -07.4905 26267.2
 17 04 2013  19 01  -21.0212 26043.1 -03424.3 -07.4907 26267.3
 17 04 2013  19 02  -21.0212 26043.1 -03424.4 -07.4908 26267.3
 17 04 2013  19 03  -21.0212 26043.1 -03424.4 -07.4909 26267.3
 17 04 2013  19 04  -21.0213 26043.1 -03424.5 -07.4911 26267.3
 17 04 2013  19 05  -21.0215 26043.1 -03424.6 -07.4912 26267.3
 17 04 2013  19 06  -21.0216 26043.1 -03424.6 -07.4912 26267.3
 17 04 2013  19 07  -21.0218 26043.1 -03424.6 -07.4913 26267.3
 17 04 2013  19 08  -21.0220 26043.0 -03424.6 -07.4912 26267.2
 17 04 2013  19 09  -21.0220 26042.9 -03424.6 -07.4913 26267.1
 17 04 2013  19 10  -21.0223 26042.8 -03424.6 -07.4913 26267.0
 17 04 2013  19 11  -21.0223 26042.6 -03424.5 -07.4912 26266.8
 17 04 2013  19 12  -21.0224 26042.5 -03424.5 -07.4913 26266.7
 17 04 2013  19 13  -21.0225 26042.3 -03424.5 -07.4913 26266.5
 17 04 2013  19 14  -21.0225 26042.1 -03424.5 -07.4913 26266.3
 17 04 2013  19 15  -21.0226 26042.0 -03424.5 -07.4914 26266.2
 17 04 2013  19 16  -21.0226 26041.8 -03424.6 -07.4915 26266.0
 17 04 2013  19 17  -21.0227 26041.6 -03424.6 -07.4916 26265.8
 17 04 2013  19 18  -21.0229 26041.5 -03424.6 -07.4917 26265.7
 17 04 2013  19 19  -21.0231 26041.3 -03424.6 -07.4918 26265.5
 17 04 2013  19 20  -21.0232 26041.2 -03424.7 -07.4919 26265.4
 17 04 2013  19 21  -21.0235 26041.1 -03424.7 -07.4921 26265.3
 17 04 2013  19 22  -21.0237 26041.1 -03424.8 -07.4923 26265.3
 17 04 2013  19 23  -21.0239 26041.1 -03424.9 -07.4925 26265.3
 17 04 2013  19 24  -21.0243 26041.0 -03425.0 -07.4927 26265.3
 17 04 2013  19 25  -21.0246 26041.0 -03425.1 -07.4928 26265.3
 17 04 2013  19 26  -21.0247 26041.1 -03425.1 -07.4929 26265.3
 17 04 2013  19 27  -21.0250 26041.1 -03425.2 -07.4930 26265.4
 17 04 2013  19 28  -21.0252 26041.1 -03425.2 -07.4931 26265.4
 17 04 2013  19 29  -21.0255 26041.2 -03425.3 -07.4933 26265.5
 17 04 2013  19 30  -21.0258 26041.3 -03425.3 -07.4934 26265.6
 17 04 2013  19 31  -21.0261 26041.4 -03425.4 -07.4934 26265.7
 17 04 2013  19 32  -21.0263 26041.4 -03425.3 -07.4933 26265.7
 17 04 2013  19 33  -21.0266 26041.4 -03425.3 -07.4934 26265.7
 17 04 2013  19 34  -21.0279 26041.4 -03425.2 -07.4931 26265.7
 17 04 2013  19 35  -21.0311 26041.0 -03425.0 -07.4927 26265.3
 17 04 2013  19 36  -21.0314 26041.0 -03425.0 -07.4927 26265.2
 17 04 2013  19 37  -21.0316 26040.9 -03424.9 -07.4925 26265.1
 17 04 2013  19 38  -21.0319 26040.8 -03424.9 -07.4924 26265.1
 17 04 2013  19 39  -21.0320 26040.8 -03424.8 -07.4924 26265.0
 17 04 2013  19 40  -21.0324 26040.7 -03424.8 -07.4923 26265.0
 17 04 2013  19 41  -21.0328 26040.8 -03424.8 -07.4924 26265.1
 17 04 2013  19 42  -21.0334 26041.0 -03424.9 -07.4925 26265.2
 17 04 2013  19 43  -21.0339 26041.1 -03425.0 -07.4926 26265.3
 17 04 2013  19 44  -21.0342 26041.1 -03424.9 -07.4926 26265.4
 17 04 2013  19 45  -21.0346 26041.3 -03425.0 -07.4926 26265.5
 17 04 2013  19 46  -21.0350 26041.4 -03425.0 -07.4926 26265.6
 17 04 2013  19 47  -21.0346 26041.5 -03425.1 -07.4927 26265.8
 17 04 2013  19 48  -21.0321 26042.1 -03425.4 -07.4932 26266.4
 17 04 2013  19 49  -21.0324 26042.1 -03425.3 -07.4931 26266.4
 17 04 2013  19 50  -21.0327 26042.2 -03425.3 -07.4930 26266.5
 17 04 2013  19 51  -21.0329 26042.2 -03425.3 -07.4929 26266.5
 17 04 2013  19 52  -21.0330 26042.1 -03425.2 -07.4928 26266.4
 17 04 2013  19 53  -21.0332 26042.1 -03425.1 -07.4926 26266.4
 17 04 2013  19 54  -21.0333 26042.1 -03425.1 -07.4925 26266.4
 17 04 2013  19 55  -21.0333 26042.0 -03425.0 -07.4924 26266.3
 17 04 2013  19 56  -21.0333 26041.9 -03424.9 -07.4922 26266.2
 17 04 2013  19 57  -21.0333 26041.9 -03424.8 -07.4921 26266.1
 17 04 2013  19 58  -21.0334 26041.8 -03424.8 -07.4920 26266.0
 17 04 2013  19 59  -21.0334 26041.8 -03424.8 -07.4920 26266.0
 17 04 2013  20 00  -21.0334 26041.8 -03424.8 -07.4920 26266.0
 17 04 2013  20 01  -21.0335 26041.8 -03424.8 -07.4920 26266.0
 17 04 2013  20 02  -21.0335 26041.7 -03424.7 -07.4919 26266.0
 17 04 2013  20 03  -21.0335 26041.6 -03424.7 -07.4918 26265.9
 17 04 2013  20 04  -21.0336 26041.6 -03424.7 -07.4919 26265.9
 17 04 2013  20 05  -21.0336 26041.6 -03424.7 -07.4919 26265.9
 17 04 2013  20 06  -21.0336 26041.6 -03424.7 -07.4920 26265.9
 17 04 2013  20 07  -21.0336 26041.7 -03424.8 -07.4920 26265.9
 17 04 2013  20 08  -21.0338 26041.7 -03424.8 -07.4920 26265.9
 17 04 2013  20 09  -21.0338 26041.7 -03424.8 -07.4921 26265.9
 17 04 2013  20 10  -21.0340 26041.7 -03424.8 -07.4921 26265.9
 17 04 2013  20 11  -21.0341 26041.8 -03424.9 -07.4922 26266.0
 17 04 2013  20 12  -21.0343 26041.8 -03424.9 -07.4923 26266.1
 17 04 2013  20 13  -21.0344 26041.9 -03424.9 -07.4923 26266.1
 17 04 2013  20 14  -21.0345 26041.9 -03425.0 -07.4924 26266.2
 17 04 2013  20 15  -21.0347 26042.0 -03425.0 -07.4925 26266.2
 17 04 2013  20 16  -21.0349 26042.0 -03425.0 -07.4925 26266.2
 17 04 2013  20 17  -21.0351 26042.0 -03425.0 -07.4925 26266.2
 17 04 2013  20 18  -21.0351 26042.0 -03425.0 -07.4925 26266.2
 17 04 2013  20 19  -21.0352 26042.0 -03425.0 -07.4925 26266.2
 17 04 2013  20 20  -21.0353 26041.9 -03425.0 -07.4926 26266.2
 17 04 2013  20 21  -21.0354 26041.8 -03425.0 -07.4925 26266.1
 17 04 2013  20 22  -21.0355 26041.7 -03425.0 -07.4924 26266.0
 17 04 2013  20 23  -21.0355 26041.6 -03424.9 -07.4924 26265.9
 17 04 2013  20 24  -21.0355 26041.5 -03424.9 -07.4924 26265.8
 17 04 2013  20 25  -21.0355 26041.4 -03424.9 -07.4923 26265.7
 17 04 2013  20 26  -21.0354 26041.4 -03424.9 -07.4924 26265.6
 17 04 2013  20 27  -21.0354 26041.3 -03424.9 -07.4924 26265.6
 17 04 2013  20 28  -21.0353 26041.3 -03425.0 -07.4926 26265.6
 17 04 2013  20 29  -21.0353 26041.4 -03425.0 -07.4927 26265.6
 17 04 2013  20 30  -21.0353 26041.4 -03425.1 -07.4928 26265.7
 17 04 2013  20 31  -21.0354 26041.5 -03425.2 -07.4930 26265.7
 17 04 2013  20 32  -21.0354 26041.6 -03425.3 -07.4932 26265.9
 17 04 2013  20 33  -21.0356 26041.6 -03425.4 -07.4933 26265.9
 17 04 2013  20 34  -21.0356 26041.7 -03425.5 -07.4935 26266.0
 17 04 2013  20 35  -21.0357 26041.7 -03425.5 -07.4936 26266.0
 17 04 2013  20 36  -21.0357 26041.7 -03425.5 -07.4937 26266.0
 17 04 2013  20 37  -21.0356 26041.7 -03425.6 -07.4937 26266.0
 17 04 2013  20 38  -21.0357 26041.6 -03425.6 -07.4939 26266.0
 17 04 2013  20 39  -21.0356 26041.6 -03425.7 -07.4940 26266.0
 17 04 2013  20 40  -21.0355 26041.6 -03425.7 -07.4940 26266.0
 17 04 2013  20 41  -21.0355 26041.6 -03425.8 -07.4942 26266.0
 17 04 2013  20 42  -21.0354 26041.6 -03425.8 -07.4943 26266.0
 17 04 2013  20 43  -21.0353 26041.6 -03425.9 -07.4944 26266.0
 17 04 2013  20 44  -21.0354 26041.6 -03425.9 -07.4946 26266.0
 17 04 2013  20 45  -21.0354 26041.6 -03426.0 -07.4947 26266.0
 17 04 2013  20 46  -21.0355 26041.7 -03426.1 -07.4949 26266.1
 17 04 2013  20 47  -21.0356 26041.6 -03426.1 -07.4949 26266.1
 17 04 2013  20 48  -21.0356 26041.7 -03426.2 -07.4951 26266.1
 17 04 2013  20 49  -21.0358 26041.7 -03426.2 -07.4952 26266.1
 17 04 2013  20 50  -21.0359 26041.7 -03426.3 -07.4953 26266.1
 17 04 2013  20 51  -21.0359 26041.7 -03426.3 -07.4953 26266.1
 17 04 2013  20 52  -21.0359 26041.7 -03426.3 -07.4954 26266.1
 17 04 2013  20 53  -21.0358 26041.6 -03426.3 -07.4954 26266.1
 17 04 2013  20 54  -21.0357 26041.6 -03426.3 -07.4955 26266.0
 17 04 2013  20 55  -21.0356 26041.5 -03426.3 -07.4954 26266.0
 17 04 2013  20 56  -21.0356 26041.5 -03426.4 -07.4955 26266.0
 17 04 2013  20 57  -21.0356 26041.4 -03426.4 -07.4956 26265.8
 17 04 2013  20 58  -21.0355 26041.3 -03426.4 -07.4956 26265.8
 17 04 2013  20 59  -21.0355 26041.3 -03426.5 -07.4958 26265.8
 17 04 2013  21 00  -21.0355 26041.3 -03426.5 -07.4959 26265.8
 17 04 2013  21 01  -21.0355 26041.3 -03426.6 -07.4961 26265.8
 17 04 2013  21 02  -21.0355 26041.3 -03426.6 -07.4962 26265.8
 17 04 2013  21 03  -21.0354 26041.3 -03426.7 -07.4963 26265.8
 17 04 2013  21 04  -21.0354 26041.3 -03426.8 -07.4964 26265.8
 17 04 2013  21 05  -21.0353 26041.3 -03426.9 -07.4966 26265.8
 17 04 2013  21 06  -21.0353 26041.4 -03426.9 -07.4968 26265.9
 17 04 2013  21 07  -21.0352 26041.4 -03427.0 -07.4970 26265.9
 17 04 2013  21 08  -21.0353 26041.4 -03427.1 -07.4972 26266.0
 17 04 2013  21 09  -21.0354 26041.5 -03427.2 -07.4974 26266.0
 17 04 2013  21 10  -21.0356 26041.5 -03427.2 -07.4974 26266.0
 17 04 2013  21 11  -21.0357 26041.5 -03427.3 -07.4976 26266.0
 17 04 2013  21 12  -21.0358 26041.5 -03427.4 -07.4977 26266.1
 17 04 2013  21 13  -21.0358 26041.4 -03427.4 -07.4977 26266.0
 17 04 2013  21 14  -21.0360 26041.5 -03427.5 -07.4979 26266.1
 17 04 2013  21 15  -21.0361 26041.5 -03427.5 -07.4981 26266.1
 17 04 2013  21 16  -21.0361 26041.4 -03427.6 -07.4982 26266.0
 17 04 2013  21 17  -21.0361 26041.4 -03427.7 -07.4983 26266.0
 17 04 2013  21 18  -21.0362 26041.4 -03427.8 -07.4986 26266.1
 17 04 2013  21 19  -21.0363 26041.5 -03427.9 -07.4988 26266.1
 17 04 2013  21 20  -21.0363 26041.5 -03428.0 -07.4990 26266.1
 17 04 2013  21 21  -21.0363 26041.5 -03428.0 -07.4991 26266.2
 17 04 2013  21 22  -21.0364 26041.5 -03428.1 -07.4992 26266.2
 17 04 2013  21 23  -21.0365 26041.6 -03428.1 -07.4992 26266.2
 17 04 2013  21 24  -21.0364 26041.6 -03428.1 -07.4993 26266.2
 17 04 2013  21 25  -21.0365 26041.6 -03428.2 -07.4994 26266.3
 17 04 2013  21 26  -21.0366 26041.6 -03428.2 -07.4996 26266.3
 17 04 2013  21 27  -21.0368 26041.6 -03428.3 -07.4996 26266.3
 17 04 2013  21 28  -21.0369 26041.6 -03428.3 -07.4997 26266.3
 17 04 2013  21 29  -21.0370 26041.6 -03428.4 -07.4998 26266.3
 17 04 2013  21 30  -21.0372 26041.6 -03428.4 -07.4999 26266.3
 17 04 2013  21 31  -21.0374 26041.5 -03428.4 -07.4999 26266.2
 17 04 2013  21 32  -21.0373 26041.5 -03428.4 -07.4999 26266.2
 17 04 2013  21 33  -21.0376 26041.4 -03428.5 -07.5001 26266.2
 17 04 2013  21 34  -21.0378 26041.4 -03428.5 -07.5001 26266.1
 17 04 2013  21 35  -21.0379 26041.2 -03428.4 -07.5001 26265.9
 17 04 2013  21 36  -21.0380 26041.1 -03428.4 -07.5001 26265.9
 17 04 2013  21 37  -21.0381 26041.0 -03428.4 -07.5001 26265.7
 17 04 2013  21 38  -21.0382 26041.0 -03428.4 -07.5001 26265.7
 17 04 2013  21 39  -21.0382 26040.8 -03428.4 -07.5001 26265.5
 17 04 2013  21 40  -21.0383 26040.7 -03428.4 -07.5001 26265.4
 17 04 2013  21 41  -21.0384 26040.6 -03428.4 -07.5002 26265.3
 17 04 2013  21 42  -21.0384 26040.5 -03428.3 -07.5001 26265.2
 17 04 2013  21 43  -21.0385 26040.4 -03428.4 -07.5002 26265.1
 17 04 2013  21 44  -21.0386 26040.3 -03428.4 -07.5003 26265.0
 17 04 2013  21 45  -21.0387 26040.2 -03428.4 -07.5004 26265.0
 17 04 2013  21 46  -21.0387 26040.1 -03428.5 -07.5005 26264.8
 17 04 2013  21 47  -21.0388 26040.1 -03428.5 -07.5005 26264.8
 17 04 2013  21 48  -21.0390 26040.0 -03428.5 -07.5006 26264.7
 17 04 2013  21 49  -21.0392 26039.9 -03428.6 -07.5007 26264.7
 17 04 2013  21 50  -21.0393 26039.9 -03428.6 -07.5008 26264.6
 17 04 2013  21 51  -21.0394 26039.8 -03428.6 -07.5009 26264.6
 17 04 2013  21 52  -21.0395 26039.8 -03428.7 -07.5010 26264.5
 17 04 2013  21 53  -21.0397 26039.8 -03428.7 -07.5011 26264.6
 17 04 2013  21 54  -21.0399 26039.8 -03428.7 -07.5012 26264.6
 17 04 2013  21 55  -21.0400 26039.8 -03428.8 -07.5013 26264.6
 17 04 2013  21 56  -21.0401 26039.9 -03428.9 -07.5015 26264.7
 17 04 2013  21 57  -21.0403 26040.0 -03429.0 -07.5016 26264.8
 17 04 2013  21 58  -21.0404 26040.1 -03429.1 -07.5018 26264.9
 17 04 2013  21 59  -21.0407 26040.1 -03429.2 -07.5020 26265.0
 17 04 2013  22 00  -21.0409 26040.2 -03429.2 -07.5020 26265.0
 17 04 2013  22 01  -21.0411 26040.2 -03429.2 -07.5021 26265.0
 17 04 2013  22 02  -21.0413 26040.1 -03429.2 -07.5021 26265.0
 17 04 2013  22 03  -21.0416 26040.1 -03429.2 -07.5021 26264.9
 17 04 2013  22 04  -21.0417 26040.0 -03429.2 -07.5022 26264.8
 17 04 2013  22 05  -21.0419 26039.9 -03429.2 -07.5021 26264.7
 17 04 2013  22 06  -21.0421 26039.8 -03429.2 -07.5021 26264.6
 17 04 2013  22 07  -21.0421 26039.6 -03429.1 -07.5020 26264.4
 17 04 2013  22 08  -21.0422 26039.5 -03429.1 -07.5020 26264.3
 17 04 2013  22 09  -21.0421 26039.3 -03429.0 -07.5019 26264.1
 17 04 2013  22 10  -21.0421 26039.2 -03429.0 -07.5019 26264.0
 17 04 2013  22 11  -21.0421 26039.1 -03429.0 -07.5019 26263.9
 17 04 2013  22 12  -21.0420 26039.1 -03429.0 -07.5020 26263.9
 17 04 2013  22 13  -21.0420 26039.0 -03429.1 -07.5021 26263.8
 17 04 2013  22 14  -21.0422 26039.0 -03429.1 -07.5022 26263.9
 17 04 2013  22 15  -21.0423 26039.1 -03429.2 -07.5024 26263.9
 17 04 2013  22 16  -21.0425 26039.1 -03429.3 -07.5025 26264.0
 17 04 2013  22 17  -21.0427 26039.1 -03429.3 -07.5027 26263.9
 17 04 2013  22 18  -21.0428 26039.1 -03429.4 -07.5027 26263.9
 17 04 2013  22 19  -21.0430 26039.0 -03429.4 -07.5027 26263.9
 17 04 2013  22 20  -21.0432 26039.0 -03429.4 -07.5028 26263.9
 17 04 2013  22 21  -21.0434 26038.9 -03429.4 -07.5028 26263.8
 17 04 2013  22 22  -21.0434 26038.9 -03429.4 -07.5028 26263.7
 17 04 2013  22 23  -21.0435 26038.8 -03429.4 -07.5028 26263.6
 17 04 2013  22 24  -21.0437 26038.7 -03429.4 -07.5029 26263.6
 17 04 2013  22 25  -21.0437 26038.7 -03429.4 -07.5029 26263.6
 17 04 2013  22 26  -21.0438 26038.7 -03429.4 -07.5030 26263.5
 17 04 2013  22 27  -21.0438 26038.6 -03429.5 -07.5030 26263.5
 17 04 2013  22 28  -21.0439 26038.6 -03429.5 -07.5031 26263.5
 17 04 2013  22 29  -21.0439 26038.6 -03429.5 -07.5031 26263.5
 17 04 2013  22 30  -21.0439 26038.6 -03429.6 -07.5033 26263.5
 17 04 2013  22 31  -21.0439 26038.6 -03429.6 -07.5033 26263.5
 17 04 2013  22 32  -21.0440 26038.6 -03429.6 -07.5034 26263.5
 17 04 2013  22 33  -21.0441 26038.6 -03429.7 -07.5035 26263.5
 17 04 2013  22 34  -21.0442 26038.6 -03429.7 -07.5036 26263.5
 17 04 2013  22 35  -21.0442 26038.6 -03429.7 -07.5036 26263.5
 17 04 2013  22 36  -21.0442 26038.6 -03429.8 -07.5037 26263.5
 17 04 2013  22 37  -21.0442 26038.6 -03429.8 -07.5038 26263.5
 17 04 2013  22 38  -21.0442 26038.6 -03429.8 -07.5039 26263.5
 17 04 2013  22 39  -21.0442 26038.6 -03429.9 -07.5039 26263.5
 17 04 2013  22 40  -21.0443 26038.6 -03429.9 -07.5040 26263.5
 17 04 2013  22 41  -21.0444 26038.5 -03429.9 -07.5040 26263.5
 17 04 2013  22 42  -21.0444 26038.4 -03429.9 -07.5040 26263.4
 17 04 2013  22 43  -21.0445 26038.4 -03429.9 -07.5041 26263.3
 17 04 2013  22 44  -21.0445 26038.4 -03429.9 -07.5041 26263.3
 17 04 2013  22 45  -21.0445 26038.4 -03430.0 -07.5042 26263.3
 17 04 2013  22 46  -21.0445 26038.3 -03430.0 -07.5042 26263.3
 17 04 2013  22 47  -21.0445 26038.4 -03430.0 -07.5043 26263.3
 17 04 2013  22 48  -21.0444 26038.3 -03430.0 -07.5043 26263.2
 17 04 2013  22 49  -21.0443 26038.2 -03430.0 -07.5043 26263.1
 17 04 2013  22 50  -21.0443 26038.1 -03430.0 -07.5043 26263.1
 17 04 2013  22 51  -21.0442 26038.1 -03430.0 -07.5043 26263.0
 17 04 2013  22 52  -21.0442 26038.0 -03430.0 -07.5044 26263.0
 17 04 2013  22 53  -21.0440 26037.9 -03430.0 -07.5043 26262.9
 17 04 2013  22 54  -21.0439 26037.9 -03430.0 -07.5044 26262.8
 17 04 2013  22 55  -21.0439 26037.8 -03430.0 -07.5044 26262.7
 17 04 2013  22 56  -21.0438 26037.7 -03430.0 -07.5045 26262.7
 17 04 2013  22 57  -21.0437 26037.7 -03430.0 -07.5045 26262.6
 17 04 2013  22 58  -21.0436 26037.7 -03430.1 -07.5046 26262.6
 17 04 2013  22 59  -21.0436 26037.7 -03430.1 -07.5047 26262.6
 17 04 2013  23 00  -21.0435 26037.7 -03430.2 -07.5048 26262.6
 17 04 2013  23 01  -21.0435 26037.7 -03430.2 -07.5049 26262.6
 17 04 2013  23 02  -21.0434 26037.6 -03430.2 -07.5049 26262.6
 17 04 2013  23 03  -21.0434 26037.6 -03430.2 -07.5050 26262.6
 17 04 2013  23 04  -21.0433 26037.5 -03430.2 -07.5050 26262.5
 17 04 2013  23 05  -21.0433 26037.5 -03430.2 -07.5050 26262.5
 17 04 2013  23 06  -21.0433 26037.5 -03430.2 -07.5050 26262.5
 17 04 2013  23 07  -21.0432 26037.5 -03430.2 -07.5050 26262.4
 17 04 2013  23 08  -21.0430 26037.4 -03430.2 -07.5050 26262.4
 17 04 2013  23 09  -21.0429 26037.4 -03430.2 -07.5050 26262.4
 17 04 2013  23 10  -21.0430 26037.4 -03430.3 -07.5052 26262.4
 17 04 2013  23 11  -21.0429 26037.3 -03430.3 -07.5052 26262.3
 17 04 2013  23 12  -21.0428 26037.3 -03430.3 -07.5053 26262.3
 17 04 2013  23 13  -21.0428 26037.3 -03430.3 -07.5053 26262.3
 17 04 2013  23 14  -21.0427 26037.3 -03430.4 -07.5054 26262.3
 17 04 2013  23 15  -21.0426 26037.2 -03430.3 -07.5053 26262.2
 17 04 2013  23 16  -21.0425 26037.2 -03430.3 -07.5054 26262.2
 17 04 2013  23 17  -21.0424 26037.1 -03430.4 -07.5054 26262.1
 17 04 2013  23 18  -21.0424 26037.1 -03430.4 -07.5055 26262.1
 17 04 2013  23 19  -21.0422 26037.0 -03430.4 -07.5055 26262.0
 17 04 2013  23 20  -21.0422 26037.1 -03430.4 -07.5056 26262.1
 17 04 2013  23 21  -21.0420 26037.1 -03430.5 -07.5057 26262.1
 17 04 2013  23 22  -21.0419 26037.1 -03430.5 -07.5057 26262.1
 17 04 2013  23 23  -21.0418 26037.1 -03430.5 -07.5058 26262.1
 17 04 2013  23 24  -21.0417 26037.1 -03430.6 -07.5059 26262.2
 17 04 2013  23 25  -21.0415 26037.1 -03430.6 -07.5059 26262.1
 17 04 2013  23 26  -21.0414 26037.1 -03430.6 -07.5060 26262.1
 17 04 2013  23 27  -21.0413 26037.2 -03430.7 -07.5061 26262.2
 17 04 2013  23 28  -21.0411 26037.1 -03430.7 -07.5061 26262.2
 17 04 2013  23 29  -21.0410 26037.2 -03430.7 -07.5062 26262.2
 17 04 2013  23 30  -21.0409 26037.2 -03430.8 -07.5063 26262.3
 17 04 2013  23 31  -21.0407 26037.2 -03430.8 -07.5064 26262.3
 17 04 2013  23 32  -21.0405 26037.3 -03430.9 -07.5065 26262.4
 17 04 2013  23 33  -21.0404 26037.2 -03430.8 -07.5064 26262.2
 17 04 2013  23 34  -21.0404 26037.1 -03430.8 -07.5064 26262.2
 17 04 2013  23 35  -21.0402 26037.1 -03430.8 -07.5064 26262.2
 17 04 2013  23 36  -21.0399 26037.2 -03430.9 -07.5066 26262.3
 17 04 2013  23 37  -21.0398 26037.2 -03430.9 -07.5066 26262.3
 17 04 2013  23 38  -21.0399 26037.2 -03431.0 -07.5067 26262.3
 17 04 2013  23 39  -21.0397 26037.2 -03431.0 -07.5067 26262.3
 17 04 2013  23 40  -21.0396 26037.2 -03431.0 -07.5068 26262.3
 17 04 2013  23 41  -21.0396 26037.2 -03431.0 -07.5068 26262.3
 17 04 2013  23 42  -21.0396 26037.3 -03431.1 -07.5069 26262.4
 17 04 2013  23 43  -21.0395 26037.4 -03431.2 -07.5071 26262.5
 17 04 2013  23 44  -21.0396 26037.4 -03431.2 -07.5071 26262.5
 17 04 2013  23 45  -21.0397 26037.3 -03431.1 -07.5070 26262.4
 17 04 2013  23 46  -21.0397 26037.3 -03431.1 -07.5071 26262.4
 17 04 2013  23 47  -21.0397 26037.4 -03431.2 -07.5071 26262.5
 17 04 2013  23 48  -21.0398 26037.5 -03431.2 -07.5072 26262.6
 17 04 2013  23 49  -21.0399 26037.6 -03431.3 -07.5072 26262.7
 17 04 2013  23 50  -21.0400 26037.6 -03431.3 -07.5073 26262.7
 17 04 2013  23 51  -21.0401 26037.5 -03431.2 -07.5072 26262.6
 17 04 2013  23 52  -21.0402 26037.4 -03431.2 -07.5071 26262.5
 17 04 2013  23 53  -21.0403 26037.2 -03431.1 -07.5070 26262.3
 17 04 2013  23 54  -21.0404 26036.9 -03431.0 -07.5068 26262.0
 17 04 2013  23 55  -21.0404 26036.6 -03430.8 -07.5066 26261.7
 17 04 2013  23 56  -21.0405 26036.4 -03430.7 -07.5064 26261.4
 17 04 2013  23 57  -21.0407 26036.1 -03430.6 -07.5063 26261.1
 17 04 2013  23 58  -21.0407 26035.9 -03430.6 -07.5062 26261.0
