SAO LUIS EMBRACE-03 <011> 1 Min. Reported data

 DD MM YYYY  HH MM   D(Deg)  H(nT)   Z(nT)   I(Deg)   F(nT)

 11 01 2013  00 00  -21.0057 26055.5 -03388.4 -07.4094 26274.9
 11 01 2013  00 01  -21.0056 26055.6 -03388.4 -07.4094 26275.0
 11 01 2013  00 02  -21.0055 26055.6 -03388.4 -07.4094 26275.0
 11 01 2013  00 03  -21.0055 26055.6 -03388.4 -07.4094 26275.0
 11 01 2013  00 04  -21.0055 26055.6 -03388.4 -07.4094 26275.0
 11 01 2013  00 05  -21.0055 26055.6 -03388.4 -07.4094 26275.0
 11 01 2013  00 06  -21.0055 26055.5 -03388.4 -07.4093 26274.9
 11 01 2013  00 07  -21.0055 26055.5 -03388.3 -07.4093 26274.9
 11 01 2013  00 08  -21.0054 26055.6 -03388.3 -07.4093 26275.0
 11 01 2013  00 09  -21.0053 26055.7 -03388.4 -07.4093 26275.0
 11 01 2013  00 10  -21.0053 26055.7 -03388.4 -07.4094 26275.1
 11 01 2013  00 11  -21.0053 26055.8 -03388.4 -07.4093 26275.2
 11 01 2013  00 12  -21.0053 26055.8 -03388.4 -07.4093 26275.2
 11 01 2013  00 13  -21.0053 26055.9 -03388.4 -07.4093 26275.3
 11 01 2013  00 14  -21.0053 26055.9 -03388.3 -07.4092 26275.2
 11 01 2013  00 15  -21.0052 26055.9 -03388.3 -07.4092 26275.2
 11 01 2013  00 16  -21.0052 26055.8 -03388.3 -07.4091 26275.2
 11 01 2013  00 17  -21.0051 26055.8 -03388.3 -07.4091 26275.2
 11 01 2013  00 18  -21.0051 26055.8 -03388.2 -07.4090 26275.2
 11 01 2013  00 19  -21.0051 26055.8 -03388.2 -07.4090 26275.2
 11 01 2013  00 20  -21.0052 26055.8 -03388.2 -07.4089 26275.2
 11 01 2013  00 21  -21.0052 26055.8 -03388.2 -07.4089 26275.2
 11 01 2013  00 22  -21.0052 26055.9 -03388.2 -07.4089 26275.2
 11 01 2013  00 23  -21.0053 26055.9 -03388.2 -07.4089 26275.2
 11 01 2013  00 24  -21.0055 26055.8 -03388.1 -07.4088 26275.2
 11 01 2013  00 25  -21.0055 26055.8 -03388.1 -07.4087 26275.2
 11 01 2013  00 26  -21.0056 26055.8 -03388.1 -07.4086 26275.1
 11 01 2013  00 27  -21.0056 26055.8 -03388.0 -07.4086 26275.1
 11 01 2013  00 28  -21.0057 26055.7 -03388.0 -07.4085 26275.1
 11 01 2013  00 29  -21.0057 26055.7 -03388.0 -07.4084 26275.1
 11 01 2013  00 30  -21.0058 26055.7 -03387.9 -07.4084 26275.0
 11 01 2013  00 31  -21.0058 26055.7 -03387.9 -07.4083 26275.0
 11 01 2013  00 32  -21.0058 26055.7 -03387.9 -07.4083 26275.0
 11 01 2013  00 33  -21.0059 26055.7 -03387.9 -07.4083 26275.0
 11 01 2013  00 34  -21.0059 26055.7 -03387.9 -07.4083 26275.0
 11 01 2013  00 35  -21.0059 26055.7 -03387.9 -07.4082 26275.0
 11 01 2013  00 36  -21.0059 26055.7 -03387.8 -07.4082 26275.0
 11 01 2013  00 37  -21.0060 26055.7 -03387.8 -07.4082 26275.0
 11 01 2013  00 38  -21.0060 26055.7 -03387.9 -07.4082 26275.1
 11 01 2013  00 39  -21.0059 26055.8 -03387.9 -07.4083 26275.1
 11 01 2013  00 40  -21.0058 26055.8 -03387.9 -07.4082 26275.2
 11 01 2013  00 41  -21.0060 26055.8 -03387.9 -07.4083 26275.2
 11 01 2013  00 42  -21.0059 26055.8 -03387.9 -07.4082 26275.2
 11 01 2013  00 43  -21.0060 26055.8 -03387.9 -07.4082 26275.2
 11 01 2013  00 44  -21.0060 26055.8 -03387.8 -07.4081 26275.2
 11 01 2013  00 45  -21.0060 26055.8 -03387.8 -07.4081 26275.1
 11 01 2013  00 46  -21.0059 26055.8 -03387.8 -07.4081 26275.1
 11 01 2013  00 47  -21.0058 26055.8 -03387.8 -07.4081 26275.1
 11 01 2013  00 48  -21.0058 26055.9 -03387.8 -07.4081 26275.2
 11 01 2013  00 49  -21.0058 26056.0 -03387.9 -07.4082 26275.3
 11 01 2013  00 50  -21.0058 26056.1 -03387.9 -07.4083 26275.4
 11 01 2013  00 51  -21.0057 26056.1 -03388.0 -07.4083 26275.5
 11 01 2013  00 52  -21.0056 26056.2 -03388.0 -07.4084 26275.5
 11 01 2013  00 53  -21.0054 26056.2 -03388.0 -07.4084 26275.6
 11 01 2013  00 54  -21.0054 26056.2 -03388.0 -07.4084 26275.6
 11 01 2013  00 55  -21.0055 26056.3 -03388.0 -07.4084 26275.6
 11 01 2013  00 56  -21.0054 26056.3 -03388.0 -07.4084 26275.6
 11 01 2013  00 57  -21.0052 26056.2 -03388.0 -07.4084 26275.6
 11 01 2013  00 58  -21.0051 26056.3 -03388.0 -07.4084 26275.6
 11 01 2013  00 59  -21.0050 26056.3 -03388.0 -07.4084 26275.7
 11 01 2013  01 00  -21.0050 26056.4 -03388.1 -07.4085 26275.8
 11 01 2013  01 01  -21.0050 26056.5 -03388.1 -07.4086 26275.8
 11 01 2013  01 02  -21.0051 26056.5 -03388.1 -07.4086 26275.8
 11 01 2013  01 03  -21.0050 26056.5 -03388.2 -07.4086 26275.9
 11 01 2013  01 04  -21.0049 26056.6 -03388.2 -07.4087 26275.9
 11 01 2013  01 05  -21.0048 26056.6 -03388.2 -07.4087 26276.0
 11 01 2013  01 06  -21.0049 26056.7 -03388.3 -07.4088 26276.0
 11 01 2013  01 07  -21.0049 26056.7 -03388.3 -07.4088 26276.1
 11 01 2013  01 08  -21.0049 26056.7 -03388.3 -07.4089 26276.1
 11 01 2013  01 09  -21.0049 26056.8 -03388.3 -07.4089 26276.2
 11 01 2013  01 10  -21.0050 26056.8 -03388.4 -07.4090 26276.2
 11 01 2013  01 11  -21.0050 26056.8 -03388.4 -07.4090 26276.2
 11 01 2013  01 12  -21.0050 26056.9 -03388.4 -07.4091 26276.2
 11 01 2013  01 13  -21.0050 26056.9 -03388.4 -07.4091 26276.3
 11 01 2013  01 14  -21.0050 26056.9 -03388.5 -07.4092 26276.3
 11 01 2013  01 15  -21.0050 26057.0 -03388.5 -07.4092 26276.4
 11 01 2013  01 16  -21.0049 26057.0 -03388.5 -07.4093 26276.4
 11 01 2013  01 17  -21.0049 26057.0 -03388.5 -07.4093 26276.4
 11 01 2013  01 18  -21.0049 26057.1 -03388.6 -07.4094 26276.5
 11 01 2013  01 19  -21.0048 26057.1 -03388.6 -07.4094 26276.5
 11 01 2013  01 20  -21.0048 26057.3 -03388.7 -07.4095 26276.7
 11 01 2013  01 21  -21.0048 26057.3 -03388.7 -07.4096 26276.8
 11 01 2013  01 22  -21.0047 26057.4 -03388.8 -07.4097 26276.8
 11 01 2013  01 23  -21.0047 26057.5 -03388.8 -07.4097 26276.9
 11 01 2013  01 24  -21.0046 26057.5 -03388.8 -07.4098 26277.0
 11 01 2013  01 25  -21.0044 26057.6 -03388.8 -07.4097 26277.0
 11 01 2013  01 26  -21.0043 26057.6 -03388.8 -07.4098 26277.0
 11 01 2013  01 27  -21.0043 26057.6 -03388.9 -07.4098 26277.1
 11 01 2013  01 28  -21.0041 26057.8 -03388.9 -07.4099 26277.2
 11 01 2013  01 29  -21.0041 26057.8 -03388.9 -07.4100 26277.3
 11 01 2013  01 30  -21.0040 26057.8 -03388.9 -07.4100 26277.3
 11 01 2013  01 31  -21.0040 26057.8 -03388.9 -07.4100 26277.3
 11 01 2013  01 32  -21.0040 26057.8 -03388.9 -07.4099 26277.2
 11 01 2013  01 33  -21.0039 26057.7 -03388.9 -07.4099 26277.1
 11 01 2013  01 34  -21.0038 26057.7 -03388.9 -07.4098 26277.1
 11 01 2013  01 35  -21.0038 26057.7 -03388.9 -07.4099 26277.2
 11 01 2013  01 36  -21.0038 26057.8 -03388.9 -07.4100 26277.2
 11 01 2013  01 37  -21.0039 26057.8 -03389.0 -07.4101 26277.3
 11 01 2013  01 38  -21.0040 26057.9 -03389.0 -07.4102 26277.3
 11 01 2013  01 39  -21.0040 26057.9 -03389.1 -07.4102 26277.4
 11 01 2013  01 40  -21.0041 26058.0 -03389.1 -07.4103 26277.5
 11 01 2013  01 41  -21.0041 26058.0 -03389.1 -07.4104 26277.5
 11 01 2013  01 42  -21.0042 26058.1 -03389.2 -07.4104 26277.6
 11 01 2013  01 43  -21.0043 26058.1 -03389.2 -07.4104 26277.6
 11 01 2013  01 44  -21.0044 26058.1 -03389.2 -07.4104 26277.6
 11 01 2013  01 45  -21.0046 26058.1 -03389.2 -07.4105 26277.6
 11 01 2013  01 46  -21.0047 26058.2 -03389.2 -07.4105 26277.7
 11 01 2013  01 47  -21.0048 26058.2 -03389.3 -07.4106 26277.7
 11 01 2013  01 48  -21.0049 26058.3 -03389.3 -07.4107 26277.8
 11 01 2013  01 49  -21.0050 26058.3 -03389.3 -07.4107 26277.8
 11 01 2013  01 50  -21.0052 26058.4 -03389.4 -07.4107 26277.9
 11 01 2013  01 51  -21.0054 26058.4 -03389.4 -07.4108 26277.9
 11 01 2013  01 52  -21.0055 26058.4 -03389.4 -07.4108 26277.9
 11 01 2013  01 53  -21.0055 26058.4 -03389.4 -07.4108 26277.9
 11 01 2013  01 54  -21.0056 26058.4 -03389.4 -07.4109 26277.9
 11 01 2013  01 55  -21.0057 26058.6 -03389.5 -07.4110 26278.1
 11 01 2013  01 56  -21.0057 26058.8 -03389.6 -07.4111 26278.3
 11 01 2013  01 57  -21.0057 26058.8 -03389.7 -07.4112 26278.4
 11 01 2013  01 58  -21.0057 26058.9 -03389.7 -07.4113 26278.4
 11 01 2013  01 59  -21.0056 26058.9 -03389.7 -07.4113 26278.4
 11 01 2013  02 00  -21.0057 26058.8 -03389.7 -07.4113 26278.4
 11 01 2013  02 01  -21.0057 26058.8 -03389.7 -07.4113 26278.4
 11 01 2013  02 02  -21.0057 26058.9 -03389.7 -07.4113 26278.4
 11 01 2013  02 03  -21.0058 26058.9 -03389.7 -07.4114 26278.5
 11 01 2013  02 04  -21.0059 26059.0 -03389.8 -07.4115 26278.6
 11 01 2013  02 05  -21.0060 26059.1 -03389.8 -07.4116 26278.6
 11 01 2013  02 06  -21.0063 26059.0 -03389.9 -07.4116 26278.6
 11 01 2013  02 07  -21.0065 26059.0 -03389.8 -07.4116 26278.6
 11 01 2013  02 08  -21.0067 26058.9 -03389.8 -07.4115 26278.5
 11 01 2013  02 09  -21.0068 26058.9 -03389.8 -07.4115 26278.4
 11 01 2013  02 10  -21.0070 26058.9 -03389.8 -07.4115 26278.4
 11 01 2013  02 11  -21.0073 26059.0 -03389.8 -07.4116 26278.5
 11 01 2013  02 12  -21.0075 26059.1 -03389.9 -07.4117 26278.6
 11 01 2013  02 13  -21.0077 26059.2 -03389.9 -07.4118 26278.7
 11 01 2013  02 14  -21.0079 26059.1 -03390.0 -07.4118 26278.7
 11 01 2013  02 15  -21.0080 26059.1 -03389.9 -07.4117 26278.6
 11 01 2013  02 16  -21.0082 26059.0 -03389.9 -07.4117 26278.5
 11 01 2013  02 17  -21.0084 26059.0 -03389.9 -07.4117 26278.6
 11 01 2013  02 18  -21.0086 26059.0 -03389.9 -07.4117 26278.5
 11 01 2013  02 19  -21.0086 26059.0 -03389.8 -07.4116 26278.5
 11 01 2013  02 20  -21.0088 26059.0 -03389.9 -07.4116 26278.5
 11 01 2013  02 21  -21.0091 26059.0 -03389.9 -07.4117 26278.6
 11 01 2013  02 22  -21.0093 26059.1 -03390.0 -07.4118 26278.7
 11 01 2013  02 23  -21.0095 26059.0 -03389.9 -07.4118 26278.6
 11 01 2013  02 24  -21.0098 26058.9 -03389.9 -07.4117 26278.5
 11 01 2013  02 25  -21.0101 26058.9 -03389.9 -07.4116 26278.5
 11 01 2013  02 26  -21.0103 26058.9 -03389.9 -07.4117 26278.5
 11 01 2013  02 27  -21.0105 26059.0 -03389.9 -07.4118 26278.6
 11 01 2013  02 28  -21.0106 26059.0 -03389.9 -07.4118 26278.6
 11 01 2013  02 29  -21.0108 26059.1 -03389.9 -07.4118 26278.6
 11 01 2013  02 30  -21.0110 26059.1 -03389.9 -07.4118 26278.7
 11 01 2013  02 31  -21.0112 26059.1 -03390.0 -07.4118 26278.7
 11 01 2013  02 32  -21.0114 26059.2 -03390.0 -07.4118 26278.8
 11 01 2013  02 33  -21.0116 26059.2 -03390.0 -07.4118 26278.8
 11 01 2013  02 34  -21.0118 26059.3 -03390.0 -07.4118 26278.9
 11 01 2013  02 35  -21.0120 26059.3 -03390.0 -07.4119 26278.9
 11 01 2013  02 36  -21.0123 26059.3 -03390.0 -07.4119 26278.9
 11 01 2013  02 37  -21.0125 26059.4 -03390.0 -07.4119 26278.9
 11 01 2013  02 38  -21.0126 26059.3 -03390.0 -07.4118 26278.9
 11 01 2013  02 39  -21.0128 26059.4 -03390.0 -07.4118 26278.9
 11 01 2013  02 40  -21.0130 26059.5 -03390.0 -07.4118 26279.1
 11 01 2013  02 41  -21.0131 26059.6 -03390.1 -07.4119 26279.2
 11 01 2013  02 42  -21.0133 26059.7 -03390.1 -07.4120 26279.3
 11 01 2013  02 43  -21.0135 26059.8 -03390.1 -07.4119 26279.4
 11 01 2013  02 44  -21.0138 26059.7 -03390.1 -07.4119 26279.3
 11 01 2013  02 45  -21.0139 26059.7 -03390.0 -07.4117 26279.2
 11 01 2013  02 46  -21.0140 26059.6 -03389.9 -07.4116 26279.2
 11 01 2013  02 47  -21.0141 26059.6 -03389.9 -07.4116 26279.2
 11 01 2013  02 48  -21.0145 26059.8 -03390.0 -07.4117 26279.4
 11 01 2013  02 49  -21.0147 26059.9 -03390.0 -07.4117 26279.5
 11 01 2013  02 50  -21.0147 26059.9 -03390.0 -07.4117 26279.5
 11 01 2013  02 51  -21.0147 26059.9 -03389.9 -07.4116 26279.5
 11 01 2013  02 52  -21.0148 26059.9 -03389.9 -07.4115 26279.5
 11 01 2013  02 53  -21.0148 26059.9 -03389.9 -07.4115 26279.5
 11 01 2013  02 54  -21.0149 26059.9 -03389.9 -07.4114 26279.5
 11 01 2013  02 55  -21.0149 26060.0 -03389.9 -07.4114 26279.5
 11 01 2013  02 56  -21.0147 26060.0 -03389.9 -07.4114 26279.6
 11 01 2013  02 57  -21.0147 26060.0 -03389.9 -07.4114 26279.6
 11 01 2013  02 58  -21.0148 26060.0 -03389.9 -07.4114 26279.6
 11 01 2013  02 59  -21.0148 26060.0 -03389.9 -07.4113 26279.5
 11 01 2013  03 00  -21.0148 26060.1 -03389.9 -07.4113 26279.6
 11 01 2013  03 01  -21.0149 26060.1 -03389.9 -07.4114 26279.7
 11 01 2013  03 02  -21.0150 26060.2 -03389.9 -07.4114 26279.8
 11 01 2013  03 03  -21.0150 26060.2 -03389.9 -07.4114 26279.8
 11 01 2013  03 04  -21.0151 26060.2 -03389.9 -07.4113 26279.8
 11 01 2013  03 05  -21.0152 26060.2 -03389.9 -07.4113 26279.7
 11 01 2013  03 06  -21.0153 26060.2 -03389.8 -07.4112 26279.7
 11 01 2013  03 07  -21.0153 26060.1 -03389.8 -07.4112 26279.7
 11 01 2013  03 08  -21.0152 26060.1 -03389.7 -07.4111 26279.6
 11 01 2013  03 09  -21.0152 26060.1 -03389.7 -07.4111 26279.6
 11 01 2013  03 10  -21.0153 26060.1 -03389.7 -07.4110 26279.6
 11 01 2013  03 11  -21.0153 26060.1 -03389.7 -07.4110 26279.6
 11 01 2013  03 12  -21.0153 26060.1 -03389.7 -07.4110 26279.7
 11 01 2013  03 13  -21.0155 26060.1 -03389.7 -07.4111 26279.7
 11 01 2013  03 14  -21.0156 26060.3 -03389.8 -07.4111 26279.8
 11 01 2013  03 15  -21.0157 26060.3 -03389.8 -07.4112 26279.9
 11 01 2013  03 16  -21.0159 26060.4 -03389.8 -07.4112 26279.9
 11 01 2013  03 17  -21.0160 26060.4 -03389.8 -07.4112 26279.9
 11 01 2013  03 18  -21.0160 26060.4 -03389.8 -07.4112 26280.0
 11 01 2013  03 19  -21.0161 26060.6 -03389.9 -07.4112 26280.1
 11 01 2013  03 20  -21.0162 26060.7 -03389.9 -07.4113 26280.2
 11 01 2013  03 21  -21.0162 26060.7 -03389.9 -07.4113 26280.3
 11 01 2013  03 22  -21.0162 26060.8 -03389.9 -07.4113 26280.3
 11 01 2013  03 23  -21.0164 26060.9 -03390.0 -07.4113 26280.5
 11 01 2013  03 24  -21.0164 26061.0 -03390.0 -07.4114 26280.6
 11 01 2013  03 25  -21.0165 26061.2 -03390.1 -07.4114 26280.7
 11 01 2013  03 26  -21.0166 26061.2 -03390.1 -07.4114 26280.7
 11 01 2013  03 27  -21.0167 26061.1 -03390.0 -07.4113 26280.7
 11 01 2013  03 28  -21.0167 26061.2 -03390.0 -07.4113 26280.7
 11 01 2013  03 29  -21.0167 26061.1 -03389.9 -07.4112 26280.6
 11 01 2013  03 30  -21.0168 26061.1 -03389.9 -07.4111 26280.6
 11 01 2013  03 31  -21.0168 26061.2 -03389.9 -07.4112 26280.7
 11 01 2013  03 32  -21.0167 26061.1 -03389.9 -07.4111 26280.7
 11 01 2013  03 33  -21.0168 26061.1 -03389.9 -07.4111 26280.6
 11 01 2013  03 34  -21.0168 26060.9 -03389.8 -07.4109 26280.4
 11 01 2013  03 35  -21.0170 26061.0 -03389.8 -07.4109 26280.5
 11 01 2013  03 36  -21.0171 26060.9 -03389.8 -07.4109 26280.5
 11 01 2013  03 37  -21.0173 26060.8 -03389.7 -07.4108 26280.4
 11 01 2013  03 38  -21.0173 26060.7 -03389.7 -07.4107 26280.3
 11 01 2013  03 39  -21.0173 26060.7 -03389.6 -07.4106 26280.2
 11 01 2013  03 40  -21.0173 26060.7 -03389.6 -07.4106 26280.2
 11 01 2013  03 41  -21.0172 26060.7 -03389.6 -07.4106 26280.2
 11 01 2013  03 42  -21.0174 26060.8 -03389.6 -07.4107 26280.3
 11 01 2013  03 43  -21.0176 26060.9 -03389.7 -07.4108 26280.5
 11 01 2013  03 44  -21.0177 26061.0 -03389.8 -07.4109 26280.6
 11 01 2013  03 45  -21.0178 26061.0 -03389.8 -07.4109 26280.5
 11 01 2013  03 46  -21.0179 26061.0 -03389.8 -07.4108 26280.5
 11 01 2013  03 47  -21.0179 26061.0 -03389.7 -07.4108 26280.6
 11 01 2013  03 48  -21.0180 26061.1 -03389.8 -07.4108 26280.7
 11 01 2013  03 49  -21.0182 26061.2 -03389.8 -07.4109 26280.7
 11 01 2013  03 50  -21.0183 26061.2 -03389.8 -07.4109 26280.7
 11 01 2013  03 51  -21.0184 26061.2 -03389.8 -07.4109 26280.7
 11 01 2013  03 52  -21.0185 26061.2 -03389.8 -07.4108 26280.7
 11 01 2013  03 53  -21.0185 26061.2 -03389.7 -07.4107 26280.7
 11 01 2013  03 54  -21.0186 26061.1 -03389.7 -07.4107 26280.7
 11 01 2013  03 55  -21.0187 26061.1 -03389.7 -07.4106 26280.6
 11 01 2013  03 56  -21.0189 26061.2 -03389.7 -07.4106 26280.7
 11 01 2013  03 57  -21.0191 26061.2 -03389.7 -07.4106 26280.7
 11 01 2013  03 58  -21.0192 26061.1 -03389.7 -07.4106 26280.7
 11 01 2013  03 59  -21.0193 26061.2 -03389.7 -07.4106 26280.7
 11 01 2013  04 00  -21.0194 26061.4 -03389.7 -07.4107 26280.9
 11 01 2013  04 01  -21.0195 26061.6 -03389.8 -07.4108 26281.1
 11 01 2013  04 02  -21.0196 26061.6 -03389.8 -07.4108 26281.1
 11 01 2013  04 03  -21.0194 26061.4 -03389.7 -07.4106 26280.9
 11 01 2013  04 04  -21.0195 26061.2 -03389.6 -07.4104 26280.7
 11 01 2013  04 05  -21.0196 26061.0 -03389.4 -07.4101 26280.4
 11 01 2013  04 06  -21.0200 26060.9 -03389.4 -07.4101 26280.4
 11 01 2013  04 07  -21.0202 26061.0 -03389.4 -07.4102 26280.5
 11 01 2013  04 08  -21.0200 26060.8 -03389.3 -07.4100 26280.3
 11 01 2013  04 09  -21.0199 26060.8 -03389.3 -07.4099 26280.3
 11 01 2013  04 10  -21.0197 26060.7 -03389.2 -07.4098 26280.2
 11 01 2013  04 11  -21.0196 26060.7 -03389.2 -07.4098 26280.2
 11 01 2013  04 12  -21.0197 26060.7 -03389.3 -07.4098 26280.2
 11 01 2013  04 13  -21.0198 26060.6 -03389.2 -07.4098 26280.0
 11 01 2013  04 14  -21.0197 26060.5 -03389.2 -07.4097 26280.0
 11 01 2013  04 15  -21.0195 26060.5 -03389.1 -07.4097 26280.0
 11 01 2013  04 16  -21.0194 26060.4 -03389.1 -07.4096 26279.9
 11 01 2013  04 17  -21.0196 26060.1 -03389.0 -07.4094 26279.6
 11 01 2013  04 18  -21.0194 26060.3 -03389.0 -07.4095 26279.8
 11 01 2013  04 19  -21.0195 26060.3 -03389.1 -07.4096 26279.8
 11 01 2013  04 20  -21.0195 26060.2 -03389.1 -07.4096 26279.6
 11 01 2013  04 21  -21.0197 26060.2 -03389.1 -07.4096 26279.7
 11 01 2013  04 22  -21.0199 26060.3 -03389.1 -07.4096 26279.7
 11 01 2013  04 23  -21.0201 26060.4 -03389.2 -07.4097 26279.9
 11 01 2013  04 24  -21.0201 26060.6 -03389.3 -07.4099 26280.1
 11 01 2013  04 25  -21.0201 26060.7 -03389.3 -07.4099 26280.1
 11 01 2013  04 26  -21.0201 26060.6 -03389.2 -07.4099 26280.1
 11 01 2013  04 27  -21.0202 26060.7 -03389.3 -07.4099 26280.2
 11 01 2013  04 28  -21.0204 26060.8 -03389.3 -07.4099 26280.2
 11 01 2013  04 29  -21.0204 26060.9 -03389.3 -07.4100 26280.4
 11 01 2013  04 30  -21.0204 26061.0 -03389.4 -07.4101 26280.5
 11 01 2013  04 31  -21.0206 26061.0 -03389.4 -07.4100 26280.5
 11 01 2013  04 32  -21.0205 26061.2 -03389.4 -07.4101 26280.6
 11 01 2013  04 33  -21.0204 26061.3 -03389.5 -07.4101 26280.8
 11 01 2013  04 34  -21.0203 26061.6 -03389.6 -07.4103 26281.2
 11 01 2013  04 35  -21.0204 26062.0 -03389.8 -07.4106 26281.5
 11 01 2013  04 36  -21.0204 26062.1 -03389.8 -07.4106 26281.6
 11 01 2013  04 37  -21.0204 26062.5 -03390.0 -07.4109 26282.0
 11 01 2013  04 38  -21.0202 26062.6 -03390.0 -07.4109 26282.2
 11 01 2013  04 39  -21.0201 26062.7 -03390.0 -07.4108 26282.2
 11 01 2013  04 40  -21.0198 26063.2 -03390.2 -07.4111 26282.8
 11 01 2013  04 41  -21.0196 26063.7 -03390.4 -07.4115 26283.2
 11 01 2013  04 42  -21.0208 26063.5 -03390.4 -07.4114 26283.1
 11 01 2013  04 43  -21.0211 26063.7 -03390.3 -07.4114 26283.2
 11 01 2013  04 44  -21.0202 26064.2 -03390.5 -07.4115 26283.8
 11 01 2013  04 45  -21.0197 26064.1 -03390.4 -07.4114 26283.7
 11 01 2013  04 46  -21.0201 26063.8 -03390.2 -07.4110 26283.4
 11 01 2013  04 47  -21.0203 26063.9 -03390.2 -07.4110 26283.5
 11 01 2013  04 48  -21.0201 26064.1 -03390.2 -07.4110 26283.6
 11 01 2013  04 49  -21.0199 26064.0 -03390.1 -07.4108 26283.6
 11 01 2013  04 50  -21.0197 26063.9 -03390.1 -07.4107 26283.5
 11 01 2013  04 51  -21.0194 26064.0 -03390.1 -07.4107 26283.6
 11 01 2013  04 52  -21.0191 26063.9 -03390.0 -07.4106 26283.4
 11 01 2013  04 53  -21.0191 26063.8 -03390.0 -07.4105 26283.3
 11 01 2013  04 54  -21.0188 26063.9 -03390.0 -07.4106 26283.5
 11 01 2013  04 55  -21.0186 26064.0 -03390.0 -07.4106 26283.5
 11 01 2013  04 56  -21.0186 26064.0 -03390.1 -07.4107 26283.5
 11 01 2013  04 57  -21.0185 26063.8 -03390.0 -07.4106 26283.4
 11 01 2013  04 58  -21.0184 26063.7 -03389.9 -07.4105 26283.3
 11 01 2013  04 59  -21.0184 26063.8 -03389.9 -07.4105 26283.3
 11 01 2013  05 00  -21.0184 26063.7 -03389.9 -07.4105 26283.2
 11 01 2013  05 01  -21.0184 26063.6 -03389.9 -07.4104 26283.1
 11 01 2013  05 02  -21.0184 26063.4 -03389.8 -07.4103 26282.9
 11 01 2013  05 03  -21.0184 26063.2 -03389.7 -07.4102 26282.7
 11 01 2013  05 04  -21.0183 26063.1 -03389.7 -07.4100 26282.6
 11 01 2013  05 05  -21.0182 26063.2 -03389.7 -07.4101 26282.7
 11 01 2013  05 06  -21.0179 26063.3 -03389.8 -07.4103 26282.8
 11 01 2013  05 07  -21.0178 26063.3 -03389.9 -07.4105 26282.8
 11 01 2013  05 08  -21.0179 26063.3 -03389.9 -07.4105 26282.8
 11 01 2013  05 09  -21.0178 26063.3 -03389.9 -07.4105 26282.9
 11 01 2013  05 10  -21.0176 26063.5 -03390.0 -07.4107 26283.0
 11 01 2013  05 11  -21.0176 26063.6 -03390.1 -07.4108 26283.1
 11 01 2013  05 12  -21.0176 26063.6 -03390.1 -07.4109 26283.2
 11 01 2013  05 13  -21.0175 26063.7 -03390.1 -07.4109 26283.2
 11 01 2013  05 14  -21.0175 26063.7 -03390.2 -07.4110 26283.3
 11 01 2013  05 15  -21.0174 26063.7 -03390.2 -07.4110 26283.2
 11 01 2013  05 16  -21.0173 26063.6 -03390.1 -07.4109 26283.1
 11 01 2013  05 17  -21.0172 26063.5 -03390.1 -07.4109 26283.1
 11 01 2013  05 18  -21.0171 26063.4 -03390.1 -07.4109 26283.0
 11 01 2013  05 19  -21.0170 26063.4 -03390.1 -07.4109 26283.0
 11 01 2013  05 20  -21.0171 26063.4 -03390.1 -07.4109 26282.9
 11 01 2013  05 21  -21.0172 26063.4 -03390.1 -07.4109 26282.9
 11 01 2013  05 22  -21.0173 26063.3 -03390.1 -07.4108 26282.8
 11 01 2013  05 23  -21.0172 26063.3 -03390.0 -07.4108 26282.8
 11 01 2013  05 24  -21.0170 26063.1 -03390.0 -07.4107 26282.7
 11 01 2013  05 25  -21.0170 26063.1 -03389.9 -07.4106 26282.6
 11 01 2013  05 26  -21.0173 26063.0 -03389.9 -07.4107 26282.6
 11 01 2013  05 27  -21.0173 26063.1 -03390.0 -07.4108 26282.7
 11 01 2013  05 28  -21.0174 26063.1 -03390.0 -07.4108 26282.6
 11 01 2013  05 29  -21.0174 26063.1 -03390.0 -07.4108 26282.6
 11 01 2013  05 30  -21.0172 26063.2 -03390.1 -07.4109 26282.7
 11 01 2013  05 31  -21.0171 26063.2 -03390.1 -07.4109 26282.8
 11 01 2013  05 32  -21.0174 26063.2 -03390.1 -07.4110 26282.8
 11 01 2013  05 33  -21.0174 26063.4 -03390.2 -07.4111 26283.0
 11 01 2013  05 34  -21.0175 26063.7 -03390.3 -07.4113 26283.3
 11 01 2013  05 35  -21.0177 26063.8 -03390.4 -07.4114 26283.4
 11 01 2013  05 36  -21.0179 26064.2 -03390.5 -07.4116 26283.8
 11 01 2013  05 37  -21.0177 26064.5 -03390.7 -07.4119 26284.2
 11 01 2013  05 38  -21.0176 26064.9 -03390.8 -07.4121 26284.5
 11 01 2013  05 39  -21.0178 26065.0 -03390.9 -07.4121 26284.6
 11 01 2013  05 40  -21.0178 26065.0 -03390.8 -07.4121 26284.6
 11 01 2013  05 41  -21.0176 26064.9 -03390.7 -07.4119 26284.5
 11 01 2013  05 42  -21.0173 26064.4 -03390.5 -07.4115 26284.0
 11 01 2013  05 43  -21.0170 26064.1 -03390.2 -07.4110 26283.6
 11 01 2013  05 44  -21.0165 26064.1 -03390.2 -07.4109 26283.6
 11 01 2013  05 45  -21.0162 26064.2 -03390.2 -07.4109 26283.7
 11 01 2013  05 46  -21.0161 26064.2 -03390.2 -07.4109 26283.7
 11 01 2013  05 47  -21.0159 26064.2 -03390.2 -07.4110 26283.7
 11 01 2013  05 48  -21.0159 26064.1 -03390.2 -07.4110 26283.7
 11 01 2013  05 49  -21.0158 26064.3 -03390.3 -07.4111 26283.8
 11 01 2013  05 50  -21.0157 26064.1 -03390.2 -07.4110 26283.6
 11 01 2013  05 51  -21.0158 26063.8 -03390.1 -07.4107 26283.3
 11 01 2013  05 52  -21.0156 26063.8 -03390.1 -07.4107 26283.4
 11 01 2013  05 53  -21.0155 26063.8 -03390.1 -07.4108 26283.4
 11 01 2013  05 54  -21.0155 26063.7 -03390.1 -07.4107 26283.3
 11 01 2013  05 55  -21.0154 26063.7 -03390.0 -07.4107 26283.3
 11 01 2013  05 56  -21.0153 26063.8 -03390.1 -07.4108 26283.3
 11 01 2013  05 57  -21.0153 26063.7 -03390.1 -07.4108 26283.3
 11 01 2013  05 58  -21.0152 26064.0 -03390.2 -07.4109 26283.5
 11 01 2013  05 59  -21.0151 26064.3 -03390.3 -07.4112 26283.9
 11 01 2013  06 00  -21.0151 26064.6 -03390.5 -07.4114 26284.2
 11 01 2013  06 01  -21.0151 26064.7 -03390.6 -07.4115 26284.3
 11 01 2013  06 02  -21.0152 26064.9 -03390.6 -07.4116 26284.5
 11 01 2013  06 03  -21.0154 26064.9 -03390.6 -07.4116 26284.5
 11 01 2013  06 04  -21.0157 26064.7 -03390.5 -07.4114 26284.3
 11 01 2013  06 05  -21.0157 26064.8 -03390.4 -07.4113 26284.4
 11 01 2013  06 06  -21.0156 26065.0 -03390.5 -07.4113 26284.6
 11 01 2013  06 07  -21.0157 26065.0 -03390.5 -07.4113 26284.6
 11 01 2013  06 08  -21.0157 26065.2 -03390.5 -07.4114 26284.8
 11 01 2013  06 09  -21.0155 26065.2 -03390.5 -07.4113 26284.8
 11 01 2013  06 10  -21.0154 26065.3 -03390.5 -07.4113 26284.9
 11 01 2013  06 11  -21.0152 26065.2 -03390.4 -07.4111 26284.8
 11 01 2013  06 12  -21.0149 26065.2 -03390.4 -07.4110 26284.8
 11 01 2013  06 13  -21.0150 26065.1 -03390.3 -07.4109 26284.7
 11 01 2013  06 14  -21.0151 26065.1 -03390.3 -07.4108 26284.7
 11 01 2013  06 15  -21.0151 26065.3 -03390.3 -07.4109 26284.9
 11 01 2013  06 16  -21.0148 26065.4 -03390.4 -07.4109 26285.0
 11 01 2013  06 17  -21.0147 26065.4 -03390.3 -07.4108 26285.0
 11 01 2013  06 18  -21.0147 26065.4 -03390.3 -07.4108 26285.0
 11 01 2013  06 19  -21.0147 26065.4 -03390.3 -07.4107 26284.9
 11 01 2013  06 20  -21.0146 26065.6 -03390.3 -07.4108 26285.1
 11 01 2013  06 21  -21.0145 26065.6 -03390.3 -07.4107 26285.1
 11 01 2013  06 22  -21.0145 26065.4 -03390.2 -07.4105 26284.9
 11 01 2013  06 23  -21.0145 26065.4 -03390.2 -07.4105 26284.9
 11 01 2013  06 24  -21.0144 26065.5 -03390.2 -07.4106 26285.1
 11 01 2013  06 25  -21.0144 26065.6 -03390.2 -07.4105 26285.1
 11 01 2013  06 26  -21.0143 26065.5 -03390.1 -07.4104 26285.0
 11 01 2013  06 27  -21.0144 26065.6 -03390.2 -07.4105 26285.1
 11 01 2013  06 28  -21.0144 26065.7 -03390.2 -07.4106 26285.2
 11 01 2013  06 29  -21.0142 26065.8 -03390.3 -07.4106 26285.4
 11 01 2013  06 30  -21.0141 26066.0 -03390.3 -07.4107 26285.6
 11 01 2013  06 31  -21.0138 26066.0 -03390.3 -07.4106 26285.6
 11 01 2013  06 32  -21.0136 26066.1 -03390.3 -07.4106 26285.7
 11 01 2013  06 33  -21.0135 26066.2 -03390.3 -07.4107 26285.7
 11 01 2013  06 34  -21.0133 26066.2 -03390.3 -07.4106 26285.8
 11 01 2013  06 35  -21.0134 26066.3 -03390.4 -07.4107 26285.9
 11 01 2013  06 36  -21.0133 26066.4 -03390.4 -07.4107 26285.9
 11 01 2013  06 37  -21.0132 26066.4 -03390.4 -07.4106 26285.9
 11 01 2013  06 38  -21.0132 26066.4 -03390.3 -07.4106 26285.9
 11 01 2013  06 39  -21.0131 26066.4 -03390.3 -07.4106 26286.0
 11 01 2013  06 40  -21.0131 26066.4 -03390.3 -07.4105 26285.9
 11 01 2013  06 41  -21.0131 26066.4 -03390.3 -07.4104 26285.9
 11 01 2013  06 42  -21.0130 26066.3 -03390.2 -07.4104 26285.9
 11 01 2013  06 43  -21.0132 26066.4 -03390.2 -07.4104 26285.9
 11 01 2013  06 44  -21.0132 26066.4 -03390.3 -07.4104 26286.0
 11 01 2013  06 45  -21.0134 26066.6 -03390.3 -07.4105 26286.1
 11 01 2013  06 46  -21.0134 26066.7 -03390.3 -07.4105 26286.3
 11 01 2013  06 47  -21.0133 26066.7 -03390.3 -07.4104 26286.2
 11 01 2013  06 48  -21.0132 26066.7 -03390.2 -07.4103 26286.2
 11 01 2013  06 49  -21.0131 26066.6 -03390.2 -07.4102 26286.1
 11 01 2013  06 50  -21.0131 26066.6 -03390.1 -07.4101 26286.1
 11 01 2013  06 51  -21.0129 26066.5 -03390.1 -07.4100 26286.1
 11 01 2013  06 52  -21.0128 26066.5 -03390.0 -07.4099 26286.0
 11 01 2013  06 53  -21.0126 26066.5 -03390.0 -07.4098 26286.0
 11 01 2013  06 54  -21.0126 26066.4 -03390.0 -07.4098 26285.9
 11 01 2013  06 55  -21.0125 26066.4 -03390.0 -07.4098 26285.9
 11 01 2013  06 56  -21.0124 26066.3 -03389.9 -07.4097 26285.8
 11 01 2013  06 57  -21.0124 26066.3 -03389.9 -07.4096 26285.8
 11 01 2013  06 58  -21.0123 26066.4 -03389.9 -07.4097 26285.9
 11 01 2013  06 59  -21.0124 26066.4 -03389.9 -07.4097 26285.9
 11 01 2013  07 00  -21.0125 26066.3 -03389.9 -07.4096 26285.8
 11 01 2013  07 01  -21.0127 26066.3 -03389.8 -07.4095 26285.8
 11 01 2013  07 02  -21.0128 26066.2 -03389.8 -07.4095 26285.7
 11 01 2013  07 03  -21.0129 26066.2 -03389.8 -07.4094 26285.7
 11 01 2013  07 04  -21.0130 26066.2 -03389.8 -07.4094 26285.7
 11 01 2013  07 05  -21.0129 26066.1 -03389.7 -07.4093 26285.6
 11 01 2013  07 06  -21.0130 26066.1 -03389.7 -07.4093 26285.6
 11 01 2013  07 07  -21.0130 26066.3 -03389.8 -07.4094 26285.7
 11 01 2013  07 08  -21.0133 26066.4 -03389.8 -07.4095 26285.9
 11 01 2013  07 09  -21.0134 26066.6 -03389.9 -07.4096 26286.1
 11 01 2013  07 10  -21.0133 26066.5 -03389.9 -07.4095 26286.0
 11 01 2013  07 11  -21.0133 26066.5 -03389.8 -07.4094 26286.0
 11 01 2013  07 12  -21.0133 26066.4 -03389.7 -07.4093 26285.8
 11 01 2013  07 13  -21.0135 26066.3 -03389.7 -07.4092 26285.8
 11 01 2013  07 14  -21.0134 26066.1 -03389.6 -07.4090 26285.6
 11 01 2013  07 15  -21.0134 26065.9 -03389.5 -07.4089 26285.3
 11 01 2013  07 16  -21.0134 26065.8 -03389.4 -07.4087 26285.2
 11 01 2013  07 17  -21.0134 26065.8 -03389.4 -07.4087 26285.2
 11 01 2013  07 18  -21.0134 26065.8 -03389.4 -07.4088 26285.2
 11 01 2013  07 19  -21.0134 26066.0 -03389.5 -07.4090 26285.4
 11 01 2013  07 20  -21.0132 26065.9 -03389.5 -07.4090 26285.3
 11 01 2013  07 21  -21.0130 26066.0 -03389.6 -07.4091 26285.4
 11 01 2013  07 22  -21.0127 26065.8 -03389.5 -07.4090 26285.3
 11 01 2013  07 23  -21.0126 26065.7 -03389.4 -07.4088 26285.1
 11 01 2013  07 24  -21.0125 26065.6 -03389.4 -07.4088 26285.1
 11 01 2013  07 25  -21.0124 26065.6 -03389.4 -07.4088 26285.0
 11 01 2013  07 26  -21.0122 26065.6 -03389.4 -07.4088 26285.0
 11 01 2013  07 27  -21.0120 26065.5 -03389.4 -07.4088 26285.0
 11 01 2013  07 28  -21.0120 26065.5 -03389.4 -07.4089 26285.0
 11 01 2013  07 29  -21.0120 26065.5 -03389.4 -07.4089 26285.0
 11 01 2013  07 30  -21.0120 26065.6 -03389.5 -07.4089 26285.0
 11 01 2013  07 31  -21.0119 26065.7 -03389.6 -07.4091 26285.2
 11 01 2013  07 32  -21.0118 26065.8 -03389.6 -07.4092 26285.3
 11 01 2013  07 33  -21.0116 26065.9 -03389.7 -07.4093 26285.3
 11 01 2013  07 34  -21.0115 26066.0 -03389.8 -07.4094 26285.5
 11 01 2013  07 35  -21.0114 26066.1 -03389.8 -07.4095 26285.6
 11 01 2013  07 36  -21.0115 26066.1 -03389.8 -07.4095 26285.6
 11 01 2013  07 37  -21.0115 26066.1 -03389.8 -07.4095 26285.6
 11 01 2013  07 38  -21.0115 26066.1 -03389.8 -07.4095 26285.6
 11 01 2013  07 39  -21.0115 26066.1 -03389.8 -07.4095 26285.6
 11 01 2013  07 40  -21.0115 26066.1 -03389.8 -07.4095 26285.6
 11 01 2013  07 41  -21.0116 26066.0 -03389.8 -07.4095 26285.5
 11 01 2013  07 42  -21.0117 26066.0 -03389.8 -07.4095 26285.5
 11 01 2013  07 43  -21.0116 26065.9 -03389.8 -07.4095 26285.4
 11 01 2013  07 44  -21.0117 26066.1 -03389.8 -07.4096 26285.6
 11 01 2013  07 45  -21.0118 26066.2 -03389.9 -07.4098 26285.7
 11 01 2013  07 46  -21.0117 26066.3 -03390.0 -07.4099 26285.8
 11 01 2013  07 47  -21.0116 26066.3 -03390.0 -07.4099 26285.8
 11 01 2013  07 48  -21.0117 26066.4 -03390.1 -07.4101 26286.0
 11 01 2013  07 49  -21.0118 26066.4 -03390.1 -07.4101 26286.0
 11 01 2013  07 50  -21.0118 26066.5 -03390.1 -07.4101 26286.0
 11 01 2013  07 51  -21.0118 26066.5 -03390.1 -07.4101 26286.0
 11 01 2013  07 52  -21.0118 26066.4 -03390.1 -07.4100 26285.9
 11 01 2013  07 53  -21.0120 26066.3 -03390.0 -07.4099 26285.8
 11 01 2013  07 54  -21.0120 26066.2 -03390.0 -07.4099 26285.7
 11 01 2013  07 55  -21.0120 26066.0 -03389.9 -07.4098 26285.5
 11 01 2013  07 56  -21.0121 26065.9 -03389.9 -07.4097 26285.4
 11 01 2013  07 57  -21.0123 26065.8 -03389.8 -07.4096 26285.3
 11 01 2013  07 58  -21.0124 26065.7 -03389.8 -07.4096 26285.2
 11 01 2013  07 59  -21.0125 26065.6 -03389.7 -07.4095 26285.1
 11 01 2013  08 00  -21.0127 26065.5 -03389.7 -07.4095 26285.0
 11 01 2013  08 01  -21.0129 26065.5 -03389.8 -07.4096 26285.0
 11 01 2013  08 02  -21.0131 26065.5 -03389.8 -07.4096 26285.0
 11 01 2013  08 03  -21.0132 26065.6 -03389.9 -07.4098 26285.1
 11 01 2013  08 04  -21.0132 26065.6 -03389.9 -07.4098 26285.1
 11 01 2013  08 05  -21.0135 26065.7 -03389.9 -07.4099 26285.2
 11 01 2013  08 06  -21.0135 26065.6 -03389.9 -07.4099 26285.1
 11 01 2013  08 07  -21.0136 26065.5 -03389.9 -07.4098 26285.1
 11 01 2013  08 08  -21.0137 26065.6 -03389.9 -07.4099 26285.1
 11 01 2013  08 09  -21.0138 26065.8 -03390.0 -07.4100 26285.3
 11 01 2013  08 10  -21.0139 26065.9 -03390.1 -07.4101 26285.4
 11 01 2013  08 11  -21.0141 26065.9 -03390.1 -07.4102 26285.4
 11 01 2013  08 12  -21.0144 26065.9 -03390.1 -07.4103 26285.5
 11 01 2013  08 13  -21.0144 26066.0 -03390.2 -07.4103 26285.5
 11 01 2013  08 14  -21.0145 26066.1 -03390.2 -07.4104 26285.6
 11 01 2013  08 15  -21.0144 26066.0 -03390.2 -07.4103 26285.6
 11 01 2013  08 16  -21.0145 26066.1 -03390.2 -07.4103 26285.6
 11 01 2013  08 17  -21.0145 26066.1 -03390.2 -07.4103 26285.6
 11 01 2013  08 18  -21.0144 26066.1 -03390.1 -07.4102 26285.6
 11 01 2013  08 19  -21.0144 26065.9 -03390.1 -07.4101 26285.5
 11 01 2013  08 20  -21.0147 26066.0 -03390.1 -07.4101 26285.5
 11 01 2013  08 21  -21.0145 26065.9 -03390.0 -07.4099 26285.4
 11 01 2013  08 22  -21.0143 26065.6 -03389.8 -07.4097 26285.1
 11 01 2013  08 23  -21.0142 26065.7 -03389.8 -07.4096 26285.2
 11 01 2013  08 24  -21.0140 26065.5 -03389.7 -07.4095 26285.0
 11 01 2013  08 25  -21.0142 26065.5 -03389.6 -07.4093 26285.0
 11 01 2013  08 26  -21.0142 26065.6 -03389.7 -07.4095 26285.1
 11 01 2013  08 27  -21.0142 26065.5 -03389.8 -07.4096 26285.0
 11 01 2013  08 28  -21.0145 26065.6 -03389.8 -07.4096 26285.1
 11 01 2013  08 29  -21.0145 26065.8 -03389.9 -07.4098 26285.3
 11 01 2013  08 30  -21.0145 26065.7 -03389.9 -07.4097 26285.2
 11 01 2013  08 31  -21.0147 26065.8 -03389.8 -07.4097 26285.3
 11 01 2013  08 32  -21.0149 26065.7 -03389.8 -07.4095 26285.2
 11 01 2013  08 33  -21.0149 26065.7 -03389.7 -07.4095 26285.2
 11 01 2013  08 34  -21.0148 26065.6 -03389.7 -07.4093 26285.1
 11 01 2013  08 35  -21.0151 26065.6 -03389.6 -07.4092 26285.1
 11 01 2013  08 36  -21.0154 26065.8 -03389.7 -07.4093 26285.3
 11 01 2013  08 37  -21.0155 26065.7 -03389.6 -07.4092 26285.1
 11 01 2013  08 38  -21.0157 26065.6 -03389.6 -07.4091 26285.1
 11 01 2013  08 39  -21.0159 26065.6 -03389.5 -07.4090 26285.1
 11 01 2013  08 40  -21.0162 26065.7 -03389.5 -07.4089 26285.1
 11 01 2013  08 41  -21.0164 26065.8 -03389.5 -07.4089 26285.2
 11 01 2013  08 42  -21.0166 26065.8 -03389.4 -07.4088 26285.3
 11 01 2013  08 43  -21.0168 26065.9 -03389.5 -07.4089 26285.4
 11 01 2013  08 44  -21.0171 26065.9 -03389.4 -07.4088 26285.4
 11 01 2013  08 45  -21.0174 26065.9 -03389.4 -07.4087 26285.3
 11 01 2013  08 46  -21.0178 26065.9 -03389.4 -07.4086 26285.3
 11 01 2013  08 47  -21.0180 26066.0 -03389.4 -07.4086 26285.4
 11 01 2013  08 48  -21.0180 26066.0 -03389.3 -07.4085 26285.4
 11 01 2013  08 49  -21.0182 26066.0 -03389.3 -07.4084 26285.4
 11 01 2013  08 50  -21.0185 26066.1 -03389.3 -07.4084 26285.5
 11 01 2013  08 51  -21.0186 26066.1 -03389.2 -07.4083 26285.5
 11 01 2013  08 52  -21.0188 26066.1 -03389.2 -07.4082 26285.5
 11 01 2013  08 53  -21.0188 26066.1 -03389.2 -07.4081 26285.5
 11 01 2013  08 54  -21.0189 26066.2 -03389.2 -07.4081 26285.6
 11 01 2013  08 55  -21.0192 26066.2 -03389.2 -07.4081 26285.6
 11 01 2013  08 56  -21.0194 26066.3 -03389.2 -07.4081 26285.7
 11 01 2013  08 57  -21.0196 26066.4 -03389.1 -07.4080 26285.8
 11 01 2013  08 58  -21.0199 26066.7 -03389.2 -07.4079 26286.1
 11 01 2013  08 59  -21.0204 26066.8 -03389.3 -07.4081 26286.3
 11 01 2013  09 00  -21.0206 26066.9 -03389.2 -07.4081 26286.3
 11 01 2013  09 01  -21.0208 26067.0 -03389.2 -07.4079 26286.4
 11 01 2013  09 02  -21.0213 26067.1 -03389.1 -07.4078 26286.5
 11 01 2013  09 03  -21.0217 26067.1 -03389.1 -07.4076 26286.5
 11 01 2013  09 04  -21.0219 26067.1 -03388.9 -07.4073 26286.5
 11 01 2013  09 05  -21.0221 26067.0 -03388.8 -07.4070 26286.4
 11 01 2013  09 06  -21.0224 26067.0 -03388.6 -07.4066 26286.3
 11 01 2013  09 07  -21.0230 26067.0 -03388.5 -07.4063 26286.3
 11 01 2013  09 08  -21.0234 26066.9 -03388.3 -07.4060 26286.2
 11 01 2013  09 09  -21.0238 26066.7 -03388.0 -07.4055 26286.0
 11 01 2013  09 10  -21.0244 26066.7 -03387.9 -07.4052 26286.0
 11 01 2013  09 11  -21.0252 26066.8 -03387.8 -07.4050 26286.0
 11 01 2013  09 12  -21.0263 26066.9 -03387.7 -07.4047 26286.1
 11 01 2013  09 13  -21.0268 26066.9 -03387.5 -07.4043 26286.1
 11 01 2013  09 14  -21.0275 26066.9 -03387.3 -07.4039 26286.1
 11 01 2013  09 15  -21.0280 26066.9 -03387.1 -07.4034 26286.1
 11 01 2013  09 16  -21.0284 26066.8 -03386.8 -07.4028 26285.9
 11 01 2013  09 17  -21.0289 26066.6 -03386.5 -07.4022 26285.7
 11 01 2013  09 18  -21.0289 26066.5 -03386.2 -07.4016 26285.5
 11 01 2013  09 19  -21.0288 26066.4 -03385.9 -07.4010 26285.4
 11 01 2013  09 20  -21.0288 26066.3 -03385.7 -07.4006 26285.3
 11 01 2013  09 21  -21.0291 26066.4 -03385.6 -07.4004 26285.4
 11 01 2013  09 22  -21.0292 26066.4 -03385.4 -07.4000 26285.3
 11 01 2013  09 23  -21.0296 26066.4 -03385.3 -07.3997 26285.3
 11 01 2013  09 24  -21.0301 26066.8 -03385.3 -07.3996 26285.7
 11 01 2013  09 25  -21.0304 26066.8 -03385.2 -07.3994 26285.7
 11 01 2013  09 26  -21.0310 26067.0 -03385.1 -07.3992 26285.9
 11 01 2013  09 27  -21.0316 26067.5 -03385.2 -07.3991 26286.4
 11 01 2013  09 28  -21.0323 26067.8 -03385.1 -07.3989 26286.6
 11 01 2013  09 29  -21.0329 26067.8 -03385.0 -07.3985 26286.7
 11 01 2013  09 30  -21.0335 26067.8 -03384.7 -07.3981 26286.6
 11 01 2013  09 31  -21.0336 26067.9 -03384.6 -07.3977 26286.7
 11 01 2013  09 32  -21.0340 26067.7 -03384.2 -07.3970 26286.5
 11 01 2013  09 33  -21.0347 26068.2 -03384.2 -07.3969 26286.9
 11 01 2013  09 34  -21.0350 26068.3 -03384.1 -07.3966 26287.1
 11 01 2013  09 35  -21.0352 26068.0 -03383.8 -07.3960 26286.7
 11 01 2013  09 36  -21.0349 26067.7 -03383.4 -07.3952 26286.3
 11 01 2013  09 37  -21.0356 26068.1 -03383.4 -07.3951 26286.8
 11 01 2013  09 38  -21.0360 26068.2 -03383.3 -07.3949 26286.8
 11 01 2013  09 39  -21.0364 26068.4 -03383.3 -07.3947 26287.1
 11 01 2013  09 40  -21.0360 26068.2 -03382.9 -07.3941 26286.8
 11 01 2013  09 41  -21.0353 26068.5 -03382.8 -07.3938 26287.1
 11 01 2013  09 42  -21.0362 26068.3 -03382.7 -07.3935 26286.8
 11 01 2013  09 43  -21.0362 26068.1 -03382.4 -07.3929 26286.7
 11 01 2013  09 44  -21.0362 26068.8 -03382.6 -07.3932 26287.3
 11 01 2013  09 45  -21.0363 26069.1 -03382.6 -07.3930 26287.6
 11 01 2013  09 46  -21.0364 26068.4 -03382.2 -07.3924 26286.9
 11 01 2013  09 47  -21.0351 26068.4 -03381.9 -07.3918 26286.8
 11 01 2013  09 48  -21.0343 26068.6 -03381.9 -07.3917 26287.1
 11 01 2013  09 49  -21.0340 26068.9 -03382.0 -07.3919 26287.4
 11 01 2013  09 50  -21.0343 26069.0 -03382.0 -07.3918 26287.4
 11 01 2013  09 51  -21.0341 26069.3 -03382.0 -07.3918 26287.7
 11 01 2013  09 52  -21.0331 26069.6 -03382.0 -07.3917 26288.0
 11 01 2013  09 53  -21.0336 26069.8 -03382.1 -07.3917 26288.3
 11 01 2013  09 54  -21.0334 26070.1 -03382.1 -07.3917 26288.6
 11 01 2013  09 55  -21.0331 26070.8 -03382.2 -07.3917 26289.3
 11 01 2013  09 56  -21.0334 26071.8 -03382.5 -07.3921 26290.3
 11 01 2013  09 57  -21.0339 26072.2 -03382.5 -07.3920 26290.7
 11 01 2013  09 58  -21.0343 26072.7 -03382.4 -07.3916 26291.2
 11 01 2013  09 59  -21.0339 26073.0 -03382.3 -07.3913 26291.4
 11 01 2013  10 00  -21.0342 26073.0 -03382.0 -07.3906 26291.5
 11 01 2013  10 01  -21.0338 26072.9 -03381.7 -07.3900 26291.3
 11 01 2013  10 02  -21.0338 26072.9 -03381.4 -07.3894 26291.2
 11 01 2013  10 03  -21.0330 26073.0 -03381.2 -07.3889 26291.3
 11 01 2013  10 04  -21.0324 26073.4 -03381.2 -07.3889 26291.7
 11 01 2013  10 05  -21.0327 26073.6 -03381.2 -07.3888 26291.9
 11 01 2013  10 06  -21.0326 26073.8 -03381.2 -07.3887 26292.2
 11 01 2013  10 07  -21.0322 26074.2 -03381.2 -07.3886 26292.5
 11 01 2013  10 08  -21.0320 26074.5 -03381.1 -07.3884 26292.8
 11 01 2013  10 09  -21.0319 26074.4 -03380.9 -07.3879 26292.6
 11 01 2013  10 10  -21.0317 26074.9 -03380.9 -07.3877 26293.2
 11 01 2013  10 11  -21.0315 26075.4 -03380.9 -07.3876 26293.7
 11 01 2013  10 12  -21.0318 26075.8 -03380.8 -07.3873 26294.1
 11 01 2013  10 13  -21.0314 26076.1 -03380.6 -07.3868 26294.3
 11 01 2013  10 14  -21.0310 26076.3 -03380.4 -07.3863 26294.5
 11 01 2013  10 15  -21.0302 26076.0 -03380.0 -07.3855 26294.1
 11 01 2013  10 16  -21.0299 26075.9 -03379.7 -07.3849 26294.0
 11 01 2013  10 17  -21.0294 26076.5 -03379.6 -07.3846 26294.6
 11 01 2013  10 18  -21.0293 26076.8 -03379.5 -07.3843 26294.9
 11 01 2013  10 19  -21.0287 26076.6 -03379.2 -07.3836 26294.6
 11 01 2013  10 20  -21.0282 26076.5 -03378.9 -07.3829 26294.5
 11 01 2013  10 21  -21.0274 26076.3 -03378.5 -07.3822 26294.2
 11 01 2013  10 22  -21.0271 26076.4 -03378.3 -07.3818 26294.3
 11 01 2013  10 23  -21.0267 26076.6 -03378.1 -07.3814 26294.5
 11 01 2013  10 24  -21.0263 26076.7 -03378.0 -07.3810 26294.6
 11 01 2013  10 25  -21.0263 26077.0 -03377.8 -07.3806 26294.8
 11 01 2013  10 26  -21.0258 26077.3 -03377.7 -07.3802 26295.1
 11 01 2013  10 27  -21.0257 26077.4 -03377.5 -07.3797 26295.2
 11 01 2013  10 28  -21.0249 26077.5 -03377.2 -07.3791 26295.3
 11 01 2013  10 29  -21.0242 26077.4 -03376.9 -07.3785 26295.2
 11 01 2013  10 30  -21.0243 26077.6 -03376.7 -07.3781 26295.3
 11 01 2013  10 31  -21.0240 26077.9 -03376.7 -07.3778 26295.6
 11 01 2013  10 32  -21.0235 26077.7 -03376.3 -07.3771 26295.4
 11 01 2013  10 33  -21.0234 26077.8 -03376.1 -07.3766 26295.5
 11 01 2013  10 34  -21.0239 26078.4 -03376.2 -07.3766 26296.0
 11 01 2013  10 35  -21.0238 26078.4 -03375.9 -07.3761 26296.0
 11 01 2013  10 36  -21.0231 26078.2 -03375.6 -07.3754 26295.8
 11 01 2013  10 37  -21.0226 26078.2 -03375.3 -07.3748 26295.7
 11 01 2013  10 38  -21.0222 26078.2 -03375.1 -07.3744 26295.7
 11 01 2013  10 39  -21.0220 26078.4 -03375.0 -07.3740 26295.9
 11 01 2013  10 40  -21.0221 26078.7 -03374.9 -07.3738 26296.2
 11 01 2013  10 41  -21.0224 26079.0 -03374.8 -07.3734 26296.4
 11 01 2013  10 42  -21.0221 26079.0 -03374.5 -07.3729 26296.5
 11 01 2013  10 43  -21.0218 26079.0 -03374.3 -07.3723 26296.4
 11 01 2013  10 44  -21.0211 26078.8 -03373.9 -07.3717 26296.1
 11 01 2013  10 45  -21.0204 26078.5 -03373.6 -07.3710 26295.8
 11 01 2013  10 46  -21.0197 26078.3 -03373.3 -07.3704 26295.5
 11 01 2013  10 47  -21.0191 26077.9 -03373.0 -07.3699 26295.2
 11 01 2013  10 48  -21.0185 26077.9 -03372.9 -07.3696 26295.1
 11 01 2013  10 49  -21.0178 26078.1 -03372.8 -07.3695 26295.3
 11 01 2013  10 50  -21.0173 26078.3 -03372.8 -07.3693 26295.5
 11 01 2013  10 51  -21.0171 26078.4 -03372.7 -07.3691 26295.6
 11 01 2013  10 52  -21.0166 26078.6 -03372.5 -07.3687 26295.7
 11 01 2013  10 53  -21.0161 26078.9 -03372.4 -07.3684 26296.0
 11 01 2013  10 54  -21.0159 26079.1 -03372.3 -07.3681 26296.3
 11 01 2013  10 55  -21.0158 26079.5 -03372.2 -07.3678 26296.6
 11 01 2013  10 56  -21.0153 26079.5 -03372.0 -07.3673 26296.6
 11 01 2013  10 57  -21.0144 26079.7 -03371.8 -07.3668 26296.7
 11 01 2013  10 58  -21.0137 26079.2 -03371.4 -07.3661 26296.3
 11 01 2013  10 59  -21.0128 26079.0 -03371.2 -07.3656 26296.0
 11 01 2013  11 00  -21.0118 26079.3 -03371.1 -07.3654 26296.3
 11 01 2013  11 01  -21.0116 26079.4 -03371.1 -07.3653 26296.4
 11 01 2013  11 02  -21.0114 26079.6 -03371.0 -07.3651 26296.5
 11 01 2013  11 03  -21.0108 26079.6 -03370.9 -07.3648 26296.6
 11 01 2013  11 04  -21.0102 26079.8 -03370.8 -07.3647 26296.8
 11 01 2013  11 05  -21.0094 26079.8 -03370.6 -07.3643 26296.7
 11 01 2013  11 06  -21.0088 26079.6 -03370.4 -07.3639 26296.4
 11 01 2013  11 07  -21.0082 26079.4 -03370.3 -07.3636 26296.3
 11 01 2013  11 08  -21.0077 26079.6 -03370.3 -07.3636 26296.4
 11 01 2013  11 09  -21.0070 26079.7 -03370.3 -07.3636 26296.6
 11 01 2013  11 10  -21.0066 26079.8 -03370.3 -07.3636 26296.7
 11 01 2013  11 11  -21.0059 26080.0 -03370.4 -07.3636 26296.9
 11 01 2013  11 12  -21.0055 26080.1 -03370.4 -07.3636 26297.0
 11 01 2013  11 13  -21.0051 26080.1 -03370.3 -07.3635 26297.0
 11 01 2013  11 14  -21.0046 26080.3 -03370.3 -07.3635 26297.1
 11 01 2013  11 15  -21.0044 26080.5 -03370.5 -07.3637 26297.4
 11 01 2013  11 16  -21.0045 26080.6 -03370.5 -07.3636 26297.5
 11 01 2013  11 17  -21.0041 26081.1 -03370.6 -07.3638 26298.0
 11 01 2013  11 18  -21.0034 26081.3 -03370.6 -07.3638 26298.2
 11 01 2013  11 19  -21.0032 26081.2 -03370.5 -07.3636 26298.1
 11 01 2013  11 20  -21.0024 26081.1 -03370.5 -07.3635 26297.9
 11 01 2013  11 21  -21.0019 26081.1 -03370.5 -07.3635 26297.9
 11 01 2013  11 22  -21.0015 26081.4 -03370.6 -07.3637 26298.3
 11 01 2013  11 23  -21.0007 26081.7 -03370.7 -07.3640 26298.6
 11 01 2013  11 24  -21.0004 26081.9 -03370.8 -07.3641 26298.8
 11 01 2013  11 25  -21.0003 26082.4 -03371.0 -07.3644 26299.4
 11 01 2013  11 26  -20.9998 26082.9 -03371.1 -07.3645 26299.8
 11 01 2013  11 27  -20.9992 26083.0 -03371.1 -07.3644 26300.0
 11 01 2013  11 28  -20.9987 26083.0 -03371.1 -07.3643 26300.0
 11 01 2013  11 29  -20.9982 26083.1 -03371.1 -07.3643 26300.0
 11 01 2013  11 30  -20.9978 26083.5 -03371.2 -07.3645 26300.5
 11 01 2013  11 31  -20.9971 26083.7 -03371.3 -07.3645 26300.7
 11 01 2013  11 32  -20.9965 26083.8 -03371.3 -07.3645 26300.8
 11 01 2013  11 33  -20.9960 26083.8 -03371.3 -07.3645 26300.8
 11 01 2013  11 34  -20.9955 26083.7 -03371.2 -07.3643 26300.7
 11 01 2013  11 35  -20.9950 26083.8 -03371.2 -07.3643 26300.8
 11 01 2013  11 36  -20.9944 26083.9 -03371.2 -07.3643 26300.8
 11 01 2013  11 37  -20.9942 26084.1 -03371.3 -07.3644 26301.1
 11 01 2013  11 38  -20.9938 26084.7 -03371.5 -07.3648 26301.7
 11 01 2013  11 39  -20.9938 26084.9 -03371.6 -07.3648 26301.9
 11 01 2013  11 40  -20.9935 26085.1 -03371.6 -07.3648 26302.1
 11 01 2013  11 41  -20.9930 26085.2 -03371.5 -07.3647 26302.1
 11 01 2013  11 42  -20.9924 26085.1 -03371.5 -07.3646 26302.1
 11 01 2013  11 43  -20.9922 26085.3 -03371.6 -07.3647 26302.3
 11 01 2013  11 44  -20.9919 26085.7 -03371.7 -07.3649 26302.7
 11 01 2013  11 45  -20.9915 26085.9 -03371.8 -07.3650 26302.9
 11 01 2013  11 46  -20.9910 26085.7 -03371.7 -07.3650 26302.7
 11 01 2013  11 47  -20.9907 26085.4 -03371.6 -07.3648 26302.3
 11 01 2013  11 48  -20.9900 26085.3 -03371.6 -07.3648 26302.3
 11 01 2013  11 49  -20.9897 26085.2 -03371.6 -07.3648 26302.2
 11 01 2013  11 50  -20.9898 26085.5 -03371.7 -07.3650 26302.5
 11 01 2013  11 51  -20.9899 26085.8 -03371.9 -07.3652 26302.8
 11 01 2013  11 52  -20.9900 26086.1 -03372.0 -07.3653 26303.1
 11 01 2013  11 53  -20.9895 26086.0 -03371.8 -07.3650 26303.1
 11 01 2013  11 54  -20.9892 26086.1 -03371.7 -07.3648 26303.1
 11 01 2013  11 55  -20.9895 26086.1 -03371.7 -07.3647 26303.1
 11 01 2013  11 56  -20.9899 26086.3 -03371.7 -07.3647 26303.3
 11 01 2013  11 57  -20.9895 26086.2 -03371.6 -07.3646 26303.2
 11 01 2013  11 58  -20.9889 26085.7 -03371.4 -07.3643 26302.6
 11 01 2013  11 59  -20.9885 26085.6 -03371.5 -07.3644 26302.6
 11 01 2013  12 00  -20.9879 26085.5 -03371.6 -07.3647 26302.5
 11 01 2013  12 01  -20.9870 26085.4 -03371.7 -07.3650 26302.4
 11 01 2013  12 02  -20.9865 26085.3 -03371.8 -07.3653 26302.3
 11 01 2013  12 03  -20.9863 26085.1 -03372.0 -07.3657 26302.2
 11 01 2013  12 04  -20.9860 26085.0 -03372.2 -07.3661 26302.0
 11 01 2013  12 05  -20.9860 26085.0 -03372.4 -07.3666 26302.1
 11 01 2013  12 06  -20.9859 26085.1 -03372.6 -07.3670 26302.2
 11 01 2013  12 07  -20.9856 26085.4 -03372.9 -07.3675 26302.5
 11 01 2013  12 08  -20.9889 26085.1 -03372.7 -07.3671 26302.2
 11 01 2013  12 09  -20.9895 26084.7 -03372.5 -07.3670 26301.8
 11 01 2013  12 10  -20.9896 26084.4 -03372.4 -07.3669 26301.5
 11 01 2013  12 11  -20.9864 26084.7 -03372.7 -07.3673 26301.8
 11 01 2013  12 12  -20.9855 26084.8 -03372.9 -07.3678 26302.0
 11 01 2013  12 13  -20.9860 26084.7 -03373.0 -07.3679 26301.9
 11 01 2013  12 14  -20.9862 26085.0 -03373.2 -07.3682 26302.2
 11 01 2013  12 15  -20.9865 26085.2 -03373.3 -07.3684 26302.4
 11 01 2013  12 16  -20.9867 26085.2 -03373.2 -07.3684 26302.4
 11 01 2013  12 17  -20.9867 26085.0 -03373.1 -07.3682 26302.2
 11 01 2013  12 18  -20.9870 26085.0 -03373.2 -07.3683 26302.2
 11 01 2013  12 19  -20.9875 26085.3 -03373.4 -07.3686 26302.5
 11 01 2013  12 20  -20.9879 26085.6 -03373.5 -07.3689 26302.8
 11 01 2013  12 21  -20.9881 26085.7 -03373.6 -07.3690 26303.0
 11 01 2013  12 22  -20.9878 26085.6 -03373.5 -07.3688 26302.8
 11 01 2013  12 23  -20.9880 26085.3 -03373.4 -07.3688 26302.6
 11 01 2013  12 24  -20.9883 26085.7 -03373.7 -07.3693 26303.0
 11 01 2013  12 25  -20.9889 26086.0 -03373.9 -07.3697 26303.3
 11 01 2013  12 26  -20.9894 26086.4 -03374.1 -07.3699 26303.8
 11 01 2013  12 27  -20.9897 26086.7 -03374.2 -07.3700 26304.1
 11 01 2013  12 28  -20.9902 26086.7 -03374.1 -07.3699 26304.0
 11 01 2013  12 29  -20.9908 26086.5 -03374.1 -07.3698 26303.8
 11 01 2013  12 30  -20.9913 26086.3 -03373.9 -07.3695 26303.5
 11 01 2013  12 31  -20.9922 26086.5 -03374.0 -07.3696 26303.8
 11 01 2013  12 32  -20.9928 26086.9 -03374.1 -07.3697 26304.2
 11 01 2013  12 33  -20.9935 26087.1 -03374.0 -07.3695 26304.4
 11 01 2013  12 34  -20.9940 26087.2 -03373.8 -07.3691 26304.5
 11 01 2013  12 35  -20.9943 26087.2 -03373.6 -07.3686 26304.4
 11 01 2013  12 36  -20.9949 26087.4 -03373.5 -07.3684 26304.7
 11 01 2013  12 37  -20.9956 26087.6 -03373.4 -07.3680 26304.8
 11 01 2013  12 38  -20.9961 26087.5 -03373.1 -07.3674 26304.7
 11 01 2013  12 39  -20.9970 26087.6 -03372.9 -07.3669 26304.7
 11 01 2013  12 40  -20.9977 26087.4 -03372.6 -07.3663 26304.5
 11 01 2013  12 41  -20.9981 26087.3 -03372.4 -07.3659 26304.4
 11 01 2013  12 42  -20.9985 26087.1 -03372.1 -07.3654 26304.1
 11 01 2013  12 43  -20.9989 26087.1 -03372.0 -07.3652 26304.1
 11 01 2013  12 44  -20.9987 26087.1 -03371.9 -07.3650 26304.1
 11 01 2013  12 45  -20.9985 26087.0 -03371.9 -07.3650 26304.1
 11 01 2013  12 46  -20.9987 26087.0 -03371.9 -07.3650 26304.0
 11 01 2013  12 47  -20.9989 26087.1 -03372.0 -07.3652 26304.1
 11 01 2013  12 48  -20.9989 26087.2 -03372.2 -07.3655 26304.2
 11 01 2013  12 49  -20.9991 26087.2 -03372.3 -07.3658 26304.3
 11 01 2013  12 50  -20.9992 26087.2 -03372.4 -07.3661 26304.3
 11 01 2013  12 51  -20.9994 26087.3 -03372.6 -07.3665 26304.4
 11 01 2013  12 52  -20.9993 26087.2 -03372.7 -07.3667 26304.3
 11 01 2013  12 53  -20.9991 26087.1 -03372.9 -07.3671 26304.3
 11 01 2013  12 54  -20.9991 26087.3 -03373.2 -07.3676 26304.4
 11 01 2013  12 55  -20.9995 26087.7 -03373.6 -07.3684 26305.0
 11 01 2013  12 56  -21.0001 26088.0 -03373.8 -07.3689 26305.2
 11 01 2013  12 57  -21.0007 26088.3 -03374.1 -07.3694 26305.6
 11 01 2013  12 58  -21.0012 26088.5 -03374.4 -07.3699 26305.9
 11 01 2013  12 59  -21.0017 26089.1 -03374.8 -07.3706 26306.4
 11 01 2013  13 00  -21.0025 26089.4 -03375.0 -07.3709 26306.8
 11 01 2013  13 01  -21.0033 26089.4 -03375.0 -07.3711 26306.8
 11 01 2013  13 02  -21.0043 26089.4 -03375.1 -07.3713 26306.8
 11 01 2013  13 03  -21.0057 26089.6 -03375.3 -07.3716 26307.0
 11 01 2013  13 04  -21.0071 26090.0 -03375.5 -07.3719 26307.5
 11 01 2013  13 05  -21.0085 26090.4 -03375.6 -07.3721 26307.9
 11 01 2013  13 06  -21.0097 26090.6 -03375.6 -07.3720 26308.1
 11 01 2013  13 07  -21.0110 26090.8 -03375.6 -07.3719 26308.3
 11 01 2013  13 08  -21.0121 26090.9 -03375.5 -07.3717 26308.3
 11 01 2013  13 09  -21.0136 26091.1 -03375.6 -07.3717 26308.6
 11 01 2013  13 10  -21.0148 26091.5 -03375.6 -07.3717 26308.9
 11 01 2013  13 11  -21.0157 26091.8 -03375.6 -07.3716 26309.3
 11 01 2013  13 12  -21.0163 26092.1 -03375.5 -07.3714 26309.5
 11 01 2013  13 13  -21.0170 26092.2 -03375.5 -07.3712 26309.6
 11 01 2013  13 14  -21.0176 26092.3 -03375.4 -07.3711 26309.7
 11 01 2013  13 15  -21.0182 26092.7 -03375.5 -07.3712 26310.1
 11 01 2013  13 16  -21.0191 26093.1 -03375.7 -07.3715 26310.5
 11 01 2013  13 17  -21.0197 26093.7 -03375.9 -07.3717 26311.2
 11 01 2013  13 18  -21.0204 26094.2 -03376.0 -07.3718 26311.7
 11 01 2013  13 19  -21.0210 26094.3 -03375.9 -07.3715 26311.7
 11 01 2013  13 20  -21.0213 26094.3 -03375.8 -07.3713 26311.7
 11 01 2013  13 21  -21.0218 26094.6 -03375.9 -07.3714 26312.1
 11 01 2013  13 22  -21.0223 26095.1 -03375.9 -07.3714 26312.5
 11 01 2013  13 23  -21.0229 26095.5 -03376.0 -07.3714 26313.0
 11 01 2013  13 24  -21.0236 26096.0 -03376.1 -07.3714 26313.5
 11 01 2013  13 25  -21.0244 26096.9 -03376.2 -07.3715 26314.4
 11 01 2013  13 26  -21.0270 26097.5 -03376.2 -07.3714 26315.0
 11 01 2013  13 27  -21.0290 26098.1 -03376.2 -07.3711 26315.6
 11 01 2013  13 28  -21.0293 26098.7 -03376.0 -07.3706 26316.2
 11 01 2013  13 29  -21.0285 26099.5 -03375.8 -07.3700 26316.9
 11 01 2013  13 30  -21.0299 26100.2 -03375.6 -07.3694 26317.6
 11 01 2013  13 31  -21.0326 26100.6 -03375.3 -07.3685 26317.9
 11 01 2013  13 32  -21.0320 26100.9 -03374.8 -07.3675 26318.2
 11 01 2013  13 33  -21.0328 26101.1 -03374.4 -07.3664 26318.3
 11 01 2013  13 34  -21.0338 26100.9 -03373.8 -07.3652 26318.1
 11 01 2013  13 35  -21.0345 26100.8 -03373.4 -07.3643 26317.9
 11 01 2013  13 36  -21.0357 26101.0 -03373.1 -07.3636 26318.0
 11 01 2013  13 37  -21.0369 26101.1 -03372.8 -07.3630 26318.1
 11 01 2013  13 38  -21.0381 26101.1 -03372.5 -07.3622 26318.1
 11 01 2013  13 39  -21.0389 26101.3 -03372.2 -07.3616 26318.3
 11 01 2013  13 40  -21.0399 26101.8 -03372.0 -07.3610 26318.7
 11 01 2013  13 41  -21.0409 26101.6 -03371.5 -07.3600 26318.4
 11 01 2013  13 42  -21.0415 26101.2 -03370.9 -07.3589 26318.0
 11 01 2013  13 43  -21.0423 26100.7 -03370.4 -07.3579 26317.4
 11 01 2013  13 44  -21.0433 26100.8 -03370.1 -07.3573 26317.5
 11 01 2013  13 45  -21.0441 26101.0 -03369.9 -07.3567 26317.6
 11 01 2013  13 46  -21.0447 26100.6 -03369.4 -07.3557 26317.2
 11 01 2013  13 47  -21.0449 26100.2 -03368.8 -07.3545 26316.7
 11 01 2013  13 48  -21.0462 26099.0 -03367.9 -07.3530 26315.4
 11 01 2013  13 49  -21.0474 26098.9 -03367.6 -07.3525 26315.2
 11 01 2013  13 50  -21.0471 26098.8 -03367.5 -07.3522 26315.2
 11 01 2013  13 51  -21.0471 26099.0 -03367.6 -07.3522 26315.4
 11 01 2013  13 52  -21.0473 26099.3 -03367.5 -07.3521 26315.6
 11 01 2013  13 53  -21.0470 26099.6 -03367.4 -07.3518 26315.9
 11 01 2013  13 54  -21.0467 26099.8 -03367.3 -07.3514 26316.1
 11 01 2013  13 55  -21.0466 26100.1 -03367.2 -07.3512 26316.4
 11 01 2013  13 56  -21.0468 26100.9 -03367.3 -07.3512 26317.2
 11 01 2013  13 57  -21.0474 26101.8 -03367.4 -07.3512 26318.1
 11 01 2013  13 58  -21.0480 26102.0 -03367.2 -07.3507 26318.3
 11 01 2013  13 59  -21.0487 26102.0 -03366.9 -07.3500 26318.3
 11 01 2013  14 00  -21.0493 26102.1 -03366.7 -07.3495 26318.3
 11 01 2013  14 01  -21.0500 26102.0 -03366.4 -07.3490 26318.1
 11 01 2013  14 02  -21.0507 26101.5 -03366.0 -07.3482 26317.7
 11 01 2013  14 03  -21.0509 26100.7 -03365.4 -07.3471 26316.7
 11 01 2013  14 04  -21.0505 26099.8 -03365.0 -07.3465 26315.8
 11 01 2013  14 05  -21.0507 26099.4 -03365.1 -07.3467 26315.5
 11 01 2013  14 06  -21.0514 26099.8 -03365.4 -07.3473 26315.9
 11 01 2013  14 07  -21.0518 26100.1 -03365.5 -07.3476 26316.2
 11 01 2013  14 08  -21.0520 26099.9 -03365.4 -07.3474 26316.0
 11 01 2013  14 09  -21.0522 26099.4 -03365.1 -07.3469 26315.4
 11 01 2013  14 10  -21.0522 26098.7 -03364.8 -07.3465 26314.7
 11 01 2013  14 11  -21.0526 26098.0 -03364.7 -07.3464 26314.0
 11 01 2013  14 12  -21.0531 26097.4 -03364.7 -07.3464 26313.4
 11 01 2013  14 13  -21.0537 26096.7 -03364.5 -07.3464 26312.7
 11 01 2013  14 14  -21.0543 26096.1 -03364.5 -07.3465 26312.1
 11 01 2013  14 15  -21.0550 26096.0 -03364.7 -07.3468 26312.0
 11 01 2013  14 16  -21.0557 26095.8 -03364.7 -07.3469 26311.8
 11 01 2013  14 17  -21.0565 26095.3 -03364.6 -07.3468 26311.4
 11 01 2013  14 18  -21.0569 26094.3 -03364.2 -07.3463 26310.3
 11 01 2013  14 19  -21.0570 26093.1 -03363.7 -07.3456 26309.0
 11 01 2013  14 20  -21.0573 26092.2 -03363.5 -07.3454 26308.1
 11 01 2013  14 21  -21.0580 26092.1 -03363.6 -07.3457 26308.0
 11 01 2013  14 22  -21.0587 26092.0 -03363.8 -07.3460 26307.9
 11 01 2013  14 23  -21.0593 26091.9 -03363.7 -07.3459 26307.8
 11 01 2013  14 24  -21.0601 26092.0 -03363.7 -07.3458 26307.9
 11 01 2013  14 25  -21.0607 26091.7 -03363.5 -07.3454 26307.6
 11 01 2013  14 26  -21.0605 26091.0 -03363.1 -07.3449 26306.9
 11 01 2013  14 27  -21.0601 26090.3 -03362.9 -07.3447 26306.1
 11 01 2013  14 28  -21.0597 26090.2 -03363.1 -07.3451 26306.0
 11 01 2013  14 29  -21.0597 26090.8 -03363.6 -07.3459 26306.7
 11 01 2013  14 30  -21.0599 26091.1 -03363.8 -07.3463 26307.0
 11 01 2013  14 31  -21.0601 26090.9 -03363.6 -07.3460 26306.8
 11 01 2013  14 32  -21.0602 26090.4 -03363.4 -07.3458 26306.3
 11 01 2013  14 33  -21.0604 26089.9 -03363.3 -07.3455 26305.8
 11 01 2013  14 34  -21.0604 26089.6 -03363.2 -07.3455 26305.5
 11 01 2013  14 35  -21.0605 26089.5 -03363.3 -07.3457 26305.4
 11 01 2013  14 36  -21.0608 26089.5 -03363.4 -07.3458 26305.4
 11 01 2013  14 37  -21.0610 26089.3 -03363.3 -07.3458 26305.2
 11 01 2013  14 38  -21.0617 26089.2 -03363.2 -07.3456 26305.1
 11 01 2013  14 39  -21.0617 26088.6 -03363.0 -07.3453 26304.4
 11 01 2013  14 40  -21.0617 26088.1 -03363.0 -07.3454 26304.0
 11 01 2013  14 41  -21.0620 26088.2 -03363.1 -07.3457 26304.0
 11 01 2013  14 42  -21.0621 26088.1 -03363.1 -07.3457 26304.0
 11 01 2013  14 43  -21.0621 26087.8 -03363.0 -07.3455 26303.7
 11 01 2013  14 44  -21.0626 26087.9 -03363.1 -07.3456 26303.8
 11 01 2013  14 45  -21.0629 26087.6 -03362.9 -07.3453 26303.4
 11 01 2013  14 46  -21.0629 26087.3 -03362.7 -07.3450 26303.1
 11 01 2013  14 47  -21.0631 26086.9 -03362.5 -07.3447 26302.7
 11 01 2013  14 48  -21.0627 26086.4 -03362.3 -07.3445 26302.2
 11 01 2013  14 49  -21.0623 26086.2 -03362.3 -07.3445 26302.0
 11 01 2013  14 50  -21.0618 26086.0 -03362.3 -07.3445 26301.8
 11 01 2013  14 51  -21.0613 26085.9 -03362.4 -07.3447 26301.7
 11 01 2013  14 52  -21.0617 26086.5 -03362.7 -07.3451 26302.3
 11 01 2013  14 53  -21.0617 26087.0 -03362.8 -07.3453 26302.8
 11 01 2013  14 54  -21.0622 26087.6 -03362.9 -07.3454 26303.5
 11 01 2013  14 55  -21.0638 26088.2 -03362.7 -07.3448 26304.0
 11 01 2013  14 56  -21.0644 26087.7 -03362.2 -07.3439 26303.5
 11 01 2013  14 57  -21.0643 26087.1 -03361.7 -07.3429 26302.8
 11 01 2013  14 58  -21.0646 26087.1 -03361.5 -07.3425 26302.8
 11 01 2013  14 59  -21.0651 26087.1 -03361.4 -07.3422 26302.8
 11 01 2013  15 00  -21.0654 26087.2 -03361.3 -07.3419 26302.8
 11 01 2013  15 01  -21.0656 26087.3 -03361.2 -07.3418 26303.0
 11 01 2013  15 02  -21.0662 26087.7 -03361.2 -07.3418 26303.3
 11 01 2013  15 03  -21.0664 26087.9 -03361.1 -07.3414 26303.5
 11 01 2013  15 04  -21.0668 26088.1 -03360.9 -07.3410 26303.7
 11 01 2013  15 05  -21.0670 26088.1 -03360.7 -07.3404 26303.6
 11 01 2013  15 06  -21.0674 26088.1 -03360.6 -07.3401 26303.7
 11 01 2013  15 07  -21.0677 26088.0 -03360.4 -07.3398 26303.6
 11 01 2013  15 08  -21.0677 26087.8 -03360.1 -07.3393 26303.3
 11 01 2013  15 09  -21.0678 26087.4 -03359.8 -07.3387 26302.9
 11 01 2013  15 10  -21.0678 26087.3 -03359.7 -07.3385 26302.7
 11 01 2013  15 11  -21.0677 26087.3 -03359.6 -07.3384 26302.7
 11 01 2013  15 12  -21.0676 26087.2 -03359.6 -07.3382 26302.7
 11 01 2013  15 13  -21.0673 26087.1 -03359.4 -07.3380 26302.5
 11 01 2013  15 14  -21.0667 26086.7 -03359.3 -07.3378 26302.1
 11 01 2013  15 15  -21.0662 26086.5 -03359.2 -07.3376 26301.9
 11 01 2013  15 16  -21.0658 26086.4 -03359.2 -07.3377 26301.8
 11 01 2013  15 17  -21.0654 26086.4 -03359.3 -07.3378 26301.8
 11 01 2013  15 18  -21.0650 26086.3 -03359.3 -07.3379 26301.8
 11 01 2013  15 19  -21.0647 26086.2 -03359.3 -07.3379 26301.6
 11 01 2013  15 20  -21.0643 26086.0 -03359.2 -07.3379 26301.4
 11 01 2013  15 21  -21.0637 26085.7 -03359.2 -07.3380 26301.1
 11 01 2013  15 22  -21.0631 26085.4 -03359.2 -07.3381 26300.8
 11 01 2013  15 23  -21.0628 26085.2 -03359.3 -07.3383 26300.7
 11 01 2013  15 24  -21.0625 26085.2 -03359.4 -07.3385 26300.6
 11 01 2013  15 25  -21.0621 26085.2 -03359.5 -07.3386 26300.6
 11 01 2013  15 26  -21.0617 26085.1 -03359.5 -07.3388 26300.5
 11 01 2013  15 27  -21.0611 26084.9 -03359.5 -07.3388 26300.4
 11 01 2013  15 28  -21.0607 26084.7 -03359.5 -07.3388 26300.1
 11 01 2013  15 29  -21.0603 26084.5 -03359.5 -07.3388 26300.0
 11 01 2013  15 30  -21.0601 26084.5 -03359.4 -07.3388 26299.9
 11 01 2013  15 31  -21.0595 26084.3 -03359.4 -07.3387 26299.8
 11 01 2013  15 32  -21.0589 26084.1 -03359.3 -07.3385 26299.5
 11 01 2013  15 33  -21.0583 26083.8 -03359.2 -07.3384 26299.2
 11 01 2013  15 34  -21.0578 26083.7 -03359.2 -07.3384 26299.1
 11 01 2013  15 35  -21.0574 26083.7 -03359.2 -07.3384 26299.1
 11 01 2013  15 36  -21.0568 26083.7 -03359.1 -07.3382 26299.1
 11 01 2013  15 37  -21.0560 26083.5 -03358.9 -07.3379 26298.9
 11 01 2013  15 38  -21.0551 26083.2 -03358.7 -07.3375 26298.6
 11 01 2013  15 39  -21.0541 26083.1 -03358.5 -07.3371 26298.4
 11 01 2013  15 40  -21.0532 26083.1 -03358.4 -07.3369 26298.4
 11 01 2013  15 41  -21.0522 26083.2 -03358.3 -07.3368 26298.5
 11 01 2013  15 42  -21.0510 26083.0 -03358.2 -07.3364 26298.3
 11 01 2013  15 43  -21.0496 26082.8 -03358.0 -07.3362 26298.1
 11 01 2013  15 44  -21.0485 26082.9 -03358.0 -07.3362 26298.1
 11 01 2013  15 45  -21.0474 26082.9 -03358.0 -07.3360 26298.2
 11 01 2013  15 46  -21.0463 26082.9 -03357.9 -07.3359 26298.1
 11 01 2013  15 47  -21.0453 26082.8 -03357.8 -07.3357 26298.0
 11 01 2013  15 48  -21.0442 26082.6 -03357.7 -07.3354 26297.8
 11 01 2013  15 49  -21.0429 26082.3 -03357.5 -07.3352 26297.5
 11 01 2013  15 50  -21.0417 26081.9 -03357.4 -07.3351 26297.1
 11 01 2013  15 51  -21.0403 26081.5 -03357.3 -07.3350 26296.7
 11 01 2013  15 52  -21.0388 26081.1 -03357.3 -07.3350 26296.3
 11 01 2013  15 53  -21.0377 26081.3 -03357.5 -07.3354 26296.5
 11 01 2013  15 54  -21.0367 26081.5 -03357.7 -07.3358 26296.7
 11 01 2013  15 55  -21.0357 26081.9 -03357.8 -07.3360 26297.1
 11 01 2013  15 56  -21.0343 26082.0 -03357.9 -07.3361 26297.3
 11 01 2013  15 57  -21.0328 26082.0 -03357.9 -07.3361 26297.2
 11 01 2013  15 58  -21.0315 26081.9 -03357.9 -07.3361 26297.2
 11 01 2013  15 59  -21.0303 26081.8 -03357.9 -07.3362 26297.1
 11 01 2013  16 00  -21.0291 26081.8 -03357.9 -07.3362 26297.0
 11 01 2013  16 01  -21.0281 26081.6 -03357.9 -07.3363 26296.8
 11 01 2013  16 02  -21.0273 26081.6 -03357.9 -07.3363 26296.9
 11 01 2013  16 03  -21.0265 26081.5 -03357.9 -07.3362 26296.8
 11 01 2013  16 04  -21.0255 26081.1 -03357.7 -07.3359 26296.4
 11 01 2013  16 05  -21.0242 26080.6 -03357.5 -07.3356 26295.8
 11 01 2013  16 06  -21.0229 26080.2 -03357.4 -07.3354 26295.4
 11 01 2013  16 07  -21.0217 26079.9 -03357.3 -07.3354 26295.1
 11 01 2013  16 08  -21.0200 26079.4 -03357.2 -07.3353 26294.6
 11 01 2013  16 09  -21.0184 26079.2 -03357.2 -07.3354 26294.4
 11 01 2013  16 10  -21.0170 26079.2 -03357.3 -07.3356 26294.4
 11 01 2013  16 11  -21.0156 26079.1 -03357.4 -07.3358 26294.3
 11 01 2013  16 12  -21.0137 26078.8 -03357.3 -07.3358 26294.0
 11 01 2013  16 13  -21.0118 26078.5 -03357.4 -07.3360 26293.8
 11 01 2013  16 14  -21.0100 26078.4 -03357.5 -07.3363 26293.7
 11 01 2013  16 15  -21.0083 26078.4 -03357.7 -07.3367 26293.6
 11 01 2013  16 16  -21.0066 26078.3 -03357.9 -07.3370 26293.6
 11 01 2013  16 17  -21.0049 26078.3 -03358.0 -07.3374 26293.6
 11 01 2013  16 18  -21.0030 26078.1 -03358.1 -07.3377 26293.5
 11 01 2013  16 19  -21.0011 26078.0 -03358.3 -07.3381 26293.4
 11 01 2013  16 20  -20.9995 26078.0 -03358.5 -07.3386 26293.4
 11 01 2013  16 21  -20.9979 26078.0 -03358.8 -07.3391 26293.4
 11 01 2013  16 22  -20.9963 26078.0 -03359.0 -07.3397 26293.5
 11 01 2013  16 23  -20.9947 26078.1 -03359.3 -07.3402 26293.6
 11 01 2013  16 24  -20.9931 26078.0 -03359.5 -07.3408 26293.6
 11 01 2013  16 25  -20.9915 26077.9 -03359.7 -07.3412 26293.4
 11 01 2013  16 26  -20.9901 26077.8 -03359.9 -07.3416 26293.4
 11 01 2013  16 27  -20.9886 26077.8 -03360.1 -07.3421 26293.4
 11 01 2013  16 28  -20.9871 26077.7 -03360.3 -07.3425 26293.3
 11 01 2013  16 29  -20.9855 26077.5 -03360.6 -07.3431 26293.2
 11 01 2013  16 30  -20.9840 26077.5 -03360.9 -07.3438 26293.1
 11 01 2013  16 31  -20.9824 26077.4 -03361.2 -07.3445 26293.1
 11 01 2013  16 32  -20.9809 26077.3 -03361.5 -07.3451 26293.1
 11 01 2013  16 33  -20.9795 26077.2 -03361.8 -07.3459 26293.0
 11 01 2013  16 34  -20.9782 26077.3 -03362.2 -07.3467 26293.1
 11 01 2013  16 35  -20.9770 26077.4 -03362.6 -07.3475 26293.3
 11 01 2013  16 36  -20.9759 26077.3 -03362.9 -07.3483 26293.3
 11 01 2013  16 37  -20.9748 26077.3 -03363.3 -07.3491 26293.3
 11 01 2013  16 38  -20.9736 26077.4 -03363.8 -07.3500 26293.5
 11 01 2013  16 39  -20.9725 26077.3 -03364.1 -07.3509 26293.4
 11 01 2013  16 40  -20.9715 26077.2 -03364.5 -07.3516 26293.3
 11 01 2013  16 41  -20.9707 26077.2 -03364.9 -07.3525 26293.4
 11 01 2013  16 42  -20.9697 26077.2 -03365.3 -07.3535 26293.5
 11 01 2013  16 43  -20.9690 26077.3 -03365.8 -07.3544 26293.6
 11 01 2013  16 44  -20.9684 26077.3 -03366.2 -07.3554 26293.7
 11 01 2013  16 45  -20.9676 26077.4 -03366.6 -07.3563 26293.8
 11 01 2013  16 46  -20.9667 26077.3 -03367.1 -07.3572 26293.8
 11 01 2013  16 47  -20.9661 26077.3 -03367.4 -07.3580 26293.8
 11 01 2013  16 48  -20.9654 26077.5 -03367.9 -07.3590 26294.1
 11 01 2013  16 49  -20.9647 26077.6 -03368.4 -07.3600 26294.3
 11 01 2013  16 50  -20.9640 26077.7 -03368.9 -07.3610 26294.4
 11 01 2013  16 51  -20.9634 26077.8 -03369.4 -07.3621 26294.6
 11 01 2013  16 52  -20.9626 26077.9 -03369.9 -07.3631 26294.8
 11 01 2013  16 53  -20.9620 26078.0 -03370.4 -07.3641 26294.9
 11 01 2013  16 54  -20.9616 26078.1 -03370.8 -07.3651 26295.0
 11 01 2013  16 55  -20.9612 26078.3 -03371.4 -07.3662 26295.3
 11 01 2013  16 56  -20.9608 26078.2 -03371.8 -07.3672 26295.2
 11 01 2013  16 57  -20.9606 26078.0 -03372.2 -07.3681 26295.1
 11 01 2013  16 58  -20.9604 26078.1 -03372.7 -07.3693 26295.3
 11 01 2013  16 59  -20.9602 26078.2 -03373.2 -07.3703 26295.4
 11 01 2013  17 00  -20.9601 26078.1 -03373.6 -07.3712 26295.4
 11 01 2013  17 01  -20.9598 26077.9 -03374.0 -07.3720 26295.2
 11 01 2013  17 02  -20.9595 26077.6 -03374.4 -07.3731 26295.0
 11 01 2013  17 03  -20.9603 26077.7 -03374.9 -07.3741 26295.2
 11 01 2013  17 04  -20.9602 26077.9 -03375.4 -07.3752 26295.4
 11 01 2013  17 05  -20.9603 26078.1 -03376.0 -07.3763 26295.7
 11 01 2013  17 06  -20.9605 26078.2 -03376.4 -07.3772 26295.9
 11 01 2013  17 07  -20.9606 26078.4 -03376.9 -07.3781 26296.1
 11 01 2013  17 08  -20.9609 26078.6 -03377.4 -07.3791 26296.4
 11 01 2013  17 09  -20.9611 26078.8 -03377.8 -07.3800 26296.7
 11 01 2013  17 10  -20.9612 26078.8 -03378.1 -07.3807 26296.7
 11 01 2013  17 11  -20.9612 26078.8 -03378.4 -07.3814 26296.7
 11 01 2013  17 12  -20.9613 26078.9 -03378.9 -07.3823 26296.9
 11 01 2013  17 13  -20.9615 26079.1 -03379.3 -07.3832 26297.1
 11 01 2013  17 14  -20.9619 26079.2 -03379.7 -07.3840 26297.2
 11 01 2013  17 15  -20.9623 26079.2 -03380.0 -07.3847 26297.3
 11 01 2013  17 16  -20.9627 26079.2 -03380.3 -07.3854 26297.3
 11 01 2013  17 17  -20.9631 26078.9 -03380.5 -07.3859 26297.1
 11 01 2013  17 18  -20.9636 26078.8 -03380.7 -07.3864 26297.0
 11 01 2013  17 19  -20.9639 26078.6 -03381.0 -07.3869 26296.8
 11 01 2013  17 20  -20.9643 26078.4 -03381.2 -07.3875 26296.6
 11 01 2013  17 21  -20.9649 26077.9 -03381.3 -07.3879 26296.2
 11 01 2013  17 22  -20.9654 26077.5 -03381.4 -07.3882 26295.8
 11 01 2013  17 23  -20.9658 26077.4 -03381.7 -07.3889 26295.7
 11 01 2013  17 24  -20.9666 26077.3 -03382.1 -07.3897 26295.7
 11 01 2013  17 25  -20.9673 26077.2 -03382.3 -07.3902 26295.7
 11 01 2013  17 26  -20.9678 26077.2 -03382.5 -07.3907 26295.7
 11 01 2013  17 27  -20.9683 26077.2 -03382.8 -07.3912 26295.7
 11 01 2013  17 28  -20.9690 26077.1 -03383.0 -07.3917 26295.6
 11 01 2013  17 29  -20.9695 26077.0 -03383.1 -07.3920 26295.6
 11 01 2013  17 30  -20.9702 26077.1 -03383.3 -07.3925 26295.6
 11 01 2013  17 31  -20.9708 26077.1 -03383.5 -07.3929 26295.7
 11 01 2013  17 32  -20.9716 26077.1 -03383.7 -07.3932 26295.7
 11 01 2013  17 33  -20.9723 26077.2 -03383.9 -07.3936 26295.8
 11 01 2013  17 34  -20.9728 26077.2 -03384.0 -07.3938 26295.9
 11 01 2013  17 35  -20.9735 26077.2 -03384.1 -07.3940 26295.8
 11 01 2013  17 36  -20.9740 26077.1 -03384.1 -07.3942 26295.8
 11 01 2013  17 37  -20.9747 26077.1 -03384.2 -07.3944 26295.7
 11 01 2013  17 38  -20.9754 26077.0 -03384.3 -07.3946 26295.7
 11 01 2013  17 39  -20.9761 26076.9 -03384.4 -07.3947 26295.6
 11 01 2013  17 40  -20.9770 26076.9 -03384.4 -07.3949 26295.6
 11 01 2013  17 41  -20.9778 26076.9 -03384.5 -07.3950 26295.6
 11 01 2013  17 42  -20.9786 26076.9 -03384.5 -07.3951 26295.6
 11 01 2013  17 43  -20.9791 26076.8 -03384.5 -07.3951 26295.5
 11 01 2013  17 44  -20.9799 26076.8 -03384.5 -07.3951 26295.5
 11 01 2013  17 45  -20.9806 26076.8 -03384.5 -07.3952 26295.5
 11 01 2013  17 46  -20.9813 26076.7 -03384.6 -07.3953 26295.5
 11 01 2013  17 47  -20.9820 26076.8 -03384.7 -07.3954 26295.5
 11 01 2013  17 48  -20.9827 26076.8 -03384.7 -07.3954 26295.5
 11 01 2013  17 49  -20.9833 26076.7 -03384.6 -07.3954 26295.4
 11 01 2013  17 50  -20.9839 26076.6 -03384.6 -07.3954 26295.3
 11 01 2013  17 51  -20.9845 26076.5 -03384.6 -07.3954 26295.2
 11 01 2013  17 52  -20.9850 26076.4 -03384.6 -07.3954 26295.2
 11 01 2013  17 53  -20.9856 26076.3 -03384.6 -07.3955 26295.1
 11 01 2013  17 54  -20.9863 26076.2 -03384.7 -07.3956 26295.0
 11 01 2013  17 55  -20.9869 26076.1 -03384.7 -07.3956 26294.9
 11 01 2013  17 56  -20.9875 26076.0 -03384.7 -07.3957 26294.8
 11 01 2013  17 57  -20.9879 26075.9 -03384.7 -07.3958 26294.7
 11 01 2013  17 58  -20.9884 26075.8 -03384.8 -07.3959 26294.6
 11 01 2013  17 59  -20.9890 26075.7 -03384.8 -07.3960 26294.5
 11 01 2013  18 00  -20.9896 26075.7 -03384.9 -07.3961 26294.5
 11 01 2013  18 01  -20.9903 26075.7 -03384.9 -07.3963 26294.4
 11 01 2013  18 02  -20.9910 26075.7 -03385.0 -07.3964 26294.5
 11 01 2013  18 03  -20.9917 26075.8 -03385.1 -07.3966 26294.6
 11 01 2013  18 04  -20.9923 26075.7 -03385.1 -07.3967 26294.5
 11 01 2013  18 05  -20.9928 26075.6 -03385.1 -07.3967 26294.4
 11 01 2013  18 06  -20.9935 26075.7 -03385.2 -07.3968 26294.5
 11 01 2013  18 07  -20.9940 26075.7 -03385.2 -07.3969 26294.5
 11 01 2013  18 08  -20.9945 26075.6 -03385.2 -07.3969 26294.4
 11 01 2013  18 09  -20.9949 26075.6 -03385.3 -07.3970 26294.5
 11 01 2013  18 10  -20.9958 26075.6 -03385.3 -07.3972 26294.5
 11 01 2013  18 11  -20.9965 26075.7 -03385.4 -07.3974 26294.5
 11 01 2013  18 12  -20.9973 26075.7 -03385.5 -07.3975 26294.6
 11 01 2013  18 13  -20.9979 26075.7 -03385.5 -07.3975 26294.6
 11 01 2013  18 14  -20.9986 26075.6 -03385.4 -07.3974 26294.4
 11 01 2013  18 15  -20.9992 26075.4 -03385.4 -07.3973 26294.3
 11 01 2013  18 16  -20.9997 26075.2 -03385.3 -07.3973 26294.1
 11 01 2013  18 17  -21.0002 26075.1 -03385.3 -07.3973 26293.9
 11 01 2013  18 18  -21.0008 26075.0 -03385.3 -07.3974 26293.9
 11 01 2013  18 19  -21.0014 26075.0 -03385.4 -07.3974 26293.8
 11 01 2013  18 20  -21.0022 26075.0 -03385.4 -07.3975 26293.8
 11 01 2013  18 21  -21.0028 26074.9 -03385.4 -07.3975 26293.7
 11 01 2013  18 22  -21.0031 26074.8 -03385.4 -07.3975 26293.7
 11 01 2013  18 23  -21.0032 26074.9 -03385.4 -07.3976 26293.7
 11 01 2013  18 24  -21.0036 26074.9 -03385.5 -07.3978 26293.8
 11 01 2013  18 25  -21.0041 26074.9 -03385.5 -07.3978 26293.7
 11 01 2013  18 26  -21.0048 26074.8 -03385.5 -07.3977 26293.6
 11 01 2013  18 27  -21.0052 26074.7 -03385.4 -07.3976 26293.6
 11 01 2013  18 28  -21.0055 26074.6 -03385.4 -07.3975 26293.4
 11 01 2013  18 29  -21.0057 26074.5 -03385.3 -07.3975 26293.3
 11 01 2013  18 30  -21.0060 26074.5 -03385.4 -07.3977 26293.3
 11 01 2013  18 31  -21.0062 26074.6 -03385.5 -07.3979 26293.5
 11 01 2013  18 32  -21.0066 26074.7 -03385.6 -07.3980 26293.6
 11 01 2013  18 33  -21.0069 26074.7 -03385.6 -07.3980 26293.6
 11 01 2013  18 34  -21.0070 26074.7 -03385.6 -07.3980 26293.5
 11 01 2013  18 35  -21.0071 26074.7 -03385.7 -07.3981 26293.6
 11 01 2013  18 36  -21.0075 26074.9 -03385.8 -07.3984 26293.9
 11 01 2013  18 37  -21.0079 26075.1 -03385.9 -07.3985 26294.0
 11 01 2013  18 38  -21.0082 26075.1 -03385.9 -07.3985 26294.0
 11 01 2013  18 39  -21.0083 26075.0 -03385.8 -07.3984 26293.9
 11 01 2013  18 40  -21.0084 26075.1 -03385.9 -07.3985 26294.0
 11 01 2013  18 41  -21.0089 26075.3 -03386.0 -07.3988 26294.2
 11 01 2013  18 42  -21.0092 26075.4 -03386.1 -07.3989 26294.3
 11 01 2013  18 43  -21.0096 26075.5 -03386.1 -07.3989 26294.4
 11 01 2013  18 44  -21.0099 26075.6 -03386.2 -07.3990 26294.5
 11 01 2013  18 45  -21.0104 26075.6 -03386.2 -07.3989 26294.6
 11 01 2013  18 46  -21.0107 26075.6 -03386.0 -07.3987 26294.5
 11 01 2013  18 47  -21.0111 26075.7 -03386.1 -07.3987 26294.6
 11 01 2013  18 48  -21.0115 26075.5 -03386.0 -07.3986 26294.4
 11 01 2013  18 49  -21.0117 26075.0 -03385.7 -07.3982 26293.9
 11 01 2013  18 50  -21.0121 26074.8 -03385.7 -07.3981 26293.7
 11 01 2013  18 51  -21.0125 26074.5 -03385.6 -07.3980 26293.3
 11 01 2013  18 52  -21.0129 26074.1 -03385.4 -07.3978 26293.0
 11 01 2013  18 53  -21.0132 26073.8 -03385.3 -07.3977 26292.6
 11 01 2013  18 54  -21.0134 26073.5 -03385.3 -07.3976 26292.4
 11 01 2013  18 55  -21.0134 26073.3 -03385.2 -07.3976 26292.2
 11 01 2013  18 56  -21.0134 26073.3 -03385.2 -07.3976 26292.1
 11 01 2013  18 57  -21.0134 26073.4 -03385.4 -07.3979 26292.3
 11 01 2013  18 58  -21.0137 26073.5 -03385.5 -07.3981 26292.4
 11 01 2013  18 59  -21.0141 26073.5 -03385.5 -07.3982 26292.4
 11 01 2013  19 00  -21.0142 26073.5 -03385.5 -07.3982 26292.4
 11 01 2013  19 01  -21.0144 26073.4 -03385.5 -07.3982 26292.3
 11 01 2013  19 02  -21.0147 26073.2 -03385.5 -07.3982 26292.1
 11 01 2013  19 03  -21.0154 26073.0 -03385.4 -07.3980 26291.8
 11 01 2013  19 04  -21.0158 26072.8 -03385.3 -07.3979 26291.6
 11 01 2013  19 05  -21.0159 26072.7 -03385.2 -07.3978 26291.5
 11 01 2013  19 06  -21.0160 26072.5 -03385.2 -07.3978 26291.3
 11 01 2013  19 07  -21.0158 26072.6 -03385.3 -07.3979 26291.4
 11 01 2013  19 08  -21.0158 26072.5 -03385.3 -07.3980 26291.4
 11 01 2013  19 09  -21.0154 26072.4 -03385.2 -07.3979 26291.2
 11 01 2013  19 10  -21.0152 26072.5 -03385.3 -07.3981 26291.3
 11 01 2013  19 11  -21.0151 26072.8 -03385.6 -07.3986 26291.7
 11 01 2013  19 12  -21.0153 26073.2 -03385.9 -07.3990 26292.1
 11 01 2013  19 13  -21.0156 26073.6 -03386.1 -07.3994 26292.5
 11 01 2013  19 14  -21.0157 26074.0 -03386.3 -07.3997 26293.0
 11 01 2013  19 15  -21.0155 26074.5 -03386.6 -07.4001 26293.5
 11 01 2013  19 16  -21.0155 26075.1 -03386.8 -07.4005 26294.1
 11 01 2013  19 17  -21.0154 26075.5 -03387.0 -07.4009 26294.6
 11 01 2013  19 18  -21.0154 26076.3 -03387.4 -07.4014 26295.3
 11 01 2013  19 19  -21.0156 26077.0 -03387.6 -07.4018 26296.1
 11 01 2013  19 20  -21.0158 26077.6 -03387.8 -07.4019 26296.7
 11 01 2013  19 21  -21.0160 26077.9 -03387.8 -07.4019 26297.1
 11 01 2013  19 22  -21.0160 26078.1 -03387.7 -07.4017 26297.2
 11 01 2013  19 23  -21.0165 26077.6 -03387.3 -07.4009 26296.7
 11 01 2013  19 24  -21.0170 26076.6 -03386.6 -07.3996 26295.6
 11 01 2013  19 25  -21.0167 26075.7 -03386.0 -07.3986 26294.6
 11 01 2013  19 26  -21.0162 26074.8 -03385.5 -07.3979 26293.7
 11 01 2013  19 27  -21.0155 26074.2 -03385.3 -07.3975 26293.0
 11 01 2013  19 28  -21.0151 26074.3 -03385.5 -07.3978 26293.2
 11 01 2013  19 29  -21.0152 26075.1 -03386.0 -07.3987 26294.0
 11 01 2013  19 30  -21.0156 26075.7 -03386.3 -07.3993 26294.6
 11 01 2013  19 31  -21.0160 26076.0 -03386.4 -07.3994 26294.9
 11 01 2013  19 32  -21.0158 26076.1 -03386.4 -07.3993 26295.1
 11 01 2013  19 33  -21.0153 26075.7 -03386.1 -07.3988 26294.7
 11 01 2013  19 34  -21.0145 26075.2 -03385.8 -07.3984 26294.1
 11 01 2013  19 35  -21.0140 26075.1 -03385.8 -07.3984 26294.0
 11 01 2013  19 36  -21.0138 26075.4 -03386.0 -07.3987 26294.4
 11 01 2013  19 37  -21.0142 26076.1 -03386.4 -07.3993 26295.1
 11 01 2013  19 38  -21.0145 26076.5 -03386.6 -07.3996 26295.5
 11 01 2013  19 39  -21.0145 26076.6 -03386.5 -07.3994 26295.5
 11 01 2013  19 40  -21.0142 26076.4 -03386.3 -07.3990 26295.4
 11 01 2013  19 41  -21.0138 26076.3 -03386.1 -07.3987 26295.2
 11 01 2013  19 42  -21.0137 26076.1 -03386.0 -07.3985 26295.0
 11 01 2013  19 43  -21.0135 26076.3 -03386.0 -07.3985 26295.2
 11 01 2013  19 44  -21.0137 26076.5 -03386.0 -07.3984 26295.4
 11 01 2013  19 45  -21.0137 26076.7 -03386.0 -07.3983 26295.6
 11 01 2013  19 46  -21.0137 26076.8 -03385.9 -07.3981 26295.7
 11 01 2013  19 47  -21.0137 26076.8 -03385.8 -07.3979 26295.7
 11 01 2013  19 48  -21.0136 26076.7 -03385.7 -07.3976 26295.6
 11 01 2013  19 49  -21.0136 26076.7 -03385.6 -07.3975 26295.6
 11 01 2013  19 50  -21.0136 26076.7 -03385.6 -07.3974 26295.6
 11 01 2013  19 51  -21.0136 26076.9 -03385.6 -07.3974 26295.7
 11 01 2013  19 52  -21.0136 26076.9 -03385.6 -07.3975 26295.8
 11 01 2013  19 53  -21.0135 26077.0 -03385.6 -07.3975 26295.9
 11 01 2013  19 54  -21.0136 26076.9 -03385.6 -07.3973 26295.8
 11 01 2013  19 55  -21.0137 26076.7 -03385.4 -07.3971 26295.6
 11 01 2013  19 56  -21.0136 26076.7 -03385.4 -07.3969 26295.5
 11 01 2013  19 57  -21.0135 26076.7 -03385.4 -07.3969 26295.6
 11 01 2013  19 58  -21.0133 26076.6 -03385.3 -07.3968 26295.4
 11 01 2013  19 59  -21.0133 26076.4 -03385.2 -07.3967 26295.3
 11 01 2013  20 00  -21.0133 26076.3 -03385.2 -07.3966 26295.1
 11 01 2013  20 01  -21.0133 26076.2 -03385.1 -07.3965 26295.0
 11 01 2013  20 02  -21.0132 26076.2 -03385.1 -07.3964 26295.0
 11 01 2013  20 03  -21.0129 26076.1 -03385.0 -07.3963 26294.9
 11 01 2013  20 04  -21.0127 26076.1 -03385.0 -07.3962 26294.9
 11 01 2013  20 05  -21.0124 26076.2 -03385.0 -07.3963 26295.0
 11 01 2013  20 06  -21.0120 26076.3 -03385.1 -07.3964 26295.1
 11 01 2013  20 07  -21.0117 26076.4 -03385.1 -07.3965 26295.2
 11 01 2013  20 08  -21.0114 26076.5 -03385.2 -07.3966 26295.4
 11 01 2013  20 09  -21.0113 26076.5 -03385.1 -07.3965 26295.3
 11 01 2013  20 10  -21.0110 26076.6 -03385.2 -07.3966 26295.5
 11 01 2013  20 11  -21.0106 26077.0 -03385.4 -07.3968 26295.8
 11 01 2013  20 12  -21.0105 26076.9 -03385.3 -07.3968 26295.7
 11 01 2013  20 13  -21.0104 26076.9 -03385.3 -07.3968 26295.8
 11 01 2013  20 14  -21.0102 26077.1 -03385.4 -07.3969 26295.9
 11 01 2013  20 15  -21.0100 26077.3 -03385.5 -07.3970 26296.1
 11 01 2013  20 16  -21.0101 26077.1 -03385.5 -07.3970 26295.9
 11 01 2013  20 17  -21.0102 26077.0 -03385.4 -07.3970 26295.9
 11 01 2013  20 18  -21.0102 26077.0 -03385.4 -07.3970 26295.9
 11 01 2013  20 19  -21.0103 26077.0 -03385.4 -07.3970 26295.9
 11 01 2013  20 20  -21.0104 26076.9 -03385.4 -07.3970 26295.8
 11 01 2013  20 21  -21.0105 26076.8 -03385.4 -07.3969 26295.6
 11 01 2013  20 22  -21.0106 26076.7 -03385.3 -07.3968 26295.6
 11 01 2013  20 23  -21.0106 26076.9 -03385.4 -07.3969 26295.7
 11 01 2013  20 24  -21.0105 26076.9 -03385.4 -07.3969 26295.7
 11 01 2013  20 25  -21.0104 26076.7 -03385.3 -07.3968 26295.5
 11 01 2013  20 26  -21.0103 26076.5 -03385.2 -07.3966 26295.3
 11 01 2013  20 27  -21.0102 26076.2 -03385.0 -07.3964 26295.0
 11 01 2013  20 28  -21.0101 26076.2 -03385.0 -07.3963 26295.0
 11 01 2013  20 29  -21.0100 26076.3 -03385.1 -07.3964 26295.0
 11 01 2013  20 30  -21.0099 26076.2 -03385.1 -07.3965 26295.0
 11 01 2013  20 31  -21.0102 26075.9 -03385.0 -07.3963 26294.7
 11 01 2013  20 32  -21.0105 26075.6 -03384.8 -07.3961 26294.4
 11 01 2013  20 33  -21.0108 26075.8 -03384.9 -07.3961 26294.5
 11 01 2013  20 34  -21.0107 26075.9 -03385.0 -07.3963 26294.7
 11 01 2013  20 35  -21.0110 26075.7 -03384.9 -07.3963 26294.5
 11 01 2013  20 36  -21.0114 26075.3 -03384.7 -07.3959 26294.0
 11 01 2013  20 37  -21.0117 26074.9 -03384.5 -07.3956 26293.7
 11 01 2013  20 38  -21.0121 26074.6 -03384.4 -07.3954 26293.3
 11 01 2013  20 39  -21.0124 26074.2 -03384.2 -07.3952 26292.9
 11 01 2013  20 40  -21.0126 26073.7 -03384.1 -07.3950 26292.4
 11 01 2013  20 41  -21.0127 26073.6 -03384.0 -07.3949 26292.3
 11 01 2013  20 42  -21.0162 26073.0 -03383.6 -07.3943 26291.6
 11 01 2013  20 43  -21.0162 26072.7 -03383.6 -07.3943 26291.4
 11 01 2013  20 44  -21.0159 26072.6 -03383.6 -07.3943 26291.2
 11 01 2013  20 45  -21.0157 26072.7 -03383.7 -07.3944 26291.3
 11 01 2013  20 46  -21.0131 26072.9 -03383.9 -07.3949 26291.6
 11 01 2013  20 47  -21.0116 26073.0 -03384.1 -07.3952 26291.7
 11 01 2013  20 48  -21.0114 26073.0 -03384.1 -07.3952 26291.7
 11 01 2013  20 49  -21.0114 26072.8 -03384.1 -07.3952 26291.5
 11 01 2013  20 50  -21.0112 26072.7 -03384.1 -07.3952 26291.4
 11 01 2013  20 51  -21.0113 26072.5 -03384.0 -07.3953 26291.2
 11 01 2013  20 52  -21.0113 26072.3 -03384.0 -07.3953 26291.0
 11 01 2013  20 53  -21.0112 26072.2 -03384.0 -07.3953 26290.9
 11 01 2013  20 54  -21.0112 26071.9 -03384.0 -07.3953 26290.6
 11 01 2013  20 55  -21.0111 26071.8 -03383.9 -07.3953 26290.5
 11 01 2013  20 56  -21.0109 26071.6 -03383.9 -07.3953 26290.3
 11 01 2013  20 57  -21.0109 26071.4 -03383.9 -07.3953 26290.1
 11 01 2013  20 58  -21.0109 26071.1 -03383.8 -07.3951 26289.8
 11 01 2013  20 59  -21.0108 26071.0 -03383.8 -07.3951 26289.7
 11 01 2013  21 00  -21.0106 26071.1 -03383.9 -07.3953 26289.8
 11 01 2013  21 01  -21.0105 26071.0 -03383.9 -07.3953 26289.7
 11 01 2013  21 02  -21.0103 26070.9 -03383.9 -07.3953 26289.5
 11 01 2013  21 03  -21.0103 26070.8 -03383.9 -07.3955 26289.5
 11 01 2013  21 04  -21.0101 26070.7 -03383.9 -07.3955 26289.4
 11 01 2013  21 05  -21.0101 26070.4 -03383.8 -07.3954 26289.0
 11 01 2013  21 06  -21.0099 26070.3 -03383.8 -07.3954 26289.0
 11 01 2013  21 07  -21.0095 26070.2 -03383.8 -07.3954 26288.9
 11 01 2013  21 08  -21.0094 26070.0 -03383.8 -07.3954 26288.7
 11 01 2013  21 09  -21.0093 26069.9 -03383.8 -07.3954 26288.6
 11 01 2013  21 10  -21.0093 26069.8 -03383.8 -07.3955 26288.5
 11 01 2013  21 11  -21.0096 26069.6 -03383.7 -07.3954 26288.2
 11 01 2013  21 12  -21.0097 26069.4 -03383.7 -07.3955 26288.1
 11 01 2013  21 13  -21.0098 26069.3 -03383.8 -07.3956 26288.0
 11 01 2013  21 14  -21.0097 26069.3 -03383.8 -07.3957 26287.9
 11 01 2013  21 15  -21.0095 26069.0 -03383.8 -07.3957 26287.7
 11 01 2013  21 16  -21.0093 26068.8 -03383.7 -07.3956 26287.5
 11 01 2013  21 17  -21.0093 26068.5 -03383.6 -07.3955 26287.2
 11 01 2013  21 18  -21.0093 26068.3 -03383.7 -07.3957 26287.0
 11 01 2013  21 19  -21.0091 26068.3 -03383.8 -07.3959 26287.0
 11 01 2013  21 20  -21.0091 26068.3 -03383.9 -07.3962 26287.0
 11 01 2013  21 21  -21.0093 26068.1 -03384.0 -07.3965 26286.8
 11 01 2013  21 22  -21.0092 26067.7 -03383.9 -07.3964 26286.4
 11 01 2013  21 23  -21.0090 26067.9 -03384.1 -07.3967 26286.7
 11 01 2013  21 24  -21.0088 26067.9 -03384.3 -07.3971 26286.7
 11 01 2013  21 25  -21.0087 26067.6 -03384.3 -07.3971 26286.4
 11 01 2013  21 26  -21.0088 26067.1 -03384.1 -07.3969 26285.9
 11 01 2013  21 27  -21.0087 26067.2 -03384.3 -07.3972 26286.0
 11 01 2013  21 28  -21.0084 26067.3 -03384.4 -07.3975 26286.1
 11 01 2013  21 29  -21.0084 26067.4 -03384.6 -07.3980 26286.2
 11 01 2013  21 30  -21.0089 26066.9 -03384.6 -07.3980 26285.7
 11 01 2013  21 31  -21.0092 26066.4 -03384.4 -07.3978 26285.2
 11 01 2013  21 32  -21.0089 26066.6 -03384.5 -07.3980 26285.4
 11 01 2013  21 33  -21.0086 26066.6 -03384.7 -07.3983 26285.5
 11 01 2013  21 34  -21.0087 26066.1 -03384.6 -07.3982 26284.9
 11 01 2013  21 35  -21.0090 26065.8 -03384.5 -07.3982 26284.6
 11 01 2013  21 36  -21.0088 26065.8 -03384.6 -07.3984 26284.6
 11 01 2013  21 37  -21.0084 26065.5 -03384.6 -07.3984 26284.3
 11 01 2013  21 38  -21.0079 26065.3 -03384.6 -07.3984 26284.1
 11 01 2013  21 39  -21.0076 26065.3 -03384.7 -07.3987 26284.1
 11 01 2013  21 40  -21.0073 26065.2 -03384.8 -07.3990 26284.1
 11 01 2013  21 41  -21.0070 26064.8 -03384.7 -07.3990 26283.6
 11 01 2013  21 42  -21.0068 26064.6 -03384.8 -07.3991 26283.5
 11 01 2013  21 43  -21.0068 26064.5 -03384.9 -07.3994 26283.4
 11 01 2013  21 44  -21.0066 26064.3 -03385.0 -07.3997 26283.2
 11 01 2013  21 45  -21.0063 26064.0 -03385.0 -07.3998 26282.9
 11 01 2013  21 46  -21.0062 26064.1 -03385.2 -07.4002 26283.0
 11 01 2013  21 47  -21.0058 26063.6 -03385.2 -07.4002 26282.5
 11 01 2013  21 48  -21.0054 26063.4 -03385.2 -07.4003 26282.3
 11 01 2013  21 49  -21.0053 26063.5 -03385.4 -07.4007 26282.4
 11 01 2013  21 50  -21.0051 26063.1 -03385.4 -07.4009 26282.1
 11 01 2013  21 51  -21.0047 26062.8 -03385.4 -07.4009 26281.7
 11 01 2013  21 52  -21.0047 26062.6 -03385.5 -07.4011 26281.6
 11 01 2013  21 53  -21.0048 26062.7 -03385.7 -07.4016 26281.7
 11 01 2013  21 54  -21.0050 26062.6 -03385.8 -07.4019 26281.7
 11 01 2013  21 55  -21.0058 26062.6 -03386.0 -07.4023 26281.6
 11 01 2013  21 56  -21.0066 26062.4 -03386.1 -07.4025 26281.4
 11 01 2013  21 57  -21.0070 26062.1 -03386.1 -07.4025 26281.1
 11 01 2013  21 58  -21.0071 26061.9 -03386.0 -07.4025 26280.9
 11 01 2013  21 59  -21.0071 26061.8 -03386.1 -07.4026 26280.9
 11 01 2013  22 00  -21.0072 26061.8 -03386.1 -07.4028 26280.8
 11 01 2013  22 01  -21.0074 26061.5 -03386.1 -07.4028 26280.5
 11 01 2013  22 02  -21.0075 26061.2 -03386.1 -07.4028 26280.2
 11 01 2013  22 03  -21.0074 26061.0 -03386.0 -07.4028 26280.0
 11 01 2013  22 04  -21.0074 26061.2 -03386.2 -07.4032 26280.2
 11 01 2013  22 05  -21.0067 26060.7 -03386.1 -07.4031 26279.7
 11 01 2013  22 06  -21.0060 26060.5 -03386.0 -07.4029 26279.5
 11 01 2013  22 07  -21.0061 26060.5 -03386.2 -07.4033 26279.6
 11 01 2013  22 08  -21.0060 26060.0 -03386.1 -07.4032 26279.1
 11 01 2013  22 09  -21.0057 26059.9 -03386.1 -07.4033 26279.0
 11 01 2013  22 10  -21.0052 26059.8 -03386.2 -07.4035 26278.8
 11 01 2013  22 11  -21.0045 26059.7 -03386.2 -07.4036 26278.8
 11 01 2013  22 12  -21.0039 26059.8 -03386.4 -07.4039 26278.9
 11 01 2013  22 13  -21.0036 26059.9 -03386.6 -07.4043 26279.0
 11 01 2013  22 14  -21.0033 26059.9 -03386.7 -07.4046 26279.0
 11 01 2013  22 15  -21.0036 26059.9 -03386.9 -07.4050 26279.1
 11 01 2013  22 16  -21.0042 26059.6 -03387.0 -07.4052 26278.8
 11 01 2013  22 17  -21.0043 26059.4 -03386.9 -07.4052 26278.6
 11 01 2013  22 18  -21.0036 26059.1 -03386.8 -07.4050 26278.3
 11 01 2013  22 19  -21.0030 26059.4 -03387.0 -07.4053 26278.6
 11 01 2013  22 20  -21.0032 26059.6 -03387.3 -07.4059 26278.8
 11 01 2013  22 21  -21.0038 26059.3 -03387.3 -07.4060 26278.6
 11 01 2013  22 22  -21.0044 26058.9 -03387.2 -07.4059 26278.1
 11 01 2013  22 23  -21.0047 26058.6 -03387.1 -07.4057 26277.8
 11 01 2013  22 24  -21.0048 26058.7 -03387.2 -07.4060 26278.0
 11 01 2013  22 25  -21.0039 26058.5 -03387.1 -07.4059 26277.7
 11 01 2013  22 26  -21.0034 26058.3 -03387.0 -07.4057 26277.5
 11 01 2013  22 27  -21.0045 26058.3 -03387.2 -07.4061 26277.5
 11 01 2013  22 28  -21.0050 26058.3 -03387.3 -07.4063 26277.6
 11 01 2013  22 29  -21.0047 26058.1 -03387.2 -07.4062 26277.3
 11 01 2013  22 30  -21.0038 26057.6 -03386.9 -07.4057 26276.8
 11 01 2013  22 31  -21.0034 26057.6 -03386.9 -07.4057 26276.8
 11 01 2013  22 32  -21.0035 26057.8 -03387.1 -07.4061 26277.0
 11 01 2013  22 33  -21.0037 26057.0 -03387.0 -07.4059 26276.2
 11 01 2013  22 34  -21.0031 26056.7 -03386.7 -07.4054 26275.8
 11 01 2013  22 35  -21.0027 26056.6 -03386.7 -07.4056 26275.8
 11 01 2013  22 36  -21.0023 26056.7 -03386.9 -07.4058 26275.9
 11 01 2013  22 37  -21.0021 26055.9 -03386.6 -07.4054 26275.1
 11 01 2013  22 38  -21.0030 26055.8 -03386.6 -07.4056 26275.0
 11 01 2013  22 39  -21.0039 26055.4 -03386.6 -07.4056 26274.6
 11 01 2013  22 40  -21.0042 26054.7 -03386.3 -07.4051 26273.8
 11 01 2013  22 41  -21.0049 26054.5 -03386.3 -07.4051 26273.6
 11 01 2013  22 42  -21.0051 26053.8 -03386.0 -07.4047 26272.9
 11 01 2013  22 43  -21.0048 26053.8 -03385.9 -07.4046 26272.9
 11 01 2013  22 44  -21.0048 26053.6 -03386.0 -07.4047 26272.7
 11 01 2013  22 45  -21.0047 26053.1 -03385.8 -07.4045 26272.2
 11 01 2013  22 46  -21.0059 26053.1 -03385.9 -07.4048 26272.2
 11 01 2013  22 47  -21.0074 26052.7 -03386.0 -07.4051 26271.9
 11 01 2013  22 48  -21.0077 26052.3 -03385.8 -07.4047 26271.4
 11 01 2013  22 49  -21.0078 26052.2 -03385.7 -07.4046 26271.3
 11 01 2013  22 50  -21.0080 26052.0 -03385.7 -07.4045 26271.1
 11 01 2013  22 51  -21.0088 26051.9 -03385.7 -07.4046 26271.0
 11 01 2013  22 52  -21.0098 26051.8 -03385.8 -07.4048 26270.9
 11 01 2013  22 53  -21.0102 26051.7 -03385.8 -07.4049 26270.8
 11 01 2013  22 54  -21.0105 26051.8 -03385.9 -07.4051 26271.0
 11 01 2013  22 55  -21.0111 26052.0 -03386.0 -07.4053 26271.1
 11 01 2013  22 56  -21.0119 26051.9 -03386.1 -07.4055 26271.1
 11 01 2013  22 57  -21.0123 26051.7 -03386.0 -07.4054 26270.8
 11 01 2013  22 58  -21.0131 26051.4 -03385.9 -07.4052 26270.5
 11 01 2013  22 59  -21.0141 26051.2 -03385.8 -07.4050 26270.3
 11 01 2013  23 00  -21.0148 26051.0 -03385.7 -07.4049 26270.0
 11 01 2013  23 01  -21.0151 26050.6 -03385.5 -07.4045 26269.7
 11 01 2013  23 02  -21.0148 26050.5 -03385.3 -07.4042 26269.5
 11 01 2013  23 03  -21.0145 26050.5 -03385.3 -07.4042 26269.5
 11 01 2013  23 04  -21.0145 26050.5 -03385.4 -07.4043 26269.6
 11 01 2013  23 05  -21.0152 26050.6 -03385.5 -07.4047 26269.6
 11 01 2013  23 06  -21.0153 26050.5 -03385.6 -07.4048 26269.6
 11 01 2013  23 07  -21.0152 26050.6 -03385.6 -07.4048 26269.7
 11 01 2013  23 08  -21.0151 26050.5 -03385.6 -07.4049 26269.6
 11 01 2013  23 09  -21.0148 26050.3 -03385.5 -07.4047 26269.4
 11 01 2013  23 10  -21.0144 26050.3 -03385.5 -07.4046 26269.3
 11 01 2013  23 11  -21.0141 26050.1 -03385.4 -07.4046 26269.2
 11 01 2013  23 12  -21.0138 26049.7 -03385.3 -07.4043 26268.7
 11 01 2013  23 13  -21.0137 26049.5 -03385.2 -07.4042 26268.6
 11 01 2013  23 14  -21.0137 26049.4 -03385.2 -07.4043 26268.5
 11 01 2013  23 15  -21.0134 26049.1 -03385.2 -07.4042 26268.2
 11 01 2013  23 16  -21.0128 26049.0 -03385.1 -07.4041 26268.0
 11 01 2013  23 17  -21.0123 26048.9 -03385.1 -07.4041 26267.9
 11 01 2013  23 18  -21.0122 26048.8 -03385.1 -07.4043 26267.8
 11 01 2013  23 19  -21.0120 26048.6 -03385.1 -07.4044 26267.6
 11 01 2013  23 20  -21.0121 26048.3 -03385.1 -07.4043 26267.3
 11 01 2013  23 21  -21.0122 26048.0 -03385.0 -07.4042 26267.0
 11 01 2013  23 22  -21.0124 26047.7 -03385.0 -07.4043 26266.8
 11 01 2013  23 23  -21.0123 26047.3 -03384.8 -07.4039 26266.3
 11 01 2013  23 24  -21.0127 26047.3 -03384.9 -07.4043 26266.3
 11 01 2013  23 25  -21.0127 26046.9 -03384.7 -07.4040 26265.9
 11 01 2013  23 26  -21.0124 26046.8 -03384.8 -07.4041 26265.8
 11 01 2013  23 27  -21.0124 26046.0 -03384.6 -07.4038 26265.0
 11 01 2013  23 28  -21.0123 26045.9 -03384.5 -07.4038 26264.9
 11 01 2013  23 29  -21.0122 26045.5 -03384.5 -07.4038 26264.5
 11 01 2013  23 30  -21.0124 26045.1 -03384.4 -07.4038 26264.1
 11 01 2013  23 31  -21.0124 26044.7 -03384.3 -07.4036 26263.7
 11 01 2013  23 32  -21.0121 26044.6 -03384.3 -07.4037 26263.6
 11 01 2013  23 33  -21.0120 26044.2 -03384.3 -07.4038 26263.2
 11 01 2013  23 34  -21.0118 26043.7 -03384.2 -07.4036 26262.7
 11 01 2013  23 35  -21.0113 26043.5 -03384.1 -07.4035 26262.5
 11 01 2013  23 36  -21.0109 26043.2 -03384.1 -07.4036 26262.2
 11 01 2013  23 37  -21.0109 26043.0 -03384.2 -07.4038 26262.0
 11 01 2013  23 38  -21.0107 26043.0 -03384.3 -07.4040 26262.0
 11 01 2013  23 39  -21.0105 26043.2 -03384.5 -07.4045 26262.2
 11 01 2013  23 40  -21.0106 26043.0 -03384.6 -07.4047 26262.1
 11 01 2013  23 41  -21.0109 26043.0 -03384.7 -07.4049 26262.0
 11 01 2013  23 42  -21.0113 26043.0 -03384.8 -07.4052 26262.0
 11 01 2013  23 43  -21.0121 26043.1 -03385.0 -07.4057 26262.2
 11 01 2013  23 44  -21.0128 26042.8 -03385.0 -07.4057 26261.9
 11 01 2013  23 45  -21.0132 26042.7 -03385.0 -07.4057 26261.7
 11 01 2013  23 46  -21.0133 26042.4 -03384.9 -07.4055 26261.4
 11 01 2013  23 47  -21.0135 26042.0 -03384.7 -07.4052 26261.1
 11 01 2013  23 48  -21.0139 26041.9 -03384.6 -07.4051 26260.9
 11 01 2013  23 49  -21.0146 26042.0 -03384.7 -07.4053 26261.0
 11 01 2013  23 50  -21.0150 26042.1 -03384.8 -07.4055 26261.2
 11 01 2013  23 51  -21.0155 26042.0 -03384.9 -07.4056 26261.1
 11 01 2013  23 52  -21.0160 26042.0 -03384.9 -07.4056 26261.0
 11 01 2013  23 53  -21.0164 26041.8 -03384.8 -07.4056 26260.9
 11 01 2013  23 54  -21.0169 26041.6 -03384.8 -07.4056 26260.7
 11 01 2013  23 55  -21.0175 26041.3 -03384.7 -07.4054 26260.4
 11 01 2013  23 56  -21.0175 26041.2 -03384.6 -07.4053 26260.2
 11 01 2013  23 57  -21.0174 26041.1 -03384.5 -07.4052 26260.1
 11 01 2013  23 58  -21.0172 26040.9 -03384.5 -07.4051 26259.9
