SAO LUIS EMBRACE-03 <174> 1 Min. Reported data

 DD MM YYYY  HH MM   D(Deg)  H(nT)   Z(nT)   I(Deg)   F(nT)

 23 06 2013  00 00  -21.0454 26024.2 -03453.9 -07.5600 26252.4
 23 06 2013  00 01  -21.0452 26024.1 -03453.8 -07.5598 26252.2
 23 06 2013  00 02  -21.0452 26024.0 -03453.8 -07.5598 26252.2
 23 06 2013  00 03  -21.0453 26023.7 -03453.7 -07.5597 26251.9
 23 06 2013  00 04  -21.0458 26023.6 -03453.7 -07.5598 26251.8
 23 06 2013  00 05  -21.0463 26023.5 -03453.7 -07.5597 26251.7
 23 06 2013  00 06  -21.0468 26023.2 -03453.5 -07.5595 26251.3
 23 06 2013  00 07  -21.0471 26022.9 -03453.3 -07.5592 26251.0
 23 06 2013  00 08  -21.0469 26022.6 -03453.2 -07.5589 26250.7
 23 06 2013  00 09  -21.0472 26022.3 -03453.0 -07.5587 26250.4
 23 06 2013  00 10  -21.0475 26022.1 -03453.0 -07.5587 26250.2
 23 06 2013  00 11  -21.0479 26022.1 -03453.0 -07.5588 26250.2
 23 06 2013  00 12  -21.0484 26022.3 -03453.2 -07.5590 26250.4
 23 06 2013  00 13  -21.0488 26022.3 -03453.2 -07.5591 26250.4
 23 06 2013  00 14  -21.0491 26022.2 -03453.2 -07.5590 26250.3
 23 06 2013  00 15  -21.0496 26022.0 -03453.1 -07.5589 26250.1
 23 06 2013  00 16  -21.0500 26021.9 -03453.0 -07.5588 26250.0
 23 06 2013  00 17  -21.0502 26021.7 -03452.9 -07.5586 26249.8
 23 06 2013  00 18  -21.0504 26021.7 -03452.9 -07.5585 26249.8
 23 06 2013  00 19  -21.0505 26021.8 -03452.9 -07.5586 26249.9
 23 06 2013  00 20  -21.0504 26021.8 -03452.9 -07.5586 26249.9
 23 06 2013  00 21  -21.0501 26021.8 -03452.8 -07.5584 26249.9
 23 06 2013  00 22  -21.0497 26021.6 -03452.7 -07.5582 26249.7
 23 06 2013  00 23  -21.0495 26021.4 -03452.6 -07.5580 26249.4
 23 06 2013  00 24  -21.0491 26021.1 -03452.5 -07.5578 26249.2
 23 06 2013  00 25  -21.0486 26020.8 -03452.4 -07.5577 26248.8
 23 06 2013  00 26  -21.0480 26020.7 -03452.3 -07.5576 26248.8
 23 06 2013  00 27  -21.0477 26020.6 -03452.3 -07.5576 26248.6
 23 06 2013  00 28  -21.0478 26020.6 -03452.3 -07.5577 26248.6
 23 06 2013  00 29  -21.0477 26020.6 -03452.4 -07.5578 26248.6
 23 06 2013  00 30  -21.0475 26020.4 -03452.4 -07.5578 26248.5
 23 06 2013  00 31  -21.0474 26020.5 -03452.4 -07.5579 26248.5
 23 06 2013  00 32  -21.0471 26020.5 -03452.5 -07.5580 26248.5
 23 06 2013  00 33  -21.0471 26020.4 -03452.5 -07.5582 26248.5
 23 06 2013  00 34  -21.0473 26020.3 -03452.5 -07.5582 26248.4
 23 06 2013  00 35  -21.0473 26020.3 -03452.5 -07.5582 26248.4
 23 06 2013  00 36  -21.0469 26020.4 -03452.6 -07.5582 26248.4
 23 06 2013  00 37  -21.0463 26020.4 -03452.6 -07.5583 26248.5
 23 06 2013  00 38  -21.0461 26020.5 -03452.6 -07.5584 26248.5
 23 06 2013  00 39  -21.0463 26020.4 -03452.7 -07.5585 26248.5
 23 06 2013  00 40  -21.0466 26020.4 -03452.7 -07.5586 26248.4
 23 06 2013  00 41  -21.0468 26020.3 -03452.7 -07.5586 26248.4
 23 06 2013  00 42  -21.0468 26020.3 -03452.8 -07.5587 26248.4
 23 06 2013  00 43  -21.0467 26020.4 -03452.8 -07.5587 26248.5
 23 06 2013  00 44  -21.0466 26020.1 -03452.7 -07.5585 26248.2
 23 06 2013  00 45  -21.0463 26019.8 -03452.5 -07.5583 26247.9
 23 06 2013  00 46  -21.0461 26019.6 -03452.5 -07.5582 26247.7
 23 06 2013  00 47  -21.0458 26019.4 -03452.4 -07.5582 26247.4
 23 06 2013  00 48  -21.0455 26019.1 -03452.3 -07.5581 26247.2
 23 06 2013  00 49  -21.0453 26019.0 -03452.3 -07.5580 26247.0
 23 06 2013  00 50  -21.0452 26018.6 -03452.2 -07.5580 26246.7
 23 06 2013  00 51  -21.0451 26018.5 -03452.2 -07.5580 26246.5
 23 06 2013  00 52  -21.0450 26018.5 -03452.2 -07.5581 26246.5
 23 06 2013  00 53  -21.0448 26018.6 -03452.3 -07.5583 26246.6
 23 06 2013  00 54  -21.0446 26018.8 -03452.5 -07.5586 26246.9
 23 06 2013  00 55  -21.0446 26019.1 -03452.7 -07.5589 26247.2
 23 06 2013  00 56  -21.0449 26019.2 -03452.8 -07.5592 26247.3
 23 06 2013  00 57  -21.0454 26019.0 -03452.8 -07.5592 26247.1
 23 06 2013  00 58  -21.0460 26018.8 -03452.7 -07.5591 26246.9
 23 06 2013  00 59  -21.0466 26018.5 -03452.6 -07.5590 26246.6
 23 06 2013  01 00  -21.0470 26018.4 -03452.6 -07.5589 26246.5
 23 06 2013  01 01  -21.0474 26018.3 -03452.6 -07.5588 26246.4
 23 06 2013  01 02  -21.0476 26018.3 -03452.6 -07.5588 26246.4
 23 06 2013  01 03  -21.0479 26018.5 -03452.7 -07.5590 26246.6
 23 06 2013  01 04  -21.0480 26018.5 -03452.7 -07.5591 26246.6
 23 06 2013  01 05  -21.0480 26018.4 -03452.7 -07.5590 26246.5
 23 06 2013  01 06  -21.0478 26018.4 -03452.6 -07.5589 26246.4
 23 06 2013  01 07  -21.0474 26018.3 -03452.6 -07.5589 26246.4
 23 06 2013  01 08  -21.0468 26018.3 -03452.6 -07.5588 26246.4
 23 06 2013  01 09  -21.0461 26018.3 -03452.6 -07.5589 26246.4
 23 06 2013  01 10  -21.0455 26018.4 -03452.7 -07.5590 26246.5
 23 06 2013  01 11  -21.0451 26018.4 -03452.7 -07.5591 26246.5
 23 06 2013  01 12  -21.0448 26018.5 -03452.9 -07.5594 26246.6
 23 06 2013  01 13  -21.0448 26018.7 -03453.0 -07.5598 26246.8
 23 06 2013  01 14  -21.0454 26018.7 -03453.2 -07.5601 26246.9
 23 06 2013  01 15  -21.0462 26018.8 -03453.3 -07.5602 26246.9
 23 06 2013  01 16  -21.0469 26018.8 -03453.3 -07.5603 26247.0
 23 06 2013  01 17  -21.0471 26018.9 -03453.4 -07.5605 26247.1
 23 06 2013  01 18  -21.0471 26019.1 -03453.4 -07.5605 26247.3
 23 06 2013  01 19  -21.0470 26019.3 -03453.5 -07.5606 26247.5
 23 06 2013  01 20  -21.0467 26019.3 -03453.5 -07.5606 26247.5
 23 06 2013  01 21  -21.0465 26019.3 -03453.5 -07.5605 26247.5
 23 06 2013  01 22  -21.0464 26019.6 -03453.6 -07.5607 26247.8
 23 06 2013  01 23  -21.0467 26019.7 -03453.7 -07.5609 26247.9
 23 06 2013  01 24  -21.0471 26020.0 -03453.9 -07.5612 26248.3
 23 06 2013  01 25  -21.0473 26020.3 -03454.0 -07.5613 26248.5
 23 06 2013  01 26  -21.0469 26021.8 -03454.6 -07.5622 26250.1
 23 06 2013  01 27  -21.0464 26024.0 -03455.6 -07.5637 26252.4
 23 06 2013  01 28  -21.0459 26024.7 -03455.9 -07.5641 26253.2
 23 06 2013  01 29  -21.0459 26025.4 -03456.2 -07.5647 26253.9
 23 06 2013  01 30  -21.0457 26026.2 -03456.5 -07.5650 26254.8
 23 06 2013  01 31  -21.0459 26026.7 -03456.6 -07.5651 26255.2
 23 06 2013  01 32  -21.0459 26026.9 -03456.6 -07.5651 26255.4
 23 06 2013  01 33  -21.0461 26027.1 -03456.6 -07.5649 26255.6
 23 06 2013  01 34  -21.0465 26027.2 -03456.5 -07.5647 26255.7
 23 06 2013  01 35  -21.0467 26027.2 -03456.4 -07.5645 26255.7
 23 06 2013  01 36  -21.0466 26027.0 -03456.2 -07.5641 26255.5
 23 06 2013  01 37  -21.0459 26026.7 -03455.9 -07.5636 26255.2
 23 06 2013  01 38  -21.0453 26026.4 -03455.7 -07.5632 26254.9
 23 06 2013  01 39  -21.0449 26026.2 -03455.5 -07.5629 26254.6
 23 06 2013  01 40  -21.0451 26026.0 -03455.4 -07.5628 26254.4
 23 06 2013  01 41  -21.0454 26026.0 -03455.5 -07.5629 26254.4
 23 06 2013  01 42  -21.0456 26025.8 -03455.4 -07.5628 26254.2
 23 06 2013  01 43  -21.0452 26025.5 -03455.2 -07.5625 26253.8
 23 06 2013  01 44  -21.0446 26025.1 -03455.0 -07.5621 26253.5
 23 06 2013  01 45  -21.0444 26024.6 -03454.8 -07.5617 26252.9
 23 06 2013  01 46  -21.0445 26024.3 -03454.6 -07.5616 26252.6
 23 06 2013  01 47  -21.0443 26023.8 -03454.4 -07.5613 26252.1
 23 06 2013  01 48  -21.0439 26023.4 -03454.3 -07.5611 26251.7
 23 06 2013  01 49  -21.0432 26023.0 -03454.1 -07.5608 26251.2
 23 06 2013  01 50  -21.0426 26022.5 -03453.9 -07.5605 26250.7
 23 06 2013  01 51  -21.0423 26022.0 -03453.8 -07.5604 26250.2
 23 06 2013  01 52  -21.0422 26021.6 -03453.6 -07.5602 26249.8
 23 06 2013  01 53  -21.0425 26021.1 -03453.6 -07.5602 26249.2
 23 06 2013  01 54  -21.0427 26020.8 -03453.6 -07.5603 26249.0
 23 06 2013  01 55  -21.0433 26020.4 -03453.5 -07.5603 26248.6
 23 06 2013  01 56  -21.0433 26020.1 -03453.5 -07.5603 26248.3
 23 06 2013  01 57  -21.0435 26019.8 -03453.3 -07.5601 26248.0
 23 06 2013  01 58  -21.0434 26019.5 -03453.2 -07.5600 26247.7
 23 06 2013  01 59  -21.0435 26019.2 -03453.1 -07.5598 26247.3
 23 06 2013  02 00  -21.0440 26019.0 -03453.1 -07.5598 26247.2
 23 06 2013  02 01  -21.0452 26019.2 -03453.4 -07.5603 26247.4
 23 06 2013  02 02  -21.0454 26019.7 -03453.6 -07.5608 26247.9
 23 06 2013  02 03  -21.0462 26020.0 -03453.9 -07.5612 26248.2
 23 06 2013  02 04  -21.0472 26020.8 -03454.3 -07.5618 26249.0
 23 06 2013  02 05  -21.0466 26021.5 -03454.6 -07.5623 26249.8
 23 06 2013  02 06  -21.0458 26021.9 -03454.7 -07.5625 26250.2
 23 06 2013  02 07  -21.0454 26022.2 -03455.0 -07.5629 26250.6
 23 06 2013  02 08  -21.0443 26022.8 -03455.1 -07.5631 26251.1
 23 06 2013  02 09  -21.0433 26023.7 -03455.4 -07.5635 26252.1
 23 06 2013  02 10  -21.0424 26024.4 -03455.8 -07.5640 26252.8
 23 06 2013  02 11  -21.0422 26025.0 -03456.1 -07.5646 26253.5
 23 06 2013  02 12  -21.0426 26025.7 -03456.4 -07.5651 26254.2
 23 06 2013  02 13  -21.0436 26026.5 -03456.8 -07.5657 26255.0
 23 06 2013  02 14  -21.0446 26027.5 -03457.3 -07.5664 26256.1
 23 06 2013  02 15  -21.0451 26028.3 -03457.6 -07.5668 26257.0
 23 06 2013  02 16  -21.0449 26029.1 -03457.7 -07.5669 26257.7
 23 06 2013  02 17  -21.0455 26029.9 -03457.9 -07.5671 26258.5
 23 06 2013  02 18  -21.0464 26030.5 -03458.1 -07.5673 26259.2
 23 06 2013  02 19  -21.0468 26030.9 -03458.1 -07.5672 26259.6
 23 06 2013  02 20  -21.0466 26031.2 -03458.0 -07.5669 26259.9
 23 06 2013  02 21  -21.0466 26031.6 -03458.0 -07.5667 26260.2
 23 06 2013  02 22  -21.0473 26032.0 -03458.0 -07.5666 26260.7
 23 06 2013  02 23  -21.0482 26032.7 -03458.1 -07.5668 26261.3
 23 06 2013  02 24  -21.0491 26033.3 -03458.3 -07.5669 26262.0
 23 06 2013  02 25  -21.0498 26033.9 -03458.4 -07.5669 26262.6
 23 06 2013  02 26  -21.0502 26034.4 -03458.4 -07.5669 26263.1
 23 06 2013  02 27  -21.0505 26034.9 -03458.4 -07.5667 26263.6
 23 06 2013  02 28  -21.0511 26035.0 -03458.3 -07.5665 26263.7
 23 06 2013  02 29  -21.0517 26034.9 -03458.1 -07.5660 26263.6
 23 06 2013  02 30  -21.0520 26034.8 -03457.8 -07.5655 26263.5
 23 06 2013  02 31  -21.0521 26034.7 -03457.6 -07.5649 26263.3
 23 06 2013  02 32  -21.0520 26034.7 -03457.3 -07.5645 26263.2
 23 06 2013  02 33  -21.0518 26034.6 -03457.1 -07.5640 26263.2
 23 06 2013  02 34  -21.0514 26034.5 -03456.9 -07.5636 26263.0
 23 06 2013  02 35  -21.0508 26034.3 -03456.7 -07.5631 26262.7
 23 06 2013  02 36  -21.0502 26033.9 -03456.3 -07.5625 26262.3
 23 06 2013  02 37  -21.0497 26033.3 -03456.0 -07.5619 26261.7
 23 06 2013  02 38  -21.0494 26032.7 -03455.6 -07.5614 26261.0
 23 06 2013  02 39  -21.0487 26032.1 -03455.3 -07.5608 26260.4
 23 06 2013  02 40  -21.0482 26031.3 -03454.9 -07.5602 26259.6
 23 06 2013  02 41  -21.0478 26030.6 -03454.6 -07.5597 26258.8
 23 06 2013  02 42  -21.0475 26029.8 -03454.3 -07.5593 26258.0
 23 06 2013  02 43  -21.0474 26029.1 -03454.0 -07.5589 26257.3
 23 06 2013  02 44  -21.0473 26028.6 -03453.9 -07.5588 26256.8
 23 06 2013  02 45  -21.0470 26028.2 -03453.8 -07.5587 26256.4
 23 06 2013  02 46  -21.0472 26027.5 -03453.6 -07.5585 26255.6
 23 06 2013  02 47  -21.0475 26027.4 -03453.7 -07.5587 26255.6
 23 06 2013  02 48  -21.0479 26027.2 -03453.8 -07.5589 26255.3
 23 06 2013  02 49  -21.0480 26027.0 -03453.8 -07.5590 26255.2
 23 06 2013  02 50  -21.0478 26026.8 -03453.8 -07.5590 26254.9
 23 06 2013  02 51  -21.0475 26026.6 -03453.7 -07.5590 26254.7
 23 06 2013  02 52  -21.0473 26026.2 -03453.6 -07.5588 26254.4
 23 06 2013  02 53  -21.0470 26025.8 -03453.5 -07.5587 26253.9
 23 06 2013  02 54  -21.0466 26025.4 -03453.4 -07.5585 26253.5
 23 06 2013  02 55  -21.0463 26025.1 -03453.4 -07.5586 26253.2
 23 06 2013  02 56  -21.0461 26025.0 -03453.4 -07.5588 26253.1
 23 06 2013  02 57  -21.0457 26025.0 -03453.5 -07.5590 26253.1
 23 06 2013  02 58  -21.0451 26025.0 -03453.7 -07.5593 26253.2
 23 06 2013  02 59  -21.0445 26025.0 -03453.8 -07.5595 26253.2
 23 06 2013  03 00  -21.0443 26025.1 -03453.9 -07.5598 26253.3
 23 06 2013  03 01  -21.0443 26025.4 -03454.2 -07.5604 26253.6
 23 06 2013  03 02  -21.0441 26025.6 -03454.4 -07.5607 26253.8
 23 06 2013  03 03  -21.0434 26025.8 -03454.5 -07.5609 26254.0
 23 06 2013  03 04  -21.0428 26025.7 -03454.6 -07.5610 26254.0
 23 06 2013  03 05  -21.0425 26025.8 -03454.7 -07.5612 26254.0
 23 06 2013  03 06  -21.0420 26025.9 -03454.8 -07.5614 26254.2
 23 06 2013  03 07  -21.0417 26026.2 -03455.0 -07.5617 26254.5
 23 06 2013  03 08  -21.0415 26026.3 -03455.1 -07.5620 26254.6
 23 06 2013  03 09  -21.0414 26026.3 -03455.1 -07.5621 26254.6
 23 06 2013  03 10  -21.0413 26026.0 -03455.1 -07.5620 26254.4
 23 06 2013  03 11  -21.0413 26025.6 -03454.8 -07.5617 26253.9
 23 06 2013  03 12  -21.0411 26025.2 -03454.7 -07.5614 26253.5
 23 06 2013  03 13  -21.0403 26025.1 -03454.6 -07.5613 26253.3
 23 06 2013  03 14  -21.0392 26025.1 -03454.7 -07.5614 26253.4
 23 06 2013  03 15  -21.0385 26024.9 -03454.6 -07.5614 26253.1
 23 06 2013  03 16  -21.0380 26024.6 -03454.6 -07.5615 26252.9
 23 06 2013  03 17  -21.0376 26024.6 -03454.7 -07.5617 26252.9
 23 06 2013  03 18  -21.0373 26024.8 -03454.9 -07.5620 26253.1
 23 06 2013  03 19  -21.0373 26025.0 -03455.1 -07.5625 26253.4
 23 06 2013  03 20  -21.0375 26025.1 -03455.3 -07.5628 26253.4
 23 06 2013  03 21  -21.0374 26025.0 -03455.3 -07.5629 26253.3
 23 06 2013  03 22  -21.0372 26024.7 -03455.2 -07.5628 26253.1
 23 06 2013  03 23  -21.0371 26024.4 -03455.1 -07.5627 26252.8
 23 06 2013  03 24  -21.0371 26024.0 -03455.0 -07.5625 26252.3
 23 06 2013  03 25  -21.0370 26023.7 -03454.9 -07.5624 26252.0
 23 06 2013  03 26  -21.0368 26023.5 -03454.9 -07.5623 26251.9
 23 06 2013  03 27  -21.0363 26023.6 -03455.0 -07.5625 26251.9
 23 06 2013  03 28  -21.0358 26023.6 -03455.1 -07.5628 26252.0
 23 06 2013  03 29  -21.0355 26023.8 -03455.3 -07.5631 26252.2
 23 06 2013  03 30  -21.0342 26024.0 -03455.6 -07.5637 26252.4
 23 06 2013  03 31  -21.0352 26024.4 -03455.7 -07.5640 26252.8
 23 06 2013  03 32  -21.0355 26024.6 -03455.9 -07.5643 26253.1
 23 06 2013  03 33  -21.0360 26024.7 -03456.0 -07.5645 26253.2
 23 06 2013  03 34  -21.0365 26024.7 -03456.1 -07.5646 26253.2
 23 06 2013  03 35  -21.0371 26024.7 -03456.1 -07.5645 26253.2
 23 06 2013  03 36  -21.0379 26024.7 -03456.0 -07.5645 26253.1
 23 06 2013  03 37  -21.0388 26024.6 -03456.1 -07.5646 26253.1
 23 06 2013  03 38  -21.0397 26024.5 -03456.0 -07.5645 26253.0
 23 06 2013  03 39  -21.0406 26024.6 -03456.0 -07.5644 26253.1
 23 06 2013  03 40  -21.0413 26024.6 -03456.0 -07.5644 26253.1
 23 06 2013  03 41  -21.0418 26024.6 -03455.9 -07.5643 26253.1
 23 06 2013  03 42  -21.0422 26024.6 -03455.8 -07.5641 26253.0
 23 06 2013  03 43  -21.0424 26024.7 -03455.8 -07.5641 26253.1
 23 06 2013  03 44  -21.0424 26024.8 -03455.8 -07.5640 26253.2
 23 06 2013  03 45  -21.0419 26024.7 -03455.7 -07.5638 26253.1
 23 06 2013  03 46  -21.0414 26024.7 -03455.7 -07.5637 26253.1
 23 06 2013  03 47  -21.0414 26024.7 -03455.7 -07.5637 26253.1
 23 06 2013  03 48  -21.0415 26024.8 -03455.7 -07.5638 26253.2
 23 06 2013  03 49  -21.0415 26024.7 -03455.7 -07.5637 26253.2
 23 06 2013  03 50  -21.0416 26024.8 -03455.6 -07.5636 26253.2
 23 06 2013  03 51  -21.0417 26024.8 -03455.7 -07.5637 26253.2
 23 06 2013  03 52  -21.0420 26024.9 -03455.7 -07.5638 26253.4
 23 06 2013  03 53  -21.0422 26025.0 -03455.8 -07.5638 26253.4
 23 06 2013  03 54  -21.0425 26025.1 -03455.8 -07.5639 26253.5
 23 06 2013  03 55  -21.0431 26025.2 -03455.9 -07.5640 26253.6
 23 06 2013  03 56  -21.0436 26025.5 -03456.0 -07.5642 26254.0
 23 06 2013  03 57  -21.0441 26025.7 -03456.1 -07.5643 26254.2
 23 06 2013  03 58  -21.0445 26025.9 -03456.1 -07.5643 26254.4
 23 06 2013  03 59  -21.0450 26026.2 -03456.2 -07.5644 26254.6
 23 06 2013  04 00  -21.0455 26026.4 -03456.2 -07.5644 26254.9
 23 06 2013  04 01  -21.0455 26026.5 -03456.2 -07.5643 26255.0
 23 06 2013  04 02  -21.0454 26026.6 -03456.1 -07.5641 26255.0
 23 06 2013  04 03  -21.0452 26026.6 -03456.0 -07.5640 26255.0
 23 06 2013  04 04  -21.0449 26026.6 -03456.0 -07.5638 26255.0
 23 06 2013  04 05  -21.0449 26026.4 -03455.8 -07.5636 26254.9
 23 06 2013  04 06  -21.0451 26026.2 -03455.7 -07.5633 26254.6
 23 06 2013  04 07  -21.0451 26026.0 -03455.5 -07.5630 26254.4
 23 06 2013  04 08  -21.0449 26025.8 -03455.4 -07.5628 26254.2
 23 06 2013  04 09  -21.0444 26025.9 -03455.4 -07.5627 26254.3
 23 06 2013  04 10  -21.0441 26026.2 -03455.5 -07.5629 26254.6
 23 06 2013  04 11  -21.0437 26026.4 -03455.6 -07.5631 26254.9
 23 06 2013  04 12  -21.0432 26026.5 -03455.7 -07.5632 26254.9
 23 06 2013  04 13  -21.0425 26026.5 -03455.7 -07.5632 26254.9
 23 06 2013  04 14  -21.0419 26026.4 -03455.6 -07.5631 26254.8
 23 06 2013  04 15  -21.0415 26026.2 -03455.5 -07.5630 26254.6
 23 06 2013  04 16  -21.0414 26026.0 -03455.5 -07.5629 26254.4
 23 06 2013  04 17  -21.0412 26026.0 -03455.5 -07.5629 26254.4
 23 06 2013  04 18  -21.0412 26026.2 -03455.6 -07.5630 26254.6
 23 06 2013  04 19  -21.0412 26026.3 -03455.7 -07.5633 26254.7
 23 06 2013  04 20  -21.0410 26026.5 -03455.8 -07.5635 26254.9
 23 06 2013  04 21  -21.0408 26026.6 -03455.8 -07.5635 26255.0
 23 06 2013  04 22  -21.0408 26026.6 -03455.9 -07.5636 26255.0
 23 06 2013  04 23  -21.0411 26026.6 -03455.9 -07.5636 26255.0
 23 06 2013  04 24  -21.0410 26026.5 -03455.8 -07.5636 26255.0
 23 06 2013  04 25  -21.0405 26026.4 -03455.7 -07.5634 26254.8
 23 06 2013  04 26  -21.0395 26027.0 -03455.9 -07.5636 26255.5
 23 06 2013  04 27  -21.0369 26030.7 -03457.5 -07.5660 26259.3
 23 06 2013  04 28  -21.0336 26035.1 -03459.9 -07.5698 26264.0
 23 06 2013  04 29  -21.0309 26037.4 -03461.1 -07.5718 26266.4
 23 06 2013  04 30  -21.0300 26037.9 -03461.3 -07.5722 26267.0
 23 06 2013  04 31  -21.0304 26037.7 -03461.1 -07.5717 26266.7
 23 06 2013  04 32  -21.0304 26037.3 -03460.7 -07.5709 26266.3
 23 06 2013  04 33  -21.0298 26036.8 -03460.1 -07.5699 26265.7
 23 06 2013  04 34  -21.0290 26036.5 -03459.8 -07.5692 26265.4
 23 06 2013  04 35  -21.0289 26036.5 -03459.6 -07.5689 26265.4
 23 06 2013  04 36  -21.0290 26036.7 -03459.6 -07.5688 26265.6
 23 06 2013  04 37  -21.0291 26036.8 -03459.6 -07.5688 26265.7
 23 06 2013  04 38  -21.0288 26036.9 -03459.6 -07.5687 26265.7
 23 06 2013  04 39  -21.0282 26037.3 -03459.6 -07.5687 26266.1
 23 06 2013  04 40  -21.0273 26037.7 -03459.8 -07.5688 26266.5
 23 06 2013  04 41  -21.0272 26037.0 -03459.5 -07.5684 26265.9
 23 06 2013  04 42  -21.0277 26036.1 -03459.0 -07.5676 26264.9
 23 06 2013  04 43  -21.0280 26034.9 -03458.3 -07.5665 26263.6
 23 06 2013  04 44  -21.0278 26034.1 -03457.8 -07.5657 26262.7
 23 06 2013  04 45  -21.0273 26033.0 -03457.2 -07.5647 26261.5
 23 06 2013  04 46  -21.0264 26032.2 -03456.8 -07.5640 26260.7
 23 06 2013  04 47  -21.0260 26031.7 -03456.6 -07.5638 26260.2
 23 06 2013  04 48  -21.0258 26031.9 -03456.8 -07.5640 26260.4
 23 06 2013  04 49  -21.0254 26032.3 -03457.0 -07.5645 26260.8
 23 06 2013  04 50  -21.0249 26033.0 -03457.5 -07.5652 26261.6
 23 06 2013  04 51  -21.0250 26033.5 -03457.9 -07.5660 26262.2
 23 06 2013  04 52  -21.0255 26033.7 -03458.1 -07.5663 26262.4
 23 06 2013  04 53  -21.0264 26033.6 -03458.1 -07.5664 26262.2
 23 06 2013  04 54  -21.0270 26033.6 -03458.1 -07.5664 26262.3
 23 06 2013  04 55  -21.0277 26033.9 -03458.2 -07.5665 26262.6
 23 06 2013  04 56  -21.0288 26034.2 -03458.3 -07.5666 26262.8
 23 06 2013  04 57  -21.0295 26034.8 -03458.5 -07.5669 26263.6
 23 06 2013  04 58  -21.0301 26036.0 -03459.0 -07.5676 26264.8
 23 06 2013  04 59  -21.0317 26036.9 -03459.3 -07.5682 26265.7
 23 06 2013  05 00  -21.0343 26037.2 -03459.5 -07.5684 26266.0
 23 06 2013  05 01  -21.0363 26037.3 -03459.4 -07.5681 26266.1
 23 06 2013  05 02  -21.0373 26037.7 -03459.2 -07.5677 26266.4
 23 06 2013  05 03  -21.0381 26038.2 -03459.3 -07.5676 26267.0
 23 06 2013  05 04  -21.0391 26038.8 -03459.3 -07.5675 26267.6
 23 06 2013  05 05  -21.0403 26039.1 -03459.2 -07.5673 26267.9
 23 06 2013  05 06  -21.0413 26039.5 -03459.2 -07.5671 26268.3
 23 06 2013  05 07  -21.0423 26040.0 -03459.2 -07.5669 26268.7
 23 06 2013  05 08  -21.0434 26040.3 -03459.1 -07.5666 26269.0
 23 06 2013  05 09  -21.0441 26040.1 -03458.8 -07.5660 26268.8
 23 06 2013  05 10  -21.0449 26040.1 -03458.5 -07.5654 26268.8
 23 06 2013  05 11  -21.0458 26040.2 -03458.3 -07.5650 26268.9
 23 06 2013  05 12  -21.0462 26040.2 -03458.1 -07.5645 26268.8
 23 06 2013  05 13  -21.0463 26040.3 -03457.9 -07.5640 26268.9
 23 06 2013  05 14  -21.0466 26040.4 -03457.8 -07.5638 26269.0
 23 06 2013  05 15  -21.0469 26040.4 -03457.7 -07.5635 26268.9
 23 06 2013  05 16  -21.0473 26040.1 -03457.3 -07.5629 26268.6
 23 06 2013  05 17  -21.0478 26040.1 -03457.1 -07.5625 26268.6
 23 06 2013  05 18  -21.0481 26040.6 -03457.3 -07.5626 26269.1
 23 06 2013  05 19  -21.0492 26041.0 -03457.5 -07.5630 26269.5
 23 06 2013  05 20  -21.0509 26040.9 -03457.4 -07.5629 26269.4
 23 06 2013  05 21  -21.0525 26040.2 -03457.0 -07.5622 26268.7
 23 06 2013  05 22  -21.0537 26039.4 -03456.4 -07.5611 26267.8
 23 06 2013  05 23  -21.0538 26039.0 -03456.0 -07.5603 26267.3
 23 06 2013  05 24  -21.0531 26038.7 -03455.7 -07.5597 26267.0
 23 06 2013  05 25  -21.0522 26038.2 -03455.2 -07.5589 26266.4
 23 06 2013  05 26  -21.0515 26037.5 -03454.8 -07.5582 26265.7
 23 06 2013  05 27  -21.0512 26036.3 -03454.2 -07.5573 26264.4
 23 06 2013  05 28  -21.0509 26035.2 -03453.7 -07.5564 26263.3
 23 06 2013  05 29  -21.0507 26034.4 -03453.2 -07.5557 26262.4
 23 06 2013  05 30  -21.0508 26034.2 -03453.3 -07.5558 26262.2
 23 06 2013  05 31  -21.0506 26034.2 -03453.4 -07.5560 26262.3
 23 06 2013  05 32  -21.0498 26034.3 -03453.5 -07.5563 26262.4
 23 06 2013  05 33  -21.0489 26034.6 -03453.8 -07.5567 26262.7
 23 06 2013  05 34  -21.0487 26034.6 -03453.9 -07.5570 26262.7
 23 06 2013  05 35  -21.0485 26034.8 -03454.0 -07.5573 26262.9
 23 06 2013  05 36  -21.0482 26035.2 -03454.3 -07.5578 26263.4
 23 06 2013  05 37  -21.0483 26035.4 -03454.5 -07.5581 26263.6
 23 06 2013  05 38  -21.0487 26035.4 -03454.5 -07.5582 26263.6
 23 06 2013  05 39  -21.0488 26035.4 -03454.5 -07.5581 26263.5
 23 06 2013  05 40  -21.0486 26035.6 -03454.5 -07.5582 26263.7
 23 06 2013  05 41  -21.0483 26035.8 -03454.7 -07.5583 26264.0
 23 06 2013  05 42  -21.0488 26035.9 -03454.7 -07.5584 26264.1
 23 06 2013  05 43  -21.0491 26035.8 -03454.6 -07.5583 26264.0
 23 06 2013  05 44  -21.0493 26035.6 -03454.5 -07.5581 26263.8
 23 06 2013  05 45  -21.0494 26035.5 -03454.3 -07.5577 26263.6
 23 06 2013  05 46  -21.0499 26035.5 -03454.3 -07.5576 26263.7
 23 06 2013  05 47  -21.0502 26035.8 -03454.3 -07.5577 26263.9
 23 06 2013  05 48  -21.0498 26036.0 -03454.4 -07.5577 26264.2
 23 06 2013  05 49  -21.0498 26036.6 -03454.6 -07.5580 26264.7
 23 06 2013  05 50  -21.0504 26036.9 -03454.8 -07.5583 26265.1
 23 06 2013  05 51  -21.0505 26037.0 -03454.8 -07.5582 26265.2
 23 06 2013  05 52  -21.0507 26036.9 -03454.7 -07.5581 26265.1
 23 06 2013  05 53  -21.0511 26036.3 -03454.3 -07.5575 26264.5
 23 06 2013  05 54  -21.0512 26035.8 -03454.0 -07.5568 26263.9
 23 06 2013  05 55  -21.0509 26036.2 -03454.0 -07.5569 26264.3
 23 06 2013  05 56  -21.0506 26036.2 -03454.1 -07.5571 26264.3
 23 06 2013  05 57  -21.0503 26036.0 -03454.0 -07.5569 26264.1
 23 06 2013  05 58  -21.0502 26036.2 -03454.1 -07.5571 26264.3
 23 06 2013  05 59  -21.0507 26035.5 -03453.9 -07.5569 26263.6
 23 06 2013  06 00  -21.0507 26034.6 -03453.4 -07.5561 26262.6
 23 06 2013  06 01  -21.0504 26034.5 -03453.4 -07.5559 26262.6
 23 06 2013  06 02  -21.0501 26034.9 -03453.6 -07.5563 26262.9
 23 06 2013  06 03  -21.0506 26035.3 -03453.9 -07.5568 26263.4
 23 06 2013  06 04  -21.0517 26035.0 -03453.9 -07.5569 26263.1
 23 06 2013  06 05  -21.0528 26034.5 -03453.7 -07.5567 26262.6
 23 06 2013  06 06  -21.0542 26033.9 -03453.4 -07.5562 26262.0
 23 06 2013  06 07  -21.0557 26033.4 -03453.2 -07.5558 26261.5
 23 06 2013  06 08  -21.0566 26033.2 -03453.0 -07.5555 26261.2
 23 06 2013  06 09  -21.0571 26033.2 -03453.0 -07.5555 26261.2
 23 06 2013  06 10  -21.0577 26032.9 -03452.9 -07.5553 26260.9
 23 06 2013  06 11  -21.0583 26032.4 -03452.6 -07.5548 26260.4
 23 06 2013  06 12  -21.0592 26032.2 -03452.5 -07.5548 26260.2
 23 06 2013  06 13  -21.0598 26031.8 -03452.4 -07.5545 26259.8
 23 06 2013  06 14  -21.0604 26031.8 -03452.3 -07.5544 26259.7
 23 06 2013  06 15  -21.0607 26032.0 -03452.4 -07.5546 26259.9
 23 06 2013  06 16  -21.0606 26032.4 -03452.6 -07.5549 26260.3
 23 06 2013  06 17  -21.0598 26032.4 -03452.6 -07.5548 26260.3
 23 06 2013  06 18  -21.0591 26032.3 -03452.5 -07.5546 26260.2
 23 06 2013  06 19  -21.0585 26032.4 -03452.6 -07.5548 26260.4
 23 06 2013  06 20  -21.0570 26032.1 -03452.5 -07.5547 26260.1
 23 06 2013  06 21  -21.0545 26031.7 -03452.1 -07.5540 26259.6
 23 06 2013  06 22  -21.0518 26031.4 -03451.9 -07.5538 26259.2
 23 06 2013  06 23  -21.0489 26030.7 -03451.7 -07.5534 26258.5
 23 06 2013  06 24  -21.0456 26030.2 -03451.5 -07.5532 26258.0
 23 06 2013  06 25  -21.0424 26029.8 -03451.5 -07.5532 26257.6
 23 06 2013  06 26  -21.0391 26029.3 -03451.5 -07.5534 26257.1
 23 06 2013  06 27  -21.0359 26028.8 -03451.5 -07.5536 26256.7
 23 06 2013  06 28  -21.0334 26028.9 -03451.8 -07.5542 26256.7
 23 06 2013  06 29  -21.0319 26028.6 -03452.2 -07.5550 26256.5
 23 06 2013  06 30  -21.0305 26028.4 -03452.4 -07.5556 26256.4
 23 06 2013  06 31  -21.0293 26028.5 -03452.8 -07.5565 26256.6
 23 06 2013  06 32  -21.0286 26028.3 -03453.0 -07.5570 26256.4
 23 06 2013  06 33  -21.0282 26028.0 -03453.2 -07.5574 26256.1
 23 06 2013  06 34  -21.0277 26027.9 -03453.4 -07.5578 26256.0
 23 06 2013  06 35  -21.0276 26027.8 -03453.6 -07.5584 26255.9
 23 06 2013  06 36  -21.0272 26028.0 -03453.9 -07.5589 26256.1
 23 06 2013  06 37  -21.0270 26028.2 -03454.3 -07.5597 26256.4
 23 06 2013  06 38  -21.0268 26028.6 -03454.6 -07.5603 26256.8
 23 06 2013  06 39  -21.0271 26028.4 -03454.7 -07.5606 26256.7
 23 06 2013  06 40  -21.0271 26028.4 -03454.8 -07.5607 26256.6
 23 06 2013  06 41  -21.0270 26028.5 -03454.9 -07.5610 26256.8
 23 06 2013  06 42  -21.0271 26028.4 -03455.0 -07.5612 26256.7
 23 06 2013  06 43  -21.0273 26028.5 -03455.2 -07.5615 26256.8
 23 06 2013  06 44  -21.0272 26028.4 -03455.2 -07.5616 26256.8
 23 06 2013  06 45  -21.0271 26028.4 -03455.2 -07.5617 26256.7
 23 06 2013  06 46  -21.0268 26028.2 -03455.1 -07.5616 26256.5
 23 06 2013  06 47  -21.0265 26028.1 -03455.1 -07.5616 26256.4
 23 06 2013  06 48  -21.0265 26028.1 -03455.2 -07.5618 26256.4
 23 06 2013  06 49  -21.0267 26028.1 -03455.3 -07.5620 26256.4
 23 06 2013  06 50  -21.0269 26028.0 -03455.4 -07.5622 26256.4
 23 06 2013  06 51  -21.0267 26027.9 -03455.4 -07.5622 26256.2
 23 06 2013  06 52  -21.0264 26028.0 -03455.5 -07.5623 26256.4
 23 06 2013  06 53  -21.0262 26028.0 -03455.5 -07.5624 26256.3
 23 06 2013  06 54  -21.0259 26027.8 -03455.5 -07.5624 26256.2
 23 06 2013  06 55  -21.0254 26027.6 -03455.4 -07.5623 26256.0
 23 06 2013  06 56  -21.0249 26027.3 -03455.3 -07.5621 26255.6
 23 06 2013  06 57  -21.0243 26026.9 -03455.1 -07.5619 26255.2
 23 06 2013  06 58  -21.0238 26026.9 -03455.2 -07.5620 26255.2
 23 06 2013  06 59  -21.0229 26027.2 -03455.4 -07.5623 26255.5
 23 06 2013  07 00  -21.0224 26027.0 -03455.5 -07.5626 26255.4
 23 06 2013  07 01  -21.0223 26026.7 -03455.4 -07.5626 26255.1
 23 06 2013  07 02  -21.0222 26026.8 -03455.5 -07.5628 26255.2
 23 06 2013  07 03  -21.0219 26027.0 -03455.7 -07.5632 26255.4
 23 06 2013  07 04  -21.0219 26026.7 -03455.8 -07.5633 26255.1
 23 06 2013  07 05  -21.0224 26026.3 -03455.6 -07.5632 26254.7
 23 06 2013  07 06  -21.0231 26026.0 -03455.5 -07.5630 26254.4
 23 06 2013  07 07  -21.0235 26026.1 -03455.7 -07.5633 26254.5
 23 06 2013  07 08  -21.0240 26026.0 -03455.7 -07.5634 26254.5
 23 06 2013  07 09  -21.0244 26026.2 -03455.9 -07.5637 26254.6
 23 06 2013  07 10  -21.0249 26026.5 -03456.0 -07.5640 26255.0
 23 06 2013  07 11  -21.0253 26026.7 -03456.2 -07.5643 26255.2
 23 06 2013  07 12  -21.0259 26026.6 -03456.2 -07.5643 26255.1
 23 06 2013  07 13  -21.0265 26026.3 -03456.1 -07.5641 26254.8
 23 06 2013  07 14  -21.0268 26026.1 -03455.9 -07.5638 26254.5
 23 06 2013  07 15  -21.0269 26026.0 -03455.8 -07.5636 26254.4
 23 06 2013  07 16  -21.0268 26025.9 -03455.7 -07.5635 26254.3
 23 06 2013  07 17  -21.0268 26025.6 -03455.6 -07.5632 26254.0
 23 06 2013  07 18  -21.0267 26025.2 -03455.3 -07.5629 26253.6
 23 06 2013  07 19  -21.0265 26025.2 -03455.3 -07.5629 26253.6
 23 06 2013  07 20  -21.0262 26025.4 -03455.5 -07.5631 26253.8
 23 06 2013  07 21  -21.0262 26025.2 -03455.5 -07.5631 26253.6
 23 06 2013  07 22  -21.0260 26024.9 -03455.3 -07.5629 26253.3
 23 06 2013  07 23  -21.0258 26024.6 -03455.2 -07.5627 26253.0
 23 06 2013  07 24  -21.0253 26024.6 -03455.2 -07.5627 26253.0
 23 06 2013  07 25  -21.0251 26024.7 -03455.3 -07.5629 26253.1
 23 06 2013  07 26  -21.0249 26024.7 -03455.3 -07.5630 26253.1
 23 06 2013  07 27  -21.0248 26024.7 -03455.5 -07.5633 26253.1
 23 06 2013  07 28  -21.0250 26024.8 -03455.5 -07.5634 26253.2
 23 06 2013  07 29  -21.0251 26025.0 -03455.7 -07.5637 26253.4
 23 06 2013  07 30  -21.0254 26025.1 -03455.8 -07.5639 26253.6
 23 06 2013  07 31  -21.0258 26025.3 -03456.0 -07.5642 26253.8
 23 06 2013  07 32  -21.0259 26025.6 -03456.1 -07.5643 26254.0
 23 06 2013  07 33  -21.0262 26025.6 -03456.1 -07.5644 26254.1
 23 06 2013  07 34  -21.0268 26025.2 -03455.9 -07.5642 26253.7
 23 06 2013  07 35  -21.0272 26025.0 -03455.8 -07.5639 26253.5
 23 06 2013  07 36  -21.0277 26025.0 -03455.8 -07.5639 26253.5
 23 06 2013  07 37  -21.0283 26024.7 -03455.7 -07.5637 26253.2
 23 06 2013  07 38  -21.0287 26024.7 -03455.6 -07.5635 26253.1
 23 06 2013  07 39  -21.0291 26025.0 -03455.7 -07.5637 26253.4
 23 06 2013  07 40  -21.0292 26025.0 -03455.8 -07.5638 26253.5
 23 06 2013  07 41  -21.0293 26024.9 -03455.7 -07.5637 26253.4
 23 06 2013  07 42  -21.0295 26025.1 -03455.7 -07.5637 26253.5
 23 06 2013  07 43  -21.0299 26025.2 -03455.8 -07.5639 26253.7
 23 06 2013  07 44  -21.0300 26025.4 -03455.9 -07.5640 26253.9
 23 06 2013  07 45  -21.0301 26025.9 -03456.1 -07.5642 26254.3
 23 06 2013  07 46  -21.0303 26026.1 -03456.2 -07.5645 26254.6
 23 06 2013  07 47  -21.0303 26026.1 -03456.2 -07.5644 26254.6
 23 06 2013  07 48  -21.0299 26026.1 -03456.1 -07.5642 26254.6
 23 06 2013  07 49  -21.0294 26026.1 -03456.0 -07.5640 26254.6
 23 06 2013  07 50  -21.0286 26025.9 -03455.8 -07.5637 26254.4
 23 06 2013  07 51  -21.0281 26025.8 -03455.8 -07.5636 26254.2
 23 06 2013  07 52  -21.0279 26026.0 -03455.8 -07.5637 26254.4
 23 06 2013  07 53  -21.0281 26026.0 -03455.9 -07.5639 26254.5
 23 06 2013  07 54  -21.0283 26025.7 -03455.8 -07.5637 26254.2
 23 06 2013  07 55  -21.0279 26025.2 -03455.5 -07.5632 26253.6
 23 06 2013  07 56  -21.0276 26025.2 -03455.4 -07.5629 26253.5
 23 06 2013  07 57  -21.0280 26025.3 -03455.6 -07.5634 26253.8
 23 06 2013  07 58  -21.0281 26025.3 -03455.6 -07.5634 26253.7
 23 06 2013  07 59  -21.0278 26025.2 -03455.6 -07.5633 26253.6
 23 06 2013  08 00  -21.0272 26025.0 -03455.4 -07.5631 26253.4
 23 06 2013  08 01  -21.0268 26025.0 -03455.4 -07.5630 26253.4
 23 06 2013  08 02  -21.0271 26024.8 -03455.4 -07.5630 26253.2
 23 06 2013  08 03  -21.0272 26024.6 -03455.3 -07.5629 26252.9
 23 06 2013  08 04  -21.0267 26024.3 -03455.1 -07.5627 26252.6
 23 06 2013  08 05  -21.0259 26024.2 -03455.0 -07.5625 26252.5
 23 06 2013  08 06  -21.0252 26024.3 -03455.1 -07.5627 26252.7
 23 06 2013  08 07  -21.0249 26024.5 -03455.3 -07.5629 26252.9
 23 06 2013  08 08  -21.0252 26025.1 -03455.7 -07.5636 26253.5
 23 06 2013  08 09  -21.0258 26025.3 -03455.9 -07.5641 26253.8
 23 06 2013  08 10  -21.0253 26025.1 -03455.8 -07.5640 26253.6
 23 06 2013  08 11  -21.0247 26025.2 -03455.8 -07.5638 26253.6
 23 06 2013  08 12  -21.0242 26025.2 -03455.8 -07.5638 26253.6
 23 06 2013  08 13  -21.0239 26025.2 -03455.7 -07.5637 26253.6
 23 06 2013  08 14  -21.0232 26025.1 -03455.7 -07.5637 26253.5
 23 06 2013  08 15  -21.0219 26024.7 -03455.5 -07.5633 26253.1
 23 06 2013  08 16  -21.0208 26024.5 -03455.3 -07.5630 26252.9
 23 06 2013  08 17  -21.0205 26024.3 -03455.3 -07.5631 26252.7
 23 06 2013  08 18  -21.0202 26024.0 -03455.3 -07.5630 26252.4
 23 06 2013  08 19  -21.0199 26023.9 -03455.2 -07.5629 26252.3
 23 06 2013  08 20  -21.0202 26023.9 -03455.3 -07.5632 26252.3
 23 06 2013  08 21  -21.0205 26024.1 -03455.5 -07.5636 26252.6
 23 06 2013  08 22  -21.0207 26024.5 -03455.8 -07.5640 26252.9
 23 06 2013  08 23  -21.0205 26024.5 -03455.8 -07.5641 26253.0
 23 06 2013  08 24  -21.0204 26024.5 -03455.8 -07.5641 26253.0
 23 06 2013  08 25  -21.0206 26024.8 -03456.0 -07.5643 26253.3
 23 06 2013  08 26  -21.0214 26024.6 -03456.0 -07.5644 26253.1
 23 06 2013  08 27  -21.0221 26024.3 -03455.8 -07.5642 26252.8
 23 06 2013  08 28  -21.0227 26024.1 -03455.7 -07.5640 26252.5
 23 06 2013  08 29  -21.0230 26024.2 -03455.7 -07.5639 26252.6
 23 06 2013  08 30  -21.0229 26024.2 -03455.6 -07.5637 26252.6
 23 06 2013  08 31  -21.0229 26023.8 -03455.4 -07.5634 26252.2
 23 06 2013  08 32  -21.0223 26023.5 -03455.2 -07.5630 26251.9
 23 06 2013  08 33  -21.0206 26022.9 -03454.8 -07.5624 26251.3
 23 06 2013  08 34  -21.0190 26022.6 -03454.5 -07.5618 26250.9
 23 06 2013  08 35  -21.0167 26022.5 -03454.3 -07.5614 26250.8
 23 06 2013  08 36  -21.0143 26022.5 -03454.3 -07.5613 26250.7
 23 06 2013  08 37  -21.0130 26022.4 -03454.4 -07.5617 26250.7
 23 06 2013  08 38  -21.0120 26022.4 -03454.6 -07.5620 26250.7
 23 06 2013  08 39  -21.0113 26022.4 -03454.7 -07.5622 26250.7
 23 06 2013  08 40  -21.0106 26022.3 -03454.7 -07.5623 26250.6
 23 06 2013  08 41  -21.0099 26022.7 -03454.9 -07.5627 26251.0
 23 06 2013  08 42  -21.0099 26022.7 -03455.1 -07.5631 26251.0
 23 06 2013  08 43  -21.0095 26022.6 -03455.1 -07.5631 26251.0
 23 06 2013  08 44  -21.0089 26022.5 -03455.1 -07.5630 26250.9
 23 06 2013  08 45  -21.0086 26022.8 -03455.3 -07.5634 26251.2
 23 06 2013  08 46  -21.0087 26023.0 -03455.5 -07.5639 26251.4
 23 06 2013  08 47  -21.0077 26023.0 -03455.5 -07.5639 26251.4
 23 06 2013  08 48  -21.0062 26023.1 -03455.5 -07.5639 26251.5
 23 06 2013  08 49  -21.0050 26023.5 -03455.8 -07.5643 26251.9
 23 06 2013  08 50  -21.0039 26023.2 -03455.7 -07.5643 26251.7
 23 06 2013  08 51  -21.0031 26023.3 -03455.9 -07.5646 26251.8
 23 06 2013  08 52  -21.0017 26023.5 -03456.0 -07.5647 26252.0
 23 06 2013  08 53  -21.0008 26023.7 -03456.1 -07.5650 26252.2
 23 06 2013  08 54  -21.0005 26023.7 -03456.3 -07.5653 26252.2
 23 06 2013  08 55  -21.0004 26023.7 -03456.4 -07.5656 26252.2
 23 06 2013  08 56  -21.0000 26023.9 -03456.5 -07.5657 26252.4
 23 06 2013  08 57  -20.9996 26024.0 -03456.6 -07.5660 26252.6
 23 06 2013  08 58  -20.9997 26024.1 -03456.8 -07.5664 26252.6
 23 06 2013  08 59  -20.9995 26024.2 -03457.0 -07.5668 26252.8
 23 06 2013  09 00  -20.9987 26024.0 -03457.0 -07.5667 26252.6
 23 06 2013  09 01  -20.9981 26023.8 -03457.0 -07.5668 26252.4
 23 06 2013  09 02  -20.9971 26023.8 -03457.1 -07.5670 26252.4
 23 06 2013  09 03  -20.9953 26023.9 -03457.1 -07.5670 26252.5
 23 06 2013  09 04  -20.9940 26024.1 -03457.2 -07.5671 26252.7
 23 06 2013  09 05  -20.9929 26024.1 -03457.1 -07.5670 26252.8
 23 06 2013  09 06  -20.9928 26024.5 -03457.3 -07.5673 26253.1
 23 06 2013  09 07  -20.9916 26024.7 -03457.5 -07.5677 26253.4
 23 06 2013  09 08  -20.9908 26024.8 -03457.6 -07.5679 26253.5
 23 06 2013  09 09  -20.9899 26024.8 -03457.7 -07.5681 26253.5
 23 06 2013  09 10  -20.9893 26024.4 -03457.6 -07.5679 26253.1
 23 06 2013  09 11  -20.9885 26024.3 -03457.6 -07.5680 26253.0
 23 06 2013  09 12  -20.9877 26024.5 -03457.7 -07.5683 26253.2
 23 06 2013  09 13  -20.9870 26024.9 -03458.1 -07.5689 26253.6
 23 06 2013  09 14  -20.9858 26024.8 -03458.2 -07.5691 26253.5
 23 06 2013  09 15  -20.9849 26024.6 -03458.3 -07.5693 26253.4
 23 06 2013  09 16  -20.9830 26024.7 -03458.3 -07.5694 26253.5
 23 06 2013  09 17  -20.9822 26025.0 -03458.6 -07.5700 26253.8
 23 06 2013  09 18  -20.9816 26024.9 -03458.8 -07.5703 26253.7
 23 06 2013  09 19  -20.9796 26024.9 -03458.9 -07.5707 26253.7
 23 06 2013  09 20  -20.9782 26024.9 -03459.1 -07.5711 26253.8
 23 06 2013  09 21  -20.9768 26025.2 -03459.5 -07.5718 26254.1
 23 06 2013  09 22  -20.9754 26025.0 -03459.5 -07.5720 26254.0
 23 06 2013  09 23  -20.9742 26025.2 -03459.9 -07.5727 26254.1
 23 06 2013  09 24  -20.9726 26025.6 -03460.3 -07.5734 26254.6
 23 06 2013  09 25  -20.9728 26026.3 -03460.9 -07.5746 26255.4
 23 06 2013  09 26  -20.9720 26026.7 -03461.3 -07.5753 26255.8
 23 06 2013  09 27  -20.9704 26027.2 -03461.6 -07.5759 26256.4
 23 06 2013  09 28  -20.9701 26027.1 -03461.8 -07.5763 26256.3
 23 06 2013  09 29  -20.9692 26026.6 -03461.8 -07.5764 26255.9
 23 06 2013  09 30  -20.9695 26026.3 -03461.9 -07.5767 26255.5
 23 06 2013  09 31  -20.9696 26026.2 -03462.1 -07.5772 26255.5
 23 06 2013  09 32  -20.9698 26026.2 -03462.3 -07.5777 26255.4
 23 06 2013  09 33  -20.9691 26026.1 -03462.5 -07.5781 26255.4
 23 06 2013  09 34  -20.9674 26026.0 -03462.6 -07.5783 26255.4
 23 06 2013  09 35  -20.9663 26026.2 -03462.8 -07.5787 26255.6
 23 06 2013  09 36  -20.9656 26026.7 -03463.2 -07.5794 26256.1
 23 06 2013  09 37  -20.9658 26026.7 -03463.4 -07.5799 26256.1
 23 06 2013  09 38  -20.9669 26026.5 -03463.6 -07.5803 26256.0
 23 06 2013  09 39  -20.9663 26026.5 -03463.8 -07.5808 26256.0
 23 06 2013  09 40  -20.9642 26026.6 -03463.9 -07.5809 26256.1
 23 06 2013  09 41  -20.9625 26026.6 -03464.0 -07.5811 26256.1
 23 06 2013  09 42  -20.9608 26026.6 -03464.0 -07.5812 26256.1
 23 06 2013  09 43  -20.9593 26026.6 -03464.1 -07.5814 26256.2
 23 06 2013  09 44  -20.9594 26026.4 -03464.2 -07.5817 26256.0
 23 06 2013  09 45  -20.9599 26026.5 -03464.5 -07.5822 26256.1
 23 06 2013  09 46  -20.9605 26026.3 -03464.5 -07.5824 26255.9
 23 06 2013  09 47  -20.9608 26026.0 -03464.6 -07.5827 26255.6
 23 06 2013  09 48  -20.9592 26026.1 -03464.7 -07.5829 26255.7
 23 06 2013  09 49  -20.9593 26026.0 -03464.9 -07.5833 26255.6
 23 06 2013  09 50  -20.9599 26026.1 -03465.1 -07.5836 26255.7
 23 06 2013  09 51  -20.9616 26026.1 -03465.3 -07.5841 26255.8
 23 06 2013  09 52  -20.9626 26026.2 -03465.5 -07.5845 26255.9
 23 06 2013  09 53  -20.9618 26026.5 -03465.6 -07.5847 26256.2
 23 06 2013  09 54  -20.9609 26026.7 -03465.7 -07.5848 26256.4
 23 06 2013  09 55  -20.9615 26026.6 -03465.7 -07.5848 26256.3
 23 06 2013  09 56  -20.9619 26026.5 -03465.7 -07.5850 26256.2
 23 06 2013  09 57  -20.9615 26026.9 -03466.1 -07.5856 26256.7
 23 06 2013  09 58  -20.9596 26027.3 -03466.3 -07.5859 26257.1
 23 06 2013  09 59  -20.9590 26027.6 -03466.5 -07.5863 26257.5
 23 06 2013  10 00  -20.9587 26028.0 -03466.7 -07.5865 26257.8
 23 06 2013  10 01  -20.9592 26028.3 -03466.8 -07.5867 26258.1
 23 06 2013  10 02  -20.9598 26028.5 -03466.9 -07.5869 26258.4
 23 06 2013  10 03  -20.9601 26028.4 -03466.9 -07.5869 26258.3
 23 06 2013  10 04  -20.9600 26028.2 -03466.9 -07.5869 26258.0
 23 06 2013  10 05  -20.9604 26027.5 -03466.8 -07.5870 26257.4
 23 06 2013  10 06  -20.9601 26027.0 -03466.8 -07.5870 26256.9
 23 06 2013  10 07  -20.9602 26026.6 -03466.8 -07.5872 26256.4
 23 06 2013  10 08  -20.9598 26026.5 -03467.0 -07.5876 26256.4
 23 06 2013  10 09  -20.9596 26026.5 -03467.2 -07.5882 26256.4
 23 06 2013  10 10  -20.9601 26026.5 -03467.5 -07.5888 26256.5
 23 06 2013  10 11  -20.9619 26026.4 -03467.7 -07.5893 26256.5
 23 06 2013  10 12  -20.9630 26026.4 -03467.9 -07.5897 26256.4
 23 06 2013  10 13  -20.9637 26026.4 -03468.0 -07.5899 26256.5
 23 06 2013  10 14  -20.9646 26026.2 -03468.0 -07.5899 26256.2
 23 06 2013  10 15  -20.9641 26026.4 -03468.0 -07.5900 26256.4
 23 06 2013  10 16  -20.9640 26026.7 -03468.2 -07.5902 26256.8
 23 06 2013  10 17  -20.9648 26027.1 -03468.3 -07.5903 26257.2
 23 06 2013  10 18  -20.9652 26027.9 -03468.6 -07.5908 26258.0
 23 06 2013  10 19  -20.9658 26028.5 -03468.7 -07.5909 26258.6
 23 06 2013  10 20  -20.9666 26028.9 -03468.9 -07.5911 26259.0
 23 06 2013  10 21  -20.9672 26028.8 -03468.8 -07.5910 26259.0
 23 06 2013  10 22  -20.9666 26028.8 -03468.7 -07.5908 26258.9
 23 06 2013  10 23  -20.9664 26028.6 -03468.7 -07.5907 26258.7
 23 06 2013  10 24  -20.9667 26028.8 -03468.8 -07.5909 26258.9
 23 06 2013  10 25  -20.9666 26029.0 -03468.9 -07.5910 26259.1
 23 06 2013  10 26  -20.9667 26029.1 -03468.9 -07.5910 26259.3
 23 06 2013  10 27  -20.9673 26029.7 -03469.0 -07.5912 26259.8
 23 06 2013  10 28  -20.9674 26030.2 -03469.2 -07.5913 26260.4
 23 06 2013  10 29  -20.9681 26030.6 -03469.2 -07.5914 26260.8
 23 06 2013  10 30  -20.9686 26031.1 -03469.3 -07.5914 26261.2
 23 06 2013  10 31  -20.9691 26031.4 -03469.4 -07.5914 26261.6
 23 06 2013  10 32  -20.9698 26031.7 -03469.4 -07.5914 26261.8
 23 06 2013  10 33  -20.9705 26031.8 -03469.4 -07.5913 26262.0
 23 06 2013  10 34  -20.9714 26032.4 -03469.5 -07.5914 26262.5
 23 06 2013  10 35  -20.9722 26032.8 -03469.6 -07.5915 26263.0
 23 06 2013  10 36  -20.9721 26033.1 -03469.5 -07.5913 26263.2
 23 06 2013  10 37  -20.9729 26033.4 -03469.6 -07.5913 26263.6
 23 06 2013  10 38  -20.9734 26034.0 -03469.8 -07.5916 26264.2
 23 06 2013  10 39  -20.9733 26033.8 -03469.7 -07.5914 26264.0
 23 06 2013  10 40  -20.9726 26033.2 -03469.4 -07.5909 26263.3
 23 06 2013  10 41  -20.9727 26032.7 -03469.2 -07.5906 26262.8
 23 06 2013  10 42  -20.9728 26032.6 -03469.2 -07.5907 26262.7
 23 06 2013  10 43  -20.9730 26032.6 -03469.4 -07.5910 26262.8
 23 06 2013  10 44  -20.9730 26032.4 -03469.5 -07.5914 26262.6
 23 06 2013  10 45  -20.9735 26032.1 -03469.6 -07.5916 26262.3
 23 06 2013  10 46  -20.9747 26031.7 -03469.7 -07.5920 26261.9
 23 06 2013  10 47  -20.9761 26031.2 -03469.7 -07.5921 26261.5
 23 06 2013  10 48  -20.9764 26031.8 -03469.9 -07.5925 26262.0
 23 06 2013  10 49  -20.9767 26032.0 -03470.2 -07.5931 26262.3
 23 06 2013  10 50  -20.9773 26031.5 -03470.2 -07.5932 26261.8
 23 06 2013  10 51  -20.9769 26031.5 -03470.2 -07.5933 26261.8
 23 06 2013  10 52  -20.9767 26031.7 -03470.4 -07.5935 26262.0
 23 06 2013  10 53  -20.9773 26031.5 -03470.4 -07.5937 26261.9
 23 06 2013  10 54  -20.9777 26031.8 -03470.6 -07.5940 26262.1
 23 06 2013  10 55  -20.9782 26031.7 -03470.6 -07.5941 26262.0
 23 06 2013  10 56  -20.9788 26031.7 -03470.7 -07.5942 26262.1
 23 06 2013  10 57  -20.9797 26031.1 -03470.6 -07.5941 26261.5
 23 06 2013  10 58  -20.9813 26030.2 -03470.4 -07.5939 26260.5
 23 06 2013  10 59  -20.9831 26029.8 -03470.4 -07.5942 26260.1
 23 06 2013  11 00  -20.9850 26029.4 -03470.5 -07.5945 26259.8
 23 06 2013  11 01  -20.9863 26029.1 -03470.6 -07.5948 26259.5
 23 06 2013  11 02  -20.9864 26029.2 -03470.8 -07.5950 26259.6
 23 06 2013  11 03  -20.9868 26029.3 -03470.9 -07.5953 26259.7
 23 06 2013  11 04  -20.9865 26029.3 -03471.0 -07.5954 26259.7
 23 06 2013  11 05  -20.9869 26029.6 -03471.1 -07.5958 26260.0
 23 06 2013  11 06  -20.9867 26029.8 -03471.3 -07.5960 26260.2
 23 06 2013  11 07  -20.9866 26029.6 -03471.2 -07.5959 26260.0
 23 06 2013  11 08  -20.9865 26029.4 -03471.1 -07.5957 26259.8
 23 06 2013  11 09  -20.9865 26029.4 -03471.1 -07.5957 26259.8
 23 06 2013  11 10  -20.9872 26029.4 -03471.1 -07.5957 26259.8
 23 06 2013  11 11  -20.9881 26029.2 -03471.1 -07.5958 26259.6
 23 06 2013  11 12  -20.9888 26029.2 -03471.1 -07.5958 26259.6
 23 06 2013  11 13  -20.9893 26029.3 -03471.1 -07.5958 26259.7
 23 06 2013  11 14  -20.9898 26029.2 -03471.1 -07.5958 26259.6
 23 06 2013  11 15  -20.9904 26029.1 -03471.0 -07.5957 26259.5
 23 06 2013  11 16  -20.9910 26029.3 -03471.1 -07.5957 26259.7
 23 06 2013  11 17  -20.9913 26029.6 -03471.1 -07.5956 26260.1
 23 06 2013  11 18  -20.9914 26029.8 -03471.0 -07.5955 26260.2
 23 06 2013  11 19  -20.9910 26029.9 -03470.9 -07.5953 26260.3
 23 06 2013  11 20  -20.9907 26030.0 -03470.9 -07.5950 26260.4
 23 06 2013  11 21  -20.9915 26030.5 -03470.9 -07.5951 26260.8
 23 06 2013  11 22  -20.9925 26031.0 -03471.1 -07.5954 26261.4
 23 06 2013  11 23  -20.9937 26030.8 -03471.1 -07.5952 26261.2
 23 06 2013  11 24  -20.9948 26030.6 -03470.9 -07.5949 26261.0
 23 06 2013  11 25  -20.9961 26030.8 -03470.8 -07.5947 26261.1
 23 06 2013  11 26  -20.9973 26030.7 -03470.7 -07.5944 26261.1
 23 06 2013  11 27  -20.9983 26030.6 -03470.5 -07.5942 26260.9
 23 06 2013  11 28  -20.9990 26030.6 -03470.6 -07.5942 26261.0
 23 06 2013  11 29  -20.9999 26030.5 -03470.5 -07.5942 26260.9
 23 06 2013  11 30  -21.0012 26030.5 -03470.5 -07.5942 26260.9
 23 06 2013  11 31  -21.0016 26030.6 -03470.6 -07.5943 26261.0
 23 06 2013  11 32  -21.0014 26031.0 -03470.6 -07.5943 26261.3
 23 06 2013  11 33  -21.0013 26031.5 -03470.8 -07.5944 26261.8
 23 06 2013  11 34  -21.0011 26031.9 -03470.8 -07.5944 26262.3
 23 06 2013  11 35  -21.0013 26032.0 -03470.6 -07.5939 26262.3
 23 06 2013  11 36  -21.0013 26032.1 -03470.4 -07.5934 26262.4
 23 06 2013  11 37  -21.0004 26032.4 -03470.3 -07.5932 26262.6
 23 06 2013  11 38  -20.9998 26032.4 -03470.3 -07.5931 26262.6
 23 06 2013  11 39  -20.9995 26032.3 -03470.2 -07.5931 26262.5
 23 06 2013  11 40  -20.9996 26032.4 -03470.3 -07.5932 26262.7
 23 06 2013  11 41  -20.9999 26032.4 -03470.4 -07.5933 26262.7
 23 06 2013  11 42  -21.0004 26032.6 -03470.4 -07.5933 26262.9
 23 06 2013  11 43  -21.0009 26033.6 -03470.6 -07.5935 26263.9
 23 06 2013  11 44  -21.0016 26034.4 -03470.7 -07.5935 26264.7
 23 06 2013  11 45  -21.0023 26034.7 -03470.6 -07.5932 26265.1
 23 06 2013  11 46  -21.0031 26034.8 -03470.4 -07.5927 26265.1
 23 06 2013  11 47  -21.0038 26034.8 -03470.3 -07.5925 26265.1
 23 06 2013  11 48  -21.0048 26034.4 -03470.1 -07.5921 26264.6
 23 06 2013  11 49  -21.0058 26034.2 -03470.0 -07.5920 26264.5
 23 06 2013  11 50  -21.0065 26034.3 -03470.1 -07.5921 26264.6
 23 06 2013  11 51  -21.0072 26034.4 -03470.1 -07.5922 26264.7
 23 06 2013  11 52  -21.0078 26034.8 -03470.2 -07.5923 26265.0
 23 06 2013  11 53  -21.0084 26035.2 -03470.3 -07.5924 26265.5
 23 06 2013  11 54  -21.0090 26035.5 -03470.4 -07.5924 26265.8
 23 06 2013  11 55  -21.0096 26036.2 -03470.5 -07.5925 26266.5
 23 06 2013  11 56  -21.0102 26036.6 -03470.5 -07.5924 26266.9
 23 06 2013  11 57  -21.0109 26037.1 -03470.5 -07.5922 26267.3
 23 06 2013  11 58  -21.0117 26037.3 -03470.3 -07.5917 26267.5
 23 06 2013  11 59  -21.0120 26037.5 -03470.1 -07.5913 26267.7
 23 06 2013  12 00  -21.0127 26037.3 -03469.9 -07.5909 26267.5
 23 06 2013  12 01  -21.0135 26037.2 -03469.8 -07.5906 26267.4
 23 06 2013  12 02  -21.0139 26037.5 -03469.8 -07.5906 26267.7
 23 06 2013  12 03  -21.0146 26037.7 -03469.7 -07.5903 26267.9
 23 06 2013  12 04  -21.0160 26036.9 -03469.2 -07.5895 26267.0
 23 06 2013  12 05  -21.0172 26035.6 -03468.7 -07.5888 26265.7
 23 06 2013  12 06  -21.0178 26035.6 -03468.8 -07.5890 26265.7
 23 06 2013  12 07  -21.0178 26036.6 -03469.4 -07.5899 26266.7
 23 06 2013  12 08  -21.0180 26037.6 -03469.7 -07.5903 26267.7
 23 06 2013  12 09  -21.0185 26038.2 -03469.7 -07.5903 26268.4
 23 06 2013  12 10  -21.0190 26038.8 -03469.7 -07.5900 26268.9
 23 06 2013  12 11  -21.0199 26039.5 -03469.6 -07.5897 26269.6
 23 06 2013  12 12  -21.0200 26040.0 -03469.5 -07.5893 26270.1
 23 06 2013  12 13  -21.0202 26040.0 -03469.3 -07.5888 26270.1
 23 06 2013  12 14  -21.0208 26039.8 -03469.1 -07.5884 26269.9
 23 06 2013  12 15  -21.0214 26040.1 -03469.1 -07.5883 26270.1
 23 06 2013  12 16  -21.0216 26040.3 -03469.1 -07.5883 26270.3
 23 06 2013  12 17  -21.0219 26040.2 -03469.0 -07.5880 26270.3
 23 06 2013  12 18  -21.0222 26040.2 -03468.9 -07.5878 26270.2
 23 06 2013  12 19  -21.0224 26040.2 -03468.8 -07.5877 26270.2
 23 06 2013  12 20  -21.0225 26040.5 -03468.9 -07.5878 26270.5
 23 06 2013  12 21  -21.0228 26040.8 -03469.0 -07.5879 26270.9
 23 06 2013  12 22  -21.0233 26041.3 -03469.1 -07.5881 26271.4
 23 06 2013  12 23  -21.0237 26042.0 -03469.3 -07.5883 26272.0
 23 06 2013  12 24  -21.0243 26042.6 -03469.4 -07.5882 26272.6
 23 06 2013  12 25  -21.0251 26043.0 -03469.4 -07.5881 26273.1
 23 06 2013  12 26  -21.0259 26043.4 -03469.3 -07.5879 26273.4
 23 06 2013  12 27  -21.0266 26043.4 -03469.2 -07.5875 26273.5
 23 06 2013  12 28  -21.0275 26043.6 -03469.1 -07.5873 26273.7
 23 06 2013  12 29  -21.0277 26044.0 -03469.1 -07.5872 26274.0
 23 06 2013  12 30  -21.0279 26044.5 -03469.1 -07.5871 26274.5
 23 06 2013  12 31  -21.0284 26045.1 -03469.2 -07.5871 26275.1
 23 06 2013  12 32  -21.0287 26045.5 -03469.1 -07.5869 26275.5
 23 06 2013  12 33  -21.0288 26045.8 -03469.0 -07.5865 26275.8
 23 06 2013  12 34  -21.0290 26045.9 -03468.8 -07.5861 26275.9
 23 06 2013  12 35  -21.0295 26045.6 -03468.6 -07.5856 26275.5
 23 06 2013  12 36  -21.0297 26045.3 -03468.4 -07.5852 26275.2
 23 06 2013  12 37  -21.0298 26045.5 -03468.4 -07.5852 26275.5
 23 06 2013  12 38  -21.0298 26046.2 -03468.6 -07.5856 26276.1
 23 06 2013  12 39  -21.0301 26047.1 -03469.0 -07.5860 26277.1
 23 06 2013  12 40  -21.0306 26048.1 -03469.1 -07.5861 26278.1
 23 06 2013  12 41  -21.0310 26049.1 -03469.3 -07.5861 26279.1
 23 06 2013  12 42  -21.0313 26049.6 -03469.1 -07.5856 26279.5
 23 06 2013  12 43  -21.0316 26049.6 -03468.8 -07.5848 26279.6
 23 06 2013  12 44  -21.0315 26049.7 -03468.5 -07.5843 26279.6
 23 06 2013  12 45  -21.0313 26049.6 -03468.3 -07.5839 26279.5
 23 06 2013  12 46  -21.0315 26049.6 -03468.3 -07.5838 26279.4
 23 06 2013  12 47  -21.0317 26049.6 -03468.2 -07.5836 26279.5
 23 06 2013  12 48  -21.0316 26050.2 -03468.3 -07.5838 26280.1
 23 06 2013  12 49  -21.0314 26050.9 -03468.5 -07.5840 26280.7
 23 06 2013  12 50  -21.0320 26051.2 -03468.6 -07.5840 26281.1
 23 06 2013  12 51  -21.0324 26051.9 -03468.7 -07.5840 26281.8
 23 06 2013  12 52  -21.0324 26052.4 -03468.6 -07.5838 26282.3
 23 06 2013  12 53  -21.0326 26052.7 -03468.5 -07.5835 26282.6
 23 06 2013  12 54  -21.0327 26052.7 -03468.3 -07.5830 26282.5
 23 06 2013  12 55  -21.0326 26052.7 -03468.2 -07.5827 26282.5
 23 06 2013  12 56  -21.0329 26052.5 -03468.0 -07.5824 26282.3
 23 06 2013  12 57  -21.0329 26052.2 -03467.8 -07.5821 26282.0
 23 06 2013  12 58  -21.0330 26052.5 -03467.9 -07.5822 26282.3
 23 06 2013  12 59  -21.0332 26052.9 -03468.0 -07.5824 26282.7
 23 06 2013  13 00  -21.0333 26053.1 -03468.0 -07.5823 26282.9
 23 06 2013  13 01  -21.0338 26053.8 -03468.2 -07.5824 26283.6
 23 06 2013  13 02  -21.0341 26054.6 -03468.4 -07.5826 26284.5
 23 06 2013  13 03  -21.0344 26055.1 -03468.4 -07.5824 26284.9
 23 06 2013  13 04  -21.0349 26055.2 -03468.2 -07.5821 26285.1
 23 06 2013  13 05  -21.0353 26055.6 -03468.2 -07.5819 26285.4
 23 06 2013  13 06  -21.0357 26056.4 -03468.3 -07.5819 26286.2
 23 06 2013  13 07  -21.0363 26057.5 -03468.6 -07.5822 26287.3
 23 06 2013  13 08  -21.0370 26058.5 -03468.7 -07.5822 26288.3
 23 06 2013  13 09  -21.0376 26059.1 -03468.6 -07.5817 26288.9
 23 06 2013  13 10  -21.0379 26059.6 -03468.4 -07.5812 26289.4
 23 06 2013  13 11  -21.0380 26059.8 -03468.2 -07.5806 26289.6
 23 06 2013  13 12  -21.0380 26060.2 -03468.1 -07.5803 26289.9
 23 06 2013  13 13  -21.0383 26060.9 -03468.2 -07.5804 26290.6
 23 06 2013  13 14  -21.0387 26061.5 -03468.2 -07.5803 26291.3
 23 06 2013  13 15  -21.0392 26062.2 -03468.2 -07.5800 26291.9
 23 06 2013  13 16  -21.0395 26062.9 -03468.2 -07.5798 26292.6
 23 06 2013  13 17  -21.0395 26063.4 -03468.1 -07.5794 26293.2
 23 06 2013  13 18  -21.0395 26063.9 -03468.0 -07.5791 26293.7
 23 06 2013  13 19  -21.0396 26064.1 -03467.8 -07.5786 26293.8
 23 06 2013  13 20  -21.0397 26064.4 -03467.6 -07.5782 26294.0
 23 06 2013  13 21  -21.0401 26064.6 -03467.5 -07.5778 26294.2
 23 06 2013  13 22  -21.0406 26064.8 -03467.3 -07.5774 26294.4
 23 06 2013  13 23  -21.0412 26065.0 -03467.1 -07.5769 26294.6
 23 06 2013  13 24  -21.0418 26064.9 -03466.9 -07.5764 26294.4
 23 06 2013  13 25  -21.0420 26064.4 -03466.5 -07.5757 26293.9
 23 06 2013  13 26  -21.0426 26064.2 -03466.4 -07.5755 26293.7
 23 06 2013  13 27  -21.0438 26064.2 -03466.4 -07.5755 26293.7
 23 06 2013  13 28  -21.0450 26064.4 -03466.4 -07.5754 26293.9
 23 06 2013  13 29  -21.0460 26064.8 -03466.3 -07.5753 26294.3
 23 06 2013  13 30  -21.0471 26065.7 -03466.5 -07.5752 26295.2
 23 06 2013  13 31  -21.0478 26066.2 -03466.4 -07.5749 26295.7
 23 06 2013  13 32  -21.0481 26066.3 -03466.1 -07.5744 26295.8
 23 06 2013  13 33  -21.0489 26066.5 -03466.0 -07.5741 26295.9
 23 06 2013  13 34  -21.0496 26066.6 -03465.9 -07.5737 26296.0
 23 06 2013  13 35  -21.0510 26066.9 -03465.8 -07.5735 26296.3
 23 06 2013  13 36  -21.0521 26066.8 -03465.4 -07.5728 26296.1
 23 06 2013  13 37  -21.0528 26067.0 -03465.3 -07.5723 26296.4
 23 06 2013  13 38  -21.0538 26067.8 -03465.3 -07.5722 26297.1
 23 06 2013  13 39  -21.0547 26068.5 -03465.3 -07.5720 26297.8
 23 06 2013  13 40  -21.0552 26068.9 -03465.2 -07.5716 26298.2
 23 06 2013  13 41  -21.0561 26069.4 -03465.1 -07.5713 26298.6
 23 06 2013  13 42  -21.0570 26069.8 -03465.0 -07.5709 26299.1
 23 06 2013  13 43  -21.0579 26070.4 -03464.9 -07.5705 26299.6
 23 06 2013  13 44  -21.0587 26071.0 -03464.7 -07.5700 26300.2
 23 06 2013  13 45  -21.0596 26071.6 -03464.6 -07.5696 26300.8
 23 06 2013  13 46  -21.0604 26071.8 -03464.3 -07.5690 26300.9
 23 06 2013  13 47  -21.0614 26071.8 -03464.0 -07.5682 26300.9
 23 06 2013  13 48  -21.0623 26072.2 -03463.9 -07.5678 26301.3
 23 06 2013  13 49  -21.0634 26072.9 -03463.8 -07.5675 26301.9
 23 06 2013  13 50  -21.0644 26073.2 -03463.6 -07.5670 26302.3
 23 06 2013  13 51  -21.0653 26074.0 -03463.6 -07.5667 26303.1
 23 06 2013  13 52  -21.0659 26074.7 -03463.5 -07.5663 26303.7
 23 06 2013  13 53  -21.0667 26074.8 -03463.2 -07.5656 26303.8
 23 06 2013  13 54  -21.0677 26075.0 -03462.9 -07.5649 26303.9
 23 06 2013  13 55  -21.0689 26075.3 -03462.7 -07.5643 26304.2
 23 06 2013  13 56  -21.0695 26075.4 -03462.3 -07.5635 26304.2
 23 06 2013  13 57  -21.0699 26075.7 -03462.1 -07.5629 26304.5
 23 06 2013  13 58  -21.0711 26076.4 -03462.1 -07.5628 26305.3
 23 06 2013  13 59  -21.0717 26076.6 -03461.8 -07.5620 26305.4
 23 06 2013  14 00  -21.0719 26077.5 -03461.8 -07.5618 26306.3
 23 06 2013  14 01  -21.0735 26078.2 -03461.7 -07.5614 26307.0
 23 06 2013  14 02  -21.0741 26078.5 -03461.3 -07.5604 26307.2
 23 06 2013  14 03  -21.0746 26079.0 -03461.0 -07.5596 26307.6
 23 06 2013  14 04  -21.0748 26078.7 -03460.4 -07.5584 26307.2
 23 06 2013  14 05  -21.0758 26078.2 -03459.8 -07.5572 26306.7
 23 06 2013  14 06  -21.0766 26078.3 -03459.4 -07.5565 26306.7
 23 06 2013  14 07  -21.0777 26079.2 -03459.4 -07.5562 26307.7
 23 06 2013  14 08  -21.0786 26081.0 -03459.7 -07.5563 26309.4
 23 06 2013  14 09  -21.0797 26082.4 -03459.7 -07.5559 26310.9
 23 06 2013  14 10  -21.0806 26082.7 -03459.2 -07.5547 26311.1
 23 06 2013  14 11  -21.0809 26082.9 -03458.6 -07.5533 26311.2
 23 06 2013  14 12  -21.0810 26082.9 -03458.0 -07.5521 26311.2
 23 06 2013  14 13  -21.0807 26082.7 -03457.5 -07.5511 26310.9
 23 06 2013  14 14  -21.0808 26082.4 -03457.1 -07.5502 26310.5
 23 06 2013  14 15  -21.0809 26082.0 -03456.7 -07.5496 26310.1
 23 06 2013  14 16  -21.0817 26082.2 -03456.7 -07.5494 26310.2
 23 06 2013  14 17  -21.0826 26082.2 -03456.5 -07.5489 26310.3
 23 06 2013  14 18  -21.0834 26082.5 -03456.2 -07.5483 26310.4
 23 06 2013  14 19  -21.0843 26083.0 -03456.1 -07.5480 26311.0
 23 06 2013  14 20  -21.0858 26083.7 -03456.0 -07.5476 26311.6
 23 06 2013  14 21  -21.0863 26083.9 -03455.6 -07.5466 26311.8
 23 06 2013  14 22  -21.0865 26084.2 -03455.3 -07.5459 26312.1
 23 06 2013  14 23  -21.0868 26084.4 -03455.0 -07.5451 26312.2
 23 06 2013  14 24  -21.0870 26084.5 -03454.7 -07.5444 26312.2
 23 06 2013  14 25  -21.0879 26085.1 -03454.6 -07.5441 26312.9
 23 06 2013  14 26  -21.0896 26086.0 -03454.6 -07.5438 26313.7
 23 06 2013  14 27  -21.0911 26087.0 -03454.4 -07.5431 26314.7
 23 06 2013  14 28  -21.0921 26088.1 -03454.1 -07.5421 26315.7
 23 06 2013  14 29  -21.0928 26089.0 -03453.7 -07.5411 26316.6
 23 06 2013  14 30  -21.0926 26089.2 -03453.1 -07.5396 26316.7
 23 06 2013  14 31  -21.0925 26089.9 -03452.7 -07.5386 26317.3
 23 06 2013  14 32  -21.0926 26090.4 -03452.3 -07.5376 26317.8
 23 06 2013  14 33  -21.0932 26091.3 -03452.1 -07.5368 26318.7
 23 06 2013  14 34  -21.0936 26091.6 -03451.6 -07.5357 26318.9
 23 06 2013  14 35  -21.0940 26091.6 -03451.0 -07.5344 26318.8
 23 06 2013  14 36  -21.0948 26091.5 -03450.4 -07.5333 26318.7
 23 06 2013  14 37  -21.0956 26091.8 -03450.1 -07.5324 26318.9
 23 06 2013  14 38  -21.0969 26092.1 -03449.7 -07.5316 26319.1
 23 06 2013  14 39  -21.0982 26092.3 -03449.3 -07.5307 26319.3
 23 06 2013  14 40  -21.0996 26091.6 -03448.5 -07.5291 26318.5
 23 06 2013  14 41  -21.1001 26091.1 -03447.9 -07.5279 26317.9
 23 06 2013  14 42  -21.1010 26091.3 -03447.6 -07.5271 26318.1
 23 06 2013  14 43  -21.1026 26092.3 -03447.5 -07.5268 26319.1
 23 06 2013  14 44  -21.1039 26093.1 -03447.3 -07.5260 26319.9
 23 06 2013  14 45  -21.1043 26093.4 -03446.8 -07.5248 26320.1
 23 06 2013  14 46  -21.1041 26092.9 -03446.1 -07.5235 26319.5
 23 06 2013  14 47  -21.1042 26092.2 -03445.4 -07.5223 26318.7
 23 06 2013  14 48  -21.1046 26091.5 -03444.8 -07.5211 26317.9
 23 06 2013  14 49  -21.1044 26090.5 -03444.1 -07.5199 26316.8
 23 06 2013  14 50  -21.1038 26089.2 -03443.4 -07.5187 26315.4
 23 06 2013  14 51  -21.1034 26088.2 -03442.9 -07.5179 26314.4
 23 06 2013  14 52  -21.1036 26087.7 -03442.7 -07.5177 26313.9
 23 06 2013  14 53  -21.1040 26087.0 -03442.5 -07.5173 26313.1
 23 06 2013  14 54  -21.1045 26086.5 -03442.2 -07.5170 26312.6
 23 06 2013  14 55  -21.1050 26086.3 -03442.0 -07.5165 26312.4
 23 06 2013  14 56  -21.1049 26086.5 -03441.8 -07.5161 26312.6
 23 06 2013  14 57  -21.1043 26086.7 -03441.6 -07.5156 26312.7
 23 06 2013  14 58  -21.1037 26086.7 -03441.3 -07.5150 26312.7
 23 06 2013  14 59  -21.1037 26087.1 -03441.3 -07.5149 26313.1
 23 06 2013  15 00  -21.1040 26087.6 -03441.3 -07.5146 26313.6
 23 06 2013  15 01  -21.1040 26088.3 -03441.1 -07.5141 26314.3
 23 06 2013  15 02  -21.1036 26089.0 -03440.9 -07.5134 26314.9
 23 06 2013  15 03  -21.1031 26089.4 -03440.6 -07.5126 26315.3
 23 06 2013  15 04  -21.1023 26089.8 -03440.3 -07.5119 26315.7
 23 06 2013  15 05  -21.1018 26090.9 -03440.3 -07.5116 26316.8
 23 06 2013  15 06  -21.1007 26091.5 -03440.0 -07.5107 26317.3
 23 06 2013  15 07  -21.0994 26091.8 -03439.6 -07.5097 26317.6
 23 06 2013  15 08  -21.0982 26091.9 -03439.2 -07.5090 26317.6
 23 06 2013  15 09  -21.0970 26091.4 -03438.8 -07.5081 26317.0
 23 06 2013  15 10  -21.0963 26091.0 -03438.5 -07.5076 26316.6
 23 06 2013  15 11  -21.0955 26089.8 -03437.9 -07.5068 26315.3
 23 06 2013  15 12  -21.0941 26088.5 -03437.4 -07.5060 26314.0
 23 06 2013  15 13  -21.0936 26088.1 -03437.4 -07.5060 26313.6
 23 06 2013  15 14  -21.0934 26088.2 -03437.5 -07.5063 26313.7
 23 06 2013  15 15  -21.0932 26088.0 -03437.6 -07.5065 26313.5
 23 06 2013  15 16  -21.0926 26087.7 -03437.5 -07.5064 26313.2
 23 06 2013  15 17  -21.0922 26087.4 -03437.4 -07.5064 26312.9
 23 06 2013  15 18  -21.0917 26086.9 -03437.3 -07.5063 26312.3
 23 06 2013  15 19  -21.0911 26086.2 -03437.1 -07.5061 26311.6
 23 06 2013  15 20  -21.0904 26085.2 -03436.9 -07.5058 26310.7
 23 06 2013  15 21  -21.0899 26084.7 -03436.9 -07.5060 26310.2
 23 06 2013  15 22  -21.0893 26084.5 -03437.0 -07.5063 26309.9
 23 06 2013  15 23  -21.0898 26085.1 -03437.5 -07.5072 26310.7
 23 06 2013  15 24  -21.0903 26086.0 -03437.9 -07.5078 26311.6
 23 06 2013  15 25  -21.0907 26086.9 -03438.1 -07.5080 26312.5
 23 06 2013  15 26  -21.0912 26088.4 -03438.4 -07.5082 26314.0
 23 06 2013  15 27  -21.0908 26089.7 -03438.5 -07.5080 26315.3
 23 06 2013  15 28  -21.0896 26090.0 -03438.0 -07.5069 26315.5
 23 06 2013  15 29  -21.0894 26090.3 -03437.8 -07.5063 26315.8
 23 06 2013  15 30  -21.0891 26091.1 -03437.6 -07.5058 26316.6
 23 06 2013  15 31  -21.0881 26091.7 -03437.4 -07.5052 26317.1
 23 06 2013  15 32  -21.0870 26090.9 -03436.7 -07.5039 26316.3
 23 06 2013  15 33  -21.0858 26090.1 -03436.1 -07.5028 26315.4
 23 06 2013  15 34  -21.0856 26090.0 -03436.0 -07.5026 26315.3
 23 06 2013  15 35  -21.0854 26089.8 -03435.8 -07.5022 26315.0
 23 06 2013  15 36  -21.0848 26089.7 -03435.6 -07.5019 26314.9
 23 06 2013  15 37  -21.0844 26089.8 -03435.6 -07.5018 26315.0
 23 06 2013  15 38  -21.0839 26089.9 -03435.6 -07.5016 26315.1
 23 06 2013  15 39  -21.0837 26089.7 -03435.4 -07.5014 26315.0
 23 06 2013  15 40  -21.0841 26090.3 -03435.6 -07.5015 26315.5
 23 06 2013  15 41  -21.0834 26091.0 -03435.5 -07.5011 26316.2
 23 06 2013  15 42  -21.0821 26090.6 -03434.9 -07.5000 26315.8
 23 06 2013  15 43  -21.0798 26089.6 -03434.2 -07.4987 26314.7
 23 06 2013  15 44  -21.0781 26089.1 -03433.9 -07.4982 26314.1
 23 06 2013  15 45  -21.0769 26088.2 -03433.6 -07.4979 26313.2
 23 06 2013  15 46  -21.0759 26087.3 -03433.4 -07.4977 26312.3
 23 06 2013  15 47  -21.0751 26086.6 -03433.3 -07.4977 26311.6
 23 06 2013  15 48  -21.0735 26085.0 -03432.9 -07.4972 26310.0
 23 06 2013  15 49  -21.0724 26083.8 -03432.7 -07.4972 26308.7
 23 06 2013  15 50  -21.0716 26082.5 -03432.6 -07.4974 26307.4
 23 06 2013  15 51  -21.0706 26081.1 -03432.5 -07.4976 26306.1
 23 06 2013  15 52  -21.0699 26080.7 -03432.9 -07.4984 26305.6
 23 06 2013  15 53  -21.0699 26080.4 -03433.3 -07.4993 26305.5
 23 06 2013  15 54  -21.0690 26079.6 -03433.3 -07.4996 26304.6
 23 06 2013  15 55  -21.0678 26079.2 -03433.4 -07.5000 26304.3
 23 06 2013  15 56  -21.0675 26079.8 -03434.0 -07.5012 26304.9
 23 06 2013  15 57  -21.0670 26080.2 -03434.4 -07.5020 26305.3
 23 06 2013  15 58  -21.0667 26080.4 -03434.7 -07.5024 26305.6
 23 06 2013  15 59  -21.0660 26080.3 -03434.7 -07.5025 26305.5
 23 06 2013  16 00  -21.0651 26080.0 -03434.8 -07.5029 26305.2
 23 06 2013  16 01  -21.0641 26079.6 -03434.9 -07.5031 26304.9
 23 06 2013  16 02  -21.0638 26079.2 -03435.0 -07.5035 26304.4
 23 06 2013  16 03  -21.0632 26078.8 -03435.0 -07.5036 26304.1
 23 06 2013  16 04  -21.0630 26078.9 -03435.2 -07.5040 26304.2
 23 06 2013  16 05  -21.0622 26078.7 -03435.2 -07.5040 26303.9
 23 06 2013  16 06  -21.0608 26077.9 -03434.9 -07.5036 26303.1
 23 06 2013  16 07  -21.0602 26078.0 -03435.1 -07.5041 26303.2
 23 06 2013  16 08  -21.0602 26077.8 -03435.2 -07.5043 26303.1
 23 06 2013  16 09  -21.0595 26076.9 -03435.0 -07.5040 26302.2
 23 06 2013  16 10  -21.0581 26076.1 -03434.7 -07.5038 26301.4
 23 06 2013  16 11  -21.0567 26074.3 -03434.2 -07.5031 26299.5
 23 06 2013  16 12  -21.0547 26072.9 -03433.9 -07.5028 26298.1
 23 06 2013  16 13  -21.0537 26072.6 -03434.2 -07.5036 26297.8
 23 06 2013  16 14  -21.0535 26072.4 -03434.5 -07.5044 26297.6
 23 06 2013  16 15  -21.0531 26072.3 -03434.8 -07.5050 26297.5
 23 06 2013  16 16  -21.0523 26072.2 -03435.0 -07.5054 26297.5
 23 06 2013  16 17  -21.0516 26072.0 -03435.1 -07.5057 26297.3
 23 06 2013  16 18  -21.0511 26071.7 -03435.3 -07.5062 26297.1
 23 06 2013  16 19  -21.0508 26071.3 -03435.4 -07.5065 26296.6
 23 06 2013  16 20  -21.0501 26070.9 -03435.4 -07.5068 26296.3
 23 06 2013  16 21  -21.0500 26071.1 -03435.8 -07.5075 26296.5
 23 06 2013  16 22  -21.0506 26071.4 -03436.2 -07.5082 26296.9
 23 06 2013  16 23  -21.0507 26071.4 -03436.3 -07.5086 26296.9
 23 06 2013  16 24  -21.0507 26071.6 -03436.6 -07.5090 26297.1
 23 06 2013  16 25  -21.0511 26071.7 -03436.8 -07.5095 26297.3
 23 06 2013  16 26  -21.0511 26071.8 -03436.9 -07.5097 26297.4
 23 06 2013  16 27  -21.0514 26072.3 -03437.2 -07.5102 26297.9
 23 06 2013  16 28  -21.0521 26073.0 -03437.6 -07.5109 26298.7
 23 06 2013  16 29  -21.0521 26073.3 -03437.7 -07.5110 26299.0
 23 06 2013  16 30  -21.0522 26073.1 -03437.6 -07.5108 26298.8
 23 06 2013  16 31  -21.0523 26073.0 -03437.5 -07.5107 26298.6
 23 06 2013  16 32  -21.0526 26072.4 -03437.3 -07.5104 26298.0
 23 06 2013  16 33  -21.0528 26071.9 -03437.1 -07.5101 26297.4
 23 06 2013  16 34  -21.0526 26071.7 -03437.0 -07.5100 26297.2
 23 06 2013  16 35  -21.0526 26071.5 -03437.0 -07.5100 26297.1
 23 06 2013  16 36  -21.0531 26071.4 -03437.1 -07.5102 26297.0
 23 06 2013  16 37  -21.0536 26070.9 -03437.1 -07.5103 26296.5
 23 06 2013  16 38  -21.0541 26070.3 -03437.0 -07.5103 26295.9
 23 06 2013  16 39  -21.0550 26070.1 -03437.1 -07.5106 26295.7
 23 06 2013  16 40  -21.0559 26070.2 -03437.3 -07.5109 26295.8
 23 06 2013  16 41  -21.0565 26070.7 -03437.6 -07.5114 26296.3
 23 06 2013  16 42  -21.0574 26070.8 -03437.7 -07.5116 26296.5
 23 06 2013  16 43  -21.0577 26070.6 -03437.6 -07.5115 26296.2
 23 06 2013  16 44  -21.0582 26070.5 -03437.6 -07.5115 26296.1
 23 06 2013  16 45  -21.0587 26069.9 -03437.4 -07.5112 26295.6
 23 06 2013  16 46  -21.0584 26069.3 -03437.2 -07.5110 26294.9
 23 06 2013  16 47  -21.0582 26068.5 -03437.0 -07.5109 26294.1
 23 06 2013  16 48  -21.0584 26067.9 -03437.0 -07.5109 26293.5
 23 06 2013  16 49  -21.0582 26067.1 -03436.8 -07.5108 26292.7
 23 06 2013  16 50  -21.0575 26066.2 -03436.6 -07.5106 26291.8
 23 06 2013  16 51  -21.0570 26065.5 -03436.5 -07.5107 26291.0
 23 06 2013  16 52  -21.0578 26065.4 -03436.8 -07.5113 26291.0
 23 06 2013  16 53  -21.0580 26064.6 -03436.7 -07.5112 26290.2
 23 06 2013  16 54  -21.0577 26063.7 -03436.5 -07.5110 26289.2
 23 06 2013  16 55  -21.0570 26062.8 -03436.4 -07.5112 26288.4
 23 06 2013  16 56  -21.0562 26061.3 -03436.1 -07.5109 26286.8
 23 06 2013  16 57  -21.0548 26059.9 -03435.9 -07.5109 26285.4
 23 06 2013  16 58  -21.0544 26059.0 -03436.1 -07.5116 26284.6
 23 06 2013  16 59  -21.0543 26058.2 -03436.3 -07.5123 26283.8
 23 06 2013  17 00  -21.0539 26057.5 -03436.5 -07.5128 26283.1
 23 06 2013  17 01  -21.0538 26056.8 -03436.7 -07.5134 26282.5
 23 06 2013  17 02  -21.0541 26056.3 -03436.9 -07.5142 26282.0
 23 06 2013  17 03  -21.0556 26056.4 -03437.4 -07.5151 26282.1
 23 06 2013  17 04  -21.0574 26056.8 -03437.8 -07.5159 26282.6
 23 06 2013  17 05  -21.0576 26056.6 -03437.7 -07.5158 26282.4
 23 06 2013  17 06  -21.0582 26056.5 -03437.7 -07.5157 26282.3
 23 06 2013  17 07  -21.0595 26056.8 -03437.9 -07.5160 26282.6
 23 06 2013  17 08  -21.0608 26057.3 -03438.0 -07.5162 26283.1
 23 06 2013  17 09  -21.0622 26058.1 -03438.2 -07.5164 26283.9
 23 06 2013  17 10  -21.0628 26058.4 -03438.0 -07.5159 26284.2
 23 06 2013  17 11  -21.0639 26059.0 -03438.0 -07.5157 26284.8
 23 06 2013  17 12  -21.0646 26059.4 -03437.9 -07.5153 26285.2
 23 06 2013  17 13  -21.0645 26059.7 -03437.7 -07.5148 26285.5
 23 06 2013  17 14  -21.0648 26060.2 -03437.6 -07.5145 26285.9
 23 06 2013  17 15  -21.0654 26061.1 -03437.7 -07.5145 26286.9
 23 06 2013  17 16  -21.0657 26061.9 -03437.8 -07.5144 26287.7
 23 06 2013  17 17  -21.0658 26062.2 -03437.6 -07.5139 26287.9
 23 06 2013  17 18  -21.0660 26062.2 -03437.4 -07.5135 26287.9
 23 06 2013  17 19  -21.0664 26062.1 -03437.2 -07.5132 26287.8
 23 06 2013  17 20  -21.0663 26061.5 -03437.0 -07.5127 26287.1
 23 06 2013  17 21  -21.0663 26060.5 -03436.6 -07.5122 26286.2
 23 06 2013  17 22  -21.0657 26059.1 -03436.1 -07.5116 26284.7
 23 06 2013  17 23  -21.0661 26057.8 -03436.0 -07.5118 26283.4
 23 06 2013  17 24  -21.0664 26056.4 -03435.9 -07.5119 26281.9
 23 06 2013  17 25  -21.0660 26054.7 -03435.7 -07.5119 26280.2
 23 06 2013  17 26  -21.0657 26053.5 -03435.9 -07.5127 26279.1
 23 06 2013  17 27  -21.0666 26053.0 -03436.4 -07.5141 26278.6
 23 06 2013  17 28  -21.0677 26052.9 -03437.0 -07.5153 26278.6
 23 06 2013  17 29  -21.0682 26052.2 -03437.3 -07.5160 26278.0
 23 06 2013  17 30  -21.0686 26051.5 -03437.5 -07.5167 26277.4
 23 06 2013  17 31  -21.0696 26051.0 -03437.8 -07.5175 26276.8
 23 06 2013  17 32  -21.0704 26050.5 -03438.1 -07.5184 26276.4
 23 06 2013  17 33  -21.0713 26050.2 -03438.4 -07.5191 26276.1
 23 06 2013  17 34  -21.0725 26050.1 -03438.8 -07.5200 26276.1
 23 06 2013  17 35  -21.0725 26049.5 -03438.9 -07.5203 26275.5
 23 06 2013  17 36  -21.0726 26048.4 -03438.8 -07.5205 26274.4
 23 06 2013  17 37  -21.0732 26047.6 -03438.9 -07.5209 26273.6
 23 06 2013  17 38  -21.0728 26046.4 -03438.8 -07.5209 26272.4
 23 06 2013  17 39  -21.0727 26045.6 -03438.9 -07.5214 26271.7
 23 06 2013  17 40  -21.0725 26045.2 -03439.2 -07.5221 26271.3
 23 06 2013  17 41  -21.0723 26044.8 -03439.4 -07.5228 26270.9
 23 06 2013  17 42  -21.0730 26045.0 -03440.0 -07.5239 26271.2
 23 06 2013  17 43  -21.0734 26045.0 -03440.2 -07.5244 26271.2
 23 06 2013  17 44  -21.0741 26044.4 -03440.2 -07.5247 26270.6
 23 06 2013  17 45  -21.0740 26043.1 -03440.0 -07.5245 26269.3
 23 06 2013  17 46  -21.0744 26042.4 -03440.1 -07.5249 26268.6
 23 06 2013  17 47  -21.0750 26041.5 -03440.1 -07.5253 26267.8
 23 06 2013  17 48  -21.0744 26040.5 -03440.0 -07.5254 26266.8
 23 06 2013  17 49  -21.0757 26041.0 -03440.7 -07.5266 26267.3
 23 06 2013  17 50  -21.0770 26041.2 -03441.0 -07.5272 26267.6
 23 06 2013  17 51  -21.0772 26040.8 -03440.8 -07.5269 26267.2
 23 06 2013  17 52  -21.0777 26041.0 -03440.8 -07.5270 26267.3
 23 06 2013  17 53  -21.0785 26040.9 -03440.8 -07.5270 26267.2
 23 06 2013  17 54  -21.0791 26041.1 -03440.9 -07.5272 26267.4
 23 06 2013  17 55  -21.0797 26041.4 -03441.1 -07.5275 26267.7
 23 06 2013  17 56  -21.0802 26041.4 -03441.1 -07.5275 26267.8
 23 06 2013  17 57  -21.0811 26041.6 -03441.1 -07.5274 26268.0
 23 06 2013  17 58  -21.0818 26041.8 -03441.1 -07.5272 26268.1
 23 06 2013  17 59  -21.0819 26042.1 -03441.1 -07.5272 26268.5
 23 06 2013  18 00  -21.0824 26042.7 -03441.3 -07.5275 26269.1
 23 06 2013  18 01  -21.0823 26042.7 -03441.2 -07.5272 26269.0
 23 06 2013  18 02  -21.0823 26042.5 -03441.0 -07.5269 26268.9
 23 06 2013  18 03  -21.0824 26042.7 -03441.0 -07.5268 26269.1
 23 06 2013  18 04  -21.0827 26042.8 -03440.9 -07.5265 26269.1
 23 06 2013  18 05  -21.0826 26042.5 -03440.6 -07.5260 26268.8
 23 06 2013  18 06  -21.0819 26041.6 -03440.2 -07.5255 26267.9
 23 06 2013  18 07  -21.0813 26040.6 -03439.9 -07.5249 26266.8
 23 06 2013  18 08  -21.0806 26039.6 -03439.5 -07.5246 26265.7
 23 06 2013  18 09  -21.0804 26038.6 -03439.4 -07.5245 26264.8
 23 06 2013  18 10  -21.0802 26037.8 -03439.3 -07.5246 26264.0
 23 06 2013  18 11  -21.0801 26037.4 -03439.4 -07.5249 26263.5
 23 06 2013  18 12  -21.0798 26036.9 -03439.4 -07.5251 26263.0
 23 06 2013  18 13  -21.0797 26036.4 -03439.5 -07.5253 26262.6
 23 06 2013  18 14  -21.0798 26036.1 -03439.5 -07.5256 26262.3
 23 06 2013  18 15  -21.0801 26035.7 -03439.6 -07.5258 26261.9
 23 06 2013  18 16  -21.0807 26035.4 -03439.6 -07.5259 26261.6
 23 06 2013  18 17  -21.0812 26035.0 -03439.5 -07.5258 26261.2
 23 06 2013  18 18  -21.0807 26033.6 -03439.0 -07.5250 26259.8
 23 06 2013  18 19  -21.0796 26031.8 -03438.3 -07.5242 26257.9
 23 06 2013  18 20  -21.0792 26030.9 -03438.3 -07.5243 26256.9
 23 06 2013  18 21  -21.0797 26030.8 -03438.7 -07.5252 26257.0
 23 06 2013  18 22  -21.0800 26030.9 -03439.0 -07.5259 26257.1
 23 06 2013  18 23  -21.0804 26031.3 -03439.5 -07.5269 26257.6
 23 06 2013  18 24  -21.0808 26031.0 -03439.7 -07.5273 26257.3
 23 06 2013  18 25  -21.0804 26030.1 -03439.5 -07.5272 26256.4
 23 06 2013  18 26  -21.0809 26029.4 -03439.4 -07.5273 26255.6
 23 06 2013  18 27  -21.0806 26028.3 -03439.2 -07.5270 26254.5
 23 06 2013  18 28  -21.0799 26027.0 -03438.9 -07.5267 26253.2
 23 06 2013  18 29  -21.0797 26026.2 -03438.9 -07.5270 26252.4
 23 06 2013  18 30  -21.0799 26025.7 -03439.1 -07.5276 26251.9
 23 06 2013  18 31  -21.0800 26025.3 -03439.4 -07.5283 26251.6
 23 06 2013  18 32  -21.0805 26025.3 -03439.7 -07.5291 26251.6
 23 06 2013  18 33  -21.0811 26025.3 -03440.0 -07.5297 26251.6
 23 06 2013  18 34  -21.0814 26025.2 -03440.2 -07.5302 26251.6
 23 06 2013  18 35  -21.0815 26025.1 -03440.4 -07.5305 26251.5
 23 06 2013  18 36  -21.0814 26025.0 -03440.5 -07.5309 26251.4
 23 06 2013  18 37  -21.0811 26024.5 -03440.5 -07.5309 26250.9
 23 06 2013  18 38  -21.0809 26023.9 -03440.5 -07.5311 26250.3
 23 06 2013  18 39  -21.0809 26023.6 -03440.6 -07.5314 26250.0
 23 06 2013  18 40  -21.0809 26023.3 -03440.8 -07.5318 26249.8
 23 06 2013  18 41  -21.0809 26023.1 -03440.9 -07.5323 26249.6
 23 06 2013  18 42  -21.0806 26022.7 -03441.0 -07.5325 26249.2
 23 06 2013  18 43  -21.0804 26022.3 -03441.1 -07.5328 26248.8
 23 06 2013  18 44  -21.0805 26022.1 -03441.3 -07.5333 26248.6
 23 06 2013  18 45  -21.0806 26022.0 -03441.5 -07.5338 26248.6
 23 06 2013  18 46  -21.0806 26022.0 -03441.7 -07.5343 26248.6
 23 06 2013  18 47  -21.0805 26021.9 -03441.9 -07.5347 26248.5
 23 06 2013  18 48  -21.0804 26021.7 -03442.0 -07.5350 26248.4
 23 06 2013  18 49  -21.0803 26021.5 -03442.1 -07.5353 26248.1
 23 06 2013  18 50  -21.0801 26021.0 -03442.1 -07.5354 26247.7
 23 06 2013  18 51  -21.0798 26020.8 -03442.2 -07.5357 26247.5
 23 06 2013  18 52  -21.0795 26020.6 -03442.4 -07.5361 26247.3
 23 06 2013  18 53  -21.0792 26020.6 -03442.6 -07.5366 26247.4
 23 06 2013  18 54  -21.0791 26020.8 -03442.9 -07.5372 26247.6
 23 06 2013  18 55  -21.0789 26021.0 -03443.2 -07.5378 26247.9
 23 06 2013  18 56  -21.0790 26021.3 -03443.5 -07.5384 26248.2
 23 06 2013  18 57  -21.0790 26021.5 -03443.7 -07.5388 26248.4
 23 06 2013  18 58  -21.0788 26021.3 -03443.8 -07.5390 26248.2
 23 06 2013  18 59  -21.0784 26021.1 -03443.9 -07.5392 26248.0
 23 06 2013  19 00  -21.0778 26020.7 -03443.9 -07.5394 26247.6
 23 06 2013  19 01  -21.0772 26020.5 -03444.0 -07.5398 26247.4
 23 06 2013  19 02  -21.0765 26020.1 -03444.2 -07.5402 26247.1
 23 06 2013  19 03  -21.0759 26019.8 -03444.4 -07.5407 26246.8
 23 06 2013  19 04  -21.0753 26019.4 -03444.5 -07.5411 26246.4
 23 06 2013  19 05  -21.0745 26018.6 -03444.5 -07.5414 26245.7
 23 06 2013  19 06  -21.0738 26018.0 -03444.6 -07.5418 26245.0
 23 06 2013  19 07  -21.0734 26017.6 -03444.9 -07.5424 26244.6
 23 06 2013  19 08  -21.0730 26017.2 -03445.2 -07.5431 26244.4
 23 06 2013  19 09  -21.0725 26017.0 -03445.4 -07.5438 26244.1
 23 06 2013  19 10  -21.0720 26016.9 -03445.8 -07.5445 26244.0
 23 06 2013  19 11  -21.0719 26017.1 -03446.3 -07.5455 26244.4
 23 06 2013  19 12  -21.0718 26017.3 -03446.6 -07.5463 26244.6
 23 06 2013  19 13  -21.0716 26017.3 -03446.9 -07.5468 26244.7
 23 06 2013  19 14  -21.0713 26017.3 -03447.1 -07.5473 26244.6
 23 06 2013  19 15  -21.0711 26017.3 -03447.3 -07.5477 26244.7
 23 06 2013  19 16  -21.0707 26017.2 -03447.5 -07.5481 26244.6
 23 06 2013  19 17  -21.0704 26017.0 -03447.6 -07.5484 26244.4
 23 06 2013  19 18  -21.0699 26016.6 -03447.6 -07.5486 26244.1
 23 06 2013  19 19  -21.0694 26016.4 -03447.8 -07.5490 26243.8
 23 06 2013  19 20  -21.0692 26016.4 -03448.0 -07.5496 26243.9
 23 06 2013  19 21  -21.0690 26016.3 -03448.3 -07.5501 26243.9
 23 06 2013  19 22  -21.0687 26016.3 -03448.5 -07.5506 26243.9
 23 06 2013  19 23  -21.0684 26016.3 -03448.7 -07.5511 26243.9
 23 06 2013  19 24  -21.0682 26016.4 -03449.0 -07.5517 26244.0
 23 06 2013  19 25  -21.0682 26016.5 -03449.3 -07.5523 26244.1
 23 06 2013  19 26  -21.0680 26016.0 -03449.3 -07.5524 26243.7
 23 06 2013  19 27  -21.0678 26015.4 -03449.2 -07.5524 26243.1
 23 06 2013  19 28  -21.0673 26015.0 -03449.2 -07.5526 26242.6
 23 06 2013  19 29  -21.0668 26014.6 -03449.3 -07.5529 26242.3
 23 06 2013  19 30  -21.0664 26014.4 -03449.6 -07.5534 26242.1
 23 06 2013  19 31  -21.0661 26014.4 -03449.9 -07.5541 26242.2
 23 06 2013  19 32  -21.0658 26014.5 -03450.2 -07.5548 26242.3
 23 06 2013  19 33  -21.0657 26014.7 -03450.5 -07.5554 26242.5
 23 06 2013  19 34  -21.0656 26014.7 -03450.7 -07.5558 26242.6
 23 06 2013  19 35  -21.0656 26014.8 -03450.9 -07.5563 26242.7
 23 06 2013  19 36  -21.0654 26014.8 -03451.1 -07.5567 26242.7
 23 06 2013  19 37  -21.0654 26014.8 -03451.3 -07.5571 26242.7
 23 06 2013  19 38  -21.0653 26014.8 -03451.4 -07.5574 26242.7
 23 06 2013  19 39  -21.0652 26014.7 -03451.5 -07.5575 26242.6
 23 06 2013  19 40  -21.0651 26014.6 -03451.6 -07.5577 26242.6
 23 06 2013  19 41  -21.0651 26014.4 -03451.6 -07.5579 26242.4
 23 06 2013  19 42  -21.0651 26014.2 -03451.6 -07.5580 26242.1
 23 06 2013  19 43  -21.0650 26014.0 -03451.7 -07.5581 26242.0
 23 06 2013  19 44  -21.0650 26013.9 -03451.8 -07.5584 26241.9
 23 06 2013  19 45  -21.0650 26013.9 -03451.9 -07.5587 26242.0
 23 06 2013  19 46  -21.0650 26014.1 -03452.1 -07.5591 26242.1
 23 06 2013  19 47  -21.0651 26014.3 -03452.3 -07.5595 26242.4
 23 06 2013  19 48  -21.0652 26014.4 -03452.5 -07.5598 26242.5
 23 06 2013  19 49  -21.0653 26014.4 -03452.6 -07.5599 26242.5
 23 06 2013  19 50  -21.0653 26014.4 -03452.6 -07.5600 26242.5
 23 06 2013  19 51  -21.0652 26014.3 -03452.7 -07.5602 26242.4
 23 06 2013  19 52  -21.0650 26014.3 -03452.7 -07.5603 26242.4
 23 06 2013  19 53  -21.0649 26015.2 -03453.2 -07.5611 26243.4
 23 06 2013  19 54  -21.0651 26016.0 -03453.7 -07.5619 26244.3
 23 06 2013  19 55  -21.0654 26016.5 -03453.8 -07.5621 26244.7
 23 06 2013  19 56  -21.0656 26016.7 -03453.9 -07.5622 26245.0
 23 06 2013  19 57  -21.0658 26016.9 -03454.0 -07.5623 26245.1
 23 06 2013  19 58  -21.0659 26016.8 -03453.9 -07.5622 26245.1
 23 06 2013  19 59  -21.0660 26016.9 -03454.0 -07.5623 26245.1
 23 06 2013  20 00  -21.0662 26016.9 -03454.0 -07.5623 26245.2
 23 06 2013  20 01  -21.0665 26016.9 -03454.0 -07.5623 26245.2
 23 06 2013  20 02  -21.0667 26017.1 -03454.1 -07.5624 26245.4
 23 06 2013  20 03  -21.0666 26017.0 -03454.0 -07.5623 26245.2
 23 06 2013  20 04  -21.0667 26017.1 -03454.0 -07.5623 26245.3
 23 06 2013  20 05  -21.0666 26017.3 -03454.1 -07.5624 26245.6
 23 06 2013  20 06  -21.0665 26017.6 -03454.1 -07.5625 26245.9
 23 06 2013  20 07  -21.0663 26017.8 -03454.2 -07.5625 26246.1
 23 06 2013  20 08  -21.0662 26018.0 -03454.2 -07.5624 26246.3
 23 06 2013  20 09  -21.0660 26017.8 -03454.0 -07.5621 26246.1
 23 06 2013  20 10  -21.0659 26017.6 -03453.9 -07.5618 26245.9
 23 06 2013  20 11  -21.0658 26017.6 -03453.8 -07.5617 26245.8
 23 06 2013  20 12  -21.0657 26017.9 -03453.9 -07.5619 26246.1
 23 06 2013  20 13  -21.0655 26018.6 -03454.3 -07.5624 26246.9
 23 06 2013  20 14  -21.0656 26019.5 -03454.6 -07.5629 26247.8
 23 06 2013  20 15  -21.0657 26019.8 -03454.7 -07.5630 26248.2
 23 06 2013  20 16  -21.0658 26019.9 -03454.6 -07.5627 26248.2
 23 06 2013  20 17  -21.0658 26019.8 -03454.4 -07.5624 26248.1
 23 06 2013  20 18  -21.0656 26019.7 -03454.2 -07.5621 26248.0
 23 06 2013  20 19  -21.0654 26019.4 -03454.0 -07.5617 26247.7
 23 06 2013  20 20  -21.0650 26019.3 -03453.9 -07.5614 26247.5
 23 06 2013  20 21  -21.0648 26019.5 -03453.9 -07.5614 26247.7
 23 06 2013  20 22  -21.0645 26020.0 -03454.1 -07.5617 26248.3
 23 06 2013  20 23  -21.0645 26020.5 -03454.3 -07.5620 26248.8
 23 06 2013  20 24  -21.0645 26021.0 -03454.5 -07.5621 26249.3
 23 06 2013  20 25  -21.0644 26021.4 -03454.6 -07.5622 26249.7
 23 06 2013  20 26  -21.0640 26021.2 -03454.3 -07.5618 26249.5
 23 06 2013  20 27  -21.0636 26020.8 -03454.0 -07.5612 26249.0
 23 06 2013  20 28  -21.0630 26020.2 -03453.6 -07.5606 26248.4
 23 06 2013  20 29  -21.0626 26019.6 -03453.3 -07.5601 26247.7
 23 06 2013  20 30  -21.0623 26018.7 -03452.9 -07.5595 26246.8
 23 06 2013  20 31  -21.0617 26018.3 -03452.7 -07.5591 26246.4
 23 06 2013  20 32  -21.0612 26018.4 -03452.8 -07.5594 26246.5
 23 06 2013  20 33  -21.0609 26018.5 -03453.0 -07.5597 26246.6
 23 06 2013  20 34  -21.0606 26018.4 -03453.0 -07.5598 26246.6
 23 06 2013  20 35  -21.0605 26018.4 -03453.1 -07.5599 26246.5
 23 06 2013  20 36  -21.0605 26018.1 -03453.0 -07.5598 26246.3
 23 06 2013  20 37  -21.0603 26017.7 -03452.8 -07.5595 26245.8
 23 06 2013  20 38  -21.0600 26017.3 -03452.7 -07.5593 26245.4
 23 06 2013  20 39  -21.0599 26017.0 -03452.6 -07.5592 26245.1
 23 06 2013  20 40  -21.0597 26016.7 -03452.5 -07.5591 26244.8
 23 06 2013  20 41  -21.0595 26016.4 -03452.4 -07.5590 26244.5
 23 06 2013  20 42  -21.0594 26016.1 -03452.3 -07.5588 26244.2
 23 06 2013  20 43  -21.0595 26015.9 -03452.2 -07.5588 26244.0
 23 06 2013  20 44  -21.0596 26015.9 -03452.3 -07.5589 26244.0
 23 06 2013  20 45  -21.0598 26016.4 -03452.5 -07.5592 26244.4
 23 06 2013  20 46  -21.0600 26016.7 -03452.6 -07.5593 26244.8
 23 06 2013  20 47  -21.0599 26016.6 -03452.5 -07.5591 26244.7
 23 06 2013  20 48  -21.0599 26016.6 -03452.3 -07.5588 26244.6
 23 06 2013  20 49  -21.0600 26016.5 -03452.3 -07.5587 26244.5
 23 06 2013  20 50  -21.0600 26016.2 -03452.1 -07.5584 26244.2
 23 06 2013  20 51  -21.0597 26016.3 -03452.0 -07.5581 26244.3
 23 06 2013  20 52  -21.0594 26016.3 -03451.9 -07.5580 26244.3
 23 06 2013  20 53  -21.0591 26016.6 -03452.0 -07.5581 26244.6
 23 06 2013  20 54  -21.0591 26016.2 -03451.8 -07.5577 26244.2
 23 06 2013  20 55  -21.0591 26016.0 -03451.6 -07.5575 26244.0
 23 06 2013  20 56  -21.0593 26015.8 -03451.5 -07.5573 26243.7
 23 06 2013  20 57  -21.0595 26015.4 -03451.3 -07.5570 26243.3
 23 06 2013  20 58  -21.0594 26016.1 -03451.7 -07.5575 26244.1
 23 06 2013  20 59  -21.0591 26016.9 -03451.9 -07.5579 26244.9
 23 06 2013  21 00  -21.0592 26017.3 -03452.0 -07.5578 26245.3
 23 06 2013  21 01  -21.0590 26017.8 -03452.0 -07.5577 26245.8
 23 06 2013  21 02  -21.0591 26017.9 -03451.8 -07.5574 26245.8
 23 06 2013  21 03  -21.0588 26017.6 -03451.5 -07.5568 26245.5
 23 06 2013  21 04  -21.0583 26017.6 -03451.3 -07.5563 26245.5
 23 06 2013  21 05  -21.0577 26017.8 -03451.2 -07.5560 26245.7
 23 06 2013  21 06  -21.0575 26017.6 -03451.0 -07.5556 26245.5
 23 06 2013  21 07  -21.0574 26017.3 -03450.7 -07.5552 26245.1
 23 06 2013  21 08  -21.0575 26016.9 -03450.5 -07.5547 26244.7
 23 06 2013  21 09  -21.0574 26016.6 -03450.3 -07.5545 26244.4
 23 06 2013  21 10  -21.0577 26016.3 -03450.2 -07.5542 26244.1
 23 06 2013  21 11  -21.0577 26016.1 -03450.1 -07.5541 26243.9
 23 06 2013  21 12  -21.0580 26015.4 -03449.8 -07.5536 26243.1
 23 06 2013  21 13  -21.0581 26015.2 -03449.6 -07.5533 26242.9
 23 06 2013  21 14  -21.0582 26015.0 -03449.6 -07.5533 26242.7
 23 06 2013  21 15  -21.0585 26014.2 -03449.2 -07.5528 26241.8
 23 06 2013  21 16  -21.0585 26013.9 -03449.1 -07.5526 26241.6
 23 06 2013  21 17  -21.0582 26013.8 -03449.1 -07.5526 26241.5
 23 06 2013  21 18  -21.0583 26013.7 -03449.1 -07.5526 26241.3
 23 06 2013  21 19  -21.0586 26013.4 -03449.0 -07.5525 26241.0
 23 06 2013  21 20  -21.0593 26013.3 -03449.0 -07.5526 26241.0
 23 06 2013  21 21  -21.0602 26013.3 -03449.1 -07.5529 26241.0
 23 06 2013  21 22  -21.0603 26013.4 -03449.2 -07.5530 26241.0
 23 06 2013  21 23  -21.0603 26013.1 -03449.1 -07.5528 26240.8
 23 06 2013  21 24  -21.0609 26013.3 -03449.2 -07.5529 26240.9
 23 06 2013  21 25  -21.0617 26013.2 -03449.2 -07.5531 26240.9
 23 06 2013  21 26  -21.0622 26013.2 -03449.2 -07.5531 26240.9
 23 06 2013  21 27  -21.0627 26013.1 -03449.2 -07.5530 26240.8
 23 06 2013  21 28  -21.0635 26013.0 -03449.1 -07.5529 26240.7
 23 06 2013  21 29  -21.0639 26012.8 -03449.0 -07.5527 26240.5
 23 06 2013  21 30  -21.0638 26012.8 -03449.0 -07.5527 26240.4
 23 06 2013  21 31  -21.0631 26012.4 -03448.7 -07.5522 26240.0
 23 06 2013  21 32  -21.0624 26012.0 -03448.5 -07.5519 26239.6
 23 06 2013  21 33  -21.0618 26011.9 -03448.4 -07.5517 26239.5
 23 06 2013  21 34  -21.0612 26011.3 -03448.2 -07.5514 26238.9
 23 06 2013  21 35  -21.0606 26010.9 -03448.1 -07.5512 26238.5
 23 06 2013  21 36  -21.0599 26010.9 -03448.1 -07.5512 26238.5
 23 06 2013  21 37  -21.0594 26011.0 -03448.2 -07.5515 26238.5
 23 06 2013  21 38  -21.0587 26011.0 -03448.3 -07.5517 26238.6
 23 06 2013  21 39  -21.0584 26010.9 -03448.4 -07.5519 26238.5
 23 06 2013  21 40  -21.0581 26010.9 -03448.5 -07.5521 26238.5
 23 06 2013  21 41  -21.0578 26010.6 -03448.4 -07.5521 26238.2
 23 06 2013  21 42  -21.0574 26010.4 -03448.4 -07.5520 26238.0
 23 06 2013  21 43  -21.0572 26010.2 -03448.3 -07.5520 26237.8
 23 06 2013  21 44  -21.0575 26009.9 -03448.4 -07.5522 26237.5
 23 06 2013  21 45  -21.0581 26009.7 -03448.3 -07.5521 26237.2
 23 06 2013  21 46  -21.0583 26009.6 -03448.4 -07.5523 26237.2
 23 06 2013  21 47  -21.0587 26009.7 -03448.5 -07.5525 26237.4
 23 06 2013  21 48  -21.0590 26010.0 -03448.7 -07.5529 26237.6
 23 06 2013  21 49  -21.0589 26010.1 -03448.8 -07.5530 26237.7
 23 06 2013  21 50  -21.0593 26009.8 -03448.7 -07.5529 26237.4
 23 06 2013  21 51  -21.0599 26009.7 -03448.7 -07.5529 26237.3
 23 06 2013  21 52  -21.0605 26009.5 -03448.6 -07.5528 26237.1
 23 06 2013  21 53  -21.0613 26009.1 -03448.5 -07.5527 26236.7
 23 06 2013  21 54  -21.0621 26009.0 -03448.5 -07.5526 26236.6
 23 06 2013  21 55  -21.0625 26009.2 -03448.6 -07.5529 26236.9
 23 06 2013  21 56  -21.0626 26008.9 -03448.5 -07.5527 26236.5
 23 06 2013  21 57  -21.0632 26008.5 -03448.3 -07.5523 26236.1
 23 06 2013  21 58  -21.0636 26008.2 -03448.1 -07.5521 26235.8
 23 06 2013  21 59  -21.0638 26008.1 -03448.1 -07.5521 26235.7
 23 06 2013  22 00  -21.0639 26008.2 -03448.1 -07.5521 26235.8
 23 06 2013  22 01  -21.0640 26008.2 -03448.2 -07.5522 26235.7
 23 06 2013  22 02  -21.0640 26008.0 -03448.1 -07.5521 26235.5
 23 06 2013  22 03  -21.0643 26007.6 -03447.9 -07.5519 26235.2
 23 06 2013  22 04  -21.0641 26007.3 -03447.8 -07.5517 26234.8
 23 06 2013  22 05  -21.0641 26007.0 -03447.7 -07.5515 26234.5
 23 06 2013  22 06  -21.0641 26006.7 -03447.6 -07.5515 26234.2
 23 06 2013  22 07  -21.0641 26006.2 -03447.5 -07.5513 26233.7
 23 06 2013  22 08  -21.0642 26005.9 -03447.4 -07.5511 26233.4
 23 06 2013  22 09  -21.0645 26005.9 -03447.5 -07.5513 26233.4
 23 06 2013  22 10  -21.0648 26005.9 -03447.6 -07.5515 26233.5
 23 06 2013  22 11  -21.0653 26005.9 -03447.7 -07.5518 26233.5
 23 06 2013  22 12  -21.0658 26006.0 -03447.8 -07.5520 26233.5
 23 06 2013  22 13  -21.0659 26006.3 -03448.0 -07.5523 26233.9
 23 06 2013  22 14  -21.0664 26006.7 -03448.2 -07.5528 26234.3
 23 06 2013  22 15  -21.0670 26006.8 -03448.4 -07.5531 26234.5
 23 06 2013  22 16  -21.0671 26006.8 -03448.3 -07.5530 26234.4
 23 06 2013  22 17  -21.0674 26006.8 -03448.4 -07.5530 26234.4
 23 06 2013  22 18  -21.0673 26006.4 -03448.2 -07.5527 26234.0
 23 06 2013  22 19  -21.0677 26006.1 -03448.0 -07.5525 26233.7
 23 06 2013  22 20  -21.0680 26005.5 -03447.8 -07.5522 26233.1
 23 06 2013  22 21  -21.0684 26004.8 -03447.5 -07.5518 26232.3
 23 06 2013  22 22  -21.0691 26004.0 -03447.2 -07.5513 26231.5
 23 06 2013  22 23  -21.0695 26003.1 -03446.8 -07.5508 26230.6
 23 06 2013  22 24  -21.0703 26002.5 -03446.6 -07.5504 26229.9
 23 06 2013  22 25  -21.0712 26001.9 -03446.4 -07.5502 26229.3
 23 06 2013  22 26  -21.0716 26001.5 -03446.3 -07.5501 26228.9
 23 06 2013  22 27  -21.0722 26001.1 -03446.2 -07.5500 26228.5
 23 06 2013  22 28  -21.0723 26000.7 -03446.2 -07.5500 26228.1
 23 06 2013  22 29  -21.0722 26000.3 -03446.0 -07.5498 26227.6
 23 06 2013  22 30  -21.0724 25999.6 -03445.8 -07.5495 26226.9
 23 06 2013  22 31  -21.0726 25999.2 -03445.7 -07.5495 26226.6
 23 06 2013  22 32  -21.0726 25999.2 -03445.8 -07.5497 26226.5
 23 06 2013  22 33  -21.0727 25999.3 -03446.0 -07.5500 26226.7
 23 06 2013  22 34  -21.0730 25999.6 -03446.3 -07.5506 26227.0
 23 06 2013  22 35  -21.0725 25999.8 -03446.5 -07.5510 26227.3
 23 06 2013  22 36  -21.0722 25999.9 -03446.6 -07.5513 26227.4
 23 06 2013  22 37  -21.0721 26000.2 -03446.9 -07.5517 26227.6
 23 06 2013  22 38  -21.0723 26000.3 -03447.1 -07.5521 26227.8
 23 06 2013  22 39  -21.0726 26000.6 -03447.3 -07.5525 26228.1
 23 06 2013  22 40  -21.0730 26000.7 -03447.4 -07.5527 26228.3
 23 06 2013  22 41  -21.0734 26000.9 -03447.6 -07.5530 26228.5
 23 06 2013  22 42  -21.0733 26001.1 -03447.7 -07.5532 26228.7
 23 06 2013  22 43  -21.0730 26001.7 -03447.9 -07.5536 26229.3
 23 06 2013  22 44  -21.0728 26002.1 -03448.2 -07.5540 26229.7
 23 06 2013  22 45  -21.0727 26002.2 -03448.3 -07.5542 26229.9
 23 06 2013  22 46  -21.0725 26002.3 -03448.3 -07.5542 26229.9
 23 06 2013  22 47  -21.0722 26002.7 -03448.5 -07.5544 26230.4
 23 06 2013  22 48  -21.0717 26003.0 -03448.6 -07.5547 26230.7
 23 06 2013  22 49  -21.0713 26003.1 -03448.7 -07.5548 26230.8
 23 06 2013  22 50  -21.0711 26003.2 -03448.7 -07.5549 26230.9
 23 06 2013  22 51  -21.0706 26003.6 -03448.9 -07.5551 26231.3
 23 06 2013  22 52  -21.0700 26003.9 -03449.1 -07.5554 26231.7
 23 06 2013  22 53  -21.0695 26004.3 -03449.3 -07.5557 26232.0
 23 06 2013  22 54  -21.0692 26004.5 -03449.4 -07.5560 26232.2
 23 06 2013  22 55  -21.0691 26004.4 -03449.4 -07.5560 26232.2
 23 06 2013  22 56  -21.0689 26004.2 -03449.3 -07.5558 26232.0
 23 06 2013  22 57  -21.0688 26003.9 -03449.2 -07.5557 26231.7
 23 06 2013  22 58  -21.0685 26003.8 -03449.2 -07.5556 26231.5
 23 06 2013  22 59  -21.0680 26004.0 -03449.3 -07.5558 26231.8
 23 06 2013  23 00  -21.0677 26004.1 -03449.4 -07.5560 26231.9
 23 06 2013  23 01  -21.0671 26004.1 -03449.4 -07.5561 26231.9
 23 06 2013  23 02  -21.0667 26004.0 -03449.5 -07.5562 26231.8
 23 06 2013  23 03  -21.0665 26003.9 -03449.5 -07.5563 26231.7
 23 06 2013  23 04  -21.0663 26003.8 -03449.4 -07.5563 26231.6
 23 06 2013  23 05  -21.0661 26003.7 -03449.5 -07.5563 26231.5
 23 06 2013  23 06  -21.0659 26003.4 -03449.4 -07.5562 26231.2
 23 06 2013  23 07  -21.0656 26003.0 -03449.3 -07.5561 26230.8
 23 06 2013  23 08  -21.0654 26002.6 -03449.1 -07.5559 26230.3
 23 06 2013  23 09  -21.0652 26002.2 -03449.0 -07.5557 26230.0
 23 06 2013  23 10  -21.0648 26001.8 -03448.9 -07.5556 26229.5
 23 06 2013  23 11  -21.0645 26001.6 -03448.8 -07.5555 26229.3
 23 06 2013  23 12  -21.0646 26001.6 -03448.9 -07.5557 26229.4
 23 06 2013  23 13  -21.0645 26001.3 -03449.0 -07.5559 26229.1
 23 06 2013  23 14  -21.0646 26000.8 -03448.8 -07.5557 26228.6
 23 06 2013  23 15  -21.0648 26000.5 -03448.8 -07.5557 26228.3
 23 06 2013  23 16  -21.0651 26000.4 -03448.8 -07.5557 26228.1
 23 06 2013  23 17  -21.0652 26000.3 -03448.8 -07.5559 26228.1
 23 06 2013  23 18  -21.0651 26000.5 -03449.0 -07.5561 26228.2
 23 06 2013  23 19  -21.0648 26000.5 -03449.0 -07.5563 26228.2
 23 06 2013  23 20  -21.0649 26000.3 -03449.1 -07.5565 26228.1
 23 06 2013  23 21  -21.0649 26000.1 -03449.1 -07.5564 26227.9
 23 06 2013  23 22  -21.0653 26000.0 -03449.0 -07.5565 26227.8
 23 06 2013  23 23  -21.0656 25999.8 -03449.0 -07.5565 26227.6
 23 06 2013  23 24  -21.0655 25999.7 -03449.0 -07.5565 26227.5
 23 06 2013  23 25  -21.0654 25999.6 -03449.0 -07.5565 26227.3
 23 06 2013  23 26  -21.0651 25999.7 -03449.1 -07.5567 26227.5
 23 06 2013  23 27  -21.0648 26000.1 -03449.4 -07.5571 26227.9
 23 06 2013  23 28  -21.0648 26000.4 -03449.6 -07.5575 26228.2
 23 06 2013  23 29  -21.0648 26000.5 -03449.7 -07.5578 26228.4
 23 06 2013  23 30  -21.0650 26000.7 -03449.9 -07.5580 26228.6
 23 06 2013  23 31  -21.0652 26000.8 -03450.0 -07.5582 26228.7
 23 06 2013  23 32  -21.0654 26000.9 -03450.0 -07.5583 26228.8
 23 06 2013  23 33  -21.0658 26001.0 -03450.1 -07.5584 26228.9
 23 06 2013  23 34  -21.0661 26001.1 -03450.1 -07.5585 26229.0
 23 06 2013  23 35  -21.0666 26001.3 -03450.2 -07.5586 26229.2
 23 06 2013  23 36  -21.0674 26001.4 -03450.3 -07.5588 26229.3
 23 06 2013  23 37  -21.0683 26001.7 -03450.4 -07.5590 26229.6
 23 06 2013  23 38  -21.0687 26001.7 -03450.4 -07.5590 26229.7
 23 06 2013  23 39  -21.0683 26001.8 -03450.4 -07.5588 26229.8
 23 06 2013  23 40  -21.0679 26001.9 -03450.3 -07.5587 26229.9
 23 06 2013  23 41  -21.0675 26002.1 -03450.4 -07.5587 26230.1
 23 06 2013  23 42  -21.0673 26002.2 -03450.4 -07.5589 26230.2
 23 06 2013  23 43  -21.0669 26002.4 -03450.5 -07.5589 26230.3
 23 06 2013  23 44  -21.0666 26002.4 -03450.5 -07.5589 26230.3
 23 06 2013  23 45  -21.0664 26002.4 -03450.5 -07.5589 26230.3
 23 06 2013  23 46  -21.0661 26002.1 -03450.3 -07.5587 26230.0
 23 06 2013  23 47  -21.0659 26001.7 -03450.2 -07.5584 26229.6
 23 06 2013  23 48  -21.0656 26001.4 -03450.0 -07.5582 26229.3
 23 06 2013  23 49  -21.0653 26001.3 -03450.0 -07.5581 26229.2
 23 06 2013  23 50  -21.0651 26001.3 -03450.0 -07.5583 26229.2
 23 06 2013  23 51  -21.0649 26001.4 -03450.1 -07.5584 26229.3
 23 06 2013  23 52  -21.0642 26001.4 -03450.1 -07.5584 26229.3
 23 06 2013  23 53  -21.0637 26001.7 -03450.3 -07.5588 26229.6
 23 06 2013  23 54  -21.0631 26001.8 -03450.5 -07.5590 26229.8
 23 06 2013  23 55  -21.0626 26001.8 -03450.5 -07.5590 26229.7
 23 06 2013  23 56  -21.0625 26001.7 -03450.5 -07.5592 26229.6
 23 06 2013  23 57  -21.0627 26001.3 -03450.4 -07.5590 26229.3
