SAO LUIS EMBRACE-03 <118> 1 Min. Reported data

 DD MM YYYY  HH MM   D(Deg)  H(nT)   Z(nT)   I(Deg)   F(nT)

 28 04 2013  00 00  -21.0522 26030.0 -03434.4 -07.5163 26255.6
 28 04 2013  00 01  -21.0522 26030.0 -03434.4 -07.5162 26255.6
 28 04 2013  00 02  -21.0524 26030.0 -03434.4 -07.5163 26255.6
 28 04 2013  00 03  -21.0525 26030.0 -03434.4 -07.5162 26255.6
 28 04 2013  00 04  -21.0525 26029.9 -03434.4 -07.5162 26255.5
 28 04 2013  00 05  -21.0525 26029.8 -03434.4 -07.5162 26255.4
 28 04 2013  00 06  -21.0526 26029.8 -03434.4 -07.5162 26255.4
 28 04 2013  00 07  -21.0526 26029.7 -03434.3 -07.5161 26255.3
 28 04 2013  00 08  -21.0526 26029.6 -03434.3 -07.5160 26255.2
 28 04 2013  00 09  -21.0526 26029.6 -03434.3 -07.5160 26255.2
 28 04 2013  00 10  -21.0526 26029.5 -03434.3 -07.5160 26255.1
 28 04 2013  00 11  -21.0524 26029.5 -03434.3 -07.5160 26255.0
 28 04 2013  00 12  -21.0524 26029.4 -03434.3 -07.5160 26255.0
 28 04 2013  00 13  -21.0523 26029.5 -03434.3 -07.5161 26255.1
 28 04 2013  00 14  -21.0521 26029.5 -03434.3 -07.5162 26255.1
 28 04 2013  00 15  -21.0521 26029.6 -03434.4 -07.5162 26255.2
 28 04 2013  00 16  -21.0520 26029.7 -03434.4 -07.5164 26255.3
 28 04 2013  00 17  -21.0520 26029.6 -03434.4 -07.5164 26255.2
 28 04 2013  00 18  -21.0519 26029.7 -03434.5 -07.5164 26255.3
 28 04 2013  00 19  -21.0519 26029.6 -03434.5 -07.5164 26255.2
 28 04 2013  00 20  -21.0519 26029.6 -03434.5 -07.5164 26255.2
 28 04 2013  00 21  -21.0517 26029.6 -03434.5 -07.5164 26255.2
 28 04 2013  00 22  -21.0518 26029.5 -03434.4 -07.5164 26255.1
 28 04 2013  00 23  -21.0518 26029.5 -03434.4 -07.5164 26255.1
 28 04 2013  00 24  -21.0517 26029.5 -03434.5 -07.5164 26255.1
 28 04 2013  00 25  -21.0517 26029.6 -03434.5 -07.5165 26255.2
 28 04 2013  00 26  -21.0517 26029.6 -03434.5 -07.5165 26255.2
 28 04 2013  00 27  -21.0517 26029.7 -03434.6 -07.5166 26255.3
 28 04 2013  00 28  -21.0517 26029.8 -03434.6 -07.5167 26255.4
 28 04 2013  00 29  -21.0519 26029.8 -03434.6 -07.5168 26255.4
 28 04 2013  00 30  -21.0520 26029.8 -03434.7 -07.5168 26255.4
 28 04 2013  00 31  -21.0520 26029.9 -03434.7 -07.5168 26255.5
 28 04 2013  00 32  -21.0521 26029.9 -03434.7 -07.5168 26255.6
 28 04 2013  00 33  -21.0522 26029.9 -03434.7 -07.5168 26255.6
 28 04 2013  00 34  -21.0522 26030.0 -03434.7 -07.5168 26255.6
 28 04 2013  00 35  -21.0524 26029.8 -03434.6 -07.5167 26255.5
 28 04 2013  00 36  -21.0524 26029.7 -03434.5 -07.5165 26255.3
 28 04 2013  00 37  -21.0525 26029.6 -03434.4 -07.5164 26255.2
 28 04 2013  00 38  -21.0525 26029.5 -03434.4 -07.5163 26255.1
 28 04 2013  00 39  -21.0525 26029.5 -03434.4 -07.5163 26255.1
 28 04 2013  00 40  -21.0524 26029.5 -03434.4 -07.5163 26255.1
 28 04 2013  00 41  -21.0524 26029.6 -03434.4 -07.5163 26255.2
 28 04 2013  00 42  -21.0523 26029.6 -03434.4 -07.5164 26255.2
 28 04 2013  00 43  -21.0521 26029.7 -03434.5 -07.5164 26255.3
 28 04 2013  00 44  -21.0520 26029.7 -03434.5 -07.5165 26255.3
 28 04 2013  00 45  -21.0519 26029.8 -03434.5 -07.5165 26255.4
 28 04 2013  00 46  -21.0519 26029.8 -03434.5 -07.5165 26255.4
 28 04 2013  00 47  -21.0519 26029.7 -03434.5 -07.5165 26255.3
 28 04 2013  00 48  -21.0520 26029.7 -03434.5 -07.5164 26255.3
 28 04 2013  00 49  -21.0521 26029.7 -03434.5 -07.5165 26255.3
 28 04 2013  00 50  -21.0521 26029.7 -03434.4 -07.5164 26255.3
 28 04 2013  00 51  -21.0521 26029.6 -03434.4 -07.5163 26255.2
 28 04 2013  00 52  -21.0520 26029.5 -03434.4 -07.5162 26255.1
 28 04 2013  00 53  -21.0520 26029.5 -03434.4 -07.5162 26255.1
 28 04 2013  00 54  -21.0520 26029.5 -03434.3 -07.5162 26255.1
 28 04 2013  00 55  -21.0519 26029.5 -03434.3 -07.5162 26255.1
 28 04 2013  00 56  -21.0517 26029.5 -03434.3 -07.5162 26255.1
 28 04 2013  00 57  -21.0514 26029.5 -03434.3 -07.5162 26255.1
 28 04 2013  00 58  -21.0512 26029.5 -03434.3 -07.5162 26255.1
 28 04 2013  00 59  -21.0513 26029.6 -03434.4 -07.5162 26255.2
 28 04 2013  01 00  -21.0514 26029.7 -03434.4 -07.5164 26255.3
 28 04 2013  01 01  -21.0513 26029.7 -03434.5 -07.5165 26255.3
 28 04 2013  01 02  -21.0513 26029.9 -03434.6 -07.5166 26255.5
 28 04 2013  01 03  -21.0513 26030.1 -03434.7 -07.5167 26255.7
 28 04 2013  01 04  -21.0512 26030.2 -03434.7 -07.5168 26255.8
 28 04 2013  01 05  -21.0511 26030.2 -03434.6 -07.5167 26255.8
 28 04 2013  01 06  -21.0511 26030.2 -03434.6 -07.5166 26255.8
 28 04 2013  01 07  -21.0512 26030.1 -03434.6 -07.5165 26255.8
 28 04 2013  01 08  -21.0511 26030.1 -03434.5 -07.5165 26255.7
 28 04 2013  01 09  -21.0513 26030.0 -03434.5 -07.5164 26255.6
 28 04 2013  01 10  -21.0514 26029.8 -03434.4 -07.5162 26255.4
 28 04 2013  01 11  -21.0516 26029.6 -03434.3 -07.5160 26255.2
 28 04 2013  01 12  -21.0519 26029.6 -03434.3 -07.5160 26255.2
 28 04 2013  01 13  -21.0520 26029.7 -03434.3 -07.5160 26255.3
 28 04 2013  01 14  -21.0522 26029.6 -03434.3 -07.5160 26255.2
 28 04 2013  01 15  -21.0522 26029.5 -03434.2 -07.5159 26255.1
 28 04 2013  01 16  -21.0523 26029.4 -03434.1 -07.5157 26254.9
 28 04 2013  01 17  -21.0523 26029.1 -03434.0 -07.5156 26254.7
 28 04 2013  01 18  -21.0524 26029.0 -03433.9 -07.5154 26254.5
 28 04 2013  01 19  -21.0524 26028.9 -03433.9 -07.5153 26254.5
 28 04 2013  01 20  -21.0522 26028.9 -03433.9 -07.5153 26254.5
 28 04 2013  01 21  -21.0521 26028.9 -03433.9 -07.5154 26254.4
 28 04 2013  01 22  -21.0520 26029.0 -03433.9 -07.5154 26254.5
 28 04 2013  01 23  -21.0518 26029.2 -03434.0 -07.5156 26254.7
 28 04 2013  01 24  -21.0517 26029.3 -03434.1 -07.5158 26254.9
 28 04 2013  01 25  -21.0516 26029.5 -03434.2 -07.5159 26255.1
 28 04 2013  01 26  -21.0514 26029.7 -03434.3 -07.5160 26255.2
 28 04 2013  01 27  -21.0512 26029.7 -03434.3 -07.5161 26255.3
 28 04 2013  01 28  -21.0508 26029.9 -03434.4 -07.5162 26255.4
 28 04 2013  01 29  -21.0505 26029.9 -03434.4 -07.5162 26255.4
 28 04 2013  01 30  -21.0504 26029.9 -03434.3 -07.5161 26255.4
 28 04 2013  01 31  -21.0504 26029.8 -03434.3 -07.5161 26255.4
 28 04 2013  01 32  -21.0503 26029.7 -03434.3 -07.5160 26255.3
 28 04 2013  01 33  -21.0503 26029.6 -03434.3 -07.5160 26255.2
 28 04 2013  01 34  -21.0503 26029.5 -03434.2 -07.5159 26255.1
 28 04 2013  01 35  -21.0502 26029.4 -03434.1 -07.5158 26255.0
 28 04 2013  01 36  -21.0502 26029.3 -03434.1 -07.5157 26254.9
 28 04 2013  01 37  -21.0502 26029.2 -03434.1 -07.5157 26254.8
 28 04 2013  01 38  -21.0502 26029.2 -03434.1 -07.5157 26254.8
 28 04 2013  01 39  -21.0501 26029.2 -03434.1 -07.5158 26254.8
 28 04 2013  01 40  -21.0500 26029.2 -03434.1 -07.5158 26254.7
 28 04 2013  01 41  -21.0500 26029.1 -03434.1 -07.5158 26254.6
 28 04 2013  01 42  -21.0499 26029.0 -03434.1 -07.5157 26254.6
 28 04 2013  01 43  -21.0497 26029.1 -03434.1 -07.5157 26254.6
 28 04 2013  01 44  -21.0495 26029.1 -03434.1 -07.5158 26254.7
 28 04 2013  01 45  -21.0494 26029.1 -03434.1 -07.5159 26254.7
 28 04 2013  01 46  -21.0493 26029.2 -03434.2 -07.5160 26254.8
 28 04 2013  01 47  -21.0493 26029.3 -03434.3 -07.5161 26254.9
 28 04 2013  01 48  -21.0492 26029.4 -03434.3 -07.5161 26254.9
 28 04 2013  01 49  -21.0493 26029.3 -03434.3 -07.5161 26254.9
 28 04 2013  01 50  -21.0493 26029.2 -03434.2 -07.5160 26254.7
 28 04 2013  01 51  -21.0496 26029.0 -03434.1 -07.5159 26254.6
 28 04 2013  01 52  -21.0497 26028.9 -03434.1 -07.5158 26254.5
 28 04 2013  01 53  -21.0498 26028.9 -03434.1 -07.5158 26254.5
 28 04 2013  01 54  -21.0499 26029.0 -03434.1 -07.5159 26254.5
 28 04 2013  01 55  -21.0498 26029.1 -03434.2 -07.5161 26254.7
 28 04 2013  01 56  -21.0499 26029.3 -03434.3 -07.5163 26254.9
 28 04 2013  01 57  -21.0499 26029.4 -03434.4 -07.5163 26254.9
 28 04 2013  01 58  -21.0499 26029.4 -03434.4 -07.5163 26255.0
 28 04 2013  01 59  -21.0500 26029.3 -03434.4 -07.5163 26254.9
 28 04 2013  02 00  -21.0499 26029.2 -03434.3 -07.5162 26254.8
 28 04 2013  02 01  -21.0500 26029.0 -03434.2 -07.5161 26254.6
 28 04 2013  02 02  -21.0500 26029.2 -03434.3 -07.5162 26254.7
 28 04 2013  02 03  -21.0498 26029.3 -03434.4 -07.5164 26254.9
 28 04 2013  02 04  -21.0496 26029.5 -03434.5 -07.5165 26255.1
 28 04 2013  02 05  -21.0496 26029.5 -03434.5 -07.5165 26255.1
 28 04 2013  02 06  -21.0495 26029.5 -03434.5 -07.5165 26255.2
 28 04 2013  02 07  -21.0495 26029.5 -03434.5 -07.5165 26255.2
 28 04 2013  02 08  -21.0494 26029.7 -03434.6 -07.5166 26255.3
 28 04 2013  02 09  -21.0494 26029.8 -03434.6 -07.5168 26255.4
 28 04 2013  02 10  -21.0493 26030.0 -03434.7 -07.5169 26255.6
 28 04 2013  02 11  -21.0492 26030.2 -03434.8 -07.5171 26255.9
 28 04 2013  02 12  -21.0492 26030.4 -03434.9 -07.5172 26256.0
 28 04 2013  02 13  -21.0491 26030.4 -03434.9 -07.5172 26256.1
 28 04 2013  02 14  -21.0491 26030.3 -03434.9 -07.5172 26255.9
 28 04 2013  02 15  -21.0492 26030.1 -03434.8 -07.5170 26255.7
 28 04 2013  02 16  -21.0493 26030.0 -03434.7 -07.5169 26255.6
 28 04 2013  02 17  -21.0493 26030.0 -03434.7 -07.5169 26255.6
 28 04 2013  02 18  -21.0493 26030.0 -03434.8 -07.5169 26255.6
 28 04 2013  02 19  -21.0492 26030.1 -03434.8 -07.5171 26255.7
 28 04 2013  02 20  -21.0492 26030.2 -03434.9 -07.5172 26255.8
 28 04 2013  02 21  -21.0490 26030.3 -03435.0 -07.5173 26256.0
 28 04 2013  02 22  -21.0488 26030.5 -03435.1 -07.5175 26256.2
 28 04 2013  02 23  -21.0486 26030.7 -03435.2 -07.5177 26256.4
 28 04 2013  02 24  -21.0483 26030.8 -03435.2 -07.5177 26256.5
 28 04 2013  02 25  -21.0481 26030.8 -03435.2 -07.5177 26256.5
 28 04 2013  02 26  -21.0480 26030.9 -03435.3 -07.5178 26256.5
 28 04 2013  02 27  -21.0480 26030.9 -03435.3 -07.5178 26256.6
 28 04 2013  02 28  -21.0480 26030.8 -03435.2 -07.5177 26256.5
 28 04 2013  02 29  -21.0482 26030.7 -03435.2 -07.5177 26256.4
 28 04 2013  02 30  -21.0482 26030.6 -03435.2 -07.5177 26256.3
 28 04 2013  02 31  -21.0482 26030.5 -03435.1 -07.5176 26256.2
 28 04 2013  02 32  -21.0482 26030.4 -03435.1 -07.5175 26256.0
 28 04 2013  02 33  -21.0482 26030.4 -03435.1 -07.5176 26256.1
 28 04 2013  02 34  -21.0482 26030.5 -03435.1 -07.5176 26256.1
 28 04 2013  02 35  -21.0483 26030.5 -03435.2 -07.5177 26256.2
 28 04 2013  02 36  -21.0483 26030.5 -03435.2 -07.5179 26256.2
 28 04 2013  02 37  -21.0483 26030.5 -03435.2 -07.5179 26256.2
 28 04 2013  02 38  -21.0482 26030.5 -03435.3 -07.5179 26256.2
 28 04 2013  02 39  -21.0480 26030.5 -03435.3 -07.5179 26256.2
 28 04 2013  02 40  -21.0478 26030.5 -03435.3 -07.5179 26256.2
 28 04 2013  02 41  -21.0475 26030.5 -03435.3 -07.5179 26256.2
 28 04 2013  02 42  -21.0473 26030.4 -03435.3 -07.5180 26256.1
 28 04 2013  02 43  -21.0472 26030.4 -03435.3 -07.5180 26256.1
 28 04 2013  02 44  -21.0472 26030.3 -03435.3 -07.5180 26256.0
 28 04 2013  02 45  -21.0470 26030.3 -03435.3 -07.5180 26256.0
 28 04 2013  02 46  -21.0469 26030.3 -03435.3 -07.5181 26256.0
 28 04 2013  02 47  -21.0468 26030.3 -03435.3 -07.5181 26256.0
 28 04 2013  02 48  -21.0467 26030.3 -03435.4 -07.5183 26256.0
 28 04 2013  02 49  -21.0466 26030.3 -03435.4 -07.5183 26256.0
 28 04 2013  02 50  -21.0466 26030.3 -03435.5 -07.5184 26256.1
 28 04 2013  02 51  -21.0466 26030.3 -03435.5 -07.5184 26256.0
 28 04 2013  02 52  -21.0466 26030.3 -03435.5 -07.5184 26256.0
 28 04 2013  02 53  -21.0466 26030.2 -03435.5 -07.5185 26256.0
 28 04 2013  02 54  -21.0465 26030.2 -03435.5 -07.5185 26256.0
 28 04 2013  02 55  -21.0465 26030.2 -03435.5 -07.5185 26255.9
 28 04 2013  02 56  -21.0464 26030.1 -03435.4 -07.5184 26255.8
 28 04 2013  02 57  -21.0464 26030.0 -03435.4 -07.5184 26255.7
 28 04 2013  02 58  -21.0465 26030.0 -03435.4 -07.5184 26255.7
 28 04 2013  02 59  -21.0466 26029.9 -03435.4 -07.5185 26255.6
 28 04 2013  03 00  -21.0466 26030.0 -03435.5 -07.5185 26255.7
 28 04 2013  03 01  -21.0466 26030.0 -03435.5 -07.5186 26255.7
 28 04 2013  03 02  -21.0466 26030.0 -03435.5 -07.5186 26255.7
 28 04 2013  03 03  -21.0466 26030.0 -03435.5 -07.5187 26255.7
 28 04 2013  03 04  -21.0466 26030.0 -03435.6 -07.5187 26255.7
 28 04 2013  03 05  -21.0466 26029.9 -03435.6 -07.5187 26255.7
 28 04 2013  03 06  -21.0466 26030.0 -03435.6 -07.5188 26255.7
 28 04 2013  03 07  -21.0467 26029.9 -03435.6 -07.5188 26255.7
 28 04 2013  03 08  -21.0467 26029.9 -03435.6 -07.5188 26255.7
 28 04 2013  03 09  -21.0467 26030.0 -03435.6 -07.5188 26255.7
 28 04 2013  03 10  -21.0468 26029.9 -03435.6 -07.5189 26255.7
 28 04 2013  03 11  -21.0466 26029.9 -03435.7 -07.5189 26255.7
 28 04 2013  03 12  -21.0465 26030.0 -03435.7 -07.5189 26255.7
 28 04 2013  03 13  -21.0465 26030.0 -03435.7 -07.5190 26255.7
 28 04 2013  03 14  -21.0466 26030.0 -03435.7 -07.5191 26255.7
 28 04 2013  03 15  -21.0466 26030.0 -03435.8 -07.5191 26255.8
 28 04 2013  03 16  -21.0466 26030.0 -03435.8 -07.5191 26255.8
 28 04 2013  03 17  -21.0467 26030.0 -03435.8 -07.5191 26255.7
 28 04 2013  03 18  -21.0468 26029.9 -03435.7 -07.5191 26255.7
 28 04 2013  03 19  -21.0469 26029.9 -03435.7 -07.5191 26255.7
 28 04 2013  03 20  -21.0468 26029.9 -03435.7 -07.5191 26255.7
 28 04 2013  03 21  -21.0468 26029.9 -03435.7 -07.5191 26255.7
 28 04 2013  03 22  -21.0468 26030.0 -03435.7 -07.5191 26255.7
 28 04 2013  03 23  -21.0468 26030.0 -03435.8 -07.5192 26255.8
 28 04 2013  03 24  -21.0468 26030.1 -03435.8 -07.5192 26255.8
 28 04 2013  03 25  -21.0467 26030.1 -03435.9 -07.5194 26255.9
 28 04 2013  03 26  -21.0467 26030.2 -03435.9 -07.5193 26256.0
 28 04 2013  03 27  -21.0466 26030.2 -03435.9 -07.5194 26256.0
 28 04 2013  03 28  -21.0466 26030.3 -03436.0 -07.5195 26256.1
 28 04 2013  03 29  -21.0466 26030.3 -03436.0 -07.5195 26256.1
 28 04 2013  03 30  -21.0466 26030.3 -03436.0 -07.5195 26256.1
 28 04 2013  03 31  -21.0465 26030.3 -03435.9 -07.5194 26256.1
 28 04 2013  03 32  -21.0464 26030.3 -03435.9 -07.5195 26256.1
 28 04 2013  03 33  -21.0464 26030.3 -03436.0 -07.5195 26256.1
 28 04 2013  03 34  -21.0463 26030.3 -03436.0 -07.5196 26256.1
 28 04 2013  03 35  -21.0464 26030.3 -03436.0 -07.5195 26256.1
 28 04 2013  03 36  -21.0464 26030.2 -03436.0 -07.5195 26256.0
 28 04 2013  03 37  -21.0464 26030.2 -03436.0 -07.5196 26256.0
 28 04 2013  03 38  -21.0463 26030.2 -03436.0 -07.5196 26256.0
 28 04 2013  03 39  -21.0463 26030.2 -03436.0 -07.5196 26256.0
 28 04 2013  03 40  -21.0463 26030.1 -03436.0 -07.5196 26255.9
 28 04 2013  03 41  -21.0462 26030.1 -03435.9 -07.5195 26255.9
 28 04 2013  03 42  -21.0461 26030.1 -03436.0 -07.5195 26255.9
 28 04 2013  03 43  -21.0459 26030.1 -03436.0 -07.5196 26255.9
 28 04 2013  03 44  -21.0458 26030.0 -03436.0 -07.5196 26255.8
 28 04 2013  03 45  -21.0456 26030.0 -03436.0 -07.5197 26255.8
 28 04 2013  03 46  -21.0454 26030.1 -03436.1 -07.5198 26255.9
 28 04 2013  03 47  -21.0453 26030.0 -03436.1 -07.5198 26255.8
 28 04 2013  03 48  -21.0450 26030.1 -03436.1 -07.5199 26255.9
 28 04 2013  03 49  -21.0448 26030.2 -03436.2 -07.5200 26256.0
 28 04 2013  03 50  -21.0446 26030.2 -03436.3 -07.5202 26256.1
 28 04 2013  03 51  -21.0445 26030.3 -03436.3 -07.5202 26256.2
 28 04 2013  03 52  -21.0444 26030.4 -03436.4 -07.5204 26256.2
 28 04 2013  03 53  -21.0444 26030.5 -03436.5 -07.5205 26256.3
 28 04 2013  03 54  -21.0443 26030.6 -03436.5 -07.5206 26256.4
 28 04 2013  03 55  -21.0442 26030.5 -03436.5 -07.5206 26256.4
 28 04 2013  03 56  -21.0441 26030.5 -03436.5 -07.5206 26256.4
 28 04 2013  03 57  -21.0440 26030.5 -03436.5 -07.5207 26256.3
 28 04 2013  03 58  -21.0439 26030.5 -03436.6 -07.5207 26256.3
 28 04 2013  03 59  -21.0438 26030.4 -03436.6 -07.5207 26256.3
 28 04 2013  04 00  -21.0438 26030.4 -03436.6 -07.5207 26256.3
 28 04 2013  04 01  -21.0438 26030.4 -03436.6 -07.5208 26256.3
 28 04 2013  04 02  -21.0438 26030.4 -03436.6 -07.5209 26256.3
 28 04 2013  04 03  -21.0438 26030.4 -03436.7 -07.5209 26256.3
 28 04 2013  04 04  -21.0436 26030.4 -03436.7 -07.5210 26256.3
 28 04 2013  04 05  -21.0436 26030.4 -03436.7 -07.5210 26256.3
 28 04 2013  04 06  -21.0436 26030.4 -03436.7 -07.5210 26256.3
 28 04 2013  04 07  -21.0435 26030.3 -03436.7 -07.5211 26256.2
 28 04 2013  04 08  -21.0435 26030.3 -03436.7 -07.5211 26256.2
 28 04 2013  04 09  -21.0436 26030.3 -03436.8 -07.5212 26256.2
 28 04 2013  04 10  -21.0437 26030.3 -03436.8 -07.5212 26256.2
 28 04 2013  04 11  -21.0437 26030.2 -03436.8 -07.5213 26256.1
 28 04 2013  04 12  -21.0437 26030.2 -03436.8 -07.5213 26256.1
 28 04 2013  04 13  -21.0437 26030.1 -03436.8 -07.5213 26256.0
 28 04 2013  04 14  -21.0438 26030.1 -03436.8 -07.5213 26256.0
 28 04 2013  04 15  -21.0439 26030.1 -03436.8 -07.5213 26256.0
 28 04 2013  04 16  -21.0439 26030.0 -03436.8 -07.5214 26256.0
 28 04 2013  04 17  -21.0441 26030.1 -03436.8 -07.5214 26256.0
 28 04 2013  04 18  -21.0441 26030.1 -03436.9 -07.5215 26256.0
 28 04 2013  04 19  -21.0441 26030.1 -03436.9 -07.5215 26256.0
 28 04 2013  04 20  -21.0441 26030.1 -03436.9 -07.5215 26256.0
 28 04 2013  04 21  -21.0442 26030.0 -03436.9 -07.5215 26255.9
 28 04 2013  04 22  -21.0443 26030.0 -03436.9 -07.5216 26255.9
 28 04 2013  04 23  -21.0444 26030.0 -03436.9 -07.5215 26256.0
 28 04 2013  04 24  -21.0445 26030.1 -03436.9 -07.5216 26256.0
 28 04 2013  04 25  -21.0445 26030.1 -03437.0 -07.5217 26256.1
 28 04 2013  04 26  -21.0445 26030.3 -03437.0 -07.5217 26256.2
 28 04 2013  04 27  -21.0444 26030.3 -03437.1 -07.5218 26256.3
 28 04 2013  04 28  -21.0443 26030.4 -03437.1 -07.5219 26256.4
 28 04 2013  04 29  -21.0441 26030.5 -03437.1 -07.5220 26256.4
 28 04 2013  04 30  -21.0440 26030.6 -03437.2 -07.5220 26256.5
 28 04 2013  04 31  -21.0439 26030.7 -03437.2 -07.5221 26256.6
 28 04 2013  04 32  -21.0437 26030.8 -03437.3 -07.5223 26256.7
 28 04 2013  04 33  -21.0437 26030.9 -03437.4 -07.5224 26256.8
 28 04 2013  04 34  -21.0436 26031.0 -03437.4 -07.5224 26256.9
 28 04 2013  04 35  -21.0436 26031.0 -03437.5 -07.5225 26257.0
 28 04 2013  04 36  -21.0436 26031.1 -03437.5 -07.5225 26257.0
 28 04 2013  04 37  -21.0437 26031.1 -03437.5 -07.5225 26257.0
 28 04 2013  04 38  -21.0439 26031.1 -03437.5 -07.5225 26257.0
 28 04 2013  04 39  -21.0441 26031.0 -03437.4 -07.5224 26257.0
 28 04 2013  04 40  -21.0442 26031.0 -03437.4 -07.5223 26257.0
 28 04 2013  04 41  -21.0441 26030.9 -03437.3 -07.5223 26256.9
 28 04 2013  04 42  -21.0442 26030.8 -03437.3 -07.5222 26256.8
 28 04 2013  04 43  -21.0443 26030.9 -03437.3 -07.5223 26256.8
 28 04 2013  04 44  -21.0443 26030.9 -03437.4 -07.5223 26256.9
 28 04 2013  04 45  -21.0442 26031.0 -03437.4 -07.5224 26256.9
 28 04 2013  04 46  -21.0442 26031.1 -03437.5 -07.5225 26257.1
 28 04 2013  04 47  -21.0440 26031.3 -03437.6 -07.5227 26257.3
 28 04 2013  04 48  -21.0440 26031.4 -03437.6 -07.5227 26257.4
 28 04 2013  04 49  -21.0440 26031.3 -03437.6 -07.5227 26257.3
 28 04 2013  04 50  -21.0439 26031.3 -03437.6 -07.5227 26257.3
 28 04 2013  04 51  -21.0439 26031.4 -03437.7 -07.5228 26257.4
 28 04 2013  04 52  -21.0439 26031.5 -03437.7 -07.5229 26257.6
 28 04 2013  04 53  -21.0439 26031.6 -03437.8 -07.5230 26257.6
 28 04 2013  04 54  -21.0439 26031.7 -03437.8 -07.5230 26257.8
 28 04 2013  04 55  -21.0439 26031.7 -03437.8 -07.5230 26257.7
 28 04 2013  04 56  -21.0439 26031.7 -03437.8 -07.5230 26257.7
 28 04 2013  04 57  -21.0439 26031.8 -03437.8 -07.5230 26257.8
 28 04 2013  04 58  -21.0438 26031.9 -03437.8 -07.5230 26257.9
 28 04 2013  04 59  -21.0438 26031.9 -03437.8 -07.5231 26258.0
 28 04 2013  05 00  -21.0438 26032.0 -03437.8 -07.5231 26258.0
 28 04 2013  05 01  -21.0439 26032.0 -03437.8 -07.5230 26258.0
 28 04 2013  05 02  -21.0439 26032.1 -03437.9 -07.5231 26258.1
 28 04 2013  05 03  -21.0439 26032.2 -03437.9 -07.5232 26258.2
 28 04 2013  05 04  -21.0439 26032.2 -03437.9 -07.5232 26258.2
 28 04 2013  05 05  -21.0439 26032.2 -03437.9 -07.5232 26258.3
 28 04 2013  05 06  -21.0440 26032.2 -03437.9 -07.5232 26258.3
 28 04 2013  05 07  -21.0441 26032.3 -03437.9 -07.5231 26258.3
 28 04 2013  05 08  -21.0441 26032.3 -03437.9 -07.5232 26258.3
 28 04 2013  05 09  -21.0441 26032.3 -03437.9 -07.5231 26258.3
 28 04 2013  05 10  -21.0441 26032.2 -03437.9 -07.5231 26258.3
 28 04 2013  05 11  -21.0442 26032.2 -03437.9 -07.5231 26258.3
 28 04 2013  05 12  -21.0442 26032.2 -03437.9 -07.5231 26258.3
 28 04 2013  05 13  -21.0443 26032.3 -03437.9 -07.5231 26258.3
 28 04 2013  05 14  -21.0443 26032.4 -03437.9 -07.5232 26258.4
 28 04 2013  05 15  -21.0443 26032.5 -03438.0 -07.5232 26258.5
 28 04 2013  05 16  -21.0443 26032.5 -03438.0 -07.5233 26258.5
 28 04 2013  05 17  -21.0444 26032.5 -03438.0 -07.5233 26258.6
 28 04 2013  05 18  -21.0444 26032.6 -03438.0 -07.5233 26258.6
 28 04 2013  05 19  -21.0444 26032.6 -03438.0 -07.5233 26258.6
 28 04 2013  05 20  -21.0444 26032.5 -03438.0 -07.5232 26258.5
 28 04 2013  05 21  -21.0444 26032.5 -03438.0 -07.5232 26258.5
 28 04 2013  05 22  -21.0444 26032.5 -03438.0 -07.5232 26258.5
 28 04 2013  05 23  -21.0444 26032.5 -03438.0 -07.5232 26258.5
 28 04 2013  05 24  -21.0444 26032.5 -03438.0 -07.5232 26258.6
 28 04 2013  05 25  -21.0443 26032.6 -03438.0 -07.5232 26258.6
 28 04 2013  05 26  -21.0442 26032.7 -03438.0 -07.5233 26258.7
 28 04 2013  05 27  -21.0441 26032.7 -03438.1 -07.5234 26258.8
 28 04 2013  05 28  -21.0439 26032.9 -03438.2 -07.5235 26258.9
 28 04 2013  05 29  -21.0437 26033.0 -03438.2 -07.5236 26259.0
 28 04 2013  05 30  -21.0434 26033.1 -03438.3 -07.5237 26259.1
 28 04 2013  05 31  -21.0433 26033.1 -03438.3 -07.5237 26259.2
 28 04 2013  05 32  -21.0432 26033.2 -03438.3 -07.5238 26259.3
 28 04 2013  05 33  -21.0430 26033.3 -03438.4 -07.5238 26259.3
 28 04 2013  05 34  -21.0430 26033.3 -03438.4 -07.5238 26259.4
 28 04 2013  05 35  -21.0430 26033.2 -03438.3 -07.5238 26259.3
 28 04 2013  05 36  -21.0430 26033.2 -03438.3 -07.5238 26259.3
 28 04 2013  05 37  -21.0429 26033.2 -03438.3 -07.5238 26259.3
 28 04 2013  05 38  -21.0429 26033.2 -03438.4 -07.5238 26259.3
 28 04 2013  05 39  -21.0429 26033.2 -03438.3 -07.5238 26259.2
 28 04 2013  05 40  -21.0429 26033.1 -03438.3 -07.5238 26259.2
 28 04 2013  05 41  -21.0429 26033.1 -03438.3 -07.5238 26259.2
 28 04 2013  05 42  -21.0430 26033.1 -03438.3 -07.5237 26259.2
 28 04 2013  05 43  -21.0431 26033.1 -03438.3 -07.5238 26259.2
 28 04 2013  05 44  -21.0431 26033.1 -03438.4 -07.5238 26259.2
 28 04 2013  05 45  -21.0430 26033.1 -03438.3 -07.5238 26259.2
 28 04 2013  05 46  -21.0430 26033.2 -03438.4 -07.5239 26259.3
 28 04 2013  05 47  -21.0430 26033.3 -03438.4 -07.5239 26259.4
 28 04 2013  05 48  -21.0428 26033.4 -03438.4 -07.5239 26259.5
 28 04 2013  05 49  -21.0428 26033.5 -03438.5 -07.5240 26259.6
 28 04 2013  05 50  -21.0427 26033.6 -03438.5 -07.5241 26259.7
 28 04 2013  05 51  -21.0425 26033.7 -03438.6 -07.5242 26259.8
 28 04 2013  05 52  -21.0423 26033.8 -03438.7 -07.5243 26260.0
 28 04 2013  05 53  -21.0421 26033.9 -03438.7 -07.5244 26260.0
 28 04 2013  05 54  -21.0419 26034.0 -03438.8 -07.5245 26260.1
 28 04 2013  05 55  -21.0420 26034.0 -03438.7 -07.5244 26260.1
 28 04 2013  05 56  -21.0419 26034.0 -03438.8 -07.5245 26260.1
 28 04 2013  05 57  -21.0417 26034.0 -03438.8 -07.5245 26260.2
 28 04 2013  05 58  -21.0417 26033.9 -03438.7 -07.5245 26260.1
 28 04 2013  05 59  -21.0417 26033.8 -03438.7 -07.5244 26259.9
 28 04 2013  06 00  -21.0418 26033.7 -03438.6 -07.5243 26259.8
 28 04 2013  06 01  -21.0418 26033.5 -03438.6 -07.5242 26259.6
 28 04 2013  06 02  -21.0418 26033.5 -03438.5 -07.5241 26259.6
 28 04 2013  06 03  -21.0419 26033.6 -03438.6 -07.5242 26259.7
 28 04 2013  06 04  -21.0417 26033.7 -03438.6 -07.5243 26259.8
 28 04 2013  06 05  -21.0415 26033.8 -03438.8 -07.5245 26260.0
 28 04 2013  06 06  -21.0412 26033.9 -03438.8 -07.5247 26260.0
 28 04 2013  06 07  -21.0410 26034.0 -03438.9 -07.5247 26260.1
 28 04 2013  06 08  -21.0407 26034.0 -03438.9 -07.5248 26260.2
 28 04 2013  06 09  -21.0404 26034.1 -03439.0 -07.5249 26260.2
 28 04 2013  06 10  -21.0401 26034.1 -03439.0 -07.5249 26260.3
 28 04 2013  06 11  -21.0401 26034.2 -03439.0 -07.5250 26260.3
 28 04 2013  06 12  -21.0399 26034.2 -03439.1 -07.5251 26260.4
 28 04 2013  06 13  -21.0398 26034.4 -03439.1 -07.5251 26260.6
 28 04 2013  06 14  -21.0396 26034.5 -03439.2 -07.5253 26260.7
 28 04 2013  06 15  -21.0395 26034.6 -03439.3 -07.5255 26260.8
 28 04 2013  06 16  -21.0396 26034.7 -03439.4 -07.5256 26260.9
 28 04 2013  06 17  -21.0397 26034.8 -03439.4 -07.5257 26261.0
 28 04 2013  06 18  -21.0399 26034.9 -03439.5 -07.5258 26261.1
 28 04 2013  06 19  -21.0400 26035.0 -03439.6 -07.5260 26261.3
 28 04 2013  06 20  -21.0403 26035.0 -03439.6 -07.5259 26261.3
 28 04 2013  06 21  -21.0407 26035.0 -03439.5 -07.5259 26261.2
 28 04 2013  06 22  -21.0410 26035.0 -03439.5 -07.5258 26261.2
 28 04 2013  06 23  -21.0413 26035.0 -03439.5 -07.5258 26261.2
 28 04 2013  06 24  -21.0416 26035.0 -03439.5 -07.5257 26261.3
 28 04 2013  06 25  -21.0417 26035.1 -03439.5 -07.5257 26261.3
 28 04 2013  06 26  -21.0418 26035.2 -03439.5 -07.5258 26261.4
 28 04 2013  06 27  -21.0417 26035.4 -03439.5 -07.5258 26261.6
 28 04 2013  06 28  -21.0417 26035.4 -03439.6 -07.5258 26261.6
 28 04 2013  06 29  -21.0416 26035.5 -03439.6 -07.5258 26261.7
 28 04 2013  06 30  -21.0415 26035.5 -03439.5 -07.5257 26261.7
 28 04 2013  06 31  -21.0415 26035.5 -03439.5 -07.5256 26261.7
 28 04 2013  06 32  -21.0414 26035.5 -03439.5 -07.5256 26261.7
 28 04 2013  06 33  -21.0413 26035.6 -03439.5 -07.5256 26261.8
 28 04 2013  06 34  -21.0412 26035.7 -03439.5 -07.5256 26261.9
 28 04 2013  06 35  -21.0409 26035.8 -03439.5 -07.5256 26262.0
 28 04 2013  06 36  -21.0408 26035.8 -03439.5 -07.5256 26262.0
 28 04 2013  06 37  -21.0406 26035.8 -03439.5 -07.5256 26262.0
 28 04 2013  06 38  -21.0404 26035.7 -03439.4 -07.5254 26261.9
 28 04 2013  06 39  -21.0402 26035.7 -03439.4 -07.5254 26261.9
 28 04 2013  06 40  -21.0400 26035.7 -03439.5 -07.5255 26261.9
 28 04 2013  06 41  -21.0400 26035.7 -03439.4 -07.5254 26261.9
 28 04 2013  06 42  -21.0400 26035.7 -03439.4 -07.5254 26261.9
 28 04 2013  06 43  -21.0399 26035.7 -03439.4 -07.5254 26261.9
 28 04 2013  06 44  -21.0398 26035.7 -03439.4 -07.5254 26261.9
 28 04 2013  06 45  -21.0397 26035.8 -03439.5 -07.5255 26262.0
 28 04 2013  06 46  -21.0396 26035.8 -03439.5 -07.5255 26262.0
 28 04 2013  06 47  -21.0394 26035.9 -03439.5 -07.5256 26262.1
 28 04 2013  06 48  -21.0393 26036.0 -03439.6 -07.5257 26262.3
 28 04 2013  06 49  -21.0391 26036.2 -03439.7 -07.5258 26262.4
 28 04 2013  06 50  -21.0390 26036.3 -03439.7 -07.5259 26262.6
 28 04 2013  06 51  -21.0388 26036.4 -03439.8 -07.5260 26262.7
 28 04 2013  06 52  -21.0387 26036.5 -03439.8 -07.5261 26262.7
 28 04 2013  06 53  -21.0386 26036.5 -03439.8 -07.5260 26262.7
 28 04 2013  06 54  -21.0384 26036.5 -03439.8 -07.5259 26262.7
 28 04 2013  06 55  -21.0383 26036.5 -03439.7 -07.5259 26262.7
 28 04 2013  06 56  -21.0381 26036.6 -03439.8 -07.5259 26262.8
 28 04 2013  06 57  -21.0379 26036.7 -03439.8 -07.5260 26262.9
 28 04 2013  06 58  -21.0376 26036.7 -03439.8 -07.5260 26263.0
 28 04 2013  06 59  -21.0373 26036.8 -03439.8 -07.5260 26263.0
 28 04 2013  07 00  -21.0371 26036.8 -03439.8 -07.5260 26263.0
 28 04 2013  07 01  -21.0368 26036.8 -03439.9 -07.5261 26263.1
 28 04 2013  07 02  -21.0367 26036.9 -03439.9 -07.5261 26263.1
 28 04 2013  07 03  -21.0366 26037.0 -03439.9 -07.5262 26263.2
 28 04 2013  07 04  -21.0364 26037.1 -03440.0 -07.5264 26263.4
 28 04 2013  07 05  -21.0363 26037.1 -03440.0 -07.5263 26263.3
 28 04 2013  07 06  -21.0363 26037.0 -03440.0 -07.5263 26263.3
 28 04 2013  07 07  -21.0363 26037.0 -03440.0 -07.5262 26263.3
 28 04 2013  07 08  -21.0364 26036.9 -03439.9 -07.5262 26263.2
 28 04 2013  07 09  -21.0365 26037.0 -03439.9 -07.5262 26263.2
 28 04 2013  07 10  -21.0366 26037.0 -03439.9 -07.5262 26263.3
 28 04 2013  07 11  -21.0367 26037.1 -03440.0 -07.5262 26263.3
 28 04 2013  07 12  -21.0366 26037.1 -03440.0 -07.5262 26263.4
 28 04 2013  07 13  -21.0365 26037.1 -03439.9 -07.5261 26263.4
 28 04 2013  07 14  -21.0363 26037.1 -03440.0 -07.5262 26263.4
 28 04 2013  07 15  -21.0362 26037.2 -03440.0 -07.5262 26263.4
 28 04 2013  07 16  -21.0360 26037.2 -03440.0 -07.5262 26263.5
 28 04 2013  07 17  -21.0357 26037.3 -03440.0 -07.5263 26263.6
 28 04 2013  07 18  -21.0356 26037.5 -03440.1 -07.5264 26263.7
 28 04 2013  07 19  -21.0355 26037.7 -03440.2 -07.5265 26264.0
 28 04 2013  07 20  -21.0353 26037.8 -03440.3 -07.5267 26264.1
 28 04 2013  07 21  -21.0352 26037.9 -03440.3 -07.5267 26264.2
 28 04 2013  07 22  -21.0351 26038.0 -03440.3 -07.5267 26264.3
 28 04 2013  07 23  -21.0351 26038.1 -03440.4 -07.5268 26264.4
 28 04 2013  07 24  -21.0350 26038.2 -03440.4 -07.5268 26264.5
 28 04 2013  07 25  -21.0349 26038.2 -03440.4 -07.5268 26264.5
 28 04 2013  07 26  -21.0347 26038.2 -03440.3 -07.5267 26264.5
 28 04 2013  07 27  -21.0346 26038.2 -03440.3 -07.5266 26264.5
 28 04 2013  07 28  -21.0346 26038.2 -03440.3 -07.5266 26264.5
 28 04 2013  07 29  -21.0347 26038.3 -03440.3 -07.5267 26264.6
 28 04 2013  07 30  -21.0347 26038.3 -03440.3 -07.5266 26264.6
 28 04 2013  07 31  -21.0346 26038.4 -03440.4 -07.5267 26264.7
 28 04 2013  07 32  -21.0346 26038.6 -03440.5 -07.5269 26265.0
 28 04 2013  07 33  -21.0344 26038.8 -03440.5 -07.5269 26265.1
 28 04 2013  07 34  -21.0341 26038.7 -03440.5 -07.5269 26265.0
 28 04 2013  07 35  -21.0340 26038.6 -03440.4 -07.5267 26264.9
 28 04 2013  07 36  -21.0339 26038.6 -03440.4 -07.5266 26264.9
 28 04 2013  07 37  -21.0338 26038.6 -03440.4 -07.5266 26264.9
 28 04 2013  07 38  -21.0339 26038.7 -03440.4 -07.5267 26265.0
 28 04 2013  07 39  -21.0339 26038.8 -03440.4 -07.5267 26265.1
 28 04 2013  07 40  -21.0339 26038.7 -03440.4 -07.5267 26265.0
 28 04 2013  07 41  -21.0337 26038.7 -03440.4 -07.5267 26265.0
 28 04 2013  07 42  -21.0334 26038.8 -03440.4 -07.5266 26265.1
 28 04 2013  07 43  -21.0331 26038.9 -03440.4 -07.5267 26265.2
 28 04 2013  07 44  -21.0328 26039.0 -03440.5 -07.5269 26265.4
 28 04 2013  07 45  -21.0325 26039.2 -03440.6 -07.5270 26265.5
 28 04 2013  07 46  -21.0320 26039.3 -03440.6 -07.5270 26265.6
 28 04 2013  07 47  -21.0315 26039.4 -03440.7 -07.5271 26265.8
 28 04 2013  07 48  -21.0310 26039.6 -03440.8 -07.5272 26265.9
 28 04 2013  07 49  -21.0304 26039.5 -03440.7 -07.5272 26265.9
 28 04 2013  07 50  -21.0302 26039.4 -03440.7 -07.5271 26265.7
 28 04 2013  07 51  -21.0299 26039.3 -03440.7 -07.5271 26265.7
 28 04 2013  07 52  -21.0298 26039.3 -03440.7 -07.5271 26265.6
 28 04 2013  07 53  -21.0299 26039.3 -03440.7 -07.5272 26265.6
 28 04 2013  07 54  -21.0299 26039.3 -03440.8 -07.5273 26265.7
 28 04 2013  07 55  -21.0300 26039.4 -03440.8 -07.5274 26265.7
 28 04 2013  07 56  -21.0301 26039.5 -03440.9 -07.5275 26265.9
 28 04 2013  07 57  -21.0302 26039.6 -03440.9 -07.5275 26266.0
 28 04 2013  07 58  -21.0302 26039.8 -03441.0 -07.5277 26266.2
 28 04 2013  07 59  -21.0301 26039.9 -03441.0 -07.5277 26266.3
 28 04 2013  08 00  -21.0299 26040.1 -03441.1 -07.5278 26266.5
 28 04 2013  08 01  -21.0298 26040.3 -03441.2 -07.5280 26266.7
 28 04 2013  08 02  -21.0298 26040.5 -03441.3 -07.5281 26266.9
 28 04 2013  08 03  -21.0298 26040.6 -03441.3 -07.5282 26267.0
 28 04 2013  08 04  -21.0298 26040.7 -03441.3 -07.5281 26267.1
 28 04 2013  08 05  -21.0298 26040.8 -03441.3 -07.5281 26267.2
 28 04 2013  08 06  -21.0297 26040.9 -03441.4 -07.5282 26267.3
 28 04 2013  08 07  -21.0298 26040.9 -03441.3 -07.5281 26267.4
 28 04 2013  08 08  -21.0298 26040.9 -03441.3 -07.5279 26267.3
 28 04 2013  08 09  -21.0298 26040.8 -03441.2 -07.5278 26267.2
 28 04 2013  08 10  -21.0300 26040.7 -03441.1 -07.5277 26267.0
 28 04 2013  08 11  -21.0304 26040.5 -03441.1 -07.5276 26266.9
 28 04 2013  08 12  -21.0310 26040.4 -03441.0 -07.5274 26266.8
 28 04 2013  08 13  -21.0315 26040.2 -03440.8 -07.5272 26266.5
 28 04 2013  08 14  -21.0317 26040.1 -03440.7 -07.5270 26266.4
 28 04 2013  08 15  -21.0319 26040.0 -03440.7 -07.5268 26266.4
 28 04 2013  08 16  -21.0319 26040.0 -03440.6 -07.5267 26266.3
 28 04 2013  08 17  -21.0318 26040.3 -03440.7 -07.5269 26266.6
 28 04 2013  08 18  -21.0314 26040.6 -03440.8 -07.5271 26266.9
 28 04 2013  08 19  -21.0312 26040.7 -03440.9 -07.5273 26267.0
 28 04 2013  08 20  -21.0306 26040.7 -03440.9 -07.5273 26267.0
 28 04 2013  08 21  -21.0302 26040.7 -03440.9 -07.5273 26267.1
 28 04 2013  08 22  -21.0300 26040.9 -03441.0 -07.5273 26267.2
 28 04 2013  08 23  -21.0299 26040.8 -03441.0 -07.5273 26267.2
 28 04 2013  08 24  -21.0297 26040.9 -03441.0 -07.5274 26267.2
 28 04 2013  08 25  -21.0297 26040.8 -03441.0 -07.5273 26267.2
 28 04 2013  08 26  -21.0296 26040.7 -03440.9 -07.5272 26267.0
 28 04 2013  08 27  -21.0294 26040.5 -03440.8 -07.5271 26266.8
 28 04 2013  08 28  -21.0292 26040.3 -03440.7 -07.5270 26266.7
 28 04 2013  08 29  -21.0292 26040.2 -03440.7 -07.5269 26266.6
 28 04 2013  08 30  -21.0292 26040.3 -03440.8 -07.5270 26266.6
 28 04 2013  08 31  -21.0292 26040.5 -03440.9 -07.5272 26266.8
 28 04 2013  08 32  -21.0291 26040.5 -03440.9 -07.5273 26266.9
 28 04 2013  08 33  -21.0288 26040.5 -03441.0 -07.5273 26266.9
 28 04 2013  08 34  -21.0287 26040.6 -03441.0 -07.5274 26267.0
 28 04 2013  08 35  -21.0285 26040.6 -03441.0 -07.5275 26267.0
 28 04 2013  08 36  -21.0282 26040.7 -03441.1 -07.5276 26267.1
 28 04 2013  08 37  -21.0277 26040.8 -03441.2 -07.5278 26267.2
 28 04 2013  08 38  -21.0272 26040.8 -03441.2 -07.5279 26267.2
 28 04 2013  08 39  -21.0268 26040.9 -03441.3 -07.5281 26267.3
 28 04 2013  08 40  -21.0265 26041.0 -03441.4 -07.5282 26267.4
 28 04 2013  08 41  -21.0262 26041.1 -03441.5 -07.5285 26267.5
 28 04 2013  08 42  -21.0260 26041.1 -03441.6 -07.5286 26267.5
 28 04 2013  08 43  -21.0258 26041.0 -03441.6 -07.5287 26267.4
 28 04 2013  08 44  -21.0254 26041.0 -03441.7 -07.5288 26267.4
 28 04 2013  08 45  -21.0250 26041.0 -03441.8 -07.5289 26267.5
 28 04 2013  08 46  -21.0250 26041.0 -03441.8 -07.5291 26267.4
 28 04 2013  08 47  -21.0251 26041.0 -03442.0 -07.5294 26267.5
 28 04 2013  08 48  -21.0253 26041.0 -03442.1 -07.5298 26267.5
 28 04 2013  08 49  -21.0256 26041.0 -03442.2 -07.5299 26267.6
 28 04 2013  08 50  -21.0258 26041.1 -03442.3 -07.5301 26267.7
 28 04 2013  08 51  -21.0258 26041.3 -03442.5 -07.5304 26267.9
 28 04 2013  08 52  -21.0258 26041.5 -03442.6 -07.5307 26268.1
 28 04 2013  08 53  -21.0260 26041.7 -03442.8 -07.5311 26268.3
 28 04 2013  08 54  -21.0263 26041.8 -03443.0 -07.5314 26268.5
 28 04 2013  08 55  -21.0265 26041.9 -03443.1 -07.5315 26268.5
 28 04 2013  08 56  -21.0266 26041.9 -03443.1 -07.5315 26268.5
 28 04 2013  08 57  -21.0266 26041.9 -03443.0 -07.5315 26268.5
 28 04 2013  08 58  -21.0267 26041.8 -03443.0 -07.5313 26268.4
 28 04 2013  08 59  -21.0268 26041.7 -03442.9 -07.5313 26268.3
 28 04 2013  09 00  -21.0266 26041.5 -03442.9 -07.5312 26268.1
 28 04 2013  09 01  -21.0265 26041.5 -03442.8 -07.5311 26268.0
 28 04 2013  09 02  -21.0271 26041.5 -03442.9 -07.5313 26268.1
 28 04 2013  09 03  -21.0275 26041.5 -03443.0 -07.5316 26268.2
 28 04 2013  09 04  -21.0279 26041.6 -03443.1 -07.5318 26268.2
 28 04 2013  09 05  -21.0280 26041.7 -03443.3 -07.5321 26268.3
 28 04 2013  09 06  -21.0280 26041.7 -03443.3 -07.5321 26268.3
 28 04 2013  09 07  -21.0285 26041.5 -03443.3 -07.5322 26268.2
 28 04 2013  09 08  -21.0295 26041.4 -03443.3 -07.5322 26268.1
 28 04 2013  09 09  -21.0295 26041.5 -03443.4 -07.5323 26268.2
 28 04 2013  09 10  -21.0290 26041.4 -03443.3 -07.5323 26268.1
 28 04 2013  09 11  -21.0292 26041.3 -03443.4 -07.5324 26268.0
 28 04 2013  09 12  -21.0299 26041.3 -03443.5 -07.5327 26268.0
 28 04 2013  09 13  -21.0300 26041.2 -03443.6 -07.5329 26267.9
 28 04 2013  09 14  -21.0306 26041.1 -03443.7 -07.5331 26267.8
 28 04 2013  09 15  -21.0314 26041.0 -03443.7 -07.5332 26267.8
 28 04 2013  09 16  -21.0324 26041.2 -03443.9 -07.5335 26268.0
 28 04 2013  09 17  -21.0324 26041.3 -03444.0 -07.5338 26268.1
 28 04 2013  09 18  -21.0321 26041.3 -03444.1 -07.5339 26268.0
 28 04 2013  09 19  -21.0324 26041.3 -03444.2 -07.5342 26268.1
 28 04 2013  09 20  -21.0327 26041.4 -03444.4 -07.5345 26268.2
 28 04 2013  09 21  -21.0327 26041.5 -03444.5 -07.5347 26268.3
 28 04 2013  09 22  -21.0328 26041.6 -03444.6 -07.5348 26268.4
 28 04 2013  09 23  -21.0327 26041.5 -03444.6 -07.5350 26268.4
 28 04 2013  09 24  -21.0335 26041.4 -03444.6 -07.5350 26268.2
 28 04 2013  09 25  -21.0343 26041.3 -03444.7 -07.5351 26268.2
 28 04 2013  09 26  -21.0346 26041.2 -03444.6 -07.5351 26268.0
 28 04 2013  09 27  -21.0353 26041.0 -03444.6 -07.5350 26267.9
 28 04 2013  09 28  -21.0364 26040.8 -03444.6 -07.5351 26267.7
 28 04 2013  09 29  -21.0370 26040.8 -03444.6 -07.5353 26267.6
 28 04 2013  09 30  -21.0376 26040.7 -03444.7 -07.5355 26267.6
 28 04 2013  09 31  -21.0385 26040.7 -03444.9 -07.5358 26267.6
 28 04 2013  09 32  -21.0390 26040.8 -03445.0 -07.5360 26267.7
 28 04 2013  09 33  -21.0392 26041.0 -03445.1 -07.5363 26267.9
 28 04 2013  09 34  -21.0393 26041.1 -03445.3 -07.5365 26268.0
 28 04 2013  09 35  -21.0397 26041.3 -03445.4 -07.5368 26268.2
 28 04 2013  09 36  -21.0402 26041.4 -03445.6 -07.5370 26268.3
 28 04 2013  09 37  -21.0404 26041.4 -03445.7 -07.5373 26268.4
 28 04 2013  09 38  -21.0406 26041.6 -03445.8 -07.5375 26268.6
 28 04 2013  09 39  -21.0406 26041.9 -03445.9 -07.5377 26268.9
 28 04 2013  09 40  -21.0403 26042.2 -03446.0 -07.5378 26269.2
 28 04 2013  09 41  -21.0406 26042.2 -03446.0 -07.5377 26269.2
 28 04 2013  09 42  -21.0410 26042.3 -03446.0 -07.5378 26269.3
 28 04 2013  09 43  -21.0413 26042.4 -03446.1 -07.5379 26269.4
 28 04 2013  09 44  -21.0416 26042.8 -03446.2 -07.5381 26269.8
 28 04 2013  09 45  -21.0427 26042.9 -03446.3 -07.5382 26269.9
 28 04 2013  09 46  -21.0431 26043.1 -03446.4 -07.5384 26270.2
 28 04 2013  09 47  -21.0432 26043.3 -03446.5 -07.5385 26270.4
 28 04 2013  09 48  -21.0429 26043.7 -03446.6 -07.5387 26270.8
 28 04 2013  09 49  -21.0429 26043.9 -03446.7 -07.5387 26271.0
 28 04 2013  09 50  -21.0429 26044.3 -03446.8 -07.5390 26271.4
 28 04 2013  09 51  -21.0439 26044.4 -03446.9 -07.5391 26271.5
 28 04 2013  09 52  -21.0450 26044.7 -03447.1 -07.5393 26271.8
 28 04 2013  09 53  -21.0457 26045.1 -03447.2 -07.5396 26272.2
 28 04 2013  09 54  -21.0464 26045.4 -03447.3 -07.5397 26272.5
 28 04 2013  09 55  -21.0466 26045.3 -03447.2 -07.5395 26272.4
 28 04 2013  09 56  -21.0480 26045.3 -03447.2 -07.5394 26272.4
 28 04 2013  09 57  -21.0486 26045.4 -03447.2 -07.5396 26272.5
 28 04 2013  09 58  -21.0500 26045.6 -03447.3 -07.5396 26272.8
 28 04 2013  09 59  -21.0504 26045.9 -03447.5 -07.5399 26273.1
 28 04 2013  10 00  -21.0505 26046.2 -03447.5 -07.5400 26273.4
 28 04 2013  10 01  -21.0512 26046.3 -03447.6 -07.5402 26273.5
 28 04 2013  10 02  -21.0521 26046.7 -03447.9 -07.5405 26273.9
 28 04 2013  10 03  -21.0533 26046.9 -03448.0 -07.5407 26274.2
 28 04 2013  10 04  -21.0546 26047.2 -03448.0 -07.5407 26274.5
 28 04 2013  10 05  -21.0549 26047.5 -03448.0 -07.5406 26274.7
 28 04 2013  10 06  -21.0555 26047.6 -03447.9 -07.5404 26274.8
 28 04 2013  10 07  -21.0560 26048.1 -03448.1 -07.5406 26275.3
 28 04 2013  10 08  -21.0568 26048.4 -03448.2 -07.5407 26275.6
 28 04 2013  10 09  -21.0569 26048.8 -03448.3 -07.5409 26276.1
 28 04 2013  10 10  -21.0570 26049.1 -03448.4 -07.5410 26276.3
 28 04 2013  10 11  -21.0580 26049.3 -03448.5 -07.5411 26276.6
 28 04 2013  10 12  -21.0588 26049.6 -03448.5 -07.5411 26276.9
 28 04 2013  10 13  -21.0587 26049.9 -03448.6 -07.5411 26277.2
 28 04 2013  10 14  -21.0592 26050.1 -03448.5 -07.5410 26277.4
 28 04 2013  10 15  -21.0599 26050.3 -03448.5 -07.5409 26277.6
 28 04 2013  10 16  -21.0603 26050.5 -03448.6 -07.5410 26277.8
 28 04 2013  10 17  -21.0605 26051.1 -03448.7 -07.5411 26278.3
 28 04 2013  10 18  -21.0607 26051.6 -03448.8 -07.5411 26278.9
 28 04 2013  10 19  -21.0615 26051.9 -03448.8 -07.5411 26279.2
 28 04 2013  10 20  -21.0620 26051.9 -03448.8 -07.5410 26279.2
 28 04 2013  10 21  -21.0627 26052.0 -03448.7 -07.5408 26279.3
 28 04 2013  10 22  -21.0637 26052.3 -03448.7 -07.5408 26279.5
 28 04 2013  10 23  -21.0637 26052.8 -03448.8 -07.5408 26280.1
 28 04 2013  10 24  -21.0639 26053.1 -03448.8 -07.5406 26280.3
 28 04 2013  10 25  -21.0641 26053.4 -03448.8 -07.5405 26280.7
 28 04 2013  10 26  -21.0644 26053.7 -03448.7 -07.5404 26281.0
 28 04 2013  10 27  -21.0654 26054.0 -03448.7 -07.5402 26281.3
 28 04 2013  10 28  -21.0663 26054.3 -03448.6 -07.5400 26281.5
 28 04 2013  10 29  -21.0677 26054.5 -03448.6 -07.5398 26281.7
 28 04 2013  10 30  -21.0687 26054.7 -03448.5 -07.5395 26281.9
 28 04 2013  10 31  -21.0692 26054.9 -03448.4 -07.5392 26282.1
 28 04 2013  10 32  -21.0693 26055.3 -03448.2 -07.5389 26282.4
 28 04 2013  10 33  -21.0698 26055.6 -03448.2 -07.5387 26282.7
 28 04 2013  10 34  -21.0702 26056.0 -03448.2 -07.5387 26283.2
 28 04 2013  10 35  -21.0706 26056.5 -03448.2 -07.5385 26283.7
 28 04 2013  10 36  -21.0710 26057.1 -03448.3 -07.5384 26284.2
 28 04 2013  10 37  -21.0710 26057.5 -03448.2 -07.5381 26284.6
 28 04 2013  10 38  -21.0716 26058.0 -03448.1 -07.5378 26285.1
 28 04 2013  10 39  -21.0718 26058.4 -03448.0 -07.5374 26285.5
 28 04 2013  10 40  -21.0720 26058.7 -03447.8 -07.5370 26285.8
 28 04 2013  10 41  -21.0725 26059.1 -03447.7 -07.5366 26286.2
 28 04 2013  10 42  -21.0730 26059.4 -03447.5 -07.5362 26286.5
 28 04 2013  10 43  -21.0739 26059.8 -03447.4 -07.5358 26286.8
 28 04 2013  10 44  -21.0749 26060.1 -03447.3 -07.5354 26287.1
 28 04 2013  10 45  -21.0756 26060.0 -03447.0 -07.5348 26287.0
 28 04 2013  10 46  -21.0762 26060.1 -03446.8 -07.5343 26287.1
 28 04 2013  10 47  -21.0767 26060.2 -03446.5 -07.5338 26287.1
 28 04 2013  10 48  -21.0780 26059.7 -03446.1 -07.5330 26286.5
 28 04 2013  10 49  -21.0790 26059.1 -03445.7 -07.5322 26285.9
 28 04 2013  10 50  -21.0800 26059.0 -03445.6 -07.5320 26285.8
 28 04 2013  10 51  -21.0813 26059.0 -03445.6 -07.5322 26285.9
 28 04 2013  10 52  -21.0823 26059.5 -03445.7 -07.5323 26286.3
 28 04 2013  10 53  -21.0833 26059.9 -03445.8 -07.5322 26286.7
 28 04 2013  10 54  -21.0838 26060.4 -03445.6 -07.5317 26287.2
 28 04 2013  10 55  -21.0843 26060.6 -03445.3 -07.5310 26287.3
 28 04 2013  10 56  -21.0857 26059.9 -03444.7 -07.5300 26286.6
 28 04 2013  10 57  -21.0873 26059.2 -03444.3 -07.5292 26285.9
 28 04 2013  10 58  -21.0881 26058.9 -03444.0 -07.5287 26285.5
 28 04 2013  10 59  -21.0888 26058.5 -03443.7 -07.5283 26285.1
 28 04 2013  11 00  -21.0900 26058.5 -03443.8 -07.5283 26285.0
 28 04 2013  11 01  -21.0911 26058.6 -03443.8 -07.5282 26285.2
 28 04 2013  11 02  -21.0915 26058.7 -03443.6 -07.5278 26285.2
 28 04 2013  11 03  -21.0909 26059.4 -03443.7 -07.5279 26285.9
 28 04 2013  11 04  -21.0895 26060.6 -03443.9 -07.5281 26287.2
 28 04 2013  11 05  -21.0872 26061.9 -03444.1 -07.5281 26288.5
 28 04 2013  11 06  -21.0872 26062.1 -03444.0 -07.5277 26288.7
 28 04 2013  11 07  -21.0875 26062.5 -03444.0 -07.5276 26289.1
 28 04 2013  11 08  -21.0879 26063.0 -03443.9 -07.5272 26289.5
 28 04 2013  11 09  -21.0881 26063.9 -03443.9 -07.5270 26290.5
 28 04 2013  11 10  -21.0888 26064.8 -03443.8 -07.5266 26291.3
 28 04 2013  11 11  -21.0889 26065.3 -03443.6 -07.5261 26291.8
 28 04 2013  11 12  -21.0891 26065.6 -03443.3 -07.5253 26292.0
 28 04 2013  11 13  -21.0905 26065.4 -03443.0 -07.5246 26291.8
 28 04 2013  11 14  -21.0912 26065.6 -03442.8 -07.5242 26292.0
 28 04 2013  11 15  -21.0921 26065.3 -03442.4 -07.5235 26291.6
 28 04 2013  11 16  -21.0932 26065.3 -03442.2 -07.5231 26291.6
 28 04 2013  11 17  -21.0938 26065.7 -03442.3 -07.5230 26292.0
 28 04 2013  11 18  -21.0941 26066.0 -03442.2 -07.5228 26292.3
 28 04 2013  11 19  -21.0945 26065.9 -03442.0 -07.5223 26292.2
 28 04 2013  11 20  -21.0957 26065.6 -03441.7 -07.5219 26291.8
 28 04 2013  11 21  -21.0975 26066.0 -03441.8 -07.5220 26292.3
 28 04 2013  11 22  -21.0988 26068.5 -03442.7 -07.5231 26294.9
 28 04 2013  11 23  -21.0983 26070.7 -03443.1 -07.5233 26297.0
 28 04 2013  11 24  -21.0969 26070.9 -03442.4 -07.5219 26297.2
 28 04 2013  11 25  -21.0964 26069.7 -03441.4 -07.5201 26295.9
 28 04 2013  11 26  -21.0963 26068.1 -03440.6 -07.5187 26294.2
 28 04 2013  11 27  -21.0966 26067.6 -03440.3 -07.5182 26293.6
 28 04 2013  11 28  -21.0974 26068.0 -03440.4 -07.5184 26294.0
 28 04 2013  11 29  -21.0981 26068.4 -03440.5 -07.5184 26294.5
 28 04 2013  11 30  -21.0970 26069.6 -03440.7 -07.5185 26295.6
 28 04 2013  11 31  -21.0957 26070.3 -03440.6 -07.5181 26296.4
 28 04 2013  11 32  -21.0959 26070.9 -03440.6 -07.5179 26296.9
 28 04 2013  11 33  -21.0968 26071.0 -03440.3 -07.5173 26297.0
 28 04 2013  11 34  -21.0966 26071.8 -03440.4 -07.5173 26297.8
 28 04 2013  11 35  -21.0966 26071.8 -03440.2 -07.5169 26297.8
 28 04 2013  11 36  -21.0973 26071.7 -03440.3 -07.5170 26297.7
 28 04 2013  11 37  -21.0978 26072.4 -03440.5 -07.5172 26298.4
 28 04 2013  11 38  -21.0981 26072.8 -03440.5 -07.5172 26298.9
 28 04 2013  11 39  -21.0990 26072.7 -03440.2 -07.5166 26298.7
 28 04 2013  11 40  -21.1002 26072.8 -03440.0 -07.5161 26298.7
 28 04 2013  11 41  -21.1010 26073.0 -03439.9 -07.5157 26299.0
 28 04 2013  11 42  -21.1016 26072.8 -03439.5 -07.5151 26298.6
 28 04 2013  11 43  -21.1023 26072.7 -03439.3 -07.5147 26298.5
 28 04 2013  11 44  -21.1030 26072.6 -03439.2 -07.5144 26298.5
 28 04 2013  11 45  -21.1035 26072.9 -03439.2 -07.5143 26298.8
 28 04 2013  11 46  -21.1034 26073.6 -03439.3 -07.5143 26299.5
 28 04 2013  11 47  -21.1034 26073.4 -03438.9 -07.5135 26299.2
 28 04 2013  11 48  -21.1038 26073.2 -03438.6 -07.5130 26299.0
 28 04 2013  11 49  -21.1035 26073.3 -03438.4 -07.5125 26299.0
 28 04 2013  11 50  -21.1035 26073.4 -03438.2 -07.5121 26299.1
 28 04 2013  11 51  -21.1036 26073.5 -03438.1 -07.5118 26299.2
 28 04 2013  11 52  -21.1044 26073.3 -03437.9 -07.5114 26298.9
 28 04 2013  11 53  -21.1046 26073.8 -03437.9 -07.5112 26299.4
 28 04 2013  11 54  -21.1045 26074.7 -03438.0 -07.5112 26300.4
 28 04 2013  11 55  -21.1042 26075.9 -03438.1 -07.5111 26301.6
 28 04 2013  11 56  -21.1042 26076.7 -03438.0 -07.5107 26302.4
 28 04 2013  11 57  -21.1043 26077.5 -03438.0 -07.5103 26303.1
 28 04 2013  11 58  -21.1045 26077.9 -03437.7 -07.5096 26303.5
 28 04 2013  11 59  -21.1046 26078.4 -03437.5 -07.5090 26304.0
 28 04 2013  12 00  -21.1046 26078.4 -03437.0 -07.5080 26303.9
 28 04 2013  12 01  -21.1042 26078.2 -03436.5 -07.5070 26303.6
 28 04 2013  12 02  -21.1040 26078.2 -03436.1 -07.5062 26303.6
 28 04 2013  12 03  -21.1036 26078.0 -03435.8 -07.5055 26303.4
 28 04 2013  12 04  -21.1032 26077.7 -03435.4 -07.5047 26303.0
 28 04 2013  12 05  -21.1030 26077.6 -03435.1 -07.5040 26302.9
 28 04 2013  12 06  -21.1025 26077.7 -03434.9 -07.5036 26302.9
 28 04 2013  12 07  -21.1021 26077.8 -03434.7 -07.5033 26303.0
 28 04 2013  12 08  -21.1015 26077.9 -03434.7 -07.5031 26303.1
 28 04 2013  12 09  -21.1011 26077.7 -03434.5 -07.5028 26302.9
 28 04 2013  12 10  -21.1007 26077.7 -03434.3 -07.5024 26302.9
 28 04 2013  12 11  -21.0999 26077.7 -03434.2 -07.5022 26302.9
 28 04 2013  12 12  -21.0993 26077.4 -03434.0 -07.5018 26302.5
 28 04 2013  12 13  -21.0987 26077.0 -03433.8 -07.5015 26302.1
 28 04 2013  12 14  -21.0982 26076.7 -03433.6 -07.5012 26301.8
 28 04 2013  12 15  -21.0979 26076.9 -03433.7 -07.5014 26302.0
 28 04 2013  12 16  -21.0975 26077.5 -03434.0 -07.5018 26302.7
 28 04 2013  12 17  -21.0969 26078.3 -03434.3 -07.5021 26303.5
 28 04 2013  12 18  -21.0963 26078.7 -03434.2 -07.5020 26303.8
 28 04 2013  12 19  -21.0955 26079.2 -03434.2 -07.5018 26304.3
 28 04 2013  12 20  -21.0949 26079.8 -03434.3 -07.5017 26305.0
 28 04 2013  12 21  -21.0940 26080.6 -03434.4 -07.5018 26305.8
 28 04 2013  12 22  -21.0928 26081.4 -03434.5 -07.5017 26306.6
 28 04 2013  12 23  -21.0918 26082.0 -03434.4 -07.5014 26307.1
 28 04 2013  12 24  -21.0909 26082.5 -03434.3 -07.5011 26307.6
 28 04 2013  12 25  -21.0898 26084.0 -03434.8 -07.5017 26309.2
 28 04 2013  12 26  -21.0887 26085.3 -03435.1 -07.5019 26310.6
 28 04 2013  12 27  -21.0876 26086.2 -03435.1 -07.5018 26311.4
 28 04 2013  12 28  -21.0869 26086.6 -03435.1 -07.5015 26311.8
 28 04 2013  12 29  -21.0861 26087.2 -03435.0 -07.5012 26312.3
 28 04 2013  12 30  -21.0854 26087.8 -03435.0 -07.5010 26313.0
 28 04 2013  12 31  -21.0846 26088.8 -03435.1 -07.5009 26314.0
 28 04 2013  12 32  -21.0840 26089.3 -03435.0 -07.5005 26314.5
 28 04 2013  12 33  -21.0837 26089.7 -03434.8 -07.5000 26314.8
 28 04 2013  12 34  -21.0834 26090.2 -03434.8 -07.4998 26315.3
 28 04 2013  12 35  -21.0830 26090.3 -03434.6 -07.4995 26315.4
 28 04 2013  12 36  -21.0825 26090.7 -03434.6 -07.4993 26315.7
 28 04 2013  12 37  -21.0822 26090.8 -03434.5 -07.4991 26315.9
 28 04 2013  12 38  -21.0817 26090.8 -03434.4 -07.4988 26315.9
 28 04 2013  12 39  -21.0812 26091.2 -03434.4 -07.4988 26316.2
 28 04 2013  12 40  -21.0810 26091.4 -03434.4 -07.4987 26316.5
 28 04 2013  12 41  -21.0806 26091.7 -03434.4 -07.4986 26316.7
 28 04 2013  12 42  -21.0801 26091.9 -03434.4 -07.4985 26317.0
 28 04 2013  12 43  -21.0797 26092.4 -03434.5 -07.4986 26317.5
 28 04 2013  12 44  -21.0793 26092.7 -03434.4 -07.4984 26317.7
 28 04 2013  12 45  -21.0786 26092.8 -03434.3 -07.4981 26317.9
 28 04 2013  12 46  -21.0779 26093.3 -03434.4 -07.4982 26318.3
 28 04 2013  12 47  -21.0776 26093.5 -03434.4 -07.4981 26318.6
 28 04 2013  12 48  -21.0772 26093.6 -03434.3 -07.4979 26318.6
 28 04 2013  12 49  -21.0770 26093.6 -03434.3 -07.4979 26318.6
 28 04 2013  12 50  -21.0767 26093.5 -03434.2 -07.4976 26318.5
 28 04 2013  12 51  -21.0765 26093.7 -03434.2 -07.4977 26318.7
 28 04 2013  12 52  -21.0764 26094.0 -03434.3 -07.4978 26319.1
 28 04 2013  12 53  -21.0760 26094.4 -03434.4 -07.4978 26319.5
 28 04 2013  12 54  -21.0758 26094.9 -03434.5 -07.4978 26319.9
 28 04 2013  12 55  -21.0757 26095.4 -03434.5 -07.4978 26320.5
 28 04 2013  12 56  -21.0754 26095.6 -03434.5 -07.4976 26320.7
 28 04 2013  12 57  -21.0754 26096.0 -03434.5 -07.4976 26321.1
 28 04 2013  12 58  -21.0755 26096.7 -03434.6 -07.4977 26321.7
 28 04 2013  12 59  -21.0755 26096.7 -03434.4 -07.4972 26321.7
 28 04 2013  13 00  -21.0753 26096.8 -03434.3 -07.4969 26321.8
 28 04 2013  13 01  -21.0751 26096.8 -03434.2 -07.4966 26321.8
 28 04 2013  13 02  -21.0750 26096.9 -03434.1 -07.4965 26321.8
 28 04 2013  13 03  -21.0749 26096.9 -03434.0 -07.4963 26321.8
 28 04 2013  13 04  -21.0747 26096.6 -03433.8 -07.4960 26321.6
 28 04 2013  13 05  -21.0744 26096.5 -03433.7 -07.4958 26321.4
 28 04 2013  13 06  -21.0744 26096.7 -03433.8 -07.4958 26321.6
 28 04 2013  13 07  -21.0745 26096.9 -03433.8 -07.4958 26321.9
 28 04 2013  13 08  -21.0746 26097.2 -03433.8 -07.4958 26322.1
 28 04 2013  13 09  -21.0747 26097.5 -03433.9 -07.4958 26322.5
 28 04 2013  13 10  -21.0745 26097.3 -03433.7 -07.4956 26322.3
 28 04 2013  13 11  -21.0744 26097.3 -03433.7 -07.4954 26322.2
 28 04 2013  13 12  -21.0742 26097.2 -03433.6 -07.4953 26322.1
 28 04 2013  13 13  -21.0739 26097.1 -03433.5 -07.4951 26322.0
 28 04 2013  13 14  -21.0738 26097.2 -03433.6 -07.4952 26322.1
 28 04 2013  13 15  -21.0740 26097.6 -03433.7 -07.4954 26322.5
 28 04 2013  13 16  -21.0743 26097.9 -03433.8 -07.4955 26322.8
 28 04 2013  13 17  -21.0743 26098.0 -03433.7 -07.4953 26322.9
 28 04 2013  13 18  -21.0743 26097.8 -03433.5 -07.4949 26322.7
 28 04 2013  13 19  -21.0745 26097.5 -03433.3 -07.4946 26322.4
 28 04 2013  13 20  -21.0747 26097.7 -03433.3 -07.4946 26322.6
 28 04 2013  13 21  -21.0752 26097.4 -03433.1 -07.4941 26322.2
 28 04 2013  13 22  -21.0753 26097.2 -03432.8 -07.4937 26322.0
 28 04 2013  13 23  -21.0756 26097.4 -03432.7 -07.4934 26322.2
 28 04 2013  13 24  -21.0761 26097.2 -03432.5 -07.4929 26321.9
 28 04 2013  13 25  -21.0765 26097.0 -03432.3 -07.4925 26321.8
 28 04 2013  13 26  -21.0767 26097.2 -03432.2 -07.4924 26321.9
 28 04 2013  13 27  -21.0770 26097.3 -03432.2 -07.4922 26322.0
 28 04 2013  13 28  -21.0768 26097.4 -03432.1 -07.4919 26322.1
 28 04 2013  13 29  -21.0764 26097.4 -03431.9 -07.4916 26322.1
 28 04 2013  13 30  -21.0760 26097.5 -03431.8 -07.4914 26322.2
 28 04 2013  13 31  -21.0755 26097.5 -03431.7 -07.4911 26322.2
 28 04 2013  13 32  -21.0748 26097.3 -03431.6 -07.4909 26322.0
 28 04 2013  13 33  -21.0746 26096.9 -03431.4 -07.4907 26321.5
 28 04 2013  13 34  -21.0747 26096.2 -03431.1 -07.4901 26320.8
 28 04 2013  13 35  -21.0745 26094.8 -03430.4 -07.4891 26319.3
 28 04 2013  13 36  -21.0742 26093.9 -03430.1 -07.4887 26318.4
 28 04 2013  13 37  -21.0739 26093.1 -03429.9 -07.4886 26317.6
 28 04 2013  13 38  -21.0740 26092.3 -03429.8 -07.4885 26316.7
 28 04 2013  13 39  -21.0741 26092.1 -03429.9 -07.4888 26316.6
 28 04 2013  13 40  -21.0744 26092.5 -03430.2 -07.4893 26317.0
 28 04 2013  13 41  -21.0740 26093.2 -03430.6 -07.4899 26317.8
 28 04 2013  13 42  -21.0739 26093.5 -03430.8 -07.4903 26318.1
 28 04 2013  13 43  -21.0743 26093.1 -03430.5 -07.4899 26317.7
 28 04 2013  13 44  -21.0747 26093.0 -03430.3 -07.4894 26317.5
 28 04 2013  13 45  -21.0746 26092.6 -03429.9 -07.4886 26317.1
 28 04 2013  13 46  -21.0739 26091.5 -03429.1 -07.4873 26315.8
 28 04 2013  13 47  -21.0735 26090.8 -03428.8 -07.4867 26315.1
 28 04 2013  13 48  -21.0738 26090.8 -03428.7 -07.4866 26315.1
 28 04 2013  13 49  -21.0742 26090.7 -03428.7 -07.4866 26315.1
 28 04 2013  13 50  -21.0748 26090.9 -03428.7 -07.4866 26315.2
 28 04 2013  13 51  -21.0752 26091.5 -03428.9 -07.4868 26315.9
 28 04 2013  13 52  -21.0754 26092.7 -03429.1 -07.4870 26317.1
 28 04 2013  13 53  -21.0749 26093.0 -03428.9 -07.4864 26317.3
 28 04 2013  13 54  -21.0739 26093.2 -03428.6 -07.4857 26317.5
 28 04 2013  13 55  -21.0729 26093.0 -03428.2 -07.4849 26317.2
 28 04 2013  13 56  -21.0722 26093.4 -03428.2 -07.4847 26317.7
 28 04 2013  13 57  -21.0714 26094.5 -03428.4 -07.4849 26318.8
 28 04 2013  13 58  -21.0708 26096.0 -03428.7 -07.4852 26320.3
 28 04 2013  13 59  -21.0702 26097.1 -03428.9 -07.4851 26321.4
 28 04 2013  14 00  -21.0688 26097.7 -03428.7 -07.4846 26322.0
 28 04 2013  14 01  -21.0675 26098.1 -03428.6 -07.4842 26322.4
 28 04 2013  14 02  -21.0664 26098.9 -03428.5 -07.4839 26323.1
 28 04 2013  14 03  -21.0647 26099.0 -03428.2 -07.4831 26323.2
 28 04 2013  14 04  -21.0635 26098.9 -03427.8 -07.4823 26323.0
 28 04 2013  14 05  -21.0632 26099.2 -03427.7 -07.4820 26323.3
 28 04 2013  14 06  -21.0627 26099.0 -03427.4 -07.4814 26323.1
 28 04 2013  14 07  -21.0623 26098.9 -03427.2 -07.4810 26322.9
 28 04 2013  14 08  -21.0623 26098.6 -03426.9 -07.4805 26322.6
 28 04 2013  14 09  -21.0616 26098.3 -03426.6 -07.4800 26322.3
 28 04 2013  14 10  -21.0612 26098.2 -03426.5 -07.4797 26322.1
 28 04 2013  14 11  -21.0614 26098.1 -03426.4 -07.4796 26322.0
 28 04 2013  14 12  -21.0621 26098.2 -03426.5 -07.4797 26322.1
 28 04 2013  14 13  -21.0625 26097.8 -03426.3 -07.4794 26321.7
 28 04 2013  14 14  -21.0624 26096.9 -03425.9 -07.4789 26320.9
 28 04 2013  14 15  -21.0622 26096.3 -03425.7 -07.4786 26320.2
 28 04 2013  14 16  -21.0624 26096.2 -03425.8 -07.4788 26320.1
 28 04 2013  14 17  -21.0627 26096.3 -03425.9 -07.4790 26320.2
 28 04 2013  14 18  -21.0631 26096.4 -03426.0 -07.4792 26320.4
 28 04 2013  14 19  -21.0638 26097.5 -03426.6 -07.4801 26321.5
 28 04 2013  14 20  -21.0645 26097.9 -03426.8 -07.4805 26322.0
 28 04 2013  14 21  -21.0650 26098.2 -03427.0 -07.4807 26322.2
 28 04 2013  14 22  -21.0656 26098.5 -03427.1 -07.4809 26322.6
 28 04 2013  14 23  -21.0653 26098.1 -03426.7 -07.4802 26322.1
 28 04 2013  14 24  -21.0652 26097.7 -03426.3 -07.4795 26321.7
 28 04 2013  14 25  -21.0648 26097.0 -03425.9 -07.4787 26320.9
 28 04 2013  14 26  -21.0647 26096.4 -03425.6 -07.4784 26320.2
 28 04 2013  14 27  -21.0648 26096.1 -03425.7 -07.4785 26320.0
 28 04 2013  14 28  -21.0652 26095.6 -03425.6 -07.4785 26319.5
 28 04 2013  14 29  -21.0652 26094.4 -03425.2 -07.4781 26318.2
 28 04 2013  14 30  -21.0653 26093.8 -03425.3 -07.4783 26317.7
 28 04 2013  14 31  -21.0658 26093.9 -03425.5 -07.4789 26317.8
 28 04 2013  14 32  -21.0664 26094.2 -03425.9 -07.4796 26318.2
 28 04 2013  14 33  -21.0669 26094.2 -03426.0 -07.4798 26318.2
 28 04 2013  14 34  -21.0672 26093.6 -03425.8 -07.4796 26317.6
 28 04 2013  14 35  -21.0671 26092.5 -03425.5 -07.4792 26316.4
 28 04 2013  14 36  -21.0671 26091.7 -03425.4 -07.4791 26315.6
 28 04 2013  14 37  -21.0672 26091.4 -03425.5 -07.4795 26315.3
 28 04 2013  14 38  -21.0671 26091.1 -03425.7 -07.4799 26315.1
 28 04 2013  14 39  -21.0667 26090.7 -03425.7 -07.4802 26314.7
 28 04 2013  14 40  -21.0666 26090.5 -03425.9 -07.4805 26314.4
 28 04 2013  14 41  -21.0666 26089.9 -03426.0 -07.4809 26313.9
 28 04 2013  14 42  -21.0662 26088.5 -03425.7 -07.4807 26312.5
 28 04 2013  14 43  -21.0662 26087.7 -03425.7 -07.4810 26311.7
 28 04 2013  14 44  -21.0663 26086.6 -03425.7 -07.4812 26310.6
 28 04 2013  14 45  -21.0661 26086.1 -03425.8 -07.4816 26310.1
 28 04 2013  14 46  -21.0657 26085.5 -03425.9 -07.4820 26309.5
 28 04 2013  14 47  -21.0647 26084.6 -03425.8 -07.4820 26308.6
 28 04 2013  14 48  -21.0643 26084.1 -03426.0 -07.4826 26308.1
 28 04 2013  14 49  -21.0642 26084.0 -03426.3 -07.4834 26308.1
 28 04 2013  14 50  -21.0641 26083.9 -03426.6 -07.4840 26308.0
 28 04 2013  14 51  -21.0643 26083.5 -03426.7 -07.4844 26307.7
 28 04 2013  14 52  -21.0645 26083.5 -03427.0 -07.4850 26307.6
 28 04 2013  14 53  -21.0646 26083.4 -03427.2 -07.4854 26307.5
 28 04 2013  14 54  -21.0646 26082.9 -03427.2 -07.4857 26307.1
 28 04 2013  14 55  -21.0642 26082.5 -03427.3 -07.4859 26306.7
 28 04 2013  14 56  -21.0639 26082.5 -03427.6 -07.4866 26306.8
 28 04 2013  14 57  -21.0629 26082.3 -03427.8 -07.4870 26306.6
 28 04 2013  14 58  -21.0618 26082.0 -03427.9 -07.4872 26306.3
 28 04 2013  14 59  -21.0616 26082.0 -03428.1 -07.4878 26306.3
 28 04 2013  15 00  -21.0607 26081.7 -03428.2 -07.4881 26306.0
 28 04 2013  15 01  -21.0605 26081.7 -03428.6 -07.4889 26306.1
 28 04 2013  15 02  -21.0605 26082.2 -03429.1 -07.4898 26306.7
 28 04 2013  15 03  -21.0611 26082.7 -03429.5 -07.4906 26307.2
 28 04 2013  15 04  -21.0608 26082.7 -03429.7 -07.4910 26307.3
 28 04 2013  15 05  -21.0607 26082.6 -03429.8 -07.4912 26307.1
 28 04 2013  15 06  -21.0607 26082.1 -03429.7 -07.4913 26306.7
 28 04 2013  15 07  -21.0605 26081.0 -03429.4 -07.4908 26305.5
 28 04 2013  15 08  -21.0599 26080.6 -03429.2 -07.4906 26305.1
 28 04 2013  15 09  -21.0585 26080.7 -03429.2 -07.4904 26305.2
 28 04 2013  15 10  -21.0566 26079.9 -03428.6 -07.4895 26304.4
 28 04 2013  15 11  -21.0549 26077.1 -03427.4 -07.4877 26301.4
 28 04 2013  15 12  -21.0536 26073.7 -03426.5 -07.4866 26297.9
 28 04 2013  15 13  -21.0528 26073.4 -03427.2 -07.4883 26297.7
 28 04 2013  15 14  -21.0536 26075.7 -03429.1 -07.4916 26300.2
 28 04 2013  15 15  -21.0550 26076.8 -03429.9 -07.4931 26301.4
 28 04 2013  15 16  -21.0559 26076.9 -03430.0 -07.4933 26301.5
 28 04 2013  15 17  -21.0562 26076.3 -03429.7 -07.4929 26300.9
 28 04 2013  15 18  -21.0561 26075.0 -03429.2 -07.4922 26299.5
 28 04 2013  15 19  -21.0556 26073.7 -03428.9 -07.4919 26298.2
 28 04 2013  15 20  -21.0550 26072.7 -03428.9 -07.4921 26297.2
 28 04 2013  15 21  -21.0555 26073.6 -03429.6 -07.4935 26298.2
 28 04 2013  15 22  -21.0568 26075.2 -03430.5 -07.4949 26299.9
 28 04 2013  15 23  -21.0579 26076.1 -03430.8 -07.4953 26300.9
 28 04 2013  15 24  -21.0584 26076.3 -03430.7 -07.4950 26301.0
 28 04 2013  15 25  -21.0580 26075.6 -03430.1 -07.4940 26300.2
 28 04 2013  15 26  -21.0573 26074.6 -03429.6 -07.4932 26299.2
 28 04 2013  15 27  -21.0568 26074.2 -03429.6 -07.4932 26298.8
 28 04 2013  15 28  -21.0564 26074.2 -03429.8 -07.4936 26298.8
 28 04 2013  15 29  -21.0561 26074.2 -03430.0 -07.4940 26298.8
 28 04 2013  15 30  -21.0559 26074.3 -03430.1 -07.4942 26299.0
 28 04 2013  15 31  -21.0561 26074.3 -03430.1 -07.4943 26299.0
 28 04 2013  15 32  -21.0562 26073.9 -03430.0 -07.4942 26298.6
 28 04 2013  15 33  -21.0559 26073.5 -03429.9 -07.4941 26298.1
 28 04 2013  15 34  -21.0555 26073.4 -03430.0 -07.4943 26298.1
 28 04 2013  15 35  -21.0552 26073.5 -03430.2 -07.4947 26298.2
 28 04 2013  15 36  -21.0549 26073.6 -03430.3 -07.4949 26298.2
 28 04 2013  15 37  -21.0547 26073.6 -03430.4 -07.4952 26298.3
 28 04 2013  15 38  -21.0543 26073.3 -03430.4 -07.4951 26298.0
 28 04 2013  15 39  -21.0540 26073.1 -03430.4 -07.4952 26297.8
 28 04 2013  15 40  -21.0534 26072.4 -03430.2 -07.4951 26297.1
 28 04 2013  15 41  -21.0527 26071.5 -03430.0 -07.4948 26296.1
 28 04 2013  15 42  -21.0522 26070.8 -03429.9 -07.4948 26295.5
 28 04 2013  15 43  -21.0519 26070.4 -03430.0 -07.4951 26295.1
 28 04 2013  15 44  -21.0518 26069.8 -03430.0 -07.4953 26294.5
 28 04 2013  15 45  -21.0516 26069.2 -03430.1 -07.4956 26293.9
 28 04 2013  15 46  -21.0515 26069.0 -03430.2 -07.4961 26293.7
 28 04 2013  15 47  -21.0519 26068.8 -03430.4 -07.4966 26293.6
 28 04 2013  15 48  -21.0521 26068.3 -03430.4 -07.4966 26293.0
 28 04 2013  15 49  -21.0522 26067.7 -03430.3 -07.4965 26292.4
 28 04 2013  15 50  -21.0524 26067.3 -03430.3 -07.4967 26292.0
 28 04 2013  15 51  -21.0527 26067.2 -03430.5 -07.4971 26292.0
 28 04 2013  15 52  -21.0529 26067.1 -03430.6 -07.4974 26291.9
 28 04 2013  15 53  -21.0530 26067.2 -03430.8 -07.4978 26292.0
 28 04 2013  15 54  -21.0536 26067.4 -03431.1 -07.4983 26292.2
 28 04 2013  15 55  -21.0540 26067.5 -03431.2 -07.4985 26292.4
 28 04 2013  15 56  -21.0545 26067.7 -03431.3 -07.4987 26292.5
 28 04 2013  15 57  -21.0548 26067.4 -03431.2 -07.4986 26292.2
 28 04 2013  15 58  -21.0551 26066.9 -03431.0 -07.4983 26291.7
 28 04 2013  15 59  -21.0549 26066.3 -03430.7 -07.4979 26291.1
 28 04 2013  16 00  -21.0542 26065.7 -03430.5 -07.4976 26290.4
 28 04 2013  16 01  -21.0538 26065.4 -03430.6 -07.4979 26290.2
 28 04 2013  16 02  -21.0535 26065.3 -03430.7 -07.4982 26290.2
 28 04 2013  16 03  -21.0535 26065.3 -03430.9 -07.4985 26290.1
 28 04 2013  16 04  -21.0534 26065.3 -03431.0 -07.4987 26290.2
 28 04 2013  16 05  -21.0534 26065.3 -03431.1 -07.4990 26290.1
 28 04 2013  16 06  -21.0531 26065.1 -03431.1 -07.4990 26290.0
 28 04 2013  16 07  -21.0528 26065.1 -03431.1 -07.4991 26289.9
 28 04 2013  16 08  -21.0526 26065.1 -03431.3 -07.4994 26290.0
 28 04 2013  16 09  -21.0523 26065.0 -03431.3 -07.4995 26289.9
 28 04 2013  16 10  -21.0519 26064.9 -03431.4 -07.4997 26289.8
 28 04 2013  16 11  -21.0518 26064.9 -03431.5 -07.4999 26289.8
 28 04 2013  16 12  -21.0514 26064.9 -03431.6 -07.5001 26289.8
 28 04 2013  16 13  -21.0512 26065.2 -03431.8 -07.5006 26290.2
 28 04 2013  16 14  -21.0513 26065.4 -03432.0 -07.5009 26290.4
 28 04 2013  16 15  -21.0513 26065.9 -03432.2 -07.5013 26290.9
 28 04 2013  16 16  -21.0511 26066.1 -03432.4 -07.5015 26291.1
 28 04 2013  16 17  -21.0508 26065.7 -03432.2 -07.5013 26290.7
 28 04 2013  16 18  -21.0501 26064.9 -03431.9 -07.5008 26289.9
 28 04 2013  16 19  -21.0493 26064.3 -03431.8 -07.5007 26289.2
 28 04 2013  16 20  -21.0488 26064.1 -03431.9 -07.5010 26289.1
 28 04 2013  16 21  -21.0486 26064.3 -03432.2 -07.5017 26289.3
 28 04 2013  16 22  -21.0485 26064.5 -03432.4 -07.5021 26289.6
 28 04 2013  16 23  -21.0484 26064.8 -03432.7 -07.5026 26289.9
 28 04 2013  16 24  -21.0483 26064.9 -03432.8 -07.5028 26290.0
 28 04 2013  16 25  -21.0484 26065.0 -03432.9 -07.5029 26290.1
 28 04 2013  16 26  -21.0482 26065.0 -03433.0 -07.5031 26290.1
 28 04 2013  16 27  -21.0481 26065.0 -03433.1 -07.5033 26290.1
 28 04 2013  16 28  -21.0479 26065.0 -03433.1 -07.5035 26290.1
 28 04 2013  16 29  -21.0479 26065.0 -03433.2 -07.5037 26290.1
 28 04 2013  16 30  -21.0479 26065.1 -03433.3 -07.5039 26290.3
 28 04 2013  16 31  -21.0480 26065.4 -03433.6 -07.5043 26290.6
 28 04 2013  16 32  -21.0483 26065.4 -03433.6 -07.5043 26290.6
 28 04 2013  16 33  -21.0484 26065.3 -03433.5 -07.5042 26290.4
 28 04 2013  16 34  -21.0485 26065.0 -03433.4 -07.5041 26290.2
 28 04 2013  16 35  -21.0485 26064.8 -03433.4 -07.5041 26289.9
 28 04 2013  16 36  -21.0487 26064.5 -03433.4 -07.5041 26289.7
 28 04 2013  16 37  -21.0489 26064.3 -03433.4 -07.5041 26289.5
 28 04 2013  16 38  -21.0492 26064.2 -03433.4 -07.5043 26289.4
 28 04 2013  16 39  -21.0496 26064.2 -03433.5 -07.5045 26289.3
 28 04 2013  16 40  -21.0501 26064.1 -03433.6 -07.5046 26289.3
 28 04 2013  16 41  -21.0507 26064.1 -03433.5 -07.5045 26289.3
 28 04 2013  16 42  -21.0513 26064.1 -03433.6 -07.5047 26289.3
 28 04 2013  16 43  -21.0520 26064.2 -03433.6 -07.5047 26289.4
 28 04 2013  16 44  -21.0527 26064.3 -03433.6 -07.5046 26289.5
 28 04 2013  16 45  -21.0531 26064.1 -03433.5 -07.5045 26289.3
 28 04 2013  16 46  -21.0533 26064.0 -03433.4 -07.5043 26289.1
 28 04 2013  16 47  -21.0535 26063.8 -03433.3 -07.5042 26289.0
 28 04 2013  16 48  -21.0537 26063.8 -03433.4 -07.5043 26289.0
 28 04 2013  16 49  -21.0541 26063.9 -03433.3 -07.5043 26289.0
 28 04 2013  16 50  -21.0545 26063.9 -03433.4 -07.5043 26289.0
 28 04 2013  16 51  -21.0548 26063.8 -03433.3 -07.5042 26288.9
 28 04 2013  16 52  -21.0548 26063.6 -03433.3 -07.5041 26288.8
 28 04 2013  16 53  -21.0549 26063.5 -03433.2 -07.5041 26288.7
 28 04 2013  16 54  -21.0549 26063.5 -03433.3 -07.5043 26288.7
 28 04 2013  16 55  -21.0552 26063.6 -03433.4 -07.5045 26288.8
 28 04 2013  16 56  -21.0554 26063.8 -03433.5 -07.5046 26288.9
 28 04 2013  16 57  -21.0555 26063.8 -03433.5 -07.5047 26288.9
 28 04 2013  16 58  -21.0554 26063.4 -03433.4 -07.5045 26288.6
 28 04 2013  16 59  -21.0551 26063.0 -03433.3 -07.5045 26288.2
 28 04 2013  17 00  -21.0550 26062.7 -03433.3 -07.5045 26287.9
 28 04 2013  17 01  -21.0548 26062.6 -03433.4 -07.5047 26287.7
 28 04 2013  17 02  -21.0546 26062.4 -03433.5 -07.5050 26287.6
 28 04 2013  17 03  -21.0542 26062.2 -03433.6 -07.5054 26287.4
 28 04 2013  17 04  -21.0541 26062.1 -03433.8 -07.5057 26287.3
 28 04 2013  17 05  -21.0540 26062.2 -03433.9 -07.5060 26287.4
 28 04 2013  17 06  -21.0539 26062.2 -03434.0 -07.5062 26287.4
 28 04 2013  17 07  -21.0537 26062.2 -03434.1 -07.5064 26287.4
 28 04 2013  17 08  -21.0536 26062.1 -03434.2 -07.5066 26287.4
 28 04 2013  17 09  -21.0531 26061.9 -03434.2 -07.5067 26287.2
 28 04 2013  17 10  -21.0530 26062.0 -03434.4 -07.5071 26287.3
 28 04 2013  17 11  -21.0533 26062.5 -03434.9 -07.5079 26287.9
 28 04 2013  17 12  -21.0541 26063.3 -03435.3 -07.5087 26288.7
 28 04 2013  17 13  -21.0546 26063.5 -03435.4 -07.5088 26288.9
 28 04 2013  17 14  -21.0546 26063.2 -03435.2 -07.5085 26288.6
 28 04 2013  17 15  -21.0545 26062.7 -03435.0 -07.5082 26288.0
 28 04 2013  17 16  -21.0546 26062.4 -03435.0 -07.5082 26287.8
 28 04 2013  17 17  -21.0549 26062.5 -03435.2 -07.5087 26287.9
 28 04 2013  17 18  -21.0563 26063.0 -03435.6 -07.5093 26288.5
 28 04 2013  17 19  -21.0574 26063.0 -03435.5 -07.5091 26288.4
 28 04 2013  17 20  -21.0577 26062.0 -03434.9 -07.5081 26287.4
 28 04 2013  17 21  -21.0576 26061.0 -03434.4 -07.5074 26286.3
 28 04 2013  17 22  -21.0577 26060.1 -03434.1 -07.5070 26285.4
 28 04 2013  17 23  -21.0576 26059.1 -03433.8 -07.5065 26284.4
 28 04 2013  17 24  -21.0574 26058.2 -03433.6 -07.5063 26283.5
 28 04 2013  17 25  -21.0574 26057.8 -03433.6 -07.5066 26283.0
 28 04 2013  17 26  -21.0577 26057.9 -03433.9 -07.5072 26283.2
 28 04 2013  17 27  -21.0583 26058.3 -03434.3 -07.5079 26283.6
 28 04 2013  17 28  -21.0589 26058.9 -03434.7 -07.5085 26284.3
 28 04 2013  17 29  -21.0592 26059.2 -03434.9 -07.5089 26284.6
 28 04 2013  17 30  -21.0594 26059.3 -03434.9 -07.5090 26284.7
 28 04 2013  17 31  -21.0597 26059.3 -03434.9 -07.5089 26284.8
 28 04 2013  17 32  -21.0595 26059.0 -03434.8 -07.5087 26284.4
 28 04 2013  17 33  -21.0590 26058.3 -03434.6 -07.5084 26283.7
 28 04 2013  17 34  -21.0585 26057.9 -03434.5 -07.5085 26283.2
 28 04 2013  17 35  -21.0582 26057.6 -03434.6 -07.5087 26282.9
 28 04 2013  17 36  -21.0581 26057.6 -03434.8 -07.5092 26283.0
 28 04 2013  17 37  -21.0583 26058.0 -03435.2 -07.5098 26283.4
 28 04 2013  17 38  -21.0584 26058.5 -03435.5 -07.5105 26284.0
 28 04 2013  17 39  -21.0589 26059.0 -03435.8 -07.5110 26284.6
 28 04 2013  17 40  -21.0591 26059.2 -03435.9 -07.5110 26284.8
 28 04 2013  17 41  -21.0592 26059.2 -03435.8 -07.5109 26284.8
 28 04 2013  17 42  -21.0589 26058.9 -03435.7 -07.5108 26284.4
 28 04 2013  17 43  -21.0589 26058.7 -03435.6 -07.5107 26284.2
 28 04 2013  17 44  -21.0591 26058.5 -03435.6 -07.5106 26284.0
 28 04 2013  17 45  -21.0593 26058.4 -03435.5 -07.5105 26283.9
 28 04 2013  17 46  -21.0594 26058.1 -03435.4 -07.5103 26283.6
 28 04 2013  17 47  -21.0593 26057.7 -03435.2 -07.5100 26283.1
 28 04 2013  17 48  -21.0591 26057.3 -03435.1 -07.5098 26282.7
 28 04 2013  17 49  -21.0592 26057.2 -03435.0 -07.5098 26282.6
 28 04 2013  17 50  -21.0592 26057.2 -03435.1 -07.5099 26282.6
 28 04 2013  17 51  -21.0595 26057.3 -03435.2 -07.5101 26282.7
 28 04 2013  17 52  -21.0597 26057.4 -03435.2 -07.5102 26282.8
 28 04 2013  17 53  -21.0599 26057.3 -03435.2 -07.5102 26282.8
 28 04 2013  17 54  -21.0601 26057.3 -03435.2 -07.5102 26282.8
 28 04 2013  17 55  -21.0602 26057.3 -03435.2 -07.5102 26282.8
 28 04 2013  17 56  -21.0604 26057.3 -03435.2 -07.5102 26282.8
 28 04 2013  17 57  -21.0603 26057.2 -03435.2 -07.5102 26282.7
 28 04 2013  17 58  -21.0605 26057.2 -03435.3 -07.5103 26282.7
 28 04 2013  17 59  -21.0607 26057.2 -03435.3 -07.5103 26282.7
 28 04 2013  18 00  -21.0609 26057.1 -03435.2 -07.5103 26282.5
 28 04 2013  18 01  -21.0613 26056.8 -03435.1 -07.5101 26282.3
 28 04 2013  18 02  -21.0610 26055.9 -03434.7 -07.5094 26281.3
 28 04 2013  18 03  -21.0605 26055.2 -03434.5 -07.5093 26280.6
 28 04 2013  18 04  -21.0605 26054.9 -03434.7 -07.5098 26280.3
 28 04 2013  18 05  -21.0606 26054.7 -03434.9 -07.5102 26280.2
 28 04 2013  18 06  -21.0614 26055.0 -03435.2 -07.5107 26280.5
 28 04 2013  18 07  -21.0621 26055.2 -03435.3 -07.5109 26280.7
 28 04 2013  18 08  -21.0624 26055.1 -03435.3 -07.5109 26280.6
 28 04 2013  18 09  -21.0629 26055.0 -03435.2 -07.5109 26280.5
 28 04 2013  18 10  -21.0633 26055.0 -03435.2 -07.5108 26280.5
 28 04 2013  18 11  -21.0638 26055.2 -03435.3 -07.5109 26280.7
 28 04 2013  18 12  -21.0642 26055.3 -03435.3 -07.5109 26280.7
 28 04 2013  18 13  -21.0643 26055.2 -03435.2 -07.5106 26280.6
 28 04 2013  18 14  -21.0642 26055.1 -03435.1 -07.5104 26280.6
 28 04 2013  18 15  -21.0639 26054.9 -03434.9 -07.5102 26280.3
 28 04 2013  18 16  -21.0637 26054.5 -03434.7 -07.5099 26279.9
 28 04 2013  18 17  -21.0632 26054.3 -03434.7 -07.5098 26279.7
 28 04 2013  18 18  -21.0630 26054.0 -03434.7 -07.5099 26279.4
 28 04 2013  18 19  -21.0631 26053.6 -03434.6 -07.5098 26279.0
 28 04 2013  18 20  -21.0627 26053.2 -03434.4 -07.5096 26278.6
 28 04 2013  18 21  -21.0621 26052.9 -03434.4 -07.5097 26278.3
 28 04 2013  18 22  -21.0619 26052.5 -03434.4 -07.5097 26277.9
 28 04 2013  18 23  -21.0617 26052.1 -03434.3 -07.5097 26277.5
 28 04 2013  18 24  -21.0614 26051.6 -03434.2 -07.5096 26277.0
 28 04 2013  18 25  -21.0608 26051.1 -03434.2 -07.5097 26276.5
 28 04 2013  18 26  -21.0606 26050.8 -03434.2 -07.5099 26276.2
 28 04 2013  18 27  -21.0612 26050.5 -03434.4 -07.5103 26275.9
 28 04 2013  18 28  -21.0616 26050.2 -03434.4 -07.5105 26275.6
 28 04 2013  18 29  -21.0620 26049.9 -03434.4 -07.5105 26275.3
 28 04 2013  18 30  -21.0621 26049.2 -03434.2 -07.5102 26274.6
 28 04 2013  18 31  -21.0620 26048.8 -03434.2 -07.5103 26274.2
 28 04 2013  18 32  -21.0619 26048.5 -03434.2 -07.5105 26273.9
 28 04 2013  18 33  -21.0620 26048.3 -03434.3 -07.5108 26273.7
 28 04 2013  18 34  -21.0622 26048.2 -03434.5 -07.5113 26273.7
 28 04 2013  18 35  -21.0627 26048.5 -03434.8 -07.5119 26274.0
 28 04 2013  18 36  -21.0634 26048.5 -03434.9 -07.5121 26274.0
 28 04 2013  18 37  -21.0639 26048.5 -03435.0 -07.5121 26274.0
 28 04 2013  18 38  -21.0645 26048.6 -03435.0 -07.5122 26274.1
 28 04 2013  18 39  -21.0651 26048.6 -03435.0 -07.5121 26274.2
 28 04 2013  18 40  -21.0654 26048.6 -03434.9 -07.5119 26274.1
 28 04 2013  18 41  -21.0658 26048.4 -03434.7 -07.5116 26273.9
 28 04 2013  18 42  -21.0660 26048.2 -03434.6 -07.5113 26273.7
 28 04 2013  18 43  -21.0661 26048.1 -03434.5 -07.5111 26273.6
 28 04 2013  18 44  -21.0663 26048.0 -03434.4 -07.5110 26273.4
 28 04 2013  18 45  -21.0667 26048.1 -03434.3 -07.5108 26273.5
 28 04 2013  18 46  -21.0671 26048.1 -03434.2 -07.5107 26273.5
 28 04 2013  18 47  -21.0675 26048.2 -03434.2 -07.5105 26273.6
 28 04 2013  18 48  -21.0679 26048.1 -03434.0 -07.5102 26273.5
 28 04 2013  18 49  -21.0682 26048.0 -03433.8 -07.5098 26273.4
 28 04 2013  18 50  -21.0688 26048.0 -03433.7 -07.5095 26273.4
 28 04 2013  18 51  -21.0691 26047.8 -03433.4 -07.5089 26273.1
 28 04 2013  18 52  -21.0692 26047.6 -03433.1 -07.5084 26272.9
 28 04 2013  18 53  -21.0692 26047.3 -03432.8 -07.5079 26272.5
 28 04 2013  18 54  -21.0692 26046.9 -03432.6 -07.5074 26272.2
 28 04 2013  18 55  -21.0693 26046.7 -03432.4 -07.5071 26271.9
 28 04 2013  18 56  -21.0695 26046.6 -03432.3 -07.5069 26271.7
 28 04 2013  18 57  -21.0698 26046.4 -03432.2 -07.5067 26271.6
 28 04 2013  18 58  -21.0701 26046.3 -03432.0 -07.5063 26271.4
 28 04 2013  18 59  -21.0704 26046.2 -03431.9 -07.5061 26271.3
 28 04 2013  19 00  -21.0708 26046.0 -03431.7 -07.5057 26271.1
 28 04 2013  19 01  -21.0710 26045.8 -03431.5 -07.5054 26270.9
 28 04 2013  19 02  -21.0711 26045.5 -03431.3 -07.5050 26270.5
 28 04 2013  19 03  -21.0709 26045.2 -03431.1 -07.5046 26270.2
 28 04 2013  19 04  -21.0708 26044.9 -03430.9 -07.5044 26269.9
 28 04 2013  19 05  -21.0709 26044.7 -03430.8 -07.5043 26269.7
 28 04 2013  19 06  -21.0711 26044.8 -03430.9 -07.5043 26269.8
 28 04 2013  19 07  -21.0714 26045.1 -03431.0 -07.5045 26270.1
 28 04 2013  19 08  -21.0715 26045.3 -03431.0 -07.5046 26270.3
 28 04 2013  19 09  -21.0717 26045.5 -03431.1 -07.5046 26270.5
 28 04 2013  19 10  -21.0718 26045.5 -03431.1 -07.5045 26270.5
 28 04 2013  19 11  -21.0719 26045.6 -03431.0 -07.5043 26270.6
 28 04 2013  19 12  -21.0719 26045.4 -03430.8 -07.5040 26270.4
 28 04 2013  19 13  -21.0717 26045.0 -03430.5 -07.5036 26270.0
 28 04 2013  19 14  -21.0715 26044.6 -03430.3 -07.5031 26269.6
 28 04 2013  19 15  -21.0714 26044.5 -03430.2 -07.5029 26269.4
 28 04 2013  19 16  -21.0711 26044.1 -03430.0 -07.5027 26269.0
 28 04 2013  19 17  -21.0707 26043.7 -03429.8 -07.5024 26268.6
 28 04 2013  19 18  -21.0706 26043.5 -03429.8 -07.5023 26268.3
 28 04 2013  19 19  -21.0706 26043.1 -03429.6 -07.5021 26267.9
 28 04 2013  19 20  -21.0704 26042.8 -03429.5 -07.5020 26267.7
 28 04 2013  19 21  -21.0705 26042.6 -03429.5 -07.5019 26267.5
 28 04 2013  19 22  -21.0707 26042.5 -03429.5 -07.5020 26267.4
 28 04 2013  19 23  -21.0707 26042.2 -03429.3 -07.5018 26267.0
 28 04 2013  19 24  -21.0708 26041.9 -03429.2 -07.5016 26266.7
 28 04 2013  19 25  -21.0708 26041.6 -03429.1 -07.5014 26266.4
 28 04 2013  19 26  -21.0710 26041.4 -03429.0 -07.5013 26266.2
 28 04 2013  19 27  -21.0712 26041.2 -03429.0 -07.5013 26266.0
 28 04 2013  19 28  -21.0714 26041.1 -03428.9 -07.5012 26265.8
 28 04 2013  19 29  -21.0715 26040.8 -03428.8 -07.5011 26265.6
 28 04 2013  19 30  -21.0713 26040.5 -03428.7 -07.5008 26265.3
 28 04 2013  19 31  -21.0713 26040.1 -03428.5 -07.5006 26264.8
 28 04 2013  19 32  -21.0711 26039.6 -03428.4 -07.5004 26264.3
 28 04 2013  19 33  -21.0711 26039.4 -03428.3 -07.5004 26264.1
 28 04 2013  19 34  -21.0712 26039.3 -03428.4 -07.5006 26264.1
 28 04 2013  19 35  -21.0714 26039.4 -03428.6 -07.5009 26264.2
 28 04 2013  19 36  -21.0713 26039.5 -03428.7 -07.5012 26264.3
 28 04 2013  19 37  -21.0713 26039.6 -03428.8 -07.5013 26264.4
 28 04 2013  19 38  -21.0710 26039.5 -03428.8 -07.5013 26264.3
 28 04 2013  19 39  -21.0708 26039.4 -03428.7 -07.5012 26264.1
 28 04 2013  19 40  -21.0704 26039.0 -03428.5 -07.5009 26263.8
 28 04 2013  19 41  -21.0700 26038.6 -03428.3 -07.5006 26263.3
 28 04 2013  19 42  -21.0697 26038.3 -03428.2 -07.5005 26263.0
 28 04 2013  19 43  -21.0695 26037.9 -03428.1 -07.5003 26262.6
 28 04 2013  19 44  -21.0693 26037.7 -03428.1 -07.5003 26262.4
 28 04 2013  19 45  -21.0689 26037.5 -03428.1 -07.5004 26262.2
 28 04 2013  19 46  -21.0687 26037.5 -03428.2 -07.5005 26262.2
 28 04 2013  19 47  -21.0687 26037.5 -03428.2 -07.5006 26262.2
 28 04 2013  19 48  -21.0684 26037.2 -03428.1 -07.5006 26261.9
 28 04 2013  19 49  -21.0680 26037.0 -03428.1 -07.5005 26261.7
 28 04 2013  19 50  -21.0679 26037.2 -03428.1 -07.5006 26261.9
 28 04 2013  19 51  -21.0676 26037.2 -03428.1 -07.5006 26261.9
 28 04 2013  19 52  -21.0674 26037.3 -03428.2 -07.5007 26262.0
 28 04 2013  19 53  -21.0672 26037.5 -03428.3 -07.5008 26262.2
 28 04 2013  19 54  -21.0671 26037.5 -03428.3 -07.5008 26262.2
 28 04 2013  19 55  -21.0668 26037.4 -03428.3 -07.5008 26262.1
 28 04 2013  19 56  -21.0665 26037.2 -03428.2 -07.5007 26262.0
 28 04 2013  19 57  -21.0661 26037.1 -03428.1 -07.5006 26261.9
 28 04 2013  19 58  -21.0658 26037.0 -03428.1 -07.5006 26261.8
 28 04 2013  19 59  -21.0656 26036.8 -03428.1 -07.5005 26261.5
 28 04 2013  20 00  -21.0654 26036.5 -03427.9 -07.5003 26261.2
 28 04 2013  20 01  -21.0651 26036.2 -03427.8 -07.5001 26260.9
 28 04 2013  20 02  -21.0648 26036.0 -03427.8 -07.5001 26260.7
 28 04 2013  20 03  -21.0645 26036.1 -03427.8 -07.5002 26260.8
 28 04 2013  20 04  -21.0643 26036.0 -03427.9 -07.5003 26260.7
 28 04 2013  20 05  -21.0642 26036.0 -03427.9 -07.5003 26260.7
 28 04 2013  20 06  -21.0640 26035.9 -03427.8 -07.5002 26260.6
 28 04 2013  20 07  -21.0636 26035.8 -03427.8 -07.5003 26260.5
 28 04 2013  20 08  -21.0633 26035.7 -03427.8 -07.5002 26260.4
 28 04 2013  20 09  -21.0629 26035.5 -03427.7 -07.5000 26260.1
 28 04 2013  20 10  -21.0625 26035.2 -03427.5 -07.4999 26259.8
 28 04 2013  20 11  -21.0621 26035.0 -03427.5 -07.4998 26259.6
 28 04 2013  20 12  -21.0615 26035.0 -03427.6 -07.5001 26259.6
 28 04 2013  20 13  -21.0610 26034.8 -03427.6 -07.5001 26259.5
 28 04 2013  20 14  -21.0607 26034.6 -03427.7 -07.5003 26259.3
 28 04 2013  20 15  -21.0607 26034.6 -03427.9 -07.5007 26259.3
 28 04 2013  20 16  -21.0606 26034.6 -03428.0 -07.5010 26259.3
 28 04 2013  20 17  -21.0603 26034.7 -03428.1 -07.5013 26259.4
 28 04 2013  20 18  -21.0597 26034.5 -03428.2 -07.5014 26259.3
 28 04 2013  20 19  -21.0591 26034.2 -03428.1 -07.5013 26258.9
 28 04 2013  20 20  -21.0584 26033.5 -03427.8 -07.5010 26258.2
 28 04 2013  20 21  -21.0580 26032.9 -03427.7 -07.5009 26257.6
 28 04 2013  20 22  -21.0576 26032.6 -03427.7 -07.5009 26257.2
 28 04 2013  20 23  -21.0572 26032.2 -03427.7 -07.5011 26256.9
 28 04 2013  20 24  -21.0569 26031.9 -03427.7 -07.5012 26256.6
 28 04 2013  20 25  -21.0567 26031.3 -03427.6 -07.5011 26256.0
 28 04 2013  20 26  -21.0566 26031.0 -03427.5 -07.5011 26255.6
 28 04 2013  20 27  -21.0564 26030.8 -03427.6 -07.5012 26255.4
 28 04 2013  20 28  -21.0562 26030.2 -03427.3 -07.5009 26254.8
 28 04 2013  20 29  -21.0560 26029.8 -03427.3 -07.5008 26254.4
 28 04 2013  20 30  -21.0557 26029.3 -03427.1 -07.5007 26253.9
 28 04 2013  20 31  -21.0554 26029.3 -03427.2 -07.5009 26254.0
 28 04 2013  20 32  -21.0551 26029.3 -03427.3 -07.5010 26253.9
 28 04 2013  20 33  -21.0547 26029.0 -03427.3 -07.5010 26253.7
 28 04 2013  20 34  -21.0543 26028.9 -03427.3 -07.5011 26253.6
 28 04 2013  20 35  -21.0539 26028.9 -03427.4 -07.5013 26253.5
 28 04 2013  20 36  -21.0537 26028.9 -03427.5 -07.5016 26253.6
 28 04 2013  20 37  -21.0535 26028.9 -03427.6 -07.5019 26253.7
 28 04 2013  20 38  -21.0532 26028.9 -03427.7 -07.5021 26253.6
 28 04 2013  20 39  -21.0531 26028.5 -03427.7 -07.5021 26253.2
 28 04 2013  20 40  -21.0528 26028.1 -03427.6 -07.5020 26252.8
 28 04 2013  20 41  -21.0526 26028.1 -03427.7 -07.5021 26252.8
 28 04 2013  20 42  -21.0522 26028.0 -03427.7 -07.5023 26252.7
 28 04 2013  20 43  -21.0519 26028.0 -03427.8 -07.5025 26252.8
 28 04 2013  20 44  -21.0517 26028.1 -03427.9 -07.5027 26252.8
 28 04 2013  20 45  -21.0516 26028.0 -03428.0 -07.5029 26252.8
 28 04 2013  20 46  -21.0512 26028.1 -03428.1 -07.5031 26252.9
 28 04 2013  20 47  -21.0508 26028.3 -03428.3 -07.5035 26253.1
 28 04 2013  20 48  -21.0504 26028.5 -03428.4 -07.5037 26253.4
 28 04 2013  20 49  -21.0502 26028.7 -03428.6 -07.5040 26253.6
 28 04 2013  20 50  -21.0499 26028.8 -03428.7 -07.5041 26253.7
 28 04 2013  20 51  -21.0496 26028.9 -03428.7 -07.5042 26253.7
 28 04 2013  20 52  -21.0492 26028.8 -03428.7 -07.5043 26253.7
 28 04 2013  20 53  -21.0491 26028.8 -03428.8 -07.5043 26253.7
 28 04 2013  20 54  -21.0489 26028.8 -03428.8 -07.5044 26253.7
 28 04 2013  20 55  -21.0486 26028.9 -03428.9 -07.5045 26253.8
 28 04 2013  20 56  -21.0483 26029.0 -03429.0 -07.5047 26253.9
 28 04 2013  20 57  -21.0480 26029.0 -03429.0 -07.5048 26253.9
 28 04 2013  20 58  -21.0475 26029.3 -03429.2 -07.5051 26254.2
 28 04 2013  20 59  -21.0469 26029.6 -03429.4 -07.5054 26254.6
 28 04 2013  21 00  -21.0463 26029.7 -03429.5 -07.5056 26254.7
 28 04 2013  21 01  -21.0455 26030.0 -03429.7 -07.5059 26254.9
 28 04 2013  21 02  -21.0452 26030.0 -03429.8 -07.5062 26255.0
 28 04 2013  21 03  -21.0449 26030.6 -03430.1 -07.5066 26255.6
 28 04 2013  21 04  -21.0442 26031.6 -03430.6 -07.5076 26256.7
 28 04 2013  21 05  -21.0439 26031.5 -03430.7 -07.5077 26256.6
 28 04 2013  21 06  -21.0436 26031.3 -03430.6 -07.5076 26256.4
 28 04 2013  21 07  -21.0435 26031.8 -03430.9 -07.5080 26256.9
 28 04 2013  21 08  -21.0432 26032.2 -03431.1 -07.5085 26257.3
 28 04 2013  21 09  -21.0430 26032.0 -03431.2 -07.5087 26257.2
 28 04 2013  21 10  -21.0427 26032.0 -03431.2 -07.5087 26257.2
 28 04 2013  21 11  -21.0427 26032.0 -03431.3 -07.5089 26257.2
 28 04 2013  21 12  -21.0421 26032.4 -03431.5 -07.5093 26257.6
 28 04 2013  21 13  -21.0420 26032.6 -03431.7 -07.5097 26257.8
 28 04 2013  21 14  -21.0417 26032.5 -03431.7 -07.5097 26257.7
 28 04 2013  21 15  -21.0416 26032.7 -03431.9 -07.5100 26258.0
 28 04 2013  21 16  -21.0417 26032.8 -03432.0 -07.5103 26258.0
 28 04 2013  21 17  -21.0415 26032.8 -03432.1 -07.5103 26258.1
 28 04 2013  21 18  -21.0415 26033.0 -03432.2 -07.5105 26258.3
 28 04 2013  21 19  -21.0416 26033.0 -03432.3 -07.5107 26258.2
 28 04 2013  21 20  -21.0418 26032.8 -03432.3 -07.5108 26258.1
 28 04 2013  21 21  -21.0417 26032.8 -03432.3 -07.5108 26258.1
 28 04 2013  21 22  -21.0417 26033.0 -03432.4 -07.5110 26258.3
 28 04 2013  21 23  -21.0417 26032.9 -03432.4 -07.5111 26258.2
 28 04 2013  21 24  -21.0418 26033.1 -03432.5 -07.5113 26258.4
 28 04 2013  21 25  -21.0420 26033.3 -03432.7 -07.5116 26258.6
 28 04 2013  21 26  -21.0420 26033.4 -03432.8 -07.5118 26258.8
 28 04 2013  21 27  -21.0421 26033.5 -03432.9 -07.5118 26258.9
 28 04 2013  21 28  -21.0422 26033.6 -03432.9 -07.5120 26259.0
 28 04 2013  21 29  -21.0425 26033.6 -03433.0 -07.5121 26259.0
 28 04 2013  21 30  -21.0427 26033.7 -03433.1 -07.5123 26259.1
 28 04 2013  21 31  -21.0429 26033.8 -03433.1 -07.5124 26259.2
 28 04 2013  21 32  -21.0429 26033.8 -03433.1 -07.5124 26259.2
 28 04 2013  21 33  -21.0431 26033.8 -03433.2 -07.5125 26259.2
 28 04 2013  21 34  -21.0434 26033.7 -03433.2 -07.5125 26259.1
 28 04 2013  21 35  -21.0437 26033.5 -03433.1 -07.5124 26258.9
 28 04 2013  21 36  -21.0439 26033.7 -03433.2 -07.5125 26259.1
 28 04 2013  21 37  -21.0440 26033.9 -03433.3 -07.5128 26259.3
 28 04 2013  21 38  -21.0442 26033.9 -03433.4 -07.5128 26259.3
 28 04 2013  21 39  -21.0443 26033.9 -03433.4 -07.5128 26259.3
 28 04 2013  21 40  -21.0444 26034.0 -03433.5 -07.5130 26259.5
 28 04 2013  21 41  -21.0446 26034.0 -03433.5 -07.5130 26259.4
 28 04 2013  21 42  -21.0450 26033.9 -03433.4 -07.5130 26259.4
 28 04 2013  21 43  -21.0452 26033.9 -03433.4 -07.5130 26259.3
 28 04 2013  21 44  -21.0453 26033.8 -03433.4 -07.5129 26259.3
 28 04 2013  21 45  -21.0454 26033.8 -03433.5 -07.5130 26259.3
 28 04 2013  21 46  -21.0456 26033.9 -03433.5 -07.5131 26259.3
 28 04 2013  21 47  -21.0458 26033.9 -03433.5 -07.5132 26259.3
 28 04 2013  21 48  -21.0460 26033.9 -03433.5 -07.5132 26259.3
 28 04 2013  21 49  -21.0461 26033.9 -03433.5 -07.5132 26259.3
 28 04 2013  21 50  -21.0464 26033.9 -03433.6 -07.5132 26259.4
 28 04 2013  21 51  -21.0468 26033.9 -03433.6 -07.5133 26259.4
 28 04 2013  21 52  -21.0473 26033.9 -03433.6 -07.5134 26259.4
 28 04 2013  21 53  -21.0477 26033.9 -03433.6 -07.5134 26259.4
 28 04 2013  21 54  -21.0480 26033.8 -03433.5 -07.5132 26259.3
 28 04 2013  21 55  -21.0484 26033.8 -03433.5 -07.5132 26259.2
 28 04 2013  21 56  -21.0489 26033.7 -03433.5 -07.5132 26259.2
 28 04 2013  21 57  -21.0492 26033.7 -03433.5 -07.5132 26259.2
 28 04 2013  21 58  -21.0494 26033.7 -03433.5 -07.5132 26259.1
 28 04 2013  21 59  -21.0496 26033.7 -03433.5 -07.5131 26259.1
 28 04 2013  22 00  -21.0498 26033.6 -03433.4 -07.5131 26259.0
 28 04 2013  22 01  -21.0500 26033.5 -03433.4 -07.5130 26258.9
 28 04 2013  22 02  -21.0498 26033.3 -03433.3 -07.5128 26258.7
 28 04 2013  22 03  -21.0496 26033.2 -03433.2 -07.5127 26258.6
 28 04 2013  22 04  -21.0494 26033.1 -03433.2 -07.5127 26258.5
 28 04 2013  22 05  -21.0493 26033.1 -03433.2 -07.5127 26258.5
 28 04 2013  22 06  -21.0490 26033.0 -03433.2 -07.5128 26258.4
 28 04 2013  22 07  -21.0488 26033.0 -03433.2 -07.5128 26258.4
 28 04 2013  22 08  -21.0487 26032.9 -03433.2 -07.5128 26258.3
 28 04 2013  22 09  -21.0485 26032.8 -03433.2 -07.5128 26258.2
 28 04 2013  22 10  -21.0485 26032.8 -03433.2 -07.5129 26258.2
 28 04 2013  22 11  -21.0484 26032.7 -03433.3 -07.5130 26258.2
 28 04 2013  22 12  -21.0483 26032.7 -03433.3 -07.5130 26258.1
 28 04 2013  22 13  -21.0483 26032.6 -03433.3 -07.5130 26258.0
 28 04 2013  22 14  -21.0483 26032.5 -03433.3 -07.5130 26257.9
 28 04 2013  22 15  -21.0484 26032.4 -03433.3 -07.5130 26257.9
 28 04 2013  22 16  -21.0484 26032.3 -03433.3 -07.5131 26257.7
 28 04 2013  22 17  -21.0485 26032.2 -03433.2 -07.5130 26257.7
 28 04 2013  22 18  -21.0485 26032.1 -03433.2 -07.5130 26257.5
 28 04 2013  22 19  -21.0486 26032.0 -03433.2 -07.5130 26257.4
 28 04 2013  22 20  -21.0488 26031.8 -03433.1 -07.5129 26257.2
 28 04 2013  22 21  -21.0488 26031.8 -03433.1 -07.5129 26257.2
 28 04 2013  22 22  -21.0489 26031.8 -03433.2 -07.5130 26257.2
 28 04 2013  22 23  -21.0490 26031.9 -03433.2 -07.5131 26257.3
 28 04 2013  22 24  -21.0493 26031.9 -03433.3 -07.5132 26257.3
 28 04 2013  22 25  -21.0494 26031.8 -03433.3 -07.5133 26257.3
 28 04 2013  22 26  -21.0493 26031.8 -03433.3 -07.5133 26257.2
 28 04 2013  22 27  -21.0493 26031.7 -03433.2 -07.5132 26257.1
 28 04 2013  22 28  -21.0493 26031.5 -03433.2 -07.5131 26256.9
 28 04 2013  22 29  -21.0493 26031.4 -03433.1 -07.5131 26256.8
 28 04 2013  22 30  -21.0492 26031.3 -03433.1 -07.5130 26256.7
 28 04 2013  22 31  -21.0490 26031.2 -03433.1 -07.5130 26256.6
 28 04 2013  22 32  -21.0489 26031.1 -03433.1 -07.5130 26256.5
 28 04 2013  22 33  -21.0488 26031.0 -03433.0 -07.5130 26256.4
 28 04 2013  22 34  -21.0488 26030.9 -03433.1 -07.5130 26256.3
 28 04 2013  22 35  -21.0489 26030.8 -03433.0 -07.5130 26256.2
 28 04 2013  22 36  -21.0491 26030.7 -03433.0 -07.5130 26256.1
 28 04 2013  22 37  -21.0492 26030.6 -03433.0 -07.5130 26256.0
 28 04 2013  22 38  -21.0493 26030.4 -03433.0 -07.5131 26255.8
 28 04 2013  22 39  -21.0494 26030.3 -03433.0 -07.5130 26255.7
 28 04 2013  22 40  -21.0493 26030.2 -03432.9 -07.5130 26255.6
 28 04 2013  22 41  -21.0493 26030.1 -03432.9 -07.5130 26255.5
 28 04 2013  22 42  -21.0492 26029.9 -03432.9 -07.5130 26255.3
 28 04 2013  22 43  -21.0492 26029.8 -03432.9 -07.5129 26255.2
 28 04 2013  22 44  -21.0492 26029.7 -03432.9 -07.5130 26255.1
 28 04 2013  22 45  -21.0492 26029.6 -03432.9 -07.5130 26255.0
 28 04 2013  22 46  -21.0493 26029.4 -03432.9 -07.5130 26254.8
 28 04 2013  22 47  -21.0493 26029.3 -03432.9 -07.5131 26254.7
 28 04 2013  22 48  -21.0494 26029.3 -03432.9 -07.5131 26254.7
 28 04 2013  22 49  -21.0495 26029.3 -03432.9 -07.5132 26254.7
 28 04 2013  22 50  -21.0496 26029.3 -03433.0 -07.5133 26254.7
 28 04 2013  22 51  -21.0497 26029.2 -03433.0 -07.5134 26254.7
 28 04 2013  22 52  -21.0500 26029.3 -03433.1 -07.5136 26254.7
 28 04 2013  22 53  -21.0500 26029.3 -03433.2 -07.5137 26254.7
 28 04 2013  22 54  -21.0502 26029.3 -03433.1 -07.5136 26254.7
 28 04 2013  22 55  -21.0503 26029.2 -03433.2 -07.5137 26254.6
 28 04 2013  22 56  -21.0503 26029.1 -03433.1 -07.5137 26254.6
 28 04 2013  22 57  -21.0504 26029.1 -03433.1 -07.5137 26254.5
 28 04 2013  22 58  -21.0504 26029.0 -03433.1 -07.5137 26254.4
 28 04 2013  22 59  -21.0505 26028.9 -03433.1 -07.5137 26254.3
 28 04 2013  23 00  -21.0506 26028.7 -03433.1 -07.5137 26254.1
 28 04 2013  23 01  -21.0507 26028.6 -03433.0 -07.5136 26254.0
 28 04 2013  23 02  -21.0506 26028.5 -03433.0 -07.5136 26253.9
 28 04 2013  23 03  -21.0505 26028.3 -03433.0 -07.5136 26253.7
 28 04 2013  23 04  -21.0506 26028.1 -03432.9 -07.5135 26253.5
 28 04 2013  23 05  -21.0506 26027.9 -03432.9 -07.5135 26253.3
 28 04 2013  23 06  -21.0506 26027.8 -03432.9 -07.5135 26253.2
 28 04 2013  23 07  -21.0507 26027.7 -03432.9 -07.5136 26253.1
 28 04 2013  23 08  -21.0507 26027.6 -03432.9 -07.5136 26253.0
 28 04 2013  23 09  -21.0508 26027.6 -03432.9 -07.5137 26253.0
 28 04 2013  23 10  -21.0509 26027.7 -03433.1 -07.5139 26253.1
 28 04 2013  23 11  -21.0509 26027.7 -03433.1 -07.5141 26253.1
 28 04 2013  23 12  -21.0509 26027.8 -03433.2 -07.5142 26253.2
 28 04 2013  23 13  -21.0508 26027.9 -03433.3 -07.5145 26253.4
 28 04 2013  23 14  -21.0508 26027.9 -03433.4 -07.5146 26253.4
 28 04 2013  23 15  -21.0510 26027.8 -03433.4 -07.5145 26253.3
 28 04 2013  23 16  -21.0511 26027.8 -03433.4 -07.5146 26253.2
 28 04 2013  23 17  -21.0511 26027.6 -03433.3 -07.5145 26253.0
 28 04 2013  23 18  -21.0514 26027.2 -03433.2 -07.5143 26252.7
 28 04 2013  23 19  -21.0516 26027.0 -03433.1 -07.5142 26252.4
 28 04 2013  23 20  -21.0518 26026.8 -03433.0 -07.5141 26252.2
 28 04 2013  23 21  -21.0519 26026.5 -03432.9 -07.5140 26252.0
 28 04 2013  23 22  -21.0520 26026.4 -03432.9 -07.5140 26251.9
 28 04 2013  23 23  -21.0521 26026.3 -03432.9 -07.5139 26251.7
 28 04 2013  23 24  -21.0521 26026.1 -03432.8 -07.5139 26251.5
 28 04 2013  23 25  -21.0521 26026.0 -03432.8 -07.5139 26251.4
 28 04 2013  23 26  -21.0521 26026.0 -03432.9 -07.5140 26251.4
 28 04 2013  23 27  -21.0521 26025.9 -03432.8 -07.5140 26251.3
 28 04 2013  23 28  -21.0523 26025.8 -03432.9 -07.5141 26251.2
 28 04 2013  23 29  -21.0525 26025.8 -03432.9 -07.5142 26251.2
 28 04 2013  23 30  -21.0527 26025.8 -03433.0 -07.5143 26251.2
 28 04 2013  23 31  -21.0528 26025.8 -03433.0 -07.5144 26251.3
 28 04 2013  23 32  -21.0529 26026.0 -03433.1 -07.5146 26251.5
 28 04 2013  23 33  -21.0531 26026.1 -03433.2 -07.5148 26251.6
 28 04 2013  23 34  -21.0533 26026.1 -03433.3 -07.5149 26251.6
 28 04 2013  23 35  -21.0535 26026.2 -03433.3 -07.5149 26251.7
 28 04 2013  23 36  -21.0536 26026.2 -03433.4 -07.5150 26251.7
 28 04 2013  23 37  -21.0537 26026.2 -03433.3 -07.5150 26251.7
 28 04 2013  23 38  -21.0535 26026.3 -03433.3 -07.5149 26251.7
 28 04 2013  23 39  -21.0535 26026.3 -03433.4 -07.5150 26251.7
 28 04 2013  23 40  -21.0535 26026.3 -03433.4 -07.5150 26251.8
 28 04 2013  23 41  -21.0534 26026.3 -03433.4 -07.5151 26251.8
 28 04 2013  23 42  -21.0534 26026.3 -03433.4 -07.5151 26251.8
 28 04 2013  23 43  -21.0535 26026.3 -03433.4 -07.5151 26251.8
 28 04 2013  23 44  -21.0536 26026.4 -03433.5 -07.5152 26251.9
 28 04 2013  23 45  -21.0539 26026.1 -03433.4 -07.5150 26251.6
 28 04 2013  23 46  -21.0539 26025.9 -03433.3 -07.5150 26251.4
 28 04 2013  23 47  -21.0539 26025.9 -03433.3 -07.5149 26251.4
 28 04 2013  23 48  -21.0539 26025.7 -03433.2 -07.5148 26251.2
 28 04 2013  23 49  -21.0540 26025.7 -03433.2 -07.5148 26251.1
 28 04 2013  23 50  -21.0540 26025.6 -03433.2 -07.5149 26251.1
 28 04 2013  23 51  -21.0538 26025.8 -03433.3 -07.5151 26251.3
 28 04 2013  23 52  -21.0541 26025.6 -03433.3 -07.5150 26251.1
 28 04 2013  23 53  -21.0539 26025.4 -03433.2 -07.5149 26250.9
 28 04 2013  23 54  -21.0538 26025.5 -03433.2 -07.5149 26251.0
 28 04 2013  23 55  -21.0537 26025.5 -03433.2 -07.5150 26250.9
 28 04 2013  23 56  -21.0537 26025.3 -03433.2 -07.5150 26250.8
 28 04 2013  23 57  -21.0538 26025.3 -03433.2 -07.5150 26250.8
 28 04 2013  23 58  -21.0537 26025.3 -03433.2 -07.5150 26250.8
