SAO LUIS EMBRACE-03 <085> 1 Min. Reported data

 DD MM YYYY  HH MM   D(Deg)  H(nT)   Z(nT)   I(Deg)   F(nT)

 26 03 2013  00 00  -21.0378 26036.9 -03422.8 -07.4892 26260.9
 26 03 2013  00 01  -21.0376 26036.8 -03422.8 -07.4890 26260.8
 26 03 2013  00 02  -21.0375 26036.9 -03422.8 -07.4891 26260.9
 26 03 2013  00 03  -21.0375 26037.0 -03422.9 -07.4893 26261.0
 26 03 2013  00 04  -21.0376 26037.2 -03423.0 -07.4895 26261.2
 26 03 2013  00 05  -21.0376 26037.3 -03423.1 -07.4897 26261.3
 26 03 2013  00 06  -21.0375 26037.3 -03423.1 -07.4897 26261.3
 26 03 2013  00 07  -21.0375 26037.1 -03423.1 -07.4897 26261.2
 26 03 2013  00 08  -21.0376 26037.0 -03423.0 -07.4895 26261.0
 26 03 2013  00 09  -21.0379 26036.7 -03422.9 -07.4894 26260.7
 26 03 2013  00 10  -21.0381 26036.3 -03422.7 -07.4891 26260.3
 26 03 2013  00 11  -21.0382 26036.2 -03422.6 -07.4890 26260.2
 26 03 2013  00 12  -21.0381 26036.1 -03422.6 -07.4890 26260.1
 26 03 2013  00 13  -21.0380 26036.2 -03422.7 -07.4890 26260.2
 26 03 2013  00 14  -21.0383 26036.3 -03422.8 -07.4893 26260.3
 26 03 2013  00 15  -21.0385 26036.5 -03422.9 -07.4895 26260.5
 26 03 2013  00 16  -21.0386 26036.9 -03423.2 -07.4899 26261.0
 26 03 2013  00 17  -21.0385 26037.5 -03423.4 -07.4903 26261.6
 26 03 2013  00 18  -21.0381 26038.4 -03423.8 -07.4909 26262.5
 26 03 2013  00 19  -21.0379 26038.7 -03424.1 -07.4915 26262.9
 26 03 2013  00 20  -21.0390 26037.9 -03423.7 -07.4907 26262.1
 26 03 2013  00 21  -21.0393 26037.9 -03423.6 -07.4907 26262.0
 26 03 2013  00 22  -21.0394 26037.8 -03423.5 -07.4904 26261.9
 26 03 2013  00 23  -21.0395 26037.3 -03423.3 -07.4901 26261.4
 26 03 2013  00 24  -21.0395 26036.9 -03423.0 -07.4896 26261.0
 26 03 2013  00 25  -21.0392 26037.7 -03423.3 -07.4901 26261.7
 26 03 2013  00 26  -21.0393 26037.5 -03423.4 -07.4902 26261.6
 26 03 2013  00 27  -21.0396 26037.3 -03423.3 -07.4901 26261.4
 26 03 2013  00 28  -21.0394 26038.5 -03423.8 -07.4909 26262.6
 26 03 2013  00 29  -21.0393 26038.2 -03423.8 -07.4909 26262.4
 26 03 2013  00 30  -21.0390 26038.5 -03423.9 -07.4910 26262.7
 26 03 2013  00 31  -21.0388 26039.0 -03424.1 -07.4913 26263.1
 26 03 2013  00 32  -21.0387 26039.3 -03424.3 -07.4916 26263.5
 26 03 2013  00 33  -21.0388 26037.8 -03423.6 -07.4906 26261.9
 26 03 2013  00 34  -21.0388 26038.2 -03423.6 -07.4905 26262.3
 26 03 2013  00 35  -21.0387 26038.4 -03423.8 -07.4908 26262.5
 26 03 2013  00 36  -21.0392 26037.5 -03423.4 -07.4902 26261.6
 26 03 2013  00 37  -21.0398 26037.5 -03423.4 -07.4902 26261.6
 26 03 2013  00 38  -21.0399 26037.9 -03423.6 -07.4905 26262.0
 26 03 2013  00 39  -21.0404 26037.5 -03423.4 -07.4902 26261.6
 26 03 2013  00 40  -21.0406 26037.8 -03423.5 -07.4905 26261.9
 26 03 2013  00 41  -21.0406 26037.9 -03423.6 -07.4906 26262.0
 26 03 2013  00 42  -21.0412 26036.1 -03422.8 -07.4894 26260.1
 26 03 2013  00 43  -21.0413 26036.4 -03422.9 -07.4894 26260.5
 26 03 2013  00 44  -21.0413 26036.4 -03422.9 -07.4895 26260.4
 26 03 2013  00 45  -21.0416 26035.2 -03422.4 -07.4887 26259.2
 26 03 2013  00 46  -21.0415 26035.6 -03422.5 -07.4889 26259.6
 26 03 2013  00 47  -21.0411 26036.0 -03422.8 -07.4893 26260.0
 26 03 2013  00 48  -21.0413 26035.7 -03422.8 -07.4894 26259.7
 26 03 2013  00 49  -21.0415 26035.2 -03422.5 -07.4890 26259.2
 26 03 2013  00 50  -21.0410 26035.5 -03422.7 -07.4893 26259.6
 26 03 2013  00 51  -21.0408 26035.6 -03422.8 -07.4896 26259.6
 26 03 2013  00 52  -21.0410 26035.3 -03422.8 -07.4895 26259.4
 26 03 2013  00 53  -21.0409 26035.5 -03422.9 -07.4897 26259.5
 26 03 2013  00 54  -21.0407 26035.2 -03422.8 -07.4896 26259.2
 26 03 2013  00 55  -21.0406 26035.0 -03422.7 -07.4895 26259.0
 26 03 2013  00 56  -21.0406 26035.0 -03422.8 -07.4896 26259.1
 26 03 2013  00 57  -21.0406 26034.8 -03422.7 -07.4896 26258.9
 26 03 2013  00 58  -21.0407 26035.1 -03422.9 -07.4899 26259.1
 26 03 2013  00 59  -21.0407 26034.8 -03422.9 -07.4899 26258.8
 26 03 2013  01 00  -21.0408 26034.4 -03422.7 -07.4897 26258.5
 26 03 2013  01 01  -21.0407 26034.8 -03422.9 -07.4900 26258.9
 26 03 2013  01 02  -21.0409 26034.9 -03423.0 -07.4902 26258.9
 26 03 2013  01 03  -21.0411 26034.8 -03423.1 -07.4903 26258.9
 26 03 2013  01 04  -21.0410 26034.8 -03423.1 -07.4903 26258.9
 26 03 2013  01 05  -21.0411 26034.2 -03422.8 -07.4900 26258.2
 26 03 2013  01 06  -21.0412 26034.0 -03422.7 -07.4897 26258.0
 26 03 2013  01 07  -21.0410 26034.2 -03422.8 -07.4900 26258.2
 26 03 2013  01 08  -21.0414 26033.6 -03422.6 -07.4897 26257.6
 26 03 2013  01 09  -21.0416 26033.9 -03422.8 -07.4899 26257.9
 26 03 2013  01 10  -21.0416 26033.9 -03422.9 -07.4902 26258.0
 26 03 2013  01 11  -21.0419 26033.8 -03422.9 -07.4902 26257.8
 26 03 2013  01 12  -21.0420 26034.0 -03423.0 -07.4904 26258.1
 26 03 2013  01 13  -21.0420 26034.2 -03423.2 -07.4907 26258.3
 26 03 2013  01 14  -21.0421 26034.0 -03423.1 -07.4905 26258.1
 26 03 2013  01 15  -21.0419 26034.3 -03423.2 -07.4908 26258.4
 26 03 2013  01 16  -21.0418 26034.2 -03423.2 -07.4908 26258.3
 26 03 2013  01 17  -21.0418 26034.0 -03423.1 -07.4907 26258.1
 26 03 2013  01 18  -21.0416 26034.3 -03423.2 -07.4908 26258.4
 26 03 2013  01 19  -21.0415 26034.4 -03423.4 -07.4911 26258.6
 26 03 2013  01 20  -21.0418 26033.9 -03423.1 -07.4907 26258.0
 26 03 2013  01 21  -21.0415 26034.5 -03423.4 -07.4911 26258.6
 26 03 2013  01 22  -21.0417 26034.0 -03423.3 -07.4909 26258.1
 26 03 2013  01 23  -21.0417 26034.0 -03423.2 -07.4908 26258.1
 26 03 2013  01 24  -21.0417 26034.1 -03423.3 -07.4910 26258.2
 26 03 2013  01 25  -21.0417 26033.9 -03423.2 -07.4909 26258.0
 26 03 2013  01 26  -21.0417 26034.2 -03423.4 -07.4912 26258.4
 26 03 2013  01 27  -21.0419 26033.9 -03423.3 -07.4910 26258.0
 26 03 2013  01 28  -21.0419 26034.1 -03423.3 -07.4911 26258.2
 26 03 2013  01 29  -21.0417 26034.9 -03423.8 -07.4918 26259.0
 26 03 2013  01 30  -21.0421 26033.9 -03423.4 -07.4913 26258.0
 26 03 2013  01 31  -21.0420 26034.3 -03423.5 -07.4913 26258.5
 26 03 2013  01 32  -21.0418 26034.5 -03423.7 -07.4916 26258.7
 26 03 2013  01 33  -21.0418 26034.3 -03423.6 -07.4915 26258.4
 26 03 2013  01 34  -21.0417 26034.5 -03423.6 -07.4916 26258.6
 26 03 2013  01 35  -21.0417 26034.5 -03423.6 -07.4916 26258.6
 26 03 2013  01 36  -21.0413 26034.9 -03423.8 -07.4919 26259.1
 26 03 2013  01 37  -21.0413 26034.6 -03423.8 -07.4918 26258.8
 26 03 2013  01 38  -21.0411 26034.6 -03423.7 -07.4917 26258.8
 26 03 2013  01 39  -21.0408 26034.6 -03423.7 -07.4918 26258.8
 26 03 2013  01 40  -21.0407 26034.6 -03423.7 -07.4918 26258.8
 26 03 2013  01 41  -21.0408 26034.7 -03423.8 -07.4920 26258.9
 26 03 2013  01 42  -21.0406 26035.0 -03423.9 -07.4921 26259.1
 26 03 2013  01 43  -21.0407 26034.9 -03424.0 -07.4922 26259.1
 26 03 2013  01 44  -21.0408 26035.0 -03424.0 -07.4922 26259.2
 26 03 2013  01 45  -21.0408 26034.9 -03424.0 -07.4923 26259.1
 26 03 2013  01 46  -21.0409 26034.8 -03423.9 -07.4921 26259.0
 26 03 2013  01 47  -21.0410 26034.8 -03423.9 -07.4921 26259.0
 26 03 2013  01 48  -21.0410 26035.0 -03424.0 -07.4922 26259.2
 26 03 2013  01 49  -21.0412 26035.1 -03424.1 -07.4923 26259.3
 26 03 2013  01 50  -21.0412 26035.5 -03424.2 -07.4926 26259.7
 26 03 2013  01 51  -21.0412 26035.7 -03424.3 -07.4928 26259.9
 26 03 2013  01 52  -21.0413 26035.9 -03424.4 -07.4929 26260.1
 26 03 2013  01 53  -21.0414 26036.0 -03424.4 -07.4929 26260.2
 26 03 2013  01 54  -21.0412 26036.1 -03424.5 -07.4930 26260.3
 26 03 2013  01 55  -21.0413 26035.8 -03424.3 -07.4927 26260.0
 26 03 2013  01 56  -21.0412 26036.0 -03424.3 -07.4927 26260.2
 26 03 2013  01 57  -21.0412 26035.9 -03424.3 -07.4927 26260.1
 26 03 2013  01 58  -21.0412 26035.9 -03424.3 -07.4926 26260.2
 26 03 2013  01 59  -21.0412 26036.0 -03424.3 -07.4927 26260.2
 26 03 2013  02 00  -21.0412 26036.0 -03424.3 -07.4926 26260.2
 26 03 2013  02 01  -21.0413 26036.0 -03424.3 -07.4926 26260.2
 26 03 2013  02 02  -21.0413 26035.9 -03424.3 -07.4925 26260.1
 26 03 2013  02 03  -21.0413 26035.8 -03424.2 -07.4925 26260.1
 26 03 2013  02 04  -21.0414 26035.7 -03424.2 -07.4924 26259.9
 26 03 2013  02 05  -21.0414 26035.7 -03424.1 -07.4924 26259.9
 26 03 2013  02 06  -21.0414 26035.7 -03424.2 -07.4924 26260.0
 26 03 2013  02 07  -21.0414 26035.9 -03424.2 -07.4925 26260.1
 26 03 2013  02 08  -21.0413 26035.9 -03424.2 -07.4925 26260.1
 26 03 2013  02 09  -21.0412 26035.9 -03424.2 -07.4924 26260.1
 26 03 2013  02 10  -21.0413 26035.8 -03424.2 -07.4924 26260.0
 26 03 2013  02 11  -21.0413 26035.7 -03424.1 -07.4924 26259.9
 26 03 2013  02 12  -21.0413 26035.8 -03424.2 -07.4924 26260.0
 26 03 2013  02 13  -21.0413 26035.9 -03424.2 -07.4925 26260.1
 26 03 2013  02 14  -21.0414 26036.0 -03424.3 -07.4926 26260.2
 26 03 2013  02 15  -21.0414 26036.1 -03424.4 -07.4927 26260.4
 26 03 2013  02 16  -21.0416 26036.2 -03424.4 -07.4928 26260.4
 26 03 2013  02 17  -21.0418 26036.3 -03424.5 -07.4929 26260.5
 26 03 2013  02 18  -21.0418 26036.3 -03424.5 -07.4929 26260.5
 26 03 2013  02 19  -21.0420 26036.0 -03424.3 -07.4927 26260.3
 26 03 2013  02 20  -21.0420 26035.9 -03424.2 -07.4925 26260.1
 26 03 2013  02 21  -21.0421 26036.0 -03424.3 -07.4925 26260.2
 26 03 2013  02 22  -21.0422 26036.1 -03424.3 -07.4927 26260.4
 26 03 2013  02 23  -21.0424 26036.1 -03424.3 -07.4926 26260.3
 26 03 2013  02 24  -21.0424 26036.3 -03424.4 -07.4928 26260.6
 26 03 2013  02 25  -21.0425 26036.3 -03424.4 -07.4928 26260.5
 26 03 2013  02 26  -21.0424 26036.3 -03424.4 -07.4928 26260.6
 26 03 2013  02 27  -21.0424 26036.3 -03424.4 -07.4928 26260.5
 26 03 2013  02 28  -21.0424 26036.3 -03424.4 -07.4927 26260.5
 26 03 2013  02 29  -21.0423 26036.3 -03424.4 -07.4928 26260.6
 26 03 2013  02 30  -21.0424 26036.3 -03424.4 -07.4928 26260.5
 26 03 2013  02 31  -21.0425 26036.3 -03424.5 -07.4929 26260.6
 26 03 2013  02 32  -21.0426 26036.3 -03424.5 -07.4929 26260.6
 26 03 2013  02 33  -21.0426 26036.4 -03424.5 -07.4929 26260.6
 26 03 2013  02 34  -21.0427 26036.4 -03424.5 -07.4929 26260.6
 26 03 2013  02 35  -21.0428 26036.4 -03424.5 -07.4929 26260.7
 26 03 2013  02 36  -21.0430 26036.4 -03424.5 -07.4930 26260.7
 26 03 2013  02 37  -21.0431 26036.4 -03424.5 -07.4930 26260.6
 26 03 2013  02 38  -21.0432 26036.4 -03424.5 -07.4930 26260.7
 26 03 2013  02 39  -21.0434 26036.3 -03424.5 -07.4929 26260.6
 26 03 2013  02 40  -21.0435 26036.3 -03424.4 -07.4928 26260.5
 26 03 2013  02 41  -21.0436 26036.3 -03424.4 -07.4928 26260.5
 26 03 2013  02 42  -21.0437 26036.2 -03424.4 -07.4928 26260.4
 26 03 2013  02 43  -21.0438 26036.1 -03424.4 -07.4927 26260.3
 26 03 2013  02 44  -21.0439 26036.1 -03424.4 -07.4927 26260.3
 26 03 2013  02 45  -21.0439 26036.1 -03424.4 -07.4927 26260.3
 26 03 2013  02 46  -21.0439 26036.1 -03424.4 -07.4927 26260.3
 26 03 2013  02 47  -21.0439 26036.1 -03424.4 -07.4928 26260.3
 26 03 2013  02 48  -21.0438 26036.1 -03424.4 -07.4928 26260.3
 26 03 2013  02 49  -21.0438 26036.2 -03424.5 -07.4929 26260.5
 26 03 2013  02 50  -21.0437 26036.3 -03424.5 -07.4930 26260.6
 26 03 2013  02 51  -21.0439 26036.4 -03424.6 -07.4931 26260.6
 26 03 2013  02 52  -21.0440 26036.5 -03424.6 -07.4932 26260.7
 26 03 2013  02 53  -21.0441 26036.5 -03424.7 -07.4933 26260.8
 26 03 2013  02 54  -21.0443 26036.5 -03424.7 -07.4934 26260.8
 26 03 2013  02 55  -21.0443 26036.4 -03424.7 -07.4933 26260.7
 26 03 2013  02 56  -21.0443 26036.4 -03424.7 -07.4933 26260.7
 26 03 2013  02 57  -21.0443 26036.3 -03424.6 -07.4933 26260.6
 26 03 2013  02 58  -21.0442 26036.2 -03424.6 -07.4932 26260.5
 26 03 2013  02 59  -21.0442 26036.3 -03424.6 -07.4933 26260.6
 26 03 2013  03 00  -21.0442 26036.3 -03424.7 -07.4933 26260.5
 26 03 2013  03 01  -21.0442 26036.3 -03424.7 -07.4934 26260.6
 26 03 2013  03 02  -21.0441 26036.4 -03424.8 -07.4935 26260.6
 26 03 2013  03 03  -21.0441 26036.4 -03424.8 -07.4936 26260.7
 26 03 2013  03 04  -21.0441 26036.4 -03424.8 -07.4937 26260.7
 26 03 2013  03 05  -21.0441 26036.3 -03424.8 -07.4937 26260.6
 26 03 2013  03 06  -21.0440 26036.3 -03424.8 -07.4937 26260.6
 26 03 2013  03 07  -21.0439 26036.3 -03424.8 -07.4937 26260.5
 26 03 2013  03 08  -21.0437 26036.3 -03424.9 -07.4939 26260.6
 26 03 2013  03 09  -21.0437 26036.2 -03424.9 -07.4939 26260.5
 26 03 2013  03 10  -21.0438 26036.2 -03424.9 -07.4939 26260.5
 26 03 2013  03 11  -21.0438 26036.3 -03425.0 -07.4941 26260.6
 26 03 2013  03 12  -21.0439 26036.2 -03425.0 -07.4941 26260.5
 26 03 2013  03 13  -21.0439 26036.1 -03425.0 -07.4941 26260.4
 26 03 2013  03 14  -21.0439 26036.1 -03425.0 -07.4942 26260.4
 26 03 2013  03 15  -21.0439 26036.2 -03425.1 -07.4943 26260.5
 26 03 2013  03 16  -21.0440 26036.2 -03425.1 -07.4944 26260.5
 26 03 2013  03 17  -21.0440 26036.2 -03425.2 -07.4945 26260.5
 26 03 2013  03 18  -21.0441 26036.2 -03425.2 -07.4945 26260.6
 26 03 2013  03 19  -21.0440 26036.2 -03425.2 -07.4946 26260.6
 26 03 2013  03 20  -21.0440 26036.3 -03425.3 -07.4947 26260.6
 26 03 2013  03 21  -21.0439 26036.4 -03425.4 -07.4948 26260.7
 26 03 2013  03 22  -21.0437 26036.4 -03425.4 -07.4949 26260.7
 26 03 2013  03 23  -21.0437 26036.5 -03425.4 -07.4950 26260.8
 26 03 2013  03 24  -21.0437 26036.6 -03425.5 -07.4951 26261.0
 26 03 2013  03 25  -21.0439 26036.6 -03425.6 -07.4952 26260.9
 26 03 2013  03 26  -21.0441 26036.6 -03425.6 -07.4952 26261.0
 26 03 2013  03 27  -21.0442 26036.6 -03425.6 -07.4952 26261.0
 26 03 2013  03 28  -21.0441 26036.6 -03425.6 -07.4952 26261.0
 26 03 2013  03 29  -21.0442 26036.6 -03425.6 -07.4953 26261.0
 26 03 2013  03 30  -21.0442 26036.5 -03425.6 -07.4952 26260.9
 26 03 2013  03 31  -21.0442 26036.4 -03425.5 -07.4952 26260.8
 26 03 2013  03 32  -21.0444 26036.5 -03425.6 -07.4952 26260.8
 26 03 2013  03 33  -21.0446 26036.4 -03425.6 -07.4953 26260.8
 26 03 2013  03 34  -21.0447 26036.4 -03425.6 -07.4952 26260.8
 26 03 2013  03 35  -21.0449 26036.3 -03425.6 -07.4953 26260.7
 26 03 2013  03 36  -21.0450 26036.2 -03425.5 -07.4952 26260.6
 26 03 2013  03 37  -21.0452 26036.1 -03425.5 -07.4952 26260.5
 26 03 2013  03 38  -21.0452 26036.1 -03425.5 -07.4952 26260.5
 26 03 2013  03 39  -21.0453 26036.1 -03425.5 -07.4951 26260.5
 26 03 2013  03 40  -21.0453 26036.1 -03425.5 -07.4952 26260.5
 26 03 2013  03 41  -21.0451 26036.1 -03425.5 -07.4952 26260.5
 26 03 2013  03 42  -21.0451 26036.1 -03425.5 -07.4953 26260.5
 26 03 2013  03 43  -21.0450 26036.2 -03425.5 -07.4953 26260.5
 26 03 2013  03 44  -21.0449 26036.2 -03425.6 -07.4953 26260.5
 26 03 2013  03 45  -21.0448 26036.2 -03425.6 -07.4954 26260.6
 26 03 2013  03 46  -21.0448 26036.1 -03425.6 -07.4954 26260.5
 26 03 2013  03 47  -21.0449 26036.1 -03425.6 -07.4954 26260.5
 26 03 2013  03 48  -21.0450 26036.1 -03425.6 -07.4954 26260.5
 26 03 2013  03 49  -21.0452 26036.1 -03425.6 -07.4954 26260.5
 26 03 2013  03 50  -21.0454 26036.1 -03425.6 -07.4955 26260.5
 26 03 2013  03 51  -21.0458 26036.2 -03425.7 -07.4956 26260.6
 26 03 2013  03 52  -21.0461 26036.1 -03425.7 -07.4955 26260.5
 26 03 2013  03 53  -21.0462 26036.2 -03425.7 -07.4955 26260.6
 26 03 2013  03 54  -21.0464 26036.1 -03425.7 -07.4955 26260.5
 26 03 2013  03 55  -21.0464 26036.1 -03425.6 -07.4955 26260.5
 26 03 2013  03 56  -21.0464 26036.2 -03425.7 -07.4955 26260.6
 26 03 2013  03 57  -21.0463 26036.2 -03425.7 -07.4955 26260.6
 26 03 2013  03 58  -21.0462 26036.2 -03425.7 -07.4955 26260.6
 26 03 2013  03 59  -21.0461 26036.2 -03425.6 -07.4954 26260.5
 26 03 2013  04 00  -21.0460 26036.2 -03425.6 -07.4954 26260.6
 26 03 2013  04 01  -21.0458 26036.1 -03425.6 -07.4954 26260.5
 26 03 2013  04 02  -21.0458 26036.1 -03425.6 -07.4954 26260.5
 26 03 2013  04 03  -21.0458 26036.1 -03425.6 -07.4954 26260.5
 26 03 2013  04 04  -21.0459 26036.1 -03425.6 -07.4954 26260.5
 26 03 2013  04 05  -21.0460 26036.1 -03425.6 -07.4954 26260.5
 26 03 2013  04 06  -21.0460 26036.1 -03425.6 -07.4954 26260.5
 26 03 2013  04 07  -21.0459 26036.1 -03425.6 -07.4954 26260.5
 26 03 2013  04 08  -21.0458 26036.0 -03425.6 -07.4954 26260.4
 26 03 2013  04 09  -21.0456 26036.1 -03425.6 -07.4954 26260.5
 26 03 2013  04 10  -21.0456 26036.1 -03425.6 -07.4954 26260.5
 26 03 2013  04 11  -21.0455 26036.3 -03425.7 -07.4955 26260.7
 26 03 2013  04 12  -21.0455 26036.5 -03425.7 -07.4956 26260.9
 26 03 2013  04 13  -21.0457 26036.5 -03425.8 -07.4957 26260.9
 26 03 2013  04 14  -21.0460 26036.4 -03425.7 -07.4956 26260.8
 26 03 2013  04 15  -21.0456 26036.9 -03425.9 -07.4958 26261.3
 26 03 2013  04 16  -21.0454 26037.2 -03426.0 -07.4960 26261.6
 26 03 2013  04 17  -21.0454 26037.3 -03426.0 -07.4959 26261.7
 26 03 2013  04 18  -21.0447 26037.6 -03426.1 -07.4960 26262.0
 26 03 2013  04 19  -21.0446 26037.6 -03426.1 -07.4960 26262.0
 26 03 2013  04 20  -21.0443 26037.6 -03426.0 -07.4959 26262.0
 26 03 2013  04 21  -21.0440 26037.6 -03426.0 -07.4957 26262.0
 26 03 2013  04 22  -21.0440 26037.6 -03425.9 -07.4957 26262.1
 26 03 2013  04 23  -21.0443 26037.6 -03425.9 -07.4957 26262.0
 26 03 2013  04 24  -21.0446 26037.5 -03425.9 -07.4956 26261.9
 26 03 2013  04 25  -21.0450 26037.4 -03425.8 -07.4954 26261.8
 26 03 2013  04 26  -21.0455 26037.2 -03425.7 -07.4953 26261.6
 26 03 2013  04 27  -21.0457 26037.2 -03425.7 -07.4952 26261.6
 26 03 2013  04 28  -21.0459 26037.2 -03425.7 -07.4952 26261.5
 26 03 2013  04 29  -21.0461 26037.2 -03425.7 -07.4952 26261.6
 26 03 2013  04 30  -21.0461 26037.2 -03425.6 -07.4952 26261.6
 26 03 2013  04 31  -21.0463 26037.3 -03425.7 -07.4953 26261.7
 26 03 2013  04 32  -21.0465 26037.3 -03425.7 -07.4953 26261.7
 26 03 2013  04 33  -21.0467 26037.3 -03425.7 -07.4952 26261.7
 26 03 2013  04 34  -21.0469 26037.4 -03425.7 -07.4953 26261.8
 26 03 2013  04 35  -21.0470 26037.5 -03425.8 -07.4953 26261.9
 26 03 2013  04 36  -21.0471 26037.6 -03425.8 -07.4953 26262.0
 26 03 2013  04 37  -21.0471 26037.5 -03425.7 -07.4953 26261.9
 26 03 2013  04 38  -21.0472 26037.4 -03425.6 -07.4951 26261.8
 26 03 2013  04 39  -21.0476 26037.4 -03425.6 -07.4950 26261.8
 26 03 2013  04 40  -21.0479 26037.4 -03425.6 -07.4950 26261.8
 26 03 2013  04 41  -21.0481 26037.5 -03425.6 -07.4951 26261.9
 26 03 2013  04 42  -21.0481 26037.7 -03425.7 -07.4951 26262.1
 26 03 2013  04 43  -21.0483 26037.8 -03425.7 -07.4951 26262.2
 26 03 2013  04 44  -21.0486 26037.7 -03425.6 -07.4950 26262.1
 26 03 2013  04 45  -21.0487 26037.8 -03425.6 -07.4949 26262.2
 26 03 2013  04 46  -21.0489 26037.6 -03425.5 -07.4947 26262.0
 26 03 2013  04 47  -21.0490 26037.6 -03425.4 -07.4945 26261.9
 26 03 2013  04 48  -21.0491 26037.5 -03425.3 -07.4944 26261.9
 26 03 2013  04 49  -21.0493 26037.4 -03425.2 -07.4942 26261.7
 26 03 2013  04 50  -21.0493 26037.2 -03425.1 -07.4940 26261.6
 26 03 2013  04 51  -21.0494 26037.1 -03425.0 -07.4938 26261.4
 26 03 2013  04 52  -21.0494 26037.0 -03424.9 -07.4937 26261.3
 26 03 2013  04 53  -21.0494 26036.9 -03424.8 -07.4935 26261.2
 26 03 2013  04 54  -21.0492 26036.9 -03424.8 -07.4934 26261.2
 26 03 2013  04 55  -21.0490 26036.9 -03424.8 -07.4933 26261.2
 26 03 2013  04 56  -21.0489 26037.0 -03424.7 -07.4933 26261.2
 26 03 2013  04 57  -21.0488 26036.9 -03424.7 -07.4933 26261.2
 26 03 2013  04 58  -21.0486 26036.9 -03424.7 -07.4932 26261.2
 26 03 2013  04 59  -21.0484 26036.9 -03424.7 -07.4931 26261.1
 26 03 2013  05 00  -21.0482 26036.7 -03424.5 -07.4929 26260.9
 26 03 2013  05 01  -21.0479 26036.6 -03424.5 -07.4928 26260.8
 26 03 2013  05 02  -21.0476 26036.6 -03424.5 -07.4928 26260.8
 26 03 2013  05 03  -21.0474 26036.5 -03424.4 -07.4928 26260.7
 26 03 2013  05 04  -21.0474 26036.8 -03424.5 -07.4929 26261.0
 26 03 2013  05 05  -21.0477 26036.6 -03424.6 -07.4930 26260.9
 26 03 2013  05 06  -21.0481 26036.7 -03424.6 -07.4930 26260.9
 26 03 2013  05 07  -21.0484 26037.0 -03424.8 -07.4933 26261.3
 26 03 2013  05 08  -21.0487 26037.2 -03424.8 -07.4934 26261.5
 26 03 2013  05 09  -21.0487 26037.6 -03425.0 -07.4937 26261.9
 26 03 2013  05 10  -21.0485 26037.8 -03425.1 -07.4938 26262.2
 26 03 2013  05 11  -21.0481 26038.0 -03425.1 -07.4938 26262.4
 26 03 2013  05 12  -21.0478 26038.0 -03425.1 -07.4938 26262.3
 26 03 2013  05 13  -21.0476 26038.0 -03425.0 -07.4937 26262.3
 26 03 2013  05 14  -21.0474 26037.9 -03424.9 -07.4935 26262.2
 26 03 2013  05 15  -21.0473 26037.7 -03424.8 -07.4933 26262.0
 26 03 2013  05 16  -21.0473 26037.6 -03424.7 -07.4931 26261.9
 26 03 2013  05 17  -21.0473 26037.5 -03424.7 -07.4930 26261.7
 26 03 2013  05 18  -21.0473 26037.4 -03424.6 -07.4929 26261.6
 26 03 2013  05 19  -21.0475 26037.3 -03424.6 -07.4929 26261.6
 26 03 2013  05 20  -21.0476 26037.3 -03424.6 -07.4929 26261.6
 26 03 2013  05 21  -21.0477 26037.3 -03424.6 -07.4929 26261.6
 26 03 2013  05 22  -21.0477 26037.4 -03424.6 -07.4929 26261.6
 26 03 2013  05 23  -21.0477 26037.4 -03424.6 -07.4929 26261.7
 26 03 2013  05 24  -21.0477 26037.4 -03424.6 -07.4929 26261.6
 26 03 2013  05 25  -21.0476 26037.4 -03424.6 -07.4929 26261.7
 26 03 2013  05 26  -21.0475 26037.6 -03424.7 -07.4931 26261.8
 26 03 2013  05 27  -21.0477 26037.3 -03424.6 -07.4929 26261.6
 26 03 2013  05 28  -21.0476 26037.5 -03424.6 -07.4929 26261.7
 26 03 2013  05 29  -21.0474 26037.5 -03424.7 -07.4930 26261.8
 26 03 2013  05 30  -21.0474 26037.4 -03424.6 -07.4930 26261.7
 26 03 2013  05 31  -21.0473 26037.4 -03424.6 -07.4929 26261.6
 26 03 2013  05 32  -21.0471 26037.5 -03424.6 -07.4929 26261.7
 26 03 2013  05 33  -21.0470 26037.5 -03424.7 -07.4930 26261.8
 26 03 2013  05 34  -21.0469 26037.5 -03424.7 -07.4931 26261.7
 26 03 2013  05 35  -21.0468 26037.4 -03424.7 -07.4930 26261.7
 26 03 2013  05 36  -21.0469 26037.5 -03424.7 -07.4930 26261.7
 26 03 2013  05 37  -21.0469 26037.4 -03424.7 -07.4931 26261.7
 26 03 2013  05 38  -21.0469 26037.5 -03424.8 -07.4932 26261.8
 26 03 2013  05 39  -21.0470 26037.5 -03424.8 -07.4932 26261.8
 26 03 2013  05 40  -21.0471 26037.5 -03424.8 -07.4933 26261.7
 26 03 2013  05 41  -21.0471 26037.5 -03424.8 -07.4932 26261.7
 26 03 2013  05 42  -21.0471 26037.5 -03424.8 -07.4933 26261.8
 26 03 2013  05 43  -21.0471 26037.6 -03424.8 -07.4934 26261.9
 26 03 2013  05 44  -21.0469 26037.6 -03424.8 -07.4934 26261.8
 26 03 2013  05 45  -21.0469 26037.6 -03424.9 -07.4934 26261.9
 26 03 2013  05 46  -21.0468 26037.6 -03424.9 -07.4934 26261.9
 26 03 2013  05 47  -21.0468 26037.6 -03424.9 -07.4935 26261.9
 26 03 2013  05 48  -21.0469 26037.6 -03424.9 -07.4935 26261.9
 26 03 2013  05 49  -21.0469 26037.6 -03424.9 -07.4935 26261.9
 26 03 2013  05 50  -21.0470 26037.7 -03425.0 -07.4936 26262.0
 26 03 2013  05 51  -21.0470 26037.7 -03425.0 -07.4936 26261.9
 26 03 2013  05 52  -21.0471 26037.7 -03425.0 -07.4936 26262.0
 26 03 2013  05 53  -21.0472 26037.6 -03425.0 -07.4937 26261.9
 26 03 2013  05 54  -21.0473 26037.6 -03425.0 -07.4937 26261.9
 26 03 2013  05 55  -21.0474 26037.6 -03425.0 -07.4937 26261.9
 26 03 2013  05 56  -21.0474 26037.6 -03425.0 -07.4936 26261.9
 26 03 2013  05 57  -21.0473 26037.6 -03425.0 -07.4936 26261.9
 26 03 2013  05 58  -21.0473 26037.6 -03425.0 -07.4936 26261.9
 26 03 2013  05 59  -21.0473 26037.5 -03424.9 -07.4935 26261.8
 26 03 2013  06 00  -21.0472 26037.5 -03424.9 -07.4935 26261.7
 26 03 2013  06 01  -21.0470 26037.4 -03424.9 -07.4936 26261.7
 26 03 2013  06 02  -21.0470 26037.5 -03424.9 -07.4936 26261.7
 26 03 2013  06 03  -21.0469 26037.5 -03425.0 -07.4937 26261.8
 26 03 2013  06 04  -21.0469 26037.5 -03425.0 -07.4937 26261.8
 26 03 2013  06 05  -21.0469 26037.5 -03425.0 -07.4938 26261.9
 26 03 2013  06 06  -21.0469 26037.6 -03425.0 -07.4938 26261.9
 26 03 2013  06 07  -21.0469 26037.6 -03425.1 -07.4938 26261.9
 26 03 2013  06 08  -21.0469 26037.6 -03425.1 -07.4938 26261.9
 26 03 2013  06 09  -21.0468 26037.6 -03425.1 -07.4939 26261.9
 26 03 2013  06 10  -21.0464 26037.7 -03425.1 -07.4939 26262.0
 26 03 2013  06 11  -21.0461 26037.8 -03425.2 -07.4940 26262.1
 26 03 2013  06 12  -21.0458 26037.9 -03425.2 -07.4941 26262.2
 26 03 2013  06 13  -21.0456 26038.0 -03425.3 -07.4941 26262.3
 26 03 2013  06 14  -21.0454 26038.2 -03425.4 -07.4943 26262.5
 26 03 2013  06 15  -21.0452 26038.3 -03425.4 -07.4944 26262.6
 26 03 2013  06 16  -21.0449 26038.4 -03425.5 -07.4946 26262.8
 26 03 2013  06 17  -21.0445 26038.7 -03425.6 -07.4948 26263.1
 26 03 2013  06 18  -21.0443 26038.6 -03425.6 -07.4948 26263.0
 26 03 2013  06 19  -21.0442 26038.6 -03425.7 -07.4948 26263.0
 26 03 2013  06 20  -21.0441 26038.6 -03425.7 -07.4949 26263.0
 26 03 2013  06 21  -21.0441 26038.7 -03425.7 -07.4950 26263.1
 26 03 2013  06 22  -21.0443 26038.7 -03425.8 -07.4950 26263.1
 26 03 2013  06 23  -21.0445 26038.6 -03425.7 -07.4950 26263.0
 26 03 2013  06 24  -21.0449 26038.5 -03425.7 -07.4950 26262.9
 26 03 2013  06 25  -21.0450 26038.5 -03425.7 -07.4950 26262.9
 26 03 2013  06 26  -21.0452 26038.4 -03425.7 -07.4950 26262.8
 26 03 2013  06 27  -21.0452 26038.5 -03425.7 -07.4950 26262.8
 26 03 2013  06 28  -21.0452 26038.5 -03425.7 -07.4950 26262.9
 26 03 2013  06 29  -21.0452 26038.6 -03425.7 -07.4949 26262.9
 26 03 2013  06 30  -21.0452 26038.6 -03425.7 -07.4949 26263.0
 26 03 2013  06 31  -21.0451 26038.7 -03425.8 -07.4950 26263.1
 26 03 2013  06 32  -21.0450 26038.8 -03425.8 -07.4950 26263.1
 26 03 2013  06 33  -21.0450 26038.8 -03425.8 -07.4950 26263.2
 26 03 2013  06 34  -21.0448 26038.9 -03425.8 -07.4950 26263.3
 26 03 2013  06 35  -21.0446 26039.0 -03425.9 -07.4951 26263.4
 26 03 2013  06 36  -21.0445 26039.1 -03426.0 -07.4953 26263.5
 26 03 2013  06 37  -21.0445 26039.2 -03426.0 -07.4954 26263.7
 26 03 2013  06 38  -21.0444 26039.3 -03426.0 -07.4955 26263.7
 26 03 2013  06 39  -21.0443 26039.4 -03426.1 -07.4955 26263.8
 26 03 2013  06 40  -21.0442 26039.4 -03426.0 -07.4954 26263.8
 26 03 2013  06 41  -21.0441 26039.4 -03426.1 -07.4954 26263.8
 26 03 2013  06 42  -21.0441 26039.5 -03426.1 -07.4955 26263.9
 26 03 2013  06 43  -21.0441 26039.5 -03426.1 -07.4955 26263.9
 26 03 2013  06 44  -21.0442 26039.5 -03426.1 -07.4955 26263.9
 26 03 2013  06 45  -21.0442 26039.5 -03426.1 -07.4955 26263.9
 26 03 2013  06 46  -21.0442 26039.4 -03426.0 -07.4954 26263.8
 26 03 2013  06 47  -21.0443 26039.4 -03426.0 -07.4954 26263.8
 26 03 2013  06 48  -21.0444 26039.3 -03426.0 -07.4953 26263.7
 26 03 2013  06 49  -21.0445 26039.3 -03426.0 -07.4954 26263.7
 26 03 2013  06 50  -21.0446 26039.4 -03426.0 -07.4954 26263.8
 26 03 2013  06 51  -21.0445 26039.5 -03426.1 -07.4954 26263.9
 26 03 2013  06 52  -21.0446 26039.5 -03426.0 -07.4954 26263.9
 26 03 2013  06 53  -21.0446 26039.4 -03426.0 -07.4953 26263.9
 26 03 2013  06 54  -21.0446 26039.4 -03426.0 -07.4953 26263.8
 26 03 2013  06 55  -21.0447 26039.4 -03426.0 -07.4953 26263.9
 26 03 2013  06 56  -21.0448 26039.4 -03426.0 -07.4954 26263.8
 26 03 2013  06 57  -21.0448 26039.4 -03426.0 -07.4953 26263.8
 26 03 2013  06 58  -21.0448 26039.4 -03425.9 -07.4952 26263.8
 26 03 2013  06 59  -21.0449 26039.4 -03425.9 -07.4952 26263.8
 26 03 2013  07 00  -21.0449 26039.4 -03425.9 -07.4952 26263.8
 26 03 2013  07 01  -21.0448 26039.3 -03425.9 -07.4951 26263.7
 26 03 2013  07 02  -21.0447 26039.2 -03425.8 -07.4949 26263.6
 26 03 2013  07 03  -21.0448 26039.2 -03425.8 -07.4950 26263.6
 26 03 2013  07 04  -21.0447 26039.1 -03425.7 -07.4949 26263.5
 26 03 2013  07 05  -21.0447 26039.1 -03425.8 -07.4949 26263.5
 26 03 2013  07 06  -21.0446 26038.9 -03425.7 -07.4948 26263.3
 26 03 2013  07 07  -21.0446 26038.9 -03425.7 -07.4948 26263.2
 26 03 2013  07 08  -21.0447 26038.8 -03425.7 -07.4948 26263.2
 26 03 2013  07 09  -21.0445 26038.8 -03425.7 -07.4948 26263.1
 26 03 2013  07 10  -21.0445 26038.8 -03425.7 -07.4948 26263.1
 26 03 2013  07 11  -21.0444 26038.7 -03425.6 -07.4947 26263.0
 26 03 2013  07 12  -21.0444 26038.5 -03425.5 -07.4945 26262.8
 26 03 2013  07 13  -21.0446 26038.4 -03425.5 -07.4944 26262.7
 26 03 2013  07 14  -21.0445 26038.4 -03425.5 -07.4946 26262.8
 26 03 2013  07 15  -21.0445 26038.3 -03425.5 -07.4946 26262.7
 26 03 2013  07 16  -21.0447 26038.2 -03425.5 -07.4945 26262.5
 26 03 2013  07 17  -21.0449 26038.4 -03425.6 -07.4947 26262.7
 26 03 2013  07 18  -21.0449 26038.4 -03425.6 -07.4947 26262.7
 26 03 2013  07 19  -21.0449 26038.2 -03425.5 -07.4947 26262.6
 26 03 2013  07 20  -21.0450 26038.2 -03425.6 -07.4947 26262.6
 26 03 2013  07 21  -21.0450 26038.3 -03425.6 -07.4948 26262.7
 26 03 2013  07 22  -21.0450 26038.4 -03425.7 -07.4950 26262.7
 26 03 2013  07 23  -21.0450 26038.5 -03425.8 -07.4951 26262.8
 26 03 2013  07 24  -21.0451 26038.6 -03425.9 -07.4953 26263.0
 26 03 2013  07 25  -21.0450 26038.6 -03425.9 -07.4953 26263.0
 26 03 2013  07 26  -21.0450 26038.7 -03425.9 -07.4954 26263.2
 26 03 2013  07 27  -21.0449 26038.8 -03426.0 -07.4954 26263.2
 26 03 2013  07 28  -21.0446 26038.8 -03426.0 -07.4955 26263.2
 26 03 2013  07 29  -21.0445 26038.8 -03426.0 -07.4954 26263.3
 26 03 2013  07 30  -21.0445 26038.9 -03425.9 -07.4954 26263.3
 26 03 2013  07 31  -21.0445 26038.8 -03425.9 -07.4953 26263.2
 26 03 2013  07 32  -21.0445 26038.8 -03425.9 -07.4953 26263.2
 26 03 2013  07 33  -21.0446 26038.8 -03425.9 -07.4953 26263.2
 26 03 2013  07 34  -21.0446 26038.7 -03425.9 -07.4952 26263.1
 26 03 2013  07 35  -21.0447 26038.7 -03425.9 -07.4952 26263.1
 26 03 2013  07 36  -21.0450 26038.8 -03425.9 -07.4953 26263.2
 26 03 2013  07 37  -21.0450 26038.8 -03425.9 -07.4953 26263.2
 26 03 2013  07 38  -21.0451 26038.9 -03426.0 -07.4954 26263.3
 26 03 2013  07 39  -21.0450 26039.0 -03426.0 -07.4954 26263.4
 26 03 2013  07 40  -21.0449 26039.1 -03426.1 -07.4955 26263.5
 26 03 2013  07 41  -21.0447 26039.1 -03426.0 -07.4955 26263.5
 26 03 2013  07 42  -21.0446 26038.9 -03425.9 -07.4954 26263.3
 26 03 2013  07 43  -21.0444 26039.0 -03426.0 -07.4954 26263.4
 26 03 2013  07 44  -21.0443 26039.1 -03426.0 -07.4955 26263.5
 26 03 2013  07 45  -21.0442 26038.9 -03425.9 -07.4953 26263.3
 26 03 2013  07 46  -21.0442 26039.0 -03426.0 -07.4954 26263.4
 26 03 2013  07 47  -21.0440 26038.9 -03425.9 -07.4953 26263.3
 26 03 2013  07 48  -21.0439 26039.0 -03425.9 -07.4952 26263.4
 26 03 2013  07 49  -21.0439 26039.1 -03426.0 -07.4954 26263.5
 26 03 2013  07 50  -21.0439 26039.0 -03426.0 -07.4954 26263.4
 26 03 2013  07 51  -21.0439 26039.1 -03426.0 -07.4954 26263.5
 26 03 2013  07 52  -21.0439 26039.2 -03426.0 -07.4955 26263.6
 26 03 2013  07 53  -21.0441 26039.1 -03426.0 -07.4954 26263.5
 26 03 2013  07 54  -21.0441 26039.2 -03426.1 -07.4955 26263.6
 26 03 2013  07 55  -21.0440 26039.2 -03426.1 -07.4956 26263.6
 26 03 2013  07 56  -21.0438 26039.2 -03426.1 -07.4955 26263.6
 26 03 2013  07 57  -21.0437 26039.2 -03426.1 -07.4955 26263.7
 26 03 2013  07 58  -21.0435 26039.3 -03426.1 -07.4955 26263.8
 26 03 2013  07 59  -21.0436 26039.2 -03426.0 -07.4955 26263.6
 26 03 2013  08 00  -21.0436 26039.3 -03426.0 -07.4954 26263.7
 26 03 2013  08 01  -21.0435 26039.3 -03426.0 -07.4954 26263.7
 26 03 2013  08 02  -21.0434 26039.3 -03426.0 -07.4954 26263.8
 26 03 2013  08 03  -21.0432 26039.5 -03426.1 -07.4956 26263.9
 26 03 2013  08 04  -21.0431 26039.6 -03426.2 -07.4957 26264.1
 26 03 2013  08 05  -21.0430 26039.7 -03426.2 -07.4958 26264.2
 26 03 2013  08 06  -21.0427 26039.9 -03426.3 -07.4958 26264.3
 26 03 2013  08 07  -21.0423 26039.9 -03426.2 -07.4957 26264.3
 26 03 2013  08 08  -21.0418 26039.9 -03426.2 -07.4955 26264.3
 26 03 2013  08 09  -21.0421 26039.7 -03426.1 -07.4954 26264.2
 26 03 2013  08 10  -21.0419 26039.9 -03426.2 -07.4955 26264.4
 26 03 2013  08 11  -21.0419 26039.9 -03426.2 -07.4955 26264.3
 26 03 2013  08 12  -21.0420 26040.0 -03426.2 -07.4956 26264.4
 26 03 2013  08 13  -21.0418 26040.1 -03426.3 -07.4957 26264.6
 26 03 2013  08 14  -21.0416 26040.1 -03426.2 -07.4955 26264.5
 26 03 2013  08 15  -21.0416 26040.0 -03426.1 -07.4954 26264.5
 26 03 2013  08 16  -21.0415 26040.1 -03426.1 -07.4955 26264.5
 26 03 2013  08 17  -21.0415 26040.1 -03426.1 -07.4954 26264.5
 26 03 2013  08 18  -21.0416 26040.1 -03426.2 -07.4955 26264.5
 26 03 2013  08 19  -21.0417 26040.2 -03426.2 -07.4955 26264.7
 26 03 2013  08 20  -21.0418 26040.2 -03426.2 -07.4956 26264.7
 26 03 2013  08 21  -21.0418 26040.2 -03426.2 -07.4955 26264.6
 26 03 2013  08 22  -21.0417 26040.4 -03426.2 -07.4955 26264.8
 26 03 2013  08 23  -21.0418 26040.4 -03426.2 -07.4955 26264.8
 26 03 2013  08 24  -21.0416 26040.5 -03426.3 -07.4956 26264.9
 26 03 2013  08 25  -21.0415 26040.5 -03426.3 -07.4956 26265.0
 26 03 2013  08 26  -21.0413 26040.6 -03426.3 -07.4956 26265.0
 26 03 2013  08 27  -21.0411 26040.6 -03426.2 -07.4955 26265.0
 26 03 2013  08 28  -21.0410 26040.6 -03426.2 -07.4954 26265.0
 26 03 2013  08 29  -21.0410 26040.5 -03426.1 -07.4952 26264.9
 26 03 2013  08 30  -21.0408 26040.5 -03426.1 -07.4953 26265.0
 26 03 2013  08 31  -21.0408 26040.5 -03426.1 -07.4953 26264.9
 26 03 2013  08 32  -21.0407 26040.4 -03426.1 -07.4953 26264.9
 26 03 2013  08 33  -21.0407 26040.3 -03426.0 -07.4951 26264.7
 26 03 2013  08 34  -21.0406 26040.2 -03426.0 -07.4951 26264.6
 26 03 2013  08 35  -21.0406 26040.2 -03426.0 -07.4950 26264.6
 26 03 2013  08 36  -21.0404 26040.2 -03425.9 -07.4950 26264.6
 26 03 2013  08 37  -21.0404 26040.2 -03426.0 -07.4950 26264.6
 26 03 2013  08 38  -21.0403 26040.2 -03426.0 -07.4951 26264.6
 26 03 2013  08 39  -21.0402 26040.2 -03426.0 -07.4952 26264.6
 26 03 2013  08 40  -21.0402 26040.3 -03426.1 -07.4952 26264.7
 26 03 2013  08 41  -21.0401 26040.2 -03426.0 -07.4951 26264.6
 26 03 2013  08 42  -21.0400 26040.2 -03426.0 -07.4950 26264.6
 26 03 2013  08 43  -21.0399 26040.2 -03426.0 -07.4950 26264.6
 26 03 2013  08 44  -21.0398 26040.2 -03426.0 -07.4950 26264.6
 26 03 2013  08 45  -21.0397 26040.2 -03426.0 -07.4952 26264.7
 26 03 2013  08 46  -21.0396 26040.2 -03426.0 -07.4952 26264.6
 26 03 2013  08 47  -21.0394 26040.1 -03426.0 -07.4951 26264.5
 26 03 2013  08 48  -21.0393 26039.9 -03425.9 -07.4950 26264.3
 26 03 2013  08 49  -21.0392 26039.8 -03425.9 -07.4950 26264.2
 26 03 2013  08 50  -21.0390 26039.9 -03426.0 -07.4951 26264.3
 26 03 2013  08 51  -21.0389 26039.9 -03426.0 -07.4953 26264.4
 26 03 2013  08 52  -21.0386 26039.8 -03426.0 -07.4953 26264.2
 26 03 2013  08 53  -21.0385 26039.8 -03426.1 -07.4954 26264.3
 26 03 2013  08 54  -21.0382 26040.0 -03426.1 -07.4954 26264.4
 26 03 2013  08 55  -21.0382 26039.8 -03426.2 -07.4956 26264.3
 26 03 2013  08 56  -21.0382 26039.8 -03426.3 -07.4958 26264.3
 26 03 2013  08 57  -21.0382 26039.9 -03426.4 -07.4960 26264.4
 26 03 2013  08 58  -21.0385 26039.9 -03426.4 -07.4961 26264.4
 26 03 2013  08 59  -21.0388 26040.0 -03426.6 -07.4964 26264.5
 26 03 2013  09 00  -21.0390 26040.0 -03426.6 -07.4965 26264.5
 26 03 2013  09 01  -21.0391 26040.0 -03426.6 -07.4965 26264.5
 26 03 2013  09 02  -21.0391 26040.0 -03426.7 -07.4966 26264.5
 26 03 2013  09 03  -21.0393 26040.0 -03426.7 -07.4967 26264.6
 26 03 2013  09 04  -21.0395 26040.1 -03426.8 -07.4968 26264.6
 26 03 2013  09 05  -21.0398 26040.2 -03426.9 -07.4970 26264.8
 26 03 2013  09 06  -21.0400 26040.4 -03426.9 -07.4971 26264.9
 26 03 2013  09 07  -21.0401 26040.4 -03426.9 -07.4970 26264.9
 26 03 2013  09 08  -21.0402 26040.4 -03426.9 -07.4970 26264.9
 26 03 2013  09 09  -21.0402 26040.4 -03426.9 -07.4971 26264.9
 26 03 2013  09 10  -21.0403 26040.3 -03426.9 -07.4970 26264.9
 26 03 2013  09 11  -21.0406 26040.4 -03426.9 -07.4971 26264.9
 26 03 2013  09 12  -21.0408 26040.4 -03426.9 -07.4971 26264.9
 26 03 2013  09 13  -21.0410 26040.3 -03426.9 -07.4970 26264.8
 26 03 2013  09 14  -21.0410 26040.3 -03426.9 -07.4970 26264.9
 26 03 2013  09 15  -21.0407 26040.2 -03426.8 -07.4969 26264.7
 26 03 2013  09 16  -21.0409 26040.1 -03426.8 -07.4969 26264.6
 26 03 2013  09 17  -21.0413 26040.2 -03426.9 -07.4971 26264.7
 26 03 2013  09 18  -21.0417 26040.3 -03427.0 -07.4973 26264.9
 26 03 2013  09 19  -21.0422 26040.4 -03427.1 -07.4975 26264.9
 26 03 2013  09 20  -21.0424 26040.5 -03427.2 -07.4976 26265.1
 26 03 2013  09 21  -21.0425 26040.4 -03427.1 -07.4974 26265.0
 26 03 2013  09 22  -21.0426 26040.3 -03427.1 -07.4974 26264.9
 26 03 2013  09 23  -21.0425 26040.4 -03427.2 -07.4977 26264.9
 26 03 2013  09 24  -21.0426 26040.3 -03427.2 -07.4977 26264.9
 26 03 2013  09 25  -21.0429 26040.3 -03427.3 -07.4979 26264.9
 26 03 2013  09 26  -21.0427 26040.2 -03427.3 -07.4979 26264.8
 26 03 2013  09 27  -21.0428 26040.4 -03427.4 -07.4980 26265.0
 26 03 2013  09 28  -21.0431 26040.4 -03427.4 -07.4981 26265.0
 26 03 2013  09 29  -21.0429 26040.8 -03427.6 -07.4984 26265.4
 26 03 2013  09 30  -21.0437 26040.8 -03427.6 -07.4984 26265.4
 26 03 2013  09 31  -21.0436 26040.9 -03427.7 -07.4985 26265.5
 26 03 2013  09 32  -21.0439 26040.9 -03427.7 -07.4985 26265.5
 26 03 2013  09 33  -21.0440 26040.8 -03427.6 -07.4985 26265.4
 26 03 2013  09 34  -21.0443 26040.8 -03427.7 -07.4985 26265.4
 26 03 2013  09 35  -21.0449 26041.2 -03427.9 -07.4988 26265.8
 26 03 2013  09 36  -21.0448 26041.5 -03428.0 -07.4991 26266.2
 26 03 2013  09 37  -21.0452 26041.5 -03428.0 -07.4991 26266.2
 26 03 2013  09 38  -21.0450 26041.7 -03428.1 -07.4991 26266.4
 26 03 2013  09 39  -21.0456 26041.7 -03428.0 -07.4991 26266.4
 26 03 2013  09 40  -21.0450 26041.9 -03428.1 -07.4992 26266.6
 26 03 2013  09 41  -21.0455 26041.9 -03428.2 -07.4993 26266.6
 26 03 2013  09 42  -21.0458 26042.4 -03428.4 -07.4996 26267.1
 26 03 2013  09 43  -21.0458 26042.4 -03428.4 -07.4996 26267.1
 26 03 2013  09 44  -21.0460 26042.6 -03428.4 -07.4996 26267.3
 26 03 2013  09 45  -21.0461 26042.6 -03428.4 -07.4995 26267.3
 26 03 2013  09 46  -21.0462 26042.8 -03428.4 -07.4995 26267.5
 26 03 2013  09 47  -21.0468 26042.9 -03428.4 -07.4995 26267.6
 26 03 2013  09 48  -21.0468 26043.0 -03428.4 -07.4994 26267.7
 26 03 2013  09 49  -21.0468 26043.1 -03428.3 -07.4993 26267.8
 26 03 2013  09 50  -21.0469 26043.2 -03428.3 -07.4992 26267.9
 26 03 2013  09 51  -21.0467 26043.2 -03428.2 -07.4991 26267.9
 26 03 2013  09 52  -21.0467 26043.3 -03428.2 -07.4991 26268.0
 26 03 2013  09 53  -21.0470 26043.5 -03428.2 -07.4990 26268.1
 26 03 2013  09 54  -21.0472 26043.7 -03428.3 -07.4990 26268.4
 26 03 2013  09 55  -21.0480 26044.1 -03428.3 -07.4990 26268.8
 26 03 2013  09 56  -21.0486 26044.4 -03428.4 -07.4990 26269.1
 26 03 2013  09 57  -21.0490 26044.6 -03428.3 -07.4988 26269.3
 26 03 2013  09 58  -21.0491 26044.6 -03428.1 -07.4984 26269.2
 26 03 2013  09 59  -21.0491 26044.5 -03428.0 -07.4982 26269.2
 26 03 2013  10 00  -21.0490 26044.4 -03427.9 -07.4980 26269.0
 26 03 2013  10 01  -21.0490 26044.1 -03427.8 -07.4979 26268.7
 26 03 2013  10 02  -21.0495 26043.8 -03427.8 -07.4979 26268.4
 26 03 2013  10 03  -21.0496 26043.6 -03427.7 -07.4979 26268.2
 26 03 2013  10 04  -21.0498 26043.5 -03427.7 -07.4978 26268.1
 26 03 2013  10 05  -21.0504 26043.6 -03427.8 -07.4980 26268.2
 26 03 2013  10 06  -21.0502 26043.6 -03427.8 -07.4981 26268.3
 26 03 2013  10 07  -21.0508 26043.6 -03427.8 -07.4981 26268.3
 26 03 2013  10 08  -21.0514 26043.6 -03427.9 -07.4982 26268.3
 26 03 2013  10 09  -21.0517 26043.7 -03427.8 -07.4981 26268.3
 26 03 2013  10 10  -21.0521 26043.7 -03427.8 -07.4980 26268.3
 26 03 2013  10 11  -21.0523 26043.7 -03427.8 -07.4981 26268.3
 26 03 2013  10 12  -21.0524 26043.7 -03427.8 -07.4981 26268.3
 26 03 2013  10 13  -21.0528 26043.7 -03427.8 -07.4981 26268.3
 26 03 2013  10 14  -21.0530 26043.8 -03427.9 -07.4981 26268.4
 26 03 2013  10 15  -21.0531 26043.8 -03427.9 -07.4982 26268.5
 26 03 2013  10 16  -21.0535 26043.9 -03428.0 -07.4983 26268.6
 26 03 2013  10 17  -21.0533 26044.0 -03427.9 -07.4982 26268.6
 26 03 2013  10 18  -21.0535 26044.0 -03427.9 -07.4980 26268.6
 26 03 2013  10 19  -21.0535 26044.1 -03427.9 -07.4981 26268.7
 26 03 2013  10 20  -21.0536 26044.3 -03427.9 -07.4981 26268.9
 26 03 2013  10 21  -21.0537 26044.4 -03427.9 -07.4981 26269.0
 26 03 2013  10 22  -21.0536 26044.5 -03428.0 -07.4981 26269.2
 26 03 2013  10 23  -21.0537 26044.6 -03427.9 -07.4980 26269.2
 26 03 2013  10 24  -21.0541 26044.7 -03427.9 -07.4980 26269.3
 26 03 2013  10 25  -21.0540 26045.0 -03428.0 -07.4981 26269.6
 26 03 2013  10 26  -21.0540 26045.1 -03427.9 -07.4979 26269.7
 26 03 2013  10 27  -21.0541 26045.4 -03428.0 -07.4980 26270.0
 26 03 2013  10 28  -21.0540 26045.7 -03428.0 -07.4980 26270.3
 26 03 2013  10 29  -21.0544 26045.9 -03428.0 -07.4979 26270.5
 26 03 2013  10 30  -21.0547 26046.2 -03428.1 -07.4979 26270.8
 26 03 2013  10 31  -21.0551 26046.5 -03428.1 -07.4978 26271.2
 26 03 2013  10 32  -21.0554 26046.8 -03428.1 -07.4977 26271.4
 26 03 2013  10 33  -21.0558 26047.0 -03428.0 -07.4974 26271.6
 26 03 2013  10 34  -21.0558 26047.3 -03428.0 -07.4973 26271.9
 26 03 2013  10 35  -21.0560 26047.5 -03427.9 -07.4972 26272.1
 26 03 2013  10 36  -21.0564 26047.6 -03427.9 -07.4970 26272.2
 26 03 2013  10 37  -21.0566 26047.7 -03427.9 -07.4970 26272.3
 26 03 2013  10 38  -21.0569 26048.0 -03427.9 -07.4971 26272.6
 26 03 2013  10 39  -21.0571 26048.4 -03428.1 -07.4973 26273.1
 26 03 2013  10 40  -21.0573 26049.0 -03428.2 -07.4973 26273.6
 26 03 2013  10 41  -21.0574 26049.3 -03428.1 -07.4971 26273.9
 26 03 2013  10 42  -21.0577 26049.7 -03428.1 -07.4970 26274.3
 26 03 2013  10 43  -21.0582 26049.8 -03428.0 -07.4967 26274.4
 26 03 2013  10 44  -21.0587 26050.0 -03427.9 -07.4965 26274.6
 26 03 2013  10 45  -21.0589 26050.2 -03427.8 -07.4962 26274.7
 26 03 2013  10 46  -21.0592 26050.3 -03427.7 -07.4960 26274.9
 26 03 2013  10 47  -21.0597 26050.4 -03427.6 -07.4957 26274.9
 26 03 2013  10 48  -21.0604 26050.3 -03427.5 -07.4954 26274.8
 26 03 2013  10 49  -21.0608 26050.4 -03427.4 -07.4952 26274.9
 26 03 2013  10 50  -21.0613 26050.6 -03427.4 -07.4951 26275.0
 26 03 2013  10 51  -21.0616 26050.8 -03427.4 -07.4950 26275.3
 26 03 2013  10 52  -21.0616 26051.2 -03427.4 -07.4950 26275.7
 26 03 2013  10 53  -21.0618 26051.3 -03427.4 -07.4949 26275.8
 26 03 2013  10 54  -21.0619 26051.5 -03427.3 -07.4947 26276.0
 26 03 2013  10 55  -21.0622 26051.5 -03427.2 -07.4946 26276.0
 26 03 2013  10 56  -21.0625 26051.6 -03427.1 -07.4943 26276.1
 26 03 2013  10 57  -21.0629 26051.6 -03427.0 -07.4941 26276.0
 26 03 2013  10 58  -21.0637 26051.5 -03427.0 -07.4940 26276.0
 26 03 2013  10 59  -21.0647 26051.7 -03427.1 -07.4941 26276.2
 26 03 2013  11 00  -21.0654 26051.9 -03427.1 -07.4941 26276.4
 26 03 2013  11 01  -21.0657 26052.0 -03427.0 -07.4939 26276.5
 26 03 2013  11 02  -21.0658 26052.1 -03426.9 -07.4936 26276.6
 26 03 2013  11 03  -21.0657 26052.2 -03426.8 -07.4935 26276.6
 26 03 2013  11 04  -21.0659 26052.4 -03426.8 -07.4933 26276.8
 26 03 2013  11 05  -21.0662 26052.4 -03426.7 -07.4931 26276.8
 26 03 2013  11 06  -21.0661 26052.4 -03426.6 -07.4929 26276.8
 26 03 2013  11 07  -21.0663 26052.6 -03426.6 -07.4928 26277.0
 26 03 2013  11 08  -21.0666 26052.6 -03426.5 -07.4926 26277.0
 26 03 2013  11 09  -21.0668 26052.8 -03426.4 -07.4925 26277.1
 26 03 2013  11 10  -21.0672 26052.8 -03426.4 -07.4923 26277.2
 26 03 2013  11 11  -21.0677 26053.0 -03426.3 -07.4922 26277.3
 26 03 2013  11 12  -21.0679 26053.4 -03426.4 -07.4922 26277.8
 26 03 2013  11 13  -21.0681 26053.6 -03426.4 -07.4921 26277.9
 26 03 2013  11 14  -21.0682 26053.7 -03426.3 -07.4919 26278.0
 26 03 2013  11 15  -21.0685 26054.0 -03426.2 -07.4917 26278.3
 26 03 2013  11 16  -21.0688 26054.2 -03426.2 -07.4915 26278.6
 26 03 2013  11 17  -21.0689 26054.7 -03426.2 -07.4914 26279.0
 26 03 2013  11 18  -21.0689 26054.9 -03426.1 -07.4912 26279.2
 26 03 2013  11 19  -21.0686 26055.2 -03426.0 -07.4908 26279.5
 26 03 2013  11 20  -21.0685 26055.7 -03426.0 -07.4907 26280.0
 26 03 2013  11 21  -21.0682 26056.2 -03426.0 -07.4905 26280.5
 26 03 2013  11 22  -21.0685 26056.7 -03425.9 -07.4902 26280.9
 26 03 2013  11 23  -21.0688 26056.8 -03425.7 -07.4897 26281.1
 26 03 2013  11 24  -21.0695 26057.2 -03425.6 -07.4894 26281.4
 26 03 2013  11 25  -21.0699 26057.4 -03425.4 -07.4889 26281.6
 26 03 2013  11 26  -21.0700 26057.7 -03425.3 -07.4885 26281.8
 26 03 2013  11 27  -21.0699 26057.5 -03424.9 -07.4879 26281.7
 26 03 2013  11 28  -21.0694 26057.7 -03424.8 -07.4874 26281.8
 26 03 2013  11 29  -21.0692 26058.0 -03424.7 -07.4872 26282.1
 26 03 2013  11 30  -21.0694 26058.0 -03424.5 -07.4868 26282.0
 26 03 2013  11 31  -21.0698 26058.1 -03424.5 -07.4867 26282.1
 26 03 2013  11 32  -21.0702 26058.2 -03424.4 -07.4866 26282.3
 26 03 2013  11 33  -21.0701 26058.7 -03424.5 -07.4867 26282.7
 26 03 2013  11 34  -21.0698 26059.1 -03424.5 -07.4866 26283.2
 26 03 2013  11 35  -21.0695 26059.2 -03424.4 -07.4862 26283.3
 26 03 2013  11 36  -21.0692 26059.5 -03424.3 -07.4859 26283.5
 26 03 2013  11 37  -21.0694 26059.2 -03424.0 -07.4854 26283.2
 26 03 2013  11 38  -21.0700 26059.1 -03424.0 -07.4853 26283.1
 26 03 2013  11 39  -21.0703 26059.6 -03424.1 -07.4855 26283.5
 26 03 2013  11 40  -21.0705 26059.5 -03424.0 -07.4854 26283.5
 26 03 2013  11 41  -21.0705 26060.1 -03424.2 -07.4855 26284.1
 26 03 2013  11 42  -21.0704 26060.3 -03424.2 -07.4855 26284.3
 26 03 2013  11 43  -21.0709 26060.4 -03424.1 -07.4853 26284.4
 26 03 2013  11 44  -21.0709 26061.3 -03424.4 -07.4856 26285.3
 26 03 2013  11 45  -21.0710 26061.7 -03424.3 -07.4854 26285.7
 26 03 2013  11 46  -21.0714 26061.7 -03424.2 -07.4850 26285.7
 26 03 2013  11 47  -21.0715 26062.3 -03424.3 -07.4851 26286.2
 26 03 2013  11 48  -21.0718 26062.5 -03424.2 -07.4849 26286.5
 26 03 2013  11 49  -21.0723 26062.4 -03424.0 -07.4845 26286.4
 26 03 2013  11 50  -21.0725 26063.2 -03424.2 -07.4848 26287.2
 26 03 2013  11 51  -21.0726 26063.5 -03424.2 -07.4846 26287.5
 26 03 2013  11 52  -21.0726 26064.1 -03424.3 -07.4845 26288.1
 26 03 2013  11 53  -21.0730 26064.4 -03424.2 -07.4843 26288.3
 26 03 2013  11 54  -21.0731 26064.7 -03424.1 -07.4841 26288.6
 26 03 2013  11 55  -21.0733 26064.4 -03423.9 -07.4836 26288.4
 26 03 2013  11 56  -21.0736 26065.6 -03424.2 -07.4839 26289.5
 26 03 2013  11 57  -21.0736 26065.4 -03423.9 -07.4834 26289.3
 26 03 2013  11 58  -21.0734 26066.2 -03424.0 -07.4834 26290.1
 26 03 2013  11 59  -21.0734 26066.7 -03424.0 -07.4832 26290.6
 26 03 2013  12 00  -21.0737 26066.9 -03423.9 -07.4830 26290.8
 26 03 2013  12 01  -21.0742 26067.2 -03423.8 -07.4827 26291.1
 26 03 2013  12 02  -21.0743 26067.6 -03423.7 -07.4824 26291.5
 26 03 2013  12 03  -21.0747 26068.0 -03423.7 -07.4822 26291.9
 26 03 2013  12 04  -21.0746 26068.7 -03423.8 -07.4822 26292.5
 26 03 2013  12 05  -21.0749 26068.8 -03423.6 -07.4817 26292.6
 26 03 2013  12 06  -21.0748 26069.2 -03423.5 -07.4815 26293.0
 26 03 2013  12 07  -21.0750 26070.0 -03423.7 -07.4816 26293.8
 26 03 2013  12 08  -21.0746 26070.3 -03423.5 -07.4812 26294.1
 26 03 2013  12 09  -21.0747 26070.8 -03423.5 -07.4809 26294.6
 26 03 2013  12 10  -21.0747 26070.6 -03423.2 -07.4803 26294.4
 26 03 2013  12 11  -21.0747 26070.9 -03423.2 -07.4802 26294.7
 26 03 2013  12 12  -21.0745 26071.5 -03423.2 -07.4802 26295.3
 26 03 2013  12 13  -21.0741 26072.3 -03423.3 -07.4801 26296.1
 26 03 2013  12 14  -21.0743 26072.2 -03423.1 -07.4797 26296.0
 26 03 2013  12 15  -21.0740 26072.5 -03423.0 -07.4795 26296.2
 26 03 2013  12 16  -21.0740 26073.1 -03423.1 -07.4794 26296.9
 26 03 2013  12 17  -21.0736 26073.2 -03422.9 -07.4791 26297.0
 26 03 2013  12 18  -21.0735 26073.8 -03423.0 -07.4791 26297.6
 26 03 2013  12 19  -21.0731 26074.0 -03422.9 -07.4788 26297.8
 26 03 2013  12 20  -21.0730 26074.3 -03422.9 -07.4787 26298.0
 26 03 2013  12 21  -21.0727 26074.6 -03422.9 -07.4786 26298.3
 26 03 2013  12 22  -21.0730 26074.9 -03422.9 -07.4785 26298.6
 26 03 2013  12 23  -21.0726 26075.5 -03423.0 -07.4786 26299.2
 26 03 2013  12 24  -21.0726 26075.9 -03423.0 -07.4784 26299.6
 26 03 2013  12 25  -21.0726 26076.3 -03423.0 -07.4783 26300.0
 26 03 2013  12 26  -21.0723 26076.9 -03423.0 -07.4782 26300.6
 26 03 2013  12 27  -21.0723 26076.9 -03422.8 -07.4778 26300.6
 26 03 2013  12 28  -21.0725 26076.8 -03422.7 -07.4776 26300.5
 26 03 2013  12 29  -21.0726 26077.4 -03422.8 -07.4776 26301.1
 26 03 2013  12 30  -21.0724 26078.1 -03422.9 -07.4776 26301.8
 26 03 2013  12 31  -21.0723 26078.3 -03422.7 -07.4772 26302.0
 26 03 2013  12 32  -21.0725 26078.1 -03422.4 -07.4766 26301.7
 26 03 2013  12 33  -21.0722 26079.1 -03422.7 -07.4769 26302.7
 26 03 2013  12 34  -21.0725 26079.4 -03422.6 -07.4766 26303.0
 26 03 2013  12 35  -21.0725 26079.0 -03422.3 -07.4760 26302.6
 26 03 2013  12 36  -21.0726 26080.5 -03422.7 -07.4765 26304.1
 26 03 2013  12 37  -21.0726 26080.8 -03422.6 -07.4761 26304.4
 26 03 2013  12 38  -21.0725 26080.7 -03422.3 -07.4755 26304.3
 26 03 2013  12 39  -21.0723 26081.6 -03422.5 -07.4757 26305.2
 26 03 2013  12 40  -21.0723 26081.4 -03422.1 -07.4750 26305.0
 26 03 2013  12 41  -21.0722 26081.5 -03421.9 -07.4746 26305.0
 26 03 2013  12 42  -21.0721 26082.0 -03422.0 -07.4746 26305.6
 26 03 2013  12 43  -21.0718 26082.0 -03421.8 -07.4742 26305.5
 26 03 2013  12 44  -21.0718 26082.4 -03421.8 -07.4741 26305.9
 26 03 2013  12 45  -21.0716 26082.5 -03421.8 -07.4739 26306.0
 26 03 2013  12 46  -21.0718 26083.2 -03421.9 -07.4740 26306.7
 26 03 2013  12 47  -21.0717 26082.8 -03421.5 -07.4733 26306.2
 26 03 2013  12 48  -21.0718 26083.2 -03421.7 -07.4736 26306.6
 26 03 2013  12 49  -21.0717 26083.9 -03421.8 -07.4737 26307.4
 26 03 2013  12 50  -21.0717 26083.9 -03421.6 -07.4733 26307.4
 26 03 2013  12 51  -21.0717 26084.0 -03421.5 -07.4730 26307.4
 26 03 2013  12 52  -21.0721 26084.4 -03421.6 -07.4730 26307.8
 26 03 2013  12 53  -21.0720 26084.1 -03421.3 -07.4725 26307.5
 26 03 2013  12 54  -21.0722 26084.4 -03421.4 -07.4725 26307.9
 26 03 2013  12 55  -21.0721 26085.2 -03421.6 -07.4727 26308.7
 26 03 2013  12 56  -21.0723 26084.4 -03421.0 -07.4718 26307.7
 26 03 2013  12 57  -21.0726 26085.5 -03421.4 -07.4724 26308.9
 26 03 2013  12 58  -21.0729 26085.7 -03421.3 -07.4721 26309.1
 26 03 2013  12 59  -21.0728 26085.9 -03421.3 -07.4719 26309.3
 26 03 2013  13 00  -21.0730 26086.3 -03421.3 -07.4718 26309.7
 26 03 2013  13 01  -21.0725 26086.1 -03421.0 -07.4713 26309.5
 26 03 2013  13 02  -21.0728 26086.9 -03421.2 -07.4716 26310.3
 26 03 2013  13 03  -21.0732 26086.7 -03421.0 -07.4710 26310.1
 26 03 2013  13 04  -21.0730 26086.7 -03420.9 -07.4708 26310.0
 26 03 2013  13 05  -21.0733 26087.2 -03420.9 -07.4708 26310.5
 26 03 2013  13 06  -21.0734 26086.9 -03420.6 -07.4702 26310.2
 26 03 2013  13 07  -21.0736 26086.7 -03420.5 -07.4701 26310.0
 26 03 2013  13 08  -21.0737 26087.9 -03420.9 -07.4705 26311.2
 26 03 2013  13 09  -21.0737 26087.6 -03420.6 -07.4699 26310.9
 26 03 2013  13 10  -21.0739 26088.2 -03420.7 -07.4701 26311.5
 26 03 2013  13 11  -21.0739 26088.2 -03420.6 -07.4698 26311.5
 26 03 2013  13 12  -21.0740 26089.1 -03420.8 -07.4699 26312.4
 26 03 2013  13 13  -21.0740 26088.8 -03420.4 -07.4692 26312.1
 26 03 2013  13 14  -21.0739 26088.8 -03420.3 -07.4689 26312.1
 26 03 2013  13 15  -21.0739 26088.9 -03420.1 -07.4686 26312.1
 26 03 2013  13 16  -21.0738 26088.5 -03419.9 -07.4682 26311.7
 26 03 2013  13 17  -21.0734 26088.7 -03419.9 -07.4681 26311.9
 26 03 2013  13 18  -21.0736 26089.1 -03419.9 -07.4681 26312.3
 26 03 2013  13 19  -21.0733 26089.3 -03419.8 -07.4679 26312.5
 26 03 2013  13 20  -21.0729 26089.1 -03419.6 -07.4675 26312.3
 26 03 2013  13 21  -21.0727 26090.0 -03419.9 -07.4678 26313.2
 26 03 2013  13 22  -21.0719 26089.9 -03419.4 -07.4668 26313.0
 26 03 2013  13 23  -21.0713 26089.9 -03418.9 -07.4657 26313.0
 26 03 2013  13 24  -21.0728 26090.2 -03419.0 -07.4657 26313.3
 26 03 2013  13 25  -21.0716 26089.6 -03418.7 -07.4654 26312.6
 26 03 2013  13 26  -21.0708 26089.1 -03418.4 -07.4647 26312.1
 26 03 2013  13 27  -21.0707 26089.2 -03418.4 -07.4648 26312.2
 26 03 2013  13 28  -21.0710 26089.2 -03418.6 -07.4652 26312.2
 26 03 2013  13 29  -21.0700 26090.0 -03418.8 -07.4655 26313.1
 26 03 2013  13 30  -21.0705 26090.1 -03418.8 -07.4653 26313.1
 26 03 2013  13 31  -21.0705 26090.8 -03418.7 -07.4650 26313.8
 26 03 2013  13 32  -21.0723 26089.9 -03418.4 -07.4647 26312.9
 26 03 2013  13 33  -21.0689 26090.8 -03417.9 -07.4632 26313.8
 26 03 2013  13 34  -21.0684 26090.7 -03418.4 -07.4643 26313.7
 26 03 2013  13 35  -21.0680 26091.0 -03418.4 -07.4644 26314.0
 26 03 2013  13 36  -21.0674 26090.4 -03418.1 -07.4638 26313.3
 26 03 2013  13 37  -21.0672 26091.1 -03418.3 -07.4641 26314.1
 26 03 2013  13 38  -21.0669 26091.5 -03418.3 -07.4640 26314.4
 26 03 2013  13 39  -21.0666 26091.5 -03418.1 -07.4636 26314.4
 26 03 2013  13 40  -21.0655 26090.4 -03417.6 -07.4627 26313.3
 26 03 2013  13 41  -21.0650 26091.0 -03417.9 -07.4632 26314.0
 26 03 2013  13 42  -21.0643 26091.6 -03418.1 -07.4634 26314.6
 26 03 2013  13 43  -21.0638 26091.7 -03418.0 -07.4632 26314.6
 26 03 2013  13 44  -21.0632 26091.8 -03418.0 -07.4631 26314.7
 26 03 2013  13 45  -21.0623 26091.6 -03417.8 -07.4629 26314.5
 26 03 2013  13 46  -21.0620 26092.2 -03418.1 -07.4634 26315.1
 26 03 2013  13 47  -21.0619 26092.8 -03418.3 -07.4636 26315.7
 26 03 2013  13 48  -21.0614 26092.8 -03418.2 -07.4634 26315.8
 26 03 2013  13 49  -21.0609 26093.3 -03418.3 -07.4635 26316.3
 26 03 2013  13 50  -21.0607 26093.7 -03418.4 -07.4634 26316.6
 26 03 2013  13 51  -21.0600 26093.5 -03418.2 -07.4631 26316.5
 26 03 2013  13 52  -21.0596 26094.0 -03418.3 -07.4633 26316.9
 26 03 2013  13 53  -21.0593 26094.3 -03418.3 -07.4632 26317.2
 26 03 2013  13 54  -21.0586 26093.9 -03418.1 -07.4629 26316.8
 26 03 2013  13 55  -21.0580 26094.5 -03418.3 -07.4631 26317.5
 26 03 2013  13 56  -21.0572 26094.5 -03418.3 -07.4631 26317.5
 26 03 2013  13 57  -21.0564 26094.6 -03418.3 -07.4631 26317.5
 26 03 2013  13 58  -21.0560 26094.5 -03418.3 -07.4631 26317.5
 26 03 2013  13 59  -21.0554 26094.6 -03418.4 -07.4633 26317.6
 26 03 2013  14 00  -21.0548 26094.8 -03418.5 -07.4635 26317.7
 26 03 2013  14 01  -21.0544 26094.8 -03418.6 -07.4636 26317.8
 26 03 2013  14 02  -21.0541 26095.3 -03418.9 -07.4641 26318.3
 26 03 2013  14 03  -21.0539 26096.2 -03419.2 -07.4646 26319.2
 26 03 2013  14 04  -21.0536 26096.5 -03419.2 -07.4645 26319.5
 26 03 2013  14 05  -21.0531 26096.3 -03419.1 -07.4643 26319.4
 26 03 2013  14 06  -21.0529 26096.2 -03419.0 -07.4642 26319.2
 26 03 2013  14 07  -21.0528 26095.8 -03418.9 -07.4639 26318.8
 26 03 2013  14 08  -21.0531 26095.3 -03418.8 -07.4640 26318.3
 26 03 2013  14 09  -21.0531 26094.6 -03418.7 -07.4639 26317.6
 26 03 2013  14 10  -21.0536 26095.0 -03419.1 -07.4647 26318.0
 26 03 2013  14 11  -21.0537 26095.3 -03419.3 -07.4651 26318.4
 26 03 2013  14 12  -21.0535 26095.7 -03419.6 -07.4654 26318.8
 26 03 2013  14 13  -21.0532 26096.0 -03419.6 -07.4655 26319.1
 26 03 2013  14 14  -21.0526 26095.4 -03419.4 -07.4652 26318.5
 26 03 2013  14 15  -21.0524 26095.4 -03419.5 -07.4653 26318.5
 26 03 2013  14 16  -21.0524 26095.0 -03419.4 -07.4653 26318.1
 26 03 2013  14 17  -21.0524 26095.1 -03419.5 -07.4655 26318.2
 26 03 2013  14 18  -21.0526 26095.2 -03419.6 -07.4658 26318.3
 26 03 2013  14 19  -21.0527 26095.5 -03419.7 -07.4659 26318.6
 26 03 2013  14 20  -21.0528 26095.2 -03419.7 -07.4658 26318.3
 26 03 2013  14 21  -21.0531 26095.3 -03419.8 -07.4660 26318.4
 26 03 2013  14 22  -21.0534 26095.2 -03419.7 -07.4660 26318.3
 26 03 2013  14 23  -21.0534 26095.5 -03419.9 -07.4662 26318.6
 26 03 2013  14 24  -21.0536 26095.9 -03420.0 -07.4663 26319.0
 26 03 2013  14 25  -21.0535 26096.0 -03420.0 -07.4663 26319.2
 26 03 2013  14 26  -21.0533 26096.1 -03420.0 -07.4662 26319.2
 26 03 2013  14 27  -21.0530 26096.0 -03420.0 -07.4662 26319.2
 26 03 2013  14 28  -21.0525 26095.8 -03419.8 -07.4660 26318.9
 26 03 2013  14 29  -21.0522 26095.7 -03419.9 -07.4662 26318.9
 26 03 2013  14 30  -21.0521 26096.0 -03420.1 -07.4666 26319.2
 26 03 2013  14 31  -21.0523 26096.1 -03420.2 -07.4667 26319.2
 26 03 2013  14 32  -21.0525 26096.2 -03420.4 -07.4670 26319.4
 26 03 2013  14 33  -21.0527 26096.3 -03420.4 -07.4671 26319.5
 26 03 2013  14 34  -21.0532 26096.6 -03420.6 -07.4674 26319.8
 26 03 2013  14 35  -21.0533 26096.7 -03420.7 -07.4675 26320.0
 26 03 2013  14 36  -21.0534 26096.9 -03420.7 -07.4675 26320.1
 26 03 2013  14 37  -21.0531 26096.9 -03420.6 -07.4674 26320.1
 26 03 2013  14 38  -21.0529 26097.1 -03420.7 -07.4676 26320.3
 26 03 2013  14 39  -21.0530 26097.4 -03420.9 -07.4678 26320.6
 26 03 2013  14 40  -21.0531 26097.7 -03421.0 -07.4680 26321.0
 26 03 2013  14 41  -21.0532 26098.0 -03421.1 -07.4681 26321.3
 26 03 2013  14 42  -21.0529 26097.8 -03421.0 -07.4679 26321.0
 26 03 2013  14 43  -21.0529 26097.7 -03420.9 -07.4679 26320.9
 26 03 2013  14 44  -21.0532 26097.8 -03421.0 -07.4680 26321.1
 26 03 2013  14 45  -21.0534 26097.9 -03421.1 -07.4681 26321.2
 26 03 2013  14 46  -21.0535 26097.7 -03420.9 -07.4678 26320.9
 26 03 2013  14 47  -21.0536 26097.3 -03420.7 -07.4675 26320.5
 26 03 2013  14 48  -21.0537 26097.4 -03420.8 -07.4676 26320.6
 26 03 2013  14 49  -21.0542 26097.5 -03420.8 -07.4676 26320.7
 26 03 2013  14 50  -21.0543 26096.8 -03420.6 -07.4674 26320.1
 26 03 2013  14 51  -21.0547 26096.6 -03420.7 -07.4676 26319.9
 26 03 2013  14 52  -21.0551 26096.4 -03420.8 -07.4679 26319.7
 26 03 2013  14 53  -21.0555 26096.1 -03420.8 -07.4681 26319.4
 26 03 2013  14 54  -21.0555 26096.3 -03421.0 -07.4685 26319.6
 26 03 2013  14 55  -21.0557 26096.5 -03421.3 -07.4689 26319.8
 26 03 2013  14 56  -21.0556 26096.5 -03421.3 -07.4691 26319.8
 26 03 2013  14 57  -21.0558 26096.4 -03421.4 -07.4692 26319.7
 26 03 2013  14 58  -21.0557 26096.5 -03421.5 -07.4694 26319.9
 26 03 2013  14 59  -21.0556 26096.5 -03421.5 -07.4694 26319.8
 26 03 2013  15 00  -21.0554 26096.2 -03421.4 -07.4693 26319.5
 26 03 2013  15 01  -21.0551 26095.9 -03421.3 -07.4692 26319.2
 26 03 2013  15 02  -21.0550 26095.4 -03421.2 -07.4691 26318.7
 26 03 2013  15 03  -21.0550 26094.9 -03421.2 -07.4691 26318.2
 26 03 2013  15 04  -21.0551 26094.6 -03421.2 -07.4692 26317.9
 26 03 2013  15 05  -21.0553 26094.4 -03421.3 -07.4695 26317.8
 26 03 2013  15 06  -21.0553 26094.3 -03421.3 -07.4696 26317.6
 26 03 2013  15 07  -21.0554 26094.1 -03421.4 -07.4698 26317.5
 26 03 2013  15 08  -21.0554 26094.0 -03421.3 -07.4698 26317.3
 26 03 2013  15 09  -21.0555 26093.7 -03421.3 -07.4698 26317.0
 26 03 2013  15 10  -21.0558 26093.6 -03421.4 -07.4700 26317.0
 26 03 2013  15 11  -21.0560 26093.6 -03421.5 -07.4702 26317.0
 26 03 2013  15 12  -21.0563 26093.7 -03421.6 -07.4705 26317.1
 26 03 2013  15 13  -21.0564 26093.8 -03421.7 -07.4706 26317.2
 26 03 2013  15 14  -21.0565 26093.9 -03421.7 -07.4706 26317.3
 26 03 2013  15 15  -21.0566 26093.8 -03421.6 -07.4704 26317.1
 26 03 2013  15 16  -21.0565 26093.4 -03421.5 -07.4702 26316.7
 26 03 2013  15 17  -21.0563 26093.0 -03421.4 -07.4701 26316.3
 26 03 2013  15 18  -21.0562 26092.8 -03421.3 -07.4701 26316.1
 26 03 2013  15 19  -21.0561 26092.6 -03421.3 -07.4701 26315.9
 26 03 2013  15 20  -21.0561 26092.5 -03421.3 -07.4702 26315.8
 26 03 2013  15 21  -21.0561 26092.3 -03421.3 -07.4702 26315.7
 26 03 2013  15 22  -21.0560 26092.1 -03421.3 -07.4703 26315.5
 26 03 2013  15 23  -21.0559 26092.1 -03421.4 -07.4704 26315.5
 26 03 2013  15 24  -21.0559 26092.1 -03421.4 -07.4705 26315.5
 26 03 2013  15 25  -21.0560 26092.2 -03421.5 -07.4707 26315.6
 26 03 2013  15 26  -21.0560 26092.2 -03421.6 -07.4707 26315.6
 26 03 2013  15 27  -21.0556 26092.0 -03421.5 -07.4706 26315.3
 26 03 2013  15 28  -21.0552 26091.5 -03421.3 -07.4705 26314.9
 26 03 2013  15 29  -21.0548 26091.1 -03421.3 -07.4704 26314.5
 26 03 2013  15 30  -21.0545 26090.8 -03421.2 -07.4704 26314.2
 26 03 2013  15 31  -21.0542 26090.7 -03421.3 -07.4706 26314.0
 26 03 2013  15 32  -21.0540 26090.6 -03421.4 -07.4709 26314.0
 26 03 2013  15 33  -21.0538 26090.7 -03421.6 -07.4712 26314.1
 26 03 2013  15 34  -21.0536 26090.6 -03421.5 -07.4711 26314.0
 26 03 2013  15 35  -21.0533 26090.2 -03421.4 -07.4710 26313.6
 26 03 2013  15 36  -21.0526 26089.7 -03421.3 -07.4709 26313.1
 26 03 2013  15 37  -21.0521 26089.4 -03421.3 -07.4710 26312.8
 26 03 2013  15 38  -21.0518 26089.3 -03421.5 -07.4714 26312.7
 26 03 2013  15 39  -21.0515 26089.1 -03421.6 -07.4716 26312.5
 26 03 2013  15 40  -21.0513 26089.0 -03421.6 -07.4718 26312.4
 26 03 2013  15 41  -21.0511 26088.9 -03421.7 -07.4720 26312.3
 26 03 2013  15 42  -21.0509 26088.6 -03421.7 -07.4721 26312.1
 26 03 2013  15 43  -21.0504 26088.2 -03421.7 -07.4722 26311.7
 26 03 2013  15 44  -21.0501 26088.1 -03421.8 -07.4725 26311.5
 26 03 2013  15 45  -21.0498 26087.9 -03422.0 -07.4729 26311.4
 26 03 2013  15 46  -21.0495 26088.0 -03422.2 -07.4733 26311.5
 26 03 2013  15 47  -21.0494 26088.0 -03422.4 -07.4737 26311.5
 26 03 2013  15 48  -21.0493 26087.9 -03422.5 -07.4740 26311.5
 26 03 2013  15 49  -21.0490 26087.8 -03422.6 -07.4743 26311.4
 26 03 2013  15 50  -21.0487 26087.9 -03422.8 -07.4746 26311.5
 26 03 2013  15 51  -21.0485 26087.9 -03423.0 -07.4750 26311.5
 26 03 2013  15 52  -21.0483 26087.5 -03423.0 -07.4751 26311.2
 26 03 2013  15 53  -21.0477 26087.1 -03423.0 -07.4752 26310.7
 26 03 2013  15 54  -21.0473 26086.8 -03423.0 -07.4755 26310.4
 26 03 2013  15 55  -21.0471 26086.8 -03423.2 -07.4759 26310.4
 26 03 2013  15 56  -21.0472 26086.9 -03423.5 -07.4764 26310.5
 26 03 2013  15 57  -21.0473 26086.9 -03423.7 -07.4769 26310.6
 26 03 2013  15 58  -21.0473 26086.9 -03423.9 -07.4773 26310.6
 26 03 2013  15 59  -21.0474 26086.9 -03424.0 -07.4775 26310.7
 26 03 2013  16 00  -21.0474 26086.9 -03424.1 -07.4778 26310.7
 26 03 2013  16 01  -21.0474 26086.9 -03424.2 -07.4780 26310.7
 26 03 2013  16 02  -21.0477 26087.1 -03424.5 -07.4784 26310.9
 26 03 2013  16 03  -21.0478 26087.1 -03424.5 -07.4786 26310.9
 26 03 2013  16 04  -21.0480 26087.2 -03424.7 -07.4788 26311.0
 26 03 2013  16 05  -21.0482 26087.2 -03424.7 -07.4789 26311.0
 26 03 2013  16 06  -21.0481 26087.1 -03424.7 -07.4789 26311.0
 26 03 2013  16 07  -21.0479 26087.0 -03424.6 -07.4789 26310.9
 26 03 2013  16 08  -21.0478 26086.7 -03424.5 -07.4786 26310.5
 26 03 2013  16 09  -21.0477 26086.3 -03424.4 -07.4786 26310.1
 26 03 2013  16 10  -21.0478 26086.1 -03424.4 -07.4786 26309.9
 26 03 2013  16 11  -21.0482 26086.0 -03424.4 -07.4786 26309.8
 26 03 2013  16 12  -21.0484 26085.8 -03424.3 -07.4785 26309.6
 26 03 2013  16 13  -21.0487 26085.6 -03424.3 -07.4785 26309.4
 26 03 2013  16 14  -21.0489 26085.4 -03424.3 -07.4785 26309.2
 26 03 2013  16 15  -21.0493 26085.3 -03424.3 -07.4785 26309.1
 26 03 2013  16 16  -21.0496 26085.3 -03424.3 -07.4787 26309.1
 26 03 2013  16 17  -21.0501 26085.2 -03424.3 -07.4787 26309.0
 26 03 2013  16 18  -21.0505 26085.1 -03424.3 -07.4787 26308.9
 26 03 2013  16 19  -21.0508 26084.9 -03424.2 -07.4785 26308.7
 26 03 2013  16 20  -21.0511 26084.6 -03424.1 -07.4783 26308.4
 26 03 2013  16 21  -21.0514 26084.3 -03423.9 -07.4781 26308.0
 26 03 2013  16 22  -21.0516 26084.0 -03423.9 -07.4781 26307.8
 26 03 2013  16 23  -21.0519 26083.9 -03423.9 -07.4781 26307.7
 26 03 2013  16 24  -21.0523 26083.7 -03423.8 -07.4781 26307.4
 26 03 2013  16 25  -21.0527 26083.4 -03423.8 -07.4780 26307.1
 26 03 2013  16 26  -21.0529 26083.1 -03423.7 -07.4779 26306.8
 26 03 2013  16 27  -21.0532 26082.9 -03423.6 -07.4779 26306.6
 26 03 2013  16 28  -21.0535 26082.8 -03423.6 -07.4779 26306.5
 26 03 2013  16 29  -21.0539 26082.5 -03423.5 -07.4778 26306.2
 26 03 2013  16 30  -21.0541 26082.2 -03423.5 -07.4777 26305.9
 26 03 2013  16 31  -21.0543 26081.9 -03423.4 -07.4776 26305.7
 26 03 2013  16 32  -21.0546 26081.7 -03423.4 -07.4776 26305.4
 26 03 2013  16 33  -21.0550 26081.5 -03423.3 -07.4775 26305.2
 26 03 2013  16 34  -21.0553 26081.3 -03423.2 -07.4775 26305.0
 26 03 2013  16 35  -21.0557 26081.2 -03423.2 -07.4774 26304.9
 26 03 2013  16 36  -21.0561 26081.0 -03423.1 -07.4773 26304.6
 26 03 2013  16 37  -21.0565 26080.8 -03423.1 -07.4773 26304.5
 26 03 2013  16 38  -21.0570 26080.5 -03423.0 -07.4771 26304.2
 26 03 2013  16 39  -21.0572 26080.2 -03422.8 -07.4769 26303.8
 26 03 2013  16 40  -21.0575 26079.8 -03422.7 -07.4767 26303.4
 26 03 2013  16 41  -21.0579 26079.5 -03422.6 -07.4766 26303.2
 26 03 2013  16 42  -21.0586 26079.4 -03422.6 -07.4767 26303.0
 26 03 2013  16 43  -21.0590 26079.2 -03422.6 -07.4766 26302.8
 26 03 2013  16 44  -21.0595 26078.9 -03422.5 -07.4765 26302.5
 26 03 2013  16 45  -21.0599 26078.5 -03422.3 -07.4763 26302.1
 26 03 2013  16 46  -21.0610 26078.1 -03422.2 -07.4762 26301.7
 26 03 2013  16 47  -21.0646 26077.4 -03422.0 -07.4759 26301.0
 26 03 2013  16 48  -21.0657 26077.2 -03422.0 -07.4760 26300.7
 26 03 2013  16 49  -21.0655 26076.9 -03421.9 -07.4757 26300.5
 26 03 2013  16 50  -21.0664 26076.7 -03421.8 -07.4757 26300.3
 26 03 2013  16 51  -21.0671 26076.4 -03421.7 -07.4756 26300.0
 26 03 2013  16 52  -21.0675 26076.2 -03421.6 -07.4755 26299.7
 26 03 2013  16 53  -21.0674 26076.1 -03421.6 -07.4753 26299.6
 26 03 2013  16 54  -21.0677 26075.8 -03421.4 -07.4751 26299.3
 26 03 2013  16 55  -21.0681 26075.5 -03421.3 -07.4749 26299.0
 26 03 2013  16 56  -21.0687 26075.2 -03421.2 -07.4748 26298.7
 26 03 2013  16 57  -21.0693 26075.0 -03421.1 -07.4747 26298.5
 26 03 2013  16 58  -21.0700 26074.8 -03421.1 -07.4747 26298.3
 26 03 2013  16 59  -21.0707 26074.6 -03421.1 -07.4746 26298.1
 26 03 2013  17 00  -21.0713 26074.3 -03420.9 -07.4744 26297.8
 26 03 2013  17 01  -21.0718 26074.0 -03420.8 -07.4742 26297.4
 26 03 2013  17 02  -21.0724 26073.7 -03420.6 -07.4740 26297.1
 26 03 2013  17 03  -21.0729 26073.4 -03420.5 -07.4738 26296.8
 26 03 2013  17 04  -21.0734 26073.1 -03420.4 -07.4736 26296.5
 26 03 2013  17 05  -21.0738 26072.7 -03420.2 -07.4733 26296.1
 26 03 2013  17 06  -21.0745 26072.4 -03420.1 -07.4731 26295.8
 26 03 2013  17 07  -21.0752 26072.2 -03420.0 -07.4730 26295.5
 26 03 2013  17 08  -21.0759 26071.9 -03419.8 -07.4727 26295.2
 26 03 2013  17 09  -21.0764 26071.6 -03419.6 -07.4723 26294.9
 26 03 2013  17 10  -21.0769 26071.4 -03419.4 -07.4720 26294.6
 26 03 2013  17 11  -21.0775 26071.1 -03419.3 -07.4718 26294.4
 26 03 2013  17 12  -21.0781 26070.9 -03419.1 -07.4715 26294.1
 26 03 2013  17 13  -21.0789 26070.6 -03419.0 -07.4712 26293.8
 26 03 2013  17 14  -21.0793 26070.2 -03418.8 -07.4710 26293.4
 26 03 2013  17 15  -21.0799 26069.8 -03418.6 -07.4707 26293.0
 26 03 2013  17 16  -21.0805 26069.5 -03418.4 -07.4704 26292.6
 26 03 2013  17 17  -21.0811 26069.2 -03418.3 -07.4702 26292.3
 26 03 2013  17 18  -21.0818 26069.0 -03418.2 -07.4700 26292.1
 26 03 2013  17 19  -21.0825 26068.7 -03418.0 -07.4698 26291.8
 26 03 2013  17 20  -21.0832 26068.5 -03417.9 -07.4696 26291.6
 26 03 2013  17 21  -21.0838 26068.4 -03417.8 -07.4694 26291.5
 26 03 2013  17 22  -21.0846 26068.1 -03417.6 -07.4690 26291.2
 26 03 2013  17 23  -21.0851 26067.9 -03417.4 -07.4687 26290.9
 26 03 2013  17 24  -21.0856 26067.6 -03417.3 -07.4684 26290.7
 26 03 2013  17 25  -21.0861 26067.3 -03417.0 -07.4680 26290.3
 26 03 2013  17 26  -21.0864 26067.0 -03416.8 -07.4677 26290.0
 26 03 2013  17 27  -21.0870 26066.8 -03416.7 -07.4674 26289.7
 26 03 2013  17 28  -21.0873 26066.5 -03416.5 -07.4670 26289.4
 26 03 2013  17 29  -21.0876 26066.2 -03416.3 -07.4668 26289.2
 26 03 2013  17 30  -21.0879 26066.0 -03416.1 -07.4665 26288.9
 26 03 2013  17 31  -21.0881 26065.7 -03416.0 -07.4661 26288.6
 26 03 2013  17 32  -21.0884 26065.6 -03415.8 -07.4658 26288.5
 26 03 2013  17 33  -21.0886 26065.4 -03415.6 -07.4655 26288.3
 26 03 2013  17 34  -21.0889 26065.3 -03415.5 -07.4652 26288.1
 26 03 2013  17 35  -21.0890 26065.2 -03415.4 -07.4650 26288.0
 26 03 2013  17 36  -21.0892 26065.0 -03415.2 -07.4647 26287.8
 26 03 2013  17 37  -21.0895 26064.8 -03415.1 -07.4645 26287.6
 26 03 2013  17 38  -21.0898 26064.6 -03415.0 -07.4645 26287.4
 26 03 2013  17 39  -21.0891 26064.6 -03415.0 -07.4644 26287.4
 26 03 2013  17 40  -21.0875 26064.9 -03415.2 -07.4647 26287.7
 26 03 2013  17 41  -21.0874 26064.7 -03415.1 -07.4646 26287.5
 26 03 2013  17 42  -21.0890 26064.3 -03414.8 -07.4640 26287.0
 26 03 2013  17 43  -21.0895 26063.9 -03414.5 -07.4635 26286.6
 26 03 2013  17 44  -21.0894 26063.8 -03414.4 -07.4633 26286.5
 26 03 2013  17 45  -21.0894 26063.5 -03414.3 -07.4632 26286.2
 26 03 2013  17 46  -21.0893 26063.1 -03414.1 -07.4629 26285.8
 26 03 2013  17 47  -21.0890 26062.7 -03414.0 -07.4627 26285.3
 26 03 2013  17 48  -21.0888 26062.3 -03413.9 -07.4626 26284.9
 26 03 2013  17 49  -21.0885 26061.9 -03413.8 -07.4625 26284.5
 26 03 2013  17 50  -21.0884 26061.6 -03413.8 -07.4626 26284.2
 26 03 2013  17 51  -21.0882 26061.4 -03413.8 -07.4628 26284.0
 26 03 2013  17 52  -21.0882 26061.0 -03413.8 -07.4628 26283.6
 26 03 2013  17 53  -21.0878 26060.9 -03413.8 -07.4628 26283.5
 26 03 2013  17 54  -21.0878 26060.7 -03413.8 -07.4629 26283.4
 26 03 2013  17 55  -21.0879 26060.5 -03413.8 -07.4629 26283.2
 26 03 2013  17 56  -21.0877 26060.2 -03413.7 -07.4629 26282.9
 26 03 2013  17 57  -21.0877 26059.9 -03413.7 -07.4628 26282.6
 26 03 2013  17 58  -21.0877 26059.7 -03413.7 -07.4629 26282.3
 26 03 2013  17 59  -21.0878 26059.5 -03413.7 -07.4629 26282.1
 26 03 2013  18 00  -21.0880 26059.2 -03413.6 -07.4630 26281.9
 26 03 2013  18 01  -21.0879 26059.1 -03413.6 -07.4630 26281.7
 26 03 2013  18 02  -21.0878 26058.9 -03413.7 -07.4631 26281.6
 26 03 2013  18 03  -21.0876 26058.8 -03413.7 -07.4633 26281.4
 26 03 2013  18 04  -21.0873 26058.6 -03413.8 -07.4635 26281.3
 26 03 2013  18 05  -21.0870 26058.7 -03414.0 -07.4639 26281.4
 26 03 2013  18 06  -21.0867 26058.7 -03414.1 -07.4642 26281.4
 26 03 2013  18 07  -21.0846 26059.0 -03414.4 -07.4647 26281.7
 26 03 2013  18 08  -21.0827 26059.6 -03414.9 -07.4656 26282.4
 26 03 2013  18 09  -21.0827 26059.6 -03415.1 -07.4659 26282.5
 26 03 2013  18 10  -21.0829 26059.6 -03415.1 -07.4661 26282.5
 26 03 2013  18 11  -21.0825 26059.5 -03415.1 -07.4661 26282.3
 26 03 2013  18 12  -21.0824 26059.2 -03415.1 -07.4660 26282.0
 26 03 2013  18 13  -21.0820 26058.7 -03415.0 -07.4660 26281.5
 26 03 2013  18 14  -21.0816 26058.4 -03414.9 -07.4661 26281.2
 26 03 2013  18 15  -21.0813 26058.1 -03415.0 -07.4663 26280.9
 26 03 2013  18 16  -21.0812 26057.9 -03415.1 -07.4665 26280.8
 26 03 2013  18 17  -21.0811 26057.8 -03415.2 -07.4668 26280.7
 26 03 2013  18 18  -21.0810 26057.7 -03415.3 -07.4670 26280.6
 26 03 2013  18 19  -21.0830 26057.4 -03415.2 -07.4669 26280.3
 26 03 2013  18 20  -21.0848 26057.2 -03415.2 -07.4669 26280.0
 26 03 2013  18 21  -21.0803 26057.5 -03415.5 -07.4675 26280.4
 26 03 2013  18 22  -21.0803 26057.4 -03415.6 -07.4677 26280.3
 26 03 2013  18 23  -21.0800 26057.4 -03415.7 -07.4679 26280.3
 26 03 2013  18 24  -21.0799 26057.3 -03415.8 -07.4681 26280.2
 26 03 2013  18 25  -21.0797 26057.3 -03415.9 -07.4684 26280.3
 26 03 2013  18 26  -21.0796 26057.3 -03416.0 -07.4687 26280.3
 26 03 2013  18 27  -21.0796 26057.3 -03416.1 -07.4689 26280.3
 26 03 2013  18 28  -21.0795 26057.2 -03416.2 -07.4691 26280.2
 26 03 2013  18 29  -21.0795 26057.0 -03416.1 -07.4690 26280.0
 26 03 2013  18 30  -21.0791 26056.7 -03416.1 -07.4689 26279.7
 26 03 2013  18 31  -21.0786 26056.4 -03416.1 -07.4690 26279.4
 26 03 2013  18 32  -21.0783 26056.3 -03416.1 -07.4692 26279.3
 26 03 2013  18 33  -21.0782 26056.3 -03416.2 -07.4694 26279.3
 26 03 2013  18 34  -21.0778 26056.2 -03416.3 -07.4695 26279.2
 26 03 2013  18 35  -21.0773 26056.2 -03416.4 -07.4699 26279.2
 26 03 2013  18 36  -21.0773 26056.4 -03416.6 -07.4702 26279.4
 26 03 2013  18 37  -21.0773 26056.4 -03416.7 -07.4703 26279.4
 26 03 2013  18 38  -21.0772 26056.3 -03416.7 -07.4704 26279.4
 26 03 2013  18 39  -21.0771 26056.2 -03416.7 -07.4705 26279.3
 26 03 2013  18 40  -21.0770 26056.1 -03416.7 -07.4704 26279.1
 26 03 2013  18 41  -21.0770 26055.9 -03416.6 -07.4704 26278.9
 26 03 2013  18 42  -21.0768 26055.5 -03416.5 -07.4701 26278.5
 26 03 2013  18 43  -21.0762 26055.0 -03416.3 -07.4699 26278.0
 26 03 2013  18 44  -21.0756 26054.8 -03416.3 -07.4699 26277.9
 26 03 2013  18 45  -21.0749 26054.9 -03416.4 -07.4702 26277.9
 26 03 2013  18 46  -21.0748 26055.1 -03416.6 -07.4705 26278.1
 26 03 2013  18 47  -21.0746 26055.2 -03416.7 -07.4707 26278.2
 26 03 2013  18 48  -21.0742 26055.2 -03416.7 -07.4707 26278.3
 26 03 2013  18 49  -21.0740 26055.4 -03416.8 -07.4708 26278.4
 26 03 2013  18 50  -21.0740 26055.1 -03416.7 -07.4707 26278.2
 26 03 2013  18 51  -21.0733 26054.6 -03416.4 -07.4702 26277.6
 26 03 2013  18 52  -21.0729 26054.3 -03416.3 -07.4702 26277.4
 26 03 2013  18 53  -21.0724 26054.2 -03416.4 -07.4704 26277.2
 26 03 2013  18 54  -21.0721 26054.1 -03416.5 -07.4705 26277.1
 26 03 2013  18 55  -21.0717 26054.2 -03416.6 -07.4708 26277.2
 26 03 2013  18 56  -21.0712 26054.2 -03416.7 -07.4711 26277.3
 26 03 2013  18 57  -21.0708 26054.3 -03416.9 -07.4714 26277.4
 26 03 2013  18 58  -21.0703 26054.3 -03416.9 -07.4715 26277.4
 26 03 2013  18 59  -21.0701 26054.3 -03417.0 -07.4717 26277.4
 26 03 2013  19 00  -21.0696 26054.1 -03417.0 -07.4718 26277.3
 26 03 2013  19 01  -21.0691 26053.9 -03417.0 -07.4718 26277.0
 26 03 2013  19 02  -21.0687 26053.6 -03417.0 -07.4718 26276.8
 26 03 2013  19 03  -21.0684 26053.4 -03417.0 -07.4719 26276.5
 26 03 2013  19 04  -21.0678 26053.0 -03416.9 -07.4718 26276.1
 26 03 2013  19 05  -21.0673 26052.6 -03416.9 -07.4719 26275.7
 26 03 2013  19 06  -21.0672 26052.4 -03416.9 -07.4720 26275.5
 26 03 2013  19 07  -21.0663 26052.2 -03417.0 -07.4722 26275.3
 26 03 2013  19 08  -21.0664 26052.5 -03417.3 -07.4728 26275.6
 26 03 2013  19 09  -21.0662 26052.3 -03417.3 -07.4729 26275.5
 26 03 2013  19 10  -21.0656 26052.1 -03417.4 -07.4730 26275.3
 26 03 2013  19 11  -21.0651 26052.2 -03417.5 -07.4733 26275.4
 26 03 2013  19 12  -21.0649 26052.2 -03417.7 -07.4737 26275.4
 26 03 2013  19 13  -21.0644 26052.2 -03417.7 -07.4738 26275.4
 26 03 2013  19 14  -21.0641 26052.2 -03417.9 -07.4741 26275.5
 26 03 2013  19 15  -21.0637 26052.2 -03418.0 -07.4743 26275.4
 26 03 2013  19 16  -21.0634 26052.1 -03418.0 -07.4745 26275.4
 26 03 2013  19 17  -21.0632 26052.0 -03418.1 -07.4746 26275.2
 26 03 2013  19 18  -21.0625 26051.8 -03418.1 -07.4747 26275.1
 26 03 2013  19 19  -21.0623 26051.7 -03418.1 -07.4749 26274.9
 26 03 2013  19 20  -21.0618 26051.4 -03418.2 -07.4750 26274.7
 26 03 2013  19 21  -21.0614 26051.2 -03418.2 -07.4751 26274.5
 26 03 2013  19 22  -21.0609 26051.1 -03418.3 -07.4753 26274.4
 26 03 2013  19 23  -21.0603 26051.0 -03418.4 -07.4756 26274.3
 26 03 2013  19 24  -21.0598 26051.0 -03418.5 -07.4759 26274.3
 26 03 2013  19 25  -21.0594 26051.1 -03418.7 -07.4763 26274.5
 26 03 2013  19 26  -21.0592 26051.2 -03418.9 -07.4766 26274.6
 26 03 2013  19 27  -21.0588 26051.2 -03419.0 -07.4768 26274.6
 26 03 2013  19 28  -21.0584 26051.2 -03419.1 -07.4770 26274.6
 26 03 2013  19 29  -21.0580 26051.1 -03419.2 -07.4772 26274.5
 26 03 2013  19 30  -21.0576 26051.0 -03419.2 -07.4773 26274.4
 26 03 2013  19 31  -21.0573 26050.9 -03419.2 -07.4775 26274.3
 26 03 2013  19 32  -21.0570 26050.9 -03419.4 -07.4777 26274.3
 26 03 2013  19 33  -21.0567 26050.9 -03419.4 -07.4778 26274.3
 26 03 2013  19 34  -21.0565 26050.8 -03419.5 -07.4780 26274.3
 26 03 2013  19 35  -21.0563 26050.8 -03419.5 -07.4781 26274.3
 26 03 2013  19 36  -21.0559 26050.7 -03419.6 -07.4782 26274.2
 26 03 2013  19 37  -21.0556 26050.6 -03419.6 -07.4783 26274.1
 26 03 2013  19 38  -21.0552 26050.5 -03419.6 -07.4784 26274.0
 26 03 2013  19 39  -21.0549 26050.4 -03419.7 -07.4785 26273.9
 26 03 2013  19 40  -21.0547 26050.4 -03419.7 -07.4787 26273.9
 26 03 2013  19 41  -21.0544 26050.4 -03419.8 -07.4789 26274.0
 26 03 2013  19 42  -21.0541 26050.5 -03419.9 -07.4789 26274.0
 26 03 2013  19 43  -21.0538 26050.4 -03419.9 -07.4790 26273.9
 26 03 2013  19 44  -21.0534 26050.3 -03419.9 -07.4789 26273.8
 26 03 2013  19 45  -21.0531 26050.2 -03419.9 -07.4791 26273.7
 26 03 2013  19 46  -21.0528 26050.2 -03419.9 -07.4791 26273.7
 26 03 2013  19 47  -21.0525 26050.2 -03420.0 -07.4792 26273.7
 26 03 2013  19 48  -21.0523 26050.2 -03420.0 -07.4793 26273.7
 26 03 2013  19 49  -21.0519 26050.2 -03420.1 -07.4794 26273.8
 26 03 2013  19 50  -21.0516 26050.2 -03420.1 -07.4795 26273.8
 26 03 2013  19 51  -21.0513 26050.3 -03420.2 -07.4796 26273.8
 26 03 2013  19 52  -21.0509 26050.3 -03420.2 -07.4797 26273.8
 26 03 2013  19 53  -21.0507 26050.1 -03420.2 -07.4797 26273.7
 26 03 2013  19 54  -21.0503 26050.0 -03420.2 -07.4797 26273.6
 26 03 2013  19 55  -21.0499 26049.9 -03420.1 -07.4797 26273.5
 26 03 2013  19 56  -21.0512 26049.7 -03420.0 -07.4794 26273.2
 26 03 2013  19 57  -21.0531 26049.3 -03419.8 -07.4792 26272.9
 26 03 2013  19 58  -21.0502 26049.5 -03420.0 -07.4795 26273.1
 26 03 2013  19 59  -21.0487 26049.7 -03420.2 -07.4799 26273.2
 26 03 2013  20 00  -21.0485 26049.6 -03420.2 -07.4799 26273.1
 26 03 2013  20 01  -21.0482 26049.5 -03420.2 -07.4800 26273.1
 26 03 2013  20 02  -21.0480 26049.5 -03420.3 -07.4801 26273.1
 26 03 2013  20 03  -21.0478 26049.4 -03420.3 -07.4801 26273.0
 26 03 2013  20 04  -21.0476 26049.2 -03420.2 -07.4801 26272.8
 26 03 2013  20 05  -21.0472 26048.9 -03420.2 -07.4800 26272.5
 26 03 2013  20 06  -21.0468 26048.8 -03420.2 -07.4801 26272.3
 26 03 2013  20 07  -21.0464 26048.7 -03420.2 -07.4802 26272.3
 26 03 2013  20 08  -21.0461 26048.6 -03420.3 -07.4803 26272.2
 26 03 2013  20 09  -21.0459 26048.6 -03420.4 -07.4805 26272.2
 26 03 2013  20 10  -21.0456 26048.6 -03420.4 -07.4807 26272.2
 26 03 2013  20 11  -21.0454 26048.6 -03420.6 -07.4810 26272.2
 26 03 2013  20 12  -21.0451 26048.7 -03420.7 -07.4812 26272.3
 26 03 2013  20 13  -21.0448 26048.6 -03420.7 -07.4813 26272.3
 26 03 2013  20 14  -21.0446 26048.5 -03420.7 -07.4814 26272.1
 26 03 2013  20 15  -21.0443 26048.3 -03420.7 -07.4814 26271.9
 26 03 2013  20 16  -21.0442 26048.2 -03420.8 -07.4815 26271.9
 26 03 2013  20 17  -21.0440 26048.1 -03420.8 -07.4817 26271.8
 26 03 2013  20 18  -21.0437 26048.1 -03420.9 -07.4819 26271.8
 26 03 2013  20 19  -21.0436 26048.1 -03421.0 -07.4821 26271.8
 26 03 2013  20 20  -21.0433 26048.1 -03421.1 -07.4823 26271.8
 26 03 2013  20 21  -21.0430 26048.1 -03421.2 -07.4825 26271.8
 26 03 2013  20 22  -21.0429 26048.1 -03421.3 -07.4827 26271.9
 26 03 2013  20 23  -21.0427 26048.2 -03421.4 -07.4829 26271.9
 26 03 2013  20 24  -21.0427 26048.2 -03421.5 -07.4831 26271.9
 26 03 2013  20 25  -21.0426 26048.2 -03421.6 -07.4832 26271.9
 26 03 2013  20 26  -21.0424 26048.1 -03421.6 -07.4833 26271.9
 26 03 2013  20 27  -21.0423 26048.1 -03421.7 -07.4835 26271.9
 26 03 2013  20 28  -21.0422 26048.1 -03421.7 -07.4836 26271.9
 26 03 2013  20 29  -21.0421 26048.0 -03421.8 -07.4837 26271.8
 26 03 2013  20 30  -21.0420 26048.0 -03421.8 -07.4838 26271.8
 26 03 2013  20 31  -21.0418 26048.0 -03421.9 -07.4840 26271.8
 26 03 2013  20 32  -21.0418 26048.0 -03421.9 -07.4841 26271.8
 26 03 2013  20 33  -21.0417 26047.9 -03422.0 -07.4842 26271.8
 26 03 2013  20 34  -21.0415 26048.1 -03422.1 -07.4844 26271.9
 26 03 2013  20 35  -21.0414 26048.2 -03422.2 -07.4846 26272.1
 26 03 2013  20 36  -21.0414 26048.3 -03422.3 -07.4848 26272.2
 26 03 2013  20 37  -21.0414 26048.4 -03422.4 -07.4849 26272.2
 26 03 2013  20 38  -21.0412 26048.5 -03422.5 -07.4851 26272.4
 26 03 2013  20 39  -21.0413 26048.5 -03422.5 -07.4852 26272.3
 26 03 2013  20 40  -21.0414 26048.4 -03422.5 -07.4852 26272.3
 26 03 2013  20 41  -21.0413 26048.3 -03422.4 -07.4851 26272.2
 26 03 2013  20 42  -21.0413 26048.2 -03422.4 -07.4851 26272.0
 26 03 2013  20 43  -21.0413 26048.1 -03422.4 -07.4851 26272.0
 26 03 2013  20 44  -21.0413 26048.1 -03422.4 -07.4851 26272.0
 26 03 2013  20 45  -21.0413 26048.2 -03422.5 -07.4852 26272.0
 26 03 2013  20 46  -21.0411 26048.0 -03422.4 -07.4851 26271.9
 26 03 2013  20 47  -21.0411 26047.8 -03422.3 -07.4850 26271.7
 26 03 2013  20 48  -21.0411 26047.8 -03422.3 -07.4850 26271.6
 26 03 2013  20 49  -21.0411 26047.8 -03422.4 -07.4851 26271.7
 26 03 2013  20 50  -21.0412 26047.9 -03422.5 -07.4852 26271.8
 26 03 2013  20 51  -21.0412 26047.9 -03422.5 -07.4853 26271.8
 26 03 2013  20 52  -21.0412 26047.9 -03422.5 -07.4853 26271.8
 26 03 2013  20 53  -21.0411 26047.9 -03422.5 -07.4854 26271.8
 26 03 2013  20 54  -21.0412 26047.9 -03422.5 -07.4853 26271.8
 26 03 2013  20 55  -21.0411 26047.9 -03422.5 -07.4853 26271.7
 26 03 2013  20 56  -21.0411 26047.9 -03422.5 -07.4854 26271.8
 26 03 2013  20 57  -21.0412 26047.9 -03422.6 -07.4856 26271.8
 26 03 2013  20 58  -21.0412 26047.9 -03422.6 -07.4856 26271.8
 26 03 2013  20 59  -21.0412 26047.9 -03422.6 -07.4856 26271.8
 26 03 2013  21 00  -21.0411 26047.9 -03422.6 -07.4856 26271.8
 26 03 2013  21 01  -21.0412 26047.9 -03422.6 -07.4856 26271.8
 26 03 2013  21 02  -21.0410 26047.8 -03422.6 -07.4856 26271.7
 26 03 2013  21 03  -21.0409 26047.8 -03422.6 -07.4856 26271.7
 26 03 2013  21 04  -21.0408 26047.8 -03422.6 -07.4855 26271.7
 26 03 2013  21 05  -21.0408 26047.8 -03422.6 -07.4855 26271.7
 26 03 2013  21 06  -21.0407 26047.8 -03422.6 -07.4855 26271.7
 26 03 2013  21 07  -21.0404 26047.8 -03422.6 -07.4856 26271.7
 26 03 2013  21 08  -21.0402 26047.8 -03422.6 -07.4855 26271.7
 26 03 2013  21 09  -21.0401 26047.9 -03422.6 -07.4856 26271.8
 26 03 2013  21 10  -21.0398 26047.9 -03422.7 -07.4857 26271.8
 26 03 2013  21 11  -21.0398 26047.9 -03422.7 -07.4858 26271.8
 26 03 2013  21 12  -21.0395 26047.9 -03422.7 -07.4857 26271.8
 26 03 2013  21 13  -21.0394 26048.0 -03422.7 -07.4858 26271.9
 26 03 2013  21 14  -21.0393 26048.0 -03422.7 -07.4858 26271.9
 26 03 2013  21 15  -21.0392 26047.9 -03422.7 -07.4859 26271.8
 26 03 2013  21 16  -21.0392 26047.8 -03422.7 -07.4859 26271.7
 26 03 2013  21 17  -21.0391 26047.8 -03422.7 -07.4859 26271.7
 26 03 2013  21 18  -21.0391 26047.9 -03422.8 -07.4861 26271.8
 26 03 2013  21 19  -21.0389 26048.1 -03422.9 -07.4863 26272.0
 26 03 2013  21 20  -21.0386 26048.2 -03423.0 -07.4864 26272.2
 26 03 2013  21 21  -21.0386 26048.3 -03423.0 -07.4864 26272.2
 26 03 2013  21 22  -21.0385 26048.3 -03423.1 -07.4864 26272.2
 26 03 2013  21 23  -21.0384 26048.3 -03423.1 -07.4865 26272.2
 26 03 2013  21 24  -21.0383 26048.3 -03423.1 -07.4866 26272.3
 26 03 2013  21 25  -21.0382 26048.4 -03423.2 -07.4867 26272.4
 26 03 2013  21 26  -21.0381 26048.5 -03423.3 -07.4868 26272.5
 26 03 2013  21 27  -21.0380 26048.7 -03423.3 -07.4869 26272.7
 26 03 2013  21 28  -21.0380 26048.9 -03423.4 -07.4871 26272.9
 26 03 2013  21 29  -21.0380 26049.1 -03423.5 -07.4872 26273.1
 26 03 2013  21 30  -21.0381 26049.3 -03423.7 -07.4875 26273.3
 26 03 2013  21 31  -21.0383 26049.2 -03423.6 -07.4874 26273.2
 26 03 2013  21 32  -21.0385 26048.7 -03423.3 -07.4868 26272.7
 26 03 2013  21 33  -21.0386 26048.1 -03423.1 -07.4865 26272.1
 26 03 2013  21 34  -21.0387 26047.7 -03422.9 -07.4862 26271.7
 26 03 2013  21 35  -21.0387 26047.6 -03422.8 -07.4861 26271.5
 26 03 2013  21 36  -21.0385 26047.6 -03422.8 -07.4861 26271.5
 26 03 2013  21 37  -21.0383 26047.7 -03422.9 -07.4862 26271.6
 26 03 2013  21 38  -21.0379 26047.7 -03422.9 -07.4864 26271.7
 26 03 2013  21 39  -21.0379 26047.7 -03423.0 -07.4865 26271.6
 26 03 2013  21 40  -21.0381 26047.6 -03423.0 -07.4865 26271.6
 26 03 2013  21 41  -21.0381 26047.7 -03423.1 -07.4867 26271.6
 26 03 2013  21 42  -21.0381 26047.7 -03423.2 -07.4868 26271.7
 26 03 2013  21 43  -21.0381 26047.6 -03423.2 -07.4869 26271.6
 26 03 2013  21 44  -21.0381 26047.5 -03423.1 -07.4868 26271.5
 26 03 2013  21 45  -21.0382 26047.5 -03423.1 -07.4868 26271.4
 26 03 2013  21 46  -21.0381 26047.5 -03423.2 -07.4870 26271.4
 26 03 2013  21 47  -21.0382 26047.5 -03423.3 -07.4871 26271.5
 26 03 2013  21 48  -21.0381 26047.5 -03423.3 -07.4872 26271.5
 26 03 2013  21 49  -21.0383 26047.4 -03423.3 -07.4872 26271.4
 26 03 2013  21 50  -21.0382 26047.4 -03423.4 -07.4874 26271.4
 26 03 2013  21 51  -21.0383 26047.5 -03423.4 -07.4875 26271.5
 26 03 2013  21 52  -21.0383 26047.5 -03423.5 -07.4876 26271.5
 26 03 2013  21 53  -21.0385 26047.6 -03423.6 -07.4878 26271.7
 26 03 2013  21 54  -21.0386 26047.8 -03423.7 -07.4880 26271.9
 26 03 2013  21 55  -21.0387 26048.0 -03423.8 -07.4882 26272.1
 26 03 2013  21 56  -21.0388 26048.1 -03423.9 -07.4883 26272.1
 26 03 2013  21 57  -21.0388 26048.1 -03423.9 -07.4882 26272.1
 26 03 2013  21 58  -21.0388 26047.9 -03423.8 -07.4882 26272.0
 26 03 2013  21 59  -21.0389 26047.9 -03423.8 -07.4881 26272.0
 26 03 2013  22 00  -21.0390 26048.0 -03423.8 -07.4882 26272.1
 26 03 2013  22 01  -21.0390 26048.0 -03423.9 -07.4883 26272.1
 26 03 2013  22 02  -21.0391 26047.9 -03423.8 -07.4882 26272.0
 26 03 2013  22 03  -21.0392 26047.8 -03423.7 -07.4881 26271.8
 26 03 2013  22 04  -21.0392 26047.6 -03423.7 -07.4880 26271.7
 26 03 2013  22 05  -21.0393 26047.5 -03423.6 -07.4879 26271.5
 26 03 2013  22 06  -21.0394 26047.4 -03423.6 -07.4879 26271.4
 26 03 2013  22 07  -21.0394 26047.3 -03423.6 -07.4878 26271.3
 26 03 2013  22 08  -21.0394 26047.2 -03423.5 -07.4878 26271.2
 26 03 2013  22 09  -21.0394 26047.1 -03423.5 -07.4878 26271.2
 26 03 2013  22 10  -21.0392 26047.1 -03423.6 -07.4878 26271.1
 26 03 2013  22 11  -21.0390 26047.1 -03423.6 -07.4879 26271.2
 26 03 2013  22 12  -21.0390 26047.2 -03423.6 -07.4880 26271.2
 26 03 2013  22 13  -21.0390 26047.2 -03423.7 -07.4881 26271.2
 26 03 2013  22 14  -21.0391 26047.1 -03423.7 -07.4881 26271.1
 26 03 2013  22 15  -21.0392 26047.0 -03423.6 -07.4880 26271.1
 26 03 2013  22 16  -21.0393 26047.0 -03423.6 -07.4880 26271.0
 26 03 2013  22 17  -21.0393 26047.1 -03423.7 -07.4882 26271.1
 26 03 2013  22 18  -21.0391 26047.2 -03423.8 -07.4883 26271.2
 26 03 2013  22 19  -21.0394 26047.2 -03423.8 -07.4883 26271.3
 26 03 2013  22 20  -21.0396 26047.2 -03423.8 -07.4884 26271.2
 26 03 2013  22 21  -21.0396 26047.0 -03423.7 -07.4882 26271.0
 26 03 2013  22 22  -21.0398 26046.8 -03423.6 -07.4880 26270.8
 26 03 2013  22 23  -21.0399 26046.7 -03423.6 -07.4880 26270.7
 26 03 2013  22 24  -21.0400 26046.6 -03423.6 -07.4880 26270.6
 26 03 2013  22 25  -21.0401 26046.6 -03423.6 -07.4880 26270.7
 26 03 2013  22 26  -21.0401 26046.7 -03423.6 -07.4882 26270.7
 26 03 2013  22 27  -21.0402 26046.6 -03423.7 -07.4882 26270.7
 26 03 2013  22 28  -21.0402 26046.5 -03423.6 -07.4881 26270.5
 26 03 2013  22 29  -21.0402 26046.4 -03423.6 -07.4882 26270.4
 26 03 2013  22 30  -21.0402 26046.3 -03423.6 -07.4881 26270.3
 26 03 2013  22 31  -21.0402 26046.3 -03423.6 -07.4881 26270.3
 26 03 2013  22 32  -21.0402 26046.2 -03423.6 -07.4881 26270.3
 26 03 2013  22 33  -21.0401 26046.2 -03423.5 -07.4881 26270.2
 26 03 2013  22 34  -21.0400 26046.2 -03423.6 -07.4881 26270.3
 26 03 2013  22 35  -21.0401 26046.3 -03423.7 -07.4883 26270.3
 26 03 2013  22 36  -21.0401 26046.3 -03423.7 -07.4883 26270.3
 26 03 2013  22 37  -21.0401 26046.3 -03423.7 -07.4883 26270.3
 26 03 2013  22 38  -21.0400 26046.3 -03423.7 -07.4884 26270.3
 26 03 2013  22 39  -21.0400 26046.1 -03423.6 -07.4883 26270.2
 26 03 2013  22 40  -21.0400 26046.1 -03423.6 -07.4882 26270.1
 26 03 2013  22 41  -21.0400 26046.1 -03423.6 -07.4883 26270.1
 26 03 2013  22 42  -21.0400 26046.0 -03423.7 -07.4884 26270.1
 26 03 2013  22 43  -21.0400 26046.1 -03423.7 -07.4884 26270.1
 26 03 2013  22 44  -21.0400 26046.2 -03423.8 -07.4886 26270.3
 26 03 2013  22 45  -21.0400 26046.2 -03423.8 -07.4887 26270.3
 26 03 2013  22 46  -21.0399 26046.2 -03423.8 -07.4887 26270.2
 26 03 2013  22 47  -21.0399 26046.2 -03423.8 -07.4887 26270.2
 26 03 2013  22 48  -21.0397 26046.2 -03423.8 -07.4887 26270.2
 26 03 2013  22 49  -21.0397 26046.2 -03423.8 -07.4887 26270.2
 26 03 2013  22 50  -21.0397 26046.1 -03423.8 -07.4887 26270.1
 26 03 2013  22 51  -21.0397 26046.0 -03423.8 -07.4886 26270.1
 26 03 2013  22 52  -21.0397 26046.0 -03423.8 -07.4887 26270.1
 26 03 2013  22 53  -21.0396 26045.9 -03423.8 -07.4886 26270.0
 26 03 2013  22 54  -21.0395 26045.9 -03423.7 -07.4886 26269.9
 26 03 2013  22 55  -21.0395 26045.9 -03423.8 -07.4887 26270.0
 26 03 2013  22 56  -21.0393 26045.8 -03423.8 -07.4887 26269.9
 26 03 2013  22 57  -21.0394 26045.6 -03423.7 -07.4885 26269.7
 26 03 2013  22 58  -21.0395 26045.9 -03423.8 -07.4888 26269.9
 26 03 2013  22 59  -21.0394 26045.6 -03423.7 -07.4887 26269.7
 26 03 2013  23 00  -21.0393 26045.5 -03423.6 -07.4885 26269.5
 26 03 2013  23 01  -21.0393 26045.6 -03423.7 -07.4886 26269.7
 26 03 2013  23 02  -21.0393 26045.5 -03423.7 -07.4886 26269.5
 26 03 2013  23 03  -21.0393 26045.4 -03423.6 -07.4885 26269.4
 26 03 2013  23 04  -21.0393 26045.6 -03423.7 -07.4887 26269.7
 26 03 2013  23 05  -21.0392 26045.6 -03423.8 -07.4887 26269.7
 26 03 2013  23 06  -21.0391 26045.9 -03423.9 -07.4890 26269.9
 26 03 2013  23 07  -21.0390 26045.8 -03424.0 -07.4891 26269.9
 26 03 2013  23 08  -21.0390 26045.7 -03423.9 -07.4890 26269.8
 26 03 2013  23 09  -21.0389 26045.8 -03423.9 -07.4891 26269.8
 26 03 2013  23 10  -21.0387 26045.7 -03423.9 -07.4891 26269.8
 26 03 2013  23 11  -21.0385 26045.8 -03424.0 -07.4891 26269.9
 26 03 2013  23 12  -21.0384 26046.1 -03424.1 -07.4892 26270.2
 26 03 2013  23 13  -21.0385 26046.3 -03424.2 -07.4895 26270.5
 26 03 2013  23 14  -21.0385 26046.3 -03424.2 -07.4895 26270.4
 26 03 2013  23 15  -21.0386 26046.2 -03424.2 -07.4894 26270.3
 26 03 2013  23 16  -21.0386 26046.2 -03424.2 -07.4894 26270.3
 26 03 2013  23 17  -21.0386 26046.2 -03424.2 -07.4894 26270.3
 26 03 2013  23 18  -21.0386 26046.2 -03424.2 -07.4894 26270.3
 26 03 2013  23 19  -21.0386 26046.2 -03424.2 -07.4894 26270.3
 26 03 2013  23 20  -21.0386 26046.2 -03424.1 -07.4894 26270.3
 26 03 2013  23 21  -21.0386 26046.1 -03424.1 -07.4893 26270.2
 26 03 2013  23 22  -21.0386 26046.1 -03424.1 -07.4892 26270.2
 26 03 2013  23 23  -21.0385 26046.0 -03424.0 -07.4892 26270.1
 26 03 2013  23 24  -21.0386 26045.9 -03424.0 -07.4891 26270.0
 26 03 2013  23 25  -21.0385 26045.8 -03423.9 -07.4890 26269.9
 26 03 2013  23 26  -21.0385 26045.8 -03423.9 -07.4890 26269.9
 26 03 2013  23 27  -21.0386 26045.8 -03423.9 -07.4890 26269.9
 26 03 2013  23 28  -21.0387 26045.8 -03423.9 -07.4890 26269.8
 26 03 2013  23 29  -21.0386 26045.7 -03423.9 -07.4889 26269.8
 26 03 2013  23 30  -21.0386 26045.7 -03423.9 -07.4889 26269.7
 26 03 2013  23 31  -21.0386 26045.6 -03423.8 -07.4889 26269.7
 26 03 2013  23 32  -21.0385 26045.5 -03423.8 -07.4888 26269.6
 26 03 2013  23 33  -21.0384 26045.5 -03423.8 -07.4888 26269.6
 26 03 2013  23 34  -21.0385 26045.5 -03423.8 -07.4888 26269.6
 26 03 2013  23 35  -21.0385 26045.5 -03423.8 -07.4888 26269.6
 26 03 2013  23 36  -21.0386 26045.5 -03423.8 -07.4889 26269.6
 26 03 2013  23 37  -21.0387 26045.5 -03423.8 -07.4889 26269.6
 26 03 2013  23 38  -21.0387 26045.5 -03423.8 -07.4889 26269.6
 26 03 2013  23 39  -21.0387 26045.4 -03423.8 -07.4888 26269.5
 26 03 2013  23 40  -21.0387 26045.4 -03423.8 -07.4888 26269.5
 26 03 2013  23 41  -21.0387 26045.4 -03423.8 -07.4888 26269.5
 26 03 2013  23 42  -21.0387 26045.3 -03423.7 -07.4887 26269.4
 26 03 2013  23 43  -21.0387 26045.2 -03423.7 -07.4886 26269.3
 26 03 2013  23 44  -21.0386 26045.3 -03423.7 -07.4886 26269.3
 26 03 2013  23 45  -21.0385 26045.3 -03423.7 -07.4887 26269.4
 26 03 2013  23 46  -21.0385 26045.4 -03423.8 -07.4889 26269.5
 26 03 2013  23 47  -21.0384 26045.4 -03423.8 -07.4889 26269.5
 26 03 2013  23 48  -21.0384 26045.4 -03423.8 -07.4889 26269.5
 26 03 2013  23 49  -21.0383 26045.3 -03423.8 -07.4888 26269.4
 26 03 2013  23 50  -21.0382 26045.2 -03423.7 -07.4887 26269.3
 26 03 2013  23 51  -21.0382 26045.2 -03423.7 -07.4887 26269.2
 26 03 2013  23 52  -21.0381 26045.2 -03423.7 -07.4887 26269.2
 26 03 2013  23 53  -21.0381 26045.1 -03423.7 -07.4887 26269.2
 26 03 2013  23 54  -21.0381 26045.0 -03423.7 -07.4887 26269.1
 26 03 2013  23 55  -21.0381 26045.0 -03423.6 -07.4886 26269.0
 26 03 2013  23 56  -21.0383 26044.8 -03423.6 -07.4885 26268.8
 26 03 2013  23 57  -21.0383 26044.6 -03423.5 -07.4884 26268.7
