SAO LUIS EMBRACE-03 <298> 1 Min. Reported data

 DD MM YYYY  HH MM   D(Deg)  H(nT)   Z(nT)   I(Deg)   F(nT)

 25 10 2013  00 00  -21.0019 26025.1 -03499.1 -07.6575 26259.3
 25 10 2013  00 01  -21.0018 26025.1 -03499.1 -07.6576 26259.3
 25 10 2013  00 02  -21.0017 26025.2 -03499.2 -07.6577 26259.4
 25 10 2013  00 03  -21.0016 26025.3 -03499.2 -07.6578 26259.5
 25 10 2013  00 04  -21.0015 26025.3 -03499.3 -07.6578 26259.5
 25 10 2013  00 05  -21.0013 26025.3 -03499.3 -07.6579 26259.5
 25 10 2013  00 06  -21.0012 26025.3 -03499.2 -07.6578 26259.5
 25 10 2013  00 07  -21.0012 26025.3 -03499.3 -07.6578 26259.5
 25 10 2013  00 08  -21.0011 26025.3 -03499.3 -07.6579 26259.5
 25 10 2013  00 09  -21.0010 26025.3 -03499.3 -07.6578 26259.5
 25 10 2013  00 10  -21.0009 26025.2 -03499.3 -07.6579 26259.4
 25 10 2013  00 11  -21.0008 26025.2 -03499.3 -07.6579 26259.4
 25 10 2013  00 12  -21.0008 26025.2 -03499.3 -07.6578 26259.4
 25 10 2013  00 13  -21.0007 26025.2 -03499.2 -07.6578 26259.4
 25 10 2013  00 14  -21.0006 26025.1 -03499.2 -07.6578 26259.3
 25 10 2013  00 15  -21.0007 26025.1 -03499.2 -07.6579 26259.3
 25 10 2013  00 16  -21.0007 26025.1 -03499.3 -07.6579 26259.3
 25 10 2013  00 17  -21.0007 26025.1 -03499.3 -07.6579 26259.3
 25 10 2013  00 18  -21.0008 26025.1 -03499.3 -07.6579 26259.3
 25 10 2013  00 19  -21.0009 26025.1 -03499.3 -07.6580 26259.3
 25 10 2013  00 20  -21.0009 26025.0 -03499.3 -07.6580 26259.2
 25 10 2013  00 21  -21.0009 26025.0 -03499.3 -07.6580 26259.2
 25 10 2013  00 22  -21.0008 26025.0 -03499.3 -07.6580 26259.2
 25 10 2013  00 23  -21.0007 26025.0 -03499.3 -07.6580 26259.2
 25 10 2013  00 24  -21.0007 26025.0 -03499.3 -07.6580 26259.2
 25 10 2013  00 25  -21.0008 26025.0 -03499.3 -07.6581 26259.2
 25 10 2013  00 26  -21.0008 26025.0 -03499.3 -07.6581 26259.2
 25 10 2013  00 27  -21.0009 26024.9 -03499.3 -07.6581 26259.1
 25 10 2013  00 28  -21.0010 26024.9 -03499.3 -07.6581 26259.1
 25 10 2013  00 29  -21.0009 26024.9 -03499.3 -07.6581 26259.1
 25 10 2013  00 30  -21.0009 26024.9 -03499.3 -07.6581 26259.1
 25 10 2013  00 31  -21.0009 26024.9 -03499.4 -07.6582 26259.1
 25 10 2013  00 32  -21.0009 26024.9 -03499.4 -07.6582 26259.1
 25 10 2013  00 33  -21.0008 26024.9 -03499.4 -07.6583 26259.1
 25 10 2013  00 34  -21.0007 26024.9 -03499.4 -07.6583 26259.2
 25 10 2013  00 35  -21.0007 26024.9 -03499.5 -07.6583 26259.2
 25 10 2013  00 36  -21.0007 26024.9 -03499.5 -07.6584 26259.1
 25 10 2013  00 37  -21.0007 26024.9 -03499.5 -07.6584 26259.1
 25 10 2013  00 38  -21.0007 26024.9 -03499.5 -07.6585 26259.1
 25 10 2013  00 39  -21.0007 26024.9 -03499.5 -07.6585 26259.2
 25 10 2013  00 40  -21.0008 26025.0 -03499.5 -07.6585 26259.2
 25 10 2013  00 41  -21.0008 26024.9 -03499.5 -07.6585 26259.2
 25 10 2013  00 42  -21.0007 26024.9 -03499.5 -07.6585 26259.2
 25 10 2013  00 43  -21.0007 26024.9 -03499.5 -07.6585 26259.2
 25 10 2013  00 44  -21.0007 26024.9 -03499.5 -07.6585 26259.1
 25 10 2013  00 45  -21.0007 26024.8 -03499.5 -07.6584 26259.0
 25 10 2013  00 46  -21.0007 26024.7 -03499.4 -07.6584 26258.9
 25 10 2013  00 47  -21.0007 26024.7 -03499.4 -07.6583 26258.9
 25 10 2013  00 48  -21.0006 26024.7 -03499.4 -07.6584 26258.9
 25 10 2013  00 49  -21.0006 26024.6 -03499.4 -07.6583 26258.9
 25 10 2013  00 50  -21.0005 26024.7 -03499.5 -07.6584 26258.9
 25 10 2013  00 51  -21.0004 26024.7 -03499.5 -07.6585 26258.9
 25 10 2013  00 52  -21.0003 26024.7 -03499.5 -07.6586 26259.0
 25 10 2013  00 53  -21.0001 26024.7 -03499.5 -07.6586 26259.0
 25 10 2013  00 54  -21.0000 26024.7 -03499.5 -07.6586 26258.9
 25 10 2013  00 55  -20.9998 26024.7 -03499.5 -07.6586 26258.9
 25 10 2013  00 56  -20.9997 26024.7 -03499.6 -07.6587 26258.9
 25 10 2013  00 57  -20.9996 26024.7 -03499.6 -07.6588 26259.0
 25 10 2013  00 58  -20.9994 26024.8 -03499.6 -07.6588 26259.1
 25 10 2013  00 59  -20.9994 26024.8 -03499.7 -07.6589 26259.1
 25 10 2013  01 00  -20.9993 26024.8 -03499.7 -07.6589 26259.0
 25 10 2013  01 01  -20.9991 26024.7 -03499.6 -07.6588 26259.0
 25 10 2013  01 02  -20.9990 26024.7 -03499.7 -07.6588 26259.0
 25 10 2013  01 03  -20.9990 26024.7 -03499.7 -07.6589 26259.0
 25 10 2013  01 04  -20.9989 26024.8 -03499.7 -07.6589 26259.0
 25 10 2013  01 05  -20.9988 26024.7 -03499.7 -07.6589 26259.0
 25 10 2013  01 06  -20.9988 26024.7 -03499.7 -07.6589 26259.0
 25 10 2013  01 07  -20.9988 26024.7 -03499.7 -07.6589 26259.0
 25 10 2013  01 08  -20.9989 26024.7 -03499.7 -07.6590 26259.0
 25 10 2013  01 09  -20.9990 26024.7 -03499.7 -07.6589 26258.9
 25 10 2013  01 10  -20.9990 26024.6 -03499.7 -07.6589 26258.9
 25 10 2013  01 11  -20.9990 26024.6 -03499.6 -07.6588 26258.9
 25 10 2013  01 12  -20.9990 26024.6 -03499.6 -07.6588 26258.9
 25 10 2013  01 13  -20.9990 26024.6 -03499.6 -07.6588 26258.8
 25 10 2013  01 14  -20.9990 26024.6 -03499.6 -07.6588 26258.8
 25 10 2013  01 15  -20.9990 26024.6 -03499.6 -07.6587 26258.8
 25 10 2013  01 16  -20.9991 26024.6 -03499.6 -07.6588 26258.9
 25 10 2013  01 17  -20.9991 26024.6 -03499.6 -07.6588 26258.9
 25 10 2013  01 18  -20.9990 26024.6 -03499.6 -07.6588 26258.9
 25 10 2013  01 19  -20.9991 26024.7 -03499.6 -07.6588 26258.9
 25 10 2013  01 20  -20.9991 26024.7 -03499.7 -07.6588 26259.0
 25 10 2013  01 21  -20.9991 26024.8 -03499.7 -07.6589 26259.0
 25 10 2013  01 22  -20.9990 26024.8 -03499.7 -07.6588 26259.1
 25 10 2013  01 23  -20.9991 26024.9 -03499.7 -07.6588 26259.1
 25 10 2013  01 24  -20.9991 26024.9 -03499.7 -07.6589 26259.2
 25 10 2013  01 25  -20.9991 26024.9 -03499.7 -07.6588 26259.2
 25 10 2013  01 26  -20.9992 26024.9 -03499.7 -07.6588 26259.2
 25 10 2013  01 27  -20.9992 26024.9 -03499.6 -07.6587 26259.1
 25 10 2013  01 28  -20.9992 26024.8 -03499.6 -07.6586 26259.1
 25 10 2013  01 29  -20.9993 26024.8 -03499.5 -07.6586 26259.0
 25 10 2013  01 30  -20.9993 26024.8 -03499.5 -07.6585 26259.0
 25 10 2013  01 31  -20.9993 26024.7 -03499.5 -07.6584 26259.0
 25 10 2013  01 32  -20.9994 26024.7 -03499.5 -07.6584 26258.9
 25 10 2013  01 33  -20.9995 26024.6 -03499.4 -07.6584 26258.9
 25 10 2013  01 34  -20.9995 26024.5 -03499.3 -07.6582 26258.8
 25 10 2013  01 35  -20.9995 26024.5 -03499.3 -07.6581 26258.7
 25 10 2013  01 36  -20.9996 26024.4 -03499.3 -07.6581 26258.6
 25 10 2013  01 37  -20.9996 26024.4 -03499.2 -07.6581 26258.6
 25 10 2013  01 38  -20.9997 26024.4 -03499.3 -07.6581 26258.6
 25 10 2013  01 39  -20.9997 26024.4 -03499.3 -07.6581 26258.6
 25 10 2013  01 40  -20.9998 26024.5 -03499.3 -07.6581 26258.7
 25 10 2013  01 41  -20.9998 26024.6 -03499.3 -07.6582 26258.8
 25 10 2013  01 42  -20.9997 26024.6 -03499.4 -07.6583 26258.8
 25 10 2013  01 43  -20.9998 26024.6 -03499.4 -07.6583 26258.8
 25 10 2013  01 44  -20.9999 26024.7 -03499.4 -07.6582 26258.9
 25 10 2013  01 45  -21.0000 26024.7 -03499.4 -07.6584 26258.9
 25 10 2013  01 46  -21.0000 26024.8 -03499.4 -07.6584 26259.0
 25 10 2013  01 47  -21.0001 26024.7 -03499.4 -07.6584 26258.9
 25 10 2013  01 48  -21.0001 26024.7 -03499.4 -07.6584 26258.9
 25 10 2013  01 49  -21.0003 26024.6 -03499.4 -07.6584 26258.9
 25 10 2013  01 50  -21.0005 26024.6 -03499.4 -07.6583 26258.8
 25 10 2013  01 51  -21.0005 26024.6 -03499.4 -07.6582 26258.8
 25 10 2013  01 52  -21.0006 26024.5 -03499.4 -07.6583 26258.7
 25 10 2013  01 53  -21.0007 26024.5 -03499.4 -07.6583 26258.7
 25 10 2013  01 54  -21.0008 26024.4 -03499.4 -07.6583 26258.7
 25 10 2013  01 55  -21.0008 26024.4 -03499.3 -07.6583 26258.6
 25 10 2013  01 56  -21.0010 26024.3 -03499.3 -07.6583 26258.5
 25 10 2013  01 57  -21.0011 26024.3 -03499.3 -07.6583 26258.5
 25 10 2013  01 58  -21.0010 26024.2 -03499.3 -07.6582 26258.4
 25 10 2013  01 59  -21.0010 26024.1 -03499.3 -07.6582 26258.3
 25 10 2013  02 00  -21.0010 26024.0 -03499.3 -07.6582 26258.2
 25 10 2013  02 01  -21.0009 26024.0 -03499.3 -07.6582 26258.2
 25 10 2013  02 02  -21.0010 26023.9 -03499.3 -07.6582 26258.1
 25 10 2013  02 03  -21.0011 26023.8 -03499.3 -07.6583 26258.0
 25 10 2013  02 04  -21.0011 26023.7 -03499.2 -07.6583 26257.9
 25 10 2013  02 05  -21.0011 26023.6 -03499.2 -07.6582 26257.8
 25 10 2013  02 06  -21.0011 26023.6 -03499.2 -07.6582 26257.8
 25 10 2013  02 07  -21.0012 26023.5 -03499.2 -07.6583 26257.7
 25 10 2013  02 08  -21.0011 26023.4 -03499.2 -07.6583 26257.6
 25 10 2013  02 09  -21.0012 26023.3 -03499.2 -07.6583 26257.5
 25 10 2013  02 10  -21.0012 26023.3 -03499.2 -07.6584 26257.5
 25 10 2013  02 11  -21.0012 26023.4 -03499.3 -07.6585 26257.6
 25 10 2013  02 12  -21.0012 26023.4 -03499.3 -07.6585 26257.6
 25 10 2013  02 13  -21.0014 26023.4 -03499.4 -07.6586 26257.6
 25 10 2013  02 14  -21.0014 26023.3 -03499.4 -07.6587 26257.5
 25 10 2013  02 15  -21.0014 26023.2 -03499.3 -07.6586 26257.4
 25 10 2013  02 16  -21.0012 26023.0 -03499.3 -07.6585 26257.3
 25 10 2013  02 17  -21.0011 26023.0 -03499.3 -07.6585 26257.2
 25 10 2013  02 18  -21.0009 26022.9 -03499.3 -07.6586 26257.2
 25 10 2013  02 19  -21.0009 26022.9 -03499.3 -07.6585 26257.1
 25 10 2013  02 20  -21.0008 26022.8 -03499.3 -07.6586 26257.1
 25 10 2013  02 21  -21.0008 26022.8 -03499.3 -07.6587 26257.0
 25 10 2013  02 22  -21.0006 26022.8 -03499.4 -07.6587 26257.0
 25 10 2013  02 23  -21.0006 26022.8 -03499.4 -07.6589 26257.1
 25 10 2013  02 24  -21.0005 26022.8 -03499.5 -07.6590 26257.1
 25 10 2013  02 25  -21.0004 26022.8 -03499.5 -07.6590 26257.1
 25 10 2013  02 26  -21.0003 26022.8 -03499.5 -07.6590 26257.0
 25 10 2013  02 27  -21.0003 26022.8 -03499.5 -07.6592 26257.0
 25 10 2013  02 28  -21.0003 26022.9 -03499.6 -07.6593 26257.1
 25 10 2013  02 29  -21.0003 26022.9 -03499.7 -07.6594 26257.2
 25 10 2013  02 30  -21.0004 26022.8 -03499.7 -07.6594 26257.1
 25 10 2013  02 31  -21.0003 26022.7 -03499.6 -07.6594 26256.9
 25 10 2013  02 32  -21.0002 26022.5 -03499.6 -07.6593 26256.8
 25 10 2013  02 33  -21.0000 26022.5 -03499.5 -07.6593 26256.8
 25 10 2013  02 34  -21.0000 26022.5 -03499.6 -07.6594 26256.8
 25 10 2013  02 35  -21.0000 26022.6 -03499.7 -07.6596 26256.9
 25 10 2013  02 36  -20.9999 26022.6 -03499.8 -07.6597 26256.9
 25 10 2013  02 37  -20.9999 26022.6 -03499.8 -07.6598 26256.9
 25 10 2013  02 38  -20.9998 26022.6 -03499.8 -07.6598 26256.9
 25 10 2013  02 39  -20.9998 26022.6 -03499.8 -07.6598 26256.9
 25 10 2013  02 40  -20.9997 26022.6 -03499.8 -07.6598 26256.9
 25 10 2013  02 41  -20.9997 26022.6 -03499.9 -07.6600 26256.9
 25 10 2013  02 42  -20.9997 26022.5 -03499.9 -07.6600 26256.8
 25 10 2013  02 43  -20.9996 26022.3 -03499.9 -07.6600 26256.6
 25 10 2013  02 44  -20.9995 26022.2 -03499.8 -07.6600 26256.5
 25 10 2013  02 45  -20.9994 26022.1 -03499.8 -07.6599 26256.4
 25 10 2013  02 46  -20.9994 26022.1 -03499.9 -07.6601 26256.4
 25 10 2013  02 47  -20.9995 26022.1 -03499.9 -07.6602 26256.4
 25 10 2013  02 48  -20.9995 26021.9 -03499.9 -07.6601 26256.2
 25 10 2013  02 49  -20.9997 26021.9 -03499.8 -07.6601 26256.2
 25 10 2013  02 50  -20.9999 26021.8 -03499.8 -07.6601 26256.1
 25 10 2013  02 51  -21.0001 26021.7 -03499.9 -07.6601 26256.0
 25 10 2013  02 52  -21.0002 26021.7 -03499.9 -07.6602 26256.0
 25 10 2013  02 53  -21.0003 26021.7 -03499.8 -07.6601 26256.0
 25 10 2013  02 54  -21.0002 26021.8 -03499.9 -07.6603 26256.1
 25 10 2013  02 55  -21.0003 26021.9 -03499.9 -07.6602 26256.2
 25 10 2013  02 56  -21.0004 26021.8 -03499.9 -07.6603 26256.1
 25 10 2013  02 57  -21.0006 26021.9 -03500.0 -07.6604 26256.2
 25 10 2013  02 58  -21.0006 26021.9 -03500.0 -07.6603 26256.3
 25 10 2013  02 59  -21.0007 26022.0 -03500.0 -07.6604 26256.3
 25 10 2013  03 00  -21.0007 26022.0 -03500.0 -07.6603 26256.4
 25 10 2013  03 01  -21.0007 26022.1 -03500.0 -07.6604 26256.5
 25 10 2013  03 02  -21.0006 26022.3 -03500.1 -07.6604 26256.6
 25 10 2013  03 03  -21.0006 26022.5 -03500.1 -07.6605 26256.8
 25 10 2013  03 04  -21.0005 26022.5 -03500.1 -07.6605 26256.8
 25 10 2013  03 05  -21.0004 26022.3 -03500.0 -07.6604 26256.7
 25 10 2013  03 06  -21.0004 26022.1 -03499.9 -07.6602 26256.4
 25 10 2013  03 07  -21.0004 26021.8 -03499.7 -07.6599 26256.1
 25 10 2013  03 08  -21.0004 26021.7 -03499.7 -07.6598 26255.9
 25 10 2013  03 09  -21.0003 26021.4 -03499.6 -07.6596 26255.7
 25 10 2013  03 10  -21.0004 26021.2 -03499.5 -07.6595 26255.5
 25 10 2013  03 11  -21.0005 26021.1 -03499.4 -07.6594 26255.3
 25 10 2013  03 12  -21.0006 26021.1 -03499.4 -07.6594 26255.3
 25 10 2013  03 13  -21.0008 26021.1 -03499.5 -07.6596 26255.3
 25 10 2013  03 14  -21.0008 26021.0 -03499.5 -07.6595 26255.3
 25 10 2013  03 15  -21.0009 26021.0 -03499.5 -07.6596 26255.3
 25 10 2013  03 16  -21.0008 26021.0 -03499.5 -07.6596 26255.3
 25 10 2013  03 17  -21.0008 26021.0 -03499.5 -07.6597 26255.3
 25 10 2013  03 18  -21.0007 26021.1 -03499.5 -07.6597 26255.4
 25 10 2013  03 19  -21.0007 26021.1 -03499.6 -07.6597 26255.4
 25 10 2013  03 20  -21.0007 26021.2 -03499.6 -07.6598 26255.5
 25 10 2013  03 21  -21.0006 26021.3 -03499.7 -07.6599 26255.5
 25 10 2013  03 22  -21.0005 26021.3 -03499.7 -07.6599 26255.5
 25 10 2013  03 23  -21.0003 26021.3 -03499.7 -07.6599 26255.6
 25 10 2013  03 24  -21.0002 26021.3 -03499.7 -07.6600 26255.6
 25 10 2013  03 25  -21.0000 26021.3 -03499.7 -07.6599 26255.6
 25 10 2013  03 26  -21.0000 26021.3 -03499.7 -07.6600 26255.6
 25 10 2013  03 27  -20.9999 26021.3 -03499.7 -07.6600 26255.6
 25 10 2013  03 28  -20.9999 26021.3 -03499.7 -07.6600 26255.6
 25 10 2013  03 29  -20.9998 26021.3 -03499.7 -07.6600 26255.6
 25 10 2013  03 30  -20.9998 26021.2 -03499.7 -07.6601 26255.5
 25 10 2013  03 31  -20.9998 26021.1 -03499.7 -07.6600 26255.4
 25 10 2013  03 32  -20.9997 26021.0 -03499.7 -07.6600 26255.3
 25 10 2013  03 33  -20.9998 26021.0 -03499.7 -07.6600 26255.3
 25 10 2013  03 34  -20.9998 26021.0 -03499.7 -07.6600 26255.3
 25 10 2013  03 35  -20.9998 26021.0 -03499.7 -07.6601 26255.3
 25 10 2013  03 36  -20.9998 26021.0 -03499.7 -07.6600 26255.3
 25 10 2013  03 37  -20.9999 26021.0 -03499.8 -07.6602 26255.3
 25 10 2013  03 38  -20.9998 26021.0 -03499.8 -07.6603 26255.3
 25 10 2013  03 39  -20.9997 26021.0 -03499.8 -07.6603 26255.4
 25 10 2013  03 40  -20.9998 26021.2 -03499.9 -07.6605 26255.5
 25 10 2013  03 41  -20.9999 26021.3 -03500.0 -07.6606 26255.6
 25 10 2013  03 42  -20.9999 26021.2 -03500.0 -07.6605 26255.6
 25 10 2013  03 43  -20.9996 26021.1 -03499.9 -07.6604 26255.4
 25 10 2013  03 44  -20.9995 26020.9 -03499.8 -07.6602 26255.2
 25 10 2013  03 45  -20.9992 26020.9 -03499.8 -07.6603 26255.2
 25 10 2013  03 46  -20.9991 26021.0 -03499.9 -07.6604 26255.3
 25 10 2013  03 47  -20.9993 26021.0 -03499.9 -07.6604 26255.3
 25 10 2013  03 48  -20.9993 26020.9 -03499.9 -07.6605 26255.3
 25 10 2013  03 49  -20.9990 26021.2 -03500.0 -07.6606 26255.5
 25 10 2013  03 50  -20.9990 26021.4 -03500.1 -07.6608 26255.7
 25 10 2013  03 51  -20.9990 26021.1 -03500.1 -07.6608 26255.5
 25 10 2013  03 52  -20.9986 26021.3 -03500.1 -07.6608 26255.7
 25 10 2013  03 53  -20.9984 26021.6 -03500.3 -07.6610 26256.0
 25 10 2013  03 54  -20.9988 26021.7 -03500.3 -07.6612 26256.0
 25 10 2013  03 55  -20.9986 26021.8 -03500.4 -07.6612 26256.2
 25 10 2013  03 56  -20.9986 26022.1 -03500.5 -07.6615 26256.4
 25 10 2013  03 57  -20.9986 26022.0 -03500.5 -07.6614 26256.4
 25 10 2013  03 58  -20.9987 26021.7 -03500.3 -07.6612 26256.1
 25 10 2013  03 59  -20.9981 26021.8 -03500.3 -07.6611 26256.2
 25 10 2013  04 00  -20.9978 26022.0 -03500.4 -07.6612 26256.4
 25 10 2013  04 01  -20.9979 26021.9 -03500.4 -07.6612 26256.3
 25 10 2013  04 02  -20.9979 26021.7 -03500.3 -07.6611 26256.0
 25 10 2013  04 03  -20.9978 26021.7 -03500.3 -07.6610 26256.0
 25 10 2013  04 04  -20.9976 26021.8 -03500.4 -07.6612 26256.2
 25 10 2013  04 05  -20.9976 26021.8 -03500.3 -07.6611 26256.1
 25 10 2013  04 06  -20.9976 26021.6 -03500.3 -07.6611 26256.0
 25 10 2013  04 07  -20.9974 26021.8 -03500.3 -07.6611 26256.2
 25 10 2013  04 08  -20.9977 26021.8 -03500.4 -07.6612 26256.1
 25 10 2013  04 09  -20.9981 26021.4 -03500.2 -07.6610 26255.7
 25 10 2013  04 10  -20.9975 26021.6 -03500.2 -07.6610 26255.9
 25 10 2013  04 11  -20.9973 26022.0 -03500.4 -07.6613 26256.4
 25 10 2013  04 12  -20.9977 26022.1 -03500.5 -07.6615 26256.5
 25 10 2013  04 13  -20.9981 26021.7 -03500.4 -07.6613 26256.1
 25 10 2013  04 14  -20.9980 26021.7 -03500.3 -07.6612 26256.1
 25 10 2013  04 15  -20.9980 26021.8 -03500.4 -07.6612 26256.2
 25 10 2013  04 16  -20.9979 26022.0 -03500.4 -07.6613 26256.3
 25 10 2013  04 17  -20.9978 26021.9 -03500.4 -07.6612 26256.3
 25 10 2013  04 18  -20.9975 26021.9 -03500.3 -07.6611 26256.2
 25 10 2013  04 19  -20.9976 26021.5 -03500.1 -07.6608 26255.9
 25 10 2013  04 20  -20.9973 26021.6 -03500.1 -07.6608 26255.9
 25 10 2013  04 21  -20.9972 26022.0 -03500.4 -07.6611 26256.4
 25 10 2013  04 22  -20.9976 26021.9 -03500.4 -07.6612 26256.2
 25 10 2013  04 23  -20.9974 26021.7 -03500.2 -07.6610 26256.1
 25 10 2013  04 24  -20.9970 26021.8 -03500.3 -07.6610 26256.1
 25 10 2013  04 25  -20.9970 26021.8 -03500.2 -07.6610 26256.1
 25 10 2013  04 26  -20.9971 26021.7 -03500.3 -07.6610 26256.1
 25 10 2013  04 27  -20.9971 26021.8 -03500.3 -07.6611 26256.2
 25 10 2013  04 28  -20.9972 26021.8 -03500.3 -07.6610 26256.1
 25 10 2013  04 29  -20.9973 26021.6 -03500.2 -07.6610 26256.0
 25 10 2013  04 30  -20.9972 26021.6 -03500.1 -07.6608 26256.0
 25 10 2013  04 31  -20.9972 26021.7 -03500.2 -07.6609 26256.1
 25 10 2013  04 32  -20.9973 26021.7 -03500.2 -07.6609 26256.0
 25 10 2013  04 33  -20.9972 26021.5 -03500.1 -07.6608 26255.9
 25 10 2013  04 34  -20.9970 26021.5 -03500.1 -07.6607 26255.8
 25 10 2013  04 35  -20.9967 26021.5 -03500.0 -07.6606 26255.8
 25 10 2013  04 36  -20.9966 26021.5 -03500.0 -07.6606 26255.8
 25 10 2013  04 37  -20.9968 26021.5 -03500.1 -07.6607 26255.8
 25 10 2013  04 38  -20.9967 26021.5 -03500.1 -07.6607 26255.8
 25 10 2013  04 39  -20.9968 26021.4 -03500.0 -07.6607 26255.8
 25 10 2013  04 40  -20.9969 26021.3 -03500.0 -07.6606 26255.6
 25 10 2013  04 41  -20.9969 26021.2 -03499.9 -07.6605 26255.5
 25 10 2013  04 42  -20.9969 26021.3 -03500.0 -07.6605 26255.6
 25 10 2013  04 43  -20.9969 26021.2 -03500.0 -07.6605 26255.6
 25 10 2013  04 44  -20.9969 26021.2 -03499.9 -07.6605 26255.5
 25 10 2013  04 45  -20.9968 26021.2 -03499.9 -07.6605 26255.5
 25 10 2013  04 46  -20.9967 26021.2 -03500.0 -07.6606 26255.5
 25 10 2013  04 47  -20.9964 26021.2 -03500.0 -07.6605 26255.5
 25 10 2013  04 48  -20.9963 26021.2 -03500.0 -07.6606 26255.5
 25 10 2013  04 49  -20.9963 26021.2 -03500.0 -07.6606 26255.6
 25 10 2013  04 50  -20.9964 26021.1 -03500.0 -07.6606 26255.5
 25 10 2013  04 51  -20.9964 26021.0 -03499.9 -07.6605 26255.3
 25 10 2013  04 52  -20.9963 26020.9 -03499.9 -07.6605 26255.2
 25 10 2013  04 53  -20.9961 26021.0 -03499.9 -07.6605 26255.3
 25 10 2013  04 54  -20.9958 26021.1 -03499.9 -07.6605 26255.4
 25 10 2013  04 55  -20.9956 26021.2 -03500.1 -07.6607 26255.5
 25 10 2013  04 56  -20.9952 26021.4 -03500.2 -07.6609 26255.8
 25 10 2013  04 57  -20.9948 26021.6 -03500.3 -07.6611 26256.0
 25 10 2013  04 58  -20.9945 26021.5 -03500.3 -07.6612 26255.9
 25 10 2013  04 59  -20.9941 26021.6 -03500.3 -07.6611 26255.9
 25 10 2013  05 00  -20.9936 26021.9 -03500.5 -07.6614 26256.3
 25 10 2013  05 01  -20.9932 26021.9 -03500.5 -07.6616 26256.3
 25 10 2013  05 02  -20.9932 26021.7 -03500.5 -07.6616 26256.1
 25 10 2013  05 03  -20.9929 26021.5 -03500.4 -07.6614 26255.9
 25 10 2013  05 04  -20.9929 26021.4 -03500.4 -07.6614 26255.8
 25 10 2013  05 05  -20.9931 26021.5 -03500.4 -07.6615 26255.8
 25 10 2013  05 06  -20.9934 26021.6 -03500.5 -07.6616 26256.0
 25 10 2013  05 07  -20.9936 26021.9 -03500.8 -07.6620 26256.4
 25 10 2013  05 08  -20.9938 26022.2 -03500.9 -07.6622 26256.6
 25 10 2013  05 09  -20.9936 26022.2 -03500.9 -07.6623 26256.6
 25 10 2013  05 10  -20.9938 26022.3 -03501.0 -07.6624 26256.7
 25 10 2013  05 11  -20.9935 26022.3 -03500.9 -07.6622 26256.7
 25 10 2013  05 12  -20.9933 26022.2 -03500.9 -07.6622 26256.6
 25 10 2013  05 13  -20.9932 26022.2 -03500.9 -07.6623 26256.7
 25 10 2013  05 14  -20.9932 26022.3 -03501.0 -07.6624 26256.7
 25 10 2013  05 15  -20.9933 26022.2 -03501.0 -07.6624 26256.6
 25 10 2013  05 16  -20.9937 26022.2 -03501.0 -07.6624 26256.6
 25 10 2013  05 17  -20.9943 26022.3 -03501.1 -07.6626 26256.8
 25 10 2013  05 18  -20.9946 26022.4 -03501.1 -07.6626 26256.8
 25 10 2013  05 19  -20.9950 26022.4 -03501.1 -07.6626 26256.9
 25 10 2013  05 20  -20.9956 26022.5 -03501.1 -07.6627 26257.0
 25 10 2013  05 21  -20.9960 26022.5 -03501.1 -07.6627 26257.0
 25 10 2013  05 22  -20.9964 26022.5 -03501.1 -07.6627 26257.0
 25 10 2013  05 23  -20.9968 26022.5 -03501.1 -07.6626 26257.0
 25 10 2013  05 24  -20.9972 26022.6 -03501.1 -07.6625 26257.1
 25 10 2013  05 25  -20.9976 26022.8 -03501.1 -07.6625 26257.2
 25 10 2013  05 26  -20.9980 26022.9 -03501.1 -07.6626 26257.4
 25 10 2013  05 27  -20.9983 26023.0 -03501.1 -07.6626 26257.4
 25 10 2013  05 28  -20.9985 26023.0 -03501.1 -07.6624 26257.4
 25 10 2013  05 29  -20.9987 26023.0 -03501.1 -07.6624 26257.5
 25 10 2013  05 30  -20.9993 26023.2 -03501.1 -07.6625 26257.7
 25 10 2013  05 31  -20.9999 26023.3 -03501.1 -07.6625 26257.8
 25 10 2013  05 32  -21.0004 26023.4 -03501.1 -07.6624 26257.9
 25 10 2013  05 33  -21.0007 26023.5 -03501.2 -07.6625 26258.0
 25 10 2013  05 34  -21.0012 26023.6 -03501.2 -07.6625 26258.1
 25 10 2013  05 35  -21.0014 26023.6 -03501.1 -07.6624 26258.1
 25 10 2013  05 36  -21.0018 26023.7 -03501.1 -07.6623 26258.2
 25 10 2013  05 37  -21.0019 26023.8 -03501.0 -07.6621 26258.2
 25 10 2013  05 38  -21.0021 26023.8 -03501.0 -07.6620 26258.3
 25 10 2013  05 39  -21.0022 26023.9 -03501.0 -07.6619 26258.3
 25 10 2013  05 40  -21.0022 26024.0 -03500.9 -07.6618 26258.4
 25 10 2013  05 41  -21.0024 26024.0 -03500.9 -07.6618 26258.4
 25 10 2013  05 42  -21.0026 26024.0 -03500.9 -07.6618 26258.4
 25 10 2013  05 43  -21.0028 26024.0 -03500.9 -07.6617 26258.5
 25 10 2013  05 44  -21.0029 26024.1 -03500.9 -07.6617 26258.5
 25 10 2013  05 45  -21.0030 26024.2 -03500.9 -07.6617 26258.6
 25 10 2013  05 46  -21.0034 26024.3 -03500.9 -07.6616 26258.8
 25 10 2013  05 47  -21.0034 26024.5 -03501.0 -07.6617 26259.0
 25 10 2013  05 48  -21.0030 26024.4 -03500.8 -07.6615 26258.8
 25 10 2013  05 49  -21.0032 26024.4 -03500.8 -07.6614 26258.8
 25 10 2013  05 50  -21.0035 26024.5 -03500.8 -07.6615 26258.9
 25 10 2013  05 51  -21.0036 26024.6 -03500.8 -07.6614 26259.0
 25 10 2013  05 52  -21.0035 26024.5 -03500.7 -07.6613 26258.9
 25 10 2013  05 53  -21.0034 26024.5 -03500.7 -07.6612 26258.9
 25 10 2013  05 54  -21.0035 26024.6 -03500.8 -07.6613 26259.0
 25 10 2013  05 55  -21.0035 26024.5 -03500.7 -07.6611 26258.9
 25 10 2013  05 56  -21.0035 26024.5 -03500.6 -07.6610 26258.8
 25 10 2013  05 57  -21.0035 26024.7 -03500.7 -07.6610 26259.1
 25 10 2013  05 58  -21.0035 26024.9 -03500.7 -07.6612 26259.3
 25 10 2013  05 59  -21.0030 26024.8 -03500.7 -07.6611 26259.2
 25 10 2013  06 00  -21.0027 26024.8 -03500.7 -07.6611 26259.2
 25 10 2013  06 01  -21.0027 26024.9 -03500.8 -07.6612 26259.3
 25 10 2013  06 02  -21.0028 26025.1 -03500.8 -07.6613 26259.5
 25 10 2013  06 03  -21.0028 26025.2 -03500.9 -07.6614 26259.6
 25 10 2013  06 04  -21.0025 26025.2 -03500.9 -07.6613 26259.6
 25 10 2013  06 05  -21.0026 26025.2 -03500.9 -07.6613 26259.6
 25 10 2013  06 06  -21.0024 26025.2 -03500.9 -07.6613 26259.6
 25 10 2013  06 07  -21.0021 26025.3 -03500.8 -07.6613 26259.7
 25 10 2013  06 08  -21.0019 26025.4 -03500.9 -07.6613 26259.8
 25 10 2013  06 09  -21.0017 26025.4 -03500.9 -07.6613 26259.8
 25 10 2013  06 10  -21.0014 26025.7 -03501.0 -07.6615 26260.1
 25 10 2013  06 11  -21.0008 26025.8 -03501.1 -07.6616 26260.2
 25 10 2013  06 12  -21.0004 26025.7 -03501.0 -07.6615 26260.1
 25 10 2013  06 13  -21.0003 26025.8 -03501.1 -07.6617 26260.2
 25 10 2013  06 14  -21.0001 26025.8 -03501.1 -07.6617 26260.3
 25 10 2013  06 15  -20.9996 26025.8 -03501.1 -07.6617 26260.2
 25 10 2013  06 16  -20.9993 26025.8 -03501.1 -07.6617 26260.3
 25 10 2013  06 17  -20.9990 26025.9 -03501.2 -07.6618 26260.3
 25 10 2013  06 18  -20.9990 26025.9 -03501.2 -07.6619 26260.3
 25 10 2013  06 19  -20.9988 26025.9 -03501.2 -07.6619 26260.4
 25 10 2013  06 20  -20.9981 26025.9 -03501.2 -07.6618 26260.3
 25 10 2013  06 21  -20.9980 26025.9 -03501.2 -07.6619 26260.3
 25 10 2013  06 22  -20.9980 26025.7 -03501.2 -07.6619 26260.2
 25 10 2013  06 23  -20.9979 26025.5 -03501.1 -07.6617 26259.9
 25 10 2013  06 24  -20.9981 26025.2 -03500.9 -07.6615 26259.6
 25 10 2013  06 25  -20.9985 26025.1 -03500.9 -07.6615 26259.5
 25 10 2013  06 26  -20.9985 26025.2 -03501.0 -07.6615 26259.6
 25 10 2013  06 27  -20.9984 26025.2 -03501.0 -07.6616 26259.6
 25 10 2013  06 28  -20.9982 26025.2 -03501.0 -07.6617 26259.6
 25 10 2013  06 29  -20.9982 26025.3 -03501.1 -07.6618 26259.7
 25 10 2013  06 30  -20.9983 26025.3 -03501.1 -07.6619 26259.7
 25 10 2013  06 31  -20.9983 26025.3 -03501.1 -07.6619 26259.7
 25 10 2013  06 32  -20.9984 26025.3 -03501.2 -07.6620 26259.7
 25 10 2013  06 33  -20.9984 26025.2 -03501.2 -07.6620 26259.7
 25 10 2013  06 34  -20.9982 26025.0 -03501.1 -07.6618 26259.5
 25 10 2013  06 35  -20.9981 26024.7 -03500.9 -07.6616 26259.1
 25 10 2013  06 36  -20.9985 26024.8 -03501.0 -07.6616 26259.3
 25 10 2013  06 37  -20.9985 26024.9 -03501.1 -07.6619 26259.3
 25 10 2013  06 38  -20.9986 26024.8 -03501.1 -07.6619 26259.3
 25 10 2013  06 39  -20.9987 26024.9 -03501.2 -07.6620 26259.4
 25 10 2013  06 40  -20.9989 26025.2 -03501.3 -07.6622 26259.7
 25 10 2013  06 41  -20.9988 26025.2 -03501.3 -07.6623 26259.6
 25 10 2013  06 42  -20.9990 26025.1 -03501.3 -07.6622 26259.5
 25 10 2013  06 43  -20.9990 26025.3 -03501.3 -07.6623 26259.8
 25 10 2013  06 44  -20.9988 26025.5 -03501.4 -07.6625 26260.0
 25 10 2013  06 45  -20.9986 26025.3 -03501.3 -07.6623 26259.8
 25 10 2013  06 46  -20.9987 26025.2 -03501.4 -07.6624 26259.7
 25 10 2013  06 47  -20.9986 26025.0 -03501.3 -07.6622 26259.4
 25 10 2013  06 48  -20.9988 26024.6 -03501.1 -07.6620 26259.0
 25 10 2013  06 49  -20.9990 26024.4 -03501.0 -07.6618 26258.8
 25 10 2013  06 50  -20.9991 26024.3 -03500.9 -07.6617 26258.8
 25 10 2013  06 51  -20.9992 26024.2 -03500.9 -07.6617 26258.6
 25 10 2013  06 52  -20.9995 26024.1 -03500.9 -07.6616 26258.5
 25 10 2013  06 53  -20.9997 26024.1 -03500.9 -07.6618 26258.6
 25 10 2013  06 54  -20.9997 26024.1 -03500.9 -07.6617 26258.6
 25 10 2013  06 55  -20.9998 26024.1 -03500.9 -07.6617 26258.5
 25 10 2013  06 56  -20.9998 26024.1 -03500.9 -07.6617 26258.5
 25 10 2013  06 57  -20.9999 26024.0 -03500.9 -07.6617 26258.4
 25 10 2013  06 58  -20.9999 26023.9 -03500.9 -07.6617 26258.4
 25 10 2013  06 59  -20.9999 26023.8 -03500.8 -07.6616 26258.2
 25 10 2013  07 00  -21.0000 26023.8 -03500.9 -07.6617 26258.3
 25 10 2013  07 01  -21.0003 26024.2 -03501.1 -07.6620 26258.7
 25 10 2013  07 02  -21.0003 26024.6 -03501.3 -07.6624 26259.1
 25 10 2013  07 03  -21.0000 26024.7 -03501.3 -07.6625 26259.2
 25 10 2013  07 04  -20.9997 26024.7 -03501.3 -07.6625 26259.2
 25 10 2013  07 05  -20.9995 26024.6 -03501.3 -07.6624 26259.0
 25 10 2013  07 06  -20.9995 26024.8 -03501.4 -07.6625 26259.2
 25 10 2013  07 07  -20.9991 26024.7 -03501.4 -07.6625 26259.2
 25 10 2013  07 08  -20.9989 26024.7 -03501.3 -07.6625 26259.2
 25 10 2013  07 09  -20.9989 26024.7 -03501.4 -07.6626 26259.2
 25 10 2013  07 10  -20.9990 26024.9 -03501.5 -07.6628 26259.4
 25 10 2013  07 11  -20.9988 26025.0 -03501.6 -07.6629 26259.5
 25 10 2013  07 12  -20.9986 26025.0 -03501.6 -07.6630 26259.5
 25 10 2013  07 13  -20.9985 26025.0 -03501.6 -07.6630 26259.5
 25 10 2013  07 14  -20.9985 26025.1 -03501.7 -07.6632 26259.6
 25 10 2013  07 15  -20.9984 26025.1 -03501.8 -07.6633 26259.7
 25 10 2013  07 16  -20.9984 26024.9 -03501.7 -07.6631 26259.5
 25 10 2013  07 17  -20.9986 26024.9 -03501.7 -07.6631 26259.4
 25 10 2013  07 18  -20.9986 26024.7 -03501.6 -07.6631 26259.3
 25 10 2013  07 19  -20.9989 26024.7 -03501.6 -07.6631 26259.2
 25 10 2013  07 20  -20.9992 26024.7 -03501.7 -07.6632 26259.3
 25 10 2013  07 21  -20.9993 26024.9 -03501.7 -07.6633 26259.4
 25 10 2013  07 22  -20.9993 26024.8 -03501.8 -07.6634 26259.3
 25 10 2013  07 23  -20.9994 26024.7 -03501.7 -07.6633 26259.3
 25 10 2013  07 24  -20.9995 26024.7 -03501.7 -07.6633 26259.2
 25 10 2013  07 25  -20.9996 26024.6 -03501.7 -07.6633 26259.1
 25 10 2013  07 26  -21.0000 26024.5 -03501.7 -07.6632 26259.1
 25 10 2013  07 27  -21.0003 26024.7 -03501.7 -07.6633 26259.2
 25 10 2013  07 28  -21.0004 26024.8 -03501.8 -07.6634 26259.4
 25 10 2013  07 29  -21.0006 26024.9 -03501.8 -07.6635 26259.5
 25 10 2013  07 30  -21.0007 26025.0 -03501.9 -07.6636 26259.6
 25 10 2013  07 31  -21.0008 26025.1 -03501.9 -07.6636 26259.6
 25 10 2013  07 32  -21.0010 26025.0 -03501.9 -07.6635 26259.6
 25 10 2013  07 33  -21.0012 26025.0 -03501.8 -07.6635 26259.6
 25 10 2013  07 34  -21.0013 26025.0 -03501.8 -07.6634 26259.6
 25 10 2013  07 35  -21.0015 26025.1 -03501.8 -07.6634 26259.6
 25 10 2013  07 36  -21.0018 26025.1 -03501.9 -07.6635 26259.7
 25 10 2013  07 37  -21.0019 26025.1 -03501.9 -07.6635 26259.7
 25 10 2013  07 38  -21.0021 26025.0 -03501.8 -07.6634 26259.6
 25 10 2013  07 39  -21.0022 26024.9 -03501.7 -07.6633 26259.4
 25 10 2013  07 40  -21.0023 26024.9 -03501.7 -07.6633 26259.4
 25 10 2013  07 41  -21.0024 26024.8 -03501.7 -07.6633 26259.4
 25 10 2013  07 42  -21.0023 26024.8 -03501.7 -07.6633 26259.4
 25 10 2013  07 43  -21.0024 26025.0 -03501.8 -07.6634 26259.5
 25 10 2013  07 44  -21.0024 26025.0 -03501.8 -07.6634 26259.5
 25 10 2013  07 45  -21.0024 26025.0 -03501.8 -07.6634 26259.5
 25 10 2013  07 46  -21.0025 26024.9 -03501.8 -07.6634 26259.4
 25 10 2013  07 47  -21.0026 26024.8 -03501.8 -07.6634 26259.4
 25 10 2013  07 48  -21.0026 26024.7 -03501.7 -07.6633 26259.2
 25 10 2013  07 49  -21.0026 26024.5 -03501.7 -07.6632 26259.1
 25 10 2013  07 50  -21.0027 26024.4 -03501.6 -07.6631 26259.0
 25 10 2013  07 51  -21.0029 26024.4 -03501.6 -07.6632 26258.9
 25 10 2013  07 52  -21.0031 26024.5 -03501.7 -07.6633 26259.0
 25 10 2013  07 53  -21.0034 26025.0 -03502.0 -07.6638 26259.6
 25 10 2013  07 54  -21.0030 26025.3 -03502.2 -07.6641 26259.9
 25 10 2013  07 55  -21.0026 26025.1 -03502.0 -07.6639 26259.7
 25 10 2013  07 56  -21.0024 26024.9 -03501.9 -07.6636 26259.5
 25 10 2013  07 57  -21.0024 26025.0 -03501.9 -07.6637 26259.5
 25 10 2013  07 58  -21.0023 26025.1 -03502.1 -07.6639 26259.7
 25 10 2013  07 59  -21.0017 26025.0 -03502.0 -07.6638 26259.5
 25 10 2013  08 00  -21.0008 26025.0 -03501.9 -07.6636 26259.5
 25 10 2013  08 01  -20.9998 26025.1 -03501.9 -07.6637 26259.7
 25 10 2013  08 02  -20.9991 26025.3 -03502.1 -07.6639 26259.9
 25 10 2013  08 03  -20.9988 26025.3 -03502.1 -07.6639 26259.9
 25 10 2013  08 04  -20.9987 26025.3 -03502.1 -07.6640 26259.9
 25 10 2013  08 05  -20.9986 26025.3 -03502.2 -07.6642 26259.9
 25 10 2013  08 06  -20.9987 26025.4 -03502.3 -07.6644 26260.0
 25 10 2013  08 07  -20.9987 26025.3 -03502.3 -07.6644 26259.9
 25 10 2013  08 08  -20.9987 26025.2 -03502.3 -07.6643 26259.8
 25 10 2013  08 09  -20.9990 26025.1 -03502.2 -07.6643 26259.7
 25 10 2013  08 10  -20.9994 26025.2 -03502.3 -07.6645 26259.8
 25 10 2013  08 11  -20.9996 26025.3 -03502.3 -07.6645 26259.9
 25 10 2013  08 12  -20.9997 26025.3 -03502.3 -07.6645 26259.9
 25 10 2013  08 13  -20.9998 26025.4 -03502.4 -07.6645 26260.0
 25 10 2013  08 14  -20.9997 26025.5 -03502.3 -07.6644 26260.1
 25 10 2013  08 15  -20.9998 26025.3 -03502.2 -07.6642 26259.9
 25 10 2013  08 16  -20.9999 26025.2 -03502.1 -07.6640 26259.8
 25 10 2013  08 17  -21.0000 26025.2 -03502.1 -07.6639 26259.7
 25 10 2013  08 18  -20.9999 26025.1 -03501.9 -07.6637 26259.6
 25 10 2013  08 19  -20.9998 26024.9 -03501.8 -07.6634 26259.4
 25 10 2013  08 20  -20.9998 26024.6 -03501.6 -07.6630 26259.1
 25 10 2013  08 21  -20.9997 26024.5 -03501.5 -07.6629 26259.0
 25 10 2013  08 22  -20.9995 26024.5 -03501.4 -07.6627 26259.0
 25 10 2013  08 23  -20.9995 26024.5 -03501.4 -07.6627 26259.0
 25 10 2013  08 24  -20.9991 26024.6 -03501.4 -07.6627 26259.1
 25 10 2013  08 25  -20.9985 26024.5 -03501.3 -07.6625 26259.0
 25 10 2013  08 26  -20.9979 26024.3 -03501.2 -07.6624 26258.8
 25 10 2013  08 27  -20.9975 26024.1 -03501.1 -07.6622 26258.5
 25 10 2013  08 28  -20.9971 26023.8 -03501.1 -07.6621 26258.3
 25 10 2013  08 29  -20.9967 26023.7 -03501.0 -07.6621 26258.1
 25 10 2013  08 30  -20.9961 26023.5 -03501.1 -07.6622 26258.0
 25 10 2013  08 31  -20.9955 26023.4 -03501.1 -07.6624 26257.9
 25 10 2013  08 32  -20.9950 26023.4 -03501.3 -07.6627 26257.9
 25 10 2013  08 33  -20.9945 26023.4 -03501.4 -07.6630 26257.9
 25 10 2013  08 34  -20.9940 26023.3 -03501.5 -07.6633 26257.8
 25 10 2013  08 35  -20.9937 26023.2 -03501.7 -07.6637 26257.8
 25 10 2013  08 36  -20.9935 26023.3 -03501.9 -07.6641 26257.8
 25 10 2013  08 37  -20.9932 26023.2 -03502.1 -07.6645 26257.8
 25 10 2013  08 38  -20.9930 26023.3 -03502.3 -07.6649 26257.9
 25 10 2013  08 39  -20.9929 26023.1 -03502.4 -07.6652 26257.8
 25 10 2013  08 40  -20.9928 26022.9 -03502.3 -07.6651 26257.6
 25 10 2013  08 41  -20.9926 26023.0 -03502.5 -07.6655 26257.7
 25 10 2013  08 42  -20.9925 26023.1 -03502.8 -07.6661 26257.7
 25 10 2013  08 43  -20.9923 26023.2 -03503.0 -07.6666 26257.9
 25 10 2013  08 44  -20.9923 26023.2 -03503.3 -07.6671 26257.9
 25 10 2013  08 45  -20.9924 26023.3 -03503.5 -07.6676 26258.1
 25 10 2013  08 46  -20.9924 26023.5 -03503.8 -07.6681 26258.3
 25 10 2013  08 47  -20.9925 26023.7 -03504.0 -07.6685 26258.5
 25 10 2013  08 48  -20.9924 26023.7 -03504.2 -07.6689 26258.6
 25 10 2013  08 49  -20.9925 26023.8 -03504.4 -07.6693 26258.7
 25 10 2013  08 50  -20.9928 26023.9 -03504.6 -07.6697 26258.8
 25 10 2013  08 51  -20.9934 26024.1 -03504.8 -07.6701 26259.0
 25 10 2013  08 52  -20.9936 26024.1 -03504.9 -07.6705 26259.1
 25 10 2013  08 53  -20.9942 26024.2 -03505.1 -07.6707 26259.1
 25 10 2013  08 54  -20.9946 26024.2 -03505.2 -07.6710 26259.2
 25 10 2013  08 55  -20.9949 26024.3 -03505.4 -07.6714 26259.4
 25 10 2013  08 56  -20.9951 26024.5 -03505.6 -07.6718 26259.6
 25 10 2013  08 57  -20.9954 26024.5 -03505.8 -07.6722 26259.6
 25 10 2013  08 58  -20.9960 26024.6 -03506.0 -07.6725 26259.7
 25 10 2013  08 59  -20.9963 26024.8 -03506.1 -07.6729 26259.9
 25 10 2013  09 00  -20.9968 26025.0 -03506.3 -07.6732 26260.1
 25 10 2013  09 01  -20.9977 26025.0 -03506.5 -07.6735 26260.1
 25 10 2013  09 02  -20.9984 26025.0 -03506.5 -07.6736 26260.2
 25 10 2013  09 03  -20.9984 26025.3 -03506.7 -07.6739 26260.5
 25 10 2013  09 04  -20.9988 26025.7 -03507.0 -07.6745 26260.9
 25 10 2013  09 05  -20.9991 26025.9 -03507.2 -07.6748 26261.1
 25 10 2013  09 06  -20.9997 26026.0 -03507.2 -07.6749 26261.3
 25 10 2013  09 07  -21.0004 26026.3 -03507.4 -07.6750 26261.5
 25 10 2013  09 08  -21.0013 26026.4 -03507.4 -07.6751 26261.7
 25 10 2013  09 09  -21.0020 26026.0 -03507.3 -07.6749 26261.3
 25 10 2013  09 10  -21.0024 26026.2 -03507.2 -07.6748 26261.4
 25 10 2013  09 11  -21.0032 26026.4 -03507.3 -07.6748 26261.7
 25 10 2013  09 12  -21.0041 26026.3 -03507.4 -07.6751 26261.6
 25 10 2013  09 13  -21.0041 26026.2 -03507.4 -07.6752 26261.5
 25 10 2013  09 14  -21.0041 26026.1 -03507.4 -07.6752 26261.3
 25 10 2013  09 15  -21.0044 26026.2 -03507.5 -07.6755 26261.5
 25 10 2013  09 16  -21.0049 26026.1 -03507.6 -07.6756 26261.4
 25 10 2013  09 17  -21.0052 26025.9 -03507.6 -07.6756 26261.2
 25 10 2013  09 18  -21.0055 26026.1 -03507.7 -07.6759 26261.4
 25 10 2013  09 19  -21.0063 26026.3 -03508.0 -07.6763 26261.7
 25 10 2013  09 20  -21.0068 26026.4 -03508.1 -07.6765 26261.7
 25 10 2013  09 21  -21.0069 26026.7 -03508.2 -07.6767 26262.1
 25 10 2013  09 22  -21.0070 26027.1 -03508.6 -07.6774 26262.5
 25 10 2013  09 23  -21.0077 26027.4 -03508.8 -07.6779 26262.9
 25 10 2013  09 24  -21.0085 26027.8 -03509.0 -07.6782 26263.2
 25 10 2013  09 25  -21.0091 26028.1 -03509.2 -07.6786 26263.6
 25 10 2013  09 26  -21.0095 26028.1 -03509.3 -07.6787 26263.6
 25 10 2013  09 27  -21.0103 26028.2 -03509.3 -07.6786 26263.7
 25 10 2013  09 28  -21.0107 26028.2 -03509.3 -07.6787 26263.7
 25 10 2013  09 29  -21.0111 26028.3 -03509.4 -07.6789 26263.8
 25 10 2013  09 30  -21.0116 26028.5 -03509.5 -07.6791 26264.0
 25 10 2013  09 31  -21.0121 26028.5 -03509.6 -07.6792 26264.1
 25 10 2013  09 32  -21.0125 26028.7 -03509.8 -07.6795 26264.3
 25 10 2013  09 33  -21.0131 26029.0 -03509.9 -07.6798 26264.6
 25 10 2013  09 34  -21.0140 26029.2 -03510.0 -07.6800 26264.8
 25 10 2013  09 35  -21.0147 26029.1 -03510.0 -07.6799 26264.7
 25 10 2013  09 36  -21.0156 26029.2 -03510.0 -07.6799 26264.8
 25 10 2013  09 37  -21.0163 26029.1 -03510.0 -07.6800 26264.7
 25 10 2013  09 38  -21.0169 26029.1 -03510.1 -07.6801 26264.7
 25 10 2013  09 39  -21.0171 26029.2 -03510.2 -07.6803 26264.8
 25 10 2013  09 40  -21.0174 26029.3 -03510.3 -07.6805 26264.9
 25 10 2013  09 41  -21.0178 26029.4 -03510.3 -07.6806 26265.1
 25 10 2013  09 42  -21.0184 26029.4 -03510.4 -07.6806 26265.0
 25 10 2013  09 43  -21.0188 26029.5 -03510.5 -07.6808 26265.1
 25 10 2013  09 44  -21.0195 26029.9 -03510.7 -07.6812 26265.6
 25 10 2013  09 45  -21.0203 26030.3 -03510.9 -07.6816 26266.0
 25 10 2013  09 46  -21.0210 26030.6 -03511.0 -07.6816 26266.3
 25 10 2013  09 47  -21.0215 26030.8 -03511.0 -07.6816 26266.5
 25 10 2013  09 48  -21.0218 26030.9 -03511.0 -07.6816 26266.6
 25 10 2013  09 49  -21.0223 26031.0 -03511.0 -07.6816 26266.7
 25 10 2013  09 50  -21.0227 26031.0 -03511.1 -07.6817 26266.7
 25 10 2013  09 51  -21.0229 26031.1 -03511.2 -07.6820 26266.8
 25 10 2013  09 52  -21.0233 26031.3 -03511.3 -07.6822 26267.1
 25 10 2013  09 53  -21.0240 26031.6 -03511.4 -07.6823 26267.4
 25 10 2013  09 54  -21.0245 26031.8 -03511.6 -07.6825 26267.6
 25 10 2013  09 55  -21.0250 26032.0 -03511.6 -07.6826 26267.8
 25 10 2013  09 56  -21.0255 26032.0 -03511.6 -07.6826 26267.8
 25 10 2013  09 57  -21.0257 26032.1 -03511.7 -07.6826 26267.9
 25 10 2013  09 58  -21.0259 26032.2 -03511.7 -07.6827 26268.0
 25 10 2013  09 59  -21.0262 26032.4 -03511.8 -07.6829 26268.2
 25 10 2013  10 00  -21.0265 26032.7 -03511.9 -07.6830 26268.5
 25 10 2013  10 01  -21.0268 26033.0 -03512.0 -07.6831 26268.8
 25 10 2013  10 02  -21.0270 26033.2 -03512.0 -07.6831 26269.0
 25 10 2013  10 03  -21.0274 26033.3 -03512.0 -07.6831 26269.1
 25 10 2013  10 04  -21.0277 26033.5 -03512.1 -07.6831 26269.3
 25 10 2013  10 05  -21.0281 26033.7 -03512.1 -07.6832 26269.5
 25 10 2013  10 06  -21.0283 26034.0 -03512.2 -07.6833 26269.8
 25 10 2013  10 07  -21.0288 26034.3 -03512.3 -07.6833 26270.2
 25 10 2013  10 08  -21.0293 26034.6 -03512.4 -07.6834 26270.5
 25 10 2013  10 09  -21.0300 26035.0 -03512.4 -07.6834 26270.8
 25 10 2013  10 10  -21.0305 26035.2 -03512.4 -07.6834 26271.1
 25 10 2013  10 11  -21.0308 26035.4 -03512.4 -07.6833 26271.3
 25 10 2013  10 12  -21.0313 26035.6 -03512.4 -07.6833 26271.5
 25 10 2013  10 13  -21.0318 26035.9 -03512.5 -07.6834 26271.8
 25 10 2013  10 14  -21.0323 26036.2 -03512.5 -07.6834 26272.1
 25 10 2013  10 15  -21.0328 26036.5 -03512.6 -07.6833 26272.4
 25 10 2013  10 16  -21.0334 26036.7 -03512.6 -07.6833 26272.6
 25 10 2013  10 17  -21.0338 26037.0 -03512.6 -07.6833 26272.9
 25 10 2013  10 18  -21.0343 26037.4 -03512.7 -07.6833 26273.2
 25 10 2013  10 19  -21.0349 26037.7 -03512.7 -07.6833 26273.6
 25 10 2013  10 20  -21.0352 26038.1 -03512.8 -07.6833 26273.9
 25 10 2013  10 21  -21.0356 26038.4 -03512.8 -07.6833 26274.3
 25 10 2013  10 22  -21.0358 26038.7 -03512.7 -07.6831 26274.5
 25 10 2013  10 23  -21.0360 26039.0 -03512.7 -07.6830 26274.9
 25 10 2013  10 24  -21.0363 26039.3 -03512.7 -07.6828 26275.1
 25 10 2013  10 25  -21.0364 26039.4 -03512.6 -07.6826 26275.3
 25 10 2013  10 26  -21.0366 26039.7 -03512.7 -07.6826 26275.5
 25 10 2013  10 27  -21.0370 26040.0 -03512.7 -07.6826 26275.9
 25 10 2013  10 28  -21.0372 26040.5 -03512.7 -07.6825 26276.3
 25 10 2013  10 29  -21.0373 26040.8 -03512.7 -07.6823 26276.7
 25 10 2013  10 30  -21.0377 26041.2 -03512.7 -07.6821 26277.0
 25 10 2013  10 31  -21.0381 26041.5 -03512.6 -07.6819 26277.4
 25 10 2013  10 32  -21.0384 26042.0 -03512.6 -07.6818 26277.8
 25 10 2013  10 33  -21.0387 26042.3 -03512.6 -07.6816 26278.1
 25 10 2013  10 34  -21.0389 26042.6 -03512.5 -07.6813 26278.4
 25 10 2013  10 35  -21.0390 26042.9 -03512.4 -07.6811 26278.6
 25 10 2013  10 36  -21.0394 26043.2 -03512.3 -07.6809 26278.9
 25 10 2013  10 37  -21.0396 26043.5 -03512.3 -07.6807 26279.3
 25 10 2013  10 38  -21.0397 26043.8 -03512.2 -07.6805 26279.6
 25 10 2013  10 39  -21.0399 26044.2 -03512.2 -07.6803 26279.9
 25 10 2013  10 40  -21.0402 26044.6 -03512.1 -07.6801 26280.4
 25 10 2013  10 41  -21.0405 26045.0 -03512.1 -07.6798 26280.8
 25 10 2013  10 42  -21.0407 26045.4 -03512.0 -07.6796 26281.1
 25 10 2013  10 43  -21.0407 26045.7 -03512.0 -07.6793 26281.4
 25 10 2013  10 44  -21.0410 26046.0 -03511.9 -07.6791 26281.7
 25 10 2013  10 45  -21.0413 26046.3 -03511.8 -07.6789 26282.0
 25 10 2013  10 46  -21.0414 26046.6 -03511.8 -07.6787 26282.3
 25 10 2013  10 47  -21.0415 26046.9 -03511.7 -07.6785 26282.6
 25 10 2013  10 48  -21.0418 26047.3 -03511.7 -07.6782 26282.9
 25 10 2013  10 49  -21.0420 26047.6 -03511.6 -07.6780 26283.3
 25 10 2013  10 50  -21.0422 26048.0 -03511.5 -07.6777 26283.6
 25 10 2013  10 51  -21.0426 26048.3 -03511.5 -07.6775 26283.9
 25 10 2013  10 52  -21.0427 26048.7 -03511.4 -07.6773 26284.3
 25 10 2013  10 53  -21.0427 26049.0 -03511.3 -07.6770 26284.6
 25 10 2013  10 54  -21.0430 26049.0 -03511.1 -07.6766 26284.6
 25 10 2013  10 55  -21.0433 26049.3 -03511.1 -07.6764 26284.8
 25 10 2013  10 56  -21.0434 26049.6 -03511.1 -07.6763 26285.2
 25 10 2013  10 57  -21.0434 26050.0 -03511.0 -07.6761 26285.6
 25 10 2013  10 58  -21.0435 26050.4 -03511.0 -07.6759 26285.9
 25 10 2013  10 59  -21.0436 26050.5 -03510.8 -07.6755 26286.0
 25 10 2013  11 00  -21.0438 26050.7 -03510.8 -07.6753 26286.2
 25 10 2013  11 01  -21.0439 26051.1 -03510.8 -07.6752 26286.6
 25 10 2013  11 02  -21.0436 26051.6 -03510.8 -07.6751 26287.1
 25 10 2013  11 03  -21.0437 26051.7 -03510.7 -07.6748 26287.1
 25 10 2013  11 04  -21.0443 26051.6 -03510.5 -07.6744 26287.1
 25 10 2013  11 05  -21.0441 26052.3 -03510.6 -07.6744 26287.8
 25 10 2013  11 06  -21.0441 26052.9 -03510.7 -07.6744 26288.3
 25 10 2013  11 07  -21.0446 26053.2 -03510.6 -07.6743 26288.7
 25 10 2013  11 08  -21.0450 26053.6 -03510.5 -07.6739 26289.0
 25 10 2013  11 09  -21.0448 26054.1 -03510.5 -07.6737 26289.5
 25 10 2013  11 10  -21.0449 26054.5 -03510.4 -07.6735 26289.9
 25 10 2013  11 11  -21.0454 26054.9 -03510.4 -07.6733 26290.3
 25 10 2013  11 12  -21.0454 26055.4 -03510.3 -07.6730 26290.8
 25 10 2013  11 13  -21.0452 26055.7 -03510.3 -07.6727 26291.1
 25 10 2013  11 14  -21.0451 26056.1 -03510.2 -07.6725 26291.5
 25 10 2013  11 15  -21.0452 26056.5 -03510.2 -07.6724 26291.9
 25 10 2013  11 16  -21.0454 26057.1 -03510.2 -07.6722 26292.4
 25 10 2013  11 17  -21.0456 26057.7 -03510.2 -07.6720 26293.1
 25 10 2013  11 18  -21.0458 26058.2 -03510.2 -07.6718 26293.6
 25 10 2013  11 19  -21.0462 26058.7 -03510.1 -07.6715 26294.1
 25 10 2013  11 20  -21.0462 26059.4 -03510.1 -07.6713 26294.7
 25 10 2013  11 21  -21.0464 26060.1 -03510.1 -07.6711 26295.4
 25 10 2013  11 22  -21.0468 26060.5 -03510.0 -07.6708 26295.8
 25 10 2013  11 23  -21.0472 26061.1 -03509.9 -07.6705 26296.4
 25 10 2013  11 24  -21.0472 26061.7 -03509.8 -07.6701 26297.0
 25 10 2013  11 25  -21.0471 26062.2 -03509.7 -07.6697 26297.5
 25 10 2013  11 26  -21.0472 26062.6 -03509.6 -07.6692 26297.8
 25 10 2013  11 27  -21.0473 26063.0 -03509.4 -07.6688 26298.2
 25 10 2013  11 28  -21.0473 26063.5 -03509.3 -07.6684 26298.7
 25 10 2013  11 29  -21.0474 26064.0 -03509.2 -07.6680 26299.2
 25 10 2013  11 30  -21.0475 26064.3 -03508.9 -07.6674 26299.4
 25 10 2013  11 31  -21.0474 26064.7 -03508.8 -07.6669 26299.8
 25 10 2013  11 32  -21.0472 26065.1 -03508.6 -07.6665 26300.1
 25 10 2013  11 33  -21.0474 26065.2 -03508.4 -07.6659 26300.2
 25 10 2013  11 34  -21.0476 26065.2 -03508.1 -07.6653 26300.2
 25 10 2013  11 35  -21.0473 26065.4 -03507.9 -07.6648 26300.4
 25 10 2013  11 36  -21.0471 26065.7 -03507.7 -07.6644 26300.6
 25 10 2013  11 37  -21.0471 26065.9 -03507.6 -07.6640 26300.9
 25 10 2013  11 38  -21.0472 26066.2 -03507.4 -07.6636 26301.1
 25 10 2013  11 39  -21.0472 26066.7 -03507.3 -07.6632 26301.6
 25 10 2013  11 40  -21.0472 26067.2 -03507.2 -07.6629 26302.0
 25 10 2013  11 41  -21.0471 26067.6 -03507.1 -07.6625 26302.5
 25 10 2013  11 42  -21.0471 26067.9 -03506.9 -07.6619 26302.7
 25 10 2013  11 43  -21.0472 26068.3 -03506.7 -07.6613 26303.1
 25 10 2013  11 44  -21.0474 26068.8 -03506.5 -07.6608 26303.5
 25 10 2013  11 45  -21.0474 26069.2 -03506.3 -07.6603 26303.9
 25 10 2013  11 46  -21.0474 26069.5 -03506.0 -07.6596 26304.2
 25 10 2013  11 47  -21.0476 26069.9 -03505.8 -07.6591 26304.6
 25 10 2013  11 48  -21.0478 26070.4 -03505.7 -07.6586 26305.0
 25 10 2013  11 49  -21.0477 26070.9 -03505.5 -07.6580 26305.5
 25 10 2013  11 50  -21.0476 26071.3 -03505.2 -07.6573 26305.9
 25 10 2013  11 51  -21.0474 26071.7 -03505.0 -07.6567 26306.3
 25 10 2013  11 52  -21.0473 26072.0 -03504.7 -07.6560 26306.5
 25 10 2013  11 53  -21.0469 26072.3 -03504.5 -07.6554 26306.8
 25 10 2013  11 54  -21.0468 26072.6 -03504.2 -07.6548 26307.1
 25 10 2013  11 55  -21.0466 26073.0 -03504.1 -07.6544 26307.5
 25 10 2013  11 56  -21.0462 26073.4 -03503.9 -07.6538 26307.8
 25 10 2013  11 57  -21.0458 26073.8 -03503.7 -07.6534 26308.1
 25 10 2013  11 58  -21.0454 26074.1 -03503.5 -07.6529 26308.5
 25 10 2013  11 59  -21.0448 26074.5 -03503.4 -07.6524 26308.8
 25 10 2013  12 00  -21.0441 26074.8 -03503.2 -07.6519 26309.1
 25 10 2013  12 01  -21.0435 26075.2 -03503.0 -07.6514 26309.5
 25 10 2013  12 02  -21.0430 26075.4 -03502.8 -07.6509 26309.6
 25 10 2013  12 03  -21.0425 26075.7 -03502.6 -07.6504 26309.9
 25 10 2013  12 04  -21.0416 26076.1 -03502.5 -07.6500 26310.3
 25 10 2013  12 05  -21.0413 26076.3 -03502.3 -07.6496 26310.5
 25 10 2013  12 06  -21.0411 26076.2 -03502.0 -07.6489 26310.3
 25 10 2013  12 07  -21.0405 26076.5 -03501.8 -07.6485 26310.6
 25 10 2013  12 08  -21.0400 26077.0 -03501.8 -07.6484 26311.0
 25 10 2013  12 09  -21.0396 26077.1 -03501.7 -07.6481 26311.2
 25 10 2013  12 10  -21.0389 26077.4 -03501.6 -07.6477 26311.4
 25 10 2013  12 11  -21.0381 26077.9 -03501.5 -07.6475 26311.9
 25 10 2013  12 12  -21.0375 26078.4 -03501.6 -07.6474 26312.4
 25 10 2013  12 13  -21.0371 26078.9 -03501.5 -07.6471 26312.9
 25 10 2013  12 14  -21.0366 26079.6 -03501.5 -07.6468 26313.6
 25 10 2013  12 15  -21.0363 26079.9 -03501.3 -07.6464 26313.9
 25 10 2013  12 16  -21.0361 26080.2 -03501.2 -07.6460 26314.1
 25 10 2013  12 17  -21.0357 26080.5 -03501.0 -07.6456 26314.5
 25 10 2013  12 18  -21.0352 26080.7 -03500.8 -07.6451 26314.7
 25 10 2013  12 19  -21.0349 26080.8 -03500.6 -07.6447 26314.7
 25 10 2013  12 20  -21.0344 26081.0 -03500.5 -07.6443 26314.9
 25 10 2013  12 21  -21.0340 26081.3 -03500.4 -07.6440 26315.2
 25 10 2013  12 22  -21.0335 26081.4 -03500.2 -07.6435 26315.2
 25 10 2013  12 23  -21.0331 26081.6 -03500.1 -07.6433 26315.4
 25 10 2013  12 24  -21.0327 26081.9 -03500.1 -07.6431 26315.7
 25 10 2013  12 25  -21.0323 26082.4 -03500.0 -07.6429 26316.2
 25 10 2013  12 26  -21.0320 26082.8 -03500.0 -07.6426 26316.6
 25 10 2013  12 27  -21.0317 26083.2 -03499.9 -07.6423 26317.0
 25 10 2013  12 28  -21.0313 26083.6 -03499.8 -07.6421 26317.4
 25 10 2013  12 29  -21.0311 26084.0 -03499.7 -07.6417 26317.7
 25 10 2013  12 30  -21.0309 26084.2 -03499.5 -07.6413 26317.9
 25 10 2013  12 31  -21.0305 26084.4 -03499.4 -07.6410 26318.1
 25 10 2013  12 32  -21.0299 26084.7 -03499.3 -07.6408 26318.4
 25 10 2013  12 33  -21.0295 26085.3 -03499.4 -07.6406 26319.0
 25 10 2013  12 34  -21.0291 26085.7 -03499.2 -07.6403 26319.3
 25 10 2013  12 35  -21.0287 26085.8 -03499.0 -07.6398 26319.4
 25 10 2013  12 36  -21.0281 26086.0 -03498.9 -07.6394 26319.6
 25 10 2013  12 37  -21.0275 26086.3 -03498.8 -07.6391 26319.9
 25 10 2013  12 38  -21.0269 26086.8 -03498.8 -07.6389 26320.3
 25 10 2013  12 39  -21.0262 26087.0 -03498.7 -07.6386 26320.6
 25 10 2013  12 40  -21.0257 26087.2 -03498.5 -07.6382 26320.7
 25 10 2013  12 41  -21.0251 26087.3 -03498.4 -07.6379 26320.9
 25 10 2013  12 42  -21.0247 26087.6 -03498.3 -07.6378 26321.1
 25 10 2013  12 43  -21.0241 26087.8 -03498.3 -07.6375 26321.3
 25 10 2013  12 44  -21.0236 26088.2 -03498.2 -07.6374 26321.7
 25 10 2013  12 45  -21.0232 26088.6 -03498.3 -07.6374 26322.1
 25 10 2013  12 46  -21.0227 26089.0 -03498.3 -07.6373 26322.5
 25 10 2013  12 47  -21.0221 26089.2 -03498.2 -07.6370 26322.7
 25 10 2013  12 48  -21.0215 26089.2 -03498.1 -07.6367 26322.7
 25 10 2013  12 49  -21.0208 26089.5 -03498.0 -07.6365 26322.9
 25 10 2013  12 50  -21.0203 26089.8 -03498.0 -07.6364 26323.2
 25 10 2013  12 51  -21.0200 26090.2 -03498.0 -07.6364 26323.6
 25 10 2013  12 52  -21.0197 26090.5 -03498.0 -07.6363 26324.0
 25 10 2013  12 53  -21.0192 26090.8 -03498.0 -07.6361 26324.3
 25 10 2013  12 54  -21.0190 26091.1 -03497.9 -07.6359 26324.5
 25 10 2013  12 55  -21.0185 26091.2 -03497.9 -07.6357 26324.7
 25 10 2013  12 56  -21.0180 26091.2 -03497.7 -07.6354 26324.6
 25 10 2013  12 57  -21.0175 26091.3 -03497.7 -07.6353 26324.7
 25 10 2013  12 58  -21.0171 26091.5 -03497.7 -07.6353 26324.9
 25 10 2013  12 59  -21.0168 26091.8 -03497.8 -07.6354 26325.2
 25 10 2013  13 00  -21.0164 26092.1 -03497.9 -07.6355 26325.5
 25 10 2013  13 01  -21.0163 26092.6 -03498.0 -07.6356 26326.0
 25 10 2013  13 02  -21.0161 26093.0 -03498.1 -07.6357 26326.5
 25 10 2013  13 03  -21.0158 26093.1 -03498.0 -07.6354 26326.5
 25 10 2013  13 04  -21.0155 26093.2 -03497.9 -07.6352 26326.6
 25 10 2013  13 05  -21.0152 26093.4 -03497.9 -07.6351 26326.8
 25 10 2013  13 06  -21.0153 26093.6 -03497.9 -07.6351 26327.0
 25 10 2013  13 07  -21.0153 26093.7 -03497.8 -07.6349 26327.1
 25 10 2013  13 08  -21.0152 26093.8 -03497.7 -07.6347 26327.1
 25 10 2013  13 09  -21.0152 26094.0 -03497.7 -07.6346 26327.4
 25 10 2013  13 10  -21.0153 26094.5 -03497.8 -07.6346 26327.9
 25 10 2013  13 11  -21.0153 26094.8 -03497.7 -07.6344 26328.2
 25 10 2013  13 12  -21.0152 26095.2 -03497.7 -07.6341 26328.6
 25 10 2013  13 13  -21.0151 26095.6 -03497.6 -07.6338 26329.0
 25 10 2013  13 14  -21.0148 26095.8 -03497.4 -07.6335 26329.1
 25 10 2013  13 15  -21.0147 26096.1 -03497.3 -07.6331 26329.4
 25 10 2013  13 16  -21.0146 26096.4 -03497.2 -07.6328 26329.7
 25 10 2013  13 17  -21.0146 26096.7 -03497.1 -07.6324 26330.0
 25 10 2013  13 18  -21.0145 26096.7 -03496.8 -07.6319 26330.0
 25 10 2013  13 19  -21.0143 26096.6 -03496.6 -07.6314 26329.8
 25 10 2013  13 20  -21.0142 26096.7 -03496.4 -07.6310 26329.9
 25 10 2013  13 21  -21.0141 26096.7 -03496.2 -07.6306 26329.8
 25 10 2013  13 22  -21.0140 26096.7 -03496.1 -07.6302 26329.8
 25 10 2013  13 23  -21.0139 26096.7 -03495.9 -07.6300 26329.8
 25 10 2013  13 24  -21.0139 26096.8 -03495.8 -07.6297 26329.9
 25 10 2013  13 25  -21.0139 26097.0 -03495.8 -07.6295 26330.1
 25 10 2013  13 26  -21.0140 26097.1 -03495.7 -07.6293 26330.2
 25 10 2013  13 27  -21.0139 26097.1 -03495.5 -07.6288 26330.2
 25 10 2013  13 28  -21.0139 26097.2 -03495.4 -07.6285 26330.2
 25 10 2013  13 29  -21.0139 26097.2 -03495.2 -07.6283 26330.3
 25 10 2013  13 30  -21.0136 26097.4 -03495.1 -07.6280 26330.4
 25 10 2013  13 31  -21.0136 26097.6 -03495.1 -07.6278 26330.6
 25 10 2013  13 32  -21.0136 26098.0 -03495.1 -07.6277 26331.0
 25 10 2013  13 33  -21.0136 26098.4 -03495.1 -07.6276 26331.3
 25 10 2013  13 34  -21.0138 26098.6 -03495.0 -07.6274 26331.6
 25 10 2013  13 35  -21.0140 26098.6 -03494.8 -07.6270 26331.6
 25 10 2013  13 36  -21.0140 26098.7 -03494.6 -07.6265 26331.6
 25 10 2013  13 37  -21.0143 26098.8 -03494.5 -07.6261 26331.7
 25 10 2013  13 38  -21.0146 26099.0 -03494.3 -07.6258 26331.9
 25 10 2013  13 39  -21.0146 26098.9 -03494.1 -07.6253 26331.7
 25 10 2013  13 40  -21.0147 26098.8 -03493.9 -07.6249 26331.6
 25 10 2013  13 41  -21.0149 26098.9 -03493.8 -07.6246 26331.7
 25 10 2013  13 42  -21.0150 26098.9 -03493.6 -07.6243 26331.7
 25 10 2013  13 43  -21.0151 26099.0 -03493.5 -07.6240 26331.7
 25 10 2013  13 44  -21.0152 26098.8 -03493.3 -07.6236 26331.6
 25 10 2013  13 45  -21.0150 26098.3 -03492.9 -07.6230 26331.0
 25 10 2013  13 46  -21.0151 26098.3 -03492.9 -07.6229 26331.0
 25 10 2013  13 47  -21.0154 26098.2 -03492.8 -07.6228 26330.9
 25 10 2013  13 48  -21.0155 26098.2 -03492.8 -07.6227 26330.9
 25 10 2013  13 49  -21.0157 26098.3 -03492.8 -07.6226 26331.0
 25 10 2013  13 50  -21.0156 26098.2 -03492.6 -07.6224 26330.8
 25 10 2013  13 51  -21.0156 26098.2 -03492.6 -07.6222 26330.9
 25 10 2013  13 52  -21.0157 26098.1 -03492.4 -07.6220 26330.7
 25 10 2013  13 53  -21.0158 26098.2 -03492.3 -07.6218 26330.8
 25 10 2013  13 54  -21.0158 26098.2 -03492.3 -07.6216 26330.8
 25 10 2013  13 55  -21.0158 26098.2 -03492.2 -07.6214 26330.8
 25 10 2013  13 56  -21.0156 26098.3 -03492.1 -07.6212 26330.9
 25 10 2013  13 57  -21.0154 26098.3 -03491.9 -07.6208 26330.8
 25 10 2013  13 58  -21.0154 26098.3 -03491.8 -07.6205 26330.9
 25 10 2013  13 59  -21.0155 26098.2 -03491.6 -07.6201 26330.8
 25 10 2013  14 00  -21.0156 26098.2 -03491.4 -07.6197 26330.7
 25 10 2013  14 01  -21.0157 26098.2 -03491.3 -07.6194 26330.7
 25 10 2013  14 02  -21.0159 26098.4 -03491.2 -07.6193 26330.9
 25 10 2013  14 03  -21.0159 26098.5 -03491.0 -07.6189 26330.9
 25 10 2013  14 04  -21.0158 26098.3 -03490.8 -07.6184 26330.7
 25 10 2013  14 05  -21.0155 26098.1 -03490.5 -07.6179 26330.5
 25 10 2013  14 06  -21.0154 26097.8 -03490.3 -07.6175 26330.2
 25 10 2013  14 07  -21.0151 26097.4 -03490.1 -07.6171 26329.8
 25 10 2013  14 08  -21.0150 26097.2 -03490.0 -07.6169 26329.5
 25 10 2013  14 09  -21.0151 26097.1 -03489.9 -07.6167 26329.4
 25 10 2013  14 10  -21.0151 26096.9 -03489.8 -07.6166 26329.2
 25 10 2013  14 11  -21.0150 26096.6 -03489.6 -07.6164 26328.9
 25 10 2013  14 12  -21.0151 26096.5 -03489.6 -07.6164 26328.8
 25 10 2013  14 13  -21.0154 26096.6 -03489.7 -07.6165 26328.9
 25 10 2013  14 14  -21.0156 26096.6 -03489.6 -07.6164 26328.8
 25 10 2013  14 15  -21.0160 26096.7 -03489.6 -07.6164 26329.0
 25 10 2013  14 16  -21.0163 26096.9 -03489.6 -07.6163 26329.1
 25 10 2013  14 17  -21.0165 26096.8 -03489.5 -07.6160 26329.1
 25 10 2013  14 18  -21.0167 26096.8 -03489.4 -07.6158 26329.0
 25 10 2013  14 19  -21.0169 26096.6 -03489.2 -07.6155 26328.8
 25 10 2013  14 20  -21.0172 26096.5 -03489.1 -07.6152 26328.7
 25 10 2013  14 21  -21.0175 26096.2 -03488.9 -07.6148 26328.3
 25 10 2013  14 22  -21.0176 26095.9 -03488.6 -07.6145 26328.0
 25 10 2013  14 23  -21.0180 26095.8 -03488.6 -07.6143 26327.9
 25 10 2013  14 24  -21.0183 26095.6 -03488.4 -07.6140 26327.7
 25 10 2013  14 25  -21.0187 26095.4 -03488.2 -07.6137 26327.5
 25 10 2013  14 26  -21.0191 26095.1 -03488.0 -07.6134 26327.2
 25 10 2013  14 27  -21.0195 26094.9 -03487.8 -07.6130 26327.0
 25 10 2013  14 28  -21.0198 26094.7 -03487.7 -07.6127 26326.8
 25 10 2013  14 29  -21.0202 26094.6 -03487.6 -07.6125 26326.6
 25 10 2013  14 30  -21.0207 26094.4 -03487.4 -07.6121 26326.4
 25 10 2013  14 31  -21.0211 26094.2 -03487.2 -07.6118 26326.2
 25 10 2013  14 32  -21.0214 26093.9 -03486.9 -07.6114 26325.8
 25 10 2013  14 33  -21.0219 26093.6 -03486.7 -07.6110 26325.6
 25 10 2013  14 34  -21.0224 26093.5 -03486.6 -07.6107 26325.4
 25 10 2013  14 35  -21.0228 26093.4 -03486.4 -07.6103 26325.3
 25 10 2013  14 36  -21.0232 26093.2 -03486.2 -07.6100 26325.1
 25 10 2013  14 37  -21.0238 26093.4 -03486.1 -07.6097 26325.2
 25 10 2013  14 38  -21.0245 26093.4 -03485.9 -07.6092 26325.2
 25 10 2013  14 39  -21.0250 26093.5 -03485.6 -07.6086 26325.3
 25 10 2013  14 40  -21.0254 26093.6 -03485.3 -07.6079 26325.3
 25 10 2013  14 41  -21.0258 26093.5 -03485.0 -07.6073 26325.2
 25 10 2013  14 42  -21.0260 26093.2 -03484.6 -07.6065 26324.8
 25 10 2013  14 43  -21.0261 26092.7 -03484.3 -07.6059 26324.3
 25 10 2013  14 44  -21.0262 26092.3 -03484.0 -07.6055 26323.9
 25 10 2013  14 45  -21.0264 26092.0 -03483.9 -07.6053 26323.5
 25 10 2013  14 46  -21.0266 26091.7 -03483.7 -07.6050 26323.3
 25 10 2013  14 47  -21.0267 26091.5 -03483.6 -07.6049 26323.1
 25 10 2013  14 48  -21.0269 26091.5 -03483.6 -07.6048 26323.0
 25 10 2013  14 49  -21.0269 26091.5 -03483.4 -07.6044 26323.0
 25 10 2013  14 50  -21.0270 26091.4 -03483.2 -07.6041 26322.9
 25 10 2013  14 51  -21.0270 26091.2 -03483.0 -07.6037 26322.6
 25 10 2013  14 52  -21.0270 26090.8 -03482.8 -07.6034 26322.3
 25 10 2013  14 53  -21.0271 26090.5 -03482.6 -07.6030 26321.9
 25 10 2013  14 54  -21.0271 26090.2 -03482.4 -07.6027 26321.5
 25 10 2013  14 55  -21.0270 26090.0 -03482.3 -07.6024 26321.3
 25 10 2013  14 56  -21.0274 26090.3 -03482.3 -07.6023 26321.7
 25 10 2013  14 57  -21.0284 26091.4 -03482.5 -07.6025 26322.8
 25 10 2013  14 58  -21.0303 26094.4 -03483.3 -07.6033 26325.9
 25 10 2013  14 59  -21.0330 26098.8 -03484.2 -07.6040 26330.4
 25 10 2013  15 00  -21.0360 26103.3 -03484.8 -07.6040 26334.9
 25 10 2013  15 01  -21.0385 26107.5 -03484.9 -07.6030 26339.0
 25 10 2013  15 02  -21.0401 26110.5 -03484.5 -07.6013 26342.0
 25 10 2013  15 03  -21.0410 26112.4 -03483.6 -07.5988 26343.7
 25 10 2013  15 04  -21.0414 26113.8 -03482.5 -07.5961 26345.0
 25 10 2013  15 05  -21.0413 26114.5 -03481.3 -07.5934 26345.5
 25 10 2013  15 06  -21.0404 26113.7 -03479.8 -07.5902 26344.5
 25 10 2013  15 07  -21.0393 26112.8 -03478.3 -07.5874 26343.4
 25 10 2013  15 08  -21.0386 26112.3 -03477.4 -07.5854 26342.8
 25 10 2013  15 09  -21.0383 26112.2 -03476.9 -07.5843 26342.7
 25 10 2013  15 10  -21.0378 26112.1 -03476.3 -07.5831 26342.5
 25 10 2013  15 11  -21.0371 26111.6 -03475.6 -07.5818 26341.9
 25 10 2013  15 12  -21.0357 26110.3 -03474.7 -07.5802 26340.5
 25 10 2013  15 13  -21.0338 26108.3 -03473.7 -07.5786 26338.4
 25 10 2013  15 14  -21.0319 26106.1 -03472.8 -07.5773 26336.1
 25 10 2013  15 15  -21.0303 26103.6 -03472.0 -07.5763 26333.5
 25 10 2013  15 16  -21.0291 26101.6 -03471.6 -07.5761 26331.4
 25 10 2013  15 17  -21.0283 26099.8 -03471.5 -07.5764 26329.7
 25 10 2013  15 18  -21.0279 26098.3 -03471.6 -07.5769 26328.2
 25 10 2013  15 19  -21.0275 26097.0 -03471.7 -07.5775 26326.9
 25 10 2013  15 20  -21.0272 26096.0 -03471.9 -07.5783 26326.0
 25 10 2013  15 21  -21.0272 26094.8 -03472.1 -07.5790 26324.8
 25 10 2013  15 22  -21.0269 26093.9 -03472.3 -07.5797 26323.9
 25 10 2013  15 23  -21.0267 26093.2 -03472.6 -07.5805 26323.3
 25 10 2013  15 24  -21.0267 26092.2 -03472.7 -07.5810 26322.3
 25 10 2013  15 25  -21.0266 26091.1 -03472.6 -07.5813 26321.2
 25 10 2013  15 26  -21.0263 26090.3 -03472.8 -07.5819 26320.4
 25 10 2013  15 27  -21.0263 26089.6 -03473.0 -07.5826 26319.8
 25 10 2013  15 28  -21.0262 26089.2 -03473.3 -07.5833 26319.4
 25 10 2013  15 29  -21.0263 26088.9 -03473.6 -07.5839 26319.2
 25 10 2013  15 30  -21.0260 26088.3 -03473.6 -07.5842 26318.6
 25 10 2013  15 31  -21.0258 26087.9 -03473.7 -07.5846 26318.1
 25 10 2013  15 32  -21.0256 26087.7 -03473.9 -07.5851 26318.0
 25 10 2013  15 33  -21.0255 26087.3 -03473.9 -07.5852 26317.5
 25 10 2013  15 34  -21.0250 26086.6 -03473.9 -07.5852 26316.9
 25 10 2013  15 35  -21.0247 26086.0 -03473.9 -07.5854 26316.3
 25 10 2013  15 36  -21.0246 26085.6 -03473.9 -07.5857 26315.9
 25 10 2013  15 37  -21.0244 26085.3 -03474.0 -07.5859 26315.6
 25 10 2013  15 38  -21.0241 26084.7 -03474.0 -07.5860 26315.0
 25 10 2013  15 39  -21.0238 26084.1 -03473.9 -07.5861 26314.4
 25 10 2013  15 40  -21.0234 26083.5 -03473.9 -07.5862 26313.8
 25 10 2013  15 41  -21.0225 26082.6 -03473.8 -07.5863 26312.9
 25 10 2013  15 42  -21.0220 26082.5 -03474.1 -07.5869 26312.8
 25 10 2013  15 43  -21.0218 26082.4 -03474.4 -07.5875 26312.8
 25 10 2013  15 44  -21.0214 26082.2 -03474.5 -07.5878 26312.6
 25 10 2013  15 45  -21.0207 26081.5 -03474.4 -07.5878 26311.9
 25 10 2013  15 46  -21.0201 26081.0 -03474.4 -07.5880 26311.4
 25 10 2013  15 47  -21.0199 26081.3 -03474.8 -07.5887 26311.7
 25 10 2013  15 48  -21.0200 26081.3 -03475.0 -07.5892 26311.8
 25 10 2013  15 49  -21.0196 26079.8 -03474.5 -07.5885 26310.2
 25 10 2013  15 50  -21.0192 26079.4 -03474.6 -07.5888 26309.9
 25 10 2013  15 51  -21.0190 26079.4 -03474.8 -07.5893 26309.9
 25 10 2013  15 52  -21.0190 26079.2 -03474.9 -07.5897 26309.7
 25 10 2013  15 53  -21.0190 26078.7 -03474.9 -07.5898 26309.2
 25 10 2013  15 54  -21.0187 26078.0 -03474.8 -07.5897 26308.4
 25 10 2013  15 55  -21.0185 26077.5 -03474.8 -07.5899 26308.0
 25 10 2013  15 56  -21.0185 26077.7 -03475.1 -07.5905 26308.2
 25 10 2013  15 57  -21.0183 26077.4 -03475.1 -07.5906 26307.9
 25 10 2013  15 58  -21.0180 26076.9 -03475.1 -07.5908 26307.4
 25 10 2013  15 59  -21.0178 26075.7 -03474.8 -07.5904 26306.2
 25 10 2013  16 00  -21.0174 26075.7 -03475.0 -07.5909 26306.2
 25 10 2013  16 01  -21.0172 26075.9 -03475.3 -07.5915 26306.4
 25 10 2013  16 02  -21.0171 26075.5 -03475.4 -07.5917 26306.1
 25 10 2013  16 03  -21.0171 26074.9 -03475.3 -07.5916 26305.5
 25 10 2013  16 04  -21.0171 26074.6 -03475.3 -07.5918 26305.2
 25 10 2013  16 05  -21.0169 26074.5 -03475.4 -07.5920 26305.1
 25 10 2013  16 06  -21.0169 26074.3 -03475.4 -07.5922 26304.9
 25 10 2013  16 07  -21.0166 26073.9 -03475.4 -07.5921 26304.5
 25 10 2013  16 08  -21.0164 26073.6 -03475.3 -07.5922 26304.2
 25 10 2013  16 09  -21.0161 26073.4 -03475.4 -07.5923 26304.0
 25 10 2013  16 10  -21.0157 26073.0 -03475.3 -07.5922 26303.6
 25 10 2013  16 11  -21.0153 26072.7 -03475.3 -07.5923 26303.3
 25 10 2013  16 12  -21.0148 26072.3 -03475.2 -07.5923 26302.9
 25 10 2013  16 13  -21.0144 26072.1 -03475.2 -07.5924 26302.7
 25 10 2013  16 14  -21.0139 26071.8 -03475.3 -07.5925 26302.4
 25 10 2013  16 15  -21.0133 26071.4 -03475.2 -07.5924 26302.0
 25 10 2013  16 16  -21.0127 26071.0 -03475.1 -07.5925 26301.6
 25 10 2013  16 17  -21.0121 26070.6 -03475.2 -07.5926 26301.2
 25 10 2013  16 18  -21.0115 26070.4 -03475.2 -07.5928 26301.0
 25 10 2013  16 19  -21.0109 26070.2 -03475.3 -07.5930 26300.8
 25 10 2013  16 20  -21.0102 26069.9 -03475.2 -07.5930 26300.5
 25 10 2013  16 21  -21.0097 26069.7 -03475.3 -07.5931 26300.3
 25 10 2013  16 22  -21.0091 26069.5 -03475.3 -07.5933 26300.2
 25 10 2013  16 23  -21.0088 26069.5 -03475.4 -07.5934 26300.1
 25 10 2013  16 24  -21.0082 26069.1 -03475.3 -07.5933 26299.8
 25 10 2013  16 25  -21.0076 26068.8 -03475.2 -07.5933 26299.4
 25 10 2013  16 26  -21.0071 26068.4 -03475.2 -07.5934 26299.1
 25 10 2013  16 27  -21.0065 26068.0 -03475.2 -07.5934 26298.6
 25 10 2013  16 28  -21.0058 26067.6 -03475.1 -07.5934 26298.2
 25 10 2013  16 29  -21.0053 26067.2 -03475.1 -07.5935 26297.8
 25 10 2013  16 30  -21.0048 26066.8 -03475.1 -07.5937 26297.4
 25 10 2013  16 31  -21.0043 26066.5 -03475.2 -07.5939 26297.1
 25 10 2013  16 32  -21.0038 26066.1 -03475.2 -07.5940 26296.8
 25 10 2013  16 33  -21.0033 26065.7 -03475.2 -07.5940 26296.4
 25 10 2013  16 34  -21.0031 26065.3 -03475.2 -07.5942 26295.9
 25 10 2013  16 35  -21.0026 26065.3 -03475.3 -07.5945 26295.9
 25 10 2013  16 36  -21.0024 26065.1 -03475.4 -07.5947 26295.7
 25 10 2013  16 37  -21.0021 26064.6 -03475.3 -07.5946 26295.3
 25 10 2013  16 38  -21.0019 26064.1 -03475.2 -07.5947 26294.7
 25 10 2013  16 39  -21.0018 26064.0 -03475.3 -07.5949 26294.6
 25 10 2013  16 40  -21.0016 26063.9 -03475.4 -07.5952 26294.5
 25 10 2013  16 41  -21.0014 26063.7 -03475.4 -07.5953 26294.3
 25 10 2013  16 42  -21.0014 26063.4 -03475.4 -07.5953 26294.1
 25 10 2013  16 43  -21.0013 26063.3 -03475.6 -07.5958 26294.0
 25 10 2013  16 44  -21.0013 26063.2 -03475.6 -07.5957 26294.0
 25 10 2013  16 45  -21.0014 26063.2 -03475.6 -07.5958 26293.9
 25 10 2013  16 46  -21.0013 26063.2 -03475.7 -07.5959 26294.0
 25 10 2013  16 47  -21.0014 26061.7 -03475.1 -07.5951 26292.4
 25 10 2013  16 48  -21.0010 26061.8 -03475.3 -07.5954 26292.5
 25 10 2013  16 49  -21.0010 26062.0 -03475.4 -07.5957 26292.7
 25 10 2013  16 50  -21.0010 26061.9 -03475.4 -07.5958 26292.7
 25 10 2013  16 51  -21.0010 26061.0 -03475.1 -07.5953 26291.7
 25 10 2013  16 52  -21.0007 26061.0 -03475.1 -07.5954 26291.7
 25 10 2013  16 53  -21.0006 26061.1 -03475.3 -07.5957 26291.8
 25 10 2013  16 54  -21.0005 26060.8 -03475.2 -07.5956 26291.5
 25 10 2013  16 55  -21.0004 26060.1 -03475.0 -07.5953 26290.7
 25 10 2013  16 56  -21.0000 26060.2 -03475.2 -07.5956 26290.9
 25 10 2013  16 57  -20.9998 26060.2 -03475.3 -07.5959 26290.9
 25 10 2013  16 58  -20.9998 26059.7 -03475.2 -07.5958 26290.4
 25 10 2013  16 59  -20.9996 26059.4 -03475.2 -07.5959 26290.1
 25 10 2013  17 00  -20.9994 26059.1 -03475.2 -07.5961 26289.8
 25 10 2013  17 01  -20.9993 26058.5 -03475.1 -07.5961 26289.2
 25 10 2013  17 02  -20.9992 26058.1 -03475.2 -07.5963 26288.8
 25 10 2013  17 03  -20.9991 26058.1 -03475.4 -07.5967 26288.9
 25 10 2013  17 04  -20.9994 26058.0 -03475.5 -07.5970 26288.7
 25 10 2013  17 05  -20.9995 26057.7 -03475.5 -07.5971 26288.5
 25 10 2013  17 06  -20.9996 26057.7 -03475.5 -07.5971 26288.4
 25 10 2013  17 07  -20.9998 26057.8 -03475.6 -07.5972 26288.6
 25 10 2013  17 08  -21.0001 26057.9 -03475.5 -07.5971 26288.6
 25 10 2013  17 09  -21.0004 26058.0 -03475.4 -07.5969 26288.7
 25 10 2013  17 10  -21.0006 26058.0 -03475.3 -07.5965 26288.7
 25 10 2013  17 11  -21.0007 26058.1 -03475.1 -07.5962 26288.8
 25 10 2013  17 12  -21.0008 26057.8 -03474.9 -07.5957 26288.5
 25 10 2013  17 13  -21.0008 26057.5 -03474.6 -07.5953 26288.1
 25 10 2013  17 14  -21.0007 26057.3 -03474.5 -07.5951 26287.9
 25 10 2013  17 15  -21.0009 26057.1 -03474.4 -07.5950 26287.7
 25 10 2013  17 16  -21.0009 26056.8 -03474.3 -07.5947 26287.4
 25 10 2013  17 17  -21.0010 26056.3 -03474.1 -07.5945 26286.9
 25 10 2013  17 18  -21.0011 26055.9 -03474.0 -07.5943 26286.5
 25 10 2013  17 19  -21.0010 26055.6 -03473.9 -07.5942 26286.1
 25 10 2013  17 20  -21.0012 26055.1 -03473.8 -07.5941 26285.6
 25 10 2013  17 21  -21.0012 26054.6 -03473.7 -07.5940 26285.1
 25 10 2013  17 22  -21.0013 26054.2 -03473.6 -07.5941 26284.7
 25 10 2013  17 23  -21.0013 26053.8 -03473.6 -07.5940 26284.4
 25 10 2013  17 24  -21.0014 26053.3 -03473.5 -07.5939 26283.9
 25 10 2013  17 25  -21.0015 26052.9 -03473.5 -07.5941 26283.5
 25 10 2013  17 26  -21.0016 26052.6 -03473.5 -07.5942 26283.1
 25 10 2013  17 27  -21.0017 26052.1 -03473.5 -07.5943 26282.7
 25 10 2013  17 28  -21.0016 26051.8 -03473.5 -07.5944 26282.3
 25 10 2013  17 29  -21.0018 26051.5 -03473.5 -07.5946 26282.1
 25 10 2013  17 30  -21.0019 26051.2 -03473.5 -07.5947 26281.7
 25 10 2013  17 31  -21.0019 26050.9 -03473.5 -07.5948 26281.4
 25 10 2013  17 32  -21.0018 26050.5 -03473.6 -07.5950 26281.1
 25 10 2013  17 33  -21.0019 26050.2 -03473.6 -07.5951 26280.8
 25 10 2013  17 34  -21.0020 26049.8 -03473.6 -07.5953 26280.4
 25 10 2013  17 35  -21.0020 26049.5 -03473.7 -07.5955 26280.1
 25 10 2013  17 36  -21.0022 26049.4 -03473.8 -07.5958 26280.0
 25 10 2013  17 37  -21.0024 26049.2 -03473.8 -07.5959 26279.8
 25 10 2013  17 38  -21.0024 26048.8 -03473.8 -07.5960 26279.5
 25 10 2013  17 39  -21.0024 26048.5 -03473.8 -07.5961 26279.1
 25 10 2013  17 40  -21.0024 26048.2 -03473.8 -07.5962 26278.8
 25 10 2013  17 41  -21.0024 26048.0 -03473.9 -07.5963 26278.6
 25 10 2013  17 42  -21.0024 26047.6 -03473.9 -07.5965 26278.2
 25 10 2013  17 43  -21.0023 26047.2 -03473.9 -07.5966 26277.9
 25 10 2013  17 44  -21.0023 26047.1 -03474.0 -07.5970 26277.8
 25 10 2013  17 45  -21.0025 26046.9 -03474.2 -07.5973 26277.6
 25 10 2013  17 46  -21.0023 26046.7 -03474.2 -07.5975 26277.3
 25 10 2013  17 47  -21.0023 26046.6 -03474.4 -07.5978 26277.3
 25 10 2013  17 48  -21.0024 26046.5 -03474.4 -07.5980 26277.2
 25 10 2013  17 49  -21.0025 26046.3 -03474.5 -07.5983 26277.0
 25 10 2013  17 50  -21.0022 26046.0 -03474.6 -07.5984 26276.7
 25 10 2013  17 51  -21.0022 26045.8 -03474.7 -07.5988 26276.6
 25 10 2013  17 52  -21.0025 26045.6 -03474.8 -07.5992 26276.4
 25 10 2013  17 53  -21.0025 26045.3 -03474.8 -07.5992 26276.1
 25 10 2013  17 54  -21.0024 26044.9 -03474.9 -07.5995 26275.7
 25 10 2013  17 55  -21.0023 26044.7 -03475.0 -07.5998 26275.5
 25 10 2013  17 56  -21.0025 26044.6 -03475.2 -07.6003 26275.5
 25 10 2013  17 57  -21.0028 26044.5 -03475.4 -07.6006 26275.4
 25 10 2013  17 58  -21.0029 26044.3 -03475.4 -07.6008 26275.2
 25 10 2013  17 59  -21.0030 26044.3 -03475.6 -07.6012 26275.2
 25 10 2013  18 00  -21.0034 26044.3 -03475.8 -07.6015 26275.2
 25 10 2013  18 01  -21.0038 26044.2 -03475.8 -07.6017 26275.1
 25 10 2013  18 02  -21.0041 26044.0 -03475.8 -07.6017 26274.9
 25 10 2013  18 03  -21.0042 26043.8 -03475.8 -07.6017 26274.7
 25 10 2013  18 04  -21.0044 26043.5 -03475.8 -07.6017 26274.4
 25 10 2013  18 05  -21.0047 26043.3 -03475.7 -07.6017 26274.2
 25 10 2013  18 06  -21.0049 26043.0 -03475.8 -07.6019 26274.0
 25 10 2013  18 07  -21.0053 26042.9 -03475.8 -07.6020 26273.8
 25 10 2013  18 08  -21.0056 26042.6 -03475.8 -07.6020 26273.6
 25 10 2013  18 09  -21.0059 26042.4 -03475.7 -07.6020 26273.3
 25 10 2013  18 10  -21.0060 26042.1 -03475.7 -07.6021 26273.0
 25 10 2013  18 11  -21.0063 26041.8 -03475.7 -07.6022 26272.8
 25 10 2013  18 12  -21.0065 26041.6 -03475.7 -07.6023 26272.6
 25 10 2013  18 13  -21.0069 26041.5 -03475.8 -07.6024 26272.5
 25 10 2013  18 14  -21.0072 26041.4 -03475.8 -07.6025 26272.4
 25 10 2013  18 15  -21.0074 26041.3 -03475.8 -07.6025 26272.2
 25 10 2013  18 16  -21.0076 26041.0 -03475.8 -07.6025 26272.0
 25 10 2013  18 17  -21.0079 26040.9 -03475.8 -07.6026 26271.8
 25 10 2013  18 18  -21.0083 26040.7 -03475.8 -07.6027 26271.6
 25 10 2013  18 19  -21.0084 26040.4 -03475.8 -07.6026 26271.4
 25 10 2013  18 20  -21.0085 26040.1 -03475.7 -07.6026 26271.0
 25 10 2013  18 21  -21.0086 26039.8 -03475.7 -07.6026 26270.7
 25 10 2013  18 22  -21.0086 26039.5 -03475.7 -07.6027 26270.4
 25 10 2013  18 23  -21.0087 26039.2 -03475.7 -07.6028 26270.1
 25 10 2013  18 24  -21.0088 26039.0 -03475.7 -07.6029 26269.9
 25 10 2013  18 25  -21.0086 26038.6 -03475.7 -07.6030 26269.6
 25 10 2013  18 26  -21.0085 26038.3 -03475.7 -07.6031 26269.3
 25 10 2013  18 27  -21.0083 26038.1 -03475.7 -07.6031 26269.0
 25 10 2013  18 28  -21.0081 26037.9 -03475.8 -07.6034 26268.9
 25 10 2013  18 29  -21.0078 26037.7 -03475.8 -07.6035 26268.7
 25 10 2013  18 30  -21.0075 26037.5 -03475.9 -07.6037 26268.5
 25 10 2013  18 31  -21.0071 26037.4 -03476.0 -07.6039 26268.4
 25 10 2013  18 32  -21.0067 26037.3 -03476.1 -07.6043 26268.3
 25 10 2013  18 33  -21.0064 26037.3 -03476.3 -07.6046 26268.3
 25 10 2013  18 34  -21.0060 26037.3 -03476.4 -07.6049 26268.3
 25 10 2013  18 35  -21.0058 26037.3 -03476.6 -07.6053 26268.4
 25 10 2013  18 36  -21.0055 26037.3 -03476.7 -07.6056 26268.4
 25 10 2013  18 37  -21.0053 26037.4 -03476.8 -07.6058 26268.5
 25 10 2013  18 38  -21.0049 26037.5 -03476.9 -07.6060 26268.6
 25 10 2013  18 39  -21.0049 26037.4 -03477.0 -07.6062 26268.6
 25 10 2013  18 40  -21.0047 26037.3 -03477.1 -07.6063 26268.5
 25 10 2013  18 41  -21.0046 26037.1 -03477.1 -07.6064 26268.3
 25 10 2013  18 42  -21.0045 26036.9 -03477.1 -07.6066 26268.1
 25 10 2013  18 43  -21.0043 26036.7 -03477.2 -07.6067 26267.9
 25 10 2013  18 44  -21.0041 26036.6 -03477.2 -07.6069 26267.7
 25 10 2013  18 45  -21.0042 26036.4 -03477.3 -07.6072 26267.6
 25 10 2013  18 46  -21.0041 26036.2 -03477.4 -07.6074 26267.4
 25 10 2013  18 47  -21.0038 26036.1 -03477.4 -07.6075 26267.3
 25 10 2013  18 48  -21.0034 26035.8 -03477.6 -07.6078 26267.1
 25 10 2013  18 49  -21.0030 26035.6 -03477.7 -07.6081 26266.8
 25 10 2013  18 50  -21.0028 26035.4 -03477.8 -07.6085 26266.7
 25 10 2013  18 51  -21.0026 26035.3 -03477.9 -07.6088 26266.6
 25 10 2013  18 52  -21.0023 26035.2 -03478.1 -07.6091 26266.5
 25 10 2013  18 53  -21.0019 26035.0 -03478.2 -07.6095 26266.3
 25 10 2013  18 54  -21.0015 26035.0 -03478.5 -07.6101 26266.3
 25 10 2013  18 55  -21.0011 26034.8 -03478.6 -07.6105 26266.2
 25 10 2013  18 56  -21.0007 26034.8 -03478.9 -07.6111 26266.2
 25 10 2013  18 57  -21.0005 26034.8 -03479.1 -07.6116 26266.2
 25 10 2013  18 58  -21.0002 26034.7 -03479.3 -07.6120 26266.2
 25 10 2013  18 59  -20.9999 26034.6 -03479.5 -07.6123 26266.1
 25 10 2013  19 00  -20.9998 26034.6 -03479.6 -07.6127 26266.1
 25 10 2013  19 01  -20.9996 26034.6 -03479.8 -07.6131 26266.1
 25 10 2013  19 02  -20.9994 26034.4 -03479.9 -07.6133 26265.9
 25 10 2013  19 03  -20.9992 26034.2 -03480.1 -07.6138 26265.8
 25 10 2013  19 04  -20.9989 26033.9 -03480.2 -07.6141 26265.5
 25 10 2013  19 05  -20.9986 26033.8 -03480.4 -07.6146 26265.4
 25 10 2013  19 06  -20.9983 26033.6 -03480.6 -07.6151 26265.2
 25 10 2013  19 07  -20.9981 26033.5 -03480.8 -07.6155 26265.2
 25 10 2013  19 08  -20.9978 26033.4 -03481.0 -07.6159 26265.1
 25 10 2013  19 09  -20.9976 26033.5 -03481.2 -07.6164 26265.2
 25 10 2013  19 10  -20.9974 26033.5 -03481.4 -07.6167 26265.3
 25 10 2013  19 11  -20.9972 26033.5 -03481.5 -07.6171 26265.3
 25 10 2013  19 12  -20.9969 26033.4 -03481.7 -07.6175 26265.2
 25 10 2013  19 13  -20.9967 26033.4 -03481.9 -07.6179 26265.2
 25 10 2013  19 14  -20.9965 26033.3 -03482.0 -07.6182 26265.1
 25 10 2013  19 15  -20.9963 26033.3 -03482.1 -07.6185 26265.1
 25 10 2013  19 16  -20.9962 26033.4 -03482.3 -07.6189 26265.2
 25 10 2013  19 17  -20.9959 26033.0 -03482.4 -07.6191 26264.8
 25 10 2013  19 18  -20.9959 26033.2 -03482.6 -07.6195 26265.1
 25 10 2013  19 19  -20.9958 26033.3 -03482.7 -07.6198 26265.2
 25 10 2013  19 20  -20.9958 26033.2 -03482.8 -07.6199 26265.2
 25 10 2013  19 21  -20.9956 26033.5 -03482.9 -07.6201 26265.4
 25 10 2013  19 22  -20.9954 26033.4 -03482.8 -07.6199 26265.4
 25 10 2013  19 23  -20.9954 26033.9 -03482.8 -07.6197 26265.8
 25 10 2013  19 24  -20.9950 26033.7 -03482.5 -07.6192 26265.6
 25 10 2013  19 25  -20.9946 26033.2 -03482.4 -07.6190 26265.1
 25 10 2013  19 26  -20.9943 26033.6 -03482.9 -07.6199 26265.6
 25 10 2013  19 27  -20.9942 26033.2 -03483.0 -07.6204 26265.2
 25 10 2013  19 28  -20.9940 26033.0 -03483.2 -07.6209 26265.0
 25 10 2013  19 29  -20.9937 26033.1 -03483.6 -07.6216 26265.2
 25 10 2013  19 30  -20.9934 26033.2 -03483.9 -07.6222 26265.3
 25 10 2013  19 31  -20.9933 26033.1 -03484.1 -07.6228 26265.2
 25 10 2013  19 32  -20.9932 26032.8 -03484.2 -07.6232 26264.9
 25 10 2013  19 33  -20.9930 26032.9 -03484.5 -07.6237 26265.0
 25 10 2013  19 34  -20.9929 26033.0 -03484.8 -07.6243 26265.2
 25 10 2013  19 35  -20.9928 26032.8 -03485.0 -07.6248 26265.0
 25 10 2013  19 36  -20.9928 26032.6 -03485.1 -07.6251 26264.8
 25 10 2013  19 37  -20.9928 26032.5 -03485.3 -07.6256 26264.8
 25 10 2013  19 38  -20.9928 26032.5 -03485.6 -07.6261 26264.8
 25 10 2013  19 39  -20.9928 26032.4 -03485.7 -07.6265 26264.7
 25 10 2013  19 40  -20.9928 26032.3 -03485.9 -07.6269 26264.6
 25 10 2013  19 41  -20.9929 26032.3 -03486.1 -07.6274 26264.7
 25 10 2013  19 42  -20.9929 26032.3 -03486.4 -07.6279 26264.7
 25 10 2013  19 43  -20.9931 26032.2 -03486.6 -07.6284 26264.7
 25 10 2013  19 44  -20.9932 26032.1 -03486.7 -07.6287 26264.6
 25 10 2013  19 45  -20.9933 26032.1 -03486.9 -07.6292 26264.6
 25 10 2013  19 46  -20.9932 26032.1 -03487.1 -07.6295 26264.6
 25 10 2013  19 47  -20.9932 26032.1 -03487.3 -07.6299 26264.6
 25 10 2013  19 48  -20.9932 26032.1 -03487.5 -07.6303 26264.7
 25 10 2013  19 49  -20.9934 26032.1 -03487.6 -07.6307 26264.7
 25 10 2013  19 50  -20.9934 26032.1 -03487.8 -07.6311 26264.7
 25 10 2013  19 51  -20.9935 26032.1 -03488.0 -07.6316 26264.7
 25 10 2013  19 52  -20.9936 26032.1 -03488.2 -07.6320 26264.8
 25 10 2013  19 53  -20.9937 26032.1 -03488.4 -07.6324 26264.8
 25 10 2013  19 54  -20.9939 26032.1 -03488.6 -07.6328 26264.8
 25 10 2013  19 55  -20.9939 26032.1 -03488.8 -07.6332 26264.8
 25 10 2013  19 56  -20.9939 26032.0 -03488.9 -07.6335 26264.8
 25 10 2013  19 57  -20.9940 26032.0 -03489.2 -07.6340 26264.8
 25 10 2013  19 58  -20.9941 26032.1 -03489.3 -07.6344 26264.9
 25 10 2013  19 59  -20.9942 26032.0 -03489.5 -07.6347 26264.9
 25 10 2013  20 00  -20.9941 26032.1 -03489.6 -07.6351 26264.9
 25 10 2013  20 01  -20.9942 26032.2 -03489.8 -07.6355 26265.0
 25 10 2013  20 02  -20.9943 26032.3 -03490.1 -07.6360 26265.2
 25 10 2013  20 03  -20.9945 26032.1 -03490.2 -07.6362 26265.0
 25 10 2013  20 04  -20.9944 26032.1 -03490.3 -07.6365 26265.0
 25 10 2013  20 05  -20.9945 26032.3 -03490.5 -07.6369 26265.3
 25 10 2013  20 06  -20.9947 26032.2 -03490.6 -07.6372 26265.2
 25 10 2013  20 07  -20.9949 26032.1 -03490.7 -07.6373 26265.1
 25 10 2013  20 08  -20.9950 26032.2 -03490.9 -07.6377 26265.2
 25 10 2013  20 09  -20.9950 26032.2 -03491.0 -07.6379 26265.2
 25 10 2013  20 10  -20.9951 26032.4 -03491.2 -07.6384 26265.5
 25 10 2013  20 11  -20.9952 26031.9 -03491.2 -07.6384 26265.0
 25 10 2013  20 12  -20.9952 26032.0 -03491.3 -07.6387 26265.1
 25 10 2013  20 13  -20.9952 26032.5 -03491.6 -07.6392 26265.6
 25 10 2013  20 14  -20.9954 26032.0 -03491.6 -07.6394 26265.1
 25 10 2013  20 15  -20.9954 26031.8 -03491.6 -07.6394 26265.0
 25 10 2013  20 16  -20.9954 26032.2 -03491.9 -07.6399 26265.4
 25 10 2013  20 17  -20.9952 26032.4 -03492.1 -07.6403 26265.6
 25 10 2013  20 18  -20.9954 26032.3 -03492.2 -07.6405 26265.4
 25 10 2013  20 19  -20.9955 26031.9 -03492.2 -07.6405 26265.1
 25 10 2013  20 20  -20.9955 26032.1 -03492.3 -07.6408 26265.3
 25 10 2013  20 21  -20.9954 26032.2 -03492.5 -07.6412 26265.4
 25 10 2013  20 22  -20.9954 26032.1 -03492.6 -07.6414 26265.3
 25 10 2013  20 23  -20.9954 26032.0 -03492.7 -07.6417 26265.3
 25 10 2013  20 24  -20.9952 26032.1 -03492.9 -07.6420 26265.4
 25 10 2013  20 25  -20.9951 26032.2 -03493.0 -07.6423 26265.5
 25 10 2013  20 26  -20.9951 26032.2 -03493.1 -07.6425 26265.5
 25 10 2013  20 27  -20.9950 26032.1 -03493.2 -07.6426 26265.5
 25 10 2013  20 28  -20.9949 26032.1 -03493.3 -07.6429 26265.5
 25 10 2013  20 29  -20.9948 26032.2 -03493.4 -07.6431 26265.5
 25 10 2013  20 30  -20.9947 26032.1 -03493.5 -07.6433 26265.5
 25 10 2013  20 31  -20.9947 26032.0 -03493.5 -07.6435 26265.4
 25 10 2013  20 32  -20.9946 26032.1 -03493.6 -07.6437 26265.5
 25 10 2013  20 33  -20.9946 26032.1 -03493.8 -07.6440 26265.5
 25 10 2013  20 34  -20.9945 26032.1 -03493.9 -07.6442 26265.5
 25 10 2013  20 35  -20.9945 26032.1 -03493.9 -07.6443 26265.5
 25 10 2013  20 36  -20.9945 26031.9 -03494.0 -07.6444 26265.4
 25 10 2013  20 37  -20.9945 26031.8 -03494.0 -07.6445 26265.2
 25 10 2013  20 38  -20.9945 26031.7 -03494.0 -07.6446 26265.1
 25 10 2013  20 39  -20.9944 26031.6 -03494.0 -07.6447 26265.0
 25 10 2013  20 40  -20.9944 26031.6 -03494.1 -07.6448 26265.0
 25 10 2013  20 41  -20.9944 26031.6 -03494.2 -07.6450 26265.0
 25 10 2013  20 42  -20.9944 26031.6 -03494.3 -07.6453 26265.1
 25 10 2013  20 43  -20.9942 26031.9 -03494.5 -07.6456 26265.4
 25 10 2013  20 44  -20.9940 26032.1 -03494.7 -07.6459 26265.6
 25 10 2013  20 45  -20.9938 26032.3 -03494.9 -07.6463 26265.9
 25 10 2013  20 46  -20.9938 26032.5 -03495.0 -07.6466 26266.0
 25 10 2013  20 47  -20.9934 26032.7 -03495.2 -07.6470 26266.3
 25 10 2013  20 48  -20.9931 26033.0 -03495.5 -07.6474 26266.6
 25 10 2013  20 49  -20.9929 26033.1 -03495.6 -07.6477 26266.8
 25 10 2013  20 50  -20.9928 26033.2 -03495.7 -07.6479 26266.9
 25 10 2013  20 51  -20.9927 26033.3 -03495.8 -07.6480 26266.9
 25 10 2013  20 52  -20.9926 26033.3 -03495.9 -07.6483 26266.9
 25 10 2013  20 53  -20.9926 26033.3 -03496.0 -07.6485 26267.0
 25 10 2013  20 54  -20.9929 26033.4 -03496.2 -07.6488 26267.1
 25 10 2013  20 55  -20.9932 26033.5 -03496.4 -07.6492 26267.2
 25 10 2013  20 56  -20.9935 26033.5 -03496.5 -07.6494 26267.3
 25 10 2013  20 57  -20.9939 26033.5 -03496.6 -07.6496 26267.2
 25 10 2013  20 58  -20.9942 26033.4 -03496.7 -07.6499 26267.1
 25 10 2013  20 59  -20.9942 26033.1 -03496.5 -07.6495 26266.8
 25 10 2013  21 00  -20.9940 26033.0 -03496.7 -07.6500 26266.8
 25 10 2013  21 01  -20.9942 26033.1 -03496.9 -07.6504 26266.9
 25 10 2013  21 02  -20.9949 26033.0 -03497.0 -07.6508 26266.9
 25 10 2013  21 03  -20.9954 26033.0 -03497.1 -07.6510 26266.9
 25 10 2013  21 04  -20.9958 26033.2 -03497.2 -07.6511 26267.0
 25 10 2013  21 05  -20.9962 26033.2 -03497.3 -07.6513 26267.1
 25 10 2013  21 06  -20.9967 26033.2 -03497.4 -07.6514 26267.0
 25 10 2013  21 07  -20.9971 26033.2 -03497.4 -07.6515 26267.1
 25 10 2013  21 08  -20.9976 26033.2 -03497.4 -07.6514 26267.1
 25 10 2013  21 09  -20.9979 26033.2 -03497.4 -07.6515 26267.1
 25 10 2013  21 10  -20.9983 26033.1 -03497.4 -07.6514 26267.0
 25 10 2013  21 11  -20.9988 26033.2 -03497.4 -07.6516 26267.0
 25 10 2013  21 12  -20.9992 26033.2 -03497.4 -07.6515 26267.1
 25 10 2013  21 13  -20.9997 26033.1 -03497.4 -07.6515 26267.0
 25 10 2013  21 14  -21.0002 26032.8 -03497.3 -07.6513 26266.7
 25 10 2013  21 15  -21.0008 26032.7 -03497.2 -07.6513 26266.6
 25 10 2013  21 16  -21.0012 26032.7 -03497.2 -07.6512 26266.6
 25 10 2013  21 17  -21.0017 26032.7 -03497.2 -07.6513 26266.6
 25 10 2013  21 18  -21.0021 26032.5 -03497.2 -07.6512 26266.3
 25 10 2013  21 19  -21.0025 26032.4 -03497.1 -07.6512 26266.2
 25 10 2013  21 20  -21.0029 26032.4 -03497.1 -07.6512 26266.2
 25 10 2013  21 21  -21.0032 26032.2 -03497.1 -07.6511 26266.1
 25 10 2013  21 22  -21.0035 26032.3 -03497.1 -07.6512 26266.1
 25 10 2013  21 23  -21.0038 26032.2 -03497.1 -07.6512 26266.0
 25 10 2013  21 24  -21.0040 26031.9 -03497.0 -07.6510 26265.8
 25 10 2013  21 25  -21.0045 26031.5 -03496.8 -07.6507 26265.3
 25 10 2013  21 26  -21.0049 26031.2 -03496.7 -07.6506 26265.0
 25 10 2013  21 27  -21.0052 26031.4 -03496.8 -07.6508 26265.2
 25 10 2013  21 28  -21.0054 26031.4 -03496.9 -07.6509 26265.2
 25 10 2013  21 29  -21.0057 26031.0 -03496.8 -07.6508 26264.8
 25 10 2013  21 30  -21.0058 26030.9 -03496.7 -07.6506 26264.7
 25 10 2013  21 31  -21.0062 26030.7 -03496.6 -07.6506 26264.5
 25 10 2013  21 32  -21.0063 26030.8 -03496.7 -07.6507 26264.6
 25 10 2013  21 33  -21.0064 26030.6 -03496.7 -07.6507 26264.4
 25 10 2013  21 34  -21.0065 26030.5 -03496.6 -07.6506 26264.3
 25 10 2013  21 35  -21.0066 26030.4 -03496.6 -07.6506 26264.2
 25 10 2013  21 36  -21.0068 26030.3 -03496.6 -07.6506 26264.1
 25 10 2013  21 37  -21.0068 26030.2 -03496.6 -07.6506 26264.0
 25 10 2013  21 38  -21.0068 26030.2 -03496.7 -07.6508 26264.0
 25 10 2013  21 39  -21.0067 26030.2 -03496.7 -07.6509 26264.0
 25 10 2013  21 40  -21.0067 26030.0 -03496.7 -07.6509 26263.9
 25 10 2013  21 41  -21.0069 26029.8 -03496.6 -07.6508 26263.6
 25 10 2013  21 42  -21.0071 26029.6 -03496.5 -07.6507 26263.4
 25 10 2013  21 43  -21.0073 26029.4 -03496.5 -07.6507 26263.2
 25 10 2013  21 44  -21.0075 26029.3 -03496.5 -07.6506 26263.0
 25 10 2013  21 45  -21.0076 26029.1 -03496.4 -07.6505 26262.9
 25 10 2013  21 46  -21.0076 26029.1 -03496.4 -07.6506 26262.9
 25 10 2013  21 47  -21.0076 26028.9 -03496.4 -07.6507 26262.7
 25 10 2013  21 48  -21.0077 26028.8 -03496.4 -07.6507 26262.6
 25 10 2013  21 49  -21.0076 26028.8 -03496.4 -07.6507 26262.6
 25 10 2013  21 50  -21.0077 26028.7 -03496.5 -07.6509 26262.5
 25 10 2013  21 51  -21.0078 26028.7 -03496.5 -07.6508 26262.5
 25 10 2013  21 52  -21.0078 26028.6 -03496.5 -07.6509 26262.4
 25 10 2013  21 53  -21.0079 26028.5 -03496.6 -07.6511 26262.3
 25 10 2013  21 54  -21.0078 26028.5 -03496.6 -07.6511 26262.3
 25 10 2013  21 55  -21.0080 26028.4 -03496.6 -07.6512 26262.2
 25 10 2013  21 56  -21.0081 26028.3 -03496.6 -07.6513 26262.2
 25 10 2013  21 57  -21.0082 26028.3 -03496.7 -07.6514 26262.2
 25 10 2013  21 58  -21.0082 26028.2 -03496.7 -07.6514 26262.0
 25 10 2013  21 59  -21.0084 26027.9 -03496.6 -07.6514 26261.7
 25 10 2013  22 00  -21.0085 26027.7 -03496.6 -07.6513 26261.5
 25 10 2013  22 01  -21.0089 26027.3 -03496.4 -07.6512 26261.1
 25 10 2013  22 02  -21.0093 26026.8 -03496.3 -07.6509 26260.5
 25 10 2013  22 03  -21.0096 26026.3 -03496.1 -07.6508 26260.1
 25 10 2013  22 04  -21.0099 26026.1 -03496.1 -07.6507 26259.8
 25 10 2013  22 05  -21.0101 26025.9 -03496.0 -07.6507 26259.6
 25 10 2013  22 06  -21.0101 26025.7 -03496.1 -07.6508 26259.5
 25 10 2013  22 07  -21.0100 26025.6 -03496.1 -07.6508 26259.4
 25 10 2013  22 08  -21.0099 26025.6 -03496.1 -07.6510 26259.3
 25 10 2013  22 09  -21.0096 26025.6 -03496.2 -07.6510 26259.3
 25 10 2013  22 10  -21.0095 26025.6 -03496.3 -07.6513 26259.4
 25 10 2013  22 11  -21.0093 26025.7 -03496.4 -07.6516 26259.5
 25 10 2013  22 12  -21.0090 26025.8 -03496.5 -07.6517 26259.6
 25 10 2013  22 13  -21.0086 26025.9 -03496.6 -07.6519 26259.8
 25 10 2013  22 14  -21.0082 26025.9 -03496.7 -07.6521 26259.8
 25 10 2013  22 15  -21.0081 26025.8 -03496.8 -07.6523 26259.7
 25 10 2013  22 16  -21.0081 26025.7 -03496.8 -07.6523 26259.5
 25 10 2013  22 17  -21.0079 26025.6 -03496.7 -07.6523 26259.5
 25 10 2013  22 18  -21.0078 26025.5 -03496.7 -07.6523 26259.3
 25 10 2013  22 19  -21.0078 26025.3 -03496.7 -07.6523 26259.2
 25 10 2013  22 20  -21.0077 26025.3 -03496.8 -07.6524 26259.2
 25 10 2013  22 21  -21.0073 26025.4 -03496.8 -07.6525 26259.3
 25 10 2013  22 22  -21.0068 26025.4 -03496.9 -07.6527 26259.3
 25 10 2013  22 23  -21.0064 26025.4 -03496.9 -07.6527 26259.2
 25 10 2013  22 24  -21.0063 26025.0 -03496.8 -07.6525 26258.9
 25 10 2013  22 25  -21.0066 26024.5 -03496.6 -07.6523 26258.3
 25 10 2013  22 26  -21.0068 26024.1 -03496.4 -07.6519 26257.9
 25 10 2013  22 27  -21.0070 26023.8 -03496.3 -07.6518 26257.6
 25 10 2013  22 28  -21.0074 26023.5 -03496.2 -07.6518 26257.3
 25 10 2013  22 29  -21.0077 26023.2 -03496.1 -07.6517 26257.0
 25 10 2013  22 30  -21.0078 26023.0 -03496.0 -07.6515 26256.8
 25 10 2013  22 31  -21.0076 26023.0 -03496.0 -07.6515 26256.8
 25 10 2013  22 32  -21.0074 26023.0 -03496.1 -07.6516 26256.8
 25 10 2013  22 33  -21.0069 26023.1 -03496.1 -07.6517 26256.9
 25 10 2013  22 34  -21.0064 26023.3 -03496.3 -07.6519 26257.1
 25 10 2013  22 35  -21.0055 26023.7 -03496.5 -07.6522 26257.6
 25 10 2013  22 36  -21.0048 26024.2 -03496.7 -07.6527 26258.0
 25 10 2013  22 37  -21.0046 26024.3 -03496.9 -07.6530 26258.2
 25 10 2013  22 38  -21.0044 26024.2 -03496.9 -07.6530 26258.0
 25 10 2013  22 39  -21.0045 26024.0 -03496.8 -07.6528 26257.8
 25 10 2013  22 40  -21.0048 26023.7 -03496.7 -07.6527 26257.5
 25 10 2013  22 41  -21.0052 26023.3 -03496.6 -07.6525 26257.2
 25 10 2013  22 42  -21.0058 26023.0 -03496.5 -07.6525 26256.8
 25 10 2013  22 43  -21.0062 26022.8 -03496.4 -07.6524 26256.6
 25 10 2013  22 44  -21.0062 26022.7 -03496.4 -07.6524 26256.5
 25 10 2013  22 45  -21.0060 26022.7 -03496.4 -07.6524 26256.5
 25 10 2013  22 46  -21.0057 26022.7 -03496.4 -07.6525 26256.5
 25 10 2013  22 47  -21.0054 26022.6 -03496.5 -07.6526 26256.4
 25 10 2013  22 48  -21.0053 26022.6 -03496.5 -07.6526 26256.4
 25 10 2013  22 49  -21.0049 26022.7 -03496.6 -07.6528 26256.5
 25 10 2013  22 50  -21.0046 26022.9 -03496.8 -07.6532 26256.8
 25 10 2013  22 51  -21.0042 26023.1 -03496.9 -07.6534 26257.0
 25 10 2013  22 52  -21.0040 26023.3 -03497.1 -07.6537 26257.2
 25 10 2013  22 53  -21.0038 26023.2 -03497.1 -07.6537 26257.1
 25 10 2013  22 54  -21.0036 26023.2 -03497.1 -07.6537 26257.2
 25 10 2013  22 55  -21.0036 26023.2 -03497.2 -07.6539 26257.2
 25 10 2013  22 56  -21.0032 26023.4 -03497.3 -07.6541 26257.4
 25 10 2013  22 57  -21.0027 26024.1 -03497.6 -07.6546 26258.1
 25 10 2013  22 58  -21.0023 26024.2 -03497.7 -07.6548 26258.2
 25 10 2013  22 59  -21.0023 26024.4 -03497.9 -07.6552 26258.5
 25 10 2013  23 00  -21.0020 26024.5 -03498.0 -07.6552 26258.5
 25 10 2013  23 01  -21.0016 26025.1 -03498.3 -07.6557 26259.1
 25 10 2013  23 02  -21.0011 26024.9 -03498.2 -07.6556 26258.9
 25 10 2013  23 03  -21.0006 26025.4 -03498.3 -07.6558 26259.5
 25 10 2013  23 04  -21.0001 26025.7 -03498.5 -07.6561 26259.8
 25 10 2013  23 05  -21.0001 26025.8 -03498.6 -07.6563 26260.0
 25 10 2013  23 06  -21.0001 26025.5 -03498.5 -07.6561 26259.6
 25 10 2013  23 07  -21.0004 26025.4 -03498.4 -07.6559 26259.4
 25 10 2013  23 08  -21.0008 26025.3 -03498.4 -07.6560 26259.4
 25 10 2013  23 09  -21.0011 26025.2 -03498.3 -07.6559 26259.2
 25 10 2013  23 10  -21.0012 26025.0 -03498.2 -07.6557 26259.0
 25 10 2013  23 11  -21.0014 26024.9 -03498.2 -07.6556 26258.9
 25 10 2013  23 12  -21.0014 26024.9 -03498.2 -07.6557 26259.0
 25 10 2013  23 13  -21.0011 26024.9 -03498.2 -07.6557 26259.0
 25 10 2013  23 14  -21.0008 26025.0 -03498.2 -07.6557 26259.0
 25 10 2013  23 15  -21.0004 26025.1 -03498.3 -07.6557 26259.2
 25 10 2013  23 16  -20.9998 26025.3 -03498.4 -07.6559 26259.4
 25 10 2013  23 17  -20.9995 26025.4 -03498.5 -07.6560 26259.5
 25 10 2013  23 18  -20.9992 26025.4 -03498.5 -07.6561 26259.5
 25 10 2013  23 19  -20.9990 26025.3 -03498.5 -07.6561 26259.4
 25 10 2013  23 20  -20.9989 26025.2 -03498.5 -07.6561 26259.3
 25 10 2013  23 21  -20.9990 26025.0 -03498.4 -07.6560 26259.1
 25 10 2013  23 22  -20.9992 26024.9 -03498.3 -07.6559 26259.0
 25 10 2013  23 23  -20.9992 26025.0 -03498.4 -07.6560 26259.0
 25 10 2013  23 24  -20.9992 26025.1 -03498.5 -07.6562 26259.2
 25 10 2013  23 25  -20.9995 26024.7 -03498.3 -07.6559 26258.8
 25 10 2013  23 26  -20.9998 26024.5 -03498.3 -07.6559 26258.6
 25 10 2013  23 27  -21.0002 26024.4 -03498.2 -07.6558 26258.5
 25 10 2013  23 28  -21.0004 26024.3 -03498.2 -07.6558 26258.4
 25 10 2013  23 29  -21.0003 26024.3 -03498.1 -07.6557 26258.4
 25 10 2013  23 30  -21.0002 26024.4 -03498.2 -07.6557 26258.4
 25 10 2013  23 31  -21.0001 26024.4 -03498.2 -07.6558 26258.5
 25 10 2013  23 32  -20.9999 26024.4 -03498.2 -07.6558 26258.4
 25 10 2013  23 33  -20.9996 26024.5 -03498.3 -07.6559 26258.6
 25 10 2013  23 34  -20.9992 26024.7 -03498.3 -07.6560 26258.7
 25 10 2013  23 35  -20.9990 26024.6 -03498.4 -07.6561 26258.7
 25 10 2013  23 36  -20.9987 26024.6 -03498.3 -07.6560 26258.7
 25 10 2013  23 37  -20.9986 26024.6 -03498.4 -07.6561 26258.7
 25 10 2013  23 38  -20.9988 26024.5 -03498.4 -07.6562 26258.6
 25 10 2013  23 39  -20.9988 26024.9 -03498.5 -07.6564 26259.0
 25 10 2013  23 40  -20.9988 26025.2 -03498.7 -07.6567 26259.3
 25 10 2013  23 41  -20.9983 26025.4 -03498.8 -07.6569 26259.5
 25 10 2013  23 42  -20.9978 26025.6 -03498.9 -07.6570 26259.7
 25 10 2013  23 43  -20.9976 26025.6 -03498.9 -07.6570 26259.7
 25 10 2013  23 44  -20.9974 26026.0 -03499.1 -07.6574 26260.2
 25 10 2013  23 45  -20.9970 26026.5 -03499.4 -07.6578 26260.7
 25 10 2013  23 46  -20.9967 26026.5 -03499.4 -07.6578 26260.7
 25 10 2013  23 47  -20.9968 26026.2 -03499.3 -07.6576 26260.4
 25 10 2013  23 48  -20.9969 26026.0 -03499.1 -07.6573 26260.2
 25 10 2013  23 49  -20.9973 26026.2 -03499.2 -07.6575 26260.4
 25 10 2013  23 50  -20.9977 26025.9 -03499.1 -07.6574 26260.1
 25 10 2013  23 51  -20.9980 26025.8 -03499.0 -07.6572 26259.9
 25 10 2013  23 52  -20.9984 26025.6 -03499.0 -07.6571 26259.8
 25 10 2013  23 53  -20.9989 26025.3 -03498.8 -07.6568 26259.4
 25 10 2013  23 54  -20.9992 26025.2 -03498.7 -07.6566 26259.3
 25 10 2013  23 55  -20.9995 26025.1 -03498.6 -07.6565 26259.3
 25 10 2013  23 56  -20.9997 26025.1 -03498.6 -07.6565 26259.2
 25 10 2013  23 57  -20.9998 26025.1 -03498.7 -07.6566 26259.3
