SAO LUIS EMBRACE-03 <147> 1 Min. Reported data

 DD MM YYYY  HH MM   D(Deg)  H(nT)   Z(nT)   I(Deg)   F(nT)

 27 05 2013  00 00  -21.0632 26018.2 -03444.8 -07.5420 26245.3
 27 05 2013  00 01  -21.0626 26019.0 -03445.2 -07.5426 26246.1
 27 05 2013  00 02  -21.0623 26019.5 -03445.4 -07.5430 26246.6
 27 05 2013  00 03  -21.0619 26019.7 -03445.5 -07.5432 26246.9
 27 05 2013  00 04  -21.0615 26019.9 -03445.5 -07.5432 26247.1
 27 05 2013  00 05  -21.0612 26020.1 -03445.6 -07.5433 26247.3
 27 05 2013  00 06  -21.0610 26020.4 -03445.7 -07.5434 26247.6
 27 05 2013  00 07  -21.0608 26020.7 -03445.9 -07.5436 26247.8
 27 05 2013  00 08  -21.0606 26020.9 -03445.9 -07.5437 26248.1
 27 05 2013  00 09  -21.0607 26021.5 -03446.1 -07.5440 26248.7
 27 05 2013  00 10  -21.0609 26021.8 -03446.3 -07.5443 26249.0
 27 05 2013  00 11  -21.0612 26022.1 -03446.4 -07.5444 26249.3
 27 05 2013  00 12  -21.0611 26022.4 -03446.5 -07.5446 26249.7
 27 05 2013  00 13  -21.0611 26022.5 -03446.5 -07.5444 26249.7
 27 05 2013  00 14  -21.0612 26022.5 -03446.4 -07.5443 26249.8
 27 05 2013  00 15  -21.0612 26022.7 -03446.4 -07.5443 26249.9
 27 05 2013  00 16  -21.0614 26022.9 -03446.4 -07.5443 26250.2
 27 05 2013  00 17  -21.0616 26022.9 -03446.4 -07.5442 26250.1
 27 05 2013  00 18  -21.0614 26023.1 -03446.4 -07.5441 26250.4
 27 05 2013  00 19  -21.0616 26022.9 -03446.3 -07.5438 26250.1
 27 05 2013  00 20  -21.0618 26022.8 -03446.1 -07.5436 26250.0
 27 05 2013  00 21  -21.0620 26022.7 -03446.0 -07.5434 26249.8
 27 05 2013  00 22  -21.0619 26022.6 -03445.9 -07.5433 26249.8
 27 05 2013  00 23  -21.0618 26022.4 -03445.8 -07.5430 26249.6
 27 05 2013  00 24  -21.0619 26022.2 -03445.6 -07.5427 26249.3
 27 05 2013  00 25  -21.0621 26022.1 -03445.5 -07.5425 26249.2
 27 05 2013  00 26  -21.0622 26022.0 -03445.5 -07.5424 26249.1
 27 05 2013  00 27  -21.0623 26021.7 -03445.3 -07.5422 26248.8
 27 05 2013  00 28  -21.0626 26021.5 -03445.2 -07.5420 26248.6
 27 05 2013  00 29  -21.0626 26021.3 -03445.1 -07.5418 26248.3
 27 05 2013  00 30  -21.0625 26021.1 -03445.0 -07.5416 26248.1
 27 05 2013  00 31  -21.0627 26020.8 -03444.9 -07.5415 26247.9
 27 05 2013  00 32  -21.0628 26020.6 -03444.8 -07.5414 26247.6
 27 05 2013  00 33  -21.0629 26020.5 -03444.8 -07.5413 26247.5
 27 05 2013  00 34  -21.0629 26020.5 -03444.7 -07.5413 26247.5
 27 05 2013  00 35  -21.0630 26020.4 -03444.8 -07.5414 26247.4
 27 05 2013  00 36  -21.0631 26020.4 -03444.8 -07.5414 26247.4
 27 05 2013  00 37  -21.0631 26020.3 -03444.8 -07.5415 26247.4
 27 05 2013  00 38  -21.0631 26020.2 -03444.8 -07.5414 26247.2
 27 05 2013  00 39  -21.0632 26020.1 -03444.7 -07.5413 26247.2
 27 05 2013  00 40  -21.0632 26020.0 -03444.7 -07.5412 26247.0
 27 05 2013  00 41  -21.0630 26019.9 -03444.6 -07.5412 26247.0
 27 05 2013  00 42  -21.0627 26019.8 -03444.6 -07.5411 26246.9
 27 05 2013  00 43  -21.0625 26019.8 -03444.6 -07.5411 26246.8
 27 05 2013  00 44  -21.0622 26019.8 -03444.5 -07.5410 26246.8
 27 05 2013  00 45  -21.0620 26019.8 -03444.6 -07.5411 26246.8
 27 05 2013  00 46  -21.0619 26019.8 -03444.6 -07.5412 26246.8
 27 05 2013  00 47  -21.0618 26020.0 -03444.7 -07.5414 26247.0
 27 05 2013  00 48  -21.0619 26020.1 -03444.8 -07.5415 26247.1
 27 05 2013  00 49  -21.0617 26020.2 -03444.9 -07.5416 26247.2
 27 05 2013  00 50  -21.0616 26020.2 -03444.9 -07.5418 26247.3
 27 05 2013  00 51  -21.0616 26020.2 -03444.9 -07.5418 26247.3
 27 05 2013  00 52  -21.0617 26020.2 -03444.9 -07.5418 26247.2
 27 05 2013  00 53  -21.0617 26020.1 -03444.9 -07.5417 26247.2
 27 05 2013  00 54  -21.0617 26020.1 -03444.9 -07.5417 26247.2
 27 05 2013  00 55  -21.0616 26020.1 -03444.8 -07.5415 26247.1
 27 05 2013  00 56  -21.0614 26020.0 -03444.8 -07.5415 26247.1
 27 05 2013  00 57  -21.0611 26020.0 -03444.8 -07.5415 26247.0
 27 05 2013  00 58  -21.0609 26020.0 -03444.8 -07.5415 26247.0
 27 05 2013  00 59  -21.0608 26019.9 -03444.8 -07.5415 26246.9
 27 05 2013  01 00  -21.0607 26019.9 -03444.7 -07.5414 26246.9
 27 05 2013  01 01  -21.0606 26019.8 -03444.7 -07.5414 26246.9
 27 05 2013  01 02  -21.0604 26019.7 -03444.7 -07.5414 26246.8
 27 05 2013  01 03  -21.0605 26019.6 -03444.7 -07.5414 26246.7
 27 05 2013  01 04  -21.0605 26019.6 -03444.7 -07.5414 26246.6
 27 05 2013  01 05  -21.0606 26019.4 -03444.6 -07.5413 26246.4
 27 05 2013  01 06  -21.0606 26019.3 -03444.6 -07.5413 26246.3
 27 05 2013  01 07  -21.0607 26019.2 -03444.5 -07.5412 26246.2
 27 05 2013  01 08  -21.0607 26019.1 -03444.5 -07.5412 26246.1
 27 05 2013  01 09  -21.0607 26019.1 -03444.5 -07.5412 26246.1
 27 05 2013  01 10  -21.0607 26019.1 -03444.5 -07.5412 26246.1
 27 05 2013  01 11  -21.0606 26019.0 -03444.5 -07.5412 26246.1
 27 05 2013  01 12  -21.0604 26019.0 -03444.5 -07.5413 26246.0
 27 05 2013  01 13  -21.0603 26019.0 -03444.6 -07.5413 26246.0
 27 05 2013  01 14  -21.0601 26019.0 -03444.5 -07.5413 26246.0
 27 05 2013  01 15  -21.0600 26019.0 -03444.6 -07.5413 26246.0
 27 05 2013  01 16  -21.0598 26018.9 -03444.5 -07.5413 26245.9
 27 05 2013  01 17  -21.0597 26019.0 -03444.6 -07.5414 26246.0
 27 05 2013  01 18  -21.0597 26019.1 -03444.7 -07.5416 26246.2
 27 05 2013  01 19  -21.0600 26019.3 -03444.8 -07.5418 26246.3
 27 05 2013  01 20  -21.0601 26019.3 -03444.8 -07.5418 26246.4
 27 05 2013  01 21  -21.0602 26019.5 -03444.9 -07.5419 26246.5
 27 05 2013  01 22  -21.0603 26019.6 -03445.0 -07.5420 26246.7
 27 05 2013  01 23  -21.0605 26019.8 -03445.1 -07.5422 26246.8
 27 05 2013  01 24  -21.0603 26020.0 -03445.2 -07.5423 26247.1
 27 05 2013  01 25  -21.0601 26020.4 -03445.3 -07.5425 26247.5
 27 05 2013  01 26  -21.0600 26020.3 -03445.2 -07.5424 26247.4
 27 05 2013  01 27  -21.0597 26020.6 -03445.4 -07.5426 26247.7
 27 05 2013  01 28  -21.0597 26020.6 -03445.4 -07.5426 26247.7
 27 05 2013  01 29  -21.0598 26020.6 -03445.4 -07.5426 26247.7
 27 05 2013  01 30  -21.0599 26020.7 -03445.4 -07.5426 26247.8
 27 05 2013  01 31  -21.0601 26020.8 -03445.4 -07.5426 26247.9
 27 05 2013  01 32  -21.0601 26020.7 -03445.3 -07.5425 26247.8
 27 05 2013  01 33  -21.0600 26020.8 -03445.3 -07.5424 26247.9
 27 05 2013  01 34  -21.0599 26020.9 -03445.4 -07.5425 26248.0
 27 05 2013  01 35  -21.0596 26021.1 -03445.4 -07.5426 26248.2
 27 05 2013  01 36  -21.0594 26021.1 -03445.4 -07.5425 26248.3
 27 05 2013  01 37  -21.0591 26021.2 -03445.4 -07.5425 26248.3
 27 05 2013  01 38  -21.0590 26021.2 -03445.4 -07.5425 26248.3
 27 05 2013  01 39  -21.0589 26021.2 -03445.4 -07.5425 26248.3
 27 05 2013  01 40  -21.0590 26021.1 -03445.4 -07.5425 26248.2
 27 05 2013  01 41  -21.0591 26021.1 -03445.3 -07.5424 26248.2
 27 05 2013  01 42  -21.0593 26021.1 -03445.3 -07.5424 26248.2
 27 05 2013  01 43  -21.0595 26021.2 -03445.3 -07.5423 26248.2
 27 05 2013  01 44  -21.0597 26021.2 -03445.3 -07.5423 26248.3
 27 05 2013  01 45  -21.0598 26021.2 -03445.3 -07.5423 26248.3
 27 05 2013  01 46  -21.0596 26021.4 -03445.3 -07.5423 26248.5
 27 05 2013  01 47  -21.0593 26021.4 -03445.3 -07.5423 26248.5
 27 05 2013  01 48  -21.0590 26021.5 -03445.3 -07.5422 26248.6
 27 05 2013  01 49  -21.0590 26021.6 -03445.3 -07.5423 26248.7
 27 05 2013  01 50  -21.0589 26021.7 -03445.4 -07.5423 26248.8
 27 05 2013  01 51  -21.0586 26021.8 -03445.4 -07.5424 26248.9
 27 05 2013  01 52  -21.0585 26021.8 -03445.4 -07.5424 26248.9
 27 05 2013  01 53  -21.0582 26021.8 -03445.4 -07.5423 26248.9
 27 05 2013  01 54  -21.0579 26021.6 -03445.3 -07.5422 26248.7
 27 05 2013  01 55  -21.0578 26021.5 -03445.2 -07.5421 26248.6
 27 05 2013  01 56  -21.0579 26021.4 -03445.2 -07.5421 26248.5
 27 05 2013  01 57  -21.0582 26021.3 -03445.2 -07.5421 26248.4
 27 05 2013  01 58  -21.0582 26021.5 -03445.3 -07.5422 26248.6
 27 05 2013  01 59  -21.0583 26021.6 -03445.4 -07.5423 26248.7
 27 05 2013  02 00  -21.0583 26021.6 -03445.4 -07.5423 26248.7
 27 05 2013  02 01  -21.0582 26021.7 -03445.4 -07.5424 26248.8
 27 05 2013  02 02  -21.0583 26021.9 -03445.5 -07.5426 26249.0
 27 05 2013  02 03  -21.0582 26021.9 -03445.5 -07.5426 26249.0
 27 05 2013  02 04  -21.0581 26021.8 -03445.5 -07.5425 26248.9
 27 05 2013  02 05  -21.0583 26021.9 -03445.5 -07.5425 26249.0
 27 05 2013  02 06  -21.0586 26021.9 -03445.5 -07.5426 26249.0
 27 05 2013  02 07  -21.0589 26021.9 -03445.5 -07.5426 26249.0
 27 05 2013  02 08  -21.0592 26021.9 -03445.4 -07.5424 26249.0
 27 05 2013  02 09  -21.0595 26021.9 -03445.4 -07.5424 26249.0
 27 05 2013  02 10  -21.0599 26021.9 -03445.4 -07.5424 26249.0
 27 05 2013  02 11  -21.0599 26021.9 -03445.4 -07.5422 26249.0
 27 05 2013  02 12  -21.0599 26021.8 -03445.3 -07.5421 26248.9
 27 05 2013  02 13  -21.0601 26021.6 -03445.2 -07.5419 26248.6
 27 05 2013  02 14  -21.0602 26021.4 -03445.1 -07.5418 26248.5
 27 05 2013  02 15  -21.0603 26021.4 -03445.1 -07.5418 26248.5
 27 05 2013  02 16  -21.0603 26021.5 -03445.1 -07.5419 26248.6
 27 05 2013  02 17  -21.0605 26021.4 -03445.1 -07.5418 26248.5
 27 05 2013  02 18  -21.0605 26021.3 -03445.1 -07.5418 26248.4
 27 05 2013  02 19  -21.0605 26021.3 -03445.0 -07.5417 26248.3
 27 05 2013  02 20  -21.0605 26021.3 -03445.1 -07.5417 26248.4
 27 05 2013  02 21  -21.0603 26021.5 -03445.1 -07.5418 26248.6
 27 05 2013  02 22  -21.0600 26021.6 -03445.2 -07.5419 26248.7
 27 05 2013  02 23  -21.0598 26021.7 -03445.3 -07.5420 26248.8
 27 05 2013  02 24  -21.0596 26021.8 -03445.3 -07.5421 26248.9
 27 05 2013  02 25  -21.0595 26022.0 -03445.4 -07.5422 26249.1
 27 05 2013  02 26  -21.0594 26022.1 -03445.4 -07.5423 26249.2
 27 05 2013  02 27  -21.0593 26022.2 -03445.5 -07.5424 26249.3
 27 05 2013  02 28  -21.0591 26022.2 -03445.5 -07.5423 26249.3
 27 05 2013  02 29  -21.0590 26022.2 -03445.5 -07.5423 26249.4
 27 05 2013  02 30  -21.0588 26022.2 -03445.4 -07.5423 26249.3
 27 05 2013  02 31  -21.0590 26022.1 -03445.4 -07.5422 26249.2
 27 05 2013  02 32  -21.0594 26021.9 -03445.3 -07.5421 26249.0
 27 05 2013  02 33  -21.0598 26021.7 -03445.2 -07.5420 26248.8
 27 05 2013  02 34  -21.0601 26021.6 -03445.2 -07.5419 26248.7
 27 05 2013  02 35  -21.0601 26021.6 -03445.2 -07.5418 26248.7
 27 05 2013  02 36  -21.0602 26021.8 -03445.3 -07.5420 26248.9
 27 05 2013  02 37  -21.0604 26021.9 -03445.3 -07.5421 26249.0
 27 05 2013  02 38  -21.0605 26022.1 -03445.4 -07.5422 26249.2
 27 05 2013  02 39  -21.0607 26022.3 -03445.5 -07.5423 26249.4
 27 05 2013  02 40  -21.0607 26022.7 -03445.6 -07.5426 26249.8
 27 05 2013  02 41  -21.0606 26023.3 -03445.9 -07.5429 26250.4
 27 05 2013  02 42  -21.0602 26023.7 -03446.1 -07.5432 26250.9
 27 05 2013  02 43  -21.0594 26024.0 -03446.1 -07.5433 26251.2
 27 05 2013  02 44  -21.0587 26024.1 -03446.1 -07.5432 26251.3
 27 05 2013  02 45  -21.0581 26024.3 -03446.1 -07.5432 26251.5
 27 05 2013  02 46  -21.0576 26024.6 -03446.3 -07.5434 26251.8
 27 05 2013  02 47  -21.0571 26024.8 -03446.3 -07.5435 26252.0
 27 05 2013  02 48  -21.0567 26025.3 -03446.5 -07.5438 26252.5
 27 05 2013  02 49  -21.0568 26025.3 -03446.6 -07.5438 26252.5
 27 05 2013  02 50  -21.0575 26025.0 -03446.4 -07.5436 26252.2
 27 05 2013  02 51  -21.0582 26024.7 -03446.2 -07.5432 26251.9
 27 05 2013  02 52  -21.0587 26024.4 -03446.0 -07.5429 26251.6
 27 05 2013  02 53  -21.0590 26024.4 -03445.9 -07.5427 26251.5
 27 05 2013  02 54  -21.0597 26024.4 -03445.9 -07.5426 26251.5
 27 05 2013  02 55  -21.0603 26024.2 -03445.8 -07.5425 26251.4
 27 05 2013  02 56  -21.0606 26024.2 -03445.7 -07.5424 26251.3
 27 05 2013  02 57  -21.0607 26024.0 -03445.6 -07.5421 26251.1
 27 05 2013  02 58  -21.0609 26024.0 -03445.5 -07.5420 26251.1
 27 05 2013  02 59  -21.0612 26024.1 -03445.5 -07.5420 26251.2
 27 05 2013  03 00  -21.0614 26023.8 -03445.4 -07.5417 26250.8
 27 05 2013  03 01  -21.0618 26023.5 -03445.2 -07.5415 26250.5
 27 05 2013  03 02  -21.0621 26023.3 -03445.1 -07.5413 26250.4
 27 05 2013  03 03  -21.0624 26023.3 -03445.1 -07.5413 26250.4
 27 05 2013  03 04  -21.0625 26023.1 -03445.0 -07.5410 26250.1
 27 05 2013  03 05  -21.0629 26022.7 -03444.8 -07.5407 26249.7
 27 05 2013  03 06  -21.0640 26022.2 -03444.6 -07.5405 26249.2
 27 05 2013  03 07  -21.0651 26021.9 -03444.5 -07.5403 26248.9
 27 05 2013  03 08  -21.0662 26021.9 -03444.5 -07.5403 26248.9
 27 05 2013  03 09  -21.0669 26022.0 -03444.5 -07.5403 26249.0
 27 05 2013  03 10  -21.0673 26021.9 -03444.4 -07.5402 26248.9
 27 05 2013  03 11  -21.0673 26021.9 -03444.3 -07.5400 26248.8
 27 05 2013  03 12  -21.0671 26021.8 -03444.3 -07.5398 26248.8
 27 05 2013  03 13  -21.0671 26021.8 -03444.2 -07.5397 26248.8
 27 05 2013  03 14  -21.0676 26021.9 -03444.2 -07.5398 26248.9
 27 05 2013  03 15  -21.0684 26022.0 -03444.3 -07.5399 26248.9
 27 05 2013  03 16  -21.0688 26022.0 -03444.3 -07.5398 26249.0
 27 05 2013  03 17  -21.0687 26021.9 -03444.1 -07.5396 26248.8
 27 05 2013  03 18  -21.0684 26021.6 -03444.0 -07.5393 26248.5
 27 05 2013  03 19  -21.0682 26021.4 -03443.8 -07.5389 26248.3
 27 05 2013  03 20  -21.0679 26021.4 -03443.8 -07.5389 26248.3
 27 05 2013  03 21  -21.0675 26021.5 -03443.8 -07.5390 26248.4
 27 05 2013  03 22  -21.0670 26021.6 -03443.9 -07.5391 26248.5
 27 05 2013  03 23  -21.0664 26021.9 -03444.0 -07.5393 26248.8
 27 05 2013  03 24  -21.0663 26022.2 -03444.2 -07.5396 26249.1
 27 05 2013  03 25  -21.0662 26022.6 -03444.4 -07.5399 26249.6
 27 05 2013  03 26  -21.0663 26022.9 -03444.6 -07.5402 26249.9
 27 05 2013  03 27  -21.0664 26023.0 -03444.6 -07.5402 26250.0
 27 05 2013  03 28  -21.0664 26022.9 -03444.5 -07.5401 26249.9
 27 05 2013  03 29  -21.0664 26023.0 -03444.5 -07.5400 26249.9
 27 05 2013  03 30  -21.0662 26023.1 -03444.5 -07.5401 26250.1
 27 05 2013  03 31  -21.0662 26023.2 -03444.5 -07.5401 26250.2
 27 05 2013  03 32  -21.0666 26023.3 -03444.5 -07.5400 26250.3
 27 05 2013  03 33  -21.0666 26023.0 -03444.4 -07.5398 26250.0
 27 05 2013  03 34  -21.0666 26023.3 -03444.5 -07.5399 26250.3
 27 05 2013  03 35  -21.0658 26023.2 -03444.3 -07.5396 26250.2
 27 05 2013  03 36  -21.0654 26023.1 -03444.3 -07.5396 26250.1
 27 05 2013  03 37  -21.0658 26023.3 -03444.4 -07.5398 26250.3
 27 05 2013  03 38  -21.0660 26023.4 -03444.5 -07.5400 26250.4
 27 05 2013  03 39  -21.0661 26023.4 -03444.5 -07.5399 26250.4
 27 05 2013  03 40  -21.0660 26023.3 -03444.4 -07.5397 26250.3
 27 05 2013  03 41  -21.0662 26023.1 -03444.3 -07.5396 26250.1
 27 05 2013  03 42  -21.0663 26022.9 -03444.2 -07.5394 26249.9
 27 05 2013  03 43  -21.0664 26022.9 -03444.2 -07.5393 26249.8
 27 05 2013  03 44  -21.0666 26022.7 -03444.1 -07.5392 26249.6
 27 05 2013  03 45  -21.0668 26022.7 -03444.1 -07.5393 26249.6
 27 05 2013  03 46  -21.0670 26022.7 -03444.1 -07.5393 26249.6
 27 05 2013  03 47  -21.0671 26022.5 -03444.0 -07.5391 26249.4
 27 05 2013  03 48  -21.0672 26022.3 -03443.9 -07.5389 26249.2
 27 05 2013  03 49  -21.0676 26022.0 -03443.8 -07.5388 26248.9
 27 05 2013  03 50  -21.0679 26021.7 -03443.7 -07.5386 26248.5
 27 05 2013  03 51  -21.0683 26021.5 -03443.6 -07.5385 26248.4
 27 05 2013  03 52  -21.0690 26021.2 -03443.5 -07.5384 26248.1
 27 05 2013  03 53  -21.0690 26020.8 -03443.3 -07.5381 26247.7
 27 05 2013  03 54  -21.0689 26020.6 -03443.2 -07.5379 26247.4
 27 05 2013  03 55  -21.0688 26020.4 -03443.1 -07.5378 26247.2
 27 05 2013  03 56  -21.0685 26020.3 -03443.1 -07.5378 26247.2
 27 05 2013  03 57  -21.0684 26020.3 -03443.2 -07.5379 26247.1
 27 05 2013  03 58  -21.0690 26020.8 -03443.4 -07.5383 26247.6
 27 05 2013  03 59  -21.0695 26020.6 -03443.5 -07.5385 26247.5
 27 05 2013  04 00  -21.0690 26020.9 -03443.6 -07.5386 26247.8
 27 05 2013  04 01  -21.0686 26021.0 -03443.6 -07.5387 26247.9
 27 05 2013  04 02  -21.0680 26020.9 -03443.6 -07.5386 26247.8
 27 05 2013  04 03  -21.0675 26020.6 -03443.5 -07.5385 26247.5
 27 05 2013  04 04  -21.0668 26020.4 -03443.4 -07.5383 26247.2
 27 05 2013  04 05  -21.0661 26020.2 -03443.2 -07.5381 26247.0
 27 05 2013  04 06  -21.0656 26020.0 -03443.2 -07.5381 26246.8
 27 05 2013  04 07  -21.0647 26019.6 -03443.1 -07.5380 26246.5
 27 05 2013  04 08  -21.0640 26019.4 -03443.1 -07.5380 26246.2
 27 05 2013  04 09  -21.0640 26019.4 -03443.2 -07.5382 26246.2
 27 05 2013  04 10  -21.0643 26019.4 -03443.3 -07.5385 26246.2
 27 05 2013  04 11  -21.0648 26019.3 -03443.4 -07.5388 26246.2
 27 05 2013  04 12  -21.0651 26019.2 -03443.5 -07.5389 26246.1
 27 05 2013  04 13  -21.0651 26019.0 -03443.4 -07.5388 26245.9
 27 05 2013  04 14  -21.0649 26018.8 -03443.4 -07.5388 26245.7
 27 05 2013  04 15  -21.0650 26018.7 -03443.3 -07.5387 26245.5
 27 05 2013  04 16  -21.0649 26018.6 -03443.3 -07.5388 26245.4
 27 05 2013  04 17  -21.0648 26018.4 -03443.3 -07.5388 26245.3
 27 05 2013  04 18  -21.0645 26018.3 -03443.3 -07.5388 26245.1
 27 05 2013  04 19  -21.0640 26018.1 -03443.2 -07.5387 26245.0
 27 05 2013  04 20  -21.0638 26018.0 -03443.3 -07.5388 26244.9
 27 05 2013  04 21  -21.0631 26017.9 -03443.2 -07.5387 26244.7
 27 05 2013  04 22  -21.0625 26017.5 -03443.1 -07.5386 26244.4
 27 05 2013  04 23  -21.0620 26017.1 -03443.0 -07.5384 26243.9
 27 05 2013  04 24  -21.0615 26016.7 -03442.9 -07.5383 26243.5
 27 05 2013  04 25  -21.0612 26016.3 -03442.8 -07.5382 26243.1
 27 05 2013  04 26  -21.0607 26016.0 -03442.7 -07.5382 26242.8
 27 05 2013  04 27  -21.0600 26015.8 -03442.7 -07.5383 26242.6
 27 05 2013  04 28  -21.0596 26015.6 -03442.8 -07.5384 26242.5
 27 05 2013  04 29  -21.0597 26015.6 -03442.9 -07.5387 26242.4
 27 05 2013  04 30  -21.0598 26015.5 -03443.0 -07.5389 26242.4
 27 05 2013  04 31  -21.0598 26015.6 -03443.1 -07.5392 26242.4
 27 05 2013  04 32  -21.0600 26015.6 -03443.2 -07.5394 26242.5
 27 05 2013  04 33  -21.0602 26015.6 -03443.4 -07.5397 26242.5
 27 05 2013  04 34  -21.0606 26015.7 -03443.5 -07.5399 26242.6
 27 05 2013  04 35  -21.0609 26015.8 -03443.6 -07.5402 26242.7
 27 05 2013  04 36  -21.0610 26015.8 -03443.7 -07.5403 26242.8
 27 05 2013  04 37  -21.0609 26015.8 -03443.7 -07.5403 26242.8
 27 05 2013  04 38  -21.0612 26015.8 -03443.7 -07.5403 26242.7
 27 05 2013  04 39  -21.0613 26015.8 -03443.7 -07.5405 26242.7
 27 05 2013  04 40  -21.0613 26015.9 -03443.8 -07.5405 26242.8
 27 05 2013  04 41  -21.0610 26015.8 -03443.8 -07.5405 26242.8
 27 05 2013  04 42  -21.0604 26015.8 -03443.7 -07.5404 26242.7
 27 05 2013  04 43  -21.0598 26015.9 -03443.8 -07.5405 26242.8
 27 05 2013  04 44  -21.0593 26016.0 -03443.8 -07.5406 26242.9
 27 05 2013  04 45  -21.0590 26016.1 -03444.0 -07.5409 26243.1
 27 05 2013  04 46  -21.0588 26016.2 -03444.1 -07.5410 26243.2
 27 05 2013  04 47  -21.0583 26016.3 -03444.2 -07.5412 26243.3
 27 05 2013  04 48  -21.0582 26016.4 -03444.3 -07.5414 26243.4
 27 05 2013  04 49  -21.0582 26016.3 -03444.3 -07.5415 26243.3
 27 05 2013  04 50  -21.0581 26016.3 -03444.3 -07.5416 26243.4
 27 05 2013  04 51  -21.0583 26016.3 -03444.4 -07.5417 26243.3
 27 05 2013  04 52  -21.0584 26015.9 -03444.3 -07.5416 26243.0
 27 05 2013  04 53  -21.0583 26015.6 -03444.1 -07.5413 26242.6
 27 05 2013  04 54  -21.0582 26015.2 -03443.9 -07.5410 26242.2
 27 05 2013  04 55  -21.0580 26014.9 -03443.8 -07.5409 26241.8
 27 05 2013  04 56  -21.0577 26014.6 -03443.7 -07.5408 26241.6
 27 05 2013  04 57  -21.0574 26014.5 -03443.7 -07.5408 26241.4
 27 05 2013  04 58  -21.0572 26014.4 -03443.7 -07.5409 26241.3
 27 05 2013  04 59  -21.0571 26014.3 -03443.8 -07.5411 26241.3
 27 05 2013  05 00  -21.0571 26014.3 -03443.9 -07.5413 26241.3
 27 05 2013  05 01  -21.0572 26014.2 -03444.0 -07.5414 26241.2
 27 05 2013  05 02  -21.0571 26014.1 -03444.0 -07.5414 26241.1
 27 05 2013  05 03  -21.0570 26014.0 -03444.0 -07.5415 26241.0
 27 05 2013  05 04  -21.0568 26014.0 -03444.0 -07.5416 26241.0
 27 05 2013  05 05  -21.0567 26014.0 -03444.1 -07.5418 26241.0
 27 05 2013  05 06  -21.0565 26014.1 -03444.3 -07.5421 26241.1
 27 05 2013  05 07  -21.0563 26014.3 -03444.4 -07.5423 26241.3
 27 05 2013  05 08  -21.0561 26014.5 -03444.5 -07.5425 26241.6
 27 05 2013  05 09  -21.0561 26014.7 -03444.7 -07.5429 26241.8
 27 05 2013  05 10  -21.0561 26014.9 -03444.8 -07.5431 26242.0
 27 05 2013  05 11  -21.0561 26015.1 -03445.0 -07.5434 26242.2
 27 05 2013  05 12  -21.0561 26015.3 -03445.1 -07.5435 26242.4
 27 05 2013  05 13  -21.0560 26015.3 -03445.1 -07.5436 26242.4
 27 05 2013  05 14  -21.0559 26015.3 -03445.1 -07.5435 26242.4
 27 05 2013  05 15  -21.0558 26015.0 -03444.9 -07.5432 26242.1
 27 05 2013  05 16  -21.0558 26014.8 -03444.8 -07.5431 26241.9
 27 05 2013  05 17  -21.0556 26014.7 -03444.7 -07.5429 26241.8
 27 05 2013  05 18  -21.0553 26014.6 -03444.7 -07.5429 26241.7
 27 05 2013  05 19  -21.0550 26014.8 -03444.8 -07.5430 26241.8
 27 05 2013  05 20  -21.0545 26014.9 -03444.9 -07.5433 26242.0
 27 05 2013  05 21  -21.0541 26015.2 -03445.1 -07.5435 26242.3
 27 05 2013  05 22  -21.0538 26015.6 -03445.3 -07.5440 26242.8
 27 05 2013  05 23  -21.0536 26016.1 -03445.6 -07.5445 26243.3
 27 05 2013  05 24  -21.0532 26016.5 -03445.9 -07.5448 26243.8
 27 05 2013  05 25  -21.0526 26017.0 -03446.1 -07.5452 26244.2
 27 05 2013  05 26  -21.0522 26017.2 -03446.2 -07.5454 26244.4
 27 05 2013  05 27  -21.0518 26017.2 -03446.2 -07.5454 26244.5
 27 05 2013  05 28  -21.0514 26017.1 -03446.2 -07.5453 26244.4
 27 05 2013  05 29  -21.0510 26016.8 -03446.0 -07.5451 26244.0
 27 05 2013  05 30  -21.0507 26016.6 -03445.9 -07.5448 26243.8
 27 05 2013  05 31  -21.0506 26016.5 -03445.8 -07.5447 26243.7
 27 05 2013  05 32  -21.0505 26016.4 -03445.8 -07.5447 26243.6
 27 05 2013  05 33  -21.0503 26016.5 -03445.9 -07.5449 26243.7
 27 05 2013  05 34  -21.0501 26016.6 -03446.0 -07.5450 26243.8
 27 05 2013  05 35  -21.0500 26016.5 -03446.0 -07.5451 26243.8
 27 05 2013  05 36  -21.0500 26016.5 -03446.0 -07.5451 26243.7
 27 05 2013  05 37  -21.0499 26016.5 -03446.0 -07.5451 26243.7
 27 05 2013  05 38  -21.0499 26016.4 -03446.0 -07.5452 26243.6
 27 05 2013  05 39  -21.0500 26016.3 -03446.0 -07.5452 26243.5
 27 05 2013  05 40  -21.0502 26016.0 -03445.9 -07.5450 26243.3
 27 05 2013  05 41  -21.0502 26015.8 -03445.8 -07.5449 26243.0
 27 05 2013  05 42  -21.0502 26015.6 -03445.7 -07.5448 26242.8
 27 05 2013  05 43  -21.0503 26015.4 -03445.6 -07.5446 26242.6
 27 05 2013  05 44  -21.0501 26015.2 -03445.5 -07.5445 26242.3
 27 05 2013  05 45  -21.0498 26015.1 -03445.5 -07.5445 26242.3
 27 05 2013  05 46  -21.0497 26015.0 -03445.5 -07.5444 26242.2
 27 05 2013  05 47  -21.0497 26015.1 -03445.6 -07.5446 26242.2
 27 05 2013  05 48  -21.0495 26015.1 -03445.6 -07.5447 26242.3
 27 05 2013  05 49  -21.0494 26015.1 -03445.7 -07.5448 26242.3
 27 05 2013  05 50  -21.0495 26015.0 -03445.7 -07.5449 26242.2
 27 05 2013  05 51  -21.0495 26014.9 -03445.7 -07.5449 26242.1
 27 05 2013  05 52  -21.0495 26014.8 -03445.7 -07.5449 26242.0
 27 05 2013  05 53  -21.0496 26014.8 -03445.7 -07.5450 26242.0
 27 05 2013  05 54  -21.0498 26014.7 -03445.7 -07.5450 26241.9
 27 05 2013  05 55  -21.0499 26014.7 -03445.8 -07.5451 26242.0
 27 05 2013  05 56  -21.0500 26014.9 -03445.8 -07.5453 26242.1
 27 05 2013  05 57  -21.0500 26014.9 -03445.9 -07.5454 26242.2
 27 05 2013  05 58  -21.0500 26015.1 -03446.0 -07.5456 26242.4
 27 05 2013  05 59  -21.0497 26015.3 -03446.1 -07.5456 26242.5
 27 05 2013  06 00  -21.0494 26015.7 -03446.2 -07.5459 26242.9
 27 05 2013  06 01  -21.0494 26015.8 -03446.4 -07.5461 26243.1
 27 05 2013  06 02  -21.0492 26016.1 -03446.5 -07.5463 26243.4
 27 05 2013  06 03  -21.0491 26016.5 -03446.7 -07.5467 26243.8
 27 05 2013  06 04  -21.0490 26016.9 -03446.9 -07.5470 26244.3
 27 05 2013  06 05  -21.0489 26017.2 -03447.0 -07.5472 26244.6
 27 05 2013  06 06  -21.0488 26017.5 -03447.1 -07.5473 26244.8
 27 05 2013  06 07  -21.0489 26017.8 -03447.3 -07.5475 26245.2
 27 05 2013  06 08  -21.0491 26017.8 -03447.3 -07.5475 26245.2
 27 05 2013  06 09  -21.0491 26017.7 -03447.2 -07.5473 26245.1
 27 05 2013  06 10  -21.0494 26017.7 -03447.1 -07.5472 26245.0
 27 05 2013  06 11  -21.0494 26017.5 -03447.0 -07.5470 26244.9
 27 05 2013  06 12  -21.0497 26017.5 -03447.0 -07.5469 26244.9
 27 05 2013  06 13  -21.0501 26017.6 -03447.0 -07.5470 26244.9
 27 05 2013  06 14  -21.0503 26017.7 -03447.0 -07.5470 26245.0
 27 05 2013  06 15  -21.0505 26017.7 -03447.0 -07.5470 26245.0
 27 05 2013  06 16  -21.0507 26017.6 -03446.9 -07.5468 26245.0
 27 05 2013  06 17  -21.0507 26017.6 -03446.9 -07.5467 26245.0
 27 05 2013  06 18  -21.0505 26017.5 -03446.8 -07.5466 26244.9
 27 05 2013  06 19  -21.0502 26017.5 -03446.7 -07.5464 26244.8
 27 05 2013  06 20  -21.0500 26017.4 -03446.7 -07.5464 26244.8
 27 05 2013  06 21  -21.0498 26017.4 -03446.7 -07.5464 26244.7
 27 05 2013  06 22  -21.0497 26017.3 -03446.6 -07.5463 26244.6
 27 05 2013  06 23  -21.0494 26017.2 -03446.6 -07.5463 26244.5
 27 05 2013  06 24  -21.0492 26017.2 -03446.6 -07.5463 26244.5
 27 05 2013  06 25  -21.0491 26017.3 -03446.7 -07.5464 26244.6
 27 05 2013  06 26  -21.0490 26017.3 -03446.7 -07.5464 26244.6
 27 05 2013  06 27  -21.0489 26017.5 -03446.8 -07.5466 26244.8
 27 05 2013  06 28  -21.0488 26017.7 -03446.9 -07.5468 26245.0
 27 05 2013  06 29  -21.0486 26017.8 -03447.0 -07.5469 26245.1
 27 05 2013  06 30  -21.0485 26017.7 -03447.0 -07.5470 26245.1
 27 05 2013  06 31  -21.0485 26017.6 -03446.9 -07.5469 26245.0
 27 05 2013  06 32  -21.0484 26017.6 -03446.9 -07.5468 26244.9
 27 05 2013  06 33  -21.0483 26017.4 -03446.9 -07.5468 26244.8
 27 05 2013  06 34  -21.0481 26017.3 -03446.8 -07.5466 26244.6
 27 05 2013  06 35  -21.0479 26017.2 -03446.7 -07.5465 26244.5
 27 05 2013  06 36  -21.0475 26017.1 -03446.7 -07.5464 26244.4
 27 05 2013  06 37  -21.0472 26016.9 -03446.6 -07.5463 26244.2
 27 05 2013  06 38  -21.0469 26016.7 -03446.5 -07.5462 26243.9
 27 05 2013  06 39  -21.0467 26016.6 -03446.5 -07.5462 26243.9
 27 05 2013  06 40  -21.0466 26016.6 -03446.6 -07.5463 26243.9
 27 05 2013  06 41  -21.0466 26016.7 -03446.6 -07.5464 26244.0
 27 05 2013  06 42  -21.0465 26016.7 -03446.7 -07.5465 26244.0
 27 05 2013  06 43  -21.0463 26016.9 -03446.8 -07.5467 26244.2
 27 05 2013  06 44  -21.0457 26017.1 -03446.9 -07.5469 26244.4
 27 05 2013  06 45  -21.0451 26017.2 -03446.9 -07.5469 26244.5
 27 05 2013  06 46  -21.0445 26017.2 -03446.9 -07.5468 26244.5
 27 05 2013  06 47  -21.0438 26017.4 -03447.0 -07.5471 26244.8
 27 05 2013  06 48  -21.0432 26017.7 -03447.1 -07.5473 26245.1
 27 05 2013  06 49  -21.0425 26017.9 -03447.3 -07.5474 26245.3
 27 05 2013  06 50  -21.0422 26017.8 -03447.2 -07.5474 26245.2
 27 05 2013  06 51  -21.0425 26017.7 -03447.1 -07.5472 26245.0
 27 05 2013  06 52  -21.0434 26017.7 -03447.2 -07.5473 26245.1
 27 05 2013  06 53  -21.0446 26018.0 -03447.3 -07.5476 26245.4
 27 05 2013  06 54  -21.0453 26018.0 -03447.3 -07.5475 26245.4
 27 05 2013  06 55  -21.0454 26018.0 -03447.3 -07.5474 26245.4
 27 05 2013  06 56  -21.0455 26018.0 -03447.2 -07.5472 26245.3
 27 05 2013  06 57  -21.0455 26017.9 -03447.1 -07.5470 26245.2
 27 05 2013  06 58  -21.0455 26018.0 -03447.0 -07.5469 26245.3
 27 05 2013  06 59  -21.0453 26017.9 -03447.0 -07.5468 26245.3
 27 05 2013  07 00  -21.0451 26018.0 -03446.9 -07.5467 26245.3
 27 05 2013  07 01  -21.0447 26017.9 -03446.9 -07.5466 26245.2
 27 05 2013  07 02  -21.0444 26017.7 -03446.7 -07.5464 26245.0
 27 05 2013  07 03  -21.0444 26017.3 -03446.5 -07.5460 26244.5
 27 05 2013  07 04  -21.0450 26016.9 -03446.4 -07.5459 26244.2
 27 05 2013  07 05  -21.0454 26016.7 -03446.3 -07.5458 26244.0
 27 05 2013  07 06  -21.0458 26016.5 -03446.2 -07.5456 26243.8
 27 05 2013  07 07  -21.0461 26016.6 -03446.3 -07.5458 26243.9
 27 05 2013  07 08  -21.0462 26016.5 -03446.3 -07.5457 26243.8
 27 05 2013  07 09  -21.0464 26016.5 -03446.2 -07.5457 26243.8
 27 05 2013  07 10  -21.0464 26016.5 -03446.2 -07.5456 26243.8
 27 05 2013  07 11  -21.0461 26016.8 -03446.3 -07.5457 26244.0
 27 05 2013  07 12  -21.0458 26017.0 -03446.4 -07.5458 26244.3
 27 05 2013  07 13  -21.0455 26017.3 -03446.5 -07.5460 26244.6
 27 05 2013  07 14  -21.0451 26017.4 -03446.5 -07.5461 26244.7
 27 05 2013  07 15  -21.0446 26017.5 -03446.5 -07.5460 26244.8
 27 05 2013  07 16  -21.0443 26017.6 -03446.6 -07.5460 26244.9
 27 05 2013  07 17  -21.0441 26017.7 -03446.6 -07.5460 26245.0
 27 05 2013  07 18  -21.0439 26017.7 -03446.6 -07.5460 26244.9
 27 05 2013  07 19  -21.0439 26017.6 -03446.5 -07.5459 26244.9
 27 05 2013  07 20  -21.0442 26017.7 -03446.6 -07.5460 26245.0
 27 05 2013  07 21  -21.0443 26017.8 -03446.6 -07.5461 26245.1
 27 05 2013  07 22  -21.0446 26018.0 -03446.7 -07.5462 26245.3
 27 05 2013  07 23  -21.0448 26018.1 -03446.7 -07.5462 26245.4
 27 05 2013  07 24  -21.0448 26018.2 -03446.8 -07.5463 26245.6
 27 05 2013  07 25  -21.0447 26018.3 -03446.7 -07.5461 26245.6
 27 05 2013  07 26  -21.0441 26018.2 -03446.5 -07.5458 26245.4
 27 05 2013  07 27  -21.0439 26018.2 -03446.5 -07.5457 26245.5
 27 05 2013  07 28  -21.0438 26018.2 -03446.5 -07.5457 26245.5
 27 05 2013  07 29  -21.0435 26018.2 -03446.4 -07.5456 26245.4
 27 05 2013  07 30  -21.0435 26018.2 -03446.4 -07.5455 26245.4
 27 05 2013  07 31  -21.0435 26018.2 -03446.4 -07.5455 26245.4
 27 05 2013  07 32  -21.0433 26017.9 -03446.2 -07.5453 26245.1
 27 05 2013  07 33  -21.0435 26017.7 -03446.1 -07.5451 26244.9
 27 05 2013  07 34  -21.0434 26017.3 -03445.9 -07.5448 26244.5
 27 05 2013  07 35  -21.0438 26017.4 -03445.9 -07.5448 26244.6
 27 05 2013  07 36  -21.0444 26017.5 -03446.0 -07.5449 26244.7
 27 05 2013  07 37  -21.0445 26017.6 -03446.1 -07.5451 26244.8
 27 05 2013  07 38  -21.0442 26017.6 -03446.1 -07.5450 26244.8
 27 05 2013  07 39  -21.0439 26017.6 -03446.0 -07.5448 26244.8
 27 05 2013  07 40  -21.0435 26017.4 -03445.9 -07.5448 26244.6
 27 05 2013  07 41  -21.0430 26017.1 -03445.8 -07.5445 26244.3
 27 05 2013  07 42  -21.0425 26017.0 -03445.7 -07.5444 26244.2
 27 05 2013  07 43  -21.0422 26016.9 -03445.7 -07.5443 26244.1
 27 05 2013  07 44  -21.0423 26016.7 -03445.7 -07.5444 26243.9
 27 05 2013  07 45  -21.0421 26016.6 -03445.7 -07.5444 26243.8
 27 05 2013  07 46  -21.0422 26016.5 -03445.7 -07.5444 26243.7
 27 05 2013  07 47  -21.0420 26016.3 -03445.6 -07.5443 26243.5
 27 05 2013  07 48  -21.0416 26016.3 -03445.6 -07.5443 26243.5
 27 05 2013  07 49  -21.0414 26016.4 -03445.7 -07.5445 26243.6
 27 05 2013  07 50  -21.0411 26016.2 -03445.6 -07.5444 26243.4
 27 05 2013  07 51  -21.0406 26016.2 -03445.7 -07.5446 26243.4
 27 05 2013  07 52  -21.0398 26016.0 -03445.6 -07.5444 26243.2
 27 05 2013  07 53  -21.0392 26016.0 -03445.6 -07.5445 26243.2
 27 05 2013  07 54  -21.0387 26015.7 -03445.6 -07.5445 26242.9
 27 05 2013  07 55  -21.0385 26015.5 -03445.6 -07.5445 26242.7
 27 05 2013  07 56  -21.0382 26015.3 -03445.5 -07.5445 26242.4
 27 05 2013  07 57  -21.0378 26015.3 -03445.6 -07.5445 26242.4
 27 05 2013  07 58  -21.0374 26015.2 -03445.6 -07.5446 26242.4
 27 05 2013  07 59  -21.0373 26015.2 -03445.7 -07.5450 26242.4
 27 05 2013  08 00  -21.0368 26015.3 -03445.8 -07.5451 26242.5
 27 05 2013  08 01  -21.0365 26015.3 -03445.9 -07.5454 26242.6
 27 05 2013  08 02  -21.0364 26015.4 -03446.0 -07.5456 26242.6
 27 05 2013  08 03  -21.0362 26015.4 -03446.1 -07.5457 26242.7
 27 05 2013  08 04  -21.0359 26015.4 -03446.2 -07.5458 26242.6
 27 05 2013  08 05  -21.0356 26015.4 -03446.2 -07.5459 26242.6
 27 05 2013  08 06  -21.0354 26015.4 -03446.3 -07.5461 26242.7
 27 05 2013  08 07  -21.0351 26015.5 -03446.4 -07.5463 26242.7
 27 05 2013  08 08  -21.0349 26015.4 -03446.4 -07.5464 26242.7
 27 05 2013  08 09  -21.0345 26015.3 -03446.4 -07.5464 26242.6
 27 05 2013  08 10  -21.0343 26015.2 -03446.4 -07.5464 26242.5
 27 05 2013  08 11  -21.0340 26015.2 -03446.5 -07.5465 26242.5
 27 05 2013  08 12  -21.0336 26015.2 -03446.5 -07.5466 26242.5
 27 05 2013  08 13  -21.0333 26015.2 -03446.6 -07.5467 26242.5
 27 05 2013  08 14  -21.0332 26015.3 -03446.7 -07.5469 26242.7
 27 05 2013  08 15  -21.0331 26015.5 -03446.8 -07.5472 26242.9
 27 05 2013  08 16  -21.0331 26015.7 -03446.9 -07.5474 26243.0
 27 05 2013  08 17  -21.0331 26015.8 -03447.0 -07.5475 26243.1
 27 05 2013  08 18  -21.0329 26015.8 -03447.0 -07.5476 26243.1
 27 05 2013  08 19  -21.0328 26015.7 -03447.1 -07.5477 26243.0
 27 05 2013  08 20  -21.0328 26015.7 -03447.1 -07.5477 26243.0
 27 05 2013  08 21  -21.0327 26015.6 -03447.1 -07.5477 26243.0
 27 05 2013  08 22  -21.0327 26015.6 -03447.1 -07.5477 26243.0
 27 05 2013  08 23  -21.0325 26015.6 -03447.1 -07.5478 26243.0
 27 05 2013  08 24  -21.0324 26015.6 -03447.2 -07.5479 26243.0
 27 05 2013  08 25  -21.0323 26015.5 -03447.2 -07.5479 26242.9
 27 05 2013  08 26  -21.0323 26015.5 -03447.2 -07.5480 26242.9
 27 05 2013  08 27  -21.0321 26015.4 -03447.2 -07.5480 26242.8
 27 05 2013  08 28  -21.0320 26015.3 -03447.2 -07.5481 26242.7
 27 05 2013  08 29  -21.0317 26015.2 -03447.2 -07.5481 26242.6
 27 05 2013  08 30  -21.0315 26015.2 -03447.2 -07.5482 26242.6
 27 05 2013  08 31  -21.0314 26015.3 -03447.3 -07.5484 26242.7
 27 05 2013  08 32  -21.0313 26015.4 -03447.4 -07.5485 26242.8
 27 05 2013  08 33  -21.0312 26015.6 -03447.6 -07.5489 26243.0
 27 05 2013  08 34  -21.0308 26015.7 -03447.7 -07.5491 26243.1
 27 05 2013  08 35  -21.0305 26015.7 -03447.8 -07.5493 26243.2
 27 05 2013  08 36  -21.0304 26015.8 -03447.9 -07.5494 26243.3
 27 05 2013  08 37  -21.0303 26016.0 -03448.1 -07.5498 26243.5
 27 05 2013  08 38  -21.0305 26016.2 -03448.2 -07.5501 26243.7
 27 05 2013  08 39  -21.0305 26016.3 -03448.4 -07.5503 26243.8
 27 05 2013  08 40  -21.0304 26016.2 -03448.4 -07.5504 26243.8
 27 05 2013  08 41  -21.0298 26016.2 -03448.4 -07.5504 26243.8
 27 05 2013  08 42  -21.0295 26016.2 -03448.4 -07.5503 26243.8
 27 05 2013  08 43  -21.0290 26016.1 -03448.2 -07.5501 26243.6
 27 05 2013  08 44  -21.0288 26016.2 -03448.2 -07.5500 26243.7
 27 05 2013  08 45  -21.0289 26016.2 -03448.2 -07.5500 26243.8
 27 05 2013  08 46  -21.0289 26016.3 -03448.2 -07.5499 26243.8
 27 05 2013  08 47  -21.0289 26016.3 -03448.2 -07.5499 26243.8
 27 05 2013  08 48  -21.0288 26016.4 -03448.2 -07.5499 26243.9
 27 05 2013  08 49  -21.0280 26016.4 -03448.1 -07.5498 26243.9
 27 05 2013  08 50  -21.0271 26016.6 -03448.1 -07.5497 26244.1
 27 05 2013  08 51  -21.0267 26017.0 -03448.4 -07.5502 26244.5
 27 05 2013  08 52  -21.0263 26017.2 -03448.6 -07.5506 26244.8
 27 05 2013  08 53  -21.0252 26017.3 -03448.7 -07.5508 26244.9
 27 05 2013  08 54  -21.0241 26017.1 -03448.6 -07.5505 26244.7
 27 05 2013  08 55  -21.0229 26017.0 -03448.3 -07.5500 26244.5
 27 05 2013  08 56  -21.0217 26017.1 -03448.4 -07.5501 26244.6
 27 05 2013  08 57  -21.0208 26017.2 -03448.3 -07.5500 26244.8
 27 05 2013  08 58  -21.0206 26017.5 -03448.6 -07.5504 26245.1
 27 05 2013  08 59  -21.0206 26017.6 -03448.8 -07.5509 26245.2
 27 05 2013  09 00  -21.0210 26017.8 -03449.1 -07.5515 26245.4
 27 05 2013  09 01  -21.0216 26017.7 -03449.1 -07.5515 26245.4
 27 05 2013  09 02  -21.0215 26018.1 -03449.1 -07.5514 26245.7
 27 05 2013  09 03  -21.0212 26018.5 -03449.0 -07.5510 26246.1
 27 05 2013  09 04  -21.0208 26018.7 -03448.8 -07.5505 26246.3
 27 05 2013  09 05  -21.0209 26018.8 -03448.7 -07.5503 26246.4
 27 05 2013  09 06  -21.0213 26019.0 -03448.7 -07.5504 26246.5
 27 05 2013  09 07  -21.0217 26019.2 -03448.9 -07.5507 26246.8
 27 05 2013  09 08  -21.0219 26019.4 -03449.0 -07.5508 26247.0
 27 05 2013  09 09  -21.0222 26019.5 -03449.0 -07.5508 26247.1
 27 05 2013  09 10  -21.0228 26019.7 -03449.1 -07.5510 26247.3
 27 05 2013  09 11  -21.0221 26019.6 -03449.0 -07.5508 26247.2
 27 05 2013  09 12  -21.0223 26019.6 -03449.0 -07.5508 26247.2
 27 05 2013  09 13  -21.0235 26019.7 -03449.2 -07.5510 26247.4
 27 05 2013  09 14  -21.0246 26020.1 -03449.5 -07.5516 26247.8
 27 05 2013  09 15  -21.0257 26020.4 -03449.7 -07.5521 26248.1
 27 05 2013  09 16  -21.0251 26020.6 -03449.8 -07.5521 26248.3
 27 05 2013  09 17  -21.0239 26020.8 -03449.7 -07.5519 26248.4
 27 05 2013  09 18  -21.0235 26021.0 -03449.7 -07.5518 26248.6
 27 05 2013  09 19  -21.0234 26021.0 -03449.6 -07.5517 26248.6
 27 05 2013  09 20  -21.0236 26021.1 -03449.7 -07.5518 26248.8
 27 05 2013  09 21  -21.0236 26021.4 -03449.8 -07.5520 26249.1
 27 05 2013  09 22  -21.0239 26021.7 -03449.9 -07.5521 26249.4
 27 05 2013  09 23  -21.0245 26021.9 -03450.0 -07.5522 26249.6
 27 05 2013  09 24  -21.0245 26022.1 -03449.9 -07.5521 26249.8
 27 05 2013  09 25  -21.0246 26022.2 -03449.9 -07.5520 26249.9
 27 05 2013  09 26  -21.0249 26022.1 -03449.8 -07.5518 26249.8
 27 05 2013  09 27  -21.0255 26022.0 -03449.8 -07.5518 26249.6
 27 05 2013  09 28  -21.0262 26022.0 -03449.8 -07.5519 26249.7
 27 05 2013  09 29  -21.0261 26022.2 -03450.0 -07.5521 26249.9
 27 05 2013  09 30  -21.0248 26022.7 -03450.0 -07.5520 26250.4
 27 05 2013  09 31  -21.0241 26022.5 -03449.7 -07.5515 26250.2
 27 05 2013  09 32  -21.0241 26022.7 -03449.6 -07.5512 26250.3
 27 05 2013  09 33  -21.0248 26022.8 -03449.7 -07.5513 26250.4
 27 05 2013  09 34  -21.0246 26022.7 -03449.7 -07.5513 26250.4
 27 05 2013  09 35  -21.0248 26022.7 -03449.6 -07.5511 26250.3
 27 05 2013  09 36  -21.0251 26022.8 -03449.7 -07.5513 26250.5
 27 05 2013  09 37  -21.0249 26023.0 -03449.7 -07.5513 26250.7
 27 05 2013  09 38  -21.0250 26022.7 -03449.6 -07.5511 26250.4
 27 05 2013  09 39  -21.0253 26022.7 -03449.5 -07.5510 26250.3
 27 05 2013  09 40  -21.0256 26021.9 -03449.2 -07.5505 26249.5
 27 05 2013  09 41  -21.0250 26021.5 -03448.9 -07.5501 26249.1
 27 05 2013  09 42  -21.0259 26021.6 -03449.0 -07.5501 26249.1
 27 05 2013  09 43  -21.0266 26021.4 -03448.9 -07.5501 26249.0
 27 05 2013  09 44  -21.0271 26021.6 -03449.1 -07.5503 26249.2
 27 05 2013  09 45  -21.0270 26021.8 -03449.1 -07.5504 26249.4
 27 05 2013  09 46  -21.0270 26022.3 -03449.3 -07.5507 26249.9
 27 05 2013  09 47  -21.0269 26022.7 -03449.4 -07.5507 26250.3
 27 05 2013  09 48  -21.0267 26022.8 -03449.4 -07.5506 26250.4
 27 05 2013  09 49  -21.0265 26022.6 -03449.2 -07.5503 26250.2
 27 05 2013  09 50  -21.0274 26022.5 -03449.1 -07.5501 26250.1
 27 05 2013  09 51  -21.0287 26021.6 -03448.6 -07.5494 26249.1
 27 05 2013  09 52  -21.0273 26022.1 -03448.5 -07.5490 26249.7
 27 05 2013  09 53  -21.0283 26021.5 -03448.3 -07.5486 26249.0
 27 05 2013  09 54  -21.0280 26021.6 -03448.3 -07.5486 26249.1
 27 05 2013  09 55  -21.0281 26021.9 -03448.4 -07.5488 26249.4
 27 05 2013  09 56  -21.0299 26022.0 -03448.4 -07.5488 26249.5
 27 05 2013  09 57  -21.0312 26021.9 -03448.3 -07.5485 26249.4
 27 05 2013  09 58  -21.0321 26022.2 -03448.2 -07.5483 26249.6
 27 05 2013  09 59  -21.0322 26022.5 -03448.1 -07.5480 26249.9
 27 05 2013  10 00  -21.0319 26022.3 -03447.8 -07.5473 26249.7
 27 05 2013  10 01  -21.0312 26022.3 -03447.5 -07.5467 26249.7
 27 05 2013  10 02  -21.0299 26022.6 -03447.3 -07.5463 26250.0
 27 05 2013  10 03  -21.0289 26022.7 -03447.1 -07.5457 26250.0
 27 05 2013  10 04  -21.0271 26022.8 -03446.9 -07.5454 26250.1
 27 05 2013  10 05  -21.0257 26023.2 -03446.9 -07.5452 26250.5
 27 05 2013  10 06  -21.0236 26023.8 -03447.0 -07.5452 26251.1
 27 05 2013  10 07  -21.0237 26023.4 -03446.8 -07.5448 26250.7
 27 05 2013  10 08  -21.0250 26022.9 -03446.6 -07.5447 26250.2
 27 05 2013  10 09  -21.0249 26022.7 -03446.6 -07.5446 26250.0
 27 05 2013  10 10  -21.0253 26022.9 -03446.8 -07.5450 26250.1
 27 05 2013  10 11  -21.0264 26022.9 -03446.9 -07.5453 26250.2
 27 05 2013  10 12  -21.0285 26022.9 -03447.1 -07.5457 26250.3
 27 05 2013  10 13  -21.0287 26022.9 -03447.1 -07.5457 26250.2
 27 05 2013  10 14  -21.0286 26022.7 -03447.0 -07.5455 26250.0
 27 05 2013  10 15  -21.0289 26022.6 -03446.9 -07.5454 26249.9
 27 05 2013  10 16  -21.0284 26022.9 -03447.0 -07.5455 26250.2
 27 05 2013  10 17  -21.0280 26023.2 -03447.1 -07.5455 26250.5
 27 05 2013  10 18  -21.0276 26023.5 -03447.1 -07.5456 26250.8
 27 05 2013  10 19  -21.0274 26023.7 -03447.2 -07.5456 26251.0
 27 05 2013  10 20  -21.0264 26024.0 -03447.2 -07.5455 26251.3
 27 05 2013  10 21  -21.0272 26024.0 -03447.1 -07.5453 26251.3
 27 05 2013  10 22  -21.0277 26024.3 -03447.2 -07.5454 26251.6
 27 05 2013  10 23  -21.0268 26024.6 -03447.1 -07.5453 26251.9
 27 05 2013  10 24  -21.0266 26024.5 -03446.9 -07.5449 26251.8
 27 05 2013  10 25  -21.0269 26024.4 -03446.8 -07.5446 26251.7
 27 05 2013  10 26  -21.0276 26024.7 -03446.9 -07.5447 26252.0
 27 05 2013  10 27  -21.0280 26025.1 -03447.0 -07.5447 26252.4
 27 05 2013  10 28  -21.0276 26025.6 -03447.0 -07.5447 26252.9
 27 05 2013  10 29  -21.0280 26025.5 -03446.8 -07.5442 26252.8
 27 05 2013  10 30  -21.0278 26025.9 -03446.7 -07.5441 26253.1
 27 05 2013  10 31  -21.0277 26025.5 -03446.4 -07.5434 26252.7
 27 05 2013  10 32  -21.0278 26025.5 -03446.2 -07.5430 26252.6
 27 05 2013  10 33  -21.0280 26025.2 -03446.0 -07.5426 26252.4
 27 05 2013  10 34  -21.0280 26025.5 -03446.0 -07.5425 26252.6
 27 05 2013  10 35  -21.0282 26025.7 -03446.0 -07.5424 26252.8
 27 05 2013  10 36  -21.0283 26026.1 -03446.0 -07.5424 26253.3
 27 05 2013  10 37  -21.0281 26026.8 -03446.1 -07.5424 26253.9
 27 05 2013  10 38  -21.0278 26026.7 -03445.8 -07.5419 26253.8
 27 05 2013  10 39  -21.0293 26026.7 -03445.8 -07.5417 26253.8
 27 05 2013  10 40  -21.0294 26027.0 -03445.7 -07.5415 26254.1
 27 05 2013  10 41  -21.0289 26027.3 -03445.6 -07.5413 26254.4
 27 05 2013  10 42  -21.0288 26027.5 -03445.5 -07.5410 26254.6
 27 05 2013  10 43  -21.0285 26027.8 -03445.5 -07.5407 26254.8
 27 05 2013  10 44  -21.0285 26028.0 -03445.3 -07.5403 26255.0
 27 05 2013  10 45  -21.0287 26028.0 -03445.1 -07.5399 26255.0
 27 05 2013  10 46  -21.0281 26028.0 -03445.0 -07.5396 26255.0
 27 05 2013  10 47  -21.0286 26028.0 -03444.8 -07.5393 26255.0
 27 05 2013  10 48  -21.0280 26028.5 -03444.8 -07.5392 26255.4
 27 05 2013  10 49  -21.0274 26028.9 -03444.7 -07.5388 26255.9
 27 05 2013  10 50  -21.0263 26029.3 -03444.7 -07.5387 26256.3
 27 05 2013  10 51  -21.0265 26029.6 -03444.7 -07.5385 26256.5
 27 05 2013  10 52  -21.0263 26029.7 -03444.6 -07.5383 26256.7
 27 05 2013  10 53  -21.0260 26029.8 -03444.4 -07.5380 26256.7
 27 05 2013  10 54  -21.0259 26030.1 -03444.4 -07.5378 26257.0
 27 05 2013  10 55  -21.0260 26030.2 -03444.3 -07.5375 26257.1
 27 05 2013  10 56  -21.0266 26030.3 -03444.2 -07.5372 26257.2
 27 05 2013  10 57  -21.0272 26030.6 -03444.2 -07.5371 26257.5
 27 05 2013  10 58  -21.0271 26031.5 -03444.3 -07.5372 26258.4
 27 05 2013  10 59  -21.0270 26031.5 -03444.1 -07.5367 26258.4
 27 05 2013  11 00  -21.0277 26031.4 -03443.8 -07.5362 26258.2
 27 05 2013  11 01  -21.0276 26031.7 -03443.8 -07.5361 26258.5
 27 05 2013  11 02  -21.0279 26031.8 -03443.6 -07.5357 26258.6
 27 05 2013  11 03  -21.0281 26032.0 -03443.6 -07.5354 26258.8
 27 05 2013  11 04  -21.0283 26032.3 -03443.5 -07.5352 26259.1
 27 05 2013  11 05  -21.0288 26031.9 -03443.1 -07.5345 26258.6
 27 05 2013  11 06  -21.0289 26031.8 -03443.0 -07.5342 26258.5
 27 05 2013  11 07  -21.0295 26031.2 -03442.6 -07.5335 26257.9
 27 05 2013  11 08  -21.0304 26031.2 -03442.6 -07.5335 26257.9
 27 05 2013  11 09  -21.0309 26031.6 -03442.7 -07.5336 26258.3
 27 05 2013  11 10  -21.0315 26032.0 -03442.7 -07.5336 26258.7
 27 05 2013  11 11  -21.0321 26032.2 -03442.7 -07.5334 26258.9
 27 05 2013  11 12  -21.0318 26032.6 -03442.6 -07.5331 26259.2
 27 05 2013  11 13  -21.0324 26032.9 -03442.5 -07.5329 26259.6
 27 05 2013  11 14  -21.0328 26033.8 -03442.7 -07.5330 26260.5
 27 05 2013  11 15  -21.0329 26034.5 -03442.8 -07.5330 26261.2
 27 05 2013  11 16  -21.0324 26035.5 -03442.9 -07.5329 26262.2
 27 05 2013  11 17  -21.0324 26036.5 -03443.0 -07.5328 26263.2
 27 05 2013  11 18  -21.0325 26037.4 -03443.0 -07.5326 26264.0
 27 05 2013  11 19  -21.0328 26037.9 -03442.8 -07.5322 26264.5
 27 05 2013  11 20  -21.0329 26038.2 -03442.7 -07.5317 26264.8
 27 05 2013  11 21  -21.0328 26038.7 -03442.6 -07.5314 26265.2
 27 05 2013  11 22  -21.0332 26039.5 -03442.7 -07.5314 26266.1
 27 05 2013  11 23  -21.0332 26040.5 -03442.8 -07.5313 26267.1
 27 05 2013  11 24  -21.0330 26041.7 -03442.9 -07.5312 26268.3
 27 05 2013  11 25  -21.0322 26043.5 -03443.1 -07.5312 26270.1
 27 05 2013  11 26  -21.0312 26044.8 -03443.2 -07.5309 26271.4
 27 05 2013  11 27  -21.0305 26045.3 -03442.8 -07.5300 26271.8
 27 05 2013  11 28  -21.0298 26045.4 -03442.4 -07.5291 26272.0
 27 05 2013  11 29  -21.0294 26045.7 -03442.1 -07.5284 26272.2
 27 05 2013  11 30  -21.0296 26046.3 -03442.1 -07.5281 26272.7
 27 05 2013  11 31  -21.0301 26046.6 -03441.9 -07.5277 26273.0
 27 05 2013  11 32  -21.0303 26047.0 -03441.7 -07.5272 26273.4
 27 05 2013  11 33  -21.0305 26047.1 -03441.5 -07.5267 26273.4
 27 05 2013  11 34  -21.0306 26047.5 -03441.4 -07.5263 26273.9
 27 05 2013  11 35  -21.0299 26048.2 -03441.4 -07.5261 26274.5
 27 05 2013  11 36  -21.0294 26048.4 -03441.2 -07.5256 26274.7
 27 05 2013  11 37  -21.0293 26049.0 -03441.1 -07.5253 26275.3
 27 05 2013  11 38  -21.0289 26049.5 -03441.1 -07.5251 26275.8
 27 05 2013  11 39  -21.0283 26049.9 -03440.9 -07.5245 26276.2
 27 05 2013  11 40  -21.0277 26050.5 -03440.8 -07.5242 26276.8
 27 05 2013  11 41  -21.0275 26051.1 -03440.8 -07.5239 26277.4
 27 05 2013  11 42  -21.0274 26051.4 -03440.6 -07.5234 26277.6
 27 05 2013  11 43  -21.0270 26052.0 -03440.5 -07.5231 26278.2
 27 05 2013  11 44  -21.0269 26053.1 -03440.7 -07.5231 26279.3
 27 05 2013  11 45  -21.0272 26053.1 -03440.4 -07.5225 26279.3
 27 05 2013  11 46  -21.0268 26052.9 -03439.9 -07.5215 26279.0
 27 05 2013  11 47  -21.0254 26052.8 -03439.4 -07.5205 26278.8
 27 05 2013  11 48  -21.0253 26052.0 -03438.8 -07.5195 26278.0
 27 05 2013  11 49  -21.0260 26050.7 -03438.1 -07.5184 26276.6
 27 05 2013  11 50  -21.0280 26050.1 -03438.0 -07.5182 26276.0
 27 05 2013  11 51  -21.0295 26049.7 -03437.9 -07.5181 26275.6
 27 05 2013  11 52  -21.0287 26049.6 -03437.8 -07.5179 26275.4
 27 05 2013  11 53  -21.0285 26049.7 -03437.8 -07.5180 26275.6
 27 05 2013  11 54  -21.0284 26050.1 -03438.0 -07.5182 26276.0
 27 05 2013  11 55  -21.0289 26051.2 -03438.4 -07.5188 26277.1
 27 05 2013  11 56  -21.0289 26052.5 -03438.8 -07.5193 26278.5
 27 05 2013  11 57  -21.0287 26053.9 -03439.2 -07.5197 26279.9
 27 05 2013  11 58  -21.0282 26055.0 -03439.3 -07.5197 26281.1
 27 05 2013  11 59  -21.0281 26056.1 -03439.4 -07.5196 26282.1
 27 05 2013  12 00  -21.0285 26056.5 -03439.3 -07.5192 26282.5
 27 05 2013  12 01  -21.0289 26057.3 -03439.3 -07.5190 26283.3
 27 05 2013  12 02  -21.0305 26057.1 -03439.0 -07.5185 26283.0
 27 05 2013  12 03  -21.0318 26056.5 -03438.6 -07.5176 26282.4
 27 05 2013  12 04  -21.0325 26055.4 -03437.9 -07.5165 26281.2
 27 05 2013  12 05  -21.0331 26054.0 -03437.2 -07.5153 26279.8
 27 05 2013  12 06  -21.0340 26052.0 -03436.4 -07.5141 26277.7
 27 05 2013  12 07  -21.0345 26051.0 -03436.0 -07.5137 26276.6
 27 05 2013  12 08  -21.0358 26050.9 -03436.2 -07.5140 26276.5
 27 05 2013  12 09  -21.0364 26050.9 -03436.2 -07.5141 26276.5
 27 05 2013  12 10  -21.0366 26051.3 -03436.2 -07.5141 26276.9
 27 05 2013  12 11  -21.0371 26052.4 -03436.5 -07.5144 26278.1
 27 05 2013  12 12  -21.0375 26053.2 -03436.7 -07.5145 26278.8
 27 05 2013  12 13  -21.0382 26053.6 -03436.6 -07.5141 26279.2
 27 05 2013  12 14  -21.0386 26053.8 -03436.4 -07.5136 26279.4
 27 05 2013  12 15  -21.0390 26052.9 -03435.8 -07.5127 26278.5
 27 05 2013  12 16  -21.0396 26051.9 -03435.3 -07.5119 26277.4
 27 05 2013  12 17  -21.0404 26052.4 -03435.5 -07.5121 26277.9
 27 05 2013  12 18  -21.0414 26053.5 -03435.8 -07.5125 26279.0
 27 05 2013  12 19  -21.0429 26054.9 -03436.3 -07.5132 26280.5
 27 05 2013  12 20  -21.0420 26055.5 -03436.1 -07.5126 26281.1
 27 05 2013  12 21  -21.0403 26055.1 -03435.5 -07.5113 26280.6
 27 05 2013  12 22  -21.0402 26054.4 -03435.1 -07.5107 26279.9
 27 05 2013  12 23  -21.0408 26054.5 -03435.1 -07.5108 26280.0
 27 05 2013  12 24  -21.0415 26055.0 -03435.2 -07.5108 26280.5
 27 05 2013  12 25  -21.0414 26055.6 -03435.2 -07.5107 26281.0
 27 05 2013  12 26  -21.0413 26056.0 -03435.2 -07.5104 26281.5
 27 05 2013  12 27  -21.0404 26056.6 -03435.0 -07.5099 26282.0
 27 05 2013  12 28  -21.0398 26057.1 -03434.9 -07.5095 26282.5
 27 05 2013  12 29  -21.0397 26056.8 -03434.4 -07.5086 26282.1
 27 05 2013  12 30  -21.0399 26056.4 -03434.0 -07.5078 26281.7
 27 05 2013  12 31  -21.0403 26057.1 -03434.0 -07.5076 26282.4
 27 05 2013  12 32  -21.0406 26057.4 -03433.8 -07.5071 26282.7
 27 05 2013  12 33  -21.0414 26056.2 -03433.0 -07.5057 26281.4
 27 05 2013  12 34  -21.0422 26055.6 -03432.7 -07.5052 26280.8
 27 05 2013  12 35  -21.0440 26056.0 -03432.9 -07.5056 26281.2
 27 05 2013  12 36  -21.0453 26056.2 -03433.0 -07.5057 26281.4
 27 05 2013  12 37  -21.0457 26057.0 -03433.2 -07.5058 26282.2
 27 05 2013  12 38  -21.0466 26058.2 -03433.5 -07.5063 26283.4
 27 05 2013  12 39  -21.0475 26058.6 -03433.5 -07.5062 26283.9
 27 05 2013  12 40  -21.0479 26059.2 -03433.5 -07.5059 26284.4
 27 05 2013  12 41  -21.0490 26060.3 -03433.7 -07.5061 26285.5
 27 05 2013  12 42  -21.0500 26060.7 -03433.6 -07.5056 26285.9
 27 05 2013  12 43  -21.0502 26060.8 -03433.3 -07.5050 26286.0
 27 05 2013  12 44  -21.0509 26061.1 -03433.1 -07.5044 26286.2
 27 05 2013  12 45  -21.0522 26061.9 -03433.1 -07.5043 26287.0
 27 05 2013  12 46  -21.0536 26062.7 -03433.1 -07.5041 26287.8
 27 05 2013  12 47  -21.0552 26062.9 -03432.9 -07.5034 26288.0
 27 05 2013  12 48  -21.0566 26063.2 -03432.6 -07.5029 26288.3
 27 05 2013  12 49  -21.0576 26063.8 -03432.5 -07.5024 26288.8
 27 05 2013  12 50  -21.0583 26064.1 -03432.2 -07.5017 26289.1
 27 05 2013  12 51  -21.0589 26064.3 -03431.8 -07.5009 26289.3
 27 05 2013  12 52  -21.0597 26065.1 -03431.8 -07.5006 26290.1
 27 05 2013  12 53  -21.0605 26066.2 -03431.9 -07.5004 26291.1
 27 05 2013  12 54  -21.0614 26066.3 -03431.5 -07.4996 26291.2
 27 05 2013  12 55  -21.0620 26066.8 -03431.2 -07.4988 26291.7
 27 05 2013  12 56  -21.0624 26067.8 -03431.2 -07.4985 26292.6
 27 05 2013  12 57  -21.0625 26068.8 -03431.1 -07.4980 26293.6
 27 05 2013  12 58  -21.0627 26068.9 -03430.6 -07.4969 26293.7
 27 05 2013  12 59  -21.0634 26069.1 -03430.3 -07.4961 26293.9
 27 05 2013  13 00  -21.0643 26069.5 -03430.0 -07.4955 26294.2
 27 05 2013  13 01  -21.0654 26070.0 -03429.9 -07.4951 26294.6
 27 05 2013  13 02  -21.0659 26070.4 -03429.7 -07.4945 26295.1
 27 05 2013  13 03  -21.0661 26070.6 -03429.3 -07.4935 26295.1
 27 05 2013  13 04  -21.0658 26070.5 -03428.8 -07.4926 26295.0
 27 05 2013  13 05  -21.0658 26070.1 -03428.3 -07.4916 26294.6
 27 05 2013  13 06  -21.0664 26070.1 -03428.1 -07.4910 26294.5
 27 05 2013  13 07  -21.0673 26069.7 -03427.7 -07.4904 26294.1
 27 05 2013  13 08  -21.0679 26069.4 -03427.4 -07.4899 26293.8
 27 05 2013  13 09  -21.0686 26069.3 -03427.2 -07.4894 26293.7
 27 05 2013  13 10  -21.0696 26069.0 -03426.9 -07.4889 26293.3
 27 05 2013  13 11  -21.0700 26069.8 -03427.1 -07.4890 26294.1
 27 05 2013  13 12  -21.0708 26071.1 -03427.4 -07.4893 26295.5
 27 05 2013  13 13  -21.0714 26071.0 -03427.0 -07.4884 26295.3
 27 05 2013  13 14  -21.0721 26070.6 -03426.5 -07.4875 26294.8
 27 05 2013  13 15  -21.0729 26070.3 -03426.1 -07.4868 26294.5
 27 05 2013  13 16  -21.0732 26070.4 -03426.0 -07.4865 26294.6
 27 05 2013  13 17  -21.0729 26070.3 -03425.7 -07.4859 26294.5
 27 05 2013  13 18  -21.0728 26071.1 -03425.7 -07.4858 26295.2
 27 05 2013  13 19  -21.0726 26071.6 -03425.5 -07.4852 26295.7
 27 05 2013  13 20  -21.0726 26072.1 -03425.4 -07.4847 26296.1
 27 05 2013  13 21  -21.0720 26072.4 -03425.1 -07.4841 26296.4
 27 05 2013  13 22  -21.0712 26072.8 -03424.9 -07.4834 26296.8
 27 05 2013  13 23  -21.0706 26073.4 -03424.7 -07.4828 26297.4
 27 05 2013  13 24  -21.0704 26073.8 -03424.4 -07.4821 26297.7
 27 05 2013  13 25  -21.0694 26074.5 -03424.2 -07.4816 26298.4
 27 05 2013  13 26  -21.0689 26075.2 -03424.1 -07.4811 26299.1
 27 05 2013  13 27  -21.0691 26075.5 -03423.8 -07.4802 26299.3
 27 05 2013  13 28  -21.0676 26076.4 -03423.6 -07.4797 26300.2
 27 05 2013  13 29  -21.0664 26075.8 -03423.0 -07.4786 26299.5
 27 05 2013  13 30  -21.0666 26075.1 -03422.6 -07.4778 26298.8
 27 05 2013  13 31  -21.0667 26075.0 -03422.4 -07.4775 26298.7
 27 05 2013  13 32  -21.0668 26075.0 -03422.3 -07.4772 26298.6
 27 05 2013  13 33  -21.0667 26074.8 -03422.0 -07.4766 26298.4
 27 05 2013  13 34  -21.0659 26074.7 -03421.7 -07.4760 26298.3
 27 05 2013  13 35  -21.0652 26074.3 -03421.3 -07.4753 26297.8
 27 05 2013  13 36  -21.0654 26073.4 -03420.8 -07.4744 26296.8
 27 05 2013  13 37  -21.0655 26072.0 -03420.2 -07.4735 26295.4
 27 05 2013  13 38  -21.0658 26070.7 -03419.7 -07.4728 26294.0
 27 05 2013  13 39  -21.0660 26070.5 -03419.7 -07.4730 26293.8
 27 05 2013  13 40  -21.0665 26070.2 -03419.8 -07.4731 26293.6
 27 05 2013  13 41  -21.0667 26070.3 -03419.9 -07.4733 26293.6
 27 05 2013  13 42  -21.0674 26070.7 -03420.1 -07.4737 26294.1
 27 05 2013  13 43  -21.0672 26071.8 -03420.4 -07.4740 26295.2
 27 05 2013  13 44  -21.0662 26072.6 -03420.5 -07.4740 26296.0
 27 05 2013  13 45  -21.0658 26071.8 -03419.8 -07.4728 26295.2
 27 05 2013  13 46  -21.0657 26072.5 -03419.9 -07.4727 26295.8
 27 05 2013  13 47  -21.0672 26073.0 -03419.9 -07.4726 26296.3
 27 05 2013  13 48  -21.0687 26070.8 -03418.9 -07.4710 26294.0
 27 05 2013  13 49  -21.0698 26067.7 -03417.5 -07.4690 26290.8
 27 05 2013  13 50  -21.0697 26064.7 -03416.5 -07.4675 26287.7
 27 05 2013  13 51  -21.0690 26063.5 -03416.4 -07.4677 26286.5
 27 05 2013  13 52  -21.0687 26063.2 -03416.7 -07.4685 26286.2
 27 05 2013  13 53  -21.0685 26063.3 -03417.2 -07.4695 26286.3
 27 05 2013  13 54  -21.0679 26062.5 -03417.2 -07.4697 26285.6
 27 05 2013  13 55  -21.0667 26061.7 -03417.1 -07.4698 26284.8
 27 05 2013  13 56  -21.0665 26061.2 -03417.3 -07.4704 26284.3
 27 05 2013  13 57  -21.0671 26060.6 -03417.4 -07.4707 26283.7
 27 05 2013  13 58  -21.0675 26060.6 -03417.8 -07.4715 26283.8
 27 05 2013  13 59  -21.0672 26060.3 -03417.8 -07.4717 26283.5
 27 05 2013  14 00  -21.0670 26060.3 -03418.0 -07.4720 26283.5
 27 05 2013  14 01  -21.0670 26060.1 -03418.1 -07.4723 26283.3
 27 05 2013  14 02  -21.0668 26059.7 -03418.1 -07.4725 26282.9
 27 05 2013  14 03  -21.0660 26059.2 -03418.1 -07.4726 26282.4
 27 05 2013  14 04  -21.0652 26058.3 -03417.9 -07.4725 26281.5
 27 05 2013  14 05  -21.0648 26057.5 -03418.0 -07.4728 26280.8
 27 05 2013  14 06  -21.0645 26057.7 -03418.4 -07.4736 26280.9
 27 05 2013  14 07  -21.0647 26057.6 -03418.6 -07.4742 26280.9
 27 05 2013  14 08  -21.0650 26058.1 -03419.1 -07.4751 26281.4
 27 05 2013  14 09  -21.0648 26057.9 -03419.2 -07.4755 26281.2
 27 05 2013  14 10  -21.0640 26057.6 -03419.3 -07.4756 26281.0
 27 05 2013  14 11  -21.0636 26057.7 -03419.6 -07.4762 26281.1
 27 05 2013  14 12  -21.0631 26058.0 -03419.9 -07.4770 26281.4
 27 05 2013  14 13  -21.0627 26058.6 -03420.3 -07.4776 26282.1
 27 05 2013  14 14  -21.0626 26059.1 -03420.7 -07.4783 26282.7
 27 05 2013  14 15  -21.0622 26059.5 -03420.9 -07.4785 26283.0
 27 05 2013  14 16  -21.0617 26059.7 -03421.0 -07.4787 26283.2
 27 05 2013  14 17  -21.0619 26059.7 -03421.1 -07.4790 26283.3
 27 05 2013  14 18  -21.0619 26059.7 -03421.3 -07.4794 26283.4
 27 05 2013  14 19  -21.0621 26060.5 -03421.7 -07.4801 26284.1
 27 05 2013  14 20  -21.0626 26061.7 -03422.4 -07.4811 26285.5
 27 05 2013  14 21  -21.0626 26062.5 -03422.7 -07.4815 26286.3
 27 05 2013  14 22  -21.0623 26062.9 -03422.7 -07.4816 26286.7
 27 05 2013  14 23  -21.0620 26063.2 -03422.8 -07.4816 26287.0
 27 05 2013  14 24  -21.0620 26063.9 -03423.1 -07.4821 26287.7
 27 05 2013  14 25  -21.0623 26064.7 -03423.4 -07.4825 26288.6
 27 05 2013  14 26  -21.0628 26065.4 -03423.6 -07.4828 26289.3
 27 05 2013  14 27  -21.0631 26065.6 -03423.6 -07.4828 26289.4
 27 05 2013  14 28  -21.0627 26065.5 -03423.6 -07.4828 26289.4
 27 05 2013  14 29  -21.0632 26066.1 -03424.0 -07.4835 26290.0
 27 05 2013  14 30  -21.0638 26066.2 -03424.1 -07.4837 26290.1
 27 05 2013  14 31  -21.0640 26065.8 -03424.1 -07.4837 26289.8
 27 05 2013  14 32  -21.0645 26066.1 -03424.3 -07.4840 26290.0
 27 05 2013  14 33  -21.0646 26066.5 -03424.4 -07.4842 26290.5
 27 05 2013  14 34  -21.0651 26067.2 -03424.8 -07.4847 26291.2
 27 05 2013  14 35  -21.0656 26067.6 -03425.0 -07.4851 26291.6
 27 05 2013  14 36  -21.0658 26067.8 -03425.0 -07.4851 26291.9
 27 05 2013  14 37  -21.0663 26068.8 -03425.3 -07.4856 26292.9
 27 05 2013  14 38  -21.0666 26069.7 -03425.5 -07.4856 26293.8
 27 05 2013  14 39  -21.0666 26069.6 -03425.3 -07.4851 26293.7
 27 05 2013  14 40  -21.0661 26069.4 -03425.0 -07.4846 26293.4
 27 05 2013  14 41  -21.0656 26069.0 -03424.7 -07.4842 26293.0
 27 05 2013  14 42  -21.0653 26069.0 -03424.7 -07.4841 26293.0
 27 05 2013  14 43  -21.0647 26068.5 -03424.5 -07.4838 26292.5
 27 05 2013  14 44  -21.0643 26068.6 -03424.5 -07.4839 26292.6
 27 05 2013  14 45  -21.0643 26068.8 -03424.7 -07.4841 26292.8
 27 05 2013  14 46  -21.0639 26068.5 -03424.5 -07.4838 26292.5
 27 05 2013  14 47  -21.0639 26068.1 -03424.4 -07.4836 26292.1
 27 05 2013  14 48  -21.0641 26067.7 -03424.3 -07.4836 26291.7
 27 05 2013  14 49  -21.0634 26067.0 -03424.2 -07.4835 26291.0
 27 05 2013  14 50  -21.0635 26067.2 -03424.4 -07.4839 26291.2
 27 05 2013  14 51  -21.0636 26067.2 -03424.5 -07.4842 26291.2
 27 05 2013  14 52  -21.0638 26067.9 -03424.8 -07.4847 26291.9
 27 05 2013  14 53  -21.0639 26068.0 -03424.9 -07.4848 26292.1
 27 05 2013  14 54  -21.0639 26068.4 -03425.0 -07.4849 26292.4
 27 05 2013  14 55  -21.0640 26068.6 -03425.1 -07.4850 26292.6
 27 05 2013  14 56  -21.0636 26068.3 -03424.8 -07.4846 26292.3
 27 05 2013  14 57  -21.0634 26067.5 -03424.5 -07.4841 26291.5
 27 05 2013  14 58  -21.0630 26067.0 -03424.3 -07.4839 26290.9
 27 05 2013  14 59  -21.0623 26066.7 -03424.3 -07.4839 26290.6
 27 05 2013  15 00  -21.0617 26066.3 -03424.2 -07.4838 26290.2
 27 05 2013  15 01  -21.0614 26065.9 -03424.2 -07.4838 26289.8
 27 05 2013  15 02  -21.0606 26065.2 -03423.9 -07.4835 26289.2
 27 05 2013  15 03  -21.0599 26064.4 -03423.8 -07.4834 26288.3
 27 05 2013  15 04  -21.0591 26063.4 -03423.6 -07.4833 26287.3
 27 05 2013  15 05  -21.0587 26063.0 -03423.7 -07.4837 26287.0
 27 05 2013  15 06  -21.0584 26062.8 -03423.9 -07.4840 26286.8
 27 05 2013  15 07  -21.0580 26062.7 -03424.1 -07.4845 26286.7
 27 05 2013  15 08  -21.0573 26062.6 -03424.2 -07.4847 26286.6
 27 05 2013  15 09  -21.0568 26062.6 -03424.4 -07.4852 26286.6
 27 05 2013  15 10  -21.0565 26062.8 -03424.7 -07.4858 26286.9
 27 05 2013  15 11  -21.0561 26062.7 -03424.7 -07.4860 26286.7
 27 05 2013  15 12  -21.0552 26062.1 -03424.7 -07.4861 26286.1
 27 05 2013  15 13  -21.0545 26061.7 -03424.7 -07.4863 26285.8
 27 05 2013  15 14  -21.0543 26061.3 -03424.9 -07.4866 26285.4
 27 05 2013  15 15  -21.0543 26061.0 -03425.0 -07.4871 26285.1
 27 05 2013  15 16  -21.0543 26060.8 -03425.2 -07.4876 26284.9
 27 05 2013  15 17  -21.0545 26060.9 -03425.5 -07.4882 26285.1
 27 05 2013  15 18  -21.0545 26060.8 -03425.7 -07.4887 26285.0
 27 05 2013  15 19  -21.0544 26060.9 -03426.0 -07.4891 26285.1
 27 05 2013  15 20  -21.0541 26061.0 -03426.1 -07.4895 26285.2
 27 05 2013  15 21  -21.0544 26061.1 -03426.4 -07.4900 26285.4
 27 05 2013  15 22  -21.0544 26061.0 -03426.5 -07.4903 26285.3
 27 05 2013  15 23  -21.0543 26060.7 -03426.6 -07.4905 26285.0
 27 05 2013  15 24  -21.0542 26060.3 -03426.6 -07.4906 26284.6
 27 05 2013  15 25  -21.0548 26060.2 -03426.8 -07.4911 26284.6
 27 05 2013  15 26  -21.0555 26060.7 -03427.1 -07.4917 26285.1
 27 05 2013  15 27  -21.0560 26061.1 -03427.4 -07.4922 26285.5
 27 05 2013  15 28  -21.0562 26061.0 -03427.4 -07.4921 26285.4
 27 05 2013  15 29  -21.0567 26061.1 -03427.5 -07.4925 26285.6
 27 05 2013  15 30  -21.0573 26061.1 -03427.6 -07.4926 26285.5
 27 05 2013  15 31  -21.0579 26061.4 -03427.7 -07.4928 26285.9
 27 05 2013  15 32  -21.0585 26061.9 -03427.9 -07.4931 26286.3
 27 05 2013  15 33  -21.0589 26062.0 -03427.9 -07.4930 26286.5
 27 05 2013  15 34  -21.0592 26062.2 -03427.9 -07.4929 26286.6
 27 05 2013  15 35  -21.0593 26062.2 -03427.8 -07.4927 26286.6
 27 05 2013  15 36  -21.0594 26062.0 -03427.6 -07.4923 26286.4
 27 05 2013  15 37  -21.0593 26061.4 -03427.3 -07.4919 26285.8
 27 05 2013  15 38  -21.0591 26060.8 -03427.1 -07.4916 26285.2
 27 05 2013  15 39  -21.0592 26060.5 -03427.0 -07.4915 26284.9
 27 05 2013  15 40  -21.0594 26060.3 -03427.0 -07.4915 26284.7
 27 05 2013  15 41  -21.0599 26060.5 -03427.1 -07.4918 26284.9
 27 05 2013  15 42  -21.0601 26060.3 -03427.0 -07.4916 26284.6
 27 05 2013  15 43  -21.0601 26060.1 -03427.0 -07.4915 26284.4
 27 05 2013  15 44  -21.0602 26059.9 -03426.9 -07.4914 26284.2
 27 05 2013  15 45  -21.0603 26059.5 -03426.7 -07.4912 26283.8
 27 05 2013  15 46  -21.0603 26059.1 -03426.7 -07.4912 26283.5
 27 05 2013  15 47  -21.0604 26059.0 -03426.7 -07.4913 26283.3
 27 05 2013  15 48  -21.0607 26059.0 -03426.8 -07.4916 26283.3
 27 05 2013  15 49  -21.0613 26059.2 -03427.0 -07.4919 26283.6
 27 05 2013  15 50  -21.0619 26059.3 -03427.1 -07.4921 26283.7
 27 05 2013  15 51  -21.0623 26059.3 -03427.1 -07.4922 26283.7
 27 05 2013  15 52  -21.0627 26059.2 -03427.1 -07.4921 26283.6
 27 05 2013  15 53  -21.0630 26058.9 -03427.0 -07.4921 26283.3
 27 05 2013  15 54  -21.0634 26058.7 -03427.0 -07.4921 26283.1
 27 05 2013  15 55  -21.0636 26058.5 -03427.0 -07.4921 26282.9
 27 05 2013  15 56  -21.0643 26058.5 -03427.1 -07.4922 26282.9
 27 05 2013  15 57  -21.0648 26058.3 -03427.0 -07.4922 26282.7
 27 05 2013  15 58  -21.0651 26058.0 -03426.9 -07.4920 26282.3
 27 05 2013  15 59  -21.0654 26057.5 -03426.7 -07.4918 26281.8
 27 05 2013  16 00  -21.0654 26056.9 -03426.6 -07.4917 26281.2
 27 05 2013  16 01  -21.0658 26056.9 -03426.7 -07.4919 26281.2
 27 05 2013  16 02  -21.0663 26057.0 -03426.8 -07.4921 26281.3
 27 05 2013  16 03  -21.0669 26057.3 -03427.0 -07.4924 26281.7
 27 05 2013  16 04  -21.0672 26057.1 -03426.9 -07.4922 26281.5
 27 05 2013  16 05  -21.0669 26056.6 -03426.7 -07.4919 26281.0
 27 05 2013  16 06  -21.0664 26055.8 -03426.4 -07.4916 26280.2
 27 05 2013  16 07  -21.0663 26055.3 -03426.3 -07.4915 26279.6
 27 05 2013  16 08  -21.0665 26055.1 -03426.5 -07.4919 26279.5
 27 05 2013  16 09  -21.0672 26055.3 -03426.7 -07.4924 26279.7
 27 05 2013  16 10  -21.0677 26055.5 -03426.9 -07.4928 26279.9
 27 05 2013  16 11  -21.0675 26055.3 -03426.9 -07.4928 26279.7
 27 05 2013  16 12  -21.0677 26055.3 -03427.0 -07.4929 26279.7
 27 05 2013  16 13  -21.0679 26055.0 -03427.0 -07.4930 26279.4
 27 05 2013  16 14  -21.0681 26054.7 -03427.0 -07.4932 26279.1
 27 05 2013  16 15  -21.0682 26054.1 -03426.9 -07.4931 26278.5
 27 05 2013  16 16  -21.0686 26054.0 -03427.0 -07.4934 26278.4
 27 05 2013  16 17  -21.0690 26053.8 -03427.1 -07.4936 26278.3
 27 05 2013  16 18  -21.0694 26054.0 -03427.3 -07.4940 26278.4
 27 05 2013  16 19  -21.0700 26054.2 -03427.5 -07.4943 26278.6
 27 05 2013  16 20  -21.0703 26053.9 -03427.4 -07.4943 26278.4
 27 05 2013  16 21  -21.0706 26053.6 -03427.3 -07.4942 26278.1
 27 05 2013  16 22  -21.0709 26053.1 -03427.2 -07.4941 26277.6
 27 05 2013  16 23  -21.0710 26052.7 -03427.2 -07.4940 26277.2
 27 05 2013  16 24  -21.0708 26051.7 -03426.9 -07.4938 26276.2
 27 05 2013  16 25  -21.0712 26051.4 -03427.1 -07.4943 26275.9
 27 05 2013  16 26  -21.0715 26051.0 -03427.1 -07.4944 26275.5
 27 05 2013  16 27  -21.0727 26051.8 -03427.6 -07.4952 26276.3
 27 05 2013  16 28  -21.0735 26052.0 -03427.8 -07.4956 26276.6
 27 05 2013  16 29  -21.0730 26051.7 -03427.6 -07.4954 26276.2
 27 05 2013  16 30  -21.0728 26051.5 -03427.6 -07.4954 26276.0
 27 05 2013  16 31  -21.0728 26051.3 -03427.7 -07.4956 26275.8
 27 05 2013  16 32  -21.0739 26052.3 -03428.2 -07.4964 26276.8
 27 05 2013  16 33  -21.0754 26053.2 -03428.5 -07.4969 26277.8
 27 05 2013  16 34  -21.0762 26053.4 -03428.5 -07.4968 26278.0
 27 05 2013  16 35  -21.0750 26052.2 -03427.9 -07.4957 26276.7
 27 05 2013  16 36  -21.0744 26051.1 -03427.5 -07.4952 26275.6
 27 05 2013  16 37  -21.0747 26050.9 -03427.6 -07.4954 26275.5
 27 05 2013  16 38  -21.0755 26051.2 -03427.9 -07.4960 26275.8
 27 05 2013  16 39  -21.0748 26050.5 -03427.7 -07.4958 26275.1
 27 05 2013  16 40  -21.0738 26049.5 -03427.4 -07.4956 26274.0
 27 05 2013  16 41  -21.0738 26048.9 -03427.5 -07.4958 26273.5
 27 05 2013  16 42  -21.0732 26048.1 -03427.4 -07.4959 26272.6
 27 05 2013  16 43  -21.0735 26048.0 -03427.7 -07.4966 26272.6
 27 05 2013  16 44  -21.0736 26047.3 -03427.6 -07.4966 26271.9
 27 05 2013  16 45  -21.0730 26046.4 -03427.4 -07.4964 26271.0
 27 05 2013  16 46  -21.0726 26045.7 -03427.4 -07.4965 26270.2
 27 05 2013  16 47  -21.0727 26045.0 -03427.4 -07.4967 26269.5
 27 05 2013  16 48  -21.0728 26044.9 -03427.7 -07.4974 26269.5
 27 05 2013  16 49  -21.0733 26045.2 -03428.2 -07.4984 26269.8
 27 05 2013  16 50  -21.0747 26045.7 -03428.6 -07.4992 26270.4
 27 05 2013  16 51  -21.0756 26046.6 -03429.0 -07.4999 26271.3
 27 05 2013  16 52  -21.0757 26046.9 -03429.2 -07.5002 26271.7
 27 05 2013  16 53  -21.0738 26045.5 -03428.6 -07.4992 26270.2
 27 05 2013  16 54  -21.0731 26045.6 -03428.9 -07.4998 26270.4
 27 05 2013  16 55  -21.0753 26047.1 -03429.7 -07.5013 26271.9
 27 05 2013  16 56  -21.0760 26049.0 -03430.4 -07.5022 26273.9
 27 05 2013  16 57  -21.0771 26050.2 -03430.8 -07.5026 26275.2
 27 05 2013  16 58  -21.0768 26050.3 -03430.5 -07.5020 26275.2
 27 05 2013  16 59  -21.0764 26050.0 -03430.2 -07.5015 26274.9
 27 05 2013  17 00  -21.0760 26049.7 -03430.1 -07.5012 26274.6
 27 05 2013  17 01  -21.0754 26049.6 -03430.0 -07.5010 26274.4
 27 05 2013  17 02  -21.0759 26050.1 -03430.3 -07.5016 26275.0
 27 05 2013  17 03  -21.0757 26049.5 -03430.0 -07.5011 26274.3
 27 05 2013  17 04  -21.0756 26048.4 -03429.5 -07.5004 26273.2
 27 05 2013  17 05  -21.0759 26048.6 -03429.6 -07.5006 26273.4
 27 05 2013  17 06  -21.0762 26049.1 -03429.9 -07.5010 26273.9
 27 05 2013  17 07  -21.0769 26050.0 -03430.4 -07.5017 26274.9
 27 05 2013  17 08  -21.0769 26049.4 -03429.9 -07.5010 26274.2
 27 05 2013  17 09  -21.0766 26048.7 -03429.5 -07.5003 26273.5
 27 05 2013  17 10  -21.0766 26048.2 -03429.3 -07.5000 26273.0
 27 05 2013  17 11  -21.0773 26048.2 -03429.4 -07.5001 26273.0
 27 05 2013  17 12  -21.0771 26047.6 -03429.2 -07.5000 26272.3
 27 05 2013  17 13  -21.0767 26046.7 -03429.1 -07.5000 26271.5
 27 05 2013  17 14  -21.0773 26046.6 -03429.4 -07.5007 26271.4
 27 05 2013  17 15  -21.0773 26045.3 -03429.2 -07.5005 26270.1
 27 05 2013  17 16  -21.0776 26044.5 -03429.2 -07.5008 26269.2
 27 05 2013  17 17  -21.0786 26043.6 -03429.2 -07.5010 26268.4
 27 05 2013  17 18  -21.0786 26042.7 -03429.0 -07.5010 26267.5
 27 05 2013  17 19  -21.0789 26042.4 -03429.2 -07.5015 26267.2
 27 05 2013  17 20  -21.0790 26042.0 -03429.4 -07.5018 26266.9
 27 05 2013  17 21  -21.0794 26042.6 -03429.9 -07.5028 26267.4
 27 05 2013  17 22  -21.0799 26042.4 -03430.0 -07.5032 26267.4
 27 05 2013  17 23  -21.0793 26041.3 -03429.7 -07.5028 26266.2
 27 05 2013  17 24  -21.0788 26040.5 -03429.6 -07.5028 26265.3
 27 05 2013  17 25  -21.0781 26039.6 -03429.5 -07.5029 26264.4
 27 05 2013  17 26  -21.0783 26039.7 -03429.9 -07.5037 26264.6
 27 05 2013  17 27  -21.0799 26040.5 -03430.5 -07.5048 26265.5
 27 05 2013  17 28  -21.0806 26041.0 -03430.6 -07.5048 26266.0
 27 05 2013  17 29  -21.0799 26040.9 -03430.3 -07.5043 26265.8
 27 05 2013  17 30  -21.0799 26041.1 -03430.3 -07.5042 26266.1
 27 05 2013  17 31  -21.0803 26041.0 -03430.1 -07.5038 26265.9
 27 05 2013  17 32  -21.0803 26040.6 -03429.9 -07.5034 26265.5
 27 05 2013  17 33  -21.0809 26040.5 -03429.7 -07.5031 26265.4
 27 05 2013  17 34  -21.0810 26040.2 -03429.5 -07.5027 26265.0
 27 05 2013  17 35  -21.0811 26039.9 -03429.4 -07.5025 26264.7
 27 05 2013  17 36  -21.0808 26039.3 -03429.2 -07.5023 26264.1
 27 05 2013  17 37  -21.0804 26038.3 -03428.8 -07.5017 26263.1
 27 05 2013  17 38  -21.0798 26037.2 -03428.4 -07.5012 26262.0
 27 05 2013  17 39  -21.0794 26036.1 -03428.2 -07.5010 26260.8
 27 05 2013  17 40  -21.0794 26035.5 -03428.3 -07.5014 26260.3
 27 05 2013  17 41  -21.0791 26034.7 -03428.3 -07.5015 26259.5
 27 05 2013  17 42  -21.0791 26034.4 -03428.5 -07.5021 26259.2
 27 05 2013  17 43  -21.0799 26034.9 -03429.0 -07.5031 26259.7
 27 05 2013  17 44  -21.0809 26035.5 -03429.5 -07.5039 26260.4
 27 05 2013  17 45  -21.0812 26035.5 -03429.6 -07.5042 26260.4
 27 05 2013  17 46  -21.0815 26035.1 -03429.5 -07.5041 26260.0
 27 05 2013  17 47  -21.0826 26035.5 -03429.7 -07.5045 26260.4
 27 05 2013  17 48  -21.0837 26036.2 -03430.0 -07.5049 26261.2
 27 05 2013  17 49  -21.0851 26037.0 -03430.2 -07.5051 26262.0
 27 05 2013  17 50  -21.0854 26037.2 -03429.9 -07.5044 26262.1
 27 05 2013  17 51  -21.0858 26037.1 -03429.6 -07.5038 26262.0
 27 05 2013  17 52  -21.0866 26037.5 -03429.6 -07.5037 26262.4
 27 05 2013  17 53  -21.0873 26037.4 -03429.3 -07.5030 26262.3
 27 05 2013  17 54  -21.0880 26037.3 -03429.0 -07.5024 26262.1
 27 05 2013  17 55  -21.0884 26037.0 -03428.7 -07.5019 26261.8
 27 05 2013  17 56  -21.0881 26036.3 -03428.2 -07.5010 26261.1
 27 05 2013  17 57  -21.0883 26036.1 -03428.0 -07.5006 26260.8
 27 05 2013  17 58  -21.0889 26036.1 -03427.9 -07.5005 26260.8
 27 05 2013  17 59  -21.0888 26035.6 -03427.7 -07.5001 26260.3
 27 05 2013  18 00  -21.0893 26035.5 -03427.6 -07.5000 26260.2
 27 05 2013  18 01  -21.0895 26036.0 -03427.8 -07.5003 26260.7
 27 05 2013  18 02  -21.0897 26036.6 -03428.1 -07.5007 26261.3
 27 05 2013  18 03  -21.0904 26036.6 -03428.2 -07.5008 26261.3
 27 05 2013  18 04  -21.0910 26036.7 -03428.1 -07.5007 26261.4
 27 05 2013  18 05  -21.0904 26036.4 -03427.8 -07.5001 26261.0
 27 05 2013  18 06  -21.0886 26035.4 -03427.4 -07.4995 26260.0
 27 05 2013  18 07  -21.0872 26034.5 -03427.3 -07.4995 26259.1
 27 05 2013  18 08  -21.0869 26033.6 -03427.3 -07.4998 26258.2
 27 05 2013  18 09  -21.0860 26032.2 -03427.1 -07.4998 26256.8
 27 05 2013  18 10  -21.0849 26030.8 -03427.0 -07.4999 26255.4
 27 05 2013  18 11  -21.0844 26030.3 -03427.3 -07.5006 26254.9
 27 05 2013  18 12  -21.0843 26030.0 -03427.6 -07.5015 26254.7
 27 05 2013  18 13  -21.0841 26029.5 -03427.8 -07.5021 26254.3
 27 05 2013  18 14  -21.0841 26029.2 -03428.0 -07.5027 26253.9
 27 05 2013  18 15  -21.0847 26029.4 -03428.5 -07.5036 26254.2
 27 05 2013  18 16  -21.0853 26029.9 -03429.0 -07.5045 26254.8
 27 05 2013  18 17  -21.0863 26030.2 -03429.3 -07.5051 26255.1
 27 05 2013  18 18  -21.0871 26030.2 -03429.4 -07.5053 26255.1
 27 05 2013  18 19  -21.0871 26030.3 -03429.4 -07.5053 26255.2
 27 05 2013  18 20  -21.0869 26030.2 -03429.4 -07.5054 26255.1
 27 05 2013  18 21  -21.0875 26029.9 -03429.5 -07.5056 26254.8
 27 05 2013  18 22  -21.0880 26029.5 -03429.4 -07.5055 26254.5
 27 05 2013  18 23  -21.0888 26029.2 -03429.5 -07.5057 26254.1
 27 05 2013  18 24  -21.0889 26028.0 -03429.2 -07.5054 26252.9
 27 05 2013  18 25  -21.0885 26026.4 -03428.8 -07.5052 26251.3
 27 05 2013  18 26  -21.0881 26025.2 -03428.9 -07.5057 26250.1
 27 05 2013  18 27  -21.0893 26024.5 -03429.1 -07.5064 26249.4
 27 05 2013  18 28  -21.0917 26025.4 -03430.1 -07.5081 26250.5
 27 05 2013  18 29  -21.0940 26026.4 -03430.8 -07.5093 26251.6
 27 05 2013  18 30  -21.0954 26026.2 -03430.8 -07.5094 26251.4
 27 05 2013  18 31  -21.0963 26025.1 -03430.4 -07.5090 26250.3
 27 05 2013  18 32  -21.0963 26023.0 -03429.7 -07.5080 26248.0
 27 05 2013  18 33  -21.0963 26021.3 -03429.4 -07.5078 26246.3
 27 05 2013  18 34  -21.0973 26020.9 -03429.6 -07.5084 26245.9
 27 05 2013  18 35  -21.0991 26021.1 -03430.0 -07.5093 26246.2
 27 05 2013  18 36  -21.0996 26020.7 -03430.1 -07.5095 26245.8
 27 05 2013  18 37  -21.1000 26020.2 -03429.9 -07.5093 26245.3
 27 05 2013  18 38  -21.1006 26019.9 -03429.8 -07.5092 26244.9
 27 05 2013  18 39  -21.1010 26019.9 -03429.9 -07.5093 26245.0
 27 05 2013  18 40  -21.1008 26019.2 -03429.5 -07.5087 26244.2
 27 05 2013  18 41  -21.1015 26018.5 -03429.2 -07.5082 26243.5
 27 05 2013  18 42  -21.1028 26018.3 -03429.1 -07.5081 26243.3
 27 05 2013  18 43  -21.1033 26017.3 -03428.8 -07.5077 26242.3
 27 05 2013  18 44  -21.1032 26016.3 -03428.5 -07.5073 26241.2
 27 05 2013  18 45  -21.1037 26015.5 -03428.4 -07.5073 26240.4
 27 05 2013  18 46  -21.1037 26014.4 -03428.2 -07.5073 26239.4
 27 05 2013  18 47  -21.1029 26012.8 -03427.8 -07.5068 26237.6
 27 05 2013  18 48  -21.1041 26012.7 -03428.1 -07.5075 26237.6
 27 05 2013  18 49  -21.1045 26012.5 -03428.3 -07.5080 26237.5
 27 05 2013  18 50  -21.1042 26012.8 -03428.6 -07.5086 26237.8
 27 05 2013  18 51  -21.1044 26013.5 -03429.2 -07.5096 26238.6
 27 05 2013  18 52  -21.1033 26012.8 -03429.2 -07.5099 26237.9
 27 05 2013  18 53  -21.1016 26011.5 -03429.0 -07.5097 26236.5
 27 05 2013  18 54  -21.1015 26011.1 -03429.2 -07.5103 26236.1
 27 05 2013  18 55  -21.1017 26011.6 -03429.8 -07.5115 26236.7
 27 05 2013  18 56  -21.1029 26012.0 -03430.4 -07.5126 26237.3
 27 05 2013  18 57  -21.1031 26012.2 -03430.7 -07.5132 26237.4
 27 05 2013  18 58  -21.1017 26011.0 -03430.5 -07.5131 26236.3
 27 05 2013  18 59  -21.1016 26010.5 -03430.7 -07.5137 26235.8
 27 05 2013  19 00  -21.1011 26010.4 -03431.2 -07.5148 26235.7
 27 05 2013  19 01  -21.1005 26009.9 -03431.5 -07.5156 26235.3
 27 05 2013  19 02  -21.0993 26009.2 -03431.7 -07.5163 26234.6
 27 05 2013  19 03  -21.0975 26008.4 -03431.8 -07.5167 26233.8
 27 05 2013  19 04  -21.0975 26008.0 -03432.3 -07.5179 26233.6
 27 05 2013  19 05  -21.0963 26008.0 -03432.8 -07.5190 26233.6
 27 05 2013  19 06  -21.0966 26008.2 -03433.4 -07.5203 26233.8
 27 05 2013  19 07  -21.0967 26007.6 -03433.6 -07.5209 26233.3
 27 05 2013  19 08  -21.0959 26006.5 -03433.5 -07.5210 26232.2
 27 05 2013  19 09  -21.0947 26005.7 -03433.6 -07.5213 26231.4
 27 05 2013  19 10  -21.0939 26005.4 -03433.9 -07.5222 26231.1
 27 05 2013  19 11  -21.0941 26005.9 -03434.6 -07.5236 26231.7
 27 05 2013  19 12  -21.0947 26005.9 -03435.1 -07.5245 26231.8
 27 05 2013  19 13  -21.0950 26005.6 -03435.1 -07.5247 26231.5
 27 05 2013  19 14  -21.0973 26006.6 -03435.7 -07.5256 26232.5
 27 05 2013  19 15  -21.0985 26006.6 -03435.7 -07.5256 26232.6
 27 05 2013  19 16  -21.0984 26006.2 -03435.4 -07.5252 26232.1
 27 05 2013  19 17  -21.0984 26005.4 -03435.1 -07.5247 26231.2
 27 05 2013  19 18  -21.0988 26005.0 -03434.9 -07.5245 26230.9
 27 05 2013  19 19  -21.0984 26004.5 -03434.8 -07.5243 26230.4
 27 05 2013  19 20  -21.0976 26004.2 -03434.8 -07.5243 26230.0
 27 05 2013  19 21  -21.0974 26004.4 -03435.1 -07.5250 26230.3
 27 05 2013  19 22  -21.0968 26004.0 -03435.0 -07.5249 26229.9
 27 05 2013  19 23  -21.0952 26003.1 -03434.7 -07.5246 26228.9
 27 05 2013  19 24  -21.0945 26002.5 -03434.8 -07.5249 26228.4
 27 05 2013  19 25  -21.0926 26001.9 -03434.9 -07.5252 26227.8
 27 05 2013  19 26  -21.0919 26002.2 -03435.3 -07.5261 26228.1
 27 05 2013  19 27  -21.0908 26002.3 -03435.7 -07.5268 26228.3
 27 05 2013  19 28  -21.0893 26001.8 -03435.7 -07.5272 26227.8
 27 05 2013  19 29  -21.0879 26001.5 -03435.9 -07.5276 26227.6
 27 05 2013  19 30  -21.0866 26001.3 -03436.1 -07.5280 26227.3
 27 05 2013  19 31  -21.0852 26000.6 -03436.1 -07.5283 26226.6
 27 05 2013  19 32  -21.0832 25999.7 -03436.1 -07.5285 26225.8
 27 05 2013  19 33  -21.0816 25999.3 -03436.5 -07.5294 26225.5
 27 05 2013  19 34  -21.0803 25999.1 -03436.8 -07.5303 26225.3
 27 05 2013  19 35  -21.0795 25999.1 -03437.3 -07.5313 26225.3
 27 05 2013  19 36  -21.0792 25999.5 -03438.0 -07.5326 26225.8
 27 05 2013  19 37  -21.0788 25999.5 -03438.5 -07.5337 26225.9
 27 05 2013  19 38  -21.0789 25999.9 -03439.1 -07.5349 26226.4
 27 05 2013  19 39  -21.0797 26000.7 -03439.7 -07.5360 26227.2
 27 05 2013  19 40  -21.0797 26000.5 -03439.8 -07.5364 26227.1
 27 05 2013  19 41  -21.0801 26000.4 -03440.0 -07.5367 26226.9
 27 05 2013  19 42  -21.0806 26000.3 -03440.1 -07.5370 26226.9
 27 05 2013  19 43  -21.0810 26000.9 -03440.5 -07.5377 26227.5
 27 05 2013  19 44  -21.0808 26000.4 -03440.4 -07.5375 26227.1
 27 05 2013  19 45  -21.0813 26000.6 -03440.3 -07.5374 26227.2
 27 05 2013  19 46  -21.0814 26000.7 -03440.4 -07.5375 26227.4
 27 05 2013  19 47  -21.0806 26000.0 -03440.1 -07.5370 26226.6
 27 05 2013  19 48  -21.0804 25999.1 -03439.8 -07.5366 26225.7
 27 05 2013  19 49  -21.0802 25998.4 -03439.5 -07.5363 26224.9
 27 05 2013  19 50  -21.0802 25997.8 -03439.4 -07.5363 26224.4
 27 05 2013  19 51  -21.0798 25997.5 -03439.4 -07.5363 26224.0
 27 05 2013  19 52  -21.0794 25997.3 -03439.4 -07.5364 26223.9
 27 05 2013  19 53  -21.0791 25997.3 -03439.5 -07.5365 26223.8
 27 05 2013  19 54  -21.0788 25997.5 -03439.6 -07.5368 26224.0
 27 05 2013  19 55  -21.0784 25997.7 -03439.8 -07.5371 26224.3
 27 05 2013  19 56  -21.0777 25997.7 -03439.9 -07.5373 26224.3
 27 05 2013  19 57  -21.0770 25997.5 -03439.9 -07.5373 26224.1
 27 05 2013  19 58  -21.0762 25997.4 -03439.9 -07.5373 26224.0
 27 05 2013  19 59  -21.0754 25997.1 -03439.9 -07.5376 26223.7
 27 05 2013  20 00  -21.0749 25996.7 -03439.9 -07.5377 26223.3
 27 05 2013  20 01  -21.0743 25996.4 -03439.9 -07.5378 26223.0
 27 05 2013  20 02  -21.0738 25995.8 -03439.9 -07.5380 26222.4
 27 05 2013  20 03  -21.0736 25995.6 -03440.1 -07.5383 26222.3
 27 05 2013  20 04  -21.0735 25995.4 -03440.2 -07.5386 26222.1
 27 05 2013  20 05  -21.0735 25995.4 -03440.4 -07.5390 26222.1
 27 05 2013  20 06  -21.0735 25995.2 -03440.5 -07.5393 26221.8
 27 05 2013  20 07  -21.0735 25994.9 -03440.5 -07.5394 26221.6
 27 05 2013  20 08  -21.0737 25994.8 -03440.6 -07.5396 26221.5
 27 05 2013  20 09  -21.0739 25994.7 -03440.7 -07.5399 26221.4
 27 05 2013  20 10  -21.0737 25994.6 -03440.9 -07.5403 26221.3
 27 05 2013  20 11  -21.0743 25994.8 -03441.1 -07.5408 26221.5
 27 05 2013  20 12  -21.0735 25993.9 -03440.9 -07.5405 26220.6
 27 05 2013  20 13  -21.0728 25993.1 -03440.7 -07.5403 26219.9
 27 05 2013  20 14  -21.0728 25993.0 -03440.8 -07.5407 26219.7
 27 05 2013  20 15  -21.0734 25993.3 -03441.1 -07.5412 26220.1
 27 05 2013  20 16  -21.0738 25993.8 -03441.4 -07.5418 26220.6
 27 05 2013  20 17  -21.0738 25993.8 -03441.5 -07.5419 26220.7
 27 05 2013  20 18  -21.0739 25994.0 -03441.6 -07.5420 26220.8
 27 05 2013  20 19  -21.0740 25995.2 -03442.0 -07.5427 26222.1
 27 05 2013  20 20  -21.0740 25995.8 -03442.4 -07.5433 26222.7
 27 05 2013  20 21  -21.0742 25996.6 -03442.6 -07.5436 26223.6
 27 05 2013  20 22  -21.0740 25997.2 -03442.8 -07.5439 26224.2
 27 05 2013  20 23  -21.0739 25998.5 -03443.4 -07.5448 26225.6
 27 05 2013  20 24  -21.0738 25999.4 -03443.8 -07.5452 26226.5
 27 05 2013  20 25  -21.0737 26000.1 -03443.9 -07.5454 26227.2
 27 05 2013  20 26  -21.0738 26000.9 -03444.1 -07.5456 26228.0
 27 05 2013  20 27  -21.0734 26001.2 -03444.1 -07.5455 26228.3
 27 05 2013  20 28  -21.0730 26001.3 -03444.0 -07.5452 26228.4
 27 05 2013  20 29  -21.0724 26001.6 -03444.0 -07.5452 26228.7
 27 05 2013  20 30  -21.0717 26001.3 -03443.8 -07.5448 26228.4
 27 05 2013  20 31  -21.0713 26001.6 -03443.9 -07.5448 26228.7
 27 05 2013  20 32  -21.0704 26001.5 -03443.8 -07.5446 26228.6
 27 05 2013  20 33  -21.0699 26001.2 -03443.7 -07.5445 26228.3
 27 05 2013  20 34  -21.0699 26001.3 -03443.7 -07.5446 26228.3
 27 05 2013  20 35  -21.0700 26001.3 -03443.8 -07.5447 26228.4
 27 05 2013  20 36  -21.0697 26001.5 -03443.9 -07.5449 26228.6
 27 05 2013  20 37  -21.0693 26001.8 -03444.0 -07.5450 26228.9
 27 05 2013  20 38  -21.0688 26001.9 -03444.0 -07.5451 26229.0
 27 05 2013  20 39  -21.0681 26002.3 -03444.2 -07.5453 26229.4
 27 05 2013  20 40  -21.0672 26002.6 -03444.3 -07.5456 26229.7
 27 05 2013  20 41  -21.0663 26002.4 -03444.3 -07.5454 26229.5
 27 05 2013  20 42  -21.0660 26002.2 -03444.2 -07.5452 26229.3
 27 05 2013  20 43  -21.0655 26002.3 -03444.1 -07.5452 26229.4
 27 05 2013  20 44  -21.0647 26002.0 -03444.0 -07.5449 26229.1
 27 05 2013  20 45  -21.0641 26001.7 -03443.8 -07.5446 26228.8
 27 05 2013  20 46  -21.0635 26001.6 -03443.7 -07.5445 26228.6
 27 05 2013  20 47  -21.0629 26002.1 -03443.9 -07.5447 26229.2
 27 05 2013  20 48  -21.0628 26002.9 -03444.2 -07.5452 26230.0
 27 05 2013  20 49  -21.0629 26003.2 -03444.4 -07.5454 26230.3
 27 05 2013  20 50  -21.0629 26003.3 -03444.3 -07.5453 26230.5
 27 05 2013  20 51  -21.0628 26003.9 -03444.5 -07.5454 26231.0
 27 05 2013  20 52  -21.0632 26004.2 -03444.5 -07.5454 26231.3
 27 05 2013  20 53  -21.0634 26004.5 -03444.5 -07.5454 26231.6
 27 05 2013  20 54  -21.0639 26004.6 -03444.5 -07.5453 26231.7
 27 05 2013  20 55  -21.0642 26005.1 -03444.6 -07.5454 26232.2
 27 05 2013  20 56  -21.0644 26005.2 -03444.5 -07.5451 26232.3
 27 05 2013  20 57  -21.0644 26005.4 -03444.4 -07.5449 26232.5
 27 05 2013  20 58  -21.0643 26006.2 -03444.7 -07.5452 26233.4
 27 05 2013  20 59  -21.0644 26006.5 -03444.6 -07.5449 26233.6
 27 05 2013  21 00  -21.0645 26006.9 -03444.6 -07.5448 26234.0
 27 05 2013  21 01  -21.0644 26006.7 -03444.4 -07.5445 26233.8
 27 05 2013  21 02  -21.0644 26006.7 -03444.3 -07.5442 26233.7
 27 05 2013  21 03  -21.0642 26006.8 -03444.1 -07.5437 26233.8
 27 05 2013  21 04  -21.0639 26006.9 -03444.0 -07.5434 26234.0
 27 05 2013  21 05  -21.0636 26007.0 -03443.8 -07.5431 26234.0
 27 05 2013  21 06  -21.0632 26007.1 -03443.7 -07.5428 26234.2
 27 05 2013  21 07  -21.0631 26007.4 -03443.7 -07.5429 26234.4
 27 05 2013  21 08  -21.0629 26007.7 -03443.7 -07.5427 26234.7
 27 05 2013  21 09  -21.0625 26007.7 -03443.6 -07.5425 26234.7
 27 05 2013  21 10  -21.0626 26007.4 -03443.4 -07.5421 26234.4
 27 05 2013  21 11  -21.0625 26007.3 -03443.2 -07.5418 26234.2
 27 05 2013  21 12  -21.0624 26007.3 -03443.1 -07.5416 26234.2
 27 05 2013  21 13  -21.0623 26007.2 -03443.1 -07.5414 26234.2
 27 05 2013  21 14  -21.0618 26007.3 -03443.0 -07.5413 26234.2
 27 05 2013  21 15  -21.0611 26007.4 -03442.9 -07.5411 26234.3
 27 05 2013  21 16  -21.0606 26007.8 -03443.2 -07.5415 26234.8
 27 05 2013  21 17  -21.0602 26008.2 -03443.4 -07.5419 26235.2
 27 05 2013  21 18  -21.0598 26008.9 -03443.7 -07.5423 26235.9
 27 05 2013  21 19  -21.0590 26009.2 -03443.8 -07.5425 26236.2
 27 05 2013  21 20  -21.0584 26009.2 -03443.8 -07.5424 26236.2
 27 05 2013  21 21  -21.0576 26010.0 -03444.0 -07.5426 26237.0
 27 05 2013  21 22  -21.0569 26011.5 -03444.7 -07.5437 26238.6
 27 05 2013  21 23  -21.0561 26012.1 -03445.0 -07.5442 26239.3
 27 05 2013  21 24  -21.0555 26012.2 -03444.9 -07.5441 26239.3
 27 05 2013  21 25  -21.0557 26011.7 -03444.7 -07.5436 26238.8
 27 05 2013  21 26  -21.0561 26011.1 -03444.3 -07.5431 26238.1
 27 05 2013  21 27  -21.0559 26010.5 -03443.9 -07.5424 26237.5
 27 05 2013  21 28  -21.0554 26010.1 -03443.7 -07.5420 26237.0
 27 05 2013  21 29  -21.0548 26009.8 -03443.6 -07.5418 26236.8
 27 05 2013  21 30  -21.0544 26009.6 -03443.5 -07.5417 26236.6
 27 05 2013  21 31  -21.0549 26010.0 -03443.7 -07.5419 26237.0
 27 05 2013  21 32  -21.0553 26010.0 -03443.8 -07.5423 26237.0
 27 05 2013  21 33  -21.0558 26010.0 -03443.8 -07.5422 26237.0
 27 05 2013  21 34  -21.0561 26010.1 -03443.9 -07.5424 26237.1
 27 05 2013  21 35  -21.0567 26010.1 -03443.9 -07.5424 26237.1
 27 05 2013  21 36  -21.0577 26009.7 -03443.7 -07.5421 26236.7
 27 05 2013  21 37  -21.0588 26009.4 -03443.5 -07.5418 26236.3
 27 05 2013  21 38  -21.0597 26010.0 -03443.8 -07.5422 26237.0
 27 05 2013  21 39  -21.0603 26010.3 -03443.9 -07.5424 26237.3
 27 05 2013  21 40  -21.0611 26010.3 -03444.0 -07.5425 26237.4
 27 05 2013  21 41  -21.0614 26010.2 -03443.8 -07.5421 26237.2
 27 05 2013  21 42  -21.0616 26010.0 -03443.5 -07.5417 26237.0
 27 05 2013  21 43  -21.0618 26009.7 -03443.3 -07.5412 26236.6
 27 05 2013  21 44  -21.0625 26009.6 -03443.2 -07.5410 26236.5
 27 05 2013  21 45  -21.0626 26009.7 -03443.2 -07.5410 26236.7
 27 05 2013  21 46  -21.0624 26010.2 -03443.3 -07.5411 26237.1
 27 05 2013  21 47  -21.0620 26010.5 -03443.4 -07.5413 26237.4
 27 05 2013  21 48  -21.0615 26010.9 -03443.5 -07.5414 26237.9
 27 05 2013  21 49  -21.0609 26010.6 -03443.3 -07.5411 26237.6
 27 05 2013  21 50  -21.0606 26010.4 -03443.2 -07.5408 26237.3
 27 05 2013  21 51  -21.0604 26010.6 -03443.3 -07.5409 26237.5
 27 05 2013  21 52  -21.0601 26010.4 -03443.2 -07.5407 26237.3
 27 05 2013  21 53  -21.0602 26010.3 -03443.1 -07.5406 26237.2
 27 05 2013  21 54  -21.0602 26010.3 -03443.1 -07.5406 26237.2
 27 05 2013  21 55  -21.0605 26010.4 -03443.2 -07.5408 26237.4
 27 05 2013  21 56  -21.0610 26010.9 -03443.4 -07.5411 26237.8
 27 05 2013  21 57  -21.0615 26011.0 -03443.5 -07.5413 26237.9
 27 05 2013  21 58  -21.0620 26011.3 -03443.6 -07.5414 26238.2
 27 05 2013  21 59  -21.0624 26011.6 -03443.7 -07.5416 26238.6
 27 05 2013  22 00  -21.0626 26012.1 -03443.8 -07.5417 26239.0
 27 05 2013  22 01  -21.0626 26013.1 -03444.2 -07.5423 26240.1
 27 05 2013  22 02  -21.0628 26013.4 -03444.4 -07.5425 26240.4
 27 05 2013  22 03  -21.0634 26013.4 -03444.3 -07.5423 26240.4
 27 05 2013  22 04  -21.0641 26013.5 -03444.2 -07.5422 26240.5
 27 05 2013  22 05  -21.0650 26013.2 -03444.0 -07.5418 26240.1
 27 05 2013  22 06  -21.0654 26013.1 -03443.9 -07.5415 26240.1
 27 05 2013  22 07  -21.0652 26012.7 -03443.5 -07.5408 26239.7
 27 05 2013  22 08  -21.0650 26012.2 -03443.2 -07.5403 26239.1
 27 05 2013  22 09  -21.0651 26012.2 -03443.1 -07.5401 26239.1
 27 05 2013  22 10  -21.0650 26012.1 -03443.0 -07.5399 26238.9
 27 05 2013  22 11  -21.0650 26012.2 -03443.0 -07.5398 26239.0
 27 05 2013  22 12  -21.0650 26012.5 -03443.2 -07.5401 26239.4
 27 05 2013  22 13  -21.0648 26012.0 -03442.9 -07.5397 26238.8
 27 05 2013  22 14  -21.0641 26011.3 -03442.4 -07.5389 26238.1
 27 05 2013  22 15  -21.0635 26010.7 -03442.1 -07.5384 26237.4
 27 05 2013  22 16  -21.0633 26010.0 -03441.8 -07.5379 26236.7
 27 05 2013  22 17  -21.0631 26009.4 -03441.5 -07.5375 26236.1
 27 05 2013  22 18  -21.0625 26009.4 -03441.6 -07.5375 26236.1
 27 05 2013  22 19  -21.0618 26009.4 -03441.6 -07.5376 26236.1
 27 05 2013  22 20  -21.0608 26009.3 -03441.6 -07.5377 26236.0
 27 05 2013  22 21  -21.0597 26009.3 -03441.7 -07.5378 26236.0
 27 05 2013  22 22  -21.0590 26009.2 -03441.7 -07.5379 26235.9
 27 05 2013  22 23  -21.0584 26009.3 -03441.8 -07.5381 26236.0
 27 05 2013  22 24  -21.0579 26009.4 -03441.9 -07.5384 26236.1
 27 05 2013  22 25  -21.0573 26009.5 -03442.0 -07.5386 26236.2
 27 05 2013  22 26  -21.0571 26009.6 -03442.2 -07.5388 26236.4
 27 05 2013  22 27  -21.0572 26009.8 -03442.4 -07.5392 26236.6
 27 05 2013  22 28  -21.0574 26010.0 -03442.5 -07.5395 26236.8
 27 05 2013  22 29  -21.0578 26010.2 -03442.7 -07.5398 26237.1
 27 05 2013  22 30  -21.0583 26010.5 -03442.9 -07.5401 26237.4
 27 05 2013  22 31  -21.0586 26010.4 -03442.8 -07.5400 26237.2
 27 05 2013  22 32  -21.0583 26010.7 -03442.9 -07.5400 26237.6
 27 05 2013  22 33  -21.0578 26011.0 -03443.0 -07.5402 26237.8
 27 05 2013  22 34  -21.0570 26011.0 -03442.9 -07.5401 26237.8
 27 05 2013  22 35  -21.0563 26011.0 -03442.9 -07.5400 26237.8
 27 05 2013  22 36  -21.0558 26011.1 -03443.0 -07.5402 26238.0
 27 05 2013  22 37  -21.0557 26011.1 -03443.0 -07.5401 26238.0
 27 05 2013  22 38  -21.0559 26011.0 -03443.0 -07.5401 26237.9
 27 05 2013  22 39  -21.0562 26010.7 -03442.8 -07.5399 26237.6
 27 05 2013  22 40  -21.0564 26010.6 -03442.8 -07.5399 26237.5
 27 05 2013  22 41  -21.0565 26010.5 -03442.8 -07.5399 26237.4
 27 05 2013  22 42  -21.0565 26010.5 -03442.7 -07.5397 26237.4
 27 05 2013  22 43  -21.0566 26010.7 -03442.8 -07.5398 26237.5
 27 05 2013  22 44  -21.0568 26010.8 -03442.9 -07.5400 26237.7
 27 05 2013  22 45  -21.0573 26010.7 -03442.8 -07.5400 26237.6
 27 05 2013  22 46  -21.0574 26010.7 -03442.8 -07.5398 26237.6
 27 05 2013  22 47  -21.0569 26010.8 -03442.8 -07.5398 26237.7
 27 05 2013  22 48  -21.0564 26011.0 -03442.8 -07.5398 26237.9
 27 05 2013  22 49  -21.0565 26011.3 -03442.9 -07.5400 26238.2
 27 05 2013  22 50  -21.0566 26011.3 -03442.9 -07.5400 26238.2
 27 05 2013  22 51  -21.0569 26011.2 -03442.9 -07.5399 26238.0
 27 05 2013  22 52  -21.0566 26011.5 -03443.0 -07.5400 26238.3
 27 05 2013  22 53  -21.0557 26011.7 -03443.1 -07.5402 26238.6
 27 05 2013  22 54  -21.0548 26011.5 -03443.0 -07.5400 26238.4
 27 05 2013  22 55  -21.0545 26011.5 -03442.9 -07.5398 26238.3
 27 05 2013  22 56  -21.0547 26011.4 -03442.9 -07.5399 26238.3
 27 05 2013  22 57  -21.0548 26011.6 -03443.0 -07.5401 26238.5
 27 05 2013  22 58  -21.0541 26012.1 -03443.2 -07.5404 26239.0
 27 05 2013  22 59  -21.0531 26012.7 -03443.5 -07.5408 26239.6
 27 05 2013  23 00  -21.0531 26012.9 -03443.6 -07.5410 26239.9
 27 05 2013  23 01  -21.0538 26012.7 -03443.5 -07.5409 26239.6
 27 05 2013  23 02  -21.0545 26012.0 -03443.2 -07.5403 26238.9
 27 05 2013  23 03  -21.0549 26011.5 -03442.8 -07.5398 26238.3
 27 05 2013  23 04  -21.0549 26010.8 -03442.5 -07.5391 26237.7
 27 05 2013  23 05  -21.0545 26010.4 -03442.2 -07.5386 26237.2
 27 05 2013  23 06  -21.0538 26010.2 -03442.0 -07.5384 26237.0
 27 05 2013  23 07  -21.0531 26010.2 -03442.0 -07.5383 26236.9
 27 05 2013  23 08  -21.0525 26010.4 -03442.2 -07.5386 26237.2
 27 05 2013  23 09  -21.0521 26010.7 -03442.4 -07.5390 26237.5
 27 05 2013  23 10  -21.0518 26011.2 -03442.7 -07.5396 26238.1
 27 05 2013  23 11  -21.0514 26011.6 -03443.0 -07.5400 26238.5
 27 05 2013  23 12  -21.0509 26012.2 -03443.3 -07.5405 26239.2
 27 05 2013  23 13  -21.0505 26013.2 -03443.8 -07.5412 26240.2
 27 05 2013  23 14  -21.0504 26013.6 -03444.0 -07.5417 26240.6
 27 05 2013  23 15  -21.0502 26014.0 -03444.3 -07.5421 26241.0
 27 05 2013  23 16  -21.0500 26014.1 -03444.3 -07.5422 26241.2
 27 05 2013  23 17  -21.0500 26014.3 -03444.4 -07.5422 26241.3
 27 05 2013  23 18  -21.0499 26014.5 -03444.4 -07.5422 26241.5
 27 05 2013  23 19  -21.0500 26014.3 -03444.2 -07.5420 26241.3
 27 05 2013  23 20  -21.0505 26014.3 -03444.2 -07.5419 26241.3
 27 05 2013  23 21  -21.0510 26014.2 -03444.1 -07.5416 26241.2
 27 05 2013  23 22  -21.0512 26014.2 -03444.0 -07.5415 26241.1
 27 05 2013  23 23  -21.0514 26014.0 -03443.9 -07.5413 26241.0
 27 05 2013  23 24  -21.0517 26013.9 -03443.8 -07.5410 26240.9
 27 05 2013  23 25  -21.0516 26013.8 -03443.7 -07.5409 26240.8
 27 05 2013  23 26  -21.0516 26013.8 -03443.6 -07.5407 26240.8
 27 05 2013  23 27  -21.0516 26013.9 -03443.6 -07.5407 26240.8
 27 05 2013  23 28  -21.0517 26013.9 -03443.6 -07.5406 26240.8
 27 05 2013  23 29  -21.0519 26013.9 -03443.6 -07.5406 26240.8
 27 05 2013  23 30  -21.0523 26014.1 -03443.6 -07.5407 26241.1
 27 05 2013  23 31  -21.0525 26014.3 -03443.8 -07.5409 26241.3
 27 05 2013  23 32  -21.0526 26014.5 -03443.8 -07.5409 26241.4
 27 05 2013  23 33  -21.0525 26014.5 -03443.7 -07.5408 26241.4
 27 05 2013  23 34  -21.0526 26014.3 -03443.6 -07.5406 26241.2
 27 05 2013  23 35  -21.0527 26014.1 -03443.5 -07.5404 26241.0
 27 05 2013  23 36  -21.0526 26013.9 -03443.3 -07.5401 26240.8
 27 05 2013  23 37  -21.0524 26013.7 -03443.2 -07.5399 26240.6
 27 05 2013  23 38  -21.0521 26013.7 -03443.2 -07.5398 26240.6
 27 05 2013  23 39  -21.0523 26013.7 -03443.1 -07.5398 26240.6
 27 05 2013  23 40  -21.0526 26014.0 -03443.3 -07.5401 26240.9
 27 05 2013  23 41  -21.0529 26014.5 -03443.5 -07.5404 26241.4
 27 05 2013  23 42  -21.0533 26014.7 -03443.7 -07.5407 26241.7
 27 05 2013  23 43  -21.0538 26014.9 -03443.8 -07.5408 26241.8
 27 05 2013  23 44  -21.0544 26015.0 -03443.8 -07.5408 26241.9
 27 05 2013  23 45  -21.0545 26015.3 -03443.9 -07.5409 26242.3
 27 05 2013  23 46  -21.0544 26015.6 -03444.0 -07.5411 26242.6
 27 05 2013  23 47  -21.0545 26015.7 -03444.0 -07.5410 26242.7
 27 05 2013  23 48  -21.0548 26015.7 -03443.9 -07.5409 26242.7
 27 05 2013  23 49  -21.0551 26015.8 -03443.9 -07.5409 26242.7
 27 05 2013  23 50  -21.0555 26015.7 -03443.8 -07.5406 26242.7
 27 05 2013  23 51  -21.0555 26015.6 -03443.7 -07.5404 26242.5
 27 05 2013  23 52  -21.0550 26015.7 -03443.6 -07.5402 26242.6
 27 05 2013  23 53  -21.0546 26015.7 -03443.6 -07.5401 26242.6
 27 05 2013  23 54  -21.0546 26015.4 -03443.4 -07.5398 26242.3
 27 05 2013  23 55  -21.0548 26015.2 -03443.3 -07.5397 26242.1
 27 05 2013  23 56  -21.0550 26014.9 -03443.2 -07.5395 26241.7
 27 05 2013  23 57  -21.0552 26014.9 -03443.1 -07.5393 26241.7
 27 05 2013  23 58  -21.0550 26015.0 -03443.2 -07.5395 26241.9
