SAO LUIS EMBRACE-03 <330> 1 Min. Reported data

 DD MM YYYY  HH MM   D(Deg)  H(nT)   Z(nT)   I(Deg)   F(nT)

 26 11 2013  00 00  -21.0054 26025.5 -03511.2 -07.6836 26261.3
 26 11 2013  00 01  -21.0055 26025.4 -03511.2 -07.6836 26261.2
 26 11 2013  00 02  -21.0054 26025.4 -03511.2 -07.6836 26261.2
 26 11 2013  00 03  -21.0055 26025.4 -03511.2 -07.6836 26261.2
 26 11 2013  00 04  -21.0056 26025.4 -03511.2 -07.6836 26261.1
 26 11 2013  00 05  -21.0057 26025.3 -03511.3 -07.6838 26261.1
 26 11 2013  00 06  -21.0057 26025.2 -03511.2 -07.6837 26261.0
 26 11 2013  00 07  -21.0057 26025.2 -03511.2 -07.6837 26261.0
 26 11 2013  00 08  -21.0057 26025.1 -03511.2 -07.6837 26260.9
 26 11 2013  00 09  -21.0057 26025.1 -03511.2 -07.6837 26260.9
 26 11 2013  00 10  -21.0056 26025.1 -03511.2 -07.6837 26260.9
 26 11 2013  00 11  -21.0055 26025.1 -03511.2 -07.6838 26260.8
 26 11 2013  00 12  -21.0054 26025.1 -03511.2 -07.6838 26260.9
 26 11 2013  00 13  -21.0053 26025.1 -03511.3 -07.6839 26260.9
 26 11 2013  00 14  -21.0053 26025.1 -03511.3 -07.6839 26260.9
 26 11 2013  00 15  -21.0053 26025.0 -03511.3 -07.6839 26260.8
 26 11 2013  00 16  -21.0055 26025.0 -03511.3 -07.6840 26260.8
 26 11 2013  00 17  -21.0056 26025.0 -03511.4 -07.6841 26260.8
 26 11 2013  00 18  -21.0056 26025.0 -03511.3 -07.6839 26260.8
 26 11 2013  00 19  -21.0057 26025.0 -03511.3 -07.6840 26260.8
 26 11 2013  00 20  -21.0056 26024.9 -03511.3 -07.6839 26260.7
 26 11 2013  00 21  -21.0055 26024.9 -03511.3 -07.6839 26260.7
 26 11 2013  00 22  -21.0055 26024.9 -03511.3 -07.6840 26260.7
 26 11 2013  00 23  -21.0056 26024.9 -03511.3 -07.6840 26260.7
 26 11 2013  00 24  -21.0055 26024.9 -03511.3 -07.6840 26260.7
 26 11 2013  00 25  -21.0056 26024.9 -03511.3 -07.6840 26260.7
 26 11 2013  00 26  -21.0056 26024.9 -03511.4 -07.6841 26260.7
 26 11 2013  00 27  -21.0055 26024.9 -03511.4 -07.6841 26260.7
 26 11 2013  00 28  -21.0056 26024.9 -03511.4 -07.6841 26260.7
 26 11 2013  00 29  -21.0057 26024.9 -03511.4 -07.6841 26260.7
 26 11 2013  00 30  -21.0057 26024.9 -03511.4 -07.6842 26260.7
 26 11 2013  00 31  -21.0057 26024.9 -03511.4 -07.6842 26260.7
 26 11 2013  00 32  -21.0057 26024.9 -03511.4 -07.6842 26260.7
 26 11 2013  00 33  -21.0057 26024.9 -03511.4 -07.6842 26260.7
 26 11 2013  00 34  -21.0057 26024.9 -03511.4 -07.6842 26260.7
 26 11 2013  00 35  -21.0056 26024.9 -03511.4 -07.6842 26260.7
 26 11 2013  00 36  -21.0055 26024.9 -03511.4 -07.6842 26260.7
 26 11 2013  00 37  -21.0054 26024.9 -03511.4 -07.6842 26260.7
 26 11 2013  00 38  -21.0054 26024.9 -03511.4 -07.6842 26260.7
 26 11 2013  00 39  -21.0055 26024.9 -03511.4 -07.6843 26260.7
 26 11 2013  00 40  -21.0056 26024.9 -03511.4 -07.6842 26260.7
 26 11 2013  00 41  -21.0056 26024.9 -03511.4 -07.6843 26260.7
 26 11 2013  00 42  -21.0057 26024.8 -03511.4 -07.6842 26260.7
 26 11 2013  00 43  -21.0056 26024.8 -03511.4 -07.6841 26260.6
 26 11 2013  00 44  -21.0056 26024.8 -03511.4 -07.6842 26260.6
 26 11 2013  00 45  -21.0056 26024.8 -03511.4 -07.6842 26260.6
 26 11 2013  00 46  -21.0056 26024.8 -03511.4 -07.6841 26260.6
 26 11 2013  00 47  -21.0055 26024.7 -03511.4 -07.6842 26260.6
 26 11 2013  00 48  -21.0056 26024.7 -03511.4 -07.6842 26260.5
 26 11 2013  00 49  -21.0055 26024.7 -03511.4 -07.6842 26260.5
 26 11 2013  00 50  -21.0056 26024.7 -03511.4 -07.6842 26260.6
 26 11 2013  00 51  -21.0055 26024.8 -03511.4 -07.6842 26260.6
 26 11 2013  00 52  -21.0056 26024.8 -03511.4 -07.6843 26260.6
 26 11 2013  00 53  -21.0055 26024.8 -03511.4 -07.6843 26260.6
 26 11 2013  00 54  -21.0055 26024.8 -03511.4 -07.6842 26260.6
 26 11 2013  00 55  -21.0054 26024.8 -03511.4 -07.6843 26260.6
 26 11 2013  00 56  -21.0053 26024.7 -03511.4 -07.6843 26260.6
 26 11 2013  00 57  -21.0053 26024.7 -03511.4 -07.6842 26260.6
 26 11 2013  00 58  -21.0053 26024.7 -03511.4 -07.6843 26260.5
 26 11 2013  00 59  -21.0052 26024.7 -03511.4 -07.6843 26260.6
 26 11 2013  01 00  -21.0053 26024.8 -03511.5 -07.6844 26260.6
 26 11 2013  01 01  -21.0054 26024.8 -03511.5 -07.6844 26260.6
 26 11 2013  01 02  -21.0054 26024.7 -03511.5 -07.6844 26260.6
 26 11 2013  01 03  -21.0055 26024.7 -03511.5 -07.6844 26260.6
 26 11 2013  01 04  -21.0054 26024.7 -03511.4 -07.6843 26260.5
 26 11 2013  01 05  -21.0054 26024.7 -03511.4 -07.6843 26260.5
 26 11 2013  01 06  -21.0054 26024.7 -03511.4 -07.6843 26260.5
 26 11 2013  01 07  -21.0054 26024.7 -03511.4 -07.6843 26260.5
 26 11 2013  01 08  -21.0054 26024.7 -03511.4 -07.6843 26260.6
 26 11 2013  01 09  -21.0054 26024.8 -03511.5 -07.6843 26260.6
 26 11 2013  01 10  -21.0053 26024.8 -03511.5 -07.6843 26260.7
 26 11 2013  01 11  -21.0053 26024.9 -03511.5 -07.6844 26260.7
 26 11 2013  01 12  -21.0052 26024.8 -03511.5 -07.6843 26260.7
 26 11 2013  01 13  -21.0052 26024.8 -03511.5 -07.6843 26260.6
 26 11 2013  01 14  -21.0052 26024.8 -03511.4 -07.6843 26260.6
 26 11 2013  01 15  -21.0053 26024.8 -03511.5 -07.6844 26260.7
 26 11 2013  01 16  -21.0052 26024.9 -03511.5 -07.6844 26260.7
 26 11 2013  01 17  -21.0053 26024.9 -03511.5 -07.6844 26260.7
 26 11 2013  01 18  -21.0052 26024.9 -03511.5 -07.6844 26260.7
 26 11 2013  01 19  -21.0052 26024.9 -03511.5 -07.6844 26260.7
 26 11 2013  01 20  -21.0053 26025.0 -03511.5 -07.6844 26260.8
 26 11 2013  01 21  -21.0053 26024.9 -03511.5 -07.6843 26260.7
 26 11 2013  01 22  -21.0052 26024.9 -03511.5 -07.6843 26260.8
 26 11 2013  01 23  -21.0053 26024.9 -03511.5 -07.6843 26260.8
 26 11 2013  01 24  -21.0053 26024.9 -03511.4 -07.6842 26260.7
 26 11 2013  01 25  -21.0054 26024.9 -03511.4 -07.6842 26260.7
 26 11 2013  01 26  -21.0054 26024.8 -03511.4 -07.6842 26260.7
 26 11 2013  01 27  -21.0055 26024.9 -03511.4 -07.6841 26260.7
 26 11 2013  01 28  -21.0055 26024.8 -03511.3 -07.6841 26260.6
 26 11 2013  01 29  -21.0054 26024.8 -03511.3 -07.6841 26260.6
 26 11 2013  01 30  -21.0054 26024.8 -03511.3 -07.6841 26260.6
 26 11 2013  01 31  -21.0055 26024.8 -03511.4 -07.6841 26260.6
 26 11 2013  01 32  -21.0056 26024.8 -03511.3 -07.6841 26260.6
 26 11 2013  01 33  -21.0055 26024.7 -03511.3 -07.6840 26260.5
 26 11 2013  01 34  -21.0055 26024.7 -03511.2 -07.6839 26260.5
 26 11 2013  01 35  -21.0056 26024.8 -03511.3 -07.6840 26260.6
 26 11 2013  01 36  -21.0057 26024.8 -03511.3 -07.6840 26260.6
 26 11 2013  01 37  -21.0056 26024.7 -03511.3 -07.6840 26260.5
 26 11 2013  01 38  -21.0056 26024.7 -03511.3 -07.6840 26260.5
 26 11 2013  01 39  -21.0057 26024.7 -03511.2 -07.6839 26260.5
 26 11 2013  01 40  -21.0057 26024.7 -03511.2 -07.6839 26260.5
 26 11 2013  01 41  -21.0058 26024.7 -03511.2 -07.6839 26260.5
 26 11 2013  01 42  -21.0059 26024.7 -03511.2 -07.6838 26260.5
 26 11 2013  01 43  -21.0061 26024.7 -03511.2 -07.6839 26260.5
 26 11 2013  01 44  -21.0063 26024.7 -03511.2 -07.6839 26260.5
 26 11 2013  01 45  -21.0064 26024.6 -03511.2 -07.6839 26260.4
 26 11 2013  01 46  -21.0066 26024.7 -03511.2 -07.6838 26260.5
 26 11 2013  01 47  -21.0067 26024.7 -03511.2 -07.6838 26260.5
 26 11 2013  01 48  -21.0068 26024.7 -03511.2 -07.6838 26260.5
 26 11 2013  01 49  -21.0068 26024.8 -03511.2 -07.6838 26260.6
 26 11 2013  01 50  -21.0068 26024.8 -03511.2 -07.6838 26260.5
 26 11 2013  01 51  -21.0069 26024.7 -03511.1 -07.6837 26260.4
 26 11 2013  01 52  -21.0069 26024.7 -03511.1 -07.6837 26260.4
 26 11 2013  01 53  -21.0070 26024.6 -03511.1 -07.6836 26260.3
 26 11 2013  01 54  -21.0071 26024.7 -03511.1 -07.6837 26260.5
 26 11 2013  01 55  -21.0072 26024.7 -03511.2 -07.6838 26260.5
 26 11 2013  01 56  -21.0072 26024.7 -03511.2 -07.6837 26260.5
 26 11 2013  01 57  -21.0074 26024.7 -03511.2 -07.6837 26260.5
 26 11 2013  01 58  -21.0075 26024.6 -03511.1 -07.6836 26260.4
 26 11 2013  01 59  -21.0075 26024.6 -03511.1 -07.6836 26260.3
 26 11 2013  02 00  -21.0074 26024.6 -03511.1 -07.6837 26260.3
 26 11 2013  02 01  -21.0074 26024.6 -03511.1 -07.6837 26260.3
 26 11 2013  02 02  -21.0075 26024.6 -03511.2 -07.6838 26260.3
 26 11 2013  02 03  -21.0076 26024.6 -03511.2 -07.6839 26260.4
 26 11 2013  02 04  -21.0076 26024.5 -03511.2 -07.6838 26260.3
 26 11 2013  02 05  -21.0076 26024.6 -03511.2 -07.6839 26260.4
 26 11 2013  02 06  -21.0075 26024.5 -03511.2 -07.6839 26260.3
 26 11 2013  02 07  -21.0074 26024.5 -03511.2 -07.6839 26260.3
 26 11 2013  02 08  -21.0074 26024.5 -03511.2 -07.6838 26260.3
 26 11 2013  02 09  -21.0073 26024.5 -03511.2 -07.6839 26260.3
 26 11 2013  02 10  -21.0073 26024.5 -03511.3 -07.6841 26260.3
 26 11 2013  02 11  -21.0072 26024.6 -03511.3 -07.6840 26260.4
 26 11 2013  02 12  -21.0072 26024.6 -03511.3 -07.6841 26260.4
 26 11 2013  02 13  -21.0071 26024.7 -03511.4 -07.6842 26260.5
 26 11 2013  02 14  -21.0070 26024.8 -03511.4 -07.6843 26260.7
 26 11 2013  02 15  -21.0070 26024.7 -03511.4 -07.6843 26260.5
 26 11 2013  02 16  -21.0073 26024.4 -03511.3 -07.6842 26260.2
 26 11 2013  02 17  -21.0071 26024.5 -03511.4 -07.6842 26260.4
 26 11 2013  02 18  -21.0069 26024.7 -03511.5 -07.6844 26260.5
 26 11 2013  02 19  -21.0070 26024.4 -03511.3 -07.6842 26260.2
 26 11 2013  02 20  -21.0068 26024.7 -03511.5 -07.6844 26260.5
 26 11 2013  02 21  -21.0067 26024.6 -03511.5 -07.6845 26260.4
 26 11 2013  02 22  -21.0068 26024.5 -03511.4 -07.6844 26260.4
 26 11 2013  02 23  -21.0065 26024.5 -03511.4 -07.6844 26260.3
 26 11 2013  02 24  -21.0062 26024.5 -03511.5 -07.6844 26260.3
 26 11 2013  02 25  -21.0063 26024.4 -03511.4 -07.6844 26260.2
 26 11 2013  02 26  -21.0064 26024.5 -03511.5 -07.6846 26260.4
 26 11 2013  02 27  -21.0061 26024.6 -03511.6 -07.6847 26260.5
 26 11 2013  02 28  -21.0060 26024.6 -03511.6 -07.6847 26260.4
 26 11 2013  02 29  -21.0059 26024.6 -03511.6 -07.6848 26260.5
 26 11 2013  02 30  -21.0058 26024.6 -03511.6 -07.6848 26260.5
 26 11 2013  02 31  -21.0057 26024.7 -03511.7 -07.6849 26260.6
 26 11 2013  02 32  -21.0057 26024.6 -03511.7 -07.6848 26260.5
 26 11 2013  02 33  -21.0057 26024.6 -03511.7 -07.6849 26260.5
 26 11 2013  02 34  -21.0058 26024.6 -03511.7 -07.6849 26260.5
 26 11 2013  02 35  -21.0059 26024.6 -03511.7 -07.6849 26260.5
 26 11 2013  02 36  -21.0059 26024.6 -03511.7 -07.6849 26260.5
 26 11 2013  02 37  -21.0060 26024.6 -03511.7 -07.6850 26260.5
 26 11 2013  02 38  -21.0059 26024.7 -03511.7 -07.6850 26260.6
 26 11 2013  02 39  -21.0060 26024.5 -03511.7 -07.6849 26260.4
 26 11 2013  02 40  -21.0060 26024.5 -03511.6 -07.6848 26260.4
 26 11 2013  02 41  -21.0059 26024.7 -03511.7 -07.6849 26260.6
 26 11 2013  02 42  -21.0059 26024.7 -03511.8 -07.6850 26260.6
 26 11 2013  02 43  -21.0057 26024.7 -03511.7 -07.6850 26260.6
 26 11 2013  02 44  -21.0057 26024.8 -03511.8 -07.6850 26260.7
 26 11 2013  02 45  -21.0058 26024.6 -03511.7 -07.6849 26260.5
 26 11 2013  02 46  -21.0057 26024.8 -03511.7 -07.6849 26260.6
 26 11 2013  02 47  -21.0054 26025.0 -03511.8 -07.6851 26260.9
 26 11 2013  02 48  -21.0052 26025.0 -03511.8 -07.6851 26260.9
 26 11 2013  02 49  -21.0052 26024.8 -03511.7 -07.6849 26260.7
 26 11 2013  02 50  -21.0053 26025.0 -03511.8 -07.6850 26260.9
 26 11 2013  02 51  -21.0055 26025.0 -03511.8 -07.6850 26260.8
 26 11 2013  02 52  -21.0054 26025.0 -03511.8 -07.6849 26260.9
 26 11 2013  02 53  -21.0054 26025.2 -03511.8 -07.6850 26261.1
 26 11 2013  02 54  -21.0054 26025.2 -03511.8 -07.6851 26261.1
 26 11 2013  02 55  -21.0054 26025.4 -03511.9 -07.6852 26261.3
 26 11 2013  02 56  -21.0054 26025.1 -03511.8 -07.6849 26260.9
 26 11 2013  02 57  -21.0056 26024.9 -03511.6 -07.6847 26260.8
 26 11 2013  02 58  -21.0057 26025.3 -03511.9 -07.6851 26261.2
 26 11 2013  02 59  -21.0056 26025.4 -03511.9 -07.6852 26261.3
 26 11 2013  03 00  -21.0054 26025.4 -03511.9 -07.6851 26261.3
 26 11 2013  03 01  -21.0055 26025.2 -03511.8 -07.6849 26261.1
 26 11 2013  03 02  -21.0056 26025.2 -03511.7 -07.6849 26261.0
 26 11 2013  03 03  -21.0056 26025.3 -03511.8 -07.6849 26261.1
 26 11 2013  03 04  -21.0056 26025.2 -03511.7 -07.6848 26261.1
 26 11 2013  03 05  -21.0054 26025.4 -03511.8 -07.6849 26261.2
 26 11 2013  03 06  -21.0053 26025.4 -03511.8 -07.6849 26261.2
 26 11 2013  03 07  -21.0053 26025.4 -03511.8 -07.6849 26261.2
 26 11 2013  03 08  -21.0052 26025.3 -03511.8 -07.6849 26261.2
 26 11 2013  03 09  -21.0053 26025.4 -03511.8 -07.6849 26261.2
 26 11 2013  03 10  -21.0053 26025.5 -03511.9 -07.6850 26261.4
 26 11 2013  03 11  -21.0053 26025.5 -03511.9 -07.6850 26261.4
 26 11 2013  03 12  -21.0053 26025.6 -03511.8 -07.6849 26261.4
 26 11 2013  03 13  -21.0054 26025.6 -03511.8 -07.6850 26261.5
 26 11 2013  03 14  -21.0054 26025.6 -03511.9 -07.6850 26261.5
 26 11 2013  03 15  -21.0054 26025.6 -03511.8 -07.6849 26261.5
 26 11 2013  03 16  -21.0057 26025.7 -03511.9 -07.6850 26261.6
 26 11 2013  03 17  -21.0060 26025.7 -03511.9 -07.6850 26261.6
 26 11 2013  03 18  -21.0061 26025.7 -03511.9 -07.6850 26261.6
 26 11 2013  03 19  -21.0059 26025.7 -03511.8 -07.6848 26261.5
 26 11 2013  03 20  -21.0059 26025.6 -03511.7 -07.6847 26261.4
 26 11 2013  03 21  -21.0066 26025.5 -03511.7 -07.6847 26261.4
 26 11 2013  03 22  -21.0072 26025.7 -03511.8 -07.6848 26261.6
 26 11 2013  03 23  -21.0071 26025.9 -03511.9 -07.6849 26261.7
 26 11 2013  03 24  -21.0071 26025.8 -03511.8 -07.6848 26261.6
 26 11 2013  03 25  -21.0073 26025.7 -03511.7 -07.6846 26261.5
 26 11 2013  03 26  -21.0071 26025.7 -03511.6 -07.6844 26261.5
 26 11 2013  03 27  -21.0069 26025.7 -03511.6 -07.6844 26261.5
 26 11 2013  03 28  -21.0065 26025.7 -03511.6 -07.6844 26261.5
 26 11 2013  03 29  -21.0066 26025.6 -03511.6 -07.6844 26261.5
 26 11 2013  03 30  -21.0070 26025.7 -03511.6 -07.6844 26261.5
 26 11 2013  03 31  -21.0071 26025.8 -03511.7 -07.6845 26261.7
 26 11 2013  03 32  -21.0070 26025.8 -03511.6 -07.6844 26261.6
 26 11 2013  03 33  -21.0069 26025.7 -03511.6 -07.6843 26261.6
 26 11 2013  03 34  -21.0069 26025.7 -03511.6 -07.6844 26261.6
 26 11 2013  03 35  -21.0070 26025.7 -03511.6 -07.6843 26261.6
 26 11 2013  03 36  -21.0072 26025.7 -03511.6 -07.6844 26261.6
 26 11 2013  03 37  -21.0072 26025.8 -03511.6 -07.6844 26261.6
 26 11 2013  03 38  -21.0070 26025.7 -03511.6 -07.6843 26261.6
 26 11 2013  03 39  -21.0072 26025.7 -03511.6 -07.6844 26261.5
 26 11 2013  03 40  -21.0073 26025.7 -03511.6 -07.6844 26261.5
 26 11 2013  03 41  -21.0074 26025.7 -03511.6 -07.6844 26261.5
 26 11 2013  03 42  -21.0072 26025.8 -03511.6 -07.6845 26261.6
 26 11 2013  03 43  -21.0070 26025.8 -03511.7 -07.6845 26261.6
 26 11 2013  03 44  -21.0069 26025.7 -03511.6 -07.6844 26261.5
 26 11 2013  03 45  -21.0070 26025.6 -03511.6 -07.6843 26261.5
 26 11 2013  03 46  -21.0071 26025.6 -03511.6 -07.6844 26261.5
 26 11 2013  03 47  -21.0071 26025.7 -03511.6 -07.6845 26261.5
 26 11 2013  03 48  -21.0071 26025.7 -03511.7 -07.6846 26261.6
 26 11 2013  03 49  -21.0070 26025.7 -03511.7 -07.6845 26261.5
 26 11 2013  03 50  -21.0070 26025.6 -03511.6 -07.6844 26261.4
 26 11 2013  03 51  -21.0070 26025.5 -03511.6 -07.6844 26261.4
 26 11 2013  03 52  -21.0070 26025.6 -03511.6 -07.6845 26261.4
 26 11 2013  03 53  -21.0069 26025.7 -03511.7 -07.6845 26261.5
 26 11 2013  03 54  -21.0068 26025.7 -03511.7 -07.6846 26261.5
 26 11 2013  03 55  -21.0067 26025.6 -03511.7 -07.6846 26261.5
 26 11 2013  03 56  -21.0066 26025.6 -03511.7 -07.6846 26261.5
 26 11 2013  03 57  -21.0064 26025.7 -03511.7 -07.6846 26261.6
 26 11 2013  03 58  -21.0063 26025.7 -03511.7 -07.6846 26261.6
 26 11 2013  03 59  -21.0063 26025.7 -03511.7 -07.6847 26261.6
 26 11 2013  04 00  -21.0063 26025.7 -03511.7 -07.6847 26261.6
 26 11 2013  04 01  -21.0061 26025.7 -03511.7 -07.6847 26261.6
 26 11 2013  04 02  -21.0060 26025.8 -03511.8 -07.6847 26261.7
 26 11 2013  04 03  -21.0060 26025.9 -03511.8 -07.6848 26261.7
 26 11 2013  04 04  -21.0060 26025.9 -03511.8 -07.6849 26261.7
 26 11 2013  04 05  -21.0061 26025.9 -03511.9 -07.6849 26261.8
 26 11 2013  04 06  -21.0062 26026.0 -03511.9 -07.6849 26261.8
 26 11 2013  04 07  -21.0062 26026.0 -03511.9 -07.6849 26261.9
 26 11 2013  04 08  -21.0062 26026.0 -03511.9 -07.6849 26261.9
 26 11 2013  04 09  -21.0062 26026.1 -03511.9 -07.6850 26261.9
 26 11 2013  04 10  -21.0062 26026.1 -03511.9 -07.6849 26261.9
 26 11 2013  04 11  -21.0062 26026.1 -03511.9 -07.6849 26261.9
 26 11 2013  04 12  -21.0062 26026.0 -03511.9 -07.6849 26261.9
 26 11 2013  04 13  -21.0062 26026.0 -03511.8 -07.6848 26261.8
 26 11 2013  04 14  -21.0062 26026.0 -03511.9 -07.6848 26261.9
 26 11 2013  04 15  -21.0064 26026.0 -03511.9 -07.6849 26261.9
 26 11 2013  04 16  -21.0065 26026.0 -03511.9 -07.6849 26261.9
 26 11 2013  04 17  -21.0066 26026.0 -03511.9 -07.6849 26261.9
 26 11 2013  04 18  -21.0067 26026.1 -03511.9 -07.6848 26261.9
 26 11 2013  04 19  -21.0067 26026.0 -03511.8 -07.6848 26261.9
 26 11 2013  04 20  -21.0067 26025.9 -03511.8 -07.6847 26261.8
 26 11 2013  04 21  -21.0068 26025.9 -03511.8 -07.6847 26261.8
 26 11 2013  04 22  -21.0068 26025.9 -03511.8 -07.6847 26261.7
 26 11 2013  04 23  -21.0069 26025.8 -03511.7 -07.6847 26261.7
 26 11 2013  04 24  -21.0069 26025.8 -03511.7 -07.6846 26261.6
 26 11 2013  04 25  -21.0069 26025.8 -03511.7 -07.6845 26261.7
 26 11 2013  04 26  -21.0069 26025.8 -03511.7 -07.6846 26261.6
 26 11 2013  04 27  -21.0068 26025.8 -03511.7 -07.6845 26261.6
 26 11 2013  04 28  -21.0067 26025.8 -03511.7 -07.6846 26261.6
 26 11 2013  04 29  -21.0067 26025.8 -03511.7 -07.6845 26261.6
 26 11 2013  04 30  -21.0067 26025.8 -03511.7 -07.6846 26261.6
 26 11 2013  04 31  -21.0066 26025.8 -03511.7 -07.6846 26261.7
 26 11 2013  04 32  -21.0067 26025.9 -03511.8 -07.6848 26261.7
 26 11 2013  04 33  -21.0067 26025.9 -03511.9 -07.6849 26261.8
 26 11 2013  04 34  -21.0068 26025.9 -03511.9 -07.6849 26261.8
 26 11 2013  04 35  -21.0067 26025.8 -03511.8 -07.6849 26261.7
 26 11 2013  04 36  -21.0068 26025.8 -03511.8 -07.6849 26261.7
 26 11 2013  04 37  -21.0068 26025.8 -03511.9 -07.6850 26261.7
 26 11 2013  04 38  -21.0068 26025.8 -03511.9 -07.6850 26261.7
 26 11 2013  04 39  -21.0068 26025.8 -03511.9 -07.6850 26261.6
 26 11 2013  04 40  -21.0068 26025.7 -03511.8 -07.6849 26261.6
 26 11 2013  04 41  -21.0068 26025.6 -03511.8 -07.6849 26261.5
 26 11 2013  04 42  -21.0068 26025.5 -03511.8 -07.6849 26261.4
 26 11 2013  04 43  -21.0068 26025.5 -03511.8 -07.6849 26261.4
 26 11 2013  04 44  -21.0069 26025.5 -03511.8 -07.6850 26261.4
 26 11 2013  04 45  -21.0070 26025.5 -03511.9 -07.6850 26261.3
 26 11 2013  04 46  -21.0071 26025.4 -03511.9 -07.6851 26261.3
 26 11 2013  04 47  -21.0072 26025.3 -03511.9 -07.6851 26261.2
 26 11 2013  04 48  -21.0072 26025.3 -03511.9 -07.6851 26261.1
 26 11 2013  04 49  -21.0071 26025.2 -03511.8 -07.6850 26261.1
 26 11 2013  04 50  -21.0073 26025.2 -03511.9 -07.6851 26261.1
 26 11 2013  04 51  -21.0072 26025.2 -03511.9 -07.6851 26261.0
 26 11 2013  04 52  -21.0074 26025.2 -03511.9 -07.6852 26261.1
 26 11 2013  04 53  -21.0074 26025.2 -03512.0 -07.6853 26261.1
 26 11 2013  04 54  -21.0075 26025.2 -03512.0 -07.6854 26261.1
 26 11 2013  04 55  -21.0079 26025.3 -03512.1 -07.6855 26261.2
 26 11 2013  04 56  -21.0080 26025.3 -03512.1 -07.6856 26261.2
 26 11 2013  04 57  -21.0083 26025.3 -03512.1 -07.6857 26261.3
 26 11 2013  04 58  -21.0085 26025.4 -03512.1 -07.6856 26261.3
 26 11 2013  04 59  -21.0084 26025.3 -03512.1 -07.6856 26261.2
 26 11 2013  05 00  -21.0085 26025.3 -03512.1 -07.6856 26261.2
 26 11 2013  05 01  -21.0087 26025.3 -03512.1 -07.6856 26261.2
 26 11 2013  05 02  -21.0088 26025.3 -03512.1 -07.6857 26261.2
 26 11 2013  05 03  -21.0089 26025.3 -03512.2 -07.6857 26261.2
 26 11 2013  05 04  -21.0091 26025.4 -03512.2 -07.6858 26261.4
 26 11 2013  05 05  -21.0091 26025.4 -03512.3 -07.6859 26261.3
 26 11 2013  05 06  -21.0094 26025.5 -03512.3 -07.6860 26261.4
 26 11 2013  05 07  -21.0095 26025.5 -03512.3 -07.6860 26261.4
 26 11 2013  05 08  -21.0094 26025.4 -03512.3 -07.6859 26261.3
 26 11 2013  05 09  -21.0096 26025.4 -03512.3 -07.6860 26261.4
 26 11 2013  05 10  -21.0097 26025.5 -03512.3 -07.6860 26261.4
 26 11 2013  05 11  -21.0100 26025.5 -03512.4 -07.6861 26261.5
 26 11 2013  05 12  -21.0100 26025.6 -03512.4 -07.6862 26261.5
 26 11 2013  05 13  -21.0100 26025.6 -03512.4 -07.6862 26261.5
 26 11 2013  05 14  -21.0100 26025.6 -03512.4 -07.6861 26261.5
 26 11 2013  05 15  -21.0103 26025.6 -03512.4 -07.6862 26261.6
 26 11 2013  05 16  -21.0103 26025.6 -03512.4 -07.6862 26261.6
 26 11 2013  05 17  -21.0105 26025.8 -03512.5 -07.6863 26261.7
 26 11 2013  05 18  -21.0105 26025.8 -03512.5 -07.6863 26261.7
 26 11 2013  05 19  -21.0104 26025.8 -03512.5 -07.6862 26261.7
 26 11 2013  05 20  -21.0104 26025.8 -03512.5 -07.6863 26261.7
 26 11 2013  05 21  -21.0105 26025.9 -03512.5 -07.6863 26261.8
 26 11 2013  05 22  -21.0105 26025.8 -03512.5 -07.6863 26261.8
 26 11 2013  05 23  -21.0105 26025.9 -03512.5 -07.6863 26261.8
 26 11 2013  05 24  -21.0105 26026.0 -03512.5 -07.6863 26261.9
 26 11 2013  05 25  -21.0104 26025.9 -03512.5 -07.6863 26261.9
 26 11 2013  05 26  -21.0105 26025.9 -03512.5 -07.6862 26261.9
 26 11 2013  05 27  -21.0107 26026.0 -03512.5 -07.6863 26262.0
 26 11 2013  05 28  -21.0106 26026.1 -03512.5 -07.6862 26262.0
 26 11 2013  05 29  -21.0108 26026.2 -03512.6 -07.6863 26262.2
 26 11 2013  05 30  -21.0106 26026.2 -03512.5 -07.6862 26262.2
 26 11 2013  05 31  -21.0106 26026.3 -03512.5 -07.6862 26262.2
 26 11 2013  05 32  -21.0106 26026.3 -03512.5 -07.6863 26262.2
 26 11 2013  05 33  -21.0106 26026.3 -03512.5 -07.6862 26262.3
 26 11 2013  05 34  -21.0106 26026.3 -03512.5 -07.6862 26262.3
 26 11 2013  05 35  -21.0105 26026.3 -03512.5 -07.6861 26262.2
 26 11 2013  05 36  -21.0105 26026.3 -03512.4 -07.6860 26262.2
 26 11 2013  05 37  -21.0104 26026.2 -03512.4 -07.6860 26262.2
 26 11 2013  05 38  -21.0104 26026.2 -03512.4 -07.6860 26262.2
 26 11 2013  05 39  -21.0103 26026.2 -03512.3 -07.6858 26262.1
 26 11 2013  05 40  -21.0105 26026.2 -03512.3 -07.6859 26262.1
 26 11 2013  05 41  -21.0106 26026.2 -03512.3 -07.6858 26262.2
 26 11 2013  05 42  -21.0105 26026.3 -03512.3 -07.6858 26262.2
 26 11 2013  05 43  -21.0103 26026.2 -03512.2 -07.6856 26262.1
 26 11 2013  05 44  -21.0104 26026.2 -03512.3 -07.6857 26262.1
 26 11 2013  05 45  -21.0102 26026.1 -03512.2 -07.6855 26262.0
 26 11 2013  05 46  -21.0103 26026.1 -03512.2 -07.6856 26262.1
 26 11 2013  05 47  -21.0103 26026.2 -03512.2 -07.6856 26262.1
 26 11 2013  05 48  -21.0101 26026.1 -03512.1 -07.6854 26262.1
 26 11 2013  05 49  -21.0102 26026.2 -03512.1 -07.6854 26262.1
 26 11 2013  05 50  -21.0101 26026.2 -03512.2 -07.6855 26262.2
 26 11 2013  05 51  -21.0100 26026.3 -03512.2 -07.6855 26262.2
 26 11 2013  05 52  -21.0100 26026.2 -03512.2 -07.6854 26262.1
 26 11 2013  05 53  -21.0099 26026.2 -03512.1 -07.6854 26262.1
 26 11 2013  05 54  -21.0099 26026.2 -03512.1 -07.6854 26262.1
 26 11 2013  05 55  -21.0099 26026.4 -03512.2 -07.6854 26262.3
 26 11 2013  05 56  -21.0097 26026.3 -03512.2 -07.6854 26262.2
 26 11 2013  05 57  -21.0097 26026.3 -03512.1 -07.6854 26262.2
 26 11 2013  05 58  -21.0096 26026.3 -03512.1 -07.6853 26262.2
 26 11 2013  05 59  -21.0096 26026.4 -03512.1 -07.6853 26262.3
 26 11 2013  06 00  -21.0095 26026.4 -03512.1 -07.6853 26262.3
 26 11 2013  06 01  -21.0095 26026.5 -03512.1 -07.6853 26262.4
 26 11 2013  06 02  -21.0095 26026.5 -03512.1 -07.6853 26262.4
 26 11 2013  06 03  -21.0095 26026.5 -03512.1 -07.6853 26262.4
 26 11 2013  06 04  -21.0095 26026.5 -03512.1 -07.6853 26262.5
 26 11 2013  06 05  -21.0096 26026.7 -03512.2 -07.6854 26262.6
 26 11 2013  06 06  -21.0094 26026.7 -03512.2 -07.6853 26262.6
 26 11 2013  06 07  -21.0095 26026.8 -03512.2 -07.6853 26262.7
 26 11 2013  06 08  -21.0095 26026.8 -03512.2 -07.6853 26262.7
 26 11 2013  06 09  -21.0096 26026.8 -03512.2 -07.6853 26262.7
 26 11 2013  06 10  -21.0096 26026.9 -03512.2 -07.6853 26262.8
 26 11 2013  06 11  -21.0096 26026.9 -03512.1 -07.6852 26262.8
 26 11 2013  06 12  -21.0096 26026.9 -03512.2 -07.6852 26262.8
 26 11 2013  06 13  -21.0096 26027.0 -03512.2 -07.6852 26262.9
 26 11 2013  06 14  -21.0097 26027.0 -03512.2 -07.6852 26262.9
 26 11 2013  06 15  -21.0097 26027.1 -03512.2 -07.6852 26263.0
 26 11 2013  06 16  -21.0097 26027.1 -03512.1 -07.6851 26263.0
 26 11 2013  06 17  -21.0097 26027.1 -03512.1 -07.6851 26263.0
 26 11 2013  06 18  -21.0098 26027.1 -03512.1 -07.6851 26263.0
 26 11 2013  06 19  -21.0097 26027.1 -03512.1 -07.6851 26263.0
 26 11 2013  06 20  -21.0097 26027.1 -03512.1 -07.6850 26263.0
 26 11 2013  06 21  -21.0097 26027.1 -03512.1 -07.6850 26263.0
 26 11 2013  06 22  -21.0097 26027.1 -03512.1 -07.6850 26263.0
 26 11 2013  06 23  -21.0097 26027.2 -03512.1 -07.6850 26263.1
 26 11 2013  06 24  -21.0097 26027.2 -03512.1 -07.6850 26263.1
 26 11 2013  06 25  -21.0098 26027.3 -03512.1 -07.6851 26263.2
 26 11 2013  06 26  -21.0097 26027.3 -03512.1 -07.6850 26263.2
 26 11 2013  06 27  -21.0096 26027.3 -03512.1 -07.6850 26263.2
 26 11 2013  06 28  -21.0097 26027.3 -03512.1 -07.6850 26263.2
 26 11 2013  06 29  -21.0097 26027.4 -03512.2 -07.6851 26263.2
 26 11 2013  06 30  -21.0097 26027.4 -03512.1 -07.6851 26263.3
 26 11 2013  06 31  -21.0097 26027.4 -03512.2 -07.6851 26263.3
 26 11 2013  06 32  -21.0098 26027.4 -03512.1 -07.6851 26263.3
 26 11 2013  06 33  -21.0098 26027.5 -03512.1 -07.6850 26263.4
 26 11 2013  06 34  -21.0098 26027.4 -03512.1 -07.6850 26263.3
 26 11 2013  06 35  -21.0098 26027.4 -03512.1 -07.6850 26263.3
 26 11 2013  06 36  -21.0098 26027.5 -03512.1 -07.6849 26263.4
 26 11 2013  06 37  -21.0098 26027.5 -03512.1 -07.6849 26263.3
 26 11 2013  06 38  -21.0097 26027.4 -03512.1 -07.6849 26263.3
 26 11 2013  06 39  -21.0096 26027.4 -03512.0 -07.6848 26263.2
 26 11 2013  06 40  -21.0095 26027.3 -03512.0 -07.6848 26263.2
 26 11 2013  06 41  -21.0092 26027.2 -03512.0 -07.6847 26263.1
 26 11 2013  06 42  -21.0093 26027.3 -03512.0 -07.6847 26263.1
 26 11 2013  06 43  -21.0092 26027.3 -03512.0 -07.6847 26263.2
 26 11 2013  06 44  -21.0092 26027.3 -03512.0 -07.6848 26263.2
 26 11 2013  06 45  -21.0093 26027.3 -03512.0 -07.6848 26263.2
 26 11 2013  06 46  -21.0093 26027.4 -03512.0 -07.6848 26263.2
 26 11 2013  06 47  -21.0094 26027.4 -03512.0 -07.6847 26263.2
 26 11 2013  06 48  -21.0093 26027.4 -03512.0 -07.6848 26263.3
 26 11 2013  06 49  -21.0093 26027.4 -03512.0 -07.6848 26263.3
 26 11 2013  06 50  -21.0093 26027.4 -03512.0 -07.6847 26263.3
 26 11 2013  06 51  -21.0093 26027.4 -03512.0 -07.6847 26263.3
 26 11 2013  06 52  -21.0093 26027.4 -03512.0 -07.6847 26263.3
 26 11 2013  06 53  -21.0093 26027.4 -03512.0 -07.6847 26263.2
 26 11 2013  06 54  -21.0093 26027.4 -03511.9 -07.6846 26263.2
 26 11 2013  06 55  -21.0094 26027.3 -03512.0 -07.6847 26263.2
 26 11 2013  06 56  -21.0093 26027.4 -03512.0 -07.6847 26263.2
 26 11 2013  06 57  -21.0094 26027.4 -03512.0 -07.6847 26263.3
 26 11 2013  06 58  -21.0094 26027.4 -03512.0 -07.6847 26263.3
 26 11 2013  06 59  -21.0094 26027.4 -03511.9 -07.6846 26263.3
 26 11 2013  07 00  -21.0095 26027.4 -03512.0 -07.6848 26263.3
 26 11 2013  07 01  -21.0093 26027.5 -03512.0 -07.6847 26263.3
 26 11 2013  07 02  -21.0094 26027.5 -03512.0 -07.6847 26263.4
 26 11 2013  07 03  -21.0093 26027.5 -03512.0 -07.6847 26263.4
 26 11 2013  07 04  -21.0094 26027.6 -03512.0 -07.6848 26263.5
 26 11 2013  07 05  -21.0094 26027.6 -03512.1 -07.6849 26263.5
 26 11 2013  07 06  -21.0094 26027.7 -03512.1 -07.6848 26263.6
 26 11 2013  07 07  -21.0093 26027.7 -03512.1 -07.6849 26263.6
 26 11 2013  07 08  -21.0092 26027.7 -03512.1 -07.6848 26263.6
 26 11 2013  07 09  -21.0091 26027.7 -03512.1 -07.6848 26263.6
 26 11 2013  07 10  -21.0092 26027.8 -03512.1 -07.6848 26263.6
 26 11 2013  07 11  -21.0092 26027.8 -03512.1 -07.6848 26263.7
 26 11 2013  07 12  -21.0092 26027.8 -03512.1 -07.6849 26263.7
 26 11 2013  07 13  -21.0092 26027.8 -03512.1 -07.6849 26263.7
 26 11 2013  07 14  -21.0092 26027.8 -03512.1 -07.6849 26263.7
 26 11 2013  07 15  -21.0091 26027.9 -03512.1 -07.6849 26263.7
 26 11 2013  07 16  -21.0092 26027.9 -03512.1 -07.6849 26263.8
 26 11 2013  07 17  -21.0092 26027.9 -03512.1 -07.6849 26263.8
 26 11 2013  07 18  -21.0092 26027.9 -03512.1 -07.6849 26263.8
 26 11 2013  07 19  -21.0092 26027.8 -03512.1 -07.6849 26263.7
 26 11 2013  07 20  -21.0092 26027.9 -03512.1 -07.6849 26263.8
 26 11 2013  07 21  -21.0092 26027.9 -03512.1 -07.6849 26263.8
 26 11 2013  07 22  -21.0092 26027.9 -03512.1 -07.6849 26263.8
 26 11 2013  07 23  -21.0092 26027.9 -03512.1 -07.6849 26263.8
 26 11 2013  07 24  -21.0092 26028.0 -03512.1 -07.6849 26263.9
 26 11 2013  07 25  -21.0092 26028.0 -03512.1 -07.6849 26263.9
 26 11 2013  07 26  -21.0092 26028.0 -03512.2 -07.6849 26263.9
 26 11 2013  07 27  -21.0093 26028.0 -03512.2 -07.6850 26263.9
 26 11 2013  07 28  -21.0094 26028.0 -03512.2 -07.6850 26263.9
 26 11 2013  07 29  -21.0094 26028.1 -03512.2 -07.6850 26264.0
 26 11 2013  07 30  -21.0094 26028.1 -03512.2 -07.6851 26264.0
 26 11 2013  07 31  -21.0094 26028.1 -03512.2 -07.6851 26264.0
 26 11 2013  07 32  -21.0094 26028.2 -03512.2 -07.6851 26264.1
 26 11 2013  07 33  -21.0095 26028.2 -03512.3 -07.6851 26264.1
 26 11 2013  07 34  -21.0095 26028.2 -03512.3 -07.6852 26264.2
 26 11 2013  07 35  -21.0095 26028.3 -03512.3 -07.6852 26264.2
 26 11 2013  07 36  -21.0095 26028.3 -03512.3 -07.6852 26264.2
 26 11 2013  07 37  -21.0093 26028.3 -03512.4 -07.6852 26264.2
 26 11 2013  07 38  -21.0093 26028.3 -03512.3 -07.6852 26264.2
 26 11 2013  07 39  -21.0092 26028.4 -03512.3 -07.6852 26264.3
 26 11 2013  07 40  -21.0092 26028.4 -03512.4 -07.6854 26264.3
 26 11 2013  07 41  -21.0092 26028.5 -03512.5 -07.6854 26264.4
 26 11 2013  07 42  -21.0092 26028.5 -03512.5 -07.6855 26264.4
 26 11 2013  07 43  -21.0092 26028.5 -03512.4 -07.6854 26264.4
 26 11 2013  07 44  -21.0092 26028.5 -03512.5 -07.6854 26264.5
 26 11 2013  07 45  -21.0093 26028.6 -03512.5 -07.6855 26264.5
 26 11 2013  07 46  -21.0092 26028.6 -03512.5 -07.6855 26264.5
 26 11 2013  07 47  -21.0093 26028.6 -03512.5 -07.6855 26264.5
 26 11 2013  07 48  -21.0093 26028.6 -03512.5 -07.6855 26264.5
 26 11 2013  07 49  -21.0093 26028.6 -03512.5 -07.6855 26264.5
 26 11 2013  07 50  -21.0093 26028.6 -03512.5 -07.6854 26264.5
 26 11 2013  07 51  -21.0093 26028.6 -03512.5 -07.6855 26264.6
 26 11 2013  07 52  -21.0093 26028.6 -03512.5 -07.6855 26264.6
 26 11 2013  07 53  -21.0094 26028.7 -03512.5 -07.6855 26264.6
 26 11 2013  07 54  -21.0095 26028.6 -03512.5 -07.6856 26264.6
 26 11 2013  07 55  -21.0094 26028.6 -03512.5 -07.6855 26264.6
 26 11 2013  07 56  -21.0095 26028.7 -03512.5 -07.6856 26264.6
 26 11 2013  07 57  -21.0095 26028.7 -03512.6 -07.6856 26264.6
 26 11 2013  07 58  -21.0095 26028.7 -03512.6 -07.6856 26264.6
 26 11 2013  07 59  -21.0095 26028.7 -03512.6 -07.6856 26264.6
 26 11 2013  08 00  -21.0096 26028.7 -03512.6 -07.6856 26264.6
 26 11 2013  08 01  -21.0097 26028.7 -03512.5 -07.6856 26264.6
 26 11 2013  08 02  -21.0096 26028.6 -03512.5 -07.6856 26264.6
 26 11 2013  08 03  -21.0096 26028.6 -03512.5 -07.6856 26264.6
 26 11 2013  08 04  -21.0097 26028.6 -03512.6 -07.6856 26264.6
 26 11 2013  08 05  -21.0097 26028.7 -03512.6 -07.6856 26264.6
 26 11 2013  08 06  -21.0097 26028.7 -03512.5 -07.6856 26264.6
 26 11 2013  08 07  -21.0097 26028.7 -03512.6 -07.6856 26264.7
 26 11 2013  08 08  -21.0098 26028.8 -03512.6 -07.6856 26264.7
 26 11 2013  08 09  -21.0098 26028.8 -03512.6 -07.6857 26264.7
 26 11 2013  08 10  -21.0098 26028.8 -03512.6 -07.6856 26264.7
 26 11 2013  08 11  -21.0098 26028.8 -03512.6 -07.6856 26264.8
 26 11 2013  08 12  -21.0098 26028.9 -03512.6 -07.6857 26264.8
 26 11 2013  08 13  -21.0098 26028.9 -03512.6 -07.6857 26264.8
 26 11 2013  08 14  -21.0098 26028.9 -03512.6 -07.6857 26264.8
 26 11 2013  08 15  -21.0098 26028.9 -03512.6 -07.6856 26264.8
 26 11 2013  08 16  -21.0098 26028.9 -03512.6 -07.6856 26264.8
 26 11 2013  08 17  -21.0097 26028.9 -03512.6 -07.6855 26264.8
 26 11 2013  08 18  -21.0097 26028.9 -03512.5 -07.6855 26264.8
 26 11 2013  08 19  -21.0096 26028.8 -03512.5 -07.6855 26264.7
 26 11 2013  08 20  -21.0095 26028.8 -03512.5 -07.6854 26264.7
 26 11 2013  08 21  -21.0094 26028.7 -03512.5 -07.6854 26264.7
 26 11 2013  08 22  -21.0093 26028.7 -03512.4 -07.6853 26264.6
 26 11 2013  08 23  -21.0091 26028.6 -03512.4 -07.6852 26264.5
 26 11 2013  08 24  -21.0091 26028.5 -03512.4 -07.6852 26264.4
 26 11 2013  08 25  -21.0090 26028.4 -03512.3 -07.6851 26264.4
 26 11 2013  08 26  -21.0089 26028.4 -03512.3 -07.6850 26264.3
 26 11 2013  08 27  -21.0087 26028.3 -03512.3 -07.6851 26264.2
 26 11 2013  08 28  -21.0086 26028.2 -03512.2 -07.6850 26264.1
 26 11 2013  08 29  -21.0084 26028.2 -03512.2 -07.6850 26264.1
 26 11 2013  08 30  -21.0082 26028.0 -03512.2 -07.6851 26263.9
 26 11 2013  08 31  -21.0081 26028.0 -03512.3 -07.6851 26263.9
 26 11 2013  08 32  -21.0077 26028.0 -03512.3 -07.6851 26263.9
 26 11 2013  08 33  -21.0076 26028.0 -03512.3 -07.6852 26263.9
 26 11 2013  08 34  -21.0074 26028.0 -03512.4 -07.6854 26263.9
 26 11 2013  08 35  -21.0071 26028.0 -03512.4 -07.6855 26264.0
 26 11 2013  08 36  -21.0069 26028.1 -03512.5 -07.6857 26264.0
 26 11 2013  08 37  -21.0067 26028.1 -03512.7 -07.6860 26264.1
 26 11 2013  08 38  -21.0063 26028.1 -03512.7 -07.6861 26264.1
 26 11 2013  08 39  -21.0061 26028.1 -03512.8 -07.6862 26264.1
 26 11 2013  08 40  -21.0059 26028.2 -03512.9 -07.6866 26264.2
 26 11 2013  08 41  -21.0058 26028.2 -03513.0 -07.6867 26264.2
 26 11 2013  08 42  -21.0057 26028.3 -03513.1 -07.6870 26264.3
 26 11 2013  08 43  -21.0057 26028.4 -03513.2 -07.6871 26264.4
 26 11 2013  08 44  -21.0058 26028.4 -03513.3 -07.6873 26264.4
 26 11 2013  08 45  -21.0060 26028.4 -03513.4 -07.6875 26264.5
 26 11 2013  08 46  -21.0061 26028.5 -03513.5 -07.6877 26264.5
 26 11 2013  08 47  -21.0062 26028.5 -03513.5 -07.6878 26264.6
 26 11 2013  08 48  -21.0063 26028.5 -03513.6 -07.6879 26264.6
 26 11 2013  08 49  -21.0066 26028.6 -03513.7 -07.6881 26264.7
 26 11 2013  08 50  -21.0069 26028.6 -03513.8 -07.6882 26264.7
 26 11 2013  08 51  -21.0071 26028.7 -03513.8 -07.6882 26264.8
 26 11 2013  08 52  -21.0075 26028.7 -03513.8 -07.6883 26264.8
 26 11 2013  08 53  -21.0077 26028.7 -03513.8 -07.6883 26264.9
 26 11 2013  08 54  -21.0079 26028.7 -03513.9 -07.6884 26264.9
 26 11 2013  08 55  -21.0081 26028.7 -03513.8 -07.6884 26264.8
 26 11 2013  08 56  -21.0081 26028.7 -03513.8 -07.6883 26264.8
 26 11 2013  08 57  -21.0083 26028.7 -03513.8 -07.6884 26264.8
 26 11 2013  08 58  -21.0085 26028.7 -03513.9 -07.6886 26264.9
 26 11 2013  08 59  -21.0087 26028.8 -03514.0 -07.6887 26264.9
 26 11 2013  09 00  -21.0089 26028.8 -03514.1 -07.6888 26264.9
 26 11 2013  09 01  -21.0093 26028.9 -03514.1 -07.6889 26265.0
 26 11 2013  09 02  -21.0096 26028.8 -03514.1 -07.6890 26265.0
 26 11 2013  09 03  -21.0101 26029.0 -03514.2 -07.6891 26265.1
 26 11 2013  09 04  -21.0103 26028.9 -03514.2 -07.6891 26265.1
 26 11 2013  09 05  -21.0105 26029.0 -03514.2 -07.6891 26265.2
 26 11 2013  09 06  -21.0108 26029.0 -03514.2 -07.6891 26265.1
 26 11 2013  09 07  -21.0112 26029.0 -03514.3 -07.6892 26265.2
 26 11 2013  09 08  -21.0115 26029.1 -03514.3 -07.6892 26265.2
 26 11 2013  09 09  -21.0117 26029.1 -03514.3 -07.6892 26265.2
 26 11 2013  09 10  -21.0120 26029.1 -03514.2 -07.6890 26265.3
 26 11 2013  09 11  -21.0123 26029.1 -03514.3 -07.6892 26265.3
 26 11 2013  09 12  -21.0128 26029.1 -03514.3 -07.6893 26265.3
 26 11 2013  09 13  -21.0132 26029.2 -03514.3 -07.6891 26265.4
 26 11 2013  09 14  -21.0134 26029.1 -03514.1 -07.6888 26265.2
 26 11 2013  09 15  -21.0136 26029.1 -03514.1 -07.6887 26265.3
 26 11 2013  09 16  -21.0140 26029.2 -03514.2 -07.6891 26265.3
 26 11 2013  09 17  -21.0142 26029.1 -03514.3 -07.6891 26265.3
 26 11 2013  09 18  -21.0147 26029.2 -03514.3 -07.6892 26265.3
 26 11 2013  09 19  -21.0149 26029.2 -03514.3 -07.6892 26265.4
 26 11 2013  09 20  -21.0152 26029.2 -03514.3 -07.6892 26265.3
 26 11 2013  09 21  -21.0154 26029.2 -03514.3 -07.6892 26265.4
 26 11 2013  09 22  -21.0157 26029.2 -03514.3 -07.6891 26265.3
 26 11 2013  09 23  -21.0160 26029.2 -03514.3 -07.6892 26265.4
 26 11 2013  09 24  -21.0162 26029.2 -03514.3 -07.6892 26265.3
 26 11 2013  09 25  -21.0165 26029.2 -03514.3 -07.6892 26265.4
 26 11 2013  09 26  -21.0168 26029.2 -03514.3 -07.6892 26265.4
 26 11 2013  09 27  -21.0171 26029.3 -03514.4 -07.6893 26265.4
 26 11 2013  09 28  -21.0172 26029.2 -03514.3 -07.6893 26265.3
 26 11 2013  09 29  -21.0177 26029.3 -03514.5 -07.6895 26265.5
 26 11 2013  09 30  -21.0176 26029.2 -03514.4 -07.6894 26265.4
 26 11 2013  09 31  -21.0180 26029.3 -03514.5 -07.6896 26265.4
 26 11 2013  09 32  -21.0185 26029.4 -03514.5 -07.6897 26265.6
 26 11 2013  09 33  -21.0187 26029.4 -03514.6 -07.6898 26265.6
 26 11 2013  09 34  -21.0192 26029.4 -03514.6 -07.6897 26265.6
 26 11 2013  09 35  -21.0192 26029.3 -03514.6 -07.6897 26265.5
 26 11 2013  09 36  -21.0197 26029.4 -03514.6 -07.6899 26265.6
 26 11 2013  09 37  -21.0198 26029.3 -03514.7 -07.6900 26265.5
 26 11 2013  09 38  -21.0205 26029.5 -03514.8 -07.6902 26265.7
 26 11 2013  09 39  -21.0209 26029.6 -03514.8 -07.6903 26265.8
 26 11 2013  09 40  -21.0211 26029.5 -03514.8 -07.6903 26265.8
 26 11 2013  09 41  -21.0213 26029.5 -03514.9 -07.6903 26265.8
 26 11 2013  09 42  -21.0216 26029.5 -03514.9 -07.6905 26265.8
 26 11 2013  09 43  -21.0221 26029.7 -03515.0 -07.6906 26265.9
 26 11 2013  09 44  -21.0222 26029.6 -03515.0 -07.6907 26265.8
 26 11 2013  09 45  -21.0225 26029.6 -03515.1 -07.6908 26265.9
 26 11 2013  09 46  -21.0228 26029.6 -03515.1 -07.6909 26265.9
 26 11 2013  09 47  -21.0232 26029.7 -03515.2 -07.6911 26266.0
 26 11 2013  09 48  -21.0237 26029.8 -03515.3 -07.6913 26266.1
 26 11 2013  09 49  -21.0240 26029.7 -03515.4 -07.6913 26266.0
 26 11 2013  09 50  -21.0245 26029.8 -03515.4 -07.6915 26266.1
 26 11 2013  09 51  -21.0248 26029.8 -03515.4 -07.6915 26266.1
 26 11 2013  09 52  -21.0253 26029.8 -03515.5 -07.6916 26266.1
 26 11 2013  09 53  -21.0258 26029.8 -03515.5 -07.6917 26266.2
 26 11 2013  09 54  -21.0258 26029.7 -03515.5 -07.6917 26266.0
 26 11 2013  09 55  -21.0259 26029.6 -03515.5 -07.6918 26266.0
 26 11 2013  09 56  -21.0262 26029.7 -03515.6 -07.6919 26266.0
 26 11 2013  09 57  -21.0265 26029.7 -03515.7 -07.6920 26266.1
 26 11 2013  09 58  -21.0267 26029.8 -03515.8 -07.6922 26266.1
 26 11 2013  09 59  -21.0268 26029.7 -03515.8 -07.6923 26266.0
 26 11 2013  10 00  -21.0268 26029.6 -03515.8 -07.6924 26266.0
 26 11 2013  10 01  -21.0269 26029.6 -03515.9 -07.6926 26266.0
 26 11 2013  10 02  -21.0269 26029.5 -03516.0 -07.6928 26265.9
 26 11 2013  10 03  -21.0269 26029.5 -03516.1 -07.6929 26265.9
 26 11 2013  10 04  -21.0271 26029.5 -03516.2 -07.6932 26265.9
 26 11 2013  10 05  -21.0272 26029.5 -03516.3 -07.6934 26265.9
 26 11 2013  10 06  -21.0271 26029.4 -03516.3 -07.6934 26265.9
 26 11 2013  10 07  -21.0272 26029.4 -03516.4 -07.6937 26265.8
 26 11 2013  10 08  -21.0276 26029.5 -03516.5 -07.6940 26266.0
 26 11 2013  10 09  -21.0280 26029.7 -03516.7 -07.6943 26266.2
 26 11 2013  10 10  -21.0284 26029.9 -03516.8 -07.6944 26266.4
 26 11 2013  10 11  -21.0287 26030.0 -03516.8 -07.6944 26266.5
 26 11 2013  10 12  -21.0291 26030.1 -03516.9 -07.6945 26266.6
 26 11 2013  10 13  -21.0294 26030.2 -03516.9 -07.6945 26266.7
 26 11 2013  10 14  -21.0295 26030.2 -03516.9 -07.6946 26266.7
 26 11 2013  10 15  -21.0298 26030.4 -03517.0 -07.6947 26266.9
 26 11 2013  10 16  -21.0295 26030.1 -03517.0 -07.6947 26266.6
 26 11 2013  10 17  -21.0290 26029.7 -03516.8 -07.6945 26266.2
 26 11 2013  10 18  -21.0286 26029.4 -03516.8 -07.6946 26265.9
 26 11 2013  10 19  -21.0284 26029.3 -03517.0 -07.6950 26265.8
 26 11 2013  10 20  -21.0283 26029.2 -03517.2 -07.6954 26265.7
 26 11 2013  10 21  -21.0280 26028.9 -03517.2 -07.6957 26265.5
 26 11 2013  10 22  -21.0282 26029.0 -03517.4 -07.6961 26265.6
 26 11 2013  10 23  -21.0289 26029.3 -03517.8 -07.6966 26265.9
 26 11 2013  10 24  -21.0295 26029.5 -03518.0 -07.6970 26266.2
 26 11 2013  10 25  -21.0298 26029.8 -03518.1 -07.6972 26266.4
 26 11 2013  10 26  -21.0300 26029.8 -03518.1 -07.6973 26266.5
 26 11 2013  10 27  -21.0300 26029.8 -03518.1 -07.6972 26266.5
 26 11 2013  10 28  -21.0300 26029.7 -03518.1 -07.6973 26266.4
 26 11 2013  10 29  -21.0300 26029.7 -03518.1 -07.6974 26266.3
 26 11 2013  10 30  -21.0298 26029.6 -03518.2 -07.6975 26266.3
 26 11 2013  10 31  -21.0300 26029.5 -03518.3 -07.6977 26266.2
 26 11 2013  10 32  -21.0300 26029.5 -03518.4 -07.6979 26266.3
 26 11 2013  10 33  -21.0300 26029.5 -03518.5 -07.6981 26266.2
 26 11 2013  10 34  -21.0299 26029.4 -03518.5 -07.6981 26266.1
 26 11 2013  10 35  -21.0297 26029.3 -03518.6 -07.6984 26266.0
 26 11 2013  10 36  -21.0297 26029.3 -03518.7 -07.6986 26266.1
 26 11 2013  10 37  -21.0299 26029.4 -03518.8 -07.6989 26266.2
 26 11 2013  10 38  -21.0300 26029.4 -03518.9 -07.6992 26266.2
 26 11 2013  10 39  -21.0302 26029.4 -03519.1 -07.6995 26266.3
 26 11 2013  10 40  -21.0302 26029.4 -03519.2 -07.6997 26266.2
 26 11 2013  10 41  -21.0300 26029.4 -03519.3 -07.7000 26266.2
 26 11 2013  10 42  -21.0299 26029.4 -03519.4 -07.7002 26266.2
 26 11 2013  10 43  -21.0297 26029.4 -03519.6 -07.7005 26266.3
 26 11 2013  10 44  -21.0297 26029.4 -03519.7 -07.7008 26266.3
 26 11 2013  10 45  -21.0296 26029.5 -03519.8 -07.7010 26266.4
 26 11 2013  10 46  -21.0295 26029.6 -03520.0 -07.7013 26266.5
 26 11 2013  10 47  -21.0296 26029.7 -03520.2 -07.7017 26266.7
 26 11 2013  10 48  -21.0297 26029.8 -03520.3 -07.7020 26266.8
 26 11 2013  10 49  -21.0297 26030.1 -03520.5 -07.7023 26267.0
 26 11 2013  10 50  -21.0296 26030.2 -03520.6 -07.7025 26267.2
 26 11 2013  10 51  -21.0296 26030.4 -03520.7 -07.7027 26267.4
 26 11 2013  10 52  -21.0299 26030.6 -03520.9 -07.7030 26267.6
 26 11 2013  10 53  -21.0298 26030.7 -03521.0 -07.7032 26267.8
 26 11 2013  10 54  -21.0301 26030.9 -03521.2 -07.7035 26268.0
 26 11 2013  10 55  -21.0300 26031.1 -03521.3 -07.7037 26268.2
 26 11 2013  10 56  -21.0301 26031.3 -03521.4 -07.7039 26268.4
 26 11 2013  10 57  -21.0301 26031.4 -03521.5 -07.7042 26268.5
 26 11 2013  10 58  -21.0300 26031.5 -03521.6 -07.7043 26268.6
 26 11 2013  10 59  -21.0297 26031.7 -03521.7 -07.7046 26268.8
 26 11 2013  11 00  -21.0296 26031.9 -03521.8 -07.7047 26269.1
 26 11 2013  11 01  -21.0296 26032.1 -03522.0 -07.7050 26269.2
 26 11 2013  11 02  -21.0296 26032.2 -03522.1 -07.7053 26269.4
 26 11 2013  11 03  -21.0297 26032.4 -03522.3 -07.7056 26269.7
 26 11 2013  11 04  -21.0302 26033.0 -03522.6 -07.7060 26270.2
 26 11 2013  11 05  -21.0295 26033.1 -03522.7 -07.7062 26270.4
 26 11 2013  11 06  -21.0292 26033.2 -03522.7 -07.7062 26270.5
 26 11 2013  11 07  -21.0289 26033.3 -03522.8 -07.7064 26270.6
 26 11 2013  11 08  -21.0288 26033.4 -03522.9 -07.7066 26270.7
 26 11 2013  11 09  -21.0288 26033.7 -03523.1 -07.7069 26271.0
 26 11 2013  11 10  -21.0287 26034.0 -03523.2 -07.7072 26271.3
 26 11 2013  11 11  -21.0287 26034.3 -03523.4 -07.7074 26271.6
 26 11 2013  11 12  -21.0283 26034.6 -03523.6 -07.7077 26272.0
 26 11 2013  11 13  -21.0280 26034.9 -03523.7 -07.7079 26272.3
 26 11 2013  11 14  -21.0281 26035.3 -03523.9 -07.7082 26272.7
 26 11 2013  11 15  -21.0281 26035.9 -03524.1 -07.7084 26273.3
 26 11 2013  11 16  -21.0283 26036.2 -03524.2 -07.7085 26273.6
 26 11 2013  11 17  -21.0283 26036.5 -03524.3 -07.7086 26274.0
 26 11 2013  11 18  -21.0278 26037.0 -03524.4 -07.7087 26274.4
 26 11 2013  11 19  -21.0273 26037.4 -03524.4 -07.7087 26274.8
 26 11 2013  11 20  -21.0275 26037.8 -03524.5 -07.7087 26275.3
 26 11 2013  11 21  -21.0278 26038.4 -03524.6 -07.7088 26275.9
 26 11 2013  11 22  -21.0278 26038.9 -03524.7 -07.7087 26276.4
 26 11 2013  11 23  -21.0276 26039.2 -03524.6 -07.7085 26276.7
 26 11 2013  11 24  -21.0274 26039.4 -03524.5 -07.7083 26276.9
 26 11 2013  11 25  -21.0276 26039.6 -03524.5 -07.7082 26277.0
 26 11 2013  11 26  -21.0276 26039.7 -03524.4 -07.7080 26277.2
 26 11 2013  11 27  -21.0275 26039.8 -03524.4 -07.7078 26277.2
 26 11 2013  11 28  -21.0271 26039.7 -03524.3 -07.7077 26277.2
 26 11 2013  11 29  -21.0270 26039.7 -03524.3 -07.7076 26277.2
 26 11 2013  11 30  -21.0269 26039.7 -03524.2 -07.7076 26277.1
 26 11 2013  11 31  -21.0271 26039.7 -03524.3 -07.7077 26277.1
 26 11 2013  11 32  -21.0271 26039.8 -03524.3 -07.7078 26277.2
 26 11 2013  11 33  -21.0263 26039.5 -03524.3 -07.7078 26276.9
 26 11 2013  11 34  -21.0256 26039.2 -03524.2 -07.7077 26276.6
 26 11 2013  11 35  -21.0252 26039.0 -03524.3 -07.7079 26276.4
 26 11 2013  11 36  -21.0251 26039.0 -03524.5 -07.7083 26276.5
 26 11 2013  11 37  -21.0256 26039.5 -03524.8 -07.7089 26277.0
 26 11 2013  11 38  -21.0258 26039.9 -03525.0 -07.7092 26277.4
 26 11 2013  11 39  -21.0257 26040.1 -03525.1 -07.7094 26277.7
 26 11 2013  11 40  -21.0255 26040.3 -03525.2 -07.7096 26277.8
 26 11 2013  11 41  -21.0253 26040.4 -03525.3 -07.7097 26277.9
 26 11 2013  11 42  -21.0252 26040.5 -03525.4 -07.7098 26278.1
 26 11 2013  11 43  -21.0250 26040.6 -03525.4 -07.7099 26278.1
 26 11 2013  11 44  -21.0248 26040.7 -03525.5 -07.7101 26278.2
 26 11 2013  11 45  -21.0245 26040.7 -03525.6 -07.7102 26278.3
 26 11 2013  11 46  -21.0242 26040.7 -03525.6 -07.7103 26278.3
 26 11 2013  11 47  -21.0243 26041.1 -03525.8 -07.7105 26278.7
 26 11 2013  11 48  -21.0244 26041.3 -03525.9 -07.7107 26278.9
 26 11 2013  11 49  -21.0242 26041.5 -03526.0 -07.7108 26279.1
 26 11 2013  11 50  -21.0240 26041.7 -03526.0 -07.7108 26279.3
 26 11 2013  11 51  -21.0235 26041.8 -03526.0 -07.7108 26279.4
 26 11 2013  11 52  -21.0230 26041.8 -03525.9 -07.7107 26279.4
 26 11 2013  11 53  -21.0227 26041.8 -03526.0 -07.7107 26279.4
 26 11 2013  11 54  -21.0233 26041.8 -03525.9 -07.7106 26279.4
 26 11 2013  11 55  -21.0244 26041.8 -03525.9 -07.7105 26279.4
 26 11 2013  11 56  -21.0242 26042.1 -03525.9 -07.7105 26279.8
 26 11 2013  11 57  -21.0238 26042.3 -03525.9 -07.7104 26279.9
 26 11 2013  11 58  -21.0234 26042.4 -03525.8 -07.7103 26280.0
 26 11 2013  11 59  -21.0229 26042.6 -03525.9 -07.7103 26280.2
 26 11 2013  12 00  -21.0223 26042.7 -03525.9 -07.7102 26280.3
 26 11 2013  12 01  -21.0222 26043.0 -03525.9 -07.7103 26280.6
 26 11 2013  12 02  -21.0219 26043.3 -03525.9 -07.7102 26280.9
 26 11 2013  12 03  -21.0210 26043.4 -03525.9 -07.7102 26281.0
 26 11 2013  12 04  -21.0204 26043.7 -03525.9 -07.7101 26281.3
 26 11 2013  12 05  -21.0199 26044.0 -03525.9 -07.7100 26281.6
 26 11 2013  12 06  -21.0194 26044.2 -03525.9 -07.7099 26281.8
 26 11 2013  12 07  -21.0193 26044.7 -03525.9 -07.7098 26282.3
 26 11 2013  12 08  -21.0192 26045.1 -03525.9 -07.7097 26282.7
 26 11 2013  12 09  -21.0189 26045.3 -03525.8 -07.7094 26282.9
 26 11 2013  12 10  -21.0186 26045.6 -03525.7 -07.7091 26283.1
 26 11 2013  12 11  -21.0183 26045.8 -03525.6 -07.7088 26283.4
 26 11 2013  12 12  -21.0180 26046.0 -03525.5 -07.7085 26283.5
 26 11 2013  12 13  -21.0176 26046.3 -03525.4 -07.7081 26283.8
 26 11 2013  12 14  -21.0175 26046.6 -03525.3 -07.7079 26284.1
 26 11 2013  12 15  -21.0174 26046.9 -03525.2 -07.7076 26284.3
 26 11 2013  12 16  -21.0174 26047.1 -03525.0 -07.7071 26284.6
 26 11 2013  12 17  -21.0171 26047.3 -03524.8 -07.7067 26284.7
 26 11 2013  12 18  -21.0169 26047.4 -03524.7 -07.7063 26284.8
 26 11 2013  12 19  -21.0167 26047.5 -03524.5 -07.7059 26284.9
 26 11 2013  12 20  -21.0166 26047.7 -03524.4 -07.7056 26285.0
 26 11 2013  12 21  -21.0166 26048.0 -03524.3 -07.7053 26285.3
 26 11 2013  12 22  -21.0165 26048.1 -03524.1 -07.7049 26285.4
 26 11 2013  12 23  -21.0167 26047.9 -03523.9 -07.7044 26285.2
 26 11 2013  12 24  -21.0179 26047.7 -03523.7 -07.7041 26285.0
 26 11 2013  12 25  -21.0176 26048.1 -03523.7 -07.7039 26285.4
 26 11 2013  12 26  -21.0154 26048.4 -03523.5 -07.7034 26285.6
 26 11 2013  12 27  -21.0150 26048.7 -03523.4 -07.7031 26285.9
 26 11 2013  12 28  -21.0132 26049.1 -03523.5 -07.7032 26286.3
 26 11 2013  12 29  -21.0130 26049.3 -03523.3 -07.7028 26286.5
 26 11 2013  12 30  -21.0130 26049.5 -03523.2 -07.7025 26286.7
 26 11 2013  12 31  -21.0129 26049.9 -03523.2 -07.7023 26287.1
 26 11 2013  12 32  -21.0127 26050.2 -03523.1 -07.7020 26287.4
 26 11 2013  12 33  -21.0126 26050.3 -03522.8 -07.7015 26287.4
 26 11 2013  12 34  -21.0126 26050.5 -03522.7 -07.7012 26287.6
 26 11 2013  12 35  -21.0122 26050.8 -03522.7 -07.7009 26287.9
 26 11 2013  12 36  -21.0118 26050.9 -03522.4 -07.7005 26288.0
 26 11 2013  12 37  -21.0113 26050.7 -03522.2 -07.7000 26287.8
 26 11 2013  12 38  -21.0112 26051.0 -03522.1 -07.6998 26288.0
 26 11 2013  12 39  -21.0116 26051.4 -03522.2 -07.6997 26288.5
 26 11 2013  12 40  -21.0117 26051.6 -03521.9 -07.6991 26288.6
 26 11 2013  12 41  -21.0123 26051.7 -03521.6 -07.6985 26288.6
 26 11 2013  12 42  -21.0126 26051.6 -03521.4 -07.6979 26288.5
 26 11 2013  12 43  -21.0119 26051.2 -03521.1 -07.6974 26288.1
 26 11 2013  12 44  -21.0111 26051.2 -03520.9 -07.6971 26288.1
 26 11 2013  12 45  -21.0110 26051.3 -03520.9 -07.6971 26288.2
 26 11 2013  12 46  -21.0109 26051.3 -03520.8 -07.6969 26288.1
 26 11 2013  12 47  -21.0107 26051.3 -03520.8 -07.6968 26288.1
 26 11 2013  12 48  -21.0105 26051.5 -03520.8 -07.6967 26288.4
 26 11 2013  12 49  -21.0107 26052.1 -03520.8 -07.6966 26288.9
 26 11 2013  12 50  -21.0112 26052.7 -03520.8 -07.6965 26289.5
 26 11 2013  12 51  -21.0116 26053.2 -03520.7 -07.6960 26290.1
 26 11 2013  12 52  -21.0120 26053.7 -03520.5 -07.6956 26290.4
 26 11 2013  12 53  -21.0122 26053.7 -03520.2 -07.6948 26290.4
 26 11 2013  12 54  -21.0124 26053.8 -03519.9 -07.6941 26290.5
 26 11 2013  12 55  -21.0125 26053.9 -03519.6 -07.6935 26290.6
 26 11 2013  12 56  -21.0124 26053.8 -03519.3 -07.6929 26290.4
 26 11 2013  12 57  -21.0120 26053.5 -03519.0 -07.6923 26290.1
 26 11 2013  12 58  -21.0118 26053.4 -03518.8 -07.6919 26290.0
 26 11 2013  12 59  -21.0120 26053.3 -03518.6 -07.6915 26289.9
 26 11 2013  13 00  -21.0120 26053.4 -03518.6 -07.6913 26289.9
 26 11 2013  13 01  -21.0117 26053.3 -03518.4 -07.6910 26289.8
 26 11 2013  13 02  -21.0117 26053.4 -03518.3 -07.6907 26289.9
 26 11 2013  13 03  -21.0117 26053.8 -03518.3 -07.6907 26290.2
 26 11 2013  13 04  -21.0117 26054.1 -03518.2 -07.6904 26290.6
 26 11 2013  13 05  -21.0118 26054.6 -03518.2 -07.6901 26291.1
 26 11 2013  13 06  -21.0121 26055.0 -03518.1 -07.6899 26291.5
 26 11 2013  13 07  -21.0118 26055.2 -03517.8 -07.6892 26291.6
 26 11 2013  13 08  -21.0115 26055.4 -03517.6 -07.6888 26291.7
 26 11 2013  13 09  -21.0114 26055.4 -03517.5 -07.6884 26291.8
 26 11 2013  13 10  -21.0113 26055.7 -03517.3 -07.6880 26292.0
 26 11 2013  13 11  -21.0113 26055.9 -03517.1 -07.6875 26292.2
 26 11 2013  13 12  -21.0116 26056.3 -03517.0 -07.6871 26292.6
 26 11 2013  13 13  -21.0119 26056.8 -03516.9 -07.6867 26293.1
 26 11 2013  13 14  -21.0122 26057.2 -03516.6 -07.6861 26293.4
 26 11 2013  13 15  -21.0123 26057.4 -03516.4 -07.6855 26293.6
 26 11 2013  13 16  -21.0123 26057.5 -03516.0 -07.6847 26293.7
 26 11 2013  13 17  -21.0120 26057.5 -03515.7 -07.6840 26293.6
 26 11 2013  13 18  -21.0118 26057.5 -03515.4 -07.6834 26293.5
 26 11 2013  13 19  -21.0117 26057.4 -03515.2 -07.6829 26293.4
 26 11 2013  13 20  -21.0117 26057.3 -03515.0 -07.6824 26293.4
 26 11 2013  13 21  -21.0115 26057.3 -03514.7 -07.6819 26293.3
 26 11 2013  13 22  -21.0114 26057.4 -03514.6 -07.6817 26293.4
 26 11 2013  13 23  -21.0114 26057.7 -03514.5 -07.6813 26293.6
 26 11 2013  13 24  -21.0115 26057.9 -03514.4 -07.6810 26293.9
 26 11 2013  13 25  -21.0114 26058.3 -03514.2 -07.6806 26294.2
 26 11 2013  13 26  -21.0113 26058.5 -03514.1 -07.6801 26294.4
 26 11 2013  13 27  -21.0111 26058.8 -03513.9 -07.6797 26294.6
 26 11 2013  13 28  -21.0109 26059.0 -03513.7 -07.6792 26294.8
 26 11 2013  13 29  -21.0111 26059.3 -03513.5 -07.6787 26295.0
 26 11 2013  13 30  -21.0111 26059.6 -03513.3 -07.6782 26295.4
 26 11 2013  13 31  -21.0110 26059.9 -03513.1 -07.6777 26295.6
 26 11 2013  13 32  -21.0109 26060.2 -03512.9 -07.6771 26295.9
 26 11 2013  13 33  -21.0107 26060.4 -03512.6 -07.6765 26296.1
 26 11 2013  13 34  -21.0106 26060.6 -03512.4 -07.6759 26296.3
 26 11 2013  13 35  -21.0103 26060.8 -03512.1 -07.6752 26296.3
 26 11 2013  13 36  -21.0103 26061.0 -03511.9 -07.6747 26296.5
 26 11 2013  13 37  -21.0101 26061.2 -03511.7 -07.6742 26296.7
 26 11 2013  13 38  -21.0098 26061.4 -03511.4 -07.6737 26296.9
 26 11 2013  13 39  -21.0096 26061.5 -03511.2 -07.6730 26297.0
 26 11 2013  13 40  -21.0095 26061.8 -03511.0 -07.6725 26297.2
 26 11 2013  13 41  -21.0093 26062.0 -03510.8 -07.6721 26297.4
 26 11 2013  13 42  -21.0091 26062.3 -03510.6 -07.6715 26297.7
 26 11 2013  13 43  -21.0089 26062.5 -03510.4 -07.6710 26297.8
 26 11 2013  13 44  -21.0087 26062.8 -03510.2 -07.6705 26298.1
 26 11 2013  13 45  -21.0083 26063.0 -03509.9 -07.6699 26298.3
 26 11 2013  13 46  -21.0080 26063.2 -03509.6 -07.6692 26298.4
 26 11 2013  13 47  -21.0076 26063.4 -03509.4 -07.6687 26298.6
 26 11 2013  13 48  -21.0071 26063.5 -03509.1 -07.6681 26298.7
 26 11 2013  13 49  -21.0066 26063.5 -03508.9 -07.6675 26298.7
 26 11 2013  13 50  -21.0061 26063.7 -03508.6 -07.6669 26298.8
 26 11 2013  13 51  -21.0057 26063.8 -03508.4 -07.6665 26298.9
 26 11 2013  13 52  -21.0053 26064.0 -03508.2 -07.6659 26299.0
 26 11 2013  13 53  -21.0049 26064.3 -03508.0 -07.6655 26299.3
 26 11 2013  13 54  -21.0043 26064.4 -03507.8 -07.6649 26299.4
 26 11 2013  13 55  -21.0037 26064.5 -03507.6 -07.6644 26299.5
 26 11 2013  13 56  -21.0032 26064.8 -03507.4 -07.6639 26299.7
 26 11 2013  13 57  -21.0026 26064.9 -03507.2 -07.6634 26299.8
 26 11 2013  13 58  -21.0022 26065.2 -03507.0 -07.6629 26300.1
 26 11 2013  13 59  -21.0017 26065.5 -03506.8 -07.6624 26300.3
 26 11 2013  14 00  -21.0011 26065.8 -03506.6 -07.6620 26300.6
 26 11 2013  14 01  -21.0006 26066.0 -03506.4 -07.6615 26300.8
 26 11 2013  14 02  -21.0001 26066.3 -03506.2 -07.6610 26301.1
 26 11 2013  14 03  -20.9996 26066.6 -03506.0 -07.6605 26301.3
 26 11 2013  14 04  -20.9989 26066.8 -03505.8 -07.6600 26301.5
 26 11 2013  14 05  -20.9986 26067.1 -03505.7 -07.6595 26301.8
 26 11 2013  14 06  -20.9985 26067.3 -03505.5 -07.6590 26302.0
 26 11 2013  14 07  -20.9982 26067.7 -03505.3 -07.6585 26302.3
 26 11 2013  14 08  -20.9978 26067.8 -03505.1 -07.6580 26302.4
 26 11 2013  14 09  -20.9977 26068.0 -03504.9 -07.6575 26302.6
 26 11 2013  14 10  -20.9974 26068.2 -03504.6 -07.6569 26302.8
 26 11 2013  14 11  -20.9971 26068.3 -03504.3 -07.6563 26302.8
 26 11 2013  14 12  -20.9969 26068.4 -03504.1 -07.6557 26302.8
 26 11 2013  14 13  -20.9966 26068.5 -03503.8 -07.6552 26302.9
 26 11 2013  14 14  -20.9964 26068.5 -03503.6 -07.6547 26302.9
 26 11 2013  14 15  -20.9963 26068.6 -03503.4 -07.6543 26302.9
 26 11 2013  14 16  -20.9961 26068.7 -03503.2 -07.6538 26303.0
 26 11 2013  14 17  -20.9959 26068.8 -03503.0 -07.6533 26303.1
 26 11 2013  14 18  -20.9957 26068.9 -03502.9 -07.6531 26303.2
 26 11 2013  14 19  -20.9955 26069.1 -03502.8 -07.6527 26303.3
 26 11 2013  14 20  -20.9952 26069.3 -03502.6 -07.6523 26303.6
 26 11 2013  14 21  -20.9951 26069.6 -03502.5 -07.6520 26303.9
 26 11 2013  14 22  -20.9948 26069.8 -03502.3 -07.6516 26304.0
 26 11 2013  14 23  -20.9944 26070.1 -03502.2 -07.6512 26304.3
 26 11 2013  14 24  -20.9943 26070.5 -03502.1 -07.6508 26304.7
 26 11 2013  14 25  -20.9941 26070.9 -03502.0 -07.6504 26305.0
 26 11 2013  14 26  -20.9939 26071.3 -03501.8 -07.6500 26305.4
 26 11 2013  14 27  -20.9935 26071.6 -03501.6 -07.6495 26305.7
 26 11 2013  14 28  -20.9931 26071.9 -03501.4 -07.6489 26306.0
 26 11 2013  14 29  -20.9929 26072.3 -03501.2 -07.6485 26306.3
 26 11 2013  14 30  -20.9924 26072.4 -03500.9 -07.6478 26306.4
 26 11 2013  14 31  -20.9921 26072.6 -03500.7 -07.6473 26306.6
 26 11 2013  14 32  -20.9919 26072.9 -03500.5 -07.6467 26306.8
 26 11 2013  14 33  -20.9916 26073.0 -03500.3 -07.6461 26306.9
 26 11 2013  14 34  -20.9915 26073.1 -03500.0 -07.6455 26307.0
 26 11 2013  14 35  -20.9915 26073.3 -03499.7 -07.6449 26307.1
 26 11 2013  14 36  -20.9912 26073.3 -03499.4 -07.6442 26307.1
 26 11 2013  14 37  -20.9909 26073.3 -03499.1 -07.6435 26307.0
 26 11 2013  14 38  -20.9903 26073.2 -03498.7 -07.6428 26306.9
 26 11 2013  14 39  -20.9898 26073.0 -03498.4 -07.6421 26306.7
 26 11 2013  14 40  -20.9890 26072.9 -03498.2 -07.6416 26306.6
 26 11 2013  14 41  -20.9884 26073.0 -03498.0 -07.6412 26306.6
 26 11 2013  14 42  -20.9878 26073.2 -03497.9 -07.6409 26306.8
 26 11 2013  14 43  -20.9873 26073.6 -03497.8 -07.6407 26307.2
 26 11 2013  14 44  -20.9868 26074.0 -03497.7 -07.6403 26307.5
 26 11 2013  14 45  -20.9862 26074.3 -03497.6 -07.6400 26307.9
 26 11 2013  14 46  -20.9854 26074.4 -03497.4 -07.6395 26307.9
 26 11 2013  14 47  -20.9847 26074.7 -03497.2 -07.6391 26308.1
 26 11 2013  14 48  -20.9843 26075.2 -03497.2 -07.6389 26308.7
 26 11 2013  14 49  -20.9840 26075.6 -03497.0 -07.6384 26309.0
 26 11 2013  14 50  -20.9836 26075.8 -03496.8 -07.6378 26309.2
 26 11 2013  14 51  -20.9831 26076.0 -03496.6 -07.6374 26309.4
 26 11 2013  14 52  -20.9827 26076.2 -03496.4 -07.6369 26309.6
 26 11 2013  14 53  -20.9825 26076.4 -03496.2 -07.6365 26309.7
 26 11 2013  14 54  -20.9823 26076.2 -03495.9 -07.6359 26309.5
 26 11 2013  14 55  -20.9819 26075.9 -03495.6 -07.6351 26309.2
 26 11 2013  14 56  -20.9814 26075.6 -03495.3 -07.6346 26308.8
 26 11 2013  14 57  -20.9813 26075.5 -03495.1 -07.6343 26308.7
 26 11 2013  14 58  -20.9811 26075.4 -03494.9 -07.6339 26308.6
 26 11 2013  14 59  -20.9811 26075.6 -03494.8 -07.6337 26308.7
 26 11 2013  15 00  -20.9809 26075.7 -03494.7 -07.6334 26308.8
 26 11 2013  15 01  -20.9806 26075.8 -03494.7 -07.6332 26309.0
 26 11 2013  15 02  -20.9802 26075.9 -03494.5 -07.6328 26309.0
 26 11 2013  15 03  -20.9796 26076.1 -03494.5 -07.6327 26309.2
 26 11 2013  15 04  -20.9791 26076.5 -03494.5 -07.6326 26309.6
 26 11 2013  15 05  -20.9786 26076.7 -03494.4 -07.6324 26309.8
 26 11 2013  15 06  -20.9783 26076.9 -03494.3 -07.6321 26310.0
 26 11 2013  15 07  -20.9782 26077.1 -03494.2 -07.6318 26310.2
 26 11 2013  15 08  -20.9776 26077.0 -03493.9 -07.6313 26310.1
 26 11 2013  15 09  -20.9770 26077.1 -03493.8 -07.6309 26310.1
 26 11 2013  15 10  -20.9767 26077.1 -03493.6 -07.6306 26310.1
 26 11 2013  15 11  -20.9766 26077.3 -03493.6 -07.6304 26310.3
 26 11 2013  15 12  -20.9765 26077.4 -03493.3 -07.6299 26310.3
 26 11 2013  15 13  -20.9764 26077.3 -03493.1 -07.6295 26310.2
 26 11 2013  15 14  -20.9761 26077.2 -03492.9 -07.6291 26310.1
 26 11 2013  15 15  -20.9759 26077.1 -03492.7 -07.6287 26310.0
 26 11 2013  15 16  -20.9758 26077.0 -03492.6 -07.6285 26309.8
 26 11 2013  15 17  -20.9756 26076.9 -03492.4 -07.6281 26309.7
 26 11 2013  15 18  -20.9754 26076.6 -03492.2 -07.6277 26309.4
 26 11 2013  15 19  -20.9755 26076.5 -03492.0 -07.6273 26309.2
 26 11 2013  15 20  -20.9750 26076.1 -03491.8 -07.6269 26308.8
 26 11 2013  15 21  -20.9747 26075.8 -03491.6 -07.6267 26308.5
 26 11 2013  15 22  -20.9745 26075.7 -03491.6 -07.6267 26308.5
 26 11 2013  15 23  -20.9747 26075.7 -03491.6 -07.6267 26308.5
 26 11 2013  15 24  -20.9751 26075.7 -03491.5 -07.6264 26308.4
 26 11 2013  15 25  -20.9755 26075.6 -03491.3 -07.6261 26308.3
 26 11 2013  15 26  -20.9758 26075.2 -03491.0 -07.6255 26307.9
 26 11 2013  15 27  -20.9756 26074.5 -03490.6 -07.6249 26307.1
 26 11 2013  15 28  -20.9750 26074.1 -03490.5 -07.6247 26306.7
 26 11 2013  15 29  -20.9745 26074.1 -03490.5 -07.6248 26306.7
 26 11 2013  15 30  -20.9745 26074.3 -03490.7 -07.6251 26306.9
 26 11 2013  15 31  -20.9748 26074.3 -03490.7 -07.6252 26306.9
 26 11 2013  15 32  -20.9748 26074.0 -03490.5 -07.6247 26306.6
 26 11 2013  15 33  -20.9746 26073.7 -03490.2 -07.6243 26306.2
 26 11 2013  15 34  -20.9743 26073.3 -03490.1 -07.6241 26305.9
 26 11 2013  15 35  -20.9745 26073.3 -03490.1 -07.6242 26305.8
 26 11 2013  15 36  -20.9747 26073.3 -03490.1 -07.6242 26305.8
 26 11 2013  15 37  -20.9747 26073.0 -03489.9 -07.6238 26305.6
 26 11 2013  15 38  -20.9745 26072.7 -03489.7 -07.6235 26305.2
 26 11 2013  15 39  -20.9740 26072.5 -03489.6 -07.6233 26305.0
 26 11 2013  15 40  -20.9739 26072.5 -03489.7 -07.6234 26305.0
 26 11 2013  15 41  -20.9738 26072.4 -03489.7 -07.6234 26305.0
 26 11 2013  15 42  -20.9735 26072.3 -03489.6 -07.6233 26304.8
 26 11 2013  15 43  -20.9734 26072.2 -03489.5 -07.6232 26304.6
 26 11 2013  15 44  -20.9734 26072.1 -03489.5 -07.6231 26304.5
 26 11 2013  15 45  -20.9735 26071.9 -03489.5 -07.6232 26304.4
 26 11 2013  15 46  -20.9735 26071.8 -03489.4 -07.6231 26304.3
 26 11 2013  15 47  -20.9735 26071.7 -03489.4 -07.6230 26304.1
 26 11 2013  15 48  -20.9735 26071.5 -03489.4 -07.6230 26304.0
 26 11 2013  15 49  -20.9737 26071.4 -03489.3 -07.6230 26303.8
 26 11 2013  15 50  -20.9737 26071.2 -03489.3 -07.6229 26303.7
 26 11 2013  15 51  -20.9737 26071.0 -03489.3 -07.6230 26303.5
 26 11 2013  15 52  -20.9738 26070.9 -03489.3 -07.6230 26303.4
 26 11 2013  15 53  -20.9738 26070.8 -03489.3 -07.6231 26303.2
 26 11 2013  15 54  -20.9740 26070.7 -03489.3 -07.6231 26303.1
 26 11 2013  15 55  -20.9739 26070.5 -03489.3 -07.6232 26303.0
 26 11 2013  15 56  -20.9738 26070.3 -03489.3 -07.6233 26302.8
 26 11 2013  15 57  -20.9734 26070.2 -03489.4 -07.6235 26302.6
 26 11 2013  15 58  -20.9733 26070.2 -03489.6 -07.6239 26302.7
 26 11 2013  15 59  -20.9733 26070.2 -03489.7 -07.6241 26302.7
 26 11 2013  16 00  -20.9733 26070.2 -03489.9 -07.6245 26302.8
 26 11 2013  16 01  -20.9732 26070.4 -03490.1 -07.6249 26302.9
 26 11 2013  16 02  -20.9728 26070.5 -03490.4 -07.6255 26303.2
 26 11 2013  16 03  -20.9728 26070.9 -03490.7 -07.6260 26303.6
 26 11 2013  16 04  -20.9731 26071.2 -03490.9 -07.6265 26303.8
 26 11 2013  16 05  -20.9731 26071.3 -03491.0 -07.6266 26303.9
 26 11 2013  16 06  -20.9731 26071.4 -03491.1 -07.6269 26304.1
 26 11 2013  16 07  -20.9730 26071.4 -03491.3 -07.6272 26304.1
 26 11 2013  16 08  -20.9731 26071.5 -03491.4 -07.6275 26304.2
 26 11 2013  16 09  -20.9734 26071.5 -03491.6 -07.6278 26304.3
 26 11 2013  16 10  -20.9736 26071.5 -03491.7 -07.6280 26304.3
 26 11 2013  16 11  -20.9736 26071.4 -03491.8 -07.6283 26304.2
 26 11 2013  16 12  -20.9736 26071.3 -03491.9 -07.6286 26304.1
 26 11 2013  16 13  -20.9735 26071.3 -03492.1 -07.6290 26304.1
 26 11 2013  16 14  -20.9736 26071.7 -03492.4 -07.6296 26304.5
 26 11 2013  16 15  -20.9741 26072.3 -03492.9 -07.6304 26305.3
 26 11 2013  16 16  -20.9744 26072.8 -03493.1 -07.6308 26305.8
 26 11 2013  16 17  -20.9750 26072.9 -03493.1 -07.6307 26305.8
 26 11 2013  16 18  -20.9754 26072.8 -03493.1 -07.6307 26305.8
 26 11 2013  16 19  -20.9753 26072.8 -03493.1 -07.6308 26305.8
 26 11 2013  16 20  -20.9757 26072.8 -03493.2 -07.6309 26305.8
 26 11 2013  16 21  -20.9749 26073.0 -03493.2 -07.6309 26305.9
 26 11 2013  16 22  -20.9744 26072.6 -03493.1 -07.6308 26305.6
 26 11 2013  16 23  -20.9744 26072.2 -03493.1 -07.6309 26305.2
 26 11 2013  16 24  -20.9746 26071.9 -03493.1 -07.6310 26304.9
 26 11 2013  16 25  -20.9750 26071.6 -03493.1 -07.6311 26304.6
 26 11 2013  16 26  -20.9750 26071.3 -03493.0 -07.6310 26304.2
 26 11 2013  16 27  -20.9759 26071.0 -03493.0 -07.6310 26303.9
 26 11 2013  16 28  -20.9771 26070.6 -03492.9 -07.6310 26303.6
 26 11 2013  16 29  -20.9772 26070.5 -03493.0 -07.6311 26303.5
 26 11 2013  16 30  -20.9772 26070.3 -03493.0 -07.6312 26303.3
 26 11 2013  16 31  -20.9775 26070.2 -03493.0 -07.6314 26303.1
 26 11 2013  16 32  -20.9778 26070.0 -03493.1 -07.6315 26303.0
 26 11 2013  16 33  -20.9784 26069.8 -03493.1 -07.6315 26302.8
 26 11 2013  16 34  -20.9791 26069.6 -03493.1 -07.6316 26302.6
 26 11 2013  16 35  -20.9789 26069.5 -03493.0 -07.6315 26302.5
 26 11 2013  16 36  -20.9790 26069.5 -03493.1 -07.6317 26302.5
 26 11 2013  16 37  -20.9789 26069.5 -03493.2 -07.6320 26302.5
 26 11 2013  16 38  -20.9791 26069.7 -03493.4 -07.6323 26302.7
 26 11 2013  16 39  -20.9790 26069.9 -03493.6 -07.6327 26303.0
 26 11 2013  16 40  -20.9785 26070.1 -03493.8 -07.6330 26303.2
 26 11 2013  16 41  -20.9784 26070.6 -03494.1 -07.6335 26303.7
 26 11 2013  16 42  -20.9786 26070.8 -03494.3 -07.6338 26304.0
 26 11 2013  16 43  -20.9789 26070.8 -03494.3 -07.6338 26304.0
 26 11 2013  16 44  -20.9791 26070.9 -03494.3 -07.6338 26304.0
 26 11 2013  16 45  -20.9794 26070.9 -03494.3 -07.6339 26304.0
 26 11 2013  16 46  -20.9797 26070.9 -03494.4 -07.6341 26304.1
 26 11 2013  16 47  -20.9802 26070.8 -03494.4 -07.6341 26304.0
 26 11 2013  16 48  -20.9807 26070.7 -03494.3 -07.6339 26303.8
 26 11 2013  16 49  -20.9813 26070.4 -03494.2 -07.6338 26303.5
 26 11 2013  16 50  -20.9816 26070.1 -03494.1 -07.6336 26303.2
 26 11 2013  16 51  -20.9819 26069.8 -03494.0 -07.6335 26302.9
 26 11 2013  16 52  -20.9822 26069.5 -03493.9 -07.6335 26302.6
 26 11 2013  16 53  -20.9824 26069.0 -03493.8 -07.6334 26302.1
 26 11 2013  16 54  -20.9824 26068.8 -03493.8 -07.6333 26301.9
 26 11 2013  16 55  -20.9827 26068.6 -03493.8 -07.6335 26301.7
 26 11 2013  16 56  -20.9838 26068.4 -03493.7 -07.6334 26301.5
 26 11 2013  16 57  -20.9849 26068.0 -03493.7 -07.6333 26301.0
 26 11 2013  16 58  -20.9850 26067.8 -03493.7 -07.6334 26300.9
 26 11 2013  16 59  -20.9851 26067.7 -03493.7 -07.6336 26300.7
 26 11 2013  17 00  -20.9853 26067.6 -03493.8 -07.6337 26300.7
 26 11 2013  17 01  -20.9840 26067.8 -03494.0 -07.6340 26300.9
 26 11 2013  17 02  -20.9839 26067.7 -03494.0 -07.6342 26300.8
 26 11 2013  17 03  -20.9839 26067.5 -03494.0 -07.6342 26300.7
 26 11 2013  17 04  -20.9839 26067.4 -03494.1 -07.6344 26300.5
 26 11 2013  17 05  -20.9841 26067.2 -03494.1 -07.6345 26300.4
 26 11 2013  17 06  -20.9842 26067.0 -03494.1 -07.6346 26300.1
 26 11 2013  17 07  -20.9844 26066.8 -03494.1 -07.6347 26300.0
 26 11 2013  17 08  -20.9845 26066.7 -03494.2 -07.6349 26299.9
 26 11 2013  17 09  -20.9846 26066.7 -03494.3 -07.6351 26299.8
 26 11 2013  17 10  -20.9849 26066.5 -03494.3 -07.6352 26299.7
 26 11 2013  17 11  -20.9851 26066.3 -03494.3 -07.6352 26299.5
 26 11 2013  17 12  -20.9853 26066.3 -03494.4 -07.6354 26299.4
 26 11 2013  17 13  -20.9857 26066.1 -03494.5 -07.6357 26299.3
 26 11 2013  17 14  -20.9861 26066.0 -03494.6 -07.6359 26299.2
 26 11 2013  17 15  -20.9865 26065.8 -03494.6 -07.6360 26299.0
 26 11 2013  17 16  -20.9877 26065.4 -03494.5 -07.6359 26298.6
 26 11 2013  17 17  -20.9868 26064.3 -03493.4 -07.6338 26297.3
 26 11 2013  17 18  -20.9858 26065.0 -03494.5 -07.6360 26298.2
 26 11 2013  17 19  -20.9868 26065.0 -03494.7 -07.6365 26298.2
 26 11 2013  17 20  -20.9872 26064.7 -03494.8 -07.6367 26298.0
 26 11 2013  17 21  -20.9882 26064.4 -03494.8 -07.6369 26297.6
 26 11 2013  17 22  -20.9885 26064.3 -03495.0 -07.6373 26297.5
 26 11 2013  17 23  -20.9887 26064.3 -03495.2 -07.6377 26297.6
 26 11 2013  17 24  -20.9889 26064.4 -03495.4 -07.6382 26297.8
 26 11 2013  17 25  -20.9888 26064.3 -03495.5 -07.6384 26297.7
 26 11 2013  17 26  -20.9892 26064.3 -03495.6 -07.6386 26297.6
 26 11 2013  17 27  -20.9896 26064.1 -03495.7 -07.6389 26297.5
 26 11 2013  17 28  -20.9901 26064.1 -03495.9 -07.6392 26297.5
 26 11 2013  17 29  -20.9907 26064.0 -03495.9 -07.6394 26297.4
 26 11 2013  17 30  -20.9911 26063.9 -03496.0 -07.6396 26297.3
 26 11 2013  17 31  -20.9913 26063.9 -03496.2 -07.6399 26297.3
 26 11 2013  17 32  -20.9916 26063.9 -03496.4 -07.6404 26297.4
 26 11 2013  17 33  -20.9919 26063.9 -03496.4 -07.6405 26297.4
 26 11 2013  17 34  -20.9926 26063.7 -03496.4 -07.6406 26297.2
 26 11 2013  17 35  -20.9929 26063.3 -03496.3 -07.6404 26296.7
 26 11 2013  17 36  -20.9928 26062.9 -03496.3 -07.6405 26296.3
 26 11 2013  17 37  -20.9929 26062.7 -03496.4 -07.6408 26296.2
 26 11 2013  17 38  -20.9933 26062.5 -03496.5 -07.6411 26296.0
 26 11 2013  17 39  -20.9941 26061.8 -03496.3 -07.6409 26295.3
 26 11 2013  17 40  -20.9939 26061.1 -03496.1 -07.6406 26294.5
 26 11 2013  17 41  -20.9935 26060.9 -03496.3 -07.6410 26294.4
 26 11 2013  17 42  -20.9941 26061.0 -03496.6 -07.6418 26294.5
 26 11 2013  17 43  -20.9953 26060.5 -03496.5 -07.6417 26294.0
 26 11 2013  17 44  -20.9957 26059.4 -03496.1 -07.6410 26292.8
 26 11 2013  17 45  -20.9953 26058.4 -03495.8 -07.6407 26291.9
 26 11 2013  17 46  -20.9953 26058.1 -03496.0 -07.6413 26291.6
 26 11 2013  17 47  -20.9955 26058.0 -03496.3 -07.6420 26291.5
 26 11 2013  17 48  -20.9962 26058.2 -03496.7 -07.6427 26291.7
 26 11 2013  17 49  -20.9967 26058.3 -03496.9 -07.6432 26291.9
 26 11 2013  17 50  -20.9969 26058.5 -03497.1 -07.6436 26292.1
 26 11 2013  17 51  -20.9971 26058.5 -03497.3 -07.6440 26292.2
 26 11 2013  17 52  -20.9973 26058.4 -03497.4 -07.6443 26292.1
 26 11 2013  17 53  -20.9975 26058.4 -03497.6 -07.6445 26292.1
 26 11 2013  17 54  -20.9979 26058.4 -03497.7 -07.6448 26292.1
 26 11 2013  17 55  -20.9984 26058.3 -03497.8 -07.6451 26292.0
 26 11 2013  17 56  -20.9988 26058.2 -03497.9 -07.6454 26291.9
 26 11 2013  17 57  -20.9990 26058.1 -03498.0 -07.6456 26291.9
 26 11 2013  17 58  -20.9993 26058.0 -03498.1 -07.6459 26291.8
 26 11 2013  17 59  -20.9996 26057.9 -03498.2 -07.6461 26291.7
 26 11 2013  18 00  -21.0000 26057.8 -03498.4 -07.6465 26291.6
 26 11 2013  18 01  -21.0003 26057.6 -03498.5 -07.6467 26291.4
 26 11 2013  18 02  -21.0005 26057.5 -03498.5 -07.6469 26291.3
 26 11 2013  18 03  -21.0007 26057.4 -03498.6 -07.6472 26291.2
 26 11 2013  18 04  -21.0011 26057.3 -03498.7 -07.6474 26291.1
 26 11 2013  18 05  -21.0016 26057.1 -03498.8 -07.6476 26291.0
 26 11 2013  18 06  -21.0019 26057.0 -03499.0 -07.6480 26290.9
 26 11 2013  18 07  -21.0022 26057.0 -03499.1 -07.6484 26290.9
 26 11 2013  18 08  -21.0025 26057.0 -03499.3 -07.6488 26291.0
 26 11 2013  18 09  -21.0027 26057.0 -03499.5 -07.6491 26290.9
 26 11 2013  18 10  -21.0031 26056.9 -03499.6 -07.6493 26290.9
 26 11 2013  18 11  -21.0036 26056.8 -03499.7 -07.6495 26290.7
 26 11 2013  18 12  -21.0039 26056.5 -03499.7 -07.6497 26290.5
 26 11 2013  18 13  -21.0040 26056.4 -03499.8 -07.6500 26290.4
 26 11 2013  18 14  -21.0041 26056.4 -03500.1 -07.6505 26290.4
 26 11 2013  18 15  -21.0047 26056.3 -03500.3 -07.6510 26290.3
 26 11 2013  18 16  -21.0049 26056.2 -03500.5 -07.6514 26290.3
 26 11 2013  18 17  -21.0048 26056.2 -03500.5 -07.6516 26290.3
 26 11 2013  18 18  -21.0049 26056.1 -03500.7 -07.6519 26290.3
 26 11 2013  18 19  -21.0050 26056.1 -03500.8 -07.6523 26290.3
 26 11 2013  18 20  -21.0051 26056.0 -03500.9 -07.6525 26290.2
 26 11 2013  18 21  -21.0053 26055.8 -03501.0 -07.6528 26290.0
 26 11 2013  18 22  -21.0048 26055.9 -03501.2 -07.6531 26290.0
 26 11 2013  18 23  -21.0036 26056.1 -03501.6 -07.6539 26290.3
 26 11 2013  18 24  -21.0038 26056.2 -03501.8 -07.6544 26290.5
 26 11 2013  18 25  -21.0039 26056.2 -03502.0 -07.6548 26290.4
 26 11 2013  18 26  -21.0037 26056.1 -03502.1 -07.6551 26290.4
 26 11 2013  18 27  -21.0046 26056.0 -03502.1 -07.6551 26290.3
 26 11 2013  18 28  -21.0048 26055.8 -03502.3 -07.6554 26290.2
 26 11 2013  18 29  -21.0040 26056.0 -03502.5 -07.6560 26290.3
 26 11 2013  18 30  -21.0038 26056.6 -03503.1 -07.6569 26291.1
 26 11 2013  18 31  -21.0046 26056.5 -03503.2 -07.6572 26290.9
 26 11 2013  18 32  -21.0047 26055.5 -03502.7 -07.6565 26289.8
 26 11 2013  18 33  -21.0040 26054.9 -03502.5 -07.6563 26289.3
 26 11 2013  18 34  -21.0032 26055.0 -03502.9 -07.6570 26289.4
 26 11 2013  18 35  -21.0033 26055.2 -03503.3 -07.6578 26289.7
 26 11 2013  18 36  -21.0036 26055.2 -03503.4 -07.6582 26289.7
 26 11 2013  18 37  -21.0034 26055.0 -03503.5 -07.6583 26289.5
 26 11 2013  18 38  -21.0022 26055.2 -03503.6 -07.6585 26289.8
 26 11 2013  18 39  -21.0001 26055.5 -03503.7 -07.6586 26290.0
 26 11 2013  18 40  -21.0003 26055.2 -03503.7 -07.6587 26289.7
 26 11 2013  18 41  -21.0001 26054.8 -03503.6 -07.6586 26289.3
 26 11 2013  18 42  -20.9999 26054.5 -03503.6 -07.6587 26289.0
 26 11 2013  18 43  -20.9996 26054.4 -03503.8 -07.6591 26289.0
 26 11 2013  18 44  -20.9997 26054.3 -03503.9 -07.6595 26288.9
 26 11 2013  18 45  -21.0001 26054.1 -03504.0 -07.6596 26288.7
 26 11 2013  18 46  -21.0002 26053.9 -03504.0 -07.6598 26288.4
 26 11 2013  18 47  -21.0001 26053.7 -03504.1 -07.6599 26288.3
 26 11 2013  18 48  -21.0001 26053.8 -03504.3 -07.6604 26288.4
 26 11 2013  18 49  -21.0003 26053.9 -03504.5 -07.6609 26288.5
 26 11 2013  18 50  -21.0007 26053.9 -03504.6 -07.6611 26288.6
 26 11 2013  18 51  -21.0008 26053.9 -03504.7 -07.6613 26288.5
 26 11 2013  18 52  -21.0005 26054.0 -03504.8 -07.6616 26288.6
 26 11 2013  18 53  -21.0004 26054.1 -03505.1 -07.6620 26288.9
 26 11 2013  18 54  -21.0005 26054.2 -03505.2 -07.6624 26288.9
 26 11 2013  18 55  -21.0009 26054.1 -03505.3 -07.6625 26288.9
 26 11 2013  18 56  -21.0017 26053.9 -03505.3 -07.6626 26288.7
 26 11 2013  18 57  -21.0019 26053.7 -03505.4 -07.6627 26288.5
 26 11 2013  18 58  -21.0021 26053.5 -03505.4 -07.6629 26288.2
 26 11 2013  18 59  -21.0027 26053.2 -03505.4 -07.6631 26288.0
 26 11 2013  19 00  -21.0031 26052.8 -03505.4 -07.6631 26287.6
 26 11 2013  19 01  -21.0034 26052.5 -03505.4 -07.6632 26287.3
 26 11 2013  19 02  -21.0037 26052.4 -03505.5 -07.6634 26287.1
 26 11 2013  19 03  -21.0038 26052.2 -03505.5 -07.6635 26287.0
 26 11 2013  19 04  -21.0038 26052.0 -03505.5 -07.6635 26286.8
 26 11 2013  19 05  -21.0041 26051.9 -03505.6 -07.6637 26286.7
 26 11 2013  19 06  -21.0045 26051.8 -03505.6 -07.6638 26286.6
 26 11 2013  19 07  -21.0049 26051.7 -03505.7 -07.6640 26286.5
 26 11 2013  19 08  -21.0052 26051.6 -03505.7 -07.6641 26286.4
 26 11 2013  19 09  -21.0058 26051.4 -03505.8 -07.6643 26286.2
 26 11 2013  19 10  -21.0068 26051.1 -03505.8 -07.6644 26285.9
 26 11 2013  19 11  -21.0069 26050.6 -03505.5 -07.6640 26285.4
 26 11 2013  19 12  -21.0076 26049.8 -03505.3 -07.6637 26284.6
 26 11 2013  19 13  -21.0075 26049.4 -03505.2 -07.6637 26284.2
 26 11 2013  19 14  -21.0074 26049.5 -03505.4 -07.6642 26284.3
 26 11 2013  19 15  -21.0076 26049.5 -03505.7 -07.6647 26284.4
 26 11 2013  19 16  -21.0079 26049.5 -03505.8 -07.6649 26284.3
 26 11 2013  19 17  -21.0082 26049.2 -03505.7 -07.6648 26284.1
 26 11 2013  19 18  -21.0081 26049.3 -03505.8 -07.6649 26284.1
 26 11 2013  19 19  -21.0081 26049.6 -03506.0 -07.6654 26284.5
 26 11 2013  19 20  -21.0083 26049.8 -03506.3 -07.6658 26284.7
 26 11 2013  19 21  -21.0087 26049.7 -03506.3 -07.6659 26284.6
 26 11 2013  19 22  -21.0087 26049.6 -03506.2 -07.6658 26284.5
 26 11 2013  19 23  -21.0088 26049.6 -03506.3 -07.6659 26284.5
 26 11 2013  19 24  -21.0089 26049.5 -03506.3 -07.6661 26284.4
 26 11 2013  19 25  -21.0091 26049.3 -03506.3 -07.6660 26284.3
 26 11 2013  19 26  -21.0093 26049.2 -03506.3 -07.6660 26284.1
 26 11 2013  19 27  -21.0094 26049.2 -03506.3 -07.6660 26284.1
 26 11 2013  19 28  -21.0098 26049.0 -03506.3 -07.6661 26283.9
 26 11 2013  19 29  -21.0101 26048.8 -03506.2 -07.6660 26283.7
 26 11 2013  19 30  -21.0102 26048.6 -03506.2 -07.6660 26283.5
 26 11 2013  19 31  -21.0103 26048.4 -03506.1 -07.6659 26283.3
 26 11 2013  19 32  -21.0104 26048.3 -03506.1 -07.6660 26283.2
 26 11 2013  19 33  -21.0105 26048.2 -03506.1 -07.6660 26283.1
 26 11 2013  19 34  -21.0107 26048.0 -03506.0 -07.6659 26282.9
 26 11 2013  19 35  -21.0108 26047.9 -03506.0 -07.6659 26282.8
 26 11 2013  19 36  -21.0109 26047.8 -03506.1 -07.6660 26282.7
 26 11 2013  19 37  -21.0108 26047.8 -03506.1 -07.6661 26282.7
 26 11 2013  19 38  -21.0109 26047.6 -03506.1 -07.6661 26282.5
 26 11 2013  19 39  -21.0110 26047.4 -03506.0 -07.6661 26282.3
 26 11 2013  19 40  -21.0111 26047.3 -03506.0 -07.6660 26282.2
 26 11 2013  19 41  -21.0109 26047.2 -03506.0 -07.6660 26282.1
 26 11 2013  19 42  -21.0111 26047.0 -03506.0 -07.6661 26281.9
 26 11 2013  19 43  -21.0110 26046.9 -03506.0 -07.6661 26281.8
 26 11 2013  19 44  -21.0113 26046.8 -03506.0 -07.6662 26281.7
 26 11 2013  19 45  -21.0113 26046.8 -03506.2 -07.6665 26281.7
 26 11 2013  19 46  -21.0124 26046.7 -03506.3 -07.6668 26281.7
 26 11 2013  19 47  -21.0142 26045.8 -03505.6 -07.6656 26280.6
 26 11 2013  19 48  -21.0161 26046.8 -03506.7 -07.6676 26281.8
 26 11 2013  19 49  -21.0143 26046.6 -03506.6 -07.6676 26281.6
 26 11 2013  19 50  -21.0130 26046.7 -03506.7 -07.6676 26281.7
 26 11 2013  19 51  -21.0131 26046.6 -03506.8 -07.6678 26281.6
 26 11 2013  19 52  -21.0130 26046.4 -03506.7 -07.6678 26281.4
 26 11 2013  19 53  -21.0130 26046.3 -03506.7 -07.6679 26281.3
 26 11 2013  19 54  -21.0129 26046.3 -03506.8 -07.6680 26281.3
 26 11 2013  19 55  -21.0127 26046.3 -03506.9 -07.6682 26281.3
 26 11 2013  19 56  -21.0128 26046.2 -03506.9 -07.6684 26281.2
 26 11 2013  19 57  -21.0129 26045.9 -03506.9 -07.6683 26281.0
 26 11 2013  19 58  -21.0128 26045.8 -03506.9 -07.6683 26280.8
 26 11 2013  19 59  -21.0126 26045.7 -03506.9 -07.6685 26280.8
 26 11 2013  20 00  -21.0124 26045.9 -03507.1 -07.6687 26280.9
 26 11 2013  20 01  -21.0113 26046.3 -03507.1 -07.6686 26281.3
 26 11 2013  20 02  -21.0104 26046.1 -03507.4 -07.6693 26281.2
 26 11 2013  20 03  -21.0102 26046.5 -03507.7 -07.6698 26281.7
 26 11 2013  20 04  -21.0099 26046.8 -03507.9 -07.6702 26281.9
 26 11 2013  20 05  -21.0098 26046.7 -03507.9 -07.6703 26281.9
 26 11 2013  20 06  -21.0095 26046.9 -03508.0 -07.6705 26282.1
 26 11 2013  20 07  -21.0094 26046.8 -03508.1 -07.6706 26282.0
 26 11 2013  20 08  -21.0093 26046.7 -03508.1 -07.6707 26281.9
 26 11 2013  20 09  -21.0092 26046.6 -03508.0 -07.6706 26281.8
 26 11 2013  20 10  -21.0093 26046.4 -03508.0 -07.6705 26281.5
 26 11 2013  20 11  -21.0092 26046.2 -03507.9 -07.6705 26281.4
 26 11 2013  20 12  -21.0092 26046.1 -03508.0 -07.6706 26281.3
 26 11 2013  20 13  -21.0093 26045.7 -03507.9 -07.6705 26280.9
 26 11 2013  20 14  -21.0093 26045.6 -03507.9 -07.6705 26280.8
 26 11 2013  20 15  -21.0092 26045.4 -03507.8 -07.6705 26280.6
 26 11 2013  20 16  -21.0092 26045.4 -03507.9 -07.6707 26280.6
 26 11 2013  20 17  -21.0092 26045.3 -03507.9 -07.6706 26280.5
 26 11 2013  20 18  -21.0092 26045.3 -03508.0 -07.6708 26280.5
 26 11 2013  20 19  -21.0091 26045.2 -03508.0 -07.6710 26280.4
 26 11 2013  20 20  -21.0090 26045.1 -03508.0 -07.6710 26280.3
 26 11 2013  20 21  -21.0091 26044.9 -03508.0 -07.6710 26280.1
 26 11 2013  20 22  -21.0092 26044.7 -03508.0 -07.6710 26279.9
 26 11 2013  20 23  -21.0090 26044.6 -03508.0 -07.6710 26279.8
 26 11 2013  20 24  -21.0089 26044.5 -03508.0 -07.6711 26279.7
 26 11 2013  20 25  -21.0088 26044.3 -03508.0 -07.6711 26279.5
 26 11 2013  20 26  -21.0087 26044.2 -03508.0 -07.6711 26279.4
 26 11 2013  20 27  -21.0088 26044.0 -03508.0 -07.6712 26279.2
 26 11 2013  20 28  -21.0087 26043.9 -03508.0 -07.6713 26279.1
 26 11 2013  20 29  -21.0087 26043.7 -03508.0 -07.6714 26278.9
 26 11 2013  20 30  -21.0086 26043.6 -03508.0 -07.6713 26278.8
 26 11 2013  20 31  -21.0086 26043.4 -03508.0 -07.6714 26278.6
 26 11 2013  20 32  -21.0085 26043.3 -03508.0 -07.6714 26278.5
 26 11 2013  20 33  -21.0084 26043.2 -03507.9 -07.6714 26278.4
 26 11 2013  20 34  -21.0083 26043.0 -03507.9 -07.6714 26278.2
 26 11 2013  20 35  -21.0082 26042.9 -03507.9 -07.6714 26278.1
 26 11 2013  20 36  -21.0082 26042.8 -03508.0 -07.6715 26278.0
 26 11 2013  20 37  -21.0081 26042.6 -03507.9 -07.6715 26277.8
 26 11 2013  20 38  -21.0079 26042.5 -03507.9 -07.6716 26277.7
 26 11 2013  20 39  -21.0079 26042.4 -03507.9 -07.6716 26277.6
 26 11 2013  20 40  -21.0082 26042.0 -03507.9 -07.6716 26277.2
 26 11 2013  20 41  -21.0086 26041.2 -03507.5 -07.6711 26276.4
 26 11 2013  20 42  -21.0086 26041.1 -03507.5 -07.6710 26276.2
 26 11 2013  20 43  -21.0086 26040.5 -03507.3 -07.6707 26275.6
 26 11 2013  20 44  -21.0084 26040.5 -03507.3 -07.6708 26275.6
 26 11 2013  20 45  -21.0082 26040.3 -03507.2 -07.6707 26275.4
 26 11 2013  20 46  -21.0079 26040.3 -03507.3 -07.6708 26275.4
 26 11 2013  20 47  -21.0073 26040.8 -03507.6 -07.6712 26276.0
 26 11 2013  20 48  -21.0068 26041.1 -03507.8 -07.6717 26276.3
 26 11 2013  20 49  -21.0067 26041.0 -03507.8 -07.6717 26276.2
 26 11 2013  20 50  -21.0066 26041.1 -03507.9 -07.6720 26276.3
 26 11 2013  20 51  -21.0064 26040.7 -03507.8 -07.6718 26275.9
 26 11 2013  20 52  -21.0064 26040.3 -03507.7 -07.6717 26275.5
 26 11 2013  20 53  -21.0063 26040.3 -03507.7 -07.6717 26275.5
 26 11 2013  20 54  -21.0062 26040.2 -03507.7 -07.6718 26275.3
 26 11 2013  20 55  -21.0060 26039.9 -03507.7 -07.6717 26275.1
 26 11 2013  20 56  -21.0057 26039.9 -03507.7 -07.6719 26275.1
 26 11 2013  20 57  -21.0055 26039.9 -03507.9 -07.6722 26275.2
 26 11 2013  20 58  -21.0056 26039.6 -03507.8 -07.6722 26274.8
 26 11 2013  20 59  -21.0060 26039.4 -03507.8 -07.6723 26274.6
 26 11 2013  21 00  -21.0060 26039.0 -03507.8 -07.6723 26274.3
 26 11 2013  21 01  -21.0059 26039.1 -03507.9 -07.6725 26274.3
 26 11 2013  21 02  -21.0058 26039.0 -03507.8 -07.6723 26274.2
 26 11 2013  21 03  -21.0060 26038.8 -03508.0 -07.6728 26274.1
 26 11 2013  21 04  -21.0064 26038.6 -03508.1 -07.6731 26273.8
 26 11 2013  21 05  -21.0067 26038.2 -03508.1 -07.6732 26273.5
 26 11 2013  21 06  -21.0070 26037.9 -03508.1 -07.6732 26273.2
 26 11 2013  21 07  -21.0072 26037.5 -03507.9 -07.6730 26272.7
 26 11 2013  21 08  -21.0072 26037.1 -03507.8 -07.6729 26272.4
 26 11 2013  21 09  -21.0069 26037.1 -03507.8 -07.6729 26272.3
 26 11 2013  21 10  -21.0065 26037.1 -03507.9 -07.6731 26272.3
 26 11 2013  21 11  -21.0061 26037.5 -03508.1 -07.6735 26272.8
 26 11 2013  21 12  -21.0060 26037.8 -03508.4 -07.6739 26273.1
 26 11 2013  21 13  -21.0062 26037.7 -03508.5 -07.6741 26273.0
 26 11 2013  21 14  -21.0063 26037.6 -03508.5 -07.6742 26272.9
 26 11 2013  21 15  -21.0059 26037.5 -03508.4 -07.6741 26272.8
 26 11 2013  21 16  -21.0054 26037.5 -03508.4 -07.6741 26272.8
 26 11 2013  21 17  -21.0050 26037.2 -03508.4 -07.6741 26272.5
 26 11 2013  21 18  -21.0050 26036.7 -03508.2 -07.6738 26272.0
 26 11 2013  21 19  -21.0047 26036.3 -03508.1 -07.6738 26271.6
 26 11 2013  21 20  -21.0042 26036.0 -03508.0 -07.6737 26271.3
 26 11 2013  21 21  -21.0040 26035.9 -03508.1 -07.6738 26271.2
 26 11 2013  21 22  -21.0038 26035.7 -03508.1 -07.6740 26271.0
 26 11 2013  21 23  -21.0035 26035.7 -03508.2 -07.6742 26271.0
 26 11 2013  21 24  -21.0033 26035.7 -03508.4 -07.6745 26271.0
 26 11 2013  21 25  -21.0033 26035.7 -03508.5 -07.6747 26271.0
 26 11 2013  21 26  -21.0034 26035.1 -03508.3 -07.6746 26270.4
 26 11 2013  21 27  -21.0035 26034.6 -03508.1 -07.6743 26269.9
 26 11 2013  21 28  -21.0035 26034.6 -03508.3 -07.6746 26269.9
 26 11 2013  21 29  -21.0029 26034.4 -03508.2 -07.6746 26269.7
 26 11 2013  21 30  -21.0025 26035.0 -03508.6 -07.6752 26270.3
 26 11 2013  21 31  -21.0020 26035.2 -03508.8 -07.6756 26270.6
 26 11 2013  21 32  -21.0015 26035.9 -03509.3 -07.6764 26271.3
 26 11 2013  21 33  -21.0016 26036.3 -03509.7 -07.6771 26271.8
 26 11 2013  21 34  -21.0020 26036.4 -03509.8 -07.6774 26271.9
 26 11 2013  21 35  -21.0024 26036.4 -03509.9 -07.6776 26271.9
 26 11 2013  21 36  -21.0020 26036.5 -03509.9 -07.6777 26272.0
 26 11 2013  21 37  -21.0015 26036.6 -03510.0 -07.6777 26272.2
 26 11 2013  21 38  -21.0011 26036.6 -03510.0 -07.6778 26272.1
 26 11 2013  21 39  -21.0009 26036.6 -03510.0 -07.6779 26272.1
 26 11 2013  21 40  -21.0006 26036.7 -03510.2 -07.6781 26272.3
 26 11 2013  21 41  -21.0001 26037.3 -03510.4 -07.6785 26272.8
 26 11 2013  21 42  -20.9997 26037.7 -03510.7 -07.6789 26273.3
 26 11 2013  21 43  -20.9999 26037.8 -03510.8 -07.6792 26273.4
 26 11 2013  21 44  -21.0001 26037.9 -03510.9 -07.6793 26273.5
 26 11 2013  21 45  -20.9996 26038.3 -03511.1 -07.6796 26274.0
 26 11 2013  21 46  -20.9990 26038.6 -03511.2 -07.6798 26274.3
 26 11 2013  21 47  -20.9989 26038.7 -03511.3 -07.6800 26274.4
 26 11 2013  21 48  -20.9987 26038.4 -03511.2 -07.6798 26274.0
 26 11 2013  21 49  -20.9988 26037.9 -03511.0 -07.6794 26273.5
 26 11 2013  21 50  -20.9991 26037.3 -03510.7 -07.6790 26272.9
 26 11 2013  21 51  -20.9993 26036.8 -03510.4 -07.6786 26272.4
 26 11 2013  21 52  -20.9993 26036.3 -03510.2 -07.6783 26271.9
 26 11 2013  21 53  -20.9992 26036.2 -03510.2 -07.6782 26271.8
 26 11 2013  21 54  -20.9991 26036.1 -03510.2 -07.6783 26271.7
 26 11 2013  21 55  -20.9991 26036.1 -03510.3 -07.6784 26271.7
 26 11 2013  21 56  -20.9991 26036.2 -03510.4 -07.6786 26271.8
 26 11 2013  21 57  -20.9990 26036.4 -03510.5 -07.6789 26272.0
 26 11 2013  21 58  -20.9990 26036.5 -03510.6 -07.6791 26272.1
 26 11 2013  21 59  -20.9989 26036.4 -03510.6 -07.6792 26272.0
 26 11 2013  22 00  -20.9989 26036.5 -03510.7 -07.6793 26272.1
 26 11 2013  22 01  -20.9988 26036.5 -03510.7 -07.6794 26272.1
 26 11 2013  22 02  -20.9987 26036.6 -03510.8 -07.6794 26272.2
 26 11 2013  22 03  -20.9986 26036.7 -03510.9 -07.6797 26272.3
 26 11 2013  22 04  -20.9986 26036.7 -03510.9 -07.6797 26272.3
 26 11 2013  22 05  -20.9988 26036.7 -03511.0 -07.6799 26272.3
 26 11 2013  22 06  -20.9989 26036.7 -03511.0 -07.6799 26272.3
 26 11 2013  22 07  -20.9989 26036.5 -03510.9 -07.6798 26272.2
 26 11 2013  22 08  -20.9990 26036.3 -03510.9 -07.6797 26272.0
 26 11 2013  22 09  -20.9988 26036.3 -03510.9 -07.6797 26271.9
 26 11 2013  22 10  -20.9986 26036.5 -03510.9 -07.6798 26272.2
 26 11 2013  22 11  -20.9987 26036.8 -03511.2 -07.6803 26272.5
 26 11 2013  22 12  -20.9988 26036.9 -03511.3 -07.6804 26272.6
 26 11 2013  22 13  -20.9988 26037.0 -03511.3 -07.6805 26272.7
 26 11 2013  22 14  -20.9987 26037.2 -03511.5 -07.6807 26272.9
 26 11 2013  22 15  -20.9986 26037.2 -03511.5 -07.6808 26273.0
 26 11 2013  22 16  -20.9987 26037.3 -03511.5 -07.6808 26273.0
 26 11 2013  22 17  -20.9987 26037.2 -03511.5 -07.6808 26273.0
 26 11 2013  22 18  -20.9984 26037.4 -03511.6 -07.6809 26273.1
 26 11 2013  22 19  -20.9983 26037.6 -03511.7 -07.6812 26273.3
 26 11 2013  22 20  -20.9982 26037.7 -03511.8 -07.6813 26273.4
 26 11 2013  22 21  -20.9984 26037.7 -03511.8 -07.6813 26273.4
 26 11 2013  22 22  -20.9985 26037.6 -03511.8 -07.6813 26273.3
 26 11 2013  22 23  -20.9985 26037.6 -03511.8 -07.6813 26273.3
 26 11 2013  22 24  -20.9985 26037.6 -03511.8 -07.6814 26273.4
 26 11 2013  22 25  -20.9984 26037.6 -03511.8 -07.6814 26273.3
 26 11 2013  22 26  -20.9982 26037.7 -03511.9 -07.6815 26273.5
 26 11 2013  22 27  -20.9982 26037.7 -03511.9 -07.6816 26273.5
 26 11 2013  22 28  -20.9986 26037.7 -03511.9 -07.6816 26273.4
 26 11 2013  22 29  -20.9990 26037.5 -03511.9 -07.6817 26273.3
 26 11 2013  22 30  -20.9990 26037.4 -03511.9 -07.6816 26273.1
 26 11 2013  22 31  -20.9986 26037.3 -03511.8 -07.6814 26273.0
 26 11 2013  22 32  -20.9984 26037.4 -03511.9 -07.6815 26273.1
 26 11 2013  22 33  -20.9983 26037.4 -03512.0 -07.6817 26273.2
 26 11 2013  22 34  -20.9982 26037.5 -03512.0 -07.6819 26273.3
 26 11 2013  22 35  -20.9984 26037.5 -03512.1 -07.6820 26273.3
 26 11 2013  22 36  -20.9984 26037.6 -03512.2 -07.6822 26273.4
 26 11 2013  22 37  -20.9984 26037.6 -03512.2 -07.6822 26273.4
 26 11 2013  22 38  -20.9982 26037.6 -03512.3 -07.6823 26273.4
 26 11 2013  22 39  -20.9981 26037.5 -03512.3 -07.6824 26273.4
 26 11 2013  22 40  -20.9980 26037.4 -03512.3 -07.6824 26273.3
 26 11 2013  22 41  -20.9978 26037.4 -03512.3 -07.6824 26273.2
 26 11 2013  22 42  -20.9977 26037.4 -03512.3 -07.6825 26273.2
 26 11 2013  22 43  -20.9976 26037.4 -03512.3 -07.6826 26273.2
 26 11 2013  22 44  -20.9974 26037.3 -03512.3 -07.6825 26273.1
 26 11 2013  22 45  -20.9972 26037.3 -03512.3 -07.6826 26273.2
 26 11 2013  22 46  -20.9971 26037.4 -03512.4 -07.6827 26273.2
 26 11 2013  22 47  -20.9972 26037.4 -03512.5 -07.6829 26273.3
 26 11 2013  22 48  -20.9972 26037.4 -03512.5 -07.6830 26273.3
 26 11 2013  22 49  -20.9970 26037.4 -03512.5 -07.6830 26273.2
 26 11 2013  22 50  -20.9968 26037.4 -03512.5 -07.6830 26273.2
 26 11 2013  22 51  -20.9966 26037.3 -03512.5 -07.6830 26273.2
 26 11 2013  22 52  -20.9965 26037.3 -03512.5 -07.6830 26273.1
 26 11 2013  22 53  -20.9964 26037.3 -03512.5 -07.6831 26273.1
 26 11 2013  22 54  -20.9962 26037.3 -03512.6 -07.6831 26273.2
 26 11 2013  22 55  -20.9960 26037.4 -03512.6 -07.6832 26273.3
 26 11 2013  22 56  -20.9959 26037.4 -03512.6 -07.6832 26273.3
 26 11 2013  22 57  -20.9960 26037.3 -03512.6 -07.6832 26273.2
 26 11 2013  22 58  -20.9959 26037.2 -03512.5 -07.6830 26273.1
 26 11 2013  22 59  -20.9958 26037.2 -03512.5 -07.6830 26273.0
 26 11 2013  23 00  -20.9956 26037.0 -03512.4 -07.6829 26272.9
 26 11 2013  23 01  -20.9956 26036.9 -03512.4 -07.6828 26272.8
 26 11 2013  23 02  -20.9956 26036.7 -03512.3 -07.6827 26272.6
 26 11 2013  23 03  -20.9955 26036.7 -03512.3 -07.6826 26272.5
 26 11 2013  23 04  -20.9954 26036.8 -03512.3 -07.6826 26272.6
 26 11 2013  23 05  -20.9954 26036.8 -03512.3 -07.6827 26272.6
 26 11 2013  23 06  -20.9957 26036.8 -03512.3 -07.6826 26272.6
 26 11 2013  23 07  -20.9951 26036.4 -03512.2 -07.6825 26272.3
 26 11 2013  23 08  -20.9954 26036.7 -03512.2 -07.6825 26272.5
 26 11 2013  23 09  -20.9955 26036.5 -03512.2 -07.6825 26272.3
 26 11 2013  23 10  -20.9952 26036.5 -03512.2 -07.6825 26272.3
 26 11 2013  23 11  -20.9950 26036.7 -03512.3 -07.6826 26272.6
 26 11 2013  23 12  -20.9946 26037.0 -03512.4 -07.6829 26272.9
 26 11 2013  23 13  -20.9944 26037.5 -03512.7 -07.6832 26273.3
 26 11 2013  23 14  -20.9947 26037.8 -03512.9 -07.6837 26273.7
 26 11 2013  23 15  -20.9950 26038.1 -03513.0 -07.6839 26274.0
 26 11 2013  23 16  -20.9953 26038.1 -03513.0 -07.6839 26274.0
 26 11 2013  23 17  -20.9953 26038.2 -03513.0 -07.6838 26274.1
 26 11 2013  23 18  -20.9954 26038.1 -03513.0 -07.6837 26274.0
 26 11 2013  23 19  -20.9952 26038.1 -03512.9 -07.6836 26274.0
 26 11 2013  23 20  -20.9950 26038.1 -03512.8 -07.6835 26273.9
 26 11 2013  23 21  -20.9950 26038.1 -03512.8 -07.6834 26274.0
 26 11 2013  23 22  -20.9949 26038.0 -03512.8 -07.6834 26273.8
 26 11 2013  23 23  -20.9946 26037.9 -03512.7 -07.6832 26273.8
 26 11 2013  23 24  -20.9947 26037.9 -03512.7 -07.6832 26273.8
 26 11 2013  23 25  -20.9951 26037.9 -03512.7 -07.6833 26273.8
 26 11 2013  23 26  -20.9954 26037.6 -03512.6 -07.6831 26273.5
 26 11 2013  23 27  -20.9957 26037.5 -03512.5 -07.6829 26273.3
 26 11 2013  23 28  -20.9958 26037.4 -03512.5 -07.6829 26273.3
 26 11 2013  23 29  -20.9956 26037.3 -03512.4 -07.6827 26273.1
 26 11 2013  23 30  -20.9954 26037.2 -03512.3 -07.6826 26273.0
 26 11 2013  23 31  -20.9951 26037.3 -03512.4 -07.6827 26273.1
 26 11 2013  23 32  -20.9950 26037.3 -03512.4 -07.6827 26273.1
 26 11 2013  23 33  -20.9949 26037.3 -03512.4 -07.6827 26273.2
 26 11 2013  23 34  -20.9948 26037.3 -03512.4 -07.6828 26273.2
 26 11 2013  23 35  -20.9948 26037.2 -03512.4 -07.6827 26273.1
 26 11 2013  23 36  -20.9952 26037.1 -03512.3 -07.6827 26272.9
 26 11 2013  23 37  -20.9953 26036.9 -03512.3 -07.6826 26272.7
 26 11 2013  23 38  -20.9956 26036.6 -03512.2 -07.6824 26272.4
 26 11 2013  23 39  -20.9959 26036.4 -03512.1 -07.6822 26272.2
 26 11 2013  23 40  -20.9960 26036.2 -03512.0 -07.6822 26272.0
 26 11 2013  23 41  -20.9962 26036.1 -03511.9 -07.6820 26271.9
 26 11 2013  23 42  -20.9960 26035.9 -03511.8 -07.6819 26271.7
 26 11 2013  23 43  -20.9959 26035.8 -03511.8 -07.6818 26271.5
 26 11 2013  23 44  -20.9959 26035.7 -03511.8 -07.6818 26271.5
 26 11 2013  23 45  -20.9957 26035.7 -03511.8 -07.6819 26271.5
 26 11 2013  23 46  -20.9957 26035.9 -03511.9 -07.6821 26271.7
 26 11 2013  23 47  -20.9958 26036.0 -03512.0 -07.6823 26271.8
 26 11 2013  23 48  -20.9959 26036.1 -03512.1 -07.6825 26271.9
 26 11 2013  23 49  -20.9958 26036.2 -03512.2 -07.6826 26272.0
 26 11 2013  23 50  -20.9955 26036.2 -03512.2 -07.6827 26272.1
 26 11 2013  23 51  -20.9954 26036.3 -03512.2 -07.6827 26272.1
 26 11 2013  23 52  -20.9957 26036.2 -03512.3 -07.6828 26272.1
 26 11 2013  23 53  -20.9957 26036.1 -03512.2 -07.6827 26272.0
 26 11 2013  23 54  -20.9956 26035.9 -03512.1 -07.6826 26271.8
 26 11 2013  23 55  -20.9957 26035.8 -03512.1 -07.6825 26271.6
 26 11 2013  23 56  -20.9958 26035.7 -03512.0 -07.6824 26271.5
 26 11 2013  23 57  -20.9959 26035.5 -03512.0 -07.6824 26271.3
