SAO LUIS EMBRACE-03 <173> 1 Min. Reported data

 DD MM YYYY  HH MM   D(Deg)  H(nT)   Z(nT)   I(Deg)   F(nT)

 22 06 2013  00 00  -21.0445 26018.5 -03452.5 -07.5586 26246.6
 22 06 2013  00 01  -21.0443 26019.4 -03452.9 -07.5593 26247.5
 22 06 2013  00 02  -21.0441 26020.2 -03453.3 -07.5599 26248.3
 22 06 2013  00 03  -21.0437 26021.3 -03453.7 -07.5605 26249.5
 22 06 2013  00 04  -21.0429 26022.4 -03454.2 -07.5613 26250.6
 22 06 2013  00 05  -21.0428 26023.1 -03454.5 -07.5616 26251.4
 22 06 2013  00 06  -21.0435 26023.8 -03454.8 -07.5621 26252.1
 22 06 2013  00 07  -21.0443 26024.2 -03454.9 -07.5623 26252.6
 22 06 2013  00 08  -21.0448 26023.9 -03454.7 -07.5618 26252.2
 22 06 2013  00 09  -21.0453 26022.8 -03454.0 -07.5607 26251.0
 22 06 2013  00 10  -21.0455 26021.9 -03453.4 -07.5596 26250.1
 22 06 2013  00 11  -21.0447 26021.7 -03453.1 -07.5590 26249.8
 22 06 2013  00 12  -21.0435 26022.0 -03453.1 -07.5589 26250.1
 22 06 2013  00 13  -21.0427 26022.1 -03453.1 -07.5590 26250.2
 22 06 2013  00 14  -21.0425 26022.4 -03453.3 -07.5593 26250.5
 22 06 2013  00 15  -21.0431 26022.8 -03453.6 -07.5597 26250.9
 22 06 2013  00 16  -21.0439 26023.3 -03453.9 -07.5602 26251.5
 22 06 2013  00 17  -21.0445 26024.0 -03454.2 -07.5608 26252.3
 22 06 2013  00 18  -21.0449 26024.7 -03454.5 -07.5612 26253.0
 22 06 2013  00 19  -21.0461 26025.2 -03454.7 -07.5615 26253.5
 22 06 2013  00 20  -21.0470 26025.9 -03455.0 -07.5618 26254.2
 22 06 2013  00 21  -21.0476 26026.5 -03455.1 -07.5620 26254.8
 22 06 2013  00 22  -21.0478 26026.8 -03455.1 -07.5619 26255.2
 22 06 2013  00 23  -21.0480 26027.3 -03455.1 -07.5618 26255.6
 22 06 2013  00 24  -21.0482 26027.6 -03455.1 -07.5616 26255.9
 22 06 2013  00 25  -21.0481 26027.7 -03455.0 -07.5613 26256.0
 22 06 2013  00 26  -21.0477 26027.9 -03454.9 -07.5610 26256.2
 22 06 2013  00 27  -21.0471 26028.0 -03454.8 -07.5608 26256.3
 22 06 2013  00 28  -21.0465 26027.8 -03454.5 -07.5603 26256.0
 22 06 2013  00 29  -21.0454 26027.5 -03454.2 -07.5598 26255.8
 22 06 2013  00 30  -21.0433 26027.5 -03454.0 -07.5593 26255.7
 22 06 2013  00 31  -21.0416 26027.3 -03453.8 -07.5590 26255.5
 22 06 2013  00 32  -21.0406 26026.8 -03453.6 -07.5586 26255.0
 22 06 2013  00 33  -21.0395 26027.0 -03453.6 -07.5586 26255.1
 22 06 2013  00 34  -21.0384 26027.0 -03453.7 -07.5587 26255.2
 22 06 2013  00 35  -21.0376 26027.1 -03453.7 -07.5588 26255.3
 22 06 2013  00 36  -21.0366 26027.6 -03454.0 -07.5593 26255.8
 22 06 2013  00 37  -21.0356 26027.9 -03454.2 -07.5596 26256.1
 22 06 2013  00 38  -21.0351 26028.2 -03454.4 -07.5599 26256.5
 22 06 2013  00 39  -21.0349 26028.6 -03454.6 -07.5603 26256.8
 22 06 2013  00 40  -21.0340 26029.0 -03454.8 -07.5606 26257.3
 22 06 2013  00 41  -21.0331 26029.7 -03455.0 -07.5609 26258.0
 22 06 2013  00 42  -21.0328 26030.7 -03455.5 -07.5616 26259.0
 22 06 2013  00 43  -21.0331 26031.1 -03455.7 -07.5620 26259.5
 22 06 2013  00 44  -21.0332 26031.8 -03456.0 -07.5625 26260.3
 22 06 2013  00 45  -21.0326 26032.0 -03456.0 -07.5624 26260.4
 22 06 2013  00 46  -21.0315 26031.3 -03455.6 -07.5617 26259.7
 22 06 2013  00 47  -21.0306 26031.0 -03455.3 -07.5610 26259.3
 22 06 2013  00 48  -21.0299 26030.9 -03455.1 -07.5608 26259.2
 22 06 2013  00 49  -21.0298 26030.7 -03455.1 -07.5607 26259.0
 22 06 2013  00 50  -21.0299 26030.4 -03454.9 -07.5605 26258.6
 22 06 2013  00 51  -21.0298 26030.2 -03454.9 -07.5604 26258.5
 22 06 2013  00 52  -21.0304 26029.7 -03454.7 -07.5602 26258.0
 22 06 2013  00 53  -21.0311 26029.3 -03454.5 -07.5599 26257.5
 22 06 2013  00 54  -21.0317 26029.3 -03454.4 -07.5598 26257.5
 22 06 2013  00 55  -21.0320 26029.4 -03454.5 -07.5599 26257.6
 22 06 2013  00 56  -21.0324 26029.6 -03454.7 -07.5602 26257.8
 22 06 2013  00 57  -21.0329 26028.8 -03454.3 -07.5597 26257.0
 22 06 2013  00 58  -21.0328 26028.6 -03454.1 -07.5593 26256.8
 22 06 2013  00 59  -21.0328 26028.2 -03453.9 -07.5590 26256.3
 22 06 2013  01 00  -21.0331 26027.4 -03453.6 -07.5584 26255.5
 22 06 2013  01 01  -21.0333 26026.6 -03453.2 -07.5578 26254.7
 22 06 2013  01 02  -21.0335 26026.4 -03453.1 -07.5577 26254.5
 22 06 2013  01 03  -21.0338 26026.3 -03453.1 -07.5578 26254.4
 22 06 2013  01 04  -21.0344 26026.2 -03453.1 -07.5578 26254.3
 22 06 2013  01 05  -21.0349 26026.3 -03453.2 -07.5579 26254.3
 22 06 2013  01 06  -21.0355 26026.6 -03453.4 -07.5583 26254.7
 22 06 2013  01 07  -21.0359 26027.2 -03453.7 -07.5588 26255.3
 22 06 2013  01 08  -21.0360 26027.6 -03453.9 -07.5591 26255.7
 22 06 2013  01 09  -21.0362 26028.1 -03454.1 -07.5594 26256.3
 22 06 2013  01 10  -21.0366 26028.6 -03454.4 -07.5598 26256.8
 22 06 2013  01 11  -21.0370 26028.7 -03454.4 -07.5599 26257.0
 22 06 2013  01 12  -21.0376 26028.8 -03454.4 -07.5598 26257.0
 22 06 2013  01 13  -21.0384 26028.7 -03454.3 -07.5597 26256.9
 22 06 2013  01 14  -21.0390 26028.5 -03454.2 -07.5594 26256.7
 22 06 2013  01 15  -21.0397 26028.2 -03453.9 -07.5589 26256.4
 22 06 2013  01 16  -21.0409 26027.8 -03453.7 -07.5585 26256.0
 22 06 2013  01 17  -21.0413 26027.6 -03453.5 -07.5581 26255.7
 22 06 2013  01 18  -21.0409 26027.5 -03453.3 -07.5578 26255.6
 22 06 2013  01 19  -21.0403 26027.4 -03453.2 -07.5575 26255.5
 22 06 2013  01 20  -21.0397 26027.0 -03452.8 -07.5569 26255.0
 22 06 2013  01 21  -21.0395 26026.9 -03452.8 -07.5568 26255.0
 22 06 2013  01 22  -21.0389 26027.2 -03452.9 -07.5569 26255.3
 22 06 2013  01 23  -21.0384 26027.5 -03453.0 -07.5571 26255.6
 22 06 2013  01 24  -21.0379 26027.7 -03453.0 -07.5572 26255.7
 22 06 2013  01 25  -21.0375 26027.6 -03453.0 -07.5571 26255.6
 22 06 2013  01 26  -21.0372 26027.8 -03453.1 -07.5572 26255.8
 22 06 2013  01 27  -21.0369 26027.8 -03453.1 -07.5572 26255.9
 22 06 2013  01 28  -21.0361 26027.9 -03453.1 -07.5573 26256.0
 22 06 2013  01 29  -21.0353 26028.1 -03453.2 -07.5574 26256.2
 22 06 2013  01 30  -21.0347 26028.6 -03453.5 -07.5578 26256.7
 22 06 2013  01 31  -21.0343 26029.1 -03453.8 -07.5584 26257.2
 22 06 2013  01 32  -21.0338 26029.7 -03454.0 -07.5588 26257.8
 22 06 2013  01 33  -21.0330 26029.9 -03454.2 -07.5590 26258.1
 22 06 2013  01 34  -21.0330 26030.0 -03454.2 -07.5591 26258.2
 22 06 2013  01 35  -21.0330 26030.0 -03454.3 -07.5591 26258.2
 22 06 2013  01 36  -21.0326 26029.8 -03454.1 -07.5589 26257.9
 22 06 2013  01 37  -21.0325 26029.2 -03453.8 -07.5583 26257.3
 22 06 2013  01 38  -21.0324 26029.0 -03453.7 -07.5581 26257.1
 22 06 2013  01 39  -21.0325 26028.9 -03453.7 -07.5581 26257.1
 22 06 2013  01 40  -21.0328 26028.6 -03453.5 -07.5579 26256.7
 22 06 2013  01 41  -21.0326 26028.4 -03453.4 -07.5577 26256.5
 22 06 2013  01 42  -21.0323 26028.6 -03453.5 -07.5578 26256.7
 22 06 2013  01 43  -21.0322 26028.7 -03453.6 -07.5581 26256.8
 22 06 2013  01 44  -21.0325 26028.6 -03453.6 -07.5581 26256.8
 22 06 2013  01 45  -21.0335 26028.2 -03453.5 -07.5580 26256.3
 22 06 2013  01 46  -21.0342 26027.4 -03453.2 -07.5575 26255.5
 22 06 2013  01 47  -21.0346 26027.0 -03452.9 -07.5571 26255.0
 22 06 2013  01 48  -21.0346 26026.6 -03452.8 -07.5569 26254.7
 22 06 2013  01 49  -21.0344 26026.3 -03452.6 -07.5566 26254.3
 22 06 2013  01 50  -21.0339 26026.0 -03452.5 -07.5564 26253.9
 22 06 2013  01 51  -21.0336 26025.9 -03452.5 -07.5564 26253.9
 22 06 2013  01 52  -21.0338 26026.3 -03452.7 -07.5569 26254.3
 22 06 2013  01 53  -21.0340 26026.8 -03453.1 -07.5575 26254.9
 22 06 2013  01 54  -21.0344 26027.3 -03453.4 -07.5581 26255.4
 22 06 2013  01 55  -21.0349 26027.5 -03453.6 -07.5585 26255.6
 22 06 2013  01 56  -21.0351 26027.4 -03453.6 -07.5585 26255.6
 22 06 2013  01 57  -21.0356 26027.4 -03453.5 -07.5584 26255.5
 22 06 2013  01 58  -21.0357 26027.2 -03453.5 -07.5582 26255.3
 22 06 2013  01 59  -21.0354 26027.1 -03453.3 -07.5580 26255.2
 22 06 2013  02 00  -21.0351 26026.9 -03453.2 -07.5578 26255.0
 22 06 2013  02 01  -21.0348 26026.6 -03453.1 -07.5576 26254.7
 22 06 2013  02 02  -21.0345 26026.1 -03452.9 -07.5573 26254.2
 22 06 2013  02 03  -21.0342 26025.8 -03452.8 -07.5571 26253.8
 22 06 2013  02 04  -21.0339 26025.6 -03452.7 -07.5570 26253.7
 22 06 2013  02 05  -21.0333 26025.8 -03452.8 -07.5572 26253.8
 22 06 2013  02 06  -21.0327 26025.9 -03452.9 -07.5574 26253.9
 22 06 2013  02 07  -21.0324 26025.9 -03453.1 -07.5577 26254.0
 22 06 2013  02 08  -21.0327 26025.9 -03453.2 -07.5580 26254.0
 22 06 2013  02 09  -21.0335 26026.0 -03453.3 -07.5583 26254.1
 22 06 2013  02 10  -21.0343 26026.1 -03453.5 -07.5585 26254.2
 22 06 2013  02 11  -21.0346 26025.7 -03453.3 -07.5584 26253.8
 22 06 2013  02 12  -21.0347 26025.2 -03453.1 -07.5580 26253.3
 22 06 2013  02 13  -21.0349 26024.7 -03452.8 -07.5575 26252.7
 22 06 2013  02 14  -21.0351 26024.4 -03452.7 -07.5574 26252.4
 22 06 2013  02 15  -21.0354 26024.1 -03452.6 -07.5573 26252.1
 22 06 2013  02 16  -21.0353 26024.0 -03452.6 -07.5572 26252.0
 22 06 2013  02 17  -21.0350 26024.0 -03452.6 -07.5573 26252.1
 22 06 2013  02 18  -21.0348 26024.1 -03452.7 -07.5575 26252.2
 22 06 2013  02 19  -21.0350 26024.2 -03452.8 -07.5576 26252.3
 22 06 2013  02 20  -21.0351 26024.4 -03452.9 -07.5578 26252.4
 22 06 2013  02 21  -21.0353 26024.4 -03453.0 -07.5579 26252.5
 22 06 2013  02 22  -21.0352 26024.6 -03453.0 -07.5580 26252.7
 22 06 2013  02 23  -21.0350 26024.6 -03453.0 -07.5580 26252.7
 22 06 2013  02 24  -21.0347 26024.7 -03453.0 -07.5579 26252.8
 22 06 2013  02 25  -21.0341 26024.9 -03453.1 -07.5581 26252.9
 22 06 2013  02 26  -21.0330 26025.0 -03453.1 -07.5581 26253.1
 22 06 2013  02 27  -21.0317 26025.1 -03453.2 -07.5582 26253.2
 22 06 2013  02 28  -21.0305 26025.0 -03453.1 -07.5580 26253.0
 22 06 2013  02 29  -21.0303 26024.9 -03453.1 -07.5581 26253.0
 22 06 2013  02 30  -21.0307 26025.1 -03453.3 -07.5585 26253.2
 22 06 2013  02 31  -21.0313 26025.3 -03453.6 -07.5590 26253.4
 22 06 2013  02 32  -21.0317 26025.4 -03453.7 -07.5592 26253.6
 22 06 2013  02 33  -21.0316 26025.5 -03453.8 -07.5593 26253.7
 22 06 2013  02 34  -21.0313 26025.7 -03453.8 -07.5594 26253.8
 22 06 2013  02 35  -21.0310 26025.7 -03453.9 -07.5595 26253.9
 22 06 2013  02 36  -21.0306 26025.7 -03453.8 -07.5595 26253.9
 22 06 2013  02 37  -21.0304 26025.7 -03453.9 -07.5596 26253.9
 22 06 2013  02 38  -21.0301 26025.7 -03453.9 -07.5596 26253.9
 22 06 2013  02 39  -21.0299 26025.5 -03453.8 -07.5595 26253.6
 22 06 2013  02 40  -21.0295 26025.1 -03453.7 -07.5594 26253.3
 22 06 2013  02 41  -21.0289 26024.8 -03453.5 -07.5591 26253.0
 22 06 2013  02 42  -21.0285 26024.7 -03453.5 -07.5590 26252.9
 22 06 2013  02 43  -21.0288 26024.5 -03453.5 -07.5590 26252.6
 22 06 2013  02 44  -21.0293 26024.2 -03453.4 -07.5590 26252.3
 22 06 2013  02 45  -21.0298 26024.0 -03453.4 -07.5589 26252.1
 22 06 2013  02 46  -21.0301 26023.6 -03453.2 -07.5587 26251.8
 22 06 2013  02 47  -21.0302 26023.2 -03453.1 -07.5585 26251.3
 22 06 2013  02 48  -21.0307 26022.6 -03452.9 -07.5582 26250.7
 22 06 2013  02 49  -21.0310 26022.2 -03452.7 -07.5579 26250.2
 22 06 2013  02 50  -21.0312 26021.4 -03452.3 -07.5574 26249.4
 22 06 2013  02 51  -21.0317 26020.5 -03451.9 -07.5569 26248.5
 22 06 2013  02 52  -21.0319 26019.7 -03451.6 -07.5564 26247.7
 22 06 2013  02 53  -21.0322 26018.7 -03451.2 -07.5558 26246.6
 22 06 2013  02 54  -21.0321 26018.4 -03451.1 -07.5557 26246.3
 22 06 2013  02 55  -21.0312 26018.4 -03451.2 -07.5558 26246.3
 22 06 2013  02 56  -21.0297 26018.4 -03451.3 -07.5560 26246.3
 22 06 2013  02 57  -21.0279 26018.4 -03451.3 -07.5561 26246.3
 22 06 2013  02 58  -21.0267 26018.5 -03451.5 -07.5565 26246.5
 22 06 2013  02 59  -21.0264 26018.7 -03451.8 -07.5570 26246.7
 22 06 2013  03 00  -21.0268 26018.7 -03452.0 -07.5575 26246.7
 22 06 2013  03 01  -21.0271 26018.7 -03452.2 -07.5578 26246.7
 22 06 2013  03 02  -21.0270 26018.6 -03452.3 -07.5581 26246.7
 22 06 2013  03 03  -21.0268 26018.7 -03452.4 -07.5583 26246.7
 22 06 2013  03 04  -21.0272 26018.7 -03452.5 -07.5585 26246.7
 22 06 2013  03 05  -21.0278 26018.6 -03452.5 -07.5587 26246.6
 22 06 2013  03 06  -21.0281 26018.5 -03452.6 -07.5588 26246.5
 22 06 2013  03 07  -21.0281 26018.4 -03452.6 -07.5589 26246.5
 22 06 2013  03 08  -21.0283 26018.4 -03452.6 -07.5589 26246.5
 22 06 2013  03 09  -21.0286 26018.4 -03452.7 -07.5590 26246.4
 22 06 2013  03 10  -21.0291 26018.3 -03452.6 -07.5590 26246.4
 22 06 2013  03 11  -21.0295 26018.0 -03452.6 -07.5590 26246.1
 22 06 2013  03 12  -21.0295 26017.8 -03452.5 -07.5588 26245.9
 22 06 2013  03 13  -21.0295 26017.7 -03452.5 -07.5588 26245.8
 22 06 2013  03 14  -21.0298 26017.4 -03452.4 -07.5587 26245.5
 22 06 2013  03 15  -21.0301 26017.3 -03452.4 -07.5587 26245.4
 22 06 2013  03 16  -21.0301 26017.2 -03452.4 -07.5587 26245.3
 22 06 2013  03 17  -21.0299 26017.4 -03452.5 -07.5589 26245.5
 22 06 2013  03 18  -21.0298 26017.7 -03452.7 -07.5592 26245.8
 22 06 2013  03 19  -21.0296 26017.9 -03452.9 -07.5596 26246.1
 22 06 2013  03 20  -21.0296 26018.2 -03453.1 -07.5599 26246.3
 22 06 2013  03 21  -21.0294 26018.3 -03453.2 -07.5601 26246.4
 22 06 2013  03 22  -21.0289 26018.2 -03453.2 -07.5601 26246.4
 22 06 2013  03 23  -21.0282 26018.2 -03453.1 -07.5601 26246.4
 22 06 2013  03 24  -21.0277 26018.2 -03453.2 -07.5602 26246.4
 22 06 2013  03 25  -21.0273 26018.3 -03453.2 -07.5603 26246.5
 22 06 2013  03 26  -21.0274 26018.3 -03453.3 -07.5604 26246.5
 22 06 2013  03 27  -21.0276 26018.4 -03453.4 -07.5606 26246.5
 22 06 2013  03 28  -21.0278 26018.4 -03453.5 -07.5608 26246.6
 22 06 2013  03 29  -21.0281 26018.5 -03453.6 -07.5610 26246.7
 22 06 2013  03 30  -21.0284 26018.6 -03453.7 -07.5612 26246.8
 22 06 2013  03 31  -21.0285 26018.9 -03453.9 -07.5614 26247.2
 22 06 2013  03 32  -21.0283 26019.5 -03454.1 -07.5619 26247.7
 22 06 2013  03 33  -21.0280 26019.9 -03454.3 -07.5621 26248.2
 22 06 2013  03 34  -21.0278 26020.4 -03454.5 -07.5625 26248.7
 22 06 2013  03 35  -21.0279 26020.9 -03454.7 -07.5628 26249.2
 22 06 2013  03 36  -21.0278 26021.3 -03454.9 -07.5631 26249.6
 22 06 2013  03 37  -21.0273 26021.9 -03455.1 -07.5634 26250.2
 22 06 2013  03 38  -21.0272 26022.3 -03455.3 -07.5636 26250.7
 22 06 2013  03 39  -21.0275 26022.6 -03455.4 -07.5637 26251.0
 22 06 2013  03 40  -21.0281 26022.6 -03455.4 -07.5638 26251.0
 22 06 2013  03 41  -21.0286 26022.7 -03455.3 -07.5636 26251.1
 22 06 2013  03 42  -21.0287 26022.7 -03455.3 -07.5634 26251.0
 22 06 2013  03 43  -21.0286 26022.6 -03455.1 -07.5632 26251.0
 22 06 2013  03 44  -21.0286 26023.0 -03455.3 -07.5633 26251.4
 22 06 2013  03 45  -21.0286 26023.4 -03455.5 -07.5636 26251.8
 22 06 2013  03 46  -21.0286 26023.6 -03455.5 -07.5636 26252.0
 22 06 2013  03 47  -21.0286 26024.2 -03455.7 -07.5640 26252.7
 22 06 2013  03 48  -21.0289 26024.8 -03456.0 -07.5644 26253.3
 22 06 2013  03 49  -21.0294 26025.4 -03456.2 -07.5647 26253.9
 22 06 2013  03 50  -21.0295 26025.7 -03456.3 -07.5647 26254.2
 22 06 2013  03 51  -21.0296 26026.0 -03456.3 -07.5646 26254.5
 22 06 2013  03 52  -21.0302 26026.3 -03456.3 -07.5647 26254.8
 22 06 2013  03 53  -21.0304 26026.9 -03456.5 -07.5649 26255.4
 22 06 2013  03 54  -21.0303 26027.6 -03456.7 -07.5651 26256.1
 22 06 2013  03 55  -21.0304 26028.3 -03457.0 -07.5655 26256.9
 22 06 2013  03 56  -21.0304 26028.8 -03457.0 -07.5655 26257.3
 22 06 2013  03 57  -21.0307 26029.5 -03457.2 -07.5657 26258.1
 22 06 2013  03 58  -21.0313 26029.7 -03457.2 -07.5657 26258.3
 22 06 2013  03 59  -21.0316 26029.8 -03457.1 -07.5654 26258.4
 22 06 2013  04 00  -21.0320 26029.7 -03457.0 -07.5651 26258.3
 22 06 2013  04 01  -21.0321 26029.5 -03456.7 -07.5647 26258.0
 22 06 2013  04 02  -21.0321 26029.2 -03456.5 -07.5642 26257.7
 22 06 2013  04 03  -21.0323 26029.1 -03456.4 -07.5639 26257.6
 22 06 2013  04 04  -21.0327 26029.0 -03456.3 -07.5638 26257.5
 22 06 2013  04 05  -21.0327 26028.9 -03456.2 -07.5636 26257.3
 22 06 2013  04 06  -21.0326 26028.7 -03456.0 -07.5634 26257.1
 22 06 2013  04 07  -21.0322 26028.2 -03455.7 -07.5628 26256.6
 22 06 2013  04 08  -21.0317 26027.9 -03455.5 -07.5625 26256.3
 22 06 2013  04 09  -21.0313 26027.7 -03455.5 -07.5624 26256.1
 22 06 2013  04 10  -21.0312 26027.2 -03455.3 -07.5621 26255.6
 22 06 2013  04 11  -21.0316 26027.1 -03455.2 -07.5620 26255.4
 22 06 2013  04 12  -21.0318 26027.1 -03455.2 -07.5621 26255.4
 22 06 2013  04 13  -21.0314 26027.2 -03455.3 -07.5622 26255.5
 22 06 2013  04 14  -21.0306 26027.3 -03455.3 -07.5623 26255.7
 22 06 2013  04 15  -21.0300 26027.6 -03455.5 -07.5625 26255.9
 22 06 2013  04 16  -21.0296 26027.7 -03455.6 -07.5627 26256.1
 22 06 2013  04 17  -21.0296 26027.9 -03455.7 -07.5629 26256.3
 22 06 2013  04 18  -21.0294 26027.8 -03455.6 -07.5628 26256.2
 22 06 2013  04 19  -21.0287 26027.4 -03455.4 -07.5624 26255.8
 22 06 2013  04 20  -21.0276 26027.0 -03455.2 -07.5621 26255.4
 22 06 2013  04 21  -21.0266 26026.5 -03455.0 -07.5617 26254.8
 22 06 2013  04 22  -21.0258 26026.2 -03454.9 -07.5615 26254.5
 22 06 2013  04 23  -21.0254 26026.2 -03454.9 -07.5617 26254.5
 22 06 2013  04 24  -21.0251 26026.1 -03455.0 -07.5620 26254.5
 22 06 2013  04 25  -21.0245 26026.2 -03455.1 -07.5621 26254.6
 22 06 2013  04 26  -21.0239 26026.5 -03455.3 -07.5625 26254.8
 22 06 2013  04 27  -21.0232 26027.0 -03455.7 -07.5631 26255.4
 22 06 2013  04 28  -21.0230 26027.3 -03455.9 -07.5636 26255.7
 22 06 2013  04 29  -21.0229 26027.7 -03456.2 -07.5641 26256.2
 22 06 2013  04 30  -21.0227 26028.1 -03456.5 -07.5645 26256.6
 22 06 2013  04 31  -21.0226 26028.6 -03456.7 -07.5649 26257.1
 22 06 2013  04 32  -21.0227 26029.0 -03456.9 -07.5652 26257.6
 22 06 2013  04 33  -21.0232 26029.4 -03457.1 -07.5654 26258.0
 22 06 2013  04 34  -21.0235 26029.8 -03457.3 -07.5657 26258.4
 22 06 2013  04 35  -21.0235 26030.1 -03457.4 -07.5658 26258.7
 22 06 2013  04 36  -21.0237 26030.3 -03457.3 -07.5657 26258.9
 22 06 2013  04 37  -21.0242 26030.1 -03457.2 -07.5654 26258.7
 22 06 2013  04 38  -21.0243 26029.9 -03457.0 -07.5652 26258.4
 22 06 2013  04 39  -21.0242 26029.9 -03457.0 -07.5650 26258.5
 22 06 2013  04 40  -21.0237 26029.9 -03456.9 -07.5649 26258.4
 22 06 2013  04 41  -21.0228 26029.9 -03456.9 -07.5648 26258.4
 22 06 2013  04 42  -21.0225 26029.2 -03456.5 -07.5642 26257.7
 22 06 2013  04 43  -21.0229 26028.1 -03455.9 -07.5633 26256.5
 22 06 2013  04 44  -21.0228 26027.5 -03455.5 -07.5626 26255.9
 22 06 2013  04 45  -21.0221 26027.5 -03455.5 -07.5626 26255.9
 22 06 2013  04 46  -21.0212 26028.1 -03455.8 -07.5631 26256.5
 22 06 2013  04 47  -21.0209 26028.8 -03456.3 -07.5639 26257.3
 22 06 2013  04 48  -21.0214 26029.1 -03456.6 -07.5644 26257.7
 22 06 2013  04 49  -21.0220 26029.2 -03456.7 -07.5646 26257.7
 22 06 2013  04 50  -21.0225 26029.4 -03456.7 -07.5646 26257.9
 22 06 2013  04 51  -21.0230 26029.4 -03456.7 -07.5645 26257.9
 22 06 2013  04 52  -21.0236 26029.2 -03456.5 -07.5643 26257.7
 22 06 2013  04 53  -21.0241 26029.4 -03456.5 -07.5642 26257.9
 22 06 2013  04 54  -21.0244 26029.8 -03456.6 -07.5643 26258.4
 22 06 2013  04 55  -21.0247 26030.3 -03456.9 -07.5647 26258.9
 22 06 2013  04 56  -21.0250 26030.8 -03457.0 -07.5649 26259.3
 22 06 2013  04 57  -21.0255 26030.9 -03457.0 -07.5648 26259.5
 22 06 2013  04 58  -21.0261 26030.7 -03456.8 -07.5645 26259.2
 22 06 2013  04 59  -21.0263 26030.2 -03456.5 -07.5640 26258.7
 22 06 2013  05 00  -21.0260 26030.0 -03456.2 -07.5634 26258.4
 22 06 2013  05 01  -21.0257 26029.7 -03456.1 -07.5631 26258.2
 22 06 2013  05 02  -21.0256 26029.7 -03456.0 -07.5630 26258.1
 22 06 2013  05 03  -21.0257 26029.9 -03456.1 -07.5631 26258.3
 22 06 2013  05 04  -21.0261 26030.0 -03456.1 -07.5631 26258.4
 22 06 2013  05 05  -21.0265 26030.1 -03456.1 -07.5631 26258.5
 22 06 2013  05 06  -21.0270 26030.3 -03456.2 -07.5632 26258.8
 22 06 2013  05 07  -21.0277 26030.5 -03456.2 -07.5633 26258.9
 22 06 2013  05 08  -21.0284 26030.5 -03456.3 -07.5633 26259.0
 22 06 2013  05 09  -21.0294 26030.6 -03456.3 -07.5634 26259.1
 22 06 2013  05 10  -21.0303 26030.7 -03456.3 -07.5633 26259.2
 22 06 2013  05 11  -21.0310 26030.8 -03456.3 -07.5633 26259.3
 22 06 2013  05 12  -21.0314 26030.8 -03456.2 -07.5631 26259.3
 22 06 2013  05 13  -21.0315 26030.7 -03456.1 -07.5628 26259.1
 22 06 2013  05 14  -21.0311 26030.7 -03455.9 -07.5625 26259.1
 22 06 2013  05 15  -21.0304 26030.7 -03455.8 -07.5623 26259.1
 22 06 2013  05 16  -21.0292 26030.8 -03455.8 -07.5622 26259.2
 22 06 2013  05 17  -21.0279 26030.9 -03455.7 -07.5621 26259.2
 22 06 2013  05 18  -21.0270 26030.8 -03455.7 -07.5620 26259.2
 22 06 2013  05 19  -21.0265 26030.8 -03455.6 -07.5619 26259.2
 22 06 2013  05 20  -21.0265 26031.0 -03455.7 -07.5621 26259.4
 22 06 2013  05 21  -21.0264 26031.3 -03455.9 -07.5623 26259.7
 22 06 2013  05 22  -21.0265 26031.5 -03456.0 -07.5624 26259.9
 22 06 2013  05 23  -21.0267 26031.4 -03455.9 -07.5623 26259.8
 22 06 2013  05 24  -21.0273 26031.4 -03456.0 -07.5624 26259.9
 22 06 2013  05 25  -21.0287 26031.7 -03456.1 -07.5627 26260.2
 22 06 2013  05 26  -21.0303 26031.8 -03456.2 -07.5628 26260.3
 22 06 2013  05 27  -21.0311 26031.7 -03456.1 -07.5627 26260.1
 22 06 2013  05 28  -21.0316 26031.6 -03455.9 -07.5623 26260.0
 22 06 2013  05 29  -21.0322 26031.2 -03455.7 -07.5619 26259.6
 22 06 2013  05 30  -21.0326 26031.0 -03455.5 -07.5616 26259.3
 22 06 2013  05 31  -21.0328 26030.9 -03455.5 -07.5615 26259.3
 22 06 2013  05 32  -21.0333 26030.9 -03455.4 -07.5614 26259.2
 22 06 2013  05 33  -21.0341 26030.6 -03455.3 -07.5613 26258.9
 22 06 2013  05 34  -21.0349 26030.1 -03455.1 -07.5609 26258.4
 22 06 2013  05 35  -21.0351 26029.8 -03454.9 -07.5605 26258.1
 22 06 2013  05 36  -21.0348 26029.6 -03454.7 -07.5603 26257.9
 22 06 2013  05 37  -21.0339 26029.3 -03454.5 -07.5599 26257.6
 22 06 2013  05 38  -21.0332 26029.0 -03454.4 -07.5597 26257.3
 22 06 2013  05 39  -21.0324 26028.7 -03454.3 -07.5596 26256.9
 22 06 2013  05 40  -21.0321 26028.2 -03454.1 -07.5592 26256.4
 22 06 2013  05 41  -21.0319 26027.4 -03453.8 -07.5590 26255.6
 22 06 2013  05 42  -21.0315 26026.7 -03453.6 -07.5586 26254.9
 22 06 2013  05 43  -21.0311 26026.2 -03453.4 -07.5583 26254.3
 22 06 2013  05 44  -21.0306 26025.7 -03453.3 -07.5582 26253.8
 22 06 2013  05 45  -21.0300 26025.5 -03453.3 -07.5583 26253.6
 22 06 2013  05 46  -21.0295 26025.6 -03453.4 -07.5587 26253.7
 22 06 2013  05 47  -21.0292 26025.7 -03453.7 -07.5591 26253.8
 22 06 2013  05 48  -21.0295 26025.8 -03453.9 -07.5595 26253.9
 22 06 2013  05 49  -21.0298 26025.5 -03453.9 -07.5597 26253.7
 22 06 2013  05 50  -21.0300 26025.3 -03453.9 -07.5597 26253.5
 22 06 2013  05 51  -21.0301 26024.9 -03453.8 -07.5595 26253.1
 22 06 2013  05 52  -21.0304 26024.6 -03453.6 -07.5593 26252.8
 22 06 2013  05 53  -21.0300 26025.1 -03453.9 -07.5597 26253.3
 22 06 2013  05 54  -21.0293 26025.8 -03454.3 -07.5604 26254.0
 22 06 2013  05 55  -21.0288 26026.2 -03454.5 -07.5609 26254.5
 22 06 2013  05 56  -21.0278 26025.9 -03454.5 -07.5608 26254.2
 22 06 2013  05 57  -21.0263 26025.4 -03454.2 -07.5603 26253.6
 22 06 2013  05 58  -21.0251 26025.3 -03454.1 -07.5600 26253.5
 22 06 2013  05 59  -21.0246 26025.2 -03454.1 -07.5602 26253.4
 22 06 2013  06 00  -21.0239 26025.2 -03454.2 -07.5604 26253.4
 22 06 2013  06 01  -21.0230 26025.5 -03454.4 -07.5608 26253.7
 22 06 2013  06 02  -21.0221 26025.6 -03454.6 -07.5612 26253.9
 22 06 2013  06 03  -21.0216 26025.4 -03454.7 -07.5613 26253.7
 22 06 2013  06 04  -21.0213 26025.1 -03454.6 -07.5612 26253.3
 22 06 2013  06 05  -21.0210 26024.7 -03454.5 -07.5611 26253.0
 22 06 2013  06 06  -21.0207 26024.5 -03454.4 -07.5611 26252.8
 22 06 2013  06 07  -21.0201 26024.1 -03454.3 -07.5609 26252.4
 22 06 2013  06 08  -21.0196 26023.6 -03454.2 -07.5608 26251.9
 22 06 2013  06 09  -21.0198 26022.9 -03454.0 -07.5606 26251.1
 22 06 2013  06 10  -21.0199 26022.4 -03453.8 -07.5604 26250.6
 22 06 2013  06 11  -21.0200 26022.4 -03453.9 -07.5606 26250.7
 22 06 2013  06 12  -21.0201 26022.6 -03454.1 -07.5610 26250.9
 22 06 2013  06 13  -21.0205 26022.8 -03454.3 -07.5614 26251.0
 22 06 2013  06 14  -21.0212 26022.9 -03454.5 -07.5618 26251.2
 22 06 2013  06 15  -21.0214 26023.0 -03454.6 -07.5620 26251.3
 22 06 2013  06 16  -21.0207 26023.0 -03454.6 -07.5619 26251.3
 22 06 2013  06 17  -21.0196 26022.8 -03454.5 -07.5617 26251.1
 22 06 2013  06 18  -21.0184 26022.7 -03454.5 -07.5617 26251.0
 22 06 2013  06 19  -21.0176 26022.8 -03454.6 -07.5618 26251.1
 22 06 2013  06 20  -21.0173 26022.8 -03454.7 -07.5621 26251.1
 22 06 2013  06 21  -21.0174 26022.8 -03454.8 -07.5624 26251.2
 22 06 2013  06 22  -21.0176 26023.0 -03455.0 -07.5627 26251.3
 22 06 2013  06 23  -21.0182 26023.0 -03455.1 -07.5629 26251.4
 22 06 2013  06 24  -21.0192 26023.0 -03455.2 -07.5631 26251.4
 22 06 2013  06 25  -21.0200 26022.9 -03455.1 -07.5631 26251.2
 22 06 2013  06 26  -21.0199 26022.5 -03454.9 -07.5627 26250.8
 22 06 2013  06 27  -21.0191 26022.0 -03454.6 -07.5622 26250.3
 22 06 2013  06 28  -21.0175 26021.8 -03454.4 -07.5619 26250.0
 22 06 2013  06 29  -21.0158 26021.5 -03454.2 -07.5615 26249.7
 22 06 2013  06 30  -21.0151 26021.4 -03454.2 -07.5616 26249.6
 22 06 2013  06 31  -21.0152 26021.4 -03454.4 -07.5619 26249.7
 22 06 2013  06 32  -21.0158 26021.6 -03454.6 -07.5623 26249.9
 22 06 2013  06 33  -21.0168 26021.9 -03454.9 -07.5628 26250.2
 22 06 2013  06 34  -21.0173 26021.9 -03455.0 -07.5630 26250.3
 22 06 2013  06 35  -21.0176 26021.7 -03454.9 -07.5628 26250.1
 22 06 2013  06 36  -21.0177 26021.5 -03454.7 -07.5626 26249.9
 22 06 2013  06 37  -21.0178 26021.3 -03454.6 -07.5623 26249.6
 22 06 2013  06 38  -21.0172 26021.3 -03454.5 -07.5622 26249.6
 22 06 2013  06 39  -21.0163 26021.4 -03454.5 -07.5622 26249.7
 22 06 2013  06 40  -21.0152 26021.5 -03454.5 -07.5622 26249.8
 22 06 2013  06 41  -21.0143 26021.6 -03454.6 -07.5623 26250.0
 22 06 2013  06 42  -21.0142 26022.3 -03454.9 -07.5628 26250.6
 22 06 2013  06 43  -21.0149 26023.3 -03455.5 -07.5638 26251.8
 22 06 2013  06 44  -21.0155 26024.4 -03456.1 -07.5648 26252.9
 22 06 2013  06 45  -21.0161 26025.1 -03456.5 -07.5654 26253.6
 22 06 2013  06 46  -21.0174 26025.8 -03456.8 -07.5658 26254.4
 22 06 2013  06 47  -21.0190 26026.6 -03457.1 -07.5663 26255.2
 22 06 2013  06 48  -21.0205 26026.9 -03457.2 -07.5664 26255.5
 22 06 2013  06 49  -21.0212 26026.8 -03457.0 -07.5659 26255.4
 22 06 2013  06 50  -21.0208 26026.7 -03456.7 -07.5653 26255.2
 22 06 2013  06 51  -21.0203 26026.4 -03456.3 -07.5646 26254.9
 22 06 2013  06 52  -21.0197 26025.8 -03455.8 -07.5638 26254.3
 22 06 2013  06 53  -21.0190 26025.5 -03455.5 -07.5631 26253.9
 22 06 2013  06 54  -21.0182 26025.4 -03455.4 -07.5628 26253.8
 22 06 2013  06 55  -21.0175 26026.1 -03455.7 -07.5633 26254.5
 22 06 2013  06 56  -21.0167 26026.6 -03455.9 -07.5638 26255.0
 22 06 2013  06 57  -21.0162 26027.2 -03456.3 -07.5643 26255.7
 22 06 2013  06 58  -21.0156 26027.7 -03456.6 -07.5648 26256.2
 22 06 2013  06 59  -21.0153 26028.3 -03456.8 -07.5651 26256.9
 22 06 2013  07 00  -21.0150 26028.8 -03457.0 -07.5654 26257.3
 22 06 2013  07 01  -21.0149 26029.2 -03457.2 -07.5657 26257.8
 22 06 2013  07 02  -21.0151 26029.8 -03457.4 -07.5661 26258.4
 22 06 2013  07 03  -21.0154 26030.3 -03457.6 -07.5663 26258.9
 22 06 2013  07 04  -21.0157 26030.5 -03457.7 -07.5664 26259.2
 22 06 2013  07 05  -21.0162 26030.6 -03457.7 -07.5663 26259.3
 22 06 2013  07 06  -21.0161 26030.8 -03457.6 -07.5661 26259.4
 22 06 2013  07 07  -21.0155 26030.6 -03457.4 -07.5657 26259.2
 22 06 2013  07 08  -21.0151 26030.3 -03457.1 -07.5652 26258.9
 22 06 2013  07 09  -21.0156 26030.3 -03457.1 -07.5651 26258.9
 22 06 2013  07 10  -21.0162 26030.5 -03457.2 -07.5653 26259.1
 22 06 2013  07 11  -21.0162 26030.6 -03457.2 -07.5652 26259.2
 22 06 2013  07 12  -21.0161 26030.5 -03457.1 -07.5650 26259.1
 22 06 2013  07 13  -21.0158 26030.5 -03457.0 -07.5649 26259.1
 22 06 2013  07 14  -21.0156 26030.7 -03457.0 -07.5649 26259.2
 22 06 2013  07 15  -21.0158 26031.0 -03457.2 -07.5651 26259.6
 22 06 2013  07 16  -21.0163 26031.0 -03457.2 -07.5652 26259.6
 22 06 2013  07 17  -21.0160 26030.9 -03457.0 -07.5649 26259.4
 22 06 2013  07 18  -21.0156 26030.2 -03456.6 -07.5642 26258.7
 22 06 2013  07 19  -21.0151 26029.8 -03456.4 -07.5637 26258.3
 22 06 2013  07 20  -21.0148 26029.6 -03456.2 -07.5635 26258.0
 22 06 2013  07 21  -21.0146 26029.7 -03456.3 -07.5636 26258.2
 22 06 2013  07 22  -21.0142 26030.0 -03456.5 -07.5640 26258.5
 22 06 2013  07 23  -21.0139 26030.1 -03456.6 -07.5642 26258.6
 22 06 2013  07 24  -21.0139 26030.0 -03456.6 -07.5642 26258.5
 22 06 2013  07 25  -21.0141 26029.8 -03456.5 -07.5641 26258.3
 22 06 2013  07 26  -21.0142 26029.9 -03456.5 -07.5641 26258.4
 22 06 2013  07 27  -21.0140 26029.8 -03456.5 -07.5640 26258.3
 22 06 2013  07 28  -21.0138 26029.5 -03456.4 -07.5638 26258.0
 22 06 2013  07 29  -21.0134 26029.3 -03456.3 -07.5637 26257.7
 22 06 2013  07 30  -21.0128 26029.2 -03456.2 -07.5636 26257.6
 22 06 2013  07 31  -21.0124 26029.5 -03456.3 -07.5638 26257.9
 22 06 2013  07 32  -21.0120 26029.4 -03456.4 -07.5639 26257.9
 22 06 2013  07 33  -21.0116 26029.2 -03456.3 -07.5638 26257.6
 22 06 2013  07 34  -21.0110 26029.4 -03456.4 -07.5640 26257.9
 22 06 2013  07 35  -21.0109 26029.8 -03456.7 -07.5644 26258.3
 22 06 2013  07 36  -21.0114 26030.2 -03456.9 -07.5648 26258.7
 22 06 2013  07 37  -21.0118 26030.3 -03457.0 -07.5651 26258.9
 22 06 2013  07 38  -21.0118 26030.7 -03457.2 -07.5653 26259.3
 22 06 2013  07 39  -21.0118 26030.8 -03457.2 -07.5653 26259.3
 22 06 2013  07 40  -21.0115 26030.9 -03457.2 -07.5653 26259.5
 22 06 2013  07 41  -21.0113 26030.9 -03457.2 -07.5652 26259.5
 22 06 2013  07 42  -21.0110 26030.7 -03457.0 -07.5650 26259.2
 22 06 2013  07 43  -21.0115 26030.5 -03456.9 -07.5648 26259.0
 22 06 2013  07 44  -21.0121 26030.6 -03457.0 -07.5649 26259.2
 22 06 2013  07 45  -21.0124 26030.8 -03457.1 -07.5650 26259.3
 22 06 2013  07 46  -21.0126 26031.1 -03457.2 -07.5651 26259.7
 22 06 2013  07 47  -21.0130 26031.2 -03457.2 -07.5652 26259.8
 22 06 2013  07 48  -21.0134 26031.4 -03457.2 -07.5652 26260.0
 22 06 2013  07 49  -21.0138 26031.3 -03457.1 -07.5649 26259.9
 22 06 2013  07 50  -21.0139 26031.2 -03457.0 -07.5647 26259.8
 22 06 2013  07 51  -21.0143 26031.4 -03457.0 -07.5647 26260.0
 22 06 2013  07 52  -21.0143 26031.7 -03457.1 -07.5649 26260.3
 22 06 2013  07 53  -21.0144 26032.2 -03457.3 -07.5651 26260.7
 22 06 2013  07 54  -21.0146 26032.5 -03457.5 -07.5654 26261.1
 22 06 2013  07 55  -21.0145 26032.7 -03457.5 -07.5654 26261.3
 22 06 2013  07 56  -21.0141 26032.8 -03457.5 -07.5653 26261.4
 22 06 2013  07 57  -21.0133 26033.0 -03457.5 -07.5653 26261.6
 22 06 2013  07 58  -21.0127 26033.1 -03457.5 -07.5652 26261.7
 22 06 2013  07 59  -21.0121 26033.0 -03457.4 -07.5650 26261.6
 22 06 2013  08 00  -21.0122 26032.9 -03457.3 -07.5649 26261.4
 22 06 2013  08 01  -21.0125 26032.2 -03457.0 -07.5644 26260.8
 22 06 2013  08 02  -21.0130 26031.4 -03456.6 -07.5637 26259.9
 22 06 2013  08 03  -21.0139 26030.9 -03456.3 -07.5634 26259.4
 22 06 2013  08 04  -21.0147 26030.6 -03456.2 -07.5631 26259.0
 22 06 2013  08 05  -21.0153 26030.6 -03456.2 -07.5632 26259.1
 22 06 2013  08 06  -21.0158 26030.6 -03456.2 -07.5631 26259.0
 22 06 2013  08 07  -21.0163 26030.6 -03456.2 -07.5631 26259.0
 22 06 2013  08 08  -21.0163 26030.5 -03456.1 -07.5630 26258.9
 22 06 2013  08 09  -21.0160 26030.2 -03455.9 -07.5627 26258.6
 22 06 2013  08 10  -21.0160 26030.0 -03455.9 -07.5626 26258.4
 22 06 2013  08 11  -21.0164 26029.8 -03455.7 -07.5624 26258.2
 22 06 2013  08 12  -21.0173 26030.1 -03455.9 -07.5627 26258.5
 22 06 2013  08 13  -21.0176 26029.7 -03455.7 -07.5624 26258.1
 22 06 2013  08 14  -21.0174 26029.5 -03455.5 -07.5620 26257.8
 22 06 2013  08 15  -21.0172 26029.3 -03455.4 -07.5618 26257.6
 22 06 2013  08 16  -21.0169 26028.8 -03455.2 -07.5615 26257.1
 22 06 2013  08 17  -21.0170 26028.9 -03455.2 -07.5615 26257.2
 22 06 2013  08 18  -21.0172 26029.0 -03455.3 -07.5617 26257.3
 22 06 2013  08 19  -21.0170 26028.9 -03455.3 -07.5616 26257.2
 22 06 2013  08 20  -21.0164 26028.8 -03455.2 -07.5616 26257.1
 22 06 2013  08 21  -21.0164 26028.8 -03455.3 -07.5617 26257.1
 22 06 2013  08 22  -21.0157 26028.4 -03455.1 -07.5614 26256.7
 22 06 2013  08 23  -21.0151 26028.4 -03455.1 -07.5614 26256.8
 22 06 2013  08 24  -21.0147 26028.5 -03455.2 -07.5616 26256.8
 22 06 2013  08 25  -21.0148 26028.5 -03455.3 -07.5617 26256.9
 22 06 2013  08 26  -21.0141 26028.2 -03455.1 -07.5614 26256.5
 22 06 2013  08 27  -21.0133 26028.0 -03454.9 -07.5612 26256.3
 22 06 2013  08 28  -21.0125 26028.0 -03454.8 -07.5610 26256.3
 22 06 2013  08 29  -21.0117 26028.1 -03454.8 -07.5609 26256.4
 22 06 2013  08 30  -21.0110 26028.4 -03455.0 -07.5611 26256.7
 22 06 2013  08 31  -21.0100 26028.6 -03455.1 -07.5613 26256.9
 22 06 2013  08 32  -21.0090 26028.3 -03454.9 -07.5611 26256.6
 22 06 2013  08 33  -21.0077 26027.5 -03454.6 -07.5606 26255.8
 22 06 2013  08 34  -21.0065 26026.8 -03454.2 -07.5600 26255.0
 22 06 2013  08 35  -21.0062 26026.4 -03454.1 -07.5597 26254.6
 22 06 2013  08 36  -21.0064 26026.2 -03454.0 -07.5598 26254.4
 22 06 2013  08 37  -21.0065 26026.3 -03454.1 -07.5598 26254.5
 22 06 2013  08 38  -21.0066 26026.3 -03454.0 -07.5597 26254.5
 22 06 2013  08 39  -21.0066 26026.1 -03453.9 -07.5595 26254.3
 22 06 2013  08 40  -21.0058 26025.8 -03453.7 -07.5591 26254.0
 22 06 2013  08 41  -21.0051 26026.1 -03453.7 -07.5590 26254.2
 22 06 2013  08 42  -21.0038 26026.4 -03453.9 -07.5594 26254.6
 22 06 2013  08 43  -21.0021 26026.9 -03454.3 -07.5600 26255.2
 22 06 2013  08 44  -21.0008 26027.2 -03454.5 -07.5605 26255.4
 22 06 2013  08 45  -20.9995 26027.0 -03454.6 -07.5607 26255.3
 22 06 2013  08 46  -20.9980 26026.5 -03454.4 -07.5605 26254.7
 22 06 2013  08 47  -20.9969 26026.1 -03454.3 -07.5604 26254.4
 22 06 2013  08 48  -20.9956 26026.0 -03454.3 -07.5605 26254.2
 22 06 2013  08 49  -20.9952 26025.9 -03454.4 -07.5607 26254.1
 22 06 2013  08 50  -20.9951 26026.1 -03454.7 -07.5612 26254.4
 22 06 2013  08 51  -20.9944 26026.5 -03455.0 -07.5617 26254.8
 22 06 2013  08 52  -20.9938 26026.8 -03455.2 -07.5620 26255.1
 22 06 2013  08 53  -20.9938 26026.7 -03455.3 -07.5623 26255.0
 22 06 2013  08 54  -20.9931 26026.3 -03455.2 -07.5623 26254.7
 22 06 2013  08 55  -20.9920 26026.1 -03455.1 -07.5622 26254.4
 22 06 2013  08 56  -20.9904 26026.1 -03455.1 -07.5621 26254.5
 22 06 2013  08 57  -20.9891 26026.4 -03455.3 -07.5624 26254.8
 22 06 2013  08 58  -20.9881 26026.7 -03455.5 -07.5627 26255.1
 22 06 2013  08 59  -20.9874 26027.1 -03455.8 -07.5633 26255.5
 22 06 2013  09 00  -20.9864 26027.2 -03455.9 -07.5635 26255.6
 22 06 2013  09 01  -20.9854 26027.1 -03456.0 -07.5637 26255.6
 22 06 2013  09 02  -20.9843 26026.9 -03456.0 -07.5638 26255.3
 22 06 2013  09 03  -20.9832 26026.7 -03456.0 -07.5639 26255.1
 22 06 2013  09 04  -20.9821 26026.6 -03456.1 -07.5642 26255.1
 22 06 2013  09 05  -20.9806 26026.2 -03456.1 -07.5642 26254.7
 22 06 2013  09 06  -20.9793 26025.9 -03456.1 -07.5642 26254.4
 22 06 2013  09 07  -20.9782 26025.8 -03456.1 -07.5643 26254.2
 22 06 2013  09 08  -20.9777 26025.8 -03456.2 -07.5646 26254.3
 22 06 2013  09 09  -20.9774 26025.8 -03456.5 -07.5651 26254.3
 22 06 2013  09 10  -20.9764 26025.8 -03456.7 -07.5656 26254.3
 22 06 2013  09 11  -20.9755 26025.9 -03457.0 -07.5662 26254.5
 22 06 2013  09 12  -20.9745 26026.3 -03457.3 -07.5669 26254.9
 22 06 2013  09 13  -20.9734 26026.5 -03457.6 -07.5674 26255.1
 22 06 2013  09 14  -20.9727 26026.4 -03457.7 -07.5677 26255.0
 22 06 2013  09 15  -20.9725 26026.2 -03457.9 -07.5681 26254.9
 22 06 2013  09 16  -20.9718 26026.0 -03458.0 -07.5684 26254.7
 22 06 2013  09 17  -20.9717 26026.0 -03458.2 -07.5689 26254.8
 22 06 2013  09 18  -20.9721 26026.0 -03458.5 -07.5695 26254.8
 22 06 2013  09 19  -20.9729 26026.0 -03458.9 -07.5703 26254.8
 22 06 2013  09 20  -20.9733 26026.0 -03459.2 -07.5709 26254.9
 22 06 2013  09 21  -20.9719 26026.4 -03459.4 -07.5713 26255.3
 22 06 2013  09 22  -20.9738 26026.2 -03459.8 -07.5723 26255.2
 22 06 2013  09 23  -20.9737 26026.2 -03460.2 -07.5731 26255.2
 22 06 2013  09 24  -20.9725 26026.4 -03460.5 -07.5737 26255.5
 22 06 2013  09 25  -20.9723 26025.5 -03460.3 -07.5735 26254.5
 22 06 2013  09 26  -20.9735 26024.2 -03459.8 -07.5729 26253.1
 22 06 2013  09 27  -20.9745 26023.9 -03459.9 -07.5730 26252.9
 22 06 2013  09 28  -20.9752 26023.6 -03459.9 -07.5732 26252.6
 22 06 2013  09 29  -20.9740 26023.5 -03460.0 -07.5734 26252.5
 22 06 2013  09 30  -20.9735 26022.3 -03459.5 -07.5726 26251.3
 22 06 2013  09 31  -20.9750 26021.7 -03459.4 -07.5727 26250.7
 22 06 2013  09 32  -20.9753 26021.7 -03459.6 -07.5732 26250.7
 22 06 2013  09 33  -20.9741 26021.9 -03459.9 -07.5736 26250.9
 22 06 2013  09 34  -20.9728 26022.0 -03460.0 -07.5739 26251.1
 22 06 2013  09 35  -20.9720 26021.6 -03459.9 -07.5738 26250.6
 22 06 2013  09 36  -20.9717 26021.4 -03460.0 -07.5741 26250.4
 22 06 2013  09 37  -20.9709 26021.1 -03460.1 -07.5744 26250.2
 22 06 2013  09 38  -20.9701 26021.3 -03460.3 -07.5748 26250.4
 22 06 2013  09 39  -20.9687 26021.4 -03460.5 -07.5750 26250.5
 22 06 2013  09 40  -20.9673 26021.0 -03460.3 -07.5749 26250.1
 22 06 2013  09 41  -20.9685 26020.6 -03460.3 -07.5749 26249.7
 22 06 2013  09 42  -20.9689 26021.0 -03460.7 -07.5756 26250.1
 22 06 2013  09 43  -20.9677 26021.3 -03460.8 -07.5758 26250.4
 22 06 2013  09 44  -20.9679 26021.3 -03460.9 -07.5761 26250.5
 22 06 2013  09 45  -20.9670 26021.2 -03461.0 -07.5762 26250.4
 22 06 2013  09 46  -20.9659 26020.8 -03460.8 -07.5759 26249.9
 22 06 2013  09 47  -20.9654 26020.5 -03460.7 -07.5758 26249.6
 22 06 2013  09 48  -20.9662 26020.4 -03460.8 -07.5760 26249.6
 22 06 2013  09 49  -20.9669 26020.3 -03460.9 -07.5763 26249.5
 22 06 2013  09 50  -20.9668 26020.0 -03460.9 -07.5763 26249.2
 22 06 2013  09 51  -20.9662 26020.3 -03461.0 -07.5766 26249.5
 22 06 2013  09 52  -20.9663 26020.7 -03461.3 -07.5770 26249.9
 22 06 2013  09 53  -20.9670 26020.6 -03461.4 -07.5773 26249.9
 22 06 2013  09 54  -20.9673 26020.3 -03461.4 -07.5774 26249.5
 22 06 2013  09 55  -20.9668 26020.0 -03461.6 -07.5779 26249.3
 22 06 2013  09 56  -20.9665 26019.9 -03461.8 -07.5783 26249.1
 22 06 2013  09 57  -20.9651 26020.4 -03462.0 -07.5787 26249.7
 22 06 2013  09 58  -20.9644 26020.3 -03462.0 -07.5786 26249.6
 22 06 2013  09 59  -20.9647 26019.5 -03461.8 -07.5784 26248.8
 22 06 2013  10 00  -20.9661 26018.9 -03461.9 -07.5788 26248.2
 22 06 2013  10 01  -20.9673 26018.7 -03462.3 -07.5797 26248.0
 22 06 2013  10 02  -20.9683 26018.5 -03462.6 -07.5805 26247.9
 22 06 2013  10 03  -20.9693 26018.8 -03463.0 -07.5813 26248.3
 22 06 2013  10 04  -20.9701 26019.4 -03463.4 -07.5819 26248.9
 22 06 2013  10 05  -20.9700 26019.1 -03463.2 -07.5816 26248.5
 22 06 2013  10 06  -20.9701 26018.2 -03462.8 -07.5810 26247.7
 22 06 2013  10 07  -20.9715 26018.1 -03462.9 -07.5813 26247.5
 22 06 2013  10 08  -20.9713 26018.2 -03463.1 -07.5817 26247.7
 22 06 2013  10 09  -20.9713 26018.1 -03463.3 -07.5821 26247.6
 22 06 2013  10 10  -20.9717 26018.4 -03463.6 -07.5828 26247.9
 22 06 2013  10 11  -20.9733 26018.4 -03464.0 -07.5836 26248.0
 22 06 2013  10 12  -20.9732 26018.3 -03464.2 -07.5841 26247.9
 22 06 2013  10 13  -20.9726 26018.5 -03464.4 -07.5844 26248.1
 22 06 2013  10 14  -20.9720 26018.6 -03464.6 -07.5847 26248.3
 22 06 2013  10 15  -20.9727 26018.3 -03464.4 -07.5844 26247.9
 22 06 2013  10 16  -20.9758 26018.4 -03464.5 -07.5846 26248.0
 22 06 2013  10 17  -20.9778 26018.7 -03464.7 -07.5849 26248.4
 22 06 2013  10 18  -20.9793 26019.1 -03464.8 -07.5851 26248.8
 22 06 2013  10 19  -20.9809 26018.8 -03464.7 -07.5849 26248.5
 22 06 2013  10 20  -20.9814 26018.1 -03464.4 -07.5844 26247.8
 22 06 2013  10 21  -20.9821 26017.9 -03464.3 -07.5844 26247.5
 22 06 2013  10 22  -20.9818 26017.5 -03464.3 -07.5844 26247.1
 22 06 2013  10 23  -20.9828 26017.2 -03464.3 -07.5846 26246.8
 22 06 2013  10 24  -20.9849 26016.4 -03464.3 -07.5849 26246.0
 22 06 2013  10 25  -20.9853 26015.4 -03464.3 -07.5850 26245.1
 22 06 2013  10 26  -20.9860 26014.7 -03464.3 -07.5853 26244.4
 22 06 2013  10 27  -20.9861 26014.7 -03464.5 -07.5857 26244.4
 22 06 2013  10 28  -20.9864 26014.9 -03464.7 -07.5860 26244.6
 22 06 2013  10 29  -20.9865 26014.6 -03464.5 -07.5858 26244.2
 22 06 2013  10 30  -20.9870 26013.6 -03464.2 -07.5853 26243.2
 22 06 2013  10 31  -20.9877 26012.7 -03464.0 -07.5852 26242.4
 22 06 2013  10 32  -20.9869 26013.0 -03464.3 -07.5857 26242.6
 22 06 2013  10 33  -20.9868 26013.2 -03464.5 -07.5861 26242.9
 22 06 2013  10 34  -20.9878 26013.0 -03464.6 -07.5863 26242.7
 22 06 2013  10 35  -20.9889 26013.2 -03464.8 -07.5868 26243.0
 22 06 2013  10 36  -20.9899 26013.3 -03464.9 -07.5870 26243.0
 22 06 2013  10 37  -20.9908 26013.4 -03465.1 -07.5873 26243.2
 22 06 2013  10 38  -20.9915 26013.7 -03465.2 -07.5876 26243.5
 22 06 2013  10 39  -20.9917 26013.9 -03465.4 -07.5878 26243.7
 22 06 2013  10 40  -20.9911 26014.3 -03465.6 -07.5882 26244.1
 22 06 2013  10 41  -20.9903 26014.5 -03465.8 -07.5885 26244.4
 22 06 2013  10 42  -20.9917 26015.0 -03466.1 -07.5890 26244.9
 22 06 2013  10 43  -20.9931 26015.5 -03466.4 -07.5896 26245.4
 22 06 2013  10 44  -20.9941 26015.2 -03466.4 -07.5897 26245.1
 22 06 2013  10 45  -20.9936 26015.0 -03466.4 -07.5897 26245.0
 22 06 2013  10 46  -20.9934 26015.5 -03466.5 -07.5898 26245.4
 22 06 2013  10 47  -20.9950 26015.7 -03466.5 -07.5897 26245.6
 22 06 2013  10 48  -20.9960 26015.2 -03466.3 -07.5894 26245.2
 22 06 2013  10 49  -20.9961 26014.5 -03466.0 -07.5890 26244.4
 22 06 2013  10 50  -20.9959 26014.5 -03466.1 -07.5893 26244.4
 22 06 2013  10 51  -20.9965 26015.0 -03466.6 -07.5901 26244.9
 22 06 2013  10 52  -20.9966 26015.7 -03467.1 -07.5909 26245.7
 22 06 2013  10 53  -20.9966 26016.1 -03467.3 -07.5914 26246.1
 22 06 2013  10 54  -20.9964 26016.4 -03467.4 -07.5915 26246.5
 22 06 2013  10 55  -20.9963 26017.3 -03467.6 -07.5917 26247.3
 22 06 2013  10 56  -20.9968 26017.7 -03467.7 -07.5917 26247.7
 22 06 2013  10 57  -20.9971 26017.5 -03467.5 -07.5914 26247.6
 22 06 2013  10 58  -20.9979 26017.2 -03467.4 -07.5912 26247.2
 22 06 2013  10 59  -20.9986 26017.1 -03467.4 -07.5912 26247.1
 22 06 2013  11 00  -20.9992 26017.0 -03467.3 -07.5912 26247.1
 22 06 2013  11 01  -20.9990 26017.3 -03467.4 -07.5912 26247.3
 22 06 2013  11 02  -20.9990 26017.0 -03467.2 -07.5910 26247.0
 22 06 2013  11 03  -21.0000 26016.3 -03467.1 -07.5909 26246.4
 22 06 2013  11 04  -21.0006 26015.8 -03467.0 -07.5908 26245.8
 22 06 2013  11 05  -21.0008 26015.6 -03467.0 -07.5909 26245.6
 22 06 2013  11 06  -21.0014 26015.4 -03467.1 -07.5912 26245.4
 22 06 2013  11 07  -21.0024 26015.1 -03467.2 -07.5915 26245.1
 22 06 2013  11 08  -21.0033 26014.8 -03467.4 -07.5919 26244.9
 22 06 2013  11 09  -21.0041 26015.0 -03467.6 -07.5923 26245.1
 22 06 2013  11 10  -21.0046 26015.9 -03468.0 -07.5930 26246.0
 22 06 2013  11 11  -21.0050 26017.1 -03468.6 -07.5938 26247.3
 22 06 2013  11 12  -21.0048 26018.0 -03468.7 -07.5939 26248.3
 22 06 2013  11 13  -21.0043 26018.6 -03468.6 -07.5935 26248.8
 22 06 2013  11 14  -21.0046 26018.2 -03468.2 -07.5927 26248.3
 22 06 2013  11 15  -21.0045 26018.0 -03468.0 -07.5922 26248.1
 22 06 2013  11 16  -21.0051 26017.7 -03467.9 -07.5922 26247.8
 22 06 2013  11 17  -21.0064 26017.6 -03468.0 -07.5924 26247.7
 22 06 2013  11 18  -21.0078 26017.7 -03468.1 -07.5926 26247.8
 22 06 2013  11 19  -21.0077 26017.9 -03468.1 -07.5926 26248.0
 22 06 2013  11 20  -21.0070 26018.0 -03468.1 -07.5925 26248.1
 22 06 2013  11 21  -21.0065 26018.6 -03468.2 -07.5927 26248.7
 22 06 2013  11 22  -21.0062 26019.6 -03468.6 -07.5931 26249.8
 22 06 2013  11 23  -21.0056 26020.7 -03468.8 -07.5933 26250.9
 22 06 2013  11 24  -21.0055 26020.7 -03468.6 -07.5929 26250.9
 22 06 2013  11 25  -21.0061 26019.7 -03468.1 -07.5922 26249.8
 22 06 2013  11 26  -21.0070 26018.7 -03467.9 -07.5920 26248.8
 22 06 2013  11 27  -21.0077 26018.3 -03468.0 -07.5923 26248.4
 22 06 2013  11 28  -21.0084 26018.4 -03468.3 -07.5929 26248.6
 22 06 2013  11 29  -21.0085 26018.8 -03468.6 -07.5935 26249.0
 22 06 2013  11 30  -21.0086 26019.0 -03468.8 -07.5938 26249.2
 22 06 2013  11 31  -21.0085 26019.0 -03468.9 -07.5939 26249.3
 22 06 2013  11 32  -21.0079 26019.2 -03469.0 -07.5941 26249.5
 22 06 2013  11 33  -21.0084 26019.7 -03469.3 -07.5946 26250.0
 22 06 2013  11 34  -21.0099 26019.6 -03469.4 -07.5949 26249.9
 22 06 2013  11 35  -21.0103 26019.1 -03469.4 -07.5951 26249.4
 22 06 2013  11 36  -21.0099 26018.6 -03469.5 -07.5954 26248.9
 22 06 2013  11 37  -21.0091 26019.4 -03470.1 -07.5964 26249.7
 22 06 2013  11 38  -21.0091 26020.3 -03470.6 -07.5972 26250.7
 22 06 2013  11 39  -21.0102 26021.7 -03471.0 -07.5977 26252.2
 22 06 2013  11 40  -21.0112 26023.8 -03471.4 -07.5980 26254.3
 22 06 2013  11 41  -21.0133 26024.3 -03471.1 -07.5973 26254.8
 22 06 2013  11 42  -21.0141 26024.6 -03470.8 -07.5964 26255.0
 22 06 2013  11 43  -21.0150 26023.9 -03470.2 -07.5954 26254.3
 22 06 2013  11 44  -21.0159 26024.2 -03470.1 -07.5952 26254.5
 22 06 2013  11 45  -21.0151 26025.1 -03470.3 -07.5953 26255.5
 22 06 2013  11 46  -21.0151 26025.8 -03470.4 -07.5952 26256.2
 22 06 2013  11 47  -21.0159 26026.2 -03470.3 -07.5950 26256.5
 22 06 2013  11 48  -21.0174 26025.0 -03469.8 -07.5942 26255.3
 22 06 2013  11 49  -21.0175 26025.5 -03469.9 -07.5942 26255.8
 22 06 2013  11 50  -21.0171 26027.1 -03470.3 -07.5946 26257.5
 22 06 2013  11 51  -21.0169 26028.8 -03470.6 -07.5948 26259.1
 22 06 2013  11 52  -21.0191 26028.8 -03470.2 -07.5941 26259.1
 22 06 2013  11 53  -21.0218 26028.1 -03469.7 -07.5932 26258.3
 22 06 2013  11 54  -21.0236 26027.6 -03469.5 -07.5927 26257.8
 22 06 2013  11 55  -21.0259 26027.7 -03469.5 -07.5928 26257.9
 22 06 2013  11 56  -21.0275 26028.5 -03469.7 -07.5930 26258.7
 22 06 2013  11 57  -21.0283 26029.6 -03469.9 -07.5930 26259.9
 22 06 2013  11 58  -21.0287 26029.8 -03469.6 -07.5923 26260.0
 22 06 2013  11 59  -21.0293 26029.7 -03469.2 -07.5916 26259.8
 22 06 2013  12 00  -21.0291 26029.8 -03469.0 -07.5910 26260.0
 22 06 2013  12 01  -21.0292 26029.6 -03468.6 -07.5903 26259.7
 22 06 2013  12 02  -21.0284 26029.2 -03468.3 -07.5898 26259.3
 22 06 2013  12 03  -21.0271 26028.8 -03468.1 -07.5894 26258.9
 22 06 2013  12 04  -21.0258 26028.4 -03468.0 -07.5893 26258.5
 22 06 2013  12 05  -21.0251 26027.8 -03467.9 -07.5894 26257.9
 22 06 2013  12 06  -21.0251 26027.2 -03468.0 -07.5896 26257.3
 22 06 2013  12 07  -21.0251 26027.3 -03468.2 -07.5901 26257.4
 22 06 2013  12 08  -21.0257 26027.4 -03468.4 -07.5905 26257.5
 22 06 2013  12 09  -21.0267 26027.6 -03468.6 -07.5909 26257.7
 22 06 2013  12 10  -21.0268 26028.5 -03468.9 -07.5913 26258.7
 22 06 2013  12 11  -21.0272 26029.8 -03469.2 -07.5916 26260.0
 22 06 2013  12 12  -21.0281 26030.9 -03469.4 -07.5915 26261.1
 22 06 2013  12 13  -21.0289 26031.8 -03469.3 -07.5911 26261.9
 22 06 2013  12 14  -21.0301 26032.3 -03469.0 -07.5904 26262.4
 22 06 2013  12 15  -21.0314 26033.0 -03468.8 -07.5898 26263.1
 22 06 2013  12 16  -21.0321 26033.7 -03468.7 -07.5892 26263.8
 22 06 2013  12 17  -21.0323 26034.0 -03468.3 -07.5884 26264.0
 22 06 2013  12 18  -21.0325 26033.9 -03467.9 -07.5875 26263.8
 22 06 2013  12 19  -21.0332 26032.9 -03467.3 -07.5865 26262.8
 22 06 2013  12 20  -21.0335 26032.1 -03466.9 -07.5859 26261.9
 22 06 2013  12 21  -21.0345 26032.1 -03466.9 -07.5859 26262.0
 22 06 2013  12 22  -21.0343 26032.8 -03467.0 -07.5860 26262.7
 22 06 2013  12 23  -21.0343 26033.5 -03467.1 -07.5859 26263.4
 22 06 2013  12 24  -21.0333 26034.2 -03467.1 -07.5858 26264.1
 22 06 2013  12 25  -21.0333 26034.9 -03467.2 -07.5857 26264.8
 22 06 2013  12 26  -21.0331 26035.8 -03467.2 -07.5855 26265.7
 22 06 2013  12 27  -21.0334 26036.5 -03467.1 -07.5849 26266.3
 22 06 2013  12 28  -21.0339 26036.5 -03466.6 -07.5840 26266.3
 22 06 2013  12 29  -21.0342 26036.7 -03466.2 -07.5831 26266.4
 22 06 2013  12 30  -21.0344 26037.0 -03465.9 -07.5824 26266.7
 22 06 2013  12 31  -21.0350 26037.8 -03465.8 -07.5819 26267.4
 22 06 2013  12 32  -21.0358 26039.0 -03465.8 -07.5815 26268.7
 22 06 2013  12 33  -21.0365 26039.7 -03465.4 -07.5805 26269.2
 22 06 2013  12 34  -21.0369 26039.9 -03464.9 -07.5793 26269.4
 22 06 2013  12 35  -21.0381 26040.0 -03464.5 -07.5785 26269.4
 22 06 2013  12 36  -21.0397 26040.0 -03464.2 -07.5778 26269.5
 22 06 2013  12 37  -21.0410 26041.0 -03464.2 -07.5775 26270.5
 22 06 2013  12 38  -21.0411 26041.9 -03464.1 -07.5769 26271.3
 22 06 2013  12 39  -21.0406 26042.4 -03463.8 -07.5761 26271.7
 22 06 2013  12 40  -21.0404 26043.0 -03463.5 -07.5755 26272.3
 22 06 2013  12 41  -21.0401 26042.7 -03463.0 -07.5744 26271.9
 22 06 2013  12 42  -21.0401 26041.3 -03462.2 -07.5731 26270.4
 22 06 2013  12 43  -21.0405 26040.5 -03461.9 -07.5727 26269.6
 22 06 2013  12 44  -21.0417 26040.2 -03461.9 -07.5727 26269.4
 22 06 2013  12 45  -21.0429 26040.0 -03461.9 -07.5727 26269.1
 22 06 2013  12 46  -21.0438 26039.3 -03461.7 -07.5725 26268.4
 22 06 2013  12 47  -21.0447 26038.6 -03461.5 -07.5724 26267.7
 22 06 2013  12 48  -21.0452 26038.8 -03461.7 -07.5727 26267.9
 22 06 2013  12 49  -21.0454 26040.6 -03462.3 -07.5735 26269.8
 22 06 2013  12 50  -21.0450 26041.7 -03462.4 -07.5735 26270.8
 22 06 2013  12 51  -21.0443 26041.9 -03462.2 -07.5728 26271.0
 22 06 2013  12 52  -21.0442 26042.5 -03462.1 -07.5726 26271.6
 22 06 2013  12 53  -21.0439 26042.4 -03461.9 -07.5722 26271.5
 22 06 2013  12 54  -21.0439 26041.9 -03461.6 -07.5715 26270.9
 22 06 2013  12 55  -21.0436 26040.9 -03461.2 -07.5710 26269.9
 22 06 2013  12 56  -21.0438 26040.5 -03461.2 -07.5711 26269.6
 22 06 2013  12 57  -21.0438 26041.3 -03461.6 -07.5718 26270.3
 22 06 2013  12 58  -21.0444 26042.3 -03462.0 -07.5724 26271.4
 22 06 2013  12 59  -21.0453 26043.4 -03462.2 -07.5725 26272.5
 22 06 2013  13 00  -21.0457 26045.2 -03462.5 -07.5725 26274.3
 22 06 2013  13 01  -21.0451 26046.3 -03462.3 -07.5718 26275.4
 22 06 2013  13 02  -21.0449 26046.6 -03461.9 -07.5709 26275.6
 22 06 2013  13 03  -21.0456 26047.1 -03461.8 -07.5706 26276.2
 22 06 2013  13 04  -21.0467 26047.6 -03461.7 -07.5701 26276.6
 22 06 2013  13 05  -21.0475 26048.0 -03461.5 -07.5695 26277.0
 22 06 2013  13 06  -21.0479 26048.4 -03461.3 -07.5692 26277.4
 22 06 2013  13 07  -21.0487 26048.7 -03461.2 -07.5688 26277.6
 22 06 2013  13 08  -21.0490 26048.9 -03461.0 -07.5684 26277.8
 22 06 2013  13 09  -21.0496 26048.9 -03460.8 -07.5679 26277.8
 22 06 2013  13 10  -21.0503 26048.7 -03460.6 -07.5675 26277.5
 22 06 2013  13 11  -21.0511 26048.5 -03460.4 -07.5672 26277.4
 22 06 2013  13 12  -21.0516 26048.4 -03460.3 -07.5669 26277.3
 22 06 2013  13 13  -21.0523 26048.4 -03460.3 -07.5668 26277.3
 22 06 2013  13 14  -21.0529 26048.6 -03460.2 -07.5668 26277.4
 22 06 2013  13 15  -21.0534 26048.7 -03460.2 -07.5666 26277.5
 22 06 2013  13 16  -21.0537 26048.6 -03460.1 -07.5664 26277.4
 22 06 2013  13 17  -21.0542 26048.9 -03460.1 -07.5663 26277.7
 22 06 2013  13 18  -21.0551 26049.3 -03460.0 -07.5661 26278.1
 22 06 2013  13 19  -21.0558 26049.7 -03460.0 -07.5659 26278.4
 22 06 2013  13 20  -21.0560 26049.4 -03459.6 -07.5652 26278.1
 22 06 2013  13 21  -21.0559 26049.1 -03459.4 -07.5647 26277.8
 22 06 2013  13 22  -21.0564 26049.1 -03459.3 -07.5645 26277.8
 22 06 2013  13 23  -21.0574 26049.8 -03459.5 -07.5647 26278.5
 22 06 2013  13 24  -21.0586 26051.2 -03459.8 -07.5650 26279.9
 22 06 2013  13 25  -21.0597 26052.8 -03459.9 -07.5649 26281.5
 22 06 2013  13 26  -21.0599 26053.8 -03459.7 -07.5640 26282.5
 22 06 2013  13 27  -21.0597 26054.6 -03459.3 -07.5630 26283.3
 22 06 2013  13 28  -21.0592 26055.4 -03459.0 -07.5622 26284.0
 22 06 2013  13 29  -21.0586 26055.8 -03458.7 -07.5612 26284.4
 22 06 2013  13 30  -21.0582 26056.3 -03458.3 -07.5603 26284.8
 22 06 2013  13 31  -21.0580 26057.1 -03458.1 -07.5598 26285.5
 22 06 2013  13 32  -21.0575 26057.8 -03457.9 -07.5590 26286.3
 22 06 2013  13 33  -21.0574 26059.2 -03457.9 -07.5586 26287.6
 22 06 2013  13 34  -21.0569 26060.0 -03457.6 -07.5578 26288.4
 22 06 2013  13 35  -21.0568 26060.3 -03457.2 -07.5567 26288.6
 22 06 2013  13 36  -21.0563 26060.8 -03456.9 -07.5561 26289.1
 22 06 2013  13 37  -21.0560 26061.3 -03456.7 -07.5554 26289.5
 22 06 2013  13 38  -21.0559 26061.5 -03456.4 -07.5548 26289.7
 22 06 2013  13 39  -21.0554 26060.5 -03455.9 -07.5539 26288.7
 22 06 2013  13 40  -21.0547 26058.4 -03455.0 -07.5526 26286.4
 22 06 2013  13 41  -21.0544 26057.2 -03454.8 -07.5525 26285.2
 22 06 2013  13 42  -21.0539 26057.7 -03455.2 -07.5532 26285.8
 22 06 2013  13 43  -21.0538 26058.8 -03455.7 -07.5541 26286.9
 22 06 2013  13 44  -21.0540 26059.4 -03455.9 -07.5543 26287.6
 22 06 2013  13 45  -21.0544 26059.6 -03455.9 -07.5543 26287.7
 22 06 2013  13 46  -21.0544 26059.8 -03455.9 -07.5541 26288.0
 22 06 2013  13 47  -21.0542 26060.1 -03455.8 -07.5539 26288.3
 22 06 2013  13 48  -21.0539 26060.4 -03455.7 -07.5534 26288.5
 22 06 2013  13 49  -21.0535 26060.9 -03455.6 -07.5532 26289.0
 22 06 2013  13 50  -21.0534 26061.5 -03455.6 -07.5530 26289.6
 22 06 2013  13 51  -21.0531 26062.1 -03455.6 -07.5529 26290.2
 22 06 2013  13 52  -21.0530 26062.3 -03455.5 -07.5525 26290.4
 22 06 2013  13 53  -21.0531 26062.4 -03455.4 -07.5522 26290.5
 22 06 2013  13 54  -21.0534 26062.7 -03455.3 -07.5521 26290.8
 22 06 2013  13 55  -21.0540 26063.3 -03455.4 -07.5520 26291.3
 22 06 2013  13 56  -21.0545 26063.9 -03455.4 -07.5518 26291.9
 22 06 2013  13 57  -21.0546 26064.1 -03455.2 -07.5513 26292.1
 22 06 2013  13 58  -21.0549 26064.3 -03455.1 -07.5510 26292.3
 22 06 2013  13 59  -21.0550 26064.3 -03454.9 -07.5507 26292.3
 22 06 2013  14 00  -21.0554 26064.3 -03454.7 -07.5503 26292.3
 22 06 2013  14 01  -21.0557 26064.4 -03454.5 -07.5498 26292.3
 22 06 2013  14 02  -21.0559 26064.0 -03454.2 -07.5493 26291.9
 22 06 2013  14 03  -21.0558 26063.6 -03453.9 -07.5488 26291.5
 22 06 2013  14 04  -21.0556 26063.3 -03453.7 -07.5484 26291.1
 22 06 2013  14 05  -21.0556 26062.7 -03453.5 -07.5480 26290.5
 22 06 2013  14 06  -21.0557 26062.7 -03453.4 -07.5480 26290.5
 22 06 2013  14 07  -21.0562 26062.8 -03453.4 -07.5480 26290.6
 22 06 2013  14 08  -21.0567 26062.6 -03453.3 -07.5477 26290.4
 22 06 2013  14 09  -21.0563 26062.0 -03452.9 -07.5471 26289.7
 22 06 2013  14 10  -21.0562 26061.3 -03452.8 -07.5469 26289.0
 22 06 2013  14 11  -21.0558 26060.5 -03452.6 -07.5467 26288.2
 22 06 2013  14 12  -21.0560 26060.5 -03452.7 -07.5470 26288.2
 22 06 2013  14 13  -21.0565 26060.9 -03452.9 -07.5473 26288.7
 22 06 2013  14 14  -21.0567 26061.5 -03453.0 -07.5474 26289.3
 22 06 2013  14 15  -21.0565 26062.0 -03453.1 -07.5474 26289.8
 22 06 2013  14 16  -21.0564 26062.5 -03453.1 -07.5474 26290.3
 22 06 2013  14 17  -21.0568 26063.4 -03453.2 -07.5473 26291.1
 22 06 2013  14 18  -21.0571 26064.2 -03453.2 -07.5471 26291.9
 22 06 2013  14 19  -21.0570 26064.1 -03452.9 -07.5463 26291.8
 22 06 2013  14 20  -21.0561 26063.3 -03452.2 -07.5452 26290.9
 22 06 2013  14 21  -21.0553 26062.4 -03451.7 -07.5444 26290.0
 22 06 2013  14 22  -21.0552 26061.5 -03451.4 -07.5440 26289.1
 22 06 2013  14 23  -21.0550 26061.5 -03451.4 -07.5440 26289.1
 22 06 2013  14 24  -21.0549 26061.5 -03451.4 -07.5440 26289.1
 22 06 2013  14 25  -21.0543 26061.2 -03451.2 -07.5437 26288.8
 22 06 2013  14 26  -21.0541 26060.6 -03450.9 -07.5432 26288.1
 22 06 2013  14 27  -21.0538 26060.2 -03450.8 -07.5429 26287.7
 22 06 2013  14 28  -21.0539 26060.4 -03450.9 -07.5432 26287.9
 22 06 2013  14 29  -21.0542 26061.4 -03451.2 -07.5435 26288.9
 22 06 2013  14 30  -21.0543 26061.9 -03451.2 -07.5434 26289.4
 22 06 2013  14 31  -21.0538 26062.2 -03451.2 -07.5432 26289.7
 22 06 2013  14 32  -21.0538 26062.5 -03451.3 -07.5433 26290.1
 22 06 2013  14 33  -21.0532 26062.2 -03451.0 -07.5429 26289.6
 22 06 2013  14 34  -21.0527 26061.6 -03450.8 -07.5427 26289.1
 22 06 2013  14 35  -21.0527 26061.6 -03450.9 -07.5429 26289.1
 22 06 2013  14 36  -21.0533 26062.4 -03451.2 -07.5433 26290.0
 22 06 2013  14 37  -21.0546 26064.2 -03451.6 -07.5437 26291.7
 22 06 2013  14 38  -21.0554 26065.7 -03451.7 -07.5434 26293.2
 22 06 2013  14 39  -21.0554 26066.0 -03451.2 -07.5422 26293.5
 22 06 2013  14 40  -21.0555 26066.7 -03450.8 -07.5412 26294.2
 22 06 2013  14 41  -21.0549 26067.5 -03450.5 -07.5404 26294.9
 22 06 2013  14 42  -21.0544 26068.3 -03450.2 -07.5394 26295.6
 22 06 2013  14 43  -21.0544 26069.1 -03450.0 -07.5387 26296.4
 22 06 2013  14 44  -21.0544 26069.6 -03449.6 -07.5378 26296.9
 22 06 2013  14 45  -21.0545 26070.2 -03449.3 -07.5369 26297.4
 22 06 2013  14 46  -21.0550 26070.9 -03449.1 -07.5363 26298.1
 22 06 2013  14 47  -21.0548 26071.1 -03448.8 -07.5355 26298.2
 22 06 2013  14 48  -21.0546 26070.9 -03448.3 -07.5346 26298.0
 22 06 2013  14 49  -21.0541 26070.6 -03447.8 -07.5336 26297.6
 22 06 2013  14 50  -21.0538 26070.9 -03447.7 -07.5333 26297.8
 22 06 2013  14 51  -21.0537 26070.7 -03447.5 -07.5328 26297.7
 22 06 2013  14 52  -21.0534 26070.4 -03447.2 -07.5323 26297.4
 22 06 2013  14 53  -21.0532 26070.0 -03447.0 -07.5319 26296.9
 22 06 2013  14 54  -21.0529 26069.6 -03446.8 -07.5317 26296.5
 22 06 2013  14 55  -21.0524 26069.4 -03446.7 -07.5315 26296.2
 22 06 2013  14 56  -21.0526 26069.3 -03446.8 -07.5317 26296.1
 22 06 2013  14 57  -21.0527 26069.0 -03446.7 -07.5317 26295.8
 22 06 2013  14 58  -21.0526 26068.1 -03446.5 -07.5315 26295.0
 22 06 2013  14 59  -21.0524 26067.3 -03446.4 -07.5314 26294.2
 22 06 2013  15 00  -21.0525 26066.8 -03446.4 -07.5315 26293.7
 22 06 2013  15 01  -21.0520 26066.0 -03446.2 -07.5313 26292.8
 22 06 2013  15 02  -21.0510 26064.4 -03445.6 -07.5307 26291.2
 22 06 2013  15 03  -21.0502 26062.9 -03445.3 -07.5304 26289.6
 22 06 2013  15 04  -21.0502 26062.2 -03445.4 -07.5308 26289.0
 22 06 2013  15 05  -21.0500 26061.4 -03445.5 -07.5313 26288.2
 22 06 2013  15 06  -21.0498 26060.3 -03445.5 -07.5314 26287.1
 22 06 2013  15 07  -21.0508 26060.9 -03446.1 -07.5326 26287.7
 22 06 2013  15 08  -21.0513 26061.4 -03446.5 -07.5334 26288.3
 22 06 2013  15 09  -21.0515 26061.4 -03446.5 -07.5335 26288.3
 22 06 2013  15 10  -21.0516 26061.2 -03446.5 -07.5334 26288.1
 22 06 2013  15 11  -21.0517 26060.8 -03446.3 -07.5331 26287.6
 22 06 2013  15 12  -21.0508 26060.2 -03446.1 -07.5329 26287.1
 22 06 2013  15 13  -21.0507 26059.8 -03446.1 -07.5329 26286.7
 22 06 2013  15 14  -21.0507 26059.7 -03446.1 -07.5331 26286.6
 22 06 2013  15 15  -21.0501 26059.9 -03446.3 -07.5334 26286.8
 22 06 2013  15 16  -21.0501 26059.6 -03446.3 -07.5335 26286.5
 22 06 2013  15 17  -21.0497 26059.3 -03446.2 -07.5334 26286.2
 22 06 2013  15 18  -21.0492 26059.4 -03446.3 -07.5336 26286.3
 22 06 2013  15 19  -21.0491 26059.5 -03446.4 -07.5337 26286.4
 22 06 2013  15 20  -21.0485 26059.3 -03446.3 -07.5335 26286.2
 22 06 2013  15 21  -21.0482 26059.4 -03446.4 -07.5337 26286.3
 22 06 2013  15 22  -21.0487 26060.0 -03446.6 -07.5340 26286.9
 22 06 2013  15 23  -21.0484 26060.5 -03446.7 -07.5340 26287.4
 22 06 2013  15 24  -21.0472 26060.3 -03446.4 -07.5334 26287.2
 22 06 2013  15 25  -21.0464 26059.8 -03446.1 -07.5329 26286.6
 22 06 2013  15 26  -21.0460 26059.1 -03445.8 -07.5326 26286.0
 22 06 2013  15 27  -21.0461 26059.0 -03445.9 -07.5327 26285.8
 22 06 2013  15 28  -21.0467 26059.2 -03446.1 -07.5331 26286.1
 22 06 2013  15 29  -21.0465 26059.0 -03446.1 -07.5332 26285.9
 22 06 2013  15 30  -21.0457 26058.7 -03446.0 -07.5332 26285.6
 22 06 2013  15 31  -21.0453 26058.7 -03446.2 -07.5335 26285.6
 22 06 2013  15 32  -21.0449 26058.9 -03446.4 -07.5339 26285.8
 22 06 2013  15 33  -21.0448 26059.1 -03446.6 -07.5342 26286.0
 22 06 2013  15 34  -21.0450 26059.1 -03446.6 -07.5343 26286.0
 22 06 2013  15 35  -21.0453 26059.2 -03446.7 -07.5344 26286.1
 22 06 2013  15 36  -21.0457 26059.3 -03446.8 -07.5345 26286.2
 22 06 2013  15 37  -21.0457 26059.1 -03446.7 -07.5346 26286.0
 22 06 2013  15 38  -21.0455 26058.7 -03446.7 -07.5345 26285.6
 22 06 2013  15 39  -21.0452 26058.2 -03446.7 -07.5346 26285.2
 22 06 2013  15 40  -21.0454 26057.6 -03446.6 -07.5347 26284.6
 22 06 2013  15 41  -21.0457 26057.4 -03446.8 -07.5351 26284.4
 22 06 2013  15 42  -21.0461 26057.3 -03446.9 -07.5354 26284.2
 22 06 2013  15 43  -21.0458 26056.9 -03446.9 -07.5356 26283.9
 22 06 2013  15 44  -21.0456 26056.5 -03447.0 -07.5358 26283.5
 22 06 2013  15 45  -21.0453 26056.1 -03447.1 -07.5362 26283.1
 22 06 2013  15 46  -21.0456 26055.9 -03447.4 -07.5368 26283.0
 22 06 2013  15 47  -21.0469 26056.3 -03447.8 -07.5377 26283.4
 22 06 2013  15 48  -21.0476 26056.4 -03448.0 -07.5381 26283.6
 22 06 2013  15 49  -21.0480 26056.2 -03448.1 -07.5383 26283.4
 22 06 2013  15 50  -21.0482 26056.1 -03448.2 -07.5385 26283.3
 22 06 2013  15 51  -21.0478 26055.7 -03448.2 -07.5387 26282.8
 22 06 2013  15 52  -21.0475 26055.2 -03448.3 -07.5391 26282.4
 22 06 2013  15 53  -21.0471 26055.0 -03448.6 -07.5397 26282.2
 22 06 2013  15 54  -21.0473 26054.7 -03448.8 -07.5403 26282.0
 22 06 2013  15 55  -21.0490 26055.5 -03449.4 -07.5414 26282.8
 22 06 2013  15 56  -21.0510 26056.7 -03450.0 -07.5422 26284.1
 22 06 2013  15 57  -21.0530 26057.5 -03450.1 -07.5422 26284.9
 22 06 2013  15 58  -21.0519 26057.0 -03449.5 -07.5412 26284.4
 22 06 2013  15 59  -21.0518 26056.9 -03449.4 -07.5408 26284.3
 22 06 2013  16 00  -21.0514 26057.1 -03449.4 -07.5409 26284.5
 22 06 2013  16 01  -21.0508 26057.1 -03449.4 -07.5408 26284.4
 22 06 2013  16 02  -21.0505 26056.7 -03449.3 -07.5407 26284.0
 22 06 2013  16 03  -21.0508 26057.1 -03449.4 -07.5410 26284.5
 22 06 2013  16 04  -21.0508 26056.8 -03449.3 -07.5407 26284.1
 22 06 2013  16 05  -21.0505 26055.8 -03448.9 -07.5401 26283.1
 22 06 2013  16 06  -21.0515 26055.4 -03448.8 -07.5401 26282.6
 22 06 2013  16 07  -21.0531 26056.0 -03449.2 -07.5407 26283.3
 22 06 2013  16 08  -21.0538 26055.8 -03449.0 -07.5405 26283.1
 22 06 2013  16 09  -21.0533 26054.8 -03448.6 -07.5397 26282.0
 22 06 2013  16 10  -21.0543 26054.5 -03448.6 -07.5399 26281.8
 22 06 2013  16 11  -21.0570 26055.2 -03448.9 -07.5404 26282.4
 22 06 2013  16 12  -21.0578 26055.6 -03448.9 -07.5403 26282.9
 22 06 2013  16 13  -21.0583 26055.9 -03448.8 -07.5398 26283.1
 22 06 2013  16 14  -21.0593 26055.7 -03448.5 -07.5393 26283.0
 22 06 2013  16 15  -21.0600 26055.4 -03448.0 -07.5384 26282.6
 22 06 2013  16 16  -21.0602 26055.6 -03447.7 -07.5377 26282.8
 22 06 2013  16 17  -21.0616 26056.7 -03447.8 -07.5375 26283.8
 22 06 2013  16 18  -21.0613 26057.0 -03447.4 -07.5365 26284.0
 22 06 2013  16 19  -21.0601 26056.2 -03446.6 -07.5350 26283.2
 22 06 2013  16 20  -21.0600 26055.3 -03445.9 -07.5337 26282.2
 22 06 2013  16 21  -21.0613 26054.7 -03445.5 -07.5331 26281.6
 22 06 2013  16 22  -21.0618 26054.3 -03445.1 -07.5324 26281.1
 22 06 2013  16 23  -21.0612 26053.1 -03444.4 -07.5312 26279.8
 22 06 2013  16 24  -21.0621 26053.3 -03444.4 -07.5312 26280.0
 22 06 2013  16 25  -21.0630 26053.8 -03444.5 -07.5313 26280.5
 22 06 2013  16 26  -21.0634 26053.9 -03444.4 -07.5309 26280.6
 22 06 2013  16 27  -21.0637 26053.4 -03444.0 -07.5302 26280.1
 22 06 2013  16 28  -21.0636 26053.0 -03443.7 -07.5296 26279.6
 22 06 2013  16 29  -21.0632 26052.1 -03443.2 -07.5290 26278.6
 22 06 2013  16 30  -21.0621 26050.9 -03442.8 -07.5283 26277.4
 22 06 2013  16 31  -21.0620 26050.3 -03442.7 -07.5283 26276.8
 22 06 2013  16 32  -21.0623 26050.2 -03442.8 -07.5286 26276.7
 22 06 2013  16 33  -21.0628 26050.3 -03443.0 -07.5290 26276.8
 22 06 2013  16 34  -21.0625 26049.6 -03442.8 -07.5287 26276.1
 22 06 2013  16 35  -21.0618 26048.7 -03442.5 -07.5284 26275.2
 22 06 2013  16 36  -21.0610 26048.0 -03442.4 -07.5283 26274.5
 22 06 2013  16 37  -21.0603 26047.5 -03442.4 -07.5285 26273.9
 22 06 2013  16 38  -21.0596 26046.6 -03442.3 -07.5285 26273.1
 22 06 2013  16 39  -21.0589 26045.9 -03442.2 -07.5285 26272.4
 22 06 2013  16 40  -21.0593 26045.6 -03442.5 -07.5292 26272.1
 22 06 2013  16 41  -21.0586 26044.8 -03442.4 -07.5293 26271.3
 22 06 2013  16 42  -21.0587 26044.4 -03442.7 -07.5300 26271.0
 22 06 2013  16 43  -21.0589 26044.3 -03443.0 -07.5306 26270.9
 22 06 2013  16 44  -21.0584 26043.9 -03443.1 -07.5309 26270.5
 22 06 2013  16 45  -21.0581 26043.5 -03443.2 -07.5314 26270.2
 22 06 2013  16 46  -21.0573 26043.0 -03443.2 -07.5315 26269.7
 22 06 2013  16 47  -21.0564 26042.7 -03443.4 -07.5320 26269.3
 22 06 2013  16 48  -21.0557 26042.5 -03443.6 -07.5325 26269.2
 22 06 2013  16 49  -21.0553 26042.4 -03443.9 -07.5331 26269.1
 22 06 2013  16 50  -21.0549 26042.4 -03444.1 -07.5337 26269.2
 22 06 2013  16 51  -21.0550 26042.7 -03444.5 -07.5344 26269.5
 22 06 2013  16 52  -21.0548 26042.8 -03444.7 -07.5349 26269.6
 22 06 2013  16 53  -21.0543 26042.6 -03444.9 -07.5352 26269.5
 22 06 2013  16 54  -21.0540 26042.7 -03445.1 -07.5358 26269.6
 22 06 2013  16 55  -21.0543 26043.2 -03445.6 -07.5365 26270.2
 22 06 2013  16 56  -21.0546 26043.8 -03446.0 -07.5372 26270.7
 22 06 2013  16 57  -21.0542 26043.8 -03446.0 -07.5374 26270.8
 22 06 2013  16 58  -21.0537 26043.7 -03446.1 -07.5375 26270.7
 22 06 2013  16 59  -21.0541 26044.2 -03446.4 -07.5381 26271.2
 22 06 2013  17 00  -21.0543 26044.4 -03446.6 -07.5384 26271.5
 22 06 2013  17 01  -21.0546 26044.7 -03446.7 -07.5386 26271.8
 22 06 2013  17 02  -21.0546 26045.1 -03446.8 -07.5387 26272.2
 22 06 2013  17 03  -21.0543 26045.1 -03446.8 -07.5387 26272.2
 22 06 2013  17 04  -21.0538 26044.9 -03446.7 -07.5385 26271.9
 22 06 2013  17 05  -21.0540 26044.8 -03446.7 -07.5386 26271.9
 22 06 2013  17 06  -21.0543 26045.1 -03446.9 -07.5390 26272.2
 22 06 2013  17 07  -21.0543 26045.0 -03447.0 -07.5391 26272.1
 22 06 2013  17 08  -21.0539 26044.3 -03446.8 -07.5390 26271.4
 22 06 2013  17 09  -21.0539 26044.0 -03446.9 -07.5392 26271.1
 22 06 2013  17 10  -21.0539 26043.7 -03447.0 -07.5395 26270.8
 22 06 2013  17 11  -21.0545 26043.6 -03447.3 -07.5401 26270.8
 22 06 2013  17 12  -21.0542 26043.3 -03447.4 -07.5404 26270.5
 22 06 2013  17 13  -21.0543 26043.0 -03447.5 -07.5407 26270.2
 22 06 2013  17 14  -21.0547 26042.9 -03447.7 -07.5413 26270.1
 22 06 2013  17 15  -21.0554 26043.0 -03448.0 -07.5419 26270.3
 22 06 2013  17 16  -21.0559 26043.0 -03448.2 -07.5423 26270.3
 22 06 2013  17 17  -21.0564 26043.2 -03448.4 -07.5426 26270.5
 22 06 2013  17 18  -21.0574 26043.5 -03448.7 -07.5431 26270.8
 22 06 2013  17 19  -21.0579 26043.6 -03448.7 -07.5433 26270.9
 22 06 2013  17 20  -21.0581 26043.7 -03448.8 -07.5433 26271.0
 22 06 2013  17 21  -21.0588 26044.0 -03448.9 -07.5436 26271.3
 22 06 2013  17 22  -21.0599 26044.4 -03449.2 -07.5440 26271.8
 22 06 2013  17 23  -21.0604 26044.5 -03449.1 -07.5439 26271.9
 22 06 2013  17 24  -21.0611 26044.2 -03449.1 -07.5438 26271.6
 22 06 2013  17 25  -21.0610 26043.8 -03448.9 -07.5435 26271.1
 22 06 2013  17 26  -21.0612 26043.4 -03448.8 -07.5435 26270.8
 22 06 2013  17 27  -21.0616 26043.5 -03448.9 -07.5438 26270.9
 22 06 2013  17 28  -21.0619 26043.5 -03449.0 -07.5439 26270.9
 22 06 2013  17 29  -21.0614 26043.2 -03448.9 -07.5437 26270.5
 22 06 2013  17 30  -21.0612 26042.9 -03448.8 -07.5437 26270.2
 22 06 2013  17 31  -21.0617 26042.6 -03448.9 -07.5439 26270.0
 22 06 2013  17 32  -21.0625 26042.4 -03448.9 -07.5441 26269.8
 22 06 2013  17 33  -21.0631 26042.2 -03449.0 -07.5442 26269.6
 22 06 2013  17 34  -21.0636 26041.8 -03448.9 -07.5442 26269.2
 22 06 2013  17 35  -21.0638 26041.4 -03448.9 -07.5444 26268.8
 22 06 2013  17 36  -21.0643 26041.3 -03449.0 -07.5446 26268.7
 22 06 2013  17 37  -21.0646 26041.2 -03449.1 -07.5448 26268.6
 22 06 2013  17 38  -21.0649 26041.1 -03449.2 -07.5450 26268.5
 22 06 2013  17 39  -21.0651 26040.8 -03449.2 -07.5451 26268.3
 22 06 2013  17 40  -21.0653 26040.5 -03449.3 -07.5453 26267.9
 22 06 2013  17 41  -21.0654 26040.1 -03449.2 -07.5453 26267.6
 22 06 2013  17 42  -21.0653 26039.7 -03449.2 -07.5455 26267.1
 22 06 2013  17 43  -21.0653 26039.3 -03449.3 -07.5457 26266.8
 22 06 2013  17 44  -21.0656 26038.9 -03449.4 -07.5460 26266.4
 22 06 2013  17 45  -21.0658 26038.4 -03449.4 -07.5462 26265.9
 22 06 2013  17 46  -21.0660 26038.0 -03449.5 -07.5465 26265.5
 22 06 2013  17 47  -21.0658 26037.5 -03449.4 -07.5465 26265.0
 22 06 2013  17 48  -21.0658 26037.1 -03449.5 -07.5467 26264.7
 22 06 2013  17 49  -21.0660 26037.1 -03449.6 -07.5470 26264.6
 22 06 2013  17 50  -21.0667 26037.1 -03449.8 -07.5474 26264.7
 22 06 2013  17 51  -21.0665 26036.5 -03449.7 -07.5473 26264.1
 22 06 2013  17 52  -21.0669 26035.8 -03449.6 -07.5473 26263.4
 22 06 2013  17 53  -21.0675 26035.9 -03449.8 -07.5478 26263.4
 22 06 2013  17 54  -21.0680 26035.8 -03449.8 -07.5479 26263.4
 22 06 2013  17 55  -21.0689 26036.5 -03450.2 -07.5485 26264.1
 22 06 2013  17 56  -21.0698 26036.9 -03450.4 -07.5487 26264.5
 22 06 2013  17 57  -21.0709 26038.3 -03450.9 -07.5494 26265.9
 22 06 2013  17 58  -21.0714 26038.9 -03451.0 -07.5496 26266.6
 22 06 2013  17 59  -21.0725 26040.4 -03451.4 -07.5500 26268.1
 22 06 2013  18 00  -21.0725 26040.5 -03451.2 -07.5496 26268.2
 22 06 2013  18 01  -21.0727 26040.5 -03451.0 -07.5491 26268.2
 22 06 2013  18 02  -21.0727 26040.2 -03450.6 -07.5483 26267.8
 22 06 2013  18 03  -21.0731 26040.2 -03450.5 -07.5480 26267.8
 22 06 2013  18 04  -21.0729 26041.0 -03450.5 -07.5479 26268.6
 22 06 2013  18 05  -21.0728 26042.2 -03450.9 -07.5484 26269.8
 22 06 2013  18 06  -21.0729 26042.5 -03450.9 -07.5482 26270.1
 22 06 2013  18 07  -21.0731 26042.8 -03450.8 -07.5480 26270.5
 22 06 2013  18 08  -21.0731 26042.7 -03450.6 -07.5475 26270.3
 22 06 2013  18 09  -21.0737 26043.1 -03450.7 -07.5476 26270.7
 22 06 2013  18 10  -21.0729 26042.6 -03450.3 -07.5470 26270.2
 22 06 2013  18 11  -21.0729 26042.1 -03450.1 -07.5467 26269.7
 22 06 2013  18 12  -21.0736 26041.2 -03449.8 -07.5462 26268.7
 22 06 2013  18 13  -21.0727 26040.0 -03449.3 -07.5456 26267.5
 22 06 2013  18 14  -21.0723 26039.1 -03449.2 -07.5456 26266.5
 22 06 2013  18 15  -21.0730 26039.7 -03449.7 -07.5464 26267.2
 22 06 2013  18 16  -21.0733 26040.2 -03450.0 -07.5470 26267.8
 22 06 2013  18 17  -21.0732 26039.4 -03449.6 -07.5464 26266.9
 22 06 2013  18 18  -21.0730 26038.3 -03449.1 -07.5456 26265.7
 22 06 2013  18 19  -21.0719 26036.5 -03448.4 -07.5446 26263.8
 22 06 2013  18 20  -21.0717 26036.8 -03448.7 -07.5452 26264.2
 22 06 2013  18 21  -21.0728 26037.6 -03449.3 -07.5462 26265.1
 22 06 2013  18 22  -21.0734 26037.9 -03449.3 -07.5462 26265.4
 22 06 2013  18 23  -21.0735 26037.8 -03449.1 -07.5458 26265.3
 22 06 2013  18 24  -21.0733 26037.5 -03448.9 -07.5454 26264.9
 22 06 2013  18 25  -21.0733 26036.9 -03448.7 -07.5451 26264.3
 22 06 2013  18 26  -21.0733 26036.5 -03448.6 -07.5449 26263.9
 22 06 2013  18 27  -21.0728 26035.2 -03448.2 -07.5445 26262.6
 22 06 2013  18 28  -21.0719 26033.9 -03447.8 -07.5442 26261.2
 22 06 2013  18 29  -21.0724 26033.9 -03448.3 -07.5451 26261.3
 22 06 2013  18 30  -21.0740 26034.6 -03448.9 -07.5462 26262.0
 22 06 2013  18 31  -21.0744 26035.0 -03449.2 -07.5466 26262.5
 22 06 2013  18 32  -21.0749 26035.2 -03449.2 -07.5467 26262.7
 22 06 2013  18 33  -21.0755 26035.1 -03449.1 -07.5465 26262.6
 22 06 2013  18 34  -21.0757 26035.0 -03449.1 -07.5465 26262.5
 22 06 2013  18 35  -21.0758 26035.3 -03449.1 -07.5465 26262.8
 22 06 2013  18 36  -21.0761 26035.6 -03449.3 -07.5468 26263.1
 22 06 2013  18 37  -21.0761 26035.7 -03449.3 -07.5467 26263.2
 22 06 2013  18 38  -21.0758 26035.6 -03449.2 -07.5465 26263.1
 22 06 2013  18 39  -21.0753 26035.0 -03448.9 -07.5462 26262.5
 22 06 2013  18 40  -21.0750 26034.3 -03448.7 -07.5459 26261.8
 22 06 2013  18 41  -21.0742 26033.3 -03448.4 -07.5455 26260.7
 22 06 2013  18 42  -21.0733 26032.4 -03448.2 -07.5453 26259.8
 22 06 2013  18 43  -21.0737 26032.6 -03448.5 -07.5460 26260.0
 22 06 2013  18 44  -21.0742 26032.7 -03448.8 -07.5465 26260.2
 22 06 2013  18 45  -21.0742 26033.2 -03449.0 -07.5469 26260.7
 22 06 2013  18 46  -21.0747 26033.8 -03449.2 -07.5472 26261.3
 22 06 2013  18 47  -21.0751 26033.9 -03449.2 -07.5470 26261.4
 22 06 2013  18 48  -21.0749 26034.1 -03449.1 -07.5468 26261.6
 22 06 2013  18 49  -21.0746 26033.9 -03448.9 -07.5464 26261.4
 22 06 2013  18 50  -21.0741 26033.7 -03448.6 -07.5459 26261.1
 22 06 2013  18 51  -21.0733 26033.3 -03448.4 -07.5456 26260.7
 22 06 2013  18 52  -21.0724 26032.8 -03448.2 -07.5453 26260.1
 22 06 2013  18 53  -21.0709 26031.7 -03447.8 -07.5447 26259.0
 22 06 2013  18 54  -21.0699 26030.7 -03447.6 -07.5446 26258.0
 22 06 2013  18 55  -21.0691 26029.9 -03447.5 -07.5446 26257.2
 22 06 2013  18 56  -21.0680 26028.7 -03447.3 -07.5445 26255.9
 22 06 2013  18 57  -21.0671 26027.4 -03447.2 -07.5445 26254.7
 22 06 2013  18 58  -21.0663 26026.2 -03447.1 -07.5448 26253.5
 22 06 2013  18 59  -21.0653 26024.9 -03447.1 -07.5451 26252.2
 22 06 2013  19 00  -21.0649 26024.4 -03447.4 -07.5460 26251.7
 22 06 2013  19 01  -21.0647 26024.0 -03447.8 -07.5470 26251.4
 22 06 2013  19 02  -21.0647 26023.6 -03448.1 -07.5477 26251.0
 22 06 2013  19 03  -21.0653 26023.4 -03448.5 -07.5485 26250.9
 22 06 2013  19 04  -21.0659 26023.2 -03448.7 -07.5492 26250.7
 22 06 2013  19 05  -21.0663 26022.7 -03448.8 -07.5495 26250.2
 22 06 2013  19 06  -21.0668 26022.4 -03449.0 -07.5499 26250.0
 22 06 2013  19 07  -21.0670 26022.3 -03449.2 -07.5504 26249.9
 22 06 2013  19 08  -21.0671 26021.8 -03449.2 -07.5505 26249.4
 22 06 2013  19 09  -21.0674 26021.5 -03449.2 -07.5507 26249.1
 22 06 2013  19 10  -21.0681 26021.5 -03449.4 -07.5511 26249.1
 22 06 2013  19 11  -21.0686 26021.4 -03449.5 -07.5513 26249.0
 22 06 2013  19 12  -21.0690 26021.2 -03449.5 -07.5513 26248.8
 22 06 2013  19 13  -21.0690 26020.9 -03449.4 -07.5513 26248.5
 22 06 2013  19 14  -21.0692 26020.7 -03449.5 -07.5514 26248.3
 22 06 2013  19 15  -21.0697 26020.7 -03449.6 -07.5518 26248.4
 22 06 2013  19 16  -21.0702 26020.8 -03449.7 -07.5519 26248.4
 22 06 2013  19 17  -21.0710 26020.8 -03449.7 -07.5519 26248.5
 22 06 2013  19 18  -21.0719 26020.8 -03449.6 -07.5518 26248.5
 22 06 2013  19 19  -21.0725 26020.5 -03449.4 -07.5514 26248.2
 22 06 2013  19 20  -21.0729 26020.1 -03449.3 -07.5512 26247.8
 22 06 2013  19 21  -21.0735 26019.8 -03449.1 -07.5510 26247.4
 22 06 2013  19 50  -21.0804 26015.3 -03447.1 -07.5480 26242.7
 22 06 2013  19 51  -21.0795 26014.9 -03447.0 -07.5477 26242.3
 22 06 2013  19 52  -21.0787 26014.4 -03447.0 -07.5478 26241.8
 22 06 2013  19 53  -21.0782 26014.0 -03447.0 -07.5479 26241.4
 22 06 2013  19 54  -21.0776 26013.5 -03446.9 -07.5480 26240.9
 22 06 2013  19 55  -21.0773 26013.4 -03447.0 -07.5482 26240.8
 22 06 2013  19 56  -21.0771 26013.2 -03447.1 -07.5484 26240.6
 22 06 2013  19 57  -21.0767 26012.9 -03447.0 -07.5484 26240.3
 22 06 2013  19 58  -21.0766 26012.5 -03447.0 -07.5485 26239.9
 22 06 2013  19 59  -21.0763 26012.2 -03447.0 -07.5485 26239.6
 22 06 2013  20 00  -21.0762 26012.0 -03447.1 -07.5488 26239.4
 22 06 2013  20 01  -21.0761 26012.1 -03447.3 -07.5492 26239.5
 22 06 2013  20 02  -21.0758 26012.0 -03447.3 -07.5493 26239.4
 22 06 2013  20 03  -21.0756 26011.8 -03447.3 -07.5494 26239.3
 22 06 2013  20 04  -21.0753 26011.8 -03447.4 -07.5496 26239.2
 22 06 2013  20 05  -21.0751 26011.8 -03447.5 -07.5498 26239.2
 22 06 2013  20 06  -21.0747 26011.7 -03447.6 -07.5499 26239.2
 22 06 2013  20 07  -21.0744 26011.6 -03447.7 -07.5501 26239.1
 22 06 2013  20 08  -21.0741 26011.6 -03447.8 -07.5504 26239.1
 22 06 2013  20 09  -21.0737 26011.4 -03447.8 -07.5505 26238.9
 22 06 2013  20 10  -21.0733 26011.1 -03447.8 -07.5506 26238.6
 22 06 2013  20 11  -21.0730 26011.1 -03448.0 -07.5509 26238.6
 22 06 2013  20 12  -21.0728 26010.8 -03448.0 -07.5512 26238.4
 22 06 2013  20 13  -21.0726 26010.8 -03448.2 -07.5515 26238.3
 22 06 2013  20 14  -21.0725 26010.7 -03448.3 -07.5517 26238.2
 22 06 2013  20 15  -21.0726 26010.6 -03448.4 -07.5520 26238.2
 22 06 2013  20 16  -21.0726 26010.6 -03448.6 -07.5524 26238.2
 22 06 2013  20 17  -21.0728 26010.8 -03448.8 -07.5528 26238.4
 22 06 2013  20 18  -21.0729 26010.9 -03448.9 -07.5530 26238.5
 22 06 2013  20 19  -21.0728 26011.1 -03449.1 -07.5533 26238.8
 22 06 2013  20 20  -21.0727 26011.2 -03449.2 -07.5535 26238.9
 22 06 2013  20 21  -21.0725 26011.4 -03449.3 -07.5537 26239.1
 22 06 2013  20 22  -21.0726 26011.7 -03449.4 -07.5539 26239.4
 22 06 2013  20 23  -21.0725 26011.8 -03449.5 -07.5540 26239.5
 22 06 2013  20 24  -21.0725 26011.7 -03449.5 -07.5540 26239.4
 22 06 2013  20 25  -21.0724 26011.7 -03449.5 -07.5541 26239.4
 22 06 2013  20 26  -21.0724 26011.6 -03449.5 -07.5542 26239.3
 22 06 2013  20 27  -21.0725 26011.4 -03449.5 -07.5542 26239.2
 22 06 2013  20 28  -21.0726 26011.2 -03449.5 -07.5543 26239.0
 22 06 2013  20 29  -21.0724 26011.1 -03449.5 -07.5543 26238.8
 22 06 2013  20 30  -21.0722 26011.1 -03449.5 -07.5543 26238.8
 22 06 2013  20 31  -21.0718 26011.1 -03449.5 -07.5543 26238.8
 22 06 2013  20 32  -21.0714 26011.0 -03449.5 -07.5542 26238.7
 22 06 2013  20 33  -21.0711 26011.0 -03449.5 -07.5543 26238.7
 22 06 2013  20 34  -21.0705 26010.8 -03449.6 -07.5545 26238.6
 22 06 2013  20 35  -21.0698 26010.8 -03449.7 -07.5547 26238.6
 22 06 2013  20 36  -21.0691 26010.9 -03449.8 -07.5550 26238.7
 22 06 2013  20 37  -21.0687 26011.2 -03450.1 -07.5555 26239.0
 22 06 2013  20 38  -21.0686 26011.7 -03450.4 -07.5560 26239.5
 22 06 2013  20 39  -21.0688 26012.3 -03450.8 -07.5566 26240.2
 22 06 2013  20 40  -21.0690 26012.9 -03451.1 -07.5571 26240.9
 22 06 2013  20 41  -21.0691 26013.3 -03451.2 -07.5574 26241.2
 22 06 2013  20 42  -21.0691 26013.6 -03451.4 -07.5576 26241.6
 22 06 2013  20 43  -21.0690 26013.6 -03451.3 -07.5575 26241.6
 22 06 2013  20 44  -21.0690 26013.6 -03451.3 -07.5574 26241.5
 22 06 2013  20 45  -21.0691 26013.6 -03451.2 -07.5573 26241.5
 22 06 2013  20 46  -21.0696 26013.8 -03451.4 -07.5575 26241.8
 22 06 2013  20 47  -21.0699 26014.1 -03451.5 -07.5576 26242.0
 22 06 2013  20 48  -21.0699 26014.2 -03451.5 -07.5576 26242.2
 22 06 2013  20 49  -21.0701 26014.2 -03451.4 -07.5576 26242.1
 22 06 2013  20 50  -21.0701 26013.9 -03451.2 -07.5572 26241.8
 22 06 2013  20 51  -21.0702 26013.9 -03451.2 -07.5571 26241.9
 22 06 2013  20 52  -21.0703 26014.0 -03451.2 -07.5571 26241.9
 22 06 2013  20 53  -21.0705 26014.1 -03451.2 -07.5571 26242.1
 22 06 2013  20 54  -21.0707 26014.1 -03451.2 -07.5571 26242.1
 22 06 2013  20 55  -21.0709 26014.0 -03451.1 -07.5570 26241.9
 22 06 2013  20 56  -21.0709 26013.5 -03450.9 -07.5566 26241.4
 22 06 2013  20 57  -21.0706 26013.0 -03450.7 -07.5562 26240.9
 22 06 2013  20 58  -21.0700 26012.5 -03450.3 -07.5557 26240.4
 22 06 2013  20 59  -21.0692 26012.0 -03450.1 -07.5553 26239.8
 22 06 2013  21 00  -21.0681 26011.6 -03449.9 -07.5551 26239.4
 22 06 2013  21 01  -21.0668 26011.3 -03449.9 -07.5550 26239.1
 22 06 2013  21 02  -21.0656 26011.1 -03449.8 -07.5550 26238.9
 22 06 2013  21 03  -21.0646 26010.5 -03449.6 -07.5547 26238.3
 22 06 2013  21 04  -21.0637 26010.3 -03449.7 -07.5549 26238.1
 22 06 2013  21 05  -21.0629 26010.2 -03449.8 -07.5552 26238.0
 22 06 2013  21 06  -21.0619 26010.1 -03449.9 -07.5553 26237.9
 22 06 2013  21 07  -21.0611 26010.2 -03450.1 -07.5558 26238.0
 22 06 2013  21 08  -21.0604 26010.4 -03450.4 -07.5563 26238.3
 22 06 2013  21 09  -21.0596 26010.7 -03450.6 -07.5568 26238.6
 22 06 2013  21 10  -21.0588 26011.2 -03450.8 -07.5571 26239.1
 22 06 2013  21 11  -21.0582 26011.7 -03451.2 -07.5578 26239.7
 22 06 2013  21 12  -21.0579 26012.1 -03451.5 -07.5583 26240.1
 22 06 2013  21 13  -21.0577 26012.3 -03451.6 -07.5585 26240.3
 22 06 2013  21 14  -21.0576 26012.3 -03451.7 -07.5587 26240.3
 22 06 2013  21 15  -21.0578 26012.6 -03451.9 -07.5590 26240.6
 22 06 2013  21 16  -21.0580 26012.9 -03452.1 -07.5593 26241.0
 22 06 2013  21 17  -21.0585 26013.1 -03452.2 -07.5595 26241.2
 22 06 2013  21 18  -21.0586 26012.9 -03452.1 -07.5594 26241.0
 22 06 2013  21 19  -21.0585 26012.8 -03452.0 -07.5592 26240.8
 22 06 2013  21 20  -21.0584 26012.9 -03452.0 -07.5591 26240.9
 22 06 2013  21 21  -21.0584 26013.0 -03452.0 -07.5592 26241.0
 22 06 2013  21 22  -21.0582 26013.0 -03452.0 -07.5592 26241.1
 22 06 2013  21 23  -21.0579 26012.9 -03451.9 -07.5590 26240.9
 22 06 2013  21 24  -21.0576 26012.8 -03451.8 -07.5588 26240.8
 22 06 2013  21 25  -21.0573 26013.0 -03451.9 -07.5589 26241.1
 22 06 2013  21 26  -21.0571 26013.4 -03452.0 -07.5591 26241.4
 22 06 2013  21 27  -21.0569 26013.7 -03452.1 -07.5592 26241.7
 22 06 2013  21 28  -21.0567 26014.1 -03452.3 -07.5595 26242.1
 22 06 2013  21 29  -21.0563 26014.6 -03452.5 -07.5597 26242.7
 22 06 2013  21 30  -21.0561 26015.3 -03452.7 -07.5600 26243.4
 22 06 2013  21 31  -21.0558 26015.6 -03452.9 -07.5603 26243.7
 22 06 2013  21 32  -21.0554 26015.9 -03452.9 -07.5603 26244.0
 22 06 2013  21 33  -21.0549 26016.3 -03453.1 -07.5605 26244.5
 22 06 2013  21 34  -21.0546 26016.7 -03453.2 -07.5606 26244.9
 22 06 2013  21 35  -21.0546 26016.9 -03453.2 -07.5607 26245.0
 22 06 2013  21 36  -21.0545 26016.9 -03453.2 -07.5606 26245.0
 22 06 2013  21 37  -21.0545 26017.0 -03453.2 -07.5605 26245.1
 22 06 2013  21 38  -21.0542 26017.2 -03453.2 -07.5606 26245.4
 22 06 2013  21 39  -21.0538 26017.6 -03453.3 -07.5606 26245.7
 22 06 2013  21 40  -21.0534 26017.9 -03453.4 -07.5608 26246.1
 22 06 2013  21 41  -21.0529 26018.3 -03453.5 -07.5610 26246.5
 22 06 2013  21 42  -21.0525 26018.5 -03453.7 -07.5611 26246.8
 22 06 2013  21 43  -21.0520 26018.9 -03453.8 -07.5613 26247.1
 22 06 2013  21 44  -21.0516 26019.0 -03453.8 -07.5614 26247.3
 22 06 2013  21 45  -21.0514 26019.0 -03453.8 -07.5613 26247.3
 22 06 2013  21 46  -21.0512 26019.1 -03453.8 -07.5614 26247.3
 22 06 2013  21 47  -21.0508 26019.4 -03454.0 -07.5615 26247.7
 22 06 2013  21 48  -21.0507 26019.5 -03454.0 -07.5616 26247.7
 22 06 2013  21 49  -21.0505 26019.5 -03454.0 -07.5615 26247.7
 22 06 2013  21 50  -21.0506 26019.4 -03453.9 -07.5614 26247.6
 22 06 2013  21 51  -21.0507 26019.2 -03453.8 -07.5613 26247.5
 22 06 2013  21 52  -21.0509 26019.0 -03453.7 -07.5611 26247.3
 22 06 2013  21 53  -21.0512 26019.0 -03453.7 -07.5611 26247.2
 22 06 2013  21 54  -21.0516 26019.1 -03453.8 -07.5612 26247.3
 22 06 2013  21 55  -21.0518 26019.1 -03453.8 -07.5612 26247.3
 22 06 2013  21 56  -21.0521 26019.2 -03453.8 -07.5612 26247.4
 22 06 2013  21 57  -21.0525 26019.4 -03453.9 -07.5614 26247.7
 22 06 2013  21 58  -21.0530 26019.9 -03454.2 -07.5618 26248.2
 22 06 2013  21 59  -21.0535 26020.2 -03454.2 -07.5619 26248.4
 22 06 2013  22 00  -21.0539 26020.4 -03454.3 -07.5620 26248.7
 22 06 2013  22 01  -21.0541 26020.6 -03454.4 -07.5621 26248.9
 22 06 2013  22 02  -21.0544 26020.8 -03454.3 -07.5620 26249.1
 22 06 2013  22 03  -21.0546 26021.1 -03454.4 -07.5621 26249.4
 22 06 2013  22 04  -21.0548 26021.3 -03454.4 -07.5620 26249.6
 22 06 2013  22 05  -21.0549 26021.3 -03454.4 -07.5620 26249.6
 22 06 2013  22 06  -21.0550 26021.5 -03454.4 -07.5619 26249.7
 22 06 2013  22 07  -21.0550 26021.5 -03454.4 -07.5618 26249.8
 22 06 2013  22 08  -21.0550 26021.7 -03454.3 -07.5616 26249.9
 22 06 2013  22 09  -21.0550 26021.8 -03454.3 -07.5617 26250.1
 22 06 2013  22 10  -21.0549 26021.9 -03454.3 -07.5616 26250.2
 22 06 2013  22 11  -21.0549 26022.0 -03454.3 -07.5615 26250.2
 22 06 2013  22 12  -21.0549 26022.1 -03454.3 -07.5614 26250.3
 22 06 2013  22 13  -21.0548 26022.1 -03454.2 -07.5613 26250.4
 22 06 2013  22 14  -21.0546 26022.0 -03454.2 -07.5612 26250.2
 22 06 2013  22 15  -21.0544 26021.7 -03454.0 -07.5609 26249.9
 22 06 2013  22 16  -21.0541 26021.6 -03453.8 -07.5606 26249.8
 22 06 2013  22 17  -21.0539 26021.3 -03453.7 -07.5604 26249.5
 22 06 2013  22 18  -21.0539 26021.0 -03453.5 -07.5601 26249.2
 22 06 2013  22 19  -21.0538 26020.6 -03453.3 -07.5598 26248.7
 22 06 2013  22 20  -21.0536 26020.4 -03453.2 -07.5596 26248.6
 22 06 2013  22 21  -21.0533 26020.0 -03453.1 -07.5594 26248.1
 22 06 2013  22 22  -21.0528 26019.7 -03452.9 -07.5591 26247.8
 22 06 2013  22 23  -21.0523 26019.4 -03452.8 -07.5589 26247.5
 22 06 2013  22 24  -21.0517 26019.1 -03452.6 -07.5588 26247.1
 22 06 2013  22 25  -21.0511 26018.8 -03452.6 -07.5587 26246.9
 22 06 2013  22 26  -21.0506 26018.5 -03452.5 -07.5586 26246.6
 22 06 2013  22 27  -21.0503 26018.3 -03452.5 -07.5586 26246.4
 22 06 2013  22 28  -21.0504 26018.3 -03452.5 -07.5588 26246.4
 22 06 2013  22 29  -21.0507 26018.5 -03452.7 -07.5591 26246.6
 22 06 2013  22 30  -21.0510 26018.6 -03452.9 -07.5594 26246.7
 22 06 2013  22 31  -21.0513 26018.5 -03452.9 -07.5595 26246.6
 22 06 2013  22 32  -21.0513 26018.4 -03452.9 -07.5595 26246.6
 22 06 2013  22 33  -21.0512 26018.2 -03452.8 -07.5593 26246.3
 22 06 2013  22 34  -21.0510 26018.2 -03452.8 -07.5593 26246.3
 22 06 2013  22 35  -21.0505 26018.2 -03452.8 -07.5593 26246.3
 22 06 2013  22 36  -21.0503 26018.3 -03452.8 -07.5594 26246.4
 22 06 2013  22 37  -21.0506 26018.5 -03453.0 -07.5596 26246.6
 22 06 2013  22 38  -21.0507 26018.6 -03453.0 -07.5598 26246.7
 22 06 2013  22 39  -21.0507 26018.5 -03453.0 -07.5598 26246.7
 22 06 2013  22 40  -21.0507 26018.5 -03453.0 -07.5598 26246.7
 22 06 2013  22 41  -21.0507 26018.5 -03453.0 -07.5598 26246.7
 22 06 2013  22 42  -21.0503 26018.6 -03453.0 -07.5597 26246.7
 22 06 2013  22 43  -21.0501 26018.6 -03453.0 -07.5597 26246.8
 22 06 2013  22 44  -21.0500 26018.9 -03453.2 -07.5599 26247.1
 22 06 2013  22 45  -21.0498 26019.3 -03453.4 -07.5602 26247.5
 22 06 2013  22 46  -21.0497 26020.1 -03453.7 -07.5608 26248.3
 22 06 2013  22 47  -21.0497 26020.5 -03453.9 -07.5611 26248.7
 22 06 2013  22 48  -21.0502 26020.7 -03454.0 -07.5612 26249.0
 22 06 2013  22 49  -21.0513 26021.0 -03454.1 -07.5615 26249.3
 22 06 2013  22 50  -21.0524 26021.2 -03454.2 -07.5616 26249.5
 22 06 2013  22 51  -21.0528 26021.6 -03454.3 -07.5617 26249.9
 22 06 2013  22 52  -21.0531 26021.4 -03454.2 -07.5614 26249.7
 22 06 2013  22 53  -21.0536 26021.2 -03453.9 -07.5610 26249.4
 22 06 2013  22 54  -21.0540 26021.2 -03453.9 -07.5608 26249.4
 22 06 2013  22 55  -21.0549 26020.9 -03453.7 -07.5605 26249.1
 22 06 2013  22 56  -21.0556 26020.6 -03453.5 -07.5601 26248.7
 22 06 2013  22 57  -21.0556 26020.0 -03453.1 -07.5594 26248.2
 22 06 2013  22 58  -21.0554 26019.8 -03452.8 -07.5589 26247.9
 22 06 2013  22 59  -21.0552 26020.1 -03452.9 -07.5590 26248.2
 22 06 2013  23 00  -21.0550 26020.4 -03453.0 -07.5592 26248.5
 22 06 2013  23 01  -21.0552 26020.7 -03453.2 -07.5594 26248.8
 22 06 2013  23 02  -21.0554 26021.1 -03453.4 -07.5598 26249.3
 22 06 2013  23 03  -21.0551 26021.3 -03453.5 -07.5599 26249.4
 22 06 2013  23 04  -21.0544 26021.1 -03453.3 -07.5596 26249.2
 22 06 2013  23 05  -21.0540 26021.6 -03453.4 -07.5597 26249.8
 22 06 2013  23 06  -21.0539 26022.5 -03453.8 -07.5604 26250.7
 22 06 2013  23 07  -21.0543 26022.9 -03454.1 -07.5607 26251.1
 22 06 2013  23 08  -21.0549 26023.5 -03454.4 -07.5612 26251.7
 22 06 2013  23 09  -21.0548 26023.7 -03454.3 -07.5611 26251.9
 22 06 2013  23 10  -21.0544 26024.1 -03454.4 -07.5612 26252.3
 22 06 2013  23 11  -21.0539 26024.3 -03454.4 -07.5612 26252.6
 22 06 2013  23 12  -21.0533 26024.7 -03454.5 -07.5612 26253.0
 22 06 2013  23 13  -21.0528 26024.9 -03454.5 -07.5612 26253.2
 22 06 2013  23 14  -21.0519 26025.3 -03454.6 -07.5612 26253.6
 22 06 2013  23 15  -21.0508 26025.2 -03454.5 -07.5610 26253.5
 22 06 2013  23 16  -21.0496 26025.7 -03454.6 -07.5611 26253.9
 22 06 2013  23 17  -21.0483 26026.1 -03454.8 -07.5613 26254.4
 22 06 2013  23 18  -21.0473 26026.5 -03454.9 -07.5615 26254.8
 22 06 2013  23 19  -21.0463 26026.8 -03455.0 -07.5617 26255.1
 22 06 2013  23 20  -21.0454 26026.9 -03455.1 -07.5618 26255.2
 22 06 2013  23 21  -21.0443 26026.5 -03454.8 -07.5614 26254.8
 22 06 2013  23 22  -21.0435 26025.9 -03454.5 -07.5608 26254.1
 22 06 2013  23 23  -21.0428 26025.6 -03454.4 -07.5607 26253.8
 22 06 2013  23 24  -21.0422 26025.1 -03454.1 -07.5603 26253.3
 22 06 2013  23 25  -21.0417 26024.6 -03454.0 -07.5600 26252.8
 22 06 2013  23 26  -21.0416 26024.5 -03454.0 -07.5602 26252.7
 22 06 2013  23 27  -21.0417 26024.8 -03454.3 -07.5606 26253.0
 22 06 2013  23 28  -21.0421 26024.8 -03454.4 -07.5610 26253.0
 22 06 2013  23 29  -21.0422 26024.7 -03454.4 -07.5610 26252.9
 22 06 2013  23 30  -21.0421 26024.9 -03454.5 -07.5611 26253.2
 22 06 2013  23 31  -21.0419 26024.6 -03454.4 -07.5610 26252.8
 22 06 2013  23 32  -21.0418 26024.0 -03454.1 -07.5605 26252.2
 22 06 2013  23 33  -21.0415 26023.6 -03453.9 -07.5602 26251.8
 22 06 2013  23 34  -21.0415 26024.1 -03454.1 -07.5606 26252.3
 22 06 2013  23 35  -21.0419 26024.5 -03454.5 -07.5612 26252.7
 22 06 2013  23 36  -21.0425 26024.3 -03454.5 -07.5612 26252.6
 22 06 2013  23 37  -21.0431 26024.0 -03454.3 -07.5610 26252.3
 22 06 2013  23 38  -21.0433 26024.1 -03454.3 -07.5610 26252.3
 22 06 2013  23 39  -21.0433 26024.3 -03454.4 -07.5611 26252.5
 22 06 2013  23 40  -21.0436 26024.4 -03454.5 -07.5612 26252.6
 22 06 2013  23 41  -21.0441 26024.3 -03454.4 -07.5612 26252.6
 22 06 2013  23 42  -21.0444 26024.4 -03454.4 -07.5611 26252.6
 22 06 2013  23 43  -21.0444 26024.5 -03454.4 -07.5611 26252.7
 22 06 2013  23 44  -21.0446 26024.5 -03454.4 -07.5611 26252.8
 22 06 2013  23 45  -21.0448 26024.6 -03454.4 -07.5610 26252.8
 22 06 2013  23 46  -21.0449 26024.5 -03454.4 -07.5609 26252.8
 22 06 2013  23 47  -21.0446 26024.7 -03454.4 -07.5609 26252.9
 22 06 2013  23 48  -21.0446 26024.8 -03454.4 -07.5610 26253.1
 22 06 2013  23 49  -21.0447 26025.1 -03454.5 -07.5611 26253.3
 22 06 2013  23 50  -21.0449 26025.1 -03454.5 -07.5611 26253.4
 22 06 2013  23 51  -21.0447 26025.1 -03454.5 -07.5611 26253.4
 22 06 2013  23 52  -21.0445 26025.0 -03454.4 -07.5609 26253.3
 22 06 2013  23 53  -21.0444 26024.9 -03454.3 -07.5608 26253.2
 22 06 2013  23 54  -21.0443 26024.8 -03454.3 -07.5606 26253.0
 22 06 2013  23 55  -21.0445 26024.7 -03454.2 -07.5606 26252.9
 22 06 2013  23 56  -21.0450 26024.7 -03454.2 -07.5605 26253.0
 22 06 2013  23 57  -21.0454 26024.7 -03454.2 -07.5606 26253.0
