SAO LUIS EMBRACE-03 <053> 1 Min. Reported data

 DD MM YYYY  HH MM   D(Deg)  H(nT)   Z(nT)   I(Deg)   F(nT)

 22 02 2013  00 00  -21.0533 26034.2 -03412.1 -07.4667 26256.9
 22 02 2013  00 01  -21.0535 26034.3 -03412.1 -07.4667 26257.0
 22 02 2013  00 02  -21.0536 26034.2 -03412.0 -07.4666 26256.8
 22 02 2013  00 03  -21.0537 26034.0 -03411.9 -07.4663 26256.6
 22 02 2013  00 04  -21.0536 26033.8 -03411.8 -07.4661 26256.4
 22 02 2013  00 05  -21.0536 26033.7 -03411.7 -07.4660 26256.3
 22 02 2013  00 06  -21.0536 26033.6 -03411.7 -07.4659 26256.2
 22 02 2013  00 07  -21.0537 26033.5 -03411.6 -07.4659 26256.1
 22 02 2013  00 08  -21.0539 26033.5 -03411.6 -07.4658 26256.1
 22 02 2013  00 09  -21.0539 26033.3 -03411.5 -07.4658 26255.9
 22 02 2013  00 10  -21.0538 26033.3 -03411.5 -07.4657 26255.9
 22 02 2013  00 11  -21.0536 26033.3 -03411.5 -07.4657 26255.8
 22 02 2013  00 12  -21.0537 26033.3 -03411.5 -07.4657 26255.9
 22 02 2013  00 13  -21.0537 26033.3 -03411.6 -07.4658 26255.9
 22 02 2013  00 14  -21.0539 26033.2 -03411.5 -07.4658 26255.8
 22 02 2013  00 15  -21.0541 26033.1 -03411.5 -07.4657 26255.7
 22 02 2013  00 16  -21.0545 26033.0 -03411.4 -07.4657 26255.6
 22 02 2013  00 17  -21.0548 26032.8 -03411.4 -07.4656 26255.4
 22 02 2013  00 18  -21.0549 26032.7 -03411.3 -07.4655 26255.2
 22 02 2013  00 19  -21.0550 26032.5 -03411.2 -07.4653 26255.0
 22 02 2013  00 20  -21.0552 26032.5 -03411.2 -07.4653 26255.0
 22 02 2013  00 21  -21.0553 26032.4 -03411.2 -07.4653 26254.9
 22 02 2013  00 22  -21.0554 26032.2 -03411.1 -07.4651 26254.7
 22 02 2013  00 23  -21.0556 26032.0 -03411.0 -07.4650 26254.5
 22 02 2013  00 24  -21.0558 26031.9 -03411.0 -07.4649 26254.4
 22 02 2013  00 25  -21.0560 26031.8 -03410.9 -07.4649 26254.3
 22 02 2013  00 26  -21.0562 26031.7 -03410.9 -07.4649 26254.2
 22 02 2013  00 27  -21.0563 26031.6 -03410.9 -07.4649 26254.1
 22 02 2013  00 28  -21.0565 26031.4 -03410.8 -07.4647 26253.9
 22 02 2013  00 29  -21.0565 26031.1 -03410.7 -07.4645 26253.6
 22 02 2013  00 30  -21.0562 26030.9 -03410.6 -07.4643 26253.3
 22 02 2013  00 31  -21.0558 26030.7 -03410.4 -07.4642 26253.2
 22 02 2013  00 32  -21.0555 26030.6 -03410.4 -07.4641 26253.0
 22 02 2013  00 33  -21.0554 26030.4 -03410.4 -07.4641 26252.9
 22 02 2013  00 34  -21.0551 26030.3 -03410.4 -07.4642 26252.8
 22 02 2013  00 35  -21.0546 26030.2 -03410.4 -07.4641 26252.6
 22 02 2013  00 36  -21.0545 26030.1 -03410.4 -07.4642 26252.5
 22 02 2013  00 37  -21.0543 26030.1 -03410.4 -07.4643 26252.5
 22 02 2013  00 38  -21.0542 26030.1 -03410.5 -07.4645 26252.6
 22 02 2013  00 39  -21.0542 26030.3 -03410.7 -07.4647 26252.8
 22 02 2013  00 40  -21.0542 26030.4 -03410.8 -07.4650 26252.9
 22 02 2013  00 41  -21.0544 26030.4 -03410.8 -07.4651 26252.9
 22 02 2013  00 42  -21.0543 26030.5 -03410.9 -07.4652 26253.0
 22 02 2013  00 43  -21.0542 26030.5 -03411.0 -07.4653 26253.1
 22 02 2013  00 44  -21.0540 26030.6 -03411.0 -07.4654 26253.2
 22 02 2013  00 45  -21.0537 26030.7 -03411.0 -07.4654 26253.2
 22 02 2013  00 46  -21.0536 26030.7 -03411.1 -07.4655 26253.2
 22 02 2013  00 47  -21.0534 26030.7 -03411.1 -07.4656 26253.2
 22 02 2013  00 48  -21.0535 26030.6 -03411.1 -07.4656 26253.2
 22 02 2013  00 49  -21.0537 26030.6 -03411.1 -07.4656 26253.1
 22 02 2013  00 50  -21.0539 26030.5 -03411.1 -07.4657 26253.1
 22 02 2013  00 51  -21.0540 26030.4 -03411.1 -07.4656 26252.9
 22 02 2013  00 52  -21.0542 26030.4 -03411.1 -07.4656 26252.9
 22 02 2013  00 53  -21.0545 26030.4 -03411.1 -07.4657 26253.0
 22 02 2013  00 54  -21.0545 26030.4 -03411.2 -07.4658 26253.0
 22 02 2013  00 55  -21.0546 26030.2 -03411.1 -07.4656 26252.8
 22 02 2013  00 56  -21.0548 26030.1 -03411.0 -07.4656 26252.7
 22 02 2013  00 57  -21.0548 26029.9 -03410.9 -07.4655 26252.4
 22 02 2013  00 58  -21.0548 26029.7 -03410.8 -07.4653 26252.2
 22 02 2013  00 59  -21.0548 26029.5 -03410.8 -07.4652 26252.0
 22 02 2013  01 00  -21.0547 26029.4 -03410.7 -07.4651 26251.9
 22 02 2013  01 01  -21.0549 26029.2 -03410.7 -07.4651 26251.7
 22 02 2013  01 02  -21.0550 26029.0 -03410.6 -07.4650 26251.5
 22 02 2013  01 03  -21.0550 26028.9 -03410.6 -07.4649 26251.4
 22 02 2013  01 04  -21.0550 26028.6 -03410.5 -07.4648 26251.1
 22 02 2013  01 05  -21.0549 26028.4 -03410.4 -07.4647 26250.9
 22 02 2013  01 06  -21.0552 26028.3 -03410.4 -07.4648 26250.8
 22 02 2013  01 07  -21.0557 26028.2 -03410.4 -07.4648 26250.7
 22 02 2013  01 08  -21.0560 26027.9 -03410.3 -07.4647 26250.4
 22 02 2013  01 09  -21.0563 26027.7 -03410.3 -07.4647 26250.2
 22 02 2013  01 10  -21.0565 26027.6 -03410.3 -07.4647 26250.0
 22 02 2013  01 11  -21.0565 26027.3 -03410.2 -07.4645 26249.7
 22 02 2013  01 12  -21.0566 26027.0 -03410.1 -07.4644 26249.5
 22 02 2013  01 13  -21.0566 26026.9 -03410.0 -07.4643 26249.3
 22 02 2013  01 14  -21.0565 26026.8 -03410.0 -07.4644 26249.2
 22 02 2013  01 15  -21.0565 26026.7 -03410.1 -07.4644 26249.2
 22 02 2013  01 16  -21.0564 26026.7 -03410.1 -07.4646 26249.2
 22 02 2013  01 17  -21.0569 26026.8 -03410.3 -07.4649 26249.3
 22 02 2013  01 18  -21.0576 26026.9 -03410.4 -07.4651 26249.4
 22 02 2013  01 19  -21.0582 26026.8 -03410.4 -07.4651 26249.3
 22 02 2013  01 20  -21.0587 26026.8 -03410.4 -07.4652 26249.2
 22 02 2013  01 21  -21.0588 26026.7 -03410.4 -07.4651 26249.1
 22 02 2013  01 22  -21.0589 26026.5 -03410.3 -07.4650 26249.0
 22 02 2013  01 23  -21.0591 26026.4 -03410.2 -07.4649 26248.8
 22 02 2013  01 24  -21.0593 26026.4 -03410.3 -07.4650 26248.9
 22 02 2013  01 25  -21.0596 26026.4 -03410.3 -07.4650 26248.8
 22 02 2013  01 26  -21.0599 26026.5 -03410.4 -07.4652 26249.0
 22 02 2013  01 27  -21.0601 26026.6 -03410.4 -07.4653 26249.1
 22 02 2013  01 28  -21.0600 26026.6 -03410.5 -07.4653 26249.1
 22 02 2013  01 29  -21.0598 26026.8 -03410.5 -07.4654 26249.3
 22 02 2013  01 30  -21.0597 26027.0 -03410.7 -07.4657 26249.5
 22 02 2013  01 31  -21.0596 26027.2 -03410.8 -07.4659 26249.7
 22 02 2013  01 32  -21.0594 26027.4 -03410.9 -07.4661 26249.9
 22 02 2013  01 33  -21.0591 26027.5 -03411.0 -07.4662 26250.0
 22 02 2013  01 34  -21.0590 26027.6 -03411.1 -07.4663 26250.2
 22 02 2013  01 35  -21.0589 26027.8 -03411.2 -07.4666 26250.3
 22 02 2013  01 36  -21.0589 26027.8 -03411.2 -07.4667 26250.4
 22 02 2013  01 37  -21.0587 26027.8 -03411.2 -07.4667 26250.4
 22 02 2013  01 38  -21.0585 26027.8 -03411.2 -07.4666 26250.4
 22 02 2013  01 39  -21.0581 26027.8 -03411.2 -07.4667 26250.4
 22 02 2013  01 40  -21.0578 26028.1 -03411.4 -07.4670 26250.7
 22 02 2013  01 41  -21.0576 26028.4 -03411.6 -07.4674 26251.1
 22 02 2013  01 42  -21.0576 26028.5 -03411.8 -07.4676 26251.2
 22 02 2013  01 43  -21.0578 26028.5 -03411.8 -07.4676 26251.1
 22 02 2013  01 44  -21.0576 26028.6 -03411.8 -07.4677 26251.3
 22 02 2013  01 45  -21.0572 26028.8 -03411.9 -07.4678 26251.5
 22 02 2013  01 46  -21.0568 26028.9 -03411.9 -07.4679 26251.6
 22 02 2013  01 47  -21.0562 26028.9 -03412.0 -07.4680 26251.6
 22 02 2013  01 48  -21.0559 26028.9 -03411.9 -07.4679 26251.6
 22 02 2013  01 49  -21.0556 26029.1 -03412.1 -07.4681 26251.8
 22 02 2013  01 50  -21.0555 26029.2 -03412.2 -07.4683 26251.9
 22 02 2013  01 51  -21.0550 26029.1 -03412.2 -07.4683 26251.8
 22 02 2013  01 52  -21.0547 26029.0 -03412.1 -07.4683 26251.7
 22 02 2013  01 53  -21.0545 26028.9 -03412.1 -07.4682 26251.6
 22 02 2013  01 54  -21.0545 26028.9 -03412.1 -07.4682 26251.6
 22 02 2013  01 55  -21.0548 26028.8 -03412.1 -07.4683 26251.5
 22 02 2013  01 56  -21.0552 26028.7 -03412.1 -07.4683 26251.4
 22 02 2013  01 57  -21.0554 26028.7 -03412.1 -07.4684 26251.4
 22 02 2013  01 58  -21.0555 26028.6 -03412.1 -07.4683 26251.3
 22 02 2013  01 59  -21.0554 26028.6 -03412.1 -07.4683 26251.3
 22 02 2013  02 00  -21.0554 26028.6 -03412.1 -07.4682 26251.3
 22 02 2013  02 01  -21.0551 26028.6 -03412.0 -07.4682 26251.3
 22 02 2013  02 02  -21.0549 26028.6 -03412.1 -07.4682 26251.3
 22 02 2013  02 03  -21.0545 26028.7 -03412.1 -07.4683 26251.4
 22 02 2013  02 04  -21.0540 26029.0 -03412.2 -07.4685 26251.7
 22 02 2013  02 05  -21.0533 26029.7 -03412.5 -07.4690 26252.4
 22 02 2013  02 06  -21.0528 26030.4 -03412.9 -07.4695 26253.2
 22 02 2013  02 07  -21.0523 26031.3 -03413.4 -07.4703 26254.1
 22 02 2013  02 08  -21.0519 26031.9 -03413.7 -07.4708 26254.7
 22 02 2013  02 09  -21.0516 26032.6 -03413.9 -07.4712 26255.5
 22 02 2013  02 10  -21.0514 26033.3 -03414.2 -07.4716 26256.2
 22 02 2013  02 11  -21.0513 26033.5 -03414.3 -07.4717 26256.4
 22 02 2013  02 12  -21.0512 26034.0 -03414.5 -07.4719 26256.9
 22 02 2013  02 13  -21.0512 26034.0 -03414.4 -07.4718 26256.9
 22 02 2013  02 14  -21.0511 26034.0 -03414.3 -07.4715 26256.9
 22 02 2013  02 15  -21.0511 26033.8 -03414.1 -07.4712 26256.7
 22 02 2013  02 16  -21.0511 26033.9 -03414.0 -07.4710 26256.8
 22 02 2013  02 17  -21.0511 26034.0 -03414.0 -07.4709 26256.8
 22 02 2013  02 18  -21.0513 26034.1 -03414.0 -07.4708 26257.0
 22 02 2013  02 19  -21.0516 26034.3 -03414.0 -07.4708 26257.2
 22 02 2013  02 20  -21.0519 26034.5 -03414.1 -07.4709 26257.4
 22 02 2013  02 21  -21.0520 26034.6 -03414.0 -07.4708 26257.5
 22 02 2013  02 22  -21.0520 26034.7 -03414.0 -07.4707 26257.6
 22 02 2013  02 23  -21.0520 26034.9 -03414.0 -07.4707 26257.8
 22 02 2013  02 24  -21.0518 26035.2 -03414.1 -07.4707 26258.0
 22 02 2013  02 25  -21.0514 26035.2 -03414.1 -07.4707 26258.1
 22 02 2013  02 26  -21.0513 26035.3 -03414.0 -07.4705 26258.2
 22 02 2013  02 27  -21.0514 26035.1 -03413.9 -07.4703 26258.0
 22 02 2013  02 28  -21.0515 26035.1 -03413.8 -07.4702 26258.0
 22 02 2013  02 29  -21.0517 26035.2 -03413.8 -07.4702 26258.1
 22 02 2013  02 30  -21.0521 26035.1 -03413.8 -07.4701 26257.9
 22 02 2013  02 31  -21.0523 26035.2 -03413.8 -07.4701 26258.1
 22 02 2013  02 32  -21.0526 26035.2 -03413.7 -07.4700 26258.0
 22 02 2013  02 33  -21.0526 26035.0 -03413.6 -07.4698 26257.9
 22 02 2013  02 34  -21.0523 26035.0 -03413.5 -07.4695 26257.8
 22 02 2013  02 35  -21.0522 26035.0 -03413.4 -07.4694 26257.8
 22 02 2013  02 36  -21.0521 26035.0 -03413.4 -07.4693 26257.8
 22 02 2013  02 37  -21.0519 26034.9 -03413.3 -07.4692 26257.7
 22 02 2013  02 38  -21.0517 26035.0 -03413.3 -07.4691 26257.8
 22 02 2013  02 39  -21.0512 26035.0 -03413.3 -07.4691 26257.8
 22 02 2013  02 40  -21.0509 26034.9 -03413.2 -07.4689 26257.7
 22 02 2013  02 41  -21.0501 26035.8 -03413.5 -07.4694 26258.6
 22 02 2013  02 42  -21.0500 26035.6 -03413.5 -07.4694 26258.4
 22 02 2013  02 43  -21.0494 26036.0 -03413.7 -07.4697 26258.9
 22 02 2013  02 44  -21.0488 26036.3 -03413.8 -07.4699 26259.2
 22 02 2013  02 45  -21.0489 26036.3 -03413.9 -07.4700 26259.1
 22 02 2013  02 46  -21.0486 26036.5 -03414.0 -07.4702 26259.4
 22 02 2013  02 47  -21.0486 26036.5 -03414.0 -07.4701 26259.4
 22 02 2013  02 48  -21.0486 26036.6 -03414.1 -07.4703 26259.5
 22 02 2013  02 49  -21.0487 26036.7 -03414.1 -07.4703 26259.6
 22 02 2013  02 50  -21.0489 26036.7 -03414.0 -07.4702 26259.6
 22 02 2013  02 51  -21.0493 26036.8 -03414.1 -07.4703 26259.7
 22 02 2013  02 52  -21.0498 26036.9 -03414.1 -07.4703 26259.8
 22 02 2013  02 53  -21.0503 26036.9 -03414.1 -07.4702 26259.8
 22 02 2013  02 54  -21.0508 26037.1 -03414.1 -07.4703 26260.0
 22 02 2013  02 55  -21.0513 26037.4 -03414.2 -07.4705 26260.3
 22 02 2013  02 56  -21.0519 26037.9 -03414.4 -07.4707 26260.8
 22 02 2013  02 57  -21.0526 26038.2 -03414.6 -07.4711 26261.2
 22 02 2013  02 58  -21.0533 26038.5 -03414.7 -07.4712 26261.5
 22 02 2013  02 59  -21.0540 26038.5 -03414.7 -07.4711 26261.4
 22 02 2013  03 00  -21.0545 26038.2 -03414.4 -07.4706 26261.1
 22 02 2013  03 01  -21.0548 26038.1 -03414.2 -07.4703 26261.0
 22 02 2013  03 02  -21.0554 26037.7 -03414.0 -07.4700 26260.6
 22 02 2013  03 03  -21.0559 26037.4 -03413.8 -07.4695 26260.2
 22 02 2013  03 04  -21.0562 26036.9 -03413.5 -07.4690 26259.7
 22 02 2013  03 05  -21.0565 26036.4 -03413.2 -07.4685 26259.2
 22 02 2013  03 06  -21.0568 26036.2 -03413.1 -07.4683 26259.0
 22 02 2013  03 07  -21.0569 26036.1 -03413.1 -07.4683 26258.9
 22 02 2013  03 08  -21.0567 26036.1 -03413.0 -07.4682 26258.9
 22 02 2013  03 09  -21.0566 26036.0 -03413.0 -07.4681 26258.7
 22 02 2013  03 10  -21.0566 26035.8 -03412.9 -07.4681 26258.5
 22 02 2013  03 11  -21.0564 26035.7 -03412.9 -07.4679 26258.4
 22 02 2013  03 12  -21.0562 26035.5 -03412.8 -07.4679 26258.2
 22 02 2013  03 13  -21.0559 26035.3 -03412.7 -07.4678 26258.0
 22 02 2013  03 14  -21.0557 26035.3 -03412.8 -07.4679 26258.0
 22 02 2013  03 15  -21.0554 26035.3 -03412.8 -07.4680 26258.0
 22 02 2013  03 16  -21.0552 26035.4 -03412.9 -07.4681 26258.1
 22 02 2013  03 17  -21.0551 26035.4 -03412.9 -07.4682 26258.2
 22 02 2013  03 18  -21.0549 26035.5 -03413.0 -07.4684 26258.3
 22 02 2013  03 19  -21.0550 26035.5 -03413.1 -07.4685 26258.3
 22 02 2013  03 20  -21.0552 26035.6 -03413.2 -07.4687 26258.4
 22 02 2013  03 21  -21.0552 26035.6 -03413.2 -07.4687 26258.4
 22 02 2013  03 22  -21.0551 26035.7 -03413.3 -07.4688 26258.4
 22 02 2013  03 23  -21.0548 26035.6 -03413.2 -07.4688 26258.4
 22 02 2013  03 24  -21.0542 26035.7 -03413.2 -07.4688 26258.4
 22 02 2013  03 25  -21.0537 26035.7 -03413.3 -07.4688 26258.5
 22 02 2013  03 26  -21.0530 26035.7 -03413.3 -07.4688 26258.5
 22 02 2013  03 27  -21.0527 26035.7 -03413.3 -07.4689 26258.5
 22 02 2013  03 28  -21.0525 26035.8 -03413.4 -07.4691 26258.6
 22 02 2013  03 29  -21.0525 26035.7 -03413.4 -07.4691 26258.5
 22 02 2013  03 30  -21.0523 26035.6 -03413.4 -07.4691 26258.4
 22 02 2013  03 31  -21.0522 26035.5 -03413.3 -07.4690 26258.2
 22 02 2013  03 32  -21.0520 26035.4 -03413.3 -07.4689 26258.2
 22 02 2013  03 33  -21.0518 26035.3 -03413.2 -07.4689 26258.1
 22 02 2013  03 34  -21.0516 26035.2 -03413.2 -07.4688 26258.0
 22 02 2013  03 35  -21.0513 26035.1 -03413.2 -07.4688 26257.8
 22 02 2013  03 36  -21.0512 26035.0 -03413.2 -07.4688 26257.8
 22 02 2013  03 37  -21.0513 26034.8 -03413.1 -07.4688 26257.6
 22 02 2013  03 38  -21.0515 26034.6 -03413.1 -07.4687 26257.3
 22 02 2013  03 39  -21.0518 26034.4 -03413.0 -07.4686 26257.2
 22 02 2013  03 40  -21.0524 26034.3 -03413.0 -07.4686 26257.1
 22 02 2013  03 41  -21.0533 26034.3 -03413.1 -07.4688 26257.1
 22 02 2013  03 42  -21.0540 26034.3 -03413.1 -07.4688 26257.0
 22 02 2013  03 43  -21.0547 26034.1 -03413.0 -07.4686 26256.9
 22 02 2013  03 44  -21.0555 26034.0 -03412.9 -07.4685 26256.8
 22 02 2013  03 45  -21.0560 26034.0 -03412.9 -07.4685 26256.7
 22 02 2013  03 46  -21.0562 26034.1 -03412.9 -07.4685 26256.8
 22 02 2013  03 47  -21.0562 26034.1 -03412.9 -07.4685 26256.9
 22 02 2013  03 48  -21.0560 26034.3 -03412.9 -07.4685 26257.1
 22 02 2013  03 49  -21.0557 26034.5 -03413.0 -07.4686 26257.2
 22 02 2013  03 50  -21.0556 26034.6 -03413.0 -07.4687 26257.3
 22 02 2013  03 51  -21.0555 26034.7 -03413.1 -07.4687 26257.5
 22 02 2013  03 52  -21.0556 26034.8 -03413.1 -07.4688 26257.5
 22 02 2013  03 53  -21.0558 26034.8 -03413.1 -07.4688 26257.6
 22 02 2013  03 54  -21.0560 26034.7 -03413.0 -07.4686 26257.4
 22 02 2013  03 55  -21.0560 26034.6 -03413.0 -07.4685 26257.3
 22 02 2013  03 56  -21.0562 26034.4 -03412.8 -07.4682 26257.1
 22 02 2013  03 57  -21.0559 26034.2 -03412.7 -07.4680 26256.9
 22 02 2013  03 58  -21.0555 26034.0 -03412.5 -07.4677 26256.7
 22 02 2013  03 59  -21.0550 26034.0 -03412.5 -07.4677 26256.7
 22 02 2013  04 00  -21.0544 26034.1 -03412.6 -07.4677 26256.8
 22 02 2013  04 01  -21.0538 26034.2 -03412.6 -07.4679 26257.0
 22 02 2013  04 02  -21.0533 26034.2 -03412.7 -07.4680 26256.9
 22 02 2013  04 03  -21.0527 26034.1 -03412.6 -07.4679 26256.8
 22 02 2013  04 04  -21.0523 26033.9 -03412.6 -07.4679 26256.6
 22 02 2013  04 05  -21.0522 26033.9 -03412.6 -07.4679 26256.6
 22 02 2013  04 06  -21.0521 26034.0 -03412.7 -07.4681 26256.7
 22 02 2013  04 07  -21.0523 26034.1 -03412.8 -07.4683 26256.8
 22 02 2013  04 08  -21.0523 26034.2 -03412.9 -07.4684 26256.9
 22 02 2013  04 09  -21.0523 26034.2 -03413.0 -07.4686 26257.0
 22 02 2013  04 10  -21.0520 26034.3 -03413.0 -07.4687 26257.1
 22 02 2013  04 11  -21.0517 26034.4 -03413.1 -07.4688 26257.2
 22 02 2013  04 12  -21.0513 26034.5 -03413.1 -07.4689 26257.3
 22 02 2013  04 13  -21.0512 26034.6 -03413.2 -07.4690 26257.4
 22 02 2013  04 14  -21.0511 26034.6 -03413.2 -07.4691 26257.4
 22 02 2013  04 15  -21.0513 26034.6 -03413.2 -07.4691 26257.4
 22 02 2013  04 16  -21.0517 26034.5 -03413.3 -07.4691 26257.3
 22 02 2013  04 17  -21.0524 26034.6 -03413.3 -07.4692 26257.4
 22 02 2013  04 18  -21.0531 26034.8 -03413.4 -07.4694 26257.6
 22 02 2013  04 19  -21.0541 26034.9 -03413.5 -07.4695 26257.7
 22 02 2013  04 20  -21.0551 26035.0 -03413.5 -07.4696 26257.8
 22 02 2013  04 21  -21.0560 26035.0 -03413.5 -07.4695 26257.8
 22 02 2013  04 22  -21.0566 26035.0 -03413.4 -07.4693 26257.8
 22 02 2013  04 23  -21.0573 26035.0 -03413.3 -07.4692 26257.8
 22 02 2013  04 24  -21.0576 26034.9 -03413.2 -07.4690 26257.7
 22 02 2013  04 25  -21.0577 26035.0 -03413.2 -07.4688 26257.7
 22 02 2013  04 26  -21.0577 26035.0 -03413.1 -07.4687 26257.8
 22 02 2013  04 27  -21.0575 26035.1 -03413.1 -07.4687 26257.9
 22 02 2013  04 28  -21.0573 26035.3 -03413.2 -07.4687 26258.1
 22 02 2013  04 29  -21.0572 26035.4 -03413.2 -07.4688 26258.2
 22 02 2013  04 30  -21.0573 26035.6 -03413.3 -07.4689 26258.3
 22 02 2013  04 31  -21.0573 26035.7 -03413.3 -07.4690 26258.5
 22 02 2013  04 32  -21.0574 26035.9 -03413.4 -07.4691 26258.7
 22 02 2013  04 33  -21.0575 26036.1 -03413.5 -07.4691 26258.9
 22 02 2013  04 34  -21.0573 26036.2 -03413.5 -07.4692 26259.0
 22 02 2013  04 35  -21.0572 26036.3 -03413.5 -07.4692 26259.1
 22 02 2013  04 36  -21.0569 26036.5 -03413.6 -07.4693 26259.3
 22 02 2013  04 37  -21.0568 26036.6 -03413.6 -07.4692 26259.4
 22 02 2013  04 38  -21.0567 26036.7 -03413.7 -07.4694 26259.6
 22 02 2013  04 39  -21.0566 26037.0 -03413.7 -07.4695 26259.8
 22 02 2013  04 40  -21.0563 26037.1 -03413.8 -07.4696 26260.0
 22 02 2013  04 41  -21.0559 26037.3 -03413.8 -07.4696 26260.1
 22 02 2013  04 42  -21.0554 26037.4 -03413.9 -07.4697 26260.2
 22 02 2013  04 43  -21.0550 26037.4 -03413.9 -07.4696 26260.3
 22 02 2013  04 44  -21.0544 26037.4 -03413.9 -07.4696 26260.2
 22 02 2013  04 45  -21.0537 26037.4 -03413.8 -07.4695 26260.2
 22 02 2013  04 46  -21.0530 26037.3 -03413.7 -07.4694 26260.1
 22 02 2013  04 47  -21.0522 26037.2 -03413.7 -07.4694 26260.1
 22 02 2013  04 48  -21.0514 26037.2 -03413.7 -07.4694 26260.0
 22 02 2013  04 49  -21.0505 26037.1 -03413.7 -07.4694 26259.9
 22 02 2013  04 50  -21.0498 26036.9 -03413.7 -07.4693 26259.7
 22 02 2013  04 51  -21.0489 26036.7 -03413.6 -07.4693 26259.5
 22 02 2013  04 52  -21.0482 26036.5 -03413.6 -07.4693 26259.4
 22 02 2013  04 53  -21.0476 26036.4 -03413.6 -07.4693 26259.2
 22 02 2013  04 54  -21.0470 26036.3 -03413.6 -07.4693 26259.1
 22 02 2013  04 55  -21.0465 26036.2 -03413.6 -07.4694 26259.0
 22 02 2013  04 56  -21.0460 26036.2 -03413.7 -07.4696 26259.0
 22 02 2013  04 57  -21.0454 26036.3 -03413.8 -07.4698 26259.2
 22 02 2013  04 58  -21.0450 26036.4 -03413.9 -07.4701 26259.3
 22 02 2013  04 59  -21.0447 26036.4 -03414.0 -07.4703 26259.3
 22 02 2013  05 00  -21.0444 26036.4 -03414.1 -07.4704 26259.2
 22 02 2013  05 01  -21.0440 26036.2 -03414.0 -07.4703 26259.0
 22 02 2013  05 02  -21.0437 26035.9 -03414.0 -07.4703 26258.8
 22 02 2013  05 03  -21.0433 26035.7 -03413.9 -07.4702 26258.6
 22 02 2013  05 04  -21.0429 26035.5 -03413.8 -07.4701 26258.3
 22 02 2013  05 05  -21.0428 26035.3 -03413.8 -07.4700 26258.1
 22 02 2013  05 06  -21.0426 26035.2 -03413.8 -07.4701 26258.1
 22 02 2013  05 07  -21.0425 26035.2 -03413.9 -07.4703 26258.1
 22 02 2013  05 08  -21.0424 26035.3 -03414.0 -07.4705 26258.1
 22 02 2013  05 09  -21.0424 26035.3 -03414.1 -07.4707 26258.2
 22 02 2013  05 10  -21.0424 26035.6 -03414.3 -07.4710 26258.5
 22 02 2013  05 11  -21.0425 26035.8 -03414.4 -07.4713 26258.7
 22 02 2013  05 12  -21.0429 26036.0 -03414.6 -07.4716 26258.9
 22 02 2013  05 13  -21.0433 26036.1 -03414.7 -07.4718 26259.1
 22 02 2013  05 14  -21.0436 26036.3 -03414.8 -07.4720 26259.3
 22 02 2013  05 15  -21.0439 26036.3 -03414.8 -07.4720 26259.3
 22 02 2013  05 16  -21.0441 26036.3 -03414.8 -07.4720 26259.3
 22 02 2013  05 17  -21.0443 26036.2 -03414.7 -07.4718 26259.2
 22 02 2013  05 18  -21.0445 26036.1 -03414.7 -07.4717 26259.1
 22 02 2013  05 19  -21.0446 26036.0 -03414.6 -07.4716 26258.9
 22 02 2013  05 20  -21.0450 26035.9 -03414.5 -07.4715 26258.8
 22 02 2013  05 21  -21.0452 26035.8 -03414.5 -07.4714 26258.8
 22 02 2013  05 22  -21.0452 26035.9 -03414.5 -07.4714 26258.8
 22 02 2013  05 23  -21.0452 26035.7 -03414.4 -07.4713 26258.7
 22 02 2013  05 24  -21.0448 26035.7 -03414.4 -07.4712 26258.6
 22 02 2013  05 25  -21.0446 26035.6 -03414.3 -07.4711 26258.6
 22 02 2013  05 26  -21.0444 26035.6 -03414.3 -07.4711 26258.5
 22 02 2013  05 27  -21.0443 26035.6 -03414.4 -07.4712 26258.5
 22 02 2013  05 28  -21.0441 26035.6 -03414.4 -07.4713 26258.5
 22 02 2013  05 29  -21.0440 26035.6 -03414.4 -07.4713 26258.6
 22 02 2013  05 30  -21.0440 26035.7 -03414.4 -07.4714 26258.6
 22 02 2013  05 31  -21.0441 26035.7 -03414.5 -07.4715 26258.6
 22 02 2013  05 32  -21.0440 26035.7 -03414.5 -07.4715 26258.7
 22 02 2013  05 33  -21.0442 26035.8 -03414.5 -07.4715 26258.7
 22 02 2013  05 34  -21.0443 26035.7 -03414.5 -07.4716 26258.7
 22 02 2013  05 35  -21.0443 26035.7 -03414.5 -07.4715 26258.6
 22 02 2013  05 36  -21.0443 26035.6 -03414.5 -07.4715 26258.5
 22 02 2013  05 37  -21.0444 26035.5 -03414.4 -07.4714 26258.4
 22 02 2013  05 38  -21.0445 26035.5 -03414.4 -07.4714 26258.4
 22 02 2013  05 39  -21.0447 26035.5 -03414.4 -07.4714 26258.4
 22 02 2013  05 40  -21.0451 26035.6 -03414.5 -07.4715 26258.5
 22 02 2013  05 41  -21.0454 26035.6 -03414.5 -07.4716 26258.5
 22 02 2013  05 42  -21.0458 26035.7 -03414.5 -07.4715 26258.6
 22 02 2013  05 43  -21.0461 26035.7 -03414.5 -07.4716 26258.6
 22 02 2013  05 44  -21.0464 26035.7 -03414.5 -07.4716 26258.7
 22 02 2013  05 45  -21.0467 26035.8 -03414.6 -07.4716 26258.8
 22 02 2013  05 46  -21.0471 26035.9 -03414.6 -07.4717 26258.9
 22 02 2013  05 47  -21.0473 26036.0 -03414.6 -07.4717 26259.0
 22 02 2013  05 48  -21.0474 26036.0 -03414.6 -07.4716 26259.0
 22 02 2013  05 49  -21.0476 26036.2 -03414.6 -07.4717 26259.1
 22 02 2013  05 50  -21.0477 26036.3 -03414.6 -07.4716 26259.3
 22 02 2013  05 51  -21.0479 26036.4 -03414.7 -07.4717 26259.4
 22 02 2013  05 52  -21.0479 26036.7 -03414.8 -07.4718 26259.6
 22 02 2013  05 53  -21.0480 26037.0 -03414.9 -07.4719 26259.9
 22 02 2013  05 54  -21.0481 26037.2 -03415.0 -07.4721 26260.2
 22 02 2013  05 55  -21.0480 26037.3 -03415.0 -07.4721 26260.3
 22 02 2013  05 56  -21.0478 26037.5 -03415.0 -07.4721 26260.5
 22 02 2013  05 57  -21.0476 26037.7 -03415.0 -07.4721 26260.7
 22 02 2013  05 58  -21.0476 26037.7 -03415.1 -07.4721 26260.7
 22 02 2013  05 59  -21.0475 26037.9 -03415.1 -07.4722 26260.9
 22 02 2013  06 00  -21.0476 26038.3 -03415.3 -07.4724 26261.3
 22 02 2013  06 01  -21.0478 26038.2 -03415.2 -07.4723 26261.2
 22 02 2013  06 02  -21.0475 26038.5 -03415.3 -07.4724 26261.5
 22 02 2013  06 03  -21.0474 26038.5 -03415.3 -07.4723 26261.5
 22 02 2013  06 04  -21.0474 26038.8 -03415.3 -07.4725 26261.8
 22 02 2013  06 05  -21.0473 26038.8 -03415.3 -07.4723 26261.8
 22 02 2013  06 06  -21.0470 26038.9 -03415.3 -07.4723 26261.9
 22 02 2013  06 07  -21.0470 26038.8 -03415.2 -07.4722 26261.8
 22 02 2013  06 08  -21.0468 26038.8 -03415.2 -07.4720 26261.8
 22 02 2013  06 09  -21.0466 26038.8 -03415.1 -07.4719 26261.8
 22 02 2013  06 10  -21.0464 26038.8 -03415.0 -07.4718 26261.8
 22 02 2013  06 11  -21.0461 26038.8 -03415.0 -07.4718 26261.7
 22 02 2013  06 12  -21.0457 26038.8 -03415.0 -07.4717 26261.8
 22 02 2013  06 13  -21.0455 26038.9 -03415.1 -07.4718 26261.9
 22 02 2013  06 14  -21.0453 26038.9 -03415.1 -07.4718 26261.9
 22 02 2013  06 15  -21.0450 26039.0 -03415.1 -07.4719 26262.0
 22 02 2013  06 16  -21.0446 26039.2 -03415.2 -07.4720 26262.2
 22 02 2013  06 17  -21.0443 26039.3 -03415.3 -07.4721 26262.3
 22 02 2013  06 18  -21.0441 26039.3 -03415.3 -07.4722 26262.3
 22 02 2013  06 19  -21.0439 26039.3 -03415.3 -07.4722 26262.3
 22 02 2013  06 20  -21.0436 26039.3 -03415.3 -07.4722 26262.3
 22 02 2013  06 21  -21.0433 26039.4 -03415.3 -07.4722 26262.4
 22 02 2013  06 22  -21.0430 26039.4 -03415.3 -07.4723 26262.4
 22 02 2013  06 23  -21.0427 26039.2 -03415.2 -07.4721 26262.2
 22 02 2013  06 24  -21.0423 26039.1 -03415.2 -07.4720 26262.1
 22 02 2013  06 25  -21.0419 26038.9 -03415.1 -07.4719 26261.9
 22 02 2013  06 26  -21.0416 26038.8 -03415.1 -07.4719 26261.8
 22 02 2013  06 27  -21.0416 26038.8 -03415.1 -07.4719 26261.8
 22 02 2013  06 28  -21.0415 26038.8 -03415.1 -07.4720 26261.8
 22 02 2013  06 29  -21.0413 26038.9 -03415.2 -07.4721 26261.9
 22 02 2013  06 30  -21.0408 26038.8 -03415.2 -07.4721 26261.8
 22 02 2013  06 31  -21.0405 26038.8 -03415.2 -07.4722 26261.8
 22 02 2013  06 32  -21.0399 26038.9 -03415.3 -07.4723 26261.9
 22 02 2013  06 33  -21.0394 26039.1 -03415.4 -07.4725 26262.1
 22 02 2013  06 34  -21.0392 26039.3 -03415.6 -07.4728 26262.4
 22 02 2013  06 35  -21.0392 26039.4 -03415.7 -07.4730 26262.5
 22 02 2013  06 36  -21.0393 26039.4 -03415.7 -07.4730 26262.4
 22 02 2013  06 37  -21.0396 26039.5 -03415.8 -07.4732 26262.6
 22 02 2013  06 38  -21.0395 26039.7 -03415.9 -07.4734 26262.8
 22 02 2013  06 39  -21.0394 26039.7 -03415.9 -07.4733 26262.8
 22 02 2013  06 40  -21.0391 26039.7 -03415.8 -07.4733 26262.8
 22 02 2013  06 41  -21.0392 26039.5 -03415.8 -07.4732 26262.6
 22 02 2013  06 42  -21.0394 26039.6 -03415.8 -07.4732 26262.7
 22 02 2013  06 43  -21.0397 26039.8 -03415.9 -07.4733 26262.8
 22 02 2013  06 44  -21.0396 26039.7 -03415.8 -07.4732 26262.8
 22 02 2013  06 45  -21.0395 26039.6 -03415.8 -07.4731 26262.7
 22 02 2013  06 46  -21.0395 26039.5 -03415.7 -07.4730 26262.6
 22 02 2013  06 47  -21.0396 26039.4 -03415.6 -07.4729 26262.5
 22 02 2013  06 48  -21.0396 26039.2 -03415.5 -07.4727 26262.3
 22 02 2013  06 49  -21.0396 26039.1 -03415.5 -07.4726 26262.1
 22 02 2013  06 50  -21.0395 26039.1 -03415.4 -07.4725 26262.1
 22 02 2013  06 51  -21.0394 26039.0 -03415.4 -07.4725 26262.1
 22 02 2013  06 52  -21.0393 26039.2 -03415.5 -07.4726 26262.2
 22 02 2013  06 53  -21.0393 26039.2 -03415.5 -07.4726 26262.3
 22 02 2013  06 54  -21.0394 26039.3 -03415.5 -07.4727 26262.4
 22 02 2013  06 55  -21.0395 26039.4 -03415.6 -07.4728 26262.5
 22 02 2013  06 56  -21.0397 26039.7 -03415.7 -07.4730 26262.8
 22 02 2013  06 57  -21.0401 26040.0 -03415.8 -07.4731 26263.1
 22 02 2013  06 58  -21.0404 26040.3 -03415.9 -07.4733 26263.4
 22 02 2013  06 59  -21.0408 26040.4 -03415.9 -07.4732 26263.5
 22 02 2013  07 00  -21.0413 26040.6 -03416.0 -07.4733 26263.6
 22 02 2013  07 01  -21.0418 26040.8 -03416.0 -07.4733 26263.9
 22 02 2013  07 02  -21.0422 26040.8 -03416.0 -07.4732 26263.9
 22 02 2013  07 03  -21.0428 26040.8 -03415.9 -07.4731 26263.9
 22 02 2013  07 04  -21.0435 26040.8 -03415.8 -07.4729 26263.9
 22 02 2013  07 05  -21.0440 26040.8 -03415.7 -07.4727 26263.9
 22 02 2013  07 06  -21.0445 26040.8 -03415.7 -07.4726 26263.9
 22 02 2013  07 07  -21.0446 26040.8 -03415.5 -07.4723 26263.8
 22 02 2013  07 08  -21.0447 26040.7 -03415.4 -07.4721 26263.7
 22 02 2013  07 09  -21.0446 26040.5 -03415.3 -07.4718 26263.6
 22 02 2013  07 10  -21.0444 26040.5 -03415.2 -07.4716 26263.5
 22 02 2013  07 11  -21.0443 26040.4 -03415.0 -07.4713 26263.4
 22 02 2013  07 12  -21.0440 26040.3 -03415.0 -07.4713 26263.3
 22 02 2013  07 13  -21.0440 26040.3 -03414.9 -07.4711 26263.2
 22 02 2013  07 14  -21.0436 26040.2 -03414.9 -07.4711 26263.2
 22 02 2013  07 15  -21.0433 26040.1 -03414.8 -07.4709 26263.1
 22 02 2013  07 16  -21.0428 26040.1 -03414.8 -07.4708 26263.1
 22 02 2013  07 17  -21.0422 26040.0 -03414.7 -07.4706 26262.9
 22 02 2013  07 18  -21.0416 26039.9 -03414.6 -07.4705 26262.8
 22 02 2013  07 19  -21.0410 26039.7 -03414.5 -07.4705 26262.6
 22 02 2013  07 20  -21.0409 26039.6 -03414.5 -07.4705 26262.5
 22 02 2013  07 21  -21.0410 26039.6 -03414.6 -07.4705 26262.5
 22 02 2013  07 22  -21.0412 26039.6 -03414.6 -07.4706 26262.5
 22 02 2013  07 23  -21.0413 26039.6 -03414.6 -07.4707 26262.6
 22 02 2013  07 24  -21.0414 26039.6 -03414.6 -07.4706 26262.5
 22 02 2013  07 25  -21.0416 26039.7 -03414.6 -07.4706 26262.6
 22 02 2013  07 26  -21.0422 26039.8 -03414.7 -07.4708 26262.8
 22 02 2013  07 27  -21.0433 26040.1 -03414.9 -07.4710 26263.1
 22 02 2013  07 28  -21.0445 26040.3 -03415.0 -07.4713 26263.3
 22 02 2013  07 29  -21.0458 26040.5 -03415.1 -07.4713 26263.5
 22 02 2013  07 30  -21.0471 26040.7 -03415.0 -07.4713 26263.6
 22 02 2013  07 31  -21.0483 26040.8 -03415.0 -07.4711 26263.8
 22 02 2013  07 32  -21.0488 26040.6 -03414.8 -07.4708 26263.6
 22 02 2013  07 33  -21.0489 26040.6 -03414.6 -07.4704 26263.5
 22 02 2013  07 34  -21.0490 26040.5 -03414.5 -07.4700 26263.4
 22 02 2013  07 35  -21.0490 26040.3 -03414.3 -07.4698 26263.2
 22 02 2013  07 36  -21.0488 26040.2 -03414.2 -07.4695 26263.1
 22 02 2013  07 37  -21.0484 26040.1 -03414.0 -07.4692 26263.0
 22 02 2013  07 38  -21.0478 26040.1 -03413.9 -07.4691 26262.9
 22 02 2013  07 39  -21.0470 26040.0 -03413.8 -07.4689 26262.8
 22 02 2013  07 40  -21.0462 26039.9 -03413.7 -07.4687 26262.7
 22 02 2013  07 41  -21.0453 26039.8 -03413.7 -07.4687 26262.6
 22 02 2013  07 42  -21.0449 26039.7 -03413.7 -07.4687 26262.6
 22 02 2013  07 43  -21.0445 26039.7 -03413.8 -07.4688 26262.5
 22 02 2013  07 44  -21.0441 26039.6 -03413.8 -07.4688 26262.4
 22 02 2013  07 45  -21.0440 26039.5 -03413.8 -07.4689 26262.3
 22 02 2013  07 46  -21.0439 26039.5 -03413.8 -07.4690 26262.3
 22 02 2013  07 47  -21.0439 26039.6 -03413.9 -07.4691 26262.4
 22 02 2013  07 48  -21.0439 26039.7 -03414.0 -07.4693 26262.6
 22 02 2013  07 49  -21.0436 26039.8 -03414.1 -07.4694 26262.7
 22 02 2013  07 50  -21.0435 26039.9 -03414.2 -07.4696 26262.8
 22 02 2013  07 51  -21.0432 26040.0 -03414.3 -07.4697 26262.9
 22 02 2013  07 52  -21.0430 26040.1 -03414.3 -07.4699 26263.0
 22 02 2013  07 53  -21.0429 26040.3 -03414.4 -07.4700 26263.2
 22 02 2013  07 54  -21.0431 26040.5 -03414.6 -07.4703 26263.5
 22 02 2013  07 55  -21.0433 26040.6 -03414.6 -07.4704 26263.5
 22 02 2013  07 56  -21.0435 26040.5 -03414.6 -07.4704 26263.4
 22 02 2013  07 57  -21.0435 26040.5 -03414.6 -07.4703 26263.4
 22 02 2013  07 58  -21.0434 26040.5 -03414.6 -07.4703 26263.4
 22 02 2013  07 59  -21.0430 26040.4 -03414.5 -07.4702 26263.3
 22 02 2013  08 00  -21.0426 26040.5 -03414.5 -07.4702 26263.4
 22 02 2013  08 01  -21.0421 26040.5 -03414.5 -07.4702 26263.4
 22 02 2013  08 02  -21.0417 26040.5 -03414.5 -07.4702 26263.4
 22 02 2013  08 03  -21.0413 26040.5 -03414.5 -07.4702 26263.5
 22 02 2013  08 04  -21.0409 26040.5 -03414.5 -07.4702 26263.5
 22 02 2013  08 05  -21.0405 26040.5 -03414.5 -07.4702 26263.4
 22 02 2013  08 06  -21.0402 26040.4 -03414.5 -07.4702 26263.3
 22 02 2013  08 07  -21.0400 26040.3 -03414.5 -07.4702 26263.2
 22 02 2013  08 08  -21.0398 26040.2 -03414.5 -07.4702 26263.1
 22 02 2013  08 09  -21.0394 26040.2 -03414.5 -07.4702 26263.1
 22 02 2013  08 10  -21.0390 26040.1 -03414.5 -07.4702 26263.0
 22 02 2013  08 11  -21.0388 26040.2 -03414.5 -07.4703 26263.1
 22 02 2013  08 12  -21.0384 26040.2 -03414.6 -07.4703 26263.1
 22 02 2013  08 13  -21.0382 26040.2 -03414.6 -07.4704 26263.1
 22 02 2013  08 14  -21.0380 26040.2 -03414.6 -07.4705 26263.1
 22 02 2013  08 15  -21.0379 26040.1 -03414.7 -07.4706 26263.0
 22 02 2013  08 16  -21.0379 26040.0 -03414.7 -07.4707 26263.0
 22 02 2013  08 17  -21.0379 26040.0 -03414.7 -07.4707 26262.9
 22 02 2013  08 18  -21.0380 26040.0 -03414.7 -07.4707 26262.9
 22 02 2013  08 19  -21.0383 26040.0 -03414.8 -07.4709 26263.0
 22 02 2013  08 20  -21.0385 26040.1 -03414.8 -07.4710 26263.1
 22 02 2013  08 21  -21.0386 26040.2 -03414.9 -07.4710 26263.1
 22 02 2013  08 22  -21.0389 26040.2 -03415.0 -07.4712 26263.2
 22 02 2013  08 23  -21.0391 26040.2 -03415.0 -07.4713 26263.2
 22 02 2013  08 24  -21.0391 26040.2 -03415.0 -07.4713 26263.2
 22 02 2013  08 25  -21.0390 26040.3 -03415.0 -07.4713 26263.2
 22 02 2013  08 26  -21.0388 26040.3 -03415.0 -07.4713 26263.3
 22 02 2013  08 27  -21.0390 26040.3 -03415.0 -07.4713 26263.3
 22 02 2013  08 28  -21.0388 26040.3 -03415.0 -07.4713 26263.3
 22 02 2013  08 29  -21.0389 26040.3 -03415.0 -07.4713 26263.3
 22 02 2013  08 30  -21.0390 26040.4 -03415.0 -07.4713 26263.3
 22 02 2013  08 31  -21.0391 26040.4 -03415.0 -07.4713 26263.3
 22 02 2013  08 32  -21.0394 26040.4 -03415.1 -07.4714 26263.4
 22 02 2013  08 33  -21.0397 26040.6 -03415.1 -07.4714 26263.6
 22 02 2013  08 34  -21.0399 26040.6 -03415.0 -07.4712 26263.6
 22 02 2013  08 35  -21.0399 26040.5 -03415.0 -07.4711 26263.5
 22 02 2013  08 36  -21.0397 26040.5 -03415.0 -07.4711 26263.5
 22 02 2013  08 37  -21.0393 26040.4 -03414.9 -07.4711 26263.4
 22 02 2013  08 38  -21.0392 26040.3 -03414.8 -07.4708 26263.2
 22 02 2013  08 39  -21.0392 26040.1 -03414.7 -07.4707 26263.0
 22 02 2013  08 40  -21.0392 26039.9 -03414.6 -07.4706 26262.8
 22 02 2013  08 41  -21.0392 26039.8 -03414.6 -07.4705 26262.7
 22 02 2013  08 42  -21.0392 26039.6 -03414.5 -07.4704 26262.5
 22 02 2013  08 43  -21.0391 26039.5 -03414.4 -07.4702 26262.4
 22 02 2013  08 44  -21.0392 26039.2 -03414.3 -07.4700 26262.1
 22 02 2013  08 45  -21.0391 26039.1 -03414.2 -07.4699 26262.0
 22 02 2013  08 46  -21.0389 26039.2 -03414.2 -07.4699 26262.0
 22 02 2013  08 47  -21.0385 26039.2 -03414.2 -07.4698 26262.0
 22 02 2013  08 48  -21.0382 26039.2 -03414.2 -07.4698 26262.1
 22 02 2013  08 49  -21.0378 26039.2 -03414.1 -07.4697 26262.0
 22 02 2013  08 50  -21.0375 26039.0 -03414.0 -07.4695 26261.9
 22 02 2013  08 51  -21.0371 26038.9 -03413.9 -07.4694 26261.8
 22 02 2013  08 52  -21.0369 26038.9 -03413.9 -07.4693 26261.8
 22 02 2013  08 53  -21.0372 26038.9 -03413.9 -07.4693 26261.8
 22 02 2013  08 54  -21.0375 26038.9 -03414.0 -07.4695 26261.8
 22 02 2013  08 55  -21.0375 26038.9 -03414.0 -07.4696 26261.7
 22 02 2013  08 56  -21.0374 26038.7 -03414.0 -07.4696 26261.6
 22 02 2013  08 57  -21.0375 26038.7 -03414.0 -07.4696 26261.5
 22 02 2013  08 58  -21.0373 26038.6 -03414.1 -07.4697 26261.5
 22 02 2013  08 59  -21.0372 26038.5 -03414.1 -07.4698 26261.4
 22 02 2013  09 00  -21.0371 26038.4 -03414.2 -07.4701 26261.3
 22 02 2013  09 01  -21.0367 26038.4 -03414.3 -07.4703 26261.3
 22 02 2013  09 02  -21.0368 26038.3 -03414.4 -07.4705 26261.2
 22 02 2013  09 03  -21.0369 26038.2 -03414.5 -07.4708 26261.1
 22 02 2013  09 04  -21.0374 26038.1 -03414.6 -07.4711 26261.0
 22 02 2013  09 05  -21.0377 26038.0 -03414.7 -07.4713 26261.0
 22 02 2013  09 06  -21.0383 26038.0 -03414.9 -07.4716 26260.9
 22 02 2013  09 07  -21.0385 26037.9 -03414.9 -07.4718 26260.9
 22 02 2013  09 08  -21.0388 26038.0 -03415.0 -07.4720 26261.0
 22 02 2013  09 09  -21.0390 26038.0 -03415.2 -07.4723 26261.0
 22 02 2013  09 10  -21.0392 26038.0 -03415.2 -07.4725 26261.0
 22 02 2013  09 11  -21.0394 26038.0 -03415.4 -07.4728 26261.1
 22 02 2013  09 12  -21.0395 26038.0 -03415.5 -07.4730 26261.0
 22 02 2013  09 13  -21.0389 26037.9 -03415.6 -07.4732 26261.0
 22 02 2013  09 14  -21.0389 26037.7 -03415.6 -07.4733 26260.8
 22 02 2013  09 15  -21.0389 26037.7 -03415.8 -07.4737 26260.8
 22 02 2013  09 16  -21.0394 26037.6 -03415.9 -07.4740 26260.7
 22 02 2013  09 17  -21.0399 26037.6 -03416.0 -07.4743 26260.7
 22 02 2013  09 18  -21.0405 26037.5 -03416.1 -07.4745 26260.6
 22 02 2013  09 19  -21.0411 26037.4 -03416.3 -07.4749 26260.5
 22 02 2013  09 20  -21.0415 26037.2 -03416.3 -07.4750 26260.3
 22 02 2013  09 21  -21.0419 26037.0 -03416.3 -07.4751 26260.2
 22 02 2013  09 22  -21.0422 26037.0 -03416.6 -07.4756 26260.2
 22 02 2013  09 23  -21.0427 26037.0 -03416.7 -07.4760 26260.2
 22 02 2013  09 24  -21.0429 26036.8 -03416.8 -07.4762 26260.0
 22 02 2013  09 25  -21.0435 26036.7 -03417.0 -07.4766 26260.0
 22 02 2013  09 26  -21.0446 26036.8 -03417.3 -07.4772 26260.1
 22 02 2013  09 27  -21.0449 26036.8 -03417.4 -07.4775 26260.1
 22 02 2013  09 28  -21.0454 26036.9 -03417.6 -07.4779 26260.2
 22 02 2013  09 29  -21.0454 26036.8 -03417.7 -07.4781 26260.2
 22 02 2013  09 30  -21.0458 26036.5 -03417.7 -07.4782 26259.9
 22 02 2013  09 31  -21.0468 26036.5 -03417.8 -07.4785 26259.8
 22 02 2013  09 32  -21.0476 26036.7 -03418.1 -07.4790 26260.1
 22 02 2013  09 33  -21.0486 26036.7 -03418.2 -07.4793 26260.1
 22 02 2013  09 34  -21.0491 26036.6 -03418.3 -07.4794 26260.1
 22 02 2013  09 35  -21.0503 26036.7 -03418.4 -07.4796 26260.1
 22 02 2013  09 36  -21.0510 26036.8 -03418.5 -07.4798 26260.2
 22 02 2013  09 37  -21.0520 26036.8 -03418.6 -07.4800 26260.2
 22 02 2013  09 38  -21.0529 26036.8 -03418.6 -07.4800 26260.2
 22 02 2013  09 39  -21.0538 26036.9 -03418.6 -07.4801 26260.4
 22 02 2013  09 40  -21.0545 26037.1 -03418.7 -07.4802 26260.6
 22 02 2013  09 41  -21.0552 26037.3 -03418.7 -07.4802 26260.8
 22 02 2013  09 42  -21.0560 26037.4 -03418.8 -07.4803 26260.9
 22 02 2013  09 43  -21.0564 26037.7 -03418.9 -07.4804 26261.2
 22 02 2013  09 44  -21.0570 26038.0 -03419.0 -07.4805 26261.5
 22 02 2013  09 45  -21.0573 26038.1 -03419.0 -07.4806 26261.6
 22 02 2013  09 46  -21.0572 26038.1 -03419.0 -07.4806 26261.6
 22 02 2013  09 47  -21.0585 26038.3 -03419.1 -07.4808 26261.8
 22 02 2013  09 48  -21.0610 26039.0 -03419.4 -07.4812 26262.5
 22 02 2013  09 49  -21.0618 26039.5 -03419.5 -07.4813 26263.1
 22 02 2013  09 50  -21.0622 26039.8 -03419.5 -07.4812 26263.3
 22 02 2013  09 51  -21.0629 26040.0 -03419.6 -07.4813 26263.6
 22 02 2013  09 52  -21.0633 26040.1 -03419.5 -07.4812 26263.7
 22 02 2013  09 53  -21.0636 26040.1 -03419.4 -07.4809 26263.7
 22 02 2013  09 54  -21.0642 26040.2 -03419.4 -07.4808 26263.7
 22 02 2013  09 55  -21.0648 26040.3 -03419.3 -07.4806 26263.8
 22 02 2013  09 56  -21.0657 26040.3 -03419.2 -07.4804 26263.9
 22 02 2013  09 57  -21.0665 26040.5 -03419.1 -07.4801 26264.0
 22 02 2013  09 58  -21.0672 26040.6 -03419.0 -07.4799 26264.1
 22 02 2013  09 59  -21.0679 26040.6 -03418.9 -07.4796 26264.1
 22 02 2013  10 00  -21.0681 26040.5 -03418.7 -07.4793 26263.9
 22 02 2013  10 01  -21.0682 26040.3 -03418.5 -07.4789 26263.7
 22 02 2013  10 02  -21.0680 26040.0 -03418.4 -07.4786 26263.4
 22 02 2013  10 03  -21.0678 26039.8 -03418.2 -07.4783 26263.2
 22 02 2013  10 04  -21.0674 26039.6 -03418.1 -07.4782 26263.0
 22 02 2013  10 05  -21.0675 26039.6 -03418.1 -07.4782 26263.0
 22 02 2013  10 06  -21.0676 26039.7 -03418.2 -07.4783 26263.1
 22 02 2013  10 07  -21.0681 26039.7 -03418.2 -07.4784 26263.1
 22 02 2013  10 08  -21.0689 26039.8 -03418.3 -07.4784 26263.2
 22 02 2013  10 09  -21.0707 26040.1 -03418.3 -07.4786 26263.5
 22 02 2013  10 10  -21.0720 26040.2 -03418.4 -07.4786 26263.6
 22 02 2013  10 11  -21.0735 26040.4 -03418.3 -07.4784 26263.8
 22 02 2013  10 12  -21.0746 26040.5 -03418.2 -07.4782 26263.9
 22 02 2013  10 13  -21.0754 26040.5 -03418.1 -07.4779 26263.8
 22 02 2013  10 14  -21.0760 26040.1 -03417.8 -07.4774 26263.4
 22 02 2013  10 15  -21.0769 26040.1 -03417.7 -07.4773 26263.4
 22 02 2013  10 16  -21.0780 26040.3 -03417.8 -07.4774 26263.7
 22 02 2013  10 17  -21.0784 26040.0 -03417.7 -07.4772 26263.3
 22 02 2013  10 18  -21.0779 26039.5 -03417.4 -07.4767 26262.7
 22 02 2013  10 19  -21.0777 26039.0 -03417.2 -07.4764 26262.3
 22 02 2013  10 20  -21.0775 26038.9 -03417.2 -07.4764 26262.2
 22 02 2013  10 21  -21.0778 26039.1 -03417.3 -07.4766 26262.4
 22 02 2013  10 22  -21.0783 26039.4 -03417.5 -07.4768 26262.7
 22 02 2013  10 23  -21.0783 26039.6 -03417.5 -07.4769 26262.9
 22 02 2013  10 24  -21.0783 26039.7 -03417.5 -07.4768 26263.0
 22 02 2013  10 25  -21.0781 26039.5 -03417.4 -07.4766 26262.8
 22 02 2013  10 26  -21.0783 26039.5 -03417.3 -07.4765 26262.8
 22 02 2013  10 27  -21.0789 26039.5 -03417.3 -07.4765 26262.8
 22 02 2013  10 28  -21.0798 26039.7 -03417.3 -07.4764 26262.9
 22 02 2013  10 29  -21.0803 26039.7 -03417.2 -07.4762 26262.9
 22 02 2013  10 30  -21.0811 26039.6 -03417.1 -07.4760 26262.8
 22 02 2013  10 31  -21.0816 26039.6 -03417.1 -07.4760 26262.8
 22 02 2013  10 32  -21.0824 26039.4 -03417.1 -07.4761 26262.7
 22 02 2013  10 33  -21.0833 26039.2 -03417.1 -07.4760 26262.5
 22 02 2013  10 34  -21.0840 26039.2 -03417.1 -07.4761 26262.4
 22 02 2013  10 35  -21.0845 26039.0 -03417.0 -07.4759 26262.2
 22 02 2013  10 36  -21.0846 26039.0 -03416.9 -07.4758 26262.3
 22 02 2013  10 37  -21.0843 26039.4 -03417.0 -07.4758 26262.7
 22 02 2013  10 38  -21.0849 26040.0 -03417.1 -07.4758 26263.3
 22 02 2013  10 39  -21.0856 26040.7 -03417.2 -07.4759 26263.9
 22 02 2013  10 40  -21.0859 26041.2 -03417.1 -07.4756 26264.4
 22 02 2013  10 41  -21.0853 26041.3 -03416.9 -07.4751 26264.5
 22 02 2013  10 42  -21.0855 26041.4 -03416.7 -07.4746 26264.6
 22 02 2013  10 43  -21.0860 26041.5 -03416.6 -07.4743 26264.7
 22 02 2013  10 44  -21.0861 26041.4 -03416.4 -07.4739 26264.6
 22 02 2013  10 45  -21.0860 26041.5 -03416.2 -07.4736 26264.6
 22 02 2013  10 46  -21.0859 26041.8 -03416.2 -07.4735 26264.9
 22 02 2013  10 47  -21.0858 26042.1 -03416.2 -07.4733 26265.2
 22 02 2013  10 48  -21.0861 26042.5 -03416.2 -07.4733 26265.6
 22 02 2013  10 49  -21.0866 26043.0 -03416.2 -07.4732 26266.1
 22 02 2013  10 50  -21.0870 26043.4 -03416.2 -07.4730 26266.5
 22 02 2013  10 51  -21.0868 26043.9 -03416.1 -07.4727 26267.0
 22 02 2013  10 52  -21.0864 26044.4 -03416.0 -07.4724 26267.5
 22 02 2013  10 53  -21.0866 26044.9 -03415.9 -07.4720 26267.9
 22 02 2013  10 54  -21.0866 26045.4 -03415.8 -07.4716 26268.5
 22 02 2013  10 55  -21.0864 26045.6 -03415.6 -07.4711 26268.6
 22 02 2013  10 56  -21.0861 26045.7 -03415.4 -07.4705 26268.6
 22 02 2013  10 57  -21.0861 26045.9 -03415.2 -07.4702 26268.8
 22 02 2013  10 58  -21.0860 26046.1 -03415.1 -07.4700 26269.0
 22 02 2013  10 59  -21.0860 26046.4 -03415.2 -07.4699 26269.4
 22 02 2013  11 00  -21.0855 26046.4 -03415.0 -07.4695 26269.3
 22 02 2013  11 01  -21.0855 26046.2 -03414.8 -07.4691 26269.1
 22 02 2013  11 02  -21.0858 26046.5 -03414.9 -07.4692 26269.4
 22 02 2013  11 03  -21.0867 26047.0 -03414.9 -07.4693 26270.0
 22 02 2013  11 04  -21.0873 26048.0 -03415.1 -07.4694 26270.9
 22 02 2013  11 05  -21.0875 26049.2 -03415.3 -07.4695 26272.1
 22 02 2013  11 06  -21.0872 26050.3 -03415.4 -07.4693 26273.3
 22 02 2013  11 07  -21.0871 26051.1 -03415.3 -07.4689 26274.0
 22 02 2013  11 08  -21.0867 26051.4 -03415.1 -07.4683 26274.3
 22 02 2013  11 09  -21.0864 26051.3 -03414.8 -07.4676 26274.1
 22 02 2013  11 10  -21.0858 26050.9 -03414.4 -07.4670 26273.7
 22 02 2013  11 11  -21.0854 26050.5 -03414.2 -07.4666 26273.3
 22 02 2013  11 12  -21.0854 26050.2 -03414.0 -07.4664 26273.0
 22 02 2013  11 13  -21.0855 26050.0 -03414.0 -07.4663 26272.8
 22 02 2013  11 14  -21.0860 26049.7 -03413.9 -07.4663 26272.5
 22 02 2013  11 15  -21.0870 26049.7 -03414.0 -07.4664 26272.4
 22 02 2013  11 16  -21.0882 26049.9 -03414.0 -07.4665 26272.7
 22 02 2013  11 17  -21.0886 26050.4 -03414.1 -07.4664 26273.2
 22 02 2013  11 18  -21.0892 26051.0 -03414.2 -07.4664 26273.7
 22 02 2013  11 19  -21.0904 26051.6 -03414.3 -07.4665 26274.4
 22 02 2013  11 20  -21.0910 26051.8 -03414.1 -07.4661 26274.5
 22 02 2013  11 21  -21.0908 26051.5 -03413.8 -07.4655 26274.3
 22 02 2013  11 22  -21.0905 26051.8 -03413.7 -07.4652 26274.5
 22 02 2013  11 23  -21.0899 26052.5 -03413.8 -07.4651 26275.2
 22 02 2013  11 24  -21.0892 26052.7 -03413.5 -07.4645 26275.3
 22 02 2013  11 25  -21.0887 26052.7 -03413.3 -07.4640 26275.4
 22 02 2013  11 26  -21.0886 26053.1 -03413.3 -07.4639 26275.7
 22 02 2013  11 27  -21.0887 26053.6 -03413.2 -07.4637 26276.2
 22 02 2013  11 28  -21.0890 26053.9 -03413.2 -07.4634 26276.5
 22 02 2013  11 29  -21.0903 26054.0 -03413.0 -07.4631 26276.5
 22 02 2013  11 30  -21.0915 26054.0 -03412.9 -07.4628 26276.6
 22 02 2013  11 31  -21.0914 26054.2 -03412.7 -07.4624 26276.8
 22 02 2013  11 32  -21.0909 26054.3 -03412.5 -07.4619 26276.8
 22 02 2013  11 33  -21.0914 26054.4 -03412.4 -07.4617 26276.9
 22 02 2013  11 34  -21.0920 26054.4 -03412.3 -07.4614 26276.9
 22 02 2013  11 35  -21.0921 26054.7 -03412.2 -07.4612 26277.2
 22 02 2013  11 36  -21.0921 26055.6 -03412.4 -07.4613 26278.1
 22 02 2013  11 37  -21.0923 26056.3 -03412.5 -07.4612 26278.8
 22 02 2013  11 38  -21.0926 26056.6 -03412.3 -07.4609 26279.1
 22 02 2013  11 39  -21.0927 26057.3 -03412.3 -07.4607 26279.8
 22 02 2013  11 40  -21.0926 26058.0 -03412.4 -07.4606 26280.4
 22 02 2013  11 41  -21.0926 26058.4 -03412.3 -07.4603 26280.9
 22 02 2013  11 42  -21.0923 26059.1 -03412.3 -07.4602 26281.6
 22 02 2013  11 43  -21.0926 26059.9 -03412.3 -07.4600 26282.4
 22 02 2013  11 44  -21.0930 26060.3 -03412.2 -07.4595 26282.7
 22 02 2013  11 45  -21.0933 26060.6 -03412.0 -07.4590 26283.0
 22 02 2013  11 46  -21.0932 26060.8 -03411.7 -07.4583 26283.2
 22 02 2013  11 47  -21.0939 26060.9 -03411.5 -07.4579 26283.2
 22 02 2013  11 48  -21.0942 26060.8 -03411.3 -07.4575 26283.1
 22 02 2013  11 49  -21.0945 26060.9 -03411.2 -07.4572 26283.2
 22 02 2013  11 50  -21.0940 26061.2 -03411.1 -07.4570 26283.5
 22 02 2013  11 51  -21.0938 26061.5 -03411.1 -07.4568 26283.7
 22 02 2013  11 52  -21.0930 26061.7 -03410.9 -07.4564 26283.9
 22 02 2013  11 53  -21.0933 26061.7 -03410.7 -07.4560 26283.9
 22 02 2013  11 54  -21.0932 26061.7 -03410.4 -07.4554 26283.9
 22 02 2013  11 55  -21.0935 26061.7 -03410.3 -07.4550 26283.9
 22 02 2013  11 56  -21.0937 26061.2 -03409.9 -07.4544 26283.4
 22 02 2013  11 57  -21.0936 26060.8 -03409.7 -07.4540 26282.9
 22 02 2013  11 58  -21.0931 26060.9 -03409.6 -07.4537 26283.0
 22 02 2013  11 59  -21.0928 26060.9 -03409.5 -07.4535 26283.0
 22 02 2013  12 00  -21.0923 26061.3 -03409.6 -07.4537 26283.4
 22 02 2013  12 01  -21.0916 26061.8 -03409.8 -07.4539 26283.9
 22 02 2013  12 02  -21.0905 26062.6 -03409.9 -07.4540 26284.7
 22 02 2013  12 03  -21.0895 26063.8 -03410.2 -07.4543 26286.0
 22 02 2013  12 04  -21.0890 26064.8 -03410.3 -07.4542 26286.9
 22 02 2013  12 05  -21.0889 26065.1 -03410.1 -07.4537 26287.3
 22 02 2013  12 06  -21.0888 26065.1 -03409.8 -07.4530 26287.2
 22 02 2013  12 07  -21.0887 26065.1 -03409.5 -07.4523 26287.2
 22 02 2013  12 08  -21.0883 26064.8 -03409.0 -07.4513 26286.7
 22 02 2013  12 09  -21.0888 26064.4 -03408.6 -07.4507 26286.3
 22 02 2013  12 10  -21.0889 26063.8 -03408.3 -07.4501 26285.7
 22 02 2013  12 11  -21.0882 26063.1 -03407.9 -07.4494 26285.0
 22 02 2013  12 12  -21.0880 26062.9 -03407.8 -07.4493 26284.7
 22 02 2013  12 13  -21.0882 26063.0 -03407.9 -07.4494 26284.8
 22 02 2013  12 14  -21.0884 26062.4 -03407.7 -07.4491 26284.3
 22 02 2013  12 15  -21.0887 26061.6 -03407.3 -07.4486 26283.4
 22 02 2013  12 16  -21.0887 26060.7 -03407.0 -07.4482 26282.4
 22 02 2013  12 17  -21.0887 26061.3 -03407.3 -07.4488 26283.1
 22 02 2013  12 18  -21.0888 26061.4 -03407.5 -07.4491 26283.2
 22 02 2013  12 19  -21.0887 26060.9 -03407.2 -07.4486 26282.7
 22 02 2013  12 20  -21.0878 26061.6 -03407.4 -07.4487 26283.4
 22 02 2013  12 21  -21.0873 26062.1 -03407.5 -07.4489 26283.9
 22 02 2013  12 22  -21.0864 26062.3 -03407.5 -07.4488 26284.1
 22 02 2013  12 23  -21.0858 26062.6 -03407.4 -07.4486 26284.4
 22 02 2013  12 24  -21.0862 26063.2 -03407.5 -07.4485 26285.0
 22 02 2013  12 25  -21.0861 26063.5 -03407.4 -07.4484 26285.3
 22 02 2013  12 26  -21.0859 26063.6 -03407.3 -07.4480 26285.3
 22 02 2013  12 27  -21.0858 26063.8 -03407.2 -07.4477 26285.6
 22 02 2013  12 28  -21.0854 26064.4 -03407.2 -07.4476 26286.2
 22 02 2013  12 29  -21.0854 26064.6 -03407.1 -07.4473 26286.3
 22 02 2013  12 30  -21.0855 26064.6 -03406.8 -07.4468 26286.3
 22 02 2013  12 31  -21.0850 26064.9 -03406.8 -07.4465 26286.6
 22 02 2013  12 32  -21.0847 26064.7 -03406.5 -07.4460 26286.3
 22 02 2013  12 33  -21.0850 26064.3 -03406.2 -07.4455 26285.9
 22 02 2013  12 34  -21.0853 26064.5 -03406.2 -07.4454 26286.1
 22 02 2013  12 35  -21.0847 26064.5 -03406.1 -07.4452 26286.2
 22 02 2013  12 36  -21.0843 26064.6 -03406.1 -07.4451 26286.2
 22 02 2013  12 37  -21.0842 26064.6 -03406.0 -07.4449 26286.2
 22 02 2013  12 38  -21.0842 26064.8 -03406.0 -07.4448 26286.4
 22 02 2013  12 39  -21.0839 26065.0 -03406.0 -07.4447 26286.6
 22 02 2013  12 40  -21.0830 26065.9 -03406.2 -07.4450 26287.5
 22 02 2013  12 41  -21.0824 26067.0 -03406.5 -07.4453 26288.7
 22 02 2013  12 42  -21.0809 26068.2 -03406.7 -07.4455 26289.8
 22 02 2013  12 43  -21.0801 26067.9 -03406.5 -07.4451 26289.5
 22 02 2013  12 44  -21.0799 26067.7 -03406.4 -07.4449 26289.3
 22 02 2013  12 45  -21.0802 26068.0 -03406.6 -07.4452 26289.7
 22 02 2013  12 46  -21.0802 26068.8 -03406.8 -07.4455 26290.5
 22 02 2013  12 47  -21.0797 26069.3 -03406.9 -07.4455 26291.0
 22 02 2013  12 48  -21.0794 26069.8 -03406.9 -07.4454 26291.4
 22 02 2013  12 49  -21.0797 26069.6 -03406.7 -07.4450 26291.3
 22 02 2013  12 50  -21.0800 26069.0 -03406.3 -07.4443 26290.6
 22 02 2013  12 51  -21.0808 26069.1 -03406.3 -07.4444 26290.7
 22 02 2013  12 52  -21.0814 26069.1 -03406.3 -07.4443 26290.7
 22 02 2013  12 53  -21.0812 26069.5 -03406.4 -07.4444 26291.1
 22 02 2013  12 54  -21.0808 26070.3 -03406.7 -07.4448 26291.9
 22 02 2013  12 55  -21.0809 26071.4 -03407.1 -07.4454 26293.1
 22 02 2013  12 56  -21.0806 26072.3 -03407.3 -07.4456 26294.0
 22 02 2013  12 57  -21.0803 26072.6 -03407.2 -07.4453 26294.3
 22 02 2013  12 58  -21.0799 26072.6 -03407.1 -07.4450 26294.3
 22 02 2013  12 59  -21.0799 26073.2 -03407.2 -07.4452 26294.8
 22 02 2013  13 00  -21.0805 26073.4 -03407.3 -07.4453 26295.1
 22 02 2013  13 01  -21.0814 26074.0 -03407.4 -07.4454 26295.7
 22 02 2013  13 02  -21.0820 26074.9 -03407.6 -07.4454 26296.7
 22 02 2013  13 03  -21.0823 26075.3 -03407.5 -07.4451 26297.0
 22 02 2013  13 04  -21.0828 26075.7 -03407.4 -07.4449 26297.4
 22 02 2013  13 05  -21.0832 26075.1 -03407.0 -07.4442 26296.8
 22 02 2013  13 06  -21.0833 26074.7 -03406.8 -07.4439 26296.3
 22 02 2013  13 07  -21.0830 26075.0 -03407.0 -07.4442 26296.6
 22 02 2013  13 08  -21.0825 26075.3 -03407.2 -07.4444 26296.9
 22 02 2013  13 09  -21.0823 26075.9 -03407.4 -07.4448 26297.6
 22 02 2013  13 10  -21.0819 26077.1 -03407.8 -07.4453 26298.8
 22 02 2013  13 11  -21.0818 26077.4 -03407.7 -07.4451 26299.1
 22 02 2013  13 12  -21.0816 26077.3 -03407.5 -07.4445 26299.0
 22 02 2013  13 13  -21.0815 26076.7 -03407.1 -07.4439 26298.3
 22 02 2013  13 14  -21.0815 26075.5 -03406.6 -07.4431 26297.0
 22 02 2013  13 15  -21.0815 26074.4 -03406.2 -07.4427 26295.9
 22 02 2013  13 16  -21.0822 26073.7 -03406.2 -07.4428 26295.3
 22 02 2013  13 17  -21.0825 26073.3 -03406.2 -07.4429 26294.8
 22 02 2013  13 18  -21.0823 26073.2 -03406.3 -07.4431 26294.8
 22 02 2013  13 19  -21.0824 26073.6 -03406.6 -07.4437 26295.2
 22 02 2013  13 20  -21.0828 26073.5 -03406.7 -07.4438 26295.1
 22 02 2013  13 21  -21.0826 26073.7 -03406.7 -07.4439 26295.4
 22 02 2013  13 22  -21.0830 26074.6 -03407.1 -07.4445 26296.3
 22 02 2013  13 23  -21.0833 26075.3 -03407.3 -07.4447 26297.0
 22 02 2013  13 24  -21.0831 26076.4 -03407.7 -07.4452 26298.2
 22 02 2013  13 25  -21.0836 26077.0 -03407.7 -07.4451 26298.7
 22 02 2013  13 26  -21.0840 26077.4 -03407.6 -07.4449 26299.1
 22 02 2013  13 27  -21.0842 26077.5 -03407.5 -07.4446 26299.2
 22 02 2013  13 28  -21.0842 26077.5 -03407.4 -07.4443 26299.2
 22 02 2013  13 29  -21.0844 26077.5 -03407.3 -07.4441 26299.1
 22 02 2013  13 30  -21.0853 26077.5 -03407.3 -07.4440 26299.1
 22 02 2013  13 31  -21.0860 26077.6 -03407.3 -07.4441 26299.3
 22 02 2013  13 32  -21.0867 26078.2 -03407.5 -07.4444 26299.8
 22 02 2013  13 33  -21.0875 26078.7 -03407.7 -07.4446 26300.4
 22 02 2013  13 34  -21.0878 26079.1 -03407.7 -07.4446 26300.8
 22 02 2013  13 35  -21.0877 26079.6 -03407.8 -07.4445 26301.3
 22 02 2013  13 36  -21.0875 26080.1 -03407.8 -07.4444 26301.8
 22 02 2013  13 37  -21.0875 26080.4 -03407.7 -07.4442 26302.1
 22 02 2013  13 38  -21.0878 26080.6 -03407.6 -07.4439 26302.3
 22 02 2013  13 39  -21.0875 26080.8 -03407.5 -07.4436 26302.4
 22 02 2013  13 40  -21.0877 26080.5 -03407.2 -07.4430 26302.1
 22 02 2013  13 41  -21.0881 26080.5 -03407.1 -07.4427 26302.1
 22 02 2013  13 42  -21.0881 26080.3 -03406.8 -07.4423 26301.9
 22 02 2013  13 43  -21.0881 26080.6 -03406.8 -07.4422 26302.2
 22 02 2013  13 44  -21.0879 26080.4 -03406.6 -07.4418 26301.9
 22 02 2013  13 45  -21.0880 26080.1 -03406.3 -07.4413 26301.6
 22 02 2013  13 46  -21.0880 26079.9 -03406.1 -07.4408 26301.4
 22 02 2013  13 47  -21.0878 26079.7 -03405.9 -07.4404 26301.2
 22 02 2013  13 48  -21.0874 26079.9 -03405.9 -07.4403 26301.4
 22 02 2013  13 49  -21.0877 26080.1 -03405.8 -07.4401 26301.5
 22 02 2013  13 50  -21.0876 26080.5 -03405.8 -07.4400 26301.9
 22 02 2013  13 51  -21.0873 26080.3 -03405.6 -07.4395 26301.7
 22 02 2013  13 52  -21.0873 26080.3 -03405.4 -07.4392 26301.7
 22 02 2013  13 53  -21.0876 26080.6 -03405.4 -07.4392 26302.0
 22 02 2013  13 54  -21.0874 26080.7 -03405.3 -07.4390 26302.0
 22 02 2013  13 55  -21.0870 26080.7 -03405.3 -07.4388 26302.1
 22 02 2013  13 56  -21.0866 26080.3 -03405.1 -07.4385 26301.7
 22 02 2013  13 57  -21.0864 26080.0 -03404.9 -07.4383 26301.3
 22 02 2013  13 58  -21.0860 26079.9 -03404.9 -07.4383 26301.2
 22 02 2013  13 59  -21.0858 26080.2 -03405.0 -07.4384 26301.5
 22 02 2013  14 00  -21.0856 26080.2 -03405.0 -07.4383 26301.5
 22 02 2013  14 01  -21.0854 26080.1 -03404.8 -07.4380 26301.5
 22 02 2013  14 02  -21.0854 26079.9 -03404.6 -07.4376 26301.2
 22 02 2013  14 03  -21.0849 26079.4 -03404.3 -07.4371 26300.6
 22 02 2013  14 04  -21.0845 26078.7 -03404.0 -07.4367 26299.9
 22 02 2013  14 05  -21.0838 26078.5 -03404.0 -07.4368 26299.7
 22 02 2013  14 06  -21.0834 26078.5 -03404.1 -07.4370 26299.8
 22 02 2013  14 07  -21.0832 26078.6 -03404.2 -07.4370 26299.8
 22 02 2013  14 08  -21.0831 26078.1 -03403.9 -07.4367 26299.3
 22 02 2013  14 09  -21.0827 26077.4 -03403.6 -07.4361 26298.6
 22 02 2013  14 10  -21.0824 26077.4 -03403.5 -07.4359 26298.6
 22 02 2013  14 11  -21.0826 26077.5 -03403.5 -07.4358 26298.7
 22 02 2013  14 12  -21.0824 26077.8 -03403.4 -07.4357 26298.9
 22 02 2013  14 13  -21.0825 26078.1 -03403.4 -07.4354 26299.2
 22 02 2013  14 14  -21.0826 26078.4 -03403.2 -07.4351 26299.5
 22 02 2013  14 15  -21.0825 26078.8 -03403.2 -07.4348 26299.9
 22 02 2013  14 16  -21.0826 26079.3 -03403.1 -07.4346 26300.4
 22 02 2013  14 17  -21.0822 26079.8 -03403.0 -07.4342 26300.8
 22 02 2013  14 18  -21.0819 26079.5 -03402.6 -07.4333 26300.5
 22 02 2013  14 19  -21.0821 26079.8 -03402.4 -07.4330 26300.8
 22 02 2013  14 20  -21.0821 26080.1 -03402.3 -07.4326 26301.1
 22 02 2013  14 21  -21.0820 26080.2 -03402.1 -07.4320 26301.1
 22 02 2013  14 22  -21.0817 26080.1 -03401.8 -07.4315 26301.0
 22 02 2013  14 23  -21.0813 26079.9 -03401.6 -07.4311 26300.8
 22 02 2013  14 24  -21.0806 26079.9 -03401.5 -07.4308 26300.8
 22 02 2013  14 25  -21.0802 26079.8 -03401.3 -07.4305 26300.7
 22 02 2013  14 26  -21.0797 26079.6 -03401.1 -07.4302 26300.5
 22 02 2013  14 27  -21.0795 26079.3 -03401.0 -07.4299 26300.1
 22 02 2013  14 28  -21.0795 26079.0 -03400.8 -07.4297 26299.8
 22 02 2013  14 29  -21.0791 26078.6 -03400.7 -07.4296 26299.4
 22 02 2013  14 30  -21.0782 26078.4 -03400.7 -07.4296 26299.1
 22 02 2013  14 31  -21.0779 26078.3 -03400.7 -07.4296 26299.1
 22 02 2013  14 32  -21.0776 26077.9 -03400.6 -07.4296 26298.7
 22 02 2013  14 33  -21.0774 26077.5 -03400.6 -07.4296 26298.3
 22 02 2013  14 34  -21.0774 26077.3 -03400.6 -07.4298 26298.1
 22 02 2013  14 35  -21.0772 26077.6 -03400.9 -07.4302 26298.4
 22 02 2013  14 36  -21.0770 26077.1 -03400.8 -07.4301 26298.0
 22 02 2013  14 37  -21.0772 26076.9 -03400.7 -07.4301 26297.7
 22 02 2013  14 38  -21.0780 26077.2 -03401.0 -07.4306 26298.1
 22 02 2013  14 39  -21.0789 26077.7 -03401.2 -07.4310 26298.6
 22 02 2013  14 40  -21.0796 26077.9 -03401.3 -07.4309 26298.8
 22 02 2013  14 41  -21.0799 26077.4 -03400.9 -07.4304 26298.2
 22 02 2013  14 42  -21.0800 26076.9 -03400.8 -07.4302 26297.7
 22 02 2013  14 43  -21.0799 26076.6 -03400.6 -07.4299 26297.4
 22 02 2013  14 44  -21.0802 26076.8 -03400.8 -07.4302 26297.6
 22 02 2013  14 45  -21.0806 26077.1 -03400.8 -07.4303 26297.9
 22 02 2013  14 46  -21.0804 26076.9 -03400.7 -07.4300 26297.7
 22 02 2013  14 47  -21.0801 26076.6 -03400.5 -07.4297 26297.4
 22 02 2013  14 48  -21.0802 26076.2 -03400.4 -07.4296 26297.0
 22 02 2013  14 49  -21.0803 26076.1 -03400.4 -07.4296 26296.9
 22 02 2013  14 50  -21.0803 26075.7 -03400.3 -07.4295 26296.5
 22 02 2013  14 51  -21.0803 26075.7 -03400.4 -07.4296 26296.5
 22 02 2013  14 52  -21.0803 26076.0 -03400.6 -07.4300 26296.8
 22 02 2013  14 53  -21.0805 26076.6 -03400.7 -07.4302 26297.4
 22 02 2013  14 54  -21.0810 26076.3 -03400.5 -07.4298 26297.1
 22 02 2013  14 55  -21.0807 26075.2 -03400.0 -07.4290 26295.9
 22 02 2013  14 56  -21.0804 26074.8 -03399.9 -07.4288 26295.5
 22 02 2013  14 57  -21.0804 26075.0 -03400.1 -07.4292 26295.7
 22 02 2013  14 58  -21.0800 26074.8 -03400.0 -07.4292 26295.6
 22 02 2013  14 59  -21.0800 26074.4 -03399.9 -07.4289 26295.1
 22 02 2013  15 00  -21.0805 26074.5 -03400.1 -07.4294 26295.3
 22 02 2013  15 01  -21.0805 26074.2 -03400.1 -07.4294 26295.0
 22 02 2013  15 02  -21.0801 26073.7 -03400.0 -07.4293 26294.4
 22 02 2013  15 03  -21.0800 26073.1 -03399.9 -07.4293 26293.8
 22 02 2013  15 04  -21.0801 26073.5 -03400.1 -07.4297 26294.3
 22 02 2013  15 05  -21.0806 26073.6 -03400.2 -07.4298 26294.4
 22 02 2013  15 06  -21.0806 26072.8 -03399.8 -07.4293 26293.5
 22 02 2013  15 07  -21.0806 26072.2 -03399.7 -07.4291 26293.0
 22 02 2013  15 08  -21.0806 26072.0 -03399.8 -07.4293 26292.8
 22 02 2013  15 09  -21.0812 26072.0 -03399.9 -07.4297 26292.7
 22 02 2013  15 10  -21.0815 26071.6 -03399.9 -07.4297 26292.3
 22 02 2013  15 11  -21.0815 26071.2 -03399.8 -07.4297 26291.9
 22 02 2013  15 12  -21.0815 26070.7 -03399.7 -07.4296 26291.4
 22 02 2013  15 13  -21.0816 26070.7 -03399.9 -07.4300 26291.5
 22 02 2013  15 14  -21.0820 26070.5 -03400.0 -07.4302 26291.3
 22 02 2013  15 15  -21.0823 26070.1 -03400.0 -07.4303 26290.9
 22 02 2013  15 16  -21.0824 26069.9 -03400.0 -07.4305 26290.7
 22 02 2013  15 17  -21.0825 26070.1 -03400.3 -07.4310 26290.9
 22 02 2013  15 18  -21.0828 26070.4 -03400.5 -07.4314 26291.3
 22 02 2013  15 19  -21.0825 26070.5 -03400.6 -07.4315 26291.3
 22 02 2013  15 20  -21.0825 26070.3 -03400.6 -07.4316 26291.1
 22 02 2013  15 21  -21.0826 26070.3 -03400.6 -07.4317 26291.1
 22 02 2013  15 22  -21.0824 26070.6 -03400.8 -07.4319 26291.4
 22 02 2013  15 23  -21.0819 26070.3 -03400.6 -07.4316 26291.2
 22 02 2013  15 24  -21.0812 26070.4 -03400.7 -07.4318 26291.3
 22 02 2013  15 25  -21.0805 26070.0 -03400.5 -07.4314 26290.8
 22 02 2013  15 26  -21.0800 26069.7 -03400.3 -07.4313 26290.5
 22 02 2013  15 27  -21.0798 26069.3 -03400.3 -07.4313 26290.1
 22 02 2013  15 28  -21.0792 26068.5 -03400.2 -07.4312 26289.3
 22 02 2013  15 29  -21.0782 26067.3 -03399.9 -07.4310 26288.1
 22 02 2013  15 30  -21.0776 26066.7 -03400.0 -07.4315 26287.5
 22 02 2013  15 31  -21.0774 26066.3 -03400.3 -07.4322 26287.2
 22 02 2013  15 32  -21.0771 26065.9 -03400.5 -07.4327 26286.8
 22 02 2013  15 33  -21.0774 26065.6 -03400.8 -07.4335 26286.5
 22 02 2013  15 34  -21.0770 26064.7 -03400.8 -07.4337 26285.6
 22 02 2013  15 35  -21.0765 26063.8 -03400.8 -07.4340 26284.8
 22 02 2013  15 36  -21.0769 26063.2 -03401.1 -07.4347 26284.2
 22 02 2013  15 37  -21.0774 26062.6 -03401.4 -07.4355 26283.6
 22 02 2013  15 38  -21.0782 26062.4 -03401.8 -07.4365 26283.5
 22 02 2013  15 39  -21.0784 26061.8 -03402.0 -07.4371 26282.9
 22 02 2013  15 40  -21.0785 26061.1 -03402.1 -07.4375 26282.3
 22 02 2013  15 41  -21.0785 26060.8 -03402.3 -07.4381 26281.9
 22 02 2013  15 42  -21.0789 26060.6 -03402.6 -07.4386 26281.8
 22 02 2013  15 43  -21.0793 26060.6 -03402.8 -07.4391 26281.8
 22 02 2013  15 44  -21.0796 26061.1 -03403.2 -07.4400 26282.3
 22 02 2013  15 45  -21.0795 26061.4 -03403.5 -07.4405 26282.8
 22 02 2013  15 46  -21.0794 26061.8 -03403.7 -07.4408 26283.1
 22 02 2013  15 47  -21.0791 26061.5 -03403.6 -07.4407 26282.8
 22 02 2013  15 48  -21.0789 26060.8 -03403.4 -07.4404 26282.1
 22 02 2013  15 49  -21.0784 26060.3 -03403.4 -07.4405 26281.6
 22 02 2013  15 50  -21.0783 26060.1 -03403.6 -07.4410 26281.4
 22 02 2013  15 51  -21.0778 26059.5 -03403.6 -07.4411 26280.8
 22 02 2013  15 52  -21.0767 26058.9 -03403.6 -07.4413 26280.2
 22 02 2013  15 53  -21.0759 26058.5 -03403.7 -07.4417 26279.8
 22 02 2013  15 54  -21.0756 26058.7 -03404.2 -07.4427 26280.1
 22 02 2013  15 55  -21.0754 26058.4 -03404.5 -07.4434 26279.9
 22 02 2013  15 56  -21.0748 26057.9 -03404.6 -07.4438 26279.4
 22 02 2013  15 57  -21.0742 26057.6 -03404.8 -07.4443 26279.1
 22 02 2013  15 58  -21.0742 26057.4 -03405.1 -07.4449 26279.0
 22 02 2013  15 59  -21.0737 26056.8 -03405.1 -07.4451 26278.3
 22 02 2013  16 00  -21.0732 26056.2 -03405.1 -07.4454 26277.8
 22 02 2013  16 01  -21.0732 26056.3 -03405.5 -07.4462 26277.9
 22 02 2013  16 02  -21.0738 26056.7 -03406.1 -07.4474 26278.4
 22 02 2013  16 03  -21.0737 26056.9 -03406.4 -07.4479 26278.6
 22 02 2013  16 04  -21.0729 26057.0 -03406.6 -07.4484 26278.8
 22 02 2013  16 05  -21.0735 26057.2 -03406.9 -07.4490 26278.9
 22 02 2013  16 06  -21.0730 26056.5 -03406.8 -07.4489 26278.2
 22 02 2013  16 07  -21.0727 26055.8 -03406.7 -07.4489 26277.6
 22 02 2013  16 08  -21.0730 26055.7 -03406.9 -07.4493 26277.5
 22 02 2013  16 09  -21.0728 26055.7 -03407.1 -07.4497 26277.5
 22 02 2013  16 10  -21.0722 26055.1 -03407.0 -07.4498 26276.9
 22 02 2013  16 11  -21.0718 26054.5 -03407.0 -07.4500 26276.3
 22 02 2013  16 12  -21.0715 26054.1 -03407.2 -07.4505 26276.0
 22 02 2013  16 13  -21.0711 26054.0 -03407.5 -07.4512 26275.8
 22 02 2013  16 14  -21.0710 26054.2 -03407.9 -07.4521 26276.1
 22 02 2013  16 15  -21.0705 26053.3 -03407.8 -07.4521 26275.2
 22 02 2013  16 16  -21.0699 26052.5 -03407.8 -07.4523 26274.4
 22 02 2013  16 17  -21.0701 26052.1 -03408.1 -07.4530 26274.1
 22 02 2013  16 18  -21.0707 26051.8 -03408.3 -07.4535 26273.8
 22 02 2013  16 19  -21.0718 26051.7 -03408.5 -07.4541 26273.7
 22 02 2013  16 20  -21.0721 26051.8 -03408.8 -07.4547 26273.9
 22 02 2013  16 21  -21.0716 26051.1 -03408.6 -07.4545 26273.2
 22 02 2013  16 22  -21.0718 26051.4 -03408.9 -07.4550 26273.5
 22 02 2013  16 23  -21.0725 26051.4 -03409.1 -07.4555 26273.5
 22 02 2013  16 24  -21.0723 26051.3 -03409.2 -07.4556 26273.5
 22 02 2013  16 25  -21.0721 26051.5 -03409.3 -07.4558 26273.7
 22 02 2013  16 26  -21.0722 26051.9 -03409.5 -07.4561 26274.1
 22 02 2013  16 27  -21.0719 26052.1 -03409.6 -07.4562 26274.3
 22 02 2013  16 28  -21.0714 26052.0 -03409.5 -07.4560 26274.1
 22 02 2013  16 29  -21.0708 26051.8 -03409.3 -07.4557 26273.9
 22 02 2013  16 30  -21.0700 26051.3 -03409.0 -07.4553 26273.4
 22 02 2013  16 31  -21.0690 26051.0 -03408.9 -07.4550 26273.1
 22 02 2013  16 32  -21.0678 26050.7 -03408.8 -07.4549 26272.8
 22 02 2013  16 33  -21.0671 26050.4 -03408.7 -07.4548 26272.5
 22 02 2013  16 34  -21.0668 26049.9 -03408.6 -07.4548 26271.9
 22 02 2013  16 35  -21.0663 26049.8 -03408.8 -07.4551 26271.9
 22 02 2013  16 36  -21.0657 26049.8 -03408.9 -07.4554 26271.9
 22 02 2013  16 37  -21.0643 26049.5 -03408.9 -07.4554 26271.6
 22 02 2013  16 38  -21.0635 26049.2 -03408.8 -07.4554 26271.3
 22 02 2013  16 39  -21.0626 26049.3 -03408.9 -07.4556 26271.4
 22 02 2013  16 40  -21.0621 26049.4 -03409.1 -07.4558 26271.6
 22 02 2013  16 41  -21.0615 26049.4 -03409.0 -07.4558 26271.5
 22 02 2013  16 42  -21.0607 26049.5 -03409.1 -07.4558 26271.6
 22 02 2013  16 43  -21.0603 26049.4 -03409.1 -07.4558 26271.6
 22 02 2013  16 44  -21.0600 26049.2 -03409.0 -07.4558 26271.3
 22 02 2013  16 45  -21.0594 26048.8 -03409.0 -07.4559 26270.9
 22 02 2013  16 46  -21.0587 26048.3 -03409.0 -07.4561 26270.4
 22 02 2013  16 47  -21.0580 26047.8 -03409.1 -07.4563 26270.0
 22 02 2013  16 48  -21.0577 26047.5 -03409.2 -07.4568 26269.6
 22 02 2013  16 49  -21.0575 26046.9 -03409.2 -07.4570 26269.1
 22 02 2013  16 50  -21.0568 26046.5 -03409.4 -07.4574 26268.7
 22 02 2013  16 51  -21.0564 26046.2 -03409.5 -07.4578 26268.4
 22 02 2013  16 52  -21.0561 26045.7 -03409.6 -07.4581 26268.0
 22 02 2013  16 53  -21.0559 26045.4 -03409.7 -07.4585 26267.7
 22 02 2013  16 54  -21.0556 26045.1 -03409.9 -07.4588 26267.4
 22 02 2013  16 55  -21.0552 26044.9 -03410.0 -07.4591 26267.1
 22 02 2013  16 56  -21.0557 26044.8 -03410.2 -07.4597 26267.1
 22 02 2013  16 57  -21.0566 26044.7 -03410.4 -07.4601 26267.0
 22 02 2013  16 58  -21.0574 26044.9 -03410.6 -07.4605 26267.3
 22 02 2013  16 59  -21.0579 26045.1 -03410.7 -07.4606 26267.5
 22 02 2013  17 00  -21.0574 26045.0 -03410.6 -07.4604 26267.4
 22 02 2013  17 01  -21.0575 26044.9 -03410.4 -07.4601 26267.2
 22 02 2013  17 02  -21.0577 26044.8 -03410.4 -07.4600 26267.2
 22 02 2013  17 03  -21.0578 26045.0 -03410.5 -07.4601 26267.3
 22 02 2013  17 04  -21.0576 26044.8 -03410.4 -07.4600 26267.1
 22 02 2013  17 05  -21.0573 26044.3 -03410.2 -07.4597 26266.6
 22 02 2013  17 06  -21.0567 26043.7 -03410.0 -07.4595 26266.0
 22 02 2013  17 07  -21.0564 26043.2 -03409.9 -07.4594 26265.5
 22 02 2013  17 08  -21.0566 26043.2 -03410.0 -07.4596 26265.5
 22 02 2013  17 09  -21.0566 26042.7 -03409.8 -07.4593 26265.0
 22 02 2013  17 10  -21.0565 26042.3 -03409.4 -07.4586 26264.5
 22 02 2013  17 11  -21.0554 26041.9 -03409.4 -07.4588 26264.1
 22 02 2013  17 12  -21.0548 26041.5 -03409.3 -07.4587 26263.7
 22 02 2013  17 13  -21.0537 26041.2 -03409.3 -07.4588 26263.5
 22 02 2013  17 14  -21.0528 26041.1 -03409.4 -07.4590 26263.4
 22 02 2013  17 15  -21.0520 26040.5 -03409.3 -07.4589 26262.8
 22 02 2013  17 16  -21.0510 26040.6 -03409.5 -07.4593 26262.8
 22 02 2013  17 17  -21.0505 26040.8 -03409.7 -07.4597 26263.1
 22 02 2013  17 18  -21.0500 26040.7 -03409.7 -07.4597 26262.9
 22 02 2013  17 19  -21.0491 26040.5 -03409.7 -07.4597 26262.8
 22 02 2013  17 20  -21.0489 26040.4 -03409.8 -07.4600 26262.7
 22 02 2013  17 21  -21.0498 26040.7 -03410.1 -07.4606 26263.1
 22 02 2013  17 22  -21.0503 26040.6 -03410.1 -07.4607 26263.0
 22 02 2013  17 23  -21.0501 26040.3 -03410.0 -07.4605 26262.6
 22 02 2013  17 24  -21.0502 26039.7 -03409.9 -07.4604 26262.0
 22 02 2013  17 25  -21.0503 26038.8 -03409.7 -07.4602 26261.0
 22 02 2013  17 26  -21.0509 26038.7 -03409.9 -07.4607 26261.0
 22 02 2013  17 27  -21.0510 26039.1 -03410.2 -07.4612 26261.5
 22 02 2013  17 28  -21.0514 26039.5 -03410.3 -07.4614 26261.9
 22 02 2013  17 29  -21.0515 26039.5 -03410.3 -07.4614 26261.8
 22 02 2013  17 30  -21.0513 26039.7 -03410.4 -07.4615 26262.1
 22 02 2013  17 31  -21.0511 26040.0 -03410.5 -07.4616 26262.4
 22 02 2013  17 32  -21.0513 26040.3 -03410.6 -07.4617 26262.7
 22 02 2013  17 33  -21.0507 26039.9 -03410.4 -07.4614 26262.2
 22 02 2013  17 34  -21.0506 26039.7 -03410.3 -07.4613 26262.1
 22 02 2013  17 35  -21.0504 26039.2 -03410.1 -07.4610 26261.6
 22 02 2013  17 36  -21.0499 26038.4 -03409.8 -07.4605 26260.7
 22 02 2013  17 37  -21.0493 26037.7 -03409.6 -07.4604 26260.0
 22 02 2013  17 38  -21.0492 26037.4 -03409.6 -07.4605 26259.7
 22 02 2013  17 39  -21.0487 26037.2 -03409.7 -07.4607 26259.5
 22 02 2013  17 40  -21.0484 26037.2 -03409.8 -07.4609 26259.5
 22 02 2013  17 41  -21.0479 26037.3 -03409.9 -07.4610 26259.6
 22 02 2013  17 42  -21.0471 26037.2 -03409.9 -07.4611 26259.5
 22 02 2013  17 43  -21.0465 26037.2 -03409.9 -07.4612 26259.5
 22 02 2013  17 44  -21.0465 26037.7 -03410.3 -07.4618 26260.1
 22 02 2013  17 45  -21.0468 26038.2 -03410.5 -07.4622 26260.7
 22 02 2013  17 46  -21.0469 26038.7 -03410.8 -07.4626 26261.1
 22 02 2013  17 47  -21.0472 26039.4 -03411.1 -07.4632 26261.9
 22 02 2013  17 48  -21.0476 26040.1 -03411.5 -07.4638 26262.6
 22 02 2013  17 49  -21.0482 26041.0 -03411.9 -07.4645 26263.6
 22 02 2013  17 50  -21.0485 26041.4 -03412.1 -07.4647 26264.0
 22 02 2013  17 51  -21.0487 26041.3 -03412.1 -07.4647 26263.9
 22 02 2013  17 52  -21.0489 26040.7 -03411.9 -07.4644 26263.3
 22 02 2013  17 53  -21.0492 26040.4 -03411.8 -07.4643 26262.9
 22 02 2013  17 54  -21.0502 26040.5 -03411.9 -07.4645 26263.0
 22 02 2013  17 55  -21.0505 26040.2 -03411.8 -07.4643 26262.7
 22 02 2013  17 56  -21.0502 26039.7 -03411.6 -07.4640 26262.2
 22 02 2013  17 57  -21.0502 26039.1 -03411.4 -07.4639 26261.7
 22 02 2013  17 58  -21.0502 26038.8 -03411.5 -07.4641 26261.3
 22 02 2013  17 59  -21.0509 26039.0 -03411.6 -07.4644 26261.6
 22 02 2013  18 00  -21.0514 26039.1 -03411.8 -07.4647 26261.7
 22 02 2013  18 01  -21.0517 26039.3 -03412.0 -07.4650 26261.9
 22 02 2013  18 02  -21.0521 26039.3 -03412.0 -07.4650 26261.9
 22 02 2013  18 03  -21.0523 26039.1 -03411.9 -07.4649 26261.7
 22 02 2013  18 04  -21.0523 26038.9 -03411.9 -07.4649 26261.5
 22 02 2013  18 05  -21.0524 26038.8 -03411.9 -07.4650 26261.4
 22 02 2013  18 06  -21.0525 26038.7 -03411.9 -07.4651 26261.3
 22 02 2013  18 07  -21.0524 26038.8 -03412.0 -07.4653 26261.4
 22 02 2013  18 08  -21.0524 26038.8 -03412.1 -07.4655 26261.4
 22 02 2013  18 09  -21.0518 26038.7 -03412.2 -07.4657 26261.4
 22 02 2013  18 10  -21.0511 26038.6 -03412.2 -07.4658 26261.2
 22 02 2013  18 11  -21.0503 26038.6 -03412.3 -07.4660 26261.2
 22 02 2013  18 12  -21.0497 26038.7 -03412.5 -07.4663 26261.4
 22 02 2013  18 13  -21.0496 26039.1 -03412.8 -07.4668 26261.8
 22 02 2013  18 14  -21.0494 26039.2 -03412.9 -07.4670 26261.9
 22 02 2013  18 15  -21.0488 26039.2 -03412.9 -07.4671 26261.9
 22 02 2013  18 16  -21.0482 26039.4 -03413.0 -07.4673 26262.1
 22 02 2013  18 17  -21.0480 26039.6 -03413.2 -07.4676 26262.4
 22 02 2013  18 18  -21.0480 26039.9 -03413.4 -07.4678 26262.7
 22 02 2013  18 19  -21.0481 26040.3 -03413.6 -07.4682 26263.0
 22 02 2013  18 20  -21.0482 26040.5 -03413.7 -07.4684 26263.3
 22 02 2013  18 21  -21.0482 26040.9 -03413.8 -07.4685 26263.7
 22 02 2013  18 22  -21.0483 26041.2 -03413.9 -07.4686 26264.0
 22 02 2013  18 23  -21.0482 26041.6 -03414.0 -07.4687 26264.4
 22 02 2013  18 24  -21.0482 26042.0 -03414.1 -07.4688 26264.8
 22 02 2013  18 25  -21.0483 26042.4 -03414.2 -07.4690 26265.2
 22 02 2013  18 26  -21.0485 26042.2 -03414.1 -07.4688 26265.1
 22 02 2013  18 27  -21.0488 26042.0 -03414.0 -07.4686 26264.9
 22 02 2013  18 28  -21.0491 26042.0 -03413.9 -07.4685 26264.8
 22 02 2013  18 29  -21.0496 26041.9 -03413.8 -07.4683 26264.7
 22 02 2013  18 30  -21.0501 26041.8 -03413.8 -07.4683 26264.6
 22 02 2013  18 31  -21.0506 26041.8 -03413.8 -07.4682 26264.6
 22 02 2013  18 32  -21.0509 26042.0 -03413.8 -07.4681 26264.8
 22 02 2013  18 33  -21.0512 26041.9 -03413.7 -07.4680 26264.7
 22 02 2013  18 34  -21.0517 26042.0 -03413.7 -07.4679 26264.8
 22 02 2013  18 35  -21.0525 26042.1 -03413.6 -07.4679 26264.9
 22 02 2013  18 36  -21.0533 26042.4 -03413.7 -07.4679 26265.2
 22 02 2013  18 37  -21.0537 26042.5 -03413.6 -07.4677 26265.3
 22 02 2013  18 38  -21.0544 26042.7 -03413.6 -07.4675 26265.4
 22 02 2013  18 39  -21.0547 26042.8 -03413.5 -07.4674 26265.6
 22 02 2013  18 40  -21.0554 26043.0 -03413.4 -07.4671 26265.7
 22 02 2013  18 41  -21.0559 26043.0 -03413.3 -07.4668 26265.8
 22 02 2013  18 42  -21.0565 26043.1 -03413.2 -07.4666 26265.8
 22 02 2013  18 43  -21.0570 26043.1 -03413.2 -07.4665 26265.9
 22 02 2013  18 44  -21.0572 26043.2 -03413.1 -07.4663 26265.9
 22 02 2013  18 45  -21.0576 26043.4 -03413.1 -07.4662 26266.1
 22 02 2013  18 46  -21.0580 26043.5 -03413.0 -07.4661 26266.2
 22 02 2013  18 47  -21.0583 26043.5 -03412.9 -07.4659 26266.2
 22 02 2013  18 48  -21.0584 26043.6 -03412.8 -07.4657 26266.3
 22 02 2013  18 49  -21.0587 26043.7 -03412.8 -07.4656 26266.4
 22 02 2013  18 50  -21.0590 26043.8 -03412.8 -07.4655 26266.5
 22 02 2013  18 51  -21.0595 26043.9 -03412.7 -07.4653 26266.5
 22 02 2013  18 52  -21.0600 26043.9 -03412.6 -07.4651 26266.5
 22 02 2013  18 53  -21.0604 26044.0 -03412.5 -07.4649 26266.6
 22 02 2013  18 54  -21.0607 26044.1 -03412.5 -07.4647 26266.7
 22 02 2013  18 55  -21.0610 26044.1 -03412.3 -07.4645 26266.7
 22 02 2013  18 56  -21.0613 26044.2 -03412.3 -07.4642 26266.7
 22 02 2013  18 57  -21.0618 26044.2 -03412.2 -07.4641 26266.7
 22 02 2013  18 58  -21.0623 26044.2 -03412.1 -07.4639 26266.7
 22 02 2013  18 59  -21.0628 26044.3 -03412.1 -07.4638 26266.9
 22 02 2013  19 00  -21.0636 26044.4 -03412.0 -07.4637 26267.0
 22 02 2013  19 01  -21.0641 26044.6 -03412.0 -07.4636 26267.1
 22 02 2013  19 02  -21.0647 26044.6 -03411.9 -07.4633 26267.1
 22 02 2013  19 03  -21.0652 26044.7 -03411.8 -07.4631 26267.2
 22 02 2013  19 04  -21.0654 26044.7 -03411.6 -07.4627 26267.2
 22 02 2013  19 05  -21.0657 26044.8 -03411.5 -07.4626 26267.2
 22 02 2013  19 06  -21.0659 26044.8 -03411.5 -07.4624 26267.3
 22 02 2013  19 07  -21.0663 26045.0 -03411.5 -07.4623 26267.5
 22 02 2013  19 08  -21.0670 26045.2 -03411.5 -07.4623 26267.7
 22 02 2013  19 09  -21.0671 26045.5 -03411.5 -07.4622 26267.9
 22 02 2013  19 10  -21.0675 26045.6 -03411.4 -07.4621 26268.0
 22 02 2013  19 11  -21.0678 26045.8 -03411.4 -07.4620 26268.3
 22 02 2013  19 12  -21.0682 26046.0 -03411.4 -07.4619 26268.5
 22 02 2013  19 13  -21.0687 26046.2 -03411.4 -07.4618 26268.6
 22 02 2013  19 14  -21.0691 26046.3 -03411.3 -07.4616 26268.7
 22 02 2013  19 15  -21.0694 26046.4 -03411.3 -07.4615 26268.9
 22 02 2013  19 16  -21.0699 26046.4 -03411.1 -07.4612 26268.9
 22 02 2013  19 17  -21.0706 26046.6 -03411.0 -07.4609 26269.0
 22 02 2013  19 18  -21.0709 26046.7 -03410.9 -07.4607 26269.1
 22 02 2013  19 19  -21.0713 26046.6 -03410.7 -07.4602 26269.0
 22 02 2013  19 20  -21.0717 26046.6 -03410.6 -07.4599 26269.0
 22 02 2013  19 21  -21.0717 26046.8 -03410.5 -07.4597 26269.1
 22 02 2013  19 22  -21.0719 26047.0 -03410.5 -07.4596 26269.4
 22 02 2013  19 23  -21.0717 26047.2 -03410.4 -07.4593 26269.5
 22 02 2013  19 24  -21.0718 26047.4 -03410.3 -07.4591 26269.7
 22 02 2013  19 25  -21.0718 26047.7 -03410.3 -07.4590 26270.0
 22 02 2013  19 26  -21.0718 26047.8 -03410.1 -07.4586 26270.1
 22 02 2013  19 27  -21.0719 26047.8 -03410.0 -07.4583 26270.1
 22 02 2013  19 28  -21.0718 26047.7 -03409.7 -07.4577 26269.9
 22 02 2013  19 29  -21.0716 26047.4 -03409.4 -07.4571 26269.6
 22 02 2013  19 30  -21.0713 26047.2 -03409.1 -07.4566 26269.3
 22 02 2013  19 31  -21.0710 26046.9 -03408.8 -07.4560 26269.0
 22 02 2013  19 32  -21.0706 26046.9 -03408.7 -07.4557 26269.0
 22 02 2013  19 33  -21.0704 26046.7 -03408.5 -07.4553 26268.7
 22 02 2013  19 34  -21.0701 26046.5 -03408.3 -07.4550 26268.6
 22 02 2013  19 35  -21.0700 26046.2 -03408.1 -07.4546 26268.3
 22 02 2013  19 36  -21.0697 26046.2 -03407.9 -07.4543 26268.2
 22 02 2013  19 37  -21.0695 26046.2 -03407.9 -07.4542 26268.2
 22 02 2013  19 38  -21.0695 26046.3 -03407.8 -07.4541 26268.3
 22 02 2013  19 39  -21.0694 26046.3 -03407.7 -07.4539 26268.2
 22 02 2013  19 40  -21.0693 26046.4 -03407.7 -07.4538 26268.4
 22 02 2013  19 41  -21.0692 26046.3 -03407.6 -07.4535 26268.2
 22 02 2013  19 42  -21.0689 26046.1 -03407.4 -07.4531 26268.0
 22 02 2013  19 43  -21.0688 26046.2 -03407.4 -07.4531 26268.1
 22 02 2013  19 44  -21.0721 26046.4 -03407.1 -07.4524 26268.3
 22 02 2013  19 45  -21.0727 26046.5 -03407.1 -07.4524 26268.4
 22 02 2013  19 46  -21.0716 26047.0 -03407.2 -07.4524 26268.9
 22 02 2013  19 47  -21.0682 26047.1 -03407.5 -07.4531 26269.1
 22 02 2013  19 48  -21.0680 26047.3 -03407.5 -07.4530 26269.3
 22 02 2013  19 49  -21.0678 26047.3 -03407.3 -07.4527 26269.2
 22 02 2013  19 50  -21.0675 26047.1 -03407.1 -07.4524 26269.0
 22 02 2013  19 51  -21.0670 26046.7 -03406.8 -07.4518 26268.6
 22 02 2013  19 52  -21.0667 26046.5 -03406.6 -07.4515 26268.3
 22 02 2013  19 53  -21.0666 26046.3 -03406.5 -07.4512 26268.1
 22 02 2013  19 54  -21.0663 26046.2 -03406.4 -07.4509 26268.0
 22 02 2013  19 55  -21.0659 26046.0 -03406.2 -07.4507 26267.8
 22 02 2013  19 56  -21.0658 26046.0 -03406.2 -07.4506 26267.8
 22 02 2013  19 57  -21.0656 26045.9 -03406.1 -07.4504 26267.7
 22 02 2013  19 58  -21.0654 26046.1 -03406.1 -07.4504 26267.9
 22 02 2013  19 59  -21.0651 26046.1 -03406.1 -07.4504 26267.9
 22 02 2013  20 00  -21.0650 26046.1 -03406.1 -07.4503 26267.9
 22 02 2013  20 01  -21.0649 26046.1 -03406.0 -07.4502 26267.8
 22 02 2013  20 02  -21.0648 26046.1 -03406.0 -07.4501 26267.8
 22 02 2013  20 03  -21.0646 26046.0 -03405.9 -07.4501 26267.8
 22 02 2013  20 04  -21.0647 26046.3 -03406.0 -07.4502 26268.1
 22 02 2013  20 05  -21.0646 26046.2 -03405.9 -07.4499 26267.9
 22 02 2013  20 06  -21.0645 26046.0 -03405.8 -07.4497 26267.7
 22 02 2013  20 07  -21.0644 26046.3 -03405.8 -07.4497 26268.0
 22 02 2013  20 08  -21.0645 26046.3 -03405.8 -07.4496 26268.0
 22 02 2013  20 09  -21.0645 26046.2 -03405.7 -07.4495 26267.9
 22 02 2013  20 10  -21.0644 26046.1 -03405.6 -07.4492 26267.8
 22 02 2013  20 11  -21.0643 26045.9 -03405.5 -07.4491 26267.5
 22 02 2013  20 12  -21.0641 26045.5 -03405.3 -07.4488 26267.1
 22 02 2013  20 13  -21.0638 26045.0 -03405.0 -07.4484 26266.6
 22 02 2013  20 14  -21.0635 26044.5 -03404.8 -07.4481 26266.2
 22 02 2013  20 15  -21.0630 26044.2 -03404.7 -07.4479 26265.8
 22 02 2013  20 16  -21.0626 26043.8 -03404.5 -07.4477 26265.4
 22 02 2013  20 17  -21.0624 26043.8 -03404.5 -07.4476 26265.3
 22 02 2013  20 18  -21.0621 26043.7 -03404.5 -07.4477 26265.3
 22 02 2013  20 19  -21.0618 26043.4 -03404.5 -07.4476 26265.0
 22 02 2013  20 20  -21.0614 26043.3 -03404.4 -07.4476 26264.8
 22 02 2013  20 21  -21.0611 26042.7 -03404.2 -07.4473 26264.3
 22 02 2013  20 22  -21.0608 26042.5 -03404.2 -07.4473 26264.1
 22 02 2013  20 23  -21.0604 26042.4 -03404.2 -07.4473 26264.0
 22 02 2013  20 24  -21.0602 26042.3 -03404.2 -07.4473 26263.8
 22 02 2013  20 25  -21.0601 26042.0 -03404.1 -07.4472 26263.5
 22 02 2013  20 26  -21.0598 26041.7 -03404.0 -07.4471 26263.2
 22 02 2013  20 27  -21.0597 26041.6 -03404.0 -07.4472 26263.1
 22 02 2013  20 28  -21.0594 26041.4 -03404.0 -07.4471 26262.9
 22 02 2013  20 29  -21.0591 26041.2 -03404.0 -07.4471 26262.7
 22 02 2013  20 30  -21.0588 26041.0 -03403.9 -07.4471 26262.5
 22 02 2013  20 31  -21.0585 26041.1 -03404.0 -07.4473 26262.6
 22 02 2013  20 32  -21.0583 26041.3 -03404.2 -07.4477 26262.8
 22 02 2013  20 33  -21.0580 26041.3 -03404.3 -07.4479 26262.9
 22 02 2013  20 34  -21.0579 26041.2 -03404.4 -07.4480 26262.8
 22 02 2013  20 35  -21.0576 26041.1 -03404.4 -07.4481 26262.7
 22 02 2013  20 36  -21.0575 26040.9 -03404.4 -07.4481 26262.5
 22 02 2013  20 37  -21.0574 26040.7 -03404.3 -07.4481 26262.3
 22 02 2013  20 38  -21.0573 26040.5 -03404.4 -07.4482 26262.1
 22 02 2013  20 39  -21.0571 26040.4 -03404.4 -07.4483 26262.0
 22 02 2013  20 40  -21.0569 26040.2 -03404.4 -07.4484 26261.8
 22 02 2013  20 41  -21.0566 26039.9 -03404.4 -07.4485 26261.5
 22 02 2013  20 42  -21.0562 26039.7 -03404.4 -07.4486 26261.3
 22 02 2013  20 43  -21.0561 26039.6 -03404.5 -07.4487 26261.2
 22 02 2013  20 44  -21.0561 26039.5 -03404.6 -07.4489 26261.2
 22 02 2013  20 45  -21.0558 26039.5 -03404.7 -07.4491 26261.2
 22 02 2013  20 46  -21.0555 26039.4 -03404.8 -07.4494 26261.0
 22 02 2013  20 47  -21.0553 26039.4 -03404.9 -07.4496 26261.0
 22 02 2013  20 48  -21.0550 26039.4 -03405.0 -07.4500 26261.1
 22 02 2013  20 49  -21.0547 26039.7 -03405.3 -07.4504 26261.4
 22 02 2013  20 50  -21.0544 26039.9 -03405.6 -07.4510 26261.7
 22 02 2013  20 51  -21.0541 26039.8 -03405.7 -07.4513 26261.6
 22 02 2013  20 52  -21.0538 26039.8 -03405.7 -07.4514 26261.6
 22 02 2013  20 53  -21.0538 26039.8 -03405.8 -07.4515 26261.5
 22 02 2013  20 54  -21.0537 26040.1 -03406.0 -07.4520 26261.9
 22 02 2013  20 55  -21.0533 26039.8 -03406.1 -07.4523 26261.6
 22 02 2013  20 56  -21.0532 26039.7 -03406.1 -07.4523 26261.5
 22 02 2013  20 57  -21.0531 26039.8 -03406.3 -07.4527 26261.6
 22 02 2013  20 58  -21.0529 26039.7 -03406.3 -07.4527 26261.5
 22 02 2013  20 59  -21.0527 26039.6 -03406.5 -07.4530 26261.5
 22 02 2013  21 00  -21.0528 26039.0 -03406.4 -07.4530 26260.9
 22 02 2013  21 01  -21.0527 26038.7 -03406.3 -07.4529 26260.6
 22 02 2013  21 02  -21.0525 26038.6 -03406.5 -07.4533 26260.4
 22 02 2013  21 03  -21.0525 26038.4 -03406.5 -07.4533 26260.3
 22 02 2013  21 04  -21.0524 26038.2 -03406.6 -07.4536 26260.1
 22 02 2013  21 05  -21.0524 26038.0 -03406.5 -07.4536 26259.9
 22 02 2013  21 06  -21.0525 26038.1 -03406.8 -07.4541 26260.0
 22 02 2013  21 07  -21.0527 26037.9 -03406.8 -07.4542 26259.8
 22 02 2013  21 08  -21.0529 26038.1 -03407.0 -07.4546 26260.0
 22 02 2013  21 09  -21.0529 26038.1 -03407.1 -07.4548 26260.1
 22 02 2013  21 10  -21.0532 26038.2 -03407.2 -07.4550 26260.1
 22 02 2013  21 11  -21.0534 26038.2 -03407.4 -07.4554 26260.2
 22 02 2013  21 12  -21.0538 26037.7 -03407.3 -07.4553 26259.7
 22 02 2013  21 13  -21.0539 26037.6 -03407.3 -07.4553 26259.6
 22 02 2013  21 14  -21.0541 26037.3 -03407.3 -07.4554 26259.3
 22 02 2013  21 15  -21.0543 26037.1 -03407.2 -07.4553 26259.1
 22 02 2013  21 16  -21.0545 26037.2 -03407.3 -07.4556 26259.2
 22 02 2013  21 17  -21.0545 26037.7 -03407.7 -07.4561 26259.7
 22 02 2013  21 18  -21.0547 26038.3 -03408.1 -07.4568 26260.4
 22 02 2013  21 19  -21.0548 26038.4 -03408.2 -07.4572 26260.5
 22 02 2013  21 20  -21.0550 26038.7 -03408.5 -07.4576 26260.8
 22 02 2013  21 21  -21.0550 26039.0 -03408.7 -07.4579 26261.2
 22 02 2013  21 22  -21.0550 26039.1 -03408.8 -07.4581 26261.3
 22 02 2013  21 23  -21.0552 26039.2 -03408.8 -07.4582 26261.3
 22 02 2013  21 24  -21.0558 26038.7 -03408.7 -07.4581 26260.8
 22 02 2013  21 25  -21.0563 26038.6 -03408.7 -07.4581 26260.8
 22 02 2013  21 26  -21.0566 26039.0 -03408.9 -07.4585 26261.2
 22 02 2013  21 27  -21.0574 26039.1 -03409.1 -07.4589 26261.4
 22 02 2013  21 28  -21.0582 26038.9 -03409.0 -07.4587 26261.1
 22 02 2013  21 29  -21.0588 26038.8 -03408.9 -07.4586 26261.0
 22 02 2013  21 30  -21.0593 26038.7 -03409.0 -07.4587 26260.9
 22 02 2013  21 31  -21.0598 26038.6 -03408.9 -07.4586 26260.8
 22 02 2013  21 32  -21.0603 26038.6 -03408.9 -07.4585 26260.8
 22 02 2013  21 33  -21.0606 26038.6 -03408.9 -07.4586 26260.8
 22 02 2013  21 34  -21.0611 26038.4 -03408.8 -07.4585 26260.6
 22 02 2013  21 35  -21.0613 26038.2 -03408.7 -07.4583 26260.4
 22 02 2013  21 36  -21.0617 26038.0 -03408.6 -07.4582 26260.2
 22 02 2013  21 37  -21.0621 26037.9 -03408.6 -07.4580 26260.1
 22 02 2013  21 38  -21.0623 26037.6 -03408.4 -07.4578 26259.7
 22 02 2013  21 39  -21.0625 26037.3 -03408.3 -07.4576 26259.4
 22 02 2013  21 40  -21.0628 26037.3 -03408.3 -07.4577 26259.5
 22 02 2013  21 41  -21.0631 26037.3 -03408.4 -07.4578 26259.4
 22 02 2013  21 42  -21.0634 26037.4 -03408.4 -07.4579 26259.5
 22 02 2013  21 43  -21.0639 26037.2 -03408.4 -07.4579 26259.4
 22 02 2013  21 44  -21.0644 26037.0 -03408.4 -07.4578 26259.1
 22 02 2013  21 45  -21.0647 26036.9 -03408.3 -07.4578 26259.0
 22 02 2013  21 46  -21.0649 26036.7 -03408.3 -07.4577 26258.8
 22 02 2013  21 47  -21.0649 26036.5 -03408.2 -07.4577 26258.6
 22 02 2013  21 48  -21.0647 26036.4 -03408.2 -07.4577 26258.5
 22 02 2013  21 49  -21.0646 26036.3 -03408.2 -07.4578 26258.5
 22 02 2013  21 50  -21.0644 26036.3 -03408.3 -07.4578 26258.4
 22 02 2013  21 51  -21.0643 26036.3 -03408.4 -07.4581 26258.5
 22 02 2013  21 52  -21.0645 26036.3 -03408.5 -07.4583 26258.5
 22 02 2013  21 53  -21.0647 26036.4 -03408.6 -07.4586 26258.6
 22 02 2013  21 54  -21.0652 26036.4 -03408.8 -07.4589 26258.6
 22 02 2013  21 55  -21.0655 26036.4 -03408.8 -07.4591 26258.6
 22 02 2013  21 56  -21.0660 26036.3 -03408.9 -07.4592 26258.5
 22 02 2013  21 57  -21.0665 26036.1 -03408.9 -07.4592 26258.3
 22 02 2013  21 58  -21.0670 26036.0 -03408.9 -07.4593 26258.2
 22 02 2013  21 59  -21.0676 26035.7 -03408.8 -07.4592 26257.9
 22 02 2013  22 00  -21.0680 26035.4 -03408.7 -07.4590 26257.6
 22 02 2013  22 01  -21.0685 26035.2 -03408.6 -07.4590 26257.4
 22 02 2013  22 02  -21.0688 26035.1 -03408.6 -07.4589 26257.3
 22 02 2013  22 03  -21.0690 26035.0 -03408.6 -07.4590 26257.2
 22 02 2013  22 04  -21.0693 26034.9 -03408.6 -07.4591 26257.1
 22 02 2013  22 05  -21.0695 26034.7 -03408.6 -07.4591 26256.9
 22 02 2013  22 06  -21.0696 26034.5 -03408.6 -07.4590 26256.7
 22 02 2013  22 07  -21.0697 26034.3 -03408.5 -07.4590 26256.5
 22 02 2013  22 08  -21.0700 26034.0 -03408.4 -07.4589 26256.2
 22 02 2013  22 09  -21.0703 26033.7 -03408.4 -07.4588 26255.9
 22 02 2013  22 10  -21.0705 26033.4 -03408.3 -07.4587 26255.5
 22 02 2013  22 11  -21.0707 26033.1 -03408.2 -07.4586 26255.2
 22 02 2013  22 12  -21.0710 26032.8 -03408.1 -07.4585 26254.9
 22 02 2013  22 13  -21.0713 26032.6 -03408.1 -07.4586 26254.8
 22 02 2013  22 14  -21.0713 26032.4 -03408.1 -07.4585 26254.5
 22 02 2013  22 15  -21.0713 26032.1 -03408.0 -07.4585 26254.2
 22 02 2013  22 16  -21.0714 26031.7 -03407.9 -07.4584 26253.8
 22 02 2013  22 17  -21.0714 26031.6 -03407.9 -07.4583 26253.7
 22 02 2013  22 18  -21.0713 26031.4 -03407.9 -07.4584 26253.5
 22 02 2013  22 19  -21.0713 26031.1 -03407.8 -07.4584 26253.2
 22 02 2013  22 20  -21.0711 26030.9 -03407.8 -07.4584 26253.0
 22 02 2013  22 21  -21.0709 26030.6 -03407.8 -07.4584 26252.7
 22 02 2013  22 22  -21.0707 26030.5 -03407.8 -07.4584 26252.6
 22 02 2013  22 23  -21.0704 26030.2 -03407.8 -07.4586 26252.4
 22 02 2013  22 24  -21.0701 26030.1 -03407.9 -07.4587 26252.3
 22 02 2013  22 25  -21.0699 26030.0 -03407.9 -07.4589 26252.1
 22 02 2013  22 26  -21.0698 26029.9 -03408.0 -07.4590 26252.1
 22 02 2013  22 27  -21.0695 26029.8 -03408.0 -07.4591 26252.0
 22 02 2013  22 28  -21.0694 26029.6 -03408.0 -07.4592 26251.8
 22 02 2013  22 29  -21.0693 26029.6 -03408.1 -07.4594 26251.8
 22 02 2013  22 30  -21.0695 26029.8 -03408.3 -07.4598 26252.0
 22 02 2013  22 31  -21.0693 26029.9 -03408.5 -07.4601 26252.2
 22 02 2013  22 32  -21.0695 26030.0 -03408.6 -07.4604 26252.2
 22 02 2013  22 33  -21.0696 26030.1 -03408.7 -07.4606 26252.3
 22 02 2013  22 34  -21.0698 26030.2 -03408.9 -07.4609 26252.5
 22 02 2013  22 35  -21.0699 26030.1 -03408.9 -07.4609 26252.3
 22 02 2013  22 36  -21.0699 26029.9 -03408.8 -07.4609 26252.2
 22 02 2013  22 37  -21.0697 26030.0 -03408.9 -07.4610 26252.3
 22 02 2013  22 38  -21.0697 26030.0 -03409.0 -07.4611 26252.3
 22 02 2013  22 39  -21.0696 26029.9 -03408.9 -07.4611 26252.1
 22 02 2013  22 40  -21.0697 26029.5 -03408.8 -07.4610 26251.8
 22 02 2013  22 41  -21.0698 26029.5 -03408.8 -07.4610 26251.7
 22 02 2013  22 42  -21.0698 26029.3 -03408.8 -07.4610 26251.5
 22 02 2013  22 43  -21.0699 26029.0 -03408.7 -07.4610 26251.2
 22 02 2013  22 44  -21.0699 26028.7 -03408.6 -07.4608 26250.9
 22 02 2013  22 45  -21.0697 26028.3 -03408.5 -07.4607 26250.6
 22 02 2013  22 46  -21.0696 26028.2 -03408.5 -07.4606 26250.4
 22 02 2013  22 47  -21.0696 26027.9 -03408.4 -07.4605 26250.1
 22 02 2013  22 48  -21.0697 26027.7 -03408.4 -07.4605 26249.9
 22 02 2013  22 49  -21.0698 26027.4 -03408.3 -07.4605 26249.6
 22 02 2013  22 50  -21.0698 26027.4 -03408.4 -07.4606 26249.6
 22 02 2013  22 51  -21.0699 26027.2 -03408.4 -07.4606 26249.4
 22 02 2013  22 52  -21.0698 26027.1 -03408.4 -07.4607 26249.3
 22 02 2013  22 53  -21.0696 26026.9 -03408.4 -07.4607 26249.1
 22 02 2013  22 54  -21.0694 26026.8 -03408.4 -07.4608 26249.0
 22 02 2013  22 55  -21.0691 26026.6 -03408.4 -07.4608 26248.8
 22 02 2013  22 56  -21.0689 26026.4 -03408.3 -07.4608 26248.6
 22 02 2013  22 57  -21.0686 26026.2 -03408.4 -07.4609 26248.4
 22 02 2013  22 58  -21.0683 26026.0 -03408.4 -07.4610 26248.3
 22 02 2013  22 59  -21.0683 26025.8 -03408.4 -07.4611 26248.1
 22 02 2013  23 00  -21.0681 26025.6 -03408.4 -07.4611 26247.8
 22 02 2013  23 01  -21.0679 26025.5 -03408.4 -07.4612 26247.7
 22 02 2013  23 02  -21.0677 26025.5 -03408.5 -07.4614 26247.8
 22 02 2013  23 03  -21.0676 26025.5 -03408.6 -07.4616 26247.7
 22 02 2013  23 04  -21.0673 26025.3 -03408.6 -07.4617 26247.6
 22 02 2013  23 05  -21.0674 26025.2 -03408.7 -07.4619 26247.5
 22 02 2013  23 06  -21.0674 26025.1 -03408.7 -07.4620 26247.3
 22 02 2013  23 07  -21.0674 26025.0 -03408.8 -07.4621 26247.2
 22 02 2013  23 08  -21.0673 26025.0 -03408.9 -07.4623 26247.3
 22 02 2013  23 09  -21.0672 26024.9 -03408.9 -07.4624 26247.2
 22 02 2013  23 10  -21.0672 26024.8 -03408.9 -07.4625 26247.1
 22 02 2013  23 11  -21.0674 26024.8 -03409.0 -07.4627 26247.1
 22 02 2013  23 12  -21.0675 26024.9 -03409.1 -07.4630 26247.2
 22 02 2013  23 13  -21.0677 26024.7 -03409.2 -07.4631 26247.1
 22 02 2013  23 14  -21.0678 26024.6 -03409.2 -07.4631 26246.9
 22 02 2013  23 15  -21.0675 26024.5 -03409.2 -07.4631 26246.9
 22 02 2013  23 16  -21.0673 26024.4 -03409.2 -07.4631 26246.8
 22 02 2013  23 17  -21.0671 26024.5 -03409.2 -07.4632 26246.8
 22 02 2013  23 18  -21.0671 26024.5 -03409.3 -07.4634 26246.8
 22 02 2013  23 19  -21.0673 26024.4 -03409.4 -07.4636 26246.8
 22 02 2013  23 20  -21.0676 26024.0 -03409.3 -07.4635 26246.4
 22 02 2013  23 21  -21.0677 26023.8 -03409.2 -07.4634 26246.2
 22 02 2013  23 22  -21.0677 26023.8 -03409.2 -07.4635 26246.2
 22 02 2013  23 23  -21.0678 26023.7 -03409.3 -07.4636 26246.1
 22 02 2013  23 24  -21.0678 26023.6 -03409.3 -07.4636 26246.0
 22 02 2013  23 25  -21.0678 26023.6 -03409.3 -07.4636 26246.0
 22 02 2013  23 26  -21.0676 26023.5 -03409.3 -07.4637 26245.9
 22 02 2013  23 27  -21.0675 26023.4 -03409.3 -07.4638 26245.8
 22 02 2013  23 28  -21.0675 26023.4 -03409.4 -07.4639 26245.8
 22 02 2013  23 29  -21.0674 26023.3 -03409.4 -07.4640 26245.7
 22 02 2013  23 30  -21.0674 26023.3 -03409.4 -07.4641 26245.7
 22 02 2013  23 31  -21.0675 26023.3 -03409.5 -07.4642 26245.7
 22 02 2013  23 32  -21.0675 26023.2 -03409.5 -07.4642 26245.6
 22 02 2013  23 33  -21.0678 26023.0 -03409.5 -07.4643 26245.4
 22 02 2013  23 34  -21.0678 26022.8 -03409.4 -07.4642 26245.2
 22 02 2013  23 35  -21.0677 26022.8 -03409.5 -07.4644 26245.2
 22 02 2013  23 36  -21.0677 26022.7 -03409.6 -07.4645 26245.1
 22 02 2013  23 37  -21.0677 26022.3 -03409.4 -07.4643 26244.7
 22 02 2013  23 38  -21.0679 26021.9 -03409.3 -07.4642 26244.3
 22 02 2013  23 39  -21.0685 26021.7 -03409.3 -07.4642 26244.1
 22 02 2013  23 40  -21.0688 26021.6 -03409.3 -07.4643 26244.0
 22 02 2013  23 41  -21.0691 26021.7 -03409.4 -07.4645 26244.1
 22 02 2013  23 42  -21.0693 26021.8 -03409.5 -07.4647 26244.2
 22 02 2013  23 43  -21.0693 26021.9 -03409.6 -07.4648 26244.3
 22 02 2013  23 44  -21.0691 26022.1 -03409.8 -07.4652 26244.6
 22 02 2013  23 45  -21.0691 26022.5 -03410.0 -07.4656 26245.0
 22 02 2013  23 46  -21.0692 26022.8 -03410.3 -07.4660 26245.3
 22 02 2013  23 47  -21.0694 26022.8 -03410.4 -07.4662 26245.3
 22 02 2013  23 48  -21.0696 26022.8 -03410.4 -07.4663 26245.3
 22 02 2013  23 49  -21.0698 26022.5 -03410.2 -07.4660 26245.0
 22 02 2013  23 50  -21.0698 26022.3 -03410.2 -07.4659 26244.8
 22 02 2013  23 51  -21.0700 26022.2 -03410.1 -07.4658 26244.7
 22 02 2013  23 52  -21.0702 26022.1 -03410.1 -07.4659 26244.6
 22 02 2013  23 53  -21.0706 26021.8 -03410.0 -07.4657 26244.3
 22 02 2013  23 54  -21.0709 26021.4 -03409.9 -07.4655 26243.9
 22 02 2013  23 55  -21.0711 26021.0 -03409.7 -07.4653 26243.5
 22 02 2013  23 56  -21.0713 26020.5 -03409.5 -07.4650 26243.0
 22 02 2013  23 57  -21.0714 26020.1 -03409.3 -07.4647 26242.5
 22 02 2013  23 58  -21.0716 26019.7 -03409.2 -07.4645 26242.1
