SAO LUIS EMBRACE-03 <302> 1 Min. Reported data

 DD MM YYYY  HH MM   D(Deg)  H(nT)   Z(nT)   I(Deg)   F(nT)

 29 10 2013  00 00  -20.9965 26030.1 -03501.2 -07.6605 26264.5
 29 10 2013  00 01  -20.9964 26030.1 -03501.1 -07.6604 26264.5
 29 10 2013  00 02  -20.9966 26030.0 -03501.1 -07.6603 26264.4
 29 10 2013  00 03  -20.9967 26030.0 -03501.1 -07.6603 26264.4
 29 10 2013  00 04  -20.9968 26029.9 -03501.0 -07.6603 26264.3
 29 10 2013  00 05  -20.9968 26029.7 -03500.9 -07.6601 26264.0
 29 10 2013  00 06  -20.9968 26029.6 -03500.8 -07.6600 26264.0
 29 10 2013  00 07  -20.9968 26029.6 -03500.9 -07.6600 26264.0
 29 10 2013  00 08  -20.9969 26029.6 -03500.9 -07.6601 26264.0
 29 10 2013  00 09  -20.9970 26029.5 -03500.9 -07.6601 26263.9
 29 10 2013  00 10  -20.9970 26029.4 -03500.8 -07.6600 26263.7
 29 10 2013  00 11  -20.9967 26029.2 -03500.7 -07.6598 26263.6
 29 10 2013  00 12  -20.9963 26029.1 -03500.7 -07.6598 26263.4
 29 10 2013  00 13  -20.9959 26029.0 -03500.6 -07.6597 26263.3
 29 10 2013  00 14  -20.9956 26028.9 -03500.6 -07.6597 26263.3
 29 10 2013  00 15  -20.9955 26029.0 -03500.7 -07.6600 26263.4
 29 10 2013  00 16  -20.9956 26029.2 -03500.9 -07.6603 26263.5
 29 10 2013  00 17  -20.9956 26029.4 -03501.1 -07.6605 26263.8
 29 10 2013  00 18  -20.9954 26029.4 -03501.1 -07.6607 26263.8
 29 10 2013  00 19  -20.9954 26029.4 -03501.1 -07.6607 26263.8
 29 10 2013  00 20  -20.9953 26029.5 -03501.2 -07.6607 26263.9
 29 10 2013  00 21  -20.9951 26029.5 -03501.2 -07.6608 26263.9
 29 10 2013  00 22  -20.9950 26029.5 -03501.2 -07.6608 26263.9
 29 10 2013  00 23  -20.9949 26029.4 -03501.2 -07.6608 26263.8
 29 10 2013  00 24  -20.9948 26029.3 -03501.2 -07.6607 26263.7
 29 10 2013  00 25  -20.9948 26029.2 -03501.1 -07.6607 26263.6
 29 10 2013  00 26  -20.9947 26029.2 -03501.2 -07.6608 26263.6
 29 10 2013  00 27  -20.9948 26029.4 -03501.2 -07.6609 26263.8
 29 10 2013  00 28  -20.9949 26029.5 -03501.4 -07.6611 26264.0
 29 10 2013  00 29  -20.9952 26029.7 -03501.4 -07.6613 26264.1
 29 10 2013  00 30  -20.9955 26029.7 -03501.5 -07.6614 26264.1
 29 10 2013  00 31  -20.9959 26029.5 -03501.4 -07.6612 26263.9
 29 10 2013  00 32  -20.9960 26029.3 -03501.3 -07.6611 26263.8
 29 10 2013  00 33  -20.9962 26029.4 -03501.3 -07.6611 26263.8
 29 10 2013  00 34  -20.9964 26029.3 -03501.3 -07.6611 26263.8
 29 10 2013  00 35  -20.9962 26029.3 -03501.3 -07.6610 26263.7
 29 10 2013  00 36  -20.9960 26029.1 -03501.2 -07.6608 26263.5
 29 10 2013  00 37  -20.9957 26029.0 -03501.1 -07.6607 26263.4
 29 10 2013  00 38  -20.9955 26028.9 -03501.1 -07.6607 26263.3
 29 10 2013  00 39  -20.9953 26028.9 -03501.1 -07.6607 26263.3
 29 10 2013  00 40  -20.9950 26028.9 -03501.1 -07.6608 26263.3
 29 10 2013  00 41  -20.9949 26028.8 -03501.1 -07.6608 26263.2
 29 10 2013  00 42  -20.9950 26028.8 -03501.1 -07.6609 26263.2
 29 10 2013  00 43  -20.9952 26028.8 -03501.2 -07.6609 26263.2
 29 10 2013  00 44  -20.9954 26028.8 -03501.3 -07.6611 26263.3
 29 10 2013  00 45  -20.9957 26028.9 -03501.4 -07.6613 26263.3
 29 10 2013  00 46  -20.9957 26029.0 -03501.4 -07.6614 26263.4
 29 10 2013  00 47  -20.9956 26029.0 -03501.4 -07.6613 26263.4
 29 10 2013  00 48  -20.9955 26029.0 -03501.4 -07.6613 26263.4
 29 10 2013  00 49  -20.9956 26028.9 -03501.4 -07.6613 26263.3
 29 10 2013  00 50  -20.9955 26028.7 -03501.3 -07.6612 26263.2
 29 10 2013  00 51  -20.9953 26028.7 -03501.2 -07.6611 26263.1
 29 10 2013  00 52  -20.9953 26028.8 -03501.3 -07.6611 26263.2
 29 10 2013  00 53  -20.9955 26028.9 -03501.3 -07.6613 26263.3
 29 10 2013  00 54  -20.9958 26028.8 -03501.4 -07.6613 26263.2
 29 10 2013  00 55  -20.9960 26028.8 -03501.4 -07.6614 26263.3
 29 10 2013  00 56  -20.9960 26028.8 -03501.4 -07.6614 26263.3
 29 10 2013  00 57  -20.9959 26028.9 -03501.4 -07.6614 26263.4
 29 10 2013  00 58  -20.9958 26029.1 -03501.5 -07.6617 26263.6
 29 10 2013  00 59  -20.9958 26028.8 -03501.4 -07.6614 26263.2
 29 10 2013  01 00  -20.9958 26028.8 -03501.4 -07.6614 26263.3
 29 10 2013  01 01  -20.9958 26029.1 -03501.5 -07.6616 26263.6
 29 10 2013  01 02  -20.9958 26029.2 -03501.6 -07.6617 26263.7
 29 10 2013  01 03  -20.9957 26029.3 -03501.6 -07.6617 26263.7
 29 10 2013  01 04  -20.9959 26029.2 -03501.6 -07.6618 26263.7
 29 10 2013  01 05  -20.9960 26028.8 -03501.4 -07.6615 26263.3
 29 10 2013  01 06  -20.9958 26028.7 -03501.3 -07.6613 26263.1
 29 10 2013  01 07  -20.9959 26028.4 -03501.2 -07.6612 26262.8
 29 10 2013  01 08  -20.9957 26028.2 -03501.1 -07.6610 26262.6
 29 10 2013  01 09  -20.9953 26028.3 -03501.2 -07.6611 26262.7
 29 10 2013  01 10  -20.9950 26028.3 -03501.2 -07.6612 26262.8
 29 10 2013  01 11  -20.9950 26028.4 -03501.3 -07.6613 26262.8
 29 10 2013  01 12  -20.9949 26028.4 -03501.4 -07.6615 26262.8
 29 10 2013  01 13  -20.9950 26028.3 -03501.4 -07.6615 26262.8
 29 10 2013  01 14  -20.9948 26028.7 -03501.5 -07.6617 26263.1
 29 10 2013  01 15  -20.9947 26029.0 -03501.8 -07.6621 26263.5
 29 10 2013  01 16  -20.9947 26029.4 -03502.0 -07.6625 26263.9
 29 10 2013  01 17  -20.9948 26029.3 -03501.9 -07.6625 26263.8
 29 10 2013  01 18  -20.9951 26029.0 -03501.8 -07.6622 26263.5
 29 10 2013  01 19  -20.9954 26029.0 -03501.8 -07.6622 26263.5
 29 10 2013  01 20  -20.9957 26028.9 -03501.8 -07.6622 26263.4
 29 10 2013  01 21  -20.9955 26028.7 -03501.6 -07.6620 26263.2
 29 10 2013  01 22  -20.9955 26028.6 -03501.5 -07.6618 26263.0
 29 10 2013  01 23  -20.9956 26028.3 -03501.4 -07.6617 26262.7
 29 10 2013  01 24  -20.9959 26027.7 -03501.2 -07.6612 26262.1
 29 10 2013  01 25  -20.9957 26027.5 -03501.1 -07.6611 26262.0
 29 10 2013  01 26  -20.9953 26027.7 -03501.2 -07.6613 26262.1
 29 10 2013  01 27  -20.9952 26027.9 -03501.3 -07.6614 26262.3
 29 10 2013  01 28  -20.9953 26028.1 -03501.4 -07.6617 26262.5
 29 10 2013  01 29  -20.9954 26028.0 -03501.5 -07.6618 26262.4
 29 10 2013  01 30  -20.9958 26027.8 -03501.4 -07.6618 26262.2
 29 10 2013  01 31  -20.9959 26027.7 -03501.3 -07.6615 26262.2
 29 10 2013  01 32  -20.9960 26027.9 -03501.5 -07.6619 26262.3
 29 10 2013  01 33  -20.9958 26028.0 -03501.5 -07.6620 26262.5
 29 10 2013  01 34  -20.9958 26028.0 -03501.6 -07.6621 26262.5
 29 10 2013  01 35  -20.9959 26027.9 -03501.5 -07.6620 26262.4
 29 10 2013  01 36  -20.9958 26027.7 -03501.4 -07.6618 26262.1
 29 10 2013  01 37  -20.9958 26027.5 -03501.3 -07.6617 26261.9
 29 10 2013  01 38  -20.9958 26027.5 -03501.4 -07.6617 26262.0
 29 10 2013  01 39  -20.9958 26027.7 -03501.5 -07.6619 26262.2
 29 10 2013  01 40  -20.9957 26027.9 -03501.6 -07.6621 26262.3
 29 10 2013  01 41  -20.9957 26027.9 -03501.6 -07.6622 26262.4
 29 10 2013  01 42  -20.9957 26027.7 -03501.6 -07.6621 26262.2
 29 10 2013  01 43  -20.9958 26027.5 -03501.4 -07.6619 26262.0
 29 10 2013  01 44  -20.9957 26027.4 -03501.4 -07.6618 26261.9
 29 10 2013  01 45  -20.9957 26027.4 -03501.4 -07.6617 26261.9
 29 10 2013  01 46  -20.9956 26027.4 -03501.4 -07.6618 26261.9
 29 10 2013  01 47  -20.9957 26027.4 -03501.4 -07.6618 26261.8
 29 10 2013  01 48  -20.9957 26027.3 -03501.3 -07.6617 26261.7
 29 10 2013  01 49  -20.9956 26027.2 -03501.3 -07.6617 26261.7
 29 10 2013  01 50  -20.9956 26027.2 -03501.3 -07.6617 26261.7
 29 10 2013  01 51  -20.9957 26027.3 -03501.4 -07.6619 26261.8
 29 10 2013  01 52  -20.9957 26027.3 -03501.4 -07.6619 26261.8
 29 10 2013  01 53  -20.9958 26027.3 -03501.4 -07.6619 26261.7
 29 10 2013  01 54  -20.9958 26027.2 -03501.3 -07.6618 26261.6
 29 10 2013  01 55  -20.9959 26027.1 -03501.3 -07.6618 26261.5
 29 10 2013  01 56  -20.9959 26027.1 -03501.3 -07.6617 26261.5
 29 10 2013  01 57  -20.9958 26026.9 -03501.3 -07.6617 26261.4
 29 10 2013  01 58  -20.9959 26026.8 -03501.2 -07.6616 26261.3
 29 10 2013  01 59  -20.9959 26026.7 -03501.2 -07.6616 26261.2
 29 10 2013  02 00  -20.9959 26026.7 -03501.2 -07.6616 26261.2
 29 10 2013  02 01  -20.9959 26026.7 -03501.2 -07.6617 26261.1
 29 10 2013  02 02  -20.9957 26026.7 -03501.2 -07.6617 26261.1
 29 10 2013  02 03  -20.9956 26026.7 -03501.2 -07.6617 26261.1
 29 10 2013  02 04  -20.9955 26026.6 -03501.2 -07.6617 26261.0
 29 10 2013  02 05  -20.9955 26026.5 -03501.2 -07.6617 26260.9
 29 10 2013  02 06  -20.9955 26026.6 -03501.3 -07.6618 26261.0
 29 10 2013  02 07  -20.9957 26026.7 -03501.4 -07.6620 26261.2
 29 10 2013  02 08  -20.9958 26026.6 -03501.4 -07.6620 26261.1
 29 10 2013  02 09  -20.9957 26026.5 -03501.3 -07.6619 26260.9
 29 10 2013  02 10  -20.9957 26026.2 -03501.2 -07.6617 26260.7
 29 10 2013  02 11  -20.9957 26026.2 -03501.2 -07.6617 26260.6
 29 10 2013  02 12  -20.9958 26026.3 -03501.2 -07.6618 26260.7
 29 10 2013  02 13  -20.9961 26026.4 -03501.3 -07.6620 26260.9
 29 10 2013  02 14  -20.9963 26026.5 -03501.4 -07.6620 26260.9
 29 10 2013  02 15  -20.9965 26026.5 -03501.4 -07.6621 26260.9
 29 10 2013  02 16  -20.9966 26026.5 -03501.4 -07.6622 26261.0
 29 10 2013  02 17  -20.9967 26026.6 -03501.5 -07.6622 26261.1
 29 10 2013  02 18  -20.9967 26026.6 -03501.5 -07.6623 26261.1
 29 10 2013  02 19  -20.9967 26026.6 -03501.5 -07.6623 26261.1
 29 10 2013  02 20  -20.9969 26026.7 -03501.5 -07.6623 26261.1
 29 10 2013  02 21  -20.9973 26026.6 -03501.5 -07.6622 26261.0
 29 10 2013  02 22  -20.9976 26026.4 -03501.4 -07.6621 26260.9
 29 10 2013  02 23  -20.9977 26026.3 -03501.3 -07.6619 26260.7
 29 10 2013  02 24  -20.9979 26026.2 -03501.2 -07.6618 26260.6
 29 10 2013  02 25  -20.9982 26026.1 -03501.2 -07.6618 26260.5
 29 10 2013  02 26  -20.9984 26026.0 -03501.2 -07.6618 26260.5
 29 10 2013  02 27  -20.9986 26026.0 -03501.2 -07.6618 26260.4
 29 10 2013  02 28  -20.9987 26026.0 -03501.2 -07.6618 26260.5
 29 10 2013  02 29  -20.9987 26026.0 -03501.2 -07.6618 26260.5
 29 10 2013  02 30  -20.9988 26025.9 -03501.2 -07.6618 26260.4
 29 10 2013  02 31  -20.9988 26025.9 -03501.2 -07.6618 26260.3
 29 10 2013  02 32  -20.9987 26025.9 -03501.2 -07.6618 26260.3
 29 10 2013  02 33  -20.9987 26025.9 -03501.2 -07.6618 26260.4
 29 10 2013  02 34  -20.9989 26026.0 -03501.2 -07.6619 26260.4
 29 10 2013  02 35  -20.9990 26025.9 -03501.3 -07.6620 26260.4
 29 10 2013  02 36  -20.9992 26025.9 -03501.2 -07.6619 26260.3
 29 10 2013  02 37  -20.9993 26025.9 -03501.3 -07.6620 26260.3
 29 10 2013  02 38  -20.9994 26025.9 -03501.3 -07.6620 26260.4
 29 10 2013  02 39  -20.9997 26025.9 -03501.3 -07.6620 26260.4
 29 10 2013  02 40  -20.9999 26025.9 -03501.3 -07.6620 26260.4
 29 10 2013  02 41  -21.0000 26025.9 -03501.3 -07.6620 26260.3
 29 10 2013  02 42  -21.0003 26025.9 -03501.3 -07.6620 26260.3
 29 10 2013  02 43  -21.0005 26025.8 -03501.2 -07.6620 26260.3
 29 10 2013  02 44  -21.0006 26025.8 -03501.2 -07.6619 26260.2
 29 10 2013  02 45  -21.0007 26025.7 -03501.2 -07.6619 26260.2
 29 10 2013  02 46  -21.0007 26025.7 -03501.2 -07.6619 26260.2
 29 10 2013  02 47  -21.0005 26025.8 -03501.2 -07.6618 26260.2
 29 10 2013  02 48  -21.0004 26025.7 -03501.2 -07.6619 26260.2
 29 10 2013  02 49  -21.0005 26025.8 -03501.2 -07.6620 26260.3
 29 10 2013  02 50  -21.0006 26026.0 -03501.4 -07.6621 26260.5
 29 10 2013  02 51  -21.0006 26026.2 -03501.4 -07.6623 26260.6
 29 10 2013  02 52  -21.0006 26026.3 -03501.5 -07.6624 26260.8
 29 10 2013  02 53  -21.0007 26026.3 -03501.5 -07.6624 26260.8
 29 10 2013  02 54  -21.0008 26026.2 -03501.5 -07.6624 26260.6
 29 10 2013  02 55  -21.0009 26026.1 -03501.4 -07.6623 26260.5
 29 10 2013  02 56  -21.0009 26026.0 -03501.4 -07.6622 26260.4
 29 10 2013  02 57  -21.0008 26025.9 -03501.3 -07.6621 26260.3
 29 10 2013  02 58  -21.0010 26025.9 -03501.4 -07.6622 26260.4
 29 10 2013  02 59  -21.0013 26025.8 -03501.4 -07.6623 26260.3
 29 10 2013  03 00  -21.0013 26025.6 -03501.3 -07.6622 26260.1
 29 10 2013  03 01  -21.0010 26025.5 -03501.3 -07.6621 26260.0
 29 10 2013  03 02  -21.0021 26024.8 -03500.9 -07.6615 26259.2
 29 10 2013  03 03  -21.0026 26025.0 -03501.0 -07.6617 26259.4
 29 10 2013  03 04  -21.0029 26025.2 -03501.1 -07.6619 26259.7
 29 10 2013  03 05  -21.0034 26025.1 -03501.1 -07.6619 26259.5
 29 10 2013  03 06  -21.0038 26024.8 -03501.0 -07.6618 26259.3
 29 10 2013  03 07  -21.0036 26024.7 -03500.9 -07.6616 26259.1
 29 10 2013  03 08  -21.0037 26024.4 -03500.8 -07.6614 26258.8
 29 10 2013  03 09  -21.0037 26024.6 -03500.9 -07.6615 26259.0
 29 10 2013  03 10  -21.0034 26024.8 -03501.0 -07.6618 26259.3
 29 10 2013  03 11  -21.0034 26024.9 -03501.1 -07.6620 26259.4
 29 10 2013  03 12  -21.0036 26024.9 -03501.2 -07.6621 26259.3
 29 10 2013  03 13  -21.0038 26024.8 -03501.1 -07.6620 26259.2
 29 10 2013  03 14  -21.0041 26024.7 -03501.1 -07.6620 26259.1
 29 10 2013  03 15  -21.0043 26024.7 -03501.1 -07.6620 26259.1
 29 10 2013  03 16  -21.0043 26024.7 -03501.1 -07.6620 26259.1
 29 10 2013  03 17  -21.0042 26024.6 -03501.1 -07.6620 26259.1
 29 10 2013  03 18  -21.0045 26024.6 -03501.1 -07.6620 26259.1
 29 10 2013  03 19  -21.0049 26024.6 -03501.2 -07.6621 26259.1
 29 10 2013  03 20  -21.0049 26024.6 -03501.2 -07.6621 26259.1
 29 10 2013  03 21  -21.0048 26024.7 -03501.2 -07.6621 26259.1
 29 10 2013  03 22  -21.0048 26024.6 -03501.1 -07.6621 26259.1
 29 10 2013  03 23  -21.0048 26024.6 -03501.1 -07.6620 26259.1
 29 10 2013  03 24  -21.0049 26024.6 -03501.1 -07.6621 26259.1
 29 10 2013  03 25  -21.0052 26024.7 -03501.2 -07.6621 26259.1
 29 10 2013  03 26  -21.0053 26024.7 -03501.2 -07.6621 26259.2
 29 10 2013  03 27  -21.0055 26024.8 -03501.2 -07.6622 26259.3
 29 10 2013  03 28  -21.0058 26024.8 -03501.3 -07.6623 26259.3
 29 10 2013  03 29  -21.0059 26024.8 -03501.2 -07.6622 26259.3
 29 10 2013  03 30  -21.0060 26024.8 -03501.2 -07.6621 26259.2
 29 10 2013  03 31  -21.0061 26024.7 -03501.1 -07.6621 26259.2
 29 10 2013  03 32  -21.0063 26024.7 -03501.1 -07.6621 26259.2
 29 10 2013  03 33  -21.0065 26024.8 -03501.1 -07.6620 26259.2
 29 10 2013  03 34  -21.0066 26024.8 -03501.1 -07.6620 26259.2
 29 10 2013  03 35  -21.0067 26024.7 -03501.1 -07.6619 26259.2
 29 10 2013  03 36  -21.0067 26024.7 -03501.0 -07.6618 26259.1
 29 10 2013  03 37  -21.0068 26024.7 -03501.0 -07.6618 26259.2
 29 10 2013  03 38  -21.0069 26024.8 -03501.1 -07.6618 26259.3
 29 10 2013  03 39  -21.0070 26024.9 -03501.1 -07.6619 26259.3
 29 10 2013  03 40  -21.0070 26025.0 -03501.1 -07.6619 26259.4
 29 10 2013  03 41  -21.0071 26025.0 -03501.1 -07.6619 26259.5
 29 10 2013  03 42  -21.0072 26025.1 -03501.1 -07.6619 26259.6
 29 10 2013  03 43  -21.0071 26025.2 -03501.1 -07.6619 26259.6
 29 10 2013  03 44  -21.0071 26025.3 -03501.2 -07.6619 26259.8
 29 10 2013  03 45  -21.0072 26025.4 -03501.2 -07.6620 26259.9
 29 10 2013  03 46  -21.0072 26025.5 -03501.2 -07.6620 26259.9
 29 10 2013  03 47  -21.0072 26025.5 -03501.2 -07.6620 26260.0
 29 10 2013  03 48  -21.0074 26025.6 -03501.2 -07.6620 26260.0
 29 10 2013  03 49  -21.0076 26025.6 -03501.2 -07.6620 26260.1
 29 10 2013  03 50  -21.0077 26025.7 -03501.2 -07.6620 26260.2
 29 10 2013  03 51  -21.0076 26025.8 -03501.3 -07.6620 26260.3
 29 10 2013  03 52  -21.0077 26025.9 -03501.3 -07.6620 26260.3
 29 10 2013  03 53  -21.0076 26025.8 -03501.2 -07.6619 26260.3
 29 10 2013  03 54  -21.0077 26025.8 -03501.1 -07.6617 26260.2
 29 10 2013  03 55  -21.0078 26025.7 -03501.1 -07.6616 26260.2
 29 10 2013  03 56  -21.0079 26025.8 -03501.1 -07.6617 26260.3
 29 10 2013  03 57  -21.0081 26025.9 -03501.1 -07.6617 26260.3
 29 10 2013  03 58  -21.0083 26025.9 -03501.1 -07.6617 26260.3
 29 10 2013  03 59  -21.0084 26025.6 -03501.0 -07.6615 26260.0
 29 10 2013  04 00  -21.0085 26025.7 -03501.0 -07.6615 26260.1
 29 10 2013  04 01  -21.0087 26025.9 -03501.0 -07.6615 26260.3
 29 10 2013  04 02  -21.0086 26026.0 -03501.1 -07.6616 26260.4
 29 10 2013  04 03  -21.0086 26026.1 -03501.2 -07.6617 26260.5
 29 10 2013  04 04  -21.0087 26026.1 -03501.1 -07.6616 26260.5
 29 10 2013  04 05  -21.0087 26026.0 -03501.0 -07.6614 26260.4
 29 10 2013  04 06  -21.0085 26026.0 -03501.0 -07.6614 26260.4
 29 10 2013  04 07  -21.0082 26026.1 -03501.0 -07.6614 26260.5
 29 10 2013  04 08  -21.0081 26026.1 -03501.0 -07.6614 26260.5
 29 10 2013  04 09  -21.0081 26026.1 -03501.0 -07.6614 26260.5
 29 10 2013  04 10  -21.0079 26026.0 -03501.0 -07.6613 26260.4
 29 10 2013  04 11  -21.0079 26025.9 -03500.9 -07.6613 26260.3
 29 10 2013  04 12  -21.0078 26025.9 -03500.9 -07.6613 26260.3
 29 10 2013  04 13  -21.0078 26026.0 -03501.0 -07.6613 26260.5
 29 10 2013  04 14  -21.0079 26026.1 -03501.0 -07.6613 26260.5
 29 10 2013  04 15  -21.0080 26026.2 -03501.0 -07.6614 26260.6
 29 10 2013  04 16  -21.0082 26026.2 -03501.1 -07.6614 26260.6
 29 10 2013  04 17  -21.0082 26026.2 -03501.1 -07.6615 26260.7
 29 10 2013  04 18  -21.0082 26026.4 -03501.1 -07.6614 26260.8
 29 10 2013  04 19  -21.0082 26026.5 -03501.1 -07.6615 26261.0
 29 10 2013  04 20  -21.0084 26026.6 -03501.1 -07.6615 26261.0
 29 10 2013  04 21  -21.0084 26026.6 -03501.1 -07.6614 26261.0
 29 10 2013  04 22  -21.0085 26026.6 -03501.1 -07.6613 26261.0
 29 10 2013  04 23  -21.0085 26026.6 -03501.0 -07.6612 26261.0
 29 10 2013  04 24  -21.0086 26026.7 -03501.1 -07.6613 26261.1
 29 10 2013  04 25  -21.0085 26026.8 -03501.1 -07.6613 26261.2
 29 10 2013  04 26  -21.0083 26026.9 -03501.1 -07.6613 26261.3
 29 10 2013  04 27  -21.0079 26026.9 -03501.0 -07.6612 26261.3
 29 10 2013  04 28  -21.0078 26026.9 -03501.1 -07.6612 26261.4
 29 10 2013  04 29  -21.0077 26027.0 -03501.1 -07.6612 26261.4
 29 10 2013  04 30  -21.0078 26027.1 -03501.1 -07.6612 26261.5
 29 10 2013  04 31  -21.0078 26027.3 -03501.2 -07.6613 26261.7
 29 10 2013  04 32  -21.0077 26027.3 -03501.2 -07.6613 26261.8
 29 10 2013  04 33  -21.0077 26027.4 -03501.2 -07.6613 26261.8
 29 10 2013  04 34  -21.0076 26027.4 -03501.2 -07.6613 26261.8
 29 10 2013  04 35  -21.0074 26027.5 -03501.1 -07.6613 26261.9
 29 10 2013  04 36  -21.0073 26027.6 -03501.2 -07.6613 26262.0
 29 10 2013  04 37  -21.0071 26027.7 -03501.2 -07.6613 26262.1
 29 10 2013  04 38  -21.0070 26027.7 -03501.2 -07.6613 26262.2
 29 10 2013  04 39  -21.0071 26027.5 -03501.1 -07.6612 26261.9
 29 10 2013  04 40  -21.0072 26027.4 -03501.0 -07.6609 26261.8
 29 10 2013  04 41  -21.0070 26027.5 -03501.0 -07.6609 26261.9
 29 10 2013  04 42  -21.0067 26027.6 -03501.0 -07.6610 26262.0
 29 10 2013  04 43  -21.0066 26027.7 -03501.0 -07.6610 26262.1
 29 10 2013  04 44  -21.0065 26027.6 -03501.0 -07.6609 26262.0
 29 10 2013  04 45  -21.0064 26027.4 -03500.9 -07.6608 26261.8
 29 10 2013  04 46  -21.0064 26027.5 -03500.9 -07.6608 26261.9
 29 10 2013  04 47  -21.0062 26027.7 -03501.0 -07.6608 26262.1
 29 10 2013  04 48  -21.0062 26027.9 -03501.1 -07.6610 26262.3
 29 10 2013  04 49  -21.0063 26028.1 -03501.2 -07.6613 26262.5
 29 10 2013  04 50  -21.0063 26028.2 -03501.3 -07.6614 26262.6
 29 10 2013  04 51  -21.0063 26028.2 -03501.3 -07.6613 26262.7
 29 10 2013  04 52  -21.0060 26028.2 -03501.2 -07.6612 26262.7
 29 10 2013  04 53  -21.0059 26028.2 -03501.2 -07.6611 26262.6
 29 10 2013  04 54  -21.0057 26028.2 -03501.1 -07.6610 26262.6
 29 10 2013  04 55  -21.0055 26028.0 -03501.1 -07.6610 26262.5
 29 10 2013  04 56  -21.0055 26027.8 -03501.0 -07.6608 26262.2
 29 10 2013  04 57  -21.0053 26027.7 -03500.9 -07.6606 26262.1
 29 10 2013  04 58  -21.0053 26027.7 -03500.9 -07.6606 26262.1
 29 10 2013  04 59  -21.0053 26027.8 -03500.9 -07.6607 26262.1
 29 10 2013  05 00  -21.0054 26027.8 -03501.0 -07.6608 26262.2
 29 10 2013  05 01  -21.0054 26027.8 -03500.9 -07.6607 26262.2
 29 10 2013  05 02  -21.0054 26027.7 -03500.9 -07.6607 26262.1
 29 10 2013  05 03  -21.0055 26027.8 -03500.9 -07.6607 26262.2
 29 10 2013  05 04  -21.0056 26027.9 -03501.0 -07.6609 26262.3
 29 10 2013  05 05  -21.0055 26028.0 -03501.0 -07.6609 26262.4
 29 10 2013  05 06  -21.0056 26028.1 -03501.1 -07.6610 26262.5
 29 10 2013  05 07  -21.0056 26028.1 -03501.1 -07.6610 26262.5
 29 10 2013  05 08  -21.0056 26028.2 -03501.1 -07.6611 26262.6
 29 10 2013  05 09  -21.0056 26028.2 -03501.1 -07.6610 26262.6
 29 10 2013  05 10  -21.0056 26028.2 -03501.1 -07.6611 26262.6
 29 10 2013  05 11  -21.0055 26028.0 -03501.1 -07.6609 26262.5
 29 10 2013  05 12  -21.0053 26027.9 -03501.0 -07.6607 26262.3
 29 10 2013  05 13  -21.0052 26027.8 -03500.9 -07.6606 26262.2
 29 10 2013  05 14  -21.0052 26027.8 -03500.9 -07.6606 26262.2
 29 10 2013  05 15  -21.0052 26027.8 -03500.9 -07.6606 26262.2
 29 10 2013  05 16  -21.0052 26027.7 -03500.9 -07.6606 26262.1
 29 10 2013  05 17  -21.0053 26027.6 -03500.8 -07.6605 26262.0
 29 10 2013  05 18  -21.0053 26027.6 -03500.8 -07.6606 26262.0
 29 10 2013  05 19  -21.0053 26027.7 -03500.9 -07.6606 26262.1
 29 10 2013  05 20  -21.0052 26027.8 -03500.9 -07.6607 26262.2
 29 10 2013  05 21  -21.0053 26028.0 -03501.0 -07.6608 26262.4
 29 10 2013  05 22  -21.0054 26028.0 -03501.1 -07.6610 26262.4
 29 10 2013  05 23  -21.0054 26028.1 -03501.1 -07.6610 26262.5
 29 10 2013  05 24  -21.0053 26028.1 -03501.1 -07.6610 26262.5
 29 10 2013  05 25  -21.0053 26028.1 -03501.1 -07.6610 26262.5
 29 10 2013  05 26  -21.0053 26028.1 -03501.1 -07.6610 26262.5
 29 10 2013  05 27  -21.0052 26028.2 -03501.1 -07.6610 26262.6
 29 10 2013  05 28  -21.0052 26028.2 -03501.1 -07.6610 26262.6
 29 10 2013  05 29  -21.0054 26028.2 -03501.2 -07.6611 26262.7
 29 10 2013  05 30  -21.0054 26028.2 -03501.2 -07.6611 26262.6
 29 10 2013  05 31  -21.0054 26028.2 -03501.2 -07.6611 26262.7
 29 10 2013  05 32  -21.0053 26028.2 -03501.2 -07.6611 26262.7
 29 10 2013  05 33  -21.0053 26028.3 -03501.2 -07.6611 26262.7
 29 10 2013  05 34  -21.0055 26028.3 -03501.2 -07.6612 26262.7
 29 10 2013  05 35  -21.0055 26028.2 -03501.2 -07.6611 26262.7
 29 10 2013  05 36  -21.0055 26028.2 -03501.2 -07.6611 26262.6
 29 10 2013  05 37  -21.0053 26028.1 -03501.1 -07.6610 26262.6
 29 10 2013  05 38  -21.0052 26028.2 -03501.1 -07.6610 26262.6
 29 10 2013  05 39  -21.0052 26028.3 -03501.2 -07.6612 26262.7
 29 10 2013  05 40  -21.0052 26028.4 -03501.3 -07.6614 26262.8
 29 10 2013  05 41  -21.0053 26028.5 -03501.4 -07.6615 26263.0
 29 10 2013  05 42  -21.0052 26028.6 -03501.4 -07.6615 26263.0
 29 10 2013  05 43  -21.0052 26028.7 -03501.5 -07.6616 26263.2
 29 10 2013  05 44  -21.0051 26028.8 -03501.5 -07.6617 26263.3
 29 10 2013  05 45  -21.0051 26028.9 -03501.6 -07.6617 26263.3
 29 10 2013  05 46  -21.0051 26029.0 -03501.6 -07.6618 26263.5
 29 10 2013  05 47  -21.0050 26029.0 -03501.6 -07.6618 26263.5
 29 10 2013  05 48  -21.0049 26029.0 -03501.6 -07.6618 26263.5
 29 10 2013  05 49  -21.0049 26028.9 -03501.5 -07.6617 26263.4
 29 10 2013  05 50  -21.0050 26028.9 -03501.5 -07.6617 26263.4
 29 10 2013  05 51  -21.0050 26028.9 -03501.6 -07.6617 26263.4
 29 10 2013  05 52  -21.0050 26028.9 -03501.6 -07.6617 26263.4
 29 10 2013  05 53  -21.0049 26029.0 -03501.6 -07.6618 26263.5
 29 10 2013  05 54  -21.0049 26029.1 -03501.6 -07.6618 26263.5
 29 10 2013  05 55  -21.0049 26029.2 -03501.7 -07.6619 26263.7
 29 10 2013  05 56  -21.0050 26029.2 -03501.7 -07.6620 26263.7
 29 10 2013  05 57  -21.0049 26029.3 -03501.8 -07.6621 26263.8
 29 10 2013  05 58  -21.0048 26029.4 -03501.8 -07.6622 26263.9
 29 10 2013  05 59  -21.0046 26029.5 -03501.8 -07.6622 26264.0
 29 10 2013  06 00  -21.0046 26029.5 -03501.9 -07.6623 26264.0
 29 10 2013  06 01  -21.0046 26029.6 -03501.9 -07.6623 26264.1
 29 10 2013  06 02  -21.0045 26029.5 -03501.9 -07.6623 26264.1
 29 10 2013  06 03  -21.0046 26029.6 -03501.9 -07.6623 26264.1
 29 10 2013  06 04  -21.0046 26029.6 -03501.9 -07.6622 26264.1
 29 10 2013  06 05  -21.0046 26029.5 -03501.8 -07.6622 26264.0
 29 10 2013  06 06  -21.0045 26029.5 -03501.8 -07.6620 26264.0
 29 10 2013  06 07  -21.0044 26029.4 -03501.7 -07.6619 26263.8
 29 10 2013  06 08  -21.0044 26029.2 -03501.6 -07.6618 26263.7
 29 10 2013  06 09  -21.0045 26029.1 -03501.6 -07.6618 26263.6
 29 10 2013  06 10  -21.0045 26029.1 -03501.6 -07.6618 26263.6
 29 10 2013  06 11  -21.0044 26029.2 -03501.6 -07.6618 26263.7
 29 10 2013  06 12  -21.0044 26029.4 -03501.7 -07.6620 26263.9
 29 10 2013  06 13  -21.0045 26029.6 -03501.8 -07.6622 26264.1
 29 10 2013  06 14  -21.0045 26029.9 -03502.0 -07.6625 26264.4
 29 10 2013  06 15  -21.0044 26030.0 -03502.1 -07.6626 26264.5
 29 10 2013  06 16  -21.0044 26030.1 -03502.1 -07.6626 26264.7
 29 10 2013  06 17  -21.0042 26030.2 -03502.2 -07.6627 26264.8
 29 10 2013  06 18  -21.0042 26030.3 -03502.2 -07.6627 26264.9
 29 10 2013  06 19  -21.0040 26030.3 -03502.2 -07.6627 26264.8
 29 10 2013  06 20  -21.0038 26030.1 -03502.1 -07.6625 26264.7
 29 10 2013  06 21  -21.0037 26030.0 -03502.0 -07.6623 26264.5
 29 10 2013  06 22  -21.0036 26029.9 -03501.9 -07.6622 26264.4
 29 10 2013  06 23  -21.0036 26029.9 -03501.9 -07.6622 26264.4
 29 10 2013  06 24  -21.0036 26030.0 -03501.9 -07.6622 26264.5
 29 10 2013  06 25  -21.0036 26029.9 -03501.9 -07.6623 26264.4
 29 10 2013  06 26  -21.0035 26029.8 -03501.9 -07.6622 26264.3
 29 10 2013  06 27  -21.0035 26029.7 -03501.8 -07.6621 26264.2
 29 10 2013  06 28  -21.0034 26029.8 -03501.8 -07.6621 26264.3
 29 10 2013  06 29  -21.0032 26029.8 -03501.8 -07.6620 26264.3
 29 10 2013  06 30  -21.0033 26029.8 -03501.8 -07.6621 26264.3
 29 10 2013  06 31  -21.0034 26029.8 -03501.8 -07.6621 26264.3
 29 10 2013  06 32  -21.0033 26029.7 -03501.8 -07.6620 26264.1
 29 10 2013  06 33  -21.0034 26029.6 -03501.7 -07.6619 26264.1
 29 10 2013  06 34  -21.0036 26029.7 -03501.8 -07.6620 26264.2
 29 10 2013  06 35  -21.0035 26029.8 -03501.8 -07.6620 26264.3
 29 10 2013  06 36  -21.0036 26030.0 -03501.9 -07.6621 26264.5
 29 10 2013  06 37  -21.0035 26030.1 -03501.9 -07.6622 26264.6
 29 10 2013  06 38  -21.0035 26030.2 -03502.0 -07.6622 26264.7
 29 10 2013  06 39  -21.0034 26030.3 -03502.0 -07.6623 26264.9
 29 10 2013  06 40  -21.0033 26030.5 -03502.1 -07.6624 26265.0
 29 10 2013  06 41  -21.0032 26030.6 -03502.1 -07.6625 26265.1
 29 10 2013  06 42  -21.0031 26030.6 -03502.1 -07.6625 26265.1
 29 10 2013  06 43  -21.0029 26030.5 -03502.1 -07.6624 26265.0
 29 10 2013  06 44  -21.0029 26030.5 -03502.0 -07.6623 26265.0
 29 10 2013  06 45  -21.0028 26030.5 -03502.0 -07.6623 26265.0
 29 10 2013  06 46  -21.0026 26030.4 -03502.0 -07.6622 26264.9
 29 10 2013  06 47  -21.0025 26030.3 -03501.9 -07.6620 26264.8
 29 10 2013  06 48  -21.0026 26030.2 -03501.8 -07.6619 26264.7
 29 10 2013  06 49  -21.0027 26030.1 -03501.8 -07.6618 26264.6
 29 10 2013  06 50  -21.0027 26030.1 -03501.8 -07.6618 26264.6
 29 10 2013  06 51  -21.0027 26030.1 -03501.8 -07.6619 26264.6
 29 10 2013  06 52  -21.0026 26030.1 -03501.8 -07.6619 26264.6
 29 10 2013  06 53  -21.0027 26030.1 -03501.8 -07.6619 26264.6
 29 10 2013  06 54  -21.0026 26030.2 -03501.8 -07.6618 26264.6
 29 10 2013  06 55  -21.0025 26030.1 -03501.7 -07.6618 26264.5
 29 10 2013  06 56  -21.0024 26030.0 -03501.6 -07.6616 26264.5
 29 10 2013  06 57  -21.0023 26030.0 -03501.6 -07.6616 26264.5
 29 10 2013  06 58  -21.0023 26030.0 -03501.7 -07.6616 26264.5
 29 10 2013  06 59  -21.0022 26030.0 -03501.7 -07.6617 26264.5
 29 10 2013  07 00  -21.0022 26030.1 -03501.7 -07.6618 26264.6
 29 10 2013  07 01  -21.0022 26030.2 -03501.8 -07.6619 26264.7
 29 10 2013  07 02  -21.0022 26030.2 -03501.8 -07.6618 26264.7
 29 10 2013  07 03  -21.0022 26030.2 -03501.8 -07.6619 26264.7
 29 10 2013  07 04  -21.0020 26030.2 -03501.7 -07.6617 26264.6
 29 10 2013  07 05  -21.0021 26030.2 -03501.7 -07.6617 26264.7
 29 10 2013  07 06  -21.0021 26030.2 -03501.8 -07.6618 26264.7
 29 10 2013  07 07  -21.0020 26030.3 -03501.8 -07.6619 26264.7
 29 10 2013  07 08  -21.0020 26030.2 -03501.8 -07.6619 26264.7
 29 10 2013  07 09  -21.0020 26030.3 -03501.8 -07.6619 26264.8
 29 10 2013  07 10  -21.0019 26030.2 -03501.8 -07.6619 26264.7
 29 10 2013  07 11  -21.0019 26030.2 -03501.8 -07.6619 26264.7
 29 10 2013  07 12  -21.0020 26030.2 -03501.8 -07.6619 26264.7
 29 10 2013  07 13  -21.0019 26030.2 -03501.8 -07.6619 26264.6
 29 10 2013  07 14  -21.0019 26030.1 -03501.8 -07.6618 26264.6
 29 10 2013  07 15  -21.0016 26030.0 -03501.7 -07.6618 26264.5
 29 10 2013  07 16  -21.0016 26029.9 -03501.7 -07.6617 26264.4
 29 10 2013  07 17  -21.0016 26029.9 -03501.8 -07.6619 26264.4
 29 10 2013  07 18  -21.0015 26029.9 -03501.8 -07.6619 26264.4
 29 10 2013  07 19  -21.0014 26029.8 -03501.7 -07.6618 26264.3
 29 10 2013  07 20  -21.0013 26029.7 -03501.7 -07.6618 26264.2
 29 10 2013  07 21  -21.0012 26029.6 -03501.7 -07.6617 26264.1
 29 10 2013  07 22  -21.0011 26029.6 -03501.6 -07.6617 26264.1
 29 10 2013  07 23  -21.0011 26029.6 -03501.7 -07.6618 26264.1
 29 10 2013  07 24  -21.0010 26029.7 -03501.7 -07.6618 26264.2
 29 10 2013  07 25  -21.0010 26029.6 -03501.7 -07.6619 26264.1
 29 10 2013  07 26  -21.0008 26029.5 -03501.7 -07.6618 26264.0
 29 10 2013  07 27  -21.0007 26029.4 -03501.6 -07.6617 26263.9
 29 10 2013  07 28  -21.0007 26029.4 -03501.6 -07.6618 26263.9
 29 10 2013  07 29  -21.0006 26029.5 -03501.6 -07.6618 26263.9
 29 10 2013  07 30  -21.0006 26029.4 -03501.7 -07.6619 26263.9
 29 10 2013  07 31  -21.0005 26029.4 -03501.8 -07.6620 26263.9
 29 10 2013  07 32  -21.0004 26029.4 -03501.7 -07.6620 26263.9
 29 10 2013  07 33  -21.0003 26029.4 -03501.7 -07.6620 26263.9
 29 10 2013  07 34  -21.0003 26029.5 -03501.8 -07.6620 26264.0
 29 10 2013  07 35  -21.0002 26029.4 -03501.8 -07.6621 26263.9
 29 10 2013  07 36  -21.0002 26029.4 -03501.8 -07.6621 26263.9
 29 10 2013  07 37  -21.0000 26029.4 -03501.8 -07.6621 26263.9
 29 10 2013  07 38  -20.9999 26029.4 -03501.8 -07.6622 26263.9
 29 10 2013  07 39  -20.9999 26029.4 -03501.9 -07.6622 26263.9
 29 10 2013  07 40  -20.9998 26029.4 -03501.9 -07.6623 26263.9
 29 10 2013  07 41  -20.9997 26029.4 -03501.9 -07.6624 26263.9
 29 10 2013  07 42  -20.9996 26029.4 -03501.9 -07.6624 26263.9
 29 10 2013  07 43  -20.9995 26029.4 -03501.9 -07.6624 26263.9
 29 10 2013  07 44  -20.9994 26029.4 -03501.9 -07.6624 26263.9
 29 10 2013  07 45  -20.9992 26029.4 -03501.9 -07.6624 26263.9
 29 10 2013  07 46  -20.9991 26029.3 -03502.0 -07.6625 26263.8
 29 10 2013  07 47  -20.9992 26029.3 -03502.0 -07.6626 26263.8
 29 10 2013  07 48  -20.9991 26029.3 -03502.0 -07.6626 26263.8
 29 10 2013  07 49  -20.9990 26029.3 -03502.0 -07.6627 26263.8
 29 10 2013  07 50  -20.9989 26029.3 -03502.1 -07.6627 26263.8
 29 10 2013  07 51  -20.9988 26029.3 -03502.1 -07.6628 26263.9
 29 10 2013  07 52  -20.9988 26029.3 -03502.1 -07.6629 26263.9
 29 10 2013  07 53  -20.9989 26029.4 -03502.2 -07.6630 26263.9
 29 10 2013  07 54  -20.9988 26029.4 -03502.2 -07.6630 26264.0
 29 10 2013  07 55  -20.9987 26029.4 -03502.3 -07.6631 26263.9
 29 10 2013  07 56  -20.9987 26029.4 -03502.3 -07.6633 26264.0
 29 10 2013  07 57  -20.9986 26029.5 -03502.4 -07.6634 26264.0
 29 10 2013  07 58  -20.9986 26029.5 -03502.4 -07.6635 26264.1
 29 10 2013  07 59  -20.9986 26029.5 -03502.5 -07.6636 26264.1
 29 10 2013  08 00  -20.9985 26029.6 -03502.6 -07.6638 26264.2
 29 10 2013  08 01  -20.9984 26029.6 -03502.6 -07.6638 26264.2
 29 10 2013  08 02  -20.9983 26029.7 -03502.6 -07.6638 26264.3
 29 10 2013  08 03  -20.9983 26029.7 -03502.6 -07.6638 26264.3
 29 10 2013  08 04  -20.9983 26029.7 -03502.7 -07.6639 26264.3
 29 10 2013  08 05  -20.9983 26029.8 -03502.7 -07.6640 26264.4
 29 10 2013  08 06  -20.9985 26029.9 -03502.8 -07.6642 26264.6
 29 10 2013  08 07  -20.9985 26029.9 -03502.8 -07.6642 26264.5
 29 10 2013  08 08  -20.9983 26029.8 -03502.7 -07.6640 26264.4
 29 10 2013  08 09  -20.9984 26029.6 -03502.6 -07.6639 26264.2
 29 10 2013  08 10  -20.9985 26029.5 -03502.6 -07.6638 26264.2
 29 10 2013  08 11  -20.9985 26029.7 -03502.7 -07.6640 26264.3
 29 10 2013  08 12  -20.9985 26029.8 -03502.8 -07.6641 26264.4
 29 10 2013  08 13  -20.9985 26029.9 -03502.8 -07.6642 26264.5
 29 10 2013  08 14  -20.9985 26029.8 -03502.7 -07.6640 26264.4
 29 10 2013  08 15  -20.9985 26029.8 -03502.7 -07.6639 26264.5
 29 10 2013  08 16  -20.9985 26030.0 -03502.7 -07.6639 26264.6
 29 10 2013  08 17  -20.9985 26030.1 -03502.7 -07.6639 26264.7
 29 10 2013  08 18  -20.9983 26030.1 -03502.7 -07.6638 26264.7
 29 10 2013  08 19  -20.9981 26030.1 -03502.6 -07.6636 26264.7
 29 10 2013  08 20  -20.9980 26030.0 -03502.5 -07.6635 26264.5
 29 10 2013  08 21  -20.9979 26029.9 -03502.4 -07.6633 26264.4
 29 10 2013  08 22  -20.9977 26029.9 -03502.4 -07.6633 26264.4
 29 10 2013  08 23  -20.9976 26029.9 -03502.4 -07.6633 26264.5
 29 10 2013  08 24  -20.9973 26030.1 -03502.4 -07.6632 26264.6
 29 10 2013  08 25  -20.9969 26030.1 -03502.4 -07.6633 26264.7
 29 10 2013  08 26  -20.9968 26030.1 -03502.4 -07.6633 26264.7
 29 10 2013  08 27  -20.9966 26030.2 -03502.5 -07.6633 26264.8
 29 10 2013  08 28  -20.9964 26030.4 -03502.6 -07.6635 26265.0
 29 10 2013  08 29  -20.9961 26030.5 -03502.7 -07.6637 26265.2
 29 10 2013  08 30  -20.9959 26030.8 -03502.9 -07.6640 26265.4
 29 10 2013  08 31  -20.9955 26030.9 -03503.0 -07.6643 26265.5
 29 10 2013  08 32  -20.9950 26031.0 -03503.1 -07.6645 26265.7
 29 10 2013  08 33  -20.9948 26031.3 -03503.3 -07.6648 26266.0
 29 10 2013  08 34  -20.9944 26031.4 -03503.4 -07.6651 26266.1
 29 10 2013  08 35  -20.9944 26031.0 -03503.3 -07.6649 26265.7
 29 10 2013  08 36  -20.9949 26030.2 -03502.9 -07.6643 26264.8
 29 10 2013  08 37  -20.9951 26029.0 -03502.3 -07.6634 26263.6
 29 10 2013  08 38  -20.9945 26028.0 -03501.9 -07.6628 26262.5
 29 10 2013  08 39  -20.9930 26027.3 -03501.8 -07.6627 26261.9
 29 10 2013  08 40  -20.9919 26027.2 -03502.1 -07.6634 26261.7
 29 10 2013  08 41  -20.9909 26027.0 -03502.3 -07.6640 26261.6
 29 10 2013  08 42  -20.9909 26027.0 -03502.7 -07.6647 26261.6
 29 10 2013  08 43  -20.9915 26027.1 -03503.0 -07.6654 26261.8
 29 10 2013  08 44  -20.9919 26027.1 -03503.0 -07.6654 26261.8
 29 10 2013  08 45  -20.9922 26027.2 -03503.4 -07.6661 26261.9
 29 10 2013  08 46  -20.9925 26027.1 -03503.5 -07.6664 26261.9
 29 10 2013  08 47  -20.9929 26027.1 -03503.6 -07.6667 26261.9
 29 10 2013  08 48  -20.9929 26026.9 -03503.6 -07.6667 26261.7
 29 10 2013  08 49  -20.9933 26026.7 -03503.6 -07.6667 26261.4
 29 10 2013  08 50  -20.9941 26026.6 -03503.6 -07.6669 26261.4
 29 10 2013  08 51  -20.9951 26026.8 -03503.7 -07.6671 26261.5
 29 10 2013  08 52  -20.9959 26026.9 -03503.9 -07.6673 26261.7
 29 10 2013  08 53  -20.9966 26027.0 -03504.0 -07.6675 26261.8
 29 10 2013  08 54  -20.9974 26027.2 -03504.0 -07.6675 26262.0
 29 10 2013  08 55  -20.9981 26027.2 -03504.1 -07.6677 26262.0
 29 10 2013  08 56  -20.9986 26027.2 -03504.1 -07.6677 26262.0
 29 10 2013  08 57  -20.9990 26027.4 -03504.2 -07.6678 26262.2
 29 10 2013  08 58  -20.9991 26027.5 -03504.2 -07.6678 26262.3
 29 10 2013  08 59  -20.9992 26027.4 -03504.2 -07.6678 26262.2
 29 10 2013  09 00  -20.9992 26027.3 -03504.1 -07.6678 26262.2
 29 10 2013  09 01  -20.9995 26027.3 -03504.2 -07.6678 26262.1
 29 10 2013  09 02  -20.9999 26027.3 -03504.3 -07.6680 26262.2
 29 10 2013  09 03  -21.0004 26027.6 -03504.4 -07.6683 26262.4
 29 10 2013  09 04  -21.0011 26027.9 -03504.6 -07.6686 26262.8
 29 10 2013  09 05  -21.0016 26028.1 -03504.6 -07.6687 26263.0
 29 10 2013  09 06  -21.0022 26028.3 -03504.7 -07.6687 26263.2
 29 10 2013  09 07  -21.0026 26028.5 -03504.7 -07.6686 26263.4
 29 10 2013  09 08  -21.0029 26028.6 -03504.7 -07.6686 26263.5
 29 10 2013  09 09  -21.0034 26028.8 -03504.8 -07.6687 26263.7
 29 10 2013  09 10  -21.0040 26029.1 -03504.9 -07.6688 26264.0
 29 10 2013  09 11  -21.0045 26029.4 -03504.9 -07.6688 26264.3
 29 10 2013  09 12  -21.0050 26029.5 -03504.9 -07.6688 26264.5
 29 10 2013  09 13  -21.0054 26029.7 -03504.9 -07.6688 26264.6
 29 10 2013  09 14  -21.0058 26029.9 -03504.7 -07.6683 26264.8
 29 10 2013  09 15  -21.0060 26030.1 -03504.9 -07.6686 26265.0
 29 10 2013  09 16  -21.0065 26030.2 -03504.9 -07.6686 26265.1
 29 10 2013  09 17  -21.0070 26030.3 -03504.9 -07.6686 26265.2
 29 10 2013  09 18  -21.0072 26030.2 -03504.8 -07.6684 26265.0
 29 10 2013  09 19  -21.0075 26030.1 -03504.7 -07.6682 26265.0
 29 10 2013  09 20  -21.0077 26030.1 -03504.7 -07.6682 26264.9
 29 10 2013  09 21  -21.0080 26030.1 -03504.7 -07.6683 26265.0
 29 10 2013  09 22  -21.0085 26030.2 -03504.8 -07.6683 26265.1
 29 10 2013  09 23  -21.0090 26030.4 -03504.9 -07.6685 26265.3
 29 10 2013  09 24  -21.0095 26030.5 -03504.9 -07.6685 26265.4
 29 10 2013  09 25  -21.0099 26030.5 -03504.9 -07.6684 26265.4
 29 10 2013  09 26  -21.0099 26030.5 -03504.9 -07.6684 26265.4
 29 10 2013  09 27  -21.0102 26030.6 -03504.8 -07.6682 26265.4
 29 10 2013  09 28  -21.0105 26030.6 -03504.9 -07.6685 26265.5
 29 10 2013  09 29  -21.0107 26030.7 -03505.0 -07.6686 26265.6
 29 10 2013  09 30  -21.0106 26030.7 -03505.0 -07.6686 26265.6
 29 10 2013  09 31  -21.0107 26030.7 -03505.0 -07.6687 26265.6
 29 10 2013  09 32  -21.0109 26030.8 -03505.1 -07.6689 26265.7
 29 10 2013  09 33  -21.0112 26031.1 -03505.3 -07.6693 26266.1
 29 10 2013  09 34  -21.0115 26031.4 -03505.5 -07.6695 26266.3
 29 10 2013  09 35  -21.0120 26031.5 -03505.6 -07.6696 26266.4
 29 10 2013  09 36  -21.0125 26031.6 -03505.6 -07.6696 26266.6
 29 10 2013  09 37  -21.0126 26031.8 -03505.6 -07.6696 26266.7
 29 10 2013  09 38  -21.0125 26031.9 -03505.6 -07.6697 26266.9
 29 10 2013  09 39  -21.0124 26032.1 -03505.8 -07.6700 26267.1
 29 10 2013  09 40  -21.0132 26032.6 -03506.2 -07.6706 26267.7
 29 10 2013  09 41  -21.0133 26032.8 -03506.2 -07.6705 26267.8
 29 10 2013  09 42  -21.0143 26032.8 -03505.9 -07.6700 26267.8
 29 10 2013  09 43  -21.0146 26032.8 -03505.7 -07.6695 26267.7
 29 10 2013  09 44  -21.0147 26032.7 -03505.6 -07.6693 26267.7
 29 10 2013  09 45  -21.0144 26032.4 -03505.5 -07.6693 26267.4
 29 10 2013  09 46  -21.0139 26031.9 -03505.5 -07.6693 26266.9
 29 10 2013  09 47  -21.0138 26031.6 -03505.6 -07.6696 26266.6
 29 10 2013  09 48  -21.0140 26031.7 -03505.7 -07.6699 26266.7
 29 10 2013  09 49  -21.0141 26032.0 -03505.9 -07.6703 26267.0
 29 10 2013  09 50  -21.0141 26032.4 -03506.1 -07.6706 26267.4
 29 10 2013  09 51  -21.0143 26032.7 -03506.3 -07.6709 26267.8
 29 10 2013  09 52  -21.0143 26032.8 -03506.4 -07.6710 26267.9
 29 10 2013  09 53  -21.0139 26033.1 -03506.5 -07.6712 26268.2
 29 10 2013  09 54  -21.0135 26033.0 -03506.4 -07.6710 26268.1
 29 10 2013  09 55  -21.0143 26033.4 -03506.6 -07.6712 26268.5
 29 10 2013  09 56  -21.0141 26033.9 -03506.7 -07.6714 26269.0
 29 10 2013  09 57  -21.0138 26033.8 -03506.7 -07.6714 26268.9
 29 10 2013  09 58  -21.0136 26033.8 -03506.7 -07.6714 26268.9
 29 10 2013  09 59  -21.0138 26033.8 -03506.8 -07.6716 26268.9
 29 10 2013  10 00  -21.0139 26033.9 -03506.9 -07.6717 26269.1
 29 10 2013  10 01  -21.0137 26034.5 -03507.1 -07.6721 26269.7
 29 10 2013  10 02  -21.0138 26034.3 -03507.1 -07.6721 26269.4
 29 10 2013  10 03  -21.0135 26034.7 -03507.3 -07.6724 26269.9
 29 10 2013  10 04  -21.0133 26034.8 -03507.3 -07.6725 26270.0
 29 10 2013  10 05  -21.0130 26035.0 -03507.4 -07.6726 26270.2
 29 10 2013  10 06  -21.0129 26035.2 -03507.5 -07.6729 26270.4
 29 10 2013  10 07  -21.0133 26034.9 -03507.5 -07.6729 26270.2
 29 10 2013  10 08  -21.0132 26035.4 -03507.9 -07.6735 26270.7
 29 10 2013  10 09  -21.0126 26035.2 -03507.9 -07.6736 26270.5
 29 10 2013  10 10  -21.0125 26035.2 -03508.0 -07.6738 26270.5
 29 10 2013  10 11  -21.0127 26035.3 -03508.1 -07.6740 26270.6
 29 10 2013  10 12  -21.0123 26035.9 -03508.4 -07.6745 26271.2
 29 10 2013  10 13  -21.0123 26035.7 -03508.3 -07.6742 26271.0
 29 10 2013  10 14  -21.0125 26035.8 -03508.3 -07.6742 26271.1
 29 10 2013  10 15  -21.0125 26036.0 -03508.3 -07.6743 26271.3
 29 10 2013  10 16  -21.0127 26036.2 -03508.5 -07.6746 26271.6
 29 10 2013  10 17  -21.0132 26036.7 -03508.7 -07.6749 26272.1
 29 10 2013  10 18  -21.0134 26037.0 -03508.8 -07.6750 26272.3
 29 10 2013  10 19  -21.0143 26037.3 -03508.8 -07.6750 26272.7
 29 10 2013  10 20  -21.0147 26038.0 -03509.1 -07.6753 26273.4
 29 10 2013  10 21  -21.0143 26038.4 -03509.1 -07.6752 26273.8
 29 10 2013  10 22  -21.0141 26038.3 -03508.9 -07.6749 26273.6
 29 10 2013  10 23  -21.0136 26038.4 -03508.9 -07.6748 26273.7
 29 10 2013  10 24  -21.0128 26038.3 -03508.8 -07.6747 26273.7
 29 10 2013  10 25  -21.0122 26038.5 -03508.9 -07.6748 26273.9
 29 10 2013  10 26  -21.0125 26038.9 -03509.0 -07.6749 26274.2
 29 10 2013  10 27  -21.0132 26039.7 -03509.2 -07.6752 26275.1
 29 10 2013  10 28  -21.0137 26040.4 -03509.5 -07.6755 26275.8
 29 10 2013  10 29  -21.0142 26041.2 -03509.7 -07.6757 26276.6
 29 10 2013  10 30  -21.0137 26041.6 -03509.6 -07.6755 26277.0
 29 10 2013  10 31  -21.0129 26041.7 -03509.4 -07.6749 26277.1
 29 10 2013  10 32  -21.0123 26041.7 -03509.2 -07.6745 26277.0
 29 10 2013  10 33  -21.0127 26041.9 -03509.1 -07.6743 26277.3
 29 10 2013  10 34  -21.0127 26042.0 -03509.1 -07.6743 26277.4
 29 10 2013  10 35  -21.0130 26043.0 -03509.5 -07.6748 26278.4
 29 10 2013  10 36  -21.0158 26046.9 -03510.9 -07.6767 26282.4
 29 10 2013  10 37  -21.0217 26052.8 -03513.5 -07.6806 26288.7
 29 10 2013  10 38  -21.0146 26051.0 -03512.3 -07.6785 26286.7
 29 10 2013  10 39  -20.9997 26046.6 -03509.9 -07.6747 26282.0
 29 10 2013  10 40  -20.9972 26045.4 -03509.6 -07.6743 26280.8
 29 10 2013  10 41  -21.0029 26048.5 -03511.2 -07.6769 26284.0
 29 10 2013  10 42  -21.0068 26050.2 -03511.7 -07.6774 26285.8
 29 10 2013  10 43  -21.0090 26050.9 -03511.4 -07.6766 26286.5
 29 10 2013  10 44  -21.0107 26051.9 -03511.1 -07.6757 26287.4
 29 10 2013  10 45  -21.0142 26053.6 -03511.2 -07.6754 26289.2
 29 10 2013  10 46  -21.0170 26055.2 -03511.1 -07.6748 26290.7
 29 10 2013  10 47  -21.0164 26055.9 -03510.7 -07.6736 26291.4
 29 10 2013  10 48  -21.0145 26055.6 -03509.9 -07.6720 26290.9
 29 10 2013  10 49  -21.0140 26055.5 -03509.4 -07.6710 26290.8
 29 10 2013  10 50  -21.0134 26055.7 -03509.2 -07.6704 26290.9
 29 10 2013  10 51  -21.0119 26055.0 -03508.5 -07.6692 26290.2
 29 10 2013  10 52  -21.0121 26055.0 -03508.3 -07.6688 26290.1
 29 10 2013  10 53  -21.0129 26055.7 -03508.4 -07.6688 26290.9
 29 10 2013  10 54  -21.0126 26056.5 -03508.5 -07.6686 26291.7
 29 10 2013  10 55  -21.0125 26057.4 -03508.4 -07.6683 26292.5
 29 10 2013  10 56  -21.0126 26058.2 -03508.4 -07.6681 26293.3
 29 10 2013  10 57  -21.0130 26059.0 -03508.5 -07.6681 26294.1
 29 10 2013  10 58  -21.0121 26059.3 -03508.5 -07.6679 26294.4
 29 10 2013  10 59  -21.0114 26059.3 -03508.2 -07.6673 26294.4
 29 10 2013  11 00  -21.0112 26059.9 -03508.2 -07.6671 26295.0
 29 10 2013  11 01  -21.0112 26060.2 -03508.0 -07.6666 26295.2
 29 10 2013  11 02  -21.0110 26060.3 -03507.8 -07.6660 26295.3
 29 10 2013  11 03  -21.0102 26060.4 -03507.3 -07.6651 26295.3
 29 10 2013  11 04  -21.0114 26060.6 -03507.1 -07.6646 26295.5
 29 10 2013  11 05  -21.0120 26060.3 -03506.8 -07.6640 26295.2
 29 10 2013  11 06  -21.0119 26060.2 -03506.7 -07.6636 26295.1
 29 10 2013  11 07  -21.0121 26060.3 -03506.6 -07.6634 26295.2
 29 10 2013  11 08  -21.0122 26060.5 -03506.5 -07.6632 26295.3
 29 10 2013  11 09  -21.0122 26060.4 -03506.2 -07.6627 26295.2
 29 10 2013  11 10  -21.0111 26059.6 -03505.5 -07.6613 26294.3
 29 10 2013  11 11  -21.0128 26059.7 -03505.3 -07.6609 26294.4
 29 10 2013  11 12  -21.0146 26060.6 -03505.9 -07.6619 26295.4
 29 10 2013  11 13  -21.0158 26063.0 -03507.1 -07.6637 26297.9
 29 10 2013  11 14  -21.0167 26066.0 -03508.5 -07.6659 26301.1
 29 10 2013  11 15  -21.0133 26066.1 -03508.2 -07.6653 26301.1
 29 10 2013  11 16  -21.0109 26065.5 -03507.3 -07.6635 26300.4
 29 10 2013  11 17  -21.0082 26064.1 -03506.0 -07.6610 26298.8
 29 10 2013  11 18  -21.0106 26063.1 -03505.0 -07.6592 26297.7
 29 10 2013  11 19  -21.0142 26062.1 -03504.3 -07.6580 26296.6
 29 10 2013  11 20  -21.0156 26060.4 -03503.5 -07.6569 26294.9
 29 10 2013  11 21  -21.0169 26059.4 -03503.3 -07.6568 26293.8
 29 10 2013  11 22  -21.0158 26059.3 -03503.6 -07.6573 26293.8
 29 10 2013  11 23  -21.0147 26059.0 -03503.8 -07.6578 26293.5
 29 10 2013  11 24  -21.0148 26058.7 -03504.1 -07.6585 26293.2
 29 10 2013  11 25  -21.0129 26058.6 -03504.4 -07.6592 26293.2
 29 10 2013  11 26  -21.0103 26058.2 -03504.3 -07.6591 26292.8
 29 10 2013  11 27  -21.0091 26058.7 -03504.5 -07.6595 26293.3
 29 10 2013  11 28  -21.0095 26060.2 -03505.1 -07.6602 26294.8
 29 10 2013  11 29  -21.0112 26061.9 -03505.5 -07.6607 26296.6
 29 10 2013  11 30  -21.0125 26064.0 -03506.0 -07.6612 26298.8
 29 10 2013  11 31  -21.0127 26066.0 -03506.2 -07.6610 26300.8
 29 10 2013  11 32  -21.0131 26067.1 -03506.0 -07.6602 26301.8
 29 10 2013  11 33  -21.0129 26067.7 -03505.5 -07.6590 26302.3
 29 10 2013  11 34  -21.0127 26068.5 -03505.2 -07.6581 26303.1
 29 10 2013  11 35  -21.0137 26069.8 -03505.2 -07.6578 26304.4
 29 10 2013  11 36  -21.0138 26070.1 -03504.8 -07.6567 26304.7
 29 10 2013  11 37  -21.0130 26070.0 -03504.2 -07.6554 26304.5
 29 10 2013  11 38  -21.0126 26070.8 -03504.0 -07.6549 26305.2
 29 10 2013  11 39  -21.0130 26072.0 -03504.2 -07.6549 26306.4
 29 10 2013  11 40  -21.0129 26073.0 -03504.2 -07.6546 26307.4
 29 10 2013  11 41  -21.0124 26074.0 -03504.1 -07.6541 26308.4
 29 10 2013  11 42  -21.0122 26074.7 -03504.0 -07.6536 26309.1
 29 10 2013  11 43  -21.0128 26075.3 -03503.8 -07.6532 26309.7
 29 10 2013  11 44  -21.0121 26076.1 -03503.8 -07.6529 26310.5
 29 10 2013  11 45  -21.0099 26076.3 -03503.3 -07.6517 26310.6
 29 10 2013  11 46  -21.0087 26076.5 -03502.8 -07.6506 26310.7
 29 10 2013  11 47  -21.0089 26077.8 -03503.1 -07.6508 26312.0
 29 10 2013  11 48  -21.0087 26079.3 -03503.4 -07.6510 26313.6
 29 10 2013  11 49  -21.0077 26079.9 -03503.0 -07.6501 26314.1
 29 10 2013  11 50  -21.0075 26079.4 -03502.4 -07.6489 26313.5
 29 10 2013  11 51  -21.0079 26078.8 -03501.9 -07.6481 26312.8
 29 10 2013  11 52  -21.0089 26079.9 -03502.5 -07.6489 26314.1
 29 10 2013  11 53  -21.0087 26079.8 -03502.2 -07.6484 26313.9
 29 10 2013  11 54  -21.0087 26078.1 -03501.3 -07.6469 26312.1
 29 10 2013  11 55  -21.0090 26077.2 -03501.0 -07.6465 26311.2
 29 10 2013  11 56  -21.0094 26076.9 -03501.1 -07.6467 26310.9
 29 10 2013  11 57  -21.0099 26076.0 -03500.9 -07.6466 26310.0
 29 10 2013  11 58  -21.0106 26074.8 -03500.6 -07.6463 26308.7
 29 10 2013  11 59  -21.0111 26074.0 -03500.6 -07.6465 26308.0
 29 10 2013  12 00  -21.0116 26073.9 -03500.9 -07.6472 26307.9
 29 10 2013  12 01  -21.0116 26073.9 -03501.1 -07.6476 26307.9
 29 10 2013  12 02  -21.0118 26073.5 -03501.1 -07.6477 26307.5
 29 10 2013  12 03  -21.0121 26073.4 -03501.1 -07.6479 26307.4
 29 10 2013  12 04  -21.0129 26073.9 -03501.5 -07.6485 26307.9
 29 10 2013  12 05  -21.0132 26074.4 -03501.8 -07.6490 26308.5
 29 10 2013  12 06  -21.0132 26075.0 -03501.9 -07.6492 26309.1
 29 10 2013  12 07  -21.0136 26074.8 -03501.7 -07.6486 26308.8
 29 10 2013  12 08  -21.0138 26073.9 -03501.1 -07.6476 26307.9
 29 10 2013  12 09  -21.0138 26072.9 -03500.6 -07.6469 26306.8
 29 10 2013  12 10  -21.0138 26072.0 -03500.3 -07.6465 26305.9
 29 10 2013  12 11  -21.0138 26071.0 -03500.1 -07.6464 26304.9
 29 10 2013  12 12  -21.0141 26069.2 -03499.8 -07.6461 26303.1
 29 10 2013  12 13  -21.0144 26067.9 -03499.7 -07.6463 26301.8
 29 10 2013  12 14  -21.0143 26067.1 -03499.8 -07.6468 26300.9
 29 10 2013  12 15  -21.0146 26066.2 -03499.9 -07.6472 26300.1
 29 10 2013  12 16  -21.0149 26065.7 -03500.1 -07.6478 26299.7
 29 10 2013  12 17  -21.0155 26065.7 -03500.4 -07.6485 26299.7
 29 10 2013  12 18  -21.0161 26065.9 -03500.7 -07.6492 26299.9
 29 10 2013  12 19  -21.0165 26066.4 -03501.1 -07.6499 26300.4
 29 10 2013  12 20  -21.0170 26067.0 -03501.4 -07.6504 26301.1
 29 10 2013  12 21  -21.0174 26067.7 -03501.7 -07.6508 26301.9
 29 10 2013  12 22  -21.0176 26069.1 -03502.1 -07.6513 26303.3
 29 10 2013  12 23  -21.0176 26069.5 -03502.1 -07.6511 26303.7
 29 10 2013  12 24  -21.0173 26070.3 -03502.2 -07.6510 26304.5
 29 10 2013  12 25  -21.0168 26070.9 -03502.1 -07.6508 26305.1
 29 10 2013  12 26  -21.0168 26071.3 -03502.1 -07.6506 26305.5
 29 10 2013  12 27  -21.0169 26071.7 -03502.2 -07.6506 26305.9
 29 10 2013  12 28  -21.0163 26072.1 -03502.2 -07.6506 26306.3
 29 10 2013  12 29  -21.0159 26072.9 -03502.4 -07.6508 26307.1
 29 10 2013  12 30  -21.0152 26074.1 -03502.6 -07.6508 26308.3
 29 10 2013  12 31  -21.0147 26073.6 -03502.0 -07.6496 26307.8
 29 10 2013  12 32  -21.0147 26073.3 -03501.6 -07.6489 26307.4
 29 10 2013  12 33  -21.0150 26073.8 -03501.6 -07.6488 26307.8
 29 10 2013  12 34  -21.0155 26074.2 -03501.5 -07.6485 26308.2
 29 10 2013  12 35  -21.0160 26073.9 -03501.0 -07.6475 26307.9
 29 10 2013  12 36  -21.0163 26072.8 -03500.2 -07.6460 26306.7
 29 10 2013  12 37  -21.0166 26071.7 -03499.6 -07.6452 26305.6
 29 10 2013  12 38  -21.0171 26071.5 -03499.7 -07.6453 26305.3
 29 10 2013  12 39  -21.0175 26072.2 -03500.0 -07.6458 26306.0
 29 10 2013  12 40  -21.0179 26073.0 -03500.1 -07.6459 26306.9
 29 10 2013  12 41  -21.0181 26074.1 -03500.3 -07.6459 26308.0
 29 10 2013  12 42  -21.0181 26074.7 -03500.1 -07.6454 26308.6
 29 10 2013  12 43  -21.0180 26075.3 -03499.8 -07.6445 26309.1
 29 10 2013  12 44  -21.0174 26075.2 -03499.1 -07.6430 26308.9
 29 10 2013  12 45  -21.0168 26074.6 -03498.3 -07.6414 26308.2
 29 10 2013  12 46  -21.0167 26073.5 -03497.5 -07.6401 26307.1
 29 10 2013  12 47  -21.0169 26072.3 -03496.9 -07.6391 26305.8
 29 10 2013  12 48  -21.0175 26071.9 -03496.9 -07.6392 26305.4
 29 10 2013  12 49  -21.0182 26072.4 -03497.3 -07.6399 26305.9
 29 10 2013  12 50  -21.0189 26073.9 -03498.0 -07.6410 26307.4
 29 10 2013  12 51  -21.0189 26075.6 -03498.4 -07.6415 26309.3
 29 10 2013  12 52  -21.0185 26076.7 -03498.3 -07.6408 26310.3
 29 10 2013  12 53  -21.0181 26077.3 -03497.8 -07.6396 26310.9
 29 10 2013  12 54  -21.0181 26078.8 -03497.8 -07.6392 26312.3
 29 10 2013  12 55  -21.0182 26080.3 -03497.9 -07.6388 26313.9
 29 10 2013  12 56  -21.0181 26080.9 -03497.4 -07.6377 26314.4
 29 10 2013  12 57  -21.0181 26081.2 -03496.9 -07.6365 26314.5
 29 10 2013  12 58  -21.0180 26081.3 -03496.4 -07.6353 26314.6
 29 10 2013  12 59  -21.0181 26080.8 -03495.7 -07.6339 26314.0
 29 10 2013  13 00  -21.0181 26080.3 -03495.0 -07.6328 26313.4
 29 10 2013  13 01  -21.0180 26079.9 -03494.6 -07.6319 26313.0
 29 10 2013  13 02  -21.0179 26079.5 -03494.3 -07.6314 26312.6
 29 10 2013  13 03  -21.0180 26079.9 -03494.3 -07.6314 26312.9
 29 10 2013  13 04  -21.0181 26080.4 -03494.4 -07.6314 26313.4
 29 10 2013  13 05  -21.0178 26080.6 -03494.2 -07.6309 26313.7
 29 10 2013  13 06  -21.0178 26081.1 -03494.1 -07.6305 26314.1
 29 10 2013  13 07  -21.0175 26081.3 -03493.9 -07.6300 26314.3
 29 10 2013  13 08  -21.0171 26081.0 -03493.4 -07.6291 26313.9
 29 10 2013  13 09  -21.0167 26081.1 -03493.3 -07.6287 26314.0
 29 10 2013  13 10  -21.0164 26081.3 -03493.1 -07.6282 26314.2
 29 10 2013  13 11  -21.0160 26081.4 -03492.8 -07.6275 26314.2
 29 10 2013  13 12  -21.0157 26081.3 -03492.5 -07.6270 26314.1
 29 10 2013  13 13  -21.0157 26081.0 -03492.1 -07.6262 26313.7
 29 10 2013  13 14  -21.0159 26081.0 -03491.9 -07.6258 26313.7
 29 10 2013  13 15  -21.0157 26080.6 -03491.5 -07.6250 26313.3
 29 10 2013  13 16  -21.0156 26080.1 -03491.0 -07.6241 26312.7
 29 10 2013  13 17  -21.0153 26080.2 -03490.9 -07.6239 26312.8
 29 10 2013  13 18  -21.0150 26080.3 -03490.9 -07.6239 26312.9
 29 10 2013  13 19  -21.0149 26081.7 -03491.3 -07.6244 26314.3
 29 10 2013  13 20  -21.0146 26082.8 -03491.4 -07.6241 26315.4
 29 10 2013  13 21  -21.0138 26083.0 -03490.9 -07.6230 26315.5
 29 10 2013  13 22  -21.0129 26082.5 -03490.2 -07.6216 26315.0
 29 10 2013  13 23  -21.0123 26082.1 -03489.7 -07.6207 26314.5
 29 10 2013  13 24  -21.0118 26081.4 -03489.1 -07.6197 26313.7
 29 10 2013  13 25  -21.0119 26081.8 -03489.2 -07.6197 26314.2
 29 10 2013  13 26  -21.0117 26082.0 -03489.0 -07.6191 26314.4
 29 10 2013  13 27  -21.0112 26081.2 -03488.3 -07.6180 26313.4
 29 10 2013  13 28  -21.0109 26081.5 -03488.4 -07.6180 26313.8
 29 10 2013  13 29  -21.0105 26082.3 -03488.6 -07.6183 26314.6
 29 10 2013  13 30  -21.0100 26082.2 -03488.2 -07.6175 26314.5
 29 10 2013  13 31  -21.0097 26081.9 -03487.8 -07.6166 26314.1
 29 10 2013  13 32  -21.0094 26081.8 -03487.6 -07.6162 26313.9
 29 10 2013  13 33  -21.0094 26082.3 -03487.6 -07.6161 26314.5
 29 10 2013  13 34  -21.0096 26083.2 -03487.8 -07.6162 26315.3
 29 10 2013  13 35  -21.0096 26083.9 -03487.6 -07.6158 26316.0
 29 10 2013  13 36  -21.0089 26084.3 -03487.4 -07.6151 26316.4
 29 10 2013  13 37  -21.0083 26084.3 -03487.0 -07.6142 26316.3
 29 10 2013  13 38  -21.0079 26084.3 -03486.7 -07.6135 26316.3
 29 10 2013  13 39  -21.0076 26084.3 -03486.3 -07.6128 26316.2
 29 10 2013  13 40  -21.0071 26083.9 -03485.9 -07.6120 26315.8
 29 10 2013  13 41  -21.0066 26083.8 -03485.7 -07.6116 26315.7
 29 10 2013  13 42  -21.0063 26084.3 -03485.7 -07.6115 26316.2
 29 10 2013  13 43  -21.0060 26085.2 -03485.9 -07.6115 26317.1
 29 10 2013  13 44  -21.0055 26085.6 -03485.7 -07.6111 26317.5
 29 10 2013  13 45  -21.0046 26085.9 -03485.5 -07.6105 26317.8
 29 10 2013  13 46  -21.0041 26086.3 -03485.3 -07.6100 26318.1
 29 10 2013  13 47  -21.0035 26086.5 -03485.1 -07.6095 26318.2
 29 10 2013  13 48  -21.0028 26086.3 -03484.7 -07.6087 26318.0
 29 10 2013  13 49  -21.0022 26086.4 -03484.5 -07.6083 26318.1
 29 10 2013  13 50  -21.0019 26086.4 -03484.3 -07.6079 26318.0
 29 10 2013  13 51  -21.0014 26086.6 -03484.2 -07.6076 26318.2
 29 10 2013  13 52  -21.0008 26086.7 -03484.1 -07.6073 26318.4
 29 10 2013  13 53  -21.0005 26086.9 -03484.0 -07.6070 26318.6
 29 10 2013  13 54  -21.0003 26087.0 -03483.8 -07.6066 26318.6
 29 10 2013  13 55  -20.9996 26086.8 -03483.5 -07.6061 26318.4
 29 10 2013  13 56  -20.9991 26086.5 -03483.3 -07.6056 26318.0
 29 10 2013  13 57  -20.9988 26086.3 -03483.1 -07.6053 26317.8
 29 10 2013  13 58  -20.9984 26086.4 -03483.1 -07.6053 26317.9
 29 10 2013  13 59  -20.9980 26086.4 -03483.1 -07.6052 26317.9
 29 10 2013  14 00  -20.9980 26086.8 -03483.3 -07.6055 26318.3
 29 10 2013  14 01  -20.9980 26087.5 -03483.5 -07.6057 26319.1
 29 10 2013  14 02  -20.9977 26088.0 -03483.5 -07.6055 26319.5
 29 10 2013  14 03  -20.9974 26087.9 -03483.2 -07.6050 26319.5
 29 10 2013  14 04  -20.9971 26087.9 -03483.0 -07.6046 26319.4
 29 10 2013  14 05  -20.9969 26087.7 -03482.8 -07.6042 26319.1
 29 10 2013  14 06  -20.9966 26087.5 -03482.6 -07.6038 26318.9
 29 10 2013  14 07  -20.9963 26087.5 -03482.4 -07.6035 26318.9
 29 10 2013  14 08  -20.9958 26087.5 -03482.4 -07.6034 26318.9
 29 10 2013  14 09  -20.9951 26087.2 -03482.2 -07.6030 26318.5
 29 10 2013  14 10  -20.9945 26087.1 -03482.1 -07.6028 26318.5
 29 10 2013  14 11  -20.9940 26087.0 -03481.9 -07.6026 26318.3
 29 10 2013  14 12  -20.9934 26086.7 -03481.8 -07.6022 26318.0
 29 10 2013  14 13  -20.9928 26086.6 -03481.7 -07.6021 26317.9
 29 10 2013  14 14  -20.9924 26086.8 -03481.7 -07.6020 26318.1
 29 10 2013  14 15  -20.9918 26086.8 -03481.6 -07.6018 26318.1
 29 10 2013  14 16  -20.9914 26086.8 -03481.5 -07.6017 26318.0
 29 10 2013  14 17  -20.9912 26086.6 -03481.5 -07.6017 26317.9
 29 10 2013  14 18  -20.9908 26086.3 -03481.4 -07.6015 26317.6
 29 10 2013  14 19  -20.9904 26086.0 -03481.2 -07.6013 26317.2
 29 10 2013  14 20  -20.9899 26085.8 -03481.2 -07.6013 26317.0
 29 10 2013  14 21  -20.9892 26085.7 -03481.2 -07.6013 26316.9
 29 10 2013  14 22  -20.9886 26085.4 -03481.1 -07.6013 26316.7
 29 10 2013  14 23  -20.9877 26085.0 -03481.0 -07.6010 26316.3
 29 10 2013  14 24  -20.9868 26084.5 -03480.8 -07.6009 26315.8
 29 10 2013  14 25  -20.9862 26084.6 -03481.0 -07.6012 26315.8
 29 10 2013  14 26  -20.9860 26084.7 -03481.2 -07.6016 26316.0
 29 10 2013  14 27  -20.9858 26085.1 -03481.4 -07.6020 26316.4
 29 10 2013  14 28  -20.9855 26085.5 -03481.6 -07.6023 26316.8
 29 10 2013  14 29  -20.9849 26086.0 -03481.8 -07.6025 26317.4
 29 10 2013  14 30  -20.9846 26086.4 -03481.9 -07.6026 26317.8
 29 10 2013  14 31  -20.9843 26086.6 -03481.9 -07.6025 26318.0
 29 10 2013  14 32  -20.9839 26086.6 -03481.7 -07.6021 26318.0
 29 10 2013  14 33  -20.9833 26086.2 -03481.4 -07.6016 26317.5
 29 10 2013  14 34  -20.9828 26086.0 -03481.2 -07.6013 26317.2
 29 10 2013  14 35  -20.9825 26085.6 -03481.1 -07.6010 26316.9
 29 10 2013  14 36  -20.9824 26085.4 -03481.0 -07.6009 26316.6
 29 10 2013  14 37  -20.9822 26085.4 -03481.0 -07.6010 26316.6
 29 10 2013  14 38  -20.9820 26085.5 -03481.1 -07.6011 26316.7
 29 10 2013  14 39  -20.9819 26085.6 -03481.1 -07.6011 26316.8
 29 10 2013  14 40  -20.9816 26085.6 -03481.1 -07.6011 26316.9
 29 10 2013  14 41  -20.9809 26085.5 -03480.9 -07.6007 26316.7
 29 10 2013  14 42  -20.9803 26085.1 -03480.7 -07.6004 26316.3
 29 10 2013  14 43  -20.9795 26084.8 -03480.6 -07.6003 26316.0
 29 10 2013  14 44  -20.9789 26084.4 -03480.5 -07.6003 26315.6
 29 10 2013  14 45  -20.9787 26084.2 -03480.5 -07.6003 26315.4
 29 10 2013  14 46  -20.9785 26084.2 -03480.7 -07.6006 26315.4
 29 10 2013  14 47  -20.9784 26084.0 -03480.6 -07.6006 26315.2
 29 10 2013  14 48  -20.9781 26083.6 -03480.5 -07.6005 26314.8
 29 10 2013  14 49  -20.9777 26083.3 -03480.5 -07.6004 26314.5
 29 10 2013  14 50  -20.9773 26082.9 -03480.4 -07.6004 26314.1
 29 10 2013  14 51  -20.9766 26082.4 -03480.3 -07.6004 26313.6
 29 10 2013  14 52  -20.9761 26082.1 -03480.4 -07.6005 26313.3
 29 10 2013  14 53  -20.9756 26081.7 -03480.4 -07.6007 26312.8
 29 10 2013  14 54  -20.9752 26081.4 -03480.5 -07.6011 26312.6
 29 10 2013  14 55  -20.9748 26081.1 -03480.6 -07.6014 26312.4
 29 10 2013  14 56  -20.9746 26080.9 -03480.7 -07.6017 26312.2
 29 10 2013  14 57  -20.9742 26080.4 -03480.8 -07.6019 26311.7
 29 10 2013  14 58  -20.9736 26079.9 -03480.8 -07.6020 26311.1
 29 10 2013  14 59  -20.9731 26079.4 -03480.8 -07.6023 26310.6
 29 10 2013  15 00  -20.9726 26078.8 -03480.9 -07.6026 26310.1
 29 10 2013  15 01  -20.9720 26078.4 -03481.0 -07.6029 26309.7
 29 10 2013  15 02  -20.9715 26077.9 -03481.1 -07.6034 26309.3
 29 10 2013  15 03  -20.9710 26077.5 -03481.2 -07.6038 26308.9
 29 10 2013  15 04  -20.9706 26077.3 -03481.5 -07.6044 26308.7
 29 10 2013  15 05  -20.9705 26077.0 -03481.6 -07.6048 26308.4
 29 10 2013  15 06  -20.9701 26076.8 -03481.8 -07.6052 26308.2
 29 10 2013  15 07  -20.9697 26076.3 -03481.9 -07.6055 26307.8
 29 10 2013  15 08  -20.9694 26075.9 -03482.0 -07.6059 26307.4
 29 10 2013  15 09  -20.9691 26075.8 -03482.2 -07.6064 26307.3
 29 10 2013  15 10  -20.9689 26075.6 -03482.4 -07.6069 26307.1
 29 10 2013  15 11  -20.9687 26075.2 -03482.5 -07.6071 26306.7
 29 10 2013  15 12  -20.9684 26075.0 -03482.6 -07.6075 26306.5
 29 10 2013  15 13  -20.9683 26075.0 -03482.9 -07.6080 26306.6
 29 10 2013  15 14  -20.9682 26074.9 -03483.0 -07.6084 26306.5
 29 10 2013  15 15  -20.9681 26074.7 -03483.1 -07.6085 26306.3
 29 10 2013  15 16  -20.9678 26074.3 -03483.1 -07.6087 26305.9
 29 10 2013  15 17  -20.9677 26074.2 -03483.3 -07.6092 26305.8
 29 10 2013  15 18  -20.9677 26074.0 -03483.5 -07.6097 26305.7
 29 10 2013  15 19  -20.9673 26073.5 -03483.6 -07.6100 26305.2
 29 10 2013  15 20  -20.9670 26073.2 -03483.8 -07.6104 26305.0
 29 10 2013  15 21  -20.9670 26073.0 -03484.1 -07.6111 26304.8
 29 10 2013  15 22  -20.9673 26073.1 -03484.4 -07.6119 26304.9
 29 10 2013  15 23  -20.9674 26073.0 -03484.6 -07.6123 26304.8
 29 10 2013  15 24  -20.9677 26073.0 -03484.8 -07.6127 26304.8
 29 10 2013  15 25  -20.9680 26072.8 -03484.9 -07.6131 26304.6
 29 10 2013  15 26  -20.9682 26072.5 -03485.1 -07.6135 26304.4
 29 10 2013  15 27  -20.9686 26072.2 -03485.2 -07.6139 26304.2
 29 10 2013  15 28  -20.9689 26072.1 -03485.4 -07.6142 26304.0
 29 10 2013  15 29  -20.9694 26072.1 -03485.6 -07.6147 26304.1
 29 10 2013  15 30  -20.9698 26072.1 -03485.8 -07.6151 26304.0
 29 10 2013  15 31  -20.9703 26072.2 -03485.9 -07.6154 26304.2
 29 10 2013  15 32  -20.9706 26072.2 -03486.0 -07.6156 26304.2
 29 10 2013  15 33  -20.9709 26072.2 -03486.1 -07.6158 26304.2
 29 10 2013  15 34  -20.9714 26072.3 -03486.2 -07.6160 26304.3
 29 10 2013  15 35  -20.9716 26072.2 -03486.2 -07.6160 26304.2
 29 10 2013  15 36  -20.9717 26072.0 -03486.2 -07.6160 26304.0
 29 10 2013  15 37  -20.9720 26071.9 -03486.2 -07.6161 26304.0
 29 10 2013  15 38  -20.9723 26072.0 -03486.2 -07.6161 26304.1
 29 10 2013  15 39  -20.9723 26072.1 -03486.3 -07.6161 26304.2
 29 10 2013  15 40  -20.9724 26072.2 -03486.2 -07.6160 26304.2
 29 10 2013  15 41  -20.9727 26072.4 -03486.3 -07.6161 26304.4
 29 10 2013  15 42  -20.9731 26072.4 -03486.2 -07.6159 26304.4
 29 10 2013  15 43  -20.9735 26072.4 -03486.1 -07.6158 26304.4
 29 10 2013  15 44  -20.9737 26072.1 -03486.0 -07.6155 26304.1
 29 10 2013  15 45  -20.9737 26071.9 -03485.9 -07.6154 26303.9
 29 10 2013  15 46  -20.9737 26071.8 -03485.9 -07.6154 26303.8
 29 10 2013  15 47  -20.9737 26071.5 -03485.7 -07.6152 26303.5
 29 10 2013  15 48  -20.9736 26071.4 -03485.7 -07.6152 26303.4
 29 10 2013  15 49  -20.9736 26071.2 -03485.7 -07.6152 26303.2
 29 10 2013  15 50  -20.9735 26071.0 -03485.7 -07.6153 26303.0
 29 10 2013  15 51  -20.9732 26070.8 -03485.6 -07.6152 26302.8
 29 10 2013  15 52  -20.9727 26070.9 -03485.7 -07.6153 26302.9
 29 10 2013  15 53  -20.9724 26070.8 -03485.7 -07.6154 26302.8
 29 10 2013  15 54  -20.9722 26070.5 -03485.7 -07.6154 26302.5
 29 10 2013  15 55  -20.9717 26070.5 -03485.7 -07.6155 26302.5
 29 10 2013  15 56  -20.9717 26070.3 -03485.7 -07.6155 26302.3
 29 10 2013  15 57  -20.9712 26070.3 -03485.8 -07.6157 26302.3
 29 10 2013  15 58  -20.9703 26070.2 -03485.9 -07.6159 26302.2
 29 10 2013  15 59  -20.9695 26069.8 -03485.8 -07.6159 26301.8
 29 10 2013  16 00  -20.9689 26069.3 -03485.8 -07.6160 26301.3
 29 10 2013  16 01  -20.9683 26069.2 -03486.0 -07.6163 26301.3
 29 10 2013  16 02  -20.9680 26069.0 -03486.1 -07.6167 26301.1
 29 10 2013  16 03  -20.9676 26068.5 -03486.1 -07.6168 26300.6
 29 10 2013  16 04  -20.9671 26068.1 -03486.1 -07.6169 26300.1
 29 10 2013  16 05  -20.9670 26067.7 -03486.2 -07.6173 26299.8
 29 10 2013  16 06  -20.9672 26067.4 -03486.3 -07.6177 26299.5
 29 10 2013  16 07  -20.9667 26066.8 -03486.3 -07.6179 26298.9
 29 10 2013  16 08  -20.9666 26066.6 -03486.5 -07.6184 26298.7
 29 10 2013  16 09  -20.9665 26066.3 -03486.7 -07.6187 26298.5
 29 10 2013  16 10  -20.9665 26065.9 -03486.7 -07.6190 26298.1
 29 10 2013  16 11  -20.9665 26065.6 -03486.9 -07.6193 26297.8
 29 10 2013  16 12  -20.9661 26065.3 -03486.9 -07.6196 26297.5
 29 10 2013  16 13  -20.9660 26064.9 -03487.0 -07.6199 26297.1
 29 10 2013  16 14  -20.9661 26064.5 -03487.2 -07.6204 26296.8
 29 10 2013  16 15  -20.9658 26064.1 -03487.3 -07.6207 26296.4
 29 10 2013  16 16  -20.9657 26064.1 -03487.5 -07.6213 26296.4
 29 10 2013  16 17  -20.9659 26064.1 -03487.8 -07.6219 26296.4
 29 10 2013  16 18  -20.9659 26063.9 -03488.0 -07.6223 26296.2
 29 10 2013  16 19  -20.9658 26063.7 -03488.2 -07.6227 26296.1
 29 10 2013  16 20  -20.9659 26063.6 -03488.4 -07.6233 26296.0
 29 10 2013  16 21  -20.9660 26063.5 -03488.6 -07.6238 26296.0
 29 10 2013  16 22  -20.9661 26063.6 -03488.9 -07.6243 26296.1
 29 10 2013  16 23  -20.9663 26063.4 -03489.1 -07.6247 26295.9
 29 10 2013  16 24  -20.9667 26063.3 -03489.2 -07.6251 26295.8
 29 10 2013  16 25  -20.9671 26063.1 -03489.3 -07.6253 26295.6
 29 10 2013  16 26  -20.9674 26063.0 -03489.4 -07.6256 26295.5
 29 10 2013  16 27  -20.9680 26062.9 -03489.5 -07.6259 26295.4
 29 10 2013  16 28  -20.9686 26062.7 -03489.6 -07.6261 26295.2
 29 10 2013  16 29  -20.9690 26062.4 -03489.6 -07.6262 26295.0
 29 10 2013  16 30  -20.9693 26062.0 -03489.5 -07.6260 26294.5
 29 10 2013  16 31  -20.9698 26061.8 -03489.5 -07.6262 26294.4
 29 10 2013  16 32  -20.9708 26061.4 -03489.4 -07.6260 26294.0
 29 10 2013  16 33  -20.9713 26060.4 -03488.9 -07.6253 26292.9
 29 10 2013  16 34  -20.9715 26059.8 -03488.7 -07.6250 26292.2
 29 10 2013  16 35  -20.9722 26059.6 -03488.8 -07.6254 26292.1
 29 10 2013  16 36  -20.9728 26059.9 -03489.1 -07.6258 26292.4
 29 10 2013  16 37  -20.9731 26060.1 -03489.2 -07.6259 26292.6
 29 10 2013  16 38  -20.9733 26060.1 -03489.1 -07.6258 26292.6
 29 10 2013  16 39  -20.9731 26060.1 -03489.1 -07.6257 26292.6
 29 10 2013  16 40  -20.9731 26060.2 -03489.0 -07.6256 26292.7
 29 10 2013  16 41  -20.9730 26060.1 -03488.8 -07.6252 26292.6
 29 10 2013  16 42  -20.9728 26059.8 -03488.6 -07.6248 26292.3
 29 10 2013  16 43  -20.9722 26059.1 -03488.3 -07.6243 26291.5
 29 10 2013  16 44  -20.9719 26058.4 -03488.1 -07.6242 26290.9
 29 10 2013  16 45  -20.9717 26058.0 -03488.2 -07.6244 26290.5
 29 10 2013  16 46  -20.9719 26057.7 -03488.3 -07.6247 26290.2
 29 10 2013  16 47  -20.9724 26057.7 -03488.5 -07.6252 26290.1
 29 10 2013  16 48  -20.9730 26057.9 -03488.8 -07.6258 26290.4
 29 10 2013  16 49  -20.9732 26057.7 -03488.8 -07.6257 26290.2
 29 10 2013  16 50  -20.9730 26057.4 -03488.6 -07.6255 26289.9
 29 10 2013  16 51  -20.9731 26057.1 -03488.5 -07.6253 26289.5
 29 10 2013  16 52  -20.9729 26056.3 -03488.2 -07.6250 26288.7
 29 10 2013  16 53  -20.9723 26055.1 -03487.9 -07.6247 26287.6
 29 10 2013  16 54  -20.9716 26054.3 -03487.9 -07.6248 26286.7
 29 10 2013  16 55  -20.9715 26053.8 -03488.0 -07.6253 26286.3
 29 10 2013  16 56  -20.9715 26053.7 -03488.2 -07.6258 26286.1
 29 10 2013  16 57  -20.9718 26053.6 -03488.5 -07.6263 26286.1
 29 10 2013  16 58  -20.9718 26053.7 -03488.7 -07.6269 26286.2
 29 10 2013  16 59  -20.9713 26053.6 -03488.9 -07.6272 26286.1
 29 10 2013  17 00  -20.9709 26053.7 -03489.2 -07.6279 26286.3
 29 10 2013  17 01  -20.9713 26053.8 -03489.4 -07.6283 26286.5
 29 10 2013  17 02  -20.9714 26053.8 -03489.5 -07.6285 26286.5
 29 10 2013  17 03  -20.9709 26053.5 -03489.5 -07.6285 26286.1
 29 10 2013  17 04  -20.9710 26054.3 -03490.1 -07.6296 26287.0
 29 10 2013  17 05  -20.9717 26054.6 -03490.3 -07.6300 26287.3
 29 10 2013  17 06  -20.9716 26054.3 -03490.1 -07.6297 26287.1
 29 10 2013  17 07  -20.9720 26054.4 -03490.2 -07.6298 26287.2
 29 10 2013  17 08  -20.9726 26054.7 -03490.4 -07.6302 26287.5
 29 10 2013  17 09  -20.9730 26055.1 -03490.6 -07.6305 26287.8
 29 10 2013  17 10  -20.9733 26055.2 -03490.8 -07.6309 26288.0
 29 10 2013  17 11  -20.9733 26055.2 -03490.8 -07.6309 26288.1
 29 10 2013  17 12  -20.9736 26055.4 -03490.9 -07.6310 26288.3
 29 10 2013  17 13  -20.9734 26055.0 -03490.7 -07.6308 26287.8
 29 10 2013  17 14  -20.9735 26054.9 -03490.7 -07.6308 26287.7
 29 10 2013  17 15  -20.9741 26055.0 -03490.9 -07.6311 26287.9
 29 10 2013  17 16  -20.9744 26054.7 -03490.8 -07.6309 26287.5
 29 10 2013  17 17  -20.9746 26054.5 -03490.7 -07.6308 26287.3
 29 10 2013  17 18  -20.9751 26054.4 -03490.8 -07.6311 26287.2
 29 10 2013  17 19  -20.9754 26054.2 -03490.9 -07.6313 26287.0
 29 10 2013  17 20  -20.9757 26054.1 -03490.8 -07.6313 26286.9
 29 10 2013  17 21  -20.9762 26054.0 -03490.8 -07.6313 26286.8
 29 10 2013  17 22  -20.9766 26054.2 -03490.9 -07.6314 26287.0
 29 10 2013  17 23  -20.9768 26053.5 -03490.7 -07.6310 26286.3
 29 10 2013  17 24  -20.9775 26053.3 -03490.6 -07.6309 26286.1
 29 10 2013  17 25  -20.9783 26053.5 -03490.8 -07.6313 26286.4
 29 10 2013  17 26  -20.9791 26053.8 -03490.9 -07.6316 26286.6
 29 10 2013  17 27  -20.9796 26053.1 -03490.7 -07.6312 26285.9
 29 10 2013  17 28  -20.9802 26053.0 -03490.7 -07.6313 26285.8
 29 10 2013  17 29  -20.9804 26053.1 -03490.8 -07.6315 26286.0
 29 10 2013  17 30  -20.9808 26052.6 -03490.7 -07.6314 26285.4
 29 10 2013  17 31  -20.9812 26052.0 -03490.5 -07.6312 26284.8
 29 10 2013  17 32  -20.9817 26051.8 -03490.6 -07.6315 26284.6
 29 10 2013  17 33  -20.9824 26051.2 -03490.6 -07.6316 26284.0
 29 10 2013  17 34  -20.9827 26050.6 -03490.5 -07.6315 26283.4
 29 10 2013  17 35  -20.9829 26049.7 -03490.3 -07.6314 26282.5
 29 10 2013  17 36  -20.9830 26049.9 -03490.6 -07.6320 26282.7
 29 10 2013  17 37  -20.9835 26050.1 -03491.0 -07.6327 26283.0
 29 10 2013  17 38  -20.9845 26050.7 -03491.4 -07.6335 26283.6
 29 10 2013  17 39  -20.9854 26051.6 -03491.8 -07.6341 26284.6
 29 10 2013  17 40  -20.9862 26051.8 -03491.8 -07.6340 26284.7
 29 10 2013  17 41  -20.9869 26051.8 -03491.7 -07.6337 26284.7
 29 10 2013  17 42  -20.9874 26051.7 -03491.5 -07.6334 26284.6
 29 10 2013  17 43  -20.9872 26050.5 -03490.9 -07.6325 26283.4
 29 10 2013  17 44  -20.9869 26050.0 -03490.7 -07.6321 26282.8
 29 10 2013  17 45  -20.9869 26049.8 -03490.8 -07.6325 26282.6
 29 10 2013  17 46  -20.9873 26049.6 -03490.9 -07.6328 26282.5
 29 10 2013  17 47  -20.9874 26049.3 -03490.9 -07.6329 26282.2
 29 10 2013  17 48  -20.9870 26049.0 -03490.9 -07.6329 26281.8
 29 10 2013  17 49  -20.9872 26048.8 -03490.9 -07.6330 26281.6
 29 10 2013  17 50  -20.9875 26048.8 -03491.1 -07.6333 26281.7
 29 10 2013  17 51  -20.9875 26048.1 -03490.9 -07.6331 26281.0
 29 10 2013  17 52  -20.9874 26047.8 -03490.9 -07.6333 26280.6
 29 10 2013  17 53  -20.9873 26048.0 -03491.2 -07.6337 26280.9
 29 10 2013  17 54  -20.9874 26047.9 -03491.4 -07.6342 26280.9
 29 10 2013  17 55  -20.9878 26048.0 -03491.5 -07.6345 26281.0
 29 10 2013  17 56  -20.9883 26047.8 -03491.5 -07.6345 26280.8
 29 10 2013  17 57  -20.9890 26047.3 -03491.4 -07.6344 26280.2
 29 10 2013  17 58  -20.9899 26046.7 -03491.2 -07.6343 26279.6
 29 10 2013  17 59  -20.9913 26046.2 -03491.1 -07.6342 26279.1
 29 10 2013  18 00  -20.9926 26045.8 -03491.0 -07.6340 26278.7
 29 10 2013  18 01  -20.9934 26045.0 -03490.6 -07.6334 26277.8
 29 10 2013  18 02  -20.9935 26043.9 -03490.2 -07.6329 26276.7
 29 10 2013  18 03  -20.9933 26042.9 -03490.0 -07.6328 26275.7
 29 10 2013  18 04  -20.9932 26042.0 -03490.0 -07.6329 26274.8
 29 10 2013  18 05  -20.9930 26041.6 -03490.2 -07.6336 26274.5
 29 10 2013  18 06  -20.9933 26041.8 -03490.7 -07.6345 26274.7
 29 10 2013  18 07  -20.9937 26041.8 -03491.0 -07.6351 26274.7
 29 10 2013  18 08  -20.9939 26041.6 -03491.0 -07.6353 26274.5
 29 10 2013  18 09  -20.9939 26041.5 -03491.1 -07.6356 26274.4
 29 10 2013  18 10  -20.9940 26042.3 -03491.6 -07.6364 26275.3
 29 10 2013  18 11  -20.9945 26041.6 -03491.4 -07.6362 26274.6
 29 10 2013  18 12  -20.9944 26041.4 -03491.4 -07.6361 26274.4
 29 10 2013  18 13  -20.9945 26041.9 -03491.7 -07.6367 26275.0
 29 10 2013  18 14  -20.9955 26042.2 -03491.9 -07.6371 26275.3
 29 10 2013  18 15  -20.9958 26041.7 -03491.6 -07.6366 26274.7
 29 10 2013  18 16  -20.9957 26041.7 -03491.6 -07.6366 26274.8
 29 10 2013  18 17  -20.9962 26041.4 -03491.6 -07.6366 26274.4
 29 10 2013  18 18  -20.9966 26041.2 -03491.6 -07.6367 26274.2
 29 10 2013  18 19  -20.9969 26041.1 -03491.7 -07.6368 26274.1
 29 10 2013  18 20  -20.9972 26040.6 -03491.5 -07.6366 26273.6
 29 10 2013  18 21  -20.9972 26040.8 -03491.7 -07.6369 26273.9
 29 10 2013  18 22  -20.9970 26040.4 -03491.5 -07.6367 26273.4
 29 10 2013  18 23  -20.9969 26040.0 -03491.4 -07.6366 26273.0
 29 10 2013  18 24  -20.9968 26040.3 -03491.7 -07.6371 26273.4
 29 10 2013  18 25  -20.9970 26040.6 -03491.9 -07.6374 26273.6
 29 10 2013  18 26  -20.9975 26040.7 -03491.9 -07.6374 26273.7
 29 10 2013  18 27  -20.9978 26040.7 -03491.8 -07.6372 26273.7
 29 10 2013  18 28  -20.9980 26040.5 -03491.6 -07.6368 26273.5
 29 10 2013  18 29  -20.9981 26040.5 -03491.5 -07.6366 26273.5
 29 10 2013  18 30  -20.9980 26040.6 -03491.4 -07.6364 26273.6
 29 10 2013  18 31  -20.9980 26040.6 -03491.3 -07.6361 26273.6
 29 10 2013  18 32  -20.9983 26040.6 -03491.1 -07.6357 26273.6
 29 10 2013  18 33  -20.9985 26040.5 -03490.8 -07.6352 26273.5
 29 10 2013  18 34  -20.9986 26040.3 -03490.6 -07.6347 26273.2
 29 10 2013  18 35  -20.9986 26040.5 -03490.5 -07.6345 26273.4
 29 10 2013  18 36  -20.9991 26040.5 -03490.5 -07.6344 26273.4
 29 10 2013  18 37  -20.9995 26040.4 -03490.4 -07.6342 26273.2
 29 10 2013  18 38  -21.0003 26040.2 -03490.2 -07.6339 26273.0
 29 10 2013  18 39  -21.0009 26039.7 -03489.9 -07.6335 26272.5
 29 10 2013  18 40  -21.0011 26039.5 -03489.8 -07.6333 26272.4
 29 10 2013  18 41  -21.0012 26039.1 -03489.7 -07.6331 26271.9
 29 10 2013  18 42  -21.0013 26039.0 -03489.7 -07.6333 26271.8
 29 10 2013  18 43  -21.0013 26039.2 -03489.9 -07.6337 26272.0
 29 10 2013  18 44  -21.0014 26038.9 -03489.9 -07.6337 26271.7
 29 10 2013  18 45  -21.0015 26038.9 -03490.0 -07.6339 26271.8
 29 10 2013  18 46  -21.0018 26039.0 -03490.2 -07.6342 26271.8
 29 10 2013  18 47  -21.0020 26039.2 -03490.2 -07.6341 26272.0
 29 10 2013  18 48  -21.0022 26039.2 -03490.1 -07.6340 26272.0
 29 10 2013  18 49  -21.0023 26039.2 -03490.1 -07.6340 26272.1
 29 10 2013  18 50  -21.0025 26039.2 -03490.1 -07.6340 26272.0
 29 10 2013  18 51  -21.0024 26039.2 -03490.0 -07.6338 26272.0
 29 10 2013  18 52  -21.0027 26039.2 -03490.0 -07.6338 26272.0
 29 10 2013  18 53  -21.0025 26039.1 -03489.9 -07.6336 26271.9
 29 10 2013  18 54  -21.0018 26039.3 -03490.0 -07.6338 26272.2
 29 10 2013  18 55  -21.0017 26039.5 -03490.2 -07.6341 26272.4
 29 10 2013  18 56  -21.0019 26039.9 -03490.5 -07.6346 26272.8
 29 10 2013  18 57  -21.0027 26040.2 -03490.6 -07.6349 26273.1
 29 10 2013  18 58  -21.0034 26040.1 -03490.5 -07.6346 26273.0
 29 10 2013  18 59  -21.0037 26040.0 -03490.3 -07.6342 26272.9
 29 10 2013  19 00  -21.0038 26040.0 -03490.2 -07.6341 26272.8
 29 10 2013  19 01  -21.0041 26039.8 -03490.3 -07.6341 26272.7
 29 10 2013  19 02  -21.0048 26039.5 -03490.2 -07.6340 26272.4
 29 10 2013  19 03  -21.0053 26039.0 -03490.0 -07.6338 26271.8
 29 10 2013  19 04  -21.0056 26038.6 -03489.8 -07.6336 26271.4
 29 10 2013  19 05  -21.0059 26038.3 -03489.7 -07.6335 26271.1
 29 10 2013  19 06  -21.0068 26037.9 -03489.6 -07.6334 26270.7
 29 10 2013  19 07  -21.0073 26037.3 -03489.4 -07.6330 26270.1
 29 10 2013  19 08  -21.0075 26036.7 -03489.1 -07.6326 26269.5
 29 10 2013  19 09  -21.0077 26036.4 -03489.0 -07.6325 26269.1
 29 10 2013  19 10  -21.0075 26036.0 -03488.9 -07.6324 26268.7
 29 10 2013  19 11  -21.0075 26036.1 -03489.1 -07.6328 26268.9
 29 10 2013  19 12  -21.0078 26036.2 -03489.3 -07.6331 26268.9
 29 10 2013  19 13  -21.0081 26036.2 -03489.4 -07.6333 26269.0
 29 10 2013  19 14  -21.0084 26036.2 -03489.5 -07.6335 26269.0
 29 10 2013  19 15  -21.0086 26036.4 -03489.6 -07.6337 26269.2
 29 10 2013  19 16  -21.0086 26036.5 -03489.7 -07.6338 26269.3
 29 10 2013  19 17  -21.0085 26036.6 -03489.7 -07.6340 26269.4
 29 10 2013  19 18  -21.0085 26036.6 -03489.9 -07.6342 26269.4
 29 10 2013  19 19  -21.0087 26036.7 -03489.9 -07.6343 26269.6
 29 10 2013  19 20  -21.0091 26036.7 -03490.0 -07.6344 26269.6
 29 10 2013  19 21  -21.0095 26036.6 -03489.9 -07.6344 26269.5
 29 10 2013  19 22  -21.0098 26036.3 -03489.8 -07.6341 26269.1
 29 10 2013  19 23  -21.0105 26036.2 -03489.7 -07.6340 26269.0
 29 10 2013  19 24  -21.0109 26035.9 -03489.5 -07.6337 26268.7
 29 10 2013  19 25  -21.0112 26035.5 -03489.4 -07.6336 26268.3
 29 10 2013  19 26  -21.0115 26035.0 -03489.2 -07.6333 26267.8
 29 10 2013  19 27  -21.0121 26034.6 -03489.1 -07.6330 26267.4
 29 10 2013  19 28  -21.0125 26034.1 -03488.8 -07.6327 26266.9
 29 10 2013  19 29  -21.0130 26033.5 -03488.6 -07.6324 26266.2
 29 10 2013  19 30  -21.0135 26032.7 -03488.3 -07.6319 26265.4
 29 10 2013  19 31  -21.0137 26031.8 -03487.9 -07.6314 26264.4
 29 10 2013  19 32  -21.0137 26030.9 -03487.6 -07.6309 26263.5
 29 10 2013  19 33  -21.0133 26030.4 -03487.5 -07.6309 26263.0
 29 10 2013  19 34  -21.0129 26030.1 -03487.5 -07.6311 26262.7
 29 10 2013  19 35  -21.0126 26030.1 -03487.8 -07.6316 26262.7
 29 10 2013  19 36  -21.0126 26030.1 -03488.1 -07.6322 26262.8
 29 10 2013  19 37  -21.0125 26030.0 -03488.2 -07.6325 26262.6
 29 10 2013  19 38  -21.0128 26029.6 -03488.2 -07.6326 26262.3
 29 10 2013  19 39  -21.0131 26029.4 -03488.2 -07.6327 26262.0
 29 10 2013  19 40  -21.0132 26029.0 -03488.1 -07.6326 26261.7
 29 10 2013  19 41  -21.0133 26028.6 -03488.0 -07.6325 26261.3
 29 10 2013  19 42  -21.0132 26028.4 -03488.0 -07.6326 26261.0
 29 10 2013  19 43  -21.0132 26028.0 -03488.1 -07.6328 26260.7
 29 10 2013  19 44  -21.0131 26027.8 -03488.1 -07.6329 26260.5
 29 10 2013  19 45  -21.0131 26027.8 -03488.3 -07.6333 26260.5
 29 10 2013  19 46  -21.0133 26027.7 -03488.4 -07.6337 26260.4
 29 10 2013  19 47  -21.0135 26027.6 -03488.6 -07.6340 26260.4
 29 10 2013  19 48  -21.0135 26027.5 -03488.7 -07.6343 26260.3
 29 10 2013  19 49  -21.0135 26027.5 -03488.8 -07.6346 26260.3
 29 10 2013  19 50  -21.0137 26027.5 -03488.9 -07.6349 26260.3
 29 10 2013  19 51  -21.0139 26027.5 -03489.1 -07.6351 26260.3
 29 10 2013  19 52  -21.0141 26027.3 -03489.1 -07.6352 26260.1
 29 10 2013  19 53  -21.0142 26027.2 -03489.1 -07.6354 26260.0
 29 10 2013  19 54  -21.0143 26027.1 -03489.1 -07.6354 26259.9
 29 10 2013  19 55  -21.0144 26026.9 -03489.2 -07.6356 26259.7
 29 10 2013  19 56  -21.0144 26026.9 -03489.2 -07.6357 26259.7
 29 10 2013  19 57  -21.0146 26026.9 -03489.4 -07.6359 26259.8
 29 10 2013  19 58  -21.0144 26026.9 -03489.4 -07.6361 26259.8
 29 10 2013  19 59  -21.0142 26026.9 -03489.5 -07.6363 26259.8
 29 10 2013  20 00  -21.0140 26026.8 -03489.6 -07.6365 26259.6
 29 10 2013  20 01  -21.0140 26026.4 -03489.5 -07.6364 26259.3
 29 10 2013  20 02  -21.0139 26027.3 -03489.9 -07.6371 26260.3
 29 10 2013  20 03  -21.0137 26028.0 -03490.4 -07.6380 26260.9
 29 10 2013  20 04  -21.0138 26028.4 -03490.9 -07.6388 26261.5
 29 10 2013  20 05  -21.0143 26028.0 -03490.8 -07.6387 26261.0
 29 10 2013  20 06  -21.0145 26028.3 -03490.9 -07.6389 26261.4
 29 10 2013  20 07  -21.0150 26028.2 -03490.9 -07.6389 26261.3
 29 10 2013  20 08  -21.0156 26028.4 -03491.0 -07.6390 26261.5
 29 10 2013  20 09  -21.0159 26028.2 -03491.0 -07.6391 26261.3
 29 10 2013  20 10  -21.0159 26027.8 -03490.8 -07.6387 26260.8
 29 10 2013  20 11  -21.0163 26027.7 -03490.8 -07.6388 26260.8
 29 10 2013  20 12  -21.0165 26027.3 -03490.6 -07.6386 26260.3
 29 10 2013  20 13  -21.0165 26027.4 -03490.8 -07.6388 26260.4
 29 10 2013  20 14  -21.0169 26027.2 -03490.7 -07.6388 26260.3
 29 10 2013  20 15  -21.0169 26027.4 -03490.9 -07.6391 26260.4
 29 10 2013  20 16  -21.0167 26027.6 -03491.0 -07.6394 26260.6
 29 10 2013  20 17  -21.0163 26027.7 -03491.2 -07.6398 26260.8
 29 10 2013  20 18  -21.0161 26027.4 -03491.2 -07.6398 26260.5
 29 10 2013  20 19  -21.0161 26027.4 -03491.3 -07.6400 26260.5
 29 10 2013  20 20  -21.0157 26027.8 -03491.5 -07.6404 26260.9
 29 10 2013  20 21  -21.0158 26027.6 -03491.6 -07.6406 26260.8
 29 10 2013  20 22  -21.0158 26027.9 -03491.7 -07.6408 26261.0
 29 10 2013  20 23  -21.0155 26027.7 -03491.7 -07.6409 26260.8
 29 10 2013  20 24  -21.0153 26027.5 -03491.8 -07.6410 26260.7
 29 10 2013  20 25  -21.0154 26027.4 -03491.8 -07.6411 26260.6
 29 10 2013  20 26  -21.0157 26027.2 -03491.9 -07.6413 26260.4
 29 10 2013  20 27  -21.0160 26026.6 -03491.7 -07.6411 26259.8
 29 10 2013  20 28  -21.0161 26026.5 -03491.6 -07.6410 26259.7
 29 10 2013  20 29  -21.0162 26026.3 -03491.6 -07.6411 26259.4
 29 10 2013  20 30  -21.0165 26026.1 -03491.7 -07.6412 26259.3
 29 10 2013  20 31  -21.0164 26025.8 -03491.6 -07.6412 26259.0
 29 10 2013  20 32  -21.0165 26025.8 -03491.7 -07.6414 26258.9
 29 10 2013  20 33  -21.0165 26025.7 -03491.8 -07.6416 26258.9
 29 10 2013  20 34  -21.0163 26025.7 -03491.9 -07.6419 26258.9
 29 10 2013  20 35  -21.0160 26026.2 -03492.2 -07.6424 26259.5
 29 10 2013  20 36  -21.0160 26026.2 -03492.3 -07.6424 26259.5
 29 10 2013  20 37  -21.0160 26026.4 -03492.6 -07.6430 26259.7
 29 10 2013  20 38  -21.0165 26026.1 -03492.5 -07.6431 26259.4
 29 10 2013  20 39  -21.0172 26025.8 -03492.4 -07.6430 26259.0
 29 10 2013  20 40  -21.0177 26025.3 -03492.3 -07.6427 26258.6
 29 10 2013  20 41  -21.0179 26025.1 -03492.3 -07.6427 26258.4
 29 10 2013  20 42  -21.0183 26024.6 -03492.1 -07.6426 26257.9
 29 10 2013  20 43  -21.0186 26024.0 -03491.9 -07.6424 26257.3
 29 10 2013  20 44  -21.0189 26023.4 -03491.8 -07.6422 26256.6
 29 10 2013  20 45  -21.0189 26023.4 -03491.8 -07.6423 26256.6
 29 10 2013  20 46  -21.0186 26023.5 -03492.1 -07.6428 26256.8
 29 10 2013  20 47  -21.0184 26023.7 -03492.4 -07.6435 26257.0
 29 10 2013  20 48  -21.0183 26023.4 -03492.5 -07.6437 26256.7
 29 10 2013  20 49  -21.0182 26022.8 -03492.3 -07.6436 26256.1
 29 10 2013  20 50  -21.0178 26022.3 -03492.2 -07.6433 26255.6
 29 10 2013  20 51  -21.0178 26021.9 -03492.1 -07.6434 26255.2
 29 10 2013  20 52  -21.0176 26021.9 -03492.3 -07.6438 26255.2
 29 10 2013  20 53  -21.0177 26021.8 -03492.5 -07.6443 26255.1
 29 10 2013  20 54  -21.0178 26021.5 -03492.7 -07.6447 26254.9
 29 10 2013  20 55  -21.0180 26020.9 -03492.6 -07.6446 26254.3
 29 10 2013  20 56  -21.0181 26020.5 -03492.6 -07.6448 26253.8
 29 10 2013  20 57  -21.0179 26020.0 -03492.5 -07.6448 26253.4
 29 10 2013  20 58  -21.0180 26019.8 -03492.6 -07.6451 26253.2
 29 10 2013  20 59  -21.0181 26019.7 -03492.8 -07.6454 26253.1
 29 10 2013  21 00  -21.0181 26019.7 -03493.0 -07.6460 26253.1
 29 10 2013  21 01  -21.0180 26019.9 -03493.3 -07.6464 26253.4
 29 10 2013  21 02  -21.0180 26020.3 -03493.6 -07.6471 26253.8
 29 10 2013  21 03  -21.0181 26020.4 -03493.9 -07.6475 26254.0
 29 10 2013  21 04  -21.0184 26020.3 -03493.9 -07.6477 26253.9
 29 10 2013  21 05  -21.0187 26020.0 -03493.9 -07.6477 26253.6
 29 10 2013  21 06  -21.0188 26020.1 -03493.9 -07.6478 26253.7
 29 10 2013  21 07  -21.0187 26020.5 -03494.2 -07.6483 26254.1
 29 10 2013  21 08  -21.0183 26021.1 -03494.6 -07.6489 26254.7
 29 10 2013  21 09  -21.0181 26021.7 -03494.9 -07.6495 26255.4
 29 10 2013  21 10  -21.0180 26021.9 -03495.1 -07.6498 26255.6
 29 10 2013  21 11  -21.0178 26022.1 -03495.2 -07.6501 26255.8
 29 10 2013  21 12  -21.0176 26022.0 -03495.2 -07.6500 26255.7
 29 10 2013  21 13  -21.0174 26021.7 -03495.1 -07.6498 26255.4
 29 10 2013  21 14  -21.0173 26021.4 -03494.9 -07.6495 26255.1
 29 10 2013  21 15  -21.0172 26021.1 -03494.8 -07.6494 26254.7
 29 10 2013  21 16  -21.0171 26020.7 -03494.6 -07.6492 26254.3
 29 10 2013  21 17  -21.0171 26020.3 -03494.5 -07.6490 26253.9
 29 10 2013  21 18  -21.0169 26020.1 -03494.4 -07.6488 26253.7
 29 10 2013  21 19  -21.0166 26020.0 -03494.5 -07.6490 26253.6
 29 10 2013  21 20  -21.0164 26020.0 -03494.5 -07.6490 26253.6
 29 10 2013  21 21  -21.0161 26020.0 -03494.7 -07.6494 26253.6
 29 10 2013  21 22  -21.0159 26020.2 -03494.8 -07.6497 26253.8
 29 10 2013  21 23  -21.0156 26020.3 -03495.0 -07.6501 26254.0
 29 10 2013  21 24  -21.0154 26020.5 -03495.2 -07.6504 26254.2
 29 10 2013  21 25  -21.0151 26020.6 -03495.3 -07.6507 26254.3
 29 10 2013  21 26  -21.0150 26020.8 -03495.5 -07.6510 26254.5
 29 10 2013  21 27  -21.0149 26020.7 -03495.5 -07.6511 26254.4
 29 10 2013  21 28  -21.0148 26020.7 -03495.6 -07.6512 26254.4
 29 10 2013  21 29  -21.0147 26020.7 -03495.7 -07.6514 26254.5
 29 10 2013  21 30  -21.0147 26020.9 -03495.8 -07.6516 26254.6
 29 10 2013  21 31  -21.0146 26021.0 -03496.0 -07.6519 26254.8
 29 10 2013  21 32  -21.0145 26021.2 -03496.1 -07.6522 26255.0
 29 10 2013  21 33  -21.0144 26021.3 -03496.2 -07.6525 26255.1
 29 10 2013  21 34  -21.0143 26021.3 -03496.3 -07.6527 26255.2
 29 10 2013  21 35  -21.0143 26021.3 -03496.4 -07.6528 26255.2
 29 10 2013  21 36  -21.0143 26021.3 -03496.4 -07.6529 26255.1
 29 10 2013  21 37  -21.0143 26021.0 -03496.4 -07.6529 26254.9
 29 10 2013  21 38  -21.0142 26020.9 -03496.4 -07.6528 26254.8
 29 10 2013  21 39  -21.0142 26020.9 -03496.4 -07.6530 26254.7
 29 10 2013  21 40  -21.0141 26021.0 -03496.6 -07.6533 26254.9
 29 10 2013  21 41  -21.0139 26021.0 -03496.6 -07.6534 26254.9
 29 10 2013  21 42  -21.0138 26021.1 -03496.8 -07.6537 26255.0
 29 10 2013  21 43  -21.0135 26021.2 -03496.9 -07.6538 26255.1
 29 10 2013  21 44  -21.0133 26021.4 -03497.0 -07.6542 26255.4
 29 10 2013  21 45  -21.0130 26022.0 -03497.4 -07.6547 26256.0
 29 10 2013  21 46  -21.0127 26022.7 -03497.8 -07.6555 26256.7
 29 10 2013  21 47  -21.0124 26023.3 -03498.1 -07.6560 26257.3
 29 10 2013  21 48  -21.0121 26023.6 -03498.4 -07.6565 26257.7
 29 10 2013  21 49  -21.0120 26023.7 -03498.5 -07.6566 26257.8
 29 10 2013  21 50  -21.0119 26023.4 -03498.4 -07.6565 26257.5
 29 10 2013  21 51  -21.0120 26022.8 -03498.1 -07.6560 26256.9
 29 10 2013  21 52  -21.0122 26022.0 -03497.7 -07.6555 26256.0
 29 10 2013  21 53  -21.0122 26021.5 -03497.4 -07.6550 26255.5
 29 10 2013  21 54  -21.0123 26021.2 -03497.3 -07.6548 26255.2
 29 10 2013  21 55  -21.0123 26021.1 -03497.2 -07.6546 26255.1
 29 10 2013  21 56  -21.0122 26021.3 -03497.5 -07.6552 26255.3
 29 10 2013  21 57  -21.0123 26021.5 -03497.7 -07.6556 26255.5
 29 10 2013  21 58  -21.0124 26021.8 -03498.0 -07.6560 26255.8
 29 10 2013  21 59  -21.0121 26022.3 -03498.3 -07.6566 26256.4
 29 10 2013  22 00  -21.0118 26022.8 -03498.6 -07.6571 26256.9
 29 10 2013  22 01  -21.0118 26022.9 -03498.7 -07.6574 26257.1
 29 10 2013  22 02  -21.0118 26023.2 -03498.9 -07.6577 26257.4
 29 10 2013  22 03  -21.0117 26023.6 -03499.1 -07.6580 26257.8
 29 10 2013  22 04  -21.0115 26023.8 -03499.2 -07.6582 26258.0
 29 10 2013  22 05  -21.0113 26023.7 -03499.2 -07.6582 26257.9
 29 10 2013  22 06  -21.0113 26023.6 -03499.2 -07.6581 26257.8
 29 10 2013  22 07  -21.0111 26024.0 -03499.4 -07.6584 26258.2
 29 10 2013  22 08  -21.0111 26024.2 -03499.5 -07.6588 26258.4
 29 10 2013  22 09  -21.0112 26024.2 -03499.6 -07.6588 26258.4
 29 10 2013  22 10  -21.0112 26024.2 -03499.6 -07.6589 26258.5
 29 10 2013  22 11  -21.0110 26024.4 -03499.6 -07.6589 26258.6
 29 10 2013  22 12  -21.0108 26024.3 -03499.7 -07.6590 26258.6
 29 10 2013  22 13  -21.0104 26024.3 -03499.6 -07.6589 26258.6
 29 10 2013  22 14  -21.0102 26024.2 -03499.6 -07.6588 26258.5
 29 10 2013  22 15  -21.0101 26024.1 -03499.5 -07.6588 26258.4
 29 10 2013  22 16  -21.0100 26024.1 -03499.6 -07.6588 26258.4
 29 10 2013  22 17  -21.0099 26023.9 -03499.5 -07.6588 26258.2
 29 10 2013  22 18  -21.0097 26023.9 -03499.5 -07.6588 26258.1
 29 10 2013  22 19  -21.0095 26023.8 -03499.5 -07.6588 26258.0
 29 10 2013  22 20  -21.0091 26023.8 -03499.5 -07.6588 26258.0
 29 10 2013  22 21  -21.0088 26024.1 -03499.7 -07.6591 26258.3
 29 10 2013  22 22  -21.0084 26024.1 -03499.7 -07.6592 26258.4
 29 10 2013  22 23  -21.0083 26024.1 -03499.8 -07.6593 26258.4
 29 10 2013  22 24  -21.0080 26024.1 -03499.8 -07.6593 26258.4
 29 10 2013  22 25  -21.0077 26024.2 -03499.9 -07.6595 26258.5
 29 10 2013  22 26  -21.0076 26024.1 -03499.9 -07.6595 26258.4
 29 10 2013  22 27  -21.0074 26024.1 -03499.9 -07.6595 26258.4
 29 10 2013  22 28  -21.0072 26024.0 -03499.9 -07.6595 26258.3
 29 10 2013  22 29  -21.0070 26024.0 -03499.8 -07.6595 26258.2
 29 10 2013  22 30  -21.0068 26023.9 -03499.8 -07.6595 26258.2
 29 10 2013  22 31  -21.0067 26023.9 -03499.8 -07.6595 26258.2
 29 10 2013  22 32  -21.0064 26023.9 -03499.9 -07.6596 26258.2
 29 10 2013  22 33  -21.0062 26023.8 -03499.9 -07.6596 26258.1
 29 10 2013  22 34  -21.0060 26023.8 -03499.9 -07.6596 26258.1
 29 10 2013  22 35  -21.0059 26023.7 -03499.9 -07.6596 26258.0
 29 10 2013  22 36  -21.0056 26023.7 -03499.9 -07.6596 26258.0
 29 10 2013  22 37  -21.0053 26023.5 -03499.8 -07.6596 26257.8
 29 10 2013  22 38  -21.0051 26023.5 -03499.8 -07.6596 26257.8
 29 10 2013  22 39  -21.0050 26023.4 -03499.8 -07.6596 26257.7
 29 10 2013  22 40  -21.0048 26023.4 -03499.9 -07.6597 26257.7
 29 10 2013  22 41  -21.0046 26023.4 -03499.9 -07.6598 26257.7
 29 10 2013  22 42  -21.0045 26023.4 -03499.9 -07.6598 26257.7
 29 10 2013  22 43  -21.0044 26023.4 -03500.0 -07.6599 26257.7
 29 10 2013  22 44  -21.0043 26023.4 -03500.0 -07.6600 26257.7
 29 10 2013  22 45  -21.0042 26023.5 -03500.1 -07.6601 26257.8
 29 10 2013  22 46  -21.0041 26023.5 -03500.1 -07.6602 26257.8
 29 10 2013  22 47  -21.0040 26023.6 -03500.2 -07.6603 26257.9
 29 10 2013  22 48  -21.0039 26023.5 -03500.2 -07.6603 26257.8
 29 10 2013  22 49  -21.0038 26023.5 -03500.2 -07.6603 26257.8
 29 10 2013  22 50  -21.0038 26023.5 -03500.2 -07.6603 26257.8
 29 10 2013  22 51  -21.0038 26023.4 -03500.2 -07.6603 26257.7
 29 10 2013  22 52  -21.0038 26023.3 -03500.1 -07.6603 26257.7
 29 10 2013  22 53  -21.0038 26023.2 -03500.1 -07.6603 26257.5
 29 10 2013  22 54  -21.0038 26023.1 -03500.1 -07.6603 26257.4
 29 10 2013  22 55  -21.0037 26023.1 -03500.1 -07.6602 26257.4
 29 10 2013  22 56  -21.0036 26023.1 -03500.1 -07.6603 26257.4
 29 10 2013  22 57  -21.0036 26023.1 -03500.1 -07.6603 26257.4
 29 10 2013  22 58  -21.0034 26023.2 -03500.2 -07.6604 26257.6
 29 10 2013  22 59  -21.0034 26023.3 -03500.3 -07.6606 26257.7
 29 10 2013  23 00  -21.0034 26023.5 -03500.3 -07.6607 26257.9
 29 10 2013  23 01  -21.0034 26023.8 -03500.5 -07.6609 26258.1
 29 10 2013  23 02  -21.0033 26023.9 -03500.6 -07.6610 26258.3
 29 10 2013  23 03  -21.0033 26024.1 -03500.6 -07.6611 26258.5
 29 10 2013  23 04  -21.0033 26024.2 -03500.7 -07.6612 26258.6
 29 10 2013  23 05  -21.0033 26024.3 -03500.7 -07.6613 26258.7
 29 10 2013  23 06  -21.0032 26024.4 -03500.7 -07.6612 26258.8
 29 10 2013  23 07  -21.0031 26024.5 -03500.7 -07.6613 26258.9
 29 10 2013  23 08  -21.0031 26024.7 -03500.8 -07.6613 26259.1
 29 10 2013  23 09  -21.0029 26024.8 -03500.8 -07.6613 26259.2
 29 10 2013  23 10  -21.0027 26025.0 -03500.9 -07.6614 26259.4
 29 10 2013  23 11  -21.0024 26025.5 -03501.1 -07.6617 26259.9
 29 10 2013  23 12  -21.0023 26025.9 -03501.3 -07.6620 26260.3
 29 10 2013  23 13  -21.0024 26026.3 -03501.4 -07.6622 26260.8
 29 10 2013  23 14  -21.0024 26026.6 -03501.6 -07.6625 26261.1
 29 10 2013  23 15  -21.0022 26027.0 -03501.7 -07.6626 26261.5
 29 10 2013  23 16  -21.0021 26027.2 -03501.7 -07.6626 26261.7
 29 10 2013  23 17  -21.0018 26027.4 -03501.7 -07.6626 26261.9
 29 10 2013  23 18  -21.0018 26027.4 -03501.7 -07.6625 26261.9
 29 10 2013  23 19  -21.0018 26027.3 -03501.6 -07.6622 26261.8
 29 10 2013  23 20  -21.0017 26027.2 -03501.5 -07.6620 26261.6
 29 10 2013  23 21  -21.0016 26027.0 -03501.4 -07.6619 26261.5
 29 10 2013  23 22  -21.0015 26026.8 -03501.2 -07.6617 26261.2
 29 10 2013  23 23  -21.0014 26026.6 -03501.0 -07.6613 26261.0
 29 10 2013  23 24  -21.0013 26026.4 -03501.0 -07.6612 26260.8
 29 10 2013  23 25  -21.0013 26026.2 -03500.8 -07.6610 26260.6
 29 10 2013  23 26  -21.0011 26026.1 -03500.8 -07.6609 26260.5
 29 10 2013  23 27  -21.0012 26026.1 -03500.8 -07.6609 26260.5
 29 10 2013  23 28  -21.0011 26026.0 -03500.7 -07.6608 26260.4
 29 10 2013  23 29  -21.0010 26025.9 -03500.7 -07.6608 26260.3
 29 10 2013  23 30  -21.0008 26025.9 -03500.7 -07.6608 26260.3
 29 10 2013  23 31  -21.0007 26026.0 -03500.8 -07.6609 26260.4
 29 10 2013  23 32  -21.0006 26026.1 -03500.8 -07.6610 26260.5
 29 10 2013  23 33  -21.0006 26026.0 -03500.8 -07.6610 26260.4
 29 10 2013  23 34  -21.0009 26025.8 -03500.7 -07.6608 26260.2
 29 10 2013  23 35  -21.0010 26025.8 -03500.7 -07.6608 26260.1
 29 10 2013  23 36  -21.0008 26025.7 -03500.7 -07.6608 26260.1
 29 10 2013  23 37  -21.0005 26025.5 -03500.6 -07.6607 26259.9
 29 10 2013  23 38  -21.0004 26025.5 -03500.6 -07.6607 26259.9
 29 10 2013  23 39  -21.0001 26025.5 -03500.7 -07.6608 26259.9
 29 10 2013  23 40  -21.0000 26025.8 -03500.8 -07.6610 26260.2
 29 10 2013  23 41  -21.0000 26026.0 -03501.0 -07.6613 26260.4
 29 10 2013  23 42  -20.9999 26026.2 -03501.1 -07.6615 26260.6
 29 10 2013  23 43  -20.9999 26026.3 -03501.1 -07.6616 26260.7
 29 10 2013  23 44  -20.9999 26026.4 -03501.2 -07.6617 26260.9
 29 10 2013  23 45  -20.9998 26026.5 -03501.3 -07.6619 26261.0
 29 10 2013  23 46  -20.9997 26026.6 -03501.3 -07.6619 26261.1
 29 10 2013  23 47  -20.9997 26026.8 -03501.4 -07.6620 26261.2
 29 10 2013  23 48  -20.9997 26026.9 -03501.5 -07.6622 26261.4
 29 10 2013  23 49  -20.9997 26026.8 -03501.5 -07.6622 26261.3
 29 10 2013  23 50  -20.9998 26026.8 -03501.5 -07.6622 26261.2
 29 10 2013  23 51  -21.0000 26026.6 -03501.4 -07.6621 26261.1
 29 10 2013  23 52  -21.0002 26026.5 -03501.3 -07.6620 26260.9
 29 10 2013  23 53  -21.0003 26026.2 -03501.2 -07.6618 26260.7
 29 10 2013  23 54  -21.0003 26026.0 -03501.1 -07.6616 26260.5
 29 10 2013  23 55  -21.0002 26025.9 -03501.1 -07.6615 26260.3
 29 10 2013  23 56  -21.0002 26025.8 -03501.0 -07.6615 26260.2
 29 10 2013  23 57  -21.0002 26025.6 -03501.0 -07.6615 26260.1
