SAO LUIS EMBRACE-03 <081> 1 Min. Reported data

 DD MM YYYY  HH MM   D(Deg)  H(nT)   Z(nT)   I(Deg)   F(nT)

 22 03 2013  00 00  -21.0564 26026.7 -03422.0 -07.4903 26250.7
 22 03 2013  00 01  -21.0560 26027.6 -03422.5 -07.4911 26251.7
 22 03 2013  00 02  -21.0556 26028.2 -03422.9 -07.4917 26252.3
 22 03 2013  00 03  -21.0555 26028.4 -03423.0 -07.4920 26252.5
 22 03 2013  00 04  -21.0554 26028.2 -03422.8 -07.4917 26252.3
 22 03 2013  00 05  -21.0554 26027.8 -03422.6 -07.4913 26251.9
 22 03 2013  00 06  -21.0555 26027.5 -03422.4 -07.4909 26251.6
 22 03 2013  00 07  -21.0553 26027.4 -03422.3 -07.4907 26251.5
 22 03 2013  00 08  -21.0551 26027.4 -03422.2 -07.4906 26251.4
 22 03 2013  00 09  -21.0548 26027.4 -03422.2 -07.4906 26251.4
 22 03 2013  00 10  -21.0546 26027.3 -03422.2 -07.4905 26251.4
 22 03 2013  00 11  -21.0545 26027.1 -03422.1 -07.4904 26251.1
 22 03 2013  00 12  -21.0545 26027.0 -03422.1 -07.4903 26251.0
 22 03 2013  00 13  -21.0544 26027.1 -03422.2 -07.4905 26251.2
 22 03 2013  00 14  -21.0542 26027.2 -03422.2 -07.4906 26251.2
 22 03 2013  00 15  -21.0541 26027.3 -03422.3 -07.4907 26251.3
 22 03 2013  00 16  -21.0538 26027.5 -03422.4 -07.4909 26251.5
 22 03 2013  00 17  -21.0536 26027.7 -03422.5 -07.4911 26251.8
 22 03 2013  00 18  -21.0536 26027.8 -03422.6 -07.4912 26251.8
 22 03 2013  00 19  -21.0535 26027.7 -03422.6 -07.4913 26251.8
 22 03 2013  00 20  -21.0534 26027.5 -03422.5 -07.4910 26251.6
 22 03 2013  00 21  -21.0534 26027.2 -03422.3 -07.4909 26251.3
 22 03 2013  00 22  -21.0533 26027.1 -03422.2 -07.4907 26251.2
 22 03 2013  00 23  -21.0534 26027.1 -03422.3 -07.4907 26251.2
 22 03 2013  00 24  -21.0533 26027.2 -03422.4 -07.4909 26251.3
 22 03 2013  00 25  -21.0532 26027.4 -03422.4 -07.4911 26251.5
 22 03 2013  00 26  -21.0530 26027.5 -03422.5 -07.4911 26251.5
 22 03 2013  00 27  -21.0530 26027.5 -03422.5 -07.4911 26251.6
 22 03 2013  00 28  -21.0529 26027.6 -03422.6 -07.4912 26251.7
 22 03 2013  00 29  -21.0529 26027.8 -03422.6 -07.4914 26251.9
 22 03 2013  00 30  -21.0528 26027.9 -03422.7 -07.4915 26252.0
 22 03 2013  00 31  -21.0529 26027.9 -03422.7 -07.4915 26252.0
 22 03 2013  00 32  -21.0529 26027.8 -03422.7 -07.4914 26251.9
 22 03 2013  00 33  -21.0528 26027.7 -03422.6 -07.4913 26251.8
 22 03 2013  00 34  -21.0527 26027.6 -03422.5 -07.4911 26251.6
 22 03 2013  00 35  -21.0527 26027.5 -03422.4 -07.4910 26251.6
 22 03 2013  00 36  -21.0527 26027.5 -03422.4 -07.4910 26251.5
 22 03 2013  00 37  -21.0527 26027.5 -03422.5 -07.4910 26251.6
 22 03 2013  00 38  -21.0527 26027.4 -03422.5 -07.4911 26251.5
 22 03 2013  00 39  -21.0529 26027.3 -03422.4 -07.4910 26251.4
 22 03 2013  00 40  -21.0530 26027.1 -03422.3 -07.4909 26251.2
 22 03 2013  00 41  -21.0530 26026.9 -03422.2 -07.4908 26251.0
 22 03 2013  00 42  -21.0529 26026.8 -03422.2 -07.4906 26250.8
 22 03 2013  00 43  -21.0530 26026.7 -03422.1 -07.4905 26250.7
 22 03 2013  00 44  -21.0528 26026.8 -03422.1 -07.4906 26250.8
 22 03 2013  00 45  -21.0528 26026.9 -03422.2 -07.4907 26250.9
 22 03 2013  00 46  -21.0526 26027.1 -03422.3 -07.4909 26251.1
 22 03 2013  00 47  -21.0524 26027.2 -03422.4 -07.4910 26251.3
 22 03 2013  00 48  -21.0523 26027.3 -03422.5 -07.4911 26251.4
 22 03 2013  00 49  -21.0521 26027.3 -03422.5 -07.4912 26251.4
 22 03 2013  00 50  -21.0521 26027.4 -03422.5 -07.4913 26251.5
 22 03 2013  00 51  -21.0520 26027.4 -03422.5 -07.4912 26251.5
 22 03 2013  00 52  -21.0519 26027.4 -03422.5 -07.4912 26251.5
 22 03 2013  00 53  -21.0518 26027.5 -03422.6 -07.4913 26251.5
 22 03 2013  00 54  -21.0519 26027.5 -03422.6 -07.4914 26251.6
 22 03 2013  00 55  -21.0518 26027.5 -03422.6 -07.4913 26251.6
 22 03 2013  00 56  -21.0517 26027.5 -03422.6 -07.4913 26251.6
 22 03 2013  00 57  -21.0517 26027.4 -03422.5 -07.4912 26251.5
 22 03 2013  00 58  -21.0518 26027.4 -03422.5 -07.4912 26251.4
 22 03 2013  00 59  -21.0516 26027.3 -03422.4 -07.4910 26251.4
 22 03 2013  01 00  -21.0516 26027.2 -03422.4 -07.4910 26251.2
 22 03 2013  01 01  -21.0517 26027.1 -03422.3 -07.4909 26251.1
 22 03 2013  01 02  -21.0517 26027.0 -03422.3 -07.4908 26251.1
 22 03 2013  01 03  -21.0518 26027.1 -03422.3 -07.4909 26251.1
 22 03 2013  01 04  -21.0519 26027.0 -03422.3 -07.4909 26251.1
 22 03 2013  01 05  -21.0518 26027.0 -03422.3 -07.4909 26251.1
 22 03 2013  01 06  -21.0517 26027.0 -03422.3 -07.4908 26251.1
 22 03 2013  01 07  -21.0516 26027.1 -03422.3 -07.4909 26251.1
 22 03 2013  01 08  -21.0515 26027.2 -03422.4 -07.4910 26251.2
 22 03 2013  01 09  -21.0515 26027.3 -03422.4 -07.4911 26251.3
 22 03 2013  01 10  -21.0514 26027.2 -03422.4 -07.4911 26251.3
 22 03 2013  01 11  -21.0514 26027.1 -03422.4 -07.4910 26251.2
 22 03 2013  01 12  -21.0512 26027.2 -03422.4 -07.4910 26251.2
 22 03 2013  01 13  -21.0510 26027.4 -03422.4 -07.4911 26251.5
 22 03 2013  01 14  -21.0509 26027.5 -03422.5 -07.4912 26251.6
 22 03 2013  01 15  -21.0508 26027.6 -03422.6 -07.4913 26251.7
 22 03 2013  01 16  -21.0507 26027.6 -03422.6 -07.4914 26251.7
 22 03 2013  01 17  -21.0505 26027.6 -03422.6 -07.4913 26251.7
 22 03 2013  01 18  -21.0504 26027.5 -03422.5 -07.4912 26251.6
 22 03 2013  01 19  -21.0503 26027.4 -03422.4 -07.4910 26251.5
 22 03 2013  01 20  -21.0504 26027.3 -03422.4 -07.4911 26251.4
 22 03 2013  01 21  -21.0505 26027.0 -03422.3 -07.4908 26251.1
 22 03 2013  01 22  -21.0507 26026.8 -03422.2 -07.4907 26250.8
 22 03 2013  01 23  -21.0508 26026.6 -03422.1 -07.4905 26250.6
 22 03 2013  01 24  -21.0508 26026.5 -03422.1 -07.4905 26250.5
 22 03 2013  01 25  -21.0507 26026.6 -03422.1 -07.4906 26250.7
 22 03 2013  01 26  -21.0507 26026.7 -03422.2 -07.4908 26250.7
 22 03 2013  01 27  -21.0507 26026.8 -03422.3 -07.4908 26250.8
 22 03 2013  01 28  -21.0508 26026.8 -03422.3 -07.4910 26250.9
 22 03 2013  01 29  -21.0507 26027.0 -03422.4 -07.4911 26251.0
 22 03 2013  01 30  -21.0504 26027.2 -03422.5 -07.4912 26251.2
 22 03 2013  01 31  -21.0503 26027.2 -03422.5 -07.4912 26251.2
 22 03 2013  01 32  -21.0502 26027.1 -03422.5 -07.4912 26251.2
 22 03 2013  01 33  -21.0502 26027.3 -03422.6 -07.4914 26251.4
 22 03 2013  01 34  -21.0500 26027.4 -03422.6 -07.4914 26251.5
 22 03 2013  01 35  -21.0499 26027.3 -03422.5 -07.4913 26251.3
 22 03 2013  01 36  -21.0498 26027.2 -03422.5 -07.4912 26251.2
 22 03 2013  01 37  -21.0498 26027.1 -03422.5 -07.4912 26251.2
 22 03 2013  01 38  -21.0498 26027.1 -03422.4 -07.4911 26251.1
 22 03 2013  01 39  -21.0497 26027.0 -03422.4 -07.4911 26251.1
 22 03 2013  01 40  -21.0496 26027.0 -03422.4 -07.4911 26251.0
 22 03 2013  01 41  -21.0496 26027.1 -03422.5 -07.4913 26251.2
 22 03 2013  01 42  -21.0499 26027.1 -03422.6 -07.4914 26251.2
 22 03 2013  01 43  -21.0500 26027.1 -03422.6 -07.4914 26251.1
 22 03 2013  01 44  -21.0501 26027.1 -03422.6 -07.4914 26251.1
 22 03 2013  01 45  -21.0500 26027.1 -03422.6 -07.4914 26251.2
 22 03 2013  01 46  -21.0499 26027.2 -03422.6 -07.4914 26251.2
 22 03 2013  01 47  -21.0497 26027.4 -03422.7 -07.4916 26251.5
 22 03 2013  01 48  -21.0495 26027.6 -03422.8 -07.4918 26251.7
 22 03 2013  01 49  -21.0493 26027.8 -03422.9 -07.4920 26252.0
 22 03 2013  01 50  -21.0492 26028.0 -03423.0 -07.4921 26252.1
 22 03 2013  01 51  -21.0490 26028.1 -03423.0 -07.4921 26252.2
 22 03 2013  01 52  -21.0489 26028.2 -03423.0 -07.4921 26252.3
 22 03 2013  01 53  -21.0490 26028.2 -03423.1 -07.4923 26252.4
 22 03 2013  01 54  -21.0491 26028.2 -03423.1 -07.4923 26252.3
 22 03 2013  01 55  -21.0492 26028.2 -03423.1 -07.4923 26252.4
 22 03 2013  01 56  -21.0491 26028.2 -03423.1 -07.4923 26252.4
 22 03 2013  01 57  -21.0492 26028.2 -03423.1 -07.4922 26252.3
 22 03 2013  01 58  -21.0493 26028.3 -03423.1 -07.4923 26252.4
 22 03 2013  01 59  -21.0494 26028.2 -03423.1 -07.4922 26252.4
 22 03 2013  02 00  -21.0496 26028.0 -03423.0 -07.4921 26252.1
 22 03 2013  02 01  -21.0496 26027.7 -03422.8 -07.4918 26251.8
 22 03 2013  02 02  -21.0496 26027.5 -03422.8 -07.4917 26251.6
 22 03 2013  02 03  -21.0495 26027.6 -03422.7 -07.4916 26251.7
 22 03 2013  02 04  -21.0495 26027.7 -03422.8 -07.4918 26251.8
 22 03 2013  02 05  -21.0496 26027.8 -03422.9 -07.4919 26251.9
 22 03 2013  02 06  -21.0498 26027.8 -03422.9 -07.4920 26251.9
 22 03 2013  02 07  -21.0498 26027.6 -03422.8 -07.4918 26251.7
 22 03 2013  02 08  -21.0500 26027.4 -03422.7 -07.4916 26251.5
 22 03 2013  02 09  -21.0502 26027.1 -03422.6 -07.4914 26251.2
 22 03 2013  02 10  -21.0507 26026.8 -03422.5 -07.4913 26250.8
 22 03 2013  02 11  -21.0510 26026.5 -03422.3 -07.4911 26250.5
 22 03 2013  02 12  -21.0513 26026.4 -03422.3 -07.4910 26250.4
 22 03 2013  02 13  -21.0514 26026.5 -03422.4 -07.4911 26250.6
 22 03 2013  02 14  -21.0515 26026.8 -03422.5 -07.4914 26250.9
 22 03 2013  02 15  -21.0514 26027.1 -03422.7 -07.4917 26251.2
 22 03 2013  02 16  -21.0513 26027.4 -03422.8 -07.4919 26251.5
 22 03 2013  02 17  -21.0514 26027.4 -03422.9 -07.4920 26251.5
 22 03 2013  02 18  -21.0513 26026.9 -03422.6 -07.4916 26251.0
 22 03 2013  02 19  -21.0512 26026.2 -03422.2 -07.4910 26250.2
 22 03 2013  02 20  -21.0513 26025.7 -03422.0 -07.4905 26249.7
 22 03 2013  02 21  -21.0515 26025.3 -03421.8 -07.4903 26249.2
 22 03 2013  02 22  -21.0518 26025.2 -03421.8 -07.4903 26249.2
 22 03 2013  02 23  -21.0522 26025.4 -03422.0 -07.4906 26249.4
 22 03 2013  02 24  -21.0524 26025.6 -03422.1 -07.4909 26249.6
 22 03 2013  02 25  -21.0527 26025.8 -03422.3 -07.4912 26249.9
 22 03 2013  02 26  -21.0528 26026.0 -03422.4 -07.4914 26250.1
 22 03 2013  02 27  -21.0527 26026.3 -03422.6 -07.4916 26250.3
 22 03 2013  02 28  -21.0526 26026.5 -03422.7 -07.4918 26250.6
 22 03 2013  02 29  -21.0525 26026.7 -03422.8 -07.4920 26250.8
 22 03 2013  02 30  -21.0524 26026.7 -03422.8 -07.4920 26250.8
 22 03 2013  02 31  -21.0522 26026.4 -03422.7 -07.4918 26250.5
 22 03 2013  02 32  -21.0520 26026.2 -03422.5 -07.4915 26250.3
 22 03 2013  02 33  -21.0520 26026.3 -03422.6 -07.4916 26250.4
 22 03 2013  02 34  -21.0520 26026.5 -03422.7 -07.4919 26250.6
 22 03 2013  02 35  -21.0520 26026.6 -03422.8 -07.4920 26250.7
 22 03 2013  02 36  -21.0520 26026.4 -03422.7 -07.4920 26250.5
 22 03 2013  02 37  -21.0520 26026.2 -03422.7 -07.4919 26250.3
 22 03 2013  02 38  -21.0519 26026.1 -03422.6 -07.4918 26250.2
 22 03 2013  02 39  -21.0520 26026.0 -03422.6 -07.4918 26250.1
 22 03 2013  02 40  -21.0521 26026.0 -03422.6 -07.4918 26250.0
 22 03 2013  02 41  -21.0524 26025.9 -03422.6 -07.4918 26250.0
 22 03 2013  02 42  -21.0526 26025.9 -03422.6 -07.4919 26250.0
 22 03 2013  02 43  -21.0528 26025.9 -03422.6 -07.4919 26250.0
 22 03 2013  02 44  -21.0529 26026.0 -03422.7 -07.4920 26250.1
 22 03 2013  02 45  -21.0530 26026.0 -03422.7 -07.4921 26250.1
 22 03 2013  02 46  -21.0531 26026.1 -03422.8 -07.4922 26250.2
 22 03 2013  02 47  -21.0531 26026.2 -03422.8 -07.4922 26250.3
 22 03 2013  02 48  -21.0531 26026.3 -03422.9 -07.4923 26250.4
 22 03 2013  02 49  -21.0531 26026.2 -03422.9 -07.4923 26250.4
 22 03 2013  02 50  -21.0531 26026.2 -03422.9 -07.4924 26250.4
 22 03 2013  02 51  -21.0532 26026.3 -03422.9 -07.4924 26250.4
 22 03 2013  02 52  -21.0533 26026.3 -03422.9 -07.4924 26250.4
 22 03 2013  02 53  -21.0534 26026.2 -03422.9 -07.4924 26250.4
 22 03 2013  02 54  -21.0536 26026.2 -03422.9 -07.4924 26250.3
 22 03 2013  02 55  -21.0537 26026.1 -03422.9 -07.4924 26250.2
 22 03 2013  02 56  -21.0539 26026.1 -03422.9 -07.4924 26250.3
 22 03 2013  02 57  -21.0541 26026.2 -03423.0 -07.4925 26250.3
 22 03 2013  02 58  -21.0544 26026.3 -03423.0 -07.4926 26250.4
 22 03 2013  02 59  -21.0544 26026.3 -03423.0 -07.4926 26250.4
 22 03 2013  03 00  -21.0547 26026.4 -03423.1 -07.4927 26250.6
 22 03 2013  03 01  -21.0549 26026.6 -03423.2 -07.4929 26250.7
 22 03 2013  03 02  -21.0552 26026.9 -03423.3 -07.4931 26251.0
 22 03 2013  03 03  -21.0557 26027.1 -03423.5 -07.4933 26251.3
 22 03 2013  03 04  -21.0560 26027.3 -03423.6 -07.4935 26251.5
 22 03 2013  03 05  -21.0563 26027.4 -03423.6 -07.4935 26251.6
 22 03 2013  03 06  -21.0566 26027.3 -03423.6 -07.4935 26251.5
 22 03 2013  03 07  -21.0568 26027.2 -03423.4 -07.4933 26251.4
 22 03 2013  03 08  -21.0568 26027.0 -03423.3 -07.4930 26251.2
 22 03 2013  03 09  -21.0571 26026.7 -03423.2 -07.4928 26250.8
 22 03 2013  03 10  -21.0572 26026.3 -03423.0 -07.4925 26250.5
 22 03 2013  03 11  -21.0574 26026.1 -03422.8 -07.4922 26250.2
 22 03 2013  03 12  -21.0578 26025.9 -03422.8 -07.4921 26250.0
 22 03 2013  03 13  -21.0581 26025.8 -03422.7 -07.4920 26249.9
 22 03 2013  03 14  -21.0582 26026.0 -03422.8 -07.4922 26250.1
 22 03 2013  03 15  -21.0585 26026.0 -03422.8 -07.4923 26250.2
 22 03 2013  03 16  -21.0586 26026.1 -03422.9 -07.4924 26250.2
 22 03 2013  03 17  -21.0586 26026.1 -03422.9 -07.4924 26250.3
 22 03 2013  03 18  -21.0587 26026.3 -03423.0 -07.4926 26250.4
 22 03 2013  03 19  -21.0585 26026.5 -03423.1 -07.4927 26250.6
 22 03 2013  03 20  -21.0584 26026.7 -03423.2 -07.4929 26250.8
 22 03 2013  03 21  -21.0581 26026.7 -03423.2 -07.4930 26250.9
 22 03 2013  03 22  -21.0578 26026.6 -03423.2 -07.4928 26250.8
 22 03 2013  03 23  -21.0574 26026.4 -03423.1 -07.4927 26250.6
 22 03 2013  03 24  -21.0572 26026.3 -03423.0 -07.4926 26250.5
 22 03 2013  03 25  -21.0573 26026.4 -03423.0 -07.4926 26250.5
 22 03 2013  03 26  -21.0574 26026.3 -03423.0 -07.4926 26250.5
 22 03 2013  03 27  -21.0575 26026.5 -03423.1 -07.4928 26250.6
 22 03 2013  03 28  -21.0576 26026.7 -03423.3 -07.4930 26250.9
 22 03 2013  03 29  -21.0578 26026.8 -03423.3 -07.4931 26250.9
 22 03 2013  03 30  -21.0580 26026.8 -03423.3 -07.4931 26251.0
 22 03 2013  03 31  -21.0582 26026.9 -03423.3 -07.4931 26251.1
 22 03 2013  03 32  -21.0583 26026.9 -03423.3 -07.4931 26251.1
 22 03 2013  03 33  -21.0585 26027.0 -03423.3 -07.4931 26251.2
 22 03 2013  03 34  -21.0586 26026.9 -03423.3 -07.4930 26251.1
 22 03 2013  03 35  -21.0587 26026.8 -03423.2 -07.4929 26251.0
 22 03 2013  03 36  -21.0587 26026.7 -03423.1 -07.4926 26250.8
 22 03 2013  03 37  -21.0588 26026.5 -03422.9 -07.4924 26250.7
 22 03 2013  03 38  -21.0588 26026.4 -03422.9 -07.4923 26250.5
 22 03 2013  03 39  -21.0591 26026.4 -03422.8 -07.4922 26250.5
 22 03 2013  03 40  -21.0595 26026.5 -03422.9 -07.4923 26250.6
 22 03 2013  03 41  -21.0597 26026.6 -03422.9 -07.4923 26250.7
 22 03 2013  03 42  -21.0600 26026.8 -03422.9 -07.4923 26250.9
 22 03 2013  03 43  -21.0603 26026.9 -03423.0 -07.4925 26251.1
 22 03 2013  03 44  -21.0605 26027.1 -03423.1 -07.4925 26251.3
 22 03 2013  03 45  -21.0606 26027.3 -03423.1 -07.4926 26251.4
 22 03 2013  03 46  -21.0607 26027.4 -03423.1 -07.4926 26251.5
 22 03 2013  03 47  -21.0606 26027.4 -03423.1 -07.4925 26251.6
 22 03 2013  03 48  -21.0607 26027.5 -03423.1 -07.4924 26251.6
 22 03 2013  03 49  -21.0608 26027.4 -03423.0 -07.4923 26251.5
 22 03 2013  03 50  -21.0609 26027.4 -03422.9 -07.4921 26251.5
 22 03 2013  03 51  -21.0609 26027.3 -03422.8 -07.4919 26251.4
 22 03 2013  03 52  -21.0608 26027.1 -03422.7 -07.4917 26251.2
 22 03 2013  03 53  -21.0607 26027.0 -03422.6 -07.4916 26251.1
 22 03 2013  03 54  -21.0607 26027.0 -03422.6 -07.4915 26251.1
 22 03 2013  03 55  -21.0607 26027.2 -03422.7 -07.4916 26251.3
 22 03 2013  03 56  -21.0608 26027.3 -03422.7 -07.4916 26251.4
 22 03 2013  03 57  -21.0608 26027.5 -03422.8 -07.4917 26251.6
 22 03 2013  03 58  -21.0609 26027.6 -03422.8 -07.4918 26251.7
 22 03 2013  03 59  -21.0609 26027.7 -03422.8 -07.4918 26251.8
 22 03 2013  04 00  -21.0607 26027.8 -03422.8 -07.4917 26251.9
 22 03 2013  04 01  -21.0604 26027.8 -03422.8 -07.4916 26251.9
 22 03 2013  04 02  -21.0603 26027.8 -03422.7 -07.4916 26251.9
 22 03 2013  04 03  -21.0604 26027.9 -03422.8 -07.4916 26252.0
 22 03 2013  04 04  -21.0605 26028.1 -03422.8 -07.4916 26252.2
 22 03 2013  04 05  -21.0606 26028.1 -03422.8 -07.4916 26252.2
 22 03 2013  04 06  -21.0605 26028.0 -03422.7 -07.4914 26252.1
 22 03 2013  04 07  -21.0604 26027.9 -03422.6 -07.4912 26252.0
 22 03 2013  04 08  -21.0604 26027.9 -03422.5 -07.4911 26252.0
 22 03 2013  04 09  -21.0607 26028.0 -03422.6 -07.4911 26252.1
 22 03 2013  04 10  -21.0607 26028.2 -03422.6 -07.4912 26252.2
 22 03 2013  04 11  -21.0607 26028.1 -03422.6 -07.4911 26252.2
 22 03 2013  04 12  -21.0608 26027.8 -03422.3 -07.4907 26251.9
 22 03 2013  04 13  -21.0612 26027.7 -03422.3 -07.4907 26251.8
 22 03 2013  04 14  -21.0613 26027.7 -03422.3 -07.4905 26251.7
 22 03 2013  04 15  -21.0615 26027.9 -03422.3 -07.4906 26251.9
 22 03 2013  04 16  -21.0613 26028.1 -03422.4 -07.4907 26252.1
 22 03 2013  04 17  -21.0608 26028.3 -03422.4 -07.4908 26252.4
 22 03 2013  04 18  -21.0603 26028.4 -03422.4 -07.4907 26252.5
 22 03 2013  04 19  -21.0601 26028.5 -03422.4 -07.4907 26252.5
 22 03 2013  04 20  -21.0600 26028.5 -03422.4 -07.4906 26252.6
 22 03 2013  04 21  -21.0601 26028.6 -03422.4 -07.4906 26252.6
 22 03 2013  04 22  -21.0601 26028.7 -03422.4 -07.4907 26252.7
 22 03 2013  04 23  -21.0599 26028.9 -03422.5 -07.4907 26252.9
 22 03 2013  04 24  -21.0598 26029.1 -03422.5 -07.4908 26253.1
 22 03 2013  04 25  -21.0599 26029.1 -03422.5 -07.4908 26253.2
 22 03 2013  04 26  -21.0598 26029.2 -03422.5 -07.4907 26253.2
 22 03 2013  04 27  -21.0598 26029.3 -03422.5 -07.4907 26253.3
 22 03 2013  04 28  -21.0599 26029.4 -03422.6 -07.4908 26253.5
 22 03 2013  04 29  -21.0599 26029.6 -03422.6 -07.4908 26253.6
 22 03 2013  04 30  -21.0597 26029.6 -03422.6 -07.4907 26253.6
 22 03 2013  04 31  -21.0596 26029.6 -03422.6 -07.4907 26253.7
 22 03 2013  04 32  -21.0595 26029.6 -03422.5 -07.4906 26253.7
 22 03 2013  04 33  -21.0593 26029.5 -03422.4 -07.4904 26253.6
 22 03 2013  04 34  -21.0594 26029.5 -03422.4 -07.4904 26253.6
 22 03 2013  04 35  -21.0594 26029.4 -03422.4 -07.4903 26253.4
 22 03 2013  04 36  -21.0592 26029.2 -03422.2 -07.4901 26253.3
 22 03 2013  04 37  -21.0593 26029.1 -03422.1 -07.4899 26253.1
 22 03 2013  04 38  -21.0594 26029.1 -03422.2 -07.4899 26253.1
 22 03 2013  04 39  -21.0595 26029.2 -03422.2 -07.4899 26253.2
 22 03 2013  04 40  -21.0596 26029.3 -03422.2 -07.4900 26253.3
 22 03 2013  04 41  -21.0595 26029.2 -03422.2 -07.4900 26253.2
 22 03 2013  04 42  -21.0593 26029.1 -03422.1 -07.4899 26253.1
 22 03 2013  04 43  -21.0592 26029.1 -03422.1 -07.4898 26253.1
 22 03 2013  04 44  -21.0593 26028.9 -03422.0 -07.4898 26252.9
 22 03 2013  04 45  -21.0595 26028.7 -03421.9 -07.4896 26252.7
 22 03 2013  04 46  -21.0596 26028.7 -03421.9 -07.4895 26252.6
 22 03 2013  04 47  -21.0596 26028.9 -03422.0 -07.4897 26252.9
 22 03 2013  04 48  -21.0595 26029.1 -03422.2 -07.4900 26253.1
 22 03 2013  04 49  -21.0594 26029.4 -03422.3 -07.4901 26253.4
 22 03 2013  04 50  -21.0594 26029.6 -03422.4 -07.4904 26253.6
 22 03 2013  04 51  -21.0594 26029.9 -03422.6 -07.4906 26254.0
 22 03 2013  04 52  -21.0592 26030.0 -03422.7 -07.4908 26254.1
 22 03 2013  04 53  -21.0590 26029.9 -03422.6 -07.4907 26254.0
 22 03 2013  04 54  -21.0589 26029.8 -03422.5 -07.4904 26253.8
 22 03 2013  04 55  -21.0588 26029.7 -03422.4 -07.4903 26253.7
 22 03 2013  04 56  -21.0587 26029.8 -03422.4 -07.4903 26253.8
 22 03 2013  04 57  -21.0590 26029.6 -03422.3 -07.4902 26253.6
 22 03 2013  04 58  -21.0588 26029.5 -03422.3 -07.4902 26253.5
 22 03 2013  04 59  -21.0587 26029.5 -03422.3 -07.4901 26253.5
 22 03 2013  05 00  -21.0590 26029.7 -03422.4 -07.4902 26253.7
 22 03 2013  05 01  -21.0591 26030.0 -03422.5 -07.4904 26254.0
 22 03 2013  05 02  -21.0587 26029.9 -03422.5 -07.4904 26254.0
 22 03 2013  05 03  -21.0584 26029.9 -03422.4 -07.4903 26254.0
 22 03 2013  05 04  -21.0587 26030.2 -03422.6 -07.4906 26254.3
 22 03 2013  05 05  -21.0588 26030.3 -03422.7 -07.4907 26254.4
 22 03 2013  05 06  -21.0586 26030.7 -03422.8 -07.4909 26254.8
 22 03 2013  05 07  -21.0583 26030.5 -03422.7 -07.4908 26254.5
 22 03 2013  05 08  -21.0584 26029.6 -03422.3 -07.4901 26253.6
 22 03 2013  05 09  -21.0588 26029.1 -03421.9 -07.4895 26253.0
 22 03 2013  05 10  -21.0591 26029.1 -03421.9 -07.4893 26253.1
 22 03 2013  05 11  -21.0589 26029.6 -03422.2 -07.4898 26253.6
 22 03 2013  05 12  -21.0585 26030.1 -03422.5 -07.4903 26254.2
 22 03 2013  05 13  -21.0580 26030.6 -03422.7 -07.4908 26254.7
 22 03 2013  05 14  -21.0578 26031.0 -03423.0 -07.4911 26255.1
 22 03 2013  05 15  -21.0577 26031.2 -03423.1 -07.4914 26255.3
 22 03 2013  05 16  -21.0575 26031.4 -03423.1 -07.4914 26255.5
 22 03 2013  05 17  -21.0571 26031.5 -03423.2 -07.4915 26255.7
 22 03 2013  05 18  -21.0566 26031.5 -03423.2 -07.4915 26255.6
 22 03 2013  05 19  -21.0564 26031.5 -03423.1 -07.4913 26255.6
 22 03 2013  05 20  -21.0563 26031.4 -03423.0 -07.4911 26255.5
 22 03 2013  05 21  -21.0562 26031.3 -03423.0 -07.4910 26255.4
 22 03 2013  05 22  -21.0562 26031.1 -03422.9 -07.4909 26255.2
 22 03 2013  05 23  -21.0563 26030.9 -03422.8 -07.4908 26255.0
 22 03 2013  05 24  -21.0565 26030.8 -03422.7 -07.4907 26254.9
 22 03 2013  05 25  -21.0567 26030.7 -03422.7 -07.4906 26254.7
 22 03 2013  05 26  -21.0567 26030.5 -03422.6 -07.4904 26254.5
 22 03 2013  05 27  -21.0565 26030.3 -03422.5 -07.4903 26254.3
 22 03 2013  05 28  -21.0566 26030.1 -03422.4 -07.4901 26254.1
 22 03 2013  05 29  -21.0567 26029.7 -03422.2 -07.4899 26253.7
 22 03 2013  05 30  -21.0565 26029.4 -03422.0 -07.4896 26253.3
 22 03 2013  05 31  -21.0563 26029.0 -03421.9 -07.4894 26253.0
 22 03 2013  05 32  -21.0561 26028.7 -03421.8 -07.4892 26252.7
 22 03 2013  05 33  -21.0560 26028.4 -03421.6 -07.4890 26252.3
 22 03 2013  05 34  -21.0559 26028.0 -03421.5 -07.4889 26251.9
 22 03 2013  05 35  -21.0559 26027.8 -03421.5 -07.4889 26251.7
 22 03 2013  05 36  -21.0560 26027.7 -03421.5 -07.4890 26251.6
 22 03 2013  05 37  -21.0561 26027.5 -03421.5 -07.4890 26251.4
 22 03 2013  05 38  -21.0560 26027.4 -03421.5 -07.4891 26251.4
 22 03 2013  05 39  -21.0560 26027.4 -03421.6 -07.4891 26251.3
 22 03 2013  05 40  -21.0561 26027.4 -03421.6 -07.4893 26251.3
 22 03 2013  05 41  -21.0564 26027.4 -03421.7 -07.4895 26251.4
 22 03 2013  05 42  -21.0565 26027.5 -03421.8 -07.4897 26251.4
 22 03 2013  05 43  -21.0566 26027.6 -03421.9 -07.4899 26251.6
 22 03 2013  05 44  -21.0567 26027.6 -03422.0 -07.4900 26251.6
 22 03 2013  05 45  -21.0567 26027.6 -03422.0 -07.4901 26251.6
 22 03 2013  05 46  -21.0567 26027.6 -03422.0 -07.4900 26251.5
 22 03 2013  05 47  -21.0565 26027.4 -03421.9 -07.4900 26251.4
 22 03 2013  05 48  -21.0564 26027.2 -03421.9 -07.4898 26251.2
 22 03 2013  05 49  -21.0562 26027.1 -03421.8 -07.4897 26251.1
 22 03 2013  05 50  -21.0562 26027.0 -03421.8 -07.4897 26251.0
 22 03 2013  05 51  -21.0561 26027.0 -03421.8 -07.4897 26250.9
 22 03 2013  05 52  -21.0561 26027.0 -03421.8 -07.4898 26251.0
 22 03 2013  05 53  -21.0561 26027.0 -03421.9 -07.4899 26251.0
 22 03 2013  05 54  -21.0562 26027.1 -03422.0 -07.4901 26251.1
 22 03 2013  05 55  -21.0563 26027.2 -03422.0 -07.4902 26251.2
 22 03 2013  05 56  -21.0563 26027.2 -03422.0 -07.4902 26251.2
 22 03 2013  05 57  -21.0563 26027.1 -03422.0 -07.4902 26251.1
 22 03 2013  05 58  -21.0563 26027.1 -03422.0 -07.4902 26251.1
 22 03 2013  05 59  -21.0561 26027.1 -03422.0 -07.4902 26251.1
 22 03 2013  06 00  -21.0560 26027.0 -03422.0 -07.4901 26251.0
 22 03 2013  06 01  -21.0558 26026.9 -03421.9 -07.4901 26250.9
 22 03 2013  06 02  -21.0556 26026.8 -03421.9 -07.4901 26250.8
 22 03 2013  06 03  -21.0553 26026.7 -03421.9 -07.4901 26250.7
 22 03 2013  06 04  -21.0551 26026.5 -03421.8 -07.4899 26250.5
 22 03 2013  06 05  -21.0549 26026.5 -03421.8 -07.4900 26250.5
 22 03 2013  06 06  -21.0548 26026.3 -03421.8 -07.4899 26250.2
 22 03 2013  06 07  -21.0547 26026.1 -03421.7 -07.4898 26250.1
 22 03 2013  06 08  -21.0546 26025.9 -03421.7 -07.4898 26249.9
 22 03 2013  06 09  -21.0545 26025.7 -03421.6 -07.4897 26249.6
 22 03 2013  06 10  -21.0544 26025.6 -03421.6 -07.4897 26249.5
 22 03 2013  06 11  -21.0543 26025.5 -03421.6 -07.4898 26249.4
 22 03 2013  06 12  -21.0542 26025.4 -03421.6 -07.4898 26249.3
 22 03 2013  06 13  -21.0541 26025.3 -03421.6 -07.4899 26249.3
 22 03 2013  06 14  -21.0541 26025.3 -03421.7 -07.4900 26249.3
 22 03 2013  06 15  -21.0541 26025.3 -03421.8 -07.4902 26249.3
 22 03 2013  06 16  -21.0540 26025.3 -03421.8 -07.4902 26249.2
 22 03 2013  06 17  -21.0539 26025.2 -03421.8 -07.4903 26249.2
 22 03 2013  06 18  -21.0539 26025.2 -03421.8 -07.4903 26249.2
 22 03 2013  06 19  -21.0539 26025.2 -03421.8 -07.4903 26249.1
 22 03 2013  06 20  -21.0540 26025.0 -03421.8 -07.4903 26249.0
 22 03 2013  06 21  -21.0540 26024.8 -03421.7 -07.4901 26248.8
 22 03 2013  06 22  -21.0539 26024.6 -03421.6 -07.4900 26248.5
 22 03 2013  06 23  -21.0538 26024.4 -03421.5 -07.4898 26248.3
 22 03 2013  06 24  -21.0537 26024.1 -03421.4 -07.4896 26248.0
 22 03 2013  06 25  -21.0536 26023.9 -03421.3 -07.4896 26247.8
 22 03 2013  06 26  -21.0536 26023.7 -03421.3 -07.4896 26247.6
 22 03 2013  06 27  -21.0534 26023.5 -03421.2 -07.4896 26247.5
 22 03 2013  06 28  -21.0534 26023.4 -03421.2 -07.4895 26247.3
 22 03 2013  06 29  -21.0533 26023.2 -03421.2 -07.4895 26247.1
 22 03 2013  06 30  -21.0532 26023.1 -03421.2 -07.4896 26247.0
 22 03 2013  06 31  -21.0532 26023.0 -03421.2 -07.4897 26246.9
 22 03 2013  06 32  -21.0532 26022.9 -03421.3 -07.4898 26246.9
 22 03 2013  06 33  -21.0533 26022.9 -03421.3 -07.4899 26246.9
 22 03 2013  06 34  -21.0533 26022.9 -03421.4 -07.4900 26246.9
 22 03 2013  06 35  -21.0533 26022.9 -03421.4 -07.4902 26246.9
 22 03 2013  06 36  -21.0533 26022.9 -03421.5 -07.4903 26246.8
 22 03 2013  06 37  -21.0534 26022.9 -03421.5 -07.4903 26246.8
 22 03 2013  06 38  -21.0534 26022.9 -03421.6 -07.4904 26246.9
 22 03 2013  06 39  -21.0535 26022.9 -03421.6 -07.4905 26246.9
 22 03 2013  06 40  -21.0535 26022.9 -03421.6 -07.4905 26246.9
 22 03 2013  06 41  -21.0536 26023.0 -03421.7 -07.4907 26247.0
 22 03 2013  06 42  -21.0536 26023.0 -03421.7 -07.4907 26246.9
 22 03 2013  06 43  -21.0537 26023.0 -03421.7 -07.4908 26247.0
 22 03 2013  06 44  -21.0537 26023.0 -03421.8 -07.4909 26247.0
 22 03 2013  06 45  -21.0536 26022.9 -03421.8 -07.4909 26246.9
 22 03 2013  06 46  -21.0537 26022.9 -03421.8 -07.4909 26246.9
 22 03 2013  06 47  -21.0537 26022.9 -03421.8 -07.4910 26246.9
 22 03 2013  06 48  -21.0537 26022.9 -03421.8 -07.4910 26246.9
 22 03 2013  06 49  -21.0537 26022.9 -03421.8 -07.4910 26246.9
 22 03 2013  06 50  -21.0538 26022.9 -03421.8 -07.4910 26246.9
 22 03 2013  06 51  -21.0538 26022.9 -03421.9 -07.4911 26246.9
 22 03 2013  06 52  -21.0538 26022.8 -03421.9 -07.4911 26246.8
 22 03 2013  06 53  -21.0537 26022.8 -03421.9 -07.4912 26246.8
 22 03 2013  06 54  -21.0538 26022.8 -03421.9 -07.4912 26246.8
 22 03 2013  06 55  -21.0538 26022.8 -03421.9 -07.4913 26246.8
 22 03 2013  06 56  -21.0537 26022.8 -03421.9 -07.4913 26246.8
 22 03 2013  06 57  -21.0537 26022.8 -03422.0 -07.4914 26246.8
 22 03 2013  06 58  -21.0537 26022.8 -03422.0 -07.4915 26246.8
 22 03 2013  06 59  -21.0535 26022.8 -03422.0 -07.4915 26246.8
 22 03 2013  07 00  -21.0535 26022.8 -03422.0 -07.4915 26246.8
 22 03 2013  07 01  -21.0535 26022.7 -03422.1 -07.4916 26246.8
 22 03 2013  07 02  -21.0535 26022.7 -03422.1 -07.4917 26246.8
 22 03 2013  07 03  -21.0534 26022.8 -03422.1 -07.4917 26246.8
 22 03 2013  07 04  -21.0533 26022.7 -03422.2 -07.4918 26246.8
 22 03 2013  07 05  -21.0532 26022.7 -03422.2 -07.4918 26246.8
 22 03 2013  07 06  -21.0532 26022.7 -03422.2 -07.4918 26246.8
 22 03 2013  07 07  -21.0530 26022.7 -03422.2 -07.4919 26246.8
 22 03 2013  07 08  -21.0528 26022.8 -03422.3 -07.4921 26246.8
 22 03 2013  07 09  -21.0525 26022.8 -03422.4 -07.4922 26246.9
 22 03 2013  07 10  -21.0525 26022.7 -03422.4 -07.4923 26246.8
 22 03 2013  07 11  -21.0524 26022.7 -03422.4 -07.4923 26246.8
 22 03 2013  07 12  -21.0521 26022.8 -03422.5 -07.4924 26246.9
 22 03 2013  07 13  -21.0520 26022.8 -03422.5 -07.4925 26246.9
 22 03 2013  07 14  -21.0518 26022.7 -03422.5 -07.4926 26246.9
 22 03 2013  07 15  -21.0517 26022.8 -03422.6 -07.4926 26246.9
 22 03 2013  07 16  -21.0517 26022.8 -03422.6 -07.4927 26246.9
 22 03 2013  07 17  -21.0514 26022.8 -03422.7 -07.4928 26246.9
 22 03 2013  07 18  -21.0511 26022.8 -03422.7 -07.4930 26246.9
 22 03 2013  07 19  -21.0509 26022.8 -03422.8 -07.4930 26247.0
 22 03 2013  07 20  -21.0507 26022.8 -03422.8 -07.4931 26247.0
 22 03 2013  07 21  -21.0504 26022.8 -03422.8 -07.4931 26246.9
 22 03 2013  07 22  -21.0501 26022.8 -03422.8 -07.4931 26246.9
 22 03 2013  07 23  -21.0498 26022.8 -03422.9 -07.4933 26246.9
 22 03 2013  07 24  -21.0496 26022.8 -03422.9 -07.4934 26246.9
 22 03 2013  07 25  -21.0494 26022.8 -03422.9 -07.4935 26246.9
 22 03 2013  07 26  -21.0492 26022.8 -03423.0 -07.4936 26247.0
 22 03 2013  07 27  -21.0491 26022.8 -03423.1 -07.4937 26247.0
 22 03 2013  07 28  -21.0488 26022.8 -03423.1 -07.4938 26246.9
 22 03 2013  07 29  -21.0487 26022.8 -03423.2 -07.4940 26246.9
 22 03 2013  07 30  -21.0486 26022.8 -03423.2 -07.4941 26247.0
 22 03 2013  07 31  -21.0485 26022.8 -03423.3 -07.4942 26247.0
 22 03 2013  07 32  -21.0485 26022.7 -03423.3 -07.4942 26246.9
 22 03 2013  07 33  -21.0484 26022.8 -03423.3 -07.4943 26247.0
 22 03 2013  07 34  -21.0484 26022.9 -03423.4 -07.4945 26247.1
 22 03 2013  07 35  -21.0485 26022.9 -03423.5 -07.4945 26247.2
 22 03 2013  07 36  -21.0486 26022.9 -03423.5 -07.4946 26247.2
 22 03 2013  07 37  -21.0487 26022.9 -03423.5 -07.4947 26247.1
 22 03 2013  07 38  -21.0487 26022.9 -03423.5 -07.4947 26247.2
 22 03 2013  07 39  -21.0488 26022.9 -03423.6 -07.4948 26247.2
 22 03 2013  07 40  -21.0489 26022.9 -03423.6 -07.4948 26247.2
 22 03 2013  07 41  -21.0490 26023.0 -03423.6 -07.4949 26247.2
 22 03 2013  07 42  -21.0491 26023.0 -03423.7 -07.4950 26247.3
 22 03 2013  07 43  -21.0491 26023.1 -03423.7 -07.4950 26247.3
 22 03 2013  07 44  -21.0491 26023.1 -03423.7 -07.4951 26247.4
 22 03 2013  07 45  -21.0491 26023.1 -03423.7 -07.4951 26247.4
 22 03 2013  07 46  -21.0492 26023.1 -03423.7 -07.4951 26247.4
 22 03 2013  07 47  -21.0492 26023.1 -03423.8 -07.4951 26247.4
 22 03 2013  07 48  -21.0492 26023.1 -03423.8 -07.4951 26247.4
 22 03 2013  07 49  -21.0493 26023.2 -03423.8 -07.4952 26247.5
 22 03 2013  07 50  -21.0492 26023.2 -03423.8 -07.4952 26247.5
 22 03 2013  07 51  -21.0493 26023.2 -03423.8 -07.4953 26247.4
 22 03 2013  07 52  -21.0492 26023.1 -03423.8 -07.4952 26247.4
 22 03 2013  07 53  -21.0492 26023.1 -03423.8 -07.4952 26247.4
 22 03 2013  07 54  -21.0492 26023.1 -03423.8 -07.4952 26247.3
 22 03 2013  07 55  -21.0492 26023.0 -03423.8 -07.4952 26247.3
 22 03 2013  07 56  -21.0493 26023.0 -03423.8 -07.4953 26247.3
 22 03 2013  07 57  -21.0494 26023.0 -03423.8 -07.4954 26247.2
 22 03 2013  07 58  -21.0495 26022.9 -03423.9 -07.4955 26247.2
 22 03 2013  07 59  -21.0497 26023.0 -03423.9 -07.4955 26247.3
 22 03 2013  08 00  -21.0499 26023.0 -03424.0 -07.4956 26247.3
 22 03 2013  08 01  -21.0500 26023.1 -03424.0 -07.4956 26247.4
 22 03 2013  08 02  -21.0500 26023.0 -03423.9 -07.4955 26247.3
 22 03 2013  08 03  -21.0500 26023.0 -03424.0 -07.4956 26247.3
 22 03 2013  08 04  -21.0500 26023.1 -03424.0 -07.4957 26247.4
 22 03 2013  08 05  -21.0499 26023.1 -03424.0 -07.4957 26247.4
 22 03 2013  08 06  -21.0499 26022.7 -03423.9 -07.4955 26247.0
 22 03 2013  08 07  -21.0498 26022.9 -03424.0 -07.4956 26247.2
 22 03 2013  08 08  -21.0498 26022.9 -03424.0 -07.4957 26247.1
 22 03 2013  08 09  -21.0498 26022.8 -03424.0 -07.4957 26247.1
 22 03 2013  08 10  -21.0497 26022.8 -03424.0 -07.4958 26247.1
 22 03 2013  08 11  -21.0496 26022.9 -03424.1 -07.4959 26247.2
 22 03 2013  08 12  -21.0494 26023.0 -03424.1 -07.4960 26247.3
 22 03 2013  08 13  -21.0496 26022.7 -03424.1 -07.4960 26247.0
 22 03 2013  08 14  -21.0494 26022.8 -03424.2 -07.4962 26247.2
 22 03 2013  08 15  -21.0491 26022.9 -03424.3 -07.4962 26247.3
 22 03 2013  08 16  -21.0491 26022.9 -03424.3 -07.4963 26247.2
 22 03 2013  08 17  -21.0488 26023.0 -03424.2 -07.4962 26247.3
 22 03 2013  08 18  -21.0486 26022.9 -03424.3 -07.4964 26247.2
 22 03 2013  08 19  -21.0485 26022.9 -03424.4 -07.4965 26247.2
 22 03 2013  08 20  -21.0485 26022.9 -03424.5 -07.4967 26247.3
 22 03 2013  08 21  -21.0484 26023.0 -03424.5 -07.4968 26247.4
 22 03 2013  08 22  -21.0483 26023.0 -03424.6 -07.4969 26247.4
 22 03 2013  08 23  -21.0481 26023.0 -03424.6 -07.4969 26247.4
 22 03 2013  08 24  -21.0481 26022.9 -03424.6 -07.4970 26247.3
 22 03 2013  08 25  -21.0480 26022.9 -03424.6 -07.4970 26247.3
 22 03 2013  08 26  -21.0479 26022.9 -03424.7 -07.4971 26247.3
 22 03 2013  08 27  -21.0479 26022.9 -03424.7 -07.4972 26247.3
 22 03 2013  08 28  -21.0479 26022.8 -03424.7 -07.4973 26247.2
 22 03 2013  08 29  -21.0479 26022.8 -03424.7 -07.4973 26247.2
 22 03 2013  08 30  -21.0480 26022.9 -03424.8 -07.4974 26247.3
 22 03 2013  08 31  -21.0478 26022.8 -03424.8 -07.4975 26247.2
 22 03 2013  08 32  -21.0477 26022.8 -03424.8 -07.4975 26247.2
 22 03 2013  08 33  -21.0477 26022.7 -03424.8 -07.4976 26247.1
 22 03 2013  08 34  -21.0478 26022.6 -03424.9 -07.4977 26247.0
 22 03 2013  08 35  -21.0477 26022.5 -03424.8 -07.4976 26246.9
 22 03 2013  08 36  -21.0476 26022.6 -03424.9 -07.4977 26247.0
 22 03 2013  08 37  -21.0476 26022.6 -03424.9 -07.4978 26247.1
 22 03 2013  08 38  -21.0475 26022.8 -03425.0 -07.4979 26247.2
 22 03 2013  08 39  -21.0474 26022.9 -03425.0 -07.4979 26247.3
 22 03 2013  08 40  -21.0474 26022.9 -03425.0 -07.4979 26247.4
 22 03 2013  08 41  -21.0474 26023.0 -03425.0 -07.4979 26247.4
 22 03 2013  08 42  -21.0474 26023.1 -03425.1 -07.4979 26247.5
 22 03 2013  08 43  -21.0474 26023.2 -03425.1 -07.4980 26247.7
 22 03 2013  08 44  -21.0473 26023.3 -03425.0 -07.4979 26247.7
 22 03 2013  08 45  -21.0471 26023.2 -03425.0 -07.4977 26247.7
 22 03 2013  08 46  -21.0470 26023.2 -03424.8 -07.4975 26247.6
 22 03 2013  08 47  -21.0465 26023.0 -03424.7 -07.4972 26247.4
 22 03 2013  08 48  -21.0462 26022.9 -03424.6 -07.4969 26247.3
 22 03 2013  08 49  -21.0457 26022.8 -03424.4 -07.4967 26247.1
 22 03 2013  08 50  -21.0453 26022.7 -03424.4 -07.4966 26247.1
 22 03 2013  08 51  -21.0451 26022.7 -03424.4 -07.4966 26247.0
 22 03 2013  08 52  -21.0449 26022.6 -03424.4 -07.4966 26247.0
 22 03 2013  08 53  -21.0448 26022.5 -03424.3 -07.4965 26246.8
 22 03 2013  08 54  -21.0444 26022.5 -03424.3 -07.4965 26246.8
 22 03 2013  08 55  -21.0440 26022.5 -03424.4 -07.4967 26246.9
 22 03 2013  08 56  -21.0438 26022.5 -03424.5 -07.4969 26246.9
 22 03 2013  08 57  -21.0437 26022.5 -03424.6 -07.4971 26246.8
 22 03 2013  08 58  -21.0437 26022.4 -03424.6 -07.4973 26246.7
 22 03 2013  08 59  -21.0435 26022.3 -03424.7 -07.4974 26246.7
 22 03 2013  09 00  -21.0433 26022.4 -03424.8 -07.4976 26246.8
 22 03 2013  09 01  -21.0433 26022.4 -03424.9 -07.4978 26246.8
 22 03 2013  09 02  -21.0433 26022.3 -03424.9 -07.4979 26246.8
 22 03 2013  09 03  -21.0433 26022.3 -03425.0 -07.4981 26246.7
 22 03 2013  09 04  -21.0429 26022.2 -03425.0 -07.4981 26246.6
 22 03 2013  09 05  -21.0426 26022.2 -03425.0 -07.4981 26246.7
 22 03 2013  09 06  -21.0422 26022.0 -03425.0 -07.4980 26246.4
 22 03 2013  09 07  -21.0420 26021.7 -03424.9 -07.4980 26246.2
 22 03 2013  09 08  -21.0422 26021.7 -03425.0 -07.4981 26246.1
 22 03 2013  09 09  -21.0426 26021.7 -03425.0 -07.4982 26246.2
 22 03 2013  09 10  -21.0428 26021.7 -03425.1 -07.4983 26246.2
 22 03 2013  09 11  -21.0435 26021.7 -03425.1 -07.4984 26246.1
 22 03 2013  09 12  -21.0441 26021.5 -03425.1 -07.4984 26246.0
 22 03 2013  09 13  -21.0446 26021.4 -03425.1 -07.4984 26245.8
 22 03 2013  09 14  -21.0453 26021.2 -03425.0 -07.4984 26245.6
 22 03 2013  09 15  -21.0459 26021.1 -03425.1 -07.4985 26245.6
 22 03 2013  09 16  -21.0465 26021.1 -03425.1 -07.4986 26245.5
 22 03 2013  09 17  -21.0473 26020.9 -03425.1 -07.4986 26245.4
 22 03 2013  09 18  -21.0479 26020.9 -03425.1 -07.4986 26245.3
 22 03 2013  09 19  -21.0483 26020.7 -03425.0 -07.4986 26245.2
 22 03 2013  09 20  -21.0487 26020.5 -03425.0 -07.4986 26245.0
 22 03 2013  09 21  -21.0489 26020.4 -03425.0 -07.4986 26244.8
 22 03 2013  09 22  -21.0491 26020.2 -03424.9 -07.4985 26244.6
 22 03 2013  09 23  -21.0494 26020.0 -03424.9 -07.4985 26244.4
 22 03 2013  09 24  -21.0495 26019.8 -03424.9 -07.4985 26244.3
 22 03 2013  09 25  -21.0499 26019.8 -03424.9 -07.4986 26244.2
 22 03 2013  09 26  -21.0502 26019.7 -03425.0 -07.4988 26244.1
 22 03 2013  09 27  -21.0505 26019.6 -03425.0 -07.4989 26244.1
 22 03 2013  09 28  -21.0508 26019.7 -03425.1 -07.4991 26244.2
 22 03 2013  09 29  -21.0514 26019.7 -03425.2 -07.4992 26244.2
 22 03 2013  09 30  -21.0520 26019.8 -03425.3 -07.4994 26244.3
 22 03 2013  09 31  -21.0525 26020.0 -03425.4 -07.4995 26244.4
 22 03 2013  09 32  -21.0530 26020.1 -03425.4 -07.4996 26244.6
 22 03 2013  09 33  -21.0530 26020.2 -03425.4 -07.4995 26244.7
 22 03 2013  09 34  -21.0537 26020.3 -03425.4 -07.4995 26244.8
 22 03 2013  09 35  -21.0541 26020.3 -03425.4 -07.4994 26244.8
 22 03 2013  09 36  -21.0546 26020.5 -03425.4 -07.4993 26245.0
 22 03 2013  09 37  -21.0549 26020.7 -03425.4 -07.4993 26245.2
 22 03 2013  09 38  -21.0549 26020.7 -03425.3 -07.4991 26245.2
 22 03 2013  09 39  -21.0551 26020.9 -03425.3 -07.4991 26245.3
 22 03 2013  09 40  -21.0550 26020.9 -03425.3 -07.4991 26245.4
 22 03 2013  09 41  -21.0555 26021.1 -03425.3 -07.4990 26245.5
 22 03 2013  09 42  -21.0554 26021.3 -03425.3 -07.4990 26245.8
 22 03 2013  09 43  -21.0553 26021.5 -03425.3 -07.4989 26245.9
 22 03 2013  09 44  -21.0552 26021.6 -03425.3 -07.4990 26246.1
 22 03 2013  09 45  -21.0553 26021.7 -03425.4 -07.4991 26246.2
 22 03 2013  09 46  -21.0551 26021.9 -03425.5 -07.4991 26246.4
 22 03 2013  09 47  -21.0552 26022.0 -03425.5 -07.4992 26246.5
 22 03 2013  09 48  -21.0555 26022.3 -03425.6 -07.4994 26246.8
 22 03 2013  09 49  -21.0559 26022.6 -03425.7 -07.4994 26247.1
 22 03 2013  09 50  -21.0559 26022.8 -03425.7 -07.4995 26247.3
 22 03 2013  09 51  -21.0562 26022.9 -03425.7 -07.4995 26247.4
 22 03 2013  09 52  -21.0566 26023.0 -03425.8 -07.4995 26247.5
 22 03 2013  09 53  -21.0570 26023.2 -03425.8 -07.4996 26247.7
 22 03 2013  09 54  -21.0571 26023.5 -03425.9 -07.4997 26248.0
 22 03 2013  09 55  -21.0571 26023.8 -03426.0 -07.4997 26248.4
 22 03 2013  09 56  -21.0573 26023.9 -03426.0 -07.4996 26248.5
 22 03 2013  09 57  -21.0574 26024.1 -03426.0 -07.4996 26248.6
 22 03 2013  09 58  -21.0578 26024.4 -03426.0 -07.4996 26248.9
 22 03 2013  09 59  -21.0581 26024.6 -03426.0 -07.4995 26249.1
 22 03 2013  10 00  -21.0586 26024.8 -03426.1 -07.4996 26249.3
 22 03 2013  10 01  -21.0590 26024.9 -03426.1 -07.4996 26249.4
 22 03 2013  10 02  -21.0595 26025.0 -03426.1 -07.4995 26249.5
 22 03 2013  10 03  -21.0597 26025.1 -03426.0 -07.4995 26249.6
 22 03 2013  10 04  -21.0600 26025.2 -03426.0 -07.4995 26249.8
 22 03 2013  10 05  -21.0604 26025.5 -03426.1 -07.4995 26250.0
 22 03 2013  10 06  -21.0609 26025.8 -03426.2 -07.4996 26250.3
 22 03 2013  10 07  -21.0612 26026.0 -03426.2 -07.4995 26250.5
 22 03 2013  10 08  -21.0616 26026.0 -03426.1 -07.4993 26250.6
 22 03 2013  10 09  -21.0622 26026.2 -03426.1 -07.4992 26250.7
 22 03 2013  10 10  -21.0626 26026.4 -03426.0 -07.4991 26251.0
 22 03 2013  10 11  -21.0631 26026.7 -03426.0 -07.4990 26251.2
 22 03 2013  10 12  -21.0636 26026.7 -03425.9 -07.4988 26251.3
 22 03 2013  10 13  -21.0641 26026.8 -03425.8 -07.4986 26251.3
 22 03 2013  10 14  -21.0643 26026.8 -03425.8 -07.4984 26251.3
 22 03 2013  10 15  -21.0646 26026.9 -03425.7 -07.4981 26251.4
 22 03 2013  10 16  -21.0649 26026.8 -03425.6 -07.4980 26251.3
 22 03 2013  10 17  -21.0650 26026.8 -03425.5 -07.4979 26251.3
 22 03 2013  10 18  -21.0653 26026.9 -03425.6 -07.4980 26251.4
 22 03 2013  10 19  -21.0657 26027.1 -03425.6 -07.4980 26251.6
 22 03 2013  10 20  -21.0659 26027.3 -03425.6 -07.4980 26251.7
 22 03 2013  10 21  -21.0664 26027.4 -03425.6 -07.4979 26251.9
 22 03 2013  10 22  -21.0668 26027.6 -03425.6 -07.4978 26252.1
 22 03 2013  10 23  -21.0672 26027.7 -03425.5 -07.4976 26252.2
 22 03 2013  10 24  -21.0675 26027.8 -03425.5 -07.4975 26252.2
 22 03 2013  10 25  -21.0680 26028.0 -03425.5 -07.4974 26252.5
 22 03 2013  10 26  -21.0685 26028.3 -03425.4 -07.4972 26252.7
 22 03 2013  10 27  -21.0689 26028.4 -03425.4 -07.4971 26252.8
 22 03 2013  10 28  -21.0693 26028.8 -03425.3 -07.4969 26253.2
 22 03 2013  10 29  -21.0692 26029.4 -03425.4 -07.4969 26253.8
 22 03 2013  10 30  -21.0698 26029.5 -03425.3 -07.4966 26253.9
 22 03 2013  10 31  -21.0698 26030.0 -03425.4 -07.4966 26254.4
 22 03 2013  10 32  -21.0699 26030.3 -03425.4 -07.4966 26254.7
 22 03 2013  10 33  -21.0698 26030.7 -03425.5 -07.4967 26255.1
 22 03 2013  10 34  -21.0700 26031.2 -03425.5 -07.4966 26255.6
 22 03 2013  10 35  -21.0703 26031.9 -03425.7 -07.4968 26256.3
 22 03 2013  10 36  -21.0703 26032.7 -03425.8 -07.4969 26257.1
 22 03 2013  10 37  -21.0701 26033.4 -03425.9 -07.4968 26257.8
 22 03 2013  10 38  -21.0696 26034.1 -03425.9 -07.4966 26258.6
 22 03 2013  10 39  -21.0690 26034.9 -03425.9 -07.4963 26259.3
 22 03 2013  10 40  -21.0685 26035.5 -03425.7 -07.4959 26259.9
 22 03 2013  10 41  -21.0682 26036.2 -03425.7 -07.4956 26260.6
 22 03 2013  10 42  -21.0676 26036.9 -03425.5 -07.4950 26261.3
 22 03 2013  10 43  -21.0671 26037.6 -03425.4 -07.4946 26262.0
 22 03 2013  10 44  -21.0668 26038.2 -03425.2 -07.4940 26262.5
 22 03 2013  10 45  -21.0667 26038.4 -03424.9 -07.4933 26262.7
 22 03 2013  10 46  -21.0673 26038.5 -03424.7 -07.4928 26262.7
 22 03 2013  10 47  -21.0677 26038.7 -03424.6 -07.4924 26262.9
 22 03 2013  10 48  -21.0678 26038.9 -03424.5 -07.4921 26263.1
 22 03 2013  10 49  -21.0677 26039.1 -03424.3 -07.4917 26263.3
 22 03 2013  10 50  -21.0676 26039.5 -03424.2 -07.4914 26263.7
 22 03 2013  10 51  -21.0674 26039.7 -03424.1 -07.4910 26263.9
 22 03 2013  10 52  -21.0677 26039.7 -03423.8 -07.4905 26263.8
 22 03 2013  10 53  -21.0679 26039.7 -03423.6 -07.4901 26263.8
 22 03 2013  10 54  -21.0682 26040.0 -03423.6 -07.4900 26264.1
 22 03 2013  10 55  -21.0679 26039.9 -03423.3 -07.4894 26264.0
 22 03 2013  10 56  -21.0689 26039.7 -03423.0 -07.4888 26263.7
 22 03 2013  10 57  -21.0694 26039.7 -03422.9 -07.4886 26263.7
 22 03 2013  10 58  -21.0698 26039.2 -03422.5 -07.4879 26263.2
 22 03 2013  10 59  -21.0706 26039.4 -03422.4 -07.4876 26263.3
 22 03 2013  11 00  -21.0703 26040.0 -03422.6 -07.4878 26264.0
 22 03 2013  11 01  -21.0700 26040.5 -03422.6 -07.4877 26264.5
 22 03 2013  11 02  -21.0697 26040.9 -03422.5 -07.4874 26264.8
 22 03 2013  11 03  -21.0697 26041.3 -03422.4 -07.4870 26265.2
 22 03 2013  11 04  -21.0696 26042.0 -03422.4 -07.4868 26265.9
 22 03 2013  11 05  -21.0691 26042.4 -03422.3 -07.4865 26266.3
 22 03 2013  11 06  -21.0687 26042.7 -03422.2 -07.4862 26266.6
 22 03 2013  11 07  -21.0687 26043.0 -03422.1 -07.4859 26266.9
 22 03 2013  11 08  -21.0685 26043.7 -03422.2 -07.4858 26267.6
 22 03 2013  11 09  -21.0685 26044.2 -03422.2 -07.4857 26268.0
 22 03 2013  11 10  -21.0684 26044.9 -03422.2 -07.4856 26268.8
 22 03 2013  11 11  -21.0678 26045.7 -03422.3 -07.4854 26269.6
 22 03 2013  11 12  -21.0668 26046.3 -03422.2 -07.4852 26270.2
 22 03 2013  11 13  -21.0667 26046.4 -03421.9 -07.4845 26270.3
 22 03 2013  11 14  -21.0666 26047.0 -03421.9 -07.4842 26270.8
 22 03 2013  11 15  -21.0665 26047.2 -03421.7 -07.4837 26271.0
 22 03 2013  11 16  -21.0665 26047.6 -03421.5 -07.4834 26271.4
 22 03 2013  11 17  -21.0661 26048.0 -03421.3 -07.4828 26271.7
 22 03 2013  11 18  -21.0658 26048.2 -03421.1 -07.4823 26271.9
 22 03 2013  11 19  -21.0657 26048.4 -03421.0 -07.4819 26272.1
 22 03 2013  11 20  -21.0656 26048.1 -03420.6 -07.4812 26271.8
 22 03 2013  11 21  -21.0658 26047.7 -03420.3 -07.4807 26271.3
 22 03 2013  11 22  -21.0659 26047.8 -03420.3 -07.4807 26271.4
 22 03 2013  11 23  -21.0655 26047.9 -03420.3 -07.4806 26271.5
 22 03 2013  11 24  -21.0648 26048.2 -03420.3 -07.4806 26271.8
 22 03 2013  11 25  -21.0643 26048.6 -03420.4 -07.4807 26272.2
 22 03 2013  11 26  -21.0639 26048.8 -03420.4 -07.4806 26272.4
 22 03 2013  11 27  -21.0636 26049.1 -03420.5 -07.4806 26272.7
 22 03 2013  11 28  -21.0636 26049.4 -03420.5 -07.4806 26273.1
 22 03 2013  11 29  -21.0637 26049.8 -03420.5 -07.4806 26273.4
 22 03 2013  11 30  -21.0638 26050.2 -03420.6 -07.4806 26273.8
 22 03 2013  11 31  -21.0635 26050.5 -03420.6 -07.4804 26274.1
 22 03 2013  11 32  -21.0634 26051.0 -03420.7 -07.4806 26274.7
 22 03 2013  11 33  -21.0630 26051.6 -03420.9 -07.4808 26275.2
 22 03 2013  11 34  -21.0630 26051.8 -03420.8 -07.4806 26275.4
 22 03 2013  11 35  -21.0628 26052.2 -03420.8 -07.4804 26275.8
 22 03 2013  11 36  -21.0625 26052.5 -03420.7 -07.4803 26276.1
 22 03 2013  11 37  -21.0624 26052.9 -03420.7 -07.4801 26276.5
 22 03 2013  11 38  -21.0624 26053.0 -03420.6 -07.4797 26276.6
 22 03 2013  11 39  -21.0625 26053.3 -03420.5 -07.4794 26276.9
 22 03 2013  11 40  -21.0627 26053.4 -03420.4 -07.4792 26276.9
 22 03 2013  11 41  -21.0630 26053.1 -03420.1 -07.4786 26276.6
 22 03 2013  11 42  -21.0634 26052.9 -03419.9 -07.4782 26276.4
 22 03 2013  11 43  -21.0639 26052.9 -03419.7 -07.4780 26276.3
 22 03 2013  11 44  -21.0640 26052.8 -03419.6 -07.4777 26276.3
 22 03 2013  11 45  -21.0640 26053.2 -03419.6 -07.4776 26276.6
 22 03 2013  11 46  -21.0636 26053.2 -03419.5 -07.4774 26276.6
 22 03 2013  11 47  -21.0629 26053.5 -03419.6 -07.4774 26277.0
 22 03 2013  11 48  -21.0623 26053.8 -03419.6 -07.4773 26277.2
 22 03 2013  11 49  -21.0619 26053.9 -03419.5 -07.4772 26277.3
 22 03 2013  11 50  -21.0616 26054.3 -03419.6 -07.4773 26277.8
 22 03 2013  11 51  -21.0612 26054.7 -03419.7 -07.4773 26278.2
 22 03 2013  11 52  -21.0611 26055.0 -03419.7 -07.4773 26278.5
 22 03 2013  11 53  -21.0608 26055.3 -03419.7 -07.4773 26278.8
 22 03 2013  11 54  -21.0605 26055.8 -03419.7 -07.4772 26279.2
 22 03 2013  11 55  -21.0607 26056.1 -03419.7 -07.4770 26279.5
 22 03 2013  11 56  -21.0609 26056.2 -03419.6 -07.4768 26279.7
 22 03 2013  11 57  -21.0611 26055.9 -03419.3 -07.4763 26279.3
 22 03 2013  11 58  -21.0615 26056.0 -03419.3 -07.4761 26279.4
 22 03 2013  11 59  -21.0617 26056.0 -03419.2 -07.4760 26279.3
 22 03 2013  12 00  -21.0616 26056.4 -03419.3 -07.4760 26279.8
 22 03 2013  12 01  -21.0616 26056.6 -03419.3 -07.4759 26280.0
 22 03 2013  12 02  -21.0613 26057.1 -03419.3 -07.4758 26280.5
 22 03 2013  12 03  -21.0610 26057.3 -03419.3 -07.4757 26280.7
 22 03 2013  12 04  -21.0607 26057.5 -03419.2 -07.4755 26280.9
 22 03 2013  12 05  -21.0606 26057.9 -03419.3 -07.4755 26281.3
 22 03 2013  12 06  -21.0606 26058.0 -03419.2 -07.4754 26281.4
 22 03 2013  12 07  -21.0604 26058.5 -03419.3 -07.4754 26281.8
 22 03 2013  12 08  -21.0604 26059.0 -03419.4 -07.4755 26282.3
 22 03 2013  12 09  -21.0602 26059.2 -03419.3 -07.4753 26282.6
 22 03 2013  12 10  -21.0600 26059.1 -03419.2 -07.4750 26282.5
 22 03 2013  12 11  -21.0600 26059.4 -03419.3 -07.4751 26282.8
 22 03 2013  12 12  -21.0602 26059.8 -03419.4 -07.4753 26283.2
 22 03 2013  12 13  -21.0606 26059.4 -03419.1 -07.4747 26282.8
 22 03 2013  12 14  -21.0610 26059.7 -03419.1 -07.4746 26283.0
 22 03 2013  12 15  -21.0613 26060.0 -03419.0 -07.4744 26283.3
 22 03 2013  12 16  -21.0617 26059.3 -03418.5 -07.4735 26282.6
 22 03 2013  12 17  -21.0625 26058.5 -03418.1 -07.4728 26281.7
 22 03 2013  12 18  -21.0634 26057.6 -03417.7 -07.4723 26280.8
 22 03 2013  12 19  -21.0641 26056.8 -03417.4 -07.4718 26279.9
 22 03 2013  12 20  -21.0648 26056.2 -03417.3 -07.4717 26279.3
 22 03 2013  12 21  -21.0656 26055.9 -03417.2 -07.4716 26279.0
 22 03 2013  12 22  -21.0663 26056.0 -03417.2 -07.4717 26279.1
 22 03 2013  12 23  -21.0668 26056.2 -03417.3 -07.4718 26279.3
 22 03 2013  12 24  -21.0672 26056.7 -03417.5 -07.4720 26279.8
 22 03 2013  12 25  -21.0675 26057.1 -03417.5 -07.4720 26280.2
 22 03 2013  12 26  -21.0675 26057.5 -03417.5 -07.4719 26280.6
 22 03 2013  12 27  -21.0675 26058.0 -03417.6 -07.4719 26281.2
 22 03 2013  12 28  -21.0675 26058.6 -03417.7 -07.4719 26281.7
 22 03 2013  12 29  -21.0676 26059.0 -03417.7 -07.4717 26282.2
 22 03 2013  12 30  -21.0675 26059.7 -03417.7 -07.4716 26282.8
 22 03 2013  12 31  -21.0675 26060.1 -03417.6 -07.4713 26283.3
 22 03 2013  12 32  -21.0675 26060.3 -03417.4 -07.4708 26283.4
 22 03 2013  12 33  -21.0677 26060.4 -03417.2 -07.4703 26283.5
 22 03 2013  12 34  -21.0678 26060.6 -03417.1 -07.4700 26283.7
 22 03 2013  12 35  -21.0678 26060.7 -03416.9 -07.4696 26283.7
 22 03 2013  12 36  -21.0678 26060.9 -03416.8 -07.4693 26283.9
 22 03 2013  12 37  -21.0677 26061.1 -03416.7 -07.4691 26284.1
 22 03 2013  12 38  -21.0675 26061.6 -03416.7 -07.4690 26284.6
 22 03 2013  12 39  -21.0675 26061.7 -03416.6 -07.4687 26284.7
 22 03 2013  12 40  -21.0674 26062.0 -03416.6 -07.4685 26285.0
 22 03 2013  12 41  -21.0672 26062.4 -03416.6 -07.4684 26285.3
 22 03 2013  12 42  -21.0672 26062.8 -03416.6 -07.4684 26285.8
 22 03 2013  12 43  -21.0671 26063.2 -03416.6 -07.4684 26286.2
 22 03 2013  12 44  -21.0669 26063.6 -03416.7 -07.4683 26286.6
 22 03 2013  12 45  -21.0672 26064.6 -03416.9 -07.4686 26287.6
 22 03 2013  12 46  -21.0675 26065.4 -03417.0 -07.4685 26288.4
 22 03 2013  12 47  -21.0676 26065.6 -03416.7 -07.4678 26288.6
 22 03 2013  12 48  -21.0676 26065.7 -03416.5 -07.4674 26288.7
 22 03 2013  12 49  -21.0677 26065.6 -03416.3 -07.4668 26288.5
 22 03 2013  12 50  -21.0677 26065.8 -03416.2 -07.4666 26288.7
 22 03 2013  12 51  -21.0676 26065.9 -03416.1 -07.4663 26288.8
 22 03 2013  12 52  -21.0676 26065.9 -03415.9 -07.4659 26288.7
 22 03 2013  12 53  -21.0677 26066.2 -03415.9 -07.4659 26289.1
 22 03 2013  12 54  -21.0679 26066.5 -03415.9 -07.4658 26289.4
 22 03 2013  12 55  -21.0680 26066.6 -03415.8 -07.4655 26289.4
 22 03 2013  12 56  -21.0680 26066.6 -03415.7 -07.4653 26289.5
 22 03 2013  12 57  -21.0680 26066.7 -03415.6 -07.4651 26289.5
 22 03 2013  12 58  -21.0680 26066.9 -03415.6 -07.4649 26289.7
 22 03 2013  12 59  -21.0679 26066.9 -03415.5 -07.4647 26289.7
 22 03 2013  13 00  -21.0679 26067.0 -03415.4 -07.4645 26289.8
 22 03 2013  13 01  -21.0679 26067.1 -03415.3 -07.4644 26289.9
 22 03 2013  13 02  -21.0680 26067.4 -03415.3 -07.4643 26290.2
 22 03 2013  13 03  -21.0682 26067.8 -03415.4 -07.4643 26290.6
 22 03 2013  13 04  -21.0683 26068.1 -03415.3 -07.4641 26290.9
 22 03 2013  13 05  -21.0683 26068.3 -03415.3 -07.4639 26291.1
 22 03 2013  13 06  -21.0684 26068.6 -03415.2 -07.4637 26291.3
 22 03 2013  13 07  -21.0684 26068.8 -03415.1 -07.4634 26291.5
 22 03 2013  13 08  -21.0685 26069.0 -03415.0 -07.4632 26291.8
 22 03 2013  13 09  -21.0686 26069.3 -03415.0 -07.4631 26292.0
 22 03 2013  13 10  -21.0686 26069.6 -03415.0 -07.4629 26292.4
 22 03 2013  13 11  -21.0688 26069.8 -03414.8 -07.4626 26292.5
 22 03 2013  13 12  -21.0691 26069.9 -03414.7 -07.4622 26292.5
 22 03 2013  13 13  -21.0693 26070.1 -03414.6 -07.4619 26292.7
 22 03 2013  13 14  -21.0693 26070.1 -03414.4 -07.4615 26292.7
 22 03 2013  13 15  -21.0690 26069.9 -03414.1 -07.4609 26292.5
 22 03 2013  13 16  -21.0688 26069.7 -03413.9 -07.4606 26292.3
 22 03 2013  13 17  -21.0688 26069.6 -03413.8 -07.4604 26292.2
 22 03 2013  13 18  -21.0687 26069.7 -03413.7 -07.4602 26292.2
 22 03 2013  13 19  -21.0685 26069.8 -03413.7 -07.4602 26292.3
 22 03 2013  13 20  -21.0684 26069.9 -03413.7 -07.4600 26292.5
 22 03 2013  13 21  -21.0683 26070.2 -03413.7 -07.4600 26292.7
 22 03 2013  13 22  -21.0681 26070.3 -03413.6 -07.4598 26292.9
 22 03 2013  13 23  -21.0679 26070.5 -03413.6 -07.4596 26293.1
 22 03 2013  13 24  -21.0679 26070.7 -03413.5 -07.4595 26293.3
 22 03 2013  13 25  -21.0678 26070.9 -03413.5 -07.4593 26293.4
 22 03 2013  13 26  -21.0678 26071.1 -03413.4 -07.4592 26293.6
 22 03 2013  13 27  -21.0677 26071.3 -03413.4 -07.4590 26293.8
 22 03 2013  13 28  -21.0676 26071.6 -03413.3 -07.4588 26294.0
 22 03 2013  13 29  -21.0674 26071.9 -03413.3 -07.4587 26294.3
 22 03 2013  13 30  -21.0670 26072.1 -03413.3 -07.4585 26294.5
 22 03 2013  13 31  -21.0664 26072.4 -03413.3 -07.4585 26294.9
 22 03 2013  13 32  -21.0659 26073.0 -03413.5 -07.4587 26295.5
 22 03 2013  13 33  -21.0657 26073.4 -03413.5 -07.4586 26295.9
 22 03 2013  13 34  -21.0652 26074.0 -03413.6 -07.4587 26296.5
 22 03 2013  13 35  -21.0647 26074.9 -03413.9 -07.4590 26297.4
 22 03 2013  13 36  -21.0641 26075.8 -03414.1 -07.4592 26298.3
 22 03 2013  13 37  -21.0637 26076.9 -03414.3 -07.4595 26299.4
 22 03 2013  13 38  -21.0636 26078.2 -03414.6 -07.4596 26300.7
 22 03 2013  13 39  -21.0635 26078.9 -03414.5 -07.4593 26301.5
 22 03 2013  13 40  -21.0632 26079.6 -03414.4 -07.4588 26302.2
 22 03 2013  13 41  -21.0630 26080.5 -03414.4 -07.4586 26303.0
 22 03 2013  13 42  -21.0625 26080.5 -03414.0 -07.4578 26303.0
 22 03 2013  13 43  -21.0618 26080.3 -03413.7 -07.4572 26302.7
 22 03 2013  13 44  -21.0613 26079.9 -03413.4 -07.4566 26302.3
 22 03 2013  13 45  -21.0609 26079.3 -03413.1 -07.4561 26301.7
 22 03 2013  13 46  -21.0607 26079.1 -03413.0 -07.4559 26301.5
 22 03 2013  13 47  -21.0605 26078.7 -03412.8 -07.4556 26301.1
 22 03 2013  13 48  -21.0606 26078.1 -03412.5 -07.4551 26300.4
 22 03 2013  13 49  -21.0607 26077.4 -03412.1 -07.4546 26299.6
 22 03 2013  13 50  -21.0603 26076.7 -03411.9 -07.4544 26298.9
 22 03 2013  13 51  -21.0592 26076.2 -03412.0 -07.4546 26298.4
 22 03 2013  13 52  -21.0580 26075.9 -03412.2 -07.4551 26298.2
 22 03 2013  13 53  -21.0580 26077.0 -03413.0 -07.4565 26299.4
 22 03 2013  13 54  -21.0581 26077.8 -03413.3 -07.4570 26300.3
 22 03 2013  13 55  -21.0577 26078.5 -03413.6 -07.4573 26301.0
 22 03 2013  13 56  -21.0572 26079.5 -03413.9 -07.4578 26302.0
 22 03 2013  13 57  -21.0568 26080.5 -03414.2 -07.4582 26303.0
 22 03 2013  13 58  -21.0562 26081.2 -03414.3 -07.4583 26303.8
 22 03 2013  13 59  -21.0557 26081.4 -03414.3 -07.4580 26303.9
 22 03 2013  14 00  -21.0554 26081.3 -03414.0 -07.4576 26303.8
 22 03 2013  14 01  -21.0551 26081.3 -03413.9 -07.4573 26303.8
 22 03 2013  14 02  -21.0545 26080.8 -03413.7 -07.4569 26303.3
 22 03 2013  14 03  -21.0539 26080.0 -03413.3 -07.4564 26302.5
 22 03 2013  14 04  -21.0532 26079.6 -03413.2 -07.4563 26302.0
 22 03 2013  14 05  -21.0517 26079.2 -03413.2 -07.4565 26301.6
 22 03 2013  14 06  -21.0514 26079.8 -03413.7 -07.4573 26302.3
 22 03 2013  14 07  -21.0511 26079.7 -03413.7 -07.4573 26302.2
 22 03 2013  14 08  -21.0505 26080.0 -03413.8 -07.4575 26302.5
 22 03 2013  14 09  -21.0497 26080.4 -03414.0 -07.4579 26302.9
 22 03 2013  14 10  -21.0487 26081.7 -03414.7 -07.4588 26304.3
 22 03 2013  14 11  -21.0484 26082.7 -03415.0 -07.4593 26305.3
 22 03 2013  14 12  -21.0478 26083.3 -03415.0 -07.4592 26305.9
 22 03 2013  14 13  -21.0474 26083.8 -03415.0 -07.4591 26306.4
 22 03 2013  14 14  -21.0468 26084.1 -03415.0 -07.4588 26306.7
 22 03 2013  14 15  -21.0462 26084.2 -03414.8 -07.4585 26306.8
 22 03 2013  14 16  -21.0458 26084.3 -03414.7 -07.4582 26306.8
 22 03 2013  14 17  -21.0452 26084.3 -03414.6 -07.4579 26306.8
 22 03 2013  14 18  -21.0445 26084.5 -03414.6 -07.4579 26307.0
 22 03 2013  14 19  -21.0441 26084.6 -03414.5 -07.4577 26307.2
 22 03 2013  14 20  -21.0438 26084.5 -03414.3 -07.4572 26307.0
 22 03 2013  14 21  -21.0432 26083.8 -03413.9 -07.4565 26306.2
 22 03 2013  14 22  -21.0426 26083.1 -03413.5 -07.4560 26305.5
 22 03 2013  14 23  -21.0420 26082.2 -03413.2 -07.4555 26304.6
 22 03 2013  14 24  -21.0417 26081.7 -03413.2 -07.4556 26304.1
 22 03 2013  14 25  -21.0413 26081.5 -03413.2 -07.4558 26303.8
 22 03 2013  14 26  -21.0411 26081.4 -03413.4 -07.4561 26303.8
 22 03 2013  14 27  -21.0409 26081.6 -03413.6 -07.4565 26304.0
 22 03 2013  14 28  -21.0407 26081.7 -03413.7 -07.4567 26304.2
 22 03 2013  14 29  -21.0404 26081.8 -03413.7 -07.4567 26304.3
 22 03 2013  14 30  -21.0399 26081.9 -03413.8 -07.4568 26304.3
 22 03 2013  14 31  -21.0396 26082.0 -03413.8 -07.4570 26304.5
 22 03 2013  14 32  -21.0393 26081.9 -03413.8 -07.4569 26304.4
 22 03 2013  14 33  -21.0389 26081.9 -03413.8 -07.4569 26304.3
 22 03 2013  14 34  -21.0386 26082.0 -03413.9 -07.4571 26304.5
 22 03 2013  14 35  -21.0383 26082.1 -03414.0 -07.4572 26304.5
 22 03 2013  14 36  -21.0378 26082.1 -03414.0 -07.4573 26304.6
 22 03 2013  14 37  -21.0375 26082.2 -03414.1 -07.4574 26304.7
 22 03 2013  14 38  -21.0371 26082.4 -03414.2 -07.4576 26304.9
 22 03 2013  14 39  -21.0368 26082.7 -03414.3 -07.4578 26305.2
 22 03 2013  14 40  -21.0365 26082.7 -03414.3 -07.4577 26305.2
 22 03 2013  14 41  -21.0360 26082.5 -03414.2 -07.4575 26305.0
 22 03 2013  14 42  -21.0355 26082.2 -03414.1 -07.4574 26304.7
 22 03 2013  14 43  -21.0351 26082.0 -03414.0 -07.4574 26304.5
 22 03 2013  14 44  -21.0344 26081.7 -03414.0 -07.4574 26304.2
 22 03 2013  14 45  -21.0339 26082.0 -03414.3 -07.4579 26304.5
 22 03 2013  14 46  -21.0333 26082.4 -03414.6 -07.4584 26305.0
 22 03 2013  14 47  -21.0330 26082.7 -03414.8 -07.4587 26305.3
 22 03 2013  14 48  -21.0328 26083.1 -03414.9 -07.4589 26305.7
 22 03 2013  14 49  -21.0325 26083.1 -03414.9 -07.4589 26305.7
 22 03 2013  14 50  -21.0319 26083.0 -03414.7 -07.4587 26305.5
 22 03 2013  14 51  -21.0314 26082.5 -03414.6 -07.4585 26305.1
 22 03 2013  14 52  -21.0308 26082.1 -03414.5 -07.4584 26304.6
 22 03 2013  14 53  -21.0302 26081.8 -03414.5 -07.4584 26304.4
 22 03 2013  14 54  -21.0297 26081.7 -03414.6 -07.4586 26304.3
 22 03 2013  14 55  -21.0294 26081.6 -03414.6 -07.4588 26304.2
 22 03 2013  14 56  -21.0289 26081.5 -03414.7 -07.4589 26304.0
 22 03 2013  14 57  -21.0285 26081.4 -03414.7 -07.4590 26304.0
 22 03 2013  14 58  -21.0282 26081.4 -03414.7 -07.4590 26303.9
 22 03 2013  14 59  -21.0277 26081.2 -03414.7 -07.4591 26303.8
 22 03 2013  15 00  -21.0272 26081.0 -03414.7 -07.4591 26303.6
 22 03 2013  15 01  -21.0265 26081.0 -03414.7 -07.4592 26303.6
 22 03 2013  15 02  -21.0260 26081.2 -03414.9 -07.4595 26303.8
 22 03 2013  15 03  -21.0254 26081.2 -03414.9 -07.4596 26303.8
 22 03 2013  15 04  -21.0246 26081.1 -03414.9 -07.4595 26303.7
 22 03 2013  15 05  -21.0240 26081.1 -03414.9 -07.4595 26303.7
 22 03 2013  15 06  -21.0233 26081.0 -03414.9 -07.4596 26303.7
 22 03 2013  15 07  -21.0226 26081.2 -03415.0 -07.4597 26303.8
 22 03 2013  15 08  -21.0218 26081.2 -03415.0 -07.4597 26303.8
 22 03 2013  15 09  -21.0208 26081.2 -03415.0 -07.4597 26303.8
 22 03 2013  15 10  -21.0198 26081.4 -03415.2 -07.4600 26304.1
 22 03 2013  15 11  -21.0189 26081.8 -03415.3 -07.4602 26304.4
 22 03 2013  15 12  -21.0184 26082.3 -03415.5 -07.4605 26305.0
 22 03 2013  15 13  -21.0179 26082.9 -03415.7 -07.4607 26305.6
 22 03 2013  15 14  -21.0172 26083.2 -03415.7 -07.4606 26305.9
 22 03 2013  15 15  -21.0163 26082.9 -03415.4 -07.4600 26305.5
 22 03 2013  15 16  -21.0154 26082.6 -03415.1 -07.4596 26305.2
 22 03 2013  15 17  -21.0145 26082.1 -03414.9 -07.4592 26304.7
 22 03 2013  15 18  -21.0134 26081.5 -03414.6 -07.4588 26304.1
 22 03 2013  15 19  -21.0122 26081.0 -03414.5 -07.4586 26303.5
 22 03 2013  15 20  -21.0110 26080.4 -03414.4 -07.4585 26303.0
 22 03 2013  15 21  -21.0103 26079.9 -03414.3 -07.4586 26302.5
 22 03 2013  15 22  -21.0098 26079.6 -03414.3 -07.4586 26302.1
 22 03 2013  15 23  -21.0094 26079.4 -03414.3 -07.4587 26302.0
 22 03 2013  15 24  -21.0088 26079.2 -03414.4 -07.4589 26301.8
 22 03 2013  15 25  -21.0086 26079.2 -03414.5 -07.4591 26301.7
 22 03 2013  15 26  -21.0083 26079.1 -03414.5 -07.4592 26301.7
 22 03 2013  15 27  -21.0080 26079.2 -03414.6 -07.4594 26301.8
 22 03 2013  15 28  -21.0076 26079.3 -03414.7 -07.4596 26301.9
 22 03 2013  15 29  -21.0069 26079.3 -03414.8 -07.4598 26301.9
 22 03 2013  15 30  -21.0061 26079.1 -03414.7 -07.4597 26301.7
 22 03 2013  15 31  -21.0058 26079.3 -03414.9 -07.4599 26301.9
 22 03 2013  15 32  -21.0053 26079.2 -03414.8 -07.4599 26301.9
 22 03 2013  15 33  -21.0045 26079.0 -03414.7 -07.4597 26301.6
 22 03 2013  15 34  -21.0038 26078.9 -03414.7 -07.4598 26301.5
 22 03 2013  15 35  -21.0031 26078.6 -03414.6 -07.4596 26301.2
 22 03 2013  15 36  -21.0023 26078.5 -03414.6 -07.4597 26301.1
 22 03 2013  15 37  -21.0021 26078.8 -03414.8 -07.4600 26301.4
 22 03 2013  15 38  -21.0018 26078.8 -03414.8 -07.4599 26301.4
 22 03 2013  15 39  -21.0009 26078.3 -03414.6 -07.4597 26300.9
 22 03 2013  15 40  -21.0003 26078.3 -03414.8 -07.4600 26300.9
 22 03 2013  15 41  -21.0003 26078.3 -03414.9 -07.4603 26300.9
 22 03 2013  15 42  -20.9992 26077.6 -03414.7 -07.4601 26300.2
 22 03 2013  15 43  -20.9986 26077.6 -03415.0 -07.4606 26300.2
 22 03 2013  15 44  -20.9977 26077.3 -03415.1 -07.4610 26300.0
 22 03 2013  15 45  -20.9970 26076.8 -03415.2 -07.4613 26299.5
 22 03 2013  15 46  -20.9961 26076.7 -03415.4 -07.4619 26299.4
 22 03 2013  15 47  -20.9956 26076.4 -03415.7 -07.4627 26299.2
 22 03 2013  15 48  -20.9948 26076.4 -03416.1 -07.4633 26299.2
 22 03 2013  15 49  -20.9937 26076.1 -03416.2 -07.4637 26299.0
 22 03 2013  15 50  -20.9929 26075.6 -03416.3 -07.4641 26298.4
 22 03 2013  15 51  -20.9923 26075.6 -03416.6 -07.4648 26298.5
 22 03 2013  15 52  -20.9928 26075.9 -03417.1 -07.4656 26298.9
 22 03 2013  15 53  -20.9931 26076.3 -03417.5 -07.4664 26299.3
 22 03 2013  15 54  -20.9930 26076.5 -03417.7 -07.4669 26299.5
 22 03 2013  15 55  -20.9932 26076.4 -03418.0 -07.4674 26299.5
 22 03 2013  15 56  -20.9931 26076.2 -03418.0 -07.4676 26299.2
 22 03 2013  15 57  -20.9934 26076.4 -03418.3 -07.4681 26299.5
 22 03 2013  15 58  -20.9934 26076.0 -03418.3 -07.4682 26299.1
 22 03 2013  15 59  -20.9936 26076.1 -03418.6 -07.4689 26299.3
 22 03 2013  16 00  -20.9939 26076.1 -03418.8 -07.4693 26299.2
 22 03 2013  16 01  -20.9939 26075.8 -03418.9 -07.4696 26299.0
 22 03 2013  16 02  -20.9935 26075.5 -03419.0 -07.4700 26298.7
 22 03 2013  16 03  -20.9933 26075.5 -03419.3 -07.4706 26298.7
 22 03 2013  16 04  -20.9933 26075.6 -03419.6 -07.4713 26298.9
 22 03 2013  16 05  -20.9937 26076.3 -03420.2 -07.4723 26299.6
 22 03 2013  16 06  -20.9946 26076.7 -03420.6 -07.4730 26300.1
 22 03 2013  16 07  -20.9941 26076.8 -03420.7 -07.4732 26300.2
 22 03 2013  16 08  -20.9947 26077.6 -03421.2 -07.4742 26301.1
 22 03 2013  16 09  -20.9956 26078.1 -03421.5 -07.4746 26301.6
 22 03 2013  16 10  -20.9961 26078.5 -03421.6 -07.4748 26302.0
 22 03 2013  16 11  -20.9968 26078.3 -03421.5 -07.4746 26301.8
 22 03 2013  16 12  -20.9972 26078.0 -03421.4 -07.4744 26301.5
 22 03 2013  16 13  -20.9977 26077.6 -03421.3 -07.4743 26301.1
 22 03 2013  16 14  -20.9989 26077.9 -03421.5 -07.4747 26301.4
 22 03 2013  16 15  -20.9993 26077.5 -03421.5 -07.4747 26301.0
 22 03 2013  16 16  -20.9997 26077.1 -03421.5 -07.4748 26300.6
 22 03 2013  16 17  -21.0003 26076.5 -03421.4 -07.4749 26300.0
 22 03 2013  16 18  -21.0013 26076.5 -03421.6 -07.4754 26300.0
 22 03 2013  16 19  -21.0039 26077.9 -03422.4 -07.4766 26301.5
 22 03 2013  16 20  -21.0059 26079.2 -03422.9 -07.4774 26302.9
 22 03 2013  16 21  -21.0063 26079.4 -03422.9 -07.4773 26303.1
 22 03 2013  16 22  -21.0054 26078.8 -03422.5 -07.4766 26302.4
 22 03 2013  16 23  -21.0055 26077.4 -03421.9 -07.4757 26301.0
 22 03 2013  16 24  -21.0059 26077.4 -03422.1 -07.4761 26301.0
 22 03 2013  16 25  -21.0073 26078.9 -03423.0 -07.4776 26302.6
 22 03 2013  16 26  -21.0094 26080.5 -03423.7 -07.4786 26304.3
 22 03 2013  16 27  -21.0114 26081.8 -03424.0 -07.4789 26305.6
 22 03 2013  16 28  -21.0130 26082.3 -03423.8 -07.4784 26306.0
 22 03 2013  16 29  -21.0139 26081.9 -03423.3 -07.4774 26305.6
 22 03 2013  16 30  -21.0148 26081.2 -03422.8 -07.4765 26304.8
 22 03 2013  16 31  -21.0150 26079.9 -03422.1 -07.4754 26303.4
 22 03 2013  16 32  -21.0156 26079.0 -03421.8 -07.4751 26302.6
 22 03 2013  16 33  -21.0157 26078.1 -03421.6 -07.4749 26301.6
 22 03 2013  16 34  -21.0163 26077.5 -03421.4 -07.4746 26301.0
 22 03 2013  16 35  -21.0166 26077.0 -03421.4 -07.4748 26300.4
 22 03 2013  16 36  -21.0176 26076.9 -03421.6 -07.4753 26300.4
 22 03 2013  16 37  -21.0182 26076.7 -03421.7 -07.4755 26300.2
 22 03 2013  16 38  -21.0186 26076.5 -03421.8 -07.4758 26300.1
 22 03 2013  16 39  -21.0195 26076.6 -03422.1 -07.4763 26300.2
 22 03 2013  16 40  -21.0208 26076.7 -03422.3 -07.4767 26300.3
 22 03 2013  16 41  -21.0218 26076.7 -03422.3 -07.4767 26300.3
 22 03 2013  16 42  -21.0229 26076.4 -03422.3 -07.4767 26300.0
 22 03 2013  16 43  -21.0239 26075.9 -03422.1 -07.4766 26299.5
 22 03 2013  16 44  -21.0249 26075.3 -03421.9 -07.4763 26298.9
 22 03 2013  16 45  -21.0261 26074.9 -03421.8 -07.4762 26298.5
 22 03 2013  16 46  -21.0277 26074.8 -03421.9 -07.4764 26298.3
 22 03 2013  16 47  -21.0290 26074.6 -03421.8 -07.4763 26298.2
 22 03 2013  16 48  -21.0305 26074.7 -03421.9 -07.4765 26298.3
 22 03 2013  16 49  -21.0317 26074.3 -03421.6 -07.4759 26297.8
 22 03 2013  16 50  -21.0327 26074.1 -03421.4 -07.4755 26297.6
 22 03 2013  16 51  -21.0342 26074.1 -03421.3 -07.4754 26297.6
 22 03 2013  16 52  -21.0356 26074.1 -03421.2 -07.4751 26297.6
 22 03 2013  16 53  -21.0366 26074.1 -03421.0 -07.4747 26297.6
 22 03 2013  16 54  -21.0376 26074.1 -03420.8 -07.4742 26297.5
 22 03 2013  16 55  -21.0387 26074.4 -03420.8 -07.4741 26297.9
 22 03 2013  16 56  -21.0402 26075.0 -03420.8 -07.4739 26298.4
 22 03 2013  16 57  -21.0415 26075.1 -03420.5 -07.4734 26298.5
 22 03 2013  16 58  -21.0426 26075.5 -03420.4 -07.4730 26298.9
 22 03 2013  16 59  -21.0440 26075.7 -03420.1 -07.4724 26299.0
 22 03 2013  17 00  -21.0451 26075.7 -03419.8 -07.4715 26299.0
 22 03 2013  17 01  -21.0457 26075.6 -03419.5 -07.4711 26298.8
 22 03 2013  17 02  -21.0465 26075.7 -03419.4 -07.4707 26299.0
 22 03 2013  17 03  -21.0471 26075.9 -03419.2 -07.4703 26299.1
 22 03 2013  17 04  -21.0480 26076.1 -03419.1 -07.4700 26299.3
 22 03 2013  17 05  -21.0489 26076.1 -03418.9 -07.4695 26299.3
 22 03 2013  17 06  -21.0497 26076.0 -03418.6 -07.4689 26299.1
 22 03 2013  17 07  -21.0502 26075.7 -03418.3 -07.4683 26298.8
 22 03 2013  17 08  -21.0504 26074.6 -03417.6 -07.4672 26297.6
 22 03 2013  17 09  -21.0506 26074.1 -03417.4 -07.4670 26297.1
 22 03 2013  17 10  -21.0516 26074.0 -03417.5 -07.4672 26297.0
 22 03 2013  17 11  -21.0524 26073.6 -03417.4 -07.4671 26296.6
 22 03 2013  17 12  -21.0529 26073.2 -03417.3 -07.4669 26296.2
 22 03 2013  17 13  -21.0536 26072.5 -03417.0 -07.4664 26295.4
 22 03 2013  17 14  -21.0538 26071.5 -03416.7 -07.4660 26294.4
 22 03 2013  17 15  -21.0547 26070.8 -03416.6 -07.4660 26293.7
 22 03 2013  17 16  -21.0552 26070.5 -03416.7 -07.4663 26293.5
 22 03 2013  17 17  -21.0560 26069.8 -03416.5 -07.4661 26292.7
 22 03 2013  17 18  -21.0562 26069.2 -03416.3 -07.4659 26292.1
 22 03 2013  17 19  -21.0568 26068.8 -03416.3 -07.4661 26291.7
 22 03 2013  17 20  -21.0581 26068.9 -03416.6 -07.4666 26291.8
 22 03 2013  17 21  -21.0592 26069.1 -03416.8 -07.4670 26292.1
 22 03 2013  17 22  -21.0599 26069.3 -03416.9 -07.4671 26292.2
 22 03 2013  17 23  -21.0607 26069.3 -03416.9 -07.4671 26292.2
 22 03 2013  17 24  -21.0614 26068.9 -03416.7 -07.4668 26291.9
 22 03 2013  17 25  -21.0622 26068.4 -03416.5 -07.4665 26291.4
 22 03 2013  17 26  -21.0637 26068.0 -03416.4 -07.4664 26290.9
 22 03 2013  17 27  -21.0652 26067.8 -03416.4 -07.4666 26290.7
 22 03 2013  17 28  -21.0668 26067.9 -03416.6 -07.4670 26290.8
 22 03 2013  17 29  -21.0678 26068.0 -03416.7 -07.4671 26290.9
 22 03 2013  17 30  -21.0692 26068.2 -03416.7 -07.4672 26291.1
 22 03 2013  17 31  -21.0704 26068.2 -03416.7 -07.4670 26291.1
 22 03 2013  17 32  -21.0715 26068.1 -03416.5 -07.4668 26291.0
 22 03 2013  17 33  -21.0725 26068.0 -03416.4 -07.4665 26290.9
 22 03 2013  17 34  -21.0735 26068.0 -03416.4 -07.4664 26290.9
 22 03 2013  17 35  -21.0744 26068.0 -03416.3 -07.4661 26290.9
 22 03 2013  17 36  -21.0753 26068.0 -03416.1 -07.4658 26290.9
 22 03 2013  17 37  -21.0762 26067.9 -03415.9 -07.4655 26290.8
 22 03 2013  17 38  -21.0769 26067.9 -03415.7 -07.4650 26290.7
 22 03 2013  17 39  -21.0777 26067.6 -03415.4 -07.4644 26290.4
 22 03 2013  17 40  -21.0785 26067.5 -03415.2 -07.4641 26290.2
 22 03 2013  17 41  -21.0794 26067.4 -03415.1 -07.4637 26290.2
 22 03 2013  17 42  -21.0802 26067.4 -03414.9 -07.4635 26290.2
 22 03 2013  17 43  -21.0810 26067.4 -03414.7 -07.4631 26290.1
 22 03 2013  17 44  -21.0817 26067.3 -03414.6 -07.4627 26290.0
 22 03 2013  17 45  -21.0821 26067.2 -03414.3 -07.4622 26289.8
 22 03 2013  17 46  -21.0830 26067.3 -03414.2 -07.4618 26289.9
 22 03 2013  17 47  -21.0836 26067.1 -03413.9 -07.4613 26289.7
 22 03 2013  17 48  -21.0844 26066.8 -03413.6 -07.4608 26289.4
 22 03 2013  17 49  -21.0846 26066.3 -03413.2 -07.4601 26288.8
 22 03 2013  17 50  -21.0850 26066.0 -03413.0 -07.4597 26288.5
 22 03 2013  17 51  -21.0855 26065.8 -03412.8 -07.4594 26288.2
 22 03 2013  17 52  -21.0858 26065.4 -03412.5 -07.4588 26287.8
 22 03 2013  17 53  -21.0861 26065.0 -03412.3 -07.4584 26287.5
 22 03 2013  17 54  -21.0867 26065.0 -03412.2 -07.4583 26287.4
 22 03 2013  17 55  -21.0873 26064.9 -03412.1 -07.4580 26287.3
 22 03 2013  17 56  -21.0878 26064.7 -03411.9 -07.4576 26287.1
 22 03 2013  17 57  -21.0879 26064.3 -03411.6 -07.4571 26286.7
 22 03 2013  17 58  -21.0882 26063.9 -03411.3 -07.4567 26286.2
 22 03 2013  17 59  -21.0886 26064.0 -03411.3 -07.4566 26286.3
 22 03 2013  18 00  -21.0893 26064.2 -03411.2 -07.4563 26286.5
 22 03 2013  18 01  -21.0892 26063.6 -03410.8 -07.4555 26285.8
 22 03 2013  18 02  -21.0896 26063.5 -03410.6 -07.4552 26285.7
 22 03 2013  18 03  -21.0900 26063.5 -03410.4 -07.4548 26285.7
 22 03 2013  18 04  -21.0904 26063.3 -03410.3 -07.4545 26285.5
 22 03 2013  18 05  -21.0906 26063.0 -03410.0 -07.4540 26285.2
 22 03 2013  18 06  -21.0909 26062.9 -03409.8 -07.4537 26285.0
 22 03 2013  18 07  -21.0916 26063.0 -03409.7 -07.4534 26285.0
 22 03 2013  18 08  -21.0921 26062.9 -03409.5 -07.4530 26285.0
 22 03 2013  18 09  -21.0919 26061.9 -03408.8 -07.4518 26283.9
 22 03 2013  18 10  -21.0920 26061.5 -03408.6 -07.4514 26283.5
 22 03 2013  18 11  -21.0927 26060.6 -03408.0 -07.4505 26282.5
 22 03 2013  18 12  -21.0932 26060.2 -03407.8 -07.4501 26282.0
 22 03 2013  18 13  -21.0931 26059.2 -03407.3 -07.4493 26281.0
 22 03 2013  18 14  -21.0938 26059.3 -03407.3 -07.4492 26281.1
 22 03 2013  18 15  -21.0939 26058.3 -03406.7 -07.4483 26280.1
 22 03 2013  18 16  -21.0936 26057.6 -03406.4 -07.4477 26279.3
 22 03 2013  18 17  -21.0940 26057.8 -03406.4 -07.4478 26279.6
 22 03 2013  18 18  -21.0939 26057.2 -03406.0 -07.4471 26278.9
 22 03 2013  18 19  -21.0939 26057.3 -03406.0 -07.4470 26278.9
 22 03 2013  18 20  -21.0942 26056.8 -03405.7 -07.4466 26278.4
 22 03 2013  18 21  -21.0941 26056.9 -03405.7 -07.4465 26278.5
 22 03 2013  18 22  -21.0947 26056.9 -03405.7 -07.4464 26278.6
 22 03 2013  18 23  -21.0948 26056.8 -03405.4 -07.4459 26278.4
 22 03 2013  18 24  -21.0946 26056.5 -03405.1 -07.4454 26278.0
 22 03 2013  18 25  -21.0946 26055.9 -03404.8 -07.4448 26277.4
 22 03 2013  18 26  -21.0947 26055.6 -03404.6 -07.4445 26277.1
 22 03 2013  18 27  -21.0943 26055.5 -03404.5 -07.4442 26277.0
 22 03 2013  18 28  -21.0944 26055.1 -03404.3 -07.4439 26276.6
 22 03 2013  18 29  -21.0944 26054.9 -03404.1 -07.4436 26276.3
 22 03 2013  18 30  -21.0947 26054.6 -03403.9 -07.4432 26276.1
 22 03 2013  18 31  -21.0949 26054.4 -03403.7 -07.4429 26275.8
 22 03 2013  18 32  -21.0948 26054.0 -03403.5 -07.4426 26275.4
 22 03 2013  18 33  -21.0950 26053.6 -03403.3 -07.4423 26274.9
 22 03 2013  18 34  -21.0948 26053.1 -03403.1 -07.4418 26274.4
 22 03 2013  18 35  -21.0944 26052.9 -03402.9 -07.4416 26274.2
 22 03 2013  18 36  -21.0943 26052.7 -03402.8 -07.4415 26274.0
 22 03 2013  18 37  -21.0945 26052.4 -03402.6 -07.4411 26273.6
 22 03 2013  18 38  -21.0943 26051.9 -03402.4 -07.4407 26273.2
 22 03 2013  18 39  -21.0944 26051.4 -03402.2 -07.4403 26272.6
 22 03 2013  18 40  -21.0946 26051.3 -03402.1 -07.4402 26272.5
 22 03 2013  18 41  -21.0945 26050.6 -03401.8 -07.4398 26271.8
 22 03 2013  18 42  -21.0943 26050.1 -03401.5 -07.4393 26271.3
 22 03 2013  18 43  -21.0941 26049.4 -03401.2 -07.4388 26270.5
 22 03 2013  18 44  -21.0938 26048.8 -03400.9 -07.4383 26269.8
 22 03 2013  18 45  -21.0936 26048.3 -03400.7 -07.4381 26269.3
 22 03 2013  18 46  -21.0933 26047.8 -03400.6 -07.4380 26268.8
 22 03 2013  18 47  -21.0929 26047.4 -03400.5 -07.4380 26268.5
 22 03 2013  18 48  -21.0930 26047.2 -03400.5 -07.4380 26268.2
 22 03 2013  18 49  -21.0925 26047.0 -03400.4 -07.4379 26268.0
 22 03 2013  18 50  -21.0922 26046.9 -03400.5 -07.4381 26267.9
 22 03 2013  18 51  -21.0921 26046.6 -03400.5 -07.4381 26267.7
 22 03 2013  18 52  -21.0918 26046.3 -03400.4 -07.4379 26267.3
 22 03 2013  18 53  -21.0917 26046.1 -03400.4 -07.4380 26267.1
 22 03 2013  18 54  -21.0911 26045.8 -03400.3 -07.4379 26266.8
 22 03 2013  18 55  -21.0908 26045.3 -03400.2 -07.4379 26266.3
 22 03 2013  18 56  -21.0904 26044.8 -03400.1 -07.4378 26265.8
 22 03 2013  18 57  -21.0897 26044.4 -03400.1 -07.4379 26265.4
 22 03 2013  18 58  -21.0895 26043.8 -03400.1 -07.4380 26264.8
 22 03 2013  18 59  -21.0893 26043.7 -03400.2 -07.4383 26264.8
 22 03 2013  19 00  -21.0894 26043.3 -03400.3 -07.4386 26264.3
 22 03 2013  19 01  -21.0890 26042.6 -03400.1 -07.4384 26263.7
 22 03 2013  19 02  -21.0889 26042.6 -03400.3 -07.4388 26263.7
 22 03 2013  19 03  -21.0890 26042.2 -03400.3 -07.4390 26263.3
 22 03 2013  19 04  -21.0890 26041.9 -03400.2 -07.4389 26262.9
 22 03 2013  19 05  -21.0886 26041.6 -03400.3 -07.4391 26262.6
 22 03 2013  19 06  -21.0879 26041.3 -03400.3 -07.4393 26262.3
 22 03 2013  19 07  -21.0873 26041.4 -03400.7 -07.4400 26262.5
 22 03 2013  19 08  -21.0873 26041.3 -03400.9 -07.4404 26262.4
 22 03 2013  19 09  -21.0868 26041.9 -03401.3 -07.4412 26263.0
 22 03 2013  19 10  -21.0871 26042.0 -03401.5 -07.4416 26263.2
 22 03 2013  19 11  -21.0866 26042.0 -03401.5 -07.4417 26263.2
 22 03 2013  19 12  -21.0862 26040.7 -03401.1 -07.4412 26261.8
 22 03 2013  19 13  -21.0849 26039.6 -03400.8 -07.4407 26260.7
 22 03 2013  19 14  -21.0837 26039.2 -03401.0 -07.4413 26260.3
 22 03 2013  19 15  -21.0828 26039.4 -03401.4 -07.4421 26260.6
 22 03 2013  19 16  -21.0832 26039.8 -03402.0 -07.4432 26261.1
 22 03 2013  19 17  -21.0834 26039.6 -03402.1 -07.4436 26260.9
 22 03 2013  19 18  -21.0843 26040.0 -03402.4 -07.4441 26261.3
 22 03 2013  19 19  -21.0850 26040.1 -03402.5 -07.4443 26261.4
 22 03 2013  19 20  -21.0851 26039.8 -03402.4 -07.4442 26261.1
 22 03 2013  19 21  -21.0846 26039.1 -03402.1 -07.4438 26260.4
 22 03 2013  19 22  -21.0837 26038.5 -03401.9 -07.4434 26259.7
 22 03 2013  19 23  -21.0826 26037.5 -03401.6 -07.4430 26258.7
 22 03 2013  19 24  -21.0815 26036.7 -03401.3 -07.4427 26257.9
 22 03 2013  19 25  -21.0800 26036.3 -03401.4 -07.4429 26257.5
 22 03 2013  19 26  -21.0791 26036.5 -03401.8 -07.4439 26257.8
 22 03 2013  19 27  -21.0792 26036.9 -03402.4 -07.4450 26258.3
 22 03 2013  19 28  -21.0795 26037.0 -03402.7 -07.4457 26258.4
 22 03 2013  19 29  -21.0795 26036.7 -03402.8 -07.4459 26258.1
 22 03 2013  19 30  -21.0792 26036.2 -03402.7 -07.4458 26257.6
 22 03 2013  19 31  -21.0783 26035.7 -03402.6 -07.4458 26257.1
 22 03 2013  19 32  -21.0776 26035.6 -03402.8 -07.4462 26257.0
 22 03 2013  19 33  -21.0770 26035.3 -03403.0 -07.4467 26256.8
 22 03 2013  19 34  -21.0765 26035.3 -03403.3 -07.4474 26256.8
 22 03 2013  19 35  -21.0758 26035.1 -03403.5 -07.4478 26256.6
 22 03 2013  19 36  -21.0751 26035.1 -03403.7 -07.4484 26256.6
 22 03 2013  19 37  -21.0741 26035.1 -03404.0 -07.4490 26256.7
 22 03 2013  19 38  -21.0738 26035.3 -03404.4 -07.4498 26256.9
 22 03 2013  19 39  -21.0734 26035.3 -03404.7 -07.4504 26257.0
 22 03 2013  19 40  -21.0729 26035.2 -03404.9 -07.4509 26256.9
 22 03 2013  19 41  -21.0726 26035.1 -03405.1 -07.4513 26256.8
 22 03 2013  19 42  -21.0726 26034.8 -03405.2 -07.4516 26256.6
 22 03 2013  19 43  -21.0722 26034.5 -03405.2 -07.4517 26256.2
 22 03 2013  19 44  -21.0715 26034.2 -03405.3 -07.4519 26255.9
 22 03 2013  19 45  -21.0707 26034.1 -03405.4 -07.4523 26255.8
 22 03 2013  19 46  -21.0700 26034.3 -03405.8 -07.4530 26256.1
 22 03 2013  19 47  -21.0693 26034.5 -03406.2 -07.4538 26256.4
 22 03 2013  19 48  -21.0685 26034.9 -03406.6 -07.4546 26256.8
 22 03 2013  19 49  -21.0683 26035.3 -03407.0 -07.4555 26257.3
 22 03 2013  19 50  -21.0684 26035.7 -03407.4 -07.4561 26257.7
 22 03 2013  19 51  -21.0686 26036.1 -03407.7 -07.4568 26258.1
 22 03 2013  19 52  -21.0685 26036.0 -03407.9 -07.4570 26258.1
 22 03 2013  19 53  -21.0678 26035.5 -03407.8 -07.4571 26257.6
 22 03 2013  19 54  -21.0669 26034.9 -03407.7 -07.4571 26257.0
 22 03 2013  19 55  -21.0663 26034.8 -03407.9 -07.4575 26256.9
 22 03 2013  19 56  -21.0659 26034.7 -03408.1 -07.4580 26256.8
 22 03 2013  19 57  -21.0655 26034.5 -03408.3 -07.4584 26256.6
 22 03 2013  19 58  -21.0652 26034.3 -03408.4 -07.4587 26256.4
 22 03 2013  19 59  -21.0650 26034.0 -03408.5 -07.4589 26256.2
 22 03 2013  20 00  -21.0644 26033.8 -03408.6 -07.4593 26256.0
 22 03 2013  20 01  -21.0641 26034.0 -03408.9 -07.4598 26256.2
 22 03 2013  20 02  -21.0637 26034.4 -03409.3 -07.4606 26256.6
 22 03 2013  20 03  -21.0634 26034.6 -03409.7 -07.4613 26256.9
 22 03 2013  20 04  -21.0633 26034.7 -03409.9 -07.4619 26257.0
 22 03 2013  20 05  -21.0632 26034.5 -03410.1 -07.4622 26256.9
 22 03 2013  20 06  -21.0630 26034.5 -03410.2 -07.4625 26256.9
 22 03 2013  20 07  -21.0627 26034.4 -03410.3 -07.4628 26256.8
 22 03 2013  20 08  -21.0625 26034.5 -03410.6 -07.4633 26256.9
 22 03 2013  20 09  -21.0621 26034.6 -03410.8 -07.4639 26257.0
 22 03 2013  20 10  -21.0619 26035.0 -03411.2 -07.4647 26257.5
 22 03 2013  20 11  -21.0617 26035.2 -03411.6 -07.4653 26257.8
 22 03 2013  20 12  -21.0618 26035.3 -03411.7 -07.4657 26257.9
 22 03 2013  20 13  -21.0618 26035.2 -03411.8 -07.4658 26257.8
 22 03 2013  20 14  -21.0617 26034.9 -03411.8 -07.4659 26257.5
 22 03 2013  20 15  -21.0616 26034.9 -03412.0 -07.4662 26257.5
 22 03 2013  20 16  -21.0613 26035.1 -03412.2 -07.4668 26257.8
 22 03 2013  20 17  -21.0614 26034.8 -03412.3 -07.4670 26257.5
 22 03 2013  20 18  -21.0613 26034.4 -03412.2 -07.4669 26257.1
 22 03 2013  20 19  -21.0608 26034.2 -03412.3 -07.4671 26256.9
 22 03 2013  20 20  -21.0604 26033.9 -03412.3 -07.4673 26256.6
 22 03 2013  20 21  -21.0599 26033.8 -03412.5 -07.4677 26256.5
 22 03 2013  20 22  -21.0595 26033.9 -03412.7 -07.4682 26256.6
 22 03 2013  20 23  -21.0593 26034.1 -03413.0 -07.4688 26256.8
 22 03 2013  20 24  -21.0593 26034.1 -03413.2 -07.4692 26256.9
 22 03 2013  20 25  -21.0591 26034.0 -03413.4 -07.4695 26256.8
 22 03 2013  20 26  -21.0590 26033.8 -03413.5 -07.4698 26256.7
 22 03 2013  20 27  -21.0587 26033.7 -03413.5 -07.4700 26256.5
 22 03 2013  20 28  -21.0585 26033.5 -03413.7 -07.4704 26256.3
 22 03 2013  20 29  -21.0583 26033.5 -03413.8 -07.4707 26256.4
 22 03 2013  20 30  -21.0580 26033.5 -03414.1 -07.4711 26256.5
 22 03 2013  20 31  -21.0579 26033.5 -03414.3 -07.4716 26256.5
 22 03 2013  20 32  -21.0577 26033.6 -03414.4 -07.4719 26256.5
 22 03 2013  20 33  -21.0575 26033.6 -03414.6 -07.4723 26256.6
 22 03 2013  20 34  -21.0574 26033.7 -03414.8 -07.4727 26256.7
 22 03 2013  20 35  -21.0573 26033.7 -03415.0 -07.4731 26256.7
 22 03 2013  20 36  -21.0571 26033.7 -03415.2 -07.4735 26256.7
 22 03 2013  20 37  -21.0570 26033.6 -03415.3 -07.4738 26256.7
 22 03 2013  20 38  -21.0569 26033.6 -03415.4 -07.4740 26256.7
 22 03 2013  20 39  -21.0568 26033.6 -03415.5 -07.4743 26256.7
 22 03 2013  20 40  -21.0568 26033.6 -03415.6 -07.4745 26256.7
 22 03 2013  20 41  -21.0566 26033.5 -03415.7 -07.4748 26256.6
 22 03 2013  20 42  -21.0567 26033.6 -03415.9 -07.4751 26256.7
 22 03 2013  20 43  -21.0565 26033.4 -03415.9 -07.4752 26256.5
 22 03 2013  20 44  -21.0564 26033.3 -03415.9 -07.4753 26256.5
 22 03 2013  20 45  -21.0564 26033.3 -03416.0 -07.4754 26256.4
 22 03 2013  20 46  -21.0564 26033.3 -03416.1 -07.4756 26256.5
 22 03 2013  20 47  -21.0563 26033.4 -03416.2 -07.4759 26256.5
 22 03 2013  20 48  -21.0561 26033.6 -03416.4 -07.4762 26256.9
 22 03 2013  20 49  -21.0560 26033.8 -03416.6 -07.4766 26257.0
 22 03 2013  20 50  -21.0560 26033.9 -03416.8 -07.4770 26257.2
 22 03 2013  20 51  -21.0560 26034.0 -03416.9 -07.4772 26257.2
 22 03 2013  20 52  -21.0560 26033.9 -03417.0 -07.4773 26257.2
 22 03 2013  20 53  -21.0559 26033.9 -03417.0 -07.4775 26257.2
 22 03 2013  20 54  -21.0557 26033.8 -03417.1 -07.4776 26257.1
 22 03 2013  20 55  -21.0556 26033.9 -03417.1 -07.4777 26257.2
 22 03 2013  20 56  -21.0553 26033.7 -03417.1 -07.4777 26257.0
 22 03 2013  20 57  -21.0553 26033.7 -03417.1 -07.4778 26257.0
 22 03 2013  20 58  -21.0552 26033.7 -03417.2 -07.4780 26257.0
 22 03 2013  20 59  -21.0551 26033.5 -03417.2 -07.4780 26256.9
 22 03 2013  21 00  -21.0549 26033.5 -03417.2 -07.4780 26256.8
 22 03 2013  21 01  -21.0548 26033.5 -03417.3 -07.4782 26256.9
 22 03 2013  21 02  -21.0546 26033.5 -03417.3 -07.4783 26256.8
 22 03 2013  21 03  -21.0543 26033.6 -03417.4 -07.4785 26256.9
 22 03 2013  21 04  -21.0540 26033.8 -03417.6 -07.4787 26257.1
 22 03 2013  21 05  -21.0536 26033.9 -03417.7 -07.4789 26257.3
 22 03 2013  21 06  -21.0533 26033.9 -03417.7 -07.4790 26257.3
 22 03 2013  21 07  -21.0529 26034.0 -03417.8 -07.4791 26257.4
 22 03 2013  21 08  -21.0524 26033.9 -03417.8 -07.4792 26257.3
 22 03 2013  21 09  -21.0522 26033.9 -03417.8 -07.4792 26257.3
 22 03 2013  21 10  -21.0519 26034.0 -03417.9 -07.4794 26257.4
 22 03 2013  21 11  -21.0516 26033.9 -03418.0 -07.4795 26257.3
 22 03 2013  21 12  -21.0513 26033.7 -03417.9 -07.4795 26257.1
 22 03 2013  21 13  -21.0510 26033.7 -03418.0 -07.4796 26257.1
 22 03 2013  21 14  -21.0507 26033.8 -03418.2 -07.4800 26257.2
 22 03 2013  21 15  -21.0504 26034.1 -03418.4 -07.4804 26257.6
 22 03 2013  21 16  -21.0501 26034.3 -03418.6 -07.4808 26257.8
 22 03 2013  21 17  -21.0498 26034.4 -03418.8 -07.4812 26258.0
 22 03 2013  21 18  -21.0495 26034.4 -03418.9 -07.4813 26257.9
 22 03 2013  21 19  -21.0494 26034.4 -03419.0 -07.4816 26257.9
 22 03 2013  21 20  -21.0493 26034.3 -03419.0 -07.4817 26257.9
 22 03 2013  21 21  -21.0493 26034.2 -03419.0 -07.4818 26257.7
 22 03 2013  21 22  -21.0492 26034.0 -03419.1 -07.4819 26257.6
 22 03 2013  21 23  -21.0490 26034.0 -03419.1 -07.4820 26257.6
 22 03 2013  21 24  -21.0490 26034.1 -03419.2 -07.4822 26257.7
 22 03 2013  21 25  -21.0489 26034.2 -03419.3 -07.4824 26257.7
 22 03 2013  21 26  -21.0488 26034.2 -03419.4 -07.4826 26257.8
 22 03 2013  21 27  -21.0487 26034.3 -03419.5 -07.4828 26257.9
 22 03 2013  21 28  -21.0485 26034.5 -03419.7 -07.4831 26258.1
 22 03 2013  21 29  -21.0485 26034.4 -03419.7 -07.4832 26258.1
 22 03 2013  21 30  -21.0485 26034.3 -03419.7 -07.4831 26257.9
 22 03 2013  21 31  -21.0486 26034.1 -03419.7 -07.4831 26257.8
 22 03 2013  21 32  -21.0485 26034.3 -03419.8 -07.4833 26257.9
 22 03 2013  21 33  -21.0485 26034.6 -03420.0 -07.4836 26258.2
 22 03 2013  21 34  -21.0484 26034.6 -03420.0 -07.4838 26258.3
 22 03 2013  21 35  -21.0485 26034.6 -03420.1 -07.4839 26258.3
 22 03 2013  21 36  -21.0487 26034.5 -03420.1 -07.4839 26258.2
 22 03 2013  21 37  -21.0488 26034.3 -03420.0 -07.4839 26258.0
 22 03 2013  21 38  -21.0489 26034.3 -03420.1 -07.4841 26258.0
 22 03 2013  21 39  -21.0491 26034.3 -03420.2 -07.4843 26258.0
 22 03 2013  21 40  -21.0492 26034.4 -03420.3 -07.4844 26258.1
 22 03 2013  21 41  -21.0492 26034.5 -03420.4 -07.4846 26258.2
 22 03 2013  21 42  -21.0492 26034.7 -03420.5 -07.4849 26258.4
 22 03 2013  21 43  -21.0492 26034.9 -03420.7 -07.4852 26258.6
 22 03 2013  21 44  -21.0490 26035.1 -03420.8 -07.4854 26258.9
 22 03 2013  21 45  -21.0490 26035.3 -03421.0 -07.4856 26259.1
 22 03 2013  21 46  -21.0490 26035.4 -03421.1 -07.4858 26259.2
 22 03 2013  21 47  -21.0492 26035.4 -03421.1 -07.4858 26259.2
 22 03 2013  21 48  -21.0493 26035.3 -03421.0 -07.4857 26259.1
 22 03 2013  21 49  -21.0494 26035.2 -03421.1 -07.4858 26259.1
 22 03 2013  21 50  -21.0497 26035.1 -03421.0 -07.4858 26258.9
 22 03 2013  21 51  -21.0499 26035.0 -03421.0 -07.4858 26258.8
 22 03 2013  21 52  -21.0500 26034.9 -03421.0 -07.4858 26258.7
 22 03 2013  21 53  -21.0502 26034.7 -03420.9 -07.4857 26258.5
 22 03 2013  21 54  -21.0504 26034.6 -03420.9 -07.4857 26258.4
 22 03 2013  21 55  -21.0506 26034.5 -03420.9 -07.4857 26258.3
 22 03 2013  21 56  -21.0508 26034.4 -03420.9 -07.4857 26258.1
 22 03 2013  21 57  -21.0511 26034.3 -03420.9 -07.4857 26258.1
 22 03 2013  21 58  -21.0513 26034.3 -03420.9 -07.4857 26258.0
 22 03 2013  21 59  -21.0515 26034.2 -03420.9 -07.4858 26258.0
 22 03 2013  22 00  -21.0516 26034.0 -03420.9 -07.4858 26257.8
 22 03 2013  22 01  -21.0518 26033.8 -03420.8 -07.4856 26257.6
 22 03 2013  22 02  -21.0521 26033.6 -03420.7 -07.4856 26257.4
 22 03 2013  22 03  -21.0523 26033.3 -03420.6 -07.4854 26257.1
 22 03 2013  22 04  -21.0525 26033.0 -03420.5 -07.4853 26256.8
 22 03 2013  22 05  -21.0526 26032.7 -03420.3 -07.4850 26256.4
 22 03 2013  22 06  -21.0528 26032.5 -03420.3 -07.4849 26256.2
 22 03 2013  22 07  -21.0528 26032.6 -03420.4 -07.4851 26256.3
 22 03 2013  22 08  -21.0528 26032.8 -03420.6 -07.4855 26256.6
 22 03 2013  22 09  -21.0527 26033.0 -03420.8 -07.4858 26256.8
 22 03 2013  22 10  -21.0526 26033.2 -03420.9 -07.4860 26257.0
 22 03 2013  22 11  -21.0525 26033.2 -03421.0 -07.4862 26257.0
 22 03 2013  22 12  -21.0526 26033.2 -03421.0 -07.4863 26257.0
 22 03 2013  22 13  -21.0528 26032.9 -03420.9 -07.4862 26256.7
 22 03 2013  22 14  -21.0530 26032.7 -03420.8 -07.4861 26256.5
 22 03 2013  22 15  -21.0532 26032.5 -03420.8 -07.4861 26256.3
 22 03 2013  22 16  -21.0532 26032.5 -03420.8 -07.4861 26256.3
 22 03 2013  22 17  -21.0534 26032.5 -03420.8 -07.4862 26256.3
 22 03 2013  22 18  -21.0535 26032.4 -03420.9 -07.4862 26256.2
 22 03 2013  22 19  -21.0537 26032.4 -03420.9 -07.4862 26256.2
 22 03 2013  22 20  -21.0538 26032.4 -03420.9 -07.4863 26256.2
 22 03 2013  22 21  -21.0539 26032.2 -03420.9 -07.4863 26256.0
 22 03 2013  22 22  -21.0541 26032.1 -03420.8 -07.4862 26255.9
 22 03 2013  22 23  -21.0543 26031.9 -03420.8 -07.4862 26255.7
 22 03 2013  22 24  -21.0544 26031.8 -03420.7 -07.4861 26255.5
 22 03 2013  22 25  -21.0545 26031.5 -03420.7 -07.4861 26255.3
 22 03 2013  22 26  -21.0546 26031.3 -03420.6 -07.4859 26255.1
 22 03 2013  22 27  -21.0548 26031.2 -03420.6 -07.4860 26255.0
 22 03 2013  22 28  -21.0549 26031.1 -03420.6 -07.4859 26254.9
 22 03 2013  22 29  -21.0549 26030.9 -03420.5 -07.4859 26254.7
 22 03 2013  22 30  -21.0551 26030.8 -03420.5 -07.4859 26254.6
 22 03 2013  22 31  -21.0552 26030.7 -03420.5 -07.4860 26254.4
 22 03 2013  22 32  -21.0554 26030.4 -03420.5 -07.4859 26254.2
 22 03 2013  22 33  -21.0557 26030.3 -03420.4 -07.4859 26254.1
 22 03 2013  22 34  -21.0558 26030.2 -03420.4 -07.4859 26253.9
 22 03 2013  22 35  -21.0558 26030.0 -03420.4 -07.4859 26253.8
 22 03 2013  22 36  -21.0560 26029.9 -03420.4 -07.4859 26253.7
 22 03 2013  22 37  -21.0560 26029.8 -03420.4 -07.4860 26253.6
 22 03 2013  22 38  -21.0560 26029.8 -03420.4 -07.4860 26253.6
 22 03 2013  22 39  -21.0561 26029.8 -03420.5 -07.4861 26253.6
 22 03 2013  22 40  -21.0561 26029.9 -03420.6 -07.4863 26253.6
 22 03 2013  22 41  -21.0562 26029.9 -03420.6 -07.4864 26253.7
 22 03 2013  22 42  -21.0563 26029.8 -03420.6 -07.4865 26253.6
 22 03 2013  22 43  -21.0563 26029.7 -03420.7 -07.4865 26253.5
 22 03 2013  22 44  -21.0564 26029.6 -03420.6 -07.4865 26253.4
 22 03 2013  22 45  -21.0565 26029.4 -03420.6 -07.4864 26253.2
 22 03 2013  22 46  -21.0565 26029.3 -03420.6 -07.4864 26253.0
 22 03 2013  22 47  -21.0566 26029.2 -03420.6 -07.4865 26253.0
 22 03 2013  22 48  -21.0567 26029.0 -03420.5 -07.4864 26252.7
 22 03 2013  22 49  -21.0567 26028.8 -03420.5 -07.4864 26252.6
 22 03 2013  22 50  -21.0567 26028.7 -03420.5 -07.4864 26252.5
 22 03 2013  22 51  -21.0567 26028.6 -03420.5 -07.4865 26252.4
 22 03 2013  22 52  -21.0567 26028.5 -03420.5 -07.4865 26252.3
 22 03 2013  22 53  -21.0567 26028.5 -03420.5 -07.4865 26252.3
 22 03 2013  22 54  -21.0566 26028.6 -03420.6 -07.4867 26252.4
 22 03 2013  22 55  -21.0567 26028.6 -03420.7 -07.4868 26252.5
 22 03 2013  22 56  -21.0568 26028.5 -03420.7 -07.4868 26252.3
 22 03 2013  22 57  -21.0569 26028.5 -03420.6 -07.4868 26252.3
 22 03 2013  22 58  -21.0571 26028.5 -03420.7 -07.4869 26252.3
 22 03 2013  22 59  -21.0572 26028.3 -03420.6 -07.4869 26252.1
 22 03 2013  23 00  -21.0573 26028.0 -03420.6 -07.4868 26251.8
 22 03 2013  23 01  -21.0573 26027.8 -03420.5 -07.4867 26251.6
 22 03 2013  23 02  -21.0573 26027.6 -03420.4 -07.4867 26251.4
 22 03 2013  23 03  -21.0574 26027.5 -03420.4 -07.4866 26251.3
 22 03 2013  23 04  -21.0575 26027.5 -03420.4 -07.4867 26251.3
 22 03 2013  23 05  -21.0575 26027.6 -03420.5 -07.4869 26251.4
 22 03 2013  23 06  -21.0577 26027.6 -03420.6 -07.4870 26251.4
 22 03 2013  23 07  -21.0578 26027.5 -03420.6 -07.4871 26251.3
 22 03 2013  23 08  -21.0579 26027.3 -03420.6 -07.4871 26251.1
 22 03 2013  23 09  -21.0578 26027.3 -03420.6 -07.4871 26251.1
 22 03 2013  23 10  -21.0579 26026.5 -03420.2 -07.4865 26250.3
 22 03 2013  23 11  -21.0580 26026.7 -03420.3 -07.4867 26250.4
 22 03 2013  23 12  -21.0580 26027.0 -03420.5 -07.4870 26250.8
 22 03 2013  23 13  -21.0584 26026.3 -03420.3 -07.4868 26250.1
 22 03 2013  23 14  -21.0587 26025.8 -03420.1 -07.4865 26249.5
 22 03 2013  23 15  -21.0583 26025.8 -03420.1 -07.4864 26249.5
 22 03 2013  23 16  -21.0582 26025.2 -03419.9 -07.4862 26249.0
 22 03 2013  23 17  -21.0581 26024.9 -03419.8 -07.4860 26248.6
 22 03 2013  23 18  -21.0580 26024.9 -03419.8 -07.4861 26248.6
 22 03 2013  23 19  -21.0580 26025.0 -03420.0 -07.4865 26248.8
 22 03 2013  23 20  -21.0579 26025.0 -03420.1 -07.4867 26248.8
 22 03 2013  23 21  -21.0578 26025.2 -03420.3 -07.4871 26249.0
 22 03 2013  23 22  -21.0576 26025.2 -03420.4 -07.4872 26249.0
 22 03 2013  23 23  -21.0573 26025.4 -03420.5 -07.4874 26249.3
 22 03 2013  23 24  -21.0570 26025.9 -03420.8 -07.4879 26249.8
 22 03 2013  23 25  -21.0570 26025.8 -03420.8 -07.4879 26249.6
 22 03 2013  23 26  -21.0568 26026.0 -03420.9 -07.4881 26249.9
 22 03 2013  23 27  -21.0569 26026.1 -03421.0 -07.4883 26250.0
 22 03 2013  23 28  -21.0570 26026.0 -03421.0 -07.4882 26249.9
 22 03 2013  23 29  -21.0570 26025.8 -03420.9 -07.4881 26249.6
 22 03 2013  23 30  -21.0570 26025.5 -03420.7 -07.4878 26249.3
 22 03 2013  23 31  -21.0571 26025.6 -03420.8 -07.4879 26249.4
 22 03 2013  23 32  -21.0572 26025.7 -03420.8 -07.4881 26249.5
 22 03 2013  23 33  -21.0574 26026.0 -03421.0 -07.4883 26249.9
 22 03 2013  23 34  -21.0573 26026.0 -03421.1 -07.4885 26249.9
 22 03 2013  23 35  -21.0571 26025.8 -03421.0 -07.4883 26249.7
 22 03 2013  23 36  -21.0570 26025.8 -03420.9 -07.4882 26249.6
 22 03 2013  23 37  -21.0569 26025.9 -03421.0 -07.4883 26249.8
 22 03 2013  23 38  -21.0569 26025.8 -03421.0 -07.4883 26249.7
 22 03 2013  23 39  -21.0568 26025.7 -03420.9 -07.4882 26249.6
 22 03 2013  23 40  -21.0567 26025.7 -03420.9 -07.4882 26249.6
 22 03 2013  23 41  -21.0565 26025.5 -03420.8 -07.4881 26249.4
 22 03 2013  23 42  -21.0563 26025.3 -03420.8 -07.4880 26249.2
 22 03 2013  23 43  -21.0563 26025.1 -03420.7 -07.4879 26249.0
 22 03 2013  23 44  -21.0562 26024.9 -03420.6 -07.4878 26248.7
 22 03 2013  23 45  -21.0562 26024.7 -03420.5 -07.4877 26248.5
 22 03 2013  23 46  -21.0561 26024.6 -03420.6 -07.4878 26248.4
 22 03 2013  23 47  -21.0560 26024.7 -03420.6 -07.4879 26248.6
 22 03 2013  23 48  -21.0559 26024.8 -03420.7 -07.4881 26248.6
 22 03 2013  23 49  -21.0559 26024.9 -03420.8 -07.4883 26248.8
 22 03 2013  23 50  -21.0558 26025.1 -03421.0 -07.4885 26249.0
 22 03 2013  23 51  -21.0557 26025.3 -03421.1 -07.4888 26249.2
 22 03 2013  23 52  -21.0557 26025.4 -03421.2 -07.4889 26249.3
 22 03 2013  23 53  -21.0556 26025.4 -03421.3 -07.4891 26249.4
 22 03 2013  23 54  -21.0554 26025.6 -03421.3 -07.4892 26249.5
 22 03 2013  23 55  -21.0553 26025.7 -03421.4 -07.4893 26249.6
 22 03 2013  23 56  -21.0552 26025.9 -03421.5 -07.4895 26249.8
 22 03 2013  23 57  -21.0553 26025.9 -03421.6 -07.4896 26249.8
