SAO LUIS EMBRACE-03 <172> 1 Min. Reported data

 DD MM YYYY  HH MM   D(Deg)  H(nT)   Z(nT)   I(Deg)   F(nT)

 21 06 2013  00 00  -21.0516 26015.4 -03449.4 -07.5529 26243.1
 21 06 2013  00 01  -21.0516 26015.3 -03449.4 -07.5528 26243.0
 21 06 2013  00 02  -21.0511 26015.3 -03449.3 -07.5527 26242.9
 21 06 2013  00 03  -21.0506 26015.0 -03449.2 -07.5524 26242.7
 21 06 2013  00 04  -21.0497 26015.1 -03449.1 -07.5523 26242.7
 21 06 2013  00 05  -21.0491 26015.0 -03449.1 -07.5523 26242.7
 21 06 2013  00 06  -21.0492 26015.0 -03449.2 -07.5525 26242.7
 21 06 2013  00 07  -21.0503 26015.0 -03449.3 -07.5528 26242.7
 21 06 2013  00 08  -21.0509 26014.9 -03449.3 -07.5528 26242.6
 21 06 2013  00 09  -21.0511 26014.9 -03449.3 -07.5528 26242.5
 21 06 2013  00 10  -21.0518 26014.8 -03449.3 -07.5528 26242.5
 21 06 2013  00 11  -21.0525 26014.8 -03449.3 -07.5528 26242.4
 21 06 2013  00 12  -21.0528 26014.6 -03449.2 -07.5527 26242.3
 21 06 2013  00 13  -21.0526 26014.3 -03449.1 -07.5524 26241.9
 21 06 2013  00 14  -21.0527 26014.0 -03448.9 -07.5521 26241.6
 21 06 2013  00 15  -21.0527 26013.9 -03448.8 -07.5520 26241.5
 21 06 2013  00 16  -21.0526 26013.9 -03448.8 -07.5520 26241.5
 21 06 2013  00 17  -21.0526 26013.6 -03448.7 -07.5519 26241.2
 21 06 2013  00 18  -21.0528 26013.3 -03448.6 -07.5517 26240.9
 21 06 2013  00 19  -21.0526 26013.1 -03448.5 -07.5516 26240.7
 21 06 2013  00 20  -21.0524 26012.7 -03448.3 -07.5513 26240.3
 21 06 2013  00 21  -21.0519 26012.4 -03448.2 -07.5511 26239.9
 21 06 2013  00 22  -21.0517 26012.2 -03448.1 -07.5510 26239.7
 21 06 2013  00 23  -21.0514 26012.0 -03448.1 -07.5510 26239.6
 21 06 2013  00 24  -21.0513 26011.8 -03448.1 -07.5510 26239.3
 21 06 2013  00 25  -21.0512 26011.4 -03447.9 -07.5508 26238.9
 21 06 2013  00 26  -21.0514 26011.1 -03447.9 -07.5508 26238.6
 21 06 2013  00 27  -21.0514 26011.0 -03447.9 -07.5508 26238.5
 21 06 2013  00 28  -21.0512 26010.9 -03448.0 -07.5510 26238.4
 21 06 2013  00 29  -21.0510 26010.7 -03447.9 -07.5509 26238.3
 21 06 2013  00 30  -21.0512 26010.6 -03447.9 -07.5509 26238.1
 21 06 2013  00 31  -21.0511 26010.3 -03447.8 -07.5509 26237.8
 21 06 2013  00 32  -21.0510 26010.0 -03447.7 -07.5508 26237.5
 21 06 2013  00 33  -21.0509 26009.8 -03447.7 -07.5507 26237.3
 21 06 2013  00 34  -21.0512 26009.4 -03447.6 -07.5507 26236.9
 21 06 2013  00 35  -21.0521 26009.3 -03447.7 -07.5508 26236.8
 21 06 2013  00 36  -21.0527 26009.2 -03447.7 -07.5510 26236.7
 21 06 2013  00 37  -21.0533 26009.0 -03447.7 -07.5510 26236.5
 21 06 2013  00 38  -21.0538 26008.6 -03447.6 -07.5509 26236.1
 21 06 2013  00 39  -21.0542 26008.3 -03447.5 -07.5507 26235.8
 21 06 2013  00 40  -21.0545 26008.2 -03447.5 -07.5508 26235.7
 21 06 2013  00 41  -21.0545 26008.2 -03447.5 -07.5508 26235.7
 21 06 2013  00 42  -21.0544 26008.1 -03447.5 -07.5507 26235.6
 21 06 2013  00 43  -21.0543 26007.8 -03447.4 -07.5506 26235.2
 21 06 2013  00 44  -21.0544 26007.5 -03447.2 -07.5504 26235.0
 21 06 2013  00 45  -21.0549 26007.5 -03447.3 -07.5506 26235.0
 21 06 2013  00 46  -21.0553 26007.5 -03447.4 -07.5508 26235.0
 21 06 2013  00 47  -21.0557 26007.5 -03447.5 -07.5509 26235.0
 21 06 2013  00 48  -21.0559 26007.4 -03447.5 -07.5509 26234.9
 21 06 2013  00 49  -21.0556 26007.3 -03447.4 -07.5508 26234.8
 21 06 2013  00 50  -21.0551 26007.3 -03447.4 -07.5507 26234.7
 21 06 2013  00 51  -21.0548 26007.1 -03447.3 -07.5506 26234.6
 21 06 2013  00 52  -21.0544 26006.9 -03447.2 -07.5506 26234.3
 21 06 2013  00 53  -21.0537 26006.7 -03447.2 -07.5505 26234.2
 21 06 2013  00 54  -21.0529 26006.5 -03447.1 -07.5504 26233.9
 21 06 2013  00 55  -21.0523 26006.2 -03447.1 -07.5505 26233.7
 21 06 2013  00 56  -21.0519 26005.9 -03447.0 -07.5504 26233.4
 21 06 2013  00 57  -21.0517 26005.7 -03447.1 -07.5505 26233.2
 21 06 2013  00 58  -21.0516 26005.5 -03447.1 -07.5506 26233.0
 21 06 2013  00 59  -21.0519 26005.2 -03447.1 -07.5507 26232.7
 21 06 2013  01 00  -21.0522 26004.9 -03447.1 -07.5508 26232.4
 21 06 2013  01 01  -21.0522 26004.5 -03446.9 -07.5506 26232.0
 21 06 2013  01 02  -21.0519 26004.4 -03447.0 -07.5507 26231.9
 21 06 2013  01 03  -21.0521 26004.4 -03447.0 -07.5508 26231.8
 21 06 2013  01 04  -21.0518 26004.4 -03447.1 -07.5510 26231.9
 21 06 2013  01 05  -21.0515 26004.2 -03447.1 -07.5511 26231.7
 21 06 2013  01 06  -21.0517 26004.3 -03447.2 -07.5513 26231.8
 21 06 2013  01 07  -21.0516 26004.4 -03447.4 -07.5516 26231.9
 21 06 2013  01 08  -21.0513 26004.2 -03447.3 -07.5516 26231.7
 21 06 2013  01 09  -21.0510 26004.2 -03447.4 -07.5517 26231.7
 21 06 2013  01 10  -21.0508 26004.1 -03447.4 -07.5518 26231.7
 21 06 2013  01 11  -21.0506 26004.0 -03447.5 -07.5519 26231.6
 21 06 2013  01 12  -21.0503 26004.0 -03447.5 -07.5521 26231.6
 21 06 2013  01 13  -21.0499 26003.9 -03447.6 -07.5522 26231.5
 21 06 2013  01 14  -21.0496 26003.5 -03447.5 -07.5520 26231.1
 21 06 2013  01 15  -21.0495 26003.2 -03447.4 -07.5519 26230.7
 21 06 2013  01 16  -21.0494 26003.0 -03447.3 -07.5519 26230.5
 21 06 2013  01 17  -21.0493 26002.7 -03447.3 -07.5519 26230.2
 21 06 2013  01 18  -21.0489 26002.5 -03447.3 -07.5520 26230.0
 21 06 2013  01 19  -21.0487 26002.2 -03447.2 -07.5520 26229.7
 21 06 2013  01 20  -21.0486 26001.9 -03447.2 -07.5520 26229.4
 21 06 2013  01 21  -21.0484 26001.7 -03447.2 -07.5521 26229.2
 21 06 2013  01 22  -21.0481 26001.5 -03447.2 -07.5521 26229.0
 21 06 2013  01 23  -21.0481 26001.4 -03447.3 -07.5522 26228.9
 21 06 2013  01 24  -21.0481 26001.1 -03447.2 -07.5522 26228.6
 21 06 2013  01 25  -21.0480 26000.9 -03447.2 -07.5522 26228.4
 21 06 2013  01 26  -21.0478 26000.7 -03447.2 -07.5523 26228.3
 21 06 2013  01 27  -21.0475 26000.6 -03447.2 -07.5524 26228.1
 21 06 2013  01 28  -21.0471 26000.5 -03447.2 -07.5524 26228.0
 21 06 2013  01 29  -21.0469 26000.4 -03447.3 -07.5525 26227.9
 21 06 2013  01 30  -21.0468 26000.4 -03447.4 -07.5528 26227.9
 21 06 2013  01 31  -21.0468 26000.3 -03447.4 -07.5529 26227.8
 21 06 2013  01 32  -21.0467 26000.3 -03447.5 -07.5531 26227.9
 21 06 2013  01 33  -21.0465 26000.3 -03447.6 -07.5533 26227.9
 21 06 2013  01 34  -21.0464 26000.3 -03447.7 -07.5535 26227.9
 21 06 2013  01 35  -21.0464 26000.3 -03447.8 -07.5536 26227.9
 21 06 2013  01 36  -21.0466 26000.5 -03447.9 -07.5539 26228.1
 21 06 2013  01 37  -21.0467 26000.5 -03448.0 -07.5541 26228.2
 21 06 2013  01 38  -21.0469 26000.6 -03448.1 -07.5543 26228.3
 21 06 2013  01 39  -21.0470 26000.7 -03448.2 -07.5544 26228.3
 21 06 2013  01 40  -21.0472 26000.7 -03448.3 -07.5546 26228.4
 21 06 2013  01 41  -21.0473 26000.8 -03448.3 -07.5547 26228.5
 21 06 2013  01 42  -21.0472 26000.8 -03448.4 -07.5548 26228.5
 21 06 2013  01 43  -21.0472 26000.7 -03448.3 -07.5547 26228.4
 21 06 2013  01 44  -21.0472 26000.8 -03448.4 -07.5549 26228.4
 21 06 2013  01 45  -21.0475 26000.6 -03448.4 -07.5548 26228.3
 21 06 2013  01 46  -21.0477 26000.2 -03448.2 -07.5547 26227.9
 21 06 2013  01 47  -21.0476 25999.8 -03448.0 -07.5544 26227.5
 21 06 2013  01 48  -21.0475 25999.3 -03447.8 -07.5540 26226.9
 21 06 2013  01 49  -21.0472 25999.0 -03447.7 -07.5539 26226.6
 21 06 2013  01 50  -21.0468 25998.7 -03447.6 -07.5538 26226.3
 21 06 2013  01 51  -21.0464 25998.4 -03447.6 -07.5537 26226.0
 21 06 2013  01 52  -21.0463 25998.1 -03447.5 -07.5537 26225.7
 21 06 2013  01 53  -21.0464 25998.0 -03447.6 -07.5538 26225.6
 21 06 2013  01 54  -21.0465 25997.8 -03447.6 -07.5540 26225.4
 21 06 2013  01 55  -21.0463 25997.8 -03447.6 -07.5541 26225.4
 21 06 2013  01 56  -21.0461 25997.7 -03447.7 -07.5542 26225.3
 21 06 2013  01 57  -21.0459 25997.6 -03447.7 -07.5543 26225.2
 21 06 2013  01 58  -21.0460 25997.5 -03447.8 -07.5544 26225.1
 21 06 2013  01 59  -21.0464 25997.5 -03447.9 -07.5547 26225.2
 21 06 2013  02 00  -21.0469 25997.4 -03447.9 -07.5548 26225.0
 21 06 2013  02 01  -21.0472 25997.4 -03448.0 -07.5550 26225.1
 21 06 2013  02 02  -21.0473 25997.4 -03448.1 -07.5551 26225.1
 21 06 2013  02 03  -21.0473 25997.3 -03448.0 -07.5551 26225.0
 21 06 2013  02 04  -21.0468 25997.1 -03448.0 -07.5550 26224.8
 21 06 2013  02 05  -21.0462 25997.0 -03448.0 -07.5550 26224.7
 21 06 2013  02 06  -21.0459 25996.9 -03448.0 -07.5550 26224.6
 21 06 2013  02 07  -21.0457 25996.8 -03448.0 -07.5552 26224.5
 21 06 2013  02 08  -21.0460 25996.8 -03448.1 -07.5554 26224.5
 21 06 2013  02 09  -21.0459 25997.1 -03448.4 -07.5558 26224.8
 21 06 2013  02 10  -21.0455 25998.2 -03449.0 -07.5569 26226.0
 21 06 2013  02 11  -21.0446 26000.4 -03450.1 -07.5587 26228.3
 21 06 2013  02 12  -21.0442 26001.9 -03451.0 -07.5601 26229.9
 21 06 2013  02 13  -21.0437 26002.8 -03451.5 -07.5610 26230.9
 21 06 2013  02 14  -21.0433 26002.9 -03451.5 -07.5610 26230.9
 21 06 2013  02 15  -21.0430 26003.0 -03451.5 -07.5610 26231.0
 21 06 2013  02 16  -21.0428 26002.7 -03451.3 -07.5607 26230.8
 21 06 2013  02 17  -21.0422 26002.6 -03451.2 -07.5604 26230.6
 21 06 2013  02 18  -21.0414 26002.4 -03451.0 -07.5601 26230.4
 21 06 2013  02 19  -21.0404 26002.5 -03451.0 -07.5600 26230.5
 21 06 2013  02 20  -21.0390 26003.4 -03451.4 -07.5606 26231.5
 21 06 2013  02 21  -21.0378 26004.2 -03451.9 -07.5614 26232.3
 21 06 2013  02 22  -21.0366 26005.0 -03452.3 -07.5621 26233.2
 21 06 2013  02 23  -21.0356 26006.3 -03452.9 -07.5631 26234.5
 21 06 2013  02 24  -21.0346 26006.7 -03453.2 -07.5635 26235.0
 21 06 2013  02 25  -21.0336 26007.5 -03453.5 -07.5640 26235.8
 21 06 2013  02 26  -21.0329 26008.0 -03453.8 -07.5644 26236.4
 21 06 2013  02 27  -21.0322 26008.6 -03454.0 -07.5647 26236.9
 21 06 2013  02 28  -21.0313 26009.3 -03454.2 -07.5650 26237.7
 21 06 2013  02 29  -21.0303 26010.2 -03454.6 -07.5655 26238.6
 21 06 2013  02 30  -21.0293 26011.6 -03455.2 -07.5664 26240.0
 21 06 2013  02 31  -21.0284 26012.3 -03455.4 -07.5668 26240.8
 21 06 2013  02 32  -21.0278 26012.8 -03455.6 -07.5670 26241.3
 21 06 2013  02 33  -21.0272 26013.2 -03455.7 -07.5670 26241.7
 21 06 2013  02 34  -21.0267 26013.7 -03455.8 -07.5672 26242.2
 21 06 2013  02 35  -21.0266 26014.1 -03455.9 -07.5673 26242.7
 21 06 2013  02 36  -21.0270 26014.7 -03456.1 -07.5675 26243.2
 21 06 2013  02 37  -21.0275 26015.1 -03456.2 -07.5676 26243.7
 21 06 2013  02 38  -21.0283 26015.4 -03456.3 -07.5677 26244.0
 21 06 2013  02 39  -21.0293 26015.5 -03456.2 -07.5675 26244.0
 21 06 2013  02 40  -21.0302 26015.4 -03456.0 -07.5672 26244.0
 21 06 2013  02 41  -21.0308 26015.5 -03455.9 -07.5668 26244.0
 21 06 2013  02 42  -21.0317 26015.6 -03455.8 -07.5666 26244.1
 21 06 2013  02 43  -21.0327 26015.5 -03455.7 -07.5664 26244.1
 21 06 2013  02 44  -21.0330 26015.3 -03455.4 -07.5659 26243.8
 21 06 2013  02 45  -21.0332 26015.1 -03455.2 -07.5653 26243.5
 21 06 2013  02 46  -21.0332 26014.7 -03454.8 -07.5647 26243.1
 21 06 2013  02 47  -21.0334 26014.5 -03454.6 -07.5644 26242.9
 21 06 2013  02 48  -21.0337 26014.1 -03454.4 -07.5640 26242.4
 21 06 2013  02 49  -21.0341 26013.6 -03454.1 -07.5635 26242.0
 21 06 2013  02 50  -21.0343 26013.3 -03453.9 -07.5631 26241.6
 21 06 2013  02 51  -21.0344 26012.8 -03453.6 -07.5627 26241.1
 21 06 2013  02 52  -21.0346 26012.4 -03453.4 -07.5623 26240.6
 21 06 2013  02 53  -21.0349 26012.0 -03453.2 -07.5620 26240.2
 21 06 2013  02 54  -21.0356 26012.3 -03453.3 -07.5622 26240.5
 21 06 2013  02 55  -21.0360 26012.8 -03453.7 -07.5628 26241.1
 21 06 2013  02 56  -21.0355 26014.6 -03454.4 -07.5639 26242.9
 21 06 2013  02 57  -21.0352 26016.0 -03455.2 -07.5652 26244.5
 21 06 2013  02 58  -21.0344 26017.5 -03455.8 -07.5661 26246.0
 21 06 2013  02 59  -21.0336 26018.7 -03456.4 -07.5670 26247.3
 21 06 2013  03 00  -21.0332 26019.8 -03456.8 -07.5675 26248.4
 21 06 2013  03 01  -21.0327 26020.7 -03457.1 -07.5679 26249.4
 21 06 2013  03 02  -21.0321 26021.5 -03457.2 -07.5680 26250.2
 21 06 2013  03 03  -21.0316 26022.1 -03457.4 -07.5682 26250.8
 21 06 2013  03 04  -21.0317 26022.6 -03457.5 -07.5683 26251.3
 21 06 2013  03 05  -21.0320 26023.3 -03457.8 -07.5686 26252.1
 21 06 2013  03 06  -21.0326 26024.2 -03458.0 -07.5689 26252.9
 21 06 2013  03 07  -21.0333 26024.9 -03458.2 -07.5691 26253.6
 21 06 2013  03 08  -21.0337 26025.6 -03458.3 -07.5692 26254.4
 21 06 2013  03 09  -21.0339 26026.1 -03458.3 -07.5691 26254.8
 21 06 2013  03 10  -21.0337 26026.3 -03458.2 -07.5687 26255.1
 21 06 2013  03 11  -21.0334 26026.9 -03458.2 -07.5685 26255.7
 21 06 2013  03 12  -21.0331 26027.7 -03458.3 -07.5685 26256.4
 21 06 2013  03 13  -21.0331 26028.2 -03458.4 -07.5686 26257.0
 21 06 2013  03 14  -21.0331 26028.5 -03458.4 -07.5685 26257.3
 21 06 2013  03 15  -21.0329 26028.7 -03458.2 -07.5681 26257.4
 21 06 2013  03 16  -21.0328 26028.7 -03458.1 -07.5677 26257.4
 21 06 2013  03 17  -21.0329 26028.7 -03458.0 -07.5675 26257.4
 21 06 2013  03 18  -21.0327 26028.9 -03457.8 -07.5672 26257.5
 21 06 2013  03 19  -21.0326 26028.9 -03457.7 -07.5669 26257.6
 21 06 2013  03 20  -21.0325 26028.8 -03457.5 -07.5666 26257.4
 21 06 2013  03 21  -21.0318 26028.5 -03457.3 -07.5661 26257.2
 21 06 2013  03 22  -21.0313 26028.3 -03457.0 -07.5656 26256.9
 21 06 2013  03 23  -21.0312 26028.3 -03457.0 -07.5655 26256.9
 21 06 2013  03 24  -21.0310 26028.2 -03456.9 -07.5653 26256.8
 21 06 2013  03 25  -21.0307 26028.1 -03456.8 -07.5651 26256.6
 21 06 2013  03 26  -21.0303 26028.2 -03456.7 -07.5650 26256.7
 21 06 2013  03 27  -21.0304 26028.2 -03456.7 -07.5649 26256.7
 21 06 2013  03 28  -21.0315 26028.6 -03456.9 -07.5653 26257.1
 21 06 2013  03 29  -21.0331 26028.8 -03457.1 -07.5656 26257.4
 21 06 2013  03 30  -21.0343 26028.9 -03457.1 -07.5657 26257.5
 21 06 2013  03 31  -21.0354 26029.0 -03457.1 -07.5656 26257.6
 21 06 2013  03 32  -21.0361 26028.9 -03457.0 -07.5653 26257.5
 21 06 2013  03 33  -21.0365 26028.7 -03456.7 -07.5648 26257.2
 21 06 2013  03 34  -21.0368 26028.5 -03456.4 -07.5643 26257.0
 21 06 2013  03 35  -21.0372 26028.2 -03456.2 -07.5638 26256.7
 21 06 2013  03 36  -21.0373 26028.0 -03456.0 -07.5634 26256.4
 21 06 2013  03 37  -21.0371 26027.5 -03455.6 -07.5628 26255.9
 21 06 2013  03 38  -21.0367 26027.1 -03455.3 -07.5623 26255.5
 21 06 2013  03 39  -21.0366 26026.9 -03455.1 -07.5619 26255.2
 21 06 2013  03 40  -21.0365 26026.4 -03454.9 -07.5615 26254.7
 21 06 2013  03 41  -21.0363 26025.9 -03454.6 -07.5611 26254.2
 21 06 2013  03 42  -21.0361 26025.5 -03454.4 -07.5608 26253.8
 21 06 2013  03 43  -21.0360 26025.1 -03454.3 -07.5606 26253.4
 21 06 2013  03 44  -21.0359 26024.7 -03454.1 -07.5603 26252.9
 21 06 2013  03 45  -21.0364 26024.3 -03454.0 -07.5602 26252.5
 21 06 2013  03 46  -21.0368 26023.9 -03453.8 -07.5600 26252.1
 21 06 2013  03 47  -21.0370 26023.7 -03453.7 -07.5598 26251.9
 21 06 2013  03 48  -21.0370 26023.5 -03453.7 -07.5597 26251.6
 21 06 2013  03 49  -21.0368 26023.2 -03453.5 -07.5595 26251.3
 21 06 2013  03 50  -21.0366 26022.8 -03453.4 -07.5593 26251.0
 21 06 2013  03 51  -21.0367 26022.4 -03453.2 -07.5591 26250.6
 21 06 2013  03 52  -21.0367 26022.2 -03453.2 -07.5590 26250.3
 21 06 2013  03 53  -21.0366 26021.8 -03453.0 -07.5588 26249.9
 21 06 2013  03 54  -21.0360 26021.5 -03452.9 -07.5587 26249.6
 21 06 2013  03 55  -21.0353 26021.3 -03452.8 -07.5585 26249.4
 21 06 2013  03 56  -21.0346 26021.3 -03452.9 -07.5586 26249.4
 21 06 2013  03 57  -21.0340 26021.2 -03452.9 -07.5587 26249.3
 21 06 2013  03 58  -21.0336 26021.0 -03452.9 -07.5588 26249.1
 21 06 2013  03 59  -21.0330 26021.0 -03452.9 -07.5589 26249.1
 21 06 2013  04 00  -21.0324 26020.9 -03453.0 -07.5590 26249.0
 21 06 2013  04 01  -21.0321 26020.8 -03453.0 -07.5591 26248.9
 21 06 2013  04 02  -21.0320 26020.6 -03453.0 -07.5592 26248.7
 21 06 2013  04 03  -21.0317 26020.3 -03453.0 -07.5591 26248.4
 21 06 2013  04 04  -21.0313 26020.1 -03452.9 -07.5591 26248.2
 21 06 2013  04 05  -21.0309 26020.1 -03453.0 -07.5593 26248.2
 21 06 2013  04 06  -21.0307 26019.9 -03453.0 -07.5593 26248.0
 21 06 2013  04 07  -21.0305 26019.7 -03452.9 -07.5593 26247.8
 21 06 2013  04 08  -21.0304 26019.6 -03453.0 -07.5594 26247.8
 21 06 2013  04 09  -21.0306 26019.5 -03453.1 -07.5596 26247.6
 21 06 2013  04 10  -21.0308 26019.5 -03453.1 -07.5597 26247.6
 21 06 2013  04 11  -21.0308 26019.5 -03453.3 -07.5600 26247.7
 21 06 2013  04 12  -21.0309 26019.6 -03453.4 -07.5602 26247.8
 21 06 2013  04 13  -21.0310 26019.6 -03453.4 -07.5603 26247.8
 21 06 2013  04 14  -21.0309 26019.7 -03453.4 -07.5603 26247.8
 21 06 2013  04 15  -21.0310 26019.6 -03453.5 -07.5604 26247.8
 21 06 2013  04 16  -21.0314 26019.5 -03453.5 -07.5604 26247.7
 21 06 2013  04 17  -21.0317 26019.3 -03453.4 -07.5603 26247.4
 21 06 2013  04 18  -21.0317 26019.2 -03453.3 -07.5602 26247.4
 21 06 2013  04 19  -21.0320 26019.1 -03453.3 -07.5603 26247.3
 21 06 2013  04 20  -21.0324 26019.0 -03453.3 -07.5602 26247.2
 21 06 2013  04 21  -21.0326 26018.9 -03453.3 -07.5602 26247.1
 21 06 2013  04 22  -21.0329 26018.8 -03453.2 -07.5602 26247.0
 21 06 2013  04 23  -21.0333 26018.7 -03453.2 -07.5601 26246.9
 21 06 2013  04 24  -21.0335 26018.7 -03453.2 -07.5601 26246.8
 21 06 2013  04 25  -21.0331 26018.8 -03453.2 -07.5601 26247.0
 21 06 2013  04 26  -21.0329 26018.7 -03453.2 -07.5600 26246.9
 21 06 2013  04 27  -21.0327 26018.6 -03453.1 -07.5599 26246.8
 21 06 2013  04 28  -21.0321 26018.8 -03453.2 -07.5600 26246.9
 21 06 2013  04 29  -21.0318 26018.8 -03453.2 -07.5601 26247.0
 21 06 2013  04 30  -21.0316 26019.2 -03453.4 -07.5605 26247.4
 21 06 2013  04 31  -21.0316 26019.4 -03453.6 -07.5607 26247.6
 21 06 2013  04 32  -21.0312 26019.3 -03453.5 -07.5607 26247.5
 21 06 2013  04 33  -21.0307 26019.4 -03453.6 -07.5607 26247.5
 21 06 2013  04 34  -21.0302 26019.6 -03453.6 -07.5608 26247.8
 21 06 2013  04 35  -21.0296 26019.7 -03453.7 -07.5610 26247.9
 21 06 2013  04 36  -21.0291 26019.7 -03453.7 -07.5609 26247.9
 21 06 2013  04 37  -21.0288 26019.5 -03453.6 -07.5607 26247.7
 21 06 2013  04 38  -21.0285 26019.4 -03453.6 -07.5607 26247.6
 21 06 2013  04 39  -21.0281 26019.5 -03453.6 -07.5608 26247.7
 21 06 2013  04 40  -21.0279 26019.4 -03453.6 -07.5609 26247.6
 21 06 2013  04 41  -21.0278 26019.4 -03453.7 -07.5609 26247.6
 21 06 2013  04 42  -21.0278 26019.4 -03453.7 -07.5610 26247.6
 21 06 2013  04 43  -21.0279 26019.3 -03453.7 -07.5610 26247.5
 21 06 2013  04 44  -21.0284 26019.1 -03453.7 -07.5610 26247.3
 21 06 2013  04 45  -21.0287 26018.9 -03453.6 -07.5609 26247.1
 21 06 2013  04 46  -21.0289 26018.7 -03453.5 -07.5607 26246.9
 21 06 2013  04 47  -21.0287 26018.5 -03453.4 -07.5605 26246.7
 21 06 2013  04 48  -21.0286 26018.4 -03453.3 -07.5605 26246.6
 21 06 2013  04 49  -21.0286 26018.4 -03453.3 -07.5605 26246.6
 21 06 2013  04 50  -21.0282 26018.6 -03453.4 -07.5606 26246.7
 21 06 2013  04 51  -21.0279 26018.8 -03453.6 -07.5608 26247.0
 21 06 2013  04 52  -21.0277 26019.0 -03453.7 -07.5610 26247.2
 21 06 2013  04 53  -21.0275 26019.0 -03453.7 -07.5612 26247.3
 21 06 2013  04 54  -21.0271 26019.1 -03453.7 -07.5611 26247.3
 21 06 2013  04 55  -21.0268 26018.9 -03453.7 -07.5610 26247.1
 21 06 2013  04 56  -21.0269 26018.7 -03453.6 -07.5610 26246.9
 21 06 2013  04 57  -21.0271 26018.5 -03453.5 -07.5609 26246.7
 21 06 2013  04 58  -21.0270 26018.4 -03453.5 -07.5607 26246.6
 21 06 2013  04 59  -21.0265 26018.3 -03453.4 -07.5607 26246.5
 21 06 2013  05 00  -21.0264 26018.3 -03453.4 -07.5607 26246.5
 21 06 2013  05 01  -21.0267 26018.2 -03453.4 -07.5608 26246.4
 21 06 2013  05 02  -21.0269 26017.9 -03453.4 -07.5607 26246.1
 21 06 2013  05 03  -21.0271 26017.7 -03453.2 -07.5605 26245.8
 21 06 2013  05 04  -21.0272 26017.5 -03453.2 -07.5604 26245.6
 21 06 2013  05 05  -21.0269 26017.2 -03453.1 -07.5602 26245.4
 21 06 2013  05 06  -21.0268 26016.9 -03452.9 -07.5600 26245.1
 21 06 2013  05 07  -21.0267 26016.6 -03452.8 -07.5598 26244.8
 21 06 2013  05 08  -21.0266 26016.5 -03452.8 -07.5598 26244.6
 21 06 2013  05 09  -21.0267 26016.4 -03452.7 -07.5598 26244.5
 21 06 2013  05 10  -21.0268 26016.2 -03452.7 -07.5597 26244.3
 21 06 2013  05 11  -21.0269 26016.1 -03452.7 -07.5597 26244.2
 21 06 2013  05 12  -21.0268 26015.9 -03452.6 -07.5596 26244.0
 21 06 2013  05 13  -21.0265 26016.0 -03452.7 -07.5597 26244.1
 21 06 2013  05 14  -21.0262 26016.2 -03452.8 -07.5599 26244.3
 21 06 2013  05 15  -21.0260 26016.3 -03452.9 -07.5601 26244.4
 21 06 2013  05 16  -21.0261 26016.4 -03452.9 -07.5602 26244.5
 21 06 2013  05 17  -21.0262 26016.6 -03453.1 -07.5604 26244.7
 21 06 2013  05 18  -21.0266 26016.5 -03453.1 -07.5605 26244.7
 21 06 2013  05 19  -21.0267 26016.6 -03453.1 -07.5605 26244.8
 21 06 2013  05 20  -21.0269 26016.5 -03453.1 -07.5604 26244.7
 21 06 2013  05 21  -21.0272 26016.4 -03452.9 -07.5602 26244.5
 21 06 2013  05 22  -21.0277 26016.3 -03452.9 -07.5602 26244.4
 21 06 2013  05 23  -21.0282 26016.3 -03453.0 -07.5602 26244.5
 21 06 2013  05 24  -21.0286 26016.3 -03453.0 -07.5603 26244.5
 21 06 2013  05 25  -21.0288 26016.4 -03452.9 -07.5602 26244.5
 21 06 2013  05 26  -21.0292 26016.4 -03453.0 -07.5602 26244.5
 21 06 2013  05 27  -21.0298 26016.2 -03452.9 -07.5601 26244.4
 21 06 2013  05 28  -21.0302 26015.9 -03452.7 -07.5599 26244.1
 21 06 2013  05 29  -21.0305 26015.9 -03452.6 -07.5597 26244.0
 21 06 2013  05 30  -21.0307 26015.7 -03452.6 -07.5596 26243.8
 21 06 2013  05 31  -21.0311 26015.4 -03452.4 -07.5593 26243.5
 21 06 2013  05 32  -21.0310 26015.2 -03452.3 -07.5591 26243.3
 21 06 2013  05 33  -21.0310 26015.1 -03452.2 -07.5590 26243.2
 21 06 2013  05 34  -21.0311 26014.9 -03452.1 -07.5589 26242.9
 21 06 2013  05 35  -21.0308 26014.6 -03452.0 -07.5586 26242.6
 21 06 2013  05 36  -21.0304 26014.1 -03451.8 -07.5583 26242.1
 21 06 2013  05 37  -21.0299 26014.0 -03451.7 -07.5582 26241.9
 21 06 2013  05 38  -21.0297 26014.0 -03451.8 -07.5584 26242.0
 21 06 2013  05 39  -21.0298 26014.1 -03451.9 -07.5587 26242.2
 21 06 2013  05 40  -21.0298 26014.2 -03452.1 -07.5589 26242.3
 21 06 2013  05 41  -21.0297 26014.5 -03452.3 -07.5593 26242.6
 21 06 2013  05 42  -21.0296 26014.8 -03452.5 -07.5596 26242.9
 21 06 2013  05 43  -21.0297 26014.9 -03452.6 -07.5598 26243.0
 21 06 2013  05 44  -21.0299 26015.0 -03452.6 -07.5599 26243.1
 21 06 2013  05 45  -21.0304 26014.7 -03452.5 -07.5598 26242.8
 21 06 2013  05 46  -21.0305 26014.1 -03452.3 -07.5594 26242.2
 21 06 2013  05 47  -21.0298 26013.6 -03451.9 -07.5588 26241.7
 21 06 2013  05 48  -21.0291 26013.2 -03451.7 -07.5584 26241.2
 21 06 2013  05 49  -21.0285 26012.9 -03451.6 -07.5582 26240.8
 21 06 2013  05 50  -21.0278 26012.7 -03451.5 -07.5582 26240.7
 21 06 2013  05 51  -21.0270 26012.8 -03451.6 -07.5584 26240.8
 21 06 2013  05 52  -21.0264 26012.7 -03451.7 -07.5586 26240.7
 21 06 2013  05 53  -21.0258 26013.0 -03451.9 -07.5590 26241.0
 21 06 2013  05 54  -21.0254 26013.4 -03452.2 -07.5596 26241.4
 21 06 2013  05 55  -21.0251 26013.6 -03452.5 -07.5600 26241.7
 21 06 2013  05 56  -21.0249 26013.8 -03452.7 -07.5603 26242.0
 21 06 2013  05 57  -21.0249 26014.0 -03452.9 -07.5607 26242.2
 21 06 2013  05 58  -21.0249 26014.6 -03453.1 -07.5611 26242.7
 21 06 2013  05 59  -21.0250 26015.1 -03453.4 -07.5616 26243.3
 21 06 2013  06 00  -21.0248 26015.9 -03453.8 -07.5622 26244.2
 21 06 2013  06 01  -21.0243 26016.7 -03454.1 -07.5627 26245.0
 21 06 2013  06 02  -21.0238 26017.3 -03454.4 -07.5631 26245.6
 21 06 2013  06 03  -21.0236 26017.9 -03454.6 -07.5635 26246.2
 21 06 2013  06 04  -21.0234 26018.3 -03454.8 -07.5637 26246.6
 21 06 2013  06 05  -21.0233 26018.6 -03454.9 -07.5638 26246.9
 21 06 2013  06 06  -21.0234 26018.8 -03455.0 -07.5639 26247.2
 21 06 2013  06 07  -21.0237 26019.0 -03455.0 -07.5639 26247.3
 21 06 2013  06 08  -21.0239 26019.1 -03455.0 -07.5638 26247.5
 21 06 2013  06 09  -21.0239 26019.4 -03455.0 -07.5638 26247.8
 21 06 2013  06 10  -21.0239 26019.7 -03455.1 -07.5639 26248.1
 21 06 2013  06 11  -21.0239 26020.0 -03455.2 -07.5640 26248.4
 21 06 2013  06 12  -21.0238 26020.2 -03455.2 -07.5640 26248.6
 21 06 2013  06 13  -21.0238 26020.4 -03455.2 -07.5639 26248.8
 21 06 2013  06 14  -21.0233 26020.4 -03455.1 -07.5637 26248.8
 21 06 2013  06 15  -21.0232 26020.6 -03455.1 -07.5637 26249.0
 21 06 2013  06 16  -21.0230 26020.6 -03455.1 -07.5636 26249.0
 21 06 2013  06 17  -21.0229 26020.7 -03455.1 -07.5635 26249.1
 21 06 2013  06 18  -21.0229 26020.7 -03455.0 -07.5634 26249.0
 21 06 2013  06 19  -21.0228 26020.6 -03454.9 -07.5632 26249.0
 21 06 2013  06 20  -21.0227 26020.5 -03454.8 -07.5630 26248.9
 21 06 2013  06 21  -21.0226 26020.6 -03454.8 -07.5630 26248.9
 21 06 2013  06 22  -21.0225 26020.3 -03454.6 -07.5626 26248.6
 21 06 2013  06 23  -21.0224 26020.3 -03454.5 -07.5625 26248.6
 21 06 2013  06 24  -21.0226 26020.2 -03454.5 -07.5624 26248.5
 21 06 2013  06 25  -21.0227 26020.0 -03454.4 -07.5623 26248.3
 21 06 2013  06 26  -21.0225 26019.9 -03454.3 -07.5621 26248.2
 21 06 2013  06 27  -21.0226 26019.9 -03454.3 -07.5620 26248.2
 21 06 2013  06 28  -21.0225 26019.9 -03454.2 -07.5620 26248.2
 21 06 2013  06 29  -21.0223 26019.7 -03454.1 -07.5617 26247.9
 21 06 2013  06 30  -21.0222 26019.3 -03453.9 -07.5614 26247.5
 21 06 2013  06 31  -21.0218 26019.2 -03453.8 -07.5613 26247.4
 21 06 2013  06 32  -21.0217 26018.9 -03453.7 -07.5610 26247.1
 21 06 2013  06 33  -21.0216 26018.5 -03453.5 -07.5608 26246.7
 21 06 2013  06 34  -21.0214 26018.3 -03453.4 -07.5606 26246.5
 21 06 2013  06 35  -21.0208 26018.2 -03453.3 -07.5604 26246.3
 21 06 2013  06 36  -21.0204 26018.2 -03453.3 -07.5604 26246.3
 21 06 2013  06 37  -21.0205 26018.3 -03453.4 -07.5607 26246.5
 21 06 2013  06 38  -21.0207 26018.5 -03453.6 -07.5611 26246.7
 21 06 2013  06 39  -21.0207 26018.9 -03453.8 -07.5614 26247.1
 21 06 2013  06 40  -21.0210 26019.4 -03454.1 -07.5618 26247.6
 21 06 2013  06 41  -21.0214 26019.8 -03454.3 -07.5622 26248.1
 21 06 2013  06 42  -21.0217 26020.3 -03454.5 -07.5625 26248.6
 21 06 2013  06 43  -21.0221 26020.5 -03454.7 -07.5628 26248.9
 21 06 2013  06 44  -21.0226 26020.9 -03454.8 -07.5629 26249.3
 21 06 2013  06 45  -21.0233 26021.2 -03454.9 -07.5631 26249.6
 21 06 2013  06 46  -21.0237 26021.3 -03454.9 -07.5630 26249.6
 21 06 2013  06 47  -21.0235 26021.2 -03454.7 -07.5627 26249.6
 21 06 2013  06 48  -21.0233 26021.2 -03454.6 -07.5625 26249.6
 21 06 2013  06 49  -21.0234 26021.3 -03454.6 -07.5624 26249.6
 21 06 2013  06 50  -21.0235 26021.5 -03454.6 -07.5624 26249.8
 21 06 2013  06 51  -21.0233 26021.6 -03454.7 -07.5624 26249.9
 21 06 2013  06 52  -21.0230 26021.6 -03454.6 -07.5623 26250.0
 21 06 2013  06 53  -21.0225 26021.7 -03454.6 -07.5622 26250.0
 21 06 2013  06 54  -21.0219 26021.8 -03454.5 -07.5621 26250.1
 21 06 2013  06 55  -21.0213 26021.7 -03454.5 -07.5620 26250.0
 21 06 2013  06 56  -21.0206 26021.7 -03454.5 -07.5620 26250.0
 21 06 2013  06 57  -21.0200 26021.8 -03454.5 -07.5620 26250.1
 21 06 2013  06 58  -21.0193 26021.9 -03454.5 -07.5620 26250.2
 21 06 2013  06 59  -21.0187 26022.0 -03454.6 -07.5621 26250.3
 21 06 2013  07 00  -21.0182 26021.9 -03454.6 -07.5621 26250.2
 21 06 2013  07 01  -21.0176 26021.8 -03454.5 -07.5621 26250.1
 21 06 2013  07 02  -21.0171 26021.4 -03454.4 -07.5618 26249.7
 21 06 2013  07 03  -21.0163 26021.1 -03454.2 -07.5615 26249.3
 21 06 2013  07 04  -21.0154 26021.0 -03454.1 -07.5614 26249.3
 21 06 2013  07 05  -21.0145 26021.0 -03454.2 -07.5615 26249.3
 21 06 2013  07 06  -21.0137 26021.2 -03454.3 -07.5618 26249.4
 21 06 2013  07 07  -21.0128 26021.3 -03454.5 -07.5621 26249.6
 21 06 2013  07 08  -21.0123 26021.5 -03454.6 -07.5624 26249.8
 21 06 2013  07 09  -21.0119 26021.8 -03454.9 -07.5628 26250.1
 21 06 2013  07 10  -21.0115 26022.0 -03455.1 -07.5632 26250.4
 21 06 2013  07 11  -21.0109 26022.1 -03455.1 -07.5632 26250.4
 21 06 2013  07 12  -21.0104 26022.0 -03455.1 -07.5632 26250.4
 21 06 2013  07 13  -21.0102 26021.9 -03455.1 -07.5632 26250.3
 21 06 2013  07 14  -21.0102 26021.9 -03455.1 -07.5633 26250.3
 21 06 2013  07 15  -21.0105 26021.8 -03455.1 -07.5634 26250.2
 21 06 2013  07 16  -21.0108 26021.7 -03455.1 -07.5634 26250.1
 21 06 2013  07 17  -21.0111 26021.6 -03455.1 -07.5633 26250.0
 21 06 2013  07 18  -21.0112 26021.5 -03455.0 -07.5631 26249.8
 21 06 2013  07 19  -21.0115 26021.4 -03454.9 -07.5630 26249.7
 21 06 2013  07 20  -21.0120 26021.2 -03454.9 -07.5630 26249.5
 21 06 2013  07 21  -21.0123 26021.0 -03454.8 -07.5628 26249.3
 21 06 2013  07 22  -21.0124 26020.7 -03454.6 -07.5626 26249.0
 21 06 2013  07 23  -21.0122 26020.5 -03454.5 -07.5623 26248.8
 21 06 2013  07 24  -21.0118 26020.2 -03454.3 -07.5621 26248.5
 21 06 2013  07 25  -21.0117 26020.1 -03454.3 -07.5620 26248.3
 21 06 2013  07 26  -21.0118 26020.1 -03454.3 -07.5621 26248.4
 21 06 2013  07 27  -21.0117 26020.3 -03454.4 -07.5623 26248.6
 21 06 2013  07 28  -21.0118 26020.6 -03454.6 -07.5627 26248.9
 21 06 2013  07 29  -21.0120 26020.8 -03454.8 -07.5630 26249.2
 21 06 2013  07 30  -21.0123 26021.0 -03454.9 -07.5631 26249.4
 21 06 2013  07 31  -21.0125 26021.0 -03454.9 -07.5631 26249.3
 21 06 2013  07 32  -21.0124 26020.9 -03454.8 -07.5629 26249.2
 21 06 2013  07 33  -21.0119 26020.6 -03454.6 -07.5626 26249.0
 21 06 2013  07 34  -21.0113 26020.3 -03454.4 -07.5622 26248.6
 21 06 2013  07 35  -21.0108 26020.2 -03454.3 -07.5620 26248.5
 21 06 2013  07 36  -21.0105 26020.0 -03454.2 -07.5619 26248.3
 21 06 2013  07 37  -21.0105 26020.0 -03454.3 -07.5620 26248.2
 21 06 2013  07 38  -21.0106 26019.9 -03454.2 -07.5620 26248.2
 21 06 2013  07 39  -21.0110 26019.7 -03454.2 -07.5619 26247.9
 21 06 2013  07 40  -21.0115 26019.5 -03454.1 -07.5618 26247.7
 21 06 2013  07 41  -21.0119 26019.3 -03454.0 -07.5617 26247.6
 21 06 2013  07 42  -21.0122 26019.3 -03454.0 -07.5617 26247.6
 21 06 2013  07 43  -21.0123 26019.3 -03454.0 -07.5617 26247.6
 21 06 2013  07 44  -21.0120 26019.5 -03454.1 -07.5618 26247.7
 21 06 2013  07 45  -21.0116 26019.7 -03454.1 -07.5618 26248.0
 21 06 2013  07 46  -21.0111 26019.7 -03454.2 -07.5619 26248.0
 21 06 2013  07 47  -21.0108 26019.4 -03454.0 -07.5616 26247.7
 21 06 2013  07 48  -21.0104 26018.9 -03453.7 -07.5612 26247.1
 21 06 2013  07 49  -21.0100 26018.4 -03453.4 -07.5607 26246.6
 21 06 2013  07 50  -21.0094 26018.0 -03453.2 -07.5603 26246.2
 21 06 2013  07 51  -21.0094 26017.6 -03453.1 -07.5601 26245.7
 21 06 2013  07 52  -21.0096 26017.6 -03453.1 -07.5603 26245.7
 21 06 2013  07 53  -21.0100 26017.9 -03453.4 -07.5607 26246.0
 21 06 2013  07 54  -21.0105 26018.0 -03453.5 -07.5610 26246.2
 21 06 2013  07 55  -21.0108 26018.2 -03453.6 -07.5612 26246.4
 21 06 2013  07 56  -21.0110 26018.1 -03453.7 -07.5613 26246.3
 21 06 2013  07 57  -21.0103 26017.6 -03453.4 -07.5609 26245.8
 21 06 2013  07 58  -21.0100 26017.5 -03453.3 -07.5607 26245.7
 21 06 2013  07 59  -21.0099 26017.5 -03453.4 -07.5608 26245.7
 21 06 2013  08 00  -21.0101 26017.6 -03453.5 -07.5610 26245.8
 21 06 2013  08 01  -21.0109 26017.7 -03453.6 -07.5612 26245.9
 21 06 2013  08 02  -21.0115 26017.8 -03453.6 -07.5612 26246.0
 21 06 2013  08 03  -21.0109 26018.1 -03453.6 -07.5612 26246.3
 21 06 2013  08 04  -21.0102 26018.3 -03453.7 -07.5612 26246.5
 21 06 2013  08 05  -21.0094 26018.8 -03454.0 -07.5617 26247.1
 21 06 2013  08 06  -21.0085 26018.9 -03454.1 -07.5619 26247.2
 21 06 2013  08 07  -21.0085 26018.8 -03454.0 -07.5618 26247.1
 21 06 2013  08 08  -21.0090 26018.8 -03454.0 -07.5617 26247.1
 21 06 2013  08 09  -21.0096 26018.5 -03453.7 -07.5613 26246.7
 21 06 2013  08 10  -21.0097 26018.2 -03453.5 -07.5608 26246.4
 21 06 2013  08 11  -21.0093 26017.7 -03453.2 -07.5603 26245.9
 21 06 2013  08 12  -21.0088 26017.8 -03453.0 -07.5600 26245.9
 21 06 2013  08 13  -21.0081 26017.8 -03453.0 -07.5600 26245.9
 21 06 2013  08 14  -21.0078 26018.3 -03453.3 -07.5603 26246.4
 21 06 2013  08 15  -21.0069 26018.9 -03453.6 -07.5608 26247.1
 21 06 2013  08 16  -21.0061 26019.3 -03453.8 -07.5612 26247.5
 21 06 2013  08 17  -21.0055 26019.5 -03454.0 -07.5615 26247.8
 21 06 2013  08 18  -21.0053 26019.7 -03454.1 -07.5616 26248.0
 21 06 2013  08 19  -21.0050 26019.8 -03454.1 -07.5617 26248.0
 21 06 2013  08 20  -21.0044 26019.8 -03454.1 -07.5617 26248.1
 21 06 2013  08 21  -21.0038 26020.0 -03454.2 -07.5618 26248.3
 21 06 2013  08 22  -21.0030 26020.3 -03454.3 -07.5620 26248.6
 21 06 2013  08 23  -21.0025 26020.4 -03454.3 -07.5621 26248.7
 21 06 2013  08 24  -21.0023 26020.6 -03454.4 -07.5622 26248.9
 21 06 2013  08 25  -21.0024 26021.1 -03454.6 -07.5625 26249.4
 21 06 2013  08 26  -21.0025 26021.5 -03454.9 -07.5629 26249.8
 21 06 2013  08 27  -21.0028 26021.7 -03455.0 -07.5630 26250.1
 21 06 2013  08 28  -21.0032 26021.7 -03454.9 -07.5628 26250.0
 21 06 2013  08 29  -21.0034 26021.6 -03454.7 -07.5625 26249.9
 21 06 2013  08 30  -21.0037 26021.6 -03454.5 -07.5621 26249.9
 21 06 2013  08 31  -21.0036 26021.5 -03454.3 -07.5616 26249.8
 21 06 2013  08 32  -21.0029 26021.3 -03454.0 -07.5612 26249.5
 21 06 2013  08 33  -21.0026 26021.2 -03453.9 -07.5609 26249.4
 21 06 2013  08 34  -21.0022 26021.2 -03453.8 -07.5607 26249.4
 21 06 2013  08 35  -21.0013 26021.3 -03453.7 -07.5604 26249.5
 21 06 2013  08 36  -21.0002 26021.2 -03453.6 -07.5603 26249.4
 21 06 2013  08 37  -20.9991 26021.1 -03453.6 -07.5602 26249.3
 21 06 2013  08 38  -20.9984 26021.1 -03453.5 -07.5600 26249.3
 21 06 2013  08 39  -20.9976 26021.1 -03453.4 -07.5599 26249.2
 21 06 2013  08 40  -20.9968 26021.0 -03453.3 -07.5596 26249.1
 21 06 2013  08 41  -20.9964 26021.1 -03453.3 -07.5596 26249.2
 21 06 2013  08 42  -20.9960 26021.3 -03453.4 -07.5598 26249.4
 21 06 2013  08 43  -20.9956 26021.4 -03453.5 -07.5599 26249.6
 21 06 2013  08 44  -20.9949 26021.4 -03453.4 -07.5597 26249.6
 21 06 2013  08 45  -20.9942 26021.5 -03453.4 -07.5597 26249.6
 21 06 2013  08 46  -20.9940 26021.4 -03453.3 -07.5595 26249.5
 21 06 2013  08 47  -20.9937 26021.5 -03453.4 -07.5596 26249.7
 21 06 2013  08 48  -20.9934 26021.7 -03453.4 -07.5598 26249.8
 21 06 2013  08 49  -20.9927 26021.9 -03453.5 -07.5599 26250.1
 21 06 2013  08 50  -20.9921 26022.0 -03453.5 -07.5599 26250.1
 21 06 2013  08 51  -20.9917 26022.3 -03453.6 -07.5600 26250.5
 21 06 2013  08 52  -20.9906 26022.4 -03453.7 -07.5600 26250.6
 21 06 2013  08 53  -20.9889 26022.5 -03453.6 -07.5599 26250.7
 21 06 2013  08 54  -20.9871 26022.5 -03453.4 -07.5595 26250.6
 21 06 2013  08 55  -20.9857 26022.5 -03453.3 -07.5592 26250.7
 21 06 2013  08 56  -20.9850 26022.5 -03453.3 -07.5592 26250.6
 21 06 2013  08 57  -20.9838 26022.8 -03453.4 -07.5594 26250.9
 21 06 2013  08 58  -20.9823 26022.7 -03453.3 -07.5593 26250.8
 21 06 2013  08 59  -20.9808 26022.5 -03453.3 -07.5592 26250.7
 21 06 2013  09 00  -20.9796 26022.4 -03453.3 -07.5592 26250.5
 21 06 2013  09 01  -20.9780 26022.5 -03453.3 -07.5593 26250.6
 21 06 2013  09 02  -20.9764 26022.7 -03453.4 -07.5594 26250.8
 21 06 2013  09 03  -20.9745 26022.8 -03453.6 -07.5598 26250.9
 21 06 2013  09 04  -20.9726 26023.0 -03453.8 -07.5602 26251.2
 21 06 2013  09 05  -20.9712 26023.2 -03454.0 -07.5606 26251.5
 21 06 2013  09 06  -20.9709 26023.6 -03454.4 -07.5613 26251.9
 21 06 2013  09 07  -20.9712 26024.2 -03454.9 -07.5623 26252.6
 21 06 2013  09 08  -20.9710 26024.6 -03455.3 -07.5630 26253.0
 21 06 2013  09 09  -20.9709 26024.8 -03455.6 -07.5636 26253.2
 21 06 2013  09 10  -20.9713 26024.9 -03455.8 -07.5640 26253.3
 21 06 2013  09 11  -20.9715 26024.9 -03456.0 -07.5643 26253.4
 21 06 2013  09 12  -20.9716 26024.8 -03456.0 -07.5644 26253.2
 21 06 2013  09 13  -20.9711 26024.8 -03456.0 -07.5644 26253.3
 21 06 2013  09 14  -20.9705 26024.9 -03456.1 -07.5645 26253.4
 21 06 2013  09 15  -20.9702 26025.0 -03456.1 -07.5646 26253.5
 21 06 2013  09 16  -20.9695 26025.1 -03456.3 -07.5649 26253.6
 21 06 2013  09 17  -20.9685 26025.0 -03456.3 -07.5649 26253.5
 21 06 2013  09 18  -20.9683 26025.0 -03456.4 -07.5652 26253.5
 21 06 2013  09 19  -20.9671 26025.0 -03456.4 -07.5653 26253.5
 21 06 2013  09 20  -20.9668 26024.6 -03456.3 -07.5651 26253.1
 21 06 2013  09 21  -20.9672 26024.6 -03456.6 -07.5657 26253.1
 21 06 2013  09 22  -20.9666 26024.5 -03456.6 -07.5659 26253.0
 21 06 2013  09 23  -20.9664 26024.5 -03456.8 -07.5662 26253.1
 21 06 2013  09 24  -20.9664 26024.7 -03457.0 -07.5666 26253.3
 21 06 2013  09 25  -20.9657 26024.9 -03457.2 -07.5669 26253.5
 21 06 2013  09 26  -20.9650 26024.7 -03457.1 -07.5668 26253.3
 21 06 2013  09 27  -20.9646 26024.4 -03457.0 -07.5666 26253.0
 21 06 2013  09 28  -20.9641 26024.4 -03456.9 -07.5666 26253.0
 21 06 2013  09 29  -20.9644 26024.3 -03457.0 -07.5667 26252.9
 21 06 2013  09 30  -20.9646 26024.3 -03457.1 -07.5669 26252.9
 21 06 2013  09 31  -20.9648 26024.6 -03457.3 -07.5672 26253.2
 21 06 2013  09 32  -20.9644 26024.9 -03457.5 -07.5677 26253.6
 21 06 2013  09 33  -20.9634 26025.2 -03457.7 -07.5679 26253.9
 21 06 2013  09 34  -20.9622 26025.9 -03458.1 -07.5686 26254.7
 21 06 2013  09 35  -20.9604 26026.4 -03458.3 -07.5689 26255.1
 21 06 2013  09 36  -20.9591 26026.5 -03458.4 -07.5690 26255.3
 21 06 2013  09 37  -20.9590 26026.6 -03458.5 -07.5693 26255.4
 21 06 2013  09 38  -20.9588 26027.0 -03458.7 -07.5697 26255.8
 21 06 2013  09 39  -20.9585 26027.9 -03459.1 -07.5703 26256.7
 21 06 2013  09 40  -20.9597 26028.4 -03459.4 -07.5708 26257.3
 21 06 2013  09 41  -20.9604 26028.5 -03459.6 -07.5710 26257.4
 21 06 2013  09 42  -20.9619 26028.3 -03459.6 -07.5712 26257.3
 21 06 2013  09 43  -20.9637 26028.5 -03459.8 -07.5716 26257.4
 21 06 2013  09 44  -20.9646 26028.8 -03460.0 -07.5718 26257.8
 21 06 2013  09 45  -20.9652 26028.8 -03459.9 -07.5716 26257.7
 21 06 2013  09 46  -20.9662 26028.5 -03459.7 -07.5713 26257.5
 21 06 2013  09 47  -20.9669 26028.3 -03459.6 -07.5712 26257.2
 21 06 2013  09 48  -20.9669 26028.2 -03459.6 -07.5711 26257.1
 21 06 2013  09 49  -20.9663 26028.1 -03459.6 -07.5713 26257.1
 21 06 2013  09 50  -20.9657 26028.1 -03459.7 -07.5714 26257.0
 21 06 2013  09 51  -20.9633 26027.9 -03459.6 -07.5712 26256.8
 21 06 2013  09 52  -20.9619 26028.2 -03459.7 -07.5715 26257.1
 21 06 2013  09 53  -20.9615 26028.6 -03460.0 -07.5719 26257.5
 21 06 2013  09 54  -20.9604 26029.1 -03460.3 -07.5725 26258.1
 21 06 2013  09 55  -20.9586 26029.6 -03460.5 -07.5728 26258.6
 21 06 2013  09 56  -20.9567 26030.2 -03460.7 -07.5731 26259.2
 21 06 2013  09 57  -20.9572 26030.6 -03461.0 -07.5736 26259.7
 21 06 2013  09 58  -20.9572 26031.3 -03461.4 -07.5743 26260.4
 21 06 2013  09 59  -20.9569 26032.0 -03461.7 -07.5748 26261.1
 21 06 2013  10 00  -20.9577 26032.2 -03461.9 -07.5750 26261.4
 21 06 2013  10 01  -20.9580 26032.4 -03462.0 -07.5752 26261.6
 21 06 2013  10 02  -20.9575 26032.8 -03462.2 -07.5755 26262.0
 21 06 2013  10 03  -20.9589 26033.1 -03462.4 -07.5758 26262.3
 21 06 2013  10 04  -20.9606 26033.6 -03462.6 -07.5762 26262.9
 21 06 2013  10 05  -20.9599 26033.8 -03462.5 -07.5759 26263.0
 21 06 2013  10 06  -20.9614 26033.8 -03462.5 -07.5758 26263.0
 21 06 2013  10 07  -20.9643 26033.8 -03462.7 -07.5763 26263.1
 21 06 2013  10 08  -20.9642 26033.5 -03462.6 -07.5761 26262.8
 21 06 2013  10 09  -20.9650 26033.3 -03462.4 -07.5758 26262.5
 21 06 2013  10 10  -20.9658 26033.2 -03462.4 -07.5758 26262.4
 21 06 2013  10 11  -20.9660 26033.4 -03462.6 -07.5761 26262.6
 21 06 2013  10 12  -20.9668 26033.3 -03462.6 -07.5761 26262.6
 21 06 2013  10 13  -20.9678 26033.4 -03462.7 -07.5764 26262.7
 21 06 2013  10 14  -20.9678 26033.0 -03462.5 -07.5761 26262.2
 21 06 2013  10 15  -20.9690 26032.7 -03462.3 -07.5758 26261.9
 21 06 2013  10 16  -20.9697 26032.8 -03462.5 -07.5761 26262.0
 21 06 2013  10 17  -20.9698 26032.4 -03462.5 -07.5762 26261.7
 21 06 2013  10 18  -20.9687 26032.9 -03462.8 -07.5767 26262.2
 21 06 2013  10 19  -20.9685 26033.1 -03463.0 -07.5772 26262.4
 21 06 2013  10 20  -20.9690 26032.1 -03462.8 -07.5770 26261.5
 21 06 2013  10 21  -20.9694 26031.2 -03462.5 -07.5767 26260.4
 21 06 2013  10 22  -20.9692 26031.0 -03462.6 -07.5768 26260.3
 21 06 2013  10 23  -20.9695 26031.1 -03462.7 -07.5770 26260.4
 21 06 2013  10 24  -20.9697 26031.3 -03462.8 -07.5773 26260.7
 21 06 2013  10 25  -20.9698 26031.9 -03463.1 -07.5777 26261.2
 21 06 2013  10 26  -20.9699 26032.5 -03463.4 -07.5781 26261.8
 21 06 2013  10 27  -20.9699 26032.7 -03463.5 -07.5783 26262.1
 21 06 2013  10 28  -20.9713 26032.6 -03463.4 -07.5782 26262.0
 21 06 2013  10 29  -20.9728 26032.7 -03463.4 -07.5781 26262.1
 21 06 2013  10 30  -20.9742 26033.1 -03463.4 -07.5780 26262.5
 21 06 2013  10 31  -20.9747 26033.2 -03463.3 -07.5777 26262.5
 21 06 2013  10 32  -20.9740 26032.9 -03463.0 -07.5771 26262.2
 21 06 2013  10 33  -20.9734 26033.3 -03462.9 -07.5770 26262.6
 21 06 2013  10 34  -20.9728 26033.6 -03463.0 -07.5769 26262.9
 21 06 2013  10 35  -20.9723 26033.9 -03463.0 -07.5769 26263.2
 21 06 2013  10 36  -20.9718 26034.4 -03463.1 -07.5769 26263.7
 21 06 2013  10 37  -20.9718 26034.5 -03463.0 -07.5768 26263.8
 21 06 2013  10 38  -20.9720 26034.6 -03463.0 -07.5767 26263.9
 21 06 2013  10 39  -20.9716 26035.1 -03463.1 -07.5767 26264.4
 21 06 2013  10 40  -20.9708 26035.9 -03463.3 -07.5769 26265.2
 21 06 2013  10 41  -20.9705 26036.7 -03463.5 -07.5771 26266.0
 21 06 2013  10 42  -20.9705 26037.3 -03463.7 -07.5774 26266.7
 21 06 2013  10 43  -20.9708 26037.8 -03463.8 -07.5775 26267.2
 21 06 2013  10 44  -20.9716 26038.1 -03463.8 -07.5773 26267.5
 21 06 2013  10 45  -20.9719 26038.4 -03463.7 -07.5771 26267.7
 21 06 2013  10 46  -20.9727 26038.8 -03463.6 -07.5769 26268.1
 21 06 2013  10 47  -20.9733 26039.4 -03463.7 -07.5769 26268.7
 21 06 2013  10 48  -20.9738 26039.9 -03463.7 -07.5767 26269.3
 21 06 2013  10 49  -20.9737 26040.3 -03463.6 -07.5764 26269.7
 21 06 2013  10 50  -20.9735 26040.7 -03463.6 -07.5762 26270.1
 21 06 2013  10 51  -20.9739 26041.0 -03463.5 -07.5759 26270.3
 21 06 2013  10 52  -20.9743 26041.2 -03463.4 -07.5756 26270.5
 21 06 2013  10 53  -20.9747 26041.4 -03463.3 -07.5753 26270.7
 21 06 2013  10 54  -20.9750 26041.8 -03463.3 -07.5752 26271.1
 21 06 2013  10 55  -20.9752 26042.1 -03463.2 -07.5750 26271.4
 21 06 2013  10 56  -20.9757 26042.4 -03463.2 -07.5750 26271.7
 21 06 2013  10 57  -20.9760 26042.6 -03463.2 -07.5749 26271.9
 21 06 2013  10 58  -20.9758 26042.7 -03463.1 -07.5746 26272.0
 21 06 2013  10 59  -20.9759 26043.2 -03463.1 -07.5745 26272.4
 21 06 2013  11 00  -20.9757 26043.8 -03463.2 -07.5745 26273.0
 21 06 2013  11 01  -20.9756 26044.3 -03463.2 -07.5744 26273.5
 21 06 2013  11 02  -20.9754 26044.5 -03463.1 -07.5741 26273.7
 21 06 2013  11 03  -20.9756 26044.7 -03463.1 -07.5740 26273.9
 21 06 2013  11 04  -20.9758 26044.9 -03463.1 -07.5740 26274.1
 21 06 2013  11 05  -20.9762 26045.2 -03463.2 -07.5740 26274.5
 21 06 2013  11 06  -20.9769 26045.5 -03463.2 -07.5741 26274.7
 21 06 2013  11 07  -20.9778 26045.9 -03463.3 -07.5742 26275.1
 21 06 2013  11 08  -20.9782 26046.3 -03463.3 -07.5741 26275.5
 21 06 2013  11 09  -20.9789 26046.6 -03463.4 -07.5741 26275.9
 21 06 2013  11 10  -20.9797 26046.9 -03463.4 -07.5740 26276.2
 21 06 2013  11 11  -20.9804 26046.9 -03463.3 -07.5737 26276.1
 21 06 2013  11 12  -20.9808 26047.1 -03463.2 -07.5736 26276.4
 21 06 2013  11 13  -20.9818 26047.2 -03463.2 -07.5735 26276.5
 21 06 2013  11 14  -20.9835 26047.3 -03463.1 -07.5734 26276.5
 21 06 2013  11 15  -20.9850 26047.2 -03463.0 -07.5732 26276.4
 21 06 2013  11 16  -20.9861 26046.8 -03462.8 -07.5729 26275.9
 21 06 2013  11 17  -20.9862 26046.5 -03462.7 -07.5727 26275.6
 21 06 2013  11 18  -20.9861 26046.1 -03462.6 -07.5725 26275.3
 21 06 2013  11 19  -20.9856 26046.0 -03462.6 -07.5725 26275.1
 21 06 2013  11 20  -20.9848 26046.1 -03462.6 -07.5725 26275.2
 21 06 2013  11 21  -20.9845 26046.3 -03462.7 -07.5727 26275.5
 21 06 2013  11 22  -20.9850 26046.6 -03462.8 -07.5729 26275.8
 21 06 2013  11 23  -20.9860 26046.8 -03463.0 -07.5731 26276.0
 21 06 2013  11 24  -20.9872 26046.8 -03463.0 -07.5732 26276.0
 21 06 2013  11 25  -20.9880 26046.6 -03463.0 -07.5732 26275.8
 21 06 2013  11 26  -20.9882 26046.8 -03463.0 -07.5733 26276.0
 21 06 2013  11 27  -20.9875 26047.0 -03463.2 -07.5736 26276.2
 21 06 2013  11 28  -20.9869 26047.2 -03463.3 -07.5738 26276.5
 21 06 2013  11 29  -20.9866 26047.1 -03463.4 -07.5740 26276.4
 21 06 2013  11 30  -20.9867 26047.2 -03463.5 -07.5741 26276.5
 21 06 2013  11 31  -20.9873 26047.7 -03463.7 -07.5746 26277.0
 21 06 2013  11 32  -20.9879 26048.5 -03464.1 -07.5750 26277.9
 21 06 2013  11 33  -20.9875 26049.5 -03464.4 -07.5754 26278.9
 21 06 2013  11 34  -20.9878 26050.3 -03464.6 -07.5756 26279.7
 21 06 2013  11 35  -20.9890 26051.0 -03464.8 -07.5759 26280.4
 21 06 2013  11 36  -20.9902 26051.8 -03465.0 -07.5760 26281.2
 21 06 2013  11 37  -20.9916 26052.6 -03465.1 -07.5761 26282.0
 21 06 2013  11 38  -20.9932 26053.0 -03465.1 -07.5759 26282.4
 21 06 2013  11 39  -20.9941 26053.1 -03464.9 -07.5756 26282.5
 21 06 2013  11 40  -20.9947 26053.0 -03464.7 -07.5751 26282.3
 21 06 2013  11 41  -20.9947 26053.1 -03464.7 -07.5750 26282.5
 21 06 2013  11 42  -20.9949 26053.1 -03464.7 -07.5750 26282.5
 21 06 2013  11 43  -20.9953 26053.2 -03464.7 -07.5751 26282.5
 21 06 2013  11 44  -20.9957 26053.2 -03464.8 -07.5752 26282.6
 21 06 2013  11 45  -20.9959 26053.4 -03464.9 -07.5753 26282.7
 21 06 2013  11 46  -20.9963 26053.3 -03464.8 -07.5751 26282.7
 21 06 2013  11 47  -20.9967 26053.6 -03464.8 -07.5751 26283.0
 21 06 2013  11 48  -20.9974 26054.2 -03464.9 -07.5752 26283.6
 21 06 2013  11 49  -20.9983 26054.7 -03465.0 -07.5753 26284.1
 21 06 2013  11 50  -21.0003 26055.2 -03465.1 -07.5754 26284.7
 21 06 2013  11 51  -21.0050 26055.4 -03465.0 -07.5750 26284.8
 21 06 2013  11 52  -21.0059 26055.9 -03465.0 -07.5748 26285.3
 21 06 2013  11 53  -21.0061 26056.3 -03464.9 -07.5745 26285.7
 21 06 2013  11 54  -21.0071 26056.8 -03465.0 -07.5746 26286.2
 21 06 2013  11 55  -21.0073 26057.6 -03465.0 -07.5746 26286.9
 21 06 2013  11 56  -21.0083 26057.8 -03465.1 -07.5746 26287.2
 21 06 2013  11 57  -21.0087 26058.0 -03465.1 -07.5745 26287.3
 21 06 2013  11 58  -21.0103 26058.0 -03465.1 -07.5744 26287.4
 21 06 2013  11 59  -21.0117 26057.8 -03464.9 -07.5742 26287.2
 21 06 2013  12 00  -21.0122 26057.7 -03464.9 -07.5741 26287.0
 21 06 2013  12 01  -21.0125 26057.5 -03464.8 -07.5741 26286.9
 21 06 2013  12 02  -21.0135 26057.6 -03464.9 -07.5742 26287.0
 21 06 2013  12 03  -21.0143 26058.0 -03464.9 -07.5741 26287.3
 21 06 2013  12 04  -21.0153 26058.2 -03464.9 -07.5740 26287.5
 21 06 2013  12 05  -21.0163 26058.2 -03464.7 -07.5736 26287.5
 21 06 2013  12 06  -21.0153 26058.2 -03464.5 -07.5732 26287.5
 21 06 2013  12 07  -21.0128 26058.2 -03464.5 -07.5731 26287.5
 21 06 2013  12 08  -21.0108 26058.5 -03464.6 -07.5734 26287.8
 21 06 2013  12 09  -21.0109 26058.5 -03464.6 -07.5732 26287.8
 21 06 2013  12 10  -21.0116 26058.5 -03464.5 -07.5732 26287.8
 21 06 2013  12 11  -21.0122 26058.7 -03464.6 -07.5732 26288.0
 21 06 2013  12 12  -21.0127 26058.4 -03464.3 -07.5728 26287.7
 21 06 2013  12 13  -21.0133 26058.2 -03464.2 -07.5725 26287.5
 21 06 2013  12 14  -21.0137 26058.2 -03464.1 -07.5723 26287.4
 21 06 2013  12 15  -21.0141 26058.0 -03464.0 -07.5722 26287.2
 21 06 2013  12 16  -21.0146 26057.9 -03464.0 -07.5721 26287.2
 21 06 2013  12 17  -21.0153 26057.9 -03464.0 -07.5722 26287.1
 21 06 2013  12 18  -21.0163 26057.7 -03464.0 -07.5721 26287.0
 21 06 2013  12 19  -21.0168 26057.8 -03464.0 -07.5722 26287.1
 21 06 2013  12 20  -21.0174 26058.1 -03464.0 -07.5722 26287.4
 21 06 2013  12 21  -21.0181 26058.5 -03464.0 -07.5721 26287.7
 21 06 2013  12 22  -21.0188 26058.8 -03464.0 -07.5720 26288.0
 21 06 2013  12 23  -21.0192 26058.9 -03464.0 -07.5719 26288.2
 21 06 2013  12 24  -21.0194 26059.0 -03463.9 -07.5717 26288.2
 21 06 2013  12 25  -21.0197 26058.5 -03463.7 -07.5714 26287.7
 21 06 2013  12 26  -21.0197 26058.4 -03463.5 -07.5710 26287.6
 21 06 2013  12 27  -21.0205 26058.6 -03463.5 -07.5708 26287.8
 21 06 2013  12 28  -21.0213 26058.6 -03463.3 -07.5706 26287.7
 21 06 2013  12 29  -21.0216 26058.3 -03463.0 -07.5700 26287.4
 21 06 2013  12 30  -21.0222 26057.9 -03462.8 -07.5697 26287.0
 21 06 2013  12 31  -21.0224 26057.8 -03462.9 -07.5698 26286.9
 21 06 2013  12 32  -21.0231 26057.8 -03462.9 -07.5699 26286.9
 21 06 2013  12 33  -21.0236 26058.3 -03463.2 -07.5703 26287.4
 21 06 2013  12 34  -21.0241 26059.0 -03463.4 -07.5705 26288.1
 21 06 2013  12 35  -21.0242 26059.2 -03463.4 -07.5705 26288.3
 21 06 2013  12 36  -21.0247 26059.9 -03463.6 -07.5707 26289.0
 21 06 2013  12 37  -21.0251 26060.6 -03463.7 -07.5708 26289.8
 21 06 2013  12 38  -21.0256 26061.1 -03463.7 -07.5707 26290.2
 21 06 2013  12 39  -21.0258 26061.4 -03463.6 -07.5704 26290.6
 21 06 2013  12 40  -21.0258 26062.0 -03463.6 -07.5702 26291.1
 21 06 2013  12 41  -21.0263 26062.0 -03463.4 -07.5698 26291.1
 21 06 2013  12 42  -21.0270 26062.1 -03463.3 -07.5695 26291.2
 21 06 2013  12 43  -21.0280 26062.8 -03463.4 -07.5695 26291.9
 21 06 2013  12 44  -21.0280 26063.8 -03463.5 -07.5693 26293.0
 21 06 2013  12 45  -21.0284 26064.7 -03463.4 -07.5690 26293.8
 21 06 2013  12 46  -21.0288 26064.2 -03463.0 -07.5682 26293.3
 21 06 2013  12 47  -21.0293 26063.7 -03462.6 -07.5675 26292.7
 21 06 2013  12 48  -21.0299 26063.9 -03462.6 -07.5674 26292.9
 21 06 2013  12 49  -21.0302 26064.5 -03462.6 -07.5673 26293.5
 21 06 2013  12 50  -21.0308 26065.6 -03462.9 -07.5675 26294.7
 21 06 2013  12 51  -21.0319 26066.6 -03463.0 -07.5675 26295.6
 21 06 2013  12 52  -21.0328 26066.6 -03462.7 -07.5668 26295.6
 21 06 2013  12 53  -21.0333 26066.2 -03462.2 -07.5659 26295.1
 21 06 2013  12 54  -21.0335 26065.9 -03461.9 -07.5653 26294.8
 21 06 2013  12 55  -21.0339 26066.0 -03461.8 -07.5652 26294.9
 21 06 2013  12 56  -21.0342 26066.1 -03461.9 -07.5652 26295.0
 21 06 2013  12 57  -21.0343 26066.2 -03461.8 -07.5652 26295.1
 21 06 2013  12 58  -21.0344 26066.6 -03461.9 -07.5652 26295.5
 21 06 2013  12 59  -21.0349 26067.1 -03462.1 -07.5654 26296.0
 21 06 2013  13 00  -21.0356 26067.0 -03462.0 -07.5652 26295.9
 21 06 2013  13 01  -21.0356 26067.0 -03461.9 -07.5650 26295.9
 21 06 2013  13 02  -21.0363 26067.3 -03462.0 -07.5651 26296.2
 21 06 2013  13 03  -21.0371 26067.5 -03462.0 -07.5650 26296.4
 21 06 2013  13 04  -21.0383 26067.8 -03462.0 -07.5651 26296.7
 21 06 2013  13 05  -21.0393 26067.8 -03461.9 -07.5649 26296.6
 21 06 2013  13 06  -21.0398 26068.0 -03462.0 -07.5649 26296.9
 21 06 2013  13 07  -21.0403 26068.4 -03462.0 -07.5648 26297.2
 21 06 2013  13 08  -21.0405 26068.7 -03462.1 -07.5649 26297.6
 21 06 2013  13 09  -21.0407 26069.1 -03462.1 -07.5649 26298.0
 21 06 2013  13 10  -21.0408 26069.6 -03462.2 -07.5650 26298.5
 21 06 2013  13 11  -21.0406 26070.0 -03462.3 -07.5650 26298.9
 21 06 2013  13 12  -21.0403 26070.0 -03462.2 -07.5648 26298.9
 21 06 2013  13 13  -21.0401 26070.1 -03462.2 -07.5647 26299.0
 21 06 2013  13 14  -21.0404 26070.0 -03462.1 -07.5645 26298.9
 21 06 2013  13 15  -21.0404 26069.5 -03461.8 -07.5641 26298.4
 21 06 2013  13 16  -21.0402 26069.0 -03461.6 -07.5638 26297.8
 21 06 2013  13 17  -21.0401 26068.7 -03461.5 -07.5637 26297.5
 21 06 2013  13 18  -21.0406 26068.5 -03461.5 -07.5638 26297.3
 21 06 2013  13 19  -21.0414 26068.7 -03461.7 -07.5640 26297.5
 21 06 2013  13 20  -21.0420 26069.3 -03461.9 -07.5643 26298.1
 21 06 2013  13 21  -21.0425 26069.9 -03462.0 -07.5645 26298.7
 21 06 2013  13 22  -21.0434 26070.5 -03462.1 -07.5645 26299.3
 21 06 2013  13 23  -21.0442 26071.0 -03462.1 -07.5643 26299.9
 21 06 2013  13 24  -21.0449 26071.6 -03462.1 -07.5642 26300.5
 21 06 2013  13 25  -21.0456 26071.8 -03462.0 -07.5638 26300.6
 21 06 2013  13 26  -21.0465 26072.2 -03461.9 -07.5635 26301.0
 21 06 2013  13 27  -21.0473 26072.5 -03461.7 -07.5631 26301.3
 21 06 2013  13 28  -21.0476 26072.8 -03461.6 -07.5627 26301.6
 21 06 2013  13 29  -21.0484 26073.3 -03461.4 -07.5623 26302.0
 21 06 2013  13 30  -21.0491 26073.4 -03461.1 -07.5616 26302.1
 21 06 2013  13 31  -21.0495 26073.3 -03460.8 -07.5608 26302.0
 21 06 2013  13 32  -21.0501 26073.4 -03460.5 -07.5602 26302.0
 21 06 2013  13 33  -21.0506 26073.5 -03460.3 -07.5597 26302.1
 21 06 2013  13 34  -21.0512 26073.8 -03460.2 -07.5593 26302.4
 21 06 2013  13 35  -21.0519 26074.4 -03460.1 -07.5591 26302.9
 21 06 2013  13 36  -21.0525 26074.6 -03459.9 -07.5586 26303.2
 21 06 2013  13 37  -21.0528 26074.4 -03459.6 -07.5579 26303.0
 21 06 2013  13 38  -21.0534 26074.4 -03459.3 -07.5574 26302.9
 21 06 2013  13 39  -21.0540 26074.6 -03459.2 -07.5571 26303.1
 21 06 2013  13 40  -21.0545 26075.1 -03459.2 -07.5569 26303.6
 21 06 2013  13 41  -21.0551 26075.5 -03459.1 -07.5565 26303.9
 21 06 2013  13 42  -21.0554 26075.5 -03458.8 -07.5559 26303.9
 21 06 2013  13 43  -21.0558 26075.5 -03458.5 -07.5552 26303.8
 21 06 2013  13 44  -21.0561 26075.5 -03458.2 -07.5546 26303.8
 21 06 2013  13 45  -21.0567 26075.6 -03458.0 -07.5542 26303.9
 21 06 2013  13 46  -21.0572 26075.7 -03457.7 -07.5534 26303.9
 21 06 2013  13 47  -21.0578 26075.3 -03457.2 -07.5525 26303.4
 21 06 2013  13 48  -21.0580 26074.5 -03456.6 -07.5514 26302.7
 21 06 2013  13 49  -21.0583 26074.1 -03456.1 -07.5505 26302.2
 21 06 2013  13 50  -21.0587 26074.1 -03455.8 -07.5497 26302.1
 21 06 2013  13 51  -21.0589 26074.1 -03455.4 -07.5490 26302.0
 21 06 2013  13 52  -21.0588 26073.3 -03454.9 -07.5481 26301.2
 21 06 2013  13 53  -21.0587 26072.3 -03454.3 -07.5472 26300.1
 21 06 2013  13 54  -21.0587 26071.5 -03454.0 -07.5467 26299.3
 21 06 2013  13 55  -21.0587 26071.0 -03453.9 -07.5466 26298.8
 21 06 2013  13 56  -21.0590 26071.1 -03454.0 -07.5469 26298.9
 21 06 2013  13 57  -21.0595 26071.8 -03454.4 -07.5474 26299.6
 21 06 2013  13 58  -21.0598 26072.1 -03454.4 -07.5474 26300.0
 21 06 2013  13 59  -21.0597 26072.7 -03454.5 -07.5474 26300.5
 21 06 2013  14 00  -21.0595 26073.2 -03454.5 -07.5473 26301.0
 21 06 2013  14 01  -21.0594 26073.9 -03454.5 -07.5471 26301.8
 21 06 2013  14 02  -21.0593 26075.4 -03454.7 -07.5471 26303.2
 21 06 2013  14 03  -21.0595 26076.6 -03454.8 -07.5469 26304.4
 21 06 2013  14 04  -21.0598 26078.0 -03454.8 -07.5466 26305.9
 21 06 2013  14 05  -21.0597 26079.4 -03454.8 -07.5461 26307.2
 21 06 2013  14 06  -21.0590 26079.7 -03454.4 -07.5451 26307.5
 21 06 2013  14 07  -21.0587 26080.1 -03454.1 -07.5445 26307.9
 21 06 2013  14 08  -21.0587 26080.6 -03454.0 -07.5441 26308.3
 21 06 2013  14 09  -21.0584 26081.1 -03453.8 -07.5435 26308.8
 21 06 2013  14 10  -21.0588 26082.1 -03453.9 -07.5433 26309.8
 21 06 2013  14 11  -21.0582 26083.0 -03453.8 -07.5429 26310.7
 21 06 2013  14 12  -21.0577 26084.0 -03453.7 -07.5425 26311.7
 21 06 2013  14 13  -21.0565 26083.8 -03453.3 -07.5416 26311.4
 21 06 2013  14 14  -21.0557 26083.6 -03453.0 -07.5410 26311.2
 21 06 2013  14 15  -21.0550 26083.2 -03452.7 -07.5406 26310.7
 21 06 2013  14 16  -21.0546 26083.1 -03452.7 -07.5406 26310.7
 21 06 2013  14 17  -21.0548 26083.4 -03452.8 -07.5407 26310.9
 21 06 2013  14 18  -21.0555 26084.0 -03453.0 -07.5409 26311.6
 21 06 2013  14 19  -21.0554 26084.6 -03453.1 -07.5409 26312.2
 21 06 2013  14 20  -21.0548 26085.2 -03453.0 -07.5407 26312.8
 21 06 2013  14 21  -21.0545 26085.9 -03453.2 -07.5408 26313.5
 21 06 2013  14 22  -21.0542 26086.3 -03453.2 -07.5407 26313.8
 21 06 2013  14 23  -21.0534 26086.1 -03453.1 -07.5405 26313.7
 21 06 2013  14 24  -21.0528 26085.6 -03453.0 -07.5405 26313.1
 21 06 2013  14 25  -21.0527 26084.5 -03452.8 -07.5404 26312.1
 21 06 2013  14 26  -21.0529 26082.6 -03452.3 -07.5398 26310.1
 21 06 2013  14 27  -21.0526 26081.5 -03452.2 -07.5400 26309.0
 21 06 2013  14 28  -21.0526 26080.7 -03452.3 -07.5405 26308.2
 21 06 2013  14 29  -21.0525 26079.3 -03452.3 -07.5407 26306.8
 21 06 2013  14 30  -21.0521 26079.0 -03452.7 -07.5416 26306.6
 21 06 2013  14 31  -21.0527 26078.8 -03453.1 -07.5427 26306.4
 21 06 2013  14 32  -21.0536 26079.0 -03453.7 -07.5438 26306.7
 21 06 2013  14 33  -21.0540 26078.9 -03454.0 -07.5445 26306.6
 21 06 2013  14 34  -21.0540 26078.8 -03454.2 -07.5451 26306.6
 21 06 2013  14 35  -21.0543 26079.0 -03454.6 -07.5459 26306.8
 21 06 2013  14 36  -21.0548 26079.6 -03455.0 -07.5466 26307.4
 21 06 2013  14 37  -21.0550 26079.6 -03455.2 -07.5470 26307.5
 21 06 2013  14 38  -21.0550 26079.1 -03455.2 -07.5471 26307.0
 21 06 2013  14 39  -21.0550 26078.0 -03455.1 -07.5471 26305.9
 21 06 2013  14 40  -21.0557 26077.7 -03455.4 -07.5478 26305.6
 21 06 2013  14 41  -21.0567 26077.6 -03455.7 -07.5486 26305.6
 21 06 2013  14 42  -21.0577 26078.3 -03456.2 -07.5495 26306.4
 21 06 2013  14 43  -21.0585 26078.0 -03456.3 -07.5497 26306.1
 21 06 2013  14 44  -21.0592 26077.4 -03456.1 -07.5496 26305.5
 21 06 2013  14 45  -21.0598 26076.8 -03456.0 -07.5495 26304.8
 21 06 2013  14 46  -21.0603 26076.7 -03456.2 -07.5499 26304.7
 21 06 2013  14 47  -21.0607 26075.9 -03456.1 -07.5499 26304.0
 21 06 2013  14 48  -21.0612 26074.9 -03455.8 -07.5497 26302.9
 21 06 2013  14 49  -21.0615 26074.3 -03455.8 -07.5498 26302.3
 21 06 2013  14 50  -21.0615 26073.6 -03455.8 -07.5500 26301.7
 21 06 2013  14 51  -21.0615 26072.5 -03455.7 -07.5501 26300.5
 21 06 2013  14 52  -21.0620 26071.2 -03455.5 -07.5501 26299.2
 21 06 2013  14 53  -21.0627 26070.3 -03455.6 -07.5504 26298.4
 21 06 2013  14 54  -21.0639 26069.6 -03455.6 -07.5508 26297.6
 21 06 2013  14 55  -21.0656 26069.2 -03455.9 -07.5515 26297.3
 21 06 2013  14 56  -21.0670 26069.0 -03456.1 -07.5519 26297.1
 21 06 2013  14 57  -21.0682 26068.8 -03456.2 -07.5522 26296.9
 21 06 2013  14 58  -21.0690 26069.0 -03456.4 -07.5527 26297.1
 21 06 2013  14 59  -21.0702 26069.7 -03456.8 -07.5533 26297.9
 21 06 2013  15 00  -21.0714 26070.1 -03456.9 -07.5534 26298.3
 21 06 2013  15 01  -21.0721 26070.1 -03456.8 -07.5531 26298.3
 21 06 2013  15 02  -21.0727 26070.2 -03456.7 -07.5529 26298.3
 21 06 2013  15 03  -21.0734 26070.4 -03456.8 -07.5530 26298.6
 21 06 2013  15 04  -21.0743 26071.0 -03456.9 -07.5531 26299.2
 21 06 2013  15 05  -21.0754 26071.5 -03456.9 -07.5530 26299.7
 21 06 2013  15 06  -21.0765 26072.0 -03457.0 -07.5531 26300.2
 21 06 2013  15 07  -21.0775 26072.5 -03457.0 -07.5529 26300.7
 21 06 2013  15 08  -21.0786 26073.2 -03457.1 -07.5528 26301.4
 21 06 2013  15 09  -21.0796 26074.4 -03457.3 -07.5529 26302.6
 21 06 2013  15 10  -21.0806 26075.1 -03457.2 -07.5525 26303.3
 21 06 2013  15 11  -21.0815 26075.9 -03457.0 -07.5519 26304.0
 21 06 2013  15 12  -21.0829 26076.9 -03457.0 -07.5516 26305.0
 21 06 2013  15 13  -21.0845 26078.1 -03456.9 -07.5512 26306.2
 21 06 2013  15 14  -21.0856 26078.8 -03456.6 -07.5503 26306.8
 21 06 2013  15 15  -21.0866 26079.3 -03456.3 -07.5494 26307.4
 21 06 2013  15 16  -21.0873 26079.7 -03455.9 -07.5485 26307.6
 21 06 2013  15 17  -21.0882 26080.0 -03455.6 -07.5478 26308.0
 21 06 2013  15 18  -21.0890 26080.5 -03455.4 -07.5472 26308.4
 21 06 2013  15 19  -21.0899 26080.9 -03455.3 -07.5468 26308.8
 21 06 2013  15 20  -21.0904 26081.4 -03455.1 -07.5463 26309.2
 21 06 2013  15 21  -21.0911 26082.1 -03455.0 -07.5458 26309.9
 21 06 2013  15 22  -21.0920 26083.1 -03455.0 -07.5456 26311.0
 21 06 2013  15 23  -21.0933 26084.2 -03455.0 -07.5452 26312.0
 21 06 2013  15 24  -21.0941 26084.9 -03454.6 -07.5442 26312.7
 21 06 2013  15 25  -21.0947 26085.4 -03454.2 -07.5431 26313.1
 21 06 2013  15 26  -21.0942 26085.0 -03453.4 -07.5415 26312.6
 21 06 2013  15 27  -21.0933 26084.0 -03452.5 -07.5400 26311.5
 21 06 2013  15 28  -21.0927 26083.2 -03452.0 -07.5391 26310.6
 21 06 2013  15 29  -21.0922 26082.4 -03451.7 -07.5386 26309.8
 21 06 2013  15 30  -21.0921 26081.9 -03451.6 -07.5384 26309.2
 21 06 2013  15 31  -21.0927 26081.8 -03451.6 -07.5385 26309.1
 21 06 2013  15 32  -21.0938 26082.0 -03451.6 -07.5385 26309.4
 21 06 2013  15 33  -21.0947 26082.0 -03451.5 -07.5382 26309.4
 21 06 2013  15 34  -21.0956 26082.0 -03451.2 -07.5377 26309.4
 21 06 2013  15 35  -21.0964 26082.2 -03451.0 -07.5372 26309.6
 21 06 2013  15 36  -21.0977 26082.5 -03450.8 -07.5367 26309.8
 21 06 2013  15 37  -21.0982 26082.2 -03450.3 -07.5357 26309.4
 21 06 2013  15 38  -21.0984 26082.0 -03449.8 -07.5347 26309.1
 21 06 2013  15 39  -21.0985 26082.0 -03449.5 -07.5340 26309.1
 21 06 2013  15 40  -21.0988 26082.0 -03449.2 -07.5334 26309.1
 21 06 2013  15 41  -21.0989 26081.8 -03448.8 -07.5326 26308.8
 21 06 2013  15 42  -21.0991 26081.7 -03448.5 -07.5319 26308.7
 21 06 2013  15 43  -21.0993 26081.7 -03448.2 -07.5312 26308.6
 21 06 2013  15 44  -21.0996 26081.6 -03447.8 -07.5305 26308.5
 21 06 2013  15 45  -21.1000 26081.4 -03447.4 -07.5297 26308.2
 21 06 2013  15 46  -21.0996 26080.8 -03446.8 -07.5286 26307.5
 21 06 2013  15 47  -21.0992 26080.3 -03446.4 -07.5277 26307.0
 21 06 2013  15 48  -21.0994 26080.3 -03446.1 -07.5272 26307.0
 21 06 2013  15 49  -21.0994 26080.2 -03445.8 -07.5265 26306.8
 21 06 2013  15 50  -21.0996 26080.1 -03445.5 -07.5258 26306.7
 21 06 2013  15 51  -21.0998 26079.9 -03445.1 -07.5251 26306.5
 21 06 2013  15 52  -21.0996 26079.5 -03444.6 -07.5242 26306.0
 21 06 2013  15 53  -21.0989 26078.9 -03444.0 -07.5230 26305.3
 21 06 2013  15 54  -21.0983 26078.2 -03443.5 -07.5220 26304.5
 21 06 2013  15 55  -21.0976 26077.6 -03443.0 -07.5212 26303.9
 21 06 2013  15 56  -21.0973 26077.2 -03442.7 -07.5207 26303.5
 21 06 2013  15 57  -21.0974 26077.1 -03442.5 -07.5202 26303.4
 21 06 2013  15 58  -21.0977 26077.3 -03442.3 -07.5198 26303.6
 21 06 2013  15 59  -21.0980 26077.5 -03442.1 -07.5193 26303.7
 21 06 2013  16 00  -21.0985 26077.9 -03441.9 -07.5187 26304.1
 21 06 2013  16 01  -21.0989 26078.1 -03441.6 -07.5179 26304.3
 21 06 2013  16 02  -21.0991 26078.4 -03441.2 -07.5170 26304.5
 21 06 2013  16 03  -21.0986 26078.8 -03440.8 -07.5160 26304.8
 21 06 2013  16 04  -21.0985 26079.3 -03440.5 -07.5153 26305.3
 21 06 2013  16 05  -21.0985 26079.7 -03440.1 -07.5144 26305.6
 21 06 2013  16 06  -21.0984 26079.9 -03439.6 -07.5133 26305.7
 21 06 2013  16 07  -21.0986 26080.2 -03439.2 -07.5123 26306.0
 21 06 2013  16 08  -21.0989 26081.0 -03439.0 -07.5116 26306.7
 21 06 2013  16 09  -21.0992 26082.1 -03438.9 -07.5111 26307.8
 21 06 2013  16 10  -21.0990 26082.7 -03438.5 -07.5101 26308.4
 21 06 2013  16 11  -21.0992 26083.3 -03438.2 -07.5092 26309.0
 21 06 2013  16 12  -21.0983 26083.1 -03437.5 -07.5077 26308.6
 21 06 2013  16 13  -21.0972 26081.8 -03436.3 -07.5055 26307.1
 21 06 2013  16 14  -21.0956 26080.7 -03435.3 -07.5037 26306.0
 21 06 2013  16 15  -21.0940 26080.1 -03434.8 -07.5027 26305.3
 21 06 2013  16 16  -21.0929 26080.8 -03434.9 -07.5028 26306.0
 21 06 2013  16 17  -21.0916 26081.5 -03435.1 -07.5031 26306.7
 21 06 2013  16 18  -21.0909 26081.2 -03435.1 -07.5030 26306.5
 21 06 2013  16 19  -21.0912 26081.1 -03434.9 -07.5028 26306.3
 21 06 2013  16 20  -21.0912 26081.1 -03434.8 -07.5025 26306.3
 21 06 2013  16 21  -21.0905 26081.3 -03434.7 -07.5022 26306.5
 21 06 2013  16 22  -21.0890 26080.5 -03434.2 -07.5014 26305.7
 21 06 2013  16 23  -21.0870 26079.4 -03433.6 -07.5005 26304.4
 21 06 2013  16 24  -21.0855 26078.3 -03433.3 -07.4999 26303.4
 21 06 2013  16 25  -21.0844 26077.7 -03433.2 -07.5000 26302.7
 21 06 2013  16 26  -21.0835 26077.1 -03433.1 -07.4999 26302.2
 21 06 2013  16 27  -21.0824 26076.6 -03433.0 -07.4999 26301.7
 21 06 2013  16 28  -21.0812 26076.1 -03432.9 -07.4998 26301.1
 21 06 2013  16 29  -21.0798 26075.6 -03432.8 -07.4998 26300.6
 21 06 2013  16 30  -21.0784 26074.8 -03432.7 -07.4997 26299.8
 21 06 2013  16 31  -21.0772 26074.0 -03432.5 -07.4995 26298.9
 21 06 2013  16 32  -21.0763 26073.2 -03432.4 -07.4995 26298.2
 21 06 2013  16 33  -21.0758 26073.3 -03432.7 -07.5001 26298.3
 21 06 2013  16 34  -21.0755 26073.2 -03432.9 -07.5006 26298.3
 21 06 2013  16 35  -21.0746 26072.9 -03432.9 -07.5007 26297.9
 21 06 2013  16 36  -21.0738 26072.6 -03432.9 -07.5008 26297.6
 21 06 2013  16 37  -21.0729 26072.2 -03432.9 -07.5010 26297.2
 21 06 2013  16 38  -21.0721 26071.9 -03433.0 -07.5012 26296.9
 21 06 2013  16 39  -21.0712 26071.5 -03433.0 -07.5013 26296.6
 21 06 2013  16 40  -21.0703 26071.1 -03433.1 -07.5016 26296.2
 21 06 2013  16 41  -21.0701 26070.9 -03433.2 -07.5019 26295.9
 21 06 2013  16 42  -21.0704 26070.9 -03433.3 -07.5022 26296.0
 21 06 2013  16 43  -21.0705 26070.9 -03433.4 -07.5023 26296.0
 21 06 2013  16 44  -21.0699 26070.8 -03433.3 -07.5022 26295.8
 21 06 2013  16 45  -21.0689 26070.2 -03433.1 -07.5019 26295.3
 21 06 2013  16 46  -21.0674 26069.8 -03433.0 -07.5018 26294.8
 21 06 2013  16 47  -21.0666 26069.4 -03433.1 -07.5021 26294.5
 21 06 2013  16 48  -21.0660 26069.1 -03433.1 -07.5023 26294.2
 21 06 2013  16 49  -21.0652 26068.8 -03433.2 -07.5025 26293.9
 21 06 2013  16 50  -21.0647 26068.5 -03433.3 -07.5029 26293.7
 21 06 2013  16 51  -21.0640 26068.4 -03433.5 -07.5032 26293.5
 21 06 2013  16 52  -21.0634 26067.8 -03433.5 -07.5034 26292.9
 21 06 2013  16 53  -21.0633 26067.1 -03433.4 -07.5034 26292.2
 21 06 2013  16 54  -21.0632 26067.3 -03433.6 -07.5037 26292.4
 21 06 2013  16 55  -21.0622 26067.3 -03433.8 -07.5042 26292.5
 21 06 2013  16 56  -21.0620 26067.3 -03433.9 -07.5046 26292.5
 21 06 2013  16 57  -21.0621 26067.1 -03434.0 -07.5048 26292.3
 21 06 2013  16 58  -21.0620 26066.9 -03434.0 -07.5049 26292.2
 21 06 2013  16 59  -21.0621 26066.5 -03433.9 -07.5047 26291.7
 21 06 2013  17 00  -21.0619 26066.0 -03433.7 -07.5044 26291.2
 21 06 2013  17 01  -21.0619 26066.0 -03433.8 -07.5046 26291.2
 21 06 2013  17 02  -21.0623 26066.8 -03434.2 -07.5052 26292.0
 21 06 2013  17 03  -21.0627 26068.2 -03434.8 -07.5061 26293.6
 21 06 2013  17 04  -21.0638 26069.9 -03435.4 -07.5070 26295.2
 21 06 2013  17 05  -21.0648 26071.6 -03435.9 -07.5076 26297.0
 21 06 2013  17 06  -21.0659 26073.2 -03436.2 -07.5078 26298.6
 21 06 2013  17 07  -21.0669 26074.5 -03436.3 -07.5077 26300.0
 21 06 2013  17 08  -21.0665 26074.3 -03435.7 -07.5064 26299.7
 21 06 2013  17 09  -21.0642 26072.9 -03434.7 -07.5046 26298.2
 21 06 2013  17 10  -21.0631 26072.2 -03434.3 -07.5040 26297.4
 21 06 2013  17 11  -21.0628 26071.8 -03434.3 -07.5040 26297.1
 21 06 2013  17 12  -21.0624 26071.2 -03434.1 -07.5038 26296.4
 21 06 2013  17 13  -21.0620 26070.9 -03434.1 -07.5039 26296.1
 21 06 2013  17 14  -21.0616 26070.7 -03434.2 -07.5042 26296.0
 21 06 2013  17 15  -21.0610 26070.4 -03434.3 -07.5045 26295.7
 21 06 2013  17 16  -21.0603 26069.7 -03434.3 -07.5047 26294.9
 21 06 2013  17 17  -21.0598 26069.0 -03434.4 -07.5050 26294.2
 21 06 2013  17 18  -21.0595 26068.5 -03434.6 -07.5055 26293.8
 21 06 2013  17 19  -21.0590 26067.7 -03434.6 -07.5060 26293.0
 21 06 2013  17 20  -21.0586 26066.9 -03434.7 -07.5063 26292.2
 21 06 2013  17 21  -21.0584 26066.3 -03434.9 -07.5070 26291.7
 21 06 2013  17 22  -21.0582 26065.6 -03435.1 -07.5075 26291.0
 21 06 2013  17 23  -21.0581 26064.9 -03435.3 -07.5081 26290.3
 21 06 2013  17 24  -21.0581 26064.4 -03435.5 -07.5088 26289.9
 21 06 2013  17 25  -21.0583 26064.2 -03435.8 -07.5095 26289.6
 21 06 2013  17 26  -21.0584 26063.5 -03435.9 -07.5099 26289.0
 21 06 2013  17 27  -21.0585 26063.0 -03436.0 -07.5103 26288.5
 21 06 2013  17 28  -21.0583 26062.4 -03436.1 -07.5107 26287.9
 21 06 2013  17 29  -21.0587 26061.7 -03436.3 -07.5112 26287.3
 21 06 2013  17 30  -21.0585 26061.1 -03436.4 -07.5117 26286.6
 21 06 2013  17 31  -21.0585 26060.4 -03436.5 -07.5120 26286.0
 21 06 2013  17 32  -21.0585 26059.7 -03436.5 -07.5124 26285.3
 21 06 2013  17 33  -21.0582 26058.9 -03436.7 -07.5129 26284.6
 21 06 2013  17 34  -21.0581 26059.1 -03437.3 -07.5141 26284.8
 21 06 2013  17 35  -21.0587 26059.3 -03437.9 -07.5154 26285.1
 21 06 2013  17 36  -21.0592 26058.6 -03438.0 -07.5158 26284.4
 21 06 2013  17 37  -21.0591 26057.1 -03437.6 -07.5153 26282.9
 21 06 2013  17 38  -21.0583 26056.1 -03437.5 -07.5154 26281.9
 21 06 2013  17 39  -21.0589 26056.0 -03438.0 -07.5166 26281.8
 21 06 2013  17 40  -21.0597 26056.0 -03438.5 -07.5176 26281.9
 21 06 2013  17 41  -21.0600 26055.4 -03438.6 -07.5180 26281.3
 21 06 2013  17 42  -21.0602 26055.2 -03438.8 -07.5184 26281.1
 21 06 2013  17 43  -21.0607 26055.2 -03439.1 -07.5192 26281.2
 21 06 2013  17 44  -21.0615 26055.4 -03439.5 -07.5199 26281.4
 21 06 2013  17 45  -21.0619 26054.3 -03439.2 -07.5196 26280.3
 21 06 2013  17 46  -21.0604 26053.0 -03438.7 -07.5190 26278.9
 21 06 2013  17 47  -21.0608 26053.3 -03439.3 -07.5201 26279.3
 21 06 2013  17 48  -21.0615 26053.8 -03439.9 -07.5212 26279.9
 21 06 2013  17 49  -21.0606 26053.7 -03440.0 -07.5215 26279.8
 21 06 2013  17 50  -21.0608 26055.8 -03441.2 -07.5236 26282.1
 21 06 2013  17 51  -21.0628 26057.5 -03442.2 -07.5252 26283.8
 21 06 2013  17 52  -21.0630 26057.1 -03441.9 -07.5247 26283.4
 21 06 2013  17 53  -21.0627 26055.9 -03441.2 -07.5235 26282.1
 21 06 2013  17 54  -21.0621 26054.6 -03440.6 -07.5226 26280.8
 21 06 2013  17 55  -21.0614 26053.1 -03440.1 -07.5219 26279.3
 21 06 2013  17 56  -21.0603 26052.1 -03439.8 -07.5216 26278.2
 21 06 2013  17 57  -21.0598 26051.7 -03439.9 -07.5219 26277.8
 21 06 2013  17 58  -21.0595 26051.9 -03440.3 -07.5227 26278.0
 21 06 2013  17 59  -21.0596 26052.7 -03440.9 -07.5237 26279.0
 21 06 2013  18 00  -21.0596 26053.8 -03441.5 -07.5247 26280.1
 21 06 2013  18 01  -21.0605 26054.4 -03441.8 -07.5252 26280.8
 21 06 2013  18 02  -21.0605 26054.4 -03441.7 -07.5250 26280.8
 21 06 2013  18 03  -21.0603 26054.2 -03441.4 -07.5245 26280.5
 21 06 2013  18 04  -21.0598 26053.6 -03441.1 -07.5240 26279.9
 21 06 2013  18 05  -21.0599 26051.5 -03440.2 -07.5227 26277.6
 21 06 2013  18 06  -21.0600 26049.1 -03439.1 -07.5209 26275.1
 21 06 2013  18 07  -21.0595 26047.4 -03438.5 -07.5200 26273.3
 21 06 2013  18 08  -21.0588 26045.9 -03438.1 -07.5196 26271.9
 21 06 2013  18 09  -21.0585 26045.3 -03438.1 -07.5199 26271.2
 21 06 2013  18 10  -21.0589 26044.9 -03438.4 -07.5205 26270.9
 21 06 2013  18 11  -21.0595 26044.8 -03438.7 -07.5212 26270.9
 21 06 2013  18 12  -21.0602 26045.0 -03439.0 -07.5219 26271.1
 21 06 2013  18 13  -21.0611 26045.3 -03439.3 -07.5225 26271.4
 21 06 2013  18 14  -21.0626 26045.9 -03439.7 -07.5231 26272.1
 21 06 2013  18 15  -21.0641 26046.6 -03439.9 -07.5233 26272.7
 21 06 2013  18 16  -21.0648 26046.8 -03439.8 -07.5231 26273.0
 21 06 2013  18 17  -21.0655 26047.1 -03439.7 -07.5229 26273.3
 21 06 2013  18 18  -21.0660 26047.2 -03439.5 -07.5224 26273.3
 21 06 2013  18 19  -21.0665 26047.2 -03439.4 -07.5220 26273.3
 21 06 2013  18 20  -21.0663 26046.9 -03439.0 -07.5213 26272.9
 21 06 2013  18 21  -21.0662 26046.7 -03438.8 -07.5209 26272.7
 21 06 2013  18 22  -21.0658 26046.4 -03438.5 -07.5204 26272.4
 21 06 2013  18 23  -21.0658 26045.9 -03438.3 -07.5201 26271.8
 21 06 2013  18 24  -21.0662 26045.8 -03438.2 -07.5199 26271.7
 21 06 2013  18 25  -21.0665 26045.4 -03438.0 -07.5197 26271.3
 21 06 2013  18 26  -21.0668 26045.2 -03437.9 -07.5195 26271.1
 21 06 2013  18 27  -21.0669 26045.1 -03437.9 -07.5195 26271.1
 21 06 2013  18 28  -21.0674 26045.0 -03437.8 -07.5193 26270.9
 21 06 2013  18 29  -21.0674 26045.2 -03437.9 -07.5194 26271.1
 21 06 2013  18 30  -21.0676 26046.9 -03438.7 -07.5207 26272.9
 21 06 2013  18 31  -21.0705 26048.7 -03439.5 -07.5219 26274.8
 21 06 2013  18 32  -21.0714 26050.0 -03439.7 -07.5219 26276.1
 21 06 2013  18 33  -21.0720 26050.7 -03439.7 -07.5217 26276.8
 21 06 2013  18 34  -21.0729 26051.6 -03439.8 -07.5217 26277.8
 21 06 2013  18 35  -21.0732 26052.0 -03439.7 -07.5213 26278.1
 21 06 2013  18 36  -21.0724 26051.5 -03439.2 -07.5203 26277.6
 21 06 2013  18 37  -21.0712 26050.7 -03438.7 -07.5196 26276.7
 21 06 2013  18 38  -21.0706 26049.9 -03438.4 -07.5192 26275.8
 21 06 2013  18 39  -21.0694 26048.2 -03437.8 -07.5184 26274.1
 21 06 2013  18 40  -21.0680 26046.2 -03437.3 -07.5178 26272.0
 21 06 2013  18 41  -21.0665 26044.4 -03437.0 -07.5176 26270.2
 21 06 2013  18 42  -21.0653 26042.7 -03436.9 -07.5179 26268.5
 21 06 2013  18 43  -21.0644 26041.3 -03436.9 -07.5184 26267.1
 21 06 2013  18 44  -21.0631 26040.2 -03437.2 -07.5192 26266.1
 21 06 2013  18 45  -21.0622 26039.5 -03437.6 -07.5203 26265.4
 21 06 2013  18 46  -21.0615 26038.8 -03438.0 -07.5215 26264.8
 21 06 2013  18 47  -21.0605 26037.9 -03438.3 -07.5224 26263.9
 21 06 2013  18 48  -21.0594 26036.9 -03438.6 -07.5232 26263.0
 21 06 2013  18 49  -21.0582 26035.9 -03438.8 -07.5240 26262.0
 21 06 2013  18 50  -21.0573 26035.1 -03439.2 -07.5251 26261.3
 21 06 2013  18 51  -21.0565 26034.5 -03439.6 -07.5262 26260.7
 21 06 2013  18 52  -21.0555 26033.3 -03439.8 -07.5269 26259.6
 21 06 2013  18 53  -21.0545 26031.9 -03439.8 -07.5273 26258.2
 21 06 2013  18 54  -21.0537 26030.6 -03439.9 -07.5279 26256.9
 21 06 2013  18 55  -21.0525 26029.1 -03439.9 -07.5283 26255.4
 21 06 2013  18 56  -21.0512 26027.7 -03439.9 -07.5288 26254.0
 21 06 2013  18 57  -21.0502 26026.7 -03440.2 -07.5296 26253.1
 21 06 2013  18 58  -21.0498 26026.0 -03440.5 -07.5306 26252.4
 21 06 2013  18 59  -21.0496 26025.4 -03440.9 -07.5315 26251.9
 21 06 2013  19 00  -21.0494 26024.8 -03441.2 -07.5323 26251.3
 21 06 2013  19 01  -21.0490 26024.2 -03441.4 -07.5330 26250.8
 21 06 2013  19 02  -21.0487 26023.7 -03441.7 -07.5337 26250.3
 21 06 2013  19 03  -21.0482 26023.5 -03442.0 -07.5346 26250.1
 21 06 2013  19 04  -21.0479 26023.4 -03442.5 -07.5355 26250.1
 21 06 2013  19 05  -21.0476 26023.4 -03442.9 -07.5364 26250.2
 21 06 2013  19 06  -21.0471 26023.4 -03443.2 -07.5371 26250.2
 21 06 2013  19 07  -21.0471 26023.7 -03443.6 -07.5379 26250.5
 21 06 2013  19 08  -21.0468 26024.0 -03444.0 -07.5386 26250.9
 21 06 2013  19 09  -21.0464 26024.0 -03444.2 -07.5391 26250.9
 21 06 2013  19 10  -21.0462 26024.1 -03444.4 -07.5395 26251.1
 21 06 2013  19 11  -21.0458 26024.2 -03444.6 -07.5399 26251.2
 21 06 2013  19 12  -21.0454 26024.2 -03444.7 -07.5402 26251.2
 21 06 2013  19 13  -21.0449 26024.1 -03444.8 -07.5403 26251.1
 21 06 2013  19 14  -21.0444 26024.0 -03444.9 -07.5406 26251.0
 21 06 2013  19 15  -21.0439 26023.9 -03444.9 -07.5407 26250.9
 21 06 2013  19 16  -21.0436 26023.9 -03445.1 -07.5410 26250.9
 21 06 2013  19 17  -21.0432 26023.7 -03445.1 -07.5411 26250.7
 21 06 2013  19 18  -21.0429 26023.5 -03445.1 -07.5412 26250.5
 21 06 2013  19 19  -21.0433 26023.2 -03445.0 -07.5411 26250.3
 21 06 2013  19 20  -21.0467 26022.6 -03444.7 -07.5407 26249.6
 21 06 2013  19 21  -21.0476 26022.2 -03444.9 -07.5411 26249.3
 21 06 2013  19 22  -21.0475 26022.0 -03444.9 -07.5412 26249.1
 21 06 2013  19 23  -21.0473 26021.7 -03444.8 -07.5411 26248.7
 21 06 2013  19 24  -21.0457 26021.8 -03444.9 -07.5412 26248.8
 21 06 2013  19 25  -21.0424 26022.2 -03445.3 -07.5421 26249.3
 21 06 2013  19 26  -21.0422 26022.1 -03445.3 -07.5420 26249.2
 21 06 2013  19 27  -21.0422 26022.0 -03445.3 -07.5420 26249.1
 21 06 2013  19 28  -21.0423 26021.9 -03445.4 -07.5422 26249.0
 21 06 2013  19 29  -21.0422 26022.0 -03445.4 -07.5423 26249.1
 21 06 2013  19 30  -21.0425 26022.2 -03445.6 -07.5426 26249.3
 21 06 2013  19 31  -21.0427 26022.5 -03445.8 -07.5429 26249.7
 21 06 2013  19 32  -21.0433 26023.0 -03446.0 -07.5432 26250.1
 21 06 2013  19 33  -21.0435 26023.3 -03446.1 -07.5433 26250.4
 21 06 2013  19 34  -21.0437 26023.6 -03446.2 -07.5436 26250.8
 21 06 2013  19 35  -21.0438 26023.9 -03446.4 -07.5438 26251.1
 21 06 2013  19 36  -21.0442 26024.5 -03446.6 -07.5443 26251.7
 21 06 2013  19 37  -21.0447 26025.2 -03446.9 -07.5445 26252.5
 21 06 2013  19 38  -21.0452 26025.9 -03447.1 -07.5448 26253.2
 21 06 2013  19 39  -21.0455 26026.5 -03447.2 -07.5450 26253.8
 21 06 2013  19 40  -21.0456 26026.7 -03447.2 -07.5449 26254.0
 21 06 2013  19 41  -21.0461 26026.9 -03447.2 -07.5447 26254.2
 21 06 2013  19 42  -21.0463 26026.9 -03447.1 -07.5445 26254.1
 21 06 2013  19 43  -21.0459 26026.8 -03446.9 -07.5442 26254.0
 21 06 2013  19 44  -21.0456 26026.6 -03446.8 -07.5439 26253.8
 21 06 2013  19 45  -21.0451 26026.3 -03446.6 -07.5436 26253.5
 21 06 2013  19 46  -21.0448 26025.8 -03446.4 -07.5433 26253.0
 21 06 2013  19 47  -21.0447 26025.9 -03446.5 -07.5435 26253.1
 21 06 2013  19 48  -21.0445 26025.7 -03446.5 -07.5435 26252.9
 21 06 2013  19 49  -21.0448 26025.8 -03446.6 -07.5437 26253.0
 21 06 2013  19 50  -21.0452 26026.2 -03446.8 -07.5441 26253.4
 21 06 2013  19 51  -21.0454 26026.8 -03447.1 -07.5445 26254.1
 21 06 2013  19 52  -21.0455 26027.6 -03447.5 -07.5451 26255.0
 21 06 2013  19 53  -21.0460 26028.3 -03447.7 -07.5453 26255.7
 21 06 2013  19 54  -21.0464 26029.1 -03447.9 -07.5456 26256.4
 21 06 2013  19 55  -21.0462 26029.7 -03447.9 -07.5456 26257.0
 21 06 2013  19 56  -21.0461 26029.9 -03447.9 -07.5454 26257.3
 21 06 2013  19 57  -21.0457 26029.6 -03447.6 -07.5449 26256.9
 21 06 2013  19 58  -21.0455 26029.0 -03447.3 -07.5444 26256.3
 21 06 2013  19 59  -21.0451 26028.7 -03447.2 -07.5442 26256.0
 21 06 2013  20 00  -21.0449 26028.2 -03447.1 -07.5441 26255.5
 21 06 2013  20 01  -21.0448 26028.2 -03447.1 -07.5441 26255.4
 21 06 2013  20 02  -21.0447 26028.2 -03447.2 -07.5444 26255.4
 21 06 2013  20 03  -21.0448 26028.2 -03447.3 -07.5447 26255.5
 21 06 2013  20 04  -21.0452 26027.8 -03447.2 -07.5446 26255.1
 21 06 2013  20 05  -21.0452 26027.5 -03447.2 -07.5445 26254.7
 21 06 2013  20 06  -21.0448 26026.4 -03446.8 -07.5441 26253.7
 21 06 2013  20 07  -21.0452 26025.6 -03446.6 -07.5438 26252.8
 21 06 2013  20 08  -21.0450 26025.1 -03446.5 -07.5438 26252.4
 21 06 2013  20 09  -21.0450 26025.3 -03446.7 -07.5441 26252.6
 21 06 2013  20 10  -21.0450 26025.5 -03446.7 -07.5441 26252.8
 21 06 2013  20 11  -21.0455 26025.6 -03446.7 -07.5440 26252.8
 21 06 2013  20 12  -21.0458 26025.3 -03446.5 -07.5437 26252.5
 21 06 2013  20 13  -21.0456 26025.0 -03446.4 -07.5435 26252.2
 21 06 2013  20 14  -21.0453 26023.7 -03445.9 -07.5428 26250.8
 21 06 2013  20 15  -21.0449 26021.8 -03445.1 -07.5416 26248.9
 21 06 2013  20 16  -21.0443 26020.5 -03444.6 -07.5409 26247.5
 21 06 2013  20 17  -21.0434 26019.5 -03444.3 -07.5406 26246.4
 21 06 2013  20 18  -21.0429 26018.8 -03444.2 -07.5406 26245.8
 21 06 2013  20 19  -21.0428 26018.7 -03444.3 -07.5408 26245.7
 21 06 2013  20 20  -21.0431 26019.1 -03444.6 -07.5413 26246.1
 21 06 2013  20 21  -21.0435 26019.1 -03444.6 -07.5414 26246.1
 21 06 2013  20 22  -21.0440 26019.6 -03444.8 -07.5418 26246.6
 21 06 2013  20 23  -21.0440 26020.4 -03445.2 -07.5422 26247.5
 21 06 2013  20 24  -21.0441 26021.2 -03445.4 -07.5425 26248.3
 21 06 2013  20 25  -21.0441 26021.6 -03445.5 -07.5426 26248.7
 21 06 2013  20 26  -21.0443 26021.8 -03445.4 -07.5423 26248.9
 21 06 2013  20 27  -21.0443 26021.8 -03445.2 -07.5419 26248.8
 21 06 2013  20 28  -21.0444 26021.6 -03445.0 -07.5416 26248.7
 21 06 2013  20 29  -21.0448 26021.7 -03444.9 -07.5413 26248.7
 21 06 2013  20 30  -21.0448 26021.9 -03444.9 -07.5411 26248.9
 21 06 2013  20 31  -21.0449 26021.8 -03444.7 -07.5409 26248.8
 21 06 2013  20 32  -21.0450 26022.5 -03444.8 -07.5409 26249.5
 21 06 2013  20 33  -21.0450 26023.0 -03444.9 -07.5410 26250.0
 21 06 2013  20 34  -21.0448 26022.8 -03444.7 -07.5404 26249.8
 21 06 2013  20 35  -21.0447 26022.2 -03444.3 -07.5398 26249.1
 21 06 2013  20 36  -21.0448 26021.8 -03444.0 -07.5394 26248.7
 21 06 2013  20 37  -21.0449 26021.5 -03443.9 -07.5392 26248.5
 21 06 2013  20 38  -21.0450 26021.4 -03443.9 -07.5392 26248.3
 21 06 2013  20 39  -21.0454 26021.4 -03444.0 -07.5393 26248.3
 21 06 2013  20 40  -21.0457 26021.2 -03443.9 -07.5393 26248.2
 21 06 2013  20 41  -21.0461 26020.9 -03443.8 -07.5392 26247.8
 21 06 2013  20 42  -21.0466 26020.6 -03443.8 -07.5391 26247.5
 21 06 2013  20 43  -21.0467 26020.6 -03443.7 -07.5390 26247.5
 21 06 2013  20 44  -21.0467 26020.4 -03443.6 -07.5388 26247.3
 21 06 2013  20 45  -21.0466 26019.9 -03443.3 -07.5384 26246.7
 21 06 2013  20 46  -21.0470 26019.6 -03443.2 -07.5383 26246.4
 21 06 2013  20 47  -21.0477 26019.4 -03443.2 -07.5382 26246.3
 21 06 2013  20 48  -21.0480 26019.3 -03443.1 -07.5380 26246.1
 21 06 2013  20 49  -21.0476 26019.2 -03442.9 -07.5377 26246.0
 21 06 2013  20 50  -21.0478 26018.9 -03442.8 -07.5375 26245.7
 21 06 2013  20 51  -21.0478 26018.2 -03442.5 -07.5372 26245.0
 21 06 2013  20 52  -21.0483 26017.2 -03442.1 -07.5366 26244.0
 21 06 2013  20 53  -21.0491 26016.5 -03441.9 -07.5362 26243.2
 21 06 2013  20 54  -21.0488 26015.8 -03441.6 -07.5358 26242.5
 21 06 2013  20 55  -21.0492 26015.0 -03441.3 -07.5354 26241.6
 21 06 2013  20 56  -21.0494 26014.5 -03441.1 -07.5350 26241.1
 21 06 2013  20 57  -21.0483 26014.1 -03440.9 -07.5348 26240.7
 21 06 2013  20 58  -21.0478 26013.3 -03440.6 -07.5344 26239.8
 21 06 2013  20 59  -21.0477 26012.3 -03440.3 -07.5341 26238.9
 21 06 2013  21 00  -21.0476 26011.4 -03440.1 -07.5338 26237.9
 21 06 2013  21 01  -21.0473 26010.3 -03439.8 -07.5335 26236.8
 21 06 2013  21 02  -21.0466 26009.3 -03439.5 -07.5331 26235.7
 21 06 2013  21 03  -21.0457 26008.3 -03439.2 -07.5328 26234.7
 21 06 2013  21 04  -21.0455 26007.3 -03439.0 -07.5325 26233.7
 21 06 2013  21 05  -21.0444 26006.6 -03438.9 -07.5326 26233.0
 21 06 2013  21 06  -21.0440 26005.7 -03438.8 -07.5326 26232.1
 21 06 2013  21 07  -21.0439 26004.9 -03438.8 -07.5328 26231.3
 21 06 2013  21 08  -21.0436 26004.3 -03438.7 -07.5329 26230.6
 21 06 2013  21 09  -21.0433 26003.6 -03438.8 -07.5331 26230.0
 21 06 2013  21 10  -21.0430 26003.2 -03438.9 -07.5336 26229.6
 21 06 2013  21 11  -21.0433 26002.9 -03439.1 -07.5340 26229.3
 21 06 2013  21 12  -21.0438 26002.7 -03439.3 -07.5346 26229.2
 21 06 2013  21 13  -21.0439 26002.5 -03439.6 -07.5352 26229.0
 21 06 2013  21 14  -21.0441 26002.2 -03439.7 -07.5357 26228.8
 21 06 2013  21 15  -21.0449 26002.0 -03439.9 -07.5361 26228.6
 21 06 2013  21 16  -21.0453 26001.8 -03440.1 -07.5366 26228.4
 21 06 2013  21 17  -21.0457 26001.5 -03440.2 -07.5368 26228.1
 21 06 2013  21 18  -21.0461 26001.1 -03440.1 -07.5368 26227.7
 21 06 2013  21 19  -21.0470 26000.9 -03440.2 -07.5371 26227.5
 21 06 2013  21 20  -21.0477 26000.8 -03440.4 -07.5375 26227.4
 21 06 2013  21 21  -21.0482 26000.6 -03440.5 -07.5377 26227.3
 21 06 2013  21 22  -21.0484 26000.5 -03440.5 -07.5378 26227.2
 21 06 2013  21 23  -21.0484 26000.6 -03440.7 -07.5381 26227.3
 21 06 2013  21 24  -21.0484 26000.8 -03440.8 -07.5385 26227.5
 21 06 2013  21 25  -21.0482 26000.8 -03441.0 -07.5387 26227.5
 21 06 2013  21 26  -21.0484 26000.8 -03441.1 -07.5391 26227.6
 21 06 2013  21 27  -21.0494 26000.8 -03441.2 -07.5393 26227.5
 21 06 2013  21 28  -21.0503 26000.8 -03441.4 -07.5397 26227.6
 21 06 2013  21 29  -21.0512 26000.9 -03441.5 -07.5399 26227.7
 21 06 2013  21 30  -21.0520 26000.8 -03441.6 -07.5401 26227.6
 21 06 2013  21 31  -21.0524 26000.8 -03441.6 -07.5401 26227.5
 21 06 2013  21 32  -21.0524 26000.7 -03441.6 -07.5401 26227.4
 21 06 2013  21 33  -21.0523 26000.7 -03441.6 -07.5401 26227.4
 21 06 2013  21 34  -21.0520 26000.9 -03441.7 -07.5403 26227.7
 21 06 2013  21 35  -21.0517 26000.9 -03441.8 -07.5405 26227.8
 21 06 2013  21 36  -21.0510 26001.2 -03442.0 -07.5409 26228.0
 21 06 2013  21 37  -21.0506 26001.4 -03442.2 -07.5412 26228.2
 21 06 2013  21 38  -21.0510 26001.6 -03442.4 -07.5417 26228.5
 21 06 2013  21 39  -21.0515 26001.9 -03442.7 -07.5421 26228.9
 21 06 2013  21 40  -21.0518 26002.1 -03442.9 -07.5425 26229.1
 21 06 2013  21 41  -21.0519 26002.3 -03443.0 -07.5428 26229.3
 21 06 2013  21 42  -21.0518 26002.7 -03443.3 -07.5432 26229.7
 21 06 2013  21 43  -21.0522 26003.4 -03443.6 -07.5438 26230.5
 21 06 2013  21 44  -21.0525 26004.1 -03444.1 -07.5446 26231.2
 21 06 2013  21 45  -21.0526 26004.3 -03444.1 -07.5446 26231.4
 21 06 2013  21 46  -21.0529 26004.5 -03444.3 -07.5449 26231.6
 21 06 2013  21 47  -21.0528 26005.1 -03444.5 -07.5453 26232.2
 21 06 2013  21 48  -21.0524 26005.5 -03444.8 -07.5456 26232.7
 21 06 2013  21 49  -21.0519 26006.0 -03445.0 -07.5460 26233.2
 21 06 2013  21 50  -21.0518 26006.3 -03445.1 -07.5462 26233.5
 21 06 2013  21 51  -21.0520 26006.7 -03445.4 -07.5466 26233.9
 21 06 2013  21 52  -21.0520 26007.1 -03445.6 -07.5469 26234.4
 21 06 2013  21 53  -21.0517 26007.4 -03445.7 -07.5471 26234.6
 21 06 2013  21 54  -21.0517 26007.4 -03445.7 -07.5472 26234.7
 21 06 2013  21 55  -21.0520 26007.4 -03445.7 -07.5472 26234.6
 21 06 2013  21 56  -21.0523 26007.3 -03445.8 -07.5473 26234.6
 21 06 2013  21 57  -21.0521 26007.5 -03445.8 -07.5474 26234.8
 21 06 2013  21 58  -21.0519 26007.6 -03445.9 -07.5475 26234.9
 21 06 2013  21 59  -21.0522 26007.7 -03446.0 -07.5476 26235.0
 21 06 2013  22 00  -21.0524 26007.8 -03446.1 -07.5478 26235.1
 21 06 2013  22 01  -21.0526 26007.9 -03446.2 -07.5480 26235.2
 21 06 2013  22 02  -21.0524 26007.9 -03446.2 -07.5480 26235.2
 21 06 2013  22 03  -21.0532 26007.8 -03446.2 -07.5481 26235.2
 21 06 2013  22 04  -21.0541 26007.8 -03446.3 -07.5482 26235.1
 21 06 2013  22 05  -21.0546 26007.7 -03446.2 -07.5482 26235.0
 21 06 2013  22 06  -21.0549 26007.5 -03446.1 -07.5480 26234.8
 21 06 2013  22 07  -21.0556 26007.3 -03446.0 -07.5479 26234.6
 21 06 2013  22 08  -21.0557 26007.2 -03446.0 -07.5478 26234.5
 21 06 2013  22 09  -21.0554 26007.2 -03446.0 -07.5478 26234.6
 21 06 2013  22 10  -21.0551 26007.1 -03446.0 -07.5477 26234.4
 21 06 2013  22 11  -21.0550 26007.1 -03446.0 -07.5478 26234.4
 21 06 2013  22 12  -21.0550 26007.1 -03446.0 -07.5479 26234.4
 21 06 2013  22 13  -21.0549 26007.0 -03446.1 -07.5480 26234.4
 21 06 2013  22 14  -21.0548 26006.9 -03446.1 -07.5481 26234.3
 21 06 2013  22 15  -21.0547 26007.0 -03446.2 -07.5483 26234.4
 21 06 2013  22 16  -21.0545 26007.0 -03446.3 -07.5484 26234.4
 21 06 2013  22 17  -21.0542 26007.0 -03446.3 -07.5486 26234.4
 21 06 2013  22 18  -21.0540 26007.1 -03446.4 -07.5487 26234.5
 21 06 2013  22 19  -21.0543 26007.4 -03446.6 -07.5491 26234.8
 21 06 2013  22 20  -21.0549 26007.8 -03446.9 -07.5496 26235.2
 21 06 2013  22 21  -21.0556 26008.0 -03447.1 -07.5499 26235.4
 21 06 2013  22 22  -21.0561 26008.1 -03447.2 -07.5501 26235.5
 21 06 2013  22 23  -21.0561 26008.4 -03447.3 -07.5503 26235.9
 21 06 2013  22 24  -21.0557 26008.7 -03447.5 -07.5506 26236.2
 21 06 2013  22 25  -21.0557 26009.0 -03447.6 -07.5507 26236.5
 21 06 2013  22 26  -21.0556 26009.7 -03447.9 -07.5513 26237.3
 21 06 2013  22 27  -21.0552 26010.5 -03448.3 -07.5519 26238.1
 21 06 2013  22 28  -21.0546 26010.8 -03448.4 -07.5521 26238.4
 21 06 2013  22 29  -21.0539 26011.5 -03448.8 -07.5526 26239.1
 21 06 2013  22 30  -21.0536 26011.8 -03448.9 -07.5528 26239.4
 21 06 2013  22 31  -21.0534 26012.5 -03449.3 -07.5534 26240.2
 21 06 2013  22 32  -21.0528 26012.2 -03449.2 -07.5533 26239.9
 21 06 2013  22 33  -21.0523 26012.3 -03449.2 -07.5532 26240.0
 21 06 2013  22 34  -21.0521 26012.1 -03449.0 -07.5530 26239.7
 21 06 2013  22 35  -21.0519 26011.7 -03448.8 -07.5527 26239.4
 21 06 2013  22 36  -21.0518 26011.5 -03448.8 -07.5525 26239.2
 21 06 2013  22 37  -21.0517 26011.2 -03448.6 -07.5523 26238.8
 21 06 2013  22 38  -21.0516 26010.8 -03448.5 -07.5521 26238.4
 21 06 2013  22 39  -21.0511 26010.5 -03448.3 -07.5519 26238.1
 21 06 2013  22 40  -21.0507 26010.4 -03448.3 -07.5518 26237.9
 21 06 2013  22 41  -21.0511 26010.4 -03448.4 -07.5521 26238.0
 21 06 2013  22 42  -21.0516 26010.7 -03448.6 -07.5525 26238.3
 21 06 2013  22 43  -21.0517 26010.6 -03448.7 -07.5528 26238.3
 21 06 2013  22 44  -21.0518 26010.5 -03448.7 -07.5527 26238.1
 21 06 2013  22 45  -21.0519 26010.4 -03448.7 -07.5527 26238.1
 21 06 2013  22 46  -21.0515 26010.4 -03448.7 -07.5527 26238.0
 21 06 2013  22 47  -21.0508 26010.2 -03448.6 -07.5526 26237.9
 21 06 2013  22 48  -21.0501 26010.0 -03448.5 -07.5525 26237.6
 21 06 2013  22 49  -21.0496 26009.8 -03448.5 -07.5524 26237.4
 21 06 2013  22 50  -21.0488 26009.7 -03448.5 -07.5525 26237.4
 21 06 2013  22 51  -21.0481 26009.7 -03448.6 -07.5527 26237.3
 21 06 2013  22 52  -21.0475 26009.9 -03448.7 -07.5530 26237.5
 21 06 2013  22 53  -21.0472 26009.9 -03448.9 -07.5533 26237.6
 21 06 2013  22 54  -21.0472 26010.1 -03449.1 -07.5537 26237.8
 21 06 2013  22 55  -21.0472 26010.1 -03449.2 -07.5539 26237.9
 21 06 2013  22 56  -21.0472 26010.2 -03449.3 -07.5540 26237.9
 21 06 2013  22 57  -21.0474 26010.1 -03449.3 -07.5541 26237.9
 21 06 2013  22 58  -21.0479 26010.3 -03449.4 -07.5543 26238.1
 21 06 2013  22 59  -21.0483 26010.7 -03449.6 -07.5546 26238.4
 21 06 2013  23 00  -21.0488 26011.0 -03449.8 -07.5550 26238.8
 21 06 2013  23 01  -21.0491 26011.3 -03450.0 -07.5553 26239.1
 21 06 2013  23 02  -21.0493 26011.3 -03450.0 -07.5552 26239.1
 21 06 2013  23 03  -21.0496 26011.7 -03450.1 -07.5554 26239.5
 21 06 2013  23 04  -21.0498 26011.9 -03450.2 -07.5556 26239.8
 21 06 2013  23 05  -21.0501 26011.9 -03450.2 -07.5556 26239.8
 21 06 2013  23 06  -21.0504 26012.0 -03450.2 -07.5555 26239.8
 21 06 2013  23 07  -21.0505 26011.8 -03450.0 -07.5553 26239.6
 21 06 2013  23 08  -21.0504 26012.0 -03450.0 -07.5552 26239.7
 21 06 2013  23 09  -21.0502 26012.0 -03450.1 -07.5552 26239.8
 21 06 2013  23 10  -21.0500 26012.8 -03450.3 -07.5556 26240.6
 21 06 2013  23 11  -21.0499 26013.1 -03450.6 -07.5560 26240.9
 21 06 2013  23 12  -21.0501 26013.7 -03450.8 -07.5564 26241.6
 21 06 2013  23 13  -21.0504 26014.2 -03451.1 -07.5569 26242.1
 21 06 2013  23 14  -21.0504 26014.8 -03451.3 -07.5572 26242.7
 21 06 2013  23 15  -21.0503 26015.1 -03451.4 -07.5572 26243.0
 21 06 2013  23 16  -21.0497 26015.5 -03451.5 -07.5574 26243.5
 21 06 2013  23 17  -21.0487 26016.1 -03451.7 -07.5576 26244.1
 21 06 2013  23 18  -21.0482 26016.3 -03451.7 -07.5576 26244.2
 21 06 2013  23 19  -21.0478 26016.6 -03451.8 -07.5577 26244.6
 21 06 2013  23 20  -21.0469 26017.1 -03452.0 -07.5579 26245.1
 21 06 2013  23 21  -21.0459 26017.5 -03452.1 -07.5581 26245.6
 21 06 2013  23 22  -21.0448 26018.0 -03452.3 -07.5583 26246.0
 21 06 2013  23 23  -21.0440 26018.3 -03452.4 -07.5585 26246.3
 21 06 2013  23 24  -21.0436 26018.4 -03452.4 -07.5585 26246.4
 21 06 2013  23 25  -21.0436 26018.5 -03452.5 -07.5586 26246.6
 21 06 2013  23 26  -21.0440 26018.6 -03452.5 -07.5587 26246.7
 21 06 2013  23 27  -21.0443 26018.3 -03452.4 -07.5585 26246.4
 21 06 2013  23 28  -21.0444 26018.4 -03452.4 -07.5583 26246.5
 21 06 2013  23 29  -21.0445 26018.5 -03452.3 -07.5583 26246.5
 21 06 2013  23 30  -21.0447 26018.4 -03452.3 -07.5582 26246.4
 21 06 2013  23 31  -21.0451 26018.2 -03452.2 -07.5580 26246.2
 21 06 2013  23 32  -21.0455 26018.0 -03452.0 -07.5578 26246.0
 21 06 2013  23 33  -21.0459 26018.1 -03452.1 -07.5578 26246.1
 21 06 2013  23 34  -21.0464 26018.1 -03452.1 -07.5579 26246.1
 21 06 2013  23 35  -21.0467 26018.0 -03452.0 -07.5577 26246.0
 21 06 2013  23 36  -21.0466 26017.7 -03451.8 -07.5575 26245.7
 21 06 2013  23 37  -21.0464 26017.5 -03451.7 -07.5572 26245.5
 21 06 2013  23 38  -21.0459 26017.3 -03451.6 -07.5570 26245.2
 21 06 2013  23 39  -21.0453 26017.2 -03451.5 -07.5569 26245.1
 21 06 2013  23 40  -21.0447 26017.0 -03451.4 -07.5568 26244.9
 21 06 2013  23 41  -21.0443 26016.9 -03451.5 -07.5568 26244.9
 21 06 2013  23 42  -21.0440 26016.9 -03451.5 -07.5569 26244.9
 21 06 2013  23 43  -21.0435 26017.2 -03451.7 -07.5572 26245.1
 21 06 2013  23 44  -21.0432 26017.2 -03451.8 -07.5574 26245.2
 21 06 2013  23 45  -21.0433 26017.2 -03451.9 -07.5576 26245.2
 21 06 2013  23 46  -21.0434 26017.4 -03452.0 -07.5578 26245.4
 21 06 2013  23 47  -21.0436 26017.5 -03452.1 -07.5581 26245.5
 21 06 2013  23 48  -21.0440 26017.7 -03452.2 -07.5582 26245.8
 21 06 2013  23 49  -21.0445 26017.8 -03452.3 -07.5583 26245.8
 21 06 2013  23 50  -21.0447 26017.8 -03452.2 -07.5583 26245.8
 21 06 2013  23 51  -21.0449 26017.7 -03452.2 -07.5583 26245.8
 21 06 2013  23 52  -21.0451 26017.8 -03452.2 -07.5582 26245.8
 21 06 2013  23 53  -21.0454 26017.8 -03452.2 -07.5583 26245.8
 21 06 2013  23 54  -21.0454 26017.7 -03452.2 -07.5581 26245.7
 21 06 2013  23 55  -21.0454 26017.5 -03452.1 -07.5580 26245.5
 21 06 2013  23 56  -21.0454 26017.6 -03452.1 -07.5580 26245.6
 21 06 2013  23 57  -21.0452 26017.6 -03452.1 -07.5580 26245.6
 21 06 2013  23 58  -21.0449 26017.7 -03452.1 -07.5580 26245.7
