SAO LUIS EMBRACE-03 <087> 1 Min. Reported data

 DD MM YYYY  HH MM   D(Deg)  H(nT)   Z(nT)   I(Deg)   F(nT)

 28 03 2013  00 00  -21.0685 26006.7 -03418.0 -07.4874 26230.3
 28 03 2013  00 01  -21.0692 26006.2 -03417.9 -07.4872 26229.8
 28 03 2013  00 02  -21.0697 26005.6 -03417.6 -07.4867 26229.2
 28 03 2013  00 03  -21.0703 26005.1 -03417.4 -07.4864 26228.6
 28 03 2013  00 04  -21.0709 26004.7 -03417.2 -07.4862 26228.2
 28 03 2013  00 05  -21.0715 26004.4 -03417.1 -07.4861 26227.9
 28 03 2013  00 06  -21.0721 26004.1 -03417.1 -07.4860 26227.7
 28 03 2013  00 07  -21.0726 26003.8 -03416.9 -07.4859 26227.3
 28 03 2013  00 08  -21.0731 26003.3 -03416.7 -07.4855 26226.8
 28 03 2013  00 09  -21.0734 26003.0 -03416.6 -07.4854 26226.5
 28 03 2013  00 10  -21.0738 26002.7 -03416.5 -07.4853 26226.2
 28 03 2013  00 11  -21.0742 26002.3 -03416.5 -07.4853 26225.8
 28 03 2013  00 12  -21.0747 26001.9 -03416.3 -07.4851 26225.4
 28 03 2013  00 13  -21.0749 26001.9 -03416.4 -07.4852 26225.4
 28 03 2013  00 14  -21.0752 26001.7 -03416.4 -07.4853 26225.2
 28 03 2013  00 15  -21.0751 26001.9 -03416.6 -07.4856 26225.4
 28 03 2013  00 16  -21.0750 26001.6 -03416.5 -07.4855 26225.1
 28 03 2013  00 17  -21.0751 26001.3 -03416.4 -07.4855 26224.8
 28 03 2013  00 18  -21.0752 26001.3 -03416.5 -07.4856 26224.8
 28 03 2013  00 19  -21.0756 26001.2 -03416.6 -07.4858 26224.7
 28 03 2013  00 20  -21.0752 26001.7 -03416.9 -07.4863 26225.2
 28 03 2013  00 21  -21.0744 26002.6 -03417.4 -07.4871 26226.2
 28 03 2013  00 22  -21.0739 26003.1 -03417.8 -07.4878 26226.8
 28 03 2013  00 23  -21.0731 26004.0 -03418.3 -07.4887 26227.7
 28 03 2013  00 24  -21.0727 26004.2 -03418.5 -07.4890 26227.9
 28 03 2013  00 25  -21.0725 26004.4 -03418.6 -07.4892 26228.1
 28 03 2013  00 26  -21.0726 26004.6 -03418.7 -07.4895 26228.3
 28 03 2013  00 27  -21.0727 26004.6 -03418.8 -07.4896 26228.4
 28 03 2013  00 28  -21.0726 26004.7 -03418.8 -07.4897 26228.4
 28 03 2013  00 29  -21.0726 26004.6 -03418.8 -07.4897 26228.4
 28 03 2013  00 30  -21.0715 26005.5 -03419.1 -07.4901 26229.3
 28 03 2013  00 31  -21.0694 26007.2 -03420.0 -07.4915 26231.1
 28 03 2013  00 32  -21.0673 26008.6 -03420.6 -07.4925 26232.6
 28 03 2013  00 33  -21.0655 26010.1 -03421.4 -07.4937 26234.1
 28 03 2013  00 34  -21.0647 26011.0 -03421.9 -07.4946 26235.1
 28 03 2013  00 35  -21.0641 26011.5 -03422.2 -07.4951 26235.7
 28 03 2013  00 36  -21.0638 26012.0 -03422.5 -07.4955 26236.2
 28 03 2013  00 37  -21.0637 26012.8 -03422.8 -07.4959 26237.0
 28 03 2013  00 38  -21.0632 26014.3 -03423.4 -07.4969 26238.6
 28 03 2013  00 39  -21.0624 26016.2 -03424.3 -07.4982 26240.6
 28 03 2013  00 40  -21.0617 26018.6 -03425.4 -07.4999 26243.1
 28 03 2013  00 41  -21.0617 26019.7 -03425.8 -07.5006 26244.2
 28 03 2013  00 42  -21.0615 26019.9 -03425.8 -07.5004 26244.4
 28 03 2013  00 43  -21.0612 26020.1 -03425.6 -07.5000 26244.6
 28 03 2013  00 44  -21.0608 26019.6 -03425.2 -07.4992 26244.1
 28 03 2013  00 45  -21.0602 26019.8 -03425.0 -07.4987 26244.2
 28 03 2013  00 46  -21.0590 26019.7 -03424.8 -07.4983 26244.1
 28 03 2013  00 47  -21.0575 26019.8 -03424.6 -07.4979 26244.2
 28 03 2013  00 48  -21.0564 26019.9 -03424.5 -07.4977 26244.3
 28 03 2013  00 49  -21.0559 26020.4 -03424.8 -07.4981 26244.8
 28 03 2013  00 50  -21.0567 26020.6 -03424.9 -07.4984 26245.0
 28 03 2013  00 51  -21.0578 26020.4 -03424.8 -07.4982 26244.8
 28 03 2013  00 52  -21.0581 26020.5 -03424.8 -07.4982 26244.9
 28 03 2013  00 53  -21.0578 26021.3 -03425.1 -07.4986 26245.8
 28 03 2013  00 54  -21.0586 26021.4 -03425.2 -07.4988 26245.9
 28 03 2013  00 55  -21.0594 26021.1 -03425.1 -07.4985 26245.5
 28 03 2013  00 56  -21.0599 26020.9 -03424.9 -07.4982 26245.3
 28 03 2013  00 57  -21.0599 26020.2 -03424.5 -07.4975 26244.6
 28 03 2013  00 58  -21.0593 26020.4 -03424.4 -07.4973 26244.7
 28 03 2013  00 59  -21.0589 26020.4 -03424.4 -07.4973 26244.8
 28 03 2013  01 00  -21.0590 26020.5 -03424.5 -07.4974 26244.9
 28 03 2013  01 01  -21.0587 26020.9 -03424.6 -07.4976 26245.3
 28 03 2013  01 02  -21.0581 26021.0 -03424.7 -07.4977 26245.4
 28 03 2013  01 03  -21.0581 26021.0 -03424.6 -07.4976 26245.4
 28 03 2013  01 04  -21.0582 26020.4 -03424.4 -07.4972 26244.8
 28 03 2013  01 05  -21.0585 26020.1 -03424.2 -07.4969 26244.5
 28 03 2013  01 06  -21.0591 26020.2 -03424.2 -07.4969 26244.5
 28 03 2013  01 07  -21.0595 26020.4 -03424.3 -07.4972 26244.7
 28 03 2013  01 08  -21.0601 26020.9 -03424.6 -07.4976 26245.3
 28 03 2013  01 09  -21.0608 26021.4 -03424.9 -07.4980 26245.8
 28 03 2013  01 10  -21.0615 26021.9 -03425.1 -07.4983 26246.3
 28 03 2013  01 11  -21.0618 26022.9 -03425.5 -07.4990 26247.3
 28 03 2013  01 12  -21.0624 26023.2 -03425.6 -07.4991 26247.7
 28 03 2013  01 13  -21.0624 26023.6 -03425.7 -07.4992 26248.1
 28 03 2013  01 14  -21.0623 26023.7 -03425.6 -07.4989 26248.2
 28 03 2013  01 15  -21.0619 26023.9 -03425.6 -07.4988 26248.4
 28 03 2013  01 16  -21.0619 26024.1 -03425.5 -07.4987 26248.5
 28 03 2013  01 17  -21.0621 26024.0 -03425.4 -07.4984 26248.5
 28 03 2013  01 18  -21.0622 26024.0 -03425.3 -07.4982 26248.4
 28 03 2013  01 19  -21.0624 26024.0 -03425.2 -07.4981 26248.4
 28 03 2013  01 20  -21.0624 26023.7 -03425.0 -07.4977 26248.1
 28 03 2013  01 21  -21.0623 26023.7 -03424.9 -07.4975 26248.1
 28 03 2013  01 22  -21.0622 26023.7 -03424.8 -07.4973 26248.1
 28 03 2013  01 23  -21.0622 26023.7 -03424.8 -07.4972 26248.1
 28 03 2013  01 24  -21.0622 26023.8 -03424.8 -07.4973 26248.2
 28 03 2013  01 25  -21.0625 26023.8 -03424.9 -07.4973 26248.2
 28 03 2013  01 26  -21.0628 26023.8 -03424.9 -07.4973 26248.2
 28 03 2013  01 27  -21.0631 26023.8 -03424.8 -07.4972 26248.2
 28 03 2013  01 28  -21.0631 26023.5 -03424.7 -07.4970 26247.9
 28 03 2013  01 29  -21.0624 26023.3 -03424.4 -07.4965 26247.6
 28 03 2013  01 30  -21.0618 26023.2 -03424.3 -07.4963 26247.5
 28 03 2013  01 31  -21.0617 26023.2 -03424.3 -07.4963 26247.5
 28 03 2013  01 32  -21.0609 26023.3 -03424.3 -07.4963 26247.7
 28 03 2013  01 33  -21.0603 26023.2 -03424.3 -07.4962 26247.5
 28 03 2013  01 34  -21.0602 26022.6 -03424.1 -07.4959 26246.9
 28 03 2013  01 35  -21.0599 26022.5 -03424.0 -07.4958 26246.8
 28 03 2013  01 36  -21.0601 26022.0 -03423.8 -07.4955 26246.3
 28 03 2013  01 37  -21.0607 26021.7 -03423.7 -07.4954 26246.0
 28 03 2013  01 38  -21.0612 26021.3 -03423.6 -07.4953 26245.6
 28 03 2013  01 39  -21.0614 26021.0 -03423.4 -07.4950 26245.2
 28 03 2013  01 40  -21.0615 26020.7 -03423.3 -07.4949 26244.9
 28 03 2013  01 41  -21.0618 26020.5 -03423.3 -07.4948 26244.7
 28 03 2013  01 42  -21.0618 26020.2 -03423.2 -07.4948 26244.4
 28 03 2013  01 43  -21.0618 26019.8 -03423.1 -07.4946 26244.0
 28 03 2013  01 44  -21.0619 26019.4 -03422.9 -07.4944 26243.6
 28 03 2013  01 45  -21.0617 26019.2 -03422.8 -07.4942 26243.3
 28 03 2013  01 46  -21.0617 26019.0 -03422.8 -07.4943 26243.2
 28 03 2013  01 47  -21.0617 26018.7 -03422.8 -07.4943 26242.9
 28 03 2013  01 48  -21.0615 26018.7 -03422.9 -07.4945 26242.9
 28 03 2013  01 49  -21.0613 26018.8 -03423.0 -07.4948 26243.0
 28 03 2013  01 50  -21.0612 26018.7 -03423.0 -07.4948 26242.9
 28 03 2013  01 51  -21.0609 26018.3 -03423.0 -07.4947 26242.5
 28 03 2013  01 52  -21.0604 26018.1 -03422.9 -07.4946 26242.3
 28 03 2013  01 53  -21.0600 26017.8 -03422.8 -07.4946 26242.0
 28 03 2013  01 54  -21.0597 26017.7 -03422.8 -07.4946 26241.9
 28 03 2013  01 55  -21.0595 26017.7 -03422.9 -07.4949 26241.9
 28 03 2013  01 56  -21.0593 26017.6 -03423.0 -07.4949 26241.8
 28 03 2013  01 57  -21.0594 26017.7 -03423.1 -07.4953 26241.9
 28 03 2013  01 58  -21.0596 26017.8 -03423.3 -07.4956 26242.1
 28 03 2013  01 59  -21.0600 26017.9 -03423.4 -07.4958 26242.2
 28 03 2013  02 00  -21.0601 26017.9 -03423.5 -07.4960 26242.1
 28 03 2013  02 01  -21.0605 26017.9 -03423.6 -07.4962 26242.2
 28 03 2013  02 02  -21.0610 26017.9 -03423.6 -07.4963 26242.2
 28 03 2013  02 03  -21.0617 26017.7 -03423.6 -07.4964 26241.9
 28 03 2013  02 04  -21.0621 26017.5 -03423.6 -07.4963 26241.8
 28 03 2013  02 05  -21.0626 26017.3 -03423.5 -07.4962 26241.5
 28 03 2013  02 06  -21.0633 26016.9 -03423.3 -07.4960 26241.2
 28 03 2013  02 07  -21.0639 26016.6 -03423.2 -07.4957 26240.8
 28 03 2013  02 08  -21.0642 26016.6 -03423.2 -07.4957 26240.8
 28 03 2013  02 09  -21.0644 26016.5 -03423.1 -07.4956 26240.7
 28 03 2013  02 10  -21.0644 26016.2 -03423.0 -07.4954 26240.5
 28 03 2013  02 11  -21.0641 26016.1 -03422.9 -07.4953 26240.3
 28 03 2013  02 12  -21.0641 26016.0 -03422.9 -07.4954 26240.2
 28 03 2013  02 13  -21.0640 26015.7 -03422.8 -07.4952 26239.9
 28 03 2013  02 14  -21.0634 26015.3 -03422.6 -07.4949 26239.5
 28 03 2013  02 15  -21.0631 26015.1 -03422.5 -07.4947 26239.3
 28 03 2013  02 16  -21.0631 26015.0 -03422.5 -07.4948 26239.1
 28 03 2013  02 17  -21.0632 26014.9 -03422.6 -07.4950 26239.1
 28 03 2013  02 18  -21.0632 26014.8 -03422.6 -07.4950 26239.0
 28 03 2013  02 19  -21.0632 26014.7 -03422.6 -07.4951 26238.9
 28 03 2013  02 20  -21.0632 26014.6 -03422.7 -07.4952 26238.8
 28 03 2013  02 21  -21.0634 26014.5 -03422.7 -07.4952 26238.7
 28 03 2013  02 22  -21.0637 26014.4 -03422.7 -07.4952 26238.6
 28 03 2013  02 23  -21.0640 26014.4 -03422.7 -07.4953 26238.6
 28 03 2013  02 24  -21.0643 26014.4 -03422.7 -07.4954 26238.6
 28 03 2013  02 25  -21.0644 26014.3 -03422.7 -07.4953 26238.5
 28 03 2013  02 26  -21.0642 26014.1 -03422.6 -07.4952 26238.3
 28 03 2013  02 27  -21.0643 26014.1 -03422.6 -07.4952 26238.3
 28 03 2013  02 28  -21.0645 26014.1 -03422.7 -07.4953 26238.3
 28 03 2013  02 29  -21.0645 26014.1 -03422.7 -07.4954 26238.3
 28 03 2013  02 30  -21.0642 26014.3 -03422.8 -07.4955 26238.5
 28 03 2013  02 31  -21.0637 26014.6 -03422.9 -07.4958 26238.8
 28 03 2013  02 32  -21.0635 26014.8 -03423.1 -07.4961 26239.1
 28 03 2013  02 33  -21.0634 26015.2 -03423.3 -07.4964 26239.4
 28 03 2013  02 34  -21.0632 26015.7 -03423.5 -07.4967 26240.0
 28 03 2013  02 35  -21.0631 26016.0 -03423.7 -07.4971 26240.3
 28 03 2013  02 36  -21.0629 26015.9 -03423.7 -07.4970 26240.2
 28 03 2013  02 37  -21.0626 26015.7 -03423.6 -07.4968 26240.0
 28 03 2013  02 38  -21.0620 26015.5 -03423.4 -07.4965 26239.7
 28 03 2013  02 39  -21.0615 26015.0 -03423.2 -07.4961 26239.3
 28 03 2013  02 40  -21.0612 26014.8 -03423.0 -07.4959 26239.0
 28 03 2013  02 41  -21.0610 26014.5 -03423.0 -07.4958 26238.7
 28 03 2013  02 42  -21.0610 26014.2 -03422.9 -07.4957 26238.5
 28 03 2013  02 43  -21.0613 26014.1 -03422.9 -07.4958 26238.3
 28 03 2013  02 44  -21.0617 26014.2 -03423.0 -07.4960 26238.4
 28 03 2013  02 45  -21.0623 26014.3 -03423.1 -07.4962 26238.5
 28 03 2013  02 46  -21.0626 26014.4 -03423.2 -07.4964 26238.6
 28 03 2013  02 47  -21.0627 26014.3 -03423.2 -07.4964 26238.6
 28 03 2013  02 48  -21.0625 26014.4 -03423.3 -07.4965 26238.6
 28 03 2013  02 49  -21.0624 26014.5 -03423.3 -07.4966 26238.8
 28 03 2013  02 50  -21.0627 26014.6 -03423.4 -07.4968 26238.9
 28 03 2013  02 51  -21.0630 26014.5 -03423.4 -07.4968 26238.8
 28 03 2013  02 52  -21.0632 26014.5 -03423.4 -07.4969 26238.8
 28 03 2013  02 53  -21.0632 26014.5 -03423.4 -07.4968 26238.8
 28 03 2013  02 54  -21.0632 26014.4 -03423.4 -07.4967 26238.7
 28 03 2013  02 55  -21.0633 26014.3 -03423.3 -07.4966 26238.5
 28 03 2013  02 56  -21.0635 26014.1 -03423.3 -07.4966 26238.4
 28 03 2013  02 57  -21.0637 26014.2 -03423.3 -07.4967 26238.5
 28 03 2013  02 58  -21.0640 26014.3 -03423.4 -07.4969 26238.6
 28 03 2013  02 59  -21.0642 26014.5 -03423.5 -07.4971 26238.9
 28 03 2013  03 00  -21.0643 26014.9 -03423.7 -07.4974 26239.2
 28 03 2013  03 01  -21.0640 26015.3 -03423.9 -07.4977 26239.7
 28 03 2013  03 02  -21.0634 26015.8 -03424.1 -07.4979 26240.2
 28 03 2013  03 03  -21.0628 26016.2 -03424.3 -07.4982 26240.6
 28 03 2013  03 04  -21.0624 26016.4 -03424.4 -07.4983 26240.8
 28 03 2013  03 05  -21.0620 26016.7 -03424.5 -07.4985 26241.1
 28 03 2013  03 06  -21.0617 26016.9 -03424.6 -07.4986 26241.4
 28 03 2013  03 07  -21.0615 26017.1 -03424.6 -07.4986 26241.5
 28 03 2013  03 08  -21.0612 26017.0 -03424.5 -07.4985 26241.4
 28 03 2013  03 09  -21.0609 26017.0 -03424.5 -07.4984 26241.4
 28 03 2013  03 10  -21.0603 26016.9 -03424.4 -07.4982 26241.3
 28 03 2013  03 11  -21.0600 26016.7 -03424.3 -07.4980 26241.1
 28 03 2013  03 12  -21.0598 26016.5 -03424.2 -07.4979 26240.9
 28 03 2013  03 13  -21.0598 26016.5 -03424.2 -07.4979 26240.9
 28 03 2013  03 14  -21.0597 26016.4 -03424.2 -07.4980 26240.8
 28 03 2013  03 15  -21.0598 26016.4 -03424.2 -07.4980 26240.8
 28 03 2013  03 16  -21.0597 26016.4 -03424.2 -07.4981 26240.7
 28 03 2013  03 17  -21.0598 26016.1 -03424.2 -07.4980 26240.5
 28 03 2013  03 18  -21.0600 26016.0 -03424.1 -07.4980 26240.4
 28 03 2013  03 19  -21.0598 26016.1 -03424.2 -07.4980 26240.5
 28 03 2013  03 20  -21.0597 26016.2 -03424.3 -07.4982 26240.6
 28 03 2013  03 21  -21.0597 26016.2 -03424.3 -07.4983 26240.5
 28 03 2013  03 22  -21.0599 26016.0 -03424.2 -07.4982 26240.4
 28 03 2013  03 23  -21.0599 26016.0 -03424.2 -07.4982 26240.3
 28 03 2013  03 24  -21.0599 26016.0 -03424.3 -07.4984 26240.4
 28 03 2013  03 25  -21.0596 26016.1 -03424.4 -07.4985 26240.5
 28 03 2013  03 26  -21.0594 26016.2 -03424.5 -07.4988 26240.6
 28 03 2013  03 27  -21.0593 26016.3 -03424.6 -07.4989 26240.7
 28 03 2013  03 28  -21.0592 26016.4 -03424.7 -07.4991 26240.9
 28 03 2013  03 29  -21.0593 26016.5 -03424.8 -07.4992 26240.9
 28 03 2013  03 30  -21.0595 26016.4 -03424.8 -07.4992 26240.9
 28 03 2013  03 31  -21.0597 26016.3 -03424.7 -07.4992 26240.8
 28 03 2013  03 32  -21.0598 26016.3 -03424.7 -07.4992 26240.7
 28 03 2013  03 33  -21.0599 26016.3 -03424.8 -07.4993 26240.7
 28 03 2013  03 34  -21.0603 26016.3 -03424.8 -07.4993 26240.8
 28 03 2013  03 35  -21.0608 26016.4 -03424.9 -07.4994 26240.8
 28 03 2013  03 36  -21.0612 26016.4 -03424.9 -07.4995 26240.9
 28 03 2013  03 37  -21.0617 26016.5 -03425.0 -07.4997 26240.9
 28 03 2013  03 38  -21.0620 26016.6 -03425.1 -07.4998 26241.1
 28 03 2013  03 39  -21.0622 26016.6 -03425.0 -07.4998 26241.1
 28 03 2013  03 40  -21.0623 26016.5 -03425.0 -07.4996 26241.0
 28 03 2013  03 41  -21.0623 26016.4 -03424.9 -07.4995 26240.9
 28 03 2013  03 42  -21.0623 26016.3 -03424.8 -07.4994 26240.7
 28 03 2013  03 43  -21.0622 26016.1 -03424.7 -07.4992 26240.5
 28 03 2013  03 44  -21.0621 26015.9 -03424.6 -07.4991 26240.4
 28 03 2013  03 45  -21.0622 26016.0 -03424.7 -07.4991 26240.4
 28 03 2013  03 46  -21.0625 26016.0 -03424.7 -07.4993 26240.4
 28 03 2013  03 47  -21.0629 26016.0 -03424.8 -07.4994 26240.4
 28 03 2013  03 48  -21.0633 26016.0 -03424.8 -07.4994 26240.5
 28 03 2013  03 49  -21.0637 26016.1 -03424.9 -07.4995 26240.5
 28 03 2013  03 50  -21.0640 26016.1 -03424.9 -07.4995 26240.5
 28 03 2013  03 51  -21.0642 26016.1 -03424.9 -07.4995 26240.5
 28 03 2013  03 52  -21.0644 26016.1 -03424.9 -07.4995 26240.6
 28 03 2013  03 53  -21.0644 26016.2 -03424.9 -07.4996 26240.7
 28 03 2013  03 54  -21.0645 26016.3 -03425.0 -07.4997 26240.8
 28 03 2013  03 55  -21.0646 26016.4 -03425.1 -07.4999 26240.9
 28 03 2013  03 56  -21.0647 26016.7 -03425.2 -07.5000 26241.2
 28 03 2013  03 57  -21.0649 26016.9 -03425.3 -07.5002 26241.4
 28 03 2013  03 58  -21.0651 26017.0 -03425.3 -07.5003 26241.5
 28 03 2013  03 59  -21.0652 26017.0 -03425.3 -07.5003 26241.5
 28 03 2013  04 00  -21.0653 26017.0 -03425.3 -07.5002 26241.5
 28 03 2013  04 01  -21.0654 26017.0 -03425.3 -07.5002 26241.5
 28 03 2013  04 02  -21.0653 26017.0 -03425.2 -07.5000 26241.5
 28 03 2013  04 03  -21.0653 26016.9 -03425.2 -07.5000 26241.4
 28 03 2013  04 04  -21.0654 26016.8 -03425.1 -07.4999 26241.3
 28 03 2013  04 05  -21.0652 26016.8 -03425.1 -07.4999 26241.3
 28 03 2013  04 06  -21.0653 26016.8 -03425.1 -07.4998 26241.3
 28 03 2013  04 07  -21.0655 26016.9 -03425.2 -07.5000 26241.4
 28 03 2013  04 08  -21.0658 26017.0 -03425.2 -07.5001 26241.5
 28 03 2013  04 09  -21.0660 26017.2 -03425.3 -07.5003 26241.7
 28 03 2013  04 10  -21.0661 26017.3 -03425.4 -07.5004 26241.8
 28 03 2013  04 11  -21.0662 26017.4 -03425.4 -07.5004 26242.0
 28 03 2013  04 12  -21.0661 26017.6 -03425.5 -07.5004 26242.1
 28 03 2013  04 13  -21.0662 26017.7 -03425.5 -07.5004 26242.2
 28 03 2013  04 14  -21.0662 26017.8 -03425.5 -07.5004 26242.3
 28 03 2013  04 15  -21.0662 26018.0 -03425.5 -07.5004 26242.5
 28 03 2013  04 16  -21.0662 26018.1 -03425.6 -07.5004 26242.6
 28 03 2013  04 17  -21.0661 26018.2 -03425.6 -07.5005 26242.7
 28 03 2013  04 18  -21.0662 26018.4 -03425.6 -07.5005 26242.9
 28 03 2013  04 19  -21.0662 26018.5 -03425.6 -07.5005 26243.1
 28 03 2013  04 20  -21.0662 26018.6 -03425.7 -07.5005 26243.2
 28 03 2013  04 21  -21.0661 26018.7 -03425.7 -07.5005 26243.2
 28 03 2013  04 22  -21.0662 26018.7 -03425.7 -07.5005 26243.3
 28 03 2013  04 23  -21.0662 26018.8 -03425.6 -07.5004 26243.4
 28 03 2013  04 24  -21.0662 26018.9 -03425.6 -07.5004 26243.5
 28 03 2013  04 25  -21.0660 26019.1 -03425.7 -07.5004 26243.6
 28 03 2013  04 26  -21.0658 26019.4 -03425.8 -07.5005 26244.0
 28 03 2013  04 27  -21.0659 26019.4 -03425.8 -07.5005 26244.0
 28 03 2013  04 28  -21.0660 26019.5 -03425.8 -07.5005 26244.1
 28 03 2013  04 29  -21.0660 26019.5 -03425.7 -07.5003 26244.1
 28 03 2013  04 30  -21.0658 26019.6 -03425.7 -07.5002 26244.1
 28 03 2013  04 31  -21.0655 26019.5 -03425.6 -07.5001 26244.0
 28 03 2013  04 32  -21.0653 26019.4 -03425.5 -07.4998 26243.9
 28 03 2013  04 33  -21.0651 26019.4 -03425.4 -07.4997 26243.9
 28 03 2013  04 34  -21.0648 26019.3 -03425.3 -07.4996 26243.8
 28 03 2013  04 35  -21.0646 26019.3 -03425.3 -07.4995 26243.8
 28 03 2013  04 36  -21.0645 26019.4 -03425.3 -07.4996 26243.9
 28 03 2013  04 37  -21.0646 26019.5 -03425.4 -07.4996 26244.0
 28 03 2013  04 38  -21.0647 26019.5 -03425.4 -07.4996 26244.0
 28 03 2013  04 39  -21.0648 26019.6 -03425.4 -07.4996 26244.1
 28 03 2013  04 40  -21.0646 26019.7 -03425.4 -07.4997 26244.2
 28 03 2013  04 41  -21.0644 26019.8 -03425.4 -07.4997 26244.3
 28 03 2013  04 42  -21.0642 26019.9 -03425.4 -07.4997 26244.4
 28 03 2013  04 43  -21.0640 26020.0 -03425.5 -07.4998 26244.6
 28 03 2013  04 44  -21.0639 26020.1 -03425.5 -07.4997 26244.6
 28 03 2013  04 45  -21.0638 26020.1 -03425.4 -07.4996 26244.6
 28 03 2013  04 46  -21.0635 26020.0 -03425.4 -07.4995 26244.5
 28 03 2013  04 47  -21.0632 26019.8 -03425.2 -07.4992 26244.3
 28 03 2013  04 48  -21.0629 26019.7 -03425.1 -07.4991 26244.2
 28 03 2013  04 49  -21.0625 26019.6 -03425.1 -07.4989 26244.1
 28 03 2013  04 50  -21.0622 26019.6 -03425.0 -07.4989 26244.1
 28 03 2013  04 51  -21.0620 26019.7 -03425.1 -07.4990 26244.1
 28 03 2013  04 52  -21.0617 26019.7 -03425.1 -07.4990 26244.2
 28 03 2013  04 53  -21.0617 26019.8 -03425.2 -07.4992 26244.3
 28 03 2013  04 54  -21.0616 26019.9 -03425.3 -07.4993 26244.4
 28 03 2013  04 55  -21.0616 26019.9 -03425.3 -07.4993 26244.4
 28 03 2013  04 56  -21.0615 26020.0 -03425.3 -07.4993 26244.5
 28 03 2013  04 57  -21.0614 26020.0 -03425.3 -07.4993 26244.5
 28 03 2013  04 58  -21.0612 26020.0 -03425.3 -07.4993 26244.5
 28 03 2013  04 59  -21.0611 26020.1 -03425.3 -07.4993 26244.6
 28 03 2013  05 00  -21.0609 26020.1 -03425.3 -07.4993 26244.6
 28 03 2013  05 01  -21.0607 26020.2 -03425.4 -07.4994 26244.7
 28 03 2013  05 02  -21.0607 26020.3 -03425.4 -07.4995 26244.8
 28 03 2013  05 03  -21.0604 26020.3 -03425.4 -07.4994 26244.8
 28 03 2013  05 04  -21.0602 26020.3 -03425.3 -07.4994 26244.8
 28 03 2013  05 05  -21.0599 26020.3 -03425.4 -07.4994 26244.8
 28 03 2013  05 06  -21.0597 26020.4 -03425.4 -07.4995 26244.9
 28 03 2013  05 07  -21.0596 26020.4 -03425.4 -07.4995 26244.9
 28 03 2013  05 08  -21.0595 26020.4 -03425.5 -07.4996 26244.9
 28 03 2013  05 09  -21.0595 26020.4 -03425.5 -07.4996 26244.9
 28 03 2013  05 10  -21.0595 26020.4 -03425.5 -07.4996 26244.9
 28 03 2013  05 11  -21.0596 26020.5 -03425.5 -07.4997 26245.0
 28 03 2013  05 12  -21.0599 26020.6 -03425.6 -07.4998 26245.1
 28 03 2013  05 13  -21.0600 26020.7 -03425.6 -07.4999 26245.2
 28 03 2013  05 14  -21.0601 26020.8 -03425.7 -07.5000 26245.3
 28 03 2013  05 15  -21.0602 26020.9 -03425.7 -07.5000 26245.4
 28 03 2013  05 16  -21.0602 26020.9 -03425.8 -07.5001 26245.5
 28 03 2013  05 17  -21.0601 26020.9 -03425.7 -07.5000 26245.4
 28 03 2013  05 18  -21.0600 26020.8 -03425.6 -07.4998 26245.4
 28 03 2013  05 19  -21.0600 26020.8 -03425.6 -07.4998 26245.3
 28 03 2013  05 20  -21.0600 26020.8 -03425.7 -07.4999 26245.3
 28 03 2013  05 21  -21.0599 26020.8 -03425.6 -07.4999 26245.3
 28 03 2013  05 22  -21.0600 26020.8 -03425.6 -07.4998 26245.3
 28 03 2013  05 23  -21.0600 26020.8 -03425.7 -07.4999 26245.3
 28 03 2013  05 24  -21.0600 26020.8 -03425.7 -07.4999 26245.3
 28 03 2013  05 25  -21.0601 26020.7 -03425.6 -07.4998 26245.2
 28 03 2013  05 26  -21.0602 26020.8 -03425.7 -07.5000 26245.3
 28 03 2013  05 27  -21.0604 26020.9 -03425.7 -07.5000 26245.4
 28 03 2013  05 28  -21.0604 26021.0 -03425.8 -07.5001 26245.5
 28 03 2013  05 29  -21.0604 26021.1 -03425.9 -07.5002 26245.6
 28 03 2013  05 30  -21.0604 26021.3 -03425.9 -07.5004 26245.8
 28 03 2013  05 31  -21.0602 26021.4 -03426.0 -07.5005 26246.0
 28 03 2013  05 32  -21.0601 26021.6 -03426.1 -07.5005 26246.1
 28 03 2013  05 33  -21.0601 26021.7 -03426.1 -07.5007 26246.3
 28 03 2013  05 34  -21.0600 26021.9 -03426.2 -07.5008 26246.5
 28 03 2013  05 35  -21.0600 26021.9 -03426.2 -07.5008 26246.5
 28 03 2013  05 36  -21.0600 26022.2 -03426.3 -07.5010 26246.8
 28 03 2013  05 37  -21.0602 26022.4 -03426.5 -07.5012 26247.0
 28 03 2013  05 38  -21.0603 26022.6 -03426.5 -07.5013 26247.2
 28 03 2013  05 39  -21.0604 26022.5 -03426.5 -07.5012 26247.2
 28 03 2013  05 40  -21.0602 26022.4 -03426.4 -07.5009 26247.0
 28 03 2013  05 41  -21.0600 26022.3 -03426.3 -07.5008 26246.9
 28 03 2013  05 42  -21.0597 26022.4 -03426.3 -07.5008 26247.0
 28 03 2013  05 43  -21.0595 26022.4 -03426.3 -07.5009 26247.0
 28 03 2013  05 44  -21.0591 26022.5 -03426.3 -07.5009 26247.1
 28 03 2013  05 45  -21.0589 26022.6 -03426.4 -07.5009 26247.2
 28 03 2013  05 46  -21.0587 26022.6 -03426.4 -07.5010 26247.3
 28 03 2013  05 47  -21.0584 26022.8 -03426.5 -07.5011 26247.4
 28 03 2013  05 48  -21.0581 26022.9 -03426.5 -07.5012 26247.5
 28 03 2013  05 49  -21.0579 26022.9 -03426.5 -07.5012 26247.5
 28 03 2013  05 50  -21.0578 26023.0 -03426.6 -07.5013 26247.6
 28 03 2013  05 51  -21.0577 26023.1 -03426.7 -07.5014 26247.7
 28 03 2013  05 52  -21.0576 26023.2 -03426.7 -07.5015 26247.8
 28 03 2013  05 53  -21.0575 26023.2 -03426.7 -07.5016 26247.8
 28 03 2013  05 54  -21.0575 26023.2 -03426.7 -07.5016 26247.8
 28 03 2013  05 55  -21.0574 26023.2 -03426.8 -07.5016 26247.9
 28 03 2013  05 56  -21.0574 26023.2 -03426.8 -07.5016 26247.8
 28 03 2013  05 57  -21.0572 26023.2 -03426.7 -07.5016 26247.8
 28 03 2013  05 58  -21.0570 26023.2 -03426.8 -07.5016 26247.9
 28 03 2013  05 59  -21.0569 26023.3 -03426.8 -07.5017 26248.0
 28 03 2013  06 00  -21.0569 26023.4 -03426.8 -07.5017 26248.0
 28 03 2013  06 01  -21.0569 26023.5 -03426.9 -07.5019 26248.1
 28 03 2013  06 02  -21.0570 26023.6 -03427.0 -07.5019 26248.2
 28 03 2013  06 03  -21.0571 26023.6 -03427.0 -07.5020 26248.3
 28 03 2013  06 04  -21.0571 26023.6 -03427.0 -07.5020 26248.3
 28 03 2013  06 05  -21.0571 26023.6 -03427.0 -07.5019 26248.3
 28 03 2013  06 06  -21.0572 26023.6 -03427.0 -07.5019 26248.3
 28 03 2013  06 07  -21.0574 26023.6 -03427.0 -07.5019 26248.3
 28 03 2013  06 08  -21.0575 26023.6 -03426.9 -07.5019 26248.3
 28 03 2013  06 09  -21.0575 26023.6 -03426.9 -07.5019 26248.3
 28 03 2013  06 10  -21.0576 26023.5 -03426.9 -07.5019 26248.2
 28 03 2013  06 11  -21.0576 26023.4 -03426.9 -07.5017 26248.1
 28 03 2013  06 12  -21.0577 26023.4 -03426.8 -07.5017 26248.0
 28 03 2013  06 13  -21.0577 26023.3 -03426.8 -07.5016 26248.0
 28 03 2013  06 14  -21.0577 26023.4 -03426.8 -07.5017 26248.1
 28 03 2013  06 15  -21.0581 26023.5 -03426.9 -07.5018 26248.2
 28 03 2013  06 16  -21.0586 26023.7 -03427.0 -07.5019 26248.3
 28 03 2013  06 17  -21.0589 26023.8 -03427.1 -07.5021 26248.5
 28 03 2013  06 18  -21.0593 26023.9 -03427.1 -07.5021 26248.6
 28 03 2013  06 19  -21.0596 26023.9 -03427.1 -07.5021 26248.6
 28 03 2013  06 20  -21.0596 26023.9 -03427.0 -07.5020 26248.6
 28 03 2013  06 21  -21.0595 26023.9 -03427.0 -07.5018 26248.5
 28 03 2013  06 22  -21.0592 26023.7 -03426.9 -07.5016 26248.4
 28 03 2013  06 23  -21.0589 26023.7 -03426.8 -07.5015 26248.3
 28 03 2013  06 24  -21.0587 26023.6 -03426.7 -07.5014 26248.2
 28 03 2013  06 25  -21.0585 26023.5 -03426.7 -07.5014 26248.2
 28 03 2013  06 26  -21.0584 26023.5 -03426.7 -07.5013 26248.1
 28 03 2013  06 27  -21.0580 26023.4 -03426.7 -07.5013 26248.1
 28 03 2013  06 28  -21.0577 26023.4 -03426.7 -07.5013 26248.0
 28 03 2013  06 29  -21.0573 26023.4 -03426.7 -07.5013 26248.1
 28 03 2013  06 30  -21.0570 26023.5 -03426.7 -07.5014 26248.1
 28 03 2013  06 31  -21.0566 26023.5 -03426.7 -07.5015 26248.1
 28 03 2013  06 32  -21.0564 26023.5 -03426.8 -07.5015 26248.2
 28 03 2013  06 33  -21.0563 26023.5 -03426.8 -07.5016 26248.2
 28 03 2013  06 34  -21.0562 26023.6 -03426.8 -07.5016 26248.2
 28 03 2013  06 35  -21.0561 26023.6 -03426.9 -07.5017 26248.3
 28 03 2013  06 36  -21.0561 26023.6 -03426.9 -07.5018 26248.3
 28 03 2013  06 37  -21.0560 26023.6 -03426.9 -07.5018 26248.3
 28 03 2013  06 38  -21.0560 26023.6 -03426.9 -07.5018 26248.3
 28 03 2013  06 39  -21.0561 26023.6 -03426.9 -07.5018 26248.2
 28 03 2013  06 40  -21.0558 26023.5 -03426.8 -07.5017 26248.1
 28 03 2013  06 41  -21.0557 26023.4 -03426.8 -07.5016 26248.0
 28 03 2013  06 42  -21.0556 26023.3 -03426.8 -07.5016 26248.0
 28 03 2013  06 43  -21.0555 26023.2 -03426.8 -07.5016 26247.9
 28 03 2013  06 44  -21.0555 26023.2 -03426.7 -07.5016 26247.9
 28 03 2013  06 45  -21.0555 26023.2 -03426.7 -07.5015 26247.9
 28 03 2013  06 46  -21.0557 26023.2 -03426.8 -07.5016 26247.9
 28 03 2013  06 47  -21.0559 26023.1 -03426.7 -07.5015 26247.7
 28 03 2013  06 48  -21.0560 26022.9 -03426.6 -07.5014 26247.6
 28 03 2013  06 49  -21.0561 26022.9 -03426.6 -07.5014 26247.6
 28 03 2013  06 50  -21.0560 26023.0 -03426.7 -07.5015 26247.7
 28 03 2013  06 51  -21.0557 26023.2 -03426.7 -07.5015 26247.8
 28 03 2013  06 52  -21.0551 26023.2 -03426.7 -07.5015 26247.9
 28 03 2013  06 53  -21.0546 26023.1 -03426.7 -07.5015 26247.8
 28 03 2013  06 54  -21.0540 26023.1 -03426.7 -07.5015 26247.7
 28 03 2013  06 55  -21.0537 26023.0 -03426.7 -07.5015 26247.6
 28 03 2013  06 56  -21.0533 26022.9 -03426.7 -07.5015 26247.5
 28 03 2013  06 57  -21.0528 26022.8 -03426.7 -07.5016 26247.5
 28 03 2013  06 58  -21.0524 26022.8 -03426.7 -07.5016 26247.5
 28 03 2013  06 59  -21.0522 26022.9 -03426.8 -07.5017 26247.5
 28 03 2013  07 00  -21.0521 26022.9 -03426.8 -07.5018 26247.5
 28 03 2013  07 01  -21.0522 26022.9 -03426.9 -07.5020 26247.6
 28 03 2013  07 02  -21.0524 26023.0 -03427.0 -07.5021 26247.7
 28 03 2013  07 03  -21.0525 26023.2 -03427.1 -07.5023 26247.9
 28 03 2013  07 04  -21.0525 26023.4 -03427.2 -07.5024 26248.1
 28 03 2013  07 05  -21.0525 26023.6 -03427.3 -07.5025 26248.3
 28 03 2013  07 06  -21.0528 26023.8 -03427.3 -07.5026 26248.5
 28 03 2013  07 07  -21.0532 26023.9 -03427.4 -07.5027 26248.6
 28 03 2013  07 08  -21.0536 26023.9 -03427.4 -07.5027 26248.6
 28 03 2013  07 09  -21.0539 26023.9 -03427.3 -07.5025 26248.6
 28 03 2013  07 10  -21.0542 26023.9 -03427.2 -07.5023 26248.6
 28 03 2013  07 11  -21.0543 26023.7 -03427.0 -07.5020 26248.4
 28 03 2013  07 12  -21.0542 26023.7 -03426.9 -07.5018 26248.4
 28 03 2013  07 13  -21.0542 26023.8 -03426.9 -07.5017 26248.4
 28 03 2013  07 14  -21.0542 26023.9 -03426.9 -07.5016 26248.6
 28 03 2013  07 15  -21.0543 26024.0 -03426.9 -07.5017 26248.7
 28 03 2013  07 16  -21.0545 26024.1 -03426.9 -07.5017 26248.7
 28 03 2013  07 17  -21.0549 26024.1 -03426.9 -07.5016 26248.7
 28 03 2013  07 18  -21.0551 26024.1 -03426.8 -07.5015 26248.8
 28 03 2013  07 19  -21.0552 26024.3 -03426.8 -07.5015 26248.9
 28 03 2013  07 20  -21.0552 26024.2 -03426.8 -07.5013 26248.9
 28 03 2013  07 21  -21.0549 26024.3 -03426.7 -07.5012 26248.9
 28 03 2013  07 22  -21.0550 26024.3 -03426.7 -07.5011 26248.9
 28 03 2013  07 23  -21.0551 26024.3 -03426.7 -07.5011 26248.9
 28 03 2013  07 24  -21.0550 26024.3 -03426.7 -07.5011 26249.0
 28 03 2013  07 25  -21.0548 26024.4 -03426.6 -07.5010 26249.0
 28 03 2013  07 26  -21.0547 26024.4 -03426.6 -07.5008 26249.0
 28 03 2013  07 27  -21.0543 26024.2 -03426.4 -07.5006 26248.8
 28 03 2013  07 28  -21.0540 26024.1 -03426.4 -07.5004 26248.7
 28 03 2013  07 29  -21.0534 26024.0 -03426.3 -07.5003 26248.6
 28 03 2013  07 30  -21.0527 26023.8 -03426.2 -07.5001 26248.4
 28 03 2013  07 31  -21.0519 26023.7 -03426.1 -07.5001 26248.2
 28 03 2013  07 32  -21.0512 26023.6 -03426.1 -07.5001 26248.1
 28 03 2013  07 33  -21.0507 26023.5 -03426.2 -07.5002 26248.1
 28 03 2013  07 34  -21.0501 26023.5 -03426.2 -07.5003 26248.1
 28 03 2013  07 35  -21.0492 26023.5 -03426.2 -07.5004 26248.1
 28 03 2013  07 36  -21.0485 26023.3 -03426.2 -07.5003 26247.8
 28 03 2013  07 37  -21.0479 26023.2 -03426.2 -07.5004 26247.8
 28 03 2013  07 38  -21.0476 26023.2 -03426.2 -07.5005 26247.7
 28 03 2013  07 39  -21.0473 26023.1 -03426.3 -07.5006 26247.6
 28 03 2013  07 40  -21.0470 26022.9 -03426.3 -07.5006 26247.5
 28 03 2013  07 41  -21.0470 26022.7 -03426.3 -07.5007 26247.3
 28 03 2013  07 42  -21.0469 26022.4 -03426.2 -07.5005 26247.0
 28 03 2013  07 43  -21.0471 26022.3 -03426.1 -07.5005 26246.8
 28 03 2013  07 44  -21.0472 26022.1 -03426.1 -07.5005 26246.7
 28 03 2013  07 45  -21.0474 26022.1 -03426.2 -07.5007 26246.7
 28 03 2013  07 46  -21.0478 26022.4 -03426.4 -07.5011 26247.0
 28 03 2013  07 47  -21.0479 26022.8 -03426.7 -07.5015 26247.4
 28 03 2013  07 48  -21.0479 26023.0 -03426.9 -07.5019 26247.7
 28 03 2013  07 49  -21.0483 26023.5 -03427.1 -07.5023 26248.2
 28 03 2013  07 50  -21.0484 26023.6 -03427.2 -07.5024 26248.3
 28 03 2013  07 51  -21.0485 26023.7 -03427.2 -07.5024 26248.4
 28 03 2013  07 52  -21.0486 26023.9 -03427.3 -07.5025 26248.7
 28 03 2013  07 53  -21.0489 26024.2 -03427.3 -07.5026 26248.9
 28 03 2013  07 54  -21.0491 26024.4 -03427.4 -07.5027 26249.1
 28 03 2013  07 55  -21.0493 26024.4 -03427.4 -07.5026 26249.2
 28 03 2013  07 56  -21.0494 26024.6 -03427.4 -07.5025 26249.3
 28 03 2013  07 57  -21.0495 26024.8 -03427.4 -07.5026 26249.5
 28 03 2013  07 58  -21.0496 26024.9 -03427.4 -07.5025 26249.6
 28 03 2013  07 59  -21.0496 26025.2 -03427.5 -07.5026 26249.9
 28 03 2013  08 00  -21.0495 26025.2 -03427.5 -07.5025 26249.9
 28 03 2013  08 01  -21.0495 26025.1 -03427.3 -07.5023 26249.8
 28 03 2013  08 02  -21.0495 26024.9 -03427.2 -07.5021 26249.6
 28 03 2013  08 03  -21.0493 26024.7 -03427.0 -07.5018 26249.4
 28 03 2013  08 04  -21.0488 26024.5 -03426.9 -07.5015 26249.2
 28 03 2013  08 05  -21.0482 26024.5 -03426.8 -07.5014 26249.1
 28 03 2013  08 06  -21.0476 26024.4 -03426.8 -07.5013 26249.1
 28 03 2013  08 07  -21.0473 26024.4 -03426.9 -07.5015 26249.1
 28 03 2013  08 08  -21.0471 26024.4 -03426.9 -07.5015 26249.0
 28 03 2013  08 09  -21.0467 26024.4 -03426.9 -07.5015 26249.0
 28 03 2013  08 10  -21.0463 26024.4 -03427.0 -07.5017 26249.1
 28 03 2013  08 11  -21.0461 26024.5 -03427.0 -07.5018 26249.1
 28 03 2013  08 12  -21.0458 26024.4 -03427.0 -07.5018 26249.1
 28 03 2013  08 13  -21.0456 26024.4 -03427.1 -07.5019 26249.1
 28 03 2013  08 14  -21.0454 26024.3 -03427.1 -07.5019 26249.0
 28 03 2013  08 15  -21.0451 26024.3 -03427.1 -07.5019 26249.0
 28 03 2013  08 16  -21.0448 26024.2 -03427.1 -07.5020 26248.9
 28 03 2013  08 17  -21.0447 26024.2 -03427.1 -07.5021 26248.9
 28 03 2013  08 18  -21.0447 26024.2 -03427.2 -07.5022 26248.9
 28 03 2013  08 19  -21.0447 26024.2 -03427.3 -07.5024 26248.9
 28 03 2013  08 20  -21.0446 26024.2 -03427.3 -07.5024 26248.9
 28 03 2013  08 21  -21.0444 26024.3 -03427.4 -07.5026 26249.1
 28 03 2013  08 22  -21.0442 26024.4 -03427.4 -07.5027 26249.1
 28 03 2013  08 23  -21.0442 26024.4 -03427.4 -07.5026 26249.1
 28 03 2013  08 24  -21.0441 26024.4 -03427.4 -07.5027 26249.1
 28 03 2013  08 25  -21.0442 26024.4 -03427.5 -07.5029 26249.1
 28 03 2013  08 26  -21.0444 26024.4 -03427.6 -07.5030 26249.2
 28 03 2013  08 27  -21.0446 26024.5 -03427.7 -07.5033 26249.3
 28 03 2013  08 28  -21.0447 26024.6 -03427.7 -07.5033 26249.3
 28 03 2013  08 29  -21.0447 26024.6 -03427.8 -07.5033 26249.4
 28 03 2013  08 30  -21.0449 26024.7 -03427.8 -07.5034 26249.5
 28 03 2013  08 31  -21.0452 26024.7 -03427.8 -07.5034 26249.4
 28 03 2013  08 32  -21.0455 26024.7 -03427.8 -07.5035 26249.5
 28 03 2013  08 33  -21.0457 26024.7 -03427.8 -07.5035 26249.5
 28 03 2013  08 34  -21.0458 26024.6 -03427.8 -07.5034 26249.4
 28 03 2013  08 35  -21.0460 26024.6 -03427.7 -07.5033 26249.4
 28 03 2013  08 36  -21.0461 26024.5 -03427.7 -07.5033 26249.3
 28 03 2013  08 37  -21.0462 26024.5 -03427.7 -07.5033 26249.2
 28 03 2013  08 38  -21.0464 26024.3 -03427.6 -07.5031 26249.1
 28 03 2013  08 39  -21.0465 26024.4 -03427.7 -07.5032 26249.1
 28 03 2013  08 40  -21.0464 26024.3 -03427.6 -07.5031 26249.1
 28 03 2013  08 41  -21.0462 26024.3 -03427.6 -07.5030 26249.0
 28 03 2013  08 42  -21.0459 26024.4 -03427.6 -07.5032 26249.1
 28 03 2013  08 43  -21.0458 26024.5 -03427.7 -07.5033 26249.2
 28 03 2013  08 44  -21.0457 26024.4 -03427.7 -07.5033 26249.2
 28 03 2013  08 45  -21.0454 26024.4 -03427.7 -07.5033 26249.2
 28 03 2013  08 46  -21.0451 26024.3 -03427.6 -07.5032 26249.1
 28 03 2013  08 47  -21.0448 26024.3 -03427.7 -07.5033 26249.1
 28 03 2013  08 48  -21.0448 26024.1 -03427.6 -07.5032 26248.9
 28 03 2013  08 49  -21.0444 26024.0 -03427.6 -07.5032 26248.7
 28 03 2013  08 50  -21.0442 26023.7 -03427.5 -07.5030 26248.4
 28 03 2013  08 51  -21.0442 26023.5 -03427.5 -07.5030 26248.3
 28 03 2013  08 52  -21.0438 26023.8 -03427.7 -07.5034 26248.6
 28 03 2013  08 53  -21.0434 26024.0 -03427.8 -07.5036 26248.8
 28 03 2013  08 54  -21.0430 26024.0 -03427.9 -07.5038 26248.8
 28 03 2013  08 55  -21.0426 26024.2 -03428.0 -07.5040 26249.0
 28 03 2013  08 56  -21.0422 26024.2 -03428.2 -07.5043 26249.0
 28 03 2013  08 57  -21.0418 26024.1 -03428.2 -07.5045 26249.0
 28 03 2013  08 58  -21.0417 26024.1 -03428.3 -07.5047 26248.9
 28 03 2013  08 59  -21.0418 26024.1 -03428.5 -07.5050 26249.0
 28 03 2013  09 00  -21.0421 26024.2 -03428.6 -07.5054 26249.0
 28 03 2013  09 01  -21.0426 26024.1 -03428.7 -07.5055 26249.0
 28 03 2013  09 02  -21.0429 26024.1 -03428.8 -07.5057 26249.0
 28 03 2013  09 03  -21.0434 26024.0 -03428.8 -07.5059 26248.9
 28 03 2013  09 04  -21.0436 26023.9 -03428.9 -07.5061 26248.9
 28 03 2013  09 05  -21.0443 26024.0 -03429.1 -07.5064 26249.0
 28 03 2013  09 06  -21.0448 26023.9 -03429.2 -07.5066 26248.8
 28 03 2013  09 07  -21.0448 26023.7 -03429.1 -07.5066 26248.6
 28 03 2013  09 08  -21.0444 26023.5 -03429.1 -07.5066 26248.5
 28 03 2013  09 09  -21.0449 26023.3 -03429.1 -07.5066 26248.3
 28 03 2013  09 10  -21.0455 26023.4 -03429.2 -07.5069 26248.4
 28 03 2013  09 11  -21.0458 26023.4 -03429.3 -07.5071 26248.4
 28 03 2013  09 12  -21.0456 26023.5 -03429.4 -07.5072 26248.5
 28 03 2013  09 13  -21.0458 26023.2 -03429.3 -07.5072 26248.2
 28 03 2013  09 14  -21.0457 26022.6 -03429.2 -07.5071 26247.6
 28 03 2013  09 15  -21.0453 26022.5 -03429.2 -07.5071 26247.5
 28 03 2013  09 16  -21.0449 26022.7 -03429.3 -07.5072 26247.6
 28 03 2013  09 17  -21.0450 26022.9 -03429.5 -07.5076 26247.9
 28 03 2013  09 18  -21.0445 26023.2 -03429.7 -07.5080 26248.2
 28 03 2013  09 19  -21.0441 26023.3 -03429.9 -07.5083 26248.4
 28 03 2013  09 20  -21.0439 26023.3 -03430.0 -07.5085 26248.4
 28 03 2013  09 21  -21.0446 26023.2 -03430.0 -07.5087 26248.3
 28 03 2013  09 22  -21.0464 26023.4 -03430.2 -07.5090 26248.5
 28 03 2013  09 23  -21.0482 26023.9 -03430.5 -07.5095 26249.1
 28 03 2013  09 24  -21.0493 26023.9 -03430.5 -07.5095 26249.1
 28 03 2013  09 25  -21.0504 26023.6 -03430.4 -07.5093 26248.7
 28 03 2013  09 26  -21.0507 26023.5 -03430.3 -07.5092 26248.6
 28 03 2013  09 27  -21.0511 26023.3 -03430.3 -07.5092 26248.4
 28 03 2013  09 28  -21.0513 26022.9 -03430.2 -07.5091 26248.0
 28 03 2013  09 29  -21.0514 26022.6 -03430.2 -07.5091 26247.7
 28 03 2013  09 30  -21.0513 26022.3 -03430.0 -07.5089 26247.3
 28 03 2013  09 31  -21.0513 26022.4 -03430.1 -07.5090 26247.5
 28 03 2013  09 32  -21.0508 26022.4 -03430.2 -07.5092 26247.5
 28 03 2013  09 33  -21.0506 26022.4 -03430.3 -07.5094 26247.5
 28 03 2013  09 34  -21.0514 26022.2 -03430.3 -07.5095 26247.3
 28 03 2013  09 35  -21.0519 26022.3 -03430.4 -07.5098 26247.4
 28 03 2013  09 36  -21.0524 26022.3 -03430.5 -07.5099 26247.5
 28 03 2013  09 37  -21.0525 26022.4 -03430.6 -07.5101 26247.5
 28 03 2013  09 38  -21.0525 26022.3 -03430.7 -07.5103 26247.5
 28 03 2013  09 39  -21.0524 26022.2 -03430.6 -07.5102 26247.3
 28 03 2013  09 40  -21.0534 26022.2 -03430.7 -07.5105 26247.3
 28 03 2013  09 41  -21.0542 26022.2 -03430.9 -07.5107 26247.4
 28 03 2013  09 42  -21.0539 26022.2 -03430.9 -07.5108 26247.4
 28 03 2013  09 43  -21.0541 26022.2 -03430.9 -07.5109 26247.4
 28 03 2013  09 44  -21.0540 26021.9 -03430.9 -07.5109 26247.1
 28 03 2013  09 45  -21.0543 26022.0 -03431.1 -07.5113 26247.3
 28 03 2013  09 46  -21.0545 26022.2 -03431.3 -07.5116 26247.5
 28 03 2013  09 47  -21.0542 26022.3 -03431.3 -07.5118 26247.5
 28 03 2013  09 48  -21.0542 26022.6 -03431.5 -07.5120 26247.8
 28 03 2013  09 49  -21.0548 26022.9 -03431.7 -07.5123 26248.2
 28 03 2013  09 50  -21.0552 26023.1 -03431.8 -07.5124 26248.4
 28 03 2013  09 51  -21.0547 26023.1 -03431.8 -07.5124 26248.4
 28 03 2013  09 52  -21.0545 26022.8 -03431.7 -07.5123 26248.1
 28 03 2013  09 53  -21.0548 26023.1 -03431.8 -07.5125 26248.4
 28 03 2013  09 54  -21.0549 26023.2 -03431.8 -07.5126 26248.5
 28 03 2013  09 55  -21.0555 26023.6 -03432.0 -07.5129 26248.9
 28 03 2013  09 56  -21.0556 26023.6 -03432.0 -07.5129 26248.9
 28 03 2013  09 57  -21.0562 26023.6 -03432.1 -07.5129 26248.9
 28 03 2013  09 58  -21.0566 26023.9 -03432.2 -07.5132 26249.2
 28 03 2013  09 59  -21.0565 26024.1 -03432.3 -07.5134 26249.5
 28 03 2013  10 00  -21.0569 26024.5 -03432.5 -07.5136 26249.8
 28 03 2013  10 01  -21.0578 26024.8 -03432.6 -07.5139 26250.2
 28 03 2013  10 02  -21.0577 26024.9 -03432.6 -07.5137 26250.3
 28 03 2013  10 03  -21.0588 26025.0 -03432.6 -07.5137 26250.4
 28 03 2013  10 04  -21.0588 26025.0 -03432.6 -07.5136 26250.4
 28 03 2013  10 05  -21.0589 26025.1 -03432.5 -07.5135 26250.5
 28 03 2013  10 06  -21.0590 26025.4 -03432.6 -07.5136 26250.8
 28 03 2013  10 07  -21.0591 26025.6 -03432.6 -07.5135 26251.0
 28 03 2013  10 08  -21.0595 26025.9 -03432.7 -07.5137 26251.3
 28 03 2013  10 09  -21.0596 26026.2 -03432.8 -07.5138 26251.6
 28 03 2013  10 10  -21.0604 26026.5 -03432.9 -07.5139 26251.9
 28 03 2013  10 11  -21.0608 26026.7 -03432.9 -07.5140 26252.1
 28 03 2013  10 12  -21.0606 26026.8 -03432.9 -07.5137 26252.2
 28 03 2013  10 13  -21.0615 26026.8 -03432.8 -07.5137 26252.2
 28 03 2013  10 14  -21.0613 26026.9 -03432.8 -07.5136 26252.3
 28 03 2013  10 15  -21.0622 26027.0 -03432.8 -07.5137 26252.4
 28 03 2013  10 16  -21.0627 26027.2 -03432.9 -07.5137 26252.6
 28 03 2013  10 17  -21.0625 26027.1 -03432.8 -07.5135 26252.5
 28 03 2013  10 18  -21.0629 26027.2 -03432.8 -07.5135 26252.6
 28 03 2013  10 19  -21.0637 26027.5 -03432.9 -07.5137 26252.9
 28 03 2013  10 20  -21.0644 26027.7 -03433.0 -07.5138 26253.1
 28 03 2013  10 21  -21.0646 26027.8 -03433.0 -07.5138 26253.3
 28 03 2013  10 22  -21.0647 26027.9 -03433.0 -07.5138 26253.3
 28 03 2013  10 23  -21.0648 26027.9 -03433.0 -07.5137 26253.3
 28 03 2013  10 24  -21.0658 26028.2 -03433.0 -07.5137 26253.6
 28 03 2013  10 25  -21.0669 26028.6 -03433.1 -07.5138 26254.0
 28 03 2013  10 26  -21.0678 26028.7 -03433.1 -07.5137 26254.2
 28 03 2013  10 27  -21.0683 26028.9 -03433.1 -07.5136 26254.4
 28 03 2013  10 28  -21.0680 26029.1 -03433.0 -07.5134 26254.5
 28 03 2013  10 29  -21.0685 26029.3 -03433.0 -07.5133 26254.7
 28 03 2013  10 30  -21.0685 26029.5 -03432.9 -07.5132 26254.9
 28 03 2013  10 31  -21.0677 26029.3 -03432.7 -07.5128 26254.7
 28 03 2013  10 32  -21.0670 26029.2 -03432.5 -07.5124 26254.5
 28 03 2013  10 33  -21.0671 26029.7 -03432.6 -07.5125 26255.0
 28 03 2013  10 34  -21.0678 26030.0 -03432.7 -07.5126 26255.4
 28 03 2013  10 35  -21.0682 26030.5 -03432.8 -07.5126 26255.8
 28 03 2013  10 36  -21.0689 26030.8 -03432.8 -07.5125 26256.2
 28 03 2013  10 37  -21.0694 26031.0 -03432.8 -07.5123 26256.4
 28 03 2013  10 38  -21.0696 26031.2 -03432.7 -07.5121 26256.5
 28 03 2013  10 39  -21.0694 26031.0 -03432.5 -07.5117 26256.4
 28 03 2013  10 40  -21.0693 26030.9 -03432.3 -07.5114 26256.2
 28 03 2013  10 41  -21.0691 26031.1 -03432.4 -07.5115 26256.5
 28 03 2013  10 42  -21.0688 26031.9 -03432.6 -07.5117 26257.2
 28 03 2013  10 43  -21.0693 26032.3 -03432.6 -07.5117 26257.7
 28 03 2013  10 44  -21.0694 26032.6 -03432.6 -07.5116 26258.0
 28 03 2013  10 45  -21.0694 26033.0 -03432.6 -07.5115 26258.3
 28 03 2013  10 46  -21.0702 26033.2 -03432.6 -07.5113 26258.5
 28 03 2013  10 47  -21.0707 26033.2 -03432.4 -07.5110 26258.5
 28 03 2013  10 48  -21.0707 26033.1 -03432.2 -07.5106 26258.4
 28 03 2013  10 49  -21.0709 26033.3 -03432.2 -07.5104 26258.6
 28 03 2013  10 50  -21.0712 26033.7 -03432.2 -07.5104 26258.9
 28 03 2013  10 51  -21.0714 26033.8 -03432.1 -07.5102 26259.1
 28 03 2013  10 52  -21.0717 26034.2 -03432.1 -07.5101 26259.4
 28 03 2013  10 53  -21.0720 26034.4 -03432.1 -07.5099 26259.7
 28 03 2013  10 54  -21.0722 26034.5 -03431.9 -07.5096 26259.7
 28 03 2013  10 55  -21.0722 26034.7 -03431.9 -07.5094 26259.9
 28 03 2013  10 56  -21.0728 26035.2 -03431.9 -07.5093 26260.4
 28 03 2013  10 57  -21.0728 26035.3 -03431.8 -07.5090 26260.5
 28 03 2013  10 58  -21.0735 26035.7 -03431.8 -07.5089 26260.9
 28 03 2013  10 59  -21.0745 26035.6 -03431.6 -07.5085 26260.8
 28 03 2013  11 00  -21.0745 26035.5 -03431.4 -07.5080 26260.6
 28 03 2013  11 01  -21.0743 26035.6 -03431.3 -07.5078 26260.8
 28 03 2013  11 02  -21.0741 26036.3 -03431.4 -07.5079 26261.5
 28 03 2013  11 03  -21.0745 26036.8 -03431.4 -07.5078 26261.9
 28 03 2013  11 04  -21.0749 26037.2 -03431.4 -07.5076 26262.3
 28 03 2013  11 05  -21.0747 26037.6 -03431.3 -07.5072 26262.7
 28 03 2013  11 06  -21.0747 26038.1 -03431.2 -07.5070 26263.2
 28 03 2013  11 07  -21.0747 26038.2 -03430.9 -07.5063 26263.3
 28 03 2013  11 08  -21.0750 26038.2 -03430.6 -07.5057 26263.3
 28 03 2013  11 09  -21.0754 26038.3 -03430.4 -07.5051 26263.3
 28 03 2013  11 10  -21.0755 26038.5 -03430.2 -07.5046 26263.5
 28 03 2013  11 11  -21.0760 26038.5 -03429.9 -07.5040 26263.4
 28 03 2013  11 12  -21.0767 26038.2 -03429.6 -07.5034 26263.1
 28 03 2013  11 13  -21.0780 26038.1 -03429.4 -07.5031 26263.0
 28 03 2013  11 14  -21.0788 26038.0 -03429.3 -07.5029 26262.9
 28 03 2013  11 15  -21.0793 26038.0 -03429.3 -07.5028 26262.8
 28 03 2013  11 16  -21.0793 26038.7 -03429.6 -07.5033 26263.6
 28 03 2013  11 17  -21.0789 26039.4 -03429.9 -07.5038 26264.3
 28 03 2013  11 18  -21.0789 26040.2 -03430.2 -07.5043 26265.1
 28 03 2013  11 19  -21.0792 26040.6 -03430.3 -07.5044 26265.6
 28 03 2013  11 20  -21.0788 26040.8 -03430.2 -07.5041 26265.7
 28 03 2013  11 21  -21.0785 26041.2 -03430.2 -07.5040 26266.2
 28 03 2013  11 22  -21.0789 26041.7 -03430.3 -07.5039 26266.7
 28 03 2013  11 23  -21.0792 26041.8 -03430.1 -07.5036 26266.7
 28 03 2013  11 24  -21.0792 26041.7 -03429.8 -07.5029 26266.6
 28 03 2013  11 25  -21.0790 26041.8 -03429.7 -07.5026 26266.6
 28 03 2013  11 26  -21.0792 26042.1 -03429.7 -07.5025 26267.0
 28 03 2013  11 27  -21.0793 26042.8 -03429.9 -07.5027 26267.7
 28 03 2013  11 28  -21.0793 26043.5 -03430.0 -07.5027 26268.4
 28 03 2013  11 29  -21.0793 26044.1 -03430.0 -07.5027 26269.0
 28 03 2013  11 30  -21.0792 26044.7 -03430.0 -07.5026 26269.6
 28 03 2013  11 31  -21.0790 26045.4 -03430.1 -07.5025 26270.3
 28 03 2013  11 32  -21.0786 26046.0 -03430.1 -07.5023 26270.9
 28 03 2013  11 33  -21.0785 26046.3 -03429.9 -07.5018 26271.2
 28 03 2013  11 34  -21.0788 26046.4 -03429.7 -07.5012 26271.3
 28 03 2013  11 35  -21.0795 26046.5 -03429.4 -07.5006 26271.3
 28 03 2013  11 36  -21.0803 26046.9 -03429.3 -07.5004 26271.6
 28 03 2013  11 37  -21.0809 26047.2 -03429.3 -07.5001 26272.0
 28 03 2013  11 38  -21.0814 26047.7 -03429.2 -07.4999 26272.4
 28 03 2013  11 39  -21.0820 26048.2 -03429.2 -07.4996 26272.9
 28 03 2013  11 40  -21.0822 26048.6 -03429.1 -07.4993 26273.4
 28 03 2013  11 41  -21.0825 26049.3 -03429.0 -07.4990 26274.0
 28 03 2013  11 42  -21.0827 26049.6 -03428.8 -07.4986 26274.3
 28 03 2013  11 43  -21.0830 26049.9 -03428.7 -07.4981 26274.6
 28 03 2013  11 44  -21.0834 26050.2 -03428.5 -07.4976 26274.8
 28 03 2013  11 45  -21.0835 26050.5 -03428.2 -07.4970 26275.1
 28 03 2013  11 46  -21.0837 26050.6 -03428.0 -07.4965 26275.2
 28 03 2013  11 47  -21.0836 26050.6 -03427.7 -07.4958 26275.1
 28 03 2013  11 48  -21.0835 26051.1 -03427.6 -07.4954 26275.6
 28 03 2013  11 49  -21.0838 26051.5 -03427.5 -07.4951 26276.0
 28 03 2013  11 50  -21.0844 26051.7 -03427.3 -07.4946 26276.2
 28 03 2013  11 51  -21.0847 26051.9 -03427.0 -07.4940 26276.3
 28 03 2013  11 52  -21.0851 26051.9 -03426.8 -07.4935 26276.3
 28 03 2013  11 53  -21.0849 26052.3 -03426.7 -07.4932 26276.7
 28 03 2013  11 54  -21.0848 26052.7 -03426.6 -07.4929 26277.1
 28 03 2013  11 55  -21.0848 26053.0 -03426.5 -07.4925 26277.3
 28 03 2013  11 56  -21.0849 26053.3 -03426.3 -07.4921 26277.6
 28 03 2013  11 57  -21.0851 26053.8 -03426.2 -07.4917 26278.1
 28 03 2013  11 58  -21.0852 26054.5 -03426.2 -07.4914 26278.8
 28 03 2013  11 59  -21.0852 26054.9 -03426.0 -07.4910 26279.2
 28 03 2013  12 00  -21.0855 26055.2 -03425.8 -07.4904 26279.4
 28 03 2013  12 01  -21.0857 26055.8 -03425.7 -07.4901 26280.0
 28 03 2013  12 02  -21.0859 26056.6 -03425.7 -07.4897 26280.8
 28 03 2013  12 03  -21.0859 26057.2 -03425.5 -07.4892 26281.4
 28 03 2013  12 04  -21.0859 26057.5 -03425.2 -07.4883 26281.7
 28 03 2013  12 05  -21.0860 26057.5 -03424.7 -07.4874 26281.6
 28 03 2013  12 06  -21.0863 26057.5 -03424.3 -07.4864 26281.5
 28 03 2013  12 07  -21.0863 26057.5 -03423.9 -07.4856 26281.5
 28 03 2013  12 08  -21.0864 26057.6 -03423.6 -07.4849 26281.6
 28 03 2013  12 09  -21.0864 26057.9 -03423.4 -07.4844 26281.8
 28 03 2013  12 10  -21.0864 26058.3 -03423.3 -07.4841 26282.2
 28 03 2013  12 11  -21.0861 26058.6 -03423.1 -07.4837 26282.4
 28 03 2013  12 12  -21.0855 26058.9 -03423.0 -07.4832 26282.8
 28 03 2013  12 13  -21.0850 26059.8 -03423.0 -07.4831 26283.6
 28 03 2013  12 14  -21.0848 26060.4 -03422.9 -07.4828 26284.2
 28 03 2013  12 15  -21.0846 26060.7 -03422.8 -07.4823 26284.5
 28 03 2013  12 16  -21.0844 26060.7 -03422.4 -07.4815 26284.5
 28 03 2013  12 17  -21.0840 26060.9 -03422.2 -07.4810 26284.7
 28 03 2013  12 18  -21.0836 26061.2 -03422.0 -07.4806 26284.9
 28 03 2013  12 19  -21.0832 26061.2 -03421.8 -07.4801 26284.9
 28 03 2013  12 20  -21.0829 26061.2 -03421.6 -07.4797 26284.8
 28 03 2013  12 21  -21.0823 26061.2 -03421.5 -07.4794 26284.9
 28 03 2013  12 22  -21.0818 26061.6 -03421.5 -07.4793 26285.3
 28 03 2013  12 23  -21.0817 26062.3 -03421.7 -07.4796 26285.9
 28 03 2013  12 24  -21.0817 26062.6 -03421.7 -07.4795 26286.2
 28 03 2013  12 25  -21.0818 26063.0 -03421.8 -07.4796 26286.7
 28 03 2013  12 26  -21.0821 26063.3 -03421.9 -07.4796 26287.0
 28 03 2013  12 27  -21.0824 26063.9 -03421.9 -07.4796 26287.6
 28 03 2013  12 28  -21.0824 26064.4 -03421.9 -07.4795 26288.1
 28 03 2013  12 29  -21.0823 26064.9 -03422.0 -07.4793 26288.6
 28 03 2013  12 30  -21.0821 26065.2 -03421.9 -07.4791 26288.9
 28 03 2013  12 31  -21.0821 26065.5 -03421.8 -07.4788 26289.1
 28 03 2013  12 32  -21.0821 26065.4 -03421.6 -07.4784 26289.0
 28 03 2013  12 33  -21.0819 26065.4 -03421.4 -07.4781 26289.0
 28 03 2013  12 34  -21.0818 26065.4 -03421.3 -07.4779 26289.0
 28 03 2013  12 35  -21.0815 26065.7 -03421.4 -07.4779 26289.3
 28 03 2013  12 36  -21.0814 26066.0 -03421.4 -07.4779 26289.5
 28 03 2013  12 37  -21.0813 26066.1 -03421.4 -07.4778 26289.7
 28 03 2013  12 38  -21.0813 26066.1 -03421.4 -07.4777 26289.7
 28 03 2013  12 39  -21.0813 26066.4 -03421.5 -07.4779 26290.0
 28 03 2013  12 40  -21.0815 26066.7 -03421.6 -07.4780 26290.3
 28 03 2013  12 41  -21.0817 26066.9 -03421.6 -07.4780 26290.6
 28 03 2013  12 42  -21.0818 26067.4 -03421.8 -07.4782 26291.1
 28 03 2013  12 43  -21.0819 26067.8 -03421.8 -07.4783 26291.4
 28 03 2013  12 44  -21.0821 26068.2 -03421.9 -07.4784 26291.8
 28 03 2013  12 45  -21.0825 26068.4 -03422.0 -07.4784 26292.1
 28 03 2013  12 46  -21.0830 26068.6 -03421.9 -07.4783 26292.2
 28 03 2013  12 47  -21.0835 26068.8 -03421.9 -07.4782 26292.4
 28 03 2013  12 48  -21.0840 26069.2 -03422.0 -07.4783 26292.9
 28 03 2013  12 49  -21.0844 26069.5 -03422.1 -07.4782 26293.2
 28 03 2013  12 50  -21.0845 26069.8 -03422.0 -07.4781 26293.4
 28 03 2013  12 51  -21.0845 26070.0 -03422.0 -07.4780 26293.6
 28 03 2013  12 52  -21.0847 26070.2 -03422.0 -07.4779 26293.8
 28 03 2013  12 53  -21.0848 26070.3 -03422.0 -07.4779 26293.9
 28 03 2013  12 54  -21.0849 26070.5 -03422.0 -07.4779 26294.2
 28 03 2013  12 55  -21.0850 26071.0 -03422.2 -07.4781 26294.7
 28 03 2013  12 56  -21.0853 26071.3 -03422.2 -07.4781 26294.9
 28 03 2013  12 57  -21.0859 26071.7 -03422.3 -07.4782 26295.3
 28 03 2013  12 58  -21.0863 26072.3 -03422.5 -07.4784 26296.0
 28 03 2013  12 59  -21.0867 26072.6 -03422.4 -07.4782 26296.2
 28 03 2013  13 00  -21.0868 26072.8 -03422.4 -07.4781 26296.4
 28 03 2013  13 01  -21.0870 26072.8 -03422.3 -07.4779 26296.5
 28 03 2013  13 02  -21.0872 26072.9 -03422.3 -07.4778 26296.6
 28 03 2013  13 03  -21.0873 26072.7 -03422.2 -07.4776 26296.4
 28 03 2013  13 04  -21.0876 26072.8 -03422.1 -07.4775 26296.4
 28 03 2013  13 05  -21.0901 26073.0 -03422.1 -07.4773 26296.6
 28 03 2013  13 06  -21.0973 26073.4 -03422.0 -07.4770 26297.0
 28 03 2013  13 07  -21.0977 26073.6 -03422.1 -07.4771 26297.2
 28 03 2013  13 08  -21.0979 26073.8 -03422.1 -07.4770 26297.4
 28 03 2013  13 09  -21.0979 26073.7 -03422.0 -07.4769 26297.3
 28 03 2013  13 10  -21.0979 26073.6 -03421.9 -07.4768 26297.1
 28 03 2013  13 11  -21.0979 26073.6 -03421.9 -07.4767 26297.2
 28 03 2013  13 12  -21.0982 26073.8 -03422.0 -07.4769 26297.4
 28 03 2013  13 13  -21.0986 26074.2 -03422.1 -07.4770 26297.8
 28 03 2013  13 14  -21.0992 26074.5 -03422.2 -07.4771 26298.1
 28 03 2013  13 15  -21.0995 26074.7 -03422.1 -07.4770 26298.3
 28 03 2013  13 16  -21.0997 26074.6 -03422.0 -07.4766 26298.2
 28 03 2013  13 17  -21.0998 26074.5 -03421.9 -07.4764 26298.1
 28 03 2013  13 18  -21.0999 26074.6 -03421.8 -07.4764 26298.2
 28 03 2013  13 19  -21.1005 26074.7 -03421.9 -07.4764 26298.3
 28 03 2013  13 20  -21.1010 26074.6 -03421.7 -07.4761 26298.2
 28 03 2013  13 21  -21.1013 26075.0 -03421.8 -07.4761 26298.5
 28 03 2013  13 22  -21.1018 26075.0 -03421.8 -07.4761 26298.5
 28 03 2013  13 23  -21.1019 26075.0 -03421.7 -07.4759 26298.5
 28 03 2013  13 24  -21.1021 26075.1 -03421.7 -07.4759 26298.6
 28 03 2013  13 25  -21.1022 26075.3 -03421.7 -07.4759 26298.9
 28 03 2013  13 26  -21.1023 26075.7 -03421.7 -07.4758 26299.3
 28 03 2013  13 27  -21.1019 26075.7 -03421.6 -07.4754 26299.2
 28 03 2013  13 28  -21.1016 26075.0 -03421.2 -07.4749 26298.5
 28 03 2013  13 29  -21.1011 26074.5 -03420.9 -07.4744 26297.9
 28 03 2013  13 30  -21.1006 26074.4 -03421.0 -07.4745 26297.9
 28 03 2013  13 31  -21.1002 26074.4 -03421.0 -07.4745 26297.9
 28 03 2013  13 32  -21.0998 26075.0 -03421.3 -07.4749 26298.5
 28 03 2013  13 33  -21.0995 26075.4 -03421.4 -07.4751 26298.9
 28 03 2013  13 34  -21.0998 26075.6 -03421.4 -07.4751 26299.1
 28 03 2013  13 35  -21.1003 26076.0 -03421.5 -07.4752 26299.5
 28 03 2013  13 36  -21.1009 26076.5 -03421.6 -07.4752 26300.0
 28 03 2013  13 37  -21.1012 26077.2 -03421.7 -07.4752 26300.7
 28 03 2013  13 38  -21.1016 26078.0 -03421.8 -07.4752 26301.5
 28 03 2013  13 39  -21.1019 26078.4 -03421.6 -07.4748 26301.9
 28 03 2013  13 40  -21.1021 26078.9 -03421.6 -07.4745 26302.3
 28 03 2013  13 41  -21.1024 26079.3 -03421.5 -07.4742 26302.8
 28 03 2013  13 42  -21.1024 26079.5 -03421.3 -07.4737 26303.0
 28 03 2013  13 43  -21.1024 26079.4 -03421.0 -07.4731 26302.8
 28 03 2013  13 44  -21.1021 26079.3 -03420.7 -07.4725 26302.7
 28 03 2013  13 45  -21.1017 26079.2 -03420.5 -07.4721 26302.5
 28 03 2013  13 46  -21.1015 26079.2 -03420.3 -07.4718 26302.6
 28 03 2013  13 47  -21.1017 26079.8 -03420.4 -07.4718 26303.1
 28 03 2013  13 48  -21.1021 26080.3 -03420.5 -07.4717 26303.7
 28 03 2013  13 49  -21.1024 26080.5 -03420.3 -07.4714 26303.8
 28 03 2013  13 50  -21.1024 26080.4 -03417.6 -07.4656 26303.3
 28 03 2013  13 51  -21.1026 26081.3 -03416.8 -07.4635 26304.2
 28 03 2013  13 52  -21.1026 26081.1 -03416.5 -07.4629 26304.0
 28 03 2013  13 53  -21.1023 26081.0 -03418.6 -07.4675 26304.1
 28 03 2013  13 54  -21.1021 26081.3 -03418.0 -07.4661 26304.3
 28 03 2013  13 55  -21.1020 26082.2 -03417.8 -07.4655 26305.2
 28 03 2013  13 56  -21.1021 26082.2 -03417.7 -07.4652 26305.1
 28 03 2013  13 57  -21.1023 26082.0 -03417.4 -07.4647 26305.0
 28 03 2013  13 58  -21.1022 26081.9 -03417.3 -07.4645 26304.8
 28 03 2013  13 59  -21.1020 26081.9 -03417.2 -07.4642 26304.8
 28 03 2013  14 00  -21.1016 26081.8 -03417.1 -07.4640 26304.7
 28 03 2013  14 01  -21.1012 26082.2 -03417.0 -07.4638 26305.1
 28 03 2013  14 02  -21.1008 26082.4 -03417.0 -07.4636 26305.2
 28 03 2013  14 03  -21.1006 26082.6 -03417.0 -07.4635 26305.4
 28 03 2013  14 04  -21.1003 26082.5 -03416.8 -07.4631 26305.3
 28 03 2013  14 05  -21.1000 26082.4 -03416.5 -07.4626 26305.3
 28 03 2013  14 06  -21.0998 26082.5 -03416.4 -07.4624 26305.3
 28 03 2013  14 07  -21.0999 26082.6 -03416.3 -07.4621 26305.4
 28 03 2013  14 08  -21.0997 26082.7 -03416.2 -07.4618 26305.5
 28 03 2013  14 09  -21.0999 26083.2 -03416.2 -07.4618 26306.0
 28 03 2013  14 10  -21.1000 26083.6 -03416.2 -07.4616 26306.3
 28 03 2013  14 11  -21.0997 26083.8 -03416.1 -07.4613 26306.6
 28 03 2013  14 12  -21.0994 26083.9 -03416.0 -07.4610 26306.7
 28 03 2013  14 13  -21.0991 26084.0 -03415.7 -07.4605 26306.6
 28 03 2013  14 14  -21.0988 26084.4 -03415.7 -07.4602 26307.1
 28 03 2013  14 15  -21.0983 26085.2 -03415.6 -07.4600 26307.8
 28 03 2013  14 16  -21.0978 26085.6 -03415.6 -07.4598 26308.3
 28 03 2013  14 17  -21.0974 26086.0 -03415.5 -07.4595 26308.6
 28 03 2013  14 18  -21.0971 26086.4 -03415.4 -07.4592 26309.0
 28 03 2013  14 19  -21.0964 26086.3 -03415.1 -07.4585 26308.9
 28 03 2013  14 20  -21.0955 26086.0 -03414.8 -07.4580 26308.6
 28 03 2013  14 21  -21.0945 26086.1 -03414.7 -07.4576 26308.6
 28 03 2013  14 22  -21.0935 26086.3 -03414.6 -07.4575 26308.9
 28 03 2013  14 23  -21.0928 26086.6 -03414.6 -07.4573 26309.2
 28 03 2013  14 24  -21.0924 26086.8 -03414.5 -07.4570 26309.3
 28 03 2013  14 25  -21.0918 26086.7 -03414.4 -07.4567 26309.2
 28 03 2013  14 26  -21.0911 26086.6 -03414.1 -07.4563 26309.1
 28 03 2013  14 27  -21.0904 26086.4 -03414.0 -07.4560 26308.9
 28 03 2013  14 28  -21.0897 26086.7 -03413.9 -07.4558 26309.1
 28 03 2013  14 29  -21.0891 26086.9 -03413.9 -07.4558 26309.3
 28 03 2013  14 30  -21.0886 26087.3 -03414.0 -07.4558 26309.7
 28 03 2013  14 31  -21.0884 26087.5 -03414.1 -07.4559 26310.0
 28 03 2013  14 32  -21.0882 26087.5 -03414.0 -07.4557 26309.9
 28 03 2013  14 33  -21.0876 26087.0 -03413.8 -07.4554 26309.5
 28 03 2013  14 34  -21.0867 26086.7 -03413.6 -07.4551 26309.1
 28 03 2013  14 35  -21.0855 26086.3 -03413.5 -07.4550 26308.6
 28 03 2013  14 36  -21.0846 26086.2 -03413.6 -07.4552 26308.6
 28 03 2013  14 37  -21.0837 26086.2 -03413.7 -07.4554 26308.7
 28 03 2013  14 38  -21.0830 26086.3 -03413.8 -07.4557 26308.7
 28 03 2013  14 39  -21.0827 26086.6 -03414.1 -07.4562 26309.1
 28 03 2013  14 40  -21.0825 26087.0 -03414.3 -07.4565 26309.5
 28 03 2013  14 41  -21.0821 26087.3 -03414.4 -07.4567 26309.8
 28 03 2013  14 42  -21.0817 26087.8 -03414.6 -07.4570 26310.4
 28 03 2013  14 43  -21.0782 26087.9 -03414.7 -07.4571 26310.4
 28 03 2013  14 44  -21.0724 26088.6 -03415.2 -07.4581 26311.1
 28 03 2013  14 45  -21.0724 26089.0 -03415.4 -07.4583 26311.6
 28 03 2013  14 46  -21.0725 26089.5 -03415.5 -07.4585 26312.1
 28 03 2013  14 47  -21.0726 26089.8 -03415.5 -07.4584 26312.5
 28 03 2013  14 48  -21.0722 26089.7 -03415.3 -07.4580 26312.3
 28 03 2013  14 49  -21.0721 26089.8 -03415.3 -07.4578 26312.4
 28 03 2013  14 50  -21.0720 26089.8 -03415.1 -07.4575 26312.4
 28 03 2013  14 51  -21.0709 26089.2 -03414.8 -07.4570 26311.7
 28 03 2013  14 52  -21.0699 26088.7 -03414.6 -07.4566 26311.2
 28 03 2013  14 53  -21.0689 26088.6 -03414.6 -07.4567 26311.1
 28 03 2013  14 54  -21.0688 26089.0 -03414.9 -07.4573 26311.6
 28 03 2013  14 55  -21.0682 26089.1 -03415.0 -07.4574 26311.6
 28 03 2013  14 56  -21.0679 26089.7 -03415.3 -07.4579 26312.3
 28 03 2013  14 57  -21.0682 26090.4 -03415.7 -07.4586 26313.0
 28 03 2013  14 58  -21.0685 26090.8 -03415.8 -07.4587 26313.4
 28 03 2013  14 59  -21.0685 26090.2 -03415.4 -07.4580 26312.8
 28 03 2013  15 00  -21.0679 26089.7 -03415.1 -07.4574 26312.2
 28 03 2013  15 01  -21.0678 26089.4 -03414.8 -07.4570 26312.0
 28 03 2013  15 02  -21.0675 26088.8 -03414.5 -07.4565 26311.3
 28 03 2013  15 03  -21.0670 26088.4 -03414.3 -07.4562 26310.9
 28 03 2013  15 04  -21.0662 26087.9 -03414.2 -07.4560 26310.4
 28 03 2013  15 05  -21.0651 26087.9 -03414.2 -07.4561 26310.3
 28 03 2013  15 06  -21.0642 26087.5 -03414.1 -07.4559 26310.0
 28 03 2013  15 07  -21.0640 26087.2 -03414.1 -07.4560 26309.6
 28 03 2013  15 08  -21.0640 26087.3 -03414.2 -07.4562 26309.7
 28 03 2013  15 09  -21.0630 26087.2 -03414.2 -07.4562 26309.6
 28 03 2013  15 10  -21.0629 26087.4 -03414.4 -07.4567 26309.9
 28 03 2013  15 11  -21.0624 26087.4 -03414.5 -07.4569 26309.9
 28 03 2013  15 12  -21.0620 26087.3 -03414.6 -07.4571 26309.9
 28 03 2013  15 13  -21.0614 26087.0 -03414.5 -07.4571 26309.5
 28 03 2013  15 14  -21.0609 26086.6 -03414.5 -07.4571 26309.1
 28 03 2013  15 15  -21.0600 26086.2 -03414.4 -07.4570 26308.7
 28 03 2013  15 16  -21.0591 26086.1 -03414.5 -07.4573 26308.6
 28 03 2013  15 17  -21.0583 26086.3 -03414.7 -07.4576 26308.9
 28 03 2013  15 18  -21.0575 26086.9 -03414.9 -07.4580 26309.4
 28 03 2013  15 19  -21.0568 26087.2 -03415.1 -07.4582 26309.8
 28 03 2013  15 20  -21.0562 26087.4 -03415.1 -07.4583 26310.0
 28 03 2013  15 21  -21.0556 26087.3 -03415.1 -07.4582 26309.9
 28 03 2013  15 22  -21.0548 26087.1 -03415.0 -07.4581 26309.7
 28 03 2013  15 23  -21.0544 26086.7 -03415.0 -07.4581 26309.3
 28 03 2013  15 24  -21.0538 26086.9 -03415.2 -07.4584 26309.5
 28 03 2013  15 25  -21.0531 26086.9 -03415.3 -07.4588 26309.6
 28 03 2013  15 26  -21.0526 26086.8 -03415.5 -07.4591 26309.4
 28 03 2013  15 27  -21.0516 26086.5 -03415.5 -07.4593 26309.2
 28 03 2013  15 28  -21.0510 26086.5 -03415.7 -07.4597 26309.2
 28 03 2013  15 29  -21.0507 26087.0 -03416.0 -07.4602 26309.7
 28 03 2013  15 30  -21.0501 26087.6 -03416.4 -07.4609 26310.3
 28 03 2013  15 31  -21.0499 26088.4 -03416.8 -07.4616 26311.2
 28 03 2013  15 32  -21.0496 26089.0 -03417.1 -07.4620 26311.8
 28 03 2013  15 33  -21.0494 26089.4 -03417.3 -07.4622 26312.3
 28 03 2013  15 34  -21.0494 26089.8 -03417.4 -07.4624 26312.7
 28 03 2013  15 35  -21.0498 26090.3 -03417.4 -07.4623 26313.1
 28 03 2013  15 36  -21.0498 26090.4 -03417.3 -07.4620 26313.2
 28 03 2013  15 37  -21.0497 26090.2 -03417.0 -07.4615 26313.0
 28 03 2013  15 38  -21.0497 26090.2 -03416.8 -07.4611 26313.0
 28 03 2013  15 39  -21.0500 26090.3 -03416.7 -07.4609 26313.1
 28 03 2013  15 40  -21.0502 26090.6 -03416.7 -07.4607 26313.3
 28 03 2013  15 41  -21.0501 26090.6 -03416.5 -07.4604 26313.3
 28 03 2013  15 42  -21.0499 26090.4 -03416.3 -07.4599 26313.2
 28 03 2013  15 43  -21.0500 26090.6 -03416.3 -07.4598 26313.3
 28 03 2013  15 44  -21.0499 26090.5 -03416.2 -07.4596 26313.3
 28 03 2013  15 45  -21.0498 26090.6 -03416.1 -07.4595 26313.3
 28 03 2013  15 46  -21.0496 26090.7 -03416.0 -07.4592 26313.4
 28 03 2013  15 47  -21.0498 26090.7 -03416.0 -07.4592 26313.4
 28 03 2013  15 48  -21.0502 26090.8 -03416.0 -07.4592 26313.4
 28 03 2013  15 49  -21.0505 26091.1 -03416.1 -07.4593 26313.7
 28 03 2013  15 50  -21.0510 26091.5 -03416.2 -07.4593 26314.2
 28 03 2013  15 51  -21.0511 26091.5 -03416.0 -07.4589 26314.2
 28 03 2013  15 52  -21.0517 26091.3 -03415.8 -07.4586 26313.9
 28 03 2013  15 53  -21.0524 26091.2 -03415.7 -07.4585 26313.8
 28 03 2013  15 54  -21.0529 26090.9 -03415.6 -07.4583 26313.6
 28 03 2013  15 55  -21.0533 26090.4 -03415.4 -07.4580 26313.0
 28 03 2013  15 56  -21.0527 26089.7 -03415.2 -07.4577 26312.3
 28 03 2013  15 57  -21.0525 26089.2 -03415.1 -07.4577 26311.8
 28 03 2013  15 58  -21.0531 26089.0 -03415.2 -07.4580 26311.6
 28 03 2013  15 59  -21.0539 26088.7 -03415.2 -07.4580 26311.3
 28 03 2013  16 00  -21.0545 26088.4 -03415.1 -07.4579 26311.0
 28 03 2013  16 01  -21.0551 26088.1 -03415.0 -07.4578 26310.7
 28 03 2013  16 02  -21.0555 26087.7 -03414.9 -07.4576 26310.2
 28 03 2013  16 03  -21.0560 26087.4 -03414.9 -07.4577 26310.0
 28 03 2013  16 04  -21.0573 26087.5 -03415.0 -07.4580 26310.1
 28 03 2013  16 05  -21.0585 26087.4 -03415.0 -07.4580 26309.9
 28 03 2013  16 06  -21.0589 26086.8 -03414.8 -07.4577 26309.3
 28 03 2013  16 07  -21.0594 26086.2 -03414.7 -07.4577 26308.8
 28 03 2013  16 08  -21.0595 26085.6 -03414.6 -07.4576 26308.1
 28 03 2013  16 09  -21.0599 26085.0 -03414.5 -07.4576 26307.6
 28 03 2013  16 10  -21.0605 26084.7 -03414.5 -07.4577 26307.3
 28 03 2013  16 11  -21.0610 26084.4 -03414.5 -07.4578 26306.9
 28 03 2013  16 12  -21.0618 26084.3 -03414.6 -07.4579 26306.8
 28 03 2013  16 13  -21.0628 26084.4 -03414.7 -07.4582 26307.0
 28 03 2013  16 14  -21.0637 26084.3 -03414.7 -07.4582 26306.9
 28 03 2013  16 15  -21.0638 26083.8 -03414.6 -07.4580 26306.4
 28 03 2013  16 16  -21.0641 26083.4 -03414.5 -07.4579 26306.0
 28 03 2013  16 17  -21.0650 26083.2 -03414.5 -07.4581 26305.8
 28 03 2013  16 18  -21.0658 26083.2 -03414.7 -07.4584 26305.7
 28 03 2013  16 19  -21.0668 26083.1 -03414.7 -07.4585 26305.7
 28 03 2013  16 20  -21.0682 26083.1 -03414.8 -07.4588 26305.7
 28 03 2013  16 21  -21.0695 26083.6 -03415.0 -07.4590 26306.2
 28 03 2013  16 22  -21.0703 26083.5 -03414.9 -07.4588 26306.1
 28 03 2013  16 23  -21.0702 26082.8 -03414.6 -07.4583 26305.4
 28 03 2013  16 24  -21.0709 26082.3 -03414.4 -07.4581 26304.8
 28 03 2013  16 25  -21.0724 26082.0 -03414.4 -07.4581 26304.5
 28 03 2013  16 26  -21.0726 26081.1 -03414.1 -07.4577 26303.6
 28 03 2013  16 27  -21.0729 26080.3 -03413.8 -07.4574 26302.8
 28 03 2013  16 28  -21.0740 26080.3 -03414.0 -07.4578 26302.8
 28 03 2013  16 29  -21.0751 26080.4 -03414.2 -07.4582 26302.9
 28 03 2013  16 30  -21.0761 26080.3 -03414.2 -07.4583 26302.8
 28 03 2013  16 31  -21.0769 26080.1 -03414.1 -07.4581 26302.6
 28 03 2013  16 32  -21.0780 26079.9 -03414.1 -07.4581 26302.5
 28 03 2013  16 33  -21.0792 26079.8 -03414.1 -07.4582 26302.4
 28 03 2013  16 34  -21.0801 26079.3 -03413.9 -07.4579 26301.8
 28 03 2013  16 35  -21.0805 26078.8 -03413.8 -07.4578 26301.3
 28 03 2013  16 36  -21.0811 26078.1 -03413.6 -07.4576 26300.6
 28 03 2013  16 37  -21.0818 26077.5 -03413.5 -07.4575 26300.0
 28 03 2013  16 38  -21.0829 26077.2 -03413.4 -07.4573 26299.6
 28 03 2013  16 39  -21.0841 26077.0 -03413.4 -07.4574 26299.4
 28 03 2013  16 40  -21.0853 26076.9 -03413.4 -07.4575 26299.4
 28 03 2013  16 41  -21.0869 26076.8 -03413.4 -07.4575 26299.2
 28 03 2013  16 42  -21.0881 26076.5 -03413.3 -07.4572 26299.0
 28 03 2013  16 43  -21.0891 26076.0 -03413.0 -07.4569 26298.4
 28 03 2013  16 44  -21.0903 26075.8 -03412.9 -07.4567 26298.2
 28 03 2013  16 45  -21.0918 26075.8 -03412.9 -07.4568 26298.2
 28 03 2013  16 46  -21.0930 26075.7 -03412.8 -07.4566 26298.1
 28 03 2013  16 47  -21.0940 26075.5 -03412.7 -07.4563 26297.9
 28 03 2013  16 48  -21.0949 26075.4 -03412.6 -07.4561 26297.7
 28 03 2013  16 49  -21.0969 26075.8 -03412.7 -07.4563 26298.2
 28 03 2013  16 50  -21.0982 26075.7 -03412.6 -07.4560 26298.1
 28 03 2013  16 51  -21.0984 26075.0 -03412.0 -07.4550 26297.3
 28 03 2013  16 52  -21.0992 26074.5 -03411.8 -07.4546 26296.8
 28 03 2013  16 53  -21.1004 26074.4 -03411.7 -07.4544 26296.6
 28 03 2013  16 54  -21.1012 26074.1 -03411.5 -07.4540 26296.3
 28 03 2013  16 55  -21.1018 26073.7 -03411.2 -07.4536 26295.9
 28 03 2013  16 56  -21.1024 26073.1 -03411.0 -07.4533 26295.3
 28 03 2013  16 57  -21.1033 26073.1 -03411.0 -07.4533 26295.2
 28 03 2013  16 58  -21.1047 26072.9 -03410.9 -07.4532 26295.1
 28 03 2013  16 59  -21.1057 26073.0 -03410.8 -07.4531 26295.1
 28 03 2013  17 00  -21.1064 26072.3 -03410.5 -07.4524 26294.4
 28 03 2013  17 01  -21.1073 26071.9 -03410.2 -07.4519 26294.0
 28 03 2013  17 02  -21.1085 26071.2 -03409.8 -07.4513 26293.3
 28 03 2013  17 03  -21.1091 26070.6 -03409.5 -07.4508 26292.6
 28 03 2013  17 04  -21.1102 26070.3 -03409.3 -07.4504 26292.3
 28 03 2013  17 05  -21.1114 26069.8 -03409.0 -07.4499 26291.8
 28 03 2013  17 06  -21.1123 26069.4 -03408.7 -07.4493 26291.3
 28 03 2013  17 07  -21.1129 26068.5 -03408.3 -07.4487 26290.4
 28 03 2013  17 08  -21.1143 26067.7 -03407.9 -07.4483 26289.5
 28 03 2013  17 09  -21.1152 26067.2 -03407.7 -07.4479 26289.0
 28 03 2013  17 10  -21.1162 26067.1 -03407.7 -07.4478 26288.9
 28 03 2013  17 11  -21.1173 26065.7 -03407.1 -07.4469 26287.4
 28 03 2013  17 12  -21.1182 26064.1 -03406.3 -07.4458 26285.8
 28 03 2013  17 13  -21.1191 26063.1 -03405.9 -07.4452 26284.7
 28 03 2013  17 14  -21.1198 26062.2 -03405.6 -07.4448 26283.8
 28 03 2013  17 15  -21.1208 26061.8 -03405.5 -07.4447 26283.3
 28 03 2013  17 16  -21.1217 26061.0 -03405.1 -07.4441 26282.5
 28 03 2013  17 17  -21.1229 26060.8 -03405.1 -07.4441 26282.4
 28 03 2013  17 18  -21.1235 26060.5 -03404.9 -07.4438 26282.0
 28 03 2013  17 19  -21.1247 26060.7 -03404.9 -07.4437 26282.2
 28 03 2013  17 20  -21.1259 26060.7 -03404.7 -07.4433 26282.2
 28 03 2013  17 21  -21.1267 26060.1 -03404.2 -07.4424 26281.6
 28 03 2013  17 22  -21.1272 26059.7 -03403.8 -07.4416 26281.1
 28 03 2013  17 23  -21.1281 26059.5 -03403.6 -07.4411 26280.8
 28 03 2013  17 24  -21.1288 26059.4 -03403.3 -07.4406 26280.7
 28 03 2013  17 25  -21.1293 26059.3 -03403.0 -07.4400 26280.6
 28 03 2013  17 26  -21.1300 26059.2 -03402.7 -07.4394 26280.4
 28 03 2013  17 27  -21.1305 26059.0 -03402.4 -07.4388 26280.2
 28 03 2013  17 28  -21.1315 26059.3 -03402.3 -07.4385 26280.5
 28 03 2013  17 29  -21.1322 26059.0 -03402.0 -07.4379 26280.2
 28 03 2013  17 30  -21.1328 26058.5 -03401.6 -07.4371 26279.5
 28 03 2013  17 31  -21.1329 26057.8 -03401.1 -07.4363 26278.8
 28 03 2013  17 32  -21.1331 26057.2 -03400.7 -07.4355 26278.2
 28 03 2013  17 33  -21.1336 26057.0 -03400.4 -07.4351 26277.9
 28 03 2013  17 34  -21.1341 26056.4 -03400.1 -07.4345 26277.3
 28 03 2013  17 35  -21.1343 26055.8 -03399.7 -07.4338 26276.7
 28 03 2013  17 36  -21.1345 26055.5 -03399.4 -07.4332 26276.3
 28 03 2013  17 37  -21.1347 26054.7 -03398.8 -07.4323 26275.4
 28 03 2013  17 38  -21.1341 26053.9 -03398.3 -07.4314 26274.6
 28 03 2013  17 39  -21.1339 26053.2 -03398.0 -07.4309 26273.9
 28 03 2013  17 40  -21.1343 26053.0 -03397.9 -07.4306 26273.6
 28 03 2013  17 41  -21.1339 26052.5 -03397.5 -07.4300 26273.1
 28 03 2013  17 42  -21.1337 26051.9 -03397.1 -07.4292 26272.5
 28 03 2013  17 43  -21.1337 26051.9 -03397.0 -07.4290 26272.4
 28 03 2013  17 44  -21.1333 26051.4 -03396.6 -07.4284 26271.8
 28 03 2013  17 45  -21.1330 26050.8 -03396.3 -07.4280 26271.3
 28 03 2013  17 46  -21.1323 26050.1 -03396.1 -07.4276 26270.5
 28 03 2013  17 47  -21.1314 26049.4 -03395.8 -07.4272 26269.8
 28 03 2013  17 48  -21.1314 26049.0 -03395.8 -07.4273 26269.4
 28 03 2013  17 49  -21.1311 26048.6 -03395.8 -07.4274 26269.0
 28 03 2013  17 50  -21.1307 26048.0 -03395.7 -07.4273 26268.4
 28 03 2013  17 51  -21.1307 26048.0 -03395.8 -07.4277 26268.4
 28 03 2013  17 52  -21.1309 26048.0 -03395.9 -07.4278 26268.5
 28 03 2013  17 53  -21.1307 26048.1 -03396.0 -07.4279 26268.5
 28 03 2013  17 54  -21.1304 26047.9 -03395.9 -07.4279 26268.3
 28 03 2013  17 55  -21.1300 26047.7 -03396.0 -07.4280 26268.2
 28 03 2013  17 56  -21.1294 26047.3 -03395.8 -07.4277 26267.7
 28 03 2013  17 57  -21.1286 26046.6 -03395.6 -07.4275 26267.0
 28 03 2013  17 58  -21.1274 26046.0 -03395.5 -07.4274 26266.4
 28 03 2013  17 59  -21.1266 26045.5 -03395.3 -07.4273 26265.9
 28 03 2013  18 00  -21.1260 26045.6 -03395.6 -07.4279 26266.1
 28 03 2013  18 01  -21.1256 26045.9 -03395.9 -07.4283 26266.4
 28 03 2013  18 02  -21.1251 26045.7 -03395.8 -07.4283 26266.1
 28 03 2013  18 03  -21.1245 26045.7 -03395.9 -07.4284 26266.2
 28 03 2013  18 04  -21.1244 26045.6 -03395.9 -07.4284 26266.1
 28 03 2013  18 05  -21.1240 26045.8 -03395.9 -07.4285 26266.2
 28 03 2013  18 06  -21.1231 26045.3 -03395.7 -07.4282 26265.7
 28 03 2013  18 07  -21.1223 26045.2 -03395.8 -07.4283 26265.7
 28 03 2013  18 08  -21.1220 26045.3 -03395.8 -07.4283 26265.7
 28 03 2013  18 09  -21.1214 26045.7 -03396.0 -07.4286 26266.2
 28 03 2013  18 10  -21.1206 26045.5 -03395.9 -07.4284 26266.0
 28 03 2013  18 11  -21.1201 26045.4 -03395.8 -07.4283 26265.9
 28 03 2013  18 12  -21.1198 26045.3 -03395.7 -07.4281 26265.7
 28 03 2013  18 13  -21.1194 26044.9 -03395.5 -07.4277 26265.3
 28 03 2013  18 14  -21.1186 26044.8 -03395.5 -07.4277 26265.2
 28 03 2013  18 15  -21.1177 26044.5 -03395.4 -07.4276 26264.9
 28 03 2013  18 16  -21.1171 26044.4 -03395.4 -07.4277 26264.8
 28 03 2013  18 17  -21.1164 26044.6 -03395.6 -07.4280 26265.0
 28 03 2013  18 18  -21.1156 26044.7 -03395.6 -07.4281 26265.1
 28 03 2013  18 19  -21.1149 26044.6 -03395.6 -07.4281 26265.1
 28 03 2013  18 20  -21.1143 26044.7 -03395.7 -07.4283 26265.2
 28 03 2013  18 21  -21.1135 26044.7 -03395.7 -07.4284 26265.1
 28 03 2013  18 22  -21.1125 26044.4 -03395.7 -07.4284 26264.8
 28 03 2013  18 23  -21.1119 26044.4 -03395.8 -07.4286 26264.8
 28 03 2013  18 24  -21.1113 26044.5 -03396.0 -07.4289 26265.0
 28 03 2013  18 25  -21.1105 26044.5 -03396.0 -07.4290 26264.9
 28 03 2013  18 26  -21.1099 26044.4 -03396.0 -07.4291 26264.8
 28 03 2013  18 27  -21.1091 26044.1 -03396.0 -07.4291 26264.6
 28 03 2013  18 28  -21.1084 26044.1 -03396.0 -07.4291 26264.5
 28 03 2013  18 29  -21.1077 26044.2 -03396.1 -07.4293 26264.7
 28 03 2013  18 30  -21.1071 26044.1 -03396.2 -07.4294 26264.6
 28 03 2013  18 31  -21.1058 26044.1 -03396.2 -07.4296 26264.6
 28 03 2013  18 32  -21.1051 26044.2 -03396.4 -07.4298 26264.8
 28 03 2013  18 33  -21.1047 26044.3 -03396.4 -07.4299 26264.8
 28 03 2013  18 34  -21.1044 26044.0 -03396.3 -07.4298 26264.5
 28 03 2013  18 35  -21.1042 26043.5 -03396.0 -07.4293 26264.0
 28 03 2013  18 36  -21.1036 26042.5 -03395.5 -07.4286 26263.0
 28 03 2013  18 37  -21.1030 26041.6 -03395.1 -07.4279 26262.0
 28 03 2013  18 38  -21.1020 26040.6 -03394.7 -07.4273 26260.9
 28 03 2013  18 39  -21.1010 26039.9 -03394.5 -07.4271 26260.3
 28 03 2013  18 40  -21.0997 26039.7 -03394.6 -07.4273 26260.1
 28 03 2013  18 41  -21.0986 26039.5 -03394.6 -07.4275 26259.9
 28 03 2013  18 42  -21.0978 26039.3 -03394.7 -07.4277 26259.7
 28 03 2013  18 43  -21.0966 26039.0 -03394.7 -07.4278 26259.3
 28 03 2013  18 44  -21.0956 26038.6 -03394.7 -07.4279 26258.9
 28 03 2013  18 45  -21.0949 26038.4 -03394.8 -07.4282 26258.8
 28 03 2013  18 46  -21.0942 26038.2 -03395.0 -07.4285 26258.6
 28 03 2013  18 47  -21.0933 26038.0 -03395.0 -07.4287 26258.4
 28 03 2013  18 48  -21.0923 26037.5 -03395.0 -07.4287 26257.8
 28 03 2013  18 49  -21.0914 26036.9 -03394.9 -07.4288 26257.3
 28 03 2013  18 50  -21.0903 26036.6 -03395.0 -07.4290 26257.0
 28 03 2013  18 51  -21.0895 26036.4 -03395.2 -07.4295 26256.9
 28 03 2013  18 52  -21.0886 26036.5 -03395.5 -07.4303 26257.0
 28 03 2013  18 53  -21.0882 26036.7 -03396.0 -07.4312 26257.2
 28 03 2013  18 54  -21.0883 26036.8 -03396.4 -07.4320 26257.4
 28 03 2013  18 55  -21.0874 26036.5 -03396.6 -07.4325 26257.1
 28 03 2013  18 56  -21.0865 26036.0 -03396.6 -07.4328 26256.6
 28 03 2013  18 57  -21.0856 26035.4 -03396.8 -07.4332 26256.1
 28 03 2013  18 58  -21.0848 26035.2 -03397.0 -07.4338 26255.8
 28 03 2013  18 59  -21.0844 26034.9 -03397.2 -07.4343 26255.6
 28 03 2013  19 00  -21.0833 26034.5 -03397.3 -07.4346 26255.2
 28 03 2013  19 01  -21.0833 26033.7 -03397.1 -07.4345 26254.4
 28 03 2013  19 02  -21.0844 26032.6 -03396.9 -07.4344 26253.3
 28 03 2013  19 03  -21.0828 26032.0 -03397.0 -07.4348 26252.7
 28 03 2013  19 04  -21.0811 26031.7 -03397.3 -07.4355 26252.5
 28 03 2013  19 05  -21.0802 26031.8 -03398.0 -07.4369 26252.7
 28 03 2013  19 06  -21.0799 26032.1 -03398.6 -07.4382 26253.0
 28 03 2013  19 07  -21.0796 26032.2 -03399.1 -07.4391 26253.1
 28 03 2013  19 08  -21.0796 26032.0 -03399.3 -07.4397 26253.0
 28 03 2013  19 09  -21.0790 26031.9 -03399.5 -07.4402 26252.9
 28 03 2013  19 10  -21.0779 26031.4 -03399.6 -07.4404 26252.5
 28 03 2013  19 11  -21.0771 26031.0 -03399.7 -07.4407 26252.0
 28 03 2013  19 12  -21.0760 26030.5 -03399.7 -07.4410 26251.5
 28 03 2013  19 13  -21.0748 26030.2 -03400.0 -07.4418 26251.4
 28 03 2013  19 14  -21.0739 26030.3 -03400.5 -07.4427 26251.4
 28 03 2013  19 15  -21.0729 26030.3 -03400.9 -07.4436 26251.5
 28 03 2013  19 16  -21.0722 26030.5 -03401.4 -07.4447 26251.8
 28 03 2013  19 17  -21.0718 26030.9 -03402.0 -07.4457 26252.3
 28 03 2013  19 18  -21.0714 26031.2 -03402.5 -07.4468 26252.6
 28 03 2013  19 19  -21.0712 26031.4 -03402.9 -07.4477 26252.9
 28 03 2013  19 20  -21.0708 26031.1 -03403.1 -07.4481 26252.6
 28 03 2013  19 21  -21.0700 26030.5 -03403.1 -07.4482 26252.0
 28 03 2013  19 22  -21.0692 26030.0 -03403.1 -07.4485 26251.6
 28 03 2013  19 23  -21.0688 26029.9 -03403.3 -07.4490 26251.4
 28 03 2013  19 24  -21.0683 26029.7 -03403.5 -07.4495 26251.2
 28 03 2013  19 25  -21.0680 26029.5 -03403.8 -07.4500 26251.1
 28 03 2013  19 26  -21.0674 26029.4 -03403.9 -07.4504 26251.0
 28 03 2013  19 27  -21.0663 26029.1 -03404.1 -07.4509 26250.7
 28 03 2013  19 28  -21.0625 26029.3 -03404.6 -07.4518 26251.0
 28 03 2013  19 29  -21.0621 26029.2 -03404.8 -07.4525 26250.9
 28 03 2013  19 30  -21.0617 26029.2 -03405.1 -07.4530 26251.0
 28 03 2013  19 31  -21.0624 26029.0 -03405.2 -07.4534 26250.8
 28 03 2013  19 32  -21.0648 26028.6 -03405.3 -07.4537 26250.4
 28 03 2013  19 33  -21.0644 26028.6 -03405.6 -07.4543 26250.4
 28 03 2013  19 34  -21.0640 26028.4 -03405.8 -07.4548 26250.2
 28 03 2013  19 35  -21.0635 26028.0 -03406.0 -07.4552 26249.9
 28 03 2013  19 36  -21.0630 26027.9 -03406.2 -07.4557 26249.8
 28 03 2013  19 37  -21.0626 26027.8 -03406.4 -07.4563 26249.8
 28 03 2013  19 38  -21.0618 26028.0 -03406.7 -07.4569 26250.0
 28 03 2013  19 39  -21.0615 26028.1 -03407.0 -07.4575 26250.1
 28 03 2013  19 40  -21.0612 26028.2 -03407.4 -07.4582 26250.2
 28 03 2013  19 41  -21.0607 26028.0 -03407.5 -07.4587 26250.1
 28 03 2013  19 42  -21.0602 26027.9 -03407.8 -07.4592 26250.0
 28 03 2013  19 43  -21.0599 26027.7 -03408.0 -07.4597 26249.8
 28 03 2013  19 44  -21.0596 26027.6 -03408.2 -07.4602 26249.8
 28 03 2013  19 45  -21.0592 26027.6 -03408.6 -07.4609 26249.9
 28 03 2013  19 46  -21.0591 26027.2 -03408.7 -07.4613 26249.5
 28 03 2013  19 47  -21.0590 26027.1 -03408.8 -07.4616 26249.3
 28 03 2013  19 48  -21.0592 26027.2 -03409.0 -07.4621 26249.5
 28 03 2013  19 49  -21.0565 26027.4 -03409.4 -07.4629 26249.7
 28 03 2013  19 50  -21.0547 26027.6 -03409.9 -07.4638 26250.0
 28 03 2013  19 51  -21.0547 26027.7 -03410.1 -07.4643 26250.1
 28 03 2013  19 52  -21.0546 26027.6 -03410.3 -07.4648 26250.1
 28 03 2013  19 53  -21.0545 26027.6 -03410.6 -07.4653 26250.1
 28 03 2013  19 54  -21.0544 26027.2 -03410.6 -07.4655 26249.8
 28 03 2013  19 55  -21.0544 26027.1 -03410.8 -07.4659 26249.7
 28 03 2013  19 56  -21.0543 26027.1 -03411.0 -07.4664 26249.6
 28 03 2013  19 57  -21.0544 26027.2 -03411.3 -07.4669 26249.8
 28 03 2013  19 58  -21.0546 26027.4 -03411.5 -07.4674 26250.1
 28 03 2013  19 59  -21.0546 26027.5 -03411.7 -07.4678 26250.1
 28 03 2013  20 00  -21.0547 26027.3 -03411.8 -07.4680 26250.0
 28 03 2013  20 01  -21.0546 26027.2 -03411.8 -07.4682 26249.8
 28 03 2013  20 02  -21.0545 26027.1 -03412.0 -07.4685 26249.8
 28 03 2013  20 03  -21.0544 26027.3 -03412.3 -07.4691 26250.0
 28 03 2013  20 04  -21.0543 26027.4 -03412.5 -07.4695 26250.1
 28 03 2013  20 05  -21.0544 26027.5 -03412.8 -07.4701 26250.3
 28 03 2013  20 06  -21.0547 26027.3 -03412.8 -07.4703 26250.1
 28 03 2013  20 07  -21.0547 26027.2 -03412.9 -07.4704 26250.0
 28 03 2013  20 08  -21.0544 26026.7 -03412.8 -07.4705 26249.5
 28 03 2013  20 09  -21.0539 26026.1 -03412.7 -07.4704 26248.9
 28 03 2013  20 10  -21.0534 26025.7 -03412.8 -07.4707 26248.6
 28 03 2013  20 11  -21.0529 26026.0 -03413.2 -07.4714 26248.8
 28 03 2013  20 12  -21.0529 26026.1 -03413.5 -07.4721 26249.1
 28 03 2013  20 13  -21.0530 26026.4 -03413.9 -07.4727 26249.4
 28 03 2013  20 14  -21.0528 26026.3 -03414.0 -07.4731 26249.3
 28 03 2013  20 15  -21.0528 26026.5 -03414.2 -07.4735 26249.5
 28 03 2013  20 16  -21.0528 26026.6 -03414.4 -07.4738 26249.6
 28 03 2013  20 17  -21.0531 26026.6 -03414.5 -07.4742 26249.7
 28 03 2013  20 18  -21.0531 26026.6 -03414.6 -07.4743 26249.6
 28 03 2013  20 19  -21.0528 26026.4 -03414.6 -07.4744 26249.4
 28 03 2013  20 20  -21.0526 26026.1 -03414.7 -07.4746 26249.1
 28 03 2013  20 21  -21.0524 26026.1 -03414.8 -07.4749 26249.2
 28 03 2013  20 22  -21.0524 26026.2 -03415.0 -07.4752 26249.3
 28 03 2013  20 23  -21.0526 26026.4 -03415.2 -07.4756 26249.5
 28 03 2013  20 24  -21.0526 26026.2 -03415.2 -07.4757 26249.3
 28 03 2013  20 25  -21.0523 26025.9 -03415.2 -07.4758 26249.0
 28 03 2013  20 26  -21.0522 26026.1 -03415.4 -07.4762 26249.2
 28 03 2013  20 27  -21.0523 26026.2 -03415.6 -07.4766 26249.4
 28 03 2013  20 28  -21.0522 26026.1 -03415.7 -07.4768 26249.3
 28 03 2013  20 29  -21.0519 26026.0 -03415.7 -07.4769 26249.2
 28 03 2013  20 30  -21.0518 26026.0 -03415.9 -07.4772 26249.2
 28 03 2013  20 31  -21.0516 26026.3 -03416.1 -07.4777 26249.5
 28 03 2013  20 32  -21.0515 26026.4 -03416.3 -07.4780 26249.6
 28 03 2013  20 33  -21.0515 26026.3 -03416.4 -07.4782 26249.6
 28 03 2013  20 34  -21.0513 26026.2 -03416.4 -07.4784 26249.4
 28 03 2013  20 35  -21.0511 26026.5 -03416.7 -07.4788 26249.8
 28 03 2013  20 36  -21.0511 26026.8 -03416.9 -07.4793 26250.1
 28 03 2013  20 37  -21.0511 26027.0 -03417.1 -07.4796 26250.3
 28 03 2013  20 38  -21.0511 26027.0 -03417.2 -07.4797 26250.4
 28 03 2013  20 39  -21.0511 26027.1 -03417.2 -07.4798 26250.5
 28 03 2013  20 40  -21.0508 26027.2 -03417.3 -07.4800 26250.6
 28 03 2013  20 41  -21.0508 26027.3 -03417.4 -07.4801 26250.7
 28 03 2013  20 42  -21.0509 26027.5 -03417.5 -07.4803 26250.9
 28 03 2013  20 43  -21.0508 26027.5 -03417.5 -07.4803 26250.9
 28 03 2013  20 44  -21.0509 26027.4 -03417.5 -07.4803 26250.8
 28 03 2013  20 45  -21.0510 26027.4 -03417.4 -07.4803 26250.8
 28 03 2013  20 46  -21.0508 26027.4 -03417.5 -07.4803 26250.8
 28 03 2013  20 47  -21.0507 26027.6 -03417.6 -07.4804 26251.0
 28 03 2013  20 48  -21.0509 26027.8 -03417.6 -07.4805 26251.2
 28 03 2013  20 49  -21.0508 26027.9 -03417.7 -07.4806 26251.3
 28 03 2013  20 50  -21.0507 26027.9 -03417.7 -07.4806 26251.3
 28 03 2013  20 51  -21.0507 26028.0 -03417.7 -07.4806 26251.4
 28 03 2013  20 52  -21.0506 26028.0 -03417.7 -07.4805 26251.5
 28 03 2013  20 53  -21.0505 26028.1 -03417.7 -07.4805 26251.5
 28 03 2013  20 54  -21.0502 26028.2 -03417.7 -07.4806 26251.6
 28 03 2013  20 55  -21.0502 26028.3 -03417.7 -07.4806 26251.7
 28 03 2013  20 56  -21.0499 26028.4 -03417.8 -07.4807 26251.9
 28 03 2013  20 57  -21.0497 26028.4 -03417.8 -07.4807 26251.8
 28 03 2013  20 58  -21.0494 26028.5 -03417.9 -07.4808 26252.0
 28 03 2013  20 59  -21.0492 26028.5 -03417.8 -07.4808 26252.0
 28 03 2013  21 00  -21.0490 26028.8 -03417.9 -07.4809 26252.2
 28 03 2013  21 01  -21.0487 26028.7 -03417.9 -07.4808 26252.1
 28 03 2013  21 02  -21.0485 26028.9 -03418.0 -07.4810 26252.3
 28 03 2013  21 03  -21.0483 26028.5 -03417.8 -07.4807 26252.0
 28 03 2013  21 04  -21.0480 26028.7 -03417.8 -07.4807 26252.1
 28 03 2013  21 05  -21.0477 26028.9 -03417.9 -07.4808 26252.3
 28 03 2013  21 06  -21.0473 26029.1 -03418.0 -07.4809 26252.6
 28 03 2013  21 07  -21.0471 26029.3 -03418.0 -07.4809 26252.7
 28 03 2013  21 08  -21.0468 26029.7 -03418.2 -07.4812 26253.2
 28 03 2013  21 09  -21.0467 26030.0 -03418.2 -07.4812 26253.5
 28 03 2013  21 10  -21.0464 26030.0 -03418.2 -07.4811 26253.5
 28 03 2013  21 11  -21.0462 26030.1 -03418.2 -07.4811 26253.6
 28 03 2013  21 12  -21.0460 26030.5 -03418.5 -07.4815 26254.0
 28 03 2013  21 13  -21.0460 26030.7 -03418.6 -07.4817 26254.2
 28 03 2013  21 14  -21.0459 26030.9 -03418.7 -07.4819 26254.4
 28 03 2013  21 15  -21.0459 26030.9 -03418.7 -07.4819 26254.4
 28 03 2013  21 16  -21.0459 26031.2 -03418.9 -07.4822 26254.7
 28 03 2013  21 17  -21.0458 26031.5 -03419.0 -07.4825 26255.1
 28 03 2013  21 18  -21.0459 26031.4 -03419.1 -07.4826 26255.0
 28 03 2013  21 19  -21.0459 26031.8 -03419.2 -07.4827 26255.3
 28 03 2013  21 20  -21.0461 26032.0 -03419.3 -07.4829 26255.6
 28 03 2013  21 21  -21.0461 26032.1 -03419.3 -07.4829 26255.7
 28 03 2013  21 22  -21.0462 26032.0 -03419.4 -07.4831 26255.6
 28 03 2013  21 23  -21.0463 26032.2 -03419.5 -07.4833 26255.8
 28 03 2013  21 24  -21.0464 26032.2 -03419.5 -07.4834 26255.8
 28 03 2013  21 25  -21.0464 26032.2 -03419.6 -07.4835 26255.9
 28 03 2013  21 26  -21.0466 26032.4 -03419.7 -07.4837 26256.1
 28 03 2013  21 27  -21.0467 26032.5 -03419.8 -07.4839 26256.2
 28 03 2013  21 28  -21.0467 26032.6 -03420.0 -07.4844 26256.3
 28 03 2013  21 29  -21.0466 26032.7 -03420.2 -07.4847 26256.4
 28 03 2013  21 30  -21.0467 26032.6 -03420.4 -07.4850 26256.4
 28 03 2013  21 31  -21.0467 26032.6 -03420.4 -07.4852 26256.3
 28 03 2013  21 32  -21.0470 26032.7 -03420.6 -07.4856 26256.5
 28 03 2013  21 33  -21.0471 26032.9 -03420.9 -07.4862 26256.7
 28 03 2013  21 34  -21.0472 26032.7 -03421.0 -07.4864 26256.5
 28 03 2013  21 35  -21.0473 26032.5 -03421.0 -07.4866 26256.4
 28 03 2013  21 36  -21.0475 26032.5 -03421.2 -07.4870 26256.4
 28 03 2013  21 37  -21.0476 26032.5 -03421.4 -07.4873 26256.4
 28 03 2013  21 38  -21.0477 26032.6 -03421.6 -07.4878 26256.5
 28 03 2013  21 39  -21.0478 26032.7 -03421.8 -07.4883 26256.6
 28 03 2013  21 40  -21.0480 26032.8 -03422.0 -07.4886 26256.7
 28 03 2013  21 41  -21.0482 26032.5 -03422.1 -07.4888 26256.5
 28 03 2013  21 42  -21.0485 26032.3 -03422.1 -07.4889 26256.2
 28 03 2013  21 43  -21.0487 26032.1 -03422.1 -07.4890 26256.1
 28 03 2013  21 44  -21.0489 26031.8 -03422.1 -07.4891 26255.8
 28 03 2013  21 45  -21.0490 26031.7 -03422.2 -07.4892 26255.7
 28 03 2013  21 46  -21.0490 26031.6 -03422.2 -07.4893 26255.6
 28 03 2013  21 47  -21.0491 26031.5 -03422.3 -07.4895 26255.5
 28 03 2013  21 48  -21.0491 26031.6 -03422.4 -07.4898 26255.6
 28 03 2013  21 49  -21.0492 26031.7 -03422.5 -07.4900 26255.7
 28 03 2013  21 50  -21.0493 26031.8 -03422.7 -07.4904 26255.9
 28 03 2013  21 51  -21.0493 26031.6 -03422.7 -07.4904 26255.7
 28 03 2013  21 52  -21.0494 26031.6 -03422.7 -07.4905 26255.7
 28 03 2013  21 53  -21.0493 26031.7 -03422.8 -07.4907 26255.8
 28 03 2013  21 54  -21.0494 26031.6 -03422.8 -07.4907 26255.7
 28 03 2013  21 55  -21.0495 26031.5 -03422.8 -07.4907 26255.5
 28 03 2013  21 56  -21.0494 26031.4 -03422.8 -07.4907 26255.5
 28 03 2013  21 57  -21.0491 26031.5 -03422.9 -07.4908 26255.6
 28 03 2013  21 58  -21.0489 26031.5 -03422.9 -07.4909 26255.6
 28 03 2013  21 59  -21.0487 26031.6 -03422.9 -07.4909 26255.6
 28 03 2013  22 00  -21.0487 26031.6 -03422.9 -07.4909 26255.7
 28 03 2013  22 01  -21.0485 26031.7 -03423.0 -07.4910 26255.8
 28 03 2013  22 02  -21.0483 26031.8 -03423.1 -07.4912 26255.9
 28 03 2013  22 03  -21.0482 26031.9 -03423.2 -07.4913 26256.0
 28 03 2013  22 04  -21.0481 26032.1 -03423.3 -07.4915 26256.3
 28 03 2013  22 05  -21.0480 26032.4 -03423.4 -07.4917 26256.5
 28 03 2013  22 06  -21.0479 26032.6 -03423.5 -07.4919 26256.8
 28 03 2013  22 07  -21.0478 26032.9 -03423.7 -07.4922 26257.1
 28 03 2013  22 08  -21.0479 26033.1 -03423.8 -07.4923 26257.2
 28 03 2013  22 09  -21.0480 26033.3 -03423.8 -07.4923 26257.5
 28 03 2013  22 10  -21.0478 26033.5 -03423.9 -07.4924 26257.7
 28 03 2013  22 11  -21.0479 26033.6 -03423.8 -07.4923 26257.8
 28 03 2013  22 12  -21.0480 26033.6 -03423.8 -07.4922 26257.7
 28 03 2013  22 13  -21.0482 26033.6 -03423.7 -07.4921 26257.7
 28 03 2013  22 14  -21.0485 26033.7 -03423.8 -07.4921 26257.9
 28 03 2013  22 15  -21.0488 26033.7 -03423.7 -07.4920 26257.9
 28 03 2013  22 16  -21.0489 26033.7 -03423.6 -07.4919 26257.8
 28 03 2013  22 17  -21.0491 26033.6 -03423.6 -07.4917 26257.8
 28 03 2013  22 18  -21.0491 26033.7 -03423.5 -07.4916 26257.9
 28 03 2013  22 19  -21.0493 26033.6 -03423.5 -07.4915 26257.7
 28 03 2013  22 20  -21.0494 26033.7 -03423.4 -07.4913 26257.8
 28 03 2013  22 21  -21.0495 26033.7 -03423.4 -07.4913 26257.8
 28 03 2013  22 22  -21.0497 26033.8 -03423.4 -07.4914 26257.9
 28 03 2013  22 23  -21.0500 26033.8 -03423.4 -07.4913 26257.9
 28 03 2013  22 24  -21.0503 26033.6 -03423.3 -07.4911 26257.7
 28 03 2013  22 25  -21.0506 26033.5 -03423.1 -07.4907 26257.6
 28 03 2013  22 26  -21.0510 26033.4 -03423.0 -07.4906 26257.5
 28 03 2013  22 27  -21.0513 26033.3 -03422.9 -07.4904 26257.4
 28 03 2013  22 28  -21.0515 26033.3 -03422.8 -07.4902 26257.3
 28 03 2013  22 29  -21.0517 26033.2 -03422.8 -07.4901 26257.3
 28 03 2013  22 30  -21.0520 26033.2 -03422.7 -07.4900 26257.3
 28 03 2013  22 31  -21.0523 26033.2 -03422.7 -07.4899 26257.2
 28 03 2013  22 32  -21.0524 26033.1 -03422.6 -07.4897 26257.1
 28 03 2013  22 33  -21.0525 26033.0 -03422.5 -07.4896 26257.1
 28 03 2013  22 34  -21.0526 26032.8 -03422.4 -07.4893 26256.8
 28 03 2013  22 35  -21.0527 26032.6 -03422.2 -07.4891 26256.6
 28 03 2013  22 36  -21.0528 26032.4 -03422.1 -07.4889 26256.4
 28 03 2013  22 37  -21.0529 26032.3 -03422.0 -07.4887 26256.3
 28 03 2013  22 38  -21.0530 26032.3 -03422.0 -07.4887 26256.2
 28 03 2013  22 39  -21.0530 26032.3 -03422.0 -07.4886 26256.2
 28 03 2013  22 40  -21.0530 26032.3 -03422.0 -07.4886 26256.2
 28 03 2013  22 41  -21.0530 26032.2 -03421.9 -07.4885 26256.1
 28 03 2013  22 42  -21.0530 26032.0 -03421.8 -07.4883 26255.9
 28 03 2013  22 43  -21.0530 26031.8 -03421.6 -07.4880 26255.7
 28 03 2013  22 44  -21.0530 26031.7 -03421.5 -07.4879 26255.6
 28 03 2013  22 45  -21.0530 26031.6 -03421.5 -07.4878 26255.5
 28 03 2013  22 46  -21.0529 26031.5 -03421.5 -07.4878 26255.4
 28 03 2013  22 47  -21.0528 26031.5 -03421.5 -07.4877 26255.4
 28 03 2013  22 48  -21.0527 26031.6 -03421.5 -07.4877 26255.5
 28 03 2013  22 49  -21.0527 26031.7 -03421.5 -07.4879 26255.6
 28 03 2013  22 50  -21.0526 26031.7 -03421.6 -07.4880 26255.6
 28 03 2013  22 51  -21.0525 26031.8 -03421.6 -07.4880 26255.7
 28 03 2013  22 52  -21.0524 26031.9 -03421.6 -07.4880 26255.8
 28 03 2013  22 53  -21.0525 26031.9 -03421.7 -07.4881 26255.8
 28 03 2013  22 54  -21.0525 26031.9 -03421.6 -07.4880 26255.8
 28 03 2013  22 55  -21.0525 26032.0 -03421.6 -07.4880 26255.9
 28 03 2013  22 56  -21.0524 26032.0 -03421.6 -07.4880 26255.9
 28 03 2013  22 57  -21.0524 26032.0 -03421.6 -07.4880 26255.9
 28 03 2013  22 58  -21.0523 26032.0 -03421.6 -07.4879 26255.9
 28 03 2013  22 59  -21.0523 26032.0 -03421.6 -07.4878 26255.9
 28 03 2013  23 00  -21.0524 26031.9 -03421.5 -07.4878 26255.8
 28 03 2013  23 01  -21.0523 26031.9 -03421.5 -07.4878 26255.8
 28 03 2013  23 02  -21.0524 26031.7 -03421.4 -07.4875 26255.6
 28 03 2013  23 03  -21.0523 26031.5 -03421.3 -07.4873 26255.4
 28 03 2013  23 04  -21.0523 26031.4 -03421.2 -07.4872 26255.2
 28 03 2013  23 05  -21.0522 26031.4 -03421.2 -07.4872 26255.3
 28 03 2013  23 06  -21.0522 26031.5 -03421.2 -07.4873 26255.3
 28 03 2013  23 07  -21.0522 26031.4 -03421.2 -07.4873 26255.3
 28 03 2013  23 08  -21.0521 26031.4 -03421.2 -07.4872 26255.3
 28 03 2013  23 09  -21.0520 26031.5 -03421.2 -07.4873 26255.4
 28 03 2013  23 10  -21.0519 26031.5 -03421.2 -07.4873 26255.4
 28 03 2013  23 11  -21.0519 26031.5 -03421.3 -07.4873 26255.4
 28 03 2013  23 12  -21.0519 26031.5 -03421.2 -07.4872 26255.4
 28 03 2013  23 13  -21.0520 26031.6 -03421.3 -07.4873 26255.5
 28 03 2013  23 14  -21.0519 26031.8 -03421.3 -07.4874 26255.6
 28 03 2013  23 15  -21.0520 26031.8 -03421.4 -07.4875 26255.7
 28 03 2013  23 16  -21.0520 26031.9 -03421.4 -07.4875 26255.8
 28 03 2013  23 17  -21.0520 26032.0 -03421.4 -07.4875 26255.9
 28 03 2013  23 18  -21.0520 26032.4 -03421.5 -07.4877 26256.3
 28 03 2013  23 19  -21.0520 26032.6 -03421.7 -07.4879 26256.5
 28 03 2013  23 20  -21.0520 26032.9 -03421.8 -07.4881 26256.8
 28 03 2013  23 21  -21.0520 26032.9 -03421.7 -07.4880 26256.8
 28 03 2013  23 22  -21.0517 26033.0 -03421.8 -07.4881 26257.0
 28 03 2013  23 23  -21.0520 26032.9 -03421.7 -07.4878 26256.8
 28 03 2013  23 24  -21.0523 26032.3 -03421.4 -07.4875 26256.2
 28 03 2013  23 25  -21.0523 26031.9 -03421.1 -07.4870 26255.7
 28 03 2013  23 26  -21.0518 26032.0 -03421.1 -07.4869 26255.8
 28 03 2013  23 27  -21.0518 26031.9 -03421.1 -07.4870 26255.8
 28 03 2013  23 28  -21.0520 26031.8 -03421.1 -07.4869 26255.6
 28 03 2013  23 29  -21.0519 26031.5 -03421.0 -07.4867 26255.3
 28 03 2013  23 30  -21.0518 26031.5 -03420.9 -07.4866 26255.3
 28 03 2013  23 31  -21.0513 26031.7 -03421.0 -07.4868 26255.5
 28 03 2013  23 32  -21.0510 26032.2 -03421.3 -07.4872 26256.0
 28 03 2013  23 33  -21.0507 26032.4 -03421.4 -07.4875 26256.3
 28 03 2013  23 34  -21.0506 26032.6 -03421.6 -07.4877 26256.5
 28 03 2013  23 35  -21.0506 26032.8 -03421.7 -07.4878 26256.7
 28 03 2013  23 36  -21.0503 26033.0 -03421.8 -07.4880 26256.9
 28 03 2013  23 37  -21.0503 26033.0 -03421.8 -07.4880 26256.9
 28 03 2013  23 38  -21.0500 26033.4 -03422.0 -07.4883 26257.3
 28 03 2013  23 39  -21.0501 26033.5 -03422.0 -07.4884 26257.5
 28 03 2013  23 40  -21.0498 26033.8 -03422.2 -07.4886 26257.8
 28 03 2013  23 41  -21.0498 26034.1 -03422.3 -07.4888 26258.0
 28 03 2013  23 42  -21.0500 26034.3 -03422.4 -07.4889 26258.3
 28 03 2013  23 43  -21.0501 26034.4 -03422.4 -07.4890 26258.4
 28 03 2013  23 44  -21.0502 26034.6 -03422.4 -07.4889 26258.6
 28 03 2013  23 45  -21.0503 26034.7 -03422.4 -07.4889 26258.7
 28 03 2013  23 46  -21.0502 26034.9 -03422.5 -07.4890 26258.9
 28 03 2013  23 47  -21.0501 26035.3 -03422.6 -07.4891 26259.3
 28 03 2013  23 48  -21.0502 26035.4 -03422.6 -07.4891 26259.5
 28 03 2013  23 49  -21.0500 26035.8 -03422.7 -07.4893 26259.8
 28 03 2013  23 50  -21.0502 26035.8 -03422.6 -07.4891 26259.8
 28 03 2013  23 51  -21.0505 26035.7 -03422.6 -07.4889 26259.7
 28 03 2013  23 52  -21.0508 26035.6 -03422.4 -07.4887 26259.6
 28 03 2013  23 53  -21.0511 26035.3 -03422.2 -07.4883 26259.3
 28 03 2013  23 54  -21.0514 26035.0 -03422.0 -07.4880 26258.9
 28 03 2013  23 55  -21.0518 26034.6 -03421.8 -07.4875 26258.5
 28 03 2013  23 56  -21.0522 26034.2 -03421.5 -07.4871 26258.1
 28 03 2013  23 57  -21.0525 26033.8 -03421.3 -07.4867 26257.6
