SAO LUIS EMBRACE-03 <326> 1 Min. Reported data

 DD MM YYYY  HH MM   D(Deg)  H(nT)   Z(nT)   I(Deg)   F(nT)

 22 11 2013  00 00  -21.0039 26016.3 -03506.9 -07.6770 26251.6
 22 11 2013  00 01  -21.0039 26016.2 -03506.9 -07.6770 26251.5
 22 11 2013  00 02  -21.0040 26016.1 -03506.9 -07.6770 26251.4
 22 11 2013  00 03  -21.0042 26016.0 -03506.9 -07.6770 26251.3
 22 11 2013  00 04  -21.0043 26016.1 -03506.9 -07.6771 26251.4
 22 11 2013  00 05  -21.0044 26016.1 -03507.0 -07.6772 26251.4
 22 11 2013  00 06  -21.0045 26016.0 -03506.9 -07.6771 26251.3
 22 11 2013  00 07  -21.0047 26016.0 -03506.9 -07.6771 26251.3
 22 11 2013  00 08  -21.0049 26016.0 -03507.0 -07.6772 26251.3
 22 11 2013  00 09  -21.0048 26015.9 -03507.0 -07.6772 26251.3
 22 11 2013  00 10  -21.0047 26016.0 -03507.0 -07.6772 26251.3
 22 11 2013  00 11  -21.0048 26015.9 -03507.0 -07.6772 26251.2
 22 11 2013  00 12  -21.0049 26015.9 -03507.0 -07.6772 26251.2
 22 11 2013  00 13  -21.0050 26015.7 -03506.9 -07.6771 26251.0
 22 11 2013  00 14  -21.0049 26015.6 -03506.8 -07.6770 26250.9
 22 11 2013  00 15  -21.0047 26015.5 -03506.8 -07.6769 26250.7
 22 11 2013  00 16  -21.0047 26015.4 -03506.7 -07.6769 26250.7
 22 11 2013  00 17  -21.0048 26015.3 -03506.7 -07.6769 26250.6
 22 11 2013  00 18  -21.0050 26015.3 -03506.7 -07.6769 26250.5
 22 11 2013  00 19  -21.0051 26015.1 -03506.7 -07.6768 26250.4
 22 11 2013  00 20  -21.0052 26015.1 -03506.7 -07.6768 26250.4
 22 11 2013  00 21  -21.0055 26015.1 -03506.7 -07.6769 26250.3
 22 11 2013  00 22  -21.0057 26015.0 -03506.7 -07.6770 26250.3
 22 11 2013  00 23  -21.0057 26014.9 -03506.7 -07.6769 26250.2
 22 11 2013  00 24  -21.0057 26014.8 -03506.6 -07.6768 26250.1
 22 11 2013  00 25  -21.0057 26014.9 -03506.6 -07.6768 26250.1
 22 11 2013  00 26  -21.0061 26014.9 -03506.7 -07.6769 26250.1
 22 11 2013  00 27  -21.0066 26015.0 -03506.8 -07.6771 26250.3
 22 11 2013  00 28  -21.0068 26015.2 -03506.9 -07.6772 26250.5
 22 11 2013  00 29  -21.0072 26015.2 -03506.9 -07.6773 26250.5
 22 11 2013  00 30  -21.0073 26015.2 -03506.9 -07.6773 26250.5
 22 11 2013  00 31  -21.0073 26015.1 -03506.9 -07.6772 26250.4
 22 11 2013  00 32  -21.0073 26015.0 -03506.8 -07.6772 26250.3
 22 11 2013  00 33  -21.0074 26015.1 -03506.8 -07.6772 26250.4
 22 11 2013  00 34  -21.0075 26015.1 -03506.9 -07.6772 26250.4
 22 11 2013  00 35  -21.0073 26015.0 -03506.8 -07.6772 26250.3
 22 11 2013  00 36  -21.0069 26014.9 -03506.8 -07.6771 26250.2
 22 11 2013  00 37  -21.0069 26014.9 -03506.8 -07.6771 26250.2
 22 11 2013  00 38  -21.0070 26015.0 -03506.9 -07.6773 26250.3
 22 11 2013  00 39  -21.0073 26015.1 -03507.0 -07.6775 26250.4
 22 11 2013  00 40  -21.0076 26015.1 -03507.0 -07.6776 26250.4
 22 11 2013  00 41  -21.0079 26015.2 -03507.1 -07.6777 26250.5
 22 11 2013  00 42  -21.0083 26015.2 -03507.1 -07.6778 26250.6
 22 11 2013  00 43  -21.0086 26015.3 -03507.2 -07.6778 26250.6
 22 11 2013  00 44  -21.0087 26015.3 -03507.2 -07.6779 26250.7
 22 11 2013  00 45  -21.0090 26015.3 -03507.2 -07.6779 26250.7
 22 11 2013  00 46  -21.0091 26015.4 -03507.2 -07.6778 26250.7
 22 11 2013  00 47  -21.0092 26015.4 -03507.2 -07.6778 26250.8
 22 11 2013  00 48  -21.0093 26015.4 -03507.2 -07.6779 26250.7
 22 11 2013  00 49  -21.0094 26015.3 -03507.2 -07.6779 26250.7
 22 11 2013  00 50  -21.0094 26015.2 -03507.1 -07.6778 26250.6
 22 11 2013  00 51  -21.0094 26015.3 -03507.1 -07.6777 26250.6
 22 11 2013  00 52  -21.0094 26015.3 -03507.2 -07.6778 26250.6
 22 11 2013  00 53  -21.0092 26015.2 -03507.2 -07.6778 26250.6
 22 11 2013  00 54  -21.0090 26015.3 -03507.2 -07.6779 26250.6
 22 11 2013  00 55  -21.0090 26015.3 -03507.2 -07.6779 26250.6
 22 11 2013  00 56  -21.0089 26015.2 -03507.2 -07.6780 26250.6
 22 11 2013  00 57  -21.0088 26015.2 -03507.2 -07.6780 26250.5
 22 11 2013  00 58  -21.0088 26015.1 -03507.2 -07.6781 26250.5
 22 11 2013  00 59  -21.0088 26015.1 -03507.3 -07.6781 26250.4
 22 11 2013  01 00  -21.0088 26015.1 -03507.3 -07.6782 26250.4
 22 11 2013  01 01  -21.0087 26015.0 -03507.3 -07.6782 26250.4
 22 11 2013  01 02  -21.0086 26014.9 -03507.3 -07.6783 26250.3
 22 11 2013  01 03  -21.0084 26014.9 -03507.3 -07.6783 26250.3
 22 11 2013  01 04  -21.0082 26014.9 -03507.3 -07.6783 26250.2
 22 11 2013  01 05  -21.0083 26014.9 -03507.4 -07.6784 26250.3
 22 11 2013  01 06  -21.0086 26015.0 -03507.5 -07.6787 26250.3
 22 11 2013  01 07  -21.0086 26014.9 -03507.5 -07.6788 26250.3
 22 11 2013  01 08  -21.0086 26014.9 -03507.6 -07.6788 26250.3
 22 11 2013  01 09  -21.0085 26014.9 -03507.5 -07.6788 26250.3
 22 11 2013  01 10  -21.0083 26014.9 -03507.6 -07.6788 26250.3
 22 11 2013  01 11  -21.0080 26014.8 -03507.6 -07.6788 26250.2
 22 11 2013  01 12  -21.0078 26014.8 -03507.6 -07.6789 26250.2
 22 11 2013  01 13  -21.0077 26014.8 -03507.6 -07.6790 26250.2
 22 11 2013  01 14  -21.0075 26014.8 -03507.7 -07.6790 26250.2
 22 11 2013  01 15  -21.0074 26014.8 -03507.7 -07.6791 26250.2
 22 11 2013  01 16  -21.0071 26014.7 -03507.7 -07.6792 26250.1
 22 11 2013  01 17  -21.0068 26014.7 -03507.8 -07.6793 26250.2
 22 11 2013  01 18  -21.0066 26014.7 -03507.8 -07.6794 26250.1
 22 11 2013  01 19  -21.0064 26014.6 -03507.8 -07.6795 26250.1
 22 11 2013  01 20  -21.0062 26014.6 -03507.9 -07.6796 26250.0
 22 11 2013  01 21  -21.0061 26014.6 -03507.9 -07.6797 26250.0
 22 11 2013  01 22  -21.0062 26014.6 -03508.0 -07.6798 26250.0
 22 11 2013  01 23  -21.0061 26014.6 -03508.0 -07.6799 26250.0
 22 11 2013  01 24  -21.0059 26014.6 -03508.0 -07.6799 26250.0
 22 11 2013  01 25  -21.0056 26014.5 -03508.0 -07.6799 26250.0
 22 11 2013  01 26  -21.0053 26014.5 -03508.1 -07.6800 26250.0
 22 11 2013  01 27  -21.0053 26014.6 -03508.1 -07.6801 26250.0
 22 11 2013  01 28  -21.0052 26014.6 -03508.2 -07.6802 26250.1
 22 11 2013  01 29  -21.0051 26014.7 -03508.2 -07.6803 26250.1
 22 11 2013  01 30  -21.0051 26014.7 -03508.3 -07.6804 26250.2
 22 11 2013  01 31  -21.0051 26014.7 -03508.3 -07.6804 26250.2
 22 11 2013  01 32  -21.0051 26014.7 -03508.3 -07.6805 26250.2
 22 11 2013  01 33  -21.0051 26014.7 -03508.3 -07.6805 26250.2
 22 11 2013  01 34  -21.0049 26014.7 -03508.3 -07.6805 26250.2
 22 11 2013  01 35  -21.0048 26014.6 -03508.3 -07.6805 26250.1
 22 11 2013  01 36  -21.0047 26014.7 -03508.3 -07.6805 26250.1
 22 11 2013  01 37  -21.0046 26014.7 -03508.3 -07.6805 26250.2
 22 11 2013  01 38  -21.0045 26014.7 -03508.3 -07.6805 26250.2
 22 11 2013  01 39  -21.0044 26014.7 -03508.4 -07.6806 26250.2
 22 11 2013  01 40  -21.0043 26014.7 -03508.4 -07.6806 26250.2
 22 11 2013  01 41  -21.0042 26014.7 -03508.4 -07.6806 26250.2
 22 11 2013  01 42  -21.0041 26014.8 -03508.4 -07.6806 26250.3
 22 11 2013  01 43  -21.0041 26014.8 -03508.4 -07.6807 26250.3
 22 11 2013  01 44  -21.0042 26014.9 -03508.4 -07.6807 26250.4
 22 11 2013  01 45  -21.0043 26014.9 -03508.5 -07.6808 26250.4
 22 11 2013  01 46  -21.0044 26014.9 -03508.5 -07.6808 26250.5
 22 11 2013  01 47  -21.0044 26015.0 -03508.5 -07.6808 26250.5
 22 11 2013  01 48  -21.0045 26015.0 -03508.5 -07.6809 26250.5
 22 11 2013  01 49  -21.0045 26015.1 -03508.6 -07.6809 26250.6
 22 11 2013  01 50  -21.0046 26015.1 -03508.6 -07.6810 26250.7
 22 11 2013  01 51  -21.0047 26015.3 -03508.7 -07.6812 26250.8
 22 11 2013  01 52  -21.0050 26015.4 -03508.8 -07.6813 26250.9
 22 11 2013  01 53  -21.0052 26015.5 -03508.9 -07.6815 26251.0
 22 11 2013  01 54  -21.0054 26015.5 -03508.9 -07.6814 26251.1
 22 11 2013  01 55  -21.0057 26015.6 -03508.9 -07.6815 26251.2
 22 11 2013  01 56  -21.0059 26015.7 -03508.9 -07.6815 26251.2
 22 11 2013  01 57  -21.0061 26015.7 -03508.9 -07.6815 26251.3
 22 11 2013  01 58  -21.0063 26015.8 -03508.9 -07.6815 26251.3
 22 11 2013  01 59  -21.0062 26015.7 -03508.9 -07.6815 26251.3
 22 11 2013  02 00  -21.0060 26015.7 -03508.9 -07.6814 26251.3
 22 11 2013  02 01  -21.0059 26015.7 -03508.9 -07.6814 26251.2
 22 11 2013  02 02  -21.0057 26015.7 -03508.8 -07.6814 26251.2
 22 11 2013  02 03  -21.0054 26015.6 -03508.8 -07.6814 26251.2
 22 11 2013  02 04  -21.0052 26015.6 -03508.8 -07.6813 26251.1
 22 11 2013  02 05  -21.0050 26015.5 -03508.8 -07.6814 26251.1
 22 11 2013  02 06  -21.0048 26015.5 -03508.8 -07.6813 26251.1
 22 11 2013  02 07  -21.0047 26015.5 -03508.8 -07.6814 26251.1
 22 11 2013  02 08  -21.0048 26015.5 -03508.9 -07.6815 26251.1
 22 11 2013  02 09  -21.0049 26015.5 -03508.9 -07.6816 26251.1
 22 11 2013  02 10  -21.0048 26015.5 -03508.9 -07.6816 26251.1
 22 11 2013  02 11  -21.0048 26015.5 -03508.9 -07.6816 26251.0
 22 11 2013  02 12  -21.0048 26015.5 -03508.9 -07.6816 26251.1
 22 11 2013  02 13  -21.0048 26015.4 -03508.9 -07.6816 26251.0
 22 11 2013  02 14  -21.0047 26015.4 -03508.9 -07.6816 26251.0
 22 11 2013  02 15  -21.0046 26015.4 -03509.0 -07.6817 26251.0
 22 11 2013  02 16  -21.0046 26015.4 -03509.0 -07.6817 26251.0
 22 11 2013  02 17  -21.0046 26015.5 -03509.0 -07.6817 26251.1
 22 11 2013  02 18  -21.0047 26015.5 -03509.0 -07.6818 26251.1
 22 11 2013  02 19  -21.0047 26015.5 -03509.0 -07.6818 26251.1
 22 11 2013  02 20  -21.0046 26015.5 -03509.1 -07.6818 26251.1
 22 11 2013  02 21  -21.0045 26015.6 -03509.0 -07.6818 26251.2
 22 11 2013  02 22  -21.0044 26015.6 -03509.1 -07.6818 26251.2
 22 11 2013  02 23  -21.0043 26015.6 -03509.1 -07.6818 26251.2
 22 11 2013  02 24  -21.0043 26015.7 -03509.1 -07.6819 26251.3
 22 11 2013  02 25  -21.0043 26015.8 -03509.1 -07.6819 26251.4
 22 11 2013  02 26  -21.0044 26015.8 -03509.2 -07.6820 26251.4
 22 11 2013  02 27  -21.0044 26015.9 -03509.2 -07.6821 26251.5
 22 11 2013  02 28  -21.0045 26016.0 -03509.2 -07.6821 26251.6
 22 11 2013  02 29  -21.0046 26016.0 -03509.2 -07.6820 26251.6
 22 11 2013  02 30  -21.0047 26016.0 -03509.2 -07.6820 26251.6
 22 11 2013  02 31  -21.0047 26016.0 -03509.2 -07.6820 26251.6
 22 11 2013  02 32  -21.0046 26016.0 -03509.2 -07.6819 26251.6
 22 11 2013  02 33  -21.0045 26016.0 -03509.2 -07.6819 26251.6
 22 11 2013  02 34  -21.0044 26016.0 -03509.1 -07.6819 26251.6
 22 11 2013  02 35  -21.0043 26016.0 -03509.1 -07.6818 26251.5
 22 11 2013  02 36  -21.0042 26015.9 -03509.1 -07.6819 26251.5
 22 11 2013  02 37  -21.0040 26015.9 -03509.1 -07.6818 26251.5
 22 11 2013  02 38  -21.0039 26015.9 -03509.1 -07.6818 26251.5
 22 11 2013  02 39  -21.0039 26015.9 -03509.1 -07.6818 26251.5
 22 11 2013  02 40  -21.0038 26016.0 -03509.1 -07.6819 26251.6
 22 11 2013  02 41  -21.0038 26016.0 -03509.1 -07.6818 26251.6
 22 11 2013  02 42  -21.0038 26016.0 -03509.1 -07.6819 26251.6
 22 11 2013  02 43  -21.0038 26016.1 -03509.2 -07.6819 26251.7
 22 11 2013  02 44  -21.0038 26016.1 -03509.2 -07.6820 26251.7
 22 11 2013  02 45  -21.0038 26016.2 -03509.2 -07.6820 26251.8
 22 11 2013  02 46  -21.0037 26016.2 -03509.2 -07.6821 26251.9
 22 11 2013  02 47  -21.0037 26016.3 -03509.3 -07.6821 26251.9
 22 11 2013  02 48  -21.0037 26016.4 -03509.3 -07.6822 26252.0
 22 11 2013  02 49  -21.0037 26016.4 -03509.4 -07.6822 26252.1
 22 11 2013  02 50  -21.0037 26016.5 -03509.4 -07.6823 26252.1
 22 11 2013  02 51  -21.0036 26016.5 -03509.4 -07.6824 26252.1
 22 11 2013  02 52  -21.0035 26016.5 -03509.4 -07.6824 26252.1
 22 11 2013  02 53  -21.0034 26016.5 -03509.4 -07.6824 26252.1
 22 11 2013  02 54  -21.0034 26016.5 -03509.5 -07.6824 26252.2
 22 11 2013  02 55  -21.0033 26016.5 -03509.5 -07.6825 26252.2
 22 11 2013  02 56  -21.0034 26016.5 -03509.5 -07.6825 26252.1
 22 11 2013  02 57  -21.0034 26016.5 -03509.5 -07.6826 26252.1
 22 11 2013  02 58  -21.0035 26016.5 -03509.5 -07.6826 26252.1
 22 11 2013  02 59  -21.0035 26016.5 -03509.5 -07.6826 26252.1
 22 11 2013  03 00  -21.0036 26016.5 -03509.6 -07.6827 26252.1
 22 11 2013  03 01  -21.0038 26016.5 -03509.6 -07.6827 26252.1
 22 11 2013  03 02  -21.0040 26016.5 -03509.6 -07.6828 26252.2
 22 11 2013  03 03  -21.0041 26016.5 -03509.6 -07.6828 26252.2
 22 11 2013  03 04  -21.0042 26016.5 -03509.6 -07.6828 26252.2
 22 11 2013  03 05  -21.0041 26016.5 -03509.6 -07.6827 26252.1
 22 11 2013  03 06  -21.0041 26016.5 -03509.6 -07.6827 26252.1
 22 11 2013  03 07  -21.0041 26016.4 -03509.6 -07.6827 26252.1
 22 11 2013  03 08  -21.0040 26016.4 -03509.5 -07.6827 26252.1
 22 11 2013  03 09  -21.0040 26016.5 -03509.5 -07.6826 26252.1
 22 11 2013  03 10  -21.0041 26016.4 -03509.5 -07.6826 26252.1
 22 11 2013  03 11  -21.0040 26016.5 -03509.5 -07.6826 26252.1
 22 11 2013  03 12  -21.0040 26016.4 -03509.6 -07.6827 26252.1
 22 11 2013  03 13  -21.0038 26016.3 -03509.5 -07.6826 26252.0
 22 11 2013  03 14  -21.0037 26016.3 -03509.4 -07.6825 26251.9
 22 11 2013  03 15  -21.0037 26016.2 -03509.5 -07.6825 26251.8
 22 11 2013  03 16  -21.0037 26016.2 -03509.5 -07.6826 26251.8
 22 11 2013  03 17  -21.0037 26016.2 -03509.5 -07.6826 26251.8
 22 11 2013  03 18  -21.0036 26016.2 -03509.5 -07.6826 26251.8
 22 11 2013  03 19  -21.0036 26016.2 -03509.5 -07.6826 26251.9
 22 11 2013  03 20  -21.0036 26016.3 -03509.6 -07.6828 26251.9
 22 11 2013  03 21  -21.0037 26016.3 -03509.6 -07.6828 26252.0
 22 11 2013  03 22  -21.0038 26016.4 -03509.7 -07.6830 26252.1
 22 11 2013  03 23  -21.0039 26016.6 -03509.8 -07.6831 26252.2
 22 11 2013  03 24  -21.0040 26016.6 -03509.8 -07.6831 26252.3
 22 11 2013  03 25  -21.0042 26016.8 -03509.8 -07.6832 26252.5
 22 11 2013  03 26  -21.0043 26016.9 -03510.0 -07.6834 26252.6
 22 11 2013  03 27  -21.0045 26017.1 -03510.0 -07.6834 26252.8
 22 11 2013  03 28  -21.0046 26017.2 -03510.0 -07.6834 26252.9
 22 11 2013  03 29  -21.0049 26017.4 -03510.1 -07.6836 26253.1
 22 11 2013  03 30  -21.0051 26017.6 -03510.1 -07.6836 26253.3
 22 11 2013  03 31  -21.0053 26017.7 -03510.2 -07.6838 26253.4
 22 11 2013  03 32  -21.0054 26017.8 -03510.2 -07.6837 26253.5
 22 11 2013  03 33  -21.0056 26017.9 -03510.2 -07.6837 26253.6
 22 11 2013  03 34  -21.0057 26018.0 -03510.3 -07.6837 26253.7
 22 11 2013  03 35  -21.0058 26018.0 -03510.3 -07.6837 26253.7
 22 11 2013  03 36  -21.0059 26018.1 -03510.2 -07.6836 26253.8
 22 11 2013  03 37  -21.0059 26018.0 -03510.2 -07.6836 26253.8
 22 11 2013  03 38  -21.0059 26018.1 -03510.2 -07.6835 26253.8
 22 11 2013  03 39  -21.0059 26018.1 -03510.1 -07.6835 26253.8
 22 11 2013  03 40  -21.0060 26018.1 -03510.2 -07.6835 26253.8
 22 11 2013  03 41  -21.0061 26018.1 -03510.1 -07.6834 26253.8
 22 11 2013  03 42  -21.0061 26018.1 -03510.1 -07.6835 26253.8
 22 11 2013  03 43  -21.0062 26018.1 -03510.1 -07.6834 26253.8
 22 11 2013  03 44  -21.0062 26018.1 -03510.1 -07.6834 26253.8
 22 11 2013  03 45  -21.0064 26018.2 -03510.2 -07.6835 26253.9
 22 11 2013  03 46  -21.0065 26018.2 -03510.2 -07.6835 26254.0
 22 11 2013  03 47  -21.0065 26018.2 -03510.2 -07.6835 26254.0
 22 11 2013  03 48  -21.0066 26018.3 -03510.2 -07.6835 26254.0
 22 11 2013  03 49  -21.0067 26018.3 -03510.2 -07.6835 26254.0
 22 11 2013  03 50  -21.0067 26018.4 -03510.2 -07.6835 26254.1
 22 11 2013  03 51  -21.0068 26018.4 -03510.2 -07.6835 26254.1
 22 11 2013  03 52  -21.0069 26018.4 -03510.2 -07.6835 26254.1
 22 11 2013  03 53  -21.0071 26018.4 -03510.2 -07.6835 26254.1
 22 11 2013  03 54  -21.0072 26018.5 -03510.3 -07.6836 26254.2
 22 11 2013  03 55  -21.0071 26018.5 -03510.2 -07.6836 26254.2
 22 11 2013  03 56  -21.0072 26018.5 -03510.2 -07.6835 26254.2
 22 11 2013  03 57  -21.0071 26018.5 -03510.2 -07.6835 26254.2
 22 11 2013  03 58  -21.0072 26018.5 -03510.3 -07.6836 26254.2
 22 11 2013  03 59  -21.0072 26018.6 -03510.2 -07.6835 26254.3
 22 11 2013  04 00  -21.0074 26018.6 -03510.3 -07.6836 26254.3
 22 11 2013  04 01  -21.0073 26018.6 -03510.3 -07.6836 26254.3
 22 11 2013  04 02  -21.0074 26018.6 -03510.3 -07.6836 26254.3
 22 11 2013  04 03  -21.0075 26018.6 -03510.3 -07.6837 26254.4
 22 11 2013  04 04  -21.0074 26018.6 -03510.3 -07.6836 26254.3
 22 11 2013  04 05  -21.0075 26018.6 -03510.3 -07.6836 26254.3
 22 11 2013  04 06  -21.0076 26018.5 -03510.3 -07.6836 26254.2
 22 11 2013  04 07  -21.0075 26018.5 -03510.2 -07.6835 26254.2
 22 11 2013  04 08  -21.0076 26018.4 -03510.2 -07.6834 26254.1
 22 11 2013  04 09  -21.0076 26018.4 -03510.1 -07.6834 26254.1
 22 11 2013  04 10  -21.0077 26018.4 -03510.2 -07.6834 26254.1
 22 11 2013  04 11  -21.0077 26018.3 -03510.1 -07.6834 26254.0
 22 11 2013  04 12  -21.0076 26018.3 -03510.1 -07.6833 26254.0
 22 11 2013  04 13  -21.0076 26018.3 -03510.1 -07.6833 26254.0
 22 11 2013  04 14  -21.0076 26018.3 -03510.1 -07.6833 26254.0
 22 11 2013  04 15  -21.0075 26018.2 -03510.1 -07.6833 26253.9
 22 11 2013  04 16  -21.0074 26018.2 -03510.1 -07.6832 26253.9
 22 11 2013  04 17  -21.0075 26018.2 -03510.1 -07.6832 26253.9
 22 11 2013  04 18  -21.0074 26018.2 -03510.0 -07.6832 26253.8
 22 11 2013  04 19  -21.0074 26018.1 -03510.0 -07.6832 26253.8
 22 11 2013  04 20  -21.0073 26018.1 -03510.0 -07.6832 26253.8
 22 11 2013  04 21  -21.0072 26018.0 -03510.0 -07.6832 26253.7
 22 11 2013  04 22  -21.0072 26018.0 -03509.9 -07.6830 26253.7
 22 11 2013  04 23  -21.0070 26017.9 -03509.9 -07.6830 26253.6
 22 11 2013  04 24  -21.0070 26017.9 -03509.9 -07.6830 26253.6
 22 11 2013  04 25  -21.0069 26017.8 -03509.9 -07.6830 26253.5
 22 11 2013  04 26  -21.0068 26017.8 -03509.9 -07.6829 26253.5
 22 11 2013  04 27  -21.0067 26017.8 -03509.9 -07.6829 26253.4
 22 11 2013  04 28  -21.0067 26017.8 -03509.9 -07.6830 26253.5
 22 11 2013  04 29  -21.0066 26017.8 -03509.9 -07.6830 26253.5
 22 11 2013  04 30  -21.0066 26017.8 -03509.9 -07.6829 26253.5
 22 11 2013  04 31  -21.0066 26017.8 -03509.9 -07.6830 26253.5
 22 11 2013  04 32  -21.0065 26017.8 -03509.9 -07.6831 26253.5
 22 11 2013  04 33  -21.0066 26017.9 -03509.9 -07.6831 26253.6
 22 11 2013  04 34  -21.0066 26017.9 -03509.9 -07.6831 26253.6
 22 11 2013  04 35  -21.0066 26017.9 -03510.0 -07.6831 26253.6
 22 11 2013  04 36  -21.0065 26017.9 -03510.0 -07.6831 26253.6
 22 11 2013  04 37  -21.0065 26017.9 -03509.9 -07.6831 26253.6
 22 11 2013  04 38  -21.0064 26017.9 -03509.9 -07.6831 26253.6
 22 11 2013  04 39  -21.0064 26017.9 -03510.0 -07.6832 26253.6
 22 11 2013  04 40  -21.0065 26017.9 -03509.9 -07.6831 26253.6
 22 11 2013  04 41  -21.0065 26017.9 -03510.0 -07.6832 26253.6
 22 11 2013  04 42  -21.0068 26018.0 -03510.0 -07.6833 26253.7
 22 11 2013  04 43  -21.0068 26018.0 -03510.0 -07.6833 26253.7
 22 11 2013  04 44  -21.0070 26018.0 -03510.1 -07.6833 26253.7
 22 11 2013  04 45  -21.0071 26018.1 -03510.1 -07.6834 26253.8
 22 11 2013  04 46  -21.0072 26018.2 -03510.1 -07.6834 26253.9
 22 11 2013  04 47  -21.0073 26018.2 -03510.2 -07.6835 26253.9
 22 11 2013  04 48  -21.0073 26018.3 -03510.2 -07.6836 26254.1
 22 11 2013  04 49  -21.0074 26018.4 -03510.3 -07.6836 26254.1
 22 11 2013  04 50  -21.0075 26018.4 -03510.3 -07.6836 26254.2
 22 11 2013  04 51  -21.0075 26018.5 -03510.3 -07.6837 26254.2
 22 11 2013  04 52  -21.0077 26018.6 -03510.3 -07.6837 26254.3
 22 11 2013  04 53  -21.0079 26018.7 -03510.4 -07.6839 26254.4
 22 11 2013  04 54  -21.0080 26018.8 -03510.4 -07.6839 26254.6
 22 11 2013  04 55  -21.0081 26018.9 -03510.5 -07.6839 26254.7
 22 11 2013  04 56  -21.0084 26019.0 -03510.5 -07.6841 26254.8
 22 11 2013  04 57  -21.0085 26019.1 -03510.6 -07.6840 26254.9
 22 11 2013  04 58  -21.0087 26019.2 -03510.6 -07.6841 26255.0
 22 11 2013  04 59  -21.0090 26019.3 -03510.6 -07.6841 26255.1
 22 11 2013  05 00  -21.0093 26019.4 -03510.6 -07.6842 26255.1
 22 11 2013  05 01  -21.0095 26019.4 -03510.7 -07.6842 26255.2
 22 11 2013  05 02  -21.0097 26019.5 -03510.6 -07.6841 26255.2
 22 11 2013  05 03  -21.0098 26019.5 -03510.6 -07.6841 26255.3
 22 11 2013  05 04  -21.0099 26019.6 -03510.6 -07.6840 26255.3
 22 11 2013  05 05  -21.0100 26019.5 -03510.6 -07.6840 26255.3
 22 11 2013  05 06  -21.0100 26019.4 -03510.5 -07.6839 26255.2
 22 11 2013  05 07  -21.0101 26019.4 -03510.5 -07.6838 26255.2
 22 11 2013  05 08  -21.0102 26019.4 -03510.4 -07.6837 26255.1
 22 11 2013  05 09  -21.0103 26019.3 -03510.4 -07.6837 26255.0
 22 11 2013  05 10  -21.0103 26019.3 -03510.3 -07.6836 26255.0
 22 11 2013  05 11  -21.0105 26019.2 -03510.3 -07.6835 26254.9
 22 11 2013  05 12  -21.0106 26019.2 -03510.3 -07.6834 26254.9
 22 11 2013  05 13  -21.0107 26019.2 -03510.2 -07.6834 26254.9
 22 11 2013  05 14  -21.0109 26019.2 -03510.2 -07.6834 26254.9
 22 11 2013  05 15  -21.0112 26019.2 -03510.3 -07.6834 26254.9
 22 11 2013  05 16  -21.0114 26019.2 -03510.2 -07.6833 26254.9
 22 11 2013  05 17  -21.0117 26019.2 -03510.2 -07.6833 26254.9
 22 11 2013  05 18  -21.0118 26019.2 -03510.2 -07.6832 26254.9
 22 11 2013  05 19  -21.0121 26019.2 -03510.2 -07.6832 26255.0
 22 11 2013  05 20  -21.0124 26019.3 -03510.2 -07.6833 26255.0
 22 11 2013  05 21  -21.0125 26019.3 -03510.2 -07.6832 26255.0
 22 11 2013  05 22  -21.0128 26019.4 -03510.2 -07.6832 26255.1
 22 11 2013  05 23  -21.0130 26019.4 -03510.2 -07.6832 26255.1
 22 11 2013  05 24  -21.0132 26019.5 -03510.2 -07.6831 26255.2
 22 11 2013  05 25  -21.0135 26019.5 -03510.2 -07.6831 26255.2
 22 11 2013  05 26  -21.0137 26019.5 -03510.2 -07.6831 26255.2
 22 11 2013  05 27  -21.0137 26019.5 -03510.2 -07.6831 26255.2
 22 11 2013  05 28  -21.0138 26019.5 -03510.1 -07.6829 26255.2
 22 11 2013  05 29  -21.0140 26019.5 -03510.1 -07.6829 26255.2
 22 11 2013  05 30  -21.0141 26019.5 -03510.0 -07.6828 26255.2
 22 11 2013  05 31  -21.0142 26019.5 -03510.0 -07.6828 26255.2
 22 11 2013  05 32  -21.0143 26019.6 -03510.0 -07.6826 26255.2
 22 11 2013  05 33  -21.0143 26019.6 -03510.0 -07.6826 26255.3
 22 11 2013  05 34  -21.0144 26019.6 -03510.0 -07.6827 26255.3
 22 11 2013  05 35  -21.0144 26019.7 -03509.9 -07.6826 26255.3
 22 11 2013  05 36  -21.0144 26019.6 -03509.9 -07.6826 26255.3
 22 11 2013  05 37  -21.0143 26019.7 -03509.9 -07.6825 26255.3
 22 11 2013  05 38  -21.0143 26019.7 -03509.9 -07.6824 26255.3
 22 11 2013  05 39  -21.0142 26019.7 -03509.8 -07.6824 26255.3
 22 11 2013  05 40  -21.0143 26019.8 -03509.9 -07.6824 26255.4
 22 11 2013  05 41  -21.0143 26019.8 -03509.9 -07.6824 26255.4
 22 11 2013  05 42  -21.0144 26019.9 -03509.9 -07.6824 26255.5
 22 11 2013  05 43  -21.0145 26019.9 -03509.9 -07.6824 26255.6
 22 11 2013  05 44  -21.0146 26019.9 -03509.9 -07.6824 26255.6
 22 11 2013  05 45  -21.0147 26019.9 -03509.9 -07.6823 26255.6
 22 11 2013  05 46  -21.0148 26019.9 -03509.9 -07.6823 26255.6
 22 11 2013  05 47  -21.0149 26020.0 -03509.8 -07.6823 26255.6
 22 11 2013  05 48  -21.0150 26020.0 -03509.9 -07.6823 26255.7
 22 11 2013  05 49  -21.0151 26020.0 -03509.9 -07.6823 26255.7
 22 11 2013  05 50  -21.0152 26020.1 -03509.9 -07.6823 26255.8
 22 11 2013  05 51  -21.0153 26020.1 -03509.9 -07.6823 26255.8
 22 11 2013  05 52  -21.0153 26020.2 -03509.9 -07.6823 26255.8
 22 11 2013  05 53  -21.0154 26020.2 -03509.8 -07.6822 26255.9
 22 11 2013  05 54  -21.0155 26020.3 -03509.9 -07.6822 26255.9
 22 11 2013  05 55  -21.0155 26020.3 -03509.9 -07.6823 26255.9
 22 11 2013  05 56  -21.0156 26020.3 -03509.9 -07.6823 26256.0
 22 11 2013  05 57  -21.0156 26020.3 -03509.9 -07.6822 26255.9
 22 11 2013  05 58  -21.0157 26020.3 -03509.9 -07.6822 26256.0
 22 11 2013  05 59  -21.0157 26020.3 -03509.8 -07.6821 26255.9
 22 11 2013  06 00  -21.0158 26020.3 -03509.8 -07.6821 26255.9
 22 11 2013  06 01  -21.0159 26020.3 -03509.8 -07.6820 26255.9
 22 11 2013  06 02  -21.0159 26020.3 -03509.8 -07.6821 26255.9
 22 11 2013  06 03  -21.0161 26020.3 -03509.8 -07.6820 26256.0
 22 11 2013  06 04  -21.0161 26020.4 -03509.8 -07.6820 26256.0
 22 11 2013  06 05  -21.0162 26020.3 -03509.8 -07.6820 26256.0
 22 11 2013  06 06  -21.0162 26020.4 -03509.8 -07.6820 26256.0
 22 11 2013  06 07  -21.0163 26020.3 -03509.7 -07.6819 26256.0
 22 11 2013  06 08  -21.0163 26020.3 -03509.7 -07.6818 26256.0
 22 11 2013  06 09  -21.0163 26020.4 -03509.7 -07.6818 26256.0
 22 11 2013  06 10  -21.0163 26020.4 -03509.7 -07.6818 26256.0
 22 11 2013  06 11  -21.0163 26020.4 -03509.7 -07.6818 26256.0
 22 11 2013  06 12  -21.0163 26020.4 -03509.7 -07.6817 26256.1
 22 11 2013  06 13  -21.0163 26020.5 -03509.7 -07.6817 26256.1
 22 11 2013  06 14  -21.0163 26020.5 -03509.7 -07.6818 26256.2
 22 11 2013  06 15  -21.0163 26020.5 -03509.7 -07.6818 26256.2
 22 11 2013  06 16  -21.0162 26020.4 -03509.6 -07.6816 26256.0
 22 11 2013  06 17  -21.0163 26020.4 -03509.6 -07.6816 26256.0
 22 11 2013  06 18  -21.0162 26020.4 -03509.5 -07.6815 26256.0
 22 11 2013  06 19  -21.0162 26020.4 -03509.5 -07.6815 26256.0
 22 11 2013  06 20  -21.0163 26020.4 -03509.5 -07.6814 26256.0
 22 11 2013  06 21  -21.0161 26020.4 -03509.5 -07.6814 26256.0
 22 11 2013  06 22  -21.0160 26020.4 -03509.5 -07.6814 26256.0
 22 11 2013  06 23  -21.0159 26020.4 -03509.5 -07.6814 26256.0
 22 11 2013  06 24  -21.0158 26020.4 -03509.5 -07.6814 26256.0
 22 11 2013  06 25  -21.0157 26020.4 -03509.5 -07.6814 26256.0
 22 11 2013  06 26  -21.0158 26020.4 -03509.5 -07.6814 26256.0
 22 11 2013  06 27  -21.0157 26020.4 -03509.5 -07.6814 26256.0
 22 11 2013  06 28  -21.0155 26020.4 -03509.5 -07.6813 26256.0
 22 11 2013  06 29  -21.0155 26020.4 -03509.4 -07.6813 26256.0
 22 11 2013  06 30  -21.0154 26020.4 -03509.5 -07.6814 26256.0
 22 11 2013  06 31  -21.0152 26020.3 -03509.4 -07.6813 26255.9
 22 11 2013  06 32  -21.0150 26020.3 -03509.4 -07.6812 26255.9
 22 11 2013  06 33  -21.0150 26020.3 -03509.4 -07.6812 26255.9
 22 11 2013  06 34  -21.0150 26020.3 -03509.4 -07.6811 26255.8
 22 11 2013  06 35  -21.0149 26020.3 -03509.4 -07.6811 26255.8
 22 11 2013  06 36  -21.0150 26020.2 -03509.4 -07.6812 26255.8
 22 11 2013  06 37  -21.0149 26020.2 -03509.4 -07.6812 26255.8
 22 11 2013  06 38  -21.0149 26020.2 -03509.4 -07.6812 26255.8
 22 11 2013  06 39  -21.0149 26020.3 -03509.4 -07.6813 26255.9
 22 11 2013  06 40  -21.0148 26020.3 -03509.5 -07.6813 26255.9
 22 11 2013  06 41  -21.0146 26020.4 -03509.4 -07.6813 26255.9
 22 11 2013  06 42  -21.0146 26020.4 -03509.5 -07.6814 26256.0
 22 11 2013  06 43  -21.0146 26020.4 -03509.5 -07.6813 26256.0
 22 11 2013  06 44  -21.0144 26020.5 -03509.5 -07.6814 26256.1
 22 11 2013  06 45  -21.0144 26020.4 -03509.5 -07.6814 26256.1
 22 11 2013  06 46  -21.0142 26020.5 -03509.5 -07.6814 26256.1
 22 11 2013  06 47  -21.0141 26020.5 -03509.6 -07.6815 26256.1
 22 11 2013  06 48  -21.0139 26020.5 -03509.6 -07.6815 26256.2
 22 11 2013  06 49  -21.0138 26020.6 -03509.5 -07.6814 26256.2
 22 11 2013  06 50  -21.0138 26020.6 -03509.6 -07.6816 26256.2
 22 11 2013  06 51  -21.0137 26020.7 -03509.6 -07.6816 26256.3
 22 11 2013  06 52  -21.0136 26020.8 -03509.7 -07.6817 26256.4
 22 11 2013  06 53  -21.0136 26020.8 -03509.7 -07.6818 26256.4
 22 11 2013  06 54  -21.0136 26020.9 -03509.8 -07.6818 26256.5
 22 11 2013  06 55  -21.0137 26020.9 -03509.8 -07.6819 26256.5
 22 11 2013  06 56  -21.0136 26021.0 -03509.8 -07.6819 26256.6
 22 11 2013  06 57  -21.0137 26021.0 -03509.9 -07.6820 26256.7
 22 11 2013  06 58  -21.0137 26021.1 -03509.9 -07.6820 26256.7
 22 11 2013  06 59  -21.0137 26021.0 -03509.9 -07.6820 26256.7
 22 11 2013  07 00  -21.0137 26021.1 -03509.9 -07.6820 26256.7
 22 11 2013  07 01  -21.0137 26021.0 -03509.9 -07.6820 26256.7
 22 11 2013  07 02  -21.0136 26021.1 -03509.9 -07.6820 26256.7
 22 11 2013  07 03  -21.0136 26021.1 -03509.9 -07.6820 26256.7
 22 11 2013  07 04  -21.0134 26021.1 -03509.8 -07.6819 26256.7
 22 11 2013  07 05  -21.0133 26021.0 -03509.8 -07.6819 26256.7
 22 11 2013  07 06  -21.0132 26021.0 -03509.8 -07.6819 26256.6
 22 11 2013  07 07  -21.0131 26020.9 -03509.8 -07.6819 26256.6
 22 11 2013  07 08  -21.0129 26020.9 -03509.8 -07.6818 26256.5
 22 11 2013  07 09  -21.0128 26020.9 -03509.8 -07.6818 26256.5
 22 11 2013  07 10  -21.0127 26020.9 -03509.8 -07.6818 26256.5
 22 11 2013  07 11  -21.0125 26020.9 -03509.8 -07.6819 26256.5
 22 11 2013  07 12  -21.0124 26020.9 -03509.8 -07.6819 26256.5
 22 11 2013  07 13  -21.0122 26020.8 -03509.8 -07.6818 26256.4
 22 11 2013  07 14  -21.0121 26020.7 -03509.8 -07.6818 26256.4
 22 11 2013  07 15  -21.0120 26020.7 -03509.8 -07.6819 26256.3
 22 11 2013  07 16  -21.0118 26020.6 -03509.7 -07.6818 26256.3
 22 11 2013  07 17  -21.0117 26020.6 -03509.7 -07.6818 26256.2
 22 11 2013  07 18  -21.0115 26020.6 -03509.7 -07.6818 26256.2
 22 11 2013  07 19  -21.0114 26020.6 -03509.7 -07.6819 26256.2
 22 11 2013  07 20  -21.0112 26020.6 -03509.7 -07.6818 26256.2
 22 11 2013  07 21  -21.0111 26020.6 -03509.7 -07.6818 26256.2
 22 11 2013  07 22  -21.0110 26020.6 -03509.7 -07.6818 26256.2
 22 11 2013  07 23  -21.0108 26020.6 -03509.8 -07.6819 26256.2
 22 11 2013  07 24  -21.0106 26020.6 -03509.8 -07.6819 26256.2
 22 11 2013  07 25  -21.0105 26020.6 -03509.8 -07.6819 26256.3
 22 11 2013  07 26  -21.0104 26020.6 -03509.8 -07.6820 26256.3
 22 11 2013  07 27  -21.0103 26020.7 -03509.8 -07.6820 26256.4
 22 11 2013  07 28  -21.0102 26020.7 -03509.8 -07.6820 26256.4
 22 11 2013  07 29  -21.0101 26020.7 -03509.9 -07.6821 26256.4
 22 11 2013  07 30  -21.0099 26020.8 -03509.9 -07.6821 26256.4
 22 11 2013  07 31  -21.0100 26020.7 -03509.9 -07.6822 26256.4
 22 11 2013  07 32  -21.0101 26020.8 -03509.9 -07.6822 26256.4
 22 11 2013  07 33  -21.0097 26021.0 -03510.0 -07.6824 26256.6
 22 11 2013  07 34  -21.0096 26020.9 -03510.0 -07.6824 26256.6
 22 11 2013  07 35  -21.0097 26020.9 -03510.0 -07.6824 26256.5
 22 11 2013  07 36  -21.0097 26021.0 -03510.1 -07.6826 26256.7
 22 11 2013  07 37  -21.0094 26021.0 -03510.1 -07.6826 26256.7
 22 11 2013  07 38  -21.0093 26021.0 -03510.2 -07.6827 26256.7
 22 11 2013  07 39  -21.0093 26021.1 -03510.2 -07.6827 26256.8
 22 11 2013  07 40  -21.0093 26021.2 -03510.3 -07.6828 26256.9
 22 11 2013  07 41  -21.0092 26021.2 -03510.3 -07.6829 26256.9
 22 11 2013  07 42  -21.0092 26021.3 -03510.4 -07.6831 26257.0
 22 11 2013  07 43  -21.0091 26021.3 -03510.4 -07.6831 26257.1
 22 11 2013  07 44  -21.0089 26021.4 -03510.4 -07.6831 26257.1
 22 11 2013  07 45  -21.0088 26021.4 -03510.4 -07.6831 26257.1
 22 11 2013  07 46  -21.0086 26021.4 -03510.4 -07.6831 26257.1
 22 11 2013  07 47  -21.0085 26021.5 -03510.5 -07.6832 26257.2
 22 11 2013  07 48  -21.0084 26021.5 -03510.5 -07.6832 26257.3
 22 11 2013  07 49  -21.0083 26021.5 -03510.5 -07.6832 26257.2
 22 11 2013  07 50  -21.0081 26021.5 -03510.5 -07.6832 26257.2
 22 11 2013  07 51  -21.0079 26021.5 -03510.6 -07.6833 26257.3
 22 11 2013  07 52  -21.0079 26021.5 -03510.5 -07.6833 26257.2
 22 11 2013  07 53  -21.0077 26021.5 -03510.5 -07.6833 26257.2
 22 11 2013  07 54  -21.0077 26021.5 -03510.6 -07.6834 26257.2
 22 11 2013  07 55  -21.0074 26021.5 -03510.6 -07.6834 26257.3
 22 11 2013  07 56  -21.0073 26021.5 -03510.6 -07.6834 26257.2
 22 11 2013  07 57  -21.0071 26021.5 -03510.6 -07.6835 26257.3
 22 11 2013  07 58  -21.0070 26021.6 -03510.6 -07.6835 26257.4
 22 11 2013  07 59  -21.0069 26021.6 -03510.7 -07.6836 26257.3
 22 11 2013  08 00  -21.0069 26021.6 -03510.7 -07.6836 26257.4
 22 11 2013  08 01  -21.0069 26021.7 -03510.7 -07.6837 26257.4
 22 11 2013  08 02  -21.0069 26021.7 -03510.8 -07.6837 26257.4
 22 11 2013  08 03  -21.0069 26021.6 -03510.7 -07.6837 26257.4
 22 11 2013  08 04  -21.0068 26021.7 -03510.8 -07.6837 26257.5
 22 11 2013  08 05  -21.0068 26021.7 -03510.8 -07.6838 26257.5
 22 11 2013  08 06  -21.0067 26021.7 -03510.8 -07.6838 26257.5
 22 11 2013  08 07  -21.0066 26021.7 -03510.8 -07.6838 26257.5
 22 11 2013  08 08  -21.0065 26021.8 -03510.8 -07.6839 26257.6
 22 11 2013  08 09  -21.0064 26021.8 -03510.8 -07.6838 26257.6
 22 11 2013  08 10  -21.0064 26021.8 -03510.8 -07.6838 26257.6
 22 11 2013  08 11  -21.0062 26021.8 -03510.8 -07.6838 26257.6
 22 11 2013  08 12  -21.0061 26021.9 -03510.8 -07.6838 26257.6
 22 11 2013  08 13  -21.0060 26021.8 -03510.8 -07.6837 26257.5
 22 11 2013  08 14  -21.0059 26021.8 -03510.8 -07.6837 26257.6
 22 11 2013  08 15  -21.0059 26021.9 -03510.8 -07.6837 26257.6
 22 11 2013  08 16  -21.0058 26021.9 -03510.8 -07.6838 26257.6
 22 11 2013  08 17  -21.0056 26021.9 -03510.7 -07.6837 26257.6
 22 11 2013  08 18  -21.0054 26021.9 -03510.7 -07.6837 26257.6
 22 11 2013  08 19  -21.0053 26021.9 -03510.7 -07.6836 26257.6
 22 11 2013  08 20  -21.0050 26021.9 -03510.7 -07.6836 26257.7
 22 11 2013  08 21  -21.0046 26022.0 -03510.7 -07.6835 26257.7
 22 11 2013  08 22  -21.0043 26022.1 -03510.8 -07.6836 26257.8
 22 11 2013  08 23  -21.0041 26022.1 -03510.8 -07.6836 26257.8
 22 11 2013  08 24  -21.0038 26022.1 -03510.7 -07.6836 26257.8
 22 11 2013  08 25  -21.0035 26022.1 -03510.8 -07.6836 26257.9
 22 11 2013  08 26  -21.0032 26022.2 -03510.8 -07.6837 26258.0
 22 11 2013  08 27  -21.0029 26022.3 -03510.9 -07.6838 26258.0
 22 11 2013  08 28  -21.0027 26022.3 -03510.9 -07.6839 26258.1
 22 11 2013  08 29  -21.0024 26022.3 -03511.0 -07.6841 26258.1
 22 11 2013  08 30  -21.0021 26022.4 -03511.1 -07.6842 26258.2
 22 11 2013  08 31  -21.0017 26022.4 -03511.1 -07.6843 26258.2
 22 11 2013  08 32  -21.0015 26022.5 -03511.2 -07.6845 26258.3
 22 11 2013  08 33  -21.0012 26022.5 -03511.3 -07.6847 26258.3
 22 11 2013  08 34  -21.0009 26022.5 -03511.4 -07.6849 26258.4
 22 11 2013  08 35  -21.0007 26022.7 -03511.6 -07.6852 26258.5
 22 11 2013  08 36  -21.0007 26022.7 -03511.7 -07.6855 26258.6
 22 11 2013  08 37  -21.0006 26022.8 -03511.8 -07.6857 26258.7
 22 11 2013  08 38  -21.0005 26022.9 -03511.9 -07.6860 26258.8
 22 11 2013  08 39  -21.0004 26023.0 -03512.1 -07.6863 26258.9
 22 11 2013  08 40  -21.0004 26023.0 -03512.2 -07.6864 26258.9
 22 11 2013  08 41  -21.0003 26023.1 -03512.3 -07.6868 26259.0
 22 11 2013  08 42  -21.0001 26023.1 -03512.5 -07.6870 26259.1
 22 11 2013  08 43  -21.0000 26023.2 -03512.6 -07.6873 26259.2
 22 11 2013  08 44  -21.0000 26023.3 -03512.7 -07.6875 26259.3
 22 11 2013  08 45  -21.0002 26023.3 -03512.8 -07.6878 26259.4
 22 11 2013  08 46  -21.0007 26023.3 -03512.9 -07.6879 26259.3
 22 11 2013  08 47  -21.0010 26023.2 -03513.0 -07.6880 26259.3
 22 11 2013  08 48  -21.0012 26023.1 -03513.0 -07.6881 26259.1
 22 11 2013  08 49  -21.0013 26022.9 -03513.0 -07.6881 26258.9
 22 11 2013  08 50  -21.0013 26022.7 -03512.9 -07.6881 26258.7
 22 11 2013  08 51  -21.0013 26022.5 -03513.0 -07.6883 26258.5
 22 11 2013  08 52  -21.0014 26022.3 -03513.1 -07.6886 26258.4
 22 11 2013  08 53  -21.0015 26022.2 -03513.2 -07.6889 26258.3
 22 11 2013  08 54  -21.0015 26022.3 -03513.3 -07.6891 26258.4
 22 11 2013  08 55  -21.0017 26022.3 -03513.5 -07.6895 26258.5
 22 11 2013  08 56  -21.0026 26022.5 -03513.6 -07.6897 26258.7
 22 11 2013  08 57  -21.0030 26022.6 -03513.7 -07.6898 26258.8
 22 11 2013  08 58  -21.0033 26022.8 -03513.9 -07.6902 26259.0
 22 11 2013  08 59  -21.0038 26023.0 -03514.0 -07.6904 26259.1
 22 11 2013  09 00  -21.0041 26023.0 -03514.1 -07.6906 26259.2
 22 11 2013  09 01  -21.0043 26023.0 -03514.1 -07.6906 26259.2
 22 11 2013  09 02  -21.0046 26023.1 -03514.2 -07.6907 26259.3
 22 11 2013  09 03  -21.0051 26023.2 -03514.3 -07.6910 26259.4
 22 11 2013  09 04  -21.0054 26023.3 -03514.4 -07.6911 26259.5
 22 11 2013  09 05  -21.0057 26023.4 -03514.5 -07.6913 26259.6
 22 11 2013  09 06  -21.0061 26023.5 -03514.6 -07.6914 26259.8
 22 11 2013  09 07  -21.0064 26023.6 -03514.6 -07.6916 26259.8
 22 11 2013  09 08  -21.0067 26023.7 -03514.7 -07.6917 26260.0
 22 11 2013  09 09  -21.0070 26023.8 -03514.8 -07.6919 26260.1
 22 11 2013  09 10  -21.0074 26024.0 -03514.9 -07.6921 26260.3
 22 11 2013  09 11  -21.0077 26024.1 -03515.0 -07.6922 26260.4
 22 11 2013  09 12  -21.0081 26024.2 -03515.0 -07.6923 26260.5
 22 11 2013  09 13  -21.0085 26024.4 -03515.1 -07.6924 26260.7
 22 11 2013  09 14  -21.0089 26024.5 -03515.2 -07.6925 26260.9
 22 11 2013  09 15  -21.0094 26024.7 -03515.3 -07.6928 26261.0
 22 11 2013  09 16  -21.0100 26024.8 -03515.3 -07.6926 26261.2
 22 11 2013  09 17  -21.0103 26025.0 -03515.2 -07.6925 26261.3
 22 11 2013  09 18  -21.0108 26025.1 -03515.5 -07.6930 26261.5
 22 11 2013  09 19  -21.0111 26025.1 -03515.6 -07.6932 26261.5
 22 11 2013  09 20  -21.0115 26025.2 -03515.6 -07.6932 26261.6
 22 11 2013  09 21  -21.0120 26025.3 -03515.6 -07.6932 26261.7
 22 11 2013  09 22  -21.0124 26025.4 -03515.7 -07.6933 26261.8
 22 11 2013  09 23  -21.0128 26025.5 -03515.7 -07.6934 26261.9
 22 11 2013  09 24  -21.0132 26025.6 -03515.8 -07.6934 26262.0
 22 11 2013  09 25  -21.0136 26025.7 -03515.8 -07.6935 26262.1
 22 11 2013  09 26  -21.0139 26025.8 -03515.8 -07.6935 26262.2
 22 11 2013  09 27  -21.0143 26025.9 -03515.9 -07.6936 26262.3
 22 11 2013  09 28  -21.0147 26026.0 -03516.0 -07.6937 26262.4
 22 11 2013  09 29  -21.0150 26026.1 -03516.0 -07.6937 26262.6
 22 11 2013  09 30  -21.0154 26026.3 -03516.0 -07.6938 26262.7
 22 11 2013  09 31  -21.0156 26026.4 -03516.1 -07.6939 26262.8
 22 11 2013  09 32  -21.0161 26026.6 -03516.1 -07.6939 26263.0
 22 11 2013  09 33  -21.0164 26026.7 -03516.1 -07.6939 26263.2
 22 11 2013  09 34  -21.0168 26026.8 -03516.1 -07.6939 26263.3
 22 11 2013  09 35  -21.0170 26026.9 -03516.2 -07.6939 26263.3
 22 11 2013  09 36  -21.0173 26026.9 -03516.2 -07.6939 26263.3
 22 11 2013  09 37  -21.0176 26027.0 -03516.2 -07.6939 26263.4
 22 11 2013  09 38  -21.0176 26027.1 -03516.2 -07.6940 26263.5
 22 11 2013  09 39  -21.0179 26027.3 -03516.3 -07.6941 26263.7
 22 11 2013  09 40  -21.0183 26027.6 -03516.4 -07.6943 26264.1
 22 11 2013  09 41  -21.0185 26027.9 -03516.5 -07.6944 26264.4
 22 11 2013  09 42  -21.0188 26028.3 -03516.6 -07.6944 26264.7
 22 11 2013  09 43  -21.0191 26028.5 -03516.6 -07.6945 26265.0
 22 11 2013  09 44  -21.0191 26028.7 -03516.7 -07.6945 26265.2
 22 11 2013  09 45  -21.0192 26028.9 -03516.7 -07.6945 26265.4
 22 11 2013  09 46  -21.0196 26029.2 -03516.8 -07.6947 26265.7
 22 11 2013  09 47  -21.0195 26029.5 -03516.9 -07.6948 26266.0
 22 11 2013  09 48  -21.0193 26029.7 -03517.0 -07.6948 26266.2
 22 11 2013  09 49  -21.0195 26030.3 -03517.2 -07.6952 26266.8
 22 11 2013  09 50  -21.0196 26030.8 -03517.4 -07.6954 26267.4
 22 11 2013  09 51  -21.0198 26031.3 -03517.5 -07.6955 26267.9
 22 11 2013  09 52  -21.0208 26031.9 -03517.6 -07.6955 26268.5
 22 11 2013  09 53  -21.0209 26032.0 -03517.5 -07.6953 26268.6
 22 11 2013  09 54  -21.0212 26031.9 -03517.3 -07.6949 26268.4
 22 11 2013  09 55  -21.0214 26031.5 -03517.1 -07.6946 26268.1
 22 11 2013  09 56  -21.0213 26031.0 -03516.9 -07.6943 26267.5
 22 11 2013  09 57  -21.0209 26030.4 -03516.7 -07.6940 26266.9
 22 11 2013  09 58  -21.0210 26029.9 -03516.5 -07.6939 26266.4
 22 11 2013  09 59  -21.0210 26029.5 -03516.5 -07.6939 26266.0
 22 11 2013  10 00  -21.0209 26029.0 -03516.5 -07.6941 26265.5
 22 11 2013  10 01  -21.0209 26028.7 -03516.6 -07.6943 26265.2
 22 11 2013  10 02  -21.0211 26028.7 -03516.8 -07.6947 26265.2
 22 11 2013  10 03  -21.0215 26028.7 -03517.0 -07.6951 26265.2
 22 11 2013  10 04  -21.0217 26028.8 -03517.2 -07.6955 26265.3
 22 11 2013  10 05  -21.0220 26028.9 -03517.4 -07.6959 26265.5
 22 11 2013  10 06  -21.0224 26029.2 -03517.6 -07.6963 26265.8
 22 11 2013  10 07  -21.0228 26029.6 -03517.8 -07.6967 26266.2
 22 11 2013  10 08  -21.0232 26029.9 -03518.0 -07.6970 26266.6
 22 11 2013  10 09  -21.0236 26030.3 -03518.2 -07.6972 26267.0
 22 11 2013  10 10  -21.0241 26030.8 -03518.3 -07.6975 26267.5
 22 11 2013  10 11  -21.0245 26031.1 -03518.4 -07.6976 26267.8
 22 11 2013  10 12  -21.0247 26031.4 -03518.5 -07.6977 26268.1
 22 11 2013  10 13  -21.0251 26031.6 -03518.6 -07.6977 26268.4
 22 11 2013  10 14  -21.0254 26031.8 -03518.6 -07.6978 26268.5
 22 11 2013  10 15  -21.0257 26032.1 -03518.7 -07.6978 26268.8
 22 11 2013  10 16  -21.0258 26032.2 -03518.7 -07.6978 26268.9
 22 11 2013  10 17  -21.0260 26032.3 -03518.7 -07.6979 26269.1
 22 11 2013  10 18  -21.0263 26032.5 -03518.8 -07.6980 26269.2
 22 11 2013  10 19  -21.0265 26032.5 -03518.8 -07.6980 26269.3
 22 11 2013  10 20  -21.0265 26032.5 -03518.8 -07.6980 26269.3
 22 11 2013  10 21  -21.0267 26032.5 -03518.9 -07.6982 26269.3
 22 11 2013  10 22  -21.0269 26032.6 -03519.0 -07.6983 26269.3
 22 11 2013  10 23  -21.0271 26032.7 -03519.0 -07.6984 26269.4
 22 11 2013  10 24  -21.0272 26032.7 -03519.1 -07.6985 26269.5
 22 11 2013  10 25  -21.0273 26032.7 -03519.2 -07.6988 26269.5
 22 11 2013  10 26  -21.0274 26032.9 -03519.3 -07.6990 26269.7
 22 11 2013  10 27  -21.0277 26033.0 -03519.4 -07.6992 26269.9
 22 11 2013  10 28  -21.0276 26033.2 -03519.5 -07.6993 26270.0
 22 11 2013  10 29  -21.0276 26033.4 -03519.6 -07.6995 26270.2
 22 11 2013  10 30  -21.0278 26033.7 -03519.8 -07.6997 26270.5
 22 11 2013  10 31  -21.0280 26033.8 -03519.8 -07.6998 26270.7
 22 11 2013  10 32  -21.0281 26033.9 -03519.9 -07.6999 26270.8
 22 11 2013  10 33  -21.0281 26034.1 -03519.9 -07.7000 26271.0
 22 11 2013  10 34  -21.0282 26034.3 -03520.1 -07.7002 26271.2
 22 11 2013  10 35  -21.0283 26034.5 -03520.2 -07.7003 26271.4
 22 11 2013  10 36  -21.0283 26034.7 -03520.3 -07.7005 26271.6
 22 11 2013  10 37  -21.0283 26034.9 -03520.3 -07.7006 26271.8
 22 11 2013  10 38  -21.0283 26035.1 -03520.4 -07.7007 26272.1
 22 11 2013  10 39  -21.0283 26035.3 -03520.5 -07.7008 26272.2
 22 11 2013  10 40  -21.0282 26035.5 -03520.5 -07.7008 26272.4
 22 11 2013  10 41  -21.0281 26035.6 -03520.6 -07.7009 26272.6
 22 11 2013  10 42  -21.0280 26035.7 -03520.6 -07.7009 26272.6
 22 11 2013  10 43  -21.0280 26035.8 -03520.6 -07.7009 26272.7
 22 11 2013  10 44  -21.0280 26035.9 -03520.7 -07.7010 26272.8
 22 11 2013  10 45  -21.0281 26036.0 -03520.7 -07.7011 26272.9
 22 11 2013  10 46  -21.0277 26035.9 -03520.7 -07.7012 26272.9
 22 11 2013  10 47  -21.0279 26036.1 -03520.8 -07.7013 26273.0
 22 11 2013  10 48  -21.0280 26036.2 -03520.9 -07.7015 26273.2
 22 11 2013  10 49  -21.0280 26036.4 -03521.0 -07.7016 26273.4
 22 11 2013  10 50  -21.0281 26036.5 -03521.1 -07.7017 26273.5
 22 11 2013  10 51  -21.0283 26036.6 -03521.2 -07.7019 26273.6
 22 11 2013  10 52  -21.0284 26036.6 -03521.2 -07.7020 26273.7
 22 11 2013  10 53  -21.0284 26036.6 -03521.2 -07.7020 26273.7
 22 11 2013  10 54  -21.0282 26036.6 -03521.2 -07.7021 26273.6
 22 11 2013  10 55  -21.0278 26036.4 -03521.3 -07.7022 26273.5
 22 11 2013  10 56  -21.0276 26036.5 -03521.4 -07.7025 26273.5
 22 11 2013  10 57  -21.0275 26036.6 -03521.6 -07.7027 26273.7
 22 11 2013  10 58  -21.0274 26036.7 -03521.7 -07.7030 26273.7
 22 11 2013  10 59  -21.0271 26036.7 -03521.9 -07.7034 26273.8
 22 11 2013  11 00  -21.0270 26036.9 -03522.1 -07.7038 26274.1
 22 11 2013  11 01  -21.0270 26037.1 -03522.3 -07.7041 26274.3
 22 11 2013  11 02  -21.0269 26037.4 -03522.5 -07.7044 26274.6
 22 11 2013  11 03  -21.0269 26037.6 -03522.6 -07.7048 26274.8
 22 11 2013  11 04  -21.0269 26037.8 -03522.7 -07.7050 26275.0
 22 11 2013  11 05  -21.0271 26037.9 -03522.9 -07.7052 26275.2
 22 11 2013  11 06  -21.0271 26038.1 -03523.1 -07.7055 26275.4
 22 11 2013  11 07  -21.0273 26038.3 -03523.2 -07.7058 26275.6
 22 11 2013  11 08  -21.0273 26038.5 -03523.4 -07.7061 26275.8
 22 11 2013  11 09  -21.0275 26038.6 -03523.5 -07.7064 26275.9
 22 11 2013  11 10  -21.0275 26038.7 -03523.6 -07.7066 26276.1
 22 11 2013  11 11  -21.0277 26039.0 -03523.8 -07.7070 26276.3
 22 11 2013  11 12  -21.0280 26039.1 -03524.0 -07.7072 26276.5
 22 11 2013  11 13  -21.0284 26039.4 -03524.1 -07.7075 26276.8
 22 11 2013  11 14  -21.0286 26039.4 -03524.2 -07.7075 26276.8
 22 11 2013  11 15  -21.0289 26039.4 -03524.2 -07.7077 26276.8
 22 11 2013  11 16  -21.0291 26039.3 -03524.2 -07.7077 26276.7
 22 11 2013  11 17  -21.0293 26039.2 -03524.2 -07.7077 26276.6
 22 11 2013  11 18  -21.0293 26039.0 -03524.3 -07.7079 26276.5
 22 11 2013  11 19  -21.0293 26039.1 -03524.4 -07.7082 26276.5
 22 11 2013  11 20  -21.0297 26039.2 -03524.6 -07.7085 26276.6
 22 11 2013  11 21  -21.0300 26039.2 -03524.6 -07.7086 26276.7
 22 11 2013  11 22  -21.0302 26039.3 -03524.7 -07.7087 26276.8
 22 11 2013  11 23  -21.0307 26039.4 -03524.8 -07.7090 26276.8
 22 11 2013  11 24  -21.0309 26039.4 -03524.9 -07.7091 26276.9
 22 11 2013  11 25  -21.0311 26039.6 -03525.0 -07.7094 26277.1
 22 11 2013  11 26  -21.0313 26039.8 -03525.1 -07.7095 26277.3
 22 11 2013  11 27  -21.0314 26039.9 -03525.2 -07.7096 26277.5
 22 11 2013  11 28  -21.0316 26040.1 -03525.2 -07.7096 26277.6
 22 11 2013  11 29  -21.0319 26040.2 -03525.3 -07.7097 26277.8
 22 11 2013  11 30  -21.0321 26040.3 -03525.3 -07.7098 26277.9
 22 11 2013  11 31  -21.0322 26040.4 -03525.3 -07.7098 26278.0
 22 11 2013  11 32  -21.0323 26040.6 -03525.4 -07.7098 26278.1
 22 11 2013  11 33  -21.0324 26040.8 -03525.4 -07.7098 26278.3
 22 11 2013  11 34  -21.0327 26041.0 -03525.5 -07.7099 26278.6
 22 11 2013  11 35  -21.0329 26041.3 -03525.5 -07.7099 26278.8
 22 11 2013  11 36  -21.0331 26041.5 -03525.5 -07.7098 26279.0
 22 11 2013  11 37  -21.0333 26041.7 -03525.5 -07.7097 26279.2
 22 11 2013  11 38  -21.0334 26041.9 -03525.4 -07.7096 26279.4
 22 11 2013  11 39  -21.0335 26042.0 -03525.4 -07.7094 26279.6
 22 11 2013  11 40  -21.0337 26042.1 -03525.4 -07.7093 26279.7
 22 11 2013  11 41  -21.0338 26042.2 -03525.3 -07.7092 26279.7
 22 11 2013  11 42  -21.0338 26042.4 -03525.3 -07.7092 26279.9
 22 11 2013  11 43  -21.0340 26042.6 -03525.3 -07.7091 26280.1
 22 11 2013  11 44  -21.0340 26042.7 -03525.2 -07.7089 26280.2
 22 11 2013  11 45  -21.0340 26042.7 -03525.2 -07.7088 26280.2
 22 11 2013  11 46  -21.0340 26042.7 -03525.1 -07.7087 26280.2
 22 11 2013  11 47  -21.0339 26042.8 -03525.1 -07.7085 26280.3
 22 11 2013  11 48  -21.0338 26043.1 -03525.1 -07.7086 26280.6
 22 11 2013  11 49  -21.0338 26043.4 -03525.2 -07.7085 26280.9
 22 11 2013  11 50  -21.0340 26043.6 -03525.2 -07.7085 26281.1
 22 11 2013  11 51  -21.0342 26043.7 -03525.1 -07.7083 26281.2
 22 11 2013  11 52  -21.0343 26043.9 -03525.0 -07.7081 26281.4
 22 11 2013  11 53  -21.0342 26044.0 -03525.0 -07.7079 26281.5
 22 11 2013  11 54  -21.0342 26044.1 -03524.9 -07.7077 26281.6
 22 11 2013  11 55  -21.0343 26044.3 -03524.8 -07.7076 26281.7
 22 11 2013  11 56  -21.0345 26044.4 -03524.8 -07.7074 26281.8
 22 11 2013  11 57  -21.0346 26044.4 -03524.7 -07.7072 26281.9
 22 11 2013  11 58  -21.0347 26044.6 -03524.7 -07.7071 26282.0
 22 11 2013  11 59  -21.0348 26044.7 -03524.6 -07.7069 26282.1
 22 11 2013  12 00  -21.0348 26044.8 -03524.5 -07.7068 26282.2
 22 11 2013  12 01  -21.0348 26044.9 -03524.4 -07.7065 26282.3
 22 11 2013  12 02  -21.0348 26045.0 -03524.3 -07.7063 26282.4
 22 11 2013  12 03  -21.0350 26045.3 -03524.3 -07.7062 26282.6
 22 11 2013  12 04  -21.0350 26045.4 -03524.2 -07.7059 26282.7
 22 11 2013  12 05  -21.0351 26045.4 -03524.1 -07.7056 26282.8
 22 11 2013  12 06  -21.0352 26045.5 -03524.0 -07.7053 26282.8
 22 11 2013  12 07  -21.0353 26045.5 -03523.9 -07.7051 26282.8
 22 11 2013  12 08  -21.0353 26045.6 -03523.8 -07.7050 26282.9
 22 11 2013  12 09  -21.0354 26045.9 -03523.8 -07.7049 26283.2
 22 11 2013  12 10  -21.0353 26046.1 -03523.8 -07.7048 26283.4
 22 11 2013  12 11  -21.0354 26046.4 -03523.7 -07.7046 26283.7
 22 11 2013  12 12  -21.0354 26046.6 -03523.7 -07.7044 26283.9
 22 11 2013  12 13  -21.0355 26046.8 -03523.6 -07.7041 26284.1
 22 11 2013  12 14  -21.0358 26047.0 -03523.5 -07.7039 26284.2
 22 11 2013  12 15  -21.0358 26047.1 -03523.4 -07.7036 26284.4
 22 11 2013  12 16  -21.0360 26047.3 -03523.3 -07.7034 26284.5
 22 11 2013  12 17  -21.0362 26047.4 -03523.2 -07.7032 26284.6
 22 11 2013  12 18  -21.0363 26047.6 -03523.2 -07.7030 26284.8
 22 11 2013  12 19  -21.0365 26047.9 -03523.1 -07.7029 26285.0
 22 11 2013  12 20  -21.0368 26048.1 -03523.1 -07.7027 26285.3
 22 11 2013  12 21  -21.0372 26048.3 -03523.0 -07.7024 26285.5
 22 11 2013  12 22  -21.0375 26048.5 -03522.9 -07.7021 26285.6
 22 11 2013  12 23  -21.0377 26048.6 -03522.8 -07.7019 26285.7
 22 11 2013  12 24  -21.0379 26048.7 -03522.7 -07.7016 26285.8
 22 11 2013  12 25  -21.0381 26048.8 -03522.5 -07.7012 26285.9
 22 11 2013  12 26  -21.0383 26049.0 -03522.4 -07.7010 26286.0
 22 11 2013  12 27  -21.0385 26049.2 -03522.4 -07.7009 26286.3
 22 11 2013  12 28  -21.0388 26049.5 -03522.4 -07.7007 26286.6
 22 11 2013  12 29  -21.0391 26049.8 -03522.3 -07.7005 26286.8
 22 11 2013  12 30  -21.0394 26049.9 -03522.2 -07.7002 26287.0
 22 11 2013  12 31  -21.0395 26050.1 -03522.1 -07.6999 26287.1
 22 11 2013  12 32  -21.0396 26050.3 -03522.0 -07.6996 26287.3
 22 11 2013  12 33  -21.0398 26050.4 -03521.9 -07.6994 26287.4
 22 11 2013  12 34  -21.0399 26050.5 -03521.8 -07.6991 26287.5
 22 11 2013  12 35  -21.0400 26050.6 -03521.7 -07.6989 26287.6
 22 11 2013  12 36  -21.0400 26050.8 -03521.5 -07.6985 26287.7
 22 11 2013  12 37  -21.0400 26050.9 -03521.4 -07.6983 26287.9
 22 11 2013  12 38  -21.0400 26051.1 -03521.3 -07.6980 26288.0
 22 11 2013  12 39  -21.0400 26051.2 -03521.2 -07.6977 26288.1
 22 11 2013  12 40  -21.0400 26051.3 -03521.1 -07.6974 26288.2
 22 11 2013  12 41  -21.0400 26051.5 -03520.9 -07.6970 26288.4
 22 11 2013  12 42  -21.0400 26051.8 -03520.9 -07.6968 26288.6
 22 11 2013  12 43  -21.0400 26052.0 -03520.8 -07.6965 26288.9
 22 11 2013  12 44  -21.0400 26052.2 -03520.7 -07.6963 26289.0
 22 11 2013  12 45  -21.0399 26052.4 -03520.5 -07.6959 26289.2
 22 11 2013  12 46  -21.0398 26052.7 -03520.5 -07.6957 26289.5
 22 11 2013  12 47  -21.0399 26052.9 -03520.3 -07.6953 26289.6
 22 11 2013  12 48  -21.0398 26053.1 -03520.3 -07.6951 26289.8
 22 11 2013  12 49  -21.0399 26053.3 -03520.1 -07.6948 26290.1
 22 11 2013  12 50  -21.0398 26053.6 -03520.0 -07.6944 26290.3
 22 11 2013  12 51  -21.0399 26053.8 -03519.9 -07.6942 26290.5
 22 11 2013  12 52  -21.0400 26054.0 -03519.8 -07.6939 26290.6
 22 11 2013  12 53  -21.0400 26054.2 -03519.7 -07.6935 26290.9
 22 11 2013  12 54  -21.0401 26054.5 -03519.6 -07.6933 26291.1
 22 11 2013  12 55  -21.0402 26054.6 -03519.4 -07.6929 26291.2
 22 11 2013  12 56  -21.0403 26054.7 -03519.3 -07.6926 26291.3
 22 11 2013  12 57  -21.0403 26054.8 -03519.2 -07.6922 26291.4
 22 11 2013  12 58  -21.0405 26055.1 -03519.1 -07.6919 26291.7
 22 11 2013  12 59  -21.0404 26055.4 -03519.0 -07.6916 26291.9
 22 11 2013  13 00  -21.0403 26055.6 -03518.8 -07.6913 26292.1
 22 11 2013  13 01  -21.0402 26055.8 -03518.7 -07.6909 26292.4
 22 11 2013  13 02  -21.0401 26056.2 -03518.6 -07.6906 26292.7
 22 11 2013  13 03  -21.0399 26056.5 -03518.4 -07.6902 26293.0
 22 11 2013  13 04  -21.0398 26056.6 -03518.2 -07.6897 26293.0
 22 11 2013  13 05  -21.0397 26056.8 -03518.1 -07.6894 26293.2
 22 11 2013  13 06  -21.0395 26057.1 -03518.0 -07.6890 26293.5
 22 11 2013  13 07  -21.0394 26057.3 -03517.8 -07.6886 26293.7
 22 11 2013  13 08  -21.0393 26057.5 -03517.7 -07.6882 26293.9
 22 11 2013  13 09  -21.0392 26057.7 -03517.5 -07.6878 26294.0
 22 11 2013  13 10  -21.0390 26057.8 -03517.3 -07.6873 26294.1
 22 11 2013  13 11  -21.0389 26057.9 -03517.1 -07.6869 26294.2
 22 11 2013  13 12  -21.0389 26058.0 -03517.0 -07.6866 26294.3
 22 11 2013  13 13  -21.0388 26058.2 -03516.8 -07.6862 26294.4
 22 11 2013  13 14  -21.0387 26058.4 -03516.7 -07.6858 26294.6
 22 11 2013  13 15  -21.0387 26058.6 -03516.6 -07.6855 26294.8
 22 11 2013  13 16  -21.0386 26058.8 -03516.4 -07.6852 26295.0
 22 11 2013  13 17  -21.0385 26059.0 -03516.3 -07.6848 26295.2
 22 11 2013  13 18  -21.0385 26059.3 -03516.2 -07.6844 26295.4
 22 11 2013  13 19  -21.0384 26059.5 -03516.0 -07.6841 26295.7
 22 11 2013  13 20  -21.0383 26059.8 -03515.9 -07.6836 26295.9
 22 11 2013  13 21  -21.0381 26060.0 -03515.7 -07.6832 26296.1
 22 11 2013  13 22  -21.0380 26060.3 -03515.5 -07.6827 26296.3
 22 11 2013  13 23  -21.0379 26060.5 -03515.3 -07.6822 26296.5
 22 11 2013  13 24  -21.0378 26060.7 -03515.0 -07.6816 26296.7
 22 11 2013  13 25  -21.0376 26060.8 -03514.9 -07.6812 26296.8
 22 11 2013  13 26  -21.0376 26061.1 -03514.7 -07.6807 26297.0
 22 11 2013  13 27  -21.0376 26061.4 -03514.4 -07.6801 26297.3
 22 11 2013  13 28  -21.0376 26061.7 -03514.3 -07.6796 26297.6
 22 11 2013  13 29  -21.0377 26061.9 -03514.0 -07.6791 26297.8
 22 11 2013  13 30  -21.0378 26062.2 -03513.8 -07.6785 26298.0
 22 11 2013  13 31  -21.0379 26062.5 -03513.6 -07.6780 26298.3
 22 11 2013  13 32  -21.0380 26062.8 -03513.4 -07.6775 26298.6
 22 11 2013  13 33  -21.0381 26063.1 -03513.2 -07.6770 26298.9
 22 11 2013  13 34  -21.0382 26063.4 -03513.0 -07.6764 26299.1
 22 11 2013  13 35  -21.0384 26063.7 -03512.7 -07.6758 26299.3
 22 11 2013  13 36  -21.0384 26063.9 -03512.5 -07.6753 26299.5
 22 11 2013  13 37  -21.0385 26064.3 -03512.4 -07.6748 26299.9
 22 11 2013  13 38  -21.0386 26064.7 -03512.2 -07.6743 26300.3
 22 11 2013  13 39  -21.0388 26065.1 -03512.0 -07.6738 26300.7
 22 11 2013  13 40  -21.0388 26065.4 -03511.8 -07.6732 26300.9
 22 11 2013  13 41  -21.0389 26065.8 -03511.6 -07.6726 26301.2
 22 11 2013  13 42  -21.0391 26066.1 -03511.4 -07.6721 26301.5
 22 11 2013  13 43  -21.0393 26066.4 -03511.2 -07.6716 26301.8
 22 11 2013  13 44  -21.0395 26066.7 -03510.9 -07.6710 26302.1
 22 11 2013  13 45  -21.0396 26067.0 -03510.7 -07.6704 26302.4
 22 11 2013  13 46  -21.0398 26067.4 -03510.5 -07.6699 26302.7
 22 11 2013  13 47  -21.0399 26068.0 -03510.5 -07.6696 26303.3
 22 11 2013  13 48  -21.0401 26068.6 -03510.3 -07.6692 26303.9
 22 11 2013  13 49  -21.0403 26069.0 -03510.1 -07.6686 26304.2
 22 11 2013  13 50  -21.0402 26069.2 -03509.9 -07.6680 26304.4
 22 11 2013  13 51  -21.0402 26069.6 -03509.7 -07.6675 26304.8
 22 11 2013  13 52  -21.0405 26069.9 -03509.5 -07.6670 26305.0
 22 11 2013  13 53  -21.0406 26070.0 -03509.2 -07.6662 26305.1
 22 11 2013  13 54  -21.0408 26070.2 -03508.9 -07.6657 26305.3
 22 11 2013  13 55  -21.0410 26070.3 -03508.7 -07.6651 26305.4
 22 11 2013  13 56  -21.0412 26070.6 -03508.5 -07.6646 26305.6
 22 11 2013  13 57  -21.0413 26070.7 -03508.3 -07.6642 26305.7
 22 11 2013  13 58  -21.0415 26070.8 -03508.1 -07.6637 26305.7
 22 11 2013  13 59  -21.0415 26071.1 -03508.0 -07.6633 26306.0
 22 11 2013  14 00  -21.0417 26071.6 -03507.9 -07.6631 26306.5
 22 11 2013  14 01  -21.0418 26072.1 -03507.8 -07.6627 26307.0
 22 11 2013  14 02  -21.0422 26072.3 -03507.5 -07.6621 26307.2
 22 11 2013  14 03  -21.0427 26071.9 -03507.0 -07.6610 26306.7
 22 11 2013  14 04  -21.0425 26070.8 -03506.3 -07.6597 26305.5
 22 11 2013  14 05  -21.0427 26070.2 -03505.9 -07.6592 26304.9
 22 11 2013  14 06  -21.0433 26070.3 -03506.0 -07.6593 26305.0
 22 11 2013  14 07  -21.0442 26070.8 -03506.1 -07.6594 26305.5
 22 11 2013  14 08  -21.0443 26070.7 -03505.9 -07.6589 26305.3
 22 11 2013  14 09  -21.0446 26070.5 -03505.7 -07.6585 26305.1
 22 11 2013  14 10  -21.0447 26070.3 -03505.4 -07.6581 26304.9
 22 11 2013  14 11  -21.0450 26070.4 -03505.4 -07.6580 26305.0
 22 11 2013  14 12  -21.0456 26070.9 -03505.6 -07.6582 26305.5
 22 11 2013  14 13  -21.0460 26071.5 -03505.7 -07.6583 26306.1
 22 11 2013  14 14  -21.0464 26072.2 -03505.8 -07.6583 26306.8
 22 11 2013  14 15  -21.0465 26073.1 -03506.0 -07.6584 26307.8
 22 11 2013  14 16  -21.0463 26074.0 -03506.0 -07.6583 26308.6
 22 11 2013  14 17  -21.0460 26075.1 -03506.2 -07.6583 26309.8
 22 11 2013  14 18  -21.0456 26076.3 -03506.3 -07.6582 26310.9
 22 11 2013  14 19  -21.0453 26077.1 -03506.1 -07.6576 26311.7
 22 11 2013  14 20  -21.0449 26077.5 -03505.8 -07.6568 26312.1
 22 11 2013  14 21  -21.0447 26077.8 -03505.5 -07.6561 26312.4
 22 11 2013  14 22  -21.0446 26078.1 -03505.3 -07.6554 26312.7
 22 11 2013  14 23  -21.0444 26078.3 -03504.9 -07.6547 26312.7
 22 11 2013  14 24  -21.0443 26078.4 -03504.7 -07.6540 26312.9
 22 11 2013  14 25  -21.0442 26078.7 -03504.4 -07.6535 26313.1
 22 11 2013  14 26  -21.0443 26078.9 -03504.2 -07.6530 26313.3
 22 11 2013  14 27  -21.0444 26079.0 -03504.0 -07.6525 26313.3
 22 11 2013  14 28  -21.0445 26079.1 -03503.8 -07.6520 26313.4
 22 11 2013  14 29  -21.0448 26079.3 -03503.6 -07.6516 26313.6
 22 11 2013  14 30  -21.0450 26079.1 -03503.3 -07.6509 26313.4
 22 11 2013  14 31  -21.0451 26078.9 -03503.0 -07.6503 26313.2
 22 11 2013  14 32  -21.0452 26079.1 -03502.8 -07.6499 26313.2
 22 11 2013  14 33  -21.0453 26079.4 -03502.8 -07.6498 26313.5
 22 11 2013  14 34  -21.0453 26079.5 -03502.7 -07.6495 26313.7
 22 11 2013  14 35  -21.0453 26079.7 -03502.6 -07.6491 26313.9
 22 11 2013  14 36  -21.0455 26080.3 -03502.5 -07.6490 26314.4
 22 11 2013  14 37  -21.0457 26080.8 -03502.5 -07.6487 26314.9
 22 11 2013  14 38  -21.0456 26081.1 -03502.3 -07.6482 26315.2
 22 11 2013  14 39  -21.0456 26081.5 -03502.2 -07.6478 26315.6
 22 11 2013  14 40  -21.0457 26082.0 -03502.0 -07.6474 26316.0
 22 11 2013  14 41  -21.0458 26082.4 -03501.9 -07.6469 26316.4
 22 11 2013  14 42  -21.0457 26082.7 -03501.6 -07.6463 26316.7
 22 11 2013  14 43  -21.0457 26083.0 -03501.4 -07.6457 26317.0
 22 11 2013  14 44  -21.0456 26083.2 -03501.1 -07.6450 26317.1
 22 11 2013  14 45  -21.0455 26083.5 -03500.9 -07.6444 26317.4
 22 11 2013  14 46  -21.0455 26083.8 -03500.6 -07.6438 26317.7
 22 11 2013  14 47  -21.0454 26084.2 -03500.4 -07.6432 26318.0
 22 11 2013  14 48  -21.0454 26084.4 -03500.1 -07.6424 26318.1
 22 11 2013  14 49  -21.0453 26084.4 -03499.7 -07.6416 26318.1
 22 11 2013  14 50  -21.0452 26084.6 -03499.3 -07.6407 26318.2
 22 11 2013  14 51  -21.0451 26084.6 -03498.9 -07.6399 26318.2
 22 11 2013  14 52  -21.0450 26084.6 -03498.6 -07.6392 26318.2
 22 11 2013  14 53  -21.0450 26084.7 -03498.2 -07.6384 26318.2
 22 11 2013  14 54  -21.0449 26084.8 -03497.9 -07.6377 26318.3
 22 11 2013  14 55  -21.0448 26084.9 -03497.6 -07.6370 26318.4
 22 11 2013  14 56  -21.0447 26085.1 -03497.3 -07.6363 26318.5
 22 11 2013  14 57  -21.0446 26085.4 -03497.1 -07.6356 26318.8
 22 11 2013  14 58  -21.0447 26085.7 -03496.8 -07.6351 26319.1
 22 11 2013  14 59  -21.0445 26085.8 -03496.4 -07.6342 26319.1
 22 11 2013  15 00  -21.0442 26086.0 -03496.1 -07.6334 26319.2
 22 11 2013  15 01  -21.0440 26086.0 -03495.8 -07.6327 26319.2
 22 11 2013  15 02  -21.0436 26086.1 -03495.4 -07.6320 26319.3
 22 11 2013  15 03  -21.0434 26086.5 -03495.2 -07.6313 26319.6
 22 11 2013  15 04  -21.0434 26086.8 -03495.0 -07.6308 26319.8
 22 11 2013  15 05  -21.0431 26086.9 -03494.7 -07.6300 26320.0
 22 11 2013  15 06  -21.0427 26087.1 -03494.3 -07.6293 26320.1
 22 11 2013  15 07  -21.0424 26087.4 -03494.1 -07.6287 26320.3
 22 11 2013  15 08  -21.0422 26087.6 -03493.8 -07.6280 26320.5
 22 11 2013  15 09  -21.0418 26087.8 -03493.5 -07.6274 26320.7
 22 11 2013  15 10  -21.0417 26088.1 -03493.2 -07.6266 26320.9
 22 11 2013  15 11  -21.0414 26088.2 -03492.9 -07.6259 26321.0
 22 11 2013  15 12  -21.0409 26088.3 -03492.6 -07.6252 26321.0
 22 11 2013  15 13  -21.0405 26088.5 -03492.3 -07.6245 26321.2
 22 11 2013  15 14  -21.0406 26088.8 -03492.1 -07.6240 26321.5
 22 11 2013  15 15  -21.0402 26088.9 -03491.7 -07.6232 26321.5
 22 11 2013  15 16  -21.0397 26088.8 -03491.4 -07.6224 26321.4
 22 11 2013  15 17  -21.0395 26089.0 -03491.1 -07.6217 26321.6
 22 11 2013  15 18  -21.0392 26088.8 -03490.6 -07.6207 26321.3
 22 11 2013  15 19  -21.0385 26088.4 -03490.1 -07.6198 26320.9
 22 11 2013  15 20  -21.0382 26088.4 -03489.9 -07.6192 26320.8
 22 11 2013  15 21  -21.0382 26088.4 -03489.6 -07.6187 26320.8
 22 11 2013  15 22  -21.0377 26088.4 -03489.3 -07.6181 26320.7
 22 11 2013  15 23  -21.0375 26088.7 -03489.3 -07.6179 26321.0
 22 11 2013  15 24  -21.0372 26088.8 -03489.0 -07.6172 26321.1
 22 11 2013  15 25  -21.0366 26088.7 -03488.6 -07.6165 26321.0
 22 11 2013  15 26  -21.0361 26088.8 -03488.5 -07.6161 26321.0
 22 11 2013  15 27  -21.0359 26089.1 -03488.3 -07.6158 26321.3
 22 11 2013  15 28  -21.0357 26089.3 -03488.2 -07.6154 26321.5
 22 11 2013  15 29  -21.0353 26089.5 -03488.0 -07.6149 26321.6
 22 11 2013  15 30  -21.0349 26089.6 -03487.8 -07.6144 26321.7
 22 11 2013  15 31  -21.0346 26089.8 -03487.6 -07.6140 26321.9
 22 11 2013  15 32  -21.0341 26089.9 -03487.5 -07.6136 26322.0
 22 11 2013  15 33  -21.0336 26090.2 -03487.3 -07.6133 26322.3
 22 11 2013  15 34  -21.0332 26090.5 -03487.2 -07.6130 26322.6
 22 11 2013  15 35  -21.0328 26090.7 -03487.0 -07.6124 26322.6
 22 11 2013  15 36  -21.0322 26090.7 -03486.7 -07.6119 26322.6
 22 11 2013  15 37  -21.0317 26090.8 -03486.5 -07.6114 26322.7
 22 11 2013  15 38  -21.0313 26090.8 -03486.3 -07.6110 26322.7
 22 11 2013  15 39  -21.0309 26090.8 -03486.1 -07.6105 26322.7
 22 11 2013  15 40  -21.0305 26090.8 -03485.9 -07.6100 26322.6
 22 11 2013  15 41  -21.0300 26090.7 -03485.7 -07.6096 26322.5
 22 11 2013  15 42  -21.0296 26090.7 -03485.5 -07.6092 26322.5
 22 11 2013  15 43  -21.0292 26090.7 -03485.4 -07.6090 26322.5
 22 11 2013  15 44  -21.0289 26090.7 -03485.2 -07.6086 26322.4
 22 11 2013  15 45  -21.0283 26090.6 -03485.1 -07.6083 26322.4
 22 11 2013  15 46  -21.0278 26090.6 -03484.9 -07.6079 26322.3
 22 11 2013  15 47  -21.0275 26090.9 -03485.0 -07.6079 26322.6
 22 11 2013  15 48  -21.0273 26091.1 -03485.0 -07.6080 26322.9
 22 11 2013  15 49  -21.0267 26091.5 -03485.0 -07.6079 26323.2
 22 11 2013  15 50  -21.0266 26091.9 -03485.0 -07.6078 26323.6
 22 11 2013  15 51  -21.0266 26092.3 -03485.0 -07.6077 26324.0
 22 11 2013  15 52  -21.0262 26092.3 -03484.7 -07.6071 26323.9
 22 11 2013  15 53  -21.0259 26092.3 -03484.6 -07.6067 26323.9
 22 11 2013  15 54  -21.0258 26092.3 -03484.4 -07.6063 26324.0
 22 11 2013  15 55  -21.0256 26092.3 -03484.2 -07.6059 26323.9
 22 11 2013  15 56  -21.0251 26092.0 -03483.9 -07.6053 26323.6
 22 11 2013  15 57  -21.0247 26091.8 -03483.7 -07.6049 26323.3
 22 11 2013  15 58  -21.0246 26091.7 -03483.5 -07.6046 26323.2
 22 11 2013  15 59  -21.0246 26091.5 -03483.4 -07.6043 26323.0
 22 11 2013  16 00  -21.0242 26091.3 -03483.1 -07.6039 26322.7
 22 11 2013  16 01  -21.0238 26091.1 -03483.0 -07.6036 26322.6
 22 11 2013  16 02  -21.0236 26090.9 -03482.8 -07.6034 26322.4
 22 11 2013  16 03  -21.0235 26090.8 -03482.7 -07.6031 26322.3
 22 11 2013  16 04  -21.0232 26090.8 -03482.6 -07.6029 26322.2
 22 11 2013  16 05  -21.0230 26090.7 -03482.5 -07.6026 26322.1
 22 11 2013  16 06  -21.0228 26090.6 -03482.4 -07.6024 26322.0
 22 11 2013  16 07  -21.0225 26090.5 -03482.3 -07.6023 26321.8
 22 11 2013  16 08  -21.0223 26090.5 -03482.3 -07.6023 26321.9
 22 11 2013  16 09  -21.0222 26090.6 -03482.2 -07.6022 26322.0
 22 11 2013  16 10  -21.0220 26090.7 -03482.2 -07.6021 26322.0
 22 11 2013  16 11  -21.0218 26090.7 -03482.1 -07.6018 26322.0
 22 11 2013  16 12  -21.0216 26090.6 -03482.0 -07.6016 26322.0
 22 11 2013  16 13  -21.0213 26090.5 -03481.9 -07.6014 26321.8
 22 11 2013  16 14  -21.0210 26090.5 -03481.8 -07.6012 26321.8
 22 11 2013  16 15  -21.0208 26090.3 -03481.7 -07.6010 26321.6
 22 11 2013  16 16  -21.0205 26090.2 -03481.6 -07.6008 26321.5
 22 11 2013  16 17  -21.0202 26090.1 -03481.5 -07.6007 26321.3
 22 11 2013  16 18  -21.0199 26090.0 -03481.4 -07.6006 26321.3
 22 11 2013  16 19  -21.0196 26089.9 -03481.3 -07.6005 26321.1
 22 11 2013  16 20  -21.0193 26089.7 -03481.2 -07.6002 26320.9
 22 11 2013  16 21  -21.0188 26089.4 -03481.1 -07.6001 26320.6
 22 11 2013  16 22  -21.0184 26089.5 -03481.2 -07.6002 26320.7
 22 11 2013  16 23  -21.0184 26089.8 -03481.4 -07.6005 26321.1
 22 11 2013  16 24  -21.0184 26090.0 -03481.4 -07.6005 26321.2
 22 11 2013  16 25  -21.0181 26090.0 -03481.3 -07.6003 26321.2
 22 11 2013  16 26  -21.0179 26089.9 -03481.2 -07.6002 26321.2
 22 11 2013  16 27  -21.0177 26089.6 -03481.0 -07.5998 26320.8
 22 11 2013  16 28  -21.0172 26089.3 -03480.9 -07.5996 26320.5
 22 11 2013  16 29  -21.0169 26089.0 -03480.8 -07.5995 26320.2
 22 11 2013  16 30  -21.0167 26088.8 -03480.8 -07.5995 26319.9
 22 11 2013  16 31  -21.0164 26088.4 -03480.7 -07.5995 26319.6
 22 11 2013  16 32  -21.0160 26088.2 -03480.7 -07.5995 26319.4
 22 11 2013  16 33  -21.0157 26088.2 -03480.8 -07.5997 26319.3
 22 11 2013  16 34  -21.0158 26087.9 -03480.8 -07.5998 26319.1
 22 11 2013  16 35  -21.0153 26087.7 -03480.7 -07.5998 26318.9
 22 11 2013  16 36  -21.0150 26087.6 -03480.8 -07.5999 26318.8
 22 11 2013  16 37  -21.0149 26087.5 -03480.9 -07.6002 26318.7
 22 11 2013  16 38  -21.0149 26087.4 -03481.0 -07.6003 26318.6
 22 11 2013  16 39  -21.0147 26087.2 -03481.0 -07.6005 26318.5
 22 11 2013  16 40  -21.0146 26087.2 -03481.1 -07.6006 26318.5
 22 11 2013  16 41  -21.0146 26087.1 -03481.1 -07.6008 26318.4
 22 11 2013  16 42  -21.0145 26086.9 -03481.0 -07.6006 26318.1
 22 11 2013  16 43  -21.0143 26086.6 -03481.0 -07.6007 26317.8
 22 11 2013  16 44  -21.0142 26086.3 -03481.0 -07.6007 26317.5
 22 11 2013  16 45  -21.0137 26086.0 -03480.9 -07.6006 26317.2
 22 11 2013  16 46  -21.0138 26085.9 -03481.0 -07.6009 26317.1
 22 11 2013  16 47  -21.0137 26085.7 -03481.1 -07.6010 26316.9
 22 11 2013  16 48  -21.0134 26085.5 -03481.0 -07.6010 26316.8
 22 11 2013  16 49  -21.0132 26085.4 -03481.1 -07.6012 26316.6
 22 11 2013  16 50  -21.0130 26085.1 -03481.1 -07.6012 26316.4
 22 11 2013  16 51  -21.0129 26085.0 -03481.1 -07.6013 26316.3
 22 11 2013  16 52  -21.0128 26084.9 -03481.2 -07.6015 26316.2
 22 11 2013  16 53  -21.0127 26084.8 -03481.2 -07.6016 26316.0
 22 11 2013  16 54  -21.0123 26084.5 -03481.1 -07.6015 26315.7
 22 11 2013  16 55  -21.0119 26084.5 -03481.3 -07.6018 26315.7
 22 11 2013  16 56  -21.0120 26084.5 -03481.4 -07.6022 26315.8
 22 11 2013  16 57  -21.0118 26084.4 -03481.5 -07.6023 26315.7
 22 11 2013  16 58  -21.0117 26084.3 -03481.6 -07.6026 26315.7
 22 11 2013  16 59  -21.0115 26084.2 -03481.7 -07.6028 26315.5
 22 11 2013  17 00  -21.0115 26084.1 -03481.8 -07.6030 26315.4
 22 11 2013  17 01  -21.0113 26083.7 -03481.7 -07.6029 26315.0
 22 11 2013  17 02  -21.0109 26083.4 -03481.7 -07.6030 26314.7
 22 11 2013  17 03  -21.0107 26083.1 -03481.7 -07.6032 26314.5
 22 11 2013  17 04  -21.0106 26083.0 -03481.9 -07.6036 26314.4
 22 11 2013  17 05  -21.0106 26083.0 -03482.0 -07.6038 26314.4
 22 11 2013  17 06  -21.0105 26082.9 -03482.1 -07.6042 26314.4
 22 11 2013  17 07  -21.0104 26082.8 -03482.2 -07.6044 26314.3
 22 11 2013  17 08  -21.0101 26082.7 -03482.3 -07.6046 26314.1
 22 11 2013  17 09  -21.0098 26082.8 -03482.6 -07.6051 26314.2
 22 11 2013  17 10  -21.0097 26082.8 -03482.8 -07.6055 26314.3
 22 11 2013  17 11  -21.0097 26082.8 -03482.9 -07.6058 26314.3
 22 11 2013  17 12  -21.0094 26082.8 -03483.0 -07.6060 26314.3
 22 11 2013  17 13  -21.0094 26082.7 -03483.1 -07.6062 26314.2
 22 11 2013  17 14  -21.0094 26082.4 -03483.1 -07.6063 26314.0
 22 11 2013  17 15  -21.0094 26082.1 -03483.1 -07.6064 26313.7
 22 11 2013  17 16  -21.0094 26081.7 -03483.0 -07.6064 26313.2
 22 11 2013  17 17  -21.0090 26081.3 -03483.0 -07.6064 26312.8
 22 11 2013  17 18  -21.0090 26081.1 -03483.2 -07.6069 26312.7
 22 11 2013  17 19  -21.0092 26080.9 -03483.2 -07.6071 26312.4
 22 11 2013  17 20  -21.0092 26080.4 -03483.2 -07.6071 26312.0
 22 11 2013  17 21  -21.0090 26080.0 -03483.2 -07.6072 26311.5
 22 11 2013  17 22  -21.0089 26079.5 -03483.2 -07.6075 26311.1
 22 11 2013  17 23  -21.0094 26079.1 -03483.6 -07.6083 26310.8
 22 11 2013  17 24  -21.0098 26078.9 -03483.7 -07.6086 26310.5
 22 11 2013  17 25  -21.0098 26078.5 -03483.7 -07.6088 26310.1
 22 11 2013  17 26  -21.0095 26078.1 -03483.7 -07.6090 26309.8
 22 11 2013  17 27  -21.0095 26077.8 -03483.9 -07.6094 26309.5
 22 11 2013  17 28  -21.0094 26077.6 -03484.0 -07.6098 26309.3
 22 11 2013  17 29  -21.0098 26077.2 -03484.1 -07.6100 26309.0
 22 11 2013  17 30  -21.0093 26076.7 -03484.0 -07.6100 26308.4
 22 11 2013  17 31  -21.0093 26076.3 -03484.2 -07.6105 26308.0
 22 11 2013  17 32  -21.0096 26076.0 -03484.3 -07.6108 26307.8
 22 11 2013  17 33  -21.0101 26075.7 -03484.4 -07.6110 26307.4
 22 11 2013  17 34  -21.0100 26075.3 -03484.4 -07.6112 26307.1
 22 11 2013  17 35  -21.0100 26075.0 -03484.5 -07.6115 26306.8
 22 11 2013  17 36  -21.0100 26074.8 -03484.6 -07.6119 26306.6
 22 11 2013  17 37  -21.0100 26074.5 -03484.7 -07.6121 26306.4
 22 11 2013  17 38  -21.0099 26074.4 -03484.9 -07.6126 26306.2
 22 11 2013  17 39  -21.0100 26074.3 -03485.1 -07.6130 26306.2
 22 11 2013  17 40  -21.0102 26074.2 -03485.3 -07.6134 26306.1
 22 11 2013  17 41  -21.0101 26074.1 -03485.4 -07.6137 26306.0
 22 11 2013  17 42  -21.0100 26074.0 -03485.5 -07.6140 26305.9
 22 11 2013  17 43  -21.0099 26073.8 -03485.6 -07.6142 26305.8
 22 11 2013  17 44  -21.0097 26073.6 -03485.6 -07.6144 26305.6
 22 11 2013  17 45  -21.0097 26073.5 -03485.7 -07.6147 26305.4
 22 11 2013  17 46  -21.0095 26073.3 -03485.9 -07.6150 26305.3
 22 11 2013  17 47  -21.0093 26073.2 -03486.0 -07.6153 26305.2
 22 11 2013  17 48  -21.0093 26073.1 -03486.1 -07.6155 26305.2
 22 11 2013  17 49  -21.0092 26073.1 -03486.2 -07.6158 26305.1
 22 11 2013  17 50  -21.0090 26073.0 -03486.4 -07.6161 26305.1
 22 11 2013  17 51  -21.0089 26072.9 -03486.4 -07.6163 26304.9
 22 11 2013  17 52  -21.0088 26072.8 -03486.5 -07.6165 26304.9
 22 11 2013  17 53  -21.0087 26072.7 -03486.6 -07.6168 26304.8
 22 11 2013  17 54  -21.0084 26072.6 -03486.7 -07.6171 26304.7
 22 11 2013  17 55  -21.0083 26072.4 -03486.8 -07.6173 26304.5
 22 11 2013  17 56  -21.0081 26072.2 -03486.9 -07.6175 26304.3
 22 11 2013  17 57  -21.0079 26071.9 -03486.9 -07.6177 26304.1
 22 11 2013  17 58  -21.0077 26071.7 -03487.0 -07.6178 26303.8
 22 11 2013  17 59  -21.0076 26071.4 -03487.0 -07.6180 26303.6
 22 11 2013  18 00  -21.0076 26071.2 -03487.1 -07.6183 26303.4
 22 11 2013  18 01  -21.0074 26071.0 -03487.2 -07.6185 26303.2
 22 11 2013  18 02  -21.0075 26070.8 -03487.3 -07.6188 26303.0
 22 11 2013  18 03  -21.0075 26070.6 -03487.3 -07.6189 26302.8
 22 11 2013  18 04  -21.0078 26070.3 -03487.4 -07.6192 26302.5
 22 11 2013  18 05  -21.0079 26070.0 -03487.4 -07.6193 26302.2
 22 11 2013  18 06  -21.0080 26069.7 -03487.5 -07.6195 26302.0
 22 11 2013  18 07  -21.0082 26069.4 -03487.5 -07.6197 26301.7
 22 11 2013  18 08  -21.0084 26069.3 -03487.6 -07.6200 26301.5
 22 11 2013  18 09  -21.0087 26069.1 -03487.8 -07.6203 26301.4
 22 11 2013  18 10  -21.0090 26068.9 -03487.9 -07.6206 26301.2
 22 11 2013  18 11  -21.0092 26068.7 -03487.9 -07.6208 26301.0
 22 11 2013  18 12  -21.0094 26068.4 -03488.0 -07.6210 26300.8
 22 11 2013  18 13  -21.0098 26068.2 -03488.1 -07.6213 26300.5
 22 11 2013  18 14  -21.0102 26067.9 -03488.1 -07.6214 26300.2
 22 11 2013  18 15  -21.0103 26067.5 -03488.1 -07.6215 26299.8
 22 11 2013  18 16  -21.0106 26067.1 -03488.2 -07.6218 26299.5
 22 11 2013  18 17  -21.0107 26066.8 -03488.3 -07.6221 26299.1
 22 11 2013  18 18  -21.0108 26066.4 -03488.3 -07.6223 26298.8
 22 11 2013  18 19  -21.0110 26066.2 -03488.4 -07.6224 26298.5
 22 11 2013  18 20  -21.0111 26066.0 -03488.5 -07.6228 26298.4
 22 11 2013  18 21  -21.0112 26065.8 -03488.6 -07.6231 26298.3
 22 11 2013  18 22  -21.0112 26065.6 -03488.7 -07.6233 26298.0
 22 11 2013  18 23  -21.0113 26065.2 -03488.7 -07.6234 26297.7
 22 11 2013  18 24  -21.0113 26065.0 -03488.8 -07.6238 26297.4
 22 11 2013  18 25  -21.0114 26064.7 -03489.0 -07.6241 26297.2
 22 11 2013  18 26  -21.0117 26064.5 -03489.0 -07.6244 26297.0
 22 11 2013  18 27  -21.0119 26064.1 -03489.1 -07.6246 26296.6
 22 11 2013  18 28  -21.0117 26063.8 -03489.2 -07.6248 26296.3
 22 11 2013  18 29  -21.0117 26063.5 -03489.3 -07.6252 26296.1
 22 11 2013  18 30  -21.0118 26063.2 -03489.4 -07.6256 26295.7
 22 11 2013  18 31  -21.0119 26062.8 -03489.5 -07.6258 26295.4
 22 11 2013  18 32  -21.0116 26062.7 -03489.7 -07.6263 26295.3
 22 11 2013  18 33  -21.0118 26062.6 -03490.0 -07.6270 26295.3
 22 11 2013  18 34  -21.0123 26062.4 -03490.1 -07.6273 26295.0
 22 11 2013  18 35  -21.0125 26062.0 -03490.1 -07.6275 26294.7
 22 11 2013  18 36  -21.0127 26061.7 -03490.2 -07.6278 26294.4
 22 11 2013  18 37  -21.0129 26061.4 -03490.3 -07.6281 26294.1
 22 11 2013  18 38  -21.0132 26061.0 -03490.4 -07.6284 26293.7
 22 11 2013  18 39  -21.0133 26060.7 -03490.5 -07.6286 26293.4
 22 11 2013  18 40  -21.0135 26060.4 -03490.7 -07.6290 26293.2
 22 11 2013  18 41  -21.0135 26060.1 -03490.8 -07.6294 26292.9
 22 11 2013  18 42  -21.0135 26059.9 -03490.9 -07.6297 26292.6
 22 11 2013  18 43  -21.0138 26059.6 -03491.0 -07.6301 26292.4
 22 11 2013  18 44  -21.0141 26059.3 -03491.1 -07.6304 26292.1
 22 11 2013  18 45  -21.0142 26059.0 -03491.2 -07.6306 26291.9
 22 11 2013  18 46  -21.0143 26058.8 -03491.3 -07.6309 26291.7
 22 11 2013  18 47  -21.0144 26058.7 -03491.5 -07.6314 26291.6
 22 11 2013  18 48  -21.0148 26058.6 -03491.7 -07.6318 26291.5
 22 11 2013  18 49  -21.0153 26058.3 -03491.8 -07.6320 26291.2
 22 11 2013  18 50  -21.0156 26057.9 -03491.8 -07.6322 26290.8
 22 11 2013  18 51  -21.0159 26057.6 -03491.9 -07.6325 26290.6
 22 11 2013  18 52  -21.0163 26057.4 -03492.0 -07.6328 26290.3
 22 11 2013  18 53  -21.0167 26057.1 -03492.0 -07.6330 26290.0
 22 11 2013  18 54  -21.0169 26056.7 -03492.1 -07.6332 26289.7
 22 11 2013  18 55  -21.0172 26056.4 -03492.2 -07.6335 26289.4
 22 11 2013  18 56  -21.0176 26056.1 -03492.2 -07.6337 26289.1
 22 11 2013  18 57  -21.0180 26055.7 -03492.2 -07.6338 26288.7
 22 11 2013  18 58  -21.0184 26055.2 -03492.3 -07.6340 26288.2
 22 11 2013  18 59  -21.0187 26054.9 -03492.4 -07.6344 26287.9
 22 11 2013  19 00  -21.0190 26054.6 -03492.5 -07.6347 26287.6
 22 11 2013  19 01  -21.0194 26054.3 -03492.6 -07.6351 26287.3
 22 11 2013  19 02  -21.0198 26054.0 -03492.8 -07.6355 26287.0
 22 11 2013  19 03  -21.0200 26053.7 -03493.0 -07.6360 26286.8
 22 11 2013  19 04  -21.0202 26053.4 -03493.1 -07.6363 26286.5
 22 11 2013  19 05  -21.0206 26053.1 -03493.3 -07.6368 26286.3
 22 11 2013  19 06  -21.0210 26053.0 -03493.4 -07.6372 26286.1
 22 11 2013  19 07  -21.0213 26052.7 -03493.6 -07.6377 26285.9
 22 11 2013  19 08  -21.0217 26052.6 -03493.8 -07.6381 26285.9
 22 11 2013  19 09  -21.0222 26052.4 -03493.9 -07.6384 26285.7
 22 11 2013  19 10  -21.0226 26052.3 -03494.1 -07.6388 26285.6
 22 11 2013  19 11  -21.0229 26052.2 -03494.2 -07.6391 26285.5
 22 11 2013  19 12  -21.0233 26052.0 -03494.4 -07.6395 26285.3
 22 11 2013  19 13  -21.0236 26051.9 -03494.4 -07.6397 26285.2
 22 11 2013  19 14  -21.0239 26051.7 -03494.6 -07.6401 26285.0
 22 11 2013  19 15  -21.0242 26051.5 -03494.7 -07.6403 26284.8
 22 11 2013  19 16  -21.0246 26051.3 -03494.9 -07.6407 26284.7
 22 11 2013  19 17  -21.0246 26051.2 -03495.0 -07.6410 26284.6
 22 11 2013  19 18  -21.0249 26051.0 -03495.1 -07.6414 26284.4
 22 11 2013  19 19  -21.0251 26050.9 -03495.2 -07.6417 26284.3
 22 11 2013  19 20  -21.0254 26050.7 -03495.4 -07.6421 26284.2
 22 11 2013  19 21  -21.0255 26050.6 -03495.5 -07.6423 26284.0
 22 11 2013  19 22  -21.0255 26050.4 -03495.6 -07.6426 26283.9
 22 11 2013  19 23  -21.0257 26050.2 -03495.7 -07.6428 26283.7
 22 11 2013  19 24  -21.0258 26050.0 -03495.8 -07.6431 26283.5
 22 11 2013  19 25  -21.0259 26049.8 -03495.8 -07.6434 26283.3
 22 11 2013  19 26  -21.0259 26049.5 -03495.9 -07.6436 26283.0
 22 11 2013  19 27  -21.0260 26049.2 -03496.0 -07.6438 26282.8
 22 11 2013  19 28  -21.0260 26048.9 -03496.0 -07.6440 26282.5
 22 11 2013  19 29  -21.0262 26048.6 -03496.1 -07.6442 26282.1
 22 11 2013  19 30  -21.0261 26048.2 -03496.1 -07.6444 26281.8
 22 11 2013  19 31  -21.0260 26047.9 -03496.2 -07.6446 26281.5
 22 11 2013  19 32  -21.0258 26047.6 -03496.3 -07.6449 26281.2
 22 11 2013  19 33  -21.0257 26047.3 -03496.4 -07.6452 26280.9
 22 11 2013  19 34  -21.0255 26047.1 -03496.5 -07.6456 26280.7
 22 11 2013  19 35  -21.0255 26046.8 -03496.6 -07.6459 26280.4
 22 11 2013  19 36  -21.0256 26046.4 -03496.7 -07.6462 26280.1
 22 11 2013  19 37  -21.0256 26046.3 -03496.9 -07.6467 26280.0
 22 11 2013  19 38  -21.0258 26046.1 -03497.1 -07.6471 26279.8
 22 11 2013  19 39  -21.0258 26045.9 -03497.3 -07.6475 26279.6
 22 11 2013  19 40  -21.0260 26045.6 -03497.4 -07.6480 26279.4
 22 11 2013  19 41  -21.0262 26045.4 -03497.6 -07.6483 26279.2
 22 11 2013  19 42  -21.0263 26045.2 -03497.7 -07.6487 26279.1
 22 11 2013  19 43  -21.0264 26045.0 -03497.9 -07.6491 26278.8
 22 11 2013  19 44  -21.0265 26044.8 -03498.1 -07.6495 26278.7
 22 11 2013  19 45  -21.0265 26044.5 -03498.1 -07.6498 26278.4
 22 11 2013  19 46  -21.0267 26044.6 -03498.4 -07.6504 26278.5
 22 11 2013  19 47  -21.0270 26044.3 -03498.5 -07.6507 26278.2
 22 11 2013  19 48  -21.0271 26043.9 -03498.6 -07.6510 26277.9
 22 11 2013  19 49  -21.0270 26044.0 -03498.8 -07.6514 26277.9
 22 11 2013  19 50  -21.0272 26043.7 -03498.9 -07.6518 26277.7
 22 11 2013  19 51  -21.0272 26043.6 -03499.1 -07.6521 26277.6
 22 11 2013  19 52  -21.0273 26043.6 -03499.3 -07.6527 26277.6
 22 11 2013  19 53  -21.0275 26043.2 -03499.3 -07.6528 26277.2
 22 11 2013  19 54  -21.0276 26043.1 -03499.5 -07.6532 26277.2
 22 11 2013  19 55  -21.0277 26042.7 -03499.5 -07.6533 26276.7
 22 11 2013  19 56  -21.0277 26042.6 -03499.7 -07.6537 26276.7
 22 11 2013  19 57  -21.0278 26042.3 -03499.8 -07.6540 26276.4
 22 11 2013  19 58  -21.0278 26042.0 -03499.8 -07.6541 26276.1
 22 11 2013  19 59  -21.0278 26041.8 -03499.9 -07.6544 26275.9
 22 11 2013  20 00  -21.0277 26041.6 -03500.0 -07.6547 26275.8
 22 11 2013  20 01  -21.0277 26041.4 -03500.1 -07.6550 26275.6
 22 11 2013  20 02  -21.0278 26041.2 -03500.3 -07.6553 26275.4
 22 11 2013  20 03  -21.0277 26041.0 -03500.3 -07.6555 26275.2
 22 11 2013  20 04  -21.0277 26041.0 -03500.5 -07.6560 26275.2
 22 11 2013  20 05  -21.0277 26040.8 -03500.6 -07.6562 26275.0
 22 11 2013  20 06  -21.0275 26040.8 -03500.8 -07.6566 26275.0
 22 11 2013  20 07  -21.0275 26040.6 -03500.9 -07.6569 26274.9
 22 11 2013  20 08  -21.0274 26040.6 -03501.1 -07.6573 26274.9
 22 11 2013  20 09  -21.0274 26040.3 -03501.1 -07.6574 26274.7
 22 11 2013  20 10  -21.0274 26040.3 -03501.2 -07.6577 26274.6
 22 11 2013  20 11  -21.0272 26040.2 -03501.4 -07.6580 26274.6
 22 11 2013  20 12  -21.0272 26040.1 -03501.5 -07.6583 26274.5
 22 11 2013  20 13  -21.0270 26040.0 -03501.5 -07.6585 26274.4
 22 11 2013  20 14  -21.0269 26039.8 -03501.6 -07.6587 26274.2
 22 11 2013  20 15  -21.0268 26039.8 -03501.8 -07.6590 26274.2
 22 11 2013  20 16  -21.0268 26039.6 -03501.8 -07.6592 26274.1
 22 11 2013  20 17  -21.0267 26039.5 -03501.9 -07.6595 26274.0
 22 11 2013  20 18  -21.0267 26039.5 -03502.0 -07.6597 26273.9
 22 11 2013  20 19  -21.0266 26039.4 -03502.1 -07.6600 26273.9
 22 11 2013  20 20  -21.0263 26039.4 -03502.3 -07.6602 26273.8
 22 11 2013  20 21  -21.0261 26039.4 -03502.5 -07.6607 26273.9
 22 11 2013  20 22  -21.0258 26039.4 -03502.6 -07.6610 26273.9
 22 11 2013  20 23  -21.0257 26039.3 -03502.7 -07.6613 26273.8
 22 11 2013  20 24  -21.0254 26039.3 -03502.9 -07.6616 26273.8
 22 11 2013  20 25  -21.0251 26039.2 -03503.0 -07.6619 26273.8
 22 11 2013  20 26  -21.0251 26039.0 -03503.1 -07.6621 26273.6
 22 11 2013  20 27  -21.0250 26038.6 -03503.1 -07.6622 26273.2
 22 11 2013  20 28  -21.0248 26038.5 -03503.1 -07.6623 26273.1
 22 11 2013  20 29  -21.0244 26038.3 -03503.2 -07.6626 26272.9
 22 11 2013  20 30  -21.0240 26037.9 -03503.2 -07.6626 26272.5
 22 11 2013  20 31  -21.0236 26037.6 -03503.2 -07.6628 26272.2
 22 11 2013  20 32  -21.0232 26037.2 -03503.2 -07.6629 26271.8
 22 11 2013  20 33  -21.0227 26037.0 -03503.3 -07.6631 26271.6
 22 11 2013  20 34  -21.0223 26036.8 -03503.3 -07.6632 26271.4
 22 11 2013  20 35  -21.0221 26036.5 -03503.5 -07.6637 26271.2
 22 11 2013  20 36  -21.0216 26036.5 -03503.6 -07.6639 26271.2
 22 11 2013  20 37  -21.0215 26036.1 -03503.6 -07.6640 26270.7
 22 11 2013  20 38  -21.0211 26036.2 -03503.7 -07.6643 26270.9
 22 11 2013  20 39  -21.0209 26036.2 -03503.9 -07.6647 26270.9
 22 11 2013  20 40  -21.0207 26036.2 -03504.1 -07.6651 26270.9
 22 11 2013  20 41  -21.0206 26035.7 -03504.0 -07.6650 26270.4
 22 11 2013  20 42  -21.0205 26035.5 -03504.0 -07.6652 26270.3
 22 11 2013  20 43  -21.0204 26035.2 -03504.0 -07.6651 26269.9
 22 11 2013  20 44  -21.0202 26035.1 -03504.0 -07.6653 26269.8
 22 11 2013  20 45  -21.0201 26035.0 -03504.1 -07.6655 26269.7
 22 11 2013  20 46  -21.0200 26034.7 -03504.1 -07.6656 26269.5
 22 11 2013  20 47  -21.0199 26034.5 -03504.1 -07.6657 26269.3
 22 11 2013  20 48  -21.0198 26034.4 -03504.2 -07.6659 26269.2
 22 11 2013  20 49  -21.0195 26034.2 -03504.3 -07.6660 26269.0
 22 11 2013  20 50  -21.0196 26034.0 -03504.3 -07.6662 26268.8
 22 11 2013  20 51  -21.0196 26033.9 -03504.4 -07.6664 26268.7
 22 11 2013  20 52  -21.0194 26033.7 -03504.4 -07.6665 26268.5
 22 11 2013  20 53  -21.0193 26033.7 -03504.5 -07.6668 26268.5
 22 11 2013  20 54  -21.0190 26033.7 -03504.7 -07.6672 26268.5
 22 11 2013  20 55  -21.0188 26033.5 -03504.7 -07.6672 26268.3
 22 11 2013  20 56  -21.0187 26033.2 -03504.7 -07.6674 26268.1
 22 11 2013  20 57  -21.0186 26033.2 -03504.9 -07.6677 26268.1
 22 11 2013  20 58  -21.0186 26033.1 -03505.0 -07.6680 26268.0
 22 11 2013  20 59  -21.0184 26033.1 -03505.2 -07.6683 26268.0
 22 11 2013  21 00  -21.0184 26033.1 -03505.3 -07.6686 26268.0
 22 11 2013  21 01  -21.0184 26032.9 -03505.3 -07.6688 26267.8
 22 11 2013  21 02  -21.0183 26032.8 -03505.4 -07.6690 26267.8
 22 11 2013  21 03  -21.0183 26032.9 -03505.6 -07.6693 26267.8
 22 11 2013  21 04  -21.0182 26032.8 -03505.7 -07.6697 26267.8
 22 11 2013  21 05  -21.0184 26032.7 -03505.8 -07.6699 26267.7
 22 11 2013  21 06  -21.0185 26032.5 -03505.9 -07.6700 26267.5
 22 11 2013  21 07  -21.0185 26032.4 -03505.9 -07.6702 26267.4
 22 11 2013  21 08  -21.0184 26032.2 -03505.9 -07.6702 26267.2
 22 11 2013  21 09  -21.0184 26031.9 -03505.9 -07.6703 26266.9
 22 11 2013  21 10  -21.0186 26031.6 -03505.9 -07.6703 26266.6
 22 11 2013  21 11  -21.0185 26031.5 -03505.9 -07.6704 26266.5
 22 11 2013  21 12  -21.0183 26031.4 -03506.0 -07.6705 26266.4
 22 11 2013  21 13  -21.0182 26031.2 -03506.0 -07.6707 26266.2
 22 11 2013  21 14  -21.0180 26031.2 -03506.1 -07.6708 26266.2
 22 11 2013  21 15  -21.0180 26031.1 -03506.2 -07.6711 26266.2
 22 11 2013  21 16  -21.0178 26031.1 -03506.2 -07.6712 26266.1
 22 11 2013  21 17  -21.0177 26031.0 -03506.2 -07.6712 26266.1
 22 11 2013  21 18  -21.0175 26031.0 -03506.3 -07.6715 26266.0
 22 11 2013  21 19  -21.0173 26031.0 -03506.5 -07.6718 26266.1
 22 11 2013  21 20  -21.0172 26030.9 -03506.6 -07.6720 26266.1
 22 11 2013  21 21  -21.0172 26030.8 -03506.6 -07.6721 26265.9
 22 11 2013  21 22  -21.0170 26030.8 -03506.7 -07.6723 26265.9
 22 11 2013  21 23  -21.0168 26030.7 -03506.7 -07.6724 26265.9
 22 11 2013  21 24  -21.0166 26030.8 -03506.9 -07.6727 26266.0
 22 11 2013  21 25  -21.0165 26030.7 -03506.9 -07.6728 26265.9
 22 11 2013  21 26  -21.0166 26030.5 -03506.9 -07.6728 26265.7
 22 11 2013  21 27  -21.0165 26030.5 -03506.9 -07.6729 26265.6
 22 11 2013  21 28  -21.0163 26030.5 -03507.0 -07.6731 26265.7
 22 11 2013  21 29  -21.0163 26030.4 -03507.1 -07.6733 26265.6
 22 11 2013  21 30  -21.0162 26030.3 -03507.1 -07.6734 26265.5
 22 11 2013  21 31  -21.0163 26030.3 -03507.2 -07.6735 26265.5
 22 11 2013  21 32  -21.0160 26030.3 -03507.2 -07.6736 26265.5
 22 11 2013  21 33  -21.0156 26030.4 -03507.4 -07.6739 26265.6
 22 11 2013  21 34  -21.0155 26030.3 -03507.4 -07.6740 26265.5
 22 11 2013  21 35  -21.0155 26030.1 -03507.4 -07.6739 26265.3
 22 11 2013  21 36  -21.0155 26029.9 -03507.4 -07.6740 26265.1
 22 11 2013  21 37  -21.0154 26029.7 -03507.3 -07.6739 26265.0
 22 11 2013  21 38  -21.0151 26029.9 -03507.4 -07.6741 26265.1
 22 11 2013  21 39  -21.0151 26029.8 -03507.5 -07.6742 26265.0
 22 11 2013  21 40  -21.0151 26029.5 -03507.4 -07.6742 26264.8
 22 11 2013  21 41  -21.0153 26029.2 -03507.3 -07.6742 26264.5
 22 11 2013  21 42  -21.0152 26029.1 -03507.3 -07.6741 26264.3
 22 11 2013  21 43  -21.0148 26029.1 -03507.4 -07.6742 26264.4
 22 11 2013  21 44  -21.0145 26029.1 -03507.4 -07.6744 26264.4
 22 11 2013  21 45  -21.0142 26029.0 -03507.4 -07.6744 26264.3
 22 11 2013  21 46  -21.0138 26029.0 -03507.5 -07.6745 26264.2
 22 11 2013  21 47  -21.0134 26028.9 -03507.5 -07.6746 26264.2
 22 11 2013  21 48  -21.0134 26028.7 -03507.5 -07.6746 26264.0
 22 11 2013  21 49  -21.0134 26028.7 -03507.5 -07.6747 26264.0
 22 11 2013  21 50  -21.0133 26028.9 -03507.7 -07.6750 26264.1
 22 11 2013  21 51  -21.0132 26029.0 -03507.8 -07.6752 26264.3
 22 11 2013  21 52  -21.0130 26029.1 -03507.9 -07.6753 26264.4
 22 11 2013  21 53  -21.0130 26029.1 -03508.0 -07.6756 26264.4
 22 11 2013  21 54  -21.0130 26029.1 -03508.0 -07.6756 26264.4
 22 11 2013  21 55  -21.0132 26029.0 -03508.0 -07.6757 26264.3
 22 11 2013  21 56  -21.0132 26028.8 -03508.0 -07.6757 26264.1
 22 11 2013  21 57  -21.0130 26028.9 -03508.0 -07.6757 26264.2
 22 11 2013  21 58  -21.0126 26028.9 -03508.1 -07.6758 26264.3
 22 11 2013  21 59  -21.0123 26028.6 -03507.9 -07.6756 26263.9
 22 11 2013  22 00  -21.0127 26028.2 -03507.8 -07.6754 26263.5
 22 11 2013  22 01  -21.0128 26027.9 -03507.7 -07.6753 26263.2
 22 11 2013  22 02  -21.0123 26027.8 -03507.6 -07.6752 26263.1
 22 11 2013  22 03  -21.0118 26027.7 -03507.5 -07.6750 26263.0
 22 11 2013  22 04  -21.0113 26027.5 -03507.5 -07.6750 26262.8
 22 11 2013  22 05  -21.0112 26027.2 -03507.4 -07.6749 26262.5
 22 11 2013  22 06  -21.0111 26026.9 -03507.4 -07.6749 26262.2
 22 11 2013  22 07  -21.0109 26026.8 -03507.3 -07.6749 26262.1
 22 11 2013  22 08  -21.0105 26026.8 -03507.4 -07.6750 26262.0
 22 11 2013  22 09  -21.0101 26027.0 -03507.5 -07.6753 26262.3
 22 11 2013  22 10  -21.0094 26027.5 -03507.9 -07.6758 26262.8
 22 11 2013  22 11  -21.0090 26026.8 -03507.6 -07.6754 26262.0
 22 11 2013  22 12  -21.0086 26027.4 -03507.9 -07.6759 26262.7
 22 11 2013  22 13  -21.0080 26028.2 -03508.5 -07.6769 26263.6
 22 11 2013  22 14  -21.0076 26027.5 -03508.1 -07.6764 26262.9
 22 11 2013  22 15  -21.0075 26028.0 -03508.4 -07.6768 26263.4
 22 11 2013  22 16  -21.0071 26028.4 -03508.6 -07.6772 26263.8
 22 11 2013  22 17  -21.0071 26028.4 -03508.7 -07.6773 26263.8
 22 11 2013  22 18  -21.0071 26028.5 -03508.8 -07.6775 26263.9
 22 11 2013  22 19  -21.0069 26028.5 -03508.8 -07.6775 26263.9
 22 11 2013  22 20  -21.0070 26028.4 -03508.8 -07.6775 26263.8
 22 11 2013  22 21  -21.0070 26028.5 -03508.9 -07.6777 26264.0
 22 11 2013  22 22  -21.0069 26028.5 -03508.9 -07.6778 26263.9
 22 11 2013  22 23  -21.0068 26028.4 -03508.8 -07.6776 26263.8
 22 11 2013  22 24  -21.0066 26028.6 -03509.0 -07.6778 26264.1
 22 11 2013  22 25  -21.0061 26028.9 -03509.1 -07.6781 26264.3
 22 11 2013  22 26  -21.0058 26028.8 -03509.1 -07.6780 26264.2
 22 11 2013  22 27  -21.0057 26028.8 -03509.1 -07.6782 26264.3
 22 11 2013  22 28  -21.0056 26028.9 -03509.2 -07.6782 26264.4
 22 11 2013  22 29  -21.0056 26028.8 -03509.2 -07.6783 26264.3
 22 11 2013  22 30  -21.0055 26028.8 -03509.2 -07.6783 26264.2
 22 11 2013  22 31  -21.0054 26028.7 -03509.2 -07.6784 26264.2
 22 11 2013  22 32  -21.0051 26028.8 -03509.3 -07.6785 26264.3
 22 11 2013  22 33  -21.0050 26028.7 -03509.3 -07.6786 26264.2
 22 11 2013  22 34  -21.0048 26028.6 -03509.3 -07.6785 26264.1
 22 11 2013  22 35  -21.0045 26028.7 -03509.3 -07.6786 26264.2
 22 11 2013  22 36  -21.0044 26028.4 -03509.3 -07.6785 26263.9
 22 11 2013  22 37  -21.0045 26028.3 -03509.3 -07.6786 26263.8
 22 11 2013  22 38  -21.0046 26028.4 -03509.4 -07.6788 26263.9
 22 11 2013  22 39  -21.0044 26028.4 -03509.4 -07.6789 26263.9
 22 11 2013  22 40  -21.0044 26028.3 -03509.4 -07.6789 26263.8
 22 11 2013  22 41  -21.0044 26028.0 -03509.3 -07.6787 26263.6
 22 11 2013  22 42  -21.0044 26028.0 -03509.3 -07.6787 26263.5
 22 11 2013  22 43  -21.0044 26028.1 -03509.4 -07.6790 26263.7
 22 11 2013  22 44  -21.0045 26028.1 -03509.4 -07.6790 26263.6
 22 11 2013  22 45  -21.0045 26028.1 -03509.4 -07.6790 26263.6
 22 11 2013  22 46  -21.0045 26028.1 -03509.5 -07.6792 26263.6
 22 11 2013  22 47  -21.0046 26028.0 -03509.5 -07.6791 26263.5
 22 11 2013  22 48  -21.0048 26028.1 -03509.5 -07.6792 26263.7
 22 11 2013  22 49  -21.0049 26028.1 -03509.6 -07.6793 26263.6
 22 11 2013  22 50  -21.0049 26028.0 -03509.5 -07.6792 26263.6
 22 11 2013  22 51  -21.0050 26028.0 -03509.5 -07.6792 26263.5
 22 11 2013  22 52  -21.0051 26028.0 -03509.6 -07.6793 26263.6
 22 11 2013  22 53  -21.0051 26028.0 -03509.6 -07.6793 26263.5
 22 11 2013  22 54  -21.0052 26027.9 -03509.5 -07.6792 26263.5
 22 11 2013  22 55  -21.0054 26027.9 -03509.5 -07.6792 26263.4
 22 11 2013  22 56  -21.0055 26027.8 -03509.4 -07.6791 26263.3
 22 11 2013  22 57  -21.0056 26027.7 -03509.4 -07.6790 26263.3
 22 11 2013  22 58  -21.0056 26027.7 -03509.4 -07.6790 26263.2
 22 11 2013  22 59  -21.0056 26027.6 -03509.3 -07.6790 26263.1
 22 11 2013  23 00  -21.0056 26027.5 -03509.3 -07.6789 26263.0
 22 11 2013  23 01  -21.0055 26027.4 -03509.3 -07.6789 26262.9
 22 11 2013  23 02  -21.0055 26027.2 -03509.2 -07.6789 26262.8
 22 11 2013  23 03  -21.0055 26027.2 -03509.3 -07.6789 26262.7
 22 11 2013  23 04  -21.0056 26027.2 -03509.2 -07.6789 26262.7
 22 11 2013  23 05  -21.0057 26027.1 -03509.2 -07.6789 26262.7
 22 11 2013  23 06  -21.0057 26027.2 -03509.3 -07.6789 26262.7
 22 11 2013  23 07  -21.0056 26027.1 -03509.3 -07.6790 26262.7
 22 11 2013  23 08  -21.0055 26027.2 -03509.3 -07.6790 26262.7
 22 11 2013  23 09  -21.0055 26027.1 -03509.3 -07.6790 26262.7
 22 11 2013  23 10  -21.0055 26027.1 -03509.3 -07.6790 26262.6
 22 11 2013  23 11  -21.0053 26027.0 -03509.3 -07.6789 26262.5
 22 11 2013  23 12  -21.0051 26027.1 -03509.3 -07.6790 26262.6
 22 11 2013  23 13  -21.0049 26027.0 -03509.3 -07.6790 26262.6
 22 11 2013  23 14  -21.0047 26026.9 -03509.3 -07.6790 26262.4
 22 11 2013  23 15  -21.0045 26026.9 -03509.2 -07.6789 26262.4
 22 11 2013  23 16  -21.0044 26026.9 -03509.2 -07.6790 26262.4
 22 11 2013  23 17  -21.0041 26026.8 -03509.2 -07.6789 26262.3
 22 11 2013  23 18  -21.0038 26026.8 -03509.3 -07.6790 26262.4
 22 11 2013  23 19  -21.0038 26026.9 -03509.3 -07.6791 26262.4
 22 11 2013  23 20  -21.0037 26026.9 -03509.4 -07.6792 26262.4
 22 11 2013  23 21  -21.0035 26026.8 -03509.4 -07.6792 26262.4
 22 11 2013  23 22  -21.0036 26026.8 -03509.4 -07.6792 26262.3
 22 11 2013  23 23  -21.0035 26026.8 -03509.4 -07.6793 26262.4
 22 11 2013  23 24  -21.0033 26026.8 -03509.4 -07.6794 26262.4
 22 11 2013  23 25  -21.0033 26026.8 -03509.4 -07.6794 26262.3
 22 11 2013  23 26  -21.0034 26026.8 -03509.5 -07.6794 26262.3
 22 11 2013  23 27  -21.0032 26026.8 -03509.5 -07.6795 26262.3
 22 11 2013  23 28  -21.0032 26026.7 -03509.5 -07.6795 26262.3
 22 11 2013  23 29  -21.0033 26026.8 -03509.5 -07.6795 26262.3
 22 11 2013  23 30  -21.0032 26026.9 -03509.6 -07.6797 26262.4
 22 11 2013  23 31  -21.0032 26026.8 -03509.6 -07.6797 26262.3
 22 11 2013  23 32  -21.0032 26026.9 -03509.6 -07.6798 26262.5
 22 11 2013  23 33  -21.0032 26027.0 -03509.7 -07.6799 26262.6
 22 11 2013  23 34  -21.0031 26027.0 -03509.7 -07.6799 26262.6
 22 11 2013  23 35  -21.0031 26027.1 -03509.7 -07.6800 26262.7
 22 11 2013  23 36  -21.0030 26027.1 -03509.8 -07.6801 26262.7
 22 11 2013  23 37  -21.0029 26027.2 -03509.8 -07.6800 26262.7
 22 11 2013  23 38  -21.0029 26027.2 -03509.8 -07.6801 26262.8
 22 11 2013  23 39  -21.0029 26027.3 -03509.9 -07.6802 26262.9
 22 11 2013  23 40  -21.0028 26027.4 -03509.9 -07.6802 26263.0
 22 11 2013  23 41  -21.0026 26027.5 -03509.9 -07.6803 26263.1
 22 11 2013  23 42  -21.0026 26027.5 -03510.0 -07.6803 26263.1
 22 11 2013  23 43  -21.0024 26027.5 -03510.0 -07.6804 26263.1
 22 11 2013  23 44  -21.0021 26027.6 -03510.0 -07.6804 26263.2
 22 11 2013  23 45  -21.0022 26027.7 -03510.1 -07.6805 26263.3
 22 11 2013  23 46  -21.0020 26027.8 -03510.1 -07.6805 26263.4
 22 11 2013  23 47  -21.0020 26027.8 -03510.1 -07.6806 26263.4
 22 11 2013  23 48  -21.0021 26027.8 -03510.1 -07.6806 26263.4
 22 11 2013  23 49  -21.0018 26028.0 -03510.2 -07.6808 26263.7
 22 11 2013  23 50  -21.0019 26028.1 -03510.3 -07.6809 26263.7
 22 11 2013  23 51  -21.0019 26028.1 -03510.3 -07.6809 26263.7
 22 11 2013  23 52  -21.0020 26028.2 -03510.3 -07.6810 26263.8
 22 11 2013  23 53  -21.0020 26028.2 -03510.4 -07.6810 26263.9
 22 11 2013  23 54  -21.0021 26028.3 -03510.4 -07.6810 26263.9
 22 11 2013  23 55  -21.0023 26028.3 -03510.4 -07.6810 26263.9
 22 11 2013  23 56  -21.0023 26028.2 -03510.4 -07.6810 26263.9
 22 11 2013  23 57  -21.0024 26028.2 -03510.4 -07.6810 26263.8
