SAO LUIS EMBRACE-03 <239> 1 Min. Reported data

 DD MM YYYY  HH MM   D(Deg)  H(nT)   Z(nT)   I(Deg)   F(nT)

 27 08 2013  00 00  -21.0218 26016.7 -03478.5 -07.6155 26248.2
 27 08 2013  00 01  -21.0217 26016.7 -03478.5 -07.6155 26248.2
 27 08 2013  00 02  -21.0214 26016.7 -03478.5 -07.6154 26248.3
 27 08 2013  00 03  -21.0212 26016.6 -03478.4 -07.6152 26248.1
 27 08 2013  00 04  -21.0211 26016.5 -03478.3 -07.6151 26248.0
 27 08 2013  00 05  -21.0211 26016.3 -03478.3 -07.6150 26247.8
 27 08 2013  00 06  -21.0209 26016.2 -03478.2 -07.6149 26247.7
 27 08 2013  00 07  -21.0208 26016.1 -03478.1 -07.6148 26247.6
 27 08 2013  00 08  -21.0208 26016.0 -03478.1 -07.6148 26247.4
 27 08 2013  00 09  -21.0208 26016.0 -03478.2 -07.6150 26247.5
 27 08 2013  00 10  -21.0208 26016.3 -03478.4 -07.6152 26247.8
 27 08 2013  00 11  -21.0207 26016.6 -03478.5 -07.6155 26248.1
 27 08 2013  00 12  -21.0207 26016.7 -03478.6 -07.6155 26248.2
 27 08 2013  00 13  -21.0206 26016.8 -03478.6 -07.6156 26248.3
 27 08 2013  00 14  -21.0205 26016.8 -03478.6 -07.6157 26248.3
 27 08 2013  00 15  -21.0207 26016.7 -03478.6 -07.6156 26248.3
 27 08 2013  00 16  -21.0206 26016.7 -03478.5 -07.6155 26248.2
 27 08 2013  00 17  -21.0207 26016.4 -03478.4 -07.6153 26247.9
 27 08 2013  00 18  -21.0209 26016.1 -03478.3 -07.6151 26247.6
 27 08 2013  00 19  -21.0210 26015.9 -03478.2 -07.6149 26247.4
 27 08 2013  00 20  -21.0211 26015.8 -03478.1 -07.6148 26247.3
 27 08 2013  00 21  -21.0213 26015.6 -03478.0 -07.6147 26247.0
 27 08 2013  00 22  -21.0213 26015.4 -03477.9 -07.6145 26246.8
 27 08 2013  00 23  -21.0215 26015.1 -03477.8 -07.6144 26246.6
 27 08 2013  00 24  -21.0217 26014.9 -03477.8 -07.6143 26246.4
 27 08 2013  00 25  -21.0217 26014.8 -03477.7 -07.6143 26246.3
 27 08 2013  00 26  -21.0217 26014.7 -03477.7 -07.6142 26246.1
 27 08 2013  00 27  -21.0219 26014.5 -03477.6 -07.6141 26245.9
 27 08 2013  00 28  -21.0219 26014.5 -03477.6 -07.6141 26245.9
 27 08 2013  00 29  -21.0220 26014.5 -03477.7 -07.6143 26246.0
 27 08 2013  00 30  -21.0222 26014.6 -03477.8 -07.6144 26246.0
 27 08 2013  00 31  -21.0224 26014.6 -03477.8 -07.6145 26246.0
 27 08 2013  00 32  -21.0225 26014.6 -03477.8 -07.6145 26246.0
 27 08 2013  00 33  -21.0226 26014.6 -03477.8 -07.6146 26246.0
 27 08 2013  00 34  -21.0227 26014.6 -03477.9 -07.6146 26246.1
 27 08 2013  00 35  -21.0229 26014.6 -03477.9 -07.6147 26246.1
 27 08 2013  00 36  -21.0231 26014.7 -03477.9 -07.6148 26246.1
 27 08 2013  00 37  -21.0232 26014.7 -03477.9 -07.6148 26246.2
 27 08 2013  00 38  -21.0234 26014.7 -03477.9 -07.6148 26246.2
 27 08 2013  00 39  -21.0234 26014.8 -03477.9 -07.6147 26246.2
 27 08 2013  00 40  -21.0233 26014.8 -03477.9 -07.6147 26246.2
 27 08 2013  00 41  -21.0234 26014.8 -03478.0 -07.6148 26246.3
 27 08 2013  00 42  -21.0234 26015.0 -03478.0 -07.6149 26246.4
 27 08 2013  00 43  -21.0234 26015.0 -03478.0 -07.6149 26246.4
 27 08 2013  00 44  -21.0235 26015.0 -03478.0 -07.6149 26246.4
 27 08 2013  00 45  -21.0235 26015.0 -03478.0 -07.6148 26246.5
 27 08 2013  00 46  -21.0233 26015.1 -03478.0 -07.6149 26246.6
 27 08 2013  00 47  -21.0231 26015.2 -03478.0 -07.6148 26246.6
 27 08 2013  00 48  -21.0229 26015.2 -03478.0 -07.6148 26246.6
 27 08 2013  00 49  -21.0227 26015.0 -03478.0 -07.6148 26246.5
 27 08 2013  00 50  -21.0227 26014.9 -03477.9 -07.6147 26246.4
 27 08 2013  00 51  -21.0229 26014.9 -03477.9 -07.6147 26246.3
 27 08 2013  00 52  -21.0230 26014.9 -03477.9 -07.6146 26246.3
 27 08 2013  00 53  -21.0231 26014.8 -03477.9 -07.6146 26246.2
 27 08 2013  00 54  -21.0231 26014.7 -03477.9 -07.6146 26246.2
 27 08 2013  00 55  -21.0230 26014.7 -03477.8 -07.6146 26246.1
 27 08 2013  00 56  -21.0227 26014.6 -03477.8 -07.6145 26246.0
 27 08 2013  00 57  -21.0224 26014.5 -03477.7 -07.6144 26245.9
 27 08 2013  00 58  -21.0223 26014.4 -03477.7 -07.6143 26245.8
 27 08 2013  00 59  -21.0223 26014.3 -03477.6 -07.6143 26245.7
 27 08 2013  01 00  -21.0223 26014.1 -03477.6 -07.6142 26245.6
 27 08 2013  01 01  -21.0221 26014.0 -03477.6 -07.6142 26245.4
 27 08 2013  01 02  -21.0221 26013.8 -03477.5 -07.6141 26245.2
 27 08 2013  01 03  -21.0222 26013.7 -03477.5 -07.6141 26245.1
 27 08 2013  01 04  -21.0224 26013.5 -03477.4 -07.6140 26244.9
 27 08 2013  01 05  -21.0227 26013.3 -03477.4 -07.6139 26244.7
 27 08 2013  01 06  -21.0228 26013.1 -03477.3 -07.6139 26244.5
 27 08 2013  01 07  -21.0227 26013.0 -03477.3 -07.6138 26244.4
 27 08 2013  01 08  -21.0226 26012.8 -03477.2 -07.6137 26244.2
 27 08 2013  01 09  -21.0224 26012.7 -03477.1 -07.6136 26244.1
 27 08 2013  01 10  -21.0223 26012.5 -03477.1 -07.6136 26243.9
 27 08 2013  01 11  -21.0220 26012.5 -03477.1 -07.6136 26243.9
 27 08 2013  01 12  -21.0216 26012.5 -03477.1 -07.6136 26243.9
 27 08 2013  01 13  -21.0212 26012.4 -03477.1 -07.6137 26243.8
 27 08 2013  01 14  -21.0210 26012.4 -03477.2 -07.6138 26243.8
 27 08 2013  01 15  -21.0210 26012.4 -03477.3 -07.6141 26243.8
 27 08 2013  01 16  -21.0211 26012.5 -03477.4 -07.6143 26244.0
 27 08 2013  01 17  -21.0212 26012.6 -03477.5 -07.6145 26244.1
 27 08 2013  01 18  -21.0213 26012.7 -03477.6 -07.6147 26244.2
 27 08 2013  01 19  -21.0213 26012.8 -03477.7 -07.6148 26244.2
 27 08 2013  01 20  -21.0212 26012.9 -03477.8 -07.6149 26244.3
 27 08 2013  01 21  -21.0213 26012.8 -03477.7 -07.6149 26244.3
 27 08 2013  01 22  -21.0214 26012.8 -03477.8 -07.6150 26244.2
 27 08 2013  01 23  -21.0214 26012.7 -03477.7 -07.6149 26244.1
 27 08 2013  01 24  -21.0213 26012.7 -03477.7 -07.6149 26244.2
 27 08 2013  01 25  -21.0213 26012.7 -03477.7 -07.6149 26244.1
 27 08 2013  01 26  -21.0212 26012.7 -03477.8 -07.6150 26244.1
 27 08 2013  01 27  -21.0211 26012.7 -03477.8 -07.6151 26244.2
 27 08 2013  01 28  -21.0207 26012.8 -03477.9 -07.6151 26244.3
 27 08 2013  01 29  -21.0204 26012.6 -03477.8 -07.6150 26244.0
 27 08 2013  01 30  -21.0198 26012.7 -03477.8 -07.6150 26244.1
 27 08 2013  01 31  -21.0196 26012.4 -03477.7 -07.6150 26243.8
 27 08 2013  01 32  -21.0195 26012.2 -03477.7 -07.6149 26243.6
 27 08 2013  01 33  -21.0196 26012.2 -03477.7 -07.6150 26243.6
 27 08 2013  01 34  -21.0202 26012.1 -03477.7 -07.6151 26243.5
 27 08 2013  01 35  -21.0206 26011.9 -03477.7 -07.6152 26243.3
 27 08 2013  01 36  -21.0210 26011.8 -03477.7 -07.6152 26243.2
 27 08 2013  01 37  -21.0216 26011.5 -03477.6 -07.6150 26242.9
 27 08 2013  01 38  -21.0221 26011.4 -03477.6 -07.6151 26242.9
 27 08 2013  01 39  -21.0225 26011.2 -03477.6 -07.6150 26242.6
 27 08 2013  01 40  -21.0226 26011.0 -03477.5 -07.6148 26242.4
 27 08 2013  01 41  -21.0227 26010.8 -03477.4 -07.6147 26242.2
 27 08 2013  01 42  -21.0230 26010.7 -03477.4 -07.6148 26242.1
 27 08 2013  01 43  -21.0233 26010.5 -03477.4 -07.6148 26242.0
 27 08 2013  01 44  -21.0236 26010.6 -03477.4 -07.6148 26242.0
 27 08 2013  01 45  -21.0238 26010.6 -03477.4 -07.6148 26242.0
 27 08 2013  01 46  -21.0240 26010.6 -03477.5 -07.6149 26242.0
 27 08 2013  01 47  -21.0241 26010.6 -03477.5 -07.6151 26242.1
 27 08 2013  01 48  -21.0242 26010.7 -03477.6 -07.6151 26242.1
 27 08 2013  01 49  -21.0242 26010.8 -03477.6 -07.6152 26242.2
 27 08 2013  01 50  -21.0241 26010.8 -03477.7 -07.6153 26242.3
 27 08 2013  01 51  -21.0240 26010.9 -03477.7 -07.6154 26242.4
 27 08 2013  01 52  -21.0239 26011.0 -03477.8 -07.6155 26242.5
 27 08 2013  01 53  -21.0240 26011.1 -03477.8 -07.6156 26242.5
 27 08 2013  01 54  -21.0240 26011.0 -03477.9 -07.6157 26242.5
 27 08 2013  01 55  -21.0238 26011.0 -03477.9 -07.6157 26242.5
 27 08 2013  01 56  -21.0235 26011.2 -03477.9 -07.6158 26242.6
 27 08 2013  01 57  -21.0231 26011.6 -03478.2 -07.6162 26243.1
 27 08 2013  01 58  -21.0227 26012.2 -03478.4 -07.6166 26243.7
 27 08 2013  01 59  -21.0221 26012.5 -03478.6 -07.6169 26244.1
 27 08 2013  02 00  -21.0215 26013.2 -03479.0 -07.6174 26244.8
 27 08 2013  02 01  -21.0208 26014.2 -03479.4 -07.6181 26245.8
 27 08 2013  02 02  -21.0202 26014.9 -03479.8 -07.6188 26246.6
 27 08 2013  02 03  -21.0195 26015.6 -03480.1 -07.6193 26247.3
 27 08 2013  02 04  -21.0189 26016.4 -03480.5 -07.6198 26248.2
 27 08 2013  02 05  -21.0183 26017.0 -03480.8 -07.6202 26248.8
 27 08 2013  02 06  -21.0179 26017.7 -03481.1 -07.6207 26249.5
 27 08 2013  02 07  -21.0175 26018.4 -03481.4 -07.6211 26250.3
 27 08 2013  02 08  -21.0172 26018.9 -03481.6 -07.6215 26250.8
 27 08 2013  02 09  -21.0168 26019.5 -03481.8 -07.6218 26251.4
 27 08 2013  02 10  -21.0166 26019.9 -03481.9 -07.6219 26251.9
 27 08 2013  02 11  -21.0166 26020.2 -03482.0 -07.6220 26252.1
 27 08 2013  02 12  -21.0166 26020.5 -03482.1 -07.6221 26252.5
 27 08 2013  02 13  -21.0166 26020.8 -03482.2 -07.6221 26252.8
 27 08 2013  02 14  -21.0168 26020.8 -03482.1 -07.6220 26252.8
 27 08 2013  02 15  -21.0166 26021.1 -03482.1 -07.6219 26253.0
 27 08 2013  02 16  -21.0167 26021.0 -03482.0 -07.6217 26253.0
 27 08 2013  02 17  -21.0168 26021.1 -03481.9 -07.6214 26253.0
 27 08 2013  02 18  -21.0166 26021.1 -03481.8 -07.6213 26253.0
 27 08 2013  02 19  -21.0161 26021.1 -03481.7 -07.6211 26253.0
 27 08 2013  02 20  -21.0158 26021.0 -03481.6 -07.6209 26252.9
 27 08 2013  02 21  -21.0155 26021.1 -03481.6 -07.6208 26253.0
 27 08 2013  02 22  -21.0152 26021.4 -03481.7 -07.6209 26253.3
 27 08 2013  02 23  -21.0148 26021.8 -03481.9 -07.6212 26253.8
 27 08 2013  02 24  -21.0148 26022.0 -03481.9 -07.6213 26253.9
 27 08 2013  02 25  -21.0150 26022.0 -03481.9 -07.6212 26253.9
 27 08 2013  02 26  -21.0151 26022.2 -03481.9 -07.6212 26254.1
 27 08 2013  02 27  -21.0156 26022.1 -03481.8 -07.6211 26254.1
 27 08 2013  02 28  -21.0157 26022.1 -03481.7 -07.6209 26254.0
 27 08 2013  02 29  -21.0159 26021.8 -03481.5 -07.6204 26253.7
 27 08 2013  02 30  -21.0161 26021.5 -03481.3 -07.6201 26253.4
 27 08 2013  02 31  -21.0162 26021.5 -03481.2 -07.6199 26253.3
 27 08 2013  02 32  -21.0163 26021.1 -03481.0 -07.6195 26252.9
 27 08 2013  02 33  -21.0167 26020.8 -03480.8 -07.6192 26252.6
 27 08 2013  02 34  -21.0170 26020.7 -03480.7 -07.6190 26252.4
 27 08 2013  02 35  -21.0170 26020.5 -03480.6 -07.6188 26252.3
 27 08 2013  02 36  -21.0172 26020.4 -03480.5 -07.6187 26252.2
 27 08 2013  02 37  -21.0174 26020.5 -03480.6 -07.6188 26252.2
 27 08 2013  02 38  -21.0178 26020.7 -03480.6 -07.6189 26252.4
 27 08 2013  02 39  -21.0182 26020.8 -03480.7 -07.6190 26252.6
 27 08 2013  02 40  -21.0188 26020.9 -03480.8 -07.6191 26252.7
 27 08 2013  02 41  -21.0192 26021.0 -03480.8 -07.6191 26252.8
 27 08 2013  02 42  -21.0196 26021.0 -03480.7 -07.6190 26252.7
 27 08 2013  02 43  -21.0201 26021.0 -03480.6 -07.6188 26252.8
 27 08 2013  02 44  -21.0208 26020.9 -03480.6 -07.6187 26252.6
 27 08 2013  02 45  -21.0215 26020.8 -03480.4 -07.6184 26252.5
 27 08 2013  02 46  -21.0220 26020.8 -03480.4 -07.6183 26252.5
 27 08 2013  02 47  -21.0226 26020.6 -03480.2 -07.6181 26252.3
 27 08 2013  02 48  -21.0231 26020.5 -03480.1 -07.6178 26252.2
 27 08 2013  02 49  -21.0236 26020.5 -03480.0 -07.6176 26252.1
 27 08 2013  02 50  -21.0240 26020.4 -03479.9 -07.6174 26252.1
 27 08 2013  02 51  -21.0244 26020.3 -03479.8 -07.6172 26251.9
 27 08 2013  02 52  -21.0246 26020.1 -03479.6 -07.6169 26251.8
 27 08 2013  02 53  -21.0248 26019.9 -03479.4 -07.6165 26251.5
 27 08 2013  02 54  -21.0250 26019.8 -03479.3 -07.6163 26251.4
 27 08 2013  02 55  -21.0249 26019.7 -03479.2 -07.6160 26251.2
 27 08 2013  02 56  -21.0249 26019.6 -03479.1 -07.6158 26251.1
 27 08 2013  02 57  -21.0251 26019.5 -03479.0 -07.6157 26251.0
 27 08 2013  02 58  -21.0251 26019.3 -03478.9 -07.6155 26250.8
 27 08 2013  02 59  -21.0251 26019.1 -03478.8 -07.6154 26250.6
 27 08 2013  03 00  -21.0251 26019.0 -03478.7 -07.6151 26250.5
 27 08 2013  03 01  -21.0254 26018.9 -03478.6 -07.6151 26250.4
 27 08 2013  03 02  -21.0256 26018.9 -03478.6 -07.6150 26250.4
 27 08 2013  03 03  -21.0257 26018.8 -03478.6 -07.6149 26250.3
 27 08 2013  03 04  -21.0256 26018.8 -03478.5 -07.6149 26250.3
 27 08 2013  03 05  -21.0255 26018.8 -03478.5 -07.6148 26250.3
 27 08 2013  03 06  -21.0255 26018.6 -03478.5 -07.6148 26250.1
 27 08 2013  03 07  -21.0255 26018.5 -03478.4 -07.6146 26249.9
 27 08 2013  03 08  -21.0256 26018.3 -03478.3 -07.6145 26249.8
 27 08 2013  03 09  -21.0257 26018.2 -03478.2 -07.6144 26249.6
 27 08 2013  03 10  -21.0257 26018.1 -03478.2 -07.6143 26249.6
 27 08 2013  03 11  -21.0258 26018.1 -03478.2 -07.6143 26249.5
 27 08 2013  03 12  -21.0258 26018.0 -03478.2 -07.6143 26249.5
 27 08 2013  03 13  -21.0258 26017.8 -03478.0 -07.6141 26249.2
 27 08 2013  03 14  -21.0258 26017.6 -03478.0 -07.6140 26249.1
 27 08 2013  03 15  -21.0258 26017.5 -03477.9 -07.6139 26248.9
 27 08 2013  03 16  -21.0258 26017.3 -03477.8 -07.6138 26248.7
 27 08 2013  03 17  -21.0257 26017.1 -03477.7 -07.6137 26248.5
 27 08 2013  03 18  -21.0256 26016.9 -03477.7 -07.6136 26248.3
 27 08 2013  03 19  -21.0255 26016.9 -03477.7 -07.6136 26248.3
 27 08 2013  03 20  -21.0253 26016.9 -03477.7 -07.6137 26248.3
 27 08 2013  03 21  -21.0251 26016.8 -03477.7 -07.6137 26248.2
 27 08 2013  03 22  -21.0248 26016.7 -03477.7 -07.6137 26248.1
 27 08 2013  03 23  -21.0247 26016.7 -03477.7 -07.6138 26248.1
 27 08 2013  03 24  -21.0245 26016.6 -03477.7 -07.6138 26248.0
 27 08 2013  03 25  -21.0243 26016.5 -03477.8 -07.6140 26247.9
 27 08 2013  03 26  -21.0242 26016.5 -03477.8 -07.6141 26247.9
 27 08 2013  03 27  -21.0241 26016.5 -03477.9 -07.6141 26247.9
 27 08 2013  03 28  -21.0239 26016.4 -03477.9 -07.6142 26247.9
 27 08 2013  03 29  -21.0237 26016.4 -03477.9 -07.6143 26247.9
 27 08 2013  03 30  -21.0236 26016.4 -03478.0 -07.6145 26247.9
 27 08 2013  03 31  -21.0236 26016.4 -03478.1 -07.6146 26247.9
 27 08 2013  03 32  -21.0236 26016.4 -03478.1 -07.6147 26247.9
 27 08 2013  03 33  -21.0236 26016.4 -03478.1 -07.6147 26247.8
 27 08 2013  03 34  -21.0235 26016.3 -03478.2 -07.6148 26247.8
 27 08 2013  03 35  -21.0233 26016.3 -03478.2 -07.6148 26247.8
 27 08 2013  03 36  -21.0232 26016.2 -03478.2 -07.6149 26247.7
 27 08 2013  03 37  -21.0232 26016.3 -03478.3 -07.6151 26247.8
 27 08 2013  03 38  -21.0233 26016.3 -03478.4 -07.6152 26247.8
 27 08 2013  03 39  -21.0233 26016.5 -03478.5 -07.6154 26248.0
 27 08 2013  03 40  -21.0233 26016.5 -03478.5 -07.6155 26248.0
 27 08 2013  03 41  -21.0233 26016.5 -03478.6 -07.6156 26248.1
 27 08 2013  03 42  -21.0232 26016.6 -03478.6 -07.6157 26248.2
 27 08 2013  03 43  -21.0230 26016.7 -03478.7 -07.6158 26248.3
 27 08 2013  03 44  -21.0229 26016.8 -03478.7 -07.6159 26248.3
 27 08 2013  03 45  -21.0227 26016.8 -03478.8 -07.6160 26248.3
 27 08 2013  03 46  -21.0226 26016.8 -03478.8 -07.6161 26248.4
 27 08 2013  03 47  -21.0225 26016.8 -03478.8 -07.6161 26248.3
 27 08 2013  03 48  -21.0225 26016.8 -03478.9 -07.6162 26248.3
 27 08 2013  03 49  -21.0224 26016.9 -03479.0 -07.6164 26248.4
 27 08 2013  03 50  -21.0226 26016.9 -03479.0 -07.6164 26248.5
 27 08 2013  03 51  -21.0228 26017.0 -03479.0 -07.6165 26248.6
 27 08 2013  03 52  -21.0229 26017.0 -03479.1 -07.6166 26248.6
 27 08 2013  03 53  -21.0230 26017.0 -03479.1 -07.6166 26248.6
 27 08 2013  03 54  -21.0232 26017.1 -03479.1 -07.6167 26248.7
 27 08 2013  03 55  -21.0234 26017.2 -03479.2 -07.6167 26248.8
 27 08 2013  03 56  -21.0235 26017.2 -03479.2 -07.6167 26248.8
 27 08 2013  03 57  -21.0235 26017.2 -03479.2 -07.6167 26248.8
 27 08 2013  03 58  -21.0235 26017.3 -03479.1 -07.6166 26248.8
 27 08 2013  03 59  -21.0234 26017.2 -03479.1 -07.6165 26248.8
 27 08 2013  04 00  -21.0232 26017.1 -03479.0 -07.6165 26248.7
 27 08 2013  04 01  -21.0231 26017.1 -03479.0 -07.6164 26248.7
 27 08 2013  04 02  -21.0230 26017.1 -03479.0 -07.6163 26248.6
 27 08 2013  04 03  -21.0229 26017.0 -03478.9 -07.6163 26248.6
 27 08 2013  04 04  -21.0228 26016.9 -03478.9 -07.6162 26248.5
 27 08 2013  04 05  -21.0226 26016.8 -03478.9 -07.6162 26248.4
 27 08 2013  04 06  -21.0224 26016.7 -03478.8 -07.6161 26248.3
 27 08 2013  04 07  -21.0222 26016.7 -03478.8 -07.6161 26248.2
 27 08 2013  04 08  -21.0221 26016.6 -03478.8 -07.6161 26248.2
 27 08 2013  04 09  -21.0221 26016.6 -03478.8 -07.6160 26248.2
 27 08 2013  04 10  -21.0221 26016.6 -03478.8 -07.6161 26248.1
 27 08 2013  04 11  -21.0222 26016.5 -03478.8 -07.6162 26248.1
 27 08 2013  04 12  -21.0223 26016.5 -03478.9 -07.6162 26248.1
 27 08 2013  04 13  -21.0223 26016.6 -03478.8 -07.6162 26248.1
 27 08 2013  04 14  -21.0223 26016.6 -03478.9 -07.6163 26248.1
 27 08 2013  04 15  -21.0224 26016.6 -03478.9 -07.6164 26248.2
 27 08 2013  04 16  -21.0226 26016.6 -03478.9 -07.6163 26248.2
 27 08 2013  04 17  -21.0226 26016.6 -03478.9 -07.6164 26248.2
 27 08 2013  04 18  -21.0225 26016.6 -03478.9 -07.6163 26248.2
 27 08 2013  04 19  -21.0225 26016.6 -03478.9 -07.6163 26248.2
 27 08 2013  04 20  -21.0226 26016.7 -03479.0 -07.6164 26248.3
 27 08 2013  04 21  -21.0226 26016.7 -03479.0 -07.6165 26248.3
 27 08 2013  04 22  -21.0225 26016.8 -03479.0 -07.6164 26248.3
 27 08 2013  04 23  -21.0224 26016.8 -03479.0 -07.6165 26248.4
 27 08 2013  04 24  -21.0223 26016.9 -03479.0 -07.6165 26248.4
 27 08 2013  04 25  -21.0222 26016.9 -03479.1 -07.6166 26248.5
 27 08 2013  04 26  -21.0222 26017.1 -03479.1 -07.6166 26248.7
 27 08 2013  04 27  -21.0220 26017.2 -03479.2 -07.6168 26248.8
 27 08 2013  04 28  -21.0215 26017.2 -03479.2 -07.6167 26248.8
 27 08 2013  04 29  -21.0212 26017.3 -03479.2 -07.6168 26248.9
 27 08 2013  04 30  -21.0212 26017.4 -03479.3 -07.6169 26249.0
 27 08 2013  04 31  -21.0211 26017.4 -03479.3 -07.6170 26249.0
 27 08 2013  04 32  -21.0211 26017.4 -03479.3 -07.6170 26249.0
 27 08 2013  04 33  -21.0212 26017.4 -03479.4 -07.6171 26249.0
 27 08 2013  04 34  -21.0213 26017.4 -03479.3 -07.6170 26249.0
 27 08 2013  04 35  -21.0215 26017.4 -03479.3 -07.6170 26249.0
 27 08 2013  04 36  -21.0216 26017.4 -03479.4 -07.6171 26249.0
 27 08 2013  04 37  -21.0218 26017.4 -03479.4 -07.6171 26249.1
 27 08 2013  04 38  -21.0218 26017.5 -03479.4 -07.6171 26249.1
 27 08 2013  04 39  -21.0217 26017.6 -03479.4 -07.6171 26249.2
 27 08 2013  04 40  -21.0217 26017.7 -03479.4 -07.6172 26249.3
 27 08 2013  04 41  -21.0216 26017.7 -03479.5 -07.6172 26249.3
 27 08 2013  04 42  -21.0215 26017.7 -03479.4 -07.6171 26249.4
 27 08 2013  04 43  -21.0214 26017.7 -03479.4 -07.6171 26249.3
 27 08 2013  04 44  -21.0213 26017.8 -03479.4 -07.6171 26249.4
 27 08 2013  04 45  -21.0212 26017.8 -03479.4 -07.6171 26249.4
 27 08 2013  04 46  -21.0212 26017.7 -03479.4 -07.6171 26249.3
 27 08 2013  04 47  -21.0211 26017.7 -03479.3 -07.6169 26249.3
 27 08 2013  04 48  -21.0211 26017.6 -03479.3 -07.6169 26249.2
 27 08 2013  04 49  -21.0212 26017.4 -03479.2 -07.6168 26249.0
 27 08 2013  04 50  -21.0213 26017.3 -03479.2 -07.6167 26248.9
 27 08 2013  04 51  -21.0215 26017.3 -03479.2 -07.6167 26248.9
 27 08 2013  04 52  -21.0217 26017.3 -03479.1 -07.6166 26248.9
 27 08 2013  04 53  -21.0219 26017.3 -03479.2 -07.6167 26248.9
 27 08 2013  04 54  -21.0219 26017.4 -03479.2 -07.6167 26249.0
 27 08 2013  04 55  -21.0220 26017.5 -03479.2 -07.6167 26249.1
 27 08 2013  04 56  -21.0220 26017.6 -03479.2 -07.6167 26249.2
 27 08 2013  04 57  -21.0220 26017.7 -03479.3 -07.6169 26249.3
 27 08 2013  04 58  -21.0220 26017.9 -03479.3 -07.6169 26249.5
 27 08 2013  04 59  -21.0220 26018.1 -03479.5 -07.6171 26249.7
 27 08 2013  05 00  -21.0220 26018.3 -03479.5 -07.6172 26249.9
 27 08 2013  05 01  -21.0219 26018.3 -03479.6 -07.6173 26250.0
 27 08 2013  05 02  -21.0219 26018.5 -03479.6 -07.6173 26250.1
 27 08 2013  05 03  -21.0219 26018.6 -03479.7 -07.6174 26250.2
 27 08 2013  05 04  -21.0220 26018.7 -03479.7 -07.6174 26250.4
 27 08 2013  05 05  -21.0221 26018.8 -03479.7 -07.6174 26250.4
 27 08 2013  05 06  -21.0221 26018.8 -03479.7 -07.6175 26250.5
 27 08 2013  05 07  -21.0222 26018.9 -03479.7 -07.6174 26250.5
 27 08 2013  05 08  -21.0223 26018.9 -03479.7 -07.6174 26250.6
 27 08 2013  05 09  -21.0224 26018.9 -03479.7 -07.6174 26250.6
 27 08 2013  05 10  -21.0225 26018.9 -03479.7 -07.6173 26250.6
 27 08 2013  05 11  -21.0225 26018.9 -03479.7 -07.6173 26250.5
 27 08 2013  05 12  -21.0226 26018.8 -03479.6 -07.6172 26250.5
 27 08 2013  05 13  -21.0227 26018.7 -03479.5 -07.6171 26250.4
 27 08 2013  05 14  -21.0230 26018.6 -03479.5 -07.6170 26250.3
 27 08 2013  05 15  -21.0233 26018.5 -03479.4 -07.6169 26250.2
 27 08 2013  05 16  -21.0234 26018.4 -03479.4 -07.6168 26250.1
 27 08 2013  05 17  -21.0233 26018.3 -03479.3 -07.6166 26249.9
 27 08 2013  05 18  -21.0231 26018.2 -03479.2 -07.6165 26249.8
 27 08 2013  05 19  -21.0230 26018.2 -03479.2 -07.6165 26249.8
 27 08 2013  05 20  -21.0227 26018.2 -03479.2 -07.6165 26249.8
 27 08 2013  05 21  -21.0226 26018.2 -03479.2 -07.6165 26249.8
 27 08 2013  05 22  -21.0228 26018.2 -03479.2 -07.6165 26249.8
 27 08 2013  05 23  -21.0229 26018.3 -03479.3 -07.6166 26249.9
 27 08 2013  05 24  -21.0229 26018.4 -03479.3 -07.6167 26250.0
 27 08 2013  05 25  -21.0229 26018.5 -03479.4 -07.6168 26250.1
 27 08 2013  05 26  -21.0230 26018.5 -03479.4 -07.6169 26250.1
 27 08 2013  05 27  -21.0229 26018.6 -03479.5 -07.6169 26250.2
 27 08 2013  05 28  -21.0230 26018.7 -03479.5 -07.6170 26250.3
 27 08 2013  05 29  -21.0231 26018.9 -03479.6 -07.6171 26250.5
 27 08 2013  05 30  -21.0231 26019.0 -03479.6 -07.6172 26250.6
 27 08 2013  05 31  -21.0230 26019.0 -03479.6 -07.6171 26250.7
 27 08 2013  05 32  -21.0229 26019.1 -03479.6 -07.6172 26250.7
 27 08 2013  05 33  -21.0229 26019.1 -03479.7 -07.6172 26250.8
 27 08 2013  05 34  -21.0229 26019.1 -03479.6 -07.6172 26250.8
 27 08 2013  05 35  -21.0228 26019.1 -03479.6 -07.6171 26250.8
 27 08 2013  05 36  -21.0226 26019.1 -03479.6 -07.6171 26250.7
 27 08 2013  05 37  -21.0226 26019.2 -03479.6 -07.6170 26250.8
 27 08 2013  05 38  -21.0225 26019.2 -03479.6 -07.6171 26250.9
 27 08 2013  05 39  -21.0225 26019.2 -03479.6 -07.6171 26250.8
 27 08 2013  05 40  -21.0223 26019.2 -03479.6 -07.6171 26250.9
 27 08 2013  05 41  -21.0221 26019.2 -03479.6 -07.6171 26250.9
 27 08 2013  05 42  -21.0220 26019.2 -03479.6 -07.6171 26250.9
 27 08 2013  05 43  -21.0218 26019.3 -03479.6 -07.6171 26250.9
 27 08 2013  05 44  -21.0218 26019.3 -03479.6 -07.6171 26250.9
 27 08 2013  05 45  -21.0217 26019.2 -03479.6 -07.6171 26250.9
 27 08 2013  05 46  -21.0216 26019.2 -03479.6 -07.6171 26250.9
 27 08 2013  05 47  -21.0214 26019.3 -03479.7 -07.6172 26251.0
 27 08 2013  05 48  -21.0214 26019.4 -03479.7 -07.6173 26251.0
 27 08 2013  05 49  -21.0214 26019.5 -03479.8 -07.6174 26251.1
 27 08 2013  05 50  -21.0214 26019.6 -03479.8 -07.6175 26251.2
 27 08 2013  05 51  -21.0213 26019.6 -03479.9 -07.6176 26251.3
 27 08 2013  05 52  -21.0212 26019.7 -03479.9 -07.6176 26251.4
 27 08 2013  05 53  -21.0212 26019.8 -03479.9 -07.6176 26251.4
 27 08 2013  05 54  -21.0212 26019.8 -03480.0 -07.6177 26251.5
 27 08 2013  05 55  -21.0213 26019.9 -03480.0 -07.6177 26251.6
 27 08 2013  05 56  -21.0212 26020.0 -03480.0 -07.6178 26251.6
 27 08 2013  05 57  -21.0212 26020.0 -03480.1 -07.6178 26251.7
 27 08 2013  05 58  -21.0211 26020.0 -03480.0 -07.6178 26251.7
 27 08 2013  05 59  -21.0211 26020.1 -03480.1 -07.6179 26251.8
 27 08 2013  06 00  -21.0211 26020.2 -03480.1 -07.6179 26251.9
 27 08 2013  06 01  -21.0210 26020.2 -03480.1 -07.6180 26251.9
 27 08 2013  06 02  -21.0209 26020.2 -03480.1 -07.6179 26251.9
 27 08 2013  06 03  -21.0208 26020.2 -03480.1 -07.6179 26251.9
 27 08 2013  06 04  -21.0208 26020.3 -03480.1 -07.6179 26252.0
 27 08 2013  06 05  -21.0207 26020.3 -03480.2 -07.6180 26252.0
 27 08 2013  06 06  -21.0207 26020.3 -03480.2 -07.6180 26252.0
 27 08 2013  06 07  -21.0206 26020.4 -03480.2 -07.6180 26252.1
 27 08 2013  06 08  -21.0206 26020.4 -03480.2 -07.6180 26252.1
 27 08 2013  06 09  -21.0206 26020.4 -03480.2 -07.6180 26252.1
 27 08 2013  06 10  -21.0206 26020.4 -03480.2 -07.6180 26252.1
 27 08 2013  06 11  -21.0206 26020.4 -03480.2 -07.6180 26252.1
 27 08 2013  06 12  -21.0207 26020.5 -03480.2 -07.6180 26252.2
 27 08 2013  06 13  -21.0206 26020.5 -03480.2 -07.6181 26252.2
 27 08 2013  06 14  -21.0206 26020.5 -03480.2 -07.6181 26252.2
 27 08 2013  06 15  -21.0205 26020.6 -03480.3 -07.6181 26252.3
 27 08 2013  06 16  -21.0204 26020.6 -03480.3 -07.6181 26252.3
 27 08 2013  06 17  -21.0203 26020.7 -03480.3 -07.6181 26252.4
 27 08 2013  06 18  -21.0203 26020.7 -03480.3 -07.6181 26252.4
 27 08 2013  06 19  -21.0202 26020.7 -03480.3 -07.6181 26252.4
 27 08 2013  06 20  -21.0202 26020.7 -03480.3 -07.6181 26252.5
 27 08 2013  06 21  -21.0201 26020.8 -03480.3 -07.6181 26252.5
 27 08 2013  06 22  -21.0200 26020.8 -03480.3 -07.6181 26252.5
 27 08 2013  06 23  -21.0200 26020.8 -03480.3 -07.6181 26252.5
 27 08 2013  06 24  -21.0200 26020.9 -03480.3 -07.6181 26252.6
 27 08 2013  06 25  -21.0200 26020.8 -03480.3 -07.6182 26252.5
 27 08 2013  06 26  -21.0200 26020.8 -03480.3 -07.6181 26252.5
 27 08 2013  06 27  -21.0200 26020.9 -03480.3 -07.6182 26252.6
 27 08 2013  06 28  -21.0198 26020.9 -03480.3 -07.6182 26252.6
 27 08 2013  06 29  -21.0197 26020.9 -03480.3 -07.6182 26252.6
 27 08 2013  06 30  -21.0196 26020.9 -03480.3 -07.6182 26252.7
 27 08 2013  06 31  -21.0195 26021.0 -03480.4 -07.6182 26252.7
 27 08 2013  06 32  -21.0195 26021.0 -03480.4 -07.6182 26252.7
 27 08 2013  06 33  -21.0194 26021.0 -03480.4 -07.6182 26252.8
 27 08 2013  06 34  -21.0193 26021.0 -03480.4 -07.6183 26252.8
 27 08 2013  06 35  -21.0193 26021.1 -03480.4 -07.6184 26252.8
 27 08 2013  06 36  -21.0194 26021.1 -03480.4 -07.6183 26252.9
 27 08 2013  06 37  -21.0194 26021.2 -03480.4 -07.6183 26252.9
 27 08 2013  06 38  -21.0192 26021.1 -03480.4 -07.6183 26252.9
 27 08 2013  06 39  -21.0191 26021.1 -03480.4 -07.6183 26252.9
 27 08 2013  06 40  -21.0191 26021.2 -03480.4 -07.6182 26252.9
 27 08 2013  06 41  -21.0191 26021.2 -03480.4 -07.6182 26252.9
 27 08 2013  06 42  -21.0192 26021.3 -03480.5 -07.6183 26253.0
 27 08 2013  06 43  -21.0191 26021.3 -03480.5 -07.6184 26253.0
 27 08 2013  06 44  -21.0190 26021.3 -03480.5 -07.6184 26253.1
 27 08 2013  06 45  -21.0189 26021.3 -03480.5 -07.6184 26253.0
 27 08 2013  06 46  -21.0189 26021.3 -03480.5 -07.6184 26253.1
 27 08 2013  06 47  -21.0189 26021.4 -03480.6 -07.6185 26253.1
 27 08 2013  06 48  -21.0188 26021.4 -03480.6 -07.6185 26253.2
 27 08 2013  06 49  -21.0187 26021.5 -03480.6 -07.6186 26253.3
 27 08 2013  06 50  -21.0186 26021.7 -03480.7 -07.6187 26253.4
 27 08 2013  06 51  -21.0185 26021.9 -03480.8 -07.6188 26253.6
 27 08 2013  06 52  -21.0183 26022.1 -03480.9 -07.6190 26253.8
 27 08 2013  06 53  -21.0181 26022.3 -03481.0 -07.6192 26254.1
 27 08 2013  06 54  -21.0179 26022.4 -03481.0 -07.6193 26254.2
 27 08 2013  06 55  -21.0176 26022.5 -03481.1 -07.6193 26254.3
 27 08 2013  06 56  -21.0174 26022.6 -03481.1 -07.6193 26254.4
 27 08 2013  06 57  -21.0172 26022.7 -03481.1 -07.6194 26254.5
 27 08 2013  06 58  -21.0169 26022.7 -03481.2 -07.6194 26254.5
 27 08 2013  06 59  -21.0166 26022.8 -03481.2 -07.6194 26254.6
 27 08 2013  07 00  -21.0164 26022.8 -03481.1 -07.6193 26254.6
 27 08 2013  07 01  -21.0161 26022.8 -03481.1 -07.6194 26254.6
 27 08 2013  07 02  -21.0159 26022.8 -03481.1 -07.6194 26254.6
 27 08 2013  07 03  -21.0157 26022.9 -03481.2 -07.6194 26254.7
 27 08 2013  07 04  -21.0157 26023.0 -03481.2 -07.6194 26254.8
 27 08 2013  07 05  -21.0156 26023.0 -03481.2 -07.6195 26254.8
 27 08 2013  07 06  -21.0155 26023.1 -03481.3 -07.6195 26254.9
 27 08 2013  07 07  -21.0153 26023.1 -03481.3 -07.6196 26255.0
 27 08 2013  07 08  -21.0153 26023.2 -03481.3 -07.6196 26255.0
 27 08 2013  07 09  -21.0152 26023.4 -03481.4 -07.6197 26255.2
 27 08 2013  07 10  -21.0151 26023.4 -03481.4 -07.6197 26255.2
 27 08 2013  07 11  -21.0151 26023.3 -03481.3 -07.6196 26255.2
 27 08 2013  07 12  -21.0150 26023.3 -03481.3 -07.6195 26255.1
 27 08 2013  07 13  -21.0150 26023.1 -03481.2 -07.6193 26254.9
 27 08 2013  07 14  -21.0150 26023.0 -03481.1 -07.6192 26254.8
 27 08 2013  07 15  -21.0151 26022.8 -03481.0 -07.6190 26254.6
 27 08 2013  07 16  -21.0152 26022.7 -03480.9 -07.6189 26254.5
 27 08 2013  07 17  -21.0152 26022.6 -03480.9 -07.6188 26254.3
 27 08 2013  07 18  -21.0153 26022.5 -03480.8 -07.6188 26254.2
 27 08 2013  07 19  -21.0154 26022.4 -03480.8 -07.6187 26254.2
 27 08 2013  07 20  -21.0154 26022.5 -03480.8 -07.6188 26254.3
 27 08 2013  07 21  -21.0153 26022.5 -03480.9 -07.6189 26254.3
 27 08 2013  07 22  -21.0153 26022.6 -03480.9 -07.6190 26254.4
 27 08 2013  07 23  -21.0154 26022.6 -03481.0 -07.6191 26254.4
 27 08 2013  07 24  -21.0153 26022.7 -03481.0 -07.6192 26254.5
 27 08 2013  07 25  -21.0152 26022.7 -03481.0 -07.6192 26254.5
 27 08 2013  07 26  -21.0150 26022.7 -03481.0 -07.6191 26254.5
 27 08 2013  07 27  -21.0148 26022.6 -03481.0 -07.6191 26254.4
 27 08 2013  07 28  -21.0148 26022.6 -03481.0 -07.6191 26254.4
 27 08 2013  07 29  -21.0147 26022.7 -03481.0 -07.6191 26254.5
 27 08 2013  07 30  -21.0145 26022.7 -03481.0 -07.6192 26254.5
 27 08 2013  07 31  -21.0144 26022.8 -03481.1 -07.6193 26254.6
 27 08 2013  07 32  -21.0142 26022.9 -03481.1 -07.6193 26254.7
 27 08 2013  07 33  -21.0141 26023.0 -03481.2 -07.6195 26254.8
 27 08 2013  07 34  -21.0140 26023.2 -03481.3 -07.6197 26255.0
 27 08 2013  07 35  -21.0139 26023.3 -03481.4 -07.6198 26255.1
 27 08 2013  07 36  -21.0139 26023.3 -03481.4 -07.6198 26255.2
 27 08 2013  07 37  -21.0137 26023.4 -03481.5 -07.6200 26255.3
 27 08 2013  07 38  -21.0136 26023.5 -03481.5 -07.6200 26255.3
 27 08 2013  07 39  -21.0134 26023.6 -03481.6 -07.6200 26255.4
 27 08 2013  07 40  -21.0132 26023.6 -03481.6 -07.6200 26255.5
 27 08 2013  07 41  -21.0130 26023.7 -03481.6 -07.6201 26255.5
 27 08 2013  07 42  -21.0129 26023.8 -03481.6 -07.6201 26255.6
 27 08 2013  07 43  -21.0127 26023.8 -03481.6 -07.6201 26255.7
 27 08 2013  07 44  -21.0125 26023.8 -03481.6 -07.6202 26255.7
 27 08 2013  07 45  -21.0124 26023.9 -03481.6 -07.6201 26255.8
 27 08 2013  07 46  -21.0123 26023.9 -03481.6 -07.6201 26255.8
 27 08 2013  07 47  -21.0122 26023.9 -03481.6 -07.6201 26255.8
 27 08 2013  07 48  -21.0121 26023.9 -03481.6 -07.6201 26255.8
 27 08 2013  07 49  -21.0121 26024.0 -03481.6 -07.6201 26255.9
 27 08 2013  07 50  -21.0120 26024.0 -03481.6 -07.6201 26255.8
 27 08 2013  07 51  -21.0120 26024.0 -03481.6 -07.6200 26255.8
 27 08 2013  07 52  -21.0119 26024.0 -03481.6 -07.6200 26255.8
 27 08 2013  07 53  -21.0118 26024.0 -03481.6 -07.6200 26255.8
 27 08 2013  07 54  -21.0117 26024.0 -03481.6 -07.6199 26255.8
 27 08 2013  07 55  -21.0115 26024.0 -03481.6 -07.6200 26255.9
 27 08 2013  07 56  -21.0114 26024.1 -03481.6 -07.6201 26256.0
 27 08 2013  07 57  -21.0113 26024.2 -03481.7 -07.6201 26256.0
 27 08 2013  07 58  -21.0112 26024.2 -03481.7 -07.6202 26256.1
 27 08 2013  07 59  -21.0111 26024.3 -03481.7 -07.6202 26256.1
 27 08 2013  08 00  -21.0110 26024.3 -03481.7 -07.6202 26256.2
 27 08 2013  08 01  -21.0110 26024.3 -03481.8 -07.6203 26256.2
 27 08 2013  08 02  -21.0109 26024.3 -03481.7 -07.6202 26256.2
 27 08 2013  08 03  -21.0108 26024.3 -03481.7 -07.6202 26256.2
 27 08 2013  08 04  -21.0106 26024.2 -03481.7 -07.6201 26256.1
 27 08 2013  08 05  -21.0105 26024.2 -03481.6 -07.6200 26256.0
 27 08 2013  08 06  -21.0104 26024.0 -03481.6 -07.6199 26255.9
 27 08 2013  08 07  -21.0102 26023.9 -03481.5 -07.6198 26255.8
 27 08 2013  08 08  -21.0101 26023.9 -03481.5 -07.6197 26255.8
 27 08 2013  08 09  -21.0100 26023.8 -03481.5 -07.6197 26255.6
 27 08 2013  08 10  -21.0099 26023.8 -03481.4 -07.6197 26255.6
 27 08 2013  08 11  -21.0099 26023.7 -03481.4 -07.6198 26255.5
 27 08 2013  08 12  -21.0098 26023.7 -03481.4 -07.6198 26255.5
 27 08 2013  08 13  -21.0098 26023.6 -03481.4 -07.6197 26255.4
 27 08 2013  08 14  -21.0096 26023.5 -03481.4 -07.6196 26255.3
 27 08 2013  08 15  -21.0095 26023.5 -03481.4 -07.6197 26255.3
 27 08 2013  08 16  -21.0094 26023.5 -03481.5 -07.6199 26255.4
 27 08 2013  08 17  -21.0092 26023.6 -03481.6 -07.6201 26255.5
 27 08 2013  08 18  -21.0091 26023.7 -03481.6 -07.6202 26255.6
 27 08 2013  08 19  -21.0089 26023.8 -03481.7 -07.6203 26255.7
 27 08 2013  08 20  -21.0085 26023.9 -03481.8 -07.6204 26255.8
 27 08 2013  08 21  -21.0083 26024.0 -03481.8 -07.6204 26255.9
 27 08 2013  08 22  -21.0082 26024.0 -03481.8 -07.6205 26255.9
 27 08 2013  08 23  -21.0080 26024.1 -03481.8 -07.6205 26256.0
 27 08 2013  08 24  -21.0078 26024.1 -03481.8 -07.6205 26255.9
 27 08 2013  08 25  -21.0076 26024.0 -03481.8 -07.6205 26255.9
 27 08 2013  08 26  -21.0074 26024.0 -03481.8 -07.6204 26255.9
 27 08 2013  08 27  -21.0072 26023.9 -03481.7 -07.6203 26255.8
 27 08 2013  08 28  -21.0069 26023.8 -03481.7 -07.6202 26255.7
 27 08 2013  08 29  -21.0066 26023.7 -03481.5 -07.6200 26255.5
 27 08 2013  08 30  -21.0065 26023.5 -03481.4 -07.6198 26255.3
 27 08 2013  08 31  -21.0063 26023.4 -03481.4 -07.6197 26255.2
 27 08 2013  08 32  -21.0061 26023.2 -03481.3 -07.6195 26255.0
 27 08 2013  08 33  -21.0061 26023.0 -03481.2 -07.6195 26254.9
 27 08 2013  08 34  -21.0060 26022.9 -03481.1 -07.6193 26254.7
 27 08 2013  08 35  -21.0057 26022.7 -03481.0 -07.6192 26254.5
 27 08 2013  08 36  -21.0055 26022.5 -03481.0 -07.6192 26254.3
 27 08 2013  08 37  -21.0053 26022.4 -03480.9 -07.6191 26254.2
 27 08 2013  08 38  -21.0052 26022.3 -03480.9 -07.6189 26254.0
 27 08 2013  08 39  -21.0048 26022.2 -03480.8 -07.6187 26253.9
 27 08 2013  08 40  -21.0046 26022.1 -03480.9 -07.6191 26253.9
 27 08 2013  08 41  -21.0044 26022.1 -03481.0 -07.6193 26253.9
 27 08 2013  08 42  -21.0042 26022.2 -03481.1 -07.6195 26254.0
 27 08 2013  08 43  -21.0038 26022.2 -03481.2 -07.6198 26254.1
 27 08 2013  08 44  -21.0033 26022.6 -03481.4 -07.6201 26254.4
 27 08 2013  08 45  -21.0027 26022.8 -03481.6 -07.6204 26254.6
 27 08 2013  08 46  -21.0021 26023.0 -03481.8 -07.6207 26254.9
 27 08 2013  08 47  -21.0017 26023.2 -03482.0 -07.6210 26255.1
 27 08 2013  08 48  -21.0011 26023.4 -03482.2 -07.6214 26255.3
 27 08 2013  08 49  -21.0005 26023.5 -03482.3 -07.6217 26255.5
 27 08 2013  08 50  -21.0002 26023.7 -03482.5 -07.6220 26255.7
 27 08 2013  08 51  -21.0000 26023.8 -03482.6 -07.6222 26255.8
 27 08 2013  08 52  -20.9998 26023.9 -03482.7 -07.6224 26255.9
 27 08 2013  08 53  -20.9996 26023.9 -03482.7 -07.6224 26255.9
 27 08 2013  08 54  -20.9994 26023.9 -03482.7 -07.6225 26255.9
 27 08 2013  08 55  -20.9991 26023.8 -03482.7 -07.6225 26255.8
 27 08 2013  08 56  -20.9987 26023.7 -03482.7 -07.6225 26255.7
 27 08 2013  08 57  -20.9983 26023.7 -03482.7 -07.6225 26255.7
 27 08 2013  08 58  -20.9981 26023.6 -03482.8 -07.6228 26255.7
 27 08 2013  08 59  -20.9977 26023.6 -03482.9 -07.6230 26255.7
 27 08 2013  09 00  -20.9974 26023.7 -03483.0 -07.6232 26255.7
 27 08 2013  09 01  -20.9970 26023.7 -03483.2 -07.6235 26255.8
 27 08 2013  09 02  -20.9966 26023.7 -03483.3 -07.6238 26255.8
 27 08 2013  09 03  -20.9961 26023.7 -03483.4 -07.6240 26255.8
 27 08 2013  09 04  -20.9958 26023.7 -03483.6 -07.6243 26255.9
 27 08 2013  09 05  -20.9953 26023.7 -03483.7 -07.6246 26255.8
 27 08 2013  09 06  -20.9946 26023.5 -03483.7 -07.6247 26255.7
 27 08 2013  09 07  -20.9938 26023.4 -03483.8 -07.6249 26255.5
 27 08 2013  09 08  -20.9932 26023.1 -03483.8 -07.6250 26255.3
 27 08 2013  09 09  -20.9926 26022.9 -03483.9 -07.6253 26255.1
 27 08 2013  09 10  -20.9921 26022.8 -03484.0 -07.6255 26255.0
 27 08 2013  09 11  -20.9919 26022.6 -03484.1 -07.6259 26254.8
 27 08 2013  09 12  -20.9918 26022.4 -03484.3 -07.6262 26254.6
 27 08 2013  09 13  -20.9915 26022.2 -03484.4 -07.6266 26254.5
 27 08 2013  09 14  -20.9915 26022.1 -03484.6 -07.6270 26254.4
 27 08 2013  09 15  -20.9915 26022.0 -03484.8 -07.6274 26254.3
 27 08 2013  09 16  -20.9917 26021.8 -03484.9 -07.6279 26254.1
 27 08 2013  09 17  -20.9919 26021.7 -03485.1 -07.6282 26254.0
 27 08 2013  09 18  -20.9920 26021.5 -03485.2 -07.6286 26253.9
 27 08 2013  09 19  -20.9922 26021.3 -03485.4 -07.6290 26253.7
 27 08 2013  09 20  -20.9923 26021.1 -03485.6 -07.6294 26253.5
 27 08 2013  09 21  -20.9925 26021.0 -03485.7 -07.6298 26253.4
 27 08 2013  09 22  -20.9924 26020.8 -03485.8 -07.6301 26253.3
 27 08 2013  09 23  -20.9924 26020.7 -03486.0 -07.6306 26253.2
 27 08 2013  09 24  -20.9926 26020.5 -03486.2 -07.6309 26253.0
 27 08 2013  09 25  -20.9926 26020.3 -03486.4 -07.6314 26252.8
 27 08 2013  09 26  -20.9925 26020.1 -03486.4 -07.6316 26252.6
 27 08 2013  09 27  -20.9924 26019.9 -03486.5 -07.6318 26252.4
 27 08 2013  09 28  -20.9925 26019.8 -03486.7 -07.6323 26252.3
 27 08 2013  09 29  -20.9928 26019.5 -03486.9 -07.6327 26252.1
 27 08 2013  09 30  -20.9933 26019.3 -03487.0 -07.6331 26251.9
 27 08 2013  09 31  -20.9936 26019.1 -03487.2 -07.6334 26251.7
 27 08 2013  09 32  -20.9938 26018.9 -03487.3 -07.6338 26251.5
 27 08 2013  09 33  -20.9940 26018.7 -03487.4 -07.6340 26251.3
 27 08 2013  09 34  -20.9940 26018.3 -03487.4 -07.6342 26251.0
 27 08 2013  09 35  -20.9941 26018.0 -03487.4 -07.6344 26250.7
 27 08 2013  09 36  -20.9944 26017.8 -03487.6 -07.6347 26250.5
 27 08 2013  09 37  -20.9947 26017.6 -03487.7 -07.6350 26250.3
 27 08 2013  09 38  -20.9949 26017.4 -03487.8 -07.6353 26250.1
 27 08 2013  09 39  -20.9949 26017.1 -03487.9 -07.6355 26249.9
 27 08 2013  09 40  -20.9949 26016.9 -03488.0 -07.6358 26249.6
 27 08 2013  09 41  -20.9951 26016.6 -03488.1 -07.6361 26249.4
 27 08 2013  09 42  -20.9958 26016.5 -03488.2 -07.6365 26249.3
 27 08 2013  09 43  -20.9964 26016.5 -03488.5 -07.6370 26249.3
 27 08 2013  09 44  -20.9966 26016.3 -03488.6 -07.6374 26249.2
 27 08 2013  09 45  -20.9968 26016.1 -03488.8 -07.6378 26249.0
 27 08 2013  09 46  -20.9972 26016.1 -03488.9 -07.6382 26249.0
 27 08 2013  09 47  -20.9974 26015.9 -03489.1 -07.6385 26248.9
 27 08 2013  09 48  -20.9977 26015.8 -03489.2 -07.6389 26248.7
 27 08 2013  09 49  -20.9981 26015.7 -03489.4 -07.6393 26248.7
 27 08 2013  09 50  -20.9984 26015.6 -03489.6 -07.6397 26248.6
 27 08 2013  09 51  -20.9985 26015.5 -03489.7 -07.6400 26248.5
 27 08 2013  09 52  -20.9987 26015.5 -03489.9 -07.6403 26248.6
 27 08 2013  09 53  -20.9993 26015.6 -03490.1 -07.6408 26248.7
 27 08 2013  09 54  -20.9996 26015.6 -03490.2 -07.6410 26248.7
 27 08 2013  09 55  -20.9998 26015.5 -03490.3 -07.6412 26248.5
 27 08 2013  09 56  -20.9997 26015.4 -03490.4 -07.6415 26248.5
 27 08 2013  09 57  -20.9996 26015.3 -03490.5 -07.6417 26248.4
 27 08 2013  09 58  -20.9999 26015.2 -03490.5 -07.6419 26248.4
 27 08 2013  09 59  -21.0002 26015.1 -03490.6 -07.6422 26248.3
 27 08 2013  10 00  -21.0005 26015.0 -03490.7 -07.6424 26248.1
 27 08 2013  10 01  -21.0010 26015.1 -03490.9 -07.6427 26248.2
 27 08 2013  10 02  -21.0015 26015.3 -03491.1 -07.6431 26248.5
 27 08 2013  10 03  -21.0019 26015.1 -03491.2 -07.6433 26248.3
 27 08 2013  10 04  -21.0026 26015.0 -03491.3 -07.6436 26248.3
 27 08 2013  10 05  -21.0032 26015.1 -03491.5 -07.6440 26248.3
 27 08 2013  10 06  -21.0035 26015.2 -03491.7 -07.6443 26248.5
 27 08 2013  10 07  -21.0037 26015.4 -03491.8 -07.6446 26248.7
 27 08 2013  10 08  -21.0038 26015.4 -03492.0 -07.6449 26248.8
 27 08 2013  10 09  -21.0041 26015.6 -03492.2 -07.6453 26248.9
 27 08 2013  10 10  -21.0049 26015.9 -03492.4 -07.6458 26249.2
 27 08 2013  10 11  -21.0058 26016.2 -03492.7 -07.6463 26249.6
 27 08 2013  10 12  -21.0066 26016.6 -03492.9 -07.6467 26250.1
 27 08 2013  10 13  -21.0070 26017.0 -03493.1 -07.6470 26250.4
 27 08 2013  10 14  -21.0077 26017.2 -03493.2 -07.6472 26250.7
 27 08 2013  10 15  -21.0084 26017.2 -03493.3 -07.6472 26250.6
 27 08 2013  10 16  -21.0083 26017.2 -03493.3 -07.6473 26250.7
 27 08 2013  10 17  -21.0078 26017.2 -03493.3 -07.6472 26250.7
 27 08 2013  10 18  -21.0075 26017.1 -03493.2 -07.6472 26250.5
 27 08 2013  10 19  -21.0075 26017.0 -03493.3 -07.6473 26250.5
 27 08 2013  10 20  -21.0078 26016.8 -03493.3 -07.6473 26250.3
 27 08 2013  10 21  -21.0077 26016.6 -03493.2 -07.6473 26250.1
 27 08 2013  10 22  -21.0076 26016.6 -03493.3 -07.6475 26250.1
 27 08 2013  10 23  -21.0081 26016.6 -03493.4 -07.6477 26250.1
 27 08 2013  10 24  -21.0087 26016.6 -03493.5 -07.6480 26250.2
 27 08 2013  10 25  -21.0097 26016.7 -03493.6 -07.6482 26250.2
 27 08 2013  10 26  -21.0105 26017.0 -03493.8 -07.6484 26250.5
 27 08 2013  10 27  -21.0106 26017.0 -03493.8 -07.6485 26250.6
 27 08 2013  10 28  -21.0108 26017.1 -03493.9 -07.6485 26250.6
 27 08 2013  10 29  -21.0112 26017.0 -03493.9 -07.6486 26250.5
 27 08 2013  10 30  -21.0116 26016.9 -03493.9 -07.6487 26250.5
 27 08 2013  10 31  -21.0121 26016.9 -03494.0 -07.6488 26250.4
 27 08 2013  10 32  -21.0128 26017.1 -03494.1 -07.6491 26250.7
 27 08 2013  10 33  -21.0134 26017.3 -03494.3 -07.6493 26250.9
 27 08 2013  10 34  -21.0138 26017.3 -03494.3 -07.6494 26250.9
 27 08 2013  10 35  -21.0140 26017.2 -03494.3 -07.6495 26250.8
 27 08 2013  10 36  -21.0143 26017.2 -03494.4 -07.6496 26250.8
 27 08 2013  10 37  -21.0149 26017.3 -03494.5 -07.6499 26250.9
 27 08 2013  10 38  -21.0152 26017.5 -03494.6 -07.6501 26251.2
 27 08 2013  10 39  -21.0155 26017.4 -03494.7 -07.6502 26251.1
 27 08 2013  10 40  -21.0158 26017.6 -03494.8 -07.6504 26251.2
 27 08 2013  10 41  -21.0164 26017.7 -03494.9 -07.6506 26251.4
 27 08 2013  10 42  -21.0166 26017.6 -03494.9 -07.6506 26251.2
 27 08 2013  10 43  -21.0168 26017.5 -03494.9 -07.6507 26251.2
 27 08 2013  10 44  -21.0168 26017.6 -03495.0 -07.6509 26251.3
 27 08 2013  10 45  -21.0171 26017.5 -03495.0 -07.6510 26251.2
 27 08 2013  10 46  -21.0174 26017.7 -03495.2 -07.6512 26251.4
 27 08 2013  10 47  -21.0179 26018.0 -03495.4 -07.6515 26251.8
 27 08 2013  10 48  -21.0181 26017.9 -03495.3 -07.6514 26251.6
 27 08 2013  10 49  -21.0187 26017.9 -03495.4 -07.6517 26251.7
 27 08 2013  10 50  -21.0191 26018.0 -03495.5 -07.6519 26251.8
 27 08 2013  10 51  -21.0196 26018.2 -03495.7 -07.6522 26252.0
 27 08 2013  10 52  -21.0201 26018.5 -03495.9 -07.6525 26252.3
 27 08 2013  10 53  -21.0206 26018.3 -03495.9 -07.6525 26252.1
 27 08 2013  10 54  -21.0205 26018.4 -03495.9 -07.6526 26252.2
 27 08 2013  10 55  -21.0210 26018.5 -03496.0 -07.6528 26252.3
 27 08 2013  10 56  -21.0216 26018.6 -03496.1 -07.6529 26252.4
 27 08 2013  10 57  -21.0221 26018.8 -03496.2 -07.6531 26252.6
 27 08 2013  10 58  -21.0224 26019.3 -03496.4 -07.6533 26253.1
 27 08 2013  10 59  -21.0229 26019.4 -03496.4 -07.6533 26253.3
 27 08 2013  11 00  -21.0235 26019.6 -03496.4 -07.6534 26253.4
 27 08 2013  11 01  -21.0237 26019.6 -03496.4 -07.6533 26253.5
 27 08 2013  11 02  -21.0240 26019.8 -03496.5 -07.6534 26253.7
 27 08 2013  11 03  -21.0243 26020.2 -03496.6 -07.6535 26254.1
 27 08 2013  11 04  -21.0247 26020.8 -03496.7 -07.6537 26254.7
 27 08 2013  11 05  -21.0250 26020.9 -03496.7 -07.6535 26254.8
 27 08 2013  11 06  -21.0252 26020.7 -03496.5 -07.6531 26254.6
 27 08 2013  11 07  -21.0256 26020.7 -03496.4 -07.6529 26254.6
 27 08 2013  11 08  -21.0261 26021.0 -03496.4 -07.6529 26254.9
 27 08 2013  11 09  -21.0265 26021.0 -03496.3 -07.6526 26254.8
 27 08 2013  11 10  -21.0272 26021.4 -03496.3 -07.6526 26255.2
 27 08 2013  11 11  -21.0278 26021.6 -03496.2 -07.6524 26255.4
 27 08 2013  11 12  -21.0282 26021.9 -03496.2 -07.6522 26255.8
 27 08 2013  11 13  -21.0289 26021.8 -03495.9 -07.6517 26255.6
 27 08 2013  11 14  -21.0293 26021.9 -03495.8 -07.6513 26255.6
 27 08 2013  11 15  -21.0294 26022.1 -03495.6 -07.6509 26255.8
 27 08 2013  11 16  -21.0294 26022.5 -03495.5 -07.6506 26256.2
 27 08 2013  11 17  -21.0292 26023.1 -03495.5 -07.6503 26256.8
 27 08 2013  11 18  -21.0297 26023.0 -03495.1 -07.6496 26256.7
 27 08 2013  11 19  -21.0305 26023.1 -03494.9 -07.6490 26256.7
 27 08 2013  11 20  -21.0310 26023.3 -03494.7 -07.6486 26257.0
 27 08 2013  11 21  -21.0314 26023.6 -03494.6 -07.6482 26257.2
 27 08 2013  11 22  -21.0317 26023.6 -03494.4 -07.6478 26257.2
 27 08 2013  11 23  -21.0322 26023.7 -03494.3 -07.6475 26257.2
 27 08 2013  11 24  -21.0327 26023.6 -03494.1 -07.6472 26257.1
 27 08 2013  11 25  -21.0331 26023.3 -03493.9 -07.6469 26256.8
 27 08 2013  11 26  -21.0335 26023.2 -03493.9 -07.6468 26256.7
 27 08 2013  11 27  -21.0339 26023.2 -03493.9 -07.6468 26256.7
 27 08 2013  11 28  -21.0348 26023.1 -03493.9 -07.6469 26256.6
 27 08 2013  11 29  -21.0352 26022.9 -03493.9 -07.6469 26256.4
 27 08 2013  11 30  -21.0358 26022.8 -03493.9 -07.6470 26256.3
 27 08 2013  11 31  -21.0360 26022.8 -03494.0 -07.6472 26256.3
 27 08 2013  11 32  -21.0364 26023.0 -03494.2 -07.6475 26256.5
 27 08 2013  11 33  -21.0371 26023.1 -03494.2 -07.6475 26256.6
 27 08 2013  11 34  -21.0377 26023.1 -03494.2 -07.6475 26256.6
 27 08 2013  11 35  -21.0382 26023.4 -03494.3 -07.6477 26256.9
 27 08 2013  11 36  -21.0384 26023.7 -03494.4 -07.6478 26257.3
 27 08 2013  11 37  -21.0385 26023.8 -03494.3 -07.6476 26257.4
 27 08 2013  11 38  -21.0385 26024.0 -03494.3 -07.6475 26257.6
 27 08 2013  11 39  -21.0386 26024.0 -03494.2 -07.6473 26257.5
 27 08 2013  11 40  -21.0386 26023.8 -03494.0 -07.6469 26257.3
 27 08 2013  11 41  -21.0388 26024.0 -03494.1 -07.6470 26257.5
 27 08 2013  11 42  -21.0395 26024.0 -03494.0 -07.6469 26257.5
 27 08 2013  11 43  -21.0400 26024.5 -03494.1 -07.6469 26258.0
 27 08 2013  11 44  -21.0402 26024.9 -03494.1 -07.6467 26258.4
 27 08 2013  11 45  -21.0405 26025.4 -03494.0 -07.6465 26258.9
 27 08 2013  11 46  -21.0406 26025.9 -03493.9 -07.6462 26259.4
 27 08 2013  11 47  -21.0399 26026.3 -03493.7 -07.6455 26259.8
 27 08 2013  11 48  -21.0397 26026.9 -03493.5 -07.6450 26260.3
 27 08 2013  11 49  -21.0402 26027.3 -03493.3 -07.6444 26260.7
 27 08 2013  11 50  -21.0406 26027.5 -03493.0 -07.6437 26260.9
 27 08 2013  11 51  -21.0407 26027.5 -03492.6 -07.6429 26260.8
 27 08 2013  11 52  -21.0409 26027.7 -03492.4 -07.6422 26261.0
 27 08 2013  11 53  -21.0408 26027.9 -03492.1 -07.6415 26261.1
 27 08 2013  11 54  -21.0408 26028.1 -03491.9 -07.6411 26261.3
 27 08 2013  11 55  -21.0410 26028.2 -03491.6 -07.6405 26261.4
 27 08 2013  11 56  -21.0415 26028.0 -03491.3 -07.6399 26261.2
 27 08 2013  11 57  -21.0421 26028.0 -03491.1 -07.6394 26261.1
 27 08 2013  11 58  -21.0427 26028.5 -03491.0 -07.6391 26261.5
 27 08 2013  11 59  -21.0436 26028.8 -03491.0 -07.6388 26261.9
 27 08 2013  12 00  -21.0441 26029.0 -03490.8 -07.6384 26262.0
 27 08 2013  12 01  -21.0444 26029.0 -03490.5 -07.6378 26261.9
 27 08 2013  12 02  -21.0449 26028.8 -03490.2 -07.6372 26261.7
 27 08 2013  12 03  -21.0454 26028.7 -03490.0 -07.6369 26261.6
 27 08 2013  12 04  -21.0456 26028.4 -03489.8 -07.6364 26261.3
 27 08 2013  12 05  -21.0469 26028.1 -03489.6 -07.6362 26261.0
 27 08 2013  12 06  -21.0487 26027.7 -03489.5 -07.6360 26260.6
 27 08 2013  12 07  -21.0491 26027.6 -03489.4 -07.6358 26260.5
 27 08 2013  12 08  -21.0495 26027.6 -03489.4 -07.6358 26260.5
 27 08 2013  12 09  -21.0502 26027.8 -03489.5 -07.6359 26260.6
 27 08 2013  12 10  -21.0505 26027.8 -03489.4 -07.6359 26260.7
 27 08 2013  12 11  -21.0506 26027.7 -03489.4 -07.6358 26260.6
 27 08 2013  12 12  -21.0509 26027.7 -03489.4 -07.6358 26260.5
 27 08 2013  12 13  -21.0510 26027.6 -03489.4 -07.6358 26260.4
 27 08 2013  12 14  -21.0502 26027.6 -03489.4 -07.6358 26260.5
 27 08 2013  12 15  -21.0497 26028.1 -03489.6 -07.6362 26261.0
 27 08 2013  12 16  -21.0499 26028.2 -03489.7 -07.6362 26261.1
 27 08 2013  12 17  -21.0505 26028.7 -03489.8 -07.6364 26261.6
 27 08 2013  12 18  -21.0510 26029.2 -03489.9 -07.6365 26262.1
 27 08 2013  12 19  -21.0511 26029.8 -03490.0 -07.6364 26262.7
 27 08 2013  12 20  -21.0513 26030.6 -03490.0 -07.6363 26263.5
 27 08 2013  12 21  -21.0518 26031.1 -03490.0 -07.6361 26264.0
 27 08 2013  12 22  -21.0520 26031.4 -03489.8 -07.6357 26264.3
 27 08 2013  12 23  -21.0523 26031.7 -03489.6 -07.6352 26264.6
 27 08 2013  12 24  -21.0527 26031.8 -03489.4 -07.6346 26264.6
 27 08 2013  12 25  -21.0532 26032.3 -03489.4 -07.6344 26265.1
 27 08 2013  12 26  -21.0537 26032.6 -03489.2 -07.6341 26265.4
 27 08 2013  12 27  -21.0542 26032.7 -03489.1 -07.6336 26265.4
 27 08 2013  12 28  -21.0547 26033.0 -03489.0 -07.6334 26265.8
 27 08 2013  12 29  -21.0549 26033.4 -03489.0 -07.6332 26266.2
 27 08 2013  12 30  -21.0556 26033.9 -03489.0 -07.6331 26266.7
 27 08 2013  12 31  -21.0561 26034.6 -03489.0 -07.6330 26267.3
 27 08 2013  12 32  -21.0558 26035.4 -03489.0 -07.6326 26268.1
 27 08 2013  12 33  -21.0559 26036.2 -03488.9 -07.6322 26268.9
 27 08 2013  12 34  -21.0561 26036.5 -03488.6 -07.6315 26269.2
 27 08 2013  12 35  -21.0563 26036.9 -03488.4 -07.6310 26269.5
 27 08 2013  12 36  -21.0565 26036.4 -03487.9 -07.6300 26269.0
 27 08 2013  12 37  -21.0567 26036.4 -03487.6 -07.6295 26268.9
 27 08 2013  12 38  -21.0573 26036.5 -03487.5 -07.6291 26269.0
 27 08 2013  12 39  -21.0580 26036.8 -03487.4 -07.6288 26269.3
 27 08 2013  12 40  -21.0588 26036.8 -03487.2 -07.6283 26269.2
 27 08 2013  12 41  -21.0593 26036.7 -03486.9 -07.6279 26269.1
 27 08 2013  12 42  -21.0603 26036.3 -03486.7 -07.6275 26268.8
 27 08 2013  12 43  -21.0607 26036.7 -03486.8 -07.6275 26269.2
 27 08 2013  12 44  -21.0605 26037.1 -03486.7 -07.6273 26269.6
 27 08 2013  12 45  -21.0600 26037.0 -03486.6 -07.6270 26269.4
 27 08 2013  12 46  -21.0596 26037.7 -03486.8 -07.6272 26270.2
 27 08 2013  12 47  -21.0595 26038.9 -03487.1 -07.6275 26271.3
 27 08 2013  12 48  -21.0597 26039.4 -03487.0 -07.6272 26271.9
 27 08 2013  12 49  -21.0599 26040.1 -03487.0 -07.6269 26272.5
 27 08 2013  12 50  -21.0605 26040.7 -03486.9 -07.6266 26273.1
 27 08 2013  12 51  -21.0612 26040.9 -03486.6 -07.6259 26273.3
 27 08 2013  12 52  -21.0617 26041.4 -03486.5 -07.6255 26273.7
 27 08 2013  12 53  -21.0622 26041.8 -03486.3 -07.6250 26274.1
 27 08 2013  12 54  -21.0629 26042.3 -03486.2 -07.6246 26274.6
 27 08 2013  12 55  -21.0635 26042.3 -03485.9 -07.6239 26274.6
 27 08 2013  12 56  -21.0644 26042.9 -03485.8 -07.6236 26275.1
 27 08 2013  12 57  -21.0653 26042.9 -03485.5 -07.6229 26275.1
 27 08 2013  12 58  -21.0659 26043.2 -03485.3 -07.6224 26275.3
 27 08 2013  12 59  -21.0667 26043.3 -03485.0 -07.6218 26275.5
 27 08 2013  13 00  -21.0672 26043.8 -03484.9 -07.6215 26275.9
 27 08 2013  13 01  -21.0673 26044.2 -03484.8 -07.6210 26276.3
 27 08 2013  13 02  -21.0674 26044.5 -03484.6 -07.6206 26276.6
 27 08 2013  13 03  -21.0681 26045.0 -03484.5 -07.6203 26277.1
 27 08 2013  13 04  -21.0685 26046.1 -03484.7 -07.6202 26278.2
 27 08 2013  13 05  -21.0687 26047.0 -03484.6 -07.6199 26279.1
 27 08 2013  13 06  -21.0690 26047.5 -03484.4 -07.6193 26279.5
 27 08 2013  13 07  -21.0695 26047.4 -03484.0 -07.6184 26279.4
 27 08 2013  13 08  -21.0702 26048.1 -03483.9 -07.6181 26280.0
 27 08 2013  13 09  -21.0710 26048.5 -03483.8 -07.6176 26280.4
 27 08 2013  13 10  -21.0715 26049.2 -03483.6 -07.6171 26281.1
 27 08 2013  13 11  -21.0723 26049.1 -03483.2 -07.6162 26281.0
 27 08 2013  13 12  -21.0732 26048.7 -03482.7 -07.6153 26280.5
 27 08 2013  13 13  -21.0736 26049.8 -03482.9 -07.6153 26281.6
 27 08 2013  13 14  -21.0730 26051.6 -03483.3 -07.6158 26283.4
 27 08 2013  13 15  -21.0723 26052.6 -03483.4 -07.6156 26284.4
 27 08 2013  13 16  -21.0714 26053.8 -03483.5 -07.6154 26285.7
 27 08 2013  13 17  -21.0713 26055.2 -03483.6 -07.6153 26287.0
 27 08 2013  13 18  -21.0717 26056.3 -03483.6 -07.6150 26288.1
 27 08 2013  13 19  -21.0719 26056.2 -03483.1 -07.6139 26288.0
 27 08 2013  13 20  -21.0729 26056.0 -03482.6 -07.6128 26287.7
 27 08 2013  13 21  -21.0745 26055.0 -03481.8 -07.6114 26286.6
 27 08 2013  13 22  -21.0762 26053.0 -03480.7 -07.6098 26284.5
 27 08 2013  13 23  -21.0776 26050.1 -03479.6 -07.6081 26281.4
 27 08 2013  13 24  -21.0786 26047.8 -03479.0 -07.6074 26279.1
 27 08 2013  13 25  -21.0799 26046.1 -03478.8 -07.6076 26277.4
 27 08 2013  13 26  -21.0809 26045.0 -03479.0 -07.6082 26276.3
 27 08 2013  13 27  -21.0817 26044.3 -03479.3 -07.6091 26275.7
 27 08 2013  13 28  -21.0823 26043.8 -03479.6 -07.6100 26275.3
 27 08 2013  13 29  -21.0831 26043.6 -03480.0 -07.6109 26275.1
 27 08 2013  13 30  -21.0844 26043.4 -03480.3 -07.6116 26274.9
 27 08 2013  13 31  -21.0853 26042.8 -03480.3 -07.6118 26274.4
 27 08 2013  13 32  -21.0865 26042.4 -03480.4 -07.6122 26274.0
 27 08 2013  13 33  -21.0873 26042.1 -03480.5 -07.6123 26273.6
 27 08 2013  13 34  -21.0879 26041.6 -03480.5 -07.6125 26273.2
 27 08 2013  13 35  -21.0886 26040.6 -03480.4 -07.6126 26272.1
 27 08 2013  13 36  -21.0890 26039.8 -03480.5 -07.6131 26271.4
 27 08 2013  13 37  -21.0887 26039.5 -03480.8 -07.6138 26271.1
 27 08 2013  13 38  -21.0886 26040.1 -03481.5 -07.6150 26271.8
 27 08 2013  13 39  -21.0889 26040.0 -03481.8 -07.6158 26271.8
 27 08 2013  13 40  -21.0890 26040.3 -03482.2 -07.6166 26272.1
 27 08 2013  13 41  -21.0897 26041.1 -03482.7 -07.6174 26272.9
 27 08 2013  13 42  -21.0908 26041.3 -03482.8 -07.6177 26273.2
 27 08 2013  13 43  -21.0917 26041.5 -03483.0 -07.6180 26273.4
 27 08 2013  13 44  -21.0922 26041.8 -03483.2 -07.6183 26273.7
 27 08 2013  13 45  -21.0927 26042.3 -03483.6 -07.6191 26274.3
 27 08 2013  13 46  -21.0934 26043.7 -03484.3 -07.6202 26275.8
 27 08 2013  13 47  -21.0950 26044.9 -03484.8 -07.6209 26276.9
 27 08 2013  13 48  -21.0962 26045.8 -03485.0 -07.6211 26277.9
 27 08 2013  13 49  -21.0966 26046.6 -03485.1 -07.6209 26278.7
 27 08 2013  13 50  -21.0966 26047.5 -03485.1 -07.6208 26279.6
 27 08 2013  13 51  -21.0963 26047.8 -03484.9 -07.6203 26279.9
 27 08 2013  13 52  -21.0963 26048.1 -03484.8 -07.6199 26280.1
 27 08 2013  13 53  -21.0964 26048.6 -03484.8 -07.6198 26280.7
 27 08 2013  13 54  -21.0963 26048.8 -03484.8 -07.6198 26280.9
 27 08 2013  13 55  -21.0961 26049.5 -03485.0 -07.6200 26281.6
 27 08 2013  13 56  -21.0970 26049.7 -03485.0 -07.6198 26281.8
 27 08 2013  13 57  -21.0984 26050.8 -03485.0 -07.6195 26282.8
 27 08 2013  13 58  -21.1002 26050.7 -03484.5 -07.6186 26282.7
 27 08 2013  13 59  -21.1021 26049.0 -03483.5 -07.6170 26280.9
 27 08 2013  14 00  -21.1036 26047.7 -03482.9 -07.6159 26279.5
 27 08 2013  14 01  -21.1044 26047.2 -03482.8 -07.6158 26279.0
 27 08 2013  14 02  -21.1053 26046.7 -03482.8 -07.6160 26278.5
 27 08 2013  14 03  -21.1061 26046.6 -03482.9 -07.6163 26278.4
 27 08 2013  14 04  -21.1065 26046.8 -03483.1 -07.6167 26278.7
 27 08 2013  14 05  -21.1072 26047.1 -03483.3 -07.6170 26279.0
 27 08 2013  14 06  -21.1086 26047.4 -03483.5 -07.6174 26279.3
 27 08 2013  14 07  -21.1095 26047.4 -03483.6 -07.6175 26279.3
 27 08 2013  14 08  -21.1101 26047.6 -03483.6 -07.6175 26279.5
 27 08 2013  14 09  -21.1107 26048.3 -03483.8 -07.6177 26280.2
 27 08 2013  14 10  -21.1116 26049.1 -03483.9 -07.6178 26281.0
 27 08 2013  14 11  -21.1124 26050.0 -03484.1 -07.6178 26281.9
 27 08 2013  14 12  -21.1130 26050.7 -03484.1 -07.6176 26282.7
 27 08 2013  14 13  -21.1136 26051.3 -03483.9 -07.6171 26283.2
 27 08 2013  14 14  -21.1140 26052.1 -03483.9 -07.6168 26284.0
 27 08 2013  14 15  -21.1146 26052.8 -03483.7 -07.6163 26284.7
 27 08 2013  14 16  -21.1152 26052.8 -03483.4 -07.6155 26284.7
 27 08 2013  14 17  -21.1159 26053.5 -03483.3 -07.6151 26285.3
 27 08 2013  14 18  -21.1166 26054.3 -03483.2 -07.6147 26286.1
 27 08 2013  14 19  -21.1172 26055.0 -03483.1 -07.6143 26286.8
 27 08 2013  14 20  -21.1173 26056.0 -03483.1 -07.6140 26287.7
 27 08 2013  14 21  -21.1175 26057.0 -03483.1 -07.6136 26288.8
 27 08 2013  14 22  -21.1178 26057.4 -03482.7 -07.6128 26289.1
 27 08 2013  14 23  -21.1182 26057.9 -03482.4 -07.6120 26289.6
 27 08 2013  14 24  -21.1191 26058.2 -03482.2 -07.6113 26289.8
 27 08 2013  14 25  -21.1199 26058.7 -03482.0 -07.6109 26290.3
 27 08 2013  14 26  -21.1204 26058.9 -03481.8 -07.6103 26290.4
 27 08 2013  14 27  -21.1209 26059.1 -03481.6 -07.6098 26290.7
 27 08 2013  14 28  -21.1216 26059.3 -03481.4 -07.6093 26290.9
 27 08 2013  14 29  -21.1221 26059.7 -03481.2 -07.6088 26291.1
 27 08 2013  14 30  -21.1229 26059.6 -03480.9 -07.6081 26291.0
 27 08 2013  14 31  -21.1235 26059.2 -03480.5 -07.6074 26290.6
 27 08 2013  14 32  -21.1241 26059.2 -03480.3 -07.6071 26290.6
 27 08 2013  14 33  -21.1245 26059.4 -03480.3 -07.6070 26290.8
 27 08 2013  14 34  -21.1247 26059.7 -03480.2 -07.6067 26291.0
 27 08 2013  14 35  -21.1248 26060.2 -03480.2 -07.6065 26291.6
 27 08 2013  14 36  -21.1249 26060.4 -03480.1 -07.6061 26291.8
 27 08 2013  14 37  -21.1252 26060.3 -03479.8 -07.6056 26291.6
 27 08 2013  14 38  -21.1258 26060.4 -03479.7 -07.6053 26291.7
 27 08 2013  14 39  -21.1262 26060.6 -03479.6 -07.6051 26291.9
 27 08 2013  14 40  -21.1265 26060.6 -03479.3 -07.6045 26291.9
 27 08 2013  14 41  -21.1268 26060.6 -03479.1 -07.6040 26291.8
 27 08 2013  14 42  -21.1270 26060.3 -03478.7 -07.6033 26291.5
 27 08 2013  14 43  -21.1272 26060.1 -03478.4 -07.6027 26291.3
 27 08 2013  14 44  -21.1275 26059.8 -03478.1 -07.6022 26290.9
 27 08 2013  14 45  -21.1279 26060.2 -03478.2 -07.6022 26291.3
 27 08 2013  14 46  -21.1280 26060.6 -03478.2 -07.6020 26291.7
 27 08 2013  14 47  -21.1282 26061.0 -03478.0 -07.6016 26292.1
 27 08 2013  14 48  -21.1284 26060.9 -03477.7 -07.6008 26291.9
 27 08 2013  14 49  -21.1286 26060.6 -03477.3 -07.6001 26291.6
 27 08 2013  14 50  -21.1291 26060.7 -03477.0 -07.5996 26291.6
 27 08 2013  14 51  -21.1296 26060.8 -03476.8 -07.5991 26291.7
 27 08 2013  14 52  -21.1302 26060.8 -03476.4 -07.5982 26291.7
 27 08 2013  14 53  -21.1307 26060.8 -03476.1 -07.5975 26291.6
 27 08 2013  14 54  -21.1307 26060.7 -03475.7 -07.5966 26291.4
 27 08 2013  14 55  -21.1306 26060.4 -03475.3 -07.5958 26291.1
 27 08 2013  14 56  -21.1304 26060.5 -03475.0 -07.5953 26291.1
 27 08 2013  14 57  -21.1303 26060.4 -03474.7 -07.5946 26291.0
 27 08 2013  14 58  -21.1301 26060.5 -03474.4 -07.5940 26291.0
 27 08 2013  14 59  -21.1301 26060.7 -03474.2 -07.5934 26291.3
 27 08 2013  15 00  -21.1301 26061.0 -03474.0 -07.5929 26291.5
 27 08 2013  15 01  -21.1298 26061.3 -03473.8 -07.5923 26291.8
 27 08 2013  15 02  -21.1297 26061.7 -03473.6 -07.5919 26292.2
 27 08 2013  15 03  -21.1295 26061.7 -03473.3 -07.5911 26292.1
 27 08 2013  15 04  -21.1292 26061.7 -03472.9 -07.5904 26292.0
 27 08 2013  15 05  -21.1289 26062.0 -03472.8 -07.5899 26292.4
 27 08 2013  15 06  -21.1288 26062.7 -03472.7 -07.5896 26293.0
 27 08 2013  15 07  -21.1289 26063.5 -03472.6 -07.5893 26293.8
 27 08 2013  15 08  -21.1288 26064.0 -03472.4 -07.5886 26294.3
 27 08 2013  15 09  -21.1283 26064.1 -03472.0 -07.5876 26294.3
 27 08 2013  15 10  -21.1278 26064.0 -03471.6 -07.5868 26294.2
 27 08 2013  15 11  -21.1277 26064.1 -03471.3 -07.5862 26294.2
 27 08 2013  15 12  -21.1276 26064.3 -03471.1 -07.5857 26294.4
 27 08 2013  15 13  -21.1274 26064.4 -03470.8 -07.5851 26294.5
 27 08 2013  15 14  -21.1273 26064.3 -03470.5 -07.5844 26294.4
 27 08 2013  15 15  -21.1275 26064.5 -03470.4 -07.5841 26294.6
 27 08 2013  15 16  -21.1275 26065.0 -03470.3 -07.5838 26295.0
 27 08 2013  15 17  -21.1274 26065.2 -03470.1 -07.5834 26295.2
 27 08 2013  15 18  -21.1272 26065.0 -03469.8 -07.5826 26295.0
 27 08 2013  15 19  -21.1266 26065.2 -03469.6 -07.5821 26295.1
 27 08 2013  15 20  -21.1264 26065.4 -03469.4 -07.5818 26295.3
 27 08 2013  15 21  -21.1263 26066.0 -03469.4 -07.5816 26295.9
 27 08 2013  15 22  -21.1264 26066.8 -03469.5 -07.5815 26296.7
 27 08 2013  15 23  -21.1266 26067.5 -03469.5 -07.5813 26297.4
 27 08 2013  15 24  -21.1265 26068.2 -03469.5 -07.5810 26298.1
 27 08 2013  15 25  -21.1262 26068.4 -03469.2 -07.5803 26298.3
 27 08 2013  15 26  -21.1260 26069.0 -03469.0 -07.5799 26298.8
 27 08 2013  15 27  -21.1259 26069.3 -03468.9 -07.5794 26299.1
 27 08 2013  15 28  -21.1253 26069.6 -03468.6 -07.5788 26299.3
 27 08 2013  15 29  -21.1247 26069.7 -03468.4 -07.5782 26299.5
 27 08 2013  15 30  -21.1244 26070.3 -03468.3 -07.5780 26300.0
 27 08 2013  15 31  -21.1243 26070.9 -03468.3 -07.5778 26300.6
 27 08 2013  15 32  -21.1246 26071.8 -03468.4 -07.5776 26301.5
 27 08 2013  15 33  -21.1251 26072.6 -03468.3 -07.5772 26302.3
 27 08 2013  15 34  -21.1255 26073.2 -03468.1 -07.5767 26302.8
 27 08 2013  15 35  -21.1256 26073.5 -03467.7 -07.5758 26303.1
 27 08 2013  15 36  -21.1255 26073.5 -03467.3 -07.5749 26303.1
 27 08 2013  15 37  -21.1249 26073.3 -03466.9 -07.5740 26302.8
 27 08 2013  15 38  -21.1249 26073.3 -03466.6 -07.5733 26302.8
 27 08 2013  15 39  -21.1253 26073.5 -03466.4 -07.5728 26302.9
 27 08 2013  15 40  -21.1255 26073.6 -03466.1 -07.5722 26302.9
 27 08 2013  15 41  -21.1255 26073.5 -03465.8 -07.5716 26302.8
 27 08 2013  15 42  -21.1251 26073.1 -03465.3 -07.5706 26302.4
 27 08 2013  15 43  -21.1247 26072.5 -03464.8 -07.5697 26301.8
 27 08 2013  15 44  -21.1245 26072.3 -03464.4 -07.5690 26301.4
 27 08 2013  15 45  -21.1244 26072.3 -03464.2 -07.5685 26301.4
 27 08 2013  15 46  -21.1243 26072.1 -03464.0 -07.5680 26301.2
 27 08 2013  15 47  -21.1242 26072.2 -03463.7 -07.5674 26301.3
 27 08 2013  15 48  -21.1237 26072.2 -03463.4 -07.5668 26301.3
 27 08 2013  15 49  -21.1235 26072.2 -03463.2 -07.5662 26301.2
 27 08 2013  15 50  -21.1235 26072.3 -03463.0 -07.5658 26301.3
 27 08 2013  15 51  -21.1235 26072.5 -03462.8 -07.5655 26301.4
 27 08 2013  15 52  -21.1234 26072.4 -03462.5 -07.5649 26301.3
 27 08 2013  15 53  -21.1232 26072.5 -03462.4 -07.5646 26301.4
 27 08 2013  15 54  -21.1226 26072.8 -03462.4 -07.5645 26301.7
 27 08 2013  15 55  -21.1225 26073.6 -03462.7 -07.5649 26302.5
 27 08 2013  15 56  -21.1228 26075.1 -03463.3 -07.5658 26304.1
 27 08 2013  15 57  -21.1233 26077.0 -03463.9 -07.5666 26306.1
 27 08 2013  15 58  -21.1235 26079.0 -03464.5 -07.5671 26308.1
 27 08 2013  15 59  -21.1237 26080.0 -03464.4 -07.5668 26309.1
 27 08 2013  16 00  -21.1239 26081.0 -03464.3 -07.5662 26310.1
 27 08 2013  16 01  -21.1225 26081.4 -03463.7 -07.5649 26310.4
 27 08 2013  16 02  -21.1218 26081.7 -03463.2 -07.5636 26310.6
 27 08 2013  16 03  -21.1215 26081.9 -03462.7 -07.5625 26310.7
 27 08 2013  16 04  -21.1208 26082.0 -03462.3 -07.5615 26310.8
 27 08 2013  16 05  -21.1197 26082.0 -03461.8 -07.5605 26310.7
 27 08 2013  16 06  -21.1182 26080.6 -03460.9 -07.5589 26309.2
 27 08 2013  16 07  -21.1168 26079.6 -03460.3 -07.5580 26308.1
 27 08 2013  16 08  -21.1167 26079.6 -03460.3 -07.5580 26308.1
 27 08 2013  16 09  -21.1171 26080.0 -03460.6 -07.5584 26308.6
 27 08 2013  16 10  -21.1171 26080.0 -03460.4 -07.5580 26308.5
 27 08 2013  16 11  -21.1166 26079.2 -03459.9 -07.5572 26307.7
 27 08 2013  16 12  -21.1160 26077.6 -03459.1 -07.5560 26306.0
 27 08 2013  16 13  -21.1153 26076.5 -03458.7 -07.5554 26304.8
 27 08 2013  16 14  -21.1152 26076.3 -03458.7 -07.5555 26304.7
 27 08 2013  16 15  -21.1150 26076.0 -03458.7 -07.5555 26304.3
 27 08 2013  16 16  -21.1143 26075.1 -03458.4 -07.5551 26303.5
 27 08 2013  16 17  -21.1125 26073.8 -03457.9 -07.5545 26302.1
 27 08 2013  16 18  -21.1105 26072.9 -03457.7 -07.5542 26301.2
 27 08 2013  16 19  -21.1101 26073.9 -03458.3 -07.5553 26302.2
 27 08 2013  16 20  -21.1103 26075.1 -03459.0 -07.5564 26303.5
 27 08 2013  16 21  -21.1100 26075.1 -03458.8 -07.5559 26303.5
 27 08 2013  16 22  -21.1090 26073.9 -03457.9 -07.5545 26302.2
 27 08 2013  16 23  -21.1079 26072.7 -03457.2 -07.5533 26300.9
 27 08 2013  16 24  -21.1061 26071.4 -03456.5 -07.5522 26299.5
 27 08 2013  16 25  -21.1050 26070.9 -03456.4 -07.5519 26299.0
 27 08 2013  16 26  -21.1043 26070.6 -03456.3 -07.5519 26298.7
 27 08 2013  16 27  -21.1040 26069.9 -03456.1 -07.5516 26298.0
 27 08 2013  16 28  -21.1033 26069.2 -03455.8 -07.5513 26297.3
 27 08 2013  16 29  -21.1036 26068.6 -03455.7 -07.5512 26296.7
 27 08 2013  16 30  -21.1040 26068.5 -03455.7 -07.5512 26296.5
 27 08 2013  16 31  -21.1034 26068.0 -03455.5 -07.5510 26296.0
 27 08 2013  16 32  -21.1027 26068.3 -03455.7 -07.5513 26296.3
 27 08 2013  16 33  -21.1026 26069.0 -03456.0 -07.5517 26297.1
 27 08 2013  16 34  -21.1022 26069.5 -03456.0 -07.5516 26297.6
 27 08 2013  16 35  -21.1012 26069.4 -03455.7 -07.5510 26297.4
 27 08 2013  16 36  -21.1002 26069.2 -03455.4 -07.5503 26297.2
 27 08 2013  16 37  -21.0991 26069.7 -03455.3 -07.5501 26297.7
 27 08 2013  16 38  -21.0991 26070.2 -03455.4 -07.5501 26298.2
 27 08 2013  16 39  -21.0989 26071.2 -03455.6 -07.5503 26299.2
 27 08 2013  16 40  -21.0983 26072.3 -03455.7 -07.5502 26300.3
 27 08 2013  16 41  -21.0984 26072.9 -03455.6 -07.5498 26300.9
 27 08 2013  16 42  -21.0973 26073.2 -03455.3 -07.5489 26301.2
 27 08 2013  16 43  -21.0961 26073.0 -03454.7 -07.5479 26300.8
 27 08 2013  16 44  -21.0955 26072.4 -03454.3 -07.5470 26300.3
 27 08 2013  16 45  -21.0942 26072.1 -03453.9 -07.5463 26299.9
 27 08 2013  16 46  -21.0922 26071.6 -03453.5 -07.5456 26299.3
 27 08 2013  16 47  -21.0911 26071.1 -03453.3 -07.5453 26298.8
 27 08 2013  16 48  -21.0904 26070.5 -03453.0 -07.5449 26298.2
 27 08 2013  16 49  -21.0897 26070.3 -03453.0 -07.5448 26298.0
 27 08 2013  16 50  -21.0889 26070.1 -03452.9 -07.5447 26297.8
 27 08 2013  16 51  -21.0883 26070.1 -03452.8 -07.5446 26297.7
 27 08 2013  16 52  -21.0882 26070.4 -03452.9 -07.5446 26298.1
 27 08 2013  16 53  -21.0890 26070.3 -03452.7 -07.5442 26297.9
 27 08 2013  16 54  -21.0885 26069.5 -03452.1 -07.5432 26297.1
 27 08 2013  16 55  -21.0863 26068.9 -03451.7 -07.5424 26296.4
 27 08 2013  16 56  -21.0842 26068.8 -03451.6 -07.5423 26296.3
 27 08 2013  16 57  -21.0811 26068.9 -03451.7 -07.5425 26296.4
 27 08 2013  16 58  -21.0786 26068.7 -03451.8 -07.5428 26296.2
 27 08 2013  16 59  -21.0775 26069.1 -03452.2 -07.5435 26296.7
 27 08 2013  17 00  -21.0785 26069.5 -03452.4 -07.5439 26297.2
 27 08 2013  17 01  -21.0779 26068.8 -03451.9 -07.5430 26296.3
 27 08 2013  17 02  -21.0765 26066.0 -03450.5 -07.5406 26293.3
 27 08 2013  17 03  -21.0741 26063.2 -03449.4 -07.5391 26290.5
 27 08 2013  17 04  -21.0715 26061.5 -03448.9 -07.5386 26288.8
 27 08 2013  17 05  -21.0701 26060.7 -03449.0 -07.5389 26287.9
 27 08 2013  17 06  -21.0687 26060.2 -03449.2 -07.5394 26287.5
 27 08 2013  17 07  -21.0680 26060.2 -03449.4 -07.5400 26287.5
 27 08 2013  17 08  -21.0681 26060.6 -03449.7 -07.5405 26287.9
 27 08 2013  17 09  -21.0676 26060.9 -03449.9 -07.5408 26288.3
 27 08 2013  17 10  -21.0673 26062.3 -03450.5 -07.5417 26289.8
 27 08 2013  17 11  -21.0669 26063.8 -03450.9 -07.5422 26291.2
 27 08 2013  17 12  -21.0670 26065.6 -03451.4 -07.5427 26293.1
 27 08 2013  17 13  -21.0667 26066.9 -03451.5 -07.5426 26294.4
 27 08 2013  17 14  -21.0658 26067.1 -03451.1 -07.5417 26294.5
 27 08 2013  17 15  -21.0637 26068.5 -03451.4 -07.5419 26296.0
 27 08 2013  17 16  -21.0635 26069.7 -03451.6 -07.5420 26297.2
 27 08 2013  17 17  -21.0624 26069.8 -03451.2 -07.5412 26297.3
 27 08 2013  17 18  -21.0603 26069.3 -03450.7 -07.5401 26296.7
 27 08 2013  17 19  -21.0580 26070.0 -03450.7 -07.5401 26297.4
 27 08 2013  17 20  -21.0580 26071.3 -03451.2 -07.5407 26298.7
 27 08 2013  17 21  -21.0567 26069.2 -03449.9 -07.5385 26296.5
 27 08 2013  17 22  -21.0539 26067.5 -03449.0 -07.5369 26294.7
 27 08 2013  17 23  -21.0549 26066.9 -03448.8 -07.5368 26294.0
 27 08 2013  17 24  -21.0560 26065.9 -03448.4 -07.5362 26293.0
 27 08 2013  17 25  -21.0557 26064.8 -03448.0 -07.5357 26291.9
 27 08 2013  17 26  -21.0550 26063.3 -03447.4 -07.5348 26290.3
 27 08 2013  17 27  -21.0538 26061.9 -03446.9 -07.5341 26288.8
 27 08 2013  17 28  -21.0514 26058.9 -03445.9 -07.5327 26285.7
 27 08 2013  17 29  -21.0477 26055.6 -03445.0 -07.5318 26282.3
 27 08 2013  17 30  -21.0444 26053.8 -03445.1 -07.5325 26280.6
 27 08 2013  17 31  -21.0435 26054.5 -03446.5 -07.5353 26281.5
 27 08 2013  17 32  -21.0448 26055.2 -03447.7 -07.5377 26282.3
 27 08 2013  17 33  -21.0435 26053.4 -03447.4 -07.5375 26280.5
 27 08 2013  17 34  -21.0413 26052.1 -03447.3 -07.5378 26279.1
 27 08 2013  17 35  -21.0398 26050.8 -03447.4 -07.5383 26278.0
 27 08 2013  17 36  -21.0387 26049.9 -03447.5 -07.5389 26277.1
 27 08 2013  17 37  -21.0379 26048.2 -03447.3 -07.5388 26275.3
 27 08 2013  17 38  -21.0350 26044.5 -03446.0 -07.5372 26271.5
 27 08 2013  17 39  -21.0315 26043.1 -03446.1 -07.5378 26270.1
 27 08 2013  17 40  -21.0315 26044.3 -03447.5 -07.5405 26271.4
 27 08 2013  17 41  -21.0314 26045.8 -03448.7 -07.5427 26273.1
 27 08 2013  17 42  -21.0309 26046.9 -03449.4 -07.5438 26274.3
 27 08 2013  17 43  -21.0310 26048.3 -03450.1 -07.5448 26275.8
 27 08 2013  17 44  -21.0282 26049.4 -03450.3 -07.5450 26276.9
 27 08 2013  17 45  -21.0310 26057.4 -03454.0 -07.5508 26285.3
 27 08 2013  17 46  -21.0353 26062.1 -03455.6 -07.5529 26290.2
 27 08 2013  17 47  -21.0391 26064.7 -03455.7 -07.5523 26292.8
 27 08 2013  17 48  -21.0388 26062.3 -03453.1 -07.5475 26290.0
 27 08 2013  17 49  -21.0346 26059.5 -03451.0 -07.5437 26287.0
 27 08 2013  17 50  -21.0314 26058.2 -03450.6 -07.5431 26285.6
 27 08 2013  17 51  -21.0309 26056.8 -03450.5 -07.5433 26284.3
 27 08 2013  17 52  -21.0294 26055.2 -03450.3 -07.5433 26282.6
 27 08 2013  17 53  -21.0277 26053.6 -03450.2 -07.5436 26281.0
 27 08 2013  17 54  -21.0276 26052.0 -03450.3 -07.5442 26279.4
 27 08 2013  17 55  -21.0254 26050.0 -03450.1 -07.5444 26277.5
 27 08 2013  17 56  -21.0230 26049.1 -03450.4 -07.5454 26276.6
 27 08 2013  17 57  -21.0239 26048.8 -03451.4 -07.5474 26276.5
 27 08 2013  17 58  -21.0230 26047.6 -03451.5 -07.5480 26275.3
 27 08 2013  17 59  -21.0214 26046.4 -03451.5 -07.5486 26274.1
 27 08 2013  18 00  -21.0220 26044.7 -03451.6 -07.5491 26272.4
 27 08 2013  18 01  -21.0194 26042.3 -03451.1 -07.5489 26270.0
 27 08 2013  18 02  -21.0189 26041.8 -03451.9 -07.5507 26269.6
 27 08 2013  18 03  -21.0213 26041.6 -03452.9 -07.5528 26269.6
 27 08 2013  18 04  -21.0225 26040.7 -03453.1 -07.5536 26268.6
 27 08 2013  18 05  -21.0217 26038.2 -03452.6 -07.5531 26266.1
 27 08 2013  18 06  -21.0218 26036.3 -03452.5 -07.5536 26264.2
 27 08 2013  18 07  -21.0213 26033.7 -03452.3 -07.5538 26261.6
 27 08 2013  18 08  -21.0203 26032.2 -03452.7 -07.5551 26260.1
 27 08 2013  18 09  -21.0182 26031.6 -03453.6 -07.5573 26259.6
 27 08 2013  18 10  -21.0211 26035.0 -03456.5 -07.5626 26263.5
 27 08 2013  18 11  -21.0264 26037.3 -03458.2 -07.5656 26266.0
 27 08 2013  18 12  -21.0312 26035.6 -03457.3 -07.5641 26264.2
 27 08 2013  18 13  -21.0277 26029.4 -03454.1 -07.5591 26257.5
 27 08 2013  18 14  -21.0242 26024.2 -03452.7 -07.5574 26252.3
 27 08 2013  18 15  -21.0223 26021.0 -03452.7 -07.5584 26249.0
 27 08 2013  18 16  -21.0231 26019.8 -03454.0 -07.5615 26248.0
 27 08 2013  18 17  -21.0261 26017.7 -03454.6 -07.5635 26246.0
 27 08 2013  18 18  -21.0240 26012.9 -03453.6 -07.5626 26241.1
 27 08 2013  18 19  -21.0217 26008.3 -03453.2 -07.5631 26236.5
 27 08 2013  18 20  -21.0201 26004.0 -03453.3 -07.5646 26232.3
 27 08 2013  18 21  -21.0183 26000.3 -03453.9 -07.5669 26228.7
 27 08 2013  18 22  -21.0149 25998.1 -03455.3 -07.5706 26226.7
 27 08 2013  18 23  -21.0160 25999.7 -03458.4 -07.5769 26228.7
 27 08 2013  18 24  -21.0198 26002.1 -03461.1 -07.5819 26231.5
 27 08 2013  18 25  -21.0214 26003.2 -03462.1 -07.5839 26232.6
 27 08 2013  18 26  -21.0215 26003.8 -03462.8 -07.5852 26233.3
 27 08 2013  18 27  -21.0230 26004.5 -03463.8 -07.5871 26234.2
 27 08 2013  18 28  -21.0248 26005.1 -03464.6 -07.5887 26234.9
 27 08 2013  18 29  -21.0251 26004.6 -03464.8 -07.5892 26234.4
 27 08 2013  18 30  -21.0250 26004.5 -03465.2 -07.5903 26234.3
 27 08 2013  18 31  -21.0264 26005.1 -03466.1 -07.5920 26235.1
 27 08 2013  18 32  -21.0290 26004.9 -03466.4 -07.5927 26234.9
 27 08 2013  18 33  -21.0297 26003.8 -03466.1 -07.5924 26233.7
 27 08 2013  18 34  -21.0297 26003.4 -03466.5 -07.5933 26233.4
 27 08 2013  18 35  -21.0306 26004.1 -03467.3 -07.5948 26234.3
 27 08 2013  18 36  -21.0326 26005.6 -03468.2 -07.5963 26235.9
 27 08 2013  18 37  -21.0350 26006.5 -03468.6 -07.5970 26236.8
 27 08 2013  18 38  -21.0363 26006.9 -03468.6 -07.5968 26237.1
 27 08 2013  18 39  -21.0367 26007.0 -03468.5 -07.5965 26237.3
 27 08 2013  18 40  -21.0373 26007.6 -03468.6 -07.5965 26237.8
 27 08 2013  18 41  -21.0381 26008.1 -03468.7 -07.5967 26238.4
 27 08 2013  18 42  -21.0403 26010.3 -03469.6 -07.5979 26240.7
 27 08 2013  18 43  -21.0431 26012.3 -03470.1 -07.5986 26242.7
 27 08 2013  18 44  -21.0454 26013.6 -03470.1 -07.5980 26244.0
 27 08 2013  18 45  -21.0459 26012.3 -03468.7 -07.5956 26242.6
 27 08 2013  18 46  -21.0450 26011.6 -03468.1 -07.5943 26241.8
 27 08 2013  18 47  -21.0453 26011.1 -03467.8 -07.5939 26241.2
 27 08 2013  18 48  -21.0453 26010.1 -03467.3 -07.5931 26240.2
 27 08 2013  18 49  -21.0446 26009.0 -03466.7 -07.5921 26239.0
 27 08 2013  18 50  -21.0436 26008.3 -03466.5 -07.5918 26238.3
 27 08 2013  18 51  -21.0449 26008.6 -03466.9 -07.5926 26238.7
 27 08 2013  18 52  -21.0467 26009.5 -03467.4 -07.5935 26239.7
 27 08 2013  18 53  -21.0479 26009.8 -03467.4 -07.5935 26239.9
 27 08 2013  18 54  -21.0489 26010.0 -03467.4 -07.5932 26240.1
 27 08 2013  18 55  -21.0494 26009.8 -03467.1 -07.5928 26239.9
 27 08 2013  18 56  -21.0499 26008.7 -03466.6 -07.5919 26238.7
 27 08 2013  18 57  -21.0497 26007.4 -03466.0 -07.5910 26237.3
 27 08 2013  18 58  -21.0493 26006.5 -03465.7 -07.5907 26236.5
 27 08 2013  18 59  -21.0504 26006.2 -03465.9 -07.5911 26236.2
 27 08 2013  19 00  -21.0506 26006.1 -03465.9 -07.5913 26236.1
 27 08 2013  19 01  -21.0519 26007.1 -03466.5 -07.5922 26237.1
 27 08 2013  19 02  -21.0542 26007.5 -03466.6 -07.5924 26237.5
 27 08 2013  19 03  -21.0547 26006.2 -03465.8 -07.5909 26236.1
 27 08 2013  19 04  -21.0539 26005.1 -03465.1 -07.5898 26234.9
 27 08 2013  19 05  -21.0547 26005.8 -03465.7 -07.5908 26235.7
 27 08 2013  19 06  -21.0582 26007.0 -03466.4 -07.5920 26237.0
 27 08 2013  19 07  -21.0600 26007.2 -03466.1 -07.5913 26237.2
 27 08 2013  19 08  -21.0606 26006.9 -03465.6 -07.5904 26236.8
 27 08 2013  19 09  -21.0617 26007.1 -03465.4 -07.5898 26236.9
 27 08 2013  19 10  -21.0631 26008.0 -03465.5 -07.5899 26237.8
 27 08 2013  19 11  -21.0650 26009.3 -03465.9 -07.5902 26239.2
 27 08 2013  19 12  -21.0672 26012.4 -03466.9 -07.5915 26242.4
 27 08 2013  19 13  -21.0714 26015.8 -03467.9 -07.5928 26245.9
 27 08 2013  19 14  -21.0740 26016.2 -03467.3 -07.5913 26246.2
 27 08 2013  19 15  -21.0752 26014.1 -03465.6 -07.5882 26244.0
 27 08 2013  19 16  -21.0741 26009.9 -03463.2 -07.5842 26239.4
 27 08 2013  19 17  -21.0720 26005.0 -03461.2 -07.5813 26234.4
 27 08 2013  19 18  -21.0707 26000.5 -03459.9 -07.5798 26229.7
 27 08 2013  19 19  -21.0691 25996.7 -03459.1 -07.5792 26225.8
 27 08 2013  19 20  -21.0685 25994.4 -03459.2 -07.5802 26223.5
 27 08 2013  19 21  -21.0684 25991.9 -03459.1 -07.5807 26221.0
 27 08 2013  19 22  -21.0678 25989.2 -03459.0 -07.5811 26218.4
 27 08 2013  19 23  -21.0679 25987.3 -03459.1 -07.5820 26216.5
 27 08 2013  19 24  -21.0696 25987.2 -03460.2 -07.5844 26216.6
 27 08 2013  19 25  -21.0720 25986.2 -03460.8 -07.5858 26215.6
 27 08 2013  19 26  -21.0724 25984.2 -03460.4 -07.5856 26213.6
 27 08 2013  19 27  -21.0712 25982.5 -03460.3 -07.5859 26211.9
 27 08 2013  19 28  -21.0716 25981.0 -03460.7 -07.5872 26210.5
 27 08 2013  19 29  -21.0728 25980.9 -03461.4 -07.5888 26210.5
 27 08 2013  19 30  -21.0730 25981.1 -03461.9 -07.5898 26210.7
 27 08 2013  19 31  -21.0732 25982.0 -03462.6 -07.5909 26211.7
 27 08 2013  19 32  -21.0746 25984.2 -03463.6 -07.5926 26214.0
 27 08 2013  19 33  -21.0768 25986.4 -03464.5 -07.5937 26216.4
 27 08 2013  19 34  -21.0779 25986.9 -03464.3 -07.5933 26216.8
 27 08 2013  19 35  -21.0772 25986.0 -03463.5 -07.5918 26215.8
 27 08 2013  19 36  -21.0766 25984.7 -03462.9 -07.5909 26214.4
 27 08 2013  19 37  -21.0757 25983.3 -03462.4 -07.5902 26212.9
 27 08 2013  19 38  -21.0737 25981.1 -03461.7 -07.5894 26210.7
 27 08 2013  19 39  -21.0715 25978.9 -03461.2 -07.5888 26208.5
 27 08 2013  19 40  -21.0690 25976.6 -03460.6 -07.5882 26206.1
 27 08 2013  19 41  -21.0670 25974.7 -03460.3 -07.5881 26204.2
 27 08 2013  19 42  -21.0658 25972.9 -03460.1 -07.5883 26202.3
 27 08 2013  19 43  -21.0643 25971.2 -03459.9 -07.5883 26200.6
 27 08 2013  19 44  -21.0633 25970.0 -03460.0 -07.5887 26199.5
 27 08 2013  19 45  -21.0628 25969.6 -03460.4 -07.5897 26199.1
 27 08 2013  19 46  -21.0630 25969.2 -03460.9 -07.5910 26198.8
 27 08 2013  19 47  -21.0636 25969.0 -03461.4 -07.5922 26198.7
 27 08 2013  19 48  -21.0640 25969.1 -03462.0 -07.5935 26198.8
 27 08 2013  19 49  -21.0637 25968.3 -03462.1 -07.5939 26198.1
 27 08 2013  19 50  -21.0639 25967.7 -03462.3 -07.5945 26197.5
 27 08 2013  19 51  -21.0641 25967.3 -03462.5 -07.5951 26197.1
 27 08 2013  19 52  -21.0651 25967.2 -03462.8 -07.5958 26197.1
 27 08 2013  19 53  -21.0659 25966.9 -03462.9 -07.5961 26196.8
 27 08 2013  19 54  -21.0669 25965.7 -03462.7 -07.5959 26195.5
 27 08 2013  19 55  -21.0678 25964.1 -03462.2 -07.5954 26193.9
 27 08 2013  19 56  -21.0689 25962.9 -03462.0 -07.5953 26192.8
 27 08 2013  19 57  -21.0702 25962.2 -03462.0 -07.5953 26192.0
 27 08 2013  19 58  -21.0711 25961.5 -03461.9 -07.5955 26191.3
 27 08 2013  19 59  -21.0711 25960.4 -03461.5 -07.5950 26190.1
 27 08 2013  20 00  -21.0719 25960.1 -03461.6 -07.5952 26189.9
 27 08 2013  20 01  -21.0721 25959.2 -03461.5 -07.5951 26189.0
 27 08 2013  20 02  -21.0727 25958.3 -03461.3 -07.5951 26188.1
 27 08 2013  20 03  -21.0737 25957.3 -03461.2 -07.5951 26187.1
 27 08 2013  20 04  -21.0753 25956.3 -03461.1 -07.5951 26186.1
 27 08 2013  20 05  -21.0764 25955.5 -03460.9 -07.5950 26185.2
 27 08 2013  20 06  -21.0774 25954.6 -03460.8 -07.5950 26184.3
 27 08 2013  20 07  -21.0783 25953.8 -03460.7 -07.5949 26183.5
 27 08 2013  20 08  -21.0790 25953.6 -03460.7 -07.5952 26183.3
 27 08 2013  20 09  -21.0800 25953.6 -03460.8 -07.5954 26183.3
 27 08 2013  20 10  -21.0806 25953.9 -03461.0 -07.5957 26183.6
 27 08 2013  20 11  -21.0810 25954.4 -03461.2 -07.5959 26184.1
 27 08 2013  20 12  -21.0818 25955.0 -03461.3 -07.5961 26184.8
 27 08 2013  20 13  -21.0825 25954.9 -03461.3 -07.5960 26184.7
 27 08 2013  20 14  -21.0834 25955.3 -03461.4 -07.5962 26185.1
 27 08 2013  20 15  -21.0838 25955.5 -03461.5 -07.5963 26185.3
 27 08 2013  20 16  -21.0844 25955.5 -03461.5 -07.5962 26185.3
 27 08 2013  20 17  -21.0848 25955.3 -03461.4 -07.5961 26185.1
 27 08 2013  20 18  -21.0850 25954.7 -03461.2 -07.5958 26184.4
 27 08 2013  20 19  -21.0853 25954.5 -03461.1 -07.5958 26184.3
 27 08 2013  20 20  -21.0854 25954.1 -03461.0 -07.5956 26183.9
 27 08 2013  20 21  -21.0858 25953.8 -03460.9 -07.5955 26183.5
 27 08 2013  20 22  -21.0861 25953.4 -03460.8 -07.5954 26183.1
 27 08 2013  20 23  -21.0863 25953.1 -03460.8 -07.5954 26182.9
 27 08 2013  20 24  -21.0868 25952.8 -03460.8 -07.5955 26182.5
 27 08 2013  20 25  -21.0869 25952.8 -03460.8 -07.5956 26182.6
 27 08 2013  20 26  -21.0869 25953.5 -03461.2 -07.5962 26183.3
 27 08 2013  20 27  -21.0872 25954.5 -03461.8 -07.5971 26184.3
 27 08 2013  20 28  -21.0876 25955.3 -03462.2 -07.5978 26185.2
 27 08 2013  20 29  -21.0881 25956.0 -03462.4 -07.5982 26185.9
 27 08 2013  20 30  -21.0883 25956.0 -03462.4 -07.5982 26185.9
 27 08 2013  20 31  -21.0885 25955.9 -03462.3 -07.5980 26185.8
 27 08 2013  20 32  -21.0886 25955.5 -03462.1 -07.5976 26185.3
 27 08 2013  20 33  -21.0882 25955.0 -03461.9 -07.5973 26184.9
 27 08 2013  20 34  -21.0876 25954.8 -03461.8 -07.5972 26184.6
 27 08 2013  20 35  -21.0866 25954.8 -03461.9 -07.5974 26184.7
 27 08 2013  20 36  -21.0859 25955.6 -03462.4 -07.5981 26185.5
 27 08 2013  20 37  -21.0860 25956.4 -03462.8 -07.5988 26186.3
 27 08 2013  20 38  -21.0860 25956.9 -03463.1 -07.5993 26186.9
 27 08 2013  20 39  -21.0853 25957.3 -03463.3 -07.5996 26187.4
 27 08 2013  20 40  -21.0840 25957.7 -03463.3 -07.5996 26187.7
 27 08 2013  20 41  -21.0826 25957.8 -03463.3 -07.5996 26187.8
 27 08 2013  20 42  -21.0818 25957.9 -03463.3 -07.5996 26187.9
 27 08 2013  20 43  -21.0811 25957.4 -03463.3 -07.5996 26187.5
 27 08 2013  20 44  -21.0809 25956.8 -03463.2 -07.5995 26186.8
 27 08 2013  20 45  -21.0809 25956.4 -03463.3 -07.5999 26186.5
 27 08 2013  20 46  -21.0810 25956.0 -03463.4 -07.6002 26186.0
 27 08 2013  20 47  -21.0812 25955.7 -03463.5 -07.6006 26185.7
 27 08 2013  20 48  -21.0806 25955.5 -03463.6 -07.6008 26185.6
 27 08 2013  20 49  -21.0799 25956.1 -03463.9 -07.6013 26186.2
 27 08 2013  20 50  -21.0799 25956.6 -03464.1 -07.6016 26186.7
 27 08 2013  20 51  -21.0798 25957.3 -03464.7 -07.6026 26187.5
 27 08 2013  20 52  -21.0794 25958.3 -03465.2 -07.6034 26188.6
 27 08 2013  20 53  -21.0795 25958.9 -03465.5 -07.6039 26189.2
 27 08 2013  20 54  -21.0791 25959.6 -03465.8 -07.6044 26189.9
 27 08 2013  20 55  -21.0789 25960.3 -03466.1 -07.6049 26190.7
 27 08 2013  20 56  -21.0791 25960.6 -03466.2 -07.6050 26190.9
 27 08 2013  20 57  -21.0795 25960.6 -03466.4 -07.6054 26191.0
 27 08 2013  20 58  -21.0796 25960.4 -03466.4 -07.6054 26190.8
 27 08 2013  20 59  -21.0798 25960.5 -03466.4 -07.6055 26190.9
 27 08 2013  21 00  -21.0801 25960.9 -03466.6 -07.6058 26191.3
 27 08 2013  21 01  -21.0801 25961.1 -03466.7 -07.6060 26191.5
 27 08 2013  21 02  -21.0802 25961.7 -03467.0 -07.6064 26192.1
 27 08 2013  21 03  -21.0806 25962.2 -03467.2 -07.6068 26192.7
 27 08 2013  21 04  -21.0810 25962.7 -03467.5 -07.6071 26193.2
 27 08 2013  21 05  -21.0811 25963.4 -03467.8 -07.6077 26194.0
 27 08 2013  21 06  -21.0812 25964.0 -03468.0 -07.6080 26194.6
 27 08 2013  21 07  -21.0811 25964.3 -03468.1 -07.6081 26194.9
 27 08 2013  21 08  -21.0808 25964.6 -03468.2 -07.6081 26195.2
 27 08 2013  21 09  -21.0803 25964.7 -03468.2 -07.6081 26195.3
 27 08 2013  21 10  -21.0797 25964.7 -03468.1 -07.6080 26195.3
 27 08 2013  21 11  -21.0794 25964.8 -03468.2 -07.6081 26195.4
 27 08 2013  21 12  -21.0792 25964.9 -03468.3 -07.6082 26195.5
 27 08 2013  21 13  -21.0790 25965.1 -03468.3 -07.6083 26195.7
 27 08 2013  21 14  -21.0787 25965.1 -03468.4 -07.6084 26195.7
 27 08 2013  21 15  -21.0783 25965.1 -03468.4 -07.6084 26195.7
 27 08 2013  21 16  -21.0780 25965.0 -03468.4 -07.6084 26195.6
 27 08 2013  21 17  -21.0778 25965.0 -03468.4 -07.6084 26195.6
 27 08 2013  21 18  -21.0773 25965.3 -03468.4 -07.6084 26195.9
 27 08 2013  21 19  -21.0767 25965.7 -03468.7 -07.6090 26196.3
 27 08 2013  21 20  -21.0765 25966.0 -03469.0 -07.6094 26196.7
 27 08 2013  21 21  -21.0762 25966.2 -03469.1 -07.6096 26196.9
 27 08 2013  21 22  -21.0760 25966.3 -03469.2 -07.6099 26197.0
 27 08 2013  21 23  -21.0762 25966.5 -03469.4 -07.6102 26197.3
 27 08 2013  21 24  -21.0766 25966.5 -03469.5 -07.6104 26197.3
 27 08 2013  21 25  -21.0768 25966.6 -03469.6 -07.6106 26197.4
 27 08 2013  21 26  -21.0769 25966.8 -03469.6 -07.6105 26197.5
 27 08 2013  21 27  -21.0767 25966.9 -03469.7 -07.6108 26197.7
 27 08 2013  21 28  -21.0767 25966.9 -03469.7 -07.6109 26197.7
 27 08 2013  21 29  -21.0767 25966.7 -03469.7 -07.6108 26197.5
 27 08 2013  21 30  -21.0767 25966.5 -03469.6 -07.6107 26197.2
 27 08 2013  21 31  -21.0764 25966.7 -03469.7 -07.6109 26197.5
 27 08 2013  21 32  -21.0763 25967.1 -03470.0 -07.6114 26198.0
 27 08 2013  21 33  -21.0763 25967.4 -03470.2 -07.6117 26198.3
 27 08 2013  21 34  -21.0766 25967.5 -03470.3 -07.6119 26198.4
 27 08 2013  21 35  -21.0768 25967.4 -03470.3 -07.6119 26198.2
 27 08 2013  21 36  -21.0766 25967.4 -03470.2 -07.6118 26198.2
 27 08 2013  21 37  -21.0764 25967.4 -03470.3 -07.6119 26198.3
 27 08 2013  21 38  -21.0761 25967.4 -03470.3 -07.6119 26198.3
 27 08 2013  21 39  -21.0757 25967.2 -03470.2 -07.6118 26198.1
 27 08 2013  21 40  -21.0752 25967.4 -03470.3 -07.6119 26198.3
 27 08 2013  21 41  -21.0746 25967.6 -03470.5 -07.6122 26198.5
 27 08 2013  21 42  -21.0743 25967.1 -03470.3 -07.6120 26198.0
 27 08 2013  21 43  -21.0738 25966.5 -03470.0 -07.6116 26197.4
 27 08 2013  21 44  -21.0733 25966.4 -03470.0 -07.6116 26197.2
 27 08 2013  21 45  -21.0725 25966.5 -03470.2 -07.6120 26197.4
 27 08 2013  21 46  -21.0719 25966.6 -03470.4 -07.6124 26197.5
 27 08 2013  21 47  -21.0710 25966.8 -03470.6 -07.6128 26197.7
 27 08 2013  21 48  -21.0704 25966.9 -03470.8 -07.6132 26197.9
 27 08 2013  21 49  -21.0696 25967.0 -03471.0 -07.6135 26198.0
 27 08 2013  21 50  -21.0689 25967.4 -03471.2 -07.6140 26198.4
 27 08 2013  21 51  -21.0680 25967.8 -03471.6 -07.6146 26198.9
 27 08 2013  21 52  -21.0673 25968.2 -03471.9 -07.6151 26199.3
 27 08 2013  21 53  -21.0668 25968.7 -03472.2 -07.6156 26199.8
 27 08 2013  21 54  -21.0667 25969.1 -03472.5 -07.6162 26200.2
 27 08 2013  21 55  -21.0667 25969.3 -03472.7 -07.6167 26200.5
 27 08 2013  21 56  -21.0666 25969.8 -03473.0 -07.6171 26201.0
 27 08 2013  21 57  -21.0665 25970.3 -03473.3 -07.6176 26201.5
 27 08 2013  21 58  -21.0663 25970.4 -03473.4 -07.6178 26201.7
 27 08 2013  21 59  -21.0663 25970.6 -03473.5 -07.6179 26201.9
 27 08 2013  22 00  -21.0661 25970.8 -03473.6 -07.6180 26202.1
 27 08 2013  22 01  -21.0659 25971.2 -03473.8 -07.6184 26202.5
 27 08 2013  22 02  -21.0656 25971.6 -03474.0 -07.6187 26202.9
 27 08 2013  22 03  -21.0654 25971.8 -03474.1 -07.6189 26203.2
 27 08 2013  22 04  -21.0654 25972.0 -03474.2 -07.6190 26203.3
 27 08 2013  22 05  -21.0653 25972.4 -03474.4 -07.6193 26203.7
 27 08 2013  22 06  -21.0652 25973.0 -03474.7 -07.6197 26204.4
 27 08 2013  22 07  -21.0649 25973.5 -03474.9 -07.6201 26204.9
 27 08 2013  22 08  -21.0644 25974.6 -03475.4 -07.6209 26206.1
 27 08 2013  22 09  -21.0644 25974.9 -03475.6 -07.6212 26206.4
 27 08 2013  22 10  -21.0644 25975.0 -03475.6 -07.6211 26206.5
 27 08 2013  22 11  -21.0643 25975.2 -03475.6 -07.6212 26206.7
 27 08 2013  22 12  -21.0642 25975.8 -03475.9 -07.6217 26207.3
 27 08 2013  22 13  -21.0639 25976.4 -03476.1 -07.6220 26207.9
 27 08 2013  22 14  -21.0635 25976.9 -03476.4 -07.6224 26208.5
 27 08 2013  22 15  -21.0632 25977.4 -03476.6 -07.6226 26209.0
 27 08 2013  22 16  -21.0630 25977.8 -03476.7 -07.6229 26209.4
 27 08 2013  22 17  -21.0628 25978.2 -03476.9 -07.6231 26209.8
 27 08 2013  22 18  -21.0626 25978.5 -03477.0 -07.6232 26210.2
 27 08 2013  22 19  -21.0625 25979.1 -03477.2 -07.6236 26210.8
 27 08 2013  22 20  -21.0626 25979.9 -03477.6 -07.6242 26211.7
 27 08 2013  22 21  -21.0623 25981.0 -03478.1 -07.6248 26212.8
 27 08 2013  22 22  -21.0622 25982.3 -03478.6 -07.6257 26214.1
 27 08 2013  22 23  -21.0625 25982.7 -03478.8 -07.6260 26214.6
 27 08 2013  22 24  -21.0628 25982.8 -03478.8 -07.6258 26214.7
 27 08 2013  22 25  -21.0631 25983.3 -03478.8 -07.6257 26215.1
 27 08 2013  22 26  -21.0634 25983.7 -03478.9 -07.6258 26215.6
 27 08 2013  22 27  -21.0636 25984.3 -03479.0 -07.6260 26216.2
 27 08 2013  22 28  -21.0636 25984.8 -03479.1 -07.6260 26216.7
 27 08 2013  22 29  -21.0633 25985.1 -03479.1 -07.6259 26216.9
 27 08 2013  22 30  -21.0630 25985.3 -03479.0 -07.6256 26217.1
 27 08 2013  22 31  -21.0631 25985.3 -03478.9 -07.6253 26217.1
 27 08 2013  22 32  -21.0628 25984.8 -03478.5 -07.6247 26216.6
 27 08 2013  22 33  -21.0627 25984.8 -03478.4 -07.6244 26216.6
 27 08 2013  22 34  -21.0628 25984.8 -03478.3 -07.6242 26216.5
 27 08 2013  22 35  -21.0629 25984.5 -03478.1 -07.6238 26216.2
 27 08 2013  22 36  -21.0628 25984.2 -03477.9 -07.6235 26215.9
 27 08 2013  22 37  -21.0627 25983.6 -03477.5 -07.6229 26215.3
 27 08 2013  22 38  -21.0622 25983.3 -03477.3 -07.6225 26214.9
 27 08 2013  22 39  -21.0619 25982.9 -03477.1 -07.6222 26214.6
 27 08 2013  22 40  -21.0613 25982.6 -03477.0 -07.6219 26214.2
 27 08 2013  22 41  -21.0608 25982.3 -03476.8 -07.6218 26213.9
 27 08 2013  22 42  -21.0602 25982.2 -03476.8 -07.6218 26213.8
 27 08 2013  22 43  -21.0593 25982.2 -03476.8 -07.6218 26213.8
 27 08 2013  22 44  -21.0587 25982.7 -03477.1 -07.6223 26214.3
 27 08 2013  22 45  -21.0584 25983.3 -03477.6 -07.6231 26215.0
 27 08 2013  22 46  -21.0583 25983.1 -03477.6 -07.6232 26214.8
 27 08 2013  22 47  -21.0581 25983.0 -03477.5 -07.6230 26214.7
 27 08 2013  22 48  -21.0582 25982.9 -03477.5 -07.6230 26214.6
 27 08 2013  22 49  -21.0585 25982.8 -03477.5 -07.6230 26214.5
 27 08 2013  22 50  -21.0587 25983.0 -03477.6 -07.6232 26214.7
 27 08 2013  22 51  -21.0592 25983.3 -03477.7 -07.6234 26215.0
 27 08 2013  22 52  -21.0599 25983.3 -03477.8 -07.6235 26215.0
 27 08 2013  22 53  -21.0607 25982.9 -03477.6 -07.6232 26214.6
 27 08 2013  22 54  -21.0615 25982.2 -03477.2 -07.6226 26213.8
 27 08 2013  22 55  -21.0619 25981.5 -03476.8 -07.6218 26213.1
 27 08 2013  22 56  -21.0620 25980.9 -03476.4 -07.6212 26212.5
 27 08 2013  22 57  -21.0620 25980.7 -03476.2 -07.6208 26212.2
 27 08 2013  22 58  -21.0621 25980.5 -03476.1 -07.6207 26212.0
 27 08 2013  22 59  -21.0622 25980.3 -03476.0 -07.6206 26211.9
 27 08 2013  23 00  -21.0624 25980.4 -03476.1 -07.6207 26211.9
 27 08 2013  23 01  -21.0626 25980.5 -03476.2 -07.6209 26212.0
 27 08 2013  23 02  -21.0632 25980.5 -03476.2 -07.6210 26212.0
 27 08 2013  23 03  -21.0639 25980.0 -03476.0 -07.6207 26211.5
 27 08 2013  23 04  -21.0641 25979.5 -03475.8 -07.6203 26211.0
 27 08 2013  23 05  -21.0641 25979.3 -03475.7 -07.6201 26210.8
 27 08 2013  23 06  -21.0640 25978.9 -03475.4 -07.6197 26210.3
 27 08 2013  23 07  -21.0638 25978.1 -03475.0 -07.6191 26209.5
 27 08 2013  23 08  -21.0632 25977.7 -03474.9 -07.6188 26209.1
 27 08 2013  23 09  -21.0627 25977.6 -03474.9 -07.6189 26209.0
 27 08 2013  23 10  -21.0622 25977.3 -03474.8 -07.6189 26208.7
 27 08 2013  23 11  -21.0617 25977.1 -03474.8 -07.6189 26208.4
 27 08 2013  23 12  -21.0611 25977.1 -03474.9 -07.6190 26208.5
 27 08 2013  23 13  -21.0607 25977.0 -03475.0 -07.6193 26208.4
 27 08 2013  23 14  -21.0604 25977.2 -03475.2 -07.6196 26208.7
 27 08 2013  23 15  -21.0603 25977.8 -03475.6 -07.6203 26209.2
 27 08 2013  23 16  -21.0603 25978.0 -03475.8 -07.6207 26209.5
 27 08 2013  23 17  -21.0601 25978.0 -03475.9 -07.6209 26209.5
 27 08 2013  23 18  -21.0599 25978.2 -03476.0 -07.6211 26209.8
 27 08 2013  23 19  -21.0596 25978.2 -03476.0 -07.6211 26209.8
 27 08 2013  23 20  -21.0592 25978.1 -03475.9 -07.6210 26209.6
 27 08 2013  23 21  -21.0588 25977.8 -03475.8 -07.6208 26209.3
 27 08 2013  23 22  -21.0587 25977.3 -03475.6 -07.6205 26208.8
 27 08 2013  23 23  -21.0585 25977.0 -03475.5 -07.6204 26208.5
 27 08 2013  23 24  -21.0580 25977.1 -03475.6 -07.6206 26208.5
 27 08 2013  23 25  -21.0575 25977.0 -03475.6 -07.6207 26208.5
 27 08 2013  23 26  -21.0571 25976.8 -03475.6 -07.6207 26208.3
 27 08 2013  23 27  -21.0569 25976.9 -03475.7 -07.6208 26208.4
 27 08 2013  23 28  -21.0568 25977.4 -03476.0 -07.6213 26208.9
 27 08 2013  23 29  -21.0569 25977.5 -03476.1 -07.6216 26209.1
 27 08 2013  23 30  -21.0569 25977.8 -03476.3 -07.6219 26209.3
 27 08 2013  23 31  -21.0569 25978.1 -03476.5 -07.6222 26209.7
 27 08 2013  23 32  -21.0569 25978.4 -03476.7 -07.6226 26210.0
 27 08 2013  23 33  -21.0571 25978.4 -03476.7 -07.6227 26210.0
 27 08 2013  23 34  -21.0574 25978.1 -03476.6 -07.6225 26209.7
 27 08 2013  23 35  -21.0579 25977.7 -03476.4 -07.6222 26209.3
 27 08 2013  23 36  -21.0582 25977.3 -03476.2 -07.6218 26208.8
 27 08 2013  23 37  -21.0585 25977.1 -03476.1 -07.6216 26208.7
 27 08 2013  23 38  -21.0585 25977.5 -03476.2 -07.6219 26209.0
 27 08 2013  23 39  -21.0584 25977.7 -03476.4 -07.6222 26209.3
 27 08 2013  23 40  -21.0582 25978.2 -03476.6 -07.6225 26209.8
 27 08 2013  23 41  -21.0579 25978.7 -03476.9 -07.6229 26210.3
 27 08 2013  23 42  -21.0577 25979.1 -03477.1 -07.6232 26210.7
 27 08 2013  23 43  -21.0578 25979.5 -03477.2 -07.6234 26211.1
 27 08 2013  23 44  -21.0585 25979.7 -03477.3 -07.6236 26211.3
 27 08 2013  23 45  -21.0591 25979.3 -03477.2 -07.6233 26211.0
 27 08 2013  23 46  -21.0595 25979.0 -03476.9 -07.6229 26210.6
 27 08 2013  23 47  -21.0596 25978.7 -03476.7 -07.6225 26210.4
 27 08 2013  23 48  -21.0595 25978.9 -03476.7 -07.6224 26210.5
 27 08 2013  23 49  -21.0597 25978.9 -03476.6 -07.6223 26210.5
 27 08 2013  23 50  -21.0599 25978.7 -03476.5 -07.6221 26210.3
 27 08 2013  23 51  -21.0603 25978.5 -03476.3 -07.6218 26210.0
 27 08 2013  23 52  -21.0604 25978.3 -03476.2 -07.6215 26209.8
 27 08 2013  23 53  -21.0603 25978.2 -03476.1 -07.6214 26209.7
 27 08 2013  23 54  -21.0602 25978.3 -03476.2 -07.6215 26209.8
 27 08 2013  23 55  -21.0602 25978.2 -03476.1 -07.6215 26209.7
 27 08 2013  23 56  -21.0599 25978.1 -03476.0 -07.6212 26209.6
 27 08 2013  23 57  -21.0594 25978.6 -03476.2 -07.6215 26210.1
