SAO LUIS EMBRACE-03 <112> 1 Min. Reported data

 DD MM YYYY  HH MM   D(Deg)  H(nT)   Z(nT)   I(Deg)   F(nT)

 22 04 2013  00 00  -21.0283 26052.3 -03433.0 -07.5068 26277.6
 22 04 2013  00 01  -21.0284 26052.2 -03433.0 -07.5068 26277.4
 22 04 2013  00 02  -21.0285 26052.0 -03433.0 -07.5068 26277.3
 22 04 2013  00 03  -21.0285 26051.9 -03433.0 -07.5069 26277.2
 22 04 2013  00 04  -21.0285 26051.9 -03433.0 -07.5068 26277.1
 22 04 2013  00 05  -21.0286 26051.9 -03433.0 -07.5069 26277.1
 22 04 2013  00 06  -21.0285 26051.9 -03433.1 -07.5070 26277.1
 22 04 2013  00 07  -21.0286 26051.8 -03433.0 -07.5070 26277.0
 22 04 2013  00 08  -21.0287 26051.7 -03433.0 -07.5070 26276.9
 22 04 2013  00 09  -21.0290 26051.5 -03432.9 -07.5069 26276.7
 22 04 2013  00 10  -21.0291 26051.4 -03432.9 -07.5069 26276.6
 22 04 2013  00 11  -21.0292 26051.2 -03432.9 -07.5068 26276.4
 22 04 2013  00 12  -21.0293 26051.2 -03432.9 -07.5068 26276.4
 22 04 2013  00 13  -21.0291 26051.2 -03432.9 -07.5068 26276.4
 22 04 2013  00 14  -21.0292 26051.1 -03432.9 -07.5069 26276.3
 22 04 2013  00 15  -21.0292 26050.9 -03432.8 -07.5068 26276.1
 22 04 2013  00 16  -21.0292 26050.8 -03432.8 -07.5068 26276.0
 22 04 2013  00 17  -21.0292 26050.6 -03432.7 -07.5067 26275.8
 22 04 2013  00 18  -21.0293 26050.4 -03432.7 -07.5067 26275.6
 22 04 2013  00 19  -21.0294 26050.1 -03432.6 -07.5066 26275.3
 22 04 2013  00 20  -21.0296 26049.9 -03432.5 -07.5065 26275.1
 22 04 2013  00 21  -21.0297 26049.8 -03432.5 -07.5065 26275.0
 22 04 2013  00 22  -21.0297 26049.8 -03432.6 -07.5066 26274.9
 22 04 2013  00 23  -21.0297 26049.8 -03432.6 -07.5067 26275.0
 22 04 2013  00 24  -21.0298 26049.9 -03432.7 -07.5069 26275.1
 22 04 2013  00 25  -21.0296 26050.1 -03432.8 -07.5071 26275.3
 22 04 2013  00 26  -21.0296 26050.1 -03432.9 -07.5072 26275.3
 22 04 2013  00 27  -21.0296 26050.1 -03432.9 -07.5072 26275.3
 22 04 2013  00 28  -21.0296 26050.1 -03432.9 -07.5073 26275.3
 22 04 2013  00 29  -21.0297 26050.0 -03432.9 -07.5073 26275.3
 22 04 2013  00 30  -21.0297 26050.0 -03433.0 -07.5074 26275.2
 22 04 2013  00 31  -21.0299 26049.9 -03432.9 -07.5073 26275.1
 22 04 2013  00 32  -21.0302 26049.7 -03432.9 -07.5072 26274.9
 22 04 2013  00 33  -21.0302 26049.6 -03432.8 -07.5072 26274.8
 22 04 2013  00 34  -21.0301 26049.5 -03432.8 -07.5072 26274.7
 22 04 2013  00 35  -21.0303 26049.3 -03432.7 -07.5071 26274.5
 22 04 2013  00 36  -21.0304 26049.2 -03432.7 -07.5070 26274.4
 22 04 2013  00 37  -21.0305 26049.1 -03432.7 -07.5071 26274.3
 22 04 2013  00 38  -21.0304 26049.0 -03432.6 -07.5070 26274.2
 22 04 2013  00 39  -21.0306 26048.7 -03432.6 -07.5069 26273.9
 22 04 2013  00 40  -21.0308 26048.6 -03432.5 -07.5068 26273.7
 22 04 2013  00 41  -21.0307 26048.4 -03432.4 -07.5067 26273.6
 22 04 2013  00 42  -21.0307 26048.5 -03432.5 -07.5068 26273.7
 22 04 2013  00 43  -21.0305 26048.7 -03432.7 -07.5071 26273.9
 22 04 2013  00 44  -21.0306 26048.8 -03432.8 -07.5073 26274.1
 22 04 2013  00 45  -21.0306 26048.9 -03432.8 -07.5073 26274.1
 22 04 2013  00 46  -21.0307 26048.8 -03432.8 -07.5074 26274.1
 22 04 2013  00 47  -21.0306 26048.8 -03432.9 -07.5075 26274.1
 22 04 2013  00 48  -21.0308 26048.7 -03432.8 -07.5073 26273.9
 22 04 2013  00 49  -21.0309 26048.5 -03432.7 -07.5072 26273.7
 22 04 2013  00 50  -21.0307 26048.2 -03432.6 -07.5071 26273.4
 22 04 2013  00 51  -21.0311 26047.9 -03432.5 -07.5069 26273.1
 22 04 2013  00 52  -21.0315 26047.6 -03432.4 -07.5067 26272.7
 22 04 2013  00 53  -21.0318 26047.3 -03432.3 -07.5066 26272.5
 22 04 2013  00 54  -21.0320 26047.2 -03432.3 -07.5066 26272.4
 22 04 2013  00 55  -21.0321 26047.3 -03432.3 -07.5068 26272.4
 22 04 2013  00 56  -21.0318 26047.7 -03432.6 -07.5072 26272.9
 22 04 2013  00 57  -21.0318 26047.4 -03432.5 -07.5072 26272.6
 22 04 2013  00 58  -21.0320 26047.3 -03432.5 -07.5071 26272.5
 22 04 2013  00 59  -21.0320 26047.5 -03432.7 -07.5074 26272.7
 22 04 2013  01 00  -21.0320 26047.2 -03432.6 -07.5073 26272.4
 22 04 2013  01 01  -21.0324 26046.7 -03432.5 -07.5072 26271.9
 22 04 2013  01 02  -21.0329 26046.4 -03432.2 -07.5068 26271.6
 22 04 2013  01 03  -21.0326 26046.8 -03432.5 -07.5073 26272.0
 22 04 2013  01 04  -21.0330 26046.5 -03432.4 -07.5071 26271.6
 22 04 2013  01 05  -21.0328 26047.1 -03432.7 -07.5077 26272.4
 22 04 2013  01 06  -21.0327 26047.3 -03432.9 -07.5079 26272.5
 22 04 2013  01 07  -21.0330 26047.1 -03432.8 -07.5078 26272.3
 22 04 2013  01 08  -21.0330 26047.0 -03432.8 -07.5078 26272.3
 22 04 2013  01 09  -21.0330 26047.3 -03432.9 -07.5079 26272.5
 22 04 2013  01 10  -21.0329 26047.6 -03433.1 -07.5083 26272.9
 22 04 2013  01 11  -21.0333 26046.9 -03432.8 -07.5079 26272.1
 22 04 2013  01 12  -21.0335 26046.7 -03432.6 -07.5075 26271.9
 22 04 2013  01 13  -21.0332 26047.2 -03432.9 -07.5081 26272.5
 22 04 2013  01 14  -21.0334 26046.7 -03432.8 -07.5079 26272.0
 22 04 2013  01 15  -21.0337 26046.4 -03432.5 -07.5075 26271.6
 22 04 2013  01 16  -21.0335 26046.7 -03432.7 -07.5076 26271.9
 22 04 2013  01 17  -21.0335 26046.7 -03432.8 -07.5080 26271.9
 22 04 2013  01 18  -21.0338 26046.0 -03432.5 -07.5074 26271.2
 22 04 2013  01 19  -21.0339 26045.9 -03432.4 -07.5073 26271.1
 22 04 2013  01 20  -21.0338 26045.9 -03432.4 -07.5073 26271.0
 22 04 2013  01 21  -21.0336 26045.5 -03432.2 -07.5071 26270.6
 22 04 2013  01 22  -21.0336 26045.4 -03432.2 -07.5071 26270.6
 22 04 2013  01 23  -21.0332 26045.5 -03432.3 -07.5073 26270.6
 22 04 2013  01 24  -21.0331 26045.5 -03432.4 -07.5074 26270.7
 22 04 2013  01 25  -21.0332 26045.4 -03432.4 -07.5074 26270.6
 22 04 2013  01 26  -21.0331 26045.4 -03432.4 -07.5075 26270.6
 22 04 2013  01 27  -21.0332 26045.2 -03432.4 -07.5074 26270.4
 22 04 2013  01 28  -21.0331 26045.3 -03432.4 -07.5075 26270.5
 22 04 2013  01 29  -21.0330 26045.3 -03432.4 -07.5076 26270.5
 22 04 2013  01 30  -21.0327 26045.2 -03432.5 -07.5076 26270.4
 22 04 2013  01 31  -21.0327 26044.9 -03432.3 -07.5074 26270.1
 22 04 2013  01 32  -21.0327 26045.0 -03432.4 -07.5075 26270.2
 22 04 2013  01 33  -21.0326 26044.9 -03432.4 -07.5076 26270.1
 22 04 2013  01 34  -21.0326 26044.6 -03432.3 -07.5075 26269.8
 22 04 2013  01 35  -21.0328 26044.5 -03432.3 -07.5075 26269.7
 22 04 2013  01 36  -21.0329 26044.4 -03432.3 -07.5075 26269.6
 22 04 2013  01 37  -21.0330 26044.2 -03432.3 -07.5075 26269.4
 22 04 2013  01 38  -21.0330 26043.9 -03432.2 -07.5074 26269.1
 22 04 2013  01 39  -21.0330 26043.7 -03432.1 -07.5073 26268.9
 22 04 2013  01 40  -21.0331 26043.6 -03432.1 -07.5073 26268.7
 22 04 2013  01 41  -21.0329 26044.0 -03432.3 -07.5077 26269.2
 22 04 2013  01 42  -21.0329 26044.0 -03432.4 -07.5078 26269.2
 22 04 2013  01 43  -21.0330 26044.1 -03432.5 -07.5080 26269.3
 22 04 2013  01 44  -21.0329 26044.4 -03432.7 -07.5083 26269.6
 22 04 2013  01 45  -21.0331 26044.8 -03432.9 -07.5087 26270.0
 22 04 2013  01 46  -21.0333 26044.8 -03432.9 -07.5088 26270.0
 22 04 2013  01 47  -21.0331 26044.8 -03432.9 -07.5088 26270.1
 22 04 2013  01 48  -21.0330 26045.0 -03433.0 -07.5089 26270.3
 22 04 2013  01 49  -21.0330 26045.1 -03433.1 -07.5090 26270.4
 22 04 2013  01 50  -21.0328 26045.3 -03433.1 -07.5091 26270.6
 22 04 2013  01 51  -21.0326 26045.5 -03433.2 -07.5093 26270.8
 22 04 2013  01 52  -21.0327 26045.3 -03433.2 -07.5092 26270.6
 22 04 2013  01 53  -21.0328 26045.5 -03433.2 -07.5092 26270.8
 22 04 2013  01 54  -21.0325 26045.9 -03433.4 -07.5095 26271.2
 22 04 2013  01 55  -21.0324 26045.9 -03433.5 -07.5096 26271.3
 22 04 2013  01 56  -21.0325 26045.9 -03433.4 -07.5096 26271.2
 22 04 2013  01 57  -21.0324 26045.8 -03433.4 -07.5095 26271.1
 22 04 2013  01 58  -21.0323 26045.6 -03433.3 -07.5094 26270.9
 22 04 2013  01 59  -21.0323 26045.6 -03433.2 -07.5092 26270.9
 22 04 2013  02 00  -21.0323 26045.5 -03433.2 -07.5092 26270.8
 22 04 2013  02 01  -21.0325 26045.1 -03433.1 -07.5090 26270.4
 22 04 2013  02 02  -21.0324 26045.1 -03433.0 -07.5089 26270.4
 22 04 2013  02 03  -21.0320 26045.7 -03433.3 -07.5093 26271.0
 22 04 2013  02 04  -21.0317 26046.3 -03433.6 -07.5099 26271.6
 22 04 2013  02 05  -21.0316 26046.6 -03433.8 -07.5102 26272.0
 22 04 2013  02 06  -21.0314 26047.3 -03434.1 -07.5106 26272.7
 22 04 2013  02 07  -21.0312 26047.6 -03434.3 -07.5110 26273.1
 22 04 2013  02 08  -21.0311 26047.8 -03434.4 -07.5111 26273.2
 22 04 2013  02 09  -21.0312 26047.5 -03434.3 -07.5109 26273.0
 22 04 2013  02 10  -21.0311 26047.5 -03434.2 -07.5106 26273.0
 22 04 2013  02 11  -21.0310 26047.6 -03434.2 -07.5107 26273.0
 22 04 2013  02 12  -21.0312 26047.2 -03434.0 -07.5105 26272.6
 22 04 2013  02 13  -21.0314 26047.0 -03433.9 -07.5102 26272.4
 22 04 2013  02 14  -21.0318 26047.1 -03433.9 -07.5103 26272.4
 22 04 2013  02 15  -21.0321 26046.6 -03433.8 -07.5100 26272.0
 22 04 2013  02 16  -21.0323 26046.6 -03433.7 -07.5099 26272.0
 22 04 2013  02 17  -21.0323 26046.7 -03433.7 -07.5100 26272.1
 22 04 2013  02 18  -21.0322 26046.9 -03433.8 -07.5101 26272.3
 22 04 2013  02 19  -21.0324 26046.8 -03433.8 -07.5101 26272.1
 22 04 2013  02 20  -21.0327 26046.6 -03433.7 -07.5099 26271.9
 22 04 2013  02 21  -21.0327 26046.6 -03433.7 -07.5099 26272.0
 22 04 2013  02 22  -21.0331 26046.3 -03433.6 -07.5097 26271.7
 22 04 2013  02 23  -21.0330 26046.0 -03433.4 -07.5095 26271.4
 22 04 2013  02 24  -21.0330 26046.0 -03433.4 -07.5094 26271.4
 22 04 2013  02 25  -21.0332 26045.6 -03433.2 -07.5092 26270.9
 22 04 2013  02 26  -21.0332 26045.5 -03433.2 -07.5091 26270.8
 22 04 2013  02 27  -21.0332 26045.6 -03433.2 -07.5092 26270.9
 22 04 2013  02 28  -21.0330 26045.9 -03433.4 -07.5095 26271.2
 22 04 2013  02 29  -21.0331 26045.8 -03433.4 -07.5095 26271.1
 22 04 2013  02 30  -21.0332 26045.8 -03433.4 -07.5095 26271.1
 22 04 2013  02 31  -21.0330 26046.0 -03433.5 -07.5096 26271.3
 22 04 2013  02 32  -21.0330 26046.1 -03433.6 -07.5098 26271.4
 22 04 2013  02 33  -21.0332 26045.9 -03433.5 -07.5097 26271.2
 22 04 2013  02 34  -21.0331 26045.8 -03433.4 -07.5096 26271.2
 22 04 2013  02 35  -21.0329 26046.0 -03433.5 -07.5097 26271.3
 22 04 2013  02 36  -21.0329 26045.9 -03433.4 -07.5096 26271.2
 22 04 2013  02 37  -21.0329 26045.6 -03433.3 -07.5094 26270.9
 22 04 2013  02 38  -21.0327 26045.5 -03433.2 -07.5093 26270.8
 22 04 2013  02 39  -21.0328 26045.1 -03433.1 -07.5091 26270.4
 22 04 2013  02 40  -21.0330 26044.7 -03432.9 -07.5087 26269.9
 22 04 2013  02 41  -21.0331 26044.4 -03432.7 -07.5085 26269.6
 22 04 2013  02 42  -21.0332 26044.1 -03432.7 -07.5084 26269.4
 22 04 2013  02 43  -21.0333 26044.0 -03432.6 -07.5083 26269.2
 22 04 2013  02 44  -21.0333 26043.8 -03432.6 -07.5083 26269.0
 22 04 2013  02 45  -21.0333 26043.6 -03432.5 -07.5082 26268.8
 22 04 2013  02 46  -21.0331 26043.5 -03432.5 -07.5082 26268.8
 22 04 2013  02 47  -21.0331 26043.4 -03432.5 -07.5082 26268.6
 22 04 2013  02 48  -21.0334 26043.2 -03432.4 -07.5081 26268.4
 22 04 2013  02 49  -21.0333 26043.2 -03432.4 -07.5082 26268.4
 22 04 2013  02 50  -21.0332 26043.1 -03432.4 -07.5082 26268.3
 22 04 2013  02 51  -21.0333 26042.9 -03432.4 -07.5081 26268.1
 22 04 2013  02 52  -21.0331 26042.8 -03432.4 -07.5081 26268.1
 22 04 2013  02 53  -21.0332 26042.8 -03432.4 -07.5081 26268.0
 22 04 2013  02 54  -21.0333 26042.6 -03432.3 -07.5081 26267.8
 22 04 2013  02 55  -21.0333 26042.5 -03432.3 -07.5081 26267.7
 22 04 2013  02 56  -21.0333 26042.5 -03432.4 -07.5082 26267.7
 22 04 2013  02 57  -21.0331 26042.3 -03432.3 -07.5081 26267.5
 22 04 2013  02 58  -21.0334 26042.1 -03432.3 -07.5081 26267.3
 22 04 2013  02 59  -21.0333 26042.0 -03432.2 -07.5080 26267.2
 22 04 2013  03 00  -21.0335 26041.8 -03432.2 -07.5080 26267.0
 22 04 2013  03 01  -21.0338 26041.6 -03432.1 -07.5079 26266.8
 22 04 2013  03 02  -21.0339 26041.6 -03432.1 -07.5080 26266.8
 22 04 2013  03 03  -21.0337 26041.6 -03432.2 -07.5081 26266.8
 22 04 2013  03 04  -21.0338 26041.4 -03432.2 -07.5081 26266.6
 22 04 2013  03 05  -21.0340 26041.3 -03432.1 -07.5080 26266.5
 22 04 2013  03 06  -21.0340 26041.3 -03432.2 -07.5081 26266.5
 22 04 2013  03 07  -21.0339 26041.3 -03432.2 -07.5082 26266.5
 22 04 2013  03 08  -21.0341 26041.2 -03432.2 -07.5083 26266.4
 22 04 2013  03 09  -21.0341 26041.2 -03432.3 -07.5084 26266.4
 22 04 2013  03 10  -21.0343 26041.1 -03432.3 -07.5085 26266.4
 22 04 2013  03 11  -21.0345 26041.0 -03432.3 -07.5085 26266.2
 22 04 2013  03 12  -21.0346 26040.8 -03432.3 -07.5085 26266.1
 22 04 2013  03 13  -21.0348 26040.7 -03432.2 -07.5084 26265.9
 22 04 2013  03 14  -21.0349 26040.5 -03432.2 -07.5084 26265.7
 22 04 2013  03 15  -21.0350 26040.3 -03432.2 -07.5084 26265.5
 22 04 2013  03 16  -21.0352 26040.2 -03432.1 -07.5083 26265.4
 22 04 2013  03 17  -21.0354 26040.2 -03432.1 -07.5084 26265.4
 22 04 2013  03 18  -21.0355 26040.2 -03432.2 -07.5085 26265.4
 22 04 2013  03 19  -21.0355 26040.3 -03432.3 -07.5087 26265.5
 22 04 2013  03 20  -21.0354 26040.2 -03432.3 -07.5087 26265.4
 22 04 2013  03 21  -21.0355 26040.1 -03432.3 -07.5087 26265.3
 22 04 2013  03 22  -21.0355 26039.9 -03432.2 -07.5086 26265.2
 22 04 2013  03 23  -21.0357 26039.8 -03432.2 -07.5086 26265.0
 22 04 2013  03 24  -21.0359 26039.6 -03432.1 -07.5086 26264.8
 22 04 2013  03 25  -21.0361 26039.4 -03432.1 -07.5085 26264.7
 22 04 2013  03 26  -21.0361 26039.3 -03432.1 -07.5085 26264.6
 22 04 2013  03 27  -21.0363 26039.2 -03432.1 -07.5085 26264.4
 22 04 2013  03 28  -21.0362 26039.3 -03432.2 -07.5087 26264.5
 22 04 2013  03 29  -21.0360 26039.7 -03432.4 -07.5090 26264.9
 22 04 2013  03 30  -21.0361 26039.2 -03432.3 -07.5089 26264.5
 22 04 2013  03 31  -21.0353 26039.8 -03432.5 -07.5093 26265.1
 22 04 2013  03 32  -21.0358 26039.4 -03432.5 -07.5093 26264.7
 22 04 2013  03 33  -21.0357 26039.0 -03432.3 -07.5090 26264.2
 22 04 2013  03 34  -21.0356 26039.2 -03432.4 -07.5092 26264.4
 22 04 2013  03 35  -21.0358 26039.0 -03432.4 -07.5093 26264.3
 22 04 2013  03 36  -21.0350 26039.8 -03432.7 -07.5098 26265.0
 22 04 2013  03 37  -21.0358 26039.1 -03432.6 -07.5098 26264.3
 22 04 2013  03 38  -21.0353 26039.6 -03432.8 -07.5100 26264.9
 22 04 2013  03 39  -21.0356 26039.8 -03433.1 -07.5105 26265.2
 22 04 2013  03 40  -21.0354 26039.7 -03433.0 -07.5104 26265.0
 22 04 2013  03 41  -21.0353 26039.8 -03433.1 -07.5106 26265.2
 22 04 2013  03 42  -21.0351 26039.8 -03433.1 -07.5105 26265.1
 22 04 2013  03 43  -21.0353 26039.9 -03433.2 -07.5107 26265.2
 22 04 2013  03 44  -21.0355 26039.9 -03433.2 -07.5108 26265.3
 22 04 2013  03 45  -21.0359 26039.9 -03433.3 -07.5109 26265.2
 22 04 2013  03 46  -21.0358 26039.7 -03433.2 -07.5108 26265.1
 22 04 2013  03 47  -21.0359 26039.8 -03433.3 -07.5109 26265.2
 22 04 2013  03 48  -21.0362 26039.7 -03433.3 -07.5109 26265.0
 22 04 2013  03 49  -21.0356 26040.0 -03433.3 -07.5110 26265.4
 22 04 2013  03 50  -21.0353 26040.8 -03433.8 -07.5118 26266.3
 22 04 2013  03 51  -21.0355 26040.4 -03433.7 -07.5117 26265.8
 22 04 2013  03 52  -21.0355 26040.6 -03433.8 -07.5118 26266.1
 22 04 2013  03 53  -21.0353 26040.9 -03433.9 -07.5120 26266.3
 22 04 2013  03 54  -21.0352 26040.9 -03433.9 -07.5120 26266.3
 22 04 2013  03 55  -21.0353 26040.7 -03433.9 -07.5119 26266.2
 22 04 2013  03 56  -21.0353 26040.9 -03433.9 -07.5121 26266.4
 22 04 2013  03 57  -21.0355 26040.9 -03434.0 -07.5122 26266.3
 22 04 2013  03 58  -21.0358 26041.2 -03434.1 -07.5124 26266.6
 22 04 2013  03 59  -21.0361 26041.3 -03434.2 -07.5126 26266.8
 22 04 2013  04 00  -21.0362 26041.2 -03434.2 -07.5125 26266.7
 22 04 2013  04 01  -21.0362 26041.2 -03434.1 -07.5124 26266.7
 22 04 2013  04 02  -21.0365 26041.6 -03434.3 -07.5127 26267.0
 22 04 2013  04 03  -21.0362 26041.7 -03434.4 -07.5128 26267.2
 22 04 2013  04 04  -21.0366 26041.2 -03434.2 -07.5125 26266.7
 22 04 2013  04 05  -21.0361 26041.7 -03434.4 -07.5127 26267.2
 22 04 2013  04 06  -21.0362 26041.7 -03434.4 -07.5128 26267.2
 22 04 2013  04 07  -21.0361 26041.6 -03434.3 -07.5127 26267.1
 22 04 2013  04 08  -21.0358 26041.8 -03434.4 -07.5128 26267.3
 22 04 2013  04 09  -21.0358 26042.0 -03434.5 -07.5130 26267.5
 22 04 2013  04 10  -21.0358 26041.6 -03434.3 -07.5127 26267.0
 22 04 2013  04 11  -21.0356 26041.7 -03434.3 -07.5127 26267.2
 22 04 2013  04 12  -21.0358 26041.9 -03434.4 -07.5129 26267.4
 22 04 2013  04 13  -21.0355 26041.7 -03434.3 -07.5126 26267.1
 22 04 2013  04 14  -21.0353 26042.1 -03434.5 -07.5130 26267.6
 22 04 2013  04 15  -21.0347 26042.8 -03434.9 -07.5136 26268.4
 22 04 2013  04 16  -21.0350 26042.1 -03434.6 -07.5132 26267.7
 22 04 2013  04 17  -21.0346 26042.1 -03434.5 -07.5130 26267.6
 22 04 2013  04 18  -21.0346 26042.4 -03434.7 -07.5132 26267.9
 22 04 2013  04 19  -21.0352 26041.8 -03434.4 -07.5129 26267.3
 22 04 2013  04 20  -21.0355 26042.1 -03434.5 -07.5129 26267.6
 22 04 2013  04 21  -21.0356 26042.3 -03434.6 -07.5132 26267.8
 22 04 2013  04 22  -21.0354 26042.0 -03434.5 -07.5129 26267.5
 22 04 2013  04 23  -21.0353 26042.2 -03434.5 -07.5129 26267.7
 22 04 2013  04 24  -21.0355 26042.9 -03434.8 -07.5135 26268.4
 22 04 2013  04 25  -21.0353 26042.7 -03434.8 -07.5134 26268.2
 22 04 2013  04 26  -21.0350 26043.0 -03434.8 -07.5134 26268.5
 22 04 2013  04 27  -21.0347 26043.7 -03435.1 -07.5139 26269.3
 22 04 2013  04 28  -21.0349 26043.9 -03435.3 -07.5141 26269.5
 22 04 2013  04 29  -21.0350 26043.8 -03435.2 -07.5140 26269.4
 22 04 2013  04 30  -21.0350 26043.9 -03435.2 -07.5140 26269.5
 22 04 2013  04 31  -21.0349 26044.1 -03435.3 -07.5140 26269.7
 22 04 2013  04 32  -21.0349 26044.1 -03435.2 -07.5140 26269.7
 22 04 2013  04 33  -21.0352 26044.2 -03435.2 -07.5139 26269.8
 22 04 2013  04 34  -21.0355 26043.9 -03435.1 -07.5137 26269.5
 22 04 2013  04 35  -21.0355 26043.9 -03435.0 -07.5135 26269.4
 22 04 2013  04 36  -21.0358 26043.8 -03434.9 -07.5134 26269.4
 22 04 2013  04 37  -21.0360 26043.5 -03434.8 -07.5131 26269.1
 22 04 2013  04 38  -21.0360 26043.5 -03434.7 -07.5129 26269.1
 22 04 2013  04 39  -21.0362 26043.7 -03434.7 -07.5129 26269.2
 22 04 2013  04 40  -21.0361 26043.9 -03434.8 -07.5130 26269.4
 22 04 2013  04 41  -21.0359 26044.1 -03434.8 -07.5131 26269.6
 22 04 2013  04 42  -21.0360 26044.2 -03434.9 -07.5132 26269.7
 22 04 2013  04 43  -21.0361 26044.3 -03434.9 -07.5133 26269.9
 22 04 2013  04 44  -21.0362 26044.5 -03435.0 -07.5133 26270.0
 22 04 2013  04 45  -21.0359 26044.6 -03435.0 -07.5133 26270.2
 22 04 2013  04 46  -21.0359 26044.6 -03435.0 -07.5133 26270.1
 22 04 2013  04 47  -21.0360 26044.6 -03434.9 -07.5132 26270.1
 22 04 2013  04 48  -21.0362 26044.7 -03435.0 -07.5132 26270.3
 22 04 2013  04 49  -21.0363 26044.7 -03434.9 -07.5131 26270.3
 22 04 2013  04 50  -21.0361 26044.7 -03434.9 -07.5130 26270.2
 22 04 2013  04 51  -21.0357 26044.9 -03434.9 -07.5130 26270.4
 22 04 2013  04 52  -21.0357 26044.9 -03434.9 -07.5130 26270.4
 22 04 2013  04 53  -21.0355 26044.9 -03434.9 -07.5130 26270.5
 22 04 2013  04 54  -21.0352 26045.1 -03434.9 -07.5130 26270.6
 22 04 2013  04 55  -21.0348 26045.2 -03435.0 -07.5131 26270.7
 22 04 2013  04 56  -21.0348 26045.2 -03434.9 -07.5130 26270.7
 22 04 2013  04 57  -21.0348 26045.3 -03434.9 -07.5130 26270.8
 22 04 2013  04 58  -21.0348 26045.4 -03435.0 -07.5131 26270.9
 22 04 2013  04 59  -21.0347 26045.3 -03434.9 -07.5130 26270.9
 22 04 2013  05 00  -21.0348 26045.4 -03434.9 -07.5129 26270.9
 22 04 2013  05 01  -21.0346 26045.5 -03435.0 -07.5130 26271.0
 22 04 2013  05 02  -21.0347 26045.5 -03435.0 -07.5130 26271.0
 22 04 2013  05 03  -21.0346 26045.5 -03434.9 -07.5129 26271.0
 22 04 2013  05 04  -21.0345 26045.5 -03434.9 -07.5128 26271.0
 22 04 2013  05 05  -21.0346 26045.4 -03434.8 -07.5127 26270.9
 22 04 2013  05 06  -21.0348 26045.1 -03434.6 -07.5124 26270.6
 22 04 2013  05 07  -21.0350 26044.8 -03434.5 -07.5122 26270.3
 22 04 2013  05 08  -21.0351 26044.8 -03434.5 -07.5122 26270.3
 22 04 2013  05 09  -21.0349 26044.6 -03434.4 -07.5120 26270.1
 22 04 2013  05 10  -21.0346 26044.8 -03434.4 -07.5120 26270.2
 22 04 2013  05 11  -21.0344 26045.0 -03434.5 -07.5122 26270.4
 22 04 2013  05 12  -21.0343 26045.0 -03434.6 -07.5123 26270.5
 22 04 2013  05 13  -21.0341 26045.1 -03434.6 -07.5123 26270.6
 22 04 2013  05 14  -21.0337 26045.3 -03434.7 -07.5125 26270.8
 22 04 2013  05 15  -21.0334 26045.4 -03434.8 -07.5125 26270.9
 22 04 2013  05 16  -21.0333 26045.5 -03434.8 -07.5126 26271.0
 22 04 2013  05 17  -21.0332 26045.6 -03434.9 -07.5127 26271.2
 22 04 2013  05 18  -21.0330 26045.7 -03434.9 -07.5128 26271.3
 22 04 2013  05 19  -21.0330 26045.7 -03434.9 -07.5127 26271.2
 22 04 2013  05 20  -21.0327 26045.8 -03434.9 -07.5128 26271.3
 22 04 2013  05 21  -21.0325 26045.9 -03435.0 -07.5128 26271.4
 22 04 2013  05 22  -21.0325 26046.0 -03435.0 -07.5128 26271.5
 22 04 2013  05 23  -21.0323 26045.9 -03434.9 -07.5128 26271.5
 22 04 2013  05 24  -21.0323 26046.1 -03434.9 -07.5127 26271.6
 22 04 2013  05 25  -21.0323 26046.2 -03435.0 -07.5129 26271.7
 22 04 2013  05 26  -21.0321 26046.1 -03435.0 -07.5129 26271.6
 22 04 2013  05 27  -21.0319 26046.0 -03434.9 -07.5128 26271.5
 22 04 2013  05 28  -21.0317 26046.0 -03434.9 -07.5126 26271.5
 22 04 2013  05 29  -21.0315 26046.0 -03434.9 -07.5126 26271.5
 22 04 2013  05 30  -21.0315 26046.0 -03434.9 -07.5127 26271.5
 22 04 2013  05 31  -21.0313 26045.9 -03434.8 -07.5125 26271.4
 22 04 2013  05 32  -21.0310 26046.0 -03434.8 -07.5126 26271.5
 22 04 2013  05 33  -21.0308 26046.1 -03434.9 -07.5126 26271.6
 22 04 2013  05 34  -21.0307 26046.0 -03434.8 -07.5126 26271.5
 22 04 2013  05 35  -21.0307 26046.0 -03434.8 -07.5126 26271.5
 22 04 2013  05 36  -21.0306 26046.0 -03434.8 -07.5125 26271.5
 22 04 2013  05 37  -21.0303 26045.9 -03434.8 -07.5125 26271.4
 22 04 2013  05 38  -21.0302 26045.9 -03434.8 -07.5125 26271.4
 22 04 2013  05 39  -21.0301 26045.9 -03434.7 -07.5124 26271.4
 22 04 2013  05 40  -21.0302 26045.8 -03434.7 -07.5124 26271.3
 22 04 2013  05 41  -21.0301 26045.9 -03434.7 -07.5124 26271.4
 22 04 2013  05 42  -21.0300 26045.8 -03434.8 -07.5125 26271.3
 22 04 2013  05 43  -21.0302 26045.8 -03434.7 -07.5124 26271.3
 22 04 2013  05 44  -21.0303 26045.7 -03434.7 -07.5124 26271.1
 22 04 2013  05 45  -21.0304 26045.7 -03434.7 -07.5124 26271.2
 22 04 2013  05 46  -21.0305 26045.8 -03434.8 -07.5125 26271.3
 22 04 2013  05 47  -21.0306 26045.8 -03434.8 -07.5125 26271.3
 22 04 2013  05 48  -21.0303 26045.9 -03434.8 -07.5126 26271.4
 22 04 2013  05 49  -21.0300 26046.0 -03434.9 -07.5126 26271.5
 22 04 2013  05 50  -21.0299 26045.8 -03434.8 -07.5125 26271.3
 22 04 2013  05 51  -21.0297 26045.8 -03434.8 -07.5125 26271.3
 22 04 2013  05 52  -21.0294 26045.8 -03434.8 -07.5124 26271.3
 22 04 2013  05 53  -21.0295 26045.7 -03434.7 -07.5124 26271.2
 22 04 2013  05 54  -21.0292 26045.7 -03434.7 -07.5124 26271.2
 22 04 2013  05 55  -21.0293 26045.7 -03434.8 -07.5125 26271.2
 22 04 2013  05 56  -21.0291 26045.5 -03434.7 -07.5123 26270.9
 22 04 2013  05 57  -21.0290 26045.6 -03434.7 -07.5124 26271.1
 22 04 2013  05 58  -21.0290 26045.7 -03434.8 -07.5125 26271.2
 22 04 2013  05 59  -21.0288 26045.6 -03434.8 -07.5125 26271.1
 22 04 2013  06 00  -21.0288 26045.6 -03434.8 -07.5126 26271.1
 22 04 2013  06 01  -21.0289 26045.7 -03434.9 -07.5127 26271.2
 22 04 2013  06 02  -21.0289 26045.8 -03434.9 -07.5128 26271.4
 22 04 2013  06 03  -21.0288 26046.0 -03435.0 -07.5130 26271.5
 22 04 2013  06 04  -21.0288 26046.2 -03435.1 -07.5131 26271.7
 22 04 2013  06 05  -21.0289 26046.1 -03435.1 -07.5131 26271.6
 22 04 2013  06 06  -21.0286 26046.1 -03435.1 -07.5130 26271.6
 22 04 2013  06 07  -21.0286 26046.1 -03435.1 -07.5131 26271.6
 22 04 2013  06 08  -21.0287 26046.1 -03435.1 -07.5131 26271.7
 22 04 2013  06 09  -21.0286 26046.0 -03435.1 -07.5131 26271.6
 22 04 2013  06 10  -21.0287 26045.9 -03435.0 -07.5129 26271.4
 22 04 2013  06 11  -21.0287 26045.9 -03434.9 -07.5128 26271.4
 22 04 2013  06 12  -21.0288 26045.9 -03435.0 -07.5129 26271.5
 22 04 2013  06 13  -21.0289 26045.8 -03435.0 -07.5129 26271.3
 22 04 2013  06 14  -21.0287 26045.6 -03434.8 -07.5127 26271.1
 22 04 2013  06 15  -21.0287 26045.6 -03434.8 -07.5127 26271.2
 22 04 2013  06 16  -21.0291 26045.5 -03434.8 -07.5127 26271.1
 22 04 2013  06 17  -21.0293 26045.5 -03434.8 -07.5127 26271.0
 22 04 2013  06 18  -21.0295 26045.6 -03434.9 -07.5128 26271.1
 22 04 2013  06 19  -21.0296 26045.5 -03434.8 -07.5127 26271.0
 22 04 2013  06 20  -21.0296 26045.3 -03434.8 -07.5126 26270.8
 22 04 2013  06 21  -21.0295 26045.3 -03434.8 -07.5126 26270.8
 22 04 2013  06 22  -21.0294 26045.2 -03434.7 -07.5126 26270.7
 22 04 2013  06 23  -21.0293 26045.3 -03434.7 -07.5126 26270.8
 22 04 2013  06 24  -21.0294 26045.5 -03434.9 -07.5129 26271.1
 22 04 2013  06 25  -21.0295 26045.5 -03434.9 -07.5129 26271.0
 22 04 2013  06 26  -21.0295 26045.6 -03435.0 -07.5130 26271.1
 22 04 2013  06 27  -21.0298 26045.7 -03435.1 -07.5132 26271.3
 22 04 2013  06 28  -21.0300 26045.6 -03435.1 -07.5131 26271.2
 22 04 2013  06 29  -21.0298 26045.4 -03434.9 -07.5129 26270.9
 22 04 2013  06 30  -21.0300 26045.4 -03434.9 -07.5128 26270.9
 22 04 2013  06 31  -21.0301 26045.3 -03434.9 -07.5128 26270.9
 22 04 2013  06 32  -21.0302 26045.3 -03434.9 -07.5128 26270.8
 22 04 2013  06 33  -21.0302 26045.4 -03434.9 -07.5128 26270.9
 22 04 2013  06 34  -21.0303 26045.5 -03435.0 -07.5130 26271.0
 22 04 2013  06 35  -21.0304 26045.6 -03435.0 -07.5130 26271.1
 22 04 2013  06 36  -21.0303 26045.7 -03435.1 -07.5131 26271.2
 22 04 2013  06 37  -21.0302 26045.7 -03435.1 -07.5132 26271.2
 22 04 2013  06 38  -21.0300 26045.8 -03435.1 -07.5132 26271.3
 22 04 2013  06 39  -21.0300 26045.9 -03435.2 -07.5134 26271.5
 22 04 2013  06 40  -21.0301 26046.0 -03435.3 -07.5135 26271.6
 22 04 2013  06 41  -21.0300 26046.0 -03435.2 -07.5134 26271.6
 22 04 2013  06 42  -21.0300 26046.1 -03435.3 -07.5136 26271.7
 22 04 2013  06 43  -21.0301 26046.2 -03435.4 -07.5137 26271.8
 22 04 2013  06 44  -21.0301 26046.2 -03435.4 -07.5137 26271.8
 22 04 2013  06 45  -21.0302 26046.2 -03435.4 -07.5136 26271.8
 22 04 2013  06 46  -21.0304 26046.0 -03435.3 -07.5135 26271.6
 22 04 2013  06 47  -21.0304 26045.9 -03435.2 -07.5134 26271.4
 22 04 2013  06 48  -21.0308 26045.9 -03435.2 -07.5134 26271.4
 22 04 2013  06 49  -21.0310 26045.8 -03435.2 -07.5133 26271.3
 22 04 2013  06 50  -21.0311 26045.9 -03435.2 -07.5134 26271.5
 22 04 2013  06 51  -21.0312 26045.8 -03435.2 -07.5133 26271.4
 22 04 2013  06 52  -21.0313 26045.7 -03435.1 -07.5132 26271.2
 22 04 2013  06 53  -21.0312 26045.8 -03435.1 -07.5132 26271.3
 22 04 2013  06 54  -21.0313 26046.0 -03435.2 -07.5133 26271.5
 22 04 2013  06 55  -21.0313 26046.1 -03435.3 -07.5135 26271.7
 22 04 2013  06 56  -21.0313 26046.2 -03435.3 -07.5135 26271.8
 22 04 2013  06 57  -21.0313 26046.3 -03435.3 -07.5136 26271.9
 22 04 2013  06 58  -21.0310 26046.4 -03435.4 -07.5136 26272.0
 22 04 2013  06 59  -21.0310 26046.3 -03435.3 -07.5136 26271.9
 22 04 2013  07 00  -21.0310 26046.3 -03435.3 -07.5134 26271.8
 22 04 2013  07 01  -21.0309 26046.4 -03435.4 -07.5136 26272.0
 22 04 2013  07 02  -21.0309 26046.4 -03435.4 -07.5136 26272.0
 22 04 2013  07 03  -21.0309 26046.3 -03435.3 -07.5135 26271.9
 22 04 2013  07 04  -21.0308 26046.2 -03435.2 -07.5133 26271.8
 22 04 2013  07 05  -21.0308 26046.3 -03435.3 -07.5134 26271.9
 22 04 2013  07 06  -21.0311 26046.3 -03435.3 -07.5134 26271.8
 22 04 2013  07 07  -21.0310 26046.1 -03435.2 -07.5133 26271.7
 22 04 2013  07 08  -21.0309 26046.2 -03435.2 -07.5133 26271.7
 22 04 2013  07 09  -21.0308 26046.1 -03435.1 -07.5131 26271.7
 22 04 2013  07 10  -21.0306 26046.1 -03435.1 -07.5132 26271.6
 22 04 2013  07 11  -21.0306 26046.3 -03435.3 -07.5134 26271.9
 22 04 2013  07 12  -21.0306 26046.3 -03435.4 -07.5136 26271.9
 22 04 2013  07 13  -21.0304 26046.1 -03435.2 -07.5134 26271.7
 22 04 2013  07 14  -21.0303 26046.1 -03435.2 -07.5133 26271.7
 22 04 2013  07 15  -21.0303 26046.2 -03435.3 -07.5134 26271.8
 22 04 2013  07 16  -21.0304 26046.2 -03435.3 -07.5134 26271.7
 22 04 2013  07 17  -21.0304 26046.2 -03435.3 -07.5135 26271.7
 22 04 2013  07 18  -21.0305 26046.1 -03435.3 -07.5135 26271.7
 22 04 2013  07 19  -21.0304 26046.2 -03435.3 -07.5135 26271.8
 22 04 2013  07 20  -21.0304 26046.2 -03435.3 -07.5135 26271.8
 22 04 2013  07 21  -21.0303 26046.2 -03435.3 -07.5136 26271.7
 22 04 2013  07 22  -21.0303 26046.2 -03435.3 -07.5135 26271.8
 22 04 2013  07 23  -21.0302 26046.2 -03435.3 -07.5135 26271.8
 22 04 2013  07 24  -21.0302 26046.1 -03435.2 -07.5134 26271.6
 22 04 2013  07 25  -21.0303 26046.0 -03435.2 -07.5134 26271.5
 22 04 2013  07 26  -21.0303 26046.0 -03435.3 -07.5135 26271.5
 22 04 2013  07 27  -21.0304 26046.3 -03435.4 -07.5137 26271.8
 22 04 2013  07 28  -21.0305 26046.7 -03435.7 -07.5142 26272.3
 22 04 2013  07 29  -21.0303 26046.7 -03435.6 -07.5141 26272.3
 22 04 2013  07 30  -21.0299 26047.0 -03435.7 -07.5142 26272.7
 22 04 2013  07 31  -21.0297 26047.4 -03435.9 -07.5145 26273.0
 22 04 2013  07 32  -21.0294 26047.5 -03436.0 -07.5146 26273.1
 22 04 2013  07 33  -21.0290 26047.5 -03436.0 -07.5146 26273.2
 22 04 2013  07 34  -21.0290 26047.3 -03435.9 -07.5145 26273.0
 22 04 2013  07 35  -21.0287 26047.3 -03435.8 -07.5143 26272.9
 22 04 2013  07 36  -21.0285 26047.4 -03435.9 -07.5144 26273.1
 22 04 2013  07 37  -21.0285 26047.4 -03435.8 -07.5143 26273.0
 22 04 2013  07 38  -21.0284 26047.2 -03435.7 -07.5141 26272.9
 22 04 2013  07 39  -21.0284 26047.1 -03435.6 -07.5140 26272.7
 22 04 2013  07 40  -21.0285 26047.0 -03435.7 -07.5140 26272.6
 22 04 2013  07 41  -21.0287 26047.0 -03435.6 -07.5140 26272.6
 22 04 2013  07 42  -21.0288 26047.0 -03435.6 -07.5140 26272.6
 22 04 2013  07 43  -21.0289 26047.1 -03435.7 -07.5140 26272.7
 22 04 2013  07 44  -21.0290 26047.0 -03435.6 -07.5140 26272.6
 22 04 2013  07 45  -21.0290 26047.0 -03435.6 -07.5139 26272.6
 22 04 2013  07 46  -21.0289 26047.0 -03435.6 -07.5139 26272.6
 22 04 2013  07 47  -21.0286 26046.9 -03435.6 -07.5139 26272.5
 22 04 2013  07 48  -21.0285 26046.9 -03435.6 -07.5139 26272.5
 22 04 2013  07 49  -21.0284 26047.0 -03435.6 -07.5140 26272.6
 22 04 2013  07 50  -21.0284 26046.7 -03435.5 -07.5138 26272.3
 22 04 2013  07 51  -21.0282 26046.1 -03435.2 -07.5133 26271.7
 22 04 2013  07 52  -21.0284 26046.0 -03435.2 -07.5133 26271.6
 22 04 2013  07 53  -21.0290 26046.2 -03435.3 -07.5135 26271.7
 22 04 2013  07 54  -21.0291 26046.1 -03435.3 -07.5134 26271.7
 22 04 2013  07 55  -21.0292 26046.0 -03435.2 -07.5133 26271.5
 22 04 2013  07 56  -21.0295 26045.9 -03435.1 -07.5133 26271.4
 22 04 2013  07 57  -21.0296 26045.9 -03435.2 -07.5133 26271.4
 22 04 2013  07 58  -21.0297 26045.9 -03435.2 -07.5133 26271.4
 22 04 2013  07 59  -21.0297 26045.9 -03435.2 -07.5133 26271.4
 22 04 2013  08 00  -21.0297 26045.9 -03435.2 -07.5133 26271.4
 22 04 2013  08 01  -21.0296 26045.9 -03435.2 -07.5134 26271.5
 22 04 2013  08 02  -21.0295 26045.9 -03435.2 -07.5134 26271.4
 22 04 2013  08 03  -21.0297 26045.9 -03435.2 -07.5135 26271.5
 22 04 2013  08 04  -21.0295 26045.9 -03435.2 -07.5134 26271.4
 22 04 2013  08 05  -21.0296 26045.8 -03435.2 -07.5135 26271.4
 22 04 2013  08 06  -21.0296 26045.8 -03435.3 -07.5135 26271.4
 22 04 2013  08 07  -21.0296 26045.9 -03435.3 -07.5135 26271.4
 22 04 2013  08 08  -21.0296 26045.9 -03435.3 -07.5136 26271.4
 22 04 2013  08 09  -21.0295 26045.8 -03435.3 -07.5135 26271.4
 22 04 2013  08 10  -21.0294 26045.7 -03435.3 -07.5135 26271.3
 22 04 2013  08 11  -21.0293 26045.7 -03435.2 -07.5135 26271.2
 22 04 2013  08 12  -21.0293 26045.6 -03435.2 -07.5135 26271.2
 22 04 2013  08 13  -21.0294 26045.7 -03435.3 -07.5136 26271.2
 22 04 2013  08 14  -21.0294 26045.7 -03435.3 -07.5136 26271.2
 22 04 2013  08 15  -21.0293 26045.6 -03435.2 -07.5135 26271.2
 22 04 2013  08 16  -21.0295 26045.6 -03435.3 -07.5136 26271.2
 22 04 2013  08 17  -21.0294 26045.6 -03435.3 -07.5136 26271.2
 22 04 2013  08 18  -21.0292 26045.6 -03435.3 -07.5137 26271.2
 22 04 2013  08 19  -21.0290 26045.6 -03435.3 -07.5137 26271.2
 22 04 2013  08 20  -21.0288 26045.6 -03435.3 -07.5137 26271.2
 22 04 2013  08 21  -21.0283 26045.7 -03435.4 -07.5138 26271.3
 22 04 2013  08 22  -21.0280 26045.9 -03435.5 -07.5139 26271.5
 22 04 2013  08 23  -21.0276 26045.9 -03435.5 -07.5139 26271.5
 22 04 2013  08 24  -21.0273 26045.8 -03435.4 -07.5138 26271.4
 22 04 2013  08 25  -21.0271 26045.8 -03435.5 -07.5140 26271.4
 22 04 2013  08 26  -21.0271 26045.7 -03435.5 -07.5141 26271.3
 22 04 2013  08 27  -21.0271 26045.6 -03435.5 -07.5141 26271.2
 22 04 2013  08 28  -21.0272 26045.6 -03435.5 -07.5142 26271.2
 22 04 2013  08 29  -21.0276 26045.5 -03435.5 -07.5142 26271.1
 22 04 2013  08 30  -21.0278 26045.5 -03435.6 -07.5143 26271.1
 22 04 2013  08 31  -21.0280 26045.5 -03435.6 -07.5144 26271.2
 22 04 2013  08 32  -21.0278 26045.4 -03435.6 -07.5143 26271.1
 22 04 2013  08 33  -21.0277 26045.3 -03435.5 -07.5141 26270.9
 22 04 2013  08 34  -21.0276 26045.4 -03435.5 -07.5142 26271.0
 22 04 2013  08 35  -21.0276 26045.4 -03435.5 -07.5143 26271.0
 22 04 2013  08 36  -21.0273 26045.5 -03435.6 -07.5143 26271.1
 22 04 2013  08 37  -21.0269 26045.7 -03435.7 -07.5145 26271.3
 22 04 2013  08 38  -21.0262 26045.7 -03435.7 -07.5145 26271.4
 22 04 2013  08 39  -21.0254 26045.7 -03435.7 -07.5144 26271.4
 22 04 2013  08 40  -21.0250 26045.7 -03435.7 -07.5144 26271.4
 22 04 2013  08 41  -21.0248 26045.8 -03435.8 -07.5147 26271.4
 22 04 2013  08 42  -21.0242 26045.8 -03435.9 -07.5149 26271.5
 22 04 2013  08 43  -21.0237 26045.9 -03436.0 -07.5151 26271.6
 22 04 2013  08 44  -21.0233 26045.9 -03436.1 -07.5152 26271.6
 22 04 2013  08 45  -21.0231 26045.9 -03436.1 -07.5154 26271.6
 22 04 2013  08 46  -21.0230 26045.9 -03436.2 -07.5156 26271.6
 22 04 2013  08 47  -21.0227 26046.0 -03436.4 -07.5158 26271.7
 22 04 2013  08 48  -21.0227 26046.0 -03436.4 -07.5160 26271.7
 22 04 2013  08 49  -21.0226 26046.0 -03436.5 -07.5161 26271.7
 22 04 2013  08 50  -21.0226 26046.0 -03436.6 -07.5163 26271.7
 22 04 2013  08 51  -21.0225 26046.0 -03436.6 -07.5163 26271.7
 22 04 2013  08 52  -21.0223 26045.9 -03436.5 -07.5162 26271.6
 22 04 2013  08 53  -21.0224 26045.8 -03436.6 -07.5165 26271.5
 22 04 2013  08 54  -21.0226 26045.7 -03436.6 -07.5165 26271.4
 22 04 2013  08 55  -21.0228 26045.6 -03436.6 -07.5166 26271.4
 22 04 2013  08 56  -21.0230 26045.6 -03436.7 -07.5167 26271.3
 22 04 2013  08 57  -21.0231 26045.4 -03436.7 -07.5168 26271.2
 22 04 2013  08 58  -21.0232 26045.3 -03436.7 -07.5167 26271.0
 22 04 2013  08 59  -21.0232 26045.2 -03436.6 -07.5167 26270.9
 22 04 2013  09 00  -21.0234 26045.0 -03436.6 -07.5167 26270.8
 22 04 2013  09 01  -21.0235 26044.9 -03436.6 -07.5167 26270.7
 22 04 2013  09 02  -21.0237 26044.8 -03436.6 -07.5167 26270.5
 22 04 2013  09 03  -21.0239 26044.7 -03436.6 -07.5168 26270.4
 22 04 2013  09 04  -21.0240 26044.6 -03436.6 -07.5169 26270.4
 22 04 2013  09 05  -21.0239 26044.6 -03436.7 -07.5170 26270.4
 22 04 2013  09 06  -21.0238 26044.6 -03436.7 -07.5170 26270.3
 22 04 2013  09 07  -21.0236 26044.6 -03436.7 -07.5170 26270.4
 22 04 2013  09 08  -21.0237 26044.7 -03436.8 -07.5172 26270.5
 22 04 2013  09 09  -21.0238 26045.1 -03437.0 -07.5176 26270.9
 22 04 2013  09 10  -21.0234 26045.3 -03437.2 -07.5179 26271.2
 22 04 2013  09 11  -21.0225 26045.4 -03437.1 -07.5177 26271.2
 22 04 2013  09 12  -21.0225 26045.6 -03437.3 -07.5179 26271.4
 22 04 2013  09 13  -21.0223 26046.0 -03437.5 -07.5184 26271.8
 22 04 2013  09 14  -21.0217 26046.3 -03437.7 -07.5187 26272.2
 22 04 2013  09 15  -21.0209 26046.6 -03437.8 -07.5187 26272.5
 22 04 2013  09 16  -21.0205 26046.8 -03437.9 -07.5189 26272.7
 22 04 2013  09 17  -21.0203 26047.0 -03437.9 -07.5190 26272.9
 22 04 2013  09 18  -21.0203 26047.1 -03438.0 -07.5190 26273.0
 22 04 2013  09 19  -21.0202 26047.2 -03438.1 -07.5193 26273.2
 22 04 2013  09 20  -21.0202 26047.3 -03438.2 -07.5194 26273.3
 22 04 2013  09 21  -21.0204 26047.4 -03438.2 -07.5194 26273.4
 22 04 2013  09 22  -21.0205 26047.6 -03438.2 -07.5195 26273.5
 22 04 2013  09 23  -21.0207 26047.6 -03438.2 -07.5194 26273.5
 22 04 2013  09 24  -21.0209 26047.6 -03438.2 -07.5194 26273.5
 22 04 2013  09 25  -21.0216 26047.6 -03438.2 -07.5194 26273.6
 22 04 2013  09 26  -21.0220 26047.7 -03438.3 -07.5195 26273.7
 22 04 2013  09 27  -21.0224 26047.8 -03438.3 -07.5196 26273.7
 22 04 2013  09 28  -21.0225 26047.9 -03438.3 -07.5196 26273.8
 22 04 2013  09 29  -21.0227 26047.9 -03438.4 -07.5197 26273.9
 22 04 2013  09 30  -21.0228 26047.9 -03438.4 -07.5196 26273.9
 22 04 2013  09 31  -21.0230 26048.0 -03438.4 -07.5196 26273.9
 22 04 2013  09 32  -21.0233 26048.0 -03438.4 -07.5197 26274.0
 22 04 2013  09 33  -21.0235 26048.2 -03438.5 -07.5198 26274.2
 22 04 2013  09 34  -21.0236 26048.3 -03438.5 -07.5199 26274.3
 22 04 2013  09 35  -21.0238 26048.4 -03438.5 -07.5199 26274.3
 22 04 2013  09 36  -21.0242 26048.4 -03438.5 -07.5198 26274.4
 22 04 2013  09 37  -21.0246 26048.5 -03438.5 -07.5199 26274.5
 22 04 2013  09 38  -21.0249 26048.6 -03438.6 -07.5200 26274.6
 22 04 2013  09 39  -21.0250 26048.7 -03438.6 -07.5199 26274.7
 22 04 2013  09 40  -21.0251 26048.8 -03438.6 -07.5198 26274.7
 22 04 2013  09 41  -21.0254 26048.8 -03438.5 -07.5198 26274.8
 22 04 2013  09 42  -21.0256 26048.9 -03438.6 -07.5198 26274.8
 22 04 2013  09 43  -21.0256 26049.0 -03438.6 -07.5198 26274.9
 22 04 2013  09 44  -21.0256 26049.0 -03438.6 -07.5197 26275.0
 22 04 2013  09 45  -21.0262 26049.2 -03438.6 -07.5198 26275.2
 22 04 2013  09 46  -21.0267 26049.3 -03438.6 -07.5199 26275.3
 22 04 2013  09 47  -21.0270 26049.5 -03438.7 -07.5199 26275.5
 22 04 2013  09 48  -21.0274 26049.7 -03438.8 -07.5200 26275.7
 22 04 2013  09 49  -21.0276 26049.9 -03438.8 -07.5200 26275.9
 22 04 2013  09 50  -21.0280 26050.0 -03438.8 -07.5199 26276.0
 22 04 2013  09 51  -21.0283 26050.0 -03438.7 -07.5198 26276.0
 22 04 2013  09 52  -21.0288 26050.1 -03438.7 -07.5197 26276.1
 22 04 2013  09 53  -21.0294 26050.2 -03438.7 -07.5196 26276.2
 22 04 2013  09 54  -21.0299 26050.3 -03438.6 -07.5196 26276.3
 22 04 2013  09 55  -21.0303 26050.4 -03438.6 -07.5194 26276.4
 22 04 2013  09 56  -21.0308 26050.5 -03438.6 -07.5194 26276.5
 22 04 2013  09 57  -21.0311 26050.6 -03438.6 -07.5193 26276.6
 22 04 2013  09 58  -21.0314 26050.9 -03438.6 -07.5194 26276.9
 22 04 2013  09 59  -21.0318 26051.2 -03438.7 -07.5194 26277.1
 22 04 2013  10 00  -21.0321 26051.3 -03438.7 -07.5193 26277.3
 22 04 2013  10 01  -21.0324 26051.5 -03438.6 -07.5192 26277.4
 22 04 2013  10 02  -21.0327 26051.7 -03438.6 -07.5191 26277.6
 22 04 2013  10 03  -21.0329 26051.9 -03438.6 -07.5190 26277.9
 22 04 2013  10 04  -21.0326 26052.1 -03438.6 -07.5189 26278.1
 22 04 2013  10 05  -21.0322 26052.4 -03438.5 -07.5186 26278.4
 22 04 2013  10 06  -21.0325 26052.6 -03438.4 -07.5185 26278.5
 22 04 2013  10 07  -21.0326 26052.7 -03438.4 -07.5183 26278.6
 22 04 2013  10 08  -21.0329 26052.8 -03438.3 -07.5181 26278.7
 22 04 2013  10 09  -21.0332 26053.1 -03438.3 -07.5180 26279.0
 22 04 2013  10 10  -21.0334 26053.4 -03438.3 -07.5180 26279.3
 22 04 2013  10 11  -21.0336 26053.6 -03438.3 -07.5179 26279.5
 22 04 2013  10 12  -21.0337 26053.8 -03438.3 -07.5178 26279.7
 22 04 2013  10 13  -21.0339 26054.1 -03438.3 -07.5177 26279.9
 22 04 2013  10 14  -21.0342 26054.3 -03438.2 -07.5176 26280.2
 22 04 2013  10 15  -21.0343 26054.5 -03438.2 -07.5174 26280.3
 22 04 2013  10 16  -21.0346 26054.6 -03438.2 -07.5173 26280.5
 22 04 2013  10 17  -21.0347 26054.9 -03438.2 -07.5172 26280.7
 22 04 2013  10 18  -21.0347 26055.1 -03438.1 -07.5171 26280.9
 22 04 2013  10 19  -21.0348 26055.3 -03438.1 -07.5169 26281.1
 22 04 2013  10 20  -21.0355 26055.4 -03438.0 -07.5168 26281.3
 22 04 2013  10 21  -21.0357 26055.7 -03438.0 -07.5167 26281.5
 22 04 2013  10 22  -21.0360 26055.9 -03438.0 -07.5167 26281.7
 22 04 2013  10 23  -21.0361 26056.1 -03438.0 -07.5166 26281.9
 22 04 2013  10 24  -21.0361 26056.4 -03438.0 -07.5165 26282.2
 22 04 2013  10 25  -21.0363 26056.6 -03438.0 -07.5164 26282.5
 22 04 2013  10 26  -21.0369 26056.9 -03438.0 -07.5163 26282.7
 22 04 2013  10 27  -21.0376 26057.2 -03438.1 -07.5163 26283.0
 22 04 2013  10 28  -21.0384 26057.5 -03438.1 -07.5164 26283.4
 22 04 2013  10 29  -21.0392 26057.9 -03438.2 -07.5164 26283.7
 22 04 2013  10 30  -21.0399 26058.1 -03438.2 -07.5163 26284.0
 22 04 2013  10 31  -21.0402 26058.3 -03438.1 -07.5160 26284.1
 22 04 2013  10 32  -21.0397 26058.5 -03437.9 -07.5157 26284.3
 22 04 2013  10 33  -21.0394 26058.6 -03437.8 -07.5155 26284.4
 22 04 2013  10 34  -21.0392 26058.7 -03437.7 -07.5152 26284.5
 22 04 2013  10 35  -21.0391 26058.9 -03437.7 -07.5150 26284.7
 22 04 2013  10 36  -21.0390 26059.1 -03437.6 -07.5148 26284.8
 22 04 2013  10 37  -21.0388 26059.2 -03437.5 -07.5146 26285.0
 22 04 2013  10 38  -21.0388 26059.3 -03437.5 -07.5145 26285.1
 22 04 2013  10 39  -21.0392 26059.4 -03437.4 -07.5143 26285.2
 22 04 2013  10 40  -21.0397 26059.6 -03437.4 -07.5143 26285.3
 22 04 2013  10 41  -21.0398 26059.9 -03437.5 -07.5143 26285.6
 22 04 2013  10 42  -21.0396 26060.2 -03437.5 -07.5142 26285.9
 22 04 2013  10 43  -21.0398 26060.4 -03437.5 -07.5141 26286.2
 22 04 2013  10 44  -21.0401 26060.7 -03437.5 -07.5140 26286.4
 22 04 2013  10 45  -21.0403 26061.0 -03437.5 -07.5140 26286.7
 22 04 2013  10 46  -21.0406 26061.2 -03437.5 -07.5139 26287.0
 22 04 2013  10 47  -21.0407 26061.5 -03437.4 -07.5138 26287.2
 22 04 2013  10 48  -21.0410 26061.7 -03437.4 -07.5137 26287.4
 22 04 2013  10 49  -21.0411 26062.0 -03437.4 -07.5136 26287.7
 22 04 2013  10 50  -21.0412 26062.2 -03437.4 -07.5135 26287.9
 22 04 2013  10 51  -21.0416 26062.4 -03437.4 -07.5134 26288.1
 22 04 2013  10 52  -21.0418 26062.8 -03437.5 -07.5135 26288.5
 22 04 2013  10 53  -21.0420 26063.2 -03437.5 -07.5135 26289.0
 22 04 2013  10 54  -21.0421 26063.7 -03437.6 -07.5135 26289.5
 22 04 2013  10 55  -21.0422 26064.1 -03437.6 -07.5134 26289.9
 22 04 2013  10 56  -21.0424 26064.4 -03437.6 -07.5133 26290.1
 22 04 2013  10 57  -21.0427 26064.8 -03437.7 -07.5134 26290.5
 22 04 2013  10 58  -21.0424 26065.5 -03437.8 -07.5135 26291.2
 22 04 2013  10 59  -21.0419 26066.3 -03437.9 -07.5135 26292.0
 22 04 2013  11 00  -21.0417 26066.9 -03438.0 -07.5135 26292.7
 22 04 2013  11 01  -21.0414 26067.5 -03438.0 -07.5133 26293.2
 22 04 2013  11 02  -21.0413 26067.9 -03438.0 -07.5131 26293.7
 22 04 2013  11 03  -21.0415 26068.4 -03438.0 -07.5130 26294.1
 22 04 2013  11 04  -21.0417 26068.6 -03437.9 -07.5127 26294.4
 22 04 2013  11 05  -21.0417 26069.0 -03437.8 -07.5125 26294.7
 22 04 2013  11 06  -21.0419 26069.5 -03437.8 -07.5123 26295.2
 22 04 2013  11 07  -21.0423 26069.6 -03437.6 -07.5119 26295.3
 22 04 2013  11 08  -21.0433 26069.5 -03437.4 -07.5113 26295.1
 22 04 2013  11 09  -21.0444 26069.3 -03437.1 -07.5108 26294.9
 22 04 2013  11 10  -21.0453 26068.8 -03436.8 -07.5102 26294.3
 22 04 2013  11 11  -21.0462 26068.5 -03436.5 -07.5098 26294.0
 22 04 2013  11 12  -21.0467 26068.6 -03436.5 -07.5098 26294.1
 22 04 2013  11 13  -21.0473 26068.9 -03436.6 -07.5099 26294.4
 22 04 2013  11 14  -21.0474 26069.8 -03436.9 -07.5102 26295.4
 22 04 2013  11 15  -21.0472 26070.5 -03437.0 -07.5103 26296.1
 22 04 2013  11 16  -21.0471 26071.0 -03437.0 -07.5102 26296.5
 22 04 2013  11 17  -21.0475 26071.5 -03437.1 -07.5102 26297.1
 22 04 2013  11 18  -21.0476 26072.1 -03437.2 -07.5101 26297.7
 22 04 2013  11 19  -21.0477 26072.6 -03437.1 -07.5099 26298.2
 22 04 2013  11 20  -21.0478 26073.2 -03437.1 -07.5098 26298.7
 22 04 2013  11 21  -21.0479 26073.7 -03437.1 -07.5096 26299.2
 22 04 2013  11 22  -21.0478 26074.6 -03437.3 -07.5096 26300.2
 22 04 2013  11 23  -21.0472 26075.4 -03437.2 -07.5094 26301.0
 22 04 2013  11 24  -21.0470 26075.7 -03437.1 -07.5089 26301.2
 22 04 2013  11 25  -21.0470 26075.6 -03436.7 -07.5082 26301.1
 22 04 2013  11 26  -21.0472 26076.2 -03436.7 -07.5079 26301.7
 22 04 2013  11 27  -21.0476 26076.3 -03436.5 -07.5075 26301.8
 22 04 2013  11 28  -21.0478 26076.4 -03436.3 -07.5070 26301.9
 22 04 2013  11 29  -21.0478 26076.7 -03436.2 -07.5067 26302.1
 22 04 2013  11 30  -21.0474 26077.5 -03436.2 -07.5066 26302.9
 22 04 2013  11 31  -21.0473 26077.4 -03436.0 -07.5061 26302.8
 22 04 2013  11 32  -21.0478 26076.6 -03435.3 -07.5049 26302.0
 22 04 2013  11 33  -21.0487 26076.6 -03435.2 -07.5047 26301.9
 22 04 2013  11 34  -21.0490 26077.4 -03435.5 -07.5050 26302.7
 22 04 2013  11 35  -21.0488 26077.2 -03435.1 -07.5043 26302.5
 22 04 2013  11 36  -21.0490 26077.2 -03434.9 -07.5037 26302.4
 22 04 2013  11 37  -21.0495 26076.5 -03434.5 -07.5032 26301.7
 22 04 2013  11 38  -21.0501 26076.6 -03434.5 -07.5030 26301.8
 22 04 2013  11 39  -21.0504 26076.6 -03434.4 -07.5028 26301.8
 22 04 2013  11 40  -21.0505 26076.6 -03434.3 -07.5027 26301.8
 22 04 2013  11 41  -21.0505 26076.6 -03434.2 -07.5025 26301.7
 22 04 2013  11 42  -21.0505 26077.1 -03434.4 -07.5027 26302.3
 22 04 2013  11 43  -21.0507 26077.2 -03434.4 -07.5026 26302.4
 22 04 2013  11 44  -21.0508 26077.7 -03434.4 -07.5027 26302.9
 22 04 2013  11 45  -21.0510 26078.0 -03434.5 -07.5028 26303.2
 22 04 2013  11 46  -21.0538 26078.2 -03434.3 -07.5022 26303.4
 22 04 2013  11 47  -21.0549 26078.8 -03434.4 -07.5022 26303.9
 22 04 2013  11 48  -21.0548 26078.9 -03434.3 -07.5020 26304.1
 22 04 2013  11 49  -21.0546 26079.5 -03434.4 -07.5021 26304.6
 22 04 2013  11 50  -21.0542 26079.4 -03434.3 -07.5018 26304.6
 22 04 2013  11 51  -21.0540 26080.0 -03434.4 -07.5019 26305.1
 22 04 2013  11 52  -21.0541 26080.4 -03434.5 -07.5020 26305.6
 22 04 2013  11 53  -21.0542 26080.9 -03434.6 -07.5021 26306.1
 22 04 2013  11 54  -21.0542 26081.2 -03434.6 -07.5020 26306.4
 22 04 2013  11 55  -21.0541 26081.5 -03434.6 -07.5019 26306.7
 22 04 2013  11 56  -21.0543 26081.5 -03434.5 -07.5016 26306.7
 22 04 2013  11 57  -21.0543 26081.9 -03434.5 -07.5017 26307.1
 22 04 2013  11 58  -21.0541 26082.6 -03434.7 -07.5018 26307.7
 22 04 2013  11 59  -21.0538 26083.1 -03434.8 -07.5019 26308.3
 22 04 2013  12 00  -21.0537 26083.2 -03434.7 -07.5017 26308.3
 22 04 2013  12 01  -21.0534 26083.6 -03434.9 -07.5019 26308.8
 22 04 2013  12 02  -21.0532 26084.3 -03435.1 -07.5021 26309.5
 22 04 2013  12 03  -21.0531 26085.2 -03435.3 -07.5023 26310.4
 22 04 2013  12 04  -21.0529 26086.0 -03435.5 -07.5025 26311.3
 22 04 2013  12 05  -21.0524 26086.7 -03435.5 -07.5025 26311.9
 22 04 2013  12 06  -21.0520 26087.4 -03435.5 -07.5023 26312.7
 22 04 2013  12 07  -21.0517 26087.8 -03435.4 -07.5019 26313.0
 22 04 2013  12 08  -21.0515 26087.8 -03435.1 -07.5013 26313.0
 22 04 2013  12 09  -21.0509 26087.7 -03434.9 -07.5008 26312.9
 22 04 2013  12 10  -21.0505 26087.9 -03434.8 -07.5006 26313.0
 22 04 2013  12 11  -21.0502 26088.0 -03434.7 -07.5004 26313.1
 22 04 2013  12 12  -21.0500 26087.8 -03434.5 -07.4999 26313.0
 22 04 2013  12 13  -21.0500 26087.6 -03434.3 -07.4996 26312.7
 22 04 2013  12 14  -21.0500 26087.5 -03434.2 -07.4994 26312.6
 22 04 2013  12 15  -21.0500 26087.3 -03434.1 -07.4993 26312.4
 22 04 2013  12 16  -21.0499 26087.5 -03434.1 -07.4992 26312.5
 22 04 2013  12 17  -21.0496 26087.7 -03434.2 -07.4993 26312.8
 22 04 2013  12 18  -21.0493 26088.1 -03434.2 -07.4993 26313.2
 22 04 2013  12 19  -21.0492 26088.4 -03434.3 -07.4994 26313.5
 22 04 2013  12 20  -21.0491 26088.6 -03434.3 -07.4992 26313.7
 22 04 2013  12 21  -21.0487 26089.0 -03434.3 -07.4992 26314.1
 22 04 2013  12 22  -21.0483 26089.5 -03434.4 -07.4992 26314.6
 22 04 2013  12 23  -21.0480 26089.7 -03434.3 -07.4990 26314.8
 22 04 2013  12 24  -21.0476 26089.8 -03434.2 -07.4987 26314.8
 22 04 2013  12 25  -21.0474 26089.7 -03434.0 -07.4984 26314.8
 22 04 2013  12 26  -21.0470 26089.8 -03433.9 -07.4981 26314.9
 22 04 2013  12 27  -21.0467 26090.0 -03433.9 -07.4980 26315.0
 22 04 2013  12 28  -21.0462 26090.1 -03433.8 -07.4979 26315.1
 22 04 2013  12 29  -21.0458 26090.1 -03433.8 -07.4977 26315.1
 22 04 2013  12 30  -21.0453 26090.0 -03433.7 -07.4975 26315.0
 22 04 2013  12 31  -21.0448 26090.3 -03433.7 -07.4975 26315.3
 22 04 2013  12 32  -21.0444 26090.7 -03433.8 -07.4976 26315.7
 22 04 2013  12 33  -21.0439 26090.9 -03433.8 -07.4976 26315.9
 22 04 2013  12 34  -21.0436 26090.9 -03433.7 -07.4974 26315.9
 22 04 2013  12 35  -21.0431 26091.0 -03433.7 -07.4973 26316.0
 22 04 2013  12 36  -21.0428 26091.1 -03433.7 -07.4972 26316.1
 22 04 2013  12 37  -21.0422 26091.1 -03433.6 -07.4971 26316.1
 22 04 2013  12 38  -21.0422 26091.2 -03433.7 -07.4972 26316.2
 22 04 2013  12 39  -21.0414 26091.4 -03433.8 -07.4973 26316.4
 22 04 2013  12 40  -21.0408 26091.5 -03433.8 -07.4973 26316.5
 22 04 2013  12 41  -21.0405 26091.6 -03433.8 -07.4973 26316.6
 22 04 2013  12 42  -21.0403 26091.9 -03433.9 -07.4974 26316.9
 22 04 2013  12 43  -21.0399 26092.3 -03434.0 -07.4976 26317.3
 22 04 2013  12 44  -21.0357 26092.8 -03434.3 -07.4981 26317.9
 22 04 2013  12 45  -21.0353 26092.7 -03434.3 -07.4981 26317.8
 22 04 2013  12 46  -21.0352 26092.4 -03434.1 -07.4978 26317.5
 22 04 2013  12 47  -21.0350 26092.7 -03434.2 -07.4979 26317.7
 22 04 2013  12 48  -21.0348 26093.2 -03434.4 -07.4983 26318.2
 22 04 2013  12 49  -21.0347 26093.5 -03434.5 -07.4984 26318.5
 22 04 2013  12 50  -21.0341 26093.0 -03434.3 -07.4980 26318.1
 22 04 2013  12 51  -21.0337 26093.0 -03434.3 -07.4979 26318.1
 22 04 2013  12 52  -21.0336 26093.6 -03434.5 -07.4984 26318.6
 22 04 2013  12 53  -21.0337 26093.9 -03434.7 -07.4986 26319.0
 22 04 2013  12 54  -21.0335 26094.2 -03434.8 -07.4987 26319.3
 22 04 2013  12 55  -21.0333 26094.6 -03434.9 -07.4989 26319.7
 22 04 2013  12 56  -21.0332 26094.9 -03435.0 -07.4990 26320.0
 22 04 2013  12 57  -21.0329 26095.2 -03435.1 -07.4990 26320.3
 22 04 2013  12 58  -21.0327 26095.1 -03435.0 -07.4989 26320.2
 22 04 2013  12 59  -21.0324 26095.2 -03435.0 -07.4990 26320.3
 22 04 2013  13 00  -21.0322 26095.5 -03435.2 -07.4992 26320.6
 22 04 2013  13 01  -21.0318 26095.9 -03435.3 -07.4994 26321.0
 22 04 2013  13 02  -21.0315 26096.5 -03435.6 -07.4997 26321.7
 22 04 2013  13 03  -21.0312 26096.9 -03435.6 -07.4998 26322.1
 22 04 2013  13 04  -21.0313 26097.0 -03435.6 -07.4997 26322.2
 22 04 2013  13 05  -21.0312 26097.1 -03435.5 -07.4994 26322.2
 22 04 2013  13 06  -21.0312 26096.8 -03435.3 -07.4991 26321.9
 22 04 2013  13 07  -21.0311 26095.9 -03435.0 -07.4986 26321.0
 22 04 2013  13 08  -21.0313 26095.6 -03434.9 -07.4985 26320.7
 22 04 2013  13 09  -21.0318 26095.4 -03434.9 -07.4986 26320.5
 22 04 2013  13 10  -21.0319 26094.9 -03434.7 -07.4984 26320.0
 22 04 2013  13 11  -21.0317 26094.5 -03434.6 -07.4982 26319.6
 22 04 2013  13 12  -21.0319 26094.0 -03434.5 -07.4982 26319.0
 22 04 2013  13 13  -21.0321 26093.5 -03434.5 -07.4983 26318.6
 22 04 2013  13 14  -21.0323 26093.3 -03434.6 -07.4985 26318.4
 22 04 2013  13 15  -21.0323 26093.2 -03434.7 -07.4989 26318.3
 22 04 2013  13 16  -21.0323 26093.1 -03434.9 -07.4992 26318.3
 22 04 2013  13 17  -21.0322 26093.2 -03435.0 -07.4996 26318.3
 22 04 2013  13 18  -21.0320 26093.5 -03435.3 -07.5000 26318.7
 22 04 2013  13 19  -21.0318 26093.8 -03435.5 -07.5003 26319.0
 22 04 2013  13 20  -21.0317 26094.3 -03435.7 -07.5007 26319.5
 22 04 2013  13 21  -21.0314 26094.4 -03435.8 -07.5010 26319.6
 22 04 2013  13 22  -21.0311 26094.3 -03435.9 -07.5010 26319.6
 22 04 2013  13 23  -21.0308 26094.5 -03436.0 -07.5012 26319.8
 22 04 2013  13 24  -21.0308 26094.9 -03436.1 -07.5014 26320.1
 22 04 2013  13 25  -21.0308 26094.8 -03436.1 -07.5014 26320.0
 22 04 2013  13 26  -21.0306 26094.8 -03436.1 -07.5014 26320.1
 22 04 2013  13 27  -21.0307 26094.8 -03436.1 -07.5014 26320.1
 22 04 2013  13 28  -21.0305 26094.8 -03436.1 -07.5015 26320.0
 22 04 2013  13 29  -21.0307 26094.5 -03436.1 -07.5015 26319.8
 22 04 2013  13 30  -21.0306 26094.3 -03436.1 -07.5014 26319.6
 22 04 2013  13 31  -21.0309 26094.3 -03436.1 -07.5016 26319.5
 22 04 2013  13 32  -21.0311 26094.1 -03436.1 -07.5016 26319.3
 22 04 2013  13 33  -21.0312 26093.9 -03436.1 -07.5017 26319.2
 22 04 2013  13 34  -21.0328 26093.7 -03436.0 -07.5016 26318.9
 22 04 2013  13 35  -21.0374 26093.4 -03436.0 -07.5015 26318.7
 22 04 2013  13 36  -21.0388 26093.4 -03436.0 -07.5016 26318.7
 22 04 2013  13 37  -21.0390 26093.3 -03436.0 -07.5017 26318.6
 22 04 2013  13 38  -21.0389 26092.8 -03435.9 -07.5016 26318.0
 22 04 2013  13 39  -21.0387 26092.6 -03435.9 -07.5017 26317.8
 22 04 2013  13 40  -21.0385 26092.6 -03436.1 -07.5020 26317.8
 22 04 2013  13 41  -21.0385 26092.7 -03436.3 -07.5024 26318.0
 22 04 2013  13 42  -21.0388 26092.6 -03436.3 -07.5025 26317.9
 22 04 2013  13 43  -21.0386 26092.6 -03436.5 -07.5028 26317.9
 22 04 2013  13 44  -21.0388 26092.8 -03436.7 -07.5032 26318.2
 22 04 2013  13 45  -21.0389 26093.0 -03436.8 -07.5034 26318.4
 22 04 2013  13 46  -21.0386 26092.8 -03436.8 -07.5034 26318.2
 22 04 2013  13 47  -21.0384 26092.6 -03436.8 -07.5034 26317.9
 22 04 2013  13 48  -21.0383 26092.4 -03436.9 -07.5037 26317.8
 22 04 2013  13 49  -21.0382 26092.6 -03437.1 -07.5041 26318.0
 22 04 2013  13 50  -21.0384 26093.1 -03437.4 -07.5047 26318.6
 22 04 2013  13 51  -21.0385 26093.2 -03437.5 -07.5048 26318.6
 22 04 2013  13 52  -21.0386 26093.0 -03437.5 -07.5049 26318.4
 22 04 2013  13 53  -21.0388 26092.8 -03437.6 -07.5051 26318.3
 22 04 2013  13 54  -21.0388 26092.6 -03437.6 -07.5053 26318.1
 22 04 2013  13 55  -21.0392 26092.8 -03437.8 -07.5057 26318.3
 22 04 2013  13 56  -21.0396 26093.0 -03438.1 -07.5061 26318.5
 22 04 2013  13 57  -21.0399 26093.0 -03438.1 -07.5063 26318.5
 22 04 2013  13 58  -21.0400 26093.0 -03438.2 -07.5064 26318.5
 22 04 2013  13 59  -21.0403 26093.0 -03438.3 -07.5066 26318.6
 22 04 2013  14 00  -21.0409 26093.0 -03438.3 -07.5067 26318.6
 22 04 2013  14 01  -21.0412 26092.7 -03438.3 -07.5067 26318.3
 22 04 2013  14 02  -21.0417 26092.5 -03438.3 -07.5068 26318.1
 22 04 2013  14 03  -21.0422 26092.6 -03438.5 -07.5072 26318.2
 22 04 2013  14 04  -21.0427 26092.5 -03438.5 -07.5072 26318.1
 22 04 2013  14 05  -21.0432 26092.1 -03438.4 -07.5071 26317.6
 22 04 2013  14 06  -21.0438 26091.7 -03438.3 -07.5071 26317.2
 22 04 2013  14 07  -21.0442 26091.5 -03438.4 -07.5073 26317.1
 22 04 2013  14 08  -21.0443 26091.4 -03438.4 -07.5074 26317.0
 22 04 2013  14 09  -21.0446 26091.3 -03438.5 -07.5075 26316.9
 22 04 2013  14 10  -21.0448 26091.0 -03438.4 -07.5075 26316.6
 22 04 2013  14 11  -21.0450 26090.7 -03438.4 -07.5076 26316.3
 22 04 2013  14 12  -21.0457 26090.7 -03438.6 -07.5079 26316.4
 22 04 2013  14 13  -21.0460 26090.9 -03438.7 -07.5082 26316.5
 22 04 2013  14 14  -21.0463 26091.0 -03438.9 -07.5085 26316.6
 22 04 2013  14 15  -21.0467 26091.0 -03438.9 -07.5085 26316.6
 22 04 2013  14 16  -21.0471 26091.1 -03439.0 -07.5086 26316.8
 22 04 2013  14 17  -21.0477 26091.5 -03439.1 -07.5089 26317.2
 22 04 2013  14 18  -21.0481 26091.7 -03439.1 -07.5089 26317.3
 22 04 2013  14 19  -21.0483 26091.5 -03439.1 -07.5087 26317.2
 22 04 2013  14 20  -21.0487 26091.6 -03439.0 -07.5086 26317.2
 22 04 2013  14 21  -21.0490 26091.6 -03438.9 -07.5084 26317.2
 22 04 2013  14 22  -21.0490 26091.4 -03438.8 -07.5082 26317.0
 22 04 2013  14 23  -21.0483 26090.8 -03438.6 -07.5080 26316.4
 22 04 2013  14 24  -21.0479 26091.2 -03439.0 -07.5086 26316.9
 22 04 2013  14 25  -21.0449 26092.4 -03439.6 -07.5097 26318.1
 22 04 2013  14 26  -21.0421 26094.3 -03440.4 -07.5108 26320.2
 22 04 2013  14 27  -21.0430 26095.7 -03440.6 -07.5109 26321.6
 22 04 2013  14 28  -21.0435 26096.7 -03440.6 -07.5106 26322.6
 22 04 2013  14 29  -21.0444 26097.7 -03440.5 -07.5101 26323.5
 22 04 2013  14 30  -21.0447 26097.5 -03439.8 -07.5087 26323.2
 22 04 2013  14 31  -21.0447 26096.5 -03439.0 -07.5071 26322.1
 22 04 2013  14 32  -21.0444 26095.2 -03438.2 -07.5057 26320.7
 22 04 2013  14 33  -21.0437 26093.6 -03437.5 -07.5048 26319.1
 22 04 2013  14 34  -21.0436 26092.7 -03437.3 -07.5045 26318.1
 22 04 2013  14 35  -21.0436 26092.4 -03437.4 -07.5048 26317.8
 22 04 2013  14 36  -21.0441 26092.4 -03437.5 -07.5051 26317.8
 22 04 2013  14 37  -21.0446 26092.0 -03437.4 -07.5050 26317.5
 22 04 2013  14 38  -21.0445 26091.5 -03437.2 -07.5048 26317.0
 22 04 2013  14 39  -21.0450 26091.6 -03437.3 -07.5050 26317.0
 22 04 2013  14 40  -21.0457 26091.4 -03437.2 -07.5047 26316.8
 22 04 2013  14 41  -21.0460 26090.9 -03436.9 -07.5042 26316.3
 22 04 2013  14 42  -21.0458 26090.1 -03436.6 -07.5037 26315.5
 22 04 2013  14 43  -21.0454 26088.9 -03436.1 -07.5031 26314.2
 22 04 2013  14 44  -21.0449 26087.7 -03435.9 -07.5029 26313.0
 22 04 2013  14 45  -21.0452 26087.3 -03436.0 -07.5034 26312.6
 22 04 2013  14 46  -21.0455 26087.7 -03436.4 -07.5040 26313.0
 22 04 2013  14 47  -21.0454 26087.9 -03436.6 -07.5043 26313.3
 22 04 2013  14 48  -21.0450 26087.9 -03436.6 -07.5044 26313.2
 22 04 2013  14 49  -21.0448 26087.6 -03436.5 -07.5043 26312.9
 22 04 2013  14 50  -21.0448 26087.4 -03436.4 -07.5043 26312.8
 22 04 2013  14 51  -21.0449 26087.3 -03436.5 -07.5043 26312.7
 22 04 2013  14 52  -21.0448 26087.2 -03436.5 -07.5044 26312.5
 22 04 2013  14 53  -21.0448 26087.4 -03436.7 -07.5048 26312.7
 22 04 2013  14 54  -21.0450 26087.6 -03436.9 -07.5051 26313.0
 22 04 2013  14 55  -21.0449 26088.0 -03436.9 -07.5052 26313.4
 22 04 2013  14 56  -21.0451 26089.0 -03437.2 -07.5055 26314.4
 22 04 2013  14 57  -21.0451 26089.7 -03437.3 -07.5055 26315.2
 22 04 2013  14 58  -21.0447 26089.9 -03437.2 -07.5051 26315.3
 22 04 2013  14 59  -21.0441 26090.0 -03437.0 -07.5048 26315.5
 22 04 2013  15 00  -21.0441 26090.5 -03437.0 -07.5046 26316.0
 22 04 2013  15 01  -21.0440 26090.9 -03436.9 -07.5042 26316.3
 22 04 2013  15 02  -21.0443 26091.1 -03436.7 -07.5038 26316.5
 22 04 2013  15 03  -21.0443 26091.0 -03436.4 -07.5032 26316.3
 22 04 2013  15 04  -21.0443 26090.5 -03436.0 -07.5024 26315.8
 22 04 2013  15 05  -21.0442 26089.9 -03435.6 -07.5016 26315.2
 22 04 2013  15 06  -21.0440 26089.0 -03435.1 -07.5010 26314.2
 22 04 2013  15 07  -21.0437 26088.4 -03434.9 -07.5006 26313.5
 22 04 2013  15 08  -21.0433 26088.2 -03434.9 -07.5007 26313.4
 22 04 2013  15 09  -21.0430 26088.1 -03435.0 -07.5008 26313.3
 22 04 2013  15 10  -21.0430 26088.2 -03435.1 -07.5011 26313.4
 22 04 2013  15 11  -21.0432 26088.7 -03435.3 -07.5014 26313.9
 22 04 2013  15 12  -21.0434 26089.0 -03435.4 -07.5015 26314.2
 22 04 2013  15 13  -21.0437 26089.2 -03435.4 -07.5015 26314.4
 22 04 2013  15 14  -21.0440 26089.2 -03435.3 -07.5013 26314.4
 22 04 2013  15 15  -21.0442 26089.1 -03435.2 -07.5010 26314.3
 22 04 2013  15 16  -21.0443 26088.8 -03435.0 -07.5008 26314.0
 22 04 2013  15 17  -21.0443 26088.6 -03434.9 -07.5006 26313.8
 22 04 2013  15 18  -21.0444 26088.3 -03434.8 -07.5005 26313.4
 22 04 2013  15 19  -21.0445 26087.9 -03434.7 -07.5004 26313.1
 22 04 2013  15 20  -21.0450 26087.7 -03434.7 -07.5005 26312.8
 22 04 2013  15 21  -21.0453 26087.6 -03434.7 -07.5005 26312.7
 22 04 2013  15 22  -21.0454 26087.6 -03434.8 -07.5006 26312.8
 22 04 2013  15 23  -21.0458 26087.5 -03434.7 -07.5005 26312.6
 22 04 2013  15 24  -21.0461 26087.5 -03434.7 -07.5005 26312.6
 22 04 2013  15 25  -21.0460 26087.4 -03434.7 -07.5005 26312.5
 22 04 2013  15 26  -21.0459 26086.8 -03434.5 -07.5001 26311.9
 22 04 2013  15 27  -21.0458 26086.3 -03434.3 -07.4999 26311.4
 22 04 2013  15 28  -21.0457 26085.9 -03434.3 -07.4999 26311.0
 22 04 2013  15 29  -21.0460 26085.8 -03434.3 -07.5002 26310.9
 22 04 2013  15 30  -21.0460 26085.5 -03434.3 -07.5001 26310.6
 22 04 2013  15 31  -21.0456 26084.8 -03434.0 -07.4998 26309.9
 22 04 2013  15 32  -21.0454 26084.3 -03434.0 -07.4999 26309.4
 22 04 2013  15 33  -21.0453 26083.9 -03434.1 -07.5001 26309.0
 22 04 2013  15 34  -21.0454 26083.6 -03434.1 -07.5003 26308.7
 22 04 2013  15 35  -21.0458 26083.5 -03434.3 -07.5007 26308.6
 22 04 2013  15 36  -21.0464 26083.5 -03434.3 -07.5007 26308.6
 22 04 2013  15 37  -21.0468 26083.4 -03434.2 -07.5006 26308.5
 22 04 2013  15 38  -21.0466 26082.9 -03434.1 -07.5004 26308.0
 22 04 2013  15 39  -21.0465 26082.2 -03433.8 -07.5001 26307.2
 22 04 2013  15 40  -21.0464 26081.6 -03433.8 -07.5002 26306.7
 22 04 2013  15 41  -21.0469 26081.6 -03434.0 -07.5006 26306.7
 22 04 2013  15 42  -21.0471 26081.6 -03434.1 -07.5008 26306.7
 22 04 2013  15 43  -21.0471 26081.1 -03433.9 -07.5006 26306.2
 22 04 2013  15 44  -21.0472 26080.8 -03434.0 -07.5008 26305.9
 22 04 2013  15 45  -21.0477 26080.7 -03434.1 -07.5010 26305.9
 22 04 2013  15 46  -21.0479 26080.8 -03434.2 -07.5014 26306.0
 22 04 2013  15 47  -21.0485 26080.9 -03434.4 -07.5016 26306.1
 22 04 2013  15 48  -21.0487 26080.7 -03434.4 -07.5016 26305.8
 22 04 2013  15 49  -21.0489 26080.5 -03434.4 -07.5018 26305.7
 22 04 2013  15 50  -21.0493 26080.6 -03434.5 -07.5019 26305.7
 22 04 2013  15 51  -21.0499 26080.8 -03434.6 -07.5021 26305.9
 22 04 2013  15 52  -21.0502 26080.9 -03434.6 -07.5022 26306.1
 22 04 2013  15 53  -21.0509 26080.9 -03434.6 -07.5021 26306.1
 22 04 2013  15 54  -21.0513 26080.8 -03434.5 -07.5019 26305.9
 22 04 2013  15 55  -21.0519 26080.5 -03434.3 -07.5016 26305.7
 22 04 2013  15 56  -21.0521 26080.2 -03434.1 -07.5013 26305.3
 22 04 2013  15 57  -21.0524 26079.9 -03433.9 -07.5009 26305.0
 22 04 2013  15 58  -21.0529 26079.8 -03433.8 -07.5008 26304.9
 22 04 2013  15 59  -21.0533 26079.7 -03433.7 -07.5005 26304.8
 22 04 2013  16 00  -21.0535 26079.5 -03433.5 -07.5002 26304.5
 22 04 2013  16 01  -21.0537 26079.3 -03433.4 -07.4999 26304.3
 22 04 2013  16 02  -21.0543 26079.2 -03433.3 -07.4998 26304.2
 22 04 2013  16 03  -21.0547 26079.2 -03433.2 -07.4996 26304.3
 22 04 2013  16 04  -21.0549 26079.1 -03433.0 -07.4992 26304.1
 22 04 2013  16 05  -21.0552 26078.8 -03432.7 -07.4985 26303.7
 22 04 2013  16 06  -21.0554 26078.2 -03432.3 -07.4978 26303.1
 22 04 2013  16 07  -21.0555 26077.7 -03431.9 -07.4972 26302.6
 22 04 2013  16 08  -21.0555 26077.1 -03431.6 -07.4967 26301.9
 22 04 2013  16 09  -21.0552 26076.4 -03431.3 -07.4962 26301.2
 22 04 2013  16 10  -21.0551 26076.1 -03431.2 -07.4962 26300.9
 22 04 2013  16 11  -21.0549 26076.2 -03431.4 -07.4965 26301.0
 22 04 2013  16 12  -21.0554 26076.9 -03431.8 -07.4971 26301.8
 22 04 2013  16 13  -21.0563 26077.7 -03432.0 -07.4974 26302.6
 22 04 2013  16 14  -21.0568 26078.3 -03432.0 -07.4972 26303.1
 22 04 2013  16 15  -21.0575 26078.5 -03431.8 -07.4968 26303.3
 22 04 2013  16 16  -21.0574 26078.6 -03431.6 -07.4962 26303.4
 22 04 2013  16 17  -21.0575 26078.6 -03431.3 -07.4957 26303.3
 22 04 2013  16 18  -21.0576 26078.5 -03431.1 -07.4952 26303.2
 22 04 2013  16 19  -21.0577 26078.3 -03430.9 -07.4948 26303.0
 22 04 2013  16 20  -21.0579 26078.2 -03430.7 -07.4944 26302.8
 22 04 2013  16 21  -21.0582 26078.2 -03430.5 -07.4941 26302.8
 22 04 2013  16 22  -21.0584 26078.1 -03430.3 -07.4937 26302.8
 22 04 2013  16 23  -21.0585 26077.9 -03430.1 -07.4932 26302.5
 22 04 2013  16 24  -21.0584 26077.6 -03429.8 -07.4927 26302.1
 22 04 2013  16 25  -21.0584 26077.2 -03429.6 -07.4924 26301.8
 22 04 2013  16 26  -21.0586 26077.0 -03429.5 -07.4922 26301.6
 22 04 2013  16 27  -21.0587 26076.8 -03429.3 -07.4919 26301.3
 22 04 2013  16 28  -21.0588 26076.5 -03429.1 -07.4915 26301.0
 22 04 2013  16 29  -21.0590 26076.4 -03429.0 -07.4913 26300.9
 22 04 2013  16 30  -21.0592 26076.2 -03428.9 -07.4910 26300.7
 22 04 2013  16 31  -21.0595 26075.9 -03428.6 -07.4906 26300.3
 22 04 2013  16 32  -21.0596 26075.1 -03428.2 -07.4900 26299.5
 22 04 2013  16 33  -21.0594 26074.2 -03427.8 -07.4893 26298.5
 22 04 2013  16 34  -21.0591 26073.3 -03427.5 -07.4890 26297.6
 22 04 2013  16 35  -21.0590 26072.5 -03427.3 -07.4887 26296.8
 22 04 2013  16 36  -21.0587 26071.8 -03427.2 -07.4886 26296.1
 22 04 2013  16 37  -21.0584 26071.1 -03427.1 -07.4887 26295.4
 22 04 2013  16 38  -21.0582 26070.6 -03427.1 -07.4889 26294.9
 22 04 2013  16 39  -21.0582 26070.4 -03427.3 -07.4893 26294.8
 22 04 2013  16 40  -21.0584 26070.4 -03427.4 -07.4896 26294.7
 22 04 2013  16 41  -21.0585 26070.3 -03427.4 -07.4896 26294.6
 22 04 2013  16 42  -21.0584 26070.0 -03427.4 -07.4896 26294.4
 22 04 2013  16 43  -21.0583 26069.9 -03427.4 -07.4896 26294.2
 22 04 2013  16 44  -21.0582 26069.7 -03427.3 -07.4896 26294.0
 22 04 2013  16 45  -21.0577 26069.4 -03427.3 -07.4895 26293.7
 22 04 2013  16 46  -21.0576 26069.3 -03427.3 -07.4897 26293.7
 22 04 2013  16 47  -21.0575 26069.3 -03427.4 -07.4898 26293.6
 22 04 2013  16 48  -21.0574 26069.3 -03427.3 -07.4898 26293.6
 22 04 2013  16 49  -21.0572 26069.3 -03427.3 -07.4897 26293.6
 22 04 2013  16 50  -21.0570 26069.2 -03427.3 -07.4897 26293.5
 22 04 2013  16 51  -21.0567 26069.1 -03427.2 -07.4895 26293.4
 22 04 2013  16 52  -21.0566 26069.0 -03427.2 -07.4895 26293.3
 22 04 2013  16 53  -21.0562 26068.8 -03427.1 -07.4893 26293.1
 22 04 2013  16 54  -21.0559 26068.5 -03426.9 -07.4890 26292.7
 22 04 2013  16 55  -21.0557 26068.0 -03426.8 -07.4889 26292.3
 22 04 2013  16 56  -21.0555 26067.8 -03426.7 -07.4889 26292.0
 22 04 2013  16 57  -21.0554 26067.6 -03426.8 -07.4890 26291.9
 22 04 2013  16 58  -21.0555 26067.5 -03426.8 -07.4890 26291.8
 22 04 2013  16 59  -21.0554 26067.2 -03426.7 -07.4889 26291.4
 22 04 2013  17 00  -21.0554 26066.9 -03426.6 -07.4888 26291.1
 22 04 2013  17 01  -21.0554 26066.6 -03426.5 -07.4887 26290.8
 22 04 2013  17 02  -21.0553 26066.2 -03426.4 -07.4886 26290.4
 22 04 2013  17 03  -21.0550 26065.7 -03426.3 -07.4884 26289.9
 22 04 2013  17 04  -21.0546 26065.1 -03426.2 -07.4884 26289.4
 22 04 2013  17 05  -21.0546 26064.8 -03426.2 -07.4885 26289.0
 22 04 2013  17 06  -21.0548 26064.5 -03426.2 -07.4886 26288.8
 22 04 2013  17 07  -21.0550 26064.2 -03426.1 -07.4886 26288.4
 22 04 2013  17 08  -21.0550 26063.9 -03426.2 -07.4887 26288.1
 22 04 2013  17 09  -21.0551 26063.8 -03426.3 -07.4890 26288.0
 22 04 2013  17 10  -21.0550 26063.8 -03426.3 -07.4891 26288.0
 22 04 2013  17 11  -21.0548 26063.8 -03426.4 -07.4893 26288.0
 22 04 2013  17 12  -21.0546 26063.9 -03426.6 -07.4897 26288.2
 22 04 2013  17 13  -21.0545 26064.1 -03426.8 -07.4900 26288.4
 22 04 2013  17 14  -21.0546 26064.6 -03427.1 -07.4905 26288.9
 22 04 2013  17 15  -21.0547 26065.1 -03427.3 -07.4908 26289.5
 22 04 2013  17 16  -21.0550 26065.8 -03427.5 -07.4911 26290.2
 22 04 2013  17 17  -21.0555 26066.4 -03427.6 -07.4912 26290.8
 22 04 2013  17 18  -21.0555 26066.7 -03427.6 -07.4910 26291.1
 22 04 2013  17 19  -21.0553 26066.9 -03427.5 -07.4908 26291.2
 22 04 2013  17 20  -21.0550 26067.0 -03427.4 -07.4905 26291.3
 22 04 2013  17 21  -21.0546 26067.2 -03427.4 -07.4905 26291.5
 22 04 2013  17 22  -21.0541 26067.3 -03427.4 -07.4904 26291.6
 22 04 2013  17 23  -21.0541 26067.4 -03427.3 -07.4902 26291.8
 22 04 2013  17 24  -21.0538 26067.3 -03427.2 -07.4900 26291.7
 22 04 2013  17 25  -21.0532 26067.0 -03427.0 -07.4896 26291.3
 22 04 2013  17 26  -21.0526 26066.7 -03426.8 -07.4894 26291.0
 22 04 2013  17 27  -21.0522 26066.3 -03426.7 -07.4892 26290.5
 22 04 2013  17 28  -21.0518 26066.0 -03426.6 -07.4892 26290.2
 22 04 2013  17 29  -21.0515 26065.7 -03426.6 -07.4892 26290.0
 22 04 2013  17 30  -21.0514 26065.5 -03426.6 -07.4893 26289.8
 22 04 2013  17 31  -21.0513 26065.3 -03426.6 -07.4893 26289.5
 22 04 2013  17 32  -21.0513 26065.1 -03426.6 -07.4894 26289.4
 22 04 2013  17 33  -21.0511 26064.9 -03426.6 -07.4894 26289.2
 22 04 2013  17 34  -21.0502 26064.5 -03426.6 -07.4895 26288.8
 22 04 2013  17 35  -21.0501 26065.0 -03427.1 -07.4905 26289.3
 22 04 2013  17 36  -21.0509 26066.0 -03427.8 -07.4915 26290.5
 22 04 2013  17 37  -21.0520 26066.8 -03428.1 -07.4920 26291.2
 22 04 2013  17 38  -21.0526 26067.2 -03428.1 -07.4920 26291.6
 22 04 2013  17 39  -21.0527 26067.4 -03428.1 -07.4919 26291.8
 22 04 2013  17 40  -21.0533 26067.7 -03428.2 -07.4920 26292.2
 22 04 2013  17 41  -21.0536 26067.8 -03428.1 -07.4918 26292.2
 22 04 2013  17 42  -21.0538 26067.4 -03427.8 -07.4913 26291.8
 22 04 2013  17 43  -21.0538 26066.9 -03427.5 -07.4907 26291.3
 22 04 2013  17 44  -21.0537 26066.3 -03427.2 -07.4902 26290.6
 22 04 2013  17 45  -21.0540 26065.6 -03427.0 -07.4900 26289.9
 22 04 2013  17 46  -21.0539 26064.8 -03426.7 -07.4896 26289.1
 22 04 2013  17 47  -21.0536 26063.8 -03426.4 -07.4892 26288.0
 22 04 2013  17 48  -21.0530 26063.1 -03426.4 -07.4894 26287.4
 22 04 2013  17 49  -21.0527 26063.1 -03426.7 -07.4900 26287.4
 22 04 2013  17 50  -21.0531 26063.3 -03427.0 -07.4908 26287.7
 22 04 2013  17 51  -21.0536 26064.0 -03427.5 -07.4916 26288.4
 22 04 2013  17 52  -21.0545 26064.8 -03427.9 -07.4922 26289.3
 22 04 2013  17 53  -21.0551 26065.5 -03428.1 -07.4925 26290.0
 22 04 2013  17 54  -21.0556 26065.8 -03428.2 -07.4925 26290.3
 22 04 2013  17 55  -21.0559 26065.9 -03428.1 -07.4924 26290.4
 22 04 2013  17 56  -21.0561 26065.9 -03428.0 -07.4922 26290.4
 22 04 2013  17 57  -21.0562 26065.8 -03427.9 -07.4918 26290.2
 22 04 2013  17 58  -21.0564 26065.5 -03427.7 -07.4916 26290.0
 22 04 2013  17 59  -21.0563 26065.1 -03427.5 -07.4912 26289.5
 22 04 2013  18 00  -21.0562 26064.5 -03427.2 -07.4907 26288.8
 22 04 2013  18 01  -21.0560 26063.9 -03426.9 -07.4904 26288.2
 22 04 2013  18 02  -21.0557 26063.2 -03426.8 -07.4902 26287.6
 22 04 2013  18 03  -21.0557 26062.8 -03426.6 -07.4901 26287.1
 22 04 2013  18 04  -21.0556 26062.5 -03426.6 -07.4900 26286.7
 22 04 2013  18 05  -21.0557 26062.2 -03426.6 -07.4901 26286.5
 22 04 2013  18 06  -21.0557 26061.9 -03426.6 -07.4902 26286.2
 22 04 2013  18 07  -21.0556 26061.6 -03426.5 -07.4901 26285.9
 22 04 2013  18 08  -21.0557 26061.4 -03426.5 -07.4902 26285.7
 22 04 2013  18 09  -21.0561 26060.9 -03426.4 -07.4901 26285.2
 22 04 2013  18 10  -21.0559 26060.2 -03426.1 -07.4896 26284.4
 22 04 2013  18 11  -21.0557 26059.3 -03425.8 -07.4893 26283.5
 22 04 2013  18 12  -21.0555 26058.6 -03425.7 -07.4893 26282.8
 22 04 2013  18 13  -21.0553 26058.0 -03425.7 -07.4894 26282.2
 22 04 2013  18 14  -21.0552 26057.5 -03425.7 -07.4895 26281.7
 22 04 2013  18 15  -21.0549 26056.9 -03425.7 -07.4897 26281.2
 22 04 2013  18 16  -21.0548 26056.6 -03425.8 -07.4900 26280.8
 22 04 2013  18 17  -21.0547 26056.4 -03425.9 -07.4904 26280.7
 22 04 2013  18 18  -21.0546 26056.4 -03426.1 -07.4908 26280.6
 22 04 2013  18 19  -21.0545 26056.4 -03426.3 -07.4911 26280.7
 22 04 2013  18 20  -21.0546 26056.6 -03426.5 -07.4915 26280.9
 22 04 2013  18 21  -21.0546 26056.7 -03426.7 -07.4918 26281.1
 22 04 2013  18 22  -21.0547 26056.9 -03426.8 -07.4921 26281.2
 22 04 2013  18 23  -21.0545 26056.9 -03426.9 -07.4922 26281.3
 22 04 2013  18 24  -21.0542 26056.7 -03426.9 -07.4923 26281.1
 22 04 2013  18 25  -21.0538 26056.5 -03426.9 -07.4924 26280.8
 22 04 2013  18 26  -21.0535 26056.2 -03426.9 -07.4924 26280.6
 22 04 2013  18 27  -21.0533 26056.0 -03426.9 -07.4926 26280.3
 22 04 2013  18 28  -21.0531 26055.8 -03427.0 -07.4928 26280.2
 22 04 2013  18 29  -21.0532 26055.6 -03427.0 -07.4929 26280.0
 22 04 2013  18 30  -21.0530 26055.3 -03427.0 -07.4930 26279.7
 22 04 2013  18 31  -21.0528 26055.0 -03427.0 -07.4931 26279.5
 22 04 2013  18 32  -21.0527 26054.9 -03427.1 -07.4933 26279.3
 22 04 2013  18 33  -21.0527 26054.5 -03427.1 -07.4933 26278.9
 22 04 2013  18 34  -21.0526 26054.1 -03426.9 -07.4932 26278.5
 22 04 2013  18 35  -21.0524 26053.7 -03426.9 -07.4932 26278.1
 22 04 2013  18 36  -21.0524 26053.5 -03426.9 -07.4933 26277.9
 22 04 2013  18 37  -21.0523 26053.1 -03426.9 -07.4934 26277.6
 22 04 2013  18 38  -21.0520 26052.9 -03426.9 -07.4935 26277.3
 22 04 2013  18 39  -21.0520 26052.8 -03427.0 -07.4938 26277.2
 22 04 2013  18 40  -21.0519 26052.5 -03427.1 -07.4939 26277.0
 22 04 2013  18 41  -21.0548 26052.1 -03426.8 -07.4935 26276.6
 22 04 2013  18 42  -21.0559 26052.0 -03426.8 -07.4935 26276.4
 22 04 2013  18 43  -21.0561 26051.9 -03426.8 -07.4936 26276.3
 22 04 2013  18 44  -21.0560 26051.4 -03426.7 -07.4935 26275.8
 22 04 2013  18 45  -21.0557 26050.9 -03426.6 -07.4933 26275.3
 22 04 2013  18 46  -21.0555 26050.5 -03426.5 -07.4933 26274.9
 22 04 2013  18 47  -21.0553 26050.2 -03426.5 -07.4934 26274.6
 22 04 2013  18 48  -21.0544 26050.0 -03426.5 -07.4934 26274.4
 22 04 2013  18 49  -21.0541 26049.8 -03426.6 -07.4936 26274.2
 22 04 2013  18 50  -21.0541 26050.0 -03426.8 -07.4940 26274.4
 22 04 2013  18 51  -21.0542 26050.2 -03427.0 -07.4943 26274.6
 22 04 2013  18 52  -21.0543 26050.2 -03427.0 -07.4944 26274.7
 22 04 2013  18 53  -21.0542 26049.8 -03426.8 -07.4941 26274.3
 22 04 2013  18 54  -21.0537 26049.3 -03426.6 -07.4938 26273.7
 22 04 2013  18 55  -21.0531 26048.8 -03426.5 -07.4937 26273.2
 22 04 2013  18 56  -21.0528 26048.6 -03426.6 -07.4940 26273.0
 22 04 2013  18 57  -21.0531 26048.7 -03426.8 -07.4944 26273.1
 22 04 2013  18 58  -21.0527 26048.5 -03426.8 -07.4944 26272.9
 22 04 2013  18 59  -21.0524 26048.3 -03426.8 -07.4945 26272.7
 22 04 2013  19 00  -21.0522 26048.2 -03426.9 -07.4947 26272.7
 22 04 2013  19 01  -21.0520 26048.3 -03427.0 -07.4949 26272.7
 22 04 2013  19 02  -21.0519 26048.3 -03427.1 -07.4951 26272.8
 22 04 2013  19 03  -21.0518 26048.4 -03427.2 -07.4953 26272.9
 22 04 2013  19 04  -21.0516 26048.3 -03427.2 -07.4954 26272.8
 22 04 2013  19 05  -21.0512 26048.2 -03427.2 -07.4953 26272.7
 22 04 2013  19 06  -21.0503 26048.1 -03427.1 -07.4953 26272.5
 22 04 2013  19 07  -21.0501 26048.0 -03427.2 -07.4954 26272.5
 22 04 2013  19 08  -21.0498 26047.9 -03427.2 -07.4955 26272.4
 22 04 2013  19 09  -21.0495 26047.8 -03427.2 -07.4955 26272.3
 22 04 2013  19 10  -21.0492 26047.7 -03427.2 -07.4955 26272.2
 22 04 2013  19 11  -21.0489 26047.5 -03427.1 -07.4955 26272.0
 22 04 2013  19 12  -21.0484 26047.3 -03427.1 -07.4954 26271.8
 22 04 2013  19 13  -21.0481 26047.1 -03427.1 -07.4954 26271.6
 22 04 2013  19 14  -21.0477 26047.0 -03427.1 -07.4955 26271.5
 22 04 2013  19 15  -21.0473 26047.0 -03427.1 -07.4956 26271.5
 22 04 2013  19 16  -21.0470 26046.9 -03427.1 -07.4956 26271.4
 22 04 2013  19 17  -21.0475 26046.7 -03427.1 -07.4957 26271.2
 22 04 2013  19 18  -21.0480 26046.6 -03427.1 -07.4957 26271.1
 22 04 2013  19 19  -21.0462 26046.5 -03427.1 -07.4956 26271.0
 22 04 2013  19 20  -21.0459 26046.3 -03427.0 -07.4956 26270.8
 22 04 2013  19 21  -21.0455 26046.1 -03426.9 -07.4955 26270.6
 22 04 2013  19 22  -21.0452 26045.9 -03426.9 -07.4954 26270.4
 22 04 2013  19 23  -21.0448 26045.9 -03427.0 -07.4956 26270.4
 22 04 2013  19 24  -21.0445 26045.9 -03427.0 -07.4957 26270.4
 22 04 2013  19 25  -21.0442 26045.8 -03427.0 -07.4957 26270.3
 22 04 2013  19 26  -21.0440 26045.8 -03427.0 -07.4957 26270.3
 22 04 2013  19 27  -21.0437 26045.8 -03427.0 -07.4957 26270.2
 22 04 2013  19 28  -21.0434 26045.7 -03427.0 -07.4958 26270.2
 22 04 2013  19 29  -21.0431 26045.6 -03427.0 -07.4957 26270.1
 22 04 2013  19 30  -21.0428 26045.4 -03427.0 -07.4957 26269.9
 22 04 2013  19 31  -21.0422 26045.1 -03426.9 -07.4956 26269.6
 22 04 2013  19 32  -21.0418 26044.9 -03426.8 -07.4955 26269.4
 22 04 2013  19 33  -21.0413 26044.8 -03426.8 -07.4956 26269.3
 22 04 2013  19 34  -21.0409 26044.9 -03426.9 -07.4958 26269.3
 22 04 2013  19 35  -21.0405 26044.8 -03427.0 -07.4960 26269.3
 22 04 2013  19 36  -21.0400 26044.9 -03427.1 -07.4961 26269.4
 22 04 2013  19 37  -21.0395 26045.1 -03427.2 -07.4964 26269.6
 22 04 2013  19 38  -21.0391 26045.3 -03427.4 -07.4966 26269.9
 22 04 2013  19 39  -21.0379 26045.6 -03427.6 -07.4970 26270.1
 22 04 2013  19 40  -21.0358 26046.0 -03427.9 -07.4975 26270.6
 22 04 2013  19 41  -21.0389 26045.7 -03427.6 -07.4970 26270.2
 22 04 2013  19 42  -21.0382 26045.7 -03427.6 -07.4969 26270.2
 22 04 2013  19 43  -21.0378 26045.7 -03427.5 -07.4969 26270.2
 22 04 2013  19 44  -21.0373 26045.6 -03427.5 -07.4968 26270.1
 22 04 2013  19 45  -21.0368 26045.4 -03427.4 -07.4967 26270.0
 22 04 2013  19 46  -21.0362 26045.4 -03427.4 -07.4967 26269.9
 22 04 2013  19 47  -21.0357 26045.3 -03427.4 -07.4967 26269.9
 22 04 2013  19 48  -21.0353 26045.2 -03427.4 -07.4966 26269.8
 22 04 2013  19 49  -21.0348 26045.1 -03427.3 -07.4966 26269.6
 22 04 2013  19 50  -21.0343 26044.8 -03427.2 -07.4964 26269.3
 22 04 2013  19 51  -21.0338 26044.5 -03427.1 -07.4963 26269.0
 22 04 2013  19 52  -21.0334 26044.2 -03427.0 -07.4962 26268.7
 22 04 2013  19 53  -21.0328 26043.9 -03427.0 -07.4962 26268.4
 22 04 2013  19 54  -21.0323 26043.7 -03427.0 -07.4962 26268.2
 22 04 2013  19 55  -21.0319 26043.6 -03427.0 -07.4964 26268.1
 22 04 2013  19 56  -21.0315 26043.5 -03427.1 -07.4965 26268.0
 22 04 2013  19 57  -21.0312 26043.5 -03427.2 -07.4967 26268.0
 22 04 2013  19 58  -21.0308 26043.5 -03427.3 -07.4969 26268.0
 22 04 2013  19 59  -21.0304 26043.6 -03427.4 -07.4971 26268.1
 22 04 2013  20 00  -21.0300 26043.6 -03427.4 -07.4972 26268.2
 22 04 2013  20 01  -21.0296 26043.6 -03427.5 -07.4973 26268.2
 22 04 2013  20 02  -21.0292 26043.7 -03427.5 -07.4974 26268.2
 22 04 2013  20 03  -21.0288 26043.7 -03427.6 -07.4975 26268.3
 22 04 2013  20 04  -21.0283 26043.7 -03427.7 -07.4977 26268.3
 22 04 2013  20 05  -21.0279 26043.8 -03427.7 -07.4977 26268.4
 22 04 2013  20 06  -21.0275 26043.8 -03427.7 -07.4978 26268.4
 22 04 2013  20 07  -21.0270 26043.9 -03427.8 -07.4980 26268.5
 22 04 2013  20 08  -21.0265 26044.0 -03427.9 -07.4982 26268.7
 22 04 2013  20 09  -21.0262 26044.2 -03428.0 -07.4983 26268.9
 22 04 2013  20 10  -21.0257 26044.3 -03428.1 -07.4984 26269.0
 22 04 2013  20 11  -21.0252 26044.4 -03428.1 -07.4984 26269.0
 22 04 2013  20 12  -21.0247 26044.3 -03428.1 -07.4985 26269.0
 22 04 2013  20 13  -21.0243 26044.4 -03428.2 -07.4987 26269.1
 22 04 2013  20 14  -21.0241 26044.6 -03428.4 -07.4990 26269.3
 22 04 2013  20 15  -21.0238 26044.8 -03428.5 -07.4992 26269.5
 22 04 2013  20 16  -21.0236 26044.8 -03428.5 -07.4992 26269.5
 22 04 2013  20 17  -21.0232 26044.7 -03428.4 -07.4990 26269.4
 22 04 2013  20 18  -21.0201 26044.8 -03428.4 -07.4991 26269.5
 22 04 2013  20 19  -21.0180 26045.0 -03428.7 -07.4995 26269.7
 22 04 2013  20 20  -21.0177 26044.9 -03428.7 -07.4996 26269.6
 22 04 2013  20 21  -21.0173 26044.8 -03428.7 -07.4995 26269.5
 22 04 2013  20 22  -21.0170 26044.8 -03428.8 -07.4997 26269.6
 22 04 2013  20 23  -21.0167 26044.9 -03428.9 -07.4999 26269.6
 22 04 2013  20 24  -21.0166 26045.1 -03429.0 -07.5002 26269.8
 22 04 2013  20 25  -21.0163 26045.2 -03429.1 -07.5004 26270.0
 22 04 2013  20 26  -21.0161 26045.3 -03429.2 -07.5006 26270.1
 22 04 2013  20 27  -21.0159 26045.4 -03429.3 -07.5007 26270.1
 22 04 2013  20 28  -21.0157 26045.5 -03429.4 -07.5009 26270.3
 22 04 2013  20 29  -21.0156 26045.6 -03429.5 -07.5011 26270.4
 22 04 2013  20 30  -21.0153 26045.8 -03429.6 -07.5014 26270.6
 22 04 2013  20 31  -21.0152 26046.1 -03429.9 -07.5018 26271.0
 22 04 2013  20 32  -21.0151 26046.6 -03430.2 -07.5022 26271.5
 22 04 2013  20 33  -21.0152 26047.1 -03430.4 -07.5026 26272.0
 22 04 2013  20 34  -21.0152 26047.4 -03430.5 -07.5029 26272.3
 22 04 2013  20 35  -21.0153 26047.6 -03430.7 -07.5031 26272.5
 22 04 2013  20 36  -21.0153 26047.7 -03430.7 -07.5032 26272.7
 22 04 2013  20 37  -21.0153 26047.8 -03430.8 -07.5033 26272.8
 22 04 2013  20 38  -21.0154 26047.7 -03430.8 -07.5033 26272.7
 22 04 2013  20 39  -21.0154 26047.4 -03430.6 -07.5030 26272.3
 22 04 2013  20 40  -21.0154 26047.1 -03430.5 -07.5029 26272.1
 22 04 2013  20 41  -21.0155 26046.9 -03430.5 -07.5029 26271.8
 22 04 2013  20 42  -21.0155 26046.8 -03430.4 -07.5028 26271.7
 22 04 2013  20 43  -21.0156 26046.7 -03430.5 -07.5029 26271.6
 22 04 2013  20 44  -21.0156 26046.7 -03430.6 -07.5031 26271.7
 22 04 2013  20 45  -21.0156 26047.0 -03430.7 -07.5034 26271.9
 22 04 2013  20 46  -21.0157 26047.4 -03431.0 -07.5039 26272.4
 22 04 2013  20 47  -21.0159 26047.8 -03431.3 -07.5044 26272.8
 22 04 2013  20 48  -21.0162 26048.1 -03431.4 -07.5046 26273.1
 22 04 2013  20 49  -21.0165 26048.3 -03431.6 -07.5049 26273.4
 22 04 2013  20 50  -21.0168 26048.5 -03431.7 -07.5051 26273.6
 22 04 2013  20 51  -21.0170 26048.7 -03431.8 -07.5053 26273.8
 22 04 2013  20 52  -21.0170 26048.8 -03431.9 -07.5054 26273.9
 22 04 2013  20 53  -21.0172 26049.1 -03432.0 -07.5055 26274.2
 22 04 2013  20 54  -21.0173 26049.3 -03432.0 -07.5056 26274.4
 22 04 2013  20 55  -21.0173 26049.5 -03432.1 -07.5057 26274.6
 22 04 2013  20 56  -21.0175 26049.6 -03432.2 -07.5058 26274.8
 22 04 2013  20 57  -21.0176 26049.8 -03432.2 -07.5058 26274.9
 22 04 2013  20 58  -21.0178 26049.8 -03432.2 -07.5057 26274.9
 22 04 2013  20 59  -21.0178 26049.7 -03432.1 -07.5056 26274.9
 22 04 2013  21 00  -21.0180 26049.7 -03432.1 -07.5055 26274.8
 22 04 2013  21 01  -21.0180 26050.0 -03432.2 -07.5057 26275.1
 22 04 2013  21 02  -21.0181 26050.7 -03432.6 -07.5064 26275.9
 22 04 2013  21 03  -21.0179 26051.5 -03433.0 -07.5070 26276.7
 22 04 2013  21 04  -21.0179 26052.2 -03433.3 -07.5074 26277.4
 22 04 2013  21 05  -21.0182 26052.6 -03433.5 -07.5077 26277.9
 22 04 2013  21 06  -21.0185 26052.9 -03433.5 -07.5078 26278.1
 22 04 2013  21 07  -21.0189 26052.9 -03433.5 -07.5077 26278.2
 22 04 2013  21 08  -21.0193 26052.9 -03433.4 -07.5075 26278.2
 22 04 2013  21 09  -21.0195 26052.8 -03433.3 -07.5072 26278.0
 22 04 2013  21 10  -21.0198 26052.6 -03433.1 -07.5069 26277.8
 22 04 2013  21 11  -21.0201 26052.4 -03433.0 -07.5067 26277.6
 22 04 2013  21 12  -21.0201 26052.2 -03432.8 -07.5064 26277.4
 22 04 2013  21 13  -21.0202 26052.0 -03432.7 -07.5062 26277.2
 22 04 2013  21 14  -21.0205 26051.8 -03432.5 -07.5059 26277.0
 22 04 2013  21 15  -21.0209 26051.7 -03432.5 -07.5058 26276.8
 22 04 2013  21 16  -21.0213 26051.6 -03432.4 -07.5058 26276.8
 22 04 2013  21 17  -21.0214 26051.7 -03432.5 -07.5059 26276.9
 22 04 2013  21 18  -21.0215 26051.9 -03432.5 -07.5059 26277.0
 22 04 2013  21 19  -21.0218 26051.9 -03432.6 -07.5060 26277.1
 22 04 2013  21 20  -21.0220 26051.9 -03432.6 -07.5060 26277.1
 22 04 2013  21 21  -21.0223 26052.0 -03432.6 -07.5060 26277.2
 22 04 2013  21 22  -21.0225 26052.1 -03432.6 -07.5061 26277.3
 22 04 2013  21 23  -21.0228 26052.1 -03432.6 -07.5060 26277.3
 22 04 2013  21 24  -21.0231 26052.1 -03432.6 -07.5059 26277.2
 22 04 2013  21 25  -21.0234 26052.0 -03432.5 -07.5059 26277.2
 22 04 2013  21 26  -21.0236 26052.1 -03432.5 -07.5058 26277.2
 22 04 2013  21 27  -21.0237 26052.0 -03432.5 -07.5058 26277.2
 22 04 2013  21 28  -21.0239 26052.0 -03432.5 -07.5058 26277.2
 22 04 2013  21 29  -21.0241 26052.0 -03432.5 -07.5057 26277.2
 22 04 2013  21 30  -21.0242 26052.0 -03432.4 -07.5056 26277.1
 22 04 2013  21 31  -21.0244 26052.0 -03432.4 -07.5056 26277.1
 22 04 2013  21 32  -21.0246 26051.9 -03432.4 -07.5056 26277.1
 22 04 2013  21 33  -21.0249 26051.9 -03432.4 -07.5055 26277.0
 22 04 2013  21 34  -21.0250 26051.9 -03432.4 -07.5055 26277.0
 22 04 2013  21 35  -21.0253 26051.8 -03432.3 -07.5055 26276.9
 22 04 2013  21 36  -21.0254 26051.8 -03432.3 -07.5054 26277.0
 22 04 2013  21 37  -21.0257 26051.8 -03432.3 -07.5054 26276.9
 22 04 2013  21 38  -21.0260 26051.7 -03432.2 -07.5053 26276.8
 22 04 2013  21 39  -21.0264 26051.6 -03432.2 -07.5053 26276.7
 22 04 2013  21 40  -21.0267 26051.6 -03432.1 -07.5051 26276.7
 22 04 2013  21 41  -21.0270 26051.5 -03432.2 -07.5052 26276.6
 22 04 2013  21 42  -21.0271 26051.5 -03432.2 -07.5052 26276.6
 22 04 2013  21 43  -21.0273 26051.4 -03432.2 -07.5052 26276.5
 22 04 2013  21 44  -21.0275 26051.4 -03432.1 -07.5052 26276.5
 22 04 2013  21 45  -21.0276 26051.4 -03432.1 -07.5052 26276.5
 22 04 2013  21 46  -21.0277 26051.4 -03432.1 -07.5052 26276.5
 22 04 2013  21 47  -21.0277 26051.4 -03432.1 -07.5052 26276.5
 22 04 2013  21 48  -21.0278 26051.3 -03432.1 -07.5052 26276.4
 22 04 2013  21 49  -21.0279 26051.2 -03432.1 -07.5051 26276.3
 22 04 2013  21 50  -21.0280 26051.1 -03432.1 -07.5051 26276.3
 22 04 2013  21 51  -21.0281 26051.1 -03432.0 -07.5051 26276.2
 22 04 2013  21 52  -21.0283 26051.1 -03432.0 -07.5050 26276.2
 22 04 2013  21 53  -21.0283 26051.2 -03432.0 -07.5050 26276.3
 22 04 2013  21 54  -21.0282 26051.2 -03432.1 -07.5052 26276.3
 22 04 2013  21 55  -21.0281 26051.2 -03432.2 -07.5053 26276.3
 22 04 2013  21 56  -21.0282 26051.3 -03432.2 -07.5054 26276.4
 22 04 2013  21 57  -21.0284 26051.3 -03432.3 -07.5055 26276.5
 22 04 2013  21 58  -21.0285 26051.4 -03432.3 -07.5056 26276.5
 22 04 2013  21 59  -21.0286 26051.4 -03432.3 -07.5055 26276.5
 22 04 2013  22 00  -21.0286 26051.2 -03432.2 -07.5055 26276.3
 22 04 2013  22 01  -21.0288 26050.9 -03432.1 -07.5053 26276.0
 22 04 2013  22 02  -21.0291 26050.8 -03432.0 -07.5051 26275.9
 22 04 2013  22 03  -21.0293 26050.5 -03431.9 -07.5050 26275.6
 22 04 2013  22 04  -21.0295 26050.2 -03431.8 -07.5048 26275.3
 22 04 2013  22 05  -21.0295 26050.0 -03431.7 -07.5046 26275.1
 22 04 2013  22 06  -21.0298 26049.8 -03431.6 -07.5045 26274.9
 22 04 2013  22 07  -21.0298 26049.8 -03431.6 -07.5045 26274.8
 22 04 2013  22 08  -21.0298 26049.7 -03431.6 -07.5045 26274.8
 22 04 2013  22 09  -21.0299 26049.7 -03431.6 -07.5046 26274.8
 22 04 2013  22 10  -21.0298 26049.7 -03431.6 -07.5046 26274.7
 22 04 2013  22 11  -21.0298 26049.7 -03431.7 -07.5047 26274.8
 22 04 2013  22 12  -21.0297 26049.8 -03431.8 -07.5048 26274.9
 22 04 2013  22 13  -21.0298 26049.8 -03431.8 -07.5050 26274.9
 22 04 2013  22 14  -21.0298 26049.8 -03431.9 -07.5051 26274.9
 22 04 2013  22 15  -21.0298 26049.8 -03431.9 -07.5051 26274.9
 22 04 2013  22 16  -21.0298 26049.9 -03431.9 -07.5051 26275.0
 22 04 2013  22 17  -21.0297 26049.9 -03432.0 -07.5052 26275.0
 22 04 2013  22 18  -21.0297 26049.8 -03432.0 -07.5052 26274.9
 22 04 2013  22 19  -21.0297 26049.8 -03432.0 -07.5053 26274.9
 22 04 2013  22 20  -21.0296 26049.8 -03432.0 -07.5053 26274.9
 22 04 2013  22 21  -21.0297 26049.7 -03432.0 -07.5053 26274.8
 22 04 2013  22 22  -21.0297 26049.6 -03431.9 -07.5053 26274.7
 22 04 2013  22 23  -21.0297 26049.5 -03431.9 -07.5052 26274.6
 22 04 2013  22 24  -21.0297 26049.5 -03431.9 -07.5053 26274.6
 22 04 2013  22 25  -21.0297 26049.4 -03431.9 -07.5053 26274.5
 22 04 2013  22 26  -21.0296 26049.3 -03431.9 -07.5052 26274.4
 22 04 2013  22 27  -21.0295 26049.2 -03431.8 -07.5052 26274.3
 22 04 2013  22 28  -21.0296 26049.2 -03431.9 -07.5053 26274.3
 22 04 2013  22 29  -21.0296 26049.1 -03431.9 -07.5053 26274.2
 22 04 2013  22 30  -21.0297 26049.0 -03431.9 -07.5053 26274.1
 22 04 2013  22 31  -21.0299 26049.0 -03431.9 -07.5053 26274.0
 22 04 2013  22 32  -21.0299 26049.2 -03432.0 -07.5055 26274.3
 22 04 2013  22 33  -21.0298 26049.1 -03432.0 -07.5056 26274.2
 22 04 2013  22 34  -21.0296 26048.9 -03432.0 -07.5056 26274.0
 22 04 2013  22 35  -21.0297 26048.7 -03431.9 -07.5055 26273.8
 22 04 2013  22 36  -21.0296 26048.6 -03431.9 -07.5055 26273.8
 22 04 2013  22 37  -21.0296 26048.6 -03431.9 -07.5055 26273.7
 22 04 2013  22 38  -21.0296 26048.5 -03431.9 -07.5056 26273.6
 22 04 2013  22 39  -21.0297 26048.5 -03432.0 -07.5057 26273.6
 22 04 2013  22 40  -21.0296 26048.6 -03432.1 -07.5059 26273.7
 22 04 2013  22 41  -21.0298 26048.4 -03432.1 -07.5059 26273.6
 22 04 2013  22 42  -21.0298 26048.5 -03432.1 -07.5060 26273.7
 22 04 2013  22 43  -21.0298 26048.6 -03432.2 -07.5062 26273.8
 22 04 2013  22 44  -21.0300 26048.5 -03432.3 -07.5063 26273.7
 22 04 2013  22 45  -21.0301 26048.5 -03432.3 -07.5063 26273.6
 22 04 2013  22 46  -21.0301 26048.5 -03432.3 -07.5063 26273.7
 22 04 2013  22 47  -21.0302 26048.6 -03432.4 -07.5065 26273.8
 22 04 2013  22 48  -21.0301 26048.6 -03432.4 -07.5065 26273.8
 22 04 2013  22 49  -21.0301 26048.6 -03432.4 -07.5066 26273.8
 22 04 2013  22 50  -21.0303 26048.8 -03432.5 -07.5067 26274.0
 22 04 2013  22 51  -21.0303 26049.0 -03432.6 -07.5069 26274.2
 22 04 2013  22 52  -21.0303 26049.0 -03432.7 -07.5070 26274.3
 22 04 2013  22 53  -21.0302 26049.2 -03432.8 -07.5072 26274.4
 22 04 2013  22 54  -21.0302 26049.3 -03432.8 -07.5073 26274.5
 22 04 2013  22 55  -21.0301 26049.4 -03432.9 -07.5074 26274.6
 22 04 2013  22 56  -21.0301 26049.3 -03432.9 -07.5073 26274.5
 22 04 2013  22 57  -21.0303 26049.2 -03432.8 -07.5073 26274.4
 22 04 2013  22 58  -21.0305 26049.1 -03432.8 -07.5072 26274.3
 22 04 2013  22 59  -21.0307 26049.1 -03432.8 -07.5072 26274.3
 22 04 2013  23 00  -21.0308 26049.0 -03432.8 -07.5073 26274.3
 22 04 2013  23 01  -21.0309 26048.9 -03432.7 -07.5071 26274.1
 22 04 2013  23 02  -21.0310 26048.8 -03432.6 -07.5070 26274.0
 22 04 2013  23 03  -21.0310 26048.7 -03432.6 -07.5069 26273.9
 22 04 2013  23 04  -21.0304 26049.4 -03432.9 -07.5073 26274.7
 22 04 2013  23 05  -21.0308 26048.3 -03432.6 -07.5070 26273.5
 22 04 2013  23 06  -21.0310 26048.4 -03432.5 -07.5068 26273.6
 22 04 2013  23 07  -21.0308 26048.4 -03432.5 -07.5069 26273.6
 22 04 2013  23 08  -21.0306 26048.8 -03432.8 -07.5073 26274.0
 22 04 2013  23 09  -21.0311 26048.1 -03432.5 -07.5069 26273.3
 22 04 2013  23 10  -21.0311 26048.5 -03432.6 -07.5071 26273.7
 22 04 2013  23 11  -21.0307 26048.9 -03432.8 -07.5074 26274.1
 22 04 2013  23 12  -21.0308 26048.4 -03432.7 -07.5072 26273.6
 22 04 2013  23 13  -21.0308 26048.5 -03432.7 -07.5073 26273.7
 22 04 2013  23 14  -21.0306 26048.5 -03432.8 -07.5074 26273.7
 22 04 2013  23 15  -21.0308 26048.4 -03432.7 -07.5073 26273.6
 22 04 2013  23 16  -21.0307 26048.5 -03432.8 -07.5075 26273.7
 22 04 2013  23 17  -21.0305 26048.6 -03432.9 -07.5076 26273.9
 22 04 2013  23 18  -21.0309 26048.1 -03432.7 -07.5074 26273.3
 22 04 2013  23 19  -21.0308 26048.2 -03432.7 -07.5073 26273.4
 22 04 2013  23 20  -21.0307 26048.2 -03432.8 -07.5074 26273.5
 22 04 2013  23 21  -21.0307 26048.0 -03432.7 -07.5074 26273.2
 22 04 2013  23 22  -21.0308 26048.1 -03432.7 -07.5074 26273.3
 22 04 2013  23 23  -21.0307 26048.1 -03432.8 -07.5075 26273.3
 22 04 2013  23 24  -21.0307 26048.1 -03432.8 -07.5075 26273.3
 22 04 2013  23 25  -21.0308 26048.0 -03432.8 -07.5075 26273.3
